# wavelength flux
3485.00480 1.78259e-17
3486.47202 1.39002e-17
3487.93924 1.64717e-17
3489.40645 1.82877e-17
3490.88386 1.99797e-17
3492.35107 1.88534e-17
3493.81829 1.65575e-17
3495.28550 2.04794e-17
3496.76291 2.09127e-17
3498.23013 1.56849e-17
3499.69734 1.64708e-17
3501.17475 2.27484e-17
3502.64196 2.14326e-17
3504.10918 1.75447e-17
3505.57640 1.89538e-17
3507.05380 2.06088e-17
3508.52102 2.17555e-17
3509.98823 1.81098e-17
3511.45545 2.14604e-17
3512.93285 2.54653e-17
3514.40007 2.09063e-17
3515.86728 2.07271e-17
3517.34469 2.13997e-17
3518.81191 2.57841e-17
3520.27912 2.40578e-17
3521.74634 2.08998e-17
3523.22374 2.29016e-17
3524.69096 2.38432e-17
3526.15817 2.37368e-17
3527.62539 2.35789e-17
3529.10280 2.22469e-17
3530.57001 2.66449e-17
3532.03723 2.39188e-17
3533.51463 1.95016e-17
3534.98185 2.13076e-17
3536.44906 2.28900e-17
3537.91628 2.35926e-17
3539.39369 2.10691e-17
3540.86090 2.16556e-17
3542.32812 2.32833e-17
3543.79533 2.35489e-17
3545.27274 2.25390e-17
3546.73995 2.34678e-17
3548.20717 2.27743e-17
3549.68458 2.12896e-17
3551.15179 1.99284e-17
3552.61901 2.17371e-17
3554.08622 2.14349e-17
3555.56363 2.02099e-17
3557.03084 2.31769e-17
3558.49806 1.94936e-17
3559.96528 1.97618e-17
3561.44268 2.25588e-17
3562.90990 2.06664e-17
3564.37711 1.83150e-17
3565.85452 1.95528e-17
3567.32173 2.05226e-17
3568.78895 2.30487e-17
3570.25617 1.93287e-17
3571.73357 1.74801e-17
3573.20079 2.05488e-17
3574.66800 1.83559e-17
3576.13522 2.01074e-17
3577.61262 2.17613e-17
3579.07984 1.98541e-17
3580.54706 1.94513e-17
3582.02446 1.89611e-17
3583.49168 1.75133e-17
3584.95889 1.71174e-17
3586.42611 1.63786e-17
3587.90351 1.78490e-17
3589.37073 1.69692e-17
3590.83795 1.62772e-17
3592.30516 1.80460e-17
3593.78257 1.65028e-17
3595.24978 1.73389e-17
3596.71700 1.96676e-17
3598.19440 1.83017e-17
3599.66162 1.92499e-17
3601.12884 1.73565e-17
3602.59605 1.96264e-17
3604.07346 2.05272e-17
3605.54067 2.04918e-17
3607.00789 2.07901e-17
3608.47511 1.98442e-17
3609.95251 2.08181e-17
3611.41973 2.21694e-17
3612.88694 2.03374e-17
3614.36435 1.77259e-17
3615.83156 1.51762e-17
3617.29878 1.58437e-17
3618.76600 2.06892e-17
3620.24340 1.93450e-17
3621.71062 1.69531e-17
3623.17783 2.00276e-17
3624.64505 2.13560e-17
3626.12245 1.83225e-17
3627.58967 1.85550e-17
3629.05689 1.91652e-17
3630.53429 1.86039e-17
3632.00151 1.96872e-17
3633.46872 2.08245e-17
3634.93594 1.80493e-17
3636.41334 1.88506e-17
3637.88056 2.09430e-17
3639.34778 1.80177e-17
3640.81499 1.95014e-17
3642.29240 1.97336e-17
3643.75961 1.79106e-17
3645.22683 1.75811e-17
3646.70423 1.65550e-17
3648.17145 1.68855e-17
3649.63867 1.81190e-17
3651.10588 1.73604e-17
3652.58329 1.65896e-17
3654.05050 1.67509e-17
3655.51772 1.60683e-17
3656.98493 1.67989e-17
3658.46234 1.67264e-17
3659.92956 1.65841e-17
3661.39677 1.72244e-17
3662.87418 1.66363e-17
3664.34139 1.85482e-17
3665.80861 1.79764e-17
3667.27582 1.69715e-17
3668.75323 1.85829e-17
3670.22045 1.69248e-17
3671.68766 1.70553e-17
3673.15488 1.67655e-17
3674.63228 1.73334e-17
3676.09950 1.92462e-17
3677.56671 1.60011e-17
3679.04412 1.72756e-17
3680.51134 2.05929e-17
3681.97855 1.84997e-17
3683.44577 1.46640e-17
3684.92317 1.93675e-17
3686.39039 2.00286e-17
3687.85760 1.81311e-17
3689.33501 1.79183e-17
3690.80223 1.82581e-17
3692.26944 1.76663e-17
3693.73666 1.62491e-17
3695.21406 1.75802e-17
3696.68128 1.85607e-17
3698.14849 1.72426e-17
3699.61571 1.70137e-17
3701.09312 1.77398e-17
3702.56033 1.91440e-17
3704.02755 1.88160e-17
3705.49476 1.73190e-17
3706.97217 1.78648e-17
3708.43938 1.71662e-17
3709.90660 1.78332e-17
3711.38401 1.60658e-17
3712.85122 1.62738e-17
3714.31844 1.84044e-17
3715.78565 1.92050e-17
3717.26306 1.76350e-17
3718.73027 1.59921e-17
3720.19749 1.77896e-17
3721.67490 1.91029e-17
3723.14211 1.64444e-17
3724.60933 1.74084e-17
3726.07654 1.72328e-17
3727.55395 1.74560e-17
3729.02116 1.91576e-17
3730.48838 1.74178e-17
3731.95560 1.68391e-17
3733.43300 1.78125e-17
3734.90022 1.82094e-17
3736.36743 1.73491e-17
3737.84484 1.75350e-17
3739.31205 1.83184e-17
3740.77927 1.74530e-17
3742.24649 1.94466e-17
3743.72389 1.92122e-17
3745.19111 1.82951e-17
3746.65832 1.87232e-17
3748.12554 1.73979e-17
3749.60295 1.96984e-17
3751.07016 1.94758e-17
3752.53738 1.88962e-17
3754.01478 1.90130e-17
3755.48200 2.01215e-17
3756.94921 2.17658e-17
3758.41643 2.16398e-17
3759.89383 2.00735e-17
3761.36105 1.72667e-17
3762.82827 1.79876e-17
3764.29548 2.08691e-17
3765.77289 2.20011e-17
3767.24010 2.13631e-17
3768.70732 2.13578e-17
3770.18472 2.21792e-17
3771.65194 2.20579e-17
3773.11916 2.11901e-17
3774.58637 2.18572e-17
3776.06378 2.02838e-17
3777.53099 1.87758e-17
3778.99821 2.15478e-17
3780.46543 2.15944e-17
3781.94283 2.15829e-17
3783.41005 2.05769e-17
3784.87726 1.89985e-17
3786.35467 2.02780e-17
3787.82188 1.80948e-17
3789.28910 1.76067e-17
3790.75632 2.01597e-17
3792.23372 1.77334e-17
3793.70094 1.47365e-17
3795.16815 1.49109e-17
3796.63537 1.59783e-17
3798.11277 1.34624e-17
3799.57999 1.41868e-17
3801.04721 1.47343e-17
3802.52461 1.44986e-17
3803.99183 1.10066e-17
3805.45904 1.18184e-17
3806.92626 1.27654e-17
3808.40366 1.17451e-17
3809.87088 1.14658e-17
3811.33810 1.14033e-17
3812.80531 9.41848e-18
3814.28272 1.06610e-17
3815.74993 1.17394e-17
3817.21715 9.60397e-18
3818.69455 9.19300e-18
3820.16177 9.83575e-18
3821.62899 7.69329e-18
3823.09620 7.05472e-18
3824.57361 8.26111e-18
3826.04082 7.25581e-18
3827.50804 7.86361e-18
3828.97525 8.52682e-18
3830.45266 7.02526e-18
3831.91988 6.79946e-18
3833.38709 8.85517e-18
3834.86450 8.50939e-18
3836.33171 7.18524e-18
3837.79893 7.55220e-18
3839.26615 8.33663e-18
3840.74355 7.46595e-18
3842.21077 6.10249e-18
3843.67798 6.64642e-18
3845.14520 7.65904e-18
3846.62260 7.44833e-18
3848.08982 6.60043e-18
3849.55703 6.55143e-18
3851.03444 8.07345e-18
3852.50166 8.35712e-18
3853.96887 6.89640e-18
3855.43609 6.63908e-18
3856.91349 7.52642e-18
3858.38071 6.61987e-18
3859.84792 6.22081e-18
3861.31514 6.46014e-18
3862.79255 6.67946e-18
3864.25976 6.73195e-18
3865.72698 5.71941e-18
3867.20438 5.62156e-18
3868.67160 6.60660e-18
3870.13881 7.03532e-18
3871.60603 7.41436e-18
3873.08344 6.14878e-18
3874.55065 6.08962e-18
3876.01787 5.15836e-18
3877.48508 5.24432e-18
3878.96249 7.39662e-18
3880.42970 6.32087e-18
3881.89692 5.94785e-18
3883.37433 6.47699e-18
3884.84154 7.97123e-18
3886.30876 6.73585e-18
3887.77597 6.49222e-18
3889.25338 6.74319e-18
3890.72059 6.28462e-18
3892.18781 6.53762e-18
3893.65503 6.60986e-18
3895.13243 6.53983e-18
3896.59965 6.14936e-18
3898.06686 7.84678e-18
3899.54427 7.47431e-18
3901.01148 6.66787e-18
3902.47870 7.68099e-18
3903.94592 8.73251e-18
3905.42332 8.31604e-18
3906.89054 7.57392e-18
3908.35775 6.75775e-18
3909.82497 7.86511e-18
3911.30237 9.76407e-18
3912.76959 8.02842e-18
3914.23681 7.79085e-18
3915.71421 9.06611e-18
3917.18143 8.98830e-18
3918.64864 9.74915e-18
3920.11586 1.11390e-17
3921.59326 1.08677e-17
3923.06048 1.00010e-17
3924.52770 9.23544e-18
3925.99491 9.80631e-18
3927.47232 1.02097e-17
3928.93953 1.11296e-17
3930.40675 1.13064e-17
3931.88415 1.20849e-17
3933.35137 1.13584e-17
3934.81859 1.13930e-17
3936.28580 1.24902e-17
3937.76321 1.26120e-17
3939.23042 1.44749e-17
3940.69764 1.41155e-17
3942.16486 1.34561e-17
3943.64226 1.42573e-17
3945.10948 1.41420e-17
3946.57669 1.48673e-17
3948.05410 1.51174e-17
3949.52131 1.50680e-17
3950.98853 1.38502e-17
3952.45575 1.47220e-17
3953.93315 1.75796e-17
3955.40037 1.80004e-17
3956.86758 1.76105e-17
3958.34499 1.82839e-17
3959.81220 1.71774e-17
3961.27942 1.73312e-17
3962.74664 1.88786e-17
3964.22404 1.93349e-17
3965.69126 1.99936e-17
3967.15847 1.97656e-17
3968.62569 1.91382e-17
3970.10309 2.00206e-17
3971.57031 2.12908e-17
3973.03753 2.13421e-17
3974.50474 2.26454e-17
3975.98215 2.24399e-17
3977.44936 2.35749e-17
3978.91658 2.53277e-17
3980.39398 2.49774e-17
3981.86120 2.48547e-17
3983.32842 2.37943e-17
3984.79563 2.24108e-17
3986.27304 2.23960e-17
3987.74025 2.40264e-17
3989.20747 2.34993e-17
3990.68487 2.64385e-17
3992.15209 2.64193e-17
3993.61931 2.74201e-17
3995.08652 2.54918e-17
3996.56393 2.53654e-17
3998.03114 2.65483e-17
3999.49836 2.76382e-17
4000.96557 2.64046e-17
4002.44298 2.57393e-17
4003.91020 2.61060e-17
4005.37741 2.50201e-17
4006.85482 2.52977e-17
4008.32203 2.62798e-17
4009.78925 2.68069e-17
4011.25646 2.76667e-17
4012.73387 2.69569e-17
4014.20109 2.56765e-17
4015.66830 2.70676e-17
4017.13552 2.77237e-17
4018.61292 2.81774e-17
4020.08014 2.72578e-17
4021.54735 2.67548e-17
4023.02476 2.55737e-17
4024.49198 2.62489e-17
4025.95919 2.63528e-17
4027.42641 2.60177e-17
4028.90381 2.57579e-17
4030.37103 2.61017e-17
4031.83824 2.55930e-17
4033.30546 2.61541e-17
4034.78287 2.58690e-17
4036.25008 2.58951e-17
4037.71730 2.61800e-17
4039.19470 2.48848e-17
4040.66192 2.42319e-17
4042.12913 2.67374e-17
4043.59635 2.75694e-17
4045.07376 2.58896e-17
4046.54097 2.54558e-17
4048.00819 2.75759e-17
4049.47540 2.82604e-17
4050.95281 2.73972e-17
4052.42002 2.66577e-17
4053.88724 2.73987e-17
4055.36465 2.70624e-17
4056.83186 2.57242e-17
4058.29908 2.54794e-17
4059.76629 2.79889e-17
4061.24370 2.83997e-17
4062.71091 2.67467e-17
4064.17813 2.71113e-17
4065.64535 2.60750e-17
4067.12275 2.52964e-17
4068.58997 2.73262e-17
4070.05718 2.82578e-17
4071.53459 2.66649e-17
4073.00180 2.63810e-17
4074.46902 2.59465e-17
4075.93624 2.57488e-17
4077.41364 2.63201e-17
4078.88086 2.53666e-17
4080.34807 2.62314e-17
4081.81529 2.69104e-17
4083.29269 2.62452e-17
4084.75991 2.65661e-17
4086.22713 2.79972e-17
4087.70453 2.71453e-17
4089.17175 2.57636e-17
4090.63896 2.50540e-17
4092.10618 2.54322e-17
4093.58358 2.59237e-17
4095.05080 2.63277e-17
4096.51802 2.60368e-17
4097.98523 2.50126e-17
4099.46264 2.52179e-17
4100.92985 2.54725e-17
4102.39707 2.62586e-17
4103.87447 2.58168e-17
4105.34169 2.49685e-17
4106.80891 2.46763e-17
4108.27612 2.55313e-17
4109.75353 2.43622e-17
4111.22074 2.48711e-17
4112.68796 2.45260e-17
4114.15518 2.35931e-17
4115.63258 2.37570e-17
4117.09980 2.25060e-17
4118.56701 2.13776e-17
4120.04442 2.19294e-17
4121.51163 2.20220e-17
4122.97885 2.29753e-17
4124.44607 2.36898e-17
4125.92347 2.38020e-17
4127.39069 2.29137e-17
4128.85790 2.12519e-17
4130.32512 2.18020e-17
4131.80252 2.05529e-17
4133.26974 2.00254e-17
4134.73696 2.06361e-17
4136.21436 2.10869e-17
4137.68158 1.97562e-17
4139.14879 1.93073e-17
4140.61601 2.05545e-17
4142.09341 1.90532e-17
4143.56063 1.87809e-17
4145.02785 1.93911e-17
4146.49506 2.01952e-17
4147.97247 1.92209e-17
4149.43968 1.91274e-17
4150.90690 2.05182e-17
4152.38430 1.99449e-17
4153.85152 1.90511e-17
4155.31874 1.92099e-17
4156.78595 1.89812e-17
4158.26336 1.89917e-17
4159.73057 1.79023e-17
4161.19779 1.76100e-17
4162.66500 1.84042e-17
4164.14241 1.87629e-17
4165.60963 1.80985e-17
4167.07684 1.80953e-17
4168.55425 1.84684e-17
4170.02146 1.89605e-17
4171.48868 1.84706e-17
4172.95590 1.86084e-17
4174.43330 1.84226e-17
4175.90052 1.83970e-17
4177.36773 1.78354e-17
4178.83495 1.86146e-17
4180.31235 1.95213e-17
4181.77957 1.77051e-17
4183.24678 1.66777e-17
4184.72419 1.76096e-17
4186.19141 1.73676e-17
4187.65862 1.64338e-17
4189.12584 1.66919e-17
4190.60324 1.65805e-17
4192.07046 1.72425e-17
4193.53767 1.68346e-17
4195.00489 1.55139e-17
4196.48230 1.55247e-17
4197.94951 1.56889e-17
4199.41673 1.64095e-17
4200.89413 1.64527e-17
4202.36135 1.58184e-17
4203.82856 1.56948e-17
4205.29578 1.72548e-17
4206.77319 1.61868e-17
4208.24040 1.49570e-17
4209.70762 1.61102e-17
4211.17483 1.73340e-17
4212.65224 1.57732e-17
4214.11945 1.63688e-17
4215.58667 1.81274e-17
4217.06408 1.70407e-17
4218.53129 1.59229e-17
4219.99851 1.67059e-17
4221.46572 1.61374e-17
4222.94313 1.55074e-17
4224.41035 1.57318e-17
4225.87756 1.44914e-17
4227.35497 1.31432e-17
4228.82218 1.48590e-17
4230.28940 1.62609e-17
4231.75661 1.58939e-17
4233.23402 1.64594e-17
4234.70123 1.78011e-17
4236.16845 1.81828e-17
4237.63567 1.72459e-17
4239.11307 1.73174e-17
4240.58029 1.75020e-17
4242.04750 1.79483e-17
4243.52491 1.77729e-17
4244.99212 1.69199e-17
4246.45934 1.74340e-17
4247.92656 1.79597e-17
4249.40396 1.77965e-17
4250.87118 1.77146e-17
4252.33839 1.71196e-17
4253.80561 1.71319e-17
4255.28301 1.74879e-17
4256.75023 1.79510e-17
4258.21745 1.84642e-17
4259.68466 1.75566e-17
4261.16207 1.75592e-17
4262.62928 1.83769e-17
4264.09650 1.74778e-17
4265.57390 1.74749e-17
4267.04112 1.77602e-17
4268.50834 1.82277e-17
4269.97555 1.90760e-17
4271.45296 1.91455e-17
4272.92017 1.83199e-17
4274.38739 1.75193e-17
4275.85461 1.77051e-17
4277.33201 1.79211e-17
4278.79923 1.75091e-17
4280.26644 1.85118e-17
4281.74385 1.81108e-17
4283.21106 1.74722e-17
4284.67828 1.79319e-17
4286.14550 1.77394e-17
4287.62290 1.79818e-17
4289.09012 1.68894e-17
4290.55733 1.76470e-17
4292.03474 1.76356e-17
4293.50195 1.66632e-17
4294.96917 1.70027e-17
4296.43639 1.74891e-17
4297.91379 1.74144e-17
4299.38101 1.77352e-17
4300.84822 1.79172e-17
4302.31544 1.81271e-17
4303.79284 1.77446e-17
4305.26006 1.77848e-17
4306.72728 1.76517e-17
4308.20468 1.74740e-17
4309.67190 1.84635e-17
4311.13911 1.86090e-17
4312.60633 1.90852e-17
4314.08373 1.82020e-17
4315.55095 1.68238e-17
4317.01817 1.70608e-17
4318.48538 1.79093e-17
4319.96279 1.78964e-17
4321.43000 1.77862e-17
4322.89722 1.72011e-17
4324.37462 1.79899e-17
4325.84184 1.73560e-17
4327.30906 1.65312e-17
4328.77627 1.62864e-17
4330.25368 1.71236e-17
4331.72089 1.74049e-17
4333.18811 1.78104e-17
4334.65532 1.69100e-17
4336.13273 1.65142e-17
4337.59995 1.68694e-17
4339.06716 1.79142e-17
4340.54457 1.81875e-17
4342.01178 1.87364e-17
4343.47900 1.76284e-17
4344.94621 1.74365e-17
4346.42362 1.85713e-17
4347.89084 1.81817e-17
4349.35805 1.74355e-17
4350.82527 1.79678e-17
4352.30267 1.71766e-17
4353.76989 1.66887e-17
4355.23710 1.66572e-17
4356.71451 1.75116e-17
4358.18173 1.75180e-17
4359.64894 1.72405e-17
4361.11616 1.70195e-17
4362.59356 1.67982e-17
4364.06078 1.67697e-17
4365.52799 1.79656e-17
4366.99521 1.76056e-17
4368.47262 1.77115e-17
4369.93983 1.83915e-17
4371.40705 1.81176e-17
4372.88445 1.78191e-17
4374.35167 1.77202e-17
4375.81888 1.71012e-17
4377.28610 1.73762e-17
4378.76351 1.78747e-17
4380.23072 1.76981e-17
4381.69794 1.75152e-17
4383.16515 1.64795e-17
4384.64256 1.60662e-17
4386.10977 1.61307e-17
4387.57699 1.77946e-17
4389.05440 1.78156e-17
4390.52161 1.75459e-17
4391.98883 1.68746e-17
4393.45604 1.64070e-17
4394.93345 1.70266e-17
4396.40067 1.70883e-17
4397.86788 1.64509e-17
4399.33510 1.62365e-17
4400.81250 1.68294e-17
4402.27972 1.77416e-17
4403.74693 1.77539e-17
4405.22434 1.74676e-17
4406.69155 1.71981e-17
4408.15877 1.71989e-17
4409.62599 1.76868e-17
4411.10339 1.72108e-17
4412.57061 1.69502e-17
4414.03782 1.59242e-17
4415.50504 1.65703e-17
4416.98244 1.78200e-17
4418.44966 1.80103e-17
4419.91688 1.70003e-17
4421.39428 1.69736e-17
4422.86150 1.68214e-17
4424.32871 1.59531e-17
4425.79593 1.66248e-17
4427.27333 1.67668e-17
4428.74055 1.60877e-17
4430.20777 1.60625e-17
4431.68517 1.66663e-17
4433.15239 1.66497e-17
4434.61960 1.60704e-17
4436.08682 1.59541e-17
4437.56423 1.59712e-17
4439.03144 1.58737e-17
4440.49866 1.46357e-17
4441.96587 1.39698e-17
4443.44328 1.50414e-17
4444.91049 1.51787e-17
4446.37771 1.47440e-17
4447.84493 1.37866e-17
4449.32233 1.29484e-17
4450.78955 1.26595e-17
4452.25676 1.28907e-17
4453.73417 1.31265e-17
4455.20138 1.33900e-17
4456.66860 1.31478e-17
4458.13582 1.24472e-17
4459.61322 1.21370e-17
4461.08044 1.22011e-17
4462.54765 1.16242e-17
4464.01487 1.15273e-17
4465.49227 1.13244e-17
4466.95949 1.08315e-17
4468.42671 1.09901e-17
4469.90411 1.01240e-17
4471.37133 8.91078e-18
4472.83854 9.51327e-18
4474.30576 1.10184e-17
4475.78316 1.16249e-17
4477.25038 1.10049e-17
4478.71760 1.06658e-17
4480.18481 1.00919e-17
4481.66222 1.02795e-17
4483.12943 1.06181e-17
4484.59665 1.02587e-17
4486.07405 1.04420e-17
4487.54127 1.02210e-17
4489.00849 9.82191e-18
4490.47570 1.03938e-17
4491.95311 1.05990e-17
4493.42032 1.04567e-17
4494.88754 1.07861e-17
4496.36494 1.07962e-17
4497.83216 1.06922e-17
4499.29938 1.07195e-17
4500.76659 1.09236e-17
4502.24400 1.07086e-17
4503.71121 1.05394e-17
4505.17843 1.09805e-17
4506.64564 1.10243e-17
4508.12305 1.11120e-17
4509.59027 1.09990e-17
4511.05748 1.08369e-17
4512.52470 1.09612e-17
4514.00210 1.10656e-17
4515.46932 1.11835e-17
4516.93653 1.15491e-17
4518.41394 1.11992e-17
4519.88116 1.09669e-17
4521.34837 1.14580e-17
4522.81559 1.15258e-17
4524.29299 1.19690e-17
4525.76021 1.20768e-17
4527.22743 1.17576e-17
4528.70483 1.21429e-17
4530.17205 1.20399e-17
4531.63926 1.19164e-17
4533.10648 1.20703e-17
4534.58388 1.25548e-17
4536.05110 1.25456e-17
4537.51832 1.22528e-17
4538.98553 1.17962e-17
4540.46294 1.21446e-17
4541.93015 1.30904e-17
4543.39737 1.26759e-17
4544.87477 1.25017e-17
4546.34199 1.27922e-17
4547.80920 1.27145e-17
4549.27642 1.27808e-17
4550.75383 1.28768e-17
4552.22104 1.26083e-17
4553.68826 1.24044e-17
4555.15547 1.32155e-17
4556.63288 1.41683e-17
4558.10009 1.41212e-17
4559.56731 1.38218e-17
4561.04472 1.38209e-17
4562.51193 1.39547e-17
4563.97915 1.44829e-17
4565.44636 1.47032e-17
4566.92377 1.45901e-17
4568.39098 1.45805e-17
4569.85820 1.49727e-17
4571.32542 1.55090e-17
4572.80282 1.47587e-17
4574.27004 1.42447e-17
4575.73725 1.53256e-17
4577.21466 1.53478e-17
4578.68187 1.54443e-17
4580.14909 1.57114e-17
4581.61631 1.57362e-17
4583.09371 1.63856e-17
4584.56093 1.66999e-17
4586.02814 1.67147e-17
4587.49536 1.66761e-17
4588.97277 1.69075e-17
4590.43998 1.72003e-17
4591.90720 1.73585e-17
4593.38460 1.74391e-17
4594.85182 1.72159e-17
4596.31903 1.66561e-17
4597.78625 1.67823e-17
4599.26365 1.76184e-17
4600.73087 1.80493e-17
4602.19809 1.81778e-17
4603.66530 1.80852e-17
4605.14271 1.80955e-17
4606.60992 1.80156e-17
4608.07714 1.83858e-17
4609.55454 1.85124e-17
4611.02176 1.78405e-17
4612.48898 1.75946e-17
4613.95619 1.81597e-17
4615.43360 1.87575e-17
4616.90081 1.83144e-17
4618.36803 1.82152e-17
4619.83525 1.87515e-17
4621.31265 1.87282e-17
4622.77987 1.82482e-17
4624.24708 1.82241e-17
4625.72449 1.95778e-17
4627.19170 1.91246e-17
4628.65892 1.84062e-17
4630.12614 1.93102e-17
4631.60354 1.96130e-17
4633.07076 1.92599e-17
4634.53797 1.96737e-17
4636.00519 1.94523e-17
4637.48259 1.95911e-17
4638.94981 2.01082e-17
4640.41703 2.02857e-17
4641.89443 1.99869e-17
4643.36165 1.99230e-17
4644.82886 1.99190e-17
4646.29608 2.04206e-17
4647.77348 2.14823e-17
4649.24070 2.18414e-17
4650.70792 2.08573e-17
4652.17513 2.06353e-17
4653.65254 2.13885e-17
4655.11975 2.13880e-17
4656.58697 2.13705e-17
4658.06437 2.13996e-17
4659.53159 2.07541e-17
4660.99881 2.07005e-17
4662.46602 2.08448e-17
4663.94343 2.04318e-17
4665.41064 2.02850e-17
4666.87786 2.03206e-17
4668.34507 2.02074e-17
4669.82248 2.02405e-17
4671.28970 2.05104e-17
4672.75691 2.05775e-17
4674.23432 2.08437e-17
4675.70153 2.06997e-17
4677.16875 2.01683e-17
4678.63597 2.02529e-17
4680.11337 2.02385e-17
4681.58059 2.00349e-17
4683.04780 1.96251e-17
4684.51502 1.90540e-17
4685.99242 1.94675e-17
4687.45964 2.00690e-17
4688.92685 2.00209e-17
4690.40426 1.99727e-17
4691.87148 1.93036e-17
4693.33869 1.86852e-17
4694.80591 1.92500e-17
4696.28331 1.93051e-17
4697.75053 1.89826e-17
4699.21774 1.87966e-17
4700.68496 1.86997e-17
4702.16237 1.86684e-17
4703.62958 1.89746e-17
4705.09680 1.93506e-17
4706.57420 1.94964e-17
4708.04142 1.87924e-17
4709.50863 1.87447e-17
4710.97585 1.93934e-17
4712.45326 1.91117e-17
4713.92047 1.89008e-17
4715.38769 1.88188e-17
4716.85490 1.87183e-17
4718.33231 1.90726e-17
4719.79952 1.88566e-17
4721.26674 1.83187e-17
4722.74415 1.85452e-17
4724.21136 1.90920e-17
4725.67858 1.89818e-17
4727.14579 1.85047e-17
4728.62320 1.91026e-17
4730.09041 1.95956e-17
4731.55763 1.90832e-17
4733.02485 1.94452e-17
4734.50225 1.91169e-17
4735.96947 1.85615e-17
4737.43668 1.87348e-17
4738.91409 1.90570e-17
4740.38130 1.92299e-17
4741.84852 1.87507e-17
4743.31574 1.83314e-17
4744.79314 1.88952e-17
4746.26036 1.92536e-17
4747.72757 1.87592e-17
4749.19479 1.82207e-17
4750.67220 1.81310e-17
4752.13941 1.85868e-17
4753.60663 1.86487e-17
4755.08403 1.76095e-17
4756.55125 1.74267e-17
4758.01846 1.79332e-17
4759.48568 1.78617e-17
4760.96308 1.72681e-17
4762.43030 1.77568e-17
4763.89752 1.80231e-17
4765.37492 1.77410e-17
4766.84214 1.75716e-17
4768.30935 1.78604e-17
4769.77657 1.83441e-17
4771.25397 1.85704e-17
4772.72119 1.79222e-17
4774.18841 1.71644e-17
4775.65562 1.73676e-17
4777.13303 1.80979e-17
4778.60024 1.78279e-17
4780.06746 1.76704e-17
4781.54486 1.79908e-17
4783.01208 1.80169e-17
4784.47930 1.73606e-17
4785.94651 1.75185e-17
4787.42392 1.80036e-17
4788.89113 1.73117e-17
4790.35835 1.74754e-17
4791.82557 1.74530e-17
4793.30297 1.69340e-17
4794.77019 1.72754e-17
4796.23740 1.74375e-17
4797.70462 1.74263e-17
4799.18202 1.76174e-17
4800.64924 1.74438e-17
4802.11646 1.68680e-17
4803.59386 1.64789e-17
4805.06108 1.67620e-17
4806.52829 1.67557e-17
4807.99551 1.70372e-17
4809.47291 1.69504e-17
4810.94013 1.66000e-17
4812.40735 1.66354e-17
4813.87456 1.65801e-17
4815.35197 1.69444e-17
4816.81918 1.65501e-17
4818.28640 1.65671e-17
4819.76380 1.64344e-17
4821.23102 1.59121e-17
4822.69824 1.67338e-17
4824.16545 1.62968e-17
4825.64286 1.57078e-17
4827.11007 1.59002e-17
4828.57729 1.55474e-17
4830.05469 1.55000e-17
4831.52191 1.52652e-17
4832.98913 1.52955e-17
4834.45634 1.51934e-17
4835.93375 1.45117e-17
4837.40096 1.42301e-17
4838.86818 1.46611e-17
4840.33540 1.47598e-17
4841.81280 1.45145e-17
4843.28002 1.42452e-17
4844.74723 1.36240e-17
4846.22464 1.35790e-17
4847.69185 1.41290e-17
4849.15907 1.38357e-17
4850.62628 1.32450e-17
4852.10369 1.30590e-17
4853.57091 1.29737e-17
4855.03812 1.29433e-17
4856.50534 1.28071e-17
4857.98274 1.21988e-17
4859.44996 1.14852e-17
4860.91717 1.16338e-17
4862.39458 1.17510e-17
4863.86180 1.10548e-17
4865.32901 1.07528e-17
4866.79623 1.05480e-17
4868.27363 1.04329e-17
4869.74085 1.05926e-17
4871.20806 1.02399e-17
4872.67528 9.79757e-18
4874.15269 9.57186e-18
4875.61990 9.68615e-18
4877.08712 1.01171e-17
4878.56452 1.04797e-17
4880.03174 1.00511e-17
4881.49895 9.11566e-18
4882.96617 8.90271e-18
4884.44358 9.07838e-18
4885.91079 8.85311e-18
4887.37801 8.68705e-18
4888.84522 8.97606e-18
4890.32263 8.92315e-18
4891.78984 8.80593e-18
4893.25706 8.67492e-18
4894.73447 9.17162e-18
4896.20168 9.32140e-18
4897.66890 8.88608e-18
4899.13611 9.39761e-18
4900.61352 9.97728e-18
4902.08073 1.00136e-17
4903.54795 9.21405e-18
4905.01517 8.83544e-18
4906.49257 9.53310e-18
4907.95979 9.53053e-18
4909.42700 9.44110e-18
4910.90441 9.77937e-18
4912.37162 1.00154e-17
4913.83884 1.01115e-17
4915.30606 1.02336e-17
4916.78346 1.02255e-17
4918.25068 9.83417e-18
4919.71789 9.85656e-18
4921.18511 1.05365e-17
4922.66251 1.11572e-17
4924.12973 1.10462e-17
4925.59695 1.12195e-17
4927.07435 1.16098e-17
4928.54157 1.12710e-17
4930.00878 1.08875e-17
4931.47600 1.09711e-17
4932.95340 1.12507e-17
4934.42062 1.16293e-17
4935.88784 1.15340e-17
4937.35505 1.10050e-17
4938.83246 1.05945e-17
4940.29967 1.10244e-17
4941.76689 1.17521e-17
4943.24429 1.13444e-17
4944.71151 1.06835e-17
4946.17873 1.05134e-17
4947.64594 1.04422e-17
4949.12335 1.05273e-17
4950.59056 1.02484e-17
4952.05778 9.82751e-18
4953.52500 9.87930e-18
4955.00240 1.00864e-17
4956.46962 1.01960e-17
4957.93683 9.89243e-18
4959.41424 9.66648e-18
4960.88145 9.33075e-18
4962.34867 9.36270e-18
4963.81589 9.98009e-18
4965.29329 9.55605e-18
4966.76051 9.28915e-18
4968.22772 9.32524e-18
4969.70513 9.05456e-18
4971.17234 8.95675e-18
4972.63956 9.06003e-18
4974.10678 9.02785e-18
4975.58418 8.63680e-18
4977.05140 8.88843e-18
4978.51861 9.43268e-18
4979.98583 9.47280e-18
4981.46323 9.52041e-18
4982.93045 9.49482e-18
4984.39767 9.27716e-18
4985.86488 8.88691e-18
4987.34229 9.10309e-18
4988.80950 9.63823e-18
4990.27672 9.70926e-18
4991.75412 9.97606e-18
4993.22134 9.72044e-18
4994.68856 9.74362e-18
4996.15577 1.05156e-17
4997.63318 1.02425e-17
4999.10039 9.95013e-18
5000.56761 1.01291e-17
5002.03482 1.04092e-17
5003.51223 1.12442e-17
5004.97945 1.19379e-17
5006.44666 1.14155e-17
5007.92407 1.07298e-17
5009.39128 1.13455e-17
5010.85850 1.14543e-17
5012.32571 1.08700e-17
5013.80312 1.10031e-17
5015.27034 1.15427e-17
5016.73755 1.17954e-17
5018.20477 1.17964e-17
5019.68217 1.22513e-17
5021.14939 1.22790e-17
5022.61660 1.19603e-17
5024.09401 1.24207e-17
5025.56123 1.28810e-17
5027.02844 1.34043e-17
5028.49566 1.39664e-17
5029.97306 1.37556e-17
5031.44028 1.40853e-17
5032.90749 1.43891e-17
5034.38490 1.39287e-17
5035.85212 1.43307e-17
5037.31933 1.44993e-17
5038.78655 1.45163e-17
5040.26395 1.48279e-17
5041.73117 1.42072e-17
5043.19838 1.43265e-17
5044.66560 1.45470e-17
5046.14301 1.47668e-17
5047.61022 1.51849e-17
5049.07744 1.49444e-17
5050.54465 1.49733e-17
5052.02206 1.49360e-17
5053.48927 1.48869e-17
5054.95649 1.49836e-17
5056.43390 1.51610e-17
5057.90111 1.54040e-17
5059.36833 1.55268e-17
5060.83554 1.53659e-17
5062.31295 1.50765e-17
5063.78017 1.54329e-17
5065.24738 1.55578e-17
5066.72479 1.50274e-17
5068.19200 1.52064e-17
5069.65922 1.54575e-17
5071.12643 1.52943e-17
5072.60384 1.44612e-17
5074.07105 1.37568e-17
5075.53827 1.41650e-17
5077.00549 1.42076e-17
5078.48289 1.41975e-17
5079.95011 1.46029e-17
5081.41732 1.43953e-17
5082.89473 1.37705e-17
5084.36194 1.33274e-17
5085.82916 1.36034e-17
5087.29638 1.38807e-17
5088.77378 1.35712e-17
5090.24100 1.32274e-17
5091.70821 1.29361e-17
5093.17543 1.25368e-17
5094.65283 1.22263e-17
5096.12005 1.21739e-17
5097.58727 1.20062e-17
5099.06467 1.14555e-17
5100.53189 1.08261e-17
5101.99910 1.06459e-17
5103.46632 1.07982e-17
5104.94372 1.07838e-17
5106.41094 1.01674e-17
5107.87816 9.92378e-18
5109.34537 1.02183e-17
5110.82278 1.00387e-17
5112.28999 9.91907e-18
5113.75721 9.73268e-18
5115.23462 9.30928e-18
5116.70183 9.46706e-18
5118.16905 9.44608e-18
5119.63626 8.72785e-18
5121.11367 8.82902e-18
5122.58088 9.59253e-18
5124.04810 9.32614e-18
5125.51532 8.84152e-18
5126.99272 8.93948e-18
5128.45994 8.82405e-18
5129.92715 8.87511e-18
5131.40456 9.07850e-18
5132.87177 9.23987e-18
5134.33899 9.33617e-18
5135.80621 9.09605e-18
5137.28361 9.37083e-18
5138.75083 9.63028e-18
5140.21804 9.19511e-18
5141.68526 8.78616e-18
5143.16266 9.19873e-18
5144.62988 9.65635e-18
5146.09710 9.18715e-18
5147.57450 8.97604e-18
5149.04172 8.93517e-18
5150.50893 8.97855e-18
5151.97615 9.82365e-18
5153.45355 1.00389e-17
5154.92077 9.55818e-18
5156.38799 9.88084e-18
5157.85520 1.01665e-17
5159.33261 9.77811e-18
5160.79982 9.67989e-18
5162.26704 9.82853e-18
5163.74444 9.85445e-18
5165.21166 1.00533e-17
5166.67888 1.05550e-17
5168.14609 1.08526e-17
5169.62350 1.07299e-17
5171.09071 1.08108e-17
5172.55793 1.07140e-17
5174.02514 1.03583e-17
5175.50255 1.06055e-17
5176.96977 1.11352e-17
5178.43698 1.15620e-17
5179.91439 1.17426e-17
5181.38160 1.16636e-17
5182.84882 1.16054e-17
5184.31603 1.15203e-17
5185.79344 1.16923e-17
5187.26066 1.17445e-17
5188.72787 1.18613e-17
5190.19509 1.25624e-17
5191.67249 1.25470e-17
5193.13971 1.20242e-17
5194.60692 1.19931e-17
5196.08433 1.20547e-17
5197.55155 1.20865e-17
5199.01876 1.24031e-17
5200.48598 1.29241e-17
5201.96338 1.28529e-17
5203.43060 1.26628e-17
5204.89782 1.28979e-17
5206.36503 1.30730e-17
5207.84244 1.32593e-17
5209.30965 1.29419e-17
5210.77687 1.27239e-17
5212.25427 1.31159e-17
5213.72149 1.36548e-17
5215.18870 1.36761e-17
5216.65592 1.33120e-17
5218.13333 1.34022e-17
5219.60054 1.36521e-17
5221.06776 1.33610e-17
5222.53497 1.31879e-17
5224.01238 1.35493e-17
5225.47959 1.35664e-17
5226.94681 1.28687e-17
5228.42422 1.26529e-17
5229.89143 1.29101e-17
5231.35865 1.27928e-17
5232.82586 1.29096e-17
5234.30327 1.34217e-17
5235.77048 1.31083e-17
5237.23770 1.25855e-17
5238.70492 1.29396e-17
5240.18232 1.28042e-17
5241.64954 1.28783e-17
5243.11675 1.30176e-17
5244.59416 1.23142e-17
5246.06137 1.23703e-17
5247.52859 1.28954e-17
5248.99581 1.26755e-17
5250.47321 1.23412e-17
5251.94043 1.24293e-17
5253.40764 1.30108e-17
5254.87486 1.29223e-17
5256.35226 1.27585e-17
5257.81948 1.27305e-17
5259.28670 1.24562e-17
5260.76410 1.26364e-17
5262.23132 1.27454e-17
5263.69853 1.25502e-17
5265.16575 1.25851e-17
5266.64315 1.25800e-17
5268.11037 1.24854e-17
5269.57759 1.22896e-17
5271.04480 1.21283e-17
5272.52221 1.21697e-17
5273.98942 1.24146e-17
5275.45664 1.23801e-17
5276.93404 1.26492e-17
5278.40126 1.24644e-17
5279.86848 1.22044e-17
5281.33569 1.20818e-17
5282.81310 1.21494e-17
5284.28031 1.22939e-17
5285.74753 1.27098e-17
5287.22493 1.28437e-17
5288.69215 1.24024e-17
5290.15937 1.25423e-17
5291.62658 1.28453e-17
5293.10399 1.24960e-17
5294.57120 1.25589e-17
5296.03842 1.30342e-17
5297.50564 1.28680e-17
5298.98304 1.26513e-17
5300.45026 1.29589e-17
5301.91747 1.34970e-17
5303.39488 1.32337e-17
5304.86209 1.27734e-17
5306.32931 1.30379e-17
5307.79653 1.36885e-17
5309.27393 1.35962e-17
5310.74115 1.32258e-17
5312.20836 1.34115e-17
5313.67558 1.34709e-17
5315.15298 1.39756e-17
5316.62020 1.41741e-17
5318.08742 1.41617e-17
5319.56482 1.46539e-17
5321.03204 1.45265e-17
5322.49925 1.41237e-17
5323.96647 1.40611e-17
5325.44387 1.43901e-17
5326.91109 1.42183e-17
5328.37831 1.41718e-17
5329.84552 1.43059e-17
5331.32293 1.47701e-17
5332.79014 1.52831e-17
5334.25736 1.49198e-17
5335.72457 1.47026e-17
5337.20198 1.45975e-17
5338.66920 1.48288e-17
5340.13641 1.51325e-17
5341.61382 1.53287e-17
5343.08103 1.54340e-17
5344.54825 1.54467e-17
5346.01546 1.53332e-17
5347.49287 1.54171e-17
5348.96009 1.57083e-17
5350.42730 1.58649e-17
5351.89452 1.55627e-17
5353.37192 1.49261e-17
5354.83914 1.42452e-17
5356.30635 1.48852e-17
5357.78376 1.52206e-17
5359.25098 1.54515e-17
5360.71819 1.53588e-17
5362.18541 1.50965e-17
5363.66281 1.54275e-17
5365.13003 1.52613e-17
5366.59724 1.58154e-17
5368.07465 1.58430e-17
5369.54187 1.53158e-17
5371.00908 1.54004e-17
5372.47630 1.54431e-17
5373.95370 1.52321e-17
5375.42092 1.47509e-17
5376.88813 1.50365e-17
5378.35535 1.53555e-17
5379.83276 1.52154e-17
5381.29997 1.54856e-17
5382.76719 1.54721e-17
5384.24459 1.55918e-17
5385.71181 1.60868e-17
5387.17902 1.59733e-17
5388.64624 1.55116e-17
5390.12365 1.50708e-17
5391.59086 1.51908e-17
5393.05808 1.50666e-17
5394.52529 1.49814e-17
5396.00270 1.52092e-17
5397.46991 1.53943e-17
5398.93713 1.47142e-17
5400.41454 1.44793e-17
5401.88175 1.49530e-17
5403.34897 1.56480e-17
5404.81618 1.57706e-17
5406.29359 1.49944e-17
5407.76080 1.51828e-17
5409.22802 1.53746e-17
5410.69524 1.52503e-17
5412.17264 1.56418e-17
5413.63986 1.50306e-17
5415.10707 1.48333e-17
5416.58448 1.52483e-17
5418.05170 1.52786e-17
5419.51891 1.50526e-17
5420.98613 1.39976e-17
5422.46353 1.24606e-17
5423.93075 1.11952e-17
5425.39796 1.10281e-17
5426.86518 1.21823e-17
5428.34258 1.34856e-17
5429.80980 1.39107e-17
5431.27702 1.39480e-17
5432.75442 1.39142e-17
5434.22164 1.40929e-17
5435.68885 1.44140e-17
5437.15607 1.42912e-17
5438.63347 1.40698e-17
5440.10069 1.43296e-17
5441.56791 1.46609e-17
5443.03512 1.46140e-17
5444.51253 1.42162e-17
5445.97974 1.40277e-17
5447.44696 1.41561e-17
5448.92436 1.42024e-17
5450.39158 1.42008e-17
5451.85880 1.40708e-17
5453.32601 1.37077e-17
5454.80342 1.39407e-17
5456.27063 1.38470e-17
5457.73785 1.36531e-17
5459.20507 1.37797e-17
5460.68247 1.40902e-17
5462.14969 1.41697e-17
5463.61690 1.37256e-17
5465.09431 1.30991e-17
5466.56152 1.32341e-17
5468.02874 1.39162e-17
5469.49596 1.36834e-17
5470.97336 1.32629e-17
5472.44058 1.32802e-17
5473.90779 1.26977e-17
5475.37501 1.25893e-17
5476.85241 1.31927e-17
5478.31963 1.35232e-17
5479.78685 1.32199e-17
5481.26425 1.27559e-17
5482.73147 1.26991e-17
5484.19868 1.30243e-17
5485.66590 1.32605e-17
5487.14330 1.29583e-17
5488.61052 1.27767e-17
5490.07774 1.26513e-17
5491.54495 1.26679e-17
5493.02236 1.30141e-17
5494.48957 1.28173e-17
5495.95679 1.25723e-17
5497.43419 1.28041e-17
5498.90141 1.28735e-17
5500.36863 1.28481e-17
5501.83584 1.30267e-17
5503.31325 1.33008e-17
5504.78046 1.29536e-17
5506.24768 1.26260e-17
5507.72508 1.29622e-17
5509.19230 1.31209e-17
5510.65952 1.34208e-17
5512.12673 1.34147e-17
5513.60414 1.28323e-17
5515.07135 1.28538e-17
5516.53857 1.32639e-17
5518.00578 1.29137e-17
5519.48319 1.22314e-17
5520.95041 1.20162e-17
5522.41762 1.24927e-17
5523.88484 1.30178e-17
5525.36224 1.31279e-17
5526.82946 1.30035e-17
5528.29667 1.28850e-17
5529.77408 1.26375e-17
5531.24130 1.25894e-17
5532.70851 1.28427e-17
5534.17573 1.22971e-17
5535.65313 1.22872e-17
5537.12035 1.27053e-17
5538.58756 1.26954e-17
5540.05478 1.27071e-17
5541.53219 1.24663e-17
5542.99940 1.25984e-17
5544.46662 1.27883e-17
5545.94402 1.22115e-17
5547.41124 1.19567e-17
5548.87845 1.28458e-17
5550.34567 1.31357e-17
5551.82308 1.30574e-17
5553.29029 1.29868e-17
5554.75751 1.31835e-17
5556.23491 1.32207e-17
5557.70213 1.28121e-17
5559.16934 1.26802e-17
5560.63656 1.28347e-17
5562.11397 1.28262e-17
5563.58118 1.30279e-17
5565.04840 1.26861e-17
5566.51561 1.26036e-17
5567.99302 1.27049e-17
5569.46023 1.26891e-17
5570.92745 1.26312e-17
5572.40486 1.22291e-17
5573.87207 1.20896e-17
5575.33929 1.37052e-17
5576.80650 1.29295e-17
5578.28391 1.24266e-17
5579.75112 1.27560e-17
5581.21834 1.25640e-17
5582.68556 1.19560e-17
5584.16296 1.19478e-17
5585.63018 1.22208e-17
5587.09739 1.21031e-17
5588.56461 1.22188e-17
5590.04201 1.24696e-17
5591.50923 1.26109e-17
5592.97645 1.20842e-17
5594.45385 1.19483e-17
5595.92107 1.22708e-17
5597.38828 1.25103e-17
5598.85550 1.19689e-17
5600.33290 1.18515e-17
5601.80012 1.24280e-17
5603.26734 1.23930e-17
5604.74474 1.20573e-17
5606.21196 1.16528e-17
5607.67917 1.20723e-17
5609.14639 1.19394e-17
5610.62379 1.20476e-17
5612.09101 1.24158e-17
5613.55823 1.23787e-17
5615.02544 1.24467e-17
5616.50285 1.21169e-17
5617.97006 1.20028e-17
5619.43728 1.18888e-17
5620.91468 1.16368e-17
5622.38190 1.18306e-17
5623.84912 1.20922e-17
5625.31633 1.17344e-17
5626.79374 1.18017e-17
5628.26095 1.22239e-17
5629.72817 1.25367e-17
5631.19539 1.19270e-17
5632.67279 1.16141e-17
5634.14001 1.21973e-17
5635.60722 1.22243e-17
5637.08463 1.20645e-17
5638.55184 1.20796e-17
5640.01906 1.18875e-17
5641.48628 1.18564e-17
5642.96368 1.19644e-17
5644.43090 1.19828e-17
5645.89811 1.21395e-17
5647.36533 1.18892e-17
5648.84273 1.17607e-17
5650.30995 1.18751e-17
5651.77717 1.20654e-17
5653.25457 1.17835e-17
5654.72179 1.12082e-17
5656.18900 1.12493e-17
5657.65622 1.13623e-17
5659.13362 1.14523e-17
5660.60084 1.16922e-17
5662.06806 1.18740e-17
5663.53527 1.16282e-17
5665.01268 1.13404e-17
5666.47989 1.12255e-17
5667.94711 1.11675e-17
5669.42451 1.15995e-17
5670.89173 1.15535e-17
5672.35895 1.12834e-17
5673.82616 1.15412e-17
5675.30357 1.17076e-17
5676.77078 1.14419e-17
5678.23800 1.13979e-17
5679.70521 1.16408e-17
5681.18262 1.12639e-17
5682.64984 1.10461e-17
5684.11705 1.10459e-17
5685.59446 1.10723e-17
5687.06167 1.14727e-17
5688.52889 1.13000e-17
5689.99610 1.11353e-17
5691.47351 1.15915e-17
5692.94073 1.10871e-17
5694.40794 1.11373e-17
5695.87516 1.16805e-17
5697.35256 1.15401e-17
5698.81978 1.12230e-17
5700.28699 1.07438e-17
5701.76440 1.11335e-17
5703.23162 1.12457e-17
5704.69883 1.10108e-17
5706.16605 1.12558e-17
5707.64345 1.15907e-17
5709.11067 1.14000e-17
5710.57788 1.12327e-17
5712.04510 1.15313e-17
5713.52251 1.13657e-17
5714.98972 1.08951e-17
5716.45694 1.09018e-17
5717.93434 1.07509e-17
5719.40156 1.08251e-17
5720.86877 1.13676e-17
5722.33599 1.13652e-17
5723.81340 1.13980e-17
5725.28061 1.13332e-17
5726.74783 1.09251e-17
5728.21504 1.08055e-17
5729.69245 1.07550e-17
5731.15967 1.07023e-17
5732.62688 1.11945e-17
5734.10429 1.13039e-17
5735.57150 1.07696e-17
5737.03872 1.09950e-17
5738.50593 1.12557e-17
5739.98334 1.08870e-17
5741.45055 1.09513e-17
5742.91777 1.12976e-17
5744.38499 1.13032e-17
5745.86239 1.11914e-17
5747.32961 1.09590e-17
5748.79682 1.10112e-17
5750.27423 1.09824e-17
5751.74144 1.06633e-17
5753.20866 1.06693e-17
5754.67588 1.08200e-17
5756.15328 1.10863e-17
5757.62050 1.10951e-17
5759.08771 1.09700e-17
5760.55493 1.07908e-17
5762.03233 1.05994e-17
5763.49955 1.05247e-17
5764.96677 1.07657e-17
5766.44417 1.04601e-17
5767.91139 1.00494e-17
5769.37860 1.06577e-17
5770.84582 1.05767e-17
5772.32322 1.02369e-17
5773.79044 1.04319e-17
5775.25766 1.01925e-17
5776.72487 9.99573e-18
5778.20228 1.05338e-17
5779.66949 1.03022e-17
5781.13671 9.58942e-18
5782.61412 9.74487e-18
5784.08133 9.89118e-18
5785.54855 9.89972e-18
5787.01576 1.03040e-17
5788.49317 1.00324e-17
5789.96038 9.71643e-18
5791.42760 9.92380e-18
5792.89482 9.75552e-18
5794.37222 9.62629e-18
5795.83944 9.65363e-18
5797.30665 9.51665e-18
5798.78406 9.55557e-18
5800.25127 9.26161e-18
5801.71849 9.09894e-18
5803.18571 9.72464e-18
5804.66311 9.63840e-18
5806.13033 8.88571e-18
5807.59754 8.92821e-18
5809.06476 9.31450e-18
5810.54216 8.80697e-18
5812.00938 8.55150e-18
5813.47660 8.49717e-18
5814.95400 8.42174e-18
5816.42122 8.54014e-18
5817.88843 8.24904e-18
5819.35565 7.99926e-18
5820.83305 7.91238e-18
5822.30027 8.61769e-18
5823.76749 8.67072e-18
5825.24489 8.48690e-18
5826.71211 8.25146e-18
5828.17932 7.72033e-18
5829.64654 7.69087e-18
5831.12394 8.28643e-18
5832.59116 8.37256e-18
5834.05838 7.53943e-18
5835.52559 7.57121e-18
5837.00300 8.15719e-18
5838.47021 7.65920e-18
5839.93743 7.18312e-18
5841.41483 7.17779e-18
5842.88205 7.46137e-18
5844.34927 7.38323e-18
5845.81648 7.59088e-18
5847.29389 7.52548e-18
5848.76110 7.36431e-18
5850.22832 7.40003e-18
5851.69553 7.62751e-18
5853.17294 6.95062e-18
5854.64016 7.03756e-18
5856.10737 7.05144e-18
5857.58478 7.48941e-18
5859.05199 7.21430e-18
5860.51921 7.18365e-18
5861.98642 7.71709e-18
5863.46383 7.32748e-18
5864.93105 7.40871e-18
5866.39826 8.05906e-18
5867.86548 8.03741e-18
5869.34288 7.91230e-18
5870.81010 8.08313e-18
5872.27732 8.31257e-18
5873.74453 8.47714e-18
5875.22194 8.94007e-18
5876.68915 8.98403e-18
5878.15637 8.68408e-18
5879.63377 8.60146e-18
5881.10099 8.90677e-18
5882.56820 9.32649e-18
5884.03542 9.53541e-18
5885.51283 9.65345e-18
5886.98004 9.72613e-18
5888.44726 9.77277e-18
5889.92466 9.75696e-18
5891.39188 1.02778e-17
5892.85909 1.06326e-17
5894.32631 9.90166e-18
5895.80372 1.01584e-17
5897.27093 1.08083e-17
5898.73815 1.05176e-17
5900.20536 1.05461e-17
5901.68277 1.08130e-17
5903.14998 1.08965e-17
5904.61720 1.08394e-17
5906.09461 1.16745e-17
5907.56182 1.18873e-17
5909.02904 1.13958e-17
5910.49625 1.16554e-17
5911.97366 1.20251e-17
5913.44087 1.19363e-17
5914.90809 1.19028e-17
5916.37531 1.25000e-17
5917.85271 1.28979e-17
5919.31993 1.31654e-17
5920.78714 1.33473e-17
5922.26455 1.29754e-17
5923.73176 1.29165e-17
5925.19898 1.31484e-17
5926.66620 1.34283e-17
5928.14360 1.35727e-17
5929.61082 1.35925e-17
5931.07803 1.34990e-17
5932.54525 1.33010e-17
5934.02265 1.39605e-17
5935.48987 1.39646e-17
5936.95709 1.33931e-17
5938.43449 1.34209e-17
5939.90171 1.35865e-17
5941.36892 1.35259e-17
5942.83614 1.33217e-17
5944.31354 1.35467e-17
5945.78076 1.37048e-17
5947.24798 1.39873e-17
5948.71519 1.40640e-17
5950.19260 1.37784e-17
5951.65981 1.36823e-17
5953.12703 1.37854e-17
5954.60443 1.38947e-17
5956.07165 1.37321e-17
5957.53887 1.30699e-17
5959.00608 1.28419e-17
5960.48349 1.37337e-17
5961.95070 1.41683e-17
5963.41792 1.38490e-17
5964.88514 1.37003e-17
5966.36254 1.39313e-17
5967.82976 1.43468e-17
5969.29697 1.41237e-17
5970.77438 1.36834e-17
5972.24159 1.38473e-17
5973.70881 1.32540e-17
5975.17603 1.32348e-17
5976.65343 1.41588e-17
5978.12065 1.43202e-17
5979.58786 1.39795e-17
5981.05508 1.34578e-17
5982.53248 1.35445e-17
5983.99970 1.35000e-17
5985.46692 1.35158e-17
5986.94432 1.34904e-17
5988.41154 1.30394e-17
5989.87875 1.28785e-17
5991.34597 1.34066e-17
5992.82337 1.33916e-17
5994.29059 1.29189e-17
5995.75781 1.26341e-17
5997.22502 1.21095e-17
5998.70243 1.25204e-17
6000.16964 1.28105e-17
6001.63686 1.29624e-17
6003.11426 1.25626e-17
6004.58148 1.26221e-17
6006.04870 1.31273e-17
6007.51591 1.27192e-17
6008.99332 1.24399e-17
6010.46053 1.30741e-17
6011.92775 1.32696e-17
6013.39496 1.32707e-17
6014.87237 1.29812e-17
6016.33959 1.26340e-17
6017.80680 1.26057e-17
6019.28421 1.29288e-17
6020.75142 1.28124e-17
6022.21864 1.25633e-17
6023.68585 1.27658e-17
6025.16326 1.26116e-17
6026.63048 1.26059e-17
6028.09769 1.25815e-17
6029.56491 1.20957e-17
6031.04231 1.18552e-17
6032.50953 1.21039e-17
6033.97674 1.24957e-17
6035.45415 1.28809e-17
6036.92137 1.26778e-17
6038.38858 1.25647e-17
6039.85580 1.20767e-17
6041.33320 1.22276e-17
6042.80042 1.25334e-17
6044.26763 1.23135e-17
6045.74504 1.18332e-17
6047.21226 1.22362e-17
6048.67947 1.21015e-17
6050.14669 1.19122e-17
6051.62409 1.17169e-17
6053.09131 1.20535e-17
6054.55852 1.19739e-17
6056.02574 1.19940e-17
6057.50315 1.22868e-17
6058.97036 1.15868e-17
6060.43758 1.12178e-17
6061.90479 1.19623e-17
6063.38220 1.23322e-17
6064.84941 1.21212e-17
6066.31663 1.18711e-17
6067.79404 1.19044e-17
6069.26125 1.18637e-17
6070.72847 1.12000e-17
6072.19568 1.14057e-17
6073.67309 1.15276e-17
6075.14030 1.16170e-17
6076.60752 1.09829e-17
6078.07474 1.10586e-17
6079.55214 1.13625e-17
6081.01936 1.12960e-17
6082.48657 1.11141e-17
6083.96398 1.13805e-17
6085.43120 1.17283e-17
6086.89841 1.09878e-17
6088.36563 1.04205e-17
6089.84303 1.07771e-17
6091.31025 1.04434e-17
6092.77746 1.02680e-17
6094.25487 1.07300e-17
6095.72208 1.06756e-17
6097.18930 1.04524e-17
6098.65652 1.09450e-17
6100.13392 1.09406e-17
6101.60114 1.04600e-17
6103.06835 1.06316e-17
6104.53557 1.06942e-17
6106.01297 1.06171e-17
6107.48019 1.04561e-17
6108.94741 1.01111e-17
6110.42481 9.98701e-18
6111.89203 1.00523e-17
6113.35924 1.01310e-17
6114.82646 1.06281e-17
6116.30386 1.06902e-17
6117.77108 1.04582e-17
6119.23830 1.04625e-17
6120.70551 1.01000e-17
6122.18292 1.02506e-17
6123.65013 1.02954e-17
6125.11735 1.07257e-17
6126.58457 1.04687e-17
6128.06197 1.05951e-17
6129.52919 1.04267e-17
6130.99640 1.00207e-17
6132.47381 1.01209e-17
6133.94102 1.01729e-17
6135.40824 1.01394e-17
6136.87546 1.02315e-17
6138.35286 1.01132e-17
6139.82008 1.01830e-17
6141.28729 9.79499e-18
6142.75451 9.76360e-18
6144.23191 1.02590e-17
6145.69913 1.06741e-17
6147.16635 1.06762e-17
6148.64375 1.01392e-17
6150.11097 9.87391e-18
6151.57818 1.00053e-17
6153.04540 9.96935e-18
6154.52280 1.04407e-17
6155.99002 1.01494e-17
6157.45724 1.02929e-17
6158.93464 1.02591e-17
6160.40186 9.21630e-18
6161.86907 9.61755e-18
6163.33629 9.72581e-18
6164.81369 9.81700e-18
6166.28091 1.02516e-17
6167.74813 9.71547e-18
6169.21534 9.60243e-18
6170.69275 1.00269e-17
6172.15996 9.82524e-18
6173.62718 9.45634e-18
6175.10458 9.43669e-18
6176.57180 9.62749e-18
6178.03902 9.84219e-18
6179.50623 9.95860e-18
6180.98364 9.73230e-18
6182.45085 9.50281e-18
6183.91807 9.60821e-18
6185.38528 9.87167e-18
6186.86269 9.71063e-18
6188.32991 9.40094e-18
6189.79712 8.96621e-18
6191.27453 9.18951e-18
6192.74174 9.72297e-18
6194.20896 9.78225e-18
6195.67617 9.48430e-18
6197.15358 9.52532e-18
6198.62080 9.60298e-18
6200.08801 9.19432e-18
6201.55523 9.63818e-18
6203.03263 9.95360e-18
6204.49985 9.77485e-18
6205.96706 9.54151e-18
6207.44447 9.73054e-18
6208.91169 9.29933e-18
6210.37890 9.20116e-18
6211.84612 9.25690e-18
6213.32352 9.46771e-18
6214.79074 9.61388e-18
6216.25795 9.76404e-18
6217.72517 9.70260e-18
6219.20258 9.42463e-18
6220.66979 9.55960e-18
6222.13701 9.87263e-18
6223.61441 9.85475e-18
6225.08163 9.74034e-18
6226.54884 9.57273e-18
6228.01606 9.12392e-18
6229.49347 9.35792e-18
6230.96068 9.47714e-18
6232.42790 9.27179e-18
6233.89511 9.07533e-18
6235.37252 9.90825e-18
6236.83973 9.48328e-18
6238.30695 9.84033e-18
6239.78436 9.40491e-18
6241.25157 8.96923e-18
6242.71879 9.30181e-18
6244.18600 9.78385e-18
6245.66341 9.76357e-18
6247.13062 9.90005e-18
6248.59784 9.95418e-18
6250.06506 9.03850e-18
6251.54246 9.10231e-18
6253.00968 9.27742e-18
6254.47689 1.00551e-17
6255.95430 9.77239e-18
6257.42151 9.24989e-18
6258.88873 9.91281e-18
6260.35595 9.74851e-18
6261.83335 9.59667e-18
6263.30057 9.19976e-18
6264.76778 9.13914e-18
6266.23500 9.60435e-18
6267.71240 9.03374e-18
6269.17962 9.21323e-18
6270.64684 9.36468e-18
6272.12424 9.39822e-18
6273.59146 9.65958e-18
6275.05867 9.25003e-18
6276.52589 9.37231e-18
6278.00329 9.51062e-18
6279.47051 9.71720e-18
6280.93773 9.72826e-18
6282.41513 9.33937e-18
6283.88235 9.17425e-18
6285.34956 8.79244e-18
6286.81678 8.56219e-18
6288.29418 8.61447e-18
6289.76140 8.67865e-18
6291.22862 9.08798e-18
6292.69583 9.37905e-18
6294.17324 9.52329e-18
6295.64045 9.66832e-18
6297.10767 1.01202e-17
6298.57489 9.58994e-18
6300.05229 1.01541e-17
6301.51951 9.64189e-18
6302.98672 9.13787e-18
6304.46413 8.85050e-18
6305.93134 8.26470e-18
6307.39856 8.35701e-18
6308.86578 7.93093e-18
6310.34318 8.37180e-18
6311.81040 7.95932e-18
6313.27761 7.79473e-18
6314.74483 8.28644e-18
6316.22223 7.99674e-18
6317.68945 8.47524e-18
6319.15667 8.22747e-18
6320.63407 7.17322e-18
6322.10129 7.58236e-18
6323.56850 7.79074e-18
6325.03572 8.01194e-18
6326.51312 8.28005e-18
6327.98034 7.59336e-18
6329.44756 7.14104e-18
6330.91477 7.26308e-18
6332.39218 7.15624e-18
6333.85939 7.49470e-18
6335.32661 7.82794e-18
6336.80401 7.17609e-18
6338.27123 6.95500e-18
6339.73845 7.21309e-18
6341.20566 7.19810e-18
6342.68307 7.27247e-18
6344.15028 7.38527e-18
6345.61750 7.01456e-18
6347.08471 6.90392e-18
6348.56212 7.11399e-18
6350.02934 7.21642e-18
6351.49655 6.92836e-18
6352.97396 6.63642e-18
6354.44117 6.71106e-18
6355.90839 6.64819e-18
6357.37560 6.88384e-18
6358.85301 7.42490e-18
6360.32023 7.13342e-18
6361.78744 6.92941e-18
6363.25466 7.42279e-18
6364.73206 7.05981e-18
6366.19928 7.09300e-18
6367.66649 7.30505e-18
6369.14390 6.80175e-18
6370.61112 6.70859e-18
6372.07833 6.41536e-18
6373.54555 6.57061e-18
6375.02295 7.05941e-18
6376.49017 7.20052e-18
6377.95738 7.06168e-18
6379.43479 6.95869e-18
6380.90201 7.21040e-18
6382.36922 6.86969e-18
6383.83644 6.94860e-18
6385.31384 7.45764e-18
6386.78106 7.39025e-18
6388.24827 7.58830e-18
6389.71549 7.66079e-18
6391.19290 7.43379e-18
6392.66011 7.59932e-18
6394.12733 7.96760e-18
6395.60473 7.64695e-18
6397.07195 7.69296e-18
6398.53917 7.35668e-18
6400.00638 7.40653e-18
6401.48379 7.52934e-18
6402.95100 7.89735e-18
6404.41822 8.25533e-18
6405.88543 7.86083e-18
6407.36284 7.20377e-18
6408.83005 7.40919e-18
6410.29727 8.03005e-18
6411.76449 7.82271e-18
6413.24189 7.83827e-18
6414.70911 8.18749e-18
6416.17632 8.30428e-18
6417.65373 7.82578e-18
6419.12094 7.71904e-18
6420.58816 7.55855e-18
6422.05538 7.91298e-18
6423.53278 7.78077e-18
6425.00000 7.63925e-18
6426.46721 8.08313e-18
6427.94462 8.34896e-18
6429.41183 8.15720e-18
6430.87905 7.89914e-18
6432.34627 8.60168e-18
6433.82367 8.69566e-18
6435.29089 8.54449e-18
6436.75810 8.47856e-18
6438.22532 8.14345e-18
6439.70272 7.99070e-18
6441.16994 7.67282e-18
6442.63716 7.72102e-18
6444.11456 8.47544e-18
6445.58178 9.02058e-18
6447.04899 8.90710e-18
6448.51621 9.07034e-18
6449.99361 8.91957e-18
6451.46083 8.96512e-18
6452.92805 9.08603e-18
6454.39526 9.34461e-18
6455.87267 9.06876e-18
6457.33988 9.05893e-18
6458.80710 8.89813e-18
6460.28450 8.92729e-18
6461.75172 8.90651e-18
6463.21894 8.73046e-18
6464.68615 8.53577e-18
6466.16356 8.93005e-18
6467.63077 8.80569e-18
6469.09799 9.12908e-18
6470.56521 9.37408e-18
6472.04261 8.80815e-18
6473.50983 8.43902e-18
6474.97704 8.71095e-18
6476.45445 9.10103e-18
6477.92166 8.86399e-18
6479.38888 8.86542e-18
6480.85610 9.04429e-18
6482.33350 8.71051e-18
6483.80072 9.54416e-18
6485.26793 8.83695e-18
6486.73515 9.28345e-18
6488.21255 8.70944e-18
6489.67977 8.54099e-18
6491.14699 8.66978e-18
6492.62439 9.15641e-18
6494.09161 9.19651e-18
6495.55882 8.82383e-18
6497.02604 9.07347e-18
6498.50344 9.22313e-18
6499.97066 9.00515e-18
6501.43788 9.68147e-18
6502.90509 9.19918e-18
6504.38250 9.08792e-18
6505.84971 8.76222e-18
6507.31693 8.99166e-18
6508.79433 9.12155e-18
6510.26155 9.05564e-18
6511.72877 9.39051e-18
6513.19598 9.18691e-18
6514.67339 8.99029e-18
6516.14060 8.91837e-18
6517.60782 8.70329e-18
6519.07503 9.07696e-18
6520.55244 9.23537e-18
6522.01966 9.53002e-18
6523.48687 8.92169e-18
6524.96428 8.73473e-18
6526.43149 9.48218e-18
6527.89871 9.74430e-18
6529.36592 9.03101e-18
6530.84333 9.10527e-18
6532.31055 9.03332e-18
6533.77776 9.71978e-18
6535.24498 9.26759e-18
6536.72238 8.88292e-18
6538.18960 8.69322e-18
6539.65682 8.43630e-18
6541.13422 8.97078e-18
6542.60144 9.35896e-18
6544.06865 9.03912e-18
6545.53587 8.80865e-18
6547.01327 8.90449e-18
6548.48049 8.22288e-18
6549.94770 8.29915e-18
6551.41492 8.70719e-18
6552.89233 8.70721e-18
6554.35954 8.92085e-18
6555.82676 9.29062e-18
6557.30416 8.35579e-18
6558.77138 8.07642e-18
6560.23859 8.88500e-18
6561.70581 9.32863e-18
6563.18322 9.80398e-18
6564.65043 9.19784e-18
6566.11765 8.73809e-18
6567.58486 9.08453e-18
6569.06227 8.71119e-18
6570.52948 8.74938e-18
6571.99670 8.64406e-18
6573.47411 8.68376e-18
6574.94132 8.90993e-18
6576.40854 8.57606e-18
6577.87575 8.66695e-18
6579.35316 8.40140e-18
6580.82037 8.45980e-18
6582.28759 8.93710e-18
6583.75481 8.56731e-18
6585.23221 8.46485e-18
6586.69943 8.43315e-18
6588.16664 8.40897e-18
6589.64405 8.18780e-18
6591.11126 7.86613e-18
6592.57848 8.55274e-18
6594.04570 8.35888e-18
6595.52310 7.49813e-18
6596.99032 7.80217e-18
6598.45753 8.27124e-18
6599.92475 8.08594e-18
6601.40215 8.46256e-18
6602.86937 8.30704e-18
6604.33659 7.89665e-18
6605.81399 8.21064e-18
6607.28121 8.11073e-18
6608.74842 7.99737e-18
6610.21564 7.98618e-18
6611.69304 8.20741e-18
6613.16026 8.13389e-18
6614.62748 7.77852e-18
6616.10488 7.84037e-18
6617.57210 7.67487e-18
6619.03931 7.43146e-18
6620.50653 7.40608e-18
6621.98393 7.49725e-18
6623.45115 7.54592e-18
6624.91837 8.04717e-18
6626.38558 7.95801e-18
6627.86299 7.95529e-18
6629.33020 7.86553e-18
6630.79742 7.55084e-18
6632.27482 7.62661e-18
6633.74204 7.60672e-18
6635.20926 7.44121e-18
6636.67647 7.02719e-18
6638.15388 7.24432e-18
6639.62109 6.86449e-18
6641.08831 6.82646e-18
6642.55553 7.10122e-18
6644.03293 6.81710e-18
6645.50015 6.92970e-18
6646.96736 7.03499e-18
6648.44477 6.83217e-18
6649.91198 6.60897e-18
6651.37920 6.84336e-18
6652.84642 7.13456e-18
6654.32382 7.14989e-18
6655.79104 6.74977e-18
6657.25825 6.65600e-18
6658.72547 6.98873e-18
6660.20287 6.74052e-18
6661.67009 6.61134e-18
6663.13731 6.61650e-18
6664.60452 6.19861e-18
6666.08193 7.03639e-18
6667.54914 6.97797e-18
6669.01636 6.51794e-18
6670.49376 6.88614e-18
6671.96098 7.13204e-18
6673.42820 7.27534e-18
6674.89541 7.01967e-18
6676.37282 6.93208e-18
6677.84003 7.10120e-18
6679.30725 6.54880e-18
6680.77446 6.90851e-18
6682.25187 7.11039e-18
6683.71909 7.39074e-18
6685.18630 7.25204e-18
6686.66371 7.18192e-18
6688.13092 6.83700e-18
6689.59814 7.00126e-18
6691.06535 7.55644e-18
6692.54276 7.43769e-18
6694.00998 7.53039e-18
6695.47719 7.68699e-18
6696.95460 8.09322e-18
6698.42181 7.56723e-18
6699.88903 7.84447e-18
6701.35624 8.14790e-18
6702.83365 8.13526e-18
6704.30087 7.55717e-18
6705.76808 7.49104e-18
6707.23530 7.98817e-18
6708.71270 7.88572e-18
6710.17992 8.28304e-18
6711.64713 8.32029e-18
6713.12454 8.12578e-18
6714.59176 8.54751e-18
6716.05897 8.54294e-18
6717.52619 8.17562e-18
6719.00359 8.22502e-18
6720.47081 8.77734e-18
6721.93802 8.85768e-18
6723.40524 8.48245e-18
6724.88265 8.97643e-18
6726.34986 9.10074e-18
6727.81708 9.00398e-18
6729.29448 9.05782e-18
6730.76170 9.27039e-18
6732.22891 9.51337e-18
6733.69613 8.70216e-18
6735.17354 8.32187e-18
6736.64075 8.58180e-18
6738.10797 8.96147e-18
6739.57518 9.06759e-18
6741.05259 9.02417e-18
6742.51980 8.78037e-18
6743.98702 8.91816e-18
6745.46443 9.08519e-18
6746.93164 9.55004e-18
6748.39886 9.11123e-18
6749.86607 9.12952e-18
6751.34348 9.46830e-18
6752.81069 9.81572e-18
6754.27791 9.73629e-18
6755.74513 9.02998e-18
6757.22253 9.54907e-18
6758.68975 9.38669e-18
6760.15696 9.13859e-18
6761.63437 8.99185e-18
6763.10158 8.63505e-18
6764.56880 8.97383e-18
6766.03602 9.39095e-18
6767.51342 9.33101e-18
6768.98064 8.95819e-18
6770.44785 8.89328e-18
6771.91507 9.61927e-18
6773.39247 9.30932e-18
6774.85969 9.05754e-18
6776.32691 9.48198e-18
6777.80431 9.54618e-18
6779.27153 9.31904e-18
6780.73874 9.06359e-18
6782.20596 9.59312e-18
6783.68336 9.60147e-18
6785.15058 8.91046e-18
6786.61780 9.15891e-18
6788.08501 8.87541e-18
6789.56242 8.62083e-18
6791.02963 8.97547e-18
6792.49685 9.17582e-18
6793.97425 9.09236e-18
6795.44147 9.07060e-18
6796.90869 9.19389e-18
6798.37590 9.40932e-18
6799.85331 8.91021e-18
6801.32052 8.95576e-18
6802.78774 9.45220e-18
6804.25496 9.41915e-18
6805.73236 8.69637e-18
6807.19958 8.82379e-18
6808.66679 9.11279e-18
6810.14420 9.07654e-18
6811.61141 9.32671e-18
6813.07863 8.81745e-18
6814.54585 8.61597e-18
6816.02325 8.97186e-18
6817.49047 8.67625e-18
6818.95768 8.68846e-18
6820.43509 8.88286e-18
6821.90230 8.83473e-18
6823.36952 8.99087e-18
6824.83674 9.14351e-18
6826.31414 9.11617e-18
6827.78136 8.80207e-18
6829.24857 8.96659e-18
6830.71579 8.73221e-18
6832.19319 8.32555e-18
6833.66041 8.47875e-18
6835.12763 8.63551e-18
6836.60503 8.21175e-18
6838.07225 7.97262e-18
6839.53946 8.61168e-18
6841.00668 8.55037e-18
6842.48408 8.45388e-18
6843.95130 8.56249e-18
6845.41852 8.54898e-18
6846.88573 8.53546e-18
6848.36314 8.52195e-18
6849.83035 8.50844e-18
6851.29757 8.49493e-18
6852.76478 8.48142e-18
6854.24219 8.46791e-18
6855.70941 8.45440e-18
6857.17662 8.44089e-18
6858.65403 8.42739e-18
6860.12124 8.41388e-18
6861.58846 8.40038e-18
6863.05567 8.38687e-18
6864.53308 8.37337e-18
6866.00030 8.35986e-18
6867.46751 8.34636e-18
6868.93473 8.33286e-18
6870.41213 8.31935e-18
6871.87935 8.30586e-18
6873.34656 8.29235e-18
6874.82397 8.27886e-18
6876.29119 8.26536e-18
6877.75840 8.25186e-18
6879.22562 8.23836e-18
6880.70302 8.22486e-18
6882.17024 8.21137e-18
6883.63745 8.19787e-18
6885.11486 8.18438e-18
6886.58208 8.17088e-18
6888.04929 8.15739e-18
6889.51651 8.14389e-18
6890.99391 8.13040e-18
6892.46113 8.11691e-18
6893.92834 8.10342e-18
6895.39556 8.08993e-18
6896.87297 8.07644e-18
6898.34018 8.06295e-18
6899.80740 8.04946e-18
6901.27461 8.03597e-18
6902.75202 8.02248e-18
6904.21923 8.00900e-18
6905.68645 7.99551e-18
6907.16386 7.98202e-18
6908.63107 7.96854e-18
6910.09829 7.95506e-18
6911.56550 7.94157e-18
6913.04291 7.92809e-18
6914.51012 7.91461e-18
6915.97734 7.90113e-18
6917.45475 7.88764e-18
6918.92196 7.87417e-18
6920.38918 7.86069e-18
6921.85639 7.84721e-18
6923.33380 7.83373e-18
6924.80102 7.82025e-18
6926.26823 7.80677e-18
6927.73545 7.79330e-18
6929.21285 7.77982e-18
6930.68007 7.76635e-18
6932.14728 7.75287e-18
6933.62469 7.73940e-18
6935.09190 7.72593e-18
6936.55912 7.73678e-18
6938.02634 7.92700e-18
6939.50374 7.53403e-18
6940.97096 7.82081e-18
6942.43817 7.88397e-18
6943.90539 7.46231e-18
6945.38279 7.96562e-18
6946.85001 7.95156e-18
6948.31723 7.72892e-18
6949.79463 7.59749e-18
6951.26185 7.11503e-18
6952.72906 7.11395e-18
6954.19628 7.11286e-18
6955.67368 7.11178e-18
6957.14090 7.11070e-18
6958.60812 7.11052e-18
6960.07533 7.18835e-18
6961.55274 7.54231e-18
6963.01995 7.47667e-18
6964.48717 7.43417e-18
6965.96457 7.19636e-18
6967.43179 7.66348e-18
6968.89901 7.41862e-18
6970.36622 7.42347e-18
6971.84363 7.24316e-18
6973.31084 7.26002e-18
6974.77806 7.41304e-18
6976.24528 7.97637e-18
6977.72268 7.41418e-18
6979.18990 7.47480e-18
6980.65711 7.37510e-18
6982.13452 7.45308e-18
6983.60173 7.18118e-18
6985.06895 6.96027e-18
6986.53617 7.40859e-18
6988.01357 7.35256e-18
6989.48079 7.14319e-18
6990.94800 7.06034e-18
6992.41522 7.46574e-18
6993.89262 7.41060e-18
6995.35984 7.68483e-18
6996.82706 7.22790e-18
6998.30446 7.28713e-18
6999.77168 7.62102e-18
7001.23889 7.47251e-18
7002.70611 7.08896e-18
7004.18351 7.11242e-18
7005.65073 6.80675e-18
7007.11795 7.43571e-18
7008.58516 7.42176e-18
7010.06257 7.28079e-18
7011.52978 7.00844e-18
7012.99700 6.58713e-18
7014.47440 7.00752e-18
7015.94162 7.32994e-18
7017.40884 7.25370e-18
7018.87605 6.90337e-18
7020.35346 7.02695e-18
7021.82067 7.15879e-18
7023.28789 6.76127e-18
7024.75510 6.01344e-18
7026.23251 6.76694e-18
7027.69973 6.57117e-18
7029.16694 6.58029e-18
7030.64435 6.72555e-18
7032.11156 6.68603e-18
7033.57878 6.67563e-18
7035.04599 6.68830e-18
7036.52340 6.45181e-18
7037.99062 6.78979e-18
7039.45783 6.59157e-18
7040.92505 6.01822e-18
7042.40245 6.01031e-18
7043.86967 6.51689e-18
7045.33688 6.85968e-18
7046.81429 6.90508e-18
7048.28151 6.45900e-18
7049.74872 6.92224e-18
7051.21594 7.12972e-18
7052.69334 6.79693e-18
7054.16056 7.00975e-18
7055.62777 6.90161e-18
7057.09499 6.52650e-18
7058.57240 6.26159e-18
7060.03961 6.47154e-18
7061.50683 6.85306e-18
7062.98423 6.62089e-18
7064.45145 6.62588e-18
7065.91867 6.78616e-18
7067.38588 6.54393e-18
7068.86329 6.88788e-18
7070.33050 6.69983e-18
7071.79772 6.54618e-18
7073.26493 6.81474e-18
7074.74234 6.75499e-18
7076.20955 6.75396e-18
7077.67677 6.78247e-18
7079.15418 7.15068e-18
7080.62139 6.94223e-18
7082.08861 6.75777e-18
7083.55582 6.23860e-18
7085.03323 6.71025e-18
7086.50044 7.14318e-18
7087.96766 6.96342e-18
7089.43488 7.19663e-18
7090.91228 7.31233e-18
7092.37950 7.36546e-18
7093.84671 7.26217e-18
7095.32412 7.16298e-18
7096.79133 7.27809e-18
7098.25855 7.12639e-18
7099.72577 7.21469e-18
7101.20317 7.22001e-18
7102.67039 7.36771e-18
7104.13760 7.76769e-18
7105.60482 7.84321e-18
7107.08222 7.61526e-18
7108.54944 8.04223e-18
7110.01666 7.77669e-18
7111.49406 7.72608e-18
7112.96128 8.58390e-18
7114.42849 8.23112e-18
7115.89571 8.30147e-18
7117.37311 8.28650e-18
7118.84033 7.93127e-18
7120.30755 8.17543e-18
7121.77476 8.18435e-18
7123.25217 7.77030e-18
7124.71938 7.68642e-18
7126.18660 7.60255e-18
7127.66400 7.60235e-18
7129.13122 8.30278e-18
7130.59844 8.44667e-18
7132.06565 7.84682e-18
7133.54306 7.44268e-18
7135.01027 7.95600e-18
7136.47749 8.27253e-18
7137.94471 7.95500e-18
7139.42211 7.84628e-18
7140.88933 8.46073e-18
7142.35654 8.65831e-18
7143.83395 8.56337e-18
7145.30116 8.46324e-18
7146.76838 7.98238e-18
7148.23560 8.04368e-18
7149.71300 8.19803e-18
7151.18022 8.03567e-18
7152.64743 8.21734e-18
7154.12484 8.15603e-18
7155.59205 8.06502e-18
7157.05927 8.18498e-18
7158.52649 8.54865e-18
7160.00389 8.37971e-18
7161.47111 8.12235e-18
7162.93832 8.17747e-18
7164.40554 8.29528e-18
7165.88294 8.26566e-18
7167.35016 7.87415e-18
7168.81738 7.94025e-18
7170.29478 8.00845e-18
7171.76200 7.83290e-18
7173.22921 7.85209e-18
7174.69643 7.88280e-18
7176.17383 8.46372e-18
7177.64105 8.42560e-18
7179.10827 8.36247e-18
7180.57548 8.30250e-18
7182.05289 8.16403e-18
7183.52010 8.13506e-18
7184.98732 8.18585e-18
7186.46472 8.17811e-18
7187.93194 8.34631e-18
7189.39916 8.30599e-18
7190.86637 8.20289e-18
7192.34378 7.91104e-18
7193.81099 7.94110e-18
7195.27821 8.39610e-18
7196.74542 7.95323e-18
7198.22283 7.37203e-18
7199.69005 7.27528e-18
7201.15726 7.81601e-18
7202.62448 7.99933e-18
7204.10188 7.98896e-18
7205.56910 7.81796e-18
7207.03631 7.94359e-18
7208.51372 7.55214e-18
7209.98094 7.58399e-18
7211.44815 7.76618e-18
7212.91537 7.61799e-18
7214.39277 7.47955e-18
7215.85999 7.80341e-18
7217.32720 7.78048e-18
7218.80461 7.33623e-18
7220.27183 7.58631e-18
7221.73904 7.33643e-18
7223.20626 7.21870e-18
7224.68366 7.12444e-18
7226.15088 7.30891e-18
7227.61809 7.56267e-18
7229.08531 7.32288e-18
7230.56272 7.14758e-18
7232.02993 7.18167e-18
7233.49715 7.90414e-18
7234.97455 7.80629e-18
7236.44177 7.33034e-18
7237.90898 7.78413e-18
7239.37620 7.12168e-18
7240.85361 7.39176e-18
7242.32082 6.81055e-18
7243.78804 6.48805e-18
7245.25525 6.92387e-18
7246.73266 7.22258e-18
7248.19987 6.72745e-18
7249.66709 7.17964e-18
7251.14450 7.06947e-18
7252.61171 7.12183e-18
7254.07893 7.19987e-18
7255.54614 7.29256e-18
7257.02355 7.04758e-18
7258.49076 7.31339e-18
7259.95798 6.69744e-18
7261.42520 6.39763e-18
7262.90260 6.50783e-18
7264.36982 6.88145e-18
7265.83703 6.66908e-18
7267.31444 6.43146e-18
7268.78165 7.01690e-18
7270.24887 7.19921e-18
7271.71609 6.86888e-18
7273.19349 6.82753e-18
7274.66071 6.82222e-18
7276.12792 6.76337e-18
7277.59514 6.89972e-18
7279.07254 6.51978e-18
7280.53976 7.24369e-18
7282.00698 7.35981e-18
7283.48438 6.87953e-18
7284.95160 7.44460e-18
7286.41881 7.10456e-18
7287.88603 6.58158e-18
7289.36343 6.47039e-18
7290.83065 6.68891e-18
7292.29787 7.05764e-18
7293.76508 6.99990e-18
7295.24249 6.61164e-18
7296.70970 6.97201e-18
7298.17692 6.98971e-18
7299.65432 7.07733e-18
7301.12154 7.35911e-18
7302.58876 7.27517e-18
7304.05597 6.69490e-18
7305.53338 7.23818e-18
7307.00059 6.69418e-18
7308.46781 6.67693e-18
7309.93503 6.76043e-18
7311.41243 7.37041e-18
7312.87965 7.71717e-18
7314.34686 7.85029e-18
7315.82427 6.99039e-18
7317.29148 6.90117e-18
7318.75870 7.30689e-18
7320.22592 7.08509e-18
7321.70332 6.83394e-18
7323.17054 6.79408e-18
7324.63775 6.97770e-18
7326.10497 7.51568e-18
7327.58237 7.36695e-18
7329.04959 7.27398e-18
7330.51681 7.08608e-18
7331.99421 6.58299e-18
7333.46143 6.38055e-18
7334.92864 7.04939e-18
7336.39586 7.84496e-18
7337.87326 7.49355e-18
7339.34048 7.03331e-18
7340.80770 6.75629e-18
7342.27491 7.17104e-18
7343.75232 6.71228e-18
7345.21953 6.72445e-18
7346.68675 6.78974e-18
7348.16415 7.06659e-18
7349.63137 6.98570e-18
7351.09859 6.87061e-18
7352.56580 6.97395e-18
7354.04321 7.45338e-18
7355.51042 7.34878e-18
7356.97764 7.28358e-18
7358.45504 6.59734e-18
7359.92226 6.44147e-18
7361.38948 7.18705e-18
7362.85669 6.97773e-18
7364.33410 6.88936e-18
7365.80131 7.60994e-18
7367.26853 7.32638e-18
7368.73574 6.84045e-18
7370.21315 6.74525e-18
7371.68037 7.20270e-18
7373.14758 6.96898e-18
7374.62499 7.12000e-18
7376.09220 7.01123e-18
7377.55942 7.02872e-18
7379.02663 7.11826e-18
7380.50404 7.29243e-18
7381.97126 7.25897e-18
7383.43847 7.24454e-18
7384.90569 7.28388e-18
7386.38309 7.11328e-18
7387.85031 7.24498e-18
7389.31752 6.76175e-18
7390.78474 6.65857e-18
7392.26215 6.96698e-18
7393.72936 7.21444e-18
7395.19658 7.47139e-18
7396.67398 7.20356e-18
7398.14120 6.78431e-18
7399.60841 6.53515e-18
7401.07563 6.44236e-18
7402.55304 6.28066e-18
7404.02025 6.35425e-18
7405.48747 6.40087e-18
7406.95468 6.99539e-18
7408.43209 6.66829e-18
7409.89930 6.58861e-18
7411.36652 6.94874e-18
7412.22211 6.94874e-18
7413.91970 7.32921e-18
7415.61729 7.65389e-18
7417.31488 8.20689e-18
7419.01247 8.77467e-18
7420.71005 8.47840e-18
7422.40764 7.27229e-18
7424.10523 6.45407e-18
7425.80282 6.68949e-18
7427.50041 7.34796e-18
7429.19800 7.88281e-18
7430.89558 8.13456e-18
7432.59317 8.08694e-18
7434.29076 8.01074e-18
7435.98835 8.14175e-18
7437.68594 8.45837e-18
7439.38352 8.85537e-18
7441.09116 9.20417e-18
7442.78874 9.34725e-18
7444.48633 8.94276e-18
7446.18392 7.85102e-18
7447.88151 6.87981e-18
7449.57910 6.88822e-18
7451.27669 7.57663e-18
7452.97427 8.18246e-18
7454.67186 8.19647e-18
7456.36945 7.38087e-18
7458.06704 6.19229e-18
7459.76463 5.46256e-18
7461.46221 5.39790e-18
7463.15980 5.71538e-18
7464.85739 6.29470e-18
7466.55498 7.11149e-18
7468.25257 7.91896e-18
7469.95015 8.31976e-18
7471.64774 8.20209e-18
7473.34533 7.77533e-18
7475.04292 7.36790e-18
7476.74051 7.45101e-18
7478.43809 7.98066e-18
7480.13568 8.09269e-18
7481.83327 7.51277e-18
7483.53086 7.07757e-18
7485.22845 7.27247e-18
7486.92604 7.75110e-18
7488.62362 8.18311e-18
7490.32121 8.47588e-18
7492.01880 8.53402e-18
7493.71639 8.14932e-18
7495.41398 7.32518e-18
7497.11156 6.67764e-18
7498.80915 6.71243e-18
7500.50674 7.17197e-18
7502.20433 7.64598e-18
7503.90192 7.94303e-18
7505.59950 8.01258e-18
7507.29709 8.18507e-18
7508.99468 8.78355e-18
7510.69227 9.37934e-18
7512.38986 9.30222e-18
7514.08745 8.34191e-18
7515.78503 6.67913e-18
7517.48262 5.22919e-18
7519.18021 5.20565e-18
7520.87780 6.30461e-18
7522.58543 7.06655e-18
7524.28302 7.14752e-18
7525.98061 7.22529e-18
7527.67819 7.49236e-18
7529.37578 7.68451e-18
7531.07337 7.68784e-18
7532.77096 7.51841e-18
7534.46855 7.28033e-18
7536.16614 7.21673e-18
7537.86372 7.40225e-18
7539.56131 7.61984e-18
7541.25890 7.72435e-18
7542.95649 7.74512e-18
7544.65408 7.71518e-18
7546.35166 7.66444e-18
7548.04925 7.59118e-18
7549.74684 7.37192e-18
7551.44443 7.36553e-18
7553.14202 7.35914e-18
7554.83960 7.35275e-18
7556.53719 7.34636e-18
7558.23478 7.33998e-18
7559.93237 7.33359e-18
7561.62996 7.32720e-18
7563.32754 7.32081e-18
7565.02513 7.31442e-18
7566.72272 7.30804e-18
7568.42031 7.30166e-18
7570.11790 7.29527e-18
7571.81549 7.28888e-18
7573.51307 7.28249e-18
7575.21066 7.27611e-18
7576.90825 7.26972e-18
7578.60584 7.26335e-18
7580.30343 7.25696e-18
7582.00101 7.25058e-18
7583.69860 7.24419e-18
7585.39619 7.23782e-18
7587.09378 7.23143e-18
7588.79137 7.22506e-18
7590.48895 7.21867e-18
7592.18654 7.21229e-18
7593.88413 7.20591e-18
7595.58172 7.19953e-18
7597.27931 7.19315e-18
7598.97689 7.18677e-18
7600.67448 7.18040e-18
7602.37207 7.17402e-18
7604.06966 7.16764e-18
7605.76725 7.16127e-18
7607.47488 7.15489e-18
7609.17247 7.14851e-18
7610.87006 7.14214e-18
7612.56764 7.13576e-18
7614.26523 7.12938e-18
7615.96282 7.12301e-18
7617.66041 7.11663e-18
7619.35800 7.11026e-18
7621.05559 7.10389e-18
7622.75317 7.09752e-18
7624.45076 7.09114e-18
7626.14835 7.08477e-18
7627.84594 7.07840e-18
7629.54353 7.07203e-18
7631.24111 7.06566e-18
7632.93870 7.05928e-18
7634.63629 7.05291e-18
7636.33388 7.04655e-18
7638.03147 7.04018e-18
7639.72905 7.03381e-18
7641.42664 7.02744e-18
7643.12423 7.02107e-18
7644.82182 7.01470e-18
7646.51941 7.00834e-18
7648.21699 7.00197e-18
7649.91458 6.99561e-18
7651.61217 6.98924e-18
7653.30976 6.98287e-18
7655.00735 6.97651e-18
7656.70494 6.97014e-18
7658.40252 6.96378e-18
7660.10011 6.95741e-18
7661.79770 6.95105e-18
7663.49529 6.94468e-18
7665.19288 6.93832e-18
7666.89046 6.93196e-18
7668.58805 6.92560e-18
7670.28564 6.91924e-18
7671.98323 6.91288e-18
7673.68082 6.90652e-18
7675.37840 6.90016e-18
7677.07599 6.89379e-18
7678.77358 6.88744e-18
7680.47117 6.88108e-18
7682.16876 6.88078e-18
7683.86634 6.80509e-18
7685.56393 6.67871e-18
7687.26152 6.53770e-18
7688.96915 6.46685e-18
7690.66674 6.55296e-18
7692.36433 6.73877e-18
7694.06192 6.86440e-18
7695.75951 6.85134e-18
7697.45709 6.70770e-18
7699.15468 6.48955e-18
7700.85227 6.30110e-18
7702.54986 6.29648e-18
7704.24745 6.67239e-18
7705.94504 7.32759e-18
7707.64262 7.75784e-18
7709.34021 7.75599e-18
7711.03780 7.62615e-18
7712.73539 7.50770e-18
7714.43298 7.16601e-18
7716.13056 6.57762e-18
7717.82815 6.21745e-18
7719.52574 6.29354e-18
7721.22333 6.22200e-18
7722.92092 5.69598e-18
7724.61850 5.48410e-18
7726.31609 6.14656e-18
7728.01368 7.06488e-18
7729.71127 7.56336e-18
7731.40886 7.75730e-18
7733.10644 7.88913e-18
7734.80403 7.70593e-18
7736.50162 6.99122e-18
7738.19921 6.36535e-18
7739.89680 6.56231e-18
7741.59439 7.22003e-18
7743.29197 7.54543e-18
7744.98956 7.53492e-18
7746.68715 7.60804e-18
7748.38474 7.82418e-18
7750.08233 8.02032e-18
7751.77991 8.08381e-18
7753.47750 7.94122e-18
7755.17509 7.72532e-18
7756.87268 7.75348e-18
7758.57027 8.12645e-18
7760.26785 8.70439e-18
7761.96544 9.12575e-18
7763.66303 8.74625e-18
7765.36062 7.66494e-18
7767.05821 7.10493e-18
7768.75579 7.53967e-18
7770.46343 8.07798e-18
7772.16102 8.13485e-18
7773.85860 7.88790e-18
7775.55619 7.52544e-18
7777.25378 7.11352e-18
7778.95137 6.76546e-18
7780.64896 6.71624e-18
7782.34654 7.05542e-18
7784.04413 7.46340e-18
7785.74172 7.62643e-18
7787.43931 7.50522e-18
7789.13690 7.19105e-18
7790.83448 7.00047e-18
7792.53207 7.19593e-18
7794.22966 7.39119e-18
7795.92725 7.14162e-18
7797.62484 7.05004e-18
7799.32243 7.93031e-18
7801.02001 9.19782e-18
7802.71760 9.66714e-18
7804.41519 9.17656e-18
7806.11278 8.26146e-18
7807.81037 7.49148e-18
7809.50795 7.41366e-18
7811.20554 7.82010e-18
7812.90313 7.81676e-18
7814.60072 7.39061e-18
7816.29831 7.44331e-18
7817.99589 8.02953e-18
7819.69348 8.20632e-18
7821.39107 7.77480e-18
7823.08866 7.56959e-18
7824.78625 7.86425e-18
7826.48384 7.99999e-18
7828.18142 7.67050e-18
7829.87901 7.29426e-18
7831.57660 7.08405e-18
7833.27419 6.68237e-18
7834.97178 5.98591e-18
7836.66936 5.60317e-18
7838.36695 5.95540e-18
7840.06454 6.81412e-18
7841.76213 7.74832e-18
7843.45972 8.05659e-18
7845.15730 7.33367e-18
7846.85489 6.33121e-18
7848.55248 5.94321e-18
7850.25007 6.20430e-18
7851.94766 6.81999e-18
7853.64524 7.61131e-18
7855.35288 8.39534e-18
7857.05047 8.80896e-18
7858.74805 8.53525e-18
7860.44564 7.84327e-18
7862.14323 7.30922e-18
7863.84082 6.99279e-18
7865.53841 6.59422e-18
7867.23599 6.18931e-18
7868.93358 6.11962e-18
7870.63117 6.23132e-18
7872.32876 5.93970e-18
7874.02635 5.32853e-18
7875.72393 5.20555e-18
7877.42152 5.82346e-18
7879.11911 6.74061e-18
7880.81670 7.37748e-18
7882.51429 6.91174e-18
7884.21188 5.46960e-18
7885.90946 4.87542e-18
7887.60705 5.95889e-18
7889.30464 7.36331e-18
7891.00223 8.01152e-18
7892.69982 7.91764e-18
7894.39740 7.32964e-18
7896.09499 6.77231e-18
7897.79258 6.63090e-18
7899.49017 6.60082e-18
7901.18776 6.39300e-18
7902.88534 6.35554e-18
7904.58293 6.79986e-18
7906.28052 7.38913e-18
7907.97811 7.65258e-18
7909.67570 7.33328e-18
7911.37328 6.41636e-18
7913.07087 5.51022e-18
7914.76846 5.36666e-18
7916.46605 6.01236e-18
7918.16364 6.98746e-18
7919.86123 7.53599e-18
7921.55881 6.88272e-18
7923.25640 5.50813e-18
7924.95399 4.83017e-18
7926.65158 5.29370e-18
7928.34917 6.39892e-18
7930.04675 7.51786e-18
7931.74434 7.88216e-18
7933.44193 7.42964e-18
7935.13952 7.04363e-18
7936.84715 7.02304e-18
7938.54474 6.76678e-18
7940.24233 6.17683e-18
7941.93992 5.97531e-18
7943.63750 6.50506e-18
7945.33509 7.42739e-18
7947.03268 8.25071e-18
7948.73027 8.23922e-18
7950.42786 7.13978e-18
7952.12544 5.89250e-18
7953.82303 5.31302e-18
7955.52062 5.33029e-18
7957.21821 5.68651e-18
7958.91580 6.12419e-18
7960.61338 6.44421e-18
7962.31097 6.81182e-18
7964.00856 7.37641e-18
7965.70615 7.70616e-18
7967.40374 7.34227e-18
7969.10133 6.55647e-18
7970.79891 5.88739e-18
7972.49650 5.54951e-18
7974.19409 5.54183e-18
7975.89168 5.67981e-18
7977.58927 5.67678e-18
7979.28685 5.52389e-18
7980.98444 5.41843e-18
7982.68203 5.35029e-18
7984.37962 5.15425e-18
7986.07721 4.80703e-18
7987.77479 4.41547e-18
7989.47238 4.18418e-18
7991.16997 4.41923e-18
7992.86756 5.09311e-18
7994.56515 5.73873e-18
7996.26273 6.04178e-18
7997.96032 5.95128e-18
7999.65791 5.54447e-18
8001.35550 5.11195e-18
8003.05309 4.80626e-18
8004.75068 4.41744e-18
8006.44826 3.86023e-18
8008.14585 3.43466e-18
8009.84344 3.32733e-18
8011.54103 3.29824e-18
8013.23862 3.16165e-18
8014.93620 3.12815e-18
8016.63379 3.38288e-18
8018.34143 3.75214e-18
8020.03901 4.02229e-18
8021.73660 4.22264e-18
8023.43419 4.42409e-18
8025.13178 4.50302e-18
8026.82937 4.31868e-18
8028.52695 4.00993e-18
8030.22454 3.79978e-18
8031.92213 3.57959e-18
8033.61972 3.10649e-18
8035.31731 2.53175e-18
8037.01489 2.23700e-18
8038.71248 2.26207e-18
8040.41007 2.38443e-18
8042.10766 2.57535e-18
8043.80525 2.96384e-18
8045.50283 3.54950e-18
8047.20042 4.20750e-18
8048.89801 4.72688e-18
8050.59560 4.80127e-18
8052.29319 4.33626e-18
8053.99078 3.54623e-18
8055.68836 2.67877e-18
8057.38595 1.95252e-18
8059.08354 1.63097e-18
8060.78113 2.10972e-18
8062.47872 3.32414e-18
8064.17630 4.25370e-18
8065.87389 4.21933e-18
8067.57148 3.64019e-18
8069.26907 3.04140e-18
8070.96666 2.65953e-18
8072.66424 2.63556e-18
8074.36183 3.03464e-18
8076.05942 3.75705e-18
8077.75701 4.29248e-18
8079.45460 4.18946e-18
8081.15218 3.71632e-18
8082.84977 3.33950e-18
8084.54736 3.05409e-18
8086.24495 2.69472e-18
8087.94254 2.36466e-18
8089.64013 2.26774e-18
8091.33771 2.47811e-18
8093.03530 2.96053e-18
8094.73289 3.52366e-18
8096.43048 3.87754e-18
8098.12807 3.91692e-18
8099.82565 3.72178e-18
8101.52324 3.41907e-18
8103.22083 3.18181e-18
8104.92846 3.02937e-18
8106.62605 2.77762e-18
8108.32364 2.48051e-18
8110.02123 2.51993e-18
8111.71882 2.93723e-18
8113.41640 3.27408e-18
8115.11399 3.15673e-18
8116.81158 2.33251e-18
8118.50917 1.03331e-18
8120.20676 4.87233e-19
8121.90434 1.29701e-18
8123.60193 2.37530e-18
8125.29952 2.82169e-18
8126.99711 2.90844e-18
8128.69470 2.99746e-18
8130.39228 3.08726e-18
8132.08987 3.11995e-18
8133.78746 3.04959e-18
8135.48505 2.84478e-18
8137.18264 2.49954e-18
8138.88023 2.06887e-18
8140.57781 1.84422e-18
8142.27540 2.09173e-18
8143.97299 2.54336e-18
8145.67058 2.72462e-18
8147.36817 2.51591e-18
8149.06575 2.05369e-18
8150.76334 1.64272e-18
8152.46093 1.66677e-18
8154.15852 2.10318e-18
8155.85611 2.57989e-18
8157.55369 2.95498e-18
8159.25128 3.30913e-18
8160.94887 3.60451e-18
8162.64646 3.69677e-18
8164.34405 3.61219e-18
8166.04163 3.58110e-18
8167.73922 3.63067e-18
8169.43681 3.48927e-18
8171.13440 3.01618e-18
8172.83199 2.29443e-18
8174.52958 1.48357e-18
8176.22716 8.32791e-19
8177.92475 5.54873e-19
8179.62234 8.00968e-19
8181.31993 1.49747e-18
8183.01752 2.09629e-18
8184.71510 2.17828e-18
8186.41269 1.83460e-18
8188.12032 1.35023e-18
8189.81791 1.29847e-18
8191.51550 2.01968e-18
8193.21309 2.79177e-18
8194.91068 2.78758e-18
8196.60827 2.09223e-18
8198.30585 1.18569e-18
8200.00344 6.64062e-19
8201.70103 1.00359e-18
8203.39862 1.73565e-18
8205.09621 1.98387e-18
8206.79379 1.88150e-18
8208.49138 2.15605e-18
8210.18897 2.83775e-18
8211.88656 3.45509e-18
8213.58415 3.72174e-18
8215.28173 3.51362e-18
8216.97932 3.00145e-18
8218.67691 2.67676e-18
8220.37450 2.63699e-18
8222.07209 2.48346e-18
8223.76967 2.11012e-18
8225.46726 1.82429e-18
8227.16485 1.74120e-18
8228.86244 1.65670e-18
8230.56003 1.53918e-18
8232.25762 1.70306e-18
8233.95520 2.24423e-18
8235.65279 2.76725e-18
8237.35038 3.00545e-18
8239.04797 3.13592e-18
8240.74556 3.29507e-18
8242.44314 3.31620e-18
8244.14073 3.08632e-18
8245.83832 2.78772e-18
8247.53591 2.60391e-18
8249.23350 2.53343e-18
8250.93108 2.49542e-18
8252.62867 2.24870e-18
8254.32626 1.63770e-18
8256.02385 1.14967e-18
8257.72144 1.36557e-18
8259.41903 2.00429e-18
8261.11661 2.40584e-18
8262.81420 2.32940e-18
8264.51179 1.84973e-18
8266.20938 1.36434e-18
8267.91701 1.44800e-18
8269.60455 2.01732e-18
8271.30214 2.43234e-18
8273.00977 2.42556e-18
8274.70736 2.10600e-18
8276.40495 1.67732e-18
8278.10254 1.46771e-18
8279.80013 1.59630e-18
8281.49772 1.87369e-18
8283.19530 2.18833e-18
8284.89289 2.57340e-18
8286.59048 2.97335e-18
8288.28807 3.18965e-18
8289.98566 3.14715e-18
8291.68324 3.00606e-18
8293.38083 2.91228e-18
8295.07842 2.92333e-18
8296.77601 3.04110e-18
8298.47360 3.16571e-18
8300.17118 3.20055e-18
8301.86877 3.12365e-18
8303.56636 2.94401e-18
8305.26395 2.70491e-18
8306.96154 2.45050e-18
8308.65912 2.17759e-18
8310.35671 1.88063e-18
8312.05430 1.56831e-18
8313.75189 1.28408e-18
8315.44948 1.23735e-18
8317.14707 1.62978e-18
8318.84465 2.26675e-18
8320.54224 2.76207e-18
8322.23983 2.98765e-18
8323.93742 3.01360e-18
8325.63501 2.99624e-18
8327.33259 3.14639e-18
8329.03018 3.42887e-18
8330.72777 3.57810e-18
8332.42536 3.46117e-18
8334.12295 3.09024e-18
8335.82053 2.63449e-18
8337.51812 2.46331e-18
8339.21571 2.58968e-18
8340.91330 2.50269e-18
8342.61089 2.06462e-18
8344.30847 1.75304e-18
8346.00606 1.89189e-18
8347.70365 2.50709e-18
8349.40124 3.41230e-18
8351.09883 4.03099e-18
8352.79642 4.01303e-18
8354.50405 3.64062e-18
8356.20164 3.26019e-18
8357.89922 3.07656e-18
8359.59681 3.18730e-18
8361.29440 3.48617e-18
8362.99199 3.78577e-18
8364.68958 3.84540e-18
8366.38717 3.51419e-18
8368.08475 2.99993e-18
8369.78234 2.60906e-18
8371.47993 2.38094e-18
8373.17752 2.26671e-18
8374.87511 2.47195e-18
8376.57269 3.22448e-18
8378.27028 4.23122e-18
8379.96787 4.92803e-18
8381.66546 5.19076e-18
8383.36305 5.22048e-18
8385.06063 5.05909e-18
8386.75822 4.64699e-18
8388.45581 3.91620e-18
8390.15340 2.78077e-18
8391.85099 1.71575e-18
8393.54857 1.80380e-18
8395.24616 3.10647e-18
8396.94375 4.34650e-18
8398.64134 4.76944e-18
8400.33893 4.47079e-18
8402.03652 3.76507e-18
8403.73410 3.31854e-18
8405.43169 3.43206e-18
8407.12928 3.55272e-18
8408.82687 3.31988e-18
8410.52446 3.01423e-18
8412.22204 2.90078e-18
8413.91963 3.01687e-18
8415.61722 3.32146e-18
8417.31481 3.65282e-18
8419.01240 3.86602e-18
8420.70998 4.00830e-18
8422.40757 4.14679e-18
8424.10516 4.15102e-18
8425.80275 3.91815e-18
8427.50034 3.74552e-18
8429.19792 3.96689e-18
8430.89551 4.32889e-18
8432.59310 4.37755e-18
8434.29069 4.15820e-18
8435.99832 3.98380e-18
8437.69591 3.99865e-18
8439.39350 4.21139e-18
8441.09109 4.38304e-18
8442.77863 4.11082e-18
8444.48626 3.51914e-18
8446.18385 3.21174e-18
8447.88144 3.43141e-18
8449.57903 4.02105e-18
8451.27662 4.72235e-18
8452.97420 5.14615e-18
8454.67179 5.15164e-18
8456.36938 4.99585e-18
8458.06697 4.80131e-18
8459.76456 4.42746e-18
8461.46214 3.85205e-18
8463.15973 3.24825e-18
8464.85732 2.81951e-18
8466.55491 2.82318e-18
8468.25250 3.32825e-18
8469.95008 3.99658e-18
8471.64767 4.48333e-18
8473.34526 4.59805e-18
8475.04285 4.32372e-18
8476.74044 4.03581e-18
8478.43802 4.07665e-18
8480.13561 4.32070e-18
8481.83320 4.51180e-18
8483.53079 4.47560e-18
8485.22838 4.14764e-18
8486.92597 3.80009e-18
8488.62355 3.79279e-18
8490.32114 4.07783e-18
8492.01873 4.40357e-18
8493.71632 4.77759e-18
8495.41391 5.32792e-18
8497.11149 5.90567e-18
8498.80908 6.19704e-18
8500.50667 6.08602e-18
8502.20426 5.64813e-18
8503.90185 5.17226e-18
8505.59943 5.14199e-18
8507.29702 5.61812e-18
8508.99461 6.14676e-18
8510.69220 6.47685e-18
8512.38979 6.66484e-18
8514.08737 6.65545e-18
8515.78496 6.22275e-18
8517.49260 5.39553e-18
8519.19018 4.59701e-18
8520.87773 4.19129e-18
8522.58536 4.41151e-18
8524.27290 5.17025e-18
8525.98054 5.70429e-18
8527.67812 5.51611e-18
8529.37571 5.03202e-18
8531.07330 4.73409e-18
8532.77089 4.75774e-18
8534.46848 5.06400e-18
8536.16606 5.27924e-18
8537.86365 5.08400e-18
8539.56124 4.77079e-18
8541.25883 4.73940e-18
8542.95642 4.90300e-18
8544.65401 5.00255e-18
8546.35159 4.95085e-18
8548.04918 4.76380e-18
8549.74677 4.54544e-18
8551.44436 4.45185e-18
8553.14195 4.55272e-18
8554.83953 4.83262e-18
8556.53712 5.23859e-18
8558.23471 5.67888e-18
8559.93230 5.98189e-18
8561.62989 5.93005e-18
8563.32747 5.61127e-18
8565.02506 5.44365e-18
8566.72265 5.57527e-18
8568.42024 5.79704e-18
8570.11783 5.99409e-18
8571.81542 6.19458e-18
8573.51300 6.38452e-18
8575.21059 6.50705e-18
8576.90818 6.48273e-18
8578.60577 6.15984e-18
8580.30336 5.55662e-18
8582.00094 5.05835e-18
8583.69853 4.92368e-18
8585.39612 4.98749e-18
8587.09371 5.07357e-18
8588.79130 5.18341e-18
8590.48888 5.34402e-18
8592.18647 5.61875e-18
8593.88406 5.99575e-18
8595.58165 6.13246e-18
8597.27924 5.73893e-18
8598.97682 5.06818e-18
8600.67441 4.54969e-18
8602.37200 4.43435e-18
8604.07963 4.79748e-18
8605.76718 5.31770e-18
8607.47481 5.51754e-18
8609.17240 5.46260e-18
8610.86999 5.55036e-18
8612.56757 5.77868e-18
8614.26516 5.87348e-18
8615.96275 5.76190e-18
8617.66034 5.54196e-18
8619.35793 5.53598e-18
8621.05551 6.26661e-18
8622.75310 7.68135e-18
8624.45069 9.06239e-18
8626.14828 9.71046e-18
8627.84587 8.98087e-18
8629.54346 7.00784e-18
8631.24104 5.11072e-18
8632.93863 4.17329e-18
8634.63622 4.16953e-18
8636.33381 4.75814e-18
8638.03140 5.09718e-18
8639.72898 4.75751e-18
8641.42657 4.47654e-18
8643.12416 4.82451e-18
8644.82175 5.49042e-18
8646.51934 6.04441e-18
8648.21692 6.16952e-18
8649.91451 5.74053e-18
8651.61210 5.14248e-18
8653.30969 4.83198e-18
8655.00728 4.89792e-18
8656.70486 5.25384e-18
8658.40245 5.74794e-18
8660.10004 6.19522e-18
8661.79763 6.49860e-18
8663.49522 6.62258e-18
8665.19281 6.46986e-18
8666.89039 5.96521e-18
8668.58798 5.33788e-18
8670.28557 4.99617e-18
8671.98316 5.01282e-18
8673.68075 5.17122e-18
8675.37833 5.38149e-18
8677.07592 5.66631e-18
8678.77351 6.02291e-18
8680.47110 6.43962e-18
8682.16869 6.83447e-18
8683.86627 7.04077e-18
8685.56386 6.94910e-18
8687.26145 6.52619e-18
8688.96908 5.89568e-18
8690.66667 5.41812e-18
8692.36426 5.31703e-18
8694.06185 5.53227e-18
8695.75944 5.91121e-18
8697.45702 6.19603e-18
8699.15461 6.20669e-18
8700.85220 5.98246e-18
8702.54979 5.64729e-18
8704.24738 5.39216e-18
8705.94496 5.37359e-18
8707.64255 5.65573e-18
8709.34014 6.16893e-18
8711.03773 6.46253e-18
8712.73532 6.16497e-18
8714.43291 5.72527e-18
8716.13049 5.76107e-18
8717.82808 6.09101e-18
8719.52567 6.22456e-18
8721.22326 6.10938e-18
8722.92085 5.93728e-18
8724.61843 5.92212e-18
8726.31602 6.25739e-18
8728.01361 6.70540e-18
8729.71120 6.72541e-18
8731.40879 6.36254e-18
8733.10637 6.17971e-18
8734.80396 6.33310e-18
8736.50155 6.56016e-18
8738.19914 6.67444e-18
8739.89673 6.56634e-18
8741.59431 6.24411e-18
8743.29190 5.89679e-18
8744.98949 5.65765e-18
8746.68708 5.55068e-18
8748.38467 5.54457e-18
8750.08226 5.52556e-18
8751.77984 5.41808e-18
8753.47743 5.20761e-18
8755.17502 5.01024e-18
8756.87261 5.25190e-18
8758.57020 6.12380e-18
8760.26778 7.14070e-18
8761.96537 7.79029e-18
8763.66296 7.86678e-18
8765.36055 7.37783e-18
8767.05814 6.76530e-18
8768.75572 6.43617e-18
8770.45331 6.07124e-18
8772.16095 5.24242e-18
8773.85853 4.15641e-18
8775.55612 3.29262e-18
8777.25371 3.17037e-18
8778.95130 4.13204e-18
8780.64889 5.47835e-18
8782.34647 5.99243e-18
8784.04406 5.67397e-18
8785.74165 5.40342e-18
8787.43924 5.38984e-18
8789.13683 5.30704e-18
8790.83441 5.12088e-18
8792.53200 5.01857e-18
8794.22959 5.03373e-18
8795.92718 5.06261e-18
8797.62477 4.96885e-18
8799.32236 4.55812e-18
8801.01994 3.93806e-18
8802.71753 3.68346e-18
8804.41512 3.97732e-18
8806.11271 4.29369e-18
8807.81030 4.29490e-18
8809.50788 4.10415e-18
8811.20547 3.87267e-18
8812.90306 3.73248e-18
8814.60065 3.73463e-18
8816.29824 3.69804e-18
8817.99582 3.49856e-18
8819.69341 3.28794e-18
8821.39100 3.23926e-18
8823.08859 3.40852e-18
8824.78618 3.77300e-18
8826.48376 4.18684e-18
8828.18135 4.48350e-18
8829.87894 4.58739e-18
8831.57653 4.50131e-18
8833.27412 4.36422e-18
8834.97171 4.34792e-18
8836.66929 4.39580e-18
8838.36688 4.33662e-18
8840.06447 4.23182e-18
8841.76206 4.26911e-18
8843.45965 4.33097e-18
8845.15723 4.09950e-18
8846.85482 3.62339e-18
8848.55241 3.27719e-18
8850.25000 3.29832e-18
8851.94759 3.77058e-18
8853.65522 4.56430e-18
8855.34276 5.26992e-18
8857.05040 5.75803e-18
8858.74798 6.34758e-18
8860.44557 7.02326e-18
8862.14316 7.20369e-18
8863.84075 6.66044e-18
8865.53834 5.80864e-18
8867.23592 5.07188e-18
8868.93351 4.80801e-18
8870.63110 5.07426e-18
8872.32869 5.20535e-18
8874.02628 4.78270e-18
8875.72386 4.36673e-18
8877.42145 4.51547e-18
8879.11904 5.23788e-18
8880.81663 6.28851e-18
8882.51422 7.07449e-18
8884.21181 7.09193e-18
8885.90939 6.60168e-18
8887.60698 6.11022e-18
8889.30457 5.67036e-18
8891.00216 5.19790e-18
8892.69975 5.04531e-18
8894.39733 5.63425e-18
8896.09492 6.60018e-18
8897.79251 7.14483e-18
8899.49010 7.14235e-18
8901.18769 6.96984e-18
8902.88527 6.50181e-18
8904.58286 5.26505e-18
8906.28045 3.85026e-18
8907.97804 3.80764e-18
8909.67563 5.15112e-18
8911.37321 6.14885e-18
8913.07080 5.90136e-18
8914.76839 4.62240e-18
8916.46598 2.93922e-18
8918.16357 2.13774e-18
8919.86116 2.61318e-18
8921.55874 3.05836e-18
8923.25633 2.73877e-18
8924.95392 2.33091e-18
8926.65151 2.38324e-18
8928.34910 2.89898e-18
8930.04668 3.69570e-18
8931.74427 4.27362e-18
8933.44186 4.29034e-18
8935.14949 4.03839e-18
8936.83704 3.87816e-18
8938.53462 3.84840e-18
8940.24226 3.90232e-18
8941.93985 3.96803e-18
8943.63743 4.01523e-18
8945.33502 4.35733e-18
8947.03261 5.27884e-18
8948.73020 6.25411e-18
8950.42779 6.50412e-18
8952.12537 6.16902e-18
8953.82296 5.88418e-18
8955.52055 5.67672e-18
8957.21814 5.20254e-18
8958.91573 4.50939e-18
8960.61331 3.92059e-18
8962.31090 3.61236e-18
8964.00849 3.62250e-18
8965.70608 3.87475e-18
8967.40367 4.16896e-18
8969.10125 4.27003e-18
8970.79884 3.90760e-18
8972.49643 3.25552e-18
8974.19402 3.13403e-18
8975.89161 3.79732e-18
8977.58920 4.51491e-18
8979.28678 4.82398e-18
8980.98437 4.92994e-18
8982.68196 4.91452e-18
8984.37955 4.38142e-18
8986.07714 3.34456e-18
8987.77472 2.92889e-18
8989.47231 3.83311e-18
8991.16990 5.15344e-18
8992.86749 5.96240e-18
8994.56508 6.41340e-18
8996.26266 6.81224e-18
8997.96025 6.96681e-18
8999.65784 6.65352e-18
9001.35543 5.99176e-18
9003.05302 5.22395e-18
9004.75061 4.56918e-18
9006.44819 4.17244e-18
9008.14578 3.88480e-18
9009.84337 3.43283e-18
9011.54096 2.83746e-18
9013.23855 2.32849e-18
9014.93613 2.14858e-18
9016.63372 2.51451e-18
9018.33131 3.36283e-18
9020.02890 4.35461e-18
9021.72649 5.19245e-18
9023.43412 5.66073e-18
9025.13171 5.52513e-18
9026.82930 4.54242e-18
9028.52688 3.12048e-18
9030.22447 2.51929e-18
9031.92206 3.14568e-18
9033.61965 4.02851e-18
9035.31724 4.54268e-18
9037.01482 4.83403e-18
9038.71241 5.01956e-18
9040.41000 5.08651e-18
9042.10759 5.02240e-18
9043.80518 4.76403e-18
9045.50276 4.31409e-18
9047.20035 3.89397e-18
9048.89794 3.63803e-18
9050.59553 3.25208e-18
9052.29312 2.54572e-18
9053.99070 2.00078e-18
9055.68829 2.09930e-18
9057.38588 2.67503e-18
9059.08347 3.31487e-18
9060.78106 3.65184e-18
9062.47865 3.44434e-18
9064.17623 2.76459e-18
9065.87382 1.93317e-18
9067.57141 1.67086e-18
9069.26900 2.70149e-18
9070.96659 4.24253e-18
9072.66417 4.57816e-18
9074.36176 3.66589e-18
9076.05935 2.84511e-18
9077.75694 2.67308e-18
9079.45453 2.96883e-18
9081.15211 3.53617e-18
9082.84970 4.10183e-18
9084.54729 4.29303e-18
9086.24488 3.65787e-18
9087.94247 2.43017e-18
9089.64005 1.82488e-18
9091.33764 2.41603e-18
9093.03523 3.66642e-18
9094.73282 4.94335e-18
9096.43041 5.57226e-18
9098.12800 5.32040e-18
9099.82558 4.91716e-18
9101.52317 4.97219e-18
9103.22076 5.47323e-18
9104.92839 6.19354e-18
9106.62598 6.63061e-18
9108.32357 6.43489e-18
9110.01111 5.93390e-18
9111.71875 5.54924e-18
9113.41633 5.32725e-18
9115.11392 5.17164e-18
9116.81151 4.89842e-18
9118.50910 4.37319e-18
9120.20669 3.88328e-18
9121.90427 3.83152e-18
9123.60186 4.17414e-18
9125.29945 4.59976e-18
9126.99704 4.76679e-18
9128.69463 4.39104e-18
9130.39221 3.84747e-18
9132.08980 3.97099e-18
9133.78739 4.62775e-18
9135.48498 4.83348e-18
9137.18257 4.53769e-18
9138.88015 4.63392e-18
9140.57774 5.24097e-18
9142.27533 5.58323e-18
9143.97292 5.41393e-18
9145.67051 5.18041e-18
9147.36810 5.19824e-18
9149.06568 5.60472e-18
9150.76327 6.22081e-18
9152.46086 6.27658e-18
9154.15845 5.43621e-18
9155.85604 4.39214e-18
9157.55362 3.61878e-18
9159.25121 2.66824e-18
9160.94880 1.39547e-18
9162.64639 8.31178e-19
9164.34398 1.66273e-18
9166.04156 3.11969e-18
9167.73915 4.18926e-18
9169.43674 4.19624e-18
9171.13433 2.97332e-18
9172.83192 1.72155e-18
9174.52950 1.77126e-18
9176.22709 2.76079e-18
9177.92468 3.64006e-18
9179.62227 3.96003e-18
9181.31986 3.69402e-18
9183.01745 3.39966e-18
9184.71503 3.90639e-18
9186.42267 4.99047e-18
9188.11021 5.68320e-18
9189.81784 5.65436e-18
9191.50539 5.13226e-18
9193.21302 4.65537e-18
9194.91061 5.06505e-18
9196.60820 6.17183e-18
9198.30578 6.59789e-18
9200.00337 5.96033e-18
9201.70096 5.17780e-18
9203.39855 4.83754e-18
9205.09614 5.04674e-18
9206.79372 5.57266e-18
9208.49131 5.56545e-18
9210.18890 4.72918e-18
9211.88649 3.96504e-18
9213.58408 3.87049e-18
9215.28166 4.04653e-18
9216.97925 4.20218e-18
9218.67684 4.76754e-18
9220.37443 5.86730e-18
9222.07202 6.47880e-18
9223.76960 5.80539e-18
9225.46719 4.38335e-18
9227.16478 3.07854e-18
9228.86237 2.54720e-18
9230.55996 3.09237e-18
9232.25755 3.98198e-18
9233.95513 4.26619e-18
9235.65272 4.13193e-18
9237.35031 4.27961e-18
9239.04790 4.96094e-18
9240.74549 6.10349e-18
9242.44307 7.30818e-18
9244.14066 7.96139e-18
9245.83825 7.82582e-18
9247.53584 7.03357e-18
9249.23343 5.85446e-18
9250.93101 4.69301e-18
9252.62860 3.85926e-18
9254.32619 3.49891e-18
9256.02378 3.67452e-18
9257.72137 4.36245e-18
9259.41895 5.19061e-18
9261.11654 5.33066e-18
9262.81413 4.58140e-18
9264.51172 3.75486e-18
9266.20931 3.41300e-18
9267.91694 3.57174e-18
9269.60448 4.01150e-18
9271.31212 4.07159e-18
9272.99966 3.46927e-18
9274.70729 2.96654e-18
9276.40488 3.14285e-18
9278.10247 3.68637e-18
9279.80006 4.14726e-18
9281.49764 4.16303e-18
9283.19523 3.62253e-18
9284.89282 3.21015e-18
9286.59041 3.58530e-18
9288.28800 4.25465e-18
9289.98559 4.48034e-18
9291.68317 4.60492e-18
9293.38076 5.25080e-18
9295.07835 5.78272e-18
9296.77594 5.18653e-18
9298.47353 4.31963e-18
9300.17111 4.93820e-18
9301.86870 6.47052e-18
9303.56629 6.78486e-18
9305.26388 5.72828e-18
9306.96147 4.78409e-18
9308.65905 4.50726e-18
9310.35664 4.60985e-18
9312.05423 4.69639e-18
9313.75182 4.13543e-18
9315.44941 3.32661e-18
9317.14700 4.09562e-18
9318.84458 6.65764e-18
9320.54217 8.83143e-18
9322.23976 9.07363e-18
9323.93735 7.01428e-18
9325.63494 3.27325e-18
9327.33252 2.33761e-19
9329.03011 -7.18438e-19
9330.72770 -9.49873e-19
9332.42529 -1.59804e-18
9334.12288 -2.17304e-18
9335.82046 -2.03052e-18
9337.51805 -7.96251e-19
9339.21564 1.55698e-18
9340.91323 4.26434e-18
9342.61082 6.42228e-18
9344.30840 7.59274e-18
9346.00599 7.65520e-18
9347.70358 6.72022e-18
9349.41121 5.15935e-18
9351.09876 3.80899e-18
9352.80639 3.51091e-18
9354.49393 4.14969e-18
9356.20157 4.98378e-18
9357.89915 5.40215e-18
9359.59674 4.97842e-18
9361.29433 3.92310e-18
9362.99192 2.99648e-18
9364.68951 2.33797e-18
9366.38709 1.50241e-18
9368.08468 6.25122e-19
9369.78227 3.94350e-19
9371.47986 1.13134e-18
9373.17745 2.77481e-18
9374.87504 4.57579e-18
9376.57262 4.77874e-18
9378.27021 3.12606e-18
9379.96780 1.84763e-18
9381.66539 2.24230e-18
9383.36298 3.64394e-18
9385.06056 5.18612e-18
9386.75815 5.87470e-18
9388.45574 5.38351e-18
9390.15333 5.16158e-18
9391.85092 6.17468e-18
9393.54850 7.18560e-18
9395.24609 7.07555e-18
9396.94368 6.49393e-18
9398.64127 6.29566e-18
9400.33886 6.54479e-18
9402.03644 6.95018e-18
9403.73403 6.77790e-18
9405.43162 5.43587e-18
9407.12921 3.57401e-18
9408.82680 2.36028e-18
9410.52439 2.47730e-18
9412.22197 4.07853e-18
9413.91956 6.29690e-18
9415.61715 7.65750e-18
9417.31474 7.49273e-18
9419.01233 5.92522e-18
9420.70991 3.89345e-18
9422.40750 3.00892e-18
9424.10509 3.28929e-18
9425.80268 3.06783e-18
9427.50027 2.14599e-18
9429.19785 2.04965e-18
9430.89544 3.03492e-18
9432.59303 3.67806e-18
9434.29062 3.55087e-18
9435.98821 3.77862e-18
9437.69584 4.84797e-18
9439.39343 6.10778e-18
9441.09102 6.90307e-18
9442.78860 6.63808e-18
9444.48619 5.28667e-18
9446.18378 4.04665e-18
9447.88137 3.82156e-18
9449.57896 4.32964e-18
9451.27654 5.01929e-18
9452.97413 5.31905e-18
9454.67172 4.89360e-18
9456.36931 4.08029e-18
9458.06690 3.44341e-18
9459.76449 3.59227e-18
9461.46207 4.82657e-18
9463.15966 6.26578e-18
9464.85725 6.74909e-18
9466.55484 6.38002e-18
9468.25243 5.88988e-18
9469.95001 5.51912e-18
9471.64760 5.20508e-18
9473.34519 4.75962e-18
9475.04278 3.92061e-18
9476.74037 2.76620e-18
9478.43795 1.68346e-18
9480.13554 1.44261e-18
9481.83313 3.08932e-18
9483.53072 5.96986e-18
9485.22831 7.58595e-18
9486.92589 7.17307e-18
9488.62348 6.21248e-18
9490.32107 5.57335e-18
9492.01866 5.20128e-18
9493.71625 4.96059e-18
9495.41384 4.48276e-18
9497.11142 3.77891e-18
9498.80901 3.72063e-18
9500.50660 4.64060e-18
9502.20419 5.54885e-18
9503.90178 5.75677e-18
9505.59936 5.78916e-18
9507.29695 6.04412e-18
9508.99454 5.96050e-18
9510.69213 5.09362e-18
9512.38972 3.93556e-18
9514.08730 3.06864e-18
9515.78489 2.32757e-18
9517.48248 1.52373e-18
9519.19011 1.55224e-18
9520.88770 3.23151e-18
9522.58529 5.27996e-18
9524.28288 5.80457e-18
9525.98047 5.01455e-18
9527.67805 4.28095e-18
9529.37564 4.26886e-18
9531.07323 5.10032e-18
9532.77082 6.28819e-18
9534.46841 6.84616e-18
9536.16599 6.53483e-18
9537.86358 5.84373e-18
9539.56117 5.19438e-18
9541.25876 4.94487e-18
9542.95635 5.05432e-18
9544.65394 4.96894e-18
9546.35152 4.41673e-18
9548.04911 3.53710e-18
9549.74670 2.58990e-18
9551.44429 1.95121e-18
9553.14188 1.98342e-18
9554.83946 3.13329e-18
9556.53705 5.07314e-18
9558.23464 5.83143e-18
9559.93223 4.56295e-18
9561.62982 3.45307e-18
9563.32740 4.06462e-18
9565.02499 5.14722e-18
9566.72258 5.36824e-18
9568.42017 4.73654e-18
9570.11776 3.70603e-18
9571.81534 3.01232e-18
9573.51293 3.30264e-18
9575.21052 4.57939e-18
9576.90811 6.44208e-18
9578.60570 8.20901e-18
9580.30329 9.17119e-18
9582.00087 9.07208e-18
9583.69846 8.03868e-18
9585.39605 6.45155e-18
9587.09364 4.86024e-18
9588.79123 3.76025e-18
9590.48881 3.49324e-18
9592.18640 3.78475e-18
9593.88399 3.85389e-18
9595.58158 3.81794e-18
9597.27917 4.65978e-18
9598.97675 6.14580e-18
9600.67434 6.72452e-18
9602.38198 6.06122e-18
9604.07956 5.36602e-18
9605.76711 5.24212e-18
9607.47474 5.38114e-18
9609.17233 5.47431e-18
9610.86992 5.22026e-18
9612.56750 4.55001e-18
9614.26509 3.84105e-18
9615.96268 3.45141e-18
9617.66027 3.61980e-18
9619.35786 4.30300e-18
9621.05544 4.90385e-18
9622.75303 4.90158e-18
9624.45062 4.16106e-18
9626.14821 2.91717e-18
9627.84580 2.13906e-18
9629.54339 2.64150e-18
9631.24097 4.10312e-18
9632.93856 5.76224e-18
9634.63615 6.95521e-18
9636.33374 7.21803e-18
9638.03133 6.66092e-18
9639.72891 5.75065e-18
9641.42650 4.92340e-18
9643.12409 4.52031e-18
9644.82168 4.47868e-18
9646.51927 4.45258e-18
9648.21685 4.44046e-18
9649.91444 4.68955e-18
9651.61203 5.36493e-18
9653.30962 6.56264e-18
9655.00721 7.49562e-18
9656.70479 6.49025e-18
9658.40238 3.98751e-18
9660.09997 2.94043e-18
9661.79756 4.55919e-18
9663.49515 7.64257e-18
9665.19274 1.06921e-17
9666.89032 1.18426e-17
9668.58791 1.05134e-17
9670.28550 8.50283e-18
9671.98309 7.24036e-18
9673.68068 6.87944e-18
9675.37826 7.14559e-18
9677.07585 7.21498e-18
9678.77344 6.42166e-18
9680.47103 4.71615e-18
9682.16862 2.49566e-18
9683.86620 9.42560e-19
9685.56379 9.55003e-19
9687.26138 1.99081e-18
9688.96901 3.06353e-18
9690.66660 3.40793e-18
9692.36419 2.65816e-18
9694.06178 1.66080e-18
9695.75937 1.58711e-18
9697.45695 2.18612e-18
9699.15454 2.49457e-18
9700.85213 2.24562e-18
9702.54972 1.64586e-18
9704.24731 1.14676e-18
9705.94489 1.35654e-18
9707.64248 2.17372e-18
9709.34007 2.86942e-18
9711.03766 3.10498e-18
9712.73525 2.93759e-18
9714.43283 2.65006e-18
9716.13042 2.80548e-18
9717.82801 3.44705e-18
9719.52560 3.92288e-18
9721.22319 3.84337e-18
9722.92078 3.20136e-18
9724.61836 2.31897e-18
9726.31595 2.06944e-18
9728.01354 2.79924e-18
9729.71113 3.78078e-18
9731.40872 4.39256e-18
9733.10630 4.49070e-18
9734.80389 4.18393e-18
9736.50148 4.02557e-18
9738.19907 4.38760e-18
9739.89666 4.95756e-18
9741.59424 5.27186e-18
9743.29183 4.80883e-18
9744.98942 3.41259e-18
9746.68701 2.27703e-18
9748.38460 2.56934e-18
9750.08219 3.44965e-18
9751.77977 3.48641e-18
9753.47736 2.52512e-18
9755.17495 1.17784e-18
9756.87254 5.87241e-19
9758.57013 1.91809e-18
9760.26771 4.30958e-18
9761.96530 5.57607e-18
9763.66289 4.98953e-18
9765.36048 3.11732e-18
9767.05807 1.19331e-18
9768.75565 1.05543e-18
9770.45324 2.73099e-18
9772.16088 4.20900e-18
9773.85846 4.71777e-18
9775.55605 5.04272e-18
9777.25364 5.63992e-18
9778.95123 6.55399e-18
9780.64882 7.62235e-18
9782.34640 8.33475e-18
9784.04399 8.29721e-18
9785.74158 7.33180e-18
9787.43917 5.64995e-18
9789.13676 4.19207e-18
9790.83434 3.53127e-18
9792.53193 3.17340e-18
9794.22952 2.62002e-18
9795.92711 1.80797e-18
9797.62470 9.14097e-19
9799.32228 6.57446e-19
9801.01987 1.48484e-18
9802.71746 2.39721e-18
9804.41505 2.34999e-18
9806.11264 1.97775e-18
9807.81023 2.31801e-18
9809.50781 3.28367e-18
9811.20540 4.23866e-18
9812.90299 4.43810e-18
9814.60058 3.29860e-18
9816.29817 1.60180e-18
9817.99575 9.10294e-19
9819.69334 1.37278e-18
9821.39093 2.04793e-18
9823.08852 2.63476e-18
9824.78611 3.33853e-18
9826.48369 3.90760e-18
9828.18128 3.73429e-18
9829.87887 3.03279e-18
9831.57646 2.91390e-18
9833.27405 3.80189e-18
9834.97163 5.22386e-18
9836.66922 6.53141e-18
9838.36681 6.83305e-18
9840.06440 5.90904e-18
9841.76199 4.72439e-18
9843.45958 3.99846e-18
9845.15716 3.74205e-18
9846.85475 3.81263e-18
9848.55234 3.90742e-18
9850.24993 3.81058e-18
9851.94752 3.69378e-18
9853.65515 3.67269e-18
9855.34269 3.40552e-18
9857.05033 2.67336e-18
9858.74791 2.02177e-18
9860.44550 1.97046e-18
9862.14309 1.97472e-18
9863.84068 1.43461e-18
9865.53827 1.31639e-18
9867.23585 2.79446e-18
9868.93344 4.64151e-18
9870.63103 4.86828e-18
9872.32862 4.56585e-18
9874.02621 6.23845e-18
9875.72379 9.09472e-18
9877.42138 1.02219e-17
9879.11897 8.32986e-18
9880.81656 3.60916e-18
9882.51415 -1.70430e-18
9884.21173 -3.50937e-18
9885.90932 -1.32850e-18
9887.60691 1.25111e-18
9889.30450 2.18041e-18
9891.00209 1.34496e-18
9892.69968 -3.21581e-19
9894.39726 -2.30243e-19
9896.09485 2.29743e-18
9897.79244 4.65217e-18
9899.49003 5.00751e-18
9901.18762 3.26836e-18
9902.88520 2.20556e-19
9904.58279 -1.85057e-18
9906.28038 -1.59117e-18
9907.97797 -3.75584e-19
9909.67556 4.03211e-19
9911.37314 7.43073e-19
9913.07073 9.60753e-19
9914.76832 1.40638e-18
9916.46591 2.31563e-18
9918.16350 3.45181e-18
9919.86108 4.40231e-18
9921.55867 4.79293e-18
9923.25626 4.41952e-18
9924.95385 3.56499e-18
9926.65144 2.75272e-18
9928.34903 2.44538e-18
9930.04661 2.90134e-18
9931.74420 3.47040e-18
9933.44179 3.03371e-18
9935.14942 1.88640e-18
9936.83697 1.36250e-18
9938.54460 1.66279e-18
9940.23214 2.00926e-18
9941.93978 1.98173e-18
9943.63736 1.47176e-18
9945.33495 7.48092e-19
9947.03254 6.01973e-19
9948.73013 9.39261e-19
9950.42772 4.07603e-19
9952.12530 -1.22192e-18
9953.82289 -2.42573e-18
9955.52048 -2.27607e-18
9957.21807 -1.02808e-18
9958.91566 9.24570e-19
9960.61324 3.12651e-18
9962.31083 5.19593e-18
9964.00842 7.15869e-18
9965.70601 8.81482e-18
9967.40360 9.15262e-18
9969.10118 7.60047e-18
9970.79877 4.94423e-18
9972.49636 2.35435e-18
9974.19395 1.01514e-18
9975.89154 1.59873e-18
9977.58913 3.27455e-18
9979.28671 4.70309e-18
9980.98430 5.22604e-18
9982.68189 4.65821e-18
9984.37948 3.14761e-18
9986.07707 1.17777e-18
9987.77465 -5.26835e-19
9989.47224 -1.23024e-18
9991.16983 -6.03403e-19
9992.86742 1.21755e-18
9994.56501 3.02315e-18
9996.26259 2.88228e-18
9997.96018 1.30150e-18
9999.65777 1.10646e-18
