# wavelength flux
3479.99682 2.45818e-17
3481.46706 2.29776e-17
3482.93730 1.99781e-17
3484.40754 1.63479e-17
3485.87778 1.15743e-17
3487.34802 1.34767e-17
3488.81826 3.06464e-17
3490.28850 3.46584e-17
3491.75874 2.84388e-17
3493.22898 2.55317e-17
3494.69922 1.60359e-17
3496.16946 1.99032e-17
3497.63970 3.73949e-17
3499.10994 2.69441e-17
3500.58018 2.07545e-17
3502.05042 3.73982e-17
3503.52066 3.45630e-17
3504.99090 1.98769e-17
3506.46114 2.19919e-17
3507.93138 2.08762e-17
3509.40162 2.10604e-17
3510.87186 2.61803e-17
3512.34210 2.91469e-17
3513.81234 3.03436e-17
3515.28258 2.01369e-17
3516.75282 1.91610e-17
3518.22306 3.51435e-17
3519.69330 3.67612e-17
3521.16354 2.49967e-17
3522.63378 1.37036e-17
3524.10402 1.14046e-17
3525.57426 1.41128e-17
3527.04450 1.45059e-17
3528.51474 1.40334e-17
3529.98498 1.64089e-17
3531.44501 2.19129e-17
3532.91525 2.29741e-17
3534.38549 2.05876e-17
3535.85573 2.57408e-17
3537.32597 2.65782e-17
3538.79621 2.96890e-17
3540.26645 2.30823e-17
3541.73669 1.96128e-17
3543.20693 3.13114e-17
3544.67717 2.85405e-17
3546.14741 2.15589e-17
3547.61765 1.94388e-17
3549.08789 1.40048e-17
3550.55813 1.53886e-17
3552.02837 1.94526e-17
3553.49861 2.34046e-17
3554.96885 3.20483e-17
3556.43909 3.11738e-17
3557.90933 2.53705e-17
3559.37957 2.29853e-17
3560.84981 2.42070e-17
3562.32005 1.36399e-17
3563.79029 1.05230e-17
3565.26053 1.30359e-17
3566.73077 1.90106e-17
3568.20101 2.69362e-17
3569.67125 2.95352e-17
3571.14149 2.79155e-17
3572.61173 3.06531e-17
3574.08197 2.72219e-17
3575.55221 1.71908e-17
3577.02245 1.59792e-17
3578.49269 1.89675e-17
3579.96293 2.26826e-17
3581.43317 2.56731e-17
3582.90341 2.53398e-17
3584.37365 1.92724e-17
3585.84389 2.09677e-17
3587.31413 2.48736e-17
3588.78437 2.04408e-17
3590.25461 1.91489e-17
3591.72485 1.83731e-17
3593.18488 1.80403e-17
3594.65512 1.72660e-17
3596.12536 1.78055e-17
3597.59560 2.28401e-17
3599.06584 2.18203e-17
3600.53608 1.86674e-17
3602.00632 1.81137e-17
3603.47656 1.46195e-17
3604.94680 1.32900e-17
3606.41704 1.54155e-17
3607.88728 1.48744e-17
3609.35752 1.78551e-17
3610.82776 2.44087e-17
3612.29800 2.21532e-17
3613.76824 2.19977e-17
3615.23848 2.42267e-17
3616.70872 2.19845e-17
3618.17896 2.24778e-17
3619.64920 2.54638e-17
3621.11944 2.90739e-17
3622.58968 3.08608e-17
3624.05992 3.26550e-17
3625.53016 2.82053e-17
3627.00040 1.92519e-17
3628.47064 1.55854e-17
3629.94088 2.34532e-17
3631.41112 2.45445e-17
3632.88136 1.82449e-17
3634.35160 2.13804e-17
3635.82184 2.12836e-17
3637.29208 1.76838e-17
3638.76232 1.79821e-17
3640.23256 2.62031e-17
3641.70280 2.45881e-17
3643.17304 2.60515e-17
3644.64328 2.42731e-17
3646.11352 1.83995e-17
3647.58376 2.17922e-17
3649.05400 2.32594e-17
3650.52424 2.09238e-17
3651.99448 2.09904e-17
3653.46472 2.17274e-17
3654.92475 1.78497e-17
3656.39499 1.92980e-17
3657.86523 2.34652e-17
3659.33547 1.99113e-17
3660.80571 2.13816e-17
3662.27595 2.50443e-17
3663.74619 2.04260e-17
3665.21643 2.20421e-17
3666.68667 2.87148e-17
3668.15691 2.79491e-17
3669.62715 1.90007e-17
3671.09739 1.56524e-17
3672.56763 1.43728e-17
3674.03787 1.26053e-17
3675.50811 1.68961e-17
3676.97835 2.03722e-17
3678.44859 1.81486e-17
3679.91883 1.81177e-17
3681.38907 2.03907e-17
3682.85931 1.73145e-17
3684.32955 1.10102e-17
3685.79979 1.45670e-17
3687.27003 2.32745e-17
3688.74027 2.56415e-17
3690.21051 1.79927e-17
3691.68075 1.68716e-17
3693.15099 1.92635e-17
3694.62123 1.83272e-17
3696.09147 1.71937e-17
3697.56171 2.00235e-17
3699.03195 1.67788e-17
3700.50219 1.41067e-17
3701.97243 1.72245e-17
3703.44267 1.71970e-17
3704.91291 1.70600e-17
3706.38315 1.95249e-17
3707.85339 2.27152e-17
3709.32363 2.14270e-17
3710.79387 1.94976e-17
3712.26411 1.76728e-17
3713.73435 1.71668e-17
3715.20459 1.51004e-17
3716.67483 1.31696e-17
3718.13486 1.44202e-17
3719.60510 1.72296e-17
3721.07534 1.76336e-17
3722.54558 1.88636e-17
3724.01582 2.15033e-17
3725.48606 2.00479e-17
3726.95630 1.26662e-17
3728.42654 1.48465e-17
3729.89678 2.13658e-17
3731.36702 2.04089e-17
3732.83726 2.04595e-17
3734.30750 1.38833e-17
3735.77774 1.38098e-17
3737.24798 1.61534e-17
3738.71822 1.30002e-17
3740.18846 5.38689e-18
3741.65870 1.08296e-17
3743.12894 1.53245e-17
3744.59918 1.37047e-17
3746.06942 1.48294e-17
3747.53966 1.91347e-17
3749.00990 1.85631e-17
3750.48014 1.27010e-17
3751.95038 1.16434e-17
3753.42062 1.45451e-17
3754.89086 1.71835e-17
3756.36110 1.54046e-17
3757.83134 1.36986e-17
3759.30158 1.17007e-17
3760.77182 1.22071e-17
3762.24206 1.80710e-17
3763.71230 1.99650e-17
3765.18254 1.40250e-17
3766.65278 1.07372e-17
3768.12302 1.16117e-17
3769.59326 1.14497e-17
3771.06350 1.16977e-17
3772.53374 1.35643e-17
3774.00398 1.67301e-17
3775.47422 1.64108e-17
3776.94446 1.18493e-17
3778.41470 1.04400e-17
3779.88494 1.55729e-17
3781.34497 1.96695e-17
3782.81521 1.63944e-17
3784.28545 1.60775e-17
3785.75569 1.44106e-17
3787.22593 1.31817e-17
3788.69617 1.12227e-17
3790.16641 1.25274e-17
3791.63665 1.42303e-17
3793.10689 1.17123e-17
3794.57713 1.20799e-17
3796.04737 1.16630e-17
3797.51761 1.48265e-17
3798.98785 1.00267e-17
3800.45809 1.12729e-17
3801.92833 1.44671e-17
3803.39857 1.07007e-17
3804.86881 9.84087e-18
3806.33905 1.24140e-17
3807.80929 8.41869e-18
3809.27953 4.71197e-18
3810.74977 6.13154e-18
3812.22001 7.70301e-18
3813.69025 1.05239e-17
3815.16049 1.18025e-17
3816.63073 8.79230e-18
3818.10097 8.22227e-18
3819.57121 6.92206e-18
3821.04145 9.47735e-18
3822.51169 6.70112e-18
3823.98193 9.66332e-18
3825.45217 7.61936e-18
3826.92241 1.11836e-17
3828.39265 9.06959e-18
3829.86289 1.04038e-17
3831.33313 1.02286e-17
3832.80337 9.41497e-18
3834.27361 1.04674e-17
3835.74385 1.17280e-17
3837.21409 1.04474e-17
3838.68433 9.64651e-18
3840.15457 1.11332e-17
3841.62481 1.11838e-17
3843.08484 8.39023e-18
3844.55508 7.16698e-18
3846.02532 8.81962e-18
3847.49556 7.84450e-18
3848.96580 6.59155e-18
3850.43604 7.93648e-18
3851.90628 7.91261e-18
3853.37652 8.67857e-18
3854.84676 9.64165e-18
3856.31700 8.22068e-18
3857.78724 7.95514e-18
3859.25748 1.03016e-17
3860.72772 9.78258e-18
3862.19796 8.67961e-18
3863.66820 1.11400e-17
3865.13844 8.29576e-18
3866.60868 4.90928e-18
3868.07892 6.26539e-18
3869.54916 7.05482e-18
3871.01940 8.15637e-18
3872.48964 9.60540e-18
3873.95988 9.27163e-18
3875.43012 1.18835e-17
3876.90036 1.25577e-17
3878.37060 7.87870e-18
3879.84084 6.13798e-18
3881.31108 9.23328e-18
3882.78132 8.47885e-18
3884.25156 7.85312e-18
3885.72180 8.85625e-18
3887.19204 9.72360e-18
3888.66228 1.33662e-17
3890.13252 1.39811e-17
3891.60276 1.18736e-17
3893.07300 1.21598e-17
3894.54324 1.27278e-17
3896.01348 1.08195e-17
3897.48372 8.62827e-18
3898.95396 1.21812e-17
3900.42420 1.30722e-17
3901.89444 1.10950e-17
3903.36468 1.06588e-17
3904.83492 1.04264e-17
3906.29495 1.03850e-17
3907.76519 1.29325e-17
3909.23543 1.22448e-17
3910.70567 9.29903e-18
3912.17591 1.12579e-17
3913.64615 1.14674e-17
3915.11639 1.39110e-17
3916.58663 1.43637e-17
3918.05687 1.43775e-17
3919.52711 1.55270e-17
3920.99735 1.64144e-17
3922.46759 1.82966e-17
3923.93783 1.56660e-17
3925.40807 1.38010e-17
3926.87831 1.46783e-17
3928.34855 1.56345e-17
3929.81879 1.70352e-17
3931.28903 1.70237e-17
3932.75927 1.74298e-17
3934.22951 1.76121e-17
3935.69975 1.56304e-17
3937.16999 1.29658e-17
3938.64023 1.51845e-17
3940.11047 1.69204e-17
3941.58071 1.52555e-17
3943.05095 1.66539e-17
3944.52119 1.95832e-17
3945.99143 1.91825e-17
3947.46167 1.77812e-17
3948.93191 1.60990e-17
3950.40215 1.75877e-17
3951.87239 1.99602e-17
3953.34263 2.00216e-17
3954.81287 2.09922e-17
3956.28311 2.33240e-17
3957.75335 2.09115e-17
3959.22359 1.96291e-17
3960.69383 2.12501e-17
3962.16407 2.26266e-17
3963.63431 2.11611e-17
3965.10455 2.16210e-17
3966.57479 2.26357e-17
3968.04503 2.16525e-17
3969.50506 2.13359e-17
3970.97530 1.86351e-17
3972.44554 2.12407e-17
3973.91578 2.43995e-17
3975.38602 2.16557e-17
3976.85626 2.09731e-17
3978.32650 2.32032e-17
3979.79674 2.25550e-17
3981.26698 2.12930e-17
3982.73722 2.41752e-17
3984.20746 2.89266e-17
3985.67770 2.63743e-17
3987.14794 2.54911e-17
3988.61818 2.87363e-17
3990.08842 2.42902e-17
3991.55866 2.38497e-17
3993.02890 2.42620e-17
3994.49914 2.71461e-17
3995.96938 3.14401e-17
3997.43962 3.17651e-17
3998.90986 2.80858e-17
4000.38010 2.52823e-17
4001.85034 2.63182e-17
4003.32058 2.81457e-17
4004.79082 2.80079e-17
4006.26106 2.99639e-17
4007.73130 2.63112e-17
4009.20154 2.85754e-17
4010.67178 2.80026e-17
4012.14202 2.76889e-17
4013.61226 2.71958e-17
4015.08250 3.15267e-17
4016.55274 3.01807e-17
4018.02298 2.81733e-17
4019.49322 2.69476e-17
4020.96346 2.71165e-17
4022.43370 2.84675e-17
4023.90394 2.69447e-17
4025.37418 2.70546e-17
4026.84442 2.90529e-17
4028.31466 2.86339e-17
4029.78490 2.45587e-17
4031.24493 2.59179e-17
4032.71517 2.90956e-17
4034.18541 2.77716e-17
4035.65565 2.73978e-17
4037.12589 2.87157e-17
4038.59613 2.96101e-17
4040.06637 2.92921e-17
4041.53661 3.03805e-17
4043.00685 2.97696e-17
4044.47709 2.58299e-17
4045.94733 2.21824e-17
4047.41757 2.45289e-17
4048.88781 2.83797e-17
4050.35805 3.27313e-17
4051.82829 3.17376e-17
4053.29853 2.69536e-17
4054.76877 2.72725e-17
4056.23901 2.88901e-17
4057.70925 2.76175e-17
4059.17949 2.81081e-17
4060.64973 2.94003e-17
4062.11997 2.69264e-17
4063.59021 2.73146e-17
4065.06045 2.92556e-17
4066.53069 2.87012e-17
4068.00093 2.75114e-17
4069.47117 2.90626e-17
4070.94141 2.71509e-17
4072.41165 2.69345e-17
4073.88189 2.74524e-17
4075.35213 2.57100e-17
4076.82237 2.35365e-17
4078.29261 2.94767e-17
4079.76285 2.68251e-17
4081.23309 2.19639e-17
4082.70333 2.37286e-17
4084.17357 2.74313e-17
4085.64381 2.46602e-17
4087.11405 2.39506e-17
4088.58429 2.60529e-17
4090.05453 2.35605e-17
4091.52477 2.39374e-17
4092.98480 2.68458e-17
4094.45504 2.51005e-17
4095.92528 2.42546e-17
4097.39552 2.52876e-17
4098.86576 2.58409e-17
4100.33600 2.42224e-17
4101.80624 2.13825e-17
4103.27648 2.26450e-17
4104.74672 2.28762e-17
4106.21696 2.32516e-17
4107.68720 2.39171e-17
4109.15744 2.31238e-17
4110.62768 2.37045e-17
4112.09792 2.16573e-17
4113.56816 2.00302e-17
4115.03840 2.24364e-17
4116.50864 2.43930e-17
4117.97888 2.44967e-17
4119.44912 2.22631e-17
4120.91936 2.05602e-17
4122.38960 1.88859e-17
4123.85984 2.06473e-17
4125.33008 2.26977e-17
4126.80032 2.14938e-17
4128.27056 2.18800e-17
4129.74080 2.04930e-17
4131.21104 2.06523e-17
4132.68128 2.44201e-17
4134.15152 2.18737e-17
4135.62176 2.30163e-17
4137.09200 2.24415e-17
4138.56224 1.72037e-17
4140.03248 2.09097e-17
4141.50272 2.23082e-17
4142.97296 2.22522e-17
4144.44320 2.36593e-17
4145.91344 2.42007e-17
4147.38368 2.16302e-17
4148.85392 2.06746e-17
4150.32416 2.30698e-17
4151.79440 2.28242e-17
4153.26464 2.12787e-17
4154.73488 1.90165e-17
4156.20512 2.17104e-17
4157.66515 2.13053e-17
4159.13539 2.30290e-17
4160.60563 2.01340e-17
4162.07587 1.96369e-17
4163.54611 2.01306e-17
4165.01635 1.83781e-17
4166.48659 2.09725e-17
4167.95683 2.39452e-17
4169.42707 2.09193e-17
4170.89731 1.91605e-17
4172.36755 1.93713e-17
4173.83779 1.86753e-17
4175.30803 1.92246e-17
4176.77827 1.90306e-17
4178.24851 1.76864e-17
4179.71875 2.03111e-17
4181.18899 1.86921e-17
4182.65923 2.06525e-17
4184.12947 2.04847e-17
4185.59971 2.11332e-17
4187.06995 1.91615e-17
4188.54019 1.77121e-17
4190.01043 1.69811e-17
4191.48067 1.74973e-17
4192.95091 2.23593e-17
4194.42115 2.06153e-17
4195.89139 1.96745e-17
4197.36163 2.09195e-17
4198.83187 2.05710e-17
4200.30211 1.87975e-17
4201.77235 2.06559e-17
4203.24259 2.00873e-17
4204.71283 2.16283e-17
4206.18307 2.27695e-17
4207.65331 2.25388e-17
4209.12355 2.05522e-17
4210.59379 1.94237e-17
4212.06403 2.03998e-17
4213.53427 2.27606e-17
4215.00451 2.12992e-17
4216.47475 2.05120e-17
4217.94499 1.86130e-17
4219.40502 2.00956e-17
4220.87526 2.03300e-17
4222.34550 2.32362e-17
4223.81574 1.95569e-17
4225.28598 1.82144e-17
4226.75622 2.05600e-17
4228.22646 2.30593e-17
4229.69670 2.12284e-17
4231.16694 1.89765e-17
4232.63718 2.00863e-17
4234.10742 2.14976e-17
4235.57766 1.89592e-17
4237.04790 1.98462e-17
4238.51814 2.07714e-17
4239.98838 1.82465e-17
4241.45862 1.89640e-17
4242.92886 1.97850e-17
4244.39910 1.95512e-17
4245.86934 2.06540e-17
4247.33958 1.98212e-17
4248.80982 1.96861e-17
4250.28006 1.99503e-17
4251.75030 2.48291e-17
4253.22054 2.89210e-17
4254.69078 2.88276e-17
4256.16102 2.51484e-17
4257.63126 2.04969e-17
4259.10150 2.13168e-17
4260.57174 2.22550e-17
4262.04198 2.05200e-17
4263.51222 1.79843e-17
4264.98246 1.91005e-17
4266.45270 2.25115e-17
4267.92294 2.13893e-17
4269.39318 1.99655e-17
4270.86342 1.93024e-17
4272.33366 1.89862e-17
4273.80390 1.95453e-17
4275.27414 2.03171e-17
4276.74438 2.08091e-17
4278.21462 2.23552e-17
4279.68486 2.07049e-17
4281.14489 2.12918e-17
4282.61513 1.95083e-17
4284.08537 1.79210e-17
4285.55561 2.13071e-17
4287.02585 2.24966e-17
4288.49609 2.00822e-17
4289.96633 1.88223e-17
4291.43657 1.95134e-17
4292.90681 1.97976e-17
4294.37705 1.84808e-17
4295.84729 1.82876e-17
4297.31753 1.80944e-17
4298.78777 1.80923e-17
4300.25801 2.06310e-17
4301.72825 1.97883e-17
4303.19849 1.92406e-17
4304.66873 1.99229e-17
4306.13897 2.08962e-17
4307.60921 2.12268e-17
4309.07945 2.03781e-17
4310.54969 2.06227e-17
4312.01993 1.92249e-17
4313.49017 1.85132e-17
4314.96041 1.94831e-17
4316.43065 2.03438e-17
4317.90089 1.92485e-17
4319.37113 1.85661e-17
4320.84137 1.96283e-17
4322.31161 2.02256e-17
4323.78185 2.00730e-17
4325.25209 2.01867e-17
4326.72233 1.92507e-17
4328.19257 1.95588e-17
4329.66281 1.83026e-17
4331.13305 1.84536e-17
4332.60329 2.03538e-17
4334.07353 2.41338e-17
4335.54377 2.81592e-17
4337.01401 3.24788e-17
4338.48425 2.78353e-17
4339.95449 2.43457e-17
4341.41452 2.27469e-17
4342.88476 2.18721e-17
4344.35500 2.13799e-17
4345.82524 1.92279e-17
4347.29548 1.98464e-17
4348.76572 1.85196e-17
4350.23596 1.91569e-17
4351.70620 1.81204e-17
4353.17644 2.05878e-17
4354.64668 2.27137e-17
4356.11692 2.19403e-17
4357.58716 1.92747e-17
4359.05740 2.15949e-17
4360.52764 2.45344e-17
4361.99788 2.26008e-17
4363.46812 1.96360e-17
4364.93836 1.89952e-17
4366.40860 1.78254e-17
4367.87884 2.10890e-17
4369.34908 2.20375e-17
4370.81932 2.03185e-17
4372.28956 2.13841e-17
4373.75980 2.16134e-17
4375.23004 2.06576e-17
4376.70028 1.93429e-17
4378.17052 1.95584e-17
4379.64076 1.86706e-17
4381.11100 1.82093e-17
4382.58124 1.99162e-17
4384.05148 1.98220e-17
4385.52172 1.82753e-17
4386.99196 1.97753e-17
4388.46220 2.09678e-17
4389.93244 1.90705e-17
4391.40268 1.90967e-17
4392.87292 1.93681e-17
4394.34316 1.91326e-17
4395.81340 1.90760e-17
4397.28364 1.71963e-17
4398.75388 2.10465e-17
4400.22412 1.87026e-17
4401.69436 1.72651e-17
4403.16460 1.94018e-17
4404.63484 1.89693e-17
4406.10508 1.99362e-17
4407.56511 1.87697e-17
4409.03535 1.78294e-17
4410.50559 1.57106e-17
4411.97583 1.61524e-17
4413.44607 1.74426e-17
4414.91631 1.64361e-17
4416.38655 1.88608e-17
4417.85679 1.99305e-17
4419.32703 1.95837e-17
4420.79727 1.58637e-17
4422.26751 1.62311e-17
4423.73775 1.46951e-17
4425.20799 1.75842e-17
4426.67823 1.73465e-17
4428.14847 1.68873e-17
4429.61871 1.46812e-17
4431.08895 1.64499e-17
4432.55919 1.70711e-17
4434.02943 1.52386e-17
4435.49967 1.53171e-17
4436.96991 1.36266e-17
4438.44015 1.37904e-17
4439.91039 1.58790e-17
4441.38063 1.62358e-17
4442.85087 1.50144e-17
4444.32111 1.48380e-17
4445.79135 1.70550e-17
4447.26159 1.75856e-17
4448.73183 1.61361e-17
4450.20207 1.57387e-17
4451.67231 1.49733e-17
4453.14255 1.39360e-17
4454.61279 1.43451e-17
4456.08303 1.43968e-17
4457.55327 1.63073e-17
4459.02351 1.49849e-17
4460.49375 1.29236e-17
4461.96399 1.46507e-17
4463.43423 1.53787e-17
4464.90447 1.35027e-17
4466.37471 1.39889e-17
4467.83474 1.28974e-17
4469.30498 1.17481e-17
4470.77522 1.19009e-17
4472.24546 1.46530e-17
4473.71570 1.58596e-17
4475.18594 1.62010e-17
4476.65618 1.52703e-17
4478.12642 1.47354e-17
4479.59666 1.48034e-17
4481.06690 1.37447e-17
4482.53714 1.40089e-17
4484.00738 1.50506e-17
4485.47762 1.46466e-17
4486.94786 1.39575e-17
4488.41810 1.35444e-17
4489.88834 1.54837e-17
4491.35858 1.42490e-17
4492.82882 1.42349e-17
4494.29906 1.38307e-17
4495.76930 1.43107e-17
4497.23954 1.47940e-17
4498.70978 1.49385e-17
4500.18002 1.69181e-17
4501.65026 1.30644e-17
4503.12050 1.32718e-17
4504.59074 1.51883e-17
4506.06098 1.59890e-17
4507.53122 1.66506e-17
4509.00146 1.39286e-17
4510.47170 1.46795e-17
4511.94194 1.58230e-17
4513.41218 1.55004e-17
4514.88242 1.26580e-17
4516.35266 1.30173e-17
4517.82290 1.47330e-17
4519.29314 1.69644e-17
4520.76338 1.62974e-17
4522.23362 1.44452e-17
4523.70386 1.63659e-17
4525.17410 1.78068e-17
4526.64434 1.68203e-17
4528.11458 1.64765e-17
4529.58482 1.80049e-17
4531.04485 1.69393e-17
4532.51509 1.70946e-17
4533.98533 1.61261e-17
4535.45557 1.49285e-17
4536.92581 1.80199e-17
4538.39605 1.93893e-17
4539.86629 1.76918e-17
4541.33653 1.67349e-17
4542.80677 1.69938e-17
4544.27701 1.75505e-17
4545.74725 1.57198e-17
4547.21749 1.42369e-17
4548.68773 1.54491e-17
4550.15797 1.66071e-17
4551.62821 1.76544e-17
4553.09845 1.72866e-17
4554.56869 1.74810e-17
4556.03893 1.95257e-17
4557.50917 1.73608e-17
4558.97941 1.70240e-17
4560.44965 1.98539e-17
4561.91989 1.90814e-17
4563.39013 2.04179e-17
4564.86037 1.84780e-17
4566.33061 1.77039e-17
4567.80085 2.01947e-17
4569.27109 1.95820e-17
4570.74133 2.04908e-17
4572.21157 1.89535e-17
4573.68181 1.92909e-17
4575.15205 2.12852e-17
4576.62229 1.95082e-17
4578.09253 1.99557e-17
4579.56277 2.06708e-17
4581.03301 1.90627e-17
4582.50325 2.07020e-17
4583.97349 2.13900e-17
4585.44373 2.09413e-17
4586.91397 2.23958e-17
4588.38421 2.17492e-17
4589.85445 2.05948e-17
4591.32469 2.09937e-17
4592.79493 1.96760e-17
4594.25496 1.68776e-17
4595.72520 1.70417e-17
4597.19544 1.96067e-17
4598.66568 1.99883e-17
4600.13592 2.01760e-17
4601.60616 2.14249e-17
4603.07640 2.17067e-17
4604.54664 2.03045e-17
4606.01688 2.00302e-17
4607.48712 2.16973e-17
4608.95736 2.23410e-17
4610.42760 2.13583e-17
4611.89784 1.99729e-17
4613.36808 2.09957e-17
4614.83832 2.12817e-17
4616.30856 2.22352e-17
4617.77880 2.26463e-17
4619.24904 2.12947e-17
4620.71928 1.88371e-17
4622.18952 1.93967e-17
4623.65976 2.22791e-17
4625.13000 2.31476e-17
4626.60024 2.09741e-17
4628.07048 2.16015e-17
4629.54072 2.18398e-17
4631.01096 1.95943e-17
4632.48120 2.10688e-17
4633.95144 2.17998e-17
4635.42168 1.91223e-17
4636.89192 1.95927e-17
4638.36216 2.14214e-17
4639.83240 2.39585e-17
4641.30264 2.38165e-17
4642.77288 2.31698e-17
4644.24312 2.13905e-17
4645.71336 2.13395e-17
4647.18360 2.29668e-17
4648.65384 2.21922e-17
4650.12408 2.41266e-17
4651.59432 2.36823e-17
4653.06456 2.18779e-17
4654.52459 2.09401e-17
4655.99483 2.06683e-17
4657.46507 2.16994e-17
4658.93531 2.03385e-17
4660.40555 1.92850e-17
4661.87579 2.19687e-17
4663.34603 2.36337e-17
4664.81627 2.29309e-17
4666.28651 1.98649e-17
4667.75675 2.09368e-17
4669.22699 2.26540e-17
4670.69723 2.24162e-17
4672.16747 2.32644e-17
4673.63771 2.30784e-17
4675.10795 2.28535e-17
4676.57819 2.16463e-17
4678.04843 2.10033e-17
4679.51867 2.21473e-17
4680.98891 2.59546e-17
4682.45915 2.57087e-17
4683.92939 2.44930e-17
4685.39963 2.45418e-17
4686.86987 2.35089e-17
4688.34011 2.41313e-17
4689.81035 2.42440e-17
4691.28059 2.27476e-17
4692.75083 2.18508e-17
4694.22107 2.40666e-17
4695.69131 2.30067e-17
4697.16155 2.23882e-17
4698.63179 2.41374e-17
4700.10203 2.36409e-17
4701.57227 2.34414e-17
4703.04251 2.43030e-17
4704.51275 2.43697e-17
4705.98299 2.40562e-17
4707.45323 2.42242e-17
4708.92347 2.41167e-17
4710.39371 2.12362e-17
4711.86395 2.16737e-17
4713.33419 2.23897e-17
4714.80443 2.34559e-17
4716.27467 2.33118e-17
4717.74491 2.30808e-17
4719.21515 2.21224e-17
4720.67518 2.22418e-17
4722.14542 2.29941e-17
4723.61566 2.36719e-17
4725.08590 2.45173e-17
4726.55614 2.40966e-17
4728.02638 2.47128e-17
4729.49662 2.41102e-17
4730.96686 2.24983e-17
4732.43710 2.25888e-17
4733.90734 2.42446e-17
4735.37758 2.37653e-17
4736.84782 2.23859e-17
4738.31806 2.26356e-17
4739.78830 2.21332e-17
4741.25854 2.19361e-17
4742.72878 2.42259e-17
4744.19902 2.21981e-17
4745.66926 2.10202e-17
4747.13950 2.21448e-17
4748.60974 2.16685e-17
4750.07998 1.93430e-17
4751.55022 2.03335e-17
4753.02046 2.25050e-17
4754.49070 2.10232e-17
4755.96094 2.00717e-17
4757.43118 2.14169e-17
4758.90142 2.13632e-17
4760.37166 2.19329e-17
4761.84190 2.02973e-17
4763.31214 2.02923e-17
4764.78238 1.99242e-17
4766.25262 2.10213e-17
4767.72286 2.37343e-17
4769.19310 2.13336e-17
4770.66334 1.90268e-17
4772.13358 2.05986e-17
4773.60382 1.96493e-17
4775.07406 2.03219e-17
4776.54430 2.04925e-17
4778.01454 1.92246e-17
4779.48478 1.97290e-17
4780.95502 2.00939e-17
4782.41505 2.21169e-17
4783.88529 2.07411e-17
4785.35553 2.11984e-17
4786.82577 2.03824e-17
4788.29601 1.84030e-17
4789.76625 1.83676e-17
4791.23649 1.91224e-17
4792.70673 2.14578e-17
4794.17697 2.04725e-17
4795.64721 2.13384e-17
4797.11745 1.93013e-17
4798.58769 1.80389e-17
4800.05793 1.90686e-17
4801.52817 1.73793e-17
4802.99841 1.79594e-17
4804.46865 1.91991e-17
4805.93889 2.00202e-17
4807.40913 1.79456e-17
4808.87937 1.74320e-17
4810.34961 1.69398e-17
4811.81985 1.88145e-17
4813.29009 1.74744e-17
4814.76033 1.76766e-17
4816.23057 1.76577e-17
4817.70081 1.69449e-17
4819.17105 1.63110e-17
4820.64129 1.66061e-17
4822.11153 1.64908e-17
4823.58177 1.60307e-17
4825.05201 1.58074e-17
4826.52225 1.50434e-17
4827.99249 1.49070e-17
4829.46273 1.73613e-17
4830.93297 1.52533e-17
4832.40321 1.43254e-17
4833.87345 1.45419e-17
4835.34369 1.42904e-17
4836.81393 1.53207e-17
4838.28417 1.46665e-17
4839.75441 1.46659e-17
4841.22465 1.48568e-17
4842.68468 1.36031e-17
4844.15492 1.26616e-17
4845.62516 1.35008e-17
4847.09540 1.41326e-17
4848.56564 1.29748e-17
4850.03588 1.28035e-17
4851.50612 1.28679e-17
4852.97636 1.35002e-17
4854.44660 1.46209e-17
4855.91684 1.51163e-17
4857.38708 1.30480e-17
4858.85732 1.27971e-17
4860.32756 1.30364e-17
4861.79780 1.52338e-17
4863.26804 1.50051e-17
4864.73828 1.45749e-17
4866.20852 1.43313e-17
4867.67876 1.19409e-17
4869.14900 1.09031e-17
4870.61924 1.11605e-17
4872.08948 1.20840e-17
4873.55972 1.19202e-17
4875.02996 1.42284e-17
4876.50020 1.29452e-17
4877.97044 1.19058e-17
4879.44068 1.30152e-17
4880.91092 1.38362e-17
4882.38116 1.23639e-17
4883.85140 1.29317e-17
4885.32164 1.26879e-17
4886.79188 1.15114e-17
4888.26212 1.18449e-17
4889.73236 1.22453e-17
4891.20260 1.20591e-17
4892.67284 1.18197e-17
4894.14308 1.13622e-17
4895.61332 1.30823e-17
4897.08356 1.36408e-17
4898.55380 1.22522e-17
4900.02404 1.19450e-17
4901.49428 1.35670e-17
4902.96452 1.25881e-17
4904.43476 1.28775e-17
4905.90500 1.22684e-17
4907.37524 1.25459e-17
4908.83527 1.37566e-17
4910.30551 1.32550e-17
4911.77575 1.23272e-17
4913.24599 1.33181e-17
4914.71623 1.32664e-17
4916.18647 1.22194e-17
4917.65671 1.26648e-17
4919.12695 1.27946e-17
4920.59719 1.14539e-17
4922.06743 1.27989e-17
4923.53767 1.34183e-17
4925.00791 1.20978e-17
4926.47815 1.08891e-17
4927.94839 9.77143e-18
4929.41863 1.19176e-17
4930.88887 1.13026e-17
4932.35911 1.09640e-17
4933.82935 1.21556e-17
4935.29959 1.25313e-17
4936.76983 1.26996e-17
4938.24007 1.16323e-17
4939.71031 1.05869e-17
4941.18055 1.02087e-17
4942.65079 9.59809e-18
4944.12103 1.09029e-17
4945.59127 1.23058e-17
4947.06151 1.35043e-17
4948.53175 1.26411e-17
4950.00199 1.21333e-17
4951.47223 1.11209e-17
4952.94247 9.54173e-18
4954.41271 1.15075e-17
4955.88295 1.28626e-17
4957.35319 1.29352e-17
4958.82343 1.13349e-17
4960.29367 1.01302e-17
4961.76391 1.23958e-17
4963.23415 1.32493e-17
4964.70439 1.20633e-17
4966.17463 1.33464e-17
4967.64487 1.31999e-17
4969.10490 1.28652e-17
4970.57514 1.34792e-17
4972.04538 1.30546e-17
4973.51562 1.38208e-17
4974.98586 1.32909e-17
4976.45610 1.33894e-17
4977.92634 1.26793e-17
4979.39658 1.27957e-17
4980.86682 1.43997e-17
4982.33706 1.54595e-17
4983.80730 1.46335e-17
4985.27754 1.27327e-17
4986.74778 1.19109e-17
4988.21802 1.27962e-17
4989.68826 1.48775e-17
4991.15850 1.43978e-17
4992.62874 1.40312e-17
4994.09898 1.53747e-17
4995.56922 1.52909e-17
4997.03946 1.47376e-17
4998.50970 1.41508e-17
4999.97994 1.39968e-17
5001.45018 1.38884e-17
5002.92042 1.53226e-17
5004.39066 1.61302e-17
5005.86090 1.50637e-17
5007.33114 1.47860e-17
5008.80138 1.48027e-17
5010.27162 1.40543e-17
5011.74186 1.45368e-17
5013.21210 1.64476e-17
5014.68234 1.83714e-17
5016.15258 1.80813e-17
5017.62282 1.65754e-17
5019.09306 1.49272e-17
5020.56330 1.66668e-17
5022.03354 1.76427e-17
5023.50378 1.67184e-17
5024.97402 1.50201e-17
5026.44426 1.57514e-17
5027.91450 1.54422e-17
5029.38474 1.54028e-17
5030.85498 1.61878e-17
5032.31501 1.60554e-17
5033.78525 1.62747e-17
5035.25549 1.65881e-17
5036.72573 1.65496e-17
5038.19597 1.55090e-17
5039.66621 1.46083e-17
5041.13645 1.45571e-17
5042.60669 1.54269e-17
5044.07693 1.60439e-17
5045.54717 1.50921e-17
5047.01741 1.51687e-17
5048.48765 1.54836e-17
5049.95789 1.42674e-17
5051.42813 1.36521e-17
5052.89837 1.52808e-17
5054.36861 1.52519e-17
5055.83885 1.41515e-17
5057.30909 1.35044e-17
5058.77933 1.46456e-17
5060.24957 1.50253e-17
5061.71981 1.39930e-17
5063.19005 1.35915e-17
5064.66029 1.42165e-17
5066.13053 1.36925e-17
5067.60077 1.31886e-17
5069.07101 1.23162e-17
5070.54125 1.14136e-17
5072.01149 1.22610e-17
5073.48173 1.21601e-17
5074.95197 1.35559e-17
5076.42221 1.39178e-17
5077.89245 1.18563e-17
5079.36269 1.21133e-17
5080.83293 1.24210e-17
5082.30317 1.30285e-17
5083.77341 1.23036e-17
5085.24365 1.17374e-17
5086.71389 1.25400e-17
5088.18413 1.23822e-17
5089.65437 1.23907e-17
5091.12461 1.28544e-17
5092.58464 1.22671e-17
5094.06509 1.09652e-17
5095.52512 1.08488e-17
5096.99536 1.11145e-17
5098.46560 1.02807e-17
5099.93584 1.08271e-17
5101.40608 1.24092e-17
5102.87632 1.26963e-17
5104.34656 1.24093e-17
5105.81680 1.30801e-17
5107.28704 1.27135e-17
5108.75728 1.13121e-17
5110.22752 1.07696e-17
5111.69776 1.11144e-17
5113.16800 1.12438e-17
5114.63824 1.06137e-17
5116.10848 1.16198e-17
5117.57872 1.23254e-17
5119.04896 1.20968e-17
5120.51920 1.17712e-17
5121.98944 1.19325e-17
5123.45968 1.24199e-17
5124.92992 1.25520e-17
5126.40016 1.22669e-17
5127.87040 1.24918e-17
5129.34064 1.29757e-17
5130.81088 1.34423e-17
5132.28112 1.45535e-17
5133.75136 1.46870e-17
5135.22160 1.40863e-17
5136.69184 1.32805e-17
5138.16208 1.43917e-17
5139.63232 1.46796e-17
5141.10256 1.31235e-17
5142.57280 1.36525e-17
5144.04304 1.37996e-17
5145.51328 1.29866e-17
5146.98352 1.35796e-17
5148.45376 1.44932e-17
5149.92400 1.51442e-17
5151.39424 1.53880e-17
5152.86448 1.47045e-17
5154.33472 1.40316e-17
5155.79475 1.47752e-17
5157.26499 1.58632e-17
5158.73523 1.59030e-17
5160.20547 1.40645e-17
5161.67571 1.36822e-17
5163.14595 1.38047e-17
5164.61619 1.38840e-17
5166.08643 1.47765e-17
5167.55667 1.59879e-17
5169.02691 1.52805e-17
5170.49715 1.44303e-17
5171.96739 1.45516e-17
5173.43763 1.48333e-17
5174.90787 1.53786e-17
5176.37811 1.41451e-17
5177.84835 1.39024e-17
5179.31859 1.51903e-17
5180.78883 1.52399e-17
5182.25907 1.54154e-17
5183.72931 1.48937e-17
5185.19955 1.42437e-17
5186.66979 1.56281e-17
5188.14003 1.57522e-17
5189.61027 1.47734e-17
5191.08051 1.48316e-17
5192.55075 1.52014e-17
5194.02099 1.58223e-17
5195.49123 1.55223e-17
5196.96147 1.50165e-17
5198.43171 1.64466e-17
5199.90195 1.62612e-17
5201.37219 1.57209e-17
5202.84243 1.62047e-17
5204.31267 1.62334e-17
5205.78291 1.54926e-17
5207.25315 1.53571e-17
5208.72339 1.59531e-17
5210.19363 1.60325e-17
5211.66387 1.47875e-17
5213.13411 1.59155e-17
5214.60435 1.72650e-17
5216.07459 1.42200e-17
5217.54483 1.39772e-17
5219.00486 1.73622e-17
5220.47510 1.72591e-17
5221.94534 1.47897e-17
5223.41558 1.37771e-17
5224.88582 1.37152e-17
5226.35606 1.48850e-17
5227.82630 1.52786e-17
5229.29654 1.55208e-17
5230.76678 1.47462e-17
5232.23702 1.47682e-17
5233.70726 1.73045e-17
5235.17750 1.69118e-17
5236.64774 1.54883e-17
5238.11798 1.60099e-17
5239.58822 1.67551e-17
5241.05846 1.64952e-17
5242.52870 1.74174e-17
5243.99894 1.64872e-17
5245.46918 1.41277e-17
5246.93942 1.43188e-17
5248.40966 1.54934e-17
5249.87990 1.45750e-17
5251.35014 1.51647e-17
5252.82038 1.55094e-17
5254.29062 1.64622e-17
5255.76086 1.73798e-17
5257.23110 1.59727e-17
5258.70134 1.59820e-17
5260.17158 1.73164e-17
5261.64182 1.69561e-17
5263.11206 1.50749e-17
5264.58230 1.59724e-17
5266.05254 1.62367e-17
5267.52278 1.59198e-17
5268.99302 1.61886e-17
5270.46326 1.61405e-17
5271.93350 1.60263e-17
5273.40374 1.50252e-17
5274.87398 1.52801e-17
5276.34422 1.63245e-17
5277.81446 1.67209e-17
5279.27449 1.62732e-17
5280.75494 1.73731e-17
5282.22518 1.64267e-17
5283.68521 1.65952e-17
5285.15545 1.62826e-17
5286.62569 1.64324e-17
5288.09593 1.77920e-17
5289.56617 1.70890e-17
5291.03641 1.68415e-17
5292.50665 1.81722e-17
5293.97689 1.92723e-17
5295.44713 1.84757e-17
5296.91737 1.86360e-17
5298.38761 1.84749e-17
5299.85785 1.78277e-17
5301.32809 1.69231e-17
5302.79833 1.66954e-17
5304.26857 1.66386e-17
5305.73881 1.57883e-17
5307.20905 1.72236e-17
5308.67929 1.94819e-17
5310.14953 2.02816e-17
5311.61977 1.90258e-17
5313.09001 1.93977e-17
5314.56025 1.79976e-17
5316.03049 1.74133e-17
5317.50073 1.91590e-17
5318.97097 1.89759e-17
5320.44121 1.94493e-17
5321.91145 1.93567e-17
5323.38169 1.76690e-17
5324.85193 1.82654e-17
5326.32217 1.84358e-17
5327.79241 1.81837e-17
5329.26265 1.75625e-17
5330.73289 1.81377e-17
5332.20313 1.96464e-17
5333.67337 1.98528e-17
5335.14361 1.97416e-17
5336.61385 1.87266e-17
5338.08409 1.89475e-17
5339.55433 1.99393e-17
5341.02457 2.04502e-17
5342.49481 1.93503e-17
5343.95484 1.85026e-17
5345.42508 1.82051e-17
5346.89532 1.85086e-17
5348.36556 1.88148e-17
5349.83580 1.94003e-17
5351.30604 1.94621e-17
5352.77628 1.74579e-17
5354.24652 1.80858e-17
5355.71676 1.90659e-17
5357.18700 1.77675e-17
5358.65724 1.75164e-17
5360.12748 1.86382e-17
5361.59772 1.93157e-17
5363.06796 1.96668e-17
5364.53820 1.93328e-17
5366.00844 1.82495e-17
5367.47868 1.75663e-17
5368.94892 1.83261e-17
5370.41916 1.91037e-17
5371.88940 2.09102e-17
5373.35964 2.20661e-17
5374.82988 2.02254e-17
5376.30012 1.95502e-17
5377.77036 2.03110e-17
5379.24060 2.02359e-17
5380.71084 1.90193e-17
5382.18108 1.81654e-17
5383.65132 1.94514e-17
5385.12156 2.05042e-17
5386.59180 1.91753e-17
5388.06204 1.95888e-17
5389.53228 1.97367e-17
5391.00252 1.82351e-17
5392.47276 1.86315e-17
5393.94300 1.90513e-17
5395.41324 1.99194e-17
5396.88348 1.98925e-17
5398.35372 2.01299e-17
5399.82396 2.09459e-17
5401.29420 1.95068e-17
5402.76444 1.79914e-17
5404.23468 1.94745e-17
5405.70492 1.97413e-17
5407.16495 1.89940e-17
5408.63519 1.88102e-17
5410.10543 1.97888e-17
5411.57567 1.90534e-17
5413.04591 1.85935e-17
5414.51615 1.93486e-17
5415.98639 1.89491e-17
5417.45663 1.83819e-17
5418.92687 1.95928e-17
5420.39711 1.95061e-17
5421.86735 1.84622e-17
5423.33759 1.87579e-17
5424.80783 1.90567e-17
5426.27807 1.88056e-17
5427.74831 1.88229e-17
5429.21855 1.88797e-17
5430.68879 1.86283e-17
5432.15903 1.85452e-17
5433.62927 1.82579e-17
5435.09951 1.88508e-17
5436.56975 1.91582e-17
5438.03999 1.85681e-17
5439.51023 2.02181e-17
5440.98047 1.99729e-17
5442.45071 1.82491e-17
5443.92095 1.79154e-17
5445.39119 1.88749e-17
5446.86143 1.88105e-17
5448.33167 1.80588e-17
5449.80191 1.78470e-17
5451.27215 1.79600e-17
5452.74239 1.84847e-17
5454.21263 1.87788e-17
5455.68287 1.92578e-17
5457.15311 1.92671e-17
5458.62335 1.91613e-17
5460.09359 1.96917e-17
5461.56383 1.94221e-17
5463.03407 1.78351e-17
5464.50431 1.70542e-17
5465.97455 1.73167e-17
5467.43458 1.77004e-17
5468.91503 1.83994e-17
5470.37506 1.87263e-17
5471.84530 1.85177e-17
5473.31554 1.75810e-17
5474.78578 1.72005e-17
5476.25602 1.66049e-17
5477.72626 1.69476e-17
5479.19650 1.85274e-17
5480.66674 1.81093e-17
5482.13698 1.72581e-17
5483.60722 1.85360e-17
5485.07746 1.85692e-17
5486.54770 1.72464e-17
5488.01794 1.73190e-17
5489.48818 1.69757e-17
5490.95842 1.77304e-17
5492.42866 1.84453e-17
5493.89890 1.74884e-17
5495.36914 1.73475e-17
5496.83938 1.78075e-17
5498.30962 1.73621e-17
5499.77986 1.71199e-17
5501.25010 1.67704e-17
5502.72034 1.63308e-17
5504.19058 1.57632e-17
5505.66082 1.58769e-17
5507.13106 1.74784e-17
5508.60130 1.76016e-17
5510.07154 1.65403e-17
5511.54178 1.71443e-17
5513.01202 1.78095e-17
5514.48226 1.67337e-17
5515.95250 1.63972e-17
5517.42274 1.68716e-17
5518.89298 1.62843e-17
5520.36322 1.54625e-17
5521.83346 1.68964e-17
5523.30370 1.81302e-17
5524.77394 1.71758e-17
5526.24418 1.66339e-17
5527.71442 1.71542e-17
5529.18466 1.65429e-17
5530.65490 1.64933e-17
5532.11493 1.73011e-17
5533.58517 1.73003e-17
5535.05541 1.65988e-17
5536.52565 1.75338e-17
5537.99589 1.82646e-17
5539.46613 1.73003e-17
5540.93637 1.66967e-17
5542.40661 1.68332e-17
5543.87685 1.76393e-17
5545.34709 1.67748e-17
5546.81733 1.66406e-17
5548.28757 1.75064e-17
5549.75781 1.73840e-17
5551.22805 1.71955e-17
5552.69829 1.65186e-17
5554.16853 1.59752e-17
5555.63877 1.54302e-17
5557.10901 1.64603e-17
5558.57925 1.74300e-17
5560.04949 1.65269e-17
5561.51973 1.61349e-17
5562.98997 1.65482e-17
5564.46021 1.72678e-17
5565.93045 1.68858e-17
5567.40069 1.70428e-17
5568.87093 1.67145e-17
5570.34117 1.68608e-17
5571.81141 1.83158e-17
5573.28165 1.95100e-17
5574.75189 1.71356e-17
5576.22213 1.55037e-17
5577.69237 1.82265e-17
5579.16261 1.58147e-17
5580.63285 1.47321e-17
5582.10309 1.70993e-17
5583.57333 1.63854e-17
5585.04357 1.49020e-17
5586.51381 1.49841e-17
5587.98405 1.63920e-17
5589.45429 1.66692e-17
5590.92453 1.57137e-17
5592.39477 1.58825e-17
5593.85480 1.62063e-17
5595.32504 1.62966e-17
5596.79528 1.63430e-17
5598.26552 1.56581e-17
5599.73576 1.44514e-17
5601.20600 1.35994e-17
5602.67624 1.40180e-17
5604.14648 1.40911e-17
5605.61672 1.52138e-17
5607.08696 1.53811e-17
5608.55720 1.56768e-17
5610.02744 1.66461e-17
5611.49768 1.58446e-17
5612.96792 1.44935e-17
5614.43816 1.45495e-17
5615.90840 1.48179e-17
5617.37864 1.46596e-17
5618.84888 1.58162e-17
5620.31912 1.67730e-17
5621.78936 1.59041e-17
5623.25960 1.57583e-17
5624.72984 1.58437e-17
5626.20008 1.52175e-17
5627.67032 1.47511e-17
5629.14056 1.49710e-17
5630.61080 1.48614e-17
5632.08104 1.42550e-17
5633.55128 1.39539e-17
5635.02152 1.48202e-17
5636.49176 1.43422e-17
5637.96200 1.43277e-17
5639.43224 1.55454e-17
5640.90248 1.52815e-17
5642.37272 1.48712e-17
5643.84296 1.43138e-17
5645.31320 1.32490e-17
5646.78344 1.34596e-17
5648.25368 1.41300e-17
5649.72392 1.38855e-17
5651.19416 1.43299e-17
5652.66440 1.40092e-17
5654.12443 1.30077e-17
5655.60488 1.36853e-17
5657.06491 1.36252e-17
5658.53515 1.33256e-17
5660.00539 1.36988e-17
5661.47563 1.37392e-17
5662.94587 1.36275e-17
5664.41611 1.24334e-17
5665.88635 1.34911e-17
5667.35659 1.42510e-17
5668.82683 1.30265e-17
5670.29707 1.29168e-17
5671.76731 1.36958e-17
5673.23755 1.49391e-17
5674.70779 1.43723e-17
5676.17803 1.27078e-17
5677.64827 1.19872e-17
5679.11851 1.18611e-17
5680.58875 1.17724e-17
5682.05899 1.21844e-17
5683.52923 1.27432e-17
5684.99947 1.33776e-17
5686.46971 1.31472e-17
5687.93995 1.26129e-17
5689.41019 1.24649e-17
5690.88043 1.12918e-17
5692.35067 1.03865e-17
5693.82091 1.15786e-17
5695.29115 1.32812e-17
5696.76139 1.39362e-17
5698.23163 1.29963e-17
5699.70187 1.26751e-17
5701.17211 1.32944e-17
5702.64235 1.16210e-17
5704.11259 1.01711e-17
5705.58283 1.18966e-17
5707.05307 1.25235e-17
5708.52331 1.18035e-17
5709.99355 1.21041e-17
5711.46379 1.15004e-17
5712.93403 1.06212e-17
5714.40427 1.11360e-17
5715.87451 1.03540e-17
5717.34475 1.00066e-17
5718.81499 1.11103e-17
5720.27502 1.09207e-17
5721.74526 1.05559e-17
5723.21550 1.01912e-17
5724.68574 9.76703e-18
5726.15598 1.07017e-17
5727.62622 1.15034e-17
5729.09646 1.06870e-17
5730.56670 1.07659e-17
5732.03694 1.05830e-17
5733.50718 9.25384e-18
5734.97742 1.01308e-17
5736.44766 1.09516e-17
5737.91790 1.06423e-17
5739.38814 1.13145e-17
5740.85838 1.15331e-17
5742.32862 1.10538e-17
5743.79886 1.05670e-17
5745.26910 9.94076e-18
5746.73934 9.96328e-18
5748.20958 1.02855e-17
5749.67982 9.88858e-18
5751.15006 9.55446e-18
5752.62030 1.00549e-17
5754.09054 1.03636e-17
5755.56078 1.06030e-17
5757.03102 1.02548e-17
5758.50126 9.38996e-18
5759.97150 1.01651e-17
5761.44174 1.05226e-17
5762.91198 9.58175e-18
5764.38222 9.84794e-18
5765.85246 9.86329e-18
5767.32270 8.76740e-18
5768.79294 8.46681e-18
5770.26318 8.85094e-18
5771.73342 9.62427e-18
5773.20366 9.97170e-18
5774.67390 8.88916e-18
5776.14414 7.75828e-18
5777.61438 9.64502e-18
5779.08462 1.06156e-17
5780.54465 8.72682e-18
5782.01489 8.23727e-18
5783.48513 9.21220e-18
5784.95537 9.91909e-18
5786.42561 9.60219e-18
5787.89585 8.44420e-18
5789.36609 8.84507e-18
5790.83633 9.44871e-18
5792.30657 9.22466e-18
5793.77681 9.25029e-18
5795.24705 9.20075e-18
5796.71729 9.21543e-18
5798.18753 8.86383e-18
5799.65777 8.22309e-18
5801.12801 8.02113e-18
5802.59825 8.52624e-18
5804.06849 9.28043e-18
5805.53873 9.76530e-18
5807.00897 9.48698e-18
5808.47921 9.47447e-18
5809.94945 9.87684e-18
5811.41969 9.34584e-18
5812.88993 9.06676e-18
5814.36017 8.77397e-18
5815.83041 8.94884e-18
5817.30065 9.73305e-18
5818.77089 9.00910e-18
5820.24113 8.66756e-18
5821.71137 8.68972e-18
5823.18161 9.10715e-18
5824.65185 9.58393e-18
5826.12209 8.72572e-18
5827.59233 8.98968e-18
5829.06257 9.19776e-18
5830.53281 9.82359e-18
5832.00305 1.01065e-17
5833.47329 9.38125e-18
5834.94353 9.39412e-18
5836.41377 9.73659e-18
5837.88401 1.07453e-17
5839.35425 1.08849e-17
5840.82449 1.09401e-17
5842.29473 1.01670e-17
5843.75476 9.69108e-18
5845.22500 1.01325e-17
5846.69524 9.71761e-18
5848.16548 1.00302e-17
5849.63572 1.08068e-17
5851.10596 1.10391e-17
5852.57620 1.06975e-17
5854.04644 1.08745e-17
5855.51668 1.11475e-17
5856.98692 1.12448e-17
5858.45716 1.22418e-17
5859.92740 1.30273e-17
5861.39764 1.15690e-17
5862.86788 1.13999e-17
5864.33812 1.23651e-17
5865.80836 1.13731e-17
5867.27860 1.07818e-17
5868.74884 1.17373e-17
5870.21908 1.23882e-17
5871.68932 1.14088e-17
5873.15956 1.18705e-17
5874.62980 1.30192e-17
5876.10004 1.21725e-17
5877.57028 1.23619e-17
5879.04052 1.26382e-17
5880.51076 1.16478e-17
5881.98100 1.21011e-17
5883.45124 1.27590e-17
5884.92148 1.21671e-17
5886.39172 1.22083e-17
5887.86196 1.21480e-17
5889.33220 1.07371e-17
5890.80244 1.08424e-17
5892.27268 1.21266e-17
5893.74292 1.24680e-17
5895.21316 1.28580e-17
5896.68340 1.27232e-17
5898.15364 1.23164e-17
5899.62388 1.26526e-17
5901.09412 1.33789e-17
5902.56436 1.33008e-17
5904.03460 1.35092e-17
5905.50484 1.38609e-17
5906.97508 1.38832e-17
5908.43511 1.44411e-17
5909.90535 1.45588e-17
5911.37559 1.42783e-17
5912.84583 1.36333e-17
5914.31607 1.40984e-17
5915.78631 1.43622e-17
5917.25655 1.36159e-17
5918.72679 1.29513e-17
5920.19703 1.36641e-17
5921.66727 1.47489e-17
5923.13751 1.42940e-17
5924.60775 1.33179e-17
5926.07799 1.29105e-17
5927.54823 1.38068e-17
5929.01847 1.44328e-17
5930.48871 1.42913e-17
5931.95895 1.41975e-17
5933.42919 1.42657e-17
5934.89943 1.53450e-17
5936.36967 1.60326e-17
5937.83991 1.52581e-17
5939.31015 1.51358e-17
5940.78039 1.51604e-17
5942.25063 1.53380e-17
5943.72087 1.69202e-17
5945.19111 1.68137e-17
5946.66135 1.52792e-17
5948.13159 1.44583e-17
5949.60183 1.50993e-17
5951.07207 1.59702e-17
5952.54231 1.44790e-17
5954.01255 1.43501e-17
5955.48279 1.54391e-17
5956.95303 1.55684e-17
5958.42327 1.53557e-17
5959.89351 1.39892e-17
5961.36375 1.36518e-17
5962.83399 1.41018e-17
5964.30423 1.32295e-17
5965.77447 1.37508e-17
5967.24471 1.53688e-17
5968.70474 1.57070e-17
5970.17498 1.65144e-17
5971.64522 1.77609e-17
5973.11546 1.71438e-17
5974.58570 1.60505e-17
5976.05594 1.55040e-17
5977.52618 1.59772e-17
5978.99642 1.56900e-17
5980.46666 1.49732e-17
5981.93690 1.56974e-17
5983.40714 1.51165e-17
5984.87738 1.43796e-17
5986.34762 1.40438e-17
5987.81786 1.41983e-17
5989.28810 1.54321e-17
5990.75834 1.56525e-17
5992.22858 1.53536e-17
5993.69882 1.58434e-17
5995.16906 1.61765e-17
5996.63930 1.53903e-17
5998.10954 1.41755e-17
5999.57978 1.40213e-17
6001.05002 1.55171e-17
6002.52026 1.59923e-17
6003.99050 1.59497e-17
6005.46074 1.62118e-17
6006.93098 1.59825e-17
6008.40122 1.56228e-17
6009.87146 1.61687e-17
6011.34170 1.60300e-17
6012.81194 1.56340e-17
6014.28218 1.53617e-17
6015.75242 1.24849e-17
6017.22266 1.25453e-17
6018.69290 1.44244e-17
6020.16314 1.40245e-17
6021.63338 1.31064e-17
6023.10362 1.32204e-17
6024.57386 1.37835e-17
6026.04410 1.55530e-17
6027.51434 1.68268e-17
6028.98458 1.51846e-17
6030.45482 1.54166e-17
6031.91485 1.53469e-17
6033.38509 1.44949e-17
6034.85533 1.51339e-17
6036.32557 1.55475e-17
6037.79581 1.53994e-17
6039.26605 1.57296e-17
6040.73629 1.56811e-17
6042.20653 1.59068e-17
6043.67677 1.60466e-17
6045.14701 1.58727e-17
6046.61725 1.47693e-17
6048.08749 1.51381e-17
6049.55773 1.53017e-17
6051.02797 1.52825e-17
6052.49821 1.52525e-17
6053.96845 1.60783e-17
6055.43869 1.53374e-17
6056.90893 1.31331e-17
6058.37917 1.32586e-17
6059.84941 1.46311e-17
6061.31965 1.53178e-17
6062.78989 1.50667e-17
6064.26013 1.53144e-17
6065.73037 1.39743e-17
6067.20061 1.33627e-17
6068.67085 1.38566e-17
6070.14109 1.42042e-17
6071.61133 1.43131e-17
6073.08157 1.27959e-17
6074.55181 1.32911e-17
6076.02205 1.41499e-17
6077.49229 1.35812e-17
6078.96253 1.32957e-17
6080.43277 1.38160e-17
6081.90301 1.36822e-17
6083.37325 1.37694e-17
6084.84349 1.48223e-17
6086.31373 1.46518e-17
6087.78397 1.36472e-17
6089.25421 1.39345e-17
6090.72445 1.36545e-17
6092.19469 1.28706e-17
6093.66493 1.29423e-17
6095.12496 1.34881e-17
6096.59520 1.26054e-17
6098.06544 1.22279e-17
6099.53568 1.34527e-17
6101.00592 1.30761e-17
6102.47616 1.19479e-17
6103.94640 1.27243e-17
6105.41664 1.42296e-17
6106.88688 1.45570e-17
6108.35712 1.36010e-17
6109.82736 1.34438e-17
6111.29760 1.32960e-17
6112.76784 1.31336e-17
6114.23808 1.37175e-17
6115.70832 1.39433e-17
6117.17856 1.34600e-17
6118.64880 1.40233e-17
6120.11904 1.43406e-17
6121.58928 1.34668e-17
6123.05952 1.23289e-17
6124.52976 1.31323e-17
6126.00000 1.32608e-17
6127.47024 1.11120e-17
6128.94048 1.12704e-17
6130.41072 1.26560e-17
6131.88096 1.33418e-17
6133.35120 1.32826e-17
6134.82144 1.24232e-17
6136.29168 1.19487e-17
6137.76192 1.21195e-17
6139.23216 1.21754e-17
6140.70240 1.23084e-17
6142.17264 1.22609e-17
6143.64288 1.25234e-17
6145.11312 1.38410e-17
6146.58336 1.38816e-17
6148.05360 1.34269e-17
6149.52384 1.37931e-17
6150.99408 1.28894e-17
6152.46432 1.21851e-17
6153.93456 1.31820e-17
6155.39459 1.27632e-17
6156.86483 1.17600e-17
6158.33507 1.16854e-17
6159.80531 1.17972e-17
6161.27555 1.25771e-17
6162.74579 1.37792e-17
6164.21603 1.36863e-17
6165.68627 1.33431e-17
6167.15651 1.22965e-17
6168.62675 1.24049e-17
6170.09699 1.35946e-17
6171.56723 1.35131e-17
6173.03747 1.22225e-17
6174.50771 1.13483e-17
6175.97795 1.16537e-17
6177.44819 1.16149e-17
6178.91843 1.24370e-17
6180.38867 1.32513e-17
6181.85891 1.26884e-17
6183.32915 1.28890e-17
6184.79939 1.35654e-17
6186.26963 1.32008e-17
6187.73987 1.19087e-17
6189.21011 1.11287e-17
6190.68035 1.21716e-17
6192.15059 1.34184e-17
6193.62083 1.33342e-17
6195.09107 1.25637e-17
6196.56131 1.22827e-17
6198.03155 1.26949e-17
6199.50179 1.14570e-17
6200.97203 1.27003e-17
6202.44227 1.33553e-17
6203.91251 1.28484e-17
6205.38275 1.19685e-17
6206.85299 1.32962e-17
6208.32323 1.43638e-17
6209.79347 1.38079e-17
6211.26371 1.36717e-17
6212.73395 1.15374e-17
6214.20419 1.08118e-17
6215.67443 1.21252e-17
6217.14467 1.27047e-17
6218.61491 1.23507e-17
6220.08515 1.21499e-17
6221.54518 1.21953e-17
6223.01542 1.28285e-17
6224.48566 1.26071e-17
6225.95590 1.14690e-17
6227.42614 1.21060e-17
6228.89638 1.24949e-17
6230.36662 1.21043e-17
6231.83686 1.26827e-17
6233.30710 1.26911e-17
6234.77734 1.24282e-17
6236.24758 1.25760e-17
6237.71782 1.29373e-17
6239.18806 1.25311e-17
6240.65830 1.23800e-17
6242.12854 1.18595e-17
6243.59878 1.13025e-17
6245.06902 1.15141e-17
6246.53926 1.25601e-17
6248.00950 1.27861e-17
6249.47974 1.23266e-17
6250.94998 1.16176e-17
6252.42022 1.16666e-17
6253.89046 1.27717e-17
6255.36070 1.27743e-17
6256.83094 1.24683e-17
6258.30118 1.18807e-17
6259.77142 1.22880e-17
6261.24166 1.19435e-17
6262.71190 1.10342e-17
6264.18214 1.18809e-17
6265.65238 1.12684e-17
6267.12262 1.10634e-17
6268.59286 1.05556e-17
6270.06310 1.00952e-17
6271.53334 9.56944e-18
6273.00358 9.97416e-18
6274.47382 1.00520e-17
6275.94406 1.01649e-17
6277.41430 1.09417e-17
6278.88454 1.10476e-17
6280.35478 1.08493e-17
6281.81481 9.33484e-18
6283.28505 9.16033e-18
6284.75529 9.96096e-18
6286.22553 1.16338e-17
6287.69577 1.13043e-17
6289.16601 9.67710e-18
6290.63625 8.78876e-18
6292.10649 9.20303e-18
6293.57673 8.91607e-18
6295.04697 1.03725e-17
6296.51721 1.03409e-17
6297.98745 9.70265e-18
6299.45769 1.09189e-17
6300.92793 1.06029e-17
6302.39817 9.30717e-18
6303.86841 9.41834e-18
6305.33865 9.63534e-18
6306.80889 1.01637e-17
6308.27913 1.12635e-17
6309.74937 9.20596e-18
6311.21961 8.88556e-18
6312.68985 9.72736e-18
6314.16009 8.65709e-18
6315.63033 9.05515e-18
6317.10057 1.07084e-17
6318.57081 1.04960e-17
6320.04105 9.78669e-18
6321.51129 1.02899e-17
6322.98153 8.63847e-18
6324.45177 8.78826e-18
6325.92201 9.74071e-18
6327.39225 9.03669e-18
6328.86249 8.98415e-18
6330.33273 9.44578e-18
6331.80297 9.98609e-18
6333.27321 9.13526e-18
6334.74345 8.64085e-18
6336.21369 9.07555e-18
6337.68393 1.05529e-17
6339.15417 1.11783e-17
6340.62441 1.00145e-17
6342.09465 9.40711e-18
6343.55468 9.65150e-18
6345.02492 1.03377e-17
6346.49516 9.65165e-18
6347.96540 8.56980e-18
6349.43564 9.26061e-18
6350.90588 1.06793e-17
6352.37612 1.01232e-17
6353.84636 8.82929e-18
6355.31660 8.87686e-18
6356.78684 1.00542e-17
6358.25708 1.12009e-17
6359.72732 1.09620e-17
6361.19756 9.81008e-18
6362.66780 1.07408e-17
6364.13804 1.11540e-17
6365.60828 1.00378e-17
6367.07852 9.69180e-18
6368.54876 8.93286e-18
6370.01900 9.66687e-18
6371.48924 1.06931e-17
6372.95948 8.85630e-18
6374.42972 8.69934e-18
6375.89996 1.04852e-17
6377.37020 1.06884e-17
6378.84044 1.12576e-17
6380.31068 1.14135e-17
6381.78092 1.00763e-17
6383.25116 9.81260e-18
6384.72140 1.07233e-17
6386.19164 1.09537e-17
6387.66188 1.13695e-17
6389.13212 1.08487e-17
6390.60236 1.15458e-17
6392.07260 1.13767e-17
6393.54284 1.09950e-17
6395.01308 1.14665e-17
6396.48332 9.79181e-18
6397.95356 1.06737e-17
6399.42380 1.14769e-17
6400.89404 1.18091e-17
6402.36428 1.12618e-17
6403.83452 1.07641e-17
6405.30476 1.09681e-17
6406.77500 1.01223e-17
6408.24524 9.76990e-18
6409.70527 9.68054e-18
6411.17551 1.07002e-17
6412.64575 9.86415e-18
6414.11599 1.09293e-17
6415.58623 1.05473e-17
6417.05647 9.53510e-18
6418.52671 1.09374e-17
6419.99695 1.19678e-17
6421.46719 1.16373e-17
6422.93743 1.06073e-17
6424.40767 1.10449e-17
6425.87791 1.08264e-17
6427.34815 9.86627e-18
6428.81839 1.12515e-17
6430.28863 1.15933e-17
6431.75887 1.02572e-17
6433.22911 1.09332e-17
6434.69935 1.16712e-17
6436.16959 1.07939e-17
6437.63983 1.06791e-17
6439.11007 1.17619e-17
6440.58031 1.14859e-17
6442.05055 1.06573e-17
6443.52079 1.12635e-17
6444.99103 1.14319e-17
6446.46127 1.19439e-17
6447.93151 1.10319e-17
6449.40175 1.13926e-17
6450.87199 1.13324e-17
6452.34223 1.17886e-17
6453.81247 1.14205e-17
6455.28271 1.14244e-17
6456.75295 1.16629e-17
6458.22319 1.23225e-17
6459.69343 1.26201e-17
6461.16367 1.22812e-17
6462.63391 1.17512e-17
6464.10415 1.26586e-17
6465.57439 1.30948e-17
6467.04463 1.26026e-17
6468.50466 1.20934e-17
6469.97490 1.21614e-17
6471.44514 1.12053e-17
6472.91538 1.23318e-17
6474.38562 1.10219e-17
6475.85586 1.14238e-17
6477.32610 1.13461e-17
6478.79634 1.21666e-17
6480.26658 1.19709e-17
6481.73682 1.15839e-17
6483.20706 1.13259e-17
6484.67730 1.04285e-17
6486.14754 1.14619e-17
6487.61778 1.18788e-17
6489.08802 1.15125e-17
6490.55826 1.30686e-17
6492.02850 1.23036e-17
6493.49874 1.11421e-17
6494.96898 1.07212e-17
6496.43922 1.14923e-17
6497.90946 1.07064e-17
6499.37970 1.09698e-17
6500.84994 1.12185e-17
6502.32018 1.22455e-17
6503.79042 1.24323e-17
6505.26066 1.18555e-17
6506.73090 1.13874e-17
6508.20114 1.14803e-17
6509.67138 1.05134e-17
6511.14162 9.91190e-18
6512.61186 1.09779e-17
6514.08210 1.07277e-17
6515.55234 1.08756e-17
6517.02258 1.17302e-17
6518.49282 1.18958e-17
6519.96306 1.15119e-17
6521.43330 1.13548e-17
6522.90354 1.15427e-17
6524.37378 1.11745e-17
6525.84402 1.08244e-17
6527.31426 1.01912e-17
6528.78450 1.03701e-17
6530.25474 1.17117e-17
6531.72498 1.15160e-17
6533.18501 1.04707e-17
6534.65525 9.79587e-18
6536.12549 9.48722e-18
6537.59573 1.03394e-17
6539.06597 1.07178e-17
6540.53621 1.07224e-17
6542.00645 1.13801e-17
6543.47669 1.12647e-17
6544.94693 1.08015e-17
6546.41717 1.07151e-17
6547.88741 1.02415e-17
6549.35765 1.06019e-17
6550.82789 1.08663e-17
6552.29813 1.01439e-17
6553.76837 9.52254e-18
6555.23861 1.00681e-17
6556.70885 1.15186e-17
6558.17909 1.13082e-17
6559.64933 1.01601e-17
6561.11957 9.57321e-18
6562.58981 1.07126e-17
6564.06005 1.07443e-17
6565.53029 9.93419e-18
6567.00053 1.08016e-17
6568.47077 1.08113e-17
6569.94101 9.37978e-18
6571.41125 1.05654e-17
6572.88149 1.01943e-17
6574.35173 8.86953e-18
6575.82197 9.15304e-18
6577.29221 9.08875e-18
6578.76245 8.93889e-18
6580.23269 9.77913e-18
6581.70293 9.40035e-18
6583.17317 9.04075e-18
6584.64341 1.02130e-17
6586.11365 9.74991e-18
6587.58389 9.30669e-18
6589.05413 9.23764e-18
6590.52437 8.91385e-18
6591.99461 9.19637e-18
6593.46485 8.73894e-18
6594.93509 8.28630e-18
6596.39512 8.55656e-18
6597.86536 8.52098e-18
6599.33560 7.98920e-18
6600.80584 9.82278e-18
6602.27608 1.09352e-17
6603.74632 1.01735e-17
6605.21656 1.00098e-17
6606.68680 9.37715e-18
6608.15704 9.86255e-18
6609.62728 1.00827e-17
6611.09752 9.79249e-18
6612.56776 9.22040e-18
6614.03800 9.27818e-18
6615.50824 1.02696e-17
6616.97848 8.36539e-18
6618.44872 9.47903e-18
6619.91896 9.24677e-18
6621.38920 9.06018e-18
6622.85944 8.88135e-18
6624.32968 9.08851e-18
6625.79992 9.93093e-18
6627.27016 8.96095e-18
6628.74040 9.64026e-18
6630.21064 9.65036e-18
6631.68088 8.95326e-18
6633.15112 9.15211e-18
6634.62136 1.02211e-17
6636.09160 9.09155e-18
6637.56184 9.81603e-18
6639.03208 9.38405e-18
6640.50232 8.80708e-18
6641.97256 9.39533e-18
6643.44280 9.60500e-18
6644.91304 9.25741e-18
6646.38328 8.61520e-18
6647.85352 8.77555e-18
6649.32376 1.00320e-17
6650.79400 9.96052e-18
6652.26424 9.27430e-18
6653.73448 9.43262e-18
6655.20472 9.83240e-18
6656.66475 9.62846e-18
6658.13499 1.03519e-17
6659.60523 1.05775e-17
6661.07547 9.81449e-18
6662.54571 9.88683e-18
6664.01595 1.15661e-17
6665.48619 1.15180e-17
6666.95643 9.70460e-18
6668.42667 1.02948e-17
6669.89691 1.00213e-17
6671.36715 9.99443e-18
6672.83739 1.00619e-17
6674.30763 1.00308e-17
6675.77787 1.06899e-17
6677.24811 9.20455e-18
6678.71835 9.74442e-18
6680.18859 1.12863e-17
6681.65883 1.16688e-17
6683.12907 1.12345e-17
6684.59931 1.08599e-17
6686.06955 1.04757e-17
6687.53979 1.17821e-17
6689.01003 1.22902e-17
6690.48027 1.06418e-17
6691.95051 1.07158e-17
6693.42075 1.13503e-17
6694.89099 1.14772e-17
6696.36123 1.16084e-17
6697.83147 1.04178e-17
6699.30171 1.05540e-17
6700.77195 1.22170e-17
6702.24219 1.07881e-17
6703.71243 9.68450e-18
6705.18267 1.17177e-17
6706.65291 1.15294e-17
6708.12315 1.13502e-17
6709.59339 1.16142e-17
6711.06363 1.12607e-17
6712.53387 1.12617e-17
6714.00411 1.15601e-17
6715.47435 1.13733e-17
6716.94459 1.22989e-17
6718.41483 1.17037e-17
6719.87486 1.10780e-17
6721.34510 1.12750e-17
6722.81534 1.11126e-17
6724.28558 1.26630e-17
6725.75582 1.24530e-17
6727.22606 1.27558e-17
6728.69630 1.21394e-17
6730.16654 1.16065e-17
6731.63678 1.19131e-17
6733.10702 1.05157e-17
6734.57726 1.05809e-17
6736.04750 1.15802e-17
6737.51774 1.18629e-17
6738.98798 1.31929e-17
6740.45822 1.12864e-17
6741.92846 1.04784e-17
6743.39870 1.08990e-17
6744.86894 1.13603e-17
6746.33918 1.17538e-17
6747.80942 1.11721e-17
6749.27966 1.17283e-17
6750.74990 1.20317e-17
6752.22014 1.23097e-17
6753.69038 1.45431e-17
6755.16062 2.06788e-17
6756.63086 2.11829e-17
6758.10110 1.66862e-17
6759.57134 1.31050e-17
6761.04158 1.12637e-17
6762.51182 1.14702e-17
6763.98206 1.13069e-17
6765.45230 1.01651e-17
6766.92254 1.07770e-17
6768.39278 1.12757e-17
6769.86302 1.07240e-17
6771.33326 1.16314e-17
6772.80350 1.12393e-17
6774.27374 1.12212e-17
6775.74398 1.19148e-17
6777.21422 1.04526e-17
6778.68446 1.07957e-17
6780.15470 1.22405e-17
6781.62494 1.12156e-17
6783.08497 1.01125e-17
6784.55521 1.07054e-17
6786.02545 1.18717e-17
6787.49569 1.18441e-17
6788.96593 1.16742e-17
6790.43617 9.96623e-18
6791.90641 9.74703e-18
6793.37665 1.27872e-17
6794.84689 1.28076e-17
6796.31713 1.21830e-17
6797.78737 1.15876e-17
6799.25761 1.03614e-17
6800.72785 1.04002e-17
6802.19809 1.01404e-17
6803.66833 1.06620e-17
6805.13857 1.08583e-17
6806.60881 1.09130e-17
6808.07905 9.74630e-18
6809.54929 9.66116e-18
6811.01953 1.10229e-17
6812.48977 1.04430e-17
6813.96001 1.03456e-17
6815.43025 1.13070e-17
6816.90049 1.16810e-17
6818.37073 1.11644e-17
6819.84097 1.00294e-17
6821.31121 1.00500e-17
6822.78145 1.11551e-17
6824.25169 1.16615e-17
6825.72193 1.21690e-17
6827.19217 1.11889e-17
6828.66241 1.18626e-17
6830.13265 1.06608e-17
6831.60289 1.13712e-17
6833.07313 1.14025e-17
6834.54337 1.00688e-17
6836.01361 1.03353e-17
6837.48385 9.96763e-18
6838.95409 9.31642e-18
6840.42433 1.06830e-17
6841.89457 1.06337e-17
6843.35460 1.01321e-17
6844.82484 1.12179e-17
6846.29508 1.02394e-17
6847.76532 9.70559e-18
6849.23556 1.02430e-17
6850.70580 9.79865e-18
6852.17604 1.06660e-17
6853.64628 1.00763e-17
6855.11652 1.02728e-17
6856.58676 1.08206e-17
6858.05700 1.14232e-17
6859.52724 1.13074e-17
6860.99748 1.17487e-17
6862.46772 9.47156e-18
6863.93796 9.99520e-18
6865.40820 1.11093e-17
6866.87844 1.00786e-17
6868.34868 1.11004e-17
6869.81892 1.09407e-17
6871.28916 1.02772e-17
6872.75940 1.14937e-17
6874.22964 1.04145e-17
6875.69988 1.04704e-17
6877.17012 1.12842e-17
6878.64036 1.01409e-17
6880.11060 9.62145e-18
6881.58084 9.72161e-18
6883.05108 9.90088e-18
6884.52132 9.97805e-18
6885.99156 9.40298e-18
6887.46180 9.43178e-18
6888.93204 1.12794e-17
6890.40228 9.92705e-18
6891.87252 1.01308e-17
6893.34276 9.32916e-18
6894.81300 9.68637e-18
6896.28324 1.02251e-17
6897.75348 1.05163e-17
6899.22372 9.69784e-18
6900.69396 8.55452e-18
6902.16420 1.03785e-17
6903.63444 1.08009e-17
6905.10468 9.66864e-18
6906.56471 9.54469e-18
6908.03495 9.54240e-18
6909.50519 1.08491e-17
6910.97543 9.28584e-18
6912.44567 9.33200e-18
6913.91591 8.84607e-18
6915.38615 1.08326e-17
6916.85639 9.33862e-18
6918.32663 9.85031e-18
6919.79687 9.65789e-18
6921.26711 9.20277e-18
6922.73735 1.06047e-17
6924.20759 1.05657e-17
6925.67783 9.30867e-18
6927.14807 9.09238e-18
6928.61831 1.00993e-17
6930.08855 9.47880e-18
6931.55879 7.77566e-18
6933.02903 8.70375e-18
6934.49927 9.98826e-18
6935.96951 1.00367e-17
6937.43975 9.11344e-18
6938.90999 9.73847e-18
6940.38023 1.02427e-17
6941.85047 9.16147e-18
6943.32071 9.45229e-18
6944.79095 9.57242e-18
6946.26119 9.57095e-18
6947.73143 1.01330e-17
6949.20167 9.37705e-18
6950.67191 8.88816e-18
6952.14215 9.12974e-18
6953.61239 7.49135e-18
6955.08263 8.40949e-18
6956.55287 9.07772e-18
6958.02311 8.11077e-18
6959.49335 7.78949e-18
6960.96359 8.28384e-18
6962.43383 8.06409e-18
6963.90407 8.03868e-18
6965.37431 9.66427e-18
6966.84455 9.08281e-18
6968.31479 8.86025e-18
6969.77482 8.60184e-18
6971.24506 8.37698e-18
6972.71530 9.46269e-18
6974.18554 8.80803e-18
6975.65578 9.82847e-18
6977.12602 9.94388e-18
6978.59626 7.84294e-18
6980.06650 7.24169e-18
6981.53674 7.85992e-18
6983.00698 8.98592e-18
6984.47722 8.61389e-18
6985.94746 9.41786e-18
6987.41770 9.02071e-18
6988.88794 8.02263e-18
6990.35818 8.39648e-18
6991.82842 8.39945e-18
6993.29866 7.07963e-18
6994.76890 8.11840e-18
6996.23914 8.65927e-18
6997.70938 8.18728e-18
6999.17962 8.67304e-18
7000.64986 8.38390e-18
7002.12010 8.27757e-18
7003.59034 8.10868e-18
7005.06058 8.96522e-18
7006.53082 9.57124e-18
7008.00106 7.78091e-18
7009.47130 8.87558e-18
7010.94154 9.08712e-18
7012.41178 8.54126e-18
7013.88202 9.22946e-18
7015.35226 8.48504e-18
7016.82250 7.23815e-18
7018.29274 9.30090e-18
7019.76298 8.74980e-18
7021.23322 6.71796e-18
7022.70346 7.50850e-18
7024.17370 9.03813e-18
7025.64394 8.20789e-18
7027.11418 7.53228e-18
7028.58442 7.78553e-18
7030.05466 7.93810e-18
7031.52490 9.07679e-18
7032.98493 8.84920e-18
7034.45517 8.69663e-18
7035.92541 1.03326e-17
7037.39565 9.91711e-18
7038.86589 9.78670e-18
7040.33613 9.21402e-18
7041.80637 8.34598e-18
7043.27661 8.84823e-18
7044.74685 9.77517e-18
7046.21709 9.22520e-18
7047.68733 7.88225e-18
7049.15757 9.16043e-18
7050.62781 9.81022e-18
7052.09805 9.56507e-18
7053.56829 8.81257e-18
7055.03853 9.01843e-18
7056.50877 9.30421e-18
7057.97901 9.89531e-18
7059.44925 1.02605e-17
7060.91949 9.64844e-18
7062.38973 8.82435e-18
7063.85997 9.40660e-18
7065.33021 9.39650e-18
7066.80045 7.54563e-18
7068.27069 8.84645e-18
7069.74093 1.04417e-17
7071.21117 9.41511e-18
7072.68141 8.86354e-18
7074.15165 8.97323e-18
7075.62189 9.03480e-18
7077.09213 8.79439e-18
7078.56237 9.19100e-18
7080.03261 9.09409e-18
7081.50285 8.08188e-18
7082.97309 9.37425e-18
7084.44333 9.95131e-18
7085.91357 9.01016e-18
7087.38381 9.01666e-18
7088.85405 9.01745e-18
7090.32429 9.82224e-18
7091.79453 9.52310e-18
7093.25456 7.76393e-18
7094.72480 9.28226e-18
7096.19504 1.02571e-17
7097.66528 9.09644e-18
7099.13552 8.58922e-18
7100.60576 8.06625e-18
7102.07600 9.06208e-18
7103.54624 9.96961e-18
7105.01648 8.60996e-18
7106.48672 8.37322e-18
7107.95696 9.33178e-18
7109.42720 9.58376e-18
7110.89744 8.99942e-18
7112.36768 8.60541e-18
7113.83792 8.35656e-18
7115.30816 8.87178e-18
7116.77840 9.81034e-18
7118.24864 9.42722e-18
7119.71888 9.01468e-18
7121.18912 8.68925e-18
7122.65936 9.03042e-18
7124.12960 9.32508e-18
7125.59984 8.77201e-18
7127.07008 1.00796e-17
7128.54032 1.07458e-17
7130.01056 9.76910e-18
7131.48080 1.05814e-17
7132.95104 9.61524e-18
7134.42128 8.67920e-18
7135.89152 9.34683e-18
7137.36176 9.49236e-18
7138.83200 9.11132e-18
7140.30224 7.78277e-18
7141.77248 7.84915e-18
7143.24272 9.92026e-18
7144.71296 9.89845e-18
7146.18320 8.76508e-18
7147.65344 9.12927e-18
7149.12368 9.11083e-18
7150.59392 8.01931e-18
7152.06416 9.15341e-18
7153.53440 9.35420e-18
7155.00464 8.31030e-18
7156.47488 8.36886e-18
7157.93491 9.22683e-18
7159.40515 9.55076e-18
7160.87539 9.64224e-18
7162.34563 9.20963e-18
7163.81587 8.86683e-18
7165.28611 8.18098e-18
7166.75635 8.74621e-18
7168.22659 1.02622e-17
7169.69683 1.02336e-17
7171.16707 1.00274e-17
7172.63731 9.59691e-18
7174.10755 8.95777e-18
7175.57779 9.51782e-18
7177.04803 8.48868e-18
7178.51827 8.85377e-18
7179.98851 9.79118e-18
7181.45875 9.20626e-18
7182.92899 8.68624e-18
7184.39923 9.14191e-18
7185.86947 1.00177e-17
7187.33971 9.76528e-18
7188.80995 9.44816e-18
7190.28019 9.11521e-18
7191.75043 8.63709e-18
7193.22067 8.36676e-18
7194.69091 7.83321e-18
7196.16115 9.24919e-18
7197.63139 1.04157e-17
7199.10163 9.17319e-18
7200.57187 7.52700e-18
7202.04211 9.66285e-18
7203.51235 1.05511e-17
7204.98259 8.65558e-18
7206.45283 9.40222e-18
7207.92307 1.02310e-17
7209.39331 9.69274e-18
7210.86355 9.81815e-18
7212.33379 8.37904e-18
7213.80403 8.90784e-18
7215.27427 9.30797e-18
7216.74451 8.26198e-18
7218.21475 1.01820e-17
7219.68499 9.38997e-18
7221.14502 9.43033e-18
7222.61526 9.44712e-18
7224.08550 8.55527e-18
7225.55574 8.24309e-18
7227.02598 8.74793e-18
7228.49622 8.21379e-18
7229.96646 7.84044e-18
7231.43670 9.05366e-18
7232.90694 1.01235e-17
7234.37718 8.85929e-18
7235.84742 8.34311e-18
7237.31766 9.55242e-18
7238.78790 1.01419e-17
7240.25814 8.82317e-18
7241.72838 9.29874e-18
7243.19862 8.41598e-18
7244.66886 8.64742e-18
7246.13910 1.08687e-17
7247.60934 1.03676e-17
7249.07958 7.97230e-18
7250.54982 8.59735e-18
7252.02006 9.37267e-18
7253.49030 8.23441e-18
7254.96054 9.11354e-18
7256.43078 9.80169e-18
7257.90102 8.60464e-18
7259.37126 8.82101e-18
7260.84150 8.38593e-18
7262.31174 8.72020e-18
7263.78198 9.23795e-18
7265.25222 8.99840e-18
7266.72246 8.45625e-18
7268.19270 8.33281e-18
7269.66294 8.13795e-18
7271.13318 8.85978e-18
7272.60342 1.07153e-17
7274.07366 1.06704e-17
7275.54390 1.01381e-17
7277.01414 1.03275e-17
7278.48438 9.61194e-18
7279.95462 9.17188e-18
7281.41465 8.85361e-18
7282.88489 9.73163e-18
7284.35513 9.89653e-18
7285.82537 8.75100e-18
7287.29561 8.74506e-18
7288.76585 8.22474e-18
7290.23609 9.39536e-18
7291.70633 7.80842e-18
7293.17657 9.57361e-18
7294.64681 9.33680e-18
7296.11705 9.34312e-18
7297.58729 9.15565e-18
7299.05753 9.01336e-18
7300.52777 9.39091e-18
7301.99801 9.23394e-18
7303.46825 8.07888e-18
7304.93849 7.68467e-18
7306.40873 7.97850e-18
7307.87897 8.78782e-18
7309.34921 9.87232e-18
7310.81945 8.37372e-18
7312.28969 9.14090e-18
7313.75993 9.96836e-18
7315.23017 8.87977e-18
7316.70041 8.33601e-18
7318.17065 7.37004e-18
7319.64089 8.74086e-18
7321.11113 9.20780e-18
7322.58137 8.58006e-18
7324.05161 8.52968e-18
7325.52185 8.96928e-18
7326.99209 9.77505e-18
7328.46233 9.48590e-18
7329.93257 9.01877e-18
7331.40281 9.38295e-18
7332.87305 9.06834e-18
7334.34329 9.80333e-18
7335.81353 1.01096e-17
7337.28377 8.31380e-18
7338.75401 9.78687e-18
7340.22425 8.72961e-18
7341.69449 7.21519e-18
7343.16473 9.16621e-18
7344.62476 8.68028e-18
7346.09500 8.26409e-18
7347.56524 8.37688e-18
7349.03548 9.73076e-18
7350.50572 9.32346e-18
7351.97596 8.61180e-18
7353.44620 8.52324e-18
7354.91644 1.04656e-17
7356.38668 9.72550e-18
7357.85692 8.74382e-18
7359.32716 8.83445e-18
7360.79740 8.98630e-18
7362.26764 9.75201e-18
7363.73788 8.52274e-18
7365.20812 7.97233e-18
7366.67836 7.48567e-18
7368.14860 8.49507e-18
7369.61884 1.06782e-17
7371.08908 9.05398e-18
7372.55932 8.22115e-18
7374.02956 7.16175e-18
7375.49980 9.01327e-18
7376.97004 8.82608e-18
7378.44028 8.56015e-18
7379.91052 8.28154e-18
7381.38076 9.02713e-18
7382.85100 9.24676e-18
7384.32124 9.81109e-18
7385.79148 8.39312e-18
7387.26172 9.26125e-18
7388.73196 9.38800e-18
7390.20220 8.30765e-18
7391.67244 8.23059e-18
7393.14268 9.37200e-18
7394.61292 9.37745e-18
7396.08316 9.35951e-18
7397.55340 9.04093e-18
7399.02364 1.03582e-17
7400.49388 1.08554e-17
7401.96412 9.03942e-18
7403.43436 9.02938e-18
7404.90460 8.10262e-18
7406.37484 7.84622e-18
7407.12935 7.84622e-18
7408.82694 6.82136e-18
7410.52453 6.28115e-18
7412.22211 6.48330e-18
7413.91970 6.83828e-18
7415.61729 7.14122e-18
7417.31488 7.65718e-18
7419.01247 8.18692e-18
7420.71005 7.91050e-18
7422.40764 6.78517e-18
7424.10523 6.02176e-18
7425.80282 6.24141e-18
7427.50041 6.85578e-18
7429.19800 7.35480e-18
7430.89558 7.58969e-18
7432.59317 7.54525e-18
7434.29076 7.47416e-18
7435.98835 7.59640e-18
7437.68594 7.89181e-18
7439.38352 8.26222e-18
7441.09116 8.58765e-18
7442.78874 8.72115e-18
7444.48633 8.34375e-18
7446.18392 7.32514e-18
7447.88151 6.41899e-18
7449.57910 6.42683e-18
7451.27669 7.06913e-18
7452.97427 7.63438e-18
7454.67186 7.64745e-18
7456.36945 6.88648e-18
7458.06704 5.77751e-18
7459.76463 5.09666e-18
7461.46221 5.03634e-18
7463.15980 5.33255e-18
7464.85739 5.87306e-18
7466.55498 6.63515e-18
7468.25257 7.38853e-18
7469.95015 7.76249e-18
7471.64774 7.65269e-18
7473.34533 7.25452e-18
7475.04292 6.87438e-18
7476.74051 6.95193e-18
7478.43809 7.44610e-18
7480.13568 7.55063e-18
7481.83327 7.00955e-18
7483.53086 6.60350e-18
7485.22845 6.78534e-18
7486.92604 7.23191e-18
7488.62362 7.63499e-18
7490.32121 7.90815e-18
7492.01880 7.96240e-18
7493.71639 7.60346e-18
7495.41398 6.83453e-18
7497.11156 6.23036e-18
7498.80915 6.26282e-18
7500.50674 6.69157e-18
7502.20433 7.13383e-18
7503.90192 7.41099e-18
7505.59950 7.47588e-18
7507.29709 7.63681e-18
7508.99468 8.19521e-18
7510.69227 8.75109e-18
7512.38986 8.67914e-18
7514.08745 7.78315e-18
7515.78503 6.23174e-18
7517.48262 4.87893e-18
7519.18021 4.85697e-18
7520.87780 5.88231e-18
7522.58543 6.59322e-18
7524.28302 6.66876e-18
7525.98061 6.74133e-18
7527.67819 6.99051e-18
7529.37578 7.16978e-18
7531.07337 7.17289e-18
7532.77096 7.01481e-18
7534.46855 6.79267e-18
7536.16614 6.73334e-18
7537.86372 6.90643e-18
7539.56131 7.10944e-18
7541.25890 7.20695e-18
7542.95649 7.22633e-18
7544.65408 7.19840e-18
7546.35166 7.15106e-18
7548.04925 7.08271e-18
7549.74684 6.87813e-18
7551.44443 6.87217e-18
7553.14202 6.86621e-18
7554.83960 6.86025e-18
7556.53719 6.85429e-18
7558.23478 6.84833e-18
7559.93237 6.84237e-18
7561.62996 6.83641e-18
7563.32754 6.83045e-18
7565.02513 6.82449e-18
7566.72272 6.81853e-18
7568.42031 6.81257e-18
7570.11790 6.80662e-18
7571.81549 6.80065e-18
7573.51307 6.79470e-18
7575.21066 6.78874e-18
7576.90825 6.78278e-18
7578.60584 6.77683e-18
7580.30343 6.77088e-18
7582.00101 6.76492e-18
7583.69860 6.75896e-18
7585.39619 6.75301e-18
7587.09378 6.74705e-18
7588.79137 6.74111e-18
7590.48895 6.73515e-18
7592.18654 6.72919e-18
7593.88413 6.72324e-18
7595.58172 6.71729e-18
7597.27931 6.71134e-18
7598.97689 6.70539e-18
7600.67448 6.69944e-18
7602.37207 6.69349e-18
7604.06966 6.68754e-18
7605.76725 6.68159e-18
7607.47488 6.67564e-18
7609.17247 6.66969e-18
7610.87006 6.66374e-18
7612.56764 6.65779e-18
7614.26523 6.65184e-18
7615.96282 6.64589e-18
7617.66041 6.63994e-18
7619.35800 6.63400e-18
7621.05559 6.62805e-18
7622.75317 6.62211e-18
7624.45076 6.61616e-18
7626.14835 6.61022e-18
7627.84594 6.60427e-18
7629.54353 6.59833e-18
7631.24111 6.59239e-18
7632.93870 6.58644e-18
7634.63629 6.58049e-18
7636.33388 6.57455e-18
7638.03147 6.56861e-18
7639.72905 6.56267e-18
7641.42664 6.55673e-18
7643.12423 6.55079e-18
7644.82182 6.54484e-18
7646.51941 6.53890e-18
7648.21699 6.53296e-18
7649.91458 6.52703e-18
7651.61217 6.52108e-18
7653.30976 6.51514e-18
7655.00735 6.50921e-18
7656.70494 6.50327e-18
7658.40252 6.49733e-18
7660.10011 6.49139e-18
7661.79770 6.48546e-18
7663.49529 6.47951e-18
7665.19288 6.47358e-18
7666.89046 6.46765e-18
7668.58805 6.46171e-18
7670.28564 6.45578e-18
7671.98323 6.44984e-18
7673.68082 6.44391e-18
7675.37840 6.43797e-18
7677.07599 6.43203e-18
7678.77358 6.42611e-18
7680.47117 6.42017e-18
7682.16876 6.41989e-18
7683.86634 6.34927e-18
7685.56393 6.23136e-18
7687.26152 6.09979e-18
7688.96915 6.03369e-18
7690.66674 6.11402e-18
7692.36433 6.28739e-18
7694.06192 6.40461e-18
7695.75951 6.39242e-18
7697.45709 6.25841e-18
7699.15468 6.05487e-18
7700.85227 5.87904e-18
7702.54986 5.87473e-18
7704.24745 6.22546e-18
7705.94504 6.83677e-18
7707.64262 7.23820e-18
7709.34021 7.23648e-18
7711.03780 7.11533e-18
7712.73539 7.00482e-18
7714.43298 6.68602e-18
7716.13056 6.13704e-18
7717.82815 5.80099e-18
7719.52574 5.87198e-18
7721.22333 5.80524e-18
7722.92092 5.31445e-18
7724.61850 5.11677e-18
7726.31609 5.73485e-18
7728.01368 6.59166e-18
7729.71127 7.05675e-18
7731.40886 7.23769e-18
7733.10644 7.36070e-18
7734.80403 7.18977e-18
7736.50162 6.52293e-18
7738.19921 5.93898e-18
7739.89680 6.12276e-18
7741.59439 6.73642e-18
7743.29197 7.04002e-18
7744.98956 7.03022e-18
7746.68715 7.09843e-18
7748.38474 7.30010e-18
7750.08233 7.48310e-18
7751.77991 7.54234e-18
7753.47750 7.40930e-18
7755.17509 7.20786e-18
7756.87268 7.23414e-18
7758.57027 7.58212e-18
7760.26785 8.12135e-18
7761.96544 8.51448e-18
7763.66303 8.16041e-18
7765.36062 7.15152e-18
7767.05821 6.62902e-18
7768.75579 7.03465e-18
7770.46343 7.53690e-18
7772.16102 7.58996e-18
7773.85860 7.35955e-18
7775.55619 7.02137e-18
7777.25378 6.63704e-18
7778.95137 6.31229e-18
7780.64896 6.26637e-18
7782.34654 6.58283e-18
7784.04413 6.96348e-18
7785.74172 7.11560e-18
7787.43931 7.00250e-18
7789.13690 6.70938e-18
7790.83448 6.53156e-18
7792.53207 6.71393e-18
7794.22966 6.89611e-18
7795.92725 6.66325e-18
7797.62484 6.57781e-18
7799.32243 7.39912e-18
7801.02001 8.58173e-18
7802.71760 9.01961e-18
7804.41519 8.56190e-18
7806.11278 7.70808e-18
7807.81037 6.98969e-18
7809.50795 6.91708e-18
7811.20554 7.29629e-18
7812.90313 7.29318e-18
7814.60072 6.89557e-18
7816.29831 6.94474e-18
7817.99589 7.49169e-18
7819.69348 7.65664e-18
7821.39107 7.25402e-18
7823.08866 7.06256e-18
7824.78625 7.33749e-18
7826.48384 7.46414e-18
7828.18142 7.15671e-18
7829.87901 6.80567e-18
7831.57660 6.60954e-18
7833.27419 6.23477e-18
7834.97178 5.58496e-18
7836.66936 5.22786e-18
7838.36695 5.55650e-18
7840.06454 6.35770e-18
7841.76213 7.22932e-18
7843.45972 7.51694e-18
7845.15730 6.84244e-18
7846.85489 5.90713e-18
7848.55248 5.54512e-18
7850.25007 5.78872e-18
7851.94766 6.36317e-18
7853.64524 7.10149e-18
7855.35288 7.83300e-18
7857.05047 8.21891e-18
7858.74805 7.96354e-18
7860.44564 7.31791e-18
7862.14323 6.81963e-18
7863.84082 6.52440e-18
7865.53841 6.15252e-18
7867.23599 5.77473e-18
7868.93358 5.70972e-18
7870.63117 5.81393e-18
7872.32876 5.54184e-18
7874.02635 4.97161e-18
7875.72393 4.85687e-18
7877.42152 5.43339e-18
7879.11911 6.28911e-18
7880.81670 6.88332e-18
7882.51429 6.44877e-18
7884.21188 5.10323e-18
7885.90946 4.54885e-18
7887.60705 5.55975e-18
7889.30464 6.87010e-18
7891.00223 7.47489e-18
7892.69982 7.38730e-18
7894.39740 6.83868e-18
7896.09499 6.31869e-18
7897.79258 6.18675e-18
7899.49017 6.15868e-18
7901.18776 5.96478e-18
7902.88534 5.92983e-18
7904.58293 6.34439e-18
7906.28052 6.89419e-18
7907.97811 7.13999e-18
7909.67570 6.84208e-18
7911.37328 5.98658e-18
7913.07087 5.14113e-18
7914.76846 5.00719e-18
7916.46605 5.60964e-18
7918.16364 6.51943e-18
7919.86123 7.03121e-18
7921.55881 6.42170e-18
7923.25640 5.13918e-18
7924.95399 4.50663e-18
7926.65158 4.93911e-18
7928.34917 5.97030e-18
7930.04675 7.01430e-18
7931.74434 7.35420e-18
7933.44193 6.93199e-18
7935.13952 6.57183e-18
7936.84715 6.55262e-18
7938.54474 6.31352e-18
7940.24233 5.76309e-18
7941.93992 5.57507e-18
7943.63750 6.06934e-18
7945.33509 6.92989e-18
7947.03268 7.69805e-18
7948.73027 7.68734e-18
7950.42786 6.66154e-18
7952.12544 5.49781e-18
7953.82303 4.95714e-18
7955.52062 4.97326e-18
7957.21821 5.30561e-18
7958.91580 5.71398e-18
7960.61338 6.01257e-18
7962.31097 6.35555e-18
7964.00856 6.88233e-18
7965.70615 7.18999e-18
7967.40374 6.85047e-18
7969.10133 6.11730e-18
7970.79891 5.49304e-18
7972.49650 5.17780e-18
7974.19409 5.17062e-18
7975.89168 5.29936e-18
7977.58927 5.29653e-18
7979.28685 5.15388e-18
7980.98444 5.05549e-18
7982.68203 4.99191e-18
7984.37962 4.80901e-18
7986.07721 4.48504e-18
7987.77479 4.11971e-18
7989.47238 3.90392e-18
7991.16997 4.12322e-18
7992.86756 4.75196e-18
7994.56515 5.35433e-18
7996.26273 5.63709e-18
7997.96032 5.55265e-18
7999.65791 5.17309e-18
8001.35550 4.76954e-18
8003.05309 4.48433e-18
8004.75068 4.12155e-18
8006.44826 3.60166e-18
8008.14585 3.20460e-18
8009.84344 3.10446e-18
8011.54103 3.07731e-18
8013.23862 2.94988e-18
8014.93620 2.91862e-18
8016.63379 3.15628e-18
8018.34143 3.50081e-18
8020.03901 3.75287e-18
8021.73660 3.93980e-18
8023.43419 4.12775e-18
8025.13178 4.20140e-18
8026.82937 4.02941e-18
8028.52695 3.74134e-18
8030.22454 3.54527e-18
8031.92213 3.33982e-18
8033.61972 2.89841e-18
8035.31731 2.36217e-18
8037.01489 2.08716e-18
8038.71248 2.11056e-18
8040.41007 2.22472e-18
8042.10766 2.40284e-18
8043.80525 2.76532e-18
8045.50283 3.31174e-18
8047.20042 3.92567e-18
8048.89801 4.41026e-18
8050.59560 4.47967e-18
8052.29319 4.04581e-18
8053.99078 3.30870e-18
8055.68836 2.49934e-18
8057.38595 1.82174e-18
8059.08354 1.52172e-18
8060.78113 1.96841e-18
8062.47872 3.10148e-18
8064.17630 3.96878e-18
8065.87389 3.93671e-18
8067.57148 3.39636e-18
8069.26907 2.83768e-18
8070.96666 2.48139e-18
8072.66424 2.45903e-18
8074.36183 2.83138e-18
8076.05942 3.50540e-18
8077.75701 4.00496e-18
8079.45460 3.90884e-18
8081.15218 3.46739e-18
8082.84977 3.11581e-18
8084.54736 2.84952e-18
8086.24495 2.51422e-18
8087.94254 2.20627e-18
8089.64013 2.11584e-18
8091.33771 2.31212e-18
8093.03530 2.76222e-18
8094.73289 3.28763e-18
8096.43048 3.61781e-18
8098.12807 3.65456e-18
8099.82565 3.47249e-18
8101.52324 3.19005e-18
8103.22083 2.96868e-18
8104.92846 2.82646e-18
8106.62605 2.59157e-18
8108.32364 2.31436e-18
8110.02123 2.35114e-18
8111.71882 2.74049e-18
8113.41640 3.05478e-18
8115.11399 2.94529e-18
8116.81158 2.17627e-18
8118.50917 9.64099e-19
8120.20676 4.54597e-19
8121.90434 1.21013e-18
8123.60193 2.21620e-18
8125.29952 2.63268e-18
8126.99711 2.71363e-18
8128.69470 2.79668e-18
8130.39228 2.88047e-18
8132.08987 2.91097e-18
8133.78746 2.84533e-18
8135.48505 2.65423e-18
8137.18264 2.33211e-18
8138.88023 1.93029e-18
8140.57781 1.72069e-18
8142.27540 1.95162e-18
8143.97299 2.37300e-18
8145.67058 2.54212e-18
8147.36817 2.34738e-18
8149.06575 1.91613e-18
8150.76334 1.53269e-18
8152.46093 1.55513e-18
8154.15852 1.96231e-18
8155.85611 2.40708e-18
8157.55369 2.75705e-18
8159.25128 3.08747e-18
8160.94887 3.36307e-18
8162.64646 3.44915e-18
8164.34405 3.37024e-18
8166.04163 3.34123e-18
8167.73922 3.38748e-18
8169.43681 3.25555e-18
8171.13440 2.81415e-18
8172.83199 2.14074e-18
8174.52958 1.38420e-18
8176.22716 7.77009e-19
8177.92475 5.17707e-19
8179.62234 7.47318e-19
8181.31993 1.39717e-18
8183.01752 1.95588e-18
8184.71510 2.03237e-18
8186.41269 1.71171e-18
8188.12032 1.25978e-18
8189.81791 1.21150e-18
8191.51550 1.88440e-18
8193.21309 2.60477e-18
8194.91068 2.60086e-18
8196.60827 1.95209e-18
8198.30585 1.10627e-18
8200.00344 6.19581e-19
8201.70103 9.36366e-19
8203.39862 1.61939e-18
8205.09621 1.85099e-18
8206.79379 1.75547e-18
8208.49138 2.01163e-18
8210.18897 2.64767e-18
8211.88656 3.22366e-18
8213.58415 3.47245e-18
8215.28173 3.27827e-18
8216.97932 2.80041e-18
8218.67691 2.49746e-18
8220.37450 2.46036e-18
8222.07209 2.31711e-18
8223.76967 1.96878e-18
8225.46726 1.70209e-18
8227.16485 1.62457e-18
8228.86244 1.54574e-18
8230.56003 1.43608e-18
8232.25762 1.58898e-18
8233.95520 2.09391e-18
8235.65279 2.58190e-18
8237.35038 2.80414e-18
8239.04797 2.92587e-18
8240.74556 3.07436e-18
8242.44314 3.09408e-18
8244.14073 2.87959e-18
8245.83832 2.60099e-18
8247.53591 2.42950e-18
8249.23350 2.36374e-18
8250.93108 2.32828e-18
8252.62867 2.09808e-18
8254.32626 1.52800e-18
8256.02385 1.07266e-18
8257.72144 1.27410e-18
8259.41903 1.87004e-18
8261.11661 2.24469e-18
8262.81420 2.17337e-18
8264.51179 1.72584e-18
8266.20938 1.27295e-18
8267.91701 1.35101e-18
8269.60455 1.88220e-18
8271.30214 2.26942e-18
8273.00977 2.26309e-18
8274.70736 1.96494e-18
8276.40495 1.56497e-18
8278.10254 1.36940e-18
8279.80013 1.48938e-18
8281.49772 1.74818e-18
8283.19530 2.04175e-18
8284.89289 2.40103e-18
8286.59048 2.77418e-18
8288.28807 2.97600e-18
8289.98566 2.93635e-18
8291.68324 2.80471e-18
8293.38083 2.71721e-18
8295.07842 2.72752e-18
8296.77601 2.83740e-18
8298.47360 2.95366e-18
8300.17118 2.98617e-18
8301.86877 2.91442e-18
8303.56636 2.74682e-18
8305.26395 2.52373e-18
8306.96154 2.28636e-18
8308.65912 2.03173e-18
8310.35671 1.75466e-18
8312.05430 1.46326e-18
8313.75189 1.19807e-18
8315.44948 1.15447e-18
8317.14707 1.52062e-18
8318.84465 2.11492e-18
8320.54224 2.57706e-18
8322.23983 2.78753e-18
8323.93742 2.81174e-18
8325.63501 2.79554e-18
8327.33259 2.93564e-18
8329.03018 3.19920e-18
8330.72777 3.33843e-18
8332.42536 3.22933e-18
8334.12295 2.88325e-18
8335.82053 2.45803e-18
8337.51812 2.29832e-18
8339.21571 2.41622e-18
8340.91330 2.33505e-18
8342.61089 1.92633e-18
8344.30847 1.63561e-18
8346.00606 1.76516e-18
8347.70365 2.33916e-18
8349.40124 3.18374e-18
8351.09883 3.76099e-18
8352.79642 3.74423e-18
8354.50405 3.39677e-18
8356.20164 3.04182e-18
8357.89922 2.87048e-18
8359.59681 2.97381e-18
8361.29440 3.25266e-18
8362.99199 3.53219e-18
8364.68958 3.58783e-18
8366.38717 3.27880e-18
8368.08475 2.79898e-18
8369.78234 2.43430e-18
8371.47993 2.22146e-18
8373.17752 2.11488e-18
8374.87511 2.30637e-18
8376.57269 3.00850e-18
8378.27028 3.94780e-18
8379.96787 4.59794e-18
8381.66546 4.84307e-18
8383.36305 4.87080e-18
8385.06063 4.72022e-18
8386.75822 4.33572e-18
8388.45581 3.65388e-18
8390.15340 2.59451e-18
8391.85099 1.60083e-18
8393.54857 1.68297e-18
8395.24616 2.89839e-18
8396.94375 4.05536e-18
8398.64134 4.44997e-18
8400.33893 4.17133e-18
8402.03652 3.51287e-18
8403.73410 3.09626e-18
8405.43169 3.20217e-18
8407.12928 3.31475e-18
8408.82687 3.09751e-18
8410.52446 2.81233e-18
8412.22204 2.70648e-18
8413.91963 2.81480e-18
8415.61722 3.09898e-18
8417.31481 3.40815e-18
8419.01240 3.60707e-18
8420.70998 3.73982e-18
8422.40757 3.86903e-18
8424.10516 3.87298e-18
8425.80275 3.65571e-18
8427.50034 3.49464e-18
8429.19792 3.70118e-18
8430.89551 4.03893e-18
8432.59310 4.08433e-18
8434.29069 3.87968e-18
8435.99832 3.71696e-18
8437.69591 3.73081e-18
8439.39350 3.92930e-18
8441.09109 4.08945e-18
8442.77863 3.83546e-18
8444.48626 3.28342e-18
8446.18385 2.99661e-18
8447.88144 3.20157e-18
8449.57903 3.75171e-18
8451.27662 4.40604e-18
8452.97420 4.80145e-18
8454.67179 4.80657e-18
8456.36938 4.66122e-18
8458.06697 4.47971e-18
8459.76456 4.13090e-18
8461.46214 3.59403e-18
8463.15973 3.03068e-18
8464.85732 2.63065e-18
8466.55491 2.63407e-18
8468.25250 3.10531e-18
8469.95008 3.72888e-18
8471.64767 4.18303e-18
8473.34526 4.29007e-18
8475.04285 4.03410e-18
8476.74044 3.76549e-18
8478.43802 3.80359e-18
8480.13561 4.03129e-18
8481.83320 4.20959e-18
8483.53079 4.17581e-18
8485.22838 3.86982e-18
8486.92597 3.54555e-18
8488.62355 3.53874e-18
8490.32114 3.80469e-18
8492.01873 4.10861e-18
8493.71632 4.45758e-18
8495.41391 4.97104e-18
8497.11149 5.51010e-18
8498.80908 5.78195e-18
8500.50667 5.67837e-18
8502.20426 5.26980e-18
8503.90185 4.82581e-18
8505.59943 4.79757e-18
8507.29702 5.24180e-18
8508.99461 5.73503e-18
8510.69220 6.04301e-18
8512.38979 6.21842e-18
8514.08737 6.20966e-18
8515.78496 5.80594e-18
8517.49260 5.03413e-18
8519.19018 4.28909e-18
8520.87773 3.91055e-18
8522.58536 4.11601e-18
8524.27290 4.82393e-18
8525.98054 5.32220e-18
8527.67812 5.14663e-18
8529.37571 4.69497e-18
8531.07330 4.41699e-18
8532.77089 4.43905e-18
8534.46848 4.72481e-18
8536.16606 4.92563e-18
8537.86365 4.74347e-18
8539.56124 4.45123e-18
8541.25883 4.42195e-18
8542.95642 4.57459e-18
8544.65401 4.66747e-18
8546.35159 4.61924e-18
8548.04918 4.44471e-18
8549.74677 4.24097e-18
8551.44436 4.15366e-18
8553.14195 4.24777e-18
8554.83953 4.50892e-18
8556.53712 4.88770e-18
8558.23471 5.29849e-18
8559.93230 5.58121e-18
8561.62989 5.53284e-18
8563.32747 5.23541e-18
8565.02506 5.07903e-18
8566.72265 5.20183e-18
8568.42024 5.40874e-18
8570.11783 5.59259e-18
8571.81542 5.77966e-18
8573.51300 5.95687e-18
8575.21059 6.07119e-18
8576.90818 6.04851e-18
8578.60577 5.74724e-18
8580.30336 5.18443e-18
8582.00094 4.71953e-18
8583.69853 4.59388e-18
8585.39612 4.65342e-18
8587.09371 4.73373e-18
8588.79130 4.83621e-18
8590.48888 4.98607e-18
8592.18647 5.24240e-18
8593.88406 5.59414e-18
8595.58165 5.72170e-18
8597.27924 5.35452e-18
8598.97682 4.72870e-18
8600.67441 4.24494e-18
8602.37200 4.13733e-18
8604.07963 4.47614e-18
8605.76718 4.96150e-18
8607.47481 5.14796e-18
8609.17240 5.09671e-18
8610.86999 5.17859e-18
8612.56757 5.39161e-18
8614.26516 5.48006e-18
8615.96275 5.37596e-18
8617.66034 5.17074e-18
8619.35793 5.16517e-18
8621.05551 5.84686e-18
8622.75310 7.16683e-18
8624.45069 8.45537e-18
8626.14828 9.06003e-18
8627.84587 8.37931e-18
8629.54346 6.53844e-18
8631.24104 4.76840e-18
8632.93863 3.89375e-18
8634.63622 3.89025e-18
8636.33381 4.43943e-18
8638.03140 4.75576e-18
8639.72898 4.43884e-18
8641.42657 4.17669e-18
8643.12416 4.50135e-18
8644.82175 5.12266e-18
8646.51934 5.63954e-18
8648.21692 5.75627e-18
8649.91451 5.35602e-18
8651.61210 4.79802e-18
8653.30969 4.50832e-18
8655.00728 4.56985e-18
8656.70486 4.90193e-18
8658.40245 5.36293e-18
8660.10004 5.78025e-18
8661.79763 6.06331e-18
8663.49522 6.17899e-18
8665.19281 6.03649e-18
8666.89039 5.56565e-18
8668.58798 4.98033e-18
8670.28557 4.66152e-18
8671.98316 4.67705e-18
8673.68075 4.82484e-18
8675.37833 5.02102e-18
8677.07592 5.28677e-18
8678.77351 5.61948e-18
8680.47110 6.00828e-18
8682.16869 6.37668e-18
8683.86627 6.56917e-18
8685.56386 6.48363e-18
8687.26145 6.08905e-18
8688.96908 5.50077e-18
8690.66667 5.05520e-18
8692.36426 4.96088e-18
8694.06185 5.16171e-18
8695.75944 5.51526e-18
8697.45702 5.78100e-18
8699.15461 5.79096e-18
8700.85220 5.58174e-18
8702.54979 5.26902e-18
8704.24738 5.03098e-18
8705.94496 5.01365e-18
8707.64255 5.27690e-18
8709.34014 5.75572e-18
8711.03773 6.02965e-18
8712.73532 5.75202e-18
8714.43291 5.34178e-18
8716.13049 5.37518e-18
8717.82808 5.68302e-18
8719.52567 5.80763e-18
8721.22326 5.70016e-18
8722.92085 5.53959e-18
8724.61843 5.52544e-18
8726.31602 5.83826e-18
8728.01361 6.25626e-18
8729.71120 6.27492e-18
8731.40879 5.93636e-18
8733.10637 5.76578e-18
8734.80396 5.90890e-18
8736.50155 6.12075e-18
8738.19914 6.22737e-18
8739.89673 6.12652e-18
8741.59431 5.82586e-18
8743.29190 5.50181e-18
8744.98949 5.27869e-18
8746.68708 5.17888e-18
8748.38467 5.17318e-18
8750.08226 5.15545e-18
8751.77984 5.05517e-18
8753.47743 4.85879e-18
8755.17502 4.67464e-18
8756.87261 4.90012e-18
8758.57020 5.71361e-18
8760.26778 6.66240e-18
8761.96537 7.26847e-18
8763.66296 7.33984e-18
8765.36055 6.88365e-18
8767.05814 6.31215e-18
8768.75572 6.00506e-18
8770.45331 5.66458e-18
8772.16095 4.89127e-18
8773.85853 3.87801e-18
8775.55612 3.07207e-18
8777.25371 2.95801e-18
8778.95130 3.85527e-18
8780.64889 5.11139e-18
8782.34647 5.59104e-18
8784.04406 5.29391e-18
8785.74165 5.04148e-18
8787.43924 5.02882e-18
8789.13683 4.95156e-18
8790.83441 4.77787e-18
8792.53200 4.68241e-18
8794.22959 4.69656e-18
8795.92718 4.72351e-18
8797.62477 4.63603e-18
8799.32236 4.25280e-18
8801.01994 3.67428e-18
8802.71753 3.43673e-18
8804.41512 3.71091e-18
8806.11271 4.00609e-18
8807.81030 4.00721e-18
8809.50788 3.82924e-18
8811.20547 3.61327e-18
8812.90306 3.48247e-18
8814.60065 3.48447e-18
8816.29824 3.45033e-18
8817.99582 3.26422e-18
8819.69341 3.06770e-18
8821.39100 3.02229e-18
8823.08859 3.18021e-18
8824.78618 3.52028e-18
8826.48376 3.90639e-18
8828.18135 4.18318e-18
8829.87894 4.28012e-18
8831.57653 4.19981e-18
8833.27412 4.07190e-18
8834.97171 4.05669e-18
8836.66929 4.10136e-18
8838.36688 4.04614e-18
8840.06447 3.94837e-18
8841.76206 3.98315e-18
8843.45965 4.04087e-18
8845.15723 3.82491e-18
8846.85482 3.38069e-18
8848.55241 3.05768e-18
8850.25000 3.07739e-18
8851.94759 3.51802e-18
8853.65522 4.25857e-18
8855.34276 4.91693e-18
8857.05040 5.37234e-18
8858.74798 5.92241e-18
8860.44557 6.55283e-18
8862.14316 6.72117e-18
8863.84075 6.21431e-18
8865.53834 5.41956e-18
8867.23592 4.73215e-18
8868.93351 4.48596e-18
8870.63110 4.73438e-18
8872.32869 4.85669e-18
8874.02628 4.46235e-18
8875.72386 4.07424e-18
8877.42145 4.21301e-18
8879.11904 4.88703e-18
8880.81663 5.86729e-18
8882.51422 6.60062e-18
8884.21181 6.61690e-18
8885.90939 6.15948e-18
8887.60698 5.70095e-18
8889.30457 5.29055e-18
8891.00216 4.84974e-18
8892.69975 4.70736e-18
8894.39733 5.25685e-18
8896.09492 6.15809e-18
8897.79251 6.66626e-18
8899.49010 6.66394e-18
8901.18769 6.50298e-18
8902.88527 6.06630e-18
8904.58286 4.91238e-18
8906.28045 3.59236e-18
8907.97804 3.55260e-18
8909.67563 4.80608e-18
8911.37321 5.73699e-18
8913.07080 5.50608e-18
8914.76839 4.31278e-18
8916.46598 2.74234e-18
8918.16357 1.99455e-18
8919.86116 2.43815e-18
8921.55874 2.85350e-18
8923.25633 2.55532e-18
8924.95392 2.17478e-18
8926.65151 2.22361e-18
8928.34910 2.70480e-18
8930.04668 3.44815e-18
8931.74427 3.98736e-18
8933.44186 4.00297e-18
8935.14949 3.76789e-18
8936.83704 3.61839e-18
8938.53462 3.59063e-18
8940.24226 3.64094e-18
8941.93985 3.70225e-18
8943.63743 3.74628e-18
8945.33502 4.06546e-18
8947.03261 4.92525e-18
8948.73020 5.83519e-18
8950.42779 6.06846e-18
8952.12537 5.75581e-18
8953.82296 5.49004e-18
8955.52055 5.29648e-18
8957.21814 4.85407e-18
8958.91573 4.20734e-18
8960.61331 3.65798e-18
8962.31090 3.37040e-18
8964.00849 3.37986e-18
8965.70608 3.61521e-18
8967.40367 3.88972e-18
8969.10125 3.98401e-18
8970.79884 3.64586e-18
8972.49643 3.03745e-18
8974.19402 2.92410e-18
8975.89161 3.54297e-18
8977.58920 4.21249e-18
8979.28678 4.50086e-18
8980.98437 4.59972e-18
8982.68196 4.58533e-18
8984.37955 4.08794e-18
8986.07714 3.12053e-18
8987.77472 2.73271e-18
8989.47231 3.57636e-18
8991.16990 4.80825e-18
8992.86749 5.56302e-18
8994.56508 5.98381e-18
8996.26266 6.35594e-18
8997.96025 6.50016e-18
8999.65784 6.20786e-18
9001.35543 5.59042e-18
9003.05302 4.87404e-18
9004.75061 4.26312e-18
9006.44819 3.89296e-18
9008.14578 3.62458e-18
9009.84337 3.20289e-18
9011.54096 2.64740e-18
9013.23855 2.17252e-18
9014.93613 2.00467e-18
9016.63372 2.34609e-18
9018.33131 3.13758e-18
9020.02890 4.06292e-18
9021.72649 4.84465e-18
9023.43412 5.28156e-18
9025.13171 5.15505e-18
9026.82930 4.23815e-18
9028.52688 2.91146e-18
9030.22447 2.35054e-18
9031.92206 2.93498e-18
9033.61965 3.75867e-18
9035.31724 4.23840e-18
9037.01482 4.51024e-18
9038.71241 4.68334e-18
9040.41000 4.74581e-18
9042.10759 4.68599e-18
9043.80518 4.44492e-18
9045.50276 4.02512e-18
9047.20035 3.63314e-18
9048.89794 3.39434e-18
9050.59553 3.03425e-18
9052.29312 2.37520e-18
9053.99070 1.86676e-18
9055.68829 1.95868e-18
9057.38588 2.49585e-18
9059.08347 3.09283e-18
9060.78106 3.40723e-18
9062.47865 3.21363e-18
9064.17623 2.57941e-18
9065.87382 1.80368e-18
9067.57141 1.55894e-18
9069.26900 2.52054e-18
9070.96659 3.95836e-18
9072.66417 4.27150e-18
9074.36176 3.42034e-18
9076.05935 2.65453e-18
9077.75694 2.49403e-18
9079.45453 2.76997e-18
9081.15211 3.29931e-18
9082.84970 3.82708e-18
9084.54729 4.00547e-18
9086.24488 3.41286e-18
9087.94247 2.26739e-18
9089.64005 1.70265e-18
9091.33764 2.25420e-18
9093.03523 3.42084e-18
9094.73282 4.61224e-18
9096.43041 5.19902e-18
9098.12800 4.96403e-18
9099.82558 4.58779e-18
9101.52317 4.63914e-18
9103.22076 5.10662e-18
9104.92839 5.77869e-18
9106.62598 6.18647e-18
9108.32357 6.00387e-18
9110.01111 5.53643e-18
9111.71875 5.17754e-18
9113.41633 4.97042e-18
9115.11392 4.82523e-18
9116.81151 4.57031e-18
9118.50910 4.08026e-18
9120.20669 3.62317e-18
9121.90427 3.57488e-18
9123.60186 3.89455e-18
9125.29945 4.29166e-18
9126.99704 4.44750e-18
9128.69463 4.09692e-18
9130.39221 3.58976e-18
9132.08980 3.70500e-18
9133.78739 4.31777e-18
9135.48498 4.50972e-18
9137.18257 4.23375e-18
9138.88015 4.32353e-18
9140.57774 4.88992e-18
9142.27533 5.20925e-18
9143.97292 5.05129e-18
9145.67051 4.83341e-18
9147.36810 4.85005e-18
9149.06568 5.22930e-18
9150.76327 5.80412e-18
9152.46086 5.85616e-18
9154.15845 5.07208e-18
9155.85604 4.09794e-18
9157.55362 3.37639e-18
9159.25121 2.48952e-18
9160.94880 1.30200e-18
9162.64639 7.75504e-19
9164.34398 1.55136e-18
9166.04156 2.91072e-18
9167.73915 3.90866e-18
9169.43674 3.91516e-18
9171.13433 2.77416e-18
9172.83192 1.60624e-18
9174.52950 1.65262e-18
9176.22709 2.57586e-18
9177.92468 3.39624e-18
9179.62227 3.69478e-18
9181.31986 3.44659e-18
9183.01745 3.17194e-18
9184.71503 3.64473e-18
9186.42267 4.65619e-18
9188.11021 5.30253e-18
9189.81784 5.27561e-18
9191.50539 4.78849e-18
9193.21302 4.34354e-18
9194.91061 4.72579e-18
9196.60820 5.75843e-18
9198.30578 6.15594e-18
9200.00337 5.56110e-18
9201.70096 4.83098e-18
9203.39855 4.51351e-18
9205.09614 4.70870e-18
9206.79372 5.19939e-18
9208.49131 5.19267e-18
9210.18890 4.41240e-18
9211.88649 3.69946e-18
9213.58408 3.61123e-18
9215.28166 3.77548e-18
9216.97925 3.92071e-18
9218.67684 4.44820e-18
9220.37443 5.47429e-18
9222.07202 6.04484e-18
9223.76960 5.41653e-18
9225.46719 4.08974e-18
9227.16478 2.87233e-18
9228.86237 2.37658e-18
9230.55996 2.88523e-18
9232.25755 3.71526e-18
9233.95513 3.98043e-18
9235.65272 3.85517e-18
9237.35031 3.99295e-18
9239.04790 4.62864e-18
9240.74549 5.69466e-18
9242.44307 6.81866e-18
9244.14066 7.42812e-18
9245.83825 7.30163e-18
9247.53584 6.56245e-18
9249.23343 5.46231e-18
9250.93101 4.37866e-18
9252.62860 3.60076e-18
9254.32619 3.26454e-18
9256.02378 3.42839e-18
9257.72137 4.07024e-18
9259.41895 4.84293e-18
9261.11654 4.97360e-18
9262.81413 4.27453e-18
9264.51172 3.50335e-18
9266.20931 3.18439e-18
9267.91694 3.33250e-18
9269.60448 3.74280e-18
9271.31212 3.79886e-18
9272.99966 3.23689e-18
9274.70729 2.76783e-18
9276.40488 2.93233e-18
9278.10247 3.43945e-18
9279.80006 3.86947e-18
9281.49764 3.88418e-18
9283.19523 3.37988e-18
9284.89282 2.99512e-18
9286.59041 3.34515e-18
9288.28800 3.96966e-18
9289.98559 4.18024e-18
9291.68317 4.29647e-18
9293.38076 4.89909e-18
9295.07835 5.39538e-18
9296.77594 4.83913e-18
9298.47353 4.03029e-18
9300.17111 4.60743e-18
9301.86870 6.03711e-18
9303.56629 6.33040e-18
9305.26388 5.34458e-18
9306.96147 4.46364e-18
9308.65905 4.20535e-18
9310.35664 4.30107e-18
9312.05423 4.38181e-18
9313.75182 3.85843e-18
9315.44941 3.10379e-18
9317.14700 3.82129e-18
9318.84458 6.21169e-18
9320.54217 8.23988e-18
9322.23976 8.46585e-18
9323.93735 6.54445e-18
9325.63494 3.05400e-18
9327.33252 2.18103e-19
9329.03011 -6.70315e-19
9330.72770 -8.86248e-19
9332.42529 -1.49100e-18
9334.12288 -2.02748e-18
9335.82046 -1.89451e-18
9337.51805 -7.42916e-19
9339.21564 1.45269e-18
9340.91323 3.97871e-18
9342.61082 5.99210e-18
9344.30840 7.08416e-18
9346.00599 7.14244e-18
9347.70358 6.27008e-18
9349.41121 4.81377e-18
9351.09876 3.55385e-18
9352.80639 3.27574e-18
9354.49393 3.87173e-18
9356.20157 4.64996e-18
9357.89915 5.04031e-18
9359.59674 4.64496e-18
9361.29433 3.66033e-18
9362.99192 2.79577e-18
9364.68951 2.18137e-18
9366.38709 1.40178e-18
9368.08468 5.83250e-19
9369.78227 3.67935e-19
9371.47986 1.05556e-18
9373.17745 2.58895e-18
9374.87504 4.26929e-18
9376.57262 4.45865e-18
9378.27021 2.91667e-18
9379.96780 1.72388e-18
9381.66539 2.09211e-18
9383.36298 3.39986e-18
9385.06056 4.83874e-18
9386.75815 5.48120e-18
9388.45574 5.02291e-18
9390.15333 4.81585e-18
9391.85092 5.76109e-18
9393.54850 6.70429e-18
9395.24609 6.60161e-18
9396.94368 6.05895e-18
9398.64127 5.87396e-18
9400.33886 6.10640e-18
9402.03644 6.48464e-18
9403.73403 6.32390e-18
9405.43162 5.07176e-18
9407.12921 3.33461e-18
9408.82680 2.20218e-18
9410.52439 2.31136e-18
9412.22197 3.80535e-18
9413.91956 5.87512e-18
9415.61715 7.14459e-18
9417.31474 6.99085e-18
9419.01233 5.52834e-18
9420.70991 3.63266e-18
9422.40750 2.80737e-18
9424.10509 3.06896e-18
9425.80268 2.86234e-18
9427.50027 2.00225e-18
9429.19785 1.91236e-18
9430.89544 2.83163e-18
9432.59303 3.43170e-18
9434.29062 3.31303e-18
9435.98821 3.52552e-18
9437.69584 4.52324e-18
9439.39343 5.69867e-18
9441.09102 6.44069e-18
9442.78860 6.19345e-18
9444.48619 4.93256e-18
9446.18378 3.77560e-18
9447.88137 3.56558e-18
9449.57896 4.03963e-18
9451.27654 4.68308e-18
9452.97413 4.96277e-18
9454.67172 4.56582e-18
9456.36931 3.80698e-18
9458.06690 3.21276e-18
9459.76449 3.35166e-18
9461.46207 4.50328e-18
9463.15966 5.84608e-18
9464.85725 6.29702e-18
9466.55484 5.95268e-18
9468.25243 5.49536e-18
9469.95001 5.14944e-18
9471.64760 4.85644e-18
9473.34519 4.44081e-18
9475.04278 3.65800e-18
9476.74037 2.58092e-18
9478.43795 1.57070e-18
9480.13554 1.34598e-18
9481.83313 2.88239e-18
9483.53072 5.56998e-18
9485.22831 7.07783e-18
9486.92589 6.69261e-18
9488.62348 5.79635e-18
9490.32107 5.20004e-18
9492.01866 4.85289e-18
9493.71625 4.62832e-18
9495.41384 4.18250e-18
9497.11142 3.52579e-18
9498.80901 3.47141e-18
9500.50660 4.32977e-18
9502.20419 5.17718e-18
9503.90178 5.37117e-18
9505.59936 5.40139e-18
9507.29695 5.63927e-18
9508.99454 5.56125e-18
9510.69213 4.75244e-18
9512.38972 3.67194e-18
9514.08730 2.86310e-18
9515.78489 2.17166e-18
9517.48248 1.42166e-18
9519.19011 1.44827e-18
9520.88770 3.01506e-18
9522.58529 4.92629e-18
9524.28288 5.41576e-18
9525.98047 4.67866e-18
9527.67805 3.99420e-18
9529.37564 3.98292e-18
9531.07323 4.75869e-18
9532.77082 5.86699e-18
9534.46841 6.38759e-18
9536.16599 6.09711e-18
9537.86358 5.45230e-18
9539.56117 4.84645e-18
9541.25876 4.61365e-18
9542.95635 4.71577e-18
9544.65394 4.63611e-18
9546.35152 4.12089e-18
9548.04911 3.30018e-18
9549.74670 2.41642e-18
9551.44429 1.82051e-18
9553.14188 1.85057e-18
9554.83946 2.92341e-18
9556.53705 4.73333e-18
9558.23464 5.44083e-18
9559.93223 4.25731e-18
9561.62982 3.22177e-18
9563.32740 3.79236e-18
9565.02499 4.80245e-18
9566.72258 5.00866e-18
9568.42017 4.41927e-18
9570.11776 3.45779e-18
9571.81534 2.81055e-18
9573.51293 3.08142e-18
9575.21052 4.27265e-18
9576.90811 6.01058e-18
9578.60570 7.65915e-18
9580.30329 8.55688e-18
9582.00087 8.46441e-18
9583.69846 7.50024e-18
9585.39605 6.01941e-18
9587.09364 4.53469e-18
9588.79123 3.50838e-18
9590.48881 3.25925e-18
9592.18640 3.53124e-18
9593.88399 3.59575e-18
9595.58158 3.56220e-18
9597.27917 4.34766e-18
9598.97675 5.73414e-18
9600.67434 6.27410e-18
9602.38198 5.65522e-18
9604.07956 5.00659e-18
9605.76711 4.89099e-18
9607.47474 5.02069e-18
9609.17233 5.10763e-18
9610.86992 4.87059e-18
9612.56750 4.24524e-18
9614.26509 3.58377e-18
9615.96268 3.22023e-18
9617.66027 3.37734e-18
9619.35786 4.01477e-18
9621.05544 4.57538e-18
9622.75303 4.57326e-18
9624.45062 3.88235e-18
9626.14821 2.72177e-18
9627.84580 1.99578e-18
9629.54339 2.46456e-18
9631.24097 3.82828e-18
9632.93856 5.37627e-18
9634.63615 6.48934e-18
9636.33374 6.73455e-18
9638.03133 6.21475e-18
9639.72891 5.36546e-18
9641.42650 4.59362e-18
9643.12409 4.21753e-18
9644.82168 4.17868e-18
9646.51927 4.15434e-18
9648.21685 4.14303e-18
9649.91444 4.37543e-18
9651.61203 5.00557e-18
9653.30962 6.12306e-18
9655.00721 6.99355e-18
9656.70479 6.05552e-18
9658.40238 3.72042e-18
9660.09997 2.74347e-18
9661.79756 4.25381e-18
9663.49515 7.13066e-18
9665.19274 9.97592e-18
9666.89032 1.10493e-17
9668.58791 9.80914e-18
9670.28550 7.93330e-18
9671.98309 6.75538e-18
9673.68068 6.41864e-18
9675.37826 6.66696e-18
9677.07585 6.73171e-18
9678.77344 5.99152e-18
9680.47103 4.40025e-18
9682.16862 2.32850e-18
9683.86620 8.79425e-19
9685.56379 8.91035e-19
9687.26138 1.85746e-18
9688.96901 2.85833e-18
9690.66660 3.17966e-18
9692.36419 2.48011e-18
9694.06178 1.54956e-18
9695.75937 1.48080e-18
9697.45695 2.03969e-18
9699.15454 2.32748e-18
9700.85213 2.09521e-18
9702.54972 1.53561e-18
9704.24731 1.06995e-18
9705.94489 1.26567e-18
9707.64248 2.02812e-18
9709.34007 2.67722e-18
9711.03766 2.89700e-18
9712.73525 2.74082e-18
9714.43283 2.47256e-18
9716.13042 2.61756e-18
9717.82801 3.21616e-18
9719.52560 3.66012e-18
9721.22319 3.58593e-18
9722.92078 2.98693e-18
9724.61836 2.16364e-18
9726.31595 1.93082e-18
9728.01354 2.61174e-18
9729.71113 3.52754e-18
9731.40872 4.09833e-18
9733.10630 4.18991e-18
9734.80389 3.90368e-18
9736.50148 3.75593e-18
9738.19907 4.09371e-18
9739.89666 4.62549e-18
9741.59424 4.91873e-18
9743.29183 4.48672e-18
9744.98942 3.18401e-18
9746.68701 2.12451e-18
9748.38460 2.39724e-18
9750.08219 3.21859e-18
9751.77977 3.25289e-18
9753.47736 2.35599e-18
9755.17495 1.09894e-18
9756.87254 5.47906e-19
9758.57013 1.78962e-18
9760.26771 4.02091e-18
9761.96530 5.20257e-18
9763.66289 4.65532e-18
9765.36048 2.90851e-18
9767.05807 1.11338e-18
9768.75565 9.84736e-19
9770.45324 2.54806e-18
9772.16088 3.92707e-18
9773.85846 4.40177e-18
9775.55605 4.70494e-18
9777.25364 5.26214e-18
9778.95123 6.11499e-18
9780.64882 7.11179e-18
9782.34640 7.77647e-18
9784.04399 7.74144e-18
9785.74158 6.84070e-18
9787.43917 5.27150e-18
9789.13676 3.91128e-18
9790.83434 3.29474e-18
9792.53193 2.96083e-18
9794.22952 2.44453e-18
9795.92711 1.68687e-18
9797.62470 8.52869e-19
9799.32228 6.13409e-19
9801.01987 1.38538e-18
9802.71746 2.23664e-18
9804.41505 2.19258e-18
9806.11264 1.84527e-18
9807.81023 2.16275e-18
9809.50781 3.06372e-18
9811.20540 3.95474e-18
9812.90299 4.14082e-18
9814.60058 3.07765e-18
9816.29817 1.49451e-18
9817.99575 8.49321e-19
9819.69334 1.28083e-18
9821.39093 1.91075e-18
9823.08852 2.45828e-18
9824.78611 3.11491e-18
9826.48369 3.64586e-18
9828.18128 3.48416e-18
9829.87887 2.82965e-18
9831.57646 2.71872e-18
9833.27405 3.54723e-18
9834.97163 4.87395e-18
9836.66922 6.09392e-18
9838.36681 6.37536e-18
9840.06440 5.51324e-18
9841.76199 4.40794e-18
9843.45958 3.73063e-18
9845.15716 3.49139e-18
9846.85475 3.55726e-18
9848.55234 3.64569e-18
9850.24993 3.55534e-18
9851.94752 3.44636e-18
9853.65515 3.42669e-18
9855.34269 3.17741e-18
9857.05033 2.49430e-18
9858.74791 1.88635e-18
9860.44550 1.83847e-18
9862.14309 1.84245e-18
9863.84068 1.33852e-18
9865.53827 1.22821e-18
9867.23585 2.60728e-18
9868.93344 4.33061e-18
9870.63103 4.54219e-18
9872.32862 4.26002e-18
9874.02621 5.82058e-18
9875.72379 8.48553e-18
9877.42138 9.53720e-18
9879.11897 7.77191e-18
9880.81656 3.36741e-18
9882.51415 -1.59014e-18
9884.21173 -3.27431e-18
9885.90932 -1.23951e-18
9887.60691 1.16731e-18
9889.30450 2.03436e-18
9891.00209 1.25488e-18
9892.69968 -3.00041e-19
9894.39726 -2.14821e-19
9896.09485 2.14354e-18
9897.79244 4.34056e-18
9899.49003 4.67210e-18
9901.18762 3.04944e-18
9902.88520 2.05782e-19
9904.58279 -1.72662e-18
9906.28038 -1.48459e-18
9907.97797 -3.50427e-19
9909.67556 3.76203e-19
9911.37314 6.93301e-19
9913.07073 8.96399e-19
9914.76832 1.31218e-18
9916.46591 2.16052e-18
9918.16350 3.22060e-18
9919.86108 4.10744e-18
9921.55867 4.47189e-18
9923.25626 4.12349e-18
9924.95385 3.32620e-18
9926.65144 2.56834e-18
9928.34903 2.28158e-18
9930.04661 2.70700e-18
9931.74420 3.23795e-18
9933.44179 2.83050e-18
9935.14942 1.76004e-18
9936.83697 1.27123e-18
9938.54460 1.55141e-18
9940.23214 1.87468e-18
9941.93978 1.84899e-18
9943.63736 1.37318e-18
9945.33495 6.97983e-19
9947.03254 5.61652e-19
9948.73013 8.76348e-19
9950.42772 3.80301e-19
9952.12530 -1.14007e-18
9953.82289 -2.26325e-18
9955.52048 -2.12361e-18
9957.21807 -9.59214e-19
9958.91566 8.62640e-19
9960.61324 2.91709e-18
9962.31083 4.84790e-18
9964.00842 6.67919e-18
9965.70601 8.22438e-18
9967.40360 8.53956e-18
9969.10118 7.09138e-18
9970.79877 4.61306e-18
9972.49636 2.19665e-18
9974.19395 9.47140e-19
9975.89154 1.49164e-18
9977.58913 3.05521e-18
9979.28671 4.38807e-18
9980.98430 4.87599e-18
9982.68189 4.34619e-18
9984.37948 2.93678e-18
9986.07707 1.09888e-18
9987.77465 -4.91546e-19
9989.47224 -1.14783e-18
9991.16983 -5.62986e-19
9992.86742 1.13599e-18
9994.56501 2.82065e-18
9996.26259 2.68922e-18
9997.96018 1.21432e-18
9999.65777 1.03235e-18
