# wavelength flux
3799.99774 2.15275e-18
3801.52609 2.51228e-18
3803.04425 2.87177e-18
3804.56241 1.97133e-18
3806.09076 1.07100e-18
3807.60892 1.07039e-18
3809.12708 1.06978e-18
3810.65543 1.50325e-18
3812.17359 1.93667e-18
3813.69175 1.60594e-18
3815.22010 1.27525e-18
3816.73827 1.64788e-18
3818.26662 2.02048e-18
3819.78478 1.34635e-18
3821.30294 6.72292e-19
3822.83129 4.60835e-19
3824.34945 2.49404e-19
3825.86761 5.60701e-19
3827.39596 8.71963e-19
3828.91412 9.94305e-19
3830.43228 1.11663e-18
3831.96063 2.11626e-18
3833.47879 3.11578e-18
3834.99695 7.13540e-19
3836.52530 -1.68843e-18
3838.04346 -1.35423e-18
3839.56163 -1.02005e-18
3841.08998 -6.85938e-19
3842.60814 -3.51865e-19
3844.13649 -1.78046e-20
3845.65465 3.16217e-19
3847.17281 6.04204e-19
3848.70116 8.92157e-19
3850.21932 8.48486e-19
3851.73748 8.04818e-19
3853.26583 1.38001e-18
3854.78399 1.95515e-18
3856.30215 1.21361e-18
3857.83050 4.72139e-19
3859.34866 -4.03104e-19
3860.87701 -1.27825e-18
3862.39517 -5.07490e-19
3863.91334 2.63193e-19
3865.44169 1.11166e-18
3866.95985 1.96003e-18
3868.47801 1.79297e-18
3870.00636 1.62591e-18
3871.52452 9.69832e-19
3873.04268 3.13822e-19
3874.57103 4.16903e-19
3876.08919 5.19980e-19
3877.60735 4.47137e-19
3879.13570 3.74301e-19
3880.65386 7.31726e-19
3882.18221 1.08911e-18
3883.70037 9.21982e-19
3885.21853 7.54863e-19
3886.74688 5.87748e-19
3888.26505 4.20653e-19
3889.78321 2.53575e-19
3891.31156 8.65161e-20
3892.82972 -8.05113e-20
3894.34788 -2.47520e-19
3895.87623 -4.14525e-19
3897.39439 -5.81510e-19
3898.91255 4.58751e-20
3900.44090 6.73202e-19
3901.95906 5.14811e-19
3903.47722 3.56427e-19
3905.00557 9.56296e-19
3906.52373 1.55611e-18
3908.05208 1.09200e-18
3909.57024 6.27926e-19
3911.08841 5.03882e-19
3912.61676 3.79857e-19
3914.13492 3.60280e-19
3915.65308 3.40707e-19
3917.18143 6.13920e-20
3918.69959 -2.17896e-19
3920.21775 5.86118e-19
3921.74610 1.39006e-18
3923.26426 1.57471e-18
3924.78242 1.75932e-18
3926.31077 7.09531e-19
3927.82893 -3.40169e-19
3929.35728 -5.42764e-19
3930.87544 -7.45324e-19
3932.39360 -8.93622e-19
3933.92195 -1.04190e-18
3935.44012 8.66463e-20
3936.95828 1.21510e-18
3938.48663 9.49391e-19
3940.00479 6.83688e-19
3941.52295 7.85934e-19
3943.05130 8.88176e-19
3944.56946 7.31945e-19
3946.09781 5.75727e-19
3947.61597 3.93338e-19
3949.13413 2.10968e-19
3950.66248 7.14908e-19
3952.18064 1.21881e-18
3953.69880 1.76649e-18
3955.22715 2.31411e-18
3956.74531 2.54231e-18
3958.26348 2.77049e-18
3959.79183 2.54388e-18
3961.30999 2.31729e-18
3962.82815 1.98468e-18
3964.35650 1.65209e-18
3965.87466 1.86382e-18
3967.39282 2.07553e-18
3968.92117 2.34612e-18
3970.43933 2.61668e-18
3971.96768 2.90569e-18
3973.48584 3.19467e-18
3975.00400 3.44617e-18
3976.53235 3.69765e-18
3978.05051 3.87271e-18
3979.56867 4.04774e-18
3981.09702 4.49215e-18
3982.61519 4.93651e-18
3984.13335 4.66362e-18
3985.66170 4.39074e-18
3987.17986 3.30675e-18
3988.69802 2.22286e-18
3990.22637 2.49197e-18
3991.74453 2.76110e-18
3993.27288 3.70861e-18
3994.79104 4.65604e-18
3996.30920 4.61284e-18
3997.83755 4.56963e-18
3999.35571 4.05941e-18
4000.87387 3.54923e-18
4002.40222 3.99282e-18
4003.92038 4.43639e-18
4005.43855 4.64989e-18
4006.96690 4.86337e-18
4008.48506 5.04951e-18
4010.00322 5.23563e-18
4011.53157 5.14962e-18
4013.04973 5.06362e-18
4014.57808 5.11943e-18
4016.09624 5.17524e-18
4017.61440 4.72521e-18
4019.14275 4.27521e-18
4020.66091 4.21998e-18
4022.17907 4.16477e-18
4023.70742 4.41087e-18
4025.22558 4.65696e-18
4026.74374 4.73429e-18
4028.27209 4.81161e-18
4029.79026 4.87393e-18
4031.31861 4.93624e-18
4032.83677 4.64724e-18
4034.35493 4.35826e-18
4035.88328 4.96058e-18
4037.40144 5.56287e-18
4038.91960 5.01924e-18
4040.44795 4.47563e-18
4041.96611 4.54724e-18
4043.48427 4.61886e-18
4045.01262 4.53325e-18
4046.53078 4.44765e-18
4048.04894 4.72186e-18
4049.57729 4.99606e-18
4051.09545 5.38010e-18
4052.62380 5.76410e-18
4054.14197 5.54668e-18
4055.66013 5.32927e-18
4057.18848 5.70915e-18
4058.70664 6.08900e-18
4060.22480 5.72202e-18
4061.75315 5.35505e-18
4063.27131 5.04800e-18
4064.78947 4.74098e-18
4066.31782 5.07171e-18
4067.83598 5.40244e-18
4069.35414 6.10825e-18
4070.88249 6.81400e-18
4072.40065 5.96529e-18
4073.91881 5.11662e-18
4075.44716 5.79301e-18
4076.96533 6.46939e-18
4078.49368 5.94020e-18
4080.01184 5.41102e-18
4081.53000 4.96184e-18
4083.05835 4.51271e-18
4084.57651 5.26445e-18
4086.09467 6.01617e-18
4087.62302 6.39410e-18
4089.14118 6.77198e-18
4090.65934 6.63762e-18
4092.18769 6.50325e-18
4093.70585 6.36375e-18
4095.22401 6.22427e-18
4096.75236 5.67723e-18
4098.27052 5.13023e-18
4099.79887 5.64182e-18
4101.31704 6.15339e-18
4102.83520 6.34993e-18
4104.36355 6.54644e-18
4105.88171 6.14603e-18
4107.39987 5.74565e-18
4108.92822 5.79159e-18
4110.44638 5.83754e-18
4111.96454 6.08713e-18
4113.49289 6.33670e-18
4115.01105 6.65859e-18
4116.52921 6.98046e-18
4118.05756 6.31252e-18
4119.57572 5.64461e-18
4121.10407 5.55226e-18
4122.62223 5.45994e-18
4124.14040 5.07133e-18
4125.66875 4.68274e-18
4127.18691 5.10250e-18
4128.70507 5.52225e-18
4130.23342 5.74500e-18
4131.75158 5.96773e-18
4133.26974 5.39087e-18
4134.79809 4.81404e-18
4136.31625 4.54380e-18
4137.84460 4.27359e-18
4139.36276 4.94987e-18
4140.88092 5.62612e-18
4142.40927 5.33923e-18
4143.92743 5.05232e-18
4145.44560 5.16922e-18
4146.97394 5.28612e-18
4148.49211 5.54514e-18
4150.01027 5.80413e-18
4151.53862 5.90433e-18
4153.05678 6.00450e-18
4154.57494 5.78981e-18
4156.10329 5.57513e-18
4157.62145 5.50064e-18
4159.14980 5.42616e-18
4160.66796 5.22688e-18
4162.18612 5.02761e-18
4163.71447 5.03820e-18
4165.23263 5.04880e-18
4166.75079 4.74137e-18
4168.27914 4.43396e-18
4169.79730 4.72946e-18
4171.31547 5.02496e-18
4172.84382 5.21825e-18
4174.36198 5.41151e-18
4175.88014 5.38462e-18
4177.40849 5.35773e-18
4178.92665 4.91369e-18
4180.45500 4.46968e-18
4181.97316 4.64957e-18
4183.49132 4.82948e-18
4185.01967 5.21514e-18
4186.53783 5.60077e-18
4188.05599 5.20605e-18
4189.58434 4.81134e-18
4191.10250 4.45103e-18
4192.62067 4.09076e-18
4194.14901 4.23025e-18
4195.66718 4.36975e-18
4197.18534 4.64517e-18
4198.71369 4.92057e-18
4200.23185 5.28094e-18
4201.75001 5.64128e-18
4203.27836 5.50233e-18
4204.79652 5.36337e-18
4206.32487 5.61563e-18
4207.84303 5.86789e-18
4209.36119 5.31518e-18
4210.88954 4.76248e-18
4212.40770 4.72817e-18
4213.92586 4.69389e-18
4215.45421 5.16958e-18
4216.97237 5.64525e-18
4218.49054 5.89844e-18
4220.01889 6.15160e-18
4221.53705 5.69917e-18
4223.06540 5.24675e-18
4224.58356 5.34003e-18
4226.10172 5.43332e-18
4227.63007 5.75906e-18
4229.14823 6.08477e-18
4230.66639 6.02456e-18
4232.19474 5.96435e-18
4233.71290 5.40868e-18
4235.23106 4.85305e-18
4236.75941 5.20155e-18
4238.27757 5.55006e-18
4239.79573 5.31710e-18
4241.32408 5.08412e-18
4242.84225 5.62712e-18
4244.37060 6.17011e-18
4245.88876 5.71214e-18
4247.40692 5.25416e-18
4248.93527 5.26120e-18
4250.45343 5.26827e-18
4251.97159 5.17028e-18
4253.49994 5.07229e-18
4255.01810 5.02465e-18
4256.53626 4.97702e-18
4258.06461 4.71185e-18
4259.58277 4.44668e-18
4261.10093 4.34585e-18
4262.62928 4.24504e-18
4264.14744 4.55604e-18
4265.66561 4.86703e-18
4267.19396 4.84970e-18
4268.71212 4.83235e-18
4270.24047 4.75202e-18
4271.75863 4.67169e-18
4273.27679 4.99211e-18
4274.80514 5.31252e-18
4276.32330 5.37425e-18
4277.84146 5.43595e-18
4279.36981 5.44131e-18
4280.88797 5.44667e-18
4282.40613 5.36498e-18
4283.93448 5.28330e-18
4285.45264 4.48565e-18
4286.98099 3.68805e-18
4288.49915 3.70089e-18
4290.01732 3.71377e-18
4291.54567 4.62834e-18
4293.06383 5.54288e-18
4294.58199 5.92613e-18
4296.11034 6.30931e-18
4297.62850 5.58011e-18
4299.14666 4.85091e-18
4300.67501 4.86524e-18
4302.19317 4.87961e-18
4303.71133 5.22723e-18
4305.23968 5.57483e-18
4306.75784 5.76043e-18
4308.28619 5.94599e-18
4309.80435 5.82854e-18
4311.32251 5.71108e-18
4312.85087 5.20444e-18
4314.36903 4.69783e-18
4315.88719 4.57839e-18
4317.41554 4.45898e-18
4318.93370 4.66788e-18
4320.45186 4.87678e-18
4321.98021 4.78977e-18
4323.49837 4.70274e-18
4325.01653 4.57899e-18
4326.54488 4.45525e-18
4328.06304 4.44542e-18
4329.58120 4.43558e-18
4331.10955 5.00543e-18
4332.62771 5.57526e-18
4334.15606 5.27105e-18
4335.67422 4.96681e-18
4337.19239 4.95363e-18
4338.72074 4.94046e-18
4340.23890 4.95860e-18
4341.75706 4.97673e-18
4343.28541 5.06437e-18
4344.80357 5.15200e-18
4346.32173 5.18572e-18
4347.85008 5.21944e-18
4349.36824 5.21757e-18
4350.89659 5.21569e-18
4352.41475 5.11465e-18
4353.93291 5.01362e-18
4355.46126 5.29599e-18
4356.97942 5.57837e-18
4358.49758 5.26145e-18
4360.02593 4.94452e-18
4361.54410 5.33164e-18
4363.06226 5.71876e-18
4364.59061 5.52180e-18
4366.10877 5.32482e-18
4367.62693 4.27712e-18
4369.15528 3.22947e-18
4370.67344 2.54253e-18
4372.19160 1.85570e-18
4373.71995 3.41908e-18
4375.23811 4.98245e-18
4376.76646 4.91138e-18
4378.28462 4.84020e-18
4379.80278 4.92009e-18
4381.33113 4.99998e-18
4382.84929 5.13819e-18
4384.36746 5.27640e-18
4385.89581 5.15876e-18
4387.41397 5.04111e-18
4388.93213 5.29614e-18
4390.46048 5.55117e-18
4391.97864 5.55376e-18
4393.49680 5.55633e-18
4395.02515 5.35437e-18
4396.54331 5.15241e-18
4398.07166 5.17959e-18
4399.58982 5.20679e-18
4401.10798 5.15920e-18
4402.63633 5.11162e-18
4404.15449 4.98391e-18
4405.67265 4.85621e-18
4407.20100 4.54578e-18
4408.71917 4.23538e-18
4410.23733 4.20750e-18
4411.76568 4.17964e-18
4413.28384 4.49658e-18
4414.81219 4.81351e-18
4416.33035 4.68076e-18
4417.84851 4.54798e-18
4419.37686 4.48459e-18
4420.89502 4.42121e-18
4422.41318 4.19047e-18
4423.94153 3.95975e-18
4425.45969 4.13252e-18
4426.97785 4.30530e-18
4428.50620 4.37646e-18
4430.02437 4.44761e-18
4431.54253 4.95682e-18
4433.07088 5.46600e-18
4434.58904 5.42437e-18
4436.10720 5.38271e-18
4437.63555 5.33872e-18
4439.15371 5.29473e-18
4440.68206 4.81382e-18
4442.20022 4.33294e-18
4443.71838 3.79646e-18
4445.24673 3.26004e-18
4446.76489 3.51657e-18
4448.28305 3.77314e-18
4449.81140 3.70957e-18
4451.32956 3.64599e-18
4452.84772 3.22313e-18
4454.37607 2.80029e-18
4455.89424 3.14569e-18
4457.41240 3.49112e-18
4458.94075 3.71567e-18
4460.45891 3.94019e-18
4461.98726 4.01252e-18
4463.50542 4.08483e-18
4465.02358 4.05199e-18
4466.55193 4.01913e-18
4468.07009 3.94681e-18
4469.58825 3.87448e-18
4471.11660 3.85675e-18
4472.63476 3.83902e-18
4474.15292 3.82150e-18
4475.68127 3.80399e-18
4477.19943 3.98319e-18
4478.72778 4.16238e-18
4480.24595 4.15535e-18
4481.76411 4.14830e-18
4483.29246 4.23649e-18
4484.81062 4.32467e-18
4486.32878 4.80883e-18
4487.85713 5.29297e-18
4489.37529 5.13880e-18
4490.89345 4.98459e-18
4492.42180 5.12063e-18
4493.93996 5.25667e-18
4495.45812 5.11277e-18
4496.98647 4.96886e-18
4498.50463 4.68664e-18
4500.02279 4.40444e-18
4501.55114 4.47231e-18
4503.06931 4.54020e-18
4504.59766 4.96253e-18
4506.11582 5.38483e-18
4507.63398 5.40952e-18
4509.16233 5.43417e-18
4510.68049 5.50450e-18
4512.19865 5.57482e-18
4513.72700 5.76082e-18
4515.24516 5.94682e-18
4516.76332 5.86318e-18
4518.29167 5.77953e-18
4519.80983 5.51010e-18
4521.32799 5.24068e-18
4522.85634 5.46550e-18
4524.37450 5.69035e-18
4525.90285 5.17683e-18
4527.42102 4.66330e-18
4528.93918 5.02317e-18
4530.46753 5.38308e-18
4531.98569 5.64557e-18
4533.50385 5.90801e-18
4535.03220 6.19747e-18
4536.55036 6.48689e-18
4538.06852 6.29795e-18
4539.59687 6.10899e-18
4541.11503 6.10548e-18
4542.63319 6.10199e-18
4544.16154 6.28711e-18
4545.67970 6.47223e-18
4547.20805 6.12369e-18
4548.72621 5.77515e-18
4550.24438 5.71642e-18
4551.77273 5.65772e-18
4553.29089 5.76359e-18
4554.80905 5.86945e-18
4556.33740 5.97530e-18
4557.85556 6.08114e-18
4559.37372 6.18696e-18
4560.90207 6.29277e-18
4562.42023 6.06983e-18
4563.93839 5.84688e-18
4565.46674 5.55116e-18
4566.98490 5.25548e-18
4568.51325 5.53919e-18
4570.03141 5.82292e-18
4571.54958 5.86656e-18
4573.07792 5.91018e-18
4574.59609 5.80963e-18
4576.11425 5.70907e-18
4577.64260 5.81296e-18
4579.16076 5.91685e-18
4580.67892 5.68862e-18
4582.20727 5.46038e-18
4583.72543 5.83633e-18
4585.25378 6.21229e-18
4586.77194 5.58985e-18
4588.29010 4.96738e-18
4589.81845 5.02091e-18
4591.33661 5.07449e-18
4592.85477 5.42458e-18
4594.38312 5.77466e-18
4595.90128 6.20127e-18
4597.41945 6.62784e-18
4598.94780 6.54475e-18
4600.46596 6.46161e-18
4601.98412 6.35662e-18
4603.51247 6.25164e-18
4605.03063 6.46807e-18
4606.54879 6.68451e-18
4608.07714 6.66761e-18
4609.59530 6.65069e-18
4611.12365 6.59886e-18
4612.64181 6.54703e-18
4614.15997 7.43465e-18
4615.68832 8.32226e-18
4617.20648 8.41968e-18
4618.72465 8.51701e-18
4620.25299 7.52885e-18
4621.77116 6.54071e-18
4623.28932 6.81563e-18
4624.81767 7.09065e-18
4626.33583 7.33999e-18
4627.86418 7.58930e-18
4629.38234 7.19208e-18
4630.90050 6.79484e-18
4632.42885 7.14822e-18
4633.94701 7.50163e-18
4635.46517 7.81341e-18
4636.99352 8.12515e-18
4638.51168 8.23265e-18
4640.02984 8.34011e-18
4641.55819 8.22905e-18
4643.07635 8.11798e-18
4644.59452 8.27311e-18
4646.12287 8.42824e-18
4647.64103 8.34161e-18
4649.16938 8.25497e-18
4650.68754 8.71977e-18
4652.20570 9.18457e-18
4653.73405 8.88588e-18
4655.25221 8.58714e-18
4656.77037 8.64951e-18
4658.29872 8.71191e-18
4659.81688 8.75396e-18
4661.33504 8.79601e-18
4662.86339 8.51711e-18
4664.38155 8.23821e-18
4665.89971 8.04409e-18
4667.42807 7.85000e-18
4668.94623 7.85053e-18
4670.46439 7.85107e-18
4671.99274 7.87395e-18
4673.51090 7.89682e-18
4675.03925 8.01784e-18
4676.55741 8.13885e-18
4678.07557 7.96366e-18
4679.60392 7.78847e-18
4681.12208 7.96185e-18
4682.64024 8.13524e-18
4684.16859 8.60760e-18
4685.68675 9.07994e-18
4687.20491 8.74908e-18
4688.73326 8.41817e-18
4690.25142 8.27125e-18
4691.77977 8.12438e-18
4693.29794 8.33869e-18
4694.81610 8.55301e-18
4696.34445 7.94467e-18
4697.86261 7.33631e-18
4699.38077 7.48036e-18
4700.90912 7.62448e-18
4702.42728 7.36116e-18
4703.94544 7.09784e-18
4705.47379 7.52541e-18
4706.99195 7.95300e-18
4708.51011 7.74875e-18
4710.03846 7.54446e-18
4711.55662 7.94318e-18
4713.07478 8.34192e-18
4714.60313 8.37784e-18
4716.12130 8.41372e-18
4717.64965 8.42426e-18
4719.16781 8.43480e-18
4720.68597 8.55397e-18
4722.21432 8.67315e-18
4723.73248 8.86267e-18
4725.25064 9.05218e-18
4726.77899 8.93475e-18
4728.29715 8.81730e-18
4729.81531 8.65304e-18
4731.34366 8.48879e-18
4732.86182 8.55273e-18
4734.37998 8.61669e-18
4735.90833 8.73112e-18
4737.42649 8.84554e-18
4738.95485 8.98376e-18
4740.47301 9.12196e-18
4741.99117 9.12732e-18
4743.51952 9.13265e-18
4745.03768 8.88067e-18
4746.55584 8.62868e-18
4748.08419 8.47056e-18
4749.60235 8.31247e-18
4751.12051 8.62655e-18
4752.64886 8.94065e-18
4754.16702 9.30509e-18
4755.69537 9.66949e-18
4757.21353 9.47338e-18
4758.73169 9.27722e-18
4760.26004 9.46617e-18
4761.77820 9.65514e-18
4763.29637 9.72311e-18
4764.82472 9.79105e-18
4766.34288 9.79378e-18
4767.86104 9.79650e-18
4769.38939 9.58609e-18
4770.90755 9.37568e-18
4772.42571 9.08030e-18
4773.95406 8.78495e-18
4775.47222 8.85312e-18
4776.99038 8.92133e-18
4778.51873 8.93158e-18
4780.03689 8.94183e-18
4781.56524 9.02116e-18
4783.08340 9.10049e-18
4784.60156 9.09879e-18
4786.12991 9.09707e-18
4787.64808 9.12680e-18
4789.16624 9.15652e-18
4790.69459 8.96315e-18
4792.21275 8.76977e-18
4793.73091 8.73201e-18
4795.25926 8.69427e-18
4796.77742 9.15805e-18
4798.29558 9.62183e-18
4799.82393 9.47866e-18
4801.34209 9.33543e-18
4802.87044 9.14534e-18
4804.38860 8.95527e-18
4805.90676 9.16435e-18
4807.43511 9.37345e-18
4808.95327 9.09646e-18
4810.47144 8.81944e-18
4811.99979 8.71074e-18
4813.51795 8.60208e-18
4815.03611 8.96756e-18
4816.56446 9.33305e-18
4818.08262 9.38958e-18
4819.61097 9.44606e-18
4821.12913 9.37688e-18
4822.64729 9.30768e-18
4824.17564 9.13100e-18
4825.69380 8.95433e-18
4827.21196 8.87622e-18
4828.74031 8.79813e-18
4830.25847 8.77035e-18
4831.77663 8.74259e-18
4833.30498 8.95456e-18
4834.82315 9.16655e-18
4836.34131 9.24965e-18
4837.86966 9.33273e-18
4839.38782 9.00555e-18
4840.90598 8.67836e-18
4842.43433 8.28611e-18
4843.95249 7.89391e-18
4845.48084 7.82412e-18
4846.99900 7.75437e-18
4848.51716 7.92164e-18
4850.04551 8.08892e-18
4851.56367 7.94200e-18
4853.08183 7.79504e-18
4854.61018 7.89158e-18
4856.12835 7.98814e-18
4857.64651 8.12024e-18
4859.17486 8.25232e-18
4860.69302 8.16879e-18
4862.21118 8.08524e-18
4863.73953 8.18291e-18
4865.25769 8.28060e-18
4866.78604 7.98751e-18
4868.30420 7.69441e-18
4869.82236 7.64887e-18
4871.35071 7.60336e-18
4872.86887 7.74360e-18
4874.38703 7.88386e-18
4875.91538 7.58350e-18
4877.43354 7.28313e-18
4878.95170 7.43759e-18
4880.48005 7.59209e-18
4881.99822 7.55299e-18
4883.52657 7.51388e-18
4885.04473 7.49301e-18
4886.56289 7.47215e-18
4888.09124 7.22452e-18
4889.60940 6.97688e-18
4891.12756 6.81006e-18
4892.65591 6.64326e-18
4894.17407 6.95080e-18
4895.69223 7.25837e-18
4897.22058 6.81337e-18
4898.73874 6.36833e-18
4900.25690 6.36708e-18
4901.78525 6.36588e-18
4903.30342 6.60365e-18
4904.82158 6.84142e-18
4906.34993 6.63072e-18
4907.86809 6.41998e-18
4909.39644 6.23231e-18
4910.91460 6.04466e-18
4912.43276 5.98223e-18
4913.96111 5.91982e-18
4915.47927 5.94610e-18
4916.99743 5.97238e-18
4918.52578 5.94527e-18
4920.04394 5.91814e-18
4921.56210 5.89922e-18
4923.09045 5.88031e-18
4924.60861 5.86077e-18
4926.12677 5.84123e-18
4927.65512 5.82227e-18
4929.17329 5.80332e-18
4930.70164 5.77421e-18
4932.21980 5.74510e-18
4933.73796 5.79873e-18
4935.26631 5.85236e-18
4936.78447 5.61473e-18
4938.30263 5.37710e-18
4939.83098 5.28659e-18
4941.34914 5.19611e-18
4942.86730 5.11453e-18
4944.39565 5.03295e-18
4945.91381 4.98847e-18
4947.43197 4.94400e-18
4948.96032 4.89730e-18
4950.47848 4.85060e-18
4952.00683 4.72660e-18
4953.52500 4.60259e-18
4955.04316 4.55055e-18
4956.57151 4.49853e-18
4958.08967 4.64187e-18
4959.60783 4.78522e-18
4961.13618 4.85790e-18
4962.65434 4.93055e-18
4964.17250 4.84409e-18
4965.70085 4.75761e-18
4967.21901 4.46837e-18
4968.73717 4.17914e-18
4970.26552 4.66427e-18
4971.78368 5.14944e-18
4973.31203 5.16920e-18
4974.83019 5.18890e-18
4976.34836 4.97262e-18
4977.87671 4.75634e-18
4979.39487 4.62323e-18
4980.91303 4.49014e-18
4982.44138 4.33177e-18
4983.95954 4.17342e-18
4985.47770 4.46653e-18
4987.00605 4.75967e-18
4988.52421 4.66708e-18
4990.04237 4.57446e-18
4991.57072 4.43285e-18
4993.08888 4.29125e-18
4994.61723 4.70473e-18
4996.13539 5.11823e-18
4997.65355 5.30179e-18
4999.18190 5.48529e-18
5000.70007 5.30701e-18
5002.21823 5.12869e-18
5003.74658 5.06630e-18
5005.26474 5.00393e-18
5006.78290 5.12945e-18
5008.31125 5.25498e-18
5009.82941 5.19061e-18
5011.35776 5.12623e-18
5012.87592 5.48798e-18
5014.39408 5.84975e-18
5015.92243 6.36570e-18
5017.44059 6.88160e-18
5018.95875 6.83875e-18
5020.48710 6.79583e-18
5022.00526 6.88000e-18
5023.52343 6.96418e-18
5025.05178 7.01790e-18
5026.56994 7.07160e-18
5028.08810 7.23218e-18
5029.61645 7.39277e-18
5031.13461 7.36563e-18
5032.66296 7.33848e-18
5034.18112 7.28384e-18
5035.69928 7.22921e-18
5037.22763 7.42317e-18
5038.74579 7.61715e-18
5040.26395 7.62996e-18
5041.79230 7.64274e-18
5043.31046 7.81940e-18
5044.82862 7.99608e-18
5046.35697 8.23847e-18
5047.87514 8.48084e-18
5049.39330 8.70832e-18
5050.92165 8.93576e-18
5052.43981 8.93870e-18
5053.96816 8.94161e-18
5055.48632 9.16181e-18
5057.00448 9.38202e-18
5058.53283 1.01756e-17
5060.05099 1.09692e-17
5061.56915 1.09993e-17
5063.09750 1.10292e-17
5064.61566 1.08710e-17
5066.13382 1.07127e-17
5067.66217 1.11375e-17
5069.18033 1.15623e-17
5070.69850 1.20233e-17
5072.22685 1.24843e-17
5073.74501 1.29374e-17
5075.26317 1.33905e-17
5076.79152 1.33808e-17
5078.30968 1.33711e-17
5079.83803 1.33274e-17
5081.35619 1.32837e-17
5082.87435 1.36968e-17
5084.40270 1.41100e-17
5085.92086 1.44313e-17
5087.43902 1.47526e-17
5088.96737 1.49690e-17
5090.48553 1.51854e-17
5092.00369 1.50055e-17
5093.53204 1.48257e-17
5095.05021 1.46256e-17
5096.57856 1.44255e-17
5098.09672 1.47799e-17
5099.61488 1.51343e-17
5101.14323 1.52340e-17
5102.66139 1.53336e-17
5104.17955 1.55684e-17
5105.70790 1.58032e-17
5107.22606 1.55609e-17
5108.74422 1.53187e-17
5110.27257 1.52785e-17
5111.79073 1.52383e-17
5113.30889 1.54218e-17
5114.83724 1.56053e-17
5116.35540 1.56563e-17
5117.87357 1.57072e-17
5119.40192 1.52768e-17
5120.92008 1.48463e-17
5122.44843 1.48053e-17
5123.96659 1.47643e-17
5125.48475 1.47390e-17
5127.01310 1.47138e-17
5128.53126 1.43693e-17
5130.04942 1.40248e-17
5131.57777 1.40932e-17
5133.09593 1.41615e-17
5134.61409 1.38711e-17
5136.14244 1.35807e-17
5137.66060 1.34938e-17
5139.17876 1.34069e-17
5140.70712 1.31765e-17
5142.22528 1.29462e-17
5143.75363 1.25049e-17
5145.27179 1.20636e-17
5146.78995 1.21155e-17
5148.31830 1.21676e-17
5149.83646 1.22664e-17
5151.35462 1.23653e-17
5152.88297 1.20605e-17
5154.40113 1.17558e-17
5155.91929 1.15152e-17
5157.44764 1.12747e-17
5158.96580 1.12815e-17
5160.49415 1.12884e-17
5162.01231 1.08516e-17
5163.53047 1.04149e-17
5165.05882 1.00602e-17
5166.57699 9.70559e-18
5168.09515 9.78199e-18
5169.62350 9.85845e-18
5171.14166 9.41264e-18
5172.65982 8.96679e-18
5174.18817 8.87409e-18
5175.70633 8.78147e-18
5177.22449 8.64846e-18
5178.75284 8.51546e-18
5180.27100 8.16902e-18
5181.78916 7.82259e-18
5183.31751 8.36316e-18
5184.83567 8.90383e-18
5186.36402 8.73399e-18
5187.88218 8.56404e-18
5189.40035 8.23208e-18
5190.92870 7.90012e-18
5192.44686 7.90404e-18
5193.96502 7.90802e-18
5195.49337 8.30391e-18
5197.01153 8.69982e-18
5198.52969 8.56840e-18
5200.05804 8.43691e-18
5201.57620 8.36886e-18
5203.09436 8.30083e-18
5204.62271 8.41273e-18
5206.14087 8.52465e-18
5207.66922 8.24761e-18
5209.18738 7.97053e-18
5210.70554 8.63521e-18
5212.23389 9.29998e-18
5213.75206 9.50463e-18
5215.27022 9.70917e-18
5216.79857 9.97290e-18
5218.31673 1.02366e-17
5219.83489 9.94605e-18
5221.36324 9.65541e-18
5222.88140 9.73094e-18
5224.40975 9.80652e-18
5225.92791 1.01464e-17
5227.44607 1.04863e-17
5228.97442 1.00814e-17
5230.49258 9.67631e-18
5232.01074 9.56394e-18
5233.53909 9.45164e-18
5235.05725 9.79081e-18
5236.57542 1.01300e-17
5238.10377 1.01589e-17
5239.62193 1.01878e-17
5241.14009 9.78199e-18
5242.66844 9.37613e-18
5244.18660 9.76799e-18
5245.70476 1.01599e-17
5247.23311 1.02949e-17
5248.75127 1.04298e-17
5250.27962 1.04291e-17
5251.79778 1.04285e-17
5253.31594 1.02051e-17
5254.84429 9.98164e-18
5256.36245 1.00499e-17
5257.88062 1.01182e-17
5259.40896 1.00095e-17
5260.92713 9.90077e-18
5262.44529 1.00101e-17
5263.97364 1.01196e-17
5265.49180 1.02377e-17
5267.00996 1.03558e-17
5268.53831 1.04039e-17
5270.05647 1.04520e-17
5271.58482 1.01845e-17
5273.10298 9.91699e-18
5274.62114 9.83612e-18
5276.14949 9.75530e-18
5277.66765 9.93611e-18
5279.18581 1.01169e-17
5280.71416 1.00770e-17
5282.23232 1.00371e-17
5283.75049 1.00537e-17
5285.27884 1.00704e-17
5286.79700 9.92643e-18
5288.32535 9.78243e-18
5289.84351 9.67652e-18
5291.36167 9.57063e-18
5292.89002 9.75360e-18
5294.40818 9.93660e-18
5295.92634 1.02151e-17
5297.45469 1.04936e-17
5298.97285 1.05378e-17
5300.49101 1.05820e-17
5302.01936 1.01983e-17
5303.53752 9.81470e-18
5305.05568 9.65686e-18
5306.58403 9.49908e-18
5308.10220 9.46473e-18
5309.62036 9.43040e-18
5311.14871 9.53205e-18
5312.66687 9.63372e-18
5314.19522 9.78039e-18
5315.71338 9.92704e-18
5317.23154 9.60557e-18
5318.75989 9.28404e-18
5320.27805 9.29831e-18
5321.79621 9.31265e-18
5323.32456 9.38652e-18
5324.84272 9.46041e-18
5326.36088 9.45401e-18
5327.88923 9.44760e-18
5329.40740 9.54461e-18
5330.92556 9.64163e-18
5332.45391 9.46346e-18
5333.97207 9.28525e-18
5335.50042 9.45318e-18
5337.01858 9.62116e-18
5338.53674 9.76722e-18
5340.06509 9.91326e-18
5341.58325 9.93946e-18
5343.10141 9.96564e-18
5344.62976 9.72843e-18
5346.14792 9.49119e-18
5347.66608 9.15733e-18
5349.19443 8.82350e-18
5350.71259 9.02602e-18
5352.23075 9.22863e-18
5353.75910 9.59579e-18
5355.27727 9.96295e-18
5356.80562 1.00311e-17
5358.32378 1.00991e-17
5359.84194 9.97480e-18
5361.37029 9.85049e-18
5362.88845 9.70857e-18
5364.40661 9.56667e-18
5365.93496 9.82485e-18
5367.45312 1.00831e-17
5368.97128 1.03809e-17
5370.49963 1.06787e-17
5372.01779 1.05541e-17
5373.53595 1.04294e-17
5375.06430 1.02875e-17
5376.58246 1.01455e-17
5378.11082 1.01756e-17
5379.62898 1.02057e-17
5381.14714 1.02197e-17
5382.67549 1.02337e-17
5384.19365 1.04508e-17
5385.71181 1.06680e-17
5387.24016 1.08588e-17
5388.75832 1.10496e-17
5390.27648 1.08899e-17
5391.80483 1.07301e-17
5393.32299 1.06466e-17
5394.84115 1.05631e-17
5396.36950 1.09397e-17
5397.88766 1.13164e-17
5399.41601 1.10446e-17
5400.93417 1.07728e-17
5402.45234 1.10094e-17
5403.98069 1.12460e-17
5405.49885 1.14143e-17
5407.01701 1.15825e-17
5408.54536 1.16079e-17
5410.06352 1.16332e-17
5411.58168 1.15862e-17
5413.11003 1.15391e-17
5414.62819 1.17182e-17
5416.14635 1.18973e-17
5417.67470 1.19412e-17
5419.19286 1.19851e-17
5420.72121 1.16309e-17
5422.23937 1.12766e-17
5423.75753 1.13699e-17
5425.28588 1.14631e-17
5426.80405 1.16541e-17
5428.32221 1.18451e-17
5429.85056 1.16761e-17
5431.36872 1.15072e-17
5432.88688 1.14499e-17
5434.41523 1.13927e-17
5435.93339 1.17848e-17
5437.46174 1.21770e-17
5438.97990 1.19222e-17
5440.49806 1.16672e-17
5442.02641 1.18651e-17
5443.54457 1.20631e-17
5445.06273 1.22883e-17
5446.59108 1.25135e-17
5448.10924 1.19071e-17
5449.62741 1.13007e-17
5451.15576 1.12776e-17
5452.67392 1.12546e-17
5454.19208 1.14739e-17
5455.72043 1.16932e-17
5457.23859 1.15668e-17
5458.76694 1.14404e-17
5460.28510 1.12360e-17
5461.80326 1.10316e-17
5463.33161 1.13549e-17
5464.84977 1.16782e-17
5466.36793 1.17318e-17
5467.89628 1.17854e-17
5469.41444 1.19508e-17
5470.93260 1.21161e-17
5472.46095 1.23771e-17
5473.97912 1.26381e-17
5475.49728 1.21144e-17
5477.02563 1.15906e-17
5478.54379 1.15029e-17
5480.07214 1.14153e-17
5481.59030 1.17774e-17
5483.10846 1.21396e-17
5484.63681 1.25065e-17
5486.15497 1.28733e-17
5487.67313 1.29552e-17
5489.20148 1.30370e-17
5490.71964 1.26395e-17
5492.23780 1.22420e-17
5493.76615 1.23476e-17
5495.28431 1.24533e-17
5496.80248 1.27802e-17
5498.33083 1.31070e-17
5499.84899 1.32628e-17
5501.37734 1.34185e-17
5502.89550 1.36018e-17
5504.41366 1.37852e-17
5505.94201 1.30769e-17
5507.46017 1.23686e-17
5508.97833 1.23718e-17
5510.50668 1.23751e-17
5512.02484 1.27118e-17
5513.54300 1.30485e-17
5515.07135 1.31122e-17
5516.58951 1.31758e-17
5518.10767 1.26990e-17
5519.63602 1.22220e-17
5521.15419 1.24522e-17
5522.67235 1.26825e-17
5524.20070 1.25084e-17
5525.71886 1.23343e-17
5527.24721 1.21836e-17
5528.76537 1.20330e-17
5530.28353 1.19760e-17
5531.81188 1.19190e-17
5533.33004 1.17263e-17
5534.84820 1.15336e-17
5536.37655 1.16628e-17
5537.89471 1.17921e-17
5539.41287 1.17041e-17
5540.94122 1.16162e-17
5542.45938 1.14828e-17
5543.98773 1.13495e-17
5545.50590 1.12162e-17
5547.02406 1.10829e-17
5548.55241 1.09497e-17
5550.07057 1.08164e-17
5551.58873 1.08202e-17
5553.11708 1.08240e-17
5554.63524 1.08812e-17
5556.15340 1.09383e-17
5557.68175 1.09314e-17
5559.19991 1.09246e-17
5560.71807 1.08003e-17
5562.24642 1.06760e-17
5563.76458 1.11473e-17
5565.29293 1.16188e-17
5566.81110 1.18100e-17
5568.32926 1.20011e-17
5569.85761 1.20405e-17
5571.37577 1.20799e-17
5572.89393 1.16086e-17
5574.42228 1.11372e-17
5575.94044 1.17435e-17
5577.45860 1.23501e-17
5578.98695 1.26452e-17
5580.50511 1.29403e-17
5582.02327 1.25532e-17
5583.55162 1.21659e-17
5585.06978 1.22795e-17
5586.58794 1.23931e-17
5588.11629 1.18230e-17
5589.63445 1.12527e-17
5591.16280 1.13307e-17
5592.68097 1.14088e-17
5594.19913 1.26012e-17
5595.72748 1.37937e-17
5597.24564 1.44932e-17
5598.76380 1.51926e-17
5600.29215 1.51926e-17
5601.81031 1.51926e-17
5603.32847 1.49191e-17
5604.85682 1.46456e-17
5606.37498 1.47594e-17
5607.90333 1.48733e-17
5609.42149 1.50466e-17
5610.93965 1.52199e-17
5612.46800 1.57108e-17
5613.98617 1.62016e-17
5615.50433 1.65180e-17
5617.03268 1.68343e-17
5618.55084 1.64668e-17
5620.06900 1.60992e-17
5621.59735 1.57773e-17
5623.11551 1.54554e-17
5624.63367 1.56096e-17
5626.16202 1.57640e-17
5627.68018 1.59184e-17
5629.20853 1.60727e-17
5630.72669 1.62270e-17
5632.24485 1.63813e-17
5633.77320 1.63295e-17
5635.29136 1.62777e-17
5636.80952 1.62840e-17
5638.33787 1.62903e-17
5639.85604 1.63167e-17
5641.37420 1.63430e-17
5642.90255 1.61072e-17
5644.42071 1.58713e-17
5645.93887 1.57988e-17
5647.46722 1.57264e-17
5648.98538 1.56523e-17
5650.50354 1.55782e-17
5652.03189 1.56998e-17
5653.55005 1.58214e-17
5655.07840 1.57827e-17
5656.59656 1.57439e-17
5658.11472 1.50962e-17
5659.64307 1.44484e-17
5661.16123 1.46312e-17
5662.67940 1.48142e-17
5664.20775 1.47088e-17
5665.72591 1.46034e-17
5667.24407 1.44980e-17
5668.77242 1.43925e-17
5670.29058 1.42871e-17
5671.80874 1.41817e-17
5673.33709 1.40763e-17
5674.85525 1.39709e-17
5676.38360 1.40710e-17
5677.90176 1.41711e-17
5679.41992 1.36459e-17
5680.94827 1.31206e-17
5682.46643 1.31107e-17
5683.98459 1.31009e-17
5685.51294 1.32184e-17
5687.03111 1.33358e-17
5688.54927 1.29215e-17
5690.07762 1.25072e-17
5691.59578 1.23862e-17
5693.12413 1.22653e-17
5694.64229 1.23949e-17
5696.16045 1.25246e-17
5697.68880 1.24228e-17
5699.20696 1.23209e-17
5700.72512 1.23136e-17
5702.25347 1.23064e-17
5703.77163 1.24449e-17
5705.28979 1.25835e-17
5706.81814 1.23892e-17
5708.33630 1.21949e-17
5709.85447 1.21168e-17
5711.38282 1.20387e-17
5712.90098 1.23093e-17
5714.41914 1.25800e-17
5715.94749 1.26472e-17
5717.46565 1.27144e-17
5718.99400 1.27794e-17
5720.51216 1.28443e-17
5722.03032 1.31625e-17
5723.55867 1.34807e-17
5725.07683 1.33443e-17
5726.59499 1.32079e-17
5728.12334 1.33486e-17
5729.64150 1.34895e-17
5731.15967 1.37537e-17
5732.68801 1.40180e-17
5734.20618 1.40671e-17
5735.72434 1.41162e-17
5737.25269 1.42622e-17
5738.77085 1.44082e-17
5740.29920 1.44833e-17
5741.81736 1.45583e-17
5743.33552 1.48473e-17
5744.86387 1.51362e-17
5746.38203 1.48941e-17
5747.90019 1.46519e-17
5749.42854 1.48496e-17
5750.94670 1.50474e-17
5752.46486 1.47120e-17
5753.99321 1.43766e-17
5755.51137 1.43894e-17
5757.02954 1.44023e-17
5758.55789 1.41037e-17
5760.07605 1.38051e-17
5761.60440 1.38142e-17
5763.12256 1.38235e-17
5764.64072 1.37585e-17
5766.16907 1.36936e-17
5767.68723 1.35083e-17
5769.20539 1.33230e-17
5770.73374 1.29583e-17
5772.25190 1.25936e-17
5773.77006 1.21684e-17
5775.29841 1.17431e-17
5776.81657 1.14178e-17
5778.33473 1.10925e-17
5779.86308 1.10768e-17
5781.38125 1.10612e-17
5782.90960 1.04847e-17
5784.42776 9.90808e-18
5785.94592 9.43071e-18
5787.47427 8.95341e-18
5788.99243 9.11875e-18
5790.51059 9.28423e-18
5792.03894 9.29312e-18
5793.55710 9.30198e-18
5795.07526 8.89759e-18
5796.60361 8.49313e-18
5798.12177 8.26510e-18
5799.63993 8.03713e-18
5801.16828 7.94437e-18
5802.68644 7.85165e-18
5804.21479 7.67672e-18
5805.73296 7.50179e-18
5807.25112 7.24311e-18
5808.77947 6.98444e-18
5810.29763 6.65101e-18
5811.81579 6.31759e-18
5813.34414 6.52170e-18
5814.86230 6.72593e-18
5816.38046 6.42027e-18
5817.90881 6.11451e-18
5819.42697 5.95374e-18
5820.94513 5.79302e-18
5822.47348 6.06644e-18
5823.99164 6.33994e-18
5825.51999 5.98634e-18
5827.03815 5.63262e-18
5828.55632 6.07761e-18
5830.08467 6.52276e-18
5831.60283 6.19074e-18
5833.12099 5.85856e-18
5834.64934 5.92165e-18
5836.16750 5.98483e-18
5837.68566 5.76210e-18
5839.21401 5.53932e-18
5840.73217 5.75984e-18
5842.25033 5.98045e-18
5843.77868 5.83923e-18
5845.29684 5.69793e-18
5846.82519 5.58107e-18
5848.34335 5.46423e-18
5849.86151 5.41348e-18
5851.38987 5.36274e-18
5852.90803 5.66513e-18
5854.42619 5.96759e-18
5855.95454 5.89849e-18
5857.47270 5.82930e-18
5858.99086 6.15160e-18
5860.51921 6.47398e-18
5862.03737 6.81885e-18
5863.56572 7.16371e-18
5865.08388 7.14764e-18
5866.60204 7.13149e-18
5868.13039 7.01927e-18
5869.64855 6.90704e-18
5871.16671 6.88790e-18
5872.69506 6.86878e-18
5874.21322 6.99753e-18
5875.73139 7.12631e-18
5877.25974 7.55454e-18
5878.77790 7.98282e-18
5880.29606 8.45179e-18
5881.82441 8.92074e-18
5883.34257 8.98310e-18
5884.87092 9.04537e-18
5886.38908 9.20424e-18
5887.90724 9.36313e-18
5889.43559 9.58545e-18
5890.95375 9.80776e-18
5892.47191 9.97165e-18
5894.00026 1.01355e-17
5895.51842 1.05214e-17
5897.03658 1.09073e-17
5898.56493 1.11238e-17
5900.08310 1.13402e-17
5901.60126 1.17882e-17
5903.12961 1.22362e-17
5904.64777 1.25843e-17
5906.17612 1.29324e-17
5907.69428 1.31326e-17
5909.21244 1.33328e-17
5910.74079 1.34450e-17
5912.25895 1.35572e-17
5913.77711 1.37314e-17
5915.30546 1.39056e-17
5916.82362 1.45479e-17
5918.34178 1.51902e-17
5919.87013 1.56630e-17
5921.38829 1.61357e-17
5922.90646 1.66635e-17
5924.43481 1.71912e-17
5925.95297 1.72889e-17
5927.47113 1.73865e-17
5928.99948 1.77499e-17
5930.51764 1.81133e-17
5932.04599 1.79598e-17
5933.56415 1.78062e-17
5935.08231 1.83592e-17
5936.61066 1.89123e-17
5938.12882 1.89097e-17
5939.64698 1.89070e-17
5941.17533 1.89087e-17
5942.69349 1.89104e-17
5944.21165 2.11518e-17
5945.74000 2.33937e-17
5947.25817 2.26209e-17
5948.78652 2.18473e-17
5950.30468 2.09410e-17
5951.82284 2.00346e-17
5953.35119 2.03065e-17
5954.86935 2.05787e-17
5956.38751 2.08463e-17
5957.91586 2.11139e-17
5959.43402 2.10121e-17
5960.95218 2.09102e-17
5962.48053 2.08082e-17
5963.99869 2.07061e-17
5965.51685 2.06968e-17
5967.04520 2.06875e-17
5968.56336 2.05076e-17
5970.09171 2.03277e-17
5971.60988 2.03469e-17
5973.12804 2.03662e-17
5974.65639 2.05748e-17
5976.17455 2.07834e-17
5977.69271 2.06415e-17
5979.22106 2.04995e-17
5980.73922 2.04662e-17
5982.25738 2.04328e-17
5983.78573 2.08588e-17
5985.30389 2.12849e-17
5986.82205 2.09439e-17
5988.35040 2.06028e-17
5989.86856 2.05842e-17
5991.38672 2.05657e-17
5992.91507 2.06181e-17
5994.43324 2.06706e-17
5995.96159 2.00911e-17
5997.47975 1.95115e-17
5998.99791 1.98322e-17
6000.52626 2.01530e-17
6002.04442 1.98241e-17
6003.56258 1.94950e-17
6005.09093 2.00318e-17
6006.60909 2.05688e-17
6008.12725 2.07675e-17
6009.65560 2.09662e-17
6011.17376 2.06291e-17
6012.70211 2.02919e-17
6014.22027 2.00079e-17
6015.73843 1.97238e-17
6017.26678 1.97891e-17
6018.78495 1.98545e-17
6020.30311 1.99068e-17
6021.83146 1.99591e-17
6023.34962 2.01465e-17
6024.86778 2.03340e-17
6026.39613 2.01524e-17
6027.91429 1.99706e-17
6029.43245 1.95199e-17
6030.96080 1.90691e-17
6032.47896 1.92197e-17
6034.00731 1.93705e-17
6035.52547 1.92909e-17
6037.04363 1.92112e-17
6038.57198 1.87606e-17
6040.09015 1.83100e-17
6041.60831 1.82474e-17
6043.13666 1.81850e-17
6044.65482 1.81448e-17
6046.17298 1.81045e-17
6047.70133 1.82717e-17
6049.21949 1.84389e-17
6050.73765 1.87226e-17
6052.26600 1.90063e-17
6053.78416 1.88358e-17
6055.30232 1.86651e-17
6056.83067 1.84745e-17
6058.34883 1.82839e-17
6059.87718 1.81250e-17
6061.39534 1.79662e-17
6062.91350 1.77361e-17
6064.44185 1.75060e-17
6065.96002 1.75058e-17
6067.47818 1.75056e-17
6069.00653 1.77305e-17
6070.52469 1.79553e-17
6072.04285 1.78283e-17
6073.57120 1.77011e-17
6075.08936 1.78087e-17
6076.61771 1.79164e-17
6078.13587 1.78956e-17
6079.65403 1.78748e-17
6081.18238 1.76487e-17
6082.70054 1.74225e-17
6084.21870 1.72352e-17
6085.74705 1.70478e-17
6087.26521 1.68444e-17
6088.78338 1.66409e-17
6090.31173 1.68081e-17
6091.82989 1.69754e-17
6093.34805 1.72109e-17
6094.87640 1.74465e-17
6096.39456 1.73925e-17
6097.92291 1.73384e-17
6099.44107 1.70360e-17
6100.95923 1.67336e-17
6102.48758 1.65281e-17
6104.00574 1.63227e-17
6105.52390 1.61413e-17
6107.05225 1.59600e-17
6108.57041 1.57795e-17
6110.08857 1.55990e-17
6111.61692 1.55120e-17
6113.13509 1.54251e-17
6114.65325 1.56259e-17
6116.18160 1.58268e-17
6117.69976 1.53180e-17
6119.21792 1.48091e-17
6120.74627 1.43590e-17
6122.26443 1.39090e-17
6123.79278 1.42728e-17
6125.31094 1.46369e-17
6126.82910 1.46769e-17
6128.35745 1.47168e-17
6129.87561 1.47156e-17
6131.39377 1.47144e-17
6132.92212 1.49300e-17
6134.44028 1.51457e-17
6135.95845 1.48768e-17
6137.48680 1.46079e-17
6139.00496 1.41971e-17
6140.52312 1.37863e-17
6142.05147 1.34345e-17
6143.56963 1.30828e-17
6145.09798 1.32375e-17
6146.61614 1.33924e-17
6148.13430 1.35472e-17
6149.66265 1.37020e-17
6151.18081 1.38567e-17
6152.69897 1.40115e-17
6154.22732 1.37816e-17
6155.74548 1.35515e-17
6157.26364 1.35876e-17
6158.79199 1.36238e-17
6160.31016 1.34185e-17
6161.82832 1.32131e-17
6163.35667 1.27391e-17
6164.87483 1.22650e-17
6166.40318 1.22172e-17
6167.92134 1.21695e-17
6169.43950 1.21074e-17
6170.96785 1.20453e-17
6172.48601 1.19974e-17
6174.00417 1.19495e-17
6175.53252 1.16878e-17
6177.05068 1.14259e-17
6178.56884 1.15083e-17
6180.09719 1.15907e-17
6181.61535 1.20115e-17
6183.13352 1.24325e-17
6184.66187 1.23284e-17
6186.18003 1.22241e-17
6187.70838 1.20701e-17
6189.22654 1.19161e-17
6190.74470 1.22168e-17
6192.27305 1.25175e-17
6193.79121 1.23796e-17
6195.30937 1.22415e-17
6196.83772 1.20119e-17
6198.35588 1.17823e-17
6199.87404 1.20269e-17
6201.40239 1.22716e-17
6202.92055 1.23292e-17
6204.43872 1.23867e-17
6205.96706 1.21649e-17
6207.48523 1.19430e-17
6209.01358 1.19665e-17
6210.53174 1.19901e-17
6212.04990 1.24801e-17
6213.57825 1.29701e-17
6215.09641 1.32848e-17
6216.61457 1.35994e-17
6218.14292 1.35540e-17
6219.66108 1.35085e-17
6221.17924 1.36609e-17
6222.70759 1.38135e-17
6224.22575 1.40071e-17
6225.74391 1.42006e-17
6227.27226 1.43482e-17
6228.79042 1.44958e-17
6230.31877 1.40815e-17
6231.83694 1.36671e-17
6233.35510 1.33672e-17
6234.88345 1.30673e-17
6236.40161 1.33520e-17
6237.91977 1.36369e-17
6239.44812 1.36939e-17
6240.96628 1.37509e-17
6242.48444 1.37399e-17
6244.01279 1.37289e-17
6245.53095 1.39149e-17
6247.04911 1.41009e-17
6248.57746 1.40609e-17
6250.09562 1.40208e-17
6251.62397 1.37337e-17
6253.14213 1.34465e-17
6254.66030 1.31054e-17
6256.18865 1.27643e-17
6257.70681 1.29638e-17
6259.22497 1.31634e-17
6260.75332 1.28856e-17
6262.27148 1.26077e-17
6263.78964 1.25443e-17
6265.31799 1.24808e-17
6266.83615 1.26554e-17
6268.35431 1.28299e-17
6269.88266 1.27115e-17
6271.40082 1.25930e-17
6272.92917 1.23661e-17
6274.44733 1.21392e-17
6275.96549 1.16899e-17
6277.49384 1.12406e-17
6279.01201 1.14484e-17
6280.53017 1.16565e-17
6282.05852 1.21259e-17
6283.57668 1.25954e-17
6285.09484 1.23267e-17
6286.62319 1.20577e-17
6288.14135 1.17187e-17
6289.66970 1.13797e-17
6291.18786 1.10212e-17
6292.70602 1.06627e-17
6294.23437 1.06884e-17
6295.75253 1.07141e-17
6297.27069 1.09007e-17
6298.79904 1.10874e-17
6300.31720 1.12068e-17
6301.83537 1.13261e-17
6303.36372 1.12442e-17
6304.88188 1.11623e-17
6306.40004 1.14016e-17
6307.92839 1.16409e-17
6309.44655 1.20929e-17
6310.97490 1.25448e-17
6312.49306 1.23621e-17
6314.01122 1.21793e-17
6315.53957 1.22996e-17
6317.05773 1.24200e-17
6318.57589 1.28246e-17
6320.10424 1.32292e-17
6321.62240 1.29412e-17
6323.14056 1.26530e-17
6324.66892 1.29360e-17
6326.18708 1.32191e-17
6327.70524 1.33023e-17
6329.23359 1.33853e-17
6330.75175 1.33939e-17
6332.26991 1.34024e-17
6333.79826 1.36457e-17
6335.31642 1.38891e-17
6336.84477 1.37181e-17
6338.36293 1.35470e-17
6339.88109 1.37261e-17
6341.40944 1.39054e-17
6342.92760 1.40777e-17
6344.44576 1.42500e-17
6345.97411 1.40381e-17
6347.49227 1.38262e-17
6349.01044 1.38009e-17
6350.53879 1.37756e-17
6352.05695 1.35993e-17
6353.58530 1.34229e-17
6355.10346 1.35067e-17
6356.62162 1.35905e-17
6358.14997 1.33134e-17
6359.66813 1.30362e-17
6361.18629 1.31732e-17
6362.71464 1.33104e-17
6364.23280 1.31179e-17
6365.75096 1.29252e-17
6367.27931 1.28297e-17
6368.79747 1.27342e-17
6370.31563 1.27231e-17
6371.84398 1.27119e-17
6373.36215 1.29870e-17
6374.89050 1.32622e-17
6376.40866 1.29819e-17
6377.92682 1.27014e-17
6379.45517 1.23324e-17
6380.97333 1.19634e-17
6382.49149 1.17705e-17
6384.01984 1.15776e-17
6385.53800 1.18817e-17
6387.05616 1.21860e-17
6388.58451 1.19939e-17
6390.10267 1.18017e-17
6391.62083 1.16266e-17
6393.14918 1.14516e-17
6394.66734 1.14797e-17
6396.18551 1.15078e-17
6397.71386 1.15251e-17
6399.23202 1.15424e-17
6400.76037 1.16924e-17
6402.27853 1.18425e-17
6403.79669 1.15997e-17
6405.32504 1.13569e-17
6406.84320 1.10704e-17
6408.36136 1.07840e-17
6409.88971 1.07915e-17
6411.40787 1.07991e-17
6412.92603 1.09014e-17
6414.45438 1.10037e-17
6415.97254 1.13143e-17
6417.50089 1.16250e-17
6419.01905 1.18186e-17
6420.53722 1.20121e-17
6422.06557 1.21175e-17
6423.58373 1.22230e-17
6425.10189 1.20802e-17
6426.63024 1.19373e-17
6428.14840 1.18200e-17
6429.66656 1.17026e-17
6431.19491 1.16055e-17
6432.71307 1.15083e-17
6434.23123 1.14733e-17
6435.75958 1.14384e-17
6437.27774 1.17768e-17
6438.80609 1.21154e-17
6440.32425 1.17973e-17
6441.84242 1.14790e-17
6443.37076 1.17406e-17
6444.88893 1.20023e-17
6446.40709 1.17267e-17
6447.93544 1.14509e-17
6449.45360 1.16233e-17
6450.97176 1.17958e-17
6452.50011 1.18209e-17
6454.01827 1.18459e-17
6455.53643 1.21255e-17
6457.06478 1.24051e-17
6458.58294 1.21953e-17
6460.10110 1.19854e-17
6461.62945 1.18330e-17
6463.14761 1.16807e-17
6464.67596 1.14549e-17
6466.19412 1.12291e-17
6467.71229 1.10521e-17
6469.24064 1.08752e-17
6470.75880 1.04556e-17
6472.27696 1.00358e-17
6473.80531 1.00624e-17
6475.32347 1.00890e-17
6476.84163 1.07588e-17
6478.36998 1.14287e-17
6479.88814 1.13922e-17
6481.41649 1.13555e-17
6482.93465 1.10743e-17
6484.45281 1.07931e-17
6485.98116 1.08434e-17
6487.49932 1.08939e-17
6489.01748 1.11646e-17
6490.54583 1.14355e-17
6492.06400 1.14310e-17
6493.58216 1.14265e-17
6495.11051 1.10750e-17
6496.62867 1.07234e-17
6498.14683 1.09392e-17
6499.67518 1.11551e-17
6501.19334 1.11273e-17
6502.71150 1.10995e-17
6504.23985 1.11051e-17
6505.75801 1.11107e-17
6507.28636 1.11793e-17
6508.80452 1.12479e-17
6510.32268 1.10009e-17
6511.85103 1.07538e-17
6513.36919 1.10817e-17
6514.88736 1.14098e-17
6516.41571 1.16394e-17
6517.93387 1.18689e-17
6519.45203 1.14387e-17
6520.98038 1.10084e-17
6522.49854 1.12348e-17
6524.01670 1.14614e-17
6525.54505 1.14361e-17
6527.06321 1.14108e-17
6528.59156 1.15473e-17
6530.10972 1.16839e-17
6531.62788 1.17789e-17
6533.15623 1.18739e-17
6534.67439 1.18192e-17
6536.19255 1.17645e-17
6537.72090 1.17342e-17
6539.23907 1.17039e-17
6540.75723 1.16041e-17
6542.28558 1.15042e-17
6543.80374 1.17683e-17
6545.33209 1.20325e-17
6546.85025 1.20182e-17
6548.36841 1.20039e-17
6549.89676 1.15701e-17
6551.41492 1.11363e-17
6552.93308 1.12942e-17
6554.46143 1.14523e-17
6555.97959 1.15357e-17
6557.49775 1.16190e-17
6559.02610 1.14548e-17
6560.54426 1.12906e-17
6562.06243 1.12878e-17
6563.59078 1.12850e-17
6565.10894 1.16419e-17
6566.62710 1.19989e-17
6568.15545 1.20175e-17
6569.67361 1.20360e-17
6571.20196 1.18532e-17
6572.72012 1.16704e-17
6574.23828 1.18785e-17
6575.76663 1.20867e-17
6577.28479 1.23533e-17
6578.80295 1.26199e-17
6580.33130 1.25671e-17
6581.84946 1.25142e-17
6583.36762 1.21563e-17
6584.89597 1.17982e-17
6586.41414 1.19588e-17
6587.93230 1.21196e-17
6589.46065 1.22334e-17
6590.97881 1.23472e-17
6592.50716 1.22075e-17
6594.02532 1.20676e-17
6595.54348 1.18074e-17
6597.07183 1.15472e-17
6598.58999 1.14269e-17
6600.10815 1.13066e-17
6601.63650 1.12368e-17
6603.15466 1.11670e-17
6604.67282 1.08974e-17
6606.20117 1.06279e-17
6607.71933 1.04562e-17
6609.24768 1.02846e-17
6610.76585 1.03001e-17
6612.28401 1.03156e-17
6613.81236 1.02541e-17
6615.33052 1.01925e-17
6616.84868 9.98245e-18
6618.37703 9.77234e-18
6619.89519 9.63664e-18
6621.41335 9.50097e-18
6622.94170 9.57833e-18
6624.45986 9.65576e-18
6625.97802 9.44652e-18
6627.50637 9.23719e-18
6629.02453 8.74087e-18
6630.54270 8.24448e-18
6632.07104 8.35813e-18
6633.58921 8.47199e-18
6635.11756 8.43035e-18
6636.63572 8.38866e-18
6638.15388 8.04350e-18
6639.68223 7.69827e-18
6641.20039 7.59634e-18
6642.71855 7.49451e-18
6644.24690 7.71119e-18
6645.76506 7.92798e-18
6647.28322 7.74800e-18
6648.81157 7.56791e-18
6650.32973 7.66785e-18
6651.84789 7.76788e-18
6653.37624 7.73529e-18
6654.89440 7.70266e-18
6656.42275 7.55782e-18
6657.94092 7.41294e-18
6659.45908 7.59685e-18
6660.98743 7.78087e-18
6662.50559 7.83501e-18
6664.02375 7.88911e-18
6665.55210 7.94009e-18
6667.07026 7.99106e-18
6668.58842 8.04696e-18
6670.11677 8.10285e-18
6671.63493 8.13630e-18
6673.16328 8.16974e-18
6674.68144 8.58417e-18
6676.19960 8.99872e-18
6677.72795 9.24530e-18
6679.24611 9.49180e-18
6680.76428 9.72754e-18
6682.29263 9.96327e-18
6683.81079 1.04702e-17
6685.32895 1.09772e-17
6686.85730 1.12601e-17
6688.37546 1.15429e-17
6689.89362 1.19585e-17
6691.42197 1.23741e-17
6692.94013 1.26582e-17
6694.45829 1.29422e-17
6695.98664 1.31168e-17
6697.50480 1.32913e-17
6699.03315 1.33132e-17
6700.55131 1.33350e-17
6702.06947 1.36368e-17
6703.59782 1.39387e-17
6705.11599 1.40111e-17
6706.63415 1.40834e-17
6708.16250 1.42821e-17
6709.68066 1.44808e-17
6711.19882 1.45179e-17
6712.72717 1.45548e-17
6714.24533 1.48621e-17
6715.77368 1.51694e-17
6717.29184 1.52696e-17
6718.81000 1.53698e-17
6720.33835 1.55589e-17
6721.85651 1.57480e-17
6723.37467 1.62414e-17
6724.90302 1.67349e-17
6726.42118 1.68600e-17
6727.93935 1.69850e-17
6729.46770 1.66605e-17
6730.98586 1.63360e-17
6732.50402 1.63345e-17
6734.03237 1.63332e-17
6735.55053 1.68578e-17
6737.06869 1.73826e-17
6738.59704 1.75589e-17
6740.11520 1.77351e-17
6741.64355 1.75243e-17
6743.16171 1.73135e-17
6744.67987 1.74543e-17
6746.20822 1.75952e-17
6747.72638 1.80604e-17
6749.24454 1.85256e-17
6750.77290 1.86336e-17
6752.29106 1.87414e-17
6753.80922 1.82478e-17
6755.33757 1.77540e-17
6756.85573 1.77492e-17
6758.38408 1.77446e-17
6759.90224 1.80094e-17
6761.42040 1.82743e-17
6762.94875 1.83233e-17
6764.46691 1.83721e-17
6765.98507 1.84776e-17
6767.51342 1.85831e-17
6769.03158 1.85203e-17
6770.54974 1.84574e-17
6772.07809 1.82140e-17
6773.59625 1.79706e-17
6775.11442 1.82734e-17
6776.64277 1.85765e-17
6778.16093 1.88715e-17
6779.68928 1.91664e-17
6781.20744 1.88673e-17
6782.72560 1.85680e-17
6784.25395 1.86583e-17
6785.77211 1.87487e-17
6787.29027 1.89789e-17
6788.81862 1.92091e-17
6790.33678 1.79982e-17
6791.85494 1.67869e-17
6793.38329 1.61235e-17
6794.90145 1.54603e-17
6796.41961 1.63912e-17
6797.94796 1.73226e-17
6799.46613 1.72314e-17
6800.98429 1.71397e-17
6802.51264 1.70434e-17
6804.03080 1.69470e-17
6805.55915 1.75253e-17
6807.07731 1.81039e-17
6808.59547 1.82712e-17
6810.12382 1.84384e-17
6811.64198 1.84324e-17
6813.16014 1.84263e-17
6814.68849 1.85846e-17
6816.20665 1.87429e-17
6817.72481 1.84636e-17
6819.25316 1.81842e-17
6820.77132 1.83533e-17
6822.29967 1.85226e-17
6823.81784 1.83590e-17
6825.33600 1.81953e-17
6826.86435 1.81623e-17
6828.38251 1.81293e-17
6829.90067 1.80193e-17
6831.42902 1.79094e-17
6832.94718 1.78117e-17
6834.46534 1.77140e-17
6835.99369 1.76160e-17
6837.51185 1.75179e-17
6839.03001 1.73341e-17
6840.55836 1.71503e-17
6842.07652 1.72691e-17
6843.60487 1.73880e-17
6845.12303 1.73398e-17
6846.64120 1.72915e-17
6848.16955 1.72433e-17
6849.68771 1.71951e-17
6851.20587 1.71468e-17
6852.73422 1.70986e-17
6854.25238 1.70503e-17
6855.77054 1.70021e-17
6857.29889 1.69539e-17
6858.81705 1.69056e-17
6860.33521 1.68574e-17
6861.86356 1.68092e-17
6863.38172 1.67610e-17
6864.89988 1.67127e-17
6866.42823 1.66645e-17
6867.94639 1.66163e-17
6869.47474 1.65681e-17
6870.99291 1.65199e-17
6872.51107 1.64717e-17
6874.03942 1.64235e-17
6875.55758 1.63753e-17
6877.07574 1.63271e-17
6878.60409 1.62789e-17
6880.12225 1.62307e-17
6881.64041 1.61825e-17
6883.16876 1.61343e-17
6884.68692 1.60861e-17
6886.21527 1.60379e-17
6887.73343 1.59897e-17
6889.25159 1.59415e-17
6890.77994 1.58934e-17
6892.29810 1.58452e-17
6893.81627 1.57970e-17
6895.34462 1.57488e-17
6896.86278 1.57007e-17
6898.38094 1.56525e-17
6899.90929 1.56043e-17
6901.42745 1.55562e-17
6902.94561 1.55080e-17
6904.47396 1.54599e-17
6905.99212 1.54117e-17
6907.51028 1.53636e-17
6909.03863 1.53154e-17
6910.55679 1.52673e-17
6912.08514 1.52191e-17
6913.60330 1.51710e-17
6915.12147 1.51228e-17
6916.64981 1.50747e-17
6918.16798 1.50266e-17
6919.68614 1.49784e-17
6921.21449 1.49303e-17
6922.73265 1.48822e-17
6924.25081 1.48341e-17
6925.77916 1.47859e-17
6927.29732 1.47378e-17
6928.81548 1.46897e-17
6930.34383 1.46416e-17
6931.86199 1.45935e-17
6933.39034 1.45454e-17
6934.90850 1.44972e-17
6936.42666 1.44491e-17
6937.95501 1.43139e-17
6939.47317 1.43471e-17
6940.99134 1.43804e-17
6942.51969 1.46207e-17
6944.03785 1.48611e-17
6945.55601 1.45138e-17
6947.08436 1.41663e-17
6948.60252 1.37098e-17
6950.13087 1.32534e-17
6951.64903 1.30630e-17
6953.16719 1.28728e-17
6954.69554 1.29599e-17
6956.21370 1.30472e-17
6957.73186 1.34334e-17
6959.26021 1.38197e-17
6960.77837 1.36552e-17
6962.29653 1.34905e-17
6963.82488 1.34574e-17
6965.34305 1.34243e-17
6966.86121 1.35329e-17
6968.38956 1.36415e-17
6969.90772 1.32764e-17
6971.42588 1.29111e-17
6972.95423 1.29330e-17
6974.47239 1.29551e-17
6976.00074 1.30971e-17
6977.51890 1.32392e-17
6979.03706 1.31616e-17
6980.56541 1.30838e-17
6982.08357 1.31020e-17
6983.60173 1.31203e-17
6985.13008 1.24682e-17
6986.64824 1.18158e-17
6988.16641 1.17414e-17
6989.69476 1.16672e-17
6991.21292 1.17295e-17
6992.73108 1.17919e-17
6994.25943 1.17435e-17
6995.77759 1.16950e-17
6997.30594 1.13966e-17
6998.82410 1.10980e-17
7000.34226 1.06701e-17
7001.87061 1.02422e-17
7003.38877 9.77943e-18
7004.90693 9.31669e-18
7006.43528 9.70388e-18
7007.95344 1.00914e-17
7009.47160 9.76668e-18
7010.99995 9.44173e-18
7012.51812 9.20402e-18
7014.04647 8.96635e-18
7015.56463 9.00214e-18
7017.08279 9.03804e-18
7018.61114 9.01497e-18
7020.12930 8.99189e-18
7021.64746 8.60917e-18
7023.17581 8.22632e-18
7024.69397 8.16530e-18
7026.21213 8.10440e-18
7027.74048 8.17225e-18
7029.25864 8.24014e-18
7030.77680 8.04622e-18
7032.30515 7.85222e-18
7033.82331 7.97143e-18
7035.34148 8.09076e-18
7036.86983 7.87735e-18
7038.38799 7.66381e-18
7039.91634 7.53372e-18
7041.43450 7.40368e-18
7042.95266 7.77116e-18
7044.48101 8.13882e-18
7045.99917 8.30613e-18
7047.51733 8.47335e-18
7049.04568 8.29391e-18
7050.56384 8.11435e-18
7052.08200 7.92648e-18
7053.61035 7.73862e-18
7055.12851 8.10857e-18
7056.64667 8.47872e-18
7058.17502 8.84988e-18
7059.69319 9.22103e-18
7061.22154 9.13369e-18
7062.73970 9.04617e-18
7064.25786 9.36451e-18
7065.78621 9.68298e-18
7067.30437 1.00237e-17
7068.82253 1.03644e-17
7070.35088 1.00492e-17
7071.86904 9.73374e-18
7073.38720 1.05240e-17
7074.91555 1.13146e-17
7076.43371 1.17711e-17
7077.96206 1.22274e-17
7079.48022 1.20210e-17
7080.99838 1.18142e-17
7082.52673 1.22099e-17
7084.04490 1.26058e-17
7085.56306 1.27755e-17
7087.09141 1.29451e-17
7088.60957 1.29271e-17
7090.12773 1.29091e-17
7091.65608 1.31058e-17
7093.17424 1.33026e-17
7094.69240 1.33075e-17
7096.22075 1.33124e-17
7097.73891 1.37013e-17
7099.25707 1.40903e-17
7100.78542 1.42325e-17
7102.30358 1.43745e-17
7103.83193 1.44763e-17
7105.35009 1.45781e-17
7106.86826 1.49928e-17
7108.39661 1.54076e-17
7109.91477 1.52543e-17
7111.43293 1.51008e-17
7112.96128 1.55498e-17
7114.47944 1.59989e-17
7115.99760 1.60329e-17
7117.52595 1.60667e-17
7119.04411 1.61766e-17
7120.56227 1.62866e-17
7122.09062 1.63854e-17
7123.60878 1.64842e-17
7125.13713 1.67841e-17
7126.65529 1.70841e-17
7128.17345 1.71856e-17
7129.70180 1.72870e-17
7131.21997 1.70144e-17
7132.73813 1.67416e-17
7134.26648 1.66746e-17
7135.78464 1.66076e-17
7137.30280 1.68072e-17
7138.83115 1.70070e-17
7140.34931 1.72091e-17
7141.86747 1.74112e-17
7143.39582 1.74087e-17
7144.91398 1.74061e-17
7146.44233 1.73152e-17
7147.96049 1.72242e-17
7149.47865 1.73238e-17
7151.00700 1.74235e-17
7152.52517 1.76115e-17
7154.04333 1.77996e-17
7155.57168 1.80102e-17
7157.08984 1.82209e-17
7158.60800 1.80853e-17
7160.13635 1.79496e-17
7161.65451 1.74425e-17
7163.18286 1.69353e-17
7164.70102 1.69548e-17
7166.21918 1.69746e-17
7167.74753 1.70778e-17
7169.26569 1.71810e-17
7170.78385 1.68901e-17
7172.31220 1.65991e-17
7173.83036 1.67482e-17
7175.34852 1.68976e-17
7176.87687 1.69892e-17
7178.39504 1.70809e-17
7179.91320 1.73403e-17
7181.44155 1.75997e-17
7182.95971 1.67411e-17
7184.48806 1.58821e-17
7186.00622 1.60310e-17
7187.52438 1.61804e-17
7189.05273 1.62116e-17
7190.57089 1.62426e-17
7192.08905 1.61952e-17
7193.61740 1.61478e-17
7195.13556 1.63692e-17
7196.65372 1.65907e-17
7198.18207 1.63899e-17
7199.70023 1.61888e-17
7201.21840 1.59254e-17
7202.74675 1.56619e-17
7204.26491 1.57261e-17
7205.78307 1.57905e-17
7207.31142 1.62230e-17
7208.82958 1.66557e-17
7210.35793 1.67196e-17
7211.87609 1.67833e-17
7213.39425 1.64508e-17
7214.92260 1.61183e-17
7216.44076 1.64059e-17
7217.95892 1.66938e-17
7219.48727 1.66090e-17
7221.00543 1.65240e-17
7222.52359 1.63983e-17
7224.05194 1.62727e-17
7225.57011 1.59165e-17
7227.09846 1.55602e-17
7228.61662 1.50466e-17
7230.13478 1.45329e-17
7231.66313 1.42021e-17
7233.18129 1.38713e-17
7234.69945 1.38642e-17
7236.22780 1.38573e-17
7237.74596 1.42090e-17
7239.26412 1.45608e-17
7240.79247 1.42656e-17
7242.31063 1.39701e-17
7243.82879 1.39628e-17
7245.35714 1.39555e-17
7246.87530 1.38541e-17
7248.40365 1.37528e-17
7249.92182 1.34890e-17
7251.43998 1.32251e-17
7252.96833 1.31336e-17
7254.48649 1.30422e-17
7256.00465 1.31230e-17
7257.53300 1.32039e-17
7259.05116 1.31267e-17
7260.56932 1.30493e-17
7262.09767 1.25749e-17
7263.61583 1.21004e-17
7265.13399 1.20539e-17
7266.66234 1.20077e-17
7268.18050 1.22563e-17
7269.69866 1.25051e-17
7271.22701 1.22376e-17
7272.74518 1.19700e-17
7274.27353 1.19096e-17
7275.79169 1.18492e-17
7277.30985 1.19815e-17
7278.83820 1.21138e-17
7280.35636 1.21431e-17
7281.87452 1.21724e-17
7283.40287 1.18700e-17
7284.92103 1.15676e-17
7286.43919 1.15421e-17
7287.96754 1.15168e-17
7289.48570 1.20385e-17
7291.01405 1.25603e-17
7292.53221 1.25769e-17
7294.05037 1.25932e-17
7295.57872 1.24705e-17
7297.09689 1.23478e-17
7298.61505 1.22085e-17
7300.14340 1.20691e-17
7301.66156 1.26423e-17
7303.17972 1.32158e-17
7304.70807 1.28379e-17
7306.22623 1.24597e-17
7307.74439 1.25232e-17
7309.27274 1.25870e-17
7310.79090 1.26495e-17
7312.30906 1.27121e-17
7313.83741 1.25938e-17
7315.35557 1.24754e-17
7316.88392 1.27160e-17
7318.40208 1.29567e-17
7319.92025 1.26801e-17
7321.44860 1.24032e-17
7322.96676 1.25247e-17
7324.48492 1.26464e-17
7326.01327 1.27954e-17
7327.53143 1.29444e-17
7329.04959 1.30102e-17
7330.57794 1.30760e-17
7332.09610 1.30621e-17
7333.61426 1.30482e-17
7335.14261 1.27657e-17
7336.66077 1.24831e-17
7338.18912 1.25744e-17
7339.70728 1.26659e-17
7341.22545 1.24048e-17
7342.75379 1.21435e-17
7344.27196 1.22340e-17
7345.79012 1.23245e-17
7347.31847 1.26318e-17
7348.83663 1.29391e-17
7350.35479 1.30228e-17
7351.88314 1.31064e-17
7353.40130 1.27696e-17
7354.92965 1.24326e-17
7356.44781 1.23955e-17
7357.96597 1.23586e-17
7359.49432 1.24606e-17
7361.01248 1.25627e-17
7362.53064 1.23746e-17
7364.05899 1.21864e-17
7365.57715 1.23408e-17
7367.09532 1.24954e-17
7368.62367 1.24970e-17
7370.14183 1.24985e-17
7371.65999 1.27496e-17
7373.18834 1.30008e-17
7374.70650 1.30963e-17
7376.22466 1.31918e-17
7377.75301 1.28314e-17
7379.27117 1.24708e-17
7380.79952 1.26306e-17
7382.31768 1.27906e-17
7383.83584 1.25112e-17
7385.36419 1.22316e-17
7386.88235 1.23498e-17
7388.40051 1.24681e-17
7389.92886 1.26989e-17
7391.44703 1.29297e-17
7392.96519 1.31163e-17
7394.49354 1.33028e-17
7396.01170 1.32455e-17
7397.52986 1.31882e-17
7399.05821 1.35149e-17
7400.57637 1.38418e-17
7402.10472 1.41736e-17
7403.62288 1.45054e-17
7405.14104 1.42435e-17
7406.66939 1.39813e-17
7408.18755 1.38627e-17
7409.70571 1.37443e-17
7411.23406 1.38804e-17
7412.75222 1.40167e-17
7414.27039 1.40252e-17
7415.79874 1.40335e-17
7417.31690 1.39461e-17
7418.84525 1.38587e-17
7420.36341 1.37854e-17
7421.88157 1.37121e-17
7423.40992 1.37407e-17
7424.92808 1.37694e-17
7426.44624 1.36243e-17
7427.97459 1.34792e-17
7429.49275 1.35534e-17
7431.01091 1.36278e-17
7432.53926 1.39178e-17
7434.05742 1.42079e-17
7435.57558 1.41914e-17
7437.10393 1.41749e-17
7438.62210 1.40170e-17
7440.14026 1.38590e-17
7441.66861 1.37265e-17
7443.18677 1.35940e-17
7444.71512 1.37042e-17
7446.23328 1.38145e-17
7447.75144 1.38406e-17
7449.27979 1.38667e-17
7450.79795 1.39234e-17
7452.31611 1.39801e-17
7453.84446 1.39780e-17
7455.36262 1.39758e-17
7456.88078 1.37027e-17
7458.40913 1.34294e-17
7459.92729 1.34213e-17
7461.44546 1.34132e-17
7462.97381 1.34300e-17
7464.49197 1.34469e-17
7466.02032 1.29765e-17
7467.53848 1.25060e-17
7469.05664 1.27540e-17
7470.58499 1.30023e-17
7472.10315 1.31073e-17
7473.62131 1.32123e-17
7475.14966 1.31269e-17
7476.66782 1.30414e-17
7478.18598 1.28021e-17
7479.71433 1.25627e-17
7481.23249 1.23708e-17
7482.76084 1.21789e-17
7484.27900 1.25915e-17
7485.79717 1.30044e-17
7487.32552 1.28950e-17
7488.84368 1.27855e-17
7490.36184 1.19852e-17
7491.89019 1.11848e-17
7493.40835 1.08885e-17
7494.92651 1.05925e-17
7496.45486 1.09172e-17
7497.97302 1.12421e-17
7499.49118 1.11846e-17
7501.01953 1.11270e-17
7502.53769 1.12395e-17
7504.05585 1.13520e-17
7505.58420 1.14645e-17
7507.10236 1.15770e-17
7508.63071 1.16895e-17
7510.14888 1.18020e-17
7511.66704 1.17086e-17
7513.19539 1.16151e-17
7514.71355 1.14854e-17
7516.23171 1.13557e-17
7517.76006 1.13232e-17
7519.27822 1.12908e-17
7520.79638 1.12208e-17
7522.32473 1.11507e-17
7523.84289 1.11497e-17
7525.36105 1.11488e-17
7526.88940 1.08701e-17
7528.40756 1.05913e-17
7529.93591 1.05165e-17
7531.45407 1.04419e-17
7532.97224 1.09249e-17
7534.50059 1.14083e-17
7536.01875 1.14777e-17
7537.53691 1.15470e-17
7539.06526 1.14739e-17
7540.58342 1.14008e-17
7542.10158 1.11329e-17
7543.62993 1.08648e-17
7545.14809 1.07242e-17
7546.66625 1.05836e-17
7548.19460 1.07219e-17
7549.71276 1.08603e-17
7551.24111 1.08741e-17
7552.75927 1.08878e-17
7554.27743 1.09016e-17
7555.80578 1.09154e-17
7557.32395 1.09291e-17
7558.84211 1.09429e-17
7560.37046 1.09566e-17
7561.88862 1.09704e-17
7563.40678 1.09842e-17
7564.93513 1.09979e-17
7566.45329 1.10117e-17
7567.97145 1.10254e-17
7569.49980 1.10392e-17
7571.01796 1.10530e-17
7572.54631 1.10667e-17
7574.06447 1.10805e-17
7575.58263 1.10942e-17
7577.11098 1.11080e-17
7578.62914 1.11217e-17
7580.14731 1.11355e-17
7581.67566 1.11492e-17
7583.19382 1.11630e-17
7584.71198 1.11767e-17
7586.24033 1.11905e-17
7587.75849 1.12042e-17
7589.28684 1.12180e-17
7590.80500 1.12317e-17
7592.32316 1.12455e-17
7593.85151 1.12592e-17
7595.36967 1.12729e-17
7596.88783 1.12867e-17
7598.41618 1.13004e-17
7599.93434 1.13142e-17
7601.45250 1.13279e-17
7602.98085 1.13416e-17
7604.49902 1.13554e-17
7606.01718 1.13691e-17
7607.54553 1.13828e-17
7609.06369 1.13966e-17
7610.59204 1.14103e-17
7612.11020 1.14240e-17
7613.62836 1.14378e-17
7615.15671 1.14515e-17
7616.67487 1.14652e-17
7618.19303 1.14790e-17
7619.72138 1.14927e-17
7621.23954 1.15064e-17
7622.75770 1.15202e-17
7624.28605 1.15339e-17
7625.80422 1.15476e-17
7627.32238 1.15613e-17
7628.85073 1.15750e-17
7630.36889 1.15888e-17
7631.89724 1.16025e-17
7633.41540 1.16162e-17
7634.93356 1.16299e-17
7636.46191 1.16437e-17
7637.98007 1.16574e-17
7639.49823 1.16711e-17
7641.02658 1.16848e-17
7642.54474 1.16985e-17
7644.06290 1.17122e-17
7645.59125 1.17259e-17
7647.10941 1.17397e-17
7648.62757 1.17534e-17
7650.15592 1.17671e-17
7651.67409 1.17808e-17
7653.20244 1.17945e-17
7654.72060 1.18082e-17
7656.23876 1.18219e-17
7657.76711 1.18356e-17
7659.28527 1.18493e-17
7660.80343 1.18630e-17
7662.33178 1.18767e-17
7663.84994 1.18904e-17
7665.36810 1.19042e-17
7666.89645 1.19179e-17
7668.41461 1.19316e-17
7669.93277 1.19453e-17
7671.46112 1.19590e-17
7672.97928 1.19727e-17
7674.50763 1.19864e-17
7676.02580 1.20000e-17
7677.54396 1.20137e-17
7679.07231 1.20274e-17
7680.59047 1.20411e-17
7682.10863 1.18230e-17
7683.63698 1.16047e-17
7685.15514 1.16773e-17
7686.67330 1.17500e-17
7688.20165 1.19621e-17
7689.71981 1.21742e-17
7691.23797 1.18145e-17
7692.76632 1.14544e-17
7694.28448 1.14934e-17
7695.81283 1.15326e-17
7697.33099 1.17185e-17
7698.84916 1.19045e-17
7700.37751 1.19147e-17
7701.89567 1.19247e-17
7703.41383 1.20183e-17
7704.94218 1.21119e-17
7706.46034 1.21602e-17
7707.97850 1.22084e-17
7709.50685 1.18463e-17
7711.02501 1.14840e-17
7712.54317 1.06128e-17
7714.07152 9.74139e-18
7715.58968 9.64111e-18
7717.10784 9.54121e-18
7718.63619 1.02975e-17
7720.15435 1.10541e-17
7721.68270 1.08418e-17
7723.20087 1.06290e-17
7724.71903 1.02867e-17
7726.24738 9.94437e-18
7727.76554 9.96143e-18
7729.28370 9.97866e-18
7730.81205 1.01484e-17
7732.33021 1.03181e-17
7733.84837 1.03761e-17
7735.37672 1.04341e-17
7736.89488 1.03778e-17
7738.42323 1.03215e-17
7739.94139 1.01940e-17
7741.45955 1.00665e-17
7742.98790 9.94425e-18
7744.50606 9.82203e-18
7746.02423 9.77659e-18
7747.55258 9.73118e-18
7749.07074 9.40059e-18
7750.58890 9.06989e-18
7752.11725 8.92909e-18
7753.63541 8.78839e-18
7755.15357 9.33277e-18
7756.68192 9.87745e-18
7758.20008 9.81124e-18
7759.72843 9.74475e-18
7761.24659 9.29765e-18
7762.76475 8.85039e-18
7764.29310 9.13271e-18
7765.81126 9.41537e-18
7767.32942 9.49490e-18
7768.85777 9.57433e-18
7770.37594 9.31951e-18
7771.89410 9.06455e-18
7773.42245 8.83794e-18
7774.94061 8.61137e-18
7776.45877 8.22138e-18
7777.98712 7.83133e-18
7779.50528 7.64630e-18
7781.02344 7.46138e-18
7782.55179 7.78105e-18
7784.06995 8.10095e-18
7785.59830 8.23316e-18
7787.11646 8.36528e-18
7788.63462 8.80078e-18
7790.16297 9.23640e-18
7791.68113 8.93374e-18
7793.19930 8.63075e-18
7794.72765 8.86472e-18
7796.24581 9.09893e-18
7797.76397 8.74948e-18
7799.29232 8.39978e-18
7800.81048 8.29525e-18
7802.32864 8.19085e-18
7803.85699 8.40670e-18
7805.37515 8.62269e-18
7806.90350 8.96506e-18
7808.42166 9.30748e-18
7809.93982 9.28516e-18
7811.46817 9.26267e-18
7812.98633 8.94001e-18
7814.50449 8.61723e-18
7816.03284 9.20926e-18
7817.55101 9.80171e-18
7819.06917 9.28592e-18
7820.59752 8.76961e-18
7822.11568 9.21702e-18
7823.64403 9.66486e-18
7825.16219 1.00461e-17
7826.68035 1.04273e-17
7828.20870 1.01383e-17
7829.72686 9.84896e-18
7831.24502 9.82826e-18
7832.77337 9.80770e-18
7834.29153 9.94756e-18
7835.80969 1.00875e-17
7837.33804 1.02401e-17
7838.85620 1.03926e-17
7840.37437 9.80919e-18
7841.90272 9.22545e-18
7843.42088 9.13156e-18
7844.93904 9.03793e-18
7846.46739 9.62838e-18
7847.98555 1.02191e-17
7849.51390 1.02261e-17
7851.03206 1.02328e-17
7852.55022 1.04703e-17
7854.07857 1.07078e-17
7855.59673 1.07642e-17
7857.11489 1.08204e-17
7858.64324 1.07613e-17
7860.16140 1.07020e-17
7861.67956 1.11139e-17
7863.20791 1.15261e-17
7864.72608 1.13767e-17
7866.24424 1.12270e-17
7867.77259 1.11194e-17
7869.29075 1.10119e-17
7870.81910 1.10052e-17
7872.33726 1.09987e-17
7873.85542 1.11135e-17
7875.38377 1.12283e-17
7876.90193 1.19870e-17
7878.42009 1.27459e-17
7879.94844 1.22035e-17
7881.46660 1.16604e-17
7882.98476 1.10136e-17
7884.51311 1.03667e-17
7886.03127 1.08335e-17
7887.55962 1.13008e-17
7889.07779 1.14603e-17
7890.59595 1.16196e-17
7892.12430 1.16365e-17
7893.64246 1.16534e-17
7895.16062 1.11354e-17
7896.68897 1.06172e-17
7898.20713 1.08192e-17
7899.72529 1.10215e-17
7901.25364 1.10898e-17
7902.77180 1.11580e-17
7904.28996 1.08141e-17
7905.81831 1.04700e-17
7907.33647 1.06744e-17
7908.85463 1.08790e-17
7910.38298 1.09650e-17
7911.90115 1.10508e-17
7913.42950 1.03967e-17
7914.94766 9.74234e-18
7916.46582 1.02346e-17
7917.99417 1.07275e-17
7919.51233 1.10290e-17
7921.03049 1.13303e-17
7922.55884 1.12793e-17
7924.07700 1.12282e-17
7925.59516 1.14168e-17
7927.12351 1.16056e-17
7928.64167 1.14927e-17
7930.15983 1.13797e-17
7931.68818 1.14969e-17
7933.20634 1.16142e-17
7934.73469 1.17071e-17
7936.25286 1.18000e-17
7937.77102 1.15949e-17
7939.29937 1.13897e-17
7940.81753 1.14885e-17
7942.33569 1.15876e-17
7943.86404 1.16969e-17
7945.38220 1.18063e-17
7946.90036 1.13917e-17
7948.42871 1.09768e-17
7949.94687 1.14554e-17
7951.46503 1.19345e-17
7952.99338 1.18410e-17
7954.51154 1.17473e-17
7956.03989 1.10820e-17
7957.55805 1.04164e-17
7959.07622 1.06861e-17
7960.60457 1.09563e-17
7962.12273 1.14691e-17
7963.64089 1.19820e-17
7965.16924 1.17895e-17
7966.68740 1.15966e-17
7968.20556 1.14998e-17
7969.73391 1.14030e-17
7971.25207 1.15242e-17
7972.77023 1.16455e-17
7974.29858 1.17876e-17
7975.81674 1.19298e-17
7977.34509 1.17841e-17
7978.86325 1.16382e-17
7980.38141 1.11490e-17
7981.90976 1.06596e-17
7983.42793 1.06910e-17
7984.94609 1.07226e-17
7986.47444 1.09669e-17
7987.99260 1.12112e-17
7989.51076 1.14003e-17
7991.03911 1.15893e-17
7992.55727 1.15905e-17
7994.07543 1.15916e-17
7995.60378 1.20270e-17
7997.12194 1.24626e-17
7998.65029 1.27003e-17
8000.16845 1.29380e-17
8001.68661 1.25102e-17
8003.21496 1.20821e-17
8004.73312 1.15715e-17
8006.25129 1.10609e-17
8007.77964 1.11837e-17
8009.29780 1.13067e-17
8010.81596 1.14580e-17
8012.34431 1.16093e-17
8013.86247 1.13429e-17
8015.39082 1.10764e-17
8016.90898 1.11893e-17
8018.42714 1.13025e-17
8019.95549 1.16418e-17
8021.47365 1.19813e-17
8022.99181 1.21035e-17
8024.52016 1.22256e-17
8026.03832 1.20435e-17
8027.55648 1.18612e-17
8029.08483 1.19806e-17
8030.60300 1.21001e-17
8032.12116 1.20387e-17
8033.64951 1.19773e-17
8035.16767 1.18490e-17
8036.69602 1.17207e-17
8038.21418 1.18141e-17
8039.73234 1.19077e-17
8041.26069 1.22248e-17
8042.77885 1.25419e-17
8044.29701 1.23610e-17
8045.82536 1.21797e-17
8047.34352 1.19366e-17
8048.86168 1.16934e-17
8050.39003 1.17436e-17
8051.90819 1.17938e-17
8053.42636 1.17813e-17
8054.95471 1.17687e-17
8056.47287 1.15229e-17
8058.00122 1.12770e-17
8059.51938 1.12330e-17
8061.03754 1.11892e-17
8062.56589 1.11143e-17
8064.08405 1.10395e-17
8065.60221 1.11654e-17
8067.13056 1.12915e-17
8068.64872 1.13732e-17
8070.16688 1.14549e-17
8071.69523 1.13197e-17
8073.21339 1.11844e-17
8074.73155 1.11523e-17
8076.25990 1.11203e-17
8077.77807 1.12005e-17
8079.30642 1.12808e-17
8080.82458 1.12073e-17
8082.34274 1.11339e-17
8083.87109 1.12756e-17
8085.38925 1.14174e-17
8086.90741 1.11238e-17
8088.43576 1.08299e-17
8089.95392 1.08449e-17
8091.47208 1.08601e-17
8093.00043 1.10787e-17
8094.51859 1.12975e-17
8096.03675 1.12430e-17
8097.56510 1.11884e-17
8099.08326 1.10361e-17
8100.61161 1.08839e-17
8102.12978 1.03642e-17
8103.64794 9.84438e-18
8105.17629 1.02739e-17
8106.69445 1.07038e-17
8108.21261 1.07793e-17
8109.74096 1.08547e-17
8111.25912 1.07272e-17
8112.77728 1.05996e-17
8114.30563 1.04417e-17
8115.82379 1.02837e-17
8117.34195 1.03186e-17
8118.87030 1.03536e-17
8120.38846 1.03886e-17
8121.90662 1.04236e-17
8123.43497 1.04084e-17
8124.95314 1.03932e-17
8126.48149 1.03929e-17
8127.99965 1.03926e-17
8128.41774 1.03926e-17
8130.41615 1.04622e-17
8132.41456 1.05395e-17
8134.42307 1.05882e-17
8136.42149 1.05925e-17
8138.41990 1.05655e-17
8140.41831 1.05203e-17
8142.41673 1.04969e-17
8144.42523 1.05845e-17
8146.42365 1.06903e-17
8148.42206 1.07678e-17
8150.42048 1.07846e-17
8152.41889 1.07298e-17
8154.42740 1.06092e-17
8156.42581 1.04879e-17
8158.42423 1.04814e-17
8160.42264 1.04846e-17
8162.43115 1.04607e-17
8164.42956 1.03800e-17
8166.42797 1.02064e-17
8168.42639 9.96798e-18
8170.42480 9.75540e-18
8172.43331 9.69512e-18
8174.43172 9.69466e-18
8176.43014 9.73771e-18
8178.42855 9.77591e-18
8180.43706 9.76805e-18
8182.43547 9.70834e-18
8184.43389 9.63418e-18
8186.43230 9.58101e-18
8188.43071 9.55502e-18
8190.43922 9.57673e-18
8192.43764 9.65364e-18
8194.43605 9.81882e-18
8196.43446 1.00273e-17
8198.43288 1.02364e-17
8200.44138 1.03810e-17
8202.43980 1.04634e-17
8204.43821 1.04327e-17
8206.43663 1.03310e-17
8208.44513 1.01484e-17
8210.44355 9.94482e-18
8212.44196 9.75755e-18
8214.44038 9.63613e-18
8216.43879 9.56102e-18
8218.44730 9.53912e-18
8220.44571 9.57229e-18
8222.44412 9.70548e-18
8224.44254 9.84796e-18
8226.44095 9.92717e-18
8228.44946 9.90300e-18
8230.44787 9.81789e-18
8232.44629 9.69374e-18
8234.44470 9.55185e-18
8236.45321 9.42397e-18
8238.45162 9.31126e-18
8240.45004 9.21844e-18
8242.44845 9.14399e-18
8244.44686 9.08134e-18
8246.45537 9.02446e-18
8248.45378 8.97553e-18
8250.45220 8.91655e-18
8252.45061 8.89063e-18
8254.45912 8.96317e-18
8256.45753 9.06445e-18
8258.45595 9.11315e-18
8260.45436 9.04831e-18
8262.45278 8.92647e-18
8264.46128 8.76454e-18
8266.45970 8.61792e-18
8268.45811 8.58216e-18
8270.45653 8.57178e-18
8272.45494 8.47790e-18
8274.46345 8.29674e-18
8276.46186 8.13721e-18
8278.46027 8.11138e-18
8280.45869 8.16175e-18
8282.46720 8.33256e-18
8284.46561 8.49946e-18
8286.46402 8.54951e-18
8288.46244 8.48397e-18
8290.46085 8.40575e-18
8292.46936 8.38703e-18
8294.46777 8.34925e-18
8296.46619 8.21166e-18
8298.46460 8.04753e-18
8300.46301 7.88626e-18
8302.47152 7.75544e-18
8304.46994 7.65947e-18
8306.46835 7.60925e-18
8308.46676 7.58987e-18
8310.47527 7.60840e-18
8312.47368 7.60043e-18
8314.47210 7.49022e-18
8316.47051 7.32386e-18
8318.46893 7.14743e-18
8320.47743 7.00402e-18
8322.47585 6.88592e-18
8324.47426 6.81148e-18
8326.47268 6.75667e-18
8328.47109 6.71437e-18
8330.47960 6.66426e-18
8332.47801 6.56822e-18
8334.47642 6.46010e-18
8336.47484 6.41907e-18
8338.48335 6.50839e-18
8340.48176 6.58731e-18
8342.48017 6.48094e-18
8344.47859 6.31492e-18
8346.47700 6.16307e-18
8348.48551 6.02791e-18
8350.48392 5.84714e-18
8352.48234 5.61960e-18
8354.48075 5.43192e-18
8356.48926 5.43654e-18
8358.48767 5.48347e-18
8360.48609 5.51282e-18
8362.48450 5.48916e-18
8364.48291 5.39385e-18
8366.49142 5.23657e-18
8368.48983 5.07788e-18
8370.48825 4.99734e-18
8372.48666 4.93116e-18
8374.48508 4.84757e-18
8376.49358 4.75264e-18
8378.49200 4.64481e-18
8380.49041 4.54212e-18
8382.48883 4.46514e-18
8384.49733 4.44093e-18
8386.49575 4.44121e-18
8388.49416 4.45353e-18
8390.49257 4.46608e-18
8392.49099 4.47155e-18
8394.49950 4.46051e-18
8396.49791 4.41755e-18
8398.49632 4.35111e-18
8400.49474 4.31778e-18
8402.50324 4.44457e-18
8404.50166 4.59264e-18
8406.50007 4.67578e-18
8408.49849 4.71830e-18
8410.49690 4.78436e-18
8412.50541 4.89152e-18
8414.50382 4.98552e-18
8416.50224 5.00410e-18
8418.50065 5.01587e-18
8420.49906 5.08195e-18
8422.50757 5.15484e-18
8424.50598 5.18295e-18
8426.50440 5.15662e-18
8428.50281 5.11185e-18
8430.51132 5.08138e-18
8432.50973 5.07557e-18
8434.50815 5.14025e-18
8436.50656 5.22810e-18
8438.50497 5.29897e-18
8440.51348 5.35614e-18
8442.51190 5.43462e-18
8444.51031 5.55575e-18
8446.50872 5.68873e-18
8448.50714 5.81057e-18
8450.51564 5.91861e-18
8452.51406 5.97620e-18
8454.51247 6.04020e-18
8456.51089 6.18339e-18
8458.51939 6.43435e-18
8460.51781 6.70667e-18
8462.51622 6.91302e-18
8464.51464 7.07407e-18
8466.51305 7.17563e-18
8468.52156 7.21868e-18
8470.51997 7.19336e-18
8472.51839 7.12238e-18
8474.51680 7.03090e-18
8476.52531 6.96036e-18
8478.52372 6.93135e-18
8480.52213 7.02786e-18
8482.52055 7.14510e-18
8484.51896 7.20126e-18
8486.52747 7.17539e-18
8488.52588 7.10773e-18
8490.52430 7.03261e-18
8492.52271 6.97895e-18
8494.52113 7.00022e-18
8496.52963 7.08926e-18
8498.52805 7.29144e-18
8500.52646 7.52945e-18
8502.52487 7.72182e-18
8504.53338 7.79944e-18
8506.53180 7.83092e-18
8508.53021 7.84732e-18
8510.52862 7.87933e-18
8512.52704 7.99603e-18
8514.53554 8.13092e-18
8516.53396 8.22294e-18
8518.53237 8.22216e-18
8520.53079 8.14595e-18
8522.52920 7.97995e-18
8524.53771 7.81475e-18
8526.53612 7.73325e-18
8528.53454 7.73615e-18
8530.53295 7.85762e-18
8532.54146 8.03377e-18
8534.53987 8.16546e-18
8536.53828 8.14986e-18
8538.53670 8.12620e-18
8540.53511 8.23923e-18
8542.54362 8.38398e-18
8544.54203 8.49074e-18
8546.54045 8.57179e-18
8548.53886 8.67855e-18
8550.53728 8.84219e-18
8552.54578 9.03023e-18
8554.54420 9.23773e-18
8556.54261 9.41957e-18
8558.54102 9.52205e-18
8560.54953 9.57328e-18
8562.54795 9.60536e-18
8564.54636 9.65134e-18
8566.54477 9.70490e-18
8568.54319 9.77626e-18
8570.55169 9.88972e-18
8572.55011 1.01022e-17
8574.54852 1.03468e-17
8576.54694 1.05616e-17
8578.54535 1.07325e-17
8580.55386 1.09089e-17
8582.55227 1.11265e-17
8584.55069 1.13525e-17
8586.54910 1.15897e-17
8588.55761 1.17882e-17
8590.55602 1.18686e-17
8592.55443 1.18993e-17
8594.55285 1.20012e-17
8596.55126 1.22571e-17
8598.55977 1.25310e-17
8600.55818 1.26552e-17
8602.55660 1.27639e-17
8604.55501 1.29348e-17
8606.55343 1.31264e-17
8608.56193 1.32649e-17
8610.56035 1.33262e-17
8612.55876 1.33757e-17
8614.55717 1.34767e-17
8616.56568 1.36124e-17
8618.56409 1.38152e-17
8620.56251 1.40328e-17
8622.56092 1.42091e-17
8624.55934 1.43418e-17
8626.56784 1.44964e-17
8628.56626 1.47307e-17
8630.56467 1.49569e-17
8632.56309 1.50587e-17
8634.57159 1.51592e-17
8636.57001 1.53701e-17
8638.56842 1.56707e-17
8640.56684 1.59561e-17
8642.56525 1.61542e-17
8644.57376 1.63549e-17
8646.57217 1.66571e-17
8648.57058 1.69746e-17
8650.56900 1.73181e-17
8652.56741 1.75737e-17
8654.57592 1.76166e-17
8656.57433 1.74157e-17
8658.57275 1.71635e-17
8660.57116 1.70838e-17
8662.57967 1.70895e-17
8664.57808 1.72193e-17
8666.57650 1.73969e-17
8668.57491 1.75648e-17
8670.57332 1.76745e-17
8672.58183 1.77623e-17
8674.58025 1.78359e-17
8676.57866 1.78397e-17
8678.57707 1.76700e-17
8680.57549 1.74444e-17
8682.58399 1.72393e-17
8684.58241 1.71066e-17
8686.58082 1.70182e-17
8688.57924 1.69836e-17
8690.58774 1.70125e-17
8692.58616 1.71613e-17
8694.58457 1.73304e-17
8696.58299 1.74526e-17
8698.58140 1.75192e-17
8700.58991 1.75592e-17
8702.58832 1.75908e-17
8704.58673 1.76176e-17
8706.58515 1.76592e-17
8708.59366 1.77000e-17
8710.59207 1.77396e-17
8712.59048 1.77654e-17
8714.58890 1.77345e-17
8716.58731 1.76917e-17
8718.59582 1.77372e-17
8720.59423 1.80146e-17
8722.59265 1.83646e-17
8724.59106 1.87353e-17
8726.58947 1.90253e-17
8728.59798 1.91305e-17
8730.59640 1.90714e-17
8732.59481 1.89763e-17
8734.59322 1.89590e-17
8736.60173 1.89167e-17
8738.60014 1.87637e-17
8740.59856 1.85715e-17
8742.59697 1.83502e-17
8744.59539 1.81697e-17
8746.60389 1.80828e-17
8748.60231 1.81342e-17
8750.60072 1.82439e-17
8752.59914 1.83561e-17
8754.60764 1.84333e-17
8756.60606 1.84193e-17
8758.60447 1.83253e-17
8760.60288 1.81625e-17
8762.60130 1.79697e-17
8764.60981 1.77781e-17
8766.60822 1.76460e-17
8768.60663 1.75676e-17
8770.60505 1.75842e-17
8772.60346 1.76423e-17
8774.61197 1.77071e-17
8776.61038 1.77433e-17
8778.60880 1.77575e-17
8780.60721 1.77368e-17
8782.61572 1.76948e-17
8784.61413 1.76133e-17
8786.61254 1.75559e-17
8788.61096 1.75737e-17
8790.60937 1.76715e-17
8792.61788 1.78263e-17
8794.61629 1.80092e-17
8796.61471 1.81954e-17
8798.61312 1.83607e-17
8800.61154 1.84494e-17
8802.62004 1.83942e-17
8804.61846 1.82220e-17
8806.61687 1.79560e-17
8808.61529 1.76596e-17
8810.62379 1.73812e-17
8812.62221 1.72341e-17
8814.62062 1.70961e-17
8816.61903 1.68763e-17
8818.61745 1.66207e-17
8820.62596 1.63490e-17
8822.62437 1.61299e-17
8824.62278 1.60063e-17
8826.62120 1.60598e-17
8828.62970 1.62325e-17
8830.62812 1.66124e-17
8832.62653 1.69377e-17
8834.62495 1.69561e-17
8836.62336 1.67126e-17
8838.63187 1.64319e-17
8840.63028 1.63022e-17
8842.62870 1.62077e-17
8844.62711 1.61345e-17
8846.62552 1.60397e-17
8848.63403 1.58407e-17
8850.63244 1.56245e-17
8852.63086 1.55231e-17
8854.62927 1.55803e-17
8856.63778 1.56368e-17
8858.63619 1.55051e-17
8860.63461 1.53129e-17
8862.63302 1.50932e-17
8864.63144 1.48731e-17
8866.63994 1.46625e-17
8868.63836 1.44743e-17
8870.63677 1.42962e-17
8872.63518 1.41228e-17
8874.63360 1.39550e-17
8876.64211 1.37730e-17
8878.64052 1.36186e-17
8880.63893 1.35397e-17
8882.63735 1.35186e-17
8884.64585 1.35047e-17
8886.64427 1.34469e-17
8888.64268 1.33710e-17
8890.64110 1.32578e-17
8892.63951 1.31608e-17
8894.64802 1.31260e-17
8896.64643 1.31448e-17
8898.64485 1.32045e-17
8900.64326 1.32635e-17
8902.65177 1.32760e-17
8904.65018 1.31233e-17
8906.64859 1.29458e-17
8908.64701 1.27815e-17
8910.64542 1.27238e-17
8912.65393 1.28916e-17
8914.65234 1.32353e-17
8916.65076 1.35428e-17
8918.64917 1.35462e-17
8920.64759 1.33848e-17
8922.65609 1.30311e-17
8924.65451 1.26055e-17
8926.65292 1.21998e-17
8928.65133 1.18534e-17
8930.65984 1.14800e-17
8932.65826 1.10540e-17
8934.65667 1.07187e-17
8936.65508 1.07049e-17
8938.65350 1.08017e-17
8940.66200 1.09090e-17
8942.66042 1.09483e-17
8944.65883 1.09115e-17
8946.65725 1.07836e-17
8948.66575 1.06444e-17
8950.66417 1.06224e-17
8952.66258 1.05940e-17
8954.66100 1.04607e-17
8956.65941 1.03006e-17
8958.66792 1.02366e-17
8960.66633 1.02827e-17
8962.66474 1.02897e-17
8964.66316 1.00755e-17
8966.66157 9.85603e-18
8968.67008 9.81932e-18
8970.66849 9.84087e-18
8972.66691 9.80577e-18
8974.66532 9.67039e-18
8976.67383 9.49491e-18
8978.67224 9.31309e-18
8980.67066 9.12177e-18
8982.66907 8.90161e-18
8984.66748 8.72975e-18
8986.67599 8.69748e-18
8988.67441 8.75582e-18
8990.67282 8.80452e-18
8992.67123 8.75847e-18
8994.66965 8.68894e-18
8996.67815 8.63382e-18
8998.67657 8.58887e-18
9000.67498 8.54280e-18
9002.67340 8.53699e-18
9004.68190 8.63878e-18
9006.68032 8.83193e-18
9008.67873 8.99394e-18
9010.67714 8.95495e-18
9012.67556 8.83681e-18
9014.68407 8.66146e-18
9016.68248 8.48634e-18
9018.68089 8.36382e-18
9020.67931 8.29447e-18
9022.67772 8.20028e-18
9024.68623 8.01114e-18
9026.68464 7.84780e-18
9028.68306 7.84527e-18
9030.68147 7.90504e-18
9032.68998 7.95602e-18
9034.68839 7.98566e-18
9036.68681 8.03856e-18
9038.68522 8.13435e-18
9040.68363 8.23994e-18
9042.69214 8.31878e-18
9044.69056 8.39329e-18
9046.68897 8.47670e-18
9048.68738 8.55999e-18
9050.68580 8.62528e-18
9052.69430 8.66963e-18
9054.69272 8.71926e-18
9056.69113 8.82037e-18
9058.68955 8.89736e-18
9060.69805 8.85494e-18
9062.69647 8.78959e-18
9064.69488 8.81272e-18
9066.69330 8.94505e-18
9068.69171 9.08420e-18
9070.70022 9.13397e-18
9072.69863 9.14424e-18
9074.69704 9.10692e-18
9076.69546 9.06008e-18
9078.69387 9.01131e-18
9080.70238 9.00957e-18
9082.70079 9.09910e-18
9084.69921 9.31661e-18
9086.69762 9.54681e-18
9088.70613 9.66956e-18
9090.70454 9.70790e-18
9092.70296 9.62571e-18
9094.70137 9.47805e-18
9096.69978 9.30986e-18
9098.70829 9.19345e-18
9100.70671 9.13398e-18
9102.70512 9.20380e-18
9104.70353 9.32114e-18
9106.70195 9.44494e-18
9108.71045 9.56412e-18
9110.70887 9.69908e-18
9112.70728 9.82475e-18
9114.70570 9.90153e-18
9116.71420 9.86647e-18
9118.71262 9.81455e-18
9120.71103 9.84815e-18
9122.70945 9.88540e-18
9124.70786 9.86368e-18
9126.71637 9.74992e-18
9128.71478 9.55217e-18
9130.71319 9.27948e-18
9132.71161 9.02349e-18
9134.72012 8.92059e-18
9136.71853 8.89415e-18
9138.71694 8.94421e-18
9140.71536 8.98986e-18
9142.71377 8.95086e-18
9144.72228 8.77930e-18
9146.72069 8.60512e-18
9148.71911 8.56964e-18
9150.71752 8.62932e-18
9152.71593 8.87644e-18
9154.72444 9.13905e-18
9156.72286 9.23509e-18
9158.72127 9.09105e-18
9160.71968 8.89386e-18
9162.72819 8.81830e-18
9164.72660 8.77770e-18
9166.72502 8.75495e-18
9168.72343 8.76055e-18
9170.72185 8.81781e-18
9172.73035 8.90786e-18
9174.72877 8.99902e-18
9176.72718 9.04899e-18
9178.72559 9.06840e-18
9180.73410 9.02341e-18
9182.73252 8.97407e-18
9184.73093 8.95574e-18
9186.72934 8.99379e-18
9188.72776 9.09708e-18
9190.73626 9.25830e-18
9192.73468 9.41120e-18
9194.73309 9.41802e-18
9196.73151 9.41810e-18
9198.72992 9.51256e-18
9200.73843 9.64250e-18
9202.73684 9.70255e-18
9204.73526 9.66194e-18
9206.73367 9.62914e-18
9208.74218 9.73210e-18
9210.74059 9.84087e-18
9212.73901 9.84683e-18
9214.73742 9.83304e-18
9216.73583 9.88924e-18
9218.74434 1.00374e-17
9220.74275 1.02176e-17
9222.74117 1.03791e-17
9224.73958 1.05012e-17
9226.73800 1.05093e-17
9228.74650 1.04754e-17
9230.74492 1.04597e-17
9232.74333 1.04600e-17
9234.74175 1.04232e-17
9236.75025 1.03205e-17
9238.74867 1.02069e-17
9240.74708 1.01248e-17
9242.74549 1.00880e-17
9244.74391 1.01316e-17
9246.75242 1.02322e-17
9248.75083 1.03699e-17
9250.74924 1.05018e-17
9252.74766 1.06028e-17
9254.75616 1.05899e-17
9256.75458 1.05856e-17
9258.75299 1.07099e-17
9260.75141 1.08742e-17
9262.74982 1.09936e-17
9264.75833 1.10059e-17
9266.75674 1.09372e-17
9268.75516 1.07789e-17
9270.75357 1.05937e-17
9272.75198 1.04291e-17
9274.76049 1.03124e-17
9276.75890 1.02666e-17
9278.75732 1.02970e-17
9280.75573 1.04003e-17
9282.76424 1.05523e-17
9284.76265 1.06741e-17
9286.76107 1.06010e-17
9288.75948 1.04899e-17
9290.75790 1.04527e-17
9292.76640 1.04598e-17
9294.76482 1.04060e-17
9296.76323 1.02603e-17
9298.76164 1.01350e-17
9300.76006 1.01576e-17
9302.76857 1.02817e-17
9304.76698 1.06242e-17
9306.76539 1.09430e-17
9308.76381 1.09978e-17
9310.77231 1.06983e-17
9312.77073 1.02501e-17
9314.76914 9.81716e-18
9316.76756 9.55500e-18
9318.76597 9.88668e-18
9320.77448 1.03480e-17
9322.77289 1.05359e-17
9324.77131 1.03566e-17
9326.76972 1.00833e-17
9328.77823 9.90986e-18
9330.77664 9.75954e-18
9332.77505 9.60843e-18
9334.77347 9.54388e-18
9336.77188 9.69416e-18
9338.78039 9.94939e-18
9340.77880 1.01834e-17
9342.77722 1.02254e-17
9344.77563 1.00780e-17
9346.77405 9.42410e-18
9348.78255 8.89206e-18
9350.78097 9.06102e-18
9352.77938 9.61453e-18
9354.77779 1.01279e-17
9356.78630 1.03146e-17
9358.78471 1.03769e-17
9360.78313 1.03702e-17
9362.78154 1.02939e-17
9364.77996 1.01408e-17
9366.78846 9.97524e-18
9368.78688 9.77264e-18
9370.78529 9.68020e-18
9372.78371 9.88088e-18
9374.79221 1.05782e-17
9376.79063 1.13036e-17
9378.78904 1.16124e-17
9380.78746 1.16071e-17
9382.78587 1.12085e-17
9384.79438 1.06305e-17
9386.79279 1.00943e-17
9388.79120 9.84770e-18
9390.78962 9.70895e-18
9392.78803 9.58402e-18
9394.79654 9.52107e-18
9396.79495 9.56701e-18
9398.79337 9.64610e-18
9400.79178 9.64590e-18
9402.80029 9.56032e-18
9404.79870 9.56730e-18
9406.79712 9.92697e-18
9408.79553 1.02967e-17
9410.79394 1.04210e-17
9412.80245 1.03842e-17
9414.80086 1.02928e-17
9416.79928 1.01914e-17
9418.79769 1.00178e-17
9420.79611 9.74761e-18
9422.80461 9.53549e-18
9424.80303 9.59981e-18
9426.80144 9.77616e-18
9428.79986 1.00039e-17
9430.80836 1.01507e-17
9432.80678 1.01292e-17
9434.80519 9.85929e-18
9436.80361 9.55881e-18
9438.80202 9.47605e-18
9440.81053 9.51110e-18
9442.80894 9.73168e-18
9444.80735 9.96669e-18
9446.80577 1.00392e-17
9448.81428 9.83941e-18
9450.81269 9.55205e-18
9452.81110 9.29351e-18
9454.80952 9.19917e-18
9456.80793 9.63805e-18
9458.81644 1.01635e-17
9460.81485 1.02925e-17
9462.81327 9.90158e-18
9464.81168 9.41205e-18
9466.81009 9.20085e-18
9468.81860 9.18438e-18
9470.81702 9.53717e-18
9472.81543 1.00388e-17
9474.81384 1.06165e-17
9476.82235 1.10410e-17
9478.82076 1.11786e-17
9480.81918 1.08465e-17
9482.81759 1.03385e-17
9484.81601 9.84004e-18
9486.82451 9.47411e-18
9488.82293 9.44313e-18
9490.82134 9.63956e-18
9492.81976 9.91562e-18
9494.81817 1.00686e-17
9496.82668 1.00603e-17
9498.82509 9.61743e-18
9500.82350 9.10996e-18
9502.82192 8.73452e-18
9504.83043 8.55841e-18
9506.82884 8.60902e-18
9508.82725 8.84236e-18
9510.82567 9.13108e-18
9512.82408 9.30759e-18
9514.83259 9.39117e-18
9516.83100 9.23577e-18
9518.82942 9.05931e-18
9520.82783 9.08701e-18
9522.82624 9.29718e-18
9524.83475 9.47240e-18
9526.83317 9.41220e-18
9528.83158 9.24124e-18
9530.82999 8.92552e-18
9532.83850 8.63763e-18
9534.83691 8.55328e-18
9536.83533 8.61183e-18
9538.83374 8.65651e-18
9540.83216 8.56654e-18
9542.84066 8.43057e-18
9544.83908 8.25072e-18
9546.83749 8.12034e-18
9548.83591 8.15437e-18
9550.83432 8.27980e-18
9552.84283 8.42212e-18
9554.84124 8.49397e-18
9556.83965 8.49176e-18
9558.83807 8.34669e-18
9560.84658 8.16574e-18
9562.84499 8.03803e-18
9564.84340 7.93013e-18
9566.84182 7.80341e-18
9568.84023 7.65008e-18
9570.84874 7.48345e-18
9572.84715 7.31814e-18
9574.84557 7.19146e-18
9576.84398 7.14384e-18
9578.84239 7.19019e-18
9580.85090 7.39949e-18
9582.84931 7.67588e-18
9584.84773 7.91138e-18
9586.84614 7.97782e-18
9588.85465 7.93738e-18
9590.85306 7.73303e-18
9592.85148 7.51176e-18
9594.84989 7.35081e-18
9596.84831 7.30869e-18
9598.85681 7.42577e-18
9600.85523 7.67827e-18
9602.85364 7.94127e-18
9604.85206 8.04540e-18
9606.86056 8.06177e-18
9608.85898 7.91512e-18
9610.85739 7.77481e-18
9612.85580 7.81703e-18
9614.85422 8.05383e-18
9616.86273 8.30933e-18
9618.86114 8.40976e-18
9620.85955 8.40174e-18
9622.85797 8.17488e-18
9624.85638 7.91753e-18
9626.86489 7.76320e-18
9628.86330 7.76488e-18
9630.86172 7.89127e-18
9632.86013 8.09577e-18
9634.86864 8.24443e-18
9636.86705 8.00309e-18
9638.86547 7.75730e-18
9640.86388 7.78213e-18
9642.86229 7.99933e-18
9644.87080 8.22504e-18
9646.86921 8.32319e-18
9648.86763 8.36001e-18
9650.86604 8.32279e-18
9652.86446 8.25073e-18
9654.87296 8.14297e-18
9656.87138 8.06829e-18
9658.86979 8.09425e-18
9660.86821 8.22610e-18
9662.87671 8.38403e-18
9664.87513 8.48543e-18
9666.87354 8.54750e-18
9668.87195 8.54155e-18
9670.87037 8.49116e-18
9672.87888 8.39048e-18
9674.87729 8.28832e-18
9676.87570 8.23123e-18
9678.87412 8.27330e-18
9680.88262 8.34422e-18
9682.88104 8.38846e-18
9684.87945 8.41738e-18
9686.87787 8.41564e-18
9688.87628 8.40818e-18
9690.88479 8.43823e-18
9692.88320 8.51327e-18
9694.88162 8.56150e-18
9696.88003 8.47727e-18
9698.87844 8.34658e-18
9700.88695 8.17288e-18
9702.88536 8.03065e-18
9704.88378 7.97443e-18
9706.88219 8.03898e-18
9708.89070 8.18365e-18
9710.88911 8.39064e-18
9712.88753 8.55279e-18
9714.88594 8.47956e-18
9716.88436 8.35086e-18
9718.89286 8.34751e-18
9720.89128 8.46820e-18
9722.88969 8.53039e-18
9724.88810 8.40323e-18
9726.89661 8.31288e-18
9728.89503 8.55234e-18
9730.89344 8.85261e-18
9732.89185 9.04951e-18
9734.89027 9.10650e-18
9736.89877 9.07715e-18
9738.89719 9.01264e-18
9740.89560 8.97187e-18
9742.89402 9.12850e-18
9744.89243 9.27516e-18
9746.90094 9.29210e-18
9748.89935 9.18302e-18
9750.89776 8.95683e-18
9752.89618 8.68832e-18
9754.90469 8.47910e-18
9756.90310 8.51249e-18
9758.90151 8.58429e-18
9760.89993 8.57764e-18
9762.89834 8.48355e-18
9764.90685 8.26443e-18
9766.90526 7.99363e-18
9768.90368 7.79303e-18
9770.90209 7.80860e-18
9772.90051 7.87983e-18
9774.90901 7.88003e-18
9776.90743 7.86974e-18
9778.90584 7.86865e-18
9780.90425 7.91141e-18
9782.91276 8.03554e-18
9784.91118 8.24934e-18
9786.90959 8.45116e-18
9788.90800 8.48132e-18
9790.90642 8.45146e-18
9792.91492 8.40898e-18
9794.91334 8.34578e-18
9796.91175 8.21011e-18
9798.91017 8.01936e-18
9800.91867 7.85387e-18
9802.91709 7.83179e-18
9804.91550 7.86531e-18
9806.91392 7.93627e-18
9808.91233 8.00517e-18
9810.92084 8.03357e-18
9812.91925 8.02607e-18
9814.91766 8.04789e-18
9816.91608 8.16146e-18
9818.91449 8.25109e-18
9820.92300 8.21257e-18
9822.92141 8.07662e-18
9824.91983 7.82048e-18
9826.91824 7.52410e-18
9828.92675 7.26102e-18
9830.92516 7.13180e-18
9832.92358 7.08784e-18
9834.92199 7.13492e-18
9836.92040 7.25422e-18
9838.92891 7.50674e-18
9840.92733 7.73968e-18
9842.92574 7.76110e-18
9844.92415 7.51476e-18
9846.92257 7.28486e-18
9848.93107 7.44554e-18
9850.92949 7.67872e-18
9852.92790 7.84831e-18
9854.92632 7.92707e-18
9856.93482 7.92498e-18
9858.93324 7.84473e-18
9860.93165 7.70949e-18
9862.93007 7.54605e-18
9864.92848 7.36658e-18
9866.93699 7.15066e-18
9868.93540 7.00118e-18
9870.93381 7.03719e-18
9872.93223 7.21517e-18
9874.94074 7.39789e-18
9876.93915 7.45529e-18
9878.93756 7.48516e-18
9880.93598 7.55703e-18
9882.93439 7.60450e-18
9884.94290 7.59303e-18
9886.94131 7.50871e-18
9888.93973 7.32305e-18
9890.93814 7.07714e-18
9892.93655 6.89760e-18
9894.94506 7.04607e-18
9896.94348 7.22922e-18
9898.94189 7.25335e-18
9900.94030 7.18135e-18
9902.94881 7.12929e-18
9904.94722 7.13609e-18
9906.94564 7.11701e-18
9908.94405 6.99230e-18
9910.94247 6.92754e-18
9912.95097 7.11702e-18
9914.94939 7.40991e-18
9916.94780 7.73607e-18
9918.94621 7.95071e-18
9920.95472 7.96639e-18
9922.95314 7.66652e-18
9924.95155 7.32393e-18
9926.94996 7.25268e-18
9928.94838 7.27288e-18
9930.95689 7.29029e-18
9932.95530 7.28920e-18
9934.95371 7.33628e-18
9936.95213 7.42616e-18
9938.95054 7.46101e-18
9940.95905 7.18345e-18
9942.95746 6.97620e-18
9944.95588 7.16516e-18
9946.95429 7.56687e-18
9948.96280 7.99794e-18
9950.96121 8.20406e-18
9952.95963 8.09941e-18
9954.95804 7.35199e-18
9956.95645 6.63401e-18
9958.96496 6.59620e-18
9960.96337 6.91120e-18
9962.96179 7.32327e-18
9964.96020 7.58800e-18
9966.95862 7.67845e-18
9968.96712 7.45557e-18
9970.96554 7.18814e-18
9972.96395 7.16815e-18
9974.96236 7.22180e-18
9976.97087 7.20105e-18
9978.96929 7.16096e-18
9980.96770 7.28491e-18
9982.96611 7.64512e-18
9984.96453 7.96903e-18
9986.97304 7.84544e-18
9988.97145 7.60285e-18
9990.96986 7.37292e-18
9992.96828 7.18897e-18
9994.97678 6.98675e-18
9996.97520 6.79650e-18
9998.97361 6.69238e-18
10000.97203 6.80638e-18
10002.97044 6.98163e-18
