# wavelength flux
3485.00480 1.82047e-17
3486.47202 1.87903e-17
3487.93924 1.68923e-17
3489.40645 1.80353e-17
3490.88386 1.89621e-17
3492.35107 1.84938e-17
3493.81829 2.04573e-17
3495.28550 2.02260e-17
3496.76291 1.80294e-17
3498.23013 1.97895e-17
3499.69734 1.99500e-17
3501.17475 2.13566e-17
3502.64196 2.10169e-17
3504.10918 1.87056e-17
3505.57640 1.90455e-17
3507.05380 1.91613e-17
3508.52102 1.91643e-17
3509.98823 2.00121e-17
3511.45545 1.87752e-17
3512.93285 1.99669e-17
3514.40007 2.10323e-17
3515.86728 2.05649e-17
3517.34469 2.12490e-17
3518.81191 2.14939e-17
3520.27912 2.10570e-17
3521.74634 1.97784e-17
3523.22374 2.06101e-17
3524.69096 2.08996e-17
3526.15817 2.15074e-17
3527.62539 2.10174e-17
3529.10280 2.00088e-17
3530.57001 2.08264e-17
3532.03723 2.26245e-17
3533.51463 2.22530e-17
3534.98185 1.89131e-17
3536.44906 1.99479e-17
3537.91628 2.23747e-17
3539.39369 2.12908e-17
3540.86090 2.02747e-17
3542.32812 2.28490e-17
3543.79533 2.37712e-17
3545.27274 2.03803e-17
3546.73995 1.87905e-17
3548.20717 1.92365e-17
3549.68458 1.97920e-17
3551.15179 1.96649e-17
3552.61901 1.86226e-17
3554.08622 2.23894e-17
3555.56363 2.30951e-17
3557.03084 2.24979e-17
3558.49806 2.28410e-17
3559.96528 1.88543e-17
3561.44268 1.71179e-17
3562.90990 1.64643e-17
3564.37711 1.81625e-17
3565.85452 1.86668e-17
3567.32173 1.92137e-17
3568.78895 1.81526e-17
3570.25617 2.01997e-17
3571.73357 1.92803e-17
3573.20079 1.76019e-17
3574.66800 1.81827e-17
3576.13522 1.75693e-17
3577.61262 1.65803e-17
3579.07984 1.87968e-17
3580.54706 1.96515e-17
3582.02446 2.01632e-17
3583.49168 2.15634e-17
3584.95889 2.12790e-17
3586.42611 1.96181e-17
3587.90351 2.08594e-17
3589.37073 2.14748e-17
3590.83795 1.85681e-17
3592.30516 1.58885e-17
3593.78257 1.75526e-17
3595.24978 1.92487e-17
3596.71700 1.77309e-17
3598.19440 1.72695e-17
3599.66162 1.93268e-17
3601.12884 2.18195e-17
3602.59605 2.14829e-17
3604.07346 2.17047e-17
3605.54067 2.10798e-17
3607.00789 1.95833e-17
3608.47511 2.03729e-17
3609.95251 2.00292e-17
3611.41973 1.87841e-17
3612.88694 1.87233e-17
3614.36435 1.78973e-17
3615.83156 2.02538e-17
3617.29878 2.04800e-17
3618.76600 1.89564e-17
3620.24340 2.07609e-17
3621.71062 1.93822e-17
3623.17783 1.55201e-17
3624.64505 1.52188e-17
3626.12245 1.79883e-17
3627.58967 2.01349e-17
3629.05689 1.91786e-17
3630.53429 1.71121e-17
3632.00151 1.61625e-17
3633.46872 1.69185e-17
3634.93594 2.06615e-17
3636.41334 2.14415e-17
3637.88056 1.86376e-17
3639.34778 1.62794e-17
3640.81499 1.88893e-17
3642.29240 2.05263e-17
3643.75961 1.93517e-17
3645.22683 1.78444e-17
3646.70423 1.74898e-17
3648.17145 1.96544e-17
3649.63867 2.07793e-17
3651.10588 2.13314e-17
3652.58329 1.89651e-17
3654.05050 1.85300e-17
3655.51772 1.88273e-17
3656.98493 1.77797e-17
3658.46234 1.85904e-17
3659.92956 2.08124e-17
3661.39677 2.06497e-17
3662.87418 1.97779e-17
3664.34139 1.78163e-17
3665.80861 1.67283e-17
3667.27582 1.95714e-17
3668.75323 1.99045e-17
3670.22045 1.87904e-17
3671.68766 1.76227e-17
3673.15488 1.81191e-17
3674.63228 2.06290e-17
3676.09950 1.97587e-17
3677.56671 1.85886e-17
3679.04412 2.01685e-17
3680.51134 2.03341e-17
3681.97855 2.01017e-17
3683.44577 2.14435e-17
3684.92317 1.86520e-17
3686.39039 1.76848e-17
3687.85760 1.98850e-17
3689.33501 1.93666e-17
3690.80223 1.69944e-17
3692.26944 1.62187e-17
3693.73666 1.67179e-17
3695.21406 1.80707e-17
3696.68128 1.80624e-17
3698.14849 1.85555e-17
3699.61571 1.83976e-17
3701.09312 1.83274e-17
3702.56033 1.96690e-17
3704.02755 2.17026e-17
3705.49476 1.86551e-17
3706.97217 1.56120e-17
3708.43938 1.83637e-17
3709.90660 1.99697e-17
3711.38401 1.81421e-17
3712.85122 1.86429e-17
3714.31844 1.99530e-17
3715.78565 1.91192e-17
3717.26306 1.81149e-17
3718.73027 1.76238e-17
3720.19749 1.76018e-17
3721.67490 1.76010e-17
3723.14211 1.70767e-17
3724.60933 1.84871e-17
3726.07654 2.00207e-17
3727.55395 1.93337e-17
3729.02116 1.80672e-17
3730.48838 1.62674e-17
3731.95560 1.73131e-17
3733.43300 1.78905e-17
3734.90022 1.71080e-17
3736.36743 1.65711e-17
3737.84484 1.72893e-17
3739.31205 1.68104e-17
3740.77927 1.61771e-17
3742.24649 1.71640e-17
3743.72389 1.75749e-17
3745.19111 1.75394e-17
3746.65832 2.00919e-17
3748.12554 1.87915e-17
3749.60295 1.67227e-17
3751.07016 1.82428e-17
3752.53738 1.94392e-17
3754.01478 1.91891e-17
3755.48200 1.76348e-17
3756.94921 1.75596e-17
3758.41643 1.81514e-17
3759.89383 1.72319e-17
3761.36105 1.77564e-17
3762.82827 1.86415e-17
3764.29548 2.05883e-17
3765.77289 2.20163e-17
3767.24010 2.06176e-17
3768.70732 2.04365e-17
3770.18472 2.04973e-17
3771.65194 1.94369e-17
3773.11916 2.00133e-17
3774.58637 1.91651e-17
3776.06378 1.94036e-17
3777.53099 2.07447e-17
3778.99821 2.00232e-17
3780.46543 2.04214e-17
3781.94283 2.08778e-17
3783.41005 2.00653e-17
3784.87726 2.00194e-17
3786.35467 2.05164e-17
3787.82188 2.12061e-17
3789.28910 2.09166e-17
3790.75632 2.09112e-17
3792.23372 2.02762e-17
3793.70094 1.99741e-17
3795.16815 2.04346e-17
3796.63537 2.12020e-17
3798.11277 2.07025e-17
3799.57999 2.16155e-17
3801.04721 1.96414e-17
3802.52461 1.82052e-17
3803.99183 1.81799e-17
3805.45904 1.77449e-17
3806.92626 1.58546e-17
3808.40366 1.63516e-17
3809.87088 1.79077e-17
3811.33810 1.66425e-17
3812.80531 1.59564e-17
3814.28272 1.51147e-17
3815.74993 1.67242e-17
3817.21715 1.65355e-17
3818.69455 1.34286e-17
3820.16177 1.45435e-17
3821.62899 1.54301e-17
3823.09620 1.41511e-17
3824.57361 1.36136e-17
3826.04082 1.40358e-17
3827.50804 1.47041e-17
3828.97525 1.36822e-17
3830.45266 1.35791e-17
3831.91988 1.17206e-17
3833.38709 1.16902e-17
3834.86450 1.27697e-17
3836.33171 1.25133e-17
3837.79893 1.32165e-17
3839.26615 1.37907e-17
3840.74355 1.25795e-17
3842.21077 1.12359e-17
3843.67798 1.13263e-17
3845.14520 1.18160e-17
3846.62260 1.20127e-17
3848.08982 1.13051e-17
3849.55703 1.15425e-17
3851.03444 1.17864e-17
3852.50166 1.00583e-17
3853.96887 9.30690e-18
3855.43609 1.02215e-17
3856.91349 9.26384e-18
3858.38071 9.25298e-18
3859.84792 1.01291e-17
3861.31514 1.00241e-17
3862.79255 1.03027e-17
3864.25976 9.00344e-18
3865.72698 8.07820e-18
3867.20438 9.87052e-18
3868.67160 8.62802e-18
3870.13881 7.63232e-18
3871.60603 8.97920e-18
3873.08344 9.37061e-18
3874.55065 9.01832e-18
3876.01787 8.35132e-18
3877.48508 8.44084e-18
3878.96249 7.50652e-18
3880.42970 7.74697e-18
3881.89692 9.50317e-18
3883.37433 1.00033e-17
3884.84154 1.04181e-17
3886.30876 9.99721e-18
3887.77597 9.10841e-18
3889.25338 8.28571e-18
3890.72059 8.58768e-18
3892.18781 9.55744e-18
3893.65503 9.69924e-18
3895.13243 9.29365e-18
3896.59965 9.56921e-18
3898.06686 9.38218e-18
3899.54427 9.31023e-18
3901.01148 9.27046e-18
3902.47870 9.58980e-18
3903.94592 8.84491e-18
3905.42332 9.41152e-18
3906.89054 9.78478e-18
3908.35775 1.04443e-17
3909.82497 1.01995e-17
3911.30237 1.04670e-17
3912.76959 1.07111e-17
3914.23681 1.01406e-17
3915.71421 1.05807e-17
3917.18143 1.09801e-17
3918.64864 1.01696e-17
3920.11586 1.18397e-17
3921.59326 1.17372e-17
3923.06048 1.05471e-17
3924.52770 1.09546e-17
3925.99491 1.18931e-17
3927.47232 1.23066e-17
3928.93953 1.16615e-17
3930.40675 1.17886e-17
3931.88415 1.15473e-17
3933.35137 1.07715e-17
3934.81859 1.11354e-17
3936.28580 1.28525e-17
3937.76321 1.24810e-17
3939.23042 1.22572e-17
3940.69764 1.24420e-17
3942.16486 1.32566e-17
3943.64226 1.39186e-17
3945.10948 1.25279e-17
3946.57669 1.27838e-17
3948.05410 1.39831e-17
3949.52131 1.37742e-17
3950.98853 1.48932e-17
3952.45575 1.54606e-17
3953.93315 1.54049e-17
3955.40037 1.66162e-17
3956.86758 1.66501e-17
3958.34499 1.49601e-17
3959.81220 1.63259e-17
3961.27942 1.74966e-17
3962.74664 1.72348e-17
3964.22404 1.78285e-17
3965.69126 1.82646e-17
3967.15847 1.63568e-17
3968.62569 1.70134e-17
3970.10309 1.76933e-17
3971.57031 1.85959e-17
3973.03753 1.98210e-17
3974.50474 1.96356e-17
3975.98215 1.95447e-17
3977.44936 1.99585e-17
3978.91658 1.92782e-17
3980.39398 1.83187e-17
3981.86120 1.90393e-17
3983.32842 2.01098e-17
3984.79563 2.15184e-17
3986.27304 2.21657e-17
3987.74025 2.10857e-17
3989.20747 1.99195e-17
3990.68487 2.03512e-17
3992.15209 2.12914e-17
3993.61931 2.17692e-17
3995.08652 2.22921e-17
3996.56393 2.26533e-17
3998.03114 2.26110e-17
3999.49836 2.31323e-17
4000.96557 2.40605e-17
4002.44298 2.15371e-17
4003.91020 2.13958e-17
4005.37741 2.22802e-17
4006.85482 2.25547e-17
4008.32203 2.22095e-17
4009.78925 2.32243e-17
4011.25646 2.27469e-17
4012.73387 2.26113e-17
4014.20109 2.26262e-17
4015.66830 2.22864e-17
4017.13552 2.39015e-17
4018.61292 2.42942e-17
4020.08014 2.31811e-17
4021.54735 2.22799e-17
4023.02476 2.22698e-17
4024.49198 2.20264e-17
4025.95919 2.19900e-17
4027.42641 2.21378e-17
4028.90381 2.32337e-17
4030.37103 2.28381e-17
4031.83824 2.12467e-17
4033.30546 2.19519e-17
4034.78287 2.28963e-17
4036.25008 2.26584e-17
4037.71730 2.29500e-17
4039.19470 2.29139e-17
4040.66192 2.31427e-17
4042.12913 2.36137e-17
4043.59635 2.33138e-17
4045.07376 2.28394e-17
4046.54097 2.32624e-17
4048.00819 2.31209e-17
4049.47540 2.29994e-17
4050.95281 2.25304e-17
4052.42002 2.29286e-17
4053.88724 2.28147e-17
4055.36465 2.36133e-17
4056.83186 2.33435e-17
4058.29908 2.29727e-17
4059.76629 2.38714e-17
4061.24370 2.22248e-17
4062.71091 2.10386e-17
4064.17813 2.28228e-17
4065.64535 2.33936e-17
4067.12275 2.33307e-17
4068.58997 2.27241e-17
4070.05718 2.29899e-17
4071.53459 2.26948e-17
4073.00180 2.26550e-17
4074.46902 2.21660e-17
4075.93624 2.24997e-17
4077.41364 2.35443e-17
4078.88086 2.25453e-17
4080.34807 2.12308e-17
4081.81529 2.16776e-17
4083.29269 2.18864e-17
4084.75991 2.36768e-17
4086.22713 2.20326e-17
4087.70453 2.21340e-17
4089.17175 2.33039e-17
4090.63896 2.26219e-17
4092.10618 2.13414e-17
4093.58358 2.18681e-17
4095.05080 2.25422e-17
4096.51802 2.17108e-17
4097.98523 2.06214e-17
4099.46264 2.09646e-17
4100.92985 2.27654e-17
4102.39707 2.20732e-17
4103.87447 2.24656e-17
4105.34169 2.34256e-17
4106.80891 2.17934e-17
4108.27612 2.13008e-17
4109.75353 2.20550e-17
4111.22074 2.09193e-17
4112.68796 2.07501e-17
4114.15518 2.13566e-17
4115.63258 2.18183e-17
4117.09980 2.18611e-17
4118.56701 2.18368e-17
4120.04442 2.08998e-17
4121.51163 2.07093e-17
4122.97885 1.99151e-17
4124.44607 1.90802e-17
4125.92347 1.94401e-17
4127.39069 1.97272e-17
4128.85790 1.98034e-17
4130.32512 1.90229e-17
4131.80252 1.87034e-17
4133.26974 1.82352e-17
4134.73696 1.83178e-17
4136.21436 1.91319e-17
4137.68158 1.88847e-17
4139.14879 1.88472e-17
4140.61601 1.92087e-17
4142.09341 1.80775e-17
4143.56063 1.77448e-17
4145.02785 1.83554e-17
4146.49506 1.81051e-17
4147.97247 1.74411e-17
4149.43968 1.71449e-17
4150.90690 1.69523e-17
4152.38430 1.79286e-17
4153.85152 1.96114e-17
4155.31874 1.84899e-17
4156.78595 1.67219e-17
4158.26336 1.61550e-17
4159.73057 1.63553e-17
4161.19779 1.66957e-17
4162.66500 1.73660e-17
4164.14241 1.83327e-17
4165.60963 1.70835e-17
4167.07684 1.56631e-17
4168.55425 1.66809e-17
4170.02146 1.75364e-17
4171.48868 1.74922e-17
4172.95590 1.64662e-17
4174.43330 1.62097e-17
4175.90052 1.64566e-17
4177.36773 1.67274e-17
4178.83495 1.65791e-17
4180.31235 1.65001e-17
4181.77957 1.64728e-17
4183.24678 1.66484e-17
4184.72419 1.67248e-17
4186.19141 1.70515e-17
4187.65862 1.62116e-17
4189.12584 1.65279e-17
4190.60324 1.68911e-17
4192.07046 1.68377e-17
4193.53767 1.69520e-17
4195.00489 1.70416e-17
4196.48230 1.71614e-17
4197.94951 1.64162e-17
4199.41673 1.58127e-17
4200.89413 1.58315e-17
4202.36135 1.64692e-17
4203.82856 1.66503e-17
4205.29578 1.70183e-17
4206.77319 1.64600e-17
4208.24040 1.68321e-17
4209.70762 1.57444e-17
4211.17483 1.58578e-17
4212.65224 1.59716e-17
4214.11945 1.53767e-17
4215.58667 1.64829e-17
4217.06408 1.72055e-17
4218.53129 1.66041e-17
4219.99851 1.62951e-17
4221.46572 1.57437e-17
4222.94313 1.61381e-17
4224.41035 1.59956e-17
4225.87756 1.62827e-17
4227.35497 1.62429e-17
4228.82218 1.66800e-17
4230.28940 1.64348e-17
4231.75661 1.63124e-17
4233.23402 1.65803e-17
4234.70123 1.77243e-17
4236.16845 1.78872e-17
4237.63567 1.79428e-17
4239.11307 1.68429e-17
4240.58029 1.65048e-17
4242.04750 1.75250e-17
4243.52491 1.81006e-17
4244.99212 1.75237e-17
4246.45934 1.65613e-17
4247.92656 1.69388e-17
4249.40396 1.71106e-17
4250.87118 1.70205e-17
4252.33839 1.72698e-17
4253.80561 1.74092e-17
4255.28301 1.82876e-17
4256.75023 1.87758e-17
4258.21745 1.75193e-17
4259.68466 1.74663e-17
4261.16207 1.74051e-17
4262.62928 1.63802e-17
4264.09650 1.59001e-17
4265.57390 1.81431e-17
4267.04112 1.97236e-17
4268.50834 1.89900e-17
4269.97555 1.78710e-17
4271.45296 1.74499e-17
4272.92017 1.66317e-17
4274.38739 1.64147e-17
4275.85461 1.73157e-17
4277.33201 1.66228e-17
4278.79923 1.68349e-17
4280.26644 1.75818e-17
4281.74385 1.74522e-17
4283.21106 1.64969e-17
4284.67828 1.64783e-17
4286.14550 1.70641e-17
4287.62290 1.73405e-17
4289.09012 1.67328e-17
4290.55733 1.62588e-17
4292.03474 1.68423e-17
4293.50195 1.73231e-17
4294.96917 1.72848e-17
4296.43639 1.71834e-17
4297.91379 1.71485e-17
4299.38101 1.70960e-17
4300.84822 1.75420e-17
4302.31544 1.78033e-17
4303.79284 1.75375e-17
4305.26006 1.71622e-17
4306.72728 1.73786e-17
4308.20468 1.73886e-17
4309.67190 1.60575e-17
4311.13911 1.62032e-17
4312.60633 1.71981e-17
4314.08373 1.62753e-17
4315.55095 1.64156e-17
4317.01817 1.67006e-17
4318.48538 1.66286e-17
4319.96279 1.69459e-17
4321.43000 1.75651e-17
4322.89722 1.70600e-17
4324.37462 1.64541e-17
4325.84184 1.65159e-17
4327.30906 1.70251e-17
4328.77627 1.74574e-17
4330.25368 1.71447e-17
4331.72089 1.73765e-17
4333.18811 1.82043e-17
4334.65532 1.81448e-17
4336.13273 1.80421e-17
4337.59995 1.72384e-17
4339.06716 1.68972e-17
4340.54457 1.65573e-17
4342.01178 1.64598e-17
4343.47900 1.66493e-17
4344.94621 1.62244e-17
4346.42362 1.58628e-17
4347.89084 1.61415e-17
4349.35805 1.62775e-17
4350.82527 1.72891e-17
4352.30267 1.71347e-17
4353.76989 1.64734e-17
4355.23710 1.67570e-17
4356.71451 1.67286e-17
4358.18173 1.81447e-17
4359.64894 1.70953e-17
4361.11616 1.63171e-17
4362.59356 1.63714e-17
4364.06078 1.63920e-17
4365.52799 1.62902e-17
4366.99521 1.61110e-17
4368.47262 1.67898e-17
4369.93983 1.71046e-17
4371.40705 1.61346e-17
4372.88445 1.60675e-17
4374.35167 1.67029e-17
4375.81888 1.59681e-17
4377.28610 1.56974e-17
4378.76351 1.60671e-17
4380.23072 1.65396e-17
4381.69794 1.69595e-17
4383.16515 1.59552e-17
4384.64256 1.61772e-17
4386.10977 1.68670e-17
4387.57699 1.69004e-17
4389.05440 1.70425e-17
4390.52161 1.73300e-17
4391.98883 1.63900e-17
4393.45604 1.65240e-17
4394.93345 1.64416e-17
4396.40067 1.64928e-17
4397.86788 1.70640e-17
4399.33510 1.63082e-17
4400.81250 1.55045e-17
4402.27972 1.67296e-17
4403.74693 1.74081e-17
4405.22434 1.66098e-17
4406.69155 1.59371e-17
4408.15877 1.58577e-17
4409.62599 1.65683e-17
4411.10339 1.69032e-17
4412.57061 1.57872e-17
4414.03782 1.52012e-17
4415.50504 1.60184e-17
4416.98244 1.70078e-17
4418.44966 1.66056e-17
4419.91688 1.58409e-17
4421.39428 1.54867e-17
4422.86150 1.61927e-17
4424.32871 1.60154e-17
4425.79593 1.58702e-17
4427.27333 1.57876e-17
4428.74055 1.55462e-17
4430.20777 1.42116e-17
4431.68517 1.38995e-17
4433.15239 1.56408e-17
4434.61960 1.49919e-17
4436.08682 1.41628e-17
4437.56423 1.47718e-17
4439.03144 1.44000e-17
4440.49866 1.39483e-17
4441.96587 1.37753e-17
4443.44328 1.47904e-17
4444.91049 1.41541e-17
4446.37771 1.28982e-17
4447.84493 1.29320e-17
4449.32233 1.33044e-17
4450.78955 1.38672e-17
4452.25676 1.25923e-17
4453.73417 1.21505e-17
4455.20138 1.31171e-17
4456.66860 1.24154e-17
4458.13582 1.25897e-17
4459.61322 1.27454e-17
4461.08044 1.18018e-17
4462.54765 1.27573e-17
4464.01487 1.19925e-17
4465.49227 1.09716e-17
4466.95949 1.13807e-17
4468.42671 1.13048e-17
4469.90411 1.13970e-17
4471.37133 1.16635e-17
4472.83854 1.18673e-17
4474.30576 1.11599e-17
4475.78316 1.12006e-17
4477.25038 1.07903e-17
4478.71760 1.14829e-17
4480.18481 1.14749e-17
4481.66222 1.14807e-17
4483.12943 1.19574e-17
4484.59665 1.17352e-17
4486.07405 1.19801e-17
4487.54127 1.18835e-17
4489.00849 1.09017e-17
4490.47570 1.14323e-17
4491.95311 1.16930e-17
4493.42032 1.16063e-17
4494.88754 1.11390e-17
4496.36494 1.08392e-17
4497.83216 1.22040e-17
4499.29938 1.21026e-17
4500.76659 1.15282e-17
4502.24400 1.19205e-17
4503.71121 1.17983e-17
4505.17843 1.18678e-17
4506.64564 1.14702e-17
4508.12305 1.18346e-17
4509.59027 1.22691e-17
4511.05748 1.22498e-17
4512.52470 1.14885e-17
4514.00210 1.17344e-17
4515.46932 1.24101e-17
4516.93653 1.27620e-17
4518.41394 1.25063e-17
4519.88116 1.26906e-17
4521.34837 1.22294e-17
4522.81559 1.21166e-17
4524.29299 1.19029e-17
4525.76021 1.19630e-17
4527.22743 1.21624e-17
4528.70483 1.14733e-17
4530.17205 1.19260e-17
4531.63926 1.28858e-17
4533.10648 1.36536e-17
4534.58388 1.33286e-17
4536.05110 1.25495e-17
4537.51832 1.29325e-17
4538.98553 1.37757e-17
4540.46294 1.29141e-17
4541.93015 1.27816e-17
4543.39737 1.30090e-17
4544.87477 1.28216e-17
4546.34199 1.32593e-17
4547.80920 1.33276e-17
4549.27642 1.32899e-17
4550.75383 1.32285e-17
4552.22104 1.33965e-17
4553.68826 1.37613e-17
4555.15547 1.34931e-17
4556.63288 1.29045e-17
4558.10009 1.31149e-17
4559.56731 1.35335e-17
4561.04472 1.30858e-17
4562.51193 1.38030e-17
4563.97915 1.40665e-17
4565.44636 1.40690e-17
4566.92377 1.42690e-17
4568.39098 1.40743e-17
4569.85820 1.40074e-17
4571.32542 1.44366e-17
4572.80282 1.46558e-17
4574.27004 1.44127e-17
4575.73725 1.47325e-17
4577.21466 1.42809e-17
4578.68187 1.44618e-17
4580.14909 1.52954e-17
4581.61631 1.53369e-17
4583.09371 1.56077e-17
4584.56093 1.47011e-17
4586.02814 1.44413e-17
4587.49536 1.54441e-17
4588.97277 1.51514e-17
4590.43998 1.51509e-17
4591.90720 1.52905e-17
4593.38460 1.49592e-17
4594.85182 1.47874e-17
4596.31903 1.58184e-17
4597.78625 1.60445e-17
4599.26365 1.60584e-17
4600.73087 1.58634e-17
4602.19809 1.59670e-17
4603.66530 1.62299e-17
4605.14271 1.61777e-17
4606.60992 1.63507e-17
4608.07714 1.64725e-17
4609.55454 1.63765e-17
4611.02176 1.64351e-17
4612.48898 1.66703e-17
4613.95619 1.69309e-17
4615.43360 1.72921e-17
4616.90081 1.70585e-17
4618.36803 1.74117e-17
4619.83525 1.71729e-17
4621.31265 1.69492e-17
4622.77987 1.73631e-17
4624.24708 1.70274e-17
4625.72449 1.71537e-17
4627.19170 1.74532e-17
4628.65892 1.80395e-17
4630.12614 1.82606e-17
4631.60354 1.74603e-17
4633.07076 1.76635e-17
4634.53797 1.77045e-17
4636.00519 1.68225e-17
4637.48259 1.69829e-17
4638.94981 1.77245e-17
4640.41703 1.82259e-17
4641.89443 1.83603e-17
4643.36165 1.80650e-17
4644.82886 1.82453e-17
4646.29608 1.82325e-17
4647.77348 1.78171e-17
4649.24070 1.78082e-17
4650.70792 1.82430e-17
4652.17513 1.85137e-17
4653.65254 1.84424e-17
4655.11975 1.85768e-17
4656.58697 1.83591e-17
4658.06437 1.80065e-17
4659.53159 1.87213e-17
4660.99881 1.88432e-17
4662.46602 1.84845e-17
4663.94343 1.86455e-17
4665.41064 1.85505e-17
4666.87786 1.93304e-17
4668.34507 1.85262e-17
4669.82248 1.82968e-17
4671.28970 1.79345e-17
4672.75691 1.72246e-17
4674.23432 1.84618e-17
4675.70153 1.76757e-17
4677.16875 1.79582e-17
4678.63597 1.87192e-17
4680.11337 1.79700e-17
4681.58059 1.85328e-17
4683.04780 1.86389e-17
4684.51502 1.73183e-17
4685.99242 1.75164e-17
4687.45964 1.77806e-17
4688.92685 1.79553e-17
4690.40426 1.79682e-17
4691.87148 1.79731e-17
4693.33869 1.77604e-17
4694.80591 1.76562e-17
4696.28331 1.77537e-17
4697.75053 1.73529e-17
4699.21774 1.74358e-17
4700.68496 1.83064e-17
4702.16237 1.81795e-17
4703.62958 1.70680e-17
4705.09680 1.72501e-17
4706.57420 1.77368e-17
4708.04142 1.77543e-17
4709.50863 1.79289e-17
4710.97585 1.77553e-17
4712.45326 1.72623e-17
4713.92047 1.75788e-17
4715.38769 1.77034e-17
4716.85490 1.69209e-17
4718.33231 1.69283e-17
4719.79952 1.77041e-17
4721.26674 1.73860e-17
4722.74415 1.74548e-17
4724.21136 1.71666e-17
4725.67858 1.68723e-17
4727.14579 1.73570e-17
4728.62320 1.80410e-17
4730.09041 1.79324e-17
4731.55763 1.77062e-17
4733.02485 1.79232e-17
4734.50225 1.74796e-17
4735.96947 1.76359e-17
4737.43668 1.72745e-17
4738.91409 1.71234e-17
4740.38130 1.72765e-17
4741.84852 1.73607e-17
4743.31574 1.76570e-17
4744.79314 1.81774e-17
4746.26036 1.70029e-17
4747.72757 1.62305e-17
4749.19479 1.74957e-17
4750.67220 1.83834e-17
4752.13941 1.83211e-17
4753.60663 1.72247e-17
4755.08403 1.79799e-17
4756.55125 1.82905e-17
4758.01846 1.69081e-17
4759.48568 1.66450e-17
4760.96308 1.65378e-17
4762.43030 1.63860e-17
4763.89752 1.69108e-17
4765.37492 1.76958e-17
4766.84214 1.79679e-17
4768.30935 1.68043e-17
4769.77657 1.60615e-17
4771.25397 1.65871e-17
4772.72119 1.69875e-17
4774.18841 1.74427e-17
4775.65562 1.70573e-17
4777.13303 1.64169e-17
4778.60024 1.64666e-17
4780.06746 1.65794e-17
4781.54486 1.66797e-17
4783.01208 1.66507e-17
4784.47930 1.68119e-17
4785.94651 1.71498e-17
4787.42392 1.72773e-17
4788.89113 1.66224e-17
4790.35835 1.69322e-17
4791.82557 1.63541e-17
4793.30297 1.56491e-17
4794.77019 1.64686e-17
4796.23740 1.62934e-17
4797.70462 1.59403e-17
4799.18202 1.61976e-17
4800.64924 1.58062e-17
4802.11646 1.59441e-17
4803.59386 1.62364e-17
4805.06108 1.60629e-17
4806.52829 1.61455e-17
4807.99551 1.64188e-17
4809.47291 1.58195e-17
4810.94013 1.54595e-17
4812.40735 1.59826e-17
4813.87456 1.56085e-17
4815.35197 1.55693e-17
4816.81918 1.51589e-17
4818.28640 1.48699e-17
4819.76380 1.46936e-17
4821.23102 1.50451e-17
4822.69824 1.50853e-17
4824.16545 1.46935e-17
4825.64286 1.45499e-17
4827.11007 1.52562e-17
4828.57729 1.54844e-17
4830.05469 1.48056e-17
4831.52191 1.48368e-17
4832.98913 1.45748e-17
4834.45634 1.46443e-17
4835.93375 1.47939e-17
4837.40096 1.40859e-17
4838.86818 1.39655e-17
4840.33540 1.41970e-17
4841.81280 1.39279e-17
4843.28002 1.43544e-17
4844.74723 1.38876e-17
4846.22464 1.38565e-17
4847.69185 1.35485e-17
4849.15907 1.26064e-17
4850.62628 1.37461e-17
4852.10369 1.33780e-17
4853.57091 1.30372e-17
4855.03812 1.32452e-17
4856.50534 1.35455e-17
4857.98274 1.26853e-17
4859.44996 1.19079e-17
4860.91717 1.18779e-17
4862.39458 1.16909e-17
4863.86180 1.10646e-17
4865.32901 1.16685e-17
4866.79623 1.17515e-17
4868.27363 1.15240e-17
4869.74085 1.11917e-17
4871.20806 1.10137e-17
4872.67528 1.10532e-17
4874.15269 1.08328e-17
4875.61990 1.10080e-17
4877.08712 1.08550e-17
4878.56452 1.10587e-17
4880.03174 1.04619e-17
4881.49895 1.03609e-17
4882.96617 1.00548e-17
4884.44358 1.02029e-17
4885.91079 1.02335e-17
4887.37801 1.03878e-17
4888.84522 1.02303e-17
4890.32263 1.01446e-17
4891.78984 1.00061e-17
4893.25706 1.02010e-17
4894.73447 1.02706e-17
4896.20168 1.01323e-17
4897.66890 1.03899e-17
4899.13611 1.04829e-17
4900.61352 1.00179e-17
4902.08073 1.02083e-17
4903.54795 9.53952e-18
4905.01517 9.42173e-18
4906.49257 1.04026e-17
4907.95979 1.06423e-17
4909.42700 1.03143e-17
4910.90441 9.74142e-18
4912.37162 9.94788e-18
4913.83884 1.04240e-17
4915.30606 1.04135e-17
4916.78346 1.03546e-17
4918.25068 1.05507e-17
4919.71789 1.00931e-17
4921.18511 1.05170e-17
4922.66251 1.06997e-17
4924.12973 1.05542e-17
4925.59695 1.14559e-17
4927.07435 1.16028e-17
4928.54157 1.10443e-17
4930.00878 1.05325e-17
4931.47600 1.07799e-17
4932.95340 1.10735e-17
4934.42062 1.08841e-17
4935.88784 1.09737e-17
4937.35505 1.12800e-17
4938.83246 1.09571e-17
4940.29967 1.15108e-17
4941.76689 1.09801e-17
4943.24429 1.11561e-17
4944.71151 1.09991e-17
4946.17873 1.10735e-17
4947.64594 1.14480e-17
4949.12335 1.01874e-17
4950.59056 1.08098e-17
4952.05778 1.12449e-17
4953.52500 1.10375e-17
4955.00240 1.12692e-17
4956.46962 1.04388e-17
4957.93683 1.08130e-17
4959.41424 1.03242e-17
4960.88145 1.03044e-17
4962.34867 1.02071e-17
4963.81589 1.01040e-17
4965.29329 1.08106e-17
4966.76051 1.09095e-17
4968.22772 1.04881e-17
4969.70513 9.82831e-18
4971.17234 1.02430e-17
4972.63956 1.02530e-17
4974.10678 9.89684e-18
4975.58418 1.07684e-17
4977.05140 1.03686e-17
4978.51861 9.64752e-18
4979.98583 9.52521e-18
4981.46323 9.71820e-18
4982.93045 1.00193e-17
4984.39767 9.90816e-18
4985.86488 9.60135e-18
4987.34229 9.47919e-18
4988.80950 9.99543e-18
4990.27672 1.00915e-17
4991.75412 9.28486e-18
4993.22134 9.96896e-18
4994.68856 1.02611e-17
4996.15577 1.02558e-17
4997.63318 9.83929e-18
4999.10039 9.76790e-18
5000.56761 9.75415e-18
5002.03482 1.05173e-17
5003.51223 1.01854e-17
5004.97945 1.01373e-17
5006.44666 1.03792e-17
5007.92407 1.09249e-17
5009.39128 1.10780e-17
5010.85850 1.08484e-17
5012.32571 1.11613e-17
5013.80312 1.08793e-17
5015.27034 1.09134e-17
5016.73755 1.14240e-17
5018.20477 1.18041e-17
5019.68217 1.15051e-17
5021.14939 1.13690e-17
5022.61660 1.16644e-17
5024.09401 1.21025e-17
5025.56123 1.21680e-17
5027.02844 1.21840e-17
5028.49566 1.21835e-17
5029.97306 1.25710e-17
5031.44028 1.33262e-17
5032.90749 1.28838e-17
5034.38490 1.29537e-17
5035.85212 1.36192e-17
5037.31933 1.30789e-17
5038.78655 1.27382e-17
5040.26395 1.32602e-17
5041.73117 1.35753e-17
5043.19838 1.35023e-17
5044.66560 1.32011e-17
5046.14301 1.33299e-17
5047.61022 1.40195e-17
5049.07744 1.39711e-17
5050.54465 1.39202e-17
5052.02206 1.42859e-17
5053.48927 1.44491e-17
5054.95649 1.41862e-17
5056.43390 1.37128e-17
5057.90111 1.38400e-17
5059.36833 1.39769e-17
5060.83554 1.38830e-17
5062.31295 1.39312e-17
5063.78017 1.36815e-17
5065.24738 1.45623e-17
5066.72479 1.47047e-17
5068.19200 1.38582e-17
5069.65922 1.42121e-17
5071.12643 1.42940e-17
5072.60384 1.38653e-17
5074.07105 1.38637e-17
5075.53827 1.42756e-17
5077.00549 1.43409e-17
5078.48289 1.39931e-17
5079.95011 1.41666e-17
5081.41732 1.41986e-17
5082.89473 1.37598e-17
5084.36194 1.39311e-17
5085.82916 1.35950e-17
5087.29638 1.34676e-17
5088.77378 1.35353e-17
5090.24100 1.27852e-17
5091.70821 1.28814e-17
5093.17543 1.30752e-17
5094.65283 1.26671e-17
5096.12005 1.24013e-17
5097.58727 1.25725e-17
5099.06467 1.20207e-17
5100.53189 1.18458e-17
5101.99910 1.20816e-17
5103.46632 1.22735e-17
5104.94372 1.27180e-17
5106.41094 1.20508e-17
5107.87816 1.11280e-17
5109.34537 1.13573e-17
5110.82278 1.14250e-17
5112.28999 1.10992e-17
5113.75721 1.07945e-17
5115.23462 1.06873e-17
5116.70183 1.09655e-17
5118.16905 1.09799e-17
5119.63626 1.08308e-17
5121.11367 1.02474e-17
5122.58088 1.02209e-17
5124.04810 1.03020e-17
5125.51532 1.03849e-17
5126.99272 1.05225e-17
5128.45994 1.00883e-17
5129.92715 1.03919e-17
5131.40456 1.08132e-17
5132.87177 1.02591e-17
5134.33899 1.02626e-17
5135.80621 1.01437e-17
5137.28361 9.70433e-18
5138.75083 1.03256e-17
5140.21804 1.02189e-17
5141.68526 9.89225e-18
5143.16266 1.00184e-17
5144.62988 1.00270e-17
5146.09710 9.53020e-18
5147.57450 9.50740e-18
5149.04172 1.03629e-17
5150.50893 1.05672e-17
5151.97615 1.03691e-17
5153.45355 1.02542e-17
5154.92077 1.06594e-17
5156.38799 1.04207e-17
5157.85520 9.85368e-18
5159.33261 1.00536e-17
5160.79982 1.00343e-17
5162.26704 1.02255e-17
5163.74444 1.02555e-17
5165.21166 1.04657e-17
5166.67888 1.07829e-17
5168.14609 1.10761e-17
5169.62350 1.08738e-17
5171.09071 1.08592e-17
5172.55793 1.06675e-17
5174.02514 1.09335e-17
5175.50255 1.11336e-17
5176.96977 1.06250e-17
5178.43698 1.06947e-17
5179.91439 1.12328e-17
5181.38160 1.11049e-17
5182.84882 1.10038e-17
5184.31603 1.17238e-17
5185.79344 1.23985e-17
5187.26066 1.24617e-17
5188.72787 1.18745e-17
5190.19509 1.19727e-17
5191.67249 1.22610e-17
5193.13971 1.18154e-17
5194.60692 1.16925e-17
5196.08433 1.21794e-17
5197.55155 1.25845e-17
5199.01876 1.26107e-17
5200.48598 1.26041e-17
5201.96338 1.25067e-17
5203.43060 1.28366e-17
5204.89782 1.24056e-17
5206.36503 1.20349e-17
5207.84244 1.25775e-17
5209.30965 1.31699e-17
5210.77687 1.29512e-17
5212.25427 1.28034e-17
5213.72149 1.28528e-17
5215.18870 1.21187e-17
5216.65592 1.28262e-17
5218.13333 1.31812e-17
5219.60054 1.26693e-17
5221.06776 1.32132e-17
5222.53497 1.33415e-17
5224.01238 1.32219e-17
5225.47959 1.28198e-17
5226.94681 1.28713e-17
5228.42422 1.28611e-17
5229.89143 1.30100e-17
5231.35865 1.31749e-17
5232.82586 1.18110e-17
5234.30327 1.17153e-17
5235.77048 1.25607e-17
5237.23770 1.23047e-17
5238.70492 1.28065e-17
5240.18232 1.28854e-17
5241.64954 1.28254e-17
5243.11675 1.30010e-17
5244.59416 1.31218e-17
5246.06137 1.31256e-17
5247.52859 1.29948e-17
5248.99581 1.27835e-17
5250.47321 1.22728e-17
5251.94043 1.26964e-17
5253.40764 1.23556e-17
5254.87486 1.20031e-17
5256.35226 1.28984e-17
5257.81948 1.26571e-17
5259.28670 1.22039e-17
5260.76410 1.27758e-17
5262.23132 1.24499e-17
5263.69853 1.26381e-17
5265.16575 1.26654e-17
5266.64315 1.23241e-17
5268.11037 1.26757e-17
5269.57759 1.29033e-17
5271.04480 1.25493e-17
5272.52221 1.22618e-17
5273.98942 1.26075e-17
5275.45664 1.28150e-17
5276.93404 1.28960e-17
5278.40126 1.21430e-17
5279.86848 1.22704e-17
5281.33569 1.24005e-17
5282.81310 1.28226e-17
5284.28031 1.26735e-17
5285.74753 1.21838e-17
5287.22493 1.19828e-17
5288.69215 1.20650e-17
5290.15937 1.29622e-17
5291.62658 1.28212e-17
5293.10399 1.24659e-17
5294.57120 1.28884e-17
5296.03842 1.25222e-17
5297.50564 1.27446e-17
5298.98304 1.26225e-17
5300.45026 1.30416e-17
5301.91747 1.24467e-17
5303.39488 1.27319e-17
5304.86209 1.29927e-17
5306.32931 1.22943e-17
5307.79653 1.30212e-17
5309.27393 1.35891e-17
5310.74115 1.34364e-17
5312.20836 1.32677e-17
5313.67558 1.33114e-17
5315.15298 1.31895e-17
5316.62020 1.33213e-17
5318.08742 1.30588e-17
5319.56482 1.33455e-17
5321.03204 1.32121e-17
5322.49925 1.27777e-17
5323.96647 1.34441e-17
5325.44387 1.29365e-17
5326.91109 1.40057e-17
5328.37831 1.36542e-17
5329.84552 1.31475e-17
5331.32293 1.31142e-17
5332.79014 1.29427e-17
5334.25736 1.35516e-17
5335.72457 1.40029e-17
5337.20198 1.38860e-17
5338.66920 1.38367e-17
5340.13641 1.31338e-17
5341.61382 1.37435e-17
5343.08103 1.40532e-17
5344.54825 1.43160e-17
5346.01546 1.39955e-17
5347.49287 1.32750e-17
5348.96009 1.37559e-17
5350.42730 1.36755e-17
5351.89452 1.40941e-17
5353.37192 1.39255e-17
5354.83914 1.35420e-17
5356.30635 1.38131e-17
5357.78376 1.37193e-17
5359.25098 1.43187e-17
5360.71819 1.50533e-17
5362.18541 1.46417e-17
5363.66281 1.42945e-17
5365.13003 1.40119e-17
5366.59724 1.39559e-17
5368.07465 1.41483e-17
5369.54187 1.43123e-17
5371.00908 1.37288e-17
5372.47630 1.42631e-17
5373.95370 1.44146e-17
5375.42092 1.40479e-17
5376.88813 1.47087e-17
5378.35535 1.38098e-17
5379.83276 1.47553e-17
5381.29997 1.47320e-17
5382.76719 1.47273e-17
5384.24459 1.39730e-17
5385.71181 1.41430e-17
5387.17902 1.44516e-17
5388.64624 1.44719e-17
5390.12365 1.47937e-17
5391.59086 1.47607e-17
5393.05808 1.47114e-17
5394.52529 1.46536e-17
5396.00270 1.44164e-17
5397.46991 1.36390e-17
5398.93713 1.40460e-17
5400.41454 1.41884e-17
5401.88175 1.41165e-17
5403.34897 1.41494e-17
5404.81618 1.41643e-17
5406.29359 1.46463e-17
5407.76080 1.39778e-17
5409.22802 1.36679e-17
5410.69524 1.40048e-17
5412.17264 1.42002e-17
5413.63986 1.41827e-17
5415.10707 1.39599e-17
5416.58448 1.40619e-17
5418.05170 1.40547e-17
5419.51891 1.42551e-17
5420.98613 1.40914e-17
5422.46353 1.38430e-17
5423.93075 1.34441e-17
5425.39796 1.41503e-17
5426.86518 1.39899e-17
5428.34258 1.36720e-17
5429.80980 1.34676e-17
5431.27702 1.38303e-17
5432.75442 1.36188e-17
5434.22164 1.41565e-17
5435.68885 1.38921e-17
5437.15607 1.38895e-17
5438.63347 1.42092e-17
5440.10069 1.41540e-17
5441.56791 1.35454e-17
5443.03512 1.35903e-17
5444.51253 1.40017e-17
5445.97974 1.38766e-17
5447.44696 1.34724e-17
5448.92436 1.33111e-17
5450.39158 1.38058e-17
5451.85880 1.36444e-17
5453.32601 1.33658e-17
5454.80342 1.33867e-17
5456.27063 1.39960e-17
5457.73785 1.39493e-17
5459.20507 1.35197e-17
5460.68247 1.30791e-17
5462.14969 1.32703e-17
5463.61690 1.33050e-17
5465.09431 1.27354e-17
5466.56152 1.27540e-17
5468.02874 1.32985e-17
5469.49596 1.33171e-17
5470.97336 1.27346e-17
5472.44058 1.21945e-17
5473.90779 1.27859e-17
5475.37501 1.29137e-17
5476.85241 1.25513e-17
5478.31963 1.23282e-17
5479.78685 1.22204e-17
5481.26425 1.25601e-17
5482.73147 1.21896e-17
5484.19868 1.19026e-17
5485.66590 1.22915e-17
5487.14330 1.24819e-17
5488.61052 1.25541e-17
5490.07774 1.25181e-17
5491.54495 1.24560e-17
5493.02236 1.26810e-17
5494.48957 1.30634e-17
5495.95679 1.28060e-17
5497.43419 1.26331e-17
5498.90141 1.29700e-17
5500.36863 1.26542e-17
5501.83584 1.24597e-17
5503.31325 1.26490e-17
5504.78046 1.22374e-17
5506.24768 1.20381e-17
5507.72508 1.22445e-17
5509.19230 1.21253e-17
5510.65952 1.20554e-17
5512.12673 1.20054e-17
5513.60414 1.22072e-17
5515.07135 1.23669e-17
5516.53857 1.24727e-17
5518.00578 1.25783e-17
5519.48319 1.20258e-17
5520.95041 1.20317e-17
5522.41762 1.22007e-17
5523.88484 1.17313e-17
5525.36224 1.16799e-17
5526.82946 1.18524e-17
5528.29667 1.23323e-17
5529.77408 1.21488e-17
5531.24130 1.18851e-17
5532.70851 1.18566e-17
5534.17573 1.22461e-17
5535.65313 1.18954e-17
5537.12035 1.15641e-17
5538.58756 1.20472e-17
5540.05478 1.19735e-17
5541.53219 1.20621e-17
5542.99940 1.19387e-17
5544.46662 1.18338e-17
5545.94402 1.21316e-17
5547.41124 1.17693e-17
5548.87845 1.21987e-17
5550.34567 1.21574e-17
5551.82308 1.17031e-17
5553.29029 1.19973e-17
5554.75751 1.21432e-17
5556.23491 1.24560e-17
5557.70213 1.24550e-17
5559.16934 1.17650e-17
5560.63656 1.14246e-17
5562.11397 1.14642e-17
5563.58118 1.17157e-17
5565.04840 1.17165e-17
5566.51561 1.18713e-17
5567.99302 1.13612e-17
5569.46023 1.17844e-17
5570.92745 1.21173e-17
5572.40486 1.25192e-17
5573.87207 1.23514e-17
5575.33929 1.13609e-17
5576.80650 1.17141e-17
5578.28391 1.19570e-17
5579.75112 1.24161e-17
5581.21834 1.23889e-17
5582.68556 1.21307e-17
5584.16296 1.19655e-17
5585.63018 1.13970e-17
5587.09739 1.16154e-17
5588.56461 1.19330e-17
5590.04201 1.20681e-17
5591.50923 1.19624e-17
5592.97645 1.23367e-17
5594.45385 1.19005e-17
5595.92107 1.20299e-17
5597.38828 1.24668e-17
5598.85550 1.13173e-17
5600.33290 1.20887e-17
5601.80012 1.19793e-17
5603.26734 1.21543e-17
5604.74474 1.19574e-17
5606.21196 1.20560e-17
5607.67917 1.20400e-17
5609.14639 1.16815e-17
5610.62379 1.16368e-17
5612.09101 1.21541e-17
5613.55823 1.16004e-17
5615.02544 1.12139e-17
5616.50285 1.09114e-17
5617.97006 1.09420e-17
5619.43728 1.15564e-17
5620.91468 1.15860e-17
5622.38190 1.19365e-17
5623.84912 1.13561e-17
5625.31633 1.19205e-17
5626.79374 1.17446e-17
5628.26095 1.12786e-17
5629.72817 1.14616e-17
5631.19539 1.11505e-17
5632.67279 1.17028e-17
5634.14001 1.13263e-17
5635.60722 1.11305e-17
5637.08463 1.16210e-17
5638.55184 1.17413e-17
5640.01906 1.14006e-17
5641.48628 1.14130e-17
5642.96368 1.15301e-17
5644.43090 1.10318e-17
5645.89811 1.13531e-17
5647.36533 1.09818e-17
5648.84273 1.15944e-17
5650.30995 1.11346e-17
5651.77717 1.03416e-17
5653.25457 1.08910e-17
5654.72179 1.14188e-17
5656.18900 1.09432e-17
5657.65622 1.12408e-17
5659.13362 1.10709e-17
5660.60084 1.10388e-17
5662.06806 1.10709e-17
5663.53527 1.12117e-17
5665.01268 1.06955e-17
5666.47989 1.09385e-17
5667.94711 1.09430e-17
5669.42451 1.06287e-17
5670.89173 1.07096e-17
5672.35895 1.10084e-17
5673.82616 1.05552e-17
5675.30357 1.14767e-17
5676.77078 1.10476e-17
5678.23800 1.09143e-17
5679.70521 1.06502e-17
5681.18262 1.10720e-17
5682.64984 1.10026e-17
5684.11705 1.02749e-17
5685.59446 1.04265e-17
5687.06167 1.13344e-17
5688.52889 1.10727e-17
5689.99610 1.03630e-17
5691.47351 1.04139e-17
5692.94073 1.01819e-17
5694.40794 1.05100e-17
5695.87516 1.07942e-17
5697.35256 1.02535e-17
5698.81978 1.01503e-17
5700.28699 1.03202e-17
5701.76440 1.06859e-17
5703.23162 1.06682e-17
5704.69883 1.07167e-17
5706.16605 1.07385e-17
5707.64345 1.07166e-17
5709.11067 1.06238e-17
5710.57788 1.03720e-17
5712.04510 1.05855e-17
5713.52251 1.04810e-17
5714.98972 1.05655e-17
5716.45694 1.05506e-17
5717.93434 1.02356e-17
5719.40156 1.02975e-17
5720.86877 1.08370e-17
5722.33599 1.09304e-17
5723.81340 1.10198e-17
5725.28061 1.13632e-17
5726.74783 1.13604e-17
5728.21504 1.06828e-17
5729.69245 1.04882e-17
5731.15967 1.12074e-17
5732.62688 1.08854e-17
5734.10429 1.01890e-17
5735.57150 1.06799e-17
5737.03872 1.08024e-17
5738.50593 1.07200e-17
5739.98334 1.05451e-17
5741.45055 1.03011e-17
5742.91777 1.06649e-17
5744.38499 1.04907e-17
5745.86239 1.04452e-17
5747.32961 1.08823e-17
5748.79682 1.08392e-17
5750.27423 1.06594e-17
5751.74144 1.07127e-17
5753.20866 1.05448e-17
5754.67588 1.05378e-17
5756.15328 1.06885e-17
5757.62050 1.03640e-17
5759.08771 1.02912e-17
5760.55493 1.03338e-17
5762.03233 1.02011e-17
5763.49955 1.03439e-17
5764.96677 1.02986e-17
5766.44417 1.00179e-17
5767.91139 1.01455e-17
5769.37860 1.02246e-17
5770.84582 1.00380e-17
5772.32322 9.77019e-18
5773.79044 9.64673e-18
5775.25766 9.68821e-18
5776.72487 1.00175e-17
5778.20228 9.72338e-18
5779.66949 9.85289e-18
5781.13671 9.71148e-18
5782.61412 9.61916e-18
5784.08133 9.70517e-18
5785.54855 9.29409e-18
5787.01576 9.82221e-18
5788.49317 1.03147e-17
5789.96038 9.87728e-18
5791.42760 9.40479e-18
5792.89482 9.30081e-18
5794.37222 9.52002e-18
5795.83944 9.34277e-18
5797.30665 9.09001e-18
5798.78406 8.73833e-18
5800.25127 9.29474e-18
5801.71849 9.05094e-18
5803.18571 8.49703e-18
5804.66311 8.81716e-18
5806.13033 8.50353e-18
5807.59754 8.28256e-18
5809.06476 7.91470e-18
5810.54216 7.83585e-18
5812.00938 7.80371e-18
5813.47660 7.85380e-18
5814.95400 7.88282e-18
5816.42122 8.08928e-18
5817.88843 7.99730e-18
5819.35565 7.94639e-18
5820.83305 7.66812e-18
5822.30027 7.51979e-18
5823.76749 7.19799e-18
5825.24489 7.08272e-18
5826.71211 7.09975e-18
5828.17932 6.95928e-18
5829.64654 6.84117e-18
5831.12394 7.00373e-18
5832.59116 7.03531e-18
5834.05838 7.02098e-18
5835.52559 7.02115e-18
5837.00300 6.86650e-18
5838.47021 7.23067e-18
5839.93743 6.93730e-18
5841.41483 6.87375e-18
5842.88205 6.39359e-18
5844.34927 6.46005e-18
5845.81648 6.71848e-18
5847.29389 6.88196e-18
5848.76110 6.87750e-18
5850.22832 7.02676e-18
5851.69553 7.10457e-18
5853.17294 6.92395e-18
5854.64016 6.66157e-18
5856.10737 6.90775e-18
5857.58478 6.87539e-18
5859.05199 6.89279e-18
5860.51921 6.96822e-18
5861.98642 7.37863e-18
5863.46383 7.33205e-18
5864.93105 6.96641e-18
5866.39826 7.73941e-18
5867.86548 7.94546e-18
5869.34288 7.74930e-18
5870.81010 7.97745e-18
5872.27732 7.86509e-18
5873.74453 8.14602e-18
5875.22194 8.33140e-18
5876.68915 8.52968e-18
5878.15637 8.41467e-18
5879.63377 8.65427e-18
5881.10099 8.65956e-18
5882.56820 9.30208e-18
5884.03542 9.47052e-18
5885.51283 9.12895e-18
5886.98004 9.17328e-18
5888.44726 9.61347e-18
5889.92466 9.41917e-18
5891.39188 9.56758e-18
5892.85909 9.51444e-18
5894.32631 9.85000e-18
5895.80372 1.00301e-17
5897.27093 1.00675e-17
5898.73815 9.98157e-18
5900.20536 1.04168e-17
5901.68277 1.05240e-17
5903.14998 1.07903e-17
5904.61720 1.09472e-17
5906.09461 1.09194e-17
5907.56182 1.10103e-17
5909.02904 1.15782e-17
5910.49625 1.15531e-17
5911.97366 1.08061e-17
5913.44087 1.13813e-17
5914.90809 1.20607e-17
5916.37531 1.20663e-17
5917.85271 1.20994e-17
5919.31993 1.21908e-17
5920.78714 1.22148e-17
5922.26455 1.24133e-17
5923.73176 1.22481e-17
5925.19898 1.26017e-17
5926.66620 1.24394e-17
5928.14360 1.24541e-17
5929.61082 1.29482e-17
5931.07803 1.32716e-17
5932.54525 1.30109e-17
5934.02265 1.28947e-17
5935.48987 1.27864e-17
5936.95709 1.29983e-17
5938.43449 1.32556e-17
5939.90171 1.27065e-17
5941.36892 1.26541e-17
5942.83614 1.25139e-17
5944.31354 1.31561e-17
5945.78076 1.33558e-17
5947.24798 1.26210e-17
5948.71519 1.27039e-17
5950.19260 1.28722e-17
5951.65981 1.31020e-17
5953.12703 1.36563e-17
5954.60443 1.36692e-17
5956.07165 1.34417e-17
5957.53887 1.35682e-17
5959.00608 1.33432e-17
5960.48349 1.31616e-17
5961.95070 1.36559e-17
5963.41792 1.33528e-17
5964.88514 1.29014e-17
5966.36254 1.30959e-17
5967.82976 1.33477e-17
5969.29697 1.34632e-17
5970.77438 1.28326e-17
5972.24159 1.25795e-17
5973.70881 1.30542e-17
5975.17603 1.33204e-17
5976.65343 1.33097e-17
5978.12065 1.33284e-17
5979.58786 1.32767e-17
5981.05508 1.28214e-17
5982.53248 1.29290e-17
5983.99970 1.30456e-17
5985.46692 1.26722e-17
5986.94432 1.30719e-17
5988.41154 1.31508e-17
5989.87875 1.31169e-17
5991.34597 1.29090e-17
5992.82337 1.25920e-17
5994.29059 1.23802e-17
5995.75781 1.21970e-17
5997.22502 1.23754e-17
5998.70243 1.19598e-17
6000.16964 1.16370e-17
6001.63686 1.22610e-17
6003.11426 1.25925e-17
6004.58148 1.23038e-17
6006.04870 1.21159e-17
6007.51591 1.23915e-17
6008.99332 1.24332e-17
6010.46053 1.28788e-17
6011.92775 1.29626e-17
6013.39496 1.28156e-17
6014.87237 1.26218e-17
6016.33959 1.28650e-17
6017.80680 1.27842e-17
6019.28421 1.26320e-17
6020.75142 1.27095e-17
6022.21864 1.24326e-17
6023.68585 1.21303e-17
6025.16326 1.25280e-17
6026.63048 1.26069e-17
6028.09769 1.18617e-17
6029.56491 1.20785e-17
6031.04231 1.16895e-17
6032.50953 1.18236e-17
6033.97674 1.22545e-17
6035.45415 1.18418e-17
6036.92137 1.20101e-17
6038.38858 1.25633e-17
6039.85580 1.15868e-17
6041.33320 1.15668e-17
6042.80042 1.22973e-17
6044.26763 1.19017e-17
6045.74504 1.17614e-17
6047.21226 1.20141e-17
6048.67947 1.18175e-17
6050.14669 1.14801e-17
6051.62409 1.15989e-17
6053.09131 1.17578e-17
6054.55852 1.13377e-17
6056.02574 1.17662e-17
6057.50315 1.20929e-17
6058.97036 1.21026e-17
6060.43758 1.15169e-17
6061.90479 1.12787e-17
6063.38220 1.12127e-17
6064.84941 1.10176e-17
6066.31663 1.11959e-17
6067.79404 1.13959e-17
6069.26125 1.14651e-17
6070.72847 1.12079e-17
6072.19568 1.12480e-17
6073.67309 1.14642e-17
6075.14030 1.16456e-17
6076.60752 1.14261e-17
6078.07474 1.09315e-17
6079.55214 1.08361e-17
6081.01936 1.10921e-17
6082.48657 1.08008e-17
6083.96398 1.04379e-17
6085.43120 1.04394e-17
6086.89841 1.08590e-17
6088.36563 1.10909e-17
6089.84303 1.12269e-17
6091.31025 1.11702e-17
6092.77746 1.09742e-17
6094.25487 1.09442e-17
6095.72208 1.04130e-17
6097.18930 1.05243e-17
6098.65652 1.05127e-17
6100.13392 1.03205e-17
6101.60114 1.04689e-17
6103.06835 9.89807e-18
6104.53557 9.65975e-18
6106.01297 1.03182e-17
6107.48019 1.07047e-17
6108.94741 1.00648e-17
6110.42481 1.00930e-17
6111.89203 1.00227e-17
6113.35924 1.00769e-17
6114.82646 1.02911e-17
6116.30386 1.04573e-17
6117.77108 1.02820e-17
6119.23830 1.03902e-17
6120.70551 1.06938e-17
6122.18292 1.01108e-17
6123.65013 9.89116e-18
6125.11735 1.04998e-17
6126.58457 1.00774e-17
6128.06197 1.04825e-17
6129.52919 1.04939e-17
6130.99640 1.00855e-17
6132.47381 9.98855e-18
6133.94102 9.87826e-18
6135.40824 1.00882e-17
6136.87546 1.03254e-17
6138.35286 9.95901e-18
6139.82008 9.91828e-18
6141.28729 1.00610e-17
6142.75451 9.99124e-18
6144.23191 1.01341e-17
6145.69913 9.88645e-18
6147.16635 9.99807e-18
6148.64375 9.93142e-18
6150.11097 9.68176e-18
6151.57818 9.64760e-18
6153.04540 9.68125e-18
6154.52280 9.73966e-18
6155.99002 9.57223e-18
6157.45724 9.29058e-18
6158.93464 9.29882e-18
6160.40186 9.44350e-18
6161.86907 9.41163e-18
6163.33629 9.16880e-18
6164.81369 9.67229e-18
6166.28091 1.00283e-17
6167.74813 9.52978e-18
6169.21534 9.32013e-18
6170.69275 9.43538e-18
6172.15996 9.66363e-18
6173.62718 9.46486e-18
6175.10458 9.03676e-18
6176.57180 9.03575e-18
6178.03902 9.26328e-18
6179.50623 9.52760e-18
6180.98364 9.59746e-18
6182.45085 9.11170e-18
6183.91807 8.91581e-18
6185.38528 9.01347e-18
6186.86269 9.43687e-18
6188.32991 9.39480e-18
6189.79712 8.87674e-18
6191.27453 9.58444e-18
6192.74174 9.61070e-18
6194.20896 9.16318e-18
6195.67617 9.07817e-18
6197.15358 9.37745e-18
6198.62080 9.34384e-18
6200.08801 9.31606e-18
6201.55523 8.94144e-18
6203.03263 9.30584e-18
6204.49985 9.56912e-18
6205.96706 9.33337e-18
6207.44447 8.97390e-18
6208.91169 9.46057e-18
6210.37890 9.47371e-18
6211.84612 9.32696e-18
6213.32352 9.87893e-18
6214.79074 9.18449e-18
6216.25795 8.88173e-18
6217.72517 8.89590e-18
6219.20258 9.20161e-18
6220.66979 9.09536e-18
6222.13701 9.43496e-18
6223.61441 9.37054e-18
6225.08163 9.03357e-18
6226.54884 9.20078e-18
6228.01606 9.02299e-18
6229.49347 9.34418e-18
6230.96068 9.69497e-18
6232.42790 9.25839e-18
6233.89511 9.12457e-18
6235.37252 8.73897e-18
6236.83973 9.19905e-18
6238.30695 9.41232e-18
6239.78436 9.02782e-18
6241.25157 9.07672e-18
6242.71879 9.43299e-18
6244.18600 9.08419e-18
6245.66341 8.96791e-18
6247.13062 8.92012e-18
6248.59784 9.27150e-18
6250.06506 9.34587e-18
6251.54246 9.41500e-18
6253.00968 9.22392e-18
6254.47689 9.00921e-18
6255.95430 9.01660e-18
6257.42151 9.16632e-18
6258.88873 9.66291e-18
6260.35595 9.15519e-18
6261.83335 9.23493e-18
6263.30057 9.05737e-18
6264.76778 8.71571e-18
6266.23500 8.65159e-18
6267.71240 8.91667e-18
6269.17962 8.81457e-18
6270.64684 9.18610e-18
6272.12424 9.53532e-18
6273.59146 9.69304e-18
6275.05867 9.12892e-18
6276.52589 8.89163e-18
6278.00329 8.47886e-18
6279.47051 8.90813e-18
6280.93773 9.53616e-18
6282.41513 9.27530e-18
6283.88235 9.10179e-18
6285.34956 8.68940e-18
6286.81678 8.91408e-18
6288.29418 8.97267e-18
6289.76140 8.62866e-18
6291.22862 8.62697e-18
6292.69583 8.77063e-18
6294.17324 9.30153e-18
6295.64045 9.90870e-18
6297.10767 1.00076e-17
6298.57489 8.85462e-18
6300.05229 8.95923e-18
6301.51951 8.48343e-18
6302.98672 8.30557e-18
6304.46413 8.45461e-18
6305.93134 8.20338e-18
6307.39856 8.09509e-18
6308.86578 8.43354e-18
6310.34318 8.21880e-18
6311.81040 8.41771e-18
6313.27761 8.43979e-18
6314.74483 8.54704e-18
6316.22223 8.36450e-18
6317.68945 8.32463e-18
6319.15667 8.28298e-18
6320.63407 8.47615e-18
6322.10129 8.65559e-18
6323.56850 8.11894e-18
6325.03572 8.00808e-18
6326.51312 8.23856e-18
6327.98034 8.32488e-18
6329.44756 7.74416e-18
6330.91477 7.59185e-18
6332.39218 8.37736e-18
6333.85939 8.25549e-18
6335.32661 7.98797e-18
6336.80401 7.70715e-18
6338.27123 7.15543e-18
6339.73845 7.24723e-18
6341.20566 7.66824e-18
6342.68307 7.30457e-18
6344.15028 7.26830e-18
6345.61750 7.51545e-18
6347.08471 7.30523e-18
6348.56212 7.08601e-18
6350.02934 7.30052e-18
6351.49655 7.26003e-18
6352.97396 7.55662e-18
6354.44117 7.69244e-18
6355.90839 7.29675e-18
6357.37560 7.47333e-18
6358.85301 7.50196e-18
6360.32023 7.45145e-18
6361.78744 7.59129e-18
6363.25466 7.02899e-18
6364.73206 6.98059e-18
6366.19928 7.18401e-18
6367.66649 7.02906e-18
6369.14390 7.03434e-18
6370.61112 7.31733e-18
6372.07833 7.55598e-18
6373.54555 7.30607e-18
6375.02295 6.96584e-18
6376.49017 6.92407e-18
6377.95738 7.03651e-18
6379.43479 7.27471e-18
6380.90201 7.85121e-18
6382.36922 7.44658e-18
6383.83644 6.87456e-18
6385.31384 7.07856e-18
6386.78106 7.10310e-18
6388.24827 7.34219e-18
6389.71549 7.60235e-18
6391.19290 7.62549e-18
6392.66011 7.51817e-18
6394.12733 7.47032e-18
6395.60473 8.09767e-18
6397.07195 7.88892e-18
6398.53917 7.31016e-18
6400.00638 7.95252e-18
6401.48379 7.71997e-18
6402.95100 7.03744e-18
6404.41822 7.39695e-18
6405.88543 7.39970e-18
6407.36284 7.02806e-18
6408.83005 7.68261e-18
6410.29727 7.79708e-18
6411.76449 7.54360e-18
6413.24189 7.70483e-18
6414.70911 7.47879e-18
6416.17632 7.73829e-18
6417.65373 7.98691e-18
6419.12094 7.73787e-18
6420.58816 7.73216e-18
6422.05538 7.84980e-18
6423.53278 8.02108e-18
6425.00000 8.02828e-18
6426.46721 7.72382e-18
6427.94462 7.68152e-18
6429.41183 7.89137e-18
6430.87905 8.34809e-18
6432.34627 7.94093e-18
6433.82367 8.18604e-18
6435.29089 7.78307e-18
6436.75810 7.94950e-18
6438.22532 8.12224e-18
6439.70272 7.90519e-18
6441.16994 8.32165e-18
6442.63716 8.36675e-18
6444.11456 8.21778e-18
6445.58178 8.28882e-18
6447.04899 8.19224e-18
6448.51621 8.10925e-18
6449.99361 8.09314e-18
6451.46083 8.15501e-18
6452.92805 8.24627e-18
6454.39526 8.46614e-18
6455.87267 8.52667e-18
6457.33988 8.41737e-18
6458.80710 8.30998e-18
6460.28450 8.25203e-18
6461.75172 7.98998e-18
6463.21894 8.23436e-18
6464.68615 8.63977e-18
6466.16356 8.57774e-18
6467.63077 8.45191e-18
6469.09799 8.52992e-18
6470.56521 8.61165e-18
6472.04261 8.63565e-18
6473.50983 8.49868e-18
6474.97704 8.55871e-18
6476.45445 8.37404e-18
6477.92166 8.60559e-18
6479.38888 8.69374e-18
6480.85610 8.91419e-18
6482.33350 9.06085e-18
6483.80072 8.72463e-18
6485.26793 8.70772e-18
6486.73515 8.89787e-18
6488.21255 8.43612e-18
6489.67977 7.70775e-18
6491.14699 8.32704e-18
6492.62439 8.45592e-18
6494.09161 8.23434e-18
6495.55882 8.61223e-18
6497.02604 8.71318e-18
6498.50344 8.28741e-18
6499.97066 8.19143e-18
6501.43788 8.23681e-18
6502.90509 8.36642e-18
6504.38250 8.39622e-18
6505.84971 8.69866e-18
6507.31693 8.76090e-18
6508.79433 8.67934e-18
6510.26155 9.03097e-18
6511.72877 9.14863e-18
6513.19598 8.89111e-18
6514.67339 8.48078e-18
6516.14060 8.02278e-18
6517.60782 8.67362e-18
6519.07503 8.77358e-18
6520.55244 8.35515e-18
6522.01966 8.27427e-18
6523.48687 8.49230e-18
6524.96428 8.70053e-18
6526.43149 9.09112e-18
6527.89871 8.98993e-18
6529.36592 8.73772e-18
6530.84333 8.76992e-18
6532.31055 8.65216e-18
6533.77776 8.58301e-18
6535.24498 8.31570e-18
6536.72238 8.50049e-18
6538.18960 8.60321e-18
6539.65682 8.48363e-18
6541.13422 8.37022e-18
6542.60144 8.45260e-18
6544.06865 8.47847e-18
6545.53587 8.15176e-18
6547.01327 8.05661e-18
6548.48049 8.49609e-18
6549.94770 8.53659e-18
6551.41492 8.45189e-18
6552.89233 8.56413e-18
6554.35954 8.56048e-18
6555.82676 8.31729e-18
6557.30416 8.11741e-18
6558.77138 8.16052e-18
6560.23859 8.18209e-18
6561.70581 8.58329e-18
6563.18322 8.88031e-18
6564.65043 8.91167e-18
6566.11765 8.72884e-18
6567.58486 8.28118e-18
6569.06227 8.43649e-18
6570.52948 8.31296e-18
6571.99670 8.17319e-18
6573.47411 8.35162e-18
6574.94132 8.29702e-18
6576.40854 8.29288e-18
6577.87575 8.14097e-18
6579.35316 8.21511e-18
6580.82037 8.40454e-18
6582.28759 8.54067e-18
6583.75481 8.46767e-18
6585.23221 7.98656e-18
6586.69943 7.75080e-18
6588.16664 7.94038e-18
6589.64405 8.24228e-18
6591.11126 8.10314e-18
6592.57848 7.99294e-18
6594.04570 8.12934e-18
6595.52310 7.69108e-18
6596.99032 7.65274e-18
6598.45753 8.01248e-18
6599.92475 7.79428e-18
6601.40215 7.82982e-18
6602.86937 7.98640e-18
6604.33659 7.64504e-18
6605.81399 7.42834e-18
6607.28121 7.70695e-18
6608.74842 7.68617e-18
6610.21564 7.51346e-18
6611.69304 7.25208e-18
6613.16026 7.25257e-18
6614.62748 7.68130e-18
6616.10488 7.57739e-18
6617.57210 7.12814e-18
6619.03931 7.29919e-18
6620.50653 7.49998e-18
6621.98393 7.25387e-18
6623.45115 7.21899e-18
6624.91837 7.18474e-18
6626.38558 6.99121e-18
6627.86299 6.87947e-18
6629.33020 7.02247e-18
6630.79742 6.91326e-18
6632.27482 6.72775e-18
6633.74204 7.01995e-18
6635.20926 7.14915e-18
6636.67647 6.56265e-18
6638.15388 6.18087e-18
6639.62109 6.08645e-18
6641.08831 6.42300e-18
6642.55553 6.34036e-18
6644.03293 6.30347e-18
6645.50015 6.12999e-18
6646.96736 5.97655e-18
6648.44477 6.13069e-18
6649.91198 6.45142e-18
6651.37920 6.28897e-18
6652.84642 6.36799e-18
6654.32382 6.24628e-18
6655.79104 6.17595e-18
6657.25825 6.02562e-18
6658.72547 5.78528e-18
6660.20287 5.89634e-18
6661.67009 6.11871e-18
6663.13731 6.22716e-18
6664.60452 6.22242e-18
6666.08193 6.32718e-18
6667.54914 6.61959e-18
6669.01636 6.26377e-18
6670.49376 6.13166e-18
6671.96098 6.25493e-18
6673.42820 6.63806e-18
6674.89541 6.72020e-18
6676.37282 6.62223e-18
6677.84003 6.75096e-18
6679.30725 6.73822e-18
6680.77446 6.32404e-18
6682.25187 6.57828e-18
6683.71909 6.82728e-18
6685.18630 6.69559e-18
6686.66371 6.98852e-18
6688.13092 6.96490e-18
6689.59814 6.74273e-18
6691.06535 7.17072e-18
6692.54276 7.50206e-18
6694.00998 7.55088e-18
6695.47719 7.48971e-18
6696.95460 6.84844e-18
6698.42181 6.90313e-18
6699.88903 7.37363e-18
6701.35624 7.54596e-18
6702.83365 7.58815e-18
6704.30087 7.68797e-18
6705.76808 7.64834e-18
6707.23530 7.91805e-18
6708.71270 7.78468e-18
6710.17992 7.96483e-18
6711.64713 8.19722e-18
6713.12454 7.82739e-18
6714.59176 7.92375e-18
6716.05897 8.33123e-18
6717.52619 8.38559e-18
6719.00359 8.44748e-18
6720.47081 8.79934e-18
6721.93802 8.60239e-18
6723.40524 8.30334e-18
6724.88265 8.15496e-18
6726.34986 8.40522e-18
6727.81708 8.46173e-18
6729.29448 8.19193e-18
6730.76170 8.33090e-18
6732.22891 8.43383e-18
6733.69613 8.93936e-18
6735.17354 8.92848e-18
6736.64075 8.51214e-18
6738.10797 8.52520e-18
6739.57518 8.98790e-18
6741.05259 8.78794e-18
6742.51980 8.80365e-18
6743.98702 9.27293e-18
6745.46443 9.21094e-18
6746.93164 8.93147e-18
6748.39886 9.09768e-18
6749.86607 8.88880e-18
6751.34348 8.75543e-18
6752.81069 9.09799e-18
6754.27791 9.29587e-18
6755.74513 9.02978e-18
6757.22253 8.88457e-18
6758.68975 9.20917e-18
6760.15696 9.32191e-18
6761.63437 8.92079e-18
6763.10158 9.14485e-18
6764.56880 9.21829e-18
6766.03602 9.05268e-18
6767.51342 9.24255e-18
6768.98064 9.23102e-18
6770.44785 8.76472e-18
6771.91507 8.99716e-18
6773.39247 9.26034e-18
6774.85969 9.55396e-18
6776.32691 9.43543e-18
6777.80431 8.92845e-18
6779.27153 8.99501e-18
6780.73874 8.99176e-18
6782.20596 9.08040e-18
6783.68336 9.37118e-18
6785.15058 9.41803e-18
6786.61780 9.32161e-18
6788.08501 9.32046e-18
6789.56242 9.47531e-18
6791.02963 9.53133e-18
6792.49685 9.40604e-18
6793.97425 9.28941e-18
6795.44147 9.41113e-18
6796.90869 9.37304e-18
6798.37590 9.13564e-18
6799.85331 9.28547e-18
6801.32052 8.89078e-18
6802.78774 8.65111e-18
6804.25496 8.98466e-18
6805.73236 8.90594e-18
6807.19958 8.46976e-18
6808.66679 8.45181e-18
6810.14420 8.88731e-18
6811.61141 8.85838e-18
6813.07863 9.03311e-18
6814.54585 9.34906e-18
6816.02325 8.82182e-18
6817.49047 8.55504e-18
6818.95768 8.85830e-18
6820.43509 8.93316e-18
6821.90230 9.00127e-18
6823.36952 8.89200e-18
6824.83674 8.72458e-18
6826.31414 9.04652e-18
6827.78136 9.05140e-18
6829.24857 8.56300e-18
6830.71579 8.33729e-18
6832.19319 8.50941e-18
6833.66041 8.61476e-18
6835.12763 8.12623e-18
6836.60503 8.19833e-18
6838.07225 8.57757e-18
6839.53946 8.80516e-18
6841.00668 8.93826e-18
6842.48408 8.58521e-18
6843.95130 8.35561e-18
6845.41852 8.34445e-18
6846.88573 8.33329e-18
6848.36314 8.32214e-18
6849.83035 8.31098e-18
6851.29757 8.29982e-18
6852.76478 8.28867e-18
6854.24219 8.27751e-18
6855.70941 8.26636e-18
6857.17662 8.25520e-18
6858.65403 8.24405e-18
6860.12124 8.23289e-18
6861.58846 8.22174e-18
6863.05567 8.21059e-18
6864.53308 8.19944e-18
6866.00030 8.18828e-18
6867.46751 8.17713e-18
6868.93473 8.16598e-18
6870.41213 8.15483e-18
6871.87935 8.14368e-18
6873.34656 8.13253e-18
6874.82397 8.12139e-18
6876.29119 8.11024e-18
6877.75840 8.09909e-18
6879.22562 8.08795e-18
6880.70302 8.07680e-18
6882.17024 8.06565e-18
6883.63745 8.05451e-18
6885.11486 8.04337e-18
6886.58208 8.03222e-18
6888.04929 8.02108e-18
6889.51651 8.00993e-18
6890.99391 7.99879e-18
6892.46113 7.98765e-18
6893.92834 7.97651e-18
6895.39556 7.96537e-18
6896.87297 7.95423e-18
6898.34018 7.94309e-18
6899.80740 7.93195e-18
6901.27461 7.92081e-18
6902.75202 7.90967e-18
6904.21923 7.89853e-18
6905.68645 7.88740e-18
6907.16386 7.87626e-18
6908.63107 7.86513e-18
6910.09829 7.85399e-18
6911.56550 7.84286e-18
6913.04291 7.83172e-18
6914.51012 7.82059e-18
6915.97734 7.80945e-18
6917.45475 7.79832e-18
6918.92196 7.78719e-18
6920.38918 7.77606e-18
6921.85639 7.76493e-18
6923.33380 7.75379e-18
6924.80102 7.74267e-18
6926.26823 7.73153e-18
6927.73545 7.72040e-18
6929.21285 7.70928e-18
6930.68007 7.69815e-18
6932.14728 7.68702e-18
6933.62469 7.67589e-18
6935.09190 7.66477e-18
6936.55912 7.89496e-18
6938.02634 7.86856e-18
6939.50374 7.48140e-18
6940.97096 7.38412e-18
6942.43817 7.44413e-18
6943.90539 7.42860e-18
6945.38279 7.35156e-18
6946.85001 7.39588e-18
6948.31723 7.41562e-18
6949.79463 7.52721e-18
6951.26185 7.69826e-18
6952.72906 7.42331e-18
6954.19628 7.02672e-18
6955.67368 6.90642e-18
6957.14090 7.74041e-18
6958.60812 7.84356e-18
6960.07533 7.31638e-18
6961.55274 7.54450e-18
6963.01995 7.36261e-18
6964.48717 7.26028e-18
6965.96457 7.96011e-18
6967.43179 8.12596e-18
6968.89901 7.64305e-18
6970.36622 7.65674e-18
6971.84363 7.67600e-18
6973.31084 7.60918e-18
6974.77806 7.35861e-18
6976.24528 7.25157e-18
6977.72268 7.28458e-18
6979.18990 7.52683e-18
6980.65711 7.67591e-18
6982.13452 7.63374e-18
6983.60173 7.21458e-18
6985.06895 7.04274e-18
6986.53617 7.44501e-18
6988.01357 7.38533e-18
6989.48079 7.31463e-18
6990.94800 7.09156e-18
6992.41522 7.10089e-18
6993.89262 7.16243e-18
6995.35984 7.34790e-18
6996.82706 7.29059e-18
6998.30446 7.45899e-18
6999.77168 7.34736e-18
7001.23889 7.01831e-18
7002.70611 6.68666e-18
7004.18351 6.77293e-18
7005.65073 7.07590e-18
7007.11795 7.18293e-18
7008.58516 6.77442e-18
7010.06257 6.42411e-18
7011.52978 6.85764e-18
7012.99700 7.03740e-18
7014.47440 6.63989e-18
7015.94162 6.48607e-18
7017.40884 6.60873e-18
7018.87605 6.69601e-18
7020.35346 6.49139e-18
7021.82067 6.53221e-18
7023.28789 6.89173e-18
7024.75510 6.93775e-18
7026.23251 6.73413e-18
7027.69973 6.65399e-18
7029.16694 6.63985e-18
7030.64435 6.59968e-18
7032.11156 6.73336e-18
7033.57878 6.75143e-18
7035.04599 6.77338e-18
7036.52340 6.66484e-18
7037.99062 6.45635e-18
7039.45783 6.39709e-18
7040.92505 6.37013e-18
7042.40245 6.45770e-18
7043.86967 6.22009e-18
7045.33688 6.21537e-18
7046.81429 6.35850e-18
7048.28151 6.57672e-18
7049.74872 6.43979e-18
7051.21594 5.94137e-18
7052.69334 6.35460e-18
7054.16056 6.65516e-18
7055.62777 6.02351e-18
7057.09499 6.37214e-18
7058.57240 6.91970e-18
7060.03961 6.49306e-18
7061.50683 6.54339e-18
7062.98423 6.90760e-18
7064.45145 6.65488e-18
7065.91867 6.56405e-18
7067.38588 6.97544e-18
7068.86329 7.00782e-18
7070.33050 6.95883e-18
7071.79772 7.14621e-18
7073.26493 6.83988e-18
7074.74234 6.76063e-18
7076.20955 6.96207e-18
7077.67677 6.92688e-18
7079.15418 7.40137e-18
7080.62139 7.44876e-18
7082.08861 7.02958e-18
7083.55582 7.17883e-18
7085.03323 7.15593e-18
7086.50044 6.93316e-18
7087.96766 7.28245e-18
7089.43488 7.63567e-18
7090.91228 7.77761e-18
7092.37950 7.58517e-18
7093.84671 7.41081e-18
7095.32412 7.42021e-18
7096.79133 7.46472e-18
7098.25855 7.48216e-18
7099.72577 7.57535e-18
7101.20317 7.90273e-18
7102.67039 8.23963e-18
7104.13760 8.14148e-18
7105.60482 8.08554e-18
7107.08222 8.42195e-18
7108.54944 8.22289e-18
7110.01666 7.78035e-18
7111.49406 7.78506e-18
7112.96128 7.84631e-18
7114.42849 7.79740e-18
7115.89571 7.73114e-18
7117.37311 7.68209e-18
7118.84033 8.21218e-18
7120.30755 8.64249e-18
7121.77476 8.22516e-18
7123.25217 7.71436e-18
7124.71938 7.71007e-18
7126.18660 7.92005e-18
7127.66400 8.10131e-18
7129.13122 8.33052e-18
7130.59844 8.32613e-18
7132.06565 8.17942e-18
7133.54306 8.13943e-18
7135.01027 8.22174e-18
7136.47749 8.43133e-18
7137.94471 8.54181e-18
7139.42211 8.46625e-18
7140.88933 8.40382e-18
7142.35654 8.28250e-18
7143.83395 8.17437e-18
7145.30116 7.97162e-18
7146.76838 8.11016e-18
7148.23560 8.43803e-18
7149.71300 8.50232e-18
7151.18022 8.35057e-18
7152.64743 8.29612e-18
7154.12484 8.54638e-18
7155.59205 8.62609e-18
7157.05927 8.33984e-18
7158.52649 8.17992e-18
7160.00389 8.11638e-18
7161.47111 8.12816e-18
7162.93832 8.41816e-18
7164.40554 8.37670e-18
7165.88294 7.91515e-18
7167.35016 8.01400e-18
7168.81738 8.20755e-18
7170.29478 7.87455e-18
7171.76200 7.76284e-18
7173.22921 8.07897e-18
7174.69643 7.96148e-18
7176.17383 8.04631e-18
7177.64105 8.29498e-18
7179.10827 8.02911e-18
7180.57548 7.57468e-18
7182.05289 8.13666e-18
7183.52010 8.53586e-18
7184.98732 8.43085e-18
7186.46472 8.30930e-18
7187.93194 7.85603e-18
7189.39916 8.18246e-18
7190.86637 8.16355e-18
7192.34378 7.45776e-18
7193.81099 7.57249e-18
7195.27821 7.78292e-18
7196.74542 7.71988e-18
7198.22283 7.65036e-18
7199.69005 7.86158e-18
7201.15726 8.10339e-18
7202.62448 7.82947e-18
7204.10188 7.58827e-18
7205.56910 7.71200e-18
7207.03631 7.53605e-18
7208.51372 7.73056e-18
7209.98094 7.88998e-18
7211.44815 7.63822e-18
7212.91537 7.72673e-18
7214.39277 7.61259e-18
7215.85999 7.37373e-18
7217.32720 7.33748e-18
7218.80461 7.23708e-18
7220.27183 7.45726e-18
7221.73904 7.43808e-18
7223.20626 7.23238e-18
7224.68366 7.39713e-18
7226.15088 7.68814e-18
7227.61809 7.52452e-18
7229.08531 7.31668e-18
7230.56272 7.11984e-18
7232.02993 7.19645e-18
7233.49715 7.53774e-18
7234.97455 7.61590e-18
7236.44177 7.63583e-18
7237.90898 7.77236e-18
7239.37620 7.84668e-18
7240.85361 7.65339e-18
7242.32082 6.91496e-18
7243.78804 6.99504e-18
7245.25525 7.27042e-18
7246.73266 6.99588e-18
7248.19987 7.02903e-18
7249.66709 7.13802e-18
7251.14450 6.84905e-18
7252.61171 6.70931e-18
7254.07893 6.72779e-18
7255.54614 6.95060e-18
7257.02355 6.87962e-18
7258.49076 6.84826e-18
7259.95798 6.74327e-18
7261.42520 6.48278e-18
7262.90260 6.75618e-18
7264.36982 7.02259e-18
7265.83703 6.91362e-18
7267.31444 7.15009e-18
7268.78165 7.27653e-18
7270.24887 6.93892e-18
7271.71609 6.88002e-18
7273.19349 7.14169e-18
7274.66071 7.11658e-18
7276.12792 6.81908e-18
7277.59514 6.63043e-18
7279.07254 6.67699e-18
7280.53976 6.76638e-18
7282.00698 6.73308e-18
7283.48438 6.67043e-18
7284.95160 6.96559e-18
7286.41881 6.93568e-18
7287.88603 6.84189e-18
7289.36343 7.03946e-18
7290.83065 7.02352e-18
7292.29787 6.46718e-18
7293.76508 6.27041e-18
7295.24249 6.53715e-18
7296.70970 6.54126e-18
7298.17692 6.76974e-18
7299.65432 7.24310e-18
7301.12154 7.21349e-18
7302.58876 6.93953e-18
7304.05597 7.12520e-18
7305.53338 7.18371e-18
7307.00059 6.80703e-18
7308.46781 6.49535e-18
7309.93503 7.01466e-18
7311.41243 7.29613e-18
7312.87965 6.61374e-18
7314.34686 6.55621e-18
7315.82427 6.42405e-18
7317.29148 6.28628e-18
7318.75870 6.88452e-18
7320.22592 6.91105e-18
7321.70332 6.83119e-18
7323.17054 7.04483e-18
7324.63775 6.96914e-18
7326.10497 6.87401e-18
7327.58237 6.69216e-18
7329.04959 6.70843e-18
7330.51681 6.82806e-18
7331.99421 6.70075e-18
7333.46143 6.77107e-18
7334.92864 7.00109e-18
7336.39586 7.15665e-18
7337.87326 7.38957e-18
7339.34048 7.54377e-18
7340.80770 7.09617e-18
7342.27491 6.63144e-18
7343.75232 7.21932e-18
7345.21953 7.26163e-18
7346.68675 6.86483e-18
7348.16415 6.71919e-18
7349.63137 6.74818e-18
7351.09859 6.66799e-18
7352.56580 6.77851e-18
7354.04321 6.88006e-18
7355.51042 6.84978e-18
7356.97764 6.89511e-18
7358.45504 6.56355e-18
7359.92226 6.60719e-18
7361.38948 6.90863e-18
7362.85669 7.04781e-18
7364.33410 7.00440e-18
7365.80131 7.21672e-18
7367.26853 7.34702e-18
7368.73574 6.99946e-18
7370.21315 6.72230e-18
7371.68037 6.75691e-18
7373.14758 6.93377e-18
7374.62499 7.02502e-18
7376.09220 7.05769e-18
7377.55942 6.90808e-18
7379.02663 6.97241e-18
7380.50404 7.16211e-18
7381.97126 7.23555e-18
7383.43847 7.00637e-18
7384.90569 7.09335e-18
7386.38309 7.21628e-18
7387.85031 6.92159e-18
7389.31752 6.79482e-18
7390.78474 7.10242e-18
7392.26215 7.12676e-18
7393.72936 6.39536e-18
7395.19658 6.38389e-18
7396.67398 6.78138e-18
7398.14120 6.94351e-18
7399.60841 6.89570e-18
7401.07563 6.56503e-18
7402.55304 6.67494e-18
7404.02025 6.67925e-18
7405.48747 6.63512e-18
7406.95468 6.76460e-18
7408.43209 6.53133e-18
7409.89930 6.22304e-18
7411.36652 6.45624e-18
7411.86848 6.45624e-18
7413.52607 6.57026e-18
7415.18366 6.55531e-18
7416.84125 6.54030e-18
7418.50888 6.35473e-18
7420.16647 6.16925e-18
7421.82406 6.29028e-18
7423.48165 6.41130e-18
7425.14929 6.46687e-18
7426.80688 6.52242e-18
7428.46447 6.50135e-18
7430.13211 6.48023e-18
7431.78970 6.32711e-18
7433.44729 6.17403e-18
7435.10488 6.12293e-18
7436.77251 6.07190e-18
7438.43010 6.20462e-18
7440.08769 6.33729e-18
7441.74528 6.25405e-18
7443.41292 6.17084e-18
7445.07051 6.17782e-18
7446.72810 6.18480e-18
7448.39573 6.25723e-18
7450.05332 6.32963e-18
7451.71091 6.32785e-18
7453.36850 6.32608e-18
7455.03614 6.34563e-18
7456.69373 6.36519e-18
7458.35132 6.44012e-18
7460.00891 6.51504e-18
7461.67655 6.52669e-18
7463.33414 6.53832e-18
7464.99173 6.50105e-18
7466.65936 6.46373e-18
7468.31695 6.23441e-18
7469.97454 6.00515e-18
7471.63213 5.98417e-18
7473.29977 5.96324e-18
7474.95736 6.07220e-18
7476.61495 6.18112e-18
7478.28258 6.17436e-18
7479.94017 6.16757e-18
7481.59776 6.04270e-18
7483.25535 5.91789e-18
7484.92299 6.03873e-18
7486.58058 6.15955e-18
7488.23817 6.21064e-18
7489.89576 6.26173e-18
7491.56340 6.32246e-18
7493.22099 6.38315e-18
7494.87858 6.29533e-18
7496.54621 6.20752e-18
7498.20380 6.13099e-18
7499.86139 6.05443e-18
7501.51898 5.90895e-18
7503.18662 5.76353e-18
7504.84421 5.80569e-18
7506.50180 5.84785e-18
7508.16943 5.87727e-18
7509.82702 5.90667e-18
7511.48461 5.87729e-18
7513.14220 5.84796e-18
7514.80984 5.98524e-18
7516.46743 6.12243e-18
7518.12502 5.96102e-18
7519.78261 5.79968e-18
7521.45025 5.85908e-18
7523.10784 5.91848e-18
7524.76543 5.97332e-18
7526.43306 6.02814e-18
7528.09065 6.00705e-18
7529.74824 5.98592e-18
7531.40583 5.83905e-18
7533.07347 5.69226e-18
7534.73106 5.79391e-18
7536.38865 5.89552e-18
7538.04624 5.92384e-18
7539.71387 5.95214e-18
7541.37146 5.93283e-18
7543.02905 5.91349e-18
7544.69669 5.76760e-18
7546.35428 5.62178e-18
7548.01187 5.70809e-18
7549.66946 5.79440e-18
7551.33710 5.78511e-18
7552.99469 5.77582e-18
7554.65228 5.76653e-18
7556.30987 5.75724e-18
7557.97750 5.74795e-18
7559.63509 5.73867e-18
7561.29268 5.72938e-18
7562.96032 5.72009e-18
7564.61791 5.71080e-18
7566.27550 5.70152e-18
7567.93309 5.69223e-18
7569.60072 5.68295e-18
7571.25831 5.67365e-18
7572.91590 5.66437e-18
7574.58354 5.65509e-18
7576.24113 5.64580e-18
7577.89872 5.63651e-18
7579.55631 5.62723e-18
7581.22395 5.61795e-18
7582.88154 5.60867e-18
7584.53913 5.59938e-18
7586.19672 5.59009e-18
7587.86435 5.58082e-18
7589.52194 5.57153e-18
7591.17953 5.56224e-18
7592.84717 5.55297e-18
7594.50476 5.54368e-18
7596.16235 5.53440e-18
7597.81994 5.52512e-18
7599.48757 5.51584e-18
7601.14516 5.50655e-18
7602.80275 5.49727e-18
7604.46034 5.48799e-18
7606.12798 5.47871e-18
7607.78557 5.46943e-18
7609.44316 5.46016e-18
7611.11080 5.45087e-18
7612.76839 5.44159e-18
7614.42598 5.43232e-18
7616.08357 5.42303e-18
7617.75120 5.41376e-18
7619.40879 5.40448e-18
7621.06638 5.39520e-18
7622.72397 5.38592e-18
7624.39161 5.37665e-18
7626.04920 5.36736e-18
7627.70679 5.35809e-18
7629.37442 5.34881e-18
7631.03201 5.33954e-18
7632.68960 5.33026e-18
7634.34719 5.32099e-18
7636.01483 5.31171e-18
7637.67242 5.30243e-18
7639.33001 5.29316e-18
7640.99765 5.28389e-18
7642.65524 5.27461e-18
7644.31283 5.26534e-18
7645.97042 5.25606e-18
7647.63805 5.24679e-18
7649.29564 5.23752e-18
7650.95323 5.22824e-18
7652.61082 5.21897e-18
7654.27846 5.20969e-18
7655.93605 5.20043e-18
7657.59364 5.19115e-18
7659.26127 5.18188e-18
7660.91886 5.17261e-18
7662.57645 5.16334e-18
7664.23404 5.15406e-18
7665.90168 5.14480e-18
7667.55927 5.13552e-18
7669.21686 5.12625e-18
7670.87445 5.11698e-18
7672.54209 5.10772e-18
7674.19968 5.09844e-18
7675.85727 5.08918e-18
7677.52490 5.07991e-18
7679.18249 5.07064e-18
7680.84008 5.06137e-18
7682.49767 4.94786e-18
7684.16531 4.93621e-18
7685.82290 4.92463e-18
7687.48049 5.17240e-18
7689.13808 5.42005e-18
7690.80571 5.32255e-18
7692.46330 5.22507e-18
7694.12089 5.24016e-18
7695.78853 5.25523e-18
7697.44612 5.19941e-18
7699.10371 5.14366e-18
7700.76130 5.31154e-18
7702.42894 5.47930e-18
7704.08653 5.27744e-18
7705.74412 5.07568e-18
7707.40171 5.20584e-18
7709.06934 5.33596e-18
7710.72693 5.31471e-18
7712.38452 5.29349e-18
7714.05216 5.36895e-18
7715.70975 5.44436e-18
7717.36734 5.33010e-18
7719.02493 5.21591e-18
7720.69256 5.30537e-18
7722.35015 5.39477e-18
7724.00774 5.25240e-18
7725.67538 5.11004e-18
7727.33297 4.99883e-18
7728.99056 4.88771e-18
7730.64815 5.03909e-18
7732.31579 5.19043e-18
7733.97338 5.23434e-18
7735.63097 5.27821e-18
7737.28856 5.20713e-18
7738.95619 5.13607e-18
7740.61378 5.18378e-18
7742.27137 5.23147e-18
7743.93901 5.24859e-18
7745.59660 5.26575e-18
7747.25419 5.38467e-18
7748.91178 5.50348e-18
7750.57941 5.30406e-18
7752.23700 5.10468e-18
7753.89459 5.03407e-18
7755.55218 4.96353e-18
7757.21982 5.08517e-18
7758.87741 5.20686e-18
7760.53500 5.48794e-18
7762.20264 5.76888e-18
7763.86023 5.65594e-18
7765.51782 5.54304e-18
7767.17541 5.56682e-18
7768.84304 5.59058e-18
7770.50063 5.56138e-18
7772.15822 5.53218e-18
7773.81581 5.48640e-18
7775.48345 5.44061e-18
7777.14104 5.38179e-18
7778.79863 5.32303e-18
7780.46626 5.40684e-18
7782.12385 5.49060e-18
7783.78144 5.38039e-18
7785.43903 5.27027e-18
7787.10667 5.41106e-18
7788.76426 5.55183e-18
7790.42185 5.64085e-18
7792.07944 5.72984e-18
7793.74708 5.67388e-18
7795.40467 5.61795e-18
7797.06226 5.65371e-18
7798.72989 5.68949e-18
7800.38748 5.72454e-18
7802.04507 5.75955e-18
7803.70266 5.71270e-18
7805.37030 5.66588e-18
7807.02789 5.69396e-18
7808.68548 5.72202e-18
7810.35311 5.64342e-18
7812.01070 5.56491e-18
7813.66829 5.79583e-18
7815.32588 6.02663e-18
7816.99352 5.88802e-18
7818.65111 5.74945e-18
7820.30870 5.70728e-18
7821.96629 5.66509e-18
7823.63393 5.53656e-18
7825.29152 5.40807e-18
7826.94911 5.40968e-18
7828.61674 5.41128e-18
7830.27433 5.38044e-18
7831.93192 5.34965e-18
7833.58951 5.44064e-18
7835.25715 5.53163e-18
7836.91474 5.64452e-18
7838.57233 5.75730e-18
7840.22992 5.52789e-18
7841.89755 5.29858e-18
7843.55514 5.40540e-18
7845.21273 5.51217e-18
7846.88037 5.49976e-18
7848.53796 5.48737e-18
7850.19555 5.60896e-18
7851.85314 5.73059e-18
7853.52078 6.03670e-18
7855.17837 6.34266e-18
7856.83596 6.16496e-18
7858.50359 5.98727e-18
7860.16118 5.84103e-18
7861.81877 5.69489e-18
7863.47636 5.86830e-18
7865.14400 6.04162e-18
7866.80159 5.90356e-18
7868.45918 5.76557e-18
7870.11677 5.83854e-18
7871.78440 5.91146e-18
7873.44199 5.81226e-18
7875.09958 5.71309e-18
7876.76722 5.70906e-18
7878.42481 5.70505e-18
7880.08240 5.78243e-18
7881.73999 5.85976e-18
7883.40763 5.74059e-18
7885.06522 5.62153e-18
7886.72281 5.83364e-18
7888.38040 6.04565e-18
7890.04803 5.97863e-18
7891.70562 5.91157e-18
7893.36321 5.71741e-18
7895.03085 5.52331e-18
7896.68844 5.48537e-18
7898.34603 5.44742e-18
7900.00362 5.42399e-18
7901.67125 5.40061e-18
7903.32884 5.53412e-18
7904.98643 5.66759e-18
7906.64402 5.66901e-18
7908.31166 5.67042e-18
7909.96925 5.60446e-18
7911.62684 5.53849e-18
7913.29448 5.39099e-18
7914.95207 5.24361e-18
7916.60966 5.43558e-18
7918.26725 5.62746e-18
7919.93488 5.52306e-18
7921.59247 5.41875e-18
7923.25006 5.59181e-18
7924.90765 5.76481e-18
7926.57529 5.75193e-18
7928.23288 5.73900e-18
7929.89047 5.59109e-18
7931.55810 5.44319e-18
7933.21569 5.36300e-18
7934.87328 5.28285e-18
7936.53087 5.36850e-18
7938.19851 5.45407e-18
7939.85610 5.33164e-18
7941.51369 5.20927e-18
7943.18133 5.28365e-18
7944.83892 5.35807e-18
7946.49651 5.59797e-18
7948.15410 5.83774e-18
7949.82173 5.64982e-18
7951.47932 5.46189e-18
7953.13691 5.25521e-18
7954.79450 5.04868e-18
7956.46214 5.25801e-18
7958.11973 5.46721e-18
7959.77732 5.22197e-18
7961.44495 4.97687e-18
7963.10254 5.14415e-18
7964.76013 5.31136e-18
7966.41772 5.28214e-18
7968.08536 5.25293e-18
7969.74295 5.27018e-18
7971.40054 5.28743e-18
7973.05813 5.34938e-18
7974.72577 5.41127e-18
7976.38336 5.24652e-18
7978.04095 5.08181e-18
7979.70858 5.00089e-18
7981.36617 4.92006e-18
7983.02376 5.10978e-18
7984.68135 5.29945e-18
7986.34899 5.35614e-18
7988.00658 5.41276e-18
7989.66417 5.31732e-18
7991.33180 5.22193e-18
7992.98939 5.31931e-18
7994.64698 5.41656e-18
7996.30457 5.17596e-18
7997.97221 4.93550e-18
7999.62980 5.11852e-18
8001.28739 5.30144e-18
8002.94498 5.16509e-18
8004.61262 5.02879e-18
8006.27021 4.98392e-18
8007.92780 4.93915e-18
8009.59543 5.16441e-18
8011.25302 5.38953e-18
8012.91061 5.20286e-18
8014.56820 5.01626e-18
8016.23584 5.03491e-18
8017.89343 5.05358e-18
8019.55102 5.13682e-18
8021.20861 5.22004e-18
8022.87624 5.22447e-18
8024.53383 5.22884e-18
8026.19142 5.10758e-18
8027.85906 4.98634e-18
8029.51665 4.93898e-18
8031.17424 4.89161e-18
8032.83183 4.80178e-18
8034.49947 4.71203e-18
8036.15706 4.86888e-18
8037.81465 5.02568e-18
8039.47224 5.02471e-18
8041.13987 5.02373e-18
8042.79746 4.96259e-18
8044.45505 4.90145e-18
8046.12269 4.83426e-18
8047.78028 4.76712e-18
8049.43787 4.87919e-18
8051.09546 4.99120e-18
8052.76309 4.95703e-18
8054.42068 4.92283e-18
8056.07827 4.80970e-18
8057.73586 4.69663e-18
8059.40350 4.76317e-18
8061.06109 4.82971e-18
8062.71868 4.85038e-18
8064.38632 4.87100e-18
8066.04391 4.74265e-18
8067.70150 4.61433e-18
8069.35909 4.57156e-18
8071.02672 4.52883e-18
8072.68431 4.60399e-18
8074.34190 4.67915e-18
8076.00954 4.75292e-18
8077.66713 4.82665e-18
8079.32472 4.81676e-18
8080.98231 4.80682e-18
8082.64994 4.63665e-18
8084.30753 4.46650e-18
8085.96512 4.38316e-18
8087.62271 4.29985e-18
8089.29035 4.35070e-18
8090.94794 4.40156e-18
8092.60553 4.45757e-18
8094.27317 4.51357e-18
8095.93076 4.51650e-18
8097.58835 4.51944e-18
8099.24594 4.51534e-18
8100.91357 4.51124e-18
8102.57116 4.54740e-18
8104.22875 4.58350e-18
8105.88634 4.50383e-18
8107.55398 4.42420e-18
8109.21157 4.49241e-18
8110.86916 4.56055e-18
8112.53679 4.39232e-18
8114.19438 4.22421e-18
8115.85197 4.36642e-18
8117.50956 4.50865e-18
8119.17720 4.68613e-18
8120.83479 4.86349e-18
8122.49238 4.70180e-18
8124.16002 4.54009e-18
8125.81761 4.30645e-18
8127.47520 4.07292e-18
8129.13279 4.13187e-18
8130.80042 4.19083e-18
8132.45801 4.32530e-18
8134.11560 4.45971e-18
8135.77319 4.47784e-18
8137.44083 4.49596e-18
8139.09842 4.52260e-18
8140.75601 4.54921e-18
8142.41360 4.50151e-18
8144.08123 4.45378e-18
8145.73882 4.29447e-18
8147.39641 4.13528e-18
8149.06405 4.29836e-18
8150.72164 4.46136e-18
8152.37923 4.42942e-18
8154.03682 4.39744e-18
8155.70446 4.23356e-18
8157.36205 4.06978e-18
8159.01964 4.17521e-18
8160.68727 4.28063e-18
8162.34486 4.33529e-18
8164.00245 4.38989e-18
8165.66004 4.25914e-18
8167.32768 4.12850e-18
8168.98527 4.34216e-18
8170.64286 4.55573e-18
8172.30045 4.54757e-18
8173.96808 4.53928e-18
8175.62567 4.17702e-18
8177.28326 3.81492e-18
8178.95090 3.92323e-18
8180.60849 4.03155e-18
8182.26608 4.17469e-18
8183.92367 4.31779e-18
8185.59131 4.38468e-18
8187.24890 4.45146e-18
8188.90649 4.17900e-18
8190.56408 3.90667e-18
8192.23171 3.94829e-18
8193.88930 3.98997e-18
8195.54689 4.19544e-18
8197.21453 4.40083e-18
8198.87212 4.40071e-18
8200.52971 4.40056e-18
8202.18730 4.31202e-18
8203.85493 4.22351e-18
8205.51252 4.24042e-18
8207.17011 4.25732e-18
8208.82770 4.27788e-18
8210.49534 4.29834e-18
8212.15293 4.06567e-18
8213.81052 3.83311e-18
8215.47816 3.94128e-18
8217.13575 4.04938e-18
8218.79334 3.95054e-18
8220.45093 3.85179e-18
8222.11856 4.00966e-18
8223.77615 4.16744e-18
8225.43374 4.05940e-18
8227.09133 3.95144e-18
8228.75897 4.03877e-18
8230.41656 4.12606e-18
8232.07415 4.04980e-18
8233.74178 3.97357e-18
8235.39937 3.97050e-18
8237.05696 3.96742e-18
8238.71455 3.88346e-18
8240.38219 3.79952e-18
8242.03978 3.72360e-18
8243.69737 3.64778e-18
8245.36501 3.87177e-18
8247.02260 4.09567e-18
8248.68019 4.04171e-18
8250.33778 3.98779e-18
8252.00541 4.00339e-18
8253.66300 4.01888e-18
8255.32059 3.72938e-18
8256.97818 3.44007e-18
8258.64582 3.68058e-18
8260.30341 3.92101e-18
8261.96100 3.98651e-18
8263.62863 4.05195e-18
8265.28622 3.97546e-18
8266.94381 3.89896e-18
8268.60140 3.77120e-18
8270.26904 3.64348e-18
8271.92663 3.63122e-18
8273.58422 3.61898e-18
8275.25186 3.66027e-18
8276.90945 3.70151e-18
8278.56704 3.64260e-18
8280.22463 3.58370e-18
8281.89226 3.50173e-18
8283.54985 3.41981e-18
8285.20744 3.51625e-18
8286.86503 3.61263e-18
8288.53267 3.55027e-18
8290.19026 3.48796e-18
8291.84785 3.55601e-18
8293.51548 3.62407e-18
8295.17307 3.68219e-18
8296.83066 3.74029e-18
8298.48825 3.70841e-18
8300.15589 3.67648e-18
8301.81348 3.50107e-18
8303.47107 3.32575e-18
8305.12866 3.37151e-18
8306.79630 3.41724e-18
8308.45389 3.38712e-18
8310.11148 3.35699e-18
8311.77911 3.29268e-18
8313.43670 3.22841e-18
8315.09429 3.29164e-18
8316.75188 3.35488e-18
8318.41952 3.45625e-18
8320.07711 3.55757e-18
8321.73470 3.48983e-18
8323.40233 3.42206e-18
8325.05992 3.22732e-18
8326.71751 3.03270e-18
8328.37510 3.10788e-18
8330.04274 3.18306e-18
8331.70033 3.25260e-18
8333.35792 3.32213e-18
8335.01551 3.33412e-18
8336.68315 3.34612e-18
8338.34074 3.37143e-18
8339.99833 3.39675e-18
8341.65592 3.45135e-18
8343.32355 3.50599e-18
8344.98114 3.66003e-18
8346.63873 3.81399e-18
8348.30637 3.71822e-18
8349.96396 3.62240e-18
8351.62155 3.42396e-18
8353.27914 3.22560e-18
8354.94677 3.27137e-18
8356.60436 3.31715e-18
8358.26195 3.41995e-18
8359.92959 3.52272e-18
8361.58718 3.50419e-18
8363.24477 3.48564e-18
8364.90236 3.38365e-18
8366.57000 3.28168e-18
8368.22759 3.20872e-18
8369.88518 3.13585e-18
8371.54277 3.28016e-18
8373.21040 3.42434e-18
8374.86799 3.20638e-18
8376.52558 2.98856e-18
8378.19322 3.19367e-18
8379.85081 3.39869e-18
8381.50840 3.29275e-18
8383.16599 3.18687e-18
8384.83362 3.24634e-18
8386.49121 3.30573e-18
8388.14880 3.16669e-18
8389.81644 3.02775e-18
8391.47403 3.16981e-18
8393.13162 3.31185e-18
8394.78921 3.43800e-18
8396.45685 3.56409e-18
8398.11444 3.49218e-18
8399.77203 3.42028e-18
8401.42962 3.36046e-18
8403.09725 3.30069e-18
8404.75484 3.35946e-18
8406.41243 3.41827e-18
8408.08007 3.58728e-18
8409.73766 3.75619e-18
8411.39525 3.60584e-18
8413.05284 3.45555e-18
8414.72047 3.46592e-18
8416.37806 3.47625e-18
8418.03565 3.38022e-18
8419.69324 3.28422e-18
8421.36088 3.26251e-18
8423.01847 3.24084e-18
8424.67606 3.28280e-18
8426.34370 3.32468e-18
8428.00129 3.12416e-18
8429.65888 2.92377e-18
8431.31647 3.08781e-18
8432.98410 3.25183e-18
8434.64169 3.37513e-18
8436.29928 3.49837e-18
8437.95687 3.47115e-18
8439.62451 3.44394e-18
8441.28210 3.39614e-18
8442.93969 3.34828e-18
8444.60732 3.13968e-18
8446.26491 2.93119e-18
8447.92250 3.01053e-18
8449.58009 3.08990e-18
8451.24773 3.27110e-18
8452.90532 3.45225e-18
8454.56291 3.50884e-18
8456.22050 3.56537e-18
8457.88814 3.43234e-18
8459.54573 3.29934e-18
8461.20332 3.23544e-18
8462.87095 3.17158e-18
8464.52854 3.22517e-18
8466.18613 3.27872e-18
8467.84372 3.29085e-18
8469.51136 3.30297e-18
8471.16895 3.29304e-18
8472.82654 3.28308e-18
8474.48413 3.25657e-18
8476.15176 3.23009e-18
8477.80935 3.30014e-18
8479.46694 3.37025e-18
8481.13458 3.57320e-18
8482.79217 3.77601e-18
8484.44976 3.61166e-18
8486.10735 3.44737e-18
8487.77499 3.43848e-18
8489.43258 3.42966e-18
8491.09017 3.63870e-18
8492.75780 3.84761e-18
8494.41539 3.67871e-18
8496.07298 3.50988e-18
8497.73057 3.54799e-18
8499.39821 3.58607e-18
8501.05580 3.59599e-18
8502.71339 3.60591e-18
8504.37098 3.60192e-18
8506.03861 3.59793e-18
8507.69620 3.57911e-18
8509.35379 3.56031e-18
8511.01138 3.60375e-18
8512.67902 3.64716e-18
8514.33661 3.60429e-18
8515.99420 3.56148e-18
8517.66184 3.66730e-18
8519.31943 3.77304e-18
8520.97702 3.67340e-18
8522.63461 3.57376e-18
8524.30224 3.49594e-18
8525.95983 3.41822e-18
8527.61742 3.60723e-18
8529.28506 3.79622e-18
8530.94265 3.92707e-18
8532.60024 4.05781e-18
8534.25783 3.85590e-18
8535.92546 3.65413e-18
8537.58305 3.84392e-18
8539.24064 4.03360e-18
8540.89823 3.91804e-18
8542.56587 3.80253e-18
8544.22346 3.79280e-18
8545.88105 3.78307e-18
8547.54869 3.79429e-18
8549.20628 3.80557e-18
8550.86387 3.98903e-18
8552.52146 4.17243e-18
8554.18909 4.16991e-18
8555.84668 4.16744e-18
8557.50427 4.26850e-18
8559.17191 4.36948e-18
8560.82950 4.27444e-18
8562.48709 4.17941e-18
8564.14468 4.10503e-18
8565.81231 4.03074e-18
8567.46990 4.15722e-18
8569.12749 4.28364e-18
8570.78508 4.27254e-18
8572.45272 4.26139e-18
8574.11031 4.12922e-18
8575.76790 3.99706e-18
8577.43554 3.91458e-18
8579.09313 3.83216e-18
8580.75072 3.93579e-18
8582.40831 4.03934e-18
8584.07594 3.99498e-18
8585.73353 3.95066e-18
8587.39112 4.04912e-18
8589.04871 4.14759e-18
8590.71635 4.26186e-18
8592.37394 4.37605e-18
8594.03153 4.25662e-18
8595.69916 4.13722e-18
8597.35675 4.07000e-18
8599.01434 4.00283e-18
8600.67193 4.03533e-18
8602.33957 4.06789e-18
8603.99716 4.26378e-18
8605.65475 4.45956e-18
8607.32239 4.38257e-18
8608.97998 4.30554e-18
8610.63757 4.19112e-18
8612.29516 4.07675e-18
8613.96279 4.08574e-18
8615.62038 4.09473e-18
8617.27797 4.11209e-18
8618.93556 4.12944e-18
8620.60320 4.11415e-18
8622.26079 4.09891e-18
8623.91838 4.27874e-18
8625.58601 4.45855e-18
8627.24360 4.54018e-18
8628.90119 4.62174e-18
8630.55878 4.48863e-18
8632.22642 4.35555e-18
8633.88401 4.26993e-18
8635.54160 4.18441e-18
8637.20924 4.33761e-18
8638.86683 4.49079e-18
8640.52442 4.56039e-18
8642.18201 4.62987e-18
8643.84964 4.32715e-18
8645.50723 4.02457e-18
8647.16482 4.07506e-18
8648.82241 4.12560e-18
8650.49005 4.32208e-18
8652.14764 4.51847e-18
8653.80523 4.51828e-18
8655.46282 4.51804e-18
8657.13045 4.44284e-18
8658.78804 4.36769e-18
8660.44563 4.44248e-18
8662.11327 4.51718e-18
8663.77086 4.35340e-18
8665.42845 4.18969e-18
8667.08604 4.22788e-18
8668.75368 4.26604e-18
8670.41127 4.25316e-18
8672.06886 4.24029e-18
8673.73649 4.28558e-18
8675.39408 4.33081e-18
8677.05167 4.22538e-18
8678.70926 4.12003e-18
8680.37690 4.19696e-18
8682.03449 4.27386e-18
8683.69208 4.30812e-18
8685.34967 4.34231e-18
8687.01730 4.19520e-18
8688.67489 4.04819e-18
8690.33248 4.18673e-18
8691.99007 4.32524e-18
8693.65771 4.37793e-18
8695.31530 4.43056e-18
8696.97289 4.32241e-18
8698.64053 4.21431e-18
8700.29812 4.24270e-18
8701.95571 4.27112e-18
8703.61330 4.35118e-18
8705.28093 4.43117e-18
8706.93852 4.35609e-18
8708.59611 4.28100e-18
8710.26375 4.20586e-18
8711.92134 4.13079e-18
8713.57893 4.22742e-18
8715.23652 4.32401e-18
8716.90415 4.27088e-18
8718.56174 4.21774e-18
8720.21933 4.14728e-18
8721.87692 4.07684e-18
8723.54456 4.10298e-18
8725.20215 4.12914e-18
8726.85974 4.20626e-18
8728.52738 4.28339e-18
8730.18497 4.38850e-18
8731.84256 4.49351e-18
8733.50015 4.36740e-18
8735.16778 4.24138e-18
8736.82537 4.32372e-18
8738.48296 4.40600e-18
8740.14055 4.30964e-18
8741.80819 4.21333e-18
8743.46578 4.30724e-18
8745.12337 4.40103e-18
8746.79100 4.19039e-18
8748.44859 3.97985e-18
8750.10618 4.05654e-18
8751.76377 4.13331e-18
8753.43141 4.43513e-18
8755.08900 4.73684e-18
8756.74659 4.76516e-18
8758.40418 4.79335e-18
8760.07182 4.46505e-18
8761.72941 4.13686e-18
8763.38700 4.09190e-18
8765.05463 4.04697e-18
8766.71222 4.10303e-18
8768.36981 4.15905e-18
8770.02740 4.09532e-18
8771.69504 4.03163e-18
8773.35263 4.03946e-18
8775.01022 4.04727e-18
8776.67785 4.03229e-18
8778.33544 4.01731e-18
8779.99303 4.01466e-18
8781.65062 4.01203e-18
8783.31826 4.05734e-18
8784.97585 4.10256e-18
8786.63344 3.91866e-18
8788.29103 3.73481e-18
8789.95867 3.66053e-18
8791.61626 3.58636e-18
8793.27385 3.83108e-18
8794.94148 4.07566e-18
8796.59907 3.95868e-18
8798.25666 3.84174e-18
8799.91425 3.81829e-18
8801.58189 3.79484e-18
8803.23948 3.77458e-18
8804.89707 3.75432e-18
8806.56470 3.76762e-18
8808.22229 3.78093e-18
8809.87988 3.84326e-18
8811.53747 3.90557e-18
8813.20511 3.91483e-18
8814.86270 3.92410e-18
8816.52029 3.97220e-18
8818.17788 4.02028e-18
8819.84552 4.04111e-18
8821.50311 4.06195e-18
8823.16070 4.05537e-18
8824.82833 4.04880e-18
8826.48592 4.04549e-18
8828.14351 4.04202e-18
8829.80110 3.68847e-18
8831.46874 3.33517e-18
8833.12633 3.65132e-18
8834.78392 3.96731e-18
8836.44151 3.89210e-18
8838.10914 3.81691e-18
8839.76673 3.81087e-18
8841.42432 3.80481e-18
8843.09196 3.73448e-18
8844.74955 3.66417e-18
8846.40714 3.65960e-18
8848.06473 3.65505e-18
8849.73237 3.65648e-18
8851.38996 3.65795e-18
8853.04755 3.74520e-18
8854.71518 3.83235e-18
8856.37277 3.72557e-18
8858.03036 3.61881e-18
8859.68795 3.54512e-18
8861.35559 3.47145e-18
8863.01318 3.46470e-18
8864.67077 3.45798e-18
8866.32836 3.51330e-18
8867.99599 3.56863e-18
8869.65358 3.65090e-18
8871.31117 3.73314e-18
8872.97881 3.72921e-18
8874.63640 3.72523e-18
8876.29399 3.59092e-18
8877.95158 3.45671e-18
8879.61922 3.56613e-18
8881.27681 3.67549e-18
8882.93440 3.63766e-18
8884.60203 3.59989e-18
8886.25962 3.70039e-18
8887.91721 3.80086e-18
8889.57480 3.81928e-18
8891.24244 3.83761e-18
8892.90003 3.63248e-18
8894.55762 3.42745e-18
8896.21521 3.50234e-18
8897.88284 3.57720e-18
8899.54043 3.57828e-18
8901.19802 3.57933e-18
8902.85561 3.55834e-18
8904.52325 3.53734e-18
8906.18084 3.52359e-18
8907.83843 3.50979e-18
8909.50607 3.36467e-18
8911.16366 3.21962e-18
8912.82125 3.25622e-18
8914.47884 3.29277e-18
8916.14647 3.18835e-18
8917.80406 3.08405e-18
8919.46165 3.23071e-18
8921.11924 3.37729e-18
8922.78688 3.33311e-18
8924.44447 3.28905e-18
8926.10206 3.53928e-18
8927.76969 3.78939e-18
8929.42728 3.74991e-18
8931.08487 3.71030e-18
8932.74246 3.38262e-18
8934.41010 3.05508e-18
8936.06769 3.03751e-18
8937.72528 3.02002e-18
8939.38287 3.20534e-18
8941.05051 3.39050e-18
8942.70810 3.17315e-18
8944.36569 2.95591e-18
8946.03332 3.01470e-18
8947.69091 3.07342e-18
8949.34850 2.99757e-18
8951.00609 2.92179e-18
8952.67373 3.05555e-18
8954.33132 3.18917e-18
8955.98891 2.96615e-18
8957.64650 2.74328e-18
8959.31413 2.86658e-18
8960.97172 2.98986e-18
8962.62931 3.07836e-18
8964.29695 3.16687e-18
8965.95454 3.29781e-18
8967.61213 3.42866e-18
8969.26972 3.33641e-18
8970.93736 3.24418e-18
8972.59495 3.22863e-18
8974.25254 3.21307e-18
8975.92017 3.18582e-18
8977.57776 3.15855e-18
8979.23535 3.07944e-18
8980.89294 3.00041e-18
8982.56058 3.07100e-18
8984.21817 3.14158e-18
8985.87576 3.23115e-18
8987.53335 3.32063e-18
8989.20098 3.17495e-18
8990.85857 3.02931e-18
8992.51616 2.98089e-18
8994.18380 2.93251e-18
8995.84139 2.99332e-18
8997.49898 3.05412e-18
8999.15657 3.11072e-18
9000.82421 3.16735e-18
9002.48180 3.26775e-18
9004.13939 3.36810e-18
9005.79698 3.32688e-18
9007.46461 3.28568e-18
9009.12220 3.26475e-18
9010.77979 3.24386e-18
9012.44743 3.33668e-18
9014.10502 3.42941e-18
9015.76261 3.25771e-18
9017.42020 3.08611e-18
9019.08783 3.11790e-18
9020.74542 3.14964e-18
9022.40301 3.06099e-18
9024.07065 2.97237e-18
9025.72824 2.99843e-18
9027.38583 3.02449e-18
9029.04342 3.08789e-18
9030.71106 3.15133e-18
9032.36865 3.28802e-18
9034.02624 3.42458e-18
9035.68383 3.24425e-18
9037.35146 3.06397e-18
9039.00905 3.00826e-18
9040.66664 2.95260e-18
9042.33428 3.05627e-18
9043.99187 3.15984e-18
9045.64946 3.01950e-18
9047.30705 2.87916e-18
9048.97468 2.73121e-18
9050.63227 2.58341e-18
9052.28986 2.81107e-18
9053.95750 3.03864e-18
9055.61509 3.07205e-18
9057.27268 3.10538e-18
9058.93027 2.93896e-18
9060.59791 2.77260e-18
9062.25550 2.73692e-18
9063.91309 2.70128e-18
9065.57068 2.73684e-18
9067.23831 2.77235e-18
9068.89590 2.65418e-18
9070.55349 2.53611e-18
9072.21108 2.66773e-18
9073.87872 2.79929e-18
9075.53631 2.80141e-18
9077.19390 2.80353e-18
9078.86153 2.83001e-18
9080.51912 2.85638e-18
9082.17671 2.63017e-18
9083.83430 2.40413e-18
9085.50194 2.57084e-18
9087.15953 2.73753e-18
9088.81712 2.84424e-18
9090.48476 2.95085e-18
9092.14235 2.85041e-18
9093.79994 2.75013e-18
9095.45753 2.94736e-18
9097.12516 3.14442e-18
9098.78275 2.92836e-18
9100.44034 2.71245e-18
9102.09793 2.84697e-18
9103.76557 2.98155e-18
9105.42316 3.24612e-18
9107.08075 3.51052e-18
9108.74838 3.37006e-18
9110.40597 3.22959e-18
9112.06356 3.03998e-18
9113.72115 2.85045e-18
9115.38879 2.79444e-18
9117.04638 2.73850e-18
9118.70397 2.80363e-18
9120.36156 2.86873e-18
9122.02920 2.83523e-18
9123.68679 2.80176e-18
9125.34438 2.86626e-18
9127.01201 2.93075e-18
9128.66960 3.01504e-18
9130.32719 3.09931e-18
9131.98478 3.14240e-18
9133.65242 3.18547e-18
9135.31001 3.17971e-18
9136.96760 3.17397e-18
9138.63523 3.22878e-18
9140.29282 3.28353e-18
9141.95041 3.17844e-18
9143.60800 3.07339e-18
9145.27564 3.09692e-18
9146.93323 3.12041e-18
9148.59082 3.07557e-18
9150.24841 3.03069e-18
9151.91605 2.90571e-18
9153.57364 2.78086e-18
9155.23123 3.00419e-18
9156.89886 3.22743e-18
9158.55645 3.25169e-18
9160.21404 3.27591e-18
9161.87163 3.21789e-18
9163.53927 3.15981e-18
9165.19686 2.98246e-18
9166.85445 2.80522e-18
9168.51204 2.93163e-18
9170.17967 3.05800e-18
9171.83726 3.06304e-18
9173.49485 3.06808e-18
9175.15244 3.03384e-18
9176.82008 2.99967e-18
9178.47767 3.15847e-18
9180.13526 3.31722e-18
9181.80290 3.36376e-18
9183.46049 3.41025e-18
9185.11808 3.34939e-18
9186.77567 3.28857e-18
9188.44330 3.32744e-18
9190.10089 3.36628e-18
9191.75848 3.31944e-18
9193.42612 3.27257e-18
9195.08371 3.13838e-18
9196.74130 3.00432e-18
9198.39889 3.19781e-18
9200.06652 3.39122e-18
9201.72411 3.39839e-18
9203.38170 3.40548e-18
9205.03929 3.24616e-18
9206.70693 3.08690e-18
9208.36452 3.08269e-18
9210.02211 3.07855e-18
9211.68975 3.21307e-18
9213.34734 3.34752e-18
9215.00493 3.31052e-18
9216.66252 3.27351e-18
9218.33015 3.21298e-18
9219.98774 3.15245e-18
9221.64533 3.08834e-18
9223.31297 3.02427e-18
9224.97056 3.07314e-18
9226.62815 3.12193e-18
9228.28574 2.94682e-18
9229.95337 2.77189e-18
9231.61096 3.05511e-18
9233.26855 3.33825e-18
9234.92614 3.47525e-18
9236.59378 3.61209e-18
9238.25137 3.40550e-18
9239.90896 3.19895e-18
9241.56655 3.09249e-18
9243.23419 2.98616e-18
9244.89178 3.19560e-18
9246.54937 3.40489e-18
9248.21700 3.24868e-18
9249.87459 3.09256e-18
9251.53218 3.10373e-18
9253.18977 3.11488e-18
9254.85741 3.07950e-18
9256.51500 3.04416e-18
9258.17259 3.08667e-18
9259.84022 3.12919e-18
9261.49781 3.20691e-18
9263.15540 3.28458e-18
9264.81299 3.22745e-18
9266.48063 3.17025e-18
9268.13822 2.96949e-18
9269.79581 2.76892e-18
9271.45340 2.99910e-18
9273.12104 3.22913e-18
9274.77863 3.11972e-18
9276.43622 3.01042e-18
9278.10385 3.17605e-18
9279.76144 3.34155e-18
9281.41903 3.17925e-18
9283.07662 3.01703e-18
9284.74426 3.02132e-18
9286.40185 3.02564e-18
9288.05944 3.10205e-18
9289.71703 3.17833e-18
9291.38466 2.92670e-18
9293.04225 2.67520e-18
9294.69984 2.75016e-18
9296.36748 2.82514e-18
9298.02507 2.93437e-18
9299.68266 3.04356e-18
9301.34025 3.04932e-18
9303.00789 3.05506e-18
9304.66548 3.03734e-18
9306.32307 3.01959e-18
9307.99070 2.89910e-18
9309.64829 2.77864e-18
9311.30588 2.72205e-18
9312.96347 2.66552e-18
9314.63111 2.71918e-18
9316.28870 2.77276e-18
9317.94629 2.60166e-18
9319.60388 2.43055e-18
9321.27151 2.20118e-18
9322.92910 1.97203e-18
9324.58669 2.21666e-18
9326.25433 2.46119e-18
9327.91192 2.49493e-18
9329.56951 2.52868e-18
9331.22710 2.60807e-18
9332.89474 2.68738e-18
9334.55233 2.55337e-18
9336.20992 2.41944e-18
9337.87755 2.46642e-18
9339.53514 2.51340e-18
9341.19273 2.54003e-18
9342.85032 2.56671e-18
9344.51796 2.70910e-18
9346.17555 2.85145e-18
9347.83314 2.88551e-18
9349.49073 2.91941e-18
9351.15836 2.55961e-18
9352.81595 2.19996e-18
9354.47354 2.13663e-18
9356.13113 2.07349e-18
9357.79877 2.41244e-18
9359.45636 2.75124e-18
9361.11395 2.71951e-18
9362.78159 2.68786e-18
9364.43918 2.83812e-18
9366.09677 2.98832e-18
9367.75436 2.98818e-18
9369.42199 2.98803e-18
9371.07958 2.96546e-18
9372.73717 2.94273e-18
9374.40481 2.50997e-18
9376.06240 2.07740e-18
9377.71999 2.08857e-18
9379.37758 2.09980e-18
9381.04521 2.28022e-18
9382.70280 2.46055e-18
9384.36039 2.46940e-18
9386.01798 2.47823e-18
9387.68562 2.47974e-18
9389.34321 2.48123e-18
9391.00080 2.47146e-18
9392.66844 2.46176e-18
9394.32603 2.57550e-18
9395.98362 2.68914e-18
9397.64121 2.57262e-18
9399.30884 2.45614e-18
9400.96643 2.46318e-18
9402.62402 2.47021e-18
9404.28161 2.50299e-18
9405.94925 2.53572e-18
9407.60684 2.47005e-18
9409.26443 2.40447e-18
9410.93206 2.53476e-18
9412.58965 2.66499e-18
9414.24724 2.68951e-18
9415.90483 2.71398e-18
9417.57247 2.61087e-18
9419.23006 2.50779e-18
9420.88765 2.47814e-18
9422.54524 2.44845e-18
9424.21288 2.34185e-18
9425.87047 2.23541e-18
9427.52806 2.52493e-18
9429.19569 2.81425e-18
9430.85328 2.63870e-18
9432.51087 2.46319e-18
9434.16846 2.40724e-18
9435.83610 2.35117e-18
9437.49369 2.04269e-18
9439.15128 1.73428e-18
9440.80887 1.62022e-18
9442.47650 1.50643e-18
9444.13409 2.01254e-18
9445.79168 2.51842e-18
9447.45932 2.50918e-18
9449.11691 2.49996e-18
9450.77450 2.56249e-18
9452.43209 2.62493e-18
9454.09973 2.47374e-18
9455.75732 2.32255e-18
9457.41491 2.13702e-18
9459.07250 1.95161e-18
9460.74013 2.00166e-18
9462.39772 2.05176e-18
9464.05531 2.22924e-18
9465.72295 2.40654e-18
9467.38054 2.16929e-18
9469.03813 1.93221e-18
9470.69572 2.10493e-18
9472.36335 2.27765e-18
9474.02094 2.47234e-18
9475.67853 2.66699e-18
9477.34617 2.76695e-18
9479.00376 2.86681e-18
9480.66135 2.75861e-18
9482.31894 2.65047e-18
9483.98658 2.65300e-18
9485.64417 2.65547e-18
9487.30176 2.47609e-18
9488.95935 2.29679e-18
9490.62698 2.27802e-18
9492.28457 2.25924e-18
9493.94216 2.20076e-18
9495.60980 2.14244e-18
9497.26739 2.42772e-18
9498.92498 2.71282e-18
9500.58257 2.58683e-18
9502.25020 2.46091e-18
9503.90779 2.49831e-18
9505.56538 2.53573e-18
9507.23302 2.59473e-18
9508.89061 2.65361e-18
9510.54820 2.46440e-18
9512.20579 2.27522e-18
9513.87343 2.19378e-18
9515.53102 2.11234e-18
9517.18861 2.07143e-18
9518.84620 2.03066e-18
9520.51383 2.28992e-18
9522.17142 2.54900e-18
9523.82901 2.39147e-18
9525.49665 2.23405e-18
9527.15424 2.29343e-18
9528.81183 2.35274e-18
9530.46942 2.26374e-18
9532.13705 2.17482e-18
9533.79464 2.27884e-18
9535.45223 2.38282e-18
9537.10982 2.40713e-18
9538.77746 2.43146e-18
9540.43505 2.48924e-18
9542.09264 2.54698e-18
9543.76028 2.51975e-18
9545.41787 2.49244e-18
9547.07546 2.29261e-18
9548.73305 2.09282e-18
9550.40068 1.99085e-18
9552.05827 1.88914e-18
9553.71586 2.38230e-18
9555.37345 2.87515e-18
9557.04109 2.65015e-18
9558.69868 2.42522e-18
9560.35627 2.39301e-18
9562.02390 2.36087e-18
9563.68149 2.45692e-18
9565.33908 2.55287e-18
9566.99667 2.42033e-18
9568.66431 2.28786e-18
9570.32190 2.30697e-18
9571.97949 2.32612e-18
9573.64713 2.38505e-18
9575.30472 2.44388e-18
9576.96231 2.25863e-18
9578.61990 2.07346e-18
9580.28753 2.07317e-18
9581.94512 2.07291e-18
9583.60271 2.13876e-18
9585.27035 2.20455e-18
9586.92794 2.12212e-18
9588.58553 2.03971e-18
9590.24312 2.00998e-18
9591.91075 1.98035e-18
9593.56834 2.16704e-18
9595.22593 2.35362e-18
9596.88352 2.26697e-18
9598.55116 2.18043e-18
9600.20875 2.33375e-18
9601.86634 2.48700e-18
9603.52393 2.48297e-18
9605.19157 2.47898e-18
9606.84916 2.58509e-18
9608.50675 2.69103e-18
9610.17438 2.41180e-18
9611.83197 2.13270e-18
9613.48956 2.12226e-18
9615.14715 2.11182e-18
9616.81479 2.08891e-18
9618.47238 2.06602e-18
9620.12997 2.10432e-18
9621.79760 2.14263e-18
9623.45519 2.19151e-18
9625.11278 2.24039e-18
9626.77037 2.28702e-18
9628.43801 2.33365e-18
9630.09560 2.39505e-18
9631.75319 2.45642e-18
9633.41078 2.45029e-18
9635.07842 2.44421e-18
9636.73601 2.57466e-18
9638.39360 2.70496e-18
9640.06123 2.54719e-18
9641.71882 2.38951e-18
9643.37641 2.44410e-18
9645.03400 2.49857e-18
9646.70164 2.28005e-18
9648.35923 2.06170e-18
9650.01682 2.20416e-18
9651.67441 2.34654e-18
9653.34204 2.32723e-18
9654.99963 2.30787e-18
9656.65722 2.14739e-18
9658.31481 1.98702e-18
9659.98245 2.05361e-18
9661.64004 2.12029e-18
9663.29763 2.34694e-18
9664.96527 2.57337e-18
9666.62286 2.26629e-18
9668.28045 1.95944e-18
9669.93804 2.12057e-18
9671.60567 2.28170e-18
9673.26326 2.44651e-18
9674.92085 2.61125e-18
9676.58849 2.65416e-18
9678.24608 2.69699e-18
9679.90367 2.57758e-18
9681.56126 2.45834e-18
9683.22889 2.71483e-18
9684.88648 2.97113e-18
9686.54407 2.77051e-18
9688.20166 2.56986e-18
9689.86930 2.28843e-18
9691.52689 2.00725e-18
9693.18448 2.27557e-18
9694.85212 2.54378e-18
9696.50971 2.57861e-18
9698.16730 2.61351e-18
9699.82489 2.80296e-18
9701.49252 2.99208e-18
9703.15011 2.45073e-18
9704.80770 1.90968e-18
9706.46529 2.02802e-18
9708.13293 2.14633e-18
9709.79052 2.19599e-18
9711.44811 2.24554e-18
9713.11574 2.00856e-18
9714.77333 1.77179e-18
9716.43092 2.01278e-18
9718.08851 2.25375e-18
9719.75615 2.47307e-18
9721.41374 2.69219e-18
9723.07133 2.48034e-18
9724.73897 2.26862e-18
9726.39656 2.31373e-18
9728.05415 2.35885e-18
9729.71174 2.42881e-18
9731.37937 2.49867e-18
9733.03696 2.35845e-18
9734.69455 2.21831e-18
9736.35214 2.27933e-18
9738.01978 2.34036e-18
9739.67737 2.44169e-18
9741.33496 2.54296e-18
9743.00259 2.54127e-18
9744.66018 2.53953e-18
9746.31777 2.40906e-18
9747.97536 2.27860e-18
9749.64300 2.16745e-18
9751.30059 2.05645e-18
9752.95818 2.28338e-18
9754.62582 2.51011e-18
9756.28341 2.32837e-18
9757.94100 2.14674e-18
9759.59859 2.23222e-18
9761.26622 2.31768e-18
9762.92381 2.38093e-18
9764.58140 2.44413e-18
9766.23899 2.40374e-18
9767.90663 2.36343e-18
9769.56422 2.47159e-18
9771.22181 2.57967e-18
9772.87940 2.49390e-18
9774.54703 2.40813e-18
9776.20462 2.27539e-18
9777.86221 2.14265e-18
9779.52985 2.03071e-18
9781.18744 1.91891e-18
9782.84503 2.11964e-18
9784.50262 2.32027e-18
9786.17026 2.27363e-18
9787.82785 2.22726e-18
9789.48544 2.77869e-18
9791.15307 3.32973e-18
9792.81066 3.05139e-18
9794.46825 2.77313e-18
9796.12584 2.63177e-18
9797.79348 2.49052e-18
9799.45107 2.57502e-18
9801.10866 2.65925e-18
9802.76625 2.18260e-18
9804.43388 1.70611e-18
9806.09147 1.54972e-18
9807.74906 1.39358e-18
9809.41670 1.75796e-18
9811.07429 2.12221e-18
9812.73188 2.19797e-18
9814.38947 2.27372e-18
9816.05711 2.35131e-18
9817.71470 2.42883e-18
9819.37229 2.36907e-18
9821.03992 2.30927e-18
9822.69751 2.12672e-18
9824.35510 1.94438e-18
9826.01269 2.21443e-18
9827.68033 2.48429e-18
9829.33792 2.33548e-18
9830.99551 2.18679e-18
9832.65310 2.26938e-18
9834.32073 2.35189e-18
9835.97832 2.28511e-18
9837.63591 2.21829e-18
9839.30355 2.07678e-18
9840.96114 1.93546e-18
9842.61873 2.20402e-18
9844.27632 2.47259e-18
9845.94396 2.75490e-18
9847.60155 3.03701e-18
9849.25914 2.90724e-18
9850.91673 2.77746e-18
9852.58436 2.64586e-18
9854.24195 2.51426e-18
9855.89954 2.39766e-18
9857.56718 2.28112e-18
9859.22477 2.26186e-18
9860.88236 2.24260e-18
9862.53995 2.23691e-18
9864.20758 2.23141e-18
9865.86517 2.66913e-18
9867.52276 3.10659e-18
9869.18035 2.99374e-18
9870.84799 2.88100e-18
9872.50558 2.98380e-18
9874.16317 3.08667e-18
9875.83081 3.36728e-18
9877.48840 3.64753e-18
9879.14599 3.17123e-18
9880.80358 2.69495e-18
9882.47121 2.23777e-18
9884.12880 1.78097e-18
9885.78639 2.15109e-18
9887.44398 2.52113e-18
9889.11162 2.71832e-18
9890.76921 2.91543e-18
9892.42680 2.97553e-18
9894.09443 3.03564e-18
9895.75202 3.12710e-18
9897.40961 3.21854e-18
9899.06720 3.26728e-18
9900.73484 3.31574e-18
9902.39243 2.73886e-18
9904.05002 2.16223e-18
9905.70761 2.10647e-18
9907.37525 2.05068e-18
9909.03284 1.96339e-18
9910.69043 1.87614e-18
9912.35806 1.89872e-18
9914.01565 1.92144e-18
9915.67324 2.24525e-18
9917.33083 2.56885e-18
9918.99847 2.45688e-18
9920.65606 2.34501e-18
9922.31365 2.39562e-18
9923.98128 2.44624e-18
9925.63887 2.51063e-18
9927.29646 2.57505e-18
9928.95405 2.69746e-18
9930.62169 2.81955e-18
9932.27928 2.25584e-18
9933.93687 1.69233e-18
9935.59446 1.53386e-18
9937.26210 1.37573e-18
9938.91969 1.90767e-18
9940.57728 2.43945e-18
9942.23487 2.65740e-18
9943.90250 2.87525e-18
9945.56009 2.87681e-18
9947.21768 2.87820e-18
9948.88532 2.48029e-18
9950.54291 2.08279e-18
9952.20050 2.54180e-18
9953.85809 3.00060e-18
9955.52572 2.99351e-18
9957.18331 2.98627e-18
9958.84090 2.66530e-18
9960.50854 2.34443e-18
9962.16613 2.20449e-18
9963.82372 2.06458e-18
9965.48131 1.98452e-18
9967.14895 1.90441e-18
9968.80654 1.71121e-18
9970.46413 1.51806e-18
9972.12172 1.42578e-18
9973.78935 1.33354e-18
9975.44694 1.34597e-18
9977.10453 1.35858e-18
9978.77217 1.73764e-18
9980.42976 2.11651e-18
9982.08735 2.09708e-18
9983.74494 2.07772e-18
9985.41257 2.22080e-18
9987.07016 2.36390e-18
9988.72775 2.58732e-18
9990.39539 2.81060e-18
9992.05298 2.73648e-18
9993.71057 2.66225e-18
9995.36816 2.39630e-18
9997.03580 2.13025e-18
9998.69339 1.64794e-18
