# wavelength flux
3485.00480 1.31510e-17
3486.47202 1.33084e-17
3487.93924 1.66307e-17
3489.40645 1.31699e-17
3490.88386 1.42821e-17
3492.35107 1.58135e-17
3493.81829 1.13395e-17
3495.28550 1.46724e-17
3496.76291 1.44832e-17
3498.23013 1.28168e-17
3499.69734 1.02633e-17
3501.17475 1.23427e-17
3502.64196 1.46328e-17
3504.10918 1.70544e-17
3505.57640 1.81411e-17
3507.05380 1.55456e-17
3508.52102 1.33777e-17
3509.98823 1.48923e-17
3511.45545 1.34559e-17
3512.93285 1.13023e-17
3514.40007 1.36962e-17
3515.86728 1.64444e-17
3517.34469 1.55732e-17
3518.81191 1.54977e-17
3520.27912 1.98373e-17
3521.74634 1.73724e-17
3523.22374 1.39891e-17
3524.69096 1.88037e-17
3526.15817 2.01028e-17
3527.62539 1.85677e-17
3529.10280 2.09662e-17
3530.57001 1.95827e-17
3532.03723 1.84675e-17
3533.51463 1.85682e-17
3534.98185 1.78264e-17
3536.44906 1.99770e-17
3537.91628 1.92160e-17
3539.39369 2.13739e-17
3540.86090 1.74828e-17
3542.32812 1.50091e-17
3543.79533 1.73647e-17
3545.27274 1.47104e-17
3546.73995 1.81724e-17
3548.20717 1.69845e-17
3549.68458 1.55045e-17
3551.15179 1.61713e-17
3552.61901 1.20892e-17
3554.08622 1.75208e-17
3555.56363 1.68713e-17
3557.03084 1.87990e-17
3558.49806 1.71894e-17
3559.96528 1.46031e-17
3561.44268 1.67654e-17
3562.90990 1.53089e-17
3564.37711 1.54518e-17
3565.85452 1.54239e-17
3567.32173 2.04070e-17
3568.78895 1.86181e-17
3570.25617 1.67440e-17
3571.73357 1.71628e-17
3573.20079 1.46390e-17
3574.66800 1.64470e-17
3576.13522 1.77043e-17
3577.61262 1.67820e-17
3579.07984 1.44008e-17
3580.54706 1.62891e-17
3582.02446 1.46804e-17
3583.49168 1.48104e-17
3584.95889 1.49122e-17
3586.42611 1.27986e-17
3587.90351 1.27310e-17
3589.37073 1.59815e-17
3590.83795 1.65001e-17
3592.30516 1.69498e-17
3593.78257 1.78406e-17
3595.24978 1.59780e-17
3596.71700 1.56738e-17
3598.19440 1.75673e-17
3599.66162 1.72656e-17
3601.12884 1.41662e-17
3602.59605 1.42289e-17
3604.07346 1.23612e-17
3605.54067 1.55756e-17
3607.00789 1.37107e-17
3608.47511 1.37121e-17
3609.95251 1.74644e-17
3611.41973 1.44226e-17
3612.88694 1.36155e-17
3614.36435 1.18077e-17
3615.83156 1.16569e-17
3617.29878 1.69473e-17
3618.76600 1.60677e-17
3620.24340 1.66147e-17
3621.71062 1.46609e-17
3623.17783 1.74451e-17
3624.64505 1.58566e-17
3626.12245 1.61669e-17
3627.58967 1.70387e-17
3629.05689 1.57683e-17
3630.53429 1.47541e-17
3632.00151 1.53443e-17
3633.46872 1.64324e-17
3634.93594 1.76028e-17
3636.41334 1.43616e-17
3637.88056 1.57920e-17
3639.34778 1.74156e-17
3640.81499 1.38061e-17
3642.29240 1.67001e-17
3643.75961 2.04878e-17
3645.22683 1.75902e-17
3646.70423 1.46146e-17
3648.17145 1.41403e-17
3649.63867 1.71263e-17
3651.10588 1.82788e-17
3652.58329 1.64029e-17
3654.05050 1.65520e-17
3655.51772 1.71791e-17
3656.98493 1.69493e-17
3658.46234 1.62824e-17
3659.92956 1.65826e-17
3661.39677 1.55906e-17
3662.87418 1.72593e-17
3664.34139 1.81693e-17
3665.80861 1.51508e-17
3667.27582 1.45243e-17
3668.75323 1.57473e-17
3670.22045 1.52145e-17
3671.68766 1.49229e-17
3673.15488 1.38258e-17
3674.63228 1.45833e-17
3676.09950 1.43620e-17
3677.56671 1.41927e-17
3679.04412 1.56852e-17
3680.51134 1.64646e-17
3681.97855 1.65367e-17
3683.44577 1.61475e-17
3684.92317 1.40997e-17
3686.39039 1.44529e-17
3687.85760 1.63257e-17
3689.33501 1.70151e-17
3690.80223 1.61538e-17
3692.26944 1.51519e-17
3693.73666 1.33990e-17
3695.21406 1.42803e-17
3696.68128 1.87529e-17
3698.14849 1.59188e-17
3699.61571 1.81369e-17
3701.09312 1.75407e-17
3702.56033 1.53552e-17
3704.02755 1.71767e-17
3705.49476 1.67431e-17
3706.97217 1.74838e-17
3708.43938 1.59207e-17
3709.90660 1.38588e-17
3711.38401 1.42082e-17
3712.85122 1.51528e-17
3714.31844 1.58248e-17
3715.78565 1.66504e-17
3717.26306 1.29732e-17
3718.73027 1.36882e-17
3720.19749 1.59222e-17
3721.67490 1.25166e-17
3723.14211 1.05430e-17
3724.60933 1.34039e-17
3726.07654 1.44132e-17
3727.55395 1.34873e-17
3729.02116 1.27632e-17
3730.48838 1.36559e-17
3731.95560 1.19294e-17
3733.43300 1.12153e-17
3734.90022 1.39677e-17
3736.36743 1.48387e-17
3737.84484 1.28074e-17
3739.31205 1.20050e-17
3740.77927 1.35328e-17
3742.24649 1.36315e-17
3743.72389 1.50573e-17
3745.19111 1.17443e-17
3746.65832 1.12915e-17
3748.12554 1.30589e-17
3749.60295 1.28748e-17
3751.07016 1.22659e-17
3752.53738 1.23924e-17
3754.01478 1.33854e-17
3755.48200 1.22373e-17
3756.94921 1.30873e-17
3758.41643 1.37544e-17
3759.89383 1.42385e-17
3761.36105 1.41348e-17
3762.82827 1.39834e-17
3764.29548 1.29638e-17
3765.77289 1.41448e-17
3767.24010 1.53227e-17
3768.70732 1.35986e-17
3770.18472 1.44060e-17
3771.65194 1.35207e-17
3773.11916 1.37368e-17
3774.58637 1.46433e-17
3776.06378 1.33956e-17
3777.53099 1.41943e-17
3778.99821 1.61399e-17
3780.46543 1.58711e-17
3781.94283 1.53688e-17
3783.41005 1.64819e-17
3784.87726 1.46885e-17
3786.35467 1.38898e-17
3787.82188 1.46651e-17
3789.28910 1.69832e-17
3790.75632 1.57119e-17
3792.23372 1.40346e-17
3793.70094 1.51983e-17
3795.16815 1.64076e-17
3796.63537 1.54947e-17
3798.11277 1.59227e-17
3799.57999 1.57847e-17
3801.04721 1.49662e-17
3802.52461 1.52639e-17
3803.99183 1.38355e-17
3805.45904 1.35214e-17
3806.92626 1.37412e-17
3808.40366 1.37389e-17
3809.87088 1.49769e-17
3811.33810 1.49063e-17
3812.80531 1.44983e-17
3814.28272 1.24936e-17
3815.74993 1.35016e-17
3817.21715 1.41613e-17
3818.69455 1.18381e-17
3820.16177 1.14420e-17
3821.62899 1.08062e-17
3823.09620 1.03147e-17
3824.57361 1.26798e-17
3826.04082 1.39344e-17
3827.50804 1.32707e-17
3828.97525 1.15211e-17
3830.45266 1.20792e-17
3831.91988 1.20681e-17
3833.38709 1.03435e-17
3834.86450 1.16259e-17
3836.33171 1.13627e-17
3837.79893 1.08188e-17
3839.26615 1.04393e-17
3840.74355 9.80242e-18
3842.21077 8.91330e-18
3843.67798 9.37169e-18
3845.14520 9.95246e-18
3846.62260 9.14838e-18
3848.08982 9.24963e-18
3849.55703 1.06368e-17
3851.03444 1.05303e-17
3852.50166 8.67331e-18
3853.96887 8.14558e-18
3855.43609 8.37503e-18
3856.91349 8.63476e-18
3858.38071 9.04127e-18
3859.84792 8.13646e-18
3861.31514 7.09087e-18
3862.79255 7.30142e-18
3864.25976 9.10786e-18
3865.72698 7.78567e-18
3867.20438 5.10473e-18
3868.67160 6.86947e-18
3870.13881 8.41942e-18
3871.60603 6.20489e-18
3873.08344 7.30888e-18
3874.55065 8.52044e-18
3876.01787 6.00422e-18
3877.48508 7.15116e-18
3878.96249 8.96735e-18
3880.42970 7.03171e-18
3881.89692 6.27657e-18
3883.37433 7.63553e-18
3884.84154 7.97990e-18
3886.30876 8.22796e-18
3887.77597 8.15188e-18
3889.25338 6.97769e-18
3890.72059 6.58532e-18
3892.18781 6.59939e-18
3893.65503 6.55944e-18
3895.13243 7.55725e-18
3896.59965 6.85308e-18
3898.06686 7.28498e-18
3899.54427 8.04927e-18
3901.01148 7.11767e-18
3902.47870 7.53115e-18
3903.94592 6.64228e-18
3905.42332 8.25623e-18
3906.89054 9.76731e-18
3908.35775 9.15674e-18
3909.82497 8.79511e-18
3911.30237 8.57552e-18
3912.76959 8.56124e-18
3914.23681 8.52813e-18
3915.71421 9.93486e-18
3917.18143 9.17775e-18
3918.64864 1.01674e-17
3920.11586 9.79151e-18
3921.59326 9.39562e-18
3923.06048 9.76002e-18
3924.52770 9.17880e-18
3925.99491 9.14462e-18
3927.47232 1.01121e-17
3928.93953 8.74857e-18
3930.40675 9.50864e-18
3931.88415 8.40345e-18
3933.35137 9.52442e-18
3934.81859 1.09157e-17
3936.28580 1.04210e-17
3937.76321 1.13816e-17
3939.23042 1.10181e-17
3940.69764 1.17084e-17
3942.16486 1.17611e-17
3943.64226 1.43483e-17
3945.10948 1.42481e-17
3946.57669 1.31778e-17
3948.05410 1.37812e-17
3949.52131 1.35656e-17
3950.98853 1.31367e-17
3952.45575 1.30753e-17
3953.93315 1.32434e-17
3955.40037 1.31684e-17
3956.86758 1.38041e-17
3958.34499 1.53257e-17
3959.81220 1.65943e-17
3961.27942 1.48793e-17
3962.74664 1.56075e-17
3964.22404 1.48938e-17
3965.69126 1.48285e-17
3967.15847 1.58215e-17
3968.62569 1.57802e-17
3970.10309 1.42939e-17
3971.57031 1.59946e-17
3973.03753 1.77666e-17
3974.50474 1.80861e-17
3975.98215 1.72141e-17
3977.44936 1.85885e-17
3978.91658 1.91001e-17
3980.39398 1.76024e-17
3981.86120 1.89833e-17
3983.32842 1.96196e-17
3984.79563 1.92228e-17
3986.27304 1.89102e-17
3987.74025 1.88604e-17
3989.20747 1.95064e-17
3990.68487 1.95055e-17
3992.15209 2.00916e-17
3993.61931 1.96034e-17
3995.08652 1.97402e-17
3996.56393 2.14247e-17
3998.03114 1.94375e-17
3999.49836 2.00337e-17
4000.96557 2.08114e-17
4002.44298 1.96284e-17
4003.91020 1.90693e-17
4005.37741 1.70681e-17
4006.85482 1.87381e-17
4008.32203 2.08305e-17
4009.78925 1.89495e-17
4011.25646 1.92879e-17
4012.73387 2.01812e-17
4014.20109 1.90193e-17
4015.66830 1.95671e-17
4017.13552 2.01153e-17
4018.61292 2.11441e-17
4020.08014 2.10502e-17
4021.54735 2.07992e-17
4023.02476 2.03628e-17
4024.49198 2.14977e-17
4025.95919 2.13161e-17
4027.42641 2.19863e-17
4028.90381 2.20827e-17
4030.37103 2.15420e-17
4031.83824 1.98829e-17
4033.30546 1.97660e-17
4034.78287 2.18611e-17
4036.25008 2.10740e-17
4037.71730 2.03196e-17
4039.19470 1.98043e-17
4040.66192 1.98691e-17
4042.12913 2.15145e-17
4043.59635 1.92013e-17
4045.07376 1.96943e-17
4046.54097 2.12323e-17
4048.00819 2.10000e-17
4049.47540 2.18092e-17
4050.95281 2.26867e-17
4052.42002 2.14991e-17
4053.88724 2.20954e-17
4055.36465 2.07135e-17
4056.83186 2.19348e-17
4058.29908 2.17531e-17
4059.76629 2.09396e-17
4061.24370 2.17803e-17
4062.71091 2.11228e-17
4064.17813 2.17087e-17
4065.64535 2.12210e-17
4067.12275 2.10158e-17
4068.58997 2.15050e-17
4070.05718 2.05999e-17
4071.53459 1.98814e-17
4073.00180 2.14791e-17
4074.46902 2.27230e-17
4075.93624 2.12009e-17
4077.41364 2.03006e-17
4078.88086 2.04252e-17
4080.34807 2.04118e-17
4081.81529 1.98729e-17
4083.29269 2.02741e-17
4084.75991 1.98745e-17
4086.22713 1.99534e-17
4087.70453 2.16160e-17
4089.17175 2.13486e-17
4090.63896 2.02103e-17
4092.10618 2.10770e-17
4093.58358 2.00502e-17
4095.05080 2.00318e-17
4096.51802 1.96061e-17
4097.98523 1.95367e-17
4099.46264 2.09596e-17
4100.92985 2.27720e-17
4102.39707 2.06731e-17
4103.87447 2.03788e-17
4105.34169 2.02072e-17
4106.80891 2.07810e-17
4108.27612 2.00741e-17
4109.75353 1.92703e-17
4111.22074 1.98674e-17
4112.68796 1.99061e-17
4114.15518 1.88284e-17
4115.63258 1.78288e-17
4117.09980 1.77864e-17
4118.56701 1.90178e-17
4120.04442 1.92723e-17
4121.51163 1.91635e-17
4122.97885 1.89112e-17
4124.44607 1.91452e-17
4125.92347 1.90878e-17
4127.39069 1.82699e-17
4128.85790 1.83285e-17
4130.32512 1.86756e-17
4131.80252 1.65201e-17
4133.26974 1.60106e-17
4134.73696 1.67569e-17
4136.21436 1.72537e-17
4137.68158 1.74657e-17
4139.14879 1.68617e-17
4140.61601 1.72335e-17
4142.09341 1.81526e-17
4143.56063 1.81740e-17
4145.02785 1.69864e-17
4146.49506 1.71956e-17
4147.97247 1.77265e-17
4149.43968 1.69429e-17
4150.90690 1.70320e-17
4152.38430 1.67828e-17
4153.85152 1.65185e-17
4155.31874 1.59657e-17
4156.78595 1.57699e-17
4158.26336 1.55890e-17
4159.73057 1.53296e-17
4161.19779 1.50286e-17
4162.66500 1.54006e-17
4164.14241 1.65446e-17
4165.60963 1.56968e-17
4167.07684 1.56992e-17
4168.55425 1.61332e-17
4170.02146 1.69436e-17
4171.48868 1.56119e-17
4172.95590 1.50098e-17
4174.43330 1.58805e-17
4175.90052 1.62591e-17
4177.36773 1.58228e-17
4178.83495 1.37475e-17
4180.31235 1.39047e-17
4181.77957 1.48643e-17
4183.24678 1.54165e-17
4184.72419 1.45739e-17
4186.19141 1.45314e-17
4187.65862 1.53136e-17
4189.12584 1.58735e-17
4190.60324 1.54547e-17
4192.07046 1.55459e-17
4193.53767 1.51568e-17
4195.00489 1.58219e-17
4196.48230 1.56682e-17
4197.94951 1.53436e-17
4199.41673 1.55425e-17
4200.89413 1.57582e-17
4202.36135 1.56549e-17
4203.82856 1.59238e-17
4205.29578 1.57824e-17
4206.77319 1.58352e-17
4208.24040 1.54047e-17
4209.70762 1.47774e-17
4211.17483 1.56114e-17
4212.65224 1.56988e-17
4214.11945 1.64166e-17
4215.58667 1.47901e-17
4217.06408 1.32324e-17
4218.53129 1.55649e-17
4219.99851 1.66056e-17
4221.46572 1.55598e-17
4222.94313 1.46594e-17
4224.41035 1.48650e-17
4225.87756 1.53364e-17
4227.35497 1.47673e-17
4228.82218 1.55083e-17
4230.28940 1.56452e-17
4231.75661 1.49428e-17
4233.23402 1.62555e-17
4234.70123 1.47026e-17
4236.16845 1.48396e-17
4237.63567 1.46587e-17
4239.11307 1.52179e-17
4240.58029 1.59253e-17
4242.04750 1.60105e-17
4243.52491 1.45008e-17
4244.99212 1.44142e-17
4246.45934 1.55964e-17
4247.92656 1.64218e-17
4249.40396 1.50696e-17
4250.87118 1.59720e-17
4252.33839 1.59550e-17
4253.80561 1.57807e-17
4255.28301 1.60466e-17
4256.75023 1.63279e-17
4258.21745 1.68356e-17
4259.68466 1.57988e-17
4261.16207 1.52816e-17
4262.62928 1.62018e-17
4264.09650 1.57403e-17
4265.57390 1.56936e-17
4267.04112 1.63579e-17
4268.50834 1.62712e-17
4269.97555 1.53570e-17
4271.45296 1.46761e-17
4272.92017 1.49840e-17
4274.38739 1.64918e-17
4275.85461 1.63066e-17
4277.33201 1.55934e-17
4278.79923 1.49758e-17
4280.26644 1.61784e-17
4281.74385 1.51693e-17
4283.21106 1.49140e-17
4284.67828 1.53318e-17
4286.14550 1.47455e-17
4287.62290 1.57873e-17
4289.09012 1.60951e-17
4290.55733 1.53837e-17
4292.03474 1.60257e-17
4293.50195 1.62707e-17
4294.96917 1.59711e-17
4296.43639 1.54581e-17
4297.91379 1.57696e-17
4299.38101 1.50837e-17
4300.84822 1.53343e-17
4302.31544 1.60486e-17
4303.79284 1.55061e-17
4305.26006 1.46319e-17
4306.72728 1.57805e-17
4308.20468 1.65782e-17
4309.67190 1.63745e-17
4311.13911 1.60815e-17
4312.60633 1.60104e-17
4314.08373 1.46486e-17
4315.55095 1.49755e-17
4317.01817 1.62619e-17
4318.48538 1.58044e-17
4319.96279 1.52364e-17
4321.43000 1.54819e-17
4322.89722 1.53367e-17
4324.37462 1.60250e-17
4325.84184 1.59438e-17
4327.30906 1.54779e-17
4328.77627 1.60909e-17
4330.25368 1.58059e-17
4331.72089 1.64829e-17
4333.18811 1.70564e-17
4334.65532 1.68065e-17
4336.13273 1.72072e-17
4337.59995 1.63164e-17
4339.06716 1.51920e-17
4340.54457 1.53064e-17
4342.01178 1.53869e-17
4343.47900 1.52780e-17
4344.94621 1.56155e-17
4346.42362 1.46252e-17
4347.89084 1.39658e-17
4349.35805 1.53988e-17
4350.82527 1.70143e-17
4352.30267 1.66763e-17
4353.76989 1.60374e-17
4355.23710 1.53854e-17
4356.71451 1.59624e-17
4358.18173 1.55050e-17
4359.64894 1.46652e-17
4361.11616 1.58608e-17
4362.59356 1.62384e-17
4364.06078 1.54231e-17
4365.52799 1.53877e-17
4366.99521 1.54025e-17
4368.47262 1.51853e-17
4369.93983 1.49432e-17
4371.40705 1.56521e-17
4372.88445 1.61679e-17
4374.35167 1.61165e-17
4375.81888 1.58362e-17
4377.28610 1.54848e-17
4378.76351 1.57972e-17
4380.23072 1.57552e-17
4381.69794 1.54153e-17
4383.16515 1.51145e-17
4384.64256 1.52389e-17
4386.10977 1.50674e-17
4387.57699 1.42794e-17
4389.05440 1.40876e-17
4390.52161 1.49339e-17
4391.98883 1.47391e-17
4393.45604 1.42258e-17
4394.93345 1.55550e-17
4396.40067 1.57265e-17
4397.86788 1.47925e-17
4399.33510 1.61560e-17
4400.81250 1.56728e-17
4402.27972 1.52027e-17
4403.74693 1.45536e-17
4405.22434 1.46615e-17
4406.69155 1.47283e-17
4408.15877 1.52670e-17
4409.62599 1.54598e-17
4411.10339 1.45531e-17
4412.57061 1.54974e-17
4414.03782 1.57262e-17
4415.50504 1.41597e-17
4416.98244 1.35756e-17
4418.44966 1.55345e-17
4419.91688 1.49659e-17
4421.39428 1.46081e-17
4422.86150 1.45122e-17
4424.32871 1.50722e-17
4425.79593 1.44163e-17
4427.27333 1.51473e-17
4428.74055 1.47711e-17
4430.20777 1.46061e-17
4431.68517 1.48242e-17
4433.15239 1.40352e-17
4434.61960 1.33480e-17
4436.08682 1.50337e-17
4437.56423 1.54469e-17
4439.03144 1.36060e-17
4440.49866 1.34871e-17
4441.96587 1.35417e-17
4443.44328 1.17681e-17
4444.91049 1.19516e-17
4446.37771 1.26620e-17
4447.84493 1.24124e-17
4449.32233 1.23312e-17
4450.78955 1.18043e-17
4452.25676 1.24625e-17
4453.73417 1.24271e-17
4455.20138 1.15427e-17
4456.66860 1.10351e-17
4458.13582 1.16006e-17
4459.61322 1.20420e-17
4461.08044 1.18658e-17
4462.54765 1.13313e-17
4464.01487 1.18627e-17
4465.49227 1.19434e-17
4466.95949 1.08279e-17
4468.42671 1.15914e-17
4469.90411 1.18783e-17
4471.37133 1.13039e-17
4472.83854 1.17727e-17
4474.30576 1.06948e-17
4475.78316 1.07505e-17
4477.25038 1.23777e-17
4478.71760 1.17805e-17
4480.18481 1.10752e-17
4481.66222 1.08141e-17
4483.12943 1.11834e-17
4484.59665 1.19308e-17
4486.07405 1.11165e-17
4487.54127 1.09003e-17
4489.00849 1.09867e-17
4490.47570 1.07323e-17
4491.95311 1.08170e-17
4493.42032 1.09963e-17
4494.88754 1.09858e-17
4496.36494 1.01966e-17
4497.83216 1.05053e-17
4499.29938 1.21954e-17
4500.76659 1.20743e-17
4502.24400 1.15623e-17
4503.71121 1.12437e-17
4505.17843 1.14975e-17
4506.64564 1.21670e-17
4508.12305 1.12042e-17
4509.59027 1.14038e-17
4511.05748 1.16973e-17
4512.52470 1.07294e-17
4514.00210 1.14555e-17
4515.46932 1.21229e-17
4516.93653 1.15554e-17
4518.41394 1.14190e-17
4519.88116 1.10627e-17
4521.34837 1.16494e-17
4522.81559 1.15704e-17
4524.29299 1.02845e-17
4525.76021 1.12454e-17
4527.22743 1.16773e-17
4528.70483 1.19335e-17
4530.17205 1.23040e-17
4531.63926 1.10233e-17
4533.10648 1.15220e-17
4534.58388 1.15315e-17
4536.05110 1.14994e-17
4537.51832 1.20985e-17
4538.98553 1.20120e-17
4540.46294 1.13456e-17
4541.93015 1.16660e-17
4543.39737 1.16683e-17
4544.87477 1.13930e-17
4546.34199 1.21322e-17
4547.80920 1.17218e-17
4549.27642 1.23085e-17
4550.75383 1.25635e-17
4552.22104 1.30163e-17
4553.68826 1.29547e-17
4555.15547 1.23602e-17
4556.63288 1.25276e-17
4558.10009 1.24966e-17
4559.56731 1.25721e-17
4561.04472 1.27347e-17
4562.51193 1.25279e-17
4563.97915 1.28006e-17
4565.44636 1.32363e-17
4566.92377 1.29260e-17
4568.39098 1.29587e-17
4569.85820 1.26648e-17
4571.32542 1.27048e-17
4572.80282 1.33110e-17
4574.27004 1.35031e-17
4575.73725 1.32149e-17
4577.21466 1.30262e-17
4578.68187 1.34585e-17
4580.14909 1.35270e-17
4581.61631 1.38353e-17
4583.09371 1.38023e-17
4584.56093 1.41526e-17
4586.02814 1.47296e-17
4587.49536 1.47975e-17
4588.97277 1.45348e-17
4590.43998 1.41160e-17
4591.90720 1.33223e-17
4593.38460 1.36732e-17
4594.85182 1.46624e-17
4596.31903 1.49043e-17
4597.78625 1.42576e-17
4599.26365 1.38782e-17
4600.73087 1.48586e-17
4602.19809 1.53617e-17
4603.66530 1.50453e-17
4605.14271 1.49433e-17
4606.60992 1.49626e-17
4608.07714 1.47296e-17
4609.55454 1.50759e-17
4611.02176 1.48032e-17
4612.48898 1.57284e-17
4613.95619 1.56196e-17
4615.43360 1.51561e-17
4616.90081 1.51932e-17
4618.36803 1.58706e-17
4619.83525 1.59216e-17
4621.31265 1.55076e-17
4622.77987 1.60755e-17
4624.24708 1.61467e-17
4625.72449 1.61949e-17
4627.19170 1.61816e-17
4628.65892 1.58872e-17
4630.12614 1.62350e-17
4631.60354 1.63893e-17
4633.07076 1.54653e-17
4634.53797 1.51376e-17
4636.00519 1.58640e-17
4637.48259 1.65009e-17
4638.94981 1.67203e-17
4640.41703 1.64474e-17
4641.89443 1.63422e-17
4643.36165 1.63699e-17
4644.82886 1.62687e-17
4646.29608 1.64353e-17
4647.77348 1.65784e-17
4649.24070 1.72535e-17
4650.70792 1.70770e-17
4652.17513 1.69110e-17
4653.65254 1.71675e-17
4655.11975 1.79610e-17
4656.58697 1.80770e-17
4658.06437 1.70956e-17
4659.53159 1.68625e-17
4660.99881 1.71991e-17
4662.46602 1.71898e-17
4663.94343 1.70059e-17
4665.41064 1.63077e-17
4666.87786 1.60277e-17
4668.34507 1.70315e-17
4669.82248 1.71244e-17
4671.28970 1.64767e-17
4672.75691 1.63073e-17
4674.23432 1.63878e-17
4675.70153 1.68641e-17
4677.16875 1.71097e-17
4678.63597 1.68032e-17
4680.11337 1.71252e-17
4681.58059 1.75172e-17
4683.04780 1.68233e-17
4684.51502 1.69656e-17
4685.99242 1.82419e-17
4687.45964 1.79343e-17
4688.92685 1.69043e-17
4690.40426 1.62255e-17
4691.87148 1.63582e-17
4693.33869 1.68626e-17
4694.80591 1.74151e-17
4696.28331 1.73648e-17
4697.75053 1.75829e-17
4699.21774 1.76413e-17
4700.68496 1.69328e-17
4702.16237 1.67624e-17
4703.62958 1.63218e-17
4705.09680 1.64724e-17
4706.57420 1.70640e-17
4708.04142 1.71108e-17
4709.50863 1.67819e-17
4710.97585 1.62731e-17
4712.45326 1.64013e-17
4713.92047 1.71118e-17
4715.38769 1.68473e-17
4716.85490 1.68499e-17
4718.33231 1.73322e-17
4719.79952 1.69461e-17
4721.26674 1.71708e-17
4722.74415 1.72200e-17
4724.21136 1.70466e-17
4725.67858 1.67725e-17
4727.14579 1.66584e-17
4728.62320 1.66368e-17
4730.09041 1.68674e-17
4731.55763 1.76442e-17
4733.02485 1.64098e-17
4734.50225 1.60091e-17
4735.96947 1.68861e-17
4737.43668 1.70859e-17
4738.91409 1.66864e-17
4740.38130 1.66282e-17
4741.84852 1.69499e-17
4743.31574 1.72143e-17
4744.79314 1.69004e-17
4746.26036 1.67103e-17
4747.72757 1.69704e-17
4749.19479 1.70230e-17
4750.67220 1.69687e-17
4752.13941 1.70521e-17
4753.60663 1.68682e-17
4755.08403 1.68687e-17
4756.55125 1.68842e-17
4758.01846 1.67970e-17
4759.48568 1.72822e-17
4760.96308 1.67135e-17
4762.43030 1.68537e-17
4763.89752 1.71424e-17
4765.37492 1.65453e-17
4766.84214 1.66848e-17
4768.30935 1.66315e-17
4769.77657 1.65462e-17
4771.25397 1.71781e-17
4772.72119 1.74598e-17
4774.18841 1.66809e-17
4775.65562 1.62893e-17
4777.13303 1.68613e-17
4778.60024 1.67434e-17
4780.06746 1.64168e-17
4781.54486 1.64954e-17
4783.01208 1.66039e-17
4784.47930 1.59697e-17
4785.94651 1.57982e-17
4787.42392 1.71331e-17
4788.89113 1.72889e-17
4790.35835 1.63444e-17
4791.82557 1.64728e-17
4793.30297 1.62135e-17
4794.77019 1.59279e-17
4796.23740 1.60624e-17
4797.70462 1.55672e-17
4799.18202 1.56532e-17
4800.64924 1.61133e-17
4802.11646 1.62257e-17
4803.59386 1.59365e-17
4805.06108 1.55640e-17
4806.52829 1.54718e-17
4807.99551 1.56219e-17
4809.47291 1.52635e-17
4810.94013 1.54015e-17
4812.40735 1.57609e-17
4813.87456 1.55971e-17
4815.35197 1.53166e-17
4816.81918 1.46115e-17
4818.28640 1.44813e-17
4819.76380 1.53034e-17
4821.23102 1.55321e-17
4822.69824 1.51194e-17
4824.16545 1.47260e-17
4825.64286 1.44803e-17
4827.11007 1.47114e-17
4828.57729 1.47270e-17
4830.05469 1.44244e-17
4831.52191 1.43417e-17
4832.98913 1.47130e-17
4834.45634 1.48294e-17
4835.93375 1.43886e-17
4837.40096 1.41242e-17
4838.86818 1.42061e-17
4840.33540 1.37784e-17
4841.81280 1.40966e-17
4843.28002 1.41339e-17
4844.74723 1.37495e-17
4846.22464 1.38648e-17
4847.69185 1.35657e-17
4849.15907 1.37731e-17
4850.62628 1.39515e-17
4852.10369 1.33762e-17
4853.57091 1.30263e-17
4855.03812 1.33509e-17
4856.50534 1.33997e-17
4857.98274 1.28800e-17
4859.44996 1.23984e-17
4860.91717 1.21155e-17
4862.39458 1.20972e-17
4863.86180 1.20617e-17
4865.32901 1.22737e-17
4866.79623 1.25808e-17
4868.27363 1.20213e-17
4869.74085 1.18057e-17
4871.20806 1.23752e-17
4872.67528 1.26246e-17
4874.15269 1.20398e-17
4875.61990 1.11868e-17
4877.08712 1.14680e-17
4878.56452 1.14940e-17
4880.03174 1.10933e-17
4881.49895 1.06606e-17
4882.96617 1.06279e-17
4884.44358 1.09719e-17
4885.91079 1.07277e-17
4887.37801 1.11818e-17
4888.84522 1.17207e-17
4890.32263 1.08372e-17
4891.78984 1.03774e-17
4893.25706 1.06729e-17
4894.73447 1.02122e-17
4896.20168 1.01921e-17
4897.66890 1.00297e-17
4899.13611 9.58675e-18
4900.61352 1.02751e-17
4902.08073 1.01867e-17
4903.54795 9.64982e-18
4905.01517 9.64134e-18
4906.49257 9.81000e-18
4907.95979 1.03846e-17
4909.42700 1.03801e-17
4910.90441 9.71119e-18
4912.37162 1.04301e-17
4913.83884 1.08534e-17
4915.30606 1.01987e-17
4916.78346 1.03158e-17
4918.25068 1.03196e-17
4919.71789 1.07002e-17
4921.18511 1.08353e-17
4922.66251 1.03928e-17
4924.12973 1.07650e-17
4925.59695 1.08596e-17
4927.07435 1.06559e-17
4928.54157 1.08981e-17
4930.00878 1.06289e-17
4931.47600 1.04947e-17
4932.95340 1.09289e-17
4934.42062 1.06656e-17
4935.88784 9.99896e-18
4937.35505 1.05462e-17
4938.83246 1.09313e-17
4940.29967 1.04712e-17
4941.76689 1.06301e-17
4943.24429 1.07695e-17
4944.71151 1.09110e-17
4946.17873 1.09875e-17
4947.64594 1.08193e-17
4949.12335 1.08224e-17
4950.59056 1.07303e-17
4952.05778 1.07158e-17
4953.52500 1.09153e-17
4955.00240 1.08178e-17
4956.46962 1.09904e-17
4957.93683 1.12185e-17
4959.41424 1.07983e-17
4960.88145 1.04838e-17
4962.34867 1.04181e-17
4963.81589 1.08068e-17
4965.29329 1.09436e-17
4966.76051 1.06834e-17
4968.22772 1.07115e-17
4969.70513 1.05241e-17
4971.17234 9.78977e-18
4972.63956 9.98548e-18
4974.10678 1.05848e-17
4975.58418 1.02020e-17
4977.05140 9.89344e-18
4978.51861 9.98642e-18
4979.98583 9.57835e-18
4981.46323 9.08918e-18
4982.93045 9.64671e-18
4984.39767 9.96796e-18
4985.86488 9.30273e-18
4987.34229 9.03082e-18
4988.80950 9.63058e-18
4990.27672 9.52780e-18
4991.75412 9.25764e-18
4993.22134 9.29515e-18
4994.68856 9.03492e-18
4996.15577 9.30095e-18
4997.63318 9.76357e-18
4999.10039 9.57244e-18
5000.56761 9.61872e-18
5002.03482 9.81455e-18
5003.51223 1.01488e-17
5004.97945 1.01872e-17
5006.44666 9.99463e-18
5007.92407 1.04633e-17
5009.39128 1.08777e-17
5010.85850 1.04766e-17
5012.32571 1.03922e-17
5013.80312 1.05980e-17
5015.27034 1.02348e-17
5016.73755 1.01950e-17
5018.20477 1.02330e-17
5019.68217 1.03988e-17
5021.14939 1.08800e-17
5022.61660 1.09607e-17
5024.09401 1.10076e-17
5025.56123 1.10499e-17
5027.02844 1.12455e-17
5028.49566 1.16677e-17
5029.97306 1.21524e-17
5031.44028 1.23303e-17
5032.90749 1.24309e-17
5034.38490 1.21395e-17
5035.85212 1.19589e-17
5037.31933 1.22776e-17
5038.78655 1.26309e-17
5040.26395 1.30997e-17
5041.73117 1.32534e-17
5043.19838 1.27898e-17
5044.66560 1.28442e-17
5046.14301 1.29549e-17
5047.61022 1.29333e-17
5049.07744 1.35323e-17
5050.54465 1.41228e-17
5052.02206 1.39575e-17
5053.48927 1.40747e-17
5054.95649 1.42378e-17
5056.43390 1.38817e-17
5057.90111 1.34448e-17
5059.36833 1.38978e-17
5060.83554 1.41588e-17
5062.31295 1.43172e-17
5063.78017 1.44965e-17
5065.24738 1.41016e-17
5066.72479 1.42703e-17
5068.19200 1.47141e-17
5069.65922 1.45692e-17
5071.12643 1.42353e-17
5072.60384 1.43439e-17
5074.07105 1.47576e-17
5075.53827 1.50436e-17
5077.00549 1.50965e-17
5078.48289 1.50309e-17
5079.95011 1.49404e-17
5081.41732 1.41969e-17
5082.89473 1.39364e-17
5084.36194 1.49013e-17
5085.82916 1.42913e-17
5087.29638 1.38092e-17
5088.77378 1.39490e-17
5090.24100 1.36100e-17
5091.70821 1.38546e-17
5093.17543 1.37634e-17
5094.65283 1.34593e-17
5096.12005 1.34959e-17
5097.58727 1.33684e-17
5099.06467 1.33263e-17
5100.53189 1.35050e-17
5101.99910 1.30138e-17
5103.46632 1.27814e-17
5104.94372 1.29134e-17
5106.41094 1.23678e-17
5107.87816 1.20745e-17
5109.34537 1.25874e-17
5110.82278 1.27075e-17
5112.28999 1.24457e-17
5113.75721 1.17199e-17
5115.23462 1.14937e-17
5116.70183 1.20298e-17
5118.16905 1.24714e-17
5119.63626 1.20081e-17
5121.11367 1.12962e-17
5122.58088 1.13962e-17
5124.04810 1.16786e-17
5125.51532 1.11108e-17
5126.99272 1.05873e-17
5128.45994 1.10960e-17
5129.92715 1.12471e-17
5131.40456 1.05615e-17
5132.87177 1.04378e-17
5134.33899 1.06662e-17
5135.80621 1.04056e-17
5137.28361 1.01096e-17
5138.75083 1.03354e-17
5140.21804 1.09082e-17
5141.68526 1.07872e-17
5143.16266 1.02735e-17
5144.62988 9.98968e-18
5146.09710 1.00841e-17
5147.57450 1.04035e-17
5149.04172 1.04140e-17
5150.50893 1.01199e-17
5151.97615 9.89396e-18
5153.45355 9.35792e-18
5154.92077 9.85139e-18
5156.38799 1.02061e-17
5157.85520 1.00106e-17
5159.33261 9.86707e-18
5160.79982 9.95313e-18
5162.26704 9.94442e-18
5163.74444 1.00546e-17
5165.21166 1.02321e-17
5166.67888 1.06192e-17
5168.14609 1.04738e-17
5169.62350 1.02929e-17
5171.09071 1.03143e-17
5172.55793 1.04193e-17
5174.02514 1.04913e-17
5175.50255 1.08955e-17
5176.96977 1.11427e-17
5178.43698 1.09290e-17
5179.91439 1.09964e-17
5181.38160 1.12093e-17
5182.84882 1.07016e-17
5184.31603 1.04490e-17
5185.79344 1.06811e-17
5187.26066 1.08009e-17
5188.72787 1.11128e-17
5190.19509 1.11451e-17
5191.67249 1.10241e-17
5193.13971 1.15228e-17
5194.60692 1.16224e-17
5196.08433 1.16873e-17
5197.55155 1.16194e-17
5199.01876 1.12118e-17
5200.48598 1.13391e-17
5201.96338 1.12353e-17
5203.43060 1.21810e-17
5204.89782 1.25655e-17
5206.36503 1.20701e-17
5207.84244 1.23874e-17
5209.30965 1.27407e-17
5210.77687 1.24577e-17
5212.25427 1.16570e-17
5213.72149 1.19875e-17
5215.18870 1.22428e-17
5216.65592 1.20629e-17
5218.13333 1.21187e-17
5219.60054 1.27008e-17
5221.06776 1.27657e-17
5222.53497 1.23621e-17
5224.01238 1.22129e-17
5225.47959 1.29621e-17
5226.94681 1.28613e-17
5228.42422 1.22447e-17
5229.89143 1.25927e-17
5231.35865 1.30676e-17
5232.82586 1.32127e-17
5234.30327 1.31472e-17
5235.77048 1.28236e-17
5237.23770 1.24380e-17
5238.70492 1.28391e-17
5240.18232 1.18194e-17
5241.64954 1.16442e-17
5243.11675 1.26384e-17
5244.59416 1.23330e-17
5246.06137 1.24417e-17
5247.52859 1.26796e-17
5248.99581 1.25873e-17
5250.47321 1.19000e-17
5251.94043 1.20550e-17
5253.40764 1.26941e-17
5254.87486 1.30962e-17
5256.35226 1.30703e-17
5257.81948 1.24307e-17
5259.28670 1.22517e-17
5260.76410 1.25215e-17
5262.23132 1.25074e-17
5263.69853 1.22598e-17
5265.16575 1.19243e-17
5266.64315 1.17964e-17
5268.11037 1.16079e-17
5269.57759 1.18217e-17
5271.04480 1.20526e-17
5272.52221 1.21164e-17
5273.98942 1.23946e-17
5275.45664 1.18787e-17
5276.93404 1.15789e-17
5278.40126 1.18782e-17
5279.86848 1.15745e-17
5281.33569 1.15305e-17
5282.81310 1.20654e-17
5284.28031 1.21501e-17
5285.74753 1.16650e-17
5287.22493 1.11697e-17
5288.69215 1.15171e-17
5290.15937 1.21168e-17
5291.62658 1.19895e-17
5293.10399 1.17975e-17
5294.57120 1.15812e-17
5296.03842 1.22990e-17
5297.50564 1.28339e-17
5298.98304 1.23788e-17
5300.45026 1.19454e-17
5301.91747 1.20131e-17
5303.39488 1.21355e-17
5304.86209 1.22397e-17
5306.32931 1.21095e-17
5307.79653 1.17523e-17
5309.27393 1.16395e-17
5310.74115 1.16913e-17
5312.20836 1.19456e-17
5313.67558 1.23376e-17
5315.15298 1.20171e-17
5316.62020 1.25453e-17
5318.08742 1.26458e-17
5319.56482 1.23853e-17
5321.03204 1.27025e-17
5322.49925 1.24445e-17
5323.96647 1.24160e-17
5325.44387 1.27197e-17
5326.91109 1.26550e-17
5328.37831 1.24908e-17
5329.84552 1.28189e-17
5331.32293 1.30395e-17
5332.79014 1.29154e-17
5334.25736 1.26690e-17
5335.72457 1.25202e-17
5337.20198 1.28770e-17
5338.66920 1.33481e-17
5340.13641 1.33327e-17
5341.61382 1.31142e-17
5343.08103 1.31543e-17
5344.54825 1.36720e-17
5346.01546 1.33622e-17
5347.49287 1.29292e-17
5348.96009 1.31817e-17
5350.42730 1.33631e-17
5351.89452 1.31366e-17
5353.37192 1.34766e-17
5354.83914 1.41510e-17
5356.30635 1.36231e-17
5357.78376 1.32892e-17
5359.25098 1.37313e-17
5360.71819 1.36634e-17
5362.18541 1.38322e-17
5363.66281 1.44019e-17
5365.13003 1.41097e-17
5366.59724 1.34864e-17
5368.07465 1.38524e-17
5369.54187 1.44118e-17
5371.00908 1.37697e-17
5372.47630 1.37022e-17
5373.95370 1.37393e-17
5375.42092 1.34761e-17
5376.88813 1.39752e-17
5378.35535 1.44021e-17
5379.83276 1.43914e-17
5381.29997 1.38871e-17
5382.76719 1.37038e-17
5384.24459 1.41777e-17
5385.71181 1.46172e-17
5387.17902 1.41385e-17
5388.64624 1.38204e-17
5390.12365 1.39024e-17
5391.59086 1.36150e-17
5393.05808 1.42772e-17
5394.52529 1.48209e-17
5396.00270 1.41869e-17
5397.46991 1.39613e-17
5398.93713 1.41108e-17
5400.41454 1.41697e-17
5401.88175 1.46432e-17
5403.34897 1.49105e-17
5404.81618 1.43996e-17
5406.29359 1.43638e-17
5407.76080 1.40835e-17
5409.22802 1.37495e-17
5410.69524 1.39428e-17
5412.17264 1.34694e-17
5413.63986 1.37049e-17
5415.10707 1.46515e-17
5416.58448 1.44588e-17
5418.05170 1.39054e-17
5419.51891 1.35173e-17
5420.98613 1.34465e-17
5422.46353 1.42250e-17
5423.93075 1.43253e-17
5425.39796 1.38330e-17
5426.86518 1.36696e-17
5428.34258 1.36136e-17
5429.80980 1.38442e-17
5431.27702 1.39954e-17
5432.75442 1.39735e-17
5434.22164 1.39749e-17
5435.68885 1.39020e-17
5437.15607 1.36251e-17
5438.63347 1.36355e-17
5440.10069 1.43642e-17
5441.56791 1.43595e-17
5443.03512 1.36203e-17
5444.51253 1.36539e-17
5445.97974 1.41202e-17
5447.44696 1.39599e-17
5448.92436 1.32425e-17
5450.39158 1.35410e-17
5451.85880 1.39322e-17
5453.32601 1.37620e-17
5454.80342 1.40088e-17
5456.27063 1.43188e-17
5457.73785 1.43516e-17
5459.20507 1.39546e-17
5460.68247 1.32128e-17
5462.14969 1.29135e-17
5463.61690 1.35282e-17
5465.09431 1.33961e-17
5466.56152 1.27676e-17
5468.02874 1.30304e-17
5469.49596 1.35353e-17
5470.97336 1.32178e-17
5472.44058 1.29128e-17
5473.90779 1.28764e-17
5475.37501 1.29102e-17
5476.85241 1.30524e-17
5478.31963 1.31300e-17
5479.78685 1.29858e-17
5481.26425 1.26511e-17
5482.73147 1.34422e-17
5484.19868 1.38151e-17
5485.66590 1.33190e-17
5487.14330 1.28434e-17
5488.61052 1.22434e-17
5490.07774 1.23904e-17
5491.54495 1.28306e-17
5493.02236 1.26090e-17
5494.48957 1.21401e-17
5495.95679 1.27005e-17
5497.43419 1.34607e-17
5498.90141 1.30918e-17
5500.36863 1.26955e-17
5501.83584 1.27415e-17
5503.31325 1.28677e-17
5504.78046 1.31179e-17
5506.24768 1.31652e-17
5507.72508 1.32217e-17
5509.19230 1.31911e-17
5510.65952 1.25655e-17
5512.12673 1.23876e-17
5513.60414 1.26779e-17
5515.07135 1.21289e-17
5516.53857 1.18447e-17
5518.00578 1.23954e-17
5519.48319 1.24665e-17
5520.95041 1.22624e-17
5522.41762 1.24446e-17
5523.88484 1.28665e-17
5525.36224 1.31326e-17
5526.82946 1.27076e-17
5528.29667 1.24764e-17
5529.77408 1.28199e-17
5531.24130 1.29002e-17
5532.70851 1.30848e-17
5534.17573 1.22554e-17
5535.65313 1.16090e-17
5537.12035 1.20262e-17
5538.58756 1.20485e-17
5540.05478 1.19562e-17
5541.53219 1.26128e-17
5542.99940 1.29009e-17
5544.46662 1.25535e-17
5545.94402 1.25568e-17
5547.41124 1.27312e-17
5548.87845 1.24649e-17
5550.34567 1.17644e-17
5551.82308 1.19098e-17
5553.29029 1.20984e-17
5554.75751 1.17196e-17
5556.23491 1.20998e-17
5557.70213 1.24418e-17
5559.16934 1.21752e-17
5560.63656 1.22249e-17
5562.11397 1.19849e-17
5563.58118 1.19237e-17
5565.04840 1.24659e-17
5566.51561 1.23405e-17
5567.99302 1.20561e-17
5569.46023 1.21778e-17
5570.92745 1.24213e-17
5572.40486 1.24005e-17
5573.87207 1.34442e-17
5575.33929 1.33985e-17
5576.80650 1.27836e-17
5578.28391 1.31979e-17
5579.75112 1.32015e-17
5581.21834 1.30215e-17
5582.68556 1.23524e-17
5584.16296 1.21654e-17
5585.63018 1.25853e-17
5587.09739 1.27657e-17
5588.56461 1.25017e-17
5590.04201 1.21708e-17
5591.50923 1.19127e-17
5592.97645 1.21601e-17
5594.45385 1.24568e-17
5595.92107 1.25963e-17
5597.38828 1.22306e-17
5598.85550 1.19967e-17
5600.33290 1.28707e-17
5601.80012 1.36652e-17
5603.26734 1.32597e-17
5604.74474 1.23211e-17
5606.21196 1.17871e-17
5607.67917 1.17740e-17
5609.14639 1.20598e-17
5610.62379 1.24504e-17
5612.09101 1.22280e-17
5613.55823 1.17939e-17
5615.02544 1.20092e-17
5616.50285 1.23881e-17
5617.97006 1.27558e-17
5619.43728 1.20478e-17
5620.91468 1.17902e-17
5622.38190 1.21399e-17
5623.84912 1.24706e-17
5625.31633 1.24702e-17
5626.79374 1.16074e-17
5628.26095 1.17451e-17
5629.72817 1.24600e-17
5631.19539 1.22914e-17
5632.67279 1.18248e-17
5634.14001 1.21039e-17
5635.60722 1.22661e-17
5637.08463 1.21117e-17
5638.55184 1.25858e-17
5640.01906 1.24201e-17
5641.48628 1.16834e-17
5642.96368 1.19126e-17
5644.43090 1.22432e-17
5645.89811 1.20649e-17
5647.36533 1.18470e-17
5648.84273 1.19794e-17
5650.30995 1.22021e-17
5651.77717 1.21609e-17
5653.25457 1.20510e-17
5654.72179 1.21802e-17
5656.18900 1.24198e-17
5657.65622 1.23742e-17
5659.13362 1.18322e-17
5660.60084 1.13697e-17
5662.06806 1.12341e-17
5663.53527 1.14169e-17
5665.01268 1.18409e-17
5666.47989 1.18725e-17
5667.94711 1.18439e-17
5669.42451 1.20350e-17
5670.89173 1.20952e-17
5672.35895 1.19213e-17
5673.82616 1.12046e-17
5675.30357 1.07572e-17
5676.77078 1.12590e-17
5678.23800 1.22366e-17
5679.70521 1.24083e-17
5681.18262 1.16582e-17
5682.64984 1.12861e-17
5684.11705 1.13254e-17
5685.59446 1.16411e-17
5687.06167 1.15413e-17
5688.52889 1.09969e-17
5689.99610 1.12413e-17
5691.47351 1.15189e-17
5692.94073 1.09897e-17
5694.40794 1.10288e-17
5695.87516 1.17661e-17
5697.35256 1.16845e-17
5698.81978 1.09647e-17
5700.28699 1.03954e-17
5701.76440 1.05899e-17
5703.23162 1.12411e-17
5704.69883 1.09326e-17
5706.16605 1.06393e-17
5707.64345 1.12416e-17
5709.11067 1.15720e-17
5710.57788 1.10683e-17
5712.04510 1.08300e-17
5713.52251 1.14699e-17
5714.98972 1.15172e-17
5716.45694 1.09866e-17
5717.93434 1.11275e-17
5719.40156 1.12831e-17
5720.86877 1.09427e-17
5722.33599 1.11369e-17
5723.81340 1.14311e-17
5725.28061 1.10143e-17
5726.74783 1.07406e-17
5728.21504 1.07823e-17
5729.69245 1.09265e-17
5731.15967 1.09214e-17
5732.62688 1.10018e-17
5734.10429 1.09452e-17
5735.57150 1.07257e-17
5737.03872 1.07923e-17
5738.50593 1.08386e-17
5739.98334 1.07867e-17
5741.45055 1.08936e-17
5742.91777 1.11874e-17
5744.38499 1.12409e-17
5745.86239 1.11873e-17
5747.32961 1.13408e-17
5748.79682 1.14759e-17
5750.27423 1.14496e-17
5751.74144 1.12717e-17
5753.20866 1.11315e-17
5754.67588 1.13088e-17
5756.15328 1.11636e-17
5757.62050 1.11428e-17
5759.08771 1.10303e-17
5760.55493 1.02927e-17
5762.03233 1.04107e-17
5763.49955 1.07375e-17
5764.96677 1.04595e-17
5766.44417 1.08574e-17
5767.91139 1.12695e-17
5769.37860 1.04880e-17
5770.84582 9.90729e-18
5772.32322 9.83701e-18
5773.79044 9.85051e-18
5775.25766 1.02344e-17
5776.72487 1.03149e-17
5778.20228 1.04437e-17
5779.66949 1.03819e-17
5781.13671 9.55719e-18
5782.61412 9.26393e-18
5784.08133 9.57288e-18
5785.54855 9.79221e-18
5787.01576 9.96942e-18
5788.49317 9.54776e-18
5789.96038 8.99217e-18
5791.42760 8.73768e-18
5792.89482 8.80710e-18
5794.37222 8.89914e-18
5795.83944 8.61795e-18
5797.30665 8.37908e-18
5798.78406 8.50354e-18
5800.25127 8.72550e-18
5801.71849 8.68645e-18
5803.18571 8.23370e-18
5804.66311 7.96177e-18
5806.13033 8.24520e-18
5807.59754 8.15042e-18
5809.06476 8.20817e-18
5810.54216 8.21021e-18
5812.00938 7.58788e-18
5813.47660 7.49887e-18
5814.95400 7.66807e-18
5816.42122 7.61062e-18
5817.88843 7.61018e-18
5819.35565 7.51573e-18
5820.83305 7.46881e-18
5822.30027 7.15036e-18
5823.76749 6.65462e-18
5825.24489 6.61932e-18
5826.71211 6.74688e-18
5828.17932 6.74722e-18
5829.64654 6.62469e-18
5831.12394 6.53414e-18
5832.59116 6.86700e-18
5834.05838 7.01636e-18
5835.52559 6.49171e-18
5837.00300 6.26832e-18
5838.47021 6.84438e-18
5839.93743 6.54579e-18
5841.41483 5.80142e-18
5842.88205 5.97298e-18
5844.34927 6.20403e-18
5845.81648 6.52628e-18
5847.29389 6.60668e-18
5848.76110 6.56862e-18
5850.22832 6.91323e-18
5851.69553 7.21918e-18
5853.17294 7.00717e-18
5854.64016 7.01619e-18
5856.10737 7.21321e-18
5857.58478 7.23305e-18
5859.05199 6.95076e-18
5860.51921 6.49815e-18
5861.98642 6.74645e-18
5863.46383 7.46698e-18
5864.93105 7.51094e-18
5866.39826 7.57825e-18
5867.86548 7.90695e-18
5869.34288 7.75066e-18
5870.81010 7.62587e-18
5872.27732 7.79952e-18
5873.74453 7.86725e-18
5875.22194 8.13093e-18
5876.68915 8.48528e-18
5878.15637 8.45340e-18
5879.63377 8.33270e-18
5881.10099 8.60998e-18
5882.56820 9.43568e-18
5884.03542 9.59306e-18
5885.51283 9.37663e-18
5886.98004 9.73350e-18
5888.44726 9.33013e-18
5889.92466 9.47661e-18
5891.39188 1.06510e-17
5892.85909 1.07240e-17
5894.32631 1.04638e-17
5895.80372 1.03275e-17
5897.27093 1.04175e-17
5898.73815 1.09651e-17
5900.20536 1.12418e-17
5901.68277 1.14686e-17
5903.14998 1.19315e-17
5904.61720 1.20398e-17
5906.09461 1.18250e-17
5907.56182 1.18071e-17
5909.02904 1.17530e-17
5910.49625 1.16935e-17
5911.97366 1.21758e-17
5913.44087 1.24754e-17
5914.90809 1.20776e-17
5916.37531 1.19186e-17
5917.85271 1.21821e-17
5919.31993 1.23057e-17
5920.78714 1.21401e-17
5922.26455 1.22454e-17
5923.73176 1.27842e-17
5925.19898 1.33987e-17
5926.66620 1.35657e-17
5928.14360 1.31308e-17
5929.61082 1.31950e-17
5931.07803 1.31811e-17
5932.54525 1.27810e-17
5934.02265 1.28649e-17
5935.48987 1.31435e-17
5936.95709 1.38158e-17
5938.43449 1.40497e-17
5939.90171 1.39239e-17
5941.36892 1.40263e-17
5942.83614 1.40810e-17
5944.31354 1.39819e-17
5945.78076 1.35198e-17
5947.24798 1.33293e-17
5948.71519 1.34028e-17
5950.19260 1.29199e-17
5951.65981 1.27817e-17
5953.12703 1.34139e-17
5954.60443 1.37374e-17
5956.07165 1.37795e-17
5957.53887 1.41654e-17
5959.00608 1.43824e-17
5960.48349 1.43491e-17
5961.95070 1.38435e-17
5963.41792 1.31787e-17
5964.88514 1.39021e-17
5966.36254 1.45287e-17
5967.82976 1.44843e-17
5969.29697 1.43485e-17
5970.77438 1.46712e-17
5972.24159 1.47633e-17
5973.70881 1.42812e-17
5975.17603 1.45938e-17
5976.65343 1.48282e-17
5978.12065 1.48921e-17
5979.58786 1.44850e-17
5981.05508 1.37391e-17
5982.53248 1.33415e-17
5983.99970 1.35137e-17
5985.46692 1.37764e-17
5986.94432 1.39383e-17
5988.41154 1.40896e-17
5989.87875 1.37233e-17
5991.34597 1.32940e-17
5992.82337 1.28539e-17
5994.29059 1.28867e-17
5995.75781 1.29989e-17
5997.22502 1.26995e-17
5998.70243 1.23137e-17
6000.16964 1.23123e-17
6001.63686 1.26190e-17
6003.11426 1.28083e-17
6004.58148 1.28869e-17
6006.04870 1.26550e-17
6007.51591 1.30189e-17
6008.99332 1.35538e-17
6010.46053 1.32800e-17
6011.92775 1.30370e-17
6013.39496 1.31327e-17
6014.87237 1.28728e-17
6016.33959 1.27065e-17
6017.80680 1.27997e-17
6019.28421 1.27044e-17
6020.75142 1.27170e-17
6022.21864 1.28020e-17
6023.68585 1.29695e-17
6025.16326 1.29727e-17
6026.63048 1.29627e-17
6028.09769 1.22788e-17
6029.56491 1.25427e-17
6031.04231 1.30333e-17
6032.50953 1.24746e-17
6033.97674 1.22549e-17
6035.45415 1.28857e-17
6036.92137 1.31217e-17
6038.38858 1.27416e-17
6039.85580 1.25353e-17
6041.33320 1.27361e-17
6042.80042 1.27935e-17
6044.26763 1.25562e-17
6045.74504 1.26810e-17
6047.21226 1.21610e-17
6048.67947 1.15110e-17
6050.14669 1.22214e-17
6051.62409 1.25898e-17
6053.09131 1.20509e-17
6054.55852 1.21244e-17
6056.02574 1.23070e-17
6057.50315 1.21190e-17
6058.97036 1.20280e-17
6060.43758 1.17522e-17
6061.90479 1.17816e-17
6063.38220 1.21083e-17
6064.84941 1.23483e-17
6066.31663 1.22834e-17
6067.79404 1.16480e-17
6069.26125 1.15372e-17
6070.72847 1.22066e-17
6072.19568 1.20685e-17
6073.67309 1.13442e-17
6075.14030 1.14684e-17
6076.60752 1.16889e-17
6078.07474 1.17568e-17
6079.55214 1.19370e-17
6081.01936 1.20900e-17
6082.48657 1.18902e-17
6083.96398 1.16947e-17
6085.43120 1.16074e-17
6086.89841 1.16594e-17
6088.36563 1.16110e-17
6089.84303 1.12575e-17
6091.31025 1.11457e-17
6092.77746 1.10192e-17
6094.25487 1.07463e-17
6095.72208 1.09240e-17
6097.18930 1.10686e-17
6098.65652 1.09620e-17
6100.13392 1.09901e-17
6101.60114 1.08857e-17
6103.06835 1.09251e-17
6104.53557 1.10887e-17
6106.01297 1.11329e-17
6107.48019 1.11218e-17
6108.94741 1.09156e-17
6110.42481 1.08525e-17
6111.89203 1.10615e-17
6113.35924 1.09409e-17
6114.82646 1.08994e-17
6116.30386 1.10463e-17
6117.77108 1.10088e-17
6119.23830 1.08550e-17
6120.70551 1.09939e-17
6122.18292 1.09672e-17
6123.65013 1.06977e-17
6125.11735 1.08426e-17
6126.58457 1.08706e-17
6128.06197 1.06638e-17
6129.52919 1.07355e-17
6130.99640 1.08276e-17
6132.47381 1.05391e-17
6133.94102 1.06443e-17
6135.40824 1.08581e-17
6136.87546 1.10184e-17
6138.35286 1.11372e-17
6139.82008 1.09074e-17
6141.28729 1.06673e-17
6142.75451 1.00902e-17
6144.23191 9.83026e-18
6145.69913 9.96195e-18
6147.16635 1.02467e-17
6148.64375 1.02180e-17
6150.11097 9.96917e-18
6151.57818 1.03217e-17
6153.04540 1.05008e-17
6154.52280 1.02115e-17
6155.99002 1.02142e-17
6157.45724 9.97930e-18
6158.93464 9.95861e-18
6160.40186 1.03540e-17
6161.86907 1.03130e-17
6163.33629 9.56354e-18
6164.81369 9.26261e-18
6166.28091 9.85641e-18
6167.74813 1.00370e-17
6169.21534 9.59972e-18
6170.69275 9.54453e-18
6172.15996 9.71119e-18
6173.62718 9.81464e-18
6175.10458 9.92936e-18
6176.57180 9.95514e-18
6178.03902 9.54844e-18
6179.50623 1.00052e-17
6180.98364 1.02236e-17
6182.45085 9.64416e-18
6183.91807 9.77833e-18
6185.38528 9.59887e-18
6186.86269 9.78021e-18
6188.32991 9.70851e-18
6189.79712 9.55479e-18
6191.27453 9.84122e-18
6192.74174 1.00754e-17
6194.20896 9.94721e-18
6195.67617 9.93492e-18
6197.15358 9.81633e-18
6198.62080 1.01847e-17
6200.08801 1.01750e-17
6201.55523 9.89311e-18
6203.03263 9.63791e-18
6204.49985 1.01239e-17
6205.96706 1.04076e-17
6207.44447 9.98410e-18
6208.91169 9.76029e-18
6210.37890 9.73854e-18
6211.84612 9.83442e-18
6213.32352 9.92696e-18
6214.79074 9.88244e-18
6216.25795 9.69531e-18
6217.72517 9.80510e-18
6219.20258 9.89482e-18
6220.66979 9.82288e-18
6222.13701 9.46178e-18
6223.61441 9.47035e-18
6225.08163 9.87710e-18
6226.54884 1.00292e-17
6228.01606 9.28157e-18
6229.49347 9.34213e-18
6230.96068 9.73746e-18
6232.42790 9.51509e-18
6233.89511 9.08242e-18
6235.37252 9.43457e-18
6236.83973 1.00832e-17
6238.30695 9.36918e-18
6239.78436 9.40774e-18
6241.25157 9.42224e-18
6242.71879 9.57626e-18
6244.18600 9.85258e-18
6245.66341 1.02299e-17
6247.13062 9.63529e-18
6248.59784 9.18476e-18
6250.06506 9.59648e-18
6251.54246 9.78574e-18
6253.00968 9.60619e-18
6254.47689 9.62632e-18
6255.95430 9.60217e-18
6257.42151 9.39758e-18
6258.88873 9.36087e-18
6260.35595 9.29174e-18
6261.83335 9.22955e-18
6263.30057 9.04077e-18
6264.76778 9.22229e-18
6266.23500 9.55424e-18
6267.71240 9.42739e-18
6269.17962 9.31956e-18
6270.64684 9.48812e-18
6272.12424 9.44154e-18
6273.59146 9.56149e-18
6275.05867 9.51133e-18
6276.52589 9.46751e-18
6278.00329 9.63325e-18
6279.47051 9.48287e-18
6280.93773 9.27785e-18
6282.41513 9.18742e-18
6283.88235 9.23125e-18
6285.34956 9.30162e-18
6286.81678 9.22563e-18
6288.29418 9.11067e-18
6289.76140 9.13095e-18
6291.22862 9.60223e-18
6292.69583 9.66166e-18
6294.17324 9.82807e-18
6295.64045 1.04988e-17
6297.10767 1.10231e-17
6298.57489 1.01037e-17
6300.05229 9.93307e-18
6301.51951 1.01356e-17
6302.98672 9.45124e-18
6304.46413 8.64541e-18
6305.93134 8.74152e-18
6307.39856 9.20460e-18
6308.86578 9.28418e-18
6310.34318 9.72351e-18
6311.81040 9.52033e-18
6313.27761 9.17310e-18
6314.74483 9.18759e-18
6316.22223 9.08069e-18
6317.68945 8.99928e-18
6319.15667 8.96475e-18
6320.63407 8.93135e-18
6322.10129 8.88953e-18
6323.56850 8.55590e-18
6325.03572 8.35153e-18
6326.51312 8.76044e-18
6327.98034 9.04964e-18
6329.44756 9.07995e-18
6330.91477 9.22973e-18
6332.39218 9.09890e-18
6333.85939 9.32033e-18
6335.32661 9.38367e-18
6336.80401 8.71531e-18
6338.27123 8.55232e-18
6339.73845 8.65901e-18
6341.20566 8.47523e-18
6342.68307 8.22558e-18
6344.15028 8.40105e-18
6345.61750 8.15239e-18
6347.08471 7.75369e-18
6348.56212 8.01592e-18
6350.02934 8.47898e-18
6351.49655 8.54608e-18
6352.97396 8.39053e-18
6354.44117 8.12398e-18
6355.90839 7.67837e-18
6357.37560 7.89899e-18
6358.85301 8.11273e-18
6360.32023 8.06587e-18
6361.78744 8.21151e-18
6363.25466 8.44150e-18
6364.73206 8.33795e-18
6366.19928 7.82367e-18
6367.66649 7.81763e-18
6369.14390 7.77417e-18
6370.61112 7.93973e-18
6372.07833 7.45641e-18
6373.54555 7.38575e-18
6375.02295 7.97065e-18
6376.49017 7.88790e-18
6377.95738 7.50799e-18
6379.43479 7.41496e-18
6380.90201 7.38476e-18
6382.36922 7.56372e-18
6383.83644 7.28414e-18
6385.31384 7.06569e-18
6386.78106 7.60754e-18
6388.24827 7.82222e-18
6389.71549 8.01253e-18
6391.19290 8.15675e-18
6392.66011 7.63519e-18
6394.12733 7.34317e-18
6395.60473 7.83748e-18
6397.07195 7.78266e-18
6398.53917 7.90941e-18
6400.00638 7.89117e-18
6401.48379 8.26686e-18
6402.95100 8.32916e-18
6404.41822 7.79309e-18
6405.88543 7.73337e-18
6407.36284 7.90384e-18
6408.83005 7.94955e-18
6410.29727 7.82696e-18
6411.76449 7.97242e-18
6413.24189 7.82367e-18
6414.70911 8.11349e-18
6416.17632 8.87801e-18
6417.65373 8.29165e-18
6419.12094 7.76151e-18
6420.58816 7.70390e-18
6422.05538 8.03636e-18
6423.53278 8.12115e-18
6425.00000 8.01090e-18
6426.46721 8.68067e-18
6427.94462 8.73628e-18
6429.41183 8.24752e-18
6430.87905 7.96634e-18
6432.34627 7.57128e-18
6433.82367 7.62507e-18
6435.29089 8.16056e-18
6436.75810 8.30997e-18
6438.22532 8.44611e-18
6439.70272 8.48436e-18
6441.16994 8.43607e-18
6442.63716 7.98815e-18
6444.11456 8.31322e-18
6445.58178 8.94072e-18
6447.04899 9.00143e-18
6448.51621 8.66819e-18
6449.99361 8.51241e-18
6451.46083 8.69846e-18
6452.92805 8.95084e-18
6454.39526 8.76543e-18
6455.87267 8.65532e-18
6457.33988 8.44745e-18
6458.80710 9.07396e-18
6460.28450 8.86567e-18
6461.75172 8.19905e-18
6463.21894 8.46922e-18
6464.68615 9.06234e-18
6466.16356 8.87589e-18
6467.63077 8.33749e-18
6469.09799 8.82488e-18
6470.56521 9.19618e-18
6472.04261 8.83206e-18
6473.50983 8.77762e-18
6474.97704 8.95766e-18
6476.45445 8.65526e-18
6477.92166 8.82929e-18
6479.38888 8.80320e-18
6480.85610 8.70281e-18
6482.33350 8.94147e-18
6483.80072 9.03923e-18
6485.26793 9.06245e-18
6486.73515 9.66495e-18
6488.21255 9.77914e-18
6489.67977 9.04404e-18
6491.14699 9.49520e-18
6492.62439 9.44258e-18
6494.09161 9.09417e-18
6495.55882 9.24606e-18
6497.02604 9.38103e-18
6498.50344 9.47422e-18
6499.97066 9.14315e-18
6501.43788 8.76712e-18
6502.90509 8.35650e-18
6504.38250 8.57996e-18
6505.84971 9.10488e-18
6507.31693 9.31419e-18
6508.79433 9.39352e-18
6510.26155 9.20930e-18
6511.72877 9.19808e-18
6513.19598 9.20982e-18
6514.67339 9.01066e-18
6516.14060 8.59456e-18
6517.60782 8.14294e-18
6519.07503 8.73535e-18
6520.55244 9.44779e-18
6522.01966 9.52199e-18
6523.48687 9.24359e-18
6524.96428 8.88672e-18
6526.43149 8.83055e-18
6527.89871 8.76924e-18
6529.36592 8.48998e-18
6530.84333 8.67915e-18
6532.31055 8.98587e-18
6533.77776 8.85358e-18
6535.24498 8.78272e-18
6536.72238 8.83350e-18
6538.18960 8.84419e-18
6539.65682 9.02476e-18
6541.13422 9.19754e-18
6542.60144 9.10015e-18
6544.06865 9.07919e-18
6545.53587 9.40272e-18
6547.01327 9.58688e-18
6548.48049 9.21891e-18
6549.94770 8.86160e-18
6551.41492 9.05692e-18
6552.89233 9.15421e-18
6554.35954 9.18893e-18
6555.82676 9.27042e-18
6557.30416 8.86379e-18
6558.77138 8.66177e-18
6560.23859 8.70595e-18
6561.70581 8.72207e-18
6563.18322 8.78472e-18
6564.65043 8.77339e-18
6566.11765 8.70710e-18
6567.58486 8.87727e-18
6569.06227 9.17831e-18
6570.52948 9.23995e-18
6571.99670 8.63945e-18
6573.47411 8.36098e-18
6574.94132 8.68398e-18
6576.40854 8.84922e-18
6577.87575 8.72675e-18
6579.35316 8.42959e-18
6580.82037 8.74458e-18
6582.28759 8.79522e-18
6583.75481 8.53805e-18
6585.23221 8.40522e-18
6586.69943 8.18264e-18
6588.16664 8.17553e-18
6589.64405 8.38242e-18
6591.11126 8.71335e-18
6592.57848 8.42400e-18
6594.04570 8.28941e-18
6595.52310 8.38844e-18
6596.99032 8.61854e-18
6598.45753 8.72020e-18
6599.92475 8.45434e-18
6601.40215 8.24076e-18
6602.86937 8.26715e-18
6604.33659 8.22954e-18
6605.81399 8.34033e-18
6607.28121 8.15986e-18
6608.74842 7.88544e-18
6610.21564 7.95408e-18
6611.69304 7.97516e-18
6613.16026 7.73274e-18
6614.62748 7.10439e-18
6616.10488 7.36363e-18
6617.57210 7.22360e-18
6619.03931 7.62746e-18
6620.50653 7.66205e-18
6621.98393 6.99023e-18
6623.45115 7.03237e-18
6624.91837 7.32789e-18
6626.38558 6.70202e-18
6627.86299 6.67426e-18
6629.33020 6.72191e-18
6630.79742 6.95427e-18
6632.27482 6.91743e-18
6633.74204 7.02371e-18
6635.20926 6.79409e-18
6636.67647 6.72059e-18
6638.15388 6.43904e-18
6639.62109 6.52562e-18
6641.08831 6.39051e-18
6642.55553 6.40362e-18
6644.03293 6.42754e-18
6645.50015 6.49070e-18
6646.96736 6.56875e-18
6648.44477 6.65001e-18
6649.91198 6.01468e-18
6651.37920 5.60765e-18
6652.84642 6.14286e-18
6654.32382 6.50730e-18
6655.79104 7.10068e-18
6657.25825 6.68857e-18
6658.72547 6.22940e-18
6660.20287 6.02770e-18
6661.67009 5.96380e-18
6663.13731 6.48185e-18
6664.60452 6.72160e-18
6666.08193 6.55769e-18
6667.54914 6.23450e-18
6669.01636 6.07157e-18
6670.49376 6.12328e-18
6671.96098 6.47800e-18
6673.42820 7.09361e-18
6674.89541 6.76296e-18
6676.37282 6.48045e-18
6677.84003 6.74622e-18
6679.30725 6.74161e-18
6680.77446 6.46244e-18
6682.25187 6.44352e-18
6683.71909 6.71409e-18
6685.18630 6.92451e-18
6686.66371 7.00400e-18
6688.13092 7.04236e-18
6689.59814 6.67638e-18
6691.06535 6.85327e-18
6692.54276 7.43741e-18
6694.00998 7.42068e-18
6695.47719 7.50410e-18
6696.95460 7.51265e-18
6698.42181 7.17845e-18
6699.88903 7.28647e-18
6701.35624 7.97562e-18
6702.83365 7.99366e-18
6704.30087 7.98645e-18
6705.76808 8.11953e-18
6707.23530 8.12914e-18
6708.71270 7.99414e-18
6710.17992 8.08102e-18
6711.64713 8.20716e-18
6713.12454 8.58167e-18
6714.59176 8.72017e-18
6716.05897 8.77283e-18
6717.52619 8.55606e-18
6719.00359 8.58430e-18
6720.47081 8.99214e-18
6721.93802 8.90450e-18
6723.40524 8.80354e-18
6724.88265 9.10136e-18
6726.34986 8.65743e-18
6727.81708 8.67191e-18
6729.29448 9.08875e-18
6730.76170 9.38394e-18
6732.22891 9.32717e-18
6733.69613 9.22776e-18
6735.17354 9.66085e-18
6736.64075 9.74552e-18
6738.10797 9.54035e-18
6739.57518 9.53768e-18
6741.05259 9.26742e-18
6742.51980 9.17077e-18
6743.98702 9.23365e-18
6745.46443 9.17477e-18
6746.93164 9.49376e-18
6748.39886 9.92233e-18
6749.86607 9.96999e-18
6751.34348 9.73590e-18
6752.81069 9.69981e-18
6754.27791 1.00601e-17
6755.74513 9.79237e-18
6757.22253 9.52144e-18
6758.68975 9.68985e-18
6760.15696 9.96468e-18
6761.63437 1.00049e-17
6763.10158 1.01309e-17
6764.56880 9.68624e-18
6766.03602 9.50193e-18
6767.51342 1.00359e-17
6768.98064 9.73531e-18
6770.44785 9.32059e-18
6771.91507 9.67063e-18
6773.39247 9.75894e-18
6774.85969 9.52765e-18
6776.32691 9.54606e-18
6777.80431 9.85309e-18
6779.27153 1.01254e-17
6780.73874 1.00435e-17
6782.20596 1.01605e-17
6783.68336 1.01911e-17
6785.15058 1.01993e-17
6786.61780 1.01804e-17
6788.08501 1.01108e-17
6789.56242 1.00218e-17
6791.02963 9.55468e-18
6792.49685 9.17468e-18
6793.97425 9.49490e-18
6795.44147 1.03718e-17
6796.90869 1.03279e-17
6798.37590 9.98680e-18
6799.85331 1.00954e-17
6801.32052 9.86571e-18
6802.78774 9.81303e-18
6804.25496 9.65462e-18
6805.73236 9.42212e-18
6807.19958 1.00002e-17
6808.66679 9.78582e-18
6810.14420 9.61423e-18
6811.61141 9.85766e-18
6813.07863 9.58799e-18
6814.54585 9.30961e-18
6816.02325 9.60010e-18
6817.49047 1.01874e-17
6818.95768 1.04857e-17
6820.43509 1.00484e-17
6821.90230 9.64872e-18
6823.36952 9.17170e-18
6824.83674 9.10821e-18
6826.31414 9.84000e-18
6827.78136 9.57079e-18
6829.24857 9.09066e-18
6830.71579 9.30780e-18
6832.19319 9.83300e-18
6833.66041 9.25654e-18
6835.12763 9.25292e-18
6836.60503 9.87511e-18
6838.07225 9.64993e-18
6839.53946 9.51957e-18
6841.00668 9.37260e-18
6842.48408 9.23705e-18
6843.95130 9.54294e-18
6845.41852 9.51985e-18
6846.88573 9.49676e-18
6848.36314 9.47367e-18
6849.83035 9.45058e-18
6851.29757 9.42750e-18
6852.76478 9.40441e-18
6854.24219 9.38132e-18
6855.70941 9.35824e-18
6857.17662 9.33516e-18
6858.65403 9.31208e-18
6860.12124 9.28900e-18
6861.58846 9.26592e-18
6863.05567 9.24284e-18
6864.53308 9.21977e-18
6866.00030 9.19669e-18
6867.46751 9.17361e-18
6868.93473 9.15054e-18
6870.41213 9.12747e-18
6871.87935 9.10440e-18
6873.34656 9.08133e-18
6874.82397 9.05827e-18
6876.29119 9.03519e-18
6877.75840 9.01213e-18
6879.22562 8.98906e-18
6880.70302 8.96600e-18
6882.17024 8.94294e-18
6883.63745 8.91987e-18
6885.11486 8.89682e-18
6886.58208 8.87375e-18
6888.04929 8.85070e-18
6889.51651 8.82764e-18
6890.99391 8.80458e-18
6892.46113 8.78153e-18
6893.92834 8.75847e-18
6895.39556 8.73542e-18
6896.87297 8.71237e-18
6898.34018 8.68932e-18
6899.80740 8.66627e-18
6901.27461 8.64322e-18
6902.75202 8.62017e-18
6904.21923 8.59712e-18
6905.68645 8.57408e-18
6907.16386 8.55104e-18
6908.63107 8.52800e-18
6910.09829 8.50495e-18
6911.56550 8.48192e-18
6913.04291 8.45887e-18
6914.51012 8.43584e-18
6915.97734 8.41280e-18
6917.45475 8.38976e-18
6918.92196 8.36673e-18
6920.38918 8.34369e-18
6921.85639 8.32067e-18
6923.33380 8.29763e-18
6924.80102 8.27461e-18
6926.26823 8.25157e-18
6927.73545 8.22854e-18
6929.21285 8.20552e-18
6930.68007 8.18249e-18
6932.14728 8.15947e-18
6933.62469 8.13644e-18
6935.09190 8.11343e-18
6936.55912 8.11139e-18
6938.02634 8.14002e-18
6939.50374 8.17611e-18
6940.97096 8.54992e-18
6942.43817 8.75152e-18
6943.90539 8.41679e-18
6945.38279 8.53231e-18
6946.85001 8.48449e-18
6948.31723 8.66395e-18
6949.79463 8.66746e-18
6951.26185 8.48920e-18
6952.72906 8.04790e-18
6954.19628 8.27099e-18
6955.67368 8.31245e-18
6957.14090 7.83150e-18
6958.60812 7.72510e-18
6960.07533 7.52830e-18
6961.55274 7.87021e-18
6963.01995 8.32610e-18
6964.48717 8.57983e-18
6965.96457 7.99799e-18
6967.43179 7.78194e-18
6968.89901 7.73014e-18
6970.36622 7.34307e-18
6971.84363 7.87274e-18
6973.31084 8.11778e-18
6974.77806 7.95252e-18
6976.24528 7.83689e-18
6977.72268 8.04554e-18
6979.18990 7.68722e-18
6980.65711 7.69422e-18
6982.13452 7.60267e-18
6983.60173 7.61615e-18
6985.06895 7.36392e-18
6986.53617 7.48699e-18
6988.01357 7.56279e-18
6989.48079 7.38249e-18
6990.94800 7.50330e-18
6992.41522 7.48485e-18
6993.89262 7.66607e-18
6995.35984 7.88743e-18
6996.82706 7.80915e-18
6998.30446 7.67725e-18
6999.77168 7.69349e-18
7001.23889 7.55000e-18
7002.70611 7.12886e-18
7004.18351 7.20180e-18
7005.65073 7.32010e-18
7007.11795 7.69712e-18
7008.58516 7.79962e-18
7010.06257 7.27309e-18
7011.52978 6.92451e-18
7012.99700 6.77512e-18
7014.47440 6.64346e-18
7015.94162 6.93943e-18
7017.40884 6.93368e-18
7018.87605 6.60047e-18
7020.35346 7.13428e-18
7021.82067 7.44753e-18
7023.28789 7.22682e-18
7024.75510 7.17730e-18
7026.23251 6.86293e-18
7027.69973 6.43904e-18
7029.16694 6.43912e-18
7030.64435 6.71600e-18
7032.11156 7.08311e-18
7033.57878 6.88324e-18
7035.04599 6.68471e-18
7036.52340 6.81854e-18
7037.99062 7.09879e-18
7039.45783 6.80695e-18
7040.92505 6.51017e-18
7042.40245 6.96995e-18
7043.86967 6.83197e-18
7045.33688 6.56081e-18
7046.81429 6.84955e-18
7048.28151 6.89846e-18
7049.74872 6.22653e-18
7051.21594 6.30180e-18
7052.69334 6.81382e-18
7054.16056 6.39784e-18
7055.62777 6.24408e-18
7057.09499 6.49461e-18
7058.57240 6.52234e-18
7060.03961 6.76816e-18
7061.50683 6.88370e-18
7062.98423 7.20497e-18
7064.45145 6.95163e-18
7065.91867 6.63292e-18
7067.38588 6.66040e-18
7068.86329 6.84916e-18
7070.33050 6.96444e-18
7071.79772 6.98701e-18
7073.26493 7.54376e-18
7074.74234 7.50881e-18
7076.20955 7.08590e-18
7077.67677 7.21305e-18
7079.15418 7.35204e-18
7080.62139 7.66987e-18
7082.08861 7.73910e-18
7083.55582 7.73394e-18
7085.03323 7.77041e-18
7086.50044 7.54490e-18
7087.96766 7.68084e-18
7089.43488 7.77038e-18
7090.91228 7.89289e-18
7092.37950 8.14290e-18
7093.84671 8.11584e-18
7095.32412 8.06654e-18
7096.79133 8.04310e-18
7098.25855 8.29960e-18
7099.72577 8.41875e-18
7101.20317 8.39506e-18
7102.67039 8.48671e-18
7104.13760 8.41461e-18
7105.60482 8.53123e-18
7107.08222 8.34087e-18
7108.54944 8.00504e-18
7110.01666 8.07227e-18
7111.49406 8.50165e-18
7112.96128 8.74016e-18
7114.42849 8.62277e-18
7115.89571 9.03041e-18
7117.37311 9.29666e-18
7118.84033 8.67064e-18
7120.30755 8.75946e-18
7121.77476 8.88590e-18
7123.25217 8.71293e-18
7124.71938 8.68381e-18
7126.18660 8.80324e-18
7127.66400 8.99046e-18
7129.13122 8.41039e-18
7130.59844 8.45110e-18
7132.06565 8.73407e-18
7133.54306 8.72613e-18
7135.01027 8.80779e-18
7136.47749 8.91781e-18
7137.94471 9.27220e-18
7139.42211 9.07438e-18
7140.88933 8.79020e-18
7142.35654 8.89650e-18
7143.83395 8.71157e-18
7145.30116 8.71000e-18
7146.76838 9.21442e-18
7148.23560 9.17468e-18
7149.71300 8.45275e-18
7151.18022 8.75595e-18
7152.64743 9.20317e-18
7154.12484 8.87094e-18
7155.59205 9.00780e-18
7157.05927 8.73181e-18
7158.52649 9.02721e-18
7160.00389 9.66014e-18
7161.47111 9.63971e-18
7162.93832 8.86518e-18
7164.40554 8.42043e-18
7165.88294 8.43769e-18
7167.35016 9.15621e-18
7168.81738 9.24870e-18
7170.29478 9.08371e-18
7171.76200 9.14091e-18
7173.22921 8.69271e-18
7174.69643 8.87291e-18
7176.17383 9.08839e-18
7177.64105 9.01913e-18
7179.10827 9.31363e-18
7180.57548 9.27979e-18
7182.05289 8.42196e-18
7183.52010 8.14188e-18
7184.98732 8.59354e-18
7186.46472 8.91865e-18
7187.93194 8.57706e-18
7189.39916 8.43094e-18
7190.86637 8.52806e-18
7192.34378 8.51864e-18
7193.81099 8.66495e-18
7195.27821 8.74917e-18
7196.74542 8.95393e-18
7198.22283 8.88725e-18
7199.69005 8.59671e-18
7201.15726 8.44674e-18
7202.62448 8.87225e-18
7204.10188 8.95262e-18
7205.56910 8.71400e-18
7207.03631 8.63375e-18
7208.51372 8.70754e-18
7209.98094 8.40160e-18
7211.44815 8.22446e-18
7212.91537 8.72843e-18
7214.39277 8.67802e-18
7215.85999 8.30809e-18
7217.32720 8.32723e-18
7218.80461 8.29923e-18
7220.27183 8.46604e-18
7221.73904 7.93685e-18
7223.20626 8.08048e-18
7224.68366 8.08167e-18
7226.15088 8.22164e-18
7227.61809 8.04522e-18
7229.08531 8.16509e-18
7230.56272 7.91250e-18
7232.02993 8.02185e-18
7233.49715 8.40660e-18
7234.97455 8.56301e-18
7236.44177 8.01090e-18
7237.90898 8.16018e-18
7239.37620 7.66597e-18
7240.85361 7.53688e-18
7242.32082 7.84481e-18
7243.78804 8.14578e-18
7245.25525 8.10486e-18
7246.73266 7.96052e-18
7248.19987 7.72324e-18
7249.66709 7.29318e-18
7251.14450 7.56251e-18
7252.61171 7.90343e-18
7254.07893 7.80765e-18
7255.54614 8.17933e-18
7257.02355 7.58435e-18
7258.49076 6.93425e-18
7259.95798 7.00527e-18
7261.42520 7.23922e-18
7262.90260 6.85413e-18
7264.36982 7.70827e-18
7265.83703 7.25030e-18
7267.31444 7.43786e-18
7268.78165 7.99006e-18
7270.24887 8.25664e-18
7271.71609 7.60055e-18
7273.19349 7.46050e-18
7274.66071 8.46209e-18
7276.12792 7.63045e-18
7277.59514 7.59472e-18
7279.07254 7.03552e-18
7280.53976 6.91997e-18
7282.00698 7.61707e-18
7283.48438 7.96752e-18
7284.95160 7.49280e-18
7286.41881 7.52964e-18
7287.88603 7.55451e-18
7289.36343 7.31004e-18
7290.83065 7.78309e-18
7292.29787 7.44661e-18
7293.76508 7.21018e-18
7295.24249 7.18835e-18
7296.70970 7.42093e-18
7298.17692 7.44333e-18
7299.65432 7.50998e-18
7301.12154 7.59052e-18
7302.58876 7.34777e-18
7304.05597 6.83137e-18
7305.53338 7.00113e-18
7307.00059 7.20528e-18
7308.46781 7.59429e-18
7309.93503 7.38157e-18
7311.41243 7.37874e-18
7312.87965 7.75009e-18
7314.34686 7.53398e-18
7315.82427 7.51129e-18
7317.29148 7.82100e-18
7318.75870 7.26825e-18
7320.22592 7.14393e-18
7321.70332 7.33997e-18
7323.17054 7.41794e-18
7324.63775 7.55322e-18
7326.10497 7.88052e-18
7327.58237 7.49536e-18
7329.04959 7.39427e-18
7330.51681 7.22273e-18
7331.99421 7.02289e-18
7333.46143 7.46256e-18
7334.92864 7.87443e-18
7336.39586 8.13586e-18
7337.87326 8.34460e-18
7339.34048 7.48734e-18
7340.80770 7.45966e-18
7342.27491 7.58662e-18
7343.75232 6.97263e-18
7345.21953 7.45326e-18
7346.68675 7.41304e-18
7348.16415 7.50999e-18
7349.63137 7.99829e-18
7351.09859 7.77715e-18
7352.56580 7.59413e-18
7354.04321 7.79883e-18
7355.51042 7.97599e-18
7356.97764 8.15217e-18
7358.45504 7.75359e-18
7359.92226 7.56087e-18
7361.38948 6.88395e-18
7362.85669 7.05774e-18
7364.33410 7.65481e-18
7365.80131 8.28781e-18
7367.26853 8.16485e-18
7368.73574 7.33701e-18
7370.21315 7.43862e-18
7371.68037 7.55881e-18
7373.14758 7.76646e-18
7374.62499 7.15913e-18
7376.09220 6.93673e-18
7377.55942 7.33822e-18
7379.02663 7.04776e-18
7380.50404 7.39027e-18
7381.97126 7.38556e-18
7383.43847 7.28495e-18
7384.90569 7.02550e-18
7386.38309 7.29728e-18
7387.85031 7.16308e-18
7389.31752 7.47928e-18
7390.78474 7.44751e-18
7392.26215 7.62338e-18
7393.72936 7.48211e-18
7395.19658 7.37416e-18
7396.67398 7.67152e-18
7398.14120 7.39070e-18
7399.60841 6.61238e-18
7401.07563 7.22584e-18
7402.55304 7.55714e-18
7404.02025 7.62297e-18
7405.48747 7.64199e-18
7406.95468 7.92905e-18
7408.43209 7.63223e-18
7409.89930 6.98208e-18
7410.20084 6.98208e-18
7411.86848 7.10766e-18
7413.52607 7.23319e-18
7415.18366 7.21672e-18
7416.84125 7.20020e-18
7418.50888 6.99590e-18
7420.16647 6.79170e-18
7421.82406 6.92496e-18
7423.48165 7.05819e-18
7425.14929 7.11936e-18
7426.80688 7.18052e-18
7428.46447 7.15732e-18
7430.13211 7.13407e-18
7431.78970 6.96550e-18
7433.44729 6.79698e-18
7435.10488 6.74072e-18
7436.77251 6.68453e-18
7438.43010 6.83065e-18
7440.08769 6.97671e-18
7441.74528 6.88506e-18
7443.41292 6.79346e-18
7445.07051 6.80114e-18
7446.72810 6.80883e-18
7448.39573 6.88856e-18
7450.05332 6.96827e-18
7451.71091 6.96632e-18
7453.36850 6.96437e-18
7455.03614 6.98588e-18
7456.69373 7.00742e-18
7458.35132 7.08991e-18
7460.00891 7.17239e-18
7461.67655 7.18521e-18
7463.33414 7.19802e-18
7464.99173 7.15698e-18
7466.65936 7.11590e-18
7468.31695 6.86344e-18
7469.97454 6.61106e-18
7471.63213 6.58796e-18
7473.29977 6.56491e-18
7474.95736 6.68486e-18
7476.61495 6.80477e-18
7478.28258 6.79734e-18
7479.94017 6.78986e-18
7481.59776 6.65239e-18
7483.25535 6.51498e-18
7484.92299 6.64802e-18
7486.58058 6.78103e-18
7488.23817 6.83728e-18
7489.89576 6.89352e-18
7491.56340 6.96038e-18
7493.22099 7.02719e-18
7494.87858 6.93051e-18
7496.54621 6.83384e-18
7498.20380 6.74959e-18
7499.86139 6.66531e-18
7501.51898 6.50514e-18
7503.18662 6.34505e-18
7504.84421 6.39147e-18
7506.50180 6.43788e-18
7508.16943 6.47027e-18
7509.82702 6.50264e-18
7511.48461 6.47029e-18
7513.14220 6.43801e-18
7514.80984 6.58913e-18
7516.46743 6.74016e-18
7518.12502 6.56247e-18
7519.78261 6.38485e-18
7521.45025 6.45024e-18
7523.10784 6.51564e-18
7524.76543 6.57601e-18
7526.43306 6.63636e-18
7528.09065 6.61314e-18
7529.74824 6.58988e-18
7531.40583 6.42820e-18
7533.07347 6.26660e-18
7534.73106 6.37850e-18
7536.38865 6.49036e-18
7538.04624 6.52154e-18
7539.71387 6.55269e-18
7541.37146 6.53144e-18
7543.02905 6.51014e-18
7544.69669 6.34953e-18
7546.35428 6.18900e-18
7548.01187 6.28403e-18
7549.66946 6.37904e-18
7551.33710 6.36881e-18
7552.99469 6.35858e-18
7554.65228 6.34835e-18
7556.30987 6.33813e-18
7557.97750 6.32790e-18
7559.63509 6.31768e-18
7561.29268 6.30745e-18
7562.96032 6.29723e-18
7564.61791 6.28701e-18
7566.27550 6.27679e-18
7567.93309 6.26656e-18
7569.60072 6.25634e-18
7571.25831 6.24611e-18
7572.91590 6.23589e-18
7574.58354 6.22567e-18
7576.24113 6.21544e-18
7577.89872 6.20522e-18
7579.55631 6.19500e-18
7581.22395 6.18478e-18
7582.88154 6.17456e-18
7584.53913 6.16434e-18
7586.19672 6.15412e-18
7587.86435 6.14391e-18
7589.52194 6.13368e-18
7591.17953 6.12346e-18
7592.84717 6.11325e-18
7594.50476 6.10302e-18
7596.16235 6.09281e-18
7597.81994 6.08259e-18
7599.48757 6.07237e-18
7601.14516 6.06215e-18
7602.80275 6.05193e-18
7604.46034 6.04171e-18
7606.12798 6.03150e-18
7607.78557 6.02128e-18
7609.44316 6.01107e-18
7611.11080 6.00085e-18
7612.76839 5.99063e-18
7614.42598 5.98042e-18
7616.08357 5.97020e-18
7617.75120 5.95999e-18
7619.40879 5.94977e-18
7621.06638 5.93956e-18
7622.72397 5.92934e-18
7624.39161 5.91913e-18
7626.04920 5.90891e-18
7627.70679 5.89870e-18
7629.37442 5.88849e-18
7631.03201 5.87828e-18
7632.68960 5.86807e-18
7634.34719 5.85786e-18
7636.01483 5.84765e-18
7637.67242 5.83744e-18
7639.33001 5.82723e-18
7640.99765 5.81702e-18
7642.65524 5.80681e-18
7644.31283 5.79660e-18
7645.97042 5.78639e-18
7647.63805 5.77618e-18
7649.29564 5.76597e-18
7650.95323 5.75576e-18
7652.61082 5.74555e-18
7654.27846 5.73534e-18
7655.93605 5.72513e-18
7657.59364 5.71492e-18
7659.26127 5.70471e-18
7660.91886 5.69451e-18
7662.57645 5.68430e-18
7664.23404 5.67409e-18
7665.90168 5.66389e-18
7667.55927 5.65368e-18
7669.21686 5.64347e-18
7670.87445 5.63327e-18
7672.54209 5.62307e-18
7674.19968 5.61286e-18
7675.85727 5.60266e-18
7677.52490 5.59246e-18
7679.18249 5.58225e-18
7680.84008 5.57205e-18
7682.49767 5.44709e-18
7684.16531 5.43426e-18
7685.82290 5.42151e-18
7687.48049 5.69428e-18
7689.13808 5.96692e-18
7690.80571 5.85958e-18
7692.46330 5.75226e-18
7694.12089 5.76888e-18
7695.78853 5.78547e-18
7697.44612 5.72402e-18
7699.10371 5.66264e-18
7700.76130 5.84746e-18
7702.42894 6.03214e-18
7704.08653 5.80992e-18
7705.74412 5.58780e-18
7707.40171 5.73110e-18
7709.06934 5.87434e-18
7710.72693 5.85095e-18
7712.38452 5.82758e-18
7714.05216 5.91067e-18
7715.70975 5.99368e-18
7717.36734 5.86789e-18
7719.02493 5.74218e-18
7720.69256 5.84067e-18
7722.35015 5.93909e-18
7724.00774 5.78235e-18
7725.67538 5.62563e-18
7727.33297 5.50320e-18
7728.99056 5.38086e-18
7730.64815 5.54752e-18
7732.31579 5.71413e-18
7733.97338 5.76247e-18
7735.63097 5.81077e-18
7737.28856 5.73252e-18
7738.95619 5.65429e-18
7740.61378 5.70681e-18
7742.27137 5.75931e-18
7743.93901 5.77816e-18
7745.59660 5.79705e-18
7747.25419 5.92796e-18
7748.91178 6.05876e-18
7750.57941 5.83922e-18
7752.23700 5.61973e-18
7753.89459 5.54200e-18
7755.55218 5.46434e-18
7757.21982 5.59825e-18
7758.87741 5.73222e-18
7760.53500 6.04165e-18
7762.20264 6.35094e-18
7763.86023 6.22661e-18
7765.51782 6.10232e-18
7767.17541 6.12850e-18
7768.84304 6.15465e-18
7770.50063 6.12251e-18
7772.15822 6.09036e-18
7773.81581 6.03996e-18
7775.48345 5.98955e-18
7777.14104 5.92480e-18
7778.79863 5.86011e-18
7780.46626 5.95238e-18
7782.12385 6.04459e-18
7783.78144 5.92326e-18
7785.43903 5.80203e-18
7787.10667 5.95702e-18
7788.76426 6.11199e-18
7790.42185 6.21000e-18
7792.07944 6.30797e-18
7793.74708 6.24636e-18
7795.40467 6.18478e-18
7797.06226 6.22416e-18
7798.72989 6.26354e-18
7800.38748 6.30213e-18
7802.04507 6.34068e-18
7803.70266 6.28910e-18
7805.37030 6.23755e-18
7807.02789 6.26847e-18
7808.68548 6.29935e-18
7810.35311 6.21282e-18
7812.01070 6.12639e-18
7813.66829 6.38061e-18
7815.32588 6.63469e-18
7816.99352 6.48210e-18
7818.65111 6.32955e-18
7820.30870 6.28313e-18
7821.96629 6.23668e-18
7823.63393 6.09518e-18
7825.29152 5.95373e-18
7826.94911 5.95550e-18
7828.61674 5.95726e-18
7830.27433 5.92332e-18
7831.93192 5.88941e-18
7833.58951 5.98958e-18
7835.25715 6.08976e-18
7836.91474 6.21404e-18
7838.57233 6.33820e-18
7840.22992 6.08564e-18
7841.89755 5.83320e-18
7843.55514 5.95079e-18
7845.21273 6.06833e-18
7846.88037 6.05466e-18
7848.53796 6.04103e-18
7850.19555 6.17489e-18
7851.85314 6.30879e-18
7853.52078 6.64578e-18
7855.17837 6.98262e-18
7856.83596 6.78698e-18
7858.50359 6.59137e-18
7860.16118 6.43037e-18
7861.81877 6.26949e-18
7863.47636 6.46040e-18
7865.14400 6.65120e-18
7866.80159 6.49921e-18
7868.45918 6.34730e-18
7870.11677 6.42764e-18
7871.78440 6.50791e-18
7873.44199 6.39870e-18
7875.09958 6.28952e-18
7876.76722 6.28509e-18
7878.42481 6.28068e-18
7880.08240 6.36587e-18
7881.73999 6.45099e-18
7883.40763 6.31980e-18
7885.06522 6.18873e-18
7886.72281 6.42223e-18
7888.38040 6.65564e-18
7890.04803 6.58186e-18
7891.70562 6.50803e-18
7893.36321 6.29428e-18
7895.03085 6.08060e-18
7896.68844 6.03882e-18
7898.34603 5.99705e-18
7900.00362 5.97125e-18
7901.67125 5.94552e-18
7903.32884 6.09250e-18
7904.98643 6.23943e-18
7906.64402 6.24100e-18
7908.31166 6.24255e-18
7909.96925 6.16994e-18
7911.62684 6.09730e-18
7913.29448 5.93493e-18
7914.95207 5.77267e-18
7916.60966 5.98402e-18
7918.26725 6.19526e-18
7919.93488 6.08032e-18
7921.59247 5.96548e-18
7923.25006 6.15601e-18
7924.90765 6.34647e-18
7926.57529 6.33228e-18
7928.23288 6.31805e-18
7929.89047 6.15521e-18
7931.55810 5.99239e-18
7933.21569 5.90411e-18
7934.87328 5.81588e-18
7936.53087 5.91016e-18
7938.19851 6.00437e-18
7939.85610 5.86959e-18
7941.51369 5.73487e-18
7943.18133 5.81675e-18
7944.83892 5.89869e-18
7946.49651 6.16279e-18
7948.15410 6.42675e-18
7949.82173 6.21987e-18
7951.47932 6.01298e-18
7953.13691 5.78545e-18
7954.79450 5.55808e-18
7956.46214 5.78853e-18
7958.11973 6.01883e-18
7959.77732 5.74886e-18
7961.44495 5.47903e-18
7963.10254 5.66317e-18
7964.76013 5.84726e-18
7966.41772 5.81509e-18
7968.08536 5.78294e-18
7969.74295 5.80192e-18
7971.40054 5.82091e-18
7973.05813 5.88912e-18
7974.72577 5.95725e-18
7976.38336 5.77588e-18
7978.04095 5.59455e-18
7979.70858 5.50546e-18
7981.36617 5.41648e-18
7983.02376 5.62534e-18
7984.68135 5.83415e-18
7986.34899 5.89656e-18
7988.00658 5.95890e-18
7989.66417 5.85382e-18
7991.33180 5.74881e-18
7992.98939 5.85601e-18
7994.64698 5.96308e-18
7996.30457 5.69820e-18
7997.97221 5.43347e-18
7999.62980 5.63497e-18
8001.28739 5.83634e-18
8002.94498 5.68623e-18
8004.61262 5.53618e-18
8006.27021 5.48679e-18
8007.92780 5.43750e-18
8009.59543 5.68549e-18
8011.25302 5.93332e-18
8012.91061 5.72781e-18
8014.56820 5.52238e-18
8016.23584 5.54292e-18
8017.89343 5.56347e-18
8019.55102 5.65511e-18
8021.20861 5.74673e-18
8022.87624 5.75160e-18
8024.53383 5.75642e-18
8026.19142 5.62292e-18
8027.85906 5.48944e-18
8029.51665 5.43731e-18
8031.17424 5.38516e-18
8032.83183 5.28627e-18
8034.49947 5.18746e-18
8036.15706 5.36014e-18
8037.81465 5.53275e-18
8039.47224 5.53169e-18
8041.13987 5.53062e-18
8042.79746 5.46330e-18
8044.45505 5.39599e-18
8046.12269 5.32202e-18
8047.78028 5.24811e-18
8049.43787 5.37149e-18
8051.09546 5.49480e-18
8052.76309 5.45718e-18
8054.42068 5.41953e-18
8056.07827 5.29498e-18
8057.73586 5.17050e-18
8059.40350 5.24376e-18
8061.06109 5.31701e-18
8062.71868 5.33977e-18
8064.38632 5.36247e-18
8066.04391 5.22116e-18
8067.70150 5.07990e-18
8069.35909 5.03281e-18
8071.02672 4.98578e-18
8072.68431 5.06852e-18
8074.34190 5.15127e-18
8076.00954 5.23247e-18
8077.66713 5.31365e-18
8079.32472 5.30276e-18
8080.98231 5.29181e-18
8082.64994 5.10447e-18
8084.30753 4.91715e-18
8085.96512 4.82541e-18
8087.62271 4.73370e-18
8089.29035 4.78968e-18
8090.94794 4.84567e-18
8092.60553 4.90732e-18
8094.27317 4.96897e-18
8095.93076 4.97221e-18
8097.58835 4.97544e-18
8099.24594 4.97092e-18
8100.91357 4.96642e-18
8102.57116 5.00622e-18
8104.22875 5.04597e-18
8105.88634 4.95825e-18
8107.55398 4.87059e-18
8109.21157 4.94568e-18
8110.86916 5.02069e-18
8112.53679 4.83549e-18
8114.19438 4.65042e-18
8115.85197 4.80698e-18
8117.50956 4.96356e-18
8119.17720 5.15895e-18
8120.83479 5.35421e-18
8122.49238 5.17620e-18
8124.16002 4.99817e-18
8125.81761 4.74096e-18
8127.47520 4.48387e-18
8129.13279 4.54876e-18
8130.80042 4.61368e-18
8132.45801 4.76171e-18
8134.11560 4.90968e-18
8135.77319 4.92964e-18
8137.44083 4.94959e-18
8139.09842 4.97892e-18
8140.75601 5.00821e-18
8142.41360 4.95570e-18
8144.08123 4.90315e-18
8145.73882 4.72777e-18
8147.39641 4.55252e-18
8149.06405 4.73205e-18
8150.72164 4.91150e-18
8152.37923 4.87633e-18
8154.03682 4.84112e-18
8155.70446 4.66071e-18
8157.36205 4.48041e-18
8159.01964 4.59648e-18
8160.68727 4.71253e-18
8162.34486 4.77271e-18
8164.00245 4.83282e-18
8165.66004 4.68887e-18
8167.32768 4.54505e-18
8168.98527 4.78027e-18
8170.64286 5.01539e-18
8172.30045 5.00640e-18
8173.96808 4.99728e-18
8175.62567 4.59847e-18
8177.28326 4.19983e-18
8178.95090 4.31907e-18
8180.60849 4.43833e-18
8182.26608 4.59590e-18
8183.92367 4.75344e-18
8185.59131 4.82708e-18
8187.24890 4.90060e-18
8188.90649 4.60065e-18
8190.56408 4.30084e-18
8192.23171 4.34666e-18
8193.88930 4.39255e-18
8195.54689 4.61875e-18
8197.21453 4.84486e-18
8198.87212 4.84473e-18
8200.52971 4.84456e-18
8202.18730 4.74709e-18
8203.85493 4.64965e-18
8205.51252 4.66826e-18
8207.17011 4.68688e-18
8208.82770 4.70950e-18
8210.49534 4.73203e-18
8212.15293 4.47588e-18
8213.81052 4.21986e-18
8215.47816 4.33894e-18
8217.13575 4.45795e-18
8218.79334 4.34914e-18
8220.45093 4.24043e-18
8222.11856 4.41423e-18
8223.77615 4.58793e-18
8225.43374 4.46898e-18
8227.09133 4.35013e-18
8228.75897 4.44627e-18
8230.41656 4.54237e-18
8232.07415 4.45842e-18
8233.74178 4.37449e-18
8235.39937 4.37111e-18
8237.05696 4.36772e-18
8238.71455 4.27529e-18
8240.38219 4.18288e-18
8242.03978 4.09930e-18
8243.69737 4.01583e-18
8245.36501 4.26242e-18
8247.02260 4.50891e-18
8248.68019 4.44951e-18
8250.33778 4.39014e-18
8252.00541 4.40732e-18
8253.66300 4.42438e-18
8255.32059 4.10566e-18
8256.97818 3.78717e-18
8258.64582 4.05194e-18
8260.30341 4.31663e-18
8261.96100 4.38873e-18
8263.62863 4.46078e-18
8265.28622 4.37657e-18
8266.94381 4.29236e-18
8268.60140 4.15170e-18
8270.26904 4.01110e-18
8271.92663 3.99760e-18
8273.58422 3.98413e-18
8275.25186 4.02958e-18
8276.90945 4.07498e-18
8278.56704 4.01013e-18
8280.22463 3.94529e-18
8281.89226 3.85504e-18
8283.54985 3.76486e-18
8285.20744 3.87103e-18
8286.86503 3.97714e-18
8288.53267 3.90849e-18
8290.19026 3.83988e-18
8291.84785 3.91481e-18
8293.51548 3.98973e-18
8295.17307 4.05372e-18
8296.83066 4.11767e-18
8298.48825 4.08258e-18
8300.15589 4.04742e-18
8301.81348 3.85432e-18
8303.47107 3.66131e-18
8305.12866 3.71169e-18
8306.79630 3.76203e-18
8308.45389 3.72887e-18
8310.11148 3.69570e-18
8311.77911 3.62491e-18
8313.43670 3.55415e-18
8315.09429 3.62376e-18
8316.75188 3.69338e-18
8318.41952 3.80498e-18
8320.07711 3.91652e-18
8321.73470 3.84195e-18
8323.40233 3.76733e-18
8325.05992 3.55295e-18
8326.71751 3.33869e-18
8328.37510 3.42145e-18
8330.04274 3.50422e-18
8331.70033 3.58078e-18
8333.35792 3.65732e-18
8335.01551 3.67052e-18
8336.68315 3.68373e-18
8338.34074 3.71160e-18
8339.99833 3.73948e-18
8341.65592 3.79958e-18
8343.32355 3.85974e-18
8344.98114 4.02932e-18
8346.63873 4.19881e-18
8348.30637 4.09337e-18
8349.96396 3.98789e-18
8351.62155 3.76943e-18
8353.27914 3.55105e-18
8354.94677 3.60144e-18
8356.60436 3.65184e-18
8358.26195 3.76502e-18
8359.92959 3.87815e-18
8361.58718 3.85776e-18
8363.24477 3.83733e-18
8364.90236 3.72506e-18
8366.57000 3.61279e-18
8368.22759 3.53248e-18
8369.88518 3.45224e-18
8371.54277 3.61112e-18
8373.21040 3.76985e-18
8374.86799 3.52989e-18
8376.52558 3.29010e-18
8378.19322 3.51591e-18
8379.85081 3.74161e-18
8381.50840 3.62498e-18
8383.16599 3.50841e-18
8384.83362 3.57388e-18
8386.49121 3.63927e-18
8388.14880 3.48620e-18
8389.81644 3.33324e-18
8391.47403 3.48963e-18
8393.13162 3.64601e-18
8394.78921 3.78489e-18
8396.45685 3.92369e-18
8398.11444 3.84453e-18
8399.77203 3.76538e-18
8401.42962 3.69953e-18
8403.09725 3.63372e-18
8404.75484 3.69842e-18
8406.41243 3.76316e-18
8408.08007 3.94923e-18
8409.73766 4.13518e-18
8411.39525 3.96966e-18
8413.05284 3.80420e-18
8414.72047 3.81562e-18
8416.37806 3.82699e-18
8418.03565 3.72127e-18
8419.69324 3.61558e-18
8421.36088 3.59169e-18
8423.01847 3.56783e-18
8424.67606 3.61402e-18
8426.34370 3.66013e-18
8428.00129 3.43938e-18
8429.65888 3.21877e-18
8431.31647 3.39936e-18
8432.98410 3.57993e-18
8434.64169 3.71567e-18
8436.29928 3.85134e-18
8437.95687 3.82138e-18
8439.62451 3.79143e-18
8441.28210 3.73880e-18
8442.93969 3.68611e-18
8444.60732 3.45646e-18
8446.26491 3.22693e-18
8447.92250 3.31428e-18
8449.58009 3.40166e-18
8451.24773 3.60115e-18
8452.90532 3.80058e-18
8454.56291 3.86288e-18
8456.22050 3.92510e-18
8457.88814 3.77865e-18
8459.54573 3.63223e-18
8461.20332 3.56189e-18
8462.87095 3.49159e-18
8464.52854 3.55058e-18
8466.18613 3.60954e-18
8467.84372 3.62289e-18
8469.51136 3.63623e-18
8471.16895 3.62529e-18
8472.82654 3.61434e-18
8474.48413 3.58514e-18
8476.15176 3.55600e-18
8477.80935 3.63312e-18
8479.46694 3.71029e-18
8481.13458 3.93372e-18
8482.79217 4.15700e-18
8484.44976 3.97607e-18
8486.10735 3.79520e-18
8487.77499 3.78541e-18
8489.43258 3.77570e-18
8491.09017 4.00584e-18
8492.75780 4.23582e-18
8494.41539 4.04988e-18
8496.07298 3.86402e-18
8497.73057 3.90597e-18
8499.39821 3.94790e-18
8501.05580 3.95882e-18
8502.71339 3.96974e-18
8504.37098 3.96535e-18
8506.03861 3.96095e-18
8507.69620 3.94023e-18
8509.35379 3.91954e-18
8511.01138 3.96736e-18
8512.67902 4.01515e-18
8514.33661 3.96796e-18
8515.99420 3.92082e-18
8517.66184 4.03732e-18
8519.31943 4.15373e-18
8520.97702 4.04404e-18
8522.63461 3.93435e-18
8524.30224 3.84867e-18
8525.95983 3.76310e-18
8527.61742 3.97119e-18
8529.28506 4.17924e-18
8530.94265 4.32330e-18
8532.60024 4.46723e-18
8534.25783 4.24495e-18
8535.92546 4.02282e-18
8537.58305 4.23176e-18
8539.24064 4.44058e-18
8540.89823 4.31336e-18
8542.56587 4.18619e-18
8544.22346 4.17548e-18
8545.88105 4.16478e-18
8547.54869 4.17712e-18
8549.20628 4.18954e-18
8550.86387 4.39152e-18
8552.52146 4.59342e-18
8554.18909 4.59064e-18
8555.84668 4.58792e-18
8557.50427 4.69918e-18
8559.17191 4.81035e-18
8560.82950 4.70572e-18
8562.48709 4.60110e-18
8564.14468 4.51922e-18
8565.81231 4.43743e-18
8567.46990 4.57667e-18
8569.12749 4.71585e-18
8570.78508 4.70363e-18
8572.45272 4.69135e-18
8574.11031 4.54585e-18
8575.76790 4.40035e-18
8577.43554 4.30955e-18
8579.09313 4.21882e-18
8580.75072 4.33290e-18
8582.40831 4.44690e-18
8584.07594 4.39806e-18
8585.73353 4.34928e-18
8587.39112 4.45767e-18
8589.04871 4.56607e-18
8590.71635 4.69187e-18
8592.37394 4.81758e-18
8594.03153 4.68610e-18
8595.69916 4.55465e-18
8597.35675 4.48065e-18
8599.01434 4.40670e-18
8600.67193 4.44248e-18
8602.33957 4.47832e-18
8603.99716 4.69398e-18
8605.65475 4.90952e-18
8607.32239 4.82475e-18
8608.97998 4.73996e-18
8610.63757 4.61400e-18
8612.29516 4.48808e-18
8613.96279 4.49798e-18
8615.62038 4.50788e-18
8617.27797 4.52699e-18
8618.93556 4.54609e-18
8620.60320 4.52925e-18
8622.26079 4.51247e-18
8623.91838 4.71046e-18
8625.58601 4.90840e-18
8627.24360 4.99828e-18
8628.90119 5.08806e-18
8630.55878 4.94152e-18
8632.22642 4.79501e-18
8633.88401 4.70076e-18
8635.54160 4.60661e-18
8637.20924 4.77527e-18
8638.86683 4.94390e-18
8640.52442 5.02052e-18
8642.18201 5.09701e-18
8643.84964 4.76375e-18
8645.50723 4.43063e-18
8647.16482 4.48623e-18
8648.82241 4.54186e-18
8650.49005 4.75817e-18
8652.14764 4.97437e-18
8653.80523 4.97416e-18
8655.46282 4.97390e-18
8657.13045 4.89110e-18
8658.78804 4.80837e-18
8660.44563 4.89072e-18
8662.11327 4.97295e-18
8663.77086 4.79265e-18
8665.42845 4.61242e-18
8667.08604 4.65446e-18
8668.75368 4.69647e-18
8670.41127 4.68229e-18
8672.06886 4.66812e-18
8673.73649 4.71798e-18
8675.39408 4.76777e-18
8677.05167 4.65171e-18
8678.70926 4.53573e-18
8680.37690 4.62042e-18
8682.03449 4.70508e-18
8683.69208 4.74280e-18
8685.34967 4.78043e-18
8687.01730 4.61848e-18
8688.67489 4.45665e-18
8690.33248 4.60916e-18
8691.99007 4.76164e-18
8693.65771 4.81965e-18
8695.31530 4.87759e-18
8696.97289 4.75853e-18
8698.64053 4.63952e-18
8700.29812 4.67078e-18
8701.95571 4.70206e-18
8703.61330 4.79020e-18
8705.28093 4.87826e-18
8706.93852 4.79561e-18
8708.59611 4.71295e-18
8710.26375 4.63022e-18
8711.92134 4.54757e-18
8713.57893 4.65396e-18
8715.23652 4.76029e-18
8716.90415 4.70180e-18
8718.56174 4.64330e-18
8720.21933 4.56573e-18
8721.87692 4.48818e-18
8723.54456 4.51696e-18
8725.20215 4.54576e-18
8726.85974 4.63066e-18
8728.52738 4.71557e-18
8730.18497 4.83128e-18
8731.84256 4.94690e-18
8733.50015 4.80806e-18
8735.16778 4.66932e-18
8736.82537 4.75997e-18
8738.48296 4.85056e-18
8740.14055 4.74447e-18
8741.80819 4.63845e-18
8743.46578 4.74183e-18
8745.12337 4.84508e-18
8746.79100 4.61318e-18
8748.44859 4.38141e-18
8750.10618 4.46583e-18
8751.76377 4.55035e-18
8753.43141 4.88263e-18
8755.08900 5.21478e-18
8756.74659 5.24596e-18
8758.40418 5.27698e-18
8760.07182 4.91557e-18
8761.72941 4.55426e-18
8763.38700 4.50476e-18
8765.05463 4.45530e-18
8766.71222 4.51702e-18
8768.36981 4.57868e-18
8770.02740 4.50853e-18
8771.69504 4.43841e-18
8773.35263 4.44703e-18
8775.01022 4.45563e-18
8776.67785 4.43914e-18
8778.33544 4.42265e-18
8779.99303 4.41973e-18
8781.65062 4.41684e-18
8783.31826 4.46671e-18
8784.97585 4.51650e-18
8786.63344 4.31405e-18
8788.29103 4.11164e-18
8789.95867 4.02987e-18
8791.61626 3.94822e-18
8793.27385 4.21762e-18
8794.94148 4.48688e-18
8796.59907 4.35809e-18
8798.25666 4.22936e-18
8799.91425 4.20354e-18
8801.58189 4.17773e-18
8803.23948 4.15543e-18
8804.89707 4.13312e-18
8806.56470 4.14776e-18
8808.22229 4.16241e-18
8809.87988 4.23103e-18
8811.53747 4.29964e-18
8813.20511 4.30983e-18
8814.86270 4.32003e-18
8816.52029 4.37298e-18
8818.17788 4.42591e-18
8819.84552 4.44885e-18
8821.50311 4.47179e-18
8823.16070 4.46455e-18
8824.82833 4.45732e-18
8826.48592 4.45366e-18
8828.14351 4.44985e-18
8829.80110 4.06062e-18
8831.46874 3.67168e-18
8833.12633 4.01973e-18
8834.78392 4.36760e-18
8836.44151 4.28480e-18
8838.10914 4.20203e-18
8839.76673 4.19538e-18
8841.42432 4.18871e-18
8843.09196 4.11128e-18
8844.74955 4.03387e-18
8846.40714 4.02885e-18
8848.06473 4.02383e-18
8849.73237 4.02541e-18
8851.38996 4.02703e-18
8853.04755 4.12308e-18
8854.71518 4.21902e-18
8856.37277 4.10147e-18
8858.03036 3.98394e-18
8859.68795 3.90281e-18
8861.35559 3.82171e-18
8863.01318 3.81428e-18
8864.67077 3.80688e-18
8866.32836 3.86778e-18
8867.99599 3.92870e-18
8869.65358 4.01926e-18
8871.31117 4.10980e-18
8872.97881 4.10548e-18
8874.63640 4.10109e-18
8876.29399 3.95323e-18
8877.95158 3.80548e-18
8879.61922 3.92594e-18
8881.27681 4.04633e-18
8882.93440 4.00469e-18
8884.60203 3.96311e-18
8886.25962 4.07375e-18
8887.91721 4.18435e-18
8889.57480 4.20463e-18
8891.24244 4.22482e-18
8892.90003 3.99898e-18
8894.55762 3.77327e-18
8896.21521 3.85571e-18
8897.88284 3.93813e-18
8899.54043 3.93931e-18
8901.19802 3.94048e-18
8902.85561 3.91736e-18
8904.52325 3.89424e-18
8906.18084 3.87910e-18
8907.83843 3.86392e-18
8909.50607 3.70415e-18
8911.16366 3.54447e-18
8912.82125 3.58477e-18
8914.47884 3.62500e-18
8916.14647 3.51005e-18
8917.80406 3.39522e-18
8919.46165 3.55668e-18
8921.11924 3.71805e-18
8922.78688 3.66942e-18
8924.44447 3.62090e-18
8926.10206 3.89638e-18
8927.76969 4.17173e-18
8929.42728 4.12826e-18
8931.08487 4.08466e-18
8932.74246 3.72392e-18
8934.41010 3.36333e-18
8936.06769 3.34398e-18
8937.72528 3.32473e-18
8939.38287 3.52875e-18
8941.05051 3.73259e-18
8942.70810 3.49331e-18
8944.36569 3.25415e-18
8946.03332 3.31887e-18
8947.69091 3.38352e-18
8949.34850 3.30001e-18
8951.00609 3.21659e-18
8952.67373 3.36385e-18
8954.33132 3.51095e-18
8955.98891 3.26543e-18
8957.64650 3.02007e-18
8959.31413 3.15581e-18
8960.97172 3.29153e-18
8962.62931 3.38896e-18
8964.29695 3.48639e-18
8965.95454 3.63055e-18
8967.61213 3.77460e-18
8969.26972 3.67304e-18
8970.93736 3.57151e-18
8972.59495 3.55439e-18
8974.25254 3.53726e-18
8975.92017 3.50726e-18
8977.57776 3.47723e-18
8979.23535 3.39015e-18
8980.89294 3.30314e-18
8982.56058 3.38085e-18
8984.21817 3.45856e-18
8985.87576 3.55716e-18
8987.53335 3.65567e-18
8989.20098 3.49529e-18
8990.85857 3.33496e-18
8992.51616 3.28165e-18
8994.18380 3.22839e-18
8995.84139 3.29534e-18
8997.49898 3.36227e-18
8999.15657 3.42459e-18
9000.82421 3.48692e-18
9002.48180 3.59745e-18
9004.13939 3.70793e-18
9005.79698 3.66256e-18
9007.46461 3.61719e-18
9009.12220 3.59415e-18
9010.77979 3.57116e-18
9012.44743 3.67334e-18
9014.10502 3.77542e-18
9015.76261 3.58640e-18
9017.42020 3.39748e-18
9019.08783 3.43249e-18
9020.74542 3.46743e-18
9022.40301 3.36984e-18
9024.07065 3.27228e-18
9025.72824 3.30096e-18
9027.38583 3.32965e-18
9029.04342 3.39945e-18
9030.71106 3.46929e-18
9032.36865 3.61977e-18
9034.02624 3.77011e-18
9035.68383 3.57158e-18
9037.35146 3.37312e-18
9039.00905 3.31178e-18
9040.66664 3.25051e-18
9042.33428 3.36464e-18
9043.99187 3.47866e-18
9045.64946 3.32416e-18
9047.30705 3.16966e-18
9048.97468 3.00678e-18
9050.63227 2.84407e-18
9052.28986 3.09470e-18
9053.95750 3.34523e-18
9055.61509 3.38201e-18
9057.27268 3.41870e-18
9058.93027 3.23550e-18
9060.59791 3.05235e-18
9062.25550 3.01307e-18
9063.91309 2.97383e-18
9065.57068 3.01298e-18
9067.23831 3.05207e-18
9068.89590 2.92198e-18
9070.55349 2.79200e-18
9072.21108 2.93690e-18
9073.87872 3.08173e-18
9075.53631 3.08406e-18
9077.19390 3.08640e-18
9078.86153 3.11555e-18
9080.51912 3.14458e-18
9082.17671 2.89555e-18
9083.83430 2.64670e-18
9085.50194 2.83023e-18
9087.15953 3.01373e-18
9088.81712 3.13121e-18
9090.48476 3.24858e-18
9092.14235 3.13801e-18
9093.79994 3.02761e-18
9095.45753 3.24474e-18
9097.12516 3.46169e-18
9098.78275 3.22382e-18
9100.44034 2.98612e-18
9102.09793 3.13422e-18
9103.76557 3.28238e-18
9105.42316 3.57365e-18
9107.08075 3.86472e-18
9108.74838 3.71009e-18
9110.40597 3.55544e-18
9112.06356 3.34671e-18
9113.72115 3.13805e-18
9115.38879 3.07640e-18
9117.04638 3.01480e-18
9118.70397 3.08651e-18
9120.36156 3.15818e-18
9122.02920 3.12129e-18
9123.68679 3.08445e-18
9125.34438 3.15545e-18
9127.01201 3.22645e-18
9128.66960 3.31925e-18
9130.32719 3.41202e-18
9131.98478 3.45945e-18
9133.65242 3.50687e-18
9135.31001 3.50053e-18
9136.96760 3.49421e-18
9138.63523 3.55455e-18
9140.29282 3.61483e-18
9141.95041 3.49913e-18
9143.60800 3.38349e-18
9145.27564 3.40939e-18
9146.93323 3.43525e-18
9148.59082 3.38588e-18
9150.24841 3.33648e-18
9151.91605 3.19889e-18
9153.57364 3.06144e-18
9155.23123 3.30731e-18
9156.89886 3.55307e-18
9158.55645 3.57978e-18
9160.21404 3.60644e-18
9161.87163 3.54256e-18
9163.53927 3.47863e-18
9165.19686 3.28338e-18
9166.85445 3.08826e-18
9168.51204 3.22743e-18
9170.17967 3.36654e-18
9171.83726 3.37210e-18
9173.49485 3.37764e-18
9175.15244 3.33994e-18
9176.82008 3.30233e-18
9178.47767 3.47715e-18
9180.13526 3.65192e-18
9181.80290 3.70315e-18
9183.46049 3.75433e-18
9185.11808 3.68733e-18
9186.77567 3.62037e-18
9188.44330 3.66317e-18
9190.10089 3.70592e-18
9191.75848 3.65436e-18
9193.42612 3.60276e-18
9195.08371 3.45504e-18
9196.74130 3.30745e-18
9198.39889 3.52046e-18
9200.06652 3.73338e-18
9201.72411 3.74127e-18
9203.38170 3.74908e-18
9205.03929 3.57369e-18
9206.70693 3.39836e-18
9208.36452 3.39373e-18
9210.02211 3.38917e-18
9211.68975 3.53726e-18
9213.34734 3.68528e-18
9215.00493 3.64454e-18
9216.66252 3.60379e-18
9218.33015 3.53716e-18
9219.98774 3.47053e-18
9221.64533 3.39994e-18
9223.31297 3.32941e-18
9224.97056 3.38322e-18
9226.62815 3.43692e-18
9228.28574 3.24415e-18
9229.95337 3.05157e-18
9231.61096 3.36336e-18
9233.26855 3.67508e-18
9234.92614 3.82589e-18
9236.59378 3.97654e-18
9238.25137 3.74910e-18
9239.90896 3.52172e-18
9241.56655 3.40452e-18
9243.23419 3.28746e-18
9244.89178 3.51803e-18
9246.54937 3.74843e-18
9248.21700 3.57647e-18
9249.87459 3.40459e-18
9251.53218 3.41689e-18
9253.18977 3.42917e-18
9254.85741 3.39022e-18
9256.51500 3.35131e-18
9258.17259 3.39811e-18
9259.84022 3.44492e-18
9261.49781 3.53048e-18
9263.15540 3.61598e-18
9264.81299 3.55309e-18
9266.48063 3.49012e-18
9268.13822 3.26911e-18
9269.79581 3.04829e-18
9271.45340 3.30170e-18
9273.12104 3.55494e-18
9274.77863 3.43449e-18
9276.43622 3.31416e-18
9278.10385 3.49651e-18
9279.76144 3.67870e-18
9281.41903 3.50003e-18
9283.07662 3.32144e-18
9284.74426 3.32617e-18
9286.40185 3.33092e-18
9288.05944 3.41504e-18
9289.71703 3.49902e-18
9291.38466 3.22199e-18
9293.04225 2.94512e-18
9294.69984 3.02764e-18
9296.36748 3.11019e-18
9298.02507 3.23044e-18
9299.68266 3.35065e-18
9301.34025 3.35699e-18
9303.00789 3.36331e-18
9304.66548 3.34380e-18
9306.32307 3.32425e-18
9307.99070 3.19161e-18
9309.64829 3.05899e-18
9311.30588 2.99670e-18
9312.96347 2.93447e-18
9314.63111 2.99354e-18
9316.28870 3.05252e-18
9317.94629 2.86416e-18
9319.60388 2.67578e-18
9321.27151 2.42328e-18
9322.92910 2.17100e-18
9324.58669 2.44031e-18
9326.25433 2.70952e-18
9327.91192 2.74666e-18
9329.56951 2.78382e-18
9331.22710 2.87122e-18
9332.89474 2.95853e-18
9334.55233 2.81100e-18
9336.20992 2.66356e-18
9337.87755 2.71528e-18
9339.53514 2.76699e-18
9341.19273 2.79631e-18
9342.85032 2.82569e-18
9344.51796 2.98244e-18
9346.17555 3.13915e-18
9347.83314 3.17665e-18
9349.49073 3.21397e-18
9351.15836 2.81787e-18
9352.81595 2.42192e-18
9354.47354 2.35221e-18
9356.13113 2.28269e-18
9357.79877 2.65585e-18
9359.45636 3.02883e-18
9361.11395 2.99390e-18
9362.78159 2.95906e-18
9364.43918 3.12448e-18
9366.09677 3.28983e-18
9367.75436 3.28968e-18
9369.42199 3.28952e-18
9371.07958 3.26467e-18
9372.73717 3.23964e-18
9374.40481 2.76322e-18
9376.06240 2.28701e-18
9377.71999 2.29930e-18
9379.37758 2.31167e-18
9381.04521 2.51029e-18
9382.70280 2.70882e-18
9384.36039 2.71855e-18
9386.01798 2.72828e-18
9387.68562 2.72994e-18
9389.34321 2.73157e-18
9391.00080 2.72082e-18
9392.66844 2.71014e-18
9394.32603 2.83536e-18
9395.98362 2.96047e-18
9397.64121 2.83219e-18
9399.30884 2.70396e-18
9400.96643 2.71170e-18
9402.62402 2.71945e-18
9404.28161 2.75553e-18
9405.94925 2.79157e-18
9407.60684 2.71927e-18
9409.26443 2.64707e-18
9410.93206 2.79051e-18
9412.58965 2.93388e-18
9414.24724 2.96088e-18
9415.90483 2.98782e-18
9417.57247 2.87430e-18
9419.23006 2.76082e-18
9420.88765 2.72818e-18
9422.54524 2.69549e-18
9424.21288 2.57813e-18
9425.87047 2.46096e-18
9427.52806 2.77969e-18
9429.19569 3.09820e-18
9430.85328 2.90494e-18
9432.51087 2.71172e-18
9434.16846 2.65012e-18
9435.83610 2.58840e-18
9437.49369 2.24879e-18
9439.15128 1.90927e-18
9440.80887 1.78370e-18
9442.47650 1.65843e-18
9444.13409 2.21560e-18
9445.79168 2.77252e-18
9447.45932 2.76235e-18
9449.11691 2.75220e-18
9450.77450 2.82104e-18
9452.43209 2.88978e-18
9454.09973 2.72333e-18
9455.75732 2.55689e-18
9457.41491 2.35264e-18
9459.07250 2.14852e-18
9460.74013 2.20362e-18
9462.39772 2.25877e-18
9464.05531 2.45416e-18
9465.72295 2.64935e-18
9467.38054 2.38816e-18
9469.03813 2.12717e-18
9470.69572 2.31731e-18
9472.36335 2.50746e-18
9474.02094 2.72179e-18
9475.67853 2.93609e-18
9477.34617 3.04612e-18
9479.00376 3.15606e-18
9480.66135 3.03695e-18
9482.31894 2.91789e-18
9483.98658 2.92068e-18
9485.64417 2.92340e-18
9487.30176 2.72592e-18
9488.95935 2.52853e-18
9490.62698 2.50786e-18
9492.28457 2.48719e-18
9493.94216 2.42281e-18
9495.60980 2.35861e-18
9497.26739 2.67267e-18
9498.92498 2.98654e-18
9500.58257 2.84784e-18
9502.25020 2.70921e-18
9503.90779 2.75039e-18
9505.56538 2.79158e-18
9507.23302 2.85653e-18
9508.89061 2.92135e-18
9510.54820 2.71305e-18
9512.20579 2.50479e-18
9513.87343 2.41512e-18
9515.53102 2.32546e-18
9517.18861 2.28043e-18
9518.84620 2.23554e-18
9520.51383 2.52097e-18
9522.17142 2.80619e-18
9523.82901 2.63277e-18
9525.49665 2.45946e-18
9527.15424 2.52483e-18
9528.81183 2.59013e-18
9530.46942 2.49215e-18
9532.13705 2.39426e-18
9533.79464 2.50877e-18
9535.45223 2.62324e-18
9537.10982 2.65001e-18
9538.77746 2.67679e-18
9540.43505 2.74039e-18
9542.09264 2.80396e-18
9543.76028 2.77398e-18
9545.41787 2.74392e-18
9547.07546 2.52393e-18
9548.73305 2.30398e-18
9550.40068 2.19172e-18
9552.05827 2.07974e-18
9553.71586 2.62267e-18
9555.37345 3.16525e-18
9557.04109 2.91754e-18
9558.69868 2.66992e-18
9560.35627 2.63446e-18
9562.02390 2.59907e-18
9563.68149 2.70481e-18
9565.33908 2.81044e-18
9566.99667 2.66453e-18
9568.66431 2.51870e-18
9570.32190 2.53974e-18
9571.97949 2.56081e-18
9573.64713 2.62570e-18
9575.30472 2.69046e-18
9576.96231 2.48652e-18
9578.61990 2.28267e-18
9580.28753 2.28234e-18
9581.94512 2.28206e-18
9583.60271 2.35455e-18
9585.27035 2.42698e-18
9586.92794 2.33623e-18
9588.58553 2.24552e-18
9590.24312 2.21279e-18
9591.91075 2.18016e-18
9593.56834 2.38569e-18
9595.22593 2.59109e-18
9596.88352 2.49570e-18
9598.55116 2.40043e-18
9600.20875 2.56922e-18
9601.86634 2.73793e-18
9603.52393 2.73349e-18
9605.19157 2.72910e-18
9606.84916 2.84592e-18
9608.50675 2.96254e-18
9610.17438 2.65515e-18
9611.83197 2.34788e-18
9613.48956 2.33639e-18
9615.14715 2.32490e-18
9616.81479 2.29967e-18
9618.47238 2.27447e-18
9620.12997 2.31664e-18
9621.79760 2.35881e-18
9623.45519 2.41262e-18
9625.11278 2.46644e-18
9626.77037 2.51777e-18
9628.43801 2.56910e-18
9630.09560 2.63670e-18
9631.75319 2.70427e-18
9633.41078 2.69752e-18
9635.07842 2.69083e-18
9636.73601 2.83443e-18
9638.39360 2.97788e-18
9640.06123 2.80419e-18
9641.71882 2.63060e-18
9643.37641 2.69071e-18
9645.03400 2.75067e-18
9646.70164 2.51011e-18
9648.35923 2.26972e-18
9650.01682 2.42655e-18
9651.67441 2.58330e-18
9653.34204 2.56204e-18
9654.99963 2.54073e-18
9656.65722 2.36405e-18
9658.31481 2.18750e-18
9659.98245 2.26082e-18
9661.64004 2.33422e-18
9663.29763 2.58374e-18
9664.96527 2.83301e-18
9666.62286 2.49496e-18
9668.28045 2.15714e-18
9669.93804 2.33453e-18
9671.60567 2.51192e-18
9673.26326 2.69336e-18
9674.92085 2.87472e-18
9676.58849 2.92196e-18
9678.24608 2.96911e-18
9679.90367 2.83765e-18
9681.56126 2.70638e-18
9683.22889 2.98875e-18
9684.88648 3.27091e-18
9686.54407 3.05005e-18
9688.20166 2.82915e-18
9689.86930 2.51932e-18
9691.52689 2.20978e-18
9693.18448 2.50517e-18
9694.85212 2.80044e-18
9696.50971 2.83878e-18
9698.16730 2.87720e-18
9699.82489 3.08577e-18
9701.49252 3.29397e-18
9703.15011 2.69800e-18
9704.80770 2.10236e-18
9706.46529 2.23264e-18
9708.13293 2.36289e-18
9709.79052 2.41756e-18
9711.44811 2.47210e-18
9713.11574 2.21121e-18
9714.77333 1.95056e-18
9716.43092 2.21586e-18
9718.08851 2.48115e-18
9719.75615 2.72259e-18
9721.41374 2.96382e-18
9723.07133 2.73060e-18
9724.73897 2.49752e-18
9726.39656 2.54718e-18
9728.05415 2.59685e-18
9729.71174 2.67387e-18
9731.37937 2.75078e-18
9733.03696 2.59641e-18
9734.69455 2.44214e-18
9736.35214 2.50931e-18
9738.01978 2.57649e-18
9739.67737 2.68805e-18
9741.33496 2.79954e-18
9743.00259 2.79768e-18
9744.66018 2.79576e-18
9746.31777 2.65213e-18
9747.97536 2.50851e-18
9749.64300 2.38614e-18
9751.30059 2.26394e-18
9752.95818 2.51377e-18
9754.62582 2.76338e-18
9756.28341 2.56329e-18
9757.94100 2.36334e-18
9759.59859 2.45745e-18
9761.26622 2.55153e-18
9762.92381 2.62116e-18
9764.58140 2.69073e-18
9766.23899 2.64627e-18
9767.90663 2.60189e-18
9769.56422 2.72097e-18
9771.22181 2.83995e-18
9772.87940 2.74553e-18
9774.54703 2.65111e-18
9776.20462 2.50497e-18
9777.86221 2.35884e-18
9779.52985 2.23560e-18
9781.18744 2.11252e-18
9782.84503 2.33351e-18
9784.50262 2.55438e-18
9786.17026 2.50303e-18
9787.82785 2.45199e-18
9789.48544 3.05905e-18
9791.15307 3.66569e-18
9792.81066 3.35927e-18
9794.46825 3.05293e-18
9796.12584 2.89731e-18
9797.79348 2.74180e-18
9799.45107 2.83483e-18
9801.10866 2.92756e-18
9802.76625 2.40282e-18
9804.43388 1.87825e-18
9806.09147 1.70608e-18
9807.74906 1.53419e-18
9809.41670 1.93534e-18
9811.07429 2.33634e-18
9812.73188 2.41974e-18
9814.38947 2.50313e-18
9816.05711 2.58855e-18
9817.71470 2.67389e-18
9819.37229 2.60811e-18
9821.03992 2.54227e-18
9822.69751 2.34130e-18
9824.35510 2.14056e-18
9826.01269 2.43786e-18
9827.68033 2.73495e-18
9829.33792 2.57113e-18
9830.99551 2.40743e-18
9832.65310 2.49835e-18
9834.32073 2.58919e-18
9835.97832 2.51567e-18
9837.63591 2.44211e-18
9839.30355 2.28632e-18
9840.96114 2.13075e-18
9842.61873 2.42640e-18
9844.27632 2.72206e-18
9845.94396 3.03286e-18
9847.60155 3.34344e-18
9849.25914 3.20057e-18
9850.91673 3.05770e-18
9852.58436 2.91282e-18
9854.24195 2.76794e-18
9855.89954 2.63958e-18
9857.56718 2.51128e-18
9859.22477 2.49007e-18
9860.88236 2.46888e-18
9862.53995 2.46260e-18
9864.20758 2.45656e-18
9865.86517 2.93843e-18
9867.52276 3.42003e-18
9869.18035 3.29580e-18
9870.84799 3.17168e-18
9872.50558 3.28485e-18
9874.16317 3.39811e-18
9875.83081 3.70703e-18
9877.48840 4.01555e-18
9879.14599 3.49120e-18
9880.80358 2.96687e-18
9882.47121 2.46355e-18
9884.12880 1.96067e-18
9885.78639 2.36813e-18
9887.44398 2.77551e-18
9889.11162 2.99259e-18
9890.76921 3.20959e-18
9892.42680 3.27575e-18
9894.09443 3.34193e-18
9895.75202 3.44262e-18
9897.40961 3.54328e-18
9899.06720 3.59694e-18
9900.73484 3.65028e-18
9902.39243 3.01520e-18
9904.05002 2.38039e-18
9905.70761 2.31900e-18
9907.37525 2.25759e-18
9909.03284 2.16149e-18
9910.69043 2.06544e-18
9912.35806 2.09029e-18
9914.01565 2.11531e-18
9915.67324 2.47179e-18
9917.33083 2.82803e-18
9918.99847 2.70478e-18
9920.65606 2.58161e-18
9922.31365 2.63733e-18
9923.98128 2.69306e-18
9925.63887 2.76395e-18
9927.29646 2.83487e-18
9928.95405 2.96962e-18
9930.62169 3.10404e-18
9932.27928 2.48345e-18
9933.93687 1.86308e-18
9935.59446 1.68862e-18
9937.26210 1.51453e-18
9938.91969 2.10014e-18
9940.57728 2.68559e-18
9942.23487 2.92553e-18
9943.90250 3.16535e-18
9945.56009 3.16707e-18
9947.21768 3.16860e-18
9948.88532 2.73054e-18
9950.54291 2.29293e-18
9952.20050 2.79827e-18
9953.85809 3.30335e-18
9955.52572 3.29555e-18
9957.18331 3.28758e-18
9958.84090 2.93422e-18
9960.50854 2.58098e-18
9962.16613 2.42691e-18
9963.82372 2.27289e-18
9965.48131 2.18475e-18
9967.14895 2.09656e-18
9968.80654 1.88386e-18
9970.46413 1.67123e-18
9972.12172 1.56963e-18
9973.78935 1.46809e-18
9975.44694 1.48177e-18
9977.10453 1.49565e-18
9978.77217 1.91297e-18
9980.42976 2.33006e-18
9982.08735 2.30867e-18
9983.74494 2.28736e-18
9985.41257 2.44487e-18
9987.07016 2.60241e-18
9988.72775 2.84838e-18
9990.39539 3.09418e-18
9992.05298 3.01258e-18
9993.71057 2.93086e-18
9995.36816 2.63808e-18
9997.03580 2.34518e-18
9998.69339 1.81421e-18
