# wavelength flux
3479.99682 2.12938e-17
3481.46706 2.12165e-17
3482.93730 1.85623e-17
3484.40754 1.46697e-17
3485.87778 1.96783e-17
3487.34802 2.23416e-17
3488.81826 2.08532e-17
3490.28850 2.74513e-17
3491.75874 2.32283e-17
3493.22898 1.68946e-17
3494.69922 2.22102e-17
3496.16946 2.72948e-17
3497.63970 2.51793e-17
3499.10994 1.14595e-17
3500.58018 1.24291e-17
3502.05042 2.02389e-17
3503.52066 2.21310e-17
3504.99090 2.95318e-17
3506.46114 3.31879e-17
3507.93138 3.09381e-17
3509.40162 2.10555e-17
3510.87186 1.69710e-17
3512.34210 2.34966e-17
3513.81234 2.11178e-17
3515.28258 1.88949e-17
3516.75282 1.72062e-17
3518.22306 1.50965e-17
3519.69330 2.13560e-17
3521.16354 1.49652e-17
3522.63378 8.42163e-18
3524.10402 1.56280e-17
3525.57426 1.64136e-17
3527.04450 1.83841e-17
3528.51474 1.91472e-17
3529.98498 1.71134e-17
3531.44501 1.93705e-17
3532.91525 2.39329e-17
3534.38549 2.50073e-17
3535.85573 2.09353e-17
3537.32597 1.88918e-17
3538.79621 1.94165e-17
3540.26645 1.81424e-17
3541.73669 1.87379e-17
3543.20693 2.10262e-17
3544.67717 2.84517e-17
3546.14741 2.34617e-17
3547.61765 1.58076e-17
3549.08789 1.05654e-17
3550.55813 1.05989e-17
3552.02837 2.19401e-17
3553.49861 2.02304e-17
3554.96885 2.32450e-17
3556.43909 2.49557e-17
3557.90933 2.02644e-17
3559.37957 2.42384e-17
3560.84981 2.58587e-17
3562.32005 2.02637e-17
3563.79029 1.79669e-17
3565.26053 2.28618e-17
3566.73077 2.51455e-17
3568.20101 2.14652e-17
3569.67125 1.67195e-17
3571.14149 1.85257e-17
3572.61173 2.53839e-17
3574.08197 2.16921e-17
3575.55221 1.59960e-17
3577.02245 1.74249e-17
3578.49269 2.07899e-17
3579.96293 1.38986e-17
3581.43317 1.03066e-17
3582.90341 2.36578e-17
3584.37365 2.58542e-17
3585.84389 1.85632e-17
3587.31413 2.24528e-17
3588.78437 2.56459e-17
3590.25461 2.00753e-17
3591.72485 1.58383e-17
3593.18488 2.21210e-17
3594.65512 2.10452e-17
3596.12536 1.76477e-17
3597.59560 2.08026e-17
3599.06584 2.09044e-17
3600.53608 2.35956e-17
3602.00632 2.95562e-17
3603.47656 2.38483e-17
3604.94680 1.78397e-17
3606.41704 1.81002e-17
3607.88728 1.67084e-17
3609.35752 2.41051e-17
3610.82776 2.09505e-17
3612.29800 1.28747e-17
3613.76824 1.62119e-17
3615.23848 1.91969e-17
3616.70872 1.96554e-17
3618.17896 2.14592e-17
3619.64920 2.04844e-17
3621.11944 2.07363e-17
3622.58968 2.39376e-17
3624.05992 2.95228e-17
3625.53016 2.83006e-17
3627.00040 2.09026e-17
3628.47064 1.85782e-17
3629.94088 2.32709e-17
3631.41112 2.15153e-17
3632.88136 2.08777e-17
3634.35160 2.45642e-17
3635.82184 2.33097e-17
3637.29208 2.16593e-17
3638.76232 2.08592e-17
3640.23256 1.95376e-17
3641.70280 2.22671e-17
3643.17304 2.02825e-17
3644.64328 2.17457e-17
3646.11352 2.19633e-17
3647.58376 1.84413e-17
3649.05400 2.15568e-17
3650.52424 2.17527e-17
3651.99448 1.89764e-17
3653.46472 1.56435e-17
3654.92475 1.44431e-17
3656.39499 2.23844e-17
3657.86523 2.89545e-17
3659.33547 2.21280e-17
3660.80571 1.47908e-17
3662.27595 1.78978e-17
3663.74619 1.83677e-17
3665.21643 1.85304e-17
3666.68667 2.23743e-17
3668.15691 2.16282e-17
3669.62715 2.07916e-17
3671.09739 1.81437e-17
3672.56763 1.87887e-17
3674.03787 2.27135e-17
3675.50811 2.48144e-17
3676.97835 2.02200e-17
3678.44859 1.88560e-17
3679.91883 1.99329e-17
3681.38907 1.69521e-17
3682.85931 1.79575e-17
3684.32955 1.89626e-17
3685.79979 1.99673e-17
3687.27003 2.09717e-17
3688.74027 2.19758e-17
3690.21051 2.29796e-17
3691.68075 2.29758e-17
3693.15099 2.09378e-17
3694.62123 1.76425e-17
3696.09147 1.67929e-17
3697.56171 2.01928e-17
3699.03195 2.08826e-17
3700.50219 1.83499e-17
3701.97243 1.60518e-17
3703.44267 1.83411e-17
3704.91291 2.17437e-17
3706.38315 2.18286e-17
3707.85339 1.64928e-17
3709.32363 1.91069e-17
3710.79387 2.08743e-17
3712.26411 1.87781e-17
3713.73435 2.04847e-17
3715.20459 2.34952e-17
3716.67483 2.01151e-17
3718.13486 1.57279e-17
3719.60510 1.75830e-17
3721.07534 1.77841e-17
3722.54558 1.87118e-17
3724.01582 1.96045e-17
3725.48606 1.74558e-17
3726.95630 1.74180e-17
3728.42654 1.70936e-17
3729.89678 1.89080e-17
3731.36702 2.05228e-17
3732.83726 1.96314e-17
3734.30750 2.06843e-17
3735.77774 2.05297e-17
3737.24798 1.96876e-17
3738.71822 1.71987e-17
3740.18846 1.56429e-17
3741.65870 1.60227e-17
3743.12894 1.69422e-17
3744.59918 1.78570e-17
3746.06942 1.92806e-17
3747.53966 2.16998e-17
3749.00990 1.78518e-17
3750.48014 1.54282e-17
3751.95038 1.59186e-17
3753.42062 1.33568e-17
3754.89086 1.25134e-17
3756.36110 1.28549e-17
3757.83134 1.63434e-17
3759.30158 1.44253e-17
3760.77182 9.78414e-18
3762.24206 1.23304e-17
3763.71230 1.53889e-17
3765.18254 1.85330e-17
3766.65278 1.73783e-17
3768.12302 1.45534e-17
3769.59326 1.35270e-17
3771.06350 1.17922e-17
3772.53374 1.37341e-17
3774.00398 1.33333e-17
3775.47422 1.14710e-17
3776.94446 1.30379e-17
3778.41470 1.51639e-17
3779.88494 1.06834e-17
3781.34497 6.86924e-18
3782.81521 1.15895e-17
3784.28545 1.25084e-17
3785.75569 8.85029e-18
3787.22593 1.00039e-17
3788.69617 9.50848e-18
3790.16641 9.83871e-18
3791.63665 8.48156e-18
3793.10689 1.09489e-17
3794.57713 1.32498e-17
3796.04737 1.30831e-17
3797.51761 1.29977e-17
3798.98785 1.29922e-17
3800.45809 8.45907e-18
3801.92833 7.21357e-18
3803.39857 1.23629e-17
3804.86881 1.31134e-17
3806.33905 1.36800e-17
3807.80929 1.58904e-17
3809.27953 1.12349e-17
3810.74977 7.16953e-18
3812.22001 9.05061e-18
3813.69025 8.10747e-18
3815.16049 9.88276e-18
3816.63073 8.74816e-18
3818.10097 9.65777e-18
3819.57121 8.12847e-18
3821.04145 8.19243e-18
3822.51169 8.70571e-18
3823.98193 6.74790e-18
3825.45217 5.84844e-18
3826.92241 7.97329e-18
3828.39265 9.01717e-18
3829.86289 1.05600e-17
3831.33313 9.64294e-18
3832.80337 8.09002e-18
3834.27361 8.86481e-18
3835.74385 7.42210e-18
3837.21409 8.11700e-18
3838.68433 1.05363e-17
3840.15457 9.57922e-18
3841.62481 8.62567e-18
3843.08484 5.33727e-18
3844.55508 5.77159e-18
3846.02532 6.52371e-18
3847.49556 6.86766e-18
3848.96580 6.38135e-18
3850.43604 6.84417e-18
3851.90628 7.75159e-18
3853.37652 7.29478e-18
3854.84676 9.36615e-18
3856.31700 7.71294e-18
3857.78724 6.46177e-18
3859.25748 7.71462e-18
3860.72772 8.70061e-18
3862.19796 1.04417e-17
3863.66820 9.47398e-18
3865.13844 8.78449e-18
3866.60868 9.96004e-18
3868.07892 9.97647e-18
3869.54916 8.64061e-18
3871.01940 9.40407e-18
3872.48964 1.05425e-17
3873.95988 1.01117e-17
3875.43012 9.93457e-18
3876.90036 1.07928e-17
3878.37060 9.36562e-18
3879.84084 8.04439e-18
3881.31108 1.03357e-17
3882.78132 9.69421e-18
3884.25156 6.89777e-18
3885.72180 9.02377e-18
3887.19204 8.93738e-18
3888.66228 1.16060e-17
3890.13252 1.32007e-17
3891.60276 1.00935e-17
3893.07300 7.05658e-18
3894.54324 1.01333e-17
3896.01348 1.39096e-17
3897.48372 1.40015e-17
3898.95396 1.33267e-17
3900.42420 1.37762e-17
3901.89444 1.38426e-17
3903.36468 1.22997e-17
3904.83492 1.18478e-17
3906.29495 1.31626e-17
3907.76519 1.20306e-17
3909.23543 1.13891e-17
3910.70567 1.31958e-17
3912.17591 1.38919e-17
3913.64615 1.15908e-17
3915.11639 1.32544e-17
3916.58663 1.44449e-17
3918.05687 1.31469e-17
3919.52711 1.28191e-17
3920.99735 1.37869e-17
3922.46759 1.63750e-17
3923.93783 1.77726e-17
3925.40807 1.49422e-17
3926.87831 1.64141e-17
3928.34855 1.59616e-17
3929.81879 1.54938e-17
3931.28903 1.52351e-17
3932.75927 1.74129e-17
3934.22951 1.74579e-17
3935.69975 1.58002e-17
3937.16999 1.50305e-17
3938.64023 1.44899e-17
3940.11047 1.69850e-17
3941.58071 1.85033e-17
3943.05095 1.64624e-17
3944.52119 1.62362e-17
3945.99143 1.65683e-17
3947.46167 1.74706e-17
3948.93191 1.78300e-17
3950.40215 1.93983e-17
3951.87239 1.87372e-17
3953.34263 1.88077e-17
3954.81287 1.77954e-17
3956.28311 1.60593e-17
3957.75335 1.84234e-17
3959.22359 2.30139e-17
3960.69383 2.32573e-17
3962.16407 2.02175e-17
3963.63431 2.06635e-17
3965.10455 2.14979e-17
3966.57479 1.93552e-17
3968.04503 1.85501e-17
3969.50506 2.06131e-17
3970.97530 2.19065e-17
3972.44554 2.32801e-17
3973.91578 2.43430e-17
3975.38602 2.29027e-17
3976.85626 2.21915e-17
3978.32650 2.36200e-17
3979.79674 2.47768e-17
3981.26698 2.31807e-17
3982.73722 2.22377e-17
3984.20746 2.05402e-17
3985.67770 2.13482e-17
3987.14794 2.37851e-17
3988.61818 2.60717e-17
3990.08842 2.93566e-17
3991.55866 2.72833e-17
3993.02890 2.50559e-17
3994.49914 2.47617e-17
3995.96938 2.42286e-17
3997.43962 2.60730e-17
3998.90986 2.47460e-17
4000.38010 2.50189e-17
4001.85034 2.47497e-17
4003.32058 2.51337e-17
4004.79082 2.55177e-17
4006.26106 2.59016e-17
4007.73130 2.62855e-17
4009.20154 2.66692e-17
4010.67178 2.66662e-17
4012.14202 2.82769e-17
4013.61226 2.46864e-17
4015.08250 2.48920e-17
4016.55274 2.42537e-17
4018.02298 2.37506e-17
4019.49322 2.28088e-17
4020.96346 2.54680e-17
4022.43370 2.63432e-17
4023.90394 2.41016e-17
4025.37418 2.54868e-17
4026.84442 2.61355e-17
4028.31466 2.74397e-17
4029.78490 2.71240e-17
4031.24493 2.63151e-17
4032.71517 2.67402e-17
4034.18541 2.82368e-17
4035.65565 2.57921e-17
4037.12589 2.70754e-17
4038.59613 2.53561e-17
4040.06637 2.58572e-17
4041.53661 2.76351e-17
4043.00685 2.64180e-17
4044.47709 2.55189e-17
4045.94733 2.60153e-17
4047.41757 2.74241e-17
4048.88781 2.55363e-17
4050.35805 2.58588e-17
4051.82829 2.56032e-17
4053.29853 2.41398e-17
4054.76877 2.52704e-17
4056.23901 2.45421e-17
4057.70925 2.52933e-17
4059.17949 2.94959e-17
4060.64973 2.67764e-17
4062.11997 2.51718e-17
4063.59021 3.01737e-17
4065.06045 2.97816e-17
4066.53069 2.58726e-17
4068.00093 2.65941e-17
4069.47117 2.58300e-17
4070.94141 2.51948e-17
4072.41165 2.56774e-17
4073.88189 2.29436e-17
4075.35213 2.44637e-17
4076.82237 2.64815e-17
4078.29261 2.75184e-17
4079.76285 2.52906e-17
4081.23309 2.57377e-17
4082.70333 2.43858e-17
4084.17357 2.38514e-17
4085.64381 2.45251e-17
4087.11405 2.50152e-17
4088.58429 2.43825e-17
4090.05453 2.44217e-17
4091.52477 2.39595e-17
4092.98480 2.31089e-17
4094.45504 2.36438e-17
4095.92528 2.46086e-17
4097.39552 2.30071e-17
4098.86576 2.10653e-17
4100.33600 2.26553e-17
4101.80624 2.47485e-17
4103.27648 2.27301e-17
4104.74672 2.03750e-17
4106.21696 2.08955e-17
4107.68720 2.15156e-17
4109.15744 2.08852e-17
4110.62768 1.99809e-17
4112.09792 1.87552e-17
4113.56816 2.03561e-17
4115.03840 2.29030e-17
4116.50864 2.23204e-17
4117.97888 2.15108e-17
4119.44912 2.24124e-17
4120.91936 2.12880e-17
4122.38960 1.98920e-17
4123.85984 2.10325e-17
4125.33008 1.99803e-17
4126.80032 2.03580e-17
4128.27056 2.11629e-17
4129.74080 2.12809e-17
4131.21104 2.19408e-17
4132.68128 2.37460e-17
4134.15152 2.25698e-17
4135.62176 1.87588e-17
4137.09200 2.08967e-17
4138.56224 2.07271e-17
4140.03248 2.15610e-17
4141.50272 1.82367e-17
4142.97296 1.99254e-17
4144.44320 2.33343e-17
4145.91344 1.98042e-17
4147.38368 1.94295e-17
4148.85392 1.98463e-17
4150.32416 2.17325e-17
4151.79440 2.25107e-17
4153.26464 1.99045e-17
4154.73488 1.99838e-17
4156.20512 2.15961e-17
4157.66515 1.93450e-17
4159.13539 1.96700e-17
4160.60563 1.86113e-17
4162.07587 2.04573e-17
4163.54611 1.89079e-17
4165.01635 2.07404e-17
4166.48659 1.81271e-17
4167.95683 1.95485e-17
4169.42707 2.07592e-17
4170.89731 1.88983e-17
4172.36755 1.87141e-17
4173.83779 2.05606e-17
4175.30803 1.91664e-17
4176.77827 1.61234e-17
4178.24851 1.63933e-17
4179.71875 1.97446e-17
4181.18899 1.97462e-17
4182.65923 1.98287e-17
4184.12947 1.84905e-17
4185.59971 1.74654e-17
4187.06995 1.94145e-17
4188.54019 1.80996e-17
4190.01043 2.03031e-17
4191.48067 1.87797e-17
4192.95091 1.88214e-17
4194.42115 1.99279e-17
4195.89139 1.94622e-17
4197.36163 2.04309e-17
4198.83187 1.98537e-17
4200.30211 2.07496e-17
4201.77235 2.20096e-17
4203.24259 1.99099e-17
4204.71283 2.08457e-17
4206.18307 2.08357e-17
4207.65331 2.10527e-17
4209.12355 2.10445e-17
4210.59379 2.05409e-17
4212.06403 1.94067e-17
4213.53427 1.87520e-17
4215.00451 2.14475e-17
4216.47475 1.96329e-17
4217.94499 2.00087e-17
4219.40502 1.95331e-17
4220.87526 1.89635e-17
4222.34550 1.95484e-17
4223.81574 2.14680e-17
4225.28598 2.13923e-17
4226.75622 1.92010e-17
4228.22646 2.06920e-17
4229.69670 2.07840e-17
4231.16694 1.89132e-17
4232.63718 1.76124e-17
4234.10742 2.07311e-17
4235.57766 2.16766e-17
4237.04790 1.92053e-17
4238.51814 2.00157e-17
4239.98838 2.09405e-17
4241.45862 2.30290e-17
4242.92886 2.12703e-17
4244.39910 1.97885e-17
4245.86934 2.02218e-17
4247.33958 1.96648e-17
4248.80982 2.02275e-17
4250.28006 2.02147e-17
4251.75030 2.08803e-17
4253.22054 2.06442e-17
4254.69078 2.07701e-17
4256.16102 2.11649e-17
4257.63126 1.96315e-17
4259.10150 1.98353e-17
4260.57174 2.00225e-17
4262.04198 1.92616e-17
4263.51222 1.84903e-17
4264.98246 1.88442e-17
4266.45270 2.03878e-17
4267.92294 2.06956e-17
4269.39318 2.10281e-17
4270.86342 2.30489e-17
4272.33366 2.06948e-17
4273.80390 2.00170e-17
4275.27414 2.14450e-17
4276.74438 2.01839e-17
4278.21462 1.94247e-17
4279.68486 1.90255e-17
4281.14489 1.97120e-17
4282.61513 2.04073e-17
4284.08537 2.15978e-17
4285.55561 2.12428e-17
4287.02585 1.91614e-17
4288.49609 1.95131e-17
4289.96633 2.06169e-17
4291.43657 2.00218e-17
4292.90681 1.92933e-17
4294.37705 1.88944e-17
4295.84729 2.02828e-17
4297.31753 2.03323e-17
4298.78777 2.01248e-17
4300.25801 1.98827e-17
4301.72825 1.90880e-17
4303.19849 1.92647e-17
4304.66873 1.84764e-17
4306.13897 1.97619e-17
4307.60921 2.13211e-17
4309.07945 2.12358e-17
4310.54969 1.97381e-17
4312.01993 1.86215e-17
4313.49017 1.78089e-17
4314.96041 1.97841e-17
4316.43065 1.99735e-17
4317.90089 1.86442e-17
4319.37113 1.78727e-17
4320.84137 2.17294e-17
4322.31161 2.15782e-17
4323.78185 1.92330e-17
4325.25209 1.91839e-17
4326.72233 2.24234e-17
4328.19257 2.10006e-17
4329.66281 2.05612e-17
4331.13305 2.10999e-17
4332.60329 1.89666e-17
4334.07353 2.08938e-17
4335.54377 1.96126e-17
4337.01401 1.97416e-17
4338.48425 1.90612e-17
4339.95449 1.82818e-17
4341.41452 1.95200e-17
4342.88476 2.00005e-17
4344.35500 1.70068e-17
4345.82524 1.84532e-17
4347.29548 2.16086e-17
4348.76572 1.89596e-17
4350.23596 1.71280e-17
4351.70620 1.75653e-17
4353.17644 1.95526e-17
4354.64668 2.26412e-17
4356.11692 2.22383e-17
4357.58716 2.03038e-17
4359.05740 2.25115e-17
4360.52764 2.09380e-17
4361.99788 1.80383e-17
4363.46812 1.67868e-17
4364.93836 1.89546e-17
4366.40860 2.12873e-17
4367.87884 2.09113e-17
4369.34908 1.88474e-17
4370.81932 1.92838e-17
4372.28956 1.87789e-17
4373.75980 2.07944e-17
4375.23004 2.04904e-17
4376.70028 1.97392e-17
4378.17052 2.11881e-17
4379.64076 2.00260e-17
4381.11100 1.90761e-17
4382.58124 1.88524e-17
4384.05148 1.85470e-17
4385.52172 1.72118e-17
4386.99196 1.81570e-17
4388.46220 1.95773e-17
4389.93244 1.89647e-17
4391.40268 1.80284e-17
4392.87292 1.96030e-17
4394.34316 1.93880e-17
4395.81340 1.98616e-17
4397.28364 1.76778e-17
4398.75388 1.54435e-17
4400.22412 1.60384e-17
4401.69436 1.82716e-17
4403.16460 1.54267e-17
4404.63484 1.63563e-17
4406.10508 1.71508e-17
4407.56511 1.75362e-17
4409.03535 1.67932e-17
4410.50559 1.68276e-17
4411.97583 1.73142e-17
4413.44607 1.68691e-17
4414.91631 1.57773e-17
4416.38655 1.65816e-17
4417.85679 1.71832e-17
4419.32703 1.63101e-17
4420.79727 1.72952e-17
4422.26751 1.61561e-17
4423.73775 1.30892e-17
4425.20799 1.58777e-17
4426.67823 1.49619e-17
4428.14847 1.49305e-17
4429.61871 1.41745e-17
4431.08895 1.53444e-17
4432.55919 1.67038e-17
4434.02943 1.44079e-17
4435.49967 1.19684e-17
4436.96991 1.32128e-17
4438.44015 1.33640e-17
4439.91039 1.41055e-17
4441.38063 1.52778e-17
4442.85087 1.32942e-17
4444.32111 1.43246e-17
4445.79135 1.44914e-17
4447.26159 1.33681e-17
4448.73183 1.40035e-17
4450.20207 1.45130e-17
4451.67231 1.46185e-17
4453.14255 1.35403e-17
4454.61279 1.35682e-17
4456.08303 1.29626e-17
4457.55327 1.41328e-17
4459.02351 1.39328e-17
4460.49375 1.50945e-17
4461.96399 1.29470e-17
4463.43423 1.22910e-17
4464.90447 1.48255e-17
4466.37471 1.51983e-17
4467.83474 1.58416e-17
4469.30498 1.47190e-17
4470.77522 1.29316e-17
4472.24546 1.53287e-17
4473.71570 1.40425e-17
4475.18594 1.51323e-17
4476.65618 1.47274e-17
4478.12642 1.35526e-17
4479.59666 1.41822e-17
4481.06690 1.52162e-17
4482.53714 1.43641e-17
4484.00738 1.37134e-17
4485.47762 1.27244e-17
4486.94786 1.40410e-17
4488.41810 1.39886e-17
4489.88834 1.61239e-17
4491.35858 1.43260e-17
4492.82882 1.39608e-17
4494.29906 1.41192e-17
4495.76930 1.36065e-17
4497.23954 1.48844e-17
4498.70978 1.54932e-17
4500.18002 1.49696e-17
4501.65026 1.34214e-17
4503.12050 1.35033e-17
4504.59074 1.55701e-17
4506.06098 1.42511e-17
4507.53122 1.41500e-17
4509.00146 1.38329e-17
4510.47170 1.42026e-17
4511.94194 1.45717e-17
4513.41218 1.29863e-17
4514.88242 1.27365e-17
4516.35266 1.50407e-17
4517.82290 1.42944e-17
4519.29314 1.33333e-17
4520.76338 1.50973e-17
4522.23362 1.46310e-17
4523.70386 1.45870e-17
4525.17410 1.70468e-17
4526.64434 1.59690e-17
4528.11458 1.51901e-17
4529.58482 1.57673e-17
4531.04485 1.58802e-17
4532.51509 1.56865e-17
4533.98533 1.45202e-17
4535.45557 1.62485e-17
4536.92581 1.67721e-17
4538.39605 1.72956e-17
4539.86629 1.78189e-17
4541.33653 1.78166e-17
4542.80677 1.72811e-17
4544.27701 1.71232e-17
4545.74725 1.77846e-17
4547.21749 1.69532e-17
4548.68773 1.73907e-17
4550.15797 1.76387e-17
4551.62821 1.69846e-17
4553.09845 1.85755e-17
4554.56869 1.90018e-17
4556.03893 1.73248e-17
4557.50917 1.86858e-17
4558.97941 2.06786e-17
4560.44965 1.86852e-17
4561.91989 1.85117e-17
4563.39013 1.82509e-17
4564.86037 1.80201e-17
4566.33061 1.78207e-17
4567.80085 1.82646e-17
4569.27109 1.97281e-17
4570.74133 1.80236e-17
4572.21157 1.79936e-17
4573.68181 1.90467e-17
4575.15205 1.82998e-17
4576.62229 1.88202e-17
4578.09253 2.02647e-17
4579.56277 2.00340e-17
4581.03301 1.90499e-17
4582.50325 1.85777e-17
4583.97349 2.12102e-17
4585.44373 2.23784e-17
4586.91397 1.93807e-17
4588.38421 1.91751e-17
4589.85445 1.93035e-17
4591.32469 1.96570e-17
4592.79493 1.98558e-17
4594.25496 2.12610e-17
4595.72520 2.31153e-17
4597.19544 2.05527e-17
4598.66568 1.91380e-17
4600.13592 2.10909e-17
4601.60616 1.92350e-17
4603.07640 2.07819e-17
4604.54664 2.11046e-17
4606.01688 1.97281e-17
4607.48712 2.10572e-17
4608.95736 2.04143e-17
4610.42760 1.95562e-17
4611.89784 2.30772e-17
4613.36808 2.18590e-17
4614.83832 2.05130e-17
4616.30856 2.16205e-17
4617.77880 2.03540e-17
4619.24904 2.07856e-17
4620.71928 2.27008e-17
4622.18952 2.23251e-17
4623.65976 2.14905e-17
4625.13000 2.11990e-17
4626.60024 2.05217e-17
4628.07048 2.06443e-17
4629.54072 1.97520e-17
4631.01096 2.05841e-17
4632.48120 2.20517e-17
4633.95144 2.22530e-17
4635.42168 2.25934e-17
4636.89192 2.21116e-17
4638.36216 2.11117e-17
4639.83240 2.25240e-17
4641.30264 2.22231e-17
4642.77288 2.39953e-17
4644.24312 2.42783e-17
4645.71336 2.27493e-17
4647.18360 2.19725e-17
4648.65384 2.14021e-17
4650.12408 2.19521e-17
4651.59432 2.05593e-17
4653.06456 2.07045e-17
4654.52459 2.26628e-17
4655.99483 2.22724e-17
4657.46507 2.20364e-17
4658.93531 2.26753e-17
4660.40555 2.32489e-17
4661.87579 2.20195e-17
4663.34603 2.11885e-17
4664.81627 2.18155e-17
4666.28651 2.42777e-17
4667.75675 2.45391e-17
4669.22699 2.25965e-17
4670.69723 2.32061e-17
4672.16747 2.32235e-17
4673.63771 2.34932e-17
4675.10795 2.35072e-17
4676.57819 2.27032e-17
4678.04843 2.41880e-17
4679.51867 2.32395e-17
4680.98891 2.16194e-17
4682.45915 2.20452e-17
4683.92939 2.22369e-17
4685.39963 2.30131e-17
4686.86987 2.23789e-17
4688.34011 2.25848e-17
4689.81035 2.39273e-17
4691.28059 2.36868e-17
4692.75083 2.20786e-17
4694.22107 2.34324e-17
4695.69131 2.39765e-17
4697.16155 1.90726e-17
4698.63179 1.98053e-17
4700.10203 2.23271e-17
4701.57227 2.18485e-17
4703.04251 2.18587e-17
4704.51275 2.37961e-17
4705.98299 2.20107e-17
4707.45323 2.07694e-17
4708.92347 2.18190e-17
4710.39371 2.23311e-17
4711.86395 2.22758e-17
4713.33419 2.31283e-17
4714.80443 2.39371e-17
4716.27467 2.26537e-17
4717.74491 2.25249e-17
4719.21515 2.15479e-17
4720.67518 2.15313e-17
4722.14542 2.15005e-17
4723.61566 2.03013e-17
4725.08590 1.98672e-17
4726.55614 1.96845e-17
4728.02638 2.05381e-17
4729.49662 2.17481e-17
4730.96686 2.17060e-17
4732.43710 2.30952e-17
4733.90734 2.29360e-17
4735.37758 2.19629e-17
4736.84782 2.13731e-17
4738.31806 2.32234e-17
4739.78830 2.24459e-17
4741.25854 2.19549e-17
4742.72878 2.09495e-17
4744.19902 2.08668e-17
4745.66926 2.04342e-17
4747.13950 2.19651e-17
4748.60974 2.18712e-17
4750.07998 2.12041e-17
4751.55022 2.24250e-17
4753.02046 2.33573e-17
4754.49070 2.06846e-17
4755.96094 2.26094e-17
4757.43118 2.11958e-17
4758.90142 2.01480e-17
4760.37166 2.19097e-17
4761.84190 2.06641e-17
4763.31214 2.27791e-17
4764.78238 2.12307e-17
4766.25262 1.88690e-17
4767.72286 1.98648e-17
4769.19310 1.95215e-17
4770.66334 1.91585e-17
4772.13358 2.02264e-17
4773.60382 2.23155e-17
4775.07406 2.16595e-17
4776.54430 1.91325e-17
4778.01454 1.85516e-17
4779.48478 1.95754e-17
4780.95502 2.00813e-17
4782.41505 2.06611e-17
4783.88529 1.95207e-17
4785.35553 2.04652e-17
4786.82577 2.01155e-17
4788.29601 1.93443e-17
4789.76625 1.78962e-17
4791.23649 1.88990e-17
4792.70673 1.94343e-17
4794.17697 1.75929e-17
4795.64721 1.91083e-17
4797.11745 1.78863e-17
4798.58769 1.76313e-17
4800.05793 1.86605e-17
4801.52817 1.69534e-17
4802.99841 1.71958e-17
4804.46865 1.83906e-17
4805.93889 1.80246e-17
4807.40913 1.74152e-17
4808.87937 1.71871e-17
4810.34961 1.59807e-17
4811.81985 1.67594e-17
4813.29009 1.74623e-17
4814.76033 1.73629e-17
4816.23057 1.78544e-17
4817.70081 1.64435e-17
4819.17105 1.64919e-17
4820.64129 1.63432e-17
4822.11153 1.59544e-17
4823.58177 1.63790e-17
4825.05201 1.57501e-17
4826.52225 1.52584e-17
4827.99249 1.44868e-17
4829.46273 1.49671e-17
4830.93297 1.37373e-17
4832.40321 1.35903e-17
4833.87345 1.39986e-17
4835.34369 1.46197e-17
4836.81393 1.50766e-17
4838.28417 1.53022e-17
4839.75441 1.46298e-17
4841.22465 1.33424e-17
4842.68468 1.42995e-17
4844.15492 1.45203e-17
4845.62516 1.36804e-17
4847.09540 1.25666e-17
4848.56564 1.29854e-17
4850.03588 1.25510e-17
4851.50612 1.28095e-17
4852.97636 1.40496e-17
4854.44660 1.43611e-17
4855.91684 1.30405e-17
4857.38708 1.30877e-17
4858.85732 1.29553e-17
4860.32756 1.18404e-17
4861.79780 1.20446e-17
4863.26804 1.29505e-17
4864.73828 1.28501e-17
4866.20852 1.31034e-17
4867.67876 1.27966e-17
4869.14900 1.34656e-17
4870.61924 1.29306e-17
4872.08948 1.27551e-17
4873.55972 1.33463e-17
4875.02996 1.29326e-17
4876.50020 1.29664e-17
4877.97044 1.42193e-17
4879.44068 1.40566e-17
4880.91092 1.46112e-17
4882.38116 1.27347e-17
4883.85140 1.37410e-17
4885.32164 1.32027e-17
4886.79188 1.10269e-17
4888.26212 1.22704e-17
4889.73236 1.31672e-17
4891.20260 1.23785e-17
4892.67284 1.28568e-17
4894.14308 1.36324e-17
4895.61332 1.16926e-17
4897.08356 1.35728e-17
4898.55380 1.40895e-17
4900.02404 1.38934e-17
4901.49428 1.19977e-17
4902.96452 1.22023e-17
4904.43476 1.21838e-17
4905.90500 1.23668e-17
4907.37524 1.20673e-17
4908.83527 1.22482e-17
4910.30551 1.22350e-17
4911.77575 1.29880e-17
4913.24599 1.24844e-17
4914.71623 1.19443e-17
4916.18647 1.33831e-17
4917.65671 1.27622e-17
4919.12695 1.30744e-17
4920.59719 1.13173e-17
4922.06743 1.13830e-17
4923.53767 1.13629e-17
4925.00791 1.12797e-17
4926.47815 1.13810e-17
4927.94839 1.19968e-17
4929.41863 1.15106e-17
4930.88887 1.12149e-17
4932.35911 1.10792e-17
4933.82935 1.10676e-17
4935.29959 1.11790e-17
4936.76983 1.11907e-17
4938.24007 1.28193e-17
4939.71031 1.15454e-17
4941.18055 1.29745e-17
4942.65079 1.23246e-17
4944.12103 1.09664e-17
4945.59127 1.19827e-17
4947.06151 1.18100e-17
4948.53175 1.11784e-17
4950.00199 1.06540e-17
4951.47223 1.33106e-17
4952.94247 1.25872e-17
4954.41271 9.96513e-18
4955.88295 1.13445e-17
4957.35319 1.26004e-17
4958.82343 1.32524e-17
4960.29367 1.20389e-17
4961.76391 1.15787e-17
4963.23415 1.12995e-17
4964.70439 1.29486e-17
4966.17463 1.40979e-17
4967.64487 1.27550e-17
4969.10490 1.12069e-17
4970.57514 1.22155e-17
4972.04538 1.31153e-17
4973.51562 1.34977e-17
4974.98586 1.28453e-17
4976.45610 1.29576e-17
4977.92634 1.12895e-17
4979.39658 1.26893e-17
4980.86682 1.21114e-17
4982.33706 1.27362e-17
4983.80730 1.41443e-17
4985.27754 1.40733e-17
4986.74778 1.48687e-17
4988.21802 1.51924e-17
4989.68826 1.37242e-17
4991.15850 1.40103e-17
4992.62874 1.45309e-17
4994.09898 1.40316e-17
4995.56922 1.43479e-17
4997.03946 1.52827e-17
4998.50970 1.44310e-17
4999.97994 1.47246e-17
5001.45018 1.61805e-17
5002.92042 1.53063e-17
5004.39066 1.49440e-17
5005.86090 1.55155e-17
5007.33114 1.43238e-17
5008.80138 1.42600e-17
5010.27162 1.63774e-17
5011.74186 1.62853e-17
5013.21210 1.57417e-17
5014.68234 1.50693e-17
5016.15258 1.48577e-17
5017.62282 1.65765e-17
5019.09306 1.60426e-17
5020.56330 1.48405e-17
5022.03354 1.51632e-17
5023.50378 1.50956e-17
5024.97402 1.54609e-17
5026.44426 1.68219e-17
5027.91450 1.65203e-17
5029.38474 1.43770e-17
5030.85498 1.40248e-17
5032.31501 1.58892e-17
5033.78525 1.59469e-17
5035.25549 1.47137e-17
5036.72573 1.48443e-17
5038.19597 1.42173e-17
5039.66621 1.43987e-17
5041.13645 1.62281e-17
5042.60669 1.55696e-17
5044.07693 1.40722e-17
5045.54717 1.46562e-17
5047.01741 1.52637e-17
5048.48765 1.40150e-17
5049.95789 1.39297e-17
5051.42813 1.52735e-17
5052.89837 1.48839e-17
5054.36861 1.40155e-17
5055.83885 1.41916e-17
5057.30909 1.33447e-17
5058.77933 1.35844e-17
5060.24957 1.35736e-17
5061.71981 1.33020e-17
5063.19005 1.41288e-17
5064.66029 1.35817e-17
5066.13053 1.35894e-17
5067.60077 1.31231e-17
5069.07101 1.27866e-17
5070.54125 1.36400e-17
5072.01149 1.33337e-17
5073.48173 1.20621e-17
5074.95197 1.23229e-17
5076.42221 1.22481e-17
5077.89245 1.17724e-17
5079.36269 1.19352e-17
5080.83293 1.16763e-17
5082.30317 1.20801e-17
5083.77341 1.13424e-17
5085.24365 1.15938e-17
5086.71389 1.23804e-17
5088.18413 1.15219e-17
5089.65437 1.13492e-17
5091.12461 1.19574e-17
5092.58464 1.17279e-17
5094.06509 1.11455e-17
5095.52512 1.10503e-17
5096.99536 1.12369e-17
5098.46560 1.19995e-17
5099.93584 1.19904e-17
5101.40608 1.16777e-17
5102.87632 1.24024e-17
5104.34656 1.25212e-17
5105.81680 1.21941e-17
5107.28704 1.11998e-17
5108.75728 1.15061e-17
5110.22752 1.16732e-17
5111.69776 1.16428e-17
5113.16800 1.16125e-17
5114.63824 1.15821e-17
5116.10848 1.15518e-17
5117.57872 1.15215e-17
5119.04896 1.14911e-17
5120.51920 1.14896e-17
5121.98944 1.32236e-17
5123.45968 1.27795e-17
5124.92992 1.22246e-17
5126.40016 1.33557e-17
5127.87040 1.44731e-17
5129.34064 1.35078e-17
5130.81088 1.26970e-17
5132.28112 1.26069e-17
5133.75136 1.30428e-17
5135.22160 1.38826e-17
5136.69184 1.41199e-17
5138.16208 1.41251e-17
5139.63232 1.32984e-17
5141.10256 1.27014e-17
5142.57280 1.37956e-17
5144.04304 1.46375e-17
5145.51328 1.38685e-17
5146.98352 1.29879e-17
5148.45376 1.37450e-17
5149.92400 1.41382e-17
5151.39424 1.43332e-17
5152.86448 1.47101e-17
5154.33472 1.46423e-17
5155.79475 1.47173e-17
5157.26499 1.41911e-17
5158.73523 1.42900e-17
5160.20547 1.44936e-17
5161.67571 1.43242e-17
5163.14595 1.48414e-17
5164.61619 1.53513e-17
5166.08643 1.48893e-17
5167.55667 1.45953e-17
5169.02691 1.44944e-17
5170.49715 1.50734e-17
5171.96739 1.53298e-17
5173.43763 1.45550e-17
5174.90787 1.54853e-17
5176.37811 1.66508e-17
5177.84835 1.54938e-17
5179.31859 1.42682e-17
5180.78883 1.45883e-17
5182.25907 1.55470e-17
5183.72931 1.59276e-17
5185.19955 1.50897e-17
5186.66979 1.52947e-17
5188.14003 1.58039e-17
5189.61027 1.55937e-17
5191.08051 1.48480e-17
5192.55075 1.51745e-17
5194.02099 1.64682e-17
5195.49123 1.63943e-17
5196.96147 1.53414e-17
5198.43171 1.57921e-17
5199.90195 1.60330e-17
5201.37219 1.53427e-17
5202.84243 1.57331e-17
5204.31267 1.61745e-17
5205.78291 1.60178e-17
5207.25315 1.62969e-17
5208.72339 1.65722e-17
5210.19363 1.64848e-17
5211.66387 1.65084e-17
5213.13411 1.53250e-17
5214.60435 1.47414e-17
5216.07459 1.52375e-17
5217.54483 1.47007e-17
5219.00486 1.43806e-17
5220.47510 1.46567e-17
5221.94534 1.52339e-17
5223.41558 1.57250e-17
5224.88582 1.48216e-17
5226.35606 1.40883e-17
5227.82630 1.45185e-17
5229.29654 1.54838e-17
5230.76678 1.60664e-17
5232.23702 1.60562e-17
5233.70726 1.63157e-17
5235.17750 1.58384e-17
5236.64774 1.61878e-17
5238.11798 1.59126e-17
5239.58822 1.53721e-17
5241.05846 1.54077e-17
5242.52870 1.60852e-17
5243.99894 1.54969e-17
5245.46918 1.56619e-17
5246.93942 1.61300e-17
5248.40966 1.58947e-17
5249.87990 1.70397e-17
5251.35014 1.59581e-17
5252.82038 1.48517e-17
5254.29062 1.58627e-17
5255.76086 1.56906e-17
5257.23110 1.63767e-17
5258.70134 1.66812e-17
5260.17158 1.66212e-17
5261.64182 1.75135e-17
5263.11206 1.77235e-17
5264.58230 1.66850e-17
5266.05254 1.62106e-17
5267.52278 1.63514e-17
5268.99302 1.67195e-17
5270.46326 1.55040e-17
5271.93350 1.59264e-17
5273.40374 1.63764e-17
5274.87398 1.57791e-17
5276.34422 1.60861e-17
5277.81446 1.70237e-17
5279.27449 1.70530e-17
5280.75494 1.72856e-17
5282.22518 1.76196e-17
5283.68521 1.82008e-17
5285.15545 1.76327e-17
5286.62569 1.65975e-17
5288.09593 1.65361e-17
5289.56617 1.65054e-17
5291.03641 1.77636e-17
5292.50665 1.85734e-17
5293.97689 1.70186e-17
5295.44713 1.66380e-17
5296.91737 1.76104e-17
5298.38761 1.78121e-17
5299.85785 1.77133e-17
5301.32809 1.85516e-17
5302.79833 1.86122e-17
5304.26857 1.76779e-17
5305.73881 1.78020e-17
5307.20905 1.82169e-17
5308.67929 1.78623e-17
5310.14953 1.81753e-17
5311.61977 1.86811e-17
5313.09001 1.81776e-17
5314.56025 1.84213e-17
5316.03049 1.86215e-17
5317.50073 1.65605e-17
5318.97097 1.76900e-17
5320.44121 1.86325e-17
5321.91145 1.84480e-17
5323.38169 1.85685e-17
5324.85193 1.92275e-17
5326.32217 1.92550e-17
5327.79241 1.81366e-17
5329.26265 1.83861e-17
5330.73289 2.04372e-17
5332.20313 2.15903e-17
5333.67337 2.05207e-17
5335.14361 1.80998e-17
5336.61385 1.69234e-17
5338.08409 1.83560e-17
5339.55433 1.78259e-17
5341.02457 1.85657e-17
5342.49481 1.87288e-17
5343.95484 1.80498e-17
5345.42508 1.79798e-17
5346.89532 1.84074e-17
5348.36556 2.03367e-17
5349.83580 2.08110e-17
5351.30604 2.00439e-17
5352.77628 1.94688e-17
5354.24652 1.76177e-17
5355.71676 1.76471e-17
5357.18700 1.94240e-17
5358.65724 1.98481e-17
5360.12748 1.85515e-17
5361.59772 1.67881e-17
5363.06796 1.79384e-17
5364.53820 2.00343e-17
5366.00844 1.89329e-17
5367.47868 1.79318e-17
5368.94892 1.97703e-17
5370.41916 2.12991e-17
5371.88940 1.90327e-17
5373.35964 1.72330e-17
5374.82988 1.82129e-17
5376.30012 1.94058e-17
5377.77036 1.97086e-17
5379.24060 1.90895e-17
5380.71084 1.92463e-17
5382.18108 1.94854e-17
5383.65132 1.89036e-17
5385.12156 1.92361e-17
5386.59180 1.94193e-17
5388.06204 2.04016e-17
5389.53228 2.01164e-17
5391.00252 1.90332e-17
5392.47276 1.79783e-17
5393.94300 1.82284e-17
5395.41324 1.95381e-17
5396.88348 1.95758e-17
5398.35372 1.91615e-17
5399.82396 1.86014e-17
5401.29420 1.78966e-17
5402.76444 1.78142e-17
5404.23468 1.85416e-17
5405.70492 1.90735e-17
5407.16495 1.74668e-17
5408.63519 1.66150e-17
5410.10543 1.75246e-17
5411.57567 1.82544e-17
5413.04591 1.86560e-17
5414.51615 1.86732e-17
5415.98639 1.87326e-17
5417.45663 1.83763e-17
5418.92687 1.92164e-17
5420.39711 2.02699e-17
5421.86735 1.92071e-17
5423.33759 1.75240e-17
5424.80783 1.81887e-17
5426.27807 1.93496e-17
5427.74831 1.87832e-17
5429.21855 1.88029e-17
5430.68879 1.99168e-17
5432.15903 1.98059e-17
5433.62927 1.92040e-17
5435.09951 1.80822e-17
5436.56975 1.80776e-17
5438.03999 1.88865e-17
5439.51023 1.91537e-17
5440.98047 1.92470e-17
5442.45071 1.88858e-17
5443.92095 1.90581e-17
5445.39119 1.95867e-17
5446.86143 1.90937e-17
5448.33167 1.83121e-17
5449.80191 1.77290e-17
5451.27215 1.71806e-17
5452.74239 1.76720e-17
5454.21263 1.94456e-17
5455.68287 1.95767e-17
5457.15311 1.95303e-17
5458.62335 2.23932e-17
5460.09359 2.14452e-17
5461.56383 1.90718e-17
5463.03407 1.78869e-17
5464.50431 1.76508e-17
5465.97455 1.83735e-17
5467.43458 1.74651e-17
5468.91503 1.65316e-17
5470.37506 1.67727e-17
5471.84530 1.83959e-17
5473.31554 1.87293e-17
5474.78578 1.71533e-17
5476.25602 1.74652e-17
5477.72626 1.76689e-17
5479.19650 1.74086e-17
5480.66674 1.81006e-17
5482.13698 1.79961e-17
5483.60722 1.75268e-17
5485.07746 1.68357e-17
5486.54770 1.63381e-17
5488.01794 1.69550e-17
5489.48818 1.76272e-17
5490.95842 1.75758e-17
5492.42866 1.70434e-17
5493.89890 1.69415e-17
5495.36914 1.70276e-17
5496.83938 1.70043e-17
5498.30962 1.71431e-17
5499.77986 1.67220e-17
5501.25010 1.65250e-17
5502.72034 1.68845e-17
5504.19058 1.73497e-17
5505.66082 1.71969e-17
5507.13106 1.67707e-17
5508.60130 1.70359e-17
5510.07154 1.74081e-17
5511.54178 1.80796e-17
5513.01202 1.88797e-17
5514.48226 1.88958e-17
5515.95250 1.75950e-17
5517.42274 1.61225e-17
5518.89298 1.69472e-17
5520.36322 1.76072e-17
5521.83346 1.62829e-17
5523.30370 1.63353e-17
5524.77394 1.63802e-17
5526.24418 1.73020e-17
5527.71442 2.03372e-17
5529.18466 2.24999e-17
5530.65490 2.35787e-17
5532.11493 2.04121e-17
5533.58517 1.54767e-17
5535.05541 1.52903e-17
5536.52565 1.65017e-17
5537.99589 1.70687e-17
5539.46613 1.69730e-17
5540.93637 1.68877e-17
5542.40661 1.67315e-17
5543.87685 1.60312e-17
5545.34709 1.62948e-17
5546.81733 1.79868e-17
5548.28757 1.82547e-17
5549.75781 1.75618e-17
5551.22805 1.67255e-17
5552.69829 1.62925e-17
5554.16853 1.72755e-17
5555.63877 1.64935e-17
5557.10901 1.54013e-17
5558.57925 1.58202e-17
5560.04949 1.61916e-17
5561.51973 1.55806e-17
5562.98997 1.53830e-17
5564.46021 1.64752e-17
5565.93045 1.70679e-17
5567.40069 1.66142e-17
5568.87093 1.60368e-17
5570.34117 1.64403e-17
5571.81141 1.64160e-17
5573.28165 1.53994e-17
5574.75189 1.67539e-17
5576.22213 1.69711e-17
5577.69237 1.39464e-17
5579.16261 1.54777e-17
5580.63285 1.83984e-17
5582.10309 1.76383e-17
5583.57333 1.64509e-17
5585.04357 1.59642e-17
5586.51381 1.61753e-17
5587.98405 1.55633e-17
5589.45429 1.56648e-17
5590.92453 1.64582e-17
5592.39477 1.63675e-17
5593.85480 1.58845e-17
5595.32504 1.46513e-17
5596.79528 1.51230e-17
5598.26552 1.67541e-17
5599.73576 1.59081e-17
5601.20600 1.50580e-17
5602.67624 1.53514e-17
5604.14648 1.52089e-17
5605.61672 1.56367e-17
5607.08696 1.60404e-17
5608.55720 1.55210e-17
5610.02744 1.51522e-17
5611.49768 1.57595e-17
5612.96792 1.55346e-17
5614.43816 1.44975e-17
5615.90840 1.39230e-17
5617.37864 1.36262e-17
5618.84888 1.44322e-17
5620.31912 1.52601e-17
5621.78936 1.46533e-17
5623.25960 1.54769e-17
5624.72984 1.57554e-17
5626.20008 1.43445e-17
5627.67032 1.40081e-17
5629.14056 1.45007e-17
5630.61080 1.44255e-17
5632.08104 1.38036e-17
5633.55128 1.46456e-17
5635.02152 1.44535e-17
5636.49176 1.32930e-17
5637.96200 1.37148e-17
5639.43224 1.38906e-17
5640.90248 1.39211e-17
5642.37272 1.43945e-17
5643.84296 1.46577e-17
5645.31320 1.45222e-17
5646.78344 1.40224e-17
5648.25368 1.40187e-17
5649.72392 1.36463e-17
5651.19416 1.33477e-17
5652.66440 1.42895e-17
5654.12443 1.49943e-17
5655.60488 1.43669e-17
5657.06491 1.35295e-17
5658.53515 1.30658e-17
5660.00539 1.32325e-17
5661.47563 1.38574e-17
5662.94587 1.35185e-17
5664.41611 1.29697e-17
5665.88635 1.32525e-17
5667.35659 1.42527e-17
5668.82683 1.45440e-17
5670.29707 1.39524e-17
5671.76731 1.29037e-17
5673.23755 1.33349e-17
5674.70779 1.48621e-17
5676.17803 1.42649e-17
5677.64827 1.32210e-17
5679.11851 1.31099e-17
5680.58875 1.28155e-17
5682.05899 1.20577e-17
5683.52923 1.14893e-17
5684.99947 1.19054e-17
5686.46971 1.24819e-17
5687.93995 1.22545e-17
5689.41019 1.20709e-17
5690.88043 1.23353e-17
5692.35067 1.28192e-17
5693.82091 1.25964e-17
5695.29115 1.25191e-17
5696.76139 1.29387e-17
5698.23163 1.22938e-17
5699.70187 1.19986e-17
5701.17211 1.18810e-17
5702.64235 1.18719e-17
5704.11259 1.24651e-17
5705.58283 1.22045e-17
5707.05307 1.15470e-17
5708.52331 1.10546e-17
5709.99355 1.09733e-17
5711.46379 1.10786e-17
5712.93403 1.15444e-17
5714.40427 1.25580e-17
5715.87451 1.20929e-17
5717.34475 1.09536e-17
5718.81499 1.05722e-17
5720.27502 1.08365e-17
5721.74526 1.11731e-17
5723.21550 1.09259e-17
5724.68574 1.08563e-17
5726.15598 1.09731e-17
5727.62622 1.10626e-17
5729.09646 1.10940e-17
5730.56670 1.11751e-17
5732.03694 1.11823e-17
5733.50718 1.06642e-17
5734.97742 1.04081e-17
5736.44766 1.05790e-17
5737.91790 1.05425e-17
5739.38814 1.04697e-17
5740.85838 1.05813e-17
5742.32862 1.09035e-17
5743.79886 1.10805e-17
5745.26910 1.05741e-17
5746.73934 1.01076e-17
5748.20958 1.02754e-17
5749.67982 1.08292e-17
5751.15006 1.12887e-17
5752.62030 1.14496e-17
5754.09054 1.12039e-17
5755.56078 1.05311e-17
5757.03102 1.04675e-17
5758.50126 1.04716e-17
5759.97150 1.05125e-17
5761.44174 9.85109e-18
5762.91198 9.87725e-18
5764.38222 1.09457e-17
5765.85246 1.13486e-17
5767.32270 1.12827e-17
5768.79294 1.08208e-17
5770.26318 1.07070e-17
5771.73342 9.96371e-18
5773.20366 8.76126e-18
5774.67390 9.14060e-18
5776.14414 9.45594e-18
5777.61438 9.77979e-18
5779.08462 1.00903e-17
5780.54465 9.30483e-18
5782.01489 9.32054e-18
5783.48513 8.84584e-18
5784.95537 8.70141e-18
5786.42561 9.75929e-18
5787.89585 1.02099e-17
5789.36609 9.52855e-18
5790.83633 9.59559e-18
5792.30657 8.90880e-18
5793.77681 8.86465e-18
5795.24705 9.80034e-18
5796.71729 9.78621e-18
5798.18753 9.44693e-18
5799.65777 9.11202e-18
5801.12801 8.62656e-18
5802.59825 9.91286e-18
5804.06849 1.02268e-17
5805.53873 9.77278e-18
5807.00897 1.01701e-17
5808.47921 1.04303e-17
5809.94945 9.97269e-18
5811.41969 9.95017e-18
5812.88993 1.08834e-17
5814.36017 1.03641e-17
5815.83041 9.11665e-18
5817.30065 1.02943e-17
5818.77089 1.05428e-17
5820.24113 9.91638e-18
5821.71137 1.00099e-17
5823.18161 1.00685e-17
5824.65185 1.04295e-17
5826.12209 1.09122e-17
5827.59233 1.07899e-17
5829.06257 1.05265e-17
5830.53281 9.89687e-18
5832.00305 9.43507e-18
5833.47329 9.63318e-18
5834.94353 1.05189e-17
5836.41377 1.04969e-17
5837.88401 1.01156e-17
5839.35425 1.04602e-17
5840.82449 1.07023e-17
5842.29473 1.11050e-17
5843.75476 1.06362e-17
5845.22500 1.07270e-17
5846.69524 1.09483e-17
5848.16548 1.10284e-17
5849.63572 1.15103e-17
5851.10596 1.07872e-17
5852.57620 1.10238e-17
5854.04644 1.25938e-17
5855.51668 1.14173e-17
5856.98692 1.08332e-17
5858.45716 1.24603e-17
5859.92740 1.14304e-17
5861.39764 1.09535e-17
5862.86788 1.09908e-17
5864.33812 1.07586e-17
5865.80836 1.20718e-17
5867.27860 1.27348e-17
5868.74884 1.15824e-17
5870.21908 1.17894e-17
5871.68932 1.19803e-17
5873.15956 1.17664e-17
5874.62980 1.26805e-17
5876.10004 1.33291e-17
5877.57028 1.21406e-17
5879.04052 1.27779e-17
5880.51076 1.28698e-17
5881.98100 1.24253e-17
5883.45124 1.31234e-17
5884.92148 1.19929e-17
5886.39172 1.27385e-17
5887.86196 1.45919e-17
5889.33220 1.38766e-17
5890.80244 1.24758e-17
5892.27268 1.29448e-17
5893.74292 1.35385e-17
5895.21316 1.30392e-17
5896.68340 1.16917e-17
5898.15364 1.13016e-17
5899.62388 1.19845e-17
5901.09412 1.26597e-17
5902.56436 1.34289e-17
5904.03460 1.42710e-17
5905.50484 1.38531e-17
5906.97508 1.36680e-17
5908.43511 1.44149e-17
5909.90535 1.44033e-17
5911.37559 1.33361e-17
5912.84583 1.38284e-17
5914.31607 1.42030e-17
5915.78631 1.39365e-17
5917.25655 1.55519e-17
5918.72679 1.56783e-17
5920.19703 1.37063e-17
5921.66727 1.37462e-17
5923.13751 1.48196e-17
5924.60775 1.52878e-17
5926.07799 1.54384e-17
5927.54823 1.49706e-17
5929.01847 1.47850e-17
5930.48871 1.45632e-17
5931.95895 1.37329e-17
5933.42919 1.41144e-17
5934.89943 1.49175e-17
5936.36967 1.48635e-17
5937.83991 1.43382e-17
5939.31015 1.49669e-17
5940.78039 1.54019e-17
5942.25063 1.56735e-17
5943.72087 1.57462e-17
5945.19111 1.41523e-17
5946.66135 1.37803e-17
5948.13159 1.43947e-17
5949.60183 1.51906e-17
5951.07207 1.54653e-17
5952.54231 1.48903e-17
5954.01255 1.55126e-17
5955.48279 1.64485e-17
5956.95303 1.57018e-17
5958.42327 1.48576e-17
5959.89351 1.52188e-17
5961.36375 1.47482e-17
5962.83399 1.51466e-17
5964.30423 1.65881e-17
5965.77447 1.59362e-17
5967.24471 1.54353e-17
5968.70474 1.60415e-17
5970.17498 1.55720e-17
5971.64522 1.61456e-17
5973.11546 1.62827e-17
5974.58570 1.55287e-17
5976.05594 1.53235e-17
5977.52618 1.45325e-17
5978.99642 1.47745e-17
5980.46666 1.53255e-17
5981.93690 1.47263e-17
5983.40714 1.47295e-17
5984.87738 1.51401e-17
5986.34762 1.50681e-17
5987.81786 1.49896e-17
5989.28810 1.56761e-17
5990.75834 1.62584e-17
5992.22858 1.56826e-17
5993.69882 1.54495e-17
5995.16906 1.56384e-17
5996.63930 1.63859e-17
5998.10954 1.57531e-17
5999.57978 1.47712e-17
6001.05002 1.51597e-17
6002.52026 1.52361e-17
6003.99050 1.54228e-17
6005.46074 1.59293e-17
6006.93098 1.64957e-17
6008.40122 1.62375e-17
6009.87146 1.55142e-17
6011.34170 1.60115e-17
6012.81194 1.58575e-17
6014.28218 1.53650e-17
6015.75242 1.50982e-17
6017.22266 1.48460e-17
6018.69290 1.49433e-17
6020.16314 1.41942e-17
6021.63338 1.39395e-17
6023.10362 1.35138e-17
6024.57386 1.44773e-17
6026.04410 1.44544e-17
6027.51434 1.51585e-17
6028.98458 1.45488e-17
6030.45482 1.45216e-17
6031.91485 1.49796e-17
6033.38509 1.43567e-17
6034.85533 1.53484e-17
6036.32557 1.50174e-17
6037.79581 1.47337e-17
6039.26605 1.47129e-17
6040.73629 1.47288e-17
6042.20653 1.57212e-17
6043.67677 1.61589e-17
6045.14701 1.48288e-17
6046.61725 1.39311e-17
6048.08749 1.57218e-17
6049.55773 1.62418e-17
6051.02797 1.54822e-17
6052.49821 1.57502e-17
6053.96845 1.61452e-17
6055.43869 1.58839e-17
6056.90893 1.56035e-17
6058.37917 1.52019e-17
6059.84941 1.46852e-17
6061.31965 1.44730e-17
6062.78989 1.40827e-17
6064.26013 1.43406e-17
6065.73037 1.54604e-17
6067.20061 1.44924e-17
6068.67085 1.43472e-17
6070.14109 1.50068e-17
6071.61133 1.46205e-17
6073.08157 1.45499e-17
6074.55181 1.45864e-17
6076.02205 1.36847e-17
6077.49229 1.41749e-17
6078.96253 1.36086e-17
6080.43277 1.37925e-17
6081.90301 1.46353e-17
6083.37325 1.44853e-17
6084.84349 1.34537e-17
6086.31373 1.31858e-17
6087.78397 1.29662e-17
6089.25421 1.30047e-17
6090.72445 1.29762e-17
6092.19469 1.43967e-17
6093.66493 1.47900e-17
6095.12496 1.40328e-17
6096.59520 1.47466e-17
6098.06544 1.38278e-17
6099.53568 1.40556e-17
6101.00592 1.51433e-17
6102.47616 1.42905e-17
6103.94640 1.37405e-17
6105.41664 1.36564e-17
6106.88688 1.39471e-17
6108.35712 1.31309e-17
6109.82736 1.26253e-17
6111.29760 1.42643e-17
6112.76784 1.43789e-17
6114.23808 1.36092e-17
6115.70832 1.31108e-17
6117.17856 1.30199e-17
6118.64880 1.34782e-17
6120.11904 1.40087e-17
6121.58928 1.39862e-17
6123.05952 1.37186e-17
6124.52976 1.31276e-17
6126.00000 1.36989e-17
6127.47024 1.45004e-17
6128.94048 1.41795e-17
6130.41072 1.38294e-17
6131.88096 1.42444e-17
6133.35120 1.45249e-17
6134.82144 1.36898e-17
6136.29168 1.35164e-17
6137.76192 1.29569e-17
6139.23216 1.16913e-17
6140.70240 1.23975e-17
6142.17264 1.21973e-17
6143.64288 1.18138e-17
6145.11312 1.19279e-17
6146.58336 1.24289e-17
6148.05360 1.36971e-17
6149.52384 1.30916e-17
6150.99408 1.23850e-17
6152.46432 1.24138e-17
6153.93456 1.29168e-17
6155.39459 1.26544e-17
6156.86483 1.17308e-17
6158.33507 1.27723e-17
6159.80531 1.34479e-17
6161.27555 1.30177e-17
6162.74579 1.35865e-17
6164.21603 1.33119e-17
6165.68627 1.25837e-17
6167.15651 1.32299e-17
6168.62675 1.31776e-17
6170.09699 1.31607e-17
6171.56723 1.35935e-17
6173.03747 1.30241e-17
6174.50771 1.26694e-17
6175.97795 1.32802e-17
6177.44819 1.29568e-17
6178.91843 1.22999e-17
6180.38867 1.17488e-17
6181.85891 1.25001e-17
6183.32915 1.29756e-17
6184.79939 1.23059e-17
6186.26963 1.30373e-17
6187.73987 1.34979e-17
6189.21011 1.21595e-17
6190.68035 1.23368e-17
6192.15059 1.25154e-17
6193.62083 1.27567e-17
6195.09107 1.35171e-17
6196.56131 1.26101e-17
6198.03155 1.33483e-17
6199.50179 1.33290e-17
6200.97203 1.24236e-17
6202.44227 1.19991e-17
6203.91251 1.18560e-17
6205.38275 1.16044e-17
6206.85299 1.25594e-17
6208.32323 1.26893e-17
6209.79347 1.29417e-17
6211.26371 1.41141e-17
6212.73395 1.35187e-17
6214.20419 1.24580e-17
6215.67443 1.24659e-17
6217.14467 1.42609e-17
6218.61491 1.44495e-17
6220.08515 1.24962e-17
6221.54518 1.22734e-17
6223.01542 1.19682e-17
6224.48566 1.23596e-17
6225.95590 1.20679e-17
6227.42614 1.24115e-17
6228.89638 1.18793e-17
6230.36662 1.11975e-17
6231.83686 1.21084e-17
6233.30710 1.24971e-17
6234.77734 1.13193e-17
6236.24758 1.12841e-17
6237.71782 1.25898e-17
6239.18806 1.17362e-17
6240.65830 1.20925e-17
6242.12854 1.24998e-17
6243.59878 1.14166e-17
6245.06902 1.16579e-17
6246.53926 1.16938e-17
6248.00950 1.08698e-17
6249.47974 1.11798e-17
6250.94998 1.17664e-17
6252.42022 1.08029e-17
6253.89046 1.11926e-17
6255.36070 1.16513e-17
6256.83094 1.17061e-17
6258.30118 1.23866e-17
6259.77142 1.03606e-17
6261.24166 9.39825e-18
6262.71190 1.11985e-17
6264.18214 1.16996e-17
6265.65238 1.15973e-17
6267.12262 1.14949e-17
6268.59286 1.13926e-17
6270.06310 1.12902e-17
6271.53334 1.11879e-17
6273.00358 1.11872e-17
6274.47382 1.14459e-17
6275.94406 1.11617e-17
6277.41430 1.10503e-17
6278.88454 1.08518e-17
6280.35478 9.41328e-18
6281.81481 1.05979e-17
6283.28505 1.10065e-17
6284.75529 1.02269e-17
6286.22553 1.02604e-17
6287.69577 9.94964e-18
6289.16601 9.46328e-18
6290.63625 1.04096e-17
6292.10649 1.06011e-17
6293.57673 1.00694e-17
6295.04697 9.70041e-18
6296.51721 9.91678e-18
6297.98745 1.07781e-17
6299.45769 9.51489e-18
6300.92793 9.90385e-18
6302.39817 9.17097e-18
6303.86841 1.02710e-17
6305.33865 9.85513e-18
6306.80889 9.09378e-18
6308.27913 9.63617e-18
6309.74937 9.42853e-18
6311.21961 9.24147e-18
6312.68985 9.34891e-18
6314.16009 9.08643e-18
6315.63033 9.41071e-18
6317.10057 1.00981e-17
6318.57081 9.46962e-18
6320.04105 8.91364e-18
6321.51129 9.20703e-18
6322.98153 1.00773e-17
6324.45177 9.95657e-18
6325.92201 1.01379e-17
6327.39225 9.77485e-18
6328.86249 9.24935e-18
6330.33273 9.48728e-18
6331.80297 9.67112e-18
6333.27321 9.90582e-18
6334.74345 1.00102e-17
6336.21369 9.98585e-18
6337.68393 9.34566e-18
6339.15417 9.39007e-18
6340.62441 9.95912e-18
6342.09465 9.99273e-18
6343.55468 1.06476e-17
6345.02492 9.82559e-18
6346.49516 9.48370e-18
6347.96540 9.76752e-18
6349.43564 9.46724e-18
6350.90588 9.90747e-18
6352.37612 9.82331e-18
6353.84636 9.30845e-18
6355.31660 8.63220e-18
6356.78684 8.96951e-18
6358.25708 1.09047e-17
6359.72732 1.18090e-17
6361.19756 1.04449e-17
6362.66780 9.42029e-18
6364.13804 9.80117e-18
6365.60828 1.03647e-17
6367.07852 9.66408e-18
6368.54876 9.73593e-18
6370.01900 1.01394e-17
6371.48924 1.09727e-17
6372.95948 1.08489e-17
6374.42972 9.43478e-18
6375.89996 9.86578e-18
6377.37020 1.03479e-17
6378.84044 1.00918e-17
6380.31068 9.76814e-18
6381.78092 1.04743e-17
6383.25116 1.03293e-17
6384.72140 1.06627e-17
6386.19164 1.06144e-17
6387.66188 1.00447e-17
6389.13212 1.10166e-17
6390.60236 1.10092e-17
6392.07260 1.07480e-17
6393.54284 1.02151e-17
6395.01308 1.06487e-17
6396.48332 1.03395e-17
6397.95356 1.03921e-17
6399.42380 1.13956e-17
6400.89404 1.11767e-17
6402.36428 1.05269e-17
6403.83452 1.17293e-17
6405.30476 1.08731e-17
6406.77500 9.86982e-18
6408.24524 1.08270e-17
6409.70527 1.10382e-17
6411.17551 1.18598e-17
6412.64575 1.14173e-17
6414.11599 1.04992e-17
6415.58623 1.07695e-17
6417.05647 1.15274e-17
6418.52671 1.12653e-17
6419.99695 1.11933e-17
6421.46719 1.08121e-17
6422.93743 1.07379e-17
6424.40767 1.10933e-17
6425.87791 1.14357e-17
6427.34815 1.16026e-17
6428.81839 1.04763e-17
6430.28863 1.16246e-17
6431.75887 1.20521e-17
6433.22911 1.16091e-17
6434.69935 1.22240e-17
6436.16959 1.18387e-17
6437.63983 1.11194e-17
6439.11007 1.08682e-17
6440.58031 1.10726e-17
6442.05055 1.13864e-17
6443.52079 1.12564e-17
6444.99103 1.13118e-17
6446.46127 1.17055e-17
6447.93151 1.22815e-17
6449.40175 1.27071e-17
6450.87199 1.16637e-17
6452.34223 1.23484e-17
6453.81247 1.29676e-17
6455.28271 1.10960e-17
6456.75295 1.11229e-17
6458.22319 1.06140e-17
6459.69343 1.07211e-17
6461.16367 1.10427e-17
6462.63391 1.11136e-17
6464.10415 1.25574e-17
6465.57439 1.13962e-17
6467.04463 1.06722e-17
6468.50466 1.18220e-17
6469.97490 1.19247e-17
6471.44514 1.08261e-17
6472.91538 1.06393e-17
6474.38562 1.15938e-17
6475.85586 1.16433e-17
6477.32610 1.24109e-17
6478.79634 1.13203e-17
6480.26658 1.15466e-17
6481.73682 1.21989e-17
6483.20706 1.15800e-17
6484.67730 1.21712e-17
6486.14754 1.17410e-17
6487.61778 1.20485e-17
6489.08802 1.18066e-17
6490.55826 1.07200e-17
6492.02850 1.10621e-17
6493.49874 1.17701e-17
6494.96898 1.25990e-17
6496.43922 1.25320e-17
6497.90946 1.15881e-17
6499.37970 1.07196e-17
6500.84994 1.21808e-17
6502.32018 1.22013e-17
6503.79042 1.22434e-17
6505.26066 1.10847e-17
6506.73090 1.11516e-17
6508.20114 1.17059e-17
6509.67138 1.15371e-17
6511.14162 1.16727e-17
6512.61186 1.16852e-17
6514.08210 1.14014e-17
6515.55234 1.08147e-17
6517.02258 1.10879e-17
6518.49282 1.18585e-17
6519.96306 1.16995e-17
6521.43330 1.05171e-17
6522.90354 1.11886e-17
6524.37378 1.21000e-17
6525.84402 1.20082e-17
6527.31426 1.10067e-17
6528.78450 1.02608e-17
6530.25474 1.04718e-17
6531.72498 1.07470e-17
6533.18501 1.05920e-17
6534.65525 1.05292e-17
6536.12549 1.06428e-17
6537.59573 1.01766e-17
6539.06597 9.59556e-18
6540.53621 9.93866e-18
6542.00645 1.08461e-17
6543.47669 1.10683e-17
6544.94693 1.06686e-17
6546.41717 1.07314e-17
6547.88741 1.03841e-17
6549.35765 1.10367e-17
6550.82789 1.13000e-17
6552.29813 9.94599e-18
6553.76837 1.02030e-17
6555.23861 1.13611e-17
6556.70885 1.07920e-17
6558.17909 1.04493e-17
6559.64933 1.07727e-17
6561.11957 1.06043e-17
6562.58981 1.11671e-17
6564.06005 1.07797e-17
6565.53029 9.48157e-18
6567.00053 1.01990e-17
6568.47077 1.08703e-17
6569.94101 9.95665e-18
6571.41125 1.04404e-17
6572.88149 9.58619e-18
6574.35173 9.01083e-18
6575.82197 1.01992e-17
6577.29221 9.99230e-18
6578.76245 9.23430e-18
6580.23269 8.89013e-18
6581.70293 9.47217e-18
6583.17317 9.26772e-18
6584.64341 9.87730e-18
6586.11365 9.51257e-18
6587.58389 9.64839e-18
6589.05413 9.47175e-18
6590.52437 8.99915e-18
6591.99461 9.20587e-18
6593.46485 9.50633e-18
6594.93509 8.99436e-18
6596.39512 8.47902e-18
6597.86536 8.70300e-18
6599.33560 9.43209e-18
6600.80584 8.20503e-18
6602.27608 7.13257e-18
6603.74632 8.27822e-18
6605.21656 9.27309e-18
6606.68680 9.26980e-18
6608.15704 9.70512e-18
6609.62728 8.27640e-18
6611.09752 8.38052e-18
6612.56776 1.02505e-17
6614.03800 9.38384e-18
6615.50824 9.09505e-18
6616.97848 9.45341e-18
6618.44872 9.23210e-18
6619.91896 1.01789e-17
6621.38920 9.13974e-18
6622.85944 9.40946e-18
6624.32968 9.15935e-18
6625.79992 9.41856e-18
6627.27016 1.05843e-17
6628.74040 1.10468e-17
6630.21064 1.00639e-17
6631.68088 9.79112e-18
6633.15112 9.11998e-18
6634.62136 9.79474e-18
6636.09160 1.04216e-17
6637.56184 1.02304e-17
6639.03208 8.81540e-18
6640.50232 8.79602e-18
6641.97256 1.03844e-17
6643.44280 9.71831e-18
6644.91304 1.08930e-17
6646.38328 1.10670e-17
6647.85352 9.51182e-18
6649.32376 9.64016e-18
6650.79400 1.07435e-17
6652.26424 1.16027e-17
6653.73448 1.06375e-17
6655.20472 1.10808e-17
6656.66475 1.08628e-17
6658.13499 9.63982e-18
6659.60523 1.05581e-17
6661.07547 1.03309e-17
6662.54571 9.29057e-18
6664.01595 1.05155e-17
6665.48619 1.04059e-17
6666.95643 1.12389e-17
6668.42667 1.06102e-17
6669.89691 1.04877e-17
6671.36715 1.02220e-17
6672.83739 1.05486e-17
6674.30763 1.03115e-17
6675.77787 1.07088e-17
6677.24811 1.17203e-17
6678.71835 1.16862e-17
6680.18859 1.07201e-17
6681.65883 1.03957e-17
6683.12907 1.12509e-17
6684.59931 1.04944e-17
6686.06955 1.02449e-17
6687.53979 1.17449e-17
6689.01003 1.08563e-17
6690.48027 1.09218e-17
6691.95051 1.16398e-17
6693.42075 1.14755e-17
6694.89099 1.10488e-17
6696.36123 1.04448e-17
6697.83147 1.21125e-17
6699.30171 1.17377e-17
6700.77195 1.20804e-17
6702.24219 1.13471e-17
6703.71243 1.19105e-17
6705.18267 1.23294e-17
6706.65291 1.10004e-17
6708.12315 1.11877e-17
6709.59339 1.16040e-17
6711.06363 1.12098e-17
6712.53387 1.14842e-17
6714.00411 1.22679e-17
6715.47435 1.17097e-17
6716.94459 1.12543e-17
6718.41483 1.10039e-17
6719.87486 1.16335e-17
6721.34510 1.16128e-17
6722.81534 1.21443e-17
6724.28558 1.19721e-17
6725.75582 1.18454e-17
6727.22606 1.20210e-17
6728.69630 1.06255e-17
6730.16654 1.12846e-17
6731.63678 1.21334e-17
6733.10702 1.19425e-17
6734.57726 1.19504e-17
6736.04750 1.07053e-17
6737.51774 1.11262e-17
6738.98798 1.09148e-17
6740.45822 1.10671e-17
6741.92846 1.14456e-17
6743.39870 1.09296e-17
6744.86894 1.13748e-17
6746.33918 1.17868e-17
6747.80942 1.23861e-17
6749.27966 1.15599e-17
6750.74990 1.05640e-17
6752.22014 1.09353e-17
6753.69038 1.04705e-17
6755.16062 1.13118e-17
6756.63086 1.12652e-17
6758.10110 1.08107e-17
6759.57134 1.12815e-17
6761.04158 1.10910e-17
6762.51182 1.20460e-17
6763.98206 1.18549e-17
6765.45230 1.04260e-17
6766.92254 1.07174e-17
6768.39278 1.20890e-17
6769.86302 1.23860e-17
6771.33326 1.11851e-17
6772.80350 1.13799e-17
6774.27374 1.11284e-17
6775.74398 1.08983e-17
6777.21422 1.08151e-17
6778.68446 1.09593e-17
6780.15470 1.14063e-17
6781.62494 1.16458e-17
6783.08497 1.15018e-17
6784.55521 1.17827e-17
6786.02545 1.17166e-17
6787.49569 1.06349e-17
6788.96593 1.07052e-17
6790.43617 1.10103e-17
6791.90641 1.09923e-17
6793.37665 1.08317e-17
6794.84689 1.10119e-17
6796.31713 1.10885e-17
6797.78737 1.11495e-17
6799.25761 1.07975e-17
6800.72785 1.05531e-17
6802.19809 1.12330e-17
6803.66833 1.11186e-17
6805.13857 1.08981e-17
6806.60881 1.12528e-17
6808.07905 1.10971e-17
6809.54929 1.10454e-17
6811.01953 1.04103e-17
6812.48977 1.04254e-17
6813.96001 1.09386e-17
6815.43025 1.07064e-17
6816.90049 1.11279e-17
6818.37073 1.12880e-17
6819.84097 1.09479e-17
6821.31121 1.03210e-17
6822.78145 1.04502e-17
6824.25169 1.11925e-17
6825.72193 1.12061e-17
6827.19217 1.07553e-17
6828.66241 9.95685e-18
6830.13265 1.08493e-17
6831.60289 1.10983e-17
6833.07313 1.12052e-17
6834.54337 1.21483e-17
6836.01361 1.16727e-17
6837.48385 1.24749e-17
6838.95409 1.13169e-17
6840.42433 1.02996e-17
6841.89457 1.09895e-17
6843.35460 9.90973e-18
6844.82484 1.08024e-17
6846.29508 1.10442e-17
6847.76532 9.36745e-18
6849.23556 1.02657e-17
6850.70580 1.13587e-17
6852.17604 1.04908e-17
6853.64628 1.00367e-17
6855.11652 9.66902e-18
6856.58676 1.02649e-17
6858.05700 1.06678e-17
6859.52724 1.14225e-17
6860.99748 1.13133e-17
6862.46772 1.05606e-17
6863.93796 1.05153e-17
6865.40820 9.75229e-18
6866.87844 1.15680e-17
6868.34868 1.09727e-17
6869.81892 9.36391e-18
6871.28916 1.03722e-17
6872.75940 9.43347e-18
6874.22964 1.08014e-17
6875.69988 1.04037e-17
6877.17012 1.03522e-17
6878.64036 1.03163e-17
6880.11060 1.04372e-17
6881.58084 1.18033e-17
6883.05108 1.08459e-17
6884.52132 9.30820e-18
6885.99156 9.68783e-18
6887.46180 1.01900e-17
6888.93204 1.04668e-17
6890.40228 9.74021e-18
6891.87252 1.12143e-17
6893.34276 1.00841e-17
6894.81300 9.17776e-18
6896.28324 1.02719e-17
6897.75348 1.09905e-17
6899.22372 9.67855e-18
6900.69396 1.02786e-17
6902.16420 1.00918e-17
6903.63444 1.09898e-17
6905.10468 9.66587e-18
6906.56471 9.08201e-18
6908.03495 1.06624e-17
6909.50519 9.54287e-18
6910.97543 1.04161e-17
6912.44567 8.81379e-18
6913.91591 9.17897e-18
6915.38615 1.01237e-17
6916.85639 9.65987e-18
6918.32663 8.98256e-18
6919.79687 9.73824e-18
6921.26711 9.30989e-18
6922.73735 8.84257e-18
6924.20759 9.94679e-18
6925.67783 1.02603e-17
6927.14807 9.20450e-18
6928.61831 9.90129e-18
6930.08855 8.50417e-18
6931.55879 9.20244e-18
6933.02903 8.76597e-18
6934.49927 8.50662e-18
6935.96951 9.08247e-18
6937.43975 9.71718e-18
6938.90999 1.01154e-17
6940.38023 1.08062e-17
6941.85047 9.46216e-18
6943.32071 9.90737e-18
6944.79095 9.40950e-18
6946.26119 9.68464e-18
6947.73143 9.94004e-18
6949.20167 9.55400e-18
6950.67191 8.90016e-18
6952.14215 9.56970e-18
6953.61239 9.03061e-18
6955.08263 9.29416e-18
6956.55287 8.32286e-18
6958.02311 8.29448e-18
6959.49335 9.44398e-18
6960.96359 8.76488e-18
6962.43383 8.62469e-18
6963.90407 1.00003e-17
6965.37431 9.13516e-18
6966.84455 9.16063e-18
6968.31479 9.74080e-18
6969.77482 9.53034e-18
6971.24506 9.58791e-18
6972.71530 9.80431e-18
6974.18554 9.94950e-18
6975.65578 8.85452e-18
6977.12602 8.23036e-18
6978.59626 7.76718e-18
6980.06650 7.81051e-18
6981.53674 9.33030e-18
6983.00698 1.04066e-17
6984.47722 1.06223e-17
6985.94746 1.00566e-17
6987.41770 8.56815e-18
6988.88794 9.56710e-18
6990.35818 9.50786e-18
6991.82842 8.27099e-18
6993.29866 8.60698e-18
6994.76890 9.36432e-18
6996.23914 8.59353e-18
6997.70938 8.76077e-18
6999.17962 8.50166e-18
7000.64986 9.04930e-18
7002.12010 9.34812e-18
7003.59034 8.39186e-18
7005.06058 8.45222e-18
7006.53082 9.04238e-18
7008.00106 9.17768e-18
7009.47130 8.10078e-18
7010.94154 9.06468e-18
7012.41178 1.01465e-17
7013.88202 9.04964e-18
7015.35226 9.42098e-18
7016.82250 8.36955e-18
7018.29274 8.49510e-18
7019.76298 8.88096e-18
7021.23322 9.57236e-18
7022.70346 8.50913e-18
7024.17370 8.28763e-18
7025.64394 9.16835e-18
7027.11418 9.30205e-18
7028.58442 9.28001e-18
7030.05466 9.45563e-18
7031.52490 9.18400e-18
7032.98493 9.10839e-18
7034.45517 9.81735e-18
7035.92541 1.04401e-17
7037.39565 9.77028e-18
7038.86589 8.33776e-18
7040.33613 8.98018e-18
7041.80637 9.46376e-18
7043.27661 8.93988e-18
7044.74685 8.24207e-18
7046.21709 7.94627e-18
7047.68733 8.62999e-18
7049.15757 8.92589e-18
7050.62781 8.74028e-18
7052.09805 8.34542e-18
7053.56829 8.73855e-18
7055.03853 9.71590e-18
7056.50877 1.03015e-17
7057.97901 1.02492e-17
7059.44925 9.82397e-18
7060.91949 9.55713e-18
7062.38973 9.35933e-18
7063.85997 9.09188e-18
7065.33021 9.01615e-18
7066.80045 1.01574e-17
7068.27069 1.02971e-17
7069.74093 8.79298e-18
7071.21117 9.11095e-18
7072.68141 1.00025e-17
7074.15165 9.50544e-18
7075.62189 9.05293e-18
7077.09213 9.02242e-18
7078.56237 9.11883e-18
7080.03261 8.83626e-18
7081.50285 8.99206e-18
7082.97309 9.33646e-18
7084.44333 9.74821e-18
7085.91357 9.86609e-18
7087.38381 9.80204e-18
7088.85405 9.87461e-18
7090.32429 1.02264e-17
7091.79453 1.09522e-17
7093.25456 9.39918e-18
7094.72480 8.96890e-18
7096.19504 9.30712e-18
7097.66528 8.70858e-18
7099.13552 9.24429e-18
7100.60576 9.62075e-18
7102.07600 9.72786e-18
7103.54624 9.16786e-18
7105.01648 8.46208e-18
7106.48672 9.38752e-18
7107.95696 9.81995e-18
7109.42720 9.66824e-18
7110.89744 1.03004e-17
7112.36768 9.49833e-18
7113.83792 9.05987e-18
7115.30816 9.08710e-18
7116.77840 1.01372e-17
7118.24864 1.01483e-17
7119.71888 9.52442e-18
7121.18912 9.68376e-18
7122.65936 9.50611e-18
7124.12960 9.11215e-18
7125.59984 9.58163e-18
7127.07008 9.65050e-18
7128.54032 8.67726e-18
7130.01056 9.27551e-18
7131.48080 9.77586e-18
7132.95104 9.36653e-18
7134.42128 9.72999e-18
7135.89152 9.78970e-18
7137.36176 9.49016e-18
7138.83200 1.04263e-17
7140.30224 1.07783e-17
7141.77248 1.05332e-17
7143.24272 9.52797e-18
7144.71296 9.69273e-18
7146.18320 9.98525e-18
7147.65344 1.00013e-17
7149.12368 9.50963e-18
7150.59392 9.68467e-18
7152.06416 9.10862e-18
7153.53440 9.74590e-18
7155.00464 9.76247e-18
7156.47488 8.78414e-18
7157.93491 9.27513e-18
7159.40515 9.69026e-18
7160.87539 9.71533e-18
7162.34563 9.38176e-18
7163.81587 9.21261e-18
7165.28611 9.85422e-18
7166.75635 9.95840e-18
7168.22659 9.37508e-18
7169.69683 9.03221e-18
7171.16707 9.80951e-18
7172.63731 9.68401e-18
7174.10755 9.71942e-18
7175.57779 8.67956e-18
7177.04803 9.17548e-18
7178.51827 9.90373e-18
7179.98851 8.91643e-18
7181.45875 9.46496e-18
7182.92899 8.70465e-18
7184.39923 8.71484e-18
7185.86947 8.97667e-18
7187.33971 9.71170e-18
7188.80995 1.08853e-17
7190.28019 9.89876e-18
7191.75043 8.46307e-18
7193.22067 8.58964e-18
7194.69091 9.14704e-18
7196.16115 9.17965e-18
7197.63139 8.88692e-18
7199.10163 9.17012e-18
7200.57187 1.01124e-17
7202.04211 9.70718e-18
7203.51235 8.87329e-18
7204.98259 9.31627e-18
7206.45283 9.98159e-18
7207.92307 9.74755e-18
7209.39331 9.62887e-18
7210.86355 9.21563e-18
7212.33379 9.59596e-18
7213.80403 9.77287e-18
7215.27427 9.49365e-18
7216.74451 9.11640e-18
7218.21475 8.31325e-18
7219.68499 9.59869e-18
7221.14502 9.63172e-18
7222.61526 8.96576e-18
7224.08550 9.53846e-18
7225.55574 9.72837e-18
7227.02598 9.53011e-18
7228.49622 9.03039e-18
7229.96646 9.34074e-18
7231.43670 9.05865e-18
7232.90694 9.14022e-18
7234.37718 9.31939e-18
7235.84742 1.07040e-17
7237.31766 9.67908e-18
7238.78790 9.52934e-18
7240.25814 9.57773e-18
7241.72838 9.05850e-18
7243.19862 8.56995e-18
7244.66886 8.87246e-18
7246.13910 1.08618e-17
7247.60934 8.05132e-18
7249.07958 8.51601e-18
7250.54982 8.93037e-18
7252.02006 9.23100e-18
7253.49030 8.75108e-18
7254.96054 9.12065e-18
7256.43078 9.02629e-18
7257.90102 9.66432e-18
7259.37126 9.79611e-18
7260.84150 9.08395e-18
7262.31174 9.14191e-18
7263.78198 8.47070e-18
7265.25222 9.07054e-18
7266.72246 9.00811e-18
7268.19270 8.90169e-18
7269.66294 9.48257e-18
7271.13318 1.05047e-17
7272.60342 9.77907e-18
7274.07366 1.02010e-17
7275.54390 1.04814e-17
7277.01414 1.06521e-17
7278.48438 1.05274e-17
7279.95462 9.32386e-18
7281.41465 8.45406e-18
7282.88489 8.08308e-18
7284.35513 9.31205e-18
7285.82537 9.47289e-18
7287.29561 1.00383e-17
7288.76585 1.00243e-17
7290.23609 9.91191e-18
7291.70633 9.67223e-18
7293.17657 9.72916e-18
7294.64681 9.18186e-18
7296.11705 8.30369e-18
7297.58729 8.51328e-18
7299.05753 9.22382e-18
7300.52777 9.92553e-18
7301.99801 9.01245e-18
7303.46825 9.11142e-18
7304.93849 9.03334e-18
7306.40873 9.63760e-18
7307.87897 9.90062e-18
7309.34921 9.59284e-18
7310.81945 8.98594e-18
7312.28969 8.84183e-18
7313.75993 8.43928e-18
7315.23017 7.58283e-18
7316.70041 1.01068e-17
7318.17065 9.03150e-18
7319.64089 8.65573e-18
7321.11113 9.49094e-18
7322.58137 9.24329e-18
7324.05161 8.03211e-18
7325.52185 9.20050e-18
7326.99209 9.94468e-18
7328.46233 9.81866e-18
7329.93257 9.66294e-18
7331.40281 9.46553e-18
7332.87305 9.20455e-18
7334.34329 9.73931e-18
7335.81353 9.37642e-18
7337.28377 9.78725e-18
7338.75401 8.32533e-18
7340.22425 8.37579e-18
7341.69449 8.96622e-18
7343.16473 8.41721e-18
7344.62476 9.15357e-18
7346.09500 9.53882e-18
7347.56524 1.01398e-17
7349.03548 9.89209e-18
7350.50572 9.42976e-18
7351.97596 8.74956e-18
7353.44620 8.68778e-18
7354.91644 8.96083e-18
7356.38668 9.93263e-18
7357.85692 1.03330e-17
7359.32716 9.78517e-18
7360.79740 1.01393e-17
7362.26764 1.06659e-17
7363.73788 9.86433e-18
7365.20812 9.73806e-18
7366.67836 9.54009e-18
7368.14860 9.22748e-18
7369.61884 8.95723e-18
7371.08908 9.67936e-18
7372.55932 9.72717e-18
7374.02956 1.09645e-17
7375.49980 1.04839e-17
7376.97004 9.21839e-18
7378.44028 8.38699e-18
7379.91052 8.13852e-18
7381.38076 8.50293e-18
7382.85100 8.72509e-18
7384.32124 9.07713e-18
7385.79148 9.55653e-18
7387.26172 9.11607e-18
7388.73196 9.50999e-18
7390.20220 9.21988e-18
7391.67244 9.24578e-18
7393.14268 8.98621e-18
7394.61292 8.56396e-18
7396.08316 8.91770e-18
7397.55340 9.26721e-18
7399.02364 8.57597e-18
7400.49388 9.79085e-18
7401.96412 1.11997e-17
7403.43436 1.00692e-17
7404.90460 9.39992e-18
7406.37484 9.73440e-18
7407.12935 9.73440e-18
7408.82694 8.46291e-18
7410.52453 7.79270e-18
7412.22211 8.04349e-18
7413.91970 8.48390e-18
7415.61729 8.85974e-18
7417.31488 9.49986e-18
7419.01247 1.01571e-17
7420.71005 9.81415e-18
7422.40764 8.41802e-18
7424.10523 7.47089e-18
7425.80282 7.74339e-18
7427.50041 8.50561e-18
7429.19800 9.12472e-18
7430.89558 9.41614e-18
7432.59317 9.36101e-18
7434.29076 9.27280e-18
7435.98835 9.42446e-18
7437.68594 9.79096e-18
7439.38352 1.02505e-17
7441.09116 1.06543e-17
7442.78874 1.08199e-17
7444.48633 1.03517e-17
7446.18392 9.08793e-18
7447.88151 7.96371e-18
7449.57910 7.97343e-18
7451.27669 8.77030e-18
7452.97427 9.47158e-18
7454.67186 9.48780e-18
7456.36945 8.54370e-18
7458.06704 7.16786e-18
7459.76463 6.32317e-18
7461.46221 6.24833e-18
7463.15980 6.61582e-18
7464.85739 7.28641e-18
7466.55498 8.23189e-18
7468.25257 9.16656e-18
7469.95015 9.63052e-18
7471.64774 9.49430e-18
7473.34533 9.00031e-18
7475.04292 8.52869e-18
7476.74051 8.62489e-18
7478.43809 9.23799e-18
7480.13568 9.36767e-18
7481.83327 8.69639e-18
7483.53086 8.19262e-18
7485.22845 8.41822e-18
7486.92604 8.97226e-18
7488.62362 9.47234e-18
7490.32121 9.81123e-18
7492.01880 9.87853e-18
7493.71639 9.43322e-18
7495.41398 8.47924e-18
7497.11156 7.72969e-18
7498.80915 7.76996e-18
7500.50674 8.30189e-18
7502.20433 8.85058e-18
7503.90192 9.19443e-18
7505.59950 9.27494e-18
7507.29709 9.47460e-18
7508.99468 1.01674e-17
7510.69227 1.08570e-17
7512.38986 1.07678e-17
7514.08745 9.65616e-18
7515.78503 7.73140e-18
7517.48262 6.05303e-18
7519.18021 6.02579e-18
7520.87780 7.29788e-18
7522.58543 8.17987e-18
7524.28302 8.27359e-18
7525.98061 8.36361e-18
7527.67819 8.67276e-18
7529.37578 8.89518e-18
7531.07337 8.89903e-18
7532.77096 8.70291e-18
7534.46855 8.42732e-18
7536.16614 8.35371e-18
7537.86372 8.56845e-18
7539.56131 8.82032e-18
7541.25890 8.94129e-18
7542.95649 8.96534e-18
7544.65408 8.93069e-18
7546.35166 8.87195e-18
7548.04925 8.78715e-18
7549.74684 8.53334e-18
7551.44443 8.52594e-18
7553.14202 8.51855e-18
7554.83960 8.51115e-18
7556.53719 8.50376e-18
7558.23478 8.49637e-18
7559.93237 8.48897e-18
7561.62996 8.48158e-18
7563.32754 8.47418e-18
7565.02513 8.46679e-18
7566.72272 8.45940e-18
7568.42031 8.45201e-18
7570.11790 8.44462e-18
7571.81549 8.43722e-18
7573.51307 8.42983e-18
7575.21066 8.42244e-18
7576.90825 8.41505e-18
7578.60584 8.40767e-18
7580.30343 8.40028e-18
7582.00101 8.39288e-18
7583.69860 8.38549e-18
7585.39619 8.37811e-18
7587.09378 8.37072e-18
7588.79137 8.36334e-18
7590.48895 8.35595e-18
7592.18654 8.34856e-18
7593.88413 8.34118e-18
7595.58172 8.33380e-18
7597.27931 8.32641e-18
7598.97689 8.31903e-18
7600.67448 8.31165e-18
7602.37207 8.30426e-18
7604.06966 8.29688e-18
7605.76725 8.28950e-18
7607.47488 8.28212e-18
7609.17247 8.27474e-18
7610.87006 8.26736e-18
7612.56764 8.25998e-18
7614.26523 8.25260e-18
7615.96282 8.24522e-18
7617.66041 8.23783e-18
7619.35800 8.23046e-18
7621.05559 8.22308e-18
7622.75317 8.21571e-18
7624.45076 8.20833e-18
7626.14835 8.20096e-18
7627.84594 8.19358e-18
7629.54353 8.18620e-18
7631.24111 8.17883e-18
7632.93870 8.17145e-18
7634.63629 8.16408e-18
7636.33388 8.15671e-18
7638.03147 8.14934e-18
7639.72905 8.14196e-18
7641.42664 8.13459e-18
7643.12423 8.12722e-18
7644.82182 8.11985e-18
7646.51941 8.11248e-18
7648.21699 8.10511e-18
7649.91458 8.09774e-18
7651.61217 8.09037e-18
7653.30976 8.08300e-18
7655.00735 8.07564e-18
7656.70494 8.06827e-18
7658.40252 8.06090e-18
7660.10011 8.05353e-18
7661.79770 8.04617e-18
7663.49529 8.03880e-18
7665.19288 8.03144e-18
7666.89046 8.02407e-18
7668.58805 8.01671e-18
7670.28564 8.00935e-18
7671.98323 8.00198e-18
7673.68082 7.99462e-18
7675.37840 7.98726e-18
7677.07599 7.97989e-18
7678.77358 7.97254e-18
7680.47117 7.96518e-18
7682.16876 7.96483e-18
7683.86634 7.87722e-18
7685.56393 7.73092e-18
7687.26152 7.56769e-18
7688.96915 7.48569e-18
7690.66674 7.58535e-18
7692.36433 7.80044e-18
7694.06192 7.94587e-18
7695.75951 7.93075e-18
7697.45709 7.76448e-18
7699.15468 7.51196e-18
7700.85227 7.29382e-18
7702.54986 7.28847e-18
7704.24745 7.72361e-18
7705.94504 8.48203e-18
7707.64262 8.98007e-18
7709.34021 8.97793e-18
7711.03780 8.82763e-18
7712.73539 8.69051e-18
7714.43298 8.29500e-18
7716.13056 7.61391e-18
7717.82815 7.19699e-18
7719.52574 7.28507e-18
7721.22333 7.20226e-18
7722.92092 6.59336e-18
7724.61850 6.34811e-18
7726.31609 7.11493e-18
7728.01368 8.17793e-18
7729.71127 8.75495e-18
7731.40886 8.97943e-18
7733.10644 9.13204e-18
7734.80403 8.91998e-18
7736.50162 8.09266e-18
7738.19921 7.36819e-18
7739.89680 7.59619e-18
7741.59439 8.35753e-18
7743.29197 8.73419e-18
7744.98956 8.72203e-18
7746.68715 8.80666e-18
7748.38474 9.05686e-18
7750.08233 9.28390e-18
7751.77991 9.35739e-18
7753.47750 9.19234e-18
7755.17509 8.94242e-18
7756.87268 8.97502e-18
7758.57027 9.40675e-18
7760.26785 1.00757e-17
7761.96544 1.05635e-17
7763.66303 1.01242e-17
7765.36062 8.87253e-18
7767.05821 8.22429e-18
7768.75579 8.72752e-18
7770.46343 9.35064e-18
7772.16102 9.41647e-18
7773.85860 9.13061e-18
7775.55619 8.71105e-18
7777.25378 8.23423e-18
7778.95137 7.83134e-18
7780.64896 7.77436e-18
7782.34654 8.16698e-18
7784.04413 8.63923e-18
7785.74172 8.82796e-18
7787.43931 8.68764e-18
7789.13690 8.32398e-18
7790.83448 8.10337e-18
7792.53207 8.32962e-18
7794.22966 8.55565e-18
7795.92725 8.26676e-18
7797.62484 8.16075e-18
7799.32243 9.17970e-18
7801.02001 1.06469e-17
7802.71760 1.11902e-17
7804.41519 1.06223e-17
7806.11278 9.56302e-18
7807.81037 8.67175e-18
7809.50795 8.58166e-18
7811.20554 9.05213e-18
7812.90313 9.04827e-18
7814.60072 8.55498e-18
7816.29831 8.61598e-18
7817.99589 9.29456e-18
7819.69348 9.49920e-18
7821.39107 8.99969e-18
7823.08866 8.76216e-18
7824.78625 9.10324e-18
7826.48384 9.26037e-18
7828.18142 8.87896e-18
7829.87901 8.44345e-18
7831.57660 8.20012e-18
7833.27419 7.73515e-18
7834.97178 6.92897e-18
7836.66936 6.48594e-18
7838.36695 6.89366e-18
7840.06454 7.88767e-18
7841.76213 8.96905e-18
7843.45972 9.32588e-18
7845.15730 8.48907e-18
7846.85489 7.32867e-18
7848.55248 6.87955e-18
7850.25007 7.18177e-18
7851.94766 7.89446e-18
7853.64524 8.81045e-18
7855.35288 9.71800e-18
7857.05047 1.01968e-17
7858.74805 9.87995e-18
7860.44564 9.07895e-18
7862.14323 8.46077e-18
7863.84082 8.09448e-18
7865.53841 7.63312e-18
7867.23599 7.16441e-18
7868.93358 7.08375e-18
7870.63117 7.21305e-18
7872.32876 6.87548e-18
7874.02635 6.16802e-18
7875.72393 6.02567e-18
7877.42152 6.74093e-18
7879.11911 7.80257e-18
7880.81670 8.53978e-18
7882.51429 8.00066e-18
7884.21188 6.33132e-18
7885.90946 5.64353e-18
7887.60705 6.89769e-18
7889.30464 8.52338e-18
7891.00223 9.27371e-18
7892.69982 9.16505e-18
7894.39740 8.48440e-18
7896.09499 7.83927e-18
7897.79258 7.67558e-18
7899.49017 7.64076e-18
7901.18776 7.40020e-18
7902.88534 7.35683e-18
7904.58293 7.87115e-18
7906.28052 8.55326e-18
7907.97811 8.85822e-18
7909.67570 8.48861e-18
7911.37328 7.42724e-18
7913.07087 6.37834e-18
7914.76846 6.21216e-18
7916.46605 6.95959e-18
7918.16364 8.08832e-18
7919.86123 8.72326e-18
7921.55881 7.96707e-18
7923.25640 6.37592e-18
7924.95399 5.59114e-18
7926.65158 6.12770e-18
7928.34917 7.40705e-18
7930.04675 8.70228e-18
7931.74434 9.12397e-18
7933.44193 8.60016e-18
7935.13952 8.15333e-18
7936.84715 8.12950e-18
7938.54474 7.83286e-18
7940.24233 7.14997e-18
7941.93992 6.91670e-18
7943.63750 7.52992e-18
7945.33509 8.59756e-18
7947.03268 9.55058e-18
7948.73027 9.53729e-18
7950.42786 8.26463e-18
7952.12544 6.82085e-18
7953.82303 6.15007e-18
7955.52062 6.17007e-18
7957.21821 6.58240e-18
7958.91580 7.08904e-18
7960.61338 7.45948e-18
7962.31097 7.88500e-18
7964.00856 8.53855e-18
7965.70615 8.92024e-18
7967.40374 8.49902e-18
7969.10133 7.58942e-18
7970.79891 6.81493e-18
7972.49650 6.42382e-18
7974.19409 6.41492e-18
7975.89168 6.57464e-18
7977.58927 6.57113e-18
7979.28685 6.39416e-18
7980.98444 6.27208e-18
7982.68203 6.19321e-18
7984.37962 5.96629e-18
7986.07721 5.56436e-18
7987.77479 5.11112e-18
7989.47238 4.84339e-18
7991.16997 5.11546e-18
7992.86756 5.89551e-18
7994.56515 6.64284e-18
7996.26273 6.99365e-18
7997.96032 6.88889e-18
7999.65791 6.41799e-18
8001.35550 5.91732e-18
8003.05309 5.56348e-18
8004.75068 5.11340e-18
8006.44826 4.46839e-18
8008.14585 3.97578e-18
8009.84344 3.85154e-18
8011.54103 3.81787e-18
8013.23862 3.65976e-18
8014.93620 3.62098e-18
8016.63379 3.91584e-18
8018.34143 4.34327e-18
8020.03901 4.65599e-18
8021.73660 4.88790e-18
8023.43419 5.12109e-18
8025.13178 5.21246e-18
8026.82937 4.99908e-18
8028.52695 4.64168e-18
8030.22454 4.39843e-18
8031.92213 4.14354e-18
8033.61972 3.59590e-18
8035.31731 2.93062e-18
8037.01489 2.58943e-18
8038.71248 2.61846e-18
8040.41007 2.76009e-18
8042.10766 2.98108e-18
8043.80525 3.43079e-18
8045.50283 4.10871e-18
8047.20042 4.87038e-18
8048.89801 5.47158e-18
8050.59560 5.55770e-18
8052.29319 5.01942e-18
8053.99078 4.10493e-18
8055.68836 3.10080e-18
8057.38595 2.26014e-18
8059.08354 1.88793e-18
8060.78113 2.44210e-18
8062.47872 3.84784e-18
8064.17630 4.92385e-18
8065.87389 4.88407e-18
8067.57148 4.21369e-18
8069.26907 3.52057e-18
8070.96666 3.07853e-18
8072.66424 3.05079e-18
8074.36183 3.51274e-18
8076.05942 4.34897e-18
8077.75701 4.96874e-18
8079.45460 4.84950e-18
8081.15218 4.30181e-18
8082.84977 3.86563e-18
8084.54736 3.53525e-18
8086.24495 3.11926e-18
8087.94254 2.73721e-18
8089.64013 2.62502e-18
8091.33771 2.86853e-18
8093.03530 3.42695e-18
8094.73289 4.07880e-18
8096.43048 4.48843e-18
8098.12807 4.53402e-18
8099.82565 4.30814e-18
8101.52324 3.95773e-18
8103.22083 3.68309e-18
8104.92846 3.50664e-18
8106.62605 3.21523e-18
8108.32364 2.87130e-18
8110.02123 2.91694e-18
8111.71882 3.39998e-18
8113.41640 3.78991e-18
8115.11399 3.65407e-18
8116.81158 2.69999e-18
8118.50917 1.19611e-18
8120.20676 5.63995e-19
8121.90434 1.50135e-18
8123.60193 2.74953e-18
8125.29952 3.26623e-18
8126.99711 3.36666e-18
8128.69470 3.46970e-18
8130.39228 3.57365e-18
8132.08987 3.61149e-18
8133.78746 3.53005e-18
8135.48505 3.29297e-18
8137.18264 2.89333e-18
8138.88023 2.39481e-18
8140.57781 2.13477e-18
8142.27540 2.42128e-18
8143.97299 2.94406e-18
8145.67058 3.15388e-18
8147.36817 2.91228e-18
8149.06575 2.37725e-18
8150.76334 1.90153e-18
8152.46093 1.92937e-18
8154.15852 2.43453e-18
8155.85611 2.98634e-18
8157.55369 3.42053e-18
8159.25128 3.83047e-18
8160.94887 4.17239e-18
8162.64646 4.27918e-18
8164.34405 4.18128e-18
8166.04163 4.14529e-18
8167.73922 4.20267e-18
8169.43681 4.03900e-18
8171.13440 3.49137e-18
8172.83199 2.65591e-18
8174.52958 1.71730e-18
8176.22716 9.63994e-19
8177.92475 6.42292e-19
8179.62234 9.27159e-19
8181.31993 1.73339e-18
8183.01752 2.42656e-18
8184.71510 2.52146e-18
8186.41269 2.12363e-18
8188.12032 1.56295e-18
8189.81791 1.50304e-18
8191.51550 2.33787e-18
8193.21309 3.23160e-18
8194.91068 3.22675e-18
8196.60827 2.42185e-18
8198.30585 1.37249e-18
8200.00344 7.68682e-19
8201.70103 1.16170e-18
8203.39862 2.00910e-18
8205.09621 2.29642e-18
8206.79379 2.17792e-18
8208.49138 2.49573e-18
8210.18897 3.28483e-18
8211.88656 3.99943e-18
8213.58415 4.30809e-18
8215.28173 4.06718e-18
8216.97932 3.47432e-18
8218.67691 3.09848e-18
8220.37450 3.05244e-18
8222.07209 2.87472e-18
8223.76967 2.44256e-18
8225.46726 2.11170e-18
8227.16485 2.01552e-18
8228.86244 1.91771e-18
8230.56003 1.78167e-18
8232.25762 1.97137e-18
8233.95520 2.59780e-18
8235.65279 3.20323e-18
8237.35038 3.47895e-18
8239.04797 3.62997e-18
8240.74556 3.81420e-18
8242.44314 3.83866e-18
8244.14073 3.57256e-18
8245.83832 3.22691e-18
8247.53591 3.01415e-18
8249.23350 2.93257e-18
8250.93108 2.88857e-18
8252.62867 2.60298e-18
8254.32626 1.89571e-18
8256.02385 1.33080e-18
8257.72144 1.58071e-18
8259.41903 2.32006e-18
8261.11661 2.78488e-18
8262.81420 2.69639e-18
8264.51179 2.14116e-18
8266.20938 1.57929e-18
8267.91701 1.67613e-18
8269.60455 2.33515e-18
8271.30214 2.81555e-18
8273.00977 2.80770e-18
8274.70736 2.43779e-18
8276.40495 1.94158e-18
8278.10254 1.69895e-18
8279.80013 1.84780e-18
8281.49772 2.16888e-18
8283.19530 2.53309e-18
8284.89289 2.97883e-18
8286.59048 3.44179e-18
8288.28807 3.69217e-18
8289.98566 3.64297e-18
8291.68324 3.47965e-18
8293.38083 3.37110e-18
8295.07842 3.38389e-18
8296.77601 3.52022e-18
8298.47360 3.66446e-18
8300.17118 3.70478e-18
8301.86877 3.61578e-18
8303.56636 3.40783e-18
8305.26395 3.13106e-18
8306.96154 2.83656e-18
8308.65912 2.52067e-18
8310.35671 2.17692e-18
8312.05430 1.81539e-18
8313.75189 1.48639e-18
8315.44948 1.43229e-18
8317.14707 1.88655e-18
8318.84465 2.62387e-18
8320.54224 3.19723e-18
8322.23983 3.45834e-18
8323.93742 3.48838e-18
8325.63501 3.46829e-18
8327.33259 3.64210e-18
8329.03018 3.96908e-18
8330.72777 4.14181e-18
8332.42536 4.00647e-18
8334.12295 3.57710e-18
8335.82053 3.04955e-18
8337.51812 2.85140e-18
8339.21571 2.99768e-18
8340.91330 2.89698e-18
8342.61089 2.38990e-18
8344.30847 2.02922e-18
8346.00606 2.18995e-18
8347.70365 2.90207e-18
8349.40124 3.94990e-18
8351.09883 4.66606e-18
8352.79642 4.64528e-18
8354.50405 4.21419e-18
8356.20164 3.77382e-18
8357.89922 3.56126e-18
8359.59681 3.68945e-18
8361.29440 4.03541e-18
8362.99199 4.38221e-18
8364.68958 4.45124e-18
8366.38717 4.06784e-18
8368.08475 3.47256e-18
8369.78234 3.02011e-18
8371.47993 2.75605e-18
8373.17752 2.62382e-18
8374.87511 2.86139e-18
8376.57269 3.73249e-18
8378.27028 4.89784e-18
8379.96787 5.70442e-18
8381.66546 6.00855e-18
8383.36305 6.04295e-18
8385.06063 5.85614e-18
8386.75822 5.37911e-18
8388.45581 4.53318e-18
8390.15340 3.21887e-18
8391.85099 1.98607e-18
8393.54857 2.08798e-18
8395.24616 3.59589e-18
8396.94375 5.03128e-18
8398.64134 5.52085e-18
8400.33893 5.17515e-18
8402.03652 4.35824e-18
8403.73410 3.84137e-18
8405.43169 3.97277e-18
8407.12928 4.11244e-18
8408.82687 3.84292e-18
8410.52446 3.48911e-18
8412.22204 3.35779e-18
8413.91963 3.49217e-18
8415.61722 3.84474e-18
8417.31481 4.22831e-18
8419.01240 4.47511e-18
8420.70998 4.63980e-18
8422.40757 4.80010e-18
8424.10516 4.80500e-18
8425.80275 4.53545e-18
8427.50034 4.33562e-18
8429.19792 4.59186e-18
8430.89551 5.01089e-18
8432.59310 5.06722e-18
8434.29069 4.81332e-18
8435.99832 4.61143e-18
8437.69591 4.62863e-18
8439.39350 4.87488e-18
8441.09109 5.07357e-18
8442.77863 4.75846e-18
8444.48626 4.07357e-18
8446.18385 3.71774e-18
8447.88144 3.97202e-18
8449.57903 4.65455e-18
8451.27662 5.46634e-18
8452.97420 5.95691e-18
8454.67179 5.96326e-18
8456.36938 5.78293e-18
8458.06697 5.55774e-18
8459.76456 5.12499e-18
8461.46214 4.45893e-18
8463.15973 3.76000e-18
8464.85732 3.26372e-18
8466.55491 3.26796e-18
8468.25250 3.85260e-18
8469.95008 4.62623e-18
8471.64767 5.18967e-18
8473.34526 5.32246e-18
8475.04285 5.00491e-18
8476.74044 4.67164e-18
8478.43802 4.71892e-18
8480.13561 5.00141e-18
8481.83320 5.22262e-18
8483.53079 5.18071e-18
8485.22838 4.80109e-18
8486.92597 4.39878e-18
8488.62355 4.39033e-18
8490.32114 4.72028e-18
8492.01873 5.09733e-18
8493.71632 5.53028e-18
8495.41391 6.16731e-18
8497.11149 6.83609e-18
8498.80908 7.17337e-18
8500.50667 7.04486e-18
8502.20426 6.53797e-18
8503.90185 5.98713e-18
8505.59943 5.95209e-18
8507.29702 6.50323e-18
8508.99461 7.11516e-18
8510.69220 7.49725e-18
8512.38979 7.71487e-18
8514.08737 7.70400e-18
8515.78496 7.20313e-18
8517.49260 6.24558e-18
8519.19018 5.32126e-18
8520.87773 4.85162e-18
8522.58536 5.10653e-18
8524.27290 5.98480e-18
8525.98054 6.60298e-18
8527.67812 6.38516e-18
8529.37571 5.82480e-18
8531.07330 5.47993e-18
8532.77089 5.50730e-18
8534.46848 5.86182e-18
8536.16606 6.11097e-18
8537.86365 5.88497e-18
8539.56124 5.52241e-18
8541.25883 5.48608e-18
8542.95642 5.67546e-18
8544.65401 5.79069e-18
8546.35159 5.73085e-18
8548.04918 5.51432e-18
8549.74677 5.26156e-18
8551.44436 5.15323e-18
8553.14195 5.26998e-18
8554.83953 5.59399e-18
8556.53712 6.06391e-18
8558.23471 6.57357e-18
8559.93230 6.92432e-18
8561.62989 6.86431e-18
8563.32747 6.49531e-18
8565.02506 6.30129e-18
8566.72265 6.45364e-18
8568.42024 6.71035e-18
8570.11783 6.93844e-18
8571.81542 7.17052e-18
8573.51300 7.39038e-18
8575.21059 7.53222e-18
8576.90818 7.50407e-18
8578.60577 7.13031e-18
8580.30336 6.43205e-18
8582.00094 5.85528e-18
8583.69853 5.69939e-18
8585.39612 5.77326e-18
8587.09371 5.87290e-18
8588.79130 6.00004e-18
8590.48888 6.18596e-18
8592.18647 6.50397e-18
8593.88406 6.94036e-18
8595.58165 7.09862e-18
8597.27924 6.64308e-18
8598.97682 5.86666e-18
8600.67441 5.26648e-18
8602.37200 5.13297e-18
8604.07963 5.55331e-18
8605.76718 6.15548e-18
8607.47481 6.38681e-18
8609.17240 6.32322e-18
8610.86999 6.42480e-18
8612.56757 6.68909e-18
8614.26516 6.79883e-18
8615.96275 6.66967e-18
8617.66034 6.41508e-18
8619.35793 6.40816e-18
8621.05551 7.25389e-18
8622.75310 8.89152e-18
8624.45069 1.04901e-17
8626.14828 1.12403e-17
8627.84587 1.03958e-17
8629.54346 8.11190e-18
8631.24104 5.91590e-18
8632.93863 4.83078e-18
8634.63622 4.82643e-18
8636.33381 5.50777e-18
8638.03140 5.90023e-18
8639.72898 5.50704e-18
8641.42657 5.18181e-18
8643.12416 5.58459e-18
8644.82175 6.35542e-18
8646.51934 6.99668e-18
8648.21692 7.14151e-18
8649.91451 6.64494e-18
8651.61210 5.95266e-18
8653.30969 5.59325e-18
8655.00728 5.66957e-18
8656.70486 6.08157e-18
8658.40245 6.65351e-18
8660.10004 7.17126e-18
8661.79763 7.52243e-18
8663.49522 7.66595e-18
8665.19281 7.48916e-18
8666.89039 6.90501e-18
8668.58798 6.17884e-18
8670.28557 5.78331e-18
8671.98316 5.80257e-18
8673.68075 5.98592e-18
8675.37833 6.22932e-18
8677.07592 6.55902e-18
8678.77351 6.97180e-18
8680.47110 7.45416e-18
8682.16869 7.91122e-18
8683.86627 8.15002e-18
8685.56386 8.04391e-18
8687.26145 7.55437e-18
8688.96908 6.82452e-18
8690.66667 6.27172e-18
8692.36426 6.15471e-18
8694.06185 6.40387e-18
8695.75944 6.84250e-18
8697.45702 7.17219e-18
8699.15461 7.18454e-18
8700.85220 6.92498e-18
8702.54979 6.53700e-18
8704.24738 6.24168e-18
8705.94496 6.22018e-18
8707.64255 6.54678e-18
8709.34014 7.14083e-18
8711.03773 7.48068e-18
8712.73532 7.13624e-18
8714.43291 6.62727e-18
8716.13049 6.66871e-18
8717.82808 7.05063e-18
8719.52567 7.20522e-18
8721.22326 7.07189e-18
8722.92085 6.87269e-18
8724.61843 6.85513e-18
8726.31602 7.24322e-18
8728.01361 7.76181e-18
8729.71120 7.78497e-18
8731.40879 7.36494e-18
8733.10637 7.15330e-18
8734.80396 7.33086e-18
8736.50155 7.59370e-18
8738.19914 7.72598e-18
8739.89673 7.60085e-18
8741.59431 7.22785e-18
8743.29190 6.82582e-18
8744.98949 6.54900e-18
8746.68708 6.42517e-18
8748.38467 6.41810e-18
8750.08226 6.39610e-18
8751.77984 6.27169e-18
8753.47743 6.02805e-18
8755.17502 5.79959e-18
8756.87261 6.07932e-18
8758.57020 7.08859e-18
8760.26778 8.26570e-18
8761.96537 9.01762e-18
8763.66296 9.10617e-18
8765.36055 8.54019e-18
8767.05814 7.83116e-18
8768.75572 7.45017e-18
8770.45331 7.02775e-18
8772.16095 6.06834e-18
8773.85853 4.81124e-18
8775.55612 3.81136e-18
8777.25371 3.66985e-18
8778.95130 4.78303e-18
8780.64889 6.34144e-18
8782.34647 6.93651e-18
8784.04406 6.56788e-18
8785.74165 6.25471e-18
8787.43924 6.23899e-18
8789.13683 6.14314e-18
8790.83441 5.92766e-18
8792.53200 5.80923e-18
8794.22959 5.82677e-18
8795.92718 5.86021e-18
8797.62477 5.75168e-18
8799.32236 5.27623e-18
8801.01994 4.55848e-18
8802.71753 4.26378e-18
8804.41512 4.60394e-18
8806.11271 4.97015e-18
8807.81030 4.97154e-18
8809.50788 4.75074e-18
8811.20547 4.48280e-18
8812.90306 4.32052e-18
8814.60065 4.32301e-18
8816.29824 4.28065e-18
8817.99582 4.04975e-18
8819.69341 3.80594e-18
8821.39100 3.74960e-18
8823.08859 3.94552e-18
8824.78618 4.36742e-18
8826.48376 4.84646e-18
8828.18135 5.18986e-18
8829.87894 5.31012e-18
8831.57653 5.21048e-18
8833.27412 5.05179e-18
8834.97171 5.03292e-18
8836.66929 5.08835e-18
8838.36688 5.01984e-18
8840.06447 4.89853e-18
8841.76206 4.94169e-18
8843.45965 5.01330e-18
8845.15723 4.74537e-18
8846.85482 4.19425e-18
8848.55241 3.79351e-18
8850.25000 3.81796e-18
8851.94759 4.36462e-18
8853.65522 5.28339e-18
8855.34276 6.10019e-18
8857.05040 6.66519e-18
8858.74798 7.34762e-18
8860.44557 8.12976e-18
8862.14316 8.33861e-18
8863.84075 7.70978e-18
8865.53834 6.72377e-18
8867.23592 5.87094e-18
8868.93351 5.56549e-18
8870.63110 5.87370e-18
8872.32869 6.02544e-18
8874.02628 5.53620e-18
8875.72386 5.05470e-18
8877.42145 5.22687e-18
8879.11904 6.06309e-18
8880.81663 7.27924e-18
8882.51422 8.18905e-18
8884.21181 8.20924e-18
8885.90939 7.64175e-18
8887.60698 7.07287e-18
8889.30457 6.56371e-18
8891.00216 6.01682e-18
8892.69975 5.84018e-18
8894.39733 6.52191e-18
8896.09492 7.64002e-18
8897.79251 8.27048e-18
8899.49010 8.26760e-18
8901.18769 8.06792e-18
8902.88527 7.52615e-18
8904.58286 6.09454e-18
8906.28045 4.45686e-18
8907.97804 4.40753e-18
8909.67563 5.96266e-18
8911.37321 7.11758e-18
8913.07080 6.83110e-18
8914.76839 5.35064e-18
8916.46598 3.40228e-18
8918.16357 2.47454e-18
8919.86116 3.02488e-18
8921.55874 3.54019e-18
8923.25633 3.17025e-18
8924.95392 2.69813e-18
8926.65151 2.75872e-18
8928.34910 3.35570e-18
8930.04668 4.27795e-18
8931.74427 4.94691e-18
8933.44186 4.96627e-18
8935.14949 4.67462e-18
8936.83704 4.48915e-18
8938.53462 4.45471e-18
8940.24226 4.51712e-18
8941.93985 4.59318e-18
8943.63743 4.64781e-18
8945.33502 5.04381e-18
8947.03261 6.11051e-18
8948.73020 7.23942e-18
8950.42779 7.52882e-18
8952.12537 7.14093e-18
8953.82296 6.81121e-18
8955.52055 6.57107e-18
8957.21814 6.02219e-18
8958.91573 5.21983e-18
8960.61331 4.53826e-18
8962.31090 4.18148e-18
8964.00849 4.19322e-18
8965.70608 4.48520e-18
8967.40367 4.82577e-18
8969.10125 4.94276e-18
8970.79884 4.52323e-18
8972.49643 3.76841e-18
8974.19402 3.62779e-18
8975.89161 4.39558e-18
8977.58920 5.22622e-18
8979.28678 5.58398e-18
8980.98437 5.70664e-18
8982.68196 5.68879e-18
8984.37955 5.07169e-18
8986.07714 3.87148e-18
8987.77472 3.39033e-18
8989.47231 4.43700e-18
8991.16990 5.96535e-18
8992.86749 6.90176e-18
8994.56508 7.42381e-18
8996.26266 7.88548e-18
8997.96025 8.06441e-18
8999.65784 7.70177e-18
9001.35543 6.93574e-18
9003.05302 6.04697e-18
9004.75061 5.28904e-18
9006.44819 4.82979e-18
9008.14578 4.49683e-18
9009.84337 3.97366e-18
9011.54096 3.28449e-18
9013.23855 2.69533e-18
9014.93613 2.48709e-18
9016.63372 2.91067e-18
9018.33131 3.89264e-18
9020.02890 5.04066e-18
9021.72649 6.01051e-18
9023.43412 6.55256e-18
9025.13171 6.39560e-18
9026.82930 5.25806e-18
9028.52688 3.61210e-18
9030.22447 2.91619e-18
9031.92206 3.64127e-18
9033.61965 4.66319e-18
9035.31724 5.25836e-18
9037.01482 5.59562e-18
9038.71241 5.81038e-18
9040.41000 5.88788e-18
9042.10759 5.81366e-18
9043.80518 5.51459e-18
9045.50276 4.99376e-18
9047.20035 4.50745e-18
9048.89794 4.21119e-18
9050.59553 3.76443e-18
9052.29312 2.94679e-18
9053.99070 2.31599e-18
9055.68829 2.43004e-18
9057.38588 3.09647e-18
9059.08347 3.83711e-18
9060.78106 4.22717e-18
9062.47865 3.98699e-18
9064.17623 3.20014e-18
9065.87382 2.23773e-18
9067.57141 1.93410e-18
9069.26900 3.12710e-18
9070.96659 4.91093e-18
9072.66417 5.29943e-18
9074.36176 4.24343e-18
9076.05935 3.29334e-18
9077.75694 3.09421e-18
9079.45453 3.43656e-18
9081.15211 4.09329e-18
9082.84970 4.74807e-18
9084.54729 4.96939e-18
9086.24488 4.23416e-18
9087.94247 2.81303e-18
9089.64005 2.11238e-18
9091.33764 2.79667e-18
9093.03523 4.24406e-18
9094.73282 5.72217e-18
9096.43041 6.45015e-18
9098.12800 6.15861e-18
9099.82558 5.69184e-18
9101.52317 5.75555e-18
9103.22076 6.33552e-18
9104.92839 7.16932e-18
9106.62598 7.67524e-18
9108.32357 7.44869e-18
9110.01111 6.86876e-18
9111.71875 6.42350e-18
9113.41633 6.16654e-18
9115.11392 5.98641e-18
9116.81151 5.67015e-18
9118.50910 5.06217e-18
9120.20669 4.49508e-18
9121.90427 4.43516e-18
9123.60186 4.83176e-18
9125.29945 5.32444e-18
9126.99704 5.51778e-18
9128.69463 5.08284e-18
9130.39221 4.45363e-18
9132.08980 4.59661e-18
9133.78739 5.35683e-18
9135.48498 5.59498e-18
9137.18257 5.25259e-18
9138.88015 5.36398e-18
9140.57774 6.06667e-18
9142.27533 6.46285e-18
9143.97292 6.26688e-18
9145.67051 5.99657e-18
9147.36810 6.01721e-18
9149.06568 6.48773e-18
9150.76327 7.20088e-18
9152.46086 7.26544e-18
9154.15845 6.29267e-18
9155.85604 5.08411e-18
9157.55362 4.18891e-18
9159.25121 3.08862e-18
9160.94880 1.61532e-18
9162.64639 9.62128e-19
9164.34398 1.92469e-18
9166.04156 3.61118e-18
9167.73915 4.84927e-18
9169.43674 4.85734e-18
9171.13433 3.44176e-18
9172.83192 1.99278e-18
9174.52950 2.05032e-18
9176.22709 3.19574e-18
9177.92468 4.21354e-18
9179.62227 4.58392e-18
9181.31986 4.27600e-18
9183.01745 3.93527e-18
9184.71503 4.52183e-18
9186.42267 5.77670e-18
9188.11021 6.57857e-18
9189.81784 6.54518e-18
9191.50539 5.94083e-18
9193.21302 5.38881e-18
9194.91061 5.86304e-18
9196.60820 7.14418e-18
9198.30578 7.63736e-18
9200.00337 6.89936e-18
9201.70096 5.99354e-18
9203.39855 5.59967e-18
9205.09614 5.84184e-18
9206.79372 6.45061e-18
9208.49131 6.44227e-18
9210.18890 5.47424e-18
9211.88649 4.58972e-18
9213.58408 4.48027e-18
9215.28166 4.68405e-18
9216.97925 4.86422e-18
9218.67684 5.51865e-18
9220.37443 6.79167e-18
9222.07202 7.49952e-18
9223.76960 6.72001e-18
9225.46719 5.07393e-18
9227.16478 3.56355e-18
9228.86237 2.94851e-18
9230.55996 3.57956e-18
9232.25755 4.60933e-18
9233.95513 4.93832e-18
9235.65272 4.78291e-18
9237.35031 4.95385e-18
9239.04790 5.74252e-18
9240.74549 7.06508e-18
9242.44307 8.45956e-18
9244.14066 9.21569e-18
9245.83825 9.05875e-18
9247.53584 8.14169e-18
9249.23343 6.77681e-18
9250.93101 5.43238e-18
9252.62860 4.46727e-18
9254.32619 4.05015e-18
9256.02378 4.25343e-18
9257.72137 5.04974e-18
9259.41895 6.00838e-18
9261.11654 6.17049e-18
9262.81413 5.30319e-18
9264.51172 4.34643e-18
9266.20931 3.95071e-18
9267.91694 4.13446e-18
9269.60448 4.64350e-18
9271.31212 4.71305e-18
9272.99966 4.01585e-18
9274.70729 3.43391e-18
9276.40488 3.63799e-18
9278.10247 4.26714e-18
9279.80006 4.80065e-18
9281.49764 4.81891e-18
9283.19523 4.19325e-18
9284.89282 3.71590e-18
9286.59041 4.15016e-18
9288.28800 4.92496e-18
9289.98559 5.18621e-18
9291.68317 5.33041e-18
9293.38076 6.07804e-18
9295.07835 6.69377e-18
9296.77594 6.00366e-18
9298.47353 5.00017e-18
9300.17111 5.71620e-18
9301.86870 7.48993e-18
9303.56629 7.85380e-18
9305.26388 6.63075e-18
9306.96147 5.53781e-18
9308.65905 5.21736e-18
9310.35664 5.33611e-18
9312.05423 5.43629e-18
9313.75182 4.78695e-18
9315.44941 3.85071e-18
9317.14700 4.74087e-18
9318.84458 7.70653e-18
9320.54217 1.02228e-17
9322.23976 1.05031e-17
9323.93735 8.11936e-18
9325.63494 3.78893e-18
9327.33252 2.70589e-19
9329.03011 -8.31625e-19
9330.72770 -1.09952e-18
9332.42529 -1.84980e-18
9334.12288 -2.51540e-18
9335.82046 -2.35042e-18
9337.51805 -9.21698e-19
9339.21564 1.80227e-18
9340.91323 4.93618e-18
9342.61082 7.43409e-18
9344.30840 8.78895e-18
9346.00599 8.86125e-18
9347.70358 7.77897e-18
9349.41121 5.97219e-18
9351.09876 4.40908e-18
9352.80639 4.06404e-18
9354.49393 4.80346e-18
9356.20157 5.76896e-18
9357.89915 6.25325e-18
9359.59674 5.76276e-18
9361.29433 4.54118e-18
9362.99192 3.46857e-18
9364.68951 2.70631e-18
9366.38709 1.73912e-18
9368.08468 7.23608e-19
9369.78227 4.56478e-19
9371.47986 1.30958e-18
9373.17745 3.21197e-18
9374.87504 5.29669e-18
9376.57262 5.53161e-18
9378.27021 3.61857e-18
9379.96780 2.13872e-18
9381.66539 2.59557e-18
9383.36298 4.21803e-18
9385.06056 6.00318e-18
9386.75815 6.80024e-18
9388.45574 6.23167e-18
9390.15333 5.97477e-18
9391.85092 7.14748e-18
9393.54850 8.31767e-18
9395.24609 8.19028e-18
9396.94368 7.51703e-18
9398.64127 7.28752e-18
9400.33886 7.57590e-18
9402.03644 8.04516e-18
9403.73403 7.84574e-18
9405.43162 6.29227e-18
9407.12921 4.13708e-18
9408.82680 2.73213e-18
9410.52439 2.86759e-18
9412.22197 4.72110e-18
9413.91956 7.28896e-18
9415.61715 8.86392e-18
9417.31474 8.67319e-18
9419.01233 6.85872e-18
9420.70991 4.50685e-18
9422.40750 3.48296e-18
9424.10509 3.80751e-18
9425.80268 3.55116e-18
9427.50027 2.48409e-18
9429.19785 2.37257e-18
9430.89544 3.51306e-18
9432.59303 4.25753e-18
9434.29062 4.11030e-18
9435.98821 4.37393e-18
9437.69584 5.61175e-18
9439.39343 7.07004e-18
9441.09102 7.99063e-18
9442.78860 7.68389e-18
9444.48619 6.11957e-18
9446.18378 4.68419e-18
9447.88137 4.42364e-18
9449.57896 5.01176e-18
9451.27654 5.81006e-18
9452.97413 6.15705e-18
9454.67172 5.66458e-18
9456.36931 4.72312e-18
9458.06690 3.98591e-18
9459.76449 4.15823e-18
9461.46207 5.58699e-18
9463.15966 7.25293e-18
9464.85725 7.81239e-18
9466.55484 7.38518e-18
9468.25243 6.81781e-18
9469.95001 6.38864e-18
9471.64760 6.02513e-18
9473.34519 5.50949e-18
9475.04278 4.53829e-18
9476.74037 3.20201e-18
9478.43795 1.94868e-18
9480.13554 1.66989e-18
9481.83313 3.57603e-18
9483.53072 6.91039e-18
9485.22831 8.78110e-18
9486.92589 8.30317e-18
9488.62348 7.19123e-18
9490.32107 6.45142e-18
9492.01866 6.02073e-18
9493.71625 5.74211e-18
9495.41384 5.18901e-18
9497.11142 4.37427e-18
9498.80901 4.30680e-18
9500.50660 5.37172e-18
9502.20419 6.42306e-18
9503.90178 6.66373e-18
9505.59936 6.70122e-18
9507.29695 6.99635e-18
9508.99454 6.89956e-18
9510.69213 5.89611e-18
9512.38972 4.55559e-18
9514.08730 3.55210e-18
9515.78489 2.69427e-18
9517.48248 1.76378e-18
9519.19011 1.79679e-18
9520.88770 3.74062e-18
9522.58529 6.11180e-18
9524.28288 6.71906e-18
9525.98047 5.80457e-18
9527.67805 4.95540e-18
9529.37564 4.94141e-18
9531.07323 5.90386e-18
9532.77082 7.27887e-18
9534.46841 7.92475e-18
9536.16599 7.56437e-18
9537.86358 6.76439e-18
9539.56117 6.01274e-18
9541.25876 5.72392e-18
9542.95635 5.85061e-18
9544.65394 5.75178e-18
9546.35152 5.11258e-18
9548.04911 4.09436e-18
9549.74670 2.99793e-18
9551.44429 2.25861e-18
9553.14188 2.29590e-18
9554.83946 3.62693e-18
9556.53705 5.87240e-18
9558.23464 6.75016e-18
9559.93223 5.28182e-18
9561.62982 3.99709e-18
9563.32740 4.70499e-18
9565.02499 5.95815e-18
9566.72258 6.21398e-18
9568.42017 5.48276e-18
9570.11776 4.28990e-18
9571.81534 3.48690e-18
9573.51293 3.82296e-18
9575.21052 5.30086e-18
9576.90811 7.45701e-18
9578.60570 9.50231e-18
9580.30329 1.06161e-17
9582.00087 1.05014e-17
9583.69846 9.30515e-18
9585.39605 7.46797e-18
9587.09364 5.62596e-18
9588.79123 4.35266e-18
9590.48881 4.04359e-18
9592.18640 4.38103e-18
9593.88399 4.46106e-18
9595.58158 4.41944e-18
9597.27917 5.39392e-18
9598.97675 7.11405e-18
9600.67434 7.78395e-18
9602.38198 7.01614e-18
9604.07956 6.21142e-18
9605.76711 6.06800e-18
9607.47474 6.22892e-18
9609.17233 6.33677e-18
9610.86992 6.04269e-18
9612.56750 5.26685e-18
9614.26509 4.44619e-18
9615.96268 3.99517e-18
9617.66027 4.19009e-18
9619.35786 4.98092e-18
9621.05544 5.67644e-18
9622.75303 5.67381e-18
9624.45062 4.81663e-18
9626.14821 3.37676e-18
9627.84580 2.47607e-18
9629.54339 3.05766e-18
9631.24097 4.74955e-18
9632.93856 6.67006e-18
9634.63615 8.05099e-18
9636.33374 8.35521e-18
9638.03133 7.71032e-18
9639.72891 6.65664e-18
9641.42650 5.69907e-18
9643.12409 5.23248e-18
9644.82168 5.18428e-18
9646.51927 5.15407e-18
9648.21685 5.14005e-18
9649.91444 5.42837e-18
9651.61203 6.21016e-18
9653.30962 7.59656e-18
9655.00721 8.67653e-18
9656.70479 7.51277e-18
9658.40238 4.61573e-18
9660.09997 3.40368e-18
9661.79756 5.27748e-18
9663.49515 8.84664e-18
9665.19274 1.23766e-17
9666.89032 1.37083e-17
9668.58791 1.21697e-17
9670.28550 9.84243e-18
9671.98309 8.38105e-18
9673.68068 7.96327e-18
9675.37826 8.27136e-18
9677.07585 8.35168e-18
9678.77344 7.43337e-18
9680.47103 5.45916e-18
9682.16862 2.88884e-18
9683.86620 1.09106e-18
9685.56379 1.10546e-18
9687.26138 2.30445e-18
9688.96901 3.54618e-18
9690.66660 3.94483e-18
9692.36419 3.07694e-18
9694.06178 1.92246e-18
9695.75937 1.83715e-18
9697.45695 2.53053e-18
9699.15454 2.88758e-18
9700.85213 2.59942e-18
9702.54972 1.90516e-18
9704.24731 1.32743e-18
9705.94489 1.57025e-18
9707.64248 2.51619e-18
9709.34007 3.32149e-18
9711.03766 3.59416e-18
9712.73525 3.40039e-18
9714.43283 3.06757e-18
9716.13042 3.24747e-18
9717.82801 3.99012e-18
9719.52560 4.54092e-18
9721.22319 4.44888e-18
9722.92078 3.70573e-18
9724.61836 2.68432e-18
9726.31595 2.39547e-18
9728.01354 3.24025e-18
9729.71113 4.37644e-18
9731.40872 5.08459e-18
9733.10630 5.19820e-18
9734.80389 4.84310e-18
9736.50148 4.65978e-18
9738.19907 5.07886e-18
9739.89666 5.73861e-18
9741.59424 6.10242e-18
9743.29183 5.56645e-18
9744.98942 3.95024e-18
9746.68701 2.63577e-18
9748.38460 2.97414e-18
9750.08219 3.99314e-18
9751.77977 4.03569e-18
9753.47736 2.92295e-18
9755.17495 1.36340e-18
9756.87254 6.79759e-19
9758.57013 2.22028e-18
9760.26771 4.98854e-18
9761.96530 6.45456e-18
9763.66289 5.77561e-18
9765.36048 3.60844e-18
9767.05807 1.38131e-18
9768.75565 1.22171e-18
9770.45324 3.16125e-18
9772.16088 4.87211e-18
9773.85846 5.46105e-18
9775.55605 5.83718e-18
9777.25364 6.52847e-18
9778.95123 7.58655e-18
9780.64882 8.82323e-18
9782.34640 9.64786e-18
9784.04399 9.60441e-18
9785.74158 8.48690e-18
9787.43917 6.54008e-18
9789.13676 4.85252e-18
9790.83434 4.08761e-18
9792.53193 3.67335e-18
9794.22952 3.03280e-18
9795.92711 2.09281e-18
9797.62470 1.05811e-18
9799.32228 7.61025e-19
9801.01987 1.71877e-18
9802.71746 2.77488e-18
9804.41505 2.72022e-18
9806.11264 2.28933e-18
9807.81023 2.68321e-18
9809.50781 3.80100e-18
9811.20540 4.90644e-18
9812.90299 5.13730e-18
9814.60058 3.81828e-18
9816.29817 1.85416e-18
9817.99575 1.05371e-18
9819.69334 1.58906e-18
9821.39093 2.37057e-18
9823.08852 3.04986e-18
9824.78611 3.86451e-18
9826.48369 4.52323e-18
9828.18128 4.32262e-18
9829.87887 3.51060e-18
9831.57646 3.37297e-18
9833.27405 4.40086e-18
9834.97163 6.04686e-18
9836.66922 7.56041e-18
9838.36681 7.90958e-18
9840.06440 6.83999e-18
9841.76199 5.46871e-18
9843.45958 4.62840e-18
9845.15716 4.33159e-18
9846.85475 4.41330e-18
9848.55234 4.52302e-18
9850.24993 4.41093e-18
9851.94752 4.27572e-18
9853.65515 4.25132e-18
9855.34269 3.94204e-18
9857.05033 3.09454e-18
9858.74791 2.34029e-18
9860.44550 2.28090e-18
9862.14309 2.28584e-18
9863.84068 1.66063e-18
9865.53827 1.52378e-18
9867.23585 3.23472e-18
9868.93344 5.37276e-18
9870.63103 5.63526e-18
9872.32862 5.28519e-18
9874.02621 7.22130e-18
9875.72379 1.05276e-17
9877.42138 1.18323e-17
9879.11897 9.64221e-18
9880.81656 4.17778e-18
9882.51415 -1.97280e-18
9884.21173 -4.06226e-18
9885.90932 -1.53780e-18
9887.60691 1.44822e-18
9889.30450 2.52393e-18
9891.00209 1.55686e-18
9892.69968 -3.72245e-19
9894.39726 -2.66517e-19
9896.09485 2.65938e-18
9897.79244 5.38510e-18
9899.49003 5.79643e-18
9901.18762 3.78328e-18
9902.88520 2.55304e-19
9904.58279 -2.14213e-18
9906.28038 -1.84186e-18
9907.97797 -4.34756e-19
9909.67556 4.66735e-19
9911.37314 8.60142e-19
9913.07073 1.11212e-18
9914.76832 1.62796e-18
9916.46591 2.68045e-18
9918.16350 3.99563e-18
9919.86108 5.09588e-18
9921.55867 5.54804e-18
9923.25626 5.11580e-18
9924.95385 4.12665e-18
9926.65144 3.18641e-18
9928.34903 2.83064e-18
9930.04661 3.35844e-18
9931.74420 4.01716e-18
9933.44179 3.51166e-18
9935.14942 2.18359e-18
9936.83697 1.57715e-18
9938.54460 1.92476e-18
9940.23214 2.32581e-18
9941.93978 2.29394e-18
9943.63736 1.70363e-18
9945.33495 8.65952e-19
9947.03254 6.96812e-19
9948.73013 1.08724e-18
9950.42772 4.71820e-19
9952.12530 -1.41443e-18
9953.82289 -2.80790e-18
9955.52048 -2.63465e-18
9957.21807 -1.19005e-18
9958.91566 1.07023e-18
9960.61324 3.61908e-18
9962.31083 6.01453e-18
9964.00842 8.28652e-18
9965.70601 1.02036e-17
9967.40360 1.05946e-17
9969.10118 8.79790e-18
9970.79877 5.72318e-18
9972.49636 2.72527e-18
9974.19395 1.17507e-18
9975.89154 1.85060e-18
9977.58913 3.79044e-18
9979.28671 5.44405e-18
9980.98430 6.04939e-18
9982.68189 5.39210e-18
9984.37948 3.64351e-18
9986.07707 1.36333e-18
9987.77465 -6.09836e-19
9989.47224 -1.42406e-18
9991.16983 -6.98468e-19
9992.86742 1.40937e-18
9994.56501 3.49944e-18
9996.26259 3.33638e-18
9997.96018 1.50655e-18
9999.65777 1.28078e-18
