# wavelength flux
3485.00480 7.94601e-18
3486.47202 1.98339e-17
3487.93924 1.17556e-17
3489.40645 9.92644e-18
3490.88386 1.29204e-17
3492.35107 7.64780e-18
3493.81829 1.10461e-17
3495.28550 1.60227e-17
3496.76291 2.09030e-17
3498.23013 2.11159e-17
3499.69734 1.45874e-17
3501.17475 1.68398e-17
3502.64196 1.02574e-17
3504.10918 3.41652e-18
3505.57640 7.89571e-18
3507.05380 1.25147e-17
3508.52102 1.44074e-17
3509.98823 1.17412e-17
3511.45545 5.27173e-18
3512.93285 6.64461e-18
3514.40007 1.24972e-17
3515.86728 1.62620e-17
3517.34469 1.34772e-17
3518.81191 1.43847e-17
3520.27912 1.88848e-17
3521.74634 1.34459e-17
3523.22374 1.25780e-17
3524.69096 7.50946e-18
3526.15817 6.38068e-18
3527.62539 1.07806e-17
3529.10280 9.18119e-18
3530.57001 1.81141e-17
3532.03723 2.26542e-17
3533.51463 2.30960e-17
3534.98185 2.02922e-17
3536.44906 2.22094e-17
3537.91628 1.63078e-17
3539.39369 1.28140e-17
3540.86090 1.95351e-17
3542.32812 2.21147e-17
3543.79533 1.97235e-17
3545.27274 1.44729e-17
3546.73995 9.56129e-18
3548.20717 1.12166e-17
3549.68458 1.46401e-17
3551.15179 1.66508e-17
3552.61901 1.33546e-17
3554.08622 8.38733e-18
3555.56363 1.48956e-17
3557.03084 2.18546e-17
3558.49806 1.42654e-17
3559.96528 1.32787e-17
3561.44268 1.18343e-17
3562.90990 1.93559e-17
3564.37711 1.46530e-17
3565.85452 1.35680e-17
3567.32173 2.05680e-17
3568.78895 2.33007e-17
3570.25617 1.54602e-17
3571.73357 9.64036e-18
3573.20079 1.01121e-17
3574.66800 1.26608e-17
3576.13522 1.13902e-17
3577.61262 1.22236e-17
3579.07984 1.51275e-17
3580.54706 1.31000e-17
3582.02446 1.64381e-17
3583.49168 1.27119e-17
3584.95889 9.69796e-18
3586.42611 1.07365e-17
3587.90351 1.27498e-17
3589.37073 1.32846e-17
3590.83795 1.09992e-17
3592.30516 1.46869e-17
3593.78257 1.52971e-17
3595.24978 6.92519e-18
3596.71700 7.68456e-18
3598.19440 1.43550e-17
3599.66162 1.64394e-17
3601.12884 7.60450e-18
3602.59605 1.13299e-17
3604.07346 1.51718e-17
3605.54067 9.53683e-18
3607.00789 7.77532e-18
3608.47511 1.31026e-17
3609.95251 1.18251e-17
3611.41973 7.60912e-18
3612.88694 6.81127e-18
3614.36435 9.10732e-18
3615.83156 1.07935e-17
3617.29878 1.17534e-17
3618.76600 1.59991e-17
3620.24340 1.72768e-17
3621.71062 1.50362e-17
3623.17783 1.42405e-17
3624.64505 1.35767e-17
3626.12245 1.10261e-17
3627.58967 1.27328e-17
3629.05689 1.05515e-17
3630.53429 6.91982e-18
3632.00151 1.40439e-17
3633.46872 1.39996e-17
3634.93594 1.97337e-17
3636.41334 1.63296e-17
3637.88056 1.34332e-17
3639.34778 1.37543e-17
3640.81499 1.18845e-17
3642.29240 1.47182e-17
3643.75961 1.49829e-17
3645.22683 1.09670e-17
3646.70423 1.31160e-17
3648.17145 1.76713e-17
3649.63867 1.23177e-17
3651.10588 1.05811e-17
3652.58329 8.39685e-18
3654.05050 8.34462e-18
3655.51772 8.96670e-18
3656.98493 1.42052e-17
3658.46234 1.22249e-17
3659.92956 1.05094e-17
3661.39677 9.65025e-18
3662.87418 1.13483e-17
3664.34139 1.26358e-17
3665.80861 1.13278e-17
3667.27582 9.00612e-18
3668.75323 8.55494e-18
3670.22045 1.55324e-17
3671.68766 1.26763e-17
3673.15488 1.07202e-17
3674.63228 1.40822e-17
3676.09950 1.05021e-17
3677.56671 9.55984e-18
3679.04412 1.20000e-17
3680.51134 9.43317e-18
3681.97855 1.13335e-17
3683.44577 1.59104e-17
3684.92317 1.79189e-17
3686.39039 1.26894e-17
3687.85760 8.95652e-18
3689.33501 1.22919e-17
3690.80223 1.19616e-17
3692.26944 7.31308e-18
3693.73666 8.27150e-18
3695.21406 9.61998e-18
3696.68128 7.69817e-18
3698.14849 1.01502e-17
3699.61571 1.47959e-17
3701.09312 1.70517e-17
3702.56033 1.17261e-17
3704.02755 9.17856e-18
3705.49476 1.29235e-17
3706.97217 1.40970e-17
3708.43938 1.14375e-17
3709.90660 7.89940e-18
3711.38401 6.96712e-18
3712.85122 1.61057e-17
3714.31844 1.48923e-17
3715.78565 1.21206e-17
3717.26306 1.18806e-17
3718.73027 9.33815e-18
3720.19749 1.17714e-17
3721.67490 1.27259e-17
3723.14211 9.61977e-18
3724.60933 8.73439e-18
3726.07654 1.22901e-17
3727.55395 1.09555e-17
3729.02116 1.21181e-17
3730.48838 1.20844e-17
3731.95560 1.41225e-17
3733.43300 1.52476e-17
3734.90022 1.05001e-17
3736.36743 1.46246e-17
3737.84484 1.42133e-17
3739.31205 8.28252e-18
3740.77927 1.15192e-17
3742.24649 1.38559e-17
3743.72389 1.04127e-17
3745.19111 1.07479e-17
3746.65832 1.03407e-17
3748.12554 1.00532e-17
3749.60295 7.88069e-18
3751.07016 8.75994e-18
3752.53738 1.27722e-17
3754.01478 9.75423e-18
3755.48200 1.17641e-17
3756.94921 1.25436e-17
3758.41643 1.13293e-17
3759.89383 1.29820e-17
3761.36105 1.01996e-17
3762.82827 1.04155e-17
3764.29548 1.55177e-17
3765.77289 1.51887e-17
3767.24010 1.12175e-17
3768.70732 8.67382e-18
3770.18472 1.04916e-17
3771.65194 1.04107e-17
3773.11916 1.28917e-17
3774.58637 1.52208e-17
3776.06378 1.23923e-17
3777.53099 1.02773e-17
3778.99821 1.38143e-17
3780.46543 1.40289e-17
3781.94283 1.13495e-17
3783.41005 1.42775e-17
3784.87726 1.17418e-17
3786.35467 1.01873e-17
3787.82188 1.21324e-17
3789.28910 1.01687e-17
3790.75632 1.00597e-17
3792.23372 1.72124e-17
3793.70094 1.38213e-17
3795.16815 1.45063e-17
3796.63537 1.36719e-17
3798.11277 1.20066e-17
3799.57999 1.40097e-17
3801.04721 1.58822e-17
3802.52461 1.59999e-17
3803.99183 1.50960e-17
3805.45904 1.53356e-17
3806.92626 1.28746e-17
3808.40366 7.28443e-18
3809.87088 1.22783e-17
3811.33810 1.41418e-17
3812.80531 1.10209e-17
3814.28272 1.01843e-17
3815.74993 8.71318e-18
3817.21715 9.22235e-18
3818.69455 1.00672e-17
3820.16177 1.09326e-17
3821.62899 9.32289e-18
3823.09620 7.61730e-18
3824.57361 8.02907e-18
3826.04082 1.28746e-17
3827.50804 1.18751e-17
3828.97525 1.69361e-17
3830.45266 1.16111e-17
3831.91988 1.07098e-17
3833.38709 8.45932e-18
3834.86450 1.16386e-17
3836.33171 1.05464e-17
3837.79893 9.01326e-18
3839.26615 7.58127e-18
3840.74355 8.01128e-18
3842.21077 7.22935e-18
3843.67798 7.08929e-18
3845.14520 8.20738e-18
3846.62260 1.01077e-17
3848.08982 8.45488e-18
3849.55703 7.15705e-18
3851.03444 8.74415e-18
3852.50166 4.31601e-18
3853.96887 6.11702e-18
3855.43609 8.33824e-18
3856.91349 5.25629e-18
3858.38071 2.20298e-18
3859.84792 3.70599e-18
3861.31514 5.64543e-18
3862.79255 7.88635e-18
3864.25976 7.04866e-18
3865.72698 5.94802e-18
3867.20438 6.75482e-18
3868.67160 5.48648e-18
3870.13881 4.53384e-18
3871.60603 6.46983e-18
3873.08344 7.89224e-18
3874.55065 2.21298e-18
3876.01787 5.82941e-19
3877.48508 2.03479e-18
3878.96249 1.97902e-18
3880.42970 4.61552e-18
3881.89692 6.78808e-18
3883.37433 5.24053e-18
3884.84154 7.04182e-18
3886.30876 5.86082e-18
3887.77597 4.80263e-18
3889.25338 4.74384e-18
3890.72059 4.88687e-18
3892.18781 4.84091e-18
3893.65503 3.83090e-18
3895.13243 7.77548e-18
3896.59965 4.57963e-18
3898.06686 3.19455e-18
3899.54427 6.84147e-18
3901.01148 7.76466e-18
3902.47870 6.09886e-18
3903.94592 5.64006e-18
3905.42332 6.29140e-18
3906.89054 6.09009e-18
3908.35775 7.87887e-18
3909.82497 4.15633e-18
3911.30237 9.01877e-18
3912.76959 7.04473e-18
3914.23681 5.78441e-18
3915.71421 9.36345e-18
3917.18143 9.32963e-18
3918.64864 7.26421e-18
3920.11586 7.68686e-18
3921.59326 5.74724e-18
3923.06048 4.22650e-18
3924.52770 7.58100e-18
3925.99491 5.73224e-18
3927.47232 7.55600e-18
3928.93953 1.03419e-17
3930.40675 5.90227e-18
3931.88415 6.75076e-18
3933.35137 9.67822e-18
3934.81859 8.19368e-18
3936.28580 5.94613e-18
3937.76321 9.74179e-18
3939.23042 1.06988e-17
3940.69764 1.01184e-17
3942.16486 9.93068e-18
3943.64226 6.84646e-18
3945.10948 7.08425e-18
3946.57669 1.07719e-17
3948.05410 1.21922e-17
3949.52131 7.49502e-18
3950.98853 8.49041e-18
3952.45575 1.06944e-17
3953.93315 9.47717e-18
3955.40037 9.24675e-18
3956.86758 8.04664e-18
3958.34499 9.79574e-18
3959.81220 1.26621e-17
3961.27942 1.14144e-17
3962.74664 8.43394e-18
3964.22404 8.46734e-18
3965.69126 1.20792e-17
3967.15847 1.18607e-17
3968.62569 1.05852e-17
3970.10309 1.08010e-17
3971.57031 1.18933e-17
3973.03753 1.47169e-17
3974.50474 1.52945e-17
3975.98215 1.50017e-17
3977.44936 1.35809e-17
3978.91658 1.46412e-17
3980.39398 1.37967e-17
3981.86120 1.43798e-17
3983.32842 1.74767e-17
3984.79563 1.67983e-17
3986.27304 1.53406e-17
3987.74025 1.13351e-17
3989.20747 1.32562e-17
3990.68487 1.50165e-17
3992.15209 1.24500e-17
3993.61931 1.52431e-17
3995.08652 1.51755e-17
3996.56393 1.38459e-17
3998.03114 1.59924e-17
3999.49836 1.80170e-17
4000.96557 1.66628e-17
4002.44298 1.38616e-17
4003.91020 1.40462e-17
4005.37741 1.51987e-17
4006.85482 1.17501e-17
4008.32203 1.40918e-17
4009.78925 1.58791e-17
4011.25646 1.38234e-17
4012.73387 1.63119e-17
4014.20109 1.68561e-17
4015.66830 1.55395e-17
4017.13552 1.78348e-17
4018.61292 1.68743e-17
4020.08014 1.49550e-17
4021.54735 1.69982e-17
4023.02476 1.65999e-17
4024.49198 1.44374e-17
4025.95919 1.40060e-17
4027.42641 1.63708e-17
4028.90381 1.56186e-17
4030.37103 1.67422e-17
4031.83824 1.83755e-17
4033.30546 1.69110e-17
4034.78287 1.43135e-17
4036.25008 1.62347e-17
4037.71730 2.04548e-17
4039.19470 2.08259e-17
4040.66192 1.51056e-17
4042.12913 1.56069e-17
4043.59635 1.61844e-17
4045.07376 1.70682e-17
4046.54097 1.65806e-17
4048.00819 1.85826e-17
4049.47540 1.79346e-17
4050.95281 1.53030e-17
4052.42002 1.78993e-17
4053.88724 1.85586e-17
4055.36465 1.77702e-17
4056.83186 1.91821e-17
4058.29908 1.92451e-17
4059.76629 1.78414e-17
4061.24370 1.83825e-17
4062.71091 1.66327e-17
4064.17813 1.76991e-17
4065.64535 1.77004e-17
4067.12275 1.79036e-17
4068.58997 1.55992e-17
4070.05718 1.67906e-17
4071.53459 1.83703e-17
4073.00180 1.66703e-17
4074.46902 1.62148e-17
4075.93624 1.96061e-17
4077.41364 2.02270e-17
4078.88086 1.89025e-17
4080.34807 1.90081e-17
4081.81529 1.63289e-17
4083.29269 1.60064e-17
4084.75991 1.57458e-17
4086.22713 1.54585e-17
4087.70453 1.60709e-17
4089.17175 1.73724e-17
4090.63896 1.62707e-17
4092.10618 1.54291e-17
4093.58358 1.82076e-17
4095.05080 2.14270e-17
4096.51802 1.79635e-17
4097.98523 1.73844e-17
4099.46264 1.77591e-17
4100.92985 1.72361e-17
4102.39707 1.79752e-17
4103.87447 1.82741e-17
4105.34169 1.38682e-17
4106.80891 1.42824e-17
4108.27612 1.54530e-17
4109.75353 1.47666e-17
4111.22074 1.53358e-17
4112.68796 1.78381e-17
4114.15518 1.63880e-17
4115.63258 1.55342e-17
4117.09980 1.78705e-17
4118.56701 1.68152e-17
4120.04442 1.47595e-17
4121.51163 1.47096e-17
4122.97885 1.59098e-17
4124.44607 1.48039e-17
4125.92347 1.35815e-17
4127.39069 1.68765e-17
4128.85790 1.88248e-17
4130.32512 1.55957e-17
4131.80252 1.55837e-17
4133.26974 1.75827e-17
4134.73696 1.53222e-17
4136.21436 1.45963e-17
4137.68158 1.68179e-17
4139.14879 1.47923e-17
4140.61601 1.37102e-17
4142.09341 1.53226e-17
4143.56063 1.55772e-17
4145.02785 1.41351e-17
4146.49506 1.36800e-17
4147.97247 1.62305e-17
4149.43968 1.63536e-17
4150.90690 1.41984e-17
4152.38430 1.24596e-17
4153.85152 1.11989e-17
4155.31874 1.34687e-17
4156.78595 1.51670e-17
4158.26336 1.39148e-17
4159.73057 1.32731e-17
4161.19779 1.32056e-17
4162.66500 1.35402e-17
4164.14241 1.28157e-17
4165.60963 1.34183e-17
4167.07684 1.45393e-17
4168.55425 1.36386e-17
4170.02146 1.34549e-17
4171.48868 1.33323e-17
4172.95590 1.40243e-17
4174.43330 1.60956e-17
4175.90052 1.40676e-17
4177.36773 1.18987e-17
4178.83495 1.08803e-17
4180.31235 1.29373e-17
4181.77957 1.43164e-17
4183.24678 1.32116e-17
4184.72419 1.43290e-17
4186.19141 1.42063e-17
4187.65862 1.37491e-17
4189.12584 1.30440e-17
4190.60324 1.48305e-17
4192.07046 1.42769e-17
4193.53767 1.26172e-17
4195.00489 1.36415e-17
4196.48230 1.27696e-17
4197.94951 1.45330e-17
4199.41673 1.35709e-17
4200.89413 1.32736e-17
4202.36135 1.34945e-17
4203.82856 1.41480e-17
4205.29578 1.45508e-17
4206.77319 1.28886e-17
4208.24040 1.23125e-17
4209.70762 1.45537e-17
4211.17483 1.43797e-17
4212.65224 1.50273e-17
4214.11945 1.23860e-17
4215.58667 1.35789e-17
4217.06408 1.18308e-17
4218.53129 1.21017e-17
4219.99851 1.33588e-17
4221.46572 1.48898e-17
4222.94313 1.57694e-17
4224.41035 1.26731e-17
4225.87756 1.24769e-17
4227.35497 1.20777e-17
4228.82218 1.12564e-17
4230.28940 1.15150e-17
4231.75661 1.34373e-17
4233.23402 1.41941e-17
4234.70123 1.23967e-17
4236.16845 1.34297e-17
4237.63567 1.42018e-17
4239.11307 1.21079e-17
4240.58029 1.15460e-17
4242.04750 1.08772e-17
4243.52491 1.11251e-17
4244.99212 1.37750e-17
4246.45934 1.32248e-17
4247.92656 1.31405e-17
4249.40396 1.31832e-17
4250.87118 1.33302e-17
4252.33839 1.47480e-17
4253.80561 1.52841e-17
4255.28301 1.36857e-17
4256.75023 1.25858e-17
4258.21745 1.29694e-17
4259.68466 1.22787e-17
4261.16207 1.29741e-17
4262.62928 1.39093e-17
4264.09650 1.43026e-17
4265.57390 1.40557e-17
4267.04112 1.36727e-17
4268.50834 1.18219e-17
4269.97555 1.26632e-17
4271.45296 1.29829e-17
4272.92017 1.39444e-17
4274.38739 1.22293e-17
4275.85461 1.33183e-17
4277.33201 1.41443e-17
4278.79923 1.15554e-17
4280.26644 1.17107e-17
4281.74385 1.28595e-17
4283.21106 1.57981e-17
4284.67828 1.49195e-17
4286.14550 1.38902e-17
4287.62290 1.42325e-17
4289.09012 1.22845e-17
4290.55733 1.22556e-17
4292.03474 1.38728e-17
4293.50195 1.36489e-17
4294.96917 1.40663e-17
4296.43639 1.25757e-17
4297.91379 1.23058e-17
4299.38101 1.25129e-17
4300.84822 1.23531e-17
4302.31544 1.38633e-17
4303.79284 1.40923e-17
4305.26006 1.37694e-17
4306.72728 1.30331e-17
4308.20468 1.27048e-17
4309.67190 1.26609e-17
4311.13911 1.14693e-17
4312.60633 1.27539e-17
4314.08373 1.48177e-17
4315.55095 1.28716e-17
4317.01817 1.27996e-17
4318.48538 1.30106e-17
4319.96279 1.37778e-17
4321.43000 1.37195e-17
4322.89722 1.29007e-17
4324.37462 1.35368e-17
4325.84184 1.43017e-17
4327.30906 1.34795e-17
4328.77627 1.26805e-17
4330.25368 1.37927e-17
4331.72089 1.36385e-17
4333.18811 1.39073e-17
4334.65532 1.51458e-17
4336.13273 1.43762e-17
4337.59995 1.40971e-17
4339.06716 1.25185e-17
4340.54457 1.23225e-17
4342.01178 1.35159e-17
4343.47900 1.34036e-17
4344.94621 1.26019e-17
4346.42362 1.30344e-17
4347.89084 1.34257e-17
4349.35805 1.39044e-17
4350.82527 1.45191e-17
4352.30267 1.38658e-17
4353.76989 1.36303e-17
4355.23710 1.46391e-17
4356.71451 1.55648e-17
4358.18173 1.51802e-17
4359.64894 1.65512e-17
4361.11616 1.47541e-17
4362.59356 1.16858e-17
4364.06078 1.32706e-17
4365.52799 1.34919e-17
4366.99521 1.22304e-17
4368.47262 1.30166e-17
4369.93983 1.37845e-17
4371.40705 1.38048e-17
4372.88445 1.44968e-17
4374.35167 1.22742e-17
4375.81888 1.30614e-17
4377.28610 1.52032e-17
4378.76351 1.39240e-17
4380.23072 1.11229e-17
4381.69794 1.08520e-17
4383.16515 1.29642e-17
4384.64256 1.32318e-17
4386.10977 1.31899e-17
4387.57699 1.37051e-17
4389.05440 1.46122e-17
4390.52161 1.31038e-17
4391.98883 1.16512e-17
4393.45604 1.18958e-17
4394.93345 1.17426e-17
4396.40067 1.23223e-17
4397.86788 1.32375e-17
4399.33510 1.12749e-17
4400.81250 1.07084e-17
4402.27972 1.09908e-17
4403.74693 1.25376e-17
4405.22434 1.24793e-17
4406.69155 1.33822e-17
4408.15877 1.32470e-17
4409.62599 1.27940e-17
4411.10339 1.09055e-17
4412.57061 1.13321e-17
4414.03782 1.30175e-17
4415.50504 1.41900e-17
4416.98244 1.37757e-17
4418.44966 1.24039e-17
4419.91688 1.26946e-17
4421.39428 1.28945e-17
4422.86150 1.31018e-17
4424.32871 1.14964e-17
4425.79593 1.24851e-17
4427.27333 1.24961e-17
4428.74055 1.29492e-17
4430.20777 1.29066e-17
4431.68517 1.30011e-17
4433.15239 1.35240e-17
4434.61960 1.11607e-17
4436.08682 1.19137e-17
4437.56423 1.26543e-17
4439.03144 1.15828e-17
4440.49866 1.02678e-17
4441.96587 1.00870e-17
4443.44328 1.26617e-17
4444.91049 1.21911e-17
4446.37771 1.12198e-17
4447.84493 1.33084e-17
4449.32233 1.26240e-17
4450.78955 1.05933e-17
4452.25676 9.98905e-18
4453.73417 1.08686e-17
4455.20138 1.08954e-17
4456.66860 1.17994e-17
4458.13582 1.14479e-17
4459.61322 1.03463e-17
4461.08044 8.74393e-18
4462.54765 7.78172e-18
4464.01487 8.42659e-18
4465.49227 9.04718e-18
4466.95949 9.53114e-18
4468.42671 9.06178e-18
4469.90411 1.05807e-17
4471.37133 1.07299e-17
4472.83854 9.61195e-18
4474.30576 1.06149e-17
4475.78316 9.94006e-18
4477.25038 1.00846e-17
4478.71760 1.14615e-17
4480.18481 1.15791e-17
4481.66222 1.06761e-17
4483.12943 1.02860e-17
4484.59665 9.77590e-18
4486.07405 1.07375e-17
4487.54127 9.63051e-18
4489.00849 8.61068e-18
4490.47570 9.38368e-18
4491.95311 1.01386e-17
4493.42032 8.44105e-18
4494.88754 9.11457e-18
4496.36494 9.90040e-18
4497.83216 9.22768e-18
4499.29938 9.93658e-18
4500.76659 1.02780e-17
4502.24400 8.17721e-18
4503.71121 1.07531e-17
4505.17843 1.01259e-17
4506.64564 9.60671e-18
4508.12305 9.48825e-18
4509.59027 9.83102e-18
4511.05748 1.08602e-17
4512.52470 1.22184e-17
4514.00210 1.23645e-17
4515.46932 1.20939e-17
4516.93653 1.10809e-17
4518.41394 1.19772e-17
4519.88116 1.20059e-17
4521.34837 1.08094e-17
4522.81559 1.09325e-17
4524.29299 1.11248e-17
4525.76021 9.12871e-18
4527.22743 1.07693e-17
4528.70483 1.28923e-17
4530.17205 1.03716e-17
4531.63926 9.62488e-18
4533.10648 1.10809e-17
4534.58388 1.17904e-17
4536.05110 1.15141e-17
4537.51832 1.19450e-17
4538.98553 1.19683e-17
4540.46294 1.16190e-17
4541.93015 1.32914e-17
4543.39737 1.31393e-17
4544.87477 1.44413e-17
4546.34199 1.67358e-17
4547.80920 1.45411e-17
4549.27642 1.27046e-17
4550.75383 1.15645e-17
4552.22104 1.08207e-17
4553.68826 1.09707e-17
4555.15547 1.10242e-17
4556.63288 1.16508e-17
4558.10009 1.12729e-17
4559.56731 1.21453e-17
4561.04472 1.20777e-17
4562.51193 1.09308e-17
4563.97915 1.16430e-17
4565.44636 1.17878e-17
4566.92377 1.10133e-17
4568.39098 1.03585e-17
4569.85820 1.02195e-17
4571.32542 1.12270e-17
4572.80282 1.17686e-17
4574.27004 1.23496e-17
4575.73725 1.14738e-17
4577.21466 1.06595e-17
4578.68187 1.12176e-17
4580.14909 1.21469e-17
4581.61631 1.18477e-17
4583.09371 1.25809e-17
4584.56093 1.29207e-17
4586.02814 1.24362e-17
4587.49536 1.30843e-17
4588.97277 1.37045e-17
4590.43998 1.30802e-17
4591.90720 1.16899e-17
4593.38460 1.11393e-17
4594.85182 1.24134e-17
4596.31903 1.31539e-17
4597.78625 1.30863e-17
4599.26365 1.28153e-17
4600.73087 1.24824e-17
4602.19809 1.34038e-17
4603.66530 1.30538e-17
4605.14271 1.25802e-17
4606.60992 1.39388e-17
4608.07714 1.33133e-17
4609.55454 1.31751e-17
4611.02176 1.41123e-17
4612.48898 1.38105e-17
4613.95619 1.31114e-17
4615.43360 1.28769e-17
4616.90081 1.44968e-17
4618.36803 1.44428e-17
4619.83525 1.38543e-17
4621.31265 1.42754e-17
4622.77987 1.48389e-17
4624.24708 1.52114e-17
4625.72449 1.53506e-17
4627.19170 1.52386e-17
4628.65892 1.44180e-17
4630.12614 1.42186e-17
4631.60354 1.36834e-17
4633.07076 1.42237e-17
4634.53797 1.50597e-17
4636.00519 1.33774e-17
4637.48259 1.29422e-17
4638.94981 1.46286e-17
4640.41703 1.46661e-17
4641.89443 1.38080e-17
4643.36165 1.35587e-17
4644.82886 1.44590e-17
4646.29608 1.43679e-17
4647.77348 1.47847e-17
4649.24070 1.46521e-17
4650.70792 1.42855e-17
4652.17513 1.60712e-17
4653.65254 1.60483e-17
4655.11975 1.51578e-17
4656.58697 1.65634e-17
4658.06437 1.71370e-17
4659.53159 1.57844e-17
4660.99881 1.49598e-17
4662.46602 1.65084e-17
4663.94343 1.74901e-17
4665.41064 1.54276e-17
4666.87786 1.28540e-17
4668.34507 1.41309e-17
4669.82248 1.53919e-17
4671.28970 1.57454e-17
4672.75691 1.60607e-17
4674.23432 1.37795e-17
4675.70153 1.49085e-17
4677.16875 1.67697e-17
4678.63597 1.59184e-17
4680.11337 1.55491e-17
4681.58059 1.54923e-17
4683.04780 1.54447e-17
4684.51502 1.56106e-17
4685.99242 1.50473e-17
4687.45964 1.50152e-17
4688.92685 1.49844e-17
4690.40426 1.55914e-17
4691.87148 1.63791e-17
4693.33869 1.56261e-17
4694.80591 1.51868e-17
4696.28331 1.52413e-17
4697.75053 1.56453e-17
4699.21774 1.64227e-17
4700.68496 1.47228e-17
4702.16237 1.38782e-17
4703.62958 1.54790e-17
4705.09680 1.54611e-17
4706.57420 1.51601e-17
4708.04142 1.45712e-17
4709.50863 1.57093e-17
4710.97585 1.52716e-17
4712.45326 1.32375e-17
4713.92047 1.53854e-17
4715.38769 1.63815e-17
4716.85490 1.51910e-17
4718.33231 1.60592e-17
4719.79952 1.59696e-17
4721.26674 1.66005e-17
4722.74415 1.58961e-17
4724.21136 1.63806e-17
4725.67858 1.76070e-17
4727.14579 1.72330e-17
4728.62320 1.56974e-17
4730.09041 1.52740e-17
4731.55763 1.61406e-17
4733.02485 1.68276e-17
4734.50225 1.81245e-17
4735.96947 1.74624e-17
4737.43668 1.56912e-17
4738.91409 1.62632e-17
4740.38130 1.61347e-17
4741.84852 1.67891e-17
4743.31574 1.65930e-17
4744.79314 1.63252e-17
4746.26036 1.62122e-17
4747.72757 1.59965e-17
4749.19479 1.60373e-17
4750.67220 1.73289e-17
4752.13941 1.73175e-17
4753.60663 1.59251e-17
4755.08403 1.59623e-17
4756.55125 1.71645e-17
4758.01846 1.75438e-17
4759.48568 1.54143e-17
4760.96308 1.54141e-17
4762.43030 1.74479e-17
4763.89752 1.61477e-17
4765.37492 1.51233e-17
4766.84214 1.51674e-17
4768.30935 1.43579e-17
4769.77657 1.26045e-17
4771.25397 1.46849e-17
4772.72119 1.71727e-17
4774.18841 1.60128e-17
4775.65562 1.50550e-17
4777.13303 1.49558e-17
4778.60024 1.68307e-17
4780.06746 1.67605e-17
4781.54486 1.53863e-17
4783.01208 1.59976e-17
4784.47930 1.59494e-17
4785.94651 1.59896e-17
4787.42392 1.59219e-17
4788.89113 1.56626e-17
4790.35835 1.58242e-17
4791.82557 1.66674e-17
4793.30297 1.63446e-17
4794.77019 1.57782e-17
4796.23740 1.58678e-17
4797.70462 1.63509e-17
4799.18202 1.68308e-17
4800.64924 1.47332e-17
4802.11646 1.39234e-17
4803.59386 1.50657e-17
4805.06108 1.45233e-17
4806.52829 1.47939e-17
4807.99551 1.49407e-17
4809.47291 1.45584e-17
4810.94013 1.57947e-17
4812.40735 1.62622e-17
4813.87456 1.44331e-17
4815.35197 1.50222e-17
4816.81918 1.53852e-17
4818.28640 1.37104e-17
4819.76380 1.38863e-17
4821.23102 1.43314e-17
4822.69824 1.43478e-17
4824.16545 1.37167e-17
4825.64286 1.43614e-17
4827.11007 1.54380e-17
4828.57729 1.49255e-17
4830.05469 1.49579e-17
4831.52191 1.64579e-17
4832.98913 1.53111e-17
4834.45634 1.22023e-17
4835.93375 1.27007e-17
4837.40096 1.37824e-17
4838.86818 1.52907e-17
4840.33540 1.46279e-17
4841.81280 1.39442e-17
4843.28002 1.40526e-17
4844.74723 1.40544e-17
4846.22464 1.39087e-17
4847.69185 1.46135e-17
4849.15907 1.45895e-17
4850.62628 1.36870e-17
4852.10369 1.30543e-17
4853.57091 1.33246e-17
4855.03812 1.35512e-17
4856.50534 1.31588e-17
4857.98274 1.22266e-17
4859.44996 1.18824e-17
4860.91717 1.26831e-17
4862.39458 1.26912e-17
4863.86180 1.26912e-17
4865.32901 1.32674e-17
4866.79623 1.30192e-17
4868.27363 1.29519e-17
4869.74085 1.33608e-17
4871.20806 1.19052e-17
4872.67528 1.24844e-17
4874.15269 1.30745e-17
4875.61990 1.23979e-17
4877.08712 1.09793e-17
4878.56452 1.18106e-17
4880.03174 1.23169e-17
4881.49895 1.07494e-17
4882.96617 1.09940e-17
4884.44358 1.18766e-17
4885.91079 1.09524e-17
4887.37801 1.03375e-17
4888.84522 1.07016e-17
4890.32263 9.84147e-18
4891.78984 9.57996e-18
4893.25706 9.92773e-18
4894.73447 1.09728e-17
4896.20168 1.07769e-17
4897.66890 9.46693e-18
4899.13611 9.91603e-18
4900.61352 9.96816e-18
4902.08073 1.03168e-17
4903.54795 9.41620e-18
4905.01517 8.95725e-18
4906.49257 9.95101e-18
4907.95979 9.80940e-18
4909.42700 8.91656e-18
4910.90441 9.23498e-18
4912.37162 8.69931e-18
4913.83884 8.89415e-18
4915.30606 1.01908e-17
4916.78346 9.98896e-18
4918.25068 9.38425e-18
4919.71789 1.01064e-17
4921.18511 1.03072e-17
4922.66251 9.22623e-18
4924.12973 9.64344e-18
4925.59695 1.07702e-17
4927.07435 1.00931e-17
4928.54157 9.92947e-18
4930.00878 9.76301e-18
4931.47600 1.01104e-17
4932.95340 1.07186e-17
4934.42062 1.06425e-17
4935.88784 9.92939e-18
4937.35505 1.01472e-17
4938.83246 9.61797e-18
4940.29967 9.42104e-18
4941.76689 9.57589e-18
4943.24429 9.79843e-18
4944.71151 1.10808e-17
4946.17873 1.13536e-17
4947.64594 1.02633e-17
4949.12335 1.10847e-17
4950.59056 1.08977e-17
4952.05778 1.01667e-17
4953.52500 1.00095e-17
4955.00240 1.06405e-17
4956.46962 1.17018e-17
4957.93683 1.05616e-17
4959.41424 1.02587e-17
4960.88145 1.11283e-17
4962.34867 1.04953e-17
4963.81589 9.87355e-18
4965.29329 9.87351e-18
4966.76051 1.09134e-17
4968.22772 1.21883e-17
4969.70513 1.05421e-17
4971.17234 8.51523e-18
4972.63956 8.71084e-18
4974.10678 9.64602e-18
4975.58418 7.78384e-18
4977.05140 7.92508e-18
4978.51861 9.49320e-18
4979.98583 8.99472e-18
4981.46323 8.87688e-18
4982.93045 9.03486e-18
4984.39767 9.64523e-18
4985.86488 9.59455e-18
4987.34229 9.80482e-18
4988.80950 1.09035e-17
4990.27672 1.05343e-17
4991.75412 9.07647e-18
4993.22134 9.62598e-18
4994.68856 9.98407e-18
4996.15577 1.03453e-17
4997.63318 9.31262e-18
4999.10039 8.73382e-18
5000.56761 1.02751e-17
5002.03482 9.50045e-18
5003.51223 1.02097e-17
5004.97945 1.09437e-17
5006.44666 9.63368e-18
5007.92407 9.98906e-18
5009.39128 1.01540e-17
5010.85850 1.03327e-17
5012.32571 1.08730e-17
5013.80312 9.14762e-18
5015.27034 9.02201e-18
5016.73755 1.08502e-17
5018.20477 1.08621e-17
5019.68217 1.14755e-17
5021.14939 1.13577e-17
5022.61660 1.01797e-17
5024.09401 1.03088e-17
5025.56123 1.13759e-17
5027.02844 1.11516e-17
5028.49566 1.12473e-17
5029.97306 1.07330e-17
5031.44028 1.09734e-17
5032.90749 1.11517e-17
5034.38490 1.13626e-17
5035.85212 1.21533e-17
5037.31933 1.20975e-17
5038.78655 1.18801e-17
5040.26395 1.28170e-17
5041.73117 1.33674e-17
5043.19838 1.21326e-17
5044.66560 1.20828e-17
5046.14301 1.34863e-17
5047.61022 1.30288e-17
5049.07744 1.22704e-17
5050.54465 1.33671e-17
5052.02206 1.42362e-17
5053.48927 1.28830e-17
5054.95649 1.21470e-17
5056.43390 1.20688e-17
5057.90111 1.34450e-17
5059.36833 1.42959e-17
5060.83554 1.41624e-17
5062.31295 1.43167e-17
5063.78017 1.36409e-17
5065.24738 1.40385e-17
5066.72479 1.41808e-17
5068.19200 1.45278e-17
5069.65922 1.37927e-17
5071.12643 1.37860e-17
5072.60384 1.41089e-17
5074.07105 1.35490e-17
5075.53827 1.35006e-17
5077.00549 1.36886e-17
5078.48289 1.48858e-17
5079.95011 1.62770e-17
5081.41732 1.63535e-17
5082.89473 1.50960e-17
5084.36194 1.50063e-17
5085.82916 1.56113e-17
5087.29638 1.51053e-17
5088.77378 1.44003e-17
5090.24100 1.42713e-17
5091.70821 1.38374e-17
5093.17543 1.37222e-17
5094.65283 1.44704e-17
5096.12005 1.44361e-17
5097.58727 1.38931e-17
5099.06467 1.38455e-17
5100.53189 1.45656e-17
5101.99910 1.44008e-17
5103.46632 1.26119e-17
5104.94372 1.32366e-17
5106.41094 1.47333e-17
5107.87816 1.32883e-17
5109.34537 1.25559e-17
5110.82278 1.29787e-17
5112.28999 1.47013e-17
5113.75721 1.54760e-17
5115.23462 1.31420e-17
5116.70183 1.23462e-17
5118.16905 1.33862e-17
5119.63626 1.36552e-17
5121.11367 1.26653e-17
5122.58088 1.23460e-17
5124.04810 1.18943e-17
5125.51532 1.19958e-17
5126.99272 1.15846e-17
5128.45994 1.01948e-17
5129.92715 1.11047e-17
5131.40456 1.18681e-17
5132.87177 1.17676e-17
5134.33899 1.18659e-17
5135.80621 1.09682e-17
5137.28361 1.03486e-17
5138.75083 1.05917e-17
5140.21804 9.83019e-18
5141.68526 1.02530e-17
5143.16266 1.12139e-17
5144.62988 9.88923e-18
5146.09710 1.05730e-17
5147.57450 1.14789e-17
5149.04172 1.05791e-17
5150.50893 1.02970e-17
5151.97615 9.95397e-18
5153.45355 1.00673e-17
5154.92077 1.03601e-17
5156.38799 9.60298e-18
5157.85520 1.00927e-17
5159.33261 1.10436e-17
5160.79982 1.13045e-17
5162.26704 1.00981e-17
5163.74444 9.50066e-18
5165.21166 9.66622e-18
5166.67888 9.66869e-18
5168.14609 9.88837e-18
5169.62350 1.06000e-17
5171.09071 1.09613e-17
5172.55793 1.03482e-17
5174.02514 1.05214e-17
5175.50255 1.07637e-17
5176.96977 1.09618e-17
5178.43698 1.07274e-17
5179.91439 1.08457e-17
5181.38160 1.08736e-17
5182.84882 1.06748e-17
5184.31603 1.11404e-17
5185.79344 1.12858e-17
5187.26066 1.07705e-17
5188.72787 1.02504e-17
5190.19509 1.11760e-17
5191.67249 1.16587e-17
5193.13971 1.12188e-17
5194.60692 1.15632e-17
5196.08433 1.14678e-17
5197.55155 1.15612e-17
5199.01876 1.11118e-17
5200.48598 1.25282e-17
5201.96338 1.27091e-17
5203.43060 1.11695e-17
5204.89782 1.13945e-17
5206.36503 1.21884e-17
5207.84244 1.28372e-17
5209.30965 1.19780e-17
5210.77687 1.10158e-17
5212.25427 1.26005e-17
5213.72149 1.32678e-17
5215.18870 1.24135e-17
5216.65592 1.24016e-17
5218.13333 1.21476e-17
5219.60054 1.28762e-17
5221.06776 1.23656e-17
5222.53497 1.17644e-17
5224.01238 1.18055e-17
5225.47959 1.29485e-17
5226.94681 1.38420e-17
5228.42422 1.32205e-17
5229.89143 1.20013e-17
5231.35865 1.18806e-17
5232.82586 1.22949e-17
5234.30327 1.29464e-17
5235.77048 1.31145e-17
5237.23770 1.31826e-17
5238.70492 1.28042e-17
5240.18232 1.28607e-17
5241.64954 1.20913e-17
5243.11675 1.19564e-17
5244.59416 1.17487e-17
5246.06137 1.21851e-17
5247.52859 1.26475e-17
5248.99581 1.25101e-17
5250.47321 1.29111e-17
5251.94043 1.38023e-17
5253.40764 1.32836e-17
5254.87486 1.29902e-17
5256.35226 1.29766e-17
5257.81948 1.18959e-17
5259.28670 1.12076e-17
5260.76410 1.22080e-17
5262.23132 1.29526e-17
5263.69853 1.29289e-17
5265.16575 1.34082e-17
5266.64315 1.21621e-17
5268.11037 1.28467e-17
5269.57759 1.31321e-17
5271.04480 1.22760e-17
5272.52221 1.23848e-17
5273.98942 1.19432e-17
5275.45664 1.17667e-17
5276.93404 1.25023e-17
5278.40126 1.22807e-17
5279.86848 1.26924e-17
5281.33569 1.39245e-17
5282.81310 1.35348e-17
5284.28031 1.24830e-17
5285.74753 1.22961e-17
5287.22493 1.17825e-17
5288.69215 1.27609e-17
5290.15937 1.22820e-17
5291.62658 1.32188e-17
5293.10399 1.15803e-17
5294.57120 1.19159e-17
5296.03842 1.20235e-17
5297.50564 1.25026e-17
5298.98304 1.31502e-17
5300.45026 1.31839e-17
5301.91747 1.38577e-17
5303.39488 1.61585e-17
5304.86209 1.45078e-17
5306.32931 1.32390e-17
5307.79653 1.31690e-17
5309.27393 1.21985e-17
5310.74115 1.26608e-17
5312.20836 1.35625e-17
5313.67558 1.21299e-17
5315.15298 1.19474e-17
5316.62020 1.40688e-17
5318.08742 1.33452e-17
5319.56482 1.30380e-17
5321.03204 1.22719e-17
5322.49925 1.13705e-17
5323.96647 1.15223e-17
5325.44387 1.20815e-17
5326.91109 1.17284e-17
5328.37831 1.32048e-17
5329.84552 1.36857e-17
5331.32293 1.32216e-17
5332.79014 1.24146e-17
5334.25736 1.27624e-17
5335.72457 1.35836e-17
5337.20198 1.31757e-17
5338.66920 1.26583e-17
5340.13641 1.34590e-17
5341.61382 1.30605e-17
5343.08103 1.36406e-17
5344.54825 1.30250e-17
5346.01546 1.23342e-17
5347.49287 1.25009e-17
5348.96009 1.36227e-17
5350.42730 1.36265e-17
5351.89452 1.32359e-17
5353.37192 1.31517e-17
5354.83914 1.28683e-17
5356.30635 1.45597e-17
5357.78376 1.45123e-17
5359.25098 1.23006e-17
5360.71819 1.29907e-17
5362.18541 1.47788e-17
5363.66281 1.41783e-17
5365.13003 1.44903e-17
5366.59724 1.45759e-17
5368.07465 1.37323e-17
5369.54187 1.35324e-17
5371.00908 1.42275e-17
5372.47630 1.35002e-17
5373.95370 1.38311e-17
5375.42092 1.40826e-17
5376.88813 1.40910e-17
5378.35535 1.40071e-17
5379.83276 1.40548e-17
5381.29997 1.37632e-17
5382.76719 1.38447e-17
5384.24459 1.34566e-17
5385.71181 1.40261e-17
5387.17902 1.35314e-17
5388.64624 1.39701e-17
5390.12365 1.37168e-17
5391.59086 1.33566e-17
5393.05808 1.42785e-17
5394.52529 1.40498e-17
5396.00270 1.36146e-17
5397.46991 1.23495e-17
5398.93713 1.38236e-17
5400.41454 1.49253e-17
5401.88175 1.51858e-17
5403.34897 1.38132e-17
5404.81618 1.47243e-17
5406.29359 1.50953e-17
5407.76080 1.44399e-17
5409.22802 1.44209e-17
5410.69524 1.50896e-17
5412.17264 1.46436e-17
5413.63986 1.41005e-17
5415.10707 1.39768e-17
5416.58448 1.43452e-17
5418.05170 1.50444e-17
5419.51891 1.41586e-17
5420.98613 1.37922e-17
5422.46353 1.38990e-17
5423.93075 1.45104e-17
5425.39796 1.39575e-17
5426.86518 1.37446e-17
5428.34258 1.38620e-17
5429.80980 1.42718e-17
5431.27702 1.43702e-17
5432.75442 1.40030e-17
5434.22164 1.38988e-17
5435.68885 1.38419e-17
5437.15607 1.40469e-17
5438.63347 1.31753e-17
5440.10069 1.44010e-17
5441.56791 1.44152e-17
5443.03512 1.39733e-17
5444.51253 1.40291e-17
5445.97974 1.43263e-17
5447.44696 1.44536e-17
5448.92436 1.44386e-17
5450.39158 1.39261e-17
5451.85880 1.34949e-17
5453.32601 1.37670e-17
5454.80342 1.45129e-17
5456.27063 1.40545e-17
5457.73785 1.38953e-17
5459.20507 1.44881e-17
5460.68247 1.33665e-17
5462.14969 1.32420e-17
5463.61690 1.39953e-17
5465.09431 1.33657e-17
5466.56152 1.39709e-17
5468.02874 1.43708e-17
5469.49596 1.40167e-17
5470.97336 1.50190e-17
5472.44058 1.47453e-17
5473.90779 1.33773e-17
5475.37501 1.30815e-17
5476.85241 1.34641e-17
5478.31963 1.34232e-17
5479.78685 1.31288e-17
5481.26425 1.30658e-17
5482.73147 1.40161e-17
5484.19868 1.42155e-17
5485.66590 1.35764e-17
5487.14330 1.35044e-17
5488.61052 1.39320e-17
5490.07774 1.40313e-17
5491.54495 1.30304e-17
5493.02236 1.35529e-17
5494.48957 1.37964e-17
5495.95679 1.37152e-17
5497.43419 1.40322e-17
5498.90141 1.33562e-17
5500.36863 1.31697e-17
5501.83584 1.40428e-17
5503.31325 1.40236e-17
5504.78046 1.31958e-17
5506.24768 1.33627e-17
5507.72508 1.36933e-17
5509.19230 1.37846e-17
5510.65952 1.33310e-17
5512.12673 1.24367e-17
5513.60414 1.22333e-17
5515.07135 1.26044e-17
5516.53857 1.25213e-17
5518.00578 1.21197e-17
5519.48319 1.25567e-17
5520.95041 1.40499e-17
5522.41762 1.33861e-17
5523.88484 1.26565e-17
5525.36224 1.30583e-17
5526.82946 1.36841e-17
5528.29667 1.35356e-17
5529.77408 1.32749e-17
5531.24130 1.29438e-17
5532.70851 1.34254e-17
5534.17573 1.29412e-17
5535.65313 1.27762e-17
5537.12035 1.21528e-17
5538.58756 1.27177e-17
5540.05478 1.27665e-17
5541.53219 1.25210e-17
5542.99940 1.17174e-17
5544.46662 1.28626e-17
5545.94402 1.37858e-17
5547.41124 1.36426e-17
5548.87845 1.28941e-17
5550.34567 1.22478e-17
5551.82308 1.23465e-17
5553.29029 1.20545e-17
5554.75751 1.24653e-17
5556.23491 1.25008e-17
5557.70213 1.30046e-17
5559.16934 1.35906e-17
5560.63656 1.34834e-17
5562.11397 1.35017e-17
5563.58118 1.35298e-17
5565.04840 1.34089e-17
5566.51561 1.37510e-17
5567.99302 1.28158e-17
5569.46023 1.35373e-17
5570.92745 1.46640e-17
5572.40486 1.44136e-17
5573.87207 1.36744e-17
5575.33929 1.25725e-17
5576.80650 1.31266e-17
5578.28391 1.47306e-17
5579.75112 1.52802e-17
5581.21834 1.43385e-17
5582.68556 1.30365e-17
5584.16296 1.34696e-17
5585.63018 1.34990e-17
5587.09739 1.33521e-17
5588.56461 1.34943e-17
5590.04201 1.32770e-17
5591.50923 1.39806e-17
5592.97645 1.42099e-17
5594.45385 1.35360e-17
5595.92107 1.30952e-17
5597.38828 1.42958e-17
5598.85550 1.44259e-17
5600.33290 1.43395e-17
5601.80012 1.29151e-17
5603.26734 1.31706e-17
5604.74474 1.37184e-17
5606.21196 1.40673e-17
5607.67917 1.33204e-17
5609.14639 1.26856e-17
5610.62379 1.32923e-17
5612.09101 1.42217e-17
5613.55823 1.37566e-17
5615.02544 1.25434e-17
5616.50285 1.30362e-17
5617.97006 1.35378e-17
5619.43728 1.29403e-17
5620.91468 1.24704e-17
5622.38190 1.39137e-17
5623.84912 1.46175e-17
5625.31633 1.36724e-17
5626.79374 1.33695e-17
5628.26095 1.30332e-17
5629.72817 1.39486e-17
5631.19539 1.42988e-17
5632.67279 1.37166e-17
5634.14001 1.32898e-17
5635.60722 1.33453e-17
5637.08463 1.30268e-17
5638.55184 1.36453e-17
5640.01906 1.37711e-17
5641.48628 1.40616e-17
5642.96368 1.35226e-17
5644.43090 1.29996e-17
5645.89811 1.40771e-17
5647.36533 1.31696e-17
5648.84273 1.24219e-17
5650.30995 1.31668e-17
5651.77717 1.34069e-17
5653.25457 1.28448e-17
5654.72179 1.29847e-17
5656.18900 1.24493e-17
5657.65622 1.15938e-17
5659.13362 1.21662e-17
5660.60084 1.25620e-17
5662.06806 1.22774e-17
5663.53527 1.19060e-17
5665.01268 1.21371e-17
5666.47989 1.18559e-17
5667.94711 1.31284e-17
5669.42451 1.28128e-17
5670.89173 1.27511e-17
5672.35895 1.22403e-17
5673.82616 1.26777e-17
5675.30357 1.28578e-17
5676.77078 1.21776e-17
5678.23800 1.28251e-17
5679.70521 1.27461e-17
5681.18262 1.14171e-17
5682.64984 1.23703e-17
5684.11705 1.31471e-17
5685.59446 1.17382e-17
5687.06167 1.16862e-17
5688.52889 1.20768e-17
5689.99610 1.25934e-17
5691.47351 1.28814e-17
5692.94073 1.24411e-17
5694.40794 1.15431e-17
5695.87516 1.13990e-17
5697.35256 1.20521e-17
5698.81978 1.27733e-17
5700.28699 1.33505e-17
5701.76440 1.25096e-17
5703.23162 1.15908e-17
5704.69883 1.14689e-17
5706.16605 1.15801e-17
5707.64345 1.12933e-17
5709.11067 1.09521e-17
5710.57788 1.18680e-17
5712.04510 1.15020e-17
5713.52251 1.15117e-17
5714.98972 1.20951e-17
5716.45694 1.15421e-17
5717.93434 1.14614e-17
5719.40156 1.12797e-17
5720.86877 1.16811e-17
5722.33599 1.33253e-17
5723.81340 1.27998e-17
5725.28061 1.17091e-17
5726.74783 1.23203e-17
5728.21504 1.23077e-17
5729.69245 1.15055e-17
5731.15967 1.11904e-17
5732.62688 1.19700e-17
5734.10429 1.23718e-17
5735.57150 1.17869e-17
5737.03872 1.16963e-17
5738.50593 1.22084e-17
5739.98334 1.24642e-17
5741.45055 1.26038e-17
5742.91777 1.23134e-17
5744.38499 1.18206e-17
5745.86239 1.16975e-17
5747.32961 1.20537e-17
5748.79682 1.19938e-17
5750.27423 1.14692e-17
5751.74144 1.18372e-17
5753.20866 1.13420e-17
5754.67588 1.17411e-17
5756.15328 1.20468e-17
5757.62050 1.08215e-17
5759.08771 1.07511e-17
5760.55493 1.12825e-17
5762.03233 1.09653e-17
5763.49955 1.18838e-17
5764.96677 1.18783e-17
5766.44417 1.14710e-17
5767.91139 1.06913e-17
5769.37860 1.08100e-17
5770.84582 1.13144e-17
5772.32322 1.09029e-17
5773.79044 1.09420e-17
5775.25766 1.06218e-17
5776.72487 1.01494e-17
5778.20228 1.11431e-17
5779.66949 1.01902e-17
5781.13671 1.02123e-17
5782.61412 1.08897e-17
5784.08133 1.10727e-17
5785.54855 1.19568e-17
5787.01576 1.02278e-17
5788.49317 1.05568e-17
5789.96038 1.02995e-17
5791.42760 8.94964e-18
5792.89482 9.34289e-18
5794.37222 9.67529e-18
5795.83944 9.46355e-18
5797.30665 9.46953e-18
5798.78406 1.02239e-17
5800.25127 1.00415e-17
5801.71849 9.17898e-18
5803.18571 8.85019e-18
5804.66311 8.50999e-18
5806.13033 7.43356e-18
5807.59754 8.31468e-18
5809.06476 8.30086e-18
5810.54216 7.32459e-18
5812.00938 7.73698e-18
5813.47660 7.16320e-18
5814.95400 7.56763e-18
5816.42122 6.83335e-18
5817.88843 7.32036e-18
5819.35565 7.74905e-18
5820.83305 7.01338e-18
5822.30027 7.72772e-18
5823.76749 6.87176e-18
5825.24489 6.66194e-18
5826.71211 6.49971e-18
5828.17932 5.73600e-18
5829.64654 6.40451e-18
5831.12394 5.98131e-18
5832.59116 6.90489e-18
5834.05838 6.42617e-18
5835.52559 6.94735e-18
5837.00300 7.37742e-18
5838.47021 7.69787e-18
5839.93743 6.35827e-18
5841.41483 6.41647e-18
5842.88205 6.79756e-18
5844.34927 6.66615e-18
5845.81648 7.28873e-18
5847.29389 7.81990e-18
5848.76110 7.68466e-18
5850.22832 6.35739e-18
5851.69553 7.16227e-18
5853.17294 7.35686e-18
5854.64016 7.55210e-18
5856.10737 7.20333e-18
5857.58478 7.58237e-18
5859.05199 6.60436e-18
5860.51921 6.83470e-18
5861.98642 7.74241e-18
5863.46383 8.32540e-18
5864.93105 8.10507e-18
5866.39826 8.45222e-18
5867.86548 8.12411e-18
5869.34288 7.35724e-18
5870.81010 8.75431e-18
5872.27732 9.00198e-18
5873.74453 8.76103e-18
5875.22194 9.55001e-18
5876.68915 9.21620e-18
5878.15637 8.76237e-18
5879.63377 9.36259e-18
5881.10099 9.02416e-18
5882.56820 9.51510e-18
5884.03542 1.02216e-17
5885.51283 9.71342e-18
5886.98004 9.26285e-18
5888.44726 9.35763e-18
5889.92466 1.00698e-17
5891.39188 1.06643e-17
5892.85909 1.08993e-17
5894.32631 1.08406e-17
5895.80372 1.04086e-17
5897.27093 9.93725e-18
5898.73815 1.02919e-17
5900.20536 1.07319e-17
5901.68277 1.08585e-17
5903.14998 1.10530e-17
5904.61720 1.11137e-17
5906.09461 1.22747e-17
5907.56182 1.20779e-17
5909.02904 1.13546e-17
5910.49625 1.26556e-17
5911.97366 1.26585e-17
5913.44087 1.21884e-17
5914.90809 1.23361e-17
5916.37531 1.30866e-17
5917.85271 1.32338e-17
5919.31993 1.34123e-17
5920.78714 1.41386e-17
5922.26455 1.44731e-17
5923.73176 1.29740e-17
5925.19898 1.27622e-17
5926.66620 1.34553e-17
5928.14360 1.31872e-17
5929.61082 1.31636e-17
5931.07803 1.34074e-17
5932.54525 1.41095e-17
5934.02265 1.45548e-17
5935.48987 1.45932e-17
5936.95709 1.42718e-17
5938.43449 1.44492e-17
5939.90171 1.41650e-17
5941.36892 1.42737e-17
5942.83614 1.43631e-17
5944.31354 1.40130e-17
5945.78076 1.45721e-17
5947.24798 1.53662e-17
5948.71519 1.50697e-17
5950.19260 1.39775e-17
5951.65981 1.41533e-17
5953.12703 1.40711e-17
5954.60443 1.39027e-17
5956.07165 1.44062e-17
5957.53887 1.53757e-17
5959.00608 1.50301e-17
5960.48349 1.49754e-17
5961.95070 1.61899e-17
5963.41792 1.64474e-17
5964.88514 1.64088e-17
5966.36254 1.53168e-17
5967.82976 1.52024e-17
5969.29697 1.54717e-17
5970.77438 1.55249e-17
5972.24159 1.64112e-17
5973.70881 1.60090e-17
5975.17603 1.54639e-17
5976.65343 1.54163e-17
5978.12065 1.54575e-17
5979.58786 1.48517e-17
5981.05508 1.41977e-17
5982.53248 1.44495e-17
5983.99970 1.43519e-17
5985.46692 1.52925e-17
5986.94432 1.52873e-17
5988.41154 1.37005e-17
5989.87875 1.46840e-17
5991.34597 1.39702e-17
5992.82337 1.42775e-17
5994.29059 1.47863e-17
5995.75781 1.42467e-17
5997.22502 1.38189e-17
5998.70243 1.25772e-17
6000.16964 1.28333e-17
6001.63686 1.30498e-17
6003.11426 1.31967e-17
6004.58148 1.33949e-17
6006.04870 1.42252e-17
6007.51591 1.38141e-17
6008.99332 1.40297e-17
6010.46053 1.40440e-17
6011.92775 1.41622e-17
6013.39496 1.37465e-17
6014.87237 1.33319e-17
6016.33959 1.33265e-17
6017.80680 1.38919e-17
6019.28421 1.31410e-17
6020.75142 1.47280e-17
6022.21864 1.43398e-17
6023.68585 1.50784e-17
6025.16326 1.48359e-17
6026.63048 1.41120e-17
6028.09769 1.33397e-17
6029.56491 1.25386e-17
6031.04231 1.33297e-17
6032.50953 1.34658e-17
6033.97674 1.45937e-17
6035.45415 1.32578e-17
6036.92137 1.39122e-17
6038.38858 1.44325e-17
6039.85580 1.42162e-17
6041.33320 1.33671e-17
6042.80042 1.35544e-17
6044.26763 1.21352e-17
6045.74504 1.33637e-17
6047.21226 1.40613e-17
6048.67947 1.37681e-17
6050.14669 1.32832e-17
6051.62409 1.24317e-17
6053.09131 1.34760e-17
6054.55852 1.35681e-17
6056.02574 1.34071e-17
6057.50315 1.29820e-17
6058.97036 1.35192e-17
6060.43758 1.32790e-17
6061.90479 1.35099e-17
6063.38220 1.29654e-17
6064.84941 1.27462e-17
6066.31663 1.27356e-17
6067.79404 1.22368e-17
6069.26125 1.19512e-17
6070.72847 1.36222e-17
6072.19568 1.41646e-17
6073.67309 1.29039e-17
6075.14030 1.21514e-17
6076.60752 1.27224e-17
6078.07474 1.40337e-17
6079.55214 1.36925e-17
6081.01936 1.30070e-17
6082.48657 1.32350e-17
6083.96398 1.33335e-17
6085.43120 1.32255e-17
6086.89841 1.30438e-17
6088.36563 1.26230e-17
6089.84303 1.19794e-17
6091.31025 1.22832e-17
6092.77746 1.39084e-17
6094.25487 1.29514e-17
6095.72208 1.24016e-17
6097.18930 1.23542e-17
6098.65652 1.21342e-17
6100.13392 1.26922e-17
6101.60114 1.34551e-17
6103.06835 1.30175e-17
6104.53557 1.20779e-17
6106.01297 1.24315e-17
6107.48019 1.14438e-17
6108.94741 1.10410e-17
6110.42481 1.16493e-17
6111.89203 1.19240e-17
6113.35924 1.19721e-17
6114.82646 1.15335e-17
6116.30386 1.21050e-17
6117.77108 1.24194e-17
6119.23830 1.23742e-17
6120.70551 1.24725e-17
6122.18292 1.27573e-17
6123.65013 1.20399e-17
6125.11735 1.19898e-17
6126.58457 1.16070e-17
6128.06197 1.07947e-17
6129.52919 1.18186e-17
6130.99640 1.20276e-17
6132.47381 1.14659e-17
6133.94102 1.15756e-17
6135.40824 1.11666e-17
6136.87546 1.11979e-17
6138.35286 1.14576e-17
6139.82008 1.10203e-17
6141.28729 1.14698e-17
6142.75451 1.20431e-17
6144.23191 1.17596e-17
6145.69913 1.14333e-17
6147.16635 1.17947e-17
6148.64375 1.22259e-17
6150.11097 1.05614e-17
6151.57818 1.01218e-17
6153.04540 1.11012e-17
6154.52280 1.07180e-17
6155.99002 1.07281e-17
6157.45724 1.07999e-17
6158.93464 1.11719e-17
6160.40186 1.14678e-17
6161.86907 1.13689e-17
6163.33629 1.06084e-17
6164.81369 1.00034e-17
6166.28091 1.01888e-17
6167.74813 1.09274e-17
6169.21534 1.10969e-17
6170.69275 1.04220e-17
6172.15996 1.01367e-17
6173.62718 1.14356e-17
6175.10458 1.03088e-17
6176.57180 1.06129e-17
6178.03902 1.13947e-17
6179.50623 1.05621e-17
6180.98364 1.08604e-17
6182.45085 1.07741e-17
6183.91807 1.04026e-17
6185.38528 1.11505e-17
6186.86269 1.16280e-17
6188.32991 1.03195e-17
6189.79712 1.03750e-17
6191.27453 1.06768e-17
6192.74174 1.04257e-17
6194.20896 1.01388e-17
6195.67617 1.07353e-17
6197.15358 1.10055e-17
6198.62080 1.08175e-17
6200.08801 1.08593e-17
6201.55523 1.06816e-17
6203.03263 1.01707e-17
6204.49985 1.08470e-17
6205.96706 1.13856e-17
6207.44447 1.19100e-17
6208.91169 1.16213e-17
6210.37890 1.20908e-17
6211.84612 1.05551e-17
6213.32352 1.00344e-17
6214.79074 1.12764e-17
6216.25795 1.10752e-17
6217.72517 1.09901e-17
6219.20258 1.02224e-17
6220.66979 1.04148e-17
6222.13701 1.06344e-17
6223.61441 1.10493e-17
6225.08163 1.12490e-17
6226.54884 1.16250e-17
6228.01606 1.09236e-17
6229.49347 1.15107e-17
6230.96068 1.10358e-17
6232.42790 1.04683e-17
6233.89511 1.21352e-17
6235.37252 1.11982e-17
6236.83973 1.12412e-17
6238.30695 1.15133e-17
6239.78436 1.08153e-17
6241.25157 1.04787e-17
6242.71879 1.08084e-17
6244.18600 1.02460e-17
6245.66341 1.08744e-17
6247.13062 1.11244e-17
6248.59784 1.10953e-17
6250.06506 1.05468e-17
6251.54246 1.00919e-17
6253.00968 1.02972e-17
6254.47689 9.48145e-18
6255.95430 1.02635e-17
6257.42151 9.74167e-18
6258.88873 1.02650e-17
6260.35595 1.07948e-17
6261.83335 1.08418e-17
6263.30057 1.06134e-17
6264.76778 1.09750e-17
6266.23500 1.09351e-17
6267.71240 9.48796e-18
6269.17962 1.05924e-17
6270.64684 1.03716e-17
6272.12424 1.06668e-17
6273.59146 1.05307e-17
6275.05867 1.11832e-17
6276.52589 1.09846e-17
6278.00329 9.60094e-18
6279.47051 1.07493e-17
6280.93773 1.06689e-17
6282.41513 1.04213e-17
6283.88235 1.11647e-17
6285.34956 1.10495e-17
6286.81678 1.03069e-17
6288.29418 9.57134e-18
6289.76140 1.00376e-17
6291.22862 1.13082e-17
6292.69583 1.08180e-17
6294.17324 1.08348e-17
6295.64045 1.16561e-17
6297.10767 1.12591e-17
6298.57489 1.00201e-17
6300.05229 1.03930e-17
6301.51951 1.09145e-17
6302.98672 1.13706e-17
6304.46413 1.09675e-17
6305.93134 1.00945e-17
6307.39856 1.06831e-17
6308.86578 1.11470e-17
6310.34318 1.11647e-17
6311.81040 1.05938e-17
6313.27761 1.07098e-17
6314.74483 1.03513e-17
6316.22223 9.84840e-18
6317.68945 9.10375e-18
6319.15667 9.49458e-18
6320.63407 9.79585e-18
6322.10129 1.03370e-17
6323.56850 1.05816e-17
6325.03572 1.02130e-17
6326.51312 1.09348e-17
6327.98034 1.08036e-17
6329.44756 1.07376e-17
6330.91477 1.09648e-17
6332.39218 9.68403e-18
6333.85939 9.81258e-18
6335.32661 1.01438e-17
6336.80401 9.78171e-18
6338.27123 1.08846e-17
6339.73845 1.05863e-17
6341.20566 9.90630e-18
6342.68307 1.00302e-17
6344.15028 1.02473e-17
6345.61750 1.07104e-17
6347.08471 9.96317e-18
6348.56212 9.70404e-18
6350.02934 9.89951e-18
6351.49655 9.92209e-18
6352.97396 9.61642e-18
6354.44117 8.43699e-18
6355.90839 8.88414e-18
6357.37560 9.72265e-18
6358.85301 9.25992e-18
6360.32023 9.36010e-18
6361.78744 9.47559e-18
6363.25466 8.90350e-18
6364.73206 8.70864e-18
6366.19928 9.05941e-18
6367.66649 8.85620e-18
6369.14390 8.54287e-18
6370.61112 9.24567e-18
6372.07833 8.49031e-18
6373.54555 8.58496e-18
6375.02295 9.33852e-18
6376.49017 9.37522e-18
6377.95738 8.95657e-18
6379.43479 8.76707e-18
6380.90201 8.38434e-18
6382.36922 8.88508e-18
6383.83644 9.63412e-18
6385.31384 9.28973e-18
6386.78106 9.41162e-18
6388.24827 8.99345e-18
6389.71549 8.81395e-18
6391.19290 8.88939e-18
6392.66011 7.74722e-18
6394.12733 8.34015e-18
6395.60473 8.76652e-18
6397.07195 8.57460e-18
6398.53917 8.98993e-18
6400.00638 9.68583e-18
6401.48379 9.07510e-18
6402.95100 8.37020e-18
6404.41822 9.36238e-18
6405.88543 9.16931e-18
6407.36284 9.06262e-18
6408.83005 9.24317e-18
6410.29727 9.23328e-18
6411.76449 9.26134e-18
6413.24189 9.27107e-18
6414.70911 9.03053e-18
6416.17632 9.46900e-18
6417.65373 9.67241e-18
6419.12094 9.70986e-18
6420.58816 8.90269e-18
6422.05538 8.76531e-18
6423.53278 9.48346e-18
6425.00000 9.27915e-18
6426.46721 8.99657e-18
6427.94462 8.48321e-18
6429.41183 8.43677e-18
6430.87905 8.01356e-18
6432.34627 8.99710e-18
6433.82367 9.57879e-18
6435.29089 9.03995e-18
6436.75810 1.01506e-17
6438.22532 8.77074e-18
6439.70272 9.37838e-18
6441.16994 9.47031e-18
6442.63716 9.04907e-18
6444.11456 8.97862e-18
6445.58178 1.03916e-17
6447.04899 1.00360e-17
6448.51621 9.39140e-18
6449.99361 9.28679e-18
6451.46083 9.16736e-18
6452.92805 9.14940e-18
6454.39526 8.65110e-18
6455.87267 8.96677e-18
6457.33988 1.01428e-17
6458.80710 1.04671e-17
6460.28450 9.72473e-18
6461.75172 9.39937e-18
6463.21894 8.90123e-18
6464.68615 8.84778e-18
6466.16356 8.68942e-18
6467.63077 8.73968e-18
6469.09799 8.76314e-18
6470.56521 8.80049e-18
6472.04261 8.86211e-18
6473.50983 9.41695e-18
6474.97704 8.85466e-18
6476.45445 9.58216e-18
6477.92166 1.01526e-17
6479.38888 1.00423e-17
6480.85610 9.22001e-18
6482.33350 7.84639e-18
6483.80072 9.07936e-18
6485.26793 8.47567e-18
6486.73515 9.02915e-18
6488.21255 1.00224e-17
6489.67977 9.64905e-18
6491.14699 9.54831e-18
6492.62439 9.60236e-18
6494.09161 8.61818e-18
6495.55882 9.44723e-18
6497.02604 1.00000e-17
6498.50344 1.01023e-17
6499.97066 1.03863e-17
6501.43788 9.50032e-18
6502.90509 1.05522e-17
6504.38250 1.03687e-17
6505.84971 9.47859e-18
6507.31693 8.95283e-18
6508.79433 9.47053e-18
6510.26155 9.77929e-18
6511.72877 9.32737e-18
6513.19598 9.97917e-18
6514.67339 9.95254e-18
6516.14060 9.46572e-18
6517.60782 9.26011e-18
6519.07503 1.02407e-17
6520.55244 1.13861e-17
6522.01966 1.00454e-17
6523.48687 9.08521e-18
6524.96428 9.77802e-18
6526.43149 1.05143e-17
6527.89871 1.12652e-17
6529.36592 1.01958e-17
6530.84333 9.29714e-18
6532.31055 1.00440e-17
6533.77776 9.67614e-18
6535.24498 1.00855e-17
6536.72238 1.06408e-17
6538.18960 1.00972e-17
6539.65682 9.67796e-18
6541.13422 9.91650e-18
6542.60144 1.02661e-17
6544.06865 9.82238e-18
6545.53587 9.49625e-18
6547.01327 9.42504e-18
6548.48049 9.28823e-18
6549.94770 9.17658e-18
6551.41492 9.37175e-18
6552.89233 1.04698e-17
6554.35954 1.04496e-17
6555.82676 9.23312e-18
6557.30416 9.69898e-18
6558.77138 9.88571e-18
6560.23859 9.77487e-18
6561.70581 9.72432e-18
6563.18322 9.47809e-18
6564.65043 9.17448e-18
6566.11765 9.31561e-18
6567.58486 1.02824e-17
6569.06227 1.05247e-17
6570.52948 1.01424e-17
6571.99670 9.55635e-18
6573.47411 8.82032e-18
6574.94132 9.45667e-18
6576.40854 9.46080e-18
6577.87575 9.80996e-18
6579.35316 9.53240e-18
6580.82037 1.01886e-17
6582.28759 1.02434e-17
6583.75481 8.73991e-18
6585.23221 8.31807e-18
6586.69943 9.68482e-18
6588.16664 9.82451e-18
6589.64405 9.81487e-18
6591.11126 9.12345e-18
6592.57848 8.90855e-18
6594.04570 9.27938e-18
6595.52310 9.53065e-18
6596.99032 9.48073e-18
6598.45753 9.75438e-18
6599.92475 9.37589e-18
6601.40215 9.01150e-18
6602.86937 9.67963e-18
6604.33659 8.91661e-18
6605.81399 8.38725e-18
6607.28121 8.42981e-18
6608.74842 8.65229e-18
6610.21564 9.04589e-18
6611.69304 8.34769e-18
6613.16026 8.55657e-18
6614.62748 7.66971e-18
6616.10488 8.31312e-18
6617.57210 9.32738e-18
6619.03931 8.49734e-18
6620.50653 7.91314e-18
6621.98393 7.80346e-18
6623.45115 8.06517e-18
6624.91837 8.29644e-18
6626.38558 8.29167e-18
6627.86299 7.46113e-18
6629.33020 7.04332e-18
6630.79742 7.01631e-18
6632.27482 7.08470e-18
6633.74204 7.28510e-18
6635.20926 8.05899e-18
6636.67647 7.15372e-18
6638.15388 6.44506e-18
6639.62109 7.35611e-18
6641.08831 7.14999e-18
6642.55553 6.72786e-18
6644.03293 6.73467e-18
6645.50015 6.57178e-18
6646.96736 7.07220e-18
6648.44477 6.48207e-18
6649.91198 7.23964e-18
6651.37920 7.14805e-18
6652.84642 7.36005e-18
6654.32382 6.38401e-18
6655.79104 5.81490e-18
6657.25825 6.81048e-18
6658.72547 7.24849e-18
6660.20287 7.43134e-18
6661.67009 6.84394e-18
6663.13731 6.78012e-18
6664.60452 6.51050e-18
6666.08193 6.36829e-18
6667.54914 7.16736e-18
6669.01636 8.30121e-18
6670.49376 7.18757e-18
6671.96098 6.17291e-18
6673.42820 7.20815e-18
6674.89541 7.38298e-18
6676.37282 6.62673e-18
6677.84003 7.60233e-18
6679.30725 7.91574e-18
6680.77446 7.39763e-18
6682.25187 8.07308e-18
6683.71909 8.13327e-18
6685.18630 8.36856e-18
6686.66371 8.46234e-18
6688.13092 7.26773e-18
6689.59814 7.66782e-18
6691.06535 8.94906e-18
6692.54276 8.56543e-18
6694.00998 8.37524e-18
6695.47719 8.59200e-18
6696.95460 8.51549e-18
6698.42181 8.30903e-18
6699.88903 8.24384e-18
6701.35624 8.97438e-18
6702.83365 9.14716e-18
6704.30087 8.29785e-18
6705.76808 9.55318e-18
6707.23530 9.13594e-18
6708.71270 8.35340e-18
6710.17992 9.11878e-18
6711.64713 9.53834e-18
6713.12454 8.83874e-18
6714.59176 9.80050e-18
6716.05897 1.00032e-17
6717.52619 1.03078e-17
6719.00359 1.06270e-17
6720.47081 9.67683e-18
6721.93802 9.12043e-18
6723.40524 9.51643e-18
6724.88265 9.16186e-18
6726.34986 9.99191e-18
6727.81708 1.07157e-17
6729.29448 1.07918e-17
6730.76170 1.08897e-17
6732.22891 1.11106e-17
6733.69613 1.10637e-17
6735.17354 9.91680e-18
6736.64075 9.93123e-18
6738.10797 1.05044e-17
6739.57518 1.13972e-17
6741.05259 1.17555e-17
6742.51980 1.11942e-17
6743.98702 1.08331e-17
6745.46443 1.11369e-17
6746.93164 1.06611e-17
6748.39886 1.00218e-17
6749.86607 1.04817e-17
6751.34348 1.14619e-17
6752.81069 1.12446e-17
6754.27791 1.14501e-17
6755.74513 1.14017e-17
6757.22253 1.01095e-17
6758.68975 1.07154e-17
6760.15696 1.13373e-17
6761.63437 1.09599e-17
6763.10158 1.15178e-17
6764.56880 1.20390e-17
6766.03602 1.14346e-17
6767.51342 1.10575e-17
6768.98064 1.16345e-17
6770.44785 1.17121e-17
6771.91507 1.10753e-17
6773.39247 1.15956e-17
6774.85969 1.13887e-17
6776.32691 1.14120e-17
6777.80431 1.21327e-17
6779.27153 1.15407e-17
6780.73874 1.19237e-17
6782.20596 1.10146e-17
6783.68336 1.06288e-17
6785.15058 1.14451e-17
6786.61780 1.12669e-17
6788.08501 1.11431e-17
6789.56242 1.15161e-17
6791.02963 1.22298e-17
6792.49685 1.19427e-17
6793.97425 1.14298e-17
6795.44147 1.17532e-17
6796.90869 1.19106e-17
6798.37590 1.16719e-17
6799.85331 1.20806e-17
6801.32052 1.14767e-17
6802.78774 1.08890e-17
6804.25496 1.06598e-17
6805.73236 1.11618e-17
6807.19958 1.15722e-17
6808.66679 1.10953e-17
6810.14420 1.18102e-17
6811.61141 1.19335e-17
6813.07863 1.17744e-17
6814.54585 1.13044e-17
6816.02325 1.15205e-17
6817.49047 1.10796e-17
6818.95768 1.07401e-17
6820.43509 1.13831e-17
6821.90230 1.10947e-17
6823.36952 1.13289e-17
6824.83674 1.13758e-17
6826.31414 1.05670e-17
6827.78136 9.83320e-18
6829.24857 1.10843e-17
6830.71579 1.08869e-17
6832.19319 1.08838e-17
6833.66041 1.09170e-17
6835.12763 1.11862e-17
6836.60503 1.10933e-17
6838.07225 1.19901e-17
6839.53946 1.11855e-17
6841.00668 1.05799e-17
6842.48408 1.03659e-17
6843.95130 1.04258e-17
6845.41852 1.04076e-17
6846.88573 1.03894e-17
6848.36314 1.03712e-17
6849.83035 1.03531e-17
6851.29757 1.03349e-17
6852.76478 1.03167e-17
6854.24219 1.02985e-17
6855.70941 1.02804e-17
6857.17662 1.02622e-17
6858.65403 1.02440e-17
6860.12124 1.02258e-17
6861.58846 1.02077e-17
6863.05567 1.01895e-17
6864.53308 1.01713e-17
6866.00030 1.01532e-17
6867.46751 1.01350e-17
6868.93473 1.01168e-17
6870.41213 1.00987e-17
6871.87935 1.00805e-17
6873.34656 1.00623e-17
6874.82397 1.00442e-17
6876.29119 1.00260e-17
6877.75840 1.00078e-17
6879.22562 9.98968e-18
6880.70302 9.97151e-18
6882.17024 9.95336e-18
6883.63745 9.93520e-18
6885.11486 9.91704e-18
6886.58208 9.89889e-18
6888.04929 9.88073e-18
6889.51651 9.86257e-18
6890.99391 9.84442e-18
6892.46113 9.82627e-18
6893.92834 9.80811e-18
6895.39556 9.78997e-18
6896.87297 9.77181e-18
6898.34018 9.75367e-18
6899.80740 9.73552e-18
6901.27461 9.71737e-18
6902.75202 9.69922e-18
6904.21923 9.68107e-18
6905.68645 9.66293e-18
6907.16386 9.64478e-18
6908.63107 9.62665e-18
6910.09829 9.60850e-18
6911.56550 9.59036e-18
6913.04291 9.57222e-18
6914.51012 9.55408e-18
6915.97734 9.53594e-18
6917.45475 9.51780e-18
6918.92196 9.49967e-18
6920.38918 9.48153e-18
6921.85639 9.46340e-18
6923.33380 9.44526e-18
6924.80102 9.42713e-18
6926.26823 9.40899e-18
6927.73545 9.39086e-18
6929.21285 9.37273e-18
6930.68007 9.35460e-18
6932.14728 9.33647e-18
6933.62469 9.31834e-18
6935.09190 9.30022e-18
6936.55912 9.50649e-18
6938.02634 9.90037e-18
6939.50374 9.99581e-18
6940.97096 9.18336e-18
6942.43817 8.59263e-18
6943.90539 8.57925e-18
6945.38279 8.96761e-18
6946.85001 8.89374e-18
6948.31723 8.95656e-18
6949.79463 9.63119e-18
6951.26185 9.92923e-18
6952.72906 9.59618e-18
6954.19628 9.51781e-18
6955.67368 9.45833e-18
6957.14090 8.92932e-18
6958.60812 9.50700e-18
6960.07533 9.92543e-18
6961.55274 9.83608e-18
6963.01995 8.71998e-18
6964.48717 8.94835e-18
6965.96457 8.81244e-18
6967.43179 9.04840e-18
6968.89901 8.82828e-18
6970.36622 9.25554e-18
6971.84363 8.65539e-18
6973.31084 8.35107e-18
6974.77806 8.12903e-18
6976.24528 9.62306e-18
6977.72268 9.23135e-18
6979.18990 8.21018e-18
6980.65711 9.30062e-18
6982.13452 8.46740e-18
6983.60173 7.96974e-18
6985.06895 8.93994e-18
6986.53617 8.18725e-18
6988.01357 8.16984e-18
6989.48079 8.36065e-18
6990.94800 8.42465e-18
6992.41522 8.18050e-18
6993.89262 8.53254e-18
6995.35984 8.43411e-18
6996.82706 8.40489e-18
6998.30446 8.19873e-18
6999.77168 9.04941e-18
7001.23889 8.67454e-18
7002.70611 7.92429e-18
7004.18351 7.72562e-18
7005.65073 8.12739e-18
7007.11795 8.24607e-18
7008.58516 7.55966e-18
7010.06257 7.65506e-18
7011.52978 7.49476e-18
7012.99700 7.32135e-18
7014.47440 7.83298e-18
7015.94162 7.37761e-18
7017.40884 7.23598e-18
7018.87605 6.80493e-18
7020.35346 6.75807e-18
7021.82067 7.51434e-18
7023.28789 7.11461e-18
7024.75510 7.27385e-18
7026.23251 7.79869e-18
7027.69973 7.39086e-18
7029.16694 7.33186e-18
7030.64435 7.07467e-18
7032.11156 6.37487e-18
7033.57878 5.55838e-18
7035.04599 6.48109e-18
7036.52340 8.14080e-18
7037.99062 7.39844e-18
7039.45783 7.28672e-18
7040.92505 7.68945e-18
7042.40245 7.51856e-18
7043.86967 7.76859e-18
7045.33688 7.96214e-18
7046.81429 7.13655e-18
7048.28151 7.42812e-18
7049.74872 7.90489e-18
7051.21594 7.32886e-18
7052.69334 7.00835e-18
7054.16056 7.07901e-18
7055.62777 7.26208e-18
7057.09499 7.11997e-18
7058.57240 8.13188e-18
7060.03961 7.95129e-18
7061.50683 7.14164e-18
7062.98423 7.28791e-18
7064.45145 7.14246e-18
7065.91867 7.16944e-18
7067.38588 7.44198e-18
7068.86329 8.43508e-18
7070.33050 8.30830e-18
7071.79772 7.53675e-18
7073.26493 7.72129e-18
7074.74234 7.35264e-18
7076.20955 7.67970e-18
7077.67677 8.93954e-18
7079.15418 8.28297e-18
7080.62139 7.73342e-18
7082.08861 8.31664e-18
7083.55582 8.15477e-18
7085.03323 8.11108e-18
7086.50044 8.29312e-18
7087.96766 8.29114e-18
7089.43488 8.76878e-18
7090.91228 9.08260e-18
7092.37950 8.52400e-18
7093.84671 8.11885e-18
7095.32412 8.49689e-18
7096.79133 9.28492e-18
7098.25855 8.77037e-18
7099.72577 8.46749e-18
7101.20317 8.97253e-18
7102.67039 8.85574e-18
7104.13760 9.13205e-18
7105.60482 9.53677e-18
7107.08222 9.74189e-18
7108.54944 9.27319e-18
7110.01666 9.46272e-18
7111.49406 9.61635e-18
7112.96128 8.93827e-18
7114.42849 9.62951e-18
7115.89571 9.42933e-18
7117.37311 9.03981e-18
7118.84033 9.79208e-18
7120.30755 1.05738e-17
7121.77476 1.04206e-17
7123.25217 1.00436e-17
7124.71938 1.02029e-17
7126.18660 1.00238e-17
7127.66400 9.55639e-18
7129.13122 9.98126e-18
7130.59844 1.00315e-17
7132.06565 1.07491e-17
7133.54306 1.02377e-17
7135.01027 9.65337e-18
7136.47749 9.99466e-18
7137.94471 9.79843e-18
7139.42211 1.06865e-17
7140.88933 1.09833e-17
7142.35654 1.09873e-17
7143.83395 1.05071e-17
7145.30116 1.05897e-17
7146.76838 1.01613e-17
7148.23560 9.84691e-18
7149.71300 1.05724e-17
7151.18022 1.05653e-17
7152.64743 9.34473e-18
7154.12484 1.07630e-17
7155.59205 1.12877e-17
7157.05927 1.02373e-17
7158.52649 1.01384e-17
7160.00389 1.02013e-17
7161.47111 1.08829e-17
7162.93832 1.03375e-17
7164.40554 1.02215e-17
7165.88294 1.03492e-17
7167.35016 1.02312e-17
7168.81738 1.06027e-17
7170.29478 9.41231e-18
7171.76200 9.58071e-18
7173.22921 9.72461e-18
7174.69643 9.72341e-18
7176.17383 9.87955e-18
7177.64105 1.01111e-17
7179.10827 9.83780e-18
7180.57548 9.79769e-18
7182.05289 9.53500e-18
7183.52010 9.73853e-18
7184.98732 1.07521e-17
7186.46472 1.09664e-17
7187.93194 9.80200e-18
7189.39916 9.06419e-18
7190.86637 9.85298e-18
7192.34378 1.10078e-17
7193.81099 9.46889e-18
7195.27821 9.88618e-18
7196.74542 1.04636e-17
7198.22283 1.10867e-17
7199.69005 1.05171e-17
7201.15726 1.07135e-17
7202.62448 9.52868e-18
7204.10188 8.89123e-18
7205.56910 9.90777e-18
7207.03631 9.58663e-18
7208.51372 9.22141e-18
7209.98094 9.96294e-18
7211.44815 1.00316e-17
7212.91537 9.36740e-18
7214.39277 9.99525e-18
7215.85999 9.28781e-18
7217.32720 9.43475e-18
7218.80461 9.27152e-18
7220.27183 8.92492e-18
7221.73904 8.88219e-18
7223.20626 9.66181e-18
7224.68366 9.19905e-18
7226.15088 9.19915e-18
7227.61809 9.39236e-18
7229.08531 1.00039e-17
7230.56272 1.00630e-17
7232.02993 9.33752e-18
7233.49715 9.64658e-18
7234.97455 9.65541e-18
7236.44177 9.75073e-18
7237.90898 9.00060e-18
7239.37620 9.77247e-18
7240.85361 8.68555e-18
7242.32082 9.15388e-18
7243.78804 9.59622e-18
7245.25525 9.32963e-18
7246.73266 8.95096e-18
7248.19987 8.74898e-18
7249.66709 1.00201e-17
7251.14450 9.02742e-18
7252.61171 7.81679e-18
7254.07893 8.60768e-18
7255.54614 8.69978e-18
7257.02355 9.22634e-18
7258.49076 8.93371e-18
7259.95798 7.81465e-18
7261.42520 8.06803e-18
7262.90260 8.51453e-18
7264.36982 8.25471e-18
7265.83703 7.33498e-18
7267.31444 8.62845e-18
7268.78165 8.68262e-18
7270.24887 8.18506e-18
7271.71609 8.66851e-18
7273.19349 9.23534e-18
7274.66071 9.57154e-18
7276.12792 9.73623e-18
7277.59514 7.97292e-18
7279.07254 8.20481e-18
7280.53976 9.08203e-18
7282.00698 8.63114e-18
7283.48438 7.26152e-18
7284.95160 8.17444e-18
7286.41881 8.73759e-18
7287.88603 8.79569e-18
7289.36343 8.12053e-18
7290.83065 7.91174e-18
7292.29787 8.37889e-18
7293.76508 8.35986e-18
7295.24249 8.01196e-18
7296.70970 7.90653e-18
7298.17692 8.39006e-18
7299.65432 8.91133e-18
7301.12154 8.19726e-18
7302.58876 8.37769e-18
7304.05597 8.84810e-18
7305.53338 8.32817e-18
7307.00059 9.25383e-18
7308.46781 8.69530e-18
7309.93503 8.04509e-18
7311.41243 7.77556e-18
7312.87965 8.59405e-18
7314.34686 9.02723e-18
7315.82427 7.84134e-18
7317.29148 6.93118e-18
7318.75870 7.76585e-18
7320.22592 8.19595e-18
7321.70332 8.27697e-18
7323.17054 8.85819e-18
7324.63775 8.71785e-18
7326.10497 8.72354e-18
7327.58237 9.52258e-18
7329.04959 1.02023e-17
7330.51681 9.93846e-18
7331.99421 8.48928e-18
7333.46143 8.61394e-18
7334.92864 8.28691e-18
7336.39586 9.31555e-18
7337.87326 8.06135e-18
7339.34048 8.08405e-18
7340.80770 8.06379e-18
7342.27491 8.20705e-18
7343.75232 8.07375e-18
7345.21953 7.66714e-18
7346.68675 7.80293e-18
7348.16415 8.48491e-18
7349.63137 8.96637e-18
7351.09859 8.75517e-18
7352.56580 8.88640e-18
7354.04321 8.47916e-18
7355.51042 8.86789e-18
7356.97764 1.01134e-17
7358.45504 1.00140e-17
7359.92226 8.51256e-18
7361.38948 8.04334e-18
7362.85669 8.99445e-18
7364.33410 9.50936e-18
7365.80131 8.26731e-18
7367.26853 9.51856e-18
7368.73574 1.01556e-17
7370.21315 8.49383e-18
7371.68037 8.51315e-18
7373.14758 9.56977e-18
7374.62499 8.75689e-18
7376.09220 8.86073e-18
7377.55942 9.17695e-18
7379.02663 8.86078e-18
7380.50404 8.29620e-18
7381.97126 7.99521e-18
7383.43847 8.08196e-18
7384.90569 9.09314e-18
7386.38309 9.01440e-18
7387.85031 9.11820e-18
7389.31752 8.86877e-18
7390.78474 8.79665e-18
7392.26215 8.59907e-18
7393.72936 8.71026e-18
7395.19658 9.12284e-18
7396.67398 8.18796e-18
7398.14120 9.40410e-18
7399.60841 1.00048e-17
7401.07563 1.06508e-17
7402.55304 8.67177e-18
7404.02025 8.65854e-18
7405.48747 8.71938e-18
7406.95468 9.18323e-18
7408.43209 9.36270e-18
7409.89930 8.60308e-18
7411.36652 9.14185e-18
7411.86848 9.14185e-18
7413.52607 9.30330e-18
7415.18366 9.28213e-18
7416.84125 9.26088e-18
7418.50888 8.99812e-18
7420.16647 8.73547e-18
7421.82406 8.90686e-18
7423.48165 9.07822e-18
7425.14929 9.15691e-18
7426.80688 9.23556e-18
7428.46447 9.20572e-18
7430.13211 9.17582e-18
7431.78970 8.95901e-18
7433.44729 8.74225e-18
7435.10488 8.66990e-18
7436.77251 8.59763e-18
7438.43010 8.78557e-18
7440.08769 8.97342e-18
7441.74528 8.85555e-18
7443.41292 8.73773e-18
7445.07051 8.74761e-18
7446.72810 8.75750e-18
7448.39573 8.86005e-18
7450.05332 8.96258e-18
7451.71091 8.96006e-18
7453.36850 8.95755e-18
7455.03614 8.98523e-18
7456.69373 9.01293e-18
7458.35132 9.11903e-18
7460.00891 9.22511e-18
7461.67655 9.24160e-18
7463.33414 9.25808e-18
7464.99173 9.20530e-18
7466.65936 9.15245e-18
7468.31695 8.82774e-18
7469.97454 8.50313e-18
7471.63213 8.47342e-18
7473.29977 8.44377e-18
7474.95736 8.59806e-18
7476.61495 8.75228e-18
7478.28258 8.74272e-18
7479.94017 8.73310e-18
7481.59776 8.55629e-18
7483.25535 8.37956e-18
7484.92299 8.55066e-18
7486.58058 8.72175e-18
7488.23817 8.79409e-18
7489.89576 8.86643e-18
7491.56340 8.95243e-18
7493.22099 9.03835e-18
7494.87858 8.91400e-18
7496.54621 8.78967e-18
7498.20380 8.68130e-18
7499.86139 8.57290e-18
7501.51898 8.36690e-18
7503.18662 8.16099e-18
7504.84421 8.22069e-18
7506.50180 8.28039e-18
7508.16943 8.32204e-18
7509.82702 8.36367e-18
7511.48461 8.32208e-18
7513.14220 8.28055e-18
7514.80984 8.47493e-18
7516.46743 8.66918e-18
7518.12502 8.44063e-18
7519.78261 8.21218e-18
7521.45025 8.29629e-18
7523.10784 8.38040e-18
7524.76543 8.45805e-18
7526.43306 8.53567e-18
7528.09065 8.50580e-18
7529.74824 8.47589e-18
7531.40583 8.26793e-18
7533.07347 8.06008e-18
7534.73106 8.20401e-18
7536.38865 8.34789e-18
7538.04624 8.38799e-18
7539.71387 8.42806e-18
7541.37146 8.40072e-18
7543.02905 8.37333e-18
7544.69669 8.16675e-18
7546.35428 7.96028e-18
7548.01187 8.08250e-18
7549.66946 8.20470e-18
7551.33710 8.19155e-18
7552.99469 8.17839e-18
7554.65228 8.16523e-18
7556.30987 8.15209e-18
7557.97750 8.13893e-18
7559.63509 8.12579e-18
7561.29268 8.11263e-18
7562.96032 8.09949e-18
7564.61791 8.08633e-18
7566.27550 8.07319e-18
7567.93309 8.06003e-18
7569.60072 8.04689e-18
7571.25831 8.03373e-18
7572.91590 8.02059e-18
7574.58354 8.00744e-18
7576.24113 7.99429e-18
7577.89872 7.98114e-18
7579.55631 7.96800e-18
7581.22395 7.95485e-18
7582.88154 7.94171e-18
7584.53913 7.92856e-18
7586.19672 7.91541e-18
7587.86435 7.90228e-18
7589.52194 7.88912e-18
7591.17953 7.87598e-18
7592.84717 7.86284e-18
7594.50476 7.84969e-18
7596.16235 7.83655e-18
7597.81994 7.82341e-18
7599.48757 7.81027e-18
7601.14516 7.79712e-18
7602.80275 7.78398e-18
7604.46034 7.77083e-18
7606.12798 7.75770e-18
7607.78557 7.74456e-18
7609.44316 7.73143e-18
7611.11080 7.71828e-18
7612.76839 7.70514e-18
7614.42598 7.69200e-18
7616.08357 7.67886e-18
7617.75120 7.66573e-18
7619.40879 7.65258e-18
7621.06638 7.63945e-18
7622.72397 7.62631e-18
7624.39161 7.61318e-18
7626.04920 7.60003e-18
7627.70679 7.58690e-18
7629.37442 7.57377e-18
7631.03201 7.56064e-18
7632.68960 7.54749e-18
7634.34719 7.53437e-18
7636.01483 7.52123e-18
7637.67242 7.50809e-18
7639.33001 7.49496e-18
7640.99765 7.48183e-18
7642.65524 7.46870e-18
7644.31283 7.45557e-18
7645.97042 7.44243e-18
7647.63805 7.42930e-18
7649.29564 7.41617e-18
7650.95323 7.40304e-18
7652.61082 7.38991e-18
7654.27846 7.37677e-18
7655.93605 7.36365e-18
7657.59364 7.35052e-18
7659.26127 7.33739e-18
7660.91886 7.32427e-18
7662.57645 7.31114e-18
7664.23404 7.29801e-18
7665.90168 7.28489e-18
7667.55927 7.27175e-18
7669.21686 7.25862e-18
7670.87445 7.24550e-18
7672.54209 7.23238e-18
7674.19968 7.21925e-18
7675.85727 7.20613e-18
7677.52490 7.19301e-18
7679.18249 7.17988e-18
7680.84008 7.16676e-18
7682.49767 7.00603e-18
7684.16531 6.98953e-18
7685.82290 6.97314e-18
7687.48049 7.32397e-18
7689.13808 7.67464e-18
7690.80571 7.53657e-18
7692.46330 7.39855e-18
7694.12089 7.41992e-18
7695.78853 7.44125e-18
7697.44612 7.36222e-18
7699.10371 7.28328e-18
7700.76130 7.52098e-18
7702.42894 7.75853e-18
7704.08653 7.47270e-18
7705.74412 7.18701e-18
7707.40171 7.37132e-18
7709.06934 7.55556e-18
7710.72693 7.52547e-18
7712.38452 7.49543e-18
7714.05216 7.60228e-18
7715.70975 7.70906e-18
7717.36734 7.54727e-18
7719.02493 7.38557e-18
7720.69256 7.51226e-18
7722.35015 7.63884e-18
7724.00774 7.43725e-18
7725.67538 7.23567e-18
7727.33297 7.07821e-18
7728.99056 6.92085e-18
7730.64815 7.13520e-18
7732.31579 7.34950e-18
7733.97338 7.41168e-18
7735.63097 7.47380e-18
7737.28856 7.37315e-18
7738.95619 7.27253e-18
7740.61378 7.34008e-18
7742.27137 7.40761e-18
7743.93901 7.43186e-18
7745.59660 7.45615e-18
7747.25419 7.62453e-18
7748.91178 7.79276e-18
7750.57941 7.51040e-18
7752.23700 7.22809e-18
7753.89459 7.12810e-18
7755.55218 7.02822e-18
7757.21982 7.20046e-18
7758.87741 7.37277e-18
7760.53500 7.77076e-18
7762.20264 8.16857e-18
7763.86023 8.00865e-18
7765.51782 7.84879e-18
7767.17541 7.88246e-18
7768.84304 7.91610e-18
7770.50063 7.87476e-18
7772.15822 7.83340e-18
7773.81581 7.76858e-18
7775.48345 7.70375e-18
7777.14104 7.62047e-18
7778.79863 7.53726e-18
7780.46626 7.65593e-18
7782.12385 7.77453e-18
7783.78144 7.61848e-18
7785.43903 7.46255e-18
7787.10667 7.66191e-18
7788.76426 7.86122e-18
7790.42185 7.98729e-18
7792.07944 8.11329e-18
7793.74708 8.03405e-18
7795.40467 7.95485e-18
7797.06226 8.00549e-18
7798.72989 8.05615e-18
7800.38748 8.10578e-18
7802.04507 8.15536e-18
7803.70266 8.08902e-18
7805.37030 8.02272e-18
7807.02789 8.06249e-18
7808.68548 8.10221e-18
7810.35311 7.99091e-18
7812.01070 7.87975e-18
7813.66829 8.20672e-18
7815.32588 8.53353e-18
7816.99352 8.33726e-18
7818.65111 8.14105e-18
7820.30870 8.08134e-18
7821.96629 8.02161e-18
7823.63393 7.83961e-18
7825.29152 7.65767e-18
7826.94911 7.65995e-18
7828.61674 7.66221e-18
7830.27433 7.61856e-18
7831.93192 7.57495e-18
7833.58951 7.70379e-18
7835.25715 7.83264e-18
7836.91474 7.99248e-18
7838.57233 8.15217e-18
7840.22992 7.82733e-18
7841.89755 7.50264e-18
7843.55514 7.65389e-18
7845.21273 7.80507e-18
7846.88037 7.78750e-18
7848.53796 7.76996e-18
7850.19555 7.94212e-18
7851.85314 8.11435e-18
7853.52078 8.54779e-18
7855.17837 8.98103e-18
7856.83596 8.72940e-18
7858.50359 8.47780e-18
7860.16118 8.27073e-18
7861.81877 8.06380e-18
7863.47636 8.30935e-18
7865.14400 8.55475e-18
7866.80159 8.35927e-18
7868.45918 8.16388e-18
7870.11677 8.26721e-18
7871.78440 8.37045e-18
7873.44199 8.22999e-18
7875.09958 8.08957e-18
7876.76722 8.08386e-18
7878.42481 8.07819e-18
7880.08240 8.18776e-18
7881.73999 8.29725e-18
7883.40763 8.12851e-18
7885.06522 7.95993e-18
7886.72281 8.26026e-18
7888.38040 8.56047e-18
7890.04803 8.46557e-18
7891.70562 8.37061e-18
7893.36321 8.09569e-18
7895.03085 7.82085e-18
7896.68844 7.76712e-18
7898.34603 7.71339e-18
7900.00362 7.68021e-18
7901.67125 7.64711e-18
7903.32884 7.83615e-18
7904.98643 8.02514e-18
7906.64402 8.02716e-18
7908.31166 8.02915e-18
7909.96925 7.93576e-18
7911.62684 7.84234e-18
7913.29448 7.63349e-18
7914.95207 7.42480e-18
7916.60966 7.69663e-18
7918.26725 7.96833e-18
7919.93488 7.82049e-18
7921.59247 7.67279e-18
7923.25006 7.91784e-18
7924.90765 8.16281e-18
7926.57529 8.14457e-18
7928.23288 8.12626e-18
7929.89047 7.91682e-18
7931.55810 7.70740e-18
7933.21569 7.59385e-18
7934.87328 7.48037e-18
7936.53087 7.60164e-18
7938.19851 7.72281e-18
7939.85610 7.54945e-18
7941.51369 7.37618e-18
7943.18133 7.48149e-18
7944.83892 7.58688e-18
7946.49651 7.92657e-18
7948.15410 8.26607e-18
7949.82173 7.99998e-18
7951.47932 7.73388e-18
7953.13691 7.44123e-18
7954.79450 7.14878e-18
7956.46214 7.44520e-18
7958.11973 7.74141e-18
7959.77732 7.39417e-18
7961.44495 7.04711e-18
7963.10254 7.28396e-18
7964.76013 7.52073e-18
7966.41772 7.47936e-18
7968.08536 7.43800e-18
7969.74295 7.46242e-18
7971.40054 7.48685e-18
7973.05813 7.57457e-18
7974.72577 7.66220e-18
7976.38336 7.42893e-18
7978.04095 7.19570e-18
7979.70858 7.08111e-18
7981.36617 6.96666e-18
7983.02376 7.23530e-18
7984.68135 7.50387e-18
7986.34899 7.58414e-18
7988.00658 7.66432e-18
7989.66417 7.52917e-18
7991.33180 7.39411e-18
7992.98939 7.53199e-18
7994.64698 7.66970e-18
7996.30457 7.32900e-18
7997.97221 6.98852e-18
7999.62980 7.24768e-18
8001.28739 7.50668e-18
8002.94498 7.31362e-18
8004.61262 7.12062e-18
8006.27021 7.05709e-18
8007.92780 6.99369e-18
8009.59543 7.31266e-18
8011.25302 7.63142e-18
8012.91061 7.36710e-18
8014.56820 7.10288e-18
8016.23584 7.12929e-18
8017.89343 7.15572e-18
8019.55102 7.27359e-18
8021.20861 7.39143e-18
8022.87624 7.39770e-18
8024.53383 7.40389e-18
8026.19142 7.23219e-18
8027.85906 7.06051e-18
8029.51665 6.99345e-18
8031.17424 6.92638e-18
8032.83183 6.79918e-18
8034.49947 6.67210e-18
8036.15706 6.89420e-18
8037.81465 7.11621e-18
8039.47224 7.11485e-18
8041.13987 7.11346e-18
8042.79746 7.02688e-18
8044.45505 6.94031e-18
8046.12269 6.84518e-18
8047.78028 6.75011e-18
8049.43787 6.90879e-18
8051.09546 7.06740e-18
8052.76309 7.01901e-18
8054.42068 6.97058e-18
8056.07827 6.81039e-18
8057.73586 6.65029e-18
8059.40350 6.74451e-18
8061.06109 6.83872e-18
8062.71868 6.86800e-18
8064.38632 6.89719e-18
8066.04391 6.71545e-18
8067.70150 6.53375e-18
8069.35909 6.47319e-18
8071.02672 6.41269e-18
8072.68431 6.51911e-18
8074.34190 6.62554e-18
8076.00954 6.72999e-18
8077.66713 6.83440e-18
8079.32472 6.82040e-18
8080.98231 6.80631e-18
8082.64994 6.56536e-18
8084.30753 6.32443e-18
8085.96512 6.20643e-18
8087.62271 6.08847e-18
8089.29035 6.16047e-18
8090.94794 6.23248e-18
8092.60553 6.31179e-18
8094.27317 6.39108e-18
8095.93076 6.39524e-18
8097.58835 6.39940e-18
8099.24594 6.39359e-18
8100.91357 6.38779e-18
8102.57116 6.43898e-18
8104.22875 6.49011e-18
8105.88634 6.37729e-18
8107.55398 6.26454e-18
8109.21157 6.36113e-18
8110.86916 6.45760e-18
8112.53679 6.21940e-18
8114.19438 5.98136e-18
8115.85197 6.18273e-18
8117.50956 6.38412e-18
8119.17720 6.63543e-18
8120.83479 6.88657e-18
8122.49238 6.65761e-18
8124.16002 6.42864e-18
8125.81761 6.09782e-18
8127.47520 5.76714e-18
8129.13279 5.85061e-18
8130.80042 5.93410e-18
8132.45801 6.12449e-18
8134.11560 6.31482e-18
8135.77319 6.34049e-18
8137.44083 6.36615e-18
8139.09842 6.40387e-18
8140.75601 6.44155e-18
8142.41360 6.37400e-18
8144.08123 6.30642e-18
8145.73882 6.08085e-18
8147.39641 5.85544e-18
8149.06405 6.08635e-18
8150.72164 6.31715e-18
8152.37923 6.27193e-18
8154.03682 6.22664e-18
8155.70446 5.99460e-18
8157.36205 5.76269e-18
8159.01964 5.91198e-18
8160.68727 6.06124e-18
8162.34486 6.13865e-18
8164.00245 6.21596e-18
8165.66004 6.03082e-18
8167.32768 5.84584e-18
8168.98527 6.14837e-18
8170.64286 6.45079e-18
8172.30045 6.43923e-18
8173.96808 6.42749e-18
8175.62567 5.91454e-18
8177.28326 5.40182e-18
8178.95090 5.55518e-18
8180.60849 5.70856e-18
8182.26608 5.91124e-18
8183.92367 6.11387e-18
8185.59131 6.20858e-18
8187.24890 6.30313e-18
8188.90649 5.91735e-18
8190.56408 5.53173e-18
8192.23171 5.59067e-18
8193.88930 5.64968e-18
8195.54689 5.94062e-18
8197.21453 6.23145e-18
8198.87212 6.23128e-18
8200.52971 6.23106e-18
8202.18730 6.10569e-18
8203.85493 5.98037e-18
8205.51252 6.00431e-18
8207.17011 6.02825e-18
8208.82770 6.05735e-18
8210.49534 6.08633e-18
8212.15293 5.75687e-18
8213.81052 5.42757e-18
8215.47816 5.58074e-18
8217.13575 5.73381e-18
8218.79334 5.59386e-18
8220.45093 5.45403e-18
8222.11856 5.67757e-18
8223.77615 5.90098e-18
8225.43374 5.74800e-18
8227.09133 5.59512e-18
8228.75897 5.71879e-18
8230.41656 5.84238e-18
8232.07415 5.73440e-18
8233.74178 5.62646e-18
8235.39937 5.62212e-18
8237.05696 5.61775e-18
8238.71455 5.49887e-18
8240.38219 5.38001e-18
8242.03978 5.27250e-18
8243.69737 5.16515e-18
8245.36501 5.48231e-18
8247.02260 5.79934e-18
8248.68019 5.72295e-18
8250.33778 5.64659e-18
8252.00541 5.66868e-18
8253.66300 5.69062e-18
8255.32059 5.28070e-18
8256.97818 4.87105e-18
8258.64582 5.21159e-18
8260.30341 5.55204e-18
8261.96100 5.64478e-18
8263.62863 5.73745e-18
8265.28622 5.62914e-18
8266.94381 5.52082e-18
8268.60140 5.33991e-18
8270.26904 5.15906e-18
8271.92663 5.14171e-18
8273.58422 5.12438e-18
8275.25186 5.18283e-18
8276.90945 5.24123e-18
8278.56704 5.15782e-18
8280.22463 5.07442e-18
8281.89226 4.95835e-18
8283.54985 4.84236e-18
8285.20744 4.97891e-18
8286.86503 5.11538e-18
8288.53267 5.02708e-18
8290.19026 4.93885e-18
8291.84785 5.03521e-18
8293.51548 5.13158e-18
8295.17307 5.21388e-18
8296.83066 5.29614e-18
8298.48825 5.25100e-18
8300.15589 5.20579e-18
8301.81348 4.95742e-18
8303.47107 4.70916e-18
8305.12866 4.77396e-18
8306.79630 4.83871e-18
8308.45389 4.79606e-18
8310.11148 4.75340e-18
8311.77911 4.66234e-18
8313.43670 4.57133e-18
8315.09429 4.66087e-18
8316.75188 4.75041e-18
8318.41952 4.89395e-18
8320.07711 5.03742e-18
8321.73470 4.94150e-18
8323.40233 4.84554e-18
8325.05992 4.56980e-18
8326.71751 4.29422e-18
8328.37510 4.40066e-18
8330.04274 4.50712e-18
8331.70033 4.60559e-18
8333.35792 4.70404e-18
8335.01551 4.72102e-18
8336.68315 4.73801e-18
8338.34074 4.77385e-18
8339.99833 4.80971e-18
8341.65592 4.88701e-18
8343.32355 4.96438e-18
8344.98114 5.18250e-18
8346.63873 5.40050e-18
8348.30637 5.26489e-18
8349.96396 5.12922e-18
8351.62155 4.84823e-18
8353.27914 4.56735e-18
8354.94677 4.63216e-18
8356.60436 4.69698e-18
8358.26195 4.84255e-18
8359.92959 4.98807e-18
8361.58718 4.96184e-18
8363.24477 4.93556e-18
8364.90236 4.79116e-18
8366.57000 4.64677e-18
8368.22759 4.54346e-18
8369.88518 4.44027e-18
8371.54277 4.64461e-18
8373.21040 4.84877e-18
8374.86799 4.54014e-18
8376.52558 4.23171e-18
8378.19322 4.52215e-18
8379.85081 4.81244e-18
8381.50840 4.66244e-18
8383.16599 4.51251e-18
8384.83362 4.59672e-18
8386.49121 4.68082e-18
8388.14880 4.48395e-18
8389.81644 4.28721e-18
8391.47403 4.48835e-18
8393.13162 4.68948e-18
8394.78921 4.86811e-18
8396.45685 5.04664e-18
8398.11444 4.94482e-18
8399.77203 4.84302e-18
8401.42962 4.75832e-18
8403.09725 4.67369e-18
8404.75484 4.75690e-18
8406.41243 4.84017e-18
8408.08007 5.07949e-18
8409.73766 5.31866e-18
8411.39525 5.10577e-18
8413.05284 4.89295e-18
8414.72047 4.90764e-18
8416.37806 4.92227e-18
8418.03565 4.78629e-18
8419.69324 4.65036e-18
8421.36088 4.61963e-18
8423.01847 4.58893e-18
8424.67606 4.64835e-18
8426.34370 4.70766e-18
8428.00129 4.42372e-18
8429.65888 4.13997e-18
8431.31647 4.37225e-18
8432.98410 4.60450e-18
8434.64169 4.77908e-18
8436.29928 4.95359e-18
8437.95687 4.91505e-18
8439.62451 4.87652e-18
8441.28210 4.80883e-18
8442.93969 4.74106e-18
8444.60732 4.44570e-18
8446.26491 4.15047e-18
8447.92250 4.26282e-18
8449.58009 4.37520e-18
8451.24773 4.63178e-18
8452.90532 4.88829e-18
8454.56291 4.96842e-18
8456.22050 5.04846e-18
8457.88814 4.86009e-18
8459.54573 4.67176e-18
8461.20332 4.58129e-18
8462.87095 4.49087e-18
8464.52854 4.56674e-18
8466.18613 4.64258e-18
8467.84372 4.65975e-18
8469.51136 4.67691e-18
8471.16895 4.66284e-18
8472.82654 4.64875e-18
8474.48413 4.61120e-18
8476.15176 4.57372e-18
8477.80935 4.67291e-18
8479.46694 4.77217e-18
8481.13458 5.05954e-18
8482.79217 5.34672e-18
8484.44976 5.11401e-18
8486.10735 4.88138e-18
8487.77499 4.86878e-18
8489.43258 4.85629e-18
8491.09017 5.15230e-18
8492.75780 5.44810e-18
8494.41539 5.20895e-18
8496.07298 4.96990e-18
8497.73057 5.02385e-18
8499.39821 5.07778e-18
8501.05580 5.09182e-18
8502.71339 5.10586e-18
8504.37098 5.10022e-18
8506.03861 5.09456e-18
8507.69620 5.06792e-18
8509.35379 5.04130e-18
8511.01138 5.10281e-18
8512.67902 5.16427e-18
8514.33661 5.10358e-18
8515.99420 5.04296e-18
8517.66184 5.19279e-18
8519.31943 5.34252e-18
8520.97702 5.20143e-18
8522.63461 5.06035e-18
8524.30224 4.95015e-18
8525.95983 4.84010e-18
8527.61742 5.10774e-18
8529.28506 5.37533e-18
8530.94265 5.56062e-18
8532.60024 5.74575e-18
8534.25783 5.45985e-18
8535.92546 5.17414e-18
8537.58305 5.44288e-18
8539.24064 5.71146e-18
8540.89823 5.54783e-18
8542.56587 5.38427e-18
8544.22346 5.37049e-18
8545.88105 5.35672e-18
8547.54869 5.37261e-18
8549.20628 5.38858e-18
8550.86387 5.64836e-18
8552.52146 5.90804e-18
8554.18909 5.90447e-18
8555.84668 5.90097e-18
8557.50427 6.04407e-18
8559.17191 6.18706e-18
8560.82950 6.05248e-18
8562.48709 5.91792e-18
8564.14468 5.81261e-18
8565.81231 5.70741e-18
8567.46990 5.88650e-18
8569.12749 6.06552e-18
8570.78508 6.04979e-18
8572.45272 6.03401e-18
8574.11031 5.84686e-18
8575.76790 5.65972e-18
8577.43554 5.54293e-18
8579.09313 5.42623e-18
8580.75072 5.57296e-18
8582.40831 5.71959e-18
8584.07594 5.65678e-18
8585.73353 5.59403e-18
8587.39112 5.73344e-18
8589.04871 5.87287e-18
8590.71635 6.03468e-18
8592.37394 6.19636e-18
8594.03153 6.02725e-18
8595.69916 5.85818e-18
8597.35675 5.76300e-18
8599.01434 5.66789e-18
8600.67193 5.71391e-18
8602.33957 5.76001e-18
8603.99716 6.03739e-18
8605.65475 6.31461e-18
8607.32239 6.20559e-18
8608.97998 6.09653e-18
8610.63757 5.93451e-18
8612.29516 5.77256e-18
8613.96279 5.78529e-18
8615.62038 5.79802e-18
8617.27797 5.82260e-18
8618.93556 5.84718e-18
8620.60320 5.82551e-18
8622.26079 5.80393e-18
8623.91838 6.05858e-18
8625.58601 6.31317e-18
8627.24360 6.42877e-18
8628.90119 6.54425e-18
8630.55878 6.35577e-18
8632.22642 6.16733e-18
8633.88401 6.04610e-18
8635.54160 5.92501e-18
8637.20924 6.14193e-18
8638.86683 6.35883e-18
8640.52442 6.45738e-18
8642.18201 6.55576e-18
8643.84964 6.12712e-18
8645.50723 5.69867e-18
8647.16482 5.77017e-18
8648.82241 5.84173e-18
8650.49005 6.11994e-18
8652.14764 6.39803e-18
8653.80523 6.39775e-18
8655.46282 6.39742e-18
8657.13045 6.29093e-18
8658.78804 6.18452e-18
8660.44563 6.29043e-18
8662.11327 6.39620e-18
8663.77086 6.16429e-18
8665.42845 5.93248e-18
8667.08604 5.98655e-18
8668.75368 6.04059e-18
8670.41127 6.02235e-18
8672.06886 6.00413e-18
8673.73649 6.06825e-18
8675.39408 6.13230e-18
8677.05167 5.98302e-18
8678.70926 5.83385e-18
8680.37690 5.94278e-18
8682.03449 6.05167e-18
8683.69208 6.10018e-18
8685.34967 6.14858e-18
8687.01730 5.94028e-18
8688.67489 5.73213e-18
8690.33248 5.92829e-18
8691.99007 6.12441e-18
8693.65771 6.19903e-18
8695.31530 6.27355e-18
8696.97289 6.12040e-18
8698.64053 5.96734e-18
8700.29812 6.00755e-18
8701.95571 6.04778e-18
8703.61330 6.16114e-18
8705.28093 6.27441e-18
8706.93852 6.16810e-18
8708.59611 6.06178e-18
8710.26375 5.95537e-18
8711.92134 5.84907e-18
8713.57893 5.98591e-18
8715.23652 6.12267e-18
8716.90415 6.04744e-18
8718.56174 5.97220e-18
8720.21933 5.87243e-18
8721.87692 5.77269e-18
8723.54456 5.80970e-18
8725.20215 5.84675e-18
8726.85974 5.95594e-18
8728.52738 6.06515e-18
8730.18497 6.21398e-18
8731.84256 6.36268e-18
8733.50015 6.18412e-18
8735.16778 6.00567e-18
8736.82537 6.12227e-18
8738.48296 6.23878e-18
8740.14055 6.10232e-18
8741.80819 5.96596e-18
8743.46578 6.09892e-18
8745.12337 6.23173e-18
8746.79100 5.93346e-18
8748.44859 5.63536e-18
8750.10618 5.74394e-18
8751.76377 5.85265e-18
8753.43141 6.28002e-18
8755.08900 6.70723e-18
8756.74659 6.74734e-18
8758.40418 6.78724e-18
8760.07182 6.32239e-18
8761.72941 5.85768e-18
8763.38700 5.79401e-18
8765.05463 5.73040e-18
8766.71222 5.80977e-18
8768.36981 5.88909e-18
8770.02740 5.79886e-18
8771.69504 5.70867e-18
8773.35263 5.71976e-18
8775.01022 5.73082e-18
8776.67785 5.70961e-18
8778.33544 5.68840e-18
8779.99303 5.68465e-18
8781.65062 5.68092e-18
8783.31826 5.74508e-18
8784.97585 5.80911e-18
8786.63344 5.54872e-18
8788.29103 5.28839e-18
8789.95867 5.18321e-18
8791.61626 5.07819e-18
8793.27385 5.42470e-18
8794.94148 5.77101e-18
8796.59907 5.60537e-18
8798.25666 5.43979e-18
8799.91425 5.40659e-18
8801.58189 5.37339e-18
8803.23948 5.34470e-18
8804.89707 5.31601e-18
8806.56470 5.33484e-18
8808.22229 5.35368e-18
8809.87988 5.44194e-18
8811.53747 5.53018e-18
8813.20511 5.54329e-18
8814.86270 5.55641e-18
8816.52029 5.62451e-18
8818.17788 5.69260e-18
8819.84552 5.72210e-18
8821.50311 5.75160e-18
8823.16070 5.74229e-18
8824.82833 5.73299e-18
8826.48592 5.72829e-18
8828.14351 5.72339e-18
8829.80110 5.22276e-18
8831.46874 4.72250e-18
8833.12633 5.17016e-18
8834.78392 5.61760e-18
8836.44151 5.51110e-18
8838.10914 5.40464e-18
8839.76673 5.39608e-18
8841.42432 5.38750e-18
8843.09196 5.28791e-18
8844.74955 5.18836e-18
8846.40714 5.18189e-18
8848.06473 5.17544e-18
8849.73237 5.17748e-18
8851.38996 5.17956e-18
8853.04755 5.30309e-18
8854.71518 5.42650e-18
8856.37277 5.27530e-18
8858.03036 5.12413e-18
8859.68795 5.01978e-18
8861.35559 4.91547e-18
8863.01318 4.90591e-18
8864.67077 4.89640e-18
8866.32836 4.97473e-18
8867.99599 5.05308e-18
8869.65358 5.16957e-18
8871.31117 5.28601e-18
8872.97881 5.28045e-18
8874.63640 5.27482e-18
8876.29399 5.08464e-18
8877.95158 4.89460e-18
8879.61922 5.04954e-18
8881.27681 5.20439e-18
8882.93440 5.15082e-18
8884.60203 5.09735e-18
8886.25962 5.23964e-18
8887.91721 5.38191e-18
8889.57480 5.40799e-18
8891.24244 5.43395e-18
8892.90003 5.14348e-18
8894.55762 4.85317e-18
8896.21521 4.95921e-18
8897.88284 5.06522e-18
8899.54043 5.06674e-18
8901.19802 5.06823e-18
8902.85561 5.03850e-18
8904.52325 5.00877e-18
8906.18084 4.98929e-18
8907.83843 4.96976e-18
8909.50607 4.76427e-18
8911.16366 4.55889e-18
8912.82125 4.61072e-18
8914.47884 4.66247e-18
8916.14647 4.51462e-18
8917.80406 4.36693e-18
8919.46165 4.57459e-18
8921.11924 4.78215e-18
8922.78688 4.71959e-18
8924.44447 4.65720e-18
8926.10206 5.01152e-18
8927.76969 5.36567e-18
8929.42728 5.30976e-18
8931.08487 5.25368e-18
8932.74246 4.78970e-18
8934.41010 4.32590e-18
8936.06769 4.30102e-18
8937.72528 4.27626e-18
8939.38287 4.53867e-18
8941.05051 4.80085e-18
8942.70810 4.49309e-18
8944.36569 4.18548e-18
8946.03332 4.26872e-18
8947.69091 4.35187e-18
8949.34850 4.24447e-18
8951.00609 4.13717e-18
8952.67373 4.32657e-18
8954.33132 4.51577e-18
8955.98891 4.19998e-18
8957.64650 3.88440e-18
8959.31413 4.05900e-18
8960.97172 4.23356e-18
8962.62931 4.35887e-18
8964.29695 4.48419e-18
8965.95454 4.66961e-18
8967.61213 4.85488e-18
8969.26972 4.72426e-18
8970.93736 4.59367e-18
8972.59495 4.57165e-18
8974.25254 4.54962e-18
8975.92017 4.51103e-18
8977.57776 4.47241e-18
8979.23535 4.36040e-18
8980.89294 4.24850e-18
8982.56058 4.34844e-18
8984.21817 4.44839e-18
8985.87576 4.57522e-18
8987.53335 4.70191e-18
8989.20098 4.49563e-18
8990.85857 4.28941e-18
8992.51616 4.22086e-18
8994.18380 4.15235e-18
8995.84139 4.23846e-18
8997.49898 4.32455e-18
8999.15657 4.40469e-18
9000.82421 4.48487e-18
9002.48180 4.62704e-18
9004.13939 4.76913e-18
9005.79698 4.71077e-18
9007.46461 4.65243e-18
9009.12220 4.62279e-18
9010.77979 4.59322e-18
9012.44743 4.72465e-18
9014.10502 4.85594e-18
9015.76261 4.61282e-18
9017.42020 4.36984e-18
9019.08783 4.41486e-18
9020.74542 4.45980e-18
9022.40301 4.33427e-18
9024.07065 4.20880e-18
9025.72824 4.24568e-18
9027.38583 4.28259e-18
9029.04342 4.37237e-18
9030.71106 4.46219e-18
9032.36865 4.65574e-18
9034.02624 4.84910e-18
9035.68383 4.59376e-18
9037.35146 4.33850e-18
9039.00905 4.25961e-18
9040.66664 4.18080e-18
9042.33428 4.32759e-18
9043.99187 4.47425e-18
9045.64946 4.27553e-18
9047.30705 4.07681e-18
9048.97468 3.86731e-18
9050.63227 3.65804e-18
9052.28986 3.98039e-18
9053.95750 4.30263e-18
9055.61509 4.34994e-18
9057.27268 4.39712e-18
9058.93027 4.16149e-18
9060.59791 3.92593e-18
9062.25550 3.87541e-18
9063.91309 3.82494e-18
9065.57068 3.87528e-18
9067.23831 3.92556e-18
9068.89590 3.75824e-18
9070.55349 3.59107e-18
9072.21108 3.77743e-18
9073.87872 3.96372e-18
9075.53631 3.96671e-18
9077.19390 3.96972e-18
9078.86153 4.00721e-18
9080.51912 4.04455e-18
9082.17671 3.72425e-18
9083.83430 3.40417e-18
9085.50194 3.64023e-18
9087.15953 3.87626e-18
9088.81712 4.02736e-18
9090.48476 4.17832e-18
9092.14235 4.03609e-18
9093.79994 3.89410e-18
9095.45753 4.17338e-18
9097.12516 4.45241e-18
9098.78275 4.14647e-18
9100.44034 3.84074e-18
9102.09793 4.03123e-18
9103.76557 4.22179e-18
9105.42316 4.59642e-18
9107.08075 4.97080e-18
9108.74838 4.77190e-18
9110.40597 4.57300e-18
9112.06356 4.30453e-18
9113.72115 4.03616e-18
9115.38879 3.95685e-18
9117.04638 3.87763e-18
9118.70397 3.96986e-18
9120.36156 4.06204e-18
9122.02920 4.01460e-18
9123.68679 3.96721e-18
9125.34438 4.05854e-18
9127.01201 4.14985e-18
9128.66960 4.26921e-18
9130.32719 4.38853e-18
9131.98478 4.44954e-18
9133.65242 4.51053e-18
9135.31001 4.50237e-18
9136.96760 4.49424e-18
9138.63523 4.57186e-18
9140.29282 4.64938e-18
9141.95041 4.50057e-18
9143.60800 4.35184e-18
9145.27564 4.38515e-18
9146.93323 4.41841e-18
9148.59082 4.35492e-18
9150.24841 4.29137e-18
9151.91605 4.11440e-18
9153.57364 3.93762e-18
9155.23123 4.25385e-18
9156.89886 4.56995e-18
9158.55645 4.60430e-18
9160.21404 4.63860e-18
9161.87163 4.55644e-18
9163.53927 4.47420e-18
9165.19686 4.22307e-18
9166.85445 3.97211e-18
9168.51204 4.15111e-18
9170.17967 4.33004e-18
9171.83726 4.33718e-18
9173.49485 4.34431e-18
9175.15244 4.29583e-18
9176.82008 4.24745e-18
9178.47767 4.47230e-18
9180.13526 4.69709e-18
9181.80290 4.76298e-18
9183.46049 4.82881e-18
9185.11808 4.74263e-18
9186.77567 4.65651e-18
9188.44330 4.71156e-18
9190.10089 4.76655e-18
9191.75848 4.70023e-18
9193.42612 4.63387e-18
9195.08371 4.44386e-18
9196.74130 4.25403e-18
9198.39889 4.52801e-18
9200.06652 4.80187e-18
9201.72411 4.81202e-18
9203.38170 4.82206e-18
9205.03929 4.59646e-18
9206.70693 4.37096e-18
9208.36452 4.36500e-18
9210.02211 4.35914e-18
9211.68975 4.54962e-18
9213.34734 4.73999e-18
9215.00493 4.68760e-18
9216.66252 4.63519e-18
9218.33015 4.54949e-18
9219.98774 4.46378e-18
9221.64533 4.37300e-18
9223.31297 4.28228e-18
9224.97056 4.35148e-18
9226.62815 4.42056e-18
9228.28574 4.17261e-18
9229.95337 3.92492e-18
9231.61096 4.32595e-18
9233.26855 4.72687e-18
9234.92614 4.92085e-18
9236.59378 5.11462e-18
9238.25137 4.82208e-18
9239.90896 4.52962e-18
9241.56655 4.37888e-18
9243.23419 4.22832e-18
9244.89178 4.52488e-18
9246.54937 4.82122e-18
9248.21700 4.60004e-18
9249.87459 4.37898e-18
9251.53218 4.39480e-18
9253.18977 4.41058e-18
9254.85741 4.36049e-18
9256.51500 4.31044e-18
9258.17259 4.37064e-18
9259.84022 4.43085e-18
9261.49781 4.54089e-18
9263.15540 4.65087e-18
9264.81299 4.56997e-18
9266.48063 4.48899e-18
9268.13822 4.20472e-18
9269.79581 3.92071e-18
9271.45340 4.24663e-18
9273.12104 4.57236e-18
9274.77863 4.41744e-18
9276.43622 4.26266e-18
9278.10385 4.49720e-18
9279.76144 4.73153e-18
9281.41903 4.50173e-18
9283.07662 4.27203e-18
9284.74426 4.27811e-18
9286.40185 4.28422e-18
9288.05944 4.39241e-18
9289.71703 4.50043e-18
9291.38466 4.14412e-18
9293.04225 3.78801e-18
9294.69984 3.89415e-18
9296.36748 4.00031e-18
9298.02507 4.15499e-18
9299.68266 4.30959e-18
9301.34025 4.31775e-18
9303.00789 4.32588e-18
9304.66548 4.30079e-18
9306.32307 4.27565e-18
9307.99070 4.10504e-18
9309.64829 3.93447e-18
9311.30588 3.85435e-18
9312.96347 3.77431e-18
9314.63111 3.85029e-18
9316.28870 3.92615e-18
9317.94629 3.68388e-18
9319.60388 3.44159e-18
9321.27151 3.11681e-18
9322.92910 2.79233e-18
9324.58669 3.13872e-18
9326.25433 3.48497e-18
9327.91192 3.53274e-18
9329.56951 3.58054e-18
9331.22710 3.69296e-18
9332.89474 3.80526e-18
9334.55233 3.61550e-18
9336.20992 3.42586e-18
9337.87755 3.49239e-18
9339.53514 3.55890e-18
9341.19273 3.59660e-18
9342.85032 3.63439e-18
9344.51796 3.83601e-18
9346.17555 4.03757e-18
9347.83314 4.08580e-18
9349.49073 4.13380e-18
9351.15836 3.62434e-18
9352.81595 3.11507e-18
9354.47354 3.02541e-18
9356.13113 2.93600e-18
9357.79877 3.41594e-18
9359.45636 3.89567e-18
9361.11395 3.85075e-18
9362.78159 3.80594e-18
9364.43918 4.01870e-18
9366.09677 4.23137e-18
9367.75436 4.23118e-18
9369.42199 4.23097e-18
9371.07958 4.19901e-18
9372.73717 4.16682e-18
9374.40481 3.55404e-18
9376.06240 2.94155e-18
9377.71999 2.95735e-18
9379.37758 2.97326e-18
9381.04521 3.22872e-18
9382.70280 3.48407e-18
9384.36039 3.49660e-18
9386.01798 3.50911e-18
9387.68562 3.51124e-18
9389.34321 3.51334e-18
9391.00080 3.49952e-18
9392.66844 3.48578e-18
9394.32603 3.64683e-18
9395.98362 3.80775e-18
9397.64121 3.64275e-18
9399.30884 3.47783e-18
9400.96643 3.48779e-18
9402.62402 3.49775e-18
9404.28161 3.54416e-18
9405.94925 3.59051e-18
9407.60684 3.49752e-18
9409.26443 3.40466e-18
9410.93206 3.58914e-18
9412.58965 3.77355e-18
9414.24724 3.80827e-18
9415.90483 3.84292e-18
9417.57247 3.69691e-18
9419.23006 3.55096e-18
9420.88765 3.50897e-18
9422.54524 3.46694e-18
9424.21288 3.31599e-18
9425.87047 3.16528e-18
9427.52806 3.57523e-18
9429.19569 3.98489e-18
9430.85328 3.73632e-18
9432.51087 3.48781e-18
9434.16846 3.40858e-18
9435.83610 3.32919e-18
9437.49369 2.89239e-18
9439.15128 2.45570e-18
9440.80887 2.29419e-18
9442.47650 2.13307e-18
9444.13409 2.84969e-18
9445.79168 3.56601e-18
9447.45932 3.55292e-18
9449.11691 3.53988e-18
9450.77450 3.62842e-18
9452.43209 3.71682e-18
9454.09973 3.50274e-18
9455.75732 3.28866e-18
9457.41491 3.02596e-18
9459.07250 2.76342e-18
9460.74013 2.83429e-18
9462.39772 2.90523e-18
9464.05531 3.15654e-18
9465.72295 3.40759e-18
9467.38054 3.07165e-18
9469.03813 2.73596e-18
9470.69572 2.98052e-18
9472.36335 3.22508e-18
9474.02094 3.50076e-18
9475.67853 3.77639e-18
9477.34617 3.91792e-18
9479.00376 4.05932e-18
9480.66135 3.90611e-18
9482.31894 3.75298e-18
9483.98658 3.75657e-18
9485.64417 3.76007e-18
9487.30176 3.50608e-18
9488.95935 3.25219e-18
9490.62698 3.22561e-18
9492.28457 3.19901e-18
9493.94216 3.11622e-18
9495.60980 3.03364e-18
9497.26739 3.43758e-18
9498.92498 3.84128e-18
9500.58257 3.66288e-18
9502.25020 3.48458e-18
9503.90779 3.53754e-18
9505.56538 3.59052e-18
9507.23302 3.67406e-18
9508.89061 3.75744e-18
9510.54820 3.48951e-18
9512.20579 3.22165e-18
9513.87343 3.10632e-18
9515.53102 2.99101e-18
9517.18861 2.93309e-18
9518.84620 2.87535e-18
9520.51383 3.24246e-18
9522.17142 3.60931e-18
9523.82901 3.38626e-18
9525.49665 3.16335e-18
9527.15424 3.24743e-18
9528.81183 3.33142e-18
9530.46942 3.20539e-18
9532.13705 3.07949e-18
9533.79464 3.22678e-18
9535.45223 3.37400e-18
9537.10982 3.40843e-18
9538.77746 3.44288e-18
9540.43505 3.52469e-18
9542.09264 3.60645e-18
9543.76028 3.56789e-18
9545.41787 3.52923e-18
9547.07546 3.24627e-18
9548.73305 2.96338e-18
9550.40068 2.81899e-18
9552.05827 2.67496e-18
9553.71586 3.37327e-18
9555.37345 4.07113e-18
9557.04109 3.75253e-18
9558.69868 3.43404e-18
9560.35627 3.38844e-18
9562.02390 3.34292e-18
9563.68149 3.47893e-18
9565.33908 3.61479e-18
9566.99667 3.42712e-18
9568.66431 3.23954e-18
9570.32190 3.26661e-18
9571.97949 3.29371e-18
9573.64713 3.37717e-18
9575.30472 3.46046e-18
9576.96231 3.19815e-18
9578.61990 2.93596e-18
9580.28753 2.93555e-18
9581.94512 2.93518e-18
9583.60271 3.02842e-18
9585.27035 3.12157e-18
9586.92794 3.00486e-18
9588.58553 2.88818e-18
9590.24312 2.84608e-18
9591.91075 2.80412e-18
9593.56834 3.06847e-18
9595.22593 3.33266e-18
9596.88352 3.20997e-18
9598.55116 3.08742e-18
9600.20875 3.30452e-18
9601.86634 3.52152e-18
9603.52393 3.51581e-18
9605.19157 3.51017e-18
9606.84916 3.66041e-18
9608.50675 3.81042e-18
9610.17438 3.41504e-18
9611.83197 3.01984e-18
9613.48956 3.00506e-18
9615.14715 2.99028e-18
9616.81479 2.95783e-18
9618.47238 2.92542e-18
9620.12997 2.97965e-18
9621.79760 3.03390e-18
9623.45519 3.10311e-18
9625.11278 3.17232e-18
9626.77037 3.23835e-18
9628.43801 3.30437e-18
9630.09560 3.39132e-18
9631.75319 3.47822e-18
9633.41078 3.46954e-18
9635.07842 3.46094e-18
9636.73601 3.64564e-18
9638.39360 3.83014e-18
9640.06123 3.60674e-18
9641.71882 3.38347e-18
9643.37641 3.46078e-18
9645.03400 3.53790e-18
9646.70164 3.22849e-18
9648.35923 2.91931e-18
9650.01682 3.12102e-18
9651.67441 3.32263e-18
9653.34204 3.29530e-18
9654.99963 3.26788e-18
9656.65722 3.04064e-18
9658.31481 2.81356e-18
9659.98245 2.90786e-18
9661.64004 3.00226e-18
9663.29763 3.32320e-18
9664.96527 3.64381e-18
9666.62286 3.20901e-18
9668.28045 2.77450e-18
9669.93804 3.00267e-18
9671.60567 3.23083e-18
9673.26326 3.46419e-18
9674.92085 3.69746e-18
9676.58849 3.75822e-18
9678.24608 3.81886e-18
9679.90367 3.64978e-18
9681.56126 3.48095e-18
9683.22889 3.84413e-18
9684.88648 4.20703e-18
9686.54407 3.92297e-18
9688.20166 3.63885e-18
9689.86930 3.24035e-18
9691.52689 2.84221e-18
9693.18448 3.22214e-18
9694.85212 3.60192e-18
9696.50971 3.65124e-18
9698.16730 3.70065e-18
9699.82489 3.96891e-18
9701.49252 4.23670e-18
9703.15011 3.47016e-18
9704.80770 2.70405e-18
9706.46529 2.87161e-18
9708.13293 3.03914e-18
9709.79052 3.10946e-18
9711.44811 3.17961e-18
9713.11574 2.84406e-18
9714.77333 2.50881e-18
9716.43092 2.85003e-18
9718.08851 3.19125e-18
9719.75615 3.50179e-18
9721.41374 3.81206e-18
9723.07133 3.51209e-18
9724.73897 3.21230e-18
9726.39656 3.27618e-18
9728.05415 3.34006e-18
9729.71174 3.43913e-18
9731.37937 3.53805e-18
9733.03696 3.33950e-18
9734.69455 3.14107e-18
9736.35214 3.22747e-18
9738.01978 3.31388e-18
9739.67737 3.45736e-18
9741.33496 3.60077e-18
9743.00259 3.59837e-18
9744.66018 3.59590e-18
9746.31777 3.41116e-18
9747.97536 3.22643e-18
9749.64300 3.06904e-18
9751.30059 2.91187e-18
9752.95818 3.23320e-18
9754.62582 3.55425e-18
9756.28341 3.29690e-18
9757.94100 3.03973e-18
9759.59859 3.16076e-18
9761.26622 3.28177e-18
9762.92381 3.37133e-18
9764.58140 3.46082e-18
9766.23899 3.40363e-18
9767.90663 3.34655e-18
9769.56422 3.49970e-18
9771.22181 3.65273e-18
9772.87940 3.53130e-18
9774.54703 3.40985e-18
9776.20462 3.22188e-18
9777.86221 3.03393e-18
9779.52985 2.87542e-18
9781.18744 2.71712e-18
9782.84503 3.00135e-18
9784.50262 3.28544e-18
9786.17026 3.21939e-18
9787.82785 3.15374e-18
9789.48544 3.93454e-18
9791.15307 4.71480e-18
9792.81066 4.32068e-18
9794.46825 3.92667e-18
9796.12584 3.72651e-18
9797.79348 3.52650e-18
9799.45107 3.64615e-18
9801.10866 3.76542e-18
9802.76625 3.09050e-18
9804.43388 2.41580e-18
9806.09147 2.19436e-18
9807.74906 1.97327e-18
9809.41670 2.48923e-18
9811.07429 3.00499e-18
9812.73188 3.11226e-18
9814.38947 3.21952e-18
9816.05711 3.32939e-18
9817.71470 3.43915e-18
9819.37229 3.35454e-18
9821.03992 3.26986e-18
9822.69751 3.01137e-18
9824.35510 2.75318e-18
9826.01269 3.13557e-18
9827.68033 3.51769e-18
9829.33792 3.30698e-18
9830.99551 3.09643e-18
9832.65310 3.21338e-18
9834.32073 3.33021e-18
9835.97832 3.23565e-18
9837.63591 3.14103e-18
9839.30355 2.94066e-18
9840.96114 2.74056e-18
9842.61873 3.12083e-18
9844.27632 3.50111e-18
9845.94396 3.90086e-18
9847.60155 4.30032e-18
9849.25914 4.11657e-18
9850.91673 3.93280e-18
9852.58436 3.74646e-18
9854.24195 3.56012e-18
9855.89954 3.39502e-18
9857.56718 3.23000e-18
9859.22477 3.20273e-18
9860.88236 3.17546e-18
9862.53995 3.16739e-18
9864.20758 3.15962e-18
9865.86517 3.77940e-18
9867.52276 4.39884e-18
9869.18035 4.23905e-18
9870.84799 4.07941e-18
9872.50558 4.22497e-18
9874.16317 4.37064e-18
9875.83081 4.76797e-18
9877.48840 5.16479e-18
9879.14599 4.49037e-18
9880.80358 3.81598e-18
9882.47121 3.16861e-18
9884.12880 2.52181e-18
9885.78639 3.04588e-18
9887.44398 3.56985e-18
9889.11162 3.84906e-18
9890.76921 4.12817e-18
9892.42680 4.21326e-18
9894.09443 4.29838e-18
9895.75202 4.42789e-18
9897.40961 4.55736e-18
9899.06720 4.62638e-18
9900.73484 4.69499e-18
9902.39243 3.87814e-18
9904.05002 3.06166e-18
9905.70761 2.98269e-18
9907.37525 2.90371e-18
9909.03284 2.78010e-18
9910.69043 2.65656e-18
9912.35806 2.68853e-18
9914.01565 2.72071e-18
9915.67324 3.17921e-18
9917.33083 3.63741e-18
9918.99847 3.47888e-18
9920.65606 3.32046e-18
9922.31365 3.39212e-18
9923.98128 3.46381e-18
9925.63887 3.55498e-18
9927.29646 3.64620e-18
9928.95405 3.81952e-18
9930.62169 3.99240e-18
9932.27928 3.19421e-18
9933.93687 2.39629e-18
9935.59446 2.17190e-18
9937.26210 1.94799e-18
9938.91969 2.70120e-18
9940.57728 3.45419e-18
9942.23487 3.76280e-18
9943.90250 4.07127e-18
9945.56009 4.07348e-18
9947.21768 4.07544e-18
9948.88532 3.51202e-18
9950.54291 2.94916e-18
9952.20050 3.59912e-18
9953.85809 4.24876e-18
9955.52572 4.23872e-18
9957.18331 4.22848e-18
9958.84090 3.77399e-18
9960.50854 3.31965e-18
9962.16613 3.12149e-18
9963.82372 2.92339e-18
9965.48131 2.81002e-18
9967.14895 2.69659e-18
9968.80654 2.42302e-18
9970.46413 2.14953e-18
9972.12172 2.01886e-18
9973.78935 1.88825e-18
9975.44694 1.90585e-18
9977.10453 1.92371e-18
9978.77217 2.46045e-18
9980.42976 2.99692e-18
9982.08735 2.96940e-18
9983.74494 2.94200e-18
9985.41257 3.14459e-18
9987.07016 3.34722e-18
9988.72775 3.66358e-18
9990.39539 3.97973e-18
9992.05298 3.87477e-18
9993.71057 3.76967e-18
9995.36816 3.39309e-18
9997.03580 3.01637e-18
9998.69339 2.33343e-18
