# wavelength flux
3494.99531 2.79629e-17
3496.46555 3.48402e-18
3497.93579 1.92849e-17
3499.40603 1.96968e-17
3500.87627 5.46063e-18
3502.34651 3.88035e-17
3503.81675 2.24719e-17
3505.28699 1.06570e-17
3506.75723 2.35678e-17
3508.22747 2.58651e-17
3509.69771 6.59190e-18
3511.16795 1.35974e-17
3512.63819 1.96869e-17
3514.10843 2.80572e-17
3515.57867 1.84359e-17
3517.04891 1.78750e-17
3518.51915 2.81831e-17
3519.98939 2.26957e-17
3521.45963 1.35459e-17
3522.92987 2.48473e-17
3524.40011 2.43504e-17
3525.87035 2.46782e-17
3527.34059 1.29531e-17
3528.81083 6.62533e-18
3530.28107 1.08227e-17
3531.75131 1.19128e-17
3533.22155 1.57878e-17
3534.69179 1.90534e-17
3536.16203 2.19694e-17
3537.63227 3.52958e-17
3539.10251 2.98604e-17
3540.57275 2.14331e-17
3542.04299 1.61831e-17
3543.51323 8.87270e-18
3544.98347 2.92331e-17
3546.45371 1.89989e-17
3547.92395 1.26303e-17
3549.39419 3.10991e-17
3550.86443 2.33062e-17
3552.33467 2.60182e-17
3553.80491 2.85819e-17
3555.26494 1.87295e-17
3556.73518 3.12339e-17
3558.20542 4.25300e-17
3559.67566 2.20791e-17
3561.14590 1.32521e-17
3562.61614 2.17201e-17
3564.08638 2.28754e-17
3565.55662 1.60837e-17
3567.02686 1.57234e-17
3568.49710 1.76688e-17
3569.96734 8.07308e-18
3571.43758 2.19705e-17
3572.90782 2.47912e-17
3574.37806 2.07573e-17
3575.84830 2.66658e-17
3577.31854 1.32872e-17
3578.78878 1.70249e-17
3580.25902 1.98566e-17
3581.72926 1.07140e-17
3583.19950 1.29789e-17
3584.66974 9.04310e-18
3586.13998 6.03391e-18
3587.61022 1.17447e-17
3589.08046 2.64261e-17
3590.55070 2.04058e-17
3592.02094 1.20198e-17
3593.49118 1.27356e-17
3594.96142 7.77696e-18
3596.43166 2.16913e-17
3597.90190 2.68214e-17
3599.37214 1.39758e-17
3600.84238 8.08781e-18
3602.31262 1.58797e-17
3603.78286 2.22951e-17
3605.25310 2.18237e-17
3606.72334 1.08959e-17
3608.19358 1.34181e-17
3609.66382 1.96807e-17
3611.13406 2.31057e-17
3612.60430 1.62288e-17
3614.07454 1.81694e-17
3615.54478 2.13777e-17
3617.00481 2.46454e-17
3618.47505 3.31403e-17
3619.94529 3.43680e-17
3621.41553 1.79093e-17
3622.88577 1.61475e-17
3624.35601 2.41965e-17
3625.82625 2.57689e-17
3627.29649 1.37028e-17
3628.76673 1.51028e-17
3630.23697 2.21971e-17
3631.70721 2.68657e-17
3633.17745 3.63674e-17
3634.64769 2.06877e-17
3636.11793 1.49532e-17
3637.58817 1.45037e-17
3639.05841 2.11185e-17
3640.52865 1.50155e-17
3641.99889 2.40009e-17
3643.46913 3.32038e-17
3644.93937 2.27837e-17
3646.40961 1.87313e-17
3647.87985 1.39408e-17
3649.35009 1.83755e-17
3650.82033 1.42065e-17
3652.29057 6.31108e-18
3653.76081 2.47019e-17
3655.23105 2.78775e-17
3656.70129 2.16596e-17
3658.17153 1.16757e-17
3659.64177 1.34324e-17
3661.11201 2.13598e-17
3662.58225 2.37176e-17
3664.05249 2.26618e-17
3665.52273 2.31793e-17
3666.99297 1.16722e-17
3668.46321 3.01344e-17
3669.93345 3.06224e-17
3671.40369 2.00562e-17
3672.87393 2.14787e-17
3674.34417 2.94495e-17
3675.81441 2.27520e-17
3677.28465 1.07129e-17
3678.75489 1.18669e-17
3680.21492 1.59097e-17
3681.68516 2.11121e-17
3683.15540 2.66250e-17
3684.62564 2.68811e-17
3686.09588 2.93898e-17
3687.56612 2.80612e-17
3689.03636 1.55557e-17
3690.50660 1.91796e-17
3691.97684 2.01303e-17
3693.44708 2.84776e-17
3694.91732 2.52908e-17
3696.38756 1.85373e-17
3697.85780 2.24718e-17
3699.32804 2.12789e-17
3700.79828 2.02219e-17
3702.26852 1.63308e-17
3703.73876 1.38678e-17
3705.20900 1.08650e-17
3706.67924 1.72033e-17
3708.14948 1.70149e-17
3709.61972 5.47127e-18
3711.08996 6.19361e-18
3712.56020 1.96072e-17
3714.03044 1.82431e-17
3715.50068 2.56490e-17
3716.97092 2.34193e-17
3718.44116 1.59351e-17
3719.91140 1.82462e-17
3721.38164 2.78550e-17
3722.85188 2.22474e-17
3724.32212 1.75740e-17
3725.79236 1.92017e-17
3727.26260 1.46526e-17
3728.73284 1.48578e-17
3730.20308 2.03433e-17
3731.67332 2.22236e-17
3733.14356 1.72569e-17
3734.61380 2.36182e-17
3736.08404 1.36778e-17
3737.55428 1.50895e-17
3739.02452 1.95159e-17
3740.49476 1.50359e-17
3741.95479 1.71524e-17
3743.42503 2.30333e-17
3744.89527 1.59345e-17
3746.36551 7.24702e-18
3747.83575 5.30771e-18
3749.30599 1.17942e-17
3750.77623 1.43660e-17
3752.24647 1.07211e-17
3753.71671 1.82913e-17
3755.18695 1.65753e-17
3756.65719 1.73552e-17
3758.12743 1.92101e-17
3759.59767 1.64188e-17
3761.06791 1.30665e-17
3762.53815 1.37523e-17
3764.00839 1.83758e-17
3765.47863 1.75152e-17
3766.94887 1.73383e-17
3768.41911 1.73559e-17
3769.88935 1.86753e-17
3771.35959 1.78579e-17
3772.82983 1.93719e-17
3774.30007 1.44746e-17
3775.77031 1.45768e-17
3777.24055 1.06742e-17
3778.71079 9.39282e-18
3780.18103 1.84038e-17
3781.65127 1.18308e-17
3783.12151 1.75554e-17
3784.59175 2.01714e-17
3786.06199 1.24076e-17
3787.53223 9.57930e-18
3789.00247 1.58115e-17
3790.47271 2.06980e-17
3791.94295 1.62881e-17
3793.41319 1.71014e-17
3794.88343 1.56091e-17
3796.35367 1.48964e-17
3797.82391 1.24685e-17
3799.29415 8.45942e-18
3800.76439 8.62725e-18
3802.23463 9.04119e-18
3803.70487 6.24591e-18
3805.16490 6.62035e-18
3806.63514 3.57759e-18
3808.10538 3.50212e-18
3809.57562 8.24800e-18
3811.04586 6.33789e-18
3812.51610 -9.88412e-19
3813.98634 5.84751e-18
3815.45658 1.05665e-17
3816.92682 1.03932e-17
3818.39706 8.38035e-18
3819.86730 6.80603e-18
3821.33754 1.23617e-17
3822.80778 8.37767e-18
3824.27802 6.51341e-18
3825.74826 4.09425e-18
3827.21850 -8.77254e-19
3828.68874 2.41129e-18
3830.15898 8.55036e-18
3831.62922 1.00821e-17
3833.09946 5.93015e-18
3834.56970 1.36283e-18
3836.03994 3.93573e-18
3837.51018 5.90746e-18
3838.98042 4.58909e-18
3840.45066 8.95650e-18
3841.92090 9.08126e-18
3843.39114 7.40980e-18
3844.86138 7.23388e-18
3846.33162 9.92002e-18
3847.80186 2.24578e-18
3849.27210 4.69950e-18
3850.74234 9.81046e-18
3852.21258 2.91057e-18
3853.68282 4.58074e-18
3855.15306 4.97746e-18
3856.62330 3.45274e-18
3858.09354 2.06021e-18
3859.56378 1.66580e-18
3861.03402 6.97518e-18
3862.50426 4.91300e-18
3863.97450 6.54427e-18
3865.44474 8.69414e-18
3866.91498 7.84509e-18
3868.37501 6.54803e-18
3869.84525 1.19628e-17
3871.31549 1.26161e-17
3872.78573 1.09579e-17
3874.25597 1.36210e-17
3875.72621 7.19634e-18
3877.19645 4.50204e-20
3878.66669 -3.62389e-18
3880.13693 2.27808e-18
3881.60717 7.56045e-18
3883.07741 8.29487e-18
3884.54765 8.29583e-18
3886.01789 5.55023e-18
3887.48813 2.53497e-18
3888.95837 8.07610e-18
3890.42861 9.98812e-18
3891.89885 6.59365e-18
3893.36909 1.56243e-18
3894.83933 4.51362e-18
3896.30957 1.43357e-17
3897.77981 1.14405e-17
3899.25005 8.12376e-18
3900.72029 7.65564e-18
3902.19053 9.89941e-18
3903.66077 4.98080e-18
3905.13101 6.60994e-18
3906.60125 1.49064e-17
3908.07149 1.02877e-17
3909.54173 1.95063e-18
3911.01197 8.72577e-18
3912.48221 3.98479e-18
3913.95245 6.06592e-18
3915.42269 8.31265e-18
3916.89293 8.64190e-18
3918.36317 6.52378e-18
3919.83341 9.32210e-18
3921.30365 1.09802e-17
3922.77389 6.13237e-18
3924.24413 9.93811e-18
3925.71437 1.18841e-17
3927.18461 9.03155e-18
3928.64464 1.36661e-17
3930.11488 1.18338e-17
3931.58512 9.58498e-18
3933.05536 1.04014e-17
3934.52560 6.56540e-18
3935.99584 1.17685e-17
3937.46608 1.41051e-17
3938.93632 1.38431e-17
3940.40656 9.26871e-18
3941.87680 1.27280e-17
3943.34704 1.64892e-17
3944.81728 1.77280e-17
3946.28752 1.24509e-17
3947.75776 1.73159e-17
3949.22800 1.71832e-17
3950.69824 1.55108e-17
3952.16848 1.69157e-17
3953.63872 1.70652e-17
3955.10896 1.91747e-17
3956.57920 1.66685e-17
3958.04944 1.41799e-17
3959.51968 1.56113e-17
3960.98992 1.76376e-17
3962.46016 1.52428e-17
3963.93040 1.40682e-17
3965.40064 1.92595e-17
3966.87088 1.96602e-17
3968.34112 1.28621e-17
3969.81136 1.68767e-17
3971.28160 2.19376e-17
3972.75184 2.00322e-17
3974.22208 2.04464e-17
3975.69232 2.16761e-17
3977.16256 1.76279e-17
3978.63280 1.28546e-17
3980.10304 2.00817e-17
3981.57328 2.20563e-17
3983.04352 2.22431e-17
3984.51376 1.96797e-17
3985.98400 2.09964e-17
3987.45424 1.87206e-17
3988.92448 1.97135e-17
3990.39472 2.51246e-17
3991.86496 2.70848e-17
3993.32499 2.35660e-17
3994.79523 2.10286e-17
3996.26547 2.13575e-17
3997.73571 2.52551e-17
3999.20595 3.01056e-17
4000.67619 2.69447e-17
4002.14643 2.21732e-17
4003.61667 2.36159e-17
4005.08691 2.64514e-17
4006.55715 2.73856e-17
4008.02739 2.28949e-17
4009.49763 2.91444e-17
4010.96787 2.39940e-17
4012.43811 2.60535e-17
4013.90835 2.99447e-17
4015.37859 2.70691e-17
4016.84883 2.82058e-17
4018.31907 2.51964e-17
4019.78931 2.68895e-17
4021.25955 2.86547e-17
4022.72979 2.94911e-17
4024.20003 2.50815e-17
4025.67027 2.44331e-17
4027.14051 2.39748e-17
4028.61075 2.10615e-17
4030.08099 2.28289e-17
4031.55123 2.03262e-17
4033.02147 2.23364e-17
4034.49171 3.05770e-17
4035.96195 2.58414e-17
4037.43219 2.07756e-17
4038.90243 2.70544e-17
4040.37267 2.50990e-17
4041.84291 2.56971e-17
4043.31315 2.39321e-17
4044.78339 2.95590e-17
4046.25363 2.99691e-17
4047.72387 3.11002e-17
4049.19411 2.64011e-17
4050.66435 2.23375e-17
4052.13459 2.65393e-17
4053.60483 2.51506e-17
4055.07507 2.37455e-17
4056.53510 2.70943e-17
4058.00534 2.99622e-17
4059.47558 2.84234e-17
4060.94582 2.30441e-17
4062.41606 2.48964e-17
4063.88630 2.17564e-17
4065.35654 2.52328e-17
4066.82678 2.43896e-17
4068.29702 2.62221e-17
4069.76726 2.88486e-17
4071.23750 2.51336e-17
4072.70774 2.22970e-17
4074.17798 2.67346e-17
4075.64822 3.13125e-17
4077.11846 2.76361e-17
4078.58870 2.41228e-17
4080.05894 2.60420e-17
4081.52918 2.96165e-17
4082.99942 2.79137e-17
4084.46966 2.47164e-17
4085.93990 2.14194e-17
4087.41014 2.38418e-17
4088.88038 2.53653e-17
4090.35062 2.45585e-17
4091.82086 2.55950e-17
4093.29110 2.30408e-17
4094.76134 2.26737e-17
4096.23158 2.37245e-17
4097.70182 2.30368e-17
4099.17206 2.21114e-17
4100.64230 2.19898e-17
4102.11254 2.31257e-17
4103.58278 2.48020e-17
4105.05302 2.69234e-17
4106.52326 2.68123e-17
4107.99350 2.84490e-17
4109.46374 2.60009e-17
4110.93398 2.19084e-17
4112.40422 2.08853e-17
4113.87446 1.93361e-17
4115.34470 2.12187e-17
4116.81494 2.37917e-17
4118.27497 2.36080e-17
4119.74521 2.53046e-17
4121.21545 2.53989e-17
4122.68569 2.34993e-17
4124.15593 2.05945e-17
4125.62617 1.98560e-17
4127.09641 2.16960e-17
4128.56665 2.15039e-17
4130.03689 1.92581e-17
4131.50713 2.03450e-17
4132.97737 1.76959e-17
4134.44761 2.17634e-17
4135.91785 2.13285e-17
4137.38809 1.87259e-17
4138.85833 2.02938e-17
4140.32857 2.27328e-17
4141.79881 2.06024e-17
4143.26905 1.96376e-17
4144.73929 1.51289e-17
4146.20953 1.31376e-17
4147.67977 2.01981e-17
4149.15001 1.97496e-17
4150.62025 2.15618e-17
4152.09049 1.82585e-17
4153.56073 1.72094e-17
4155.03097 1.85725e-17
4156.50121 1.84523e-17
4157.97145 1.64429e-17
4159.44169 1.65206e-17
4160.91193 1.86038e-17
4162.38217 1.56101e-17
4163.85241 1.99672e-17
4165.32265 2.09765e-17
4166.79289 2.36990e-17
4168.26313 2.23650e-17
4169.73337 2.15755e-17
4171.20361 1.78901e-17
4172.67385 1.86699e-17
4174.14409 1.76371e-17
4175.61433 1.72386e-17
4177.08457 1.91170e-17
4178.54460 1.91599e-17
4180.01484 1.72165e-17
4181.48508 1.72747e-17
4182.95532 1.85295e-17
4184.42556 1.71843e-17
4185.89580 1.71326e-17
4187.36604 1.79060e-17
4188.83628 1.84560e-17
4190.30652 1.86836e-17
4191.77676 1.83132e-17
4193.24700 1.40536e-17
4194.71724 1.50088e-17
4196.18748 1.68737e-17
4197.65772 1.58833e-17
4199.12796 1.60136e-17
4200.59820 1.55620e-17
4202.06844 1.61808e-17
4203.53868 1.88530e-17
4205.00892 1.92948e-17
4206.47916 1.64017e-17
4207.94940 1.41187e-17
4209.41964 1.41134e-17
4210.88988 1.45946e-17
4212.36012 1.36105e-17
4213.83036 1.63437e-17
4215.30060 1.63862e-17
4216.77084 1.55375e-17
4218.24108 1.93385e-17
4219.71132 2.04089e-17
4221.18156 2.00981e-17
4222.65180 1.90210e-17
4224.12204 1.60542e-17
4225.59228 1.81703e-17
4227.06252 1.67077e-17
4228.53276 1.53012e-17
4230.00300 2.00980e-17
4231.47324 1.97683e-17
4232.94348 1.73243e-17
4234.41372 1.67939e-17
4235.88396 1.56302e-17
4237.35420 1.69141e-17
4238.82444 1.79774e-17
4240.29468 1.93105e-17
4241.75471 1.97013e-17
4243.22495 1.61675e-17
4244.70540 1.38166e-17
4246.16543 1.80715e-17
4247.63567 1.84541e-17
4249.10591 1.62307e-17
4250.57615 1.60544e-17
4252.04639 1.78363e-17
4253.51663 1.76982e-17
4254.98687 1.64484e-17
4256.45711 1.77096e-17
4257.92735 1.86296e-17
4259.39759 1.94126e-17
4260.86783 1.79818e-17
4262.33807 1.92303e-17
4263.80831 1.94313e-17
4265.27855 1.69138e-17
4266.74879 1.63081e-17
4268.21903 1.55013e-17
4269.68927 1.69032e-17
4271.15951 1.60399e-17
4272.62975 1.56709e-17
4274.09999 1.66385e-17
4275.57023 1.69557e-17
4277.04047 1.66727e-17
4278.51071 1.80280e-17
4279.98095 1.65800e-17
4281.45119 1.56103e-17
4282.92143 1.86851e-17
4284.39167 1.66917e-17
4285.86191 1.67612e-17
4287.33215 1.83369e-17
4288.80239 1.56628e-17
4290.27263 1.59146e-17
4291.74287 1.72473e-17
4293.21311 1.52928e-17
4294.68335 1.83342e-17
4296.15359 1.91836e-17
4297.62383 1.79585e-17
4299.09407 1.72220e-17
4300.56431 1.70355e-17
4302.03455 1.67497e-17
4303.50479 1.68056e-17
4304.97503 1.60914e-17
4306.43506 1.60954e-17
4307.90530 1.62281e-17
4309.37554 1.66527e-17
4310.84578 1.66349e-17
4312.31602 1.60791e-17
4313.78626 1.70423e-17
4315.25650 1.49684e-17
4316.72674 1.73013e-17
4318.19698 1.93069e-17
4319.66722 1.98911e-17
4321.13746 2.12885e-17
4322.60770 1.90378e-17
4324.07794 1.86355e-17
4325.54818 1.85906e-17
4327.01842 1.46628e-17
4328.48866 1.30786e-17
4329.95890 1.66720e-17
4331.42914 1.97883e-17
4332.89938 1.78139e-17
4334.36962 1.85984e-17
4335.83986 1.80801e-17
4337.31010 1.65983e-17
4338.78034 1.93935e-17
4340.25058 2.06172e-17
4341.72082 1.80891e-17
4343.19106 1.39151e-17
4344.66130 1.74060e-17
4346.13154 1.80415e-17
4347.60178 1.60481e-17
4349.07202 1.71621e-17
4350.54226 1.63401e-17
4352.01250 2.21720e-17
4353.48274 1.73275e-17
4354.95298 1.82369e-17
4356.42322 1.85192e-17
4357.89346 2.37005e-17
4359.36370 2.12867e-17
4360.83394 1.84446e-17
4362.30418 1.71635e-17
4363.77442 2.02816e-17
4365.24466 1.94034e-17
4366.71490 1.93183e-17
4368.17493 1.82645e-17
4369.64517 1.53245e-17
4371.11541 1.49732e-17
4372.58565 1.88325e-17
4374.05589 2.11873e-17
4375.52613 2.01815e-17
4376.99637 1.82982e-17
4378.46661 1.58035e-17
4379.93685 1.77040e-17
4381.40709 1.64261e-17
4382.87733 1.93355e-17
4384.34757 1.97744e-17
4385.81781 1.75737e-17
4387.28805 1.59232e-17
4388.75829 1.65575e-17
4390.22853 1.61681e-17
4391.69877 1.43543e-17
4393.16901 1.41798e-17
4394.63925 1.58776e-17
4396.10949 1.49845e-17
4397.57973 1.65645e-17
4399.04997 1.63531e-17
4400.52021 1.70535e-17
4401.99045 1.93695e-17
4403.46069 1.93825e-17
4404.93093 1.85219e-17
4406.40117 1.78226e-17
4407.87141 1.77052e-17
4409.34165 1.69673e-17
4410.81189 1.78832e-17
4412.28213 1.72060e-17
4413.75237 1.74976e-17
4415.22261 1.59297e-17
4416.69285 1.62600e-17
4418.16309 1.97282e-17
4419.63333 1.76088e-17
4421.10357 1.63451e-17
4422.57381 1.59336e-17
4424.04405 1.56992e-17
4425.51429 1.79904e-17
4426.98453 1.76177e-17
4428.45477 1.31360e-17
4429.91480 1.61434e-17
4431.39525 1.90932e-17
4432.85528 1.65481e-17
4434.32552 1.30073e-17
4435.79576 1.33105e-17
4437.26600 1.53226e-17
4438.73624 1.60866e-17
4440.20648 1.41534e-17
4441.67672 1.39064e-17
4443.14696 1.42983e-17
4444.61720 1.23397e-17
4446.08744 1.53174e-17
4447.55768 1.26432e-17
4449.02792 1.22740e-17
4450.49816 1.45326e-17
4451.96840 1.52502e-17
4453.43864 1.26248e-17
4454.90888 1.32602e-17
4456.37912 1.26082e-17
4457.84936 1.36792e-17
4459.31960 1.43882e-17
4460.78984 1.31446e-17
4462.26008 1.20138e-17
4463.73032 8.87058e-18
4465.20056 1.04692e-17
4466.67080 1.18525e-17
4468.14104 1.23735e-17
4469.61128 1.22443e-17
4471.08152 1.22055e-17
4472.55176 1.29785e-17
4474.02200 1.16315e-17
4475.49224 1.11105e-17
4476.96248 1.16132e-17
4478.43272 1.22219e-17
4479.90296 1.20989e-17
4481.37320 1.16097e-17
4482.84344 1.22674e-17
4484.31368 1.18123e-17
4485.78392 1.37474e-17
4487.25416 1.49102e-17
4488.72440 1.23286e-17
4490.19464 1.13159e-17
4491.66488 1.23909e-17
4493.12491 1.21850e-17
4494.59515 1.08241e-17
4496.06539 1.05259e-17
4497.53563 1.34342e-17
4499.00587 1.39523e-17
4500.47611 1.22184e-17
4501.94635 1.01510e-17
4503.41659 1.02778e-17
4504.88683 1.45400e-17
4506.35707 1.55735e-17
4507.82731 1.26745e-17
4509.29755 1.02839e-17
4510.76779 1.12345e-17
4512.23803 1.29606e-17
4513.70827 1.18878e-17
4515.17851 1.13349e-17
4516.64875 1.04693e-17
4518.11899 1.05689e-17
4519.58923 1.20429e-17
4521.05947 1.19343e-17
4522.52971 1.24168e-17
4523.99995 1.34764e-17
4525.47019 1.18068e-17
4526.94043 1.01357e-17
4528.41067 1.32735e-17
4529.88091 1.41774e-17
4531.35115 1.17891e-17
4532.82139 1.21987e-17
4534.29163 1.23344e-17
4535.76187 1.07300e-17
4537.23211 1.00152e-17
4538.70235 1.15779e-17
4540.17259 1.31922e-17
4541.64283 1.22866e-17
4543.11307 1.36891e-17
4544.58331 1.44203e-17
4546.05355 1.41967e-17
4547.52379 1.31446e-17
4548.99403 1.16996e-17
4550.46427 1.31085e-17
4551.93451 1.31415e-17
4553.40475 1.27212e-17
4554.87499 1.25542e-17
4556.33502 1.31530e-17
4557.80526 1.42361e-17
4559.27550 1.27214e-17
4560.74574 1.30607e-17
4562.21598 1.36674e-17
4563.68622 1.31991e-17
4565.15646 1.44886e-17
4566.62670 1.89637e-17
4568.09694 2.04051e-17
4569.56718 1.67846e-17
4571.03742 1.50050e-17
4572.50766 1.57758e-17
4573.97790 1.66199e-17
4575.44814 1.83182e-17
4576.91838 1.83817e-17
4578.38862 1.78538e-17
4579.85886 1.43454e-17
4581.32910 1.37141e-17
4582.79934 1.63805e-17
4584.26958 1.46376e-17
4585.73982 1.44717e-17
4587.21006 1.68813e-17
4588.68030 1.72230e-17
4590.15054 1.74613e-17
4591.62078 1.72014e-17
4593.09102 1.63821e-17
4594.56126 1.67484e-17
4596.03150 1.97648e-17
4597.50174 1.83656e-17
4598.97198 1.63149e-17
4600.44222 1.76231e-17
4601.91246 1.75161e-17
4603.38270 1.95810e-17
4604.85294 2.24078e-17
4606.32318 1.89168e-17
4607.79342 1.88774e-17
4609.26366 1.90831e-17
4610.73390 1.83977e-17
4612.20414 1.92697e-17
4613.67438 1.80313e-17
4615.14462 2.07178e-17
4616.60465 2.10195e-17
4618.07489 1.96686e-17
4619.54513 2.04536e-17
4621.01537 2.03109e-17
4622.48561 1.96315e-17
4623.95585 2.02850e-17
4625.42609 2.01876e-17
4626.89633 1.90102e-17
4628.36657 2.04623e-17
4629.83681 2.24463e-17
4631.30705 2.20673e-17
4632.77729 2.17082e-17
4634.24753 2.07317e-17
4635.71777 2.01186e-17
4637.18801 2.13272e-17
4638.65825 2.05808e-17
4640.12849 2.01135e-17
4641.59873 1.92672e-17
4643.06897 2.02636e-17
4644.53921 2.23957e-17
4646.00945 2.42690e-17
4647.47969 2.24211e-17
4648.94993 1.97481e-17
4650.42017 2.04812e-17
4651.89041 2.15251e-17
4653.36065 2.29801e-17
4654.83089 2.25706e-17
4656.30113 2.10764e-17
4657.77137 1.97502e-17
4659.24161 2.09363e-17
4660.71185 2.22465e-17
4662.18209 2.21824e-17
4663.65233 2.25760e-17
4665.12257 2.35058e-17
4666.59281 2.25132e-17
4668.06305 2.08364e-17
4669.53329 2.23851e-17
4671.00353 2.51416e-17
4672.47377 2.28424e-17
4673.94401 2.24117e-17
4675.41425 2.30353e-17
4676.88449 2.36776e-17
4678.35473 2.53971e-17
4679.81476 2.38177e-17
4681.28500 2.18562e-17
4682.75524 2.05017e-17
4684.22548 2.10723e-17
4685.69572 2.20074e-17
4687.16596 2.22742e-17
4688.63620 2.10030e-17
4690.10644 2.28307e-17
4691.57668 2.21514e-17
4693.04692 2.29366e-17
4694.51716 2.18235e-17
4695.98740 2.15863e-17
4697.45764 2.35735e-17
4698.92788 2.35978e-17
4700.39812 2.29166e-17
4701.86836 2.37659e-17
4703.33860 2.20287e-17
4704.80884 2.25409e-17
4706.27908 2.48669e-17
4707.74932 2.21590e-17
4709.21956 2.13715e-17
4710.68980 2.19652e-17
4712.16004 2.29220e-17
4713.63028 2.19438e-17
4715.10052 2.16697e-17
4716.57076 2.22590e-17
4718.04100 2.03500e-17
4719.51124 2.09501e-17
4720.98148 2.38469e-17
4722.45172 2.49464e-17
4723.92196 2.13677e-17
4725.39220 2.12489e-17
4726.86244 2.46142e-17
4728.33268 2.42730e-17
4729.80292 2.14423e-17
4731.27316 2.10147e-17
4732.74340 2.35154e-17
4734.21364 2.20570e-17
4735.68388 2.33146e-17
4737.15412 2.30285e-17
4738.62436 2.25527e-17
4740.09460 2.30471e-17
4741.56484 2.22391e-17
4743.02487 2.20028e-17
4744.49511 2.04425e-17
4745.96535 2.17720e-17
4747.43559 2.29522e-17
4748.90583 2.09301e-17
4750.37607 1.92485e-17
4751.84631 2.06714e-17
4753.31655 2.21420e-17
4754.78679 2.37948e-17
4756.25703 2.19703e-17
4757.72727 1.92919e-17
4759.19751 2.22746e-17
4760.66775 2.24420e-17
4762.13799 2.05799e-17
4763.60823 2.18961e-17
4765.07847 2.26560e-17
4766.54871 1.99010e-17
4768.01895 1.93977e-17
4769.48919 2.03620e-17
4770.95943 2.02270e-17
4772.42967 2.10927e-17
4773.89991 2.07495e-17
4775.37015 2.07783e-17
4776.84039 2.11183e-17
4778.31063 2.17261e-17
4779.78087 2.00455e-17
4781.25111 1.86949e-17
4782.72135 1.94258e-17
4784.19159 2.19721e-17
4785.66183 2.18552e-17
4787.13207 2.05381e-17
4788.60231 2.05974e-17
4790.07255 2.04030e-17
4791.54279 2.04804e-17
4793.01303 2.17187e-17
4794.48327 2.26975e-17
4795.95351 2.03197e-17
4797.42375 2.01284e-17
4798.89399 1.94932e-17
4800.36423 1.94380e-17
4801.83447 2.05367e-17
4803.29450 1.96375e-17
4804.76474 1.98304e-17
4806.24519 1.93982e-17
4807.70522 1.90971e-17
4809.17546 1.99239e-17
4810.64570 2.19343e-17
4812.11594 2.02392e-17
4813.58618 1.80636e-17
4815.05642 1.87612e-17
4816.52666 1.77321e-17
4817.99690 1.69594e-17
4819.46714 1.74810e-17
4820.93738 1.79024e-17
4822.40762 1.82499e-17
4823.87786 1.73576e-17
4825.34810 1.64833e-17
4826.81834 1.66320e-17
4828.28858 1.76634e-17
4829.75882 1.81980e-17
4831.22906 1.74219e-17
4832.69930 1.72464e-17
4834.16954 1.65068e-17
4835.63978 1.70034e-17
4837.11002 1.76565e-17
4838.58026 1.73893e-17
4840.05050 1.70709e-17
4841.52074 1.52540e-17
4842.99098 1.39385e-17
4844.46122 1.38314e-17
4845.93146 1.29240e-17
4847.40170 1.33413e-17
4848.87194 1.43740e-17
4850.34218 1.38804e-17
4851.81242 1.23240e-17
4853.28266 1.10627e-17
4854.75290 1.17076e-17
4856.22314 1.32476e-17
4857.69338 1.20527e-17
4859.16362 1.08722e-17
4860.63386 1.20887e-17
4862.10410 1.21951e-17
4863.57434 1.18215e-17
4865.04458 1.25356e-17
4866.51482 1.38300e-17
4867.97485 1.39922e-17
4869.44509 1.13279e-17
4870.91533 1.05649e-17
4872.38557 1.21927e-17
4873.85581 1.25263e-17
4875.32605 1.28598e-17
4876.79629 1.31932e-17
4878.26653 1.35265e-17
4879.73677 1.38597e-17
4881.20701 1.38578e-17
4882.67725 1.30407e-17
4884.14749 1.22290e-17
4885.61773 1.19886e-17
4887.08797 1.23686e-17
4888.55821 1.20726e-17
4890.02845 1.20096e-17
4891.49869 1.10742e-17
4892.96893 9.76776e-18
4894.43917 1.08874e-17
4895.90941 1.26188e-17
4897.37965 1.21809e-17
4898.84989 1.09232e-17
4900.32013 1.02651e-17
4901.79037 1.07461e-17
4903.26061 1.16340e-17
4904.73085 1.13791e-17
4906.20109 1.11761e-17
4907.67133 1.11409e-17
4909.14157 9.37307e-18
4910.61181 1.11801e-17
4912.08205 1.30246e-17
4913.55229 1.21427e-17
4915.02253 1.13838e-17
4916.49277 1.06109e-17
4917.96301 1.02198e-17
4919.43325 1.09592e-17
4920.90349 1.14856e-17
4922.37373 1.19430e-17
4923.84397 1.29761e-17
4925.31421 1.22055e-17
4926.78445 1.01670e-17
4928.25469 1.04548e-17
4929.72493 1.10035e-17
4931.18496 1.22947e-17
4932.65520 1.26580e-17
4934.12544 1.21601e-17
4935.59568 1.17184e-17
4937.06592 1.12412e-17
4938.53616 1.18111e-17
4940.00640 1.29970e-17
4941.47664 1.29610e-17
4942.94688 1.19455e-17
4944.41712 1.27347e-17
4945.88736 1.23167e-17
4947.35760 1.08704e-17
4948.82784 1.05359e-17
4950.29808 1.12364e-17
4951.76832 1.18912e-17
4953.23856 1.15522e-17
4954.70880 1.03649e-17
4956.17904 1.00485e-17
4957.64928 1.21498e-17
4959.11952 1.24999e-17
4960.58976 1.01639e-17
4962.06000 1.00202e-17
4963.53024 1.05333e-17
4965.00048 1.03225e-17
4966.47072 1.10885e-17
4967.94096 1.13657e-17
4969.41120 1.07914e-17
4970.88144 1.08880e-17
4972.35168 1.15929e-17
4973.82192 1.17339e-17
4975.29216 9.66505e-18
4976.76240 8.23770e-18
4978.23264 1.06964e-17
4979.70288 1.38081e-17
4981.17312 1.28259e-17
4982.64336 1.02138e-17
4984.11360 9.63342e-18
4985.58384 1.06541e-17
4987.05408 1.15627e-17
4988.52432 1.12349e-17
4989.99456 1.16686e-17
4991.45459 1.24375e-17
4992.92483 1.36531e-17
4994.39507 1.24416e-17
4995.86531 1.04355e-17
4997.33555 1.20402e-17
4998.80579 1.24258e-17
5000.27603 1.26792e-17
5001.74627 1.26902e-17
5003.21651 1.31039e-17
5004.68675 1.35248e-17
5006.15699 1.22745e-17
5007.62723 1.28956e-17
5009.09747 1.32388e-17
5010.56771 1.16284e-17
5012.03795 1.24869e-17
5013.50819 1.36057e-17
5014.97843 1.41452e-17
5016.44867 1.50166e-17
5017.91891 1.34916e-17
5019.38915 1.48310e-17
5020.85939 1.61895e-17
5022.32963 1.30597e-17
5023.79987 1.27637e-17
5025.27011 1.45647e-17
5026.74035 1.53536e-17
5028.21059 1.61557e-17
5029.68083 1.66510e-17
5031.15107 1.66727e-17
5032.62131 1.49121e-17
5034.09155 1.49235e-17
5035.56179 1.49662e-17
5037.03203 1.45209e-17
5038.50227 1.64610e-17
5039.97251 1.65833e-17
5041.44275 1.47727e-17
5042.91299 1.45514e-17
5044.38323 1.61594e-17
5045.85347 1.93830e-17
5047.32371 1.92642e-17
5048.79395 1.75775e-17
5050.26419 1.85916e-17
5051.73443 1.73510e-17
5053.20467 1.57550e-17
5054.67491 1.70920e-17
5056.14515 1.73310e-17
5057.60518 1.50522e-17
5059.07542 1.41354e-17
5060.54566 1.78852e-17
5062.01590 2.06253e-17
5063.48614 1.79709e-17
5064.95638 1.63732e-17
5066.42662 1.59918e-17
5067.89686 1.51594e-17
5069.36710 1.60642e-17
5070.83734 1.78427e-17
5072.30758 1.76677e-17
5073.77782 1.65514e-17
5075.24806 1.68435e-17
5076.71830 1.73965e-17
5078.18854 1.67162e-17
5079.65878 1.57384e-17
5081.12902 1.63644e-17
5082.59926 1.78429e-17
5084.06950 1.82818e-17
5085.53974 1.74796e-17
5087.00998 1.60900e-17
5088.48022 1.28398e-17
5089.95046 1.06092e-17
5091.42070 1.19400e-17
5092.89094 1.27997e-17
5094.36118 1.24339e-17
5095.83142 1.37482e-17
5097.30166 1.46047e-17
5098.77190 1.19928e-17
5100.24214 1.08076e-17
5101.71238 1.16875e-17
5103.18262 1.19200e-17
5104.65286 1.31933e-17
5106.12310 1.36161e-17
5107.59334 1.31211e-17
5109.06358 1.18871e-17
5110.53382 1.13230e-17
5112.00406 1.33070e-17
5113.47430 1.31312e-17
5114.94454 1.18903e-17
5116.41478 1.27577e-17
5117.87481 1.24046e-17
5119.34505 1.16182e-17
5120.81529 1.22949e-17
5122.28553 1.17092e-17
5123.75577 1.08000e-17
5125.22601 1.18984e-17
5126.69625 1.29372e-17
5128.16649 1.11705e-17
5129.63673 8.88504e-18
5131.10697 8.98555e-18
5132.57721 1.02358e-17
5134.04745 1.03299e-17
5135.51769 1.01626e-17
5136.98793 1.11720e-17
5138.45817 1.01747e-17
5139.92841 9.26740e-18
5141.39865 1.07400e-17
5142.86889 1.20725e-17
5144.33913 1.22721e-17
5145.80937 1.22208e-17
5147.27961 1.19965e-17
5148.74985 1.09034e-17
5150.22009 1.12734e-17
5151.69033 1.21282e-17
5153.16057 1.17874e-17
5154.63081 1.26679e-17
5156.10105 1.30596e-17
5157.57129 1.18822e-17
5159.04153 1.14730e-17
5160.51177 1.09916e-17
5161.98201 1.14172e-17
5163.45225 1.18557e-17
5164.92249 1.14436e-17
5166.39273 1.24634e-17
5167.86297 1.30293e-17
5169.33321 1.38511e-17
5170.80345 1.41258e-17
5172.27369 1.30957e-17
5173.74393 1.38325e-17
5175.21417 1.40235e-17
5176.68441 1.33116e-17
5178.15465 1.39173e-17
5179.61468 1.49671e-17
5181.08492 1.32925e-17
5182.55516 1.17910e-17
5184.02540 1.32677e-17
5185.49564 1.31765e-17
5186.96588 1.36524e-17
5188.43612 1.36503e-17
5189.90636 1.16816e-17
5191.37660 1.26171e-17
5192.84684 1.45901e-17
5194.31708 1.55154e-17
5195.78732 1.42685e-17
5197.25756 1.25021e-17
5198.72780 1.25574e-17
5200.19804 1.31684e-17
5201.66828 1.57382e-17
5203.13852 1.64260e-17
5204.60876 1.43969e-17
5206.07900 1.40771e-17
5207.54924 1.36149e-17
5209.01948 1.31079e-17
5210.48972 1.50205e-17
5211.95996 1.63796e-17
5213.43020 1.54890e-17
5214.90044 1.50533e-17
5216.37068 1.43492e-17
5217.84092 1.46665e-17
5219.31116 1.55252e-17
5220.78140 1.39199e-17
5222.25164 1.24190e-17
5223.72188 1.28487e-17
5225.19212 1.44475e-17
5226.66236 1.59663e-17
5228.13260 1.46196e-17
5229.60284 1.28277e-17
5231.07308 1.41450e-17
5232.54332 1.49721e-17
5234.01356 1.48788e-17
5235.48380 1.52709e-17
5236.95404 1.52169e-17
5238.42428 1.39282e-17
5239.89452 1.36106e-17
5241.36476 1.44282e-17
5242.83500 1.49039e-17
5244.29503 1.55550e-17
5245.76527 1.43368e-17
5247.23551 1.37897e-17
5248.70575 1.49958e-17
5250.17599 1.48684e-17
5251.64623 1.42506e-17
5253.11647 1.47723e-17
5254.58671 1.51761e-17
5256.05695 1.40170e-17
5257.52719 1.40690e-17
5258.99743 1.52368e-17
5260.46767 1.62485e-17
5261.93791 1.53140e-17
5263.40815 1.43250e-17
5264.87839 1.37029e-17
5266.34863 1.31815e-17
5267.81887 1.49058e-17
5269.28911 1.59783e-17
5270.75935 1.55303e-17
5272.22959 1.61976e-17
5273.69983 1.57555e-17
5275.17007 1.41326e-17
5276.64031 1.60653e-17
5278.11055 1.67651e-17
5279.58079 1.53230e-17
5281.05103 1.44385e-17
5282.52127 1.49070e-17
5283.99151 1.49870e-17
5285.46175 1.44708e-17
5286.93199 1.50387e-17
5288.40223 1.57538e-17
5289.87247 1.55444e-17
5291.34271 1.52004e-17
5292.81295 1.63505e-17
5294.28319 1.75000e-17
5295.75343 1.53674e-17
5297.22367 1.35229e-17
5298.69391 1.27295e-17
5300.16415 1.32599e-17
5301.63439 1.40565e-17
5303.10463 1.35073e-17
5304.56466 1.54887e-17
5306.03490 1.53792e-17
5307.50514 1.39807e-17
5308.97538 1.55221e-17
5310.44562 1.75949e-17
5311.91586 1.64815e-17
5313.38610 1.41831e-17
5314.85634 1.61463e-17
5316.32658 1.69609e-17
5317.79682 1.54235e-17
5319.26706 1.63336e-17
5320.73730 1.72027e-17
5322.20754 1.72551e-17
5323.67778 1.56706e-17
5325.14802 1.55582e-17
5326.61826 1.74890e-17
5328.08850 1.79479e-17
5329.55874 1.68533e-17
5331.02898 1.69455e-17
5332.49922 1.68582e-17
5333.96946 1.75942e-17
5335.43970 1.96114e-17
5336.90994 1.93241e-17
5338.38018 1.73800e-17
5339.85042 1.79757e-17
5341.32066 1.85638e-17
5342.79090 1.92000e-17
5344.26114 1.84120e-17
5345.73138 1.73669e-17
5347.20162 1.77804e-17
5348.67186 1.74308e-17
5350.14210 1.93039e-17
5351.61234 1.97571e-17
5353.08258 1.78140e-17
5354.55282 1.82981e-17
5356.02306 1.95711e-17
5357.49330 1.96959e-17
5358.96354 1.94520e-17
5360.43378 1.90047e-17
5361.90402 1.90379e-17
5363.37426 1.87101e-17
5364.84450 1.95053e-17
5366.31474 2.04782e-17
5367.78498 2.05022e-17
5369.24501 1.99427e-17
5370.71525 2.08391e-17
5372.18549 2.17926e-17
5373.65573 2.03189e-17
5375.12597 1.98819e-17
5376.59621 1.83468e-17
5378.06645 1.84252e-17
5379.53669 2.01351e-17
5381.00693 1.96863e-17
5382.47717 2.08357e-17
5383.94741 2.12489e-17
5385.41765 1.84476e-17
5386.88789 1.86434e-17
5388.35813 1.99600e-17
5389.82837 2.07400e-17
5391.29861 2.16718e-17
5392.76885 2.11962e-17
5394.23909 1.92954e-17
5395.70933 2.08613e-17
5397.17957 2.10951e-17
5398.64981 1.99572e-17
5400.12005 2.03191e-17
5401.59029 1.95874e-17
5403.06053 1.90605e-17
5404.53077 1.92551e-17
5406.00101 1.95262e-17
5407.47125 1.86979e-17
5408.94149 1.86780e-17
5410.41173 2.07456e-17
5411.88197 1.99395e-17
5413.35221 2.00796e-17
5414.82245 2.00428e-17
5416.29269 2.07713e-17
5417.76293 2.16451e-17
5419.23317 2.12965e-17
5420.70341 2.03797e-17
5422.17365 1.86534e-17
5423.64389 1.88345e-17
5425.11413 2.03011e-17
5426.58437 1.97057e-17
5428.05461 1.90606e-17
5429.52485 1.98248e-17
5430.99509 2.05358e-17
5432.45512 1.90695e-17
5433.92536 2.11388e-17
5435.39560 2.10089e-17
5436.86584 1.97513e-17
5438.33608 1.90927e-17
5439.80632 2.01771e-17
5441.27656 1.91727e-17
5442.74680 1.89921e-17
5444.21704 2.04843e-17
5445.68728 2.00788e-17
5447.15752 1.92515e-17
5448.62776 1.96488e-17
5450.09800 2.07556e-17
5451.56824 2.09278e-17
5453.03848 2.03452e-17
5454.50872 2.05253e-17
5455.97896 1.93519e-17
5457.44920 1.99420e-17
5458.91944 2.01821e-17
5460.38968 1.90753e-17
5461.85992 2.12050e-17
5463.33016 2.12684e-17
5464.80040 1.98979e-17
5466.27064 1.96810e-17
5467.74088 1.99112e-17
5469.21112 1.92440e-17
5470.68136 1.80526e-17
5472.15160 1.72022e-17
5473.62184 1.65735e-17
5475.09208 1.71774e-17
5476.56232 1.84072e-17
5478.03256 1.93182e-17
5479.50280 1.91601e-17
5480.97304 1.89598e-17
5482.44328 1.86732e-17
5483.91352 1.83630e-17
5485.38376 1.87082e-17
5486.85400 1.87013e-17
5488.32424 1.82379e-17
5489.79448 1.81283e-17
5491.25451 1.83862e-17
5492.72475 1.94389e-17
5494.19499 1.99661e-17
5495.66523 1.97910e-17
5497.13547 2.01004e-17
5498.60571 1.93952e-17
5500.07595 1.92844e-17
5501.54619 1.93702e-17
5503.01643 1.76915e-17
5504.48667 1.85980e-17
5505.95691 1.88165e-17
5507.42715 1.77928e-17
5508.89739 1.71806e-17
5510.36763 1.65883e-17
5511.83787 1.76405e-17
5513.30811 1.94304e-17
5514.77835 1.92811e-17
5516.24859 1.66768e-17
5517.71883 1.82488e-17
5519.18907 2.07581e-17
5520.65931 1.89419e-17
5522.12955 1.87320e-17
5523.59979 1.98265e-17
5525.07003 1.89822e-17
5526.54027 1.75585e-17
5528.01051 1.84665e-17
5529.48075 1.99304e-17
5530.95099 1.91867e-17
5532.42123 1.74771e-17
5533.89147 1.62539e-17
5535.36171 1.78341e-17
5536.83195 2.00228e-17
5538.30219 2.03545e-17
5539.77243 1.87820e-17
5541.24267 1.81429e-17
5542.71291 1.86084e-17
5544.18315 1.90864e-17
5545.65339 1.73234e-17
5547.12363 1.75139e-17
5548.59387 1.92914e-17
5550.06411 1.91163e-17
5551.53435 1.79275e-17
5553.00459 1.85260e-17
5554.47483 1.71583e-17
5555.94507 1.62352e-17
5557.40510 1.65015e-17
5558.87534 1.69409e-17
5560.34558 1.86250e-17
5561.81582 1.93981e-17
5563.28606 1.87146e-17
5564.75630 1.90168e-17
5566.22654 1.94437e-17
5567.69678 1.94640e-17
5569.16702 1.93532e-17
5570.63726 1.80586e-17
5572.10750 1.76604e-17
5573.57774 2.09949e-17
5575.04798 2.03282e-17
5576.51822 1.85165e-17
5577.98846 2.02890e-17
5579.45870 2.07405e-17
5580.92894 1.93363e-17
5582.39918 1.82498e-17
5583.86942 1.80400e-17
5585.33966 1.81601e-17
5586.80990 1.71553e-17
5588.28014 1.84717e-17
5589.75038 1.95074e-17
5591.22062 1.86321e-17
5592.69086 1.95013e-17
5594.16110 1.83189e-17
5595.63134 1.70486e-17
5597.10158 1.74394e-17
5598.57182 1.75883e-17
5600.04206 1.75336e-17
5601.51230 1.69082e-17
5602.98254 1.63507e-17
5604.45278 1.61110e-17
5605.92302 1.63420e-17
5607.39326 1.70963e-17
5608.86350 1.75297e-17
5610.33374 1.85738e-17
5611.80398 1.88100e-17
5613.27422 1.71313e-17
5614.74446 1.76842e-17
5616.21470 1.71498e-17
5617.68494 1.71034e-17
5619.14497 1.67894e-17
5620.61521 1.53318e-17
5622.08545 1.63116e-17
5623.55569 1.68525e-17
5625.02593 1.65065e-17
5626.49617 1.70598e-17
5627.96641 1.70045e-17
5629.43665 1.69211e-17
5630.90689 1.77070e-17
5632.37713 1.77395e-17
5633.84737 1.75790e-17
5635.31761 1.70754e-17
5636.78785 1.63627e-17
5638.25809 1.77700e-17
5639.72833 1.62019e-17
5641.19857 1.57797e-17
5642.66881 1.64690e-17
5644.13905 1.59247e-17
5645.60929 1.78103e-17
5647.07953 1.68176e-17
5648.54977 1.58363e-17
5650.02001 1.76591e-17
5651.49025 1.73984e-17
5652.96049 1.64923e-17
5654.43073 1.43890e-17
5655.90097 1.61057e-17
5657.37121 1.75936e-17
5658.84145 1.71145e-17
5660.31169 1.61344e-17
5661.78193 1.47356e-17
5663.25217 1.48696e-17
5664.72241 1.45488e-17
5666.19265 1.48261e-17
5667.66289 1.70157e-17
5669.13313 1.44141e-17
5670.60337 1.35204e-17
5672.07361 1.53045e-17
5673.54385 1.65414e-17
5675.01409 1.85606e-17
5676.48433 1.67536e-17
5677.95457 1.51823e-17
5679.41460 1.50794e-17
5680.88484 1.35139e-17
5682.35508 1.60357e-17
5683.82532 1.74408e-17
5685.29556 1.42204e-17
5686.76580 1.35091e-17
5688.23604 1.69486e-17
5689.70628 1.63175e-17
5691.17652 1.32944e-17
5692.64676 1.28291e-17
5694.11700 1.53473e-17
5695.58724 1.56423e-17
5697.05748 1.57851e-17
5698.52772 1.53601e-17
5699.99796 1.47565e-17
5701.46820 1.49244e-17
5702.93844 1.34091e-17
5704.40868 1.52069e-17
5705.87892 1.58696e-17
5707.34916 1.42237e-17
5708.81940 1.38321e-17
5710.28964 1.55930e-17
5711.75988 1.48616e-17
5713.23012 1.48278e-17
5714.70036 1.38581e-17
5716.17060 1.20762e-17
5717.64084 1.18992e-17
5719.11108 1.17770e-17
5720.58132 1.37694e-17
5722.05156 1.29122e-17
5723.52180 1.26427e-17
5724.99204 1.37599e-17
5726.46228 1.19609e-17
5727.93252 1.12908e-17
5729.40276 1.34364e-17
5730.87300 1.30140e-17
5732.34324 1.17102e-17
5733.81348 1.32651e-17
5735.28372 1.38488e-17
5736.75396 1.29437e-17
5738.22420 1.27357e-17
5739.69444 1.17721e-17
5741.16468 1.26172e-17
5742.63492 1.19784e-17
5744.10516 1.21718e-17
5745.56519 1.24660e-17
5747.03543 1.15129e-17
5748.50567 1.16824e-17
5749.97591 1.20554e-17
5751.44615 1.21910e-17
5752.91639 1.12312e-17
5754.38663 1.07174e-17
5755.85687 1.08058e-17
5757.32711 1.06453e-17
5758.79735 9.73281e-18
5760.26759 9.30681e-18
5761.73783 9.58656e-18
5763.20807 9.00666e-18
5764.67831 9.19460e-18
5766.14855 8.38907e-18
5767.61879 7.79241e-18
5769.08903 9.42073e-18
5770.55927 7.98856e-18
5772.02951 7.12809e-18
5773.49975 8.45400e-18
5774.96999 8.03776e-18
5776.44023 9.46466e-18
5777.91047 1.06395e-17
5779.38071 9.25851e-18
5780.85095 8.53466e-18
5782.32119 8.36806e-18
5783.79143 9.43977e-18
5785.26167 9.93437e-18
5786.73191 9.19146e-18
5788.20215 9.78510e-18
5789.67239 1.02833e-17
5791.14263 8.95332e-18
5792.61287 9.27090e-18
5794.08311 7.80956e-18
5795.55335 8.57065e-18
5797.02359 1.01695e-17
5798.49383 8.84395e-18
5799.96407 9.31179e-18
5801.43431 9.11551e-18
5802.90455 1.03331e-17
5804.37479 9.78775e-18
5805.83482 8.92018e-18
5807.30506 9.75917e-18
5808.77530 9.89907e-18
5810.24554 9.01179e-18
5811.71578 8.38682e-18
5813.18602 9.95356e-18
5814.65626 9.07328e-18
5816.12650 9.23932e-18
5817.59674 9.81409e-18
5819.06698 1.08641e-17
5820.53722 7.98526e-18
5822.00746 9.60305e-18
5823.47770 9.18054e-18
5824.94794 7.93142e-18
5826.41818 9.39696e-18
5827.88842 9.51162e-18
5829.35866 9.45823e-18
5830.82890 9.87204e-18
5832.29914 1.01903e-17
5833.76938 1.07216e-17
5835.23962 1.10889e-17
5836.70986 8.20048e-18
5838.18010 7.18835e-18
5839.65034 7.47768e-18
5841.12058 9.37002e-18
5842.59082 1.15006e-17
5844.06106 9.68116e-18
5845.53130 9.89403e-18
5847.00154 1.11696e-17
5848.47178 1.05711e-17
5849.94202 1.08173e-17
5851.41226 1.01450e-17
5852.88250 9.66709e-18
5854.35274 1.20887e-17
5855.82298 1.06979e-17
5857.29322 1.07060e-17
5858.76346 1.31284e-17
5860.23370 1.12835e-17
5861.70394 9.25680e-18
5863.17418 1.27044e-17
5864.64442 1.12581e-17
5866.11466 1.21397e-17
5867.58490 1.23495e-17
5869.04493 1.18087e-17
5870.51517 1.17367e-17
5871.98541 1.24267e-17
5873.45565 1.17791e-17
5874.92589 1.16596e-17
5876.39613 1.14605e-17
5877.86637 1.07292e-17
5879.33661 1.26478e-17
5880.80685 1.26816e-17
5882.27709 1.32814e-17
5883.74733 1.43794e-17
5885.21757 1.35795e-17
5886.68781 1.41070e-17
5888.15805 1.17464e-17
5889.62829 1.01155e-17
5891.09853 1.30539e-17
5892.56877 1.09028e-17
5894.03901 1.27456e-17
5895.50925 1.25725e-17
5896.97949 1.17321e-17
5898.44973 1.08457e-17
5899.91997 1.12411e-17
5901.39021 1.31443e-17
5902.86045 1.19775e-17
5904.33069 1.32041e-17
5905.80093 1.44391e-17
5907.27117 1.49400e-17
5908.74141 1.28763e-17
5910.21165 1.39295e-17
5911.68189 1.50267e-17
5913.15213 1.49731e-17
5914.62237 1.49877e-17
5916.09261 1.46828e-17
5917.56285 1.44447e-17
5919.03309 1.45700e-17
5920.50333 1.41249e-17
5921.97357 1.56122e-17
5923.44381 1.43118e-17
5924.91405 1.56165e-17
5926.38429 1.43783e-17
5927.85453 1.39281e-17
5929.32477 1.53322e-17
5930.79501 1.41499e-17
5932.25504 1.51654e-17
5933.72528 1.53827e-17
5935.19552 1.65681e-17
5936.66576 1.77140e-17
5938.13600 1.63262e-17
5939.60624 1.66985e-17
5941.07648 1.64500e-17
5942.54672 1.52087e-17
5944.01696 1.50214e-17
5945.48720 1.48667e-17
5946.95744 1.50649e-17
5948.42768 1.54508e-17
5949.89792 1.46667e-17
5951.36816 1.59582e-17
5952.83840 1.70406e-17
5954.30864 1.77510e-17
5955.77888 1.64788e-17
5957.24912 1.72996e-17
5958.71936 1.71228e-17
5960.18960 1.61432e-17
5961.65984 1.76413e-17
5963.13008 1.64140e-17
5964.60032 1.51034e-17
5966.07056 1.53773e-17
5967.54080 1.55864e-17
5969.01104 1.72861e-17
5970.48128 1.78665e-17
5971.95152 1.74644e-17
5973.42176 1.74316e-17
5974.89200 1.74077e-17
5976.36224 1.75452e-17
5977.83248 1.67768e-17
5979.30272 1.63695e-17
5980.77296 1.72461e-17
5982.24320 1.68453e-17
5983.71344 1.47973e-17
5985.18368 1.51156e-17
5986.65392 1.65961e-17
5988.12416 1.61107e-17
5989.59440 1.63535e-17
5991.06464 1.75720e-17
5992.52467 1.54109e-17
5993.99491 1.58560e-17
5995.46515 1.69553e-17
5996.93539 1.60884e-17
5998.40563 1.54339e-17
5999.87587 1.59095e-17
6001.34611 1.65619e-17
6002.81635 1.68794e-17
6004.28659 1.52563e-17
6005.75683 1.64383e-17
6007.22707 1.72325e-17
6008.69731 1.71875e-17
6010.16755 1.78682e-17
6011.63779 1.67518e-17
6013.10803 1.64888e-17
6014.57827 1.58117e-17
6016.04851 1.32143e-17
6017.51875 1.12296e-17
6018.98899 1.31029e-17
6020.45923 1.48891e-17
6021.92947 1.47921e-17
6023.39971 1.46084e-17
6024.86995 1.46521e-17
6026.34019 1.65167e-17
6027.81043 1.72157e-17
6029.28067 1.66874e-17
6030.75091 1.77206e-17
6032.22115 1.67694e-17
6033.69139 1.51530e-17
6035.16163 1.73058e-17
6036.63187 1.59614e-17
6038.10211 1.74291e-17
6039.57235 1.80388e-17
6041.04259 1.71131e-17
6042.51283 1.57926e-17
6043.98307 1.57736e-17
6045.45331 1.41035e-17
6046.92355 1.52264e-17
6048.39379 1.54279e-17
6049.86403 1.62772e-17
6051.33427 1.68294e-17
6052.80451 1.45632e-17
6054.27475 1.43498e-17
6055.74499 1.72599e-17
6057.20502 1.66159e-17
6058.67526 1.58885e-17
6060.14550 1.55344e-17
6061.61574 1.43937e-17
6063.08598 1.54045e-17
6064.55622 1.54688e-17
6066.02646 1.31821e-17
6067.49670 1.49857e-17
6068.96694 1.50752e-17
6070.43718 1.49962e-17
6071.90742 1.26179e-17
6073.37766 1.57019e-17
6074.84790 1.59449e-17
6076.31814 1.54118e-17
6077.78838 1.67153e-17
6079.25862 1.58932e-17
6080.72886 1.66955e-17
6082.19910 1.64650e-17
6083.66934 1.59230e-17
6085.13958 1.52414e-17
6086.60982 1.30405e-17
6088.08006 1.41629e-17
6089.55030 1.64350e-17
6091.02054 1.57356e-17
6092.49078 1.38093e-17
6093.96102 1.55541e-17
6095.43126 1.48750e-17
6096.90150 1.58431e-17
6098.37174 1.59159e-17
6099.84198 1.54278e-17
6101.31222 1.34943e-17
6102.78246 1.45164e-17
6104.25270 1.64456e-17
6105.72294 1.37601e-17
6107.19318 1.39964e-17
6108.66342 1.51530e-17
6110.13366 1.46633e-17
6111.60390 1.45356e-17
6113.07414 1.43882e-17
6114.54438 1.48210e-17
6116.00441 1.49957e-17
6117.48486 1.39956e-17
6118.95510 1.36839e-17
6120.41513 1.38214e-17
6121.88537 1.33707e-17
6123.35561 1.39363e-17
6124.82585 1.37593e-17
6126.29609 1.38788e-17
6127.76633 1.45027e-17
6129.23657 1.58748e-17
6130.70681 1.32983e-17
6132.17705 1.35242e-17
6133.64729 1.41523e-17
6135.11753 1.50113e-17
6136.58777 1.46216e-17
6138.05801 1.47132e-17
6139.52825 1.44336e-17
6140.99849 1.35384e-17
6142.46873 1.36909e-17
6143.93897 1.40673e-17
6145.40921 1.35053e-17
6146.87945 1.38393e-17
6148.34969 1.34962e-17
6149.81993 1.48854e-17
6151.29017 1.51081e-17
6152.76041 1.37394e-17
6154.23065 1.35110e-17
6155.70089 1.30633e-17
6157.17113 1.23071e-17
6158.64137 1.20837e-17
6160.11161 1.35087e-17
6161.58185 1.46151e-17
6163.05209 1.49404e-17
6164.52233 1.45853e-17
6165.99257 1.45602e-17
6167.46281 1.35284e-17
6168.93305 1.26633e-17
6170.40329 1.34522e-17
6171.87353 1.30655e-17
6173.34377 1.22806e-17
6174.81401 1.21424e-17
6176.28425 1.29170e-17
6177.75449 1.23932e-17
6179.22473 1.19063e-17
6180.68476 1.26231e-17
6182.15500 1.29609e-17
6183.62524 1.27087e-17
6185.09548 1.13224e-17
6186.56572 1.15759e-17
6188.03596 1.28657e-17
6189.50620 1.36577e-17
6190.97644 1.32473e-17
6192.44668 1.18645e-17
6193.91692 1.19740e-17
6195.38716 1.27788e-17
6196.85740 1.27978e-17
6198.32764 1.29843e-17
6199.79788 1.35149e-17
6201.26812 1.46647e-17
6202.73836 1.20500e-17
6204.20860 9.83983e-18
6205.67884 1.06013e-17
6207.14908 1.08486e-17
6208.61932 1.34643e-17
6210.08956 1.37103e-17
6211.55980 1.50581e-17
6213.03004 1.34280e-17
6214.50028 1.06873e-17
6215.97052 1.28668e-17
6217.44076 1.21452e-17
6218.91100 1.17045e-17
6220.38124 1.39582e-17
6221.85148 1.39725e-17
6223.32172 1.28405e-17
6224.79196 1.20719e-17
6226.26220 1.33563e-17
6227.73244 1.33590e-17
6229.20268 1.24474e-17
6230.67292 1.20396e-17
6232.14316 1.18068e-17
6233.61340 1.25507e-17
6235.08364 1.16947e-17
6236.55388 1.19636e-17
6238.02412 1.08259e-17
6239.49436 1.37636e-17
6240.96460 1.45354e-17
6242.43484 1.35092e-17
6243.89487 1.47951e-17
6245.36511 1.39192e-17
6246.83535 1.38729e-17
6248.30559 1.41246e-17
6249.77583 1.34834e-17
6251.24607 1.20168e-17
6252.71631 1.31203e-17
6254.18655 1.44616e-17
6255.65679 1.27485e-17
6257.12703 1.21538e-17
6258.59727 1.36602e-17
6260.06751 1.33245e-17
6261.53775 1.15061e-17
6263.00799 1.30479e-17
6264.47823 1.27363e-17
6265.94847 1.30512e-17
6267.41871 1.38834e-17
6268.88895 1.42884e-17
6270.35919 1.26226e-17
6271.82943 1.34033e-17
6273.29967 1.30943e-17
6274.76991 1.30537e-17
6276.24015 1.19197e-17
6277.71039 1.28978e-17
6279.18063 1.25517e-17
6280.65087 1.23331e-17
6282.12111 1.24780e-17
6283.59135 1.31535e-17
6285.06159 1.36830e-17
6286.53183 1.30407e-17
6288.00207 1.27818e-17
6289.47231 1.19825e-17
6290.94255 1.22057e-17
6292.41279 1.10907e-17
6293.88303 1.01863e-17
6295.35327 1.09912e-17
6296.82351 1.15639e-17
6298.29375 1.32924e-17
6299.76399 1.36229e-17
6301.23423 1.09496e-17
6302.70447 8.83736e-18
6304.17471 1.17433e-17
6305.64495 1.04275e-17
6307.10498 1.06199e-17
6308.57522 1.05485e-17
6310.04546 1.15104e-17
6311.51570 1.19309e-17
6312.98594 1.17388e-17
6314.45618 1.17583e-17
6315.92642 1.32157e-17
6317.39666 1.19818e-17
6318.86690 1.02727e-17
6320.33714 1.03394e-17
6321.80738 1.08483e-17
6323.27762 1.12465e-17
6324.74786 1.02574e-17
6326.21810 9.97233e-18
6327.68834 1.13802e-17
6329.15858 1.09339e-17
6330.62882 9.56083e-18
6332.09906 9.38783e-18
6333.56930 1.03132e-17
6335.03954 1.09657e-17
6336.50978 1.05916e-17
6337.98002 1.01524e-17
6339.45026 1.03282e-17
6340.92050 9.55836e-18
6342.39074 1.04208e-17
6343.86098 1.12152e-17
6345.33122 9.77337e-18
6346.80146 9.40922e-18
6348.27170 9.94263e-18
6349.74194 8.55910e-18
6351.21218 9.52000e-18
6352.68242 1.07821e-17
6354.15266 1.15356e-17
6355.62290 1.16764e-17
6357.09314 9.28112e-18
6358.56338 9.77659e-18
6360.03362 1.12712e-17
6361.50386 1.05532e-17
6362.97410 9.61971e-18
6364.44434 1.05877e-17
6365.91458 1.12475e-17
6367.38482 1.01058e-17
6368.84485 1.04763e-17
6370.31509 1.03875e-17
6371.78533 1.10334e-17
6373.25557 1.08455e-17
6374.72581 9.31643e-18
6376.19605 8.74498e-18
6377.66629 8.71196e-18
6379.13653 1.03447e-17
6380.60677 1.13942e-17
6382.07701 1.10008e-17
6383.54725 1.00561e-17
6385.01749 1.06514e-17
6386.48773 1.12806e-17
6387.95797 1.03985e-17
6389.42821 1.09741e-17
6390.89845 1.11651e-17
6392.36869 9.21773e-18
6393.83893 9.30329e-18
6395.30917 1.12953e-17
6396.77941 1.17309e-17
6398.24965 1.11454e-17
6399.71989 1.17399e-17
6401.19013 1.03191e-17
6402.66037 1.01918e-17
6404.13061 1.15848e-17
6405.60085 1.09100e-17
6407.07109 1.11601e-17
6408.54133 1.15155e-17
6410.01157 1.07075e-17
6411.48181 1.02972e-17
6412.95205 9.64002e-18
6414.42229 1.04547e-17
6415.89253 1.13118e-17
6417.36277 1.21093e-17
6418.83301 1.10278e-17
6420.30325 9.94079e-18
6421.77349 1.04217e-17
6423.24373 9.42320e-18
6424.71397 9.50434e-18
6426.18421 1.09028e-17
6427.65445 1.21723e-17
6429.12469 1.17555e-17
6430.58472 1.13133e-17
6432.05496 1.10380e-17
6433.52520 1.05362e-17
6434.99544 1.07799e-17
6436.46568 1.03136e-17
6437.93592 1.17205e-17
6439.40616 1.05851e-17
6440.87640 1.17558e-17
6442.34664 1.26801e-17
6443.81688 1.33017e-17
6445.28712 1.08175e-17
6446.75736 1.12652e-17
6448.22760 1.07737e-17
6449.69784 1.19073e-17
6451.16808 1.08152e-17
6452.63832 1.27901e-17
6454.10856 1.22936e-17
6455.57880 1.13753e-17
6457.04904 1.20858e-17
6458.51928 1.28529e-17
6459.98952 1.12172e-17
6461.45976 1.22280e-17
6462.93000 1.23620e-17
6464.40024 1.19151e-17
6465.87048 1.16889e-17
6467.34072 1.17514e-17
6468.81096 1.27069e-17
6470.28120 1.40022e-17
6471.75144 1.43891e-17
6473.22168 1.30751e-17
6474.69192 1.22811e-17
6476.16216 1.20368e-17
6477.63240 1.14490e-17
6479.10264 1.30221e-17
6480.57288 1.18479e-17
6482.04312 1.27506e-17
6483.51336 1.20095e-17
6484.98360 1.27391e-17
6486.45384 1.29652e-17
6487.92408 1.21730e-17
6489.39432 1.29352e-17
6490.86456 1.41006e-17
6492.33480 1.24390e-17
6493.79483 1.21369e-17
6495.26507 1.36385e-17
6496.73531 1.18774e-17
6498.20555 1.26749e-17
6499.67579 1.41435e-17
6501.14603 1.31388e-17
6502.61627 1.17965e-17
6504.08651 1.34590e-17
6505.55675 1.32924e-17
6507.02699 1.21254e-17
6508.49723 1.21040e-17
6509.96747 1.30879e-17
6511.43771 1.32485e-17
6512.90795 1.22031e-17
6514.37819 1.06964e-17
6515.84843 1.21917e-17
6517.31867 1.36245e-17
6518.78891 1.29756e-17
6520.25915 1.19029e-17
6521.72939 1.24157e-17
6523.19963 1.28633e-17
6524.66987 1.31955e-17
6526.14011 1.04672e-17
6527.61035 1.09200e-17
6529.08059 1.30328e-17
6530.55083 1.28737e-17
6532.02107 1.23153e-17
6533.49131 1.23348e-17
6534.96155 1.11742e-17
6536.43179 1.25233e-17
6537.90203 1.33589e-17
6539.37227 1.41209e-17
6540.84251 1.29823e-17
6542.31275 1.27390e-17
6543.78299 1.23674e-17
6545.25323 1.24483e-17
6546.72347 1.08156e-17
6548.19371 1.12223e-17
6549.66395 1.22138e-17
6551.13419 1.00772e-17
6552.60443 1.01316e-17
6554.07467 1.26368e-17
6555.54491 1.17626e-17
6557.00494 1.16496e-17
6558.47518 1.36039e-17
6559.94542 1.22382e-17
6561.41566 1.24411e-17
6562.88590 1.14581e-17
6564.35614 1.03259e-17
6565.82638 1.13266e-17
6567.29662 1.09755e-17
6568.76686 1.15760e-17
6570.23710 1.18339e-17
6571.70734 1.13239e-17
6573.17758 1.04121e-17
6574.64782 1.14780e-17
6576.11806 1.11782e-17
6577.58830 9.33333e-18
6579.05854 1.00373e-17
6580.52878 1.12825e-17
6581.99902 1.06167e-17
6583.46926 1.00694e-17
6584.93950 1.14671e-17
6586.40974 1.19350e-17
6587.87998 1.05288e-17
6589.35022 1.04279e-17
6590.82046 1.05990e-17
6592.29070 1.10402e-17
6593.76094 1.19719e-17
6595.23118 9.51261e-18
6596.70142 9.01103e-18
6598.17166 1.06550e-17
6599.64190 1.06402e-17
6601.11214 1.04978e-17
6602.58238 1.05618e-17
6604.05262 1.06383e-17
6605.52286 1.10273e-17
6606.99310 1.02272e-17
6608.46334 1.02656e-17
6609.93358 1.00678e-17
6611.40382 9.60534e-18
6612.87406 9.94046e-18
6614.34430 1.09755e-17
6615.81454 1.11914e-17
6617.27457 1.03024e-17
6618.74481 1.02511e-17
6620.21505 1.09065e-17
6621.68529 9.78794e-18
6623.15553 7.67427e-18
6624.62577 8.12983e-18
6626.09601 1.04981e-17
6627.56625 1.24768e-17
6629.03649 1.01366e-17
6630.50673 1.07094e-17
6631.97697 1.16980e-17
6633.44721 1.06719e-17
6634.91745 9.55391e-18
6636.38769 9.03319e-18
6637.85793 7.92553e-18
6639.32817 9.17417e-18
6640.79841 9.74871e-18
6642.26865 1.13254e-17
6643.73889 1.11972e-17
6645.20913 9.73224e-18
6646.67937 9.98416e-18
6648.14961 1.09562e-17
6649.61985 1.18636e-17
6651.09009 1.05541e-17
6652.56033 9.29601e-18
6654.03057 1.03203e-17
6655.50081 1.08473e-17
6656.97105 1.06600e-17
6658.44129 1.10007e-17
6659.91153 1.08264e-17
6661.38177 1.01894e-17
6662.85201 1.10002e-17
6664.32225 1.12675e-17
6665.79249 9.98994e-18
6667.26273 1.15565e-17
6668.73297 1.29389e-17
6670.20321 1.10698e-17
6671.67345 9.81070e-18
6673.14369 1.18809e-17
6674.61393 1.23348e-17
6676.08417 1.21511e-17
6677.55441 1.27061e-17
6679.02465 1.20775e-17
6680.49489 1.07527e-17
6681.95492 1.07173e-17
6683.42516 1.15205e-17
6684.89540 1.20702e-17
6686.36564 1.26173e-17
6687.83588 1.14261e-17
6689.30612 1.18409e-17
6690.77636 1.17666e-17
6692.24660 1.15247e-17
6693.71684 1.20481e-17
6695.18708 1.31498e-17
6696.65732 1.38288e-17
6698.12756 1.16118e-17
6699.59780 1.37206e-17
6701.06804 1.47486e-17
6702.53828 1.28940e-17
6704.00852 1.20971e-17
6705.47876 1.23651e-17
6706.94900 1.18274e-17
6708.41924 1.12752e-17
6709.88948 1.28450e-17
6711.35972 1.26914e-17
6712.82996 1.22223e-17
6714.30020 1.25719e-17
6715.77044 1.24596e-17
6717.24068 1.24269e-17
6718.71092 1.24273e-17
6720.18116 1.38874e-17
6721.65140 1.44367e-17
6723.12164 1.36787e-17
6724.59188 1.32755e-17
6726.06212 1.17874e-17
6727.53236 1.13403e-17
6729.00260 1.29563e-17
6730.47284 1.16525e-17
6731.94308 1.13808e-17
6733.41332 1.13062e-17
6734.88356 1.28203e-17
6736.35380 1.39013e-17
6737.82404 1.49814e-17
6739.29428 1.27771e-17
6740.76452 1.30514e-17
6742.23476 1.47247e-17
6743.70500 1.22104e-17
6745.16503 1.17316e-17
6746.63527 1.37696e-17
6748.10551 1.26698e-17
6749.57575 1.22903e-17
6751.04599 1.25362e-17
6752.51623 1.27921e-17
6753.98647 1.32183e-17
6755.45671 1.15046e-17
6756.92695 1.21159e-17
6758.39719 1.35523e-17
6759.86743 1.33580e-17
6761.33767 1.17880e-17
6762.80791 1.20590e-17
6764.27815 1.34541e-17
6765.74839 1.20679e-17
6767.21863 1.21456e-17
6768.68887 1.31050e-17
6770.15911 1.21721e-17
6771.62935 1.23961e-17
6773.09959 1.20308e-17
6774.56983 1.21074e-17
6776.04007 1.27960e-17
6777.51031 1.21741e-17
6778.98055 1.14223e-17
6780.45079 1.21082e-17
6781.92103 1.35035e-17
6783.39127 1.23665e-17
6784.86151 1.19790e-17
6786.33175 1.35728e-17
6787.80199 1.31371e-17
6789.27223 1.16622e-17
6790.74247 1.18262e-17
6792.21271 1.23564e-17
6793.68295 1.22417e-17
6795.15319 1.32776e-17
6796.62343 1.40693e-17
6798.09367 1.20996e-17
6799.56391 1.12778e-17
6801.03415 1.14132e-17
6802.50439 1.17615e-17
6803.97463 1.28642e-17
6805.43466 1.16955e-17
6806.90490 1.14178e-17
6808.37514 1.17813e-17
6809.84538 1.10208e-17
6811.31562 1.17798e-17
6812.78586 1.27845e-17
6814.25610 1.29547e-17
6815.72634 1.27516e-17
6817.19658 1.19663e-17
6818.66682 1.22816e-17
6820.13706 1.21603e-17
6821.60730 1.24866e-17
6823.07754 1.29147e-17
6824.54778 1.15688e-17
6826.01802 1.11664e-17
6827.48826 1.24126e-17
6828.95850 1.32734e-17
6830.42874 1.16015e-17
6831.89898 1.09696e-17
6833.36922 1.14599e-17
6834.83946 1.19611e-17
6836.30970 1.16183e-17
6837.77994 1.02980e-17
6839.25018 1.03844e-17
6840.72042 1.08510e-17
6842.19066 1.15553e-17
6843.66090 1.15707e-17
6845.13114 1.08366e-17
6846.60138 1.29815e-17
6848.07162 1.32152e-17
6849.54186 1.15203e-17
6851.01210 1.20300e-17
6852.48234 1.22176e-17
6853.95258 1.23689e-17
6855.42282 1.24966e-17
6856.89306 1.10756e-17
6858.36330 1.04771e-17
6859.83354 1.25471e-17
6861.30378 1.35080e-17
6862.77402 1.20574e-17
6864.24426 1.05210e-17
6865.71450 9.13989e-18
6867.18474 1.07070e-17
6868.65498 1.26398e-17
6870.11501 1.22060e-17
6871.58525 1.13138e-17
6873.05549 1.13438e-17
6874.52573 1.13177e-17
6875.99597 1.11209e-17
6877.46621 1.05772e-17
6878.93645 1.04986e-17
6880.40669 1.22798e-17
6881.87693 1.21936e-17
6883.34717 1.01886e-17
6884.81741 1.11195e-17
6886.28765 1.21971e-17
6887.75789 1.11639e-17
6889.22813 9.77637e-18
6890.69837 1.10123e-17
6892.16861 9.95483e-18
6893.63885 9.75376e-18
6895.10909 1.14872e-17
6896.57933 1.20621e-17
6898.04957 1.15713e-17
6899.51981 1.13986e-17
6900.99005 1.03754e-17
6902.46029 9.00940e-18
6903.93053 9.37917e-18
6905.40077 1.04146e-17
6906.87101 1.12460e-17
6908.34125 1.00263e-17
6909.81149 1.06461e-17
6911.28173 1.14990e-17
6912.75197 1.11732e-17
6914.22221 1.00513e-17
6915.69245 9.00473e-18
6917.16269 9.41180e-18
6918.63293 9.68324e-18
6920.10317 1.03170e-17
6921.57341 1.25173e-17
6923.04365 1.11531e-17
6924.51389 1.07480e-17
6925.98413 1.16930e-17
6927.45437 1.10753e-17
6928.92461 1.00234e-17
6930.39485 1.06234e-17
6931.85488 1.09867e-17
6933.32512 9.54986e-18
6934.79536 1.04475e-17
6936.26560 1.15695e-17
6937.73584 1.23948e-17
6939.20608 1.08002e-17
6940.67632 1.14954e-17
6942.14656 1.15386e-17
6943.61680 9.56293e-18
6945.08704 1.04008e-17
6946.55728 1.31136e-17
6948.02752 1.27521e-17
6949.49776 1.12295e-17
6950.96800 1.14788e-17
6952.43824 1.03883e-17
6953.90848 1.02130e-17
6955.37872 9.69548e-18
6956.84896 9.60720e-18
6958.31920 9.47335e-18
6959.78944 9.76077e-18
6961.25968 1.07962e-17
6962.72992 1.10492e-17
6964.20016 9.48791e-18
6965.67040 8.67319e-18
6967.14064 9.88615e-18
6968.61088 9.51874e-18
6970.08112 9.45393e-18
6971.55136 1.02009e-17
6973.02160 9.98731e-18
6974.49184 1.07443e-17
6975.96208 9.48930e-18
6977.43232 7.79491e-18
6978.90256 8.33478e-18
6980.37280 1.02946e-17
6981.84304 1.04549e-17
6983.31328 9.54856e-18
6984.78352 9.22140e-18
6986.25376 1.01416e-17
6987.72400 9.79969e-18
6989.19424 9.35422e-18
6990.66448 9.92401e-18
6992.12451 9.65201e-18
6993.59475 7.83193e-18
6995.06499 8.64606e-18
6996.53523 9.24800e-18
6998.00547 9.54410e-18
6999.47571 9.22158e-18
7000.94595 1.00532e-17
7002.41619 9.69734e-18
7003.88643 9.28395e-18
7005.35667 8.04747e-18
7006.82691 8.31670e-18
7008.29715 9.80959e-18
7009.76739 1.03156e-17
7011.23763 9.78812e-18
7012.70787 9.43038e-18
7014.17811 9.02370e-18
7015.64835 9.70286e-18
7017.11859 1.05714e-17
7018.58883 9.46627e-18
7020.05907 8.29016e-18
7021.52931 8.44272e-18
7022.99955 9.96483e-18
7024.46979 1.03836e-17
7025.94003 1.06746e-17
7027.41027 1.05433e-17
7028.88051 9.90775e-18
7030.35075 9.79076e-18
7031.82099 8.63780e-18
7033.29123 9.65239e-18
7034.76147 9.63328e-18
7036.23171 9.33593e-18
7037.70195 9.22244e-18
7039.17219 8.95161e-18
7040.64243 8.94517e-18
7042.11267 9.00206e-18
7043.58291 9.16637e-18
7045.05315 9.53604e-18
7046.52339 1.01472e-17
7047.99363 9.63436e-18
7049.46387 9.12378e-18
7050.93411 1.01868e-17
7052.40435 1.13455e-17
7053.87459 1.07833e-17
7055.34483 9.30653e-18
7056.81507 9.85760e-18
7058.27510 1.01955e-17
7059.74534 1.05311e-17
7061.21558 9.55669e-18
7062.68582 8.57217e-18
7064.15606 9.58468e-18
7065.62630 9.44582e-18
7067.09654 8.80676e-18
7068.56678 1.02442e-17
7070.03702 1.10949e-17
7071.50726 1.07267e-17
7072.97750 1.19591e-17
7074.44774 1.29515e-17
7075.91798 1.06867e-17
7077.38822 1.06876e-17
7078.85846 1.13708e-17
7080.32870 9.55057e-18
7081.79894 9.36175e-18
7083.26918 1.03711e-17
7084.73942 1.04460e-17
7086.20966 1.04539e-17
7087.67990 1.04678e-17
7089.15014 1.03459e-17
7090.62038 1.05333e-17
7092.09062 9.48822e-18
7093.56086 8.95146e-18
7095.03110 9.57270e-18
7096.50134 1.03596e-17
7097.97158 1.09574e-17
7099.44182 1.11404e-17
7100.91206 1.14264e-17
7102.38230 9.94968e-18
7103.85254 8.89093e-18
7105.32278 1.00560e-17
7106.79302 1.16313e-17
7108.26326 1.17234e-17
7109.73350 1.03160e-17
7111.20374 9.45324e-18
7112.67398 9.48824e-18
7114.14422 1.06506e-17
7115.61446 1.15535e-17
7117.08470 9.99737e-18
7118.54473 8.35587e-18
7120.01497 9.32871e-18
7121.48521 1.05904e-17
7122.95545 1.04662e-17
7124.42569 1.09811e-17
7125.89593 1.12906e-17
7127.36617 1.05127e-17
7128.83641 1.12134e-17
7130.30665 1.11100e-17
7131.77689 1.02205e-17
7133.24713 1.07215e-17
7134.71737 1.01947e-17
7136.18761 1.06523e-17
7137.65785 1.16467e-17
7139.12809 1.05968e-17
7140.59833 9.96878e-18
7142.06857 9.52555e-18
7143.53881 9.22942e-18
7145.00905 1.05546e-17
7146.47929 1.12151e-17
7147.94953 1.03415e-17
7149.41977 1.06386e-17
7150.89001 1.07299e-17
7152.36025 1.02050e-17
7153.83049 1.09912e-17
7155.30073 1.15153e-17
7156.77097 1.11494e-17
7158.24121 9.26551e-18
7159.71145 8.34610e-18
7161.18169 9.67329e-18
7162.65193 1.04025e-17
7164.12217 9.75105e-18
7165.59241 9.24260e-18
7167.06265 9.14408e-18
7168.53289 9.42662e-18
7170.00313 9.63573e-18
7171.47337 1.00178e-17
7172.94361 1.03327e-17
7174.41385 1.07723e-17
7175.88409 1.15412e-17
7177.35433 1.05263e-17
7178.82457 9.55046e-18
7180.28460 9.99479e-18
7181.75484 1.07974e-17
7183.22508 9.86901e-18
7184.69532 9.06243e-18
7186.16556 1.00381e-17
7187.63580 1.02995e-17
7189.10604 9.27357e-18
7190.57628 9.68496e-18
7192.04652 1.04450e-17
7193.51676 9.98605e-18
7194.98700 1.09621e-17
7196.45724 1.01645e-17
7197.92748 8.76705e-18
7199.39772 9.30373e-18
7200.86796 1.09136e-17
7202.33820 1.11814e-17
7203.80844 1.06872e-17
7205.27868 9.77580e-18
7206.74892 8.93023e-18
7208.21916 8.86247e-18
7209.68940 8.94205e-18
7211.15964 9.89852e-18
7212.62988 1.01147e-17
7214.10012 9.25766e-18
7215.57036 8.67807e-18
7217.04060 9.40155e-18
7218.51084 1.02764e-17
7219.98108 1.05117e-17
7221.45132 1.07900e-17
7222.92156 1.05675e-17
7224.39180 1.11715e-17
7225.86204 1.18434e-17
7227.33228 1.05959e-17
7228.80252 8.55281e-18
7230.27276 8.24673e-18
7231.74300 1.09730e-17
7233.21324 1.14850e-17
7234.68348 1.00520e-17
7236.15372 9.64669e-18
7237.62396 1.05823e-17
7239.09420 1.17220e-17
7240.56444 1.05659e-17
7242.03468 8.79220e-18
7243.50492 9.59952e-18
7244.97516 1.02220e-17
7246.43519 8.74876e-18
7247.90543 8.12764e-18
7249.37567 9.18466e-18
7250.84591 1.03665e-17
7252.31615 1.06191e-17
7253.78639 1.01591e-17
7255.25663 1.03955e-17
7256.72687 1.04563e-17
7258.19711 9.18625e-18
7259.66735 9.31648e-18
7261.13759 1.08833e-17
7262.60783 1.05559e-17
7264.07807 9.78643e-18
7265.54831 1.01065e-17
7267.01855 1.04406e-17
7268.48879 9.94286e-18
7269.95903 9.18764e-18
7271.42927 8.95311e-18
7272.89951 8.56816e-18
7274.36975 8.54115e-18
7275.83999 8.73423e-18
7277.31023 8.52545e-18
7278.78047 9.34501e-18
7280.25071 1.02926e-17
7281.72095 9.20900e-18
7283.19119 9.58895e-18
7284.66143 1.16741e-17
7286.13167 1.15429e-17
7287.60191 1.06718e-17
7289.07215 1.03300e-17
7290.54239 9.37523e-18
7292.01263 9.93672e-18
7293.48287 1.09412e-17
7294.95311 1.04541e-17
7296.42335 1.03425e-17
7297.89359 1.01305e-17
7299.36383 9.49819e-18
7300.83407 9.26912e-18
7302.30431 9.47035e-18
7303.77455 9.01907e-18
7305.24479 9.11810e-18
7306.70482 1.05340e-17
7308.17506 9.85329e-18
7309.64530 8.76839e-18
7311.11554 1.01517e-17
7312.58578 1.00840e-17
7314.05602 1.01040e-17
7315.52626 1.10777e-17
7316.99650 1.03502e-17
7318.46674 1.02252e-17
7319.93698 1.09483e-17
7321.40722 1.10686e-17
7322.87746 1.05926e-17
7324.34770 1.01190e-17
7325.81794 1.15150e-17
7327.28818 1.21256e-17
7328.75842 1.00200e-17
7330.22866 9.14655e-18
7331.69890 1.02063e-17
7333.16914 1.08746e-17
7334.63938 1.05410e-17
7336.10962 9.98128e-18
7337.57986 1.02720e-17
7339.05010 1.23920e-17
7340.52034 1.12150e-17
7341.99058 8.75367e-18
7343.46082 9.79309e-18
7344.93106 1.06577e-17
7346.40130 1.00025e-17
7347.87154 1.01743e-17
7349.34178 1.02170e-17
7350.81202 1.11270e-17
7352.28226 1.17188e-17
7353.75250 1.00272e-17
7355.22274 1.04944e-17
7356.69298 1.18088e-17
7358.16322 1.11351e-17
7359.63346 1.11322e-17
7361.10370 1.12760e-17
7362.57394 1.14827e-17
7364.04418 1.06173e-17
7365.51442 9.35890e-18
7366.98466 8.84213e-18
7368.45490 1.05166e-17
7369.91493 1.22441e-17
7371.38517 1.16381e-17
7372.85541 1.11392e-17
7374.32565 1.07409e-17
7375.79589 1.11025e-17
7377.26613 1.05377e-17
7378.73637 9.87489e-18
7380.20661 9.63937e-18
7381.67685 9.26111e-18
7383.14709 1.03516e-17
7384.61733 1.17702e-17
7386.08757 1.15543e-17
7387.55781 1.06281e-17
7389.02805 9.84728e-18
7390.49829 1.06488e-17
7391.96853 1.18138e-17
7393.43877 1.07919e-17
7394.90901 1.10261e-17
7396.37925 1.14101e-17
7397.84949 9.81260e-18
7399.31973 1.00628e-17
7400.78997 1.09230e-17
7402.26021 1.12762e-17
7403.73045 1.00487e-17
7405.20069 8.72663e-18
7406.67093 1.04794e-17
7408.14117 1.11121e-17
7409.61141 9.92672e-18
7411.08165 8.81555e-18
7412.55189 8.88133e-18
7414.02213 9.52293e-18
7415.49237 9.09042e-18
7416.96261 9.41334e-18
7418.43285 1.00088e-17
7419.90309 1.05181e-17
7421.37333 1.03063e-17
7421.82406 1.03063e-17
7423.48165 1.05046e-17
7425.14929 1.05956e-17
7426.80688 1.06866e-17
7428.46447 1.06521e-17
7430.13211 1.06175e-17
7431.78970 1.03666e-17
7433.44729 1.01158e-17
7435.10488 1.00321e-17
7436.77251 9.94848e-18
7438.43010 1.01660e-17
7440.08769 1.03833e-17
7441.74528 1.02469e-17
7443.41292 1.01106e-17
7445.07051 1.01220e-17
7446.72810 1.01335e-17
7448.39573 1.02521e-17
7450.05332 1.03708e-17
7451.71091 1.03679e-17
7453.36850 1.03650e-17
7455.03614 1.03970e-17
7456.69373 1.04290e-17
7458.35132 1.05518e-17
7460.00891 1.06746e-17
7461.67655 1.06936e-17
7463.33414 1.07127e-17
7464.99173 1.06516e-17
7466.65936 1.05905e-17
7468.31695 1.02147e-17
7469.97454 9.83913e-18
7471.63213 9.80475e-18
7473.29977 9.77045e-18
7474.95736 9.94898e-18
7476.61495 1.01274e-17
7478.28258 1.01164e-17
7479.94017 1.01052e-17
7481.59776 9.90064e-18
7483.25535 9.69615e-18
7484.92299 9.89414e-18
7486.58058 1.00921e-17
7488.23817 1.01758e-17
7489.89576 1.02595e-17
7491.56340 1.03590e-17
7493.22099 1.04585e-17
7494.87858 1.03146e-17
7496.54621 1.01707e-17
7498.20380 1.00453e-17
7499.86139 9.91987e-18
7501.51898 9.68150e-18
7503.18662 9.44323e-18
7504.84421 9.51232e-18
7506.50180 9.58140e-18
7508.16943 9.62959e-18
7509.82702 9.67777e-18
7511.48461 9.62963e-18
7513.14220 9.58158e-18
7514.80984 9.80650e-18
7516.46743 1.00313e-17
7518.12502 9.76682e-18
7519.78261 9.50247e-18
7521.45025 9.59979e-18
7523.10784 9.69712e-18
7524.76543 9.78697e-18
7526.43306 9.87679e-18
7528.09065 9.84223e-18
7529.74824 9.80761e-18
7531.40583 9.56698e-18
7533.07347 9.32647e-18
7534.73106 9.49302e-18
7536.38865 9.65950e-18
7538.04624 9.70591e-18
7539.71387 9.75227e-18
7541.37146 9.72064e-18
7543.02905 9.68894e-18
7544.69669 9.44991e-18
7546.35428 9.21099e-18
7548.01187 9.35241e-18
7549.66946 9.49382e-18
7551.33710 9.47860e-18
7552.99469 9.46337e-18
7554.65228 9.44815e-18
7556.30987 9.43294e-18
7557.97750 9.41772e-18
7559.63509 9.40251e-18
7561.29268 9.38728e-18
7562.96032 9.37207e-18
7564.61791 9.35685e-18
7566.27550 9.34164e-18
7567.93309 9.32642e-18
7569.60072 9.31121e-18
7571.25831 9.29598e-18
7572.91590 9.28078e-18
7574.58354 9.26557e-18
7576.24113 9.25034e-18
7577.89872 9.23513e-18
7579.55631 9.21992e-18
7581.22395 9.20471e-18
7582.88154 9.18950e-18
7584.53913 9.17429e-18
7586.19672 9.15907e-18
7587.86435 9.14388e-18
7589.52194 9.12865e-18
7591.17953 9.11344e-18
7592.84717 9.09825e-18
7594.50476 9.08302e-18
7596.16235 9.06783e-18
7597.81994 9.05262e-18
7599.48757 9.03741e-18
7601.14516 9.02220e-18
7602.80275 9.00699e-18
7604.46034 8.99178e-18
7606.12798 8.97659e-18
7607.78557 8.96138e-18
7609.44316 8.94618e-18
7611.11080 8.93097e-18
7612.76839 8.91576e-18
7614.42598 8.90057e-18
7616.08357 8.88536e-18
7617.75120 8.87016e-18
7619.40879 8.85495e-18
7621.06638 8.83976e-18
7622.72397 8.82455e-18
7624.39161 8.80935e-18
7626.04920 8.79414e-18
7627.70679 8.77895e-18
7629.37442 8.76375e-18
7631.03201 8.74856e-18
7632.68960 8.73335e-18
7634.34719 8.71817e-18
7636.01483 8.70296e-18
7637.67242 8.68776e-18
7639.33001 8.67257e-18
7640.99765 8.65737e-18
7642.65524 8.64218e-18
7644.31283 8.62698e-18
7645.97042 8.61178e-18
7647.63805 8.59659e-18
7649.29564 8.58139e-18
7650.95323 8.56620e-18
7652.61082 8.55100e-18
7654.27846 8.53581e-18
7655.93605 8.52063e-18
7657.59364 8.50543e-18
7659.26127 8.49024e-18
7660.91886 8.47505e-18
7662.57645 8.45986e-18
7664.23404 8.44466e-18
7665.90168 8.42948e-18
7667.55927 8.41429e-18
7669.21686 8.39909e-18
7670.87445 8.38391e-18
7672.54209 8.36873e-18
7674.19968 8.35353e-18
7675.85727 8.33835e-18
7677.52490 8.32317e-18
7679.18249 8.30798e-18
7680.84008 8.29279e-18
7682.49767 8.10682e-18
7684.16531 8.08772e-18
7685.82290 8.06875e-18
7687.48049 8.47470e-18
7689.13808 8.88047e-18
7690.80571 8.72072e-18
7692.46330 8.56100e-18
7694.12089 8.58573e-18
7695.78853 8.61042e-18
7697.44612 8.51896e-18
7699.10371 8.42762e-18
7700.76130 8.70268e-18
7702.42894 8.97754e-18
7704.08653 8.64681e-18
7705.74412 8.31623e-18
7707.40171 8.52950e-18
7709.06934 8.74268e-18
7710.72693 8.70787e-18
7712.38452 8.67310e-18
7714.05216 8.79675e-18
7715.70975 8.92030e-18
7717.36734 8.73309e-18
7719.02493 8.54599e-18
7720.69256 8.69258e-18
7722.35015 8.83905e-18
7724.00774 8.60579e-18
7725.67538 8.37253e-18
7727.33297 8.19033e-18
7728.99056 8.00825e-18
7730.64815 8.25628e-18
7732.31579 8.50425e-18
7733.97338 8.57620e-18
7735.63097 8.64808e-18
7737.28856 8.53161e-18
7738.95619 8.41519e-18
7740.61378 8.49335e-18
7742.27137 8.57149e-18
7743.93901 8.59955e-18
7745.59660 8.62766e-18
7747.25419 8.82249e-18
7748.91178 9.01716e-18
7750.57941 8.69042e-18
7752.23700 8.36376e-18
7753.89459 8.24807e-18
7755.55218 8.13249e-18
7757.21982 8.33179e-18
7758.87741 8.53117e-18
7760.53500 8.99170e-18
7762.20264 9.45201e-18
7763.86023 9.26696e-18
7765.51782 9.08198e-18
7767.17541 9.12095e-18
7768.84304 9.15987e-18
7770.50063 9.11203e-18
7772.15822 9.06418e-18
7773.81581 8.98918e-18
7775.48345 8.91416e-18
7777.14104 8.81779e-18
7778.79863 8.72150e-18
7780.46626 8.85883e-18
7782.12385 8.99606e-18
7783.78144 8.81549e-18
7785.43903 8.63506e-18
7787.10667 8.86574e-18
7788.76426 9.09637e-18
7790.42185 9.24224e-18
7792.07944 9.38804e-18
7793.74708 9.29635e-18
7795.40467 9.20471e-18
7797.06226 9.26331e-18
7798.72989 9.32193e-18
7800.38748 9.37935e-18
7802.04507 9.43673e-18
7803.70266 9.35996e-18
7805.37030 9.28324e-18
7807.02789 9.32926e-18
7808.68548 9.37523e-18
7810.35311 9.24644e-18
7812.01070 9.11781e-18
7813.66829 9.49616e-18
7815.32588 9.87431e-18
7816.99352 9.64721e-18
7818.65111 9.42017e-18
7820.30870 9.35108e-18
7821.96629 9.28196e-18
7823.63393 9.07136e-18
7825.29152 8.86084e-18
7826.94911 8.86347e-18
7828.61674 8.86609e-18
7830.27433 8.81558e-18
7831.93192 8.76512e-18
7833.58951 8.91420e-18
7835.25715 9.06329e-18
7836.91474 9.24826e-18
7838.57233 9.43304e-18
7840.22992 9.05715e-18
7841.89755 8.68145e-18
7843.55514 8.85646e-18
7845.21273 9.03140e-18
7846.88037 9.01106e-18
7848.53796 8.99077e-18
7850.19555 9.18998e-18
7851.85314 9.38927e-18
7853.52078 9.89081e-18
7855.17837 1.03921e-17
7856.83596 1.01010e-17
7858.50359 9.80982e-18
7860.16118 9.57022e-18
7861.81877 9.33078e-18
7863.47636 9.61490e-18
7865.14400 9.89887e-18
7866.80159 9.67267e-18
7868.45918 9.44659e-18
7870.11677 9.56615e-18
7871.78440 9.68561e-18
7873.44199 9.52308e-18
7875.09958 9.36060e-18
7876.76722 9.35399e-18
7878.42481 9.34743e-18
7880.08240 9.47422e-18
7881.73999 9.60091e-18
7883.40763 9.40566e-18
7885.06522 9.21059e-18
7886.72281 9.55811e-18
7888.38040 9.90549e-18
7890.04803 9.79567e-18
7891.70562 9.68580e-18
7893.36321 9.36768e-18
7895.03085 9.04966e-18
7896.68844 8.98749e-18
7898.34603 8.92531e-18
7900.00362 8.88692e-18
7901.67125 8.84862e-18
7903.32884 9.06736e-18
7904.98643 9.28604e-18
7906.64402 9.28838e-18
7908.31166 9.29069e-18
7909.96925 9.18262e-18
7911.62684 9.07452e-18
7913.29448 8.83286e-18
7914.95207 8.59138e-18
7916.60966 8.90592e-18
7918.26725 9.22030e-18
7919.93488 9.04924e-18
7921.59247 8.87833e-18
7923.25006 9.16189e-18
7924.90765 9.44535e-18
7926.57529 9.42424e-18
7928.23288 9.40306e-18
7929.89047 9.16070e-18
7931.55810 8.91838e-18
7933.21569 8.78699e-18
7934.87328 8.65568e-18
7936.53087 8.79600e-18
7938.19851 8.93621e-18
7939.85610 8.73562e-18
7941.51369 8.53512e-18
7943.18133 8.65698e-18
7944.83892 8.77892e-18
7946.49651 9.17199e-18
7948.15410 9.56483e-18
7949.82173 9.25693e-18
7951.47932 8.94903e-18
7953.13691 8.61039e-18
7954.79450 8.27199e-18
7956.46214 8.61498e-18
7958.11973 8.95773e-18
7959.77732 8.55593e-18
7961.44495 8.15435e-18
7963.10254 8.42841e-18
7964.76013 8.70238e-18
7966.41772 8.65451e-18
7968.08536 8.60666e-18
7969.74295 8.63491e-18
7971.40054 8.66317e-18
7973.05813 8.76468e-18
7974.72577 8.86608e-18
7976.38336 8.59615e-18
7978.04095 8.32628e-18
7979.70858 8.19369e-18
7981.36617 8.06126e-18
7983.02376 8.37211e-18
7984.68135 8.68287e-18
7986.34899 8.77575e-18
7988.00658 8.86853e-18
7989.66417 8.71215e-18
7991.33180 8.55586e-18
7992.98939 8.71541e-18
7994.64698 8.87475e-18
7996.30457 8.48053e-18
7997.97221 8.08655e-18
7999.62980 8.38643e-18
8001.28739 8.68613e-18
8002.94498 8.46273e-18
8004.61262 8.23941e-18
8006.27021 8.16589e-18
8007.92780 8.09254e-18
8009.59543 8.46162e-18
8011.25302 8.83046e-18
8012.91061 8.52461e-18
8014.56820 8.21887e-18
8016.23584 8.24943e-18
8017.89343 8.28002e-18
8019.55102 8.41641e-18
8021.20861 8.55276e-18
8022.87624 8.56002e-18
8024.53383 8.56718e-18
8026.19142 8.36850e-18
8027.85906 8.16985e-18
8029.51665 8.09226e-18
8031.17424 8.01465e-18
8032.83183 7.86747e-18
8034.49947 7.72041e-18
8036.15706 7.97741e-18
8037.81465 8.23431e-18
8039.47224 8.23273e-18
8041.13987 8.23113e-18
8042.79746 8.13094e-18
8044.45505 8.03077e-18
8046.12269 7.92068e-18
8047.78028 7.81068e-18
8049.43787 7.99430e-18
8051.09546 8.17782e-18
8052.76309 8.12183e-18
8054.42068 8.06579e-18
8056.07827 7.88044e-18
8057.73586 7.69518e-18
8059.40350 7.80421e-18
8061.06109 7.91322e-18
8062.71868 7.94709e-18
8064.38632 7.98087e-18
8066.04391 7.77058e-18
8067.70150 7.56033e-18
8069.35909 7.49026e-18
8071.02672 7.42025e-18
8072.68431 7.54339e-18
8074.34190 7.66655e-18
8076.00954 7.78740e-18
8077.66713 7.90822e-18
8079.32472 7.89201e-18
8080.98231 7.87572e-18
8082.64994 7.59691e-18
8084.30753 7.31812e-18
8085.96512 7.18158e-18
8087.62271 7.04509e-18
8089.29035 7.12840e-18
8090.94794 7.21173e-18
8092.60553 7.30349e-18
8094.27317 7.39524e-18
8095.93076 7.40006e-18
8097.58835 7.40487e-18
8099.24594 7.39814e-18
8100.91357 7.39144e-18
8102.57116 7.45067e-18
8104.22875 7.50983e-18
8105.88634 7.37928e-18
8107.55398 7.24882e-18
8109.21157 7.36058e-18
8110.86916 7.47222e-18
8112.53679 7.19659e-18
8114.19438 6.92114e-18
8115.85197 7.15416e-18
8117.50956 7.38719e-18
8119.17720 7.67798e-18
8120.83479 7.96858e-18
8122.49238 7.70365e-18
8124.16002 7.43870e-18
8125.81761 7.05590e-18
8127.47520 6.67327e-18
8129.13279 6.76985e-18
8130.80042 6.86646e-18
8132.45801 7.08677e-18
8134.11560 7.30700e-18
8135.77319 7.33670e-18
8137.44083 7.36640e-18
8139.09842 7.41004e-18
8140.75601 7.45364e-18
8142.41360 7.37548e-18
8144.08123 7.29728e-18
8145.73882 7.03627e-18
8147.39641 6.77544e-18
8149.06405 7.04263e-18
8150.72164 7.30970e-18
8152.37923 7.25737e-18
8154.03682 7.20497e-18
8155.70446 6.93646e-18
8157.36205 6.66812e-18
8159.01964 6.84087e-18
8160.68727 7.01358e-18
8162.34486 7.10315e-18
8164.00245 7.19260e-18
8165.66004 6.97837e-18
8167.32768 6.76433e-18
8168.98527 7.11440e-18
8170.64286 7.46433e-18
8172.30045 7.45095e-18
8173.96808 7.43738e-18
8175.62567 6.84383e-18
8177.28326 6.25055e-18
8178.95090 6.42800e-18
8180.60849 6.60549e-18
8182.26608 6.84001e-18
8183.92367 7.07448e-18
8185.59131 7.18407e-18
8187.24890 7.29348e-18
8188.90649 6.84708e-18
8190.56408 6.40087e-18
8192.23171 6.46907e-18
8193.88930 6.53736e-18
8195.54689 6.87401e-18
8197.21453 7.21053e-18
8198.87212 7.21033e-18
8200.52971 7.21008e-18
8202.18730 7.06501e-18
8203.85493 6.92000e-18
8205.51252 6.94770e-18
8207.17011 6.97540e-18
8208.82770 7.00908e-18
8210.49534 7.04261e-18
8212.15293 6.66138e-18
8213.81052 6.28035e-18
8215.47816 6.45758e-18
8217.13575 6.63470e-18
8218.79334 6.47276e-18
8220.45093 6.31096e-18
8222.11856 6.56962e-18
8223.77615 6.82814e-18
8225.43374 6.65112e-18
8227.09133 6.47422e-18
8228.75897 6.61732e-18
8230.41656 6.76033e-18
8232.07415 6.63539e-18
8233.74178 6.51049e-18
8235.39937 6.50546e-18
8237.05696 6.50040e-18
8238.71455 6.36284e-18
8240.38219 6.22531e-18
8242.03978 6.10092e-18
8243.69737 5.97669e-18
8245.36501 6.34369e-18
8247.02260 6.71053e-18
8248.68019 6.62214e-18
8250.33778 6.53378e-18
8252.00541 6.55934e-18
8253.66300 6.58473e-18
8255.32059 6.11039e-18
8256.97818 5.63638e-18
8258.64582 6.03043e-18
8260.30341 6.42437e-18
8261.96100 6.53168e-18
8263.62863 6.63891e-18
8265.28622 6.51359e-18
8266.94381 6.38825e-18
8268.60140 6.17891e-18
8270.26904 5.96965e-18
8271.92663 5.94957e-18
8273.58422 5.92951e-18
8275.25186 5.99715e-18
8276.90945 6.06472e-18
8278.56704 5.96821e-18
8280.22463 5.87170e-18
8281.89226 5.73740e-18
8283.54985 5.60319e-18
8285.20744 5.76120e-18
8286.86503 5.91911e-18
8288.53267 5.81694e-18
8290.19026 5.71484e-18
8291.84785 5.82634e-18
8293.51548 5.93785e-18
8295.17307 6.03308e-18
8296.83066 6.12827e-18
8298.48825 6.07603e-18
8300.15589 6.02371e-18
8301.81348 5.73633e-18
8303.47107 5.44907e-18
8305.12866 5.52404e-18
8306.79630 5.59896e-18
8308.45389 5.54962e-18
8310.11148 5.50026e-18
8311.77911 5.39489e-18
8313.43670 5.28958e-18
8315.09429 5.39318e-18
8316.75188 5.49679e-18
8318.41952 5.66288e-18
8320.07711 5.82889e-18
8321.73470 5.71791e-18
8323.40233 5.60686e-18
8325.05992 5.28780e-18
8326.71751 4.96893e-18
8328.37510 5.09209e-18
8330.04274 5.21528e-18
8331.70033 5.32922e-18
8333.35792 5.44314e-18
8335.01551 5.46278e-18
8336.68315 5.48244e-18
8338.34074 5.52392e-18
8339.99833 5.56540e-18
8341.65592 5.65486e-18
8343.32355 5.74438e-18
8344.98114 5.99677e-18
8346.63873 6.24903e-18
8348.30637 6.09210e-18
8349.96396 5.93512e-18
8351.62155 5.60998e-18
8353.27914 5.28497e-18
8354.94677 5.35996e-18
8356.60436 5.43497e-18
8358.26195 5.60341e-18
8359.92959 5.77179e-18
8361.58718 5.74144e-18
8363.24477 5.71103e-18
8364.90236 5.54394e-18
8366.57000 5.37686e-18
8368.22759 5.25733e-18
8369.88518 5.13792e-18
8371.54277 5.37437e-18
8373.21040 5.61061e-18
8374.86799 5.25348e-18
8376.52558 4.89660e-18
8378.19322 5.23267e-18
8379.85081 5.56857e-18
8381.50840 5.39500e-18
8383.16599 5.22152e-18
8384.83362 5.31895e-18
8386.49121 5.41627e-18
8388.14880 5.18846e-18
8389.81644 4.96081e-18
8391.47403 5.19356e-18
8393.13162 5.42629e-18
8394.78921 5.63299e-18
8396.45685 5.83957e-18
8398.11444 5.72175e-18
8399.77203 5.60395e-18
8401.42962 5.50595e-18
8403.09725 5.40801e-18
8404.75484 5.50430e-18
8406.41243 5.60065e-18
8408.08007 5.87758e-18
8409.73766 6.15432e-18
8411.39525 5.90798e-18
8413.05284 5.66173e-18
8414.72047 5.67873e-18
8416.37806 5.69566e-18
8418.03565 5.53831e-18
8419.69324 5.38102e-18
8421.36088 5.34546e-18
8423.01847 5.30994e-18
8424.67606 5.37869e-18
8426.34370 5.44732e-18
8428.00129 5.11877e-18
8429.65888 4.79044e-18
8431.31647 5.05921e-18
8432.98410 5.32795e-18
8434.64169 5.52997e-18
8436.29928 5.73189e-18
8437.95687 5.68730e-18
8439.62451 5.64272e-18
8441.28210 5.56439e-18
8442.93969 5.48598e-18
8444.60732 5.14420e-18
8446.26491 4.80259e-18
8447.92250 4.93259e-18
8449.58009 5.06263e-18
8451.24773 5.35953e-18
8452.90532 5.65634e-18
8454.56291 5.74906e-18
8456.22050 5.84167e-18
8457.88814 5.62371e-18
8459.54573 5.40579e-18
8461.20332 5.30110e-18
8462.87095 5.19648e-18
8464.52854 5.28427e-18
8466.18613 5.37202e-18
8467.84372 5.39189e-18
8469.51136 5.41175e-18
8471.16895 5.39547e-18
8472.82654 5.37916e-18
8474.48413 5.33571e-18
8476.15176 5.29234e-18
8477.80935 5.40711e-18
8479.46694 5.52197e-18
8481.13458 5.85450e-18
8482.79217 6.18679e-18
8484.44976 5.91752e-18
8486.10735 5.64834e-18
8487.77499 5.63376e-18
8489.43258 5.61931e-18
8491.09017 5.96182e-18
8492.75780 6.30410e-18
8494.41539 6.02738e-18
8496.07298 5.75076e-18
8497.73057 5.81319e-18
8499.39821 5.87559e-18
8501.05580 5.89184e-18
8502.71339 5.90809e-18
8504.37098 5.90156e-18
8506.03861 5.89501e-18
8507.69620 5.86418e-18
8509.35379 5.83339e-18
8511.01138 5.90456e-18
8512.67902 5.97568e-18
8514.33661 5.90545e-18
8515.99420 5.83530e-18
8517.66184 6.00867e-18
8519.31943 6.18194e-18
8520.97702 6.01867e-18
8522.63461 5.85542e-18
8524.30224 5.72792e-18
8525.95983 5.60057e-18
8527.61742 5.91026e-18
8529.28506 6.21990e-18
8530.94265 6.43430e-18
8532.60024 6.64851e-18
8534.25783 6.31769e-18
8535.92546 5.98710e-18
8537.58305 6.29806e-18
8539.24064 6.60884e-18
8540.89823 6.41950e-18
8542.56587 6.23024e-18
8544.22346 6.21430e-18
8545.88105 6.19837e-18
8547.54869 6.21675e-18
8549.20628 6.23522e-18
8550.86387 6.53582e-18
8552.52146 6.83631e-18
8554.18909 6.83218e-18
8555.84668 6.82813e-18
8557.50427 6.99371e-18
8559.17191 7.15917e-18
8560.82950 7.00344e-18
8562.48709 6.84774e-18
8564.14468 6.72588e-18
8565.81231 6.60415e-18
8567.46990 6.81138e-18
8569.12749 7.01853e-18
8570.78508 7.00033e-18
8572.45272 6.98206e-18
8574.11031 6.76551e-18
8575.76790 6.54898e-18
8577.43554 6.41384e-18
8579.09313 6.27880e-18
8580.75072 6.44858e-18
8582.40831 6.61825e-18
8584.07594 6.54557e-18
8585.73353 6.47296e-18
8587.39112 6.63428e-18
8589.04871 6.79561e-18
8590.71635 6.98284e-18
8592.37394 7.16993e-18
8594.03153 6.97425e-18
8595.69916 6.77861e-18
8597.35675 6.66848e-18
8599.01434 6.55843e-18
8600.67193 6.61167e-18
8602.33957 6.66502e-18
8603.99716 6.98598e-18
8605.65475 7.30676e-18
8607.32239 7.18060e-18
8608.97998 7.05441e-18
8610.63757 6.86694e-18
8612.29516 6.67954e-18
8613.96279 6.69427e-18
8615.62038 6.70900e-18
8617.27797 6.73745e-18
8618.93556 6.76588e-18
8620.60320 6.74081e-18
8622.26079 6.71584e-18
8623.91838 7.01050e-18
8625.58601 7.30510e-18
8627.24360 7.43885e-18
8628.90119 7.57247e-18
8630.55878 7.35439e-18
8632.22642 7.13634e-18
8633.88401 6.99606e-18
8635.54160 6.85594e-18
8637.20924 7.10695e-18
8638.86683 7.35792e-18
8640.52442 7.47196e-18
8642.18201 7.58580e-18
8643.84964 7.08981e-18
8645.50723 6.59404e-18
8647.16482 6.67678e-18
8648.82241 6.75958e-18
8650.49005 7.08150e-18
8652.14764 7.40328e-18
8653.80523 7.40296e-18
8655.46282 7.40258e-18
8657.13045 7.27935e-18
8658.78804 7.15623e-18
8660.44563 7.27878e-18
8662.11327 7.40117e-18
8663.77086 7.13282e-18
8665.42845 6.86459e-18
8667.08604 6.92716e-18
8668.75368 6.98968e-18
8670.41127 6.96857e-18
8672.06886 6.94749e-18
8673.73649 7.02169e-18
8675.39408 7.09580e-18
8677.05167 6.92307e-18
8678.70926 6.75046e-18
8680.37690 6.87650e-18
8682.03449 7.00250e-18
8683.69208 7.05863e-18
8685.34967 7.11464e-18
8687.01730 6.87361e-18
8688.67489 6.63275e-18
8690.33248 6.85974e-18
8691.99007 7.08667e-18
8693.65771 7.17301e-18
8695.31530 7.25924e-18
8696.97289 7.08204e-18
8698.64053 6.90492e-18
8700.29812 6.95145e-18
8701.95571 6.99801e-18
8703.61330 7.12917e-18
8705.28093 7.26024e-18
8706.93852 7.13723e-18
8708.59611 7.01420e-18
8710.26375 6.89108e-18
8711.92134 6.76808e-18
8713.57893 6.92641e-18
8715.23652 7.08466e-18
8716.90415 6.99761e-18
8718.56174 6.91055e-18
8720.21933 6.79510e-18
8721.87692 6.67969e-18
8723.54456 6.72252e-18
8725.20215 6.76539e-18
8726.85974 6.89174e-18
8728.52738 7.01810e-18
8730.18497 7.19032e-18
8731.84256 7.36239e-18
8733.50015 7.15576e-18
8735.16778 6.94928e-18
8736.82537 7.08419e-18
8738.48296 7.21901e-18
8740.14055 7.06111e-18
8741.80819 6.90333e-18
8743.46578 7.05718e-18
8745.12337 7.21085e-18
8746.79100 6.86573e-18
8748.44859 6.52078e-18
8750.10618 6.64643e-18
8751.76377 6.77222e-18
8753.43141 7.26673e-18
8755.08900 7.76107e-18
8756.74659 7.80747e-18
8758.40418 7.85365e-18
8760.07182 7.31576e-18
8761.72941 6.77803e-18
8763.38700 6.70437e-18
8765.05463 6.63075e-18
8766.71222 6.72260e-18
8768.36981 6.81438e-18
8770.02740 6.70997e-18
8771.69504 6.60562e-18
8773.35263 6.61845e-18
8775.01022 6.63125e-18
8776.67785 6.60670e-18
8778.33544 6.58215e-18
8779.99303 6.57782e-18
8781.65062 6.57351e-18
8783.31826 6.64774e-18
8784.97585 6.72183e-18
8786.63344 6.42053e-18
8788.29103 6.11929e-18
8789.95867 5.99759e-18
8791.61626 5.87607e-18
8793.27385 6.27702e-18
8794.94148 6.67775e-18
8796.59907 6.48608e-18
8798.25666 6.29449e-18
8799.91425 6.25607e-18
8801.58189 6.21765e-18
8803.23948 6.18446e-18
8804.89707 6.15126e-18
8806.56470 6.17305e-18
8808.22229 6.19485e-18
8809.87988 6.29698e-18
8811.53747 6.39908e-18
8813.20511 6.41425e-18
8814.86270 6.42943e-18
8816.52029 6.50823e-18
8818.17788 6.58701e-18
8819.84552 6.62115e-18
8821.50311 6.65529e-18
8823.16070 6.64451e-18
8824.82833 6.63375e-18
8826.48592 6.62832e-18
8828.14351 6.62264e-18
8829.80110 6.04336e-18
8831.46874 5.46450e-18
8833.12633 5.98249e-18
8834.78392 6.50024e-18
8836.44151 6.37700e-18
8838.10914 6.25381e-18
8839.76673 6.24391e-18
8841.42432 6.23399e-18
8843.09196 6.11875e-18
8844.74955 6.00355e-18
8846.40714 5.99607e-18
8848.06473 5.98861e-18
8849.73237 5.99096e-18
8851.38996 5.99337e-18
8853.04755 6.13631e-18
8854.71518 6.27911e-18
8856.37277 6.10416e-18
8858.03036 5.92923e-18
8859.68795 5.80849e-18
8861.35559 5.68778e-18
8863.01318 5.67673e-18
8864.67077 5.66572e-18
8866.32836 5.75635e-18
8867.99599 5.84702e-18
8869.65358 5.98180e-18
8871.31117 6.11655e-18
8872.97881 6.11011e-18
8874.63640 6.10359e-18
8876.29399 5.88353e-18
8877.95158 5.66363e-18
8879.61922 5.84292e-18
8881.27681 6.02210e-18
8882.93440 5.96012e-18
8884.60203 5.89824e-18
8886.25962 6.06289e-18
8887.91721 6.22751e-18
8889.57480 6.25769e-18
8891.24244 6.28773e-18
8892.90003 5.95162e-18
8894.55762 5.61569e-18
8896.21521 5.73840e-18
8897.88284 5.86106e-18
8899.54043 5.86282e-18
8901.19802 5.86455e-18
8902.85561 5.83015e-18
8904.52325 5.79574e-18
8906.18084 5.77321e-18
8907.83843 5.75061e-18
8909.50607 5.51283e-18
8911.16366 5.27518e-18
8912.82125 5.33515e-18
8914.47884 5.39503e-18
8916.14647 5.22395e-18
8917.80406 5.05306e-18
8919.46165 5.29335e-18
8921.11924 5.53352e-18
8922.78688 5.46113e-18
8924.44447 5.38893e-18
8926.10206 5.79892e-18
8927.76969 6.20872e-18
8929.42728 6.14402e-18
8931.08487 6.07913e-18
8932.74246 5.54225e-18
8934.41010 5.00558e-18
8936.06769 4.97680e-18
8937.72528 4.94814e-18
8939.38287 5.25178e-18
8941.05051 5.55515e-18
8942.70810 5.19904e-18
8944.36569 4.84310e-18
8946.03332 4.93942e-18
8947.69091 5.03564e-18
8949.34850 4.91136e-18
8951.00609 4.78720e-18
8952.67373 5.00636e-18
8954.33132 5.22529e-18
8955.98891 4.85988e-18
8957.64650 4.49471e-18
8959.31413 4.69675e-18
8960.97172 4.89874e-18
8962.62931 5.04373e-18
8964.29695 5.18874e-18
8965.95454 5.40330e-18
8967.61213 5.61768e-18
8969.26972 5.46653e-18
8970.93736 5.31542e-18
8972.59495 5.28994e-18
8974.25254 5.26445e-18
8975.92017 5.21980e-18
8977.57776 5.17511e-18
8979.23535 5.04551e-18
8980.89294 4.91602e-18
8982.56058 5.03166e-18
8984.21817 5.14731e-18
8985.87576 5.29407e-18
8987.53335 5.44067e-18
8989.20098 5.20198e-18
8990.85857 4.96336e-18
8992.51616 4.88403e-18
8994.18380 4.80476e-18
8995.84139 4.90440e-18
8997.49898 5.00402e-18
8999.15657 5.09676e-18
9000.82421 5.18953e-18
9002.48180 5.35403e-18
9004.13939 5.51845e-18
9005.79698 5.45092e-18
9007.46461 5.38341e-18
9009.12220 5.34912e-18
9010.77979 5.31490e-18
9012.44743 5.46698e-18
9014.10502 5.61890e-18
9015.76261 5.33759e-18
9017.42020 5.05642e-18
9019.08783 5.10851e-18
9020.74542 5.16052e-18
9022.40301 5.01527e-18
9024.07065 4.87008e-18
9025.72824 4.91276e-18
9027.38583 4.95546e-18
9029.04342 5.05935e-18
9030.71106 5.16328e-18
9032.36865 5.38724e-18
9034.02624 5.61099e-18
9035.68383 5.31553e-18
9037.35146 5.02016e-18
9039.00905 4.92887e-18
9040.66664 4.83769e-18
9042.33428 5.00754e-18
9043.99187 5.17724e-18
9045.64946 4.94729e-18
9047.30705 4.71735e-18
9048.97468 4.47494e-18
9050.63227 4.23279e-18
9052.28986 4.60579e-18
9053.95750 4.97866e-18
9055.61509 5.03340e-18
9057.27268 5.08800e-18
9058.93027 4.81534e-18
9060.59791 4.54277e-18
9062.25550 4.48431e-18
9063.91309 4.42591e-18
9065.57068 4.48417e-18
9067.23831 4.54234e-18
9068.89590 4.34873e-18
9070.55349 4.15529e-18
9072.21108 4.37094e-18
9073.87872 4.58649e-18
9075.53631 4.58996e-18
9077.19390 4.59344e-18
9078.86153 4.63682e-18
9080.51912 4.68003e-18
9082.17671 4.30940e-18
9083.83430 3.93903e-18
9085.50194 4.21219e-18
9087.15953 4.48529e-18
9088.81712 4.66013e-18
9090.48476 4.83481e-18
9092.14235 4.67024e-18
9093.79994 4.50594e-18
9095.45753 4.82910e-18
9097.12516 5.15197e-18
9098.78275 4.79796e-18
9100.44034 4.44420e-18
9102.09793 4.66461e-18
9103.76557 4.88512e-18
9105.42316 5.31860e-18
9107.08075 5.75180e-18
9108.74838 5.52166e-18
9110.40597 5.29151e-18
9112.06356 4.98085e-18
9113.72115 4.67031e-18
9115.38879 4.57855e-18
9117.04638 4.48688e-18
9118.70397 4.59360e-18
9120.36156 4.70027e-18
9122.02920 4.64537e-18
9123.68679 4.59053e-18
9125.34438 4.69621e-18
9127.01201 4.80188e-18
9128.66960 4.93999e-18
9130.32719 5.07805e-18
9131.98478 5.14865e-18
9133.65242 5.21922e-18
9135.31001 5.20978e-18
9136.96760 5.20038e-18
9138.63523 5.29018e-18
9140.29282 5.37989e-18
9141.95041 5.20770e-18
9143.60800 5.03559e-18
9145.27564 5.07414e-18
9146.93323 5.11263e-18
9148.59082 5.03916e-18
9150.24841 4.96563e-18
9151.91605 4.76085e-18
9153.57364 4.55630e-18
9155.23123 4.92221e-18
9156.89886 5.28797e-18
9158.55645 5.32773e-18
9160.21404 5.36741e-18
9161.87163 5.27234e-18
9163.53927 5.17718e-18
9165.19686 4.88660e-18
9166.85445 4.59621e-18
9168.51204 4.80333e-18
9170.17967 5.01037e-18
9171.83726 5.01864e-18
9173.49485 5.02689e-18
9175.15244 4.97078e-18
9176.82008 4.91481e-18
9178.47767 5.17499e-18
9180.13526 5.43510e-18
9181.80290 5.51134e-18
9183.46049 5.58751e-18
9185.11808 5.48779e-18
9186.77567 5.38814e-18
9188.44330 5.45184e-18
9190.10089 5.51547e-18
9191.75848 5.43873e-18
9193.42612 5.36193e-18
9195.08371 5.14207e-18
9196.74130 4.92242e-18
9198.39889 5.23944e-18
9200.06652 5.55633e-18
9201.72411 5.56808e-18
9203.38170 5.57970e-18
9205.03929 5.31866e-18
9206.70693 5.05772e-18
9208.36452 5.05083e-18
9210.02211 5.04404e-18
9211.68975 5.26445e-18
9213.34734 5.48474e-18
9215.00493 5.42411e-18
9216.66252 5.36347e-18
9218.33015 5.26430e-18
9219.98774 5.16513e-18
9221.64533 5.06008e-18
9223.31297 4.95511e-18
9224.97056 5.03519e-18
9226.62815 5.11512e-18
9228.28574 4.82821e-18
9229.95337 4.54160e-18
9231.61096 5.00564e-18
9233.26855 5.46956e-18
9234.92614 5.69401e-18
9236.59378 5.91822e-18
9238.25137 5.57973e-18
9239.90896 5.24132e-18
9241.56655 5.06689e-18
9243.23419 4.89267e-18
9244.89178 5.23582e-18
9246.54937 5.57873e-18
9248.21700 5.32280e-18
9249.87459 5.06700e-18
9251.53218 5.08531e-18
9253.18977 5.10357e-18
9254.85741 5.04561e-18
9256.51500 4.98770e-18
9258.17259 5.05735e-18
9259.84022 5.12702e-18
9261.49781 5.25436e-18
9263.15540 5.38161e-18
9264.81299 5.28800e-18
9266.48063 5.19429e-18
9268.13822 4.86536e-18
9269.79581 4.53672e-18
9271.45340 4.91386e-18
9273.12104 5.29076e-18
9274.77863 5.11150e-18
9276.43622 4.93241e-18
9278.10385 5.20380e-18
9279.76144 5.47495e-18
9281.41903 5.20904e-18
9283.07662 4.94325e-18
9284.74426 4.95028e-18
9286.40185 4.95735e-18
9288.05944 5.08255e-18
9289.71703 5.20753e-18
9291.38466 4.79524e-18
9293.04225 4.38318e-18
9294.69984 4.50600e-18
9296.36748 4.62884e-18
9298.02507 4.80782e-18
9299.68266 4.98671e-18
9301.34025 4.99615e-18
9303.00789 5.00556e-18
9304.66548 4.97653e-18
9306.32307 4.94744e-18
9307.99070 4.75002e-18
9309.64829 4.55265e-18
9311.30588 4.45994e-18
9312.96347 4.36732e-18
9314.63111 4.45524e-18
9316.28870 4.54302e-18
9317.94629 4.26269e-18
9319.60388 3.98233e-18
9321.27151 3.60653e-18
9322.92910 3.23106e-18
9324.58669 3.63187e-18
9326.25433 4.03253e-18
9327.91192 4.08781e-18
9329.56951 4.14311e-18
9331.22710 4.27319e-18
9332.89474 4.40313e-18
9334.55233 4.18357e-18
9336.20992 3.96413e-18
9337.87755 4.04111e-18
9339.53514 4.11807e-18
9341.19273 4.16170e-18
9342.85032 4.20543e-18
9344.51796 4.43872e-18
9346.17555 4.67195e-18
9347.83314 4.72776e-18
9349.49073 4.78330e-18
9351.15836 4.19379e-18
9352.81595 3.60451e-18
9354.47354 3.50076e-18
9356.13113 3.39730e-18
9357.79877 3.95265e-18
9359.45636 4.50776e-18
9361.11395 4.45578e-18
9362.78159 4.40392e-18
9364.43918 4.65012e-18
9366.09677 4.89620e-18
9367.75436 4.89598e-18
9369.42199 4.89574e-18
9371.07958 4.85876e-18
9372.73717 4.82151e-18
9374.40481 4.11245e-18
9376.06240 3.40372e-18
9377.71999 3.42201e-18
9379.37758 3.44042e-18
9381.04521 3.73602e-18
9382.70280 4.03149e-18
9384.36039 4.04598e-18
9386.01798 4.06046e-18
9387.68562 4.06292e-18
9389.34321 4.06536e-18
9391.00080 4.04936e-18
9392.66844 4.03346e-18
9394.32603 4.21982e-18
9395.98362 4.40602e-18
9397.64121 4.21510e-18
9399.30884 4.02426e-18
9400.96643 4.03578e-18
9402.62402 4.04732e-18
9404.28161 4.10102e-18
9405.94925 4.15464e-18
9407.60684 4.04705e-18
9409.26443 3.93960e-18
9410.93206 4.15307e-18
9412.58965 4.36645e-18
9414.24724 4.40663e-18
9415.90483 4.44672e-18
9417.57247 4.27777e-18
9419.23006 4.10889e-18
9420.88765 4.06030e-18
9422.54524 4.01166e-18
9424.21288 3.83699e-18
9425.87047 3.66260e-18
9427.52806 4.13697e-18
9429.19569 4.61100e-18
9430.85328 4.32337e-18
9432.51087 4.03581e-18
9434.16846 3.94413e-18
9435.83610 3.85227e-18
9437.49369 3.34684e-18
9439.15128 2.84153e-18
9440.80887 2.65465e-18
9442.47650 2.46821e-18
9444.13409 3.29744e-18
9445.79168 4.12629e-18
9447.45932 4.11116e-18
9449.11691 4.09606e-18
9450.77450 4.19851e-18
9452.43209 4.30081e-18
9454.09973 4.05309e-18
9455.75732 3.80537e-18
9457.41491 3.50140e-18
9459.07250 3.19760e-18
9460.74013 3.27961e-18
9462.39772 3.36170e-18
9464.05531 3.65249e-18
9465.72295 3.94299e-18
9467.38054 3.55426e-18
9469.03813 3.16583e-18
9470.69572 3.44881e-18
9472.36335 3.73181e-18
9474.02094 4.05080e-18
9475.67853 4.36973e-18
9477.34617 4.53350e-18
9479.00376 4.69711e-18
9480.66135 4.51984e-18
9482.31894 4.34265e-18
9483.98658 4.34680e-18
9485.64417 4.35084e-18
9487.30176 4.05695e-18
9488.95935 3.76317e-18
9490.62698 3.73241e-18
9492.28457 3.70164e-18
9493.94216 3.60584e-18
9495.60980 3.51028e-18
9497.26739 3.97769e-18
9498.92498 4.44482e-18
9500.58257 4.23839e-18
9502.25020 4.03208e-18
9503.90779 4.09335e-18
9505.56538 4.15466e-18
9507.23302 4.25132e-18
9508.89061 4.34780e-18
9510.54820 4.03778e-18
9512.20579 3.72783e-18
9513.87343 3.59439e-18
9515.53102 3.46095e-18
9517.18861 3.39393e-18
9518.84620 3.32712e-18
9520.51383 3.75192e-18
9522.17142 4.17640e-18
9523.82901 3.91831e-18
9525.49665 3.66038e-18
9527.15424 3.75766e-18
9528.81183 3.85485e-18
9530.46942 3.70902e-18
9532.13705 3.56333e-18
9533.79464 3.73376e-18
9535.45223 3.90412e-18
9537.10982 3.94396e-18
9538.77746 3.98382e-18
9540.43505 4.07848e-18
9542.09264 4.17309e-18
9543.76028 4.12848e-18
9545.41787 4.08374e-18
9547.07546 3.75632e-18
9548.73305 3.42898e-18
9550.40068 3.26190e-18
9552.05827 3.09525e-18
9553.71586 3.90328e-18
9555.37345 4.71079e-18
9557.04109 4.34213e-18
9558.69868 3.97359e-18
9560.35627 3.92083e-18
9562.02390 3.86816e-18
9563.68149 4.02553e-18
9565.33908 4.18274e-18
9566.99667 3.96558e-18
9568.66431 3.74854e-18
9570.32190 3.77986e-18
9571.97949 3.81122e-18
9573.64713 3.90779e-18
9575.30472 4.00417e-18
9576.96231 3.70064e-18
9578.61990 3.39725e-18
9580.28753 3.39678e-18
9581.94512 3.39635e-18
9583.60271 3.50424e-18
9585.27035 3.61203e-18
9586.92794 3.47698e-18
9588.58553 3.34197e-18
9590.24312 3.29325e-18
9591.91075 3.24470e-18
9593.56834 3.55059e-18
9595.22593 3.85628e-18
9596.88352 3.71432e-18
9598.55116 3.57252e-18
9600.20875 3.82372e-18
9601.86634 4.07482e-18
9603.52393 4.06822e-18
9605.19157 4.06168e-18
9606.84916 4.23553e-18
9608.50675 4.40911e-18
9610.17438 3.95161e-18
9611.83197 3.49431e-18
9613.48956 3.47722e-18
9615.14715 3.46011e-18
9616.81479 3.42256e-18
9618.47238 3.38506e-18
9620.12997 3.44781e-18
9621.79760 3.51058e-18
9623.45519 3.59067e-18
9625.11278 3.67076e-18
9626.77037 3.74716e-18
9628.43801 3.82356e-18
9630.09560 3.92416e-18
9631.75319 4.02471e-18
9633.41078 4.01467e-18
9635.07842 4.00472e-18
9636.73601 4.21844e-18
9638.39360 4.43193e-18
9640.06123 4.17343e-18
9641.71882 3.91508e-18
9643.37641 4.00453e-18
9645.03400 4.09378e-18
9646.70164 3.73575e-18
9648.35923 3.37799e-18
9650.01682 3.61140e-18
9651.67441 3.84468e-18
9653.34204 3.81305e-18
9654.99963 3.78132e-18
9656.65722 3.51838e-18
9658.31481 3.25562e-18
9659.98245 3.36474e-18
9661.64004 3.47398e-18
9663.29763 3.84534e-18
9664.96527 4.21633e-18
9666.62286 3.71320e-18
9668.28045 3.21043e-18
9669.93804 3.47444e-18
9671.60567 3.73845e-18
9673.26326 4.00848e-18
9674.92085 4.27840e-18
9676.58849 4.34870e-18
9678.24608 4.41888e-18
9679.90367 4.22323e-18
9681.56126 4.02787e-18
9683.22889 4.44811e-18
9684.88648 4.86804e-18
9686.54407 4.53934e-18
9688.20166 4.21058e-18
9689.86930 3.74947e-18
9691.52689 3.28877e-18
9693.18448 3.72840e-18
9694.85212 4.16785e-18
9696.50971 4.22492e-18
9698.16730 4.28209e-18
9699.82489 4.59251e-18
9701.49252 4.90237e-18
9703.15011 4.01539e-18
9704.80770 3.12891e-18
9706.46529 3.32280e-18
9708.13293 3.51665e-18
9709.79052 3.59802e-18
9711.44811 3.67919e-18
9713.11574 3.29092e-18
9714.77333 2.90299e-18
9716.43092 3.29783e-18
9718.08851 3.69266e-18
9719.75615 4.05199e-18
9721.41374 4.41101e-18
9723.07133 4.06391e-18
9724.73897 3.71702e-18
9726.39656 3.79093e-18
9728.05415 3.86485e-18
9729.71174 3.97948e-18
9731.37937 4.09395e-18
9733.03696 3.86420e-18
9734.69455 3.63459e-18
9736.35214 3.73457e-18
9738.01978 3.83455e-18
9739.67737 4.00058e-18
9741.33496 4.16651e-18
9743.00259 4.16374e-18
9744.66018 4.16088e-18
9746.31777 3.94712e-18
9747.97536 3.73337e-18
9749.64300 3.55125e-18
9751.30059 3.36938e-18
9752.95818 3.74120e-18
9754.62582 4.11269e-18
9756.28341 3.81491e-18
9757.94100 3.51732e-18
9759.59859 3.65738e-18
9761.26622 3.79740e-18
9762.92381 3.90103e-18
9764.58140 4.00458e-18
9766.23899 3.93840e-18
9767.90663 3.87235e-18
9769.56422 4.04957e-18
9771.22181 4.22665e-18
9772.87940 4.08613e-18
9774.54703 3.94560e-18
9776.20462 3.72810e-18
9777.86221 3.51062e-18
9779.52985 3.32721e-18
9781.18744 3.14403e-18
9782.84503 3.47292e-18
9784.50262 3.80164e-18
9786.17026 3.72522e-18
9787.82785 3.64925e-18
9789.48544 4.55274e-18
9791.15307 5.45559e-18
9792.81066 4.99954e-18
9794.46825 4.54362e-18
9796.12584 4.31202e-18
9797.79348 4.08058e-18
9799.45107 4.21903e-18
9801.10866 4.35704e-18
9802.76625 3.57608e-18
9804.43388 2.79537e-18
9806.09147 2.53913e-18
9807.74906 2.28330e-18
9809.41670 2.88033e-18
9811.07429 3.47713e-18
9812.73188 3.60126e-18
9814.38947 3.72537e-18
9816.05711 3.85250e-18
9817.71470 3.97951e-18
9819.37229 3.88161e-18
9821.03992 3.78362e-18
9822.69751 3.48451e-18
9824.35510 3.18576e-18
9826.01269 3.62823e-18
9827.68033 4.07039e-18
9829.33792 3.82657e-18
9830.99551 3.58294e-18
9832.65310 3.71826e-18
9834.32073 3.85345e-18
9835.97832 3.74403e-18
9837.63591 3.63455e-18
9839.30355 3.40269e-18
9840.96114 3.17116e-18
9842.61873 3.61117e-18
9844.27632 4.05120e-18
9845.94396 4.51375e-18
9847.60155 4.97598e-18
9849.25914 4.76336e-18
9850.91673 4.55072e-18
9852.58436 4.33510e-18
9854.24195 4.11948e-18
9855.89954 3.92844e-18
9857.56718 3.73750e-18
9859.22477 3.70594e-18
9860.88236 3.67439e-18
9862.53995 3.66505e-18
9864.20758 3.65605e-18
9865.86517 4.37322e-18
9867.52276 5.08998e-18
9869.18035 4.90509e-18
9870.84799 4.72036e-18
9872.50558 4.88879e-18
9874.16317 5.05735e-18
9875.83081 5.51711e-18
9877.48840 5.97628e-18
9879.14599 5.19590e-18
9880.80358 4.41554e-18
9882.47121 3.66646e-18
9884.12880 2.91803e-18
9885.78639 3.52445e-18
9887.44398 4.13074e-18
9889.11162 4.45382e-18
9890.76921 4.77678e-18
9892.42680 4.87525e-18
9894.09443 4.97374e-18
9895.75202 5.12360e-18
9897.40961 5.27341e-18
9899.06720 5.35327e-18
9900.73484 5.43266e-18
9902.39243 4.48748e-18
9904.05002 3.54270e-18
9905.70761 3.45133e-18
9907.37525 3.35994e-18
9909.03284 3.21691e-18
9910.69043 3.07396e-18
9912.35806 3.11095e-18
9914.01565 3.14819e-18
9915.67324 3.67873e-18
9917.33083 4.20892e-18
9918.99847 4.02548e-18
9920.65606 3.84217e-18
9922.31365 3.92509e-18
9923.98128 4.00804e-18
9925.63887 4.11354e-18
9927.29646 4.21909e-18
9928.95405 4.41964e-18
9930.62169 4.61969e-18
9932.27928 3.69608e-18
9933.93687 2.77279e-18
9935.59446 2.51315e-18
9937.26210 2.25405e-18
9938.91969 3.12561e-18
9940.57728 3.99692e-18
9942.23487 4.35401e-18
9943.90250 4.71094e-18
9945.56009 4.71351e-18
9947.21768 4.71577e-18
9948.88532 4.06382e-18
9950.54291 3.41253e-18
9952.20050 4.16461e-18
9953.85809 4.91633e-18
9955.52572 4.90471e-18
9957.18331 4.89285e-18
9958.84090 4.36696e-18
9960.50854 3.84123e-18
9962.16613 3.61193e-18
9963.82372 3.38271e-18
9965.48131 3.25153e-18
9967.14895 3.12027e-18
9968.80654 2.80372e-18
9970.46413 2.48727e-18
9972.12172 2.33606e-18
9973.78935 2.18494e-18
9975.44694 2.20530e-18
9977.10453 2.22596e-18
9978.77217 2.84704e-18
9980.42976 3.46780e-18
9982.08735 3.43595e-18
9983.74494 3.40424e-18
9985.41257 3.63866e-18
9987.07016 3.87313e-18
9988.72775 4.23920e-18
9990.39539 4.60503e-18
9992.05298 4.48358e-18
9993.71057 4.36196e-18
9995.36816 3.92621e-18
9997.03580 3.49030e-18
9998.69339 2.70006e-18
