# wavelength flux
3479.99682 1.79868e-17
3481.46706 1.51319e-17
3482.93730 7.96439e-18
3484.40754 1.56808e-17
3485.87778 1.27645e-17
3487.34802 1.16479e-17
3488.81826 2.24258e-17
3490.28850 2.68442e-17
3491.75874 1.82475e-17
3493.22898 1.32621e-17
3494.69922 2.17365e-17
3496.16946 2.59632e-17
3497.63970 2.27374e-17
3499.10994 1.62324e-17
3500.58018 1.16547e-17
3502.05042 2.16826e-17
3503.52066 3.30249e-17
3504.99090 2.71359e-17
3506.46114 1.50615e-17
3507.93138 1.12159e-17
3509.40162 2.36065e-17
3510.87186 2.75163e-17
3512.34210 2.18798e-17
3513.81234 2.25835e-17
3515.28258 1.82905e-17
3516.75282 1.32474e-17
3518.22306 1.59648e-17
3519.69330 2.60662e-17
3521.16354 2.00323e-17
3522.63378 1.80303e-17
3524.10402 1.95786e-17
3525.57426 1.53029e-17
3527.04450 1.83119e-17
3528.51474 1.72617e-17
3529.98498 1.73115e-17
3531.44501 1.63556e-17
3532.91525 2.33313e-17
3534.38549 2.24739e-17
3535.85573 1.93351e-17
3537.32597 2.59939e-17
3538.79621 2.16525e-17
3540.26645 1.76698e-17
3541.73669 2.55165e-17
3543.20693 2.25136e-17
3544.67717 2.03867e-17
3546.14741 1.85406e-17
3547.61765 1.42930e-17
3549.08789 2.20438e-17
3550.55813 2.32858e-17
3552.02837 2.54816e-17
3553.49861 1.75846e-17
3554.96885 1.35065e-17
3556.43909 2.55731e-17
3557.90933 2.68551e-17
3559.37957 2.05806e-17
3560.84981 1.18730e-17
3562.32005 1.35911e-17
3563.79029 2.32128e-17
3565.26053 2.11628e-17
3566.73077 1.78137e-17
3568.20101 1.84696e-17
3569.67125 2.35569e-17
3571.14149 2.07901e-17
3572.61173 2.09383e-17
3574.08197 2.12724e-17
3575.55221 2.37058e-17
3577.02245 2.15997e-17
3578.49269 2.25769e-17
3579.96293 3.25137e-17
3581.43317 2.28684e-17
3582.90341 1.54352e-17
3584.37365 2.09090e-17
3585.84389 2.04029e-17
3587.31413 2.53583e-17
3588.78437 2.55879e-17
3590.25461 1.92891e-17
3591.72485 1.73859e-17
3593.18488 1.88235e-17
3594.65512 2.45647e-17
3596.12536 2.28674e-17
3597.59560 2.45916e-17
3599.06584 2.23594e-17
3600.53608 1.72116e-17
3602.00632 2.11532e-17
3603.47656 2.25307e-17
3604.94680 2.07896e-17
3606.41704 1.61747e-17
3607.88728 2.16840e-17
3609.35752 2.23778e-17
3610.82776 2.30596e-17
3612.29800 2.43980e-17
3613.76824 2.19242e-17
3615.23848 2.10420e-17
3616.70872 2.31571e-17
3618.17896 2.33108e-17
3619.64920 2.16953e-17
3621.11944 1.62781e-17
3622.58968 1.86094e-17
3624.05992 2.63022e-17
3625.53016 2.10148e-17
3627.00040 1.50651e-17
3628.47064 1.53971e-17
3629.94088 2.07904e-17
3631.41112 2.31757e-17
3632.88136 2.36830e-17
3634.35160 1.58950e-17
3635.82184 1.36625e-17
3637.29208 2.32779e-17
3638.76232 2.70608e-17
3640.23256 1.79872e-17
3641.70280 1.51287e-17
3643.17304 1.84439e-17
3644.64328 2.13876e-17
3646.11352 1.95894e-17
3647.58376 2.09889e-17
3649.05400 2.34128e-17
3650.52424 1.93597e-17
3651.99448 1.93454e-17
3653.46472 2.43491e-17
3654.92475 2.63678e-17
3656.39499 2.30642e-17
3657.86523 1.91362e-17
3659.33547 1.91928e-17
3660.80571 2.12180e-17
3662.27595 1.72986e-17
3663.74619 1.72159e-17
3665.21643 2.15198e-17
3666.68667 1.71714e-17
3668.15691 1.47263e-17
3669.62715 1.66050e-17
3671.09739 1.94902e-17
3672.56763 1.85020e-17
3674.03787 1.40860e-17
3675.50811 2.21856e-17
3676.97835 2.17603e-17
3678.44859 1.83911e-17
3679.91883 2.01306e-17
3681.38907 1.75742e-17
3682.85931 1.83812e-17
3684.32955 2.44367e-17
3685.79979 2.22036e-17
3687.27003 1.91855e-17
3688.74027 1.72259e-17
3690.21051 1.74051e-17
3691.68075 1.17852e-17
3693.15099 1.51573e-17
3694.62123 2.13957e-17
3696.09147 1.91788e-17
3697.56171 1.92719e-17
3699.03195 1.95133e-17
3700.50219 1.93501e-17
3701.97243 1.94547e-17
3703.44267 2.06955e-17
3704.91291 1.90528e-17
3706.38315 1.72215e-17
3707.85339 2.07478e-17
3709.32363 1.78447e-17
3710.79387 1.59401e-17
3712.26411 1.91782e-17
3713.73435 1.94716e-17
3715.20459 2.06770e-17
3716.67483 2.14670e-17
3718.13486 2.20826e-17
3719.60510 1.86304e-17
3721.07534 1.86248e-17
3722.54558 2.11302e-17
3724.01582 1.92816e-17
3725.48606 1.57287e-17
3726.95630 1.96979e-17
3728.42654 2.45904e-17
3729.89678 1.52022e-17
3731.36702 1.44985e-17
3732.83726 2.14347e-17
3734.30750 2.22507e-17
3735.77774 1.75331e-17
3737.24798 1.47761e-17
3738.71822 1.86777e-17
3740.18846 1.96979e-17
3741.65870 1.56734e-17
3743.12894 1.32634e-17
3744.59918 1.44668e-17
3746.06942 1.68007e-17
3747.53966 1.97968e-17
3749.00990 1.92352e-17
3750.48014 1.56365e-17
3751.95038 1.61971e-17
3753.42062 1.78527e-17
3754.89086 1.69776e-17
3756.36110 1.23657e-17
3757.83134 9.64000e-18
3759.30158 1.38629e-17
3760.77182 1.45425e-17
3762.24206 1.45133e-17
3763.71230 1.59634e-17
3765.18254 1.22699e-17
3766.65278 1.01023e-17
3768.12302 1.61626e-17
3769.59326 1.73821e-17
3771.06350 1.57725e-17
3772.53374 1.58886e-17
3774.00398 1.30293e-17
3775.47422 1.26324e-17
3776.94446 1.38268e-17
3778.41470 1.35303e-17
3779.88494 1.49757e-17
3781.34497 1.36080e-17
3782.81521 9.65217e-18
3784.28545 1.00301e-17
3785.75569 9.57192e-18
3787.22593 1.10879e-17
3788.69617 1.04325e-17
3790.16641 1.19063e-17
3791.63665 1.23265e-17
3793.10689 1.09204e-17
3794.57713 1.22495e-17
3796.04737 1.31685e-17
3797.51761 1.17703e-17
3798.98785 1.50166e-17
3800.45809 8.31563e-18
3801.92833 5.92468e-18
3803.39857 7.01866e-18
3804.86881 9.55027e-18
3806.33905 6.85103e-18
3807.80929 6.43452e-18
3809.27953 7.32724e-18
3810.74977 8.96799e-18
3812.22001 9.60513e-18
3813.69025 1.33056e-17
3815.16049 9.43747e-18
3816.63073 7.56149e-18
3818.10097 1.13163e-17
3819.57121 1.14823e-17
3821.04145 9.05308e-18
3822.51169 5.96280e-18
3823.98193 7.45592e-18
3825.45217 1.18028e-17
3826.92241 1.02295e-17
3828.39265 1.01267e-17
3829.86289 1.27640e-17
3831.33313 7.82670e-18
3832.80337 5.19543e-18
3834.27361 7.24577e-18
3835.74385 1.02975e-17
3837.21409 5.89717e-18
3838.68433 7.63419e-18
3840.15457 1.00298e-17
3841.62481 7.37384e-18
3843.08484 6.93768e-18
3844.55508 9.73951e-18
3846.02532 8.19030e-18
3847.49556 6.45565e-18
3848.96580 9.90723e-18
3850.43604 8.49648e-18
3851.90628 7.23157e-18
3853.37652 6.75954e-18
3854.84676 7.58653e-18
3856.31700 6.29955e-18
3857.78724 5.40325e-18
3859.25748 7.74157e-18
3860.72772 8.30348e-18
3862.19796 9.23140e-18
3863.66820 4.75493e-18
3865.13844 2.07704e-18
3866.60868 6.83536e-18
3868.07892 7.55531e-18
3869.54916 8.00154e-18
3871.01940 7.89247e-18
3872.48964 7.47359e-18
3873.95988 7.85259e-18
3875.43012 7.51272e-18
3876.90036 1.04297e-17
3878.37060 1.10914e-17
3879.84084 7.89338e-18
3881.31108 8.13160e-18
3882.78132 6.72097e-18
3884.25156 6.93412e-18
3885.72180 8.68666e-18
3887.19204 1.01777e-17
3888.66228 1.08970e-17
3890.13252 8.37355e-18
3891.60276 8.97684e-18
3893.07300 7.32003e-18
3894.54324 7.56933e-18
3896.01348 8.84312e-18
3897.48372 7.34094e-18
3898.95396 6.86790e-18
3900.42420 9.36343e-18
3901.89444 1.08719e-17
3903.36468 6.69646e-18
3904.83492 1.09570e-17
3906.29495 1.29085e-17
3907.76519 1.36402e-17
3909.23543 1.20262e-17
3910.70567 9.49895e-18
3912.17591 9.80238e-18
3913.64615 1.08989e-17
3915.11639 8.12735e-18
3916.58663 8.04821e-18
3918.05687 1.08886e-17
3919.52711 1.18160e-17
3920.99735 1.12892e-17
3922.46759 1.34401e-17
3923.93783 1.56612e-17
3925.40807 1.51164e-17
3926.87831 1.49999e-17
3928.34855 1.29134e-17
3929.81879 1.17390e-17
3931.28903 1.26915e-17
3932.75927 1.53382e-17
3934.22951 1.62053e-17
3935.69975 1.48600e-17
3937.16999 1.36194e-17
3938.64023 1.60438e-17
3940.11047 1.85454e-17
3941.58071 1.86331e-17
3943.05095 1.82207e-17
3944.52119 1.79897e-17
3945.99143 1.77453e-17
3947.46167 1.88938e-17
3948.93191 2.08415e-17
3950.40215 1.54978e-17
3951.87239 1.57457e-17
3953.34263 2.22565e-17
3954.81287 1.99889e-17
3956.28311 1.92219e-17
3957.75335 1.89134e-17
3959.22359 1.75550e-17
3960.69383 2.09562e-17
3962.16407 2.08695e-17
3963.63431 1.96423e-17
3965.10455 1.77888e-17
3966.57479 1.93506e-17
3968.04503 2.23372e-17
3969.50506 2.22449e-17
3970.97530 2.28199e-17
3972.44554 2.43511e-17
3973.91578 2.31017e-17
3975.38602 2.12068e-17
3976.85626 2.56486e-17
3978.32650 2.48765e-17
3979.79674 2.24494e-17
3981.26698 2.54892e-17
3982.73722 2.87024e-17
3984.20746 2.57662e-17
3985.67770 2.23741e-17
3987.14794 2.34163e-17
3988.61818 2.25418e-17
3990.08842 2.53106e-17
3991.55866 2.58662e-17
3993.02890 2.49201e-17
3994.49914 2.35991e-17
3995.96938 2.57705e-17
3997.43962 2.53000e-17
3998.90986 2.49310e-17
4000.38010 2.40427e-17
4001.85034 2.52213e-17
4003.32058 2.97857e-17
4004.79082 2.37097e-17
4006.26106 2.50480e-17
4007.73130 2.81196e-17
4009.20154 2.93233e-17
4010.67178 2.60925e-17
4012.14202 2.61586e-17
4013.61226 2.81676e-17
4015.08250 2.74815e-17
4016.55274 2.58432e-17
4018.02298 2.34117e-17
4019.49322 2.35943e-17
4020.96346 2.48210e-17
4022.43370 2.72372e-17
4023.90394 2.85233e-17
4025.37418 2.84844e-17
4026.84442 2.66667e-17
4028.31466 2.89077e-17
4029.78490 2.64295e-17
4031.24493 2.48449e-17
4032.71517 2.47345e-17
4034.18541 2.70063e-17
4035.65565 2.67184e-17
4037.12589 2.68409e-17
4038.59613 2.73196e-17
4040.06637 2.88752e-17
4041.53661 2.93559e-17
4043.00685 2.93422e-17
4044.47709 2.71330e-17
4045.94733 2.66765e-17
4047.41757 2.58908e-17
4048.88781 2.94319e-17
4050.35805 2.85953e-17
4051.82829 2.95829e-17
4053.29853 2.62848e-17
4054.76877 2.91308e-17
4056.23901 2.90212e-17
4057.70925 2.89919e-17
4059.17949 2.76553e-17
4060.64973 2.58475e-17
4062.11997 2.61112e-17
4063.59021 2.52824e-17
4065.06045 2.45660e-17
4066.53069 2.68710e-17
4068.00093 2.54522e-17
4069.47117 2.50498e-17
4070.94141 2.59000e-17
4072.41165 2.64549e-17
4073.88189 2.62341e-17
4075.35213 2.45690e-17
4076.82237 2.62229e-17
4078.29261 2.66164e-17
4079.76285 2.64904e-17
4081.23309 2.84417e-17
4082.70333 2.85224e-17
4084.17357 2.56507e-17
4085.64381 2.35105e-17
4087.11405 2.58890e-17
4088.58429 2.66181e-17
4090.05453 2.48077e-17
4091.52477 2.65055e-17
4092.98480 2.34914e-17
4094.45504 2.39806e-17
4095.92528 2.50987e-17
4097.39552 2.35036e-17
4098.86576 2.17641e-17
4100.33600 2.32015e-17
4101.80624 2.35884e-17
4103.27648 2.36437e-17
4104.74672 2.39344e-17
4106.21696 2.37756e-17
4107.68720 2.35996e-17
4109.15744 2.27932e-17
4110.62768 2.49587e-17
4112.09792 2.67433e-17
4113.56816 2.36470e-17
4115.03840 2.24613e-17
4116.50864 2.55405e-17
4117.97888 2.39627e-17
4119.44912 2.12840e-17
4120.91936 2.20317e-17
4122.38960 2.32106e-17
4123.85984 2.27717e-17
4125.33008 2.10113e-17
4126.80032 1.87975e-17
4128.27056 2.18662e-17
4129.74080 2.31904e-17
4131.21104 2.15622e-17
4132.68128 2.01241e-17
4134.15152 1.99003e-17
4135.62176 2.13261e-17
4137.09200 2.18706e-17
4138.56224 2.21901e-17
4140.03248 2.14362e-17
4141.50272 1.86461e-17
4142.97296 1.97884e-17
4144.44320 2.19280e-17
4145.91344 2.20037e-17
4147.38368 2.16906e-17
4148.85392 1.85892e-17
4150.32416 2.00695e-17
4151.79440 2.10641e-17
4153.26464 2.18722e-17
4154.73488 2.17881e-17
4156.20512 2.13867e-17
4157.66515 2.25809e-17
4159.13539 2.14756e-17
4160.60563 1.91924e-17
4162.07587 1.92142e-17
4163.54611 1.94325e-17
4165.01635 2.01125e-17
4166.48659 2.09691e-17
4167.95683 1.84723e-17
4169.42707 1.83310e-17
4170.89731 2.04416e-17
4172.36755 1.75955e-17
4173.83779 1.71378e-17
4175.30803 1.85861e-17
4176.77827 1.99204e-17
4178.24851 1.97188e-17
4179.71875 1.87571e-17
4181.18899 1.98880e-17
4182.65923 1.84074e-17
4184.12947 1.71258e-17
4185.59971 2.14276e-17
4187.06995 1.97591e-17
4188.54019 1.79606e-17
4190.01043 1.87882e-17
4191.48067 1.75264e-17
4192.95091 1.80651e-17
4194.42115 1.93777e-17
4195.89139 1.68775e-17
4197.36163 1.99690e-17
4198.83187 1.94963e-17
4200.30211 2.02903e-17
4201.77235 1.93380e-17
4203.24259 1.82526e-17
4204.71283 1.96834e-17
4206.18307 2.20566e-17
4207.65331 2.22295e-17
4209.12355 1.84819e-17
4210.59379 2.00742e-17
4212.06403 2.04233e-17
4213.53427 2.11349e-17
4215.00451 1.89838e-17
4216.47475 1.98191e-17
4217.94499 2.14151e-17
4219.40502 1.97879e-17
4220.87526 1.87378e-17
4222.34550 1.89010e-17
4223.81574 1.88285e-17
4225.28598 1.95133e-17
4226.75622 2.09342e-17
4228.22646 1.99782e-17
4229.69670 1.90268e-17
4231.16694 1.89363e-17
4232.63718 1.97635e-17
4234.10742 2.32617e-17
4235.57766 2.20444e-17
4237.04790 2.31611e-17
4238.51814 2.34675e-17
4239.98838 1.95787e-17
4241.45862 1.85536e-17
4242.92886 1.89877e-17
4244.39910 2.02397e-17
4245.86934 2.12188e-17
4247.33958 2.02210e-17
4248.80982 1.81430e-17
4250.28006 1.90293e-17
4251.75030 2.15446e-17
4253.22054 2.10904e-17
4254.69078 1.89789e-17
4256.16102 2.08174e-17
4257.63126 2.12764e-17
4259.10150 2.12936e-17
4260.57174 2.67844e-17
4262.04198 2.91151e-17
4263.51222 2.51698e-17
4264.98246 2.33877e-17
4266.45270 2.15358e-17
4267.92294 1.98644e-17
4269.39318 2.07882e-17
4270.86342 2.03523e-17
4272.33366 2.01699e-17
4273.80390 2.17199e-17
4275.27414 2.08420e-17
4276.74438 2.01497e-17
4278.21462 1.93168e-17
4279.68486 1.87359e-17
4281.14489 1.93131e-17
4282.61513 1.92867e-17
4284.08537 1.93171e-17
4285.55561 1.99714e-17
4287.02585 2.16625e-17
4288.49609 2.10166e-17
4289.96633 1.74293e-17
4291.43657 1.78868e-17
4292.90681 2.10379e-17
4294.37705 2.12712e-17
4295.84729 2.15051e-17
4297.31753 2.28480e-17
4298.78777 2.49387e-17
4300.25801 2.94553e-17
4301.72825 3.01141e-17
4303.19849 2.45413e-17
4304.66873 2.18416e-17
4306.13897 2.00715e-17
4307.60921 1.91965e-17
4309.07945 1.94268e-17
4310.54969 1.83021e-17
4312.01993 2.07109e-17
4313.49017 2.19443e-17
4314.96041 2.04839e-17
4316.43065 1.87770e-17
4317.90089 1.98376e-17
4319.37113 2.09211e-17
4320.84137 2.23517e-17
4322.31161 2.04339e-17
4323.78185 1.90794e-17
4325.25209 1.88282e-17
4326.72233 1.91956e-17
4328.19257 2.14088e-17
4329.66281 2.14623e-17
4331.13305 1.87729e-17
4332.60329 1.77717e-17
4334.07353 1.93841e-17
4335.54377 2.09671e-17
4337.01401 1.87468e-17
4338.48425 1.76756e-17
4339.95449 2.00789e-17
4341.41452 1.89860e-17
4342.88476 1.70405e-17
4344.35500 1.85536e-17
4345.82524 2.05512e-17
4347.29548 2.06410e-17
4348.76572 2.15660e-17
4350.23596 2.01694e-17
4351.70620 2.13007e-17
4353.17644 2.02326e-17
4354.64668 1.99194e-17
4356.11692 1.92589e-17
4357.58716 1.93451e-17
4359.05740 1.94134e-17
4360.52764 1.92844e-17
4361.99788 1.88881e-17
4363.46812 1.91807e-17
4364.93836 1.95681e-17
4366.40860 2.03502e-17
4367.87884 2.13855e-17
4369.34908 2.12718e-17
4370.81932 2.04399e-17
4372.28956 2.12571e-17
4373.75980 2.39877e-17
4375.23004 2.08901e-17
4376.70028 2.03261e-17
4378.17052 1.97924e-17
4379.64076 1.96669e-17
4381.11100 2.04030e-17
4382.58124 1.87974e-17
4384.05148 1.83608e-17
4385.52172 1.81945e-17
4386.99196 1.78153e-17
4388.46220 1.98222e-17
4389.93244 1.72877e-17
4391.40268 1.83280e-17
4392.87292 1.87550e-17
4394.34316 1.98082e-17
4395.81340 2.06979e-17
4397.28364 2.06604e-17
4398.75388 1.99113e-17
4400.22412 1.78297e-17
4401.69436 1.72616e-17
4403.16460 1.68868e-17
4404.63484 1.80430e-17
4406.10508 1.82456e-17
4407.56511 1.79508e-17
4409.03535 1.78884e-17
4410.50559 1.72664e-17
4411.97583 1.59148e-17
4413.44607 1.68305e-17
4414.91631 1.53163e-17
4416.38655 1.57286e-17
4417.85679 1.62517e-17
4419.32703 1.53655e-17
4420.79727 1.70946e-17
4422.26751 1.60674e-17
4423.73775 1.66205e-17
4425.20799 1.65586e-17
4426.67823 1.46784e-17
4428.14847 1.61497e-17
4429.61871 1.54467e-17
4431.08895 1.50006e-17
4432.55919 1.36691e-17
4434.02943 1.42324e-17
4435.49967 1.58088e-17
4436.96991 1.77284e-17
4438.44015 1.56823e-17
4439.91039 1.40837e-17
4441.38063 1.51853e-17
4442.85087 1.52681e-17
4444.32111 1.42720e-17
4445.79135 1.29601e-17
4447.26159 1.50339e-17
4448.73183 1.55418e-17
4450.20207 1.42131e-17
4451.67231 1.45853e-17
4453.14255 1.38887e-17
4454.61279 1.48136e-17
4456.08303 1.37953e-17
4457.55327 1.40424e-17
4459.02351 1.52717e-17
4460.49375 1.71207e-17
4461.96399 1.52055e-17
4463.43423 1.54951e-17
4464.90447 1.35688e-17
4466.37471 1.49202e-17
4467.83474 1.42391e-17
4469.30498 1.23895e-17
4470.77522 1.21333e-17
4472.24546 1.34457e-17
4473.71570 1.37606e-17
4475.18594 1.30156e-17
4476.65618 1.39016e-17
4478.12642 1.40804e-17
4479.59666 1.43846e-17
4481.06690 1.42976e-17
4482.53714 1.48483e-17
4484.00738 1.30835e-17
4485.47762 1.32443e-17
4486.94786 1.34947e-17
4488.41810 1.36346e-17
4489.88834 1.40375e-17
4491.35858 1.55113e-17
4492.82882 1.45137e-17
4494.29906 1.49070e-17
4495.76930 1.58243e-17
4497.23954 1.47171e-17
4498.70978 1.45748e-17
4500.18002 1.43144e-17
4501.65026 1.40540e-17
4503.12050 1.37937e-17
4504.59074 1.37919e-17
4506.06098 1.34176e-17
4507.53122 1.41837e-17
4509.00146 1.49031e-17
4510.47170 1.42384e-17
4511.94194 1.38351e-17
4513.41218 1.43306e-17
4514.88242 1.35984e-17
4516.35266 1.35085e-17
4517.82290 1.48005e-17
4519.29314 1.48445e-17
4520.76338 1.53027e-17
4522.23362 1.47189e-17
4523.70386 1.49632e-17
4525.17410 1.49996e-17
4526.64434 1.47159e-17
4528.11458 1.42235e-17
4529.58482 1.45978e-17
4531.04485 1.55156e-17
4532.51509 1.52032e-17
4533.98533 1.37010e-17
4535.45557 1.59044e-17
4536.92581 1.69208e-17
4538.39605 1.57835e-17
4539.86629 1.53238e-17
4541.33653 1.47972e-17
4542.80677 1.56287e-17
4544.27701 1.63131e-17
4545.74725 1.50756e-17
4547.21749 1.71893e-17
4548.68773 1.90827e-17
4550.15797 1.83630e-17
4551.62821 1.74733e-17
4553.09845 1.72001e-17
4554.56869 1.65088e-17
4556.03893 1.80445e-17
4557.50917 1.85142e-17
4558.97941 1.75906e-17
4560.44965 1.72053e-17
4561.91989 1.86112e-17
4563.39013 1.69677e-17
4564.86037 1.59979e-17
4566.33061 1.71337e-17
4567.80085 1.76745e-17
4569.27109 1.81994e-17
4570.74133 1.77169e-17
4572.21157 1.85000e-17
4573.68181 1.95170e-17
4575.15205 1.83366e-17
4576.62229 1.83510e-17
4578.09253 1.81441e-17
4579.56277 1.88757e-17
4581.03301 1.99579e-17
4582.50325 1.97816e-17
4583.97349 1.95520e-17
4585.44373 1.96099e-17
4586.91397 1.90968e-17
4588.38421 2.03689e-17
4589.85445 2.12378e-17
4591.32469 1.93117e-17
4592.79493 2.06919e-17
4594.25496 2.07216e-17
4595.72520 1.94229e-17
4597.19544 1.97000e-17
4598.66568 2.06006e-17
4600.13592 2.04112e-17
4601.60616 2.12150e-17
4603.07640 2.15805e-17
4604.54664 2.20572e-17
4606.01688 2.16055e-17
4607.48712 2.00193e-17
4608.95736 2.12722e-17
4610.42760 2.22727e-17
4611.89784 1.99673e-17
4613.36808 1.95724e-17
4614.83832 2.10282e-17
4616.30856 2.20139e-17
4617.77880 2.33931e-17
4619.24904 2.36384e-17
4620.71928 2.07904e-17
4622.18952 2.13181e-17
4623.65976 2.22548e-17
4625.13000 2.11111e-17
4626.60024 2.22166e-17
4628.07048 2.28015e-17
4629.54072 2.18172e-17
4631.01096 2.14672e-17
4632.48120 2.03191e-17
4633.95144 2.02987e-17
4635.42168 2.18271e-17
4636.89192 2.33342e-17
4638.36216 2.47315e-17
4639.83240 2.32247e-17
4641.30264 2.31368e-17
4642.77288 2.35759e-17
4644.24312 2.21785e-17
4645.71336 2.17209e-17
4647.18360 2.32890e-17
4648.65384 2.30653e-17
4650.12408 2.55120e-17
4651.59432 2.52793e-17
4653.06456 2.03014e-17
4654.52459 2.16355e-17
4655.99483 2.10601e-17
4657.46507 2.20956e-17
4658.93531 2.46782e-17
4660.40555 2.33661e-17
4661.87579 2.32592e-17
4663.34603 2.38491e-17
4664.81627 2.34514e-17
4666.28651 2.28692e-17
4667.75675 2.37915e-17
4669.22699 2.52656e-17
4670.69723 2.46864e-17
4672.16747 2.30003e-17
4673.63771 2.32235e-17
4675.10795 2.20552e-17
4676.57819 2.19274e-17
4678.04843 2.28442e-17
4679.51867 2.39083e-17
4680.98891 2.38439e-17
4682.45915 2.35026e-17
4683.92939 2.41000e-17
4685.39963 2.39302e-17
4686.86987 2.43797e-17
4688.34011 2.37303e-17
4689.81035 2.40353e-17
4691.28059 2.24897e-17
4692.75083 2.24374e-17
4694.22107 2.26255e-17
4695.69131 2.25332e-17
4697.16155 2.38411e-17
4698.63179 2.32031e-17
4700.10203 2.20349e-17
4701.57227 2.12010e-17
4703.04251 2.12934e-17
4704.51275 2.24797e-17
4705.98299 2.42976e-17
4707.45323 2.43470e-17
4708.92347 2.44068e-17
4710.39371 2.35608e-17
4711.86395 2.41709e-17
4713.33419 2.39058e-17
4714.80443 2.33240e-17
4716.27467 2.45007e-17
4717.74491 2.45236e-17
4719.21515 2.17200e-17
4720.67518 2.20063e-17
4722.14542 2.31578e-17
4723.61566 2.43964e-17
4725.08590 2.29637e-17
4726.55614 2.42229e-17
4728.02638 2.51503e-17
4729.49662 2.31282e-17
4730.96686 2.23373e-17
4732.43710 2.25224e-17
4733.90734 2.29139e-17
4735.37758 2.26000e-17
4736.84782 2.37697e-17
4738.31806 2.30869e-17
4739.78830 2.25114e-17
4741.25854 2.31364e-17
4742.72878 2.35340e-17
4744.19902 2.32468e-17
4745.66926 2.32953e-17
4747.13950 2.25846e-17
4748.60974 2.34219e-17
4750.07998 2.24237e-17
4751.55022 2.12275e-17
4753.02046 2.23829e-17
4754.49070 2.16739e-17
4755.96094 2.19473e-17
4757.43118 2.24610e-17
4758.90142 2.13364e-17
4760.37166 2.16870e-17
4761.84190 2.27343e-17
4763.31214 2.10810e-17
4764.78238 2.09985e-17
4766.25262 2.15667e-17
4767.72286 2.18674e-17
4769.19310 2.21494e-17
4770.66334 2.16770e-17
4772.13358 2.09336e-17
4773.60382 2.00928e-17
4775.07406 2.02567e-17
4776.54430 2.13370e-17
4778.01454 2.12746e-17
4779.48478 2.07221e-17
4780.95502 2.03631e-17
4782.41505 1.97829e-17
4783.88529 2.01044e-17
4785.35553 2.10221e-17
4786.82577 1.97008e-17
4788.29601 2.09879e-17
4789.76625 2.02342e-17
4791.23649 1.91545e-17
4792.70673 2.06323e-17
4794.17697 1.99245e-17
4795.64721 1.83471e-17
4797.11745 1.85021e-17
4798.58769 1.94216e-17
4800.05793 1.90307e-17
4801.52817 1.94549e-17
4802.99841 1.90452e-17
4804.46865 1.96125e-17
4805.93889 1.98371e-17
4807.40913 1.81956e-17
4808.87937 1.82040e-17
4810.34961 1.98289e-17
4811.81985 1.87751e-17
4813.29009 1.91666e-17
4814.76033 1.87176e-17
4816.23057 1.71231e-17
4817.70081 1.61774e-17
4819.17105 1.72742e-17
4820.64129 1.71536e-17
4822.11153 1.53264e-17
4823.58177 1.58722e-17
4825.05201 1.72564e-17
4826.52225 1.59000e-17
4827.99249 1.45618e-17
4829.46273 1.49419e-17
4830.93297 1.59049e-17
4832.40321 1.65933e-17
4833.87345 1.71716e-17
4835.34369 1.72242e-17
4836.81393 1.53370e-17
4838.28417 1.56103e-17
4839.75441 1.45430e-17
4841.22465 1.47827e-17
4842.68468 1.50631e-17
4844.15492 1.43555e-17
4845.62516 1.45742e-17
4847.09540 1.27099e-17
4848.56564 1.22280e-17
4850.03588 1.29979e-17
4851.50612 1.32847e-17
4852.97636 1.30582e-17
4854.44660 1.29486e-17
4855.91684 1.33646e-17
4857.38708 1.38732e-17
4858.85732 1.40090e-17
4860.32756 1.27137e-17
4861.79780 1.19268e-17
4863.26804 1.19180e-17
4864.73828 1.24182e-17
4866.20852 1.10364e-17
4867.67876 1.05882e-17
4869.14900 1.16222e-17
4870.61924 1.09470e-17
4872.08948 1.22196e-17
4873.55972 1.26810e-17
4875.02996 1.29600e-17
4876.50020 1.24254e-17
4877.97044 1.24419e-17
4879.44068 1.30598e-17
4880.91092 1.22648e-17
4882.38116 1.20286e-17
4883.85140 1.28206e-17
4885.32164 1.20226e-17
4886.79188 1.33013e-17
4888.26212 1.29443e-17
4889.73236 1.05852e-17
4891.20260 1.14346e-17
4892.67284 1.28900e-17
4894.14308 1.28763e-17
4895.61332 1.31871e-17
4897.08356 1.38203e-17
4898.55380 1.38417e-17
4900.02404 1.27814e-17
4901.49428 1.31036e-17
4902.96452 1.37936e-17
4904.43476 1.31411e-17
4905.90500 1.33199e-17
4907.37524 1.34028e-17
4908.83527 1.28252e-17
4910.30551 1.31565e-17
4911.77575 1.38019e-17
4913.24599 1.27957e-17
4914.71623 1.24356e-17
4916.18647 1.27615e-17
4917.65671 1.20479e-17
4919.12695 1.12800e-17
4920.59719 1.16025e-17
4922.06743 1.31975e-17
4923.53767 1.30869e-17
4925.00791 1.31649e-17
4926.47815 1.34822e-17
4927.94839 1.15843e-17
4929.41863 1.17346e-17
4930.88887 1.27483e-17
4932.35911 1.15506e-17
4933.82935 1.05130e-17
4935.29959 1.05686e-17
4936.76983 1.11918e-17
4938.24007 1.15314e-17
4939.71031 1.18538e-17
4941.18055 1.21106e-17
4942.65079 1.11007e-17
4944.12103 1.05343e-17
4945.59127 1.08327e-17
4947.06151 1.07853e-17
4948.53175 1.05031e-17
4950.00199 9.76044e-18
4951.47223 9.57952e-18
4952.94247 1.11577e-17
4954.41271 1.16135e-17
4955.88295 1.24132e-17
4957.35319 1.25129e-17
4958.82343 1.11782e-17
4960.29367 1.07344e-17
4961.76391 1.08518e-17
4963.23415 1.04634e-17
4964.70439 1.15616e-17
4966.17463 1.30934e-17
4967.64487 1.28746e-17
4969.10490 1.17861e-17
4970.57514 1.16906e-17
4972.04538 1.15394e-17
4973.51562 1.26544e-17
4974.98586 1.29934e-17
4976.45610 1.21140e-17
4977.92634 1.16706e-17
4979.39658 1.26618e-17
4980.86682 1.29829e-17
4982.33706 1.32060e-17
4983.80730 1.38119e-17
4985.27754 1.49099e-17
4986.74778 1.52650e-17
4988.21802 1.49448e-17
4989.68826 1.43590e-17
4991.15850 1.43787e-17
4992.62874 1.35632e-17
4994.09898 1.32008e-17
4995.56922 1.37706e-17
4997.03946 1.38732e-17
4998.50970 1.46699e-17
4999.97994 1.63053e-17
5001.45018 1.47297e-17
5002.92042 1.39017e-17
5004.39066 1.49039e-17
5005.86090 1.50250e-17
5007.33114 1.59763e-17
5008.80138 1.67178e-17
5010.27162 1.66097e-17
5011.74186 1.48172e-17
5013.21210 1.42102e-17
5014.68234 1.58110e-17
5016.15258 1.73460e-17
5017.62282 1.62914e-17
5019.09306 1.54232e-17
5020.56330 1.67915e-17
5022.03354 1.68018e-17
5023.50378 1.57575e-17
5024.97402 1.60585e-17
5026.44426 1.65804e-17
5027.91450 1.62694e-17
5029.38474 1.63254e-17
5030.85498 1.69443e-17
5032.31501 1.78048e-17
5033.78525 1.76119e-17
5035.25549 1.67009e-17
5036.72573 1.75398e-17
5038.19597 1.74574e-17
5039.66621 1.61137e-17
5041.13645 1.57876e-17
5042.60669 1.68786e-17
5044.07693 1.76366e-17
5045.54717 1.72419e-17
5047.01741 1.69585e-17
5048.48765 1.55230e-17
5049.95789 1.42393e-17
5051.42813 1.44720e-17
5052.89837 1.44528e-17
5054.36861 1.48447e-17
5055.83885 1.51185e-17
5057.30909 1.49140e-17
5058.77933 1.51769e-17
5060.24957 1.51700e-17
5061.71981 1.56864e-17
5063.19005 1.52128e-17
5064.66029 1.37752e-17
5066.13053 1.46221e-17
5067.60077 1.53698e-17
5069.07101 1.44216e-17
5070.54125 1.41842e-17
5072.01149 1.36382e-17
5073.48173 1.41855e-17
5074.95197 1.46188e-17
5076.42221 1.27569e-17
5077.89245 1.28039e-17
5079.36269 1.25894e-17
5080.83293 1.22965e-17
5082.30317 1.34556e-17
5083.77341 1.28788e-17
5085.24365 1.23061e-17
5086.71389 1.24303e-17
5088.18413 1.23530e-17
5089.65437 1.19868e-17
5091.12461 1.18551e-17
5092.58464 1.22282e-17
5094.06509 1.24474e-17
5095.52512 1.25788e-17
5096.99536 1.28387e-17
5098.46560 1.26425e-17
5099.93584 1.15784e-17
5101.40608 1.08993e-17
5102.87632 1.16936e-17
5104.34656 1.20348e-17
5105.81680 1.16105e-17
5107.28704 1.23062e-17
5108.75728 1.19702e-17
5110.22752 1.16465e-17
5111.69776 1.20529e-17
5113.16800 1.19438e-17
5114.63824 1.17973e-17
5116.10848 1.18668e-17
5117.57872 1.20949e-17
5119.04896 1.18033e-17
5120.51920 1.27335e-17
5121.98944 1.34682e-17
5123.45968 1.37171e-17
5124.92992 1.30883e-17
5126.40016 1.18615e-17
5127.87040 1.25356e-17
5129.34064 1.33350e-17
5130.81088 1.31897e-17
5132.28112 1.31545e-17
5133.75136 1.39635e-17
5135.22160 1.36286e-17
5136.69184 1.31009e-17
5138.16208 1.36966e-17
5139.63232 1.39110e-17
5141.10256 1.35256e-17
5142.57280 1.31788e-17
5144.04304 1.32265e-17
5145.51328 1.34099e-17
5146.98352 1.37009e-17
5148.45376 1.40151e-17
5149.92400 1.35463e-17
5151.39424 1.40395e-17
5152.86448 1.52069e-17
5154.33472 1.50857e-17
5155.79475 1.38625e-17
5157.26499 1.37251e-17
5158.73523 1.46444e-17
5160.20547 1.49108e-17
5161.67571 1.51464e-17
5163.14595 1.43713e-17
5164.61619 1.27939e-17
5166.08643 1.31493e-17
5167.55667 1.49583e-17
5169.02691 1.51168e-17
5170.49715 1.44071e-17
5171.96739 1.45668e-17
5173.43763 1.51043e-17
5174.90787 1.53677e-17
5176.37811 1.56307e-17
5177.84835 1.62257e-17
5179.31859 1.61888e-17
5180.78883 1.51126e-17
5182.25907 1.65108e-17
5183.72931 1.66364e-17
5185.19955 1.67621e-17
5186.66979 1.68877e-17
5188.14003 1.70132e-17
5189.61027 1.71388e-17
5191.08051 1.71366e-17
5192.55075 1.56735e-17
5194.02099 1.59754e-17
5195.49123 1.63390e-17
5196.96147 1.56003e-17
5198.43171 1.34010e-17
5199.90195 1.32599e-17
5201.37219 1.43858e-17
5202.84243 1.46846e-17
5204.31267 1.55680e-17
5205.78291 1.58323e-17
5207.25315 1.50282e-17
5208.72339 1.57486e-17
5210.19363 1.57224e-17
5211.66387 1.58156e-17
5213.13411 1.58672e-17
5214.60435 1.49079e-17
5216.07459 1.49386e-17
5217.54483 1.61600e-17
5219.00486 1.61649e-17
5220.47510 1.57364e-17
5221.94534 1.50976e-17
5223.41558 1.52831e-17
5224.88582 1.54952e-17
5226.35606 1.59980e-17
5227.82630 1.70752e-17
5229.29654 1.70526e-17
5230.76678 1.61319e-17
5232.23702 1.59028e-17
5233.70726 1.57001e-17
5235.17750 1.45930e-17
5236.64774 1.47539e-17
5238.11798 1.53481e-17
5239.58822 1.47842e-17
5241.05846 1.58326e-17
5242.52870 1.57253e-17
5243.99894 1.52701e-17
5245.46918 1.54303e-17
5246.93942 1.57600e-17
5248.40966 1.63104e-17
5249.87990 1.54960e-17
5251.35014 1.53359e-17
5252.82038 1.56704e-17
5254.29062 1.50565e-17
5255.76086 1.42240e-17
5257.23110 1.61463e-17
5258.70134 1.70975e-17
5260.17158 1.59465e-17
5261.64182 1.54305e-17
5263.11206 1.43446e-17
5264.58230 1.50911e-17
5266.05254 1.61372e-17
5267.52278 1.64285e-17
5268.99302 1.68601e-17
5270.46326 1.66597e-17
5271.93350 1.67535e-17
5273.40374 1.71583e-17
5274.87398 1.66825e-17
5276.34422 1.54687e-17
5277.81446 1.55767e-17
5279.27449 1.65503e-17
5280.75494 1.68351e-17
5282.22518 1.72184e-17
5283.68521 1.83356e-17
5285.15545 1.77526e-17
5286.62569 1.63396e-17
5288.09593 1.69375e-17
5289.56617 1.80458e-17
5291.03641 1.76550e-17
5292.50665 1.73699e-17
5293.97689 1.72718e-17
5295.44713 1.77238e-17
5296.91737 1.75432e-17
5298.38761 1.64921e-17
5299.85785 1.68468e-17
5301.32809 1.76073e-17
5302.79833 1.87327e-17
5304.26857 1.85588e-17
5305.73881 1.72315e-17
5307.20905 1.78026e-17
5308.67929 1.79215e-17
5310.14953 1.78992e-17
5311.61977 1.80430e-17
5313.09001 1.85052e-17
5314.56025 1.90918e-17
5316.03049 1.95049e-17
5317.50073 1.91572e-17
5318.97097 1.81576e-17
5320.44121 1.84760e-17
5321.91145 1.92133e-17
5323.38169 1.90418e-17
5324.85193 1.90801e-17
5326.32217 1.92424e-17
5327.79241 1.87797e-17
5329.26265 1.87578e-17
5330.73289 1.84399e-17
5332.20313 1.87816e-17
5333.67337 1.88619e-17
5335.14361 1.82851e-17
5336.61385 1.90289e-17
5338.08409 1.95251e-17
5339.55433 2.01437e-17
5341.02457 1.95311e-17
5342.49481 1.86777e-17
5343.95484 1.90286e-17
5345.42508 1.92105e-17
5346.89532 1.92214e-17
5348.36556 1.93836e-17
5349.83580 1.95385e-17
5351.30604 1.89662e-17
5352.77628 1.84754e-17
5354.24652 1.92986e-17
5355.71676 2.01266e-17
5357.18700 1.95298e-17
5358.65724 1.97341e-17
5360.12748 2.04619e-17
5361.59772 1.95004e-17
5363.06796 1.87558e-17
5364.53820 1.95575e-17
5366.00844 1.99162e-17
5367.47868 1.95937e-17
5368.94892 1.91194e-17
5370.41916 1.94898e-17
5371.88940 2.05796e-17
5373.35964 2.05777e-17
5374.82988 2.06827e-17
5376.30012 2.07383e-17
5377.77036 2.06465e-17
5379.24060 2.08549e-17
5380.71084 2.10216e-17
5382.18108 2.08815e-17
5383.65132 1.96532e-17
5385.12156 1.95716e-17
5386.59180 2.01104e-17
5388.06204 2.02074e-17
5389.53228 2.03155e-17
5391.00252 1.98937e-17
5392.47276 1.92667e-17
5393.94300 1.92569e-17
5395.41324 1.94623e-17
5396.88348 2.00305e-17
5398.35372 1.91647e-17
5399.82396 1.79700e-17
5401.29420 1.91143e-17
5402.76444 2.04541e-17
5404.23468 2.01457e-17
5405.70492 2.00862e-17
5407.16495 2.04945e-17
5408.63519 2.04644e-17
5410.10543 1.98342e-17
5411.57567 1.95349e-17
5413.04591 1.89545e-17
5414.51615 1.86564e-17
5415.98639 1.99703e-17
5417.45663 1.94623e-17
5418.92687 1.91791e-17
5420.39711 2.11924e-17
5421.86735 2.04227e-17
5423.33759 1.78754e-17
5424.80783 1.79564e-17
5426.27807 1.95447e-17
5427.74831 2.01033e-17
5429.21855 1.97433e-17
5430.68879 1.86824e-17
5432.15903 1.87257e-17
5433.62927 1.92629e-17
5435.09951 1.93839e-17
5436.56975 2.02496e-17
5438.03999 1.99343e-17
5439.51023 1.93389e-17
5440.98047 2.01968e-17
5442.45071 1.95932e-17
5443.92095 1.82790e-17
5445.39119 1.85780e-17
5446.86143 1.87405e-17
5448.33167 1.84310e-17
5449.80191 1.84682e-17
5451.27215 1.86039e-17
5452.74239 1.82458e-17
5454.21263 1.81254e-17
5455.68287 1.85533e-17
5457.15311 1.85246e-17
5458.62335 1.90328e-17
5460.09359 1.94428e-17
5461.56383 1.87188e-17
5463.03407 1.83542e-17
5464.50431 1.78785e-17
5465.97455 1.75092e-17
5467.43458 1.76367e-17
5468.91503 1.83270e-17
5470.37506 1.92840e-17
5471.84530 1.87061e-17
5473.31554 1.77611e-17
5474.78578 1.80888e-17
5476.25602 1.77836e-17
5477.72626 1.71521e-17
5479.19650 1.73126e-17
5480.66674 1.73894e-17
5482.13698 1.78395e-17
5483.60722 1.81918e-17
5485.07746 1.75587e-17
5486.54770 1.70593e-17
5488.01794 1.76365e-17
5489.48818 1.77917e-17
5490.95842 1.75701e-17
5492.42866 1.80256e-17
5493.89890 1.81175e-17
5495.36914 1.84425e-17
5496.83938 1.85080e-17
5498.30962 1.84472e-17
5499.77986 1.84212e-17
5501.25010 1.83932e-17
5502.72034 1.85919e-17
5504.19058 1.78606e-17
5505.66082 1.67157e-17
5507.13106 1.71345e-17
5508.60130 1.77043e-17
5510.07154 1.68058e-17
5511.54178 1.74888e-17
5513.01202 1.82456e-17
5514.48226 1.77406e-17
5515.95250 1.73344e-17
5517.42274 1.80111e-17
5518.89298 1.90998e-17
5520.36322 1.84060e-17
5521.83346 1.71881e-17
5523.30370 1.63822e-17
5524.77394 1.62500e-17
5526.24418 1.72706e-17
5527.71442 1.82603e-17
5529.18466 1.77230e-17
5530.65490 1.68570e-17
5532.11493 1.75841e-17
5533.58517 1.76244e-17
5535.05541 1.68124e-17
5536.52565 1.75878e-17
5537.99589 1.77870e-17
5539.46613 1.78538e-17
5540.93637 1.78354e-17
5542.40661 1.69354e-17
5543.87685 1.71367e-17
5545.34709 1.74225e-17
5546.81733 1.70456e-17
5548.28757 1.71203e-17
5549.75781 1.76830e-17
5551.22805 1.72695e-17
5552.69829 1.75189e-17
5554.16853 1.76161e-17
5555.63877 1.67386e-17
5557.10901 1.78728e-17
5558.57925 1.81397e-17
5560.04949 1.68831e-17
5561.51973 1.68473e-17
5562.98997 1.71694e-17
5564.46021 1.70126e-17
5565.93045 1.68899e-17
5567.40069 1.76139e-17
5568.87093 1.78992e-17
5570.34117 1.71155e-17
5571.81141 1.82072e-17
5573.28165 1.83925e-17
5574.75189 1.77050e-17
5576.22213 1.75776e-17
5577.69237 1.53109e-17
5579.16261 1.47296e-17
5580.63285 1.56634e-17
5582.10309 1.56053e-17
5583.57333 1.50945e-17
5585.04357 1.55391e-17
5586.51381 1.70235e-17
5587.98405 1.73910e-17
5589.45429 1.59985e-17
5590.92453 1.66207e-17
5592.39477 1.75060e-17
5593.85480 1.63019e-17
5595.32504 1.63833e-17
5596.79528 1.57379e-17
5598.26552 1.57974e-17
5599.73576 1.68809e-17
5601.20600 1.70529e-17
5602.67624 1.66255e-17
5604.14648 1.56821e-17
5605.61672 1.60883e-17
5607.08696 1.72494e-17
5608.55720 1.61002e-17
5610.02744 1.52797e-17
5611.49768 1.64321e-17
5612.96792 1.57493e-17
5614.43816 1.53462e-17
5615.90840 1.65484e-17
5617.37864 1.57232e-17
5618.84888 1.65026e-17
5620.31912 1.66957e-17
5621.78936 1.59872e-17
5623.25960 1.53557e-17
5624.72984 1.49833e-17
5626.20008 1.52676e-17
5627.67032 1.50450e-17
5629.14056 1.54184e-17
5630.61080 1.53392e-17
5632.08104 1.55370e-17
5633.55128 1.47174e-17
5635.02152 1.43929e-17
5636.49176 1.50490e-17
5637.96200 1.53907e-17
5639.43224 1.54831e-17
5640.90248 1.46984e-17
5642.37272 1.45453e-17
5643.84296 1.43543e-17
5645.31320 1.42463e-17
5646.78344 1.42967e-17
5648.25368 1.35860e-17
5649.72392 1.40849e-17
5651.19416 1.57774e-17
5652.66440 1.60133e-17
5654.12443 1.54008e-17
5655.60488 1.50883e-17
5657.06491 1.55373e-17
5658.53515 1.41569e-17
5660.00539 1.35330e-17
5661.47563 1.50165e-17
5662.94587 1.53711e-17
5664.41611 1.41012e-17
5665.88635 1.34262e-17
5667.35659 1.41165e-17
5668.82683 1.46643e-17
5670.29707 1.43109e-17
5671.76731 1.36285e-17
5673.23755 1.33393e-17
5674.70779 1.36884e-17
5676.17803 1.34198e-17
5677.64827 1.30269e-17
5679.11851 1.33355e-17
5680.58875 1.34663e-17
5682.05899 1.29767e-17
5683.52923 1.28610e-17
5684.99947 1.28785e-17
5686.46971 1.29880e-17
5687.93995 1.34214e-17
5689.41019 1.38647e-17
5690.88043 1.37476e-17
5692.35067 1.33136e-17
5693.82091 1.23626e-17
5695.29115 1.22990e-17
5696.76139 1.30217e-17
5698.23163 1.31373e-17
5699.70187 1.25839e-17
5701.17211 1.18186e-17
5702.64235 1.20084e-17
5704.11259 1.28166e-17
5705.58283 1.29008e-17
5707.05307 1.30565e-17
5708.52331 1.31353e-17
5709.99355 1.31026e-17
5711.46379 1.31605e-17
5712.93403 1.25556e-17
5714.40427 1.23337e-17
5715.87451 1.23846e-17
5717.34475 1.20819e-17
5718.81499 1.24537e-17
5720.27502 1.27522e-17
5721.74526 1.21465e-17
5723.21550 1.15521e-17
5724.68574 1.14937e-17
5726.15598 1.13668e-17
5727.62622 1.08409e-17
5729.09646 1.11691e-17
5730.56670 1.11937e-17
5732.03694 1.09541e-17
5733.50718 1.16787e-17
5734.97742 1.18367e-17
5736.44766 1.17627e-17
5737.91790 1.15327e-17
5739.38814 1.09780e-17
5740.85838 1.09372e-17
5742.32862 1.14314e-17
5743.79886 1.14362e-17
5745.26910 1.07407e-17
5746.73934 1.06386e-17
5748.20958 1.12990e-17
5749.67982 1.08534e-17
5751.15006 1.01070e-17
5752.62030 1.02974e-17
5754.09054 1.04047e-17
5755.56078 1.03363e-17
5757.03102 1.02771e-17
5758.50126 1.10328e-17
5759.97150 1.10525e-17
5761.44174 1.01455e-17
5762.91198 9.54508e-18
5764.38222 9.81504e-18
5765.85246 1.05358e-17
5767.32270 1.07477e-17
5768.79294 1.02934e-17
5770.26318 1.02651e-17
5771.73342 9.87367e-18
5773.20366 9.77871e-18
5774.67390 9.77074e-18
5776.14414 9.53237e-18
5777.61438 9.42592e-18
5779.08462 9.26228e-18
5780.54465 9.41089e-18
5782.01489 9.54113e-18
5783.48513 9.91326e-18
5784.95537 9.20621e-18
5786.42561 8.67756e-18
5787.89585 9.11550e-18
5789.36609 9.64962e-18
5790.83633 9.25853e-18
5792.30657 8.31833e-18
5793.77681 8.92134e-18
5795.24705 9.63613e-18
5796.71729 9.39079e-18
5798.18753 8.95944e-18
5799.65777 1.00136e-17
5801.12801 1.03787e-17
5802.59825 9.41812e-18
5804.06849 8.55450e-18
5805.53873 7.96144e-18
5807.00897 8.49221e-18
5808.47921 9.41035e-18
5809.94945 9.77808e-18
5811.41969 9.82836e-18
5812.88993 9.95710e-18
5814.36017 9.75015e-18
5815.83041 9.10040e-18
5817.30065 9.04421e-18
5818.77089 8.94734e-18
5820.24113 9.23461e-18
5821.71137 9.15582e-18
5823.18161 1.00734e-17
5824.65185 1.09852e-17
5826.12209 1.04309e-17
5827.59233 1.00010e-17
5829.06257 9.58496e-18
5830.53281 9.15810e-18
5832.00305 9.03240e-18
5833.47329 9.18835e-18
5834.94353 1.02377e-17
5836.41377 1.11612e-17
5837.88401 1.05181e-17
5839.35425 1.08855e-17
5840.82449 1.15941e-17
5842.29473 1.09806e-17
5843.75476 1.10529e-17
5845.22500 1.03514e-17
5846.69524 9.78379e-18
5848.16548 1.04311e-17
5849.63572 1.13987e-17
5851.10596 1.13650e-17
5852.57620 1.03624e-17
5854.04644 1.04420e-17
5855.51668 1.09641e-17
5856.98692 1.11306e-17
5858.45716 1.12835e-17
5859.92740 1.17649e-17
5861.39764 1.26145e-17
5862.86788 1.31227e-17
5864.33812 1.18898e-17
5865.80836 1.17492e-17
5867.27860 1.21818e-17
5868.74884 1.19463e-17
5870.21908 1.11413e-17
5871.68932 1.12958e-17
5873.15956 1.15639e-17
5874.62980 1.22627e-17
5876.10004 1.22698e-17
5877.57028 1.18291e-17
5879.04052 1.15023e-17
5880.51076 1.16324e-17
5881.98100 1.17139e-17
5883.45124 1.24876e-17
5884.92148 1.18310e-17
5886.39172 1.23438e-17
5887.86196 1.29971e-17
5889.33220 1.15225e-17
5890.80244 1.12240e-17
5892.27268 1.24140e-17
5893.74292 1.16567e-17
5895.21316 1.14659e-17
5896.68340 1.25142e-17
5898.15364 1.27512e-17
5899.62388 1.23766e-17
5901.09412 1.20376e-17
5902.56436 1.27597e-17
5904.03460 1.37654e-17
5905.50484 1.39888e-17
5906.97508 1.34541e-17
5908.43511 1.34747e-17
5909.90535 1.34314e-17
5911.37559 1.37454e-17
5912.84583 1.35187e-17
5914.31607 1.34207e-17
5915.78631 1.34941e-17
5917.25655 1.38149e-17
5918.72679 1.44897e-17
5920.19703 1.37478e-17
5921.66727 1.32668e-17
5923.13751 1.37663e-17
5924.60775 1.43223e-17
5926.07799 1.38804e-17
5927.54823 1.37538e-17
5929.01847 1.50610e-17
5930.48871 1.46273e-17
5931.95895 1.29950e-17
5933.42919 1.34918e-17
5934.89943 1.42811e-17
5936.36967 1.43006e-17
5937.83991 1.52671e-17
5939.31015 1.50810e-17
5940.78039 1.37743e-17
5942.25063 1.38959e-17
5943.72087 1.50050e-17
5945.19111 1.53982e-17
5946.66135 1.48303e-17
5948.13159 1.44539e-17
5949.60183 1.52220e-17
5951.07207 1.54287e-17
5952.54231 1.39440e-17
5954.01255 1.38579e-17
5955.48279 1.49703e-17
5956.95303 1.51548e-17
5958.42327 1.51846e-17
5959.89351 1.56042e-17
5961.36375 1.53378e-17
5962.83399 1.40478e-17
5964.30423 1.39064e-17
5965.77447 1.52087e-17
5967.24471 1.45833e-17
5968.70474 1.44400e-17
5970.17498 1.51027e-17
5971.64522 1.47636e-17
5973.11546 1.44456e-17
5974.58570 1.50883e-17
5976.05594 1.58815e-17
5977.52618 1.64699e-17
5978.99642 1.57012e-17
5980.46666 1.51834e-17
5981.93690 1.52441e-17
5983.40714 1.46765e-17
5984.87738 1.48115e-17
5986.34762 1.58019e-17
5987.81786 1.55829e-17
5989.28810 1.46553e-17
5990.75834 1.46701e-17
5992.22858 1.58375e-17
5993.69882 1.55681e-17
5995.16906 1.56543e-17
5996.63930 1.61162e-17
5998.10954 1.60466e-17
5999.57978 1.47912e-17
6001.05002 1.52651e-17
6002.52026 1.61630e-17
6003.99050 1.55053e-17
6005.46074 1.48685e-17
6006.93098 1.51040e-17
6008.40122 1.57419e-17
6009.87146 1.59718e-17
6011.34170 1.62657e-17
6012.81194 1.58221e-17
6014.28218 1.41387e-17
6015.75242 1.42380e-17
6017.22266 1.39207e-17
6018.69290 1.38894e-17
6020.16314 1.35492e-17
6021.63338 1.36483e-17
6023.10362 1.48014e-17
6024.57386 1.50911e-17
6026.04410 1.53484e-17
6027.51434 1.61527e-17
6028.98458 1.57420e-17
6030.45482 1.56814e-17
6031.91485 1.62291e-17
6033.38509 1.61005e-17
6034.85533 1.51966e-17
6036.32557 1.50750e-17
6037.79581 1.59725e-17
6039.26605 1.58357e-17
6040.73629 1.47514e-17
6042.20653 1.51109e-17
6043.67677 1.50274e-17
6045.14701 1.44031e-17
6046.61725 1.55179e-17
6048.08749 1.45968e-17
6049.55773 1.55951e-17
6051.02797 1.54257e-17
6052.49821 1.48347e-17
6053.96845 1.47297e-17
6055.43869 1.41479e-17
6056.90893 1.45747e-17
6058.37917 1.49957e-17
6059.84941 1.48469e-17
6061.31965 1.37402e-17
6062.78989 1.38804e-17
6064.26013 1.51799e-17
6065.73037 1.46943e-17
6067.20061 1.39685e-17
6068.67085 1.37295e-17
6070.14109 1.44295e-17
6071.61133 1.40659e-17
6073.08157 1.43142e-17
6074.55181 1.40922e-17
6076.02205 1.47266e-17
6077.49229 1.52841e-17
6078.96253 1.44826e-17
6080.43277 1.43425e-17
6081.90301 1.39709e-17
6083.37325 1.35922e-17
6084.84349 1.36194e-17
6086.31373 1.38696e-17
6087.78397 1.40528e-17
6089.25421 1.34790e-17
6090.72445 1.40316e-17
6092.19469 1.44043e-17
6093.66493 1.44560e-17
6095.12496 1.51975e-17
6096.59520 1.42980e-17
6098.06544 1.37278e-17
6099.53568 1.29763e-17
6101.00592 1.31849e-17
6102.47616 1.40857e-17
6103.94640 1.46906e-17
6105.41664 1.43768e-17
6106.88688 1.43335e-17
6108.35712 1.45022e-17
6109.82736 1.37667e-17
6111.29760 1.33128e-17
6112.76784 1.30319e-17
6114.23808 1.33483e-17
6115.70832 1.41486e-17
6117.17856 1.37781e-17
6118.64880 1.37617e-17
6120.11904 1.32650e-17
6121.58928 1.24324e-17
6123.05952 1.31910e-17
6124.52976 1.40937e-17
6126.00000 1.39490e-17
6127.47024 1.36194e-17
6128.94048 1.25986e-17
6130.41072 1.21173e-17
6131.88096 1.19419e-17
6133.35120 1.31157e-17
6134.82144 1.41503e-17
6136.29168 1.35835e-17
6137.76192 1.33208e-17
6139.23216 1.32799e-17
6140.70240 1.38104e-17
6142.17264 1.29892e-17
6143.64288 1.23789e-17
6145.11312 1.30849e-17
6146.58336 1.24602e-17
6148.05360 1.22329e-17
6149.52384 1.29736e-17
6150.99408 1.31208e-17
6152.46432 1.28855e-17
6153.93456 1.30911e-17
6155.39459 1.31730e-17
6156.86483 1.25867e-17
6158.33507 1.20319e-17
6159.80531 1.25757e-17
6161.27555 1.37336e-17
6162.74579 1.34201e-17
6164.21603 1.28150e-17
6165.68627 1.23207e-17
6167.15651 1.21141e-17
6168.62675 1.23940e-17
6170.09699 1.24478e-17
6171.56723 1.33286e-17
6173.03747 1.26779e-17
6174.50771 1.24552e-17
6175.97795 1.24461e-17
6177.44819 1.25800e-17
6178.91843 1.24906e-17
6180.38867 1.21611e-17
6181.85891 1.21896e-17
6183.32915 1.20247e-17
6184.79939 1.15608e-17
6186.26963 1.13040e-17
6187.73987 1.26111e-17
6189.21011 1.25753e-17
6190.68035 1.27009e-17
6192.15059 1.26957e-17
6193.62083 1.29030e-17
6195.09107 1.26684e-17
6196.56131 1.17505e-17
6198.03155 1.23423e-17
6199.50179 1.24434e-17
6200.97203 1.22543e-17
6202.44227 1.30331e-17
6203.91251 1.27556e-17
6205.38275 1.22442e-17
6206.85299 1.16969e-17
6208.32323 1.19463e-17
6209.79347 1.21429e-17
6211.26371 1.24959e-17
6212.73395 1.25262e-17
6214.20419 1.33630e-17
6215.67443 1.39828e-17
6217.14467 1.35424e-17
6218.61491 1.28421e-17
6220.08515 1.31115e-17
6221.54518 1.34740e-17
6223.01542 1.28638e-17
6224.48566 1.22866e-17
6225.95590 1.26999e-17
6227.42614 1.28324e-17
6228.89638 1.36586e-17
6230.36662 1.31354e-17
6231.83686 1.33598e-17
6233.30710 1.31437e-17
6234.77734 1.23761e-17
6236.24758 1.16414e-17
6237.71782 1.21030e-17
6239.18806 1.24905e-17
6240.65830 1.21067e-17
6242.12854 1.20260e-17
6243.59878 1.26250e-17
6245.06902 1.33750e-17
6246.53926 1.31519e-17
6248.00950 1.27796e-17
6249.47974 1.21195e-17
6250.94998 1.21409e-17
6252.42022 1.22602e-17
6253.89046 1.27924e-17
6255.36070 1.35286e-17
6256.83094 1.26962e-17
6258.30118 1.14400e-17
6259.77142 1.09673e-17
6261.24166 1.18537e-17
6262.71190 1.16907e-17
6264.18214 1.14028e-17
6265.65238 1.14498e-17
6267.12262 1.13049e-17
6268.59286 1.15146e-17
6270.06310 1.17574e-17
6271.53334 1.04019e-17
6273.00358 1.13735e-17
6274.47382 1.17022e-17
6275.94406 1.13525e-17
6277.41430 1.03929e-17
6278.88454 1.10593e-17
6280.35478 1.04073e-17
6281.81481 8.87202e-18
6283.28505 9.66674e-18
6284.75529 9.65634e-18
6286.22553 9.30703e-18
6287.69577 1.01270e-17
6289.16601 1.04628e-17
6290.63625 1.00072e-17
6292.10649 9.50560e-18
6293.57673 1.00895e-17
6295.04697 9.44704e-18
6296.51721 9.45977e-18
6297.98745 1.02601e-17
6299.45769 9.67046e-18
6300.92793 8.89976e-18
6302.39817 9.52614e-18
6303.86841 8.97631e-18
6305.33865 9.62004e-18
6306.80889 9.60328e-18
6308.27913 9.96131e-18
6309.74937 8.87524e-18
6311.21961 9.66857e-18
6312.68985 1.00082e-17
6314.16009 9.18811e-18
6315.63033 9.74051e-18
6317.10057 9.92169e-18
6318.57081 8.93625e-18
6320.04105 9.21639e-18
6321.51129 9.08579e-18
6322.98153 8.82615e-18
6324.45177 9.29675e-18
6325.92201 8.93041e-18
6327.39225 9.39044e-18
6328.86249 1.01739e-17
6330.33273 9.93885e-18
6331.80297 9.90963e-18
6333.27321 9.66045e-18
6334.74345 9.87092e-18
6336.21369 9.88021e-18
6337.68393 9.18144e-18
6339.15417 8.71280e-18
6340.62441 9.19283e-18
6342.09465 1.00105e-17
6343.55468 1.01416e-17
6345.02492 1.00313e-17
6346.49516 9.77107e-18
6347.96540 9.16830e-18
6349.43564 9.78951e-18
6350.90588 1.06452e-17
6352.37612 9.83963e-18
6353.84636 8.92654e-18
6355.31660 1.01631e-17
6356.78684 1.04367e-17
6358.25708 9.59059e-18
6359.72732 1.01504e-17
6361.19756 1.07397e-17
6362.66780 1.09342e-17
6364.13804 1.00975e-17
6365.60828 9.83148e-18
6367.07852 1.01892e-17
6368.54876 1.04681e-17
6370.01900 1.03331e-17
6371.48924 1.06770e-17
6372.95948 1.08212e-17
6374.42972 1.07394e-17
6375.89996 1.09725e-17
6377.37020 1.02173e-17
6378.84044 1.02789e-17
6380.31068 1.11110e-17
6381.78092 1.09081e-17
6383.25116 1.15861e-17
6384.72140 1.10107e-17
6386.19164 1.02377e-17
6387.66188 1.06249e-17
6389.13212 1.10770e-17
6390.60236 1.05576e-17
6392.07260 1.11316e-17
6393.54284 1.19179e-17
6395.01308 1.10745e-17
6396.48332 1.05399e-17
6397.95356 1.10842e-17
6399.42380 1.10327e-17
6400.89404 1.07210e-17
6402.36428 1.06860e-17
6403.83452 1.08051e-17
6405.30476 1.11907e-17
6406.77500 1.11958e-17
6408.24524 1.10345e-17
6409.70527 1.04578e-17
6411.17551 1.18001e-17
6412.64575 1.20130e-17
6414.11599 1.10763e-17
6415.58623 1.08525e-17
6417.05647 1.16206e-17
6418.52671 1.12122e-17
6419.99695 1.07353e-17
6421.46719 1.09033e-17
6422.93743 1.12652e-17
6424.40767 1.13447e-17
6425.87791 1.10336e-17
6427.34815 1.13591e-17
6428.81839 1.01400e-17
6430.28863 1.11619e-17
6431.75887 1.15293e-17
6433.22911 1.17689e-17
6434.69935 1.16347e-17
6436.16959 1.14190e-17
6437.63983 1.17114e-17
6439.11007 1.16572e-17
6440.58031 1.20972e-17
6442.05055 1.13113e-17
6443.52079 1.22805e-17
6444.99103 1.25219e-17
6446.46127 1.17244e-17
6447.93151 1.08552e-17
6449.40175 1.17985e-17
6450.87199 1.21505e-17
6452.34223 1.19072e-17
6453.81247 1.25878e-17
6455.28271 1.18871e-17
6456.75295 1.14002e-17
6458.22319 1.13536e-17
6459.69343 1.21864e-17
6461.16367 1.24930e-17
6462.63391 1.18832e-17
6464.10415 1.08517e-17
6465.57439 1.05936e-17
6467.04463 1.14654e-17
6468.50466 1.19895e-17
6469.97490 1.15658e-17
6471.44514 1.10946e-17
6472.91538 1.07276e-17
6474.38562 1.14967e-17
6475.85586 1.19004e-17
6477.32610 1.22103e-17
6478.79634 1.17911e-17
6480.26658 1.14315e-17
6481.73682 1.19212e-17
6483.20706 1.19767e-17
6484.67730 1.08738e-17
6486.14754 1.15773e-17
6487.61778 1.18048e-17
6489.08802 1.10722e-17
6490.55826 1.23557e-17
6492.02850 1.16121e-17
6493.49874 1.13043e-17
6494.96898 1.15608e-17
6496.43922 1.19982e-17
6497.90946 1.17161e-17
6499.37970 1.19890e-17
6500.84994 1.22981e-17
6502.32018 1.29418e-17
6503.79042 1.26849e-17
6505.26066 1.26635e-17
6506.73090 1.26340e-17
6508.20114 1.16665e-17
6509.67138 1.18568e-17
6511.14162 1.13759e-17
6512.61186 1.07648e-17
6514.08210 1.12277e-17
6515.55234 1.17731e-17
6517.02258 1.11123e-17
6518.49282 1.05259e-17
6519.96306 1.09228e-17
6521.43330 1.14969e-17
6522.90354 1.16247e-17
6524.37378 1.19201e-17
6525.84402 1.17883e-17
6527.31426 1.08518e-17
6528.78450 1.12291e-17
6530.25474 1.20129e-17
6531.72498 1.09944e-17
6533.18501 1.15969e-17
6534.65525 1.18520e-17
6536.12549 1.15250e-17
6537.59573 1.17129e-17
6539.06597 1.13012e-17
6540.53621 1.13788e-17
6542.00645 1.14452e-17
6543.47669 1.23043e-17
6544.94693 1.14226e-17
6546.41717 1.16203e-17
6547.88741 1.14991e-17
6549.35765 1.16852e-17
6550.82789 1.15777e-17
6552.29813 1.09536e-17
6553.76837 1.05676e-17
6555.23861 1.06245e-17
6556.70885 1.19072e-17
6558.17909 1.13954e-17
6559.64933 1.03892e-17
6561.11957 1.02049e-17
6562.58981 1.06787e-17
6564.06005 1.14466e-17
6565.53029 1.10276e-17
6567.00053 1.05570e-17
6568.47077 1.06941e-17
6569.94101 1.09819e-17
6571.41125 1.08822e-17
6572.88149 1.01408e-17
6574.35173 9.91300e-18
6575.82197 9.87367e-18
6577.29221 9.41616e-18
6578.76245 9.40785e-18
6580.23269 1.00711e-17
6581.70293 9.85332e-18
6583.17317 9.36578e-18
6584.64341 9.87410e-18
6586.11365 9.73845e-18
6587.58389 8.66079e-18
6589.05413 9.05280e-18
6590.52437 1.01124e-17
6591.99461 1.04600e-17
6593.46485 1.01339e-17
6594.93509 9.72921e-18
6596.39512 9.09592e-18
6597.86536 9.55572e-18
6599.33560 9.36052e-18
6600.80584 9.56563e-18
6602.27608 1.00644e-17
6603.74632 9.46324e-18
6605.21656 9.16776e-18
6606.68680 9.45538e-18
6608.15704 9.11373e-18
6609.62728 9.17524e-18
6611.09752 9.54887e-18
6612.56776 9.20752e-18
6614.03800 9.02141e-18
6615.50824 9.94199e-18
6616.97848 9.61921e-18
6618.44872 9.37897e-18
6619.91896 9.16481e-18
6621.38920 9.27079e-18
6622.85944 9.59349e-18
6624.32968 9.69279e-18
6625.79992 1.06416e-17
6627.27016 1.07653e-17
6628.74040 1.01695e-17
6630.21064 9.65585e-18
6631.68088 9.41697e-18
6633.15112 9.92629e-18
6634.62136 9.54230e-18
6636.09160 1.00256e-17
6637.56184 9.80481e-18
6639.03208 9.09665e-18
6640.50232 9.95231e-18
6641.97256 1.02235e-17
6643.44280 9.36051e-18
6644.91304 9.94336e-18
6646.38328 9.71112e-18
6647.85352 1.01438e-17
6649.32376 1.01204e-17
6650.79400 9.73750e-18
6652.26424 9.89197e-18
6653.73448 9.93774e-18
6655.20472 1.06037e-17
6656.66475 1.11710e-17
6658.13499 1.08311e-17
6659.60523 1.06530e-17
6661.07547 1.05139e-17
6662.54571 1.14616e-17
6664.01595 1.02920e-17
6665.48619 9.64497e-18
6666.95643 1.06947e-17
6668.42667 1.11236e-17
6669.89691 1.07360e-17
6671.36715 1.03824e-17
6672.83739 1.13731e-17
6674.30763 1.14252e-17
6675.77787 1.08738e-17
6677.24811 1.09635e-17
6678.71835 1.14242e-17
6680.18859 1.12643e-17
6681.65883 1.13069e-17
6683.12907 1.16027e-17
6684.59931 1.11979e-17
6686.06955 1.16222e-17
6687.53979 1.17783e-17
6689.01003 1.15411e-17
6690.48027 1.11582e-17
6691.95051 1.13767e-17
6693.42075 1.09034e-17
6694.89099 1.10689e-17
6696.36123 1.19108e-17
6697.83147 1.12685e-17
6699.30171 1.13436e-17
6700.77195 1.12192e-17
6702.24219 1.16598e-17
6703.71243 1.21253e-17
6705.18267 1.21747e-17
6706.65291 1.16339e-17
6708.12315 1.03982e-17
6709.59339 1.14239e-17
6711.06363 1.23783e-17
6712.53387 1.20027e-17
6714.00411 1.22900e-17
6715.47435 1.18940e-17
6716.94459 1.23630e-17
6718.41483 1.15035e-17
6719.87486 1.17773e-17
6721.34510 1.25768e-17
6722.81534 1.08221e-17
6724.28558 1.24212e-17
6725.75582 1.21761e-17
6727.22606 1.20714e-17
6728.69630 1.19581e-17
6730.16654 1.30034e-17
6731.63678 1.18293e-17
6733.10702 1.09758e-17
6734.57726 1.12312e-17
6736.04750 1.15316e-17
6737.51774 1.24639e-17
6738.98798 1.21994e-17
6740.45822 1.11807e-17
6741.92846 1.22014e-17
6743.39870 1.20421e-17
6744.86894 1.12628e-17
6746.33918 1.10608e-17
6747.80942 1.08070e-17
6749.27966 1.13974e-17
6750.74990 1.14745e-17
6752.22014 1.06122e-17
6753.69038 1.13130e-17
6755.16062 1.14753e-17
6756.63086 1.00191e-17
6758.10110 1.08401e-17
6759.57134 1.13344e-17
6761.04158 1.15826e-17
6762.51182 1.10684e-17
6763.98206 1.19349e-17
6765.45230 1.29105e-17
6766.92254 1.15114e-17
6768.39278 1.15402e-17
6769.86302 1.13050e-17
6771.33326 1.14233e-17
6772.80350 1.08704e-17
6774.27374 1.13536e-17
6775.74398 1.16413e-17
6777.21422 1.16400e-17
6778.68446 1.12947e-17
6780.15470 1.12206e-17
6781.62494 1.25849e-17
6783.08497 1.30207e-17
6784.55521 1.16163e-17
6786.02545 1.11648e-17
6787.49569 1.15873e-17
6788.96593 1.13140e-17
6790.43617 1.14299e-17
6791.90641 1.14911e-17
6793.37665 1.09069e-17
6794.84689 1.08385e-17
6796.31713 1.13051e-17
6797.78737 1.05104e-17
6799.25761 1.08214e-17
6800.72785 1.10407e-17
6802.19809 1.09542e-17
6803.66833 1.11809e-17
6805.13857 1.06797e-17
6806.60881 9.90990e-18
6808.07905 9.86367e-18
6809.54929 1.07804e-17
6811.01953 1.07948e-17
6812.48977 1.14302e-17
6813.96001 1.12556e-17
6815.43025 1.16719e-17
6816.90049 1.16461e-17
6818.37073 1.07437e-17
6819.84097 1.06829e-17
6821.31121 1.03326e-17
6822.78145 1.04450e-17
6824.25169 1.05837e-17
6825.72193 1.07397e-17
6827.19217 1.12649e-17
6828.66241 1.16270e-17
6830.13265 1.10364e-17
6831.60289 1.05335e-17
6833.07313 1.04612e-17
6834.54337 1.13152e-17
6836.01361 1.12416e-17
6837.48385 1.08273e-17
6838.95409 1.15652e-17
6840.42433 1.04424e-17
6841.89457 1.01296e-17
6843.35460 1.04941e-17
6844.82484 1.05607e-17
6846.29508 1.09409e-17
6847.76532 1.04153e-17
6849.23556 1.07299e-17
6850.70580 1.13358e-17
6852.17604 1.09233e-17
6853.64628 1.03497e-17
6855.11652 1.06290e-17
6856.58676 1.09371e-17
6858.05700 1.07916e-17
6859.52724 1.07679e-17
6860.99748 1.03971e-17
6862.46772 1.03068e-17
6863.93796 1.17313e-17
6865.40820 1.08552e-17
6866.87844 1.08614e-17
6868.34868 1.03070e-17
6869.81892 1.03831e-17
6871.28916 1.16289e-17
6872.75940 1.14464e-17
6874.22964 1.06041e-17
6875.69988 1.02875e-17
6877.17012 1.05354e-17
6878.64036 1.12989e-17
6880.11060 1.02517e-17
6881.58084 1.09512e-17
6883.05108 1.05842e-17
6884.52132 9.81217e-18
6885.99156 1.02104e-17
6887.46180 1.16566e-17
6888.93204 1.09773e-17
6890.40228 1.03634e-17
6891.87252 1.03666e-17
6893.34276 1.13719e-17
6894.81300 1.04235e-17
6896.28324 1.06341e-17
6897.75348 1.03653e-17
6899.22372 1.00070e-17
6900.69396 9.26451e-18
6902.16420 1.04363e-17
6903.63444 9.80771e-18
6905.10468 9.91546e-18
6906.56471 1.01160e-17
6908.03495 1.06386e-17
6909.50519 9.98745e-18
6910.97543 1.18036e-17
6912.44567 9.85360e-18
6913.91591 1.01249e-17
6915.38615 9.57929e-18
6916.85639 9.12947e-18
6918.32663 1.01830e-17
6919.79687 1.08890e-17
6921.26711 1.14618e-17
6922.73735 1.04296e-17
6924.20759 8.58775e-18
6925.67783 9.84060e-18
6927.14807 1.00145e-17
6928.61831 9.60287e-18
6930.08855 9.48960e-18
6931.55879 9.51348e-18
6933.02903 1.02725e-17
6934.49927 1.05188e-17
6935.96951 9.53347e-18
6937.43975 8.76798e-18
6938.90999 9.69439e-18
6940.38023 9.96694e-18
6941.85047 1.05141e-17
6943.32071 9.51558e-18
6944.79095 9.08986e-18
6946.26119 8.69686e-18
6947.73143 9.40632e-18
6949.20167 8.95788e-18
6950.67191 8.31336e-18
6952.14215 8.50097e-18
6953.61239 8.93043e-18
6955.08263 9.31149e-18
6956.55287 8.57522e-18
6958.02311 8.45987e-18
6959.49335 9.16172e-18
6960.96359 9.54600e-18
6962.43383 9.00972e-18
6963.90407 9.05900e-18
6965.37431 8.90160e-18
6966.84455 8.95549e-18
6968.31479 9.28522e-18
6969.77482 8.85962e-18
6971.24506 9.34275e-18
6972.71530 8.74646e-18
6974.18554 8.53234e-18
6975.65578 8.79565e-18
6977.12602 9.18228e-18
6978.59626 8.70226e-18
6980.06650 9.13834e-18
6981.53674 9.14741e-18
6983.00698 8.50616e-18
6984.47722 8.46374e-18
6985.94746 8.82149e-18
6987.41770 9.46546e-18
6988.88794 9.94600e-18
6990.35818 8.60521e-18
6991.82842 8.94895e-18
6993.29866 9.24974e-18
6994.76890 9.72395e-18
6996.23914 1.06116e-17
6997.70938 9.39359e-18
6999.17962 8.25159e-18
7000.64986 8.48279e-18
7002.12010 8.75040e-18
7003.59034 8.96035e-18
7005.06058 9.85060e-18
7006.53082 9.48472e-18
7008.00106 9.24445e-18
7009.47130 9.00853e-18
7010.94154 9.32038e-18
7012.41178 9.27581e-18
7013.88202 8.80515e-18
7015.35226 8.73897e-18
7016.82250 8.98057e-18
7018.29274 9.10011e-18
7019.76298 8.65766e-18
7021.23322 9.16973e-18
7022.70346 8.67139e-18
7024.17370 8.62673e-18
7025.64394 9.27119e-18
7027.11418 9.41748e-18
7028.58442 9.33014e-18
7030.05466 9.18335e-18
7031.52490 8.65314e-18
7032.98493 9.01577e-18
7034.45517 8.50405e-18
7035.92541 7.87716e-18
7037.39565 8.78612e-18
7038.86589 9.92856e-18
7040.33613 9.29517e-18
7041.80637 8.45420e-18
7043.27661 8.67035e-18
7044.74685 8.93077e-18
7046.21709 9.61577e-18
7047.68733 9.64364e-18
7049.15757 9.82948e-18
7050.62781 9.11371e-18
7052.09805 8.66378e-18
7053.56829 8.64874e-18
7055.03853 8.72002e-18
7056.50877 8.64139e-18
7057.97901 8.39513e-18
7059.44925 9.97149e-18
7060.91949 1.06158e-17
7062.38973 9.56459e-18
7063.85997 9.21820e-18
7065.33021 9.25606e-18
7066.80045 8.89428e-18
7068.27069 9.62294e-18
7069.74093 8.96215e-18
7071.21117 8.70732e-18
7072.68141 8.81064e-18
7074.15165 9.45630e-18
7075.62189 9.68169e-18
7077.09213 9.16340e-18
7078.56237 9.39183e-18
7080.03261 9.70903e-18
7081.50285 9.42996e-18
7082.97309 8.38001e-18
7084.44333 9.26848e-18
7085.91357 1.01139e-17
7087.38381 9.01063e-18
7088.85405 8.95691e-18
7090.32429 1.02042e-17
7091.79453 1.07565e-17
7093.25456 1.03406e-17
7094.72480 1.00673e-17
7096.19504 9.99724e-18
7097.66528 9.56124e-18
7099.13552 9.42159e-18
7100.60576 9.86659e-18
7102.07600 9.24878e-18
7103.54624 8.88187e-18
7105.01648 9.28030e-18
7106.48672 9.43470e-18
7107.95696 9.40061e-18
7109.42720 9.16507e-18
7110.89744 9.60647e-18
7112.36768 9.45742e-18
7113.83792 9.55364e-18
7115.30816 9.86479e-18
7116.77840 8.86137e-18
7118.24864 9.13761e-18
7119.71888 9.35155e-18
7121.18912 8.69199e-18
7122.65936 9.21607e-18
7124.12960 9.30480e-18
7125.59984 9.13001e-18
7127.07008 9.10193e-18
7128.54032 1.02120e-17
7130.01056 1.11878e-17
7131.48080 1.01410e-17
7132.95104 9.74507e-18
7134.42128 9.80625e-18
7135.89152 9.39681e-18
7137.36176 9.00868e-18
7138.83200 8.96270e-18
7140.30224 9.19091e-18
7141.77248 9.84275e-18
7143.24272 9.67637e-18
7144.71296 9.02338e-18
7146.18320 9.45471e-18
7147.65344 1.03734e-17
7149.12368 9.95375e-18
7150.59392 9.37041e-18
7152.06416 9.55494e-18
7153.53440 9.81069e-18
7155.00464 9.00379e-18
7156.47488 8.86393e-18
7157.93491 1.04903e-17
7159.40515 9.65534e-18
7160.87539 8.60469e-18
7162.34563 8.55579e-18
7163.81587 8.80213e-18
7165.28611 8.78984e-18
7166.75635 9.33876e-18
7168.22659 8.82223e-18
7169.69683 8.56672e-18
7171.16707 9.59577e-18
7172.63731 1.00250e-17
7174.10755 1.01484e-17
7175.57779 1.01417e-17
7177.04803 1.03501e-17
7178.51827 1.01162e-17
7179.98851 9.79357e-18
7181.45875 9.76388e-18
7182.92899 9.95113e-18
7184.39923 9.76532e-18
7185.86947 8.90189e-18
7187.33971 9.42812e-18
7188.80995 9.29307e-18
7190.28019 8.71190e-18
7191.75043 8.52771e-18
7193.22067 8.79122e-18
7194.69091 9.17915e-18
7196.16115 9.78265e-18
7197.63139 9.44081e-18
7199.10163 9.87968e-18
7200.57187 9.99085e-18
7202.04211 9.91804e-18
7203.51235 9.62280e-18
7204.98259 8.83048e-18
7206.45283 9.05475e-18
7207.92307 9.29611e-18
7209.39331 9.16201e-18
7210.86355 9.95682e-18
7212.33379 9.54264e-18
7213.80403 9.65816e-18
7215.27427 9.66392e-18
7216.74451 9.20767e-18
7218.21475 9.64438e-18
7219.68499 1.00693e-17
7221.14502 9.87257e-18
7222.61526 9.50762e-18
7224.08550 8.53267e-18
7225.55574 8.69649e-18
7227.02598 9.55199e-18
7228.49622 9.22020e-18
7229.96646 8.62548e-18
7231.43670 8.09741e-18
7232.90694 8.79364e-18
7234.37718 9.50037e-18
7235.84742 9.74561e-18
7237.31766 8.46296e-18
7238.78790 8.14622e-18
7240.25814 8.33240e-18
7241.72838 7.63950e-18
7243.19862 9.09539e-18
7244.66886 9.79604e-18
7246.13910 8.66751e-18
7247.60934 9.03596e-18
7249.07958 8.62600e-18
7250.54982 8.97625e-18
7252.02006 9.16576e-18
7253.49030 9.18521e-18
7254.96054 9.68323e-18
7256.43078 9.65122e-18
7257.90102 8.62000e-18
7259.37126 7.92251e-18
7260.84150 8.66118e-18
7262.31174 8.91303e-18
7263.78198 8.54801e-18
7265.25222 8.97164e-18
7266.72246 1.01960e-17
7268.19270 9.98241e-18
7269.66294 9.02634e-18
7271.13318 8.36213e-18
7272.60342 8.51208e-18
7274.07366 9.15730e-18
7275.54390 8.84456e-18
7277.01414 8.83049e-18
7278.48438 9.43459e-18
7279.95462 9.56547e-18
7281.41465 8.60103e-18
7282.88489 9.53266e-18
7284.35513 1.00541e-17
7285.82537 9.93110e-18
7287.29561 9.04319e-18
7288.76585 8.49038e-18
7290.23609 8.07473e-18
7291.70633 8.85826e-18
7293.17657 1.02297e-17
7294.64681 1.00911e-17
7296.11705 9.58031e-18
7297.58729 9.96601e-18
7299.05753 9.65807e-18
7300.52777 8.65556e-18
7301.99801 8.87816e-18
7303.46825 9.58943e-18
7304.93849 9.86568e-18
7306.40873 9.67156e-18
7307.87897 9.67473e-18
7309.34921 9.68571e-18
7310.81945 9.69668e-18
7312.28969 9.70765e-18
7313.75993 9.71861e-18
7315.23017 9.72958e-18
7316.70041 9.72897e-18
7318.17065 9.94731e-18
7319.64089 1.06090e-17
7321.11113 1.00169e-17
7322.58137 8.88853e-18
7324.05161 9.27843e-18
7325.52185 1.02210e-17
7326.99209 1.00563e-17
7328.46233 8.70123e-18
7329.93257 8.74246e-18
7331.40281 9.84731e-18
7332.87305 1.04469e-17
7334.34329 9.23339e-18
7335.81353 8.92670e-18
7337.28377 8.92205e-18
7338.75401 9.93495e-18
7340.22425 9.49435e-18
7341.69449 9.59453e-18
7343.16473 9.74220e-18
7344.62476 9.14622e-18
7346.09500 8.76151e-18
7347.56524 9.12402e-18
7349.03548 9.07916e-18
7350.50572 9.73494e-18
7351.97596 1.04458e-17
7353.44620 9.27450e-18
7354.91644 8.61456e-18
7356.38668 9.52026e-18
7357.85692 8.97598e-18
7359.32716 8.83635e-18
7360.79740 1.00905e-17
7362.26764 9.95215e-18
7363.73788 9.84401e-18
7365.20812 9.98402e-18
7366.67836 9.66063e-18
7368.14860 9.84217e-18
7369.61884 9.22230e-18
7371.08908 8.33552e-18
7372.55932 9.59485e-18
7374.02956 9.89209e-18
7375.49980 9.11362e-18
7376.97004 9.12052e-18
7378.44028 1.01432e-17
7379.91052 9.06822e-18
7381.38076 9.52918e-18
7382.85100 9.38323e-18
7384.32124 8.06497e-18
7385.79148 8.53269e-18
7387.26172 9.69739e-18
7388.73196 9.83388e-18
7390.20220 9.61851e-18
7391.67244 9.32680e-18
7393.14268 9.29090e-18
7394.61292 9.91303e-18
7396.08316 9.22000e-18
7397.55340 7.79891e-18
7399.02364 8.53964e-18
7400.49388 9.80588e-18
7401.96412 1.03529e-17
7403.43436 1.00052e-17
7404.90460 9.15671e-18
7406.37484 8.68815e-18
7407.83487 9.46841e-18
7409.30511 8.99206e-18
7410.77535 8.68723e-18
7411.86848 8.68723e-18
7413.52607 8.84066e-18
7415.18366 8.82053e-18
7416.84125 8.80034e-18
7418.50888 8.55064e-18
7420.16647 8.30106e-18
7421.82406 8.46393e-18
7423.48165 8.62677e-18
7425.14929 8.70154e-18
7426.80688 8.77628e-18
7428.46447 8.74792e-18
7430.13211 8.71951e-18
7431.78970 8.51348e-18
7433.44729 8.30750e-18
7435.10488 8.23875e-18
7436.77251 8.17007e-18
7438.43010 8.34867e-18
7440.08769 8.52718e-18
7441.74528 8.41517e-18
7443.41292 8.30320e-18
7445.07051 8.31259e-18
7446.72810 8.32200e-18
7448.39573 8.41945e-18
7450.05332 8.51687e-18
7451.71091 8.51448e-18
7453.36850 8.51210e-18
7455.03614 8.53840e-18
7456.69373 8.56472e-18
7458.35132 8.66554e-18
7460.00891 8.76635e-18
7461.67655 8.78202e-18
7463.33414 8.79768e-18
7464.99173 8.74752e-18
7466.65936 8.69730e-18
7468.31695 8.38874e-18
7469.97454 8.08027e-18
7471.63213 8.05204e-18
7473.29977 8.02386e-18
7474.95736 8.17048e-18
7476.61495 8.31703e-18
7478.28258 8.30794e-18
7479.94017 8.29881e-18
7481.59776 8.13079e-18
7483.25535 7.96285e-18
7484.92299 8.12544e-18
7486.58058 8.28802e-18
7488.23817 8.35676e-18
7489.89576 8.42551e-18
7491.56340 8.50723e-18
7493.22099 8.58888e-18
7494.87858 8.47072e-18
7496.54621 8.35256e-18
7498.20380 8.24959e-18
7499.86139 8.14657e-18
7501.51898 7.95082e-18
7503.18662 7.75514e-18
7504.84421 7.81188e-18
7506.50180 7.86861e-18
7508.16943 7.90819e-18
7509.82702 7.94775e-18
7511.48461 7.90822e-18
7513.14220 7.86876e-18
7514.80984 8.05347e-18
7516.46743 8.23807e-18
7518.12502 8.02088e-18
7519.78261 7.80379e-18
7521.45025 7.88372e-18
7523.10784 7.96364e-18
7524.76543 8.03743e-18
7526.43306 8.11119e-18
7528.09065 8.08281e-18
7529.74824 8.05439e-18
7531.40583 7.85677e-18
7533.07347 7.65926e-18
7534.73106 7.79603e-18
7536.38865 7.93275e-18
7538.04624 7.97086e-18
7539.71387 8.00893e-18
7541.37146 7.98296e-18
7543.02905 7.95692e-18
7544.69669 7.76063e-18
7546.35428 7.56442e-18
7548.01187 7.68056e-18
7549.66946 7.79669e-18
7551.33710 7.78418e-18
7552.99469 7.77168e-18
7554.65228 7.75918e-18
7556.30987 7.74669e-18
7557.97750 7.73419e-18
7559.63509 7.72170e-18
7561.29268 7.70919e-18
7562.96032 7.69670e-18
7564.61791 7.68420e-18
7566.27550 7.67171e-18
7567.93309 7.65921e-18
7569.60072 7.64672e-18
7571.25831 7.63422e-18
7572.91590 7.62173e-18
7574.58354 7.60924e-18
7576.24113 7.59673e-18
7577.89872 7.58424e-18
7579.55631 7.57175e-18
7581.22395 7.55926e-18
7582.88154 7.54677e-18
7584.53913 7.53428e-18
7586.19672 7.52178e-18
7587.86435 7.50930e-18
7589.52194 7.49680e-18
7591.17953 7.48431e-18
7592.84717 7.47183e-18
7594.50476 7.45933e-18
7596.16235 7.44685e-18
7597.81994 7.43436e-18
7599.48757 7.42187e-18
7601.14516 7.40937e-18
7602.80275 7.39688e-18
7604.46034 7.38439e-18
7606.12798 7.37191e-18
7607.78557 7.35942e-18
7609.44316 7.34694e-18
7611.11080 7.33445e-18
7612.76839 7.32196e-18
7614.42598 7.30948e-18
7616.08357 7.29699e-18
7617.75120 7.28452e-18
7619.40879 7.27202e-18
7621.06638 7.25955e-18
7622.72397 7.24706e-18
7624.39161 7.23458e-18
7626.04920 7.22209e-18
7627.70679 7.20961e-18
7629.37442 7.19713e-18
7631.03201 7.18465e-18
7632.68960 7.17216e-18
7634.34719 7.15969e-18
7636.01483 7.14720e-18
7637.67242 7.13472e-18
7639.33001 7.12224e-18
7640.99765 7.10976e-18
7642.65524 7.09728e-18
7644.31283 7.08480e-18
7645.97042 7.07233e-18
7647.63805 7.05985e-18
7649.29564 7.04737e-18
7650.95323 7.03489e-18
7652.61082 7.02241e-18
7654.27846 7.00993e-18
7655.93605 6.99746e-18
7657.59364 6.98498e-18
7659.26127 6.97251e-18
7660.91886 6.96004e-18
7662.57645 6.94756e-18
7664.23404 6.93508e-18
7665.90168 6.92261e-18
7667.55927 6.91013e-18
7669.21686 6.89765e-18
7670.87445 6.88519e-18
7672.54209 6.87272e-18
7674.19968 6.86024e-18
7675.85727 6.84777e-18
7677.52490 6.83531e-18
7679.18249 6.82283e-18
7680.84008 6.81036e-18
7682.49767 6.65763e-18
7684.16531 6.64194e-18
7685.82290 6.62637e-18
7687.48049 6.95975e-18
7689.13808 7.29298e-18
7690.80571 7.16178e-18
7692.46330 7.03062e-18
7694.12089 7.05093e-18
7695.78853 7.07120e-18
7697.44612 6.99610e-18
7699.10371 6.92109e-18
7700.76130 7.14697e-18
7702.42894 7.37270e-18
7704.08653 7.10109e-18
7705.74412 6.82960e-18
7707.40171 7.00475e-18
7709.06934 7.17983e-18
7710.72693 7.15124e-18
7712.38452 7.12268e-18
7714.05216 7.22423e-18
7715.70975 7.32569e-18
7717.36734 7.17195e-18
7719.02493 7.01829e-18
7720.69256 7.13868e-18
7722.35015 7.25897e-18
7724.00774 7.06740e-18
7725.67538 6.87584e-18
7727.33297 6.72621e-18
7728.99056 6.57668e-18
7730.64815 6.78037e-18
7732.31579 6.98401e-18
7733.97338 7.04310e-18
7735.63097 7.10213e-18
7737.28856 7.00648e-18
7738.95619 6.91087e-18
7740.61378 6.97506e-18
7742.27137 7.03924e-18
7743.93901 7.06228e-18
7745.59660 7.08536e-18
7747.25419 7.24537e-18
7748.91178 7.40523e-18
7750.57941 7.13691e-18
7752.23700 6.86864e-18
7753.89459 6.77363e-18
7755.55218 6.67871e-18
7757.21982 6.84238e-18
7758.87741 7.00613e-18
7760.53500 7.38432e-18
7762.20264 7.76235e-18
7763.86023 7.61038e-18
7765.51782 7.45847e-18
7767.17541 7.49047e-18
7768.84304 7.52244e-18
7770.50063 7.48315e-18
7772.15822 7.44385e-18
7773.81581 7.38225e-18
7775.48345 7.32065e-18
7777.14104 7.24150e-18
7778.79863 7.16243e-18
7780.46626 7.27521e-18
7782.12385 7.38791e-18
7783.78144 7.23962e-18
7785.43903 7.09144e-18
7787.10667 7.28088e-18
7788.76426 7.47029e-18
7790.42185 7.59008e-18
7792.07944 7.70982e-18
7793.74708 7.63452e-18
7795.40467 7.55926e-18
7797.06226 7.60739e-18
7798.72989 7.65552e-18
7800.38748 7.70268e-18
7802.04507 7.74980e-18
7803.70266 7.68676e-18
7805.37030 7.62375e-18
7807.02789 7.66155e-18
7808.68548 7.69929e-18
7810.35311 7.59353e-18
7812.01070 7.48789e-18
7813.66829 7.79861e-18
7815.32588 8.10916e-18
7816.99352 7.92266e-18
7818.65111 7.73620e-18
7820.30870 7.67946e-18
7821.96629 7.62270e-18
7823.63393 7.44975e-18
7825.29152 7.27686e-18
7826.94911 7.27902e-18
7828.61674 7.28117e-18
7830.27433 7.23969e-18
7831.93192 7.19825e-18
7833.58951 7.32068e-18
7835.25715 7.44312e-18
7836.91474 7.59502e-18
7838.57233 7.74677e-18
7840.22992 7.43808e-18
7841.89755 7.12954e-18
7843.55514 7.27326e-18
7845.21273 7.41693e-18
7846.88037 7.40023e-18
7848.53796 7.38356e-18
7850.19555 7.54716e-18
7851.85314 7.71083e-18
7853.52078 8.12271e-18
7855.17837 8.53441e-18
7856.83596 8.29529e-18
7858.50359 8.05620e-18
7860.16118 7.85943e-18
7861.81877 7.66279e-18
7863.47636 7.89613e-18
7865.14400 8.12933e-18
7866.80159 7.94357e-18
7868.45918 7.75790e-18
7870.11677 7.85609e-18
7871.78440 7.95420e-18
7873.44199 7.82072e-18
7875.09958 7.68728e-18
7876.76722 7.68185e-18
7878.42481 7.67646e-18
7880.08240 7.78059e-18
7881.73999 7.88463e-18
7883.40763 7.72429e-18
7885.06522 7.56408e-18
7886.72281 7.84948e-18
7888.38040 8.13476e-18
7890.04803 8.04458e-18
7891.70562 7.95435e-18
7893.36321 7.69310e-18
7895.03085 7.43193e-18
7896.68844 7.38087e-18
7898.34603 7.32981e-18
7900.00362 7.29828e-18
7901.67125 7.26682e-18
7903.32884 7.44646e-18
7904.98643 7.62605e-18
7906.64402 7.62797e-18
7908.31166 7.62987e-18
7909.96925 7.54112e-18
7911.62684 7.45234e-18
7913.29448 7.25388e-18
7914.95207 7.05557e-18
7916.60966 7.31388e-18
7918.26725 7.57206e-18
7919.93488 7.43158e-18
7921.59247 7.29122e-18
7923.25006 7.52409e-18
7924.90765 7.75688e-18
7926.57529 7.73954e-18
7928.23288 7.72215e-18
7929.89047 7.52312e-18
7931.55810 7.32411e-18
7933.21569 7.21621e-18
7934.87328 7.10837e-18
7936.53087 7.22361e-18
7938.19851 7.33876e-18
7939.85610 7.17402e-18
7941.51369 7.00936e-18
7943.18133 7.10944e-18
7944.83892 7.20958e-18
7946.49651 7.53238e-18
7948.15410 7.85500e-18
7949.82173 7.60215e-18
7951.47932 7.34928e-18
7953.13691 7.07118e-18
7954.79450 6.79328e-18
7956.46214 7.07495e-18
7958.11973 7.35643e-18
7959.77732 7.02646e-18
7961.44495 6.69666e-18
7963.10254 6.92173e-18
7964.76013 7.14673e-18
7966.41772 7.10742e-18
7968.08536 7.06812e-18
7969.74295 7.09132e-18
7971.40054 7.11453e-18
7973.05813 7.19789e-18
7974.72577 7.28116e-18
7976.38336 7.05949e-18
7978.04095 6.83786e-18
7979.70858 6.72897e-18
7981.36617 6.62021e-18
7983.02376 6.87550e-18
7984.68135 7.13071e-18
7986.34899 7.20698e-18
7988.00658 7.28317e-18
7989.66417 7.15475e-18
7991.33180 7.02640e-18
7992.98939 7.15742e-18
7994.64698 7.28829e-18
7996.30457 6.96454e-18
7997.97221 6.64098e-18
7999.62980 6.88726e-18
8001.28739 7.13338e-18
8002.94498 6.94992e-18
8004.61262 6.76651e-18
8006.27021 6.70614e-18
8007.92780 6.64590e-18
8009.59543 6.94900e-18
8011.25302 7.25191e-18
8012.91061 7.00074e-18
8014.56820 6.74965e-18
8016.23584 6.77475e-18
8017.89343 6.79987e-18
8019.55102 6.91188e-18
8021.20861 7.02386e-18
8022.87624 7.02981e-18
8024.53383 7.03570e-18
8026.19142 6.87253e-18
8027.85906 6.70939e-18
8029.51665 6.64567e-18
8031.17424 6.58193e-18
8032.83183 6.46106e-18
8034.49947 6.34030e-18
8036.15706 6.55135e-18
8037.81465 6.76233e-18
8039.47224 6.76103e-18
8041.13987 6.75971e-18
8042.79746 6.67744e-18
8044.45505 6.59517e-18
8046.12269 6.50477e-18
8047.78028 6.41443e-18
8049.43787 6.56522e-18
8051.09546 6.71594e-18
8052.76309 6.66996e-18
8054.42068 6.62394e-18
8056.07827 6.47171e-18
8057.73586 6.31957e-18
8059.40350 6.40911e-18
8061.06109 6.49864e-18
8062.71868 6.52645e-18
8064.38632 6.55420e-18
8066.04391 6.38149e-18
8067.70150 6.20883e-18
8069.35909 6.15128e-18
8071.02672 6.09379e-18
8072.68431 6.19492e-18
8074.34190 6.29606e-18
8076.00954 6.39531e-18
8077.66713 6.49453e-18
8079.32472 6.48122e-18
8080.98231 6.46784e-18
8082.64994 6.23887e-18
8084.30753 6.00992e-18
8085.96512 5.89778e-18
8087.62271 5.78569e-18
8089.29035 5.85411e-18
8090.94794 5.92255e-18
8092.60553 5.99790e-18
8094.27317 6.07325e-18
8095.93076 6.07721e-18
8097.58835 6.08116e-18
8099.24594 6.07564e-18
8100.91357 6.07013e-18
8102.57116 6.11877e-18
8104.22875 6.16736e-18
8105.88634 6.06015e-18
8107.55398 5.95301e-18
8109.21157 6.04479e-18
8110.86916 6.13647e-18
8112.53679 5.91011e-18
8114.19438 5.68391e-18
8115.85197 5.87527e-18
8117.50956 6.06664e-18
8119.17720 6.30545e-18
8120.83479 6.54410e-18
8122.49238 6.32653e-18
8124.16002 6.10894e-18
8125.81761 5.79457e-18
8127.47520 5.48034e-18
8129.13279 5.55966e-18
8130.80042 5.63900e-18
8132.45801 5.81993e-18
8134.11560 6.00078e-18
8135.77319 6.02518e-18
8137.44083 6.04957e-18
8139.09842 6.08541e-18
8140.75601 6.12121e-18
8142.41360 6.05703e-18
8144.08123 5.99280e-18
8145.73882 5.77845e-18
8147.39641 5.56425e-18
8149.06405 5.78368e-18
8150.72164 6.00301e-18
8152.37923 5.96003e-18
8154.03682 5.91699e-18
8155.70446 5.69649e-18
8157.36205 5.47611e-18
8159.01964 5.61798e-18
8160.68727 5.75982e-18
8162.34486 5.83338e-18
8164.00245 5.90684e-18
8165.66004 5.73091e-18
8167.32768 5.55513e-18
8168.98527 5.84262e-18
8170.64286 6.12999e-18
8172.30045 6.11901e-18
8173.96808 6.10786e-18
8175.62567 5.62041e-18
8177.28326 5.13319e-18
8178.95090 5.27892e-18
8180.60849 5.42468e-18
8182.26608 5.61728e-18
8183.92367 5.80983e-18
8185.59131 5.89983e-18
8187.24890 5.98968e-18
8188.90649 5.62308e-18
8190.56408 5.25664e-18
8192.23171 5.31265e-18
8193.88930 5.36873e-18
8195.54689 5.64520e-18
8197.21453 5.92156e-18
8198.87212 5.92140e-18
8200.52971 5.92119e-18
8202.18730 5.80206e-18
8203.85493 5.68297e-18
8205.51252 5.70572e-18
8207.17011 5.72847e-18
8208.82770 5.75612e-18
8210.49534 5.78366e-18
8212.15293 5.47058e-18
8213.81052 5.15766e-18
8215.47816 5.30321e-18
8217.13575 5.44867e-18
8218.79334 5.31568e-18
8220.45093 5.18280e-18
8222.11856 5.39522e-18
8223.77615 5.60753e-18
8225.43374 5.46215e-18
8227.09133 5.31688e-18
8228.75897 5.43439e-18
8230.41656 5.55184e-18
8232.07415 5.44923e-18
8233.74178 5.34666e-18
8235.39937 5.34253e-18
8237.05696 5.33838e-18
8238.71455 5.22541e-18
8240.38219 5.11246e-18
8242.03978 5.01031e-18
8243.69737 4.90829e-18
8245.36501 5.20968e-18
8247.02260 5.51095e-18
8248.68019 5.43835e-18
8250.33778 5.36579e-18
8252.00541 5.38678e-18
8253.66300 5.40763e-18
8255.32059 5.01809e-18
8256.97818 4.62881e-18
8258.64582 4.95242e-18
8260.30341 5.27594e-18
8261.96100 5.36407e-18
8263.62863 5.45212e-18
8265.28622 5.34920e-18
8266.94381 5.24627e-18
8268.60140 5.07435e-18
8270.26904 4.90250e-18
8271.92663 4.88601e-18
8273.58422 4.86954e-18
8275.25186 4.92509e-18
8276.90945 4.98058e-18
8278.56704 4.90132e-18
8280.22463 4.82207e-18
8281.89226 4.71177e-18
8283.54985 4.60155e-18
8285.20744 4.73131e-18
8286.86503 4.86100e-18
8288.53267 4.77709e-18
8290.19026 4.69324e-18
8291.84785 4.78482e-18
8293.51548 4.87639e-18
8295.17307 4.95459e-18
8296.83066 5.03277e-18
8298.48825 4.98987e-18
8300.15589 4.94690e-18
8301.81348 4.71089e-18
8303.47107 4.47498e-18
8305.12866 4.53655e-18
8306.79630 4.59808e-18
8308.45389 4.55756e-18
8310.11148 4.51702e-18
8311.77911 4.43049e-18
8313.43670 4.34400e-18
8315.09429 4.42909e-18
8316.75188 4.51417e-18
8318.41952 4.65058e-18
8320.07711 4.78691e-18
8321.73470 4.69576e-18
8323.40233 4.60457e-18
8325.05992 4.34255e-18
8326.71751 4.08067e-18
8328.37510 4.18182e-18
8330.04274 4.28298e-18
8331.70033 4.37656e-18
8333.35792 4.47011e-18
8335.01551 4.48624e-18
8336.68315 4.50239e-18
8338.34074 4.53645e-18
8339.99833 4.57052e-18
8341.65592 4.64398e-18
8343.32355 4.71751e-18
8344.98114 4.92478e-18
8346.63873 5.13194e-18
8348.30637 5.00307e-18
8349.96396 4.87415e-18
8351.62155 4.60713e-18
8353.27914 4.34022e-18
8354.94677 4.40181e-18
8356.60436 4.46340e-18
8358.26195 4.60174e-18
8359.92959 4.74001e-18
8361.58718 4.71509e-18
8363.24477 4.69012e-18
8364.90236 4.55290e-18
8366.57000 4.41568e-18
8368.22759 4.31752e-18
8369.88518 4.21946e-18
8371.54277 4.41364e-18
8373.21040 4.60765e-18
8374.86799 4.31436e-18
8376.52558 4.02127e-18
8378.19322 4.29727e-18
8379.85081 4.57312e-18
8381.50840 4.43058e-18
8383.16599 4.28811e-18
8384.83362 4.36813e-18
8386.49121 4.44804e-18
8388.14880 4.26096e-18
8389.81644 4.07401e-18
8391.47403 4.26515e-18
8393.13162 4.45628e-18
8394.78921 4.62602e-18
8396.45685 4.79568e-18
8398.11444 4.69892e-18
8399.77203 4.60218e-18
8401.42962 4.52169e-18
8403.09725 4.44127e-18
8404.75484 4.52034e-18
8406.41243 4.59947e-18
8408.08007 4.82689e-18
8409.73766 5.05416e-18
8411.39525 4.85186e-18
8413.05284 4.64963e-18
8414.72047 4.66359e-18
8416.37806 4.67749e-18
8418.03565 4.54827e-18
8419.69324 4.41910e-18
8421.36088 4.38989e-18
8423.01847 4.36073e-18
8424.67606 4.41719e-18
8426.34370 4.47355e-18
8428.00129 4.20373e-18
8429.65888 3.93409e-18
8431.31647 4.15482e-18
8432.98410 4.37552e-18
8434.64169 4.54142e-18
8436.29928 4.70725e-18
8437.95687 4.67063e-18
8439.62451 4.63402e-18
8441.28210 4.56969e-18
8442.93969 4.50529e-18
8444.60732 4.22461e-18
8446.26491 3.94407e-18
8447.92250 4.05083e-18
8449.58009 4.15763e-18
8451.24773 4.40145e-18
8452.90532 4.64520e-18
8454.56291 4.72135e-18
8456.22050 4.79740e-18
8457.88814 4.61840e-18
8459.54573 4.43944e-18
8461.20332 4.35346e-18
8462.87095 4.26754e-18
8464.52854 4.33964e-18
8466.18613 4.41171e-18
8467.84372 4.42802e-18
8469.51136 4.44433e-18
8471.16895 4.43096e-18
8472.82654 4.41757e-18
8474.48413 4.38189e-18
8476.15176 4.34627e-18
8477.80935 4.44053e-18
8479.46694 4.53485e-18
8481.13458 4.80793e-18
8482.79217 5.08083e-18
8484.44976 4.85969e-18
8486.10735 4.63863e-18
8487.77499 4.62666e-18
8489.43258 4.61479e-18
8491.09017 4.89607e-18
8492.75780 5.17717e-18
8494.41539 4.94991e-18
8496.07298 4.72274e-18
8497.73057 4.77401e-18
8499.39821 4.82526e-18
8501.05580 4.83861e-18
8502.71339 4.85195e-18
8504.37098 4.84659e-18
8506.03861 4.84121e-18
8507.69620 4.81589e-18
8509.35379 4.79060e-18
8511.01138 4.84905e-18
8512.67902 4.90745e-18
8514.33661 4.84978e-18
8515.99420 4.79217e-18
8517.66184 4.93455e-18
8519.31943 5.07684e-18
8520.97702 4.94276e-18
8522.63461 4.80870e-18
8524.30224 4.70399e-18
8525.95983 4.59940e-18
8527.61742 4.85373e-18
8529.28506 5.10802e-18
8530.94265 5.28409e-18
8532.60024 5.46001e-18
8534.25783 5.18833e-18
8535.92546 4.91683e-18
8537.58305 5.17221e-18
8539.24064 5.42743e-18
8540.89823 5.27194e-18
8542.56587 5.11651e-18
8544.22346 5.10342e-18
8545.88105 5.09034e-18
8547.54869 5.10543e-18
8549.20628 5.12060e-18
8550.86387 5.36747e-18
8552.52146 5.61424e-18
8554.18909 5.61085e-18
8555.84668 5.60752e-18
8557.50427 5.74350e-18
8559.17191 5.87938e-18
8560.82950 5.75149e-18
8562.48709 5.62363e-18
8564.14468 5.52355e-18
8565.81231 5.42358e-18
8567.46990 5.59377e-18
8569.12749 5.76388e-18
8570.78508 5.74894e-18
8572.45272 5.73394e-18
8574.11031 5.55610e-18
8575.76790 5.37827e-18
8577.43554 5.26729e-18
8579.09313 5.15639e-18
8580.75072 5.29582e-18
8582.40831 5.43516e-18
8584.07594 5.37547e-18
8585.73353 5.31584e-18
8587.39112 5.44832e-18
8589.04871 5.58081e-18
8590.71635 5.73457e-18
8592.37394 5.88822e-18
8594.03153 5.72752e-18
8595.69916 5.56685e-18
8597.35675 5.47641e-18
8599.01434 5.38603e-18
8600.67193 5.42976e-18
8602.33957 5.47357e-18
8603.99716 5.73715e-18
8605.65475 6.00059e-18
8607.32239 5.89699e-18
8608.97998 5.79335e-18
8610.63757 5.63939e-18
8612.29516 5.48549e-18
8613.96279 5.49759e-18
8615.62038 5.50969e-18
8617.27797 5.53305e-18
8618.93556 5.55640e-18
8620.60320 5.53581e-18
8622.26079 5.51531e-18
8623.91838 5.75729e-18
8625.58601 5.99922e-18
8627.24360 6.10907e-18
8628.90119 6.21880e-18
8630.55878 6.03970e-18
8632.22642 5.86064e-18
8633.88401 5.74543e-18
8635.54160 5.63036e-18
8637.20924 5.83650e-18
8638.86683 6.04261e-18
8640.52442 6.13626e-18
8642.18201 6.22974e-18
8643.84964 5.82242e-18
8645.50723 5.41528e-18
8647.16482 5.48322e-18
8648.82241 5.55123e-18
8650.49005 5.81560e-18
8652.14764 6.07986e-18
8653.80523 6.07959e-18
8655.46282 6.07928e-18
8657.13045 5.97808e-18
8658.78804 5.87697e-18
8660.44563 5.97761e-18
8662.11327 6.07812e-18
8663.77086 5.85774e-18
8665.42845 5.63746e-18
8667.08604 5.68884e-18
8668.75368 5.74019e-18
8670.41127 5.72286e-18
8672.06886 5.70554e-18
8673.73649 5.76648e-18
8675.39408 5.82734e-18
8677.05167 5.68549e-18
8678.70926 5.54373e-18
8680.37690 5.64724e-18
8682.03449 5.75072e-18
8683.69208 5.79682e-18
8685.34967 5.84281e-18
8687.01730 5.64487e-18
8688.67489 5.44707e-18
8690.33248 5.63348e-18
8691.99007 5.81984e-18
8693.65771 5.89075e-18
8695.31530 5.96157e-18
8696.97289 5.81604e-18
8698.64053 5.67058e-18
8700.29812 5.70879e-18
8701.95571 5.74703e-18
8703.61330 5.85475e-18
8705.28093 5.96239e-18
8706.93852 5.86136e-18
8708.59611 5.76033e-18
8710.26375 5.65921e-18
8711.92134 5.55820e-18
8713.57893 5.68823e-18
8715.23652 5.81819e-18
8716.90415 5.74671e-18
8718.56174 5.67521e-18
8720.21933 5.58040e-18
8721.87692 5.48562e-18
8723.54456 5.52079e-18
8725.20215 5.55599e-18
8726.85974 5.65976e-18
8728.52738 5.76353e-18
8730.18497 5.90497e-18
8731.84256 6.04627e-18
8733.50015 5.87658e-18
8735.16778 5.70701e-18
8736.82537 5.81781e-18
8738.48296 5.92852e-18
8740.14055 5.79885e-18
8741.80819 5.66928e-18
8743.46578 5.79563e-18
8745.12337 5.92183e-18
8746.79100 5.63840e-18
8748.44859 5.35511e-18
8750.10618 5.45830e-18
8751.76377 5.56160e-18
8753.43141 5.96772e-18
8755.08900 6.37369e-18
8756.74659 6.41179e-18
8758.40418 6.44972e-18
8760.07182 6.00798e-18
8761.72941 5.56638e-18
8763.38700 5.50588e-18
8765.05463 5.44543e-18
8766.71222 5.52086e-18
8768.36981 5.59623e-18
8770.02740 5.51048e-18
8771.69504 5.42478e-18
8773.35263 5.43532e-18
8775.01022 5.44583e-18
8776.67785 5.42567e-18
8778.33544 5.40552e-18
8779.99303 5.40195e-18
8781.65062 5.39842e-18
8783.31826 5.45938e-18
8784.97585 5.52022e-18
8786.63344 5.27278e-18
8788.29103 5.02540e-18
8789.95867 4.92545e-18
8791.61626 4.82565e-18
8793.27385 5.15493e-18
8794.94148 5.48402e-18
8796.59907 5.32662e-18
8798.25666 5.16927e-18
8799.91425 5.13772e-18
8801.58189 5.10617e-18
8803.23948 5.07891e-18
8804.89707 5.05165e-18
8806.56470 5.06954e-18
8808.22229 5.08745e-18
8809.87988 5.17132e-18
8811.53747 5.25517e-18
8813.20511 5.26762e-18
8814.86270 5.28009e-18
8816.52029 5.34481e-18
8818.17788 5.40951e-18
8819.84552 5.43754e-18
8821.50311 5.46558e-18
8823.16070 5.45673e-18
8824.82833 5.44789e-18
8826.48592 5.44343e-18
8828.14351 5.43877e-18
8829.80110 4.96304e-18
8831.46874 4.48766e-18
8833.12633 4.91305e-18
8834.78392 5.33824e-18
8836.44151 5.23703e-18
8838.10914 5.13587e-18
8839.76673 5.12774e-18
8841.42432 5.11959e-18
8843.09196 5.02495e-18
8844.74955 4.93034e-18
8846.40714 4.92420e-18
8848.06473 4.91807e-18
8849.73237 4.92000e-18
8851.38996 4.92198e-18
8853.04755 5.03937e-18
8854.71518 5.15664e-18
8856.37277 5.01297e-18
8858.03036 4.86931e-18
8859.68795 4.77015e-18
8861.35559 4.67102e-18
8863.01318 4.66195e-18
8864.67077 4.65290e-18
8866.32836 4.72734e-18
8867.99599 4.80179e-18
8869.65358 4.91249e-18
8871.31117 5.02314e-18
8872.97881 5.01786e-18
8874.63640 5.01250e-18
8876.29399 4.83178e-18
8877.95158 4.65119e-18
8879.61922 4.79843e-18
8881.27681 4.94557e-18
8882.93440 4.89467e-18
8884.60203 4.84386e-18
8886.25962 4.97908e-18
8887.91721 5.11427e-18
8889.57480 5.13905e-18
8891.24244 5.16372e-18
8892.90003 4.88770e-18
8894.55762 4.61182e-18
8896.21521 4.71259e-18
8897.88284 4.81332e-18
8899.54043 4.81477e-18
8901.19802 4.81619e-18
8902.85561 4.78794e-18
8904.52325 4.75968e-18
8906.18084 4.74118e-18
8907.83843 4.72262e-18
8909.50607 4.52735e-18
8911.16366 4.33218e-18
8912.82125 4.38143e-18
8914.47884 4.43060e-18
8916.14647 4.29011e-18
8917.80406 4.14976e-18
8919.46165 4.34710e-18
8921.11924 4.54434e-18
8922.78688 4.48489e-18
8924.44447 4.42560e-18
8926.10206 4.76230e-18
8927.76969 5.09884e-18
8929.42728 5.04571e-18
8931.08487 4.99241e-18
8932.74246 4.55151e-18
8934.41010 4.11078e-18
8936.06769 4.08714e-18
8937.72528 4.06360e-18
8939.38287 4.31296e-18
8941.05051 4.56210e-18
8942.70810 4.26965e-18
8944.36569 3.97733e-18
8946.03332 4.05644e-18
8947.69091 4.13546e-18
8949.34850 4.03339e-18
8951.00609 3.93143e-18
8952.67373 4.11141e-18
8954.33132 4.29121e-18
8955.98891 3.99112e-18
8957.64650 3.69123e-18
8959.31413 3.85715e-18
8960.97172 4.02303e-18
8962.62931 4.14211e-18
8964.29695 4.26119e-18
8965.95454 4.43739e-18
8967.61213 4.61345e-18
8969.26972 4.48932e-18
8970.93736 4.36522e-18
8972.59495 4.34430e-18
8974.25254 4.32337e-18
8975.92017 4.28670e-18
8977.57776 4.25000e-18
8979.23535 4.14356e-18
8980.89294 4.03722e-18
8982.56058 4.13219e-18
8984.21817 4.22717e-18
8985.87576 4.34769e-18
8987.53335 4.46809e-18
8989.20098 4.27207e-18
8990.85857 4.07610e-18
8992.51616 4.01096e-18
8994.18380 3.94585e-18
8995.84139 4.02768e-18
8997.49898 4.10949e-18
8999.15657 4.18565e-18
9000.82421 4.26184e-18
9002.48180 4.39694e-18
9004.13939 4.53196e-18
9005.79698 4.47651e-18
9007.46461 4.42106e-18
9009.12220 4.39290e-18
9010.77979 4.36480e-18
9012.44743 4.48969e-18
9014.10502 4.61446e-18
9015.76261 4.38343e-18
9017.42020 4.15253e-18
9019.08783 4.19531e-18
9020.74542 4.23802e-18
9022.40301 4.11873e-18
9024.07065 3.99949e-18
9025.72824 4.03455e-18
9027.38583 4.06961e-18
9029.04342 4.15493e-18
9030.71106 4.24028e-18
9032.36865 4.42421e-18
9034.02624 4.60796e-18
9035.68383 4.36532e-18
9037.35146 4.12275e-18
9039.00905 4.04778e-18
9040.66664 3.97289e-18
9042.33428 4.11238e-18
9043.99187 4.25175e-18
9045.64946 4.06291e-18
9047.30705 3.87407e-18
9048.97468 3.67499e-18
9050.63227 3.47613e-18
9052.28986 3.78245e-18
9053.95750 4.08866e-18
9055.61509 4.13362e-18
9057.27268 4.17846e-18
9058.93027 3.95454e-18
9060.59791 3.73069e-18
9062.25550 3.68268e-18
9063.91309 3.63472e-18
9065.57068 3.68257e-18
9067.23831 3.73035e-18
9068.89590 3.57134e-18
9070.55349 3.41248e-18
9072.21108 3.58958e-18
9073.87872 3.76660e-18
9075.53631 3.76945e-18
9077.19390 3.77230e-18
9078.86153 3.80794e-18
9080.51912 3.84342e-18
9082.17671 3.53904e-18
9083.83430 3.23489e-18
9085.50194 3.45921e-18
9087.15953 3.68349e-18
9088.81712 3.82708e-18
9090.48476 3.97053e-18
9092.14235 3.83538e-18
9093.79994 3.70045e-18
9095.45753 3.96584e-18
9097.12516 4.23100e-18
9098.78275 3.94027e-18
9100.44034 3.64975e-18
9102.09793 3.83076e-18
9103.76557 4.01185e-18
9105.42316 4.36784e-18
9107.08075 4.72360e-18
9108.74838 4.53460e-18
9110.40597 4.34559e-18
9112.06356 4.09047e-18
9113.72115 3.83544e-18
9115.38879 3.76008e-18
9117.04638 3.68480e-18
9118.70397 3.77244e-18
9120.36156 3.86004e-18
9122.02920 3.81496e-18
9123.68679 3.76992e-18
9125.34438 3.85671e-18
9127.01201 3.94348e-18
9128.66960 4.05690e-18
9130.32719 4.17029e-18
9131.98478 4.22827e-18
9133.65242 4.28622e-18
9135.31001 4.27847e-18
9136.96760 4.27075e-18
9138.63523 4.34450e-18
9140.29282 4.41817e-18
9141.95041 4.27676e-18
9143.60800 4.13542e-18
9145.27564 4.16708e-18
9146.93323 4.19868e-18
9148.59082 4.13835e-18
9150.24841 4.07796e-18
9151.91605 3.90979e-18
9153.57364 3.74181e-18
9155.23123 4.04231e-18
9156.89886 4.34268e-18
9158.55645 4.37533e-18
9160.21404 4.40792e-18
9161.87163 4.32985e-18
9163.53927 4.25170e-18
9165.19686 4.01306e-18
9166.85445 3.77458e-18
9168.51204 3.94467e-18
9170.17967 4.11471e-18
9171.83726 4.12150e-18
9173.49485 4.12827e-18
9175.15244 4.08220e-18
9176.82008 4.03623e-18
9178.47767 4.24990e-18
9180.13526 4.46351e-18
9181.80290 4.52612e-18
9183.46049 4.58868e-18
9185.11808 4.50678e-18
9186.77567 4.42495e-18
9188.44330 4.47726e-18
9190.10089 4.52951e-18
9191.75848 4.46649e-18
9193.42612 4.40343e-18
9195.08371 4.22287e-18
9196.74130 4.04248e-18
9198.39889 4.30283e-18
9200.06652 4.56307e-18
9201.72411 4.57272e-18
9203.38170 4.58226e-18
9205.03929 4.36788e-18
9206.70693 4.15359e-18
9208.36452 4.14794e-18
9210.02211 4.14236e-18
9211.68975 4.32337e-18
9213.34734 4.50428e-18
9215.00493 4.45449e-18
9216.66252 4.40469e-18
9218.33015 4.32324e-18
9219.98774 4.24180e-18
9221.64533 4.15553e-18
9223.31297 4.06933e-18
9224.97056 4.13509e-18
9226.62815 4.20073e-18
9228.28574 3.96511e-18
9229.95337 3.72973e-18
9231.61096 4.11082e-18
9233.26855 4.49181e-18
9234.92614 4.67614e-18
9236.59378 4.86027e-18
9238.25137 4.58228e-18
9239.90896 4.30437e-18
9241.56655 4.16112e-18
9243.23419 4.01804e-18
9244.89178 4.29986e-18
9246.54937 4.58146e-18
9248.21700 4.37129e-18
9249.87459 4.16121e-18
9251.53218 4.17625e-18
9253.18977 4.19125e-18
9254.85741 4.14364e-18
9256.51500 4.09609e-18
9258.17259 4.15329e-18
9259.84022 4.21050e-18
9261.49781 4.31508e-18
9263.15540 4.41958e-18
9264.81299 4.34271e-18
9266.48063 4.26575e-18
9268.13822 3.99562e-18
9269.79581 3.72573e-18
9271.45340 4.03545e-18
9273.12104 4.34497e-18
9274.77863 4.19776e-18
9276.43622 4.05068e-18
9278.10385 4.27356e-18
9279.76144 4.49624e-18
9281.41903 4.27786e-18
9283.07662 4.05959e-18
9284.74426 4.06536e-18
9286.40185 4.07116e-18
9288.05944 4.17398e-18
9289.71703 4.27662e-18
9291.38466 3.93804e-18
9293.04225 3.59963e-18
9294.69984 3.70049e-18
9296.36748 3.80138e-18
9298.02507 3.94836e-18
9299.68266 4.09528e-18
9301.34025 4.10303e-18
9303.00789 4.11075e-18
9304.66548 4.08692e-18
9306.32307 4.06302e-18
9307.99070 3.90090e-18
9309.64829 3.73881e-18
9311.30588 3.66268e-18
9312.96347 3.58661e-18
9314.63111 3.65881e-18
9316.28870 3.73090e-18
9317.94629 3.50068e-18
9319.60388 3.27044e-18
9321.27151 2.96182e-18
9322.92910 2.65347e-18
9324.58669 2.98263e-18
9326.25433 3.31167e-18
9327.91192 3.35706e-18
9329.56951 3.40248e-18
9331.22710 3.50931e-18
9332.89474 3.61602e-18
9334.55233 3.43571e-18
9336.20992 3.25550e-18
9337.87755 3.31871e-18
9339.53514 3.38192e-18
9341.19273 3.41775e-18
9342.85032 3.45366e-18
9344.51796 3.64525e-18
9346.17555 3.83678e-18
9347.83314 3.88261e-18
9349.49073 3.92823e-18
9351.15836 3.44410e-18
9352.81595 2.96016e-18
9354.47354 2.87496e-18
9356.13113 2.78999e-18
9357.79877 3.24607e-18
9359.45636 3.70194e-18
9361.11395 3.65925e-18
9362.78159 3.61667e-18
9364.43918 3.81885e-18
9366.09677 4.02095e-18
9367.75436 4.02076e-18
9369.42199 4.02057e-18
9371.07958 3.99020e-18
9372.73717 3.95960e-18
9374.40481 3.37730e-18
9376.06240 2.79526e-18
9377.71999 2.81029e-18
9379.37758 2.82540e-18
9381.04521 3.06816e-18
9382.70280 3.31081e-18
9384.36039 3.32271e-18
9386.01798 3.33460e-18
9387.68562 3.33663e-18
9389.34321 3.33863e-18
9391.00080 3.32549e-18
9392.66844 3.31243e-18
9394.32603 3.46548e-18
9395.98362 3.61839e-18
9397.64121 3.46160e-18
9399.30884 3.30488e-18
9400.96643 3.31434e-18
9402.62402 3.32381e-18
9404.28161 3.36791e-18
9405.94925 3.41195e-18
9407.60684 3.32359e-18
9409.26443 3.23535e-18
9410.93206 3.41066e-18
9412.58965 3.58589e-18
9414.24724 3.61889e-18
9415.90483 3.65182e-18
9417.57247 3.51307e-18
9419.23006 3.37438e-18
9420.88765 3.33447e-18
9422.54524 3.29453e-18
9424.21288 3.15108e-18
9425.87047 3.00787e-18
9427.52806 3.39744e-18
9429.19569 3.78673e-18
9430.85328 3.55052e-18
9432.51087 3.31436e-18
9434.16846 3.23907e-18
9435.83610 3.16363e-18
9437.49369 2.74855e-18
9439.15128 2.33357e-18
9440.80887 2.18010e-18
9442.47650 2.02699e-18
9444.13409 2.70798e-18
9445.79168 3.38867e-18
9447.45932 3.37624e-18
9449.11691 3.36384e-18
9450.77450 3.44798e-18
9452.43209 3.53199e-18
9454.09973 3.32855e-18
9455.75732 3.12512e-18
9457.41491 2.87548e-18
9459.07250 2.62599e-18
9460.74013 2.69334e-18
9462.39772 2.76075e-18
9464.05531 2.99957e-18
9465.72295 3.23814e-18
9467.38054 2.91890e-18
9469.03813 2.59990e-18
9470.69572 2.83230e-18
9472.36335 3.06470e-18
9474.02094 3.32667e-18
9475.67853 3.58859e-18
9477.34617 3.72308e-18
9479.00376 3.85745e-18
9480.66135 3.71186e-18
9482.31894 3.56635e-18
9483.98658 3.56976e-18
9485.64417 3.57308e-18
9487.30176 3.33172e-18
9488.95935 3.09046e-18
9490.62698 3.06520e-18
9492.28457 3.03993e-18
9493.94216 2.96125e-18
9495.60980 2.88278e-18
9497.26739 3.26663e-18
9498.92498 3.65026e-18
9500.58257 3.48073e-18
9502.25020 3.31130e-18
9503.90779 3.36162e-18
9505.56538 3.41196e-18
9507.23302 3.49135e-18
9508.89061 3.57058e-18
9510.54820 3.31598e-18
9512.20579 3.06144e-18
9513.87343 2.95185e-18
9515.53102 2.84227e-18
9517.18861 2.78723e-18
9518.84620 2.73236e-18
9520.51383 3.08122e-18
9522.17142 3.42982e-18
9523.82901 3.21786e-18
9525.49665 3.00604e-18
9527.15424 3.08594e-18
9528.81183 3.16575e-18
9530.46942 3.04599e-18
9532.13705 2.92635e-18
9533.79464 3.06631e-18
9535.45223 3.20622e-18
9537.10982 3.23893e-18
9538.77746 3.27166e-18
9540.43505 3.34941e-18
9542.09264 3.42710e-18
9543.76028 3.39046e-18
9545.41787 3.35372e-18
9547.07546 3.08484e-18
9548.73305 2.81601e-18
9550.40068 2.67880e-18
9552.05827 2.54194e-18
9553.71586 3.20552e-18
9555.37345 3.86868e-18
9557.04109 3.56592e-18
9558.69868 3.26327e-18
9560.35627 3.21993e-18
9562.02390 3.17668e-18
9563.68149 3.30592e-18
9565.33908 3.43502e-18
9566.99667 3.25669e-18
9568.66431 3.07844e-18
9570.32190 3.10416e-18
9571.97949 3.12992e-18
9573.64713 3.20922e-18
9575.30472 3.28838e-18
9576.96231 3.03911e-18
9578.61990 2.78996e-18
9580.28753 2.78956e-18
9581.94512 2.78921e-18
9583.60271 2.87782e-18
9585.27035 2.96634e-18
9586.92794 2.85543e-18
9588.58553 2.74455e-18
9590.24312 2.70455e-18
9591.91075 2.66467e-18
9593.56834 2.91588e-18
9595.22593 3.16693e-18
9596.88352 3.05034e-18
9598.55116 2.93389e-18
9600.20875 3.14019e-18
9601.86634 3.34640e-18
9603.52393 3.34097e-18
9605.19157 3.33561e-18
9606.84916 3.47838e-18
9608.50675 3.62093e-18
9610.17438 3.24521e-18
9611.83197 2.86966e-18
9613.48956 2.85562e-18
9615.14715 2.84157e-18
9616.81479 2.81074e-18
9618.47238 2.77994e-18
9620.12997 2.83147e-18
9621.79760 2.88302e-18
9623.45519 2.94879e-18
9625.11278 3.01457e-18
9626.77037 3.07731e-18
9628.43801 3.14005e-18
9630.09560 3.22267e-18
9631.75319 3.30525e-18
9633.41078 3.29700e-18
9635.07842 3.28883e-18
9636.73601 3.46434e-18
9638.39360 3.63967e-18
9640.06123 3.42738e-18
9641.71882 3.21521e-18
9643.37641 3.28868e-18
9645.03400 3.36197e-18
9646.70164 3.06794e-18
9648.35923 2.77413e-18
9650.01682 2.96582e-18
9651.67441 3.15740e-18
9653.34204 3.13142e-18
9654.99963 3.10537e-18
9656.65722 2.88943e-18
9658.31481 2.67364e-18
9659.98245 2.76325e-18
9661.64004 2.85296e-18
9663.29763 3.15794e-18
9664.96527 3.46261e-18
9666.62286 3.04942e-18
9668.28045 2.63653e-18
9669.93804 2.85334e-18
9671.60567 3.07016e-18
9673.26326 3.29191e-18
9674.92085 3.51359e-18
9676.58849 3.57132e-18
9678.24608 3.62895e-18
9679.90367 3.46827e-18
9681.56126 3.30784e-18
9683.22889 3.65296e-18
9684.88648 3.99782e-18
9686.54407 3.72788e-18
9688.20166 3.45789e-18
9689.86930 3.07920e-18
9691.52689 2.70087e-18
9693.18448 3.06190e-18
9694.85212 3.42280e-18
9696.50971 3.46966e-18
9698.16730 3.51662e-18
9699.82489 3.77154e-18
9701.49252 4.02601e-18
9703.15011 3.29759e-18
9704.80770 2.56958e-18
9706.46529 2.72881e-18
9708.13293 2.88801e-18
9709.79052 2.95483e-18
9711.44811 3.02149e-18
9713.11574 2.70263e-18
9714.77333 2.38405e-18
9716.43092 2.70830e-18
9718.08851 3.03255e-18
9719.75615 3.32765e-18
9721.41374 3.62249e-18
9723.07133 3.33744e-18
9724.73897 3.05256e-18
9726.39656 3.11325e-18
9728.05415 3.17396e-18
9729.71174 3.26810e-18
9731.37937 3.36210e-18
9733.03696 3.17343e-18
9734.69455 2.98487e-18
9736.35214 3.06697e-18
9738.01978 3.14908e-18
9739.67737 3.28543e-18
9741.33496 3.42170e-18
9743.00259 3.41942e-18
9744.66018 3.41707e-18
9746.31777 3.24152e-18
9747.97536 3.06599e-18
9749.64300 2.91642e-18
9751.30059 2.76707e-18
9752.95818 3.07242e-18
9754.62582 3.37750e-18
9756.28341 3.13295e-18
9757.94100 2.88856e-18
9759.59859 3.00358e-18
9761.26622 3.11857e-18
9762.92381 3.20367e-18
9764.58140 3.28871e-18
9766.23899 3.23437e-18
9767.90663 3.18012e-18
9769.56422 3.32566e-18
9771.22181 3.47108e-18
9772.87940 3.35569e-18
9774.54703 3.24028e-18
9776.20462 3.06166e-18
9777.86221 2.88306e-18
9779.52985 2.73243e-18
9781.18744 2.58200e-18
9782.84503 2.85210e-18
9784.50262 3.12205e-18
9786.17026 3.05929e-18
9787.82785 2.99691e-18
9789.48544 3.73888e-18
9791.15307 4.48033e-18
9792.81066 4.10581e-18
9794.46825 3.73140e-18
9796.12584 3.54119e-18
9797.79348 3.35113e-18
9799.45107 3.46483e-18
9801.10866 3.57817e-18
9802.76625 2.93681e-18
9804.43388 2.29566e-18
9806.09147 2.08523e-18
9807.74906 1.87514e-18
9809.41670 2.36544e-18
9811.07429 2.85555e-18
9812.73188 2.95749e-18
9814.38947 3.05942e-18
9816.05711 3.16382e-18
9817.71470 3.26812e-18
9819.37229 3.18772e-18
9821.03992 3.10725e-18
9822.69751 2.86161e-18
9824.35510 2.61627e-18
9826.01269 2.97964e-18
9827.68033 3.34276e-18
9829.33792 3.14252e-18
9830.99551 2.94244e-18
9832.65310 3.05358e-18
9834.32073 3.16460e-18
9835.97832 3.07474e-18
9837.63591 2.98483e-18
9839.30355 2.79442e-18
9840.96114 2.60427e-18
9842.61873 2.96563e-18
9844.27632 3.32700e-18
9845.94396 3.70687e-18
9847.60155 4.08647e-18
9849.25914 3.91185e-18
9850.91673 3.73723e-18
9852.58436 3.56015e-18
9854.24195 3.38307e-18
9855.89954 3.22619e-18
9857.56718 3.06937e-18
9859.22477 3.04346e-18
9860.88236 3.01755e-18
9862.53995 3.00988e-18
9864.20758 3.00249e-18
9865.86517 3.59146e-18
9867.52276 4.18009e-18
9869.18035 4.02825e-18
9870.84799 3.87654e-18
9872.50558 4.01486e-18
9874.16317 4.15329e-18
9875.83081 4.53086e-18
9877.48840 4.90795e-18
9879.14599 4.26707e-18
9880.80358 3.62621e-18
9882.47121 3.01104e-18
9884.12880 2.39640e-18
9885.78639 2.89441e-18
9887.44398 3.39232e-18
9889.11162 3.65765e-18
9890.76921 3.92287e-18
9892.42680 4.00374e-18
9894.09443 4.08463e-18
9895.75202 4.20769e-18
9897.40961 4.33073e-18
9899.06720 4.39631e-18
9900.73484 4.46151e-18
9902.39243 3.68529e-18
9904.05002 2.90940e-18
9905.70761 2.83437e-18
9907.37525 2.75931e-18
9909.03284 2.64185e-18
9910.69043 2.52445e-18
9912.35806 2.55483e-18
9914.01565 2.58541e-18
9915.67324 3.02111e-18
9917.33083 3.45652e-18
9918.99847 3.30587e-18
9920.65606 3.15534e-18
9922.31365 3.22344e-18
9923.98128 3.29156e-18
9925.63887 3.37819e-18
9927.29646 3.46487e-18
9928.95405 3.62958e-18
9930.62169 3.79386e-18
9932.27928 3.03536e-18
9933.93687 2.27712e-18
9935.59446 2.06389e-18
9937.26210 1.85111e-18
9938.91969 2.56687e-18
9940.57728 3.28242e-18
9942.23487 3.57568e-18
9943.90250 3.86881e-18
9945.56009 3.87091e-18
9947.21768 3.87277e-18
9948.88532 3.33737e-18
9950.54291 2.80250e-18
9952.20050 3.42014e-18
9953.85809 4.03747e-18
9955.52572 4.02793e-18
9957.18331 4.01820e-18
9958.84090 3.58631e-18
9960.50854 3.15456e-18
9962.16613 2.96626e-18
9963.82372 2.77801e-18
9965.48131 2.67028e-18
9967.14895 2.56249e-18
9968.80654 2.30252e-18
9970.46413 2.04264e-18
9972.12172 1.91846e-18
9973.78935 1.79435e-18
9975.44694 1.81108e-18
9977.10453 1.82804e-18
9978.77217 2.33810e-18
9980.42976 2.84789e-18
9982.08735 2.82174e-18
9983.74494 2.79569e-18
9985.41257 2.98821e-18
9987.07016 3.18076e-18
9988.72775 3.48139e-18
9990.39539 3.78182e-18
9992.05298 3.68208e-18
9993.71057 3.58220e-18
9995.36816 3.22435e-18
9997.03580 2.86637e-18
9998.69339 2.21739e-18
