# wavelength flux
3485.00480 1.75549e-17
3486.47202 1.80069e-17
3487.93924 1.96847e-17
3489.40645 2.05992e-17
3490.88386 2.06414e-17
3492.35107 2.02142e-17
3493.81829 2.20317e-17
3495.28550 1.95763e-17
3496.76291 1.76066e-17
3498.23013 2.07484e-17
3499.69734 2.14191e-17
3501.17475 1.78909e-17
3502.64196 1.56775e-17
3504.10918 1.81745e-17
3505.57640 2.18123e-17
3507.05380 2.12882e-17
3508.52102 2.02308e-17
3509.98823 2.06900e-17
3511.45545 2.21126e-17
3512.93285 2.44882e-17
3514.40007 2.40997e-17
3515.86728 2.17722e-17
3517.34469 2.34411e-17
3518.81191 2.76342e-17
3520.27912 2.70613e-17
3521.74634 2.52993e-17
3523.22374 2.46712e-17
3524.69096 2.54644e-17
3526.15817 2.66157e-17
3527.62539 2.37861e-17
3529.10280 2.06353e-17
3530.57001 2.33670e-17
3532.03723 2.53649e-17
3533.51463 2.37959e-17
3534.98185 2.11019e-17
3536.44906 1.97823e-17
3537.91628 2.33244e-17
3539.39369 2.35946e-17
3540.86090 2.55412e-17
3542.32812 2.64004e-17
3543.79533 2.27984e-17
3545.27274 2.14938e-17
3546.73995 2.10786e-17
3548.20717 2.16462e-17
3549.68458 1.94070e-17
3551.15179 1.93593e-17
3552.61901 2.35873e-17
3554.08622 2.38144e-17
3555.56363 2.21834e-17
3557.03084 2.02582e-17
3558.49806 1.83459e-17
3559.96528 1.97980e-17
3561.44268 2.32319e-17
3562.90990 2.25270e-17
3564.37711 2.10868e-17
3565.85452 2.05493e-17
3567.32173 2.08546e-17
3568.78895 2.25196e-17
3570.25617 2.05005e-17
3571.73357 1.93612e-17
3573.20079 1.94551e-17
3574.66800 1.86056e-17
3576.13522 1.83662e-17
3577.61262 1.93625e-17
3579.07984 1.96182e-17
3580.54706 1.76642e-17
3582.02446 1.73662e-17
3583.49168 1.85622e-17
3584.95889 1.84445e-17
3586.42611 1.83941e-17
3587.90351 1.93473e-17
3589.37073 2.03483e-17
3590.83795 2.03480e-17
3592.30516 2.09656e-17
3593.78257 2.03336e-17
3595.24978 1.81350e-17
3596.71700 1.97435e-17
3598.19440 2.21243e-17
3599.66162 1.97084e-17
3601.12884 1.62062e-17
3602.59605 1.71974e-17
3604.07346 2.02370e-17
3605.54067 2.08224e-17
3607.00789 1.94120e-17
3608.47511 1.72666e-17
3609.95251 1.66571e-17
3611.41973 1.98969e-17
3612.88694 2.09745e-17
3614.36435 1.93357e-17
3615.83156 1.85730e-17
3617.29878 1.89485e-17
3618.76600 2.21396e-17
3620.24340 2.38618e-17
3621.71062 1.97019e-17
3623.17783 1.75443e-17
3624.64505 1.87167e-17
3626.12245 1.98549e-17
3627.58967 2.16441e-17
3629.05689 2.04975e-17
3630.53429 1.84463e-17
3632.00151 1.74577e-17
3633.46872 1.88696e-17
3634.93594 1.97122e-17
3636.41334 1.85290e-17
3637.88056 1.95205e-17
3639.34778 1.85737e-17
3640.81499 1.91901e-17
3642.29240 1.83392e-17
3643.75961 1.70758e-17
3645.22683 1.88638e-17
3646.70423 1.74774e-17
3648.17145 1.80792e-17
3649.63867 1.93035e-17
3651.10588 1.99700e-17
3652.58329 2.11137e-17
3654.05050 2.06335e-17
3655.51772 1.96413e-17
3656.98493 1.75057e-17
3658.46234 1.81531e-17
3659.92956 2.06142e-17
3661.39677 2.10994e-17
3662.87418 2.07650e-17
3664.34139 1.93338e-17
3665.80861 1.98862e-17
3667.27582 2.09752e-17
3668.75323 2.05160e-17
3670.22045 2.03740e-17
3671.68766 1.90814e-17
3673.15488 1.66890e-17
3674.63228 1.84759e-17
3676.09950 1.92087e-17
3677.56671 1.82073e-17
3679.04412 1.83326e-17
3680.51134 1.88304e-17
3681.97855 2.09921e-17
3683.44577 2.07708e-17
3684.92317 1.95698e-17
3686.39039 1.91025e-17
3687.85760 1.72249e-17
3689.33501 1.77801e-17
3690.80223 1.95262e-17
3692.26944 1.67762e-17
3693.73666 1.74096e-17
3695.21406 1.93469e-17
3696.68128 1.82767e-17
3698.14849 1.86715e-17
3699.61571 1.89686e-17
3701.09312 1.87101e-17
3702.56033 1.91276e-17
3704.02755 1.84454e-17
3705.49476 1.74637e-17
3706.97217 1.71523e-17
3708.43938 1.76114e-17
3709.90660 1.74021e-17
3711.38401 1.61997e-17
3712.85122 1.62199e-17
3714.31844 1.64562e-17
3715.78565 1.58383e-17
3717.26306 1.44155e-17
3718.73027 1.43227e-17
3720.19749 1.58811e-17
3721.67490 1.66493e-17
3723.14211 1.59356e-17
3724.60933 1.55653e-17
3726.07654 1.59021e-17
3727.55395 1.67221e-17
3729.02116 1.71217e-17
3730.48838 1.66581e-17
3731.95560 1.67110e-17
3733.43300 1.60519e-17
3734.90022 1.71011e-17
3736.36743 1.79388e-17
3737.84484 1.77731e-17
3739.31205 1.85039e-17
3740.77927 1.73181e-17
3742.24649 1.69320e-17
3743.72389 1.81039e-17
3745.19111 1.85979e-17
3746.65832 1.90899e-17
3748.12554 1.96359e-17
3749.60295 1.89230e-17
3751.07016 1.71563e-17
3752.53738 1.81836e-17
3754.01478 1.91521e-17
3755.48200 1.73023e-17
3756.94921 1.85172e-17
3758.41643 1.99747e-17
3759.89383 1.84858e-17
3761.36105 1.84072e-17
3762.82827 1.88696e-17
3764.29548 1.88449e-17
3765.77289 1.79000e-17
3767.24010 1.76740e-17
3768.70732 1.83992e-17
3770.18472 1.94814e-17
3771.65194 1.85379e-17
3773.11916 1.74407e-17
3774.58637 1.88725e-17
3776.06378 1.89510e-17
3777.53099 1.85297e-17
3778.99821 1.86450e-17
3780.46543 1.81522e-17
3781.94283 1.72220e-17
3783.41005 1.74491e-17
3784.87726 2.06416e-17
3786.35467 2.04927e-17
3787.82188 1.65008e-17
3789.28910 1.63613e-17
3790.75632 1.93532e-17
3792.23372 1.86940e-17
3793.70094 1.49855e-17
3795.16815 1.43099e-17
3796.63537 1.50064e-17
3798.11277 1.52877e-17
3799.57999 1.58950e-17
3801.04721 1.48869e-17
3802.52461 1.33465e-17
3803.99183 1.24952e-17
3805.45904 1.20881e-17
3806.92626 1.20293e-17
3808.40366 1.13230e-17
3809.87088 1.04174e-17
3811.33810 1.10329e-17
3812.80531 1.23461e-17
3814.28272 1.08802e-17
3815.74993 1.04241e-17
3817.21715 1.08061e-17
3818.69455 9.67395e-18
3820.16177 9.28929e-18
3821.62899 9.32668e-18
3823.09620 9.36727e-18
3824.57361 8.14556e-18
3826.04082 7.74087e-18
3827.50804 8.56778e-18
3828.97525 7.51338e-18
3830.45266 6.85414e-18
3831.91988 8.22612e-18
3833.38709 7.88088e-18
3834.86450 7.32192e-18
3836.33171 8.35232e-18
3837.79893 8.58437e-18
3839.26615 8.32052e-18
3840.74355 7.69692e-18
3842.21077 6.53302e-18
3843.67798 7.51987e-18
3845.14520 8.94459e-18
3846.62260 8.32827e-18
3848.08982 8.15133e-18
3849.55703 8.04871e-18
3851.03444 7.20762e-18
3852.50166 7.35008e-18
3853.96887 7.01568e-18
3855.43609 6.88639e-18
3856.91349 7.26458e-18
3858.38071 7.03542e-18
3859.84792 6.99719e-18
3861.31514 7.99187e-18
3862.79255 7.55800e-18
3864.25976 6.53207e-18
3865.72698 7.21111e-18
3867.20438 7.17594e-18
3868.67160 7.71021e-18
3870.13881 7.68046e-18
3871.60603 5.91389e-18
3873.08344 5.75955e-18
3874.55065 6.98995e-18
3876.01787 7.09964e-18
3877.48508 6.31735e-18
3878.96249 5.27406e-18
3880.42970 6.52631e-18
3881.89692 7.48433e-18
3883.37433 7.57666e-18
3884.84154 7.58288e-18
3886.30876 6.78877e-18
3887.77597 6.85832e-18
3889.25338 6.88389e-18
3890.72059 7.55165e-18
3892.18781 7.55389e-18
3893.65503 7.86811e-18
3895.13243 7.86253e-18
3896.59965 7.43017e-18
3898.06686 8.45854e-18
3899.54427 7.19808e-18
3901.01148 7.46937e-18
3902.47870 9.17028e-18
3903.94592 8.69268e-18
3905.42332 8.12666e-18
3906.89054 9.40933e-18
3908.35775 1.04723e-17
3909.82497 1.00069e-17
3911.30237 9.21357e-18
3912.76959 8.84798e-18
3914.23681 8.54870e-18
3915.71421 8.53858e-18
3917.18143 1.04013e-17
3918.64864 1.25271e-17
3920.11586 1.24849e-17
3921.59326 1.22111e-17
3923.06048 1.11687e-17
3924.52770 1.04029e-17
3925.99491 1.05967e-17
3927.47232 1.05928e-17
3928.93953 9.82910e-18
3930.40675 9.70711e-18
3931.88415 9.98265e-18
3933.35137 1.09411e-17
3934.81859 1.22814e-17
3936.28580 1.18897e-17
3937.76321 1.20133e-17
3939.23042 1.32447e-17
3940.69764 1.34629e-17
3942.16486 1.39889e-17
3943.64226 1.44544e-17
3945.10948 1.46787e-17
3946.57669 1.50857e-17
3948.05410 1.45778e-17
3949.52131 1.44008e-17
3950.98853 1.63882e-17
3952.45575 1.67691e-17
3953.93315 1.55800e-17
3955.40037 1.65859e-17
3956.86758 1.73705e-17
3958.34499 1.64919e-17
3959.81220 1.72198e-17
3961.27942 1.90920e-17
3962.74664 1.93705e-17
3964.22404 1.87882e-17
3965.69126 1.88268e-17
3967.15847 1.96267e-17
3968.62569 2.06796e-17
3970.10309 2.08862e-17
3971.57031 2.07667e-17
3973.03753 2.22843e-17
3974.50474 2.32148e-17
3975.98215 2.29451e-17
3977.44936 2.22241e-17
3978.91658 2.26360e-17
3980.39398 2.45518e-17
3981.86120 2.46831e-17
3983.32842 2.41776e-17
3984.79563 2.42096e-17
3986.27304 2.44444e-17
3987.74025 2.56787e-17
3989.20747 2.51343e-17
3990.68487 2.43220e-17
3992.15209 2.47893e-17
3993.61931 2.49729e-17
3995.08652 2.52652e-17
3996.56393 2.62960e-17
3998.03114 2.75048e-17
3999.49836 2.79786e-17
4000.96557 2.71692e-17
4002.44298 2.64408e-17
4003.91020 2.63926e-17
4005.37741 2.60798e-17
4006.85482 2.60135e-17
4008.32203 2.70828e-17
4009.78925 2.76180e-17
4011.25646 2.81380e-17
4012.73387 2.88028e-17
4014.20109 2.85574e-17
4015.66830 2.81391e-17
4017.13552 2.75400e-17
4018.61292 2.62419e-17
4020.08014 2.54799e-17
4021.54735 2.65917e-17
4023.02476 2.72584e-17
4024.49198 2.81694e-17
4025.95919 2.82669e-17
4027.42641 2.76146e-17
4028.90381 2.65805e-17
4030.37103 2.57745e-17
4031.83824 2.60349e-17
4033.30546 2.62603e-17
4034.78287 2.73109e-17
4036.25008 2.70513e-17
4037.71730 2.48375e-17
4039.19470 2.50664e-17
4040.66192 2.48950e-17
4042.12913 2.50981e-17
4043.59635 2.68278e-17
4045.07376 2.77094e-17
4046.54097 2.70822e-17
4048.00819 2.68125e-17
4049.47540 2.63958e-17
4050.95281 2.58257e-17
4052.42002 2.64796e-17
4053.88724 2.75396e-17
4055.36465 2.74074e-17
4056.83186 2.68249e-17
4058.29908 2.74255e-17
4059.76629 2.80860e-17
4061.24370 2.72596e-17
4062.71091 2.64108e-17
4064.17813 2.57009e-17
4065.64535 2.64900e-17
4067.12275 2.77903e-17
4068.58997 2.80360e-17
4070.05718 2.79594e-17
4071.53459 2.71577e-17
4073.00180 2.59820e-17
4074.46902 2.49035e-17
4075.93624 2.49794e-17
4077.41364 2.66304e-17
4078.88086 2.80986e-17
4080.34807 2.78228e-17
4081.81529 2.61768e-17
4083.29269 2.58072e-17
4084.75991 2.66595e-17
4086.22713 2.62307e-17
4087.70453 2.59986e-17
4089.17175 2.53435e-17
4090.63896 2.45882e-17
4092.10618 2.53666e-17
4093.58358 2.52148e-17
4095.05080 2.40373e-17
4096.51802 2.50011e-17
4097.98523 2.59281e-17
4099.46264 2.48815e-17
4100.92985 2.48820e-17
4102.39707 2.52962e-17
4103.87447 2.46632e-17
4105.34169 2.48654e-17
4106.80891 2.44555e-17
4108.27612 2.33961e-17
4109.75353 2.37377e-17
4111.22074 2.34643e-17
4112.68796 2.36466e-17
4114.15518 2.38564e-17
4115.63258 2.31767e-17
4117.09980 2.26744e-17
4118.56701 2.19894e-17
4120.04442 2.25440e-17
4121.51163 2.36680e-17
4122.97885 2.26072e-17
4124.44607 2.04358e-17
4125.92347 2.10558e-17
4127.39069 2.17596e-17
4128.85790 2.11387e-17
4130.32512 2.05775e-17
4131.80252 2.15068e-17
4133.26974 2.18284e-17
4134.73696 2.02456e-17
4136.21436 2.02285e-17
4137.68158 2.03789e-17
4139.14879 1.96452e-17
4140.61601 1.91043e-17
4142.09341 1.98163e-17
4143.56063 2.02701e-17
4145.02785 1.91529e-17
4146.49506 1.83299e-17
4147.97247 1.95758e-17
4149.43968 2.03203e-17
4150.90690 1.91699e-17
4152.38430 1.85926e-17
4153.85152 1.90833e-17
4155.31874 1.92235e-17
4156.78595 1.82787e-17
4158.26336 1.82899e-17
4159.73057 1.90200e-17
4161.19779 1.76987e-17
4162.66500 1.73152e-17
4164.14241 1.87696e-17
4165.60963 1.83920e-17
4167.07684 1.79323e-17
4168.55425 1.81411e-17
4170.02146 1.73402e-17
4171.48868 1.85006e-17
4172.95590 1.89175e-17
4174.43330 1.77762e-17
4175.90052 1.75880e-17
4177.36773 1.76518e-17
4178.83495 1.76623e-17
4180.31235 1.77450e-17
4181.77957 1.83088e-17
4183.24678 1.84364e-17
4184.72419 1.79525e-17
4186.19141 1.80365e-17
4187.65862 1.72662e-17
4189.12584 1.79480e-17
4190.60324 1.73490e-17
4192.07046 1.63388e-17
4193.53767 1.60708e-17
4195.00489 1.59787e-17
4196.48230 1.70776e-17
4197.94951 1.67322e-17
4199.41673 1.58733e-17
4200.89413 1.59982e-17
4202.36135 1.73860e-17
4203.82856 1.75941e-17
4205.29578 1.70983e-17
4206.77319 1.67407e-17
4208.24040 1.67303e-17
4209.70762 1.62817e-17
4211.17483 1.59797e-17
4212.65224 1.63604e-17
4214.11945 1.61955e-17
4215.58667 1.64559e-17
4217.06408 1.69076e-17
4218.53129 1.74229e-17
4219.99851 1.75056e-17
4221.46572 1.69985e-17
4222.94313 1.71564e-17
4224.41035 1.75636e-17
4225.87756 1.76505e-17
4227.35497 1.79101e-17
4228.82218 1.79269e-17
4230.28940 1.74423e-17
4231.75661 1.69591e-17
4233.23402 1.68708e-17
4234.70123 1.76022e-17
4236.16845 1.79638e-17
4237.63567 1.80234e-17
4239.11307 1.80792e-17
4240.58029 1.83536e-17
4242.04750 1.86103e-17
4243.52491 1.84862e-17
4244.99212 1.81013e-17
4246.45934 1.75874e-17
4247.92656 1.71276e-17
4249.40396 1.73538e-17
4250.87118 1.85671e-17
4252.33839 1.90592e-17
4253.80561 1.88972e-17
4255.28301 1.88883e-17
4256.75023 1.85822e-17
4258.21745 1.85373e-17
4259.68466 1.90172e-17
4261.16207 1.88730e-17
4262.62928 1.86011e-17
4264.09650 1.88077e-17
4265.57390 1.88657e-17
4267.04112 1.84193e-17
4268.50834 1.87377e-17
4269.97555 1.87225e-17
4271.45296 1.81775e-17
4272.92017 1.80014e-17
4274.38739 1.80604e-17
4275.85461 1.88272e-17
4277.33201 1.86595e-17
4278.79923 1.77810e-17
4280.26644 1.83564e-17
4281.74385 1.87552e-17
4283.21106 1.91467e-17
4284.67828 1.89012e-17
4286.14550 1.83321e-17
4287.62290 1.90044e-17
4289.09012 1.86151e-17
4290.55733 1.78784e-17
4292.03474 1.83243e-17
4293.50195 1.94318e-17
4294.96917 1.92536e-17
4296.43639 1.80248e-17
4297.91379 1.80680e-17
4299.38101 1.82879e-17
4300.84822 1.79683e-17
4302.31544 1.85344e-17
4303.79284 1.87463e-17
4305.26006 1.86395e-17
4306.72728 1.83512e-17
4308.20468 1.78110e-17
4309.67190 1.77357e-17
4311.13911 1.85242e-17
4312.60633 1.78540e-17
4314.08373 1.78175e-17
4315.55095 1.83502e-17
4317.01817 1.81133e-17
4318.48538 1.75362e-17
4319.96279 1.78585e-17
4321.43000 1.85004e-17
4322.89722 1.83101e-17
4324.37462 1.79302e-17
4325.84184 1.76542e-17
4327.30906 1.74479e-17
4328.77627 1.81156e-17
4330.25368 1.76102e-17
4331.72089 1.73554e-17
4333.18811 1.73087e-17
4334.65532 1.74844e-17
4336.13273 1.74052e-17
4337.59995 1.70131e-17
4339.06716 1.75934e-17
4340.54457 1.76289e-17
4342.01178 1.81348e-17
4343.47900 1.80755e-17
4344.94621 1.78374e-17
4346.42362 1.76647e-17
4347.89084 1.70706e-17
4349.35805 1.74670e-17
4350.82527 1.77311e-17
4352.30267 1.79029e-17
4353.76989 1.86470e-17
4355.23710 1.78720e-17
4356.71451 1.69620e-17
4358.18173 1.74720e-17
4359.64894 1.76512e-17
4361.11616 1.63179e-17
4362.59356 1.70171e-17
4364.06078 1.82530e-17
4365.52799 1.70509e-17
4366.99521 1.69542e-17
4368.47262 1.71689e-17
4369.93983 1.64970e-17
4371.40705 1.67734e-17
4372.88445 1.74516e-17
4374.35167 1.84176e-17
4375.81888 1.81917e-17
4377.28610 1.73342e-17
4378.76351 1.72137e-17
4380.23072 1.81072e-17
4381.69794 1.78714e-17
4383.16515 1.73451e-17
4384.64256 1.76785e-17
4386.10977 1.74545e-17
4387.57699 1.70715e-17
4389.05440 1.78453e-17
4390.52161 1.76394e-17
4391.98883 1.77608e-17
4393.45604 1.79885e-17
4394.93345 1.68345e-17
4396.40067 1.62709e-17
4397.86788 1.68256e-17
4399.33510 1.74309e-17
4400.81250 1.71659e-17
4402.27972 1.74479e-17
4403.74693 1.73569e-17
4405.22434 1.75077e-17
4406.69155 1.76292e-17
4408.15877 1.81204e-17
4409.62599 1.84132e-17
4411.10339 1.79888e-17
4412.57061 1.73985e-17
4414.03782 1.78194e-17
4415.50504 1.91200e-17
4416.98244 1.89037e-17
4418.44966 1.77775e-17
4419.91688 1.68614e-17
4421.39428 1.62955e-17
4422.86150 1.63786e-17
4424.32871 1.65241e-17
4425.79593 1.64083e-17
4427.27333 1.68691e-17
4428.74055 1.69988e-17
4430.20777 1.69637e-17
4431.68517 1.69215e-17
4433.15239 1.66969e-17
4434.61960 1.59409e-17
4436.08682 1.61659e-17
4437.56423 1.57676e-17
4439.03144 1.54566e-17
4440.49866 1.52282e-17
4441.96587 1.49277e-17
4443.44328 1.48502e-17
4444.91049 1.55349e-17
4446.37771 1.51207e-17
4447.84493 1.41630e-17
4449.32233 1.33522e-17
4450.78955 1.27841e-17
4452.25676 1.32923e-17
4453.73417 1.35375e-17
4455.20138 1.28435e-17
4456.66860 1.33192e-17
4458.13582 1.32557e-17
4459.61322 1.26501e-17
4461.08044 1.25307e-17
4462.54765 1.18871e-17
4464.01487 1.13089e-17
4465.49227 1.08411e-17
4466.95949 1.08015e-17
4468.42671 1.13313e-17
4469.90411 1.11344e-17
4471.37133 1.04367e-17
4472.83854 1.04602e-17
4474.30576 1.06194e-17
4475.78316 1.10126e-17
4477.25038 1.10958e-17
4478.71760 1.06213e-17
4480.18481 1.02717e-17
4481.66222 1.02391e-17
4483.12943 1.04573e-17
4484.59665 1.08969e-17
4486.07405 1.06185e-17
4487.54127 1.02404e-17
4489.00849 1.01310e-17
4490.47570 1.10656e-17
4491.95311 1.10437e-17
4493.42032 1.03006e-17
4494.88754 1.04199e-17
4496.36494 1.07074e-17
4497.83216 1.07912e-17
4499.29938 1.06534e-17
4500.76659 1.07239e-17
4502.24400 1.14823e-17
4503.71121 1.16300e-17
4505.17843 1.10312e-17
4506.64564 1.07450e-17
4508.12305 1.08894e-17
4509.59027 1.11610e-17
4511.05748 1.11757e-17
4512.52470 1.11446e-17
4514.00210 1.15415e-17
4515.46932 1.17445e-17
4516.93653 1.10230e-17
4518.41394 1.11249e-17
4519.88116 1.18628e-17
4521.34837 1.19733e-17
4522.81559 1.17275e-17
4524.29299 1.14007e-17
4525.76021 1.12922e-17
4527.22743 1.19155e-17
4528.70483 1.25396e-17
4530.17205 1.22472e-17
4531.63926 1.23559e-17
4533.10648 1.20289e-17
4534.58388 1.15963e-17
4536.05110 1.17849e-17
4537.51832 1.20520e-17
4538.98553 1.25195e-17
4540.46294 1.28612e-17
4541.93015 1.32856e-17
4543.39737 1.30878e-17
4544.87477 1.29476e-17
4546.34199 1.33325e-17
4547.80920 1.37904e-17
4549.27642 1.39450e-17
4550.75383 1.34405e-17
4552.22104 1.29610e-17
4553.68826 1.29785e-17
4555.15547 1.34390e-17
4556.63288 1.35701e-17
4558.10009 1.32072e-17
4559.56731 1.39809e-17
4561.04472 1.43386e-17
4562.51193 1.38497e-17
4563.97915 1.46021e-17
4565.44636 1.48166e-17
4566.92377 1.45439e-17
4568.39098 1.46578e-17
4569.85820 1.52931e-17
4571.32542 1.58548e-17
4572.80282 1.55888e-17
4574.27004 1.50914e-17
4575.73725 1.55865e-17
4577.21466 1.59862e-17
4578.68187 1.58148e-17
4580.14909 1.63140e-17
4581.61631 1.62909e-17
4583.09371 1.61673e-17
4584.56093 1.61764e-17
4586.02814 1.59287e-17
4587.49536 1.62005e-17
4588.97277 1.72247e-17
4590.43998 1.73948e-17
4591.90720 1.72695e-17
4593.38460 1.75038e-17
4594.85182 1.72758e-17
4596.31903 1.67534e-17
4597.78625 1.63961e-17
4599.26365 1.65786e-17
4600.73087 1.72502e-17
4602.19809 1.77809e-17
4603.66530 1.76464e-17
4605.14271 1.79502e-17
4606.60992 1.80205e-17
4608.07714 1.75400e-17
4609.55454 1.81286e-17
4611.02176 1.89205e-17
4612.48898 1.89243e-17
4613.95619 1.82300e-17
4615.43360 1.80574e-17
4616.90081 1.86797e-17
4618.36803 1.93254e-17
4619.83525 1.97676e-17
4621.31265 1.91646e-17
4622.77987 1.86975e-17
4624.24708 1.86840e-17
4625.72449 1.89381e-17
4627.19170 1.87383e-17
4628.65892 1.94960e-17
4630.12614 1.97457e-17
4631.60354 1.90374e-17
4633.07076 1.89058e-17
4634.53797 1.94575e-17
4636.00519 1.96850e-17
4637.48259 1.94940e-17
4638.94981 1.97796e-17
4640.41703 2.00383e-17
4641.89443 1.97645e-17
4643.36165 1.99388e-17
4644.82886 2.01604e-17
4646.29608 2.09337e-17
4647.77348 2.08568e-17
4649.24070 2.03198e-17
4650.70792 2.07557e-17
4652.17513 2.07761e-17
4653.65254 2.05995e-17
4655.11975 2.09008e-17
4656.58697 2.06935e-17
4658.06437 2.12413e-17
4659.53159 2.08041e-17
4660.99881 1.94450e-17
4662.46602 1.97619e-17
4663.94343 1.98482e-17
4665.41064 1.99104e-17
4666.87786 2.05953e-17
4668.34507 2.06864e-17
4669.82248 1.98953e-17
4671.28970 1.95114e-17
4672.75691 2.00559e-17
4674.23432 1.94794e-17
4675.70153 1.94664e-17
4677.16875 2.00554e-17
4678.63597 2.05276e-17
4680.11337 2.01458e-17
4681.58059 2.01050e-17
4683.04780 1.97476e-17
4684.51502 1.92460e-17
4685.99242 2.04360e-17
4687.45964 2.09239e-17
4688.92685 1.98732e-17
4690.40426 1.95510e-17
4691.87148 2.07598e-17
4693.33869 2.03331e-17
4694.80591 1.92714e-17
4696.28331 1.99582e-17
4697.75053 1.99942e-17
4699.21774 1.94614e-17
4700.68496 1.94259e-17
4702.16237 1.91611e-17
4703.62958 1.92769e-17
4705.09680 1.90420e-17
4706.57420 1.94037e-17
4708.04142 1.96060e-17
4709.50863 1.85291e-17
4710.97585 1.84458e-17
4712.45326 1.86338e-17
4713.92047 1.84742e-17
4715.38769 1.87363e-17
4716.85490 1.88553e-17
4718.33231 1.91474e-17
4719.79952 1.86057e-17
4721.26674 1.83811e-17
4722.74415 1.89920e-17
4724.21136 1.89161e-17
4725.67858 1.84917e-17
4727.14579 1.80537e-17
4728.62320 1.87983e-17
4730.09041 1.92187e-17
4731.55763 1.89031e-17
4733.02485 1.88469e-17
4734.50225 1.86633e-17
4735.96947 1.86830e-17
4737.43668 1.87638e-17
4738.91409 1.82352e-17
4740.38130 1.85251e-17
4741.84852 1.91562e-17
4743.31574 1.90343e-17
4744.79314 1.93576e-17
4746.26036 1.87641e-17
4747.72757 1.79161e-17
4749.19479 1.84207e-17
4750.67220 1.82653e-17
4752.13941 1.81890e-17
4753.60663 1.88065e-17
4755.08403 1.84665e-17
4756.55125 1.86594e-17
4758.01846 1.85030e-17
4759.48568 1.86472e-17
4760.96308 1.87041e-17
4762.43030 1.82409e-17
4763.89752 1.78794e-17
4765.37492 1.76068e-17
4766.84214 1.74495e-17
4768.30935 1.84080e-17
4769.77657 1.84856e-17
4771.25397 1.82731e-17
4772.72119 1.81579e-17
4774.18841 1.75956e-17
4775.65562 1.82281e-17
4777.13303 1.86409e-17
4778.60024 1.83451e-17
4780.06746 1.80098e-17
4781.54486 1.78860e-17
4783.01208 1.76079e-17
4784.47930 1.74138e-17
4785.94651 1.70111e-17
4787.42392 1.75640e-17
4788.89113 1.80981e-17
4790.35835 1.76454e-17
4791.82557 1.72687e-17
4793.30297 1.75942e-17
4794.77019 1.76255e-17
4796.23740 1.76183e-17
4797.70462 1.72132e-17
4799.18202 1.68932e-17
4800.64924 1.68372e-17
4802.11646 1.68560e-17
4803.59386 1.64827e-17
4805.06108 1.63306e-17
4806.52829 1.68390e-17
4807.99551 1.69260e-17
4809.47291 1.63955e-17
4810.94013 1.60449e-17
4812.40735 1.56048e-17
4813.87456 1.56368e-17
4815.35197 1.58595e-17
4816.81918 1.63155e-17
4818.28640 1.60252e-17
4819.76380 1.65278e-17
4821.23102 1.65837e-17
4822.69824 1.58742e-17
4824.16545 1.51274e-17
4825.64286 1.51373e-17
4827.11007 1.58305e-17
4828.57729 1.52087e-17
4830.05469 1.48750e-17
4831.52191 1.45938e-17
4832.98913 1.46755e-17
4834.45634 1.50226e-17
4835.93375 1.44112e-17
4837.40096 1.44387e-17
4838.86818 1.42313e-17
4840.33540 1.43359e-17
4841.81280 1.40503e-17
4843.28002 1.34628e-17
4844.74723 1.35875e-17
4846.22464 1.36544e-17
4847.69185 1.30697e-17
4849.15907 1.29918e-17
4850.62628 1.30366e-17
4852.10369 1.30647e-17
4853.57091 1.23948e-17
4855.03812 1.24493e-17
4856.50534 1.25198e-17
4857.98274 1.26185e-17
4859.44996 1.19184e-17
4860.91717 1.13880e-17
4862.39458 1.14802e-17
4863.86180 1.14329e-17
4865.32901 1.07069e-17
4866.79623 1.02327e-17
4868.27363 1.00078e-17
4869.74085 1.00282e-17
4871.20806 1.06906e-17
4872.67528 1.07361e-17
4874.15269 1.02957e-17
4875.61990 1.01818e-17
4877.08712 9.69012e-18
4878.56452 9.81963e-18
4880.03174 1.01985e-17
4881.49895 9.49694e-18
4882.96617 9.02193e-18
4884.44358 9.72690e-18
4885.91079 9.98036e-18
4887.37801 9.48458e-18
4888.84522 8.84983e-18
4890.32263 9.03538e-18
4891.78984 9.03713e-18
4893.25706 8.65690e-18
4894.73447 8.84009e-18
4896.20168 9.94395e-18
4897.66890 1.00104e-17
4899.13611 9.29587e-18
4900.61352 8.99226e-18
4902.08073 9.36553e-18
4903.54795 9.78898e-18
4905.01517 9.49719e-18
4906.49257 8.96031e-18
4907.95979 9.34130e-18
4909.42700 9.63736e-18
4910.90441 9.90417e-18
4912.37162 1.03809e-17
4913.83884 1.05133e-17
4915.30606 1.03803e-17
4916.78346 1.03733e-17
4918.25068 1.03222e-17
4919.71789 1.01127e-17
4921.18511 1.05336e-17
4922.66251 1.04912e-17
4924.12973 1.10002e-17
4925.59695 1.10410e-17
4927.07435 1.10466e-17
4928.54157 1.05869e-17
4930.00878 1.09612e-17
4931.47600 1.10848e-17
4932.95340 1.13304e-17
4934.42062 1.17529e-17
4935.88784 1.12380e-17
4937.35505 1.10207e-17
4938.83246 1.09994e-17
4940.29967 1.10061e-17
4941.76689 1.11209e-17
4943.24429 1.12858e-17
4944.71151 1.15233e-17
4946.17873 1.11270e-17
4947.64594 1.11238e-17
4949.12335 1.09994e-17
4950.59056 1.06233e-17
4952.05778 1.08871e-17
4953.52500 1.00936e-17
4955.00240 9.38473e-18
4956.46962 9.64294e-18
4957.93683 9.85025e-18
4959.41424 9.99077e-18
4960.88145 9.59579e-18
4962.34867 9.45024e-18
4963.81589 9.59724e-18
4965.29329 9.28859e-18
4966.76051 9.84674e-18
4968.22772 9.60289e-18
4969.70513 8.93524e-18
4971.17234 9.55278e-18
4972.63956 9.25759e-18
4974.10678 8.83467e-18
4975.58418 9.58278e-18
4977.05140 9.74948e-18
4978.51861 9.82678e-18
4979.98583 9.84174e-18
4981.46323 8.87868e-18
4982.93045 9.05129e-18
4984.39767 9.83751e-18
4985.86488 9.53751e-18
4987.34229 9.66090e-18
4988.80950 1.02576e-17
4990.27672 1.02791e-17
4991.75412 9.63488e-18
4993.22134 9.10380e-18
4994.68856 9.97086e-18
4996.15577 1.03027e-17
4997.63318 1.00682e-17
4999.10039 9.76810e-18
5000.56761 9.90242e-18
5002.03482 1.00418e-17
5003.51223 1.03606e-17
5004.97945 1.03476e-17
5006.44666 1.05763e-17
5007.92407 1.12352e-17
5009.39128 1.18345e-17
5010.85850 1.15159e-17
5012.32571 1.08639e-17
5013.80312 1.13840e-17
5015.27034 1.18982e-17
5016.73755 1.17040e-17
5018.20477 1.19213e-17
5019.68217 1.21007e-17
5021.14939 1.20562e-17
5022.61660 1.27013e-17
5024.09401 1.26072e-17
5025.56123 1.28243e-17
5027.02844 1.32926e-17
5028.49566 1.36523e-17
5029.97306 1.32161e-17
5031.44028 1.30495e-17
5032.90749 1.37784e-17
5034.38490 1.40853e-17
5035.85212 1.32745e-17
5037.31933 1.34559e-17
5038.78655 1.45792e-17
5040.26395 1.44654e-17
5041.73117 1.42792e-17
5043.19838 1.40562e-17
5044.66560 1.43698e-17
5046.14301 1.50395e-17
5047.61022 1.47634e-17
5049.07744 1.48520e-17
5050.54465 1.51346e-17
5052.02206 1.49699e-17
5053.48927 1.50914e-17
5054.95649 1.52943e-17
5056.43390 1.52021e-17
5057.90111 1.45388e-17
5059.36833 1.46625e-17
5060.83554 1.51855e-17
5062.31295 1.52320e-17
5063.78017 1.51454e-17
5065.24738 1.48398e-17
5066.72479 1.53221e-17
5068.19200 1.57362e-17
5069.65922 1.51713e-17
5071.12643 1.48750e-17
5072.60384 1.44792e-17
5074.07105 1.44701e-17
5075.53827 1.44762e-17
5077.00549 1.41620e-17
5078.48289 1.40308e-17
5079.95011 1.40681e-17
5081.41732 1.42074e-17
5082.89473 1.41450e-17
5084.36194 1.40560e-17
5085.82916 1.34410e-17
5087.29638 1.30541e-17
5088.77378 1.30331e-17
5090.24100 1.30834e-17
5091.70821 1.25892e-17
5093.17543 1.23910e-17
5094.65283 1.23232e-17
5096.12005 1.17979e-17
5097.58727 1.12744e-17
5099.06467 1.11986e-17
5100.53189 1.16679e-17
5101.99910 1.19129e-17
5103.46632 1.10541e-17
5104.94372 1.04638e-17
5106.41094 1.07955e-17
5107.87816 1.03535e-17
5109.34537 9.90657e-18
5110.82278 9.82794e-18
5112.28999 9.96077e-18
5113.75721 9.54316e-18
5115.23462 9.28801e-18
5116.70183 1.00446e-17
5118.16905 9.74492e-18
5119.63626 9.03180e-18
5121.11367 8.92625e-18
5122.58088 8.86423e-18
5124.04810 9.62079e-18
5125.51532 9.73633e-18
5126.99272 8.85994e-18
5128.45994 9.05067e-18
5129.92715 9.40894e-18
5131.40456 9.38185e-18
5132.87177 9.29288e-18
5134.33899 9.03098e-18
5135.80621 8.75635e-18
5137.28361 8.98881e-18
5138.75083 9.24464e-18
5140.21804 9.06429e-18
5141.68526 8.76859e-18
5143.16266 9.02634e-18
5144.62988 9.54324e-18
5146.09710 9.51369e-18
5147.57450 9.69664e-18
5149.04172 9.71610e-18
5150.50893 9.33186e-18
5151.97615 9.10013e-18
5153.45355 9.46005e-18
5154.92077 9.89381e-18
5156.38799 9.93083e-18
5157.85520 1.01215e-17
5159.33261 1.01557e-17
5160.79982 1.00587e-17
5162.26704 1.00375e-17
5163.74444 9.91361e-18
5165.21166 1.02870e-17
5166.67888 1.05217e-17
5168.14609 1.04334e-17
5169.62350 1.07038e-17
5171.09071 1.11106e-17
5172.55793 1.08667e-17
5174.02514 1.11215e-17
5175.50255 1.15779e-17
5176.96977 1.13189e-17
5178.43698 1.14372e-17
5179.91439 1.19957e-17
5181.38160 1.17360e-17
5182.84882 1.16450e-17
5184.31603 1.17053e-17
5185.79344 1.16390e-17
5187.26066 1.24484e-17
5188.72787 1.27725e-17
5190.19509 1.19905e-17
5191.67249 1.22780e-17
5193.13971 1.28298e-17
5194.60692 1.26842e-17
5196.08433 1.28924e-17
5197.55155 1.27379e-17
5199.01876 1.25051e-17
5200.48598 1.22998e-17
5201.96338 1.24257e-17
5203.43060 1.31204e-17
5204.89782 1.31480e-17
5206.36503 1.29701e-17
5207.84244 1.31392e-17
5209.30965 1.32421e-17
5210.77687 1.30478e-17
5212.25427 1.29556e-17
5213.72149 1.37848e-17
5215.18870 1.35427e-17
5216.65592 1.30329e-17
5218.13333 1.34395e-17
5219.60054 1.36067e-17
5221.06776 1.38421e-17
5222.53497 1.36225e-17
5224.01238 1.29755e-17
5225.47959 1.29708e-17
5226.94681 1.29625e-17
5228.42422 1.29271e-17
5229.89143 1.35692e-17
5231.35865 1.32160e-17
5232.82586 1.26804e-17
5234.30327 1.28327e-17
5235.77048 1.30106e-17
5237.23770 1.29625e-17
5238.70492 1.33837e-17
5240.18232 1.30620e-17
5241.64954 1.33417e-17
5243.11675 1.32242e-17
5244.59416 1.30966e-17
5246.06137 1.32260e-17
5247.52859 1.29511e-17
5248.99581 1.24521e-17
5250.47321 1.27433e-17
5251.94043 1.27766e-17
5253.40764 1.29659e-17
5254.87486 1.27229e-17
5256.35226 1.23651e-17
5257.81948 1.25492e-17
5259.28670 1.27343e-17
5260.76410 1.26715e-17
5262.23132 1.23903e-17
5263.69853 1.27732e-17
5265.16575 1.27293e-17
5266.64315 1.24491e-17
5268.11037 1.23633e-17
5269.57759 1.28449e-17
5271.04480 1.29581e-17
5272.52221 1.28614e-17
5273.98942 1.31953e-17
5275.45664 1.31325e-17
5276.93404 1.21285e-17
5278.40126 1.20517e-17
5279.86848 1.29439e-17
5281.33569 1.35129e-17
5282.81310 1.35856e-17
5284.28031 1.24932e-17
5285.74753 1.19828e-17
5287.22493 1.25116e-17
5288.69215 1.30748e-17
5290.15937 1.31545e-17
5291.62658 1.29826e-17
5293.10399 1.27532e-17
5294.57120 1.30393e-17
5296.03842 1.29232e-17
5297.50564 1.28958e-17
5298.98304 1.36015e-17
5300.45026 1.31840e-17
5301.91747 1.27067e-17
5303.39488 1.26749e-17
5304.86209 1.29908e-17
5306.32931 1.33295e-17
5307.79653 1.38238e-17
5309.27393 1.41795e-17
5310.74115 1.40281e-17
5312.20836 1.42521e-17
5313.67558 1.41702e-17
5315.15298 1.43816e-17
5316.62020 1.41833e-17
5318.08742 1.35955e-17
5319.56482 1.45492e-17
5321.03204 1.47649e-17
5322.49925 1.42893e-17
5323.96647 1.48421e-17
5325.44387 1.52082e-17
5326.91109 1.45790e-17
5328.37831 1.47863e-17
5329.84552 1.43707e-17
5331.32293 1.43963e-17
5332.79014 1.43845e-17
5334.25736 1.39492e-17
5335.72457 1.46833e-17
5337.20198 1.49044e-17
5338.66920 1.51846e-17
5340.13641 1.50685e-17
5341.61382 1.44191e-17
5343.08103 1.44000e-17
5344.54825 1.50706e-17
5346.01546 1.54460e-17
5347.49287 1.51694e-17
5348.96009 1.49702e-17
5350.42730 1.48802e-17
5351.89452 1.50066e-17
5353.37192 1.50540e-17
5354.83914 1.52015e-17
5356.30635 1.53035e-17
5357.78376 1.48777e-17
5359.25098 1.56580e-17
5360.71819 1.53300e-17
5362.18541 1.48360e-17
5363.66281 1.52747e-17
5365.13003 1.53457e-17
5366.59724 1.51958e-17
5368.07465 1.54065e-17
5369.54187 1.58305e-17
5371.00908 1.55314e-17
5372.47630 1.51504e-17
5373.95370 1.47341e-17
5375.42092 1.51318e-17
5376.88813 1.52923e-17
5378.35535 1.51751e-17
5379.83276 1.53355e-17
5381.29997 1.55140e-17
5382.76719 1.56155e-17
5384.24459 1.48867e-17
5385.71181 1.49413e-17
5387.17902 1.51515e-17
5388.64624 1.58449e-17
5390.12365 1.55581e-17
5391.59086 1.53314e-17
5393.05808 1.53793e-17
5394.52529 1.55806e-17
5396.00270 1.53436e-17
5397.46991 1.53676e-17
5398.93713 1.59496e-17
5400.41454 1.53630e-17
5401.88175 1.45682e-17
5403.34897 1.52183e-17
5404.81618 1.58749e-17
5406.29359 1.59094e-17
5407.76080 1.55042e-17
5409.22802 1.50528e-17
5410.69524 1.57453e-17
5412.17264 1.57356e-17
5413.63986 1.51195e-17
5415.10707 1.51239e-17
5416.58448 1.50083e-17
5418.05170 1.47729e-17
5419.51891 1.46851e-17
5420.98613 1.49213e-17
5422.46353 1.51914e-17
5423.93075 1.47209e-17
5425.39796 1.48295e-17
5426.86518 1.52174e-17
5428.34258 1.50033e-17
5429.80980 1.47493e-17
5431.27702 1.44734e-17
5432.75442 1.46334e-17
5434.22164 1.48656e-17
5435.68885 1.47082e-17
5437.15607 1.38720e-17
5438.63347 1.40217e-17
5440.10069 1.46146e-17
5441.56791 1.42912e-17
5443.03512 1.34823e-17
5444.51253 1.36638e-17
5445.97974 1.44820e-17
5447.44696 1.43846e-17
5448.92436 1.38280e-17
5450.39158 1.43217e-17
5451.85880 1.44522e-17
5453.32601 1.38272e-17
5454.80342 1.38513e-17
5456.27063 1.44193e-17
5457.73785 1.41239e-17
5459.20507 1.39062e-17
5460.68247 1.42825e-17
5462.14969 1.37620e-17
5463.61690 1.38115e-17
5465.09431 1.34963e-17
5466.56152 1.30957e-17
5468.02874 1.37452e-17
5469.49596 1.39464e-17
5470.97336 1.38855e-17
5472.44058 1.36569e-17
5473.90779 1.32918e-17
5475.37501 1.30671e-17
5476.85241 1.33368e-17
5478.31963 1.31810e-17
5479.78685 1.29921e-17
5481.26425 1.32804e-17
5482.73147 1.32875e-17
5484.19868 1.28884e-17
5485.66590 1.27456e-17
5487.14330 1.30881e-17
5488.61052 1.29391e-17
5490.07774 1.30128e-17
5491.54495 1.33431e-17
5493.02236 1.31883e-17
5494.48957 1.28089e-17
5495.95679 1.25502e-17
5497.43419 1.28360e-17
5498.90141 1.32091e-17
5500.36863 1.30259e-17
5501.83584 1.28613e-17
5503.31325 1.29230e-17
5504.78046 1.29548e-17
5506.24768 1.27515e-17
5507.72508 1.29129e-17
5509.19230 1.30253e-17
5510.65952 1.28613e-17
5512.12673 1.29213e-17
5513.60414 1.28397e-17
5515.07135 1.27630e-17
5516.53857 1.30076e-17
5518.00578 1.29923e-17
5519.48319 1.29715e-17
5520.95041 1.30174e-17
5522.41762 1.30368e-17
5523.88484 1.30561e-17
5525.36224 1.30755e-17
5526.82946 1.30948e-17
5528.29667 1.31142e-17
5529.77408 1.31335e-17
5531.24130 1.31528e-17
5532.70851 1.31722e-17
5534.17573 1.31716e-17
5535.65313 1.29571e-17
5537.12035 1.27567e-17
5538.58756 1.32762e-17
5540.05478 1.30642e-17
5541.53219 1.21750e-17
5542.99940 1.19137e-17
5544.46662 1.21729e-17
5545.94402 1.26283e-17
5547.41124 1.28192e-17
5548.87845 1.32112e-17
5550.34567 1.29186e-17
5551.82308 1.20634e-17
5553.29029 1.22666e-17
5554.75751 1.24787e-17
5556.23491 1.25966e-17
5557.70213 1.28061e-17
5559.16934 1.27853e-17
5560.63656 1.28815e-17
5562.11397 1.28514e-17
5563.58118 1.25963e-17
5565.04840 1.29339e-17
5566.51561 1.24395e-17
5567.99302 1.25814e-17
5569.46023 1.26112e-17
5570.92745 1.29940e-17
5572.40486 1.43612e-17
5573.87207 1.39389e-17
5575.33929 1.25050e-17
5576.80650 1.15727e-17
5578.28391 1.18225e-17
5579.75112 1.26023e-17
5581.21834 1.25949e-17
5582.68556 1.21513e-17
5584.16296 1.22115e-17
5585.63018 1.24360e-17
5587.09739 1.20419e-17
5588.56461 1.18890e-17
5590.04201 1.21035e-17
5591.50923 1.21464e-17
5592.97645 1.22216e-17
5594.45385 1.23412e-17
5595.92107 1.24895e-17
5597.38828 1.25714e-17
5598.85550 1.22448e-17
5600.33290 1.25034e-17
5601.80012 1.28419e-17
5603.26734 1.25306e-17
5604.74474 1.23906e-17
5606.21196 1.28643e-17
5607.67917 1.29765e-17
5609.14639 1.24982e-17
5610.62379 1.23354e-17
5612.09101 1.25141e-17
5613.55823 1.27813e-17
5615.02544 1.23753e-17
5616.50285 1.18867e-17
5617.97006 1.24907e-17
5619.43728 1.22688e-17
5620.91468 1.21006e-17
5622.38190 1.22313e-17
5623.84912 1.21256e-17
5625.31633 1.25747e-17
5626.79374 1.25376e-17
5628.26095 1.22651e-17
5629.72817 1.27315e-17
5631.19539 1.21448e-17
5632.67279 1.18554e-17
5634.14001 1.14633e-17
5635.60722 1.18498e-17
5637.08463 1.19057e-17
5638.55184 1.21592e-17
5640.01906 1.25873e-17
5641.48628 1.21843e-17
5642.96368 1.21847e-17
5644.43090 1.20587e-17
5645.89811 1.23228e-17
5647.36533 1.21076e-17
5648.84273 1.12089e-17
5650.30995 1.11778e-17
5651.77717 1.18590e-17
5653.25457 1.17538e-17
5654.72179 1.14504e-17
5656.18900 1.12080e-17
5657.65622 1.16513e-17
5659.13362 1.18452e-17
5660.60084 1.18695e-17
5662.06806 1.14358e-17
5663.53527 1.11535e-17
5665.01268 1.17345e-17
5666.47989 1.17314e-17
5667.94711 1.13982e-17
5669.42451 1.15992e-17
5670.89173 1.19241e-17
5672.35895 1.11704e-17
5673.82616 1.13132e-17
5675.30357 1.14098e-17
5676.77078 1.13298e-17
5678.23800 1.14965e-17
5679.70521 1.14648e-17
5681.18262 1.13264e-17
5682.64984 1.18509e-17
5684.11705 1.17186e-17
5685.59446 1.10123e-17
5687.06167 1.11984e-17
5688.52889 1.16254e-17
5689.99610 1.14212e-17
5691.47351 1.10423e-17
5692.94073 1.09331e-17
5694.40794 1.11832e-17
5695.87516 1.13535e-17
5697.35256 1.14933e-17
5698.81978 1.07908e-17
5700.28699 1.08083e-17
5701.76440 1.12556e-17
5703.23162 1.09506e-17
5704.69883 1.11748e-17
5706.16605 1.16524e-17
5707.64345 1.15582e-17
5709.11067 1.16876e-17
5710.57788 1.13613e-17
5712.04510 1.11122e-17
5713.52251 1.13856e-17
5714.98972 1.12905e-17
5716.45694 1.07490e-17
5717.93434 1.00287e-17
5719.40156 1.08938e-17
5720.86877 1.14075e-17
5722.33599 1.11045e-17
5723.81340 1.11078e-17
5725.28061 1.06989e-17
5726.74783 1.09430e-17
5728.21504 1.09568e-17
5729.69245 1.04066e-17
5731.15967 1.05599e-17
5732.62688 1.08724e-17
5734.10429 1.12460e-17
5735.57150 1.10230e-17
5737.03872 1.03525e-17
5738.50593 1.05719e-17
5739.98334 1.09488e-17
5741.45055 1.12626e-17
5742.91777 1.13900e-17
5744.38499 1.09977e-17
5745.86239 1.09247e-17
5747.32961 1.11500e-17
5748.79682 1.11181e-17
5750.27423 1.10998e-17
5751.74144 1.09826e-17
5753.20866 1.07364e-17
5754.67588 1.04705e-17
5756.15328 1.04032e-17
5757.62050 1.05518e-17
5759.08771 1.07542e-17
5760.55493 1.10658e-17
5762.03233 1.06609e-17
5763.49955 1.04722e-17
5764.96677 1.04504e-17
5766.44417 1.05587e-17
5767.91139 1.04888e-17
5769.37860 1.04601e-17
5770.84582 1.03865e-17
5772.32322 1.00201e-17
5773.79044 1.00990e-17
5775.25766 1.02824e-17
5776.72487 1.00253e-17
5778.20228 1.02535e-17
5779.66949 1.05584e-17
5781.13671 1.02001e-17
5782.61412 9.72641e-18
5784.08133 1.01078e-17
5785.54855 9.73869e-18
5787.01576 1.00424e-17
5788.49317 1.01627e-17
5789.96038 9.78957e-18
5791.42760 9.76560e-18
5792.89482 9.30515e-18
5794.37222 8.96850e-18
5795.83944 9.13100e-18
5797.30665 9.25996e-18
5798.78406 9.26998e-18
5800.25127 9.11524e-18
5801.71849 9.28580e-18
5803.18571 9.41715e-18
5804.66311 8.78298e-18
5806.13033 9.11986e-18
5807.59754 9.59926e-18
5809.06476 9.19067e-18
5810.54216 8.78237e-18
5812.00938 8.65351e-18
5813.47660 8.26566e-18
5814.95400 8.55410e-18
5816.42122 8.52834e-18
5817.88843 8.57883e-18
5819.35565 8.30165e-18
5820.83305 7.92130e-18
5822.30027 8.64795e-18
5823.76749 8.51448e-18
5825.24489 8.50401e-18
5826.71211 8.24023e-18
5828.17932 7.79858e-18
5829.64654 7.75433e-18
5831.12394 7.62657e-18
5832.59116 7.54876e-18
5834.05838 7.40580e-18
5835.52559 7.75524e-18
5837.00300 7.37943e-18
5838.47021 7.38151e-18
5839.93743 7.22656e-18
5841.41483 7.44041e-18
5842.88205 6.99408e-18
5844.34927 7.54991e-18
5845.81648 7.80954e-18
5847.29389 7.12924e-18
5848.76110 6.75345e-18
5850.22832 6.86245e-18
5851.69553 6.97510e-18
5853.17294 7.26167e-18
5854.64016 7.67092e-18
5856.10737 7.27033e-18
5857.58478 7.12874e-18
5859.05199 7.54418e-18
5860.51921 7.34752e-18
5861.98642 7.55487e-18
5863.46383 7.58754e-18
5864.93105 7.14125e-18
5866.39826 7.22648e-18
5867.86548 7.76608e-18
5869.34288 8.27309e-18
5870.81010 8.46993e-18
5872.27732 8.24965e-18
5873.74453 8.67554e-18
5875.22194 8.77861e-18
5876.68915 8.92898e-18
5878.15637 9.03727e-18
5879.63377 9.30046e-18
5881.10099 9.16612e-18
5882.56820 9.35273e-18
5884.03542 9.44571e-18
5885.51283 9.60605e-18
5886.98004 9.56711e-18
5888.44726 9.88675e-18
5889.92466 9.65081e-18
5891.39188 9.90893e-18
5892.85909 1.02408e-17
5894.32631 1.00719e-17
5895.80372 1.00880e-17
5897.27093 1.01446e-17
5898.73815 1.06250e-17
5900.20536 1.05989e-17
5901.68277 1.05656e-17
5903.14998 1.08779e-17
5904.61720 1.12685e-17
5906.09461 1.11142e-17
5907.56182 1.13067e-17
5909.02904 1.19485e-17
5910.49625 1.23437e-17
5911.97366 1.19774e-17
5913.44087 1.23447e-17
5914.90809 1.27050e-17
5916.37531 1.21232e-17
5917.85271 1.24239e-17
5919.31993 1.25261e-17
5920.78714 1.27390e-17
5922.26455 1.30388e-17
5923.73176 1.28645e-17
5925.19898 1.28089e-17
5926.66620 1.34018e-17
5928.14360 1.33961e-17
5929.61082 1.32642e-17
5931.07803 1.36265e-17
5932.54525 1.35210e-17
5934.02265 1.36864e-17
5935.48987 1.38103e-17
5936.95709 1.33967e-17
5938.43449 1.31389e-17
5939.90171 1.34129e-17
5941.36892 1.32267e-17
5942.83614 1.37574e-17
5944.31354 1.37982e-17
5945.78076 1.35847e-17
5947.24798 1.38244e-17
5948.71519 1.32098e-17
5950.19260 1.35696e-17
5951.65981 1.40952e-17
5953.12703 1.38045e-17
5954.60443 1.34522e-17
5956.07165 1.29986e-17
5957.53887 1.27463e-17
5959.00608 1.34958e-17
5960.48349 1.39224e-17
5961.95070 1.34772e-17
5963.41792 1.35698e-17
5964.88514 1.33671e-17
5966.36254 1.33543e-17
5967.82976 1.40978e-17
5969.29697 1.38270e-17
5970.77438 1.30850e-17
5972.24159 1.35922e-17
5973.70881 1.39814e-17
5975.17603 1.38939e-17
5976.65343 1.33381e-17
5978.12065 1.29044e-17
5979.58786 1.33104e-17
5981.05508 1.30663e-17
5982.53248 1.29758e-17
5983.99970 1.34643e-17
5985.46692 1.39476e-17
5986.94432 1.32629e-17
5988.41154 1.22528e-17
5989.87875 1.26774e-17
5991.34597 1.25666e-17
5992.82337 1.22574e-17
5994.29059 1.29019e-17
5995.75781 1.27626e-17
5997.22502 1.25119e-17
5998.70243 1.27913e-17
6000.16964 1.25453e-17
6001.63686 1.26739e-17
6003.11426 1.22144e-17
6004.58148 1.22281e-17
6006.04870 1.26249e-17
6007.51591 1.26410e-17
6008.99332 1.21094e-17
6010.46053 1.24899e-17
6011.92775 1.27808e-17
6013.39496 1.25914e-17
6014.87237 1.26948e-17
6016.33959 1.30528e-17
6017.80680 1.23806e-17
6019.28421 1.22665e-17
6020.75142 1.25095e-17
6022.21864 1.26013e-17
6023.68585 1.29096e-17
6025.16326 1.33138e-17
6026.63048 1.29450e-17
6028.09769 1.23589e-17
6029.56491 1.20536e-17
6031.04231 1.22209e-17
6032.50953 1.20070e-17
6033.97674 1.18435e-17
6035.45415 1.22631e-17
6036.92137 1.20934e-17
6038.38858 1.22373e-17
6039.85580 1.20891e-17
6041.33320 1.24228e-17
6042.80042 1.28005e-17
6044.26763 1.24123e-17
6045.74504 1.22302e-17
6047.21226 1.18527e-17
6048.67947 1.14452e-17
6050.14669 1.09756e-17
6051.62409 1.12114e-17
6053.09131 1.15011e-17
6054.55852 1.17993e-17
6056.02574 1.15357e-17
6057.50315 1.13342e-17
6058.97036 1.12706e-17
6060.43758 1.08202e-17
6061.90479 1.14077e-17
6063.38220 1.16417e-17
6064.84941 1.12582e-17
6066.31663 1.19261e-17
6067.79404 1.22476e-17
6069.26125 1.14366e-17
6070.72847 1.12818e-17
6072.19568 1.16823e-17
6073.67309 1.17428e-17
6075.14030 1.20585e-17
6076.60752 1.11697e-17
6078.07474 1.16006e-17
6079.55214 1.19806e-17
6081.01936 1.12486e-17
6082.48657 1.11611e-17
6083.96398 1.09178e-17
6085.43120 1.10521e-17
6086.89841 1.10275e-17
6088.36563 1.08670e-17
6089.84303 1.09379e-17
6091.31025 1.10528e-17
6092.77746 1.10778e-17
6094.25487 1.05843e-17
6095.72208 1.06478e-17
6097.18930 1.11890e-17
6098.65652 1.09049e-17
6100.13392 1.06443e-17
6101.60114 1.03575e-17
6103.06835 9.83170e-18
6104.53557 1.01680e-17
6106.01297 1.06376e-17
6107.48019 1.10676e-17
6108.94741 1.05082e-17
6110.42481 1.01121e-17
6111.89203 1.00408e-17
6113.35924 1.02680e-17
6114.82646 1.06370e-17
6116.30386 1.03316e-17
6117.77108 1.00060e-17
6119.23830 1.07335e-17
6120.70551 1.08612e-17
6122.18292 1.04576e-17
6123.65013 1.01762e-17
6125.11735 1.01668e-17
6126.58457 1.01479e-17
6128.06197 1.04146e-17
6129.52919 1.03341e-17
6130.99640 1.01877e-17
6132.47381 1.03114e-17
6133.94102 1.03286e-17
6135.40824 1.02858e-17
6136.87546 9.95586e-18
6138.35286 1.06014e-17
6139.82008 1.08786e-17
6141.28729 1.00933e-17
6142.75451 9.50165e-18
6144.23191 9.90031e-18
6145.69913 1.05935e-17
6147.16635 1.00870e-17
6148.64375 9.98952e-18
6150.11097 1.03649e-17
6151.57818 1.02733e-17
6153.04540 1.01146e-17
6154.52280 1.02900e-17
6155.99002 1.00149e-17
6157.45724 9.49452e-18
6158.93464 9.12040e-18
6160.40186 9.41243e-18
6161.86907 1.00815e-17
6163.33629 9.93826e-18
6164.81369 9.80632e-18
6166.28091 9.90673e-18
6167.74813 9.89845e-18
6169.21534 9.51850e-18
6170.69275 9.69104e-18
6172.15996 9.66634e-18
6173.62718 9.56761e-18
6175.10458 9.85408e-18
6176.57180 9.82066e-18
6178.03902 1.00153e-17
6179.50623 9.93786e-18
6180.98364 9.44349e-18
6182.45085 9.22467e-18
6183.91807 9.55391e-18
6185.38528 9.79334e-18
6186.86269 9.48891e-18
6188.32991 9.40522e-18
6189.79712 9.46118e-18
6191.27453 9.19907e-18
6192.74174 9.65100e-18
6194.20896 9.67796e-18
6195.67617 9.69488e-18
6197.15358 9.76970e-18
6198.62080 9.54626e-18
6200.08801 9.28255e-18
6201.55523 9.12152e-18
6203.03263 9.36135e-18
6204.49985 9.48741e-18
6205.96706 9.36116e-18
6207.44447 9.93037e-18
6208.91169 1.01658e-17
6210.37890 9.99287e-18
6211.84612 9.55477e-18
6213.32352 9.43367e-18
6214.79074 9.24939e-18
6216.25795 9.18593e-18
6217.72517 1.00364e-17
6219.20258 9.91436e-18
6220.66979 9.41610e-18
6222.13701 9.25171e-18
6223.61441 9.10241e-18
6225.08163 9.44984e-18
6226.54884 9.91858e-18
6228.01606 9.76785e-18
6229.49347 9.54265e-18
6230.96068 9.33144e-18
6232.42790 9.30489e-18
6233.89511 9.61785e-18
6235.37252 9.63579e-18
6236.83973 9.12914e-18
6238.30695 9.45601e-18
6239.78436 1.01295e-17
6241.25157 9.82487e-18
6242.71879 9.75873e-18
6244.18600 9.18000e-18
6245.66341 9.31641e-18
6247.13062 9.32754e-18
6248.59784 9.37982e-18
6250.06506 9.39591e-18
6251.54246 9.59365e-18
6253.00968 9.78044e-18
6254.47689 9.78409e-18
6255.95430 9.68439e-18
6257.42151 9.28559e-18
6258.88873 9.27002e-18
6260.35595 9.18863e-18
6261.83335 9.54740e-18
6263.30057 9.29555e-18
6264.76778 9.14263e-18
6266.23500 9.74996e-18
6267.71240 9.29899e-18
6269.17962 9.28515e-18
6270.64684 9.25576e-18
6272.12424 8.98037e-18
6273.59146 9.23714e-18
6275.05867 8.79501e-18
6276.52589 8.96152e-18
6278.00329 9.47306e-18
6279.47051 9.36867e-18
6280.93773 8.68717e-18
6282.41513 8.88393e-18
6283.88235 9.40999e-18
6285.34956 8.92682e-18
6286.81678 9.21742e-18
6288.29418 9.16142e-18
6289.76140 9.39511e-18
6291.22862 9.22915e-18
6292.69583 8.81704e-18
6294.17324 8.64268e-18
6295.64045 9.18802e-18
6297.10767 9.12724e-18
6298.57489 8.76891e-18
6300.05229 9.19492e-18
6301.51951 9.21051e-18
6302.98672 8.93043e-18
6304.46413 8.56942e-18
6305.93134 8.28247e-18
6307.39856 8.61533e-18
6308.86578 8.32818e-18
6310.34318 8.19876e-18
6311.81040 7.72079e-18
6313.27761 8.22417e-18
6314.74483 7.83345e-18
6316.22223 7.90192e-18
6317.68945 7.80218e-18
6319.15667 7.50109e-18
6320.63407 7.61047e-18
6322.10129 7.56306e-18
6323.56850 7.89111e-18
6325.03572 7.48115e-18
6326.51312 7.23199e-18
6327.98034 7.64886e-18
6329.44756 7.67080e-18
6330.91477 8.13332e-18
6332.39218 7.39773e-18
6333.85939 7.25287e-18
6335.32661 7.61033e-18
6336.80401 7.50042e-18
6338.27123 7.24041e-18
6339.73845 7.30625e-18
6341.20566 7.67363e-18
6342.68307 7.18130e-18
6344.15028 7.13765e-18
6345.61750 7.19117e-18
6347.08471 7.18422e-18
6348.56212 7.09320e-18
6350.02934 6.87755e-18
6351.49655 6.79107e-18
6352.97396 6.96414e-18
6354.44117 7.21340e-18
6355.90839 6.80233e-18
6357.37560 7.08227e-18
6358.85301 6.75197e-18
6360.32023 6.20155e-18
6361.78744 6.51636e-18
6363.25466 6.96436e-18
6364.73206 7.20489e-18
6366.19928 6.75358e-18
6367.66649 6.55980e-18
6369.14390 6.50840e-18
6370.61112 6.94405e-18
6372.07833 7.14311e-18
6373.54555 7.20251e-18
6375.02295 7.54204e-18
6376.49017 6.94875e-18
6377.95738 6.70275e-18
6379.43479 7.27595e-18
6380.90201 7.10333e-18
6382.36922 6.39850e-18
6383.83644 6.67093e-18
6385.31384 7.24664e-18
6386.78106 7.07675e-18
6388.24827 7.10932e-18
6389.71549 7.09260e-18
6391.19290 6.87526e-18
6392.66011 7.32088e-18
6394.12733 7.37992e-18
6395.60473 7.42991e-18
6397.07195 7.61588e-18
6398.53917 8.00041e-18
6400.00638 7.86281e-18
6401.48379 7.88223e-18
6402.95100 7.90286e-18
6404.41822 7.26473e-18
6405.88543 7.43455e-18
6407.36284 7.67156e-18
6408.83005 8.10326e-18
6410.29727 8.21906e-18
6411.76449 7.77525e-18
6413.24189 8.11288e-18
6414.70911 8.44124e-18
6416.17632 7.92865e-18
6417.65373 7.70269e-18
6419.12094 8.23646e-18
6420.58816 7.82986e-18
6422.05538 7.67327e-18
6423.53278 7.89970e-18
6425.00000 8.37440e-18
6426.46721 7.90204e-18
6427.94462 7.80278e-18
6429.41183 8.12128e-18
6430.87905 8.31200e-18
6432.34627 8.25803e-18
6433.82367 8.55442e-18
6435.29089 8.46994e-18
6436.75810 8.31489e-18
6438.22532 8.53654e-18
6439.70272 8.95676e-18
6441.16994 8.82124e-18
6442.63716 8.73890e-18
6444.11456 8.64567e-18
6445.58178 8.63796e-18
6447.04899 8.72144e-18
6448.51621 8.51776e-18
6449.99361 8.95747e-18
6451.46083 8.96364e-18
6452.92805 9.15317e-18
6454.39526 8.99263e-18
6455.87267 8.74493e-18
6457.33988 8.73127e-18
6458.80710 9.01657e-18
6460.28450 8.70197e-18
6461.75172 8.78829e-18
6463.21894 8.97669e-18
6464.68615 9.35780e-18
6466.16356 9.01602e-18
6467.63077 8.77187e-18
6469.09799 8.46329e-18
6470.56521 9.14643e-18
6472.04261 9.12803e-18
6473.50983 8.56288e-18
6474.97704 8.50290e-18
6476.45445 8.45970e-18
6477.92166 8.82364e-18
6479.38888 9.52124e-18
6480.85610 9.12953e-18
6482.33350 8.84991e-18
6483.80072 8.72950e-18
6485.26793 8.40260e-18
6486.73515 8.25574e-18
6488.21255 8.79286e-18
6489.67977 9.09359e-18
6491.14699 9.23975e-18
6492.62439 9.46350e-18
6494.09161 9.07506e-18
6495.55882 9.18133e-18
6497.02604 9.33264e-18
6498.50344 8.76275e-18
6499.97066 9.27076e-18
6501.43788 9.24507e-18
6502.90509 9.04847e-18
6504.38250 8.74519e-18
6505.84971 8.76470e-18
6507.31693 8.88818e-18
6508.79433 9.18876e-18
6510.26155 9.26111e-18
6511.72877 9.34241e-18
6513.19598 9.13711e-18
6514.67339 8.82795e-18
6516.14060 8.82511e-18
6517.60782 9.00889e-18
6519.07503 8.65984e-18
6520.55244 9.03398e-18
6522.01966 9.10386e-18
6523.48687 8.85554e-18
6524.96428 8.47948e-18
6526.43149 8.75798e-18
6527.89871 9.04705e-18
6529.36592 9.61301e-18
6530.84333 9.02815e-18
6532.31055 8.83134e-18
6533.77776 8.61933e-18
6535.24498 8.79724e-18
6536.72238 8.98892e-18
6538.18960 8.86806e-18
6539.65682 8.82560e-18
6541.13422 8.96781e-18
6542.60144 9.34694e-18
6544.06865 8.83234e-18
6545.53587 8.82779e-18
6547.01327 8.62141e-18
6548.48049 8.36541e-18
6549.94770 8.76188e-18
6551.41492 8.71877e-18
6552.89233 8.51066e-18
6554.35954 8.14359e-18
6555.82676 8.03276e-18
6557.30416 8.48248e-18
6558.77138 8.76331e-18
6560.23859 8.47300e-18
6561.70581 8.70661e-18
6563.18322 8.77775e-18
6564.65043 8.64749e-18
6566.11765 8.86209e-18
6567.58486 9.20783e-18
6569.06227 9.19182e-18
6570.52948 9.04664e-18
6571.99670 8.84811e-18
6573.47411 8.58595e-18
6574.94132 8.38012e-18
6576.40854 8.22136e-18
6577.87575 8.35062e-18
6579.35316 8.16967e-18
6580.82037 8.11571e-18
6582.28759 8.28892e-18
6583.75481 8.33855e-18
6585.23221 7.90272e-18
6586.69943 7.83976e-18
6588.16664 8.32432e-18
6589.64405 8.23255e-18
6591.11126 8.23056e-18
6592.57848 8.43944e-18
6594.04570 8.69081e-18
6595.52310 8.30962e-18
6596.99032 7.96361e-18
6598.45753 7.95539e-18
6599.92475 7.81287e-18
6601.40215 8.01624e-18
6602.86937 7.88922e-18
6604.33659 7.41274e-18
6605.81399 7.57750e-18
6607.28121 7.99029e-18
6608.74842 7.42060e-18
6610.21564 7.92347e-18
6611.69304 8.40165e-18
6613.16026 7.58503e-18
6614.62748 7.20269e-18
6616.10488 7.40050e-18
6617.57210 7.49735e-18
6619.03931 7.27940e-18
6620.50653 7.52653e-18
6621.98393 7.53820e-18
6623.45115 7.46313e-18
6624.91837 7.64728e-18
6626.38558 7.22879e-18
6627.86299 7.25858e-18
6629.33020 7.16170e-18
6630.79742 7.05699e-18
6632.27482 7.25864e-18
6633.74204 7.66998e-18
6635.20926 7.25644e-18
6636.67647 6.68709e-18
6638.15388 7.06075e-18
6639.62109 6.72354e-18
6641.08831 6.86164e-18
6642.55553 7.15745e-18
6644.03293 6.58946e-18
6645.50015 6.56767e-18
6646.96736 6.43603e-18
6648.44477 6.61634e-18
6649.91198 7.11132e-18
6651.37920 6.76618e-18
6652.84642 6.41393e-18
6654.32382 6.60504e-18
6655.79104 6.52017e-18
6657.25825 6.44435e-18
6658.72547 6.19473e-18
6660.20287 6.46601e-18
6661.67009 5.76759e-18
6663.13731 6.34279e-18
6664.60452 6.73490e-18
6666.08193 6.78418e-18
6667.54914 6.59721e-18
6669.01636 6.39087e-18
6670.49376 6.44816e-18
6671.96098 6.50632e-18
6673.42820 6.51771e-18
6674.89541 6.66270e-18
6676.37282 7.11319e-18
6677.84003 7.22929e-18
6679.30725 6.94355e-18
6680.77446 6.91046e-18
6682.25187 7.23133e-18
6683.71909 6.24949e-18
6685.18630 6.34273e-18
6686.66371 6.84950e-18
6688.13092 7.43323e-18
6689.59814 7.71136e-18
6691.06535 7.15052e-18
6692.54276 7.52629e-18
6694.00998 7.89360e-18
6695.47719 7.31449e-18
6696.95460 7.43843e-18
6698.42181 7.39298e-18
6699.88903 7.71822e-18
6701.35624 7.36716e-18
6702.83365 7.23518e-18
6704.30087 7.36876e-18
6705.76808 8.01283e-18
6707.23530 8.20254e-18
6708.71270 8.34292e-18
6710.17992 8.00259e-18
6711.64713 7.82047e-18
6713.12454 8.39953e-18
6714.59176 8.32694e-18
6716.05897 7.75898e-18
6717.52619 7.96776e-18
6719.00359 8.50677e-18
6720.47081 8.28198e-18
6721.93802 8.38033e-18
6723.40524 8.33904e-18
6724.88265 8.16906e-18
6726.34986 8.31132e-18
6727.81708 8.68456e-18
6729.29448 8.60832e-18
6730.76170 8.46776e-18
6732.22891 9.01852e-18
6733.69613 9.38465e-18
6735.17354 9.43139e-18
6736.64075 8.73412e-18
6738.10797 8.20544e-18
6739.57518 8.78812e-18
6741.05259 8.97279e-18
6742.51980 8.74543e-18
6743.98702 8.77015e-18
6745.46443 8.99203e-18
6746.93164 9.00894e-18
6748.39886 9.34289e-18
6749.86607 9.35415e-18
6751.34348 9.28415e-18
6752.81069 9.56847e-18
6754.27791 8.78031e-18
6755.74513 9.51014e-18
6757.22253 8.80407e-18
6758.68975 9.11371e-18
6760.15696 9.61912e-18
6761.63437 9.14424e-18
6763.10158 8.48874e-18
6764.56880 8.60556e-18
6766.03602 9.20117e-18
6767.51342 9.02872e-18
6768.98064 9.01415e-18
6770.44785 9.42163e-18
6771.91507 9.39765e-18
6773.39247 9.15146e-18
6774.85969 9.32735e-18
6776.32691 9.27027e-18
6777.80431 9.04695e-18
6779.27153 9.59170e-18
6780.73874 9.97114e-18
6782.20596 9.53817e-18
6783.68336 9.28279e-18
6785.15058 9.30087e-18
6786.61780 9.29148e-18
6788.08501 9.29793e-18
6789.56242 8.89056e-18
6791.02963 8.95718e-18
6792.49685 9.27947e-18
6793.97425 8.97354e-18
6795.44147 9.24966e-18
6796.90869 8.78872e-18
6798.37590 8.63035e-18
6799.85331 9.20683e-18
6801.32052 8.88034e-18
6802.78774 8.33632e-18
6804.25496 8.90657e-18
6805.73236 9.17109e-18
6807.19958 8.69363e-18
6808.66679 9.00876e-18
6810.14420 9.32447e-18
6811.61141 8.97204e-18
6813.07863 8.90572e-18
6814.54585 9.03418e-18
6816.02325 8.98978e-18
6817.49047 9.08787e-18
6818.95768 8.91443e-18
6820.43509 8.73206e-18
6821.90230 9.09622e-18
6823.36952 9.46263e-18
6824.83674 9.61588e-18
6826.31414 9.09495e-18
6827.78136 8.61701e-18
6829.24857 8.33803e-18
6830.71579 7.96239e-18
6832.19319 8.65177e-18
6833.66041 8.58054e-18
6835.12763 8.32544e-18
6836.60503 8.04061e-18
6838.07225 7.93410e-18
6839.53946 8.35504e-18
6841.00668 8.24308e-18
6842.48408 8.28262e-18
6843.95130 8.59110e-18
6845.41852 8.58070e-18
6846.88573 8.57028e-18
6848.36314 8.55988e-18
6849.83035 8.54947e-18
6851.29757 8.53906e-18
6852.76478 8.52865e-18
6854.24219 8.51824e-18
6855.70941 8.50783e-18
6857.17662 8.49743e-18
6858.65403 8.48702e-18
6860.12124 8.47661e-18
6861.58846 8.46621e-18
6863.05567 8.45580e-18
6864.53308 8.44540e-18
6866.00030 8.43500e-18
6867.46751 8.42459e-18
6868.93473 8.41419e-18
6870.41213 8.40379e-18
6871.87935 8.39339e-18
6873.34656 8.38299e-18
6874.82397 8.37259e-18
6876.29119 8.36218e-18
6877.75840 8.35179e-18
6879.22562 8.34139e-18
6880.70302 8.33099e-18
6882.17024 8.32059e-18
6883.63745 8.31019e-18
6885.11486 8.29979e-18
6886.58208 8.28940e-18
6888.04929 8.27900e-18
6889.51651 8.26861e-18
6890.99391 8.25821e-18
6892.46113 8.24782e-18
6893.92834 8.23742e-18
6895.39556 8.22703e-18
6896.87297 8.21663e-18
6898.34018 8.20624e-18
6899.80740 8.19585e-18
6901.27461 8.18546e-18
6902.75202 8.17507e-18
6904.21923 8.16467e-18
6905.68645 8.15429e-18
6907.16386 8.14389e-18
6908.63107 8.13351e-18
6910.09829 8.12312e-18
6911.56550 8.11273e-18
6913.04291 8.10234e-18
6914.51012 8.09195e-18
6915.97734 8.08157e-18
6917.45475 8.07118e-18
6918.92196 8.06080e-18
6920.38918 8.05041e-18
6921.85639 8.04003e-18
6923.33380 8.02964e-18
6924.80102 8.01926e-18
6926.26823 8.00887e-18
6927.73545 7.99849e-18
6929.21285 7.98811e-18
6930.68007 7.97772e-18
6932.14728 7.96734e-18
6933.62469 7.95696e-18
6935.09190 7.94658e-18
6936.55912 8.04874e-18
6938.02634 8.00601e-18
6939.50374 7.82053e-18
6940.97096 7.78731e-18
6942.43817 6.89717e-18
6943.90539 7.63071e-18
6945.38279 7.69919e-18
6946.85001 7.66850e-18
6948.31723 7.29505e-18
6949.79463 7.59924e-18
6951.26185 7.68285e-18
6952.72906 6.89482e-18
6954.19628 7.10900e-18
6955.67368 7.10884e-18
6957.14090 7.06804e-18
6958.60812 7.78120e-18
6960.07533 7.97004e-18
6961.55274 7.52945e-18
6963.01995 7.79155e-18
6964.48717 7.79843e-18
6965.96457 7.58094e-18
6967.43179 8.04647e-18
6968.89901 7.34548e-18
6970.36622 7.63571e-18
6971.84363 7.22455e-18
6973.31084 7.88281e-18
6974.77806 7.54703e-18
6976.24528 8.23987e-18
6977.72268 7.55720e-18
6979.18990 7.39392e-18
6980.65711 7.14645e-18
6982.13452 7.19394e-18
6983.60173 7.26478e-18
6985.06895 7.03389e-18
6986.53617 7.18414e-18
6988.01357 7.15929e-18
6989.48079 7.29195e-18
6990.94800 7.44287e-18
6992.41522 7.04670e-18
6993.89262 7.52261e-18
6995.35984 7.59560e-18
6996.82706 7.60809e-18
6998.30446 7.00858e-18
6999.77168 6.78109e-18
7001.23889 6.89510e-18
7002.70611 7.06663e-18
7004.18351 6.98784e-18
7005.65073 7.10874e-18
7007.11795 6.96460e-18
7008.58516 7.22142e-18
7010.06257 7.27203e-18
7011.52978 6.85229e-18
7012.99700 7.03982e-18
7014.47440 7.69569e-18
7015.94162 7.06671e-18
7017.40884 6.70968e-18
7018.87605 6.45834e-18
7020.35346 6.32965e-18
7021.82067 6.36973e-18
7023.28789 6.61470e-18
7024.75510 6.30780e-18
7026.23251 6.89653e-18
7027.69973 6.63036e-18
7029.16694 6.75014e-18
7030.64435 7.02598e-18
7032.11156 6.92419e-18
7033.57878 6.78603e-18
7035.04599 7.12076e-18
7036.52340 7.03274e-18
7037.99062 6.73053e-18
7039.45783 6.41222e-18
7040.92505 6.75481e-18
7042.40245 6.77049e-18
7043.86967 6.26292e-18
7045.33688 6.54475e-18
7046.81429 6.93797e-18
7048.28151 6.68993e-18
7049.74872 6.30543e-18
7051.21594 6.45611e-18
7052.69334 6.45375e-18
7054.16056 6.54075e-18
7055.62777 6.67334e-18
7057.09499 6.51241e-18
7058.57240 6.67045e-18
7060.03961 6.60837e-18
7061.50683 6.48668e-18
7062.98423 6.50171e-18
7064.45145 6.54681e-18
7065.91867 6.24607e-18
7067.38588 6.62260e-18
7068.86329 6.58198e-18
7070.33050 6.48579e-18
7071.79772 6.94519e-18
7073.26493 7.69694e-18
7074.74234 7.44804e-18
7076.20955 7.44315e-18
7077.67677 8.27427e-18
7079.15418 7.89927e-18
7080.62139 7.18589e-18
7082.08861 6.90886e-18
7083.55582 7.27132e-18
7085.03323 7.47865e-18
7086.50044 7.23076e-18
7087.96766 7.33234e-18
7089.43488 7.51779e-18
7090.91228 7.32589e-18
7092.37950 7.52688e-18
7093.84671 7.34534e-18
7095.32412 7.49022e-18
7096.79133 7.48135e-18
7098.25855 7.32066e-18
7099.72577 7.52406e-18
7101.20317 7.40624e-18
7102.67039 7.41751e-18
7104.13760 7.58492e-18
7105.60482 8.26901e-18
7107.08222 8.19018e-18
7108.54944 7.79977e-18
7110.01666 7.95461e-18
7111.49406 7.71176e-18
7112.96128 7.69297e-18
7114.42849 8.15898e-18
7115.89571 8.24089e-18
7117.37311 7.78635e-18
7118.84033 7.88046e-18
7120.30755 8.05458e-18
7121.77476 7.93794e-18
7123.25217 8.04563e-18
7124.71938 7.96358e-18
7126.18660 7.94971e-18
7127.66400 8.35422e-18
7129.13122 8.61228e-18
7130.59844 8.56820e-18
7132.06565 8.17708e-18
7133.54306 8.20227e-18
7135.01027 8.48847e-18
7136.47749 8.29521e-18
7137.94471 8.23748e-18
7139.42211 8.16761e-18
7140.88933 8.32992e-18
7142.35654 8.00350e-18
7143.83395 7.89664e-18
7145.30116 8.38629e-18
7146.76838 8.12286e-18
7148.23560 7.90426e-18
7149.71300 8.08727e-18
7151.18022 7.85022e-18
7152.64743 7.63802e-18
7154.12484 8.24524e-18
7155.59205 8.16416e-18
7157.05927 7.85788e-18
7158.52649 8.14321e-18
7160.00389 8.13048e-18
7161.47111 7.97280e-18
7162.93832 8.04180e-18
7164.40554 8.84272e-18
7165.88294 8.73500e-18
7167.35016 7.67249e-18
7168.81738 7.91628e-18
7170.29478 8.67112e-18
7171.76200 8.58355e-18
7173.22921 8.48094e-18
7174.69643 8.07790e-18
7176.17383 7.71250e-18
7177.64105 8.17010e-18
7179.10827 7.67940e-18
7180.57548 7.95929e-18
7182.05289 7.96202e-18
7183.52010 7.63210e-18
7184.98732 8.32466e-18
7186.46472 8.40043e-18
7187.93194 8.03996e-18
7189.39916 7.77593e-18
7190.86637 7.21145e-18
7192.34378 7.64913e-18
7193.81099 7.92350e-18
7195.27821 7.78615e-18
7196.74542 7.59423e-18
7198.22283 7.98408e-18
7199.69005 8.21680e-18
7201.15726 7.74943e-18
7202.62448 8.07774e-18
7204.10188 8.00053e-18
7205.56910 7.65158e-18
7207.03631 7.53848e-18
7208.51372 7.50854e-18
7209.98094 7.91979e-18
7211.44815 8.08531e-18
7212.91537 7.94590e-18
7214.39277 7.84469e-18
7215.85999 7.72062e-18
7217.32720 7.29430e-18
7218.80461 7.39602e-18
7220.27183 7.79928e-18
7221.73904 7.73023e-18
7223.20626 7.51980e-18
7224.68366 7.49425e-18
7226.15088 7.51891e-18
7227.61809 7.65039e-18
7229.08531 7.36334e-18
7230.56272 7.48291e-18
7232.02993 7.45803e-18
7233.49715 7.31540e-18
7234.97455 7.50403e-18
7236.44177 7.55517e-18
7237.90898 7.42275e-18
7239.37620 7.20501e-18
7240.85361 6.75353e-18
7242.32082 7.61066e-18
7243.78804 7.70717e-18
7245.25525 7.22471e-18
7246.73266 7.27024e-18
7248.19987 7.14772e-18
7249.66709 6.67299e-18
7251.14450 6.78789e-18
7252.61171 6.78625e-18
7254.07893 7.11736e-18
7255.54614 6.77929e-18
7257.02355 6.76703e-18
7258.49076 6.45798e-18
7259.95798 6.94202e-18
7261.42520 6.63946e-18
7262.90260 6.80953e-18
7264.36982 6.63803e-18
7265.83703 6.76969e-18
7267.31444 7.05923e-18
7268.78165 7.02547e-18
7270.24887 6.71984e-18
7271.71609 7.15547e-18
7273.19349 6.83673e-18
7274.66071 6.18479e-18
7276.12792 6.37785e-18
7277.59514 6.39574e-18
7279.07254 6.56197e-18
7280.53976 6.57906e-18
7282.00698 6.58277e-18
7283.48438 7.33329e-18
7284.95160 6.94100e-18
7286.41881 6.50775e-18
7287.88603 6.82649e-18
7289.36343 6.57188e-18
7290.83065 6.82436e-18
7292.29787 7.28815e-18
7293.76508 6.86091e-18
7295.24249 6.28475e-18
7296.70970 6.29317e-18
7298.17692 6.60975e-18
7299.65432 6.65257e-18
7301.12154 7.27058e-18
7302.58876 7.09018e-18
7304.05597 6.82341e-18
7305.53338 7.34294e-18
7307.00059 6.92392e-18
7308.46781 7.05931e-18
7309.93503 6.67682e-18
7311.41243 7.17386e-18
7312.87965 6.93665e-18
7314.34686 6.67736e-18
7315.82427 7.10350e-18
7317.29148 6.92854e-18
7318.75870 7.06430e-18
7320.22592 6.82330e-18
7321.70332 7.24326e-18
7323.17054 7.03422e-18
7324.63775 6.68382e-18
7326.10497 7.43604e-18
7327.58237 7.01511e-18
7329.04959 7.21124e-18
7330.51681 6.54686e-18
7331.99421 6.76359e-18
7333.46143 6.97572e-18
7334.92864 7.54929e-18
7336.39586 7.07935e-18
7337.87326 7.13656e-18
7339.34048 7.13604e-18
7340.80770 7.35795e-18
7342.27491 7.45914e-18
7343.75232 7.16060e-18
7345.21953 7.60824e-18
7346.68675 6.76365e-18
7348.16415 7.47783e-18
7349.63137 7.86906e-18
7351.09859 7.20185e-18
7352.56580 6.90480e-18
7354.04321 7.13489e-18
7355.51042 6.59881e-18
7356.97764 7.05736e-18
7358.45504 7.47856e-18
7359.92226 7.20513e-18
7361.38948 7.22335e-18
7362.85669 6.89544e-18
7364.33410 7.79104e-18
7365.80131 7.16935e-18
7367.26853 6.63585e-18
7368.73574 7.08231e-18
7370.21315 7.19604e-18
7371.68037 6.83788e-18
7373.14758 6.92656e-18
7374.62499 6.93865e-18
7376.09220 6.91871e-18
7377.55942 6.93192e-18
7379.02663 7.26304e-18
7380.50404 7.12846e-18
7381.97126 6.53411e-18
7383.43847 6.89284e-18
7384.90569 6.66391e-18
7386.38309 7.27815e-18
7387.85031 6.48917e-18
7389.31752 7.04392e-18
7390.78474 7.19161e-18
7392.26215 7.24957e-18
7393.72936 6.96068e-18
7395.19658 6.81476e-18
7396.67398 6.71611e-18
7398.14120 7.16855e-18
7399.60841 6.63071e-18
7401.07563 5.89727e-18
7402.55304 6.56278e-18
7404.02025 7.19572e-18
7405.48747 6.25360e-18
7406.95468 6.03100e-18
7408.43209 7.09061e-18
7409.89930 6.46617e-18
7411.36652 6.29464e-18
7412.22211 6.29464e-18
7413.91970 6.63929e-18
7415.61729 6.93342e-18
7417.31488 7.43436e-18
7419.01247 7.94869e-18
7420.71005 7.68031e-18
7422.40764 6.58773e-18
7424.10523 5.84653e-18
7425.80282 6.05979e-18
7427.50041 6.65628e-18
7429.19800 7.14078e-18
7430.89558 7.36884e-18
7432.59317 7.32569e-18
7434.29076 7.25667e-18
7435.98835 7.37535e-18
7437.68594 7.66217e-18
7439.38352 8.02180e-18
7441.09116 8.33776e-18
7442.78874 8.46738e-18
7444.48633 8.10096e-18
7446.18392 7.11199e-18
7447.88151 6.23220e-18
7449.57910 6.23981e-18
7451.27669 6.86342e-18
7452.97427 7.41223e-18
7454.67186 7.42492e-18
7456.36945 6.68609e-18
7458.06704 5.60939e-18
7459.76463 4.94835e-18
7461.46221 4.88979e-18
7463.15980 5.17738e-18
7464.85739 5.70216e-18
7466.55498 6.44207e-18
7468.25257 7.17353e-18
7469.95015 7.53661e-18
7471.64774 7.43001e-18
7473.34533 7.04342e-18
7475.04292 6.67434e-18
7476.74051 6.74963e-18
7478.43809 7.22942e-18
7480.13568 7.33091e-18
7481.83327 6.80558e-18
7483.53086 6.41135e-18
7485.22845 6.58790e-18
7486.92604 7.02147e-18
7488.62362 7.41282e-18
7490.32121 7.67803e-18
7492.01880 7.73070e-18
7493.71639 7.38220e-18
7495.41398 6.63565e-18
7497.11156 6.04906e-18
7498.80915 6.08058e-18
7500.50674 6.49685e-18
7502.20433 6.92625e-18
7503.90192 7.19533e-18
7505.59950 7.25834e-18
7507.29709 7.41459e-18
7508.99468 7.95673e-18
7510.69227 8.49644e-18
7512.38986 8.42658e-18
7514.08745 7.55667e-18
7515.78503 6.05041e-18
7517.48262 4.73696e-18
7519.18021 4.71564e-18
7520.87780 5.71114e-18
7522.58543 6.40136e-18
7524.28302 6.47471e-18
7525.98061 6.54516e-18
7527.67819 6.78709e-18
7529.37578 6.96115e-18
7531.07337 6.96416e-18
7532.77096 6.81068e-18
7534.46855 6.59501e-18
7536.16614 6.53741e-18
7537.86372 6.70546e-18
7539.56131 6.90257e-18
7541.25890 6.99724e-18
7542.95649 7.01606e-18
7544.65408 6.98894e-18
7546.35166 6.94297e-18
7548.04925 6.87661e-18
7549.74684 6.67798e-18
7551.44443 6.67219e-18
7553.14202 6.66641e-18
7554.83960 6.66062e-18
7556.53719 6.65483e-18
7558.23478 6.64905e-18
7559.93237 6.64326e-18
7561.62996 6.63748e-18
7563.32754 6.63169e-18
7565.02513 6.62590e-18
7566.72272 6.62012e-18
7568.42031 6.61433e-18
7570.11790 6.60855e-18
7571.81549 6.60276e-18
7573.51307 6.59698e-18
7575.21066 6.59119e-18
7576.90825 6.58541e-18
7578.60584 6.57963e-18
7580.30343 6.57385e-18
7582.00101 6.56807e-18
7583.69860 6.56228e-18
7585.39619 6.55651e-18
7587.09378 6.55072e-18
7588.79137 6.54495e-18
7590.48895 6.53916e-18
7592.18654 6.53338e-18
7593.88413 6.52760e-18
7595.58172 6.52183e-18
7597.27931 6.51604e-18
7598.97689 6.51027e-18
7600.67448 6.50449e-18
7602.37207 6.49871e-18
7604.06966 6.49294e-18
7605.76725 6.48716e-18
7607.47488 6.48138e-18
7609.17247 6.47561e-18
7610.87006 6.46983e-18
7612.56764 6.46406e-18
7614.26523 6.45828e-18
7615.96282 6.45250e-18
7617.66041 6.44673e-18
7619.35800 6.44096e-18
7621.05559 6.43518e-18
7622.75317 6.42941e-18
7624.45076 6.42364e-18
7626.14835 6.41787e-18
7627.84594 6.41209e-18
7629.54353 6.40632e-18
7631.24111 6.40055e-18
7632.93870 6.39478e-18
7634.63629 6.38901e-18
7636.33388 6.38324e-18
7638.03147 6.37747e-18
7639.72905 6.37170e-18
7641.42664 6.36593e-18
7643.12423 6.36016e-18
7644.82182 6.35439e-18
7646.51941 6.34863e-18
7648.21699 6.34286e-18
7649.91458 6.33710e-18
7651.61217 6.33133e-18
7653.30976 6.32556e-18
7655.00735 6.31980e-18
7656.70494 6.31403e-18
7658.40252 6.30827e-18
7660.10011 6.30250e-18
7661.79770 6.29674e-18
7663.49529 6.29097e-18
7665.19288 6.28520e-18
7666.89046 6.27944e-18
7668.58805 6.27368e-18
7670.28564 6.26792e-18
7671.98323 6.26215e-18
7673.68082 6.25640e-18
7675.37840 6.25064e-18
7677.07599 6.24487e-18
7678.77358 6.23911e-18
7680.47117 6.23335e-18
7682.16876 6.23308e-18
7683.86634 6.16452e-18
7685.56393 6.05003e-18
7687.26152 5.92229e-18
7688.96915 5.85811e-18
7690.66674 5.93611e-18
7692.36433 6.10444e-18
7694.06192 6.21824e-18
7695.75951 6.20641e-18
7697.45709 6.07629e-18
7699.15468 5.87867e-18
7700.85227 5.70797e-18
7702.54986 5.70378e-18
7704.24745 6.04431e-18
7705.94504 6.63783e-18
7707.64262 7.02758e-18
7709.34021 7.02590e-18
7711.03780 6.90828e-18
7712.73539 6.80098e-18
7714.43298 6.49146e-18
7716.13056 5.95846e-18
7717.82815 5.63219e-18
7719.52574 5.70111e-18
7721.22333 5.63631e-18
7722.92092 5.15980e-18
7724.61850 4.96787e-18
7726.31609 5.56797e-18
7728.01368 6.39985e-18
7729.71127 6.85141e-18
7731.40886 7.02708e-18
7733.10644 7.14651e-18
7734.80403 6.98056e-18
7736.50162 6.33312e-18
7738.19921 5.76617e-18
7739.89680 5.94459e-18
7741.59439 6.54039e-18
7743.29197 6.83516e-18
7744.98956 6.82564e-18
7746.68715 6.89188e-18
7748.38474 7.08767e-18
7750.08233 7.26535e-18
7751.77991 7.32286e-18
7753.47750 7.19370e-18
7755.17509 6.99812e-18
7756.87268 7.02363e-18
7758.57027 7.36149e-18
7760.26785 7.88503e-18
7761.96544 8.26672e-18
7763.66303 7.92295e-18
7765.36062 6.94342e-18
7767.05821 6.43613e-18
7768.75579 6.82995e-18
7770.46343 7.31758e-18
7772.16102 7.36909e-18
7773.85860 7.14539e-18
7775.55619 6.81706e-18
7777.25378 6.44391e-18
7778.95137 6.12861e-18
7780.64896 6.08402e-18
7782.34654 6.39128e-18
7784.04413 6.76085e-18
7785.74172 6.90854e-18
7787.43931 6.79873e-18
7789.13690 6.51414e-18
7790.83448 6.34150e-18
7792.53207 6.51856e-18
7794.22966 6.69544e-18
7795.92725 6.46936e-18
7797.62484 6.38640e-18
7799.32243 7.18381e-18
7801.02001 8.33201e-18
7802.71760 8.75715e-18
7804.41519 8.31275e-18
7806.11278 7.48379e-18
7807.81037 6.78630e-18
7809.50795 6.71580e-18
7811.20554 7.08398e-18
7812.90313 7.08095e-18
7814.60072 6.69491e-18
7816.29831 6.74265e-18
7817.99589 7.27369e-18
7819.69348 7.43384e-18
7821.39107 7.04294e-18
7823.08866 6.85705e-18
7824.78625 7.12398e-18
7826.48384 7.24694e-18
7828.18142 6.94846e-18
7829.87901 6.60764e-18
7831.57660 6.41721e-18
7833.27419 6.05334e-18
7834.97178 5.42244e-18
7836.66936 5.07573e-18
7838.36695 5.39481e-18
7840.06454 6.17270e-18
7841.76213 7.01895e-18
7843.45972 7.29821e-18
7845.15730 6.64333e-18
7846.85489 5.73524e-18
7848.55248 5.38377e-18
7850.25007 5.62028e-18
7851.94766 6.17801e-18
7853.64524 6.89484e-18
7855.35288 7.60507e-18
7857.05047 7.97975e-18
7858.74805 7.73180e-18
7860.44564 7.10496e-18
7862.14323 6.62119e-18
7863.84082 6.33454e-18
7865.53841 5.97349e-18
7867.23599 5.60669e-18
7868.93358 5.54357e-18
7870.63117 5.64475e-18
7872.32876 5.38058e-18
7874.02635 4.82694e-18
7875.72393 4.71554e-18
7877.42152 5.27529e-18
7879.11911 6.10610e-18
7880.81670 6.68302e-18
7882.51429 6.26112e-18
7884.21188 4.95473e-18
7885.90946 4.41649e-18
7887.60705 5.39797e-18
7889.30464 6.67019e-18
7891.00223 7.25738e-18
7892.69982 7.17234e-18
7894.39740 6.63968e-18
7896.09499 6.13482e-18
7897.79258 6.00672e-18
7899.49017 5.97947e-18
7901.18776 5.79121e-18
7902.88534 5.75728e-18
7904.58293 6.15977e-18
7906.28052 6.69357e-18
7907.97811 6.93222e-18
7909.67570 6.64298e-18
7911.37328 5.81238e-18
7913.07087 4.99153e-18
7914.76846 4.86148e-18
7916.46605 5.44640e-18
7918.16364 6.32972e-18
7919.86123 6.82661e-18
7921.55881 6.23483e-18
7923.25640 4.98964e-18
7924.95399 4.37549e-18
7926.65158 4.79539e-18
7928.34917 5.79657e-18
7930.04675 6.81019e-18
7931.74434 7.14020e-18
7933.44193 6.73027e-18
7935.13952 6.38060e-18
7936.84715 6.36195e-18
7938.54474 6.12981e-18
7940.24233 5.59539e-18
7941.93992 5.41284e-18
7943.63750 5.89273e-18
7945.33509 6.72824e-18
7947.03268 7.47405e-18
7948.73027 7.46365e-18
7950.42786 6.46770e-18
7952.12544 5.33783e-18
7953.82303 4.81290e-18
7955.52062 4.82854e-18
7957.21821 5.15122e-18
7958.91580 5.54771e-18
7960.61338 5.83761e-18
7962.31097 6.17061e-18
7964.00856 6.68206e-18
7965.70615 6.98076e-18
7967.40374 6.65112e-18
7969.10133 5.93929e-18
7970.79891 5.33320e-18
7972.49650 5.02713e-18
7974.19409 5.02016e-18
7975.89168 5.14515e-18
7977.58927 5.14241e-18
7979.28685 5.00391e-18
7980.98444 4.90838e-18
7982.68203 4.84665e-18
7984.37962 4.66907e-18
7986.07721 4.35453e-18
7987.77479 3.99983e-18
7989.47238 3.79032e-18
7991.16997 4.00323e-18
7992.86756 4.61368e-18
7994.56515 5.19853e-18
7996.26273 5.47306e-18
7997.96032 5.39108e-18
7999.65791 5.02256e-18
8001.35550 4.63075e-18
8003.05309 4.35384e-18
8004.75068 4.00162e-18
8006.44826 3.49686e-18
8008.14585 3.11135e-18
8009.84344 3.01412e-18
8011.54103 2.98777e-18
8013.23862 2.86404e-18
8014.93620 2.83369e-18
8016.63379 3.06444e-18
8018.34143 3.39894e-18
8020.03901 3.64367e-18
8021.73660 3.82515e-18
8023.43419 4.00764e-18
8025.13178 4.07915e-18
8026.82937 3.91216e-18
8028.52695 3.63247e-18
8030.22454 3.44210e-18
8031.92213 3.24263e-18
8033.61972 2.81407e-18
8035.31731 2.29343e-18
8037.01489 2.02643e-18
8038.71248 2.04914e-18
8040.41007 2.15998e-18
8042.10766 2.33292e-18
8043.80525 2.68485e-18
8045.50283 3.21537e-18
8047.20042 3.81144e-18
8048.89801 4.28193e-18
8050.59560 4.34932e-18
8052.29319 3.92808e-18
8053.99078 3.21242e-18
8055.68836 2.42661e-18
8057.38595 1.76873e-18
8059.08354 1.47744e-18
8060.78113 1.91113e-18
8062.47872 3.01123e-18
8064.17630 3.85329e-18
8065.87389 3.82216e-18
8067.57148 3.29753e-18
8069.26907 2.75511e-18
8070.96666 2.40918e-18
8072.66424 2.38747e-18
8074.36183 2.74899e-18
8076.05942 3.40339e-18
8077.75701 3.88842e-18
8079.45460 3.79510e-18
8081.15218 3.36649e-18
8082.84977 3.02515e-18
8084.54736 2.76660e-18
8086.24495 2.44106e-18
8087.94254 2.14207e-18
8089.64013 2.05428e-18
8091.33771 2.24484e-18
8093.03530 2.68185e-18
8094.73289 3.19197e-18
8096.43048 3.51254e-18
8098.12807 3.54821e-18
8099.82565 3.37144e-18
8101.52324 3.09722e-18
8103.22083 2.88230e-18
8104.92846 2.74421e-18
8106.62605 2.51616e-18
8108.32364 2.24701e-18
8110.02123 2.28272e-18
8111.71882 2.66074e-18
8113.41640 2.96589e-18
8115.11399 2.85958e-18
8116.81158 2.11295e-18
8118.50917 9.36045e-19
8120.20676 4.41368e-19
8121.90434 1.17492e-18
8123.60193 2.15171e-18
8125.29952 2.55607e-18
8126.99711 2.63466e-18
8128.69470 2.71530e-18
8130.39228 2.79665e-18
8132.08987 2.82626e-18
8133.78746 2.76253e-18
8135.48505 2.57700e-18
8137.18264 2.26425e-18
8138.88023 1.87412e-18
8140.57781 1.67062e-18
8142.27540 1.89483e-18
8143.97299 2.30395e-18
8145.67058 2.46815e-18
8147.36817 2.27908e-18
8149.06575 1.86038e-18
8150.76334 1.48809e-18
8152.46093 1.50987e-18
8154.15852 1.90521e-18
8155.85611 2.33704e-18
8157.55369 2.67682e-18
8159.25128 2.99763e-18
8160.94887 3.26521e-18
8162.64646 3.34878e-18
8164.34405 3.27217e-18
8166.04163 3.24400e-18
8167.73922 3.28891e-18
8169.43681 3.16082e-18
8171.13440 2.73226e-18
8172.83199 2.07845e-18
8174.52958 1.34392e-18
8176.22716 7.54398e-19
8177.92475 5.02642e-19
8179.62234 7.25572e-19
8181.31993 1.35651e-18
8183.01752 1.89896e-18
8184.71510 1.97323e-18
8186.41269 1.66190e-18
8188.12032 1.22313e-18
8189.81791 1.17624e-18
8191.51550 1.82956e-18
8193.21309 2.52897e-18
8194.91068 2.52518e-18
8196.60827 1.89528e-18
8198.30585 1.07408e-18
8200.00344 6.01552e-19
8201.70103 9.09119e-19
8203.39862 1.57227e-18
8205.09621 1.79712e-18
8206.79379 1.70439e-18
8208.49138 1.95310e-18
8210.18897 2.57063e-18
8211.88656 3.12986e-18
8213.58415 3.37141e-18
8215.28173 3.18288e-18
8216.97932 2.71892e-18
8218.67691 2.42479e-18
8220.37450 2.38877e-18
8222.07209 2.24969e-18
8223.76967 1.91149e-18
8225.46726 1.65256e-18
8227.16485 1.57729e-18
8228.86244 1.50076e-18
8230.56003 1.39429e-18
8232.25762 1.54275e-18
8233.95520 2.03298e-18
8235.65279 2.50677e-18
8237.35038 2.72254e-18
8239.04797 2.84073e-18
8240.74556 2.98490e-18
8242.44314 3.00404e-18
8244.14073 2.79580e-18
8245.83832 2.52530e-18
8247.53591 2.35880e-18
8249.23350 2.29495e-18
8250.93108 2.26052e-18
8252.62867 2.03703e-18
8254.32626 1.48354e-18
8256.02385 1.04145e-18
8257.72144 1.23702e-18
8259.41903 1.81563e-18
8261.11661 2.17938e-18
8262.81420 2.11013e-18
8264.51179 1.67562e-18
8266.20938 1.23591e-18
8267.91701 1.31170e-18
8269.60455 1.82743e-18
8271.30214 2.20338e-18
8273.00977 2.19724e-18
8274.70736 1.90776e-18
8276.40495 1.51943e-18
8278.10254 1.32956e-18
8279.80013 1.44604e-18
8281.49772 1.69731e-18
8283.19530 1.98233e-18
8284.89289 2.33116e-18
8286.59048 2.69346e-18
8288.28807 2.88940e-18
8289.98566 2.85090e-18
8291.68324 2.72309e-18
8293.38083 2.63814e-18
8295.07842 2.64815e-18
8296.77601 2.75484e-18
8298.47360 2.86771e-18
8300.17118 2.89927e-18
8301.86877 2.82962e-18
8303.56636 2.66689e-18
8305.26395 2.45029e-18
8306.96154 2.21983e-18
8308.65912 1.97261e-18
8310.35671 1.70360e-18
8312.05430 1.42068e-18
8313.75189 1.16321e-18
8315.44948 1.12087e-18
8317.14707 1.47637e-18
8318.84465 2.05338e-18
8320.54224 2.50207e-18
8322.23983 2.70641e-18
8323.93742 2.72992e-18
8325.63501 2.71419e-18
8327.33259 2.85021e-18
8329.03018 3.10610e-18
8330.72777 3.24128e-18
8332.42536 3.13536e-18
8334.12295 2.79935e-18
8335.82053 2.38650e-18
8337.51812 2.23144e-18
8339.21571 2.34591e-18
8340.91330 2.26710e-18
8342.61089 1.87028e-18
8344.30847 1.58802e-18
8346.00606 1.71380e-18
8347.70365 2.27109e-18
8349.40124 3.09109e-18
8351.09883 3.65155e-18
8352.79642 3.63528e-18
8354.50405 3.29792e-18
8356.20164 2.95330e-18
8357.89922 2.78696e-18
8359.59681 2.88728e-18
8361.29440 3.15801e-18
8362.99199 3.42941e-18
8364.68958 3.48343e-18
8366.38717 3.18339e-18
8368.08475 2.71754e-18
8369.78234 2.36346e-18
8371.47993 2.15682e-18
8373.17752 2.05334e-18
8374.87511 2.23926e-18
8376.57269 2.92095e-18
8378.27028 3.83293e-18
8379.96787 4.46414e-18
8381.66546 4.70214e-18
8383.36305 4.72906e-18
8385.06063 4.58287e-18
8386.75822 4.20956e-18
8388.45581 3.54756e-18
8390.15340 2.51901e-18
8391.85099 1.55425e-18
8393.54857 1.63400e-18
8395.24616 2.81405e-18
8396.94375 3.93736e-18
8398.64134 4.32048e-18
8400.33893 4.04995e-18
8402.03652 3.41065e-18
8403.73410 3.00616e-18
8405.43169 3.10899e-18
8407.12928 3.21830e-18
8408.82687 3.00738e-18
8410.52446 2.73049e-18
8412.22204 2.62772e-18
8413.91963 2.73289e-18
8415.61722 3.00880e-18
8417.31481 3.30897e-18
8419.01240 3.50211e-18
8420.70998 3.63099e-18
8422.40757 3.75644e-18
8424.10516 3.76028e-18
8425.80275 3.54933e-18
8427.50034 3.39295e-18
8429.19792 3.59348e-18
8430.89551 3.92140e-18
8432.59310 3.96548e-18
8434.29069 3.76678e-18
8435.99832 3.60880e-18
8437.69591 3.62225e-18
8439.39350 3.81496e-18
8441.09109 3.97045e-18
8442.77863 3.72386e-18
8444.48626 3.18788e-18
8446.18385 2.90941e-18
8447.88144 3.10841e-18
8449.57903 3.64254e-18
8451.27662 4.27783e-18
8452.97420 4.66173e-18
8454.67179 4.66670e-18
8456.36938 4.52558e-18
8458.06697 4.34935e-18
8459.76456 4.01069e-18
8461.46214 3.48945e-18
8463.15973 2.94249e-18
8464.85732 2.55410e-18
8466.55491 2.55742e-18
8468.25250 3.01495e-18
8469.95008 3.62038e-18
8471.64767 4.06131e-18
8473.34526 4.16523e-18
8475.04285 3.91672e-18
8476.74044 3.65591e-18
8478.43802 3.69291e-18
8480.13561 3.91398e-18
8481.83320 4.08710e-18
8483.53079 4.05430e-18
8485.22838 3.75722e-18
8486.92597 3.44238e-18
8488.62355 3.43577e-18
8490.32114 3.69398e-18
8492.01873 3.98905e-18
8493.71632 4.32786e-18
8495.41391 4.82639e-18
8497.11149 5.34976e-18
8498.80908 5.61370e-18
8500.50667 5.51313e-18
8502.20426 5.11646e-18
8503.90185 4.68538e-18
8505.59943 4.65796e-18
8507.29702 5.08927e-18
8508.99461 5.56815e-18
8510.69220 5.86717e-18
8512.38979 6.03747e-18
8514.08737 6.02896e-18
8515.78496 5.63699e-18
8517.49260 4.88764e-18
8519.19018 4.16428e-18
8520.87773 3.79676e-18
8522.58536 3.99624e-18
8524.27290 4.68356e-18
8525.98054 5.16733e-18
8527.67812 4.99687e-18
8529.37571 4.55835e-18
8531.07330 4.28846e-18
8532.77089 4.30988e-18
8534.46848 4.58732e-18
8536.16606 4.78229e-18
8537.86365 4.60544e-18
8539.56124 4.32170e-18
8541.25883 4.29327e-18
8542.95642 4.44147e-18
8544.65401 4.53165e-18
8546.35159 4.48482e-18
8548.04918 4.31538e-18
8549.74677 4.11757e-18
8551.44436 4.03279e-18
8553.14195 4.12416e-18
8554.83953 4.37772e-18
8556.53712 4.74547e-18
8558.23471 5.14431e-18
8559.93230 5.41880e-18
8561.62989 5.37184e-18
8563.32747 5.08307e-18
8565.02506 4.93123e-18
8566.72265 5.05046e-18
8568.42024 5.25135e-18
8570.11783 5.42985e-18
8571.81542 5.61148e-18
8573.51300 5.78353e-18
8575.21059 5.89453e-18
8576.90818 5.87250e-18
8578.60577 5.58000e-18
8580.30336 5.03357e-18
8582.00094 4.58220e-18
8583.69853 4.46020e-18
8585.39612 4.51801e-18
8587.09371 4.59599e-18
8588.79130 4.69548e-18
8590.48888 4.84098e-18
8592.18647 5.08985e-18
8593.88406 5.43136e-18
8595.58165 5.55520e-18
8597.27924 5.19871e-18
8598.97682 4.59110e-18
8600.67441 4.12142e-18
8602.37200 4.01693e-18
8604.07963 4.34589e-18
8605.76718 4.81713e-18
8607.47481 4.99816e-18
8609.17240 4.94840e-18
8610.86999 5.02789e-18
8612.56757 5.23472e-18
8614.26516 5.32060e-18
8615.96275 5.21952e-18
8617.66034 5.02028e-18
8619.35793 5.01487e-18
8621.05551 5.67672e-18
8622.75310 6.95829e-18
8624.45069 8.20933e-18
8626.14828 8.79640e-18
8627.84587 8.13548e-18
8629.54346 6.34818e-18
8631.24104 4.62964e-18
8632.93863 3.78045e-18
8634.63622 3.77705e-18
8636.33381 4.31025e-18
8638.03140 4.61737e-18
8639.72898 4.30967e-18
8641.42657 4.05515e-18
8643.12416 4.37036e-18
8644.82175 4.97360e-18
8646.51934 5.47543e-18
8648.21692 5.58877e-18
8649.91451 5.20016e-18
8651.61210 4.65840e-18
8653.30969 4.37714e-18
8655.00728 4.43687e-18
8656.70486 4.75929e-18
8658.40245 5.20688e-18
8660.10004 5.61205e-18
8661.79763 5.88687e-18
8663.49522 5.99919e-18
8665.19281 5.86084e-18
8666.89039 5.40369e-18
8668.58798 4.83541e-18
8670.28557 4.52587e-18
8671.98316 4.54095e-18
8673.68075 4.68444e-18
8675.37833 4.87491e-18
8677.07592 5.13293e-18
8678.77351 5.45596e-18
8680.47110 5.83345e-18
8682.16869 6.19112e-18
8683.86627 6.37801e-18
8685.56386 6.29496e-18
8687.26145 5.91186e-18
8688.96908 5.34071e-18
8690.66667 4.90810e-18
8692.36426 4.81652e-18
8694.06185 5.01151e-18
8695.75944 5.35477e-18
8697.45702 5.61278e-18
8699.15461 5.62244e-18
8700.85220 5.41932e-18
8702.54979 5.11570e-18
8704.24738 4.88459e-18
8705.94496 4.86776e-18
8707.64255 5.12335e-18
8709.34014 5.58824e-18
8711.03773 5.85420e-18
8712.73532 5.58464e-18
8714.43291 5.18634e-18
8716.13049 5.21877e-18
8717.82808 5.51765e-18
8719.52567 5.63863e-18
8721.22326 5.53429e-18
8722.92085 5.37840e-18
8724.61843 5.36466e-18
8726.31602 5.66837e-18
8728.01361 6.07420e-18
8729.71120 6.09233e-18
8731.40879 5.76362e-18
8733.10637 5.59800e-18
8734.80396 5.73695e-18
8736.50155 5.94264e-18
8738.19914 6.04616e-18
8739.89673 5.94824e-18
8741.59431 5.65634e-18
8743.29190 5.34172e-18
8744.98949 5.12509e-18
8746.68708 5.02818e-18
8748.38467 5.02265e-18
8750.08226 5.00543e-18
8751.77984 4.90807e-18
8753.47743 4.71741e-18
8755.17502 4.53861e-18
8756.87261 4.75753e-18
8758.57020 5.54735e-18
8760.26778 6.46853e-18
8761.96537 7.05697e-18
8763.66296 7.12626e-18
8765.36055 6.68334e-18
8767.05814 6.12847e-18
8768.75572 5.83032e-18
8770.45331 5.49974e-18
8772.16095 4.74894e-18
8773.85853 3.76516e-18
8775.55612 2.98268e-18
8777.25371 2.87193e-18
8778.95130 3.74308e-18
8780.64889 4.96266e-18
8782.34647 5.42835e-18
8784.04406 5.13986e-18
8785.74165 4.89478e-18
8787.43924 4.88248e-18
8789.13683 4.80747e-18
8790.83441 4.63884e-18
8792.53200 4.54616e-18
8794.22959 4.55989e-18
8795.92718 4.58606e-18
8797.62477 4.50112e-18
8799.32236 4.12905e-18
8801.01994 3.56736e-18
8802.71753 3.33673e-18
8804.41512 3.60293e-18
8806.11271 3.88952e-18
8807.81030 3.89061e-18
8809.50788 3.71781e-18
8811.20547 3.50813e-18
8812.90306 3.38113e-18
8814.60065 3.38308e-18
8816.29824 3.34993e-18
8817.99582 3.16924e-18
8819.69341 2.97844e-18
8821.39100 2.93434e-18
8823.08859 3.08767e-18
8824.78618 3.41784e-18
8826.48376 3.79272e-18
8828.18135 4.06146e-18
8829.87894 4.15557e-18
8831.57653 4.07760e-18
8833.27412 3.95341e-18
8834.97171 3.93864e-18
8836.66929 3.98202e-18
8838.36688 3.92840e-18
8840.06447 3.83347e-18
8841.76206 3.86725e-18
8843.45965 3.92329e-18
8845.15723 3.71361e-18
8846.85482 3.28231e-18
8848.55241 2.96871e-18
8850.25000 2.98784e-18
8851.94759 3.41565e-18
8853.65522 4.13465e-18
8855.34276 4.77386e-18
8857.05040 5.21601e-18
8858.74798 5.75007e-18
8860.44557 6.36215e-18
8862.14316 6.52559e-18
8863.84075 6.03348e-18
8865.53834 5.26186e-18
8867.23592 4.59445e-18
8868.93351 4.35542e-18
8870.63110 4.59661e-18
8872.32869 4.71536e-18
8874.02628 4.33250e-18
8875.72386 3.95568e-18
8877.42145 4.09042e-18
8879.11904 4.74483e-18
8880.81663 5.69656e-18
8882.51422 6.40855e-18
8884.21181 6.42435e-18
8885.90939 5.98025e-18
8887.60698 5.53506e-18
8889.30457 5.13660e-18
8891.00216 4.70861e-18
8892.69975 4.57038e-18
8894.39733 5.10389e-18
8896.09492 5.97889e-18
8897.79251 6.47227e-18
8899.49010 6.47002e-18
8901.18769 6.31375e-18
8902.88527 5.88978e-18
8904.58286 4.76944e-18
8906.28045 3.48783e-18
8907.97804 3.44922e-18
8909.67563 4.66623e-18
8911.37321 5.57005e-18
8913.07080 5.34585e-18
8914.76839 4.18728e-18
8916.46598 2.66254e-18
8918.16357 1.93651e-18
8919.86116 2.36720e-18
8921.55874 2.77047e-18
8923.25633 2.48096e-18
8924.95392 2.11149e-18
8926.65151 2.15890e-18
8928.34910 2.62609e-18
8930.04668 3.34782e-18
8931.74427 3.87133e-18
8933.44186 3.88648e-18
8935.14949 3.65824e-18
8936.83704 3.51310e-18
8938.53462 3.48614e-18
8940.24226 3.53499e-18
8941.93985 3.59451e-18
8943.63743 3.63726e-18
8945.33502 3.94716e-18
8947.03261 4.78193e-18
8948.73020 5.66539e-18
8950.42779 5.89187e-18
8952.12537 5.58832e-18
8953.82296 5.33029e-18
8955.52055 5.14236e-18
8957.21814 4.71282e-18
8958.91573 4.08491e-18
8960.61331 3.55153e-18
8962.31090 3.27233e-18
8964.00849 3.28151e-18
8965.70608 3.51001e-18
8967.40367 3.77653e-18
8969.10125 3.86808e-18
8970.79884 3.53977e-18
8972.49643 2.94907e-18
8974.19402 2.83902e-18
8975.89161 3.43987e-18
8977.58920 4.08991e-18
8979.28678 4.36988e-18
8980.98437 4.46588e-18
8982.68196 4.45190e-18
8984.37955 3.96898e-18
8986.07714 3.02973e-18
8987.77472 2.65319e-18
8989.47231 3.47229e-18
8991.16990 4.66833e-18
8992.86749 5.40115e-18
8994.56508 5.80969e-18
8996.26266 6.17098e-18
8997.96025 6.31101e-18
8999.65784 6.02721e-18
9001.35543 5.42774e-18
9003.05302 4.73221e-18
9004.75061 4.13907e-18
9006.44819 3.77968e-18
9008.14578 3.51911e-18
9009.84337 3.10969e-18
9011.54096 2.57036e-18
9013.23855 2.10930e-18
9014.93613 1.94633e-18
9016.63372 2.27782e-18
9018.33131 3.04628e-18
9020.02890 3.94470e-18
9021.72649 4.70368e-18
9023.43412 5.12788e-18
9025.13171 5.00504e-18
9026.82930 4.11483e-18
9028.52688 2.82674e-18
9030.22447 2.28214e-18
9031.92206 2.84957e-18
9033.61965 3.64930e-18
9035.31724 4.11506e-18
9037.01482 4.37900e-18
9038.71241 4.54706e-18
9040.41000 4.60771e-18
9042.10759 4.54963e-18
9043.80518 4.31558e-18
9045.50276 3.90800e-18
9047.20035 3.52742e-18
9048.89794 3.29557e-18
9050.59553 2.94595e-18
9052.29312 2.30609e-18
9053.99070 1.81244e-18
9055.68829 1.90169e-18
9057.38588 2.42322e-18
9059.08347 3.00283e-18
9060.78106 3.30808e-18
9062.47865 3.12012e-18
9064.17623 2.50435e-18
9065.87382 1.75119e-18
9067.57141 1.51358e-18
9069.26900 2.44720e-18
9070.96659 3.84317e-18
9072.66417 4.14721e-18
9074.36176 3.32081e-18
9076.05935 2.57729e-18
9077.75694 2.42146e-18
9079.45453 2.68937e-18
9081.15211 3.20330e-18
9082.84970 3.71572e-18
9084.54729 3.88892e-18
9086.24488 3.31355e-18
9087.94247 2.20141e-18
9089.64005 1.65310e-18
9091.33764 2.18861e-18
9093.03523 3.32129e-18
9094.73282 4.47803e-18
9096.43041 5.04773e-18
9098.12800 4.81958e-18
9099.82558 4.45429e-18
9101.52317 4.50415e-18
9103.22076 4.95803e-18
9104.92839 5.61053e-18
9106.62598 6.00645e-18
9108.32357 5.82916e-18
9110.01111 5.37533e-18
9111.71875 5.02688e-18
9113.41633 4.82578e-18
9115.11392 4.68482e-18
9116.81151 4.43732e-18
9118.50910 3.96153e-18
9120.20669 3.51774e-18
9121.90427 3.47085e-18
9123.60186 3.78122e-18
9125.29945 4.16678e-18
9126.99704 4.31808e-18
9128.69463 3.97770e-18
9130.39221 3.48530e-18
9132.08980 3.59719e-18
9133.78739 4.19213e-18
9135.48498 4.37849e-18
9137.18257 4.11055e-18
9138.88015 4.19772e-18
9140.57774 4.74763e-18
9142.27533 5.05767e-18
9143.97292 4.90430e-18
9145.67051 4.69277e-18
9147.36810 4.70892e-18
9149.06568 5.07714e-18
9150.76327 5.63523e-18
9152.46086 5.68576e-18
9154.15845 4.92449e-18
9155.85604 3.97870e-18
9157.55362 3.27814e-18
9159.25121 2.41707e-18
9160.94880 1.26411e-18
9162.64639 7.52938e-19
9164.34398 1.50621e-18
9166.04156 2.82602e-18
9167.73915 3.79492e-18
9169.43674 3.80123e-18
9171.13433 2.69344e-18
9172.83192 1.55950e-18
9174.52950 1.60453e-18
9176.22709 2.50091e-18
9177.92468 3.29741e-18
9179.62227 3.58726e-18
9181.31986 3.34630e-18
9183.01745 3.07964e-18
9184.71503 3.53868e-18
9186.42267 4.52070e-18
9188.11021 5.14823e-18
9189.81784 5.12210e-18
9191.50539 4.64915e-18
9193.21302 4.21715e-18
9194.91061 4.58827e-18
9196.60820 5.59086e-18
9198.30578 5.97681e-18
9200.00337 5.39927e-18
9201.70096 4.69040e-18
9203.39855 4.38217e-18
9205.09614 4.57168e-18
9206.79372 5.04809e-18
9208.49131 5.04156e-18
9210.18890 4.28401e-18
9211.88649 3.59181e-18
9213.58408 3.50615e-18
9215.28166 3.66562e-18
9216.97925 3.80662e-18
9218.67684 4.31876e-18
9220.37443 5.31500e-18
9222.07202 5.86894e-18
9223.76960 5.25892e-18
9225.46719 3.97073e-18
9227.16478 2.78875e-18
9228.86237 2.30743e-18
9230.55996 2.80127e-18
9232.25755 3.60715e-18
9233.95513 3.86460e-18
9235.65272 3.74299e-18
9237.35031 3.87676e-18
9239.04790 4.49395e-18
9240.74549 5.52895e-18
9242.44307 6.62024e-18
9244.14066 7.21197e-18
9245.83825 7.08916e-18
9247.53584 6.37149e-18
9249.23343 5.30336e-18
9250.93101 4.25125e-18
9252.62860 3.49598e-18
9254.32619 3.16955e-18
9256.02378 3.32863e-18
9257.72137 3.95180e-18
9259.41895 4.70201e-18
9261.11654 4.82887e-18
9262.81413 4.15014e-18
9264.51172 3.40141e-18
9266.20931 3.09173e-18
9267.91694 3.23553e-18
9269.60448 3.63389e-18
9271.31212 3.68832e-18
9272.99966 3.14270e-18
9274.70729 2.68729e-18
9276.40488 2.84701e-18
9278.10247 3.33936e-18
9279.80006 3.75687e-18
9281.49764 3.77116e-18
9283.19523 3.28153e-18
9284.89282 2.90797e-18
9286.59041 3.24781e-18
9288.28800 3.85415e-18
9289.98559 4.05860e-18
9291.68317 4.17145e-18
9293.38076 4.75653e-18
9295.07835 5.23838e-18
9296.77594 4.69831e-18
9298.47353 3.91301e-18
9300.17111 4.47336e-18
9301.86870 5.86143e-18
9303.56629 6.14619e-18
9305.26388 5.18906e-18
9306.96147 4.33375e-18
9308.65905 4.08298e-18
9310.35664 4.17591e-18
9312.05423 4.25431e-18
9313.75182 3.74615e-18
9315.44941 3.01347e-18
9317.14700 3.71009e-18
9318.84458 6.03094e-18
9320.54217 8.00011e-18
9322.23976 8.21951e-18
9323.93735 6.35401e-18
9325.63494 2.96513e-18
9327.33252 2.11756e-19
9329.03011 -6.50810e-19
9330.72770 -8.60459e-19
9332.42529 -1.44761e-18
9334.12288 -1.96849e-18
9335.82046 -1.83938e-18
9337.51805 -7.21298e-19
9339.21564 1.41042e-18
9340.91323 3.86293e-18
9342.61082 5.81774e-18
9344.30840 6.87801e-18
9346.00599 6.93460e-18
9347.70358 6.08763e-18
9349.41121 4.67369e-18
9351.09876 3.45044e-18
9352.80639 3.18042e-18
9354.49393 3.75907e-18
9356.20157 4.51465e-18
9357.89915 4.89364e-18
9359.59674 4.50979e-18
9361.29433 3.55381e-18
9362.99192 2.71442e-18
9364.68951 2.11790e-18
9366.38709 1.36099e-18
9368.08468 5.66278e-19
9369.78227 3.57229e-19
9371.47986 1.02484e-18
9373.17745 2.51361e-18
9374.87504 4.14506e-18
9376.57262 4.32890e-18
9378.27021 2.83180e-18
9379.96780 1.67371e-18
9381.66539 2.03123e-18
9383.36298 3.30093e-18
9385.06056 4.69794e-18
9386.75815 5.32170e-18
9388.45574 4.87675e-18
9390.15333 4.67571e-18
9391.85092 5.59345e-18
9393.54850 6.50920e-18
9395.24609 6.40951e-18
9396.94368 5.88264e-18
9398.64127 5.70303e-18
9400.33886 5.92871e-18
9402.03644 6.29595e-18
9403.73403 6.13988e-18
9405.43162 4.92418e-18
9407.12921 3.23758e-18
9408.82680 2.13810e-18
9410.52439 2.24410e-18
9412.22197 3.69461e-18
9413.91956 5.70416e-18
9415.61715 6.93668e-18
9417.31474 6.78742e-18
9419.01233 5.36747e-18
9420.70991 3.52695e-18
9422.40750 2.72568e-18
9424.10509 2.97966e-18
9425.80268 2.77905e-18
9427.50027 1.94399e-18
9429.19785 1.85672e-18
9430.89544 2.74924e-18
9432.59303 3.33184e-18
9434.29062 3.21662e-18
9435.98821 3.42293e-18
9437.69584 4.39162e-18
9439.39343 5.53284e-18
9441.09102 6.25327e-18
9442.78860 6.01323e-18
9444.48619 4.78902e-18
9446.18378 3.66573e-18
9447.88137 3.46183e-18
9449.57896 3.92208e-18
9451.27654 4.54681e-18
9452.97413 4.81835e-18
9454.67172 4.43296e-18
9456.36931 3.69620e-18
9458.06690 3.11927e-18
9459.76449 3.25413e-18
9461.46207 4.37224e-18
9463.15966 5.67597e-18
9464.85725 6.11378e-18
9466.55484 5.77946e-18
9468.25243 5.33545e-18
9469.95001 4.99960e-18
9471.64760 4.71512e-18
9473.34519 4.31159e-18
9475.04278 3.55156e-18
9476.74037 2.50581e-18
9478.43795 1.52499e-18
9480.13554 1.30681e-18
9481.83313 2.79852e-18
9483.53072 5.40790e-18
9485.22831 6.87187e-18
9486.92589 6.49786e-18
9488.62348 5.62768e-18
9490.32107 5.04872e-18
9492.01866 4.71167e-18
9493.71625 4.49364e-18
9495.41384 4.06079e-18
9497.11142 3.42319e-18
9498.80901 3.37040e-18
9500.50660 4.20377e-18
9502.20419 5.02653e-18
9503.90178 5.21487e-18
9505.59936 5.24421e-18
9507.29695 5.47518e-18
9508.99454 5.39943e-18
9510.69213 4.61415e-18
9512.38972 3.56509e-18
9514.08730 2.77978e-18
9515.78489 2.10847e-18
9517.48248 1.38029e-18
9519.19011 1.40612e-18
9520.88770 2.92732e-18
9522.58529 4.78294e-18
9524.28288 5.25817e-18
9525.98047 4.54252e-18
9527.67805 3.87797e-18
9529.37564 3.86702e-18
9531.07323 4.62021e-18
9532.77082 5.69627e-18
9534.46841 6.20172e-18
9536.16599 5.91969e-18
9537.86358 5.29365e-18
9539.56117 4.70543e-18
9541.25876 4.47940e-18
9542.95635 4.57855e-18
9544.65394 4.50120e-18
9546.35152 4.00098e-18
9548.04911 3.20415e-18
9549.74670 2.34611e-18
9551.44429 1.76753e-18
9553.14188 1.79672e-18
9554.83946 2.83834e-18
9556.53705 4.59559e-18
9558.23464 5.28251e-18
9559.93223 4.13343e-18
9561.62982 3.12802e-18
9563.32740 3.68201e-18
9565.02499 4.66270e-18
9566.72258 4.86291e-18
9568.42017 4.29068e-18
9570.11776 3.35717e-18
9571.81534 2.72876e-18
9573.51293 2.99175e-18
9575.21052 4.14832e-18
9576.90811 5.83567e-18
9578.60570 7.43628e-18
9580.30329 8.30788e-18
9582.00087 8.21810e-18
9583.69846 7.28199e-18
9585.39605 5.84425e-18
9587.09364 4.40274e-18
9588.79123 3.40629e-18
9590.48881 3.16441e-18
9592.18640 3.42848e-18
9593.88399 3.49112e-18
9595.58158 3.45855e-18
9597.27917 4.22115e-18
9598.97675 5.56728e-18
9600.67434 6.09153e-18
9602.38198 5.49066e-18
9604.07956 4.86091e-18
9605.76711 4.74867e-18
9607.47474 4.87460e-18
9609.17233 4.95900e-18
9610.86992 4.72886e-18
9612.56750 4.12170e-18
9614.26509 3.47948e-18
9615.96268 3.12652e-18
9617.66027 3.27906e-18
9619.35786 3.89795e-18
9621.05544 4.44224e-18
9622.75303 4.44018e-18
9624.45062 3.76937e-18
9626.14821 2.64257e-18
9627.84580 1.93771e-18
9629.54339 2.39285e-18
9631.24097 3.71688e-18
9632.93856 5.21982e-18
9634.63615 6.30050e-18
9636.33374 6.53858e-18
9638.03133 6.03391e-18
9639.72891 5.20933e-18
9641.42650 4.45995e-18
9643.12409 4.09481e-18
9644.82168 4.05709e-18
9646.51927 4.03345e-18
9648.21685 4.02247e-18
9649.91444 4.24811e-18
9651.61203 4.85992e-18
9653.30962 5.94488e-18
9655.00721 6.79004e-18
9656.70479 5.87931e-18
9658.40238 3.61216e-18
9660.09997 2.66364e-18
9661.79756 4.13003e-18
9663.49515 6.92316e-18
9665.19274 9.68563e-18
9666.89032 1.07278e-17
9668.58791 9.52371e-18
9670.28550 7.70244e-18
9671.98309 6.55881e-18
9673.68068 6.23186e-18
9675.37826 6.47296e-18
9677.07585 6.53582e-18
9678.77344 5.81717e-18
9680.47103 4.27220e-18
9682.16862 2.26074e-18
9683.86620 8.53834e-19
9685.56379 8.65107e-19
9687.26138 1.80341e-18
9688.96901 2.77515e-18
9690.66660 3.08713e-18
9692.36419 2.40794e-18
9694.06178 1.50447e-18
9695.75937 1.43771e-18
9697.45695 1.98033e-18
9699.15454 2.25975e-18
9700.85213 2.03424e-18
9702.54972 1.49093e-18
9704.24731 1.03882e-18
9705.94489 1.22884e-18
9707.64248 1.96911e-18
9709.34007 2.59932e-18
9711.03766 2.81270e-18
9712.73525 2.66106e-18
9714.43283 2.40061e-18
9716.13042 2.54139e-18
9717.82801 3.12257e-18
9719.52560 3.55361e-18
9721.22319 3.48158e-18
9722.92078 2.90001e-18
9724.61836 2.10068e-18
9726.31595 1.87464e-18
9728.01354 2.53574e-18
9729.71113 3.42489e-18
9731.40872 3.97907e-18
9733.10630 4.06798e-18
9734.80389 3.79009e-18
9736.50148 3.64663e-18
9738.19907 3.97459e-18
9739.89666 4.49089e-18
9741.59424 4.77560e-18
9743.29183 4.35616e-18
9744.98942 3.09136e-18
9746.68701 2.06269e-18
9748.38460 2.32749e-18
9750.08219 3.12493e-18
9751.77977 3.15823e-18
9753.47736 2.28743e-18
9755.17495 1.06697e-18
9756.87254 5.31963e-19
9758.57013 1.73754e-18
9760.26771 3.90391e-18
9761.96530 5.05118e-18
9763.66289 4.51985e-18
9765.36048 2.82388e-18
9767.05807 1.08098e-18
9768.75565 9.56081e-19
9770.45324 2.47391e-18
9772.16088 3.81279e-18
9773.85846 4.27368e-18
9775.55605 4.56803e-18
9777.25364 5.10902e-18
9778.95123 5.93705e-18
9780.64882 6.90485e-18
9782.34640 7.55018e-18
9784.04399 7.51617e-18
9785.74158 6.64164e-18
9787.43917 5.11811e-18
9789.13676 3.79746e-18
9790.83434 3.19886e-18
9792.53193 2.87468e-18
9794.22952 2.37339e-18
9795.92711 1.63779e-18
9797.62470 8.28051e-19
9799.32228 5.95560e-19
9801.01987 1.34507e-18
9802.71746 2.17156e-18
9804.41505 2.12878e-18
9806.11264 1.79158e-18
9807.81023 2.09981e-18
9809.50781 2.97457e-18
9811.20540 3.83966e-18
9812.90299 4.02033e-18
9814.60058 2.98809e-18
9816.29817 1.45102e-18
9817.99575 8.24606e-19
9819.69334 1.24356e-18
9821.39093 1.85515e-18
9823.08852 2.38675e-18
9824.78611 3.02427e-18
9826.48369 3.53977e-18
9828.18128 3.38278e-18
9829.87887 2.74731e-18
9831.57646 2.63960e-18
9833.27405 3.44401e-18
9834.97163 4.73212e-18
9836.66922 5.91659e-18
9838.36681 6.18984e-18
9840.06440 5.35281e-18
9841.76199 4.27968e-18
9843.45958 3.62207e-18
9845.15716 3.38980e-18
9846.85475 3.45374e-18
9848.55234 3.53961e-18
9850.24993 3.45188e-18
9851.94752 3.34607e-18
9853.65515 3.32697e-18
9855.34269 3.08495e-18
9857.05033 2.42171e-18
9858.74791 1.83146e-18
9860.44550 1.78497e-18
9862.14309 1.78884e-18
9863.84068 1.29957e-18
9865.53827 1.19247e-18
9867.23585 2.53141e-18
9868.93344 4.20459e-18
9870.63103 4.41002e-18
9872.32862 4.13606e-18
9874.02621 5.65121e-18
9875.72379 8.23861e-18
9877.42138 9.25968e-18
9879.11897 7.54575e-18
9880.81656 3.26943e-18
9882.51415 -1.54387e-18
9884.21173 -3.17903e-18
9885.90932 -1.20344e-18
9887.60691 1.13334e-18
9889.30450 1.97516e-18
9891.00209 1.21836e-18
9892.69968 -2.91310e-19
9894.39726 -2.08569e-19
9896.09485 2.08116e-18
9897.79244 4.21425e-18
9899.49003 4.53614e-18
9901.18762 2.96070e-18
9902.88520 1.99794e-19
9904.58279 -1.67638e-18
9906.28038 -1.44139e-18
9907.97797 -3.40230e-19
9909.67556 3.65256e-19
9911.37314 6.73126e-19
9913.07073 8.70315e-19
9914.76832 1.27400e-18
9916.46591 2.09765e-18
9918.16350 3.12689e-18
9919.86108 3.98791e-18
9921.55867 4.34176e-18
9923.25626 4.00350e-18
9924.95385 3.22941e-18
9926.65144 2.49360e-18
9928.34903 2.21519e-18
9930.04661 2.62823e-18
9931.74420 3.14373e-18
9933.44179 2.74814e-18
9935.14942 1.70883e-18
9936.83697 1.23424e-18
9938.54460 1.50627e-18
9940.23214 1.82013e-18
9941.93978 1.79518e-18
9943.63736 1.33322e-18
9945.33495 6.77673e-19
9947.03254 5.45308e-19
9948.73013 8.50847e-19
9950.42772 3.69235e-19
9952.12530 -1.10690e-18
9953.82289 -2.19739e-18
9955.52048 -2.06181e-18
9957.21807 -9.31302e-19
9958.91566 8.37538e-19
9960.61324 2.83221e-18
9962.31083 4.70683e-18
9964.00842 6.48483e-18
9965.70601 7.98506e-18
9967.40360 8.29106e-18
9969.10118 6.88502e-18
9970.79877 4.47882e-18
9972.49636 2.13273e-18
9974.19395 9.19579e-19
9975.89154 1.44824e-18
9977.58913 2.96631e-18
9979.28671 4.26038e-18
9980.98430 4.73410e-18
9982.68189 4.21972e-18
9984.37948 2.85132e-18
9986.07707 1.06691e-18
9987.77465 -4.77242e-19
9989.47224 -1.11443e-18
9991.16983 -5.46604e-19
9992.86742 1.10294e-18
9994.56501 2.73858e-18
9996.26259 2.61097e-18
9997.96018 1.17899e-18
9999.65777 1.00231e-18
