# wavelength flux
3485.00480 -7.87389e-18
3486.47202 5.26776e-18
3487.93924 1.26189e-17
3489.40645 1.19824e-17
3490.88386 1.06380e-17
3492.35107 1.11693e-17
3493.81829 1.17005e-17
3495.28550 1.22316e-17
3496.76291 1.27626e-17
3498.23013 1.32936e-17
3499.69734 1.32923e-17
3501.17475 1.63734e-18
3502.64196 -3.87083e-18
3504.10918 7.78456e-18
3505.57640 -9.50896e-19
3507.05380 -2.22087e-18
3508.52102 1.70388e-17
3509.98823 1.95872e-17
3511.45545 2.64187e-18
3512.93285 2.19075e-18
3514.40007 6.90130e-19
3515.86728 -1.07627e-18
3517.34469 2.77379e-18
3518.81191 -1.32032e-18
3520.27912 -6.43825e-18
3521.74634 2.52875e-18
3523.22374 7.34669e-18
3524.69096 3.62579e-18
3526.15817 5.70981e-18
3527.62539 3.23134e-18
3529.10280 3.75198e-18
3530.57001 7.57206e-18
3532.03723 9.15615e-18
3533.51463 3.05093e-18
3534.98185 -5.85028e-18
3536.44906 2.64422e-19
3537.91628 8.77095e-18
3539.39369 1.31098e-17
3540.86090 1.32524e-17
3542.32812 1.13400e-17
3543.79533 9.87085e-18
3545.27274 1.38077e-17
3546.73995 1.14864e-17
3548.20717 1.05298e-17
3549.68458 1.28931e-17
3551.15179 -2.66640e-20
3552.61901 9.01418e-18
3554.08622 1.82704e-17
3555.56363 1.06755e-17
3557.03084 -1.81722e-18
3558.49806 1.50851e-19
3559.96528 1.80482e-18
3561.44268 -2.20762e-19
3562.90990 8.11570e-18
3564.37711 2.03605e-17
3565.85452 2.85559e-17
3567.32173 1.93580e-17
3568.78895 1.43089e-17
3570.25617 2.08676e-17
3571.73357 1.68626e-17
3573.20079 4.39173e-18
3574.66800 -9.74882e-19
3576.13522 5.40258e-18
3577.61262 1.06021e-18
3579.07984 4.54350e-18
3580.54706 1.69919e-17
3582.02446 1.77926e-17
3583.49168 2.05768e-17
3584.95889 1.36194e-17
3586.42611 7.30342e-18
3587.90351 -2.53422e-19
3589.37073 4.78499e-19
3590.83795 1.17114e-17
3592.30516 2.06798e-17
3593.78257 1.90328e-17
3595.24978 1.09671e-17
3596.71700 8.53167e-18
3598.19440 3.70848e-18
3599.66162 1.36765e-18
3601.12884 3.05461e-18
3602.59605 6.43936e-18
3604.07346 7.17794e-18
3605.54067 6.98569e-18
3607.00789 3.75598e-18
3608.47511 8.88024e-19
3609.95251 8.82676e-18
3611.41973 1.42987e-17
3612.88694 7.24196e-18
3614.36435 6.01832e-18
3615.83156 -3.10586e-18
3617.29878 -3.84828e-18
3618.76600 1.08090e-17
3620.24340 1.90028e-17
3621.71062 8.81439e-18
3623.17783 7.64138e-18
3624.64505 5.45264e-18
3626.12245 6.63550e-18
3627.58967 6.15834e-18
3629.05689 1.10148e-18
3630.53429 3.81414e-18
3632.00151 9.62152e-20
3633.46872 5.42821e-18
3634.93594 1.11880e-17
3636.41334 5.23082e-18
3637.88056 6.43816e-18
3639.34778 7.26501e-19
3640.81499 1.42462e-17
3642.29240 1.11184e-17
3643.75961 -1.25075e-18
3645.22683 3.17084e-18
3646.70423 7.16191e-18
3648.17145 7.62214e-18
3649.63867 1.30374e-17
3651.10588 1.33622e-17
3652.58329 5.89545e-18
3654.05050 2.77196e-18
3655.51772 8.50825e-18
3656.98493 5.86240e-18
3658.46234 8.03925e-18
3659.92956 2.03965e-17
3661.39677 1.47054e-17
3662.87418 -2.80243e-18
3664.34139 -5.27847e-18
3665.80861 3.09960e-18
3667.27582 -4.14921e-18
3668.75323 2.14925e-18
3670.22045 1.25457e-17
3671.68766 4.30246e-18
3673.15488 4.08253e-20
3674.63228 5.45830e-19
3676.09950 7.84714e-18
3677.56671 1.34683e-17
3679.04412 1.89947e-17
3680.51134 1.37705e-17
3681.97855 6.49268e-18
3683.44577 7.62327e-18
3684.92317 2.62557e-18
3686.39039 7.13261e-18
3687.85760 2.16881e-18
3689.33501 -7.32304e-18
3690.80223 -3.12561e-18
3692.26944 4.77121e-18
3693.73666 5.48218e-18
3695.21406 3.60868e-18
3696.68128 1.52590e-17
3698.14849 1.01055e-17
3699.61571 1.00355e-17
3701.09312 9.09816e-18
3702.56033 1.74468e-17
3704.02755 1.09093e-17
3705.49476 2.74866e-18
3706.97217 7.39060e-18
3708.43938 1.78145e-17
3709.90660 9.84050e-18
3711.38401 7.87170e-18
3712.85122 7.15513e-18
3714.31844 3.82343e-18
3715.78565 6.31971e-18
3717.26306 7.81537e-18
3718.73027 1.01988e-17
3720.19749 7.69604e-18
3721.67490 -2.01816e-18
3723.14211 -1.77207e-18
3724.60933 1.17998e-17
3726.07654 1.25156e-17
3727.55395 6.21593e-18
3729.02116 8.33588e-18
3730.48838 1.08273e-17
3731.95560 1.09721e-17
3733.43300 1.63075e-17
3734.90022 1.11172e-17
3736.36743 4.90228e-18
3737.84484 3.78300e-18
3739.31205 4.81278e-18
3740.77927 7.90822e-18
3742.24649 1.12014e-17
3743.72389 6.21279e-18
3745.19111 5.21704e-18
3746.65832 1.59874e-17
3748.12554 1.27060e-17
3749.60295 1.11224e-17
3751.07016 1.39014e-17
3752.53738 8.96094e-18
3754.01478 2.07527e-18
3755.48200 1.02328e-17
3756.94921 1.40562e-17
3758.41643 9.20779e-18
3759.89383 7.62558e-18
3761.36105 1.55211e-17
3762.82827 1.65979e-17
3764.29548 1.50763e-18
3765.77289 -2.42880e-18
3767.24010 1.40589e-18
3768.70732 -4.54822e-19
3770.18472 -3.50239e-19
3771.65194 6.33534e-18
3773.11916 4.73971e-18
3774.58637 9.55793e-18
3776.06378 1.55550e-17
3777.53099 1.96393e-17
3778.99821 1.64899e-17
3780.46543 7.69789e-18
3781.94283 6.72491e-18
3783.41005 8.56750e-18
3784.87726 1.53979e-17
3786.35467 1.50295e-17
3787.82188 1.18747e-17
3789.28910 4.16105e-18
3790.75632 5.75494e-18
3792.23372 8.18094e-18
3793.70094 1.43566e-18
3795.16815 7.35561e-18
3796.63537 6.21226e-18
3798.11277 7.63298e-18
3799.57999 2.07607e-18
3801.04721 3.15762e-18
3802.52461 7.92750e-18
3803.99183 1.00902e-17
3805.45904 1.23181e-17
3806.92626 1.02217e-17
3808.40366 8.51985e-18
3809.87088 1.48584e-17
3811.33810 6.90786e-18
3812.80531 1.88527e-20
3814.28272 1.72913e-18
3815.74993 6.53253e-18
3817.21715 9.66938e-18
3818.69455 9.29849e-18
3820.16177 5.95323e-18
3821.62899 7.17201e-18
3823.09620 7.12323e-18
3824.57361 4.18481e-18
3826.04082 -9.90116e-18
3827.50804 -6.20689e-18
3828.97525 3.29900e-18
3830.45266 1.52136e-18
3831.91988 9.16959e-19
3833.38709 3.71054e-18
3834.86450 2.47373e-18
3836.33171 5.93153e-18
3837.79893 1.81465e-18
3839.26615 2.54571e-18
3840.74355 2.89328e-18
3842.21077 3.54089e-18
3843.67798 1.64816e-18
3845.14520 -9.37264e-19
3846.62260 -4.02456e-18
3848.08982 -1.90590e-18
3849.55703 8.51196e-18
3851.03444 7.55479e-18
3852.50166 8.57376e-19
3853.96887 -2.15275e-18
3855.43609 1.87741e-18
3856.91349 2.56998e-18
3858.38071 7.50299e-18
3859.84792 1.02870e-17
3861.31514 4.71222e-18
3862.79255 -1.83692e-18
3864.25976 -5.29172e-18
3865.72698 2.38440e-19
3867.20438 4.03252e-18
3868.67160 6.29637e-19
3870.13881 -1.68955e-18
3871.60603 3.54212e-18
3873.08344 8.57304e-18
3874.55065 2.36310e-18
3876.01787 -5.55953e-18
3877.48508 6.51649e-18
3878.96249 9.53337e-18
3880.42970 4.10025e-18
3881.89692 1.51457e-18
3883.37433 7.35838e-19
3884.84154 2.09875e-18
3886.30876 1.95727e-18
3887.77597 -8.72548e-21
3889.25338 7.00982e-18
3890.72059 7.95748e-18
3892.18781 4.15903e-18
3893.65503 2.42885e-18
3895.13243 4.60121e-18
3896.59965 3.32274e-18
3898.06686 3.85612e-18
3899.54427 8.08954e-18
3901.01148 3.34979e-18
3902.47870 3.00335e-18
3903.94592 2.14525e-18
3905.42332 -3.74270e-18
3906.89054 -5.11070e-18
3908.35775 -4.55685e-19
3909.82497 -1.89966e-18
3911.30237 1.73737e-18
3912.76959 7.09640e-18
3914.23681 -2.60427e-19
3915.71421 -6.61865e-18
3917.18143 8.49802e-19
3918.64864 6.34519e-18
3920.11586 3.67753e-18
3921.59326 1.45493e-18
3923.06048 -2.26308e-18
3924.52770 4.85118e-18
3925.99491 1.07498e-17
3927.47232 8.65213e-18
3928.93953 3.45355e-18
3930.40675 -3.78647e-19
3931.88415 -1.73129e-19
3933.35137 3.56850e-18
3934.81859 9.71099e-18
3936.28580 6.09345e-18
3937.76321 4.84466e-18
3939.23042 8.96906e-18
3940.69764 8.74448e-19
3942.16486 -3.07702e-18
3943.64226 2.76499e-19
3945.10948 -1.75322e-18
3946.57669 1.66632e-18
3948.05410 4.22660e-18
3949.52131 -2.33362e-18
3950.98853 -1.28114e-18
3952.45575 5.38185e-18
3953.93315 5.36740e-18
3955.40037 2.87309e-18
3956.86758 2.99691e-18
3958.34499 3.87747e-18
3959.81220 1.66881e-19
3961.27942 2.77534e-18
3962.74664 4.17072e-18
3964.22404 4.60542e-18
3965.69126 3.03352e-18
3967.15847 8.22073e-18
3968.62569 9.89139e-18
3970.10309 1.96364e-18
3971.57031 6.83322e-18
3973.03753 1.66704e-17
3974.50474 1.14922e-17
3975.98215 4.60361e-18
3977.44936 2.56022e-18
3978.91658 6.82022e-18
3980.39398 9.37096e-18
3981.86120 4.92813e-18
3983.32842 5.20244e-18
3984.79563 7.97590e-18
3986.27304 1.14537e-17
3987.74025 1.06823e-17
3989.20747 9.79014e-18
3990.68487 1.05828e-17
3992.15209 8.55832e-18
3993.61931 1.32323e-17
3995.08652 1.25829e-17
3996.56393 9.58139e-18
3998.03114 8.96985e-18
3999.49836 6.78819e-18
4000.96557 8.77425e-18
4002.44298 8.82193e-18
4003.91020 1.30522e-17
4005.37741 1.30955e-17
4006.85482 1.12778e-17
4008.32203 1.04698e-17
4009.78925 1.06622e-17
4011.25646 1.48554e-17
4012.73387 1.64224e-17
4014.20109 1.54007e-17
4015.66830 1.47293e-17
4017.13552 1.02627e-17
4018.61292 1.21688e-17
4020.08014 1.02320e-17
4021.54735 9.91663e-18
4023.02476 8.78719e-18
4024.49198 6.76495e-18
4025.95919 7.61585e-18
4027.42641 9.46192e-18
4028.90381 6.38058e-18
4030.37103 9.85226e-18
4031.83824 1.35148e-17
4033.30546 9.73845e-18
4034.78287 1.02511e-17
4036.25008 1.50171e-17
4037.71730 1.32410e-17
4039.19470 5.92655e-18
4040.66192 8.47919e-18
4042.12913 1.07837e-17
4043.59635 7.87069e-18
4045.07376 9.25960e-18
4046.54097 1.16029e-17
4048.00819 1.40849e-17
4049.47540 1.08671e-17
4050.95281 1.56300e-17
4052.42002 1.21885e-17
4053.88724 1.21768e-17
4055.36465 1.34474e-17
4056.83186 1.43007e-17
4058.29908 1.60607e-17
4059.76629 1.65655e-17
4061.24370 1.29736e-17
4062.71091 1.23697e-17
4064.17813 1.08832e-17
4065.64535 1.15336e-17
4067.12275 1.25376e-17
4068.58997 1.57061e-17
4070.05718 9.95356e-18
4071.53459 9.37341e-18
4073.00180 1.20792e-17
4074.46902 1.27864e-17
4075.93624 1.40026e-17
4077.41364 1.77790e-17
4078.88086 1.67498e-17
4080.34807 1.20069e-17
4081.81529 9.39527e-18
4083.29269 8.05146e-18
4084.75991 1.61427e-17
4086.22713 1.50544e-17
4087.70453 1.53022e-17
4089.17175 1.78985e-17
4090.63896 1.42261e-17
4092.10618 1.05276e-17
4093.58358 1.35490e-17
4095.05080 1.70543e-17
4096.51802 1.66990e-17
4097.98523 9.56751e-18
4099.46264 9.52111e-18
4100.92985 1.13402e-17
4102.39707 8.10485e-18
4103.87447 1.32753e-17
4105.34169 1.71283e-17
4106.80891 1.59099e-17
4108.27612 1.18820e-17
4109.75353 1.42378e-17
4111.22074 1.81929e-17
4112.68796 1.56578e-17
4114.15518 1.41852e-17
4115.63258 1.13772e-17
4117.09980 8.65460e-18
4118.56701 1.19467e-17
4120.04442 1.50859e-17
4121.51163 1.28106e-17
4122.97885 1.06690e-17
4124.44607 8.95283e-18
4125.92347 1.04905e-17
4127.39069 1.33799e-17
4128.85790 1.49897e-17
4130.32512 1.18783e-17
4131.80252 1.11559e-17
4133.26974 1.31509e-17
4134.73696 1.19103e-17
4136.21436 1.03672e-17
4137.68158 1.00550e-17
4139.14879 1.08219e-17
4140.61601 1.10477e-17
4142.09341 1.32745e-17
4143.56063 1.24915e-17
4145.02785 1.14456e-17
4146.49506 8.34742e-18
4147.97247 6.98961e-18
4149.43968 1.15078e-17
4150.90690 1.23075e-17
4152.38430 1.20073e-17
4153.85152 1.07380e-17
4155.31874 1.25364e-17
4156.78595 1.21166e-17
4158.26336 1.03868e-17
4159.73057 1.05130e-17
4161.19779 1.12070e-17
4162.66500 9.21530e-18
4164.14241 1.18936e-17
4165.60963 1.19177e-17
4167.07684 6.74192e-18
4168.55425 7.51038e-18
4170.02146 1.15957e-17
4171.48868 1.22185e-17
4172.95590 1.10009e-17
4174.43330 1.13166e-17
4175.90052 9.89336e-18
4177.36773 7.73138e-18
4178.83495 9.69126e-18
4180.31235 1.41505e-17
4181.77957 8.58458e-18
4183.24678 7.93133e-18
4184.72419 1.14799e-17
4186.19141 1.40286e-17
4187.65862 1.08946e-17
4189.12584 1.11444e-17
4190.60324 1.17752e-17
4192.07046 1.12387e-17
4193.53767 1.31306e-17
4195.00489 1.03001e-17
4196.48230 1.18519e-17
4197.94951 1.20751e-17
4199.41673 1.27966e-17
4200.89413 1.27392e-17
4202.36135 1.15459e-17
4203.82856 1.09257e-17
4205.29578 1.27598e-17
4206.77319 1.16583e-17
4208.24040 1.25447e-17
4209.70762 1.20368e-17
4211.17483 1.26460e-17
4212.65224 1.08225e-17
4214.11945 9.00630e-18
4215.58667 9.47943e-18
4217.06408 1.16631e-17
4218.53129 1.26661e-17
4219.99851 1.01925e-17
4221.46572 1.14070e-17
4222.94313 1.13274e-17
4224.41035 1.31790e-17
4225.87756 1.88792e-17
4227.35497 1.46811e-17
4228.82218 1.54902e-17
4230.28940 1.44607e-17
4231.75661 1.42092e-17
4233.23402 9.97287e-18
4234.70123 1.03166e-17
4236.16845 1.20174e-17
4237.63567 1.06631e-17
4239.11307 1.02243e-17
4240.58029 9.83513e-18
4242.04750 1.21624e-17
4243.52491 1.14620e-17
4244.99212 9.93895e-18
4246.45934 1.19906e-17
4247.92656 1.30192e-17
4249.40396 8.11495e-18
4250.87118 6.36425e-18
4252.33839 1.05038e-17
4253.80561 1.28488e-17
4255.28301 1.26704e-17
4256.75023 1.00414e-17
4258.21745 9.71112e-18
4259.68466 1.25302e-17
4261.16207 9.42957e-18
4262.62928 7.36763e-18
4264.09650 1.10880e-17
4265.57390 1.22008e-17
4267.04112 7.87576e-18
4268.50834 9.18537e-18
4269.97555 1.49945e-17
4271.45296 1.14362e-17
4272.92017 9.17705e-18
4274.38739 1.22822e-17
4275.85461 1.43767e-17
4277.33201 1.14637e-17
4278.79923 9.82439e-18
4280.26644 7.69010e-18
4281.74385 5.06546e-18
4283.21106 6.77231e-18
4284.67828 9.40496e-18
4286.14550 8.30516e-18
4287.62290 1.09514e-17
4289.09012 1.40196e-17
4290.55733 1.03926e-17
4292.03474 9.86165e-18
4293.50195 1.08980e-17
4294.96917 8.03159e-18
4296.43639 9.51945e-18
4297.91379 9.89088e-18
4299.38101 6.83703e-18
4300.84822 9.30764e-18
4302.31544 1.06573e-17
4303.79284 1.06327e-17
4305.26006 1.16115e-17
4306.72728 1.34351e-17
4308.20468 1.09198e-17
4309.67190 1.03433e-17
4311.13911 1.10251e-17
4312.60633 1.09278e-17
4314.08373 1.25148e-17
4315.55095 9.98836e-18
4317.01817 7.85664e-18
4318.48538 8.41666e-18
4319.96279 1.13254e-17
4321.43000 1.09063e-17
4322.89722 6.63921e-18
4324.37462 7.90311e-18
4325.84184 7.74705e-18
4327.30906 8.86576e-18
4328.77627 1.18386e-17
4330.25368 1.01907e-17
4331.72089 7.99989e-18
4333.18811 7.76711e-18
4334.65532 8.34573e-18
4336.13273 7.49305e-18
4337.59995 7.46100e-18
4339.06716 9.16662e-18
4340.54457 9.32727e-18
4342.01178 7.57104e-18
4343.47900 8.22372e-18
4344.94621 8.92522e-18
4346.42362 1.00742e-17
4347.89084 8.49581e-18
4349.35805 1.09986e-17
4350.82527 1.07481e-17
4352.30267 1.11357e-17
4353.76989 1.23101e-17
4355.23710 1.17774e-17
4356.71451 8.41778e-18
4358.18173 6.67760e-18
4359.64894 7.50255e-18
4361.11616 9.12665e-18
4362.59356 1.06546e-17
4364.06078 1.22865e-17
4365.52799 1.14939e-17
4366.99521 9.89340e-18
4368.47262 6.35491e-18
4369.93983 7.07964e-18
4371.40705 7.08342e-18
4372.88445 8.19730e-18
4374.35167 1.30232e-17
4375.81888 7.58877e-18
4377.28610 1.97309e-18
4378.76351 8.13231e-18
4380.23072 1.17676e-17
4381.69794 8.55086e-18
4383.16515 8.07516e-18
4384.64256 7.01830e-18
4386.10977 7.96848e-18
4387.57699 8.92671e-18
4389.05440 8.88503e-18
4390.52161 1.34245e-17
4391.98883 1.03663e-17
4393.45604 7.56644e-18
4394.93345 8.75726e-18
4396.40067 1.07183e-17
4397.86788 1.19689e-17
4399.33510 9.55034e-18
4400.81250 9.41298e-18
4402.27972 7.90893e-18
4403.74693 6.75500e-18
4405.22434 1.04142e-17
4406.69155 1.06774e-17
4408.15877 9.32517e-18
4409.62599 8.85251e-18
4411.10339 9.58962e-18
4412.57061 7.98719e-18
4414.03782 8.49531e-18
4415.50504 1.00440e-17
4416.98244 1.00083e-17
4418.44966 9.86078e-18
4419.91688 7.68530e-18
4421.39428 7.32161e-18
4422.86150 9.95989e-18
4424.32871 6.82858e-18
4425.79593 5.93668e-18
4427.27333 8.70651e-18
4428.74055 8.03725e-18
4430.20777 7.27923e-18
4431.68517 8.50823e-18
4433.15239 7.88706e-18
4434.61960 8.36496e-18
4436.08682 9.13726e-18
4437.56423 9.88531e-18
4439.03144 9.41816e-18
4440.49866 7.24287e-18
4441.96587 6.72717e-18
4443.44328 6.01055e-18
4444.91049 8.44042e-18
4446.37771 5.99849e-18
4447.84493 8.52819e-18
4449.32233 5.74286e-18
4450.78955 7.04694e-18
4452.25676 9.33865e-18
4453.73417 7.55086e-18
4455.20138 6.82661e-18
4456.66860 6.26116e-18
4458.13582 3.60234e-18
4459.61322 5.87907e-18
4461.08044 5.56751e-18
4462.54765 5.70285e-18
4464.01487 7.33023e-18
4465.49227 6.27602e-18
4466.95949 4.57944e-18
4468.42671 6.06908e-18
4469.90411 6.59118e-18
4471.37133 3.63252e-18
4472.83854 4.86664e-18
4474.30576 7.82093e-18
4475.78316 5.79208e-18
4477.25038 6.25710e-18
4478.71760 7.25413e-18
4480.18481 6.61410e-18
4481.66222 7.93845e-18
4483.12943 6.78891e-18
4484.59665 5.87045e-18
4486.07405 5.49652e-18
4487.54127 7.23237e-18
4489.00849 7.63577e-18
4490.47570 5.52063e-18
4491.95311 7.98911e-18
4493.42032 9.07795e-18
4494.88754 8.01603e-18
4496.36494 7.25890e-18
4497.83216 7.52360e-18
4499.29938 7.67224e-18
4500.76659 8.40285e-18
4502.24400 9.40180e-18
4503.71121 8.86801e-18
4505.17843 1.08630e-17
4506.64564 1.24607e-17
4508.12305 6.31448e-18
4509.59027 8.75984e-18
4511.05748 1.04743e-17
4512.52470 7.69540e-18
4514.00210 8.51526e-18
4515.46932 1.08691e-17
4516.93653 1.19572e-17
4518.41394 9.64347e-18
4519.88116 8.77259e-18
4521.34837 1.06740e-17
4522.81559 7.98185e-18
4524.29299 8.32202e-18
4525.76021 1.17079e-17
4527.22743 1.24635e-17
4528.70483 9.74598e-18
4530.17205 8.09148e-18
4531.63926 1.04790e-17
4533.10648 9.63196e-18
4534.58388 7.51393e-18
4536.05110 5.26534e-18
4537.51832 1.14308e-17
4538.98553 1.34946e-17
4540.46294 1.04981e-17
4541.93015 1.08413e-17
4543.39737 1.11508e-17
4544.87477 9.46455e-18
4546.34199 6.43380e-18
4547.80920 7.77455e-18
4549.27642 8.36763e-18
4550.75383 9.59760e-18
4552.22104 6.92271e-18
4553.68826 7.17940e-18
4555.15547 1.04604e-17
4556.63288 1.01247e-17
4558.10009 8.93601e-18
4559.56731 9.79928e-18
4561.04472 9.59724e-18
4562.51193 9.56047e-18
4563.97915 8.38432e-18
4565.44636 8.47218e-18
4566.92377 1.22239e-17
4568.39098 1.34146e-17
4569.85820 1.11128e-17
4571.32542 1.04736e-17
4572.80282 1.09580e-17
4574.27004 9.49370e-18
4575.73725 9.25308e-18
4577.21466 9.08385e-18
4578.68187 8.92217e-18
4580.14909 1.17906e-17
4581.61631 1.12859e-17
4583.09371 8.06077e-18
4584.56093 8.15018e-18
4586.02814 9.27681e-18
4587.49536 9.65906e-18
4588.97277 1.04565e-17
4590.43998 9.66457e-18
4591.90720 1.11728e-17
4593.38460 1.15341e-17
4594.85182 9.10926e-18
4596.31903 8.28935e-18
4597.78625 8.18957e-18
4599.26365 8.80849e-18
4600.73087 1.23258e-17
4602.19809 1.35283e-17
4603.66530 1.35916e-17
4605.14271 1.31456e-17
4606.60992 1.26997e-17
4608.07714 1.22539e-17
4609.55454 1.18080e-17
4611.02176 1.13623e-17
4612.48898 1.09166e-17
4613.95619 1.04709e-17
4615.43360 1.00253e-17
4616.90081 1.00247e-17
4618.36803 9.14405e-18
4619.83525 8.26428e-18
4621.31265 9.80171e-18
4622.77987 1.02432e-17
4624.24708 1.11133e-17
4625.72449 1.15756e-17
4627.19170 1.13488e-17
4628.65892 9.26278e-18
4630.12614 1.09341e-17
4631.60354 1.45283e-17
4633.07076 1.15659e-17
4634.53797 9.16776e-18
4636.00519 1.01390e-17
4637.48259 1.17644e-17
4638.94981 1.25991e-17
4640.41703 1.05822e-17
4641.89443 1.05172e-17
4643.36165 1.24026e-17
4644.82886 1.07188e-17
4646.29608 1.19878e-17
4647.77348 1.39370e-17
4649.24070 1.32502e-17
4650.70792 1.34906e-17
4652.17513 1.41010e-17
4653.65254 1.21292e-17
4655.11975 1.11541e-17
4656.58697 1.19586e-17
4658.06437 1.29387e-17
4659.53159 1.21496e-17
4660.99881 1.20397e-17
4662.46602 1.32240e-17
4663.94343 1.04738e-17
4665.41064 9.34495e-18
4666.87786 1.05237e-17
4668.34507 1.12390e-17
4669.82248 1.08620e-17
4671.28970 1.05539e-17
4672.75691 1.03604e-17
4674.23432 1.18455e-17
4675.70153 1.20828e-17
4677.16875 9.87589e-18
4678.63597 9.82717e-18
4680.11337 1.13908e-17
4681.58059 1.40911e-17
4683.04780 1.39920e-17
4684.51502 1.20630e-17
4685.99242 1.10980e-17
4687.45964 1.22199e-17
4688.92685 1.20696e-17
4690.40426 9.81100e-18
4691.87148 1.03046e-17
4693.33869 1.03716e-17
4694.80591 1.02114e-17
4696.28331 9.97594e-18
4697.75053 9.52133e-18
4699.21774 1.12726e-17
4700.68496 1.22167e-17
4702.16237 1.11143e-17
4703.62958 1.14960e-17
4705.09680 1.09799e-17
4706.57420 1.10291e-17
4708.04142 1.15427e-17
4709.50863 1.18077e-17
4710.97585 9.33057e-18
4712.45326 9.93927e-18
4713.92047 1.19600e-17
4715.38769 1.17141e-17
4716.85490 1.19541e-17
4718.33231 1.28095e-17
4719.79952 1.17288e-17
4721.26674 1.20648e-17
4722.74415 1.30369e-17
4724.21136 1.36631e-17
4725.67858 1.20626e-17
4727.14579 1.31310e-17
4728.62320 1.44669e-17
4730.09041 1.30428e-17
4731.55763 1.40977e-17
4733.02485 1.33893e-17
4734.50225 1.06110e-17
4735.96947 1.06639e-17
4737.43668 1.27590e-17
4738.91409 1.31753e-17
4740.38130 1.13097e-17
4741.84852 1.26600e-17
4743.31574 1.33052e-17
4744.79314 1.25287e-17
4746.26036 1.35063e-17
4747.72757 1.19525e-17
4749.19479 1.17401e-17
4750.67220 1.32624e-17
4752.13941 1.38940e-17
4753.60663 1.28254e-17
4755.08403 1.36108e-17
4756.55125 1.34564e-17
4758.01846 1.37394e-17
4759.48568 1.49549e-17
4760.96308 1.48456e-17
4762.43030 1.22054e-17
4763.89752 1.22192e-17
4765.37492 1.42393e-17
4766.84214 1.33526e-17
4768.30935 1.19017e-17
4769.77657 1.26941e-17
4771.25397 1.10639e-17
4772.72119 1.16608e-17
4774.18841 1.06665e-17
4775.65562 1.06798e-17
4777.13303 1.19846e-17
4778.60024 1.19455e-17
4780.06746 1.38159e-17
4781.54486 1.25756e-17
4783.01208 1.15754e-17
4784.47930 1.18061e-17
4785.94651 1.23615e-17
4787.42392 1.29836e-17
4788.89113 1.38683e-17
4790.35835 1.22695e-17
4791.82557 1.30057e-17
4793.30297 1.18299e-17
4794.77019 1.29378e-17
4796.23740 1.32020e-17
4797.70462 1.25185e-17
4799.18202 1.13057e-17
4800.64924 1.12622e-17
4802.11646 1.16970e-17
4803.59386 1.14029e-17
4805.06108 1.26665e-17
4806.52829 1.24566e-17
4807.99551 1.37467e-17
4809.47291 1.38651e-17
4810.94013 1.39834e-17
4812.40735 1.41017e-17
4813.87456 1.42201e-17
4815.35197 1.43384e-17
4816.81918 1.44566e-17
4818.28640 1.45749e-17
4819.76380 1.46932e-17
4821.23102 1.48114e-17
4822.69824 1.49297e-17
4824.16545 1.50479e-17
4825.64286 1.50470e-17
4827.11007 1.39763e-17
4828.57729 1.05804e-17
4830.05469 1.02255e-17
4831.52191 1.30921e-17
4832.98913 1.35647e-17
4834.45634 1.25446e-17
4835.93375 1.08308e-17
4837.40096 1.23894e-17
4838.86818 1.17300e-17
4840.33540 1.12077e-17
4841.81280 1.27603e-17
4843.28002 1.19933e-17
4844.74723 9.95849e-18
4846.22464 1.00004e-17
4847.69185 1.13439e-17
4849.15907 1.23357e-17
4850.62628 1.04391e-17
4852.10369 9.69495e-18
4853.57091 1.10305e-17
4855.03812 1.31776e-17
4856.50534 1.16281e-17
4857.98274 9.47862e-18
4859.44996 1.03695e-17
4860.91717 1.16560e-17
4862.39458 1.13436e-17
4863.86180 9.58810e-18
4865.32901 1.06966e-17
4866.79623 1.09464e-17
4868.27363 1.02263e-17
4869.74085 1.07048e-17
4871.20806 1.04861e-17
4872.67528 9.75046e-18
4874.15269 1.10236e-17
4875.61990 1.17790e-17
4877.08712 1.04322e-17
4878.56452 1.02547e-17
4880.03174 1.01818e-17
4881.49895 1.03748e-17
4882.96617 8.72031e-18
4884.44358 7.24163e-18
4885.91079 9.55116e-18
4887.37801 9.51292e-18
4888.84522 8.41755e-18
4890.32263 9.73497e-18
4891.78984 9.19932e-18
4893.25706 6.90929e-18
4894.73447 8.51221e-18
4896.20168 1.08135e-17
4897.66890 8.71401e-18
4899.13611 8.08047e-18
4900.61352 8.86544e-18
4902.08073 9.21226e-18
4903.54795 8.18880e-18
4905.01517 7.73234e-18
4906.49257 7.99341e-18
4907.95979 9.40040e-18
4909.42700 9.01099e-18
4910.90441 6.73416e-18
4912.37162 8.26197e-18
4913.83884 7.98252e-18
4915.30606 8.35975e-18
4916.78346 9.01536e-18
4918.25068 7.16624e-18
4919.71789 6.88617e-18
4921.18511 8.31535e-18
4922.66251 8.28133e-18
4924.12973 8.12501e-18
4925.59695 7.59785e-18
4927.07435 6.81790e-18
4928.54157 1.03337e-17
4930.00878 1.02653e-17
4931.47600 8.06470e-18
4932.95340 8.29625e-18
4934.42062 5.82126e-18
4935.88784 5.66098e-18
4937.35505 8.64986e-18
4938.83246 9.03023e-18
4940.29967 6.19955e-18
4941.76689 4.57929e-18
4943.24429 4.63056e-18
4944.71151 5.65076e-18
4946.17873 7.07020e-18
4947.64594 7.77764e-18
4949.12335 7.73712e-18
4950.59056 5.31728e-18
4952.05778 5.86758e-18
4953.52500 7.28341e-18
4955.00240 8.15796e-18
4956.46962 8.16570e-18
4957.93683 6.83330e-18
4959.41424 6.75239e-18
4960.88145 6.88200e-18
4962.34867 6.66420e-18
4963.81589 6.18270e-18
4965.29329 7.26087e-18
4966.76051 7.29855e-18
4968.22772 4.13821e-18
4969.70513 4.84121e-18
4971.17234 7.69208e-18
4972.63956 7.75841e-18
4974.10678 8.39961e-18
4975.58418 8.87752e-18
4977.05140 6.76102e-18
4978.51861 6.28843e-18
4979.98583 7.44930e-18
4981.46323 7.20535e-18
4982.93045 7.50141e-18
4984.39767 8.02556e-18
4985.86488 7.32612e-18
4987.34229 7.60819e-18
4988.80950 6.22163e-18
4990.27672 4.43627e-18
4991.75412 5.99724e-18
4993.22134 8.44281e-18
4994.68856 5.71520e-18
4996.15577 4.44027e-18
4997.63318 6.21062e-18
4999.10039 6.40861e-18
5000.56761 6.82117e-18
5002.03482 5.93728e-18
5003.51223 7.53424e-18
5004.97945 9.49976e-18
5006.44666 8.13364e-18
5007.92407 7.17700e-18
5009.39128 7.77765e-18
5010.85850 6.63566e-18
5012.32571 6.52422e-18
5013.80312 8.19150e-18
5015.27034 8.73179e-18
5016.73755 8.05226e-18
5018.20477 7.14475e-18
5019.68217 8.36120e-18
5021.14939 8.48092e-18
5022.61660 9.51105e-18
5024.09401 1.03680e-17
5025.56123 7.86460e-18
5027.02844 7.49753e-18
5028.49566 9.53359e-18
5029.97306 8.86107e-18
5031.44028 6.82501e-18
5032.90749 7.83602e-18
5034.38490 1.06057e-17
5035.85212 8.89873e-18
5037.31933 6.89440e-18
5038.78655 8.51313e-18
5040.26395 9.64381e-18
5041.73117 9.48849e-18
5043.19838 9.48116e-18
5044.66560 1.09577e-17
5046.14301 1.00629e-17
5047.61022 9.69471e-18
5049.07744 1.12138e-17
5050.54465 1.02667e-17
5052.02206 1.05654e-17
5053.48927 1.01815e-17
5054.95649 9.59267e-18
5056.43390 1.04329e-17
5057.90111 1.09653e-17
5059.36833 1.27885e-17
5060.83554 1.26021e-17
5062.31295 1.11380e-17
5063.78017 1.28008e-17
5065.24738 1.39137e-17
5066.72479 1.31742e-17
5068.19200 1.42933e-17
5069.65922 1.41947e-17
5071.12643 1.27026e-17
5072.60384 1.44833e-17
5074.07105 1.51127e-17
5075.53827 1.40698e-17
5077.00549 1.61359e-17
5078.48289 1.74960e-17
5079.95011 1.68751e-17
5081.41732 1.62378e-17
5082.89473 1.57301e-17
5084.36194 1.57737e-17
5085.82916 1.60394e-17
5087.29638 1.65709e-17
5088.77378 1.74718e-17
5090.24100 1.73388e-17
5091.70821 1.72106e-17
5093.17543 1.69070e-17
5094.65283 1.67087e-17
5096.12005 1.93785e-17
5097.58727 2.01532e-17
5099.06467 1.85604e-17
5100.53189 1.83690e-17
5101.99910 1.77816e-17
5103.46632 1.85678e-17
5104.94372 1.88956e-17
5106.41094 1.79440e-17
5107.87816 1.77334e-17
5109.34537 1.66680e-17
5110.82278 1.73029e-17
5112.28999 1.70752e-17
5113.75721 1.66498e-17
5115.23462 1.71718e-17
5116.70183 1.84820e-17
5118.16905 1.97396e-17
5119.63626 1.85704e-17
5121.11367 1.80299e-17
5122.58088 1.71481e-17
5124.04810 1.62934e-17
5125.51532 1.71067e-17
5126.99272 1.74983e-17
5128.45994 1.79190e-17
5129.92715 1.62355e-17
5131.40456 1.49317e-17
5132.87177 1.72970e-17
5134.33899 1.85766e-17
5135.80621 1.59217e-17
5137.28361 1.45203e-17
5138.75083 1.52299e-17
5140.21804 1.59878e-17
5141.68526 1.60674e-17
5143.16266 1.68289e-17
5144.62988 1.64002e-17
5146.09710 1.55922e-17
5147.57450 1.50475e-17
5149.04172 1.38877e-17
5150.50893 1.38780e-17
5151.97615 1.52309e-17
5153.45355 1.52710e-17
5154.92077 1.44064e-17
5156.38799 1.32064e-17
5157.85520 1.09798e-17
5159.33261 1.44693e-17
5160.79982 1.47990e-17
5162.26704 1.19523e-17
5163.74444 1.21735e-17
5165.21166 1.26073e-17
5166.67888 1.27612e-17
5168.14609 1.16832e-17
5169.62350 1.23992e-17
5171.09071 1.18019e-17
5172.55793 1.01725e-17
5174.02514 1.22884e-17
5175.50255 1.15198e-17
5176.96977 9.46266e-18
5178.43698 1.08491e-17
5179.91439 9.43747e-18
5181.38160 9.22277e-18
5182.84882 1.07839e-17
5184.31603 1.01583e-17
5185.79344 1.11675e-17
5187.26066 1.08440e-17
5188.72787 9.58019e-18
5190.19509 8.88776e-18
5191.67249 1.11723e-17
5193.13971 1.12538e-17
5194.60692 7.81236e-18
5196.08433 7.29370e-18
5197.55155 9.77827e-18
5199.01876 1.07231e-17
5200.48598 9.79011e-18
5201.96338 1.02276e-17
5203.43060 1.02085e-17
5204.89782 1.07765e-17
5206.36503 1.39112e-17
5207.84244 1.22042e-17
5209.30965 9.59970e-18
5210.77687 1.05493e-17
5212.25427 1.08546e-17
5213.72149 1.07420e-17
5215.18870 1.14291e-17
5216.65592 1.12155e-17
5218.13333 1.22206e-17
5219.60054 1.22428e-17
5221.06776 1.18871e-17
5222.53497 1.20631e-17
5224.01238 1.10319e-17
5225.47959 9.93645e-18
5226.94681 1.11175e-17
5228.42422 1.10473e-17
5229.89143 1.18180e-17
5231.35865 1.32111e-17
5232.82586 1.20555e-17
5234.30327 1.18173e-17
5235.77048 1.13326e-17
5237.23770 1.02143e-17
5238.70492 1.26443e-17
5240.18232 1.20741e-17
5241.64954 1.25744e-17
5243.11675 1.21591e-17
5244.59416 1.20721e-17
5246.06137 9.85130e-18
5247.52859 1.08180e-17
5248.99581 1.19003e-17
5250.47321 1.14451e-17
5251.94043 1.14047e-17
5253.40764 1.19923e-17
5254.87486 1.26291e-17
5256.35226 1.31704e-17
5257.81948 1.15664e-17
5259.28670 1.12713e-17
5260.76410 1.18917e-17
5262.23132 1.18579e-17
5263.69853 1.15794e-17
5265.16575 1.12288e-17
5266.64315 1.03087e-17
5268.11037 1.03898e-17
5269.57759 1.27774e-17
5271.04480 1.20699e-17
5272.52221 1.27011e-17
5273.98942 1.21965e-17
5275.45664 1.00939e-17
5276.93404 1.23679e-17
5278.40126 1.15980e-17
5279.86848 1.14777e-17
5281.33569 1.30000e-17
5282.81310 1.04800e-17
5284.28031 8.65104e-18
5285.74753 1.10624e-17
5287.22493 1.18012e-17
5288.69215 8.63691e-18
5290.15937 1.12052e-17
5291.62658 1.00949e-17
5293.10399 1.09153e-17
5294.57120 1.02273e-17
5296.03842 1.10565e-17
5297.50564 1.02540e-17
5298.98304 1.25565e-17
5300.45026 1.21745e-17
5301.91747 1.19217e-17
5303.39488 1.14473e-17
5304.86209 1.18399e-17
5306.32931 9.97141e-18
5307.79653 1.15965e-17
5309.27393 1.10250e-17
5310.74115 1.08821e-17
5312.20836 1.28789e-17
5313.67558 1.16859e-17
5315.15298 1.07703e-17
5316.62020 1.06462e-17
5318.08742 9.58901e-18
5319.56482 1.11760e-17
5321.03204 8.65762e-18
5322.49925 9.17203e-18
5323.96647 1.06080e-17
5325.44387 1.08266e-17
5326.91109 9.78568e-18
5328.37831 1.19537e-17
5329.84552 1.20365e-17
5331.32293 1.26297e-17
5332.79014 1.19303e-17
5334.25736 1.30810e-17
5335.72457 1.22320e-17
5337.20198 9.61685e-18
5338.66920 9.89421e-18
5340.13641 1.02881e-17
5341.61382 1.13637e-17
5343.08103 9.86431e-18
5344.54825 1.02315e-17
5346.01546 9.93801e-18
5347.49287 9.78565e-18
5348.96009 1.06003e-17
5350.42730 9.55039e-18
5351.89452 9.40542e-18
5353.37192 9.75251e-18
5354.83914 1.03339e-17
5356.30635 1.05958e-17
5357.78376 1.03244e-17
5359.25098 8.25619e-18
5360.71819 9.28671e-18
5362.18541 9.73592e-18
5363.66281 9.56316e-18
5365.13003 1.23349e-17
5366.59724 1.23779e-17
5368.07465 1.05569e-17
5369.54187 1.03125e-17
5371.00908 9.65259e-18
5372.47630 1.05092e-17
5373.95370 1.02884e-17
5375.42092 1.17842e-17
5376.88813 1.18141e-17
5378.35535 1.15557e-17
5379.83276 1.29042e-17
5381.29997 1.11051e-17
5382.76719 1.01975e-17
5384.24459 1.30120e-17
5385.71181 1.17592e-17
5387.17902 1.20998e-17
5388.64624 1.24433e-17
5390.12365 1.17494e-17
5391.59086 1.22837e-17
5393.05808 1.24303e-17
5394.52529 1.12994e-17
5396.00270 1.14669e-17
5397.46991 1.23464e-17
5398.93713 1.27203e-17
5400.41454 1.17561e-17
5401.88175 1.19441e-17
5403.34897 1.25831e-17
5404.81618 1.15676e-17
5406.29359 1.20922e-17
5407.76080 1.23789e-17
5409.22802 1.17260e-17
5410.69524 1.35856e-17
5412.17264 1.32391e-17
5413.63986 1.24626e-17
5415.10707 1.27554e-17
5416.58448 1.16831e-17
5418.05170 1.07269e-17
5419.51891 1.14888e-17
5420.98613 1.18825e-17
5422.46353 1.17007e-17
5423.93075 1.23659e-17
5425.39796 1.34991e-17
5426.86518 1.29332e-17
5428.34258 1.23453e-17
5429.80980 1.14437e-17
5431.27702 1.12316e-17
5432.75442 1.37923e-17
5434.22164 1.36757e-17
5435.68885 1.19785e-17
5437.15607 1.25477e-17
5438.63347 1.16966e-17
5440.10069 1.08190e-17
5441.56791 1.26257e-17
5443.03512 1.32995e-17
5444.51253 1.34934e-17
5445.97974 1.33738e-17
5447.44696 1.13407e-17
5448.92436 1.07401e-17
5450.39158 1.26712e-17
5451.85880 1.33159e-17
5453.32601 1.25020e-17
5454.80342 1.31294e-17
5456.27063 1.36716e-17
5457.73785 1.33370e-17
5459.20507 1.38546e-17
5460.68247 1.28581e-17
5462.14969 1.22482e-17
5463.61690 1.37542e-17
5465.09431 1.26705e-17
5466.56152 1.04544e-17
5468.02874 1.10448e-17
5469.49596 1.23462e-17
5470.97336 1.14627e-17
5472.44058 1.14134e-17
5473.90779 1.17321e-17
5475.37501 1.21431e-17
5476.85241 1.25988e-17
5478.31963 1.28087e-17
5479.78685 1.29999e-17
5481.26425 1.14809e-17
5482.73147 1.30587e-17
5484.19868 1.37828e-17
5485.66590 1.13040e-17
5487.14330 1.17194e-17
5488.61052 1.55170e-17
5490.07774 1.56014e-17
5491.54495 1.27180e-17
5493.02236 1.21348e-17
5494.48957 1.32776e-17
5495.95679 1.37729e-17
5497.43419 1.46178e-17
5498.90141 1.36307e-17
5500.36863 1.40634e-17
5501.83584 1.43953e-17
5503.31325 1.37833e-17
5504.78046 1.47058e-17
5506.24768 1.29825e-17
5507.72508 1.33141e-17
5509.19230 1.47450e-17
5510.65952 1.44363e-17
5512.12673 1.49486e-17
5513.60414 1.51362e-17
5515.07135 1.31463e-17
5516.53857 1.34211e-17
5518.00578 1.33771e-17
5519.48319 1.56850e-17
5520.95041 1.44063e-17
5522.41762 1.33894e-17
5523.88484 1.33630e-17
5525.36224 1.15205e-17
5526.82946 1.18614e-17
5528.29667 1.30895e-17
5529.77408 1.39060e-17
5531.24130 1.41949e-17
5532.70851 1.21486e-17
5534.17573 1.30305e-17
5535.65313 1.22510e-17
5537.12035 1.17401e-17
5538.58756 1.19250e-17
5540.05478 1.21787e-17
5541.53219 1.19428e-17
5542.99940 1.10294e-17
5544.46662 1.13470e-17
5545.94402 1.35108e-17
5547.41124 1.37058e-17
5548.87845 1.03357e-17
5550.34567 1.07829e-17
5551.82308 1.19749e-17
5553.29029 1.20097e-17
5554.75751 1.20615e-17
5556.23491 1.24163e-17
5557.70213 1.42529e-17
5559.16934 1.32907e-17
5560.63656 1.41024e-17
5562.11397 1.11828e-17
5563.58118 9.94183e-18
5565.04840 1.23402e-17
5566.51561 1.18845e-17
5567.99302 1.12940e-17
5569.46023 1.20795e-17
5570.92745 1.19349e-17
5572.40486 1.85239e-17
5573.87207 1.66145e-17
5575.33929 1.31900e-17
5576.80650 1.45107e-17
5578.28391 1.67278e-17
5579.75112 1.47362e-17
5581.21834 1.53674e-17
5582.68556 1.53514e-17
5584.16296 1.42682e-17
5585.63018 1.18582e-17
5587.09739 1.10077e-17
5588.56461 1.36191e-17
5590.04201 1.30884e-17
5591.50923 1.31019e-17
5592.97645 1.40832e-17
5594.45385 1.49552e-17
5595.92107 1.38847e-17
5597.38828 1.43277e-17
5598.85550 1.42172e-17
5600.33290 1.61948e-17
5601.80012 1.68246e-17
5603.26734 1.71936e-17
5604.74474 1.78396e-17
5606.21196 1.71701e-17
5607.67917 1.66529e-17
5609.14639 1.60335e-17
5610.62379 1.69001e-17
5612.09101 1.66991e-17
5613.55823 1.61450e-17
5615.02544 1.66804e-17
5616.50285 1.68190e-17
5617.97006 1.64288e-17
5619.43728 1.50445e-17
5620.91468 1.44668e-17
5622.38190 1.60213e-17
5623.84912 1.73047e-17
5625.31633 1.62400e-17
5626.79374 1.62334e-17
5628.26095 1.77637e-17
5629.72817 1.67783e-17
5631.19539 1.61916e-17
5632.67279 1.61006e-17
5634.14001 1.70740e-17
5635.60722 1.83339e-17
5637.08463 1.79687e-17
5638.55184 1.73763e-17
5640.01906 1.75769e-17
5641.48628 1.79358e-17
5642.96368 1.61199e-17
5644.43090 1.78990e-17
5645.89811 1.70971e-17
5647.36533 1.54164e-17
5648.84273 1.56973e-17
5650.30995 1.63742e-17
5651.77717 1.45541e-17
5653.25457 1.62167e-17
5654.72179 1.57779e-17
5656.18900 1.58338e-17
5657.65622 1.68682e-17
5659.13362 1.58144e-17
5660.60084 1.57641e-17
5662.06806 1.48189e-17
5663.53527 1.49630e-17
5665.01268 1.71630e-17
5666.47989 1.58131e-17
5667.94711 1.57135e-17
5669.42451 1.52660e-17
5670.89173 1.53040e-17
5672.35895 1.45465e-17
5673.82616 1.44738e-17
5675.30357 1.51567e-17
5676.77078 1.38910e-17
5678.23800 1.41757e-17
5679.70521 1.35500e-17
5681.18262 1.32834e-17
5682.64984 1.35305e-17
5684.11705 1.33942e-17
5685.59446 1.57070e-17
5687.06167 1.49789e-17
5688.52889 1.39905e-17
5689.99610 1.31195e-17
5691.47351 1.13769e-17
5692.94073 1.19898e-17
5694.40794 1.31365e-17
5695.87516 1.18622e-17
5697.35256 1.20806e-17
5698.81978 1.37294e-17
5700.28699 1.29111e-17
5701.76440 1.23300e-17
5703.23162 1.16318e-17
5704.69883 1.04435e-17
5706.16605 1.24724e-17
5707.64345 1.18617e-17
5709.11067 1.03705e-17
5710.57788 1.15062e-17
5712.04510 1.24321e-17
5713.52251 1.36684e-17
5714.98972 1.34311e-17
5716.45694 1.37135e-17
5717.93434 1.30854e-17
5719.40156 1.21503e-17
5720.86877 1.30064e-17
5722.33599 1.26178e-17
5723.81340 1.37941e-17
5725.28061 1.32779e-17
5726.74783 1.21884e-17
5728.21504 1.31603e-17
5729.69245 1.25096e-17
5731.15967 1.28166e-17
5732.62688 1.44216e-17
5734.10429 1.66094e-17
5735.57150 1.64388e-17
5737.03872 1.45761e-17
5738.50593 1.43022e-17
5739.98334 1.49381e-17
5741.45055 1.44592e-17
5742.91777 1.35291e-17
5744.38499 1.40765e-17
5745.86239 1.55693e-17
5747.32961 1.60026e-17
5748.79682 1.57560e-17
5750.27423 1.36834e-17
5751.74144 1.31383e-17
5753.20866 1.30936e-17
5754.67588 1.45162e-17
5756.15328 1.46642e-17
5757.62050 1.29929e-17
5759.08771 1.21766e-17
5760.55493 1.25490e-17
5762.03233 1.15713e-17
5763.49955 1.35785e-17
5764.96677 1.50169e-17
5766.44417 1.58573e-17
5767.91139 1.65509e-17
5769.37860 1.29176e-17
5770.84582 1.46327e-17
5772.32322 1.40090e-17
5773.79044 1.44938e-17
5775.25766 1.41475e-17
5776.72487 1.22929e-17
5778.20228 1.17715e-17
5779.66949 1.14281e-17
5781.13671 1.25408e-17
5782.61412 1.12195e-17
5784.08133 9.47375e-18
5785.54855 1.07674e-17
5787.01576 1.10685e-17
5788.49317 1.13915e-17
5789.96038 9.73873e-18
5791.42760 1.08406e-17
5792.89482 1.17786e-17
5794.37222 9.88117e-18
5795.83944 7.30560e-18
5797.30665 7.41697e-18
5798.78406 7.85408e-18
5800.25127 8.85591e-18
5801.71849 7.57553e-18
5803.18571 7.94120e-18
5804.66311 8.64579e-18
5806.13033 7.21530e-18
5807.59754 8.16069e-18
5809.06476 7.18239e-18
5810.54216 7.58611e-18
5812.00938 5.81516e-18
5813.47660 5.90729e-18
5814.95400 6.18660e-18
5816.42122 7.17304e-18
5817.88843 6.31809e-18
5819.35565 6.72488e-18
5820.83305 6.69296e-18
5822.30027 7.30433e-18
5823.76749 7.66159e-18
5825.24489 7.54018e-18
5826.71211 7.17996e-18
5828.17932 5.79946e-18
5829.64654 5.48774e-18
5831.12394 6.02596e-18
5832.59116 7.18033e-18
5834.05838 6.27415e-18
5835.52559 4.63559e-18
5837.00300 5.76600e-18
5838.47021 8.79744e-18
5839.93743 6.85282e-18
5841.41483 7.64777e-18
5842.88205 6.76136e-18
5844.34927 6.03506e-18
5845.81648 5.79175e-18
5847.29389 6.52465e-18
5848.76110 6.29374e-18
5850.22832 5.24465e-18
5851.69553 3.32010e-18
5853.17294 5.61218e-18
5854.64016 6.11732e-18
5856.10737 5.69370e-18
5857.58478 6.47292e-18
5859.05199 8.15039e-18
5860.51921 7.93560e-18
5861.98642 7.01616e-18
5863.46383 6.72616e-18
5864.93105 8.31862e-18
5866.39826 8.97289e-18
5867.86548 7.34633e-18
5869.34288 5.52328e-18
5870.81010 6.77775e-18
5872.27732 7.10100e-18
5873.74453 9.52519e-18
5875.22194 8.41107e-18
5876.68915 7.75802e-18
5878.15637 8.20660e-18
5879.63377 7.70689e-18
5881.10099 7.09147e-18
5882.56820 8.45455e-18
5884.03542 8.78005e-18
5885.51283 1.00689e-17
5886.98004 8.69494e-18
5888.44726 8.37000e-18
5889.92466 1.18391e-17
5891.39188 9.79695e-18
5892.85909 8.91272e-18
5894.32631 1.03845e-17
5895.80372 1.25741e-17
5897.27093 1.18320e-17
5898.73815 1.09343e-17
5900.20536 1.16863e-17
5901.68277 1.28028e-17
5903.14998 1.27505e-17
5904.61720 1.16920e-17
5906.09461 1.10730e-17
5907.56182 1.15463e-17
5909.02904 1.25127e-17
5910.49625 1.31876e-17
5911.97366 1.52884e-17
5913.44087 1.42476e-17
5914.90809 1.31601e-17
5916.37531 1.46462e-17
5917.85271 1.56360e-17
5919.31993 1.62207e-17
5920.78714 1.56611e-17
5922.26455 1.42782e-17
5923.73176 1.59825e-17
5925.19898 1.72011e-17
5926.66620 1.67214e-17
5928.14360 1.75243e-17
5929.61082 1.63412e-17
5931.07803 1.49660e-17
5932.54525 1.62569e-17
5934.02265 1.72402e-17
5935.48987 1.81721e-17
5936.95709 1.76937e-17
5938.43449 1.62345e-17
5939.90171 1.76340e-17
5941.36892 1.75230e-17
5942.83614 1.61284e-17
5944.31354 1.66161e-17
5945.78076 1.69999e-17
5947.24798 1.75553e-17
5948.71519 1.97379e-17
5950.19260 1.96964e-17
5951.65981 1.83514e-17
5953.12703 1.82557e-17
5954.60443 1.81960e-17
5956.07165 2.10513e-17
5957.53887 2.15987e-17
5959.00608 1.94694e-17
5960.48349 1.86959e-17
5961.95070 2.08058e-17
5963.41792 2.10934e-17
5964.88514 2.10844e-17
5966.36254 2.04183e-17
5967.82976 1.91020e-17
5969.29697 1.92262e-17
5970.77438 2.01789e-17
5972.24159 2.02581e-17
5973.70881 2.25145e-17
5975.17603 2.05829e-17
5976.65343 1.97477e-17
5978.12065 2.10854e-17
5979.58786 1.97452e-17
5981.05508 1.91622e-17
5982.53248 2.17003e-17
5983.99970 1.92693e-17
5985.46692 1.77245e-17
5986.94432 2.10631e-17
5988.41154 2.18750e-17
5989.87875 2.08774e-17
5991.34597 1.99411e-17
5992.82337 2.00440e-17
5994.29059 1.90973e-17
5995.75781 1.73114e-17
5997.22502 1.80164e-17
5998.70243 1.97224e-17
6000.16964 1.89782e-17
6001.63686 1.87843e-17
6003.11426 1.90194e-17
6004.58148 1.91925e-17
6006.04870 1.78908e-17
6007.51591 1.93704e-17
6008.99332 1.73395e-17
6010.46053 1.89288e-17
6011.92775 2.07341e-17
6013.39496 2.18282e-17
6014.87237 1.91308e-17
6016.33959 1.93042e-17
6017.80680 1.96889e-17
6019.28421 1.96279e-17
6020.75142 1.92561e-17
6022.21864 1.95714e-17
6023.68585 2.00105e-17
6025.16326 1.87679e-17
6026.63048 1.72593e-17
6028.09769 1.95665e-17
6029.56491 1.88956e-17
6031.04231 1.69790e-17
6032.50953 1.75976e-17
6033.97674 1.82856e-17
6035.45415 1.78048e-17
6036.92137 1.92555e-17
6038.38858 2.13308e-17
6039.85580 1.90381e-17
6041.33320 1.83071e-17
6042.80042 1.85658e-17
6044.26763 1.81810e-17
6045.74504 1.71486e-17
6047.21226 1.76645e-17
6048.67947 1.72991e-17
6050.14669 1.75046e-17
6051.62409 1.84959e-17
6053.09131 1.81847e-17
6054.55852 1.89410e-17
6056.02574 1.79819e-17
6057.50315 1.63705e-17
6058.97036 1.67781e-17
6060.43758 1.94360e-17
6061.90479 1.84757e-17
6063.38220 1.85646e-17
6064.84941 1.74420e-17
6066.31663 2.01944e-17
6067.79404 1.76564e-17
6069.26125 1.48964e-17
6070.72847 1.75778e-17
6072.19568 1.87491e-17
6073.67309 1.51964e-17
6075.14030 1.50263e-17
6076.60752 1.76624e-17
6078.07474 1.74681e-17
6079.55214 1.63046e-17
6081.01936 1.71966e-17
6082.48657 1.80310e-17
6083.96398 1.52335e-17
6085.43120 1.43876e-17
6086.89841 1.63482e-17
6088.36563 1.67596e-17
6089.84303 1.60929e-17
6091.31025 1.54953e-17
6092.77746 1.53042e-17
6094.25487 1.62325e-17
6095.72208 1.66282e-17
6097.18930 1.64453e-17
6098.65652 1.79035e-17
6100.13392 1.67983e-17
6101.60114 1.71060e-17
6103.06835 1.61527e-17
6104.53557 1.50949e-17
6106.01297 1.59288e-17
6107.48019 1.60544e-17
6108.94741 1.63861e-17
6110.42481 1.50457e-17
6111.89203 1.32013e-17
6113.35924 1.29892e-17
6114.82646 1.36839e-17
6116.30386 1.72006e-17
6117.77108 1.63350e-17
6119.23830 1.39727e-17
6120.70551 1.48029e-17
6122.18292 1.48444e-17
6123.65013 1.32062e-17
6125.11735 1.33289e-17
6126.58457 1.44669e-17
6128.06197 1.45431e-17
6129.52919 1.41167e-17
6130.99640 1.33475e-17
6132.47381 1.31266e-17
6133.94102 1.38782e-17
6135.40824 1.47990e-17
6136.87546 1.47740e-17
6138.35286 1.36905e-17
6139.82008 1.38090e-17
6141.28729 1.37996e-17
6142.75451 1.22487e-17
6144.23191 1.23137e-17
6145.69913 1.42501e-17
6147.16635 1.45141e-17
6148.64375 1.36660e-17
6150.11097 1.34610e-17
6151.57818 1.37002e-17
6153.04540 1.27291e-17
6154.52280 1.17978e-17
6155.99002 1.37576e-17
6157.45724 1.39029e-17
6158.93464 1.23665e-17
6160.40186 1.19021e-17
6161.86907 1.27682e-17
6163.33629 1.31488e-17
6164.81369 1.25847e-17
6166.28091 1.28393e-17
6167.74813 1.20475e-17
6169.21534 1.19209e-17
6170.69275 1.16932e-17
6172.15996 1.16851e-17
6173.62718 1.23062e-17
6175.10458 1.13822e-17
6176.57180 1.24062e-17
6178.03902 1.18796e-17
6179.50623 1.19671e-17
6180.98364 1.15370e-17
6182.45085 1.12135e-17
6183.91807 1.17095e-17
6185.38528 1.03887e-17
6186.86269 1.13530e-17
6188.32991 1.19103e-17
6189.79712 1.06877e-17
6191.27453 1.10743e-17
6192.74174 1.20894e-17
6194.20896 1.07628e-17
6195.67617 9.98041e-18
6197.15358 1.25955e-17
6198.62080 1.26215e-17
6200.08801 1.17310e-17
6201.55523 1.16347e-17
6203.03263 1.32933e-17
6204.49985 1.22953e-17
6205.96706 1.08175e-17
6207.44447 9.41752e-18
6208.91169 1.18115e-17
6210.37890 1.20930e-17
6211.84612 1.10681e-17
6213.32352 1.12184e-17
6214.79074 1.21581e-17
6216.25795 1.16865e-17
6217.72517 1.24634e-17
6219.20258 1.30298e-17
6220.66979 1.36409e-17
6222.13701 1.38021e-17
6223.61441 1.16794e-17
6225.08163 1.25168e-17
6226.54884 1.27234e-17
6228.01606 1.23703e-17
6229.49347 1.21554e-17
6230.96068 1.21314e-17
6232.42790 1.20028e-17
6233.89511 1.23962e-17
6235.37252 1.49238e-17
6236.83973 1.39561e-17
6238.30695 1.40645e-17
6239.78436 1.33001e-17
6241.25157 1.32261e-17
6242.71879 1.36181e-17
6244.18600 1.26526e-17
6245.66341 1.26505e-17
6247.13062 1.28422e-17
6248.59784 1.31113e-17
6250.06506 1.38770e-17
6251.54246 1.18609e-17
6253.00968 1.23037e-17
6254.47689 1.18322e-17
6255.95430 1.18050e-17
6257.42151 1.13594e-17
6258.88873 1.14668e-17
6260.35595 1.22875e-17
6261.83335 1.19590e-17
6263.30057 1.00683e-17
6264.76778 1.16607e-17
6266.23500 1.45046e-17
6267.71240 1.14047e-17
6269.17962 1.16511e-17
6270.64684 1.07305e-17
6272.12424 9.62175e-18
6273.59146 9.53862e-18
6275.05867 1.16712e-17
6276.52589 1.25661e-17
6278.00329 1.28219e-17
6279.47051 1.37990e-17
6280.93773 1.10967e-17
6282.41513 1.14229e-17
6283.88235 1.08541e-17
6285.34956 1.19624e-17
6286.81678 1.22867e-17
6288.29418 1.10976e-17
6289.76140 1.11661e-17
6291.22862 1.10192e-17
6292.69583 1.05396e-17
6294.17324 1.21385e-17
6295.64045 1.47288e-17
6297.10767 1.61939e-17
6298.57489 1.46465e-17
6300.05229 1.55062e-17
6301.51951 1.45923e-17
6302.98672 1.33801e-17
6304.46413 1.31140e-17
6305.93134 1.21686e-17
6307.39856 1.23212e-17
6308.86578 1.14885e-17
6310.34318 1.18910e-17
6311.81040 1.22152e-17
6313.27761 1.03046e-17
6314.74483 9.26038e-18
6316.22223 1.05315e-17
6317.68945 1.23082e-17
6319.15667 1.19933e-17
6320.63407 1.26003e-17
6322.10129 1.21334e-17
6323.56850 1.21296e-17
6325.03572 1.38377e-17
6326.51312 1.19873e-17
6327.98034 1.14424e-17
6329.44756 1.31915e-17
6330.91477 1.30668e-17
6332.39218 1.23456e-17
6333.85939 1.21318e-17
6335.32661 1.21617e-17
6336.80401 1.14384e-17
6338.27123 1.26320e-17
6339.73845 1.38515e-17
6341.20566 1.32860e-17
6342.68307 1.28039e-17
6344.15028 1.36791e-17
6345.61750 1.44307e-17
6347.08471 1.28055e-17
6348.56212 1.14848e-17
6350.02934 1.01313e-17
6351.49655 1.07765e-17
6352.97396 1.17786e-17
6354.44117 1.17392e-17
6355.90839 1.32394e-17
6357.37560 1.34674e-17
6358.85301 1.37173e-17
6360.32023 1.53324e-17
6361.78744 1.50170e-17
6363.25466 1.23800e-17
6364.73206 1.24715e-17
6366.19928 1.29637e-17
6367.66649 1.27663e-17
6369.14390 1.32317e-17
6370.61112 1.21316e-17
6372.07833 1.16962e-17
6373.54555 1.26515e-17
6375.02295 1.10858e-17
6376.49017 1.13745e-17
6377.95738 1.10465e-17
6379.43479 1.05673e-17
6380.90201 1.02694e-17
6382.36922 1.16937e-17
6383.83644 1.14640e-17
6385.31384 1.03420e-17
6386.78106 9.75841e-18
6388.24827 9.93569e-18
6389.71549 1.14413e-17
6391.19290 1.04493e-17
6392.66011 1.01924e-17
6394.12733 1.07751e-17
6395.60473 1.03387e-17
6397.07195 1.01667e-17
6398.53917 1.03073e-17
6400.00638 1.07299e-17
6401.48379 1.01425e-17
6402.95100 1.06064e-17
6404.41822 1.01571e-17
6405.88543 1.03909e-17
6407.36284 1.09660e-17
6408.83005 9.71033e-18
6410.29727 9.17608e-18
6411.76449 1.00045e-17
6413.24189 9.90123e-18
6414.70911 9.84920e-18
6416.17632 1.02292e-17
6417.65373 1.04571e-17
6419.12094 9.52565e-18
6420.58816 1.17149e-17
6422.05538 1.07187e-17
6423.53278 1.14986e-17
6425.00000 1.02398e-17
6426.46721 1.04795e-17
6427.94462 1.05040e-17
6429.41183 9.77609e-18
6430.87905 1.10604e-17
6432.34627 1.16788e-17
6433.82367 1.13911e-17
6435.29089 1.11265e-17
6436.75810 9.34400e-18
6438.22532 8.93607e-18
6439.70272 9.45905e-18
6441.16994 9.44646e-18
6442.63716 1.06620e-17
6444.11456 9.44419e-18
6445.58178 1.01254e-17
6447.04899 9.23486e-18
6448.51621 8.48190e-18
6449.99361 1.19624e-17
6451.46083 1.10524e-17
6452.92805 9.72708e-18
6454.39526 9.88776e-18
6455.87267 1.03244e-17
6457.33988 9.80860e-18
6458.80710 1.02775e-17
6460.28450 9.60708e-18
6461.75172 1.13549e-17
6463.21894 1.08684e-17
6464.68615 9.93108e-18
6466.16356 1.01213e-17
6467.63077 9.69638e-18
6469.09799 8.60229e-18
6470.56521 9.33642e-18
6472.04261 9.58696e-18
6473.50983 1.01995e-17
6474.97704 9.64728e-18
6476.45445 8.71812e-18
6477.92166 1.02163e-17
6479.38888 9.28775e-18
6480.85610 1.06871e-17
6482.33350 9.64499e-18
6483.80072 9.26879e-18
6485.26793 1.01980e-17
6486.73515 1.01228e-17
6488.21255 1.07016e-17
6489.67977 9.34849e-18
6491.14699 9.85269e-18
6492.62439 9.99310e-18
6494.09161 1.14991e-17
6495.55882 1.15723e-17
6497.02604 1.00467e-17
6498.50344 1.04572e-17
6499.97066 1.05284e-17
6501.43788 9.93057e-18
6502.90509 1.00100e-17
6504.38250 8.80292e-18
6505.84971 8.94189e-18
6507.31693 1.01174e-17
6508.79433 9.62372e-18
6510.26155 8.77605e-18
6511.72877 7.93171e-18
6513.19598 9.77315e-18
6514.67339 8.76743e-18
6516.14060 8.73403e-18
6517.60782 9.94417e-18
6519.07503 9.45536e-18
6520.55244 9.92761e-18
6522.01966 1.15446e-17
6523.48687 1.06093e-17
6524.96428 9.11179e-18
6526.43149 1.06257e-17
6527.89871 9.69808e-18
6529.36592 9.30223e-18
6530.84333 8.67842e-18
6532.31055 9.42038e-18
6533.77776 1.04096e-17
6535.24498 9.79941e-18
6536.72238 1.00238e-17
6538.18960 1.02387e-17
6539.65682 1.03434e-17
6541.13422 1.00344e-17
6542.60144 1.13796e-17
6544.06865 1.10510e-17
6545.53587 9.96268e-18
6547.01327 9.78000e-18
6548.48049 1.05268e-17
6549.94770 1.07263e-17
6551.41492 1.04835e-17
6552.89233 9.61930e-18
6554.35954 9.87171e-18
6555.82676 1.06975e-17
6557.30416 1.03089e-17
6558.77138 1.07164e-17
6560.23859 1.05641e-17
6561.70581 1.10094e-17
6563.18322 1.03920e-17
6564.65043 1.09314e-17
6566.11765 1.16818e-17
6567.58486 1.05872e-17
6569.06227 1.09909e-17
6570.52948 1.05345e-17
6571.99670 1.03462e-17
6573.47411 1.17492e-17
6574.94132 1.12785e-17
6576.40854 1.01066e-17
6577.87575 1.02834e-17
6579.35316 1.04709e-17
6580.82037 1.06397e-17
6582.28759 1.03593e-17
6583.75481 1.05491e-17
6585.23221 1.06586e-17
6586.69943 1.06398e-17
6588.16664 1.10717e-17
6589.64405 1.01840e-17
6591.11126 1.01075e-17
6592.57848 1.09231e-17
6594.04570 1.20413e-17
6595.52310 1.10224e-17
6596.99032 1.00568e-17
6598.45753 9.62178e-18
6599.92475 9.43165e-18
6601.40215 9.43988e-18
6602.86937 9.77694e-18
6604.33659 9.22365e-18
6605.81399 9.45223e-18
6607.28121 8.81742e-18
6608.74842 9.10975e-18
6610.21564 8.61327e-18
6611.69304 9.64084e-18
6613.16026 9.46878e-18
6614.62748 8.24662e-18
6616.10488 8.48595e-18
6617.57210 8.73245e-18
6619.03931 9.51045e-18
6620.50653 8.93755e-18
6621.98393 8.45927e-18
6623.45115 8.08364e-18
6624.91837 7.87211e-18
6626.38558 7.16276e-18
6627.86299 8.05328e-18
6629.33020 7.31484e-18
6630.79742 7.09944e-18
6632.27482 9.20882e-18
6633.74204 8.76830e-18
6635.20926 7.05284e-18
6636.67647 7.14182e-18
6638.15388 8.71345e-18
6639.62109 7.95481e-18
6641.08831 8.54336e-18
6642.55553 7.65523e-18
6644.03293 7.34740e-18
6645.50015 7.52917e-18
6646.96736 6.59340e-18
6648.44477 6.24984e-18
6649.91198 7.13736e-18
6651.37920 6.60265e-18
6652.84642 6.50685e-18
6654.32382 7.35135e-18
6655.79104 7.69608e-18
6657.25825 5.93827e-18
6658.72547 5.94261e-18
6660.20287 6.56906e-18
6661.67009 8.18717e-18
6663.13731 7.62077e-18
6664.60452 6.54432e-18
6666.08193 7.23159e-18
6667.54914 7.97023e-18
6669.01636 7.39651e-18
6670.49376 6.52563e-18
6671.96098 7.81349e-18
6673.42820 8.02883e-18
6674.89541 7.69404e-18
6676.37282 7.07905e-18
6677.84003 8.97441e-18
6679.30725 9.20562e-18
6680.77446 1.00087e-17
6682.25187 8.37723e-18
6683.71909 9.63437e-18
6685.18630 9.86369e-18
6686.66371 1.00804e-17
6688.13092 1.03038e-17
6689.59814 1.02999e-17
6691.06535 1.02049e-17
6692.54276 1.05265e-17
6694.00998 1.09725e-17
6695.47719 1.13812e-17
6696.95460 1.21809e-17
6698.42181 1.04668e-17
6699.88903 1.13811e-17
6701.35624 1.20965e-17
6702.83365 1.17852e-17
6704.30087 1.12317e-17
6705.76808 1.11523e-17
6707.23530 1.26135e-17
6708.71270 1.32901e-17
6710.17992 1.33750e-17
6711.64713 1.22088e-17
6713.12454 1.26581e-17
6714.59176 1.24666e-17
6716.05897 1.32077e-17
6717.52619 1.49889e-17
6719.00359 1.30882e-17
6720.47081 1.40802e-17
6721.93802 1.31027e-17
6723.40524 1.36036e-17
6724.88265 1.58526e-17
6726.34986 1.55785e-17
6727.81708 1.49100e-17
6729.29448 1.45646e-17
6730.76170 1.40140e-17
6732.22891 1.44939e-17
6733.69613 1.41743e-17
6735.17354 1.44441e-17
6736.64075 1.54304e-17
6738.10797 1.51569e-17
6739.57518 1.43103e-17
6741.05259 1.44526e-17
6742.51980 1.50016e-17
6743.98702 1.54817e-17
6745.46443 1.49177e-17
6746.93164 1.62001e-17
6748.39886 1.50618e-17
6749.86607 1.48152e-17
6751.34348 1.68225e-17
6752.81069 1.64873e-17
6754.27791 1.46743e-17
6755.74513 1.41833e-17
6757.22253 1.58176e-17
6758.68975 1.48959e-17
6760.15696 1.52763e-17
6761.63437 1.61511e-17
6763.10158 1.56348e-17
6764.56880 1.59650e-17
6766.03602 1.56822e-17
6767.51342 1.53767e-17
6768.98064 1.62578e-17
6770.44785 1.66117e-17
6771.91507 1.66545e-17
6773.39247 1.54796e-17
6774.85969 1.54884e-17
6776.32691 1.71801e-17
6777.80431 1.74228e-17
6779.27153 1.55411e-17
6780.73874 1.54583e-17
6782.20596 1.56299e-17
6783.68336 1.50143e-17
6785.15058 1.61814e-17
6786.61780 1.58605e-17
6788.08501 1.51687e-17
6789.56242 1.62621e-17
6791.02963 1.66079e-17
6792.49685 1.51815e-17
6793.97425 1.51382e-17
6795.44147 1.59347e-17
6796.90869 1.57225e-17
6798.37590 1.63109e-17
6799.85331 1.60355e-17
6801.32052 1.44203e-17
6802.78774 1.55393e-17
6804.25496 1.64698e-17
6805.73236 1.53372e-17
6807.19958 1.70602e-17
6808.66679 1.60771e-17
6810.14420 1.36796e-17
6811.61141 1.55749e-17
6813.07863 1.57905e-17
6814.54585 1.60026e-17
6816.02325 1.73237e-17
6817.49047 1.53222e-17
6818.95768 1.64624e-17
6820.43509 1.87988e-17
6821.90230 1.65776e-17
6823.36952 1.62146e-17
6824.83674 1.53759e-17
6826.31414 1.66685e-17
6827.78136 1.87241e-17
6829.24857 1.61590e-17
6830.71579 1.34853e-17
6832.19319 1.64474e-17
6833.66041 1.74320e-17
6835.12763 1.49963e-17
6836.60503 1.55386e-17
6838.07225 1.55300e-17
6839.53946 1.50520e-17
6841.00668 1.45275e-17
6842.48408 1.35334e-17
6843.95130 1.41622e-17
6845.41852 1.41489e-17
6846.88573 1.41356e-17
6848.36314 1.41223e-17
6849.83035 1.41090e-17
6851.29757 1.40958e-17
6852.76478 1.40825e-17
6854.24219 1.40692e-17
6855.70941 1.40559e-17
6857.17662 1.40426e-17
6858.65403 1.40293e-17
6860.12124 1.40160e-17
6861.58846 1.40027e-17
6863.05567 1.39895e-17
6864.53308 1.39762e-17
6866.00030 1.39629e-17
6867.46751 1.39496e-17
6868.93473 1.39363e-17
6870.41213 1.39230e-17
6871.87935 1.39098e-17
6873.34656 1.38965e-17
6874.82397 1.38832e-17
6876.29119 1.38699e-17
6877.75840 1.38566e-17
6879.22562 1.38434e-17
6880.70302 1.38301e-17
6882.17024 1.38168e-17
6883.63745 1.38035e-17
6885.11486 1.37903e-17
6886.58208 1.37770e-17
6888.04929 1.37637e-17
6889.51651 1.37504e-17
6890.99391 1.37372e-17
6892.46113 1.37239e-17
6893.92834 1.37106e-17
6895.39556 1.36973e-17
6896.87297 1.36841e-17
6898.34018 1.36708e-17
6899.80740 1.36575e-17
6901.27461 1.36443e-17
6902.75202 1.36310e-17
6904.21923 1.36177e-17
6905.68645 1.36045e-17
6907.16386 1.35912e-17
6908.63107 1.35779e-17
6910.09829 1.35647e-17
6911.56550 1.35514e-17
6913.04291 1.35381e-17
6914.51012 1.35249e-17
6915.97734 1.35116e-17
6917.45475 1.34983e-17
6918.92196 1.34851e-17
6920.38918 1.34718e-17
6921.85639 1.34586e-17
6923.33380 1.34453e-17
6924.80102 1.34321e-17
6926.26823 1.34188e-17
6927.73545 1.34055e-17
6929.21285 1.33923e-17
6930.68007 1.33790e-17
6932.14728 1.33658e-17
6933.62469 1.33525e-17
6935.09190 1.33393e-17
6936.55912 1.21450e-17
6938.02634 1.00675e-17
6939.50374 1.26559e-17
6940.97096 1.14593e-17
6942.43817 1.21101e-17
6943.90539 1.29719e-17
6945.38279 1.26411e-17
6946.85001 1.24359e-17
6948.31723 1.26336e-17
6949.79463 1.07239e-17
6951.26185 1.23126e-17
6952.72906 1.41036e-17
6954.19628 1.25692e-17
6955.67368 9.76572e-18
6957.14090 1.00227e-17
6958.60812 1.22374e-17
6960.07533 1.10313e-17
6961.55274 1.03554e-17
6963.01995 1.19226e-17
6964.48717 1.26316e-17
6965.96457 1.09510e-17
6967.43179 1.20416e-17
6968.89901 1.09770e-17
6970.36622 1.14721e-17
6971.84363 1.06273e-17
6973.31084 1.11391e-17
6974.77806 1.21401e-17
6976.24528 1.17779e-17
6977.72268 1.24752e-17
6979.18990 1.24143e-17
6980.65711 9.67243e-18
6982.13452 9.11385e-18
6983.60173 9.85114e-18
6985.06895 1.02163e-17
6986.53617 1.06379e-17
6988.01357 9.71949e-18
6989.48079 9.57012e-18
6990.94800 1.01839e-17
6992.41522 8.72376e-18
6993.89262 8.59159e-18
6995.35984 9.49752e-18
6996.82706 1.07509e-17
6998.30446 1.00182e-17
6999.77168 8.73978e-18
7001.23889 7.71630e-18
7002.70611 8.67930e-18
7004.18351 8.41271e-18
7005.65073 9.12319e-18
7007.11795 9.05520e-18
7008.58516 8.30115e-18
7010.06257 8.04143e-18
7011.52978 7.39975e-18
7012.99700 8.09748e-18
7014.47440 9.31680e-18
7015.94162 9.73740e-18
7017.40884 8.22875e-18
7018.87605 5.36614e-18
7020.35346 6.56960e-18
7021.82067 7.54010e-18
7023.28789 7.09877e-18
7024.75510 7.04468e-18
7026.23251 7.89367e-18
7027.69973 7.84530e-18
7029.16694 6.93231e-18
7030.64435 5.83455e-18
7032.11156 7.14547e-18
7033.57878 8.02498e-18
7035.04599 7.66093e-18
7036.52340 7.60366e-18
7037.99062 8.33526e-18
7039.45783 7.55246e-18
7040.92505 5.49516e-18
7042.40245 6.65840e-18
7043.86967 7.85472e-18
7045.33688 7.88258e-18
7046.81429 6.79501e-18
7048.28151 6.16109e-18
7049.74872 6.75641e-18
7051.21594 7.20385e-18
7052.69334 7.92289e-18
7054.16056 8.53709e-18
7055.62777 8.38385e-18
7057.09499 7.51074e-18
7058.57240 7.71116e-18
7060.03961 8.06645e-18
7061.50683 7.58128e-18
7062.98423 6.93433e-18
7064.45145 7.52831e-18
7065.91867 8.88322e-18
7067.38588 8.51012e-18
7068.86329 8.02797e-18
7070.33050 8.81141e-18
7071.79772 9.89203e-18
7073.26493 8.65246e-18
7074.74234 7.47427e-18
7076.20955 9.91126e-18
7077.67677 1.09424e-17
7079.15418 1.06549e-17
7080.62139 1.09923e-17
7082.08861 1.01513e-17
7083.55582 1.11524e-17
7085.03323 1.09884e-17
7086.50044 9.39837e-18
7087.96766 1.15652e-17
7089.43488 1.20550e-17
7090.91228 1.09064e-17
7092.37950 1.09055e-17
7093.84671 1.16759e-17
7095.32412 1.26992e-17
7096.79133 1.11805e-17
7098.25855 1.09561e-17
7099.72577 1.26926e-17
7101.20317 1.20009e-17
7102.67039 1.17298e-17
7104.13760 1.34472e-17
7105.60482 1.43666e-17
7107.08222 1.45926e-17
7108.54944 1.39105e-17
7110.01666 1.23617e-17
7111.49406 1.28687e-17
7112.96128 1.43762e-17
7114.42849 1.34386e-17
7115.89571 1.22168e-17
7117.37311 1.34900e-17
7118.84033 1.44086e-17
7120.30755 1.38246e-17
7121.77476 1.40270e-17
7123.25217 1.42749e-17
7124.71938 1.39777e-17
7126.18660 1.44542e-17
7127.66400 1.64926e-17
7129.13122 1.62832e-17
7130.59844 1.61296e-17
7132.06565 1.48045e-17
7133.54306 1.38822e-17
7135.01027 1.50008e-17
7136.47749 1.51681e-17
7137.94471 1.57749e-17
7139.42211 1.50256e-17
7140.88933 1.45631e-17
7142.35654 1.50443e-17
7143.83395 1.51522e-17
7145.30116 1.48584e-17
7146.76838 1.48805e-17
7148.23560 1.58773e-17
7149.71300 1.55369e-17
7151.18022 1.30128e-17
7152.64743 1.36109e-17
7154.12484 1.46723e-17
7155.59205 1.47897e-17
7157.05927 1.49071e-17
7158.52649 1.50244e-17
7160.00389 1.51418e-17
7161.47111 1.51414e-17
7162.93832 1.54535e-17
7164.40554 1.54285e-17
7165.88294 1.51608e-17
7167.35016 1.57952e-17
7168.81738 1.46754e-17
7170.29478 1.56339e-17
7171.76200 1.47978e-17
7173.22921 1.58652e-17
7174.69643 1.56550e-17
7176.17383 1.51436e-17
7177.64105 1.60862e-17
7179.10827 1.56151e-17
7180.57548 1.54829e-17
7182.05289 1.66371e-17
7183.52010 1.51712e-17
7184.98732 1.51260e-17
7186.46472 1.61419e-17
7187.93194 1.62173e-17
7189.39916 1.52310e-17
7190.86637 1.25151e-17
7192.34378 1.51130e-17
7193.81099 1.74216e-17
7195.27821 1.56926e-17
7196.74542 1.64495e-17
7198.22283 1.40244e-17
7199.69005 1.30470e-17
7201.15726 1.54067e-17
7202.62448 1.51323e-17
7204.10188 1.51721e-17
7205.56910 1.48407e-17
7207.03631 1.44689e-17
7208.51372 1.51541e-17
7209.98094 1.56026e-17
7211.44815 1.56996e-17
7212.91537 1.45520e-17
7214.39277 1.62022e-17
7215.85999 1.47373e-17
7217.32720 1.37157e-17
7218.80461 1.30781e-17
7220.27183 1.33628e-17
7221.73904 1.33624e-17
7223.20626 1.28774e-17
7224.68366 1.30725e-17
7226.15088 1.46063e-17
7227.61809 1.27492e-17
7229.08531 1.29839e-17
7230.56272 1.44070e-17
7232.02993 1.44614e-17
7233.49715 1.43208e-17
7234.97455 1.36487e-17
7236.44177 1.39647e-17
7237.90898 1.16206e-17
7239.37620 1.22884e-17
7240.85361 1.54148e-17
7242.32082 1.48289e-17
7243.78804 1.03231e-17
7245.25525 1.01455e-17
7246.73266 1.00761e-17
7248.19987 1.15990e-17
7249.66709 1.18484e-17
7251.14450 1.29129e-17
7252.61171 1.26557e-17
7254.07893 1.31607e-17
7255.54614 1.29612e-17
7257.02355 1.14164e-17
7258.49076 1.18163e-17
7259.95798 1.13486e-17
7261.42520 1.31163e-17
7262.90260 1.08505e-17
7264.36982 9.59862e-18
7265.83703 1.25207e-17
7267.31444 1.16055e-17
7268.78165 1.06116e-17
7270.24887 1.12541e-17
7271.71609 1.31332e-17
7273.19349 1.19168e-17
7274.66071 1.24029e-17
7276.12792 1.12633e-17
7277.59514 1.02794e-17
7279.07254 1.23705e-17
7280.53976 1.23755e-17
7282.00698 1.06207e-17
7283.48438 1.01148e-17
7284.95160 9.51545e-18
7286.41881 8.71121e-18
7287.88603 6.86338e-18
7289.36343 3.87406e-18
7290.83065 3.80593e-18
7292.29787 1.03150e-17
7293.76508 1.02258e-17
7295.24249 9.65075e-18
7296.70970 1.00492e-17
7298.17692 1.03328e-17
7299.65432 1.05995e-17
7301.12154 1.11788e-17
7302.58876 1.12161e-17
7304.05597 1.24551e-17
7305.53338 1.24371e-17
7307.00059 1.18947e-17
7308.46781 1.28939e-17
7309.93503 1.24707e-17
7311.41243 1.24074e-17
7312.87965 1.22362e-17
7314.34686 9.47550e-18
7315.82427 9.86585e-18
7317.29148 1.08793e-17
7318.75870 1.10529e-17
7320.22592 1.26752e-17
7321.70332 9.41717e-18
7323.17054 1.05441e-17
7324.63775 1.17282e-17
7326.10497 1.15509e-17
7327.58237 1.30465e-17
7329.04959 1.20670e-17
7330.51681 1.18627e-17
7331.99421 1.09917e-17
7333.46143 1.16297e-17
7334.92864 1.35715e-17
7336.39586 1.18289e-17
7337.87326 1.25780e-17
7339.34048 1.43162e-17
7340.80770 1.30071e-17
7342.27491 1.26565e-17
7343.75232 1.09459e-17
7345.21953 1.10890e-17
7346.68675 1.29440e-17
7348.16415 1.19797e-17
7349.63137 1.14167e-17
7351.09859 1.16136e-17
7352.56580 1.21593e-17
7354.04321 1.18764e-17
7355.51042 1.46476e-17
7356.97764 1.24422e-17
7358.45504 9.37156e-18
7359.92226 8.18531e-18
7361.38948 1.06913e-17
7362.85669 1.17473e-17
7364.33410 1.26818e-17
7365.80131 1.22193e-17
7367.26853 1.27987e-17
7368.73574 1.38709e-17
7370.21315 1.20541e-17
7371.68037 1.15703e-17
7373.14758 1.21258e-17
7374.62499 1.10407e-17
7376.09220 1.13836e-17
7377.55942 1.08436e-17
7379.02663 1.18722e-17
7380.50404 1.14010e-17
7381.97126 1.20041e-17
7383.43847 1.19506e-17
7384.90569 1.10200e-17
7386.38309 1.19318e-17
7387.85031 1.21279e-17
7389.31752 1.37298e-17
7390.78474 1.16036e-17
7392.26215 1.20206e-17
7393.72936 1.18706e-17
7395.19658 1.14060e-17
7396.67398 1.14619e-17
7398.14120 1.16535e-17
7399.60841 1.25776e-17
7401.07563 1.32813e-17
7402.55304 1.35852e-17
7404.02025 1.17581e-17
7405.48747 1.09730e-17
7406.95468 8.77382e-18
7408.43209 6.75223e-18
7409.89930 4.96167e-18
7411.36652 8.79522e-18
7412.20836 8.79522e-18
7414.20678 8.72431e-18
7416.20519 8.66513e-18
7418.20361 8.62785e-18
7420.20202 8.62115e-18
7422.21053 8.63566e-18
7424.20894 8.63762e-18
7426.20735 8.57145e-18
7428.20577 8.51736e-18
7430.20418 8.55810e-18
7432.21269 8.62797e-18
7434.21110 8.65565e-18
7436.20952 8.63144e-18
7438.20793 8.62011e-18
7440.21644 8.67426e-18
7442.21485 8.72373e-18
7444.21327 8.69738e-18
7446.21168 8.64716e-18
7448.21009 8.60867e-18
7450.21860 8.58861e-18
7452.21702 8.56550e-18
7454.21543 8.53105e-18
7456.21384 8.50031e-18
7458.22235 8.49487e-18
7460.22076 8.49308e-18
7462.21918 8.48690e-18
7464.21759 8.46829e-18
7466.21601 8.43038e-18
7468.22451 8.37611e-18
7470.22293 8.32433e-18
7472.22134 8.30179e-18
7474.21976 8.29249e-18
7476.21817 8.31306e-18
7478.22668 8.31670e-18
7480.22509 8.24539e-18
7482.22350 8.11004e-18
7484.22192 7.99023e-18
7486.23043 7.97307e-18
7488.22884 7.97752e-18
7490.22725 7.93862e-18
7492.22567 7.90528e-18
7494.22408 7.92504e-18
7496.23259 7.98711e-18
7498.23100 8.04999e-18
7500.22942 8.07559e-18
7502.22783 8.08686e-18
7504.22624 8.09310e-18
7506.23475 8.08588e-18
7508.23317 8.05554e-18
7510.23158 8.01162e-18
7512.22999 7.96105e-18
7514.23850 7.91857e-18
7516.23691 7.88933e-18
7518.23533 7.89043e-18
7520.23374 7.91227e-18
7522.23216 7.97896e-18
7524.24066 8.03346e-18
7526.23908 8.01271e-18
7528.23749 7.91007e-18
7530.23591 7.79871e-18
7532.23432 7.75484e-18
7534.24283 7.73658e-18
7536.24124 7.74057e-18
7538.23965 7.75328e-18
7540.23807 7.76479e-18
7542.24658 7.77062e-18
7544.24499 7.77993e-18
7546.24340 7.79582e-18
7548.24182 7.80726e-18
7550.24023 7.80738e-18
7552.24874 7.78744e-18
7554.24715 7.72959e-18
7556.24557 7.65122e-18
7558.24398 7.56899e-18
7560.24239 7.50969e-18
7562.25090 7.47819e-18
7564.24932 7.52108e-18
7566.24773 7.56124e-18
7568.24614 7.53350e-18
7570.25465 7.46924e-18
7572.25306 7.41387e-18
7574.25148 7.39145e-18
7576.24989 7.37810e-18
7578.24831 7.36267e-18
7580.25681 7.33591e-18
7582.25523 7.26974e-18
7584.25364 7.19744e-18
7586.25206 7.16646e-18
7588.26056 7.15410e-18
7590.25898 7.08775e-18
7592.25739 6.90195e-18
7594.25580 6.70962e-18
7596.25422 6.61732e-18
7598.26273 6.58525e-18
7600.26114 6.61801e-18
7602.25955 6.67089e-18
7604.25797 6.71372e-18
7606.25638 6.69632e-18
7608.26489 6.62755e-18
7610.26330 6.42406e-18
7612.26172 6.25520e-18
7614.26013 6.26658e-18
7616.26864 6.39419e-18
7618.26705 6.55294e-18
7620.26547 6.65205e-18
7622.26388 6.68829e-18
7624.26229 6.58779e-18
7626.27080 6.45799e-18
7628.26921 6.37928e-18
7630.26763 6.33206e-18
7632.26604 6.28392e-18
7634.27455 6.23503e-18
7636.27296 6.21191e-18
7638.27138 6.23664e-18
7640.26979 6.26086e-18
7642.26821 6.23451e-18
7644.27671 6.18047e-18
7646.27513 6.09997e-18
7648.27354 6.01958e-18
7650.27195 5.96751e-18
7652.27037 5.96404e-18
7654.27888 5.95728e-18
7656.27729 5.86625e-18
7658.27570 5.77013e-18
7660.27412 5.70885e-18
7662.28262 5.68881e-18
7664.28104 5.69908e-18
7666.27945 5.73046e-18
7668.27787 5.77334e-18
7670.27628 5.80823e-18
7672.28479 5.84915e-18
7674.28320 5.92104e-18
7676.28162 5.98068e-18
7678.28003 5.98039e-18
7680.27844 5.91682e-18
7682.28695 5.84007e-18
7684.28536 5.80031e-18
7686.28378 5.77291e-18
7688.28219 5.75737e-18
7690.29070 5.74810e-18
7692.28911 5.73356e-18
7694.28753 5.72542e-18
7696.28594 5.75001e-18
7698.28436 5.82210e-18
7700.29286 5.89110e-18
7702.29128 5.89440e-18
7704.28969 5.86400e-18
7706.28810 5.79297e-18
7708.29661 5.71890e-18
7710.29503 5.67350e-18
7712.29344 5.68496e-18
7714.29185 5.72133e-18
7716.29027 5.76125e-18
7718.29877 5.80707e-18
7720.29719 5.85574e-18
7722.29560 5.90185e-18
7724.29402 5.93971e-18
7726.29243 5.97097e-18
7728.30094 6.00380e-18
7730.29935 6.04761e-18
7732.29777 6.11164e-18
7734.29618 6.21769e-18
7736.30469 6.34529e-18
7738.30310 6.49157e-18
7740.30151 6.62668e-18
7742.29993 6.72892e-18
7744.29834 6.76718e-18
7746.30685 6.77533e-18
7748.30526 6.75492e-18
7750.30368 6.75562e-18
7752.30209 6.83034e-18
7754.30051 6.96009e-18
7756.30901 7.10520e-18
7758.30743 7.22437e-18
7760.30584 7.32210e-18
7762.30425 7.36908e-18
7764.31276 7.39809e-18
7766.31118 7.42555e-18
7768.30959 7.45479e-18
7770.30800 7.47796e-18
7772.30642 7.50125e-18
7774.31492 7.53570e-18
7776.31334 7.59910e-18
7778.31175 7.67186e-18
7780.31017 7.75282e-18
7782.30858 7.81847e-18
7784.31709 7.84356e-18
7786.31550 7.83298e-18
7788.31392 7.81437e-18
7790.31233 7.81714e-18
7792.32084 7.83414e-18
7794.31925 7.89320e-18
7796.31766 7.94244e-18
7798.31608 7.93400e-18
7800.31449 7.88037e-18
7802.32300 7.81957e-18
7804.32141 7.78605e-18
7806.31983 7.76710e-18
7808.31824 7.79513e-18
7810.32675 7.79813e-18
7812.32516 7.70208e-18
7814.32358 7.55754e-18
7816.32199 7.41740e-18
7818.32040 7.34342e-18
7820.32891 7.33608e-18
7822.32733 7.44566e-18
7824.32574 7.58557e-18
7826.32415 7.70514e-18
7828.32257 7.77981e-18
7830.33107 7.78744e-18
7832.32949 7.73849e-18
7834.32790 7.67174e-18
7836.32632 7.63331e-18
7838.33482 7.61736e-18
7840.33324 7.64417e-18
7842.33165 7.70156e-18
7844.33007 7.80177e-18
7846.32848 7.90528e-18
7848.33699 7.97093e-18
7850.33540 7.95735e-18
7852.33381 7.91545e-18
7854.33223 7.87211e-18
7856.33064 7.85142e-18
7858.33915 7.91562e-18
7860.33756 7.99538e-18
7862.33598 8.00058e-18
7864.33439 7.88494e-18
7866.34290 7.73421e-18
7868.34131 7.61776e-18
7870.33973 7.54425e-18
7872.33814 7.56095e-18
7874.33655 7.63822e-18
7876.34506 7.76409e-18
7878.34348 7.89164e-18
7880.34189 7.99058e-18
7882.34030 8.00185e-18
7884.34881 7.97370e-18
7886.34722 7.90996e-18
7888.34564 7.85517e-18
7890.34405 7.85997e-18
7892.34247 7.90649e-18
7894.35097 7.93938e-18
7896.34939 7.90591e-18
7898.34780 7.83789e-18
7900.34622 7.73410e-18
7902.34463 7.61799e-18
7904.35314 7.49911e-18
7906.35155 7.39798e-18
7908.34996 7.31857e-18
7910.34838 7.27794e-18
7912.35689 7.27731e-18
7914.35530 7.33585e-18
7916.35371 7.42566e-18
7918.35213 7.54934e-18
7920.35054 7.66272e-18
7922.35905 7.73225e-18
7924.35746 7.73705e-18
7926.35588 7.70335e-18
7928.35429 7.64643e-18
7930.35270 7.59031e-18
7932.36121 7.56454e-18
7934.35963 7.57095e-18
7936.35804 7.61903e-18
7938.35645 7.69422e-18
7940.36496 7.77681e-18
7942.36337 7.84009e-18
7944.36179 7.89112e-18
7946.36020 7.93978e-18
7948.35862 7.94776e-18
7950.36712 7.86771e-18
7952.36554 7.73103e-18
7954.36395 7.57043e-18
7956.36237 7.44658e-18
7958.37087 7.38578e-18
7960.36929 7.50715e-18
7962.36770 7.65192e-18
7964.36611 7.73606e-18
7966.36453 7.73392e-18
7968.37304 7.63007e-18
7970.37145 7.45906e-18
7972.36986 7.30707e-18
7974.36828 7.30245e-18
7976.36669 7.31638e-18
7978.37520 7.25997e-18
7980.37361 7.17236e-18
7982.37203 7.07469e-18
7984.37044 7.00886e-18
7986.37895 7.00707e-18
7988.37736 7.11000e-18
7990.37578 7.22125e-18
7992.37419 7.21755e-18
7994.37260 7.19374e-18
7996.38111 7.22709e-18
7998.37952 7.29465e-18
8000.37794 7.32464e-18
8002.37635 7.27182e-18
8004.37477 7.19935e-18
8006.38327 7.17190e-18
8008.38169 7.14982e-18
8010.38010 7.10746e-18
8012.37852 7.07353e-18
8014.38702 7.09301e-18
8016.38544 7.16872e-18
8018.38385 7.24182e-18
8020.38226 7.24252e-18
8022.38068 7.20166e-18
8024.38919 7.09590e-18
8026.38760 6.98118e-18
8028.38601 6.90322e-18
8030.38443 6.88357e-18
8032.39293 6.89160e-18
8034.39135 6.90802e-18
8036.38976 6.92478e-18
8038.38818 6.92535e-18
8040.38659 6.90836e-18
8042.39510 6.86941e-18
8044.39351 6.81156e-18
8046.39193 6.72747e-18
8048.39034 6.63293e-18
8050.38875 6.57664e-18
8052.39726 6.67696e-18
8054.39567 6.80145e-18
8056.39409 6.88698e-18
8058.39250 6.90368e-18
8060.40101 6.84895e-18
8062.39942 6.73279e-18
8064.39784 6.60380e-18
8066.39625 6.53578e-18
8068.39467 6.47336e-18
8070.40317 6.37459e-18
8072.40159 6.28178e-18
8074.40000 6.24271e-18
8076.39841 6.26600e-18
8078.39683 6.31183e-18
8080.40534 6.34281e-18
8082.40375 6.35489e-18
8084.40216 6.31316e-18
8086.40058 6.25075e-18
8088.40908 6.17538e-18
8090.40750 6.12545e-18
8092.40591 6.13042e-18
8094.40433 6.22173e-18
8096.40274 6.33686e-18
8098.41125 6.41031e-18
8100.40966 6.46943e-18
8102.40808 6.52809e-18
8104.40649 6.57294e-18
8106.40490 6.58733e-18
8108.41341 6.55889e-18
8110.41182 6.50093e-18
8112.41024 6.41522e-18
8114.40865 6.32449e-18
8116.41716 6.25092e-18
8118.41557 6.19174e-18
8120.41399 6.13533e-18
8122.41240 6.08326e-18
8124.41082 6.04529e-18
8126.41932 6.03298e-18
8128.41774 6.04119e-18
8130.41615 6.08165e-18
8132.41456 6.12661e-18
8134.42307 6.15487e-18
8136.42149 6.15741e-18
8138.41990 6.14169e-18
8140.41831 6.11540e-18
8142.41673 6.10181e-18
8144.42523 6.15273e-18
8146.42365 6.21422e-18
8148.42206 6.25930e-18
8150.42048 6.26907e-18
8152.41889 6.23722e-18
8154.42740 6.16712e-18
8156.42581 6.09661e-18
8158.42423 6.09280e-18
8160.42264 6.09465e-18
8162.43115 6.08078e-18
8164.42956 6.03385e-18
8166.42797 5.93295e-18
8168.42639 5.79436e-18
8170.42480 5.67079e-18
8172.43331 5.63575e-18
8174.43172 5.63548e-18
8176.43014 5.66050e-18
8178.42855 5.68271e-18
8180.43706 5.67814e-18
8182.43547 5.64343e-18
8184.43389 5.60032e-18
8186.43230 5.56942e-18
8188.43071 5.55431e-18
8190.43922 5.56693e-18
8192.43764 5.61163e-18
8194.43605 5.70765e-18
8196.43446 5.82886e-18
8198.43288 5.95040e-18
8200.44138 6.03443e-18
8202.43980 6.08234e-18
8204.43821 6.06448e-18
8206.43663 6.00536e-18
8208.44513 5.89925e-18
8210.44355 5.78089e-18
8212.44196 5.67204e-18
8214.44038 5.60146e-18
8216.43879 5.55779e-18
8218.44730 5.54507e-18
8220.44571 5.56435e-18
8222.44412 5.64177e-18
8224.44254 5.72459e-18
8226.44095 5.77064e-18
8228.44946 5.75659e-18
8230.44787 5.70711e-18
8232.44629 5.63495e-18
8234.44470 5.55247e-18
8236.45321 5.47813e-18
8238.45162 5.41261e-18
8240.45004 5.35865e-18
8242.44845 5.31538e-18
8244.44686 5.27896e-18
8246.45537 5.24590e-18
8248.45378 5.21745e-18
8250.45220 5.18317e-18
8252.45061 5.16810e-18
8254.45912 5.21027e-18
8256.45753 5.26914e-18
8258.45595 5.29745e-18
8260.45436 5.25976e-18
8262.45278 5.18894e-18
8264.46128 5.09480e-18
8266.45970 5.00957e-18
8268.45811 4.98879e-18
8270.45653 4.98276e-18
8272.45494 4.92818e-18
8274.46345 4.82287e-18
8276.46186 4.73014e-18
8278.46027 4.71513e-18
8280.45869 4.74440e-18
8282.46720 4.84370e-18
8284.46561 4.94071e-18
8286.46402 4.96981e-18
8288.46244 4.93171e-18
8290.46085 4.88624e-18
8292.46936 4.87536e-18
8294.46777 4.85340e-18
8296.46619 4.77342e-18
8298.46460 4.67801e-18
8300.46301 4.58426e-18
8302.47152 4.50822e-18
8304.46994 4.45243e-18
8306.46835 4.42324e-18
8308.46676 4.41197e-18
8310.47527 4.42274e-18
8312.47368 4.41811e-18
8314.47210 4.35405e-18
8316.47051 4.25734e-18
8318.46893 4.15478e-18
8320.47743 4.07142e-18
8322.47585 4.00277e-18
8324.47426 3.95949e-18
8326.47268 3.92763e-18
8328.47109 3.90305e-18
8330.47960 3.87391e-18
8332.47801 3.81809e-18
8334.47642 3.75524e-18
8336.47484 3.73139e-18
8338.48335 3.78331e-18
8340.48176 3.82918e-18
8342.48017 3.76735e-18
8344.47859 3.67084e-18
8346.47700 3.58258e-18
8348.48551 3.50401e-18
8350.48392 3.39893e-18
8352.48234 3.26666e-18
8354.48075 3.15756e-18
8356.48926 3.16024e-18
8358.48767 3.18753e-18
8360.48609 3.20459e-18
8362.48450 3.19083e-18
8364.48291 3.13543e-18
8366.49142 3.04401e-18
8368.48983 2.95176e-18
8370.48825 2.90494e-18
8372.48666 2.86647e-18
8374.48508 2.81788e-18
8376.49358 2.76270e-18
8378.49200 2.70002e-18
8380.49041 2.64032e-18
8382.48883 2.59557e-18
8384.49733 2.58150e-18
8386.49575 2.58166e-18
8388.49416 2.58882e-18
8390.49257 2.59612e-18
8392.49099 2.59930e-18
8394.49950 2.59288e-18
8396.49791 2.56791e-18
8398.49632 2.52929e-18
8400.49474 2.50991e-18
8402.50324 2.58362e-18
8404.50166 2.66969e-18
8406.50007 2.71802e-18
8408.49849 2.74274e-18
8410.49690 2.78113e-18
8412.50541 2.84343e-18
8414.50382 2.89807e-18
8416.50224 2.90887e-18
8418.50065 2.91571e-18
8420.49906 2.95412e-18
8422.50757 2.99650e-18
8424.50598 3.01283e-18
8426.50440 2.99753e-18
8428.50281 2.97151e-18
8430.51132 2.95379e-18
8432.50973 2.95041e-18
8434.50815 2.98801e-18
8436.50656 3.03908e-18
8438.50497 3.08028e-18
8440.51348 3.11351e-18
8442.51190 3.15913e-18
8444.51031 3.22954e-18
8446.50872 3.30685e-18
8448.50714 3.37767e-18
8450.51564 3.44047e-18
8452.51406 3.47395e-18
8454.51247 3.51115e-18
8456.51089 3.59439e-18
8458.51939 3.74027e-18
8460.51781 3.89857e-18
8462.51622 4.01852e-18
8464.51464 4.11214e-18
8466.51305 4.17117e-18
8468.52156 4.19620e-18
8470.51997 4.18148e-18
8472.51839 4.14022e-18
8474.51680 4.08705e-18
8476.52531 4.04604e-18
8478.52372 4.02917e-18
8480.52213 4.08528e-18
8482.52055 4.15343e-18
8484.51896 4.18607e-18
8486.52747 4.17104e-18
8488.52588 4.13170e-18
8490.52430 4.08804e-18
8492.52271 4.05684e-18
8494.52113 4.06921e-18
8496.52963 4.12097e-18
8498.52805 4.23850e-18
8500.52646 4.37685e-18
8502.52487 4.48867e-18
8504.53338 4.53379e-18
8506.53180 4.55209e-18
8508.53021 4.56162e-18
8510.52862 4.58023e-18
8512.52704 4.64807e-18
8514.53554 4.72648e-18
8516.53396 4.77997e-18
8518.53237 4.77952e-18
8520.53079 4.73522e-18
8522.52920 4.63872e-18
8524.53771 4.54269e-18
8526.53612 4.49532e-18
8528.53454 4.49700e-18
8530.53295 4.56761e-18
8532.54146 4.67001e-18
8534.53987 4.74656e-18
8536.53828 4.73749e-18
8538.53670 4.72374e-18
8540.53511 4.78944e-18
8542.54362 4.87359e-18
8544.54203 4.93564e-18
8546.54045 4.98276e-18
8548.53886 5.04482e-18
8550.53728 5.13994e-18
8552.54578 5.24925e-18
8554.54420 5.36987e-18
8556.54261 5.47557e-18
8558.54102 5.53515e-18
8560.54953 5.56492e-18
8562.54795 5.58357e-18
8564.54636 5.61030e-18
8566.54477 5.64143e-18
8568.54319 5.68291e-18
8570.55169 5.74887e-18
8572.55011 5.87238e-18
8574.54852 6.01455e-18
8576.54694 6.13944e-18
8578.54535 6.23878e-18
8580.55386 6.34131e-18
8582.55227 6.46781e-18
8584.55069 6.59917e-18
8586.54910 6.73707e-18
8588.55761 6.85248e-18
8590.55602 6.89917e-18
8592.55443 6.91703e-18
8594.55285 6.97627e-18
8596.55126 7.12503e-18
8598.55977 7.28424e-18
8600.55818 7.35643e-18
8602.55660 7.41965e-18
8604.55501 7.51894e-18
8606.55343 7.63036e-18
8608.56193 7.71087e-18
8610.56035 7.74647e-18
8612.55876 7.77525e-18
8614.55717 7.83396e-18
8616.56568 7.91285e-18
8618.56409 8.03074e-18
8620.56251 8.15725e-18
8622.56092 8.25972e-18
8624.55934 8.33687e-18
8626.56784 8.42674e-18
8628.56626 8.56290e-18
8630.56467 8.69443e-18
8632.56309 8.75361e-18
8634.57159 8.81198e-18
8636.57001 8.93461e-18
8638.56842 9.10932e-18
8640.56684 9.27524e-18
8642.56525 9.39042e-18
8644.57376 9.50705e-18
8646.57217 9.68273e-18
8648.57058 9.86727e-18
8650.56900 1.00669e-17
8652.56741 1.02155e-17
8654.57592 1.02405e-17
8656.57433 1.01237e-17
8658.57275 9.97707e-18
8660.57116 9.93078e-18
8662.57967 9.93407e-18
8664.57808 1.00095e-17
8666.57650 1.01128e-17
8668.57491 1.02104e-17
8670.57332 1.02741e-17
8672.58183 1.03252e-17
8674.58025 1.03680e-17
8676.57866 1.03702e-17
8678.57707 1.02715e-17
8680.57549 1.01404e-17
8682.58399 1.00212e-17
8684.58241 9.94401e-18
8686.58082 9.89264e-18
8688.57924 9.87252e-18
8690.58774 9.88934e-18
8692.58616 9.97580e-18
8694.58457 1.00741e-17
8696.58299 1.01451e-17
8698.58140 1.01839e-17
8700.58991 1.02071e-17
8702.58832 1.02255e-17
8704.58673 1.02411e-17
8706.58515 1.02652e-17
8708.59366 1.02890e-17
8710.59207 1.03120e-17
8712.59048 1.03270e-17
8714.58890 1.03090e-17
8716.58731 1.02841e-17
8718.59582 1.03106e-17
8720.59423 1.04718e-17
8722.59265 1.06753e-17
8724.59106 1.08908e-17
8726.58947 1.10593e-17
8728.59798 1.11205e-17
8730.59640 1.10862e-17
8732.59481 1.10309e-17
8734.59322 1.10208e-17
8736.60173 1.09962e-17
8738.60014 1.09073e-17
8740.59856 1.07956e-17
8742.59697 1.06669e-17
8744.59539 1.05620e-17
8746.60389 1.05115e-17
8748.60231 1.05414e-17
8750.60072 1.06052e-17
8752.59914 1.06703e-17
8754.60764 1.07152e-17
8756.60606 1.07071e-17
8758.60447 1.06524e-17
8760.60288 1.05578e-17
8762.60130 1.04458e-17
8764.60981 1.03343e-17
8766.60822 1.02576e-17
8768.60663 1.02120e-17
8770.60505 1.02216e-17
8772.60346 1.02554e-17
8774.61197 1.02931e-17
8776.61038 1.03141e-17
8778.60880 1.03224e-17
8780.60721 1.03104e-17
8782.61572 1.02860e-17
8784.61413 1.02386e-17
8786.61254 1.02052e-17
8788.61096 1.02155e-17
8790.60937 1.02724e-17
8792.61788 1.03624e-17
8794.61629 1.04687e-17
8796.61471 1.05770e-17
8798.61312 1.06730e-17
8800.61154 1.07246e-17
8802.62004 1.06925e-17
8804.61846 1.05924e-17
8806.61687 1.04378e-17
8808.61529 1.02655e-17
8810.62379 1.01036e-17
8812.62221 1.00182e-17
8814.62062 9.93794e-18
8816.61903 9.81017e-18
8818.61745 9.66158e-18
8820.62596 9.50364e-18
8822.62437 9.37626e-18
8824.62278 9.30443e-18
8826.62120 9.33552e-18
8828.62970 9.43590e-18
8830.62812 9.65673e-18
8832.62653 9.84582e-18
8834.62495 9.85652e-18
8836.62336 9.71498e-18
8838.63187 9.55184e-18
8840.63028 9.47642e-18
8842.62870 9.42151e-18
8844.62711 9.37892e-18
8846.62552 9.32385e-18
8848.63403 9.20815e-18
8850.63244 9.08250e-18
8852.63086 9.02356e-18
8854.62927 9.05679e-18
8856.63778 9.08961e-18
8858.63619 9.01310e-18
8860.63461 8.90133e-18
8862.63302 8.77366e-18
8864.63144 8.64571e-18
8866.63994 8.52325e-18
8868.63836 8.41385e-18
8870.63677 8.31034e-18
8872.63518 8.20955e-18
8874.63360 8.11200e-18
8876.64211 8.00618e-18
8878.64052 7.91643e-18
8880.63893 7.87060e-18
8882.63735 7.85835e-18
8884.64585 7.85026e-18
8886.64427 7.81662e-18
8888.64268 7.77253e-18
8890.64110 7.70670e-18
8892.63951 7.65036e-18
8894.64802 7.63013e-18
8896.64643 7.64105e-18
8898.64485 7.67573e-18
8900.64326 7.71006e-18
8902.65177 7.71728e-18
8904.65018 7.62851e-18
8906.64859 7.52535e-18
8908.64701 7.42988e-18
8910.64542 7.39630e-18
8912.65393 7.49386e-18
8914.65234 7.69364e-18
8916.65076 7.87239e-18
8918.64917 7.87436e-18
8920.64759 7.78056e-18
8922.65609 7.57494e-18
8924.65451 7.32753e-18
8926.65292 7.09174e-18
8928.65133 6.89033e-18
8930.65984 6.67332e-18
8932.65826 6.42568e-18
8934.65667 6.23075e-18
8936.65508 6.22272e-18
8938.65350 6.27901e-18
8940.66200 6.34136e-18
8942.66042 6.36419e-18
8944.65883 6.34281e-18
8946.65725 6.26849e-18
8948.66575 6.18758e-18
8950.66417 6.17475e-18
8952.66258 6.15828e-18
8954.66100 6.08078e-18
8956.65941 5.98773e-18
8958.66792 5.95052e-18
8960.66633 5.97733e-18
8962.66474 5.98138e-18
8964.66316 5.85683e-18
8966.66157 5.72929e-18
8968.67008 5.70794e-18
8970.66849 5.72047e-18
8972.66691 5.70007e-18
8974.66532 5.62137e-18
8976.67383 5.51937e-18
8978.67224 5.41367e-18
8980.67066 5.30246e-18
8982.66907 5.17448e-18
8984.66748 5.07458e-18
8986.67599 5.05582e-18
8988.67441 5.08974e-18
8990.67282 5.11804e-18
8992.67123 5.09128e-18
8994.66965 5.05086e-18
8996.67815 5.01882e-18
8998.67657 4.99268e-18
9000.67498 4.96591e-18
9002.67340 4.96253e-18
9004.68190 5.02170e-18
9006.68032 5.13397e-18
9008.67873 5.22815e-18
9010.67714 5.20549e-18
9012.67556 5.13681e-18
9014.68407 5.03488e-18
9016.68248 4.93309e-18
9018.68089 4.86187e-18
9020.67931 4.82156e-18
9022.67772 4.76680e-18
9024.68623 4.65685e-18
9026.68464 4.56191e-18
9028.68306 4.56043e-18
9030.68147 4.59518e-18
9032.68998 4.62481e-18
9034.68839 4.64204e-18
9036.68681 4.67279e-18
9038.68522 4.72848e-18
9040.68363 4.78986e-18
9042.69214 4.83569e-18
9044.69056 4.87900e-18
9046.68897 4.92748e-18
9048.68738 4.97590e-18
9050.68580 5.01385e-18
9052.69430 5.03963e-18
9054.69272 5.06848e-18
9056.69113 5.12726e-18
9058.68955 5.17201e-18
9060.69805 5.14735e-18
9062.69647 5.10937e-18
9064.69488 5.12281e-18
9066.69330 5.19974e-18
9068.69171 5.28062e-18
9070.70022 5.30955e-18
9072.69863 5.31552e-18
9074.69704 5.29383e-18
9076.69546 5.26660e-18
9078.69387 5.23825e-18
9080.70238 5.23724e-18
9082.70079 5.28929e-18
9084.69921 5.41572e-18
9086.69762 5.54954e-18
9088.70613 5.62089e-18
9090.70454 5.64318e-18
9092.70296 5.59540e-18
9094.70137 5.50957e-18
9096.69978 5.41180e-18
9098.70829 5.34413e-18
9100.70671 5.30956e-18
9102.70512 5.35015e-18
9104.70353 5.41835e-18
9106.70195 5.49032e-18
9108.71045 5.55960e-18
9110.70887 5.63805e-18
9112.70728 5.71110e-18
9114.70570 5.75573e-18
9116.71420 5.73535e-18
9118.71262 5.70517e-18
9120.71103 5.72470e-18
9122.70945 5.74636e-18
9124.70786 5.73373e-18
9126.71637 5.66760e-18
9128.71478 5.55265e-18
9130.71319 5.39414e-18
9132.71161 5.24533e-18
9134.72012 5.18551e-18
9136.71853 5.17015e-18
9138.71694 5.19925e-18
9140.71536 5.22578e-18
9142.71377 5.20311e-18
9144.72228 5.10339e-18
9146.72069 5.00213e-18
9148.71911 4.98151e-18
9150.71752 5.01620e-18
9152.71593 5.15985e-18
9154.72444 5.31251e-18
9156.72286 5.36833e-18
9158.72127 5.28460e-18
9160.71968 5.16998e-18
9162.72819 5.12605e-18
9164.72660 5.10246e-18
9166.72502 5.08923e-18
9168.72343 5.09249e-18
9170.72185 5.12577e-18
9172.73035 5.17812e-18
9174.72877 5.23111e-18
9176.72718 5.26015e-18
9178.72559 5.27144e-18
9180.73410 5.24528e-18
9182.73252 5.21660e-18
9184.73093 5.20595e-18
9186.72934 5.22807e-18
9188.72776 5.28811e-18
9190.73626 5.38182e-18
9192.73468 5.47071e-18
9194.73309 5.47467e-18
9196.73151 5.47472e-18
9198.72992 5.52963e-18
9200.73843 5.60516e-18
9202.73684 5.64007e-18
9204.73526 5.61646e-18
9206.73367 5.59739e-18
9208.74218 5.65724e-18
9210.74059 5.72047e-18
9212.73901 5.72393e-18
9214.73742 5.71592e-18
9216.73583 5.74859e-18
9218.74434 5.83470e-18
9220.74275 5.93948e-18
9222.74117 6.03333e-18
9224.73958 6.10430e-18
9226.73800 6.10904e-18
9228.74650 6.08933e-18
9230.74492 6.08020e-18
9232.74333 6.08037e-18
9234.74175 6.05899e-18
9236.75025 5.99929e-18
9238.74867 5.93324e-18
9240.74708 5.88550e-18
9242.74549 5.86412e-18
9244.74391 5.88949e-18
9246.75242 5.94797e-18
9248.75083 6.02801e-18
9250.74924 6.10465e-18
9252.74766 6.16336e-18
9254.75616 6.15591e-18
9256.75458 6.15337e-18
9258.75299 6.22566e-18
9260.75141 6.32114e-18
9262.74982 6.39054e-18
9264.75833 6.39771e-18
9266.75674 6.35778e-18
9268.75516 6.26577e-18
9270.75357 6.15810e-18
9272.75198 6.06240e-18
9274.76049 5.99455e-18
9276.75890 5.96797e-18
9278.75732 5.98559e-18
9280.75573 6.04564e-18
9282.76424 6.13401e-18
9284.76265 6.20480e-18
9286.76107 6.16232e-18
9288.75948 6.09777e-18
9290.75790 6.07616e-18
9292.76640 6.08026e-18
9294.76482 6.04899e-18
9296.76323 5.96427e-18
9298.76164 5.89145e-18
9300.76006 5.90457e-18
9302.76857 5.97675e-18
9304.76698 6.17585e-18
9306.76539 6.36113e-18
9308.76381 6.39297e-18
9310.77231 6.21890e-18
9312.77073 5.95837e-18
9314.76914 5.70669e-18
9316.76756 5.55430e-18
9318.76597 5.74710e-18
9320.77448 6.01524e-18
9322.77289 6.12447e-18
9324.77131 6.02027e-18
9326.76972 5.86140e-18
9328.77823 5.76058e-18
9330.77664 5.67319e-18
9332.77505 5.58536e-18
9334.77347 5.54783e-18
9336.77188 5.63519e-18
9338.78039 5.78355e-18
9340.77880 5.91960e-18
9342.77722 5.94398e-18
9344.77563 5.85834e-18
9346.77405 5.47820e-18
9348.78255 5.16893e-18
9350.78097 5.26715e-18
9352.77938 5.58890e-18
9354.77779 5.88735e-18
9356.78630 5.99582e-18
9358.78471 6.03206e-18
9360.78313 6.02819e-18
9362.78154 5.98380e-18
9364.77996 5.89480e-18
9366.78846 5.79858e-18
9368.78688 5.68081e-18
9370.78529 5.62708e-18
9372.78371 5.74373e-18
9374.79221 6.14909e-18
9376.79063 6.57074e-18
9378.78904 6.75024e-18
9380.78746 6.74718e-18
9382.78587 6.51549e-18
9384.79438 6.17949e-18
9386.79279 5.86781e-18
9388.79120 5.72444e-18
9390.78962 5.64379e-18
9392.78803 5.57117e-18
9394.79654 5.53457e-18
9396.79495 5.56128e-18
9398.79337 5.60725e-18
9400.79178 5.60714e-18
9402.80029 5.55739e-18
9404.79870 5.56145e-18
9406.79712 5.77052e-18
9408.79553 5.98542e-18
9410.79394 6.05772e-18
9412.80245 6.03634e-18
9414.80086 5.98317e-18
9416.79928 5.92422e-18
9418.79769 5.82331e-18
9420.79611 5.66626e-18
9422.80461 5.54295e-18
9424.80303 5.58034e-18
9426.80144 5.68286e-18
9428.79986 5.81522e-18
9430.80836 5.90058e-18
9432.80678 5.88810e-18
9434.80519 5.73118e-18
9436.80361 5.55651e-18
9438.80202 5.50840e-18
9440.81053 5.52878e-18
9442.80894 5.65700e-18
9444.80735 5.79361e-18
9446.80577 5.83574e-18
9448.81428 5.71962e-18
9450.81269 5.55258e-18
9452.81110 5.40229e-18
9454.80952 5.34745e-18
9456.80793 5.60257e-18
9458.81644 5.90804e-18
9460.81485 5.98299e-18
9462.81327 5.75576e-18
9464.81168 5.47120e-18
9466.81009 5.34843e-18
9468.81860 5.33885e-18
9470.81702 5.54393e-18
9472.81543 5.83551e-18
9474.81384 6.17134e-18
9476.82235 6.41811e-18
9478.82076 6.49810e-18
9480.81918 6.30507e-18
9482.81759 6.00975e-18
9484.81601 5.71999e-18
9486.82451 5.50728e-18
9488.82293 5.48926e-18
9490.82134 5.60345e-18
9492.81976 5.76392e-18
9494.81817 5.85285e-18
9496.82668 5.84805e-18
9498.82509 5.59059e-18
9500.82350 5.29560e-18
9502.82192 5.07736e-18
9504.83043 4.97498e-18
9506.82884 5.00440e-18
9508.82725 5.14004e-18
9510.82567 5.30787e-18
9512.82408 5.41048e-18
9514.83259 5.45906e-18
9516.83100 5.36873e-18
9518.82942 5.26615e-18
9520.82783 5.28225e-18
9522.82624 5.40443e-18
9524.83475 5.50628e-18
9526.83317 5.47128e-18
9528.83158 5.37191e-18
9530.82999 5.18838e-18
9532.83850 5.02103e-18
9534.83691 4.97200e-18
9536.83533 5.00603e-18
9538.83374 5.03201e-18
9540.83216 4.97970e-18
9542.84066 4.90067e-18
9544.83908 4.79612e-18
9546.83749 4.72033e-18
9548.83591 4.74012e-18
9550.83432 4.81303e-18
9552.84283 4.89576e-18
9554.84124 4.93752e-18
9556.83965 4.93624e-18
9558.83807 4.85191e-18
9560.84658 4.74672e-18
9562.84499 4.67249e-18
9564.84340 4.60977e-18
9566.84182 4.53610e-18
9568.84023 4.44697e-18
9570.84874 4.35011e-18
9572.84715 4.25401e-18
9574.84557 4.18037e-18
9576.84398 4.15270e-18
9578.84239 4.17964e-18
9580.85090 4.30131e-18
9582.84931 4.46197e-18
9584.84773 4.59887e-18
9586.84614 4.63749e-18
9588.85465 4.61398e-18
9590.85306 4.49519e-18
9592.85148 4.36656e-18
9594.84989 4.27300e-18
9596.84831 4.24852e-18
9598.85681 4.31658e-18
9600.85523 4.46336e-18
9602.85364 4.61624e-18
9604.85206 4.67677e-18
9606.86056 4.68629e-18
9608.85898 4.60104e-18
9610.85739 4.51948e-18
9612.85580 4.54402e-18
9614.85422 4.68167e-18
9616.86273 4.83019e-18
9618.86114 4.88857e-18
9620.85955 4.88391e-18
9622.85797 4.75204e-18
9624.85638 4.60244e-18
9626.86489 4.51273e-18
9628.86330 4.51370e-18
9630.86172 4.58717e-18
9632.86013 4.70605e-18
9634.86864 4.79246e-18
9636.86705 4.65217e-18
9638.86547 4.50930e-18
9640.86388 4.52373e-18
9642.86229 4.64999e-18
9644.87080 4.78119e-18
9646.86921 4.83825e-18
9648.86763 4.85965e-18
9650.86604 4.83802e-18
9652.86446 4.79613e-18
9654.87296 4.73349e-18
9656.87138 4.69007e-18
9658.86979 4.70517e-18
9660.86821 4.78181e-18
9662.87671 4.87362e-18
9664.87513 4.93256e-18
9666.87354 4.96864e-18
9668.87195 4.96518e-18
9670.87037 4.93589e-18
9672.87888 4.87737e-18
9674.87729 4.81798e-18
9676.87570 4.78479e-18
9678.87412 4.80925e-18
9680.88262 4.85048e-18
9682.88104 4.87619e-18
9684.87945 4.89300e-18
9686.87787 4.89199e-18
9688.87628 4.88765e-18
9690.88479 4.90512e-18
9692.88320 4.94874e-18
9694.88162 4.97678e-18
9696.88003 4.92781e-18
9698.87844 4.85185e-18
9700.88695 4.75088e-18
9702.88536 4.66819e-18
9704.88378 4.63552e-18
9706.88219 4.67304e-18
9708.89070 4.75714e-18
9710.88911 4.87746e-18
9712.88753 4.97171e-18
9714.88594 4.92915e-18
9716.88436 4.85433e-18
9718.89286 4.85239e-18
9720.89128 4.92254e-18
9722.88969 4.95869e-18
9724.88810 4.88478e-18
9726.89661 4.83225e-18
9728.89503 4.97145e-18
9730.89344 5.14600e-18
9732.89185 5.26046e-18
9734.89027 5.29359e-18
9736.89877 5.27653e-18
9738.89719 5.23902e-18
9740.89560 5.21532e-18
9742.89402 5.30637e-18
9744.89243 5.39162e-18
9746.90094 5.40147e-18
9748.89935 5.33807e-18
9750.89776 5.20658e-18
9752.89618 5.05050e-18
9754.90469 4.92888e-18
9756.90310 4.94829e-18
9758.90151 4.99003e-18
9760.89993 4.98616e-18
9762.89834 4.93147e-18
9764.90685 4.80409e-18
9766.90526 4.64668e-18
9768.90368 4.53007e-18
9770.90209 4.53912e-18
9772.90051 4.58052e-18
9774.90901 4.58064e-18
9776.90743 4.57466e-18
9778.90584 4.57403e-18
9780.90425 4.59888e-18
9782.91276 4.67104e-18
9784.91118 4.79532e-18
9786.90959 4.91264e-18
9788.90800 4.93017e-18
9790.90642 4.91281e-18
9792.91492 4.88812e-18
9794.91334 4.85138e-18
9796.91175 4.77251e-18
9798.91017 4.66163e-18
9800.91867 4.56543e-18
9802.91709 4.55260e-18
9804.91550 4.57208e-18
9806.91392 4.61333e-18
9808.91233 4.65339e-18
9810.92084 4.66989e-18
9812.91925 4.66553e-18
9814.91766 4.67822e-18
9816.91608 4.74424e-18
9818.91449 4.79634e-18
9820.92300 4.77395e-18
9822.92141 4.69492e-18
9824.91983 4.54603e-18
9826.91824 4.37374e-18
9828.92675 4.22081e-18
9830.92516 4.14569e-18
9832.92358 4.12014e-18
9834.92199 4.14751e-18
9836.92040 4.21686e-18
9838.92891 4.36365e-18
9840.92733 4.49906e-18
9842.92574 4.51151e-18
9844.92415 4.36831e-18
9846.92257 4.23467e-18
9848.93107 4.32807e-18
9850.92949 4.46362e-18
9852.92790 4.56220e-18
9854.92632 4.60799e-18
9856.93482 4.60677e-18
9858.93324 4.56012e-18
9860.93165 4.48151e-18
9862.93007 4.38650e-18
9864.92848 4.28218e-18
9866.93699 4.15666e-18
9868.93540 4.06977e-18
9870.93381 4.09070e-18
9872.93223 4.19416e-18
9874.94074 4.30037e-18
9876.93915 4.33374e-18
9878.93756 4.35110e-18
9880.93598 4.39288e-18
9882.93439 4.42048e-18
9884.94290 4.41381e-18
9886.94131 4.36480e-18
9888.93973 4.25687e-18
9890.93814 4.11393e-18
9892.93655 4.00956e-18
9894.94506 4.09586e-18
9896.94348 4.20232e-18
9898.94189 4.21635e-18
9900.94030 4.17450e-18
9902.94881 4.14424e-18
9904.94722 4.14819e-18
9906.94564 4.13710e-18
9908.94405 4.06461e-18
9910.94247 4.02696e-18
9912.95097 4.13711e-18
9914.94939 4.30736e-18
9916.94780 4.49695e-18
9918.94621 4.62173e-18
9920.95472 4.63084e-18
9922.95314 4.45653e-18
9924.95155 4.25738e-18
9926.94996 4.21596e-18
9928.94838 4.22771e-18
9930.95689 4.23783e-18
9932.95530 4.23719e-18
9934.95371 4.26456e-18
9936.95213 4.31680e-18
9938.95054 4.33707e-18
9940.95905 4.17572e-18
9942.95746 4.05525e-18
9944.95588 4.16509e-18
9946.95429 4.39860e-18
9948.96280 4.64918e-18
9950.96121 4.76900e-18
9952.95963 4.70817e-18
9954.95804 4.27369e-18
9956.95645 3.85633e-18
9958.96496 3.83436e-18
9960.96337 4.01746e-18
9962.96179 4.25700e-18
9964.96020 4.41088e-18
9966.95862 4.46346e-18
9968.96712 4.33391e-18
9970.96554 4.17844e-18
9972.96395 4.16683e-18
9974.96236 4.19801e-18
9976.97087 4.18595e-18
9978.96929 4.16265e-18
9980.96770 4.23470e-18
9982.96611 4.44409e-18
9984.96453 4.63237e-18
9986.97304 4.56053e-18
9988.97145 4.41952e-18
9990.96986 4.28586e-18
9992.96828 4.17893e-18
9994.97678 4.06138e-18
9996.97520 3.95079e-18
9998.97361 3.89026e-18
10000.97203 3.95653e-18
10002.97044 4.05840e-18
