# wavelength flux
3484.99972 2.98139e-17
3486.46996 5.42452e-17
3487.94020 -4.66451e-18
3489.41044 -2.60835e-18
3490.88068 2.15181e-17
3492.35092 1.24009e-17
3493.82116 5.58480e-17
3495.29140 4.19722e-17
3496.76164 3.08022e-19
3498.23188 5.05796e-17
3499.70212 2.96274e-17
3501.17236 1.02766e-17
3502.64260 5.18419e-17
3504.11284 3.87972e-17
3505.58308 3.32921e-17
3507.05332 4.34310e-17
3508.52356 2.30784e-17
3509.99380 1.55248e-17
3511.46404 1.43645e-17
3512.93428 2.84992e-17
3514.40452 2.69164e-17
3515.87476 2.21289e-17
3517.34500 -3.22541e-18
3518.80503 1.34973e-17
3520.27527 4.21082e-17
3521.74551 2.89204e-17
3523.21575 2.14570e-17
3524.68599 8.39142e-18
3526.15623 -4.45733e-18
3527.62647 6.42281e-18
3529.09671 3.63541e-17
3530.56695 1.98716e-17
3532.03719 2.85355e-17
3533.50743 1.39634e-17
3534.97767 1.77723e-18
3536.44791 3.08286e-17
3537.91815 5.01234e-17
3539.38839 6.02710e-17
3540.85863 2.79691e-17
3542.32887 2.28739e-17
3543.79911 3.67582e-17
3545.26935 2.37520e-17
3546.73959 1.94444e-17
3548.20983 -7.85301e-19
3549.68007 3.57188e-17
3551.15031 1.41935e-17
3552.62055 3.10960e-17
3554.09079 2.40832e-17
3555.56103 1.99271e-17
3557.03127 2.25907e-17
3558.50151 2.02345e-17
3559.97175 3.40053e-17
3561.44199 1.32548e-17
3562.91223 3.35361e-17
3564.38247 3.68858e-17
3565.85271 1.59543e-17
3567.32295 4.90921e-17
3568.79319 3.14485e-17
3570.26343 1.99711e-17
3571.73367 2.45570e-17
3573.20391 1.01960e-17
3574.67415 1.36193e-17
3576.14439 2.13733e-17
3577.61463 2.67355e-17
3579.08487 1.29796e-17
3580.55511 1.92081e-17
3582.01514 3.66598e-17
3583.48538 3.28424e-17
3584.95562 2.52390e-17
3586.42586 3.85693e-17
3587.89610 1.91313e-17
3589.36634 8.81085e-18
3590.83658 1.10729e-17
3592.30682 1.84462e-17
3593.77706 2.13292e-17
3595.24730 1.43557e-17
3596.71754 2.78861e-17
3598.18778 2.64522e-17
3599.65802 2.47667e-17
3601.12826 1.20486e-17
3602.59850 2.36982e-17
3604.06874 1.20307e-17
3605.53898 5.38341e-18
3607.00922 2.68473e-17
3608.47946 5.70836e-18
3609.94970 2.74679e-18
3611.41994 2.06306e-17
3612.89018 2.13772e-17
3614.36042 2.84590e-17
3615.83066 3.55586e-17
3617.30090 3.73639e-17
3618.77114 1.96647e-17
3620.24138 2.89459e-17
3621.71162 4.01768e-17
3623.18186 3.75079e-17
3624.65210 8.23262e-18
3626.12234 1.88448e-17
3627.59258 2.24842e-17
3629.06282 3.73642e-18
3630.53306 1.86080e-17
3632.00330 2.82280e-17
3633.47354 3.58023e-17
3634.94378 3.35274e-17
3636.41402 1.76483e-17
3637.88426 2.22615e-17
3639.35450 2.83924e-17
3640.82474 3.69471e-17
3642.29498 4.41163e-17
3643.75501 4.27438e-17
3645.22525 2.13447e-17
3646.69549 1.81238e-17
3648.16573 2.41248e-17
3649.63597 1.65389e-17
3651.10621 2.74354e-17
3652.57645 2.22376e-17
3654.04669 3.35954e-18
3655.51693 2.07421e-18
3656.98717 1.93480e-17
3658.45741 1.71603e-17
3659.92765 9.10256e-18
3661.39789 1.95333e-17
3662.86813 2.24240e-17
3664.33837 8.97387e-18
3665.80861 2.90533e-17
3667.27885 1.28249e-17
3668.74909 1.12856e-17
3670.21933 2.13152e-17
3671.68957 1.66534e-17
3673.15981 2.73432e-17
3674.63005 2.42420e-17
3676.10029 1.44143e-17
3677.57053 2.48273e-17
3679.04077 2.70259e-17
3680.51101 1.01999e-17
3681.98125 6.62557e-18
3683.45149 1.52538e-17
3684.92173 2.50860e-17
3686.39197 2.94310e-17
3687.86221 3.48102e-17
3689.33245 2.38542e-17
3690.80269 2.03238e-17
3692.27293 2.03576e-17
3693.74317 1.33841e-17
3695.21341 2.08080e-17
3696.68365 1.37911e-17
3698.15389 1.09820e-17
3699.62413 2.26334e-17
3701.09437 1.90497e-17
3702.56461 2.44493e-17
3704.03485 1.20882e-17
3705.49488 1.27627e-17
3706.96512 1.95191e-17
3708.43536 2.44160e-17
3709.90560 2.47236e-17
3711.37584 2.50924e-17
3712.84608 1.65530e-17
3714.31632 2.02409e-17
3715.78656 1.47116e-17
3717.25680 1.50753e-17
3718.72704 1.24530e-17
3720.19728 7.88041e-18
3721.66752 2.21012e-17
3723.13776 2.73187e-17
3724.60800 1.71855e-17
3726.07824 1.14925e-17
3727.54848 1.80530e-17
3729.01872 1.32063e-17
3730.48896 1.07550e-17
3731.95920 2.21476e-17
3733.42944 1.01669e-17
3734.89968 1.03176e-17
3736.36992 2.15143e-17
3737.84016 1.18221e-17
3739.31040 1.43377e-17
3740.78064 1.24740e-17
3742.25088 1.48841e-17
3743.72112 1.38075e-17
3745.19136 1.41556e-17
3746.66160 1.38761e-17
3748.13184 2.55443e-17
3749.60208 3.22747e-17
3751.07232 1.35943e-17
3752.54256 9.76067e-18
3754.01280 1.77234e-17
3755.48304 2.31159e-17
3756.95328 1.93914e-17
3758.42352 1.94068e-17
3759.89376 1.40675e-17
3761.36400 7.83305e-18
3762.83424 1.80057e-17
3764.30448 1.28186e-17
3765.77472 1.37934e-17
3767.24496 8.64054e-18
3768.70499 7.18622e-18
3770.17523 1.50866e-17
3771.64547 1.09750e-17
3773.11571 1.30832e-17
3774.58595 6.31389e-18
3776.05619 9.35711e-18
3777.52643 9.35175e-18
3778.99667 4.29486e-18
3780.46691 3.30696e-18
3781.93715 1.41196e-17
3783.40739 2.08036e-17
3784.87763 2.03580e-17
3786.34787 1.99125e-17
3787.81811 1.94671e-17
3789.28835 1.90219e-17
3790.75859 1.85768e-17
3792.22883 1.81319e-17
3793.69907 1.76871e-17
3795.16931 1.76846e-17
3796.63955 1.29096e-17
3798.10979 1.38095e-17
3799.58003 4.07609e-18
3801.05027 2.44711e-19
3802.52051 2.73591e-18
3803.99075 1.55962e-18
3805.46099 7.97742e-18
3806.93123 9.28681e-18
3808.40147 8.88241e-18
3809.87171 2.57378e-18
3811.34195 9.71826e-18
3812.81219 7.20468e-18
3814.28243 2.68114e-18
3815.75267 1.21956e-17
3817.22291 1.00048e-17
3818.69315 9.48004e-18
3820.16339 8.77661e-18
3821.63363 7.45760e-18
3823.10387 1.23960e-17
3824.57411 1.07639e-17
3826.04435 1.17188e-17
3827.51459 4.16611e-18
3828.98483 4.79183e-18
3830.44486 1.25457e-17
3831.91510 9.36128e-18
3833.38534 1.68435e-17
3834.85558 1.34794e-17
3836.32582 1.21999e-17
3837.79606 1.16875e-17
3839.26630 1.10570e-17
3840.73654 7.08266e-18
3842.20678 2.60192e-18
3843.67702 7.69971e-18
3845.14726 8.45568e-18
3846.61750 8.44078e-18
3848.08774 6.84949e-18
3849.55798 1.30278e-17
3851.02822 1.94708e-17
3852.49846 1.40358e-17
3853.96870 1.18337e-17
3855.43894 1.22436e-17
3856.90918 1.57819e-17
3858.37942 2.02622e-17
3859.84966 7.73063e-18
3861.31990 2.76246e-18
3862.79014 2.76192e-18
3864.26038 5.23244e-18
3865.73062 1.25876e-17
3867.20086 1.59218e-17
3868.67110 1.66949e-17
3870.14134 1.65058e-17
3871.61158 1.31234e-17
3873.08182 1.33413e-17
3874.55206 1.82582e-17
3876.02230 1.88135e-17
3877.49254 1.72791e-17
3878.96278 2.11641e-17
3880.43302 1.90444e-17
3881.90326 1.88830e-17
3883.37350 1.56010e-17
3884.84374 9.74477e-18
3886.31398 1.23835e-17
3887.78422 1.45151e-17
3889.25446 2.08250e-17
3890.72470 2.22974e-17
3892.19494 1.40736e-17
3893.65497 1.52360e-17
3895.12521 1.48800e-17
3896.59545 1.11667e-17
3898.06569 1.33235e-17
3899.53593 1.25589e-17
3901.00617 1.04317e-17
3902.47641 1.70948e-17
3903.94665 2.32486e-17
3905.41689 8.78126e-18
3906.88713 1.42818e-17
3908.35737 2.32448e-17
3909.82761 1.48080e-17
3911.29785 1.55066e-17
3912.76809 1.13105e-17
3914.23833 5.85714e-18
3915.70857 1.08023e-17
3917.17881 1.80765e-17
3918.64905 1.23517e-17
3920.11929 1.18049e-17
3921.58953 2.16591e-17
3923.05977 1.79125e-17
3924.53001 1.01313e-17
3926.00025 1.33398e-17
3927.47049 2.38895e-17
3928.94073 2.61852e-17
3930.41097 2.62668e-17
3931.88121 2.42492e-17
3933.35145 2.29070e-17
3934.82169 2.00187e-17
3936.29193 2.10483e-17
3937.76217 2.77720e-17
3939.23241 2.60481e-17
3940.70265 2.32274e-17
3942.17289 1.85520e-17
3943.64313 1.75365e-17
3945.11337 1.64484e-17
3946.58361 2.13445e-17
3948.05385 2.69783e-17
3949.52409 2.23223e-17
3950.99433 2.43237e-17
3952.46457 2.57788e-17
3953.93481 2.71446e-17
3955.39484 2.66300e-17
3956.86508 1.98705e-17
3958.33532 1.89855e-17
3959.80556 1.83255e-17
3961.27580 1.95657e-17
3962.74604 2.66766e-17
3964.21628 3.12547e-17
3965.68652 2.86494e-17
3967.15676 2.11278e-17
3968.62700 2.50110e-17
3970.09724 2.75296e-17
3971.56748 2.09619e-17
3973.03772 1.72294e-17
3974.50796 1.88123e-17
3975.97820 2.08770e-17
3977.44844 2.24270e-17
3978.91868 2.61092e-17
3980.38892 2.81679e-17
3981.85916 2.75349e-17
3983.32940 2.48374e-17
3984.79964 2.21788e-17
3986.26988 2.87243e-17
3987.74012 3.18352e-17
3989.21036 2.61156e-17
3990.68060 2.45561e-17
3992.15084 3.01403e-17
3993.62108 3.47443e-17
3995.09132 2.89131e-17
3996.56156 2.38349e-17
3998.03180 2.50704e-17
3999.50204 3.28625e-17
4000.97228 3.76577e-17
4002.44252 3.59243e-17
4003.91276 2.77125e-17
4005.38300 2.33662e-17
4006.85324 2.96244e-17
4008.32348 3.01816e-17
4009.79372 2.45384e-17
4011.26396 2.62235e-17
4012.73420 3.35908e-17
4014.20444 2.80830e-17
4015.67468 2.50483e-17
4017.13471 2.52445e-17
4018.60495 2.35888e-17
4020.07519 2.40713e-17
4021.54543 2.91400e-17
4023.01567 3.13952e-17
4024.48591 3.59657e-17
4025.95615 3.02768e-17
4027.42639 2.68170e-17
4028.89663 3.04024e-17
4030.36687 3.26966e-17
4031.83711 3.42954e-17
4033.30735 2.97569e-17
4034.77759 2.64958e-17
4036.24783 2.87850e-17
4037.71807 2.82303e-17
4039.18831 2.83592e-17
4040.65855 2.44721e-17
4042.12879 3.00867e-17
4043.59903 3.37973e-17
4045.06927 3.48581e-17
4046.53951 3.53247e-17
4048.00975 3.08125e-17
4049.47999 1.98662e-17
4050.95023 2.25372e-17
4052.42047 3.04043e-17
4053.89071 2.82697e-17
4055.36095 1.95666e-17
4056.83119 1.69650e-17
4058.30143 2.17237e-17
4059.77167 2.66782e-17
4061.24191 2.89649e-17
4062.71215 2.61543e-17
4064.18239 3.07312e-17
4065.65263 3.31016e-17
4067.12287 2.61159e-17
4068.59311 2.46786e-17
4070.06335 2.89099e-17
4071.53359 2.98024e-17
4073.00383 2.78537e-17
4074.47407 2.96203e-17
4075.94431 2.53635e-17
4077.41455 2.14388e-17
4078.88479 2.29294e-17
4080.35503 1.92066e-17
4081.81506 1.72632e-17
4083.28530 2.33210e-17
4084.75554 2.71683e-17
4086.22578 2.72710e-17
4087.69602 2.47979e-17
4089.16626 2.70540e-17
4090.63650 3.04790e-17
4092.10674 1.93362e-17
4093.57698 1.30530e-17
4095.04722 2.10957e-17
4096.51746 2.39338e-17
4097.98770 2.21380e-17
4099.45794 2.33856e-17
4100.92818 2.03878e-17
4102.39842 2.27236e-17
4103.86866 3.06975e-17
4105.33890 2.38863e-17
4106.80914 2.00580e-17
4108.27938 2.42750e-17
4109.74962 2.77652e-17
4111.21986 3.28341e-17
4112.69010 2.56474e-17
4114.16034 1.73152e-17
4115.63058 2.10833e-17
4117.10082 2.07173e-17
4118.57106 2.25990e-17
4120.04130 2.60886e-17
4121.51154 2.37254e-17
4122.98178 2.37320e-17
4124.45202 2.38064e-17
4125.92226 2.17465e-17
4127.39250 1.90944e-17
4128.86274 1.76620e-17
4130.33298 2.31444e-17
4131.80322 2.66707e-17
4133.27346 2.58230e-17
4134.74370 2.32248e-17
4136.21394 2.26568e-17
4137.68418 2.31888e-17
4139.15442 2.10237e-17
4140.62466 2.22636e-17
4142.09490 2.45564e-17
4143.55493 2.87609e-17
4145.02517 3.04777e-17
4146.49541 2.50594e-17
4147.96565 2.34176e-17
4149.43589 2.42519e-17
4150.90613 2.18434e-17
4152.37637 2.44709e-17
4153.84661 2.40130e-17
4155.31685 1.57634e-17
4156.78709 2.00992e-17
4158.25733 2.90159e-17
4159.72757 2.37401e-17
4161.19781 2.08141e-17
4162.66805 2.45755e-17
4164.13829 2.79384e-17
4165.60853 2.55151e-17
4167.07877 2.22368e-17
4168.54901 2.40868e-17
4170.01925 1.93194e-17
4171.48949 1.91640e-17
4172.95973 2.41529e-17
4174.42997 2.28560e-17
4175.90021 2.21777e-17
4177.37045 2.29863e-17
4178.84069 2.34685e-17
4180.31093 2.12885e-17
4181.78117 2.16471e-17
4183.25141 2.26433e-17
4184.72165 1.59844e-17
4186.19189 1.45886e-17
4187.66213 1.86336e-17
4189.13237 2.10928e-17
4190.60261 2.11997e-17
4192.07285 1.96463e-17
4193.54309 2.09062e-17
4195.01333 2.23538e-17
4196.48357 2.30124e-17
4197.95381 2.25992e-17
4199.42405 1.98152e-17
4200.89429 2.05188e-17
4202.36453 2.22259e-17
4203.83477 1.92836e-17
4205.29480 2.08080e-17
4206.76504 2.28358e-17
4208.23528 2.09704e-17
4209.70552 1.91091e-17
4211.17576 1.90945e-17
4212.64600 1.92864e-17
4214.11624 2.00601e-17
4215.58648 2.56239e-17
4217.05672 2.67014e-17
4218.52696 2.40995e-17
4219.99720 2.20467e-17
4221.46744 1.32959e-17
4222.93768 9.47001e-18
4224.40792 1.59595e-17
4225.87816 1.93311e-17
4227.34840 2.06765e-17
4228.81864 1.95360e-17
4230.28888 2.31171e-17
4231.75912 2.41698e-17
4233.22936 2.09767e-17
4234.69960 2.43517e-17
4236.16984 2.17171e-17
4237.64008 1.67452e-17
4239.11032 1.74581e-17
4240.58056 1.96821e-17
4242.05080 2.78574e-17
4243.52104 2.58753e-17
4244.99128 1.65345e-17
4246.46152 2.03373e-17
4247.93176 2.45999e-17
4249.40200 2.15516e-17
4250.87224 2.07292e-17
4252.34248 2.20851e-17
4253.81272 2.32001e-17
4255.28296 2.15492e-17
4256.75320 2.06265e-17
4258.22344 2.01159e-17
4259.69368 1.50182e-17
4261.16392 1.81882e-17
4262.63416 1.91699e-17
4264.10440 1.46903e-17
4265.56443 2.09270e-17
4267.03467 2.42784e-17
4268.50491 1.93162e-17
4269.97515 1.60552e-17
4271.44539 1.87068e-17
4272.91563 2.48777e-17
4274.38587 2.48028e-17
4275.85611 2.19685e-17
4277.32635 2.35830e-17
4278.79659 2.47182e-17
4280.26683 2.32140e-17
4281.73707 2.25065e-17
4283.20731 2.28734e-17
4284.67755 2.27665e-17
4286.14779 1.89945e-17
4287.61803 1.90772e-17
4289.08827 2.44960e-17
4290.55851 2.38764e-17
4292.02875 2.12021e-17
4293.49899 2.25631e-17
4294.96923 2.47154e-17
4296.43947 2.50900e-17
4297.90971 2.08387e-17
4299.37995 1.71540e-17
4300.85019 2.07969e-17
4302.32043 2.21617e-17
4303.79067 1.98348e-17
4305.26091 2.17720e-17
4306.73115 2.26071e-17
4308.20139 2.18004e-17
4309.67163 2.06514e-17
4311.14187 1.86174e-17
4312.61211 2.22723e-17
4314.08235 2.36404e-17
4315.55259 2.15403e-17
4317.02283 2.35872e-17
4318.49307 2.16963e-17
4319.96331 1.93792e-17
4321.43355 2.20490e-17
4322.90379 2.19658e-17
4324.37403 1.83841e-17
4325.84427 1.84719e-17
4327.31451 1.96425e-17
4328.78475 1.91146e-17
4330.25499 1.97893e-17
4331.71502 2.01446e-17
4333.18526 2.34142e-17
4334.65550 2.39227e-17
4336.12574 2.08938e-17
4337.59598 2.28692e-17
4339.06622 2.59877e-17
4340.53646 2.37689e-17
4342.00670 2.11596e-17
4343.47694 2.16620e-17
4344.94718 2.18534e-17
4346.41742 2.01923e-17
4347.88766 1.98831e-17
4349.35790 2.05144e-17
4350.82814 2.68362e-17
4352.29838 2.86267e-17
4353.76862 2.08314e-17
4355.23886 1.78700e-17
4356.70910 2.16119e-17
4358.17934 2.66793e-17
4359.64958 3.03518e-17
4361.11982 2.65056e-17
4362.59006 1.86226e-17
4364.06030 1.39162e-17
4365.53054 1.49823e-17
4367.00078 1.74756e-17
4368.47102 1.99597e-17
4369.94126 2.40417e-17
4371.41150 1.88013e-17
4372.88174 1.49836e-17
4374.35198 1.88352e-17
4375.82222 1.97885e-17
4377.29246 1.54777e-17
4378.76270 1.63274e-17
4380.23294 2.12211e-17
4381.70318 1.99268e-17
4383.17342 1.78761e-17
4384.64366 1.83173e-17
4386.11390 2.11390e-17
4387.58414 1.94744e-17
4389.05438 1.64566e-17
4390.52462 1.80522e-17
4391.99486 2.22823e-17
4393.45489 2.04253e-17
4394.92513 1.78532e-17
4396.39537 1.58832e-17
4397.86561 1.62711e-17
4399.33585 2.09117e-17
4400.80609 1.96635e-17
4402.27633 1.78600e-17
4403.74657 1.42615e-17
4405.21681 1.47073e-17
4406.68705 2.24915e-17
4408.15729 2.18092e-17
4409.62753 1.67048e-17
4411.09777 1.64131e-17
4412.56801 2.00531e-17
4414.03825 1.50422e-17
4415.50849 1.19268e-17
4416.97873 1.08945e-17
4418.44897 8.01650e-18
4419.91921 1.29230e-17
4421.38945 1.93095e-17
4422.85969 1.57387e-17
4424.32993 1.48311e-17
4425.80017 1.31075e-17
4427.27041 1.11248e-17
4428.74065 1.70420e-17
4430.21089 1.74024e-17
4431.68113 1.74147e-17
4433.15137 1.71264e-17
4434.62161 1.54649e-17
4436.09185 1.88122e-17
4437.56209 1.64268e-17
4439.03233 1.46952e-17
4440.50257 1.83558e-17
4441.97281 1.80994e-17
4443.44305 1.54396e-17
4444.91329 1.17715e-17
4446.38353 9.79405e-18
4447.85377 1.38110e-17
4449.32401 1.28704e-17
4450.79425 1.22681e-17
4452.26449 1.32557e-17
4453.72452 1.30342e-17
4455.20497 1.69444e-17
4456.66500 1.75856e-17
4458.13524 1.41370e-17
4459.60548 1.37885e-17
4461.07572 1.35491e-17
4462.54596 1.56382e-17
4464.01620 1.89104e-17
4465.48644 1.82093e-17
4466.95668 1.52723e-17
4468.42692 1.31260e-17
4469.89716 1.47899e-17
4471.36740 1.25818e-17
4472.83764 1.30635e-17
4474.30788 1.42634e-17
4475.77812 1.35101e-17
4477.24836 1.55123e-17
4478.71860 1.48682e-17
4480.18884 1.29323e-17
4481.65908 1.34164e-17
4483.12932 1.73014e-17
4484.59956 2.15419e-17
4486.06980 1.96600e-17
4487.54004 1.91282e-17
4489.01028 1.96635e-17
4490.48052 1.83954e-17
4491.95076 1.57006e-17
4493.42100 1.52392e-17
4494.89124 1.32224e-17
4496.36148 1.52941e-17
4497.83172 1.83254e-17
4499.30196 1.47949e-17
4500.77220 1.64691e-17
4502.24244 1.58658e-17
4503.71268 1.63870e-17
4505.18292 1.84445e-17
4506.65316 1.77279e-17
4508.12340 1.53864e-17
4509.59364 1.87669e-17
4511.06388 2.03304e-17
4512.53412 1.59295e-17
4514.00436 1.47715e-17
4515.47460 1.66164e-17
4516.94484 2.04062e-17
4518.41508 1.67494e-17
4519.87511 1.47191e-17
4521.34535 1.72424e-17
4522.81559 1.69818e-17
4524.28583 2.28280e-17
4525.75607 2.81491e-17
4527.22631 2.27002e-17
4528.69655 1.80755e-17
4530.16679 1.74732e-17
4531.63703 1.85963e-17
4533.10727 2.25584e-17
4534.57751 2.10406e-17
4536.04775 1.66293e-17
4537.51799 1.81624e-17
4538.98823 1.71558e-17
4540.45847 1.58391e-17
4541.92871 2.03281e-17
4543.39895 2.08615e-17
4544.86919 1.60777e-17
4546.33943 1.71101e-17
4547.80967 2.24685e-17
4549.27991 2.21736e-17
4550.75015 2.19251e-17
4552.22039 2.17822e-17
4553.69063 2.12149e-17
4555.16087 2.08301e-17
4556.63111 1.96041e-17
4558.10135 1.98852e-17
4559.57159 2.29323e-17
4561.04183 2.45423e-17
4562.51207 2.29719e-17
4563.98231 2.11648e-17
4565.45255 1.88015e-17
4566.92279 1.98899e-17
4568.39303 2.54655e-17
4569.86327 2.67069e-17
4571.33351 1.87838e-17
4572.80375 1.61462e-17
4574.27399 2.16992e-17
4575.74423 2.12777e-17
4577.21447 1.95560e-17
4578.68471 2.01964e-17
4580.14474 1.97962e-17
4581.61498 2.24077e-17
4583.08522 2.39419e-17
4584.55546 2.11903e-17
4586.02570 2.06804e-17
4587.49594 2.11707e-17
4588.96618 1.95515e-17
4590.43642 1.88817e-17
4591.90666 1.84622e-17
4593.37690 2.20451e-17
4594.84714 2.71103e-17
4596.31738 2.26149e-17
4597.78762 1.85507e-17
4599.25786 2.08319e-17
4600.72810 2.54859e-17
4602.19834 2.67056e-17
4603.66858 2.55298e-17
4605.13882 2.17924e-17
4606.60906 2.15395e-17
4608.07930 2.49587e-17
4609.54954 2.49693e-17
4611.01978 2.31970e-17
4612.49002 2.61318e-17
4613.96026 2.46025e-17
4615.43050 1.93303e-17
4616.90074 2.06093e-17
4618.37098 2.23674e-17
4619.84122 2.42308e-17
4621.31146 2.57767e-17
4622.78170 2.32422e-17
4624.25194 2.01252e-17
4625.72218 1.72913e-17
4627.19242 1.89491e-17
4628.66266 2.45194e-17
4630.13290 2.67868e-17
4631.60314 2.57001e-17
4633.07338 2.37738e-17
4634.54362 2.30789e-17
4636.01386 2.57000e-17
4637.48410 2.61963e-17
4638.95434 2.30626e-17
4640.42458 2.02289e-17
4641.89482 1.99883e-17
4643.35485 2.25230e-17
4644.82509 2.17527e-17
4646.29533 2.13400e-17
4647.76557 2.22900e-17
4649.23581 2.50407e-17
4650.70605 2.78441e-17
4652.17629 2.54434e-17
4653.64653 2.27541e-17
4655.11677 2.24608e-17
4656.58701 2.14904e-17
4658.05725 2.35791e-17
4659.52749 2.46569e-17
4660.99773 2.08905e-17
4662.46797 2.16055e-17
4663.93821 2.44012e-17
4665.40845 2.34284e-17
4666.87869 2.58700e-17
4668.34893 2.54027e-17
4669.81917 2.47236e-17
4671.28941 2.45064e-17
4672.75965 2.34487e-17
4674.22989 2.29450e-17
4675.70013 2.18182e-17
4677.17037 2.39007e-17
4678.64061 2.37140e-17
4680.11085 2.47712e-17
4681.58109 2.47737e-17
4683.05133 2.43742e-17
4684.52157 2.44188e-17
4685.99181 1.83741e-17
4687.46205 1.64162e-17
4688.93229 2.36690e-17
4690.40253 2.79051e-17
4691.87277 2.51690e-17
4693.34301 2.45266e-17
4694.81325 2.53993e-17
4696.28349 2.71192e-17
4697.75373 2.64393e-17
4699.22397 2.34154e-17
4700.69421 2.49409e-17
4702.16445 2.34677e-17
4703.63469 2.18082e-17
4705.10493 2.36882e-17
4706.56496 2.46214e-17
4708.03520 2.35441e-17
4709.50544 1.85683e-17
4710.97568 1.90473e-17
4712.44592 2.24050e-17
4713.91616 2.36236e-17
4715.38640 2.78392e-17
4716.85664 2.76061e-17
4718.32688 2.35081e-17
4719.79712 2.29523e-17
4721.26736 2.37617e-17
4722.73760 2.22478e-17
4724.20784 2.08579e-17
4725.67808 2.20536e-17
4727.14832 2.12426e-17
4728.61856 2.28183e-17
4730.08880 2.34166e-17
4731.55904 2.33232e-17
4733.02928 2.62137e-17
4734.49952 2.59818e-17
4735.96976 2.15164e-17
4737.44000 2.02426e-17
4738.91024 2.25674e-17
4740.38048 2.27775e-17
4741.85072 1.97696e-17
4743.32096 1.88937e-17
4744.79120 1.94562e-17
4746.26144 1.93420e-17
4747.73168 2.17682e-17
4749.20192 2.33769e-17
4750.67216 2.06993e-17
4752.14240 2.02226e-17
4753.61264 2.01211e-17
4755.08288 1.98911e-17
4756.55312 1.86172e-17
4758.02336 1.63368e-17
4759.49360 1.56524e-17
4760.96384 1.55910e-17
4762.43408 1.76318e-17
4763.90432 1.86149e-17
4765.37456 1.75040e-17
4766.83459 1.80910e-17
4768.30483 1.82286e-17
4769.77507 2.08805e-17
4771.24531 1.93056e-17
4772.71555 1.58215e-17
4774.18579 1.76875e-17
4775.65603 2.05833e-17
4777.12627 2.18606e-17
4778.59651 2.02216e-17
4780.06675 1.84147e-17
4781.53699 1.81862e-17
4783.00723 1.63444e-17
4784.47747 1.62226e-17
4785.94771 1.81891e-17
4787.41795 1.70229e-17
4788.88819 1.54951e-17
4790.35843 1.73698e-17
4791.82867 1.66899e-17
4793.29891 1.65136e-17
4794.76915 1.82820e-17
4796.23939 1.74505e-17
4797.70963 1.60078e-17
4799.17987 1.43789e-17
4800.65011 1.24736e-17
4802.12035 1.40341e-17
4803.59059 1.30605e-17
4805.06083 1.10912e-17
4806.53107 1.35924e-17
4808.00131 1.72082e-17
4809.47155 2.13233e-17
4810.94179 2.03497e-17
4812.41203 1.44926e-17
4813.88227 1.29511e-17
4815.35251 1.64054e-17
4816.82275 1.49352e-17
4818.29299 1.55228e-17
4819.76323 1.56455e-17
4821.23347 1.41757e-17
4822.70371 1.58573e-17
4824.17395 1.18431e-17
4825.64419 1.30573e-17
4827.11443 1.43383e-17
4828.58467 1.29695e-17
4830.05491 1.63377e-17
4831.52515 1.71756e-17
4832.98518 1.57013e-17
4834.45542 1.35963e-17
4835.92566 1.39091e-17
4837.39590 1.54348e-17
4838.86614 1.47238e-17
4840.33638 1.42195e-17
4841.80662 1.31958e-17
4843.27686 1.40169e-17
4844.74710 1.49438e-17
4846.21734 1.43427e-17
4847.68758 1.51990e-17
4849.15782 1.41449e-17
4850.62806 1.42285e-17
4852.09830 1.46539e-17
4853.56854 1.79253e-17
4855.03878 1.48693e-17
4856.50902 1.15124e-17
4857.97926 1.42984e-17
4859.44950 1.38542e-17
4860.91974 1.44019e-17
4862.38998 1.61212e-17
4863.86022 1.24724e-17
4865.33046 1.24555e-17
4866.80070 1.45551e-17
4868.27094 1.36970e-17
4869.74118 1.58225e-17
4871.21142 1.22243e-17
4872.68166 1.27638e-17
4874.15190 1.48797e-17
4875.62214 1.19034e-17
4877.09238 1.12827e-17
4878.56262 1.18443e-17
4880.03286 1.25755e-17
4881.50310 1.32546e-17
4882.97334 1.33734e-17
4884.44358 1.24622e-17
4885.91382 1.19209e-17
4887.38406 1.10658e-17
4888.85430 1.40936e-17
4890.32454 1.49593e-17
4891.79478 1.35568e-17
4893.25481 1.52581e-17
4894.72505 1.31951e-17
4896.19529 1.15503e-17
4897.66553 1.25851e-17
4899.13577 9.77275e-18
4900.60601 1.08563e-17
4902.07625 1.14182e-17
4903.54649 1.06588e-17
4905.01673 1.26187e-17
4906.48697 1.28796e-17
4907.95721 1.08363e-17
4909.42745 8.98184e-18
4910.89769 1.02515e-17
4912.36793 1.37696e-17
4913.83817 1.44799e-17
4915.30841 8.09595e-18
4916.77865 7.71428e-18
4918.24889 1.57565e-17
4919.71913 1.51659e-17
4921.18937 8.49607e-18
4922.65961 9.82790e-18
4924.12985 1.16982e-17
4925.60009 1.09239e-17
4927.07033 1.15235e-17
4928.54057 1.47312e-17
4930.01081 1.54047e-17
4931.48105 1.11361e-17
4932.95129 1.17886e-17
4934.42153 1.53016e-17
4935.89177 1.48482e-17
4937.36201 1.34222e-17
4938.83225 1.41140e-17
4940.30249 1.08342e-17
4941.77273 8.89444e-18
4943.24297 1.10172e-17
4944.71321 1.26139e-17
4946.18345 1.41485e-17
4947.65369 1.42048e-17
4949.12393 1.57435e-17
4950.59417 1.52058e-17
4952.06441 1.56661e-17
4953.53465 1.27638e-17
4954.99468 1.06796e-17
4956.46492 1.56174e-17
4957.93516 1.56509e-17
4959.40540 1.41186e-17
4960.87564 1.74161e-17
4962.34588 1.63702e-17
4963.81612 1.31158e-17
4965.28636 1.31001e-17
4966.75660 1.53622e-17
4968.22684 1.90097e-17
4969.69708 1.62693e-17
4971.16732 1.47330e-17
4972.63756 1.55424e-17
4974.10780 1.21034e-17
4975.57804 1.50237e-17
4977.04828 1.78082e-17
4978.51852 1.64852e-17
4979.98876 1.31133e-17
4981.45900 1.24792e-17
4982.92924 1.46588e-17
4984.39948 1.55620e-17
4985.86972 1.53537e-17
4987.33996 1.59326e-17
4988.81020 1.55769e-17
4990.28044 1.26356e-17
4991.75068 1.50397e-17
4993.22092 1.61714e-17
4994.69116 1.20734e-17
4996.16140 1.42183e-17
4997.63164 1.63037e-17
4999.10188 1.29351e-17
5000.57212 1.11892e-17
5002.04236 1.31547e-17
5003.51260 1.55242e-17
5004.98284 1.47196e-17
5006.45308 1.59484e-17
5007.92332 1.38431e-17
5009.39356 1.26358e-17
5010.86380 1.51254e-17
5012.33404 1.44900e-17
5013.80428 1.55800e-17
5015.27452 1.58826e-17
5016.74476 1.35855e-17
5018.21500 1.40230e-17
5019.68524 1.40883e-17
5021.14527 1.45109e-17
5022.61551 1.37480e-17
5024.08575 1.35857e-17
5025.55599 1.52362e-17
5027.02623 1.47353e-17
5028.49647 1.43666e-17
5029.96671 1.35902e-17
5031.43695 1.27257e-17
5032.90719 1.31118e-17
5034.37743 1.48120e-17
5035.84767 1.45053e-17
5037.31791 1.34593e-17
5038.78815 1.20974e-17
5040.25839 1.22034e-17
5041.72863 1.57332e-17
5043.19887 1.17057e-17
5044.66911 1.19226e-17
5046.13935 1.76318e-17
5047.60959 1.50092e-17
5049.07983 1.17093e-17
5050.55007 1.16279e-17
5052.02031 1.30824e-17
5053.49055 1.25498e-17
5054.96079 1.41330e-17
5056.43103 1.30613e-17
5057.90127 1.18791e-17
5059.37151 9.67119e-18
5060.84175 8.82073e-18
5062.31199 1.36765e-17
5063.78223 1.45252e-17
5065.25247 1.51851e-17
5066.72271 1.31712e-17
5068.19295 1.43046e-17
5069.66319 1.50442e-17
5071.13343 1.41035e-17
5072.60367 1.20485e-17
5074.07391 1.34212e-17
5075.54415 1.61635e-17
5077.01439 1.20460e-17
5078.48463 1.15860e-17
5079.95487 1.15824e-17
5081.41490 1.08189e-17
5082.88514 1.33881e-17
5084.35538 1.06855e-17
5085.82562 9.75900e-18
5087.29586 1.33438e-17
5088.76610 1.26476e-17
5090.23634 1.10157e-17
5091.70658 1.29778e-17
5093.17682 1.23215e-17
5094.64706 1.10391e-17
5096.11730 1.35605e-17
5097.58754 1.29282e-17
5099.05778 1.23353e-17
5100.52802 1.15495e-17
5101.99826 1.00269e-17
5103.46850 1.31039e-17
5104.93874 1.28926e-17
5106.40898 1.23648e-17
5107.87922 1.20604e-17
5109.34946 1.13933e-17
5110.81970 1.32641e-17
5112.28994 1.15873e-17
5113.76018 1.05314e-17
5115.23042 1.26716e-17
5116.70066 1.27687e-17
5118.17090 1.43201e-17
5119.64114 1.33519e-17
5121.11138 1.30251e-17
5122.58162 1.40924e-17
5124.05186 1.30033e-17
5125.52210 1.48714e-17
5126.99234 1.47470e-17
5128.46258 1.27186e-17
5129.93282 1.36508e-17
5131.40306 1.27653e-17
5132.87330 1.07041e-17
5134.34354 1.39059e-17
5135.81378 1.47182e-17
5137.28402 1.45382e-17
5138.75426 1.47446e-17
5140.22450 1.45096e-17
5141.69474 1.56400e-17
5143.16498 1.57658e-17
5144.62501 1.15199e-17
5146.09525 1.17907e-17
5147.56549 1.44810e-17
5149.03573 1.55410e-17
5150.50597 1.69682e-17
5151.97621 1.75451e-17
5153.44645 1.34750e-17
5154.91669 1.24401e-17
5156.38693 1.61942e-17
5157.85717 1.77298e-17
5159.32741 1.45703e-17
5160.79765 1.43735e-17
5162.26789 1.58704e-17
5163.73813 1.30135e-17
5165.20837 1.45958e-17
5166.67861 1.87252e-17
5168.14885 1.75352e-17
5169.61909 1.88989e-17
5171.08933 1.41632e-17
5172.55957 1.66994e-17
5174.02981 1.55691e-17
5175.50005 2.01547e-17
5176.97029 2.44333e-17
5178.44053 2.31377e-17
5179.91077 2.18425e-17
5181.38101 2.05477e-17
5182.85125 1.92531e-17
5184.32149 1.79589e-17
5185.79173 1.66650e-17
5187.26197 1.53715e-17
5188.73221 1.53695e-17
5190.20245 1.56215e-17
5191.67269 1.48100e-17
5193.14293 1.16710e-17
5194.61317 1.30714e-17
5196.08341 1.78891e-17
5197.55365 1.48941e-17
5199.02389 1.50013e-17
5200.49413 1.18545e-17
5201.96437 1.42980e-17
5203.43461 1.17012e-17
5204.90485 1.52338e-17
5206.37509 1.50575e-17
5207.83512 1.19876e-17
5209.30536 1.60310e-17
5210.77560 1.43767e-17
5212.24584 1.50190e-17
5213.71608 1.41447e-17
5215.18632 1.45724e-17
5216.65656 1.71885e-17
5218.12680 1.75482e-17
5219.59704 1.44597e-17
5221.06728 1.44616e-17
5222.53752 1.38708e-17
5224.00776 1.41477e-17
5225.47800 1.37628e-17
5226.94824 1.64697e-17
5228.41848 1.57246e-17
5229.88872 1.27237e-17
5231.35896 1.35688e-17
5232.82920 1.32749e-17
5234.29944 1.66081e-17
5235.76968 1.41235e-17
5237.23992 1.46635e-17
5238.71016 1.52989e-17
5240.18040 1.29297e-17
5241.65064 1.76023e-17
5243.12088 1.20925e-17
5244.59112 1.56230e-17
5246.06136 1.75644e-17
5247.53160 1.76172e-17
5249.00184 1.47099e-17
5250.47208 1.53764e-17
5251.94232 1.76086e-17
5253.41256 1.45235e-17
5254.88280 1.50415e-17
5256.35304 1.68234e-17
5257.82328 1.95074e-17
5259.29352 1.61998e-17
5260.76376 1.72577e-17
5262.23400 1.57632e-17
5263.70424 1.68376e-17
5265.17448 1.68323e-17
5266.64472 1.64163e-17
5268.10475 1.27407e-17
5269.57499 1.74123e-17
5271.04523 1.70732e-17
5272.51547 1.50077e-17
5273.98571 1.35332e-17
5275.45595 1.94962e-17
5276.92619 1.82327e-17
5278.39643 1.48535e-17
5279.86667 1.60785e-17
5281.33691 1.55655e-17
5282.80715 1.54282e-17
5284.27739 1.74969e-17
5285.74763 1.76246e-17
5287.21787 1.46780e-17
5288.68811 1.90098e-17
5290.15835 1.73499e-17
5291.62859 1.52126e-17
5293.09883 2.00125e-17
5294.56907 1.91712e-17
5296.03931 1.45571e-17
5297.50955 1.63585e-17
5298.97979 1.82632e-17
5300.45003 2.24928e-17
5301.92027 2.10841e-17
5303.39051 1.81013e-17
5304.86075 1.78125e-17
5306.33099 2.25439e-17
5307.80123 1.91083e-17
5309.27147 1.81187e-17
5310.74171 1.78807e-17
5312.21195 1.74923e-17
5313.68219 1.77124e-17
5315.15243 2.19121e-17
5316.62267 1.71588e-17
5318.09291 1.58674e-17
5319.56315 1.48776e-17
5321.03339 1.85862e-17
5322.50363 1.65411e-17
5323.97387 1.63756e-17
5325.44411 2.00570e-17
5326.91435 2.05732e-17
5328.38459 1.95802e-17
5329.85483 1.85761e-17
5331.31486 1.81973e-17
5332.78510 1.90715e-17
5334.25534 2.07150e-17
5335.72558 1.89765e-17
5337.19582 1.61440e-17
5338.66606 2.01895e-17
5340.13630 1.98712e-17
5341.60654 1.95778e-17
5343.07678 1.92530e-17
5344.54702 2.04300e-17
5346.01726 1.85004e-17
5347.48750 1.82771e-17
5348.95774 1.72285e-17
5350.42798 1.57986e-17
5351.89822 1.82981e-17
5353.36846 1.80313e-17
5354.83870 1.70862e-17
5356.30894 1.55025e-17
5357.77918 2.04283e-17
5359.24942 1.78155e-17
5360.71966 1.66452e-17
5362.18990 1.71179e-17
5363.66014 1.64751e-17
5365.13038 1.56914e-17
5366.60062 1.72571e-17
5368.07086 1.62801e-17
5369.54110 1.96316e-17
5371.01134 1.88745e-17
5372.48158 1.92979e-17
5373.95182 1.70747e-17
5375.42206 1.67872e-17
5376.89230 2.12039e-17
5378.36254 2.07279e-17
5379.83278 1.95273e-17
5381.30302 1.91994e-17
5382.77326 2.00979e-17
5384.24350 1.86516e-17
5385.71374 1.78361e-17
5387.18398 1.75064e-17
5388.65422 1.87379e-17
5390.12446 1.91965e-17
5391.59470 2.01547e-17
5393.06494 2.20768e-17
5394.52497 1.47686e-17
5395.99521 1.56887e-17
5397.46545 2.06444e-17
5398.93569 1.93648e-17
5400.40593 1.87138e-17
5401.87617 1.91761e-17
5403.34641 1.84050e-17
5404.81665 1.74971e-17
5406.28689 1.46031e-17
5407.75713 1.62153e-17
5409.22737 1.75434e-17
5410.69761 1.80917e-17
5412.16785 1.81968e-17
5413.63809 1.86001e-17
5415.10833 1.48555e-17
5416.57857 1.54888e-17
5418.04881 1.90345e-17
5419.51905 1.92171e-17
5420.98929 1.45804e-17
5422.45953 1.38199e-17
5423.92977 1.71387e-17
5425.40001 1.68622e-17
5426.87025 1.70340e-17
5428.34049 1.62599e-17
5429.81073 1.45518e-17
5431.28097 1.55357e-17
5432.75121 1.47771e-17
5434.22145 1.52737e-17
5435.69169 1.61241e-17
5437.16193 1.74821e-17
5438.63217 1.81804e-17
5440.10241 1.48030e-17
5441.57265 1.67313e-17
5443.04289 1.63029e-17
5444.51313 1.31935e-17
5445.98337 1.46508e-17
5447.45361 1.63208e-17
5448.92385 1.73569e-17
5450.39409 1.68468e-17
5451.86433 1.57965e-17
5453.33457 1.54110e-17
5454.79460 1.50917e-17
5456.26484 1.59652e-17
5457.73508 1.53413e-17
5459.20532 1.57396e-17
5460.67556 1.21343e-17
5462.14580 1.35104e-17
5463.61604 1.98802e-17
5465.08628 2.12830e-17
5466.55652 2.30669e-17
5468.02676 1.40015e-17
5469.49700 1.31424e-17
5470.96724 1.69147e-17
5472.43748 1.88814e-17
5473.90772 1.49364e-17
5475.37796 1.44243e-17
5476.84820 1.63475e-17
5478.31844 1.84409e-17
5479.78868 1.72190e-17
5481.25892 1.82917e-17
5482.72916 1.75483e-17
5484.19940 1.83756e-17
5485.66964 1.85234e-17
5487.13988 1.70784e-17
5488.61012 1.76340e-17
5490.08036 1.67878e-17
5491.55060 1.49113e-17
5493.02084 1.25683e-17
5494.49108 1.61840e-17
5495.96132 1.95444e-17
5497.43156 1.72387e-17
5498.90180 1.76521e-17
5500.37204 1.81331e-17
5501.84228 1.38955e-17
5503.31252 1.56246e-17
5504.78276 1.68472e-17
5506.25300 1.53391e-17
5507.72324 1.57119e-17
5509.19348 1.44762e-17
5510.66372 1.48895e-17
5512.13396 1.36842e-17
5513.60420 1.57777e-17
5515.07444 1.64828e-17
5516.54468 1.68448e-17
5518.00471 1.76927e-17
5519.47495 1.63761e-17
5520.94519 1.49244e-17
5522.41543 1.53794e-17
5523.88567 1.80875e-17
5525.35591 1.88177e-17
5526.82615 1.52089e-17
5528.29639 1.37964e-17
5529.76663 1.19465e-17
5531.23687 1.63627e-17
5532.70711 1.81815e-17
5534.17735 1.53505e-17
5535.64759 1.80369e-17
5537.11783 1.64260e-17
5538.58807 1.52347e-17
5540.05831 1.29342e-17
5541.52855 1.45972e-17
5542.99879 1.31484e-17
5544.46903 1.12863e-17
5545.93927 1.35289e-17
5547.40951 1.29850e-17
5548.87975 1.32744e-17
5550.34999 1.46902e-17
5551.82023 1.20496e-17
5553.29047 1.55915e-17
5554.76071 1.52141e-17
5556.23095 1.62331e-17
5557.70119 1.40575e-17
5559.17143 1.37740e-17
5560.64167 1.76708e-17
5562.11191 1.25438e-17
5563.58215 1.29993e-17
5565.05239 1.42521e-17
5566.52263 1.32995e-17
5567.99287 1.39635e-17
5569.46311 1.44661e-17
5570.93335 1.71069e-17
5572.40359 1.65964e-17
5573.87383 1.67483e-17
5575.34407 1.42817e-17
5576.81431 2.21172e-17
5578.28455 1.88556e-17
5579.75479 1.42190e-17
5581.22503 1.26583e-17
5582.68506 1.30689e-17
5584.15530 1.48335e-17
5585.62554 1.74283e-17
5587.09578 1.56896e-17
5588.56602 1.50061e-17
5590.03626 1.39454e-17
5591.50650 1.54308e-17
5592.97674 1.47533e-17
5594.44698 1.22116e-17
5595.91722 1.48779e-17
5597.38746 1.26766e-17
5598.85770 1.21054e-17
5600.32794 1.53862e-17
5601.79818 1.43201e-17
5603.26842 1.32201e-17
5604.73866 1.31719e-17
5606.20890 1.49916e-17
5607.67914 1.79247e-17
5609.14938 1.48940e-17
5610.61962 1.26070e-17
5612.08986 1.17848e-17
5613.56010 1.30748e-17
5615.03034 1.14875e-17
5616.50058 1.30743e-17
5617.97082 1.41637e-17
5619.44106 1.08741e-17
5620.91130 1.08308e-17
5622.38154 1.14053e-17
5623.85178 1.28079e-17
5625.32202 1.22014e-17
5626.79226 1.42165e-17
5628.26250 1.08353e-17
5629.73274 1.32396e-17
5631.20298 1.17709e-17
5632.67322 1.24011e-17
5634.14346 1.20684e-17
5635.61370 1.25705e-17
5637.08394 1.47594e-17
5638.55418 1.17945e-17
5640.02442 1.02856e-17
5641.49466 1.22127e-17
5642.96490 1.09367e-17
5644.42493 1.05158e-17
5645.89517 1.22329e-17
5647.36541 1.24468e-17
5648.83565 1.30469e-17
5650.30589 1.16151e-17
5651.77613 9.83578e-18
5653.24637 1.17786e-17
5654.71661 1.25964e-17
5656.18685 1.05937e-17
5657.65709 1.09142e-17
5659.12733 1.09981e-17
5660.59757 1.19905e-17
5662.06781 1.27718e-17
5663.53805 1.14560e-17
5665.00829 1.41581e-17
5666.47853 1.29148e-17
5667.94877 1.25985e-17
5669.41901 1.49800e-17
5670.88925 1.28626e-17
5672.35949 9.77715e-18
5673.82973 8.59968e-18
5675.29997 9.42395e-18
5676.77021 1.01435e-17
5678.24045 1.19595e-17
5679.71069 1.25638e-17
5681.18093 1.18278e-17
5682.65117 1.09071e-17
5684.12141 1.14957e-17
5685.59165 1.16317e-17
5687.06189 1.26237e-17
5688.53213 1.16217e-17
5690.00237 1.15540e-17
5691.47261 1.29487e-17
5692.94285 1.11239e-17
5694.41309 1.25680e-17
5695.88333 1.31839e-17
5697.35357 1.01452e-17
5698.82381 1.06075e-17
5700.29405 1.27463e-17
5701.76429 1.40918e-17
5703.23453 1.25713e-17
5704.70477 8.83101e-18
5706.16480 1.11980e-17
5707.63504 1.33517e-17
5709.10528 1.21244e-17
5710.57552 1.28995e-17
5712.04576 9.98225e-18
5713.51600 7.72903e-18
5714.98624 9.15704e-18
5716.45648 8.53806e-18
5717.92672 8.61758e-18
5719.39696 1.10338e-17
5720.86720 1.26699e-17
5722.33744 1.23922e-17
5723.80768 1.09250e-17
5725.27792 1.16176e-17
5726.74816 1.36886e-17
5728.21840 1.16741e-17
5729.68864 9.51970e-18
5731.15888 1.03502e-17
5732.62912 1.23304e-17
5734.09936 1.33470e-17
5735.56960 1.21951e-17
5737.03984 9.58898e-18
5738.51008 8.33801e-18
5739.98032 1.08963e-17
5741.45056 1.10496e-17
5742.92080 1.04013e-17
5744.39104 9.36167e-18
5745.86128 9.12748e-18
5747.33152 9.06098e-18
5748.80176 1.17508e-17
5750.27200 1.02577e-17
5751.74224 1.10537e-17
5753.21248 1.14226e-17
5754.68272 9.48795e-18
5756.15296 1.01415e-17
5757.62320 1.16496e-17
5759.09344 9.47670e-18
5760.56368 8.24132e-18
5762.03392 1.03651e-17
5763.50416 1.26234e-17
5764.97440 1.15034e-17
5766.44464 9.41111e-18
5767.91488 1.06532e-17
5769.37491 9.92361e-18
5770.84515 1.01654e-17
5772.31539 1.01159e-17
5773.78563 8.69573e-18
5775.25587 7.60994e-18
5776.72611 8.82652e-18
5778.19635 1.06487e-17
5779.66659 9.61727e-18
5781.13683 1.05156e-17
5782.60707 1.05057e-17
5784.07731 9.25640e-18
5785.54755 1.16029e-17
5787.01779 1.01429e-17
5788.48803 1.12416e-17
5789.95827 1.41390e-17
5791.42851 1.23156e-17
5792.89875 1.09056e-17
5794.36899 9.38247e-18
5795.83923 8.77422e-18
5797.30947 9.59047e-18
5798.77971 1.13915e-17
5800.24995 1.22381e-17
5801.72019 1.26198e-17
5803.19043 1.04950e-17
5804.66067 9.97476e-18
5806.13091 1.12201e-17
5807.60115 1.16681e-17
5809.07139 9.67244e-18
5810.54163 7.81858e-18
5812.01187 1.04822e-17
5813.48211 1.16066e-17
5814.95235 1.07645e-17
5816.42259 1.08047e-17
5817.89283 1.14164e-17
5819.36307 1.14520e-17
5820.83331 1.22784e-17
5822.30355 1.49702e-17
5823.77379 1.31900e-17
5825.24403 1.15080e-17
5826.71427 9.00014e-18
5828.18451 9.30333e-18
5829.65475 1.08926e-17
5831.12499 9.56349e-18
5832.58502 9.40223e-18
5834.05526 1.20876e-17
5835.52550 1.47584e-17
5836.99574 1.49575e-17
5838.46598 1.18532e-17
5839.93622 1.20013e-17
5841.40646 1.14418e-17
5842.87670 1.29319e-17
5844.34694 1.37896e-17
5845.81718 1.22798e-17
5847.28742 1.20418e-17
5848.75766 1.08512e-17
5850.22790 9.73306e-18
5851.69814 1.18546e-17
5853.16838 9.60677e-18
5854.63862 1.19770e-17
5856.10886 1.30020e-17
5857.57910 1.12329e-17
5859.04934 1.21784e-17
5860.51958 1.23999e-17
5861.98982 1.19439e-17
5863.46006 1.26395e-17
5864.93030 1.18602e-17
5866.40054 1.21857e-17
5867.87078 1.24501e-17
5869.34102 1.61963e-17
5870.81126 1.67812e-17
5872.28150 1.44963e-17
5873.75174 1.52819e-17
5875.22198 1.33168e-17
5876.69222 1.38152e-17
5878.16246 1.21504e-17
5879.63270 1.22405e-17
5881.10294 1.28854e-17
5882.57318 1.28334e-17
5884.04342 1.01982e-17
5885.51366 1.06216e-17
5886.98390 1.17051e-17
5888.45414 1.32338e-17
5889.92438 1.27012e-17
5891.39462 9.41684e-18
5892.85465 1.12399e-17
5894.32489 1.54284e-17
5895.79513 1.13735e-17
5897.26537 1.11373e-17
5898.73561 1.49486e-17
5900.20585 1.62113e-17
5901.67609 1.51090e-17
5903.14633 1.30447e-17
5904.61657 1.23504e-17
5906.08681 1.47640e-17
5907.55705 1.35094e-17
5909.02729 1.19402e-17
5910.49753 1.46651e-17
5911.96777 1.70733e-17
5913.43801 1.54914e-17
5914.90825 1.27249e-17
5916.37849 1.30780e-17
5917.84873 1.36669e-17
5919.31897 1.47919e-17
5920.78921 1.62785e-17
5922.25945 1.59300e-17
5923.72969 1.32959e-17
5925.19993 1.21655e-17
5926.67017 1.45996e-17
5928.14041 1.56389e-17
5929.61065 1.60999e-17
5931.08089 1.93191e-17
5932.55113 1.64006e-17
5934.02137 1.32822e-17
5935.49161 1.61091e-17
5936.96185 1.45712e-17
5938.43209 1.45654e-17
5939.90233 1.44039e-17
5941.37257 1.21566e-17
5942.84281 1.39565e-17
5944.31305 1.55287e-17
5945.78329 1.61982e-17
5947.25353 1.68827e-17
5948.72377 1.67548e-17
5950.19401 1.59801e-17
5951.66425 1.57831e-17
5953.13449 1.62570e-17
5954.60473 1.39269e-17
5956.06476 1.47657e-17
5957.53500 1.47202e-17
5959.00524 1.28685e-17
5960.47548 1.20143e-17
5961.94572 1.47596e-17
5963.41596 1.72043e-17
5964.88620 1.65574e-17
5966.35644 1.61425e-17
5967.82668 1.54634e-17
5969.29692 1.50857e-17
5970.76716 1.41611e-17
5972.23740 1.42545e-17
5973.70764 1.35563e-17
5975.17788 1.20026e-17
5976.64812 1.42836e-17
5978.11836 1.33739e-17
5979.58860 1.30899e-17
5981.05884 1.59735e-17
5982.52908 1.50998e-17
5983.99932 1.39621e-17
5985.46956 1.49191e-17
5986.93980 1.37071e-17
5988.41004 1.55842e-17
5989.88028 1.66066e-17
5991.35052 1.58744e-17
5992.82076 1.56614e-17
5994.29100 1.63899e-17
5995.76124 1.62035e-17
5997.23148 1.78275e-17
5998.70172 1.69757e-17
6000.17196 1.52894e-17
6001.64220 1.59247e-17
6003.11244 1.56412e-17
6004.58268 1.55069e-17
6006.05292 1.58546e-17
6007.52316 1.63253e-17
6008.99340 1.57635e-17
6010.46364 1.67809e-17
6011.93388 1.33683e-17
6013.40412 1.17761e-17
6014.87436 1.22849e-17
6016.34460 1.34869e-17
6017.81484 1.16900e-17
6019.27487 1.11845e-17
6020.74511 1.34928e-17
6022.21535 1.24389e-17
6023.68559 1.29016e-17
6025.15583 1.76918e-17
6026.62607 1.53221e-17
6028.09631 1.24323e-17
6029.56655 1.64726e-17
6031.03679 1.68670e-17
6032.50703 1.38624e-17
6033.97727 1.42726e-17
6035.44751 1.50041e-17
6036.91775 1.25267e-17
6038.38799 9.62738e-18
6039.85823 1.43161e-17
6041.32847 1.66435e-17
6042.79871 1.30986e-17
6044.26895 1.36539e-17
6045.73919 1.50282e-17
6047.20943 1.72882e-17
6048.67967 1.52042e-17
6050.14991 1.29128e-17
6051.62015 1.38512e-17
6053.09039 1.52669e-17
6054.56063 1.49458e-17
6056.03087 1.41814e-17
6057.50111 1.67607e-17
6058.97135 1.40863e-17
6060.44159 1.40881e-17
6061.91183 1.54415e-17
6063.38207 1.40004e-17
6064.85231 1.29268e-17
6066.32255 1.53984e-17
6067.79279 1.66237e-17
6069.26303 1.48752e-17
6070.73327 1.44911e-17
6072.20351 1.06067e-17
6073.67375 1.10133e-17
6075.14399 1.29318e-17
6076.61423 1.45046e-17
6078.08447 1.36921e-17
6079.54450 1.30295e-17
6081.01474 1.34395e-17
6082.48498 1.57619e-17
6083.95522 1.68046e-17
6085.42546 1.44237e-17
6086.89570 1.28693e-17
6088.36594 1.24974e-17
6089.83618 1.39010e-17
6091.30642 1.48604e-17
6092.77666 1.46563e-17
6094.24690 1.39706e-17
6095.71714 1.34472e-17
6097.18738 1.47436e-17
6098.65762 1.23938e-17
6100.12786 9.80380e-18
6101.59810 1.05155e-17
6103.06834 1.01140e-17
6104.53858 1.06251e-17
6106.00882 1.26107e-17
6107.47906 1.30912e-17
6108.94930 1.28383e-17
6110.41954 1.32641e-17
6111.88978 1.28033e-17
6113.36002 1.22577e-17
6114.83026 1.25401e-17
6116.30050 1.17128e-17
6117.77074 1.19195e-17
6119.24098 1.38374e-17
6120.71122 1.42819e-17
6122.18146 1.56943e-17
6123.65170 1.50410e-17
6125.12194 1.22804e-17
6126.59218 1.18190e-17
6128.06242 1.20467e-17
6129.53266 1.36292e-17
6131.00290 1.39101e-17
6132.47314 1.31186e-17
6133.94338 1.41180e-17
6135.41362 1.25457e-17
6136.88386 1.02852e-17
6138.35410 1.12179e-17
6139.82434 1.34728e-17
6141.29458 1.40961e-17
6142.76482 1.44072e-17
6144.22485 1.47568e-17
6145.69509 1.34364e-17
6147.16533 1.37685e-17
6148.63557 1.40903e-17
6150.10581 1.13270e-17
6151.57605 9.74107e-18
6153.04629 1.26610e-17
6154.51653 1.46032e-17
6155.98677 1.35897e-17
6157.45701 1.28115e-17
6158.92725 1.11952e-17
6160.39749 1.01569e-17
6161.86773 1.14864e-17
6163.33797 1.31033e-17
6164.80821 1.22544e-17
6166.27845 1.26179e-17
6167.74869 1.45689e-17
6169.21893 1.18629e-17
6170.68917 1.18866e-17
6172.15941 1.47578e-17
6173.62965 1.24521e-17
6175.09989 1.03483e-17
6176.57013 1.09584e-17
6178.04037 1.28733e-17
6179.51061 1.46365e-17
6180.98085 1.48675e-17
6182.45109 1.37670e-17
6183.92133 1.27545e-17
6185.39157 1.37030e-17
6186.86181 1.36484e-17
6188.33205 1.56318e-17
6189.80229 1.39197e-17
6191.27253 1.05022e-17
6192.74277 1.12892e-17
6194.21301 1.24151e-17
6195.68325 1.16119e-17
6197.15349 1.04408e-17
6198.62373 1.11312e-17
6200.09397 1.30872e-17
6201.56421 1.42001e-17
6203.03445 1.40795e-17
6204.50469 1.36876e-17
6205.97493 1.17672e-17
6207.43496 1.20732e-17
6208.90520 1.39152e-17
6210.37544 1.33563e-17
6211.84568 1.27183e-17
6213.31592 1.32181e-17
6214.78616 1.42891e-17
6216.25640 1.30806e-17
6217.72664 1.15367e-17
6219.19688 1.17948e-17
6220.66712 1.33868e-17
6222.13736 1.35935e-17
6223.60760 9.89910e-18
6225.07784 8.47260e-18
6226.54808 1.09209e-17
6228.01832 1.16321e-17
6229.48856 1.09233e-17
6230.95880 1.31211e-17
6232.42904 1.13295e-17
6233.89928 1.12967e-17
6235.36952 1.28173e-17
6236.83976 1.22233e-17
6238.31000 1.23950e-17
6239.78024 8.37602e-18
6241.25048 8.70987e-18
6242.72072 1.27773e-17
6244.19096 1.29549e-17
6245.66120 1.30484e-17
6247.13144 1.41127e-17
6248.60168 1.42230e-17
6250.07192 1.33957e-17
6251.54216 9.99274e-18
6253.01240 8.28808e-18
6254.48264 8.83966e-18
6255.95288 7.53455e-18
6257.42312 8.99742e-18
6258.89336 1.48136e-17
6260.36360 1.29214e-17
6261.83384 9.32534e-18
6263.30408 8.87920e-18
6264.77432 8.34871e-18
6266.24456 9.30009e-18
6267.70459 1.26826e-17
6269.17483 1.23651e-17
6270.64507 1.00872e-17
6272.11531 1.01230e-17
6273.58555 1.01557e-17
6275.05579 1.07499e-17
6276.52603 9.81936e-18
6277.99627 7.81883e-18
6279.46651 7.31511e-18
6280.93675 1.12275e-17
6282.40699 1.16859e-17
6283.87723 9.40614e-18
6285.34747 9.44312e-18
6286.81771 9.50571e-18
6288.28795 1.07560e-17
6289.75819 1.18749e-17
6291.22843 1.10772e-17
6292.69867 9.12038e-18
6294.16891 8.10330e-18
6295.63915 6.55393e-18
6297.10939 6.22438e-18
6298.57963 7.28122e-18
6300.04987 9.24588e-18
6301.52011 1.09558e-17
6302.99035 9.05122e-18
6304.46059 1.06710e-17
6305.93083 9.59308e-18
6307.40107 8.92870e-18
6308.87131 1.05917e-17
6310.34155 9.68711e-18
6311.81179 8.54995e-18
6313.28203 8.53271e-18
6314.75227 1.05615e-17
6316.22251 1.13539e-17
6317.69275 1.04519e-17
6319.16299 1.00621e-17
6320.63323 1.00911e-17
6322.10347 1.00951e-17
6323.57371 9.58468e-18
6325.04395 8.66363e-18
6326.51419 8.19661e-18
6327.98443 7.76530e-18
6329.45467 8.35301e-18
6330.92491 9.33174e-18
6332.39515 8.83974e-18
6333.85518 8.50255e-18
6335.32542 1.05841e-17
6336.79566 1.11077e-17
6338.26590 8.55058e-18
6339.73614 8.96801e-18
6341.20638 1.22759e-17
6342.67662 1.27037e-17
6344.14686 8.66850e-18
6345.61710 8.48945e-18
6347.08734 9.34652e-18
6348.55758 7.57936e-18
6350.02782 1.01677e-17
6351.49806 1.25774e-17
6352.96830 1.26150e-17
6354.43854 1.08912e-17
6355.90878 9.59231e-18
6357.37902 1.07014e-17
6358.84926 1.04918e-17
6360.31950 1.09333e-17
6361.78974 1.13785e-17
6363.25998 8.79325e-18
6364.73022 1.01841e-17
6366.20046 1.43671e-17
6367.67070 1.31117e-17
6369.14094 9.18173e-18
6370.61118 8.99936e-18
6372.08142 1.19053e-17
6373.55166 1.26599e-17
6375.02190 1.32554e-17
6376.49214 1.19111e-17
6377.96238 1.08196e-17
6379.43262 1.06501e-17
6380.90286 1.00331e-17
6382.37310 1.18424e-17
6383.84334 1.15793e-17
6385.31358 9.99350e-18
6386.78382 9.14269e-18
6388.25406 1.03155e-17
6389.72430 1.04132e-17
6391.19454 9.29174e-18
6392.66478 1.06769e-17
6394.12481 1.07732e-17
6395.59505 1.14795e-17
6397.06529 1.15118e-17
6398.53553 9.60890e-18
6400.00577 1.01694e-17
6401.47601 1.20476e-17
6402.94625 1.41711e-17
6404.41649 1.32605e-17
6405.88673 1.24841e-17
6407.35697 1.35119e-17
6408.82721 1.17441e-17
6410.29745 1.00198e-17
6411.76769 1.17324e-17
6413.23793 1.24429e-17
6414.70817 1.14994e-17
6416.17841 1.16038e-17
6417.64865 1.09875e-17
6419.11889 1.18395e-17
6420.58913 1.09698e-17
6422.05937 9.27571e-18
6423.52961 1.08016e-17
6424.99985 1.20756e-17
6426.47009 1.20842e-17
6427.94033 1.23115e-17
6429.41057 1.20126e-17
6430.88081 9.44511e-18
6432.35105 9.20104e-18
6433.82129 1.09964e-17
6435.29153 1.32197e-17
6436.76177 1.28858e-17
6438.23201 1.00833e-17
6439.70225 1.01097e-17
6441.17249 1.15381e-17
6442.64273 1.05096e-17
6444.11297 1.06948e-17
6445.58321 1.21663e-17
6447.05345 1.29605e-17
6448.52369 1.25617e-17
6449.99393 1.30709e-17
6451.46417 1.40394e-17
6452.93441 1.26441e-17
6454.40465 1.02546e-17
6455.86468 1.04673e-17
6457.33492 1.32257e-17
6458.80516 1.37920e-17
6460.27540 1.28946e-17
6461.74564 1.17347e-17
6463.21588 1.20027e-17
6464.68612 1.07080e-17
6466.15636 1.10061e-17
6467.62660 1.41374e-17
6469.09684 1.41609e-17
6470.56708 1.14931e-17
6472.03732 9.88835e-18
6473.50756 1.06197e-17
6474.97780 1.25109e-17
6476.44804 1.28967e-17
6477.91828 9.77622e-18
6479.38852 1.06930e-17
6480.85876 1.29895e-17
6482.32900 1.11263e-17
6483.79924 1.26698e-17
6485.26948 1.24561e-17
6486.73972 1.05210e-17
6488.20996 1.12886e-17
6489.68020 1.07413e-17
6491.15044 1.11609e-17
6492.62068 1.29622e-17
6494.09092 1.21002e-17
6495.56116 1.14773e-17
6497.03140 1.19826e-17
6498.50164 1.35914e-17
6499.97188 1.41007e-17
6501.44212 9.77123e-18
6502.91236 8.94107e-18
6504.38260 1.08046e-17
6505.85284 1.14878e-17
6507.32308 1.06479e-17
6508.79332 9.59094e-18
6510.26356 9.95114e-18
6511.73380 1.07730e-17
6513.20404 1.12622e-17
6514.67428 1.16706e-17
6516.14452 1.22459e-17
6517.61476 1.00128e-17
6519.08500 9.11380e-18
6520.54503 9.99839e-18
6522.01527 8.91850e-18
6523.48551 9.47512e-18
6524.95575 1.04333e-17
6526.42599 1.01792e-17
6527.89623 1.05665e-17
6529.36647 1.02466e-17
6530.83671 9.72047e-18
6532.30695 1.04630e-17
6533.77719 1.01820e-17
6535.24743 9.49539e-18
6536.71767 1.02996e-17
6538.18791 1.16692e-17
6539.65815 1.33095e-17
6541.12839 1.29657e-17
6542.59863 1.11645e-17
6544.06887 1.11338e-17
6545.53911 1.13573e-17
6547.00935 1.10511e-17
6548.47959 1.13079e-17
6549.94983 1.12034e-17
6551.42007 9.59198e-18
6552.89031 8.62929e-18
6554.36055 9.18891e-18
6555.83079 9.92994e-18
6557.30103 1.31993e-17
6558.77127 1.48920e-17
6560.24151 1.17724e-17
6561.71175 9.76100e-18
6563.18199 1.00642e-17
6564.65223 1.05619e-17
6566.12247 1.20647e-17
6567.59271 1.36800e-17
6569.06295 1.28151e-17
6570.53319 1.10806e-17
6572.00343 8.79836e-18
6573.47367 9.17671e-18
6574.94391 1.08749e-17
6576.41415 1.02207e-17
6577.88439 1.06477e-17
6579.35463 1.04994e-17
6580.81466 1.01232e-17
6582.28490 1.01692e-17
6583.75514 9.02412e-18
6585.22538 9.70928e-18
6586.69562 1.03668e-17
6588.16586 8.99406e-18
6589.63610 1.00170e-17
6591.10634 1.18248e-17
6592.57658 1.01165e-17
6594.04682 9.14702e-18
6595.51706 9.67459e-18
6596.98730 8.46577e-18
6598.45754 9.23952e-18
6599.92778 1.10658e-17
6601.39802 1.08516e-17
6602.86826 9.01366e-18
6604.33850 9.46919e-18
6605.80874 1.11349e-17
6607.27898 9.98526e-18
6608.74922 6.96318e-18
6610.21946 9.12269e-18
6611.68970 1.07134e-17
6613.15994 1.00162e-17
6614.63018 1.05042e-17
6616.10042 1.05158e-17
6617.57066 1.13977e-17
6619.04090 1.18154e-17
6620.51114 1.05156e-17
6621.98138 1.03200e-17
6623.45162 7.31895e-18
6624.92186 7.70903e-18
6626.39210 9.98962e-18
6627.86234 1.01117e-17
6629.33258 1.01706e-17
6630.80282 1.04970e-17
6632.27306 9.82775e-18
6633.74330 1.04184e-17
6635.21354 1.09518e-17
6636.68378 1.03671e-17
6638.15402 1.04313e-17
6639.62426 1.11450e-17
6641.09450 1.09601e-17
6642.56474 1.21688e-17
6644.02477 1.33722e-17
6645.49501 1.27836e-17
6646.96525 1.05207e-17
6648.43549 9.71475e-18
6649.90573 9.51123e-18
6651.37597 1.06277e-17
6652.84621 1.27149e-17
6654.31645 1.19564e-17
6655.78669 1.04463e-17
6657.25693 8.48849e-18
6658.72717 1.08829e-17
6660.19741 1.37137e-17
6661.66765 1.19052e-17
6663.13789 9.38930e-18
6664.60813 1.06025e-17
6666.07837 1.29090e-17
6667.54861 1.39771e-17
6669.01885 1.18009e-17
6670.48909 1.01047e-17
6671.95933 9.60485e-18
6673.42957 1.18898e-17
6674.89981 1.32823e-17
6676.37005 1.34750e-17
6677.84029 1.12538e-17
6679.31053 1.03722e-17
6680.78077 1.05395e-17
6682.25101 1.24744e-17
6683.72125 1.39605e-17
6685.19149 1.40108e-17
6686.66173 1.20791e-17
6688.13197 1.18198e-17
6689.60221 1.11656e-17
6691.07245 9.80631e-18
6692.54269 9.46764e-18
6694.01293 1.05663e-17
6695.48317 1.25221e-17
6696.95341 1.16206e-17
6698.42365 9.06573e-18
6699.89389 1.15098e-17
6701.36413 1.18740e-17
6702.83437 1.13379e-17
6704.30461 1.21308e-17
6705.77485 1.06857e-17
6707.24509 9.08297e-18
6708.70512 1.07194e-17
6710.17536 1.34029e-17
6711.64560 1.44898e-17
6713.11584 1.31962e-17
6714.58608 1.01683e-17
6716.05632 1.08608e-17
6717.52656 1.35832e-17
6718.99680 1.14411e-17
6720.46704 8.99648e-18
6721.93728 1.05837e-17
6723.40752 1.18797e-17
6724.87776 9.84701e-18
6726.34800 9.86862e-18
6727.81824 1.07229e-17
6729.28848 1.05109e-17
6730.75872 1.00697e-17
6732.22896 1.03215e-17
6733.69920 1.26583e-17
6735.16944 1.20368e-17
6736.63968 9.22039e-18
6738.10992 9.80734e-18
6739.58016 9.80899e-18
6741.05040 1.07961e-17
6742.52064 1.19092e-17
6743.99088 1.04271e-17
6745.46112 7.75169e-18
6746.93136 9.04354e-18
6748.40160 1.16884e-17
6749.87184 1.17815e-17
6751.34208 1.17604e-17
6752.81232 1.19597e-17
6754.28256 1.30993e-17
6755.75280 1.36766e-17
6757.22304 1.23688e-17
6758.69328 1.00201e-17
6760.16352 9.41373e-18
6761.63376 1.04402e-17
6763.10400 1.17611e-17
6764.57424 1.03151e-17
6766.04448 8.88210e-18
6767.50451 1.03536e-17
6768.97475 1.15354e-17
6770.44499 1.07201e-17
6771.91523 1.10425e-17
6773.38547 1.35770e-17
6774.85571 1.16642e-17
6776.32595 8.26109e-18
6777.79619 8.51361e-18
6779.26643 9.44614e-18
6780.73667 1.15611e-17
6782.20691 1.24407e-17
6783.67715 1.09095e-17
6785.14739 9.96050e-18
6786.61763 1.12606e-17
6788.08787 1.25814e-17
6789.55811 1.13020e-17
6791.02835 1.05281e-17
6792.49859 1.00969e-17
6793.96883 1.00084e-17
6795.43907 1.15797e-17
6796.90931 1.20013e-17
6798.37955 1.02523e-17
6799.84979 9.65339e-18
6801.32003 1.08895e-17
6802.79027 1.16242e-17
6804.26051 1.13223e-17
6805.73075 9.66364e-18
6807.20099 9.37365e-18
6808.67123 9.78328e-18
6810.14147 9.40164e-18
6811.61171 9.35784e-18
6813.08195 9.92763e-18
6814.55219 1.21086e-17
6816.02243 1.24738e-17
6817.49267 1.12691e-17
6818.96291 1.17068e-17
6820.43315 1.13382e-17
6821.90339 1.10172e-17
6823.37363 1.27672e-17
6824.84387 1.11893e-17
6826.31411 8.90739e-18
6827.78435 6.97965e-18
6829.25459 6.96093e-18
6830.72483 1.16883e-17
6832.19507 1.18256e-17
6833.65510 9.84985e-18
6835.12534 1.00282e-17
6836.59558 9.00193e-18
6838.06582 9.96415e-18
6839.53606 1.08934e-17
6841.00630 8.69953e-18
6842.47654 9.20288e-18
6843.94678 1.13619e-17
6845.41702 1.27183e-17
6846.88726 1.31990e-17
6848.35750 1.30558e-17
6849.82774 1.07842e-17
6851.29798 9.83285e-18
6852.76822 9.15304e-18
6854.23846 8.54802e-18
6855.70870 8.54870e-18
6857.17894 1.15366e-17
6858.64918 1.01303e-17
6860.11942 9.53279e-18
6861.58966 9.40744e-18
6863.05990 8.35058e-18
6864.53014 1.17788e-17
6866.00038 9.86082e-18
6867.47062 8.25577e-18
6868.94086 9.46088e-18
6870.41110 7.13228e-18
6871.88134 6.50168e-18
6873.35158 9.70172e-18
6874.82182 1.16858e-17
6876.29206 8.57217e-18
6877.76230 8.96103e-18
6879.23254 1.12523e-17
6880.70278 1.14029e-17
6882.17302 9.22048e-18
6883.64326 9.29906e-18
6885.11350 9.71553e-18
6886.58374 8.48172e-18
6888.05398 1.01089e-17
6889.52422 8.27480e-18
6890.99446 9.07699e-18
6892.46470 1.00522e-17
6893.93494 1.06228e-17
6895.39497 1.00227e-17
6896.86521 9.54173e-18
6898.33545 9.72485e-18
6899.80569 1.14352e-17
6901.27593 1.34605e-17
6902.74617 1.12707e-17
6904.21641 9.85926e-18
6905.68665 8.85960e-18
6907.15689 7.62843e-18
6908.62713 9.98622e-18
6910.09737 1.16845e-17
6911.56761 1.03807e-17
6913.03785 8.01781e-18
6914.50809 8.32215e-18
6915.97833 8.09230e-18
6917.44857 1.05524e-17
6918.91881 1.00267e-17
6920.38905 1.00598e-17
6921.85929 9.81071e-18
6923.32953 1.16217e-17
6924.79977 1.08142e-17
6926.27001 1.07759e-17
6927.74025 1.10147e-17
6929.21049 1.25938e-17
6930.68073 1.23858e-17
6932.15097 9.04089e-18
6933.62121 9.68384e-18
6935.09145 1.07272e-17
6936.56169 1.03326e-17
6938.03193 9.92970e-18
6939.50217 8.76817e-18
6940.97241 9.38336e-18
6942.44265 1.08323e-17
6943.91289 8.77333e-18
6945.38313 8.50195e-18
6946.85337 8.95704e-18
6948.32361 1.00708e-17
6949.79385 1.04237e-17
6951.26409 1.06040e-17
6952.73433 1.04088e-17
6954.20457 9.63469e-18
6955.66460 1.11016e-17
6957.13484 1.14357e-17
6958.60508 8.26186e-18
6960.07532 9.44005e-18
6961.54556 9.61890e-18
6963.01580 9.92047e-18
6964.48604 1.08469e-17
6965.95628 9.45293e-18
6967.42652 1.18202e-17
6968.89676 1.17130e-17
6970.36700 1.09886e-17
6971.83724 8.33786e-18
6973.30748 1.13691e-17
6974.77772 9.70606e-18
6976.24796 7.50009e-18
6977.71820 9.34132e-18
6979.18844 1.11592e-17
6980.65868 1.13936e-17
6982.12892 1.05530e-17
6983.59916 1.01828e-17
6985.06940 1.19466e-17
6986.53964 1.06232e-17
6988.00988 9.97134e-18
6989.48012 9.68852e-18
6990.95036 5.25585e-18
6992.42060 4.55791e-18
6993.89084 7.93486e-18
6995.36108 8.47784e-18
6996.83132 9.53212e-18
6998.30156 1.30446e-17
6999.77180 1.00896e-17
7001.24204 7.85667e-18
7002.71228 8.76703e-18
7004.18252 9.72211e-18
7005.65276 7.42645e-18
7007.12300 8.73732e-18
7008.59324 8.85116e-18
7010.06348 7.53224e-18
7011.53372 1.03936e-17
7013.00396 8.97802e-18
7014.47420 7.85979e-18
7015.94444 9.08978e-18
7017.41468 9.92257e-18
7018.87471 6.82315e-18
7020.35516 6.94515e-18
7021.81519 9.77231e-18
7023.28543 1.08942e-17
7024.75567 5.84806e-18
7026.22591 5.55883e-18
7027.69615 7.00749e-18
7029.16639 6.89759e-18
7030.63663 7.90881e-18
7032.10687 8.58222e-18
7033.57711 9.77639e-18
7035.04735 1.17823e-17
7036.51759 1.24494e-17
7037.98783 9.87213e-18
7039.45807 9.46033e-18
7040.92831 9.87603e-18
7042.39855 8.87084e-18
7043.86879 9.85609e-18
7045.33903 1.12138e-17
7046.80927 9.18250e-18
7048.27951 8.59507e-18
7049.74975 8.84724e-18
7051.21999 8.44582e-18
7052.69023 1.05842e-17
7054.16047 1.01853e-17
7055.63071 8.85852e-18
7057.10095 8.63516e-18
7058.57119 9.57055e-18
7060.04143 1.04475e-17
7061.51167 1.06368e-17
7062.98191 1.03814e-17
7064.45215 9.48259e-18
7065.92239 1.03666e-17
7067.39263 1.01557e-17
7068.86287 9.89609e-18
7070.33311 1.19884e-17
7071.80335 1.01542e-17
7073.27359 7.95502e-18
7074.74383 9.06134e-18
7076.21407 8.97864e-18
7077.68431 1.01558e-17
7079.15455 9.96460e-18
7080.62479 8.47201e-18
7082.08482 1.08230e-17
7083.55506 9.38943e-18
7085.02530 7.53804e-18
7086.49554 8.05512e-18
7087.96578 1.14542e-17
7089.43602 1.40227e-17
7090.90626 1.03076e-17
7092.37650 8.66860e-18
7093.84674 1.04925e-17
7095.31698 9.66101e-18
7096.78722 7.75862e-18
7098.25746 7.14357e-18
7099.72770 8.63036e-18
7101.19794 1.00138e-17
7102.66818 9.52562e-18
7104.13842 8.12868e-18
7105.60866 7.82663e-18
7107.07890 1.13771e-17
7108.54914 1.15011e-17
7110.01938 1.01202e-17
7111.48962 9.60080e-18
7112.95986 1.05393e-17
7114.43010 1.19319e-17
7115.90034 1.09348e-17
7117.37058 9.85668e-18
7118.84082 9.97823e-18
7120.31106 1.19366e-17
7121.78130 1.04782e-17
7123.25154 1.13111e-17
7124.72178 1.15577e-17
7126.19202 9.16401e-18
7127.66226 1.02279e-17
7129.13250 9.69480e-18
7130.60274 8.55892e-18
7132.07298 9.56288e-18
7133.54322 1.07970e-17
7135.01346 9.86767e-18
7136.48370 8.60659e-18
7137.95394 1.09118e-17
7139.42418 1.24008e-17
7140.89442 1.15228e-17
7142.36466 1.26989e-17
7143.83490 1.52834e-17
7145.29493 1.68656e-17
7146.76517 1.53551e-17
7148.23541 1.30862e-17
7149.70565 9.94271e-18
7151.17589 7.57003e-18
7152.64613 8.04885e-18
7154.11637 1.03191e-17
7155.58661 1.05452e-17
7157.05685 1.00440e-17
7158.52709 9.65128e-18
7159.99733 9.01400e-18
7161.46757 8.16551e-18
7162.93781 9.08193e-18
7164.40805 1.18620e-17
7165.87829 1.04461e-17
7167.34853 9.71582e-18
7168.81877 9.93409e-18
7170.28901 1.04123e-17
7171.75925 9.02120e-18
7173.22949 7.48375e-18
7174.69973 1.08900e-17
7176.16997 1.22500e-17
7177.64021 9.70286e-18
7179.11045 7.01565e-18
7180.58069 8.80324e-18
7182.05093 9.33994e-18
7183.52117 9.83175e-18
7184.99141 1.05727e-17
7186.46165 1.04533e-17
7187.93189 1.01101e-17
7189.40213 1.04033e-17
7190.87237 8.37569e-18
7192.34261 1.02900e-17
7193.81285 1.07901e-17
7195.28309 8.99144e-18
7196.75333 7.38859e-18
7198.22357 7.14984e-18
7199.69381 9.50074e-18
7201.16405 9.35229e-18
7202.63429 9.80605e-18
7204.10453 1.08571e-17
7205.56456 9.79603e-18
7207.04501 9.36842e-18
7208.50504 9.28564e-18
7209.97528 9.08899e-18
7211.44552 9.49527e-18
7212.91576 8.80747e-18
7214.38600 7.68993e-18
7215.85624 9.18046e-18
7217.32648 1.17730e-17
7218.79672 1.07758e-17
7220.26696 1.01735e-17
7221.73720 1.16128e-17
7223.20744 1.23273e-17
7224.67768 8.95789e-18
7226.14792 8.08620e-18
7227.61816 7.99537e-18
7229.08840 6.21457e-18
7230.55864 9.41882e-18
7232.02888 7.84393e-18
7233.49912 5.50674e-18
7234.96936 7.03407e-18
7236.43960 9.32778e-18
7237.90984 1.16204e-17
7239.38008 1.08490e-17
7240.85032 9.27707e-18
7242.32056 1.09942e-17
7243.79080 1.00046e-17
7245.26104 1.01800e-17
7246.73128 7.80597e-18
7248.20152 8.58760e-18
7249.67176 1.18305e-17
7251.14200 9.08164e-18
7252.61224 1.09942e-17
7254.08248 8.86143e-18
7255.55272 1.18891e-17
7257.02296 1.01213e-17
7258.49320 1.02084e-17
7259.96344 1.06913e-17
7261.43368 9.07573e-18
7262.90392 1.05635e-17
7264.37416 1.26481e-17
7265.84440 1.20664e-17
7267.31464 1.08273e-17
7268.77467 1.22968e-17
7270.24491 1.19874e-17
7271.71515 1.29357e-17
7273.18539 9.76181e-18
7274.65563 9.62859e-18
7276.12587 1.22552e-17
7277.59611 9.60531e-18
7279.06635 1.23503e-17
7280.53659 1.05407e-17
7282.00683 6.27797e-18
7283.47707 6.93120e-18
7284.94731 1.07843e-17
7286.41755 6.06867e-18
7287.88779 9.25370e-18
7289.35803 1.22008e-17
7290.82827 8.54669e-18
7292.29851 1.03963e-17
7293.76875 9.59489e-18
7295.23899 1.13871e-17
7296.70923 8.30370e-18
7298.17947 6.36489e-18
7299.64971 1.00872e-17
7301.11995 1.17704e-17
7302.59019 8.27068e-18
7304.06043 9.22425e-18
7305.53067 7.03706e-18
7307.00091 6.74741e-18
7308.47115 9.48196e-18
7309.94139 9.70517e-18
7311.41163 1.11347e-17
7312.88187 8.56796e-18
7314.35211 7.12231e-18
7315.82235 9.92238e-18
7317.29259 1.42444e-17
7318.76283 8.34684e-18
7320.23307 7.49656e-18
7321.70331 9.16872e-18
7323.17355 1.08288e-17
7324.64379 1.05457e-17
7326.11403 9.51753e-18
7327.58427 8.73986e-18
7329.05451 1.02029e-17
7330.52475 8.35008e-18
7331.99499 5.83997e-18
7333.45502 7.87175e-18
7334.92526 8.77078e-18
7336.39550 6.96157e-18
7337.86574 7.80497e-18
7339.33598 1.37514e-17
7340.80622 1.19385e-17
7342.27646 8.62660e-18
7343.74670 8.94628e-18
7345.21694 1.20450e-17
7346.68718 1.14057e-17
7348.15742 9.69945e-18
7349.62766 8.68814e-18
7351.09790 1.03003e-17
7352.56814 9.66516e-18
7354.03838 1.05199e-17
7355.50862 1.18016e-17
7356.97886 1.24715e-17
7358.44910 1.15685e-17
7359.91934 1.31490e-17
7361.38958 8.84403e-18
7362.85982 9.32451e-18
7364.33006 7.38682e-18
7365.80030 9.64803e-18
7367.27054 9.61102e-18
7368.74078 8.73860e-18
7370.21102 5.63488e-18
7371.68126 5.10534e-18
7373.15150 5.66395e-18
7374.62174 5.90597e-18
7376.09198 7.53278e-18
7377.56222 8.11067e-18
7379.03246 8.38876e-18
7380.50270 9.42418e-18
7381.97294 9.84721e-18
7383.44318 8.68542e-18
7384.91342 9.27907e-18
7386.38366 5.71426e-18
7387.85390 1.00026e-17
7389.32414 8.99117e-18
7390.79438 8.16128e-18
7392.25441 1.15704e-17
7393.72465 1.11209e-17
7395.20510 1.00627e-17
7396.66513 1.03635e-17
7398.13537 9.42341e-18
7399.60561 1.13499e-17
7401.07585 8.03514e-18
7402.54609 1.16177e-17
7404.01633 7.61957e-18
7405.48657 6.74885e-18
7406.95681 4.10764e-18
7408.42705 8.22857e-18
7409.89729 1.00876e-17
7411.36753 1.06265e-17
7412.22211 1.06265e-17
7413.91970 1.12083e-17
7415.61729 1.17049e-17
7417.31488 1.25506e-17
7419.01247 1.34188e-17
7420.71005 1.29658e-17
7422.40764 1.11213e-17
7424.10523 9.87001e-18
7425.80282 1.02300e-17
7427.50041 1.12370e-17
7429.19800 1.20549e-17
7430.89558 1.24399e-17
7432.59317 1.23671e-17
7434.29076 1.22506e-17
7435.98835 1.24509e-17
7437.68594 1.29351e-17
7439.38352 1.35423e-17
7441.09116 1.40757e-17
7442.78874 1.42945e-17
7444.48633 1.36759e-17
7446.18392 1.20063e-17
7447.88151 1.05211e-17
7449.57910 1.05339e-17
7451.27669 1.15867e-17
7452.97427 1.25132e-17
7454.67186 1.25346e-17
7456.36945 1.12873e-17
7458.06704 9.46968e-18
7459.76463 8.35372e-18
7461.46221 8.25485e-18
7463.15980 8.74035e-18
7464.85739 9.62629e-18
7466.55498 1.08754e-17
7468.25257 1.21102e-17
7469.95015 1.27232e-17
7471.64774 1.25432e-17
7473.34533 1.18906e-17
7475.04292 1.12675e-17
7476.74051 1.13946e-17
7478.43809 1.22046e-17
7480.13568 1.23759e-17
7481.83327 1.14891e-17
7483.53086 1.08235e-17
7485.22845 1.11216e-17
7486.92604 1.18535e-17
7488.62362 1.25142e-17
7490.32121 1.29619e-17
7492.01880 1.30508e-17
7493.71639 1.24625e-17
7495.41398 1.12022e-17
7497.11156 1.02119e-17
7498.80915 1.02651e-17
7500.50674 1.09679e-17
7502.20433 1.16928e-17
7503.90192 1.21470e-17
7505.59950 1.22534e-17
7507.29709 1.25172e-17
7508.99468 1.34324e-17
7510.69227 1.43435e-17
7512.38986 1.42256e-17
7514.08745 1.27570e-17
7515.78503 1.02142e-17
7517.48262 7.99684e-18
7519.18021 7.96085e-18
7520.87780 9.64145e-18
7522.58543 1.08067e-17
7524.28302 1.09305e-17
7525.98061 1.10494e-17
7527.67819 1.14578e-17
7529.37578 1.17517e-17
7531.07337 1.17568e-17
7532.77096 1.14977e-17
7534.46855 1.11336e-17
7536.16614 1.10363e-17
7537.86372 1.13200e-17
7539.56131 1.16528e-17
7541.25890 1.18126e-17
7542.95649 1.18444e-17
7544.65408 1.17986e-17
7546.35166 1.17210e-17
7548.04925 1.16090e-17
7549.74684 1.12737e-17
7551.44443 1.12639e-17
7553.14202 1.12541e-17
7554.83960 1.12443e-17
7556.53719 1.12346e-17
7558.23478 1.12248e-17
7559.93237 1.12150e-17
7561.62996 1.12053e-17
7563.32754 1.11955e-17
7565.02513 1.11857e-17
7566.72272 1.11760e-17
7568.42031 1.11662e-17
7570.11790 1.11564e-17
7571.81549 1.11467e-17
7573.51307 1.11369e-17
7575.21066 1.11271e-17
7576.90825 1.11174e-17
7578.60584 1.11076e-17
7580.30343 1.10979e-17
7582.00101 1.10881e-17
7583.69860 1.10783e-17
7585.39619 1.10686e-17
7587.09378 1.10588e-17
7588.79137 1.10491e-17
7590.48895 1.10393e-17
7592.18654 1.10295e-17
7593.88413 1.10198e-17
7595.58172 1.10100e-17
7597.27931 1.10003e-17
7598.97689 1.09905e-17
7600.67448 1.09808e-17
7602.37207 1.09710e-17
7604.06966 1.09613e-17
7605.76725 1.09515e-17
7607.47488 1.09418e-17
7609.17247 1.09320e-17
7610.87006 1.09223e-17
7612.56764 1.09125e-17
7614.26523 1.09028e-17
7615.96282 1.08930e-17
7617.66041 1.08832e-17
7619.35800 1.08735e-17
7621.05559 1.08638e-17
7622.75317 1.08540e-17
7624.45076 1.08443e-17
7626.14835 1.08345e-17
7627.84594 1.08248e-17
7629.54353 1.08150e-17
7631.24111 1.08053e-17
7632.93870 1.07955e-17
7634.63629 1.07858e-17
7636.33388 1.07761e-17
7638.03147 1.07663e-17
7639.72905 1.07566e-17
7641.42664 1.07469e-17
7643.12423 1.07371e-17
7644.82182 1.07274e-17
7646.51941 1.07176e-17
7648.21699 1.07079e-17
7649.91458 1.06982e-17
7651.61217 1.06884e-17
7653.30976 1.06787e-17
7655.00735 1.06690e-17
7656.70494 1.06592e-17
7658.40252 1.06495e-17
7660.10011 1.06398e-17
7661.79770 1.06300e-17
7663.49529 1.06203e-17
7665.19288 1.06106e-17
7666.89046 1.06008e-17
7668.58805 1.05911e-17
7670.28564 1.05814e-17
7671.98323 1.05717e-17
7673.68082 1.05619e-17
7675.37840 1.05522e-17
7677.07599 1.05425e-17
7678.77358 1.05328e-17
7680.47117 1.05230e-17
7682.16876 1.05226e-17
7683.86634 1.04068e-17
7685.56393 1.02136e-17
7687.26152 9.99790e-18
7688.96915 9.88956e-18
7690.66674 1.00212e-17
7692.36433 1.03054e-17
7694.06192 1.04975e-17
7695.75951 1.04776e-17
7697.45709 1.02579e-17
7699.15468 9.92427e-18
7700.85227 9.63609e-18
7702.54986 9.62902e-18
7704.24745 1.02039e-17
7705.94504 1.12059e-17
7707.64262 1.18638e-17
7709.34021 1.18610e-17
7711.03780 1.16624e-17
7712.73539 1.14813e-17
7714.43298 1.09588e-17
7716.13056 1.00590e-17
7717.82815 9.50816e-18
7719.52574 9.62452e-18
7721.22333 9.51513e-18
7722.92092 8.71069e-18
7724.61850 8.38668e-18
7726.31609 9.39975e-18
7728.01368 1.08041e-17
7729.71127 1.15664e-17
7731.40886 1.18630e-17
7733.10644 1.20646e-17
7734.80403 1.17845e-17
7736.50162 1.06915e-17
7738.19921 9.73434e-18
7739.89680 1.00355e-17
7741.59439 1.10414e-17
7743.29197 1.15390e-17
7744.98956 1.15229e-17
7746.68715 1.16347e-17
7748.38474 1.19653e-17
7750.08233 1.22652e-17
7751.77991 1.23623e-17
7753.47750 1.21443e-17
7755.17509 1.18141e-17
7756.87268 1.18572e-17
7758.57027 1.24275e-17
7760.26785 1.33114e-17
7761.96544 1.39557e-17
7763.66303 1.33754e-17
7765.36062 1.17218e-17
7767.05821 1.08654e-17
7768.75579 1.15302e-17
7770.46343 1.23534e-17
7772.16102 1.24404e-17
7773.85860 1.20627e-17
7775.55619 1.15084e-17
7777.25378 1.08785e-17
7778.95137 1.03462e-17
7780.64896 1.02709e-17
7782.34654 1.07896e-17
7784.04413 1.14135e-17
7785.74172 1.16629e-17
7787.43931 1.14775e-17
7789.13690 1.09971e-17
7790.83448 1.07056e-17
7792.53207 1.10045e-17
7794.22966 1.13031e-17
7795.92725 1.09215e-17
7797.62484 1.07814e-17
7799.32243 1.21276e-17
7801.02001 1.40659e-17
7802.71760 1.47837e-17
7804.41519 1.40334e-17
7806.11278 1.26340e-17
7807.81037 1.14565e-17
7809.50795 1.13375e-17
7811.20554 1.19590e-17
7812.90313 1.19539e-17
7814.60072 1.13022e-17
7816.29831 1.13828e-17
7817.99589 1.22793e-17
7819.69348 1.25497e-17
7821.39107 1.18898e-17
7823.08866 1.15759e-17
7824.78625 1.20266e-17
7826.48384 1.22342e-17
7828.18142 1.17303e-17
7829.87901 1.11549e-17
7831.57660 1.08334e-17
7833.27419 1.02191e-17
7834.97178 9.15407e-18
7836.66936 8.56876e-18
7838.36695 9.10742e-18
7840.06454 1.04206e-17
7841.76213 1.18493e-17
7843.45972 1.23207e-17
7845.15730 1.12152e-17
7846.85489 9.68213e-18
7848.55248 9.08878e-18
7850.25007 9.48805e-18
7851.94766 1.04296e-17
7853.64524 1.16398e-17
7855.35288 1.28387e-17
7857.05047 1.34713e-17
7858.74805 1.30527e-17
7860.44564 1.19945e-17
7862.14323 1.11778e-17
7863.84082 1.06939e-17
7865.53841 1.00843e-17
7867.23599 9.46512e-18
7868.93358 9.35855e-18
7870.63117 9.52937e-18
7872.32876 9.08340e-18
7874.02635 8.14876e-18
7875.72393 7.96069e-18
7877.42152 8.90564e-18
7879.11911 1.03082e-17
7880.81670 1.12822e-17
7882.51429 1.05699e-17
7884.21188 8.36450e-18
7885.90946 7.45583e-18
7887.60705 9.11275e-18
7889.30464 1.12605e-17
7891.00223 1.22518e-17
7892.69982 1.21082e-17
7894.39740 1.12090e-17
7896.09499 1.03567e-17
7897.79258 1.01404e-17
7899.49017 1.00944e-17
7901.18776 9.77662e-18
7902.88534 9.71933e-18
7904.58293 1.03988e-17
7906.28052 1.13000e-17
7907.97811 1.17029e-17
7909.67570 1.12146e-17
7911.37328 9.81235e-18
7913.07087 8.42662e-18
7914.76846 8.20707e-18
7916.46605 9.19452e-18
7918.16364 1.06857e-17
7919.86123 1.15246e-17
7921.55881 1.05255e-17
7923.25640 8.42342e-18
7924.95399 7.38663e-18
7926.65158 8.09549e-18
7928.34917 9.78567e-18
7930.04675 1.14968e-17
7931.74434 1.20540e-17
7933.44193 1.13619e-17
7935.13952 1.07716e-17
7936.84715 1.07401e-17
7938.54474 1.03482e-17
7940.24233 9.44604e-18
7941.93992 9.13786e-18
7943.63750 9.94800e-18
7945.33509 1.13585e-17
7947.03268 1.26176e-17
7948.73027 1.26000e-17
7950.42786 1.09187e-17
7952.12544 9.01123e-18
7953.82303 8.12504e-18
7955.52062 8.15146e-18
7957.21821 8.69621e-18
7958.91580 9.36554e-18
7960.61338 9.85494e-18
7962.31097 1.04171e-17
7964.00856 1.12805e-17
7965.70615 1.17848e-17
7967.40374 1.12283e-17
7969.10133 1.00266e-17
7970.79891 9.00341e-18
7972.49650 8.48671e-18
7974.19409 8.47495e-18
7975.89168 8.68596e-18
7977.58927 8.68132e-18
7979.28685 8.44751e-18
7980.98444 8.28624e-18
7982.68203 8.18203e-18
7984.37962 7.88224e-18
7986.07721 7.35125e-18
7987.77479 6.75245e-18
7989.47238 6.39875e-18
7991.16997 6.75819e-18
7992.86756 7.78874e-18
7994.56515 8.77606e-18
7996.26273 9.23952e-18
7997.96032 9.10112e-18
7999.65791 8.47900e-18
8001.35550 7.81754e-18
8003.05309 7.35007e-18
8004.75068 6.75546e-18
8006.44826 5.90333e-18
8008.14585 5.25252e-18
8009.84344 5.08838e-18
8011.54103 5.04390e-18
8013.23862 4.83502e-18
8014.93620 4.78378e-18
8016.63379 5.17333e-18
8018.34143 5.73803e-18
8020.03901 6.15117e-18
8021.73660 6.45755e-18
8023.43419 6.76563e-18
8025.13178 6.88634e-18
8026.82937 6.60443e-18
8028.52695 6.13227e-18
8030.22454 5.81090e-18
8031.92213 5.47415e-18
8033.61972 4.75066e-18
8035.31731 3.87173e-18
8037.01489 3.42098e-18
8038.71248 3.45932e-18
8040.41007 3.64644e-18
8042.10766 3.93840e-18
8043.80525 4.53251e-18
8045.50283 5.42814e-18
8047.20042 6.43440e-18
8048.89801 7.22867e-18
8050.59560 7.34244e-18
8052.29319 6.63131e-18
8053.99078 5.42314e-18
8055.68836 4.09657e-18
8057.38595 2.98594e-18
8059.08354 2.49419e-18
8060.78113 3.22634e-18
8062.47872 5.08350e-18
8064.17630 6.50505e-18
8065.87389 6.45250e-18
8067.57148 5.56684e-18
8069.26907 4.65113e-18
8070.96666 4.06714e-18
8072.66424 4.03048e-18
8074.36183 4.64079e-18
8076.05942 5.74555e-18
8077.75701 6.56436e-18
8079.45460 6.40682e-18
8081.15218 5.68326e-18
8082.84977 5.10700e-18
8084.54736 4.67053e-18
8086.24495 4.12095e-18
8087.94254 3.61621e-18
8089.64013 3.46799e-18
8091.33771 3.78970e-18
8093.03530 4.52745e-18
8094.73289 5.38862e-18
8096.43048 5.92981e-18
8098.12807 5.99003e-18
8099.82565 5.69161e-18
8101.52324 5.22868e-18
8103.22083 4.86584e-18
8104.92846 4.63273e-18
8106.62605 4.24773e-18
8108.32364 3.79336e-18
8110.02123 3.85365e-18
8111.71882 4.49181e-18
8113.41640 5.00696e-18
8115.11399 4.82750e-18
8116.81158 3.56704e-18
8118.50917 1.58021e-18
8120.20676 7.45110e-19
8121.90434 1.98347e-18
8123.60193 3.63248e-18
8125.29952 4.31512e-18
8126.99711 4.44779e-18
8128.69470 4.58392e-18
8130.39228 4.72125e-18
8132.08987 4.77124e-18
8133.78746 4.66365e-18
8135.48505 4.35044e-18
8137.18264 3.82247e-18
8138.88023 3.16385e-18
8140.57781 2.82031e-18
8142.27540 3.19882e-18
8143.97299 3.88948e-18
8145.67058 4.16668e-18
8147.36817 3.84750e-18
8149.06575 3.14065e-18
8150.76334 2.51217e-18
8152.46093 2.54894e-18
8154.15852 3.21633e-18
8155.85611 3.94535e-18
8157.55369 4.51896e-18
8159.25128 5.06055e-18
8160.94887 5.51226e-18
8162.64646 5.65335e-18
8164.34405 5.52402e-18
8166.04163 5.47647e-18
8167.73922 5.55228e-18
8169.43681 5.33604e-18
8171.13440 4.61256e-18
8172.83199 3.50880e-18
8174.52958 2.26878e-18
8176.22716 1.27356e-18
8177.92475 8.48551e-19
8179.62234 1.22490e-18
8181.31993 2.29004e-18
8183.01752 3.20580e-18
8184.71510 3.33117e-18
8186.41269 2.80559e-18
8188.12032 2.06486e-18
8189.81791 1.98571e-18
8191.51550 3.08863e-18
8193.21309 4.26936e-18
8194.91068 4.26296e-18
8196.60827 3.19958e-18
8198.30585 1.81324e-18
8200.00344 1.01553e-18
8201.70103 1.53476e-18
8203.39862 2.65428e-18
8205.09621 3.03387e-18
8206.79379 2.87731e-18
8208.49138 3.29719e-18
8210.18897 4.33969e-18
8211.88656 5.28377e-18
8213.58415 5.69155e-18
8215.28173 5.37328e-18
8216.97932 4.59003e-18
8218.67691 4.09349e-18
8220.37450 4.03268e-18
8222.07209 3.79788e-18
8223.76967 3.22695e-18
8225.46726 2.78983e-18
8227.16485 2.66276e-18
8228.86244 2.53355e-18
8230.56003 2.35381e-18
8232.25762 2.60444e-18
8233.95520 3.43204e-18
8235.65279 4.23188e-18
8237.35038 4.59614e-18
8239.04797 4.79567e-18
8240.74556 5.03905e-18
8242.44314 5.07137e-18
8244.14073 4.71982e-18
8245.83832 4.26317e-18
8247.53591 3.98209e-18
8249.23350 3.87430e-18
8250.93108 3.81618e-18
8252.62867 3.43887e-18
8254.32626 2.50448e-18
8256.02385 1.75816e-18
8257.72144 2.08832e-18
8259.41903 3.06511e-18
8261.11661 3.67918e-18
8262.81420 3.56228e-18
8264.51179 2.82874e-18
8266.20938 2.08644e-18
8267.91701 2.21438e-18
8269.60455 3.08503e-18
8271.30214 3.71971e-18
8273.00977 3.70934e-18
8274.70736 3.22064e-18
8276.40495 2.56508e-18
8278.10254 2.24453e-18
8279.80013 2.44118e-18
8281.49772 2.86537e-18
8283.19530 3.34654e-18
8284.89289 3.93542e-18
8286.59048 4.54705e-18
8288.28807 4.87784e-18
8289.98566 4.81284e-18
8291.68324 4.59708e-18
8293.38083 4.45366e-18
8295.07842 4.47056e-18
8296.77601 4.65066e-18
8298.47360 4.84122e-18
8300.17118 4.89450e-18
8301.86877 4.77691e-18
8303.56636 4.50219e-18
8305.26395 4.13654e-18
8306.96154 3.74747e-18
8308.65912 3.33013e-18
8310.35671 2.87599e-18
8312.05430 2.39836e-18
8313.75189 1.96371e-18
8315.44948 1.89223e-18
8317.14707 2.49238e-18
8318.84465 3.46647e-18
8320.54224 4.22396e-18
8322.23983 4.56892e-18
8323.93742 4.60861e-18
8325.63501 4.58206e-18
8327.33259 4.81168e-18
8329.03018 5.24367e-18
8330.72777 5.47188e-18
8332.42536 5.29306e-18
8334.12295 4.72581e-18
8335.82053 4.02885e-18
8337.51812 3.76707e-18
8339.21571 3.96032e-18
8340.91330 3.82729e-18
8342.61089 3.15737e-18
8344.30847 2.68087e-18
8346.00606 2.89321e-18
8347.70365 3.83401e-18
8349.40124 5.21833e-18
8351.09883 6.16447e-18
8352.79642 6.13701e-18
8354.50405 5.56750e-18
8356.20164 4.98571e-18
8357.89922 4.70489e-18
8359.59681 4.87425e-18
8361.29440 5.33130e-18
8362.99199 5.78946e-18
8364.68958 5.88066e-18
8366.38717 5.37415e-18
8368.08475 4.58770e-18
8369.78234 3.98996e-18
8371.47993 3.64110e-18
8373.17752 3.46641e-18
8374.87511 3.78027e-18
8376.57269 4.93110e-18
8378.27028 6.47068e-18
8379.96787 7.53629e-18
8381.66546 7.93807e-18
8383.36305 7.98352e-18
8385.06063 7.73672e-18
8386.75822 7.10650e-18
8388.45581 5.98892e-18
8390.15340 4.25255e-18
8391.85099 2.62385e-18
8393.54857 2.75849e-18
8395.24616 4.75063e-18
8396.94375 6.64698e-18
8398.64134 7.29376e-18
8400.33893 6.83705e-18
8402.03652 5.75780e-18
8403.73410 5.07494e-18
8405.43169 5.24854e-18
8407.12928 5.43307e-18
8408.82687 5.07700e-18
8410.52446 4.60957e-18
8412.22204 4.43607e-18
8413.91963 4.61361e-18
8415.61722 5.07940e-18
8417.31481 5.58615e-18
8419.01240 5.91220e-18
8420.70998 6.12978e-18
8422.40757 6.34156e-18
8424.10516 6.34803e-18
8425.80275 5.99191e-18
8427.50034 5.72792e-18
8429.19792 6.06645e-18
8430.89551 6.62004e-18
8432.59310 6.69445e-18
8434.29069 6.35902e-18
8435.99832 6.09230e-18
8437.69591 6.11502e-18
8439.39350 6.44035e-18
8441.09109 6.70285e-18
8442.77863 6.28655e-18
8444.48626 5.38172e-18
8446.18385 4.91161e-18
8447.88144 5.24756e-18
8449.57903 6.14927e-18
8451.27662 7.22175e-18
8452.97420 7.86985e-18
8454.67179 7.87825e-18
8456.36938 7.64000e-18
8458.06697 7.34250e-18
8459.76456 6.77078e-18
8461.46214 5.89083e-18
8463.15973 4.96745e-18
8464.85732 4.31179e-18
8466.55491 4.31740e-18
8468.25250 5.08979e-18
8469.95008 6.11186e-18
8471.64767 6.85623e-18
8473.34526 7.03167e-18
8475.04285 6.61213e-18
8476.74044 6.17185e-18
8478.43802 6.23430e-18
8480.13561 6.60751e-18
8481.83320 6.89977e-18
8483.53079 6.84440e-18
8485.22838 6.34286e-18
8486.92597 5.81136e-18
8488.62355 5.80020e-18
8490.32114 6.23611e-18
8492.01873 6.73424e-18
8493.71632 7.30622e-18
8495.41391 8.14782e-18
8497.11149 9.03137e-18
8498.80908 9.47695e-18
8500.50667 9.30717e-18
8502.20426 8.63751e-18
8503.90185 7.90978e-18
8505.59943 7.86349e-18
8507.29702 8.59162e-18
8508.99461 9.40005e-18
8510.69220 9.90485e-18
8512.38979 1.01923e-17
8514.08737 1.01780e-17
8515.78496 9.51627e-18
8517.49260 8.25123e-18
8519.19018 7.03007e-18
8520.87773 6.40962e-18
8522.58536 6.74638e-18
8524.27290 7.90670e-18
8525.98054 8.72339e-18
8527.67812 8.43562e-18
8529.37571 7.69532e-18
8531.07330 7.23970e-18
8532.77089 7.27586e-18
8534.46848 7.74423e-18
8536.16606 8.07339e-18
8537.86365 7.77482e-18
8539.56124 7.29583e-18
8541.25883 7.24783e-18
8542.95642 7.49801e-18
8544.65401 7.65025e-18
8546.35159 7.57119e-18
8548.04918 7.28514e-18
8549.74677 6.95120e-18
8551.44436 6.80808e-18
8553.14195 6.96233e-18
8554.83953 7.39039e-18
8556.53712 8.01122e-18
8558.23471 8.68454e-18
8559.93230 9.14792e-18
8561.62989 9.06865e-18
8563.32747 8.58114e-18
8565.02506 8.32482e-18
8566.72265 8.52610e-18
8568.42024 8.86524e-18
8570.11783 9.16658e-18
8571.81542 9.47319e-18
8573.51300 9.76366e-18
8575.21059 9.95104e-18
8576.90818 9.91385e-18
8578.60577 9.42006e-18
8580.30336 8.49758e-18
8582.00094 7.73559e-18
8583.69853 7.52964e-18
8585.39612 7.62722e-18
8587.09371 7.75886e-18
8588.79130 7.92683e-18
8590.48888 8.17246e-18
8592.18647 8.59259e-18
8593.88406 9.16912e-18
8595.58165 9.37819e-18
8597.27924 8.77637e-18
8598.97682 7.75062e-18
8600.67441 6.95770e-18
8602.37200 6.78132e-18
8604.07963 7.33665e-18
8605.76718 8.13219e-18
8607.47481 8.43781e-18
8609.17240 8.35380e-18
8610.86999 8.48800e-18
8612.56757 8.83716e-18
8614.26516 8.98214e-18
8615.96275 8.81150e-18
8617.66034 8.47515e-18
8619.35793 8.46601e-18
8621.05551 9.58334e-18
8622.75310 1.17469e-17
8624.45069 1.38588e-17
8626.14828 1.48499e-17
8627.84587 1.37342e-17
8629.54346 1.07169e-17
8631.24104 7.81568e-18
8632.93863 6.38208e-18
8634.63622 6.37634e-18
8636.33381 7.27648e-18
8638.03140 7.79497e-18
8639.72898 7.27551e-18
8641.42657 6.84584e-18
8643.12416 7.37797e-18
8644.82175 8.39634e-18
8646.51934 9.24353e-18
8648.21692 9.43486e-18
8649.91451 8.77883e-18
8651.61210 7.86423e-18
8653.30969 7.38940e-18
8655.00728 7.49024e-18
8656.70486 8.03454e-18
8658.40245 8.79016e-18
8660.10004 9.47416e-18
8661.79763 9.93811e-18
8663.49522 1.01277e-17
8665.19281 9.89416e-18
8666.89039 9.12242e-18
8668.58798 8.16305e-18
8670.28557 7.64050e-18
8671.98316 7.66596e-18
8673.68075 7.90818e-18
8675.37833 8.22974e-18
8677.07592 8.66532e-18
8678.77351 9.21065e-18
8680.47110 9.84792e-18
8682.16869 1.04517e-17
8683.86627 1.07672e-17
8685.56386 1.06270e-17
8687.26145 9.98030e-18
8688.96908 9.01608e-18
8690.66667 8.28576e-18
8692.36426 8.13117e-18
8694.06185 8.46034e-18
8695.75944 9.03983e-18
8697.45702 9.47540e-18
8699.15461 9.49171e-18
8700.85220 9.14879e-18
8702.54979 8.63623e-18
8704.24738 8.24607e-18
8705.94496 8.21766e-18
8707.64255 8.64914e-18
8709.34014 9.43396e-18
8711.03773 9.88295e-18
8712.73532 9.42790e-18
8714.43291 8.75549e-18
8716.13049 8.81023e-18
8717.82808 9.31480e-18
8719.52567 9.51904e-18
8721.22326 9.34289e-18
8722.92085 9.07971e-18
8724.61843 9.05652e-18
8726.31602 9.56924e-18
8728.01361 1.02544e-17
8729.71120 1.02850e-17
8731.40879 9.73004e-18
8733.10637 9.45044e-18
8734.80396 9.68502e-18
8736.50155 1.00323e-17
8738.19914 1.02070e-17
8739.89673 1.00417e-17
8741.59431 9.54893e-18
8743.29190 9.01779e-18
8744.98949 8.65208e-18
8746.68708 8.48849e-18
8748.38467 8.47915e-18
8750.08226 8.45008e-18
8751.77984 8.28571e-18
8753.47743 7.96384e-18
8755.17502 7.66201e-18
8756.87261 8.03158e-18
8758.57020 9.36494e-18
8760.26778 1.09201e-17
8761.96537 1.19134e-17
8763.66296 1.20304e-17
8765.36055 1.12827e-17
8767.05814 1.03460e-17
8768.75572 9.84264e-18
8770.45331 9.28457e-18
8772.16095 8.01707e-18
8773.85853 6.35628e-18
8775.55612 5.03530e-18
8777.25371 4.84835e-18
8778.95130 6.31900e-18
8780.64889 8.37787e-18
8782.34647 9.16404e-18
8784.04406 8.67703e-18
8785.74165 8.26328e-18
8787.43924 8.24252e-18
8789.13683 8.11589e-18
8790.83441 7.83121e-18
8792.53200 7.67475e-18
8794.22959 7.69793e-18
8795.92718 7.74210e-18
8797.62477 7.59872e-18
8799.32236 6.97059e-18
8801.01994 6.02235e-18
8802.71753 5.63300e-18
8804.41512 6.08240e-18
8806.11271 6.56621e-18
8807.81030 6.56806e-18
8809.50788 6.27635e-18
8811.20547 5.92236e-18
8812.90306 5.70796e-18
8814.60065 5.71125e-18
8816.29824 5.65530e-18
8817.99582 5.35025e-18
8819.69341 5.02814e-18
8821.39100 4.95371e-18
8823.08859 5.21255e-18
8824.78618 5.76993e-18
8826.48376 6.40281e-18
8828.18135 6.85648e-18
8829.87894 7.01536e-18
8831.57653 6.88373e-18
8833.27412 6.67408e-18
8834.97171 6.64914e-18
8836.66929 6.72237e-18
8838.36688 6.63186e-18
8840.06447 6.47160e-18
8841.76206 6.52861e-18
8843.45965 6.62323e-18
8845.15723 6.26925e-18
8846.85482 5.54114e-18
8848.55241 5.01172e-18
8850.25000 5.04402e-18
8851.94759 5.76624e-18
8853.65522 6.98004e-18
8855.34276 8.05914e-18
8857.05040 8.80558e-18
8858.74798 9.70716e-18
8860.44557 1.07405e-17
8862.14316 1.10164e-17
8863.84075 1.01856e-17
8865.53834 8.88298e-18
8867.23592 7.75627e-18
8868.93351 7.35274e-18
8870.63110 7.75992e-18
8872.32869 7.96039e-18
8874.02628 7.31405e-18
8875.72386 6.67791e-18
8877.42145 6.90537e-18
8879.11904 8.01013e-18
8880.81663 9.61682e-18
8882.51422 1.08188e-17
8884.21181 1.08455e-17
8885.90939 1.00958e-17
8887.60698 9.34418e-18
8889.30457 8.67151e-18
8891.00216 7.94900e-18
8892.69975 7.71563e-18
8894.39733 8.61629e-18
8896.09492 1.00935e-17
8897.79251 1.09264e-17
8899.49010 1.09226e-17
8901.18769 1.06588e-17
8902.88527 9.94302e-18
8904.58286 8.05168e-18
8906.28045 5.88809e-18
8907.97804 5.82291e-18
8909.67563 7.87745e-18
8911.37321 9.40325e-18
8913.07080 9.02478e-18
8914.76839 7.06889e-18
8916.46598 4.49485e-18
8918.16357 3.26919e-18
8919.86116 3.99626e-18
8921.55874 4.67705e-18
8923.25633 4.18831e-18
8924.95392 3.56458e-18
8926.65151 3.64463e-18
8928.34910 4.43332e-18
8930.04668 5.65172e-18
8931.74427 6.53551e-18
8933.44186 6.56109e-18
8935.14949 6.17578e-18
8936.83704 5.93075e-18
8938.53462 5.88525e-18
8940.24226 5.96770e-18
8941.93985 6.06819e-18
8943.63743 6.14036e-18
8945.33502 6.66353e-18
8947.03261 8.07278e-18
8948.73020 9.56422e-18
8950.42779 9.94655e-18
8952.12537 9.43410e-18
8953.82296 8.99850e-18
8955.52055 8.68124e-18
8957.21814 7.95609e-18
8958.91573 6.89608e-18
8960.61331 5.99564e-18
8962.31090 5.52428e-18
8964.00849 5.53979e-18
8965.70608 5.92553e-18
8967.40367 6.37547e-18
8969.10125 6.53002e-18
8970.79884 5.97577e-18
8972.49643 4.97856e-18
8974.19402 4.79278e-18
8975.89161 5.80713e-18
8977.58920 6.90451e-18
8979.28678 7.37716e-18
8980.98437 7.53921e-18
8982.68196 7.51562e-18
8984.37955 6.70037e-18
8986.07714 5.11473e-18
8987.77472 4.47906e-18
8989.47231 5.86186e-18
8991.16990 7.88100e-18
8992.86749 9.11812e-18
8994.56508 9.80782e-18
8996.26266 1.04177e-17
8997.96025 1.06541e-17
8999.65784 1.01750e-17
9001.35543 9.16302e-18
9003.05302 7.98884e-18
9004.75061 6.98750e-18
9006.44819 6.38079e-18
9008.14578 5.94090e-18
9009.84337 5.24972e-18
9011.54096 4.33924e-18
9013.23855 3.56088e-18
9014.93613 3.28577e-18
9016.63372 3.84537e-18
9018.33131 5.14268e-18
9020.02890 6.65937e-18
9021.72649 7.94066e-18
9023.43412 8.65679e-18
9025.13171 8.44942e-18
9026.82930 6.94658e-18
9028.52688 4.77205e-18
9030.22447 3.85267e-18
9031.92206 4.81060e-18
9033.61965 6.16068e-18
9035.31724 6.94698e-18
9037.01482 7.39254e-18
9038.71241 7.67627e-18
9040.41000 7.77865e-18
9042.10759 7.68060e-18
9043.80518 7.28549e-18
9045.50276 6.59741e-18
9047.20035 5.95493e-18
9048.89794 5.56352e-18
9050.59553 4.97331e-18
9052.29312 3.89309e-18
9053.99070 3.05973e-18
9055.68829 3.21039e-18
9057.38588 4.09084e-18
9059.08347 5.06933e-18
9060.78106 5.58465e-18
9062.47865 5.26733e-18
9064.17623 4.22780e-18
9065.87382 2.95633e-18
9067.57141 2.55519e-18
9069.26900 4.13131e-18
9070.96659 6.48798e-18
9072.66417 7.00124e-18
9074.36176 5.60613e-18
9076.05935 4.35094e-18
9077.75694 4.08786e-18
9079.45453 4.54015e-18
9081.15211 5.40776e-18
9082.84970 6.27281e-18
9084.54729 6.56520e-18
9086.24488 5.59387e-18
9087.94247 3.71638e-18
9089.64005 2.79073e-18
9091.33764 3.69476e-18
9093.03523 5.60695e-18
9094.73282 7.55972e-18
9096.43041 8.52149e-18
9098.12800 8.13633e-18
9099.82558 7.51966e-18
9101.52317 7.60382e-18
9103.22076 8.37005e-18
9104.92839 9.47160e-18
9106.62598 1.01400e-17
9108.32357 9.84068e-18
9110.01111 9.07453e-18
9111.71875 8.48628e-18
9113.41633 8.14680e-18
9115.11392 7.90883e-18
9116.81151 7.49100e-18
9118.50910 6.68779e-18
9120.20669 5.93859e-18
9121.90427 5.85943e-18
9123.60186 6.38339e-18
9125.29945 7.03428e-18
9126.99704 7.28971e-18
9128.69463 6.71509e-18
9130.39221 5.88383e-18
9132.08980 6.07271e-18
9133.78739 7.07707e-18
9135.48498 7.39170e-18
9137.18257 6.93936e-18
9138.88015 7.08651e-18
9140.57774 8.01486e-18
9142.27533 8.53827e-18
9143.97292 8.27936e-18
9145.67051 7.92225e-18
9147.36810 7.94952e-18
9149.06568 8.57113e-18
9150.76327 9.51329e-18
9152.46086 9.59859e-18
9154.15845 8.31343e-18
9155.85604 6.71677e-18
9157.55362 5.53410e-18
9159.25121 4.08046e-18
9160.94880 2.13405e-18
9162.64639 1.27110e-18
9164.34398 2.54277e-18
9166.04156 4.77084e-18
9167.73915 6.40652e-18
9169.43674 6.41718e-18
9171.13433 4.54701e-18
9172.83192 2.63272e-18
9174.52950 2.70874e-18
9176.22709 4.22199e-18
9177.92468 5.56664e-18
9179.62227 6.05595e-18
9181.31986 5.64916e-18
9183.01745 5.19900e-18
9184.71503 5.97393e-18
9186.42267 7.63177e-18
9188.11021 8.69115e-18
9189.81784 8.64704e-18
9191.50539 7.84861e-18
9193.21302 7.11932e-18
9194.91061 7.74584e-18
9196.60820 9.43840e-18
9198.30578 1.00899e-17
9200.00337 9.11496e-18
9201.70096 7.91825e-18
9203.39855 7.39790e-18
9205.09614 7.71783e-18
9206.79372 8.52210e-18
9208.49131 8.51108e-18
9210.18890 7.23219e-18
9211.88649 6.06362e-18
9213.58408 5.91902e-18
9215.28166 6.18824e-18
9216.97925 6.42627e-18
9218.67684 7.29086e-18
9220.37443 8.97268e-18
9222.07202 9.90783e-18
9223.76960 8.87801e-18
9225.46719 6.70332e-18
9227.16478 4.70792e-18
9228.86237 3.89536e-18
9230.55996 4.72906e-18
9232.25755 6.08953e-18
9233.95513 6.52416e-18
9235.65272 6.31884e-18
9237.35031 6.54468e-18
9239.04790 7.58661e-18
9240.74549 9.33388e-18
9242.44307 1.11762e-17
9244.14066 1.21751e-17
9245.83825 1.19678e-17
9247.53584 1.07562e-17
9249.23343 8.95304e-18
9250.93101 7.17688e-18
9252.62860 5.90185e-18
9254.32619 5.35077e-18
9256.02378 5.61933e-18
9257.72137 6.67136e-18
9259.41895 7.93785e-18
9261.11654 8.15202e-18
9262.81413 7.00620e-18
9264.51172 5.74220e-18
9266.20931 5.21940e-18
9267.91694 5.46216e-18
9269.60448 6.13467e-18
9271.31212 6.22656e-18
9272.99966 5.30545e-18
9274.70729 4.53664e-18
9276.40488 4.80626e-18
9278.10247 5.63745e-18
9279.80006 6.34228e-18
9281.49764 6.36640e-18
9283.19523 5.53982e-18
9284.89282 4.90918e-18
9286.59041 5.48290e-18
9288.28800 6.50651e-18
9289.98559 6.85166e-18
9291.68317 7.04216e-18
9293.38076 8.02988e-18
9295.07835 8.84334e-18
9296.77594 7.93161e-18
9298.47353 6.60588e-18
9300.17111 7.55184e-18
9301.86870 9.89517e-18
9303.56629 1.03759e-17
9305.26388 8.76008e-18
9306.96147 7.31616e-18
9308.65905 6.89282e-18
9310.35664 7.04970e-18
9312.05423 7.18205e-18
9313.75182 6.32418e-18
9315.44941 5.08729e-18
9317.14700 6.26331e-18
9318.84458 1.01813e-17
9320.54217 1.35056e-17
9322.23976 1.38760e-17
9323.93735 1.07267e-17
9325.63494 5.00568e-18
9327.33252 3.57483e-19
9329.03011 -1.09869e-18
9330.72770 -1.45261e-18
9332.42529 -2.44383e-18
9334.12288 -3.32316e-18
9335.82046 -3.10521e-18
9337.51805 -1.21768e-18
9339.21564 2.38104e-18
9340.91323 6.52133e-18
9342.61082 9.82140e-18
9344.30840 1.16113e-17
9346.00599 1.17069e-17
9347.70358 1.02770e-17
9349.41121 7.89004e-18
9351.09876 5.82497e-18
9352.80639 5.36913e-18
9354.49393 6.34599e-18
9356.20157 7.62155e-18
9357.89915 8.26135e-18
9359.59674 7.61335e-18
9361.29433 5.99949e-18
9362.99192 4.58243e-18
9364.68951 3.57539e-18
9366.38709 2.29760e-18
9368.08468 9.55980e-19
9369.78227 6.03067e-19
9371.47986 1.73012e-18
9373.17745 4.24343e-18
9374.87504 6.99762e-18
9376.57262 7.30798e-18
9378.27021 4.78060e-18
9379.96780 2.82553e-18
9381.66539 3.42909e-18
9383.36298 5.57257e-18
9385.06056 7.93098e-18
9386.75815 8.98400e-18
9388.45574 8.23285e-18
9390.15333 7.89345e-18
9391.85092 9.44276e-18
9393.54850 1.09887e-17
9395.24609 1.08204e-17
9396.94368 9.93097e-18
9398.64127 9.62776e-18
9400.33886 1.00087e-17
9402.03644 1.06287e-17
9403.73403 1.03652e-17
9405.43162 8.31291e-18
9407.12921 5.46562e-18
9408.82680 3.60950e-18
9410.52439 3.78846e-18
9412.22197 6.23718e-18
9413.91956 9.62966e-18
9415.61715 1.17104e-17
9417.31474 1.14584e-17
9419.01233 9.06127e-18
9420.70991 5.95414e-18
9422.40750 4.60145e-18
9424.10509 5.03021e-18
9425.80268 4.69154e-18
9427.50027 3.28181e-18
9429.19785 3.13448e-18
9430.89544 4.64121e-18
9432.59303 5.62475e-18
9434.29062 5.43024e-18
9435.98821 5.77853e-18
9437.69584 7.41385e-18
9439.39343 9.34045e-18
9441.09102 1.05567e-17
9442.78860 1.01514e-17
9444.48619 8.08474e-18
9446.18378 6.18842e-18
9447.88137 5.84420e-18
9449.57896 6.62118e-18
9451.27654 7.67584e-18
9452.97413 8.13426e-18
9454.67172 7.48364e-18
9456.36931 6.23986e-18
9458.06690 5.26590e-18
9459.76449 5.49356e-18
9461.46207 7.38113e-18
9463.15966 9.58207e-18
9464.85725 1.03212e-17
9466.55484 9.75678e-18
9468.25243 9.00722e-18
9469.95001 8.44023e-18
9471.64760 7.95998e-18
9473.34519 7.27875e-18
9475.04278 5.99567e-18
9476.74037 4.23027e-18
9478.43795 2.57446e-18
9480.13554 2.20614e-18
9481.83313 4.72440e-18
9483.53072 9.12953e-18
9485.22831 1.16010e-17
9486.92589 1.09696e-17
9488.62348 9.50055e-18
9490.32107 8.52316e-18
9492.01866 7.95416e-18
9493.71625 7.58608e-18
9495.41384 6.85536e-18
9497.11142 5.77898e-18
9498.80901 5.68984e-18
9500.50660 7.09674e-18
9502.20419 8.48570e-18
9503.90178 8.80366e-18
9505.59936 8.85319e-18
9507.29695 9.24309e-18
9508.99454 9.11522e-18
9510.69213 7.78952e-18
9512.38972 6.01853e-18
9514.08730 4.69278e-18
9515.78489 3.55948e-18
9517.48248 2.33019e-18
9519.19011 2.37379e-18
9520.88770 4.94185e-18
9522.58529 8.07448e-18
9524.28288 8.87675e-18
9525.98047 7.66860e-18
9527.67805 6.54672e-18
9529.37564 6.52824e-18
9531.07323 7.79976e-18
9532.77082 9.61634e-18
9534.46841 1.04696e-17
9536.16599 9.99352e-18
9537.86358 8.93664e-18
9539.56117 7.94362e-18
9541.25876 7.56204e-18
9542.95635 7.72942e-18
9544.65394 7.59885e-18
9546.35152 6.75438e-18
9548.04911 5.40918e-18
9549.74670 3.96066e-18
9551.44429 2.98392e-18
9553.14188 3.03319e-18
9554.83946 4.79164e-18
9556.53705 7.75820e-18
9558.23464 8.91784e-18
9559.93223 6.97798e-18
9561.62982 5.28067e-18
9563.32740 6.21590e-18
9565.02499 7.87150e-18
9566.72258 8.20948e-18
9568.42017 7.24344e-18
9570.11776 5.66751e-18
9571.81534 4.60665e-18
9573.51293 5.05062e-18
9575.21052 7.00312e-18
9576.90811 9.85168e-18
9578.60570 1.25538e-17
9580.30329 1.40252e-17
9582.00087 1.38737e-17
9583.69846 1.22933e-17
9585.39605 9.86616e-18
9587.09364 7.43262e-18
9588.79123 5.75043e-18
9590.48881 5.34211e-18
9592.18640 5.78791e-18
9593.88399 5.89364e-18
9595.58158 5.83866e-18
9597.27917 7.12607e-18
9598.97675 9.39858e-18
9600.67434 1.02836e-17
9602.38198 9.26924e-18
9604.07956 8.20609e-18
9605.76711 8.01662e-18
9607.47474 8.22921e-18
9609.17233 8.37169e-18
9610.86992 7.98318e-18
9612.56750 6.95819e-18
9614.26509 5.87400e-18
9615.96268 5.27814e-18
9617.66027 5.53565e-18
9619.35786 6.58045e-18
9621.05544 7.49931e-18
9622.75303 7.49584e-18
9624.45062 6.36339e-18
9626.14821 4.46114e-18
9627.84580 3.27121e-18
9629.54339 4.03956e-18
9631.24097 6.27478e-18
9632.93856 8.81201e-18
9634.63615 1.06364e-17
9636.33374 1.10383e-17
9638.03133 1.01863e-17
9639.72891 8.79429e-18
9641.42650 7.52921e-18
9643.12409 6.91278e-18
9644.82168 6.84910e-18
9646.51927 6.80920e-18
9648.21685 6.79067e-18
9649.91444 7.17159e-18
9651.61203 8.20443e-18
9653.30962 1.00360e-17
9655.00721 1.14628e-17
9656.70479 9.92534e-18
9658.40238 6.09798e-18
9660.09997 4.49671e-18
9661.79756 6.97224e-18
9663.49515 1.16876e-17
9665.19274 1.63511e-17
9666.89032 1.81105e-17
9668.58791 1.60778e-17
9670.28550 1.30031e-17
9671.98309 1.10725e-17
9673.68068 1.05205e-17
9675.37826 1.09275e-17
9677.07585 1.10337e-17
9678.77344 9.82045e-18
9680.47103 7.21226e-18
9682.16862 3.81654e-18
9683.86620 1.44143e-18
9685.56379 1.46046e-18
9687.26138 3.04448e-18
9688.96901 4.68496e-18
9690.66660 5.21164e-18
9692.36419 4.06504e-18
9694.06178 2.53981e-18
9695.75937 2.42712e-18
9697.45695 3.34317e-18
9699.15454 3.81487e-18
9700.85213 3.43417e-18
9702.54972 2.51696e-18
9704.24731 1.75371e-18
9705.94489 2.07451e-18
9707.64248 3.32421e-18
9709.34007 4.38812e-18
9711.03766 4.74835e-18
9712.73525 4.49236e-18
9714.43283 4.05266e-18
9716.13042 4.29034e-18
9717.82801 5.27147e-18
9719.52560 5.99915e-18
9721.22319 5.87755e-18
9722.92078 4.89575e-18
9724.61836 3.54634e-18
9726.31595 3.16473e-18
9728.01354 4.28080e-18
9729.71113 5.78184e-18
9731.40872 6.71740e-18
9733.10630 6.86750e-18
9734.80389 6.39836e-18
9736.50148 6.15618e-18
9738.19907 6.70983e-18
9739.89666 7.58144e-18
9741.59424 8.06209e-18
9743.29183 7.35400e-18
9744.98942 5.21877e-18
9746.68701 3.48219e-18
9748.38460 3.92922e-18
9750.08219 5.27545e-18
9751.77977 5.33167e-18
9753.47736 3.86160e-18
9755.17495 1.80123e-18
9756.87254 8.98050e-19
9758.57013 2.93328e-18
9760.26771 6.59051e-18
9761.96530 8.52732e-18
9763.66289 7.63034e-18
9765.36048 4.76722e-18
9767.05807 1.82490e-18
9768.75565 1.61404e-18
9770.45324 4.17642e-18
9772.16088 6.43669e-18
9773.85846 7.21475e-18
9775.55605 7.71167e-18
9777.25364 8.62496e-18
9778.95123 1.00228e-17
9780.64882 1.16566e-17
9782.34640 1.27461e-17
9784.04399 1.26887e-17
9785.74158 1.12123e-17
9787.43917 8.64030e-18
9789.13676 6.41081e-18
9790.83434 5.40027e-18
9792.53193 4.85298e-18
9794.22952 4.00672e-18
9795.92711 2.76488e-18
9797.62470 1.39790e-18
9799.32228 1.00541e-18
9801.01987 2.27072e-18
9802.71746 3.66598e-18
9804.41505 3.59376e-18
9806.11264 3.02451e-18
9807.81023 3.54487e-18
9809.50781 5.02162e-18
9811.20540 6.48205e-18
9812.90299 6.78705e-18
9814.60058 5.04444e-18
9816.29817 2.44958e-18
9817.99575 1.39209e-18
9819.69334 2.09936e-18
9821.39093 3.13184e-18
9823.08852 4.02926e-18
9824.78611 5.10552e-18
9826.48369 5.97577e-18
9828.18128 5.71074e-18
9829.87887 4.63796e-18
9831.57646 4.45613e-18
9833.27405 5.81411e-18
9834.97163 7.98869e-18
9836.66922 9.98829e-18
9838.36681 1.04496e-17
9840.06440 9.03652e-18
9841.76199 7.22488e-18
9843.45958 6.11472e-18
9845.15716 5.72260e-18
9846.85475 5.83055e-18
9848.55234 5.97550e-18
9850.24993 5.82741e-18
9851.94752 5.64878e-18
9853.65515 5.61654e-18
9855.34269 5.20795e-18
9857.05033 4.08830e-18
9858.74791 3.09183e-18
9860.44550 3.01336e-18
9862.14309 3.01989e-18
9863.84068 2.19391e-18
9865.53827 2.01311e-18
9867.23585 4.27349e-18
9868.93344 7.09812e-18
9870.63103 7.44491e-18
9872.32862 6.98242e-18
9874.02621 9.54027e-18
9875.72379 1.39083e-17
9877.42138 1.56320e-17
9879.11897 1.27386e-17
9880.81656 5.51939e-18
9882.51415 -2.60633e-18
9884.21173 -5.36678e-18
9885.90932 -2.03163e-18
9887.60691 1.91328e-18
9889.30450 3.33444e-18
9891.00209 2.05681e-18
9892.69968 -4.91784e-19
9894.39726 -3.52103e-19
9896.09485 3.51339e-18
9897.79244 7.11442e-18
9899.49003 7.65784e-18
9901.18762 4.99820e-18
9902.88520 3.37289e-19
9904.58279 -2.83003e-18
9906.28038 -2.43333e-18
9907.97797 -5.74369e-19
9909.67556 6.16618e-19
9911.37314 1.13636e-18
9913.07073 1.46925e-18
9914.76832 2.15074e-18
9916.46591 3.54122e-18
9918.16350 5.27875e-18
9919.86108 6.73232e-18
9921.55867 7.32969e-18
9923.25626 6.75864e-18
9924.95385 5.45184e-18
9926.65144 4.20966e-18
9928.34903 3.73965e-18
9930.04661 4.43693e-18
9931.74420 5.30718e-18
9933.44179 4.63936e-18
9935.14942 2.88481e-18
9936.83697 2.08363e-18
9938.54460 2.54285e-18
9940.23214 3.07270e-18
9941.93978 3.03060e-18
9943.63736 2.25072e-18
9945.33495 1.14404e-18
9947.03254 9.20580e-19
9948.73013 1.43638e-18
9950.42772 6.23336e-19
9952.12530 -1.86865e-18
9953.82289 -3.70960e-18
9955.52048 -3.48072e-18
9957.21807 -1.57221e-18
9958.91566 1.41392e-18
9960.61324 4.78128e-18
9962.31083 7.94598e-18
9964.00842 1.09476e-17
9965.70601 1.34802e-17
9967.40360 1.39968e-17
9969.10118 1.16232e-17
9970.79877 7.56107e-18
9972.49636 3.60044e-18
9974.19395 1.55242e-18
9975.89154 2.44489e-18
9977.58913 5.00767e-18
9979.28671 7.19230e-18
9980.98430 7.99202e-18
9982.68189 7.12366e-18
9984.37948 4.81355e-18
9986.07707 1.80113e-18
9987.77465 -8.05672e-19
9989.47224 -1.88136e-18
9991.16983 -9.22766e-19
9992.86742 1.86196e-18
9994.56501 4.62322e-18
9996.26259 4.40779e-18
9997.96018 1.99035e-18
9999.65777 1.69208e-18
