# wavelength flux
4405.97324 3.13058e-17
4409.60047 3.01842e-17
4413.22771 2.93219e-17
4416.85494 2.83497e-17
4420.48217 2.69539e-17
4424.11974 2.67026e-17
4427.74698 2.73363e-17
4431.37421 2.65507e-17
4435.00144 2.71471e-17
4438.62868 2.82952e-17
4442.26625 2.77677e-17
4445.89348 2.74982e-17
4449.52071 2.72105e-17
4453.14795 2.75295e-17
4456.77518 2.78849e-17
4460.40242 2.83869e-17
4464.03998 2.82460e-17
4467.66722 2.81052e-17
4489.44096 3.00439e-17
4493.06819 3.09085e-17
4496.69542 3.18088e-17
4500.33299 3.06618e-17
4503.96023 3.08125e-17
4507.58746 3.18212e-17
4511.21469 3.06391e-17
4514.84193 3.04066e-17
4518.46916 2.98825e-17
4522.10673 3.09807e-17
4525.73396 3.07483e-17
4529.36120 3.03703e-17
4532.98843 3.07752e-17
4536.61567 3.11798e-17
4540.25323 3.15839e-17
4543.88047 3.15515e-17
4547.50770 3.16644e-17
4551.13494 3.25035e-17
4554.76217 3.18172e-17
4558.38940 3.12766e-17
4562.02697 3.11899e-17
4565.65421 3.20820e-17
4569.28144 3.25021e-17
4572.90867 3.31754e-17
4576.53591 3.20018e-17
4580.17348 3.21681e-17
4583.80071 3.34374e-17
4587.42794 3.13072e-17
4591.05518 3.05882e-17
4594.68241 3.09172e-17
4598.30965 3.14806e-17
4601.94721 3.09068e-17
4605.57445 3.00449e-17
4609.20168 3.12208e-17
4612.82892 3.17649e-17
4616.45615 3.15161e-17
4620.09372 3.07274e-17
4623.72095 3.13969e-17
4627.34819 3.06629e-17
4630.97542 3.00375e-17
4634.60265 3.11735e-17
4638.24022 3.04406e-17
4641.86746 3.02110e-17
4645.49469 2.93357e-17
4649.12192 2.92861e-17
4652.74916 2.98281e-17
4656.38673 2.98500e-17
4660.01396 2.95495e-17
4663.64119 2.90166e-17
4667.26843 2.87882e-17
4670.89566 2.90430e-17
4674.52290 2.87434e-17
4678.16046 2.81045e-17
4681.78770 2.84128e-17
4685.41493 2.83101e-17
4689.04217 2.84395e-17
4692.66940 2.77841e-17
4696.30697 2.77176e-17
4699.93420 2.77045e-17
4703.56144 2.75133e-17
4707.18867 2.71978e-17
4710.81590 2.76297e-17
4714.45347 2.73499e-17
4718.08071 2.57906e-17
4721.70794 2.65423e-17
4725.33517 2.63877e-17
4728.96241 2.58960e-17
4732.59998 2.67885e-17
4736.22721 2.54990e-17
4739.85444 2.49907e-17
4743.48168 2.60772e-17
4747.10891 2.63127e-17
4750.73615 2.54153e-17
4754.37371 2.57039e-17
4758.00095 2.51436e-17
4761.62818 2.44070e-17
4765.25542 2.52610e-17
4768.88265 2.52666e-17
4772.52022 2.54311e-17
4776.14745 2.58071e-17
4779.77469 2.51072e-17
4783.40192 2.47956e-17
4787.02915 2.46077e-17
4790.66672 2.57756e-17
4794.29396 2.59393e-17
4797.92119 2.42207e-17
4801.54842 2.47718e-17
4805.17566 2.50587e-17
4808.80289 2.41862e-17
4812.44046 2.44204e-17
4816.06769 2.36718e-17
4819.69493 2.41165e-17
4823.32216 2.42102e-17
4826.94940 2.44265e-17
4830.58696 2.44148e-17
4834.21420 2.41932e-17
4837.84143 2.45491e-17
4841.46867 2.45374e-17
4845.09590 2.42111e-17
4848.73347 2.42170e-17
4852.36070 2.36117e-17
4855.98794 2.38099e-17
4859.61517 2.32752e-17
4863.24240 2.34734e-17
4866.86964 2.38806e-17
4870.50721 2.34336e-17
4874.13444 2.31613e-17
4877.76167 2.40902e-17
4881.38891 2.40614e-17
4885.01614 2.46064e-17
4888.65371 2.44035e-17
4892.28094 2.47221e-17
4895.90818 2.38247e-17
4899.53541 2.41779e-17
4903.16265 2.44787e-17
4906.78988 2.45365e-17
4910.42745 2.45249e-17
4914.05468 2.43227e-17
4917.68192 2.47441e-17
4921.30915 2.51824e-17
4924.93638 2.46688e-17
4928.57395 2.49857e-17
4932.20119 2.51986e-17
4935.82842 2.49276e-17
4939.45565 2.51748e-17
4943.08289 2.54563e-17
4946.72046 2.53064e-17
4950.34769 2.47944e-17
4953.97492 2.52481e-17
4957.60216 2.57013e-17
4961.22939 2.53621e-17
4964.85663 2.56772e-17
4968.49419 2.60608e-17
4972.12143 2.57047e-17
4975.74866 2.59161e-17
4979.37590 2.65911e-17
4983.00313 2.61322e-17
4986.64070 2.56223e-17
4990.26793 2.59706e-17
4993.89517 2.62843e-17
4997.52240 2.63063e-17
5030.18817 2.78009e-17
5033.81541 2.77881e-17
5037.44264 2.73490e-17
5041.06988 2.79670e-17
5044.70744 2.83630e-17
5048.33468 2.82137e-17
5051.96191 2.85241e-17
5055.58915 2.83579e-17
5059.21638 2.83449e-17
5062.84361 2.93007e-17
5066.48118 2.90325e-17
5070.10842 2.82212e-17
5073.73565 2.84629e-17
5077.36288 2.82633e-17
5080.99012 2.94714e-17
5084.62769 2.91868e-17
5088.25492 2.91566e-17
5091.88215 2.86523e-17
5095.50939 3.00443e-17
5186.24191 3.09509e-17
5189.86914 3.03183e-17
5193.49638 3.02382e-17
5197.12361 3.04090e-17
5200.76118 3.11310e-17
5204.38841 3.09338e-17
5208.01565 3.06199e-17
5211.64288 3.06401e-17
5215.27011 3.06269e-17
5218.90768 3.02136e-17
5222.53492 3.12839e-17
5226.16215 3.07374e-17
5229.78938 3.08408e-17
5233.41662 3.07444e-17
5237.04385 3.04984e-17
5240.68142 3.01029e-17
5244.30865 3.06720e-17
5247.93589 3.00940e-17
5251.56312 2.98985e-17
5255.19036 2.99855e-17
5258.82792 2.97405e-17
5262.45516 3.04745e-17
5266.08239 3.05115e-17
5269.70963 2.98854e-17
5273.33686 2.96244e-17
5276.97443 2.93801e-17
5280.60166 3.01459e-17
5284.22890 2.95377e-17
5287.85613 2.98397e-17
5291.48336 2.95958e-17
5295.12093 2.90712e-17
5298.74817 2.97201e-17
5302.37540 2.85353e-17
5306.00263 2.94150e-17
5309.62987 2.94194e-17
5313.26744 2.91435e-17
5316.89467 2.86205e-17
5320.52190 2.88066e-17
5324.14914 2.86301e-17
5327.77637 2.86843e-17
5331.40361 2.88208e-17
5335.04117 2.84472e-17
5338.66841 2.83864e-17
5342.29564 2.88846e-17
5345.92288 2.81992e-17
5349.55011 2.80072e-17
5353.18768 2.80452e-17
5356.81491 2.79355e-17
5360.44215 2.74486e-17
5364.06938 2.73229e-17
5367.69661 2.82301e-17
5371.32385 2.83664e-17
5374.96142 2.83879e-17
5378.58865 2.79182e-17
5382.21588 2.79400e-17
5385.84312 2.71600e-17
5389.47035 2.78853e-17
5393.10792 2.79398e-17
5396.73515 2.74060e-17
5400.36239 2.74280e-17
5403.98962 2.76296e-17
5407.61686 2.69986e-17
5411.25442 2.68576e-17
5414.88166 2.68473e-17
5418.50889 2.74402e-17
5422.13613 2.66148e-17
5425.76336 2.66860e-17
5429.40093 2.72784e-17
5433.02816 2.71214e-17
5436.65540 2.71762e-17
5440.28263 2.71822e-17
5443.90986 2.64726e-17
5447.53710 2.58287e-17
5451.17467 2.62577e-17
5454.80190 2.64914e-17
5458.42913 2.57508e-17
5462.05637 2.54328e-17
5465.68360 2.52935e-17
5469.31084 2.54463e-17
5472.94840 2.55503e-17
5476.57564 2.56705e-17
5480.20287 2.52884e-17
5483.83011 2.52466e-17
5487.45734 2.55611e-17
5491.09491 2.52119e-17
5494.72214 2.51217e-17
5498.34938 2.51126e-17
5501.97661 2.54267e-17
5505.60384 2.47226e-17
5509.24141 2.55051e-17
5512.86865 2.51891e-17
5516.49588 2.51800e-17
5520.12311 2.53968e-17
5523.75035 2.52102e-17
5527.37758 2.53141e-17
5531.01515 2.49988e-17
5534.64238 2.49737e-17
5538.26962 2.55447e-17
5541.89685 2.50043e-17
5545.52409 2.52529e-17
5549.16165 2.49061e-17
5552.78889 2.45757e-17
5556.41612 2.45188e-17
5560.04336 2.47030e-17
5563.67059 2.47426e-17
5567.30816 2.44288e-17
5570.93539 2.44042e-17
5574.56263 2.44921e-17
5578.18986 2.40504e-17
5581.81709 2.37213e-17
5585.45466 2.38574e-17
5589.08190 2.45063e-17
5592.70913 2.46421e-17
5596.33636 2.46337e-17
5599.96360 2.41610e-17
5603.59083 2.47289e-17
5607.22840 2.41765e-17
5610.85563 2.38964e-17
5614.48287 2.44640e-17
5618.11010 2.44717e-17
5621.73734 2.40480e-17
5625.37490 2.45032e-17
5629.00214 2.36487e-17
5632.62937 2.43751e-17
5636.25661 2.42713e-17
5639.88384 2.46141e-17
5643.52141 2.41435e-17
5647.14864 2.34820e-17
5650.77588 2.44304e-17
5654.40311 2.40400e-17
5658.03034 2.44940e-17
5661.65758 2.40880e-17
5665.29515 2.41597e-17
5668.92238 2.39609e-17
5672.54961 2.44144e-17
5676.17685 2.40090e-17
5679.80408 2.38105e-17
5683.44165 2.43272e-17
5687.06888 2.40970e-17
5690.69612 2.36764e-17
5694.32335 2.35736e-17
5697.95059 2.43596e-17
5701.57782 2.41773e-17
5705.21539 2.34243e-17
5708.84262 2.26559e-17
5712.46986 2.42495e-17
5716.09709 2.41785e-17
5719.72432 2.39809e-17
5723.36189 2.43851e-17
5726.98913 2.37284e-17
5730.61636 2.34204e-17
5734.24359 2.35555e-17
5737.87083 2.42915e-17
5741.50840 2.33512e-17
5745.13563 2.32492e-17
5748.76286 2.36213e-17
5752.39010 2.38194e-17
5756.01733 2.37489e-17
5759.64457 2.35523e-17
5763.28213 2.28350e-17
5766.90937 2.32698e-17
5770.53660 2.37516e-17
5774.16384 2.30665e-17
5777.79107 2.26025e-17
5781.42864 2.23278e-17
5785.05587 2.26677e-17
5788.68311 2.32593e-17
5792.31034 2.36302e-17
5795.93757 2.34973e-17
5799.57514 2.35375e-17
5803.20238 2.28228e-17
5806.82961 2.30519e-17
5810.45684 2.27779e-17
5814.08408 2.27398e-17
5817.72165 2.32045e-17
5821.34888 2.34647e-17
5824.97611 2.27513e-17
5828.60335 2.26505e-17
5832.23058 2.39307e-17
5835.85782 2.30924e-17
5839.49538 2.33680e-17
5843.12262 2.28909e-17
5846.74985 2.27747e-17
5850.37709 2.30659e-17
5854.00432 2.34666e-17
5857.64189 2.29744e-17
5861.26912 2.32497e-17
5864.89636 2.32744e-17
5868.52359 2.33148e-17
5872.15082 2.27138e-17
5875.78839 2.26136e-17
5879.41563 2.20913e-17
5883.04286 2.03815e-17
5886.67009 2.03289e-17
5890.29733 2.08388e-17
5893.93490 2.09579e-17
5897.56213 2.15298e-17
5901.18936 2.18829e-17
5904.81660 2.22825e-17
5908.44383 2.21828e-17
5912.07107 2.15217e-17
5915.70863 2.14223e-17
5919.33587 2.18685e-17
5922.96310 2.22209e-17
5926.59034 2.15450e-17
5930.21757 2.13523e-17
5933.84480 2.17669e-17
5937.48237 2.03602e-17
5941.10961 2.06659e-17
5944.73684 2.15316e-17
5948.36407 2.09348e-17
5951.99131 2.11158e-17
5955.62888 2.10325e-17
5959.25611 2.05140e-17
5962.88334 1.99959e-17
5966.51058 2.06274e-17
5970.13781 2.06220e-17
5973.77538 2.08805e-17
5977.40261 2.21012e-17
5981.02985 2.13971e-17
5984.65708 2.07245e-17
5988.28432 2.12929e-17
5991.91155 2.07292e-17
5995.54912 2.04914e-17
5999.17635 2.03156e-17
6002.80359 2.01709e-17
6006.43082 2.04445e-17
6010.05805 2.02999e-17
6013.69562 2.02328e-17
6017.32286 2.05990e-17
6020.95009 2.03926e-17
6024.57732 2.09907e-17
6028.20456 2.05060e-17
6031.84213 2.06400e-17
6035.46936 2.04493e-17
6039.09659 1.99187e-17
6042.72383 2.05625e-17
6046.35106 2.12524e-17
6049.98863 2.05368e-17
6053.61586 2.04082e-17
6057.24310 2.00327e-17
6060.87033 2.09226e-17
6064.49757 2.09174e-17
6068.12480 2.12207e-17
6071.76237 2.04291e-17
6075.38960 2.01466e-17
6079.01684 1.99105e-17
6082.64407 1.96128e-17
6086.27130 1.96388e-17
6089.90887 1.98958e-17
6093.53611 1.95523e-17
6097.16334 1.99169e-17
6100.79057 1.99736e-17
6104.41781 2.04765e-17
6108.05538 1.98409e-17
6111.68261 1.93594e-17
6115.30984 1.96161e-17
6118.93708 1.96882e-17
6122.56431 1.96067e-17
6126.19155 1.94483e-17
6129.82911 1.95666e-17
6133.45635 1.94237e-17
6137.08358 1.94037e-17
6140.71082 1.95065e-17
6144.33805 1.97781e-17
6147.97562 1.97427e-17
6151.60285 1.98761e-17
6155.23009 1.94574e-17
6158.85732 1.97135e-17
6162.48455 1.95402e-17
6166.11179 1.93058e-17
6169.74936 1.95158e-17
6173.37659 1.90058e-17
6177.00382 1.86033e-17
6180.63106 1.89510e-17
6184.26863 1.87783e-17
6187.89586 1.82996e-17
6191.52309 1.91826e-17
6195.15033 1.82453e-17
6198.77756 1.86080e-17
6202.40480 1.87566e-17
6206.04236 1.87523e-17
6209.66960 1.91606e-17
6213.29683 1.89118e-17
6216.92407 1.86020e-17
6220.55130 1.82618e-17
6224.18887 1.81050e-17
6227.81610 1.86961e-17
6231.44334 1.85545e-17
6235.07057 1.87182e-17
6238.69780 1.92477e-17
6242.32504 1.87097e-17
6245.96261 1.76383e-17
6249.58984 1.87622e-17
6253.21707 1.86361e-17
6256.84431 1.86472e-17
6260.47154 1.92979e-17
6264.10911 1.85475e-17
6267.73634 1.88021e-17
6271.36358 1.88588e-17
6274.99081 1.89764e-17
6278.61805 1.92612e-17
6282.25561 1.88463e-17
6285.88285 1.92071e-17
6289.51008 1.94309e-17
6293.13732 1.86970e-17
6296.76455 1.78722e-17
6300.39178 1.87951e-17
6304.02935 1.84112e-17
6307.65659 1.92425e-17
6311.28382 1.94660e-17
6314.91105 1.85813e-17
6318.53829 1.89718e-17
6322.17586 1.95595e-17
6325.80309 1.98283e-17
6329.43032 1.93993e-17
6333.05756 1.92738e-17
6336.68479 1.96638e-17
6340.31203 1.94473e-17
6343.94959 1.93673e-17
6347.57683 1.97268e-17
6351.20406 1.94195e-17
6354.83130 1.86581e-17
6358.45853 1.87147e-17
6362.09610 1.94373e-17
6365.72333 1.96147e-17
6369.35057 1.96257e-17
6372.97780 1.99391e-17
6376.60503 1.96778e-17
6380.24260 1.99306e-17
6383.86984 1.97298e-17
6387.49707 2.05872e-17
6391.12430 1.96156e-17
6394.75154 2.00043e-17
6398.37877 1.95620e-17
6402.01634 1.94219e-17
6405.64357 1.93121e-17
6409.27081 1.95345e-17
6412.89804 1.94096e-17
6416.52528 1.97978e-17
6420.16284 1.99898e-17
6423.79008 1.94576e-17
6427.41731 1.96647e-17
6431.04455 1.91932e-17
6434.67178 1.91891e-17
6438.30935 1.94112e-17
6441.93658 1.92413e-17
6445.56382 1.93578e-17
6449.19105 1.96701e-17
6452.81828 1.93648e-17
6456.44552 1.91951e-17
6460.08309 1.90557e-17
6463.71032 1.89765e-17
6467.33755 1.92734e-17
6470.96479 1.97658e-17
6474.59202 1.96414e-17
6478.22959 1.91862e-17
6481.85682 1.93175e-17
6485.48406 1.93887e-17
6489.11129 1.93696e-17
6492.73853 1.92154e-17
6496.37609 1.95269e-17
6500.00333 1.99884e-17
6503.63056 1.98041e-17
6507.25780 1.99951e-17
6510.88503 1.95708e-17
6514.52260 1.90866e-17
6518.14983 1.98627e-17
6521.77707 1.94687e-17
6525.40430 1.86849e-17
6529.03153 1.88010e-17
6532.65877 1.94117e-17
6536.29634 1.95126e-17
6539.92357 1.94038e-17
6543.55080 1.92500e-17
6547.17804 1.90813e-17
6550.80527 1.89127e-17
6554.43251 1.93879e-17
6558.07007 1.93091e-17
6561.69731 1.90956e-17
6565.32454 1.93461e-17
6568.95178 1.95516e-17
6572.58934 1.92335e-17
6576.21658 1.88258e-17
6579.84381 1.88370e-17
6583.47105 1.89228e-17
6587.09828 1.92029e-17
6590.72551 1.91243e-17
6594.36308 1.90009e-17
6597.99032 1.86834e-17
6601.61755 1.83212e-17
6605.24478 1.84519e-17
6608.87202 1.87765e-17
6612.50959 1.90562e-17
6616.13682 1.89032e-17
6619.76405 1.89739e-17
6623.39129 1.89850e-17
6627.01852 1.89513e-17
6630.64576 1.92009e-17
6634.28332 1.89288e-17
6637.91056 1.90143e-17
6641.53779 1.91297e-17
6645.16503 1.87087e-17
6648.79226 1.85709e-17
6652.42983 1.87161e-17
6656.05706 1.82359e-17
6659.68430 1.83215e-17
6663.31153 1.87494e-17
6666.93876 1.84332e-17
6670.57633 1.81766e-17
6674.20357 1.83811e-17
6677.83080 1.83328e-17
6681.45803 1.79872e-17
6685.08527 1.83849e-17
6688.71250 1.81731e-17
6692.35007 1.83032e-17
6695.97730 1.79430e-17
6699.60454 1.75830e-17
6703.23177 1.78318e-17
6706.85901 1.76946e-17
6710.49657 1.77356e-17
6714.12381 1.79101e-17
6717.75104 1.76840e-17
6721.37828 1.79622e-17
6725.00551 1.78548e-17
6728.64308 1.76881e-17
6732.27031 1.77735e-17
6735.89755 1.72216e-17
6739.52478 1.72774e-17
6743.15201 1.76294e-17
6746.78958 1.81591e-17
6750.41682 1.77408e-17
6928.24429 1.50148e-17
6931.87152 1.48505e-17
6935.49876 1.69288e-17
6939.12599 1.70572e-17
6942.76356 1.68047e-17
6946.39079 1.60542e-17
6950.01803 1.62999e-17
6953.64526 1.75119e-17
6957.27249 1.70106e-17
6960.91006 1.56460e-17
6964.53730 1.53648e-17
6968.16453 1.54933e-17
6971.79176 1.48904e-17
6975.41900 1.48143e-17
6979.04623 1.53815e-17
6982.68380 1.51298e-17
6986.31103 1.52583e-17
6989.93827 1.57812e-17
6993.56550 1.51790e-17
6997.19274 1.54096e-17
7000.83030 1.55086e-17
7004.45754 1.48338e-17
7008.08477 1.50352e-17
7011.71201 1.56013e-17
7015.33924 1.53354e-17
7018.97681 1.52593e-17
7022.60404 1.47895e-17
7026.23128 1.50781e-17
7029.85851 1.58477e-17
7033.48574 1.57569e-17
7037.12331 1.52145e-17
7040.75055 1.48617e-17
7044.37778 1.46838e-17
7048.00501 1.49721e-17
7051.63225 1.54495e-17
7055.25948 1.49368e-17
7058.89705 1.48755e-17
7062.52428 1.53526e-17
7066.15152 1.53203e-17
7069.77875 1.53026e-17
7073.40599 1.50231e-17
7077.04355 1.49764e-17
7080.67079 1.53949e-17
7084.29802 1.52900e-17
7087.92526 1.47927e-17
7091.55249 1.48623e-17
7095.19006 1.50916e-17
7098.81729 1.52047e-17
7102.44453 1.49982e-17
7106.07176 1.46758e-17
7109.69899 1.50065e-17
7113.32623 1.51195e-17
7116.96380 1.52759e-17
7120.59103 1.50987e-17
7124.21826 1.52260e-17
7127.84550 1.52953e-17
7131.47273 1.49732e-17
7135.11030 1.46803e-17
7138.73753 1.43671e-17
7142.36477 1.52101e-17
7145.99200 1.48304e-17
7149.61924 1.46970e-17
7153.24647 1.47084e-17
7156.88404 1.46184e-17
7160.51127 1.39497e-17
7164.13851 1.38831e-17
7167.76574 1.40943e-17
7171.39297 1.36126e-17
7175.03054 1.32700e-17
7178.65778 1.34262e-17
7182.28501 1.36055e-17
7185.91224 1.37038e-17
7189.53948 1.34279e-17
7193.17705 1.35305e-17
7196.80428 1.32171e-17
7200.43151 1.33356e-17
7204.05875 1.29633e-17
7207.68598 1.35089e-17
7211.31322 1.40789e-17
7214.95078 1.46125e-17
7218.57802 1.42560e-17
7222.20525 1.42213e-17
7225.83249 1.45888e-17
7229.45972 1.37440e-17
7233.09729 1.31416e-17
7236.72452 1.28536e-17
7240.35176 1.28393e-17
7243.97899 1.33392e-17
7247.60622 1.38561e-17
7251.24379 1.37005e-17
7254.87103 1.30011e-17
7258.49826 1.37148e-17
7262.12549 1.37421e-17
7265.75273 1.33811e-17
7269.39030 1.29066e-17
7273.01753 1.28521e-17
7276.64476 1.32173e-17
7280.27200 1.30104e-17
7283.89923 1.33122e-17
7287.52647 1.31413e-17
7291.16403 1.28986e-17
7294.79127 1.33998e-17
7298.41850 1.37931e-17
7302.04574 1.34443e-17
7305.67297 1.33682e-17
7309.31054 1.31358e-17
7312.93777 1.29422e-17
7316.56501 1.31789e-17
7320.19224 1.32965e-17
7323.81947 1.30299e-17
7327.44671 1.37034e-17
7331.08428 1.38280e-17
7334.71151 1.40413e-17
7338.33874 1.42573e-17
7341.96598 1.44032e-17
7345.59321 1.39105e-17
7349.23078 1.34510e-17
7352.85801 1.31919e-17
7356.48525 1.32563e-17
7360.11248 1.35824e-17
7363.73972 1.33907e-17
7367.37728 1.34378e-17
7371.00452 1.40980e-17
7374.63175 1.38806e-17
7378.25899 1.38119e-17
7381.88622 1.35332e-17
7385.51345 1.32147e-17
7389.15102 1.31390e-17
7392.77826 1.32132e-17
7396.40549 1.32089e-17
7400.03272 1.32317e-17
7403.65996 1.27267e-17
7407.29753 1.34284e-17
7410.92476 1.31061e-17
7414.55199 1.32743e-17
7418.17923 1.30490e-17
7421.80646 1.26672e-17
7425.44403 1.28966e-17
7429.07126 1.30590e-17
7432.69850 1.31159e-17
7436.32573 1.33707e-17
7439.95297 1.29906e-17
7443.59053 1.29593e-17
7447.21777 1.29066e-17
7450.84500 1.32523e-17
7454.47224 1.27175e-17
7458.09947 1.27389e-17
7461.72670 1.22983e-17
7465.36427 1.23254e-17
7468.99151 1.25884e-17
7472.61874 1.25529e-17
7476.24597 1.21241e-17
7479.87321 1.28839e-17
7483.51078 1.30499e-17
7487.13801 1.30598e-17
7490.76524 1.28909e-17
7494.39248 1.28200e-17
7498.01971 1.26597e-17
7501.65728 1.29107e-17
7505.28451 1.28469e-17
7508.91175 1.21169e-17
7512.53898 1.24359e-17
7516.16622 1.24657e-17
7519.79345 1.18199e-17
7523.43102 1.29997e-17
7527.05825 1.29260e-17
7530.68549 1.22055e-17
7534.31272 1.19042e-17
7537.93995 1.21520e-17
7541.57752 1.22667e-17
7545.20476 1.22880e-17
7548.83199 1.25030e-17
7552.45922 1.25200e-17
7556.08646 1.20932e-17
7559.71369 1.19464e-17
7563.35126 1.20186e-17
7566.97849 1.23139e-17
7570.60573 1.14992e-17
7574.23296 1.20260e-17
7577.86020 1.21715e-17
7581.49776 1.19444e-17
7585.12500 1.22634e-17
7686.73922 1.07423e-17
7690.36645 1.06446e-17
7693.99369 1.13638e-17
7697.63126 1.12225e-17
7701.25849 1.11668e-17
7704.88572 1.01224e-17
7708.51296 9.98576e-18
7712.14019 1.11438e-17
7715.77776 1.01939e-17
7719.40499 1.06015e-17
7723.03223 1.18817e-17
7726.65946 1.16734e-17
7730.28670 1.09773e-17
7733.91393 1.12111e-17
7737.55150 1.18555e-17
7741.17873 1.04907e-17
7744.80597 1.10707e-17
7748.43320 1.05348e-17
7752.06043 1.08004e-17
7755.69800 1.09194e-17
7759.32524 1.13621e-17
7762.95247 1.12521e-17
7766.57970 1.07990e-17
7770.20694 1.03712e-17
7773.83417 1.10534e-17
7777.47174 1.15917e-17
7781.09897 1.13396e-17
7784.72621 1.04258e-17
7788.35344 1.12160e-17
7791.98068 1.13764e-17
7795.61824 1.13195e-17
7799.24548 1.10316e-17
7802.87271 1.15329e-17
7806.49995 1.19129e-17
7810.12718 1.09392e-17
7813.76475 1.08741e-17
7817.39198 1.16461e-17
7821.01922 1.17532e-17
7824.64645 1.12878e-17
7828.27368 1.13144e-17
7831.91125 1.11854e-17
7835.53849 1.16398e-17
7839.16572 1.06874e-17
7842.79295 1.04045e-17
7846.42019 1.15999e-17
7850.04742 1.11241e-17
7853.68499 1.05264e-17
7857.31222 1.07431e-17
7860.93946 8.80774e-18
7864.56669 1.00104e-17
7868.19393 1.08522e-17
7871.83149 1.01638e-17
7875.45873 9.98279e-18
7879.08596 1.11772e-17
7882.71320 1.11871e-17
7886.34043 1.14933e-17
7889.97800 1.10117e-17
7893.60523 1.09027e-17
7897.23247 1.13927e-17
7900.85970 9.89493e-18
7904.48693 1.08399e-17
7908.12450 1.06936e-17
7911.75174 9.64766e-18
7915.37897 1.05368e-17
7919.00620 1.12265e-17
7922.63344 1.09339e-17
7926.26067 1.13402e-17
7929.89824 1.18387e-17
7933.52547 1.13101e-17
7937.15271 1.10357e-17
7940.77994 1.10994e-17
7944.40718 1.15907e-17
7948.04474 1.10006e-17
7951.67198 1.10312e-17
7955.29921 1.18915e-17
7958.92645 1.11667e-17
7962.55368 1.09575e-17
7966.19125 1.04908e-17
7969.81848 1.10530e-17
7973.44572 1.06416e-17
7977.07295 1.00734e-17
7980.70018 1.09464e-17
7984.32742 1.00221e-17
7987.96499 1.09607e-17
7991.59222 1.12071e-17
7995.21945 1.16803e-17
7998.84669 1.15773e-17
8002.47392 1.16475e-17
8006.11149 1.09991e-17
8009.73872 9.89211e-18
8013.36596 1.08966e-17
8016.99319 1.09916e-17
8020.62043 1.05608e-17
8024.24766 1.08988e-17
8027.88523 1.11007e-17
8031.51246 1.12217e-17
8035.13970 1.10628e-17
8038.76693 1.13935e-17
8042.39416 1.09906e-17
8046.03173 1.11457e-17
8049.65897 1.18969e-17
8053.28620 1.19668e-17
8056.91343 1.10574e-17
8060.54067 1.08371e-17
8064.17824 1.14959e-17
8067.80547 1.17849e-17
8071.43270 1.15605e-17
8075.05994 1.18849e-17
8078.68717 1.20901e-17
8082.31441 1.12779e-17
8085.95197 1.12070e-17
8089.57921 1.15366e-17
8093.20644 1.14493e-17
8096.83368 1.09972e-17
8100.46091 1.14059e-17
8104.09848 1.17597e-17
8107.72571 1.12656e-17
8111.35295 1.14828e-17
8114.98018 1.07569e-17
8118.60741 1.09537e-17
8122.24498 1.10426e-17
8125.87222 1.04783e-17
8129.49945 1.02550e-17
8133.12668 1.07339e-17
8136.75392 1.04889e-17
8140.39149 1.09104e-17
8144.01872 1.06436e-17
8147.64595 9.99432e-18
8151.27319 1.00670e-17
8154.90042 1.04977e-17
8158.52766 1.03279e-17
8162.16522 9.94050e-18
8165.79246 1.01600e-17
8169.41969 1.01007e-17
8173.04693 1.06696e-17
8176.67416 1.04646e-17
8180.31173 1.00627e-17
8183.93896 1.05170e-17
8187.56620 1.09318e-17
8191.19343 1.10055e-17
8194.82066 1.08210e-17
8198.45823 1.11228e-17
8202.08547 1.09004e-17
8205.71270 1.04691e-17
8209.33993 9.91594e-18
8212.96717 9.66549e-18
8216.59440 9.63217e-18
8220.23197 1.02918e-17
8223.85920 1.05566e-17
8227.48644 1.00541e-17
8231.11367 1.06969e-17
8234.74091 1.05442e-17
8238.37847 1.05933e-17
8242.00571 1.03811e-17
8245.63294 1.10693e-17
8249.26018 1.06513e-17
8252.88741 1.03499e-17
8256.51464 1.01894e-17
8260.15221 1.02358e-17
8263.77945 9.99828e-18
8267.40668 9.57154e-18
8271.03391 1.03873e-17
8274.66115 1.06391e-17
8278.29872 1.05706e-17
8281.92595 1.04292e-17
8285.55318 9.89474e-18
8289.18042 9.96011e-18
8292.80765 1.09219e-17
8296.44522 1.09128e-17
8300.07245 1.04003e-17
8303.69969 1.03131e-17
8307.32692 1.04781e-17
8310.95416 1.03100e-17
8314.58139 1.01999e-17
8318.21896 1.06048e-17
8321.84619 1.07413e-17
8325.47343 1.07363e-17
8329.10066 1.02652e-17
8332.73823 9.82125e-18
8336.36546 1.07941e-17
8339.99270 1.08618e-17
8343.61993 9.93879e-18
8347.24716 9.31764e-18
8350.87440 9.63856e-18
8354.51197 1.04490e-17
8358.13920 1.04804e-17
8361.76643 9.77762e-18
8365.39367 1.03576e-17
8369.02090 9.75601e-18
8372.64814 9.54432e-18
8376.28570 1.01858e-17
8379.91294 9.82235e-18
8383.54017 9.42145e-18
8387.16741 9.85715e-18
8390.79464 9.57453e-18
8394.43221 9.87716e-18
8398.05944 9.69261e-18
8401.68668 1.01266e-17
8405.31391 1.06622e-17
8408.94114 9.99091e-18
8412.57871 9.83868e-18
8416.20595 9.75353e-18
8419.83318 9.75150e-18
8423.46041 9.88881e-18
8427.08765 1.00435e-17
8430.72522 1.02021e-17
8434.35245 1.02709e-17
8437.97968 9.99440e-18
8441.60692 9.94148e-18
8445.23415 1.00117e-17
8448.86139 9.74474e-18
8452.49895 1.00196e-17
8456.12619 9.54148e-18
8459.75342 9.05152e-18
8463.38066 9.33841e-18
8467.00789 1.01130e-17
8470.64546 9.83165e-18
8474.27269 9.33536e-18
8477.89993 9.77957e-18
8481.52716 1.00073e-17
8485.15439 9.93715e-18
8488.78163 9.33580e-18
8492.41920 9.45402e-18
8496.04643 1.00832e-17
8499.67366 9.27145e-18
8503.30090 9.58569e-18
8506.92813 9.58243e-18
8510.56570 9.54185e-18
8514.19293 9.86918e-18
8517.82017 9.05826e-18
8521.44740 9.12708e-18
8525.07464 9.43299e-18
8528.71220 9.37118e-18
8532.33944 9.23349e-18
8535.96667 9.49527e-18
8539.59391 9.10738e-18
8543.22114 8.70766e-18
8546.84837 8.66071e-18
8550.48594 9.32682e-18
8554.11318 8.91533e-18
8557.74041 9.09045e-18
8561.36764 9.11393e-18
8564.99488 9.14140e-18
8568.63245 8.88711e-18
8572.25968 8.77244e-18
8575.88691 8.41071e-18
8579.51415 8.54722e-18
8583.14138 8.52830e-18
8586.77895 8.54126e-18
8590.40618 8.80246e-18
8594.03342 9.05294e-18
8597.66065 8.80439e-18
8601.28789 8.44980e-18
8604.91512 7.85791e-18
8608.55269 8.02749e-18
8612.17992 7.97691e-18
8615.80716 7.89983e-18
8619.43439 7.54576e-18
8623.06162 7.89949e-18
8626.69919 7.79995e-18
8630.32643 7.89916e-18
8633.95366 8.09105e-18
8637.58089 8.21003e-18
8641.20813 7.55579e-18
8644.84570 7.75029e-18
8648.47293 8.06515e-18
8652.10016 7.99882e-18
8655.72740 7.83726e-18
8659.35463 7.80009e-18
8662.99220 8.16366e-18
8666.61943 8.10001e-18
8670.24667 7.95046e-18
8673.87390 7.90539e-18
8677.50114 7.70307e-18
8681.12837 7.65675e-18
8684.76594 8.00279e-18
8688.39317 7.60378e-18
8692.02041 7.37659e-18
8695.64764 7.43863e-18
8699.27487 7.49009e-18
8702.91244 7.65505e-18
8706.53968 7.62332e-18
8710.16691 7.64043e-18
8713.79414 7.55069e-18
8717.42138 7.67332e-18
8721.04861 7.41878e-18
8724.68618 7.14060e-18
8728.31341 7.13275e-18
8731.94065 7.46098e-18
8735.56788 7.31999e-18
8739.19512 7.09474e-18
8742.82235 7.17517e-18
8746.45992 7.06461e-18
8750.08715 6.71837e-18
8753.71439 6.72248e-18
8757.34162 6.93193e-18
8760.97919 6.96233e-18
8764.60642 6.70453e-18
8768.23366 6.78496e-18
8771.86089 6.94692e-18
8775.48812 6.68137e-18
8779.11536 6.27259e-18
8782.75293 6.40695e-18
8786.38016 6.50183e-18
8790.00739 6.32987e-18
8793.63463 6.44051e-18
8797.26186 6.49068e-18
8800.89943 6.68008e-18
8804.52666 6.34798e-18
8808.15390 6.53341e-18
8811.78113 6.16993e-18
8815.40837 6.26212e-18
8819.04593 6.58006e-18
8822.67317 6.02384e-18
8826.30040 6.46900e-18
8829.92764 6.08879e-18
8833.55487 5.63788e-18
8837.19244 5.70254e-18
8840.81967 5.81964e-18
8844.44691 6.18320e-18
8848.07414 6.11929e-18
8851.70137 5.62287e-18
8855.32861 5.82117e-18
8858.96618 6.26312e-18
8862.59341 5.53898e-18
8866.22064 5.75685e-18
8869.84788 6.04146e-18
8873.47511 6.12956e-18
8877.11268 5.96495e-18
8880.73991 5.84359e-18
8884.36715 6.31388e-18
8887.99438 6.52883e-18
8891.62162 6.22296e-18
8895.24885 5.93158e-18
8898.88642 5.52519e-18
8902.51365 5.53874e-18
8906.14089 5.41106e-18
8909.76812 5.87962e-18
8913.40569 5.44604e-18
8917.03292 5.21649e-18
8920.66016 5.38691e-18
8924.28739 5.45406e-18
8927.91462 5.37748e-18
8931.54186 5.50079e-18
8935.17943 6.07336e-18
8938.80666 6.02285e-18
8942.43389 4.70451e-18
8946.06113 4.71949e-18
8949.68836 4.45514e-18
8953.31560 5.11360e-18
8956.95316 5.55395e-18
8960.58040 5.50619e-18
8964.20763 5.72197e-18
8967.83487 5.84248e-18
8971.46210 5.25606e-18
8975.09967 4.78195e-18
8978.72690 5.40323e-18
8982.35414 5.88876e-18
8985.98137 5.39522e-18
8989.60860 5.80503e-18
8993.24617 5.99059e-18
8996.87341 6.12528e-18
9000.50064 5.87432e-18
9004.12787 4.75978e-18
9007.75511 3.30301e-18
9011.38234 5.66359e-19
9015.01991 -3.61073e-19
9018.64714 -9.72151e-19
9022.27438 -1.05898e-18
9025.90161 8.79613e-19
9029.52885 1.43807e-18
9033.16641 1.82565e-19
9036.79365 1.68230e-18
9040.42088 4.38148e-18
9044.04812 4.14679e-18
9047.67535 4.15667e-18
9051.31292 4.64770e-18
9054.94015 4.68612e-18
9058.56739 4.84415e-18
9062.19462 5.34272e-18
9065.82185 5.52533e-18
9069.45942 5.59353e-18
9073.08666 5.64612e-18
9076.71389 5.72859e-18
9080.34112 5.85132e-18
9083.96836 5.68564e-18
9087.59559 5.81095e-18
9091.22283 6.43944e-18
9094.86039 6.55419e-18
9098.48763 6.31060e-18
9102.11486 5.52060e-18
9105.74210 5.57961e-18
9109.37966 5.75540e-18
9113.00690 5.55096e-18
9116.63413 5.60217e-18
9120.26137 5.86092e-18
9123.88860 6.05345e-18
9127.51583 5.88799e-18
9131.15340 5.31668e-18
9134.78064 5.40938e-18
9138.40787 5.69522e-18
9142.03510 5.51044e-18
9145.66234 5.88304e-18
9149.29991 5.93156e-18
9152.92714 5.72350e-18
9156.55437 5.51938e-18
9160.18161 5.64954e-18
9163.80884 5.94806e-18
9167.44641 5.88904e-18
9171.07364 5.59565e-18
9174.70088 5.35413e-18
9178.32811 5.51401e-18
9181.95535 5.42790e-18
9185.59291 5.31592e-18
9189.22015 5.85365e-18
9192.84738 5.98493e-18
9196.47462 5.34632e-18
9200.10185 5.27580e-18
9203.72908 5.70204e-18
9207.36665 5.87466e-18
9210.99389 5.57908e-18
9214.62112 5.03789e-18
9218.24835 5.33337e-18
9221.87559 5.39736e-18
9225.50282 5.22996e-18
9229.14039 5.26164e-18
9232.76762 5.13952e-18
9236.39486 4.77968e-18
9240.02209 4.48970e-18
9243.64933 4.55375e-18
9247.28689 4.73275e-18
9250.91413 4.91170e-18
9254.54136 5.09578e-18
9258.16860 4.50637e-18
9261.79583 4.35736e-18
9265.43340 4.53627e-18
9269.06063 4.33179e-18
9272.68787 4.06412e-18
9276.31510 4.49077e-18
9279.94233 4.68636e-18
9283.57990 4.43164e-18
9287.20714 4.25310e-18
9290.83437 4.26549e-18
9294.46160 4.10248e-18
9298.08884 4.32509e-18
9301.71607 4.06283e-18
9305.35364 3.93343e-18
9308.98087 4.19464e-18
9312.60811 3.83196e-18
9316.23534 3.79285e-18
9319.86258 3.88002e-18
9323.50014 3.63218e-18
9327.12738 3.38569e-18
9330.75461 3.47804e-18
9334.38185 2.89931e-18
9338.00908 2.92859e-18
9341.64665 3.23472e-18
9345.27388 3.01932e-18
9348.90112 2.83873e-18
9352.52835 3.01990e-18
9356.15558 2.96549e-18
9359.79315 2.86090e-18
9363.42039 2.91848e-18
9367.04762 2.72385e-18
9370.67485 2.80845e-18
9374.30209 3.05124e-18
9377.92932 3.04317e-18
9381.56689 2.81776e-18
9385.19412 2.82515e-18
9388.82136 2.76696e-18
9392.44859 2.71264e-18
9396.07583 2.74832e-18
9399.71339 2.72102e-18
9403.34063 2.54592e-18
9406.96786 2.39142e-18
9410.59510 2.50679e-18
9414.22233 2.63883e-18
9417.84956 2.29554e-18
9421.48713 2.27087e-18
9425.11437 2.33611e-18
9428.74160 2.19973e-18
9432.36883 1.93112e-18
9435.99607 1.53291e-18
9439.63364 1.98973e-18
9443.26087 2.23980e-18
9446.88810 1.57089e-18
9450.51534 1.47575e-18
9454.14257 1.48713e-18
9457.78014 1.44719e-18
9461.40737 1.41495e-18
9465.03461 1.37118e-18
9468.66184 1.42618e-18
9472.28908 9.48710e-19
9475.92664 5.44056e-19
9479.55388 9.06571e-19
9483.18111 6.20722e-19
9486.80835 4.50428e-19
9490.43558 5.53679e-19
9494.06281 4.48020e-19
9497.70038 2.97151e-19
9501.32762 4.91481e-19
9504.95485 7.52384e-19
9508.58208 7.57296e-19
9512.20932 7.61566e-19
9515.84689 7.61353e-19
9519.47412 8.73697e-19
9523.10135 1.01098e-18
9526.72859 8.91042e-19
9530.35582 1.01230e-18
9533.99339 9.96695e-19
9537.62062 7.93608e-19
9541.24786 1.20941e-18
9544.87509 1.77470e-18
9548.50233 1.19712e-18
9552.12956 1.01482e-19
9555.76713 8.90764e-19
9559.39436 1.41197e-18
9563.02160 1.31462e-18
9566.64883 1.31320e-18
9570.27606 1.30283e-18
9573.91363 1.52512e-18
9577.54087 1.45977e-18
9581.16810 9.91944e-19
9584.79533 1.18391e-18
9588.42257 1.26735e-18
9592.06014 1.00120e-18
9595.68737 8.94799e-19
9599.31460 1.19144e-18
9602.94184 9.94486e-19
9606.56907 5.32566e-19
9610.19631 5.74776e-19
9613.83387 -6.76479e-20
9617.46111 -3.10881e-19
9621.08834 -6.28716e-20
9624.71558 -7.31657e-19
9628.34281 -5.25455e-19
9631.98038 3.86040e-20
9635.60761 -2.82513e-20
9639.23485 3.65160e-20
9642.86208 -1.66103e-19
9646.48931 -2.11752e-19
9650.11655 3.96801e-19
9653.75412 4.13466e-19
9657.38135 1.25225e-19
9661.00858 3.69132e-20
9664.63582 4.09253e-20
9668.26305 8.02355e-20
9671.90062 1.69784e-19
9675.52785 3.89749e-19
9679.15509 7.90883e-19
9682.78232 1.07763e-18
9686.40956 9.27300e-19
9690.04712 3.86270e-19
9693.67436 2.75150e-19
9697.30159 5.22092e-19
9700.92883 6.68498e-19
9704.55606 6.97461e-19
9708.18329 7.91357e-19
9711.82086 7.36145e-19
9715.44810 1.62566e-19
9719.07533 -3.40882e-19
9722.70256 -3.27864e-19
9726.32980 1.35280e-19
9729.96737 4.79858e-19
9733.59460 5.24976e-19
9737.22183 3.60295e-19
9740.84907 2.13839e-19
9744.47630 5.32315e-19
9748.10354 8.97019e-19
9751.74110 6.54795e-19
9755.36834 2.11206e-19
9758.99557 -5.02977e-20
9762.62281 -6.16451e-20
9766.26037 -8.54602e-20
9769.88761 1.88621e-20
9773.51484 2.70701e-19
9777.14208 4.60779e-19
9780.76931 5.42814e-19
9784.40688 4.46073e-19
9788.03411 2.19520e-19
9791.66135 2.68909e-19
9795.28858 2.54656e-19
9798.91581 -3.69308e-20
9802.54305 3.20635e-20
9806.18062 1.42208e-19
9809.80785 -7.69874e-20
9813.43508 -4.95593e-19
9817.06232 -6.35929e-19
9820.68955 -3.79741e-19
9824.31679 -6.57880e-20
9827.95435 -4.52373e-20
9831.58159 -3.41180e-20
9835.20882 3.07145e-19
9838.83606 1.38398e-19
9842.46329 -7.50137e-20
9846.10086 3.03372e-19
9849.72809 4.63382e-19
9853.35533 2.88221e-19
9856.98256 6.94551e-20
9860.60979 8.58402e-20
9864.24736 2.81034e-19
9867.87460 4.71385e-19
9871.50183 5.27735e-19
9875.12906 3.92974e-19
9878.75630 2.27701e-19
9882.38353 3.31191e-19
9886.02110 4.68866e-19
9889.64833 4.51844e-19
9893.27557 3.39451e-19
9896.90280 1.42226e-19
9900.53004 -4.66904e-20
9904.15727 -9.34600e-20
9907.79484 -9.44382e-20
9911.42207 -5.57786e-20
9915.04931 9.44446e-20
9918.67654 1.17231e-19
9922.31411 8.27190e-20
9925.94134 2.59420e-19
9929.56858 2.98619e-19
9933.19581 1.80039e-19
9936.82304 1.89130e-19
9940.45028 1.69378e-19
9944.08785 1.23182e-19
9947.71508 1.60491e-19
9951.34231 -1.35563e-19
9954.96955 -6.21100e-19
9955.93637 -6.21100e-19
9958.04996 -6.16330e-19
9960.17356 -6.11564e-19
9962.28715 -6.08318e-19
9964.41075 -6.05073e-19
9966.53435 -6.03369e-19
9968.64794 -6.01663e-19
9970.77155 -6.01658e-19
9972.88513 -6.01653e-19
9975.00874 -6.03185e-19
9977.13234 -6.04719e-19
9979.24593 -6.06828e-19
9981.36953 -6.08937e-19
9983.48312 -6.10824e-19
