# wavelength flux
3658.54602 3.21042e-17
3660.63349 3.06124e-17
3662.73129 3.52505e-17
3664.82909 1.37795e-17
3666.91656 2.26636e-17
3669.00403 5.64371e-17
3671.09150 3.51092e-17
3673.18930 2.07087e-17
3675.27677 2.54525e-17
3677.36423 2.12269e-17
3679.45170 2.18806e-17
3681.54950 2.68551e-17
3683.63697 2.54327e-17
3685.72444 3.14353e-17
3687.81191 3.81834e-17
3689.90971 1.85642e-17
3691.99718 9.34976e-18
3694.08465 2.90117e-17
3696.17211 1.55578e-17
3698.25958 3.48100e-17
3700.35738 4.20816e-17
3702.44485 2.07212e-17
3704.53232 2.22365e-17
3706.61979 3.23716e-17
3708.71759 1.74276e-17
3710.80506 1.21864e-17
3712.89253 2.56950e-17
3714.97999 1.39884e-17
3717.07780 2.04846e-17
3719.16526 2.81956e-17
3721.25273 2.18035e-17
3723.34020 1.58695e-17
3725.42767 3.09665e-17
3727.53580 2.07591e-17
3729.62327 1.80451e-17
3731.71074 3.24322e-17
3733.79821 2.50185e-17
3735.89601 2.11082e-17
3737.98348 1.90860e-17
3740.07095 2.94641e-17
3742.15841 3.16100e-17
3744.24588 1.92160e-17
3746.34368 3.45028e-17
3748.43115 1.86847e-17
3750.51862 2.35635e-17
3752.60609 2.33497e-17
3754.70389 2.59586e-17
3756.79136 2.36453e-17
3758.87883 3.38280e-17
3760.96629 3.07293e-17
3763.06410 2.85541e-17
3765.15156 2.48770e-17
3767.23903 2.28580e-17
3769.32650 2.01631e-17
3771.41397 2.34318e-17
3773.51177 2.30722e-17
3775.59924 2.45317e-17
3777.68671 3.41270e-17
3779.77417 3.28833e-17
3781.87198 2.87680e-17
3783.95944 2.65503e-17
3786.04691 2.52105e-17
3788.13438 2.84706e-17
3790.23218 3.51163e-17
3792.32998 3.13282e-17
3794.41745 3.36219e-17
3796.50492 2.67276e-17
3798.59239 2.54826e-17
3800.69019 3.05363e-17
3802.77766 2.73078e-17
3804.86513 2.88119e-17
3806.95259 3.18872e-17
3809.05040 3.24860e-17
3811.13786 2.80086e-17
3813.22533 2.91836e-17
3815.31280 3.00587e-17
3817.40027 3.35040e-17
3819.49807 2.82270e-17
3821.58554 2.76690e-17
3823.67301 2.47645e-17
3825.76047 2.84123e-17
3827.85828 2.78741e-17
3829.94574 2.93426e-17
3832.03321 2.93583e-17
3834.12068 2.93740e-17
3836.21848 2.93714e-17
3838.30595 2.93689e-17
3840.39342 2.93664e-17
3842.48089 2.93639e-17
3844.56835 2.93614e-17
3846.66616 2.93590e-17
3848.75362 2.93565e-17
3850.84109 2.93541e-17
3852.92856 2.93517e-17
3855.03670 2.93493e-17
3857.12416 2.93470e-17
3859.21163 2.93446e-17
3861.29910 2.93423e-17
3863.39690 2.93400e-17
3865.48437 2.93378e-17
3867.57184 2.93355e-17
3869.65931 2.93333e-17
3871.74677 2.93311e-17
3873.84458 2.93289e-17
3875.93204 2.80515e-17
3878.01951 3.05366e-17
3880.10698 3.25310e-17
3882.20478 3.28063e-17
3884.29225 3.43364e-17
3886.37972 2.64409e-17
3888.46719 3.11508e-17
3890.55465 3.08235e-17
3892.65246 2.99242e-17
3894.73992 2.92829e-17
3896.82739 2.82986e-17
3898.91486 2.98482e-17
3901.01266 2.69529e-17
3903.10013 3.08382e-17
3905.18760 3.35772e-17
3907.27507 3.02938e-17
3909.37287 2.94456e-17
3911.46034 2.99355e-17
3913.54780 3.12106e-17
3915.63527 3.29815e-17
3917.73307 2.91719e-17
3919.83088 2.90060e-17
3921.91834 3.20946e-17
3924.00581 2.87582e-17
3926.09328 3.02296e-17
3928.19108 3.30418e-17
3930.27855 3.34433e-17
3932.36602 3.12655e-17
3934.45349 2.98707e-17
3936.55129 2.97884e-17
3938.63876 2.72477e-17
3940.72622 2.96660e-17
3942.81369 2.70695e-17
3944.90116 2.98676e-17
3946.99896 3.19775e-17
3949.08643 3.11668e-17
3951.17390 2.86971e-17
3953.26137 3.14310e-17
3955.35917 3.08803e-17
3957.44664 3.10427e-17
3959.53410 2.86344e-17
3961.62157 2.98950e-17
3963.71937 3.09124e-17
3965.80684 3.20954e-17
3967.89431 3.25628e-17
3969.98178 3.00448e-17
3972.06925 3.09010e-17
3974.16705 3.05180e-17
3976.25452 2.96266e-17
3978.34198 2.74335e-17
3980.42945 3.05609e-17
3982.53759 2.88343e-17
3984.62506 2.71191e-17
3986.71252 2.98318e-17
3988.79999 3.09576e-17
3990.88746 2.90646e-17
3992.98526 3.02264e-17
3995.07273 3.04340e-17
3997.16020 3.08524e-17
3999.24767 3.05657e-17
4001.34547 2.84374e-17
4003.43294 3.10950e-17
4005.52040 2.81461e-17
4007.60787 3.05090e-17
4009.70567 2.89469e-17
4011.79314 2.92386e-17
4013.88061 2.99147e-17
4015.96808 2.83832e-17
4018.05555 2.80829e-17
4020.15335 2.83061e-17
4022.24082 2.85730e-17
4024.32828 2.71607e-17
4026.41575 2.65316e-17
4028.51355 2.97883e-17
4030.60102 2.68578e-17
4032.68849 2.76732e-17
4034.77596 2.93506e-17
4036.87376 2.75969e-17
4038.96123 2.64010e-17
4041.04870 2.61784e-17
4043.13616 2.77574e-17
4045.23397 2.88778e-17
4047.33177 2.91984e-17
4049.41924 2.87967e-17
4051.50670 2.73154e-17
4053.59417 2.65798e-17
4055.69197 2.79726e-17
4057.77944 2.64345e-17
4059.86691 2.60170e-17
4061.95438 2.56457e-17
4064.04185 2.62237e-17
4066.13965 2.65247e-17
4068.22712 2.76059e-17
4070.31458 2.74154e-17
4072.40205 2.71720e-17
4074.49985 2.67770e-17
4076.58732 2.56265e-17
4078.67479 2.65562e-17
4080.76226 2.50196e-17
4082.86006 2.60472e-17
4084.94753 2.80182e-17
4087.03500 2.88812e-17
4089.12246 2.76153e-17
4091.20993 2.79066e-17
4093.30773 2.72490e-17
4095.39520 2.62434e-17
4097.48267 2.68954e-17
4099.57014 2.68692e-17
4101.66794 2.56449e-17
4103.75541 2.76767e-17
4105.84288 2.72841e-17
4107.94068 2.57602e-17
4110.03848 2.92556e-17
4112.12595 2.83185e-17
4114.21342 2.70182e-17
4116.30088 2.60961e-17
4118.38835 2.57829e-17
4120.48615 2.52650e-17
4122.57362 2.55157e-17
4124.66109 2.64007e-17
4126.74856 2.68351e-17
4128.84636 2.49346e-17
4130.93383 2.55963e-17
4133.02130 2.59388e-17
4135.10876 2.65256e-17
4137.20657 2.66348e-17
4139.29403 2.65848e-17
4141.38150 2.61614e-17
4143.46897 2.61449e-17
4145.55644 2.56641e-17
4147.65424 2.59533e-17
4149.74171 2.69071e-17
4151.82918 2.71528e-17
4153.91664 2.57160e-17
4156.01445 2.62218e-17
4158.10191 2.65867e-17
4160.18938 2.72970e-17
4162.27685 2.61862e-17
4164.36432 2.60599e-17
4166.46212 2.63215e-17
4168.54959 2.61422e-17
4170.64739 2.59843e-17
4172.73486 2.58511e-17
4174.83266 2.73120e-17
4176.92013 2.75828e-17
4179.00760 2.64280e-17
4181.09506 2.74835e-17
4183.19287 2.56325e-17
4185.28033 2.69889e-17
4187.36780 2.54402e-17
4189.45527 2.73708e-17
4191.54274 2.59605e-17
4193.64054 2.53584e-17
4195.72801 2.59085e-17
4197.81548 2.56463e-17
4199.90294 2.55351e-17
4202.00075 2.64442e-17
4204.08821 2.76139e-17
4206.17568 2.63379e-17
4208.26315 2.66127e-17
4210.35062 2.67544e-17
4212.44842 2.63701e-17
4214.53589 2.66142e-17
4216.62336 2.58228e-17
4218.71082 2.56001e-17
4220.80863 2.66956e-17
4222.89609 2.61390e-17
4224.98356 2.71482e-17
4227.07103 2.73980e-17
4229.16883 2.71913e-17
4231.25630 2.61842e-17
4233.35410 2.63354e-17
4235.44157 2.61782e-17
4237.52904 2.64127e-17
4239.62684 2.65439e-17
4241.71431 2.61263e-17
4243.80178 2.59394e-17
4245.88924 2.64926e-17
4247.98705 2.58110e-17
4250.07451 2.55910e-17
4252.16198 2.55697e-17
4254.24945 2.58450e-17
4256.34725 2.79279e-17
4258.43472 2.72704e-17
4260.52219 2.56241e-17
4262.60966 2.55993e-17
4264.69712 2.67931e-17
4266.79493 2.57924e-17
4268.88239 2.58181e-17
4270.96986 2.69192e-17
4273.05733 2.61634e-17
4275.15513 2.62531e-17
4277.24260 2.59205e-17
4279.33007 2.65056e-17
4281.41754 2.49459e-17
4283.51534 2.59832e-17
4285.60281 2.65202e-17
4287.69027 2.60579e-17
4289.77774 2.56234e-17
4291.86521 2.62982e-17
4293.96301 2.55795e-17
4296.06081 2.54062e-17
4298.14828 2.58642e-17
4300.23575 2.53854e-17
4302.33355 2.56730e-17
4304.42102 2.72888e-17
4306.50849 2.61505e-17
4308.59596 2.47641e-17
4310.68342 2.66532e-17
4312.78123 2.69007e-17
4314.86869 2.52296e-17
4316.95616 2.60114e-17
4319.04363 2.61362e-17
4321.14143 2.60123e-17
4323.22890 2.52683e-17
4325.31637 2.60314e-17
4327.40384 2.59066e-17
4329.50164 2.56348e-17
4331.58911 2.51652e-17
4333.67657 2.45921e-17
4335.76404 2.60225e-17
4337.85151 2.62562e-17
4339.94931 2.54112e-17
4342.03678 2.56686e-17
4344.12425 2.53312e-17
4346.21172 2.52174e-17
4348.30952 2.41854e-17
4350.39699 2.50690e-17
4352.48445 2.59539e-17
4354.57192 2.48128e-17
4356.66972 2.48221e-17
4358.75719 2.53180e-17
4360.84466 2.48799e-17
4362.94246 2.63899e-17
4365.02993 2.60314e-17
4367.12773 2.55599e-17
4369.21520 2.65405e-17
4371.30267 2.48224e-17
4373.39014 2.56656e-17
4375.48794 2.60592e-17
4377.57541 2.52546e-17
4379.66287 2.48252e-17
4381.75034 2.48789e-17
4383.84814 2.54351e-17
4385.93561 2.50297e-17
4388.02308 2.48980e-17
4390.11055 2.58189e-17
4392.19802 2.54596e-17
4394.29582 2.48546e-17
4396.38329 2.50171e-17
4398.47075 2.50704e-17
4400.55822 2.49790e-17
4402.65602 2.45800e-17
4404.74349 2.52076e-17
4406.83096 2.52684e-17
4408.91843 2.45625e-17
4411.00590 2.42111e-17
4413.10370 2.43931e-17
4415.19117 2.35625e-17
4417.27863 2.37645e-17
4419.36610 2.58417e-17
4421.46390 2.42707e-17
4423.55137 2.46930e-17
4425.64917 2.46906e-17
4427.73664 2.46409e-17
4429.83444 2.52256e-17
4431.92191 2.51447e-17
4434.00938 2.44895e-17
4436.09685 2.42118e-17
4438.18432 2.37120e-17
4440.28212 2.35264e-17
4442.36959 2.39393e-17
4444.45705 2.43616e-17
4446.54452 2.44868e-17
4448.64232 2.44054e-17
4450.72979 2.48685e-17
4452.81726 2.38404e-17
4454.90473 2.41881e-17
4456.99220 2.41179e-17
4459.09000 2.38157e-17
4461.17747 2.38640e-17
4463.26493 2.41650e-17
4465.35240 2.45968e-17
4467.45020 2.42665e-17
4469.53767 2.36865e-17
4471.62514 2.43263e-17
4473.71261 2.50690e-17
4475.81041 2.53748e-17
4477.89788 2.53523e-17
4479.98535 2.53419e-17
4482.07281 2.53316e-17
4484.16028 2.53213e-17
4486.25808 2.53109e-17
4488.35589 2.53005e-17
4490.44335 2.52901e-17
4492.53082 2.52798e-17
4494.62862 2.52694e-17
4496.71609 2.52591e-17
4498.80356 2.52487e-17
4500.89103 2.52383e-17
4502.98883 2.52280e-17
4505.07630 2.52176e-17
4507.16377 2.52072e-17
4509.25123 2.51969e-17
4511.33870 2.51865e-17
4513.43650 2.51761e-17
4515.52397 2.51657e-17
4517.61144 2.51554e-17
4519.69891 2.51450e-17
4521.79671 2.51346e-17
4523.88418 2.51242e-17
4525.97165 2.51138e-17
4528.05911 2.51034e-17
4530.15692 2.50930e-17
4532.24438 2.50826e-17
4534.33185 2.50722e-17
4536.41932 2.50618e-17
4538.50679 2.50514e-17
4540.60459 2.50410e-17
4542.69206 2.44723e-17
4544.77953 2.47437e-17
4546.86699 2.46895e-17
4548.96480 2.35389e-17
4551.06260 2.37023e-17
4553.15007 2.39842e-17
4555.23753 2.40170e-17
4557.33534 2.30102e-17
4559.42280 2.33207e-17
4561.51027 2.44262e-17
4563.59774 2.43137e-17
4565.68521 2.39564e-17
4567.78301 2.45946e-17
4569.87048 2.41567e-17
4571.95795 2.40445e-17
4574.04541 2.41482e-17
4576.14322 2.42952e-17
4578.23068 2.38733e-17
4580.31815 2.36034e-17
4582.40562 2.36255e-17
4584.50342 2.30806e-17
4586.59089 2.38378e-17
4588.67836 2.34976e-17
4590.76583 2.33599e-17
4592.85329 2.32339e-17
4594.95110 2.35456e-17
4597.03856 2.40407e-17
4599.12603 2.46344e-17
4601.21350 2.38591e-17
4603.31130 2.31723e-17
4605.39877 2.35179e-17
4607.48624 2.32795e-17
4609.57371 2.31183e-17
4611.66117 2.42503e-17
4613.75898 2.34063e-17
4615.85678 2.38358e-17
4617.94425 2.41179e-17
4620.03171 2.39021e-17
4622.12952 2.33643e-17
4624.21698 2.30631e-17
4626.30445 2.36447e-17
4628.39192 2.29226e-17
4630.48972 2.32031e-17
4632.57719 2.30439e-17
4634.66466 2.32143e-17
4636.75213 2.28473e-17
4638.83959 2.26456e-17
4640.93740 2.30195e-17
4643.02486 2.28733e-17
4645.11233 2.28003e-17
4647.19980 2.23511e-17
4649.29760 2.23898e-17
4651.38507 2.25088e-17
4653.47254 2.30167e-17
4655.56001 2.29074e-17
4657.64747 2.28273e-17
4659.74528 2.26465e-17
4661.83274 2.29663e-17
4663.92021 2.27400e-17
4666.00768 2.24465e-17
4668.10548 2.18630e-17
4670.19295 2.28757e-17
4672.28042 2.24635e-17
4674.36789 2.25319e-17
4676.46569 2.13869e-17
4678.56349 2.22509e-17
4680.65096 2.24381e-17
4682.73843 2.21687e-17
4684.82589 2.20523e-17
4686.92370 2.18567e-17
4689.01116 2.27262e-17
4691.09863 2.19307e-17
4693.18610 2.17189e-17
4695.28390 2.08970e-17
4697.37137 2.17447e-17
4699.45884 2.22397e-17
4701.54631 2.19542e-17
4703.63377 2.16527e-17
4705.73158 2.22773e-17
4707.81904 2.22569e-17
4709.90651 2.20664e-17
4711.99398 2.17869e-17
4714.09178 2.18519e-17
4716.17925 2.14714e-17
4718.26672 2.13676e-17
4720.35419 2.18571e-17
4722.45199 2.18882e-17
4724.53946 2.18763e-17
4726.62692 2.16612e-17
4728.71439 2.18137e-17
4730.80186 2.21884e-17
4732.89966 2.10491e-17
4734.98713 2.17874e-17
4737.07460 2.15211e-17
4739.16207 2.18096e-17
4741.27020 2.11804e-17
4743.35767 2.12827e-17
4745.44514 2.15771e-17
4747.53261 2.12902e-17
4749.63041 2.13710e-17
4751.71788 2.11140e-17
4753.80534 2.14756e-17
4755.89281 2.19474e-17
4757.98028 2.09309e-17
4760.07808 2.02162e-17
4762.16555 2.10904e-17
4764.25302 2.11923e-17
4766.34049 2.11889e-17
4768.43829 2.10089e-17
4770.52576 2.11601e-17
4772.61322 2.07552e-17
4774.70069 2.11222e-17
4776.79849 2.11591e-17
4778.88596 2.09544e-17
4780.97343 2.08445e-17
4783.06090 2.05284e-17
4785.14837 2.08000e-17
4787.24617 2.11607e-17
4789.33364 2.15803e-17
4791.42110 2.16882e-17
4793.50857 2.16104e-17
4795.60637 2.14925e-17
4797.69384 2.16964e-17
4799.78131 2.16057e-17
4801.86878 2.08332e-17
4803.96658 2.08840e-17
4806.06438 2.11149e-17
4808.15185 2.06717e-17
4810.23932 2.13511e-17
4812.32679 2.13198e-17
4814.42459 2.10698e-17
4816.51206 2.15504e-17
4818.59952 2.09796e-17
4820.68699 2.10910e-17
4822.78479 2.05240e-17
4824.87226 2.09472e-17
4826.95973 2.16066e-17
4829.04720 2.11794e-17
4831.14500 2.06325e-17
4833.23247 2.12504e-17
4835.31994 2.13433e-17
4837.40740 2.08538e-17
4839.49487 2.18741e-17
4841.59267 2.11955e-17
4843.68014 2.07176e-17
4845.76761 2.14889e-17
4847.85508 2.10381e-17
4849.95288 2.13297e-17
4852.04035 2.10199e-17
4854.12782 2.10029e-17
4856.21528 2.09000e-17
4858.31309 2.07755e-17
4860.40055 2.09283e-17
4862.48802 2.13058e-17
4864.57549 2.04864e-17
4866.66296 2.05525e-17
4868.76076 2.05486e-17
4870.85856 2.11557e-17
4872.94603 2.08515e-17
4875.03350 2.10352e-17
4877.13130 2.05615e-17
4879.21877 2.08394e-17
4881.30624 2.06843e-17
4883.39370 2.03929e-17
4885.48117 2.06008e-17
4887.57897 2.08517e-17
4889.66644 2.07723e-17
4891.75391 2.03230e-17
4893.84138 2.06098e-17
4895.93918 2.03009e-17
4898.02665 2.05219e-17
4900.11412 2.09097e-17
4902.20158 2.10814e-17
4904.29939 2.10363e-17
4906.38685 2.10694e-17
4908.47432 2.08703e-17
4910.56179 2.07114e-17
4912.64926 2.09246e-17
4914.74706 2.09284e-17
4916.83453 2.08155e-17
4918.92200 2.06657e-17
4921.00946 2.06453e-17
4923.10727 2.05074e-17
4925.19473 2.06318e-17
4927.28220 2.07696e-17
4929.36967 2.10140e-17
4931.45714 2.09149e-17
4933.56527 2.05796e-17
4935.65274 2.07501e-17
4937.74021 2.11305e-17
4939.82768 2.15027e-17
4941.92548 2.05742e-17
4944.01295 2.08603e-17
4946.10042 2.07627e-17
4948.18788 2.06884e-17
4950.28569 2.08139e-17
4952.37315 2.10347e-17
4954.46062 2.11512e-17
4956.54809 2.01078e-17
4958.63556 2.06281e-17
4960.73336 2.10910e-17
4962.82083 2.06658e-17
4964.90830 2.07985e-17
4966.99576 1.99367e-17
4969.09357 2.05940e-17
4971.18103 2.04223e-17
4973.26850 2.06087e-17
4975.35597 2.03183e-17
4977.45377 2.02572e-17
4979.54124 2.01004e-17
4981.62871 2.07213e-17
4983.71618 2.11079e-17
4985.80364 2.07626e-17
4987.90145 2.03506e-17
4989.98891 2.03337e-17
4992.07638 2.00981e-17
4994.16385 2.03706e-17
4996.27199 2.06551e-17
4998.35945 2.05323e-17
5000.44692 2.01789e-17
5002.53439 2.06127e-17
5004.62186 2.07167e-17
5006.71966 2.06892e-17
5008.80713 2.06617e-17
5010.89460 2.06343e-17
5012.98206 2.06069e-17
5015.07987 2.05794e-17
5017.16733 2.05521e-17
5019.25480 2.05247e-17
5021.34227 2.04973e-17
5023.44007 2.04700e-17
5025.52754 2.04426e-17
5027.61501 2.04153e-17
5029.70248 2.03880e-17
5031.78994 2.03607e-17
5033.88775 2.03335e-17
5035.97521 2.03062e-17
5038.06268 2.02790e-17
5040.15015 2.02518e-17
5042.24795 2.02246e-17
5044.33542 2.01974e-17
5046.42289 1.97245e-17
5048.51036 1.99429e-17
5050.60816 2.05059e-17
5052.69563 2.04384e-17
5054.78309 2.04087e-17
5056.87056 2.02360e-17
5058.96836 2.01264e-17
5061.06617 1.99710e-17
5063.15363 2.02167e-17
5065.24110 2.00933e-17
5067.32857 1.98294e-17
5069.42637 2.00242e-17
5071.51384 1.99001e-17
5073.60131 1.97884e-17
5075.68878 2.02330e-17
5077.77624 2.01062e-17
5079.87405 1.99449e-17
5081.96151 1.95800e-17
5084.04898 1.96416e-17
5086.13645 2.06747e-17
5088.23425 2.01251e-17
5090.32172 1.96282e-17
5092.40919 1.96459e-17
5094.49666 2.01558e-17
5096.59446 1.96355e-17
5098.68193 1.96224e-17
5100.76939 1.97675e-17
5102.85686 1.95673e-17
5104.95466 1.96780e-17
5107.04213 1.96701e-17
5109.12960 1.96621e-17
5111.21707 1.96542e-17
5113.30454 1.96463e-17
5115.40234 1.96384e-17
5117.48981 1.96305e-17
5119.57727 1.96226e-17
5121.67508 1.96146e-17
5123.77288 1.96067e-17
5125.86035 1.95988e-17
5127.94781 1.95910e-17
5130.03528 1.95831e-17
5132.12275 1.95752e-17
5134.22055 1.95674e-17
5136.30802 1.95595e-17
5138.39549 1.95517e-17
5140.48296 1.95438e-17
5142.58076 1.95360e-17
5144.66823 1.95282e-17
5146.75569 1.97522e-17
5148.84316 1.94925e-17
5150.94096 1.88713e-17
5153.02843 1.90658e-17
5155.11590 1.93283e-17
5157.20337 1.92964e-17
5159.29084 1.92646e-17
5161.38864 1.92328e-17
5163.47611 1.92010e-17
5165.56357 1.91692e-17
5167.65104 1.91374e-17
5169.74884 1.91057e-17
5171.83631 1.90740e-17
5173.92378 1.90422e-17
5176.01125 1.90106e-17
5178.09872 1.89789e-17
5180.19652 1.89472e-17
5182.28399 1.89156e-17
5184.38179 1.88838e-17
5186.46926 1.88523e-17
5188.56706 1.88207e-17
5190.65453 1.87891e-17
5192.74199 1.87576e-17
5194.82946 1.85358e-17
5196.92726 1.85055e-17
5199.01473 1.89972e-17
5201.10220 1.85879e-17
5203.18967 1.83866e-17
5205.27714 1.86376e-17
5207.37494 1.85300e-17
5209.46241 1.85817e-17
5211.54987 1.85179e-17
5213.63734 1.83597e-17
5215.73514 1.83405e-17
5217.82261 1.84185e-17
5219.91008 1.82443e-17
5221.99755 1.83386e-17
5224.09535 1.78602e-17
5226.18282 1.83014e-17
5228.27029 1.82851e-17
5230.35775 1.81014e-17
5232.44522 1.83845e-17
5234.54302 1.80527e-17
5236.63049 1.82146e-17
5238.71796 1.76456e-17
5240.80543 1.80477e-17
5242.90323 1.77509e-17
5244.99070 1.78126e-17
5247.07817 1.76721e-17
5249.17597 1.75075e-17
5251.26344 1.78916e-17
5253.36124 1.74417e-17
5255.44871 1.71398e-17
5257.53617 1.68741e-17
5259.62364 1.75087e-17
5261.72144 1.75406e-17
5263.80891 1.74808e-17
5265.89638 1.75549e-17
5267.98385 1.74503e-17
5270.08165 1.74023e-17
5272.16912 1.76727e-17
5274.25659 1.71801e-17
5276.34405 1.72237e-17
5278.43152 1.75656e-17
5280.52932 1.75338e-17
5282.61679 1.74322e-17
5284.70426 1.71886e-17
5286.79173 1.71177e-17
5288.88953 1.77011e-17
5290.97700 1.76300e-17
5293.06447 1.73492e-17
5295.15193 1.70669e-17
5297.24974 1.75387e-17
5299.33720 1.71646e-17
5301.42467 1.71867e-17
5303.51214 1.71998e-17
5305.59961 1.70313e-17
5307.69741 1.69733e-17
5309.78488 1.73959e-17
5311.88268 1.72586e-17
5313.97015 1.72957e-17
5316.06795 1.65694e-17
5318.15542 1.68609e-17
5320.24289 1.69816e-17
5322.33035 1.70419e-17
5324.41782 1.67863e-17
5326.51562 1.69797e-17
5328.60309 1.69610e-17
5330.69056 1.68325e-17
5332.77803 1.67182e-17
5334.87583 1.68475e-17
5336.96330 1.69308e-17
5339.05077 1.66990e-17
5341.13823 1.64674e-17
5343.23604 1.69326e-17
5345.32350 1.72383e-17
5347.41097 1.68531e-17
5349.49844 1.68700e-17
5351.58591 1.65259e-17
5353.68371 1.66531e-17
5355.77118 1.68287e-17
5357.85865 1.66094e-17
5359.94611 1.64827e-17
5362.04392 1.62284e-17
5364.13138 1.64885e-17
5366.21885 1.68046e-17
5368.30632 1.63738e-17
5370.40412 1.65262e-17
5372.49159 1.68060e-17
5374.57906 1.65163e-17
5376.67686 1.62372e-17
5378.76433 1.65325e-17
5380.86213 1.64267e-17
5382.94960 1.64928e-17
5385.03707 1.67386e-17
5387.12453 1.64943e-17
5389.22234 1.63694e-17
5391.30980 1.63373e-17
5393.39727 1.60638e-17
5395.48474 1.58351e-17
5397.57221 1.60334e-17
5399.67001 1.63836e-17
5401.75748 1.58439e-17
5403.84495 1.57886e-17
5405.93241 1.61543e-17
5408.03022 1.60911e-17
5410.11768 1.57322e-17
5412.20515 1.58401e-17
5414.29262 1.59018e-17
5416.39042 1.62536e-17
5418.47789 1.62228e-17
5420.56536 1.60909e-17
5422.65283 1.59636e-17
5424.75063 1.60051e-17
5426.83810 1.59057e-17
5428.92556 1.59742e-17
5431.01303 1.60469e-17
5433.10050 1.58009e-17
5435.19830 1.59353e-17
5437.28577 1.58553e-17
5439.38357 1.56902e-17
5441.47104 1.58957e-17
5443.56884 1.58999e-17
5445.65631 1.57758e-17
5447.74378 1.57454e-17
5449.83125 1.60718e-17
5451.91871 1.57565e-17
5454.01652 1.56085e-17
5456.10398 1.59016e-17
5458.19145 1.58419e-17
5460.27892 1.59023e-17
5462.37672 1.61942e-17
5464.46419 1.56784e-17
5466.55166 1.54729e-17
5468.63913 1.57207e-17
5470.73693 1.58113e-17
5472.82440 1.59061e-17
5474.91186 1.58689e-17
5476.99933 1.58560e-17
5479.08680 1.56897e-17
5481.18460 1.55262e-17
5483.27207 1.56080e-17
5485.35954 1.54033e-17
5487.44701 1.57259e-17
5489.54481 1.57131e-17
5491.63228 1.54648e-17
5493.71974 1.54306e-17
5495.80721 1.52264e-17
5497.90501 1.57459e-17
5499.99248 1.54972e-17
5502.09028 1.53360e-17
5504.17775 1.53508e-17
5506.26522 1.52225e-17
5508.36302 1.51602e-17
5510.45049 1.52762e-17
5512.53796 1.51883e-17
5514.62543 1.55231e-17
5516.72323 1.53317e-17
5518.81070 1.52046e-17
5520.89816 1.56255e-17
5522.98563 1.59024e-17
5525.07310 1.57146e-17
5527.17090 1.54748e-17
5529.25837 1.54810e-17
5531.34584 1.54599e-17
5533.43331 1.55216e-17
5535.53111 1.52482e-17
5537.61858 1.55843e-17
5539.70604 1.54252e-17
5541.79351 1.56571e-17
5543.89131 1.52938e-17
5545.97878 1.52882e-17
5548.06625 1.52010e-17
5550.15372 1.51061e-17
5552.24119 1.52902e-17
5554.33899 1.52659e-17
5556.42646 1.54404e-17
5558.51392 1.51664e-17
5560.60139 1.53222e-17
5562.69919 1.50825e-17
5564.79700 1.56487e-17
5566.88446 1.52385e-17
5568.97193 1.55153e-17
5571.05940 1.59427e-17
5573.15720 1.51839e-17
5575.24467 1.53122e-17
5577.33214 1.47845e-17
5579.41961 1.46608e-17
5581.51741 1.48094e-17
5583.60488 1.50019e-17
5585.69234 1.50972e-17
5587.77981 1.50318e-17
5589.87761 1.49166e-17
5591.96508 1.50058e-17
5594.05255 1.45465e-17
5596.14002 1.49387e-17
5598.22749 1.51476e-17
5600.32529 1.47932e-17
5602.41276 1.47129e-17
5604.50022 1.48611e-17
5606.58769 1.44920e-17
5608.68549 1.48876e-17
5610.77296 1.50212e-17
5612.86043 1.48073e-17
5614.94790 1.47685e-17
5617.04570 1.45103e-17
5619.13317 1.47110e-17
5621.22064 1.44194e-17
5623.30810 1.44262e-17
5625.39557 1.46889e-17
5627.50371 1.47669e-17
5629.59118 1.46971e-17
5631.67864 1.44463e-17
5633.76611 1.45536e-17
5635.86391 1.47220e-17
5637.95138 1.47966e-17
5640.03885 1.50142e-17
5642.12632 1.46080e-17
5644.21379 1.43385e-17
5646.31159 1.42968e-17
5648.39906 1.45879e-17
5650.48652 1.47727e-17
5652.57399 1.46280e-17
5654.67179 1.46406e-17
5656.75926 1.48502e-17
5658.84673 1.46222e-17
5660.93420 1.44737e-17
5663.03200 1.43845e-17
5665.11947 1.46615e-17
5667.20694 1.42947e-17
5669.29440 1.45499e-17
5671.38187 1.43725e-17
5673.47967 1.46874e-17
5675.56714 1.44685e-17
5677.65461 1.40599e-17
5679.74208 1.40369e-17
5681.83988 1.41345e-17
5683.92735 1.39584e-17
5686.01482 1.41109e-17
5688.10228 1.42781e-17
5690.20009 1.42401e-17
5692.28755 1.45168e-17
5694.38536 1.39707e-17
5696.47282 1.41345e-17
5698.56029 1.39183e-17
5700.65809 1.39020e-17
5702.74556 1.38966e-17
5704.83303 1.38281e-17
5706.92050 1.38227e-17
5709.01830 1.42223e-17
5711.10577 1.35917e-17
5713.19324 1.37295e-17
5715.28070 1.40253e-17
5717.37851 1.37329e-17
5719.46597 1.37681e-17
5721.55344 1.34197e-17
5723.64091 1.37210e-17
5725.72838 1.39371e-17
5727.82618 1.38516e-17
5729.91365 1.37331e-17
5732.00112 1.37122e-17
5734.08858 1.38174e-17
5736.18639 1.38244e-17
5738.27385 1.36081e-17
5740.36132 1.35229e-17
5742.44879 1.38398e-17
5744.54659 1.38699e-17
5746.63406 1.37362e-17
5748.72153 1.37333e-17
5750.80900 1.36426e-17
5752.89646 1.33437e-17
5754.99427 1.34454e-17
5757.09207 1.35209e-17
5759.17954 1.36620e-17
5761.26700 1.35229e-17
5763.36481 1.34150e-17
5765.45227 1.32080e-17
5767.53974 1.34532e-17
5769.62721 1.32389e-17
5771.71468 1.32437e-17
5773.81248 1.32780e-17
5775.89995 1.30959e-17
5777.98742 1.29869e-17
5780.07488 1.29828e-17
5782.17269 1.32890e-17
5784.26015 1.32971e-17
5786.34762 1.32110e-17
5788.43509 1.33828e-17
5790.53289 1.34873e-17
5792.62036 1.30947e-17
5794.70783 1.29320e-17
5796.79530 1.30914e-17
5798.88276 1.33380e-17
5800.98057 1.36449e-17
5803.06803 1.33297e-17
5805.15550 1.32039e-17
5807.24297 1.33744e-17
5809.34077 1.26085e-17
5811.42824 1.28964e-17
5813.51571 1.29682e-17
5815.60318 1.33601e-17
5817.70098 1.30702e-17
5819.79878 1.26305e-17
5821.88625 1.27869e-17
5823.97372 1.28073e-17
5826.06118 1.27383e-17
5828.15899 1.29580e-17
5830.24645 1.30248e-17
5832.33392 1.32499e-17
5834.42139 1.31151e-17
5836.51919 1.30639e-17
5838.60666 1.30104e-17
5840.69413 1.24828e-17
5842.78160 1.30421e-17
5844.86906 1.26147e-17
5846.96687 1.29109e-17
5849.05433 1.27076e-17
5851.14180 1.24703e-17
5853.22927 1.26933e-17
5855.32707 1.28336e-17
5857.41454 1.25828e-17
5859.50201 1.26923e-17
5861.58948 1.27217e-17
5863.68728 1.25795e-17
5865.77475 1.26662e-17
5867.86221 1.28055e-17
5869.94968 1.27176e-17
5872.03715 1.26725e-17
5874.13495 1.26437e-17
5876.22242 1.27287e-17
5878.30989 1.24536e-17
5880.39736 1.22756e-17
5882.50549 1.22864e-17
5884.59296 1.20505e-17
5886.68043 1.21791e-17
5888.76790 1.18853e-17
5890.85536 1.16585e-17
5892.95317 1.15430e-17
5895.04063 1.18690e-17
5897.12810 1.17994e-17
5899.21557 1.17694e-17
5901.31337 1.19260e-17
5903.40084 1.20311e-17
5905.48831 1.18305e-17
5907.57578 1.17715e-17
5909.67358 1.19570e-17
5911.76105 1.19615e-17
5913.84851 1.19740e-17
5915.93598 1.18452e-17
5918.02345 1.19750e-17
5920.12125 1.22459e-17
5922.20872 1.17746e-17
5924.29619 1.15626e-17
5926.38366 1.20099e-17
5928.48146 1.16913e-17
5930.56893 1.18546e-17
5932.65639 1.19337e-17
5934.74386 1.16258e-17
5936.84166 1.20260e-17
5938.92913 1.20690e-17
5941.01660 1.19462e-17
5943.10407 1.17227e-17
5945.20187 1.17106e-17
5947.29967 1.14697e-17
5949.38714 1.15231e-17
5951.47461 1.13424e-17
5953.56208 1.16044e-17
5955.65988 1.15946e-17
5957.74735 1.15490e-17
5959.83481 1.12551e-17
5961.92228 1.16979e-17
5964.02008 1.16914e-17
5966.10755 1.12781e-17
5968.19502 1.13156e-17
5970.28249 1.13801e-17
5972.36996 1.14175e-17
5974.46776 1.14070e-17
5976.55523 1.13926e-17
5978.64269 1.12318e-17
5980.73016 1.12978e-17
5982.82796 1.13678e-17
5984.91543 1.15220e-17
5987.00290 1.14846e-17
5989.09037 1.14781e-17
5991.18817 1.12031e-17
5993.27564 1.12731e-17
5995.36311 1.12706e-17
5997.45057 1.13468e-17
5999.53804 1.12746e-17
6001.63584 1.12960e-17
6003.72331 1.10517e-17
6005.81078 1.11398e-17
6007.89825 1.13388e-17
6010.00638 1.12936e-17
6012.09385 1.14989e-17
6014.18132 1.14782e-17
6016.26879 1.12263e-17
6018.35626 1.10173e-17
6020.45406 1.10957e-17
6022.54153 1.12604e-17
6024.62899 1.09828e-17
6026.71646 1.11324e-17
6028.81426 1.12842e-17
6030.90173 1.11412e-17
6032.98920 1.10843e-17
6035.07667 1.13538e-17
6037.17447 1.13760e-17
6039.26194 1.09725e-17
6041.34941 1.09652e-17
6043.43687 1.09579e-17
6045.52434 1.09507e-17
6047.62214 1.09434e-17
6049.70961 1.09361e-17
6051.79708 1.09289e-17
6053.88455 1.09216e-17
6055.98235 1.09144e-17
6058.06982 1.09071e-17
6060.15729 1.08999e-17
6062.24475 1.08926e-17
6064.33222 1.08854e-17
6066.43002 1.08781e-17
6068.51749 1.08709e-17
6070.60496 1.08637e-17
6072.70276 1.08564e-17
6074.80056 1.08492e-17
6076.88803 1.08420e-17
6078.97550 1.08348e-17
6081.06297 1.08276e-17
6083.16077 1.08204e-17
6085.24824 1.08132e-17
6087.33571 1.08060e-17
6089.42317 1.07988e-17
6091.51064 1.07916e-17
6093.60844 1.07844e-17
6095.69591 1.07772e-17
6097.78338 1.07700e-17
6099.87085 1.07629e-17
6101.96865 1.07557e-17
6104.05612 1.07485e-17
6106.14359 1.09076e-17
6108.23105 1.07576e-17
6110.32886 1.09792e-17
6112.41632 1.07080e-17
6114.50379 1.10093e-17
6116.59126 1.11322e-17
6118.67873 1.06689e-17
6120.77653 1.06177e-17
6122.86400 1.07085e-17
6124.95147 1.09095e-17
6127.03893 1.08839e-17
6129.13674 1.06196e-17
6131.22420 1.05746e-17
6133.31167 1.08097e-17
6135.40947 1.09550e-17
6137.49694 1.09154e-17
6139.59474 1.06935e-17
6141.68221 1.05169e-17
6143.76968 1.07361e-17
6145.85715 1.07286e-17
6147.95495 1.06144e-17
6150.04242 1.07564e-17
6152.12989 1.10244e-17
6154.21735 1.09888e-17
6156.31516 1.07541e-17
6158.40262 1.08578e-17
6160.49009 1.07935e-17
6162.57756 1.07604e-17
6164.66503 1.07498e-17
6166.76283 1.07322e-17
6168.85030 1.05725e-17
6170.93777 1.07126e-17
6173.02523 1.07556e-17
6175.12304 1.06822e-17
6177.21050 1.06863e-17
6179.29797 1.07106e-17
6181.38544 1.06055e-17
6183.48324 1.06996e-17
6185.57071 1.04039e-17
6187.65818 1.07328e-17
6189.74565 1.05666e-17
6191.83311 1.08944e-17
6193.93092 1.06625e-17
6196.01838 1.06814e-17
6198.11619 1.06059e-17
6200.20365 1.03911e-17
6202.30146 1.05941e-17
6204.38892 1.06092e-17
6206.47639 1.06196e-17
6208.56386 1.03270e-17
6210.66166 1.06403e-17
6212.74913 1.07727e-17
6214.83660 1.06093e-17
6216.92407 1.05472e-17
6219.01153 1.05352e-17
6221.10934 1.05973e-17
6223.19680 1.06894e-17
6225.28427 1.07129e-17
6227.37174 1.07942e-17
6229.46954 1.08137e-17
6231.55701 1.07339e-17
6233.64448 1.07489e-17
6235.73195 1.07376e-17
6237.82975 1.08149e-17
6239.91722 1.06605e-17
6242.00468 1.06139e-17
6244.09215 1.08128e-17
6246.17962 1.09846e-17
6248.27742 1.08049e-17
6250.36489 1.07261e-17
6252.45236 1.07917e-17
6254.53983 1.08681e-17
6256.63763 1.10243e-17
6258.72510 1.09248e-17
6260.82290 1.06916e-17
6262.91037 1.08048e-17
6264.99783 1.07092e-17
6267.09564 1.02193e-17
6269.18310 1.05273e-17
6271.27057 1.03529e-17
6273.35804 1.04461e-17
6275.45584 1.02764e-17
6277.54331 1.02730e-17
6279.63078 1.04527e-17
6281.71825 1.01652e-17
6283.81605 1.01458e-17
6285.90352 1.04333e-17
6287.99098 1.04421e-17
6290.07845 1.06170e-17
6292.16592 1.07336e-17
6294.26372 1.02040e-17
6296.35119 1.07534e-17
6298.43866 1.10701e-17
6300.52613 1.08465e-17
6302.62393 1.05031e-17
6304.71140 1.02951e-17
6306.79886 1.04360e-17
6308.88633 1.06479e-17
6310.98413 1.04285e-17
6313.07160 1.05952e-17
6315.15907 1.08168e-17
6317.24654 1.06547e-17
6319.33401 1.04660e-17
6321.43181 1.05609e-17
6323.52961 1.08760e-17
6325.60674 1.08855e-17
6327.70455 1.06238e-17
6329.80235 1.07308e-17
6331.88982 1.07822e-17
6333.97728 1.08137e-17
6336.06475 1.09715e-17
6338.16255 1.08372e-17
6340.25002 1.08733e-17
6342.33749 1.09124e-17
6344.42496 1.06923e-17
6346.51243 1.07709e-17
6348.61023 1.07492e-17
6350.69770 1.09015e-17
6352.78516 1.10347e-17
6354.87263 1.06676e-17
6356.97043 1.08858e-17
6359.05790 1.07336e-17
6361.14537 1.10131e-17
6363.23284 1.09391e-17
6365.32031 1.09311e-17
6367.41811 1.12353e-17
6369.50558 1.09666e-17
6371.59304 1.07048e-17
6373.68051 1.09687e-17
6375.77831 1.07782e-17
6377.86578 1.06695e-17
6379.95325 1.07328e-17
6382.04072 1.09056e-17
6384.13852 1.08689e-17
6386.22599 1.05977e-17
6388.31346 1.07229e-17
6390.41126 1.08480e-17
6392.49873 1.08718e-17
6394.59653 1.07761e-17
6396.68400 1.07629e-17
6398.77146 1.07874e-17
6400.85893 1.06277e-17
6402.95673 1.07489e-17
6405.04420 1.07387e-17
6407.13167 1.08220e-17
6409.21914 1.08488e-17
6411.30661 1.08130e-17
6413.40441 1.05902e-17
6415.49188 1.04451e-17
6417.57934 1.07146e-17
6419.66681 1.05741e-17
6421.76461 1.08727e-17
6423.85208 1.08445e-17
6425.93955 1.10864e-17
6428.02702 1.06217e-17
6430.12482 1.08297e-17
6432.21229 1.06383e-17
6434.29976 1.07281e-17
6436.38722 1.09398e-17
6438.47469 1.04996e-17
6440.57249 1.09111e-17
6442.65996 1.07485e-17
6444.74743 1.08727e-17
6446.83490 1.06936e-17
6448.93270 1.05596e-17
6451.02017 1.06996e-17
6453.11797 1.05507e-17
6455.20544 1.04469e-17
6457.30324 1.05696e-17
6459.39071 1.04680e-17
6461.47818 1.04969e-17
6463.56564 1.07140e-17
6465.65311 1.08590e-17
6467.75091 1.07499e-17
6469.83838 1.04949e-17
6471.92585 1.02812e-17
6474.01332 1.01680e-17
6476.11112 1.02448e-17
6478.19859 1.03994e-17
6480.28606 1.05914e-17
6482.37352 1.05596e-17
6484.47133 1.05339e-17
6486.55879 1.03571e-17
6488.64626 1.04577e-17
6490.73373 1.04941e-17
6492.82120 1.04564e-17
6494.91900 1.03867e-17
6497.00647 1.04827e-17
6499.09394 1.02152e-17
6501.18140 1.04634e-17
6503.27921 1.04877e-17
6505.36667 1.04643e-17
6507.45414 1.04707e-17
6509.54161 1.03601e-17
6511.63941 1.05320e-17
6513.72688 1.06047e-17
6515.82468 1.08650e-17
6517.91215 1.06539e-17
6519.99962 1.02850e-17
6522.09742 1.05013e-17
6524.18489 1.05271e-17
6526.27236 1.04427e-17
6528.35982 1.06544e-17
6530.45763 1.02123e-17
6532.54509 1.03920e-17
6534.63256 1.01695e-17
6536.72003 1.01432e-17
6538.80750 1.03651e-17
6540.90530 1.03107e-17
6542.99277 1.02525e-17
6545.08024 1.02715e-17
6547.16770 1.02453e-17
6549.26551 1.03519e-17
6551.35297 1.02849e-17
6553.44044 1.01340e-17
6555.52791 1.01849e-17
6557.62571 1.03923e-17
6559.71318 1.05277e-17
6561.80065 1.01583e-17
6563.88812 1.01744e-17
6565.97558 1.04178e-17
6568.07339 1.04301e-17
6570.16085 1.04787e-17
6572.24832 1.04673e-17
6574.33579 1.01999e-17
6576.43359 1.01523e-17
6578.53139 1.03184e-17
6580.61886 1.02842e-17
6582.70633 1.03379e-17
6584.80413 1.02246e-17
6586.89160 1.01526e-17
6588.97907 1.04449e-17
6591.06654 1.01972e-17
6593.15400 1.03446e-17
6595.25181 1.01901e-17
6597.33927 1.02710e-17
6599.42674 1.01660e-17
6601.51421 1.00375e-17
6603.61201 1.01773e-17
6605.69948 9.97214e-18
6607.78695 1.00855e-17
6609.87442 1.00867e-17
6611.96188 1.00740e-17
6614.05969 1.01239e-17
6616.14715 1.01862e-17
6618.23462 1.01426e-17
6620.32209 9.89945e-18
6622.41989 9.89192e-18
6624.50736 1.00418e-17
6626.59483 1.01181e-17
6628.68230 1.01429e-17
6630.78010 1.00647e-17
6632.86757 9.99763e-18
6634.95503 9.81081e-18
6637.04250 9.89443e-18
6639.12997 1.02056e-17
6641.22777 1.00534e-17
6643.32557 1.00539e-17
6645.41304 1.00280e-17
6647.50051 1.00828e-17
6649.59831 1.01464e-17
6651.68578 9.88367e-18
6653.77325 9.98982e-18
6655.86072 9.77995e-18
6657.94818 9.76664e-18
6660.04599 1.00962e-17
6662.13345 9.84981e-18
6664.22092 1.01455e-17
6666.30839 1.00816e-17
6668.40619 9.80106e-18
6670.49366 9.96552e-18
6672.58113 9.96678e-18
6674.66860 1.02811e-17
6676.76640 9.88963e-18
6678.85387 9.95304e-18
6680.94133 1.02971e-17
6683.02880 1.02120e-17
6685.11627 9.98608e-18
6687.21407 1.01078e-17
6689.30154 9.92796e-18
6691.38901 9.97889e-18
6693.47648 9.97139e-18
6695.57428 9.61441e-18
6697.66175 9.63909e-18
6699.74921 9.75489e-18
6701.83668 9.79340e-18
6703.93448 9.80199e-18
6706.03229 9.78941e-18
6708.11975 9.86432e-18
6710.20722 9.71336e-18
6712.29469 9.59889e-18
6714.39249 9.68829e-18
6716.47996 9.62194e-18
6718.56743 9.63999e-18
6720.65490 9.56057e-18
6722.75270 9.69501e-18
6724.84017 9.42438e-18
6726.92763 9.58643e-18
6729.01510 9.54777e-18
6731.11290 9.69229e-18
6733.20037 9.75026e-18
6735.28784 9.71814e-18
6737.37531 9.04996e-18
6739.46278 9.51093e-18
6741.56058 9.51809e-18
6743.64805 9.44253e-18
6745.73551 9.34449e-18
6747.82298 9.45176e-18
6749.92078 9.44027e-18
6752.00825 9.42878e-18
6754.09572 9.41730e-18
6756.18319 9.40582e-18
6758.28099 9.39434e-18
6760.36846 9.38286e-18
6762.45593 9.37139e-18
6764.54339 9.35991e-18
6766.63086 9.34844e-18
6768.73900 9.33692e-18
6770.82647 9.32546e-18
6772.91393 9.31400e-18
6775.00140 9.30254e-18
6777.09920 9.29108e-18
6779.18667 9.27963e-18
6781.27414 9.26817e-18
6783.36161 9.25673e-18
6785.44908 9.24528e-18
6787.54688 9.24741e-18
6789.63435 9.24954e-18
6791.72181 9.25167e-18
6793.80928 9.25380e-18
6795.90708 9.25592e-18
6797.99455 9.25805e-18
6800.08202 9.26018e-18
6802.16949 9.26230e-18
6804.26729 9.26443e-18
6806.35476 9.26655e-18
6808.44223 9.26867e-18
6810.52969 9.27080e-18
6812.61716 9.27292e-18
6814.71496 9.27504e-18
6816.80243 9.27716e-18
6818.88990 9.27928e-18
6820.97737 9.28140e-18
6823.07517 9.28352e-18
6825.16264 9.08358e-18
6827.25011 9.08647e-18
6829.33757 9.03613e-18
6831.43538 9.09284e-18
6833.53318 8.95925e-18
6835.62065 8.90755e-18
6837.70811 8.73243e-18
6839.79558 8.71739e-18
6841.89338 8.84805e-18
6843.98085 8.81147e-18
6846.06832 8.80428e-18
6848.15579 8.79710e-18
6850.25359 8.78991e-18
6852.34106 8.78273e-18
6854.42853 8.77555e-18
6856.51599 8.76837e-18
6858.61380 8.76119e-18
6860.70126 8.75401e-18
6862.78873 8.74684e-18
6864.87620 8.73966e-18
6866.96367 8.73249e-18
6869.06147 8.72532e-18
6871.14894 8.71815e-18
6873.23641 8.71098e-18
6875.32387 8.70381e-18
6877.42168 8.69665e-18
6879.50914 8.68948e-18
6881.59661 8.68232e-18
6883.68408 8.67516e-18
6885.77155 8.66800e-18
6887.86935 8.66084e-18
6889.95682 8.65368e-18
6892.04429 8.64653e-18
6894.13175 8.63937e-18
6896.23989 8.63219e-18
6898.32736 8.62503e-18
6900.41483 8.61788e-18
6902.50229 8.61073e-18
6904.60010 8.60359e-18
6906.68756 8.59644e-18
6908.77503 8.58929e-18
6910.86250 8.58215e-18
6912.94997 8.57501e-18
6915.04777 8.56787e-18
6917.13524 8.56073e-18
6919.22271 8.55359e-18
6921.31017 8.54645e-18
6923.40798 8.53932e-18
6925.49544 8.53218e-18
6927.58291 8.52505e-18
6929.67038 8.51792e-18
6931.75785 8.51079e-18
6933.85565 8.50366e-18
6935.94312 8.49653e-18
6938.03059 8.51500e-18
6940.11805 8.53347e-18
6942.21586 8.55193e-18
6944.30332 8.57039e-18
6946.39079 8.58884e-18
6948.47826 8.60730e-18
6950.57606 8.62574e-18
6952.66353 8.64418e-18
6954.75100 8.66262e-18
6956.83847 8.68104e-18
6958.93627 8.69956e-18
6961.03407 8.71798e-18
6963.12154 8.73640e-18
6965.20901 8.75481e-18
6967.29647 8.77322e-18
6969.39428 8.79162e-18
6971.48174 8.81001e-18
6973.56921 8.82841e-18
6975.65668 8.84680e-18
6977.75448 8.63980e-18
6979.84195 8.93782e-18
6981.92942 8.55727e-18
6984.01689 8.32579e-18
6986.10435 8.44939e-18
6988.20216 8.76976e-18
6990.28962 8.44809e-18
6992.37709 8.21197e-18
6994.46456 8.36999e-18
6996.56236 8.53854e-18
6998.64983 8.30323e-18
7000.73730 8.43576e-18
7002.82477 8.67530e-18
7004.92257 8.46901e-18
7007.01004 8.46484e-18
7009.09750 8.23897e-18
7011.18497 8.30311e-18
7013.27244 8.42488e-18
7015.37024 8.38767e-18
7017.45771 8.19158e-18
7019.54518 8.11794e-18
7021.64298 8.06462e-18
7023.74078 8.16947e-18
7025.82825 8.10635e-18
7027.91572 8.27225e-18
7030.00319 8.26462e-18
7032.09065 8.02604e-18
7034.18846 8.23461e-18
7036.27592 8.48589e-18
7038.36339 8.37021e-18
7040.45086 7.96214e-18
7042.54866 8.31705e-18
7044.63613 8.18398e-18
7046.72360 8.00052e-18
7048.81107 8.03498e-18
7050.90887 7.91674e-18
7052.99634 8.43227e-18
7055.08380 8.47572e-18
7057.17127 8.60591e-18
7059.25874 8.29034e-18
7061.35654 8.14914e-18
7063.44401 8.31712e-18
7065.53148 8.02560e-18
7067.61895 7.99569e-18
7069.71675 8.22505e-18
7071.80422 8.22444e-18
7073.89168 8.44387e-18
7075.97915 8.15203e-18
7078.07695 8.31408e-18
7080.16442 8.46283e-18
7082.25189 8.41680e-18
7084.34969 8.35753e-18
7086.42683 8.17067e-18
7088.53496 7.88974e-18
7090.62243 7.69472e-18
7092.70990 7.84475e-18
7094.79737 8.19892e-18
7096.89517 8.10772e-18
7098.98264 8.07648e-18
7101.07010 8.23748e-18
7103.15757 8.33987e-18
7105.24504 8.26892e-18
7107.34284 8.12634e-18
7109.43031 8.27812e-18
7111.51778 8.20583e-18
7113.60525 7.96813e-18
7115.70305 8.37073e-18
7117.79052 8.25819e-18
7119.87798 7.68508e-18
7121.96545 7.75337e-18
7124.06325 7.90768e-18
7126.15072 8.09459e-18
7128.23819 7.99889e-18
7130.32566 8.06564e-18
7132.41313 8.28843e-18
7134.51093 7.86057e-18
7136.59840 8.04516e-18
7138.68586 8.37592e-18
7140.77333 7.87004e-18
7142.87113 8.03717e-18
7144.95860 7.80799e-18
7147.04607 8.11629e-18
7149.13354 7.67330e-18
7151.23134 7.65754e-18
7153.32914 7.73665e-18
7155.41661 7.65936e-18
7157.50408 7.77364e-18
7159.59155 7.87893e-18
7161.68935 7.93923e-18
7163.77682 8.09693e-18
7165.86428 8.17096e-18
7167.95175 7.86775e-18
7170.04955 7.50459e-18
7172.13702 7.51932e-18
7174.22449 7.23168e-18
7176.31196 7.15951e-18
7178.40976 7.19985e-18
7180.49723 7.19255e-18
7182.58470 7.09630e-18
7184.67216 7.09387e-18
7186.75963 7.09212e-18
7188.85743 6.94360e-18
7190.94490 7.10723e-18
7193.03237 7.54767e-18
7195.11984 7.45286e-18
7197.21764 7.21900e-18
7199.30511 7.05274e-18
7201.39258 7.42533e-18
7203.48004 7.19715e-18
7205.56751 7.22081e-18
7207.66531 7.04648e-18
7209.75278 7.54033e-18
7211.84025 7.78110e-18
7213.93805 7.62941e-18
7216.03585 7.70373e-18
7218.12332 7.73754e-18
7220.21079 7.68484e-18
7222.29826 7.36375e-18
7224.39606 7.21852e-18
7226.48353 7.02054e-18
7228.57100 6.91523e-18
7230.65846 6.95193e-18
7232.74593 6.54817e-18
7234.84373 6.81933e-18
7236.93120 7.26060e-18
7239.01867 7.03134e-18
7241.10614 7.22277e-18
7243.20394 7.15388e-18
7245.29141 7.05694e-18
7247.37888 7.12364e-18
7249.46634 6.91937e-18
7251.56415 6.96617e-18
7253.65161 7.08415e-18
7255.73908 7.22599e-18
7257.82655 7.20438e-18
7259.91402 7.01465e-18
7262.01182 7.27251e-18
7264.09929 6.98045e-18
7266.18676 6.79742e-18
7268.27422 7.02545e-18
7270.37203 6.80314e-18
7272.45949 6.81332e-18
7274.54696 6.81982e-18
7276.64476 6.68824e-18
7278.73223 7.17149e-18
7280.83003 7.08727e-18
7282.91750 7.09778e-18
7285.00497 6.96041e-18
7287.09244 6.84631e-18
7289.19024 7.04142e-18
7291.27771 7.22687e-18
7293.36518 7.01002e-18
7295.45264 7.01575e-18
7297.55045 7.31331e-18
7299.63791 7.21156e-18
7301.72538 7.03225e-18
7303.81285 6.23989e-18
7305.90032 6.80111e-18
7307.99812 6.82249e-18
7310.08559 6.58659e-18
7312.17306 6.86054e-18
7314.26052 6.86156e-18
7316.35833 7.33297e-18
7318.44579 7.44110e-18
7320.53326 7.63799e-18
7322.62073 7.82265e-18
7324.71853 6.90931e-18
7326.80600 7.05539e-18
7328.89347 7.28811e-18
7330.98094 7.13994e-18
7333.06840 7.33936e-18
7335.16621 7.17635e-18
7337.25367 7.24090e-18
7339.35148 7.26890e-18
7341.43894 6.91315e-18
7343.53675 6.91141e-18
7345.62421 6.49411e-18
7347.71168 6.64549e-18
7349.79915 6.76561e-18
7351.88662 6.58337e-18
7353.98442 6.90617e-18
7356.07189 6.92472e-18
7358.15936 6.76969e-18
7360.24682 6.89292e-18
7362.34463 7.14299e-18
7364.43209 6.85840e-18
7366.51956 6.93632e-18
7368.60703 7.13493e-18
7370.70483 6.90050e-18
7372.79230 6.64132e-18
7374.87977 6.57705e-18
7376.96724 6.81582e-18
7379.05470 6.88821e-18
7381.15251 6.90130e-18
7383.23997 6.56941e-18
7385.32744 6.54617e-18
7387.41491 6.62402e-18
7389.51271 6.23471e-18
7391.60018 6.08208e-18
7393.68765 5.79384e-18
7395.77512 5.69650e-18
7397.87292 6.16854e-18
7399.96039 6.41383e-18
7402.04785 6.28296e-18
7404.14566 6.41475e-18
7406.23312 6.66678e-18
7408.33093 7.14139e-18
7410.41839 6.52788e-18
7412.50586 6.53861e-18
7414.59333 6.46986e-18
7416.69113 6.31537e-18
7418.77860 6.22119e-18
7420.86607 5.93799e-18
7422.95354 6.33329e-18
7425.04100 6.29280e-18
7427.13881 5.85194e-18
7429.22627 6.06701e-18
7431.31374 6.18263e-18
7433.40121 6.07778e-18
7435.49901 6.19188e-18
7437.58648 6.39346e-18
7439.67395 6.44296e-18
7441.76142 6.55841e-18
7443.85922 6.34665e-18
7445.94669 6.55567e-18
7448.03415 6.17591e-18
7450.12162 6.30209e-18
7452.20909 6.21890e-18
7454.30689 6.08681e-18
7456.39436 6.39424e-18
7458.48183 6.30964e-18
7460.56930 6.26049e-18
7462.66710 6.10810e-18
7464.75457 6.32801e-18
7466.85237 5.97354e-18
7468.93984 5.82375e-18
7471.03764 6.02306e-18
7473.12511 5.97506e-18
7475.21257 6.08802e-18
7477.30004 6.43503e-18
7479.38751 6.34780e-18
7481.48531 6.51737e-18
7483.57278 6.23032e-18
7485.66025 6.09272e-18
7487.74772 6.05564e-18
7489.84552 6.04680e-18
7491.93299 5.93695e-18
7494.02045 5.74048e-18
7496.10792 5.81452e-18
7498.19539 5.95566e-18
7500.29319 5.72859e-18
7502.38066 5.84333e-18
7504.46813 5.88860e-18
7506.55560 6.11248e-18
7508.65340 6.12934e-18
7510.74087 6.08164e-18
7512.82833 5.77869e-18
7514.91580 5.52359e-18
7516.60655 5.52359e-18
7518.72013 5.55284e-18
7520.84374 5.57150e-18
7522.96734 5.59014e-18
7525.08093 5.57817e-18
7527.20453 5.56620e-18
7529.31812 5.57359e-18
7531.44172 5.58099e-18
7533.55531 5.61912e-18
7535.67891 5.65726e-18
7537.80252 5.69099e-18
7539.91610 5.72471e-18
7542.03971 5.76460e-18
7544.15330 5.80448e-18
7546.27690 5.87200e-18
7548.39049 5.93950e-18
7550.51409 5.96964e-18
7552.63769 5.99977e-18
7554.75128 6.02990e-18
7556.87489 6.06002e-18
7558.98847 6.09015e-18
7561.11208 6.12026e-18
7563.22566 6.15037e-18
7565.34927 6.18049e-18
7567.47287 6.21059e-18
7569.58646 6.24070e-18
7571.71006 6.27080e-18
7573.82365 6.30090e-18
7575.94725 6.33099e-18
7578.06084 6.36108e-18
7580.18444 6.39116e-18
7582.30805 6.42125e-18
7584.42164 6.45132e-18
7586.54524 6.48140e-18
7588.65883 6.51147e-18
7590.78243 6.54155e-18
7592.89602 6.57161e-18
7595.01962 6.60168e-18
7597.14323 6.63173e-18
7599.25681 6.66180e-18
7601.38042 6.69184e-18
7603.49400 6.72189e-18
7605.61761 6.75193e-18
7607.73119 6.78198e-18
7609.85480 6.81201e-18
7611.97840 6.84205e-18
7614.09199 6.87208e-18
7616.21559 6.90211e-18
7618.32918 6.93213e-18
7620.45278 6.96215e-18
7622.56637 6.99217e-18
7624.68998 7.02218e-18
7626.81358 7.05220e-18
7628.92717 7.08220e-18
7631.05077 7.11221e-18
7633.16436 7.14220e-18
7635.28796 7.17220e-18
7637.40155 7.20219e-18
7639.52515 7.23218e-18
7641.64876 7.26217e-18
7643.76234 7.29215e-18
7645.88595 7.32213e-18
7647.99953 7.35211e-18
7650.12314 7.38207e-18
7652.23673 7.41205e-18
7654.36033 7.44201e-18
7656.48393 7.47198e-18
7658.59752 7.50193e-18
7660.72112 7.53189e-18
7662.83471 7.56183e-18
7664.95831 7.59179e-18
7667.07190 7.62173e-18
7669.19551 7.65167e-18
7671.31911 7.68160e-18
7673.43270 7.71154e-18
7675.55630 7.74147e-18
7677.66989 7.77140e-18
7679.79349 7.80132e-18
7681.90708 7.87077e-18
7684.03068 7.94022e-18
7686.15429 7.99434e-18
7688.26787 8.04844e-18
7690.39148 8.04932e-18
7692.50507 8.05021e-18
7694.62867 8.03029e-18
7696.74226 8.01036e-18
7698.86586 8.03701e-18
7700.98946 8.06366e-18
7703.10305 8.07958e-18
7705.22665 8.09551e-18
7707.34024 8.09605e-18
7709.46385 8.09658e-18
7711.57743 8.15388e-18
7713.70104 8.21118e-18
7715.82464 8.30227e-18
7717.93823 8.39335e-18
7720.06183 8.39899e-18
7722.17542 8.40464e-18
7724.29902 8.37784e-18
7726.41261 8.35106e-18
7728.53621 8.37032e-18
7730.65982 8.38958e-18
7732.77340 8.41174e-18
7734.89701 8.43390e-18
7737.01060 8.43953e-18
7739.13420 8.44516e-18
7741.24779 8.45532e-18
7743.37139 8.46547e-18
7745.49500 8.47627e-18
7747.60858 8.48706e-18
7749.73219 8.50044e-18
7751.84577 8.51381e-18
7753.96938 8.54961e-18
7756.08296 8.58539e-18
7758.20657 8.59838e-18
7760.33017 8.61138e-18
7762.44376 8.59470e-18
7764.56736 8.57803e-18
7766.68095 8.62498e-18
7768.80455 8.67191e-18
7770.91814 8.67922e-18
7773.04175 8.68653e-18
7775.16535 8.64923e-18
7777.27894 8.61194e-18
7779.40254 8.60197e-18
7781.51613 8.59201e-18
7783.63973 8.60282e-18
7785.75332 8.61364e-18
7787.87692 8.61427e-18
7790.00053 8.61490e-18
7792.11411 8.60684e-18
7794.23772 8.59876e-18
7796.35130 8.59314e-18
7798.47491 8.58752e-18
7800.58850 8.59830e-18
7802.71210 8.60908e-18
7804.83570 8.62633e-18
7806.94929 8.64357e-18
7809.07289 8.62344e-18
7811.18648 8.60332e-18
7813.31009 8.59406e-18
7815.42367 8.58480e-18
7817.54728 8.58448e-18
7819.67088 8.58416e-18
7821.78447 8.60878e-18
7823.90807 8.63340e-18
7826.02166 8.63307e-18
7828.14526 8.63275e-18
7830.25885 8.65114e-18
7832.38245 8.66953e-18
7834.50606 8.68791e-18
7836.61964 8.70629e-18
7838.74325 8.70596e-18
7840.85684 8.70563e-18
7842.98044 8.71176e-18
7845.09403 8.71787e-18
7847.21763 8.69238e-18
7849.34123 8.66690e-18
7851.45482 8.64786e-18
7853.57843 8.62883e-18
7855.69201 8.60356e-18
7857.81562 8.57830e-18
7859.92920 8.59293e-18
7862.05281 8.60756e-18
7864.17641 8.57995e-18
7866.29000 8.55234e-18
7868.41360 8.52170e-18
7870.52719 8.49108e-18
7872.65079 8.45936e-18
7874.76438 8.42763e-18
7876.88798 8.39662e-18
7879.01159 8.36562e-18
7881.12518 8.33695e-18
7883.24878 8.30829e-18
7885.36237 8.28420e-18
7887.48597 8.26011e-18
7889.59956 8.24035e-18
7891.72316 8.22060e-18
7893.84677 8.20290e-18
7895.96035 8.18522e-18
7898.08396 8.16762e-18
7900.19754 8.15004e-18
7902.32115 8.13051e-18
7904.43473 8.11100e-18
7906.55834 8.08969e-18
7908.68194 8.06839e-18
7910.79553 8.04491e-18
7912.91913 8.02143e-18
7915.03272 7.99565e-18
7917.15632 7.96987e-18
7919.26991 7.94088e-18
7921.39351 7.91190e-18
7923.51712 7.87899e-18
7925.63071 7.84609e-18
7927.75431 7.80840e-18
7929.86790 7.77072e-18
7931.99150 7.72851e-18
7934.10509 7.68631e-18
7936.22869 7.64062e-18
7938.35230 7.59493e-18
7940.46588 7.54670e-18
7942.58949 7.49847e-18
7944.70307 7.44859e-18
7946.82668 7.39873e-18
7948.94027 7.34731e-18
7951.06387 7.29590e-18
7953.18747 7.24323e-18
7955.30106 7.19057e-18
7957.42466 7.13698e-18
7959.53825 7.08340e-18
7961.66186 7.02873e-18
7963.77544 6.97406e-18
7965.89905 6.91817e-18
7968.02265 6.86227e-18
7970.13624 6.80501e-18
7972.25984 6.74776e-18
7974.37343 6.68915e-18
7976.49703 6.63056e-18
7978.61062 6.57080e-18
7980.73422 6.51105e-18
7982.85783 6.45024e-18
7984.97141 6.38943e-18
7987.09502 6.32797e-18
7989.20860 6.26650e-18
7991.33221 6.20607e-18
7993.44580 6.14566e-18
7995.56940 6.08762e-18
7997.69300 6.02960e-18
7999.80659 5.97545e-18
8001.93020 5.92129e-18
8004.04378 5.87141e-18
8006.16739 5.82155e-18
8008.28097 5.77626e-18
8010.40458 5.73096e-18
8012.52818 5.69079e-18
8014.64177 5.65063e-18
8016.76537 5.61479e-18
8018.87896 5.57896e-18
8021.00256 5.54600e-18
8023.11615 5.51304e-18
8025.23975 5.48140e-18
8027.36336 5.44976e-18
8029.47695 5.41827e-18
8031.60055 5.38679e-18
8033.71414 5.35654e-18
8035.83774 5.32630e-18
8037.95133 5.29775e-18
8040.07493 5.26921e-18
8042.19854 5.24314e-18
8044.31212 5.21708e-18
8046.43573 5.19268e-18
8048.54931 5.16827e-18
8050.67292 5.14481e-18
8052.78650 5.12135e-18
8054.91011 5.09824e-18
8057.03371 5.07514e-18
8059.14730 5.05161e-18
8061.27090 5.02808e-18
8063.38449 5.00339e-18
8065.50809 4.97870e-18
8067.62168 4.95210e-18
8069.74529 4.92551e-18
8071.86889 4.89659e-18
8073.98248 4.86765e-18
8076.10608 4.83681e-18
8078.21967 4.80597e-18
8080.34327 4.77352e-18
8082.46688 4.74109e-18
8084.58046 4.70724e-18
8086.70407 4.67339e-18
8088.81765 4.63978e-18
8090.94126 4.60616e-18
8093.05484 4.57414e-18
8095.17845 4.54211e-18
8097.29204 4.51392e-18
8099.41564 4.48573e-18
8101.53924 4.46050e-18
8103.65283 4.43527e-18
8105.77643 4.41106e-18
8107.89002 4.38686e-18
8110.01363 4.36168e-18
8112.12721 4.33650e-18
8114.25082 4.30933e-18
8116.37442 4.28216e-18
8118.48801 4.25556e-18
8120.61161 4.22898e-18
8122.72520 4.20449e-18
8124.84880 4.18001e-18
8126.96239 4.15964e-18
8129.08599 4.13927e-18
8131.20960 4.12197e-18
8133.32318 4.10467e-18
8135.44679 4.08972e-18
8137.56038 4.07477e-18
8139.68398 4.06142e-18
8141.79757 4.04805e-18
8143.92117 4.03562e-18
8146.04477 4.02317e-18
8148.15836 4.01107e-18
8150.28197 3.99897e-18
8152.39555 3.98636e-18
8154.51916 3.97375e-18
8156.63274 3.96034e-18
8158.75635 3.94694e-18
8160.87995 3.93396e-18
8162.99354 3.92097e-18
8165.11714 3.90927e-18
8167.23073 3.89758e-18
8169.35433 3.88836e-18
8171.46792 3.87915e-18
8173.59152 3.87139e-18
8175.71513 3.86363e-18
8177.82872 3.85667e-18
8179.95232 3.84972e-18
8182.06591 3.84267e-18
8184.18951 3.83563e-18
8186.30310 3.82876e-18
8188.42670 3.82190e-18
8190.55030 3.81582e-18
8192.66389 3.80974e-18
8194.78750 3.80485e-18
8196.90108 3.79995e-18
8199.02469 3.79695e-18
8201.14829 3.79394e-18
8203.26188 3.79410e-18
8205.38548 3.79426e-18
8207.49907 3.79856e-18
8209.62267 3.80285e-18
8211.73626 3.81213e-18
8213.85986 3.82141e-18
8215.97345 3.83561e-18
8218.09706 3.84981e-18
8220.22066 3.86861e-18
8222.33425 3.88741e-18
8224.45785 3.91138e-18
8226.57144 3.93533e-18
8228.69504 3.96117e-18
8230.80863 3.98701e-18
8232.93223 4.01077e-18
8235.05584 4.03454e-18
8237.16942 4.05204e-18
8239.29303 4.06953e-18
8241.40661 4.07894e-18
8243.53022 4.08834e-18
8245.65382 4.09273e-18
8247.76741 4.09712e-18
8249.89101 4.09841e-18
8252.00460 4.09969e-18
8254.12820 4.10020e-18
8256.24179 4.10070e-18
8258.36540 4.10269e-18
8260.48900 4.10467e-18
8262.60259 4.11029e-18
8264.72619 4.11592e-18
8266.83978 4.12821e-18
8268.96338 4.14051e-18
8271.07697 4.15827e-18
8273.20057 4.17604e-18
8275.31416 4.19715e-18
8277.43776 4.21825e-18
8279.56137 4.24065e-18
8281.67495 4.26304e-18
8283.79856 4.28495e-18
8285.91215 4.30687e-18
8288.03575 4.32743e-18
8290.14934 4.34798e-18
8292.27294 4.36598e-18
8294.39654 4.38398e-18
8296.51013 4.39825e-18
8298.63373 4.41253e-18
8300.74732 4.42559e-18
8302.87093 4.43864e-18
8304.99453 4.45241e-18
8307.10812 4.46620e-18
8309.23172 4.48326e-18
8311.34531 4.50031e-18
8313.46891 4.52077e-18
8315.58250 4.54124e-18
8317.70610 4.56475e-18
8319.82971 4.58826e-18
8321.94329 4.61486e-18
8324.06690 4.64144e-18
8326.18048 4.67028e-18
8328.30409 4.69911e-18
8330.41768 4.72831e-18
8332.54128 4.75751e-18
8334.65487 4.78530e-18
8336.77847 4.81309e-18
8338.90207 4.83764e-18
8341.01566 4.86217e-18
8343.13927 4.88532e-18
8345.25285 4.90846e-18
8347.37646 4.93140e-18
8349.50006 4.95433e-18
8351.61365 4.97908e-18
8353.73725 5.00382e-18
8355.85084 5.02956e-18
8357.97444 5.05529e-18
8360.08803 5.08101e-18
8362.21163 5.10672e-18
8364.32522 5.13135e-18
8366.44882 5.15597e-18
8368.57243 5.17952e-18
8370.68602 5.20308e-18
8372.80962 5.22707e-18
8374.92321 5.25106e-18
8377.04681 5.27645e-18
8379.17042 5.30184e-18
8381.28400 5.32961e-18
8383.40761 5.35738e-18
8385.52119 5.38867e-18
8387.64480 5.41994e-18
8389.75838 5.45565e-18
8391.88199 5.49134e-18
8393.99558 5.53323e-18
8396.11918 5.57512e-18
8398.24278 5.62074e-18
8400.35637 5.66636e-18
8402.47997 5.71307e-18
8404.59356 5.75979e-18
8406.71717 5.80411e-18
8408.83075 5.84844e-18
8410.95436 5.88997e-18
8413.07796 5.93150e-18
8415.19155 5.97335e-18
8417.31515 6.01519e-18
8419.42874 6.05936e-18
8421.55234 6.10355e-18
8423.67595 6.15211e-18
8425.78953 6.20067e-18
8427.91314 6.25224e-18
8430.02672 6.30380e-18
8432.15033 6.35754e-18
8434.26392 6.41129e-18
8436.38752 6.46672e-18
8438.51112 6.52214e-18
8440.62471 6.57650e-18
8442.74831 6.63085e-18
8444.86190 6.68141e-18
8446.98551 6.73196e-18
8449.09909 6.77541e-18
8451.22270 6.81887e-18
8453.33628 6.85452e-18
8455.45989 6.89015e-18
8457.58349 6.91984e-18
8459.69708 6.94952e-18
8461.82068 6.97458e-18
8463.93427 6.99962e-18
8466.05787 7.02164e-18
8468.17146 7.04366e-18
8470.29506 7.06376e-18
8472.41867 7.08385e-18
8474.53226 7.10332e-18
8476.65586 7.12278e-18
8478.76945 7.14316e-18
8480.89305 7.16353e-18
8483.01665 7.18463e-18
8485.13024 7.20574e-18
8487.25385 7.22719e-18
8489.36743 7.24865e-18
8491.49104 7.26996e-18
8493.60462 7.29125e-18
8495.72823 7.31197e-18
8497.85183 7.33267e-18
8499.96542 7.35249e-18
8502.08902 7.37229e-18
8504.20261 7.39076e-18
8506.32621 7.40922e-18
8508.43980 7.42592e-18
8510.56340 7.44261e-18
8512.68701 7.45669e-18
8514.80060 7.47079e-18
8516.92420 7.48168e-18
8519.03779 7.49258e-18
8521.16139 7.49966e-18
8523.27498 7.50675e-18
8525.39858 7.51029e-18
8527.51217 7.51383e-18
8529.63577 7.51429e-18
8531.75938 7.51476e-18
8533.87296 7.51225e-18
8535.99657 7.50974e-18
8538.11015 7.50563e-18
8540.23376 7.50152e-18
8542.35736 7.49792e-18
8544.47095 7.49433e-18
8546.59455 7.49322e-18
8548.70814 7.49210e-18
8550.83174 7.49496e-18
8552.94533 7.49781e-18
8555.06893 7.50310e-18
8557.19254 7.50839e-18
8559.30613 7.51515e-18
8561.42973 7.52190e-18
8563.54332 7.52914e-18
8565.66692 7.53637e-18
8567.78051 7.54220e-18
8569.90411 7.54801e-18
8572.02772 7.55072e-18
8574.14130 7.55342e-18
8576.26491 7.55040e-18
8578.37849 7.54738e-18
8580.50210 7.53949e-18
8582.61568 7.53161e-18
8584.73929 7.52184e-18
8586.86289 7.51208e-18
8588.97648 7.50288e-18
8591.10008 7.49369e-18
8593.21367 7.48722e-18
8595.33727 7.48076e-18
8597.45086 7.47672e-18
8599.57447 7.47267e-18
8601.68805 7.47116e-18
8603.81166 7.46966e-18
8605.93526 7.47110e-18
8608.04885 7.47255e-18
8610.17245 7.47382e-18
8612.28604 7.47508e-18
8614.40964 7.47327e-18
8616.53325 7.47145e-18
8618.64683 7.46314e-18
8620.77044 7.45482e-18
8622.88403 7.43906e-18
8625.00763 7.42331e-18
8627.12122 7.40077e-18
8629.24482 7.37823e-18
8631.36842 7.34910e-18
8633.48201 7.31997e-18
8635.60562 7.28530e-18
8637.71920 7.25064e-18
8639.84281 7.21403e-18
8641.95639 7.17743e-18
8644.08000 7.14197e-18
8646.19358 7.10652e-18
8648.31719 7.07571e-18
8650.44079 7.04491e-18
8652.55438 7.01869e-18
8654.67798 6.99246e-18
8656.79157 6.97059e-18
8658.91517 6.94871e-18
8661.02876 6.93132e-18
8663.15237 6.91394e-18
8665.27597 6.89917e-18
8667.38956 6.88440e-18
8669.51316 6.86953e-18
8671.62675 6.85466e-18
8673.75035 6.83693e-18
8675.87395 6.81919e-18
8677.98754 6.79655e-18
8680.11115 6.77390e-18
8682.22473 6.74723e-18
8684.34834 6.72056e-18
8686.46192 6.69022e-18
8688.58553 6.65989e-18
8690.70913 6.62635e-18
8692.82272 6.59282e-18
8694.94632 6.55819e-18
8697.05991 6.52357e-18
8699.18351 6.48985e-18
8701.29710 6.45614e-18
8703.42071 6.42585e-18
8705.53429 6.39556e-18
8707.65790 6.36917e-18
8709.78150 6.34278e-18
8711.89509 6.31983e-18
8714.01869 6.29686e-18
8716.13228 6.27703e-18
8718.25588 6.25720e-18
8720.37949 6.23984e-18
8722.49307 6.22248e-18
8724.61668 6.20633e-18
8726.73026 6.19018e-18
8728.85387 6.17405e-18
8730.96745 6.15790e-18
8733.09106 6.14044e-18
8735.21466 6.12298e-18
8737.32825 6.10370e-18
8739.45185 6.08441e-18
8741.56544 6.06287e-18
8743.68905 6.04133e-18
8745.80263 6.01704e-18
8747.92624 5.99274e-18
8750.04984 5.96615e-18
8752.16343 5.93955e-18
8754.28703 5.91153e-18
8756.40062 5.88351e-18
8758.52422 5.85495e-18
8760.63781 5.82639e-18
8762.76141 5.79828e-18
8764.88502 5.77017e-18
8766.99860 5.74351e-18
8769.12221 5.71685e-18
8771.23580 5.69268e-18
8773.35940 5.66851e-18
8775.47299 5.64794e-18
8777.59659 5.62738e-18
8779.72019 5.61024e-18
8781.83378 5.59311e-18
8783.95738 5.57933e-18
8786.07097 5.56555e-18
8788.19458 5.55462e-18
8790.30816 5.54369e-18
8792.43177 5.53619e-18
8794.54535 5.52870e-18
8796.66896 5.52541e-18
8798.79256 5.52213e-18
8800.90615 5.52358e-18
8803.02975 5.52503e-18
8805.14334 5.53134e-18
8807.26694 5.53764e-18
8809.39055 5.54805e-18
8811.50413 5.55846e-18
8813.62774 5.57235e-18
8815.74133 5.58624e-18
8817.86493 5.60314e-18
8819.97852 5.62004e-18
8822.10212 5.63671e-18
8824.22573 5.65338e-18
8826.33931 5.66720e-18
8828.46292 5.68103e-18
8830.57650 5.68876e-18
8832.70011 5.69648e-18
8834.81369 5.69839e-18
8836.93730 5.70031e-18
8839.05088 5.69784e-18
8841.17449 5.69537e-18
8843.29809 5.68941e-18
8845.41168 5.68345e-18
8847.53528 5.67591e-18
8849.64887 5.66836e-18
8851.77247 5.66280e-18
8853.89608 5.65724e-18
8856.00967 5.65676e-18
8858.13327 5.65627e-18
8860.24686 5.66422e-18
8862.37046 5.67218e-18
8864.48405 5.68476e-18
8866.60765 5.69733e-18
8868.73126 5.71154e-18
8870.84484 5.72576e-18
8872.96845 5.73791e-18
8875.08203 5.75007e-18
8877.20564 5.75828e-18
8879.31923 5.76650e-18
8881.44283 5.76936e-18
8883.56643 5.77222e-18
8885.68002 5.76822e-18
8887.80362 5.76421e-18
8889.91721 5.75259e-18
8892.04082 5.74096e-18
8894.15440 5.72202e-18
8896.27801 5.70307e-18
8898.39159 5.67712e-18
8900.51520 5.65117e-18
8902.63880 5.61854e-18
8904.75239 5.58592e-18
8906.87599 5.55201e-18
8908.98958 5.51811e-18
8911.11318 5.48724e-18
8913.23679 5.45637e-18
8915.35037 5.43435e-18
8917.47398 5.41234e-18
8919.58757 5.39775e-18
8921.71117 5.38316e-18
8923.82476 5.37315e-18
8925.94836 5.36314e-18
8928.07196 5.35544e-18
8930.18555 5.34774e-18
8932.30916 5.33952e-18
8934.42274 5.33131e-18
8936.54635 5.31944e-18
8938.65993 5.30758e-18
8940.78354 5.28896e-18
8942.90714 5.27035e-18
8945.02073 5.24202e-18
8947.14433 5.21369e-18
8949.25792 5.18099e-18
8951.38152 5.14830e-18
8953.49511 5.11539e-18
8955.61871 5.08248e-18
8957.74232 5.05411e-18
8959.85591 5.02573e-18
8961.97951 5.00462e-18
8964.09310 4.98350e-18
8966.21670 4.97168e-18
8968.33029 4.95984e-18
8970.45389 4.96021e-18
8972.57750 4.96056e-18
8974.69108 4.97251e-18
8976.81469 4.98445e-18
8978.92827 5.00292e-18
8981.05188 5.02139e-18
8983.16546 5.04213e-18
8985.28907 5.06287e-18
8987.41267 5.08125e-18
8989.52626 5.09962e-18
8991.64986 5.11492e-18
8993.76345 5.13022e-18
8995.88705 5.14113e-18
8998.00064 5.15203e-18
9000.12425 5.15735e-18
9002.24785 5.16266e-18
9004.36144 5.16261e-18
9006.48504 5.16255e-18
9008.59863 5.15785e-18
9010.72223 5.15314e-18
9012.83582 5.14487e-18
9014.95942 5.13661e-18
9017.08303 5.12601e-18
9019.19661 5.11541e-18
9021.32022 5.10372e-18
9023.43380 5.09202e-18
9025.55741 5.08046e-18
9027.67100 5.06890e-18
9029.79460 5.05864e-18
9031.90819 5.04837e-18
9034.03179 5.04274e-18
9036.15539 5.03709e-18
9038.26898 5.03847e-18
9040.39258 5.03984e-18
9042.50617 5.05143e-18
9044.62978 5.06301e-18
9046.75338 5.08210e-18
9048.86697 5.10118e-18
9050.99057 5.12437e-18
9053.10416 5.14757e-18
9055.22776 5.17195e-18
9057.34135 5.19633e-18
9059.46495 5.21826e-18
9061.58856 5.24019e-18
9063.70214 5.25577e-18
9065.82575 5.27134e-18
9067.93933 5.27652e-18
9070.06294 5.28171e-18
9072.17653 5.27333e-18
9074.30013 5.26495e-18
9076.42373 5.25052e-18
9078.53732 5.23609e-18
9080.66093 5.22104e-18
9082.77451 5.20598e-18
9084.89812 5.19782e-18
9087.01170 5.18965e-18
9089.13531 5.18730e-18
9091.25891 5.18473e-18
9093.37250 5.18680e-18
9095.49610 5.18887e-18
9097.60969 5.19416e-18
9099.73329 5.19946e-18
9101.84688 5.20673e-18
9103.97048 5.21399e-18
9106.09409 5.22211e-18
9108.20767 5.23023e-18
9110.33128 5.23757e-18
9112.44487 5.24489e-18
9114.56847 5.25001e-18
9116.68206 5.25512e-18
9118.80566 5.26011e-18
9120.92927 5.26508e-18
9123.04285 5.27119e-18
9125.16646 5.27729e-18
9127.28004 5.28665e-18
9129.40365 5.29602e-18
9131.51723 5.30667e-18
9133.64084 5.31731e-18
9135.76444 5.32736e-18
9137.87803 5.33741e-18
9140.00163 5.34469e-18
9142.11522 5.35195e-18
9144.23882 5.35593e-18
9146.35241 5.35991e-18
9148.47602 5.36141e-18
9150.59962 5.36290e-18
9152.71321 5.36237e-18
9154.83681 5.36185e-18
9156.95040 5.35998e-18
9159.07400 5.35811e-18
9161.18759 5.35546e-18
9163.31119 5.35282e-18
9165.43480 5.35009e-18
9167.54838 5.34738e-18
9169.67199 5.34518e-18
9171.78557 5.34299e-18
9173.90918 5.34229e-18
9176.02277 5.34158e-18
9178.14637 5.34315e-18
9180.26997 5.34472e-18
9182.38356 5.34960e-18
9184.50716 5.35448e-18
9186.62075 5.36229e-18
9188.74436 5.37010e-18
9190.85794 5.37947e-18
9192.98155 5.38885e-18
9195.10515 5.39851e-18
9197.21874 5.40817e-18
9199.34234 5.41687e-18
9201.45593 5.42558e-18
9203.57953 5.43332e-18
9205.69312 5.44105e-18
9207.81672 5.44743e-18
9209.94033 5.45381e-18
9212.05391 5.45843e-18
9214.17752 5.46305e-18
9216.29111 5.46545e-18
9218.41471 5.46784e-18
9220.52830 5.46750e-18
9222.65190 5.46716e-18
9224.77550 5.46397e-18
9226.88909 5.46078e-18
9229.01270 5.45354e-18
9231.12628 5.44631e-18
9233.24989 5.43336e-18
9235.36347 5.42039e-18
9237.48708 5.40043e-18
9239.61068 5.38048e-18
9241.72427 5.35267e-18
9243.84787 5.32487e-18
9245.96146 5.28959e-18
9248.08506 5.25431e-18
9250.19865 5.21203e-18
9252.32225 5.16976e-18
9254.44586 5.12056e-18
9256.55945 5.07136e-18
9258.68305 5.01990e-18
9260.79664 4.96845e-18
9262.92024 4.91901e-18
9265.03383 4.86957e-18
9267.15743 4.82758e-18
9269.27102 4.78559e-18
9271.39462 4.75201e-18
9273.51823 4.71844e-18
9275.63181 4.69202e-18
9277.75542 4.66559e-18
9279.86900 4.64496e-18
9281.99261 4.62432e-18
9284.11621 4.60835e-18
9286.22980 4.59238e-18
9288.35340 4.58324e-18
9290.46699 4.57410e-18
9292.59059 4.57263e-18
9294.70418 4.57117e-18
9296.82778 4.57973e-18
9298.95139 4.58829e-18
9301.06498 4.59893e-18
9303.18858 4.60956e-18
9305.30217 4.61591e-18
9307.42577 4.62225e-18
9309.53936 4.61517e-18
9311.66296 4.60809e-18
9313.78657 4.58987e-18
9315.90015 4.57165e-18
9318.02376 4.54938e-18
9320.13734 4.52712e-18
9322.26095 4.50667e-18
9324.37453 4.48623e-18
9326.49814 4.47278e-18
9328.62174 4.45933e-18
9330.73533 4.45378e-18
9332.85893 4.44824e-18
9334.97252 4.45268e-18
9337.09613 4.45713e-18
9339.20971 4.47481e-18
9341.33332 4.49250e-18
9343.45692 4.51493e-18
9345.57051 4.53737e-18
9347.69411 4.55777e-18
9349.80770 4.57818e-18
9351.93130 4.58475e-18
9354.04489 4.59130e-18
9356.16849 4.58948e-18
9358.29210 4.58765e-18
9360.40568 4.58837e-18
9362.52929 4.58910e-18
9364.64287 4.60271e-18
9366.76648 4.61633e-18
9368.88007 4.64808e-18
9371.00367 4.67983e-18
9373.12727 4.71833e-18
9375.24086 4.75683e-18
9377.36447 4.79543e-18
9379.47805 4.83402e-18
9381.60166 4.86584e-18
9383.71524 4.89766e-18
9385.83885 4.91543e-18
9387.96245 4.93320e-18
9390.07604 4.93124e-18
9392.19964 4.92929e-18
9394.31323 4.89658e-18
9396.43683 4.86386e-18
9398.55042 4.81212e-18
9400.67402 4.76036e-18
9402.78761 4.70778e-18
9404.91122 4.65519e-18
9407.03482 4.61935e-18
9409.14841 4.58351e-18
9411.27201 4.57601e-18
9413.39561 4.56850e-18
9415.50920 4.58420e-18
9417.63280 4.59990e-18
9419.74639 4.63767e-18
9421.87000 4.67545e-18
9423.98358 4.73423e-18
9426.10719 4.79302e-18
9428.22077 4.85412e-18
9430.34438 4.91522e-18
9432.46798 4.96309e-18
9434.58157 5.01095e-18
9436.70517 5.02244e-18
9438.81876 5.03392e-18
9440.94236 5.01635e-18
9443.05595 4.99878e-18
9445.17956 4.96739e-18
9447.30316 4.93598e-18
9449.41675 4.90528e-18
9451.54035 4.87457e-18
9453.65394 4.85486e-18
9455.77754 4.83514e-18
9457.89113 4.82446e-18
9460.01473 4.81377e-18
9462.13834 4.81411e-18
9464.25192 4.81445e-18
9466.37553 4.82746e-18
9468.48911 4.84047e-18
9470.61272 4.85971e-18
9472.72631 4.87895e-18
9474.84991 4.89902e-18
9476.97351 4.91908e-18
9479.08710 4.93012e-18
9481.21070 4.94117e-18
9483.32429 4.94810e-18
9485.44790 4.95505e-18
9487.56148 4.96512e-18
9489.68509 4.97519e-18
9491.80869 4.99662e-18
9493.92228 5.01805e-18
9496.04588 5.05227e-18
9498.15947 5.08650e-18
9500.28307 5.12154e-18
9502.39666 5.15658e-18
9504.52026 5.18433e-18
9506.64387 5.21207e-18
9508.75745 5.22317e-18
9510.88106 5.23426e-18
9512.99465 5.23317e-18
9515.11825 5.23208e-18
9517.23184 5.22120e-18
9519.35544 5.21033e-18
9521.47904 5.19403e-18
9523.59263 5.17772e-18
9525.71623 5.15572e-18
9527.82982 5.13371e-18
9529.95343 5.10566e-18
9532.06701 5.07761e-18
9534.19062 5.04258e-18
9536.31422 5.00755e-18
9538.42781 4.96813e-18
9540.55141 4.92871e-18
9542.66500 4.89319e-18
9544.78860 4.85768e-18
9546.91221 4.83247e-18
9549.02579 4.80726e-18
9551.14940 4.79890e-18
9553.26298 4.79055e-18
9555.38659 4.79270e-18
9557.50018 4.79486e-18
9559.62378 4.80296e-18
9561.73737 4.81106e-18
9563.86097 4.82039e-18
9565.98458 4.82972e-18
9568.09816 4.83546e-18
9570.22177 4.84120e-18
9572.33535 4.83924e-18
9574.45896 4.83728e-18
9576.57254 4.82103e-18
9578.69615 4.80478e-18
9580.81975 4.77545e-18
9582.93334 4.74612e-18
9585.05694 4.71551e-18
9587.17053 4.68490e-18
9589.29413 4.66222e-18
9591.40772 4.63956e-18
9593.53132 4.63458e-18
9595.65493 4.62961e-18
9597.76852 4.63498e-18
9599.89212 4.64035e-18
9602.00571 4.65171e-18
9604.12931 4.66307e-18
9606.25292 4.67539e-18
9608.36650 4.68771e-18
9610.49011 4.69729e-18
9612.60369 4.70688e-18
9614.72730 4.71058e-18
9616.84088 4.71429e-18
9618.96449 4.70704e-18
9621.07807 4.69979e-18
9623.20168 4.68261e-18
9625.32528 4.66542e-18
9627.43887 4.64656e-18
9629.56247 4.62770e-18
9631.67606 4.61356e-18
9633.79967 4.59944e-18
9635.91325 4.59655e-18
9638.03686 4.59367e-18
9640.16046 4.60075e-18
9642.27405 4.60783e-18
9644.39765 4.62457e-18
9646.51124 4.64133e-18
9648.63484 4.66838e-18
9650.75845 4.69544e-18
9652.87203 4.72662e-18
9654.99564 4.75781e-18
9657.10922 4.78662e-18
9659.23283 4.81545e-18
9661.34642 4.83389e-18
9663.47002 4.85231e-18
9665.58361 4.85827e-18
9667.70721 4.86422e-18
9669.83081 4.86212e-18
9671.94440 4.86000e-18
9674.06800 4.85244e-18
9676.18159 4.84488e-18
9678.30520 4.83500e-18
9680.41878 4.82513e-18
9682.54239 4.81497e-18
9684.66599 4.80481e-18
9686.77958 4.79659e-18
9688.90318 4.78835e-18
9691.01677 4.78621e-18
9693.14037 4.78408e-18
9695.25396 4.78275e-18
9697.37756 4.78141e-18
9699.50117 4.77561e-18
9701.61476 4.76981e-18
9703.73836 4.75247e-18
9705.85195 4.73512e-18
9707.97555 4.70623e-18
9710.08914 4.67733e-18
9712.21274 4.64332e-18
9714.33635 4.60932e-18
9716.44993 4.57501e-18
9718.57354 4.54071e-18
9720.68712 4.51095e-18
9722.81073 4.48119e-18
9724.92431 4.45419e-18
9727.04792 4.42720e-18
9729.17152 4.40268e-18
9731.28511 4.37818e-18
9733.40871 4.35521e-18
9735.52230 4.33225e-18
9737.64590 4.31152e-18
9739.75949 4.29078e-18
9741.88310 4.27267e-18
9744.00670 4.25454e-18
9746.12029 4.23971e-18
9748.24389 4.22486e-18
9750.35748 4.21249e-18
9752.48108 4.20010e-18
9754.59467 4.18834e-18
9756.71827 4.17658e-18
9758.84188 4.16380e-18
9760.95546 4.15102e-18
9763.07907 4.13599e-18
9765.19265 4.12095e-18
9767.31626 4.10601e-18
9769.42985 4.09107e-18
9771.55345 4.07772e-18
9773.67705 4.06437e-18
9775.79064 4.05392e-18
9777.91424 4.04346e-18
9780.02783 4.03762e-18
9782.15143 4.03178e-18
9784.27504 4.03171e-18
9786.38863 4.03165e-18
9788.51223 4.03995e-18
9790.62582 4.04825e-18
9792.74942 4.06193e-18
9794.86301 4.07561e-18
9796.98661 4.08808e-18
9799.10020 4.10055e-18
9801.22380 4.10629e-18
9803.34741 4.11201e-18
9805.46099 4.10625e-18
9807.58460 4.10049e-18
9809.69818 4.08378e-18
9811.82179 4.06707e-18
9813.93538 4.03940e-18
9816.05898 4.01173e-18
9818.18258 3.97248e-18
9820.29617 3.93324e-18
9822.41978 3.88978e-18
9824.53336 3.84631e-18
9826.65697 3.80569e-18
9828.77055 3.76507e-18
9830.89416 3.73617e-18
9833.01776 3.70728e-18
9835.13135 3.69243e-18
9837.25495 3.67759e-18
9839.36854 3.67502e-18
9841.49214 3.67246e-18
9843.61575 3.68104e-18
9845.72933 3.68961e-18
9847.85294 3.70768e-18
9849.96652 3.72575e-18
9852.09013 3.75338e-18
9854.20372 3.78101e-18
9856.32732 3.81693e-18
9858.44091 3.85285e-18
9860.56451 3.89528e-18
9862.68812 3.93770e-18
9864.80170 3.98435e-18
9866.92531 4.03099e-18
9869.03889 4.07903e-18
9871.16250 4.12709e-18
9873.27608 4.17591e-18
9875.39969 4.22473e-18
9877.52329 4.26742e-18
9879.63688 4.31011e-18
9881.76048 4.33748e-18
9883.87407 4.36484e-18
9885.99767 4.36797e-18
9888.11126 4.37110e-18
9890.23487 4.34524e-18
9892.35847 4.31939e-18
9894.47206 4.27669e-18
9896.59566 4.23398e-18
9898.70925 4.18296e-18
9900.83285 4.13193e-18
9902.94644 4.08281e-18
9905.07004 4.03368e-18
9907.19365 3.99046e-18
9909.30723 3.94725e-18
9911.43084 3.91378e-18
9913.54442 3.88032e-18
9915.66803 3.86259e-18
9917.79163 3.84485e-18
9919.90522 3.83957e-18
9922.02882 3.83429e-18
9924.14241 3.83406e-18
9926.26601 3.83384e-18
9928.37960 3.83156e-18
9930.50321 3.82928e-18
9932.61679 3.81916e-18
9934.74040 3.80905e-18
9936.86400 3.79210e-18
9938.97759 3.77514e-18
9941.10119 3.75081e-18
9943.21478 3.72648e-18
9945.33838 3.69429e-18
9947.45197 3.66210e-18
9949.57557 3.62684e-18
9951.69918 3.59157e-18
9953.81276 3.55770e-18
9955.93637 3.52385e-18
9958.04996 3.49679e-18
9960.17356 3.46974e-18
9962.28715 3.45133e-18
9964.41075 3.43292e-18
9966.53435 3.42325e-18
9968.64794 3.41357e-18
9970.77155 3.41354e-18
9972.88513 3.41351e-18
9975.00874 3.42221e-18
9977.13234 3.43091e-18
9979.24593 3.44287e-18
9981.36953 3.45484e-18
9983.48312 3.46555e-18
