# wavelength flux
3501.32454 2.58734e-17
3504.57975 2.59360e-17
3507.83496 2.60783e-17
3511.10051 2.58449e-17
3514.35572 2.68514e-17
3517.61093 2.67770e-17
3520.87647 2.48400e-17
3524.13168 2.82518e-17
3527.38689 2.42066e-17
3530.65244 2.66622e-17
3533.90765 3.37481e-17
3537.17319 2.91299e-17
3540.42840 2.78102e-17
3543.68361 2.46717e-17
3546.93882 2.84415e-17
3550.20436 2.73168e-17
3553.45957 2.59115e-17
3556.72512 2.74517e-17
3559.98033 2.70738e-17
3563.23554 2.59643e-17
3566.50108 2.59370e-17
3569.75629 2.55834e-17
3573.01150 2.49943e-17
3576.27705 2.53385e-17
3579.53226 2.58734e-17
3582.78747 2.54424e-17
3586.05301 2.52251e-17
3589.30822 2.44253e-17
3592.56343 2.23942e-17
3595.82897 2.53702e-17
3599.08418 2.77272e-17
3602.33939 2.56980e-17
3605.60494 2.41629e-17
3608.86015 2.74997e-17
3612.11536 2.56082e-17
3615.38090 2.30497e-17
3618.63611 2.76860e-17
3621.89132 2.57088e-17
3625.15687 2.52486e-17
3628.41208 2.85736e-17
3631.66729 2.51199e-17
3634.93283 2.49056e-17
3638.18804 2.53251e-17
3641.44325 2.21901e-17
3644.70879 2.43978e-17
3647.96400 2.35634e-17
3651.22955 2.12221e-17
3654.48476 2.32052e-17
3657.73997 2.27496e-17
3661.00551 2.44752e-17
3664.26072 2.52144e-17
3667.51593 2.20163e-17
3670.78148 2.18719e-17
3674.03669 2.32632e-17
3677.29190 2.18378e-17
3680.55744 2.31726e-17
3683.81265 2.37892e-17
3687.06786 2.30273e-17
3690.33340 2.17705e-17
3693.58861 2.21007e-17
3696.84382 2.18693e-17
3700.10937 2.26063e-17
3703.36458 2.35075e-17
3706.61979 2.35836e-17
3709.88533 2.27810e-17
3713.14054 2.36700e-17
3716.39575 2.46239e-17
3719.66130 2.60377e-17
3722.91651 2.56851e-17
3726.17172 2.52453e-17
3729.43726 2.31961e-17
3732.69247 2.51225e-17
3735.94768 2.66861e-17
3739.21322 2.47049e-17
3742.46843 2.72511e-17
3745.73398 2.77190e-17
3748.98919 2.83176e-17
3752.24440 2.71692e-17
3755.49961 2.74403e-17
3758.76515 2.92053e-17
3762.02036 3.05000e-17
3765.27557 3.00829e-17
3768.54112 2.97970e-17
3771.79633 2.96203e-17
3775.06187 2.98247e-17
3778.31708 2.94198e-17
3781.57229 3.03417e-17
3784.83783 3.16214e-17
3788.09304 3.27806e-17
3791.34825 3.37433e-17
3794.61380 3.33380e-17
3797.86901 3.32151e-17
3801.12422 3.38297e-17
3804.38976 3.48881e-17
3807.64497 3.46891e-17
3810.90018 3.57789e-17
3814.16573 3.51143e-17
3817.42094 3.52835e-17
3820.67615 3.53228e-17
3823.94169 3.58595e-17
3827.19690 3.56069e-17
3830.45211 3.59054e-17
3859.78000 3.62811e-17
3863.04555 3.56428e-17
3866.30076 3.61987e-17
3869.56630 3.63995e-17
3872.82151 3.52140e-17
3876.07672 3.65753e-17
3879.34226 3.72483e-17
3882.59747 3.62465e-17
3885.85268 3.66296e-17
3889.11823 3.62295e-17
3892.37344 3.66659e-17
3895.62865 3.61805e-17
3898.89419 3.63917e-17
3902.14940 3.57141e-17
3905.40461 3.70280e-17
3908.67016 3.60404e-17
3911.92537 3.58772e-17
3915.18058 3.64520e-17
3918.44612 3.62567e-17
3921.70133 3.61579e-17
3924.95654 3.54610e-17
3928.22208 3.58537e-17
3931.47729 3.46558e-17
3934.73250 3.47605e-17
3937.99805 3.53131e-17
3941.25326 3.48525e-17
3944.50847 3.37315e-17
3947.77401 3.31653e-17
3951.02922 3.38776e-17
3954.29477 3.23324e-17
3957.54998 3.34383e-17
3960.80519 3.29795e-17
3964.07073 3.26593e-17
3967.32594 3.23607e-17
3970.58115 3.21792e-17
3973.84669 3.19553e-17
3977.10190 3.26237e-17
3980.35711 3.26016e-17
3983.62266 3.26538e-17
3986.87787 3.10723e-17
3990.13308 3.11674e-17
3993.39862 3.34676e-17
3996.65383 3.32228e-17
3999.90904 3.25544e-17
4003.17459 3.12511e-17
4006.42980 3.00228e-17
4009.68501 3.06474e-17
4012.95055 3.12609e-17
4016.20576 3.07425e-17
4019.46097 3.05522e-17
4022.72651 2.98653e-17
4025.98172 2.95064e-17
4029.23693 2.98447e-17
4032.50248 2.84515e-17
4035.75769 2.84628e-17
4039.01290 2.85164e-17
4042.27844 2.88441e-17
4045.53365 2.80963e-17
4048.78886 2.78443e-17
4052.05441 2.79717e-17
4055.30962 2.83940e-17
4058.56483 2.77842e-17
4061.83037 2.72906e-17
4065.08558 2.73444e-17
4068.34079 2.79662e-17
4071.60633 2.77043e-17
4074.86154 2.79997e-17
4078.11675 2.75279e-17
4081.38230 2.73925e-17
4084.63751 2.76037e-17
4087.90305 2.77518e-17
4091.15826 2.73646e-17
4094.41347 2.79007e-17
4097.66868 2.91076e-17
4100.93423 2.86470e-17
4104.18944 2.83963e-17
4107.45498 2.78629e-17
4110.71019 2.78325e-17
4113.96540 2.83046e-17
4117.23094 2.77508e-17
4120.48615 2.82539e-17
4123.74136 2.75960e-17
4127.00691 2.71371e-17
4130.26212 2.76504e-17
4133.51733 2.72336e-17
4136.78287 2.71304e-17
4140.03808 2.72986e-17
4143.29329 2.73623e-17
4146.55884 2.69670e-17
4149.81405 2.74897e-17
4153.06926 2.71154e-17
4156.33480 2.67519e-17
4159.59001 2.73470e-17
4162.84522 2.79104e-17
4166.11076 2.71929e-17
4169.36597 2.71940e-17
4172.62118 2.84539e-17
4175.88673 2.81114e-17
4179.14194 2.73948e-17
4182.39715 2.70216e-17
4185.66269 2.77915e-17
4188.91790 2.71900e-17
4192.17311 2.75959e-17
4195.43866 2.75552e-17
4198.69387 2.72760e-17
4201.95941 2.75777e-17
4205.21462 2.74022e-17
4208.46983 2.69367e-17
4211.73537 2.67927e-17
4214.99058 2.69180e-17
4218.24579 2.71985e-17
4221.51134 2.77376e-17
4224.76655 2.70348e-17
4228.02176 2.74907e-17
4231.28730 2.75225e-17
4234.54251 2.82673e-17
4237.79772 2.81954e-17
4241.06327 2.82578e-17
4244.31848 2.79795e-17
4247.57369 2.75878e-17
4250.83923 2.76090e-17
4254.09444 2.82593e-17
4257.34965 2.84246e-17
4260.61519 2.77549e-17
4263.87040 2.82499e-17
4267.12561 2.84253e-17
4270.39116 2.79930e-17
4273.64637 2.81580e-17
4276.90158 2.83538e-17
4280.16712 2.81071e-17
4283.42233 2.89503e-17
4286.68788 2.87447e-17
4289.94309 2.93816e-17
4293.19830 2.95867e-17
4296.45351 2.90627e-17
4299.71905 2.90523e-17
4302.97426 2.95752e-17
4306.23980 3.00567e-17
4309.49501 3.01073e-17
4312.75022 3.00452e-17
4316.01577 2.97167e-17
4319.27098 3.04739e-17
4322.52619 2.98998e-17
4325.79173 3.00832e-17
4329.04694 3.05325e-17
4332.30215 3.02862e-17
4335.56770 3.02035e-17
4338.82291 3.05398e-17
4342.07812 3.00485e-17
4345.34366 3.02212e-17
4348.59887 3.04855e-17
4351.85408 3.03110e-17
4355.11962 3.03304e-17
4358.37483 3.06657e-17
4361.63004 3.00123e-17
4364.89559 3.00928e-17
4368.15080 3.04481e-17
4371.40601 3.01313e-17
4374.67155 3.06288e-17
4377.92676 3.11870e-17
4381.18197 3.12362e-17
4384.44752 3.11330e-17
4387.70273 3.03592e-17
4390.95794 3.07845e-17
4394.22348 3.07627e-17
4397.47869 3.12381e-17
4400.73390 3.09625e-17
4403.99944 3.01496e-17
4407.25465 3.01381e-17
4410.50986 2.98834e-17
4413.77541 3.02265e-17
4417.03062 3.07313e-17
4420.29616 2.94239e-17
4423.55137 2.99185e-17
4426.80658 3.04633e-17
4430.07213 3.05729e-17
4433.32734 3.05711e-17
4436.58255 3.11958e-17
4439.84809 3.11837e-17
4443.10330 3.07779e-17
4446.35851 2.98982e-17
4449.62405 3.00883e-17
4452.87926 3.07117e-17
4456.13447 3.03873e-17
4459.40002 3.03049e-17
4462.65523 3.03132e-17
4465.91044 3.02509e-17
4491.98312 2.99849e-17
4495.23833 2.97222e-17
4498.50387 2.94597e-17
4501.75908 2.94279e-17
4505.01429 3.08890e-17
4508.27984 3.11971e-17
4511.53505 3.09444e-17
4514.80059 3.00914e-17
4518.05580 3.03294e-17
4521.31101 2.99972e-17
4524.56622 2.94654e-17
4527.83177 3.02728e-17
4531.08698 3.03005e-17
4534.35252 3.02783e-17
4537.60773 3.01762e-17
4540.86294 3.00044e-17
4544.12848 3.01917e-17
4547.38369 3.00299e-17
4550.63890 2.99181e-17
4553.90445 3.02744e-17
4557.15966 2.99932e-17
4560.41487 3.03790e-17
4563.68041 3.03069e-17
4566.93562 2.94594e-17
4570.19083 2.94871e-17
4573.45638 2.97333e-17
4576.71159 2.91948e-17
4579.96680 2.93118e-17
4583.23234 2.92303e-17
4586.48755 2.88315e-17
4589.74276 2.89187e-17
4593.00830 2.89365e-17
4596.26351 2.89840e-17
4599.51872 2.90017e-17
4602.78427 2.89303e-17
4606.03948 2.88689e-17
4609.29469 2.87481e-17
4612.56023 2.86077e-17
4615.81544 2.85662e-17
4619.08099 2.89098e-17
4622.33620 2.89472e-17
4625.59141 2.84318e-17
4628.85695 2.88343e-17
4632.11216 2.80235e-17
4635.36737 2.82977e-17
4638.63291 2.83252e-17
4641.88812 2.82740e-17
4645.14333 2.83212e-17
4648.40888 2.84078e-17
4651.66409 2.84057e-17
4654.91930 2.84527e-17
4658.18484 2.76644e-17
4661.44005 2.72795e-17
4664.69526 2.73073e-17
4667.96081 2.72664e-17
4671.21602 2.76767e-17
4674.47123 2.70276e-17
4677.73677 2.72123e-17
4680.99198 2.72106e-17
4684.24719 2.71697e-17
4687.51273 2.75009e-17
4690.76794 2.74403e-17
4694.02315 2.71450e-17
4697.28870 2.70064e-17
4700.54391 2.70243e-17
4703.79912 2.67296e-17
4707.06466 2.66010e-17
4710.31987 2.64726e-17
4713.57508 2.58564e-17
4716.84063 2.65672e-17
4720.09584 2.58930e-17
4723.35105 2.60573e-17
4726.61659 2.59294e-17
4729.87180 2.56944e-17
4733.12701 2.59949e-17
4736.39255 2.61298e-17
4739.64776 2.56811e-17
4742.91331 2.55340e-17
4746.16852 2.58049e-17
4749.42373 2.54152e-17
4752.68927 2.55888e-17
4755.94448 2.55293e-17
4759.19969 2.55378e-17
4762.46524 2.50713e-17
4765.72045 2.50315e-17
4768.97566 2.51467e-17
4772.24120 2.50488e-17
4775.49641 2.51059e-17
4778.75162 2.51629e-17
4782.01716 2.49200e-17
4785.27237 2.49577e-17
4788.52758 2.44543e-17
4791.79313 2.44438e-17
4795.04834 2.48099e-17
4798.30355 2.46835e-17
4801.56909 2.48465e-17
4804.82430 2.49612e-17
4808.07951 2.49891e-17
4811.34506 2.46605e-17
4814.60027 2.49100e-17
4817.85548 2.43988e-17
4821.12102 2.39843e-17
4824.37623 2.42818e-17
4827.63144 2.42522e-17
4830.89698 2.41265e-17
4834.15219 2.46060e-17
4837.41774 2.44803e-17
4840.67295 2.45754e-17
4843.92816 2.44881e-17
4847.19370 2.44681e-17
4850.44891 2.46589e-17
4853.70412 2.38628e-17
4856.95933 2.43314e-17
4860.22488 2.42157e-17
4863.48009 2.44445e-17
4866.74563 2.45106e-17
4870.00084 2.46531e-17
4873.25605 2.41457e-17
4876.52159 2.36770e-17
4879.77680 2.37719e-17
4883.03201 2.37045e-17
4886.29756 2.39138e-17
4889.55277 2.40943e-17
4892.80798 2.41698e-17
4896.07352 2.42738e-17
4899.32873 2.42920e-17
4902.58394 2.40913e-17
4905.84949 2.42619e-17
4909.10470 2.43467e-17
4912.35991 2.40131e-17
4915.62545 2.43070e-17
4918.88066 2.41447e-17
4922.13587 2.40869e-17
4925.40141 2.42096e-17
4928.65662 2.43511e-17
4931.91183 2.44546e-17
4935.17738 2.44158e-17
4938.43259 2.41402e-17
4941.68780 2.41489e-17
4944.95334 2.44132e-17
4948.20855 2.48097e-17
4951.47410 2.45533e-17
4954.72931 2.40986e-17
4957.98452 2.40979e-17
4961.25006 2.47773e-17
4964.50527 2.47480e-17
4967.76048 2.44544e-17
4971.02602 2.43121e-17
4974.28123 2.44904e-17
4977.53644 2.50080e-17
4980.80199 2.48939e-17
4984.05720 2.46480e-17
4987.31241 2.47600e-17
4990.57795 2.48626e-17
4993.83316 2.46640e-17
4997.08837 2.49076e-17
5029.68181 2.48228e-17
5032.93702 2.49061e-17
5036.19223 2.49051e-17
5039.45777 2.49603e-17
5042.71298 2.50154e-17
5045.96819 2.52387e-17
5049.23374 2.53030e-17
5052.48895 2.54979e-17
5055.75449 2.54501e-17
5059.00970 2.54490e-17
5062.26491 2.54292e-17
5065.53045 2.51111e-17
5068.78566 2.52872e-17
5072.04087 2.52862e-17
5075.30642 2.58158e-17
5078.56163 2.56005e-17
5081.81684 2.59342e-17
5085.08238 2.52170e-17
5088.33759 2.56435e-17
5091.59280 2.54101e-17
5094.85835 2.56598e-17
5186.09723 2.49246e-17
5189.35244 2.46486e-17
5192.61799 2.51804e-17
5195.87320 2.48770e-17
5199.13874 2.49223e-17
5202.39395 2.48393e-17
5205.64916 2.48480e-17
5208.91470 2.47376e-17
5212.16991 2.48287e-17
5215.42512 2.48557e-17
5218.69067 2.48095e-17
5221.94588 2.46720e-17
5225.20109 2.49184e-17
5228.46663 2.49728e-17
5231.72184 2.47349e-17
5234.97705 2.43236e-17
5238.24260 2.41866e-17
5241.49781 2.44237e-17
5244.75302 2.41316e-17
5248.01856 2.43504e-17
5251.27377 2.46054e-17
5254.52898 2.44047e-17
5257.79452 2.43226e-17
5261.04973 2.43043e-17
5264.30494 2.41860e-17
5267.57049 2.42132e-17
5270.82570 2.38950e-17
5274.08091 2.38224e-17
5277.34645 2.41405e-17
5280.60166 2.41951e-17
5283.85687 2.38229e-17
5287.12242 2.36960e-17
5290.37763 2.36328e-17
5293.64317 2.36784e-17
5296.89838 2.36968e-17
5300.15359 2.36065e-17
5303.41913 2.36158e-17
5306.67434 2.32811e-17
5309.92955 2.36709e-17
5313.19510 2.32911e-17
5316.45031 2.30926e-17
5319.70552 2.34639e-17
5322.97106 2.34734e-17
5326.22627 2.30583e-17
5329.48148 2.34021e-17
5332.74703 2.28699e-17
5336.00224 2.30421e-17
5339.25745 2.31421e-17
5342.52299 2.28902e-17
5345.77820 2.31704e-17
5349.03341 2.33243e-17
5352.29895 2.33700e-17
5355.55416 2.26681e-17
5358.80937 2.26330e-17
5362.07492 2.29938e-17
5365.33013 2.29317e-17
5368.58534 2.29954e-17
5371.85088 2.29423e-17
5375.10609 2.26825e-17
5378.36130 2.30159e-17
5381.62685 2.31155e-17
5384.88206 2.29368e-17
5388.14760 2.26864e-17
5391.40281 2.27592e-17
5394.65802 2.27243e-17
5397.91323 2.28239e-17
5401.17877 2.24037e-17
5404.43398 2.24317e-17
5407.69953 2.25672e-17
5410.95474 2.26399e-17
5414.20995 2.26679e-17
5417.47549 2.23827e-17
5420.73070 2.25359e-17
5423.98591 2.26086e-17
5427.25146 2.22523e-17
5430.50667 2.23876e-17
5433.76188 2.23353e-17
5437.02742 2.20152e-17
5440.28263 2.18917e-17
5443.53784 2.20002e-17
5446.80338 2.20641e-17
5450.05859 2.15752e-17
5453.31380 2.14877e-17
5456.57935 2.15873e-17
5459.83456 2.18562e-17
5463.08977 2.21871e-17
5466.35531 2.15834e-17
5469.61052 2.16740e-17
5472.86573 2.14178e-17
5476.13128 2.16418e-17
5479.38649 2.14213e-17
5482.64170 2.13164e-17
5485.90724 2.08830e-17
5489.16245 2.10626e-17
5492.41766 2.10645e-17
5495.68320 2.12972e-17
5498.93841 2.12103e-17
5502.20396 2.10792e-17
5505.45917 2.09926e-17
5508.71438 2.11452e-17
5511.97992 2.12004e-17
5515.23513 2.10429e-17
5518.49034 2.08767e-17
5521.75589 2.09142e-17
5525.01110 2.08102e-17
5528.26631 2.05470e-17
5531.53185 2.04696e-17
5534.78706 2.06575e-17
5538.04227 2.08277e-17
5541.30781 2.06973e-17
5544.56302 2.06113e-17
5547.81823 2.04193e-17
5551.08378 2.02628e-17
5554.33899 2.05652e-17
5557.59420 2.07880e-17
5560.85974 2.04200e-17
5564.11495 2.01051e-17
5567.37016 2.05482e-17
5570.63571 2.03479e-17
5573.89092 2.00686e-17
5577.14613 2.01504e-17
5580.41167 2.02057e-17
5583.66688 2.03138e-17
5586.92209 2.03779e-17
5590.18763 2.04420e-17
5593.44284 2.03742e-17
5596.70839 2.02185e-17
5599.96360 1.99664e-17
5603.21881 1.99427e-17
5606.47402 1.98839e-17
5609.73956 1.97199e-17
5612.99477 1.92665e-17
5616.26032 1.90765e-17
5619.51553 1.92373e-17
5622.77074 1.98451e-17
5626.03628 1.99793e-17
5629.29149 1.98945e-17
5632.54670 2.02213e-17
5635.81224 1.99351e-17
5639.06745 2.00429e-17
5642.32266 1.99320e-17
5645.58821 1.97424e-17
5648.84342 1.98152e-17
5652.09863 1.97394e-17
5655.36417 1.97773e-17
5658.61938 1.96754e-17
5661.87459 2.01500e-17
5665.14014 1.98036e-17
5668.39535 1.92653e-17
5671.65056 1.96262e-17
5674.91610 1.97863e-17
5678.17131 1.95014e-17
5681.42652 1.95830e-17
5684.69206 1.97429e-17
5687.94727 1.95107e-17
5691.21282 1.94180e-17
5694.46803 1.94211e-17
5697.72324 1.93546e-17
5700.97845 1.93491e-17
5704.24399 1.92478e-17
5707.49920 1.91119e-17
5710.76475 1.92978e-17
5714.01996 1.91098e-17
5717.27517 1.89827e-17
5720.54071 1.90816e-17
5723.79592 1.91979e-17
5727.05113 1.88191e-17
5730.30634 1.89701e-17
5733.57188 1.90863e-17
5736.82709 1.88728e-17
5740.09264 1.87721e-17
5743.34785 1.85674e-17
5746.60306 1.85190e-17
5749.86860 1.86959e-17
5753.12381 1.87774e-17
5756.37902 1.88589e-17
5759.64457 1.84986e-17
5762.89978 1.83031e-17
5766.15499 1.83327e-17
5769.42053 1.84662e-17
5772.67574 1.80719e-17
5775.93095 1.79719e-17
5779.19649 1.81054e-17
5782.45170 1.81178e-17
5785.70691 1.83030e-17
5788.97246 1.83586e-17
5792.22767 1.83623e-17
5795.48288 1.86251e-17
5798.74842 1.86806e-17
5802.00363 1.85116e-17
5805.25884 1.84809e-17
5808.52439 1.83293e-17
5811.77960 1.83159e-17
5815.03481 1.83197e-17
5818.30035 1.83063e-17
5821.55556 1.85169e-17
5824.81077 1.87102e-17
5828.07631 1.82316e-17
5831.33152 1.80805e-17
5834.59707 1.75852e-17
5837.85228 1.77613e-17
5841.10749 1.74901e-17
5844.37303 1.80790e-17
5847.62824 1.79282e-17
5850.88345 1.74508e-17
5854.14900 1.79963e-17
5857.40421 1.79402e-17
5860.65942 1.80731e-17
5863.92496 1.80513e-17
5867.18017 1.81412e-17
5870.43538 1.78190e-17
5873.70092 1.81835e-17
5876.95613 1.78014e-17
5880.21134 1.75911e-17
5883.47689 1.76896e-17
5886.73210 1.76680e-17
5889.98731 1.78693e-17
5893.25285 1.76935e-17
5896.50806 1.77233e-17
5899.76327 1.79330e-17
5903.02882 1.76717e-17
5906.28403 1.77701e-17
5909.53924 1.78513e-17
5912.80478 1.77271e-17
5916.05999 1.75945e-17
5919.31520 1.74191e-17
5922.58074 1.75089e-17
5925.83595 1.73679e-17
5929.10150 1.71501e-17
5932.35671 1.73936e-17
5935.61192 1.73296e-17
5938.87746 1.71632e-17
5942.13267 1.71591e-17
5945.38788 1.70952e-17
5948.65343 1.71508e-17
5951.90864 1.73003e-17
5955.16385 1.71853e-17
5958.42939 1.68401e-17
5961.68460 1.68617e-17
5964.93981 1.68918e-17
5968.20535 1.67003e-17
5971.46056 1.67815e-17
5974.71577 1.67861e-17
5977.98132 1.66800e-17
5981.23653 1.67186e-17
5984.49174 1.64934e-17
5987.75728 1.64300e-17
5991.01249 1.67664e-17
5994.26770 1.68051e-17
5997.53325 1.66226e-17
6000.78846 1.66357e-17
6004.04367 1.64789e-17
6007.30921 1.65516e-17
6010.56442 1.62080e-17
6013.81963 1.64166e-17
6017.08517 1.60901e-17
6020.34038 1.62817e-17
6023.60593 1.63289e-17
6026.86114 1.59858e-17
6030.11635 1.59143e-17
6033.37156 1.58852e-17
6036.63710 1.61529e-17
6039.89231 1.60560e-17
6043.14752 1.58405e-17
6046.41307 1.58200e-17
6049.66828 1.59435e-17
6052.93382 1.58298e-17
6056.18903 1.57077e-17
6059.44424 1.55264e-17
6062.70978 1.56923e-17
6065.96499 1.53249e-17
6069.22020 1.54991e-17
6072.48575 1.62400e-17
6075.74096 1.58982e-17
6078.99617 1.54804e-17
6082.26171 1.54347e-17
6085.51692 1.54398e-17
6088.77213 1.56476e-17
6092.03768 1.56273e-17
6095.29289 1.56154e-17
6098.54810 1.57133e-17
6101.81364 1.55833e-17
6105.06885 1.55546e-17
6108.32406 1.57368e-17
6111.58960 1.57671e-17
6114.84481 1.56878e-17
6118.10002 1.56423e-17
6121.36557 1.55462e-17
6124.62078 1.56102e-17
6127.87599 1.56406e-17
6131.14153 1.55614e-17
6134.39674 1.53980e-17
6137.65195 1.54116e-17
6140.91750 1.57535e-17
6144.17271 1.53882e-17
6147.42792 1.53260e-17
6150.69346 1.53480e-17
6153.94867 1.55298e-17
6157.21421 1.55013e-17
6160.46942 1.52878e-17
6163.72463 1.52005e-17
6166.99018 1.53066e-17
6170.24539 1.53706e-17
6173.50060 1.50985e-17
6176.76614 1.51457e-17
6180.02135 1.52098e-17
6183.27656 1.50135e-17
6186.54211 1.50859e-17
6189.79732 1.49233e-17
6193.05253 1.49621e-17
6196.31807 1.49171e-17
6199.57328 1.46624e-17
6202.82849 1.46677e-17
6206.09403 1.43712e-17
6209.34924 1.43347e-17
6212.60445 1.43653e-17
6215.87000 1.40356e-17
6219.12521 1.38819e-17
6222.38042 1.38707e-17
6225.64596 1.37255e-17
6228.90117 1.41413e-17
6232.16672 1.39794e-17
6235.42193 1.39598e-17
6238.67714 1.39737e-17
6241.93235 1.39625e-17
6245.19789 1.39346e-17
6248.45310 1.36307e-17
6251.71864 1.35694e-17
6254.97385 1.34580e-17
6258.22906 1.35055e-17
6261.49461 1.33357e-17
6264.74982 1.32578e-17
6268.00503 1.34974e-17
6271.27057 1.30437e-17
6274.52578 1.25986e-17
6277.78099 1.26295e-17
6281.04654 1.30776e-17
6284.30175 1.31418e-17
6287.55696 1.29807e-17
6290.82250 1.30865e-17
6294.07771 1.34842e-17
6297.33292 1.39901e-17
6300.59846 1.37623e-17
6303.85367 1.33012e-17
6307.10888 1.33986e-17
6310.37443 1.36875e-17
6313.62964 1.39847e-17
6316.88485 1.38653e-17
6320.15039 1.35546e-17
6323.40560 1.37434e-17
6326.66081 1.40153e-17
6329.92636 1.40875e-17
6333.18157 1.40015e-17
6336.43678 1.41569e-17
6339.70232 1.41125e-17
6342.95753 1.42345e-17
6346.21274 1.41569e-17
6349.47828 1.39048e-17
6352.73349 1.38855e-17
6355.98870 1.42318e-17
6359.25425 1.39715e-17
6362.50946 1.41515e-17
6365.77500 1.39329e-17
6369.03021 1.39718e-17
6372.28542 1.43675e-17
6375.54063 1.43564e-17
6378.80618 1.43122e-17
6382.06139 1.43675e-17
6385.32693 1.46053e-17
6388.58214 1.46605e-17
6391.83735 1.44173e-17
6395.10289 1.46052e-17
6398.35810 1.44118e-17
6401.61331 1.39699e-17
6404.87886 1.42903e-17
6408.13407 1.44781e-17
6411.38928 1.44754e-17
6414.65482 1.48121e-17
6417.91003 1.49665e-17
6421.16524 1.47237e-17
6424.43079 1.44727e-17
6427.68600 1.46768e-17
6430.94121 1.47650e-17
6434.20675 1.50351e-17
6437.46196 1.50405e-17
6440.71717 1.49633e-17
6443.98271 1.47787e-17
6447.23792 1.44784e-17
6450.49313 1.47814e-17
6453.75868 1.49273e-17
6457.01389 1.48419e-17
6460.26910 1.47565e-17
6463.53464 1.42502e-17
6466.78985 1.44208e-17
6470.04506 1.44594e-17
6473.31061 1.47043e-17
6476.56582 1.48005e-17
6479.83136 1.47235e-17
6483.08657 1.45558e-17
6486.34178 1.45201e-17
6489.60732 1.44268e-17
6492.86253 1.45807e-17
6496.11774 1.46109e-17
6499.38329 1.44764e-17
6502.63850 1.47538e-17
6505.89371 1.50558e-17
6509.15925 1.48801e-17
6512.41446 1.46056e-17
6515.66967 1.45371e-17
6518.93522 1.43698e-17
6522.19043 1.43589e-17
6525.44564 1.44879e-17
6528.71118 1.44359e-17
6531.96639 1.43921e-17
6535.22160 1.45457e-17
6538.48714 1.40744e-17
6541.74235 1.44088e-17
6544.99756 1.45212e-17
6548.26311 1.45514e-17
6551.51832 1.41215e-17
6554.77353 1.45789e-17
6558.03907 1.44777e-17
6561.29428 1.46228e-17
6564.54949 1.46530e-17
6567.81504 1.46175e-17
6571.07025 1.46148e-17
6574.33579 1.46613e-17
6577.59100 1.45438e-17
6580.84621 1.43607e-17
6584.11175 1.43335e-17
6587.36696 1.44375e-17
6590.62217 1.44840e-17
6593.87738 1.43175e-17
6597.14293 1.43804e-17
6600.39814 1.45252e-17
6603.66368 1.44816e-17
6606.91889 1.44954e-17
6610.17410 1.41816e-17
6613.43965 1.40398e-17
6616.69486 1.43483e-17
6619.95007 1.44193e-17
6623.21561 1.41631e-17
6626.47082 1.40951e-17
6629.72603 1.43133e-17
6632.99157 1.42044e-17
6636.24678 1.43245e-17
6639.50199 1.40848e-17
6642.76754 1.40414e-17
6646.02275 1.39980e-17
6649.27796 1.38566e-17
6652.54350 1.40419e-17
6655.79871 1.40965e-17
6659.05392 1.39388e-17
6662.31947 1.42384e-17
6665.57468 1.42521e-17
6668.82989 1.38660e-17
6672.09543 1.40185e-17
6675.35064 1.41057e-17
6678.60585 1.39400e-17
6681.87139 1.37744e-17
6685.12660 1.38127e-17
6688.38181 1.39651e-17
6691.64736 1.38158e-17
6694.90257 1.37970e-17
6698.16811 1.37945e-17
6701.42332 1.38165e-17
6704.67853 1.36999e-17
6707.93374 1.37056e-17
6711.19929 1.37927e-17
6714.45450 1.35215e-17
6717.72004 1.36331e-17
6720.97525 1.38584e-17
6724.23046 1.37746e-17
6727.49600 1.38128e-17
6730.75121 1.36964e-17
6734.00642 1.36045e-17
6737.27197 1.33093e-17
6740.52718 1.34207e-17
6743.78239 1.34427e-17
6747.04793 1.34403e-17
6750.30314 1.34134e-17
6929.53604 1.11648e-17
6932.79125 1.16373e-17
6936.05679 1.21257e-17
6939.31200 1.22843e-17
6942.56721 1.21213e-17
6945.83276 1.14440e-17
6949.08797 1.17231e-17
6952.34318 1.20503e-17
6955.60872 1.22650e-17
6958.86393 1.18612e-17
6962.11914 1.13131e-17
6965.38468 1.10140e-17
6968.63989 1.11564e-17
6971.89510 1.09217e-17
6975.16065 1.11523e-17
6978.41586 1.12546e-17
6981.67107 1.11643e-17
6984.93661 1.10339e-17
6988.19182 1.09838e-17
6991.44703 1.08054e-17
6994.71258 1.08275e-17
6997.96779 1.09778e-17
7001.22300 1.09517e-17
7004.48854 1.08135e-17
7007.74375 1.09156e-17
7010.99896 1.08496e-17
7014.26450 1.06875e-17
7017.51971 1.09016e-17
7020.78526 1.07555e-17
7024.04047 1.08416e-17
7027.29568 1.09836e-17
7030.56122 1.08056e-17
7033.81643 1.08756e-17
7037.07164 1.08975e-17
7040.33719 1.07436e-17
7043.59240 1.07177e-17
7046.84761 1.08276e-17
7050.11315 1.08575e-17
7053.36836 1.07676e-17
7056.62357 1.08295e-17
7059.88911 1.08355e-17
7063.14432 1.06738e-17
7066.39953 1.06160e-17
7069.66508 1.05741e-17
7072.92029 1.06040e-17
7076.17550 1.05941e-17
7079.44104 1.05842e-17
7082.69625 1.05822e-17
7085.95146 1.05722e-17
7089.21701 1.06739e-17
7092.47222 1.06879e-17
7095.72743 1.07177e-17
7098.99297 1.07715e-17
7102.24818 1.05943e-17
7105.50339 1.04410e-17
7108.76893 1.03753e-17
7112.02414 1.02141e-17
7115.28969 1.03316e-17
7118.54490 1.06082e-17
7121.80011 1.05267e-17
7125.05532 1.05327e-17
7128.32086 1.06023e-17
7131.57607 1.03856e-17
7134.83128 1.05347e-17
7138.09683 1.05009e-17
7141.35204 1.03877e-17
7144.60725 1.02745e-17
7147.87279 1.02249e-17
7151.12800 1.01912e-17
7154.39354 1.01496e-17
7157.64875 1.03144e-17
7160.90396 1.03839e-17
7164.16951 1.01438e-17
7167.42472 9.98319e-18
7170.67993 9.98130e-18
7173.94547 9.77317e-18
7177.20068 9.73960e-18
7180.45589 9.76155e-18
7183.72144 9.71213e-18
7186.97665 9.40907e-18
7190.23186 9.45484e-18
7193.49740 9.58776e-18
7196.75261 9.70477e-18
7200.00782 9.82967e-18
7203.27336 9.64566e-18
7206.52857 9.62007e-18
7209.78378 9.79240e-18
7213.04933 9.98841e-18
7216.30454 1.01210e-17
7219.55975 9.69979e-18
7222.82529 9.40526e-18
7226.08050 9.49047e-18
7229.33571 9.40168e-18
7232.60126 9.35245e-18
7235.85647 9.24791e-18
7239.12201 9.15131e-18
7242.37722 9.36290e-18
7245.63243 9.32951e-18
7248.89797 9.36722e-18
7252.15318 9.31804e-18
7255.40839 9.19783e-18
7258.67394 9.12503e-18
7261.92915 9.09171e-18
7265.18436 9.14520e-18
7268.44990 9.10400e-18
7271.70511 9.14169e-18
7274.96032 9.08473e-18
7278.22587 9.11452e-18
7281.48108 9.16795e-18
7284.73629 9.16619e-18
7288.00183 8.92014e-18
7291.25704 9.17054e-18
7294.51225 9.32631e-18
7297.77779 9.08037e-18
7301.03300 9.19673e-18
7304.28821 9.31304e-18
7307.55376 9.16169e-18
7310.80897 9.14418e-18
7314.06418 9.22109e-18
7317.32972 9.21931e-18
7320.58493 9.07596e-18
7323.84014 9.05847e-18
7327.10569 9.14320e-18
7330.36090 9.14929e-18
7333.62644 8.95104e-18
7336.88165 8.90216e-18
7340.13686 9.01041e-18
7343.39207 9.04793e-18
7346.65761 9.06188e-18
7349.91282 9.17003e-18
7353.17837 8.81501e-18
7356.43358 8.67988e-18
7359.68879 8.83512e-18
7362.95433 8.77848e-18
7366.20954 8.80030e-18
7369.46475 8.90837e-18
7372.73030 9.09480e-18
7375.98551 9.39873e-18
7379.24072 9.27934e-18
7382.50626 9.01111e-18
7385.76147 8.99368e-18
7389.01668 8.89009e-18
7392.28222 8.96666e-18
7395.53743 9.09018e-18
7398.79264 8.98663e-18
7402.05819 8.85181e-18
7405.31340 9.10830e-18
7408.56861 8.91875e-18
7411.83415 8.94828e-18
7415.08936 9.00909e-18
7418.34457 8.85094e-18
7421.61012 8.75539e-18
7424.86533 8.80837e-18
7428.12054 9.10358e-18
7431.38608 9.10178e-18
7434.64129 8.85784e-18
7437.89650 8.84829e-18
7441.16204 8.93243e-18
7444.41725 8.89944e-18
7447.68280 8.81183e-18
7450.93801 8.69303e-18
7454.19322 8.64450e-18
7457.45876 8.79100e-18
7460.71397 8.85944e-18
7463.96918 8.83430e-18
7467.22439 9.06642e-18
7470.48994 8.97888e-18
7473.74515 8.82125e-18
7477.01069 8.66368e-18
7480.26590 8.63080e-18
7483.52111 8.66802e-18
7486.78665 8.81424e-18
7490.04186 9.02268e-18
7493.29707 8.91971e-18
7496.56262 8.92571e-18
7499.81783 9.00174e-18
7503.07304 9.03106e-18
7506.33858 8.87371e-18
7509.59379 8.84862e-18
7512.84900 8.83131e-18
7516.11455 8.59637e-18
7519.36976 8.55580e-18
7522.62497 8.64732e-18
7525.89051 9.00291e-18
7529.14572 8.73706e-18
7532.40093 8.83626e-18
7535.66647 8.85001e-18
7538.92168 8.89481e-18
7542.17689 8.59815e-18
7545.44244 8.68953e-18
7548.69765 8.62573e-18
7551.95286 8.70155e-18
7555.21840 8.76959e-18
7558.47361 8.82210e-18
7561.72882 8.68857e-18
7564.99437 8.99679e-18
7568.24958 8.87876e-18
7571.51512 8.76079e-18
7574.77033 8.65060e-18
7578.02554 8.43980e-18
7581.29108 8.69357e-18
7584.54629 8.75374e-18
7587.80150 8.36506e-18
7688.82669 8.14354e-18
7692.08190 8.06500e-18
7695.33711 8.07873e-18
7698.60265 8.43829e-18
7701.85786 8.61330e-18
7705.12341 8.28121e-18
7708.37862 7.97999e-18
7711.63383 8.36231e-18
7714.89937 8.60628e-18
7718.15458 8.16701e-18
7721.40979 8.16534e-18
7724.67533 8.39385e-18
7727.93054 8.28475e-18
7731.18575 8.08365e-18
7734.45130 8.29670e-18
7737.70651 8.32567e-18
7740.96172 8.30098e-18
7744.22726 8.10771e-18
7747.48247 8.09839e-18
7750.73768 8.19632e-18
7754.00323 8.13337e-18
7757.25844 8.26954e-18
7760.51365 8.22957e-18
7763.77919 7.95235e-18
7767.03440 7.92777e-18
7770.28961 8.22452e-18
7773.55515 8.33758e-18
7776.81036 8.23646e-18
7780.06557 8.34181e-18
7783.33112 8.34011e-18
7786.58633 7.90276e-18
7789.85187 7.70247e-18
7793.10708 8.20511e-18
7796.36229 8.57007e-18
7799.62784 8.59886e-18
7802.88305 8.35278e-18
7806.13826 8.43504e-18
7809.40380 8.46384e-18
7812.65901 8.05006e-18
7815.91422 7.92635e-18
7819.17976 8.38999e-18
7822.43497 8.56366e-18
7825.69018 8.44755e-18
7828.95573 8.40008e-18
7832.21094 8.17735e-18
7835.46615 8.21378e-18
7838.73169 8.47872e-18
7841.98690 8.33989e-18
7845.24211 7.94221e-18
7848.50766 8.11569e-18
7851.76287 8.41088e-18
7855.01808 8.22651e-18
7858.28362 8.46069e-18
7861.53883 7.96450e-18
7864.79404 7.90203e-18
7868.05958 8.05248e-18
7871.31479 7.86838e-18
7874.57000 7.96558e-18
7877.83555 7.69797e-18
7881.09076 7.84075e-18
7884.34597 7.97587e-18
7887.61151 7.89829e-18
7890.86672 7.97260e-18
7894.13227 7.98615e-18
7897.38748 8.03006e-18
7900.64269 7.99047e-18
7903.90823 7.85986e-18
7907.16344 7.66862e-18
7910.41865 7.80355e-18
7913.68419 7.87019e-18
7916.93940 7.33567e-18
7920.19461 7.40162e-18
7923.46016 7.53801e-18
7926.71537 7.52965e-18
7929.97058 7.70308e-18
7933.23612 7.73936e-18
7936.49133 7.96491e-18
7939.74654 7.91030e-18
7943.01209 7.84057e-18
7946.26730 7.86923e-18
7949.52251 7.87518e-18
7952.78805 7.72230e-18
7956.04326 7.66779e-18
7959.29847 7.35927e-18
7962.56401 7.71000e-18
7965.81922 7.79156e-18
7969.07443 7.57841e-18
7972.33998 7.56930e-18
7975.59519 7.59041e-18
7978.85040 7.78519e-18
7982.11594 7.80625e-18
7985.37115 7.87259e-18
7988.63670 7.61440e-18
7991.89191 7.62794e-18
7995.14712 7.31484e-18
7998.41266 7.70778e-18
8001.66787 7.81177e-18
8004.92308 7.79510e-18
8008.18862 7.83120e-18
8011.44383 7.70903e-18
8014.69904 7.90335e-18
8017.95425 7.54771e-18
8021.21980 7.37220e-18
8024.47501 7.83828e-18
8027.74055 8.00230e-18
8030.99576 7.74478e-18
8034.25097 7.74320e-18
8037.51652 7.69648e-18
8040.77173 7.55952e-18
8044.02694 7.64071e-18
8047.29248 7.51735e-18
8050.54769 7.56243e-18
8053.80290 7.54586e-18
8057.06844 7.30388e-18
8060.32365 7.62544e-18
8063.57886 7.55629e-18
8066.84441 7.62235e-18
8070.09962 7.63582e-18
8073.35483 7.68682e-18
8076.62037 7.60271e-18
8079.87558 7.53363e-18
8083.13079 7.51710e-18
8086.39634 7.62809e-18
8089.65155 7.53656e-18
8092.90676 7.43981e-18
8096.17230 7.56350e-18
8099.42751 7.62192e-18
8102.68272 7.61289e-18
8105.94826 7.69376e-18
8109.20347 7.63229e-18
8112.45868 7.53340e-18
8115.72423 7.63670e-18
8118.97944 7.45176e-18
8122.24498 7.41284e-18
8125.50019 7.62460e-18
8128.75540 7.37246e-18
8132.02095 7.39865e-18
8135.27616 7.40838e-18
8138.53137 7.31493e-18
8141.79691 7.39568e-18
8145.05212 7.38598e-18
8148.30733 7.30529e-18
8151.57287 7.19924e-18
8154.82808 7.38154e-18
8158.08329 7.43233e-18
8161.34884 7.21209e-18
8164.60405 7.15840e-18
8167.85926 7.21443e-18
8171.12480 7.16001e-18
8174.38001 7.12352e-18
8177.63522 7.34138e-18
8180.90077 7.32649e-18
8184.15598 7.03128e-18
8187.41119 7.34593e-18
8190.67673 7.12984e-18
8193.93194 7.14332e-18
8197.18715 7.04953e-18
8200.45269 7.08685e-18
8203.70790 7.15246e-18
8206.96311 7.07064e-18
8210.22866 7.43844e-18
8213.48387 7.36850e-18
8216.74941 7.27180e-18
8220.00462 7.22572e-18
8223.25983 7.20272e-18
8226.52538 7.15891e-18
8229.78059 6.97088e-18
8233.03580 6.89666e-18
8236.30134 6.93841e-18
8239.55655 7.03289e-18
8242.81176 7.13254e-18
8246.07730 7.35693e-18
8249.33251 7.41341e-18
8252.58772 7.33993e-18
8255.85327 7.25684e-18
8259.10848 7.20940e-18
8262.36369 7.13452e-18
8265.62923 7.12497e-18
8268.88444 6.82762e-18
8272.13965 7.07101e-18
8275.40520 7.03404e-18
8278.66041 7.04823e-18
8281.91562 7.01795e-18
8285.18116 6.75204e-18
8288.43637 7.04189e-18
8291.69158 7.20792e-18
8294.95712 6.93325e-18
8298.21233 7.04666e-18
8301.47788 7.14894e-18
8304.73309 7.17124e-18
8307.98830 7.25643e-18
8311.24351 7.33640e-18
8314.50905 7.50068e-18
8317.76426 7.41788e-18
8321.01947 7.45342e-18
8324.28502 7.25533e-18
8327.54023 7.36481e-18
8330.79544 7.51562e-18
8334.06098 7.37527e-18
8337.31619 7.11678e-18
8340.58173 7.01718e-18
8343.83694 7.24475e-18
8347.09215 7.41243e-18
8350.35770 7.02496e-18
8353.61291 7.17344e-18
8356.86812 7.64430e-18
8360.13366 7.47317e-18
8363.38887 7.35889e-18
8366.64408 7.33684e-18
8369.90963 7.27425e-18
8373.16484 7.31857e-18
8376.42005 7.39973e-18
8379.68559 7.35927e-18
8382.94080 7.26431e-18
8386.19601 7.50602e-18
8389.46155 7.52670e-18
8392.71676 7.48110e-18
8395.97197 7.01294e-18
8399.23752 7.02193e-18
8402.49273 7.63141e-18
8405.74794 7.30845e-18
8409.01348 7.02018e-18
8412.26869 7.29541e-18
8415.52390 7.56686e-18
8418.78945 7.45516e-18
8422.04466 7.21119e-18
8425.29987 7.18339e-18
8428.56541 7.37017e-18
8431.82062 7.69205e-18
8435.08616 7.62451e-18
8438.34137 7.71857e-18
8441.59658 7.37938e-18
8444.86213 7.48813e-18
8448.11734 7.57483e-18
8451.37255 7.81560e-18
8454.63809 7.46931e-18
8457.89330 7.63666e-18
8461.14851 7.30887e-18
8464.41406 7.40653e-18
8467.66927 7.33918e-18
8470.92448 7.23228e-18
8474.19002 7.47575e-18
8477.44523 7.52568e-18
8480.70044 7.56094e-18
8483.96598 7.51561e-18
8487.22119 7.27109e-18
8490.47640 7.33714e-18
8493.74195 7.48223e-18
8496.99716 7.29788e-18
8500.25237 7.16556e-18
8503.51791 7.47818e-18
8506.77312 7.71825e-18
8510.02833 7.54131e-18
8513.29388 7.37907e-18
8516.54909 7.33387e-18
8519.80430 7.39104e-18
8523.06984 7.48474e-18
8526.32505 7.42494e-18
8529.59059 7.33593e-18
8532.84580 7.37116e-18
8536.10101 7.40637e-18
8539.35622 7.39775e-18
8542.62177 7.30079e-18
8545.87698 7.35863e-18
8549.14252 7.41572e-18
8552.39773 7.48739e-18
8555.65294 7.59552e-18
8558.91849 7.43369e-18
8562.17370 7.54179e-18
8565.42891 7.40191e-18
8568.69445 7.41520e-18
8571.94966 7.50867e-18
8575.20487 7.47092e-18
8578.47041 7.55707e-18
8581.72562 7.52661e-18
8584.98083 7.45246e-18
8588.24638 7.22174e-18
8591.50159 7.17607e-18
8594.75680 7.21123e-18
8598.02234 7.42548e-18
8601.27755 7.46787e-18
8604.53276 7.22717e-18
8607.79831 7.26013e-18
8611.05352 7.26762e-18
8614.30873 7.24674e-18
8617.57427 7.35241e-18
8620.82948 7.14539e-18
8624.08469 7.12164e-18
8627.35023 7.18076e-18
8630.60544 7.19554e-18
8633.86065 7.20522e-18
8637.12620 7.24397e-18
8640.38141 7.26382e-18
8643.63662 7.20159e-18
8646.90216 7.11107e-18
8650.15737 7.16869e-18
8653.42292 7.41140e-18
8656.67813 7.01172e-18
8659.93334 7.07586e-18
8663.19888 7.15160e-18
8666.45409 7.05901e-18
8669.70930 7.05713e-18
8672.97484 7.07264e-18
8676.23005 7.18459e-18
8679.48526 6.87966e-18
8682.75081 6.53135e-18
8686.00602 7.02236e-18
8689.26123 7.36901e-18
8692.52677 7.18163e-18
8695.78198 7.11455e-18
8699.03719 7.24955e-18
8702.30274 7.13760e-18
8705.55795 6.91346e-18
8708.81316 6.80811e-18
8712.07870 7.06757e-18
8715.33391 7.25821e-18
8718.58912 7.11307e-18
8721.85466 7.20309e-18
8725.10987 7.07247e-18
8728.36508 6.96287e-18
8731.63063 7.08903e-18
8734.88584 7.06261e-18
8738.14105 6.97548e-18
8741.40659 7.02498e-18
8744.66180 6.89453e-18
8747.91701 6.75618e-18
8751.18256 6.83676e-18
8754.43777 6.67246e-18
8757.69298 6.75231e-18
8760.95852 6.62924e-18
8764.21373 6.51776e-18
8767.47927 6.82354e-18
8770.73448 6.48111e-18
8773.98969 6.28889e-18
8777.25524 6.62415e-18
8780.51045 6.34397e-18
8783.76566 6.66686e-18
8787.03120 6.46104e-18
8790.28641 6.54154e-18
8793.54162 6.57228e-18
8796.80717 6.48191e-18
8800.06238 6.64022e-18
8803.31759 6.65725e-18
8806.58313 6.58492e-18
8809.83834 6.44490e-18
8813.09355 6.43026e-18
8816.35909 6.66266e-18
8819.61430 6.58391e-18
8822.86951 6.31870e-18
8826.13506 6.35377e-18
8829.39027 6.57454e-18
8832.64548 6.43612e-18
8835.91102 6.27256e-18
8839.16623 6.10546e-18
8842.42144 6.61964e-18
8845.68699 6.39500e-18
8848.94220 6.21789e-18
8852.19741 6.38598e-18
8855.46295 6.43396e-18
8858.71816 6.48049e-18
8861.97337 6.35810e-18
8865.23891 6.22210e-18
8868.49412 6.33403e-18
8871.74933 6.38631e-18
8875.01488 6.37177e-18
8878.27009 6.22436e-18
8881.53563 5.87734e-18
8884.79084 5.89304e-18
8888.04605 5.89582e-18
8891.31160 6.00125e-18
8894.56681 6.26026e-18
8897.82202 6.20629e-18
8901.08756 6.30590e-18
8904.34277 6.31653e-18
8907.59798 6.35800e-18
8910.86352 6.08386e-18
8914.11873 5.92455e-18
8917.37394 5.78608e-18
8920.63949 5.91580e-18
8923.89470 5.93580e-18
8927.14991 5.80671e-18
8930.41545 5.99586e-18
8933.67066 6.15918e-18
8936.92587 6.05877e-18
8940.19142 5.95339e-18
8943.44663 6.07367e-18
8946.70184 6.23618e-18
8949.96738 5.95680e-18
8953.22259 5.79779e-18
8956.47780 5.82783e-18
8959.74334 6.40335e-18
8962.99855 6.06183e-18
8966.25376 5.66887e-18
8969.51931 5.59803e-18
8972.77452 5.66888e-18
8976.04006 5.75759e-18
8979.29527 5.86346e-18
8982.55048 5.97359e-18
8985.80569 5.85986e-18
8989.07124 5.90847e-18
8992.32645 5.63034e-18
8995.59199 5.21431e-18
8998.84720 5.20581e-18
9002.10241 5.75908e-18
9005.35762 6.07138e-18
9008.62316 5.67266e-18
9011.87837 5.63197e-18
9015.14392 5.56415e-18
9018.39913 5.90134e-18
9021.65434 5.68425e-18
9024.91988 5.70929e-18
9028.17509 5.64864e-18
9031.43030 5.74222e-18
9034.69585 5.93144e-18
9037.95106 6.17629e-18
9041.20627 6.09708e-18
9044.47181 5.87016e-18
9047.72702 5.67970e-18
9050.98223 6.04434e-18
9054.24777 6.27265e-18
9057.50298 5.89390e-18
9060.75819 5.87898e-18
9064.02374 6.13719e-18
9067.27895 5.93971e-18
9070.54449 5.68880e-18
9073.79970 5.68817e-18
9077.05491 5.69326e-18
9080.31012 5.58430e-18
9083.57567 5.46183e-18
9086.83088 5.55317e-18
9090.08609 5.64876e-18
9093.35163 5.62974e-18
9096.60684 5.62697e-18
9099.86205 5.60568e-18
9103.12759 5.76385e-18
9106.38280 5.73116e-18
9109.64835 5.67570e-18
9112.90356 5.73415e-18
9116.15877 5.90647e-18
9119.42431 5.89442e-18
9122.67952 5.70233e-18
9125.93473 5.76289e-18
9129.20028 5.93585e-18
9132.45549 5.78437e-18
9135.71070 5.59807e-18
9138.97624 5.60242e-18
9142.23145 5.60322e-18
9145.48666 5.68437e-18
9148.75220 5.74844e-18
9152.00741 5.83454e-18
9155.26262 5.62348e-18
9158.52817 5.29164e-18
9161.78338 5.64569e-18
9165.03859 5.59390e-18
9168.30413 5.44975e-18
9171.55934 5.43708e-18
9174.81455 5.41516e-18
9178.08010 5.55023e-18
9181.33531 5.31454e-18
9184.59052 5.47516e-18
9187.85606 5.67053e-18
9191.11127 5.55560e-18
9194.37681 5.52163e-18
9197.63202 5.59485e-18
9200.88723 5.63753e-18
9204.15278 5.72136e-18
9207.40799 5.75551e-18
9210.66320 5.62433e-18
9213.92874 5.59463e-18
9217.18395 5.48903e-18
9220.43916 5.43382e-18
9223.70471 5.50840e-18
9226.95992 5.49930e-18
9230.21513 5.64335e-18
9233.48067 5.75050e-18
9236.73588 5.61022e-18
9239.99109 5.45155e-18
9243.25663 5.50624e-18
9246.51184 5.47517e-18
9249.76705 5.31019e-18
9253.03260 5.34433e-18
9256.28781 5.26795e-18
9259.54302 5.32689e-18
9262.80856 5.28524e-18
9266.06377 5.33495e-18
9269.31898 5.41086e-18
9272.58453 5.34230e-18
9275.83974 5.40828e-18
9279.09495 5.18188e-18
9282.36049 5.14522e-18
9285.61570 4.95075e-18
9288.87091 5.00330e-18
9292.13645 5.13296e-18
9295.39166 5.15152e-18
9298.65721 4.59279e-18
9301.91242 4.57745e-18
9305.16763 4.39165e-18
9308.43317 4.44634e-18
9311.68838 4.27686e-18
9314.94359 4.17883e-18
9318.20914 3.43816e-18
9321.46435 3.09847e-18
9324.71956 2.97585e-18
9327.98510 3.14517e-18
9331.24031 3.13070e-18
9334.49552 3.26675e-18
9337.76106 3.24804e-18
9341.01627 3.01173e-18
9344.27148 3.46846e-18
9347.53703 3.26820e-18
9350.79224 3.20076e-18
9354.04745 3.61496e-18
9357.31299 3.70355e-18
9360.56820 3.32543e-18
9363.82341 3.25872e-18
9367.08896 3.14403e-18
9370.34417 3.41403e-18
9373.59938 3.68821e-18
9376.86492 3.84025e-18
9380.12013 5.14520e-18
9383.37534 4.65926e-18
9386.64088 2.59393e-18
9389.89609 2.75026e-18
9393.15130 3.74163e-18
9396.41685 3.86395e-18
9399.67206 3.70418e-18
9402.93760 3.91039e-18
9406.19281 4.16590e-18
9409.44802 4.06819e-18
9412.71357 3.91552e-18
9415.96878 3.70227e-18
9419.22399 3.56447e-18
9422.48953 2.90173e-18
9425.74474 1.99817e-18
9428.99995 2.93143e-18
9432.26549 2.71910e-18
9435.52070 2.18139e-18
9438.77591 1.56140e-18
9442.04146 1.95067e-18
9445.29667 2.12369e-18
9448.55188 1.67005e-18
9451.81742 2.31193e-18
9455.07263 3.02688e-18
9458.32784 2.89988e-18
9461.59339 2.60399e-18
9464.84860 2.78036e-18
9468.10381 2.95951e-18
9471.36935 2.98031e-18
9474.62456 2.79147e-18
9477.87977 3.07116e-18
9481.14531 3.52802e-18
9484.40052 2.86939e-18
9487.65573 2.33959e-18
9490.92128 2.64451e-18
9494.17649 2.96766e-18
9497.44203 3.01235e-18
9500.69724 2.72455e-18
9503.95245 2.18308e-18
9507.20766 2.43797e-18
9510.47321 2.69281e-18
9513.72842 2.82815e-18
9516.98363 2.64520e-18
9520.24917 2.95474e-18
9523.50438 3.04716e-18
9526.76992 2.43440e-18
9530.02513 2.28105e-18
9533.28034 2.54276e-18
9536.54589 2.96239e-18
9539.80110 3.09970e-18
9543.05631 3.04183e-18
9546.32185 2.87306e-18
9549.57706 2.44253e-18
9552.83227 2.30754e-18
9556.09782 2.61186e-18
9559.35303 2.58985e-18
9562.60824 2.10479e-18
9565.87378 2.00988e-18
9569.12899 2.36672e-18
9572.38420 2.54464e-18
9575.64974 2.14955e-18
9578.90495 2.46279e-18
9582.16016 2.63925e-18
9585.42571 2.65932e-18
9588.68092 2.51394e-18
9591.93613 2.50809e-18
9595.20167 2.43004e-18
9598.45688 2.29594e-18
9601.71209 2.32795e-18
9604.97764 2.41391e-18
9608.23285 2.50055e-18
9611.48806 2.53744e-18
9614.75360 2.56801e-18
9618.00881 2.27148e-18
9621.26402 2.10458e-18
9624.52956 2.21922e-18
9627.78477 2.08596e-18
9631.05032 2.06615e-18
9634.30553 2.18567e-18
9637.56074 2.41506e-18
9640.81595 1.65538e-18
9644.08149 4.79839e-19
9647.33670 2.00007e-18
9650.59191 2.10484e-18
9653.85746 1.06911e-18
9654.99564 1.06911e-18
9657.10922 1.07559e-18
9659.23283 1.08206e-18
9661.34642 1.08621e-18
9663.47002 1.09035e-18
9665.58361 1.09168e-18
9667.70721 1.09302e-18
9669.83081 1.09255e-18
9671.94440 1.09207e-18
9674.06800 1.09037e-18
9676.18159 1.08868e-18
9678.30520 1.08646e-18
9680.41878 1.08424e-18
9682.54239 1.08195e-18
9684.66599 1.07967e-18
9686.77958 1.07782e-18
9688.90318 1.07597e-18
9691.01677 1.07549e-18
9693.14037 1.07501e-18
9695.25396 1.07471e-18
9697.37756 1.07441e-18
9699.50117 1.07311e-18
9701.61476 1.07181e-18
9703.73836 1.06791e-18
9705.85195 1.06401e-18
9707.97555 1.05752e-18
9710.08914 1.05103e-18
9712.21274 1.04338e-18
9714.33635 1.03574e-18
9716.44993 1.02803e-18
9718.57354 1.02033e-18
9720.68712 1.01364e-18
9722.81073 1.00695e-18
9724.92431 1.00089e-18
9727.04792 9.94820e-19
9729.17152 9.89311e-19
9731.28511 9.83805e-19
9733.40871 9.78644e-19
9735.52230 9.73485e-19
9737.64590 9.68826e-19
9739.75949 9.64167e-19
9741.88310 9.60096e-19
9744.00670 9.56024e-19
9746.12029 9.52690e-19
9748.24389 9.49354e-19
9750.35748 9.46573e-19
9752.48108 9.43790e-19
9754.59467 9.41148e-19
9756.71827 9.38505e-19
9758.84188 9.35633e-19
9760.95546 9.32762e-19
9763.07907 9.29383e-19
9765.19265 9.26005e-19
9767.31626 9.22647e-19
9769.42985 9.19290e-19
9771.55345 9.16291e-19
9773.67705 9.13290e-19
9775.79064 9.10943e-19
9777.91424 9.08593e-19
9780.02783 9.07280e-19
9782.15143 9.05967e-19
9784.27504 9.05953e-19
9786.38863 9.05938e-19
9788.51223 9.07803e-19
9790.62582 9.09668e-19
9792.74942 9.12742e-19
9794.86301 9.15815e-19
9796.98661 9.18618e-19
9799.10020 9.21420e-19
9801.22380 9.22709e-19
9803.34741 9.23996e-19
9805.46099 9.22701e-19
9807.58460 9.21407e-19
9809.69818 9.17653e-19
9811.82179 9.13897e-19
9813.93538 9.07679e-19
9816.05898 9.01462e-19
9818.18258 8.92643e-19
9820.29617 8.83826e-19
9822.41978 8.74059e-19
9824.53336 8.64290e-19
9826.65697 8.55164e-19
9828.77055 8.46035e-19
9830.89416 8.39543e-19
9833.01776 8.33050e-19
9835.13135 8.29714e-19
9837.25495 8.26378e-19
9839.36854 8.25802e-19
9841.49214 8.25225e-19
9843.61575 8.27153e-19
9845.72933 8.29080e-19
9847.85294 8.33140e-19
9849.96652 8.37201e-19
9852.09013 8.43410e-19
9854.20372 8.49617e-19
9856.32732 8.57689e-19
9858.44091 8.65761e-19
9860.56451 8.75295e-19
9862.68812 8.84827e-19
9864.80170 8.95309e-19
9866.92531 9.05790e-19
9869.03889 9.16586e-19
9871.16250 9.27383e-19
9873.27608 9.38354e-19
9875.39969 9.49324e-19
9877.52329 9.58918e-19
9879.63688 9.68510e-19
9881.76048 9.74659e-19
9883.87407 9.80808e-19
9885.99767 9.81512e-19
9888.11126 9.82215e-19
9890.23487 9.76405e-19
9892.35847 9.70595e-19
9894.47206 9.60999e-19
9896.59566 9.51403e-19
9898.70925 9.39938e-19
9900.83285 9.28472e-19
9902.94644 9.17433e-19
9905.07004 9.06394e-19
9907.19365 8.96683e-19
9909.30723 8.86972e-19
9911.43084 8.79453e-19
9913.54442 8.71933e-19
9915.66803 8.67948e-19
9917.79163 8.63964e-19
9919.90522 8.62777e-19
9922.02882 8.61590e-19
9924.14241 8.61539e-19
9926.26601 8.61490e-19
9928.37960 8.60976e-19
9930.50321 8.60463e-19
9932.61679 8.58190e-19
9934.74040 8.55919e-19
9936.86400 8.52110e-19
9938.97759 8.48300e-19
9941.10119 8.42832e-19
9943.21478 8.37363e-19
9945.33838 8.30130e-19
9947.45197 8.22899e-19
9949.57557 8.14974e-19
9951.69918 8.07049e-19
9953.81276 7.99438e-19
9955.93637 7.91832e-19
9958.04996 7.85751e-19
9960.17356 7.79674e-19
9962.28715 7.75536e-19
9964.41075 7.71399e-19
9966.53435 7.69227e-19
9968.64794 7.67052e-19
9970.77155 7.67045e-19
9972.88513 7.67039e-19
9975.00874 7.68992e-19
9977.13234 7.70947e-19
9979.24593 7.73636e-19
9981.36953 7.76326e-19
9983.48312 7.78731e-19
