# wavelength flux
3525.90913 -8.62298e-18
3528.51330 -7.53165e-18
3531.11747 -6.97247e-18
3533.73197 -7.79793e-18
3536.32580 -6.07600e-18
3538.92997 -5.06450e-18
3541.54447 -8.00762e-18
3544.14864 -6.80232e-18
3546.75281 -7.36977e-18
3549.35698 -7.06172e-18
3551.96114 -7.43837e-18
3554.56531 -8.29141e-18
3557.16948 -6.71267e-18
3559.77365 -6.76799e-18
3562.37782 -7.65634e-18
3564.98198 -7.26810e-18
3567.58615 -1.52269e-17
3570.19032 -4.61902e-18
3572.79449 -7.53450e-18
3575.39866 -7.46027e-18
3578.00282 -9.60969e-18
3580.60699 -8.45681e-18
3583.21116 -8.12972e-18
3585.81533 -8.97238e-18
3588.41950 -7.87473e-18
3591.02366 -1.15560e-18
3593.62783 -3.45518e-18
3596.23200 -7.03220e-18
3598.83617 -1.61409e-17
3601.44034 -1.32138e-17
3604.05484 -1.03203e-17
3606.65901 -8.43709e-18
3609.26317 -1.05773e-17
3611.86734 -4.20949e-18
3614.47151 -5.94487e-18
3617.07568 -4.08777e-18
3619.67985 -9.30846e-18
3622.28401 -6.09532e-18
3624.88818 -9.41249e-18
3627.49235 -8.99745e-18
3630.09652 -7.58108e-18
3632.70069 -5.23966e-18
3635.30485 -6.33514e-18
3637.90902 -5.52078e-18
3640.51319 -3.35010e-18
3643.11736 -4.61497e-18
3645.72153 -6.85058e-18
3648.32569 -5.56195e-18
3650.92986 -6.33700e-18
3653.53403 -7.25560e-18
3656.13820 -5.84470e-18
3658.74237 -5.01654e-18
3661.34653 -7.28516e-18
3663.95070 -1.03073e-17
3666.55487 -5.24373e-18
3669.16937 -9.64354e-18
3671.77354 -1.26913e-17
3674.37771 -6.57804e-18
3676.98188 -6.41300e-18
3679.58604 -5.94399e-18
3682.19021 -6.92951e-18
3684.79438 -1.27678e-17
3687.39855 -7.21065e-18
3690.00272 -9.07496e-18
3692.60688 -1.02599e-17
3695.21105 -8.72540e-18
3697.81522 -1.09912e-17
3700.41939 -8.54992e-18
3703.02356 -9.54977e-18
3705.62772 -5.95506e-18
3708.23189 -7.18897e-18
3710.83606 -8.48244e-18
3713.44023 -7.96479e-18
3716.04440 -6.86963e-18
3718.64856 -6.38159e-18
3721.25273 -7.98059e-18
3723.85690 -7.52609e-18
3726.46107 -5.72331e-18
3729.06524 -8.98408e-18
3731.67974 -9.52536e-18
3734.28391 -9.73953e-18
3736.88807 -7.44967e-18
3739.49224 -5.27540e-18
3742.09641 -9.60293e-18
3744.70058 -6.01254e-18
3747.30475 -7.81973e-18
3749.90891 -5.11871e-18
3752.51308 -4.36650e-18
3755.11725 -3.25403e-18
3757.72142 -5.15311e-18
3760.32559 -1.55805e-18
3762.92975 -5.02085e-18
3765.53392 -4.35182e-18
3768.13809 -4.61536e-18
3770.74226 -6.80887e-18
3773.34643 -4.82865e-18
3775.95059 -4.61372e-18
3778.55476 -2.69066e-18
3781.15893 -5.04652e-18
3783.76310 -3.56559e-18
3786.36727 -4.49742e-18
3788.97143 -2.57214e-18
3791.57560 -4.69206e-18
3794.17977 -1.08662e-18
3796.78394 1.32276e-18
3799.39844 1.11925e-18
3802.00261 -4.78184e-18
3804.60678 -2.28640e-18
3807.21094 -5.48018e-19
3809.81511 -1.61000e-18
3812.41928 -2.50121e-18
3815.02345 -1.76798e-18
3817.62762 -2.63535e-18
3820.23178 -2.07148e-18
3822.83595 3.05238e-19
3825.44012 5.87273e-19
3828.04429 -1.69887e-18
3830.64846 -2.25725e-18
3859.29430 1.48863e-18
3861.89847 -2.85310e-18
3864.50264 -1.96788e-18
3867.11714 7.70774e-19
3869.72131 7.74811e-19
3872.32548 -1.72255e-18
3874.92965 -4.27953e-19
3877.53381 7.94477e-19
3880.13798 -7.46565e-19
3882.74215 -2.63238e-18
3885.34632 -2.11577e-18
3887.95049 -7.15661e-19
3890.55465 -1.21862e-18
3893.15882 -1.82991e-18
3895.76299 -3.80638e-18
3898.36716 -1.25966e-18
3900.97133 4.76493e-19
3903.57549 -3.84883e-19
3906.17966 -8.17549e-19
3908.78383 -3.56147e-19
3911.38800 1.28889e-18
3913.99217 -9.47141e-19
3916.59633 3.51738e-19
3919.20050 -2.20078e-19
3921.80467 2.47985e-18
3924.40884 1.08649e-18
3927.01301 5.43741e-19
3929.62751 1.14469e-18
3932.23168 6.49134e-20
3934.83584 -2.21161e-19
3937.44001 8.16293e-19
3940.04418 6.16572e-19
3942.64835 1.85718e-19
3945.25252 -2.16010e-19
3947.85668 -1.10600e-19
3950.46085 -8.39083e-19
3953.06502 7.74291e-19
3955.66919 3.60472e-19
3958.27336 9.30572e-19
3960.87752 9.23629e-19
3963.48169 6.95414e-19
3966.08586 2.12748e-18
3968.69003 2.26032e-19
3971.29420 1.53183e-18
3973.89836 6.09891e-19
3976.50253 1.56137e-18
3979.10670 1.04728e-18
3981.71087 1.94350e-18
3984.31504 2.31660e-18
3986.91920 3.73054e-19
3989.52337 -1.63662e-19
3992.12754 2.66364e-18
3994.73171 8.38626e-19
3997.34621 3.69230e-18
3999.95038 1.33168e-18
4002.55455 2.06077e-18
4005.15871 4.10094e-18
4007.76288 1.89595e-18
4010.36705 -5.24564e-19
4012.97122 -7.71729e-19
4015.57539 2.97110e-18
4018.17955 3.21632e-18
4020.78372 -1.30867e-19
4023.38789 -9.58865e-19
4025.99206 5.57499e-19
4028.59623 2.49488e-18
4031.20039 9.29625e-19
4033.80456 1.54491e-18
4036.40873 -1.42122e-18
4039.01290 3.28356e-19
4041.61707 4.16266e-18
4044.22123 8.39569e-19
4046.82540 -7.35249e-20
4049.42957 4.51580e-18
4052.03374 5.50652e-18
4054.63791 4.66169e-18
4057.24207 2.02795e-18
4059.84624 2.48671e-18
4062.46074 2.40064e-18
4065.06491 4.26038e-19
4067.66908 -5.95807e-20
4070.27325 8.43562e-19
4072.87742 2.66680e-18
4075.48158 3.00235e-18
4078.08575 3.58704e-18
4080.68992 1.62418e-18
4083.29409 1.46057e-18
4085.89826 5.81657e-19
4088.50242 2.62711e-18
4091.10659 5.27046e-18
4093.71076 4.47571e-18
4096.31493 3.92702e-18
4098.91910 5.64336e-18
4101.52326 2.85782e-18
4104.12743 5.45742e-18
4106.73160 3.69343e-18
4109.33577 9.99985e-19
4111.93994 1.07825e-18
4114.54410 2.35719e-18
4117.14827 1.49691e-18
4119.75244 6.49597e-19
4122.35661 2.08628e-18
4124.96078 4.27387e-18
4127.56494 2.00513e-18
4130.17945 3.00928e-18
4132.78361 3.22758e-18
4135.38778 4.46910e-18
4137.99195 4.36878e-18
4140.59612 4.33243e-18
4143.20029 3.86473e-18
4145.80445 2.76958e-18
4148.40862 3.58000e-18
4151.01279 4.80023e-18
4153.61696 4.08236e-18
4156.22113 5.10395e-18
4158.82529 4.40871e-18
4161.42946 3.77763e-18
4164.03363 3.11342e-18
4166.63780 5.23065e-18
4169.24197 2.84564e-18
4171.84613 4.18605e-18
4174.45030 4.55913e-18
4177.05447 4.15988e-18
4179.65864 3.42344e-18
4182.26281 3.14882e-18
4184.86697 4.40142e-18
4187.47114 5.53087e-18
4190.08564 4.86481e-18
4192.68981 4.50268e-18
4195.29398 4.42676e-18
4197.89815 3.53598e-18
4200.50232 5.23263e-18
4203.10648 5.88687e-18
4205.71065 5.39163e-18
4208.31482 5.31397e-18
4210.91899 4.83185e-18
4213.52316 4.76391e-18
4216.12732 4.92113e-18
4218.73149 5.02120e-18
4221.33566 5.78354e-18
4223.93983 5.50788e-18
4226.54400 5.56019e-18
4229.14816 5.33699e-18
4231.75233 4.49822e-18
4234.35650 5.86092e-18
4236.96067 5.72007e-18
4239.56484 5.18553e-18
4242.16900 5.28051e-18
4244.77317 4.95976e-18
4247.37734 5.66309e-18
4249.98151 3.71693e-18
4252.58568 5.98679e-18
4255.18984 4.36213e-18
4257.79401 4.08627e-18
4260.40851 4.96872e-18
4263.01268 5.74499e-18
4265.61685 5.99567e-18
4268.22102 6.65296e-18
4270.82519 4.39412e-18
4273.42935 5.14287e-18
4276.03352 4.11753e-18
4278.63769 4.81869e-18
4281.24186 5.60446e-18
4283.84603 5.56508e-18
4286.45019 5.25353e-18
4289.05436 6.62519e-18
4291.65853 5.98801e-18
4294.26270 6.61824e-18
4296.86687 5.51938e-18
4299.47103 5.69061e-18
4302.07520 5.80520e-18
4304.67937 5.12518e-18
4307.28354 5.54126e-18
4309.88771 5.03747e-18
4312.49187 5.50667e-18
4315.09604 5.79679e-18
4317.70021 4.95782e-18
4320.30438 4.34976e-18
4322.91888 5.94059e-18
4325.51271 5.06158e-18
4328.12722 4.97083e-18
4330.73138 5.73028e-18
4333.33555 5.72860e-18
4335.93972 5.19491e-18
4338.54389 4.67717e-18
4341.14806 4.15192e-18
4343.75222 6.25809e-18
4346.35639 7.19241e-18
4348.96056 6.19033e-18
4351.56473 5.44501e-18
4354.16890 6.01646e-18
4356.77306 6.93100e-18
4359.37723 6.03942e-18
4361.98140 4.80825e-18
4364.58557 4.70856e-18
4367.18974 4.67753e-18
4369.79390 4.00589e-18
4372.39807 4.25245e-18
4375.00224 4.82911e-18
4377.60641 5.13757e-18
4380.21058 7.06962e-18
4382.81474 6.31888e-18
4385.41891 5.03024e-18
4388.02308 5.52180e-18
4390.63758 6.35359e-18
4393.24175 6.85222e-18
4395.84592 5.88509e-18
4398.45009 6.78903e-18
4401.05425 6.54935e-18
4403.65842 6.55822e-18
4406.26259 4.99167e-18
4408.86676 5.81253e-18
4411.47093 5.98914e-18
4414.07509 7.18912e-18
4416.67926 8.22248e-18
4419.28343 7.33349e-18
4421.88760 7.22279e-18
4424.49177 6.56387e-18
4427.09593 6.11748e-18
4429.70010 5.98248e-18
4432.30427 6.78682e-18
4434.90844 6.88372e-18
4437.51261 7.95791e-18
4440.11677 9.56168e-18
4442.72094 8.09207e-18
4445.32511 7.59825e-18
4447.92928 6.35101e-18
4450.53345 6.13750e-18
4453.13761 7.46613e-18
4455.75212 7.26783e-18
4458.35628 8.63228e-18
4460.96045 9.08605e-18
4463.56462 7.45679e-18
4466.16879 8.94319e-18
4489.60630 1.24324e-17
4492.21047 1.15098e-17
4494.81464 8.56969e-18
4497.41880 8.97382e-18
4500.02297 1.19746e-17
4502.62714 1.20490e-17
4505.23131 1.17599e-17
4507.83548 1.23434e-17
4510.43964 1.25847e-17
4513.04381 1.23432e-17
4515.64798 1.22534e-17
4518.25215 1.18697e-17
4520.86665 1.19271e-17
4523.47082 1.22416e-17
4526.07499 1.19087e-17
4528.67915 1.20349e-17
4531.28332 1.29530e-17
4533.88749 1.26446e-17
4536.49166 1.25626e-17
4539.09583 1.28549e-17
4541.69999 1.22995e-17
4544.30416 1.32144e-17
4546.90833 1.44080e-17
4549.51250 1.46352e-17
4552.11667 1.47524e-17
4554.72083 1.43970e-17
4557.32500 1.29735e-17
4559.92917 1.35009e-17
4562.53334 1.32011e-17
4565.13751 1.28283e-17
4567.74167 1.30418e-17
4570.34584 1.19496e-17
4572.95001 1.19792e-17
4575.55418 1.27842e-17
4578.15835 1.34640e-17
4580.76251 1.33912e-17
4583.36668 1.45898e-17
4585.97085 1.41325e-17
4588.58535 1.41946e-17
4591.18952 1.47119e-17
4593.79369 1.46965e-17
4596.39786 1.50980e-17
4599.00202 1.48368e-17
4601.60619 1.42045e-17
4604.21036 1.51361e-17
4606.81453 1.54627e-17
4609.41870 1.37559e-17
4612.02286 1.45247e-17
4614.62703 1.50010e-17
4617.23120 1.40583e-17
4619.83537 1.35577e-17
4622.43954 1.40127e-17
4625.04370 1.43979e-17
4627.64787 1.45517e-17
4630.25204 1.37495e-17
4632.85621 1.40906e-17
4635.46038 1.42368e-17
4638.06454 1.47042e-17
4640.66871 1.34944e-17
4643.27288 1.45512e-17
4645.87705 1.50843e-17
4648.48122 1.37987e-17
4651.09572 1.52247e-17
4653.68955 1.30805e-17
4656.30405 1.38135e-17
4658.90822 1.44602e-17
4661.51239 1.40283e-17
4664.11656 1.24555e-17
4666.72073 1.36702e-17
4669.32489 1.38834e-17
4671.92906 1.47904e-17
4674.53323 1.37044e-17
4677.13740 1.32975e-17
4679.74157 1.44753e-17
4682.34573 1.42185e-17
4684.94990 1.29797e-17
4687.55407 1.41669e-17
4690.15824 1.48244e-17
4692.76241 1.41918e-17
4695.36657 1.44101e-17
4697.97074 1.39098e-17
4700.57491 1.28457e-17
4703.17908 1.41008e-17
4705.78325 1.49438e-17
4708.38741 1.43483e-17
4710.99158 1.52714e-17
4713.59575 1.48957e-17
4716.21025 1.38962e-17
4718.81442 1.56141e-17
4721.41859 1.56983e-17
4724.02276 1.58272e-17
4726.62692 1.42814e-17
4729.23109 1.37846e-17
4731.83526 1.32509e-17
4734.43943 1.40568e-17
4737.04360 1.44109e-17
4739.64776 1.38537e-17
4742.25193 1.42434e-17
4744.85610 1.59479e-17
4747.46027 1.49460e-17
4750.06444 1.44622e-17
4752.66860 1.48169e-17
4755.27277 1.45846e-17
4757.87694 1.47935e-17
4760.48111 1.48434e-17
4763.08528 1.44880e-17
4765.68944 1.49252e-17
4768.29361 1.49646e-17
4770.89778 1.55525e-17
4773.50195 1.54731e-17
4776.10612 1.45256e-17
4778.71028 1.52108e-17
4781.31445 1.54573e-17
4783.91862 1.43434e-17
4786.53312 1.53136e-17
4789.13729 1.58556e-17
4791.74146 1.49335e-17
4794.34563 1.59039e-17
4796.94979 1.56325e-17
4799.55396 1.51102e-17
4802.15813 1.52674e-17
4804.76230 1.54984e-17
4807.36647 1.56701e-17
4809.97063 1.57238e-17
4812.57480 1.45638e-17
4815.17897 1.59783e-17
4817.78314 1.46924e-17
4820.38731 1.44193e-17
4822.99147 1.51963e-17
4825.59564 1.66631e-17
4828.19981 1.82466e-17
4830.80398 1.79020e-17
4833.40815 1.75577e-17
4836.01231 1.78310e-17
4838.61648 1.80894e-17
4841.22065 1.78188e-17
4843.82482 1.70197e-17
4846.42899 1.67056e-17
4849.04349 1.68613e-17
4851.64766 1.84253e-17
4854.25182 1.83456e-17
4856.85599 1.74305e-17
4859.46016 1.76443e-17
4862.06433 1.85319e-17
4864.66850 1.86135e-17
4867.27266 1.94270e-17
4869.87683 1.89374e-17
4872.48100 1.72339e-17
4875.08517 1.69794e-17
4877.68934 1.73245e-17
4880.29350 1.80931e-17
4882.89767 1.80724e-17
4885.50184 1.80516e-17
4888.10601 1.65271e-17
4890.71018 1.76306e-17
4893.31434 1.75225e-17
4895.91851 1.73999e-17
4898.52268 1.80501e-17
4901.12685 1.80731e-17
4903.73102 1.78921e-17
4906.33518 1.77549e-17
4908.93935 1.87681e-17
4911.54352 1.75391e-17
4914.14769 1.75331e-17
4916.76219 1.63344e-17
4919.36636 1.69396e-17
4921.97053 1.79513e-17
4924.57469 1.83666e-17
4927.17886 1.84330e-17
4929.78303 1.76717e-17
4932.38720 1.78835e-17
4934.99137 1.72244e-17
4937.59553 1.74217e-17
4940.19970 1.81988e-17
4942.80387 1.65691e-17
4945.40804 1.65345e-17
4948.01221 1.69056e-17
4950.61637 1.70737e-17
4953.22054 1.65033e-17
4955.82471 1.57886e-17
4958.42888 1.64343e-17
4961.03305 1.65589e-17
4963.63721 1.67847e-17
4966.24138 1.62443e-17
4968.84555 1.71056e-17
4971.44972 1.64933e-17
4974.05389 1.64300e-17
4976.65805 1.66987e-17
4979.27256 1.59717e-17
4981.86639 1.58510e-17
4984.48089 1.55429e-17
4987.08506 1.53503e-17
4989.68923 1.53307e-17
4992.29340 1.66363e-17
4994.89756 1.66452e-17
4997.50173 1.50419e-17
5028.75175 1.70034e-17
5031.35592 1.51776e-17
5033.96008 1.48573e-17
5036.56425 1.44084e-17
5039.16842 1.47759e-17
5041.77259 1.51432e-17
5044.37676 1.57534e-17
5046.99126 1.64777e-17
5049.59543 1.55429e-17
5052.19959 1.58808e-17
5054.80376 1.62185e-17
5057.40793 1.56132e-17
5060.01210 1.57366e-17
5062.61627 1.59456e-17
5065.22043 1.57120e-17
5067.82460 1.61491e-17
5070.42877 1.56732e-17
5073.03294 1.57536e-17
5075.63711 1.66606e-17
5078.24127 1.69828e-17
5080.84544 1.66212e-17
5083.44961 1.57473e-17
5086.05378 1.59272e-17
5088.65795 1.63346e-17
5091.26211 1.59737e-17
5093.86628 1.58548e-17
5096.47045 1.61055e-17
5187.63700 1.93988e-17
5190.24117 1.86761e-17
5192.84533 1.93305e-17
5195.44950 1.80043e-17
5198.05367 1.77320e-17
5200.65784 1.95791e-17
5203.26201 2.03447e-17
5205.86617 2.02402e-17
5208.47034 2.08930e-17
5211.07451 2.06903e-17
5213.67868 1.98150e-17
5216.28285 1.93886e-17
5218.88701 1.98448e-17
5221.49118 2.01047e-17
5224.09535 2.04904e-17
5226.69952 2.18553e-17
5229.30369 2.15129e-17
5231.90785 2.09749e-17
5234.51202 2.14857e-17
5237.11619 2.23316e-17
5239.73069 2.23388e-17
5242.33486 2.20806e-17
5244.93903 2.14176e-17
5247.54320 2.14949e-17
5250.14736 2.25209e-17
5252.75153 2.25838e-17
5255.35570 2.22841e-17
5257.95987 2.19289e-17
5260.56404 2.21034e-17
5263.16820 2.19992e-17
5265.77237 2.19508e-17
5268.37654 2.26821e-17
5270.98071 2.24109e-17
5273.58488 2.25294e-17
5276.18904 2.32599e-17
5278.79321 2.36563e-17
5281.39738 2.31070e-17
5284.00155 2.22244e-17
5286.60572 2.24401e-17
5289.20988 2.24195e-17
5291.81405 2.15936e-17
5294.41822 2.23785e-17
5297.02239 2.28021e-17
5299.62656 2.33780e-17
5302.23072 2.33572e-17
5304.83489 2.30591e-17
5307.43906 2.25949e-17
5310.05356 2.27130e-17
5312.65773 2.32050e-17
5315.26190 2.45139e-17
5317.86607 2.49913e-17
5320.47023 2.42504e-17
5323.07440 2.47830e-17
5325.67857 2.44576e-17
5328.28274 2.38558e-17
5330.88691 2.47890e-17
5333.49107 2.46297e-17
5336.09524 2.43601e-17
5338.69941 2.48365e-17
5341.30358 2.56855e-17
5343.90775 2.61198e-17
5346.51191 2.62779e-17
5349.11608 2.61738e-17
5351.72025 2.61111e-17
5354.32442 2.79514e-17
5356.92859 2.65234e-17
5359.53275 2.60610e-17
5362.13692 2.73625e-17
5364.74109 2.71894e-17
5367.34526 2.69475e-17
5369.94943 2.80136e-17
5372.56393 2.81570e-17
5375.16810 2.82591e-17
5377.77226 2.83611e-17
5380.37643 2.82569e-17
5382.98060 2.87300e-17
5385.58477 2.96427e-17
5388.18894 2.92909e-17
5390.79310 2.82663e-17
5393.39727 2.89586e-17
5396.00144 3.03232e-17
5398.60561 2.97521e-17
5401.20978 2.97163e-17
5403.81394 2.95297e-17
5406.41811 3.07830e-17
5409.02228 3.16518e-17
5411.62645 3.05329e-17
5414.23062 3.08122e-17
5416.83478 3.06256e-17
5419.43895 3.07541e-17
5422.04312 3.13342e-17
5424.64729 3.13530e-17
5427.25146 3.14128e-17
5429.85562 3.15136e-17
5432.45979 3.18331e-17
5435.06396 3.21115e-17
5437.66813 3.10367e-17
5440.27230 3.14655e-17
5442.88680 3.19760e-17
5445.49097 3.17898e-17
5448.09513 3.26685e-17
5450.69930 3.25778e-17
5453.30347 3.23097e-17
5455.90764 3.26830e-17
5458.51181 3.24560e-17
5461.11597 3.17519e-17
5463.72014 3.25612e-17
5466.32431 3.31111e-17
5468.92848 3.40422e-17
5471.53265 3.44553e-17
5474.13681 3.39151e-17
5476.74098 3.41103e-17
5479.34515 3.41556e-17
5481.94932 3.45411e-17
5484.55349 3.40559e-17
5487.15765 3.40605e-17
5489.76182 3.38884e-17
5492.36599 3.34446e-17
5494.97016 3.46450e-17
5497.57433 3.50298e-17
5500.18883 3.50478e-17
5502.79300 3.52015e-17
5505.38683 3.52737e-17
5508.00133 3.57259e-17
5510.60550 3.53503e-17
5513.20967 3.50563e-17
5515.81384 3.56438e-17
5518.41800 3.53228e-17
5521.02217 3.57880e-17
5523.62634 3.62393e-17
5526.23051 3.46318e-17
5528.83468 3.44469e-17
5531.43884 3.56834e-17
5534.04301 3.60262e-17
5536.64718 3.57599e-17
5539.25135 3.56155e-17
5541.85552 3.55929e-17
5544.45968 3.54486e-17
5547.06385 3.52234e-17
5549.66802 3.62955e-17
5552.27219 3.64079e-17
5554.87636 3.58989e-17
5557.48052 3.63085e-17
5560.08469 3.60833e-17
5562.68886 3.59798e-17
5565.29303 3.47700e-17
5567.89720 3.51389e-17
5570.50136 3.67619e-17
5573.11587 3.63483e-17
5575.72003 3.50183e-17
5578.32420 3.50096e-17
5580.92837 3.38288e-17
5583.53254 3.37800e-17
5586.13671 3.46469e-17
5588.74087 3.56211e-17
5591.34504 3.50202e-17
5593.94921 3.51057e-17
5596.55338 3.55007e-17
5599.15755 3.47657e-17
5601.76171 3.41656e-17
5604.36588 3.53671e-17
5606.97005 3.54257e-17
5609.57422 3.47856e-17
5612.17839 3.38637e-17
5614.78255 3.33452e-17
5617.38672 3.43172e-17
5619.99089 3.37049e-17
5622.59506 3.33479e-17
5625.19923 3.43327e-17
5627.80339 3.40696e-17
5630.40756 3.34714e-17
5633.02206 3.41069e-17
5635.62623 3.31203e-17
5638.23040 3.32732e-17
5640.83457 3.28366e-17
5643.43874 3.41548e-17
5646.04290 3.42404e-17
5648.64707 3.20367e-17
5651.25124 3.21496e-17
5653.85541 3.27843e-17
5656.45958 3.30040e-17
5659.06374 3.21938e-17
5661.66791 3.25607e-17
5664.27208 3.32081e-17
5666.87625 3.26123e-17
5669.48042 3.30456e-17
5672.08458 3.19424e-17
5674.68875 3.12939e-17
5677.29292 3.20745e-17
5679.89709 3.21739e-17
5682.50126 3.19929e-17
5685.10542 3.20256e-17
5687.70959 3.19782e-17
5690.31376 3.14507e-17
5692.91793 3.12968e-17
5695.52210 3.14763e-17
5698.12626 3.22021e-17
5700.73043 3.17017e-17
5703.33460 3.15347e-17
5705.94910 3.10347e-17
5708.55327 3.07347e-17
5711.15744 3.12469e-17
5713.76161 3.10003e-17
5716.36577 3.08469e-17
5718.96994 3.08533e-17
5721.57411 3.11124e-17
5724.17828 3.15044e-17
5726.78245 3.11516e-17
5729.38661 3.14637e-17
5731.99078 3.07124e-17
5734.59495 3.08252e-17
5737.19912 3.12301e-17
5739.80329 3.02006e-17
5742.40745 3.06984e-17
5745.01162 3.03067e-17
5747.61579 3.02071e-17
5750.21996 3.00943e-17
5752.82413 3.02071e-17
5755.42829 3.11819e-17
5758.03246 3.05519e-17
5760.64696 3.00016e-17
5763.24080 2.99951e-17
5765.84497 2.93657e-17
5768.45947 2.94123e-17
5771.06364 2.93927e-17
5773.66780 2.92672e-17
5776.27197 2.85591e-17
5778.87614 2.90030e-17
5781.48031 2.99100e-17
5784.08448 2.90832e-17
5786.68864 2.86536e-17
5789.29281 2.93484e-17
5791.89698 2.95141e-17
5794.50115 2.91641e-17
5797.10532 2.96072e-17
5799.70948 2.96670e-17
5802.31365 2.95947e-17
5804.91782 2.96016e-17
5807.52199 2.99783e-17
5810.12616 2.97872e-17
5812.73032 2.96621e-17
5815.33449 2.93787e-17
5817.93866 2.93065e-17
5820.54283 2.92213e-17
5823.14700 2.89513e-17
5825.75116 2.96706e-17
5828.35533 2.94139e-17
5830.95950 2.90914e-17
5833.56367 2.85451e-17
5836.17817 2.99226e-17
5838.78234 2.93105e-17
5841.38651 2.93703e-17
5843.99067 2.91404e-17
5846.59484 2.87789e-17
5849.19901 2.90889e-17
5851.80318 2.87408e-17
5854.40735 2.94717e-17
5857.01151 2.89132e-17
5859.61568 2.89862e-17
5862.21985 2.91644e-17
5864.82402 2.78439e-17
5867.42819 2.75622e-17
5870.03235 2.80429e-17
5872.63652 2.83919e-17
5875.24069 2.75849e-17
5877.84486 2.75400e-17
5880.44903 2.64315e-17
5883.05319 2.58354e-17
5885.65736 2.55153e-17
5888.26153 2.52608e-17
5890.86570 2.49016e-17
5893.46987 2.57886e-17
5896.07403 2.57310e-17
5898.68854 2.59881e-17
5901.29270 2.56159e-17
5903.89687 2.65415e-17
5906.50104 2.66935e-17
5909.10521 2.64655e-17
5911.70938 2.56481e-17
5914.31354 2.56562e-17
5916.91771 2.64630e-17
5919.52188 2.66935e-17
5922.12605 2.59945e-17
5924.73022 2.60680e-17
5927.33438 2.67825e-17
5929.93855 2.65680e-17
5932.54272 2.61967e-17
5935.14689 2.65577e-17
5937.75106 2.68664e-17
5940.35522 2.64691e-17
5942.95939 2.57321e-17
5945.56356 2.57925e-17
5948.16773 2.61403e-17
5950.77190 2.60830e-17
5953.37606 2.63653e-17
5955.98023 2.62428e-17
5958.58440 2.55459e-17
5961.18857 2.55280e-17
5963.79274 2.59407e-17
5966.40724 2.57401e-17
5969.01141 2.58787e-17
5971.61557 2.55478e-17
5974.21974 2.60254e-17
5976.82391 2.60597e-17
5979.42808 2.49469e-17
5982.03225 2.56459e-17
5984.63641 2.54196e-17
5987.24058 2.58577e-17
5989.84475 2.61655e-17
5992.44892 2.54314e-17
5995.05309 2.57261e-17
5997.65725 2.62160e-17
6000.26142 2.48186e-17
6002.86559 2.43065e-17
6005.46976 2.51216e-17
6008.07393 2.49869e-17
6010.67809 2.55025e-17
6013.28226 2.55758e-17
6015.88643 2.53111e-17
6018.49060 2.51635e-17
6021.09477 2.58997e-17
6023.69893 2.59339e-17
6026.30310 2.51497e-17
6028.91760 2.49503e-17
6031.52177 2.62054e-17
6034.12594 2.57462e-17
6036.73011 2.56377e-17
6039.33428 2.64897e-17
6041.93844 2.58880e-17
6044.54261 2.59612e-17
6047.14678 2.63716e-17
6049.75095 2.54330e-17
6052.35512 2.56230e-17
6054.95928 2.51776e-17
6057.56345 2.51601e-17
6060.16762 2.58814e-17
6062.77179 2.59157e-17
6065.37596 2.58722e-17
6067.98012 2.65152e-17
6070.58429 2.66141e-17
6073.18846 2.59102e-17
6075.79263 2.55690e-17
6078.39680 2.51762e-17
6081.00096 2.52882e-17
6083.60513 2.46885e-17
6086.20930 2.37398e-17
6088.81347 2.47704e-17
6091.41764 2.57748e-17
6094.02180 2.51884e-17
6096.63631 2.47703e-17
6099.23014 2.47272e-17
6101.84464 2.52528e-17
6104.44881 2.44602e-17
6107.05298 2.45980e-17
6109.65715 2.43354e-17
6112.26131 2.42150e-17
6114.86548 2.39913e-17
6117.46965 2.48908e-17
6120.07382 2.38668e-17
6122.67799 2.36562e-17
6125.28215 2.40393e-17
6127.88632 2.40996e-17
6130.49049 2.28185e-17
6133.09466 2.32273e-17
6135.69883 2.32749e-17
6138.30299 2.33741e-17
6140.90716 2.30478e-17
6143.51133 2.33145e-17
6146.11550 2.35039e-17
6148.71967 2.32551e-17
6151.32383 2.32511e-17
6153.92800 2.37109e-17
6156.53217 2.34493e-17
6159.14667 2.28273e-17
6161.75084 2.27205e-17
6164.35501 2.29998e-17
6166.95918 2.32019e-17
6169.56334 2.33524e-17
6172.16751 2.35671e-17
6174.77168 2.28301e-17
6177.37585 2.24276e-17
6179.98002 2.30539e-17
6182.58418 2.32300e-17
6185.18835 2.25835e-17
6187.79252 2.20014e-17
6190.39669 2.16765e-17
6193.00086 2.13132e-17
6195.60502 2.17336e-17
6198.20919 2.19226e-17
6200.81336 2.17135e-17
6203.41753 2.19924e-17
6206.02170 2.19246e-17
6208.62586 2.19852e-17
6211.23003 2.20329e-17
6213.83420 2.14391e-17
6216.43837 2.17691e-17
6219.04254 2.13936e-17
6221.64670 2.15183e-17
6224.25087 2.20277e-17
6226.86537 2.18574e-17
6229.45921 2.13027e-17
6232.07371 2.17734e-17
6234.67788 2.23721e-17
6237.28205 2.21250e-17
6239.88621 2.16603e-17
6242.49038 2.12854e-17
6245.09455 2.19734e-17
6247.69872 2.14834e-17
6250.30289 2.07759e-17
6252.90705 2.10925e-17
6255.51122 2.20232e-17
6258.11539 2.23524e-17
6260.71956 2.23744e-17
6263.32373 2.18464e-17
6265.92789 2.17533e-17
6268.53206 2.14302e-17
6271.13623 2.10177e-17
6273.74040 2.09120e-17
6276.34457 2.03719e-17
6278.94873 2.00364e-17
6281.55290 2.04421e-17
6284.15707 2.05027e-17
6286.77157 2.09465e-17
6289.37574 2.05345e-17
6291.97991 2.01482e-17
6294.58408 2.12302e-17
6297.18824 2.16608e-17
6299.79241 2.19381e-17
6302.39658 2.07352e-17
6305.00075 2.10126e-17
6307.60492 2.21956e-17
6310.20908 2.20263e-17
6312.81325 2.16148e-17
6315.41742 2.17899e-17
6318.02159 2.23602e-17
6320.62576 2.20635e-17
6323.22992 2.20091e-17
6325.83409 2.20311e-17
6328.43826 2.27666e-17
6331.04243 2.27249e-17
6333.64660 2.23010e-17
6336.25076 2.25395e-17
6338.85493 2.29562e-17
6341.45910 2.28635e-17
6344.06327 2.29999e-17
6346.66744 2.27164e-17
6349.27160 2.33109e-17
6351.87577 2.28111e-17
6354.47994 2.31002e-17
6357.08411 2.38215e-17
6359.69861 2.36271e-17
6362.30278 2.38142e-17
6364.90695 2.35054e-17
6367.51111 2.38831e-17
6370.11528 2.31424e-17
6372.71945 2.32659e-17
6375.32362 2.37324e-17
6377.92779 2.31952e-17
6380.53195 2.30773e-17
6383.13612 2.33151e-17
6385.74029 2.36924e-17
6388.34446 2.37777e-17
6390.94863 2.40025e-17
6393.55279 2.41258e-17
6396.15696 2.37033e-17
6398.76113 2.33318e-17
6401.36530 2.41401e-17
6403.96947 2.38701e-17
6406.57363 2.40313e-17
6409.17780 2.39643e-17
6411.78197 2.37324e-17
6414.38614 2.42359e-17
6416.99031 2.46631e-17
6419.60481 2.44566e-17
6422.20898 2.40728e-17
6424.81314 2.42465e-17
6427.41731 2.41669e-17
6430.02148 2.46698e-17
6432.62565 2.48054e-17
6435.22982 2.48269e-17
6437.83398 2.55447e-17
6440.43815 2.39462e-17
6443.04232 2.43728e-17
6445.64649 2.44071e-17
6448.25066 2.42137e-17
6450.85482 2.46022e-17
6453.45899 2.47376e-17
6456.06316 2.54041e-17
6458.66733 2.58554e-17
6461.27150 2.43852e-17
6463.87566 2.38254e-17
6466.47983 2.46812e-17
6469.08400 2.44753e-17
6471.68817 2.40295e-17
6474.29234 2.44049e-17
6476.89650 2.45275e-17
6479.50067 2.45744e-17
6482.10484 2.52273e-17
6484.70901 2.50342e-17
6487.31318 2.43488e-17
6489.92768 2.44336e-17
6492.53185 2.54394e-17
6495.13601 2.52086e-17
6497.74018 2.47759e-17
6500.34435 2.52389e-17
6502.94852 2.58531e-17
6505.55269 2.61645e-17
6508.15685 2.60598e-17
6510.76102 2.44298e-17
6513.36519 2.51824e-17
6515.96936 2.55568e-17
6518.57353 2.46836e-17
6521.17769 2.52847e-17
6523.78186 2.52431e-17
6526.38603 2.52016e-17
6528.99020 2.53490e-17
6531.59437 2.51187e-17
6534.19853 2.51150e-17
6536.80270 2.57406e-17
6539.40687 2.54977e-17
6542.01104 2.53555e-17
6544.61521 2.54147e-17
6547.22971 2.52852e-17
6549.83388 2.52437e-17
6552.42771 2.46741e-17
6555.04221 2.48088e-17
6557.64638 2.54841e-17
6560.25055 2.52918e-17
6562.85472 2.52378e-17
6565.45888 2.53221e-17
6568.06305 2.53058e-17
6570.66722 2.57418e-17
6573.27139 2.59265e-17
6575.87556 2.54831e-17
6578.47972 2.51529e-17
6581.08389 2.48730e-17
6583.68806 2.45304e-17
6586.29223 2.43511e-17
6588.89640 2.48119e-17
6591.50056 2.52600e-17
6594.10473 2.59840e-17
6596.70890 2.49014e-17
6599.31307 2.48726e-17
6601.91724 2.48439e-17
6604.52140 2.50786e-17
6607.12557 2.48994e-17
6609.72974 2.50963e-17
6612.33391 2.55690e-17
6614.93808 2.53522e-17
6617.55258 2.55866e-17
6620.15675 2.56205e-17
6622.76091 2.54789e-17
6625.36508 2.59011e-17
6627.96925 2.53713e-17
6630.57342 2.47917e-17
6633.17759 2.50635e-17
6635.78175 2.55481e-17
6638.38592 2.56069e-17
6640.99009 2.53404e-17
6643.59426 2.53743e-17
6646.19843 2.55082e-17
6648.80259 2.52919e-17
6651.40676 2.49380e-17
6654.01093 2.52345e-17
6656.61510 2.52309e-17
6659.21927 2.54397e-17
6661.82343 2.55610e-17
6664.42760 2.48575e-17
6667.03177 2.52787e-17
6669.63594 2.55624e-17
6672.24011 2.52339e-17
6674.84427 2.46932e-17
6677.44844 2.47521e-17
6680.05261 2.46361e-17
6682.66711 2.44203e-17
6685.27128 2.42295e-17
6687.87545 2.45880e-17
6690.47962 2.45594e-17
6693.08378 2.44686e-17
6695.68795 2.44650e-17
6698.29212 2.43617e-17
6700.89629 2.42833e-17
6703.50046 2.45791e-17
6706.10462 2.45257e-17
6708.70879 2.43227e-17
6711.31296 2.42444e-17
6713.91713 2.45026e-17
6716.52130 2.44492e-17
6719.12546 2.40470e-17
6721.72963 2.40186e-17
6724.33380 2.41023e-17
6726.93797 2.45845e-17
6729.54214 2.45810e-17
6732.14630 2.37059e-17
6734.75047 2.38767e-17
6737.35464 2.38608e-17
6739.95881 2.34716e-17
6742.56298 2.32940e-17
6745.16714 2.39127e-17
6747.78165 2.37351e-17
6750.38581 2.30476e-17
6930.09407 1.96043e-17
6932.69824 1.97123e-17
6935.30241 2.08173e-17
6937.90658 2.14544e-17
6940.51075 2.10943e-17
6943.12525 2.09436e-17
6945.72942 2.03500e-17
6948.33358 1.99656e-17
6950.93775 2.02579e-17
6953.54192 2.04271e-17
6956.14609 2.04610e-17
6958.75026 1.98064e-17
6961.35442 2.01477e-17
6963.95859 1.97392e-17
6966.56276 1.84951e-17
6969.16693 1.99669e-17
6971.77110 2.04922e-17
6974.37526 1.98013e-17
6976.97943 1.92580e-17
6979.58360 1.94148e-17
6982.18777 1.92033e-17
6984.79194 1.95565e-17
6987.39610 1.94308e-17
6990.00027 1.93421e-17
6992.60444 1.93024e-17
6995.20861 1.86616e-17
6997.81278 1.83031e-17
7000.41694 1.85580e-17
7003.02111 1.86656e-17
7005.62528 1.91779e-17
7008.23978 1.86724e-17
7010.83362 1.83387e-17
7013.44812 1.83482e-17
7016.05229 1.79534e-17
7018.65645 1.82570e-17
7021.26062 1.83769e-17
7023.86479 1.81782e-17
7026.46896 1.85184e-17
7029.07313 1.89688e-17
7031.67729 1.87946e-17
7034.28146 1.90734e-17
7036.88563 1.93276e-17
7039.48980 1.78683e-17
7042.09397 1.80248e-17
7044.69813 1.81812e-17
7047.30230 1.83620e-17
7049.90647 1.81880e-17
7052.51064 1.78307e-17
7055.11481 1.81704e-17
7057.71897 1.81799e-17
7060.32314 1.86295e-17
7062.92731 1.81868e-17
7065.53148 1.78175e-17
7068.13565 1.77415e-17
7070.73981 1.74579e-17
7073.34398 1.74797e-17
7075.95848 1.79290e-17
7078.56265 1.85980e-17
7081.16682 1.80824e-17
7083.77099 1.76646e-17
7086.37516 1.82601e-17
7088.97932 1.77936e-17
7091.58349 1.72175e-17
7094.18766 1.78127e-17
7096.79183 1.79931e-17
7099.39600 1.78318e-17
7102.00016 1.81828e-17
7104.60433 1.80704e-17
7107.20850 1.75191e-17
7109.81267 1.81259e-17
7112.41684 1.77332e-17
7115.02100 1.79865e-17
7117.62517 1.78376e-17
7120.22934 1.72136e-17
7122.83351 1.75155e-17
7125.43768 1.76956e-17
7128.04184 1.79365e-17
7130.64601 1.75320e-17
7133.25018 1.73224e-17
7135.85435 1.75633e-17
7138.45852 1.69643e-17
7141.06268 1.66941e-17
7143.67719 1.71782e-17
7146.28135 1.73459e-17
7148.88552 1.69055e-17
7151.48969 1.67449e-17
7154.09386 1.65235e-17
7156.69803 1.64845e-17
7159.30219 1.68467e-17
7161.90636 1.64309e-17
7164.51053 1.62584e-17
7167.11470 1.60372e-17
7169.71887 1.44435e-17
7172.32303 1.41498e-17
7174.92720 1.43055e-17
7177.53137 1.36720e-17
7180.13554 1.36213e-17
7182.73971 1.35100e-17
7185.34387 1.36051e-17
7187.94804 1.38093e-17
7190.55221 1.39043e-17
7193.15638 1.40963e-17
7195.76055 1.31238e-17
7198.36471 1.29642e-17
7200.96888 1.34351e-17
7203.57305 1.33967e-17
7206.18755 1.37341e-17
7208.79172 1.48713e-17
7211.39589 1.53295e-17
7214.00006 1.56180e-17
7216.60422 1.54581e-17
7219.20839 1.55890e-17
7221.81256 1.60589e-17
7224.41673 1.61534e-17
7227.02090 1.52308e-17
7229.62506 1.43690e-17
7232.22923 1.46936e-17
7234.83340 1.41105e-17
7237.43757 1.32250e-17
7240.04174 1.35980e-17
7242.64590 1.36927e-17
7245.25007 1.37995e-17
7247.85424 1.41118e-17
7250.45841 1.43756e-17
7253.06258 1.40349e-17
7255.66674 1.40086e-17
7258.27091 1.41031e-17
7260.87508 1.43547e-17
7263.47925 1.43404e-17
7266.08342 1.45074e-17
7268.68758 1.44568e-17
7271.29175 1.45633e-17
7273.90625 1.43558e-17
7276.51042 1.36896e-17
7279.11459 1.34461e-17
7281.71876 1.44337e-17
7284.32293 1.48296e-17
7286.92709 1.44292e-17
7289.53126 1.47044e-17
7292.13543 1.43886e-17
7294.73960 1.39884e-17
7297.34377 1.43600e-17
7299.94793 1.44904e-17
7302.55210 1.44641e-17
7305.15627 1.42208e-17
7307.76044 1.40138e-17
7310.36461 1.42164e-17
7312.96877 1.43227e-17
7315.57294 1.35376e-17
7318.17711 1.41858e-17
7320.78128 1.52792e-17
7323.38545 1.47111e-17
7325.98961 1.52986e-17
7328.59378 1.54406e-17
7331.19795 1.55826e-17
7333.80212 1.50148e-17
7336.41662 1.50605e-17
7339.01045 1.49620e-17
7341.62496 1.50078e-17
7344.22912 1.51978e-17
7346.83329 1.48228e-17
7349.43746 1.46041e-17
7352.04163 1.51427e-17
7354.64580 1.49360e-17
7357.24996 1.47415e-17
7359.85413 1.46431e-17
7362.45830 1.44847e-17
7365.06247 1.46865e-17
7367.66664 1.47803e-17
7370.27080 1.51381e-17
7372.87497 1.53158e-17
7375.47914 1.54454e-17
7378.08331 1.59590e-17
7380.68748 1.48887e-17
7383.29164 1.42027e-17
7385.89581 1.45842e-17
7388.49998 1.44021e-17
7391.10415 1.43039e-17
7393.70832 1.42897e-17
7396.31248 1.43833e-17
7398.91665 1.46567e-17
7401.52082 1.41392e-17
7404.13532 1.43047e-17
7406.73949 1.46498e-17
7409.34366 1.43241e-17
7411.94783 1.43818e-17
7414.55199 1.44873e-17
7417.15616 1.40780e-17
7419.76033 1.40039e-17
7422.36450 1.39060e-17
7424.96867 1.38560e-17
7427.57283 1.42845e-17
7430.17700 1.43181e-17
7432.78117 1.40886e-17
7435.38534 1.41223e-17
7437.98951 1.38809e-17
7440.59367 1.35081e-17
7443.19784 1.37570e-17
7445.80201 1.37190e-17
7448.40618 1.30716e-17
7451.01035 1.38938e-17
7453.61451 1.38080e-17
7456.21868 1.31848e-17
7458.82285 1.34096e-17
7461.42702 1.32045e-17
7464.03119 1.36202e-17
7466.63535 1.36897e-17
7469.24986 1.47735e-17
7471.85402 1.38524e-17
7474.45819 1.37070e-17
7477.06236 1.37764e-17
7479.66653 1.34522e-17
7482.27070 1.34978e-17
7484.87486 1.37818e-17
7487.47903 1.33147e-17
7490.08320 1.33603e-17
7492.68737 1.32747e-17
7495.29154 1.30939e-17
7497.89570 1.24962e-17
7500.49987 1.19821e-17
7503.10404 1.28971e-17
7505.70821 1.32761e-17
7508.31238 1.29049e-17
7510.91654 1.30576e-17
7513.52071 1.27937e-17
7516.12488 1.25894e-17
7518.72905 1.26706e-17
7521.33322 1.28708e-17
7523.93738 1.24525e-17
7526.54155 1.28192e-17
7529.14572 1.27101e-17
7531.74989 1.24109e-17
7534.35406 1.21355e-17
7536.96856 1.21455e-17
7539.57273 1.20366e-17
7542.17689 1.24742e-17
7544.78106 1.21753e-17
7547.38523 1.25058e-17
7549.98940 1.18507e-17
7552.59357 1.20032e-17
7555.19773 1.26067e-17
7557.80190 1.27115e-17
7560.40607 1.24128e-17
7563.01024 1.24820e-17
7565.61441 1.26223e-17
7568.21857 1.24068e-17
7570.82274 1.20134e-17
7573.42691 1.21182e-17
7576.03108 1.24719e-17
7578.63525 1.22210e-17
7581.23941 1.19820e-17
7583.84358 1.14374e-17
7586.44775 1.17056e-17
7688.03097 1.14519e-17
7690.63514 1.18655e-17
7693.23931 1.20637e-17
7695.84347 1.18264e-17
7698.44764 1.20951e-17
7701.05181 1.21519e-17
7703.65598 1.19735e-17
7706.26015 1.23714e-17
7708.86431 1.22165e-17
7711.46848 1.21675e-17
7714.07265 1.23536e-17
7716.67682 1.20460e-17
7719.28099 1.23496e-17
7721.88515 1.18659e-17
7724.48932 1.21459e-17
7727.09349 1.23553e-17
7729.70799 1.27525e-17
7732.31216 1.27739e-17
7734.91633 1.26075e-17
7737.52050 1.26054e-17
7740.12466 1.27794e-17
7742.72883 1.29298e-17
7745.33300 1.23412e-17
7747.93717 1.28083e-17
7750.54134 1.29118e-17
7753.14550 1.25814e-17
7755.74967 1.23800e-17
7758.35384 1.24249e-17
7760.95801 1.26338e-17
7763.56218 1.27606e-17
7766.16634 1.20087e-17
7768.77051 1.21591e-17
7771.37468 1.27661e-17
7773.97885 1.31270e-17
7776.58302 1.26683e-17
7779.18718 1.19170e-17
7781.79135 1.28163e-17
7784.39552 1.30365e-17
7786.99969 1.28706e-17
7789.60386 1.31375e-17
7792.20802 1.26324e-17
7794.81219 1.25368e-17
7797.41636 1.34468e-17
7800.03086 1.29068e-17
7802.63503 1.31969e-17
7805.23920 1.25286e-17
7807.84337 1.24681e-17
7810.44753 1.30736e-17
7813.05170 1.26626e-17
7815.65587 1.28942e-17
7818.26004 1.37211e-17
7820.86421 1.35671e-17
7823.46837 1.32147e-17
7826.07254 1.32709e-17
7828.67671 1.28486e-17
7831.28088 1.35932e-17
7833.88505 1.35443e-17
7836.48921 1.24457e-17
7839.09338 1.25953e-17
7841.69755 1.32812e-17
7844.30172 1.38036e-17
7846.90589 1.33701e-17
7849.51005 1.31581e-17
7852.11422 1.39949e-17
7854.71839 1.36548e-17
7857.32256 1.35710e-17
7859.93706 1.32077e-17
7862.54123 1.34967e-17
7865.14540 1.40184e-17
7867.74956 1.42024e-17
7870.35373 1.36414e-17
7872.95790 1.40232e-17
7875.56207 1.37881e-17
7878.16624 1.35998e-17
7880.77040 1.38883e-17
7883.37457 1.34790e-17
7885.97874 1.38373e-17
7888.58291 1.38466e-17
7891.18708 1.28331e-17
7893.79124 1.28309e-17
7896.39541 1.35028e-17
7898.99958 1.30940e-17
7901.60375 1.31267e-17
7904.20792 1.31942e-17
7906.81208 1.28321e-17
7909.41625 1.33408e-17
7912.02042 1.31297e-17
7914.62459 1.25704e-17
7917.22876 1.28817e-17
7919.83292 1.31000e-17
7922.43709 1.31791e-17
7925.04126 1.29450e-17
7927.64543 1.35343e-17
7930.25993 1.32886e-17
7932.86410 1.34719e-17
7935.46827 1.37015e-17
7938.07243 1.37804e-17
7940.67660 1.26194e-17
7943.28077 1.29765e-17
7945.88494 1.31134e-17
7948.48911 1.32965e-17
7951.09327 1.32480e-17
7953.69744 1.30722e-17
7956.30161 1.27459e-17
7958.90578 1.20956e-17
7961.50995 1.20242e-17
7964.11411 1.20223e-17
7966.71828 1.14546e-17
7969.32245 1.18911e-17
7971.92662 1.24790e-17
7974.53079 1.27198e-17
7977.13495 1.33651e-17
7979.73912 1.35017e-17
7982.34329 1.30487e-17
7984.94746 1.32315e-17
7987.55163 1.31947e-17
7990.15579 1.26727e-17
7992.77030 1.27861e-17
7995.37446 1.27032e-17
7997.97863 1.23085e-17
8000.58280 1.20064e-17
8003.18697 1.21429e-17
8005.79114 1.23371e-17
8008.39530 1.26121e-17
8010.99947 1.20562e-17
8013.60364 1.21696e-17
8016.20781 1.19024e-17
8018.81198 1.19465e-17
8021.41614 1.19677e-17
8024.02031 1.19311e-17
8026.62448 1.18024e-17
8029.22865 1.17659e-17
8031.83282 1.11533e-17
8034.43698 1.09004e-17
8037.04115 1.14642e-17
8039.64532 1.17122e-17
8042.24949 1.17909e-17
8044.85366 1.20538e-17
8047.45782 1.16835e-17
8050.06199 1.16010e-17
8052.66616 1.16567e-17
8055.27033 1.11175e-17
8057.87450 1.08281e-17
8060.48900 1.10334e-17
8063.09317 1.12317e-17
8065.69733 1.11827e-17
8068.30150 1.14533e-17
8070.90567 1.13710e-17
8073.50984 1.11416e-17
8076.11401 1.10973e-17
8078.71817 1.09588e-17
8081.32234 1.01082e-17
8083.92651 1.01525e-17
8086.53068 1.04770e-17
8089.13485 1.04052e-17
8091.73901 9.75497e-18
8094.34318 9.88194e-18
8096.94735 9.76903e-18
8099.55152 9.43817e-18
8102.15569 9.45500e-18
8104.75985 9.43397e-18
8107.36402 9.31318e-18
8109.96819 9.44010e-18
8112.57236 9.28381e-18
8115.17653 9.20208e-18
8117.79103 9.14100e-18
8120.38486 8.71441e-18
8122.98903 8.58011e-18
8125.60353 8.85594e-18
8128.20770 8.48801e-18
8130.81187 7.92095e-18
8133.41604 8.01585e-18
8136.02020 8.00197e-18
8138.62437 8.06707e-18
8141.22854 7.88610e-18
8143.83271 7.24178e-18
8146.43688 7.34931e-18
8149.04104 6.69956e-18
8151.64521 6.89406e-18
8154.24938 6.72715e-18
8156.85355 7.34003e-18
8159.45772 7.40858e-18
8162.06188 6.68620e-18
8164.66605 6.74798e-18
8167.27022 7.13652e-18
8169.87439 7.04513e-18
8172.47856 6.40323e-18
8175.08272 6.87386e-18
8177.68689 6.93557e-18
8180.29106 6.66617e-18
8182.89523 6.66283e-18
8185.49940 6.62296e-18
8188.10356 6.78623e-18
8190.70773 6.60260e-18
8193.31190 6.60497e-18
8195.92640 7.13429e-18
8198.53057 7.14342e-18
8201.13474 6.93704e-18
8203.73891 7.03626e-18
8206.34307 7.40446e-18
8208.94724 7.73151e-18
8211.55141 7.23233e-18
8214.15558 7.00674e-18
8216.75975 7.23459e-18
8219.36391 6.58425e-18
8221.96808 6.13909e-18
8224.57225 5.86714e-18
8227.17642 5.38466e-18
8229.78059 5.47373e-18
8232.38475 5.95882e-18
8234.98892 6.55412e-18
8237.59309 7.34947e-18
8240.19726 7.23911e-18
8242.80143 6.95477e-18
8245.40559 7.45061e-18
8248.00976 7.60635e-18
8250.61393 6.93672e-18
8253.22843 7.15840e-18
8255.82227 6.73907e-18
8258.43677 6.59598e-18
8261.04094 6.28593e-18
8263.64510 6.24746e-18
8266.24927 5.34358e-18
8268.85344 5.41883e-18
8271.45761 6.11624e-18
8274.06178 5.92230e-18
8276.66594 6.05757e-18
8279.27011 5.74455e-18
8281.87428 5.60069e-18
8284.47845 6.48131e-18
8287.08262 6.77522e-18
8289.68678 6.52806e-18
8292.29095 6.76064e-18
8294.89512 6.92058e-18
8297.49929 7.46930e-18
8300.10346 8.27628e-18
8302.70762 7.30040e-18
8305.31179 7.06019e-18
8307.91596 6.76001e-18
8310.52013 6.20959e-18
8313.12430 6.43514e-18
8315.73880 6.60740e-18
8318.33263 6.27465e-18
8320.94713 6.31669e-18
8323.55130 6.24781e-18
8326.15547 7.12955e-18
8328.75964 6.68491e-18
8331.36381 6.41349e-18
8333.96797 7.13079e-18
8336.57214 7.36607e-18
8339.17631 7.33780e-18
8341.78048 7.39773e-18
8344.38465 7.46103e-18
8346.98881 7.74133e-18
8349.59298 7.91644e-18
8352.19715 7.66665e-18
8354.80132 7.23391e-18
8357.40549 7.47002e-18
8360.00965 8.09458e-18
8362.61382 8.39373e-18
8365.21799 8.30777e-18
8367.82216 7.68786e-18
8370.42633 8.06708e-18
8373.03049 8.26109e-18
8375.63466 8.37945e-18
8378.23883 8.40075e-18
8380.84300 8.37127e-18
8383.45750 7.90983e-18
8386.05133 7.74963e-18
8388.66584 8.57382e-18
8391.27000 9.74499e-18
8393.87417 9.05818e-18
8396.47834 9.09626e-18
8399.08251 9.28421e-18
8401.68668 8.63835e-18
8404.29084 7.59276e-18
8406.89501 7.32355e-18
8409.49918 8.32588e-18
8412.10335 9.05092e-18
8414.70752 8.24908e-18
8417.31168 7.47451e-18
8419.91585 8.30177e-18
8422.52002 8.94085e-18
8425.12419 9.02166e-18
8427.72836 8.92581e-18
8430.33252 9.36655e-18
8432.93669 9.59684e-18
8435.54086 9.33228e-18
8438.14503 9.40623e-18
8440.74920 9.61618e-18
8443.35336 1.02768e-17
8445.95753 9.85383e-18
8448.56170 9.21863e-18
8451.17620 9.15435e-18
8453.78037 9.29566e-18
8456.38454 8.96521e-18
8458.98871 9.50181e-18
8461.59287 8.38543e-18
8464.19704 8.74570e-18
8466.80121 8.48848e-18
8469.40538 8.92271e-18
8472.00955 1.01255e-17
8474.61371 9.60679e-18
8477.21788 9.96214e-18
8479.82205 1.00504e-17
8482.42622 9.90764e-18
8485.03039 1.00015e-17
8487.63455 9.84197e-18
8490.23872 1.06219e-17
8492.84289 1.03704e-17
8495.44706 1.02669e-17
8498.05123 1.05254e-17
8500.65539 1.07525e-17
8503.25956 9.91969e-18
8505.86373 9.23501e-18
8508.46790 1.01431e-17
8511.07207 1.03398e-17
8513.67623 1.01715e-17
8516.29074 1.06335e-17
8518.89490 1.05973e-17
8521.49907 1.08923e-17
8524.10324 1.06636e-17
8526.70741 9.98073e-18
8529.31158 9.76901e-18
8531.91574 9.17259e-18
8534.51991 1.05121e-17
8537.12408 1.02177e-17
8539.72825 1.03314e-17
8542.33242 1.07089e-17
8544.93658 1.10360e-17
8547.54075 1.11719e-17
8550.14492 1.12630e-17
8552.74909 1.15854e-17
8555.35326 1.12822e-17
8557.95742 1.08003e-17
8560.56159 1.13684e-17
8563.16576 1.14784e-17
8565.76993 1.13987e-17
8568.37410 1.11850e-17
8570.97826 1.09334e-17
8573.58243 1.09922e-17
8576.18660 1.11145e-17
8578.79077 1.17477e-17
8581.40527 1.18019e-17
8584.00944 1.18226e-17
8586.60327 1.16425e-17
8589.21777 1.11949e-17
8591.82194 1.08042e-17
8594.42611 1.08863e-17
8597.03028 1.11791e-17
8599.63445 1.15899e-17
8602.23861 1.14434e-17
8604.84278 1.11745e-17
8607.44695 1.16520e-17
8610.05112 1.11603e-17
8612.65529 1.06944e-17
8615.25945 1.12129e-17
8617.86362 1.16679e-17
8620.46779 1.20782e-17
8623.07196 1.15979e-17
8625.67613 1.16743e-17
8628.28029 1.17506e-17
8630.88446 1.09902e-17
8633.48863 1.04926e-17
8636.09280 1.10673e-17
8638.69697 1.05787e-17
8641.30113 1.04928e-17
8643.91564 1.11151e-17
8646.50947 1.11281e-17
8649.12397 1.10088e-17
8651.71781 1.08517e-17
8654.33231 1.08503e-17
8656.93648 1.16999e-17
8659.54064 1.15651e-17
8662.14481 1.23966e-17
8664.74898 1.18730e-17
8667.35315 1.19825e-17
8669.95732 1.19365e-17
8672.56148 1.15908e-17
8675.16565 1.15781e-17
8677.76982 1.20206e-17
8680.37399 1.19524e-17
8682.97816 1.17400e-17
8685.58232 1.17385e-17
8688.18649 1.20032e-17
8690.79066 1.17909e-17
8693.39483 1.14899e-17
8695.99900 1.14663e-17
8698.60316 1.14870e-17
8701.20733 1.15631e-17
8703.81150 1.06105e-17
8706.41567 1.09217e-17
8709.01984 1.13924e-17
8711.62400 1.15571e-17
8714.23851 1.11679e-17
8716.84267 1.23518e-17
8719.44684 1.18518e-17
8722.05101 1.16066e-17
8724.65518 1.15166e-17
8727.25935 1.19469e-17
8729.86351 1.18347e-17
8732.46768 1.18553e-17
8735.07185 1.18428e-17
8737.67602 1.20516e-17
8740.28019 1.12976e-17
8742.88435 1.16060e-17
8745.48852 1.22240e-17
8748.09269 1.22999e-17
8750.69686 1.24975e-17
8753.30103 1.30267e-17
8755.90519 1.43077e-17
8758.50936 1.32004e-17
8761.11353 1.25245e-17
8763.71770 1.31750e-17
8766.32187 1.27535e-17
8768.92603 1.22104e-17
8771.53020 1.15902e-17
8774.13437 1.20859e-17
8776.74887 1.19961e-17
8779.35304 1.11221e-17
8781.95721 1.04901e-17
8784.56138 1.01311e-17
8787.16554 1.08056e-17
8789.76971 1.14700e-17
8792.37388 1.13251e-17
8794.97805 1.13679e-17
8797.58222 1.24149e-17
8800.18638 1.27554e-17
8802.79055 1.18161e-17
8805.39472 1.13735e-17
8807.99889 1.12728e-17
8810.60306 1.00285e-17
8813.20722 8.24090e-18
8815.81139 7.68089e-18
8818.41556 9.16174e-18
8821.01973 9.68099e-18
8823.62390 1.07854e-17
8826.22806 1.11754e-17
8828.83223 1.09383e-17
8831.43640 1.12940e-17
8834.04057 1.14028e-17
8836.64474 1.14676e-17
8839.24890 1.07030e-17
8841.85307 1.02832e-17
8844.46757 1.05111e-17
8847.06141 1.11760e-17
8849.67591 1.16152e-17
8852.28008 1.20432e-17
8854.88425 1.26582e-17
8857.48841 1.20844e-17
8860.09258 1.21271e-17
8862.69675 1.21697e-17
8865.30092 1.12772e-17
8867.90509 1.22880e-17
8870.50925 1.21876e-17
8873.11342 1.12404e-17
8875.71759 9.57965e-18
8878.32176 8.46800e-18
8880.92593 8.89585e-18
8883.53009 9.91726e-18
8886.13426 9.11812e-18
8888.73843 8.67967e-18
8891.34260 1.04712e-17
8893.94677 1.10436e-17
8896.55093 1.17236e-17
8897.30976 1.17236e-17
8898.18124 1.18272e-17
8899.04270 1.19307e-17
8899.90416 1.20091e-17
8900.76562 1.20874e-17
8901.62708 1.21195e-17
8902.48855 1.21514e-17
8903.35001 1.21405e-17
8904.21147 1.21294e-17
8905.07293 1.21105e-17
8905.93439 1.20915e-17
8906.80587 1.20876e-17
8907.66734 1.20838e-17
8908.52880 1.20926e-17
8909.39026 1.21015e-17
8910.25172 1.21232e-17
8911.11318 1.21449e-17
8911.97465 1.21836e-17
8912.83611 1.22224e-17
8913.69757 1.22800e-17
8914.55903 1.23376e-17
8915.42049 1.24181e-17
8916.29197 1.24987e-17
8917.15343 1.26012e-17
8918.01490 1.27037e-17
8918.87636 1.28018e-17
8919.73782 1.28999e-17
8920.59928 1.29672e-17
8921.46074 1.30344e-17
8922.32221 1.30634e-17
8923.18367 1.30923e-17
8924.04513 1.30823e-17
8924.90659 1.30721e-17
8925.76805 1.30541e-17
8926.63953 1.30361e-17
8927.50100 1.30525e-17
8928.36246 1.30690e-17
8929.22392 1.31215e-17
8930.08538 1.31741e-17
8930.94684 1.32435e-17
8931.80831 1.33129e-17
8932.66977 1.33853e-17
8933.53123 1.34576e-17
8934.39269 1.35195e-17
8935.25415 1.35814e-17
8936.12563 1.36392e-17
8936.98709 1.36970e-17
8937.84856 1.37809e-17
8938.71002 1.38650e-17
8939.57148 1.39765e-17
8940.43294 1.40882e-17
8941.29440 1.41862e-17
8942.15587 1.42841e-17
8943.01733 1.43384e-17
8943.87879 1.43926e-17
8944.74025 1.43896e-17
8945.61173 1.43864e-17
8946.47319 1.43311e-17
8947.33466 1.42755e-17
8948.19612 1.42313e-17
8949.05758 1.41870e-17
8949.91904 1.42053e-17
8950.78050 1.42238e-17
8951.64197 1.42887e-17
8952.50343 1.43537e-17
8953.36489 1.44393e-17
8954.22635 1.45250e-17
8955.08781 1.45637e-17
8955.95929 1.46024e-17
8956.82075 1.45280e-17
8957.68222 1.44533e-17
8958.54368 1.43482e-17
8959.40514 1.42431e-17
8960.26660 1.42291e-17
8961.12806 1.42154e-17
8961.98953 1.43098e-17
8962.85099 1.44045e-17
8963.71245 1.45843e-17
8964.57391 1.47643e-17
8965.44539 1.49711e-17
8966.30685 1.51781e-17
8967.16832 1.53239e-17
8968.02978 1.54695e-17
8968.89124 1.55639e-17
8969.75270 1.56582e-17
8970.61416 1.57976e-17
8971.47563 1.59371e-17
8972.33709 1.61549e-17
8973.19855 1.63729e-17
8974.06001 1.66278e-17
8974.93149 1.68827e-17
8975.79295 1.71149e-17
8976.65441 1.73470e-17
8977.51588 1.74650e-17
8978.37734 1.75828e-17
8979.23880 1.75155e-17
8980.10026 1.74477e-17
8980.96172 1.71493e-17
8981.82319 1.68504e-17
8982.68465 1.63502e-17
8983.54611 1.58496e-17
8984.41759 1.54168e-17
8985.27905 1.49841e-17
8986.14051 1.48667e-17
8987.00198 1.47502e-17
8987.86344 1.50333e-17
8988.72490 1.53174e-17
8989.58636 1.60139e-17
8990.44782 1.67114e-17
8991.30928 1.74888e-17
8992.17075 1.82663e-17
8993.03221 1.87245e-17
8993.89367 1.91819e-17
8994.76515 1.92609e-17
8995.62661 1.93389e-17
8996.48807 1.91119e-17
8997.34954 1.88841e-17
8998.21100 1.85300e-17
8999.07246 1.81756e-17
8999.93392 1.79387e-17
9000.79538 1.77021e-17
9001.65685 1.76888e-17
9002.51831 1.76761e-17
9003.38979 1.78798e-17
9004.25125 1.80841e-17
9005.11271 1.84338e-17
9005.97417 1.87839e-17
9006.83563 1.91404e-17
9007.69710 1.94969e-17
9008.55856 1.97516e-17
9009.42002 2.00060e-17
9010.28148 2.01085e-17
9011.14295 2.02107e-17
9012.00441 2.01633e-17
9012.87589 2.01156e-17
9013.73735 2.00380e-17
9014.59881 1.99603e-17
9015.46027 1.99412e-17
9016.32173 1.99222e-17
9017.18320 1.99074e-17
9018.04466 1.98926e-17
9018.90612 1.98417e-17
9019.76758 1.97908e-17
9020.62904 1.97505e-17
9021.49051 1.97102e-17
9022.35197 1.97289e-17
9023.22345 1.97478e-17
9024.08491 1.98864e-17
9024.94637 2.00254e-17
9025.80783 2.03328e-17
9026.66930 2.06406e-17
9027.53076 2.10426e-17
9028.39222 2.14450e-17
9029.25368 2.18302e-17
9030.11514 2.22151e-17
9030.97660 2.25057e-17
9031.83807 2.27958e-17
9032.70955 2.29341e-17
9033.57101 2.30720e-17
9034.43247 2.30529e-17
9035.29393 2.30334e-17
9036.15539 2.28863e-17
9037.01686 2.27388e-17
9037.87832 2.25391e-17
9038.73978 2.23393e-17
9039.60124 2.22031e-17
9040.46270 2.20673e-17
9041.32417 2.20257e-17
9042.18563 2.19844e-17
9043.05711 2.19524e-17
9043.91857 2.19202e-17
9044.78003 2.18531e-17
9045.64149 2.17858e-17
9046.50295 2.17103e-17
9047.36442 2.16348e-17
9048.22588 2.15743e-17
9049.08734 2.15139e-17
9049.94880 2.15057e-17
9050.81027 2.14973e-17
9051.67173 2.15514e-17
9052.54321 2.16056e-17
9053.40467 2.16114e-17
9054.26613 2.16168e-17
9055.12759 2.14774e-17
9055.98905 2.13377e-17
9056.85052 2.11048e-17
9057.71198 2.08717e-17
9058.57344 2.06155e-17
9059.43490 2.03593e-17
9060.29636 2.00885e-17
9061.16784 1.98176e-17
9062.02931 1.95356e-17
9062.89077 1.92536e-17
9063.75223 1.89502e-17
9064.61369 1.86467e-17
9065.47515 1.82993e-17
9066.33662 1.79518e-17
9067.19808 1.76488e-17
9068.05954 1.73460e-17
9068.92100 1.72344e-17
9069.78246 1.71233e-17
9070.64393 1.71705e-17
9071.51540 1.72182e-17
9072.37687 1.72598e-17
9073.23833 1.73015e-17
9074.09979 1.72769e-17
9074.96125 1.72521e-17
9075.82271 1.72071e-17
9076.68418 1.71620e-17
9077.54564 1.71254e-17
9078.40710 1.70888e-17
9079.26856 1.70772e-17
9080.13002 1.70656e-17
9080.99149 1.70783e-17
9081.86297 1.70910e-17
9082.72443 1.70710e-17
9083.58589 1.70508e-17
9084.44735 1.69662e-17
9085.30881 1.68815e-17
9086.17028 1.67952e-17
9087.03174 1.67088e-17
9087.89320 1.66692e-17
9088.75466 1.66296e-17
9089.61612 1.65748e-17
9090.48760 1.65200e-17
9091.34906 1.63909e-17
9092.21053 1.62624e-17
9093.07199 1.61201e-17
9093.93345 1.59778e-17
9094.79491 1.58970e-17
9095.65637 1.58164e-17
9096.51784 1.57760e-17
9097.37930 1.57357e-17
9098.24076 1.56910e-17
9099.10222 1.56463e-17
9099.97370 1.56089e-17
9100.83516 1.55716e-17
9101.69663 1.55653e-17
9102.55809 1.55592e-17
9103.41955 1.56298e-17
9104.28101 1.57007e-17
9105.14247 1.59136e-17
9106.00393 1.61269e-17
9106.86540 1.64046e-17
9107.72686 1.66824e-17
9108.58832 1.68257e-17
9109.45980 1.69686e-17
9110.32126 1.68928e-17
9111.18272 1.68163e-17
9112.04419 1.65708e-17
9112.90565 1.63247e-17
9113.76711 1.60108e-17
9114.62857 1.56968e-17
9115.49003 1.55229e-17
9116.35150 1.53494e-17
9117.21296 1.54241e-17
9118.07442 1.54994e-17
9118.93588 1.56619e-17
9119.80736 1.58246e-17
9120.66882 1.59181e-17
9121.53028 1.60113e-17
9122.39175 1.59352e-17
9123.25321 1.58586e-17
9124.11467 1.55526e-17
9124.97613 1.52460e-17
9125.83760 1.48517e-17
9126.69906 1.44571e-17
9127.56052 1.41466e-17
9128.43200 1.38364e-17
9129.29346 1.36989e-17
9130.15492 1.35618e-17
9131.01638 1.36545e-17
9131.87785 1.37478e-17
9132.73931 1.40320e-17
9133.60077 1.43168e-17
9134.46223 1.47052e-17
9135.32369 1.50939e-17
9136.18516 1.54956e-17
9137.04662 1.58973e-17
9137.90808 1.62183e-17
9138.76954 1.65390e-17
9139.64102 1.67190e-17
9140.50248 1.68985e-17
9141.36395 1.69170e-17
9142.22541 1.69350e-17
9143.08687 1.67614e-17
9143.94833 1.65873e-17
9144.80979 1.61777e-17
9145.67125 1.57674e-17
9146.53272 1.51748e-17
9147.39418 1.45817e-17
9148.26566 1.39851e-17
9149.12712 1.33885e-17
9149.98858 1.29504e-17
9150.85004 1.25127e-17
9151.71151 1.23644e-17
9152.57297 1.22169e-17
9153.43443 1.24097e-17
9154.29589 1.26035e-17
9155.15735 1.29689e-17
9156.01882 1.33348e-17
9156.88028 1.36947e-17
9157.75176 1.40546e-17
9158.61322 1.43258e-17
9159.47468 1.45967e-17
9160.33614 1.47148e-17
9161.19760 1.48325e-17
9162.05907 1.48019e-17
9162.92053 1.47708e-17
9163.78199 1.46263e-17
9164.64345 1.44816e-17
9165.50492 1.42184e-17
9166.36638 1.39550e-17
9167.22784 1.35670e-17
9168.09932 1.31786e-17
9168.96078 1.27620e-17
9169.82224 1.23453e-17
9170.68370 1.20304e-17
9171.54517 1.17158e-17
9172.40663 1.15677e-17
9173.26809 1.14201e-17
9174.12955 1.14672e-17
9174.99101 1.15149e-17
9175.85248 1.16771e-17
9176.71394 1.18396e-17
9177.58542 1.19348e-17
9178.44688 1.20299e-17
9179.30834 1.20052e-17
9180.16980 1.19802e-17
9181.03127 1.19551e-17
9181.89273 1.19300e-17
9182.75419 1.19702e-17
9183.61565 1.20106e-17
9184.47711 1.20927e-17
9185.33857 1.21748e-17
9186.20004 1.22704e-17
9187.07152 1.23660e-17
9187.93298 1.24066e-17
9188.79444 1.24471e-17
9189.65590 1.23946e-17
9190.51736 1.23418e-17
9191.37883 1.23023e-17
9192.24029 1.22627e-17
9193.10175 1.23304e-17
9193.96321 1.23984e-17
9194.82467 1.25313e-17
9195.68614 1.26645e-17
9196.55762 1.28029e-17
9197.41908 1.29413e-17
9198.28054 1.30311e-17
9199.14200 1.31207e-17
9200.00346 1.31099e-17
9200.86492 1.30987e-17
9201.72639 1.30255e-17
9202.58785 1.29521e-17
9203.44931 1.28920e-17
9204.31077 1.28318e-17
9205.17224 1.27869e-17
9206.04371 1.27419e-17
9206.90518 1.26791e-17
9207.76664 1.26162e-17
9208.62810 1.25459e-17
9209.48956 1.24757e-17
9210.35102 1.24335e-17
9211.21249 1.23913e-17
9212.07395 1.24127e-17
9212.93541 1.24342e-17
9213.79687 1.25599e-17
9214.65833 1.26859e-17
9215.52981 1.29077e-17
9216.39127 1.31298e-17
9217.25274 1.33635e-17
9218.11420 1.35972e-17
9218.97566 1.37881e-17
9219.83712 1.39788e-17
9220.69859 1.41442e-17
9221.56005 1.43096e-17
9222.42151 1.44595e-17
9223.28297 1.46093e-17
9224.14443 1.47269e-17
9225.00590 1.48444e-17
9225.87737 1.49181e-17
9226.73884 1.49917e-17
9227.60030 1.50092e-17
9228.46176 1.50266e-17
9229.32322 1.49832e-17
9230.18468 1.49397e-17
9231.04615 1.48849e-17
9231.90761 1.48301e-17
9232.76907 1.48209e-17
9233.63053 1.48118e-17
9234.49199 1.48358e-17
9235.35346 1.48597e-17
9236.22494 1.48846e-17
9237.08640 1.49094e-17
9237.94786 1.49499e-17
9238.80932 1.49904e-17
9239.67078 1.50766e-17
9240.53225 1.51629e-17
9241.39371 1.53094e-17
9242.25517 1.54560e-17
9243.11663 1.56686e-17
9243.97809 1.58814e-17
9244.84957 1.61417e-17
9245.71103 1.64020e-17
9246.57250 1.66676e-17
9247.43396 1.69332e-17
9248.29542 1.71801e-17
9249.15688 1.74268e-17
9250.01834 1.76599e-17
9250.87981 1.78929e-17
9251.74127 1.81005e-17
9252.60273 1.83079e-17
9253.46419 1.84401e-17
9254.32565 1.85721e-17
9255.19713 1.86209e-17
9256.05860 1.86695e-17
9256.92006 1.87315e-17
9257.78152 1.87936e-17
9258.64298 1.89417e-17
9259.50444 1.90900e-17
9260.36591 1.93021e-17
9261.22737 1.95143e-17
9262.08883 1.97513e-17
9262.95029 1.99884e-17
9263.81175 2.01648e-17
9264.68323 2.03409e-17
9265.54469 2.03747e-17
9266.40616 2.04082e-17
9267.26762 2.03018e-17
9268.12908 2.01950e-17
9268.99054 1.99820e-17
9269.85200 1.97688e-17
9270.71347 1.95287e-17
9271.57493 1.92885e-17
9272.43639 1.91156e-17
9273.29785 1.89429e-17
9274.16933 1.89118e-17
9275.03079 1.88811e-17
9275.89226 1.90464e-17
9276.75372 1.92123e-17
9277.61518 1.95463e-17
9278.47664 1.98807e-17
9279.33810 2.02912e-17
9280.19957 2.07020e-17
9281.06103 2.10899e-17
9281.92249 2.14778e-17
9282.79397 2.17474e-17
9283.65543 2.20167e-17
9284.51689 2.20918e-17
9285.37835 2.21662e-17
9286.23982 2.20015e-17
9287.10128 2.18362e-17
9287.96274 2.14517e-17
9288.82420 2.10663e-17
9289.68566 2.05839e-17
9290.54713 2.01011e-17
9291.40859 1.96625e-17
9292.27005 1.92240e-17
9293.14153 1.90158e-17
9294.00299 1.88083e-17
9294.86445 1.89524e-17
9295.72592 1.90976e-17
9296.58738 1.94686e-17
9297.44884 1.98402e-17
9298.31030 2.02713e-17
9299.17176 2.07026e-17
9300.03323 2.09669e-17
9300.89469 2.12306e-17
9301.75615 2.11101e-17
9302.62763 2.09885e-17
9303.48909 2.06924e-17
9304.35055 2.03959e-17
9305.21201 2.02664e-17
9306.07348 2.01374e-17
9306.93494 2.00948e-17
9307.79640 2.00524e-17
9308.65786 1.98484e-17
9309.51932 1.96439e-17
9310.38079 1.92900e-17
9311.24225 1.89358e-17
9312.11373 1.85785e-17
9312.97519 1.82212e-17
9313.83665 1.80042e-17
9314.69811 1.77876e-17
9315.55958 1.78741e-17
9316.42104 1.79614e-17
9317.28250 1.83197e-17
9318.14396 1.86787e-17
9319.00542 1.89946e-17
9319.86688 1.93105e-17
9320.72835 1.94609e-17
9321.58981 1.96109e-17
9322.46129 1.98852e-17
9323.32275 2.01598e-17
9324.18421 2.06213e-17
9325.04567 2.10833e-17
9325.90714 2.11402e-17
9326.76860 2.11960e-17
9327.63006 2.04835e-17
9328.49152 1.97688e-17
9329.35298 1.88597e-17
9330.21445 1.79500e-17
9331.07591 1.73988e-17
9331.94739 1.68487e-17
9332.80885 1.65485e-17
9333.67031 1.62491e-17
9334.53177 1.60397e-17
9335.39323 1.58305e-17
9336.25470 1.57156e-17
9337.11616 1.56009e-17
9337.97762 1.55529e-17
9338.83908 1.55051e-17
9339.70055 1.60123e-17
9340.56201 1.65212e-17
9341.43349 1.82451e-17
9342.29495 1.99724e-17
9343.15641 2.20658e-17
9344.01787 2.41601e-17
9344.87933 2.50644e-17
9345.74080 2.59651e-17
9346.60226 2.52154e-17
9347.46372 2.44607e-17
9348.32518 2.23223e-17
9349.18664 2.01800e-17
9350.04811 1.76364e-17
9350.90957 1.50916e-17
9351.78105 1.39562e-17
9352.64251 1.28250e-17
9353.50397 1.36931e-17
9354.36543 1.45668e-17
9355.22689 1.61263e-17
9356.08836 1.76878e-17
9356.94982 1.88355e-17
9357.81128 1.99821e-17
9358.67274 2.00602e-17
9359.53420 2.01352e-17
9360.39567 1.88591e-17
9361.26715 1.75792e-17
9362.12861 1.59825e-17
9362.99007 1.43849e-17
9363.85153 1.34431e-17
9364.71299 1.25033e-17
9365.57446 1.22727e-17
9366.43592 1.20441e-17
9367.29738 1.24307e-17
9368.15884 1.28189e-17
9369.02030 1.33380e-17
9369.89178 1.38574e-17
9370.75324 1.39538e-17
9371.61471 1.40491e-17
9372.47617 1.37570e-17
9373.33763 1.34639e-17
9374.19909 1.29907e-17
9375.06056 1.25170e-17
9375.92202 1.21799e-17
9376.78348 1.18431e-17
9377.64494 1.20293e-17
9378.50640 1.22170e-17
9379.37788 1.27797e-17
9380.23934 1.33435e-17
9381.10081 1.37839e-17
9381.96227 1.42239e-17
9382.82373 1.43831e-17
9383.68519 1.45415e-17
9384.54665 1.45628e-17
9385.40812 1.45838e-17
9386.26958 1.45071e-17
9387.13104 1.44301e-17
9387.99250 1.41880e-17
9388.85396 1.39455e-17
9389.72544 1.35344e-17
9390.58691 1.31228e-17
9391.44837 1.26046e-17
9392.30983 1.20862e-17
9393.17129 1.15460e-17
9394.03275 1.10057e-17
9394.89422 1.05943e-17
9395.75568 1.01833e-17
9396.61714 1.00028e-17
9397.47860 9.82296e-18
9398.34006 9.79772e-18
9399.21154 9.77293e-18
9400.07300 9.80780e-18
9400.93447 9.84284e-18
9401.79593 9.84638e-18
9402.65739 9.84981e-18
9403.51885 9.74199e-18
9404.38031 9.63385e-18
9405.24178 9.50458e-18
9406.10324 9.37527e-18
9406.96470 9.35087e-18
9407.82616 9.32674e-18
9408.69764 9.40855e-18
9409.55910 9.49068e-18
9410.42057 9.63481e-18
9411.28203 9.77911e-18
9412.14349 9.91736e-18
9413.00495 1.00556e-17
9413.86641 1.01071e-17
9414.72788 1.01583e-17
9415.58934 1.00691e-17
9416.45080 9.97949e-18
9417.31226 9.73296e-18
9418.17372 9.48596e-18
9419.04520 9.09934e-18
9419.90666 8.71232e-18
9420.76813 8.21142e-18
9421.62959 7.71020e-18
9422.49105 7.27430e-18
9423.35251 6.83859e-18
9424.21397 6.89553e-18
9425.07544 6.95390e-18
9425.93690 7.64104e-18
9426.79836 8.32998e-18
9427.65982 9.19878e-18
9428.53130 1.00681e-17
9429.39276 1.06860e-17
9430.25423 1.13033e-17
9431.11569 1.12701e-17
9431.97715 1.12351e-17
9432.83861 1.03479e-17
9433.70007 9.45839e-18
9434.56153 8.42074e-18
9435.42300 7.38270e-18
9436.28446 6.93029e-18
9437.14592 6.47961e-18
9438.01740 6.72837e-18
9438.87886 6.97916e-18
9439.74032 7.88143e-18
9440.60179 8.78557e-18
9441.46325 9.88311e-18
9442.32471 1.09812e-17
9443.18617 1.16842e-17
9444.04763 1.23861e-17
9444.90910 1.25258e-17
9445.77056 1.26640e-17
9446.63202 1.22773e-17
9447.49348 1.18892e-17
9448.36496 1.11848e-17
9449.22642 1.04796e-17
9450.08788 9.79337e-18
9450.94935 9.10721e-18
9451.81081 8.65791e-18
9452.67227 8.20932e-18
9453.53373 8.08222e-18
9454.39520 7.95606e-18
9455.25666 8.17245e-18
9456.11812 8.38986e-18
9456.98960 8.89725e-18
9457.85106 9.40546e-18
9458.71252 1.00519e-17
9459.57398 1.06988e-17
9460.43545 1.11778e-17
9461.29691 1.16563e-17
9462.15837 1.17831e-17
9463.01983 1.19089e-17
9463.88129 1.18278e-17
9464.74276 1.17461e-17
9465.60422 1.16081e-17
9466.47570 1.14698e-17
9467.33716 1.13674e-17
9468.19862 1.12651e-17
9469.06008 1.12729e-17
9469.92155 1.12809e-17
9470.78301 1.12847e-17
9471.64447 1.12883e-17
9472.50593 1.11664e-17
9473.36739 1.10441e-17
9474.22885 1.08726e-17
9475.09032 1.07010e-17
9475.96180 1.05836e-17
9476.82326 1.04664e-17
9477.68472 1.06177e-17
9478.54618 1.07699e-17
9479.40764 1.14321e-17
9480.26911 1.20958e-17
9481.13057 1.30060e-17
9481.99203 1.39170e-17
9482.85349 1.45665e-17
9483.71495 1.52153e-17
9484.57642 1.53363e-17
9485.43788 1.54556e-17
9486.30936 1.49540e-17
9487.17082 1.44506e-17
9488.03228 1.35307e-17
9488.89374 1.26096e-17
9489.75520 1.18094e-17
9490.61667 1.10095e-17
9491.47813 1.06730e-17
9492.33959 1.03378e-17
9493.20105 1.04586e-17
9494.06252 1.05807e-17
9494.92398 1.11571e-17
9495.79546 1.17348e-17
9496.65692 1.28403e-17
9497.51838 1.39473e-17
9498.37984 1.54653e-17
9499.24130 1.69845e-17
9500.10277 1.83210e-17
9500.96423 1.96570e-17
9501.82569 2.02982e-17
9502.68715 2.09375e-17
9503.54861 2.08022e-17
9504.41008 2.06647e-17
9505.28155 1.98054e-17
9506.14302 1.89440e-17
9507.00448 1.78070e-17
9507.86594 1.66692e-17
9508.72740 1.57854e-17
9509.58887 1.49024e-17
9510.45033 1.43238e-17
9511.31179 1.37461e-17
9512.17325 1.33679e-17
9513.03471 1.29902e-17
9513.89617 1.29155e-17
9514.75764 1.28418e-17
9515.62912 1.32186e-17
9516.49058 1.35967e-17
9517.35204 1.43818e-17
9518.21350 1.51681e-17
9519.07496 1.62166e-17
9519.93643 1.72658e-17
9520.79789 1.83224e-17
9521.65935 1.93791e-17
9522.52081 2.00923e-17
9523.38227 2.08045e-17
9524.24374 2.10558e-17
9525.11522 2.13058e-17
9525.97668 2.12801e-17
9526.83814 2.12536e-17
9527.69960 2.11211e-17
9528.56106 2.09883e-17
9529.42252 2.08836e-17
9530.28399 2.07790e-17
9531.14545 2.07775e-17
9532.00691 2.07764e-17
9532.86837 2.07587e-17
9533.72984 2.07409e-17
9534.60131 2.06060e-17
9535.46278 2.04708e-17
9536.32424 2.01881e-17
9537.18570 1.99051e-17
9538.04716 1.94909e-17
9538.90862 1.90764e-17
9539.77009 1.89086e-17
9540.63155 1.87417e-17
9541.49301 1.91771e-17
9542.35447 1.96144e-17
9543.21593 2.03974e-17
9544.08741 2.11815e-17
9544.94888 2.19318e-17
9545.81034 2.26819e-17
9546.67180 2.30283e-17
9547.53326 2.33733e-17
9548.39472 2.29350e-17
9549.25619 2.24945e-17
9550.11765 2.17131e-17
9550.97911 2.09307e-17
9551.84057 2.06949e-17
9552.70203 2.04608e-17
9553.57351 2.08312e-17
9554.43497 2.12033e-17
9555.29644 2.16543e-17
9556.15790 2.21055e-17
9557.01936 2.22833e-17
9557.88082 2.24602e-17
9558.74228 2.21289e-17
9559.60375 2.17963e-17
9560.46521 2.11021e-17
9561.32667 2.04071e-17
9562.18813 2.01526e-17
9563.05961 1.98995e-17
9563.92107 2.04986e-17
9564.78254 2.11002e-17
9565.64400 2.21267e-17
9566.50546 2.31546e-17
9567.36692 2.41500e-17
9568.22838 2.51453e-17
9569.08985 2.55623e-17
9569.95131 2.59779e-17
9570.81277 2.54401e-17
9571.67423 2.48995e-17
9572.53569 2.38807e-17
9573.40717 2.28606e-17
9574.26863 2.19239e-17
9575.13010 2.09876e-17
9575.99156 2.05096e-17
9576.85302 2.00329e-17
9577.71448 2.03109e-17
9578.57594 2.05910e-17
9579.43741 2.11576e-17
9580.29887 2.17249e-17
9581.16033 2.18975e-17
9582.02179 2.20691e-17
9582.89327 2.17575e-17
9583.75473 2.14446e-17
9584.61620 2.07827e-17
9585.47766 2.01198e-17
9586.33912 1.95849e-17
9587.20058 1.90504e-17
9588.06204 1.93693e-17
9588.92351 1.96907e-17
9589.78497 2.07724e-17
9590.64643 2.18563e-17
9591.51791 2.28670e-17
9592.37937 2.38777e-17
9593.24083 2.43679e-17
9594.10229 2.48568e-17
9594.96376 2.48697e-17
9595.82522 2.48813e-17
9596.68668 2.45073e-17
9597.54814 2.41322e-17
9598.40960 2.35822e-17
9599.27107 2.30319e-17
9600.13253 2.25387e-17
9600.99399 2.20455e-17
9601.86547 2.17931e-17
9602.72693 2.15413e-17
9603.58839 2.16498e-17
9604.44986 2.17596e-17
9605.31132 2.22091e-17
9606.17278 2.26596e-17
9607.03424 2.33489e-17
9607.89570 2.40385e-17
9608.75717 2.45292e-17
9609.61863 2.50192e-17
9610.48009 2.48888e-17
9611.35157 2.47565e-17
9612.21303 2.41841e-17
9613.07449 2.36107e-17
9613.93595 2.29343e-17
9614.79742 2.22576e-17
9615.65888 2.17120e-17
9616.52034 2.11667e-17
9617.38180 2.09478e-17
9618.24326 2.07299e-17
9619.10473 2.08879e-17
9619.96619 2.10470e-17
9620.82765 2.15276e-17
9621.69913 2.20092e-17
9622.56059 2.26390e-17
9623.42205 2.32693e-17
9624.28352 2.38071e-17
9625.14498 2.43447e-17
9626.00644 2.45607e-17
9626.86790 2.47756e-17
9627.72936 2.44541e-17
9628.59083 2.41311e-17
9629.45229 2.33356e-17
9630.31375 2.25387e-17
9631.17521 2.17399e-17
9632.04669 2.09410e-17
9632.90815 2.05043e-17
9633.76961 2.00687e-17
9634.63108 2.01365e-17
9635.49254 2.02058e-17
9636.35400 2.07629e-17
9637.21546 2.13215e-17
9638.07692 2.18396e-17
9638.93839 2.23575e-17
9639.79985 2.23995e-17
9640.67133 2.24400e-17
9641.53279 2.22788e-17
9642.39425 2.21169e-17
9643.25571 2.20710e-17
9644.11718 2.20255e-17
9644.97864 2.21720e-17
9645.84010 2.23193e-17
9646.70156 2.26894e-17
9647.56302 2.30602e-17
9648.42448 2.34068e-17
9649.28595 2.37531e-17
9650.15743 2.37539e-17
9651.01889 2.37535e-17
9651.88035 2.34074e-17
9652.74181 2.30602e-17
9653.60327 2.25117e-17
9654.46474 2.19623e-17
9655.32620 2.14096e-17
9656.18766 2.08568e-17
9657.04912 2.05289e-17
9657.91058 2.02017e-17
9658.77205 2.02266e-17
9659.64352 2.02526e-17
9660.50499 2.06616e-17
9661.36645 2.10718e-17
9662.22791 2.17354e-17
9663.08937 2.23997e-17
9663.95083 2.29798e-17
9664.81230 2.35597e-17
9665.67376 2.38605e-17
9666.53522 2.41607e-17
9667.39668 2.42860e-17
9668.25815 2.44108e-17
9669.11961 2.44198e-17
9669.99109 2.44284e-17
9670.85255 2.42210e-17
9671.71401 2.40128e-17
9672.57547 2.35616e-17
9673.43693 2.31095e-17
9674.29840 2.25989e-17
9675.15986 2.20879e-17
9676.02132 2.17019e-17
9676.88278 2.13164e-17
9677.74424 2.11835e-17
9678.61572 2.10514e-17
9679.47718 2.12567e-17
9680.33865 2.14630e-17
9681.20011 2.18375e-17
9682.06157 2.22121e-17
9682.92303 2.25198e-17
9683.78449 2.28273e-17
9684.64596 2.29987e-17
9685.50742 2.31694e-17
9686.36888 2.31947e-17
9687.23034 2.32195e-17
9688.10182 2.31233e-17
9688.96328 2.30268e-17
9689.82475 2.28685e-17
9690.68621 2.27100e-17
9691.54767 2.25005e-17
9692.40913 2.22908e-17
9693.27059 2.19985e-17
9694.13206 2.17058e-17
9694.99352 2.13738e-17
9695.85498 2.10416e-17
9696.71644 2.07878e-17
9697.57790 2.05343e-17
9698.44938 2.04174e-17
9699.31084 2.03009e-17
9700.17231 2.02986e-17
9701.03377 2.02967e-17
9701.89523 2.03608e-17
9702.75669 2.04250e-17
9703.61816 2.04482e-17
9704.47962 2.04713e-17
9705.34108 2.03843e-17
9706.20254 2.02970e-17
9707.06400 2.01666e-17
9707.93548 2.00361e-17
9708.79694 1.99317e-17
9709.65841 1.98273e-17
9710.51987 1.97865e-17
9711.38133 1.97460e-17
9712.24279 1.97935e-17
9713.10425 1.98413e-17
9713.96572 1.99115e-17
9714.82718 1.99816e-17
9715.68864 1.99951e-17
9716.55010 2.00085e-17
9717.41156 1.99427e-17
9718.28304 1.98768e-17
9719.14451 1.97226e-17
9720.00597 1.95682e-17
9720.86743 1.94081e-17
9721.72889 1.92480e-17
9722.59035 1.92089e-17
9723.45182 1.91701e-17
9724.31328 1.91961e-17
9725.17474 1.92223e-17
9726.03620 1.91481e-17
9726.89766 1.90736e-17
9727.76914 1.88405e-17
9728.63060 1.86069e-17
9729.49207 1.82458e-17
9730.35353 1.78842e-17
9731.21499 1.74720e-17
9732.07645 1.70597e-17
9732.93791 1.67381e-17
9733.79938 1.64169e-17
9734.66084 1.62743e-17
9735.52230 1.61323e-17
9736.38376 1.61515e-17
9737.25524 1.61713e-17
9738.11670 1.63125e-17
9738.97817 1.64542e-17
9739.83963 1.66394e-17
9740.70109 1.68247e-17
9741.56255 1.69764e-17
9742.42401 1.71280e-17
9743.28548 1.72052e-17
9744.14694 1.72823e-17
9745.00840 1.72608e-17
9745.86986 1.72391e-17
9746.74134 1.71518e-17
9747.60280 1.70644e-17
9748.46426 1.69567e-17
9749.32573 1.68488e-17
9750.18719 1.67312e-17
9751.04865 1.66136e-17
9751.91011 1.64919e-17
9752.77157 1.63701e-17
9753.63304 1.62403e-17
9754.49450 1.61104e-17
9755.35596 1.59640e-17
9756.22744 1.58175e-17
9757.08890 1.56850e-17
9757.95036 1.55525e-17
9758.81183 1.54789e-17
9759.67329 1.54055e-17
9760.53475 1.54257e-17
9761.39621 1.54462e-17
9762.25767 1.55900e-17
9763.11913 1.57341e-17
9763.98060 1.59563e-17
9764.84206 1.61787e-17
9765.71354 1.63517e-17
9766.57500 1.65246e-17
9767.43646 1.65859e-17
9768.29792 1.66469e-17
9769.15939 1.66375e-17
9770.02085 1.66280e-17
9770.88231 1.65828e-17
9771.74377 1.65376e-17
9772.60523 1.64742e-17
9773.46670 1.64107e-17
9774.32816 1.63511e-17
9775.19964 1.62915e-17
9776.06110 1.62532e-17
9776.92256 1.62150e-17
9777.78402 1.62098e-17
9778.64548 1.62046e-17
9779.50695 1.62473e-17
9780.36841 1.62901e-17
9781.22987 1.63848e-17
9782.09133 1.64797e-17
9782.95280 1.65445e-17
9783.81426 1.66092e-17
9784.68574 1.65549e-17
9785.54720 1.65002e-17
9786.40866 1.63700e-17
9787.27012 1.62396e-17
9788.13158 1.61147e-17
9788.99305 1.59899e-17
9789.85451 1.58989e-17
9790.71597 1.58081e-17
9791.57743 1.57630e-17
9792.43889 1.57180e-17
9793.30036 1.56882e-17
9794.16182 1.56585e-17
9795.03330 1.55801e-17
9795.89476 1.55015e-17
9796.75622 1.53931e-17
9797.61768 1.52846e-17
9798.47915 1.52398e-17
9799.34061 1.51951e-17
9800.20207 1.52451e-17
9801.06353 1.52954e-17
9801.92499 1.53958e-17
9802.78645 1.54964e-17
9803.64792 1.56026e-17
9804.51940 1.57087e-17
9805.38086 1.57681e-17
9806.24232 1.58274e-17
9807.10378 1.58146e-17
9807.96524 1.58015e-17
9808.82671 1.57668e-17
9809.68817 1.57320e-17
9810.54963 1.57234e-17
9811.41109 1.57148e-17
9812.27255 1.57626e-17
9813.13402 1.58105e-17
9813.99548 1.59287e-17
9814.86696 1.60472e-17
9815.72842 1.61517e-17
9816.58988 1.62562e-17
9817.45134 1.62577e-17
9818.31280 1.62589e-17
9819.17427 1.61693e-17
9820.03573 1.60794e-17
9820.89719 1.59363e-17
9821.75865 1.57930e-17
9822.62012 1.56515e-17
9823.48158 1.55100e-17
9824.35306 1.54344e-17
9825.21452 1.53590e-17
9826.07598 1.53400e-17
9826.93744 1.53211e-17
9827.79890 1.53066e-17
9828.66037 1.52921e-17
9829.52183 1.52693e-17
9830.38329 1.52464e-17
9831.24475 1.52306e-17
9832.10621 1.52148e-17
9832.97769 1.52026e-17
9833.83915 1.51903e-17
9834.70062 1.51613e-17
9835.56208 1.51323e-17
9836.42354 1.50773e-17
9837.28500 1.50223e-17
9838.14647 1.49467e-17
9839.00793 1.48711e-17
9839.86939 1.47811e-17
9840.73085 1.46911e-17
9841.59231 1.45900e-17
9842.45377 1.44887e-17
9843.32525 1.43879e-17
9844.18672 1.42870e-17
9845.04818 1.42222e-17
9845.90964 1.41575e-17
9846.77110 1.41570e-17
9847.63256 1.41566e-17
9848.49403 1.42115e-17
9849.35549 1.42665e-17
9850.21695 1.43610e-17
9851.07841 1.44555e-17
9851.93987 1.45741e-17
9852.81135 1.46929e-17
9853.67282 1.48177e-17
9854.53428 1.49425e-17
9855.39574 1.50620e-17
9856.25720 1.51816e-17
9857.11866 1.52875e-17
9857.98013 1.53934e-17
9858.84159 1.54630e-17
9859.70305 1.55324e-17
9860.56451 1.55398e-17
9861.42597 1.55469e-17
9862.29745 1.54885e-17
9863.15891 1.54299e-17
9864.02038 1.53168e-17
9864.88184 1.52036e-17
9865.74330 1.50565e-17
9866.60476 1.49092e-17
9867.46622 1.47577e-17
9868.32769 1.46061e-17
9869.18915 1.44669e-17
9870.05061 1.43278e-17
9870.92209 1.41991e-17
9871.78355 1.40704e-17
9872.64501 1.39544e-17
9873.50648 1.38384e-17
9874.36794 1.37449e-17
9875.22940 1.36516e-17
9876.09086 1.35887e-17
9876.95232 1.35258e-17
9877.81379 1.35006e-17
9878.67525 1.34755e-17
9879.53671 1.34913e-17
9880.39817 1.35073e-17
9881.26965 1.35591e-17
9882.13111 1.36110e-17
9882.99257 1.36895e-17
9883.85404 1.37681e-17
9884.71550 1.38563e-17
9885.57696 1.39445e-17
9886.43842 1.40241e-17
9887.29988 1.41036e-17
9888.16135 1.41573e-17
9889.02281 1.42109e-17
9889.88427 1.42243e-17
9890.74573 1.42376e-17
9891.61721 1.42103e-17
9892.47867 1.41829e-17
9893.34014 1.41223e-17
9894.20160 1.40616e-17
9895.06306 1.39754e-17
9895.92452 1.38891e-17
9896.78598 1.37856e-17
9897.64745 1.36820e-17
9898.50891 1.35745e-17
9899.37037 1.34670e-17
9900.23183 1.33735e-17
9901.09329 1.32799e-17
9901.96477 1.32032e-17
9902.82623 1.31265e-17
9903.68770 1.30515e-17
9904.54916 1.29765e-17
9905.41062 1.29067e-17
9906.27208 1.28369e-17
9907.13354 1.28052e-17
9907.99501 1.27736e-17
9908.85647 1.27956e-17
9909.71793 1.28179e-17
9910.57939 1.28787e-17
9911.45087 1.29396e-17
9912.31233 1.30147e-17
9913.17380 1.30899e-17
9914.03526 1.31276e-17
9914.89672 1.31653e-17
9915.75818 1.31247e-17
9916.61964 1.30838e-17
9917.48111 1.29791e-17
9918.34257 1.28743e-17
9919.20403 1.27306e-17
9920.07551 1.25869e-17
9920.93697 1.24328e-17
9921.79843 1.22787e-17
9922.65989 1.21431e-17
9923.52136 1.20076e-17
9924.38282 1.19032e-17
9925.24428 1.17990e-17
9926.10574 1.17308e-17
9926.96720 1.16628e-17
9927.82867 1.16120e-17
9928.69013 1.15613e-17
9929.56161 1.14978e-17
9930.42307 1.14343e-17
9931.28453 1.13484e-17
9932.14599 1.12625e-17
9933.00746 1.11585e-17
9933.86892 1.10544e-17
9934.73038 1.09410e-17
9935.59184 1.08276e-17
9936.45330 1.07177e-17
9937.31477 1.06078e-17
9938.17623 1.05181e-17
9939.03769 1.04286e-17
9939.90917 1.03804e-17
9940.77063 1.03323e-17
9941.63209 1.03314e-17
9942.49355 1.03306e-17
9943.35502 1.03551e-17
9944.21648 1.03796e-17
9945.07794 1.04104e-17
9945.93940 1.04413e-17
9946.80086 1.04738e-17
9947.66233 1.05063e-17
9948.52379 1.05349e-17
9949.39527 1.05635e-17
9950.25673 1.05778e-17
9951.11819 1.05920e-17
9951.97965 1.05852e-17
9952.84112 1.05783e-17
9953.70258 1.05640e-17
9954.56404 1.05496e-17
9955.42550 1.05426e-17
9956.28696 1.05356e-17
9957.14843 1.05261e-17
9958.00989 1.05165e-17
9958.88137 1.04906e-17
9959.74283 1.04646e-17
9960.60429 1.04153e-17
9961.46575 1.03660e-17
9962.32721 1.02887e-17
9963.18868 1.02113e-17
9964.05014 1.01293e-17
9964.91160 1.00472e-17
9965.77306 9.99889e-18
9966.63452 9.95073e-18
9967.49599 9.94532e-18
9968.36747 9.94005e-18
9969.22893 9.96263e-18
9970.09039 9.98528e-18
9970.95185 1.00335e-17
9971.81331 1.00818e-17
9972.67477 1.01668e-17
9973.53624 1.02519e-17
9974.39770 1.03689e-17
9975.25916 1.04861e-17
9976.12062 1.06103e-17
9976.98208 1.07344e-17
9977.85356 1.08456e-17
9978.71503 1.09569e-17
9979.57649 1.10457e-17
9980.43795 1.11344e-17
9981.29941 1.11975e-17
9982.16087 1.12605e-17
9983.02234 1.13111e-17
9983.88380 1.13618e-17
9984.74526 1.14136e-17
9985.60672 1.14655e-17
9986.46818 1.15252e-17
9987.32965 1.15849e-17
9988.20112 1.16560e-17
9989.06259 1.17271e-17
9989.92405 1.17845e-17
9990.78551 1.18419e-17
9991.64697 1.18572e-17
9992.50843 1.18724e-17
9993.36990 1.18670e-17
9994.23136 1.18615e-17
9995.09282 1.18717e-17
9995.95428 1.18820e-17
9996.81574 1.19017e-17
9997.67721 1.19214e-17
9998.54869 1.19274e-17
9999.41015 1.19333e-17
