# wavelength flux
3500.28081 1.03344e-17
3502.86431 1.80077e-18
3505.45814 2.90569e-19
3508.05198 5.10973e-18
3510.63548 -3.06363e-19
3513.22931 -4.33108e-19
3515.82315 -3.03430e-18
3518.40665 -2.80670e-18
3521.00048 8.73500e-18
3523.59431 2.40941e-18
3526.17781 1.81541e-18
3528.77165 -3.11668e-18
3531.36548 6.71811e-18
3533.95932 3.42593e-18
3536.54282 8.41683e-19
3539.13665 -2.84420e-18
3541.73048 -5.68451e-18
3544.31398 -4.74419e-18
3546.90782 -7.14016e-19
3549.50165 6.61640e-18
3552.09549 -8.43126e-19
3554.67899 -4.52521e-18
3557.27282 -5.76410e-19
3559.86665 6.60320e-18
3562.45015 1.94801e-18
3565.04399 7.74738e-19
3567.63782 -5.00153e-18
3570.22132 -1.95011e-18
3572.81516 -4.88233e-18
3575.40899 -6.24797e-18
3578.00282 -3.33546e-18
3580.58632 -1.94334e-18
3583.18016 3.43938e-18
3585.77399 1.94246e-18
3588.35749 -2.67592e-18
3590.95133 2.35270e-18
3593.54516 -3.93382e-18
3596.12866 -2.41479e-18
3598.72249 -3.03883e-18
3601.31633 -6.25673e-19
3603.89983 5.58177e-19
3606.49366 8.28874e-19
3609.08750 -4.47469e-18
3611.68133 7.70767e-19
3614.26483 -2.50655e-18
3616.85866 -4.13031e-18
3619.45250 -1.07029e-18
3622.03600 -4.49988e-19
3624.62983 -5.08271e-18
3627.22367 -5.27725e-18
3629.80717 -6.09237e-18
3632.40100 -4.63335e-18
3634.99483 -2.65866e-18
3637.58867 -1.31941e-18
3640.17217 8.05531e-19
3642.76600 -6.28200e-19
3645.35984 1.09004e-18
3647.94334 -1.84960e-19
3650.53717 2.79966e-18
3653.13100 -1.28654e-18
3655.71450 -3.53278e-18
3658.30834 -4.63850e-19
3660.90217 -1.43460e-18
3663.48567 5.15394e-19
3666.07951 3.94227e-20
3668.67334 2.44528e-18
3671.26717 1.58847e-18
3673.85067 -1.78506e-18
3676.44451 5.36952e-19
3679.03834 1.46061e-18
3681.62184 2.49479e-18
3684.21568 2.94025e-18
3686.80951 -2.17894e-18
3689.40334 2.95440e-18
3691.98684 5.83141e-18
3694.58068 2.60550e-18
3697.17451 3.13857e-19
3699.75801 -1.40527e-18
3702.35185 -8.00634e-20
3704.94568 -2.70237e-18
3707.52918 -2.01262e-18
3710.12301 3.38572e-18
3712.71685 1.40539e-19
3715.31068 -4.24750e-19
3717.89418 -3.33906e-19
3720.48802 1.99025e-18
3723.08185 9.06748e-19
3725.66535 2.64451e-18
3728.25918 1.17940e-18
3730.85302 -1.28543e-20
3733.43652 -6.73624e-19
3736.03035 3.59220e-19
3738.62419 -1.64653e-19
3741.20769 -1.35887e-18
3743.80152 4.26346e-19
3746.39535 8.20794e-19
3748.98919 3.18194e-18
3751.57269 2.96653e-18
3754.16652 5.26331e-19
3756.76036 -1.83415e-18
3759.34386 -2.68274e-18
3761.93769 4.80463e-19
3764.53152 8.22349e-19
3767.11502 -5.60232e-19
3769.70886 3.95236e-20
3772.30269 3.78063e-19
3774.89653 2.90685e-18
3777.48003 1.22790e-18
3780.07386 -7.15527e-19
3782.66769 -2.17542e-20
3785.25119 1.11326e-18
3787.84503 -1.09079e-18
3790.43886 1.90150e-18
3793.03270 2.38636e-18
3795.61620 9.61123e-19
3798.21003 1.21969e-18
3800.80386 1.45891e-18
3803.38736 1.60406e-18
3805.98120 3.55474e-18
3808.57503 1.33485e-18
3811.15853 1.05967e-18
3813.75237 1.38467e-18
3816.34620 1.03600e-18
3818.92970 1.98812e-18
3821.52353 2.05246e-18
3824.11737 1.37518e-18
3826.71120 1.50466e-18
3829.29470 3.18787e-18
3831.88854 3.31953e-18
3860.38971 4.27823e-18
3862.97321 2.23497e-18
3865.56704 2.20765e-18
3868.16088 1.88286e-18
3870.74438 2.35451e-18
3873.33821 1.89309e-18
3875.93204 7.56527e-19
3878.52588 1.08598e-18
3881.10938 3.09087e-18
3883.70321 2.08240e-18
3886.29705 2.35681e-18
3888.88055 3.27292e-18
3891.47438 3.03592e-18
3894.06821 2.57260e-18
3896.65171 2.63055e-18
3899.24555 2.98488e-18
3901.83938 3.61354e-18
3904.42288 1.89850e-18
3907.01672 1.81752e-18
3909.61055 3.86663e-18
3912.20438 4.21535e-18
3914.78788 3.22154e-18
3917.38172 2.02894e-18
3919.97555 2.57817e-18
3922.55905 2.29597e-18
3925.15289 2.88069e-18
3927.74672 3.80676e-18
3930.34055 2.48268e-18
3932.92405 1.70841e-18
3935.51789 2.88960e-18
3938.11172 4.22283e-18
3940.69522 4.18957e-18
3943.28906 2.79287e-18
3945.88289 2.38324e-18
3948.46639 5.18418e-18
3951.06022 5.52539e-18
3953.65406 3.06638e-18
3956.24789 3.14454e-18
3958.83139 4.25361e-18
3961.42523 4.36619e-18
3964.01906 3.56210e-18
3966.60256 2.82049e-18
3969.19639 2.93526e-18
3971.79023 4.51343e-18
3974.37373 4.02479e-18
3976.96756 3.97203e-18
3979.56140 4.90006e-18
3982.14490 3.70521e-18
3984.73873 4.75568e-18
3987.33256 4.86313e-18
3989.92640 3.40775e-18
3992.50990 3.33651e-18
3995.10373 4.73821e-18
3997.69757 6.00332e-18
4000.28107 5.39110e-18
4002.87490 5.85676e-18
4005.46873 5.06429e-18
4008.05223 3.23647e-18
4010.64607 4.20747e-18
4013.23990 4.79452e-18
4015.83374 4.68008e-18
4018.41724 4.35261e-18
4021.01107 4.53829e-18
4023.60490 4.49968e-18
4026.18840 4.23790e-18
4028.78224 4.37959e-18
4031.37607 4.42973e-18
4033.95957 5.45213e-18
4036.55341 5.71278e-18
4039.14724 6.29689e-18
4041.74107 6.13015e-18
4044.32457 6.49014e-18
4046.91841 6.70456e-18
4049.51224 6.53226e-18
4052.09574 6.31162e-18
4054.68958 5.60229e-18
4057.28341 4.02210e-18
4059.86691 6.11014e-18
4062.46074 6.96717e-18
4065.05458 6.42771e-18
4067.64841 5.45896e-18
4070.23191 6.39913e-18
4072.82575 5.24970e-18
4075.41958 5.43502e-18
4078.00308 5.00723e-18
4080.59691 5.53608e-18
4083.19075 5.74717e-18
4085.77425 4.62267e-18
4088.36808 6.20519e-18
4090.96192 4.90679e-18
4093.55575 5.40065e-18
4096.13925 6.34572e-18
4098.73308 5.98162e-18
4101.32692 6.18570e-18
4103.91042 5.31609e-18
4106.50425 5.69156e-18
4109.09809 5.65577e-18
4111.68159 5.89674e-18
4114.27542 5.22337e-18
4116.86925 6.09984e-18
4119.45275 5.92803e-18
4122.04659 4.93345e-18
4124.64042 4.27956e-18
4127.23426 5.96296e-18
4129.81776 6.23295e-18
4132.41159 5.32341e-18
4135.00542 7.09657e-18
4137.58892 6.70789e-18
4140.18276 6.83250e-18
4142.77659 6.18486e-18
4145.36009 6.22837e-18
4147.95393 7.48899e-18
4150.54776 6.81496e-18
4153.14159 5.35796e-18
4155.72509 5.62738e-18
4158.31893 7.32705e-18
4160.91276 6.78546e-18
4163.49626 5.30244e-18
4166.09010 6.06669e-18
4168.68393 7.26388e-18
4171.26743 6.75509e-18
4173.86126 5.91369e-18
4176.45510 5.24925e-18
4179.04893 6.33690e-18
4181.63243 7.39180e-18
4184.22627 6.28384e-18
4186.82010 6.75505e-18
4189.40360 7.22967e-18
4191.99743 5.46918e-18
4194.59127 6.21273e-18
4197.17477 7.18244e-18
4199.76860 6.87326e-18
4202.36244 7.06298e-18
4204.95627 7.88409e-18
4207.53977 7.85718e-18
4210.13360 7.29806e-18
4212.72744 7.30796e-18
4215.31094 6.64676e-18
4217.90477 6.65498e-18
4220.49861 6.76020e-18
4223.08211 6.68789e-18
4225.67594 7.56671e-18
4228.26977 6.39436e-18
4230.85327 7.50128e-18
4233.44711 7.39593e-18
4236.04094 7.14814e-18
4238.63478 7.72789e-18
4241.21828 8.54742e-18
4243.81211 7.89334e-18
4246.40594 6.78703e-18
4248.98944 6.96484e-18
4251.58328 6.89814e-18
4254.17711 7.25724e-18
4256.77095 8.33345e-18
4259.35445 7.96845e-18
4261.94828 6.01496e-18
4264.54211 7.55142e-18
4267.12561 8.12923e-18
4269.71945 7.74011e-18
4272.31328 8.58778e-18
4274.89678 8.11324e-18
4277.49062 7.27883e-18
4280.08445 8.70866e-18
4282.66795 8.28901e-18
4285.26178 7.72512e-18
4287.85562 7.98543e-18
4290.44945 7.58904e-18
4293.03295 7.54874e-18
4295.62679 8.39245e-18
4298.22062 8.46717e-18
4300.80412 8.08195e-18
4303.39795 7.96537e-18
4305.99179 7.99662e-18
4308.58562 7.76322e-18
4311.16912 8.23030e-18
4313.76296 8.56577e-18
4316.35679 7.97110e-18
4318.94029 8.08285e-18
4321.53412 9.13118e-18
4324.12796 8.56761e-18
4326.71146 8.37247e-18
4329.30529 7.14758e-18
4331.89913 8.46070e-18
4334.48263 7.45426e-18
4337.07646 6.76099e-18
4339.67029 7.95746e-18
4342.26413 8.79028e-18
4344.84763 9.01515e-18
4347.44146 8.80226e-18
4350.03530 8.11139e-18
4352.61880 7.62293e-18
4355.21263 7.90467e-18
4357.80646 8.49176e-18
4360.38996 8.90732e-18
4362.98380 9.17850e-18
4365.57763 8.42029e-18
4368.17147 8.91559e-18
4370.75497 9.59329e-18
4373.34880 8.85181e-18
4375.94263 9.98331e-18
4378.52613 9.22506e-18
4381.11997 8.47175e-18
4383.71380 9.30940e-18
4386.29730 8.86463e-18
4388.89114 8.58807e-18
4391.48497 8.69771e-18
4394.07880 9.48669e-18
4396.66230 1.04977e-17
4399.25614 1.02344e-17
4401.84997 9.93542e-18
4404.43347 9.40352e-18
4407.02731 9.75018e-18
4409.62114 9.92639e-18
4412.20464 9.18898e-18
4414.79847 9.41002e-18
4417.39231 9.60406e-18
4419.98614 9.18058e-18
4422.56964 9.84867e-18
4425.16348 1.05253e-17
4427.75731 1.08171e-17
4430.34081 1.05814e-17
4432.93464 1.00242e-17
4435.52848 9.81572e-18
4438.11198 1.00091e-17
4440.70581 1.09701e-17
4443.29965 1.15913e-17
4445.89348 1.19535e-17
4448.47698 1.02821e-17
4451.07081 1.01007e-17
4453.66465 1.14967e-17
4456.24815 1.12883e-17
4458.84198 1.20062e-17
4461.43582 1.12723e-17
4464.01932 1.09484e-17
4466.61315 1.15945e-17
4489.92665 1.33631e-17
4492.52049 1.27557e-17
4495.11432 1.37271e-17
4497.70816 1.39976e-17
4500.29166 1.32399e-17
4502.88549 1.33863e-17
4505.47932 1.41437e-17
4508.06282 1.47324e-17
4510.65666 1.48427e-17
4513.25049 1.49088e-17
4515.83399 1.50279e-17
4518.42783 1.51027e-17
4521.02166 1.43465e-17
4523.60516 1.44744e-17
4526.19899 1.50793e-17
4528.79283 1.52599e-17
4531.38666 1.54669e-17
4533.97016 1.56208e-17
4536.56400 1.56776e-17
4539.15783 1.48258e-17
4541.74133 1.50150e-17
4544.33516 1.48251e-17
4546.92900 1.48908e-17
4549.52283 1.56259e-17
4552.10633 1.56648e-17
4554.70017 1.54133e-17
4557.29400 1.53907e-17
4559.87750 1.53153e-17
4562.47133 1.58644e-17
4565.06517 1.59120e-17
4567.64867 1.54059e-17
4570.24250 1.62091e-17
4572.83634 1.65990e-17
4575.41984 1.65234e-17
4578.01367 1.75273e-17
4580.60750 1.69162e-17
4583.20134 1.57441e-17
4585.78484 1.65106e-17
4588.37867 1.58390e-17
4590.97251 1.64209e-17
4593.55601 1.70549e-17
4596.14984 1.70493e-17
4598.74367 1.72888e-17
4601.32717 1.71694e-17
4603.92101 1.75399e-17
4606.51484 1.69744e-17
4609.10868 1.70563e-17
4611.69218 1.61942e-17
4614.28601 1.64334e-17
4616.87984 1.69258e-17
4619.46334 1.69202e-17
4622.05718 1.64695e-17
4624.65101 1.62110e-17
4627.23451 1.63801e-17
4629.82835 1.74035e-17
4632.42218 1.71537e-17
4635.01601 1.54489e-17
4637.59951 1.57486e-17
4640.19335 1.63965e-17
4642.78718 1.60515e-17
4645.37068 1.69686e-17
4647.96452 1.66585e-17
4650.55835 1.60007e-17
4653.14185 1.64996e-17
4655.73568 1.67982e-17
4658.32952 1.62627e-17
4660.91302 1.58751e-17
4663.50685 1.60869e-17
4666.10069 1.65154e-17
4668.69452 1.51912e-17
4671.27802 1.56110e-17
4673.87185 1.63861e-17
4676.46569 1.62419e-17
4679.04919 1.60719e-17
4681.64302 1.64129e-17
4684.23686 1.67191e-17
4686.83069 1.63327e-17
4689.41419 1.57475e-17
4692.00802 1.58200e-17
4694.60186 1.55899e-17
4697.18536 1.52562e-17
4699.77919 1.47844e-17
4702.37303 1.55309e-17
4704.95653 1.61388e-17
4707.55036 1.57017e-17
4710.14419 1.57741e-17
4712.72769 1.58378e-17
4715.32153 1.63585e-17
4717.91536 1.60598e-17
4720.50920 1.55718e-17
4723.09270 1.58681e-17
4725.68653 1.61900e-17
4728.28036 1.58057e-17
4730.86386 1.55852e-17
4733.45770 1.55111e-17
4736.05153 1.59273e-17
4738.64537 1.56726e-17
4741.22887 1.59938e-17
4743.82270 1.69850e-17
4746.41653 1.62578e-17
4749.00003 1.64412e-17
4751.59387 1.67360e-17
4754.18770 1.74510e-17
4756.77120 1.63902e-17
4759.36504 1.65904e-17
4761.95887 1.69361e-17
4764.54237 1.73931e-17
4767.13620 1.72244e-17
4769.73004 1.66620e-17
4772.31354 1.65537e-17
4774.90737 1.69074e-17
4777.50121 1.71839e-17
4780.09504 1.69729e-17
4782.67854 1.74201e-17
4785.27237 1.66965e-17
4787.86621 1.61014e-17
4790.44971 1.62325e-17
4793.04354 1.63551e-17
4795.63738 1.68359e-17
4798.23121 1.61733e-17
4800.81471 1.66539e-17
4803.40854 1.65033e-17
4806.00238 1.66511e-17
4808.58588 1.75058e-17
4811.17971 1.76021e-17
4813.77355 1.62000e-17
4816.35705 1.57009e-17
4818.95088 1.69121e-17
4821.54471 1.79183e-17
4824.13855 1.74531e-17
4826.72205 1.75067e-17
4829.31588 1.69400e-17
4831.90972 1.70277e-17
4834.49322 1.75143e-17
4837.08705 1.77799e-17
4839.68088 1.78248e-17
4842.26438 1.83361e-17
4844.85822 1.84061e-17
4847.45205 1.80185e-17
4850.04589 1.79954e-17
4852.62939 1.88447e-17
4855.22322 1.92701e-17
4857.81705 1.92975e-17
4860.40055 1.86056e-17
4862.99439 1.83201e-17
4865.58822 1.78827e-17
4868.17172 1.84936e-17
4870.76556 1.89267e-17
4873.35939 1.82277e-17
4875.94289 1.88548e-17
4878.53672 1.76076e-17
4881.13056 1.85551e-17
4883.72439 1.82958e-17
4886.30789 1.78089e-17
4888.90173 1.84520e-17
4891.49556 1.85553e-17
4894.07906 1.83973e-17
4896.67289 1.80711e-17
4899.26673 1.80229e-17
4901.85023 1.72679e-17
4904.44406 1.76658e-17
4907.03790 1.80299e-17
4909.63173 1.75278e-17
4912.21523 1.74378e-17
4914.80906 1.74655e-17
4917.40290 1.78543e-17
4919.98640 1.78399e-17
4922.58023 1.83123e-17
4925.17407 1.79789e-17
4927.76790 1.87276e-17
4930.35140 1.81848e-17
4932.94523 1.84887e-17
4935.53907 1.81558e-17
4938.12257 1.69520e-17
4940.71640 1.71053e-17
4943.31024 1.73423e-17
4945.89374 1.77967e-17
4948.48757 1.83344e-17
4951.08140 1.75924e-17
4953.66490 1.79626e-17
4956.25874 1.70291e-17
4958.85257 1.77585e-17
4961.44641 1.78527e-17
4964.02991 1.85896e-17
4966.62374 1.78407e-17
4969.21757 1.77013e-17
4971.80107 1.81207e-17
4974.39491 1.76728e-17
4976.98874 1.75086e-17
4979.57224 1.78526e-17
4982.16608 1.80548e-17
4984.75991 1.78074e-17
4987.35374 1.69859e-17
4989.93724 1.69885e-17
4992.53108 1.74486e-17
4995.12491 1.74179e-17
4997.70841 1.75949e-17
5028.80342 1.94788e-17
5031.38692 1.81483e-17
5033.98075 1.75301e-17
5036.57459 1.68958e-17
5039.16842 1.68903e-17
5041.75192 1.78269e-17
5044.34575 1.78210e-17
5046.93959 1.69397e-17
5049.52309 1.70745e-17
5052.11692 1.75064e-17
5054.71076 1.74016e-17
5057.29426 1.67360e-17
5059.88809 1.64914e-17
5062.48192 1.71373e-17
5065.06542 1.74118e-17
5067.65926 1.73814e-17
5070.25309 1.81416e-17
5072.84693 1.76912e-17
5075.43043 1.67473e-17
5078.02426 1.70627e-17
5080.61809 1.72956e-17
5083.20159 1.70927e-17
5085.79543 1.77693e-17
5088.38926 1.79115e-17
5090.98310 1.80535e-17
5093.56660 1.80723e-17
5096.16043 1.79598e-17
5186.83095 2.25346e-17
5189.42478 2.22598e-17
5192.01861 2.14903e-17
5194.60211 2.18080e-17
5197.19595 2.22877e-17
5199.78978 2.26537e-17
5202.38362 2.21686e-17
5204.96712 2.19592e-17
5207.56095 2.23331e-17
5210.15478 2.20024e-17
5212.73828 2.27725e-17
5215.33212 2.25066e-17
5217.92595 2.27747e-17
5220.50945 2.32771e-17
5223.10329 2.33669e-17
5225.69712 2.35941e-17
5228.29095 2.35384e-17
5230.87445 2.36685e-17
5233.46829 2.37905e-17
5236.06212 2.38397e-17
5238.64562 2.43569e-17
5241.23946 2.43092e-17
5243.83329 2.47130e-17
5246.41679 2.42944e-17
5249.01062 2.40856e-17
5251.60446 2.45053e-17
5254.18796 2.45382e-17
5256.78179 2.45710e-17
5259.37563 2.48051e-17
5261.96946 2.46689e-17
5264.55296 2.41065e-17
5267.14679 2.44370e-17
5269.74063 2.45422e-17
5272.32413 2.46554e-17
5274.91796 2.43187e-17
5277.51180 2.44641e-17
5280.10563 2.52838e-17
5282.68913 2.54047e-17
5285.28296 2.51965e-17
5287.87680 2.46195e-17
5290.46030 2.46122e-17
5293.05413 2.47733e-17
5295.64797 2.48702e-17
5298.23147 2.58885e-17
5300.82530 2.49517e-17
5303.41913 2.51685e-17
5306.00263 2.61138e-17
5308.59647 2.59941e-17
5311.19030 2.54664e-17
5313.78414 2.53950e-17
5316.36764 2.59313e-17
5318.96147 2.69150e-17
5321.55530 2.65076e-17
5324.13880 2.60365e-17
5326.73264 2.62286e-17
5329.32647 2.61013e-17
5331.90997 2.63731e-17
5334.50381 2.69241e-17
5337.09764 2.62701e-17
5339.69147 2.65337e-17
5342.27497 2.67493e-17
5344.86881 2.72438e-17
5347.46264 2.72838e-17
5350.04614 2.65909e-17
5352.63998 2.69098e-17
5355.23381 2.70216e-17
5357.81731 2.70139e-17
5360.41114 2.70460e-17
5363.00498 2.70303e-17
5365.59881 2.71737e-17
5368.18231 2.74681e-17
5370.77615 2.79849e-17
5373.36998 2.73811e-17
5375.95348 2.74767e-17
5378.54731 2.77151e-17
5381.14115 2.77867e-17
5383.73498 2.79694e-17
5386.31848 2.77314e-17
5388.91232 2.72715e-17
5391.50615 2.71132e-17
5394.08965 2.72405e-17
5396.68348 2.79224e-17
5399.27732 2.86040e-17
5401.86082 2.79307e-17
5404.45465 2.75903e-17
5407.04849 2.78281e-17
5409.63199 2.78679e-17
5412.22582 2.83191e-17
5414.81965 2.75678e-17
5417.41349 2.75602e-17
5419.99699 2.81693e-17
5422.59082 2.79798e-17
5425.18466 2.66999e-17
5427.76816 2.63293e-17
5430.36199 2.71513e-17
5432.95582 2.76413e-17
5435.53932 2.80758e-17
5438.13316 2.80287e-17
5440.72699 2.81079e-17
5443.31049 2.82344e-17
5445.90433 2.78010e-17
5448.49816 2.77856e-17
5451.09199 2.71477e-17
5453.67549 2.66047e-17
5456.26933 2.75506e-17
5458.86316 2.81967e-17
5461.44666 2.85356e-17
5464.04050 2.84414e-17
5466.63433 2.83158e-17
5469.22816 2.83397e-17
5471.81166 2.84108e-17
5474.40550 2.78766e-17
5476.99933 2.75469e-17
5479.58283 2.77754e-17
5482.17667 2.80351e-17
5484.77050 2.78314e-17
5487.35400 2.76985e-17
5489.94783 2.73380e-17
5492.54167 2.76055e-17
5495.12517 2.77159e-17
5497.71900 2.81165e-17
5500.31284 2.81327e-17
5502.90667 2.80392e-17
5505.49017 2.82905e-17
5508.08400 2.85104e-17
5510.67784 2.81975e-17
5513.26134 2.76186e-17
5515.85517 2.85039e-17
5518.44901 2.84027e-17
5521.04284 2.80433e-17
5523.62634 2.77466e-17
5526.22017 2.80445e-17
5528.81401 2.76464e-17
5531.39751 2.70140e-17
5533.99134 2.69134e-17
5536.58518 2.75940e-17
5539.16868 2.82119e-17
5541.76251 2.81266e-17
5544.35634 2.76199e-17
5546.93984 2.77378e-17
5549.53368 2.77230e-17
5552.12751 2.78564e-17
5554.72135 2.69682e-17
5557.30485 2.72031e-17
5559.89868 2.74847e-17
5562.49251 2.75791e-17
5565.07601 2.75333e-17
5567.66985 2.70435e-17
5570.26368 2.78077e-17
5572.84718 2.70223e-17
5575.44102 2.70389e-17
5578.03485 2.70789e-17
5580.62868 2.68000e-17
5583.21218 2.74856e-17
5585.80602 2.67712e-17
5588.39985 2.64226e-17
5590.98335 2.68669e-17
5593.57719 2.64874e-17
5596.17102 2.62867e-17
5598.75452 2.60939e-17
5601.34835 2.64913e-17
5603.94219 2.61588e-17
5606.52569 2.69053e-17
5609.11952 2.67281e-17
5611.71336 2.54107e-17
5614.30719 2.54977e-17
5616.89069 2.62513e-17
5619.48452 2.55784e-17
5622.07836 2.53863e-17
5624.66186 2.57908e-17
5627.25569 2.55523e-17
5629.84953 2.56236e-17
5632.43303 2.62059e-17
5635.02686 2.58049e-17
5637.62069 2.55435e-17
5640.21453 2.54368e-17
5642.79803 2.54308e-17
5645.39186 2.54171e-17
5647.98570 2.48390e-17
5650.56920 2.56370e-17
5653.16303 2.60637e-17
5655.75686 2.51692e-17
5658.35070 2.51942e-17
5660.93420 2.53968e-17
5663.52803 2.57615e-17
5666.12187 2.60873e-17
5668.70537 2.57881e-17
5671.29920 2.55892e-17
5673.89303 2.56682e-17
5676.47653 2.57548e-17
5679.07037 2.59030e-17
5681.66420 2.65368e-17
5684.24770 2.58449e-17
5686.84154 2.53228e-17
5689.43537 2.56867e-17
5692.02920 2.52419e-17
5694.61270 2.59829e-17
5697.20654 2.53690e-17
5699.80037 2.48861e-17
5702.38387 2.55729e-17
5704.97771 2.58748e-17
5707.57154 2.59843e-17
5710.16537 2.54018e-17
5712.74887 2.48657e-17
5715.34271 2.51598e-17
5717.93654 2.52310e-17
5720.52004 2.53099e-17
5723.11388 2.58648e-17
5725.70771 2.54061e-17
5728.29121 2.51241e-17
5730.88504 2.49267e-17
5733.47888 2.60030e-17
5736.06238 2.52838e-17
5738.65621 2.50098e-17
5741.25005 2.47129e-17
5743.83355 2.46078e-17
5746.42738 2.50010e-17
5749.02121 2.56468e-17
5751.61505 2.48675e-17
5754.19855 2.50152e-17
5756.79238 2.52931e-17
5759.38622 2.50426e-17
5761.98005 2.47463e-17
5764.56355 2.48175e-17
5767.15738 2.56001e-17
5769.75122 2.50439e-17
5772.33472 2.51991e-17
5774.92855 2.46966e-17
5777.52239 2.44009e-17
5780.10589 2.46173e-17
5782.69972 2.47495e-17
5785.29355 2.47443e-17
5787.87705 2.49758e-17
5790.47089 2.48788e-17
5793.06472 2.49728e-17
5795.64822 2.58987e-17
5798.24206 2.58016e-17
5800.83589 2.52087e-17
5803.42972 2.55085e-17
5806.01322 2.57319e-17
5808.60706 2.54063e-17
5811.20089 2.54924e-17
5813.79473 2.56167e-17
5816.37823 2.52989e-17
5818.97206 2.57888e-17
5821.56589 2.59739e-17
5824.14939 2.56791e-17
5826.74323 2.54606e-17
5829.33706 2.53411e-17
5831.92056 2.58915e-17
5834.51440 2.55665e-17
5837.10823 2.51276e-17
5839.69173 2.51529e-17
5842.28556 2.46154e-17
5844.87940 2.46104e-17
5847.46290 2.45674e-17
5850.05673 2.43799e-17
5852.65057 2.46029e-17
5855.24440 2.47043e-17
5857.82790 2.48740e-17
5860.42173 2.45576e-17
5863.01557 2.43704e-17
5865.59907 2.40163e-17
5868.19290 2.42619e-17
5870.78674 2.37790e-17
5873.37024 2.38425e-17
5875.96407 2.35495e-17
5878.55790 2.30899e-17
5881.15174 2.28351e-17
5883.73524 2.34596e-17
5886.32907 2.28184e-17
5888.92291 2.26472e-17
5891.50641 2.24609e-17
5894.10024 2.24034e-17
5896.69407 2.28230e-17
5899.28791 2.28715e-17
5901.87141 2.32228e-17
5904.46524 2.38161e-17
5907.05908 2.34255e-17
5909.64258 2.30578e-17
5912.23641 2.29928e-17
5914.83024 2.39184e-17
5917.41374 2.35811e-17
5920.00758 2.29794e-17
5922.60141 2.30958e-17
5925.18491 2.29780e-17
5927.77875 2.39028e-17
5930.37258 2.38528e-17
5932.96641 2.31459e-17
5935.54991 2.33227e-17
5938.14375 2.33560e-17
5940.73758 2.32232e-17
5943.32108 2.25849e-17
5945.91492 2.31313e-17
5948.50875 2.37680e-17
5951.09225 2.31904e-17
5953.68608 2.36082e-17
5956.27992 2.28800e-17
5958.87375 2.24460e-17
5961.45725 2.34817e-17
5964.05109 2.39068e-17
5966.64492 2.28702e-17
5969.22842 2.29789e-17
5971.82225 2.28842e-17
5974.41609 2.24357e-17
5976.99959 2.26047e-17
5979.59342 2.33455e-17
5982.18726 2.25135e-17
5984.78109 2.23438e-17
5987.36459 2.30767e-17
5989.95842 2.19820e-17
5992.55226 2.24065e-17
5995.13576 2.31541e-17
5997.72959 2.27364e-17
6000.32343 2.25820e-17
6002.90693 2.24501e-17
6005.50076 2.32422e-17
6008.09459 2.34182e-17
6010.68843 2.29258e-17
6013.27193 2.29441e-17
6015.86576 2.32177e-17
6018.45960 2.30859e-17
6021.04310 2.27965e-17
6023.63693 2.32575e-17
6026.23076 2.31483e-17
6028.81426 2.29641e-17
6031.40810 2.29974e-17
6034.00193 2.27759e-17
6036.58543 2.28392e-17
6039.17927 2.29101e-17
6041.77310 2.32581e-17
6044.36693 2.32839e-17
6046.95043 2.29652e-17
6049.54427 2.19201e-17
6052.13810 2.25676e-17
6054.73194 2.27956e-17
6057.31544 2.19233e-17
6059.90927 2.12609e-17
6062.49277 2.17884e-17
6065.08660 2.24503e-17
6067.68044 2.24164e-17
6070.27427 2.25022e-17
6072.85777 2.25506e-17
6075.45161 2.18738e-17
6078.04544 2.16532e-17
6080.62894 2.15373e-17
6083.22277 2.10180e-17
6085.81661 2.08425e-17
6088.40011 2.07865e-17
6090.99394 2.08651e-17
6093.58778 2.07644e-17
6096.18161 2.02606e-17
6098.76511 2.08542e-17
6101.35894 2.05222e-17
6103.95278 2.01680e-17
6106.53628 2.01645e-17
6109.13011 2.06085e-17
6111.72395 2.01575e-17
6114.30745 2.01764e-17
6116.90128 2.08439e-17
6119.49511 2.06018e-17
6122.08895 2.01511e-17
6124.67245 2.00210e-17
6127.26628 1.98090e-17
6129.86012 1.96268e-17
6132.44362 2.01001e-17
6135.03745 2.06849e-17
6137.63128 2.03911e-17
6140.22512 1.99261e-17
6142.80862 1.99153e-17
6145.40245 1.93687e-17
6147.99629 1.92762e-17
6150.57979 1.94961e-17
6153.17362 1.94705e-17
6155.76745 1.95267e-17
6158.35095 1.97167e-17
6160.94479 1.89775e-17
6163.53862 1.97324e-17
6166.12212 1.91644e-17
6168.71596 1.86782e-17
6171.30979 1.95294e-17
6173.89329 1.90879e-17
6176.48712 1.91590e-17
6179.08096 1.91484e-17
6181.67479 1.85885e-17
6184.25829 1.90975e-17
6186.85213 1.95767e-17
6189.44596 1.87944e-17
6192.02946 1.91919e-17
6194.62329 1.86102e-17
6197.21713 1.79842e-17
6199.80063 1.85225e-17
6202.39446 1.89791e-17
6204.98830 1.96061e-17
6207.58213 1.96251e-17
6210.16563 1.89253e-17
6212.75946 1.91445e-17
6215.35330 1.96081e-17
6217.93680 1.92271e-17
6220.53063 1.91648e-17
6223.12447 1.97021e-17
6225.71830 1.96175e-17
6228.30180 1.95477e-17
6230.89563 1.97444e-17
6233.48947 1.92528e-17
6236.07297 1.97824e-17
6238.66680 1.98236e-17
6241.26064 1.98499e-17
6243.84414 1.97284e-17
6246.43797 1.93926e-17
6249.03180 1.98995e-17
6251.62564 1.95711e-17
6254.20914 1.96936e-17
6256.80297 1.97348e-17
6259.39681 2.00419e-17
6261.98031 2.04819e-17
6264.57414 1.99247e-17
6267.16797 1.99659e-17
6269.75147 1.97781e-17
6272.34531 1.92509e-17
6274.93914 1.89009e-17
6277.52264 1.89201e-17
6280.11648 1.91384e-17
6282.71031 1.90543e-17
6285.30414 1.89406e-17
6287.88764 1.92031e-17
6290.48148 2.00185e-17
6293.07531 2.01259e-17
6295.65881 2.00048e-17
6298.25265 2.03849e-17
6300.84648 1.99617e-17
6303.42998 2.00175e-17
6306.02381 2.04048e-17
6308.61765 1.99818e-17
6311.21148 2.03469e-17
6313.79498 2.03216e-17
6316.38882 2.04141e-17
6318.98265 2.03668e-17
6321.56615 2.02827e-17
6324.15998 2.01986e-17
6326.75382 2.10488e-17
6329.33732 2.05822e-17
6331.93115 2.02701e-17
6334.52499 2.03184e-17
6337.11882 2.02564e-17
6339.70232 2.07385e-17
6342.29615 2.06397e-17
6344.88999 2.06586e-17
6347.47349 2.06407e-17
6350.06732 2.06596e-17
6352.66116 2.07225e-17
6355.24466 1.98967e-17
6357.83849 2.01360e-17
6360.43232 2.08451e-17
6363.02616 2.07171e-17
6365.60966 2.07873e-17
6368.20349 2.02704e-17
6370.79733 2.04801e-17
6373.38083 2.10639e-17
6375.97466 2.02171e-17
6378.56849 2.00160e-17
6381.15199 2.06803e-17
6383.74583 2.11171e-17
6386.33966 2.14364e-17
6388.93350 2.16531e-17
6391.51700 2.13493e-17
6394.11083 2.01370e-17
6396.70466 2.06908e-17
6399.28816 2.13469e-17
6401.88200 2.08456e-17
6404.47583 2.10475e-17
6407.05933 2.15789e-17
6409.65317 2.21906e-17
6412.24700 2.18359e-17
6414.83050 2.12544e-17
6417.42433 2.11634e-17
6420.01817 2.08748e-17
6422.61200 2.16398e-17
6425.19550 2.11465e-17
6427.78934 2.17796e-17
6430.38317 2.18495e-17
6432.96667 2.13125e-17
6435.56050 2.11411e-17
6438.15434 2.14157e-17
6440.74817 2.12298e-17
6443.33167 2.12193e-17
6445.92551 2.14280e-17
6448.51934 2.11838e-17
6451.10284 2.15385e-17
6453.69667 2.17251e-17
6456.29051 2.10721e-17
6458.87401 2.11930e-17
6461.46784 2.14527e-17
6464.06168 2.14787e-17
6466.65551 2.20446e-17
6469.23901 2.17933e-17
6471.83284 2.18630e-17
6474.42668 2.15024e-17
6477.01018 2.12804e-17
6479.60401 2.06866e-17
6482.19785 2.10700e-17
6484.78135 2.07388e-17
6487.37518 2.09179e-17
6489.96901 2.06452e-17
6492.55251 2.07952e-17
6495.14635 2.14041e-17
6497.74018 2.09857e-17
6500.33402 2.10482e-17
6502.91752 2.11761e-17
6505.51135 2.17118e-17
6508.10518 2.22400e-17
6510.68868 2.16545e-17
6513.28252 2.09526e-17
6515.87635 2.08841e-17
6518.45985 2.10629e-17
6521.05369 2.09652e-17
6523.64752 2.10494e-17
6526.24135 2.10463e-17
6528.82485 2.09196e-17
6531.41869 2.13964e-17
6534.01252 2.11970e-17
6536.59602 2.08741e-17
6539.18986 2.11690e-17
6541.78369 2.15801e-17
6544.36719 2.15987e-17
6546.96102 2.06730e-17
6549.55486 2.05102e-17
6552.14869 2.16691e-17
6554.73219 2.11069e-17
6557.32603 2.04432e-17
6559.91986 2.13185e-17
6562.50336 2.09307e-17
6565.09719 2.08986e-17
6567.69103 2.09754e-17
6570.27453 2.09361e-17
6572.86836 2.10999e-17
6575.46220 2.11621e-17
6578.05603 2.08037e-17
6580.63953 2.04526e-17
6583.23336 2.06454e-17
6585.82720 2.05192e-17
6588.41070 2.06032e-17
6591.00453 2.10422e-17
6593.59837 2.06841e-17
6596.18187 2.05580e-17
6598.77570 2.08302e-17
6601.36953 2.07910e-17
6603.95303 2.09762e-17
6606.54687 2.08357e-17
6609.14070 2.07458e-17
6611.73454 2.06993e-17
6614.31804 2.11595e-17
6616.91187 2.10913e-17
6619.50570 2.00827e-17
6622.08920 2.03980e-17
6624.68304 2.09881e-17
6627.27687 2.08839e-17
6629.87071 2.08519e-17
6632.45421 2.05959e-17
6635.04804 2.06580e-17
6637.64187 2.07345e-17
6640.22537 2.05436e-17
6642.81921 2.04467e-17
6645.41304 2.04510e-17
6647.99654 2.08020e-17
6650.59038 2.08712e-17
6653.18421 2.09909e-17
6655.76771 2.05764e-17
6658.36154 2.03641e-17
6660.95538 2.05921e-17
6663.54921 2.02211e-17
6666.13271 2.03913e-17
6668.72655 2.07924e-17
6671.32038 2.06812e-17
6673.90388 2.06710e-17
6676.49771 2.04950e-17
6679.09155 2.02036e-17
6681.68538 1.94870e-17
6684.26888 2.02699e-17
6686.86272 2.02742e-17
6689.45655 1.98749e-17
6692.04005 1.97207e-17
6694.63388 2.02582e-17
6697.22772 2.02193e-17
6699.81122 1.97554e-17
6702.40505 1.97598e-17
6704.99889 2.03186e-17
6707.58239 2.02868e-17
6710.17622 1.98521e-17
6712.77005 1.94750e-17
6715.36389 1.95729e-17
6717.94739 1.93327e-17
6720.54122 1.92867e-17
6723.13506 1.96364e-17
6725.71856 1.95976e-17
6728.31239 1.98321e-17
6730.90622 1.99227e-17
6733.48972 1.93304e-17
6736.08356 1.93779e-17
6738.67739 1.94326e-17
6741.27123 1.89053e-17
6743.85473 1.88738e-17
6746.44856 1.90579e-17
6749.04239 1.93424e-17
6930.39376 1.67805e-17
6932.97726 1.66928e-17
6935.57109 1.70884e-17
6938.16493 1.74058e-17
6940.74843 1.75241e-17
6943.34226 1.76139e-17
6945.93610 1.76397e-17
6948.51960 1.73175e-17
6951.11343 1.66971e-17
6953.70726 1.68367e-17
6956.30110 1.71893e-17
6958.88460 1.72081e-17
6961.47843 1.75534e-17
6964.07227 1.73450e-17
6966.65577 1.62497e-17
6969.24960 1.65099e-17
6971.84343 1.71672e-17
6974.42693 1.75761e-17
6977.02077 1.71125e-17
6979.61460 1.73157e-17
6982.20844 1.76676e-17
6984.79194 1.70129e-17
6987.38577 1.67623e-17
6989.97960 1.67386e-17
6992.56310 1.67787e-17
6995.15694 1.61599e-17
6997.75077 1.62213e-17
7000.33427 1.63464e-17
7002.92811 1.65210e-17
7005.52194 1.61788e-17
7008.10544 1.59923e-17
7010.69927 1.61245e-17
7013.29311 1.64123e-17
7015.88694 1.63533e-17
7018.47044 1.66197e-17
7021.06428 1.60018e-17
7023.65811 1.64168e-17
7026.24161 1.65417e-17
7028.83544 1.60514e-17
7031.42928 1.62258e-17
7034.01278 1.62305e-17
7036.60661 1.64967e-17
7039.20045 1.64448e-17
7041.79428 1.63222e-17
7044.37778 1.64258e-17
7046.97161 1.62821e-17
7049.56545 1.62656e-17
7052.14895 1.63974e-17
7054.74278 1.66844e-17
7057.33662 1.63007e-17
7059.93045 1.62983e-17
7062.51395 1.61266e-17
7065.10778 1.62089e-17
7067.70162 1.63194e-17
7070.28512 1.65497e-17
7072.87895 1.60606e-17
7075.47279 1.62204e-17
7078.05629 1.64648e-17
7080.65012 1.64413e-17
7083.24395 1.67349e-17
7085.82745 1.63800e-17
7088.42129 1.62507e-17
7091.01512 1.63399e-17
7093.60896 1.65559e-17
7096.19246 1.64196e-17
7098.78629 1.65017e-17
7101.38012 1.58655e-17
7103.96362 1.56800e-17
7106.55746 1.64591e-17
7109.15129 1.65200e-17
7111.73479 1.61868e-17
7114.32863 1.56355e-17
7116.92246 1.60905e-17
7119.51629 1.59475e-17
7122.09979 1.56778e-17
7124.69363 1.58161e-17
7127.28746 1.57364e-17
7129.87096 1.64231e-17
7132.46480 1.61113e-17
7135.05863 1.55888e-17
7137.64213 1.56708e-17
7140.23596 1.58371e-17
7142.82980 1.57013e-17
7145.42363 1.61766e-17
7148.00713 1.54016e-17
7150.60097 1.53150e-17
7153.19480 1.56778e-17
7155.77830 1.54298e-17
7158.37213 1.57012e-17
7160.96597 1.56848e-17
7163.54947 1.53737e-17
7166.14330 1.53574e-17
7168.73714 1.48921e-17
7171.32064 1.43428e-17
7173.91447 1.38077e-17
7176.50830 1.34901e-17
7179.10214 1.37896e-17
7181.68564 1.38085e-17
7184.27947 1.37644e-17
7186.87331 1.35661e-17
7189.45681 1.34310e-17
7192.05064 1.32608e-17
7194.64447 1.31958e-17
7197.23831 1.34459e-17
7199.82181 1.35629e-17
7202.41564 1.34278e-17
7205.00948 1.38668e-17
7207.59298 1.39977e-17
7210.18681 1.40725e-17
7212.78064 1.45112e-17
7215.36414 1.48098e-17
7217.95798 1.51084e-17
7220.55181 1.50431e-17
7223.14565 1.49989e-17
7225.72915 1.52204e-17
7228.32298 1.46518e-17
7230.91681 1.41464e-17
7233.50031 1.40744e-17
7236.09415 1.34224e-17
7238.68798 1.32667e-17
7241.27148 1.35301e-17
7243.86532 1.36118e-17
7246.45915 1.35679e-17
7249.04265 1.38940e-17
7251.63648 1.40105e-17
7254.23032 1.40922e-17
7256.82415 1.41179e-17
7259.40765 1.37390e-17
7262.00149 1.37229e-17
7264.59532 1.33093e-17
7267.17882 1.31538e-17
7269.77265 1.39189e-17
7272.36649 1.37285e-17
7274.94999 1.34476e-17
7277.54382 1.33549e-17
7280.13766 1.36595e-17
7282.73149 1.41661e-17
7285.31499 1.41709e-17
7287.90882 1.35139e-17
7290.50266 1.29268e-17
7293.08616 1.35515e-17
7295.67999 1.34729e-17
7298.27383 1.33246e-17
7300.85733 1.35314e-17
7303.45116 1.35154e-17
7306.04499 1.36107e-17
7308.63883 1.33930e-17
7311.22233 1.32240e-17
7313.81616 1.34862e-17
7316.41000 1.36858e-17
7318.99350 1.37741e-17
7321.58733 1.40640e-17
7324.18116 1.43607e-17
7326.76466 1.41639e-17
7329.35850 1.44536e-17
7331.95233 1.47362e-17
7334.54617 1.41226e-17
7337.12967 1.33425e-17
7339.72350 1.35835e-17
7342.31733 1.38800e-17
7344.90083 1.34891e-17
7347.49467 1.35772e-17
7350.08850 1.38597e-17
7352.67200 1.40726e-17
7355.26584 1.39178e-17
7357.85967 1.30624e-17
7360.45350 1.35667e-17
7363.03700 1.32941e-17
7365.63084 1.32435e-17
7368.22467 1.41358e-17
7370.80817 1.38564e-17
7373.40201 1.35077e-17
7375.99584 1.34432e-17
7378.57934 1.38222e-17
7381.17317 1.38200e-17
7383.76701 1.36447e-17
7386.35051 1.35318e-17
7388.94434 1.33843e-17
7391.53818 1.32022e-17
7394.13201 1.33594e-17
7396.71551 1.37033e-17
7399.30934 1.32030e-17
7401.90318 1.28411e-17
7404.48668 1.34340e-17
7407.08051 1.32383e-17
7409.67435 1.28144e-17
7412.26818 1.35729e-17
7414.85168 1.37437e-17
7417.44551 1.31401e-17
7420.03935 1.33247e-17
7422.62285 1.26247e-17
7425.21668 1.25536e-17
7427.81052 1.28556e-17
7430.39402 1.24806e-17
7432.98785 1.23129e-17
7435.58168 1.24974e-17
7438.17552 1.26473e-17
7440.75902 1.26937e-17
7443.35285 1.25329e-17
7445.94669 1.25931e-17
7448.53019 1.21426e-17
7451.12402 1.25960e-17
7453.71785 1.28561e-17
7456.30135 1.26196e-17
7458.89519 1.27004e-17
7461.48902 1.24088e-17
7464.07252 1.18624e-17
7466.66636 1.14194e-17
7469.26019 1.16864e-17
7471.85402 1.19394e-17
7474.43752 1.22957e-17
7477.03136 1.26382e-17
7479.62519 1.18167e-17
7482.20869 1.18906e-17
7484.80253 1.20746e-17
7487.39636 1.21897e-17
7489.97986 1.13688e-17
7492.57369 1.16835e-17
7495.16753 1.24453e-17
7497.76136 1.19068e-17
7500.34486 1.18018e-17
7502.93870 1.24463e-17
7505.53253 1.24374e-17
7508.11603 1.22155e-17
7510.70986 1.19661e-17
7513.30370 1.20604e-17
7515.88720 1.20242e-17
7518.48103 1.17887e-17
7521.07487 1.21234e-17
7523.66870 1.14896e-17
7526.25220 1.07805e-17
7528.84603 1.17743e-17
7531.43987 1.20402e-17
7534.02337 1.18529e-17
7536.61720 1.12678e-17
7539.21104 1.18217e-17
7541.79454 1.21080e-17
7544.38837 1.16739e-17
7546.98220 1.16515e-17
7549.57604 1.14439e-17
7552.15954 1.14832e-17
7554.75337 1.15979e-17
7557.34721 1.10410e-17
7559.93071 1.11899e-17
7562.52454 1.12498e-17
7565.11837 1.15426e-17
7567.70187 1.19654e-17
7570.29571 1.19977e-17
7572.88954 1.17425e-17
7575.48338 1.15215e-17
7578.06688 1.14238e-17
7580.66071 1.09840e-17
7583.25454 1.11054e-17
7585.83804 1.16783e-17
7686.88390 1.08370e-17
7689.46740 1.13451e-17
7692.06123 1.18870e-17
7694.65506 1.18239e-17
7697.23856 1.10134e-17
7699.83240 1.13581e-17
7702.42623 1.16483e-17
7705.00973 1.18705e-17
7707.60357 1.22217e-17
7710.19740 1.16563e-17
7712.79123 1.18580e-17
7715.37473 1.17678e-17
7717.96857 1.18745e-17
7720.56240 1.24560e-17
7723.14590 1.19928e-17
7725.73974 1.13058e-17
7728.33357 1.13718e-17
7730.91707 1.20412e-17
7733.51090 1.20121e-17
7736.10474 1.20373e-17
7738.69857 1.25164e-17
7741.28207 1.26770e-17
7743.87591 1.22821e-17
7746.46974 1.19753e-17
7749.05324 1.20275e-17
7751.64707 1.21339e-17
7754.24091 1.18543e-17
7756.82441 1.18524e-17
7759.41824 1.22227e-17
7762.01208 1.19095e-17
7764.60591 1.19684e-17
7767.18941 1.19259e-17
7769.78324 1.20186e-17
7772.37708 1.27064e-17
7774.96058 1.18592e-17
7777.55441 1.19452e-17
7780.14825 1.19770e-17
7782.73175 1.25225e-17
7785.32558 1.24596e-17
7787.91941 1.20590e-17
7790.51325 1.21449e-17
7793.09675 1.25008e-17
7795.69058 1.22692e-17
7798.28442 1.23752e-17
7800.86792 1.24542e-17
7803.46175 1.18583e-17
7806.05558 1.18631e-17
7808.63908 1.21715e-17
7811.23292 1.21830e-17
7813.82675 1.19315e-17
7816.42059 1.15923e-17
7819.00409 1.19546e-17
7821.59792 1.21077e-17
7824.19175 1.21731e-17
7826.77525 1.23868e-17
7829.36909 1.26206e-17
7831.96292 1.26792e-17
7834.54642 1.24818e-17
7837.14026 1.27357e-17
7839.73409 1.32655e-17
7842.31759 1.29335e-17
7844.91142 1.23861e-17
7847.50526 1.22360e-17
7850.09909 1.21062e-17
7852.68259 1.21917e-17
7855.27643 1.24790e-17
7857.87026 1.27661e-17
7860.45376 1.26094e-17
7863.04759 1.21703e-17
7865.64143 1.29011e-17
7868.22493 1.28116e-17
7870.81876 1.20904e-17
7873.41260 1.26126e-17
7876.00643 1.28524e-17
7878.58993 1.24540e-17
7881.18376 1.11154e-17
7883.77760 1.20738e-17
7886.36110 1.29246e-17
7888.95493 1.24794e-17
7891.54877 1.23968e-17
7894.13227 1.22405e-17
7896.72610 1.22586e-17
7899.31993 1.22767e-17
7901.91377 1.19125e-17
7904.49727 1.24605e-17
7907.09110 1.22104e-17
7909.68494 1.24564e-17
7912.26844 1.27225e-17
7914.86227 1.18157e-17
7917.45610 1.20751e-17
7920.03960 1.30044e-17
7922.63344 1.23056e-17
7925.22727 1.16607e-17
7927.81077 1.18128e-17
7930.40461 1.21255e-17
7932.99844 1.26256e-17
7935.59227 1.24161e-17
7938.17577 1.19724e-17
7940.76961 1.19169e-17
7943.36344 1.21023e-17
7945.94694 1.20468e-17
7948.54078 1.22856e-17
7951.13461 1.23171e-17
7953.72844 1.19072e-17
7956.31194 1.20189e-17
7958.90578 1.17563e-17
7961.49961 1.16742e-17
7964.08311 1.18327e-17
7966.67695 1.15368e-17
7969.27078 1.14214e-17
7971.85428 1.10656e-17
7974.44811 1.14043e-17
7977.04195 1.13958e-17
7979.62545 1.15608e-17
7982.21928 1.19794e-17
7984.81312 1.15037e-17
7987.40695 1.10415e-17
7989.99045 1.12198e-17
7992.58428 1.14781e-17
7995.17812 1.16096e-17
7997.76162 1.12877e-17
8000.35545 1.11392e-17
8002.94929 1.15639e-17
8005.53279 1.10489e-17
8008.12662 1.06940e-17
8010.72045 1.11919e-17
8013.31429 1.09437e-17
8015.89779 1.03425e-17
8018.49162 1.10600e-17
8021.08546 1.15442e-17
8023.66896 1.09898e-17
8026.26279 1.07019e-17
8028.85662 1.03741e-17
8031.45046 1.06319e-17
8034.03396 1.06368e-17
8036.62779 1.07282e-17
8039.22163 1.07996e-17
8041.80513 1.01862e-17
8044.39896 9.65268e-18
8046.99279 9.80400e-18
8049.57629 1.01546e-17
8052.17013 1.07577e-17
8054.76396 1.09951e-17
8057.35780 1.02759e-17
8059.94130 1.01746e-17
8062.53513 1.05648e-17
8065.12896 1.10876e-17
8067.71246 1.09729e-17
8070.30630 9.84286e-18
8072.90013 9.56920e-18
8075.48363 1.04037e-17
8078.07747 9.69880e-18
8080.67130 9.74367e-18
8083.26513 9.60946e-18
8085.84863 9.56813e-18
8088.44247 9.39422e-18
8091.03630 9.08117e-18
8093.61980 9.22551e-18
8096.21364 9.55535e-18
8098.80747 9.54057e-18
8101.39097 9.67815e-18
8103.98480 9.41829e-18
8106.57864 8.97971e-18
8109.16214 9.05110e-18
8111.75597 9.46671e-18
8114.34981 9.16072e-18
8116.94364 8.29892e-18
8119.52714 8.60858e-18
8122.12097 8.97108e-18
8124.71481 8.55953e-18
8127.29831 7.83065e-18
8129.89214 7.71698e-18
8132.48598 7.86781e-18
8135.06948 8.42184e-18
8137.66331 8.02392e-18
8140.25714 8.04247e-18
8142.85098 8.07422e-18
8145.43448 7.86153e-18
8148.02831 7.51680e-18
8150.62215 7.75336e-18
8153.20565 8.04926e-18
8155.79948 8.04138e-18
8158.39331 7.61763e-18
8160.97681 7.27982e-18
8163.57065 7.08729e-18
8166.16448 7.05977e-18
8168.75832 7.32252e-18
8171.34182 6.83987e-18
8173.93565 6.72007e-18
8176.52948 7.27947e-18
8179.11298 7.15965e-18
8181.70682 7.54083e-18
8184.30065 7.53305e-18
8186.88415 7.26168e-18
8189.47799 7.40548e-18
8192.07182 7.77320e-18
8194.65532 7.03430e-18
8197.24915 7.02660e-18
8199.84299 6.90038e-18
8202.43682 7.15604e-18
8205.02032 7.38529e-18
8207.61416 7.88430e-18
8210.20799 7.39612e-18
8212.79149 8.08577e-18
8215.38532 8.03187e-18
8217.97916 7.79383e-18
8220.56266 8.15429e-18
8223.15649 7.55468e-18
8225.75033 6.87637e-18
8228.34416 6.36589e-18
8230.92766 6.53182e-18
8233.52149 6.88627e-18
8236.11533 6.71438e-18
8238.69883 7.18628e-18
8241.29266 7.71715e-18
8243.88650 7.68310e-18
8246.48033 7.64907e-18
8249.06383 7.94329e-18
8251.65766 8.25054e-18
8254.25150 7.42892e-18
8256.83500 6.67317e-18
8259.42883 6.91488e-18
8262.02267 7.47136e-18
8264.60617 7.86371e-18
8267.20000 7.43625e-18
8269.79383 7.33674e-18
8272.37733 7.84038e-18
8274.97117 7.20337e-18
8277.56500 6.69108e-18
8280.15884 7.35840e-18
8282.74234 7.35725e-18
8285.33617 7.29061e-18
8287.93000 7.04715e-18
8290.51350 7.28835e-18
8293.10734 7.28723e-18
8295.70117 7.40393e-18
8298.28467 8.25369e-18
8300.87851 8.27859e-18
8303.47234 7.47903e-18
8306.05584 6.22894e-18
8308.64967 6.36143e-18
8311.24351 8.20154e-18
8313.83734 8.04334e-18
8316.42084 7.52558e-18
8319.01468 7.28255e-18
8321.60851 7.73897e-18
8324.19201 7.48291e-18
8326.78584 7.46869e-18
8329.37968 7.05595e-18
8331.96318 8.36786e-18
8334.55701 8.32086e-18
8337.15085 7.69921e-18
8339.74468 8.05062e-18
8342.32818 8.76750e-18
8344.92201 7.97637e-18
8347.51585 7.97515e-18
8350.09935 8.43071e-18
8352.69318 8.33809e-18
8355.28702 8.62385e-18
8357.88085 8.47905e-18
8360.46435 8.79079e-18
8363.05818 9.38933e-18
8365.65202 9.09453e-18
8368.23552 9.19745e-18
8370.82935 9.30034e-18
8373.42319 8.66033e-18
8376.00669 8.67857e-18
8378.60052 9.34174e-18
8381.19435 8.77366e-18
8383.78819 8.53137e-18
8386.37169 9.00543e-18
8388.96552 9.20591e-18
8391.55936 9.56906e-18
8394.14286 9.17060e-18
8396.73669 8.21261e-18
8399.33052 9.40860e-18
8401.91402 1.04091e-17
8404.50786 9.32123e-18
8407.10169 9.13773e-18
8409.68519 9.05834e-18
8412.27903 9.21303e-18
8414.87286 9.36768e-18
8417.46669 9.04130e-18
8420.05019 9.49487e-18
8422.64403 1.01108e-17
8425.23786 9.35562e-18
8427.82136 8.86054e-18
8430.41520 9.33986e-18
8433.00903 1.01178e-17
8435.59253 9.91499e-18
8438.18636 9.19939e-18
8440.78020 9.66540e-18
8443.37403 9.69643e-18
8445.95753 1.03958e-17
8448.55137 1.00504e-17
8451.14520 1.01787e-17
8453.72870 1.01448e-17
8456.32253 9.94225e-18
8458.91637 1.07968e-17
8461.49987 1.10999e-17
8464.09370 9.00439e-18
8466.68754 9.59291e-18
8469.28137 1.03757e-17
8471.86487 1.01279e-17
8474.45870 9.80253e-18
8477.05254 9.80759e-18
8479.63604 9.64424e-18
8482.22987 9.80474e-18
8484.82371 9.79685e-18
8487.41754 1.00220e-17
8490.00104 1.04349e-17
8492.59487 1.08929e-17
8495.18871 1.00759e-17
8497.77221 9.79626e-18
8500.36604 1.12246e-17
8502.95988 1.12942e-17
8505.54338 1.04582e-17
8508.13721 1.05408e-17
8510.73104 1.08949e-17
8513.31454 1.03438e-17
8515.90838 1.00902e-17
8518.50221 1.05477e-17
8521.09605 1.03265e-17
8523.67955 1.09905e-17
8526.27338 1.05432e-17
8528.86721 1.01348e-17
8531.45071 1.10052e-17
8534.04455 1.13265e-17
8536.63838 1.06986e-17
8539.22188 1.11490e-17
8541.81572 1.15864e-17
8544.40955 1.19655e-17
8546.99305 1.12347e-17
8549.58688 1.11944e-17
8552.18072 1.06186e-17
8554.77455 1.07720e-17
8557.35805 1.10929e-17
8559.95189 1.12977e-17
8562.54572 1.11543e-17
8565.12922 1.05919e-17
8567.72305 1.09578e-17
8570.31689 1.09048e-17
8572.91072 1.07872e-17
8575.49422 1.16620e-17
8578.08806 1.11064e-17
8580.68189 1.07506e-17
8583.26539 1.14833e-17
8585.85922 1.08120e-17
8588.45306 1.04693e-17
8591.03656 1.14786e-17
8593.63039 1.19211e-17
8596.22423 1.16363e-17
8598.81806 1.20723e-17
8599.99644 1.20723e-17
8602.00348 1.17630e-17
8604.00032 1.13677e-17
8605.99717 1.11242e-17
8608.00421 1.09771e-17
8610.00106 1.08740e-17
8611.99790 1.08022e-17
8613.99475 1.07910e-17
8616.00179 1.08989e-17
8617.99864 1.11634e-17
8619.99548 1.11697e-17
8622.00252 1.08954e-17
8623.99937 1.08188e-17
8625.99622 1.09113e-17
8628.00325 1.10983e-17
8630.00010 1.13263e-17
8631.99695 1.16089e-17
8634.00398 1.21469e-17
8636.00083 1.32599e-17
8637.99768 1.37060e-17
8640.00472 1.37653e-17
8642.00156 1.33826e-17
8643.99841 1.22410e-17
8645.99526 1.05960e-17
8648.00230 1.01673e-17
8649.99914 1.05886e-17
8651.99599 1.10373e-17
8654.00303 1.21545e-17
8655.99988 1.28237e-17
8657.99672 1.26701e-17
8660.00376 1.20457e-17
8662.00061 1.13122e-17
8663.99746 9.79549e-18
8665.99430 9.60496e-18
8668.00134 1.05939e-17
8669.99819 1.13524e-17
8671.99504 1.18439e-17
8674.00207 1.21155e-17
8675.99892 1.18822e-17
8677.99577 1.11303e-17
8680.00280 1.05716e-17
8681.99965 9.74469e-18
8683.99650 9.36086e-18
8686.00354 9.39078e-18
8688.00038 9.75643e-18
8689.99723 1.05698e-17
8692.00427 1.19266e-17
8694.00112 1.23607e-17
8695.99796 1.21216e-17
8698.00500 1.19515e-17
8700.00185 1.16849e-17
8701.99870 1.14054e-17
8703.99554 1.12058e-17
8706.00258 1.10373e-17
8707.99943 1.07647e-17
8709.99628 1.01823e-17
8712.00331 1.01203e-17
8714.00016 1.05177e-17
8715.99701 1.09945e-17
8718.00404 1.15483e-17
8720.00089 1.21127e-17
8721.99774 1.20475e-17
8724.00478 1.13080e-17
8726.00162 1.08967e-17
8727.99847 1.03412e-17
8729.99532 1.01254e-17
8732.00236 1.04803e-17
8733.99920 1.10560e-17
8735.99605 1.12736e-17
8738.00309 1.14080e-17
8739.99994 1.12496e-17
8741.99678 1.06002e-17
8744.00382 1.02362e-17
8746.00067 1.00653e-17
8747.99752 1.01932e-17
8750.00455 1.09657e-17
8752.00140 1.24403e-17
8753.99825 1.30909e-17
8755.99510 1.32847e-17
8758.00213 1.34181e-17
8759.99898 1.33179e-17
8761.99583 1.32539e-17
8764.00286 1.35994e-17
8765.99971 1.42283e-17
8767.99656 1.38234e-17
8770.00360 1.22985e-17
8772.00044 1.13814e-17
8773.99729 1.06303e-17
8776.00433 1.02008e-17
8778.00118 1.02442e-17
8779.99802 1.06486e-17
8782.00506 1.10695e-17
8784.00191 1.20501e-17
8785.99876 1.21811e-17
8787.99560 1.14411e-17
8790.00264 1.09847e-17
8791.99949 1.12136e-17
8793.99634 1.16865e-17
8796.00337 1.17816e-17
8798.00022 1.17945e-17
8799.99707 1.14927e-17
8802.00410 1.06939e-17
8804.00095 1.01291e-17
8805.99780 9.77914e-18
8807.99465 9.66642e-18
8810.00168 1.00377e-17
8811.99853 1.09922e-17
8813.99538 1.13415e-17
8816.00242 1.11367e-17
8817.99926 1.13718e-17
8819.99611 1.21000e-17
8822.00315 1.29669e-17
8824.00000 1.38443e-17
8825.99684 1.49062e-17
8828.00388 1.47938e-17
8830.00073 1.34272e-17
8831.99758 1.24995e-17
8834.00461 1.15426e-17
8836.00146 1.09154e-17
8837.99831 1.09475e-17
8840.00534 1.14486e-17
8842.00219 1.18165e-17
8843.99904 1.27199e-17
8845.99589 1.26472e-17
8848.00292 1.15315e-17
8849.99977 1.05904e-17
8851.99662 1.02530e-17
8854.00366 1.01730e-17
8856.00050 1.00126e-17
8857.99735 9.61267e-18
8860.00439 1.00313e-17
8862.00124 1.15073e-17
8863.99808 1.24701e-17
8865.99493 1.25614e-17
8868.00197 1.23222e-17
8869.99882 1.23328e-17
8871.99566 1.22980e-17
8874.00270 1.25232e-17
8875.99955 1.31717e-17
8877.99640 1.34735e-17
8880.00343 1.34949e-17
8882.00028 1.32086e-17
8883.99713 1.23715e-17
8886.00416 1.08984e-17
8888.00101 1.03805e-17
8889.99786 1.02182e-17
8892.00490 1.06573e-17
8894.00174 1.23238e-17
8895.99859 1.36495e-17
8897.99544 1.33907e-17
8900.00248 1.21432e-17
8901.99932 1.12558e-17
8903.99617 9.93727e-18
8906.00321 9.25397e-18
8908.00006 8.92240e-18
8909.99690 9.03428e-18
8912.00394 9.87301e-18
8914.00079 1.11530e-17
8915.99764 1.15432e-17
8918.00467 1.15405e-17
8920.00152 1.11023e-17
8921.99837 9.64618e-18
8923.99522 8.80983e-18
8926.00225 9.09942e-18
8927.99910 9.91069e-18
8929.99595 1.04815e-17
8932.00298 1.13088e-17
8933.99983 1.15272e-17
8935.99668 1.10534e-17
8938.00372 1.09057e-17
8940.00056 1.12912e-17
8941.99741 1.17436e-17
8944.00445 1.17472e-17
8946.00130 1.14543e-17
8947.99814 1.12914e-17
8949.99499 1.12393e-17
8952.00203 1.09377e-17
8953.99888 1.03229e-17
8955.99572 9.63855e-18
8958.00276 8.96796e-18
8959.99961 8.20307e-18
8961.99646 8.35588e-18
8964.00349 9.74871e-18
8966.00034 1.02616e-17
8967.99719 1.00793e-17
8970.00422 9.81297e-18
8972.00107 9.70720e-18
8973.99792 9.62854e-18
8976.00496 9.72172e-18
8978.00180 9.91959e-18
8979.99865 1.02745e-17
8981.99550 1.08811e-17
8984.00254 1.14475e-17
8985.99938 1.19838e-17
8987.99623 1.24252e-17
8990.00327 1.23585e-17
8992.00012 1.17803e-17
8993.99696 1.13084e-17
8996.00400 1.04275e-17
8998.00085 1.00728e-17
8999.99770 1.04941e-17
9001.99454 1.12580e-17
9004.00158 1.18515e-17
9005.99843 1.25701e-17
9007.99528 1.29583e-17
9010.00231 1.29913e-17
9011.99916 1.31739e-17
9013.99601 1.36925e-17
9016.00304 1.40530e-17
9017.99989 1.36777e-17
9019.99674 1.26953e-17
9022.00378 1.23614e-17
9024.00062 1.24973e-17
9025.99747 1.23635e-17
9028.00451 1.20634e-17
9030.00136 1.16536e-17
9031.99820 1.10108e-17
9033.99505 1.01904e-17
9036.00209 1.02300e-17
9037.99894 1.14391e-17
9039.99578 1.16241e-17
9042.00282 1.10813e-17
9043.99967 1.04345e-17
9045.99652 9.76506e-18
9048.00355 9.08513e-18
9050.00040 9.05617e-18
9051.99725 9.73407e-18
9054.00428 1.00674e-17
9056.00113 1.02495e-17
9057.99798 1.06133e-17
9059.99483 1.13919e-17
9062.00186 1.22278e-17
9063.99871 1.24293e-17
9065.99556 1.21691e-17
9068.00260 1.19059e-17
9069.99944 1.11727e-17
9071.99629 1.09245e-17
9074.00333 1.14635e-17
9076.00018 1.20873e-17
9077.99702 1.19797e-17
9080.00406 1.14064e-17
9082.00091 1.09818e-17
9083.99776 1.02986e-17
9085.99460 9.99982e-18
9088.00164 1.02552e-17
9089.99849 1.04698e-17
9091.99534 1.00645e-17
9094.00237 9.25585e-18
9095.99922 9.37829e-18
9097.99607 1.03298e-17
9100.00310 1.09796e-17
9101.99995 1.18495e-17
9103.99680 1.22379e-17
9106.00384 1.15978e-17
9108.00068 1.03218e-17
9109.99753 9.68669e-18
9112.00457 9.07638e-18
9114.00142 9.02174e-18
9115.99826 9.67444e-18
9117.99511 1.02178e-17
9120.00215 1.04184e-17
9121.99900 1.04978e-17
9123.99584 1.06497e-17
9126.00288 1.08345e-17
9127.99973 1.09128e-17
9129.99658 1.08214e-17
9132.00361 1.08645e-17
9134.00046 1.12421e-17
9135.99731 1.15729e-17
9138.00434 1.12531e-17
9140.00119 1.03546e-17
9141.99804 9.89933e-18
9143.99489 9.32952e-18
9146.00192 9.35055e-18
9147.99877 1.02365e-17
9149.99562 1.12271e-17
9152.00266 1.16472e-17
9153.99950 1.18122e-17
9155.99635 1.16885e-17
9158.00339 1.10543e-17
9160.00024 1.06467e-17
9161.99708 1.03124e-17
9164.00412 1.00928e-17
9166.00097 1.00256e-17
9167.99782 1.00907e-17
9170.00485 1.03352e-17
9172.00170 1.08659e-17
9173.99855 1.12757e-17
9175.99540 1.18348e-17
9178.00243 1.21051e-17
9179.99928 1.18429e-17
9181.99613 1.12785e-17
9184.00316 1.09187e-17
9186.00001 1.04366e-17
9187.99686 1.03377e-17
9190.00390 1.07799e-17
9192.00074 1.08941e-17
9193.99759 1.03800e-17
9196.00463 9.70040e-18
9198.00148 9.53697e-18
9199.99832 9.70900e-18
9201.99517 9.76900e-18
9204.00221 9.80974e-18
9205.99906 9.97048e-18
9207.99590 1.02779e-17
9210.00294 1.06580e-17
9211.99979 1.11135e-17
9213.99664 1.17695e-17
9216.00367 1.16299e-17
9218.00052 1.03129e-17
9219.99737 1.00150e-17
9222.00440 1.08950e-17
9224.00125 1.17960e-17
9225.99810 1.18739e-17
9227.99495 1.15220e-17
9230.00198 1.16817e-17
9231.99883 1.22376e-17
9233.99568 1.25182e-17
9236.00272 1.27498e-17
9237.99956 1.27454e-17
9239.99641 1.22779e-17
9242.00345 1.15479e-17
9244.00030 1.13753e-17
9245.99714 1.17982e-17
9248.00418 1.16848e-17
9250.00103 1.12586e-17
9251.99788 1.08139e-17
9254.00491 1.03384e-17
9256.00176 9.89106e-18
9257.99861 9.78325e-18
9259.99546 1.01098e-17
9262.00249 9.95541e-18
9263.99934 9.34681e-18
9265.99619 9.02163e-18
9268.00322 9.09176e-18
9270.00007 9.30656e-18
9271.99692 9.44997e-18
9274.00396 9.66742e-18
9276.00080 9.62258e-18
9277.99765 9.12341e-18
9279.99450 9.08427e-18
9282.00154 9.59945e-18
9283.99838 1.02168e-17
9285.99523 1.05705e-17
9288.00227 1.08127e-17
9289.99912 1.12300e-17
9291.99596 1.21774e-17
9294.00300 1.22161e-17
9295.99985 1.07159e-17
9297.99670 9.94222e-18
9300.00373 1.15282e-17
9302.00058 1.44685e-17
9303.99743 1.55679e-17
9306.00446 1.68863e-17
9308.00131 1.53342e-17
9309.99816 9.25707e-18
9312.00520 5.27160e-18
9314.00204 6.15281e-18
9315.99889 9.24561e-18
9317.99574 1.01438e-17
9320.00278 9.99456e-18
9321.99962 1.07437e-17
9323.99647 1.19531e-17
9326.00351 1.31996e-17
9328.00036 1.48273e-17
9329.99720 1.61958e-17
9332.00424 1.59087e-17
9334.00109 1.40524e-17
9335.99794 1.31147e-17
9337.99478 1.21015e-17
9340.00182 1.16461e-17
9341.99867 1.21757e-17
9343.99552 1.26714e-17
9346.00255 1.19156e-17
9347.99940 1.02185e-17
9349.99625 9.70130e-18
9352.00328 9.87828e-18
9354.00013 1.00860e-17
9355.99698 1.04082e-17
9358.00402 1.09085e-17
9360.00086 1.16958e-17
9361.99771 1.27246e-17
9364.00475 1.32678e-17
9366.00160 1.35337e-17
9367.99844 1.36632e-17
9369.99529 1.32870e-17
9372.00233 1.32752e-17
9373.99918 1.42874e-17
9375.99602 1.57276e-17
9378.00306 1.57728e-17
9379.99991 1.49082e-17
9381.99676 1.37667e-17
9384.00379 1.12168e-17
9386.00064 9.87342e-18
9387.99749 1.08253e-17
9390.00452 1.25635e-17
9392.00137 1.25567e-17
9393.99822 1.14206e-17
9395.99507 1.08516e-17
9398.00210 1.01061e-17
9399.99895 9.82657e-18
9401.99580 1.03684e-17
9404.00284 1.09659e-17
9405.99968 1.06076e-17
9407.99653 9.54592e-18
9410.00357 9.01863e-18
9412.00042 8.61279e-18
9413.99726 8.37031e-18
9416.00430 8.21398e-18
9418.00115 8.30752e-18
9419.99800 8.89633e-18
9421.99484 9.92018e-18
9424.00188 1.03429e-17
9425.99873 1.02899e-17
9427.99558 1.04847e-17
9430.00261 1.06022e-17
9431.99946 1.10747e-17
9433.99631 1.20879e-17
9436.00334 1.35438e-17
9438.00019 1.56519e-17
9439.99704 2.02828e-17
9442.00408 2.09281e-17
9444.00092 1.81837e-17
9445.99777 1.53224e-17
9448.00481 1.27635e-17
9450.00166 1.04205e-17
9451.99850 1.00180e-17
9453.99535 1.20372e-17
9456.00239 1.19505e-17
9457.99924 1.06887e-17
9459.99608 9.52758e-18
9462.00312 8.44679e-18
9463.99997 7.49137e-18
9465.99682 6.97174e-18
9468.00385 6.57320e-18
9470.00070 7.33150e-18
9471.99755 9.70722e-18
9474.00458 1.13212e-17
9476.00143 1.24979e-17
9477.99828 1.30281e-17
9479.99513 1.22588e-17
9482.00216 1.02350e-17
9483.99901 9.61171e-18
9485.99586 9.96962e-18
9488.00290 9.85361e-18
9489.99974 9.32167e-18
9491.99659 8.86889e-18
9494.00363 8.67244e-18
9496.00048 8.63945e-18
9497.99732 9.32898e-18
9500.00436 1.09500e-17
9502.00121 1.21726e-17
9503.99806 1.37668e-17
9505.99490 1.45896e-17
9508.00194 1.40767e-17
9509.99879 1.27143e-17
9511.99564 1.13898e-17
9514.00267 9.13308e-18
9515.99952 8.25353e-18
9517.99637 8.28491e-18
9520.00340 8.59992e-18
9522.00025 9.19653e-18
9523.99710 1.00267e-17
9526.00414 1.08548e-17
9528.00098 1.21900e-17
9529.99783 1.20634e-17
9532.00487 1.01980e-17
9534.00172 9.22483e-18
9535.99856 9.62443e-18
9537.99541 1.00958e-17
9540.00245 9.05215e-18
9541.99930 6.57675e-18
9543.99614 7.28453e-18
9546.00318 1.12532e-17
9548.00003 1.35894e-17
9549.99688 1.50231e-17
9552.00391 1.55320e-17
9554.00076 1.47033e-17
9555.99761 1.26870e-17
9557.99446 1.08860e-17
9560.00149 7.34982e-18
9561.99834 6.84078e-18
9563.99519 9.52128e-18
9566.00222 1.22683e-17
9567.99907 1.40361e-17
9569.99592 1.53651e-17
9572.00296 1.48648e-17
9573.99980 1.19369e-17
9575.99665 1.02879e-17
9578.00369 8.82277e-18
9580.00054 7.61194e-18
9581.99738 6.47420e-18
9584.00442 5.70203e-18
9586.00127 6.18634e-18
9587.99812 8.22376e-18
9590.00515 9.14372e-18
9592.00200 9.65676e-18
9593.99885 1.00716e-17
9595.99570 1.03604e-17
9598.00273 1.05677e-17
9599.99958 1.08213e-17
9601.99643 1.10695e-17
9604.00346 1.13013e-17
9606.00031 1.18162e-17
9607.99716 1.17141e-17
9610.00420 1.09876e-17
9612.00104 9.87671e-18
9613.99789 8.19333e-18
9615.99474 5.74131e-18
9618.00178 6.08882e-18
9619.99862 1.01443e-17
9621.99547 1.12236e-17
9624.00251 9.71822e-18
9625.99936 7.84794e-18
9627.99620 6.38332e-18
9630.00324 4.94089e-18
9632.00009 5.43965e-18
9633.99694 8.45544e-18
9636.00397 9.83875e-18
9638.00082 1.07933e-17
9639.99767 1.10191e-17
9642.00470 9.96573e-18
9644.00155 8.30998e-18
9645.99840 8.21795e-18
9647.99525 9.42900e-18
9650.00228 9.87769e-18
9651.99913 1.03709e-17
9653.99598 1.03850e-17
9656.00302 9.68806e-18
9657.99986 8.66800e-18
9659.99671 7.85757e-18
9662.00375 6.77315e-18
9664.00060 6.76781e-18
9665.99744 7.99892e-18
9668.00448 8.73180e-18
9670.00133 8.97686e-18
9671.99818 8.98294e-18
9673.99502 8.81405e-18
9676.00206 8.40530e-18
9677.99891 8.06680e-18
9679.99576 7.27198e-18
9682.00279 7.34819e-18
9683.99964 8.78385e-18
9685.99649 9.91415e-18
9688.00352 9.43546e-18
9690.00037 7.97480e-18
9691.99722 7.36865e-18
9694.00426 7.00865e-18
9696.00110 6.81545e-18
9697.99795 6.87949e-18
9699.99480 7.01556e-18
9702.00184 7.10837e-18
9703.99868 7.25169e-18
9705.99553 7.68463e-18
9708.00257 8.57649e-18
9709.99942 9.04935e-18
9711.99626 9.33319e-18
9714.00330 9.51064e-18
9716.00015 9.50641e-18
9717.99700 9.45277e-18
9720.00403 9.73466e-18
9722.00088 1.04444e-17
9723.99773 1.05165e-17
9726.00476 1.03478e-17
9728.00161 9.73841e-18
9729.99846 8.31531e-18
9731.99531 6.83406e-18
9734.00234 6.30370e-18
9735.99919 6.27474e-18
9737.99604 6.87048e-18
9740.00308 8.53224e-18
9741.99992 9.78514e-18
9743.99677 1.09562e-17
9746.00381 1.17284e-17
9748.00066 1.16671e-17
9749.99750 1.09340e-17
9751.99435 1.02768e-17
9754.00139 9.12928e-18
9755.99824 8.49786e-18
9757.99508 8.06291e-18
9760.00212 8.10387e-18
9761.99897 9.11173e-18
9763.99582 1.07170e-17
9766.00285 1.07593e-17
9767.99970 9.44341e-18
9769.99655 8.65144e-18
9772.00358 7.34293e-18
9774.00043 6.92936e-18
9775.99728 8.34766e-18
9778.00432 1.04951e-17
9780.00116 1.07542e-17
9781.99801 9.43628e-18
9784.00505 9.20728e-18
9786.00190 9.78201e-18
9787.99874 9.66719e-18
9789.99559 8.37874e-18
9792.00263 6.78634e-18
9793.99948 5.96367e-18
9795.99632 5.19814e-18
9798.00336 5.95894e-18
9800.00021 9.31783e-18
9801.99706 1.06557e-17
9804.00409 9.56031e-18
9806.00094 7.82413e-18
9807.99779 6.72966e-18
9809.99464 5.53312e-18
9812.00167 5.80706e-18
9813.99852 8.30801e-18
9815.99537 9.01802e-18
9818.00240 8.14172e-18
9819.99925 6.88236e-18
9821.99610 5.56495e-18
9824.00314 4.01006e-18
9825.99998 4.41847e-18
9827.99683 7.41042e-18
9830.00387 8.43756e-18
9832.00072 8.29071e-18
9833.99756 7.84295e-18
9836.00460 7.12809e-18
9838.00145 6.25299e-18
9839.99830 6.45866e-18
9841.99514 7.81772e-18
9844.00218 8.44704e-18
9845.99903 8.87138e-18
9847.99588 9.19301e-18
9850.00291 9.48893e-18
9851.99976 9.63801e-18
9853.99661 9.37111e-18
9856.00364 8.53346e-18
9858.00049 8.33797e-18
9859.99734 8.61677e-18
9862.00438 8.75507e-18
9864.00122 8.87761e-18
9865.99807 8.79307e-18
9868.00511 8.09741e-18
9870.00196 6.81523e-18
9871.99880 6.04209e-18
9873.99565 5.04911e-18
9876.00269 4.99115e-18
9877.99954 6.32494e-18
9879.99638 7.61490e-18
9882.00342 7.71160e-18
9884.00027 7.13758e-18
9885.99712 6.85047e-18
9888.00415 6.18480e-18
9890.00100 6.23684e-18
9891.99785 7.55218e-18
9893.99470 8.14088e-18
9896.00173 6.60170e-18
9897.99858 3.96254e-18
9899.99543 3.42847e-18
9902.00246 4.42327e-18
9903.99931 5.01066e-18
9905.99616 6.02382e-18
9908.00320 6.69560e-18
9910.00004 6.70538e-18
9911.99689 6.42227e-18
9914.00393 6.45852e-18
9916.00078 6.43979e-18
9917.99762 6.93614e-18
9920.00466 8.42059e-18
9922.00151 9.02732e-18
9923.99836 8.34914e-18
9925.99520 7.19588e-18
9928.00224 6.34858e-18
9929.99909 5.12324e-18
9931.99594 5.60879e-18
9934.00297 8.08945e-18
9935.99982 9.68668e-18
9937.99667 1.07930e-17
9940.00370 1.12158e-17
9942.00055 1.01490e-17
9943.99740 7.60129e-18
9946.00444 7.84792e-18
9948.00128 1.11804e-17
9949.99813 1.21541e-17
9951.99498 1.10215e-17
9954.00202 9.67842e-18
9955.99886 9.09411e-18
9957.99571 8.73587e-18
9960.00275 8.30406e-18
9961.99960 7.14370e-18
9963.99644 7.76758e-18
9966.00348 1.16028e-17
9968.00033 1.31538e-17
9969.99718 9.41708e-18
9972.00421 3.32457e-18
9974.00106 1.43594e-18
9975.99791 2.16382e-18
9978.00494 2.33131e-18
9980.00179 3.04936e-18
9981.99864 3.87522e-18
9983.99549 4.80994e-18
9986.00252 5.82392e-18
9987.99937 6.74398e-18
9989.99622 7.72577e-18
9992.00326 8.34578e-18
9994.00010 8.75640e-18
9995.99695 8.89839e-18
9998.00399 8.59355e-18
10000.00084 8.22376e-18
