# wavelength flux
3496.00253 1.93394e-17
3496.73625 1.92532e-17
3497.46996 1.91670e-17
3498.20368 2.08778e-17
3498.93739 2.25881e-17
3499.67110 1.90349e-17
3500.40482 1.54829e-17
3501.14887 1.48045e-17
3501.88258 1.41266e-17
3502.61629 1.71218e-17
3503.35001 2.01166e-17
3504.08372 2.20405e-17
3504.81744 2.39637e-17
3505.55115 2.67897e-17
3506.28486 2.96148e-17
3507.01858 2.61397e-17
3507.76263 2.26638e-17
3508.49634 2.02333e-17
3509.23005 1.78038e-17
3509.96377 1.35773e-17
3510.69748 9.35154e-18
3511.43120 1.56886e-17
3512.16491 2.20267e-17
3512.89862 2.58680e-17
3513.63234 2.97072e-17
3514.37639 2.77593e-17
3515.11010 2.58097e-17
3515.84381 2.39358e-17
3516.57753 2.20625e-17
3517.31124 2.65027e-17
3518.04496 3.09441e-17
3518.77867 2.62876e-17
3519.51238 2.16275e-17
3520.25643 2.23088e-17
3520.99015 2.29927e-17
3521.72386 2.44300e-17
3522.45757 2.58673e-17
3523.19129 2.87402e-17
3523.92500 3.16129e-17
3524.65872 2.63895e-17
3525.39243 2.11622e-17
3526.12614 2.01160e-17
3526.87019 1.90730e-17
3527.60391 1.98067e-17
3528.33762 2.05415e-17
3529.07133 2.27454e-17
3529.80505 2.49497e-17
3530.53876 2.44950e-17
3531.27248 2.40387e-17
3532.00619 2.48287e-17
3532.73990 2.56194e-17
3533.48395 2.52347e-17
3534.21767 2.48492e-17
3534.95138 2.13014e-17
3535.68509 1.77520e-17
3536.41881 2.00080e-17
3537.15252 2.22681e-17
3537.88624 2.16967e-17
3538.61995 2.11227e-17
3539.36400 2.31037e-17
3540.09771 2.50866e-17
3540.83143 2.52861e-17
3541.56514 2.54839e-17
3542.29885 2.29249e-17
3543.03257 2.03640e-17
3543.76628 2.06848e-17
3544.50000 2.10086e-17
3545.23371 2.18653e-17
3545.97776 2.27224e-17
3546.71147 2.42024e-17
3547.44519 2.56826e-17
3548.17890 2.57222e-17
3548.91261 2.57602e-17
3549.64633 2.54143e-17
3550.38004 2.50681e-17
3551.11376 2.46210e-17
3551.84747 2.41739e-17
3552.59152 2.47486e-17
3553.32523 2.53244e-17
3554.05895 2.48592e-17
3554.79266 2.43928e-17
3555.52637 2.13395e-17
3556.26009 1.82834e-17
3556.99380 1.98997e-17
3557.72752 2.15218e-17
3558.46123 2.33244e-17
3559.20528 2.51268e-17
3559.93899 2.69635e-17
3560.67271 2.87998e-17
3561.40642 2.87893e-17
3562.14013 2.87761e-17
3562.87385 2.92680e-17
3563.60756 2.97606e-17
3564.34128 2.86065e-17
3565.08532 2.74502e-17
3565.81904 2.72417e-17
3566.55275 2.70347e-17
3567.28647 2.70200e-17
3568.02018 2.70057e-17
3568.75389 2.51004e-17
3569.48761 2.31926e-17
3570.22132 2.68327e-17
3570.95504 3.04809e-17
3571.69908 3.19638e-17
3572.43280 3.34427e-17
3573.16651 3.08610e-17
3573.90023 2.82735e-17
3574.63394 2.27684e-17
3575.36765 1.72597e-17
3576.10137 1.83759e-17
3576.83508 1.95035e-17
3577.56880 2.39331e-17
3578.31284 2.83673e-17
3579.04656 3.02919e-17
3579.78027 3.22115e-17
3580.51399 2.57542e-17
3581.24770 1.92826e-17
3581.98141 1.94586e-17
3582.71513 1.96472e-17
3583.44884 1.91460e-17
3584.18256 1.86436e-17
3584.92660 1.92638e-17
3585.66032 1.98859e-17
3586.39403 2.20885e-17
3587.12775 2.42938e-17
3587.86146 2.47805e-17
3588.59517 2.52636e-17
3589.32889 2.66839e-17
3590.06260 2.81057e-17
3590.80665 2.73908e-17
3591.54036 2.66717e-17
3592.27408 2.51929e-17
3593.00779 2.37128e-17
3593.74151 2.20832e-17
3594.47522 2.04538e-17
3595.20893 2.13674e-17
3595.94265 2.22864e-17
3596.67636 2.41780e-17
3597.42041 2.60713e-17
3598.15412 2.55181e-17
3598.88784 2.49596e-17
3599.62155 2.49844e-17
3600.35527 2.50105e-17
3601.08898 2.58297e-17
3601.82269 2.66506e-17
3602.55641 2.80236e-17
3603.29012 2.93976e-17
3604.03417 2.87231e-17
3604.76788 2.80441e-17
3605.50160 2.35740e-17
3606.23531 1.90959e-17
3606.96903 1.97040e-17
3607.70274 2.03244e-17
3608.43645 2.10271e-17
3609.17017 2.17297e-17
3609.91422 2.21537e-17
3610.64793 2.25769e-17
3611.38164 2.32612e-17
3612.11536 2.39460e-17
3612.84907 2.36130e-17
3613.58279 2.32775e-17
3614.31650 2.18348e-17
3615.05021 2.03896e-17
3615.78393 2.34045e-17
3616.52798 2.64303e-17
3617.26169 2.42015e-17
3617.99540 2.19590e-17
3618.72912 2.17095e-17
3619.46283 2.14654e-17
3620.19655 2.02000e-17
3620.93026 1.89321e-17
3621.66397 1.73540e-17
3622.39769 1.57754e-17
3623.14174 1.82427e-17
3623.87545 2.07210e-17
3624.60916 1.75521e-17
3625.34288 1.43678e-17
3626.07659 1.64041e-17
3626.81031 1.84548e-17
3627.54402 2.27641e-17
3628.27773 2.70788e-17
3629.02178 2.72180e-17
3629.75550 2.73446e-17
3630.48921 2.69049e-17
3631.22292 2.64637e-17
3631.95664 2.53922e-17
3632.69035 2.43191e-17
3633.42407 2.35611e-17
3634.15778 2.28043e-17
3634.89149 2.38203e-17
3635.63554 2.48414e-17
3636.36926 2.69245e-17
3637.10297 2.90103e-17
3637.83668 2.76136e-17
3638.57040 2.62062e-17
3639.30411 2.56790e-17
3640.03783 2.51546e-17
3640.77154 2.29307e-17
3641.50525 2.07020e-17
3642.24930 2.18628e-17
3642.98302 2.30345e-17
3643.71673 2.43741e-17
3644.45044 2.57140e-17
3645.18416 2.52407e-17
3645.91787 2.47615e-17
3646.65159 2.29143e-17
3647.38530 2.10632e-17
3648.11901 2.40340e-17
3648.86306 2.70205e-17
3649.59678 2.67275e-17
3650.33049 2.64233e-17
3651.06420 2.68346e-17
3651.79792 2.72483e-17
3652.53163 2.62321e-17
3653.26535 2.52112e-17
3653.99906 2.48145e-17
3654.74311 2.44201e-17
3655.47682 2.36916e-17
3656.21054 2.29621e-17
3656.94425 2.07143e-17
3657.67796 1.84616e-17
3658.41168 1.83549e-17
3659.14539 1.82558e-17
3659.87911 1.94276e-17
3660.61282 2.06038e-17
3661.35687 2.33283e-17
3662.09058 2.60578e-17
3662.82430 2.38474e-17
3663.55801 2.16193e-17
3664.29172 2.17161e-17
3665.02544 2.18215e-17
3665.75915 2.18375e-17
3666.49287 2.18531e-17
3667.22658 2.29136e-17
3667.97063 2.39779e-17
3668.70434 2.54233e-17
3669.43806 2.68698e-17
3670.17177 2.70698e-17
3670.90548 2.72650e-17
3671.63920 2.55090e-17
3672.37291 2.37459e-17
3673.10663 2.34890e-17
3673.84034 2.32380e-17
3674.58439 2.53209e-17
3675.31810 2.74125e-17
3676.05182 2.47355e-17
3676.78553 2.20402e-17
3677.51924 2.15812e-17
3678.25296 2.11311e-17
3678.98667 2.20360e-17
3679.72039 2.29463e-17
3680.46443 2.36184e-17
3681.19815 2.42893e-17
3681.93186 2.50145e-17
3682.66558 2.57397e-17
3683.39929 2.71636e-17
3684.13300 2.85901e-17
3684.86672 2.79811e-17
3685.60043 2.73638e-17
3686.33415 2.54522e-17
3687.07819 2.35356e-17
3687.81191 2.41534e-17
3688.54562 2.47818e-17
3689.27934 2.55619e-17
3690.01305 2.63425e-17
3690.74676 2.46910e-17
3691.48048 2.30292e-17
3692.21419 2.05110e-17
3692.94791 1.79896e-17
3693.69195 1.71400e-17
3694.42567 1.62978e-17
3695.15938 1.89356e-17
3695.89310 2.15879e-17
3696.62681 2.18304e-17
3697.36052 2.20623e-17
3698.09424 2.10307e-17
3698.82795 1.99936e-17
3699.57200 2.06006e-17
3700.30571 2.12150e-17
3701.03943 2.29288e-17
3701.77314 2.46472e-17
3702.50686 2.62692e-17
3703.24057 2.78904e-17
3703.97428 2.60266e-17
3704.70800 2.41470e-17
3705.44171 2.28758e-17
3706.18576 2.16078e-17
3706.91947 2.17728e-17
3707.65319 2.19445e-17
3708.38690 2.30811e-17
3709.12062 2.42219e-17
3709.85433 2.62142e-17
3710.58804 2.82101e-17
3711.32176 2.64446e-17
3712.05547 2.46615e-17
3712.79952 2.27297e-17
3713.53323 2.07977e-17
3714.26695 2.11943e-17
3715.00066 2.16020e-17
3715.73438 2.40778e-17
3716.46809 2.65633e-17
3717.20180 2.54454e-17
3717.93552 2.43099e-17
3718.67957 2.18484e-17
3719.41328 1.93809e-17
3720.14699 2.21945e-17
3720.88071 2.50335e-17
3721.61442 2.49240e-17
3722.34814 2.47997e-17
3723.08185 2.64527e-17
3723.81556 2.81144e-17
3724.54928 2.72807e-17
3725.29333 2.64346e-17
3726.02704 2.52065e-17
3726.76075 2.39769e-17
3727.49447 2.41578e-17
3728.22818 2.43461e-17
3728.96190 2.55633e-17
3729.69561 2.67856e-17
3730.42932 2.47501e-17
3731.16304 2.26981e-17
3731.90709 2.21783e-17
3732.64080 2.16665e-17
3733.37451 2.11639e-17
3734.10823 2.06615e-17
3734.84194 2.01026e-17
3735.57566 1.95435e-17
3736.30937 2.13282e-17
3737.04308 2.31250e-17
3737.77680 2.48896e-17
3738.52085 2.66535e-17
3739.25456 2.46436e-17
3739.98827 2.26140e-17
3740.72199 2.22192e-17
3741.45570 2.18335e-17
3742.18942 2.20827e-17
3742.92313 2.23354e-17
3743.65684 2.27779e-17
3744.40089 2.32215e-17
3745.13461 2.29496e-17
3745.86832 2.26738e-17
3746.60203 2.24982e-17
3747.33575 2.23231e-17
3748.06946 2.42130e-17
3748.80318 2.61141e-17
3749.53689 2.43206e-17
3750.27060 2.25069e-17
3751.01465 2.28706e-17
3751.74837 2.32464e-17
3752.48208 2.02275e-17
3753.21579 1.71897e-17
3753.94951 1.68000e-17
3754.68322 1.64255e-17
3755.41694 1.99652e-17
3756.15065 2.35267e-17
3756.88436 2.29098e-17
3757.62841 2.22690e-17
3758.36213 2.36628e-17
3759.09584 2.50682e-17
3759.82955 2.45468e-17
3760.56327 2.40141e-17
3761.29698 2.20337e-17
3762.03070 2.00452e-17
3762.76441 2.12548e-17
3763.50846 2.24830e-17
3764.24217 2.21514e-17
3764.97589 2.18107e-17
3765.70960 2.07639e-17
3766.44331 1.97130e-17
3767.17703 2.04704e-17
3767.91074 2.12386e-17
3768.64446 2.22491e-17
3769.37817 2.32609e-17
3770.12222 2.37810e-17
3770.85593 2.42980e-17
3771.58965 2.57144e-17
3772.32336 2.71361e-17
3773.05707 2.55479e-17
3773.79079 2.39415e-17
3774.52450 2.13672e-17
3775.25822 1.87875e-17
3775.99193 2.09371e-17
3776.73598 2.31153e-17
3777.46969 2.42769e-17
3778.20341 2.54319e-17
3778.93712 2.37476e-17
3779.67083 2.20457e-17
3780.40455 2.22938e-17
3781.13826 2.25542e-17
3781.87198 2.22210e-17
3782.60569 2.18842e-17
3783.34974 2.07259e-17
3784.08345 1.95625e-17
3784.81717 2.15697e-17
3785.55088 2.35968e-17
3786.28459 2.30936e-17
3787.01831 2.25743e-17
3787.75202 2.19668e-17
3788.48574 2.13588e-17
3789.22978 2.20047e-17
3789.96350 2.26587e-17
3790.69721 2.24505e-17
3791.43093 2.22367e-17
3792.16464 2.25751e-17
3792.89835 2.29171e-17
3793.63207 2.35928e-17
3794.36578 2.42706e-17
3795.09950 2.39051e-17
3795.84354 2.35328e-17
3796.57726 2.17082e-17
3797.31097 1.98741e-17
3798.04469 2.10342e-17
3798.77840 2.22141e-17
3799.51211 2.22598e-17
3800.24583 2.22978e-17
3800.97954 2.29195e-17
3801.71326 2.35450e-17
3802.45730 2.38869e-17
3803.19102 2.42268e-17
3803.92473 2.43655e-17
3804.65845 2.45028e-17
3805.39216 2.37153e-17
3806.12587 2.29217e-17
3806.85959 2.17836e-17
3807.59330 2.06434e-17
3808.33735 2.07893e-17
3809.07106 2.09441e-17
3809.80478 2.11842e-17
3810.53849 2.14247e-17
3811.27221 2.17000e-17
3812.00592 2.19755e-17
3812.73963 2.22939e-17
3813.47335 2.26127e-17
3814.20706 2.25186e-17
3814.95111 2.24217e-17
3815.68482 2.26076e-17
3816.41854 2.27954e-17
3817.15225 2.12213e-17
3817.88597 1.96349e-17
3818.61968 2.03792e-17
3819.35339 2.11400e-17
3820.08711 2.42391e-17
3820.82082 2.73547e-17
3821.56487 2.66192e-17
3822.29858 2.58558e-17
3823.03230 2.51887e-17
3823.76601 2.45224e-17
3824.49973 2.28463e-17
3825.23344 2.11632e-17
3825.96715 1.90206e-17
3826.70087 1.68749e-17
3827.43458 1.86751e-17
3828.17863 2.05042e-17
3828.91234 2.25889e-17
3829.64606 2.46751e-17
3830.37977 2.26957e-17
3831.11349 2.06866e-17
3831.84720 2.07095e-17
3832.58091 2.07324e-17
3833.31463 2.07552e-17
3834.05868 2.07781e-17
3834.79239 2.07836e-17
3835.52610 2.07891e-17
3836.25982 2.07947e-17
3836.99353 2.08002e-17
3837.72725 2.08057e-17
3838.46096 2.08113e-17
3839.19467 2.08168e-17
3839.92839 2.08223e-17
3840.67244 2.08279e-17
3841.40615 2.08334e-17
3842.13986 2.08389e-17
3842.87358 2.08445e-17
3843.60729 2.08500e-17
3844.34101 2.08555e-17
3845.07472 2.08611e-17
3845.80843 2.08666e-17
3846.54215 2.08721e-17
3847.28620 2.08777e-17
3848.01991 2.08832e-17
3848.75362 2.08888e-17
3849.48734 2.08943e-17
3850.22105 2.08998e-17
3850.95477 2.09054e-17
3851.68848 2.09109e-17
3852.42219 2.09165e-17
3853.15591 2.09220e-17
3853.89996 2.09276e-17
3854.63367 2.09331e-17
3855.36738 2.09386e-17
3856.10110 2.09442e-17
3856.83481 2.09497e-17
3857.56853 2.09553e-17
3858.30224 2.09608e-17
3859.03595 2.09664e-17
3859.78000 2.09719e-17
3860.51372 2.09775e-17
3861.24743 2.09830e-17
3861.98114 2.09886e-17
3862.71486 2.09941e-17
3863.44857 2.09997e-17
3864.18229 2.10052e-17
3864.91600 2.10108e-17
3865.64971 2.10164e-17
3866.39376 2.10219e-17
3867.12748 2.10275e-17
3867.86119 2.10330e-17
3868.59490 2.10386e-17
3869.32862 2.10441e-17
3870.06233 2.10497e-17
3870.79605 2.10553e-17
3871.52976 2.10608e-17
3872.26347 2.10664e-17
3873.00752 2.21072e-17
3873.74124 2.31499e-17
3874.47495 2.41246e-17
3875.20866 2.50986e-17
3875.94238 2.55780e-17
3876.67609 2.60531e-17
3877.40981 2.70878e-17
3878.14352 2.81271e-17
3878.88757 2.47036e-17
3879.62128 2.12427e-17
3880.35500 2.13599e-17
3881.08871 2.15074e-17
3881.82242 2.23330e-17
3882.55614 2.31643e-17
3883.28985 2.34932e-17
3884.02357 2.38177e-17
3884.75728 2.39490e-17
3885.50133 2.40786e-17
3886.23504 2.44170e-17
3886.96876 2.47572e-17
3887.70247 2.44922e-17
3888.43618 2.42219e-17
3889.16990 2.34578e-17
3889.90361 2.26895e-17
3890.63733 2.18306e-17
3891.37104 2.09710e-17
3892.11509 2.19816e-17
3892.84880 2.30085e-17
3893.58252 2.25483e-17
3894.31623 2.20750e-17
3895.04994 2.20348e-17
3895.78366 2.19984e-17
3896.51737 1.93737e-17
3897.25109 1.67264e-17
3897.99513 1.74212e-17
3898.72885 1.81457e-17
3899.46256 1.99457e-17
3900.19628 2.17551e-17
3900.92999 2.30190e-17
3901.66370 2.42777e-17
3902.39742 2.39530e-17
3903.13113 2.36141e-17
3903.86485 2.16846e-17
3904.60889 1.97410e-17
3905.34261 2.16522e-17
3906.07632 2.35980e-17
3906.81004 2.37756e-17
3907.54375 2.39369e-17
3908.27746 2.22833e-17
3909.01118 2.06134e-17
3909.74489 2.12060e-17
3910.47861 2.18194e-17
3911.22265 2.12096e-17
3911.95637 2.05887e-17
3912.69008 2.08925e-17
3913.42380 2.12049e-17
3914.15751 2.19871e-17
3914.89122 2.27736e-17
3915.62494 2.14013e-17
3916.35865 2.00090e-17
3917.09237 2.18909e-17
3917.83641 2.38031e-17
3918.57013 2.44570e-17
3919.30384 2.50989e-17
3920.03756 2.56300e-17
3920.77127 2.61600e-17
3921.50498 2.55835e-17
3922.23870 2.49966e-17
3922.97241 2.32875e-17
3923.71646 2.15681e-17
3924.45017 2.11716e-17
3925.18389 2.07878e-17
3925.91760 1.96789e-17
3926.65132 1.85632e-17
3927.38503 1.79344e-17
3928.11874 1.73105e-17
3928.85246 1.76824e-17
3929.58617 1.80639e-17
3930.33022 2.05891e-17
3931.06393 2.31345e-17
3931.79765 2.33388e-17
3932.53136 2.35202e-17
3933.26508 2.24154e-17
3933.99879 2.12983e-17
3934.73250 2.12836e-17
3935.46622 2.12796e-17
3936.19993 2.13194e-17
3936.94398 2.13596e-17
3937.67769 2.07499e-17
3938.41141 2.01338e-17
3939.14512 2.20058e-17
3939.87884 2.39021e-17
3940.61255 2.37256e-17
3941.34626 2.35286e-17
3942.07998 2.17274e-17
3942.82403 1.99106e-17
3943.55774 2.04796e-17
3944.29145 2.10724e-17
3945.02517 2.28483e-17
3945.75888 2.46357e-17
3946.49260 2.46113e-17
3947.22631 2.45688e-17
3947.96002 2.28046e-17
3948.69374 2.10233e-17
3949.43779 2.14954e-17
3950.17150 2.19902e-17
3950.90521 2.24213e-17
3951.63893 2.28517e-17
3952.37264 2.25084e-17
3953.10636 2.21573e-17
3953.84007 2.10378e-17
3954.57378 1.99107e-17
3955.30750 2.04824e-17
3956.05155 2.10716e-17
3956.78526 2.03572e-17
3957.51897 1.96294e-17
3958.25269 2.06705e-17
3958.98640 2.17297e-17
3959.72012 2.23052e-17
3960.45383 2.28756e-17
3961.18754 2.39735e-17
3961.92126 2.50767e-17
3962.66531 2.40158e-17
3963.39902 2.29324e-17
3964.13273 2.32407e-17
3964.86645 2.35634e-17
3965.60016 2.36790e-17
3966.33388 2.37923e-17
3967.06759 2.39761e-17
3967.80130 2.41606e-17
3968.54535 2.38961e-17
3969.27907 2.36269e-17
3970.01278 2.33172e-17
3970.74649 2.30071e-17
3971.48021 2.22765e-17
3972.21392 2.15417e-17
3972.94764 2.19694e-17
3973.68135 2.24094e-17
3974.41506 2.26112e-17
3975.15911 2.28104e-17
3975.89283 2.21626e-17
3976.62654 2.15058e-17
3977.36025 2.15019e-17
3978.09397 2.15050e-17
3978.82768 2.13941e-17
3979.56140 2.12819e-17
3980.29511 2.26789e-17
3981.02882 2.40921e-17
3981.77287 2.32011e-17
3982.50659 2.22852e-17
3983.24030 2.17996e-17
3983.97401 2.13187e-17
3984.70773 2.11631e-17
3985.44144 2.10110e-17
3986.17516 2.14817e-17
3986.90887 2.19592e-17
3987.65292 2.21167e-17
3988.38663 2.22707e-17
3989.12035 2.17689e-17
3989.85406 2.12600e-17
3990.58777 2.14280e-17
3991.32149 2.16034e-17
3992.05520 2.25674e-17
3992.78892 2.35401e-17
3993.52263 2.37485e-17
3994.26668 2.39483e-17
3995.00039 2.33810e-17
3995.73411 2.28052e-17
3996.46782 2.37042e-17
3997.20153 2.46194e-17
3997.93525 2.27741e-17
3998.66896 2.08984e-17
3999.40268 2.16232e-17
4000.13639 2.23772e-17
4000.88044 2.35084e-17
4001.61415 2.46437e-17
4002.34787 2.43953e-17
4003.08158 2.41314e-17
4003.81529 2.29062e-17
4004.54901 2.16703e-17
4005.28272 2.18081e-17
4006.01644 2.19617e-17
4006.76048 2.08561e-17
4007.49420 1.97363e-17
4008.22791 1.96090e-17
4008.96163 1.94930e-17
4009.69534 2.02134e-17
4010.42905 2.09432e-17
4011.16277 2.23165e-17
4011.89648 2.36971e-17
4012.63020 2.34686e-17
4013.37424 2.32215e-17
4014.10796 2.14440e-17
4014.84167 1.96492e-17
4015.57539 2.21868e-17
4016.30910 2.47741e-17
4017.04281 2.57669e-17
4017.77653 2.67409e-17
4018.51024 2.64160e-17
4019.24396 2.60759e-17
4019.98800 2.45510e-17
4020.72172 2.30124e-17
4021.45543 2.33164e-17
4022.18915 2.36418e-17
4022.92286 2.39582e-17
4023.65657 2.42744e-17
4024.39029 2.45736e-17
4025.12400 2.48725e-17
4025.85772 2.50432e-17
4026.60176 2.52123e-17
4027.33548 2.49037e-17
4028.06919 2.45896e-17
4028.80291 2.31121e-17
4029.53662 2.16211e-17
4030.27033 2.16694e-17
4031.00405 2.17360e-17
4031.73776 2.22474e-17
4032.48181 2.27640e-17
4033.21552 2.39676e-17
4033.94924 2.51793e-17
4034.68295 2.41754e-17
4035.41667 2.31452e-17
4036.15038 2.34922e-17
4036.88409 2.38558e-17
4037.61781 2.33134e-17
4038.35152 2.27601e-17
4039.09557 2.32263e-17
4039.82928 2.37048e-17
4040.56300 2.40359e-17
4041.29671 2.43652e-17
4042.03043 2.27353e-17
4042.76414 2.10817e-17
4043.49785 2.08577e-17
4044.23157 2.06513e-17
4044.96528 2.12968e-17
4045.70933 2.19527e-17
4046.44304 2.40756e-17
4047.17676 2.62162e-17
4047.91047 2.70625e-17
4048.64419 2.78925e-17
4049.37790 2.67376e-17
4050.11161 2.55582e-17
4050.84533 2.49950e-17
4051.58938 2.44395e-17
4052.32309 2.43737e-17
4053.05680 2.43139e-17
4053.79052 2.33090e-17
4054.52423 2.22924e-17
4055.25795 2.27776e-17
4055.99166 2.32815e-17
4056.72537 2.29130e-17
4057.45909 2.25336e-17
4058.20314 2.28905e-17
4058.93685 2.32566e-17
4059.67056 2.29388e-17
4060.40428 2.26124e-17
4061.13799 2.22676e-17
4061.87171 2.19225e-17
4062.60542 2.17861e-17
4063.33913 2.16523e-17
4064.07285 2.16716e-17
4064.81690 2.16930e-17
4065.55061 2.14726e-17
4066.28432 2.12491e-17
4067.01804 2.15350e-17
4067.75175 2.18273e-17
4068.48547 2.17531e-17
4069.21918 2.16743e-17
4069.95289 2.10994e-17
4070.68661 2.05183e-17
4071.43066 2.05009e-17
4072.16437 2.04907e-17
4072.89808 2.13804e-17
4073.63180 2.22817e-17
4074.36551 2.16320e-17
4075.09923 2.09623e-17
4075.83294 2.00556e-17
4076.56665 1.91459e-17
4077.31070 2.13452e-17
4078.04442 2.35844e-17
4078.77813 2.18967e-17
4079.51184 2.01580e-17
4080.24556 2.03579e-17
4080.97927 2.05831e-17
4081.71299 2.05484e-17
4082.44670 2.05103e-17
4083.18041 1.97637e-17
4083.92446 1.90080e-17
4084.65818 1.88784e-17
4085.39189 1.87570e-17
4086.12560 2.03838e-17
4086.85932 2.20335e-17
4087.59303 2.29849e-17
4088.32675 2.39269e-17
4089.06046 2.28845e-17
4089.79417 2.18161e-17
4090.53822 2.13767e-17
4091.27194 2.09458e-17
4092.00565 1.97539e-17
4092.73936 1.85520e-17
4093.47308 1.99297e-17
4094.20679 2.13417e-17
4094.94051 2.09733e-17
4095.67422 2.05812e-17
4096.40793 2.22788e-17
4097.15198 2.40040e-17
4097.88570 2.41535e-17
4098.61941 2.42816e-17
4099.35312 2.43800e-17
4100.08684 2.44780e-17
4100.82055 2.41409e-17
4101.55427 2.37979e-17
4102.28798 2.31126e-17
4103.03203 2.24228e-17
4103.76574 2.26520e-17
4104.49946 2.28938e-17
4105.23317 2.12039e-17
4105.96688 1.94879e-17
4106.70060 1.92855e-17
4107.43431 1.91038e-17
4108.16803 1.99134e-17
4108.90174 2.07364e-17
4109.64579 2.17564e-17
4110.37950 2.27790e-17
4111.11322 2.29116e-17
4111.84693 2.30319e-17
4112.58064 2.26285e-17
4113.31436 2.22180e-17
4114.04807 2.02717e-17
4114.78179 1.83044e-17
4115.51550 1.95784e-17
4116.25955 2.08974e-17
4116.99326 2.09835e-17
4117.72698 2.10524e-17
4118.46069 2.28379e-17
4119.19440 2.46470e-17
4119.92812 2.41837e-17
4120.66183 2.36887e-17
4121.39555 2.32682e-17
4122.13959 2.28487e-17
4122.87331 2.28340e-17
4123.60702 2.28250e-17
4124.34074 2.29800e-17
4125.07445 2.31372e-17
4125.80816 2.29245e-17
4126.54188 2.27066e-17
4127.27559 2.21501e-17
4128.00931 2.15890e-17
4128.75335 2.01540e-17
4129.48707 1.87069e-17
4130.22078 1.88723e-17
4130.95450 1.90606e-17
4131.68821 2.05476e-17
4132.42192 2.20528e-17
4133.15564 2.17917e-17
4133.88935 2.15056e-17
4134.62307 1.94819e-17
4135.36711 1.74335e-17
4136.10083 1.79524e-17
4136.83454 1.85081e-17
4137.56826 1.93419e-17
4138.30197 2.01795e-17
4139.03568 2.06415e-17
4139.76940 2.10980e-17
4140.50311 2.16078e-17
4141.24716 2.21182e-17
4141.98087 2.14263e-17
4142.71459 2.07170e-17
4143.44830 2.12730e-17
4144.18202 2.18472e-17
4144.91573 2.12157e-17
4145.64944 2.05668e-17
4146.38316 2.10941e-17
4147.11687 2.16385e-17
4147.86092 2.19060e-17
4148.59463 2.21693e-17
4149.32835 2.21696e-17
4150.06206 2.21660e-17
4150.79578 2.11715e-17
4151.52949 2.01626e-17
4152.26320 2.10315e-17
4152.99692 2.19279e-17
4153.73063 2.19119e-17
4154.47468 2.18824e-17
4155.20839 2.19044e-17
4155.94211 2.19271e-17
4156.67582 2.14338e-17
4157.40954 2.09329e-17
4158.14325 2.10428e-17
4158.87696 2.11618e-17
4159.61068 2.10690e-17
4160.34439 2.09731e-17
4161.08844 2.09658e-17
4161.82215 2.09598e-17
4162.55587 2.08027e-17
4163.28958 2.06434e-17
4164.02330 2.08184e-17
4164.75701 2.09984e-17
4165.49072 2.16998e-17
4166.22444 2.24091e-17
4166.96849 2.23355e-17
4167.70220 2.22501e-17
4168.43591 2.24045e-17
4169.16963 2.25624e-17
4169.90334 2.30650e-17
4170.63706 2.35727e-17
4171.37077 2.23081e-17
4172.10448 2.10167e-17
4172.83820 2.14334e-17
4173.58225 2.18759e-17
4174.31596 2.13704e-17
4175.04967 2.08506e-17
4175.78339 2.23718e-17
4176.51710 2.39237e-17
4177.25082 2.35976e-17
4177.98453 2.32428e-17
4178.71824 2.15697e-17
4179.45196 1.98767e-17
4180.19601 2.17341e-17
4180.92972 2.36457e-17
4181.66343 2.24499e-17
4182.39715 2.12066e-17
4183.13086 2.02511e-17
4183.86458 1.93002e-17
4184.59829 2.06186e-17
4185.33200 2.19719e-17
4186.07605 2.22071e-17
4186.80977 2.24249e-17
4187.54348 2.05872e-17
4188.27719 1.87181e-17
4189.01091 1.92750e-17
4189.74462 1.98698e-17
4190.47834 2.13193e-17
4191.21205 2.27820e-17
4191.94576 2.19229e-17
4192.68981 2.10277e-17
4193.42353 2.16943e-17
4194.15724 2.23852e-17
4194.89095 2.26602e-17
4195.62467 2.29286e-17
4196.35838 2.23248e-17
4197.09210 2.17072e-17
4197.82581 2.18617e-17
4198.55952 2.20284e-17
4199.30357 2.21344e-17
4200.03729 2.22395e-17
4200.77100 2.13884e-17
4201.50471 2.05224e-17
4202.23843 1.97410e-17
4202.97214 1.89611e-17
4203.70586 1.95458e-17
4204.43957 2.01521e-17
4205.18362 2.02340e-17
4205.91733 2.03075e-17
4206.65105 2.04521e-17
4207.38476 2.05977e-17
4208.11847 2.05674e-17
4208.85219 2.05342e-17
4209.58590 2.13435e-17
4210.31962 2.21663e-17
4211.05333 2.18214e-17
4211.79738 2.14578e-17
4212.53109 2.09735e-17
4213.26481 2.04873e-17
4213.99852 2.04909e-17
4214.73223 2.05024e-17
4215.46595 2.07262e-17
4216.19966 2.09534e-17
4216.93338 2.09548e-17
4217.66709 2.09527e-17
4218.41114 2.09917e-17
4219.14485 2.10314e-17
4219.87857 2.15628e-17
4220.61228 2.21022e-17
4221.34599 2.21011e-17
4222.07971 2.20912e-17
4222.81342 2.21186e-17
4223.54714 2.21466e-17
4224.28085 2.13148e-17
4225.02490 2.04692e-17
4225.75861 2.01064e-17
4226.49233 1.97516e-17
4227.22604 1.98046e-17
4227.95975 1.98643e-17
4228.69347 2.04857e-17
4229.42718 2.11162e-17
4230.16090 2.08644e-17
4230.89461 2.05982e-17
4231.63866 2.01110e-17
4232.37237 1.96202e-17
4233.10609 1.88335e-17
4233.83980 1.80420e-17
4234.57351 1.78378e-17
4235.30723 1.76433e-17
4236.04094 1.86603e-17
4236.77466 1.96972e-17
4237.51870 2.09420e-17
4238.25242 2.21899e-17
4238.98613 2.23361e-17
4239.71985 2.24639e-17
4240.45356 2.17784e-17
4241.18727 2.10794e-17
4241.92099 2.14959e-17
4242.65470 2.19311e-17
4243.38842 2.16955e-17
4244.13246 2.14487e-17
4244.86618 2.07344e-17
4245.59989 2.00123e-17
4246.33361 2.02824e-17
4247.06732 2.05691e-17
4247.80103 1.98101e-17
4248.53475 1.90335e-17
4249.26846 1.83299e-17
4250.00218 1.76276e-17
4250.74622 1.92295e-17
4251.47994 2.08703e-17
4252.21365 2.11478e-17
4252.94737 2.14020e-17
4253.68108 1.96702e-17
4254.41479 1.79048e-17
4255.14851 1.77714e-17
4255.88222 1.76658e-17
4256.62627 1.82020e-17
4257.35998 1.87491e-17
4258.09370 1.96005e-17
4258.82741 2.04569e-17
4259.56113 2.10314e-17
4260.29484 2.16010e-17
4261.02855 2.10217e-17
4261.76227 2.04227e-17
4262.49598 1.98213e-17
4263.24003 1.92199e-17
4263.97374 1.91053e-17
4264.70746 1.89992e-17
4265.44117 1.83617e-17
4266.17489 1.77151e-17
4266.90860 1.77047e-17
4267.64231 1.77054e-17
4268.37603 1.85157e-17
4269.10974 1.93400e-17
4269.85379 2.01224e-17
4270.58750 2.09040e-17
4271.32122 2.13180e-17
4272.05493 2.17256e-17
4272.78865 2.06558e-17
4273.52236 1.95604e-17
4274.25607 1.91457e-17
4274.98979 1.87429e-17
4275.73384 1.81890e-17
4276.46755 1.76325e-17
4277.20126 1.84554e-17
4277.93498 1.93024e-17
4278.66869 1.95492e-17
4279.40241 1.97854e-17
4280.13612 1.98343e-17
4280.86983 1.98798e-17
4281.60355 2.01787e-17
4282.34760 2.04819e-17
4283.08131 2.12521e-17
4283.81502 2.20305e-17
4284.54874 2.10973e-17
4285.28245 2.01339e-17
4286.01617 1.91919e-17
4286.74988 1.82504e-17
4287.48359 1.93577e-17
4288.21731 2.05014e-17
4288.96136 2.02957e-17
4289.69507 2.00659e-17
4290.42878 2.02810e-17
4291.16250 2.05040e-17
4291.89621 2.01532e-17
4292.62993 1.97923e-17
4293.36364 2.03755e-17
4294.09735 2.09755e-17
4294.83107 2.05417e-17
4295.57512 2.00894e-17
4296.30883 2.08739e-17
4297.04254 2.16805e-17
4297.77626 2.13232e-17
4298.50997 2.09450e-17
4299.24369 2.16932e-17
4299.97740 2.24616e-17
4300.71111 2.22004e-17
4301.44483 2.19207e-17
4302.18888 2.16405e-17
4302.92259 2.13604e-17
4303.65630 2.13848e-17
4304.39002 2.14148e-17
4305.12373 2.12176e-17
4305.85745 2.10163e-17
4306.59116 1.94538e-17
4307.32487 1.78667e-17
4308.06892 1.77168e-17
4308.80264 1.75932e-17
4309.53635 1.90186e-17
4310.27006 2.04721e-17
4311.00378 2.16420e-17
4311.73749 2.28065e-17
4312.47121 2.20590e-17
4313.20492 2.12764e-17
4313.93863 2.17776e-17
4314.68268 2.23024e-17
4315.41640 2.26300e-17
4316.15011 2.29539e-17
4316.88382 2.15177e-17
4317.61754 2.00493e-17
4318.35125 2.02330e-17
4319.08497 2.04474e-17
4319.81868 2.10968e-17
4320.56273 2.17543e-17
4321.29644 2.15030e-17
4322.03016 2.12349e-17
4322.76387 2.19151e-17
4323.49758 2.26128e-17
4324.23130 2.21940e-17
4324.96501 2.17546e-17
4325.69873 2.21994e-17
4326.43244 2.26607e-17
4327.17649 2.12442e-17
4327.91020 1.97928e-17
4328.64392 1.94078e-17
4329.37763 1.90429e-17
4330.11134 1.92799e-17
4330.84506 1.95280e-17
4331.57877 1.93390e-17
4332.31249 1.91418e-17
4333.04620 1.95905e-17
4333.79025 2.00513e-17
4334.52396 2.10354e-17
4335.25768 2.20293e-17
4335.99139 2.15774e-17
4336.72510 2.10982e-17
4337.45882 2.15920e-17
4338.19253 2.21042e-17
4338.92625 2.19830e-17
4339.65996 2.18498e-17
4340.40401 2.20534e-17
4341.13772 2.22634e-17
4341.87144 2.24280e-17
4342.60515 2.25917e-17
4343.33886 2.15948e-17
4344.07258 2.05759e-17
4344.80629 1.95104e-17
4345.54001 1.84442e-17
4346.28405 1.77118e-17
4347.01777 1.69859e-17
4347.75148 1.73723e-17
4348.48520 1.77798e-17
4349.21891 1.83878e-17
4349.95262 1.89995e-17
4350.68634 2.00955e-17
4351.42005 2.12006e-17
4352.15377 2.09897e-17
4352.89781 2.07534e-17
4353.63153 1.99756e-17
4354.36524 1.91876e-17
4355.09896 1.93613e-17
4355.83267 1.95536e-17
4356.56638 1.96434e-17
4357.30010 1.97311e-17
4358.03381 1.93454e-17
4358.76753 1.89504e-17
4359.51157 1.93893e-17
4360.24529 1.98442e-17
4360.97900 2.04345e-17
4361.71272 2.10274e-17
4362.44643 2.11948e-17
4363.18014 2.13538e-17
4363.91386 2.10299e-17
4364.64757 2.06965e-17
4365.38129 2.04094e-17
4366.12533 2.01233e-17
4366.85905 1.99409e-17
4367.59276 1.97605e-17
4368.32648 1.94500e-17
4369.06019 1.91369e-17
4369.79390 1.93016e-17
4370.52762 1.94757e-17
4371.26133 2.16429e-17
4372.00538 2.38489e-17
4372.73909 2.26781e-17
4373.47281 2.14410e-17
4374.20652 2.16058e-17
4374.94024 2.17984e-17
4375.67395 2.10865e-17
4376.40766 2.03569e-17
4377.14138 2.03268e-17
4377.87509 2.03106e-17
4378.61914 2.03102e-17
4379.35285 2.03100e-17
4380.08657 2.05488e-17
4380.82028 2.07923e-17
4381.55400 2.10676e-17
4382.28771 2.13436e-17
4383.02142 2.23859e-17
4383.75514 2.34434e-17
4384.48885 2.21787e-17
4385.23290 2.08678e-17
4385.96661 2.11305e-17
4386.70033 2.14249e-17
4387.43404 2.03183e-17
4388.16776 1.91838e-17
4388.90147 1.97238e-17
4389.63518 2.02975e-17
4390.36890 2.11429e-17
4391.11295 2.19936e-17
4391.84666 2.20703e-17
4392.58037 2.21314e-17
4393.31409 2.12390e-17
4394.04780 2.03275e-17
4394.78152 2.10491e-17
4395.51523 2.18036e-17
4396.24894 2.10607e-17
4396.98266 2.02875e-17
4397.72671 2.10766e-17
4398.46042 2.18971e-17
4399.19413 2.18564e-17
4399.92785 2.17981e-17
4400.66156 2.21867e-17
4401.39528 2.25844e-17
4402.12899 2.27214e-17
4402.86270 2.28531e-17
4403.59642 2.24780e-17
4404.34047 2.20927e-17
4405.07418 2.23671e-17
4405.80789 2.26549e-17
4406.54161 2.28621e-17
4407.27532 2.30676e-17
4408.00904 2.29776e-17
4408.74275 2.28815e-17
4409.47646 2.33770e-17
4410.22051 2.38845e-17
4410.95423 2.25792e-17
4411.68794 2.12367e-17
4412.42165 2.11846e-17
4413.15537 2.11593e-17
4413.88908 2.15527e-17
4414.62280 2.19548e-17
4415.35651 2.22833e-17
4416.09022 2.26102e-17
4416.83427 2.18348e-17
4417.56799 2.10365e-17
4418.30170 1.99236e-17
4419.03541 1.88044e-17
4419.76913 1.87304e-17
4420.50284 1.86783e-17
4421.23656 1.95129e-17
4421.97027 2.03660e-17
4422.70398 2.10706e-17
4423.44803 2.17720e-17
4424.18175 2.10245e-17
4424.91546 2.02468e-17
4425.64917 2.12613e-17
4426.38289 2.23132e-17
4427.11660 2.26416e-17
4427.85032 2.29548e-17
4428.58403 2.28227e-17
4429.32808 2.26812e-17
4430.06179 2.30067e-17
4430.79551 2.33420e-17
4431.52922 2.31651e-17
4432.26293 2.29773e-17
4432.99665 2.28508e-17
4433.73036 2.27256e-17
4434.46408 2.34669e-17
4435.19779 2.42263e-17
4435.93150 2.31953e-17
4436.67555 2.21265e-17
4437.40927 2.17939e-17
4438.14298 2.14770e-17
4438.87669 2.13841e-17
4439.61041 2.12959e-17
4440.34412 2.16999e-17
4441.07784 2.21143e-17
4441.81155 2.16916e-17
4442.55560 2.12510e-17
4443.28931 1.99156e-17
4444.02303 1.85612e-17
4444.75674 1.90309e-17
4445.49045 1.95396e-17
4446.22417 2.08061e-17
4446.95788 2.20886e-17
4447.69160 2.15070e-17
4448.42531 2.08853e-17
4449.16936 2.04956e-17
4449.90307 2.01111e-17
4450.63679 2.07968e-17
4451.37050 2.15056e-17
4452.10421 2.20817e-17
4452.83793 2.26549e-17
4453.57164 2.33200e-17
4454.30536 2.39870e-17
4455.04940 2.18744e-17
4455.78312 1.97019e-17
4456.51683 2.00213e-17
4457.25055 2.03947e-17
4457.98426 2.05517e-17
4458.71797 2.07039e-17
4459.45169 2.14677e-17
4460.18540 2.22447e-17
4460.91912 2.27046e-17
4461.66316 2.31576e-17
4462.39688 2.32467e-17
4463.13059 2.33278e-17
4463.86431 2.31795e-17
4464.59802 2.30262e-17
4465.33173 2.24507e-17
4466.06545 2.18660e-17
4466.79916 2.15051e-17
4467.53288 2.11492e-17
4468.27692 2.05893e-17
4469.01064 2.00250e-17
4469.74435 2.14143e-17
4470.47807 2.28462e-17
4471.21178 2.30120e-17
4471.94549 2.31500e-17
4472.67921 2.28943e-17
4473.41292 2.26299e-17
4474.14664 2.31002e-17
4474.89068 2.35867e-17
4475.62440 2.35198e-17
4476.35811 2.34406e-17
4477.09183 2.27965e-17
4477.82554 2.21399e-17
4478.55925 2.21450e-17
4479.29297 2.21500e-17
4480.02668 2.21551e-17
4480.77073 2.21601e-17
4481.50444 2.21651e-17
4482.23816 2.21702e-17
4482.97187 2.21752e-17
4483.70559 2.21802e-17
4484.43930 2.21852e-17
4485.17301 2.21903e-17
4485.90673 2.21953e-17
4486.64044 2.22003e-17
4487.38449 2.22053e-17
4488.11820 2.22103e-17
4488.85192 2.22154e-17
4489.58563 2.22204e-17
4490.31935 2.22254e-17
4491.05306 2.22304e-17
4491.78677 2.22354e-17
4492.52049 2.22404e-17
4493.25420 2.22454e-17
4493.99825 2.22504e-17
4494.73196 2.22554e-17
4495.46568 2.22604e-17
4496.19939 2.22654e-17
4496.93311 2.22704e-17
4497.66682 2.22754e-17
4498.40053 2.22804e-17
4499.13425 2.22854e-17
4499.87830 2.22904e-17
4500.61201 2.22954e-17
4501.34572 2.23004e-17
4502.07944 2.23053e-17
4502.81315 2.23103e-17
4503.54687 2.23153e-17
4504.28058 2.23203e-17
4505.01429 2.23253e-17
4505.74801 2.23302e-17
4506.48172 2.23352e-17
4507.22577 2.23402e-17
4507.95948 2.23452e-17
4508.69320 2.23501e-17
4509.42691 2.23551e-17
4510.16063 2.23601e-17
4510.89434 2.23650e-17
4511.62805 2.23700e-17
4512.36177 2.23749e-17
4513.10582 2.23799e-17
4513.83953 2.23849e-17
4514.57324 2.23898e-17
4515.30696 2.23948e-17
4516.04067 2.23997e-17
4516.77439 2.24047e-17
4517.50810 2.24096e-17
4518.24181 2.24146e-17
4518.97553 2.24195e-17
4519.71958 2.24245e-17
4520.45329 2.24294e-17
4521.18700 2.24343e-17
4521.92072 2.24393e-17
4522.65443 2.24442e-17
4523.38815 2.24492e-17
4524.12186 2.24541e-17
4524.85557 2.24590e-17
4525.59962 2.24640e-17
4526.33334 2.24689e-17
4527.06705 2.24738e-17
4527.80076 2.24787e-17
4528.53448 2.24837e-17
4529.26819 2.24886e-17
4530.00191 2.24935e-17
4530.73562 2.24984e-17
4531.46933 2.25033e-17
4532.21338 2.25082e-17
4532.94710 2.25132e-17
4533.68081 2.25181e-17
4534.41452 2.25230e-17
4535.14824 2.25279e-17
4535.88195 2.25328e-17
4536.61567 2.25377e-17
4537.34938 2.25426e-17
4538.09343 2.25475e-17
4538.82714 2.25524e-17
4539.56086 2.25573e-17
4540.29457 2.25622e-17
4541.02828 2.30618e-17
4541.76200 2.28831e-17
4542.49571 2.26884e-17
4543.22943 2.18714e-17
4543.96314 2.10398e-17
4544.69685 1.97732e-17
4545.44090 1.84964e-17
4546.17462 1.82360e-17
4546.90833 1.79999e-17
4547.64204 1.84377e-17
4548.37576 1.88914e-17
4549.10947 1.98603e-17
4549.84319 2.08412e-17
4550.57690 2.04575e-17
4551.32095 2.00413e-17
4552.05466 1.98282e-17
4552.78838 1.96200e-17
4553.52209 1.98595e-17
4554.25580 2.01097e-17
4554.98952 2.05750e-17
4555.72323 2.10453e-17
4556.45695 2.18816e-17
4557.19066 2.27264e-17
4557.93471 2.23592e-17
4558.66842 2.19629e-17
4559.40214 2.18158e-17
4560.13585 2.16746e-17
4560.86956 2.22710e-17
4561.60328 2.28850e-17
4562.33699 2.27731e-17
4563.07071 2.26437e-17
4563.80442 2.23460e-17
4564.54847 2.20444e-17
4565.28218 2.08483e-17
4566.01590 1.96308e-17
4566.74961 1.95721e-17
4567.48332 1.95414e-17
4568.21704 2.07916e-17
4568.95075 2.20726e-17
4569.68447 2.18006e-17
4570.42851 2.14909e-17
4571.16223 2.18403e-17
4571.89594 2.22057e-17
4572.62966 2.22997e-17
4573.36337 2.23870e-17
4574.09708 2.24975e-17
4574.83080 2.26086e-17
4575.56451 2.29860e-17
4576.29823 2.33699e-17
4577.04227 2.24226e-17
4577.77599 2.14427e-17
4578.50970 2.07334e-17
4579.24342 2.00308e-17
4579.97713 2.06231e-17
4580.71084 2.12470e-17
4581.44456 2.17746e-17
4582.17827 2.22997e-17
4582.91199 2.23148e-17
4583.65603 2.23174e-17
4584.38975 2.19648e-17
4585.12346 2.16035e-17
4585.85718 2.14324e-17
4586.59089 2.12659e-17
4587.32460 2.17468e-17
4588.05832 2.22435e-17
4588.79203 2.21908e-17
4589.53608 2.21246e-17
4590.26979 2.17533e-17
4591.00351 2.13744e-17
4591.73722 2.14748e-17
4592.47094 2.15871e-17
4593.20465 2.22678e-17
4593.93836 2.29624e-17
4594.67208 2.25453e-17
4595.40579 2.21007e-17
4596.14984 2.14078e-17
4596.88355 2.07087e-17
4597.61727 1.98228e-17
4598.35098 1.89323e-17
4599.08470 1.98428e-17
4599.81841 2.07980e-17
4600.55212 2.06558e-17
4601.28584 2.04863e-17
4602.01955 1.97004e-17
4602.76360 1.88992e-17
4603.49731 1.78617e-17
4604.23103 1.68185e-17
4604.96474 1.83677e-17
4605.69846 1.99817e-17
4606.43217 2.09729e-17
4607.16588 2.19482e-17
4607.89960 2.07526e-17
4608.64365 1.95025e-17
4609.37736 1.82982e-17
4610.11107 1.70952e-17
4610.84479 1.78976e-17
4611.57850 1.87505e-17
4612.31222 1.91562e-17
4613.04593 1.95505e-17
4613.77964 2.02440e-17
4614.51336 2.09450e-17
4615.25741 2.06012e-17
4615.99112 2.02309e-17
4616.72483 1.98491e-17
4617.45855 1.94670e-17
4618.19226 2.00543e-17
4618.92598 2.06661e-17
4619.65969 2.15306e-17
4620.39340 2.24014e-17
4621.12712 2.15272e-17
4621.87117 2.06087e-17
4622.60488 2.04210e-17
4623.33859 2.02521e-17
4624.07231 2.10553e-17
4624.80602 2.18831e-17
4625.53974 2.16468e-17
4626.27345 2.13834e-17
4627.00716 2.08717e-17
4627.74088 2.03537e-17
4628.48493 2.06891e-17
4629.21864 2.10463e-17
4629.95235 2.08582e-17
4630.68607 2.06562e-17
4631.41978 2.05434e-17
4632.15350 2.04330e-17
4632.88721 1.99644e-17
4633.62092 1.94866e-17
4634.35464 1.97313e-17
4635.09869 1.99945e-17
4635.83240 2.11921e-17
4636.56611 2.24135e-17
4637.29983 2.24456e-17
4638.03354 2.24469e-17
4638.76726 2.18009e-17
4639.50097 2.11383e-17
4640.23468 2.07489e-17
4640.97873 2.03666e-17
4641.71245 2.04941e-17
4642.44616 2.06348e-17
4643.17987 2.04294e-17
4643.91359 2.02151e-17
4644.64730 1.94110e-17
4645.38102 1.85916e-17
4646.11473 1.91610e-17
4646.84844 1.97665e-17
4647.59249 2.04818e-17
4648.32621 2.11998e-17
4649.05992 2.08772e-17
4649.79363 2.05275e-17
4650.52735 1.94219e-17
4651.26106 1.82966e-17
4651.99478 1.91967e-17
4652.72849 2.01499e-17
4653.46220 1.97626e-17
4654.20625 1.93402e-17
4654.93997 1.91229e-17
4655.67368 1.89110e-17
4656.40739 1.86399e-17
4657.14111 1.83674e-17
4657.87482 1.99256e-17
4658.60854 2.15320e-17
4659.34225 2.18017e-17
4660.08630 2.20361e-17
4660.82001 2.16825e-17
4661.55373 2.13135e-17
4662.28744 2.09252e-17
4663.02115 2.05364e-17
4663.75487 2.05364e-17
4664.48858 2.05468e-17
4665.22230 2.10430e-17
4665.95601 2.15520e-17
4666.70006 2.14930e-17
4667.43377 2.14189e-17
4668.16749 2.16158e-17
4668.90120 2.18198e-17
4669.63491 2.18947e-17
4670.36863 2.19661e-17
4671.10234 2.11942e-17
4671.83606 2.04000e-17
4672.56977 2.04472e-17
4673.31382 2.05168e-17
4674.04753 2.04103e-17
4674.78125 2.02991e-17
4675.51496 2.00426e-17
4676.24867 1.97822e-17
4676.98239 2.01127e-17
4677.71610 2.04591e-17
4678.44982 1.99419e-17
4679.19386 1.94016e-17
4679.92758 1.96244e-17
4680.66129 1.98676e-17
4681.39501 2.00384e-17
4682.12872 2.02072e-17
4682.86243 2.03253e-17
4683.59615 2.04421e-17
4684.32986 2.00115e-17
4685.06358 1.95663e-17
4685.80762 2.00952e-17
4686.54134 2.06503e-17
4687.27505 2.04820e-17
4688.00877 2.02940e-17
4688.74248 1.95996e-17
4689.47619 1.88916e-17
4690.20991 1.93561e-17
4690.94362 1.98523e-17
4691.67734 1.94070e-17
4692.42138 1.89363e-17
4693.15510 1.93058e-17
4693.88881 1.96981e-17
4694.62253 1.98340e-17
4695.35624 1.99629e-17
4696.08995 2.02467e-17
4696.82367 2.05346e-17
4697.55738 2.09387e-17
4698.29110 2.13460e-17
4699.03514 2.11026e-17
4699.76886 2.08415e-17
4700.50257 2.04464e-17
4701.23629 2.00477e-17
4701.97000 1.91440e-17
4702.70371 1.82267e-17
4703.43743 1.86825e-17
4704.17114 1.91758e-17
4704.91519 2.02290e-17
4705.64890 2.12973e-17
4706.38262 2.10029e-17
4707.11633 2.06711e-17
4707.85005 2.04555e-17
4708.58376 2.02432e-17
4709.31747 2.03660e-17
4710.05119 2.04979e-17
4710.78490 2.03962e-17
4711.52895 2.02881e-17
4712.26266 2.02806e-17
4712.99638 2.02759e-17
4713.73009 2.06146e-17
4714.46381 2.09628e-17
4715.19752 2.05880e-17
4715.93123 2.01932e-17
4716.66495 1.98181e-17
4717.39866 1.94436e-17
4718.14271 1.96956e-17
4718.87642 1.99650e-17
4719.61014 2.02879e-17
4720.34385 2.06122e-17
4721.07757 2.06066e-17
4721.81128 2.05918e-17
4722.54499 1.99672e-17
4723.27871 1.93258e-17
4724.01242 1.88159e-17
4724.75647 1.83098e-17
4725.49018 1.92318e-17
4726.22390 2.01936e-17
4726.95761 2.05187e-17
4727.69133 2.08259e-17
4728.42504 2.08054e-17
4729.15875 2.07757e-17
4729.89247 2.02729e-17
4730.63652 1.97569e-17
4731.37023 1.89545e-17
4732.10394 1.81442e-17
4732.83766 1.89936e-17
4733.57137 1.98895e-17
4734.30509 1.98227e-17
4735.03880 1.97289e-17
4735.77251 1.82623e-17
4736.50623 1.67574e-17
4737.25028 1.69969e-17
4737.98399 1.72856e-17
4738.71770 1.82800e-17
4739.45142 1.92941e-17
4740.18513 1.97434e-17
4740.91885 2.01766e-17
4741.65256 2.02904e-17
4742.38627 2.03951e-17
4743.13032 1.95114e-17
4743.86404 1.85998e-17
4744.59775 1.85464e-17
4745.33146 1.85173e-17
4746.06518 1.86368e-17
4746.79889 1.87604e-17
4747.53261 1.95161e-17
4748.26632 2.02896e-17
4749.00003 2.08134e-17
4749.74408 2.13300e-17
4750.47780 2.09380e-17
4751.21151 2.05200e-17
4751.94522 1.97566e-17
4752.67894 1.89834e-17
4753.41265 1.92581e-17
4754.14637 1.95626e-17
4754.88008 1.89281e-17
4755.61379 1.82670e-17
4756.35784 1.76123e-17
4757.09156 1.69580e-17
4757.82527 1.67705e-17
4758.55898 1.65964e-17
4759.29270 1.63607e-17
4760.02641 1.61233e-17
4760.76013 1.71682e-17
4761.49384 1.82496e-17
4762.22755 1.92840e-17
4762.97160 2.03168e-17
4763.70532 2.02778e-17
4764.43903 2.02078e-17
4765.17274 1.96909e-17
4765.90646 1.91612e-17
4766.64017 1.90754e-17
4767.37389 1.90025e-17
4768.10760 1.89655e-17
4768.84131 1.89295e-17
4769.58536 1.84162e-17
4770.31908 1.78891e-17
4771.05279 1.82538e-17
4771.78650 1.86441e-17
4772.52022 1.87701e-17
4773.25393 1.88883e-17
4773.98765 1.92010e-17
4774.72136 1.95194e-17
4775.46541 1.94513e-17
4776.19912 1.93720e-17
4776.93284 1.90270e-17
4777.66655 1.86744e-17
4778.40026 1.81300e-17
4779.13398 1.75801e-17
4779.86769 1.77399e-17
4780.60141 1.79206e-17
4781.33512 1.78387e-17
4782.07917 1.77491e-17
4782.81288 1.87452e-17
4783.54660 1.97729e-17
4784.28031 1.98695e-17
4785.01402 1.99388e-17
4785.74774 1.98529e-17
4786.48145 1.97625e-17
4787.21517 1.87967e-17
4787.94888 1.78053e-17
4788.69293 1.82495e-17
4789.42664 1.87359e-17
4790.16036 1.85895e-17
4790.89407 1.84246e-17
4791.62778 1.83593e-17
4792.36150 1.82969e-17
4793.09521 1.80438e-17
4793.82893 1.77851e-17
4794.57297 1.81544e-17
4795.30669 1.85423e-17
4796.04040 1.91156e-17
4796.77412 1.96943e-17
4797.50783 1.93562e-17
4798.24154 1.89910e-17
4798.97526 1.91131e-17
4799.70897 1.92496e-17
4800.44269 1.80287e-17
4801.18673 1.67677e-17
4801.92045 1.67635e-17
4802.65416 1.67966e-17
4803.38788 1.80943e-17
4804.12159 1.94293e-17
4804.85530 1.94074e-17
4805.58902 1.93450e-17
4806.32273 1.92065e-17
4807.05645 1.90657e-17
4807.80049 1.85206e-17
4808.53421 1.79635e-17
4809.26792 1.81040e-17
4810.00164 1.82654e-17
4810.73535 1.83806e-17
4811.46906 1.84944e-17
4812.20278 1.89229e-17
4812.93649 1.93608e-17
4813.68054 1.84167e-17
4814.41425 1.74313e-17
4815.14797 1.76924e-17
4815.88168 1.79907e-17
4816.61540 1.87366e-17
4817.34911 1.94958e-17
4818.08282 1.94734e-17
4818.81654 1.94274e-17
4819.55025 1.92159e-17
4820.29430 1.89995e-17
4821.02801 1.89788e-17
4821.76173 1.89641e-17
4822.49544 1.88701e-17
4823.22916 1.87738e-17
4823.96287 1.83605e-17
4824.69658 1.79377e-17
4825.43030 1.85157e-17
4826.16401 1.91240e-17
4826.90806 1.89922e-17
4827.64177 1.88381e-17
4828.37549 1.83079e-17
4829.10920 1.77664e-17
4829.84292 1.80891e-17
4830.57663 1.84381e-17
4831.31034 1.86981e-17
4832.04406 1.89554e-17
4832.77777 1.88750e-17
4833.52182 1.87845e-17
4834.25553 1.92633e-17
4834.98925 1.97594e-17
4835.72296 1.98169e-17
4836.45668 1.98609e-17
4837.19039 1.96433e-17
4837.92410 1.94177e-17
4838.65782 1.89970e-17
4839.39153 1.85704e-17
4840.13558 1.85794e-17
4840.86929 1.86017e-17
4841.60301 1.88147e-17
4842.33672 1.90334e-17
4843.07044 1.94257e-17
4843.80415 1.98231e-17
4844.53786 1.92203e-17
4845.27158 1.85869e-17
4846.01563 1.87358e-17
4846.74934 1.89086e-17
4847.48305 1.93696e-17
4848.21677 1.98393e-17
4848.95048 2.00861e-17
4849.68420 2.03259e-17
4850.41791 1.99961e-17
4851.15162 1.96487e-17
4851.88534 1.94496e-17
4852.62939 1.92551e-17
4853.36310 1.95298e-17
4854.09681 1.98189e-17
4854.83053 1.95267e-17
4855.56424 1.92166e-17
4856.29796 1.94859e-17
4857.03167 1.97731e-17
4857.76538 1.95926e-17
4858.50943 1.93978e-17
4859.24315 1.85778e-17
4859.97686 1.77386e-17
4860.71057 1.76731e-17
4861.44429 1.76318e-17
4862.17800 1.79284e-17
4862.91172 1.82355e-17
4863.64543 1.80363e-17
4864.37914 1.78215e-17
4865.12319 1.82164e-17
4865.85691 1.86303e-17
4866.59062 1.85650e-17
4867.32433 1.84847e-17
4868.05805 1.77952e-17
4868.79176 1.70867e-17
4869.52548 1.71256e-17
4870.25919 1.71879e-17
4870.99290 1.74870e-17
4871.73695 1.77934e-17
4872.47067 1.80969e-17
4873.20438 1.84002e-17
4873.93809 1.86179e-17
4874.67181 1.88330e-17
4875.40552 1.86432e-17
4876.13924 1.84408e-17
4876.87295 1.80557e-17
4877.60666 1.76649e-17
4878.35071 1.77626e-17
4879.08443 1.78756e-17
4879.81814 1.76562e-17
4880.55185 1.74263e-17
4881.28557 1.68633e-17
4882.01928 1.62900e-17
4882.75300 1.62605e-17
4883.48671 1.62481e-17
4884.23076 1.62902e-17
4884.96447 1.63339e-17
4885.69819 1.63144e-17
4886.43190 1.62930e-17
4887.16561 1.60762e-17
4887.89933 1.58533e-17
4888.63304 1.60343e-17
4889.36676 1.62281e-17
4890.10047 1.65392e-17
4890.84452 1.68539e-17
4891.57823 1.64886e-17
4892.31195 1.61016e-17
4893.04566 1.67306e-17
4893.77937 1.73919e-17
4894.51309 1.77976e-17
4895.24680 1.81950e-17
4895.98052 1.78895e-17
4896.71423 1.75616e-17
4897.45828 1.69010e-17
4898.19199 1.62299e-17
4898.92571 1.68019e-17
4899.65942 1.74136e-17
4900.39313 1.74681e-17
4901.12685 1.75047e-17
4901.86056 1.72842e-17
4902.59428 1.70556e-17
4903.32799 1.67148e-17
4904.07204 1.63704e-17
4904.80575 1.63094e-17
4905.53947 1.62575e-17
4906.27318 1.68332e-17
4907.00689 1.74290e-17
4907.74061 1.70101e-17
4908.47432 1.65587e-17
4909.20804 1.72616e-17
4909.95208 1.80018e-17
4910.68580 1.79099e-17
4911.41951 1.77912e-17
4912.15323 1.74402e-17
4912.88694 1.70818e-17
4913.62065 1.69436e-17
4914.35437 1.68125e-17
4915.08808 1.73089e-17
4915.82180 1.78256e-17
4916.56584 1.80201e-17
4917.29956 1.82042e-17
4918.03327 1.80698e-17
4918.76699 1.79250e-17
4919.50070 1.73742e-17
4920.23441 1.68104e-17
4920.96813 1.68188e-17
4921.70184 1.68458e-17
4922.43556 1.71970e-17
4923.17960 1.75587e-17
4923.91332 1.80386e-17
4924.64703 1.85224e-17
4925.38075 1.80911e-17
4926.11446 1.76301e-17
4926.84817 1.76242e-17
4927.58189 1.76331e-17
4928.31560 1.76649e-17
4929.05965 1.76974e-17
4929.79336 1.78769e-17
4930.52708 1.80611e-17
4931.26079 1.79581e-17
4931.99451 1.78458e-17
4932.72822 1.79110e-17
4933.46193 1.79819e-17
4934.19565 1.73931e-17
4934.92936 1.67826e-17
4935.67341 1.71920e-17
4936.40712 1.76348e-17
4937.14084 1.81257e-17
4937.87455 1.86182e-17
4938.60827 1.73140e-17
4939.34198 1.59509e-17
4940.07569 1.64534e-17
4940.80941 1.70174e-17
4941.54312 1.77698e-17
4942.28717 1.85283e-17
4943.02088 1.86478e-17
4943.75460 1.87462e-17
4944.48831 1.75196e-17
4945.22203 1.62495e-17
4945.95574 1.58243e-17
4946.68945 1.54273e-17
4947.42317 1.55424e-17
4948.16722 1.56744e-17
4948.90093 1.65701e-17
4949.63464 1.74910e-17
4950.36836 1.80917e-17
4951.10207 1.86817e-17
4951.83579 1.84224e-17
4952.56950 1.81348e-17
4953.30321 1.75664e-17
4954.03693 1.69888e-17
4954.78098 1.69662e-17
4955.51469 1.69622e-17
4956.24840 1.79734e-17
4956.98212 1.90182e-17
4957.71583 1.86158e-17
4958.44955 1.81652e-17
4959.18326 1.71337e-17
4959.91697 1.60830e-17
4960.65069 1.58433e-17
4961.39474 1.56308e-17
4962.12845 1.58236e-17
4962.86216 1.60298e-17
4963.59588 1.59686e-17
4964.32959 1.58984e-17
4965.06331 1.65398e-17
4965.79702 1.72049e-17
4966.53073 1.78459e-17
4967.27478 1.84859e-17
4968.00850 1.82863e-17
4968.74221 1.80585e-17
4969.47592 1.67352e-17
4970.20964 1.53753e-17
4970.94335 1.56047e-17
4971.67707 1.58876e-17
4972.41078 1.66461e-17
4973.14449 1.74206e-17
4973.87821 1.75370e-17
4974.62226 1.76312e-17
4975.35597 1.77072e-17
4976.08968 1.77827e-17
4976.82340 1.76083e-17
4977.55711 1.74255e-17
4978.29083 1.70383e-17
4979.02454 1.66443e-17
4979.75825 1.66464e-17
4980.50230 1.66619e-17
4981.23602 1.70868e-17
4981.96973 1.75255e-17
4982.70344 1.75232e-17
4983.43716 1.75059e-17
4984.17087 1.76455e-17
4984.90459 1.77905e-17
4985.63830 1.74987e-17
4986.37201 1.71922e-17
4987.11606 1.68633e-17
4987.84978 1.65338e-17
4988.58349 1.70635e-17
4989.31720 1.76225e-17
4990.05092 1.80864e-17
4990.78463 1.85470e-17
4991.51835 1.81396e-17
4992.25206 1.77025e-17
4992.98577 1.77083e-17
4993.72982 1.77292e-17
4994.46354 1.77149e-17
4995.19725 1.76994e-17
4995.93096 1.71643e-17
4996.66468 1.66115e-17
4997.39839 1.77060e-17
4998.13211 1.88568e-17
4998.86582 1.90912e-17
4999.60987 1.92942e-17
5000.34358 1.88725e-17
5001.07730 1.84295e-17
5001.81101 1.83788e-17
5002.54472 1.83416e-17
5003.27844 1.81778e-17
5004.01215 1.80096e-17
5004.74587 1.80773e-17
5005.47958 1.80851e-17
5006.22363 1.80929e-17
5006.95734 1.81007e-17
5007.69106 1.81085e-17
5008.42477 1.81163e-17
5009.15848 1.81241e-17
5009.89220 1.81319e-17
5010.62591 1.81397e-17
5011.35963 1.81475e-17
5012.09334 1.81553e-17
5012.83739 1.81631e-17
5013.57110 1.81709e-17
5014.30482 1.81787e-17
5015.03853 1.81865e-17
5015.77224 1.81943e-17
5016.50596 1.82021e-17
5017.23967 1.82099e-17
5017.97339 1.82177e-17
5018.71743 1.82255e-17
5019.45115 1.82332e-17
5020.18486 1.82410e-17
5020.91858 1.82488e-17
5021.65229 1.82566e-17
5022.38600 1.82644e-17
5023.11972 1.82721e-17
5023.85343 1.82799e-17
5024.58715 1.82877e-17
5025.33119 1.82955e-17
5026.06491 1.83033e-17
5026.79862 1.83110e-17
5027.53234 1.83188e-17
5028.26605 1.83266e-17
5028.99976 1.83343e-17
5029.73348 1.83421e-17
5030.46719 1.83499e-17
5031.20091 1.83576e-17
5031.94495 1.83654e-17
5032.67867 1.83732e-17
5033.41238 1.83809e-17
5034.14610 1.83887e-17
5034.87981 1.83964e-17
5035.61352 1.84042e-17
5036.34724 1.84120e-17
5037.08095 1.84197e-17
5037.82500 1.84275e-17
5038.55871 1.84352e-17
5039.29243 1.84430e-17
5040.02614 1.84507e-17
5040.75986 1.84585e-17
5041.49357 1.84662e-17
5042.22728 1.84740e-17
5042.96100 1.84817e-17
5043.69471 1.85052e-17
5044.43876 1.82870e-17
5045.17247 1.80603e-17
5045.90619 1.77398e-17
5046.63990 1.74160e-17
5047.37362 1.74333e-17
5048.10733 1.74628e-17
5048.84104 1.84897e-17
5049.57476 1.95518e-17
5050.30847 1.87788e-17
5051.05252 1.79404e-17
5051.78623 1.80477e-17
5052.51995 1.81886e-17
5053.25366 1.83445e-17
5053.98738 1.85009e-17
5054.72109 1.77367e-17
5055.45480 1.69398e-17
5056.18852 1.70567e-17
5056.92223 1.72061e-17
5057.66628 1.74759e-17
5058.39999 1.77499e-17
5059.13371 1.78511e-17
5059.86742 1.79461e-17
5060.60114 1.80808e-17
5061.33485 1.82168e-17
5062.06856 1.85351e-17
5062.80228 1.88598e-17
5063.54633 1.84195e-17
5064.28004 1.79518e-17
5065.01375 1.77088e-17
5065.74747 1.74739e-17
5066.48118 1.80147e-17
5067.21490 1.85833e-17
5067.94861 1.86529e-17
5068.68232 1.87047e-17
5069.41604 1.87578e-17
5070.16009 1.88110e-17
5070.89380 1.86825e-17
5071.62751 1.85473e-17
5072.36123 1.79395e-17
5073.09494 1.73148e-17
5073.82866 1.69841e-17
5074.56237 1.66641e-17
5075.29608 1.65070e-17
5076.04013 1.63558e-17
5076.77385 1.75539e-17
5077.50756 1.88007e-17
5078.24127 1.89934e-17
5078.97499 1.91477e-17
5079.70870 1.92150e-17
5080.44242 1.92792e-17
5081.17613 1.90096e-17
5081.90984 1.87279e-17
5082.65389 1.89339e-17
5083.38761 1.91576e-17
5084.12132 1.84903e-17
5084.85503 1.77907e-17
5085.58875 1.80817e-17
5086.32246 1.84086e-17
5087.05618 1.84498e-17
5087.78989 1.84805e-17
5088.52360 1.78907e-17
5089.26765 1.72784e-17
5090.00137 1.66982e-17
5090.73508 1.61192e-17
5091.46879 1.69231e-17
5092.20251 1.77774e-17
5092.93622 1.79528e-17
5093.66994 1.81034e-17
5094.40365 1.80196e-17
5095.13736 1.79273e-17
5095.88141 1.76506e-17
5096.61513 1.73673e-17
5097.34884 1.71953e-17
5098.08255 1.70275e-17
5098.81627 1.76587e-17
5099.54998 1.83190e-17
5100.28370 1.73248e-17
5101.01741 1.62698e-17
5101.75112 1.67623e-17
5102.49517 1.73118e-17
5103.22889 1.75183e-17
5103.96260 1.77123e-17
5104.69631 1.70871e-17
5105.43003 1.64320e-17
5106.16374 1.64710e-17
5106.89746 1.65101e-17
5107.63117 1.65491e-17
5108.37522 1.65882e-17
5109.10893 1.66272e-17
5109.84265 1.66663e-17
5110.57636 1.67053e-17
5111.31007 1.67443e-17
5112.04379 1.67833e-17
5112.77750 1.68223e-17
5113.51122 1.68613e-17
5114.24493 1.69003e-17
5114.98898 1.69393e-17
5115.72269 1.69783e-17
5116.45641 1.70173e-17
5117.19012 1.70562e-17
5117.92383 1.70952e-17
5118.65755 1.71341e-17
5119.39126 1.71731e-17
5120.12498 1.72120e-17
5120.85869 1.72509e-17
5121.60274 1.72899e-17
5122.33645 1.73288e-17
5123.07017 1.73677e-17
5123.80388 1.74066e-17
5124.53759 1.74455e-17
5125.27131 1.74844e-17
5126.00502 1.75233e-17
5126.73874 1.75622e-17
5127.47245 1.76010e-17
5128.21650 1.76399e-17
5128.95021 1.76787e-17
5129.68393 1.77176e-17
5130.41764 1.77564e-17
5131.15135 1.77953e-17
5131.88507 1.78341e-17
5132.61878 1.78729e-17
5133.35250 1.79118e-17
5134.09654 1.79506e-17
5134.83026 1.79894e-17
5135.56397 1.80282e-17
5136.29769 1.80670e-17
5137.03140 1.81057e-17
5137.76511 1.81445e-17
5138.49883 1.81833e-17
5139.23254 1.82220e-17
5139.96626 1.82608e-17
5140.71030 1.82996e-17
5141.44402 1.83383e-17
5142.17773 1.83770e-17
5142.91145 1.84158e-17
5143.64516 1.84545e-17
5144.37887 1.84327e-17
5145.11259 1.83849e-17
5145.84630 1.74532e-17
5146.59035 1.64882e-17
5147.32406 1.66555e-17
5148.05778 1.68657e-17
5148.79149 1.75212e-17
5149.52521 1.81935e-17
5150.25892 1.90299e-17
5150.99263 1.98725e-17
5151.72635 1.95519e-17
5152.46006 1.91872e-17
5153.20411 1.82559e-17
5153.93782 1.73032e-17
5154.67154 1.72551e-17
5155.40525 1.72414e-17
5156.13897 1.72226e-17
5156.87268 1.72038e-17
5157.60639 1.71851e-17
5158.34011 1.71663e-17
5159.07382 1.71476e-17
5159.81787 1.71288e-17
5160.55158 1.71101e-17
5161.28530 1.70913e-17
5162.01901 1.70726e-17
5162.75273 1.70539e-17
5163.48644 1.70351e-17
5164.22015 1.70164e-17
5164.95387 1.69977e-17
5165.68758 1.69790e-17
5166.43163 1.69603e-17
5167.16534 1.69416e-17
5167.89906 1.69228e-17
5168.63277 1.69042e-17
5169.36649 1.68854e-17
5170.10020 1.68668e-17
5170.83391 1.68481e-17
5171.56763 1.68294e-17
5172.31168 1.68107e-17
5173.04539 1.67920e-17
5173.77910 1.67733e-17
5174.51282 1.67547e-17
5175.24653 1.67360e-17
5175.98025 1.67173e-17
5176.71396 1.66987e-17
5177.44767 1.66800e-17
5178.18139 1.66613e-17
5178.92544 1.66427e-17
5179.65915 1.66240e-17
5180.39286 1.66054e-17
5181.12658 1.65868e-17
5181.86029 1.65681e-17
5182.59401 1.65495e-17
5183.32772 1.65309e-17
5184.06143 1.65122e-17
5184.79515 1.64936e-17
5185.53920 1.64750e-17
5186.27291 1.64564e-17
5187.00662 1.64378e-17
5187.74034 1.64192e-17
5188.47405 1.64006e-17
5189.20777 1.63820e-17
5189.94148 1.63634e-17
5190.67519 1.63448e-17
5191.40891 1.63262e-17
5192.15296 1.63076e-17
5192.88667 1.62890e-17
5193.62038 1.68842e-17
5194.35410 1.66318e-17
5195.08781 1.63463e-17
5195.82153 1.66996e-17
5196.55524 1.70777e-17
5197.28895 1.82200e-17
5198.03300 1.93919e-17
5198.76672 1.87970e-17
5199.50043 1.81330e-17
5200.23414 1.79040e-17
5200.96786 1.76921e-17
5201.70157 1.70061e-17
5202.43529 1.63016e-17
5203.16900 1.69034e-17
5203.90271 1.75564e-17
5204.64676 1.71888e-17
5205.38048 1.67811e-17
5206.11419 1.59251e-17
5206.84790 1.50516e-17
5207.58162 1.57332e-17
5208.31533 1.64759e-17
5209.04905 1.74085e-17
5209.78276 1.83484e-17
5210.51647 1.82557e-17
5211.26052 1.81222e-17
5211.99424 1.80498e-17
5212.72795 1.79798e-17
5213.46166 1.90007e-17
5214.19538 2.00644e-17
5214.92909 1.92813e-17
5215.66281 1.84256e-17
5216.39652 1.83398e-17
5217.14057 1.82844e-17
5217.87428 1.83506e-17
5218.60800 1.84216e-17
5219.34171 1.83811e-17
5220.07542 1.83362e-17
5220.80914 1.74403e-17
5221.54285 1.65109e-17
5222.27657 1.65247e-17
5223.01028 1.65758e-17
5223.75433 1.63999e-17
5224.48804 1.62150e-17
5225.22176 1.68083e-17
5225.95547 1.74324e-17
5226.68918 1.75320e-17
5227.42290 1.76107e-17
5228.15661 1.85540e-17
5228.89033 1.95316e-17
5229.62404 1.91262e-17
5230.36809 1.86657e-17
5231.10180 1.83195e-17
5231.83552 1.79780e-17
5232.56923 1.83730e-17
5233.30294 1.87974e-17
5234.03666 1.77618e-17
5234.77037 1.66681e-17
5235.50409 1.65964e-17
5236.23780 1.65657e-17
5236.98185 1.67798e-17
5237.71556 1.70037e-17
5238.44928 1.74599e-17
5239.18299 1.79253e-17
5239.91670 1.74742e-17
5240.65042 1.69865e-17
5241.38413 1.71601e-17
5242.11785 1.73603e-17
5242.86189 1.74862e-17
5243.59561 1.76090e-17
5244.32932 1.73832e-17
5245.06304 1.71435e-17
5245.79675 1.73453e-17
5246.53046 1.75649e-17
5247.26418 1.84403e-17
5247.99789 1.93420e-17
5248.73161 1.87940e-17
5249.47565 1.81875e-17
5250.20937 1.85055e-17
5250.94308 1.88607e-17
5251.67680 1.88917e-17
5252.41051 1.89095e-17
5253.14422 1.74483e-17
5253.87794 1.59277e-17
5254.61165 1.59033e-17
5255.34537 1.59394e-17
5256.08941 1.69049e-17
5256.82313 1.79079e-17
5257.55684 1.77389e-17
5258.29056 1.75226e-17
5259.02427 1.78351e-17
5259.75798 1.81691e-17
5260.49170 1.70890e-17
5261.22541 1.59516e-17
5261.96946 1.56329e-17
5262.70317 1.53475e-17
5263.43689 1.57558e-17
5264.17060 1.61922e-17
5264.90432 1.74937e-17
5265.63803 1.88301e-17
5266.37174 1.71606e-17
5267.10546 1.53688e-17
5267.83917 1.54875e-17
5268.58322 1.56841e-17
5269.31693 1.59532e-17
5270.05065 1.62251e-17
5270.78436 1.63367e-17
5271.51808 1.64418e-17
5272.25179 1.68056e-17
5272.98550 1.71800e-17
5273.71922 1.76349e-17
5274.45293 1.80930e-17
5275.19698 1.77142e-17
5275.93069 1.73012e-17
5276.66441 1.71638e-17
5277.39812 1.70378e-17
5278.13184 1.59080e-17
5278.86555 1.47373e-17
5279.59926 1.56036e-17
5280.33298 1.65534e-17
5281.07703 1.67884e-17
5281.81074 1.69940e-17
5282.54445 1.64680e-17
5283.27817 1.59120e-17
5284.01188 1.61656e-17
5284.74560 1.64524e-17
5285.47931 1.69962e-17
5286.21302 1.75504e-17
5286.94674 1.75932e-17
5287.69079 1.76150e-17
5288.42450 1.69531e-17
5289.15821 1.62632e-17
5289.89193 1.65199e-17
5290.62564 1.68156e-17
5291.35936 1.62884e-17
5292.09307 1.57273e-17
5292.82678 1.58286e-17
5293.56050 1.59574e-17
5294.30455 1.60472e-17
5295.03826 1.61354e-17
5295.77197 1.59579e-17
5296.50569 1.57694e-17
5297.23940 1.54003e-17
5297.97312 1.50238e-17
5298.70683 1.55394e-17
5299.44054 1.60921e-17
5300.18459 1.65216e-17
5300.91831 1.69460e-17
5301.65202 1.68193e-17
5302.38573 1.66697e-17
5303.11945 1.68256e-17
5303.85316 1.69942e-17
5304.58688 1.62439e-17
5305.32059 1.54554e-17
5306.05430 1.57514e-17
5306.78802 1.60926e-17
5307.53207 1.65179e-17
5308.26578 1.69466e-17
5308.99949 1.68964e-17
5309.73321 1.68262e-17
5310.46692 1.64412e-17
5311.20064 1.60430e-17
5311.93435 1.62123e-17
5312.66806 1.64053e-17
5313.41211 1.73194e-17
5314.14583 1.82635e-17
5314.87954 1.79831e-17
5315.61325 1.76513e-17
5316.34697 1.68988e-17
5317.08068 1.61288e-17
5317.81440 1.58568e-17
5318.54811 1.56057e-17
5319.28182 1.52357e-17
5320.02587 1.48607e-17
5320.75959 1.58873e-17
5321.49330 1.69726e-17
5322.22701 1.70322e-17
5322.96073 1.70486e-17
5323.69444 1.68165e-17
5324.42816 1.65740e-17
5325.16187 1.63664e-17
5325.89558 1.61604e-17
5326.63963 1.64961e-17
5327.37335 1.68545e-17
5328.10706 1.69997e-17
5328.84077 1.71358e-17
5329.57449 1.70815e-17
5330.30820 1.70191e-17
5331.04192 1.66817e-17
5331.77563 1.63327e-17
5332.51968 1.55445e-17
5333.25339 1.47379e-17
5333.98711 1.49732e-17
5334.72082 1.52528e-17
5335.45453 1.60038e-17
5336.18825 1.67747e-17
5336.92196 1.69279e-17
5337.65568 1.70549e-17
5338.38939 1.67437e-17
5339.13344 1.64140e-17
5339.86715 1.60052e-17
5340.60087 1.55931e-17
5341.33458 1.55219e-17
5342.06829 1.54652e-17
5342.80201 1.59489e-17
5343.53572 1.64556e-17
5344.26944 1.63129e-17
5345.00315 1.61425e-17
5345.74720 1.60429e-17
5346.48091 1.59463e-17
5347.21463 1.61618e-17
5347.94834 1.63906e-17
5348.68205 1.65740e-17
5349.41577 1.67555e-17
5350.14948 1.65544e-17
5350.88320 1.63369e-17
5351.62724 1.58315e-17
5352.36096 1.53138e-17
5353.09467 1.55807e-17
5353.82839 1.58812e-17
5354.56210 1.70223e-17
5355.29581 1.81992e-17
5356.02953 1.76532e-17
5356.76324 1.70334e-17
5357.49696 1.73346e-17
5358.24100 1.76753e-17
5358.97472 1.78087e-17
5359.70843 1.79333e-17
5360.44215 1.71754e-17
5361.17586 1.63797e-17
5361.90957 1.61179e-17
5362.64329 1.58791e-17
5363.37700 1.61848e-17
5364.11072 1.65140e-17
5364.85476 1.68501e-17
5365.58848 1.71864e-17
5366.32219 1.68029e-17
5367.05591 1.63883e-17
5367.78962 1.62666e-17
5368.52333 1.61576e-17
5369.25705 1.61060e-17
5369.99076 1.60569e-17
5370.73481 1.60121e-17
5371.46852 1.59675e-17
5372.20224 1.63622e-17
5372.93595 1.67758e-17
5373.66967 1.66406e-17
5374.40338 1.64817e-17
5375.13709 1.59451e-17
5375.87081 1.53922e-17
5376.60452 1.49151e-17
5377.34857 1.44415e-17
5378.08228 1.43501e-17
5378.81600 1.42754e-17
5379.54971 1.48992e-17
5380.28343 1.55534e-17
5381.01714 1.66966e-17
5381.75085 1.78610e-17
5382.48457 1.70657e-17
5383.21828 1.61851e-17
5383.96233 1.57638e-17
5384.69604 1.53626e-17
5385.42976 1.57035e-17
5386.16347 1.60768e-17
5386.89719 1.62386e-17
5387.63090 1.63913e-17
5388.36461 1.59726e-17
5389.09833 1.55291e-17
5389.83204 1.53984e-17
5390.57609 1.52815e-17
5391.30980 1.47711e-17
5392.04352 1.42436e-17
5392.77723 1.46172e-17
5393.51095 1.50303e-17
5394.24466 1.59949e-17
5394.97837 1.69834e-17
5395.71209 1.73108e-17
5396.44580 1.76090e-17
5397.18985 1.68179e-17
5397.92356 1.59791e-17
5398.65728 1.61094e-17
5399.39099 1.62822e-17
5400.12471 1.59993e-17
5400.85842 1.56965e-17
5401.59213 1.45406e-17
5402.32585 1.33473e-17
5403.06990 1.37028e-17
5403.80361 1.41264e-17
5404.53732 1.47023e-17
5405.27104 1.52847e-17
5406.00475 1.61406e-17
5406.73847 1.70084e-17
5407.47218 1.68591e-17
5408.20589 1.66648e-17
5408.93961 1.69482e-17
5409.68366 1.72527e-17
5410.41737 1.70045e-17
5411.15108 1.67320e-17
5411.88480 1.65712e-17
5412.61851 1.64154e-17
5413.35223 1.66829e-17
5414.08594 1.69692e-17
5414.81965 1.68846e-17
5415.55337 1.67836e-17
5416.29742 1.64629e-17
5417.03113 1.61326e-17
5417.76484 1.54779e-17
5418.49856 1.48090e-17
5419.23227 1.48669e-17
5419.96599 1.49571e-17
5420.69970 1.45821e-17
5421.43341 1.41864e-17
5422.17746 1.43198e-17
5422.91118 1.44768e-17
5423.64489 1.49021e-17
5424.37860 1.53393e-17
5425.11232 1.68516e-17
5425.84603 1.84116e-17
5426.57975 1.82566e-17
5427.31346 1.80251e-17
5428.04717 1.76610e-17
5428.79122 1.72909e-17
5429.52494 1.61025e-17
5430.25865 1.48777e-17
5430.99236 1.56934e-17
5431.72608 1.65999e-17
5432.45979 1.64819e-17
5433.19351 1.63180e-17
5433.92722 1.58278e-17
5434.66093 1.53231e-17
5435.40498 1.56741e-17
5436.13870 1.60633e-17
5436.87241 1.60384e-17
5437.60612 1.59950e-17
5438.33984 1.56575e-17
5439.07355 1.53068e-17
5439.80727 1.54396e-17
5440.54098 1.55940e-17
5441.28503 1.52675e-17
5442.01874 1.49194e-17
5442.75246 1.55994e-17
5443.48617 1.63255e-17
5444.21988 1.67888e-17
5444.95360 1.72403e-17
5445.68731 1.66755e-17
5446.42103 1.60649e-17
5447.15474 1.49877e-17
5447.89879 1.38896e-17
5448.63250 1.46905e-17
5449.36622 1.55768e-17
5450.09993 1.58335e-17
5450.83364 1.60617e-17
5451.56736 1.56705e-17
5452.30107 1.52513e-17
5453.03479 1.51804e-17
5453.76850 1.51252e-17
5454.51255 1.55655e-17
5455.24626 1.60281e-17
5455.97998 1.60199e-17
5456.71369 1.59904e-17
5457.44740 1.61394e-17
5458.18112 1.62964e-17
5458.91483 1.62320e-17
5459.64855 1.61576e-17
5460.38226 1.61588e-17
5461.12631 1.61635e-17
5461.86002 1.56803e-17
5462.59374 1.51749e-17
5463.32745 1.47314e-17
5464.06116 1.42908e-17
5464.79488 1.48903e-17
5465.52859 1.55370e-17
5466.26231 1.61361e-17
5467.00635 1.67329e-17
5467.74007 1.67176e-17
5468.47378 1.66744e-17
5469.20750 1.66333e-17
5469.94121 1.65924e-17
5470.67492 1.63543e-17
5471.40864 1.61072e-17
5472.14235 1.54116e-17
5472.87607 1.46956e-17
5473.62011 1.43661e-17
5474.35383 1.40543e-17
5475.08754 1.41291e-17
5475.82126 1.42215e-17
5476.55497 1.44635e-17
5477.28868 1.47123e-17
5478.02240 1.41714e-17
5478.75611 1.35945e-17
5479.50016 1.43481e-17
5480.23387 1.51625e-17
5480.96759 1.54832e-17
5481.70130 1.57811e-17
5482.43502 1.57328e-17
5483.16873 1.56685e-17
5483.90244 1.58231e-17
5484.63616 1.59878e-17
5485.36987 1.59338e-17
5486.11392 1.58698e-17
5486.84763 1.51175e-17
5487.58135 1.43338e-17
5488.31506 1.47969e-17
5489.04878 1.53175e-17
5489.78249 1.55400e-17
5490.51620 1.57487e-17
5491.24992 1.62563e-17
5491.98363 1.67776e-17
5492.72768 1.54985e-17
5493.46139 1.41367e-17
5494.19511 1.44944e-17
5494.92882 1.49316e-17
5495.66254 1.47859e-17
5496.39625 1.46133e-17
5497.12996 1.43322e-17
5497.86368 1.40462e-17
5498.59739 1.41235e-17
5499.34144 1.42176e-17
5500.07515 1.45472e-17
5500.80887 1.48877e-17
5501.54258 1.44523e-17
5502.27630 1.39809e-17
5503.01001 1.39272e-17
5503.74372 1.38929e-17
5504.47744 1.44006e-17
5505.22149 1.49334e-17
5505.95520 1.54495e-17
5506.68891 1.59647e-17
5507.42263 1.57739e-17
5508.15634 1.55502e-17
5508.89006 1.55343e-17
5509.62377 1.55282e-17
5510.35748 1.54583e-17
5511.09120 1.53855e-17
5511.83525 1.50106e-17
5512.56896 1.46215e-17
5513.30267 1.45965e-17
5514.03639 1.45884e-17
5514.77010 1.47546e-17
5515.50382 1.49289e-17
5516.23753 1.54544e-17
5516.97124 1.59963e-17
5517.70496 1.56305e-17
5518.44901 1.52223e-17
5519.18272 1.43565e-17
5519.91643 1.34694e-17
5520.65015 1.34833e-17
5521.38386 1.35393e-17
5522.11758 1.41957e-17
5522.85129 1.48801e-17
5523.58500 1.56125e-17
5524.31872 1.63469e-17
5525.06277 1.56785e-17
5525.79648 1.49443e-17
5526.53019 1.49218e-17
5527.26391 1.49329e-17
5527.99762 1.47855e-17
5528.73134 1.46306e-17
5529.46505 1.48138e-17
5530.19876 1.50127e-17
5530.93248 1.41477e-17
5531.67653 1.32327e-17
5532.41024 1.34449e-17
5533.14395 1.37102e-17
5533.87767 1.38689e-17
5534.61138 1.40226e-17
5535.34510 1.45973e-17
5536.07881 1.51917e-17
5536.81252 1.47432e-17
5537.55657 1.42454e-17
5538.29029 1.41515e-17
5539.02400 1.40768e-17
5539.75771 1.41300e-17
5540.49143 1.41893e-17
5541.22514 1.45795e-17
5541.95886 1.49852e-17
5542.69257 1.48966e-17
5543.42628 1.47845e-17
5544.17033 1.44339e-17
5544.90405 1.40719e-17
5545.63776 1.39496e-17
5546.37147 1.38387e-17
5547.10519 1.47469e-17
5547.83890 1.57032e-17
5548.57262 1.51398e-17
5549.30633 1.45044e-17
5550.05038 1.44118e-17
5550.78409 1.43451e-17
5551.51781 1.46942e-17
5552.25152 1.50630e-17
5552.98523 1.49258e-17
5553.71895 1.47644e-17
5554.45266 1.49379e-17
5555.18638 1.51273e-17
5555.92009 1.48904e-17
5556.66414 1.46332e-17
5557.39785 1.49371e-17
5558.13157 1.52676e-17
5558.86528 1.52353e-17
5559.59899 1.51856e-17
5560.33271 1.49047e-17
5561.06642 1.46127e-17
5561.80014 1.47557e-17
5562.53385 1.49194e-17
5563.27790 1.53120e-17
5564.01161 1.57155e-17
5564.74533 1.57325e-17
5565.47904 1.57309e-17
5566.21275 1.53606e-17
5566.94647 1.49727e-17
5567.68018 1.49087e-17
5568.41390 1.48603e-17
5569.14761 1.48120e-17
5569.89166 1.47636e-17
5570.62537 1.47152e-17
5571.35909 1.46669e-17
5572.09280 1.46186e-17
5572.82651 1.45702e-17
5573.56023 1.45219e-17
5574.29394 1.44736e-17
5575.02766 1.44253e-17
5575.77170 1.43769e-17
5576.50542 1.43286e-17
5577.23913 1.42804e-17
5577.97285 1.42321e-17
5578.70656 1.41838e-17
5579.44027 1.41355e-17
5580.17399 1.40873e-17
5580.90770 1.40390e-17
5581.64142 1.39907e-17
5582.38546 1.39876e-17
5583.11918 1.39866e-17
5583.85289 1.42611e-17
5584.58661 1.45489e-17
5585.32032 1.47729e-17
5586.05403 1.49937e-17
5586.78775 1.51313e-17
5587.52146 1.52648e-17
5588.25518 1.50086e-17
5588.99922 1.47335e-17
5589.73294 1.49694e-17
5590.46665 1.52300e-17
5591.20037 1.53508e-17
5591.93408 1.54647e-17
5592.66779 1.52288e-17
5593.40151 1.49759e-17
5594.13522 1.46534e-17
5594.86894 1.43275e-17
5595.61298 1.45783e-17
5596.34670 1.48572e-17
5597.08041 1.50948e-17
5597.81413 1.53305e-17
5598.54784 1.51172e-17
5599.28155 1.48820e-17
5600.01527 1.48452e-17
5600.74898 1.48182e-17
5601.49303 1.50057e-17
5602.22674 1.52037e-17
5602.96046 1.53602e-17
5603.69417 1.55147e-17
5604.42789 1.52076e-17
5605.16160 1.48779e-17
5605.89531 1.46185e-17
5606.62903 1.43626e-17
5607.36274 1.36544e-17
5608.10679 1.29241e-17
5608.84050 1.27239e-17
5609.57422 1.25496e-17
5610.30793 1.28866e-17
5611.04165 1.32488e-17
5611.77536 1.32353e-17
5612.50907 1.32034e-17
5613.24279 1.35541e-17
5613.98684 1.39236e-17
5614.72055 1.42723e-17
5615.45426 1.46200e-17
5616.18798 1.48858e-17
5616.92169 1.51475e-17
5617.65541 1.50209e-17
5618.38912 1.48752e-17
5619.12283 1.39215e-17
5619.85655 1.29281e-17
5620.60060 1.38378e-17
5621.33431 1.48411e-17
5622.06802 1.51428e-17
5622.80174 1.54098e-17
5623.53545 1.51331e-17
5624.26917 1.48295e-17
5625.00288 1.48518e-17
5625.73659 1.48901e-17
5626.47031 1.47258e-17
5627.21436 1.45515e-17
5627.94807 1.46177e-17
5628.68178 1.46958e-17
5629.41550 1.50661e-17
5630.14921 1.54509e-17
5630.88293 1.48907e-17
5631.61664 1.42839e-17
5632.35035 1.42621e-17
5633.08407 1.42693e-17
5633.82812 1.39287e-17
5634.56183 1.35709e-17
5635.29554 1.33831e-17
5636.02926 1.32038e-17
5636.76297 1.40363e-17
5637.49669 1.49189e-17
5638.23040 1.49823e-17
5638.96411 1.50048e-17
5639.69783 1.45990e-17
5640.44188 1.41719e-17
5641.17559 1.43204e-17
5641.90930 1.44976e-17
5642.64302 1.42477e-17
5643.37673 1.39766e-17
5644.11045 1.40954e-17
5644.84416 1.42336e-17
5645.57787 1.49446e-17
5646.32192 1.56840e-17
5647.05564 1.55904e-17
5647.78935 1.54552e-17
5648.52306 1.53225e-17
5649.25678 1.51901e-17
5649.99049 1.48023e-17
5650.72421 1.44017e-17
5651.45792 1.43921e-17
5652.19163 1.44019e-17
5652.93568 1.44475e-17
5653.66940 1.44948e-17
5654.40311 1.40540e-17
5655.13682 1.35889e-17
5655.87054 1.35425e-17
5656.60425 1.35171e-17
5657.33797 1.33908e-17
5658.07168 1.32594e-17
5658.80539 1.35262e-17
5659.54944 1.38130e-17
5660.28316 1.49129e-17
5661.01687 1.60536e-17
5661.75058 1.58060e-17
5662.48430 1.54885e-17
5663.21801 1.48482e-17
5663.95173 1.41918e-17
5664.68544 1.41054e-17
5665.41915 1.40478e-17
5666.16320 1.42010e-17
5666.89692 1.43648e-17
5667.63063 1.42374e-17
5668.36434 1.40953e-17
5669.09806 1.36624e-17
5669.83177 1.32148e-17
5670.56549 1.33634e-17
5671.29920 1.35420e-17
5672.04325 1.35670e-17
5672.77696 1.35842e-17
5673.51068 1.26481e-17
5674.24439 1.16638e-17
5674.97810 1.19869e-17
5675.71182 1.23760e-17
5676.44553 1.26263e-17
5677.17925 1.28696e-17
5677.91296 1.33278e-17
5678.65701 1.37970e-17
5679.39072 1.34829e-17
5680.12444 1.31291e-17
5680.85815 1.34058e-17
5681.59186 1.37146e-17
5682.32558 1.41826e-17
5683.05929 1.46586e-17
5683.79301 1.47897e-17
5684.53705 1.49032e-17
5685.27077 1.49981e-17
5686.00448 1.50920e-17
5686.73820 1.53200e-17
5687.47191 1.55548e-17
5688.20562 1.49089e-17
5688.93934 1.42184e-17
5689.67305 1.39809e-17
5690.40677 1.37665e-17
5691.15081 1.35346e-17
5691.88453 1.33018e-17
5692.61824 1.30407e-17
5693.35196 1.27782e-17
5694.08567 1.31178e-17
5694.81938 1.34880e-17
5695.55310 1.40649e-17
5696.28681 1.46522e-17
5697.02053 1.44080e-17
5697.76457 1.41212e-17
5698.49829 1.36252e-17
5699.23200 1.31184e-17
5699.96572 1.29882e-17
5700.69943 1.28774e-17
5701.43314 1.30186e-17
5702.16686 1.31727e-17
5702.90057 1.31329e-17
5703.63429 1.30830e-17
5704.37833 1.34773e-17
5705.11205 1.38943e-17
5705.84576 1.38938e-17
5706.57948 1.38718e-17
5707.31319 1.37224e-17
5708.04690 1.35664e-17
5708.78062 1.32501e-17
5709.51433 1.29255e-17
5710.25838 1.29305e-17
5710.99209 1.29524e-17
5711.72581 1.30393e-17
5712.45952 1.31295e-17
5713.19324 1.32715e-17
5713.92695 1.34162e-17
5714.66066 1.33105e-17
5715.39438 1.31919e-17
5716.12809 1.32119e-17
5716.87214 1.32390e-17
5717.60585 1.34929e-17
5718.33957 1.37584e-17
5719.07328 1.37407e-17
5719.80700 1.37083e-17
5720.54071 1.39165e-17
5721.27442 1.41370e-17
5722.00814 1.40510e-17
5722.74185 1.39491e-17
5723.48590 1.38308e-17
5724.21961 1.37117e-17
5724.95333 1.33550e-17
5725.68704 1.29860e-17
5726.42076 1.24840e-17
5727.15447 1.19751e-17
5727.88818 1.28740e-17
5728.62190 1.38459e-17
5729.36595 1.37690e-17
5730.09966 1.36376e-17
5730.83337 1.37112e-17
5731.56709 1.37953e-17
5732.30080 1.35440e-17
5733.03452 1.32753e-17
5733.76823 1.31223e-17
5734.50194 1.29754e-17
5735.23566 1.29528e-17
5735.97971 1.29367e-17
5736.71342 1.29174e-17
5737.44713 1.28980e-17
5738.18085 1.36990e-17
5738.91456 1.45426e-17
5739.64828 1.45807e-17
5740.38199 1.45767e-17
5741.11570 1.39450e-17
5741.84942 1.32805e-17
5742.59347 1.25192e-17
5743.32718 1.17530e-17
5744.06089 1.18713e-17
5744.79461 1.20359e-17
5745.52832 1.26146e-17
5746.26204 1.32149e-17
5746.99575 1.33473e-17
5747.72946 1.34552e-17
5748.46318 1.33013e-17
5749.20723 1.31337e-17
5749.94094 1.24345e-17
5750.67465 1.17076e-17
5751.40837 1.20124e-17
5752.14208 1.23713e-17
5752.87580 1.28054e-17
5753.60951 1.32434e-17
5754.34322 1.29710e-17
5755.08727 1.26613e-17
5755.82099 1.33195e-17
5756.55470 1.40284e-17
5757.28841 1.43641e-17
5758.02213 1.46801e-17
5758.75584 1.46888e-17
5759.48956 1.46813e-17
5760.22327 1.45457e-17
5760.95698 1.44033e-17
5761.70103 1.43539e-17
5762.43475 1.43094e-17
5763.16846 1.44047e-17
5763.90217 1.45072e-17
5764.63589 1.46050e-17
5765.36960 1.47025e-17
5766.10332 1.45408e-17
5766.83703 1.43654e-17
5767.57074 1.46710e-17
5768.31479 1.50020e-17
5769.04851 1.46616e-17
5769.78222 1.42857e-17
5770.51593 1.40491e-17
5771.24965 1.38199e-17
5771.98336 1.38150e-17
5772.71708 1.38219e-17
5773.45079 1.38602e-17
5774.18450 1.39002e-17
5774.92855 1.35847e-17
5775.66227 1.32503e-17
5776.39598 1.29842e-17
5777.12969 1.27218e-17
5777.86341 1.31218e-17
5778.59712 1.35569e-17
5779.33084 1.38709e-17
5780.06455 1.41784e-17
5780.80860 1.39430e-17
5781.54231 1.36787e-17
5782.27603 1.33785e-17
5783.00974 1.30764e-17
5783.74345 1.33827e-17
5784.47717 1.37215e-17
5785.21088 1.36903e-17
5785.94460 1.36395e-17
5786.67831 1.42304e-17
5787.42236 1.48555e-17
5788.15607 1.45349e-17
5788.88979 1.41639e-17
5789.62350 1.37709e-17
5790.35721 1.33767e-17
5791.09093 1.23653e-17
5791.82464 1.13211e-17
5792.55836 1.13842e-17
5793.29207 1.15064e-17
5794.03612 1.22215e-17
5794.76983 1.29683e-17
5795.50355 1.28748e-17
5796.23726 1.27362e-17
5796.97097 1.32017e-17
5797.70469 1.36996e-17
5798.43840 1.33422e-17
5799.17212 1.29390e-17
5799.91616 1.26203e-17
5800.64988 1.23061e-17
5801.38359 1.27576e-17
5802.11731 1.32502e-17
5802.85102 1.35417e-17
5803.58473 1.38224e-17
5804.31845 1.38288e-17
5805.05216 1.38205e-17
5805.78588 1.37792e-17
5806.52992 1.37361e-17
5807.26364 1.33875e-17
5807.99735 1.30226e-17
5808.73107 1.30011e-17
5809.46478 1.29981e-17
5810.19849 1.35214e-17
5810.93221 1.40730e-17
5811.66592 1.39165e-17
5812.39964 1.37218e-17
5813.14368 1.31707e-17
5813.87740 1.26004e-17
5814.61111 1.29897e-17
5815.34483 1.34309e-17
5816.07854 1.34318e-17
5816.81225 1.34090e-17
5817.54597 1.30640e-17
5818.27968 1.27017e-17
5819.02373 1.29663e-17
5819.75744 1.32647e-17
5820.49116 1.35323e-17
5821.22487 1.37982e-17
5821.95859 1.32514e-17
5822.69230 1.26606e-17
5823.42601 1.27681e-17
5824.15973 1.29134e-17
5824.89344 1.32000e-17
5825.63749 1.34942e-17
5826.37120 1.29918e-17
5827.10492 1.24462e-17
5827.83863 1.25547e-17
5828.57235 1.26988e-17
5829.30606 1.31034e-17
5830.03977 1.35221e-17
5830.77349 1.38249e-17
5831.50720 1.41214e-17
5832.25125 1.42245e-17
5832.98496 1.43170e-17
5833.71868 1.45481e-17
5834.45239 1.47867e-17
5835.18611 1.44978e-17
5835.91982 1.41801e-17
5836.65353 1.41503e-17
5837.38725 1.41361e-17
5838.13130 1.41783e-17
5838.86501 1.42235e-17
5839.59872 1.45453e-17
5840.33244 1.48821e-17
5841.06615 1.52719e-17
5841.79987 1.56646e-17
5842.53358 1.52301e-17
5843.26729 1.47506e-17
5844.00101 1.38754e-17
5844.73472 1.29787e-17
5845.47877 1.33203e-17
5846.21248 1.37299e-17
5846.94620 1.38145e-17
5847.67991 1.38813e-17
5848.41363 1.40611e-17
5849.14734 1.42470e-17
5849.88105 1.40797e-17
5850.61477 1.38930e-17
5851.35882 1.36744e-17
5852.09253 1.34540e-17
5852.82624 1.26634e-17
5853.55996 1.18414e-17
5854.29367 1.25511e-17
5855.02739 1.33449e-17
5855.76110 1.35474e-17
5856.49481 1.37174e-17
5857.22853 1.35253e-17
5857.97258 1.33131e-17
5858.70629 1.30542e-17
5859.44000 1.27926e-17
5860.17372 1.30831e-17
5860.90743 1.34040e-17
5861.64115 1.35366e-17
5862.37486 1.36588e-17
5863.10857 1.41614e-17
5863.84229 1.46850e-17
5864.58634 1.43289e-17
5865.32005 1.39241e-17
5866.05376 1.34410e-17
5866.78748 1.29535e-17
5867.52119 1.23986e-17
5868.25491 1.18401e-17
5868.98862 1.21444e-17
5869.72233 1.24964e-17
5870.46638 1.32308e-17
5871.20010 1.39862e-17
5871.93381 1.42178e-17
5872.66752 1.44203e-17
5873.40124 1.38852e-17
5874.13495 1.33093e-17
5874.86867 1.25696e-17
5875.60238 1.18208e-17
5876.33609 1.18577e-17
5877.08014 1.19382e-17
5877.81386 1.21590e-17
5878.54757 1.23877e-17
5879.28128 1.29318e-17
5880.01500 1.34934e-17
5880.74871 1.35060e-17
5881.48243 1.34881e-17
5882.21614 1.32092e-17
5882.94985 1.29158e-17
5883.69390 1.28990e-17
5884.42762 1.28976e-17
5885.16133 1.32694e-17
5885.89504 1.36620e-17
5886.62876 1.41263e-17
5887.36247 1.45946e-17
5888.09619 1.40373e-17
5888.82990 1.34228e-17
5889.57395 1.23722e-17
5890.30766 1.12974e-17
5891.04138 1.12498e-17
5891.77509 1.12595e-17
5892.50880 1.15706e-17
5893.24252 1.18986e-17
5893.97623 1.24575e-17
5894.70995 1.30294e-17
5895.44366 1.32929e-17
5896.18771 1.35391e-17
5896.92142 1.36747e-17
5897.65514 1.38041e-17
5898.38885 1.28358e-17
5899.12256 1.18062e-17
5899.85628 1.18773e-17
5900.58999 1.20104e-17
5901.32371 1.21257e-17
5902.05742 1.22400e-17
5902.80147 1.22640e-17
5903.53518 1.22829e-17
5904.26890 1.24957e-17
5905.00261 1.27195e-17
5905.73632 1.26636e-17
5906.47004 1.25919e-17
5907.20375 1.27999e-17
5907.93747 1.30236e-17
5908.68151 1.31686e-17
5909.41523 1.33092e-17
5910.14894 1.32462e-17
5910.88266 1.31717e-17
5911.61637 1.28800e-17
5912.35008 1.25761e-17
5913.08380 1.23848e-17
5913.81751 1.21999e-17
5914.55123 1.21005e-17
5915.29527 1.20059e-17
5916.02899 1.23069e-17
5916.76270 1.26302e-17
5917.49642 1.23238e-17
5918.23013 1.19818e-17
5918.96384 1.16359e-17
5919.69756 1.12899e-17
5920.43127 1.12222e-17
5921.16499 1.11703e-17
5921.90903 1.10643e-17
5922.64275 1.09552e-17
5923.37646 1.16636e-17
5924.11018 1.24183e-17
5924.84389 1.28569e-17
5925.57760 1.32776e-17
5926.31132 1.32445e-17
5927.04503 1.31858e-17
5927.77875 1.32085e-17
5928.52279 1.32359e-17
5929.25651 1.32746e-17
5929.99022 1.33141e-17
5930.72394 1.29456e-17
5931.45765 1.25539e-17
5932.19136 1.25075e-17
5932.92508 1.24808e-17
5933.65879 1.30687e-17
5934.40284 1.36915e-17
5935.13655 1.37884e-17
5935.87027 1.38553e-17
5936.60398 1.37582e-17
5937.33770 1.36517e-17
5938.07141 1.34985e-17
5938.80512 1.33426e-17
5939.53884 1.26559e-17
5940.27255 1.19390e-17
5941.01660 1.18383e-17
5941.75031 1.17727e-17
5942.48403 1.24370e-17
5943.21774 1.31430e-17
5943.95146 1.32521e-17
5944.68517 1.33270e-17
5945.41888 1.32050e-17
5946.15260 1.30717e-17
5946.88631 1.31819e-17
5947.63036 1.33060e-17
5948.36407 1.31146e-17
5949.09779 1.29052e-17
5949.83150 1.25341e-17
5950.56522 1.21536e-17
5951.29893 1.18488e-17
5952.03264 1.15483e-17
5952.76636 1.12900e-17
5953.50007 1.10341e-17
5954.24412 1.13719e-17
5954.97783 1.17436e-17
5955.71155 1.18242e-17
5956.44526 1.18880e-17
5957.17898 1.18585e-17
5957.91269 1.18237e-17
5958.64640 1.20510e-17
5959.38012 1.22933e-17
5960.12417 1.29053e-17
5960.85788 1.35385e-17
5961.59159 1.28770e-17
5962.32531 1.21409e-17
5963.05902 1.21539e-17
5963.79274 1.22101e-17
5964.52645 1.21848e-17
5965.26016 1.21547e-17
5965.99388 1.23081e-17
5966.73793 1.24722e-17
5967.47164 1.31087e-17
5968.20535 1.37724e-17
5968.93907 1.37658e-17
5969.67278 1.37204e-17
5970.40650 1.31846e-17
5971.14021 1.26206e-17
5971.87392 1.25391e-17
5972.60764 1.24856e-17
5973.35169 1.23879e-17
5974.08540 1.22876e-17
5974.81911 1.25704e-17
5975.55283 1.28754e-17
5976.28654 1.27993e-17
5977.02026 1.27011e-17
5977.75397 1.26893e-17
5978.48768 1.26825e-17
5979.23173 1.27692e-17
5979.96545 1.28613e-17
5980.69916 1.23779e-17
5981.43287 1.18612e-17
5982.16659 1.17801e-17
5982.90030 1.17243e-17
5983.63402 1.19904e-17
5984.36773 1.22751e-17
5985.10144 1.24883e-17
5985.84549 1.26973e-17
5986.57921 1.27742e-17
5987.31292 1.28435e-17
5988.04663 1.29354e-17
5988.78035 1.30287e-17
5989.51406 1.24259e-17
5990.24778 1.17826e-17
5990.98149 1.18207e-17
5991.71520 1.18986e-17
5992.45925 1.17018e-17
5993.19297 1.14889e-17
5993.92668 1.15224e-17
5994.66039 1.15703e-17
5995.39411 1.17754e-17
5996.12782 1.19897e-17
5996.86154 1.17699e-17
5997.59525 1.15248e-17
5998.32896 1.19010e-17
5999.07301 1.23136e-17
5999.80673 1.22737e-17
6000.54044 1.22072e-17
6001.27415 1.16283e-17
6002.00787 1.10194e-17
6002.74158 1.10271e-17
6003.47530 1.10709e-17
6004.20901 1.18889e-17
6004.95306 1.27523e-17
6005.68677 1.26784e-17
6006.42049 1.25495e-17
6007.15420 1.17523e-17
6007.88791 1.09160e-17
6008.62163 1.08107e-17
6009.35534 1.07484e-17
6010.08906 1.15452e-17
6010.82277 1.23925e-17
6011.56682 1.23403e-17
6012.30053 1.22351e-17
6013.03425 1.16420e-17
6013.76796 1.10202e-17
6014.50167 1.15410e-17
6015.23539 1.21290e-17
6015.96910 1.20838e-17
6016.70282 1.20013e-17
6017.44686 1.17707e-17
6018.18058 1.15314e-17
6018.91429 1.21799e-17
6019.64801 1.28808e-17
6020.38172 1.30591e-17
6021.11543 1.32066e-17
6021.84915 1.26954e-17
6022.58286 1.21453e-17
6023.31658 1.17419e-17
6024.06062 1.13472e-17
6024.79434 1.12143e-17
6025.52805 1.10968e-17
6026.26177 1.13640e-17
6026.99548 1.16540e-17
6027.72919 1.16738e-17
6028.46291 1.16777e-17
6029.19662 1.21891e-17
6029.93034 1.27307e-17
6030.67438 1.27610e-17
6031.40810 1.27609e-17
6032.14181 1.26791e-17
6032.87553 1.25924e-17
6033.60924 1.27410e-17
6034.34295 1.29035e-17
6035.07667 1.23201e-17
6035.81038 1.16922e-17
6036.54410 1.17183e-17
6037.28814 1.17832e-17
6038.02186 1.13979e-17
6038.75557 1.09859e-17
6039.48929 1.03917e-17
6040.22300 9.78675e-18
6040.95671 9.78457e-18
6041.69043 9.78239e-18
6042.42414 9.78022e-18
6043.16819 9.77804e-18
6043.90190 9.77587e-18
6044.63562 9.77369e-18
6045.36933 9.77152e-18
6046.10305 9.76934e-18
6046.83676 9.76717e-18
6047.57047 9.76500e-18
6048.30419 9.76282e-18
6049.03790 9.76065e-18
6049.78195 9.75848e-18
6050.51566 9.75631e-18
6051.24938 9.75414e-18
6051.98309 9.75196e-18
6052.71681 9.74979e-18
6053.45052 9.74762e-18
6054.18423 9.74546e-18
6054.91795 9.74329e-18
6055.65166 9.74112e-18
6056.39571 9.73895e-18
6057.12942 9.73678e-18
6057.86314 9.73461e-18
6058.59685 9.73245e-18
6059.33057 9.73028e-18
6060.06428 9.72811e-18
6060.79799 9.72595e-18
6061.53171 9.72378e-18
6062.26542 9.72162e-18
6063.00947 9.71945e-18
6063.74318 9.71729e-18
6064.47690 9.71513e-18
6065.21061 9.71296e-18
6065.94433 9.71080e-18
6066.67804 9.70864e-18
6067.41175 9.70648e-18
6068.14547 9.70431e-18
6068.87918 9.70215e-18
6069.62323 9.69999e-18
6070.35694 9.69783e-18
6071.09066 9.69567e-18
6071.82437 9.69351e-18
6072.55809 9.69135e-18
6073.29180 9.68919e-18
6074.02551 9.68703e-18
6074.75923 9.68488e-18
6075.50328 9.68272e-18
6076.23699 9.68056e-18
6076.97070 9.67841e-18
6077.70442 9.67625e-18
6078.43813 9.67409e-18
6079.17185 9.67194e-18
6079.90556 9.66978e-18
6080.63927 9.66763e-18
6081.37299 9.66547e-18
6082.11704 9.66332e-18
6082.85075 9.66117e-18
6083.58446 9.65901e-18
6084.31818 9.65686e-18
6085.05189 9.65471e-18
6085.78561 9.65256e-18
6086.51932 9.65040e-18
6087.25303 9.64825e-18
6087.99708 9.64610e-18
6088.73080 9.64395e-18
6089.46451 9.64180e-18
6090.19822 9.63965e-18
6090.93194 9.63750e-18
6091.66565 9.63535e-18
6092.39937 9.63320e-18
6093.13308 9.63106e-18
6093.86679 9.62891e-18
6094.61084 9.62676e-18
6095.34456 9.62461e-18
6096.07827 9.62247e-18
6096.81198 9.62032e-18
6097.54570 9.61818e-18
6098.27941 9.61603e-18
6099.01313 9.61389e-18
6099.74684 9.61174e-18
6100.48055 9.60960e-18
6101.22460 9.60745e-18
6101.95832 9.60531e-18
6102.69203 9.60317e-18
6103.42574 9.60102e-18
6104.15946 9.80239e-18
6104.89317 1.00404e-17
6105.62689 1.04356e-17
6106.36060 1.08404e-17
6107.09431 1.08878e-17
6107.83836 1.09132e-17
6108.57208 1.09634e-17
6109.30579 1.10151e-17
6110.03950 1.13798e-17
6110.77322 1.17636e-17
6111.50693 1.14484e-17
6112.24065 1.10904e-17
6112.97436 1.08061e-17
6113.71841 1.05265e-17
6114.45212 1.09141e-17
6115.18584 1.13426e-17
6115.91955 1.16768e-17
6116.65326 1.20051e-17
6117.38698 1.22588e-17
6118.12069 1.25079e-17
6118.85441 1.25297e-17
6119.58812 1.25374e-17
6120.33217 1.22482e-17
6121.06588 1.19407e-17
6121.79960 1.16012e-17
6122.53331 1.12597e-17
6123.26702 1.12144e-17
6124.00074 1.11872e-17
6124.73445 1.13362e-17
6125.46817 1.14960e-17
6126.20188 1.14852e-17
6126.94593 1.14638e-17
6127.67964 1.13457e-17
6128.41336 1.12216e-17
6129.14707 1.13025e-17
6129.88078 1.13962e-17
6130.61450 1.15549e-17
6131.34821 1.17177e-17
6132.08193 1.15209e-17
6132.81564 1.13020e-17
6133.55969 1.13077e-17
6134.29340 1.13273e-17
6135.02712 1.12322e-17
6135.76083 1.11300e-17
6136.49454 1.12971e-17
6137.22826 1.14809e-17
6137.96197 1.13381e-17
6138.69569 1.11752e-17
6139.43973 1.11052e-17
6140.17345 1.10411e-17
6140.90716 1.11295e-17
6141.64088 1.12273e-17
6142.37459 1.15932e-17
6143.10830 1.19757e-17
6143.84202 1.21708e-17
6144.57573 1.23542e-17
6145.30945 1.25058e-17
6146.05349 1.26555e-17
6146.78721 1.23492e-17
6147.52092 1.20145e-17
6148.25464 1.19197e-17
6148.98835 1.18399e-17
6149.72206 1.18746e-17
6150.45578 1.19164e-17
6151.18949 1.21201e-17
6151.93354 1.23339e-17
6152.66725 1.21728e-17
6153.40097 1.19883e-17
6154.13468 1.18391e-17
6154.86840 1.16922e-17
6155.60211 1.11234e-17
6156.33582 1.05282e-17
6157.06954 1.03534e-17
6157.80325 1.02049e-17
6158.54730 1.03993e-17
6159.28101 1.06152e-17
6160.01473 1.06257e-17
6160.74844 1.06234e-17
6161.48216 1.06380e-17
6162.21587 1.06536e-17
6162.94958 1.10082e-17
6163.68330 1.13840e-17
6164.41701 1.12244e-17
6165.16106 1.10312e-17
6165.89477 1.11755e-17
6166.62849 1.13409e-17
6167.36220 1.17768e-17
6168.09592 1.22297e-17
6168.82963 1.22625e-17
6169.56334 1.22689e-17
6170.29706 1.22644e-17
6171.03077 1.22592e-17
6171.77482 1.19239e-17
6172.50853 1.15679e-17
6173.24225 1.13059e-17
6173.97596 1.10498e-17
6174.70968 1.08782e-17
6175.44339 1.07120e-17
6176.17710 1.05096e-17
6176.91082 1.03050e-17
6177.64453 1.06261e-17
6178.38858 1.09802e-17
6179.12229 1.05959e-17
6179.85601 1.01650e-17
6180.58972 1.01690e-17
6181.32344 1.02005e-17
6182.05715 1.03085e-17
6182.79086 1.04213e-17
6183.52458 1.09234e-17
6184.26863 1.14501e-17
6185.00234 1.10915e-17
6185.73605 1.06770e-17
6186.46977 1.03207e-17
6187.20348 9.96812e-18
6187.93720 1.02594e-17
6188.67091 1.05914e-17
6189.40462 1.05970e-17
6190.13834 1.05819e-17
6190.88239 1.06141e-17
6191.61610 1.06492e-17
6192.34981 1.07674e-17
6193.08353 1.08909e-17
6193.81724 1.07944e-17
6194.55096 1.06839e-17
6195.28467 1.07301e-17
6196.01838 1.07862e-17
6196.75210 1.11950e-17
6197.49615 1.16262e-17
6198.22986 1.13073e-17
6198.96357 1.09409e-17
6199.69729 1.07224e-17
6200.43100 1.05134e-17
6201.16472 1.07615e-17
6201.89843 1.10387e-17
6202.63214 1.08753e-17
6203.37619 1.06839e-17
6204.10991 1.11746e-17
6204.84362 1.17088e-17
6205.57733 1.17521e-17
6206.31105 1.17643e-17
6207.04476 1.15325e-17
6207.77848 1.12852e-17
6208.51219 1.12397e-17
6209.24590 1.12071e-17
6209.98995 1.11047e-17
6210.72367 1.09979e-17
6211.45738 1.11094e-17
6212.19109 1.12348e-17
6212.92481 1.08875e-17
6213.65852 1.05101e-17
6214.39224 1.07523e-17
6215.12595 1.10343e-17
6215.85966 1.11453e-17
6216.60371 1.12453e-17
6217.33743 1.09335e-17
6218.07114 1.05954e-17
6218.80485 1.06914e-17
6219.53857 1.08152e-17
6220.27228 1.03855e-17
6221.00600 9.92037e-18
6221.73971 9.95423e-18
6222.48376 1.00201e-17
6223.21747 1.02290e-17
6223.95119 1.04471e-17
6224.68490 1.06310e-17
6225.41861 1.08127e-17
6226.15233 1.11348e-17
6226.88604 1.14659e-17
6227.61976 1.11322e-17
6228.35347 1.07558e-17
6229.09752 1.04555e-17
6229.83123 1.01601e-17
6230.56495 1.04583e-17
6231.29866 1.07946e-17
6232.03237 1.07336e-17
6232.76609 1.06469e-17
6233.49980 1.07024e-17
6234.23352 1.07670e-17
6234.96723 1.04507e-17
6235.71128 1.01099e-17
6236.44499 1.00679e-17
6237.17871 1.00452e-17
6237.91242 1.04605e-17
6238.64613 1.09041e-17
6239.37985 1.08896e-17
6240.11356 1.08455e-17
6240.84728 1.09778e-17
6241.58099 1.11214e-17
6242.32504 1.10032e-17
6243.05875 1.08680e-17
6243.79247 1.11677e-17
6244.52618 1.14955e-17
6245.25989 1.13702e-17
6245.99361 1.12155e-17
6246.72732 1.10425e-17
6247.46104 1.08684e-17
6248.20508 1.01789e-17
6248.93880 9.45604e-18
6249.67251 9.83497e-18
6250.40623 1.02852e-17
6251.13994 1.04965e-17
6251.87365 1.06923e-17
6252.60737 1.06039e-17
6253.34108 1.04972e-17
6254.07480 1.04593e-17
6254.81884 1.04260e-17
6255.55256 1.07526e-17
6256.28627 1.11026e-17
6257.01999 1.08034e-17
6257.75370 1.04621e-17
6258.48741 9.90176e-18
6259.22113 9.32724e-18
6259.95484 9.36274e-18
6260.68856 9.43792e-18
6261.43260 9.55018e-18
6262.16632 9.66484e-18
6262.90003 1.04345e-17
6263.63375 1.12468e-17
6264.36746 1.10837e-17
6265.10117 1.08570e-17
6265.83489 1.02565e-17
6266.56860 9.63163e-18
6267.31265 9.87036e-18
6268.04636 1.01654e-17
6268.78008 1.03460e-17
6269.51379 1.05191e-17
6270.24751 1.03263e-17
6270.98122 1.01096e-17
6271.71493 1.02325e-17
6272.44865 1.03776e-17
6273.18236 1.05270e-17
6273.92641 1.06766e-17
6274.66012 1.09955e-17
6275.39384 1.13255e-17
6276.12755 1.11640e-17
6276.86127 1.09703e-17
6277.59498 1.11660e-17
6278.32869 1.13873e-17
6279.06241 1.06679e-17
6279.79612 9.88689e-18
6280.54017 9.52146e-18
6281.27388 9.18329e-18
6282.00760 9.18943e-18
6282.74131 9.21819e-18
6283.47503 1.00172e-17
6284.20874 1.08666e-17
6284.94245 1.06294e-17
6285.67617 1.03209e-17
6286.42022 1.01052e-17
6287.15393 9.89565e-18
6287.88764 1.02159e-17
6288.62136 1.05711e-17
6289.35507 1.05152e-17
6290.08879 1.04322e-17
6290.82250 1.04097e-17
6291.55621 1.03911e-17
6292.28993 1.03725e-17
6293.03398 1.03539e-17
6293.76769 1.03354e-17
6294.50140 1.03168e-17
6295.23512 1.02982e-17
6295.96883 1.02797e-17
6296.70255 1.02611e-17
6297.43626 1.02426e-17
6298.16997 1.02240e-17
6298.90369 1.02054e-17
6299.64774 1.01869e-17
6300.38145 1.01683e-17
6301.11516 1.01498e-17
6301.84888 1.01312e-17
6302.58259 1.01127e-17
6303.31631 1.00941e-17
6304.05002 1.00756e-17
6304.78373 1.00571e-17
6305.51745 1.00555e-17
6306.26150 1.00550e-17
6306.99521 9.79885e-18
6307.72892 9.52573e-18
6308.46264 1.00515e-17
6309.19635 1.06302e-17
6309.93007 1.12033e-17
6310.66378 1.17760e-17
6311.39749 1.09997e-17
6312.13121 1.01340e-17
6312.87526 9.68030e-18
6313.60897 9.25404e-18
6314.34268 9.53121e-18
6315.07640 9.85511e-18
6315.81011 9.78348e-18
6316.54383 9.68558e-18
6317.27754 1.04364e-17
6318.01125 1.12435e-17
6318.75530 1.06182e-17
6319.48902 9.89753e-18
6320.22273 1.02802e-17
6320.95644 1.07363e-17
6321.69016 1.04120e-17
6322.42387 1.00357e-17
6323.15759 1.04057e-17
6323.89130 1.08253e-17
6324.62501 1.07808e-17
6325.36906 1.07053e-17
6326.10278 1.09219e-17
6326.83649 1.11580e-17
6327.57020 1.13395e-17
6328.30392 1.15174e-17
6329.03763 1.08248e-17
6329.77135 1.00741e-17
6330.50506 9.84528e-18
6331.23877 9.65143e-18
6331.98282 9.92969e-18
6332.71654 1.02395e-17
6333.45025 1.04651e-17
6334.18396 1.06851e-17
6334.91768 1.08355e-17
6335.65139 1.09813e-17
6336.38511 1.10862e-17
6337.11882 1.11884e-17
6337.86287 1.07502e-17
6338.59658 1.02758e-17
6339.33030 1.00775e-17
6340.06401 9.89771e-18
6340.79772 9.77067e-18
6341.53144 9.64716e-18
6342.26515 9.86565e-18
6342.99887 1.01070e-17
6343.73258 1.07311e-17
6344.47663 1.13808e-17
6345.21034 1.13741e-17
6345.94406 1.13232e-17
6346.67777 1.07169e-17
6347.41148 1.00734e-17
6348.14520 1.04391e-17
6348.87891 1.08727e-17
6349.61263 1.05227e-17
6350.34634 1.01198e-17
6351.09039 1.01133e-17
6351.82410 1.01335e-17
6352.55782 1.03323e-17
6353.29153 1.05432e-17
6354.02524 1.01291e-17
6354.75896 9.67291e-18
6355.49267 9.62444e-18
6356.22639 9.60350e-18
6356.97043 1.03691e-17
6357.70415 1.11879e-17
6358.43786 1.14786e-17
6359.17158 1.17336e-17
6359.90529 1.14352e-17
6360.63900 1.10994e-17
6361.37272 1.03720e-17
6362.10643 9.61819e-18
6362.84015 9.59302e-18
6363.58419 9.61716e-18
6364.31791 1.01195e-17
6365.05162 1.06542e-17
6365.78534 1.05771e-17
6366.51905 1.04585e-17
6367.25276 1.03222e-17
6367.98648 1.01847e-17
6368.72019 1.01573e-17
6369.45391 1.01374e-17
6370.19795 9.91979e-18
6370.93167 9.68879e-18
6371.66538 1.00353e-17
6372.39910 1.04209e-17
6373.13281 1.06710e-17
6373.86652 1.09118e-17
6374.60024 1.08451e-17
6375.33395 1.07576e-17
6376.07800 1.08209e-17
6376.81171 1.08945e-17
6377.54543 1.11985e-17
6378.27914 1.15182e-17
6379.01286 1.12605e-17
6379.74657 1.09635e-17
6380.48028 1.11572e-17
6381.21400 1.13842e-17
6381.94771 1.13377e-17
6382.69176 1.12726e-17
6383.42547 1.14346e-17
6384.15919 1.16122e-17
6384.89290 1.16081e-17
6385.62662 1.15916e-17
6386.36033 1.15107e-17
6387.09404 1.14253e-17
6387.82776 1.13352e-17
6388.56147 1.12448e-17
6389.30552 1.12631e-17
6390.03923 1.12889e-17
6390.77295 1.07407e-17
6391.50666 1.01533e-17
6392.24038 1.00100e-17
6392.97409 9.89719e-18
6393.70780 1.00763e-17
6394.44152 1.02753e-17
6395.17523 1.09374e-17
6395.91928 1.16312e-17
6396.65299 1.18355e-17
6397.38671 1.20063e-17
6398.12042 1.12997e-17
6398.85414 1.05328e-17
6399.58785 1.02164e-17
6400.32156 9.93092e-18
6401.05528 1.05929e-17
6401.78899 1.13198e-17
6402.53304 1.14647e-17
6403.26675 1.15697e-17
6404.00047 1.15352e-17
6404.73418 1.14910e-17
6405.46790 1.13971e-17
6406.20161 1.12998e-17
6406.93532 1.06168e-17
6407.66904 9.89358e-18
6408.41309 9.84211e-18
6409.14680 9.83685e-18
6409.88051 1.01957e-17
6410.61423 1.05796e-17
6411.34794 1.05917e-17
6412.08166 1.05783e-17
6412.81537 1.07155e-17
6413.54908 1.08630e-17
6414.28280 1.11406e-17
6415.02685 1.14271e-17
6415.76056 1.13705e-17
6416.49427 1.12903e-17
6417.22799 1.12982e-17
6417.96170 1.13122e-17
6418.69542 1.09756e-17
6419.42913 1.06148e-17
6420.16284 1.05139e-17
6420.90689 1.04309e-17
6421.64061 1.06015e-17
6422.37432 1.07897e-17
6423.10803 1.06794e-17
6423.84175 1.05485e-17
6424.57546 1.04426e-17
6425.30918 1.03385e-17
6426.04289 1.03844e-17
6426.77660 1.04407e-17
6427.52065 1.03850e-17
6428.25437 1.03215e-17
6428.98808 1.02844e-17
6429.72179 1.02492e-17
6430.45551 1.05547e-17
6431.18922 1.08837e-17
6431.92294 1.11031e-17
6432.65665 1.13149e-17
6433.39036 1.18273e-17
6434.13441 1.23605e-17
6434.86813 1.19842e-17
6435.60184 1.15446e-17
6436.33555 1.12490e-17
6437.06927 1.09635e-17
6437.80298 1.04079e-17
6438.53670 9.83368e-18
6439.27041 1.01867e-17
6440.00412 1.06042e-17
6440.74817 1.10166e-17
6441.48189 1.14285e-17
6442.21560 1.11607e-17
6442.94931 1.08456e-17
6443.68303 1.08255e-17
6444.41674 1.08259e-17
6445.15046 1.08010e-17
6445.88417 1.07744e-17
6446.62822 1.03644e-17
6447.36193 9.92767e-18
6448.09565 1.09564e-17
6448.82936 1.20874e-17
6449.56307 1.17303e-17
6450.29679 1.12694e-17
6451.03050 1.14289e-17
6451.76422 1.16318e-17
6452.49793 1.13613e-17
6453.24198 1.10577e-17
6453.97569 1.07916e-17
6454.70941 1.05282e-17
6455.44312 1.05740e-17
6456.17683 1.06414e-17
6456.91055 1.08235e-17
6457.64426 1.10136e-17
6458.37798 1.06535e-17
6459.11169 1.02548e-17
6459.85574 9.93102e-18
6460.58945 9.61255e-18
6461.32317 9.48380e-18
6462.05688 9.36837e-18
6462.79059 9.20570e-18
6463.52431 9.03973e-18
6464.25802 9.49828e-18
6464.99174 1.00006e-17
6465.72545 1.07566e-17
6466.46950 1.15303e-17
6467.20321 1.10459e-17
6467.93693 1.04730e-17
6468.67064 1.04768e-17
6469.40435 1.05211e-17
6470.13807 1.12687e-17
6470.87178 1.20656e-17
6471.60550 1.17960e-17
6472.34954 1.14512e-17
6473.08326 1.07869e-17
6473.81697 1.01002e-17
6474.55069 9.83920e-18
6475.28440 9.60820e-18
6476.01811 1.00246e-17
6476.75183 1.04865e-17
6477.48554 1.05594e-17
6478.21926 1.06048e-17
6478.96330 1.02749e-17
6479.69702 9.91842e-18
6480.43073 1.07450e-17
6481.16445 1.16552e-17
6481.89816 1.14837e-17
6482.63187 1.12359e-17
6483.36559 1.09646e-17
6484.09930 1.06917e-17
6484.83302 1.00235e-17
6485.57706 9.32724e-18
6486.31078 9.63918e-18
6487.04449 1.00225e-17
6487.77821 1.01998e-17
6488.51192 1.03625e-17
6489.24563 1.04164e-17
6489.97935 1.04626e-17
6490.71306 1.06217e-17
6491.45711 1.07888e-17
6492.19082 1.10206e-17
6492.92454 1.12570e-17
6493.65825 1.09805e-17
6494.39197 1.06677e-17
6495.12568 1.05460e-17
6495.85939 1.04380e-17
6496.59311 1.06039e-17
6497.32682 1.07893e-17
6498.07087 1.09993e-17
6498.80458 1.12110e-17
6499.53830 1.07016e-17
6500.27201 1.01410e-17
6501.00573 1.00778e-17
6501.73944 1.00501e-17
6502.47315 1.06895e-17
6503.20687 1.13765e-17
6503.94058 1.13387e-17
6504.68463 1.12494e-17
6505.41834 1.07363e-17
6506.15206 1.01931e-17
6506.88577 1.01264e-17
6507.61949 1.00936e-17
6508.35320 1.01845e-17
6509.08691 1.02841e-17
6509.82063 1.06639e-17
6510.55434 1.10636e-17
6511.29839 1.13972e-17
6512.03210 1.17261e-17
6512.76582 1.15012e-17
6513.49953 1.12367e-17
6514.23325 1.09599e-17
6514.96696 1.06821e-17
6515.70067 1.12404e-17
6516.43439 1.18585e-17
6517.17844 1.15812e-17
6517.91215 1.12400e-17
6518.64586 1.08050e-17
6519.37958 1.03633e-17
6520.11329 1.05053e-17
6520.84701 1.06892e-17
6521.58072 1.09037e-17
6522.31443 1.11205e-17
6523.04815 1.12200e-17
6523.79220 1.13110e-17
6524.52591 1.12520e-17
6525.25962 1.11822e-17
6525.99334 1.08068e-17
6526.72705 1.04095e-17
6527.46077 1.02450e-17
6528.19448 1.00972e-17
6528.92819 1.02465e-17
6529.66191 1.04171e-17
6530.40596 1.04641e-17
6531.13967 1.05021e-17
6531.87338 1.03278e-17
6532.60710 1.01383e-17
6533.34081 9.96825e-18
6534.07453 9.79967e-18
6534.80824 9.88792e-18
6535.54195 9.99468e-18
6536.27567 1.01222e-17
6537.01972 1.02512e-17
6537.75343 1.05177e-17
6538.48714 1.07941e-17
6539.22086 1.09945e-17
6539.95457 1.11894e-17
6540.68829 1.12253e-17
6541.42200 1.12498e-17
6542.15571 1.07020e-17
6542.89976 1.01130e-17
6543.63348 1.04187e-17
6544.36719 1.07890e-17
6545.10090 1.07628e-17
6545.83462 1.07080e-17
6546.56833 1.07249e-17
6547.30205 1.07470e-17
6548.03576 1.04509e-17
6548.76947 1.01317e-17
6549.51352 1.02908e-17
6550.24724 1.04844e-17
6550.98095 1.07081e-17
6551.71466 1.09340e-17
6552.44838 1.08641e-17
6553.18209 1.07728e-17
6553.91581 1.08804e-17
6554.64952 1.10024e-17
6555.39357 1.11988e-17
6556.12728 1.14005e-17
6556.86100 1.11989e-17
6557.59471 1.09681e-17
6558.32842 1.10394e-17
6559.06214 1.11327e-17
6559.79585 1.09363e-17
6560.52957 1.07189e-17
6561.26328 1.05584e-17
6562.00733 1.04021e-17
6562.74104 1.01989e-17
6563.47476 9.99227e-18
6564.20847 1.01765e-17
6564.94218 1.03891e-17
6565.67590 1.05021e-17
6566.40961 1.06079e-17
6567.14333 1.00642e-17
6567.87704 9.47318e-18
6568.62109 9.87154e-18
6569.35480 1.03419e-17
6570.08852 1.05807e-17
6570.82223 1.08026e-17
6571.55594 1.05227e-17
6572.28966 1.02062e-17
6573.02337 1.03483e-17
6573.75709 1.05239e-17
6574.49080 1.06777e-17
6575.23485 1.08298e-17
6575.96856 1.07019e-17
6576.70228 1.05535e-17
6577.43599 1.05340e-17
6578.16970 1.05239e-17
6578.90342 1.03975e-17
6579.63713 1.02625e-17
6580.37085 9.81000e-18
6581.11489 9.33425e-18
6581.84861 9.52542e-18
6582.58232 9.76536e-18
6583.31604 1.01913e-17
6584.04975 1.06309e-17
6584.78346 1.05770e-17
6585.51718 1.04870e-17
6586.25089 9.92951e-18
6586.98461 9.33783e-18
6587.72865 9.79265e-18
6588.46237 1.03242e-17
6589.19608 1.08807e-17
6589.92980 1.14390e-17
6590.66351 1.12040e-17
6591.39722 1.09108e-17
6592.13094 1.05870e-17
6592.86465 1.02610e-17
6593.59837 1.02145e-17
6594.34241 1.01885e-17
6595.07613 1.00204e-17
6595.80984 9.84183e-18
6596.54356 9.99571e-18
6597.27727 1.01740e-17
6598.01098 1.04644e-17
6598.74470 1.07630e-17
6599.47841 1.07299e-17
6600.22246 1.06723e-17
6600.95617 1.06846e-17
6601.68989 1.07020e-17
6602.42360 1.02636e-17
6603.15732 9.79154e-18
6603.89103 1.02575e-17
6604.62474 1.07927e-17
6605.35846 1.05304e-17
6606.09217 1.02093e-17
6606.82589 1.01702e-17
6607.56993 1.01519e-17
6608.30365 1.07835e-17
6609.03736 1.14631e-17
6609.77108 1.10662e-17
6610.50479 1.05898e-17
6611.23850 1.08307e-17
6611.97222 1.11246e-17
6612.70593 1.12138e-17
6613.44998 1.12880e-17
6614.18369 1.08987e-17
6614.91741 1.04752e-17
6615.65112 1.03213e-17
6616.38484 1.01874e-17
6617.11855 1.03334e-17
6617.85226 1.05000e-17
6618.58598 1.05240e-17
6619.31969 1.05373e-17
6620.06374 1.06842e-17
6620.79745 1.08411e-17
6621.53117 1.02815e-17
6622.26488 9.66878e-18
6622.99860 9.58735e-18
6623.73231 9.54538e-18
6624.46602 1.01230e-17
6625.19974 1.07467e-17
6625.94379 1.10722e-17
6626.67750 1.13756e-17
6627.41121 1.10031e-17
6628.14493 1.05804e-17
6628.87864 1.04137e-17
6629.61236 1.02661e-17
6630.34607 9.76755e-18
6631.07978 9.24293e-18
6631.81350 9.08857e-18
6632.55755 8.96182e-18
6633.29126 9.82632e-18
6634.02497 1.07647e-17
6634.75869 1.08944e-17
6635.49240 1.09639e-17
6636.22612 1.08776e-17
6636.95983 1.07797e-17
6637.69354 1.06135e-17
6638.43759 1.04423e-17
6639.17131 1.01466e-17
6639.90502 9.84164e-18
6640.63873 9.79950e-18
6641.37245 9.77699e-18
6642.10616 9.66678e-18
6642.83988 9.55001e-18
6643.57359 9.40933e-18
6644.30730 9.26688e-18
6645.04102 9.33685e-18
6645.78507 9.42274e-18
6646.51878 9.37800e-18
6647.25249 9.32349e-18
6647.98621 9.11893e-18
6648.71992 8.90316e-18
6649.45364 9.52795e-18
6650.18735 1.02156e-17
6650.92106 9.77678e-18
6651.66511 9.25342e-18
6652.39883 9.20381e-18
6653.13254 9.18974e-18
6653.86625 9.74034e-18
6654.59997 1.03333e-17
6655.33368 1.05448e-17
6656.06740 1.07276e-17
6656.80111 1.05342e-17
6657.53482 1.03126e-17
6658.27887 1.00407e-17
6659.01259 9.76496e-18
6659.74630 9.57542e-18
6660.48001 9.39236e-18
6661.21373 9.44634e-18
6661.94744 9.51813e-18
6662.68116 9.99060e-18
6663.41487 1.04932e-17
6664.14858 9.85027e-18
6664.89263 9.12105e-18
6665.62635 9.28303e-18
6666.36006 9.51215e-18
6667.09377 9.51217e-18
6667.82749 9.49494e-18
6668.56120 9.44127e-18
6669.29492 9.38486e-18
6670.02863 1.02465e-17
6670.77268 1.11774e-17
6671.50639 1.13997e-17
6672.24011 1.15684e-17
6672.97382 1.17513e-17
6673.70753 1.19351e-17
6674.44125 1.11230e-17
6675.17496 1.02358e-17
6675.90868 1.05681e-17
6676.64239 1.09927e-17
6677.38644 1.09226e-17
6678.12015 1.08152e-17
6678.85387 1.07841e-17
6679.58758 1.07588e-17
6680.32129 1.11720e-17
6681.05501 1.16182e-17
6681.78872 1.10176e-17
6682.52244 1.03377e-17
6683.25615 1.01150e-17
6684.00020 9.92710e-18
6684.73391 9.98849e-18
6685.46763 1.00688e-17
6686.20134 1.01847e-17
6686.93505 1.03033e-17
6687.66877 1.06751e-17
6688.40248 1.10661e-17
6689.13620 1.11097e-17
6689.88024 1.11268e-17
6690.61396 1.07203e-17
6691.34767 1.02816e-17
6692.08139 9.85290e-18
6692.81510 9.42497e-18
6693.54881 9.44654e-18
6694.28253 9.50234e-18
6695.01624 9.44428e-18
6695.74996 9.37756e-18
6696.49400 9.78217e-18
6697.22772 1.02226e-17
6697.96143 1.04852e-17
6698.69515 1.07343e-17
6699.42886 1.04984e-17
6700.16257 1.02255e-17
6700.89629 9.85564e-18
6701.63000 9.47840e-18
6702.36372 9.53946e-18
6703.10776 9.63395e-18
6703.84148 1.00513e-17
6704.57519 1.04932e-17
6705.30891 1.00126e-17
6706.04262 9.46155e-18
6706.77633 9.36823e-18
6707.51005 9.30992e-18
6708.24376 9.18929e-18
6708.98781 9.06391e-18
6709.72152 9.32811e-18
6710.45524 9.62206e-18
6711.18895 9.71178e-18
6711.92267 9.78588e-18
6712.65638 9.84460e-18
6713.39009 9.90213e-18
6714.12381 9.87293e-18
6714.85752 9.83708e-18
6715.59124 9.90240e-18
6716.33528 9.97547e-18
6717.06900 9.55469e-18
6717.80271 9.09610e-18
6718.53643 9.36121e-18
6719.27014 9.68185e-18
6720.00385 9.85972e-18
6720.73757 1.00266e-17
6721.47128 1.01766e-17
6722.21533 1.03254e-17
6722.94904 9.79705e-18
6723.68276 9.21679e-18
6724.41647 9.14046e-18
6725.15019 9.10290e-18
6725.88390 9.24748e-18
6726.61761 9.40607e-18
6727.35133 9.51598e-18
6728.08504 9.62214e-18
6728.82909 9.43253e-18
6729.56280 9.22018e-18
6730.29652 9.44802e-18
6731.03023 9.70978e-18
6731.76395 1.00780e-17
6732.49766 1.04544e-17
6733.23137 1.07306e-17
6733.96509 1.09990e-17
6734.69880 1.07898e-17
6735.44285 1.05437e-17
6736.17656 1.02650e-17
6736.91028 9.98386e-18
6737.64399 9.82192e-18
6738.37771 9.66921e-18
6739.11142 1.00137e-17
6739.84513 1.03966e-17
6740.57885 1.04844e-17
6741.32290 1.05494e-17
6742.05661 1.08740e-17
6742.79032 1.12187e-17
6743.52404 1.10242e-17
6744.25775 1.07880e-17
6744.99147 1.08774e-17
6745.72518 1.09920e-17
6746.45889 1.08173e-17
6747.19261 1.06202e-17
6747.93666 1.06396e-17
6748.67037 1.06225e-17
6749.40408 1.06054e-17
6750.13780 1.05883e-17
6750.87151 1.05713e-17
6751.60523 1.05542e-17
6752.33894 1.05371e-17
6753.07265 1.05200e-17
6753.80637 1.05030e-17
6754.55042 1.04859e-17
6755.28413 1.04688e-17
6756.01784 1.04518e-17
6756.75156 1.04347e-17
6757.48527 1.04176e-17
6758.21899 1.04006e-17
6758.95270 1.03835e-17
6759.68641 1.03664e-17
6760.43046 1.03494e-17
6761.16418 1.03323e-17
6761.89789 1.03153e-17
6762.63160 1.02982e-17
6763.36532 1.02812e-17
6764.09903 1.02641e-17
6764.83275 1.02471e-17
6765.56646 1.02300e-17
6766.30017 1.02130e-17
6767.04422 1.01959e-17
6767.77794 1.01789e-17
6768.51165 1.01618e-17
6769.24536 1.01448e-17
6769.97908 1.01277e-17
6770.71279 1.01107e-17
6771.44651 1.00937e-17
6772.18022 1.00766e-17
6772.91393 1.00596e-17
6773.65798 1.00426e-17
6774.39170 1.00255e-17
6775.12541 1.00085e-17
6775.85912 9.99145e-18
6776.59284 9.97443e-18
6777.32655 9.95740e-18
6778.06027 9.94037e-18
6778.79398 9.92335e-18
6779.53803 9.90632e-18
6780.27174 9.88930e-18
6781.00546 9.87228e-18
6781.73917 9.85526e-18
6782.47288 9.83825e-18
6783.20660 9.82123e-18
6783.94031 9.80422e-18
6784.67403 9.78720e-18
6785.40774 9.77018e-18
6786.15179 9.76545e-18
6786.88550 9.76072e-18
6787.61922 9.75600e-18
6788.35293 9.75127e-18
6789.08664 9.74655e-18
6789.82036 9.74182e-18
6790.55407 9.73710e-18
6791.28779 9.73237e-18
6792.02150 9.72765e-18
6792.76555 9.72292e-18
6793.49926 9.71820e-18
6794.23298 9.71347e-18
6794.96669 9.70875e-18
6795.70040 9.70403e-18
6796.43412 9.69930e-18
6797.16783 9.69458e-18
6797.90155 9.68986e-18
6798.63526 9.68514e-18
6799.37931 9.68042e-18
6800.11302 9.67570e-18
6800.84674 9.67098e-18
6801.58045 9.66626e-18
6802.31416 9.66154e-18
6803.04788 9.65682e-18
6803.78159 9.65210e-18
6804.51531 9.64738e-18
6805.25935 9.64266e-18
6805.99307 9.63794e-18
6806.72678 9.63323e-18
6807.46050 9.62851e-18
6808.19421 9.62379e-18
6808.92792 9.61908e-18
6809.66164 9.61436e-18
6810.39535 9.60965e-18
6811.12907 9.60493e-18
6811.87311 9.60022e-18
6812.60683 9.59550e-18
6813.34054 9.59079e-18
6814.07426 9.58607e-18
6814.80797 9.58136e-18
6815.54168 9.57665e-18
6816.27540 9.57193e-18
6817.00911 9.56722e-18
6817.74283 9.56251e-18
6818.48687 9.55780e-18
6819.22059 9.55309e-18
6819.95430 9.54838e-18
6820.68802 9.54367e-18
6821.42173 9.53896e-18
6822.15544 9.53425e-18
6822.88916 9.85479e-18
6823.62287 1.02708e-17
6824.35659 1.04525e-17
6825.10063 1.06156e-17
6825.83435 1.00818e-17
6826.56806 9.49256e-18
6827.30178 9.46035e-18
6828.03549 9.47240e-18
6828.76920 9.71893e-18
6829.50292 9.98412e-18
6830.23663 9.74635e-18
6830.98068 9.46856e-18
6831.71439 9.97170e-18
6832.44811 1.05370e-17
6833.18182 1.05646e-17
6833.91554 1.05495e-17
6834.64925 9.96189e-18
6835.38296 9.32866e-18
6836.11668 9.15375e-18
6836.85039 9.01541e-18
6837.59444 8.87673e-18
6838.32815 8.73804e-18
6839.06187 8.57357e-18
6839.79558 8.40705e-18
6840.52930 8.31182e-18
6841.26301 8.22227e-18
6841.99672 8.32783e-18
6842.73044 8.44898e-18
6843.47449 8.85265e-18
6844.20820 9.27887e-18
6844.94191 9.26797e-18
6845.67563 9.22213e-18
6846.40934 9.30170e-18
6847.14306 9.39129e-18
6847.87677 9.51053e-18
6848.61048 9.63215e-18
6849.34420 9.46802e-18
6850.08825 9.28101e-18
6850.82196 9.28330e-18
6851.55567 9.30075e-18
6852.28939 9.08003e-18
6853.02310 8.84024e-18
6853.75682 9.21956e-18
6854.49053 9.64853e-18
6855.22424 9.83832e-18
6855.95796 1.00089e-17
6856.70201 1.00414e-17
6857.43572 1.00629e-17
6858.16943 9.82103e-18
6858.90315 9.55807e-18
6859.63686 9.62209e-18
6860.37058 9.71238e-18
6861.10429 9.08486e-18
6861.83800 8.39967e-18
6862.57172 8.95634e-18
6863.31577 9.61282e-18
6864.04948 1.01700e-17
6864.78319 1.07192e-17
6865.51691 1.00570e-17
6866.25062 9.29732e-18
6866.98434 9.06487e-18
6867.71805 8.87492e-18
6868.45176 9.02954e-18
6869.18548 9.21191e-18
6869.92953 9.41407e-18
6870.66324 9.61780e-18
6871.39695 9.30547e-18
6872.13067 8.95151e-18
6872.86438 8.81470e-18
6873.59810 8.69543e-18
6874.33181 8.61918e-18
6875.06552 8.54640e-18
6875.80957 9.01133e-18
6876.54329 9.51963e-18
6877.27700 9.76558e-18
6878.01071 9.99033e-18
6878.74443 1.00409e-17
6879.47814 1.00774e-17
6880.21186 1.02307e-17
6880.94557 1.03934e-17
6881.67928 1.01193e-17
6882.42333 9.80989e-18
6883.15705 9.59988e-18
6883.89076 9.39793e-18
6884.62447 9.03630e-18
6885.35819 8.66176e-18
6886.09190 8.54962e-18
6886.82562 8.45876e-18
6887.55933 8.87803e-18
6888.29304 9.33861e-18
6889.03709 9.66897e-18
6889.77081 9.98876e-18
6890.50452 9.86299e-18
6891.23823 9.70106e-18
6891.97195 9.29693e-18
6892.70566 8.87316e-18
6893.43938 8.51855e-18
6894.17309 8.16957e-18
6894.91714 8.61415e-18
6895.65085 9.12314e-18
6896.38457 9.44701e-18
6897.11828 9.75580e-18
6897.85199 9.91397e-18
6898.58571 1.00599e-17
6899.31942 9.97346e-18
6900.05314 9.86814e-18
6900.78685 9.38367e-18
6901.53090 8.86838e-18
6902.26461 9.45550e-18
6902.99833 1.01324e-17
6903.73204 1.00951e-17
6904.46575 9.99949e-18
6905.19947 9.71761e-18
6905.93318 9.42057e-18
6906.66690 9.25451e-18
6907.40061 9.09915e-18
6908.14466 8.85884e-18
6908.87837 8.61161e-18
6909.61209 8.73468e-18
6910.34580 8.88799e-18
6911.07951 9.23370e-18
6911.81323 9.59511e-18
6912.54694 9.71657e-18
6913.28066 9.81841e-18
6914.02470 9.14490e-18
6914.75842 8.40810e-18
6915.49213 8.60180e-18
6916.22585 8.87163e-18
6916.95956 8.54804e-18
6917.69327 8.17590e-18
6918.42699 8.82039e-18
6919.16070 9.54803e-18
6919.89442 9.62193e-18
6920.63846 9.64233e-18
6921.37218 9.92723e-18
6922.10589 1.02338e-17
6922.83961 1.02056e-17
6923.57332 1.01774e-17
6924.30703 1.01493e-17
6925.04075 1.01211e-17
6925.77446 1.00929e-17
6926.50818 1.00647e-17
6927.25222 1.00366e-17
6927.98594 1.00084e-17
6928.71965 9.98021e-18
6929.45337 9.95205e-18
6930.18708 9.92388e-18
6930.92079 9.89572e-18
6931.65451 9.86755e-18
6932.38822 9.83938e-18
6933.12194 9.81123e-18
6933.86598 9.78309e-18
6934.59970 9.75493e-18
6935.33341 9.72678e-18
6936.06713 9.69865e-18
6936.80084 9.67049e-18
6937.53455 9.64037e-18
6938.26827 9.61023e-18
6939.00198 9.58011e-18
6939.73570 9.54999e-18
6940.47974 9.51985e-18
6941.21346 9.48972e-18
6941.94717 9.45961e-18
6942.68089 9.42949e-18
6943.41460 9.39938e-18
6944.14831 9.36928e-18
6944.88203 9.33916e-18
6945.61574 9.30906e-18
6946.35979 9.27897e-18
6947.09350 9.24885e-18
6947.82722 9.21876e-18
6948.56093 9.18866e-18
6949.29465 9.15857e-18
6950.02836 9.12849e-18
6950.76207 9.09837e-18
6951.49579 9.06829e-18
6952.22950 9.03821e-18
6952.97355 9.00812e-18
6953.70726 8.97805e-18
6954.44098 8.94798e-18
6955.17469 8.91790e-18
6955.90841 8.88783e-18
6956.64212 8.85777e-18
6957.37583 8.82769e-18
6958.10955 8.79764e-18
6958.84326 8.76759e-18
6959.58731 8.73751e-18
6960.32102 8.70747e-18
6961.05474 8.67738e-18
6961.78845 8.64733e-18
6962.52217 8.61729e-18
6963.25588 8.58723e-18
6963.98959 8.55720e-18
6964.72331 8.52716e-18
6965.46736 8.49711e-18
6966.20107 8.46708e-18
6966.93478 8.43706e-18
6967.66850 8.40701e-18
6968.40221 8.37699e-18
6969.13593 8.34697e-18
6969.86964 8.31693e-18
6970.60335 8.28690e-18
6971.33707 8.25687e-18
6972.08112 8.22686e-18
6972.81483 8.19685e-18
6973.54854 8.16682e-18
6974.28226 8.13682e-18
6975.01597 8.10682e-18
6975.74969 8.41107e-18
6976.48340 8.77525e-18
6977.21711 8.88236e-18
6977.95083 8.96801e-18
6978.69488 9.04448e-18
6979.42859 9.12018e-18
6980.16230 8.69238e-18
6980.89602 8.22259e-18
6981.62973 8.50154e-18
6982.36345 8.84294e-18
6983.09716 9.11605e-18
6983.83087 9.38342e-18
6984.57492 9.11201e-18
6985.30864 8.79559e-18
6986.04235 8.69802e-18
6986.77606 8.61876e-18
6987.50978 8.51725e-18
6988.24349 8.41389e-18
6988.97721 8.63801e-18
6989.71092 8.88955e-18
6990.44463 8.93650e-18
6991.18868 8.96632e-18
6991.92240 8.90995e-18
6992.65611 8.84637e-18
6993.38982 8.90819e-18
6994.12354 8.98050e-18
6994.85725 8.86924e-18
6995.59097 8.74258e-18
6996.32468 8.94391e-18
6997.05839 9.17274e-18
6997.80244 9.11593e-18
6998.53616 9.03515e-18
6999.26987 9.01564e-18
7000.00358 9.00128e-18
7000.73730 9.32408e-18
7001.47101 9.67520e-18
7002.20473 9.58910e-18
7002.93844 9.46624e-18
7003.67215 9.54814e-18
7004.41620 9.64725e-18
7005.14992 9.32732e-18
7005.88363 8.97219e-18
7006.61734 8.28816e-18
7007.35106 7.57653e-18
7008.08477 7.54102e-18
7008.81849 7.56247e-18
7009.55220 8.07132e-18
7010.29625 8.62118e-18
7011.02996 8.25895e-18
7011.76368 7.81992e-18
7012.49739 8.16597e-18
7013.23110 8.57813e-18
7013.96482 8.40712e-18
7014.69853 8.18691e-18
7015.43225 8.47566e-18
7016.16596 8.80734e-18
7016.91001 8.25916e-18
7017.64372 7.63676e-18
7018.37744 7.48405e-18
7019.11115 7.37099e-18
7019.84486 7.34477e-18
7020.57858 7.32590e-18
7021.31229 7.58755e-18
7022.04601 7.87290e-18
7022.77972 8.00370e-18
7023.52377 8.12142e-18
7024.25748 8.34921e-18
7024.99120 8.58628e-18
7025.72491 8.65995e-18
7026.45862 8.71977e-18
7027.19234 8.99233e-18
7027.92605 9.28289e-18
7028.65977 9.04518e-18
7029.40381 8.76274e-18
7030.13753 8.04251e-18
7030.87124 7.28525e-18
7031.60496 7.10235e-18
7032.33867 6.96822e-18
7033.07238 7.40714e-18
7033.80610 7.89465e-18
7034.53981 8.24986e-18
7035.27353 8.59381e-18
7036.01757 8.62789e-18
7036.75129 8.63567e-18
7037.48500 8.50088e-18
7038.21872 8.35399e-18
7038.95243 8.49157e-18
7039.68614 8.65332e-18
7040.41986 8.83271e-18
7041.15357 9.01360e-18
7041.88729 9.00716e-18
7042.63133 8.98480e-18
7043.36505 8.99125e-18
7044.09876 9.00016e-18
7044.83248 8.54393e-18
7045.56619 8.04811e-18
7046.29990 8.18193e-18
7047.03362 8.36939e-18
7047.76733 8.31786e-18
7048.51138 8.24597e-18
7049.24509 7.95039e-18
7049.97881 7.63577e-18
7050.71252 7.39036e-18
7051.44624 7.15087e-18
7052.17995 7.37688e-18
7052.91366 7.64261e-18
7053.64738 7.72777e-18
7054.38109 7.79751e-18
7055.12514 7.81621e-18
7055.85885 7.83055e-18
7056.59257 7.70297e-18
7057.32628 7.56326e-18
7058.06000 7.55016e-18
7058.79371 7.54789e-18
7059.52742 7.94209e-18
7060.26114 8.37017e-18
7060.99485 8.71970e-18
7061.73890 9.06249e-18
7062.47261 9.08904e-18
7063.20633 9.08849e-18
7063.94004 8.89426e-18
7064.67376 8.68344e-18
7065.40747 8.59526e-18
7066.14118 8.51760e-18
7066.87490 8.25761e-18
7067.60861 7.98203e-18
7068.35266 7.83364e-18
7069.08637 7.69618e-18
7069.82009 7.98373e-18
7070.55380 8.30773e-18
7071.28752 8.36188e-18
7072.02123 8.39286e-18
7072.75494 8.42111e-18
7073.48866 8.44913e-18
7074.22237 8.92718e-18
7074.96642 9.44381e-18
7075.70013 9.22159e-18
7076.43385 8.93585e-18
7077.16756 8.60375e-18
7077.90128 8.26770e-18
7078.63499 7.94259e-18
7079.36870 7.61845e-18
7080.10242 7.58169e-18
7080.84647 7.56964e-18
7081.58018 7.81758e-18
7082.31389 8.08789e-18
7083.04761 8.18913e-18
7083.78132 8.27579e-18
7084.51504 8.34786e-18
7085.24875 8.41866e-18
7085.98246 8.79394e-18
7086.71618 9.19542e-18
7087.46023 9.22616e-18
7088.19394 9.22488e-18
7088.92765 9.00269e-18
7089.66137 8.76145e-18
7090.39508 8.45906e-18
7091.12880 8.15141e-18
7091.86251 8.38095e-18
7092.59622 8.65685e-18
7093.32994 8.52135e-18
7094.07399 8.35027e-18
7094.80770 8.42037e-18
7095.54141 8.51132e-18
7096.27513 8.92671e-18
7097.00884 9.37014e-18
7097.74256 9.34880e-18
7098.47627 9.28727e-18
7099.20998 9.08148e-18
7099.95403 8.86321e-18
7100.68775 9.13354e-18
7101.42146 9.44617e-18
7102.15517 9.02762e-18
7102.88889 8.54576e-18
7103.62260 8.28744e-18
7104.35632 8.04851e-18
7105.09003 8.00689e-18
7105.82374 7.98238e-18
7106.56779 8.21722e-18
7107.30151 8.47456e-18
7108.03522 8.32988e-18
7108.76893 8.15031e-18
7109.50265 7.98382e-18
7110.23636 7.81847e-18
7110.97008 8.21651e-18
7111.70379 8.66342e-18
7112.43750 8.86577e-18
7113.18155 9.04685e-18
7113.91527 8.94331e-18
7114.64898 8.81503e-18
7115.38269 8.45252e-18
7116.11641 8.06966e-18
7116.85012 7.73705e-18
7117.58384 7.40884e-18
7118.31755 7.55327e-18
7119.06160 7.73887e-18
7119.79531 8.16416e-18
7120.52903 8.61030e-18
7121.26274 8.76354e-18
7121.99645 8.89126e-18
7122.73017 8.64815e-18
7123.46388 8.37276e-18
7124.19760 8.45004e-18
7124.93131 8.55809e-18
7125.67536 8.43153e-18
7126.40907 8.28451e-18
7127.14279 8.31823e-18
7127.87650 8.36772e-18
7128.61021 8.79683e-18
7129.34393 9.25904e-18
7130.07764 8.61850e-18
7130.81136 7.88158e-18
7131.54507 7.91063e-18
7132.28912 8.00665e-18
7133.02283 8.36501e-18
7133.75655 8.74630e-18
7134.49026 8.44421e-18
7135.22397 8.08239e-18
7135.95769 7.90543e-18
7136.69140 7.74468e-18
7137.42512 7.56185e-18
7138.16916 7.37709e-18
7138.90288 7.57761e-18
7139.63659 7.81186e-18
7140.37031 7.68285e-18
7141.10402 7.52202e-18
7141.83773 8.28162e-18
7142.57145 9.12179e-18
7143.30516 9.44248e-18
7144.03888 9.71755e-18
7144.77259 9.37867e-18
7145.51664 8.98592e-18
7146.25035 8.60390e-18
7146.98407 8.22286e-18
7147.71778 8.00849e-18
7148.45149 7.80876e-18
7149.18521 7.94783e-18
7149.91892 8.11667e-18
7150.65264 7.89885e-18
7151.39668 7.64706e-18
7152.13040 7.57062e-18
7152.86411 7.50960e-18
7153.59783 7.73448e-18
7154.33154 7.98447e-18
7155.06525 7.55465e-18
7155.79897 7.06500e-18
7156.53268 6.79112e-18
7157.26640 6.53627e-18
7158.01044 7.15710e-18
7158.74416 7.85501e-18
7159.47787 8.34012e-18
7160.21159 8.80646e-18
7160.94530 8.17851e-18
7161.67901 7.45403e-18
7162.41273 7.68629e-18
7163.14644 8.00296e-18
7163.89049 8.47377e-18
7164.62420 8.95815e-18
7165.35792 8.88777e-18
7166.09163 8.76844e-18
7166.82535 8.43384e-18
7167.55906 8.08024e-18
7168.29277 8.09202e-18
7169.02649 8.13610e-18
7169.76020 8.41697e-18
7170.50425 8.71875e-18
7171.23796 8.30082e-18
7171.97168 7.81930e-18
7172.70539 8.06226e-18
7173.43911 8.36924e-18
7174.17282 8.69428e-18
7174.90653 9.02089e-18
7175.64025 8.86573e-18
7176.38430 8.66792e-18
7177.11801 8.05930e-18
7177.85172 7.41435e-18
7178.58544 7.90374e-18
7179.31915 8.49356e-18
7180.05287 8.32646e-18
7180.78658 8.09221e-18
7181.52029 8.06831e-18
7182.25401 8.06308e-18
7182.98772 7.96762e-18
7183.73177 7.86417e-18
7184.46548 7.65375e-18
7185.19920 7.43385e-18
7185.93291 7.61339e-18
7186.66663 7.82841e-18
7187.40034 7.68078e-18
7188.13405 7.50091e-18
7188.86777 7.90555e-18
7189.61182 8.36211e-18
7190.34553 8.27417e-18
7191.07924 8.13782e-18
7191.81296 8.16696e-18
7192.54667 8.21084e-18
7193.28039 8.65538e-18
7194.01410 9.13556e-18
7194.74781 8.76020e-18
7195.48153 8.30868e-18
7196.22558 7.91983e-18
7196.95929 7.53660e-18
7197.69300 7.60523e-18
7198.42672 7.71417e-18
7199.16043 8.13674e-18
7199.89415 8.58726e-18
7200.62786 8.49472e-18
7201.36157 8.35375e-18
7202.09529 8.09504e-18
7202.83934 7.82586e-18
7203.57305 7.92294e-18
7204.30676 8.05270e-18
7205.04048 8.22404e-18
7205.77419 8.39909e-18
7206.50791 8.21761e-18
7207.24162 8.00428e-18
7207.97533 7.90193e-18
7208.71938 7.80950e-18
7209.45310 7.45747e-18
7210.18681 7.08227e-18
7210.92052 7.07676e-18
7211.65424 7.10435e-18
7212.38795 7.32510e-18
7213.12167 7.56312e-18
7213.85538 7.89627e-18
7214.58909 8.23791e-18
7215.33314 8.27906e-18
7216.06686 8.29331e-18
7216.80057 8.23902e-18
7217.53428 8.17858e-18
7218.26800 8.13634e-18
7219.00171 8.09573e-18
7219.73543 8.03427e-18
7220.46914 7.97095e-18
7221.20285 7.59429e-18
7221.94690 7.18956e-18
7222.68062 7.27475e-18
7223.41433 7.40397e-18
7224.14804 7.64816e-18
7224.88176 7.90267e-18
7225.61547 8.09691e-18
7226.34919 8.28571e-18
7227.08290 7.99626e-18
7227.81661 7.66387e-18
7228.56066 7.80433e-18
7229.29438 7.98734e-18
7230.02809 7.93388e-18
7230.76180 7.85914e-18
7231.49552 7.74342e-18
7232.22923 7.62404e-18
7232.96295 7.47850e-18
7233.69666 7.33062e-18
7234.44071 7.68177e-18
7235.17442 8.07790e-18
7235.90814 8.51674e-18
7236.64185 8.95941e-18
7237.37556 8.54794e-18
7238.10928 8.05949e-18
7238.84299 8.43476e-18
7239.57671 8.88789e-18
7240.31042 9.17751e-18
7241.05447 9.45236e-18
7241.78818 8.98882e-18
7242.52190 8.45861e-18
7243.25561 7.82119e-18
7243.98932 7.17414e-18
7244.72304 7.51198e-18
7245.45675 7.93878e-18
7246.19047 8.22526e-18
7246.93451 8.49905e-18
7247.66823 7.79300e-18
7248.40194 6.99832e-18
7249.13566 6.82947e-18
7249.86937 6.71727e-18
7250.60308 6.74541e-18
7251.33680 6.78624e-18
7252.07051 7.07114e-18
7252.80423 7.37811e-18
7253.53794 7.53002e-18
7254.28199 7.66786e-18
7255.01570 7.20007e-18
7255.74942 6.67742e-18
7256.48313 6.93572e-18
7257.21684 7.26481e-18
7257.95056 7.75150e-18
7258.68427 8.25244e-18
7259.41799 8.06696e-18
7260.16203 7.81914e-18
7260.89575 7.83976e-18
7261.62946 7.88477e-18
7262.36318 7.83936e-18
7263.09689 7.78575e-18
7263.83060 7.61255e-18
7264.56432 7.42850e-18
7265.29803 7.35765e-18
7266.03175 7.29712e-18
7266.77579 7.46730e-18
7267.50951 7.65846e-18
7268.24322 7.43288e-18
7268.97694 7.16939e-18
7269.71065 7.23912e-18
7270.44436 7.33918e-18
7271.17808 7.36841e-18
7271.91179 7.39119e-18
7272.64551 7.69164e-18
7273.38955 8.01739e-18
7274.12327 8.22007e-18
7274.85698 8.41151e-18
7275.59070 8.32370e-18
7276.32441 8.21045e-18
7277.05812 7.86236e-18
7277.79184 7.49289e-18
7278.52555 8.00483e-18
7279.26960 8.59721e-18
7280.00331 8.05116e-18
7280.73703 7.40120e-18
7281.47074 7.14103e-18
7282.20446 6.91647e-18
7282.93817 6.86484e-18
7283.67188 6.82900e-18
7284.40560 6.96667e-18
7285.13931 7.12019e-18
7285.88336 7.33625e-18
7286.61707 7.55802e-18
7287.35079 7.57826e-18
7288.08450 7.58006e-18
7288.81822 7.63378e-18
7289.55193 7.69225e-18
7290.28564 7.85542e-18
7291.01936 8.02818e-18
7291.75307 7.84224e-18
7292.49712 7.62343e-18
7293.23083 7.63434e-18
7293.96455 7.66630e-18
7294.69826 7.64520e-18
7295.43198 7.61924e-18
7296.16569 7.75174e-18
7296.89940 7.89878e-18
7297.63312 7.98450e-18
7298.37717 8.06459e-18
7299.11088 8.00313e-18
7299.84459 7.92867e-18
7300.57831 8.23650e-18
7301.31202 8.57940e-18
7302.04574 8.26358e-18
7302.77945 7.88730e-18
7303.51316 7.95688e-18
7304.24688 8.06745e-18
7304.99093 8.07976e-18
7305.72464 8.08304e-18
7306.45835 7.77845e-18
7307.19207 7.44557e-18
7307.92578 7.66184e-18
7308.65950 7.92861e-18
7309.39321 8.01381e-18
7310.12692 8.08228e-18
7310.86064 8.31159e-18
7311.60469 8.55570e-18
7312.33840 8.53368e-18
7313.07211 8.48714e-18
7313.80583 8.27513e-18
7314.53954 8.04789e-18
7315.27326 7.76942e-18
7316.00697 7.48624e-18
7316.74068 7.64803e-18
7317.48473 7.85087e-18
7318.21845 7.37449e-18
7318.95216 6.83546e-18
7319.68587 7.46259e-18
7320.41959 8.19729e-18
7321.15330 8.22807e-18
7321.88702 8.19378e-18
7322.62073 8.11885e-18
7323.35444 8.04016e-18
7324.09849 7.91545e-18
7324.83221 7.78649e-18
7325.56592 8.33914e-18
7326.29963 8.95476e-18
7327.03335 8.42453e-18
7327.76706 7.78823e-18
7328.50078 7.27653e-18
7329.23449 6.77641e-18
7329.96820 6.92245e-18
7330.71225 7.12832e-18
7331.44597 7.11810e-18
7332.17968 7.08788e-18
7332.91339 7.09147e-18
7333.64711 7.09820e-18
7334.38082 7.38468e-18
7335.11454 7.69708e-18
7335.84825 8.11078e-18
7336.58196 8.53384e-18
7337.32601 8.50863e-18
7338.05973 8.44183e-18
7338.79344 8.63982e-18
7339.52715 8.86235e-18
7340.26087 8.65104e-18
7340.99458 8.39942e-18
7341.72830 8.02039e-18
7342.46201 7.62954e-18
7343.20606 7.56122e-18
7343.93977 7.52288e-18
7344.67349 7.47455e-18
7345.40720 7.42529e-18
7346.14091 7.27834e-18
7346.87463 7.12231e-18
7347.60834 7.09589e-18
7348.34206 7.08154e-18
7349.07577 7.47813e-18
7349.81982 7.91295e-18
7350.55353 7.96655e-18
7351.28725 7.98466e-18
7352.02096 7.40859e-18
7352.75467 6.77714e-18
7353.48839 6.86898e-18
7354.22210 7.02827e-18
7354.95582 7.15333e-18
7355.68953 7.27519e-18
7356.43358 8.03991e-18
7357.16729 8.86453e-18
7357.90101 9.00950e-18
7358.63472 9.09096e-18
7359.36843 8.55772e-18
7360.10215 7.96708e-18
7360.83586 7.86706e-18
7361.56958 7.81288e-18
7362.30329 7.86620e-18
7363.04734 7.92955e-18
7363.78105 7.96498e-18
7364.51477 7.99780e-18
7365.24848 8.16311e-18
7365.98219 8.34080e-18
7366.71591 8.32358e-18
7367.44962 8.28811e-18
7368.18334 7.97893e-18
7368.92738 7.64415e-18
7369.66110 7.53009e-18
7370.39481 7.43669e-18
7371.12853 7.43694e-18
7371.86224 7.44597e-18
7372.59595 7.62452e-18
7373.32967 7.81895e-18
7374.06338 7.97032e-18
7374.79710 8.11765e-18
7375.54114 7.97191e-18
7376.27486 7.79871e-18
7377.00857 7.36410e-18
7377.74229 6.90498e-18
7378.47600 7.04846e-18
7379.20971 7.24851e-18
7379.94343 7.56719e-18
7380.67714 7.89698e-18
7381.42119 7.95933e-18
7382.15490 7.99657e-18
7382.88862 8.07299e-18
7383.62233 8.15310e-18
7384.35605 8.17316e-18
7385.08976 8.18756e-18
7385.82347 7.93218e-18
7386.55719 7.65145e-18
7387.29090 7.97262e-18
7388.03495 8.35038e-18
7388.76866 8.20350e-18
7389.50238 8.00719e-18
7390.23609 7.51660e-18
7390.96981 6.99830e-18
7391.70352 7.26798e-18
7392.43723 7.61190e-18
7393.17095 7.32281e-18
7393.90466 6.97409e-18
7394.64871 7.02414e-18
7395.38242 7.11183e-18
7396.11614 7.71175e-18
7396.84985 8.35997e-18
7397.58357 7.85581e-18
7398.31728 7.24291e-18
7399.05099 6.99172e-18
7399.78471 6.77469e-18
7400.51842 7.28623e-18
7401.26247 7.86662e-18
7401.99618 7.56579e-18
7402.72990 7.18164e-18
7403.46361 7.50366e-18
7404.19733 7.89243e-18
7404.93104 7.71128e-18
7405.66475 7.47625e-18
7406.39847 7.28679e-18
7407.13218 7.10165e-18
7407.87623 7.18377e-18
7408.60994 7.29120e-18
7409.34366 7.14520e-18
7410.07737 6.97521e-18
7410.81109 7.04463e-18
7411.54480 7.13673e-18
7412.27851 7.45080e-18
7413.01223 7.78586e-18
7413.75628 7.91312e-18
7414.48999 8.02066e-18
7415.22370 7.63441e-18
7415.95742 7.20134e-18
7416.69113 7.11205e-18
7417.42485 7.05538e-18
7418.15856 6.58412e-18
7418.89227 6.07357e-18
7420.00190 6.07357e-18
7421.99875 6.28840e-18
7423.99560 6.28915e-18
7426.00264 6.12279e-18
7427.99948 6.10245e-18
7429.99633 6.11774e-18
7432.00337 6.15374e-18
7434.00022 6.21287e-18
7435.99706 6.28917e-18
7438.00410 6.44788e-18
7440.00095 6.70422e-18
7441.99780 6.67507e-18
7444.00483 6.33475e-18
7446.00168 6.19290e-18
7447.99853 6.19239e-18
7449.99538 6.24011e-18
7452.00241 6.30284e-18
7453.99926 6.39923e-18
7455.99611 6.36661e-18
7458.00314 6.13457e-18
7459.99999 6.11626e-18
7461.99684 6.30417e-18
7464.00388 6.46336e-18
7466.00072 6.51185e-18
7467.99757 6.50064e-18
7470.00461 6.41176e-18
7472.00146 6.11748e-18
7473.99830 6.07820e-18
7475.99515 6.25835e-18
7478.00219 6.38518e-18
7479.99904 6.32287e-18
7481.99588 6.23458e-18
7484.00292 6.29871e-18
7485.99977 6.59944e-18
7487.99662 6.47901e-18
7490.00365 5.93308e-18
7492.00050 5.63486e-18
7493.99735 5.67053e-18
7496.00438 5.84937e-18
7498.00123 5.94159e-18
7499.99808 6.05879e-18
7501.99493 6.13663e-18
7504.00196 6.17598e-18
7505.99881 6.19765e-18
7507.99566 6.21130e-18
7510.00270 6.23450e-18
7511.99954 6.29566e-18
7513.99639 6.41064e-18
7516.00343 6.40850e-18
7518.00028 6.26004e-18
7519.99712 6.16973e-18
7522.00416 6.11982e-18
7524.00101 6.08512e-18
7525.99786 6.08298e-18
7527.99470 6.10535e-18
7530.00174 6.06230e-18
7531.99859 5.89893e-18
7533.99544 5.86636e-18
7536.00247 5.94621e-18
7537.99932 6.00885e-18
7539.99617 6.01513e-18
7542.00320 6.01347e-18
7544.00005 6.02756e-18
7545.99690 6.09232e-18
7548.00394 6.03137e-18
7550.00078 5.81033e-18
7551.99763 5.67377e-18
7554.00467 5.60575e-18
7556.00152 5.61772e-18
7557.99836 5.77439e-18
7559.99521 6.16152e-18
7562.00225 6.19390e-18
7563.99910 5.88752e-18
7565.99594 5.72060e-18
7568.00298 5.71913e-18
7569.99983 5.74351e-18
7571.99668 5.63214e-18
7574.00371 5.43901e-18
7576.00056 5.44945e-18
7577.99741 5.75805e-18
7580.00444 5.79035e-18
7582.00129 5.48261e-18
7583.99814 5.22477e-18
7585.99499 5.25463e-18
7588.00202 5.47484e-18
7589.99887 5.59295e-18
7591.99572 5.69490e-18
7594.00276 5.78314e-18
7595.99960 5.77013e-18
7597.99645 5.83320e-18
7600.00349 6.12953e-18
7602.00034 6.50998e-18
7603.99718 6.46464e-18
7606.00422 5.96984e-18
7608.00107 5.78118e-18
7609.99792 5.70702e-18
7612.00495 5.70871e-18
7614.00180 5.80513e-18
7615.99865 5.93807e-18
7617.99550 6.01559e-18
7620.00253 5.91828e-18
7621.99938 6.19445e-18
7623.99623 7.10315e-18
7626.00326 7.42387e-18
7628.00011 6.94728e-18
7629.99696 6.25548e-18
7632.00400 5.93160e-18
7634.00084 5.73174e-18
7635.99769 5.54361e-18
7638.00473 5.32855e-18
7640.00158 5.32645e-18
7641.99842 5.63577e-18
7643.99527 5.95425e-18
7646.00231 5.99819e-18
7647.99916 5.90624e-18
7649.99600 5.82795e-18
7652.00304 5.58048e-18
7653.99989 5.50735e-18
7655.99674 5.58366e-18
7658.00377 5.70379e-18
7660.00062 5.85173e-18
7661.99747 6.04022e-18
7664.00450 6.05700e-18
7666.00135 5.94627e-18
7667.99820 5.80835e-18
7669.99505 5.59507e-18
7672.00208 5.39530e-18
7673.99893 5.21102e-18
7675.99578 5.06723e-18
7678.00282 5.04341e-18
7679.99966 5.15231e-18
7681.99651 5.34303e-18
7684.00355 5.69407e-18
7686.00040 5.97010e-18
7687.99724 6.18128e-18
7690.00428 6.32392e-18
7692.00113 6.30923e-18
7693.99798 6.11276e-18
7695.99482 6.04877e-18
7698.00186 6.05985e-18
7699.99871 6.04591e-18
7701.99556 6.04187e-18
7704.00259 5.99815e-18
7705.99944 5.82363e-18
7707.99629 5.51921e-18
7710.00332 5.60230e-18
7712.00017 6.17952e-18
7713.99702 6.33123e-18
7716.00406 6.08231e-18
7718.00090 5.83249e-18
7719.99775 5.72917e-18
7722.00479 5.67010e-18
7724.00164 5.75785e-18
7725.99848 6.10906e-18
7727.99533 6.19947e-18
7730.00237 6.09704e-18
7731.99922 5.98883e-18
7733.99606 5.85458e-18
7736.00310 5.74970e-18
7737.99995 5.82379e-18
7739.99680 6.10461e-18
7742.00383 6.29598e-18
7744.00068 6.60829e-18
7745.99753 6.67658e-18
7748.00456 6.37702e-18
7750.00141 5.93032e-18
7751.99826 5.69557e-18
7753.99511 5.48638e-18
7756.00214 5.56296e-18
7757.99899 6.11266e-18
7759.99584 6.39079e-18
7762.00288 6.40650e-18
7763.99972 6.26827e-18
7765.99657 5.93101e-18
7768.00361 5.31129e-18
7770.00046 5.18443e-18
7771.99730 5.41824e-18
7774.00434 5.60305e-18
7776.00119 5.87814e-18
7777.99804 6.07741e-18
7780.00507 6.10384e-18
7782.00192 5.98967e-18
7783.99877 5.90347e-18
7785.99562 5.70365e-18
7788.00265 5.63655e-18
7789.99950 5.69016e-18
7791.99635 5.79480e-18
7794.00338 5.98167e-18
7796.00023 6.21815e-18
7797.99708 6.22371e-18
7800.00412 5.88281e-18
7802.00096 5.85198e-18
7803.99781 6.04427e-18
7806.00485 6.16071e-18
7808.00170 6.14881e-18
7809.99854 6.04058e-18
7811.99539 5.97491e-18
7814.00243 5.82251e-18
7815.99928 5.97288e-18
7817.99612 6.51243e-18
7820.00316 6.81029e-18
7822.00001 6.84530e-18
7823.99686 6.72611e-18
7826.00389 6.39937e-18
7828.00074 5.75948e-18
7829.99759 5.55031e-18
7832.00462 5.59488e-18
7834.00147 5.73178e-18
7835.99832 6.12066e-18
7837.99517 6.43714e-18
7840.00220 6.34552e-18
7841.99905 5.96309e-18
7843.99590 5.70919e-18
7846.00294 5.34415e-18
7847.99978 5.20813e-18
7849.99663 5.19281e-18
7852.00367 5.37031e-18
7854.00052 5.84497e-18
7855.99736 6.46938e-18
7858.00440 6.68378e-18
7860.00125 6.67046e-18
7861.99810 6.49105e-18
7863.99494 5.98317e-18
7866.00198 5.56470e-18
7867.99883 5.36189e-18
7869.99568 5.27825e-18
7872.00271 5.25983e-18
7873.99956 5.43031e-18
7875.99641 5.47283e-18
7878.00344 5.44643e-18
7880.00029 5.47370e-18
7881.99714 5.54866e-18
7884.00418 5.61716e-18
7886.00102 5.67545e-18
7887.99787 5.67444e-18
7889.99472 5.74163e-18
7892.00176 5.91851e-18
7893.99860 6.00471e-18
7895.99545 6.07649e-18
7898.00249 6.07646e-18
7899.99934 5.88053e-18
7901.99618 5.48504e-18
7904.00322 5.28377e-18
7906.00007 5.15577e-18
7907.99692 5.19158e-18
7910.00395 5.43729e-18
7912.00080 5.68589e-18
7913.99765 5.85438e-18
7916.00468 5.98938e-18
7918.00153 5.92622e-18
7919.99838 5.57602e-18
7921.99523 5.48118e-18
7924.00226 5.47698e-18
7925.99911 5.63162e-18
7927.99596 6.06096e-18
7930.00300 6.62272e-18
7931.99984 6.67413e-18
7933.99669 6.24688e-18
7936.00373 6.00231e-18
7938.00058 5.59223e-18
7939.99742 5.40534e-18
7942.00446 5.60349e-18
7944.00131 5.95091e-18
7945.99816 6.05233e-18
7947.99500 6.06903e-18
7950.00204 6.03422e-18
7951.99889 5.85492e-18
7953.99574 5.80950e-18
7956.00277 6.04909e-18
7957.99962 6.26125e-18
7959.99647 6.06260e-18
7962.00350 5.53866e-18
7964.00035 5.42467e-18
7965.99720 5.56501e-18
7968.00424 5.62897e-18
7970.00108 5.66520e-18
7971.99793 5.71834e-18
7973.99478 5.76429e-18
7976.00182 5.81660e-18
7977.99866 5.78057e-18
7979.99551 5.59708e-18
7982.00255 5.51909e-18
7983.99940 5.46193e-18
7985.99624 5.50460e-18
7988.00328 5.80797e-18
7990.00013 6.25851e-18
7991.99698 6.25828e-18
7994.00401 5.86199e-18
7996.00086 5.61312e-18
7997.99771 5.24329e-18
8000.00474 5.05231e-18
8002.00159 5.21468e-18
8003.99844 5.52852e-18
8005.99529 5.71646e-18
8008.00232 5.98595e-18
8009.99917 6.04709e-18
8011.99602 5.94453e-18
8014.00306 5.76558e-18
8015.99990 5.50277e-18
8017.99675 5.19860e-18
8020.00379 4.95054e-18
8022.00064 4.60553e-18
8023.99748 4.71667e-18
8026.00452 5.46778e-18
8028.00137 5.80723e-18
8029.99822 5.57545e-18
8031.99506 5.28912e-18
8034.00210 5.39391e-18
8035.99895 5.70114e-18
8037.99580 5.73842e-18
8040.00283 5.55118e-18
8041.99968 5.48529e-18
8043.99653 5.53020e-18
8046.00356 5.59643e-18
8048.00041 5.62249e-18
8049.99726 5.64847e-18
8052.00430 5.73857e-18
8054.00114 6.00394e-18
8055.99799 6.03532e-18
8057.99484 5.83432e-18
8060.00188 5.67089e-18
8061.99872 5.61647e-18
8063.99557 5.59700e-18
8066.00261 5.58841e-18
8067.99946 5.64885e-18
8069.99630 5.67200e-18
8072.00334 5.64213e-18
8074.00019 5.68543e-18
8075.99704 5.95410e-18
8078.00407 6.23933e-18
8080.00092 6.08818e-18
8081.99777 5.51332e-18
8084.00480 5.34102e-18
8086.00165 5.42564e-18
8087.99850 5.45959e-18
8089.99535 5.44508e-18
8092.00238 5.42075e-18
8093.99923 5.33149e-18
8095.99608 5.17200e-18
8098.00312 5.16252e-18
8099.99996 5.27786e-18
8101.99681 5.38316e-18
8104.00385 5.52009e-18
8106.00070 5.64963e-18
8107.99754 5.71583e-18
8110.00458 5.74895e-18
8112.00143 5.82060e-18
8113.99828 6.02758e-18
8115.99512 6.00752e-18
8118.00216 5.72916e-18
8119.99901 5.47657e-18
8121.99586 5.42427e-18
8124.00289 5.44075e-18
8125.99974 5.25536e-18
8127.99659 4.74651e-18
8130.00362 4.68795e-18
8132.00047 4.99671e-18
8133.99732 5.26360e-18
8136.00436 5.40589e-18
8138.00120 5.51865e-18
8139.99805 5.66527e-18
8141.99490 5.83902e-18
8144.00194 5.86840e-18
8145.99878 5.70893e-18
8147.99563 5.66355e-18
8150.00267 5.79061e-18
8151.99952 5.96765e-18
8153.99636 6.02636e-18
8156.00340 6.03671e-18
8158.00025 6.01707e-18
8159.99710 5.96982e-18
8162.00413 5.81472e-18
8164.00098 5.37273e-18
8165.99783 5.05869e-18
8167.99468 5.35768e-18
8170.00171 6.11262e-18
8171.99856 6.33564e-18
8173.99541 6.26002e-18
8176.00244 6.25222e-18
8177.99929 6.26000e-18
8179.99614 6.22708e-18
8182.00318 6.11863e-18
8184.00002 5.92495e-18
8185.99687 5.67216e-18
8188.00391 5.14294e-18
8190.00076 5.04102e-18
8191.99760 5.32411e-18
8194.00464 5.63711e-18
8196.00149 5.93779e-18
8197.99834 6.22096e-18
8199.99518 6.08366e-18
8202.00222 5.38432e-18
8203.99907 5.24014e-18
8205.99592 5.46598e-18
8208.00295 5.61343e-18
8209.99980 5.66604e-18
8211.99665 5.65296e-18
8214.00368 5.51122e-18
8216.00053 5.20510e-18
8217.99738 5.18909e-18
8220.00442 5.40810e-18
8222.00126 5.62176e-18
8223.99811 5.86927e-18
8225.99496 6.09387e-18
8228.00200 6.24711e-18
8229.99884 6.38891e-18
8231.99569 6.31754e-18
8234.00273 6.04528e-18
8235.99958 5.84373e-18
8237.99642 5.60609e-18
8240.00346 5.44918e-18
8242.00031 5.47315e-18
8243.99716 5.63409e-18
8246.00419 5.63944e-18
8248.00104 5.59610e-18
8249.99789 5.65602e-18
8252.00492 5.73210e-18
8254.00177 5.82625e-18
8255.99862 6.07341e-18
8257.99547 6.28069e-18
8260.00250 6.14780e-18
8261.99935 5.88390e-18
8263.99620 5.66672e-18
8266.00324 5.48104e-18
8268.00008 5.38271e-18
8269.99693 5.38952e-18
8272.00397 5.47798e-18
8274.00082 5.62348e-18
8275.99766 5.89016e-18
8278.00470 6.03291e-18
8280.00155 6.20271e-18
8281.99840 6.17922e-18
8283.99524 5.85438e-18
8286.00228 5.46430e-18
8287.99913 5.28826e-18
8289.99598 5.20160e-18
8292.00301 5.23470e-18
8293.99986 5.48193e-18
8295.99671 5.62256e-18
8298.00374 5.63746e-18
8300.00059 5.66888e-18
8301.99744 5.84321e-18
8304.00448 6.11446e-18
8306.00132 6.20201e-18
8307.99817 6.15606e-18
8309.99502 6.12087e-18
8312.00206 6.03504e-18
8313.99890 5.97596e-18
8315.99575 6.03029e-18
8318.00279 6.13256e-18
8319.99964 5.98351e-18
8321.99648 5.45398e-18
8324.00352 5.33462e-18
8326.00037 5.50328e-18
8327.99722 5.69409e-18
8330.00425 5.87091e-18
8332.00110 6.04488e-18
8333.99795 6.10045e-18
8335.99480 6.11008e-18
8338.00183 5.96055e-18
8339.99868 5.46287e-18
8341.99553 5.25799e-18
8344.00256 5.44381e-18
8345.99941 5.83756e-18
8347.99626 6.33300e-18
8350.00330 7.16171e-18
8352.00014 7.27412e-18
8353.99699 6.72615e-18
8356.00403 6.35378e-18
8358.00088 6.12711e-18
8359.99772 5.93321e-18
8362.00476 5.71553e-18
8364.00161 5.48188e-18
8365.99846 5.42487e-18
8367.99530 5.49316e-18
8370.00234 5.64690e-18
8371.99919 5.98793e-18
8373.99604 6.28665e-18
8376.00307 6.41466e-18
8377.99992 6.44035e-18
8379.99677 6.29756e-18
8382.00380 5.82989e-18
8384.00065 5.62850e-18
8385.99750 5.54045e-18
8388.00454 5.57506e-18
8390.00138 5.76307e-18
8391.99823 6.06945e-18
8393.99508 6.37595e-18
8396.00212 6.86445e-18
8397.99896 7.03602e-18
8399.99581 7.04217e-18
8402.00285 6.87681e-18
8403.99970 6.42870e-18
8405.99654 5.88972e-18
8408.00358 5.66495e-18
8410.00043 5.64425e-18
8411.99728 5.58231e-18
8414.00431 5.56331e-18
8416.00116 5.56424e-18
8417.99801 5.52940e-18
8419.99486 5.57680e-18
8422.00189 5.88694e-18
8423.99874 6.45242e-18
8425.99559 6.72512e-18
8428.00262 6.98704e-18
8429.99947 6.91696e-18
8431.99632 6.33083e-18
8434.00336 5.76940e-18
8436.00020 5.64442e-18
8437.99705 5.75979e-18
8440.00409 5.86706e-18
8442.00094 6.20923e-18
8443.99778 6.27416e-18
8446.00482 6.01684e-18
8448.00167 5.84537e-18
8449.99852 6.01000e-18
8451.99536 6.32474e-18
8454.00240 6.30007e-18
8455.99925 5.91102e-18
8457.99610 5.83797e-18
8460.00313 5.91654e-18
8461.99998 6.05768e-18
8463.99683 6.34302e-18
8466.00386 6.63309e-18
8468.00071 6.49203e-18
8469.99756 5.86940e-18
8472.00460 5.68225e-18
8474.00144 5.72285e-18
8475.99829 5.77947e-18
8477.99514 5.88693e-18
8480.00218 5.98466e-18
8481.99902 5.92358e-18
8483.99587 5.71483e-18
8486.00291 5.67035e-18
8487.99976 5.72037e-18
8489.99660 5.77383e-18
8492.00364 5.80602e-18
8494.00049 5.89502e-18
8495.99734 6.14785e-18
8498.00437 6.54873e-18
8500.00122 6.65483e-18
8501.99807 6.53965e-18
8504.00510 6.44102e-18
8506.00195 6.27148e-18
8507.99880 6.13238e-18
8509.99565 6.12077e-18
8512.00268 6.17694e-18
8513.99953 6.04819e-18
8515.99638 5.63151e-18
8518.00342 5.56404e-18
8520.00026 5.81919e-18
8521.99711 6.02010e-18
8524.00415 6.04710e-18
8526.00100 5.99556e-18
8527.99784 5.92836e-18
8529.99469 5.84790e-18
8532.00173 5.65636e-18
8533.99858 5.15670e-18
8535.99542 4.99003e-18
8538.00246 5.39092e-18
8539.99931 5.96892e-18
8541.99616 6.15199e-18
8544.00319 6.10217e-18
8546.00004 6.17246e-18
8547.99689 6.27811e-18
8550.00392 6.34141e-18
8552.00077 6.37355e-18
8553.99762 6.36334e-18
8556.00466 6.28438e-18
8558.00150 6.14085e-18
8559.99835 5.99891e-18
8561.99520 5.68746e-18
8564.00224 5.67363e-18
8565.99908 6.07285e-18
8567.99593 6.43065e-18
8570.00297 6.45073e-18
8571.99982 6.28380e-18
8573.99666 5.99913e-18
8576.00370 5.31668e-18
8578.00055 5.07202e-18
8579.99740 5.14885e-18
8582.00443 5.33654e-18
8584.00128 5.61069e-18
8585.99813 5.96341e-18
8587.99498 6.12861e-18
8590.00201 6.13723e-18
8591.99886 6.21668e-18
8593.99571 6.35454e-18
8596.00274 6.39902e-18
8597.99959 6.29652e-18
8599.99644 6.11670e-18
8602.00348 5.95997e-18
8604.00032 5.75970e-18
8605.99717 5.63634e-18
8608.00421 5.56178e-18
8610.00106 5.50957e-18
8611.99790 5.47318e-18
8613.99475 5.46750e-18
8616.00179 5.52215e-18
8617.99864 5.65619e-18
8619.99548 5.65937e-18
8622.00252 5.52038e-18
8623.99937 5.48158e-18
8625.99622 5.52844e-18
8628.00325 5.62322e-18
8630.00010 5.73875e-18
8631.99695 5.88189e-18
8634.00398 6.15449e-18
8636.00083 6.71842e-18
8637.99768 6.94448e-18
8640.00472 6.97448e-18
8642.00156 6.78061e-18
8643.99841 6.20216e-18
8645.99526 5.36870e-18
8648.00230 5.15151e-18
8649.99914 5.36494e-18
8651.99599 5.59230e-18
8654.00303 6.15837e-18
8655.99988 6.49741e-18
8657.99672 6.41961e-18
8660.00376 6.10324e-18
8662.00061 5.73160e-18
8663.99746 4.96310e-18
8665.99430 4.86657e-18
8668.00134 5.36763e-18
8669.99819 5.75194e-18
8671.99504 6.00096e-18
8674.00207 6.13860e-18
8675.99892 6.02038e-18
8677.99577 5.63944e-18
8680.00280 5.35635e-18
8681.99965 4.93737e-18
8683.99650 4.74289e-18
8686.00354 4.75805e-18
8688.00038 4.94331e-18
8689.99723 5.35544e-18
8692.00427 6.04289e-18
8694.00112 6.26284e-18
8695.99796 6.14166e-18
8698.00500 6.05550e-18
8700.00185 5.92041e-18
8701.99870 5.77878e-18
8703.99554 5.67767e-18
8706.00258 5.59231e-18
8707.99943 5.45420e-18
8709.99628 5.15909e-18
8712.00331 5.12769e-18
8714.00016 5.32905e-18
8715.99701 5.57062e-18
8718.00404 5.85118e-18
8720.00089 6.13715e-18
8721.99774 6.10414e-18
8724.00478 5.72943e-18
8726.00162 5.52105e-18
8727.99847 5.23960e-18
8729.99532 5.13028e-18
8732.00236 5.31010e-18
8733.99920 5.60176e-18
8735.99605 5.71203e-18
8738.00309 5.78014e-18
8739.99994 5.69988e-18
8741.99678 5.37084e-18
8744.00382 5.18642e-18
8746.00067 5.09982e-18
8747.99752 5.16461e-18
8750.00455 5.55601e-18
8752.00140 6.30316e-18
8753.99825 6.63281e-18
8755.99510 6.73097e-18
8758.00213 6.79857e-18
8759.99898 6.74781e-18
8761.99583 6.71541e-18
8764.00286 6.89046e-18
8765.99971 7.20907e-18
8767.99656 7.00395e-18
8770.00360 6.23131e-18
8772.00044 5.76666e-18
8773.99729 5.38607e-18
8776.00433 5.16849e-18
8778.00118 5.19046e-18
8779.99802 5.39533e-18
8782.00506 5.60861e-18
8784.00191 6.10545e-18
8785.99876 6.17185e-18
8787.99560 5.79690e-18
8790.00264 5.56564e-18
8791.99949 5.68160e-18
8793.99634 5.92121e-18
8796.00337 5.96941e-18
8798.00022 5.97596e-18
8799.99707 5.82304e-18
8802.00410 5.41829e-18
8804.00095 5.13215e-18
8805.99780 4.95482e-18
8807.99465 4.89771e-18
8810.00168 5.08584e-18
8811.99853 5.56943e-18
8813.99538 5.74642e-18
8816.00242 5.64265e-18
8817.99926 5.76179e-18
8819.99611 6.13076e-18
8822.00315 6.56996e-18
8824.00000 7.01450e-18
8825.99684 7.55254e-18
8828.00388 7.49563e-18
8830.00073 6.80320e-18
8831.99758 6.33317e-18
8834.00461 5.84833e-18
8836.00146 5.53052e-18
8837.99831 5.54680e-18
8840.00534 5.80067e-18
8842.00219 5.98710e-18
8843.99904 6.44483e-18
8845.99589 6.40797e-18
8848.00292 5.84269e-18
8849.99977 5.36586e-18
8851.99662 5.19492e-18
8854.00366 5.15436e-18
8856.00050 5.07311e-18
8857.99735 4.87048e-18
8860.00439 5.08257e-18
8862.00124 5.83045e-18
8863.99808 6.31826e-18
8865.99493 6.36454e-18
8868.00197 6.24331e-18
8869.99882 6.24867e-18
8871.99566 6.23104e-18
8874.00270 6.34516e-18
8875.99955 6.67375e-18
8877.99640 6.82665e-18
8880.00343 6.83752e-18
8882.00028 6.69243e-18
8883.99713 6.26831e-18
8886.00416 5.52194e-18
8888.00101 5.25949e-18
8889.99786 5.17728e-18
8892.00490 5.39974e-18
8894.00174 6.24413e-18
8895.99859 6.91584e-18
8897.99544 6.78469e-18
8900.00248 6.15262e-18
8901.99932 5.70301e-18
8903.99617 5.03494e-18
8906.00321 4.68873e-18
8908.00006 4.52073e-18
8909.99690 4.57742e-18
8912.00394 5.00238e-18
8914.00079 5.65090e-18
8915.99764 5.84860e-18
8918.00467 5.84724e-18
8920.00152 5.62523e-18
8921.99837 4.88745e-18
8923.99522 4.46370e-18
8926.00225 4.61042e-18
8927.99910 5.02147e-18
8929.99595 5.31070e-18
8932.00298 5.72986e-18
8933.99983 5.84053e-18
8935.99668 5.60044e-18
8938.00372 5.52564e-18
8940.00056 5.72095e-18
8941.99741 5.95017e-18
8944.00445 5.95196e-18
8946.00130 5.80357e-18
8947.99814 5.72103e-18
8949.99499 5.69467e-18
8952.00203 5.54183e-18
8953.99888 5.23031e-18
8955.99572 4.88359e-18
8958.00276 4.54382e-18
8959.99961 4.15627e-18
8961.99646 4.23370e-18
8964.00349 4.93940e-18
8966.00034 5.19928e-18
8967.99719 5.10692e-18
8970.00422 4.97196e-18
8972.00107 4.91837e-18
8973.99792 4.87851e-18
8976.00496 4.92573e-18
8978.00180 5.02598e-18
8979.99865 5.20578e-18
8981.99550 5.51313e-18
8984.00254 5.80014e-18
8985.99938 6.07187e-18
8987.99623 6.29550e-18
8990.00327 6.26173e-18
8992.00012 5.96876e-18
8993.99696 5.72964e-18
8996.00400 5.28335e-18
8998.00085 5.10361e-18
8999.99770 5.31709e-18
9001.99454 5.70412e-18
9004.00158 6.00483e-18
9005.99843 6.36894e-18
9007.99528 6.56560e-18
9010.00231 6.58233e-18
9011.99916 6.67483e-18
9013.99601 6.93759e-18
9016.00304 7.12027e-18
9017.99989 6.93013e-18
9019.99674 6.43236e-18
9022.00378 6.26319e-18
9024.00062 6.33202e-18
9025.99747 6.26426e-18
9028.00451 6.11217e-18
9030.00136 5.90455e-18
9031.99820 5.57885e-18
9033.99505 5.16322e-18
9036.00209 5.18325e-18
9037.99894 5.79587e-18
9039.99578 5.88961e-18
9042.00282 5.61461e-18
9043.99967 5.28688e-18
9045.99652 4.94768e-18
9048.00355 4.60319e-18
9050.00040 4.58851e-18
9051.99725 4.93198e-18
9054.00428 5.10088e-18
9056.00113 5.19315e-18
9057.99798 5.37746e-18
9059.99483 5.77198e-18
9062.00186 6.19548e-18
9063.99871 6.29757e-18
9065.99556 6.16575e-18
9068.00260 6.03241e-18
9069.99944 5.66087e-18
9071.99629 5.53515e-18
9074.00333 5.80822e-18
9076.00018 6.12431e-18
9077.99702 6.06976e-18
9080.00406 5.77932e-18
9082.00091 5.56418e-18
9083.99776 5.21803e-18
9085.99460 5.06663e-18
9088.00164 5.19605e-18
9089.99849 5.30476e-18
9091.99534 5.09943e-18
9094.00237 4.68969e-18
9095.99922 4.75172e-18
9097.99607 5.23385e-18
9100.00310 5.56308e-18
9101.99995 6.00382e-18
9103.99680 6.20062e-18
9106.00384 5.87628e-18
9108.00068 5.22979e-18
9109.99753 4.90798e-18
9112.00457 4.59875e-18
9114.00142 4.57107e-18
9115.99826 4.90177e-18
9117.99511 5.17707e-18
9120.00215 5.27872e-18
9121.99900 5.31894e-18
9123.99584 5.39592e-18
9126.00288 5.48953e-18
9127.99973 5.52922e-18
9129.99658 5.48290e-18
9132.00361 5.50476e-18
9134.00046 5.69607e-18
9135.99731 5.86365e-18
9138.00434 5.70166e-18
9140.00119 5.24638e-18
9141.99804 5.01572e-18
9143.99489 4.72701e-18
9146.00192 4.73766e-18
9147.99877 5.18657e-18
9149.99562 5.68847e-18
9152.00266 5.90133e-18
9153.99950 5.98493e-18
9155.99635 5.92223e-18
9158.00339 5.60090e-18
9160.00024 5.39440e-18
9161.99708 5.22502e-18
9164.00412 5.11373e-18
9166.00097 5.07967e-18
9167.99782 5.11270e-18
9170.00485 5.23656e-18
9172.00170 5.50547e-18
9173.99855 5.71308e-18
9175.99540 5.99639e-18
9178.00243 6.13333e-18
9179.99928 6.00047e-18
9181.99613 5.71451e-18
9184.00316 5.53222e-18
9186.00001 5.28793e-18
9187.99686 5.23785e-18
9190.00390 5.46188e-18
9192.00074 5.51974e-18
9193.99759 5.25925e-18
9196.00463 4.91493e-18
9198.00148 4.83212e-18
9199.99832 4.91928e-18
9201.99517 4.94969e-18
9204.00221 4.97032e-18
9205.99906 5.05177e-18
9207.99590 5.20752e-18
9210.00294 5.40013e-18
9211.99979 5.63089e-18
9213.99664 5.96330e-18
9216.00367 5.89255e-18
9218.00052 5.22524e-18
9219.99737 5.07431e-18
9222.00440 5.52021e-18
9224.00125 5.97669e-18
9225.99810 6.01620e-18
9227.99495 5.83788e-18
9230.00198 5.91880e-18
9231.99883 6.20045e-18
9233.99568 6.34263e-18
9236.00272 6.45996e-18
9237.99956 6.45774e-18
9239.99641 6.22087e-18
9242.00345 5.85101e-18
9244.00030 5.76358e-18
9245.99714 5.97784e-18
9248.00418 5.92038e-18
9250.00103 5.70444e-18
9251.99788 5.47908e-18
9254.00491 5.23818e-18
9256.00176 5.01153e-18
9257.99861 4.95690e-18
9259.99546 5.12237e-18
9262.00249 5.04413e-18
9263.99934 4.73577e-18
9265.99619 4.57101e-18
9268.00322 4.60654e-18
9270.00007 4.71538e-18
9271.99692 4.78804e-18
9274.00396 4.89822e-18
9276.00080 4.87550e-18
9277.99765 4.62258e-18
9279.99450 4.60275e-18
9282.00154 4.86378e-18
9283.99838 5.17656e-18
9285.99523 5.35580e-18
9288.00227 5.47848e-18
9289.99912 5.68991e-18
9291.99596 6.16993e-18
9294.00300 6.18958e-18
9295.99985 5.42947e-18
9297.99670 5.03745e-18
9300.00373 5.84100e-18
9302.00058 7.33080e-18
9303.99743 7.88781e-18
9306.00446 8.55583e-18
9308.00131 7.76941e-18
9309.99816 4.69030e-18
9312.00520 2.67098e-18
9314.00204 3.11746e-18
9315.99889 4.68449e-18
9317.99574 5.13957e-18
9320.00278 5.06397e-18
9321.99962 5.44355e-18
9323.99647 6.05632e-18
9326.00351 6.68786e-18
9328.00036 7.51256e-18
9329.99720 8.20598e-18
9332.00424 8.06050e-18
9334.00109 7.11997e-18
9335.99794 6.64485e-18
9337.99478 6.13150e-18
9340.00182 5.90073e-18
9341.99867 6.16912e-18
9343.99552 6.42024e-18
9346.00255 6.03728e-18
9347.99940 5.17742e-18
9349.99625 4.91538e-18
9352.00328 5.00505e-18
9354.00013 5.11027e-18
9355.99698 5.27355e-18
9358.00402 5.52705e-18
9360.00086 5.92592e-18
9361.99771 6.44718e-18
9364.00475 6.72243e-18
9366.00160 6.85714e-18
9367.99844 6.92278e-18
9369.99529 6.73214e-18
9372.00233 6.72616e-18
9373.99918 7.23904e-18
9375.99602 7.96876e-18
9378.00306 7.99163e-18
9379.99991 7.55355e-18
9381.99676 6.97522e-18
9384.00379 5.68323e-18
9386.00064 5.00259e-18
9387.99749 5.48486e-18
9390.00452 6.36556e-18
9392.00137 6.36214e-18
9393.99822 5.78651e-18
9395.99507 5.49819e-18
9398.00210 5.12048e-18
9399.99895 4.97885e-18
9401.99580 5.25341e-18
9404.00284 5.55611e-18
9405.99968 5.37458e-18
9407.99653 4.83666e-18
9410.00357 4.56949e-18
9412.00042 4.36386e-18
9413.99726 4.24101e-18
9416.00430 4.16180e-18
9418.00115 4.20919e-18
9419.99800 4.50752e-18
9421.99484 5.02628e-18
9424.00188 5.24046e-18
9425.99873 5.21362e-18
9427.99558 5.31228e-18
9430.00261 5.37182e-18
9431.99946 5.61123e-18
9433.99631 6.12459e-18
9436.00334 6.86229e-18
9438.00019 7.93040e-18
9439.99704 1.02768e-17
9442.00408 1.06037e-17
9444.00092 9.21319e-18
9445.99777 7.76342e-18
9448.00481 6.46692e-18
9450.00166 5.27979e-18
9451.99850 5.07583e-18
9453.99535 6.09892e-18
9456.00239 6.05500e-18
9457.99924 5.41568e-18
9459.99608 4.82736e-18
9462.00312 4.27975e-18
9463.99997 3.79567e-18
9465.99682 3.53239e-18
9468.00385 3.33046e-18
9470.00070 3.71467e-18
9471.99755 4.91838e-18
9474.00458 5.73612e-18
9476.00143 6.33233e-18
9477.99828 6.60098e-18
9479.99513 6.21119e-18
9482.00216 5.18578e-18
9483.99901 4.86999e-18
9485.99586 5.05133e-18
9488.00290 4.99255e-18
9489.99974 4.72304e-18
9491.99659 4.49362e-18
9494.00363 4.39408e-18
9496.00048 4.37737e-18
9497.99732 4.72674e-18
9500.00436 5.54806e-18
9502.00121 6.16753e-18
9503.99806 6.97525e-18
9505.99490 7.39216e-18
9508.00194 7.13228e-18
9509.99879 6.44196e-18
9511.99564 5.77091e-18
9514.00267 4.62748e-18
9515.99952 4.18184e-18
9517.99637 4.19774e-18
9520.00340 4.35734e-18
9522.00025 4.65963e-18
9523.99710 5.08027e-18
9526.00414 5.49981e-18
9528.00098 6.17633e-18
9529.99783 6.11219e-18
9532.00487 5.16706e-18
9534.00172 4.67397e-18
9535.99856 4.87643e-18
9537.99541 5.11527e-18
9540.00245 4.58648e-18
9541.99930 3.33226e-18
9543.99614 3.69087e-18
9546.00318 5.70169e-18
9548.00003 6.88540e-18
9549.99688 7.61177e-18
9552.00391 7.86963e-18
9554.00076 7.44976e-18
9555.99761 6.42817e-18
9557.99446 5.51565e-18
9560.00149 3.72395e-18
9561.99834 3.46604e-18
9563.99519 4.82417e-18
9566.00222 6.21601e-18
9567.99907 7.11173e-18
9569.99592 7.78507e-18
9572.00296 7.53161e-18
9573.99980 6.04810e-18
9575.99665 5.21259e-18
9578.00369 4.47026e-18
9580.00054 3.85676e-18
9581.99738 3.28030e-18
9584.00442 2.88906e-18
9586.00127 3.13445e-18
9587.99812 4.16675e-18
9590.00515 4.63287e-18
9592.00200 4.89282e-18
9593.99885 5.10300e-18
9595.99570 5.24931e-18
9598.00273 5.35434e-18
9599.99958 5.48287e-18
9601.99643 5.60861e-18
9604.00346 5.72606e-18
9606.00031 5.98696e-18
9607.99716 5.93519e-18
9610.00420 5.56710e-18
9612.00104 5.00425e-18
9613.99789 4.15133e-18
9615.99474 2.90896e-18
9618.00178 3.08504e-18
9619.99862 5.13984e-18
9621.99547 5.68669e-18
9624.00251 4.92396e-18
9625.99936 3.97633e-18
9627.99620 3.23425e-18
9630.00324 2.50341e-18
9632.00009 2.75612e-18
9633.99694 4.28414e-18
9636.00397 4.98502e-18
9638.00082 5.46866e-18
9639.99767 5.58308e-18
9642.00470 5.04936e-18
9644.00155 4.21044e-18
9645.99840 4.16381e-18
9647.99525 4.77741e-18
9650.00228 5.00475e-18
9651.99913 5.25466e-18
9653.99598 5.26182e-18
9656.00302 4.90867e-18
9657.99986 4.39184e-18
9659.99671 3.98122e-18
9662.00375 3.43177e-18
9664.00060 3.42906e-18
9665.99744 4.05283e-18
9668.00448 4.42416e-18
9670.00133 4.54833e-18
9671.99818 4.55141e-18
9673.99502 4.46584e-18
9676.00206 4.25873e-18
9677.99891 4.08723e-18
9679.99576 3.68451e-18
9682.00279 3.72313e-18
9683.99964 4.45054e-18
9685.99649 5.02323e-18
9688.00352 4.78069e-18
9690.00037 4.04061e-18
9691.99722 3.73349e-18
9694.00426 3.55109e-18
9696.00110 3.45320e-18
9697.99795 3.48565e-18
9699.99480 3.55459e-18
9702.00184 3.60161e-18
9703.99868 3.67423e-18
9705.99553 3.89359e-18
9708.00257 4.34547e-18
9709.99942 4.58506e-18
9711.99626 4.72887e-18
9714.00330 4.81878e-18
9716.00015 4.81664e-18
9717.99700 4.78946e-18
9720.00403 4.93228e-18
9722.00088 5.29188e-18
9723.99773 5.32840e-18
9726.00476 5.24295e-18
9728.00161 4.93418e-18
9729.99846 4.21314e-18
9731.99531 3.46263e-18
9734.00234 3.19391e-18
9735.99919 3.17924e-18
9737.99604 3.48108e-18
9740.00308 4.32305e-18
9741.99992 4.95786e-18
9743.99677 5.55121e-18
9746.00381 5.94248e-18
9748.00066 5.91140e-18
9749.99750 5.53993e-18
9751.99435 5.20697e-18
9754.00139 4.62555e-18
9755.99824 4.30563e-18
9757.99508 4.08525e-18
9760.00212 4.10601e-18
9761.99897 4.61666e-18
9763.99582 5.43001e-18
9766.00285 5.45143e-18
9767.99970 4.78471e-18
9769.99655 4.38345e-18
9772.00358 3.72046e-18
9774.00043 3.51091e-18
9775.99728 4.22953e-18
9778.00432 5.31757e-18
9780.00116 5.44883e-18
9781.99801 4.78110e-18
9784.00505 4.66507e-18
9786.00190 4.95628e-18
9787.99874 4.89810e-18
9789.99559 4.24528e-18
9792.00263 3.43845e-18
9793.99948 3.02163e-18
9795.99632 2.63375e-18
9798.00336 3.01923e-18
9800.00021 4.72109e-18
9801.99706 5.39896e-18
9804.00409 4.84395e-18
9806.00094 3.96427e-18
9807.99779 3.40973e-18
9809.99464 2.80348e-18
9812.00167 2.94228e-18
9813.99852 4.20944e-18
9815.99537 4.56918e-18
9818.00240 4.12518e-18
9819.99925 3.48710e-18
9821.99610 2.81961e-18
9824.00314 2.03178e-18
9825.99998 2.23871e-18
9827.99683 3.75466e-18
9830.00387 4.27508e-18
9832.00072 4.20067e-18
9833.99756 3.97381e-18
9836.00460 3.61161e-18
9838.00145 3.16822e-18
9839.99830 3.27243e-18
9841.99514 3.96102e-18
9844.00218 4.27988e-18
9845.99903 4.49489e-18
9847.99588 4.65785e-18
9850.00291 4.80778e-18
9851.99976 4.88331e-18
9853.99661 4.74808e-18
9856.00364 4.32367e-18
9858.00049 4.22462e-18
9859.99734 4.36588e-18
9862.00438 4.43595e-18
9864.00122 4.49804e-18
9865.99807 4.45521e-18
9868.00511 4.10274e-18
9870.00196 3.45309e-18
9871.99880 3.06136e-18
9873.99565 2.55825e-18
9876.00269 2.52888e-18
9877.99954 3.20467e-18
9879.99638 3.85826e-18
9882.00342 3.90725e-18
9884.00027 3.61642e-18
9885.99712 3.47095e-18
9888.00415 3.13367e-18
9890.00100 3.16003e-18
9891.99785 3.82648e-18
9893.99470 4.12476e-18
9896.00173 3.34490e-18
9897.99858 2.00771e-18
9899.99543 1.73711e-18
9902.00246 2.24115e-18
9903.99931 2.53876e-18
9905.99616 3.05210e-18
9908.00320 3.39248e-18
9910.00004 3.39743e-18
9911.99689 3.25399e-18
9914.00393 3.27235e-18
9916.00078 3.26286e-18
9917.99762 3.51435e-18
9920.00466 4.26648e-18
9922.00151 4.57389e-18
9923.99836 4.23028e-18
9925.99520 3.64595e-18
9928.00224 3.21665e-18
9929.99909 2.59580e-18
9931.99594 2.84182e-18
9934.00297 4.09870e-18
9935.99982 4.90797e-18
9937.99667 5.46849e-18
9940.00370 5.68272e-18
9942.00055 5.14220e-18
9943.99740 3.85137e-18
9946.00444 3.97632e-18
9948.00128 5.66481e-18
9949.99813 6.15812e-18
9951.99498 5.58428e-18
9954.00202 4.90379e-18
9955.99886 4.60773e-18
9957.99571 4.42622e-18
9960.00275 4.20744e-18
9961.99960 3.61952e-18
9963.99644 3.93562e-18
9966.00348 5.87880e-18
9968.00033 6.66466e-18
9969.99718 4.77138e-18
9972.00421 1.68447e-18
9974.00106 7.27554e-19
9975.99791 1.09635e-18
9978.00494 1.18121e-18
9980.00179 1.54503e-18
9981.99864 1.96347e-18
9983.99549 2.43706e-18
9986.00252 2.95082e-18
9987.99937 3.41699e-18
9989.99622 3.91444e-18
9992.00326 4.22858e-18
9994.00010 4.43662e-18
9995.99695 4.50857e-18
9998.00399 4.35412e-18
10000.00084 4.16675e-18
