# wavelength flux
3271.74252 1.12762e-19
3272.89448 2.27619e-18
3274.03642 4.43924e-18
3275.18837 3.03254e-18
3276.33031 1.62609e-18
3277.48226 5.32794e-18
3278.62420 9.02913e-18
3279.77616 7.67881e-18
3280.91809 6.32873e-18
3282.07005 5.23600e-18
3283.22201 4.14346e-18
3284.36394 5.31434e-18
3285.51590 6.48501e-18
3286.65784 5.68688e-18
3287.80979 4.88890e-18
3288.95173 6.31377e-18
3290.10368 7.73837e-18
3291.25564 6.42608e-18
3292.39758 5.11403e-18
3293.54953 4.32357e-18
3294.69147 3.53326e-18
3295.84343 4.65561e-18
3296.98536 5.77774e-18
3298.13732 4.98465e-18
3299.27926 4.19170e-18
3300.43121 2.94895e-18
3301.58317 1.70645e-18
3302.72510 2.76627e-18
3303.87706 3.82588e-18
3305.01900 4.86085e-18
3306.17095 5.89562e-18
3307.31289 6.93446e-18
3308.46484 7.97309e-18
3309.60678 5.76624e-18
3310.75874 3.55983e-18
3311.91069 3.52650e-18
3313.05263 3.49317e-18
3314.20459 4.08570e-18
3315.34652 4.67812e-18
3316.49848 5.63886e-18
3317.64042 6.59939e-18
3318.79237 5.40558e-18
3319.94433 4.21199e-18
3321.08626 4.22758e-18
3322.23822 4.24315e-18
3323.38016 3.42285e-18
3324.53211 2.60272e-18
3325.67405 4.28432e-18
3326.82601 5.96558e-18
3327.96794 7.23481e-18
3329.11990 8.50377e-18
3330.27185 7.59321e-18
3331.41379 6.68284e-18
3332.56575 6.52863e-18
3333.70769 6.37443e-18
3334.85964 4.96656e-18
3336.00158 3.55900e-18
3337.15353 4.32315e-18
3338.29547 5.08714e-18
3339.44743 5.44050e-18
3340.59938 5.79378e-18
3341.74132 5.28247e-18
3342.89327 4.77128e-18
3344.03521 5.14913e-18
3345.18717 5.52690e-18
3346.32911 5.44856e-18
3347.48106 5.37025e-18
3348.63301 5.69253e-18
3349.77495 6.01473e-18
3350.92691 5.39020e-18
3352.06885 4.76582e-18
3353.22080 5.97463e-18
3354.36274 7.18319e-18
3355.51469 7.48957e-18
3356.65663 7.79589e-18
3357.80859 7.91378e-18
3358.96054 8.03162e-18
3360.10248 6.40320e-18
3361.25444 4.77516e-18
3362.39637 5.63493e-18
3363.54833 6.49452e-18
3364.69027 6.35825e-18
3365.84222 6.22202e-18
3366.98416 6.32377e-18
3368.13611 6.42547e-18
3369.28807 5.14465e-18
3370.43001 3.86413e-18
3371.58196 4.64172e-18
3372.72390 5.41914e-18
3373.87586 5.34114e-18
3375.01779 5.26317e-18
3376.16975 6.09797e-18
3377.32170 6.93260e-18
3378.46364 8.20859e-18
3379.61560 9.48427e-18
3380.75753 8.10416e-18
3381.90949 6.72439e-18
3383.05143 7.71640e-18
3384.20338 8.70818e-18
3385.34532 8.45445e-18
3386.49728 8.20078e-18
3387.64923 8.21105e-18
3388.79117 8.22131e-18
3389.94312 8.19815e-18
3391.08506 8.17499e-18
3392.23702 8.06006e-18
3393.37895 7.94517e-18
3394.53091 8.88489e-18
3395.68286 9.82438e-18
3396.82480 9.46322e-18
3397.97676 9.10213e-18
3399.11870 9.24556e-18
3400.27065 9.38894e-18
3401.41259 8.62441e-18
3402.56454 7.86006e-18
3403.70648 7.94053e-18
3404.85844 8.02101e-18
3406.01039 9.00647e-18
3407.15233 9.99169e-18
3408.30428 9.79040e-18
3409.44622 9.58913e-18
3410.59818 9.20645e-18
3411.74012 8.82385e-18
3412.89207 8.88105e-18
3414.03401 8.93826e-18
3415.18596 9.67937e-18
3416.33792 1.04203e-17
3417.47986 1.06679e-17
3418.63181 1.09153e-17
3419.77375 1.04789e-17
3420.92570 1.00426e-17
3422.06764 1.02333e-17
3423.21960 1.04238e-17
3424.37155 1.04146e-17
3425.51349 1.04054e-17
3426.66545 1.10516e-17
3427.80738 1.16977e-17
3428.95934 1.17450e-17
3430.10128 1.17923e-17
3431.25323 1.18561e-17
3432.39517 1.19199e-17
3433.54712 1.19646e-17
3434.69908 1.20093e-17
3435.84102 1.17873e-17
3436.99297 1.15654e-17
3438.13491 1.18418e-17
3439.28687 1.21181e-17
3440.42880 1.19995e-17
3441.58076 1.18810e-17
3442.73271 1.24178e-17
3443.87465 1.29544e-17
3445.02661 1.27101e-17
3446.16854 1.24658e-17
3447.32050 1.23349e-17
3448.46244 1.22040e-17
3449.61439 1.18074e-17
3450.75633 1.14109e-17
3451.90829 1.15322e-17
3453.06024 1.16535e-17
3454.20218 1.22949e-17
3455.35413 1.29361e-17
3456.49607 1.23794e-17
3457.64803 1.18228e-17
3458.78996 1.15181e-17
3459.94192 1.12135e-17
3461.08386 1.18988e-17
3462.23581 1.25839e-17
3463.38777 1.25791e-17
3464.52971 1.25742e-17
3465.68166 1.20412e-17
3466.82360 1.15083e-17
3467.97555 1.12121e-17
3469.11749 1.09160e-17
3470.26945 1.09800e-17
3471.42140 1.10439e-17
3472.56334 1.15664e-17
3473.71529 1.20888e-17
3474.85723 1.20689e-17
3476.00919 1.20491e-17
3477.15113 1.15751e-17
3478.30308 1.11012e-17
3479.44502 1.07983e-17
3480.59697 1.04955e-17
3481.74893 1.07809e-17
3482.89087 1.10661e-17
3484.04282 1.12475e-17
3485.18476 1.14288e-17
3486.33671 1.08133e-17
3487.47865 1.01980e-17
3488.63061 1.04937e-17
3489.77254 1.07893e-17
3490.92450 1.07631e-17
3492.07646 1.07368e-17
3493.21839 1.05995e-17
3494.37035 1.04621e-17
3495.51229 1.05402e-17
3496.66424 1.06183e-17
3497.80618 1.09382e-17
3498.95813 1.12579e-17
3500.11009 1.15175e-17
3501.25203 1.17771e-17
3502.40398 1.15234e-17
3503.54592 1.12697e-17
3504.69788 1.09989e-17
3505.83981 1.07281e-17
3506.99177 1.06437e-17
3508.13371 1.05593e-17
3509.28566 1.05313e-17
3510.43762 1.05034e-17
3511.57955 1.01960e-17
3512.73151 9.88876e-18
3513.87345 1.03403e-17
3515.02540 1.07917e-17
3516.16734 1.11649e-17
3517.31930 1.15380e-17
3518.47125 1.11517e-17
3519.61319 1.07655e-17
3520.76514 1.05419e-17
3521.90708 1.03183e-17
3523.05904 1.03497e-17
3524.20097 1.03812e-17
3525.35293 1.07324e-17
3526.49487 1.10836e-17
3527.64682 1.08343e-17
3528.79878 1.05851e-17
3529.94071 1.05447e-17
3531.09267 1.05044e-17
3532.23461 1.08499e-17
3533.38656 1.11952e-17
3534.52850 1.08861e-17
3535.68046 1.05771e-17
3536.82239 1.03557e-17
3537.97435 1.01345e-17
3539.12630 1.03185e-17
3540.26824 1.05025e-17
3541.42020 1.06375e-17
3542.56214 1.07726e-17
3543.71409 1.07982e-17
3544.85603 1.08238e-17
3546.00798 1.09527e-17
3547.15994 1.10815e-17
3548.30188 1.12530e-17
3549.45383 1.14244e-17
3550.59577 1.10768e-17
3551.74772 1.07293e-17
3552.88966 1.07176e-17
3554.04162 1.07059e-17
3555.18356 1.06223e-17
3556.33551 1.05387e-17
3557.48747 1.06286e-17
3558.62940 1.07185e-17
3559.78136 1.07406e-17
3560.92330 1.07628e-17
3562.07525 1.10557e-17
3563.21719 1.13485e-17
3564.36914 1.12300e-17
3565.52110 1.11115e-17
3566.66304 1.09815e-17
3567.81499 1.08516e-17
3568.95693 1.09366e-17
3570.10889 1.10216e-17
3571.25082 1.11901e-17
3572.40278 1.13586e-17
3573.54472 1.10953e-17
3574.69667 1.08321e-17
3575.84863 1.08920e-17
3576.99056 1.09519e-17
3578.14252 1.07169e-17
3579.28446 1.04818e-17
3580.43641 1.05452e-17
3581.57835 1.06085e-17
3582.73031 1.07805e-17
3583.87224 1.09525e-17
3585.02420 1.10161e-17
3586.17615 1.10796e-17
3587.31809 1.08209e-17
3588.47005 1.05623e-17
3589.61198 1.03224e-17
3590.76394 1.00826e-17
3591.90588 1.00343e-17
3593.05783 9.98611e-18
3594.20979 9.80682e-18
3595.35172 9.62757e-18
3596.50368 9.57005e-18
3597.64562 9.51255e-18
3598.79757 9.55378e-18
3599.93951 9.59501e-18
3601.09147 9.64735e-18
3602.23340 9.69969e-18
3603.38536 9.85962e-18
3604.53731 1.00195e-17
3605.67925 9.64622e-18
3606.83121 9.27303e-18
3607.97314 9.25328e-18
3609.12510 9.23354e-18
3610.26704 9.32960e-18
3611.41899 9.42566e-18
3612.56093 9.73196e-18
3613.71289 1.00382e-17
3614.86484 1.00164e-17
3616.00678 9.99465e-18
3617.15873 9.81765e-18
3618.30067 9.64070e-18
3619.45263 9.62499e-18
3620.59456 9.60927e-18
3621.74652 9.48871e-18
3622.89847 9.36819e-18
3624.04041 9.52051e-18
3625.19237 9.67281e-18
3626.33431 9.85136e-18
3627.48626 1.00299e-17
3628.62820 9.94196e-18
3629.78015 9.85409e-18
3630.92209 9.86598e-18
3632.07405 9.87788e-18
3633.22600 9.85846e-18
3634.36794 9.83906e-18
3635.51989 1.01017e-17
3636.66183 1.03644e-17
3637.81379 1.07515e-17
3638.95573 1.11385e-17
3640.10768 1.12190e-17
3641.25964 1.12995e-17
3642.40157 1.11422e-17
3643.55353 1.09849e-17
3644.69547 1.08424e-17
3645.84742 1.06999e-17
3646.98936 1.08987e-17
3648.14131 1.10975e-17
3649.28325 1.11418e-17
3650.43521 1.11862e-17
3651.58716 1.13263e-17
3652.72910 1.14664e-17
3653.88106 1.16954e-17
3655.02299 1.19243e-17
3656.17495 1.21230e-17
3657.31689 1.23217e-17
3658.46884 1.24602e-17
3659.61078 1.25987e-17
3660.76274 1.26191e-17
3661.91469 1.26395e-17
3663.05663 1.28615e-17
3664.20858 1.30834e-17
3665.35052 1.32975e-17
3666.50248 1.35115e-17
3667.64441 1.34571e-17
3668.79637 1.34027e-17
3669.94832 1.32789e-17
3671.09026 1.31552e-17
3672.24222 1.33339e-17
3673.38416 1.35125e-17
3674.53611 1.37533e-17
3675.67805 1.39941e-17
3676.83000 1.40910e-17
3677.97194 1.41879e-17
3679.12390 1.41435e-17
3680.27585 1.40992e-17
3681.41779 1.39990e-17
3682.56974 1.38989e-17
3683.71168 1.42735e-17
3684.86364 1.46480e-17
3686.00558 1.50022e-17
3687.15753 1.53564e-17
3688.29947 1.53528e-17
3689.45142 1.53493e-17
3690.60338 1.52243e-17
3691.74532 1.50992e-17
3692.89727 1.49322e-17
3694.03921 1.47652e-17
3695.19116 1.45770e-17
3696.33310 1.43887e-17
3697.48506 1.41978e-17
3698.63701 1.40070e-17
3699.77895 1.36052e-17
3700.93091 1.32034e-17
3702.07284 1.27640e-17
3703.22480 1.23248e-17
3704.36674 1.23050e-17
3705.51869 1.22853e-17
3706.66063 1.20881e-17
3707.81258 1.18909e-17
3708.96454 1.13706e-17
3710.10648 1.08505e-17
3711.25843 1.05229e-17
3712.40037 1.01955e-17
3713.55233 1.00574e-17
3714.69426 9.93588e-18
3715.84622 9.81438e-18
3716.99817 9.69290e-18
3718.14011 9.56209e-18
3719.29207 9.43133e-18
3720.43400 9.30057e-18
3721.58596 9.16985e-18
3722.72790 9.03913e-18
3723.87985 8.90845e-18
3725.02179 8.77779e-18
3726.17375 8.64716e-18
3727.32570 8.51651e-18
3728.46764 8.38592e-18
3729.61959 8.25532e-18
3730.76153 8.12476e-18
3731.91349 7.99420e-18
3733.05542 7.86365e-18
3734.20738 7.73316e-18
3735.34932 7.60268e-18
3736.50127 7.47222e-18
3737.65323 7.34176e-18
3738.79516 7.21134e-18
3739.94712 7.08092e-18
3741.08906 6.95054e-18
3742.24101 6.82015e-18
3743.38295 6.68981e-18
3744.53491 6.55949e-18
3745.68686 6.42919e-18
3746.82880 6.29888e-18
3747.98075 6.16862e-18
3749.12269 6.03835e-18
3750.27465 5.90812e-18
3751.41659 5.77789e-18
3752.56854 5.64770e-18
3753.71048 5.51751e-18
3754.86243 5.61341e-18
3756.01439 5.70929e-18
3757.15633 5.68333e-18
3758.30828 5.65737e-18
3759.45022 5.51449e-18
3760.60217 5.37165e-18
3761.74411 5.37162e-18
3762.89607 5.37160e-18
3764.04802 5.52466e-18
3765.18996 5.67769e-18
3766.34191 5.70938e-18
3767.48385 5.74104e-18
3768.63581 5.48747e-18
3769.77775 5.23396e-18
3770.92970 5.20132e-18
3772.07164 5.16870e-18
3773.22359 5.31699e-18
3774.37555 5.46525e-18
3775.51749 5.62745e-18
3776.66944 5.78961e-18
3777.81138 5.68600e-18
3778.96334 5.58243e-18
3780.10527 5.66465e-18
3781.25723 5.74685e-18
3782.39917 5.81058e-18
3783.55112 5.87429e-18
3784.70308 5.84730e-18
3785.84501 5.82032e-18
3786.99697 5.94793e-18
3788.13891 6.07550e-18
3789.29086 5.99338e-18
3790.43280 5.91129e-18
3791.58476 5.95841e-18
3792.73671 6.00550e-18
3793.87865 5.90071e-18
3795.03060 5.79594e-18
3796.17254 5.90165e-18
3797.32450 6.00733e-18
3798.46643 6.00238e-18
3799.61839 5.99745e-18
3800.76033 6.11932e-18
3801.91228 6.24119e-18
3803.06424 6.40430e-18
3804.20618 6.56738e-18
3805.35813 6.65191e-18
3806.50007 6.73642e-18
3807.65202 6.77821e-18
3808.79396 6.81998e-18
3809.94592 6.74299e-18
3811.08785 6.66602e-18
3812.23981 6.74902e-18
3813.39176 6.83202e-18
3814.53370 6.93426e-18
3815.68566 7.03651e-18
3816.82760 7.24360e-18
3817.97955 7.45065e-18
3819.12149 7.46238e-18
3820.27344 7.47408e-18
3821.42540 7.34404e-18
3822.56734 7.21404e-18
3823.71929 7.30796e-18
3824.86123 7.40187e-18
3826.01318 7.42873e-18
3827.15512 7.45560e-18
3828.30708 7.71070e-18
3829.44902 7.96576e-18
3830.60097 8.16106e-18
3831.75293 8.35631e-18
3832.89486 8.43117e-18
3834.04682 8.50602e-18
3835.18876 8.67377e-18
3836.34071 8.84151e-18
3837.48265 9.08992e-18
3838.63460 9.33830e-18
3839.78656 9.60927e-18
3840.92850 9.88018e-18
3842.08045 9.77174e-18
3843.22239 9.66336e-18
3844.37435 9.90369e-18
3845.51628 1.01440e-17
3846.66824 1.04239e-17
3847.81018 1.07038e-17
3848.96213 1.07534e-17
3850.11409 1.08031e-17
3851.25602 1.07709e-17
3852.40798 1.07388e-17
3853.54992 1.12268e-17
3854.70187 1.17147e-17
3855.84381 1.19398e-17
3856.99577 1.21647e-17
3858.13770 1.22559e-17
3859.28966 1.23472e-17
3860.44161 1.25712e-17
3861.58355 1.27951e-17
3862.73551 1.30503e-17
3863.87744 1.33054e-17
3865.02940 1.33182e-17
3866.17134 1.33309e-17
3867.32329 1.36222e-17
3868.47525 1.39134e-17
3869.61719 1.42080e-17
3870.76914 1.45025e-17
3871.91108 1.49022e-17
3873.06303 1.53019e-17
3874.20497 1.54238e-17
3875.35693 1.55458e-17
3876.49886 1.60617e-17
3877.65082 1.65774e-17
3878.80277 1.66354e-17
3879.94471 1.66934e-17
3881.09667 1.69069e-17
3882.23861 1.71205e-17
3883.39056 1.74794e-17
3884.53250 1.78382e-17
3885.68445 1.79344e-17
3886.83641 1.80307e-17
3887.97835 1.85565e-17
3889.13030 1.90823e-17
3890.27224 1.95492e-17
3891.42419 2.00161e-17
3892.56613 1.99413e-17
3893.71809 1.98665e-17
3894.86002 2.03978e-17
3896.01198 2.09291e-17
3897.16394 2.12480e-17
3898.30587 2.15668e-17
3899.45783 2.15286e-17
3900.59977 2.14904e-17
3901.75172 2.18763e-17
3902.89366 2.22622e-17
3904.04561 2.25341e-17
3905.18755 2.28060e-17
3906.33951 2.28923e-17
3907.49146 2.29787e-17
3908.63340 2.29990e-17
3909.78536 2.30194e-17
3910.92729 2.31294e-17
3912.07925 2.32394e-17
3913.22119 2.33026e-17
3914.37314 2.33658e-17
3915.52510 2.34251e-17
3916.66703 2.34844e-17
3917.81899 2.34140e-17
3918.96093 2.33435e-17
3920.11288 2.35171e-17
3921.25482 2.36905e-17
3922.40677 2.36739e-17
3923.54871 2.36572e-17
3924.70067 2.36201e-17
3925.85262 2.35831e-17
3926.99456 2.34945e-17
3928.14652 2.34060e-17
3929.28845 2.34096e-17
3930.44041 2.34132e-17
3931.58235 2.33684e-17
3932.73430 2.33237e-17
3933.87624 2.33334e-17
3935.02819 2.33430e-17
3936.18015 2.31818e-17
3937.32209 2.30208e-17
3938.47404 2.34174e-17
3939.61598 2.38140e-17
3940.76794 2.38348e-17
3941.90987 2.38557e-17
3943.06183 2.40016e-17
3944.21378 2.41474e-17
3945.35572 2.43538e-17
3946.50768 2.45601e-17
3947.64961 2.46106e-17
3948.80157 2.46611e-17
3949.94351 2.48071e-17
3951.09546 2.49529e-17
3952.23740 2.48649e-17
3953.38936 2.47769e-17
3954.54131 2.47422e-17
3955.68325 2.47075e-17
3956.83520 2.48433e-17
3957.97714 2.49791e-17
3959.12910 2.48392e-17
3960.27104 2.46993e-17
3961.42299 2.47369e-17
3962.56493 2.47745e-17
3963.71688 2.43690e-17
3964.86884 2.39637e-17
3966.01078 2.38847e-17
3967.16273 2.38057e-17
3968.30467 2.37886e-17
3969.45662 2.37715e-17
3970.59856 2.37304e-17
3971.75052 2.36894e-17
3972.90247 2.39575e-17
3974.04441 2.42255e-17
3975.19636 2.44130e-17
3976.33830 2.46004e-17
3977.49026 2.45565e-17
3978.63220 2.45125e-17
3979.78415 2.45039e-17
3980.92609 2.44954e-17
3982.07804 2.47578e-17
3983.23000 2.50201e-17
3984.37194 2.50701e-17
3985.52389 2.51201e-17
3986.66583 2.51659e-17
3987.81779 2.52117e-17
3988.95972 2.50890e-17
3990.11168 2.49663e-17
3991.26363 2.51487e-17
3992.40557 2.53309e-17
3993.55753 2.53525e-17
3994.69946 2.53741e-17
3995.85142 2.51295e-17
3996.99336 2.48849e-17
3998.14531 2.46830e-17
3999.28725 2.44811e-17
4000.43921 2.45525e-17
4001.59116 2.46239e-17
4002.73310 2.46889e-17
4003.88505 2.47538e-17
4005.02699 2.45483e-17
4006.17895 2.43428e-17
4007.32088 2.41733e-17
4008.47284 2.40038e-17
4009.61478 2.40680e-17
4010.76673 2.41321e-17
4011.91869 2.40939e-17
4013.06063 2.40556e-17
4014.21258 2.36772e-17
4015.35452 2.32989e-17
4016.50647 2.29470e-17
4017.64841 2.25952e-17
4018.80037 2.26612e-17
4019.95232 2.27273e-17
4021.09426 2.27265e-17
4022.24621 2.27258e-17
4023.38815 2.24992e-17
4024.54011 2.22727e-17
4025.68205 2.19816e-17
4026.83400 2.16906e-17
4027.97594 2.13721e-17
4029.12789 2.10538e-17
4030.27985 2.11190e-17
4031.42179 2.11841e-17
4032.57374 2.11400e-17
4033.71568 2.10958e-17
4034.86763 2.09157e-17
4036.00957 2.07356e-17
4037.16153 2.04943e-17
4038.31348 2.02531e-17
4039.45542 2.01778e-17
4040.60738 2.01025e-17
4041.74931 1.98845e-17
4042.90127 1.96666e-17
4044.04321 1.94841e-17
4045.19516 1.93016e-17
4046.33710 1.93812e-17
4047.48905 1.94608e-17
4048.64101 1.92124e-17
4049.78295 1.89641e-17
4050.93490 1.88304e-17
4052.07684 1.86968e-17
4053.22879 1.85772e-17
4054.37073 1.84577e-17
4055.52269 1.84562e-17
4056.66463 1.84547e-17
4057.81658 1.83267e-17
4058.96854 1.81987e-17
4060.11047 1.80233e-17
4061.26243 1.78480e-17
4062.40437 1.80408e-17
4063.55632 1.82336e-17
4064.69826 1.81653e-17
4065.85021 1.80970e-17
4067.00217 1.79621e-17
4068.14411 1.78273e-17
4069.29606 1.77348e-17
4070.43800 1.76423e-17
4071.58996 1.74801e-17
4072.73189 1.73179e-17
4073.88385 1.72800e-17
4075.02579 1.72420e-17
4076.17774 1.71722e-17
4077.32970 1.71024e-17
4078.47164 1.71086e-17
4079.62359 1.71148e-17
4080.76553 1.69910e-17
4081.91748 1.68672e-17
4083.05942 1.68123e-17
4084.21138 1.67574e-17
4085.36333 1.66251e-17
4086.50527 1.64929e-17
4087.65722 1.63694e-17
4088.79916 1.62458e-17
4089.95112 1.61514e-17
4091.09306 1.60570e-17
4092.24501 1.59175e-17
4093.38695 1.57779e-17
4094.53890 1.55797e-17
4095.69086 1.53815e-17
4096.83280 1.51703e-17
4097.98475 1.49592e-17
4099.12669 1.50326e-17
4100.27864 1.51060e-17
4101.42058 1.52482e-17
4102.57254 1.53902e-17
4103.71447 1.51888e-17
4104.86643 1.49874e-17
4106.01839 1.48340e-17
4107.16032 1.46808e-17
4108.31228 1.49144e-17
4109.45422 1.51479e-17
4110.60617 1.51657e-17
4111.74811 1.51835e-17
4112.90006 1.51057e-17
4114.05202 1.50280e-17
4115.19396 1.52261e-17
4116.34591 1.54242e-17
4117.48785 1.50271e-17
4118.63980 1.46301e-17
4119.78174 1.44168e-17
4120.93370 1.42036e-17
4122.07564 1.44316e-17
4123.22759 1.46596e-17
4124.37955 1.46623e-17
4125.52148 1.46650e-17
4126.67344 1.46845e-17
4127.81538 1.47040e-17
4128.96733 1.46858e-17
4130.10927 1.46676e-17
4131.26123 1.47127e-17
4132.41318 1.47577e-17
4133.55512 1.49080e-17
4134.70707 1.50582e-17
4135.84901 1.50160e-17
4137.00097 1.49738e-17
4138.14290 1.49425e-17
4139.29486 1.49113e-17
4140.43680 1.49998e-17
4141.58875 1.50883e-17
4142.74071 1.51454e-17
4143.88265 1.52025e-17
4145.03460 1.51716e-17
4146.17654 1.51408e-17
4147.32849 1.51154e-17
4148.47043 1.50901e-17
4149.62239 1.51397e-17
4150.76432 1.51892e-17
4151.91628 1.52029e-17
4153.06823 1.52165e-17
4154.21017 1.51244e-17
4155.36213 1.50324e-17
4156.50407 1.51161e-17
4157.65602 1.51997e-17
4158.79796 1.51800e-17
4159.94991 1.51603e-17
4161.10187 1.50596e-17
4162.24381 1.49590e-17
4163.39576 1.50965e-17
4164.53770 1.52339e-17
4165.68965 1.51693e-17
4166.83159 1.51048e-17
4167.98355 1.51575e-17
4169.12549 1.52101e-17
4170.27744 1.51309e-17
4171.42940 1.50517e-17
4172.57133 1.49242e-17
4173.72329 1.47968e-17
4174.86523 1.50252e-17
4176.01718 1.52536e-17
4177.15912 1.52860e-17
4178.31107 1.53185e-17
4179.45301 1.52746e-17
4180.60497 1.52308e-17
4181.75692 1.51198e-17
4182.89886 1.50089e-17
4184.05081 1.50510e-17
4185.19275 1.50932e-17
4186.34471 1.52127e-17
4187.48665 1.53321e-17
4188.63860 1.53932e-17
4189.79056 1.54543e-17
4190.93249 1.53423e-17
4192.08445 1.52304e-17
4193.22639 1.52015e-17
4194.37834 1.51726e-17
4195.52028 1.52724e-17
4196.67224 1.53721e-17
4197.81417 1.53411e-17
4198.96613 1.53102e-17
4200.11808 1.53221e-17
4201.26002 1.53340e-17
4202.41198 1.54321e-17
4203.55391 1.55301e-17
4204.70587 1.56143e-17
4205.84781 1.56985e-17
4206.99976 1.56241e-17
4208.14170 1.55497e-17
4209.29365 1.57070e-17
4210.44561 1.58643e-17
4211.58755 1.57173e-17
4212.73950 1.55704e-17
4213.88144 1.55643e-17
4215.03340 1.55582e-17
4216.17533 1.56554e-17
4217.32729 1.57525e-17
4218.47924 1.55516e-17
4219.62118 1.53508e-17
4220.77314 1.53801e-17
4221.91507 1.54093e-17
4223.06703 1.54343e-17
4224.20897 1.54593e-17
4225.36092 1.54742e-17
4226.50286 1.54891e-17
4227.65482 1.53894e-17
4228.80677 1.52898e-17
4229.94871 1.52774e-17
4231.10066 1.52651e-17
4232.24260 1.54144e-17
4233.39456 1.55636e-17
4234.53650 1.54911e-17
4235.68845 1.54186e-17
4236.84040 1.54050e-17
4237.98234 1.53913e-17
4239.13430 1.54914e-17
4240.27624 1.55914e-17
4241.42819 1.55897e-17
4242.57013 1.55879e-17
4243.72208 1.53879e-17
4244.86402 1.51880e-17
4246.01598 1.53953e-17
4247.16793 1.56024e-17
4248.30987 1.54483e-17
4249.46183 1.52943e-17
4250.60376 1.52550e-17
4251.75572 1.52158e-17
4252.89766 1.52082e-17
4254.04961 1.52007e-17
4255.20157 1.52813e-17
4256.34350 1.53619e-17
4257.49546 1.54419e-17
4258.63740 1.55218e-17
4259.78935 1.55203e-17
4260.93129 1.55188e-17
4262.08325 1.56249e-17
4263.22518 1.57309e-17
4264.37714 1.56632e-17
4265.52909 1.55955e-17
4266.67103 1.55363e-17
4267.82299 1.54772e-17
4268.96492 1.54335e-17
4270.11688 1.53899e-17
4271.25882 1.54062e-17
4272.41077 1.54226e-17
4273.55271 1.55827e-17
4274.70467 1.57429e-17
4275.85662 1.58592e-17
4276.99856 1.59755e-17
4278.15051 1.60001e-17
4279.29245 1.60247e-17
4280.44441 1.60504e-17
4281.58634 1.60761e-17
4282.73830 1.59977e-17
4283.89025 1.59193e-17
4285.03219 1.59875e-17
4286.18415 1.60557e-17
4287.32609 1.59215e-17
4288.47804 1.57874e-17
4289.61998 1.57096e-17
4290.77193 1.56318e-17
4291.91387 1.57969e-17
4293.06583 1.59619e-17
4294.21778 1.60628e-17
4295.35972 1.61637e-17
4296.51167 1.61349e-17
4297.65361 1.61062e-17
4298.80557 1.61200e-17
4299.94751 1.61339e-17
4301.09946 1.60982e-17
4302.24140 1.60624e-17
4303.39335 1.59993e-17
4304.54531 1.59363e-17
4305.68725 1.59485e-17
4306.83920 1.59607e-17
4307.98114 1.60022e-17
4309.13309 1.60437e-17
4310.27503 1.61142e-17
4311.42699 1.61846e-17
4312.57894 1.62065e-17
4313.72088 1.62283e-17
4314.87284 1.61854e-17
4316.01477 1.61426e-17
4317.16673 1.61034e-17
4318.30867 1.60643e-17
4319.46062 1.61664e-17
4320.60256 1.62684e-17
4321.75451 1.62345e-17
4322.90647 1.62005e-17
4324.04841 1.60388e-17
4325.20036 1.58772e-17
4326.34230 1.58804e-17
4327.49425 1.58837e-17
4328.63619 1.56824e-17
4329.78815 1.54813e-17
4330.93009 1.54606e-17
4332.08204 1.54400e-17
4333.23400 1.52597e-17
4334.37593 1.50795e-17
4335.52789 1.48702e-17
4336.66983 1.46609e-17
4337.82178 1.45623e-17
4338.96372 1.44638e-17
4340.11568 1.44074e-17
4341.26763 1.43510e-17
4342.40957 1.44004e-17
4343.56152 1.44497e-17
4344.70346 1.42401e-17
4345.85542 1.40305e-17
4346.99735 1.40285e-17
4348.14931 1.40264e-17
4349.30126 1.38930e-17
4350.44320 1.37596e-17
4351.59516 1.35973e-17
4352.73710 1.35119e-17
4353.88905 1.34265e-17
4355.03099 1.33411e-17
4356.18294 1.32557e-17
4357.32488 1.31704e-17
4358.47684 1.30850e-17
4359.62879 1.29996e-17
4360.77073 1.29143e-17
4361.92268 1.28290e-17
4363.06462 1.27436e-17
4364.21658 1.26583e-17
4365.35851 1.25730e-17
4366.51047 1.24877e-17
4367.65241 1.24024e-17
4368.80436 1.23171e-17
4369.95632 1.22319e-17
4371.09826 1.21466e-17
4372.25021 1.20613e-17
4373.39215 1.19761e-17
4374.54410 1.18909e-17
4375.68604 1.18057e-17
4376.83800 1.17204e-17
4377.97994 1.16352e-17
4379.13189 1.15501e-17
4380.28385 1.14648e-17
4381.42578 1.13797e-17
4382.57774 1.12945e-17
4383.71968 1.12094e-17
4384.87163 1.11242e-17
4386.01357 1.10390e-17
4387.16552 1.09539e-17
4388.31748 1.08688e-17
4389.45942 1.07837e-17
4390.61137 1.06189e-17
4391.75331 1.04542e-17
4392.90527 1.04972e-17
4394.04720 1.05401e-17
4395.19916 1.05963e-17
4396.34110 1.06525e-17
4397.49305 1.06863e-17
4398.64501 1.07200e-17
4399.78694 1.06529e-17
4400.93890 1.05857e-17
4402.08084 1.05879e-17
4403.23279 1.05901e-17
4404.37473 1.06876e-17
4405.52669 1.07851e-17
4406.67864 1.07687e-17
4407.82058 1.07522e-17
4408.97253 1.06903e-17
4410.11447 1.06285e-17
4411.26643 1.06213e-17
4412.40836 1.06142e-17
4413.56032 1.07020e-17
4414.70226 1.07898e-17
4415.85421 1.08335e-17
4417.00617 1.08772e-17
4418.14811 1.09515e-17
4419.30006 1.10258e-17
4420.44200 1.09186e-17
4421.59395 1.08114e-17
4422.73589 1.07304e-17
4423.88785 1.06493e-17
4425.02978 1.07201e-17
4426.18174 1.07908e-17
4427.33369 1.08725e-17
4428.47563 1.09543e-17
4429.62759 1.10558e-17
4430.76952 1.11573e-17
4431.92148 1.11559e-17
4433.06342 1.11544e-17
4434.21537 1.11866e-17
4435.35731 1.12187e-17
4436.50927 1.13494e-17
4437.66122 1.14801e-17
4438.80316 1.15323e-17
4439.95511 1.15844e-17
4441.09705 1.15382e-17
4442.24901 1.14919e-17
4443.39095 1.15237e-17
4444.54290 1.15554e-17
4445.69485 1.16128e-17
4446.83679 1.16702e-17
4447.98875 1.16634e-17
4449.13069 1.16566e-17
4450.28264 1.16776e-17
4451.42458 1.16987e-17
4452.57653 1.18808e-17
4453.71847 1.20628e-17
4454.87043 1.22181e-17
4456.02238 1.23734e-17
4457.16432 1.27247e-17
4458.31628 1.30759e-17
4459.45821 1.29566e-17
4460.61017 1.28375e-17
4461.75211 1.29218e-17
4462.90406 1.30062e-17
4464.05602 1.32506e-17
4465.19795 1.34950e-17
4466.34991 1.36318e-17
4467.49185 1.37686e-17
4468.64380 1.39720e-17
4469.78574 1.41754e-17
4470.93770 1.41683e-17
4472.07963 1.41612e-17
4473.23159 1.42928e-17
4474.38354 1.44244e-17
4475.52548 1.45585e-17
4476.67744 1.46926e-17
4477.81937 1.47423e-17
4478.97133 1.47920e-17
4480.11327 1.49466e-17
4481.26522 1.51012e-17
4482.41718 1.52713e-17
4483.55912 1.54414e-17
4484.71107 1.56021e-17
4485.85301 1.57626e-17
4487.00496 1.58417e-17
4488.14690 1.59207e-17
4489.29886 1.61323e-17
4490.44079 1.63438e-17
4491.59275 1.62408e-17
4492.74470 1.61379e-17
4493.88664 1.64004e-17
4495.03860 1.66628e-17
4496.18054 1.67847e-17
4497.33249 1.69066e-17
4498.47443 1.70502e-17
4499.62638 1.71937e-17
4500.76832 1.73078e-17
4501.92028 1.74220e-17
4503.07223 1.73197e-17
4504.21417 1.72174e-17
4505.36612 1.72566e-17
4506.50806 1.72959e-17
4507.66002 1.75015e-17
4508.80195 1.77070e-17
4509.95391 1.75952e-17
4511.10586 1.74834e-17
4512.24780 1.76194e-17
4513.39976 1.77554e-17
4514.54170 1.79627e-17
4515.69365 1.81699e-17
4516.83559 1.83542e-17
4517.98754 1.85385e-17
4519.12948 1.85795e-17
4520.28144 1.86204e-17
4521.43339 1.85921e-17
4522.57533 1.85638e-17
4523.72728 1.86206e-17
4524.86922 1.86775e-17
4526.02118 1.89400e-17
4527.16312 1.92024e-17
4528.31507 1.94171e-17
4529.45701 1.96317e-17
4530.60896 1.97602e-17
4531.76092 1.98887e-17
4532.90286 1.99303e-17
4534.05481 1.99719e-17
4535.19675 1.99863e-17
4536.34870 2.00006e-17
4537.49064 2.01674e-17
4538.64260 2.03343e-17
4539.79455 2.06563e-17
4540.93649 2.09782e-17
4542.08845 2.10764e-17
4543.23038 2.11745e-17
4544.38234 2.11012e-17
4545.52428 2.10280e-17
4546.67623 2.10917e-17
4547.81817 2.11553e-17
4548.97012 2.12450e-17
4550.12208 2.13347e-17
4551.26402 2.13704e-17
4552.41597 2.14061e-17
4553.55791 2.15699e-17
4554.70987 2.17336e-17
4555.85180 2.16811e-17
4557.00376 2.16286e-17
4558.15571 2.16577e-17
4559.29765 2.16867e-17
4560.44961 2.15947e-17
4561.59155 2.15026e-17
4562.74350 2.15092e-17
4563.88544 2.15158e-17
4565.03739 2.16155e-17
4566.17933 2.17153e-17
4567.33129 2.19453e-17
4568.48324 2.21752e-17
4569.62518 2.22211e-17
4570.77713 2.22669e-17
4571.91907 2.23525e-17
4573.07103 2.24381e-17
4574.21296 2.24375e-17
4575.36492 2.24368e-17
4576.51688 2.25694e-17
4577.65881 2.27018e-17
4578.81077 2.26122e-17
4579.95271 2.25227e-17
4581.10466 2.25090e-17
4582.24660 2.24954e-17
4583.39855 2.26997e-17
4584.54049 2.29038e-17
4585.69245 2.29725e-17
4586.84440 2.30411e-17
4587.98634 2.30790e-17
4589.13830 2.31169e-17
4590.28023 2.29809e-17
4591.43219 2.28450e-17
4592.57413 2.27821e-17
4593.72608 2.27193e-17
4594.86802 2.28766e-17
4596.01997 2.30338e-17
4597.17193 2.30960e-17
4598.31387 2.31582e-17
4599.46582 2.30960e-17
4600.60776 2.30338e-17
4601.75972 2.29781e-17
4602.90165 2.29224e-17
4604.05361 2.28633e-17
4605.20556 2.28042e-17
4606.34750 2.26965e-17
4607.49946 2.25890e-17
4608.64139 2.26316e-17
4609.79335 2.26743e-17
4610.93529 2.26894e-17
4612.08724 2.27044e-17
4613.22918 2.25491e-17
4614.38114 2.23939e-17
4615.53309 2.24219e-17
4616.67503 2.24499e-17
4617.82698 2.24374e-17
4618.96892 2.24248e-17
4620.12088 2.23781e-17
4621.26281 2.23313e-17
4622.41477 2.22248e-17
4623.55671 2.21183e-17
4624.70866 2.20966e-17
4625.86062 2.20749e-17
4627.00256 2.20623e-17
4628.15451 2.20496e-17
4629.29645 2.19052e-17
4630.44840 2.17608e-17
4631.59034 2.16641e-17
4632.74230 2.15675e-17
4633.89425 2.16288e-17
4635.03619 2.16901e-17
4636.18814 2.16999e-17
4637.33008 2.17097e-17
4638.48204 2.16774e-17
4639.62398 2.16451e-17
4640.77593 2.15028e-17
4641.91787 2.13606e-17
4643.06982 2.13405e-17
4644.22178 2.13204e-17
4645.36372 2.12787e-17
4646.51567 2.12369e-17
4647.65761 2.11297e-17
4648.80956 2.10226e-17
4649.95150 2.12055e-17
4651.10346 2.13882e-17
4652.24540 2.12117e-17
4653.39735 2.10353e-17
4654.54930 2.09754e-17
4655.69124 2.09155e-17
4656.84320 2.09525e-17
4657.98514 2.09895e-17
4659.13709 2.07893e-17
4660.27903 2.05892e-17
4661.43098 2.03938e-17
4662.58294 2.01985e-17
4663.72488 2.02725e-17
4664.87683 2.03464e-17
4666.01877 2.01538e-17
4667.17072 1.99612e-17
4668.31266 1.98541e-17
4669.46462 1.97470e-17
4670.60656 1.98325e-17
4671.75851 1.99180e-17
4672.91047 1.98136e-17
4674.05240 1.97093e-17
4675.20436 1.96516e-17
4676.34630 1.95939e-17
4677.49825 1.96783e-17
4678.64019 1.97626e-17
4679.79215 1.96513e-17
4680.94410 1.95399e-17
4682.08604 1.92658e-17
4683.23799 1.89918e-17
4684.37993 1.89641e-17
4685.53189 1.89364e-17
4686.67382 1.89108e-17
4687.82578 1.88852e-17
4688.96772 1.89539e-17
4690.11967 1.90225e-17
4691.27163 1.88097e-17
4692.41356 1.85969e-17
4693.56552 1.85391e-17
4694.70746 1.84812e-17
4695.85941 1.83942e-17
4697.00135 1.83073e-17
4698.15331 1.82104e-17
4699.30526 1.81134e-17
4700.44720 1.80310e-17
4701.59915 1.79486e-17
4702.74109 1.78095e-17
4703.89305 1.76704e-17
4705.03499 1.78033e-17
4706.18694 1.79359e-17
4707.32888 1.76773e-17
4708.48083 1.74188e-17
4709.63279 1.71463e-17
4710.77473 1.68739e-17
4711.92668 1.67721e-17
4713.06862 1.66703e-17
4714.22057 1.66986e-17
4715.36251 1.67269e-17
4716.51447 1.65743e-17
4717.65640 1.64218e-17
4718.80836 1.63421e-17
4719.96032 1.62624e-17
4721.10225 1.61805e-17
4722.25421 1.60986e-17
4723.39615 1.59965e-17
4724.54810 1.58944e-17
4725.69004 1.58468e-17
4726.84199 1.57992e-17
4727.98393 1.54978e-17
4729.13589 1.51965e-17
4730.28784 1.50808e-17
4731.42978 1.49651e-17
4732.58174 1.48495e-17
4733.72367 1.47339e-17
4734.87563 1.46502e-17
4736.01757 1.45665e-17
4737.16952 1.43397e-17
4738.32148 1.41130e-17
4739.46341 1.41645e-17
4740.61537 1.42159e-17
4741.75731 1.40301e-17
4742.90926 1.38443e-17
4744.05120 1.36968e-17
4745.20316 1.35495e-17
4746.34509 1.35032e-17
4747.49705 1.34569e-17
4748.64900 1.32118e-17
4749.79094 1.29667e-17
4750.94290 1.27988e-17
4752.08483 1.26310e-17
4753.23679 1.26468e-17
4754.37873 1.26625e-17
4755.53068 1.25204e-17
4756.68264 1.23784e-17
4757.82458 1.22180e-17
4758.97653 1.20577e-17
4760.11847 1.19518e-17
4761.27042 1.18458e-17
4762.41236 1.16864e-17
4763.56432 1.15271e-17
4764.70625 1.15095e-17
4765.85821 1.14918e-17
4767.01016 1.13804e-17
4768.15210 1.12690e-17
4769.30406 1.12137e-17
4770.44600 1.11584e-17
4771.59795 1.11137e-17
4772.73989 1.10690e-17
4773.89184 1.10731e-17
4775.04380 1.10773e-17
4776.18574 1.11492e-17
4777.33769 1.12210e-17
4778.47963 1.10620e-17
4779.63158 1.09032e-17
4780.77352 1.08768e-17
4781.92548 1.08504e-17
4783.06742 1.07918e-17
4784.21937 1.07333e-17
4785.37133 1.08945e-17
4786.51326 1.10556e-17
4787.66522 1.11948e-17
4788.80716 1.13340e-17
4789.95911 1.12164e-17
4791.10105 1.10988e-17
4792.25300 1.12610e-17
4793.39494 1.14232e-17
4794.54690 1.13867e-17
4795.69885 1.13503e-17
4796.84079 1.15491e-17
4797.99275 1.17478e-17
4799.13468 1.17223e-17
4800.28664 1.16969e-17
4801.42858 1.17090e-17
4802.58053 1.17212e-17
4803.72247 1.19383e-17
4804.87442 1.21553e-17
4806.02638 1.22467e-17
4807.16832 1.23380e-17
4808.32027 1.22662e-17
4809.46221 1.21944e-17
4810.61416 1.22172e-17
4811.75610 1.22401e-17
4812.90806 1.24069e-17
4814.06001 1.25737e-17
4815.20195 1.27023e-17
4816.35391 1.28308e-17
4817.49584 1.27636e-17
4818.64780 1.26964e-17
4819.78974 1.26257e-17
4820.94169 1.25552e-17
4822.08363 1.26952e-17
4823.23559 1.28351e-17
4824.38754 1.28347e-17
4825.52948 1.28343e-17
4826.68143 1.28589e-17
4827.82337 1.28835e-17
4828.97533 1.27877e-17
4830.11726 1.26919e-17
4831.26922 1.25023e-17
4832.42117 1.23129e-17
4833.56311 1.23266e-17
4834.71507 1.23403e-17
4835.85700 1.23293e-17
4837.00896 1.23183e-17
4838.15090 1.22718e-17
4839.30285 1.22252e-17
4840.44479 1.20807e-17
4841.59675 1.19362e-17
4842.74870 1.20057e-17
4843.89064 1.20752e-17
4845.04259 1.19553e-17
4846.18453 1.18354e-17
4847.33649 1.18759e-17
4848.47843 1.19163e-17
4849.63038 1.17563e-17
4850.77232 1.15962e-17
4851.92427 1.16177e-17
4853.07623 1.16392e-17
4854.21817 1.16607e-17
4855.37012 1.16822e-17
4856.51206 1.17037e-17
4857.66401 1.17252e-17
4858.80595 1.17467e-17
4859.95791 1.17682e-17
4861.10986 1.17897e-17
4862.25180 1.18112e-17
4863.40375 1.18327e-17
4864.54569 1.18542e-17
4865.69765 1.18757e-17
4866.83959 1.18971e-17
4867.99154 1.19186e-17
4869.13348 1.19401e-17
4870.28543 1.19616e-17
4871.43739 1.19830e-17
4872.57933 1.20045e-17
4873.73128 1.20260e-17
4874.87322 1.20474e-17
4876.02517 1.20689e-17
4877.16711 1.20903e-17
4878.31907 1.21118e-17
4879.47102 1.21332e-17
4880.61296 1.21547e-17
4881.76492 1.21761e-17
4882.90685 1.21976e-17
4884.05881 1.22190e-17
4885.20075 1.22404e-17
4886.35270 1.22619e-17
4887.49464 1.22833e-17
4888.64660 1.23047e-17
4889.79855 1.24633e-17
4890.94049 1.25319e-17
4892.09244 1.26005e-17
4893.23438 1.27629e-17
4894.38634 1.29254e-17
4895.52827 1.31262e-17
4896.68023 1.33270e-17
4897.83218 1.33584e-17
4898.97412 1.33897e-17
4900.12608 1.35536e-17
4901.26801 1.37175e-17
4902.41997 1.39074e-17
4903.56191 1.40972e-17
4904.71386 1.41607e-17
4905.85580 1.42242e-17
4907.00776 1.43204e-17
4908.15971 1.44167e-17
4909.30165 1.46198e-17
4910.45360 1.48229e-17
4911.59554 1.49721e-17
4912.74750 1.51212e-17
4913.88944 1.52253e-17
4915.04139 1.53294e-17
4916.18333 1.55238e-17
4917.33528 1.57182e-17
4918.48724 1.58137e-17
4919.62918 1.59092e-17
4920.78113 1.60910e-17
4921.92307 1.62728e-17
4923.07502 1.64516e-17
4924.21696 1.66303e-17
4925.36892 1.65273e-17
4926.52087 1.64242e-17
4927.66281 1.63933e-17
4928.81477 1.63624e-17
4929.95670 1.65563e-17
4931.10866 1.67501e-17
4932.25060 1.67881e-17
4933.40255 1.68261e-17
4934.54449 1.67318e-17
4935.69644 1.66376e-17
4936.84840 1.66718e-17
4937.99034 1.67061e-17
4939.14229 1.68661e-17
4940.28423 1.70260e-17
4941.43619 1.71046e-17
4942.57812 1.71831e-17
4943.73008 1.70415e-17
4944.87202 1.68999e-17
4946.02397 1.68221e-17
4947.17593 1.67443e-17
4948.31786 1.66330e-17
4949.46982 1.65141e-17
4950.61176 1.63952e-17
4951.76371 1.62764e-17
4952.90565 1.61575e-17
4954.05760 1.60387e-17
4955.20956 1.59200e-17
4956.35150 1.58012e-17
4957.50345 1.56824e-17
4958.64539 1.55637e-17
4959.79735 1.54450e-17
4960.93928 1.53263e-17
4962.09124 1.52076e-17
4963.23318 1.50889e-17
4964.38513 1.49702e-17
4965.53709 1.48516e-17
4966.67903 1.47329e-17
4967.83098 1.46143e-17
4968.97292 1.44957e-17
4970.12487 1.43771e-17
4971.26681 1.42585e-17
4972.41877 1.41399e-17
4973.56070 1.40214e-17
4974.71266 1.39028e-17
4975.86461 1.37843e-17
4977.00655 1.36658e-17
4978.15851 1.35474e-17
4979.30045 1.34289e-17
4980.45240 1.33105e-17
4981.59434 1.31920e-17
4982.74629 1.30736e-17
4983.89825 1.29552e-17
4985.04019 1.28368e-17
4986.19214 1.27184e-17
4987.33408 1.26700e-17
4988.48603 1.26216e-17
4989.62797 1.24848e-17
4990.77993 1.23480e-17
4991.92187 1.22509e-17
4993.07382 1.21537e-17
4994.22577 1.20034e-17
4995.36771 1.18532e-17
4996.51967 1.17758e-17
4997.66161 1.17589e-17
4998.81356 1.17420e-17
4999.95550 1.17251e-17
5001.10745 1.17081e-17
5002.25941 1.16912e-17
5003.40135 1.16743e-17
5004.55330 1.16574e-17
5005.69524 1.16405e-17
5006.84720 1.16236e-17
5007.98913 1.16068e-17
5009.14109 1.15899e-17
5010.28303 1.15730e-17
5011.43498 1.15561e-17
5012.58694 1.15392e-17
5013.72887 1.15223e-17
5014.88083 1.15054e-17
5016.02277 1.14886e-17
5017.17472 1.14717e-17
5018.31666 1.14548e-17
5019.46861 1.14379e-17
5020.61055 1.14211e-17
5021.76251 1.14042e-17
5022.91446 1.13873e-17
5024.05640 1.13705e-17
5025.20836 1.13536e-17
5026.35029 1.13368e-17
5027.50225 1.13199e-17
5028.64419 1.13031e-17
5029.79614 1.12862e-17
5030.94810 1.12694e-17
5032.09004 1.12525e-17
5033.24199 1.12357e-17
5034.38393 1.12188e-17
5035.53588 1.11704e-17
5036.67782 1.11221e-17
5037.82978 1.11650e-17
5038.97171 1.12079e-17
5040.12367 1.13596e-17
5041.27562 1.15113e-17
5042.41756 1.16535e-17
5043.56952 1.17956e-17
5044.71145 1.18477e-17
5045.86341 1.18999e-17
5047.00535 1.20520e-17
5048.15730 1.22040e-17
5049.30926 1.22244e-17
5050.45120 1.22448e-17
5051.60315 1.22965e-17
5052.74509 1.23483e-17
5053.89704 1.25096e-17
5055.03898 1.26710e-17
5056.19094 1.28147e-17
5057.33288 1.29584e-17
5058.48483 1.29023e-17
5059.63679 1.28463e-17
5060.77872 1.29793e-17
5061.93068 1.31123e-17
5063.07262 1.31182e-17
5064.22457 1.31240e-17
5065.36651 1.31308e-17
5066.51846 1.31376e-17
5067.66040 1.31330e-17
5068.81236 1.31284e-17
5069.96431 1.32557e-17
5071.10625 1.33829e-17
5072.25821 1.33553e-17
5073.40014 1.33278e-17
5074.55210 1.33661e-17
5075.69404 1.34045e-17
5076.84599 1.34575e-17
5077.99795 1.35106e-17
5079.13988 1.36226e-17
5080.29184 1.37346e-17
5081.43378 1.37484e-17
5082.58573 1.37623e-17
5083.72767 1.39053e-17
5084.87963 1.40484e-17
5086.02156 1.40765e-17
5087.17352 1.41045e-17
5088.32547 1.41376e-17
5089.46741 1.41706e-17
5090.61937 1.42078e-17
5091.76130 1.42450e-17
5092.91326 1.42120e-17
5094.05520 1.41790e-17
5095.20715 1.42022e-17
5096.34909 1.42253e-17
5097.50105 1.43065e-17
5098.65300 1.43877e-17
5099.79494 1.44738e-17
5100.94689 1.45598e-17
5102.08883 1.44751e-17
5103.24079 1.43905e-17
5104.38272 1.42998e-17
5105.53468 1.42093e-17
5106.68663 1.41999e-17
5107.82857 1.41905e-17
5108.98053 1.41806e-17
5110.12247 1.41708e-17
5111.27442 1.42362e-17
5112.41636 1.43015e-17
5113.56831 1.43385e-17
5114.71025 1.43754e-17
5115.86221 1.42160e-17
5117.01416 1.40567e-17
5118.15610 1.41722e-17
5119.30805 1.42877e-17
5120.44999 1.42852e-17
5121.60195 1.42826e-17
5122.74389 1.41710e-17
5123.89584 1.40594e-17
5125.04780 1.40634e-17
5126.18973 1.40675e-17
5127.34169 1.41621e-17
5128.48363 1.42566e-17
5129.63558 1.41645e-17
5130.77752 1.40724e-17
5131.92947 1.40038e-17
5133.07141 1.39354e-17
5134.22337 1.40141e-17
5135.37532 1.40929e-17
5136.51726 1.40550e-17
5137.66921 1.40171e-17
5138.81115 1.40193e-17
5139.96311 1.40215e-17
5141.10505 1.40345e-17
5142.25700 1.40475e-17
5143.39894 1.40929e-17
5144.55089 1.41383e-17
5145.70285 1.40577e-17
5146.84479 1.39771e-17
5147.99674 1.38461e-17
5149.13868 1.37153e-17
5150.29064 1.37719e-17
5151.43257 1.38285e-17
5152.58453 1.39110e-17
5153.72647 1.39935e-17
5154.87842 1.40578e-17
5156.03038 1.41221e-17
5157.17231 1.41333e-17
5158.32427 1.41445e-17
5159.46621 1.41084e-17
5160.61816 1.40723e-17
5161.76010 1.41088e-17
5162.91205 1.41454e-17
5164.06401 1.42270e-17
5165.20595 1.43086e-17
5166.35790 1.42960e-17
5167.49984 1.42834e-17
5168.65180 1.43056e-17
5169.79373 1.43278e-17
5170.94569 1.44671e-17
5172.09764 1.46064e-17
5173.23958 1.47240e-17
5174.39154 1.48416e-17
5175.53348 1.48654e-17
5176.68543 1.48891e-17
5177.82737 1.49122e-17
5178.97932 1.49352e-17
5180.12126 1.49397e-17
5181.27322 1.49442e-17
5182.42517 1.49737e-17
5183.56711 1.50032e-17
5184.71906 1.50403e-17
5185.86100 1.50774e-17
5187.01296 1.51741e-17
5188.15490 1.52707e-17
5189.30685 1.53704e-17
5190.45881 1.54700e-17
5191.60074 1.55038e-17
5192.75270 1.55376e-17
5193.89464 1.57479e-17
5195.04659 1.59582e-17
5196.18853 1.60642e-17
5197.34048 1.61701e-17
5198.48242 1.62445e-17
5199.63438 1.63189e-17
5200.78633 1.63157e-17
5201.92827 1.63124e-17
5203.08023 1.64411e-17
5204.22216 1.65697e-17
5205.37412 1.66977e-17
5206.51606 1.68258e-17
5207.66801 1.69423e-17
5208.80995 1.70587e-17
5209.96190 1.70184e-17
5211.11386 1.69782e-17
5212.25580 1.71042e-17
5213.40775 1.72301e-17
5214.54969 1.72801e-17
5215.70165 1.73300e-17
5216.84358 1.73643e-17
5217.99554 1.73985e-17
5219.13748 1.74468e-17
5220.28943 1.74952e-17
5221.44139 1.75806e-17
5222.58332 1.76660e-17
5223.73528 1.77188e-17
5224.87722 1.77716e-17
5226.02917 1.79317e-17
5227.17111 1.80919e-17
5228.32306 1.81936e-17
5229.47502 1.82952e-17
5230.61696 1.81776e-17
5231.76891 1.80601e-17
5232.91085 1.81383e-17
5234.06281 1.82166e-17
5235.20474 1.83990e-17
5236.35670 1.85815e-17
5237.49864 1.86292e-17
5238.65059 1.86770e-17
5239.80255 1.86625e-17
5240.94448 1.86480e-17
5242.09644 1.87565e-17
5243.23838 1.88651e-17
5244.39033 1.89488e-17
5245.53227 1.90325e-17
5246.68423 1.90130e-17
5247.83618 1.89935e-17
5248.97812 1.90824e-17
5250.13007 1.91712e-17
5251.27201 1.91415e-17
5252.42397 1.91119e-17
5253.56590 1.91602e-17
5254.71786 1.92084e-17
5255.85980 1.92230e-17
5257.01175 1.92376e-17
5258.16371 1.92171e-17
5259.30565 1.91966e-17
5260.45760 1.91584e-17
5261.59954 1.91203e-17
5262.75149 1.92248e-17
5263.89343 1.93293e-17
5265.04539 1.93478e-17
5266.18732 1.93664e-17
5267.33928 1.93766e-17
5268.49124 1.93868e-17
5269.63317 1.94411e-17
5270.78513 1.94955e-17
5271.92707 1.96246e-17
5273.07902 1.97536e-17
5274.22096 1.97790e-17
5275.37291 1.98045e-17
5276.52487 1.98489e-17
5277.66681 1.98933e-17
5278.81876 1.97581e-17
5279.96070 1.96230e-17
5281.11265 1.97320e-17
5282.25459 1.98411e-17
5283.40655 1.99562e-17
5284.54849 2.00713e-17
5285.70044 2.00926e-17
5286.85240 2.01139e-17
5287.99433 2.00205e-17
5289.14629 1.99271e-17
5290.28823 1.98857e-17
5291.44018 1.98443e-17
5292.58212 1.98642e-17
5293.73408 1.98842e-17
5294.88603 1.99746e-17
5296.02797 2.00651e-17
5297.17992 1.99957e-17
5298.32186 1.99264e-17
5299.47382 1.98288e-17
5300.61575 1.97313e-17
5301.76771 1.97322e-17
5302.90965 1.97331e-17
5304.06160 1.98365e-17
5305.21356 1.99399e-17
5306.35550 1.99111e-17
5307.50745 1.98823e-17
5308.64939 1.98675e-17
5309.80134 1.98527e-17
5310.94328 1.99055e-17
5312.09524 1.99581e-17
5313.23717 1.99568e-17
5314.38913 1.99555e-17
5315.54108 1.98489e-17
5316.68302 1.97423e-17
5317.83498 1.98349e-17
5318.97692 1.99273e-17
5320.12887 1.98084e-17
5321.27081 1.96895e-17
5322.42276 1.97668e-17
5323.57472 1.98441e-17
5324.71666 1.98573e-17
5325.86861 1.98704e-17
5327.01055 1.97625e-17
5328.16250 1.96545e-17
5329.30444 1.95451e-17
5330.45640 1.94357e-17
5331.59834 1.93141e-17
5332.75029 1.91925e-17
5333.90225 1.91799e-17
5335.04418 1.91673e-17
5336.19614 1.92105e-17
5337.33808 1.92536e-17
5338.49003 1.91965e-17
5339.63197 1.91394e-17
5340.78392 1.91059e-17
5341.92586 1.90725e-17
5343.07782 1.91596e-17
5344.22977 1.92466e-17
5345.37171 1.91589e-17
5346.52366 1.90713e-17
5347.66560 1.89615e-17
5348.81756 1.88518e-17
5349.95950 1.88196e-17
5351.11145 1.87873e-17
5352.26341 1.87019e-17
5353.40534 1.86165e-17
5354.55730 1.85925e-17
5355.69924 1.85684e-17
5356.85119 1.85865e-17
5357.99313 1.86046e-17
5359.14509 1.85214e-17
5360.28702 1.84383e-17
5361.43898 1.83922e-17
5362.59093 1.83461e-17
5363.73287 1.83164e-17
5364.88483 1.82867e-17
5366.02676 1.81412e-17
5367.17872 1.79958e-17
5368.32066 1.80882e-17
5369.47261 1.81806e-17
5370.61455 1.81905e-17
5371.76650 1.82005e-17
5372.91846 1.81503e-17
5374.06040 1.81001e-17
5375.21235 1.80530e-17
5376.35429 1.80058e-17
5377.50625 1.79841e-17
5378.64818 1.79624e-17
5379.80014 1.79974e-17
5380.95209 1.80323e-17
5382.09403 1.79964e-17
5383.24599 1.79606e-17
5384.38792 1.79864e-17
5385.53988 1.80122e-17
5386.68182 1.80096e-17
5387.83377 1.80071e-17
5388.97571 1.80186e-17
5390.12767 1.80301e-17
5391.27962 1.79265e-17
5392.42156 1.78229e-17
5393.57351 1.77381e-17
5394.71545 1.76532e-17
5395.86741 1.76702e-17
5397.00935 1.76871e-17
5398.16130 1.76807e-17
5399.31326 1.76743e-17
5400.45519 1.75591e-17
5401.60715 1.74441e-17
5402.74909 1.75956e-17
5403.90104 1.77470e-17
5405.04298 1.78037e-17
5406.19493 1.78605e-17
5407.33687 1.77967e-17
5408.48883 1.77329e-17
5409.64078 1.76908e-17
5410.78272 1.76486e-17
5411.93468 1.76133e-17
5413.07661 1.75780e-17
5414.22857 1.74615e-17
5415.37051 1.73450e-17
5416.52246 1.75043e-17
5417.67442 1.76635e-17
5418.81635 1.77290e-17
5419.96831 1.77944e-17
5421.11025 1.77718e-17
5422.26220 1.77493e-17
5423.40414 1.78032e-17
5424.55610 1.78570e-17
5425.69803 1.78187e-17
5426.84999 1.77803e-17
5428.00194 1.77277e-17
5429.14388 1.76750e-17
5430.29584 1.76258e-17
5431.43777 1.75767e-17
5432.58973 1.76412e-17
5433.73167 1.77057e-17
5434.88362 1.77452e-17
5436.02556 1.77846e-17
5437.17752 1.77137e-17
5438.32947 1.76429e-17
5439.47141 1.76794e-17
5440.62336 1.77159e-17
5441.76530 1.76630e-17
5442.91726 1.76102e-17
5444.05919 1.75910e-17
5445.21115 1.75719e-17
5446.35309 1.76802e-17
5447.50504 1.77884e-17
5448.65700 1.77467e-17
5449.79894 1.77050e-17
5450.95089 1.76776e-17
5452.09283 1.76503e-17
5453.24478 1.76511e-17
5454.38672 1.76518e-17
5455.53868 1.75766e-17
5456.69063 1.75014e-17
5457.83257 1.74621e-17
5458.98452 1.74227e-17
5460.12646 1.75040e-17
5461.27842 1.75852e-17
5462.42036 1.76604e-17
5463.57231 1.77355e-17
5464.72426 1.76581e-17
5465.86620 1.75808e-17
5467.01816 1.75336e-17
5468.16010 1.74864e-17
5469.31205 1.74502e-17
5470.45399 1.74139e-17
5471.60594 1.73608e-17
5472.74788 1.73077e-17
5473.89984 1.73371e-17
5475.05179 1.73664e-17
5476.19373 1.74167e-17
5477.34569 1.74669e-17
5478.48762 1.74594e-17
5479.63958 1.74518e-17
5480.78152 1.73526e-17
5481.93347 1.72534e-17
5483.07541 1.71385e-17
5484.22736 1.70237e-17
5485.37932 1.70111e-17
5486.52126 1.69985e-17
5487.67321 1.71241e-17
5488.81515 1.72496e-17
5489.96710 1.72300e-17
5491.10904 1.72104e-17
5492.26100 1.71411e-17
5493.40294 1.70718e-17
5494.55489 1.70807e-17
5495.70685 1.70896e-17
5496.84878 1.71034e-17
5498.00074 1.71171e-17
5499.14268 1.71234e-17
5500.29463 1.71297e-17
5501.43657 1.69840e-17
5502.58853 1.68383e-17
5503.74048 1.67861e-17
5504.88242 1.67339e-17
5506.03437 1.67305e-17
5507.17631 1.67271e-17
5508.32827 1.66459e-17
5509.47020 1.65647e-17
5510.62216 1.65291e-17
5511.76410 1.64935e-17
5512.91605 1.65507e-17
5514.06801 1.66080e-17
5515.20995 1.66781e-17
5516.36190 1.67481e-17
5517.50384 1.66550e-17
5518.65579 1.65620e-17
5519.79773 1.64699e-17
5520.94969 1.63778e-17
5522.10164 1.63446e-17
5523.24358 1.63114e-17
5524.39553 1.62495e-17
5525.53747 1.61875e-17
5526.68943 1.61168e-17
5527.83137 1.60462e-17
5528.98332 1.60182e-17
5530.12526 1.59902e-17
5531.27721 1.58949e-17
5532.42917 1.57998e-17
5533.57111 1.58405e-17
5534.72306 1.58812e-17
5535.86500 1.59634e-17
5537.01695 1.60455e-17
5538.15889 1.59288e-17
5539.31085 1.58121e-17
5540.46280 1.57820e-17
5541.60474 1.57519e-17
5542.75670 1.56324e-17
5543.89863 1.55129e-17
5545.05059 1.55081e-17
5546.19253 1.55032e-17
5547.34448 1.55359e-17
5548.48642 1.55685e-17
5549.63837 1.55746e-17
5550.79033 1.55808e-17
5551.93227 1.56259e-17
5553.08422 1.56710e-17
5554.22616 1.57072e-17
5555.37812 1.57434e-17
5556.52005 1.56389e-17
5557.67201 1.55344e-17
5558.81395 1.55190e-17
5559.96590 1.55035e-17
5561.11786 1.53438e-17
5562.25979 1.51843e-17
5563.41175 1.52452e-17
5564.55369 1.53060e-17
5565.70564 1.53337e-17
5566.84758 1.53614e-17
5567.99953 1.52979e-17
5569.14147 1.52343e-17
5570.29343 1.51520e-17
5571.44538 1.50698e-17
5572.58732 1.51678e-17
5573.73928 1.52658e-17
5574.88121 1.52619e-17
5576.03317 1.52580e-17
5577.17511 1.52877e-17
5578.32706 1.53173e-17
5579.47902 1.51877e-17
5580.62095 1.50580e-17
5581.77291 1.50274e-17
5582.91485 1.49968e-17
5584.06680 1.49356e-17
5585.20874 1.48745e-17
5586.36070 1.49363e-17
5587.50263 1.49981e-17
5588.65459 1.50011e-17
5589.80654 1.50041e-17
5590.94848 1.49909e-17
5592.10044 1.49777e-17
5593.24237 1.49561e-17
5594.39433 1.49346e-17
5595.53627 1.49705e-17
5596.68822 1.50063e-17
5597.84018 1.48768e-17
5598.98212 1.47473e-17
5600.13407 1.47530e-17
5601.27601 1.47587e-17
5602.42796 1.46805e-17
5603.56990 1.46023e-17
5604.72186 1.45746e-17
5605.86380 1.45470e-17
5607.01575 1.46194e-17
5608.16770 1.46919e-17
5609.30964 1.46258e-17
5610.46160 1.45599e-17
5611.60354 1.46145e-17
5612.75549 1.46692e-17
5613.89743 1.47138e-17
5615.04938 1.47584e-17
5616.20134 1.47646e-17
5617.34328 1.47707e-17
5618.49523 1.46846e-17
5619.63717 1.45986e-17
5620.78913 1.46056e-17
5621.93106 1.46127e-17
5623.08302 1.45389e-17
5624.22496 1.44651e-17
5625.37691 1.43691e-17
5626.52887 1.42732e-17
5627.67080 1.42390e-17
5628.82276 1.42049e-17
5629.96470 1.43362e-17
5631.11665 1.44674e-17
5632.25859 1.44702e-17
5633.41055 1.44730e-17
5634.55248 1.43892e-17
5635.70444 1.43054e-17
5636.85639 1.41301e-17
5637.99833 1.39548e-17
5639.15029 1.41007e-17
5640.29222 1.42465e-17
5641.44418 1.41416e-17
5642.58612 1.40369e-17
5643.73807 1.40835e-17
5644.89003 1.41301e-17
5646.03197 1.41060e-17
5647.18392 1.40817e-17
5648.32586 1.38845e-17
5649.47781 1.36874e-17
5650.61975 1.37090e-17
5651.77171 1.37306e-17
5652.91364 1.38194e-17
5654.06560 1.39082e-17
5655.21755 1.37541e-17
5656.35949 1.36001e-17
5657.51145 1.34891e-17
5658.65339 1.33783e-17
5659.80534 1.34275e-17
5660.94728 1.34767e-17
5662.09923 1.34117e-17
5663.24117 1.33467e-17
5664.39313 1.33159e-17
5665.54508 1.32852e-17
5666.68702 1.32306e-17
5667.83897 1.31761e-17
5668.98091 1.31649e-17
5670.13287 1.31538e-17
5671.27481 1.30830e-17
5672.42676 1.30121e-17
5673.57871 1.30338e-17
5674.72065 1.30555e-17
5675.87261 1.30909e-17
5677.01455 1.31263e-17
5678.16650 1.31169e-17
5679.30844 1.31076e-17
5680.46039 1.30646e-17
5681.60233 1.30216e-17
5682.75429 1.29620e-17
5683.90624 1.29024e-17
5685.04818 1.28386e-17
5686.20014 1.27748e-17
5687.34207 1.27912e-17
5688.49403 1.28074e-17
5689.63597 1.26226e-17
5690.78792 1.24378e-17
5691.92986 1.24107e-17
5693.08181 1.23836e-17
5694.23377 1.24444e-17
5695.37571 1.25053e-17
5696.52766 1.25853e-17
5697.66960 1.26653e-17
5698.82155 1.25262e-17
5699.96349 1.23873e-17
5701.11545 1.23115e-17
5702.26740 1.22357e-17
5703.40934 1.22059e-17
5704.56130 1.21762e-17
5705.70323 1.20875e-17
5706.85519 1.19988e-17
5707.99713 1.19954e-17
5709.14908 1.19920e-17
5710.29102 1.19806e-17
5711.44297 1.19692e-17
5712.59493 1.20072e-17
5713.73687 1.20452e-17
5714.88882 1.20871e-17
5716.03076 1.21288e-17
5717.18272 1.19749e-17
5718.32465 1.18210e-17
5719.47661 1.17911e-17
5720.62856 1.17612e-17
5721.77050 1.17459e-17
5722.92246 1.17306e-17
5724.06440 1.17181e-17
5725.21635 1.17057e-17
5726.35829 1.17367e-17
5727.51024 1.17676e-17
5728.65218 1.16778e-17
5729.80414 1.15881e-17
5730.95609 1.15563e-17
5732.09803 1.15246e-17
5733.24998 1.15512e-17
5734.39192 1.15777e-17
5735.54388 1.14419e-17
5736.68581 1.13062e-17
5737.83777 1.12407e-17
5738.97971 1.11753e-17
5740.13166 1.12898e-17
5741.28362 1.14043e-17
5742.42556 1.14137e-17
5743.57751 1.14231e-17
5744.71945 1.13857e-17
5745.87140 1.13483e-17
5747.01334 1.13473e-17
5748.16530 1.13463e-17
5749.31725 1.14122e-17
5750.45919 1.14780e-17
5751.61115 1.15158e-17
5752.75308 1.15536e-17
5753.90504 1.15589e-17
5755.04698 1.15642e-17
5756.19893 1.16187e-17
5757.34087 1.16732e-17
5758.49282 1.16858e-17
5759.64478 1.16984e-17
5760.78672 1.15406e-17
5761.93867 1.13828e-17
5763.08061 1.14292e-17
5764.23257 1.14756e-17
5765.37450 1.15695e-17
5766.52646 1.16633e-17
5767.67841 1.16638e-17
5768.82035 1.16644e-17
5769.97231 1.17650e-17
5771.11424 1.18654e-17
5772.26620 1.17703e-17
5773.40814 1.16753e-17
5774.56009 1.16488e-17
5775.70203 1.16223e-17
5776.85399 1.17260e-17
5778.00594 1.18297e-17
5779.14788 1.18590e-17
5780.29983 1.18884e-17
5781.44177 1.19734e-17
5782.59373 1.20585e-17
5783.73566 1.22399e-17
5784.88762 1.24212e-17
5786.02956 1.24085e-17
5787.18151 1.23957e-17
5788.33347 1.22148e-17
5789.47541 1.20341e-17
5790.62736 1.20519e-17
5791.76930 1.20697e-17
5792.92125 1.22004e-17
5794.06319 1.23311e-17
5795.21515 1.24257e-17
5796.36710 1.25203e-17
5797.50904 1.25146e-17
5798.66099 1.25089e-17
5799.80293 1.24642e-17
5800.95489 1.24196e-17
5802.09683 1.24379e-17
5803.24878 1.24562e-17
5804.39072 1.25303e-17
5805.54267 1.26045e-17
5806.69463 1.26846e-17
5807.83657 1.27648e-17
5808.98852 1.27947e-17
5810.13046 1.28245e-17
5811.28241 1.27357e-17
5812.42435 1.26471e-17
5813.57631 1.27481e-17
5814.72826 1.28491e-17
5815.87020 1.28290e-17
5817.02215 1.28088e-17
5818.16409 1.27667e-17
5819.31605 1.27246e-17
5820.45799 1.28353e-17
5821.60994 1.29460e-17
5822.75188 1.30093e-17
5823.90383 1.30725e-17
5825.05579 1.30133e-17
5826.19773 1.29542e-17
5827.34968 1.29641e-17
5828.49162 1.29739e-17
5829.64358 1.29415e-17
5830.78551 1.29092e-17
5831.93747 1.29722e-17
5833.08942 1.30351e-17
5834.23136 1.30479e-17
5835.38332 1.30606e-17
5836.52525 1.29328e-17
5837.67721 1.28050e-17
5838.81915 1.28217e-17
5839.97110 1.28385e-17
5841.11304 1.29167e-17
5842.26500 1.29948e-17
5843.41695 1.29907e-17
5844.55889 1.29866e-17
5845.71084 1.29263e-17
5846.85278 1.28659e-17
5848.00474 1.28557e-17
5849.14667 1.28454e-17
5850.29863 1.27966e-17
5851.44057 1.27480e-17
5852.59252 1.28335e-17
5853.74448 1.29190e-17
5854.88641 1.28727e-17
5856.03837 1.28265e-17
5857.18031 1.27817e-17
5858.33226 1.27370e-17
5859.47420 1.28123e-17
5860.62616 1.28875e-17
5861.76809 1.29286e-17
5862.92005 1.29697e-17
5864.07200 1.28427e-17
5865.21394 1.27158e-17
5866.36590 1.26872e-17
5867.50784 1.26585e-17
5868.65979 1.27172e-17
5869.80173 1.27759e-17
5870.95368 1.28857e-17
5872.10564 1.29955e-17
5873.24758 1.30606e-17
5874.39953 1.31255e-17
5875.54147 1.29726e-17
5876.69342 1.28197e-17
5877.83536 1.27299e-17
5878.98732 1.26401e-17
5880.12925 1.26224e-17
5881.28121 1.26048e-17
5882.43317 1.25425e-17
5883.57510 1.24802e-17
5884.72706 1.23685e-17
5885.86900 1.22567e-17
5887.02095 1.21286e-17
5888.16289 1.20004e-17
5889.31484 1.18276e-17
5890.46680 1.16549e-17
5891.60874 1.16428e-17
5892.76069 1.16307e-17
5893.90263 1.15969e-17
5895.05459 1.15631e-17
5896.19652 1.15671e-17
5897.34848 1.15712e-17
5898.49042 1.15874e-17
5899.64237 1.16037e-17
5900.79433 1.17340e-17
5901.93626 1.18643e-17
5903.08822 1.19747e-17
5904.23016 1.20850e-17
5905.38211 1.21407e-17
5906.52405 1.21964e-17
5907.67601 1.23458e-17
5908.81794 1.24951e-17
5909.96990 1.25173e-17
5911.12185 1.25394e-17
5912.26379 1.25499e-17
5913.41575 1.25603e-17
5914.55768 1.25905e-17
5915.70964 1.26206e-17
5916.85158 1.25416e-17
5918.00353 1.24626e-17
5919.14547 1.24397e-17
5920.29743 1.24168e-17
5921.44938 1.24723e-17
5922.59132 1.25277e-17
5923.74327 1.25250e-17
5924.88521 1.25223e-17
5926.03717 1.25632e-17
5927.17910 1.26041e-17
5928.33106 1.26267e-17
5929.48301 1.26492e-17
5930.62495 1.26284e-17
5931.77691 1.26076e-17
5932.91885 1.26761e-17
5934.07080 1.27447e-17
5935.21274 1.28210e-17
5936.36469 1.28971e-17
5937.51665 1.27488e-17
5938.65859 1.26005e-17
5939.81054 1.24349e-17
5940.95248 1.22693e-17
5942.10443 1.21698e-17
5943.24637 1.20703e-17
5944.39833 1.20646e-17
5945.54026 1.20590e-17
5946.69222 1.21578e-17
5947.84418 1.22564e-17
5948.98611 1.22320e-17
5950.13807 1.22077e-17
5951.28001 1.22656e-17
5952.43196 1.23235e-17
5953.57390 1.23369e-17
5954.72585 1.23503e-17
5955.86779 1.23558e-17
5957.01975 1.23612e-17
5958.17170 1.24081e-17
5959.31364 1.24548e-17
5960.46560 1.23821e-17
5961.60753 1.23093e-17
5962.75949 1.21754e-17
5963.90143 1.20416e-17
5965.05338 1.20815e-17
5966.20534 1.21214e-17
5967.34727 1.21993e-17
5968.49923 1.22772e-17
5969.64117 1.22464e-17
5970.79312 1.22155e-17
5971.93506 1.21313e-17
5973.08702 1.20473e-17
5974.22895 1.21390e-17
5975.38091 1.22308e-17
5976.53286 1.22824e-17
5977.67480 1.23340e-17
5978.82676 1.21701e-17
5979.96869 1.20064e-17
5981.12065 1.20095e-17
5982.26259 1.20127e-17
5983.41454 1.20819e-17
5984.55648 1.21511e-17
5985.70844 1.21599e-17
5986.86039 1.21688e-17
5988.00233 1.21832e-17
5989.15428 1.21976e-17
5990.29622 1.20917e-17
5991.44818 1.19857e-17
5992.59011 1.19513e-17
5993.74207 1.19168e-17
5994.89402 1.19300e-17
5996.03596 1.19431e-17
5997.18792 1.18680e-17
5998.32985 1.17931e-17
5999.48181 1.18408e-17
6000.62375 1.18885e-17
6001.77570 1.18833e-17
6002.91764 1.18780e-17
6004.06960 1.18873e-17
6005.22155 1.18967e-17
6006.36349 1.19402e-17
6007.51544 1.19836e-17
6008.65738 1.19399e-17
6009.80934 1.18963e-17
6010.95128 1.19056e-17
6012.10323 1.19148e-17
6013.24517 1.18690e-17
6014.39712 1.18232e-17
6015.54908 1.18254e-17
6016.69102 1.18277e-17
6017.84297 1.18840e-17
6018.98491 1.19402e-17
6020.13686 1.19306e-17
6021.27880 1.19211e-17
6022.43076 1.19084e-17
6023.58271 1.18957e-17
6024.72465 1.19235e-17
6025.87660 1.19512e-17
6027.01854 1.19383e-17
6028.17050 1.19254e-17
6029.31244 1.20128e-17
6030.46439 1.21000e-17
6031.60633 1.20588e-17
6032.75828 1.20175e-17
6033.91024 1.20108e-17
6035.05218 1.20040e-17
6036.20413 1.20036e-17
6037.34607 1.20032e-17
6038.49802 1.19930e-17
6039.63996 1.19829e-17
6040.79192 1.19380e-17
6041.94387 1.18932e-17
6043.08581 1.19147e-17
6044.23777 1.19361e-17
6045.37970 1.20173e-17
6046.53166 1.20985e-17
6047.67360 1.21418e-17
6048.82555 1.21850e-17
6049.96749 1.21061e-17
6051.11945 1.20272e-17
6052.27140 1.20764e-17
6053.41334 1.21255e-17
6054.56529 1.21447e-17
6055.70723 1.21639e-17
6056.85919 1.21181e-17
6058.00112 1.20723e-17
6059.15308 1.21130e-17
6060.30503 1.21538e-17
6061.44697 1.22086e-17
6062.59893 1.22633e-17
6063.74086 1.21433e-17
6064.89282 1.20233e-17
6066.03476 1.20619e-17
6067.18671 1.21004e-17
6068.32865 1.21417e-17
6069.48061 1.21829e-17
6070.63256 1.22152e-17
6071.77450 1.22475e-17
6072.92645 1.22697e-17
6074.06839 1.22919e-17
6075.22035 1.22185e-17
6076.36229 1.21451e-17
6077.51424 1.21428e-17
6078.65618 1.21405e-17
6079.80813 1.21948e-17
6080.96009 1.22491e-17
6082.10203 1.22971e-17
6083.25398 1.23450e-17
6084.39592 1.23509e-17
6085.54787 1.23568e-17
6086.68981 1.23106e-17
6087.84177 1.22644e-17
6088.99372 1.22630e-17
6090.13566 1.22617e-17
6091.28762 1.22885e-17
6092.42955 1.23153e-17
6093.58151 1.23472e-17
6094.72345 1.23792e-17
6095.87540 1.23902e-17
6097.01734 1.24012e-17
6098.16929 1.24080e-17
6099.32125 1.24149e-17
6100.46319 1.24780e-17
6101.61514 1.25410e-17
6102.75708 1.24365e-17
6103.90904 1.23320e-17
6105.05097 1.23363e-17
6106.20293 1.23405e-17
6107.34487 1.22918e-17
6108.49682 1.22430e-17
6109.64878 1.22633e-17
6110.79071 1.22836e-17
6111.94267 1.24273e-17
6113.08461 1.25711e-17
6114.23656 1.26528e-17
6115.37850 1.27343e-17
6116.53046 1.26445e-17
6117.68241 1.25548e-17
6118.82435 1.25496e-17
6119.97630 1.25444e-17
6121.11824 1.25074e-17
6122.27020 1.24705e-17
6123.41213 1.24654e-17
6124.56409 1.24603e-17
6125.70603 1.25691e-17
6126.85798 1.26779e-17
6128.00994 1.25579e-17
6129.15188 1.24379e-17
6130.30383 1.24176e-17
6131.44577 1.23972e-17
6132.59772 1.24565e-17
6133.73966 1.25156e-17
6134.89162 1.25218e-17
6136.03355 1.25280e-17
6137.18551 1.25205e-17
6138.33746 1.25130e-17
6139.47940 1.24339e-17
6140.63136 1.23550e-17
6141.77330 1.23320e-17
6142.92525 1.23092e-17
6144.06719 1.23255e-17
6145.21914 1.23418e-17
6146.37110 1.22094e-17
6147.51304 1.20771e-17
6148.66499 1.20362e-17
6149.80693 1.19952e-17
6150.95888 1.19458e-17
6152.10082 1.18963e-17
6153.25278 1.18364e-17
6154.39472 1.17764e-17
6155.54667 1.17195e-17
6156.69862 1.16626e-17
6157.84056 1.15490e-17
6158.99252 1.14355e-17
6160.13446 1.14509e-17
6161.28641 1.14662e-17
6162.42835 1.13632e-17
6163.58030 1.12602e-17
6164.73226 1.11621e-17
6165.87420 1.10640e-17
6167.02615 1.10261e-17
6168.16809 1.09882e-17
6169.32005 1.09159e-17
6170.46198 1.08435e-17
6171.61394 1.06853e-17
6172.75588 1.05272e-17
6173.90783 1.04920e-17
6175.05979 1.04568e-17
6176.20172 1.04330e-17
6177.35368 1.04091e-17
6178.49562 1.02890e-17
6179.64757 1.01690e-17
6180.78951 1.01483e-17
6181.94146 1.01277e-17
6183.09342 1.01256e-17
6184.23536 1.01235e-17
6185.38731 1.00504e-17
6186.52925 9.97729e-18
6187.68121 9.87738e-18
6188.82314 9.77750e-18
6189.97510 9.71492e-18
6191.11704 9.65233e-18
6192.26899 9.57498e-18
6193.42095 9.49763e-18
6194.56289 9.41928e-18
6195.71484 9.34097e-18
6196.85678 9.31418e-18
6198.00873 9.28743e-18
6199.15067 9.32256e-18
6200.30263 9.35767e-18
6201.44456 9.36851e-18
6202.59652 9.37932e-18
6203.74847 9.31034e-18
6204.89041 9.24138e-18
6206.04237 9.22236e-18
6207.18430 9.20332e-18
6208.33626 9.16380e-18
6209.47820 9.12431e-18
6210.63015 9.12536e-18
6211.77209 9.12641e-18
6212.92405 9.14760e-18
6214.07600 9.16882e-18
6215.21794 9.24496e-18
6216.36989 9.32105e-18
6217.51183 9.31791e-18
6218.66379 9.31474e-18
6219.80573 9.24738e-18
6220.95768 9.18002e-18
6222.10964 9.11747e-18
6223.25157 9.05505e-18
6224.40353 9.20399e-18
6225.54547 9.35289e-18
6226.69742 9.44326e-18
6227.83936 9.53358e-18
6228.99131 9.53880e-18
6230.13325 9.54399e-18
6231.28521 9.49852e-18
6232.43716 9.45308e-18
6233.57910 9.47373e-18
6234.73106 9.49438e-18
6235.87299 9.55035e-18
6237.02495 9.60629e-18
6238.16689 9.62123e-18
6239.31884 9.63622e-18
6240.47080 9.72611e-18
6241.61273 9.81596e-18
6242.76469 9.82696e-18
6243.90663 9.83799e-18
6245.05858 9.88188e-18
6246.20052 9.92582e-18
6247.35248 1.00542e-17
6248.49441 1.01825e-17
6249.64637 1.00619e-17
6250.79832 9.94138e-18
6251.94026 9.99112e-18
6253.09222 1.00409e-17
6254.23415 1.01125e-17
6255.38611 1.01840e-17
6256.52805 1.02179e-17
6257.68000 1.02518e-17
6258.83196 1.02480e-17
6259.97390 1.02442e-17
6261.12585 1.02412e-17
6262.26779 1.02382e-17
6263.41974 1.02168e-17
6264.56168 1.01956e-17
6265.71364 1.02136e-17
6266.85557 1.02317e-17
6268.00753 1.03509e-17
6269.15948 1.04700e-17
6270.30142 1.04202e-17
6271.45338 1.03704e-17
6272.59532 1.03871e-17
6273.74727 1.04036e-17
6274.88921 1.02995e-17
6276.04116 1.01955e-17
6277.18310 1.01550e-17
6278.33506 1.01145e-17
6279.48701 1.02070e-17
6280.62895 1.02995e-17
6281.78090 1.03086e-17
6282.92284 1.03176e-17
6284.07480 1.03896e-17
6285.21673 1.04615e-17
6286.36869 1.05257e-17
6287.52065 1.05898e-17
6288.66258 1.06184e-17
6289.81454 1.06470e-17
6290.95648 1.06050e-17
6292.10843 1.05631e-17
6293.25037 1.06466e-17
6294.40232 1.07302e-17
6295.54426 1.08781e-17
6296.69622 1.10259e-17
6297.84817 1.11070e-17
6298.99011 1.11881e-17
6300.14207 1.11918e-17
6301.28400 1.11954e-17
6302.43596 1.11801e-17
6303.57790 1.11648e-17
6304.72985 1.12174e-17
6305.87179 1.12700e-17
6307.02374 1.13249e-17
6308.17570 1.13798e-17
6309.31764 1.14387e-17
6310.46959 1.14976e-17
6311.61153 1.15766e-17
6312.76349 1.16557e-17
6313.90542 1.17189e-17
6315.05738 1.17820e-17
6316.20933 1.17404e-17
6317.35127 1.16988e-17
6318.50323 1.16331e-17
6319.64516 1.15675e-17
6320.79712 1.16825e-17
6321.93906 1.17974e-17
6323.09101 1.19628e-17
6324.23295 1.21280e-17
6325.38490 1.20352e-17
6326.53686 1.19425e-17
6327.67880 1.19526e-17
6328.83075 1.19627e-17
6329.97269 1.20844e-17
6331.12465 1.22059e-17
6332.26658 1.21960e-17
6333.41854 1.21861e-17
6334.56048 1.22647e-17
6335.71243 1.23432e-17
6336.86439 1.23850e-17
6338.00633 1.24267e-17
6339.15828 1.24218e-17
6340.30022 1.24168e-17
6341.45217 1.23323e-17
6342.59411 1.22478e-17
6343.74607 1.23030e-17
6344.89802 1.23581e-17
6346.03996 1.24261e-17
6347.19191 1.24941e-17
6348.33385 1.24014e-17
6349.48581 1.23088e-17
6350.62775 1.23982e-17
6351.77970 1.24876e-17
6352.93165 1.24957e-17
6354.07359 1.25038e-17
6355.22555 1.25541e-17
6356.36749 1.26044e-17
6357.51944 1.26801e-17
6358.66138 1.27557e-17
6359.81333 1.27080e-17
6360.95527 1.26604e-17
6362.10723 1.27154e-17
6363.25918 1.27705e-17
6364.40112 1.28074e-17
6365.55307 1.28442e-17
6366.69501 1.27410e-17
6367.84697 1.26378e-17
6368.98891 1.26536e-17
6370.14086 1.26694e-17
6371.28280 1.27573e-17
6372.43475 1.28451e-17
6373.58671 1.27914e-17
6374.72865 1.27378e-17
6375.88060 1.28037e-17
6377.02254 1.28696e-17
6378.17450 1.29065e-17
6379.31643 1.29434e-17
6380.46839 1.29050e-17
6381.62034 1.28666e-17
6382.76228 1.27939e-17
6383.91424 1.27212e-17
6385.05617 1.27607e-17
6386.20813 1.28002e-17
6387.35007 1.28792e-17
6388.50202 1.29582e-17
6389.64396 1.29764e-17
6390.79591 1.29944e-17
6391.94787 1.29295e-17
6393.08981 1.28647e-17
6394.24176 1.28506e-17
6395.38370 1.28364e-17
6396.53566 1.27797e-17
6397.67759 1.27230e-17
6398.82955 1.27952e-17
6399.97149 1.28673e-17
6401.12344 1.27603e-17
6402.27540 1.26534e-17
6403.41734 1.26914e-17
6404.56929 1.27295e-17
6405.71123 1.27330e-17
6406.86318 1.27365e-17
6408.00512 1.25781e-17
6409.15708 1.24199e-17
6410.30903 1.24409e-17
6411.45097 1.24619e-17
6412.60292 1.24332e-17
6413.74486 1.24045e-17
6414.89682 1.22497e-17
6416.03875 1.20950e-17
6417.19071 1.20256e-17
6418.33265 1.19562e-17
6419.48460 1.19360e-17
6420.63656 1.19158e-17
6421.77850 1.18897e-17
6422.93045 1.18636e-17
6424.07239 1.18897e-17
6425.22434 1.19158e-17
6426.36628 1.18710e-17
6427.51824 1.18261e-17
6428.66017 1.18780e-17
6429.81213 1.19299e-17
6430.96409 1.18776e-17
6432.10602 1.18253e-17
6433.25798 1.18450e-17
6434.39992 1.18646e-17
6435.55187 1.17900e-17
6436.69381 1.17154e-17
6437.84576 1.17283e-17
6438.99772 1.17412e-17
6440.13966 1.17756e-17
6441.29161 1.18099e-17
6442.43355 1.18354e-17
6443.58551 1.18609e-17
6444.72744 1.18986e-17
6445.87940 1.19363e-17
6447.02134 1.19087e-17
6448.17329 1.18811e-17
6449.32525 1.18591e-17
6450.46718 1.18372e-17
6451.61914 1.19131e-17
6452.76108 1.19889e-17
6453.91303 1.20491e-17
6455.05497 1.21091e-17
6456.20693 1.20485e-17
6457.35888 1.19878e-17
6458.50082 1.19190e-17
6459.65277 1.18504e-17
6460.79471 1.19599e-17
6461.94667 1.20693e-17
6463.08860 1.20437e-17
6464.24056 1.20182e-17
6465.38250 1.20016e-17
6466.53445 1.19850e-17
6467.68641 1.19936e-17
6468.82835 1.20021e-17
6469.98030 1.20510e-17
6471.12224 1.20999e-17
6472.27419 1.20728e-17
6473.41613 1.20458e-17
6474.56809 1.20475e-17
6475.72004 1.20491e-17
6476.86198 1.19743e-17
6478.01393 1.18994e-17
6479.15587 1.18742e-17
6480.30783 1.18490e-17
6481.44977 1.19215e-17
6482.60172 1.19940e-17
6483.74366 1.19838e-17
6484.89561 1.19736e-17
6486.04757 1.19671e-17
6487.18951 1.19607e-17
6488.34146 1.20252e-17
6489.48340 1.20896e-17
6490.63535 1.20783e-17
6491.77729 1.20670e-17
6492.92925 1.21458e-17
6494.07119 1.22245e-17
6495.22314 1.21741e-17
6496.37510 1.21238e-17
6497.51703 1.22152e-17
6498.66899 1.23065e-17
6499.81093 1.22806e-17
6500.96288 1.22546e-17
6502.10482 1.22287e-17
6503.25677 1.22029e-17
6504.39871 1.22055e-17
6505.55067 1.22081e-17
6506.70262 1.21194e-17
6507.84456 1.20307e-17
6508.99651 1.20180e-17
6510.13845 1.20052e-17
6511.29041 1.19585e-17
6512.43235 1.19118e-17
6513.58430 1.18303e-17
6514.73626 1.17488e-17
6515.87819 1.16165e-17
6517.03015 1.14843e-17
6518.17209 1.15406e-17
6519.32404 1.15968e-17
6520.46598 1.16651e-17
6521.61794 1.17333e-17
6522.75987 1.17587e-17
6523.91183 1.17841e-17
6525.06378 1.18344e-17
6526.20572 1.18846e-17
6527.35768 1.19112e-17
6528.49961 1.19379e-17
6529.65157 1.20164e-17
6530.79351 1.20948e-17
6531.94546 1.20777e-17
6533.09742 1.20605e-17
6534.23935 1.19974e-17
6535.39131 1.19343e-17
6536.53325 1.19495e-17
6537.68520 1.19646e-17
6538.82714 1.18949e-17
6539.97910 1.18253e-17
6541.12103 1.18244e-17
6542.27299 1.18234e-17
6543.42494 1.17108e-17
6544.56688 1.17024e-17
6545.71884 1.16940e-17
6546.86078 1.16856e-17
6548.01273 1.16773e-17
6549.15467 1.16689e-17
6550.30662 1.16605e-17
6551.44856 1.16521e-17
6552.60052 1.16437e-17
6553.75247 1.16353e-17
6554.89441 1.16270e-17
6556.04636 1.16186e-17
6557.18830 1.16102e-17
6558.34026 1.16018e-17
6559.48220 1.15934e-17
6560.63415 1.15851e-17
6561.78611 1.15767e-17
6562.92804 1.15683e-17
6564.08000 1.15599e-17
6565.22194 1.15515e-17
6566.37389 1.15432e-17
6567.51583 1.15348e-17
6568.66778 1.15264e-17
6569.80972 1.15180e-17
6570.96168 1.15097e-17
6572.11363 1.15013e-17
6573.25557 1.14929e-17
6574.40753 1.14846e-17
6575.54946 1.14762e-17
6576.70142 1.14678e-17
6577.84336 1.14594e-17
6578.99531 1.14511e-17
6580.13725 1.14427e-17
6581.28920 1.14343e-17
6582.44116 1.14260e-17
6583.58310 1.14176e-17
6584.73505 1.14092e-17
6585.87699 1.14009e-17
6587.02895 1.13925e-17
6588.17088 1.13841e-17
6589.32284 1.13758e-17
6590.47479 1.13674e-17
6591.61673 1.13590e-17
6592.76869 1.13507e-17
6593.91062 1.13423e-17
6595.06258 1.13339e-17
6596.20452 1.13256e-17
6597.35647 1.13172e-17
6598.49841 1.13088e-17
6599.65037 1.13005e-17
6600.80232 1.12921e-17
6601.94426 1.12838e-17
6603.09621 1.12754e-17
6604.23815 1.12670e-17
6605.39011 1.11328e-17
6606.53204 1.09987e-17
6607.68400 1.09971e-17
6608.83595 1.09955e-17
6609.97789 1.10577e-17
6611.12985 1.11200e-17
6612.27179 1.10972e-17
6613.42374 1.10745e-17
6614.56568 1.11357e-17
6615.71763 1.11968e-17
6616.85957 1.12749e-17
6618.01153 1.13529e-17
6619.16348 1.12641e-17
6620.30542 1.11754e-17
6621.45737 1.11776e-17
6622.59931 1.11799e-17
6623.75127 1.11964e-17
6624.89321 1.12129e-17
6626.04516 1.10795e-17
6627.18710 1.09461e-17
6628.33905 1.09439e-17
6629.49101 1.09417e-17
6630.63295 1.09477e-17
6631.78490 1.09536e-17
6632.92684 1.09576e-17
6634.07879 1.09616e-17
6635.22073 1.09808e-17
6636.37269 1.10000e-17
6637.52464 1.10016e-17
6638.66658 1.10031e-17
6639.81854 1.08806e-17
6640.96047 1.07581e-17
6642.11243 1.07734e-17
6643.25437 1.07886e-17
6644.40632 1.07970e-17
6645.54826 1.08054e-17
6646.70021 1.07398e-17
6647.85217 1.06742e-17
6648.99411 1.06573e-17
6650.14606 1.06405e-17
6651.28800 1.06279e-17
6652.43995 1.06153e-17
6653.58189 1.05710e-17
6654.73385 1.05268e-17
6655.87579 1.05253e-17
6657.02774 1.05238e-17
6658.17970 1.04774e-17
6659.32163 1.04311e-17
6660.47359 1.05153e-17
6661.61553 1.05994e-17
6662.76748 1.05961e-17
6663.90942 1.05927e-17
6665.06138 1.04245e-17
6666.21333 1.02565e-17
6667.35527 1.02816e-17
6668.50722 1.03067e-17
6669.64916 1.04183e-17
6670.80112 1.05298e-17
6671.94305 1.04145e-17
6673.09501 1.02993e-17
6674.24696 1.02479e-17
6675.38890 1.01966e-17
6676.54086 1.02819e-17
6677.68280 1.03672e-17
6678.83475 1.03055e-17
6679.97669 1.02438e-17
6681.12864 1.01753e-17
6682.27058 1.01068e-17
6683.42254 1.01346e-17
6684.57449 1.01624e-17
6685.71643 1.01475e-17
6686.86838 1.01327e-17
6688.01032 1.01905e-17
6689.16228 1.02484e-17
6690.30422 1.03532e-17
6691.45617 1.04579e-17
6692.59811 1.03705e-17
6693.75006 1.02830e-17
6694.90202 1.01199e-17
6696.04396 9.95694e-18
6697.19591 1.00452e-17
6698.33785 1.01334e-17
6699.48980 1.00618e-17
6700.63174 9.99029e-18
6701.78370 1.00553e-17
6702.93565 1.01203e-17
6704.07759 1.01746e-17
6705.22955 1.02288e-17
6706.37148 1.01098e-17
6707.52344 9.99092e-18
6708.66538 9.97493e-18
6709.81733 9.95898e-18
6710.95927 9.99240e-18
6712.11122 1.00258e-17
6713.26318 1.01012e-17
6714.40512 1.01764e-17
6715.55707 1.00820e-17
6716.69901 9.98777e-18
6717.85096 9.97689e-18
6718.99290 9.96604e-18
6720.14486 9.98890e-18
6721.28680 1.00118e-17
6722.43875 1.00813e-17
6723.59071 1.01508e-17
6724.73264 1.02253e-17
6725.88460 1.02998e-17
6727.02654 1.02766e-17
6728.17849 1.02534e-17
6729.32043 1.01046e-17
6730.47239 9.95597e-18
6731.62434 9.90073e-18
6732.76628 9.84553e-18
6733.91823 9.83993e-18
6735.06017 9.83434e-18
6736.21213 9.85521e-18
6737.35406 9.87618e-18
6738.50602 1.00721e-17
6739.64796 1.02680e-17
6740.79991 1.02932e-17
6741.95187 1.03183e-17
6743.09380 1.02294e-17
6744.24576 1.01405e-17
6745.38770 1.00528e-17
6746.53965 9.96510e-18
6747.68159 9.97340e-18
6748.83355 9.98160e-18
6749.97548 9.83179e-18
6751.12744 9.68212e-18
6752.27939 9.74453e-18
6753.42133 9.80693e-18
6754.57329 9.84481e-18
6755.71522 9.88266e-18
6756.86718 9.87390e-18
6758.00912 9.86517e-18
6759.16107 9.89084e-18
6760.31303 9.91645e-18
6761.45497 9.86147e-18
6762.60692 9.80649e-18
6763.74886 9.76573e-18
6764.90081 9.72498e-18
6766.04275 9.70249e-18
6767.19471 9.68008e-18
6768.33665 9.78595e-18
6769.48860 9.89168e-18
6770.64055 9.79658e-18
6771.78249 9.70155e-18
6772.93445 9.71545e-18
6774.07639 9.72933e-18
6775.22834 9.71461e-18
6776.37028 9.69993e-18
6777.52223 9.74274e-18
6778.67419 9.78551e-18
6779.81613 9.78565e-18
6780.96808 9.78573e-18
6782.11002 9.69013e-18
6783.26198 9.59456e-18
6784.40391 9.52531e-18
6785.55587 9.45611e-18
6786.69781 9.47022e-18
6787.84976 9.48438e-18
6789.00172 9.57332e-18
6790.14365 9.66218e-18
6791.29561 9.63294e-18
6792.43755 9.60365e-18
6793.58950 9.50673e-18
6794.73144 9.40986e-18
6795.88340 9.38640e-18
6797.02533 9.36301e-18
6798.17729 9.41933e-18
6799.32924 9.47560e-18
6800.47118 9.44513e-18
6801.62314 9.41471e-18
6802.76507 9.47294e-18
6803.91703 9.53114e-18
6805.05897 9.55039e-18
6806.21092 9.56963e-18
6807.36288 9.57122e-18
6808.50482 9.57277e-18
6809.65677 9.52975e-18
6810.79871 9.48676e-18
6811.95066 9.47857e-18
6813.09260 9.47041e-18
6814.24456 9.51519e-18
6815.38649 9.55989e-18
6816.53845 9.49240e-18
6817.69040 9.42497e-18
6818.83234 9.42608e-18
6819.98430 9.42720e-18
6821.12624 9.45186e-18
6822.27819 9.47649e-18
6823.42013 9.45858e-18
6824.57208 9.44064e-18
6825.72404 9.38397e-18
6826.86598 9.32732e-18
6828.01793 9.28321e-18
6829.15987 9.23913e-18
6830.31182 9.23042e-18
6831.45376 9.22171e-18
6832.60572 9.20666e-18
6833.74766 9.19165e-18
6834.89961 9.24554e-18
6836.05156 9.29936e-18
6837.19350 9.25533e-18
6838.34546 9.21130e-18
6839.48740 9.17007e-18
6840.63935 9.12888e-18
6841.78129 9.13663e-18
6842.93324 9.14448e-18
6844.07518 9.30900e-18
6845.22714 9.47332e-18
6846.37909 9.37150e-18
6847.52103 9.26966e-18
6848.67299 9.15365e-18
6849.81492 9.03768e-18
6850.96688 8.98123e-18
6852.10882 8.92488e-18
6853.26077 9.01366e-18
6854.40271 9.10237e-18
6855.55466 9.09517e-18
6856.70662 9.08798e-18
6857.84856 9.10523e-18
6859.00051 9.12249e-18
6860.14245 9.14684e-18
6861.29440 9.17099e-18
6862.43634 8.90869e-18
6863.58830 8.64655e-18
6864.74025 8.59724e-18
6865.88219 8.54793e-18
6867.03415 8.48584e-18
6868.17608 8.42354e-18
6869.32804 8.04069e-18
6870.46998 7.65809e-18
6871.62193 7.64427e-18
6872.76387 7.63061e-18
6873.91583 7.87729e-18
6875.06778 8.12406e-18
6876.20972 8.53749e-18
6877.36167 8.95098e-18
6878.50361 9.48461e-18
6879.65557 1.00179e-17
6880.79750 1.00033e-17
6881.94946 9.98865e-18
6883.10141 9.81963e-18
6884.24335 9.65067e-18
6885.39531 9.56845e-18
6886.53725 9.48616e-18
6887.68920 9.27843e-18
6888.83114 9.07073e-18
6889.98309 8.87958e-18
6891.12503 8.68846e-18
6892.27699 8.53124e-18
6893.42894 8.37415e-18
6894.57088 8.41350e-18
6895.72283 8.45292e-18
6896.86477 8.60155e-18
6898.01673 8.75009e-18
6899.15866 8.76600e-18
6900.31062 8.78192e-18
6901.46258 8.81393e-18
6902.60451 8.84593e-18
6903.75647 8.85848e-18
6904.89841 8.87104e-18
6906.05036 8.89978e-18
6907.19230 8.92853e-18
6908.34425 8.96442e-18
6909.48619 9.00033e-18
6910.63815 9.06616e-18
6911.79010 9.13189e-18
6912.93204 9.03271e-18
6914.08400 8.93366e-18
6915.22593 8.99238e-18
6916.37789 9.05106e-18
6917.51983 9.03622e-18
6918.67178 9.02132e-18
6919.81372 8.91673e-18
6920.96567 8.81223e-18
6922.11763 8.82745e-18
6923.25957 8.84263e-18
6924.41152 8.79172e-18
6925.55346 8.74081e-18
6926.70542 8.67922e-18
6927.84735 8.61776e-18
6928.99931 8.72616e-18
6930.14125 8.83445e-18
6931.29320 8.78592e-18
6932.44516 8.73734e-18
6933.58709 8.60995e-18
6934.73905 8.48268e-18
6935.88099 8.52319e-18
6937.03294 8.56361e-18
6938.17488 8.48511e-18
6939.32684 8.40664e-18
6940.47879 8.36851e-18
6941.62073 8.33047e-18
6942.77268 8.41908e-18
6943.91462 8.50768e-18
6945.06658 8.60420e-18
6946.20851 8.70066e-18
6947.36047 8.71523e-18
6948.50241 8.72982e-18
6949.65436 8.78660e-18
6950.80632 8.84339e-18
6951.94826 8.92052e-18
6953.10021 8.99760e-18
6954.24215 9.01224e-18
6955.39410 9.02684e-18
6956.53604 8.99273e-18
6957.68800 8.95856e-18
6958.83995 8.83317e-18
6959.98189 8.70793e-18
6961.13384 8.78400e-18
6962.27578 8.86003e-18
6963.42774 8.90268e-18
6964.56968 8.94526e-18
6965.72163 8.89659e-18
6966.86357 8.84795e-18
6968.01552 8.83537e-18
6969.16748 8.82278e-18
6970.30942 8.79985e-18
6971.46137 8.77692e-18
6972.60331 8.75903e-18
6973.75526 8.74113e-18
6974.89720 8.70623e-18
6976.04916 8.67138e-18
6977.19110 8.69436e-18
6978.34305 8.71731e-18
6979.49500 8.70011e-18
6980.63694 8.68289e-18
6981.78890 8.62364e-18
6982.93084 8.56438e-18
6984.08279 8.50074e-18
6985.22473 8.43719e-18
6986.37668 8.49355e-18
6987.52864 8.54988e-18
6988.67058 8.57240e-18
6989.82253 8.59488e-18
6990.96447 8.56904e-18
6992.11643 8.54319e-18
6993.25836 8.51469e-18
6994.41032 8.48623e-18
6995.55226 8.52715e-18
6996.70421 8.56804e-18
6997.85617 8.58026e-18
6998.99810 8.59238e-18
7000.15006 8.47356e-18
7001.29200 8.35485e-18
7002.44395 8.37668e-18
7003.58589 8.39854e-18
7004.73785 8.47002e-18
7005.88980 8.54142e-18
7007.03174 8.49120e-18
7008.18369 8.44104e-18
7009.32563 8.46090e-18
7010.47759 8.48074e-18
7011.61952 8.46266e-18
7012.77148 8.44453e-18
7013.91342 8.35704e-18
7015.06537 8.26969e-18
7016.21733 8.36211e-18
7017.35927 8.45446e-18
7018.51122 8.45205e-18
7019.65316 8.44961e-18
7020.80511 8.41466e-18
7021.94705 8.37969e-18
7023.09901 8.29767e-18
7024.25096 8.21573e-18
7025.39290 8.23380e-18
7026.54485 8.25187e-18
7027.68679 8.26117e-18
7028.83875 8.27057e-18
7029.98069 8.40236e-18
7031.13264 8.53408e-18
7032.27458 8.56729e-18
7033.42653 8.60055e-18
7034.57849 8.72070e-18
7035.72043 8.84069e-18
7036.87238 8.75416e-18
7038.01432 8.66763e-18
7039.16627 8.57549e-18
7040.30821 8.48343e-18
7041.46017 8.48631e-18
7042.60210 8.48916e-18
7043.75406 8.44804e-18
7044.90602 8.40695e-18
7046.04795 8.42531e-18
7047.19991 8.44365e-18
7048.34185 8.42828e-18
7049.49380 8.41288e-18
7050.63574 8.34911e-18
7051.78769 8.28538e-18
7052.93965 8.28503e-18
7054.08159 8.28469e-18
7055.23354 8.28970e-18
7056.37548 8.29475e-18
7057.52744 8.36046e-18
7058.66937 8.42611e-18
7059.82133 8.41305e-18
7060.96327 8.39994e-18
7062.11522 8.30343e-18
7063.26718 8.20708e-18
7064.40911 8.32426e-18
7065.56107 8.44140e-18
7066.70301 8.49352e-18
7067.85496 8.54558e-18
7068.99690 8.52776e-18
7070.14885 8.50991e-18
7071.29079 8.45530e-18
7072.44275 8.40066e-18
7073.59470 8.29963e-18
7074.73664 8.19872e-18
7075.88860 8.24966e-18
7077.03053 8.30058e-18
7078.18249 8.30470e-18
7079.32443 8.30881e-18
7080.47638 8.30288e-18
7081.62834 8.29692e-18
7082.77027 8.24816e-18
7083.92223 8.19944e-18
7085.06417 8.21240e-18
7086.21612 8.22537e-18
7087.35806 8.27217e-18
7088.51002 8.31888e-18
7089.65195 8.22838e-18
7090.80391 8.13797e-18
7091.95586 8.15485e-18
7093.09780 8.17177e-18
7094.24976 8.24434e-18
7095.39170 8.31686e-18
7096.54365 8.30551e-18
7097.68559 8.29419e-18
7098.83754 8.33471e-18
7099.98950 8.37521e-18
7101.13144 8.37593e-18
7102.28339 8.37668e-18
7103.42533 8.42035e-18
7104.57728 8.46399e-18
7105.71922 8.46999e-18
7106.87118 8.47597e-18
7108.01311 8.46553e-18
7109.16507 8.45510e-18
7110.31703 8.44981e-18
7111.45896 8.44454e-18
7112.61092 8.48567e-18
7113.75286 8.52680e-18
7114.90481 8.57986e-18
7116.04675 8.63283e-18
7117.19870 8.55741e-18
7118.34064 8.48205e-18
7119.49260 8.46203e-18
7120.64455 8.44211e-18
7121.78649 8.55318e-18
7122.93845 8.66418e-18
7124.08038 8.67663e-18
7125.23234 8.68909e-18
7126.37428 8.73085e-18
7127.52623 8.77263e-18
7128.67819 8.84719e-18
7129.82012 8.92166e-18
7130.97208 8.86585e-18
7132.11402 8.81004e-18
7133.26597 8.74649e-18
7134.40791 8.68298e-18
7135.55987 8.67603e-18
7136.70180 8.66906e-18
7137.85376 8.64514e-18
7139.00571 8.62128e-18
7140.14765 8.67100e-18
7141.29961 8.72068e-18
7142.44154 8.71621e-18
7143.59350 8.71174e-18
7144.73544 8.69520e-18
7145.88739 8.67867e-18
7147.02933 8.68227e-18
7148.18129 8.68588e-18
7149.33324 8.68162e-18
7150.47518 8.67744e-18
7151.62713 8.77742e-18
7152.76907 8.87736e-18
7153.92103 8.91749e-18
7155.06296 8.95765e-18
7156.21492 9.04052e-18
7157.36687 9.12339e-18
7158.50881 9.22791e-18
7159.66077 9.33237e-18
7160.80271 9.36288e-18
7161.95466 9.39343e-18
7163.09660 9.48258e-18
7164.24855 9.57168e-18
7165.39049 9.60777e-18
7166.54245 9.64378e-18
7167.69440 9.58059e-18
7168.83634 9.51735e-18
7169.98829 9.37710e-18
7171.13023 9.23688e-18
7172.28219 9.11628e-18
7173.42413 8.99590e-18
7174.57608 9.17927e-18
7175.72804 9.36270e-18
7176.86997 9.63819e-18
7178.02193 9.91341e-18
7179.16387 9.84058e-18
7180.31582 9.76763e-18
7181.45776 9.51838e-18
7182.60971 9.26931e-18
7183.75165 9.26105e-18
7184.90361 9.25286e-18
7186.05556 9.35173e-18
7187.19750 9.45039e-18
7188.34945 9.26153e-18
7189.49139 9.07290e-18
7190.64335 9.20147e-18
7191.78529 9.33003e-18
7192.93724 9.45942e-18
7194.08920 9.58869e-18
7195.23113 9.57730e-18
7196.38309 9.56589e-18
7197.52503 9.52304e-18
7198.67698 9.48015e-18
7199.81892 9.37045e-18
7200.97087 9.26087e-18
7202.11281 9.31348e-18
7203.26477 9.36624e-18
7204.41672 9.63995e-18
7205.55866 9.91346e-18
7206.71062 9.92999e-18
7207.85255 9.94646e-18
7209.00451 9.89306e-18
7210.14645 9.83980e-18
7211.29840 9.96229e-18
7212.44034 1.00847e-17
7213.59230 1.01616e-17
7214.74425 1.02384e-17
7215.88619 1.00946e-17
7217.03814 9.95101e-18
7218.18008 9.90243e-18
7219.33204 9.85387e-18
7220.47397 9.83696e-18
7221.62593 9.82007e-18
7222.76787 9.84113e-18
7223.91982 9.86214e-18
7225.07178 9.82959e-18
7226.21371 9.79698e-18
7227.36567 9.66669e-18
7228.50761 9.53634e-18
7229.65956 9.31959e-18
7230.80150 9.10302e-18
7231.95346 9.11559e-18
7233.10541 9.12816e-18
7234.24735 9.14056e-18
7235.39930 9.15290e-18
7236.54124 9.07735e-18
7237.69320 9.00191e-18
7238.83514 9.07675e-18
7239.98709 9.15159e-18
7241.12903 9.23864e-18
7242.28098 9.32564e-18
7243.43294 9.35359e-18
7244.57488 9.38163e-18
7245.72683 9.54603e-18
7246.86877 9.71018e-18
7248.02072 9.55640e-18
7249.16266 9.40276e-18
7250.31462 9.42568e-18
7251.46657 9.44866e-18
7252.60851 9.54287e-18
7253.76047 9.63702e-18
7254.90240 9.64731e-18
7256.05436 9.65773e-18
7257.19630 9.84503e-18
7258.34825 1.00321e-17
7259.49019 9.97962e-18
7260.64214 9.92701e-18
7261.79410 9.73767e-18
7262.93604 9.54848e-18
7264.08799 9.53639e-18
7265.22993 9.52435e-18
7266.38189 9.56414e-18
7267.52382 9.60391e-18
7268.67578 9.61596e-18
7269.81772 9.62789e-18
7270.96967 9.47107e-18
7272.12163 9.31430e-18
7273.26356 9.19847e-18
7274.41552 9.08270e-18
7275.55746 9.04593e-18
7276.70941 9.00920e-18
7277.85135 9.01919e-18
7279.00331 9.02936e-18
7280.14524 9.27720e-18
7281.29720 9.52497e-18
7282.44915 9.69412e-18
7283.59109 9.86310e-18
7284.74305 9.80563e-18
7285.88498 9.74819e-18
7287.03694 9.72163e-18
7288.17888 9.69500e-18
7289.33083 9.55709e-18
7290.48279 9.41922e-18
7291.62473 9.31201e-18
7292.77668 9.20493e-18
7293.91862 9.27579e-18
7295.07057 9.34663e-18
7296.21251 9.38925e-18
7297.36447 9.43191e-18
7298.50640 9.54600e-18
7299.65836 9.66001e-18
7300.81031 9.68119e-18
7301.95225 9.70220e-18
7303.10421 9.48817e-18
7304.24615 9.27424e-18
7305.39810 9.17817e-18
7306.54004 9.08226e-18
7307.69199 9.17519e-18
7308.84395 9.26799e-18
7309.98589 9.19874e-18
7311.13784 9.12945e-18
7312.27978 8.99940e-18
7313.43173 8.86942e-18
7314.57367 8.82750e-18
7315.72563 8.78559e-18
7316.87758 8.75347e-18
7318.01952 8.72145e-18
7319.17148 8.82927e-18
7320.31341 8.93708e-18
7321.46537 9.04723e-18
7322.60731 9.15730e-18
7323.75926 9.17679e-18
7324.90120 9.19625e-18
7326.05315 9.16215e-18
7327.20511 9.12807e-18
7328.34705 9.10494e-18
7329.49900 9.08185e-18
7330.64094 9.10365e-18
7331.79290 9.12541e-18
7332.93483 9.10610e-18
7334.08679 9.08681e-18
7335.22873 9.07924e-18
7336.38068 9.07167e-18
7337.53264 9.05501e-18
7338.67457 9.03840e-18
7339.82653 9.07267e-18
7340.96847 9.10691e-18
7342.12042 9.11165e-18
7343.26236 9.11633e-18
7344.41431 9.03428e-18
7345.55625 8.95229e-18
7346.70821 8.95517e-18
7347.86016 8.95802e-18
7349.00210 8.91630e-18
7350.15406 8.87460e-18
7351.29599 8.84577e-18
7352.44795 8.81687e-18
7353.58989 8.70179e-18
7354.74184 8.58677e-18
7355.89380 8.53564e-18
7357.03574 8.48461e-18
7358.18769 8.57042e-18
7359.32963 8.65617e-18
7360.48158 8.67757e-18
7361.62352 8.69883e-18
7362.77548 8.53876e-18
7363.91741 8.37889e-18
7365.06937 8.48728e-18
7366.22132 8.59553e-18
7367.36326 8.54956e-18
7368.51522 8.50357e-18
7369.65715 8.42462e-18
7370.80911 8.34582e-18
7371.95105 8.45368e-18
7373.10300 8.56145e-18
7374.25496 8.55254e-18
7375.39690 8.54365e-18
7376.54885 8.54938e-18
7377.69079 8.55510e-18
7378.84274 8.55532e-18
7379.98468 8.55551e-18
7381.13664 8.52030e-18
7382.27858 8.48513e-18
7383.43053 8.50788e-18
7384.58249 8.53056e-18
7385.72442 8.46997e-18
7386.87638 8.40942e-18
7388.01832 8.40073e-18
7389.17027 8.39210e-18
7390.31221 8.45797e-18
7391.46416 8.52380e-18
7392.60610 8.52420e-18
7393.75806 8.52462e-18
7394.91001 8.54568e-18
7396.05195 8.56673e-18
7397.20391 8.59663e-18
7398.34584 8.62651e-18
7399.49780 8.64688e-18
7400.63974 8.66725e-18
7401.79169 8.69382e-18
7402.94365 8.72029e-18
7404.08558 8.60907e-18
7405.23754 8.49799e-18
7406.37948 8.56136e-18
7407.53143 8.62472e-18
7408.67337 8.67033e-18
7409.82533 8.71586e-18
7410.96726 8.65577e-18
7412.11922 8.59570e-18
7413.27117 8.57397e-18
7414.41311 8.55226e-18
7415.56507 8.55521e-18
7416.70700 8.55803e-18
7417.85896 8.40243e-18
7419.00090 8.24698e-18
7420.15285 8.28996e-18
7421.30481 8.33289e-18
7422.44675 8.31306e-18
7423.59870 8.29319e-18
7424.74064 8.21169e-18
7425.89259 8.13033e-18
7427.03453 8.21833e-18
7428.18649 8.30623e-18
7429.32842 8.28094e-18
7430.48038 8.25571e-18
7431.63233 8.31115e-18
7432.77427 8.36652e-18
7433.92623 8.33754e-18
7435.06816 8.30858e-18
7436.22012 8.31875e-18
7437.36206 8.32895e-18
7438.51401 8.38721e-18
7439.65595 8.44532e-18
7440.80791 8.31243e-18
7441.95986 8.17962e-18
7443.10180 8.12337e-18
7444.25375 8.06712e-18
7445.39569 8.01279e-18
7446.54765 7.95849e-18
7447.68959 7.92252e-18
7448.84154 7.88659e-18
7449.99350 7.89237e-18
7451.13543 7.89813e-18
7452.28739 7.89015e-18
7453.42933 7.88211e-18
7454.58128 7.78890e-18
7455.72322 7.69568e-18
7456.87517 7.56642e-18
7458.01711 7.43729e-18
7459.16907 7.47639e-18
7460.32102 7.51542e-18
7461.46296 7.46432e-18
7462.61492 7.41327e-18
7463.75685 7.43524e-18
7464.90881 7.45720e-18
7466.05075 7.45330e-18
7467.20270 7.44933e-18
7468.34464 7.35591e-18
7469.49659 7.26248e-18
7470.64855 7.16311e-18
7471.79049 7.06381e-18
7472.94244 7.03003e-18
7474.08438 6.99624e-18
7475.23634 6.95494e-18
7476.37827 6.91368e-18
7477.53023 6.92287e-18
7478.68218 6.93203e-18
7479.82412 6.89327e-18
7480.97608 6.85448e-18
7482.11801 6.76545e-18
7483.26997 6.67643e-18
7484.41191 6.59799e-18
7485.56386 6.51953e-18
7486.70580 6.41895e-18
7487.85775 6.31838e-18
7489.00971 6.22024e-18
7490.15165 6.12218e-18
7491.30360 6.12316e-18
7492.44554 6.12406e-18
7493.59750 6.02105e-18
7494.73943 5.91808e-18
7495.89139 5.85950e-18
7497.03333 5.80093e-18
7498.18528 5.74565e-18
7499.33724 5.69039e-18
7500.47918 5.66676e-18
7501.63113 5.64312e-18
7502.77307 5.59745e-18
7503.92502 5.55175e-18
7505.06696 5.45435e-18
7506.21892 5.35697e-18
7507.37087 5.27865e-18
7508.51281 5.20035e-18
7509.66476 5.14697e-18
7510.80670 5.09360e-18
7511.95866 5.05223e-18
7513.10060 5.01080e-18
7514.25255 4.88572e-18
7515.39449 4.76072e-18
7516.54644 4.73760e-18
7517.69840 4.71447e-18
7518.84034 4.69143e-18
7519.99229 4.66835e-18
7521.13423 4.60057e-18
7522.28618 4.53293e-18
7523.42812 4.63906e-18
7524.58008 4.74509e-18
7525.73203 4.72821e-18
7526.87397 4.71131e-18
7528.02592 4.67138e-18
7529.16786 4.63145e-18
7530.31982 4.58428e-18
7531.46176 4.53713e-18
7532.61371 4.50132e-18
7533.75565 4.46554e-18
7534.90760 4.47891e-18
7536.05956 4.49220e-18
7537.20150 4.40427e-18
7538.35345 4.31640e-18
7539.49539 4.28286e-18
7540.64735 4.24934e-18
7541.78928 4.25095e-18
7542.94124 4.25255e-18
7544.09319 4.26026e-18
7545.23513 4.26789e-18
7546.38709 4.18562e-18
7547.52902 4.10342e-18
7548.68098 4.09251e-18
7549.82292 4.08169e-18
7550.97487 4.19543e-18
7552.11681 4.30907e-18
7553.26876 4.31950e-18
7554.42072 4.32990e-18
7555.56266 4.31738e-18
7556.71461 4.30488e-18
7557.85655 4.30192e-18
7559.00851 4.29900e-18
7560.15044 4.34442e-18
7561.30240 4.38986e-18
7562.44434 4.44884e-18
7563.59629 4.50774e-18
7564.74825 4.46086e-18
7565.89019 4.41404e-18
7567.04214 4.43948e-18
7568.18408 4.46496e-18
7569.33603 4.54082e-18
7570.47797 4.61661e-18
7571.62993 4.61975e-18
7572.77186 4.62291e-18
7573.92382 4.64767e-18
7575.07577 4.67240e-18
7576.21771 4.66413e-18
7577.36967 4.65589e-18
7578.51160 4.66748e-18
7579.66356 4.67913e-18
7580.80550 4.75810e-18
7581.95745 4.83699e-18
7583.10941 4.82751e-18
7584.25135 4.81802e-18
7585.40330 4.78594e-18
7586.54524 4.75389e-18
7587.69719 4.73898e-18
7588.83913 4.72410e-18
7589.99109 4.74240e-18
7591.13303 4.76051e-18
7592.28498 4.52896e-18
7593.43694 4.29739e-18
7594.57887 4.00932e-18
7595.73083 3.72141e-18
7596.87277 3.60427e-18
7598.02472 3.48733e-18
7599.16666 3.61729e-18
7600.31861 3.74722e-18
7601.47057 3.84248e-18
7602.61251 3.93765e-18
7603.76446 3.93148e-18
7604.90640 3.92563e-18
7606.05836 4.31055e-18
7607.20029 4.69517e-18
7608.35225 4.73808e-18
7609.49419 4.78115e-18
7610.64614 5.02178e-18
7611.79810 5.26300e-18
7612.94003 6.26180e-18
7614.09199 7.26001e-18
7615.23393 7.60695e-18
7616.38588 7.95349e-18
7617.52782 7.82205e-18
7618.67978 7.69064e-18
7619.83173 7.60123e-18
7620.97367 7.51157e-18
7622.12562 7.11454e-18
7623.26756 6.71757e-18
7624.41952 6.37138e-18
7625.56145 6.02549e-18
7626.71341 6.02937e-18
7627.85535 6.03329e-18
7629.00730 6.10246e-18
7630.15926 6.17148e-18
7631.30120 6.05883e-18
7632.45315 5.94643e-18
7633.59509 6.13689e-18
7634.74704 6.32737e-18
7635.88898 6.56256e-18
7637.04094 6.79762e-18
7638.18287 6.90672e-18
7639.33483 7.01575e-18
7640.48678 7.05240e-18
7641.62872 7.08918e-18
7642.78068 7.28361e-18
7643.92262 7.47812e-18
7645.07457 7.78230e-18
7646.21651 8.08627e-18
7647.36846 8.16097e-18
7648.52042 8.23555e-18
7649.66236 8.15641e-18
7650.81431 8.07718e-18
7651.95625 7.87403e-18
7653.10820 7.67103e-18
7654.25014 7.64821e-18
7655.40210 7.62541e-18
7656.54404 7.64249e-18
7657.69599 7.65955e-18
7658.84795 7.65930e-18
7659.98988 7.65902e-18
7661.14184 7.62130e-18
7662.28378 7.58366e-18
7663.43573 7.64187e-18
7664.57767 7.69999e-18
7665.72962 7.63599e-18
7666.88158 7.57204e-18
7668.02352 7.56498e-18
7669.17547 7.55804e-18
7670.31741 7.68567e-18
7671.46936 7.81312e-18
7672.61130 7.71214e-18
7673.76326 7.61118e-18
7674.90520 7.52590e-18
7676.05715 7.44071e-18
7677.20911 7.47143e-18
7678.35104 7.50214e-18
7679.50300 7.51321e-18
7680.64494 7.52435e-18
7681.79689 7.61312e-18
7682.93883 7.70193e-18
7684.09079 7.82641e-18
7685.23272 7.95085e-18
7686.38468 8.02056e-18
7687.53663 8.09025e-18
7688.67857 8.13780e-18
7689.83053 8.18538e-18
7690.97246 8.28009e-18
7692.12442 8.37483e-18
7693.26636 8.52129e-18
7694.41831 8.66760e-18
7695.56025 8.63895e-18
7696.71220 8.61024e-18
7697.86416 8.50325e-18
7699.00610 8.39642e-18
7700.15805 8.46528e-18
7701.29999 8.53406e-18
7702.45195 8.51006e-18
7703.59388 8.48603e-18
7704.74584 8.41179e-18
7705.89779 8.33762e-18
7707.03973 8.33887e-18
7708.19169 8.34010e-18
7709.33363 8.30986e-18
7710.48558 8.27963e-18
7711.62752 8.24352e-18
7712.77947 8.20752e-18
7713.92141 8.29938e-18
7715.07337 8.39118e-18
7716.22532 8.42218e-18
7717.36726 8.45316e-18
7718.51921 8.45381e-18
7719.66115 8.45441e-18
7720.81311 8.39115e-18
7721.95505 8.32794e-18
7723.10700 8.31195e-18
7724.25896 8.29608e-18
7725.40089 8.42353e-18
7726.55285 8.55085e-18
7727.69479 8.52321e-18
7728.84674 8.49548e-18
7729.98868 8.36213e-18
7731.14063 8.22897e-18
7732.28257 8.30445e-18
7733.43453 8.37990e-18
7734.58648 8.43141e-18
7735.72842 8.48290e-18
7736.88038 8.51193e-18
7738.02231 8.54092e-18
7739.17427 8.51349e-18
7740.31621 8.48612e-18
7741.46816 8.51334e-18
7742.62012 8.54054e-18
7743.76205 8.54691e-18
7744.91401 8.55331e-18
7746.05595 8.58289e-18
7747.20790 8.61248e-18
7748.34984 8.66322e-18
7749.50180 8.71397e-18
7750.64373 8.78559e-18
7751.79569 8.85717e-18
7752.94764 8.88574e-18
7754.08958 8.91427e-18
7755.24154 8.89167e-18
7756.38347 8.86909e-18
7757.53543 8.87847e-18
7758.67737 8.88785e-18
7759.82932 8.89614e-18
7760.97126 8.90441e-18
7762.12322 8.88132e-18
7763.27517 8.85823e-18
7764.41711 8.84289e-18
7765.56906 8.82755e-18
7766.71100 8.81264e-18
7767.86296 8.79770e-18
7769.00489 8.74308e-18
7770.15685 8.68848e-18
7771.30880 8.66105e-18
7772.45074 8.63369e-18
7773.60270 8.68561e-18
7774.74464 8.73749e-18
7775.89659 8.73838e-18
7777.03853 8.73928e-18
7778.19048 8.75107e-18
7779.33242 8.76291e-18
7780.48438 8.84166e-18
7781.63633 8.92041e-18
7782.77827 9.01406e-18
7783.93022 9.10768e-18
7785.07216 9.18650e-18
7786.22412 9.26514e-18
7787.36605 9.14105e-18
7788.51801 9.01707e-18
7789.65995 9.01056e-18
7790.81190 9.00408e-18
7791.96386 9.04239e-18
7793.10580 9.08065e-18
7794.25775 9.08089e-18
7795.39969 9.08117e-18
7796.55164 9.14931e-18
7797.69358 9.21733e-18
7798.84554 9.14342e-18
7799.99749 9.06953e-18
7801.13943 9.02109e-18
7802.29139 8.97272e-18
7803.43332 8.98915e-18
7804.58528 9.00544e-18
7805.72722 8.86169e-18
7806.87917 8.71805e-18
7808.02111 8.68316e-18
7809.17306 8.64835e-18
7810.32502 8.70173e-18
7811.99539 8.70173e-18
7814.00243 8.47977e-18
7815.99928 8.69876e-18
7817.99612 9.48456e-18
7820.00316 9.91835e-18
7822.00001 9.96934e-18
7823.99686 9.79575e-18
7826.00389 9.31989e-18
7828.00074 8.38797e-18
7829.99759 8.08334e-18
7832.00462 8.14825e-18
7834.00147 8.34764e-18
7835.99832 8.91399e-18
7837.99517 9.37491e-18
7840.00220 9.24146e-18
7841.99905 8.68450e-18
7843.99590 8.31473e-18
7846.00294 7.78310e-18
7847.99978 7.58500e-18
7849.99663 7.56269e-18
7852.00367 7.82120e-18
7854.00052 8.51247e-18
7855.99736 9.42186e-18
7858.00440 9.73410e-18
7860.00125 9.71470e-18
7861.99810 9.45341e-18
7863.99494 8.71375e-18
7866.00198 8.10430e-18
7867.99883 7.80893e-18
7869.99568 7.68713e-18
7872.00271 7.66029e-18
7873.99956 7.90857e-18
7875.99641 7.97050e-18
7878.00344 7.93206e-18
7880.00029 7.97177e-18
7881.99714 8.08095e-18
7884.00418 8.18071e-18
7886.00102 8.26559e-18
7887.99787 8.26412e-18
7889.99472 8.36198e-18
7892.00176 8.61958e-18
7893.99860 8.74512e-18
7895.99545 8.84966e-18
7898.00249 8.84962e-18
7899.99934 8.56427e-18
7901.99618 7.98829e-18
7904.00322 7.69517e-18
7906.00007 7.50875e-18
7907.99692 7.56090e-18
7910.00395 7.91874e-18
7912.00080 8.28079e-18
7913.99765 8.52619e-18
7916.00468 8.72280e-18
7918.00153 8.63081e-18
7919.99838 8.12079e-18
7921.99523 7.98267e-18
7924.00226 7.97655e-18
7925.99911 8.20176e-18
7927.99596 8.82704e-18
7930.00300 9.64517e-18
7931.99984 9.72005e-18
7933.99669 9.09781e-18
7936.00373 8.74163e-18
7938.00058 8.14440e-18
7939.99742 7.87221e-18
7942.00446 8.16079e-18
7944.00131 8.66677e-18
7945.99816 8.81448e-18
7947.99500 8.83880e-18
7950.00204 8.78810e-18
7951.99889 8.52697e-18
7953.99574 8.46082e-18
7956.00277 8.80976e-18
7957.99962 9.11875e-18
7959.99647 8.82943e-18
7962.00350 8.06638e-18
7964.00035 7.90036e-18
7965.99720 8.10475e-18
7968.00424 8.19791e-18
7970.00108 8.25067e-18
7971.99793 8.32807e-18
7973.99478 8.39499e-18
7976.00182 8.47116e-18
7977.99866 8.41869e-18
7979.99551 8.15146e-18
7982.00255 8.03787e-18
7983.99940 7.95463e-18
7985.99624 8.01678e-18
7988.00328 8.45860e-18
7990.00013 9.11475e-18
7991.99698 9.11442e-18
7994.00401 8.53726e-18
7996.00086 8.17483e-18
7997.99771 7.63620e-18
8000.00474 7.35807e-18
8002.00159 7.59453e-18
8003.99844 8.05160e-18
8005.99529 8.32532e-18
8008.00232 8.71780e-18
8009.99917 8.80685e-18
8011.99602 8.65748e-18
8014.00306 8.39687e-18
8015.99990 8.01411e-18
8017.99675 7.57112e-18
8020.00379 7.20985e-18
8022.00064 6.70739e-18
8023.99748 6.86925e-18
8026.00452 7.96315e-18
8028.00137 8.45752e-18
8029.99822 8.11996e-18
8031.99506 7.70295e-18
8034.00210 7.85557e-18
8035.99895 8.30301e-18
8037.99580 8.35730e-18
8040.00283 8.08461e-18
8041.99968 7.98866e-18
8043.99653 8.05405e-18
8046.00356 8.15052e-18
8048.00041 8.18846e-18
8049.99726 8.22631e-18
8052.00430 8.35753e-18
8054.00114 8.74401e-18
8055.99799 8.78970e-18
8057.99484 8.49697e-18
8060.00188 8.25896e-18
8061.99872 8.17970e-18
8063.99557 8.15134e-18
8066.00261 8.13884e-18
8067.99946 8.22686e-18
8069.99630 8.26058e-18
8072.00334 8.21707e-18
8074.00019 8.28013e-18
8075.99704 8.67142e-18
8078.00407 9.08682e-18
8080.00092 8.86669e-18
8081.99777 8.02948e-18
8084.00480 7.77855e-18
8086.00165 7.90178e-18
8087.99850 7.95122e-18
8089.99535 7.93009e-18
8092.00238 7.89466e-18
8093.99923 7.76466e-18
8095.99608 7.53238e-18
8098.00312 7.51857e-18
8099.99996 7.68656e-18
8101.99681 7.83991e-18
8104.00385 8.03933e-18
8106.00070 8.22799e-18
8107.99754 8.32440e-18
8110.00458 8.37264e-18
8112.00143 8.47699e-18
8113.99828 8.77844e-18
8115.99512 8.74921e-18
8118.00216 8.34382e-18
8119.99901 7.97596e-18
8121.99586 7.89978e-18
8124.00289 7.92379e-18
8125.99974 7.65379e-18
8127.99659 6.91271e-18
8130.00362 6.82742e-18
8132.00047 7.27709e-18
8133.99732 7.66578e-18
8136.00436 7.87302e-18
8138.00120 8.03724e-18
8139.99805 8.25076e-18
8141.99490 8.50382e-18
8144.00194 8.54661e-18
8145.99878 8.31436e-18
8147.99563 8.24826e-18
8150.00267 8.43331e-18
8151.99952 8.69115e-18
8153.99636 8.77665e-18
8156.00340 8.79173e-18
8158.00025 8.76313e-18
8159.99710 8.69431e-18
8162.00413 8.46842e-18
8164.00098 7.82472e-18
8165.99783 7.36736e-18
8167.99468 7.80280e-18
8170.00171 8.90228e-18
8171.99856 9.22708e-18
8173.99541 9.11696e-18
8176.00244 9.10560e-18
8177.99929 9.11692e-18
8179.99614 9.06897e-18
8182.00318 8.91103e-18
8184.00002 8.62896e-18
8185.99687 8.26080e-18
8188.00391 7.49006e-18
8190.00076 7.34163e-18
8191.99760 7.75392e-18
8194.00464 8.20976e-18
8196.00149 8.64767e-18
8197.99834 9.06006e-18
8199.99518 8.86011e-18
8202.00222 7.84160e-18
8203.99907 7.63162e-18
8205.99592 7.96053e-18
8208.00295 8.17528e-18
8209.99980 8.25189e-18
8211.99665 8.23284e-18
8214.00368 8.02642e-18
8216.00053 7.58059e-18
8217.99738 7.55727e-18
8220.00442 7.87624e-18
8222.00126 8.18741e-18
8223.99811 8.54787e-18
8225.99496 8.87498e-18
8228.00200 9.09814e-18
8229.99884 9.30466e-18
8231.99569 9.20072e-18
8234.00273 8.80420e-18
8235.99958 8.51067e-18
8237.99642 8.16458e-18
8240.00346 7.93606e-18
8242.00031 7.97097e-18
8243.99716 8.20536e-18
8246.00419 8.21315e-18
8248.00104 8.15003e-18
8249.99789 8.23730e-18
8252.00492 8.34810e-18
8254.00177 8.48521e-18
8255.99862 8.84517e-18
8257.99547 9.14706e-18
8260.00250 8.95352e-18
8261.99935 8.56917e-18
8263.99620 8.25288e-18
8266.00324 7.98246e-18
8268.00008 7.83926e-18
8269.99693 7.84917e-18
8272.00397 7.97801e-18
8274.00082 8.18991e-18
8275.99766 8.57830e-18
8278.00470 8.78620e-18
8280.00155 9.03349e-18
8281.99840 8.99927e-18
8283.99524 8.52618e-18
8286.00228 7.95808e-18
8287.99913 7.70171e-18
8289.99598 7.57549e-18
8292.00301 7.62370e-18
8293.99986 7.98376e-18
8295.99671 8.18857e-18
8298.00374 8.21027e-18
8300.00059 8.25603e-18
8301.99744 8.50992e-18
8304.00448 8.90497e-18
8306.00132 9.03247e-18
8307.99817 8.96555e-18
8309.99502 8.91429e-18
8312.00206 8.78929e-18
8313.99890 8.70325e-18
8315.99575 8.78238e-18
8318.00279 8.93132e-18
8319.99964 8.71424e-18
8321.99648 7.94305e-18
8324.00352 7.76922e-18
8326.00037 8.01485e-18
8327.99722 8.29274e-18
8330.00425 8.55026e-18
8332.00110 8.80362e-18
8333.99795 8.88455e-18
8335.99480 8.89859e-18
8338.00183 8.68081e-18
8339.99868 7.95600e-18
8341.99553 7.65762e-18
8344.00256 7.92824e-18
8345.99941 8.50170e-18
8347.99626 9.22323e-18
8350.00330 1.04301e-17
8352.00014 1.05939e-17
8353.99699 9.79582e-18
8356.00403 9.25350e-18
8358.00088 8.92339e-18
8359.99772 8.64099e-18
8362.00476 8.32396e-18
8364.00161 7.98369e-18
8365.99846 7.90066e-18
8367.99530 8.00011e-18
8370.00234 8.22402e-18
8371.99919 8.72069e-18
8373.99604 9.15574e-18
8376.00307 9.34216e-18
8377.99992 9.37958e-18
8379.99677 9.17162e-18
8382.00380 8.49052e-18
8384.00065 8.19722e-18
8385.99750 8.06899e-18
8388.00454 8.11939e-18
8390.00138 8.39320e-18
8391.99823 8.83941e-18
8393.99508 9.28578e-18
8396.00212 9.99723e-18
8397.99896 1.02471e-17
8399.99581 1.02561e-17
8402.00285 1.00152e-17
8403.99970 9.36261e-18
8405.99654 8.57765e-18
8408.00358 8.25030e-18
8410.00043 8.22016e-18
8411.99728 8.12995e-18
8414.00431 8.10228e-18
8416.00116 8.10363e-18
8417.99801 8.05289e-18
8419.99486 8.12193e-18
8422.00189 8.57361e-18
8423.99874 9.39715e-18
8425.99559 9.79431e-18
8428.00262 1.01758e-17
8429.99947 1.00737e-17
8431.99632 9.22008e-18
8434.00336 8.40243e-18
8436.00020 8.22040e-18
8437.99705 8.38843e-18
8440.00409 8.54465e-18
8442.00094 9.04298e-18
8443.99778 9.13755e-18
8446.00482 8.76278e-18
8448.00167 8.51306e-18
8449.99852 8.75283e-18
8451.99536 9.21121e-18
8454.00240 9.17527e-18
8455.99925 8.60867e-18
8457.99610 8.50229e-18
8460.00313 8.61671e-18
8461.99998 8.82226e-18
8463.99683 9.23784e-18
8466.00386 9.66028e-18
8468.00071 9.45484e-18
8469.99756 8.54807e-18
8472.00460 8.27550e-18
8474.00144 8.33463e-18
8475.99829 8.41709e-18
8477.99514 8.57360e-18
8480.00218 8.71592e-18
8481.99902 8.62697e-18
8483.99587 8.32295e-18
8486.00291 8.25817e-18
8487.99976 8.33102e-18
8489.99660 8.40888e-18
8492.00364 8.45575e-18
8494.00049 8.58538e-18
8495.99734 8.95359e-18
8498.00437 9.53742e-18
8500.00122 9.69194e-18
8501.99807 9.52420e-18
8504.00510 9.38055e-18
8506.00195 9.13364e-18
8507.99880 8.93107e-18
8509.99565 8.91416e-18
8512.00268 8.99596e-18
8513.99953 8.80844e-18
8515.99638 8.20160e-18
8518.00342 8.10334e-18
8520.00026 8.47494e-18
8521.99711 8.76754e-18
8524.00415 8.80686e-18
8526.00100 8.73180e-18
8527.99784 8.63394e-18
8529.99469 8.51675e-18
8532.00173 8.23779e-18
8533.99858 7.51010e-18
8535.99542 7.26737e-18
8538.00246 7.85121e-18
8539.99931 8.69300e-18
8541.99616 8.95961e-18
8544.00319 8.88707e-18
8546.00004 8.98943e-18
8547.99689 9.14329e-18
8550.00392 9.23549e-18
8552.00077 9.28230e-18
8553.99762 9.26742e-18
8556.00466 9.15243e-18
8558.00150 8.94339e-18
8559.99835 8.73667e-18
8561.99520 8.28309e-18
8564.00224 8.26295e-18
8565.99908 8.84436e-18
8567.99593 9.36545e-18
8570.00297 9.39469e-18
8571.99982 9.15158e-18
8573.99666 8.73699e-18
8576.00370 7.74309e-18
8578.00055 7.38678e-18
8579.99740 7.49867e-18
8582.00443 7.77202e-18
8584.00128 8.17128e-18
8585.99813 8.68498e-18
8587.99498 8.92557e-18
8590.00201 8.93812e-18
8591.99886 9.05384e-18
8593.99571 9.25461e-18
8596.00274 9.31939e-18
8597.99959 9.17011e-18
8599.99644 8.90823e-18
8602.00348 8.67996e-18
8604.00032 8.38830e-18
8605.99717 8.20863e-18
8608.00421 8.10005e-18
8610.00106 8.02401e-18
8611.99790 7.97102e-18
8613.99475 7.96274e-18
8616.00179 8.04234e-18
8617.99864 8.23755e-18
8619.99548 8.24218e-18
8622.00252 8.03975e-18
8623.99937 7.98325e-18
8625.99622 8.05150e-18
8628.00325 8.18952e-18
8630.00010 8.35778e-18
8631.99695 8.56625e-18
8634.00398 8.96326e-18
8636.00083 9.78455e-18
8637.99768 1.01138e-17
8640.00472 1.01575e-17
8642.00156 9.87513e-18
8643.99841 9.03268e-18
8645.99526 7.81885e-18
8648.00230 7.50254e-18
8649.99914 7.81337e-18
8651.99599 8.14450e-18
8654.00303 8.96891e-18
8655.99988 9.46268e-18
8657.99672 9.34938e-18
8660.00376 8.88862e-18
8662.00061 8.34737e-18
8663.99746 7.22815e-18
8665.99430 7.08756e-18
8668.00134 7.81729e-18
8669.99819 8.37699e-18
8671.99504 8.73967e-18
8674.00207 8.94012e-18
8675.99892 8.76795e-18
8677.99577 8.21315e-18
8680.00280 7.80087e-18
8681.99965 7.19067e-18
8683.99650 6.90744e-18
8686.00354 6.92951e-18
8688.00038 7.19933e-18
8689.99723 7.79955e-18
8692.00427 8.80072e-18
8694.00112 9.12106e-18
8695.99796 8.94457e-18
8698.00500 8.81909e-18
8700.00185 8.62235e-18
8701.99870 8.41608e-18
8703.99554 8.26882e-18
8706.00258 8.14452e-18
8707.99943 7.94337e-18
8709.99628 7.51358e-18
8712.00331 7.46786e-18
8714.00016 7.76111e-18
8715.99701 8.11292e-18
8718.00404 8.52153e-18
8720.00089 8.93800e-18
8721.99774 8.88993e-18
8724.00478 8.34421e-18
8726.00162 8.04073e-18
8727.99847 7.63084e-18
8729.99532 7.47162e-18
8732.00236 7.73351e-18
8733.99920 8.15827e-18
8735.99605 8.31888e-18
8738.00309 8.41807e-18
8739.99994 8.30117e-18
8741.99678 7.82196e-18
8744.00382 7.55338e-18
8746.00067 7.42726e-18
8747.99752 7.52162e-18
8750.00455 8.09165e-18
8752.00140 9.17977e-18
8753.99825 9.65987e-18
8755.99510 9.80283e-18
8758.00213 9.90128e-18
8759.99898 9.82736e-18
8761.99583 9.78017e-18
8764.00286 1.00351e-17
8765.99971 1.04991e-17
8767.99656 1.02004e-17
8770.00360 9.07514e-18
8772.00044 8.39843e-18
8773.99729 7.84416e-18
8776.00433 7.52727e-18
8778.00118 7.55927e-18
8779.99802 7.85764e-18
8782.00506 8.16826e-18
8784.00191 8.89183e-18
8785.99876 8.98855e-18
8787.99560 8.44247e-18
8790.00264 8.10567e-18
8791.99949 8.27456e-18
8793.99634 8.62351e-18
8796.00337 8.69371e-18
8798.00022 8.70325e-18
8799.99707 8.48055e-18
8802.00410 7.89107e-18
8804.00095 7.47434e-18
8805.99780 7.21609e-18
8807.99465 7.13291e-18
8810.00168 7.40691e-18
8811.99853 8.11119e-18
8813.99538 8.36895e-18
8816.00242 8.21783e-18
8817.99926 8.39135e-18
8819.99611 8.92870e-18
8822.00315 9.56833e-18
8824.00000 1.02158e-17
8825.99684 1.09993e-17
8828.00388 1.09165e-17
8830.00073 9.90802e-18
8831.99758 9.22348e-18
8834.00461 8.51737e-18
8836.00146 8.05453e-18
8837.99831 8.07823e-18
8840.00534 8.44796e-18
8842.00219 8.71947e-18
8843.99904 9.38610e-18
8845.99589 9.33242e-18
8848.00292 8.50916e-18
8849.99977 7.81472e-18
8851.99662 7.56576e-18
8854.00366 7.50669e-18
8856.00050 7.38836e-18
8857.99735 7.09325e-18
8860.00439 7.40214e-18
8862.00124 8.49134e-18
8863.99808 9.20177e-18
8865.99493 9.26916e-18
8868.00197 9.09261e-18
8869.99882 9.10042e-18
8871.99566 9.07475e-18
8874.00270 9.24095e-18
8875.99955 9.71950e-18
8877.99640 9.94217e-18
8880.00343 9.95801e-18
8882.00028 9.74671e-18
8883.99713 9.12902e-18
8886.00416 8.04203e-18
8888.00101 7.65980e-18
8889.99786 7.54007e-18
8892.00490 7.86406e-18
8894.00174 9.09381e-18
8895.99859 1.00721e-17
8897.99544 9.88106e-18
8900.00248 8.96054e-18
8901.99932 8.30573e-18
8903.99617 7.33277e-18
8906.00321 6.82856e-18
8908.00006 6.58389e-18
8909.99690 6.66645e-18
8912.00394 7.28535e-18
8914.00079 8.22984e-18
8915.99764 8.51777e-18
8918.00467 8.51579e-18
8920.00152 8.19246e-18
8921.99837 7.11797e-18
8923.99522 6.50083e-18
8926.00225 6.71452e-18
8927.99910 7.31316e-18
8929.99595 7.73439e-18
8932.00298 8.34484e-18
8933.99983 8.50601e-18
8935.99668 8.15635e-18
8938.00372 8.04742e-18
8940.00056 8.33187e-18
8941.99741 8.66569e-18
8944.00445 8.66830e-18
8946.00130 8.45219e-18
8947.99814 8.33197e-18
8949.99499 8.29359e-18
8952.00203 8.07099e-18
8953.99888 7.61731e-18
8955.99572 7.11235e-18
8958.00276 6.61751e-18
8959.99961 6.05310e-18
8961.99646 6.16586e-18
8964.00349 7.19363e-18
8966.00034 7.57212e-18
8967.99719 7.43760e-18
8970.00422 7.24105e-18
8972.00107 7.16301e-18
8973.99792 7.10496e-18
8976.00496 7.17372e-18
8978.00180 7.31973e-18
8979.99865 7.58158e-18
8981.99550 8.02920e-18
8984.00254 8.44720e-18
8985.99938 8.84293e-18
8987.99623 9.16862e-18
8990.00327 9.11943e-18
8992.00012 8.69277e-18
8993.99696 8.34451e-18
8996.00400 7.69454e-18
8998.00085 7.43278e-18
8999.99770 7.74368e-18
9001.99454 8.30736e-18
9004.00158 8.74529e-18
9005.99843 9.27559e-18
9007.99528 9.56199e-18
9010.00231 9.58636e-18
9011.99916 9.72107e-18
9013.99601 1.01038e-17
9016.00304 1.03698e-17
9017.99989 1.00929e-17
9019.99674 9.36794e-18
9022.00378 9.12157e-18
9024.00062 9.22181e-18
9025.99747 9.12313e-18
9028.00451 8.90163e-18
9030.00136 8.59926e-18
9031.99820 8.12491e-18
9033.99505 7.51959e-18
9036.00209 7.54877e-18
9037.99894 8.44097e-18
9039.99578 8.57749e-18
9042.00282 8.17698e-18
9043.99967 7.69970e-18
9045.99652 7.20570e-18
9048.00355 6.70398e-18
9050.00040 6.68261e-18
9051.99725 7.18283e-18
9054.00428 7.42881e-18
9056.00113 7.56318e-18
9057.99798 7.83162e-18
9059.99483 8.40618e-18
9062.00186 9.02296e-18
9063.99871 9.17163e-18
9065.99556 8.97966e-18
9068.00260 8.78547e-18
9069.99944 8.24437e-18
9071.99629 8.06127e-18
9074.00333 8.45895e-18
9076.00018 8.91931e-18
9077.99702 8.83986e-18
9080.00406 8.41687e-18
9082.00091 8.10355e-18
9083.99776 7.59942e-18
9085.99460 7.37893e-18
9088.00164 7.56740e-18
9089.99849 7.72573e-18
9091.99534 7.42669e-18
9094.00237 6.82995e-18
9095.99922 6.92030e-18
9097.99607 7.62246e-18
9100.00310 8.10195e-18
9101.99995 8.74382e-18
9103.99680 9.03044e-18
9106.00384 8.55808e-18
9108.00068 7.61655e-18
9109.99753 7.14787e-18
9112.00457 6.69752e-18
9114.00142 6.65720e-18
9115.99826 7.13883e-18
9117.99511 7.53977e-18
9120.00215 7.68780e-18
9121.99900 7.74638e-18
9123.99584 7.85850e-18
9126.00288 7.99483e-18
9127.99973 8.05264e-18
9129.99658 7.98517e-18
9132.00361 8.01701e-18
9134.00046 8.29562e-18
9135.99731 8.53969e-18
9138.00434 8.30377e-18
9140.00119 7.64071e-18
9141.99804 7.30478e-18
9143.99489 6.88431e-18
9146.00192 6.89983e-18
9147.99877 7.55361e-18
9149.99562 8.28456e-18
9152.00266 8.59457e-18
9153.99950 8.71632e-18
9155.99635 8.62500e-18
9158.00339 8.15702e-18
9160.00024 7.85628e-18
9161.99708 7.60960e-18
9164.00412 7.44752e-18
9166.00097 7.39792e-18
9167.99782 7.44602e-18
9170.00485 7.62641e-18
9172.00170 8.01804e-18
9173.99855 8.32040e-18
9175.99540 8.73301e-18
9178.00243 8.93244e-18
9179.99928 8.73895e-18
9181.99613 8.32248e-18
9184.00316 8.05699e-18
9186.00001 7.70122e-18
9187.99686 7.62829e-18
9190.00390 7.95456e-18
9192.00074 8.03883e-18
9193.99759 7.65946e-18
9196.00463 7.15799e-18
9198.00148 7.03739e-18
9199.99832 7.16433e-18
9201.99517 7.20861e-18
9204.00221 7.23867e-18
9205.99906 7.35728e-18
9207.99590 7.58411e-18
9210.00294 7.86463e-18
9211.99979 8.20070e-18
9213.99664 8.68482e-18
9216.00367 8.58178e-18
9218.00052 7.60992e-18
9219.99737 7.39010e-18
9222.00440 8.03952e-18
9224.00125 8.70431e-18
9225.99810 8.76186e-18
9227.99495 8.50216e-18
9230.00198 8.62001e-18
9231.99883 9.03019e-18
9233.99568 9.23727e-18
9236.00272 9.40814e-18
9237.99956 9.40490e-18
9239.99641 9.05993e-18
9242.00345 8.52128e-18
9244.00030 8.39394e-18
9245.99714 8.70599e-18
9248.00418 8.62231e-18
9250.00103 8.30782e-18
9251.99788 7.97961e-18
9254.00491 7.62876e-18
9256.00176 7.29867e-18
9257.99861 7.21912e-18
9259.99546 7.46010e-18
9262.00249 7.34616e-18
9263.99934 6.89707e-18
9265.99619 6.65712e-18
9268.00322 6.70886e-18
9270.00007 6.86737e-18
9271.99692 6.97320e-18
9274.00396 7.13365e-18
9276.00080 7.10056e-18
9277.99765 6.73222e-18
9279.99450 6.70334e-18
9282.00154 7.08349e-18
9283.99838 7.53903e-18
9285.99523 7.80006e-18
9288.00227 7.97874e-18
9289.99912 8.28666e-18
9291.99596 8.98575e-18
9294.00300 9.01437e-18
9295.99985 7.90736e-18
9297.99670 7.33643e-18
9300.00373 8.50670e-18
9302.00058 1.06764e-17
9303.99743 1.14876e-17
9306.00446 1.24605e-17
9308.00131 1.13152e-17
9309.99816 6.83085e-18
9312.00520 3.88995e-18
9314.00204 4.54019e-18
9315.99889 6.82239e-18
9317.99574 7.48515e-18
9320.00278 7.37505e-18
9321.99962 7.92787e-18
9323.99647 8.82029e-18
9326.00351 9.74005e-18
9328.00036 1.09411e-17
9329.99720 1.19510e-17
9332.00424 1.17391e-17
9334.00109 1.03694e-17
9335.99794 9.67741e-18
9337.99478 8.92978e-18
9340.00182 8.59370e-18
9341.99867 8.98456e-18
9343.99552 9.35029e-18
9346.00255 8.79256e-18
9347.99940 7.54027e-18
9349.99625 7.15865e-18
9352.00328 7.28925e-18
9354.00013 7.44249e-18
9355.99698 7.68028e-18
9358.00402 8.04947e-18
9360.00086 8.63037e-18
9361.99771 9.38953e-18
9364.00475 9.79040e-18
9366.00160 9.98658e-18
9367.99844 1.00822e-17
9369.99529 9.80454e-18
9372.00233 9.79583e-18
9373.99918 1.05428e-17
9375.99602 1.16055e-17
9378.00306 1.16388e-17
9379.99991 1.10008e-17
9381.99676 1.01586e-17
9384.00379 8.27693e-18
9386.00064 7.28566e-18
9387.99749 7.98802e-18
9390.00452 9.27066e-18
9392.00137 9.26568e-18
9393.99822 8.42735e-18
9395.99507 8.00745e-18
9398.00210 7.45736e-18
9399.99895 7.25109e-18
9401.99580 7.65094e-18
9404.00284 8.09179e-18
9405.99968 7.82742e-18
9407.99653 7.04400e-18
9410.00357 6.65491e-18
9412.00042 6.35543e-18
9413.99726 6.17650e-18
9416.00430 6.06115e-18
9418.00115 6.13017e-18
9419.99800 6.56465e-18
9421.99484 7.32017e-18
9424.00188 7.63209e-18
9425.99873 7.59300e-18
9427.99558 7.73669e-18
9430.00261 7.82339e-18
9431.99946 8.17207e-18
9433.99631 8.91972e-18
9436.00334 9.99408e-18
9438.00019 1.15497e-17
9439.99704 1.49668e-17
9442.00408 1.54430e-17
9444.00092 1.34179e-17
9445.99777 1.13065e-17
9448.00481 9.41827e-18
9450.00166 7.68937e-18
9451.99850 7.39233e-18
9453.99535 8.88233e-18
9456.00239 8.81837e-18
9457.99924 7.88727e-18
9459.99608 7.03046e-18
9462.00312 6.23294e-18
9463.99997 5.52793e-18
9465.99682 5.14449e-18
9468.00385 4.85041e-18
9470.00070 5.40996e-18
9471.99755 7.16302e-18
9474.00458 8.35395e-18
9476.00143 9.22226e-18
9477.99828 9.61351e-18
9479.99513 9.04584e-18
9482.00216 7.55245e-18
9483.99901 7.09254e-18
9485.99586 7.35664e-18
9488.00290 7.27104e-18
9489.99974 6.87852e-18
9491.99659 6.54441e-18
9494.00363 6.39944e-18
9496.00048 6.37511e-18
9497.99732 6.88391e-18
9500.00436 8.08007e-18
9502.00121 8.98226e-18
9503.99806 1.01586e-17
9505.99490 1.07658e-17
9508.00194 1.03873e-17
9509.99879 9.38193e-18
9511.99564 8.40463e-18
9514.00267 6.73936e-18
9515.99952 6.09033e-18
9517.99637 6.11349e-18
9520.00340 6.34594e-18
9522.00025 6.78618e-18
9523.99710 7.39879e-18
9526.00414 8.00980e-18
9528.00098 8.99506e-18
9529.99783 8.90166e-18
9532.00487 7.52519e-18
9534.00172 6.80706e-18
9535.99856 7.10193e-18
9537.99541 7.44977e-18
9540.00245 6.67964e-18
9541.99930 4.85303e-18
9543.99614 5.37530e-18
9546.00318 8.30381e-18
9548.00003 1.00277e-17
9549.99688 1.10856e-17
9552.00391 1.14612e-17
9554.00076 1.08497e-17
9555.99761 9.36184e-18
9557.99446 8.03287e-18
9560.00149 5.42348e-18
9561.99834 5.04786e-18
9563.99519 7.02582e-18
9566.00222 9.05286e-18
9567.99907 1.03574e-17
9569.99592 1.13380e-17
9572.00296 1.09689e-17
9573.99980 8.80832e-18
9575.99665 7.59150e-18
9578.00369 6.51038e-18
9580.00054 5.61689e-18
9581.99738 4.77735e-18
9584.00442 4.20756e-18
9586.00127 4.56494e-18
9587.99812 6.06836e-18
9590.00515 6.74721e-18
9592.00200 7.12579e-18
9593.99885 7.43189e-18
9595.99570 7.64497e-18
9598.00273 7.79794e-18
9599.99958 7.98513e-18
9601.99643 8.16825e-18
9604.00346 8.33931e-18
9606.00031 8.71927e-18
9607.99716 8.64388e-18
9610.00420 8.10780e-18
9612.00104 7.28808e-18
9613.99789 6.04591e-18
9615.99474 4.23655e-18
9618.00178 4.49298e-18
9619.99862 7.48555e-18
9621.99547 8.28196e-18
9624.00251 7.17114e-18
9625.99936 5.79104e-18
9627.99620 4.71029e-18
9630.00324 3.64591e-18
9632.00009 4.01395e-18
9633.99694 6.23932e-18
9636.00397 7.26008e-18
9638.00082 7.96442e-18
9639.99767 8.13106e-18
9642.00470 7.35377e-18
9644.00155 6.13199e-18
9645.99840 6.06407e-18
9647.99525 6.95772e-18
9650.00228 7.28881e-18
9651.99913 7.65277e-18
9653.99598 7.66319e-18
9656.00302 7.14888e-18
9657.99986 6.39617e-18
9659.99671 5.79815e-18
9662.00375 4.99795e-18
9664.00060 4.99401e-18
9665.99744 5.90245e-18
9668.00448 6.44325e-18
9670.00133 6.62408e-18
9671.99818 6.62857e-18
9673.99502 6.50394e-18
9676.00206 6.20232e-18
9677.99891 5.95254e-18
9679.99576 5.36604e-18
9682.00279 5.42228e-18
9683.99964 6.48166e-18
9685.99649 7.31572e-18
9688.00352 6.96248e-18
9690.00037 5.88466e-18
9691.99722 5.43737e-18
9694.00426 5.17173e-18
9696.00110 5.02916e-18
9697.99795 5.07642e-18
9699.99480 5.17683e-18
9702.00184 5.24531e-18
9703.99868 5.35107e-18
9705.99553 5.67053e-18
9708.00257 6.32864e-18
9709.99942 6.67757e-18
9711.99626 6.88702e-18
9714.00330 7.01796e-18
9716.00015 7.01484e-18
9717.99700 6.97526e-18
9720.00403 7.18327e-18
9722.00088 7.70698e-18
9723.99773 7.76015e-18
9726.00476 7.63571e-18
9728.00161 7.18603e-18
9729.99846 6.13592e-18
9731.99531 5.04289e-18
9734.00234 4.65154e-18
9735.99919 4.63017e-18
9737.99604 5.06977e-18
9740.00308 6.29599e-18
9741.99992 7.22051e-18
9743.99677 8.08465e-18
9746.00381 8.65449e-18
9748.00066 8.60923e-18
9749.99750 8.06824e-18
9751.99435 7.58332e-18
9754.00139 6.73655e-18
9755.99824 6.27062e-18
9757.99508 5.94967e-18
9760.00212 5.97990e-18
9761.99897 6.72360e-18
9763.99582 7.90814e-18
9766.00285 7.93933e-18
9767.99970 6.96835e-18
9769.99655 6.38395e-18
9772.00358 5.41840e-18
9774.00043 5.11322e-18
9775.99728 6.15979e-18
9778.00432 7.74438e-18
9780.00116 7.93556e-18
9781.99801 6.96309e-18
9784.00505 6.79411e-18
9786.00190 7.21821e-18
9787.99874 7.13348e-18
9789.99559 6.18273e-18
9792.00263 5.00768e-18
9793.99948 4.40063e-18
9795.99632 3.83574e-18
9798.00336 4.39714e-18
9800.00021 6.87569e-18
9801.99706 7.86292e-18
9804.00409 7.05461e-18
9806.00094 5.77347e-18
9807.99779 4.96586e-18
9809.99464 4.08292e-18
9812.00167 4.28506e-18
9813.99852 6.13053e-18
9815.99537 6.65445e-18
9818.00240 6.00783e-18
9819.99925 5.07854e-18
9821.99610 4.10641e-18
9824.00314 2.95905e-18
9825.99998 3.26041e-18
9827.99683 5.46820e-18
9830.00387 6.22613e-18
9832.00072 6.11777e-18
9833.99756 5.78736e-18
9836.00460 5.25986e-18
9838.00145 4.61412e-18
9839.99830 4.76589e-18
9841.99514 5.76874e-18
9844.00218 6.23312e-18
9845.99903 6.54625e-18
9847.99588 6.78358e-18
9850.00291 7.00194e-18
9851.99976 7.11195e-18
9853.99661 6.91500e-18
9856.00364 6.29689e-18
9858.00049 6.15264e-18
9859.99734 6.35837e-18
9862.00438 6.46042e-18
9864.00122 6.55084e-18
9865.99807 6.48846e-18
9868.00511 5.97513e-18
9870.00196 5.02900e-18
9871.99880 4.45850e-18
9873.99565 3.72577e-18
9876.00269 3.68300e-18
9877.99954 4.66722e-18
9879.99638 5.61908e-18
9882.00342 5.69044e-18
9884.00027 5.26687e-18
9885.99712 5.05501e-18
9888.00415 4.56380e-18
9890.00100 4.60220e-18
9891.99785 5.57280e-18
9893.99470 6.00720e-18
9896.00173 4.87143e-18
9897.99858 2.92398e-18
9899.99543 2.52989e-18
9902.00246 3.26396e-18
9903.99931 3.69740e-18
9905.99616 4.44502e-18
9908.00320 4.94072e-18
9910.00004 4.94794e-18
9911.99689 4.73903e-18
9914.00393 4.76578e-18
9916.00078 4.75196e-18
9917.99762 5.11822e-18
9920.00466 6.21361e-18
9922.00151 6.66131e-18
9923.99836 6.16088e-18
9925.99520 5.30989e-18
9928.00224 4.68465e-18
9929.99909 3.78047e-18
9931.99594 4.13876e-18
9934.00297 5.96925e-18
9935.99982 7.14786e-18
9937.99667 7.96419e-18
9940.00370 8.27619e-18
9942.00055 7.48898e-18
9943.99740 5.60904e-18
9946.00444 5.79103e-18
9948.00128 8.25010e-18
9949.99813 8.96855e-18
9951.99498 8.13281e-18
9954.00202 7.14177e-18
9955.99886 6.71060e-18
9957.99571 6.44625e-18
9960.00275 6.12762e-18
9961.99960 5.27138e-18
9963.99644 5.73175e-18
9966.00348 8.56174e-18
9968.00033 9.70625e-18
9969.99718 6.94892e-18
9972.00421 2.45322e-18
9974.00106 1.05959e-18
9975.99791 1.59669e-18
9978.00494 1.72029e-18
9980.00179 2.25014e-18
9981.99864 2.85955e-18
9983.99549 3.54928e-18
9986.00252 4.29751e-18
9987.99937 4.97642e-18
9989.99622 5.70090e-18
9992.00326 6.15840e-18
9994.00010 6.46140e-18
9995.99695 6.56618e-18
9998.00399 6.34124e-18
10000.00084 6.06836e-18
