# wavelength flux
3473.99895 3.31602e-18
3475.46917 3.35955e-18
3476.93939 1.88157e-18
3478.40961 -3.73600e-19
3479.87983 3.30153e-18
3481.35005 7.81371e-18
3482.82027 5.52355e-18
3484.29049 3.31586e-18
3485.76071 7.03709e-18
3487.23093 4.42950e-18
3488.70115 3.42796e-18
3490.17137 -4.86839e-19
3491.64159 2.76911e-18
3493.11181 3.61697e-18
3494.58203 3.78819e-18
3496.05225 2.69205e-18
3497.52247 1.76612e-18
3498.99269 1.15368e-18
3500.46291 6.01534e-19
3501.93313 -7.08037e-19
3503.40335 2.05609e-18
3504.87357 3.09992e-18
3506.34379 2.49372e-18
3507.81401 3.40667e-18
3509.28423 3.94654e-18
3510.75445 1.21730e-18
3512.22467 -1.15656e-19
3513.69489 5.89169e-18
3515.15504 9.05278e-18
3516.62526 4.10541e-18
3518.09548 1.51457e-18
3519.56570 4.02895e-18
3521.03592 2.99214e-18
3522.50614 6.69577e-19
3523.97636 -7.79000e-20
3525.44658 1.95845e-19
3526.91680 -5.42448e-19
3528.38702 -3.88427e-19
3529.85724 7.74239e-18
3531.32746 6.23765e-18
3532.79768 2.94435e-18
3534.26790 1.57229e-18
3535.73812 3.54041e-19
3537.20834 4.29192e-18
3538.67856 5.03371e-18
3540.14878 4.92930e-18
3541.61900 4.41723e-18
3543.08922 1.86056e-18
3544.55944 4.18016e-18
3546.02966 3.37437e-18
3547.49988 2.65894e-18
3548.97010 2.88410e-18
3550.44032 2.58679e-18
3551.91054 3.45706e-19
3553.38076 4.15411e-19
3554.85098 1.97733e-18
3556.32120 3.32661e-18
3557.79142 5.10783e-18
3559.26164 4.84077e-18
3560.73186 2.88573e-18
3562.20208 3.83066e-18
3563.67230 5.15829e-18
3565.14252 2.75354e-18
3566.61274 5.62502e-18
3568.08296 4.79965e-18
3569.55318 5.08471e-19
3571.02340 -1.66074e-18
3572.49362 -1.68699e-20
3573.96384 4.34513e-18
3575.43406 7.24344e-18
3576.90428 7.31987e-18
3578.37450 5.41496e-18
3579.84472 1.93451e-18
3581.31494 3.88805e-18
3582.78516 6.03847e-18
3584.24531 2.87510e-18
3585.71553 1.99962e-18
3587.18575 4.05800e-18
3588.65597 8.94947e-19
3590.12619 1.32802e-18
3591.59641 2.63976e-18
3593.06663 3.42294e-18
3594.53685 1.34195e-18
3596.00707 1.05178e-18
3597.47729 2.06983e-18
3598.94751 2.14159e-18
3600.41773 3.92641e-18
3601.88795 3.81535e-18
3603.35817 2.84057e-18
3604.82839 -1.17683e-19
3606.29861 -1.16775e-18
3607.76883 2.10082e-18
3609.23905 8.12811e-19
3610.70927 4.00872e-19
3612.17949 2.03627e-18
3613.64971 4.39763e-18
3615.11993 3.99153e-18
3616.59015 1.89143e-18
3618.06037 2.82581e-18
3619.53059 -6.37325e-19
3621.00081 -1.60651e-19
3622.47103 3.49398e-18
3623.94125 4.10608e-18
3625.41147 2.99581e-18
3626.88169 6.90239e-18
3628.35191 4.09169e-18
3629.82213 4.30472e-19
3631.29235 2.76459e-18
3632.76257 -2.18086e-19
3634.23279 4.57665e-19
3635.70301 5.59984e-19
3637.17323 9.65520e-19
3638.64345 -6.19082e-19
3640.11367 -4.70122e-19
3641.58389 1.07821e-18
3643.05411 -1.49715e-18
3644.52433 4.68361e-19
3645.99455 2.60968e-18
3647.46477 1.25630e-18
3648.93499 2.56128e-18
3650.39514 2.85658e-18
3651.86536 1.21329e-18
3653.33558 4.50722e-18
3654.80580 6.05848e-18
3656.27602 4.44040e-18
3657.74624 3.93573e-18
3659.21646 3.71217e-18
3660.68668 2.10685e-18
3662.15690 9.46873e-19
3663.62712 -8.51373e-19
3665.09734 -2.50807e-18
3666.56756 -2.77913e-19
3668.03778 7.87291e-19
3669.50800 1.15720e-18
3670.97822 1.79771e-18
3672.44844 3.96130e-18
3673.91866 3.28726e-18
3675.38888 2.36106e-18
3676.85910 3.19433e-18
3678.32932 -1.25123e-18
3679.79954 6.64386e-19
3681.26976 2.84189e-18
3682.73998 -1.31993e-19
3684.21020 -8.20598e-19
3685.68042 6.15692e-19
3687.15064 3.85605e-19
3688.62086 2.24780e-18
3690.09108 -1.49773e-18
3691.56130 5.03836e-19
3693.03152 2.23447e-18
3694.50174 1.17299e-18
3695.97196 8.96237e-19
3697.44218 1.26826e-18
3698.91240 5.33541e-19
3700.38262 9.29469e-19
3701.85284 1.26536e-18
3703.32306 1.30161e-19
3704.79328 1.53130e-18
3706.26350 2.75054e-18
3707.73372 1.35437e-18
3709.20394 6.72773e-19
3710.67416 2.24034e-18
3712.14438 -1.07256e-18
3713.61460 1.40929e-18
3715.08482 1.07613e-18
3716.55504 4.14325e-19
3718.01519 1.96427e-18
3719.48541 7.23170e-19
3720.95563 -1.17676e-19
3722.42585 -4.77225e-19
3723.89607 1.56891e-18
3725.36629 5.12792e-18
3726.83651 4.71849e-18
3728.30673 1.90452e-18
3729.77695 1.55601e-19
3731.24717 1.88918e-18
3732.71739 3.51414e-18
3734.18761 3.44277e-18
3735.65783 3.37140e-18
3737.12805 3.43694e-18
3738.59827 3.50249e-18
3740.06849 3.56803e-18
3741.53871 3.63355e-18
3743.00893 3.69907e-18
3744.47915 3.76459e-18
3745.94937 3.83011e-18
3747.41959 3.89562e-18
3748.88981 3.96112e-18
3750.36003 4.02664e-18
3751.83025 4.09214e-18
3753.30047 4.15764e-18
3754.77069 4.22313e-18
3756.24091 4.28861e-18
3757.71113 4.35409e-18
3759.18135 4.41957e-18
3760.65157 4.48506e-18
3762.12179 4.55054e-18
3763.59201 4.61601e-18
3765.06223 4.68147e-18
3766.53245 4.74693e-18
3768.00267 4.81238e-18
3769.47289 4.87784e-18
3770.94311 4.94329e-18
3772.41333 5.00874e-18
3773.88355 5.07418e-18
3775.35377 2.33719e-18
3776.82399 8.07498e-19
3778.29421 2.71798e-18
3779.76443 3.19171e-18
3781.23465 3.99481e-18
3782.70487 3.12250e-18
3784.16502 2.42429e-18
3785.63524 -4.04893e-19
3787.10546 -1.58980e-20
3788.57568 3.49017e-18
3790.04590 2.05923e-18
3791.51612 1.62652e-18
3792.98634 9.89557e-19
3794.45656 3.22472e-18
3795.92678 7.21351e-19
3797.39700 6.55086e-19
3798.86722 1.05763e-18
3800.33744 4.18533e-18
3801.80766 4.10031e-18
3803.27788 9.58242e-19
3804.74810 1.56070e-19
3806.21832 4.66048e-18
3807.68854 3.74327e-18
3809.15876 3.08815e-18
3810.62898 4.15980e-18
3812.09920 3.30735e-18
3813.56942 2.61867e-18
3815.03964 3.11931e-18
3816.50986 3.22003e-18
3817.98008 1.51987e-18
3819.45030 2.41080e-18
3820.92052 4.16032e-18
3822.39074 3.94160e-18
3823.86096 3.73713e-18
3825.33118 3.57917e-18
3826.80140 2.65061e-18
3828.27162 3.08758e-18
3829.74184 2.52854e-18
3831.21206 -3.08607e-19
3832.68228 7.63428e-19
3834.15250 2.52022e-18
3835.62272 3.05752e-18
3837.09294 2.06470e-18
3838.56316 3.35823e-18
3840.03338 2.76963e-18
3841.50360 2.03156e-18
3842.97382 1.82467e-18
3844.44404 1.96291e-18
3845.91426 2.38938e-18
3847.38448 2.02437e-18
3848.85470 2.85946e-18
3850.32492 3.24629e-18
3851.79514 3.46016e-18
3853.25529 4.93872e-18
3854.72551 3.70089e-18
3856.19573 1.08173e-18
3857.66595 1.75914e-18
3859.13617 2.96453e-18
3860.60639 3.64582e-18
3862.07661 4.00795e-18
3863.54683 2.99227e-18
3865.01705 3.17371e-18
3866.48727 3.76400e-18
3867.95749 4.17021e-18
3869.42771 2.35848e-18
3870.89793 2.87989e-18
3872.36815 5.66422e-18
3873.83837 4.63628e-18
3875.30859 3.28885e-18
3876.77881 2.01160e-18
3878.24903 1.84999e-18
3879.71925 5.04449e-18
3881.18947 4.81128e-18
3882.65969 4.26965e-18
3884.12991 4.18982e-18
3885.60013 4.28351e-18
3887.07035 3.30350e-18
3888.54057 4.01182e-18
3890.01079 5.30944e-18
3891.48101 5.56083e-18
3892.95123 4.49296e-18
3894.42145 4.19558e-18
3895.89167 3.41201e-18
3897.36189 4.03135e-18
3898.83211 5.56407e-18
3900.30233 5.85153e-18
3901.77255 3.35364e-18
3903.24277 3.47081e-18
3904.71299 6.06567e-18
3906.18321 5.28086e-18
3907.65343 6.20140e-18
3909.12365 7.12555e-18
3910.59387 5.16867e-18
3912.06409 6.81924e-18
3913.53431 7.06125e-18
3915.00453 5.85828e-18
3916.47475 4.33490e-18
3917.94497 3.27495e-18
3919.40512 7.65937e-18
3920.87534 8.64612e-18
3922.34556 8.01298e-18
3923.81578 7.29232e-18
3925.28600 6.37808e-18
3926.75622 6.02042e-18
3928.22644 5.67854e-18
3929.69666 5.79392e-18
3931.16688 5.80501e-18
3932.63710 5.08994e-18
3934.10732 4.56654e-18
3935.57754 4.88927e-18
3937.04776 5.08156e-18
3938.51798 5.37542e-18
3939.98820 4.86286e-18
3941.45842 6.00840e-18
3942.92864 5.47692e-18
3944.39886 3.16061e-18
3945.86908 4.47383e-18
3947.33930 5.74861e-18
3948.80952 5.45183e-18
3950.27974 3.99959e-18
3951.74996 2.81799e-18
3953.22018 3.44574e-18
3954.69040 4.71037e-18
3956.16062 5.91163e-18
3957.63084 4.23672e-18
3959.10106 2.59633e-18
3960.57128 3.33004e-18
3962.04150 4.51981e-18
3963.51172 4.63322e-18
3964.98194 4.82844e-18
3966.45216 5.60406e-18
3967.92238 4.64372e-18
3969.39260 3.78548e-18
3970.86282 4.41080e-18
3972.33304 5.02642e-18
3973.80326 5.49639e-18
3975.27348 5.53590e-18
3976.74370 3.81188e-18
3978.21392 3.82190e-18
3979.68414 3.62300e-18
3981.15436 3.60699e-18
3982.62458 4.84152e-18
3984.09480 4.53755e-18
3985.56502 5.59057e-18
3987.02517 4.89459e-18
3988.49539 3.68544e-18
3989.96561 3.16025e-18
3991.43583 5.62254e-18
3992.90605 5.64523e-18
3994.37627 4.06327e-18
3995.84649 2.93920e-18
3997.31671 4.11491e-18
3998.78693 4.51243e-18
4000.25715 3.44187e-18
4001.72737 3.75152e-18
4003.19759 3.87125e-18
4004.66781 4.91709e-18
4006.13803 4.04049e-18
4007.60825 3.09556e-18
4009.07847 4.21502e-18
4010.54869 4.13448e-18
4012.01891 4.05396e-18
4013.48913 3.97343e-18
4014.95935 3.89291e-18
4016.42957 3.81239e-18
4017.89979 3.73188e-18
4019.37001 3.65137e-18
4020.84023 3.57086e-18
4022.31045 3.49036e-18
4023.78067 3.40986e-18
4025.25089 3.32937e-18
4026.72111 3.24888e-18
4028.19133 3.16839e-18
4029.66155 3.08791e-18
4031.13177 3.00743e-18
4032.60199 2.92696e-18
4034.07221 2.84649e-18
4035.54243 2.76602e-18
4037.01265 2.68556e-18
4038.48287 2.60510e-18
4039.95309 2.52465e-18
4041.42331 2.52459e-18
4042.89353 2.41330e-18
4044.36375 3.33603e-18
4045.83397 5.06117e-18
4047.30419 6.30539e-18
4048.77441 3.88614e-18
4050.24463 2.87952e-18
4051.71485 5.39982e-18
4053.18507 5.06655e-18
4054.64522 3.13007e-18
4056.11544 4.57367e-18
4057.58566 4.91519e-18
4059.05588 3.67670e-18
4060.52610 3.54888e-18
4061.99632 4.57729e-18
4063.46654 4.60670e-18
4064.93676 3.02957e-18
4066.40698 2.31623e-18
4067.87720 4.10958e-18
4069.34742 5.76067e-18
4070.81764 5.14965e-18
4072.28786 4.94540e-18
4073.75808 4.57151e-18
4075.22830 4.69038e-18
4076.69852 2.94814e-18
4078.16874 3.81665e-18
4079.63896 3.71428e-18
4081.10918 4.02886e-18
4082.57940 4.04541e-18
4084.04962 3.61733e-18
4085.51984 4.46631e-18
4086.99006 3.52064e-18
4088.46028 4.81331e-18
4089.93050 4.63491e-18
4091.40072 2.44705e-18
4092.87094 4.11542e-18
4094.34116 4.06727e-18
4095.81138 4.62230e-18
4097.28160 5.69297e-18
4098.75182 3.80992e-18
4100.22204 2.19040e-18
4101.69226 3.93512e-18
4103.16248 5.76791e-18
4104.63270 4.72025e-18
4106.10292 4.29499e-18
4107.57314 3.19260e-18
4109.04336 1.90101e-18
4110.51358 2.49102e-18
4111.98380 2.58335e-18
4113.45402 2.71691e-18
4114.92424 4.35529e-18
4116.39446 5.11597e-18
4117.86468 3.31241e-18
4119.33490 2.91205e-18
4120.79505 3.95647e-18
4122.26527 3.63168e-18
4123.73549 4.09925e-18
4125.20571 3.74763e-18
4126.67593 5.22841e-18
4128.14615 4.09832e-18
4129.61637 3.34977e-18
4131.08659 4.02516e-18
4132.55681 4.17687e-18
4134.02703 4.68516e-18
4135.49725 3.16942e-18
4136.96747 2.90662e-18
4138.43769 3.39022e-18
4139.90791 2.61208e-18
4141.37813 3.14913e-18
4142.84835 2.54214e-18
4144.31857 3.21164e-18
4145.78879 3.49906e-18
4147.25901 2.02298e-18
4148.72923 3.02986e-18
4150.19945 3.88182e-18
4151.66967 3.93246e-18
4153.13989 3.86711e-18
4154.61011 4.48744e-18
4156.08033 5.25460e-18
4157.55055 4.58233e-18
4159.02077 3.85045e-18
4160.49099 3.18554e-18
4161.96121 3.59340e-18
4163.43143 2.42226e-18
4164.90165 4.20321e-18
4166.37187 4.46058e-18
4167.84209 4.20874e-18
4169.31231 4.18640e-18
4170.78253 3.58803e-18
4172.25275 3.97158e-18
4173.72297 3.27846e-18
4175.19319 3.64841e-18
4176.66341 4.45500e-18
4178.13363 3.64553e-18
4179.60385 3.60983e-18
4181.07407 3.56805e-18
4182.54429 3.44304e-18
4184.01451 2.85540e-18
4185.48473 2.02740e-18
4186.95495 3.33968e-18
4188.41510 4.71365e-18
4189.89539 4.04771e-18
4191.35554 2.51400e-18
4192.82576 3.21898e-18
4194.29598 5.11298e-18
4195.76620 4.18966e-18
4197.23642 3.37339e-18
4198.70664 2.85898e-18
4200.17686 3.31800e-18
4201.64708 2.12539e-18
4203.11730 2.56391e-18
4204.58752 3.47665e-18
4206.05774 3.80336e-18
4207.52796 3.73096e-18
4208.99818 3.88798e-18
4210.46840 4.56817e-18
4211.93862 3.49220e-18
4213.40884 4.28234e-18
4214.87906 2.83491e-18
4216.34928 1.96620e-18
4217.81950 3.77409e-18
4219.28972 4.17847e-18
4220.75994 4.57689e-18
4222.23016 4.42397e-18
4223.70038 3.45441e-18
4225.17060 2.82504e-18
4226.64082 3.53685e-18
4228.11104 4.32409e-18
4229.58126 4.36359e-18
4231.05148 3.82808e-18
4232.52170 4.57091e-18
4233.99192 4.70335e-18
4235.46214 3.33619e-18
4236.93236 3.52324e-18
4238.40258 3.60439e-18
4239.87280 3.18268e-18
4241.34302 3.30584e-18
4242.81324 3.07509e-18
4244.28346 3.61630e-18
4245.75368 5.14680e-18
4247.22390 4.49879e-18
4248.69412 3.54510e-18
4250.16434 3.34277e-18
4251.63456 3.65516e-18
4253.10478 3.73191e-18
4254.57500 3.83498e-18
4256.04522 3.73629e-18
4257.50537 4.33631e-18
4258.97559 4.04377e-18
4260.44581 2.08534e-18
4261.91603 1.50280e-18
4263.38625 2.94521e-18
4264.85647 2.61031e-18
4266.32669 3.04441e-18
4267.79691 4.02400e-18
4269.26713 3.16697e-18
4270.73735 2.99117e-18
4272.20757 3.03346e-18
4273.67779 2.88705e-18
4275.14801 3.49212e-18
4276.61823 3.48422e-18
4278.08845 3.47079e-18
4279.55867 3.38877e-18
4281.02889 3.14538e-18
4282.49911 2.88083e-18
4283.96933 2.97337e-18
4285.43955 2.98437e-18
4286.90977 3.90733e-18
4288.37999 3.25353e-18
4289.85021 1.27986e-18
4291.32043 1.86895e-18
4292.79065 2.74878e-18
4294.26087 3.38111e-18
4295.73109 3.68354e-18
4297.20131 3.93965e-18
4298.67153 4.16092e-18
4300.14175 3.69554e-18
4301.61197 2.81749e-18
4303.08219 2.68092e-18
4304.55241 2.31462e-18
4306.02263 3.26902e-18
4307.49285 3.07684e-18
4308.96307 2.08781e-18
4310.43329 3.01251e-18
4311.90351 3.02236e-18
4313.37373 1.40312e-18
4314.84395 1.75641e-18
4316.31417 2.52601e-18
4317.78439 2.94690e-18
4319.25461 2.55574e-18
4320.72483 2.84900e-18
4322.19505 3.52773e-18
4323.65520 3.61122e-18
4325.12542 3.01025e-18
4326.59564 3.45703e-18
4328.06586 3.60817e-18
4329.53608 3.93638e-18
4331.00630 3.47946e-18
4332.47652 2.84986e-18
4333.94674 2.16263e-18
4335.41696 4.27219e-18
4336.88718 3.47839e-18
4338.35740 3.22277e-18
4339.82762 3.41332e-18
4341.29784 3.48396e-18
4342.76806 3.00334e-18
4344.23828 3.23014e-18
4345.70850 3.08833e-18
4347.17872 3.40101e-18
4348.64894 3.27135e-18
4350.11916 3.45131e-18
4351.58938 3.02218e-18
4353.05960 2.07409e-18
4354.52982 2.85430e-18
4356.00004 3.14512e-18
4357.47026 3.47309e-18
4358.94048 4.20598e-18
4360.41070 3.25600e-18
4361.88092 3.42584e-18
4363.35114 4.70412e-18
4364.82136 4.70694e-18
4366.29158 4.70975e-18
4367.76180 4.71257e-18
4369.23202 4.71539e-18
4370.70224 4.71820e-18
4372.17246 4.72102e-18
4373.64268 4.72383e-18
4375.11290 4.72665e-18
4376.58312 4.72946e-18
4378.05334 4.73228e-18
4379.52356 4.73509e-18
4380.99378 4.73790e-18
4382.46400 4.74072e-18
4383.93422 4.74353e-18
4385.40444 4.74634e-18
4386.87466 4.74916e-18
4388.33481 4.75197e-18
4389.80503 4.75478e-18
4391.27525 4.75759e-18
4392.74547 4.76041e-18
4394.21569 4.76322e-18
4395.68591 4.76603e-18
4397.15613 4.76884e-18
4398.62635 4.77165e-18
4400.09657 4.77446e-18
4401.56679 4.77727e-18
4403.03701 4.78008e-18
4404.50723 4.78289e-18
4405.97745 4.78570e-18
4407.44767 4.78851e-18
4408.91789 4.79132e-18
4410.38811 4.79413e-18
4411.85833 4.79694e-18
4413.32855 4.79975e-18
4414.79877 4.80256e-18
4416.26899 4.80537e-18
4417.73921 4.80817e-18
4419.20943 4.81098e-18
4420.67965 4.81379e-18
4422.14987 4.81660e-18
4423.62009 4.81940e-18
4425.09031 4.82221e-18
4426.56053 6.11087e-18
4428.03075 6.22990e-18
4429.50097 4.44691e-18
4430.97119 3.59845e-18
4432.44141 4.50200e-18
4433.91163 4.91776e-18
4435.38185 5.10360e-18
4436.85207 5.19632e-18
4438.32229 5.25340e-18
4439.79251 4.70477e-18
4441.26273 5.32519e-18
4442.73295 5.57734e-18
4444.20317 4.05284e-18
4445.67339 5.24290e-18
4447.14361 5.15907e-18
4448.61383 5.63979e-18
4450.08405 6.62129e-18
4451.55427 5.25686e-18
4453.02449 6.46064e-18
4454.49471 6.07863e-18
4455.96493 4.79007e-18
4457.43515 5.38468e-18
4458.89530 5.96314e-18
4460.36552 6.92509e-18
4461.83574 6.44539e-18
4463.30596 5.41281e-18
4464.77618 5.38230e-18
4466.24640 5.83692e-18
4467.71662 7.65609e-18
4469.18684 7.51769e-18
4470.65706 6.07925e-18
4472.12728 6.04595e-18
4473.59750 6.44954e-18
4475.06772 7.01964e-18
4476.53794 7.45248e-18
4478.00816 6.18916e-18
4479.47838 6.14592e-18
4480.94860 6.49446e-18
4482.41882 6.56285e-18
4483.88904 6.78954e-18
4485.35926 6.20055e-18
4486.82948 5.68565e-18
4488.29970 6.88936e-18
4489.76992 8.39005e-18
4491.24014 7.53472e-18
4492.71036 6.49866e-18
4494.18058 6.01758e-18
4495.65080 7.81854e-18
4497.12102 7.14870e-18
4498.59124 6.65867e-18
4500.06146 7.45164e-18
4501.53168 6.46163e-18
4503.00190 6.86891e-18
4504.47212 7.92945e-18
4505.94234 7.14931e-18
4507.41256 8.53136e-18
4508.88278 8.35655e-18
4510.35300 6.64510e-18
4511.82322 6.28235e-18
4513.29344 6.70194e-18
4514.76366 6.96341e-18
4516.23388 7.87015e-18
4517.70410 7.90900e-18
4519.17432 6.83115e-18
4520.64454 6.89382e-18
4522.11476 7.29575e-18
4523.58498 7.33346e-18
4525.04513 7.95212e-18
4526.51535 7.23631e-18
4527.98557 7.08742e-18
4529.45579 7.05862e-18
4530.92601 6.83409e-18
4532.39623 6.63886e-18
4533.86645 6.53401e-18
4535.33667 8.25664e-18
4536.80689 7.15541e-18
4538.27711 7.09162e-18
4539.74733 6.70508e-18
4541.21755 6.81873e-18
4542.68777 7.40717e-18
4544.15799 6.39193e-18
4545.62821 7.19328e-18
4547.09843 7.67904e-18
4548.56865 7.05735e-18
4550.03887 7.47626e-18
4551.50909 6.29621e-18
4552.97931 6.95393e-18
4554.44953 7.58076e-18
4555.91975 6.75652e-18
4557.38997 6.86519e-18
4558.86019 7.84988e-18
4560.33041 7.92492e-18
4561.80063 7.52441e-18
4563.27085 7.43899e-18
4564.74107 7.98014e-18
4566.21129 8.14321e-18
4567.68151 7.51502e-18
4569.15173 7.49729e-18
4570.62195 6.51036e-18
4572.09217 5.72573e-18
4573.56239 6.13893e-18
4575.03261 7.04172e-18
4576.50283 6.60860e-18
4577.97305 5.14462e-18
4579.44327 6.73189e-18
4580.91349 7.95082e-18
4582.38371 7.08036e-18
4583.85393 5.95930e-18
4585.32415 6.10881e-18
4586.79437 8.26704e-18
4588.26459 7.51280e-18
4589.73481 7.14670e-18
4591.20503 6.07417e-18
4592.66518 4.97537e-18
4594.14547 5.40196e-18
4595.60562 8.42912e-18
4597.07584 8.10941e-18
4598.54606 6.68532e-18
4600.01628 6.83104e-18
4601.48650 7.35339e-18
4602.95672 8.11698e-18
4604.42694 7.36772e-18
4605.89716 7.45663e-18
4607.36738 7.31584e-18
4608.83760 5.84448e-18
4610.30782 6.10374e-18
4611.77804 6.89431e-18
4613.24826 6.25638e-18
4614.71848 6.17663e-18
4616.18870 5.96378e-18
4617.65892 6.53173e-18
4619.12914 7.63851e-18
4620.59936 7.39629e-18
4622.06958 7.10721e-18
4623.53980 6.51860e-18
4625.01002 7.49746e-18
4626.48024 6.44704e-18
4627.95046 5.54170e-18
4629.42068 6.74034e-18
4630.89090 7.74073e-18
4632.36112 6.27852e-18
4633.83134 6.65771e-18
4635.30156 6.81537e-18
4636.77178 7.42365e-18
4638.24200 6.91443e-18
4639.71222 6.06097e-18
4641.18244 7.77960e-18
4642.65266 6.71692e-18
4644.12288 6.59318e-18
4645.59310 6.48644e-18
4647.06332 6.59466e-18
4648.53354 6.73266e-18
4650.00376 7.13077e-18
4651.47398 7.14335e-18
4652.94420 6.67920e-18
4654.41442 5.90095e-18
4655.88464 6.52352e-18
4657.35486 7.07666e-18
4658.82508 6.60872e-18
4660.29530 7.34885e-18
4661.75545 6.27276e-18
4663.22567 5.02217e-18
4664.69589 6.57019e-18
4666.16611 7.71902e-18
4667.63633 6.03719e-18
4669.10655 6.06027e-18
4670.57677 5.58973e-18
4672.04699 5.85029e-18
4673.51721 6.05836e-18
4674.98743 6.14047e-18
4676.45765 5.16387e-18
4677.92787 5.59725e-18
4679.39809 6.61819e-18
4680.86831 6.20486e-18
4682.33853 5.19490e-18
4683.80875 5.80752e-18
4685.27897 5.55063e-18
4686.74919 5.56385e-18
4688.21941 5.84093e-18
4689.68963 6.53382e-18
4691.15985 6.19952e-18
4692.63007 4.82295e-18
4694.10029 5.55453e-18
4695.57051 6.14760e-18
4697.04073 6.12833e-18
4698.51095 6.77661e-18
4699.98117 5.73828e-18
4701.45139 6.73120e-18
4702.92161 6.98975e-18
4704.39183 7.44348e-18
4705.86205 6.39859e-18
4707.33227 6.73602e-18
4708.80249 6.23040e-18
4710.27271 6.45864e-18
4711.74293 6.33861e-18
4713.21315 7.37357e-18
4714.68337 6.57133e-18
4716.15359 5.98748e-18
4717.62381 7.04360e-18
4719.09403 6.70242e-18
4720.56425 5.81538e-18
4722.03447 6.33557e-18
4723.50469 5.39494e-18
4724.97491 6.66018e-18
4726.43506 7.51744e-18
4727.90528 6.26705e-18
4729.37550 6.24815e-18
4730.84572 6.77511e-18
4732.31594 5.88745e-18
4733.78616 4.80949e-18
4735.25638 5.69778e-18
4736.72660 6.84354e-18
4738.19682 6.85219e-18
4739.66704 6.33813e-18
4741.13726 7.33013e-18
4742.60748 6.61133e-18
4744.07770 5.91060e-18
4745.54792 5.39097e-18
4747.01814 6.51261e-18
4748.48836 7.32086e-18
4749.95858 5.60539e-18
4751.42880 5.59548e-18
4752.89902 5.93355e-18
4754.36924 5.70060e-18
4755.83946 5.75763e-18
4757.30968 4.46314e-18
4758.77990 5.45121e-18
4760.25012 5.14346e-18
4761.72034 6.25663e-18
4763.19056 5.30861e-18
4764.66078 5.98127e-18
4766.13100 6.30548e-18
4767.60122 5.61078e-18
4769.07144 6.12886e-18
4770.54166 7.00239e-18
4772.01188 6.49548e-18
4773.48210 7.29028e-18
4774.95232 7.15596e-18
4776.42254 6.36138e-18
4777.89276 7.11964e-18
4779.36298 5.96641e-18
4780.83320 6.67685e-18
4782.30342 6.07481e-18
4783.77364 5.42160e-18
4785.24386 5.17493e-18
4786.71408 6.30583e-18
4788.18430 6.59488e-18
4789.65452 6.05970e-18
4791.12474 6.73714e-18
4792.58489 5.97137e-18
4794.05511 5.54738e-18
4795.52533 6.23892e-18
4796.99555 6.31535e-18
4798.46577 6.49023e-18
4799.93599 5.69519e-18
4801.40621 6.29127e-18
4802.87643 6.36171e-18
4804.34665 6.01101e-18
4805.81687 5.84385e-18
4807.28709 7.10466e-18
4808.75731 6.72622e-18
4810.22753 5.75519e-18
4811.69775 6.91866e-18
4813.16797 6.59043e-18
4814.63819 5.75467e-18
4816.10841 6.88594e-18
4817.57863 6.20685e-18
4819.04885 5.27719e-18
4820.51907 5.83049e-18
4821.98929 6.50936e-18
4823.45951 6.03232e-18
4824.92973 6.55771e-18
4826.39995 6.43070e-18
4827.87017 6.88040e-18
4829.34039 5.96109e-18
4830.81061 6.20416e-18
4832.28083 6.24867e-18
4833.75105 6.69125e-18
4835.22127 7.05179e-18
4836.69149 6.23767e-18
4838.16171 5.54299e-18
4839.63193 5.53437e-18
4841.10215 6.01908e-18
4842.57237 6.59736e-18
4844.04259 6.10012e-18
4845.51281 6.13582e-18
4846.98303 6.81552e-18
4848.45325 6.68581e-18
4849.92347 7.00149e-18
4851.39369 6.42027e-18
4852.86391 5.73864e-18
4854.33413 6.03442e-18
4855.80435 6.33715e-18
4857.27457 6.33134e-18
4858.74479 6.18145e-18
4860.21501 6.37124e-18
4861.68523 6.65297e-18
4863.14538 5.68344e-18
4864.61560 5.99553e-18
4866.08582 5.89085e-18
4867.55604 6.56339e-18
4869.02626 5.94323e-18
4870.49648 6.13109e-18
4871.96670 6.03963e-18
4873.43692 6.10849e-18
4874.90714 5.20927e-18
4876.37736 6.05801e-18
4877.84758 6.06893e-18
4879.31780 6.07984e-18
4880.78802 6.09075e-18
4882.25824 6.10166e-18
4883.72846 6.11256e-18
4885.19868 6.12347e-18
4886.66890 6.13438e-18
4888.13912 6.14528e-18
4889.60934 6.15619e-18
4891.07956 6.16709e-18
4892.54978 6.17800e-18
4894.02000 6.18890e-18
4895.49022 6.19981e-18
4896.96044 6.21071e-18
4898.43066 6.22161e-18
4899.90088 6.23251e-18
4901.37110 6.24341e-18
4902.84132 6.25431e-18
4904.31154 6.26521e-18
4905.78176 6.27611e-18
4907.25198 6.28701e-18
4908.72220 6.29791e-18
4910.19242 6.30880e-18
4911.66264 6.31970e-18
4913.13286 6.33059e-18
4914.60308 6.34149e-18
4916.07330 6.53099e-18
4917.54352 6.08360e-18
4919.01374 5.36132e-18
4920.48396 6.46160e-18
4921.95418 6.38087e-18
4923.42440 6.76034e-18
4924.89462 6.00293e-18
4926.36484 6.64677e-18
4927.83506 7.06960e-18
4929.29521 5.26985e-18
4930.76543 5.25559e-18
4932.23565 5.58817e-18
4933.70587 6.38907e-18
4935.17609 6.34529e-18
4936.64631 5.91834e-18
4938.11653 6.29713e-18
4939.58675 5.68879e-18
4941.05697 6.51937e-18
4942.52719 6.55021e-18
4943.99741 6.83532e-18
4945.46763 6.53161e-18
4946.93785 7.54686e-18
4948.40807 7.19583e-18
4949.87829 6.59420e-18
4951.34851 6.64348e-18
4952.81873 6.66766e-18
4954.28895 6.33113e-18
4955.75917 6.48108e-18
4957.22939 7.75675e-18
4958.69961 7.63011e-18
4960.16983 6.64595e-18
4961.64005 7.35285e-18
4963.11027 7.44710e-18
4964.58049 7.21523e-18
4966.05071 6.06294e-18
4967.52093 6.20492e-18
4968.99115 7.10308e-18
4970.46137 6.66576e-18
4971.93159 7.12757e-18
4973.40181 6.65621e-18
4974.87203 6.70864e-18
4976.34225 6.74375e-18
4977.81247 6.77887e-18
4979.28269 6.81400e-18
4980.75291 6.84912e-18
4982.22313 6.88424e-18
4983.69335 6.91934e-18
4985.16357 6.95445e-18
4986.63379 6.98955e-18
4988.10401 7.02467e-18
4989.57423 7.05976e-18
4991.04445 7.09487e-18
4992.51467 7.12996e-18
4993.98489 7.16506e-18
4995.45511 7.20016e-18
4996.91526 7.23525e-18
4998.38548 7.27034e-18
4999.85570 7.30544e-18
5001.32592 7.34053e-18
5002.79614 7.37561e-18
5004.26636 7.41070e-18
5005.73658 7.44579e-18
5007.20680 7.48086e-18
5008.67702 7.51594e-18
5010.14724 7.55101e-18
5011.61746 7.58609e-18
5013.08768 7.62115e-18
5014.55790 6.97076e-18
5016.02812 6.61271e-18
5017.49834 6.51615e-18
5018.96856 7.19313e-18
5020.43878 6.96147e-18
5021.90900 6.30146e-18
5023.37922 6.03715e-18
5024.84944 6.07307e-18
5026.31966 6.10898e-18
5027.78988 6.14489e-18
5029.26010 6.18080e-18
5030.73032 6.21671e-18
5032.20054 6.25262e-18
5033.67076 6.28851e-18
5035.14098 6.32442e-18
5036.61120 6.36031e-18
5038.08142 6.39622e-18
5039.55164 6.43212e-18
5041.02186 6.46801e-18
5042.49208 6.50391e-18
5043.96230 6.53979e-18
5045.43252 6.57569e-18
5046.90274 6.61156e-18
5048.37296 6.64745e-18
5049.84318 6.68333e-18
5051.31340 6.71921e-18
5052.78362 6.75508e-18
5054.25384 6.79096e-18
5055.72406 6.82684e-18
5057.19428 6.86271e-18
5058.66450 6.89858e-18
5060.13472 6.93445e-18
5061.60494 7.45728e-18
5063.07516 7.88025e-18
5064.53531 7.16473e-18
5066.00553 7.45064e-18
5067.47575 7.33763e-18
5068.94597 7.55135e-18
5070.41619 7.65671e-18
5071.88641 8.08179e-18
5073.35663 8.12959e-18
5074.82685 8.03249e-18
5076.29707 8.00573e-18
5077.76729 7.28339e-18
5079.23751 7.27969e-18
5080.70773 7.41213e-18
5082.17795 7.76428e-18
5083.64817 8.49692e-18
5085.11839 7.49985e-18
5086.58861 8.38690e-18
5088.05883 8.15784e-18
5089.52905 7.47394e-18
5090.99927 7.10510e-18
5092.46949 6.87060e-18
5093.93971 7.17728e-18
5095.40993 7.77030e-18
5096.88015 7.93700e-18
5098.35037 7.38640e-18
5099.82059 8.66755e-18
5101.29081 7.61657e-18
5102.76103 7.28576e-18
5104.23125 6.90265e-18
5105.70147 7.94404e-18
5107.17169 7.65637e-18
5108.64191 7.40961e-18
5110.11213 7.96465e-18
5111.58235 7.63277e-18
5113.05257 7.49068e-18
5114.52279 7.88793e-18
5115.99301 7.61023e-18
5117.46323 7.73763e-18
5118.93345 7.77886e-18
5120.40367 8.07713e-18
5121.87389 8.11191e-18
5123.34411 8.39923e-18
5124.81433 7.69542e-18
5126.28455 9.25638e-18
5127.75477 8.36754e-18
5129.22499 8.12000e-18
5130.68514 8.35799e-18
5132.15536 7.26061e-18
5133.62558 8.36400e-18
5135.09580 8.16107e-18
5136.56602 8.33099e-18
5138.03624 7.60014e-18
5139.50646 8.43224e-18
5140.97668 8.09912e-18
5142.44690 8.13064e-18
5143.91712 7.64814e-18
5145.38734 8.01889e-18
5146.85756 7.69060e-18
5148.32778 8.61012e-18
5149.79800 8.27825e-18
5151.26822 7.65160e-18
5152.73844 8.32718e-18
5154.20866 7.96859e-18
5155.67888 8.65213e-18
5157.14910 8.58405e-18
5158.61932 8.14235e-18
5160.08954 7.63010e-18
5161.55976 7.77790e-18
5163.02998 8.64502e-18
5164.50020 8.43289e-18
5165.97042 8.19697e-18
5167.44064 9.12194e-18
5168.91086 9.67567e-18
5170.38108 8.93602e-18
5171.85130 8.48073e-18
5173.32152 8.36767e-18
5174.79174 8.68994e-18
5176.26196 8.86930e-18
5177.73218 8.72008e-18
5179.20240 8.69650e-18
5180.67262 9.43118e-18
5182.14284 8.56206e-18
5183.61306 9.07086e-18
5185.08328 8.97883e-18
5186.55350 8.71778e-18
5188.02372 8.58408e-18
5189.49394 7.94829e-18
5190.96416 8.21087e-18
5192.43438 9.76863e-18
5193.90460 9.24557e-18
5195.37482 9.07540e-18
5196.83497 9.22591e-18
5198.30519 9.25648e-18
5199.77541 9.15098e-18
5201.24563 9.91564e-18
5202.71585 9.84435e-18
5204.18607 9.36585e-18
5205.65629 9.77672e-18
5207.12651 9.66873e-18
5208.59673 9.09085e-18
5210.06695 9.15397e-18
5211.53717 9.48805e-18
5213.00739 9.91277e-18
5214.47761 1.09953e-17
5215.94783 1.04652e-17
5217.41805 9.97562e-18
5218.88827 9.52170e-18
5220.35849 1.02527e-17
5221.82871 9.90680e-18
5223.29893 9.88169e-18
5224.76915 1.01156e-17
5226.23937 8.87042e-18
5227.70959 9.28289e-18
5229.17981 9.96572e-18
5230.65003 1.01521e-17
5232.12025 1.06397e-17
5233.59047 9.38760e-18
5235.06069 8.85867e-18
5236.53091 1.01105e-17
5238.00113 9.92101e-18
5239.47135 1.02220e-17
5240.94157 9.78186e-18
5242.41179 9.02302e-18
5243.88201 9.93685e-18
5245.35223 1.03585e-17
5246.82245 9.91760e-18
5248.29267 1.03416e-17
5249.76289 9.49723e-18
5251.23311 9.87482e-18
5252.70333 9.66477e-18
5254.17355 9.44429e-18
5255.64377 9.95016e-18
5257.11399 9.73854e-18
5258.58421 1.01888e-17
5260.05443 1.06795e-17
5261.52465 1.02474e-17
5262.99487 1.03005e-17
5264.46509 1.03326e-17
5265.93531 1.02190e-17
5267.39546 9.89016e-18
5268.86568 1.02231e-17
5270.33590 1.03797e-17
5271.80612 9.69635e-18
5273.27634 1.01265e-17
5274.74656 1.06035e-17
5276.21678 1.08545e-17
5277.68700 1.08748e-17
5279.15722 1.10785e-17
5280.62744 1.04346e-17
5282.09766 1.04245e-17
5283.56788 1.10258e-17
5285.03810 1.06279e-17
5286.50832 1.05113e-17
5287.97854 1.10961e-17
5289.44876 1.14990e-17
5290.91898 1.07465e-17
5292.38920 1.04052e-17
5293.85942 1.08571e-17
5295.32964 1.11732e-17
5296.79986 1.10035e-17
5298.27008 1.03655e-17
5299.74030 1.13071e-17
5301.21052 1.22559e-17
5302.68074 1.19384e-17
5304.15096 1.18484e-17
5305.62118 1.13878e-17
5307.09140 1.11861e-17
5308.56162 1.10350e-17
5310.03184 1.08003e-17
5311.50206 1.12672e-17
5312.97228 1.07561e-17
5314.44250 1.06685e-17
5315.91272 1.12966e-17
5317.38294 1.12287e-17
5318.85316 1.19961e-17
5320.32338 1.26404e-17
5321.79360 1.25631e-17
5323.26382 1.16612e-17
5324.73404 1.15993e-17
5326.20426 1.24911e-17
5327.67448 1.22025e-17
5329.14470 1.11868e-17
5330.61492 1.07518e-17
5332.08514 1.16087e-17
5333.54529 1.15414e-17
5335.01551 1.18457e-17
5336.48573 1.26915e-17
5337.95595 1.19955e-17
5339.42617 1.10736e-17
5340.89639 1.11110e-17
5342.36661 1.17028e-17
5343.83683 1.17211e-17
5345.30705 1.21528e-17
5346.77727 1.15230e-17
5348.24749 1.18579e-17
5349.71771 1.23009e-17
5351.18793 1.15628e-17
5352.65815 1.16757e-17
5354.12837 1.17012e-17
5355.59859 1.14947e-17
5357.06881 1.24172e-17
5358.53903 1.28506e-17
5360.00925 1.17564e-17
5361.47947 1.23734e-17
5362.94969 1.28446e-17
5364.41991 1.12979e-17
5365.89013 1.18622e-17
5367.36035 1.21301e-17
5368.83057 1.20444e-17
5370.30079 1.28376e-17
5371.77101 1.23961e-17
5373.24123 1.23047e-17
5374.71145 1.17279e-17
5376.18167 1.14924e-17
5377.65189 1.18976e-17
5379.12211 1.21322e-17
5380.59233 1.24016e-17
5382.06255 1.26709e-17
5383.53277 1.25317e-17
5385.00299 1.23738e-17
5386.47321 1.17528e-17
5387.94343 1.24169e-17
5389.41365 1.22229e-17
5390.88387 1.27584e-17
5392.35409 1.30274e-17
5393.82431 1.32861e-17
5395.29453 1.32612e-17
5396.76475 1.28560e-17
5398.23497 1.33228e-17
5399.70519 1.22151e-17
5401.16534 1.18250e-17
5402.63556 1.16127e-17
5404.10578 1.27348e-17
5405.57600 1.32742e-17
5407.04622 1.20163e-17
5408.51644 1.17630e-17
5409.98666 1.29415e-17
5411.45688 1.15069e-17
5412.92710 1.17457e-17
5414.39732 1.23980e-17
5415.86754 1.28845e-17
5417.33776 1.27468e-17
5418.80798 1.16873e-17
5420.27820 1.19917e-17
5421.74842 1.17438e-17
5423.21864 1.18053e-17
5424.68886 1.24727e-17
5426.15908 1.24507e-17
5427.62930 1.28666e-17
5429.09952 1.25462e-17
5430.56974 1.28324e-17
5432.03996 1.24338e-17
5433.51018 1.24502e-17
5434.98040 1.12612e-17
5436.45062 1.24673e-17
5437.92084 1.32155e-17
5439.39106 1.24131e-17
5440.86128 1.27376e-17
5442.33150 1.28555e-17
5443.80172 1.24972e-17
5445.27194 1.28556e-17
5446.74216 1.34229e-17
5448.21238 1.39692e-17
5449.68260 1.44309e-17
5451.15282 1.40847e-17
5452.62304 1.31204e-17
5454.09326 1.18373e-17
5455.56348 1.36442e-17
5457.03370 1.32758e-17
5458.50392 1.30951e-17
5459.97414 1.39700e-17
5461.44436 1.36293e-17
5462.91458 1.21208e-17
5464.38480 1.36035e-17
5465.85502 1.36339e-17
5467.31517 1.35764e-17
5468.78539 1.36385e-17
5470.25561 1.28637e-17
5471.72583 1.30295e-17
5473.19605 1.39848e-17
5474.66627 1.38261e-17
5476.13649 1.32206e-17
5477.60671 1.31867e-17
5479.07693 1.25953e-17
5480.54715 1.22258e-17
5482.01737 1.28558e-17
5483.48759 1.29304e-17
5484.95781 1.32589e-17
5486.42803 1.21356e-17
5487.89825 1.24035e-17
5489.36847 1.32105e-17
5490.83869 1.31985e-17
5492.30891 1.34470e-17
5493.77913 1.30562e-17
5495.24935 1.23858e-17
5496.71957 1.25154e-17
5498.18979 1.25422e-17
5499.66001 1.26486e-17
5501.13023 1.14523e-17
5502.60045 1.19118e-17
5504.07067 1.10622e-17
5505.54089 1.19970e-17
5507.01111 1.22747e-17
5508.48133 1.15469e-17
5509.95155 1.18534e-17
5511.42177 1.19672e-17
5512.89199 1.20982e-17
5514.36221 1.17764e-17
5515.83243 1.16220e-17
5517.30265 1.10715e-17
5518.77287 1.15070e-17
5520.24309 1.25453e-17
5521.71331 1.20051e-17
5523.18353 1.31152e-17
5524.65375 1.24765e-17
5526.12397 1.11330e-17
5527.59419 1.17365e-17
5529.06441 1.11883e-17
5530.53463 1.08675e-17
5532.00485 1.13610e-17
5533.47507 1.14612e-17
5534.93522 1.15544e-17
5536.40544 1.15648e-17
5537.87566 1.20317e-17
5539.34588 1.20094e-17
5540.81610 1.18775e-17
5542.28632 1.15172e-17
5543.75654 1.10817e-17
5545.22676 1.19267e-17
5546.69698 1.19108e-17
5548.16720 1.19962e-17
5549.63742 1.26440e-17
5551.10764 1.25474e-17
5552.57786 1.17475e-17
5554.04808 1.24171e-17
5555.51830 1.19833e-17
5556.98852 1.12924e-17
5558.45874 1.18986e-17
5559.92896 1.23434e-17
5561.39918 1.21902e-17
5562.86940 1.24228e-17
5564.33962 1.24546e-17
5565.80984 1.27991e-17
5567.28006 1.23934e-17
5568.75028 1.11298e-17
5570.22050 1.18218e-17
5571.69072 1.24415e-17
5573.16094 1.18932e-17
5574.63116 1.20528e-17
5576.10138 1.36521e-17
5577.57160 1.28620e-17
5579.04182 1.17459e-17
5580.51204 1.21394e-17
5581.98226 1.18596e-17
5583.45248 1.15363e-17
5584.92270 1.15769e-17
5586.39292 1.19649e-17
5587.86314 1.16525e-17
5589.33336 1.13351e-17
5590.80358 1.22567e-17
5592.27380 1.24345e-17
5593.74402 1.16356e-17
5595.21424 1.17462e-17
5596.68446 1.21789e-17
5598.15468 1.16275e-17
5599.62490 1.13260e-17
5601.08505 1.22265e-17
5602.55527 1.21914e-17
5604.02549 1.18456e-17
5605.49571 1.23490e-17
5606.96593 1.21322e-17
5608.43615 1.21742e-17
5609.90637 1.24536e-17
5611.37659 1.17513e-17
5612.84681 1.14942e-17
5614.31703 1.15811e-17
5615.78725 1.24105e-17
5617.25747 1.27227e-17
5618.72769 1.14285e-17
5620.19791 1.18991e-17
5621.66813 1.19733e-17
5623.13835 1.07151e-17
5624.60857 1.14544e-17
5626.07879 1.15856e-17
5627.54901 1.10057e-17
5629.01923 1.16564e-17
5630.48945 1.21889e-17
5631.95967 1.04178e-17
5633.42989 1.09969e-17
5634.90011 1.15532e-17
5636.37033 1.09526e-17
5637.84055 1.11958e-17
5639.31077 1.06410e-17
5640.78099 1.06979e-17
5642.25121 1.08640e-17
5643.72143 1.10161e-17
5645.19165 1.14090e-17
5646.66187 1.09260e-17
5648.13209 1.09579e-17
5649.60231 1.12388e-17
5651.07253 1.10471e-17
5652.54275 1.19654e-17
5654.01297 1.11293e-17
5655.48319 1.07833e-17
5656.95341 1.08598e-17
5658.42363 1.13544e-17
5659.89385 1.12561e-17
5661.36407 1.14114e-17
5662.83429 1.16063e-17
5664.30451 1.13071e-17
5665.77473 1.13542e-17
5667.24495 1.21532e-17
5668.71517 1.24119e-17
5670.18539 1.14488e-17
5671.64554 1.07888e-17
5673.11576 1.19321e-17
5674.58598 1.19437e-17
5676.05620 1.14609e-17
5677.52642 1.15820e-17
5678.99664 1.07866e-17
5680.46686 1.07094e-17
5681.93708 1.11722e-17
5683.40730 1.04104e-17
5684.87752 1.08380e-17
5686.34774 1.15098e-17
5687.81796 1.23230e-17
5689.28818 1.08946e-17
5690.75840 1.17343e-17
5692.22862 1.18376e-17
5693.69884 1.10808e-17
5695.16906 1.09072e-17
5696.63928 1.08432e-17
5698.10950 1.08860e-17
5699.57972 1.06257e-17
5701.04994 1.12654e-17
5702.52016 1.11110e-17
5703.99038 1.12840e-17
5705.46060 1.17023e-17
5706.93082 1.17839e-17
5708.40104 1.20214e-17
5709.87126 1.20886e-17
5711.34148 1.19103e-17
5712.81170 1.13852e-17
5714.28192 1.16093e-17
5715.75214 1.17930e-17
5717.22236 1.17303e-17
5718.69258 1.25332e-17
5720.16280 1.18149e-17
5721.63302 1.18474e-17
5723.10324 1.24863e-17
5724.57346 1.23774e-17
5726.04368 1.24779e-17
5727.51390 1.20550e-17
5728.98412 1.22336e-17
5730.45434 1.23142e-17
5731.92456 1.26062e-17
5733.39478 1.25151e-17
5734.86500 1.24201e-17
5736.33522 1.19065e-17
5737.79537 1.20077e-17
5739.26559 1.30200e-17
5740.73581 1.28662e-17
5742.20603 1.29729e-17
5743.67625 1.25195e-17
5745.14647 1.29578e-17
5746.61669 1.24970e-17
5748.08691 1.22089e-17
5749.55713 1.33698e-17
5751.02735 1.28806e-17
5752.49757 1.30888e-17
5753.96779 1.38490e-17
5755.43801 1.40268e-17
5756.90823 1.32564e-17
5758.37845 1.38531e-17
5759.84867 1.44517e-17
5761.31889 1.38430e-17
5762.78911 1.34386e-17
5764.25933 1.38779e-17
5765.72955 1.51371e-17
5767.19977 1.44803e-17
5768.66999 1.39815e-17
5770.14021 1.37365e-17
5771.61043 1.33970e-17
5773.08065 1.34054e-17
5774.55087 1.36605e-17
5776.02109 1.37593e-17
5777.49131 1.43827e-17
5778.96153 1.53563e-17
5780.43175 1.51723e-17
5781.90197 1.47277e-17
5783.37219 1.53934e-17
5784.84241 1.50442e-17
5786.31263 1.57004e-17
5787.78285 1.55445e-17
5789.25307 1.44782e-17
5790.72329 1.51998e-17
5792.19351 1.56671e-17
5793.66373 1.46857e-17
5795.13395 1.45576e-17
5796.60417 1.52181e-17
5798.07439 1.54445e-17
5799.54461 1.63465e-17
5801.01483 1.67122e-17
5802.48505 1.58871e-17
5803.94520 1.65692e-17
5805.41542 1.60807e-17
5806.88564 1.51623e-17
5808.35586 1.65182e-17
5809.82608 1.70079e-17
5811.29630 1.74516e-17
5812.76652 1.69559e-17
5814.23674 1.56563e-17
5815.70696 1.53047e-17
5817.17718 1.57134e-17
5818.64740 1.67406e-17
5820.11762 1.68514e-17
5821.58784 1.66144e-17
5823.05806 1.69372e-17
5824.52828 1.65554e-17
5825.99850 1.62697e-17
5827.46872 1.66767e-17
5828.93894 1.60309e-17
5830.40916 1.62627e-17
5831.87938 1.65638e-17
5833.34960 1.69246e-17
5834.81982 1.74964e-17
5836.29004 1.64540e-17
5837.76026 1.62017e-17
5839.23048 1.68449e-17
5840.70070 1.65993e-17
5842.17092 1.67721e-17
5843.64114 1.77578e-17
5845.11136 1.72244e-17
5846.58158 1.71246e-17
5848.05180 1.73414e-17
5849.52202 1.68817e-17
5850.99224 1.68484e-17
5852.46246 1.72195e-17
5853.93268 1.76651e-17
5855.40290 1.71360e-17
5856.87312 1.63306e-17
5858.34334 1.65341e-17
5859.81356 1.71492e-17
5861.28378 1.71196e-17
5862.75400 1.69764e-17
5864.22422 1.75464e-17
5865.69444 1.70439e-17
5867.16466 1.71995e-17
5868.63488 1.79039e-17
5870.10510 1.70150e-17
5871.56525 1.67454e-17
5873.03547 1.65174e-17
5874.50569 1.73086e-17
5875.97591 1.72775e-17
5877.44613 1.74265e-17
5878.91635 1.77848e-17
5880.38657 1.75653e-17
5881.85679 1.76623e-17
5883.32701 1.69328e-17
5884.79723 1.66912e-17
5886.26745 1.54725e-17
5887.73767 1.55078e-17
5889.20789 1.55432e-17
5890.67811 1.55785e-17
5892.14833 1.56139e-17
5893.61855 1.56492e-17
5895.08877 1.56845e-17
5896.55899 1.57199e-17
5898.02921 1.57552e-17
5899.49943 1.57905e-17
5900.96965 1.58259e-17
5902.43987 1.58612e-17
5903.91009 1.58965e-17
5905.38031 1.59318e-17
5906.85053 1.59672e-17
5908.32075 1.60025e-17
5909.79097 1.60378e-17
5911.26119 1.60731e-17
5912.73141 1.61085e-17
5914.20163 1.61438e-17
5915.67185 1.61791e-17
5917.14207 1.62144e-17
5918.61229 1.62497e-17
5920.08251 1.62851e-17
5921.55273 1.63204e-17
5923.02295 1.63557e-17
5924.49317 1.63910e-17
5925.96339 1.64263e-17
5927.43361 1.64616e-17
5928.90383 1.64969e-17
5930.37405 1.65323e-17
5931.84427 1.65676e-17
5933.31449 1.66029e-17
5934.78471 1.66382e-17
5936.25493 1.66735e-17
5937.72515 1.67088e-17
5939.18530 1.67441e-17
5940.65552 1.67794e-17
5942.12574 1.68147e-17
5943.59596 1.68500e-17
5945.06618 1.68853e-17
5946.53640 1.69206e-17
5948.00662 1.69559e-17
5949.47684 1.70444e-17
5950.94706 1.62772e-17
5952.41728 1.77482e-17
5953.88750 1.74674e-17
5955.35772 1.70885e-17
5956.82794 1.69906e-17
5958.29816 1.65535e-17
5959.76838 1.62335e-17
5961.23860 1.60799e-17
5962.70882 1.62372e-17
5964.17904 1.65489e-17
5965.64926 1.66614e-17
5967.11948 1.64847e-17
5968.58970 1.64241e-17
5970.05992 1.57709e-17
5971.53014 1.63197e-17
5973.00036 1.58032e-17
5974.47058 1.59258e-17
5975.94080 1.60065e-17
5977.41102 1.57411e-17
5978.88124 1.60162e-17
5980.35146 1.55702e-17
5981.82168 1.52457e-17
5983.29190 1.53273e-17
5984.76212 1.56449e-17
5986.23234 1.61229e-17
5987.70256 1.53736e-17
5989.17278 1.50978e-17
5990.64300 1.54386e-17
5992.11322 1.48568e-17
5993.58344 1.48989e-17
5995.05366 1.57532e-17
5996.52388 1.55508e-17
5997.99410 1.50547e-17
5999.46432 1.52661e-17
6000.93454 1.51042e-17
6002.40476 1.46465e-17
6003.87498 1.48729e-17
6005.33513 1.47804e-17
6006.80535 1.46261e-17
6008.27557 1.46737e-17
6009.74579 1.44747e-17
6011.21601 1.53251e-17
6012.68623 1.54464e-17
6014.15645 1.49014e-17
6015.62667 1.45805e-17
6017.09689 1.43878e-17
6018.56711 1.48212e-17
6020.03733 1.48257e-17
6021.50755 1.52055e-17
6022.97777 1.52972e-17
6024.44799 1.48503e-17
6025.91821 1.43022e-17
6027.38843 1.44470e-17
6028.85865 1.49628e-17
6030.32887 1.44470e-17
6031.79909 1.42971e-17
6033.26931 1.39251e-17
6034.73953 1.38730e-17
6036.20975 1.42204e-17
6037.67997 1.43240e-17
6039.15019 1.34320e-17
6040.62041 1.33621e-17
6042.09063 1.42127e-17
6043.56085 1.42350e-17
6045.03107 1.47079e-17
6046.50129 1.40670e-17
6047.97151 1.38896e-17
6049.44173 1.34916e-17
6050.91195 1.32031e-17
6052.38217 1.37252e-17
6053.85239 1.44599e-17
6055.32261 1.46592e-17
6056.79283 1.40135e-17
6058.26305 1.31414e-17
6059.73327 1.28501e-17
6061.20349 1.30463e-17
6062.67371 1.33709e-17
6064.14393 1.26447e-17
6065.61415 1.33617e-17
6067.08437 1.35182e-17
6068.55459 1.34902e-17
6070.02481 1.32940e-17
6071.49503 1.30076e-17
6072.96525 1.30608e-17
6074.43547 1.36361e-17
6075.89562 1.41517e-17
6077.36584 1.36929e-17
6078.83606 1.34777e-17
6080.30628 1.36846e-17
6081.77650 1.31293e-17
6083.24672 1.30280e-17
6084.71694 1.28319e-17
6086.18716 1.30052e-17
6087.65738 1.23443e-17
6089.12760 1.27819e-17
6090.59782 1.28790e-17
6092.06804 1.35366e-17
6093.53826 1.33282e-17
6095.00848 1.32315e-17
6096.47870 1.25693e-17
6097.94892 1.31499e-17
6099.41914 1.28802e-17
6100.88936 1.36831e-17
6102.35958 1.29968e-17
6103.82980 1.28141e-17
6105.30002 1.24316e-17
6106.77024 1.27116e-17
6108.24046 1.29824e-17
6109.71068 1.36462e-17
6111.18090 1.29329e-17
6112.65112 1.20436e-17
6114.12134 1.23577e-17
6115.59156 1.24543e-17
6117.06178 1.29732e-17
6118.53200 1.28765e-17
6120.00222 1.30726e-17
6121.47244 1.23438e-17
6122.94266 1.22364e-17
6124.41288 1.15238e-17
6125.88310 1.22289e-17
6127.35332 1.16388e-17
6128.82354 1.16487e-17
6130.29376 1.23458e-17
6131.76398 1.22543e-17
6133.23420 1.16181e-17
6134.70442 1.18617e-17
6136.17464 1.14553e-17
6137.64486 1.20411e-17
6139.11508 1.15872e-17
6140.58530 1.20422e-17
6142.04545 1.20919e-17
6143.51567 1.23338e-17
6144.98589 1.20481e-17
6146.45611 1.13591e-17
6147.92633 1.24343e-17
6149.39655 1.25068e-17
6150.86677 1.16981e-17
6152.33699 1.09191e-17
6153.80721 1.05940e-17
6155.27743 1.10689e-17
6156.74765 1.16326e-17
6158.21787 1.16746e-17
6159.68809 1.13308e-17
6161.15831 1.08270e-17
6162.62853 1.08629e-17
6164.09875 1.12644e-17
6165.56897 1.06378e-17
6167.03919 1.08516e-17
6168.50941 1.15711e-17
6169.97963 1.11113e-17
6171.44985 1.06856e-17
6172.92007 1.11586e-17
6174.39029 1.16958e-17
6175.86051 1.09290e-17
6177.33073 1.09910e-17
6178.80095 1.11184e-17
6180.27117 1.08425e-17
6181.74139 1.04057e-17
6183.21161 1.05737e-17
6184.68183 1.07104e-17
6186.15205 1.04001e-17
6187.62227 1.03476e-17
6189.09249 1.06757e-17
6190.56271 1.06353e-17
6192.03293 9.83345e-18
6193.50315 9.82601e-18
6194.97337 9.49879e-18
6196.44359 9.57963e-18
6197.91381 1.01025e-17
6199.38403 9.94393e-18
6200.85425 9.79429e-18
6202.32447 1.04329e-17
6203.79469 1.04247e-17
6205.25484 9.99601e-18
6206.72506 1.02416e-17
6208.19528 1.02515e-17
6209.66550 1.06043e-17
6211.13572 1.11323e-17
6212.60594 1.07559e-17
6214.07616 1.04037e-17
6215.54638 1.04674e-17
6217.01660 1.13177e-17
6218.48682 1.15899e-17
6219.95704 1.06344e-17
6221.42726 1.04727e-17
6222.89748 9.91102e-18
6224.36770 9.52244e-18
6225.83792 9.99377e-18
6227.30814 1.03191e-17
6228.77836 1.01813e-17
6230.24858 1.05608e-17
6231.71880 1.06924e-17
6233.18902 1.04614e-17
6234.65924 1.07401e-17
6236.12946 1.13783e-17
6237.59968 1.05020e-17
6239.06990 9.82254e-18
6240.54012 9.85004e-18
6242.01034 9.27631e-18
6243.48056 9.87064e-18
6244.95078 1.04314e-17
6246.42100 9.82430e-18
6247.89122 9.95424e-18
6249.36144 1.02578e-17
6250.83166 1.04908e-17
6252.30188 1.04772e-17
6253.77210 1.06066e-17
6255.24232 1.00796e-17
6256.71254 9.99333e-18
6258.18276 1.01400e-17
6259.65298 9.97210e-18
6261.12320 9.73699e-18
6262.59342 1.03059e-17
6264.06364 1.10268e-17
6265.53386 1.10147e-17
6267.00408 1.01861e-17
6268.47430 9.95926e-18
6269.94452 1.00301e-17
6271.41474 9.95606e-18
6272.88496 1.00559e-17
6274.35518 1.05462e-17
6275.81533 9.79638e-18
6277.28555 9.98715e-18
6278.75577 1.06633e-17
6280.22599 1.08255e-17
6281.69621 1.00759e-17
6283.16643 1.04044e-17
6284.63665 9.99794e-18
6286.10687 9.86014e-18
6287.57709 1.02895e-17
6289.04731 1.04972e-17
6290.51753 1.03693e-17
6291.98775 1.07520e-17
6293.45797 1.00784e-17
6294.92819 1.07620e-17
6296.39841 1.04378e-17
6297.86863 1.04809e-17
6299.33885 1.03251e-17
6300.80907 1.13021e-17
6302.27929 1.06999e-17
6303.74951 1.03202e-17
6305.21973 1.08625e-17
6306.68995 1.04651e-17
6308.16017 9.96639e-18
6309.63039 9.51871e-18
6311.10061 1.01404e-17
6312.57083 1.02171e-17
6314.04105 9.97460e-18
6315.51127 1.01645e-17
6316.98149 1.02181e-17
6318.45171 9.88095e-18
6319.92193 9.72770e-18
6321.39215 9.99726e-18
6322.86237 1.02827e-17
6324.33259 1.00352e-17
6325.80281 1.03410e-17
6327.27303 1.03267e-17
6328.74325 1.10114e-17
6330.21347 1.08968e-17
6331.68369 1.07714e-17
6333.15391 1.09772e-17
6334.62413 1.02937e-17
6336.09435 1.03397e-17
6337.56457 1.05528e-17
6339.03479 1.08712e-17
6340.50501 1.10918e-17
6341.97523 1.13862e-17
6343.43538 1.01985e-17
6344.90560 1.03333e-17
6346.37582 1.10192e-17
6347.84604 1.09798e-17
6349.31626 1.12884e-17
6350.78648 1.10952e-17
6352.25670 1.06238e-17
6353.72692 1.03961e-17
6355.19714 9.61244e-18
6356.66736 1.02412e-17
6358.13758 1.07083e-17
6359.60780 1.07185e-17
6361.07802 1.06865e-17
6362.54824 1.05703e-17
6364.01846 1.12448e-17
6365.48868 9.88358e-18
6366.95890 9.97240e-18
6368.42912 1.04582e-17
6369.89934 9.96035e-18
6371.36956 1.02032e-17
6372.83978 1.08217e-17
6374.31000 1.09661e-17
6375.78022 1.11488e-17
6377.25044 1.15304e-17
6378.72066 1.02716e-17
6380.19088 9.87584e-18
6381.66110 1.02625e-17
6383.13132 9.98252e-18
6384.60154 1.04207e-17
6386.07176 9.95405e-18
6387.54198 9.89963e-18
6389.01220 1.04990e-17
6390.48242 1.07764e-17
6391.95264 1.09651e-17
6393.42286 1.08479e-17
6394.89308 1.06174e-17
6396.36330 1.04785e-17
6397.83352 9.90484e-18
6399.30374 9.73593e-18
6400.77396 1.09892e-17
6402.24418 1.11097e-17
6403.71440 1.01606e-17
6405.18462 1.03320e-17
6406.65484 1.08229e-17
6408.12506 1.10920e-17
6409.58521 1.08790e-17
6411.05543 1.06809e-17
6412.52565 1.08639e-17
6413.99587 1.05786e-17
6415.46609 1.01358e-17
6416.93631 1.04391e-17
6418.40653 1.07599e-17
6419.87675 1.05372e-17
6421.34697 1.12254e-17
6422.81719 1.10510e-17
6424.28741 1.08809e-17
6425.75763 1.06151e-17
6427.22785 1.06503e-17
6428.69807 1.10817e-17
6430.16829 1.12288e-17
6431.63851 1.15396e-17
6433.10873 1.15780e-17
6434.57895 1.10896e-17
6436.04917 1.05241e-17
6437.51939 1.07934e-17
6438.98961 1.10668e-17
6440.45983 1.08742e-17
6441.93005 1.07073e-17
6443.40027 1.05725e-17
6444.87049 1.09404e-17
6446.34071 1.12201e-17
6447.81093 1.06500e-17
6449.28115 1.13278e-17
6450.75137 1.12480e-17
6452.22159 1.04543e-17
6453.69181 1.06505e-17
6455.16203 1.08817e-17
6456.63225 1.09897e-17
6458.10247 1.17350e-17
6459.57269 1.10790e-17
6461.04291 1.10597e-17
6462.51313 1.06703e-17
6463.98335 1.11637e-17
6465.45357 1.19776e-17
6466.92379 1.22529e-17
6468.39401 1.24779e-17
6469.86423 1.13687e-17
6471.33445 1.04616e-17
6472.80467 1.10671e-17
6474.27489 1.15549e-17
6475.74511 1.08148e-17
6477.21533 1.11056e-17
6478.68555 1.17195e-17
6480.14570 1.13671e-17
6481.61592 1.11367e-17
6483.08614 1.16611e-17
6484.55636 1.17346e-17
6486.02658 1.10363e-17
6487.49680 1.20928e-17
6488.96702 1.21553e-17
6490.43724 1.13411e-17
6491.90746 1.12283e-17
6493.37768 1.11101e-17
6494.84790 1.09911e-17
6496.31812 1.11783e-17
6497.78834 1.10224e-17
6499.25856 1.13582e-17
6500.72878 1.22473e-17
6502.19900 1.19051e-17
6503.66922 1.19935e-17
6505.13944 1.15819e-17
6506.60966 1.16306e-17
6508.07988 1.18251e-17
6509.55010 1.21678e-17
6511.02032 1.23424e-17
6512.49054 1.31878e-17
6513.96076 1.20912e-17
6515.43098 1.27224e-17
6516.90120 1.21113e-17
6518.37142 1.22814e-17
6519.84164 1.21481e-17
6521.31186 1.29222e-17
6522.78208 1.27171e-17
6524.25230 1.25257e-17
6525.72252 1.27929e-17
6527.19274 1.26500e-17
6528.66296 1.22904e-17
6530.13318 1.24274e-17
6531.60340 1.23616e-17
6533.07362 1.21112e-17
6534.54384 1.24614e-17
6536.01406 1.29418e-17
6537.48428 1.21335e-17
6538.95450 1.24275e-17
6540.42472 1.29762e-17
6541.89494 1.24904e-17
6543.36516 1.20986e-17
6544.82531 1.25810e-17
6546.29553 1.30396e-17
6547.76575 1.30468e-17
6549.23597 1.29851e-17
6550.70619 1.20976e-17
6552.17641 1.26830e-17
6553.64663 1.34103e-17
6555.11685 1.28676e-17
6556.58707 1.29651e-17
6558.05729 1.31099e-17
6559.52751 1.34339e-17
6560.99773 1.31850e-17
6562.46795 1.28563e-17
6563.93817 1.30639e-17
6565.40839 1.34215e-17
6566.87861 1.37990e-17
6568.34883 1.33868e-17
6569.81905 1.32575e-17
6571.28927 1.33513e-17
6572.75949 1.34594e-17
6574.22971 1.32557e-17
6575.69993 1.27118e-17
6577.17015 1.27601e-17
6578.64037 1.28084e-17
6580.11059 1.28567e-17
6581.58081 1.29051e-17
6583.05103 1.29533e-17
6584.52125 1.30017e-17
6585.99147 1.30500e-17
6587.46169 1.30983e-17
6588.93191 1.31466e-17
6590.40213 1.31949e-17
6591.87235 1.32432e-17
6593.34257 1.32915e-17
6594.81279 1.33398e-17
6596.28301 1.33880e-17
6597.75323 1.34364e-17
6599.22345 1.34847e-17
6600.69367 1.35329e-17
6602.16389 1.35812e-17
6603.63411 1.36295e-17
6605.10433 1.36778e-17
6606.57455 1.37261e-17
6608.04477 1.37744e-17
6609.50492 1.38227e-17
6610.97514 1.38709e-17
6612.44536 1.39192e-17
6613.91558 1.39547e-17
6615.38580 1.39902e-17
6616.85602 1.40257e-17
6618.32624 1.40612e-17
6619.79646 1.40966e-17
6621.26668 1.41321e-17
6622.73690 1.41676e-17
6624.20712 1.42031e-17
6625.67734 1.42385e-17
6627.14756 1.42740e-17
6628.61778 1.43095e-17
6630.08800 1.43450e-17
6631.55822 1.43804e-17
6633.02844 1.44159e-17
6634.49866 1.44514e-17
6635.96888 1.44868e-17
6637.43910 1.45223e-17
6638.90932 1.45578e-17
6640.37954 1.45932e-17
6641.84976 1.46287e-17
6643.31998 1.46642e-17
6644.79020 1.46996e-17
6646.26042 1.47351e-17
6647.73064 1.47706e-17
6649.20086 1.43249e-17
6650.67108 1.45575e-17
6652.14130 1.49311e-17
6653.61152 1.44618e-17
6655.08174 1.42407e-17
6656.55196 1.41328e-17
6658.02218 1.37331e-17
6659.49240 1.37968e-17
6660.96262 1.35617e-17
6662.43284 1.41334e-17
6663.90306 1.45228e-17
6665.37328 1.45243e-17
6666.84350 1.46591e-17
6668.31372 1.45360e-17
6669.78394 1.45199e-17
6671.25416 1.44628e-17
6672.72438 1.40666e-17
6674.19460 1.36469e-17
6675.66482 1.42704e-17
6677.12497 1.43719e-17
6678.60526 1.39158e-17
6680.06541 1.34596e-17
6681.53563 1.40294e-17
6683.00585 1.46819e-17
6684.47607 1.43577e-17
6685.94629 1.39029e-17
6687.41651 1.42926e-17
6688.88673 1.47027e-17
6690.35695 1.48515e-17
6691.82717 1.43452e-17
6693.29739 1.41341e-17
6694.76761 1.37737e-17
6696.23783 1.39026e-17
6697.70805 1.29030e-17
6699.17827 1.31921e-17
6700.64849 1.27473e-17
6702.11871 1.30076e-17
6703.58893 1.35903e-17
6705.05915 1.34967e-17
6706.52937 1.39187e-17
6707.99959 1.36729e-17
6709.46981 1.37496e-17
6710.94003 1.36157e-17
6712.41025 1.40728e-17
6713.88047 1.37020e-17
6715.35069 1.38616e-17
6716.82091 1.38609e-17
6718.29113 1.42227e-17
6719.76135 1.36007e-17
6721.23157 1.41923e-17
6722.70179 1.36601e-17
6724.17201 1.34952e-17
6725.64223 1.44624e-17
6727.11245 1.38787e-17
6728.58267 1.34589e-17
6730.05289 1.35784e-17
6731.52311 1.35167e-17
6732.99333 1.35595e-17
6734.46355 1.33965e-17
6735.93377 1.36916e-17
6737.40399 1.44411e-17
6738.87421 1.42279e-17
6740.34443 1.33616e-17
6741.81465 1.28432e-17
6743.28487 1.36579e-17
6744.75509 1.40174e-17
6746.22531 1.39888e-17
6747.68546 1.39602e-17
6749.15568 1.39317e-17
6750.62590 1.39031e-17
6752.09612 1.38745e-17
6753.56634 1.38459e-17
6755.03656 1.38173e-17
6756.50678 1.37888e-17
6757.97700 1.37602e-17
6759.44722 1.37316e-17
6760.91744 1.36870e-17
6762.38766 1.36425e-17
6763.85788 1.35980e-17
6765.32810 1.35534e-17
6766.79832 1.35089e-17
6768.26854 1.34644e-17
6769.73876 1.34198e-17
6771.20898 1.33753e-17
6772.67920 1.33308e-17
6774.14942 1.32862e-17
6775.61964 1.32417e-17
6777.08986 1.31972e-17
6778.56008 1.31526e-17
6780.03030 1.31081e-17
6781.50052 1.30636e-17
6782.97074 1.30191e-17
6784.44096 1.29745e-17
6785.91118 1.29300e-17
6787.38140 1.28855e-17
6788.85162 1.28410e-17
6790.32184 1.27965e-17
6791.79206 1.27519e-17
6793.26228 1.27074e-17
6794.73250 1.26629e-17
6796.20272 1.26184e-17
6797.67294 1.31016e-17
6799.14316 1.27024e-17
6800.61338 1.18806e-17
6802.08360 1.20457e-17
6803.55382 1.25527e-17
6805.02404 1.26108e-17
6806.49426 1.23509e-17
6807.96448 1.19276e-17
6809.43470 1.21472e-17
6810.90492 1.23316e-17
6812.37514 1.18119e-17
6813.83529 1.16812e-17
6815.30551 1.18498e-17
6816.77573 1.23323e-17
6818.24595 1.25250e-17
6819.71617 1.26694e-17
6821.18639 1.24079e-17
6822.65661 1.16862e-17
6824.12683 1.21990e-17
6825.59705 1.29225e-17
6827.06727 1.17126e-17
6828.53749 1.11971e-17
6830.00771 1.23836e-17
6831.47793 1.22642e-17
6832.94815 1.13394e-17
6834.41837 1.16825e-17
6835.88859 1.26974e-17
6837.35881 1.22961e-17
6838.82903 1.19716e-17
6840.29925 1.19639e-17
6841.76947 1.18521e-17
6843.23969 1.18061e-17
6844.70991 1.19704e-17
6846.18013 1.20540e-17
6847.65035 1.14674e-17
6849.12057 1.14260e-17
6850.59079 1.14514e-17
6852.06101 1.14426e-17
6853.53123 1.21958e-17
6855.00145 1.24111e-17
6856.47167 1.20313e-17
6857.94189 1.21911e-17
6859.41211 1.14396e-17
6860.88233 1.09599e-17
6862.35255 1.14828e-17
6863.82277 1.24645e-17
6865.29299 1.29582e-17
6866.76321 1.20344e-17
6868.23343 1.16572e-17
6869.70365 1.13765e-17
6871.17387 1.17110e-17
6872.64409 1.16940e-17
6874.11431 1.11856e-17
6875.58453 1.12585e-17
6877.05475 1.18834e-17
6878.52497 1.17384e-17
6879.99519 1.18158e-17
6881.45534 1.14056e-17
6882.92556 1.15833e-17
6884.39578 1.14946e-17
6885.86600 1.16168e-17
6887.33622 1.15816e-17
6888.80644 1.21753e-17
6890.27666 1.21806e-17
6891.74688 1.17978e-17
6893.21710 1.19102e-17
6894.68732 1.18334e-17
6896.15754 1.21711e-17
6897.62776 1.20408e-17
6899.09798 1.22189e-17
6900.56820 1.20795e-17
6902.03842 1.25138e-17
6903.50864 1.27915e-17
6904.97886 1.20746e-17
6906.44908 1.11435e-17
6907.91930 1.15691e-17
6909.38952 1.26781e-17
6910.85974 1.30731e-17
6912.32996 1.22785e-17
6913.80018 1.30162e-17
6915.27040 1.26250e-17
6916.74062 1.26646e-17
6918.21084 1.24032e-17
6919.68106 1.23209e-17
6921.15128 1.24929e-17
6922.62150 1.28458e-17
6924.09172 1.28983e-17
6925.56194 1.30299e-17
6927.03216 1.33837e-17
6928.50238 1.27804e-17
6929.97260 1.16741e-17
6931.44282 1.25449e-17
6932.91304 1.29043e-17
6934.38326 1.31415e-17
6935.85348 1.29634e-17
6937.32370 1.30487e-17
6938.79392 1.36400e-17
6940.26414 1.39585e-17
6941.73436 1.32983e-17
6943.20458 1.28976e-17
6944.67480 1.33950e-17
6946.14502 1.41301e-17
6947.60517 1.42261e-17
6949.07539 1.38469e-17
6950.54561 1.39824e-17
6952.01583 1.44295e-17
6953.48605 1.34474e-17
6954.95627 1.33418e-17
6956.42649 1.37402e-17
6957.89671 1.38392e-17
6959.36693 1.40552e-17
6960.83715 1.42715e-17
6962.30737 1.35342e-17
6963.77759 1.39933e-17
6965.24781 1.33819e-17
6966.71803 1.35234e-17
6968.18825 1.34313e-17
6969.65847 1.35059e-17
6971.12869 1.40915e-17
6972.59891 1.40600e-17
6974.06913 1.31433e-17
6975.53935 1.42049e-17
6977.00957 1.41917e-17
6978.47979 1.35869e-17
6979.95001 1.30510e-17
6981.42023 1.44291e-17
6982.89045 1.44753e-17
6984.36067 1.40925e-17
6985.83089 1.36862e-17
6987.30111 1.40956e-17
6988.77133 1.35919e-17
6990.24155 1.38459e-17
6991.71177 1.46860e-17
6993.18199 1.45908e-17
6994.65221 1.47448e-17
6996.12243 1.36863e-17
6997.59265 1.41621e-17
6999.06287 1.39615e-17
7000.53309 1.36083e-17
7002.00331 1.41162e-17
7003.47353 1.45394e-17
7004.94375 1.38391e-17
7006.41397 1.43839e-17
7007.88419 1.42948e-17
7009.35441 1.36549e-17
7010.82463 1.41178e-17
7012.29485 1.44654e-17
7013.75500 1.51846e-17
7015.22522 1.47116e-17
7016.69544 1.36268e-17
7018.16566 1.40463e-17
7019.63588 1.40731e-17
7021.10610 1.33914e-17
7022.57632 1.39267e-17
7024.04654 1.42094e-17
7025.51676 1.39797e-17
7026.98698 1.36209e-17
7028.45720 1.30354e-17
7029.92742 1.40640e-17
7031.39764 1.41749e-17
7032.86786 1.40169e-17
7034.33808 1.41800e-17
7035.80830 1.40764e-17
7037.27852 1.39522e-17
7038.74874 1.41829e-17
7040.21896 1.35534e-17
7041.68918 1.33112e-17
7043.15940 1.39462e-17
7044.62962 1.43355e-17
7046.09984 1.31394e-17
7047.57006 1.23377e-17
7049.04028 1.32764e-17
7050.51050 1.35662e-17
7051.98072 1.33980e-17
7053.45094 1.29071e-17
7054.92116 1.33661e-17
7056.39138 1.43485e-17
7057.86160 1.36391e-17
7059.33182 1.30006e-17
7060.80204 1.32025e-17
7062.27226 1.35639e-17
7063.74248 1.33804e-17
7065.21270 1.32791e-17
7066.68292 1.32126e-17
7068.15314 1.32592e-17
7069.62336 1.34009e-17
7071.09358 1.34532e-17
7072.56380 1.36100e-17
7074.03402 1.31955e-17
7075.50424 1.32119e-17
7076.97446 1.35342e-17
7078.44468 1.40439e-17
7079.91490 1.41091e-17
7081.37505 1.36224e-17
7082.85534 1.36193e-17
7084.31549 1.36577e-17
7085.78571 1.38690e-17
7087.25593 1.39919e-17
7088.72615 1.37493e-17
7090.19637 1.37948e-17
7091.66659 1.31699e-17
7093.13681 1.26609e-17
7094.60703 1.33579e-17
7096.07725 1.38587e-17
7097.54747 1.37703e-17
7099.01769 1.32229e-17
7100.48791 1.35134e-17
7101.95813 1.45978e-17
7103.42835 1.41064e-17
7104.89857 1.30448e-17
7106.36879 1.40292e-17
7107.83901 1.49860e-17
7109.30923 1.42462e-17
7110.77945 1.29819e-17
7112.24967 1.30749e-17
7113.71989 1.37518e-17
7115.19011 1.28934e-17
7116.66033 1.24435e-17
7118.13055 1.27179e-17
7119.60077 1.26048e-17
7121.07099 1.29853e-17
7122.54121 1.34808e-17
7124.01143 1.35269e-17
7125.48165 1.34014e-17
7126.95187 1.34713e-17
7128.42209 1.40849e-17
7129.89231 1.39459e-17
7131.36253 1.35035e-17
7132.83275 1.39032e-17
7134.30297 1.38523e-17
7135.77319 1.41990e-17
7137.24341 1.43366e-17
7138.71363 1.32738e-17
7140.18385 1.34236e-17
7141.65407 1.38314e-17
7143.12429 1.39554e-17
7144.59451 1.32203e-17
7146.06473 1.31732e-17
7147.53495 1.42484e-17
7149.00517 1.36934e-17
7150.47539 1.30610e-17
7151.93554 1.29686e-17
7153.40576 1.32421e-17
7154.87598 1.34895e-17
7156.34620 1.37552e-17
7157.81642 1.36071e-17
7159.28664 1.26191e-17
7160.75686 1.22671e-17
7162.22708 1.32533e-17
7163.69730 1.32953e-17
7165.16752 1.34151e-17
7166.63774 1.41136e-17
7168.10796 1.40741e-17
7169.57818 1.38808e-17
7171.04840 1.36774e-17
7172.51862 1.32934e-17
7173.98884 1.32163e-17
7175.45906 1.32013e-17
7176.92928 1.35808e-17
7178.39950 1.34431e-17
7179.86972 1.43082e-17
7181.33994 1.44051e-17
7182.81016 1.37803e-17
7184.28038 1.37908e-17
7185.75060 1.39362e-17
7187.22082 1.37537e-17
7188.69104 1.34340e-17
7190.16126 1.35180e-17
7191.63148 1.35752e-17
7193.10170 1.33695e-17
7194.57192 1.37929e-17
7196.04214 1.32513e-17
7197.51236 1.26365e-17
7198.98258 1.36304e-17
7200.45280 1.33695e-17
7201.92302 1.27441e-17
7203.39324 1.33365e-17
7204.86346 1.36452e-17
7206.33368 1.30331e-17
7207.80390 1.33886e-17
7209.27412 1.39227e-17
7210.74434 1.36717e-17
7212.21456 1.26926e-17
7213.68478 1.24256e-17
7215.15500 1.31284e-17
7216.62522 1.36501e-17
7218.08537 1.27505e-17
7219.55559 1.23118e-17
7221.02581 1.31007e-17
7222.49603 1.28961e-17
7223.96625 1.32674e-17
7225.43647 1.28993e-17
7226.90669 1.31495e-17
7228.37691 1.39615e-17
7229.84713 1.36352e-17
7231.31735 1.30133e-17
7232.78757 1.33814e-17
7234.25779 1.34779e-17
7235.72801 1.30448e-17
7237.19823 1.27454e-17
7238.66845 1.32652e-17
7240.13867 1.41429e-17
7241.60889 1.42769e-17
7243.07911 1.31500e-17
7244.54933 1.42705e-17
7246.01955 1.44054e-17
7247.48977 1.28718e-17
7248.95999 1.30708e-17
7250.43021 1.37140e-17
7251.90043 1.35267e-17
7253.37065 1.35884e-17
7254.84087 1.36773e-17
7256.31109 1.23656e-17
7257.78131 1.27291e-17
7259.25153 1.36374e-17
7260.72175 1.30823e-17
7262.19197 1.21906e-17
7263.66219 1.24450e-17
7265.13241 1.19989e-17
7266.60263 1.20667e-17
7268.07285 1.18640e-17
7269.54307 1.23716e-17
7271.01329 1.25234e-17
7272.48351 1.22216e-17
7273.95373 1.18899e-17
7275.42395 1.23617e-17
7276.89417 1.26688e-17
7278.36439 1.25117e-17
7279.83461 1.26219e-17
7281.30483 1.36244e-17
7282.77505 1.34902e-17
7284.23520 1.33214e-17
7285.70542 1.30100e-17
7287.17564 1.23744e-17
7288.64586 1.16322e-17
7290.11608 1.16334e-17
7291.58630 1.24361e-17
7293.05652 1.36452e-17
7294.52674 1.25862e-17
7295.99696 1.19221e-17
7297.46718 1.17273e-17
7298.93740 1.19401e-17
7300.40762 1.14170e-17
7301.87784 1.14754e-17
7303.34806 1.20049e-17
7304.81828 1.19150e-17
7306.28850 1.18314e-17
7307.75872 1.19862e-17
7309.22894 1.20065e-17
7310.69916 1.24994e-17
7312.16938 1.30028e-17
7313.63960 1.27362e-17
7315.10982 1.20346e-17
7316.58004 1.22592e-17
7318.05026 1.26154e-17
7319.52048 1.19145e-17
7320.99070 1.23484e-17
7322.46092 1.27541e-17
7323.93114 1.20677e-17
7325.40136 1.23429e-17
7326.87158 1.25545e-17
7328.34180 1.26757e-17
7329.81202 1.20909e-17
7331.28224 1.16313e-17
7332.75246 1.19971e-17
7334.22268 1.20090e-17
7335.69290 1.19060e-17
7337.16312 1.10033e-17
7338.63334 1.10607e-17
7340.10356 1.12907e-17
7341.57378 1.05184e-17
7343.04400 1.09144e-17
7344.51422 1.17034e-17
7345.98444 1.15040e-17
7347.45466 1.15280e-17
7348.92488 1.15493e-17
7350.39510 1.06455e-17
7351.85525 1.02898e-17
7353.32547 1.15013e-17
7354.79569 1.09859e-17
7356.26591 1.05757e-17
7357.73613 1.12820e-17
7359.20635 1.17125e-17
7360.67657 1.17671e-17
7362.14679 1.14676e-17
7363.61701 1.14843e-17
7365.08723 1.21560e-17
7366.55745 1.19503e-17
7368.02767 1.25689e-17
7369.49789 1.20232e-17
7370.96811 1.06677e-17
7372.43833 1.06550e-17
7373.90855 1.08339e-17
7375.37877 1.13293e-17
7376.84899 1.16085e-17
7378.31921 1.19036e-17
7379.78943 1.14787e-17
7381.25965 1.11923e-17
7382.72987 1.13848e-17
7384.20009 1.12068e-17
7385.67031 1.15834e-17
7387.14053 1.17002e-17
7388.61075 1.08905e-17
7390.08097 1.09417e-17
7391.55119 1.07993e-17
7393.02141 1.00437e-17
7394.49163 1.04357e-17
7395.96185 1.13158e-17
7397.43207 1.09449e-17
7398.90229 1.03991e-17
7400.37251 1.06975e-17
7401.84273 1.19812e-17
7403.31295 1.20742e-17
7404.78317 1.17522e-17
7406.25339 1.14274e-17
7407.72361 1.06765e-17
7409.19383 1.12127e-17
7410.66405 1.02399e-17
7412.13427 1.05476e-17
7413.60449 1.06532e-17
7415.07471 1.02254e-17
7416.20519 1.02254e-17
7418.20361 1.01814e-17
7420.20202 1.01735e-17
7422.21053 1.01906e-17
7424.20894 1.01929e-17
7426.20735 1.01149e-17
7428.20577 1.00510e-17
7430.20418 1.00991e-17
7432.21269 1.01815e-17
7434.21110 1.02142e-17
7436.20952 1.01856e-17
7438.20793 1.01723e-17
7440.21644 1.02362e-17
7442.21485 1.02946e-17
7444.21327 1.02635e-17
7446.21168 1.02042e-17
7448.21009 1.01588e-17
7450.21860 1.01351e-17
7452.21702 1.01078e-17
7454.21543 1.00672e-17
7456.21384 1.00309e-17
7458.22235 1.00245e-17
7460.22076 1.00224e-17
7462.21918 1.00151e-17
7464.21759 9.99312e-18
7466.21601 9.94838e-18
7468.22451 9.88434e-18
7470.22293 9.82323e-18
7472.22134 9.79664e-18
7474.21976 9.78566e-18
7476.21817 9.80994e-18
7478.22668 9.81423e-18
7480.22509 9.73007e-18
7482.22350 9.57035e-18
7484.22192 9.42898e-18
7486.23043 9.40872e-18
7488.22884 9.41398e-18
7490.22725 9.36808e-18
7492.22567 9.32873e-18
7494.22408 9.35205e-18
7496.23259 9.42530e-18
7498.23100 9.49950e-18
7500.22942 9.52971e-18
7502.22783 9.54301e-18
7504.22624 9.55037e-18
7506.23475 9.54185e-18
7508.23317 9.50604e-18
7510.23158 9.45421e-18
7512.22999 9.39454e-18
7514.23850 9.34441e-18
7516.23691 9.30990e-18
7518.23533 9.31120e-18
7520.23374 9.33698e-18
7522.23216 9.41568e-18
7524.24066 9.47999e-18
7526.23908 9.45551e-18
7528.23749 9.33439e-18
7530.23591 9.20297e-18
7532.23432 9.15121e-18
7534.24283 9.12966e-18
7536.24124 9.13436e-18
7538.23965 9.14937e-18
7540.23807 9.16294e-18
7542.24658 9.16982e-18
7544.24499 9.18080e-18
7546.24340 9.19956e-18
7548.24182 9.21306e-18
7550.24023 9.21320e-18
7552.24874 9.18967e-18
7554.24715 9.12140e-18
7556.24557 9.02893e-18
7558.24398 8.93188e-18
7560.24239 8.86191e-18
7562.25090 8.82474e-18
7564.24932 8.87534e-18
7566.24773 8.92274e-18
7568.24614 8.89001e-18
7570.25465 8.81417e-18
7572.25306 8.74884e-18
7574.25148 8.72237e-18
7576.24989 8.70662e-18
7578.24831 8.68841e-18
7580.25681 8.65684e-18
7582.25523 8.57875e-18
7584.25364 8.49343e-18
7586.25206 8.45688e-18
7588.26056 8.44228e-18
7590.25898 8.36399e-18
7592.25739 8.14473e-18
7594.25580 7.91777e-18
7596.25422 7.80886e-18
7598.26273 7.77101e-18
7600.26114 7.80968e-18
7602.25955 7.87208e-18
7604.25797 7.92261e-18
7606.25638 7.90208e-18
7608.26489 7.82093e-18
7610.26330 7.58080e-18
7612.26172 7.38153e-18
7614.26013 7.39496e-18
7616.26864 7.54554e-18
7618.26705 7.73288e-18
7620.26547 7.84984e-18
7622.26388 7.89260e-18
7624.26229 7.77401e-18
7626.27080 7.62083e-18
7628.26921 7.52795e-18
7630.26763 7.47223e-18
7632.26604 7.41542e-18
7634.27455 7.35772e-18
7636.27296 7.33044e-18
7638.27138 7.35963e-18
7640.26979 7.38821e-18
7642.26821 7.35711e-18
7644.27671 7.29334e-18
7646.27513 7.19834e-18
7648.27354 7.10348e-18
7650.27195 7.04203e-18
7652.27037 7.03794e-18
7654.27888 7.02996e-18
7656.27729 6.92255e-18
7658.27570 6.80912e-18
7660.27412 6.73680e-18
7662.28262 6.71316e-18
7664.28104 6.72527e-18
7666.27945 6.76230e-18
7668.27787 6.81290e-18
7670.27628 6.85408e-18
7672.28479 6.90236e-18
7674.28320 6.98720e-18
7676.28162 7.05758e-18
7678.28003 7.05724e-18
7680.27844 6.98222e-18
7682.28695 6.89166e-18
7684.28536 6.84474e-18
7686.28378 6.81240e-18
7688.28219 6.79406e-18
7690.29070 6.78313e-18
7692.28911 6.76597e-18
7694.28753 6.75636e-18
7696.28594 6.78538e-18
7698.28436 6.87045e-18
7700.29286 6.95188e-18
7702.29128 6.95576e-18
7704.28969 6.91989e-18
7706.28810 6.83607e-18
7708.29661 6.74866e-18
7710.29503 6.69509e-18
7712.29344 6.70861e-18
7714.29185 6.75154e-18
7716.29027 6.79863e-18
7718.29877 6.85271e-18
7720.29719 6.91014e-18
7722.29560 6.96456e-18
7724.29402 7.00923e-18
7726.29243 7.04613e-18
7728.30094 7.08486e-18
7730.29935 7.13656e-18
7732.29777 7.21212e-18
7734.29618 7.33726e-18
7736.30469 7.48785e-18
7738.30310 7.66046e-18
7740.30151 7.81990e-18
7742.29993 7.94055e-18
7744.29834 7.98570e-18
7746.30685 7.99531e-18
7748.30526 7.97124e-18
7750.30368 7.97206e-18
7752.30209 8.06024e-18
7754.30051 8.21334e-18
7756.30901 8.38459e-18
7758.30743 8.52521e-18
7760.30584 8.64054e-18
7762.30425 8.69598e-18
7764.31276 8.73022e-18
7766.31118 8.76261e-18
7768.30959 8.79712e-18
7770.30800 8.82447e-18
7772.30642 8.85195e-18
7774.31492 8.89260e-18
7776.31334 8.96741e-18
7778.31175 9.05327e-18
7780.31017 9.14882e-18
7782.30858 9.22629e-18
7784.31709 9.25589e-18
7786.31550 9.24341e-18
7788.31392 9.22145e-18
7790.31233 9.22472e-18
7792.32084 9.24477e-18
7794.31925 9.31447e-18
7796.31766 9.37258e-18
7798.31608 9.36262e-18
7800.31449 9.29933e-18
7802.32300 9.22759e-18
7804.32141 9.18803e-18
7806.31983 9.16566e-18
7808.31824 9.19874e-18
7810.32675 9.20229e-18
7812.32516 9.08894e-18
7814.32358 8.91838e-18
7816.32199 8.75300e-18
7818.32040 8.66570e-18
7820.32891 8.65704e-18
7822.32733 8.78634e-18
7824.32574 8.95145e-18
7826.32415 9.09256e-18
7828.32257 9.18067e-18
7830.33107 9.18967e-18
7832.32949 9.13191e-18
7834.32790 9.05314e-18
7836.32632 9.00779e-18
7838.33482 8.98896e-18
7840.33324 9.02061e-18
7842.33165 9.08833e-18
7844.33007 9.20658e-18
7846.32848 9.32873e-18
7848.33699 9.40620e-18
7850.33540 9.39017e-18
7852.33381 9.34073e-18
7854.33223 9.28958e-18
7856.33064 9.26517e-18
7858.33915 9.34093e-18
7860.33756 9.43505e-18
7862.33598 9.44119e-18
7864.33439 9.30472e-18
7866.34290 9.12686e-18
7868.34131 8.98944e-18
7870.33973 8.90269e-18
7872.33814 8.92240e-18
7874.33655 9.01358e-18
7876.34506 9.16212e-18
7878.34348 9.31263e-18
7880.34189 9.42939e-18
7882.34030 9.44269e-18
7884.34881 9.40947e-18
7886.34722 9.33425e-18
7888.34564 9.26960e-18
7890.34405 9.27526e-18
7892.34247 9.33016e-18
7894.35097 9.36896e-18
7896.34939 9.32948e-18
7898.34780 9.24921e-18
7900.34622 9.12672e-18
7902.34463 8.98971e-18
7904.35314 8.84943e-18
7906.35155 8.73008e-18
7908.34996 8.63638e-18
7910.34838 8.58843e-18
7912.35689 8.58768e-18
7914.35530 8.65677e-18
7916.35371 8.76275e-18
7918.35213 8.90869e-18
7920.35054 9.04250e-18
7922.35905 9.12454e-18
7924.35746 9.13020e-18
7926.35588 9.09044e-18
7928.35429 9.02327e-18
7930.35270 8.95705e-18
7932.36121 8.92663e-18
7934.35963 8.93420e-18
7936.35804 8.99094e-18
7938.35645 9.07967e-18
7940.36496 9.17712e-18
7942.36337 9.25180e-18
7944.36179 9.31202e-18
7946.36020 9.36944e-18
7948.35862 9.37885e-18
7950.36712 9.28440e-18
7952.36554 9.12311e-18
7954.36395 8.93359e-18
7956.36237 8.78744e-18
7958.37087 8.71569e-18
7960.36929 8.85891e-18
7962.36770 9.02975e-18
7964.36611 9.12904e-18
7966.36453 9.12652e-18
7968.37304 9.00397e-18
7970.37145 8.80217e-18
7972.36986 8.62281e-18
7974.36828 8.61735e-18
7976.36669 8.63379e-18
7978.37520 8.56722e-18
7980.37361 8.46383e-18
7982.37203 8.34858e-18
7984.37044 8.27090e-18
7986.37895 8.26879e-18
7988.37736 8.39025e-18
7990.37578 8.52153e-18
7992.37419 8.51717e-18
7994.37260 8.48907e-18
7996.38111 8.52842e-18
7998.37952 8.60814e-18
8000.37794 8.64354e-18
8002.37635 8.58120e-18
8004.37477 8.49568e-18
8006.38327 8.46329e-18
8008.38169 8.43724e-18
8010.38010 8.38725e-18
8012.37852 8.34722e-18
8014.38702 8.37020e-18
8016.38544 8.45954e-18
8018.38385 8.54581e-18
8020.38226 8.54663e-18
8022.38068 8.49841e-18
8024.38919 8.37361e-18
8026.38760 8.23823e-18
8028.38601 8.14623e-18
8030.38443 8.12305e-18
8032.39293 8.13253e-18
8034.39135 8.15189e-18
8036.38976 8.17167e-18
8038.38818 8.17235e-18
8040.38659 8.15230e-18
8042.39510 8.10634e-18
8044.39351 8.03807e-18
8046.39193 7.93884e-18
8048.39034 7.82727e-18
8050.38875 7.76085e-18
8052.39726 7.87924e-18
8054.39567 8.02614e-18
8056.39409 8.12707e-18
8058.39250 8.14678e-18
8060.40101 8.08220e-18
8062.39942 7.94512e-18
8064.39784 7.79290e-18
8066.39625 7.71263e-18
8068.39467 7.63897e-18
8070.40317 7.52242e-18
8072.40159 7.41290e-18
8074.40000 7.36679e-18
8076.39841 7.39428e-18
8078.39683 7.44836e-18
8080.40534 7.48491e-18
8082.40375 7.49917e-18
8084.40216 7.44993e-18
8086.40058 7.37627e-18
8088.40908 7.28734e-18
8090.40750 7.22842e-18
8092.40591 7.23429e-18
8094.40433 7.34204e-18
8096.40274 7.47789e-18
8098.41125 7.56457e-18
8100.40966 7.63434e-18
8102.40808 7.70356e-18
8104.40649 7.75648e-18
8106.40490 7.77346e-18
8108.41341 7.73991e-18
8110.41182 7.67151e-18
8112.41024 7.57037e-18
8114.40865 7.46330e-18
8116.41716 7.37648e-18
8118.41557 7.30664e-18
8120.41399 7.24008e-18
8122.41240 7.17864e-18
8124.41082 7.13383e-18
8126.41932 7.11930e-18
8128.41774 7.12899e-18
8130.41615 7.17673e-18
8132.41456 7.22978e-18
8134.42307 7.26313e-18
8136.42149 7.26613e-18
8138.41990 7.24758e-18
8140.41831 7.21655e-18
8142.41673 7.20053e-18
8144.42523 7.26061e-18
8146.42365 7.33317e-18
8148.42206 7.38637e-18
8150.42048 7.39789e-18
8152.41889 7.36032e-18
8154.42740 7.27759e-18
8156.42581 7.19439e-18
8158.42423 7.18989e-18
8160.42264 7.19207e-18
8162.43115 7.17570e-18
8164.42956 7.12033e-18
8166.42797 7.00125e-18
8168.42639 6.83771e-18
8170.42480 6.69189e-18
8172.43331 6.65054e-18
8174.43172 6.65022e-18
8176.43014 6.67975e-18
8178.42855 6.70596e-18
8180.43706 6.70056e-18
8182.43547 6.65960e-18
8184.43389 6.60873e-18
8186.43230 6.57226e-18
8188.43071 6.55444e-18
8190.43922 6.56932e-18
8192.43764 6.62208e-18
8194.43605 6.73539e-18
8196.43446 6.87843e-18
8198.43288 7.02185e-18
8200.44138 7.12101e-18
8202.43980 7.17754e-18
8204.43821 7.15647e-18
8206.43663 7.08670e-18
8208.44513 6.96149e-18
8210.44355 6.82182e-18
8212.44196 6.69336e-18
8214.44038 6.61007e-18
8216.43879 6.55855e-18
8218.44730 6.54353e-18
8220.44571 6.56628e-18
8222.44412 6.65765e-18
8224.44254 6.75538e-18
8226.44095 6.80972e-18
8228.44946 6.79314e-18
8230.44787 6.73475e-18
8232.44629 6.64959e-18
8234.44470 6.55226e-18
8236.45321 6.46454e-18
8238.45162 6.38722e-18
8240.45004 6.32355e-18
8242.44845 6.27248e-18
8244.44686 6.22950e-18
8246.45537 6.19049e-18
8248.45378 6.15692e-18
8250.45220 6.11646e-18
8252.45061 6.09869e-18
8254.45912 6.14844e-18
8256.45753 6.21792e-18
8258.45595 6.25133e-18
8260.45436 6.20685e-18
8262.45278 6.12327e-18
8264.46128 6.01219e-18
8266.45970 5.91161e-18
8268.45811 5.88709e-18
8270.45653 5.87997e-18
8272.45494 5.81557e-18
8274.46345 5.69130e-18
8276.46186 5.58186e-18
8278.46027 5.56415e-18
8280.45869 5.59870e-18
8282.46720 5.71587e-18
8284.46561 5.83035e-18
8286.46402 5.86469e-18
8288.46244 5.81973e-18
8290.46085 5.76608e-18
8292.46936 5.75323e-18
8294.46777 5.72732e-18
8296.46619 5.63293e-18
8298.46460 5.52034e-18
8300.46301 5.40972e-18
8302.47152 5.31998e-18
8304.46994 5.25415e-18
8306.46835 5.21970e-18
8308.46676 5.20640e-18
8310.47527 5.21912e-18
8312.47368 5.21365e-18
8314.47210 5.13805e-18
8316.47051 5.02393e-18
8318.46893 4.90291e-18
8320.47743 4.80453e-18
8322.47585 4.72352e-18
8324.47426 4.67245e-18
8326.47268 4.63485e-18
8328.47109 4.60584e-18
8330.47960 4.57146e-18
8332.47801 4.50558e-18
8334.47642 4.43142e-18
8336.47484 4.40327e-18
8338.48335 4.46454e-18
8340.48176 4.51868e-18
8342.48017 4.44571e-18
8344.47859 4.33183e-18
8346.47700 4.22767e-18
8348.48551 4.13495e-18
8350.48392 4.01095e-18
8352.48234 3.85486e-18
8354.48075 3.72612e-18
8356.48926 3.72929e-18
8358.48767 3.76148e-18
8360.48609 3.78162e-18
8362.48450 3.76539e-18
8364.48291 3.70000e-18
8366.49142 3.59212e-18
8368.48983 3.48326e-18
8370.48825 3.42801e-18
8372.48666 3.38261e-18
8374.48508 3.32527e-18
8376.49358 3.26016e-18
8378.49200 3.18619e-18
8380.49041 3.11575e-18
8382.48883 3.06294e-18
8384.49733 3.04634e-18
8386.49575 3.04653e-18
8388.49416 3.05498e-18
8390.49257 3.06358e-18
8392.49099 3.06734e-18
8394.49950 3.05976e-18
8396.49791 3.03029e-18
8398.49632 2.98472e-18
8400.49474 2.96186e-18
8402.50324 3.04883e-18
8404.50166 3.15040e-18
8406.50007 3.20743e-18
8408.49849 3.23660e-18
8410.49690 3.28191e-18
8412.50541 3.35542e-18
8414.50382 3.41991e-18
8416.50224 3.43265e-18
8418.50065 3.44073e-18
8420.49906 3.48605e-18
8422.50757 3.53605e-18
8424.50598 3.55533e-18
8426.50440 3.53728e-18
8428.50281 3.50657e-18
8430.51132 3.48566e-18
8432.50973 3.48167e-18
8434.50815 3.52604e-18
8436.50656 3.58631e-18
8438.50497 3.63492e-18
8440.51348 3.67414e-18
8442.51190 3.72797e-18
8444.51031 3.81106e-18
8446.50872 3.90229e-18
8448.50714 3.98586e-18
8450.51564 4.05998e-18
8452.51406 4.09948e-18
8454.51247 4.14338e-18
8456.51089 4.24161e-18
8458.51939 4.41375e-18
8460.51781 4.60056e-18
8462.51622 4.74211e-18
8464.51464 4.85258e-18
8466.51305 4.92225e-18
8468.52156 4.95178e-18
8470.51997 4.93441e-18
8472.51839 4.88572e-18
8474.51680 4.82297e-18
8476.52531 4.77458e-18
8478.52372 4.75468e-18
8480.52213 4.82089e-18
8482.52055 4.90131e-18
8484.51896 4.93983e-18
8486.52747 4.92209e-18
8488.52588 4.87567e-18
8490.52430 4.82415e-18
8492.52271 4.78733e-18
8494.52113 4.80193e-18
8496.52963 4.86301e-18
8498.52805 5.00169e-18
8500.52646 5.16496e-18
8502.52487 5.29692e-18
8504.53338 5.35016e-18
8506.53180 5.37176e-18
8508.53021 5.38300e-18
8510.52862 5.40496e-18
8512.52704 5.48502e-18
8514.53554 5.57755e-18
8516.53396 5.64067e-18
8518.53237 5.64013e-18
8520.53079 5.58786e-18
8522.52920 5.47399e-18
8524.53771 5.36066e-18
8526.53612 5.30476e-18
8528.53454 5.30674e-18
8530.53295 5.39007e-18
8532.54146 5.51090e-18
8534.53987 5.60124e-18
8536.53828 5.59054e-18
8538.53670 5.57431e-18
8540.53511 5.65184e-18
8542.54362 5.75114e-18
8544.54203 5.82437e-18
8546.54045 5.87997e-18
8548.53886 5.95320e-18
8550.53728 6.06545e-18
8552.54578 6.19444e-18
8554.54420 6.33678e-18
8556.54261 6.46152e-18
8558.54102 6.53182e-18
8560.54953 6.56696e-18
8562.54795 6.58896e-18
8564.54636 6.62051e-18
8566.54477 6.65724e-18
8568.54319 6.70620e-18
8570.55169 6.78403e-18
8572.55011 6.92978e-18
8574.54852 7.09755e-18
8576.54694 7.24492e-18
8578.54535 7.36216e-18
8580.55386 7.48314e-18
8582.55227 7.63243e-18
8584.55069 7.78744e-18
8586.54910 7.95016e-18
8588.55761 8.08636e-18
8590.55602 8.14146e-18
8592.55443 8.16253e-18
8594.55285 8.23244e-18
8596.55126 8.40798e-18
8598.55977 8.59587e-18
8600.55818 8.68105e-18
8602.55660 8.75566e-18
8604.55501 8.87282e-18
8606.55343 9.00431e-18
8608.56193 9.09931e-18
8610.56035 9.14132e-18
8612.55876 9.17528e-18
8614.55717 9.24457e-18
8616.56568 9.33766e-18
8618.56409 9.47679e-18
8620.56251 9.62607e-18
8622.56092 9.74699e-18
8624.55934 9.83803e-18
8626.56784 9.94408e-18
8628.56626 1.01048e-17
8630.56467 1.02600e-17
8632.56309 1.03298e-17
8634.57159 1.03987e-17
8636.57001 1.05434e-17
8638.56842 1.07496e-17
8640.56684 1.09454e-17
8642.56525 1.10813e-17
8644.57376 1.12189e-17
8646.57217 1.14262e-17
8648.57058 1.16440e-17
8650.56900 1.18796e-17
8652.56741 1.20550e-17
8654.57592 1.20844e-17
8656.57433 1.19466e-17
8658.57275 1.17736e-17
8660.57116 1.17189e-17
8662.57967 1.17228e-17
8664.57808 1.18119e-17
8666.57650 1.19337e-17
8668.57491 1.20489e-17
8670.57332 1.21241e-17
8672.58183 1.21843e-17
8674.58025 1.22349e-17
8676.57866 1.22375e-17
8678.57707 1.21210e-17
8680.57549 1.19663e-17
8682.58399 1.18256e-17
8684.58241 1.17346e-17
8686.58082 1.16739e-17
8688.57924 1.16502e-17
8690.58774 1.16700e-17
8692.58616 1.17721e-17
8694.58457 1.18881e-17
8696.58299 1.19719e-17
8698.58140 1.20176e-17
8700.58991 1.20451e-17
8702.58832 1.20667e-17
8704.58673 1.20851e-17
8706.58515 1.21136e-17
8708.59366 1.21416e-17
8710.59207 1.21688e-17
8712.59048 1.21865e-17
8714.58890 1.21653e-17
8716.58731 1.21359e-17
8718.59582 1.21671e-17
8720.59423 1.23574e-17
8722.59265 1.25975e-17
8724.59106 1.28518e-17
8726.58947 1.30507e-17
8728.59798 1.31229e-17
8730.59640 1.30824e-17
8732.59481 1.30171e-17
8734.59322 1.30052e-17
8736.60173 1.29763e-17
8738.60014 1.28713e-17
8740.59856 1.27395e-17
8742.59697 1.25877e-17
8744.59539 1.24638e-17
8746.60389 1.24042e-17
8748.60231 1.24395e-17
8750.60072 1.25148e-17
8752.59914 1.25917e-17
8754.60764 1.26447e-17
8756.60606 1.26351e-17
8758.60447 1.25705e-17
8760.60288 1.24589e-17
8762.60130 1.23267e-17
8764.60981 1.21952e-17
8766.60822 1.21046e-17
8768.60663 1.20508e-17
8770.60505 1.20622e-17
8772.60346 1.21020e-17
8774.61197 1.21465e-17
8776.61038 1.21713e-17
8778.60880 1.21811e-17
8780.60721 1.21669e-17
8782.61572 1.21381e-17
8784.61413 1.20822e-17
8786.61254 1.20428e-17
8788.61096 1.20550e-17
8790.60937 1.21221e-17
8792.61788 1.22283e-17
8794.61629 1.23537e-17
8796.61471 1.24815e-17
8798.61312 1.25948e-17
8800.61154 1.26557e-17
8802.62004 1.26178e-17
8804.61846 1.24997e-17
8806.61687 1.23173e-17
8808.61529 1.21139e-17
8810.62379 1.19229e-17
8812.62221 1.18221e-17
8814.62062 1.17274e-17
8816.61903 1.15766e-17
8818.61745 1.14013e-17
8820.62596 1.12149e-17
8822.62437 1.10646e-17
8824.62278 1.09798e-17
8826.62120 1.10165e-17
8828.62970 1.11350e-17
8830.62812 1.13955e-17
8832.62653 1.16187e-17
8834.62495 1.16313e-17
8836.62336 1.14643e-17
8838.63187 1.12718e-17
8840.63028 1.11828e-17
8842.62870 1.11180e-17
8844.62711 1.10677e-17
8846.62552 1.10027e-17
8848.63403 1.08662e-17
8850.63244 1.07179e-17
8852.63086 1.06484e-17
8854.62927 1.06876e-17
8856.63778 1.07263e-17
8858.63619 1.06360e-17
8860.63461 1.05041e-17
8862.63302 1.03535e-17
8864.63144 1.02025e-17
8866.63994 1.00580e-17
8868.63836 9.92887e-18
8870.63677 9.80673e-18
8872.63518 9.68779e-18
8874.63360 9.57267e-18
8876.64211 9.44780e-18
8878.64052 9.34189e-18
8880.63893 9.28781e-18
8882.63735 9.27335e-18
8884.64585 9.26380e-18
8886.64427 9.22411e-18
8888.64268 9.17208e-18
8890.64110 9.09440e-18
8892.63951 9.02790e-18
8894.64802 9.00403e-18
8896.64643 9.01692e-18
8898.64485 9.05784e-18
8900.64326 9.09835e-18
8902.65177 9.10688e-18
8904.65018 9.00212e-18
8906.64859 8.88039e-18
8908.64701 8.76773e-18
8910.64542 8.72810e-18
8912.65393 8.84322e-18
8914.65234 9.07898e-18
8916.65076 9.28992e-18
8918.64917 9.29224e-18
8920.64759 9.18155e-18
8922.65609 8.93890e-18
8924.65451 8.64695e-18
8926.65292 8.36870e-18
8928.65133 8.13103e-18
8930.65984 7.87494e-18
8932.65826 7.58271e-18
8934.65667 7.35268e-18
8936.65508 7.34320e-18
8938.65350 7.40962e-18
8940.66200 7.48321e-18
8942.66042 7.51015e-18
8944.65883 7.48491e-18
8946.65725 7.39721e-18
8948.66575 7.30173e-18
8950.66417 7.28659e-18
8952.66258 7.26716e-18
8954.66100 7.17570e-18
8956.65941 7.06590e-18
8958.66792 7.02198e-18
8960.66633 7.05363e-18
8962.66474 7.05840e-18
8964.66316 6.91143e-18
8966.66157 6.76092e-18
8968.67008 6.73573e-18
8970.66849 6.75052e-18
8972.66691 6.72644e-18
8974.66532 6.63357e-18
8976.67383 6.51320e-18
8978.67224 6.38847e-18
8980.67066 6.25724e-18
8982.66907 6.10621e-18
8984.66748 5.98833e-18
8986.67599 5.96619e-18
8988.67441 6.00621e-18
8990.67282 6.03961e-18
8992.67123 6.00803e-18
8994.66965 5.96033e-18
8996.67815 5.92252e-18
8998.67657 5.89168e-18
9000.67498 5.86009e-18
9002.67340 5.85610e-18
9004.68190 5.92593e-18
9006.68032 6.05841e-18
9008.67873 6.16955e-18
9010.67714 6.14280e-18
9012.67556 6.06176e-18
9014.68407 5.94148e-18
9016.68248 5.82136e-18
9018.68089 5.73731e-18
9020.67931 5.68974e-18
9022.67772 5.62513e-18
9024.68623 5.49538e-18
9026.68464 5.38334e-18
9028.68306 5.38160e-18
9030.68147 5.42260e-18
9032.68998 5.45757e-18
9034.68839 5.47790e-18
9036.68681 5.51419e-18
9038.68522 5.57990e-18
9040.68363 5.65233e-18
9042.69214 5.70642e-18
9044.69056 5.75752e-18
9046.68897 5.81474e-18
9048.68738 5.87188e-18
9050.68580 5.91666e-18
9052.69430 5.94709e-18
9054.69272 5.98113e-18
9056.69113 6.05049e-18
9058.68955 6.10330e-18
9060.69805 6.07420e-18
9062.69647 6.02938e-18
9064.69488 6.04524e-18
9066.69330 6.13602e-18
9068.69171 6.23147e-18
9070.70022 6.26561e-18
9072.69863 6.27265e-18
9074.69704 6.24705e-18
9076.69546 6.21492e-18
9078.69387 6.18146e-18
9080.70238 6.18027e-18
9082.70079 6.24169e-18
9084.69921 6.39090e-18
9086.69762 6.54880e-18
9088.70613 6.63301e-18
9090.70454 6.65930e-18
9092.70296 6.60292e-18
9094.70137 6.50164e-18
9096.69978 6.38626e-18
9098.70829 6.30641e-18
9100.70671 6.26561e-18
9102.70512 6.31351e-18
9104.70353 6.39400e-18
9106.70195 6.47892e-18
9108.71045 6.56068e-18
9110.70887 6.65325e-18
9112.70728 6.73946e-18
9114.70570 6.79213e-18
9116.71420 6.76808e-18
9118.71262 6.73246e-18
9120.71103 6.75551e-18
9122.70945 6.78107e-18
9124.70786 6.76616e-18
9126.71637 6.68813e-18
9128.71478 6.55248e-18
9130.71319 6.36542e-18
9132.71161 6.18982e-18
9134.72012 6.11923e-18
9136.71853 6.10110e-18
9138.71694 6.13544e-18
9140.71536 6.16675e-18
9142.71377 6.14000e-18
9144.72228 6.02232e-18
9146.72069 5.90283e-18
9148.71911 5.87849e-18
9150.71752 5.91943e-18
9152.71593 6.08895e-18
9154.72444 6.26909e-18
9156.72286 6.33497e-18
9158.72127 6.23617e-18
9160.71968 6.10090e-18
9162.72819 6.04906e-18
9164.72660 6.02122e-18
9166.72502 6.00562e-18
9168.72343 6.00945e-18
9170.72185 6.04873e-18
9172.73035 6.11050e-18
9174.72877 6.17304e-18
9176.72718 6.20731e-18
9178.72559 6.22063e-18
9180.73410 6.18976e-18
9182.73252 6.15592e-18
9184.73093 6.14335e-18
9186.72934 6.16945e-18
9188.72776 6.24030e-18
9190.73626 6.35089e-18
9192.73468 6.45578e-18
9194.73309 6.46046e-18
9196.73151 6.46051e-18
9198.72992 6.52531e-18
9200.73843 6.61444e-18
9202.73684 6.65563e-18
9204.73526 6.62778e-18
9206.73367 6.60528e-18
9208.74218 6.67590e-18
9210.74059 6.75052e-18
9212.73901 6.75460e-18
9214.73742 6.74515e-18
9216.73583 6.78370e-18
9218.74434 6.88531e-18
9220.74275 7.00896e-18
9222.74117 7.11971e-18
9224.73958 7.20346e-18
9226.73800 7.20905e-18
9228.74650 7.18580e-18
9230.74492 7.17502e-18
9232.74333 7.17523e-18
9234.74175 7.14999e-18
9236.75025 7.07954e-18
9238.74867 7.00159e-18
9240.74708 6.94526e-18
9242.74549 6.92003e-18
9244.74391 6.94997e-18
9246.75242 7.01898e-18
9248.75083 7.11344e-18
9250.74924 7.20387e-18
9252.74766 7.27316e-18
9254.75616 7.26436e-18
9256.75458 7.26136e-18
9258.75299 7.34668e-18
9260.75141 7.45934e-18
9262.74982 7.54125e-18
9264.75833 7.54970e-18
9266.75674 7.50258e-18
9268.75516 7.39401e-18
9270.75357 7.26695e-18
9272.75198 7.15402e-18
9274.76049 7.07395e-18
9276.75890 7.04258e-18
9278.75732 7.06338e-18
9280.75573 7.13424e-18
9282.76424 7.23851e-18
9284.76265 7.32206e-18
9286.76107 7.27193e-18
9288.75948 7.19575e-18
9290.75790 7.17025e-18
9292.76640 7.17509e-18
9294.76482 7.13819e-18
9296.76323 7.03821e-18
9298.76164 6.95228e-18
9300.76006 6.96777e-18
9302.76857 7.05295e-18
9304.76698 7.28789e-18
9306.76539 7.50653e-18
9308.76381 7.54411e-18
9310.77231 7.33870e-18
9312.77073 7.03126e-18
9314.76914 6.73425e-18
9316.76756 6.55442e-18
9318.76597 6.78195e-18
9320.77448 7.09837e-18
9322.77289 7.22726e-18
9324.77131 7.10430e-18
9326.76972 6.91682e-18
9328.77823 6.79784e-18
9330.77664 6.69473e-18
9332.77505 6.59107e-18
9334.77347 6.54679e-18
9336.77188 6.64988e-18
9338.78039 6.82496e-18
9340.77880 6.98550e-18
9342.77722 7.01428e-18
9344.77563 6.91321e-18
9346.77405 6.46462e-18
9348.78255 6.09967e-18
9350.78097 6.21556e-18
9352.77938 6.59526e-18
9354.77779 6.94744e-18
9356.78630 7.07545e-18
9358.78471 7.11821e-18
9360.78313 7.11364e-18
9362.78154 7.06127e-18
9364.77996 6.95624e-18
9366.78846 6.84269e-18
9368.78688 6.70371e-18
9370.78529 6.64030e-18
9372.78371 6.77796e-18
9374.79221 7.25631e-18
9376.79063 7.75389e-18
9378.78904 7.96571e-18
9380.78746 7.96210e-18
9382.78587 7.68869e-18
9384.79438 7.29219e-18
9386.79279 6.92439e-18
9388.79120 6.75520e-18
9390.78962 6.66003e-18
9392.78803 6.57433e-18
9394.79654 6.53115e-18
9396.79495 6.56266e-18
9398.79337 6.61691e-18
9400.79178 6.61678e-18
9402.80029 6.55807e-18
9404.79870 6.56286e-18
9406.79712 6.80958e-18
9408.79553 7.06318e-18
9410.79394 7.14849e-18
9412.80245 7.12326e-18
9414.80086 7.06052e-18
9416.79928 6.99095e-18
9418.79769 6.87188e-18
9420.79611 6.68654e-18
9422.80461 6.54103e-18
9424.80303 6.58516e-18
9426.80144 6.70613e-18
9428.79986 6.86233e-18
9430.80836 6.96306e-18
9432.80678 6.94833e-18
9434.80519 6.76316e-18
9436.80361 6.55703e-18
9438.80202 6.50027e-18
9440.81053 6.52431e-18
9442.80894 6.67562e-18
9444.80735 6.83682e-18
9446.80577 6.88654e-18
9448.81428 6.74952e-18
9450.81269 6.55240e-18
9452.81110 6.37505e-18
9454.80952 6.31033e-18
9456.80793 6.61139e-18
9458.81644 6.97186e-18
9460.81485 7.06031e-18
9462.81327 6.79216e-18
9464.81168 6.45636e-18
9466.81009 6.31149e-18
9468.81860 6.30018e-18
9470.81702 6.54219e-18
9472.81543 6.88627e-18
9474.81384 7.28257e-18
9476.82235 7.57378e-18
9478.82076 7.66816e-18
9480.81918 7.44038e-18
9482.81759 7.09189e-18
9484.81601 6.74995e-18
9486.82451 6.49894e-18
9488.82293 6.47768e-18
9490.82134 6.61242e-18
9492.81976 6.80179e-18
9494.81817 6.90673e-18
9496.82668 6.90107e-18
9498.82509 6.59724e-18
9500.82350 6.24914e-18
9502.82192 5.99160e-18
9504.83043 5.87079e-18
9506.82884 5.90551e-18
9508.82725 6.06558e-18
9510.82567 6.26362e-18
9512.82408 6.38470e-18
9514.83259 6.44204e-18
9516.83100 6.33544e-18
9518.82942 6.21439e-18
9520.82783 6.23339e-18
9522.82624 6.37756e-18
9524.83475 6.49776e-18
9526.83317 6.45646e-18
9528.83158 6.33919e-18
9530.82999 6.12262e-18
9532.83850 5.92513e-18
9534.83691 5.86727e-18
9536.83533 5.90744e-18
9538.83374 5.93809e-18
9540.83216 5.87637e-18
9542.84066 5.78310e-18
9544.83908 5.65973e-18
9546.83749 5.57029e-18
9548.83591 5.59364e-18
9550.83432 5.67967e-18
9552.84283 5.77730e-18
9554.84124 5.82659e-18
9556.83965 5.82507e-18
9558.83807 5.72556e-18
9560.84658 5.60143e-18
9562.84499 5.51383e-18
9564.84340 5.43981e-18
9566.84182 5.35289e-18
9568.84023 5.24771e-18
9570.84874 5.13341e-18
9572.84715 5.02000e-18
9574.84557 4.93311e-18
9576.84398 4.90045e-18
9578.84239 4.93224e-18
9580.85090 5.07581e-18
9582.84931 5.26540e-18
9584.84773 5.42695e-18
9586.84614 5.47253e-18
9588.85465 5.44479e-18
9590.85306 5.30461e-18
9592.85148 5.15282e-18
9594.84989 5.04241e-18
9596.84831 5.01353e-18
9598.85681 5.09384e-18
9600.85523 5.26705e-18
9602.85364 5.44745e-18
9604.85206 5.51888e-18
9606.86056 5.53012e-18
9608.85898 5.42952e-18
9610.85739 5.33327e-18
9612.85580 5.36223e-18
9614.85422 5.52467e-18
9616.86273 5.69993e-18
9618.86114 5.76882e-18
9620.85955 5.76332e-18
9622.85797 5.60770e-18
9624.85638 5.43117e-18
9626.86489 5.32530e-18
9628.86330 5.32645e-18
9630.86172 5.41316e-18
9632.86013 5.55343e-18
9634.86864 5.65541e-18
9636.86705 5.48986e-18
9638.86547 5.32126e-18
9640.86388 5.33829e-18
9642.86229 5.48728e-18
9644.87080 5.64211e-18
9646.86921 5.70944e-18
9648.86763 5.73470e-18
9650.86604 5.70916e-18
9652.86446 5.65973e-18
9654.87296 5.58581e-18
9656.87138 5.53458e-18
9658.86979 5.55240e-18
9660.86821 5.64284e-18
9662.87671 5.75117e-18
9664.87513 5.82073e-18
9666.87354 5.86331e-18
9668.87195 5.85923e-18
9670.87037 5.82466e-18
9672.87888 5.75560e-18
9674.87729 5.68552e-18
9676.87570 5.64636e-18
9678.87412 5.67521e-18
9680.88262 5.72387e-18
9682.88104 5.75421e-18
9684.87945 5.77405e-18
9686.87787 5.77285e-18
9688.87628 5.76774e-18
9690.88479 5.78836e-18
9692.88320 5.83982e-18
9694.88162 5.87291e-18
9696.88003 5.81513e-18
9698.87844 5.72548e-18
9700.88695 5.60633e-18
9702.88536 5.50876e-18
9704.88378 5.47020e-18
9706.88219 5.51448e-18
9708.89070 5.61372e-18
9710.88911 5.75571e-18
9712.88753 5.86693e-18
9714.88594 5.81671e-18
9716.88436 5.72842e-18
9718.89286 5.72612e-18
9720.89128 5.80891e-18
9722.88969 5.85157e-18
9724.88810 5.76434e-18
9726.89661 5.70236e-18
9728.89503 5.86663e-18
9730.89344 6.07261e-18
9732.89185 6.20767e-18
9734.89027 6.24676e-18
9736.89877 6.22663e-18
9738.89719 6.18238e-18
9740.89560 6.15441e-18
9742.89402 6.26186e-18
9744.89243 6.36246e-18
9746.90094 6.37408e-18
9748.89935 6.29926e-18
9750.89776 6.14409e-18
9752.89618 5.95991e-18
9754.90469 5.81639e-18
9756.90310 5.83929e-18
9758.90151 5.88855e-18
9760.89993 5.88398e-18
9762.89834 5.81944e-18
9764.90685 5.66913e-18
9766.90526 5.48337e-18
9768.90368 5.34577e-18
9770.90209 5.35645e-18
9772.90051 5.40531e-18
9774.90901 5.40544e-18
9776.90743 5.39838e-18
9778.90584 5.39764e-18
9780.90425 5.42697e-18
9782.91276 5.51212e-18
9784.91118 5.65878e-18
9786.90959 5.79722e-18
9788.90800 5.81791e-18
9790.90642 5.79743e-18
9792.91492 5.76828e-18
9794.91334 5.72494e-18
9796.91175 5.63187e-18
9798.91017 5.50102e-18
9800.91867 5.38750e-18
9802.91709 5.37235e-18
9804.91550 5.39535e-18
9806.91392 5.44402e-18
9808.91233 5.49129e-18
9810.92084 5.51077e-18
9812.91925 5.50563e-18
9814.91766 5.52059e-18
9816.91608 5.59850e-18
9818.91449 5.65998e-18
9820.92300 5.63356e-18
9822.92141 5.54030e-18
9824.91983 5.36460e-18
9826.91824 5.16129e-18
9828.92675 4.98082e-18
9830.92516 4.89218e-18
9832.92358 4.86203e-18
9834.92199 4.89432e-18
9836.92040 4.97616e-18
9838.92891 5.14938e-18
9840.92733 5.30917e-18
9842.92574 5.32386e-18
9844.92415 5.15488e-18
9846.92257 4.99718e-18
9848.93107 5.10740e-18
9850.92949 5.26735e-18
9852.92790 5.38369e-18
9854.92632 5.43771e-18
9856.93482 5.43628e-18
9858.93324 5.38123e-18
9860.93165 5.28846e-18
9862.93007 5.17634e-18
9864.92848 5.05324e-18
9866.93699 4.90512e-18
9868.93540 4.80258e-18
9870.93381 4.82728e-18
9872.93223 4.94937e-18
9874.94074 5.07471e-18
9876.93915 5.11408e-18
9878.93756 5.13458e-18
9880.93598 5.18388e-18
9882.93439 5.21644e-18
9884.94290 5.20857e-18
9886.94131 5.15073e-18
9888.93973 5.02337e-18
9890.93814 4.85469e-18
9892.93655 4.73153e-18
9894.94506 4.83337e-18
9896.94348 4.95901e-18
9898.94189 4.97556e-18
9900.94030 4.92617e-18
9902.94881 4.89046e-18
9904.94722 4.89513e-18
9906.94564 4.88204e-18
9908.94405 4.79649e-18
9910.94247 4.75207e-18
9912.95097 4.88205e-18
9914.94939 5.08296e-18
9916.94780 5.30669e-18
9918.94621 5.45393e-18
9920.95472 5.46469e-18
9922.95314 5.25899e-18
9924.95155 5.02398e-18
9926.94996 4.97510e-18
9928.94838 4.98896e-18
9930.95689 5.00090e-18
9932.95530 5.00015e-18
9934.95371 5.03245e-18
9936.95213 5.09410e-18
9938.95054 5.11801e-18
9940.95905 4.92762e-18
9942.95746 4.78545e-18
9944.95588 4.91507e-18
9946.95429 5.19063e-18
9948.96280 5.48633e-18
9950.96121 5.62772e-18
9952.95963 5.55594e-18
9954.95804 5.04323e-18
9956.95645 4.55072e-18
9958.96496 4.52478e-18
9960.96337 4.74086e-18
9962.96179 5.02352e-18
9964.96020 5.20512e-18
9966.95862 5.26717e-18
9968.96712 5.11428e-18
9970.96554 4.93083e-18
9972.96395 4.91712e-18
9974.96236 4.95392e-18
9976.97087 4.93969e-18
9978.96929 4.91219e-18
9980.96770 4.99721e-18
9982.96611 5.24430e-18
9984.96453 5.46649e-18
9986.97304 5.38172e-18
9988.97145 5.21531e-18
9990.96986 5.05758e-18
9992.96828 4.93140e-18
9994.97678 4.79269e-18
9996.97520 4.66218e-18
9998.97361 4.59076e-18
10000.97203 4.66895e-18
10002.97044 4.78917e-18
