# wavelength flux
3479.99947 9.96237e-18
3481.46765 -1.37019e-19
3482.93582 1.22658e-17
3484.41406 9.00287e-18
3485.88223 5.53908e-18
3487.35041 9.14606e-18
3488.81858 2.59669e-19
3490.28676 5.72035e-18
3491.76499 2.85003e-18
3493.23317 7.02913e-18
3494.70134 7.57040e-18
3496.16952 4.44922e-18
3497.63770 7.92516e-18
3499.10587 1.41726e-17
3500.58410 1.21533e-17
3502.05228 1.27195e-17
3503.52046 9.42455e-18
3504.98863 -2.89496e-18
3506.45681 1.27549e-17
3507.93504 1.35527e-17
3509.40322 4.57759e-18
3510.87139 8.46234e-18
3512.33957 8.19707e-18
3513.80774 8.35090e-18
3515.27592 5.22925e-18
3516.75415 1.10923e-17
3518.22233 1.39705e-17
3519.69050 8.71656e-18
3521.15868 4.63783e-18
3522.62686 8.16594e-18
3524.10509 1.61194e-17
3525.57326 6.99021e-18
3527.04144 6.41971e-19
3528.50962 1.21965e-17
3529.97779 3.89500e-18
3531.44597 3.19610e-18
3532.92420 3.72826e-18
3534.39238 8.54509e-18
3535.86055 1.36706e-17
3537.32873 -1.17115e-19
3538.79690 -1.76508e-18
3540.26508 1.16760e-17
3541.74331 1.25215e-17
3543.21149 7.34883e-18
3544.67966 9.13711e-18
3546.14784 1.06157e-17
3547.61602 1.01055e-17
3549.09425 1.13331e-17
3550.56242 1.80230e-17
3552.03060 1.39840e-17
3553.49878 1.18229e-17
3554.96695 4.86514e-18
3556.43513 2.62549e-18
3557.91336 1.21646e-17
3559.38154 8.60531e-18
3560.84971 5.31398e-18
3562.31789 1.20799e-17
3563.78606 1.65184e-17
3565.26430 8.41535e-18
3566.73247 5.45427e-18
3568.20065 5.04320e-18
3569.66882 4.39875e-18
3571.13700 3.78612e-18
3572.61523 2.65261e-18
3574.08341 3.30394e-18
3575.55158 3.41480e-18
3577.01976 6.03385e-18
3578.48794 6.41433e-18
3579.95611 -6.61186e-19
3581.43434 -3.02339e-18
3582.90252 6.42533e-18
3584.37070 1.11988e-17
3585.83887 5.40219e-18
3587.30705 2.62508e-18
3588.77522 3.64944e-18
3590.25346 4.52790e-18
3591.72163 6.08405e-18
3593.18981 2.35264e-18
3594.65798 8.51828e-18
3596.12616 9.57885e-18
3597.60439 9.83112e-19
3599.07257 2.10761e-18
3600.54074 8.65262e-18
3602.00892 1.53441e-18
3603.47710 2.04437e-18
3604.94527 4.31923e-18
3606.42350 2.19677e-18
3607.89168 1.18023e-17
3609.35986 1.08119e-17
3610.82803 1.27148e-17
3612.29621 4.41013e-18
3613.77444 2.33968e-18
3615.24262 2.08352e-17
3616.71079 1.05993e-17
3618.17897 1.53921e-17
3619.64714 8.61067e-18
3621.11532 1.48517e-17
3622.59355 1.05160e-17
3624.06173 3.45854e-18
3625.52990 2.11684e-18
3626.99808 1.11276e-17
3628.46626 1.20846e-17
3629.94449 1.15684e-17
3631.41266 3.06801e-18
3632.88084 1.21673e-17
3634.34902 5.03910e-18
3635.81719 -4.39972e-18
3637.28537 6.60083e-18
3638.76360 8.75495e-18
3640.23178 2.93785e-18
3641.69995 1.28130e-17
3643.16813 1.66929e-17
3644.63630 1.15134e-17
3646.11454 4.58010e-18
3647.58271 -1.70227e-18
3649.05089 3.90190e-18
3650.51906 1.15183e-17
3651.98724 8.76867e-18
3653.45542 9.64987e-18
3654.93365 1.28268e-17
3656.40182 4.42396e-18
3657.87000 -6.16226e-19
3659.33818 8.81418e-18
3660.80635 6.56580e-18
3662.28458 8.05149e-18
3663.75276 1.32614e-17
3665.22094 1.48351e-17
3666.68911 7.74616e-18
3668.15729 7.22712e-18
3669.62546 7.45454e-18
3671.10370 6.98155e-18
3672.57187 3.25478e-18
3674.04005 8.30016e-18
3675.50822 1.00777e-17
3676.97640 9.53526e-18
3678.45463 3.56565e-18
3679.92281 2.86296e-18
3681.39098 7.65757e-18
3682.85916 -9.55125e-20
3684.32734 8.74644e-18
3685.79551 1.23192e-17
3687.27374 5.53466e-18
3688.74192 9.03680e-18
3690.21010 3.09464e-18
3691.67827 3.68686e-18
3693.14645 1.43383e-17
3694.62468 5.60674e-18
3696.09286 8.01211e-20
3697.56103 4.85811e-18
3699.02921 7.55788e-18
3700.49738 1.28241e-17
3701.96556 7.02036e-18
3703.44379 8.36371e-18
3704.91197 6.25637e-18
3706.38014 7.05139e-18
3707.84832 7.02557e-18
3709.31650 3.48064e-18
3710.79473 4.70616e-18
3712.26290 5.41153e-18
3713.73108 4.00719e-18
3715.19926 -2.32518e-18
3716.66743 4.31144e-18
3718.13561 6.63425e-18
3719.61384 7.46520e-18
3721.08202 3.73107e-18
3722.55019 6.65690e-18
3724.01837 6.08897e-18
3725.48654 9.11974e-18
3726.96478 1.16328e-17
3728.43295 3.82941e-18
3729.90113 3.98857e-18
3731.36930 4.14772e-18
3732.83748 4.04700e-18
3734.30566 3.94632e-18
3735.78389 3.84563e-18
3737.25206 3.74498e-18
3738.72024 3.64432e-18
3740.18842 3.54369e-18
3741.65659 3.44305e-18
3743.13482 3.34245e-18
3744.60300 3.24182e-18
3746.07118 3.14124e-18
3747.53935 3.04068e-18
3749.00753 2.94010e-18
3750.47570 2.83956e-18
3751.95394 2.73902e-18
3753.42211 2.63850e-18
3754.89029 2.53798e-18
3756.35846 2.43748e-18
3757.82664 2.33698e-18
3759.30487 2.23652e-18
3760.77305 2.13605e-18
3762.24122 2.03561e-18
3763.70940 1.93516e-18
3765.17758 1.83474e-18
3766.64575 1.73432e-18
3768.12398 1.63391e-18
3769.59216 5.63105e-18
3771.06034 1.33951e-18
3772.52851 6.90764e-18
3773.99669 4.40550e-18
3775.47492 6.89511e-18
3776.94310 1.24116e-17
3778.41127 7.08431e-18
3779.87945 6.71690e-18
3781.34762 8.00687e-18
3782.81580 4.84027e-18
3784.29403 6.22555e-18
3785.76221 1.11512e-17
3787.23038 1.24863e-17
3788.69856 6.04410e-18
3790.16674 2.40756e-18
3791.64497 8.03114e-18
3793.11314 2.18646e-18
3794.58132 2.11110e-18
3796.04950 1.77247e-18
3797.51767 3.43315e-18
3798.98585 1.40811e-18
3800.46408 1.37737e-17
3801.93226 9.09594e-18
3803.40043 1.01728e-17
3804.86861 1.66026e-18
3806.33678 3.82840e-18
3807.81502 5.83744e-18
3809.28319 4.63585e-18
3810.75137 3.60180e-18
3812.21954 5.67240e-18
3813.68772 1.51176e-18
3815.15590 6.11861e-19
3816.63413 3.54286e-18
3818.10230 4.92302e-18
3819.57048 4.78734e-18
3821.03866 5.00346e-18
3822.50683 7.71469e-18
3823.98506 3.75228e-18
3825.45324 7.48100e-18
3826.92142 9.97530e-18
3828.38959 7.58813e-18
3829.85777 2.00006e-18
3831.32594 5.59799e-18
3832.80418 5.96153e-18
3834.27235 4.52341e-18
3835.74053 4.16397e-18
3837.20870 5.21414e-18
3838.67688 9.82860e-18
3840.14506 1.14913e-17
3841.62329 6.95755e-18
3843.09146 5.09990e-18
3844.55964 2.31188e-18
3846.02782 3.07126e-18
3847.49599 8.93507e-18
3848.97422 9.61726e-18
3850.44240 5.96971e-18
3851.91058 5.90845e-18
3853.37875 8.16456e-18
3854.84693 6.45174e-18
3856.31510 6.82592e-18
3857.79334 6.18381e-18
3859.26151 5.97184e-18
3860.72969 5.60420e-18
3862.19786 4.27441e-18
3863.66604 6.54701e-18
3865.14427 3.88411e-18
3866.61245 5.75560e-18
3868.08062 4.11495e-18
3869.54880 1.49332e-18
3871.01698 4.55693e-18
3872.48515 5.15715e-18
3873.96338 6.56302e-18
3875.43156 7.97547e-18
3876.89974 6.47167e-18
3878.36791 1.04405e-17
3879.83609 1.03202e-17
3881.31432 8.97348e-18
3882.78250 5.89430e-18
3884.25067 1.10920e-17
3885.71885 8.11307e-18
3887.18702 1.09778e-17
3888.65520 1.05356e-17
3890.13343 8.93266e-18
3891.60161 1.18952e-17
3893.06978 5.99608e-18
3894.53796 9.95096e-18
3896.00614 6.33900e-18
3897.48437 8.07939e-18
3898.95254 7.94092e-18
3900.42072 9.16661e-18
3901.88890 8.86492e-18
3903.35707 7.03948e-18
3904.82525 7.82977e-18
3906.30348 2.11444e-18
3907.77166 5.68410e-18
3909.23983 9.78779e-18
3910.70801 6.65355e-18
3912.17618 8.87352e-18
3913.65442 7.00435e-18
3915.12259 8.22982e-18
3916.59077 5.95107e-18
3918.05894 7.08012e-18
3919.52712 8.09307e-18
3920.99530 9.13161e-18
3922.47353 7.25901e-18
3923.94170 7.80422e-18
3925.40988 1.21085e-17
3926.87806 1.08037e-17
3928.34623 4.42214e-18
3929.82446 7.82217e-18
3931.29264 9.85304e-18
3932.76082 6.69003e-18
3934.22899 5.42448e-18
3935.69717 1.04783e-17
3937.16534 1.13624e-17
3938.64358 1.08979e-17
3940.11175 8.58686e-18
3941.57993 8.83100e-18
3943.04810 7.64799e-18
3944.51628 1.02704e-17
3945.99451 8.24182e-18
3947.46269 4.31811e-18
3948.93086 7.64154e-18
3950.39904 7.67085e-18
3951.86722 1.06088e-17
3953.33539 1.20940e-17
3954.81362 9.48816e-18
3956.28180 5.55334e-18
3957.74998 7.30854e-18
3959.21815 8.17960e-18
3960.68633 7.03964e-18
3962.16456 7.47745e-18
3963.63274 5.55851e-18
3965.10091 6.93802e-18
3966.56909 9.68147e-18
3968.03726 1.01605e-17
3969.50544 9.26888e-18
3970.98367 8.32171e-18
3972.45185 7.93532e-18
3973.92002 6.92472e-18
3975.38820 5.65999e-18
3976.85638 8.97493e-18
3978.33461 9.23361e-18
3979.80278 8.70925e-18
3981.27096 9.70709e-18
3982.73914 9.95701e-18
3984.20731 7.81789e-18
3985.67549 8.29085e-18
3987.15372 7.89509e-18
3988.62190 7.19315e-18
3990.09007 4.07767e-18
3991.55825 8.44252e-18
3993.02642 8.68605e-18
3994.50466 5.74950e-18
3995.97283 7.48519e-18
3997.44101 8.03065e-18
3998.90918 8.14955e-18
4000.37736 5.79334e-18
4001.84554 8.36395e-18
4003.32377 8.23303e-18
4004.79194 8.48138e-18
4006.26012 6.80062e-18
4007.72830 8.73824e-18
4009.19647 8.91474e-18
4010.67470 9.98269e-18
4012.14288 1.38624e-17
4013.61106 9.31046e-18
4015.07923 1.10845e-17
4016.54741 1.29648e-17
4018.01558 9.83894e-18
4019.49382 7.74736e-18
4020.96199 7.82949e-18
4022.43017 1.00333e-17
4023.89834 1.03747e-17
4025.36652 9.07793e-18
4026.84475 1.03033e-17
4028.31293 7.83738e-18
4029.78110 7.55803e-18
4031.24928 7.11443e-18
4032.71746 3.81168e-18
4034.18563 1.05383e-17
4035.66386 9.85185e-18
4037.13204 9.39017e-18
4038.60022 1.07221e-17
4040.06839 8.13681e-18
4041.53657 1.10509e-17
4043.01480 1.00839e-17
4044.48298 8.79181e-18
4045.95115 8.70479e-18
4047.41933 8.02568e-18
4048.88750 9.84393e-18
4050.35568 1.20647e-17
4051.83391 7.75187e-18
4053.30209 6.89821e-18
4054.77026 8.95871e-18
4056.23844 6.61074e-18
4057.70662 1.17500e-17
4059.18485 1.38318e-17
4060.65302 9.11778e-18
4062.12120 8.91820e-18
4063.58938 7.75278e-18
4065.05755 8.66443e-18
4066.52573 1.15051e-17
4068.00396 9.63552e-18
4069.47214 9.12125e-18
4070.94031 1.00661e-17
4072.40849 1.11389e-17
4073.87666 9.17632e-18
4075.35490 1.04888e-17
4076.82307 1.17294e-17
4078.29125 9.73570e-18
4079.75942 7.82959e-18
4081.22760 9.04797e-18
4082.69578 9.54003e-18
4084.17401 9.39962e-18
4085.64218 1.08454e-17
4087.11036 9.86475e-18
4088.57854 1.01253e-17
4090.04671 8.66986e-18
4091.52494 1.05327e-17
4092.99312 9.28529e-18
4094.46130 1.19624e-17
4095.92947 1.10275e-17
4097.39765 9.84630e-18
4098.86582 1.14044e-17
4100.34406 1.04219e-17
4101.81223 8.08903e-18
4103.28041 7.73452e-18
4104.74858 1.17617e-17
4106.21676 9.49490e-18
4107.69499 7.91410e-18
4109.16317 8.45041e-18
4110.63134 9.44988e-18
4112.09952 8.05097e-18
4113.56770 5.60233e-18
4115.03587 6.23926e-18
4116.51410 6.37089e-18
4117.98228 7.52005e-18
4119.45046 6.76346e-18
4120.91863 6.97970e-18
4122.38681 3.65365e-18
4123.86504 7.52091e-18
4125.33322 9.46752e-18
4126.80139 9.35724e-18
4128.26957 8.29341e-18
4129.73774 3.69271e-18
4131.20592 3.85119e-18
4132.68415 6.08969e-18
4134.15233 5.44801e-18
4135.62050 4.67278e-18
4137.08868 8.68013e-18
4138.55686 9.65098e-18
4140.02503 6.06602e-18
4141.50326 5.76614e-18
4142.97144 7.68616e-18
4144.43962 9.22901e-18
4145.90779 8.13888e-18
4147.37597 8.40652e-18
4148.85420 6.96288e-18
4150.32238 9.48262e-18
4151.79055 9.02563e-18
4153.25873 6.83750e-18
4154.72690 4.33209e-18
4156.20514 8.01068e-18
4157.67331 9.25473e-18
4159.14149 9.05644e-18
4160.60966 7.87282e-18
4162.07784 7.05642e-18
4163.54602 7.54488e-18
4165.02425 7.26892e-18
4166.49242 7.23229e-18
4167.96060 5.96216e-18
4169.42878 5.05596e-18
4170.89695 7.12156e-18
4172.37518 8.19232e-18
4173.84336 1.00224e-17
4175.31154 7.92497e-18
4176.77971 8.53697e-18
4178.24789 8.66072e-18
4179.71606 9.79278e-18
4181.19430 8.50131e-18
4182.66247 7.33680e-18
4184.13065 5.43746e-18
4185.59882 6.22673e-18
4187.06700 9.47426e-18
4188.53518 9.45626e-18
4190.01341 8.98741e-18
4191.48158 1.09502e-17
4192.94976 8.59094e-18
4194.41794 6.44925e-18
4195.88611 6.52806e-18
4197.36434 6.14387e-18
4198.83252 6.30312e-18
4200.30070 8.19476e-18
4201.76887 9.35575e-18
4203.23705 5.93347e-18
4204.70522 6.20682e-18
4206.18346 6.88777e-18
4207.65163 7.77024e-18
4209.11981 1.02223e-17
4210.58798 8.05758e-18
4212.05616 7.66018e-18
4213.53439 7.07746e-18
4215.00257 9.45314e-18
4216.47074 9.35461e-18
4217.93892 7.14576e-18
4219.40710 7.77694e-18
4220.87527 9.39293e-18
4222.35350 8.81527e-18
4223.82168 5.20554e-18
4225.28986 7.02632e-18
4226.75803 8.85141e-18
4228.22621 7.60713e-18
4229.70444 7.22113e-18
4231.17262 8.13117e-18
4232.64079 6.23540e-18
4234.10897 7.91930e-18
4235.57714 9.78344e-18
4237.04532 9.53051e-18
4238.52355 9.62553e-18
4239.99173 8.38431e-18
4241.45990 7.12712e-18
4242.92808 8.07972e-18
4244.39626 9.09517e-18
4245.87449 6.97363e-18
4247.34266 7.05348e-18
4248.81084 8.28794e-18
4250.27902 8.06526e-18
4251.74719 7.53498e-18
4253.22542 8.08156e-18
4254.69360 7.63078e-18
4256.16178 7.81562e-18
4257.62995 8.77691e-18
4259.09813 6.42101e-18
4260.56630 6.74561e-18
4262.04454 8.54369e-18
4263.51271 1.02850e-17
4264.98089 1.05000e-17
4266.44906 7.51045e-18
4267.91724 8.75614e-18
4269.38542 8.68157e-18
4270.86365 8.81999e-18
4272.33182 9.87530e-18
4273.80000 8.43014e-18
4275.26818 7.70110e-18
4276.73635 6.47428e-18
4278.21458 8.06451e-18
4279.68276 9.26457e-18
4281.15094 8.93616e-18
4282.61911 8.89692e-18
4284.08729 6.78322e-18
4285.55546 8.37346e-18
4287.03370 7.47571e-18
4288.50187 6.80420e-18
4289.97005 8.35453e-18
4291.43822 8.76237e-18
4292.90640 6.63215e-18
4294.38463 4.11815e-18
4295.85281 6.13448e-18
4297.32098 8.92279e-18
4298.78916 6.53626e-18
4300.25734 6.67805e-18
4301.72551 6.19978e-18
4303.20374 4.98601e-18
4304.67192 5.98934e-18
4306.14010 8.25524e-18
4307.60827 7.79717e-18
4309.07645 6.41236e-18
4310.55468 6.39233e-18
4312.02286 6.32188e-18
4313.49103 7.83745e-18
4314.95921 8.02749e-18
4316.42738 7.22915e-18
4317.89556 5.29372e-18
4319.37379 9.05102e-18
4320.84197 8.86049e-18
4322.31014 7.76458e-18
4323.77832 5.99411e-18
4325.24650 7.47460e-18
4326.72473 6.60183e-18
4328.19290 6.64194e-18
4329.66108 7.26999e-18
4331.12926 9.23219e-18
4332.59743 6.00558e-18
4334.06561 6.08749e-18
4335.54384 7.03403e-18
4337.01202 8.14179e-18
4338.48019 5.63529e-18
4339.94837 7.16072e-18
4341.41654 7.18571e-18
4342.89478 7.17648e-18
4344.36295 9.12239e-18
4345.83113 8.00726e-18
4347.29930 5.32244e-18
4348.76748 7.32923e-18
4350.23566 9.54397e-18
4351.71389 6.61092e-18
4353.18206 5.94814e-18
4354.65024 8.40915e-18
4356.11842 8.58063e-18
4357.58659 8.29526e-18
4359.06482 5.93964e-18
4360.53300 7.93379e-18
4362.00118 8.67941e-18
4363.46935 7.53129e-18
4364.93753 7.23574e-18
4366.40570 8.49151e-18
4367.88394 6.52522e-18
4369.35211 8.55214e-18
4370.82029 8.44716e-18
4372.28846 8.34213e-18
4373.75664 8.23718e-18
4375.23487 8.13220e-18
4376.70305 8.02723e-18
4378.17122 7.92231e-18
4379.63940 7.81733e-18
4381.10758 7.71243e-18
4382.57575 7.60750e-18
4384.05398 7.50262e-18
4385.52216 7.39768e-18
4386.99034 7.29278e-18
4388.45851 7.18793e-18
4389.92669 7.08305e-18
4391.40492 6.97818e-18
4392.87310 6.87333e-18
4394.34127 6.76851e-18
4395.80945 6.66368e-18
4397.27762 6.55885e-18
4398.74580 6.45403e-18
4400.22403 6.34923e-18
4401.69221 6.24447e-18
4403.16038 6.13968e-18
4404.62856 6.03491e-18
4406.09674 5.93014e-18
4407.56491 8.81602e-18
4409.04314 8.39289e-18
4410.51132 5.56684e-18
4411.97950 7.25800e-18
4413.44767 7.27642e-18
4414.91585 6.66939e-18
4416.39408 5.55707e-18
4417.86226 6.49275e-18
4419.33043 8.28288e-18
4420.79861 5.12461e-18
4422.26678 6.82359e-18
4423.74502 9.44993e-18
4425.21319 9.07830e-18
4426.68137 7.26960e-18
4428.14954 6.12222e-18
4429.61772 8.07547e-18
4431.08590 9.83695e-18
4432.56413 6.75947e-18
4434.03230 6.71438e-18
4435.50048 9.11631e-18
4436.96866 8.21918e-18
4438.43683 7.69531e-18
4439.91506 8.30580e-18
4441.38324 5.30073e-18
4442.85142 5.39950e-18
4444.31959 7.25222e-18
4445.78777 6.68211e-18
4447.25594 9.26163e-18
4448.73418 9.16191e-18
4450.20235 7.26669e-18
4451.67053 8.38695e-18
4453.13870 7.87596e-18
4454.60688 7.38656e-18
4456.08511 7.86964e-18
4457.55329 6.81798e-18
4459.02146 5.68159e-18
4460.48964 6.58093e-18
4461.95782 6.86980e-18
4463.42599 6.89452e-18
4464.90422 6.42419e-18
4466.37240 4.91012e-18
4467.84058 8.18856e-18
4469.30875 8.87550e-18
4470.77693 6.84786e-18
4472.25516 6.57357e-18
4473.72334 9.71257e-18
4475.19151 1.06100e-17
4476.65969 8.75425e-18
4478.12786 6.60680e-18
4479.59604 6.96645e-18
4481.07427 8.92948e-18
4482.54245 8.94739e-18
4484.01062 6.23692e-18
4485.47880 9.55208e-18
4486.94698 9.36450e-18
4488.41515 7.78405e-18
4489.89338 8.12502e-18
4491.36156 7.12371e-18
4492.82974 6.40886e-18
4494.29791 7.04930e-18
4495.76609 6.51192e-18
4497.24432 6.40781e-18
4498.71250 6.81134e-18
4500.18067 7.37922e-18
4501.64885 6.48880e-18
4503.11702 5.10153e-18
4504.58520 5.36130e-18
4506.06343 7.50501e-18
4507.53161 7.88412e-18
4508.99978 7.74528e-18
4510.46796 5.48312e-18
4511.93614 6.36318e-18
4513.41437 7.60373e-18
4514.88254 9.54748e-18
4516.35072 9.25253e-18
4517.81890 6.98955e-18
4519.28707 9.39315e-18
4520.75525 1.03745e-17
4522.23348 8.46981e-18
4523.70166 9.41177e-18
4525.16983 1.08526e-17
4526.63801 9.16445e-18
4528.10618 6.77852e-18
4529.58442 6.65530e-18
4531.05259 9.49946e-18
4532.52077 1.06500e-17
4533.98894 1.12831e-17
4535.45712 1.09142e-17
4536.93535 7.95425e-18
4538.40353 7.90980e-18
4539.87170 8.56159e-18
4541.33988 5.44990e-18
4542.80806 8.55311e-18
4544.27623 9.21295e-18
4545.75446 7.29428e-18
4547.22264 7.16449e-18
4548.69082 8.70299e-18
4550.15899 9.57984e-18
4551.62717 8.82829e-18
4553.09534 1.05605e-17
4554.57358 8.83015e-18
4556.04175 8.39408e-18
4557.50993 1.03829e-17
4558.97810 8.80433e-18
4560.44628 7.97907e-18
4561.92451 8.32862e-18
4563.39269 9.77100e-18
4564.86086 1.14222e-17
4566.32904 8.71308e-18
4567.79722 9.37323e-18
4569.26539 7.47253e-18
4570.74362 7.97279e-18
4572.21180 9.75113e-18
4573.67998 8.52405e-18
4575.14815 1.01502e-17
4576.61633 1.15918e-17
4578.09456 1.15562e-17
4579.56274 1.01686e-17
4581.03091 9.38735e-18
4582.49909 1.08069e-17
4583.96726 9.90068e-18
4585.43544 9.22111e-18
4586.91367 8.21187e-18
4588.38185 9.88519e-18
4589.85002 1.26317e-17
4591.31820 1.16942e-17
4592.78638 1.16914e-17
4594.26461 1.08753e-17
4595.73278 8.72235e-18
4597.20096 9.94496e-18
4598.66914 1.14838e-17
4600.13731 1.23298e-17
4601.60549 1.20111e-17
4603.08372 1.32141e-17
4604.55190 1.10560e-17
4606.02007 1.14990e-17
4607.48825 1.12165e-17
4608.95642 9.65778e-18
4610.43466 8.60828e-18
4611.90283 8.56607e-18
4613.37101 9.08635e-18
4614.83918 1.04998e-17
4616.30736 1.04468e-17
4617.77554 1.06004e-17
4619.25377 1.15991e-17
4620.72194 1.04911e-17
4622.19012 1.20313e-17
4623.65830 1.02866e-17
4625.12647 1.07430e-17
4626.60470 8.56802e-18
4628.07288 9.34503e-18
4629.54106 9.97124e-18
4631.00923 8.98790e-18
4632.47741 9.50531e-18
4633.94558 9.63460e-18
4635.42382 9.28814e-18
4636.89199 6.72007e-18
4638.36017 9.73603e-18
4639.82834 1.09864e-17
4641.29652 8.82561e-18
4642.77475 9.43623e-18
4644.24293 1.09231e-17
4645.71110 1.08159e-17
4647.17928 1.06967e-17
4648.64746 8.24568e-18
4650.11563 8.66163e-18
4651.59386 1.01761e-17
4653.06204 1.07516e-17
4654.53022 1.20646e-17
4655.99839 1.16645e-17
4657.46657 9.06905e-18
4658.94480 8.21417e-18
4660.41298 9.88121e-18
4661.88115 9.73250e-18
4663.34933 8.93370e-18
4664.81750 8.71466e-18
4666.28568 1.10856e-17
4667.76391 9.13895e-18
4669.23209 9.66272e-18
4670.70026 9.50449e-18
4672.16844 1.04479e-17
4673.63662 1.01800e-17
4675.11485 1.03522e-17
4676.58302 1.08483e-17
4678.05120 1.14136e-17
4679.51938 1.26655e-17
4680.98755 1.12669e-17
4682.45573 1.14083e-17
4683.93396 9.85973e-18
4685.40214 1.01983e-17
4686.87031 8.88275e-18
4688.33849 8.99567e-18
4689.80666 1.05856e-17
4691.28490 8.28604e-18
4692.75307 7.52829e-18
4694.22125 1.09539e-17
4695.68942 1.03166e-17
4697.15760 1.10358e-17
4698.62578 1.13778e-17
4700.10401 1.07776e-17
4701.57218 9.98159e-18
4703.04036 1.19530e-17
4704.50854 9.84674e-18
4705.97671 7.51701e-18
4707.45494 1.15943e-17
4708.92312 1.13423e-17
4710.39130 8.66242e-18
4711.85947 8.25248e-18
4713.32765 1.11866e-17
4714.79582 1.15424e-17
4716.27406 9.54789e-18
4717.74223 9.27006e-18
4719.21041 9.93031e-18
4720.67858 1.02595e-17
4722.14676 9.72735e-18
4723.62499 9.44634e-18
4725.09317 8.84336e-18
4726.56134 9.25190e-18
4728.02952 9.31789e-18
4729.49770 8.81935e-18
4730.96587 1.10621e-17
4732.44410 9.21400e-18
4733.91228 7.08746e-18
4735.38046 6.45297e-18
4736.84863 8.75100e-18
4738.31681 1.10055e-17
4739.79504 9.65293e-18
4741.26322 9.97891e-18
4742.73139 9.00008e-18
4744.19957 9.58931e-18
4745.66774 9.22686e-18
4747.13592 8.86691e-18
4748.61415 9.91551e-18
4750.08233 8.80927e-18
4751.55050 8.69146e-18
4753.01868 8.59679e-18
4754.48686 8.72158e-18
4755.96509 8.40800e-18
4757.43326 8.35360e-18
4758.90144 8.43097e-18
4760.36962 9.19954e-18
4761.83779 8.87306e-18
4763.30597 6.90482e-18
4764.78420 9.04954e-18
4766.25238 8.86128e-18
4767.72055 5.36864e-18
4769.18873 6.73693e-18
4770.65690 7.07885e-18
4772.12508 6.75885e-18
4773.60331 7.97088e-18
4775.07149 6.74845e-18
4776.53966 7.23123e-18
4778.00784 8.85683e-18
4779.47602 1.03679e-17
4780.95425 7.45430e-18
4782.42242 8.03309e-18
4783.89060 7.30756e-18
4785.35878 6.78576e-18
4786.82695 8.03288e-18
4788.29513 9.46398e-18
4789.77336 8.62021e-18
4791.24154 6.95629e-18
4792.70971 8.60566e-18
4794.17789 8.63852e-18
4795.64606 8.42954e-18
4797.12430 1.00247e-17
4798.59247 8.58185e-18
4800.06065 7.48994e-18
4801.52882 9.58919e-18
4802.99700 9.59124e-18
4804.47523 1.09831e-17
4805.94341 1.07121e-17
4807.41158 8.56189e-18
4808.87976 1.08985e-17
4810.34794 9.14698e-18
4811.81611 8.81502e-18
4813.29434 8.63850e-18
4814.76252 9.24636e-18
4816.23070 1.00289e-17
4817.69887 7.87615e-18
4819.16705 7.07431e-18
4820.63522 9.15769e-18
4822.11346 7.51447e-18
4823.58163 8.30665e-18
4825.04981 9.20905e-18
4826.51798 9.08272e-18
4827.98616 7.90954e-18
4829.46439 7.51666e-18
4830.93257 7.12624e-18
4832.40074 6.37073e-18
4833.86892 6.77702e-18
4835.33710 6.70279e-18
4836.81533 8.05022e-18
4838.28350 6.42398e-18
4839.75168 7.67544e-18
4841.21986 7.64529e-18
4842.68803 8.28528e-18
4844.15621 8.66678e-18
4845.63444 8.45083e-18
4847.10262 9.15882e-18
4848.57079 8.61687e-18
4850.03897 5.63262e-18
4851.50714 6.42454e-18
4852.97532 7.75117e-18
4854.45355 7.01854e-18
4855.92173 8.09117e-18
4857.38990 8.49453e-18
4858.85808 7.13967e-18
4860.32626 5.86951e-18
4861.80449 6.41890e-18
4863.27266 8.59271e-18
4864.74084 8.69861e-18
4866.20902 6.62192e-18
4867.67719 6.22943e-18
4869.14537 6.94575e-18
4870.62360 6.94135e-18
4872.09178 6.93695e-18
4873.55995 6.93256e-18
4875.02813 6.92816e-18
4876.49630 6.92377e-18
4877.97454 6.91937e-18
4879.44271 6.91498e-18
4880.91089 6.91058e-18
4882.37906 6.90619e-18
4883.84724 6.90180e-18
4885.31542 6.89741e-18
4886.79365 6.89301e-18
4888.26182 6.88862e-18
4889.73000 6.88423e-18
4891.19818 6.87984e-18
4892.66635 6.87545e-18
4894.14458 6.87106e-18
4895.61276 6.86667e-18
4897.08094 6.86229e-18
4898.54911 6.85790e-18
4900.01729 6.85351e-18
4901.48546 6.84912e-18
4902.96370 6.84474e-18
4904.43187 6.84035e-18
4905.90005 6.83597e-18
4907.36822 6.83158e-18
4908.83640 6.96948e-18
4910.31463 8.21995e-18
4911.78281 7.01385e-18
4913.25098 6.07741e-18
4914.71916 6.77966e-18
4916.18734 7.33085e-18
4917.65551 8.16353e-18
4919.13374 8.65451e-18
4920.60192 8.91514e-18
4922.07010 8.38057e-18
4923.53827 7.81325e-18
4925.00645 6.36539e-18
4926.48468 7.22085e-18
4927.95286 1.03627e-17
4929.42103 7.76405e-18
4930.88921 6.42879e-18
4932.35738 7.80961e-18
4933.82556 7.39105e-18
4935.30379 8.15703e-18
4936.77197 9.41094e-18
4938.24014 8.95678e-18
4939.70832 8.52639e-18
4941.17650 8.15966e-18
4942.65473 8.13979e-18
4944.12290 9.61350e-18
4945.59108 9.03390e-18
4947.05926 7.87774e-18
4948.52743 7.62480e-18
4949.99561 7.87919e-18
4951.47384 8.68852e-18
4952.94202 9.92830e-18
4954.41019 9.27198e-18
4955.87837 9.31901e-18
4957.34654 9.02219e-18
4958.82478 7.44505e-18
4960.29295 6.43420e-18
4961.76113 6.94650e-18
4963.22930 6.34634e-18
4964.69748 8.28017e-18
4966.16566 8.69498e-18
4967.64389 8.84641e-18
4969.11206 8.88627e-18
4970.58024 8.92614e-18
4972.04842 8.96599e-18
4973.51659 9.00587e-18
4974.99482 9.04572e-18
4976.46300 9.08556e-18
4977.93118 9.12541e-18
4979.39935 9.16526e-18
4980.86753 9.20510e-18
4982.33570 9.24492e-18
4983.81394 9.28475e-18
4985.28211 9.32457e-18
4986.75029 9.36441e-18
4988.21846 9.40422e-18
4989.68664 9.44403e-18
4991.16487 9.48384e-18
4992.63305 9.52364e-18
4994.10122 9.56345e-18
4995.56940 9.60323e-18
4997.03758 9.64302e-18
4998.50575 9.68281e-18
4999.98398 9.72260e-18
5001.45216 9.76238e-18
5002.92034 9.80215e-18
5004.38851 9.84193e-18
5005.85669 9.88169e-18
5007.33492 8.20449e-18
5008.80310 9.50269e-18
5010.27127 1.07094e-17
5011.73945 1.15900e-17
5013.20762 1.04863e-17
5014.67580 8.97949e-18
5016.15403 1.06710e-17
5017.62221 1.06332e-17
5019.09038 1.05955e-17
5020.55856 1.05577e-17
5022.02674 1.05200e-17
5023.50497 1.04822e-17
5024.97314 1.04445e-17
5026.44132 1.04067e-17
5027.90950 1.03690e-17
5029.37767 1.03313e-17
5030.84585 1.02935e-17
5032.32408 1.02558e-17
5033.79226 1.02181e-17
5035.26043 1.01804e-17
5036.72861 1.01427e-17
5038.19678 1.01050e-17
5039.66496 1.00673e-17
5041.14319 1.00296e-17
5042.61137 9.99189e-18
5044.07954 9.95420e-18
5045.54772 9.91652e-18
5047.01590 9.87884e-18
5048.49413 9.84115e-18
5049.96230 9.80349e-18
5051.43048 9.76582e-18
5052.89866 9.72817e-18
5054.36683 9.69049e-18
5055.84506 9.54180e-18
5057.31324 1.05247e-17
5058.78142 9.98091e-18
5060.24959 1.10402e-17
5061.71777 1.06896e-17
5063.18594 1.03871e-17
5064.66418 9.65587e-18
5066.13235 8.21016e-18
5067.60053 8.05496e-18
5069.06870 9.50583e-18
5070.53688 8.54957e-18
5072.00506 7.61349e-18
5073.48329 9.27999e-18
5074.95146 8.94734e-18
5076.41964 8.84613e-18
5077.88782 9.91496e-18
5079.35599 9.15909e-18
5080.83422 8.71692e-18
5082.30240 7.58789e-18
5083.77058 8.28065e-18
5085.23875 8.95454e-18
5086.70693 9.62133e-18
5088.18516 9.58323e-18
5089.65334 8.56840e-18
5091.12151 7.81662e-18
5092.58969 9.06873e-18
5094.05786 9.16223e-18
5095.52604 8.51204e-18
5097.00427 8.07257e-18
5098.47245 8.02444e-18
5099.94062 7.25937e-18
5101.40880 9.16045e-18
5102.87698 8.60093e-18
5104.34515 8.43647e-18
5105.82338 9.21260e-18
5107.29156 7.95411e-18
5108.75974 8.02125e-18
5110.22791 8.62319e-18
5111.69609 6.83793e-18
5113.17432 9.03641e-18
5114.64250 8.86048e-18
5116.11067 9.13349e-18
5117.57885 9.41156e-18
5119.04702 1.05840e-17
5120.51520 1.07479e-17
5121.99343 7.26982e-18
5123.46161 7.83408e-18
5124.92978 8.30293e-18
5126.39796 7.34367e-18
5127.86614 9.34799e-18
5129.34437 9.11824e-18
5130.81254 9.52737e-18
5132.28072 9.20626e-18
5133.74890 7.98683e-18
5135.21707 8.68594e-18
5136.68525 8.12290e-18
5138.16348 8.91134e-18
5139.63166 1.01634e-17
5141.09983 9.17824e-18
5142.56801 9.01865e-18
5144.03618 9.60005e-18
5145.51442 8.55949e-18
5146.98259 8.80825e-18
5148.45077 8.79644e-18
5149.91894 1.06810e-17
5151.38712 1.07385e-17
5152.85530 9.18068e-18
5154.33353 1.01296e-17
5155.80170 1.04764e-17
5157.26988 8.38520e-18
5158.73806 9.95138e-18
5160.20623 1.03654e-17
5161.68446 9.95826e-18
5163.15264 8.70846e-18
5164.62082 9.26026e-18
5166.08899 1.02288e-17
5167.55717 9.91154e-18
5169.02534 8.82920e-18
5170.50358 7.39697e-18
5171.97175 7.89444e-18
5173.43993 8.78495e-18
5174.90810 7.71097e-18
5176.37628 7.43284e-18
5177.85451 9.50780e-18
5179.32269 9.77699e-18
5180.79086 9.02661e-18
5182.25904 1.05034e-17
5183.72722 9.25544e-18
5185.19539 7.56739e-18
5186.67362 9.20712e-18
5188.14180 1.03959e-17
5189.60998 9.22615e-18
5191.07815 9.41747e-18
5192.54633 9.87994e-18
5194.02456 9.92579e-18
5195.49274 9.21447e-18
5196.96091 7.57662e-18
5198.42909 7.61045e-18
5199.89726 9.67936e-18
5201.36544 9.70970e-18
5202.84367 8.40380e-18
5204.31185 1.04549e-17
5205.78002 1.01227e-17
5207.24820 9.34606e-18
5208.71638 9.62889e-18
5210.19461 1.03481e-17
5211.66278 1.11352e-17
5213.13096 1.13758e-17
5214.59914 1.06291e-17
5216.06731 8.66570e-18
5217.53549 9.75125e-18
5219.01372 9.19623e-18
5220.48190 7.82987e-18
5221.95007 9.40921e-18
5223.41825 1.08272e-17
5224.88642 1.06750e-17
5226.36466 9.63643e-18
5227.83283 9.93220e-18
5229.30101 9.82470e-18
5230.76918 9.57078e-18
5232.23736 1.04306e-17
5233.70554 9.99986e-18
5235.18377 1.14089e-17
5236.65194 1.19036e-17
5238.12012 1.00280e-17
5239.58830 1.06059e-17
5241.05647 1.19159e-17
5242.53470 1.15517e-17
5244.00288 1.02188e-17
5245.47106 1.13908e-17
5246.93923 1.11380e-17
5248.40741 9.38839e-18
5249.87558 1.04474e-17
5251.35382 1.03167e-17
5252.82199 1.01408e-17
5254.29017 1.13869e-17
5255.75834 1.08309e-17
5257.22652 1.06489e-17
5258.70475 1.05644e-17
5260.17293 8.82294e-18
5261.64110 9.16503e-18
5263.10928 1.08898e-17
5264.57746 1.04743e-17
5266.04563 1.04777e-17
5267.52386 1.11980e-17
5268.99204 9.87582e-18
5270.46022 9.99382e-18
5271.92839 1.17026e-17
5273.39657 1.14602e-17
5274.87480 1.12825e-17
5276.34298 1.02804e-17
5277.81115 9.91466e-18
5279.27933 1.11166e-17
5280.74750 1.10301e-17
5282.21568 9.99880e-18
5283.69391 9.53944e-18
5285.16209 1.04576e-17
5286.63026 1.24130e-17
5288.09844 1.35430e-17
5289.56662 1.17969e-17
5291.04485 1.10258e-17
5292.51302 1.16110e-17
5293.98120 1.15119e-17
5295.44938 1.12123e-17
5296.91755 1.03968e-17
5298.38573 1.05665e-17
5299.86396 9.78632e-18
5301.33214 1.03704e-17
5302.80031 1.17621e-17
5304.26849 1.15520e-17
5305.73666 1.36219e-17
5307.21490 1.33760e-17
5308.68307 1.06858e-17
5310.15125 9.97810e-18
5311.61942 1.10393e-17
5313.08760 1.11598e-17
5314.55578 1.11732e-17
5316.03401 1.14173e-17
5317.50218 1.20102e-17
5318.97036 1.27532e-17
5320.43854 1.27774e-17
5321.90671 1.24534e-17
5323.37489 1.26528e-17
5324.85312 1.25248e-17
5326.32130 1.22184e-17
5327.78947 1.40077e-17
5329.25765 1.27974e-17
5330.72582 1.15397e-17
5332.20406 1.22239e-17
5333.67223 1.15502e-17
5335.14041 1.22807e-17
5336.60858 1.24078e-17
5338.07676 1.17507e-17
5339.54494 1.20628e-17
5341.02317 1.19021e-17
5342.49134 1.26424e-17
5343.95952 1.40761e-17
5345.42770 1.26063e-17
5346.89587 1.19372e-17
5348.37410 1.19922e-17
5349.84228 1.21259e-17
5351.31046 1.40033e-17
5352.77863 1.31205e-17
5354.24681 1.15967e-17
5355.72504 1.16340e-17
5357.19322 1.27199e-17
5358.66139 1.15361e-17
5360.12957 1.06183e-17
5361.59774 1.16559e-17
5363.06592 1.19554e-17
5364.54415 1.29055e-17
5366.01233 1.31818e-17
5367.48050 1.31191e-17
5368.94868 1.37375e-17
5370.41686 1.31760e-17
5371.89509 1.20059e-17
5373.36326 1.33822e-17
5374.83144 1.35374e-17
5376.29962 1.24276e-17
5377.76779 1.16677e-17
5379.23597 1.25907e-17
5380.71420 1.31107e-17
5382.18238 1.25377e-17
5383.65055 1.21191e-17
5385.11873 1.23949e-17
5386.58690 1.24908e-17
5388.06514 1.23683e-17
5389.53331 1.34490e-17
5391.00149 1.45898e-17
5392.46966 1.42937e-17
5393.93784 1.27329e-17
5395.40602 1.25693e-17
5396.88425 1.19925e-17
5398.35242 1.23361e-17
5399.82060 1.29805e-17
5401.28878 1.28373e-17
5402.75695 1.37959e-17
5404.22513 1.33898e-17
5405.70336 1.30468e-17
5407.17154 1.24222e-17
5408.63971 1.27042e-17
5410.10789 1.45519e-17
5411.57606 1.45135e-17
5413.05430 1.24898e-17
5414.52247 1.30957e-17
5415.99065 1.35169e-17
5417.45882 1.42374e-17
5418.92700 1.53567e-17
5420.39518 1.42217e-17
5421.87341 1.38881e-17
5423.34158 1.40272e-17
5424.80976 1.44859e-17
5426.27794 1.36834e-17
5427.74611 1.32772e-17
5429.22434 1.39485e-17
5430.69252 1.55427e-17
5432.16070 1.36593e-17
5433.62887 1.21856e-17
5435.09705 1.35143e-17
5436.56522 1.37244e-17
5438.04346 1.27794e-17
5439.51163 1.30414e-17
5440.97981 1.37933e-17
5442.44798 1.43743e-17
5443.91616 1.39632e-17
5445.39439 1.36643e-17
5446.86257 1.35195e-17
5448.33074 1.28649e-17
5449.79892 1.29874e-17
5451.26710 1.32769e-17
5452.74533 1.30518e-17
5454.21350 1.37072e-17
5455.68168 1.48777e-17
5457.14986 1.29310e-17
5458.61803 1.26764e-17
5460.08621 1.40343e-17
5461.56444 1.29529e-17
5463.03262 1.19754e-17
5464.50079 1.16406e-17
5465.96897 1.26566e-17
5467.43714 1.37443e-17
5468.91538 1.35295e-17
5470.38355 1.45422e-17
5471.85173 1.44781e-17
5473.31990 1.39454e-17
5474.78808 1.41369e-17
5476.25626 1.37322e-17
5477.73449 1.24541e-17
5479.20266 1.41843e-17
5480.67084 1.41059e-17
5482.13902 1.48994e-17
5483.60719 1.34858e-17
5485.07537 1.32133e-17
5486.55360 1.45418e-17
5488.02178 1.39646e-17
5489.48995 1.38900e-17
5490.95813 1.43710e-17
5492.42630 1.41079e-17
5493.90454 1.33960e-17
5495.37271 1.38432e-17
5496.84089 1.48145e-17
5498.30906 1.42761e-17
5499.77724 1.45049e-17
5501.24542 1.43674e-17
5502.72365 1.38742e-17
5504.19182 1.36695e-17
5505.66000 1.32529e-17
5507.12818 1.27876e-17
5508.59635 1.32741e-17
5510.07458 1.51455e-17
5511.54276 1.57199e-17
5513.01094 1.58600e-17
5514.47911 1.56744e-17
5515.94729 1.54019e-17
5517.41546 1.57302e-17
5518.89370 1.43649e-17
5520.36187 1.51659e-17
5521.83005 1.55824e-17
5523.29822 1.48735e-17
5524.76640 1.59512e-17
5526.24463 1.65089e-17
5527.71281 1.52166e-17
5529.18098 1.53900e-17
5530.64916 1.51445e-17
5532.11734 1.45932e-17
5533.58551 1.59508e-17
5535.06374 1.65180e-17
5536.53192 1.64802e-17
5538.00010 1.73307e-17
5539.46827 1.68676e-17
5540.93645 1.63849e-17
5542.41468 1.58003e-17
5543.88286 1.59965e-17
5545.35103 1.61703e-17
5546.81921 1.56563e-17
5548.28738 1.65117e-17
5549.75556 1.75973e-17
5551.23379 1.78109e-17
5552.70197 1.68040e-17
5554.17014 1.55115e-17
5555.63832 1.54894e-17
5557.10650 1.64431e-17
5558.58473 1.62134e-17
5560.05290 1.49438e-17
5561.52108 1.57237e-17
5562.98926 1.60892e-17
5564.45743 1.51573e-17
5565.92561 1.59924e-17
5567.40384 1.60037e-17
5568.87202 1.58778e-17
5570.34019 1.49657e-17
5571.80837 1.45075e-17
5573.27654 1.47451e-17
5574.75478 1.54639e-17
5576.22295 1.57396e-17
5577.69113 1.51229e-17
5579.15930 1.44545e-17
5580.62748 1.42089e-17
5582.09566 1.45391e-17
5583.57389 1.45020e-17
5585.04206 1.37044e-17
5586.51024 1.31984e-17
5587.97842 1.42939e-17
5589.44659 1.36038e-17
5590.92482 1.24292e-17
5592.39300 1.23049e-17
5593.86118 1.23727e-17
5595.32935 1.38563e-17
5596.79753 1.48784e-17
5598.26570 1.30847e-17
5599.74394 1.26280e-17
5601.21211 1.27782e-17
5602.68029 1.23758e-17
5604.14846 1.25540e-17
5605.61664 1.20546e-17
5607.09487 1.25083e-17
5608.56305 1.29604e-17
5610.03122 1.15490e-17
5611.49940 1.02326e-17
5612.96758 1.11434e-17
5614.43575 1.14576e-17
5615.91398 1.05155e-17
5617.38216 1.11469e-17
5618.85034 1.15183e-17
5620.31851 9.99460e-18
5621.78669 9.47395e-18
5623.25486 9.66732e-18
5624.73310 9.64804e-18
5626.20127 9.83647e-18
5627.66945 1.00792e-17
5629.13762 1.03453e-17
5630.60580 9.42121e-18
5632.08403 9.58692e-18
5633.55221 9.50445e-18
5635.02038 9.25500e-18
5636.48856 9.59196e-18
5637.95674 9.82052e-18
5639.43497 9.54825e-18
5640.90314 9.22106e-18
5642.37132 9.80056e-18
5643.83950 1.03194e-17
5645.30767 1.00617e-17
5646.77585 9.98377e-18
5648.25408 9.82179e-18
5649.72226 9.85263e-18
5651.19043 1.00744e-17
5652.65861 9.33093e-18
5654.12678 1.02658e-17
5655.60502 1.11721e-17
5657.07319 1.04296e-17
5658.54137 1.03308e-17
5660.00954 1.02280e-17
5661.47772 1.03795e-17
5662.94590 9.89047e-18
5664.42413 8.31962e-18
5665.89230 8.71986e-18
5667.36048 9.17358e-18
5668.82866 9.26979e-18
5670.29683 1.14430e-17
5671.77506 9.66908e-18
5673.24324 7.80180e-18
5674.71142 9.24769e-18
5676.17959 9.84709e-18
5677.64777 8.56216e-18
5679.11594 8.43570e-18
5680.59418 9.02479e-18
5682.06235 9.23510e-18
5683.53053 8.70507e-18
5684.99870 9.15979e-18
5686.46688 8.42509e-18
5687.94511 7.17307e-18
5689.41329 8.52609e-18
5690.88146 9.18655e-18
5692.34964 7.31028e-18
5693.81782 7.42107e-18
5695.28599 8.32927e-18
5696.76422 7.71738e-18
5698.23240 6.29500e-18
5699.70058 6.47278e-18
5701.16875 7.92936e-18
5702.63693 8.47175e-18
5704.10510 8.34587e-18
5705.58334 9.77057e-18
5707.05151 9.86879e-18
5708.51969 9.36935e-18
5709.98786 9.05441e-18
5711.45604 7.41617e-18
5712.93427 7.13599e-18
5714.40245 8.38527e-18
5715.87062 8.49538e-18
5717.33880 8.39211e-18
5718.80698 8.19447e-18
5720.27515 8.62920e-18
5721.75338 8.34296e-18
5723.22156 7.08985e-18
5724.68974 7.37855e-18
5726.15791 8.53036e-18
5727.62609 9.06389e-18
5729.10432 8.51630e-18
5730.57250 8.25013e-18
5732.04067 8.99648e-18
5733.50885 9.88233e-18
5734.97702 7.57024e-18
5736.44520 6.85682e-18
5737.92343 8.05486e-18
5739.39161 7.26712e-18
5740.85978 6.66378e-18
5742.32796 7.79705e-18
5743.79614 8.47509e-18
5745.27437 7.76244e-18
5746.74254 8.30795e-18
5748.21072 8.09410e-18
5749.67890 7.11773e-18
5751.14707 7.55839e-18
5752.61525 8.87348e-18
5754.09348 8.49370e-18
5755.56166 7.19174e-18
5757.02983 7.64979e-18
5758.49801 8.35612e-18
5759.96618 8.48124e-18
5761.44442 9.13471e-18
5762.91259 7.53852e-18
5764.38077 7.52208e-18
5765.84894 7.41518e-18
5767.31712 7.29687e-18
5768.79535 7.73428e-18
5770.26353 7.82040e-18
5771.73170 7.65268e-18
5773.19988 7.83061e-18
5774.66806 7.14734e-18
5776.13623 7.49619e-18
5777.61446 7.20299e-18
5779.08264 7.83332e-18
5780.55082 8.94044e-18
5782.01899 8.92069e-18
5783.48717 8.35838e-18
5784.95534 7.57783e-18
5786.43358 8.28434e-18
5787.90175 9.75002e-18
5789.36993 9.05803e-18
5790.83810 8.23272e-18
5792.30628 8.57121e-18
5793.78451 8.85569e-18
5795.25269 9.95757e-18
5796.72086 9.37648e-18
5798.18904 8.83068e-18
5799.65722 9.77357e-18
5801.12539 9.90828e-18
5802.60362 9.84774e-18
5804.07180 9.81891e-18
5805.53998 9.76045e-18
5807.00815 1.09506e-17
5808.47633 1.14685e-17
5809.95456 1.21929e-17
5811.42274 1.35258e-17
5812.89091 1.30780e-17
5814.35909 1.19849e-17
5815.82726 1.10738e-17
5817.29544 1.11470e-17
5818.77367 1.32225e-17
5820.24185 1.37014e-17
5821.71002 1.26985e-17
5823.17820 1.24683e-17
5824.64638 1.27271e-17
5826.12461 1.40215e-17
5827.59278 1.41488e-17
5829.06096 1.40084e-17
5830.52914 1.44049e-17
5831.99731 1.37360e-17
5833.46549 1.37496e-17
5834.94372 1.33139e-17
5836.41190 1.31488e-17
5837.88007 1.47396e-17
5839.34825 1.56739e-17
5840.81642 1.48327e-17
5842.29466 1.47801e-17
5843.76283 1.56458e-17
5845.23101 1.51249e-17
5846.69918 1.57688e-17
5848.16736 1.58216e-17
5849.63554 1.41619e-17
5851.11377 1.43567e-17
5852.58194 1.59054e-17
5854.05012 1.63044e-17
5855.51830 1.62503e-17
5856.98647 1.71918e-17
5858.46470 1.88783e-17
5859.93288 1.93677e-17
5861.40106 1.77781e-17
5862.86923 1.65271e-17
5864.33741 1.62726e-17
5865.80558 1.71964e-17
5867.28382 1.70275e-17
5868.75199 1.62508e-17
5870.22017 1.74622e-17
5871.68834 1.86192e-17
5873.15652 1.93707e-17
5874.63475 2.00693e-17
5876.10293 1.80350e-17
5877.57110 1.67654e-17
5879.03928 1.76890e-17
5880.50746 1.86735e-17
5881.97563 1.90389e-17
5883.45386 1.96918e-17
5884.92204 1.92138e-17
5886.39022 1.85392e-17
5887.85839 1.81449e-17
5889.32657 1.83634e-17
5890.80480 2.00651e-17
5892.27298 1.87527e-17
5893.74115 1.85861e-17
5895.20933 1.84718e-17
5896.67750 1.84483e-17
5898.14568 1.95596e-17
5899.62391 1.92640e-17
5901.09209 1.96312e-17
5902.56026 2.03972e-17
5904.02844 2.00854e-17
5905.49662 2.05533e-17
5906.97485 2.05383e-17
5908.44302 2.10780e-17
5909.91120 2.16794e-17
5911.37938 2.12412e-17
5912.84755 2.07539e-17
5914.31573 2.24051e-17
5915.79396 2.09955e-17
5917.26214 1.93861e-17
5918.73031 2.07683e-17
5920.19849 2.13467e-17
5921.66666 2.01321e-17
5923.14490 1.77828e-17
5924.61307 1.72230e-17
5926.08125 1.79852e-17
5927.54942 1.83090e-17
5929.01760 1.78370e-17
5930.48578 1.68260e-17
5931.96401 1.78352e-17
5933.43218 1.87050e-17
5934.90036 1.91856e-17
5936.36854 2.07034e-17
5937.83671 2.28088e-17
5939.31494 2.24361e-17
5940.78312 2.09329e-17
5942.25130 2.06029e-17
5943.71947 2.14048e-17
5945.18765 2.17521e-17
5946.65582 2.11950e-17
5948.13406 2.17659e-17
5949.60223 2.13512e-17
5951.07041 2.11379e-17
5952.53858 1.98091e-17
5954.00676 1.90558e-17
5955.47494 2.08379e-17
5956.95317 2.20020e-17
5958.42134 2.20263e-17
5959.88952 2.09763e-17
5961.35770 2.20215e-17
5962.82587 2.18053e-17
5964.30410 2.01784e-17
5965.77228 1.97680e-17
5967.24046 2.00448e-17
5968.70863 2.03098e-17
5970.17681 1.90372e-17
5971.65504 1.97998e-17
5973.12322 2.11353e-17
5974.59139 1.96820e-17
5976.05957 1.97686e-17
5977.52774 1.99477e-17
5978.99592 1.93133e-17
5980.47415 1.98578e-17
5981.94233 1.96919e-17
5983.41050 2.05729e-17
5984.87868 2.05497e-17
5986.34686 1.89092e-17
5987.82509 1.93304e-17
5989.29326 1.99080e-17
5990.76144 1.86889e-17
5992.22962 1.82386e-17
5993.69779 1.93535e-17
5995.16597 1.96038e-17
5996.64420 1.93610e-17
5998.11238 1.77586e-17
5999.58055 1.75500e-17
6001.04873 1.84016e-17
6002.51690 1.76532e-17
6003.99514 1.82950e-17
6005.46331 1.75099e-17
6006.93149 1.74953e-17
6008.39966 1.86812e-17
6009.86784 1.78399e-17
6011.33602 1.82647e-17
6012.81425 1.86199e-17
6014.28242 1.77040e-17
6015.75060 1.76493e-17
6017.21878 1.70902e-17
6018.68695 1.68406e-17
6020.16518 1.79506e-17
6021.63336 1.80284e-17
6023.10154 1.73897e-17
6024.56971 1.70512e-17
6026.03789 1.65737e-17
6027.50606 1.70518e-17
6028.98430 1.73684e-17
6030.45247 1.69778e-17
6031.92065 1.69518e-17
6033.38882 1.65673e-17
6034.85700 1.63018e-17
6036.32518 1.62577e-17
6037.80341 1.67526e-17
6039.27158 1.77883e-17
6040.73976 1.79202e-17
6042.20794 1.74413e-17
6043.67611 1.61456e-17
6045.15434 1.58631e-17
6046.62252 1.68222e-17
6048.09070 1.54540e-17
6049.55887 1.44522e-17
6051.02705 1.57187e-17
6052.49522 1.72821e-17
6053.97346 1.71712e-17
6055.44163 1.61731e-17
6056.90981 1.59159e-17
6058.37798 1.54977e-17
6059.84616 1.56383e-17
6061.32439 1.49637e-17
6062.79257 1.47812e-17
6064.26074 1.44896e-17
6065.72892 1.35935e-17
6067.19710 1.29583e-17
6068.67533 1.31975e-17
6070.14350 1.44167e-17
6071.61168 1.49876e-17
6073.07986 1.46615e-17
6074.54803 1.45539e-17
6076.01621 1.44894e-17
6077.49444 1.40424e-17
6078.96262 1.39193e-17
6080.43079 1.46520e-17
6081.89897 1.52582e-17
6083.36714 1.50895e-17
6084.83532 1.50399e-17
6086.31355 1.49789e-17
6087.78173 1.44202e-17
6089.24990 1.41365e-17
6090.71808 1.38104e-17
6092.18626 1.24352e-17
6093.66449 1.23710e-17
6095.13266 1.40938e-17
6096.60084 1.39795e-17
6098.06902 1.32603e-17
6099.53719 1.23804e-17
6101.00537 1.04193e-17
6102.48360 1.09628e-17
6103.95178 1.30551e-17
6105.41995 1.38633e-17
6106.88813 1.36325e-17
6108.35630 1.33553e-17
6109.83454 1.22381e-17
6111.30271 1.22143e-17
6112.77089 1.30531e-17
6114.23906 1.43411e-17
6115.70724 1.42132e-17
6117.17542 1.36753e-17
6118.65365 1.27233e-17
6120.12182 1.13098e-17
6121.59000 1.17907e-17
6123.05818 1.29118e-17
6124.52635 1.37859e-17
6126.00458 1.39146e-17
6127.47276 1.32412e-17
6128.94094 1.28128e-17
6130.40911 1.19451e-17
6131.87729 1.16114e-17
6133.34546 1.30750e-17
6134.82370 1.42508e-17
6136.29187 1.39370e-17
6137.76005 1.52406e-17
6139.22822 1.49448e-17
6140.69640 1.44491e-17
6142.17463 1.48858e-17
6143.64281 1.42341e-17
6145.11098 1.42784e-17
6146.57916 1.42135e-17
6148.04734 1.39920e-17
6149.51551 1.38010e-17
6150.99374 1.34279e-17
6152.46192 1.38069e-17
6153.93010 1.34121e-17
6155.39827 1.32474e-17
6156.86645 1.31717e-17
6158.34468 1.33990e-17
6159.81286 1.27840e-17
6161.28103 1.23940e-17
6162.74921 1.23194e-17
6164.21738 1.22861e-17
6165.68556 1.27147e-17
6167.16379 1.26527e-17
6168.63197 1.29145e-17
6170.10014 1.28670e-17
6171.56832 1.27895e-17
6173.03650 1.28062e-17
6174.50467 1.21370e-17
6175.98290 1.22629e-17
6177.45108 1.28679e-17
6178.91926 1.32401e-17
6180.38743 1.38472e-17
6181.85561 1.30244e-17
6183.33384 1.07783e-17
6184.80202 1.12032e-17
6186.27019 1.32322e-17
6187.73837 1.36554e-17
6189.20654 1.32999e-17
6190.68478 1.23299e-17
6192.15295 1.13649e-17
6193.62113 1.18844e-17
6195.08930 1.26457e-17
6196.55748 1.27662e-17
6198.02566 1.30724e-17
6199.50389 1.28745e-17
6200.97206 1.34004e-17
6202.44024 1.42425e-17
6203.90842 1.23426e-17
6205.37659 1.11551e-17
6206.85482 1.31977e-17
6208.32300 1.47359e-17
6209.79118 1.42356e-17
6211.25935 1.30914e-17
6212.72753 1.24187e-17
6214.19570 1.35629e-17
6215.67394 1.45127e-17
6217.14211 1.31485e-17
6218.61029 1.34276e-17
6220.07846 1.39524e-17
6221.54664 1.37448e-17
6223.02487 1.45172e-17
6224.49305 1.45848e-17
6225.96122 1.50716e-17
6227.42940 1.49560e-17
6228.89758 1.40742e-17
6230.36575 1.50180e-17
6231.84398 1.58489e-17
6233.31216 1.46047e-17
6234.78034 1.35769e-17
6236.24851 1.35859e-17
6237.71669 1.42629e-17
6239.19492 1.53712e-17
6240.66310 1.53661e-17
6242.13127 1.50726e-17
6243.59945 1.59426e-17
6245.06762 1.62690e-17
6246.53580 1.58311e-17
6248.01403 1.54805e-17
6249.48221 1.56779e-17
6250.95038 1.65161e-17
6252.41856 1.62807e-17
6253.88674 1.53320e-17
6255.35491 1.45489e-17
6256.83314 1.57094e-17
6258.30132 1.74263e-17
6259.76950 1.73273e-17
6261.23767 1.71408e-17
6262.70585 1.62650e-17
6264.18408 1.54034e-17
6265.65226 1.60284e-17
6267.12043 1.65801e-17
6268.58861 1.61224e-17
6270.05678 1.55373e-17
6271.52496 1.51688e-17
6273.00319 1.53687e-17
6274.47137 1.57657e-17
6275.93954 1.50198e-17
6277.40772 1.51339e-17
6278.87590 1.64563e-17
6280.35413 1.61726e-17
6281.82230 1.47530e-17
6283.29048 1.48262e-17
6284.75866 1.57167e-17
6286.22683 1.50630e-17
6287.70506 1.44274e-17
6289.17324 1.52931e-17
6290.64142 1.55697e-17
6292.10959 1.50111e-17
6293.57777 1.53239e-17
6295.04594 1.48352e-17
6296.52418 1.38318e-17
6297.99235 1.43820e-17
6299.46053 1.52347e-17
6300.92870 1.45560e-17
6302.39688 1.53678e-17
6303.87511 1.48413e-17
6305.34329 1.43769e-17
6306.81146 1.57844e-17
6308.27964 1.47624e-17
6309.74782 1.41321e-17
6311.21599 1.56117e-17
6312.69422 1.57531e-17
6314.16240 1.44112e-17
6315.63058 1.43879e-17
6317.09875 1.46698e-17
6318.56693 1.46250e-17
6320.04516 1.43314e-17
6321.51334 1.51388e-17
6322.98151 1.58105e-17
6324.44969 1.57090e-17
6325.91786 1.56293e-17
6327.38604 1.56656e-17
6328.86427 1.64047e-17
6330.33245 1.51158e-17
6331.80062 1.52365e-17
6333.26880 1.64183e-17
6334.73698 1.65223e-17
6336.20515 1.67596e-17
6337.68338 1.63648e-17
6339.15156 1.61331e-17
6340.61974 1.40113e-17
6342.08791 1.37259e-17
6343.55609 1.58584e-17
6345.03432 1.63509e-17
6346.50250 1.53271e-17
6347.97067 1.45049e-17
6349.43885 1.37184e-17
6350.90702 1.41211e-17
6352.37520 1.56371e-17
6353.85343 1.51073e-17
6355.32161 1.42936e-17
6356.78978 1.43046e-17
6358.25796 1.45078e-17
6359.72614 1.44042e-17
6361.20437 1.35964e-17
6362.67254 1.37004e-17
6364.14072 1.46458e-17
6365.60890 1.57808e-17
6367.07707 1.56185e-17
6368.54525 1.47229e-17
6370.02348 1.43193e-17
6371.49166 1.41350e-17
6372.95983 1.39724e-17
6374.42801 1.38027e-17
6375.89618 1.39088e-17
6377.37442 1.39022e-17
6378.84259 1.38468e-17
6380.31077 1.43171e-17
6381.77894 1.43516e-17
6383.24712 1.32719e-17
6384.72535 1.32489e-17
6386.19353 1.40330e-17
6387.66170 1.36740e-17
6389.12988 1.41185e-17
6390.59806 1.43188e-17
6392.06623 1.32269e-17
6393.54446 1.35548e-17
6395.01264 1.39752e-17
6396.48082 1.45246e-17
6397.94899 1.50837e-17
6399.41717 1.39990e-17
6400.89540 1.28514e-17
6402.36358 1.34586e-17
6403.83175 1.43605e-17
6405.29993 1.42530e-17
6406.76810 1.39761e-17
6408.23628 1.40243e-17
6409.71451 1.45076e-17
6411.18269 1.40463e-17
6412.65086 1.32342e-17
6414.11904 1.30123e-17
6415.58722 1.32021e-17
6417.05539 1.39886e-17
6418.53362 1.37639e-17
6420.00180 1.29750e-17
6421.46998 1.30166e-17
6422.93815 1.30040e-17
6424.40633 1.27696e-17
6425.88456 1.36187e-17
6427.35274 1.48217e-17
6428.82091 1.46150e-17
6430.28909 1.42338e-17
6431.75726 1.40951e-17
6433.22544 1.31695e-17
6434.70367 1.30142e-17
6436.17185 1.36520e-17
6437.64002 1.41310e-17
6439.10820 1.51115e-17
6440.57638 1.48570e-17
6442.05461 1.36792e-17
6443.52278 1.39292e-17
6444.99096 1.49708e-17
6446.45914 1.46594e-17
6447.92731 1.34239e-17
6449.39549 1.30611e-17
6450.87372 1.43538e-17
6452.34190 1.55615e-17
6453.81007 1.36483e-17
6455.27825 1.27384e-17
6456.74642 1.44100e-17
6458.22466 1.52911e-17
6459.69283 1.48279e-17
6461.16101 1.43460e-17
6462.62918 1.53880e-17
6464.09736 1.50625e-17
6465.56554 1.39855e-17
6467.04377 1.51199e-17
6468.51194 1.55728e-17
6469.98012 1.52303e-17
6471.44830 1.55760e-17
6472.91647 1.54850e-17
6474.39470 1.60975e-17
6475.86288 1.66959e-17
6477.33106 1.56590e-17
6478.79923 1.48540e-17
6480.26741 1.52815e-17
6481.74564 1.58007e-17
6483.21382 1.59037e-17
6484.68199 1.52818e-17
6486.15017 1.54364e-17
6487.61834 1.52939e-17
6489.08652 1.53532e-17
6490.56475 1.53397e-17
6492.03293 1.50148e-17
6493.50110 1.58967e-17
6494.96928 1.61393e-17
6496.43746 1.57010e-17
6497.90563 1.63366e-17
6499.38386 1.55054e-17
6500.85204 1.46396e-17
6502.32022 1.53876e-17
6503.78839 1.58161e-17
6505.25657 1.66576e-17
6506.73480 1.59621e-17
6508.20298 1.45336e-17
6509.67115 1.46652e-17
6511.13933 1.43944e-17
6512.60750 1.40714e-17
6514.07568 1.54421e-17
6515.55391 1.54410e-17
6517.02209 1.43192e-17
6518.49026 1.41602e-17
6519.95844 1.46025e-17
6521.42662 1.50418e-17
6522.90485 1.55289e-17
6524.37302 1.52270e-17
6525.84120 1.40154e-17
6527.30938 1.44537e-17
6528.77755 1.54375e-17
6530.24573 1.45665e-17
6531.72396 1.40886e-17
6533.19214 1.47081e-17
6534.66031 1.38277e-17
6536.12849 1.26709e-17
6537.59666 1.35842e-17
6539.07490 1.38834e-17
6540.54307 1.30158e-17
6542.01125 1.29861e-17
6543.47942 1.31619e-17
6544.94760 1.30256e-17
6546.41578 1.33415e-17
6547.89401 1.32578e-17
6549.36218 1.34713e-17
6550.83036 1.60079e-17
6552.29854 1.65537e-17
6553.76671 1.38744e-17
6555.24494 1.27243e-17
6556.71312 1.23219e-17
6558.18130 1.22464e-17
6559.64947 1.17346e-17
6561.11765 1.15160e-17
6562.58582 1.14084e-17
6564.06406 1.05910e-17
6565.53223 1.07482e-17
6567.00041 1.08969e-17
6568.46858 1.09848e-17
6569.93676 1.11071e-17
6571.41499 1.12294e-17
6572.88317 1.13517e-17
6574.35134 1.14740e-17
6575.81952 1.15963e-17
6577.28770 1.17186e-17
6578.75587 1.18408e-17
6580.23410 1.19631e-17
6581.70228 1.20854e-17
6583.17046 1.22077e-17
6584.63863 1.23299e-17
6586.10681 1.24521e-17
6587.58504 1.25744e-17
6589.05322 1.26966e-17
6590.52139 1.28189e-17
6591.98957 1.29411e-17
6593.45774 1.30633e-17
6594.92592 1.31856e-17
6596.40415 1.33078e-17
6597.87233 1.34300e-17
6599.34050 1.35521e-17
6600.80868 1.36744e-17
6602.27686 1.37965e-17
6603.75509 1.39187e-17
6605.22326 1.40409e-17
6606.69144 1.41630e-17
6608.15962 1.42853e-17
6609.62779 1.44074e-17
6611.09597 1.45295e-17
6612.57420 1.46517e-17
6614.04238 1.47738e-17
6615.51055 1.48959e-17
6616.97873 1.50181e-17
6618.44690 1.51402e-17
6619.92514 1.52623e-17
6621.39331 1.53845e-17
6622.86149 1.55065e-17
6624.32966 1.56286e-17
6625.79784 1.57507e-17
6627.26602 1.58728e-17
6628.74425 1.59949e-17
6630.21242 1.61170e-17
6631.68060 1.62569e-17
6633.14878 1.69329e-17
6634.61695 1.71619e-17
6636.08513 1.70539e-17
6637.56336 1.61716e-17
6639.03154 1.55483e-17
6640.49971 1.58316e-17
6641.96789 1.58340e-17
6643.43606 1.64902e-17
6644.91430 1.75868e-17
6646.38247 1.69165e-17
6647.85065 1.61094e-17
6649.31882 1.63384e-17
6650.78700 1.61690e-17
6652.25518 1.62677e-17
6653.73341 1.67343e-17
6655.20158 1.62731e-17
6656.66976 1.54186e-17
6658.13794 1.55728e-17
6659.60611 1.66767e-17
6661.08434 1.76855e-17
6662.55252 1.67890e-17
6664.02070 1.53579e-17
6665.48887 1.64385e-17
6666.95705 1.77647e-17
6668.42522 1.73437e-17
6669.90346 1.66903e-17
6671.37163 1.61369e-17
6672.83981 1.61084e-17
6674.30798 1.58396e-17
6675.77616 1.55414e-17
6677.25439 1.57547e-17
6678.72257 1.66889e-17
6680.19074 1.66153e-17
6681.65892 1.54971e-17
6683.12710 1.61064e-17
6684.60533 1.64402e-17
6686.07350 1.54239e-17
6687.54168 1.59132e-17
6689.00986 1.75327e-17
6690.47803 1.65931e-17
6691.94621 1.52541e-17
6693.42444 1.60066e-17
6694.89262 1.66041e-17
6696.36079 1.65447e-17
6697.82897 1.69903e-17
6699.29714 1.70125e-17
6700.77538 1.68745e-17
6702.24355 1.61008e-17
6703.71173 1.50013e-17
6705.17990 1.50400e-17
6706.64808 1.58886e-17
6708.11626 1.72926e-17
6709.59449 1.65471e-17
6711.06266 1.49802e-17
6712.53084 1.46528e-17
6713.99902 1.46448e-17
6715.46719 1.54177e-17
6716.93537 1.65302e-17
6718.41360 1.70760e-17
6719.88178 1.66158e-17
6721.34995 1.65151e-17
6722.81813 1.69268e-17
6724.28630 1.71865e-17
6725.76454 1.61351e-17
6727.23271 1.52362e-17
6728.70089 1.63032e-17
6730.16906 1.66153e-17
6731.63724 1.60680e-17
6733.10542 1.61161e-17
6734.58365 1.60363e-17
6736.05182 1.60098e-17
6737.52000 1.61445e-17
6738.98818 1.54680e-17
6740.45635 1.45135e-17
6741.93458 1.44154e-17
6743.40276 1.51511e-17
6744.87094 1.65159e-17
6746.33911 1.67485e-17
6747.80729 1.53655e-17
6749.27546 1.54199e-17
6750.75370 1.58833e-17
6752.22187 1.57322e-17
6753.69005 1.79271e-17
6755.15822 2.11039e-17
6756.62640 2.17039e-17
6758.10463 2.06586e-17
6759.57281 1.75705e-17
6761.04098 1.56235e-17
6762.50916 1.65018e-17
6763.97734 1.64395e-17
6765.44551 1.51201e-17
6766.92374 1.47417e-17
6768.39192 1.61513e-17
6769.86010 1.80544e-17
6771.32827 1.93655e-17
6772.79645 1.78084e-17
6774.27468 1.57481e-17
6775.74286 1.58412e-17
6777.21103 1.54872e-17
6778.67921 1.49383e-17
6780.14738 1.49605e-17
6781.61556 1.52987e-17
6783.09379 1.53264e-17
6784.56197 1.46030e-17
6786.03014 1.46858e-17
6787.49832 1.50236e-17
6788.96650 1.47288e-17
6790.44473 1.43441e-17
6791.91290 1.40095e-17
6793.38108 1.33909e-17
6794.84926 1.27535e-17
6796.31743 1.35762e-17
6797.78561 1.45846e-17
6799.26384 1.43547e-17
6800.73202 1.35206e-17
6802.20019 1.31803e-17
6803.66837 1.27136e-17
6805.13654 1.28014e-17
6806.61478 1.30781e-17
6808.08295 1.26747e-17
6809.55113 1.27773e-17
6811.01930 1.38605e-17
6812.48748 1.40516e-17
6813.95566 1.35622e-17
6815.43389 1.38029e-17
6816.90206 1.30672e-17
6818.37024 1.22457e-17
6819.83842 1.29255e-17
6821.30659 1.35135e-17
6822.78482 1.35913e-17
6824.25300 1.33988e-17
6825.72118 1.35982e-17
6827.18935 1.39305e-17
6828.65753 1.48126e-17
6830.12570 1.41286e-17
6831.60394 1.26121e-17
6833.07211 1.29011e-17
6834.54029 1.24211e-17
6836.00846 1.17694e-17
6837.47664 1.12766e-17
6838.95487 1.15071e-17
6840.42305 1.30528e-17
6841.89122 1.36311e-17
6843.35940 1.30849e-17
6844.82758 1.31700e-17
6846.29575 1.32879e-17
6847.77398 1.28582e-17
6849.24216 1.23075e-17
6850.71034 1.22612e-17
6852.17851 1.26772e-17
6853.64669 1.20134e-17
6855.12492 1.13373e-17
6856.59310 1.22945e-17
6858.06127 1.26786e-17
6859.52945 1.16162e-17
6860.99762 1.18785e-17
6862.46580 1.24862e-17
6863.94403 1.13687e-17
6865.41221 1.01328e-17
6866.88038 1.08105e-17
6868.34856 1.16202e-17
6869.81674 1.11482e-17
6871.29497 1.14038e-17
6872.76314 1.23654e-17
6874.23132 1.21868e-17
6875.69950 1.10542e-17
6877.16767 1.09552e-17
6878.63585 1.11943e-17
6880.11408 1.16324e-17
6881.58226 1.14366e-17
6883.05043 1.00753e-17
6884.51861 1.01881e-17
6885.98678 1.17168e-17
6887.45496 1.23430e-17
6888.93319 1.14133e-17
6890.40137 1.11586e-17
6891.86954 1.10855e-17
6893.33772 1.19234e-17
6894.80590 1.19072e-17
6896.28413 1.05156e-17
6897.75230 1.07515e-17
6899.22048 1.15948e-17
6900.68866 1.21904e-17
6902.15683 1.10482e-17
6903.63506 9.29621e-18
6905.10324 1.10198e-17
6906.57142 1.24058e-17
6908.03959 1.24606e-17
6909.50777 1.24962e-17
6910.97594 1.15028e-17
6912.45418 1.06717e-17
6913.92235 1.06683e-17
6915.39053 1.03925e-17
6916.85870 1.02497e-17
6918.32688 1.06228e-17
6919.79506 1.04392e-17
6921.27329 1.08041e-17
6922.74146 1.05475e-17
6924.20964 9.47309e-18
6925.67782 9.70910e-18
6927.14599 1.11888e-17
6928.62422 1.08412e-17
6930.09240 1.01045e-17
6931.56058 1.04381e-17
6933.02875 9.63886e-18
6934.49693 8.88273e-18
6935.97516 9.66076e-18
6937.44334 9.94436e-18
6938.91151 9.16822e-18
6940.37969 8.86002e-18
6941.84786 1.05890e-17
6943.31604 1.07403e-17
6944.79427 1.06920e-17
6946.26245 1.09715e-17
6947.73062 9.39836e-18
6949.19880 9.92518e-18
6950.66698 1.18611e-17
6952.14521 1.24153e-17
6953.61338 1.23084e-17
6955.08156 1.15573e-17
6956.54974 1.13281e-17
6958.01791 1.07359e-17
6959.48609 1.07765e-17
6960.96432 1.21240e-17
6962.43250 1.32784e-17
6963.90067 1.39194e-17
6965.36885 1.37364e-17
6966.83702 1.34977e-17
6968.30520 1.38264e-17
6969.78343 1.39625e-17
6971.25161 1.26004e-17
6972.71978 1.24902e-17
6974.18796 1.27404e-17
6975.65614 1.35453e-17
6977.13437 1.45887e-17
6978.60254 1.43844e-17
6980.07072 1.38654e-17
6981.53890 1.46012e-17
6983.00707 1.55859e-17
6984.47525 1.59558e-17
6985.95348 1.69218e-17
6987.42166 1.64979e-17
6988.88983 1.57731e-17
6990.35801 1.52104e-17
6991.82618 1.46700e-17
6993.30442 1.44789e-17
6994.77259 1.53762e-17
6996.24077 1.63877e-17
6997.70894 1.57229e-17
6999.17712 1.54543e-17
7000.64530 1.53769e-17
7002.12353 1.61023e-17
7003.59170 1.68779e-17
7005.05988 1.60738e-17
7006.52806 1.63349e-17
7007.99623 1.61809e-17
7009.47446 1.56530e-17
7010.94264 1.56163e-17
7012.41082 1.61492e-17
7013.87899 1.50692e-17
7015.34717 1.67220e-17
7016.81534 1.89296e-17
7018.29358 1.66901e-17
7019.76175 1.57439e-17
7021.22993 1.58015e-17
7022.69810 1.53614e-17
7024.16628 1.63598e-17
7025.64451 1.61808e-17
7027.11269 1.52355e-17
7028.58086 1.54104e-17
7030.04904 1.62084e-17
7031.51722 1.60862e-17
7032.99545 1.60321e-17
7034.46362 1.62957e-17
7035.93180 1.66224e-17
7037.39998 1.69183e-17
7038.86815 1.59618e-17
7040.33633 1.53516e-17
7041.81456 1.57768e-17
7043.28274 1.57600e-17
7044.75091 1.62831e-17
7046.21909 1.73685e-17
7047.68726 1.78304e-17
7049.15544 1.69637e-17
7050.63367 1.63732e-17
7052.10185 1.70923e-17
7053.57002 1.65655e-17
7055.03820 1.54372e-17
7056.50638 1.52181e-17
7057.98461 1.64276e-17
7059.45278 1.68807e-17
7060.92096 1.70475e-17
7062.38914 1.70348e-17
7063.85731 1.70233e-17
7065.32549 1.77613e-17
7066.80372 1.81594e-17
7068.27190 1.72028e-17
7069.74007 1.68618e-17
7071.20825 1.78505e-17
7072.67642 1.79593e-17
7074.15466 1.73305e-17
7075.62283 1.68207e-17
7077.09101 1.71834e-17
7078.55918 1.85802e-17
7080.02736 1.85560e-17
7081.49554 1.82999e-17
7082.97377 1.90183e-17
7084.44194 1.97762e-17
7085.91012 1.79353e-17
7087.37830 1.68478e-17
7088.84647 1.79263e-17
7090.32470 1.80305e-17
7091.79288 1.81859e-17
7093.26106 1.90684e-17
7094.72923 1.92462e-17
7096.19741 1.85338e-17
7097.66558 1.82871e-17
7099.14382 1.74279e-17
7100.61199 1.74311e-17
7102.08017 1.77211e-17
7103.54834 1.80563e-17
7105.01652 1.90794e-17
7106.49475 1.91871e-17
7107.96293 1.87269e-17
7109.43110 1.84430e-17
7110.89928 1.84273e-17
7112.36746 1.85131e-17
7113.83563 1.89712e-17
7115.31386 1.92843e-17
7116.78204 1.93689e-17
7118.25022 1.88396e-17
7119.71839 1.89784e-17
7121.18657 1.95267e-17
7122.66480 1.91921e-17
7124.13298 1.88978e-17
7125.60115 1.82055e-17
7127.06933 1.75302e-17
7128.53750 1.85192e-17
7130.00568 1.83029e-17
7131.48391 1.68400e-17
7132.95209 1.78897e-17
7134.42026 1.91229e-17
7135.88844 1.93806e-17
7137.35662 1.93385e-17
7138.83485 1.79559e-17
7140.30302 1.72127e-17
7141.77120 1.75721e-17
7143.23938 1.80451e-17
7144.70755 1.94581e-17
7146.17573 1.88859e-17
7147.65396 1.72260e-17
7149.12214 1.78237e-17
7150.59031 1.85840e-17
7152.05849 1.81291e-17
7153.52666 1.72024e-17
7155.00490 1.72978e-17
7156.47307 1.78763e-17
7157.94125 1.80234e-17
7159.40942 1.79552e-17
7160.87760 1.71147e-17
7162.34578 1.68801e-17
7163.82401 1.82408e-17
7165.29218 1.81036e-17
7166.76036 1.73028e-17
7168.22854 1.73845e-17
7169.69671 1.73035e-17
7171.17494 1.69675e-17
7172.64312 1.69064e-17
7174.11130 1.68903e-17
7175.57947 1.68425e-17
7177.04765 1.77660e-17
7178.51582 1.71783e-17
7179.99406 1.62228e-17
7181.46223 1.74011e-17
7182.93041 1.69913e-17
7184.39858 1.59641e-17
7185.86676 1.64429e-17
7187.33494 1.56035e-17
7188.81317 1.58587e-17
7190.28134 1.76461e-17
7191.74952 1.77774e-17
7193.21770 1.69223e-17
7194.68587 1.64165e-17
7196.16410 1.67699e-17
7197.63228 1.63836e-17
7199.10046 1.61598e-17
7200.56863 1.72707e-17
7202.03681 1.71368e-17
7203.51504 1.71392e-17
7204.98322 1.79772e-17
7206.45139 1.79859e-17
7207.91957 1.56803e-17
7209.38774 1.53838e-17
7210.85592 1.79849e-17
7212.33415 1.83553e-17
7213.80233 1.79761e-17
7215.27050 1.80256e-17
7216.73868 1.78805e-17
7218.20686 1.78473e-17
7219.68509 1.73711e-17
7221.15326 1.83173e-17
7222.62144 2.00998e-17
7224.08962 1.88716e-17
7225.55779 1.74673e-17
7227.02597 1.83904e-17
7228.50420 1.99403e-17
7229.97238 1.91611e-17
7231.44055 1.92208e-17
7232.90873 1.82799e-17
7234.37690 1.75060e-17
7235.85514 1.82313e-17
7237.32331 1.84656e-17
7238.79149 1.81471e-17
7240.25966 1.83123e-17
7241.72784 1.87079e-17
7243.19602 1.87147e-17
7244.67425 1.75191e-17
7246.14242 1.79231e-17
7247.61060 1.87389e-17
7249.07878 1.86455e-17
7250.54695 1.81881e-17
7252.02518 1.86600e-17
7253.49336 1.77462e-17
7254.96154 1.75328e-17
7256.42971 1.86920e-17
7257.89789 1.93856e-17
7259.36606 1.83022e-17
7260.84430 1.69418e-17
7262.31247 1.74696e-17
7263.78065 1.92402e-17
7265.24882 1.90333e-17
7266.71700 1.81875e-17
7268.18518 1.95124e-17
7269.66341 1.97582e-17
7271.13158 1.90161e-17
7272.59976 1.83714e-17
7274.06794 1.93720e-17
7275.53611 1.86677e-17
7277.01434 1.87629e-17
7278.48252 1.91919e-17
7279.95070 1.92987e-17
7281.41887 1.85420e-17
7282.88705 1.81306e-17
7284.35522 1.81290e-17
7285.83346 1.81364e-17
7287.30163 1.91077e-17
7288.76981 1.94785e-17
7290.23798 1.89629e-17
7291.70616 2.04586e-17
7293.18439 1.95499e-17
7294.65257 1.84056e-17
7296.12074 1.95187e-17
7297.58892 1.97896e-17
7299.05710 1.93823e-17
7300.52527 1.95050e-17
7302.00350 1.97238e-17
7303.47168 1.98969e-17
7304.93986 2.06016e-17
7306.40803 2.13122e-17
7307.87621 2.00796e-17
7309.35444 1.87960e-17
7310.82262 2.00230e-17
7312.29079 2.05589e-17
7313.75897 1.95476e-17
7315.22714 1.93372e-17
7316.70538 1.94255e-17
7318.17355 1.99078e-17
7319.64173 1.94865e-17
7321.10990 1.95760e-17
7322.57808 2.02388e-17
7324.04626 1.92031e-17
7325.52449 1.93209e-17
7326.99266 1.89430e-17
7328.46084 1.80000e-17
7329.92902 1.73941e-17
7331.39719 1.84729e-17
7332.86537 1.86763e-17
7334.34360 1.90825e-17
7335.81178 1.96381e-17
7337.27995 1.80152e-17
7338.74813 1.82516e-17
7340.21630 1.93251e-17
7341.69454 1.89033e-17
7343.16271 1.81582e-17
7344.63089 1.74172e-17
7346.09906 1.82666e-17
7347.56724 1.76693e-17
7349.03542 1.68444e-17
7350.51365 1.84747e-17
7351.98182 1.79887e-17
7353.45000 1.59856e-17
7354.91818 1.48068e-17
7356.38635 1.51351e-17
7357.86458 1.69036e-17
7359.33276 1.64083e-17
7360.80094 1.43089e-17
7362.26911 1.43738e-17
7363.73729 1.61316e-17
7365.20546 1.56759e-17
7366.68370 1.44344e-17
7368.15187 1.60700e-17
7369.62005 1.69521e-17
7371.08822 1.51985e-17
7372.55640 1.59343e-17
7374.03463 1.57530e-17
7375.50281 1.28791e-17
7376.97098 1.40180e-17
7378.43916 1.50648e-17
7379.90734 1.45076e-17
7381.37551 1.48336e-17
7382.85374 1.59558e-17
7384.32192 1.52496e-17
7385.79010 1.53545e-17
7387.25827 1.61362e-17
7388.72645 1.50987e-17
7390.20468 1.38299e-17
7391.67286 1.39869e-17
7393.14103 1.57025e-17
7394.60921 1.56544e-17
7396.07738 1.51126e-17
7397.54556 1.47678e-17
7399.02379 1.33709e-17
7400.49197 1.34480e-17
7401.96014 1.32813e-17
7403.42832 1.29720e-17
7404.89650 1.25660e-17
7406.37473 1.25574e-17
7407.84290 1.28201e-17
7409.31108 1.20500e-17
7410.77926 1.28084e-17
7412.24743 1.28708e-17
7413.71561 1.20172e-17
7415.19384 1.22349e-17
7416.66202 1.21357e-17
7418.20361 1.21357e-17
7420.20202 1.21263e-17
7422.21053 1.21467e-17
7424.20894 1.21494e-17
7426.20735 1.20564e-17
7428.20577 1.19803e-17
7430.20418 1.20376e-17
7432.21269 1.21359e-17
7434.21110 1.21748e-17
7436.20952 1.21407e-17
7438.20793 1.21248e-17
7440.21644 1.22010e-17
7442.21485 1.22706e-17
7444.21327 1.22335e-17
7446.21168 1.21629e-17
7448.21009 1.21087e-17
7450.21860 1.20805e-17
7452.21702 1.20480e-17
7454.21543 1.19995e-17
7456.21384 1.19563e-17
7458.22235 1.19487e-17
7460.22076 1.19461e-17
7462.21918 1.19374e-17
7464.21759 1.19113e-17
7466.21601 1.18579e-17
7468.22451 1.17816e-17
7470.22293 1.17088e-17
7472.22134 1.16771e-17
7474.21976 1.16640e-17
7476.21817 1.16929e-17
7478.22668 1.16980e-17
7480.22509 1.15977e-17
7482.22350 1.14074e-17
7484.22192 1.12388e-17
7486.23043 1.12147e-17
7488.22884 1.12210e-17
7490.22725 1.11662e-17
7492.22567 1.11193e-17
7494.22408 1.11471e-17
7496.23259 1.12345e-17
7498.23100 1.13229e-17
7500.22942 1.13589e-17
7502.22783 1.13748e-17
7504.22624 1.13835e-17
7506.23475 1.13734e-17
7508.23317 1.13307e-17
7510.23158 1.12689e-17
7512.22999 1.11978e-17
7514.23850 1.11380e-17
7516.23691 1.10969e-17
7518.23533 1.10985e-17
7520.23374 1.11292e-17
7522.23216 1.12230e-17
7524.24066 1.12996e-17
7526.23908 1.12705e-17
7528.23749 1.11261e-17
7530.23591 1.09694e-17
7532.23432 1.09077e-17
7534.24283 1.08821e-17
7536.24124 1.08877e-17
7538.23965 1.09056e-17
7540.23807 1.09217e-17
7542.24658 1.09299e-17
7544.24499 1.09430e-17
7546.24340 1.09654e-17
7548.24182 1.09815e-17
7550.24023 1.09816e-17
7552.24874 1.09536e-17
7554.24715 1.08722e-17
7556.24557 1.07620e-17
7558.24398 1.06463e-17
7560.24239 1.05629e-17
7562.25090 1.05186e-17
7564.24932 1.05789e-17
7566.24773 1.06354e-17
7568.24614 1.05964e-17
7570.25465 1.05060e-17
7572.25306 1.04281e-17
7574.25148 1.03966e-17
7576.24989 1.03778e-17
7578.24831 1.03561e-17
7580.25681 1.03185e-17
7582.25523 1.02254e-17
7584.25364 1.01237e-17
7586.25206 1.00801e-17
7588.26056 1.00628e-17
7590.25898 9.96943e-18
7592.25739 9.70809e-18
7594.25580 9.43756e-18
7596.25422 9.30774e-18
7598.26273 9.26263e-18
7600.26114 9.30872e-18
7602.25955 9.38310e-18
7604.25797 9.44333e-18
7606.25638 9.41886e-18
7608.26489 9.32213e-18
7610.26330 9.03591e-18
7612.26172 8.79838e-18
7614.26013 8.81440e-18
7616.26864 8.99388e-18
7618.26705 9.21718e-18
7620.26547 9.35660e-18
7622.26388 9.40756e-18
7624.26229 9.26620e-18
7626.27080 9.08363e-18
7628.26921 8.97291e-18
7630.26763 8.90650e-18
7632.26604 8.83879e-18
7634.27455 8.77001e-18
7636.27296 8.73750e-18
7638.27138 8.77229e-18
7640.26979 8.80635e-18
7642.26821 8.76928e-18
7644.27671 8.69328e-18
7646.27513 8.58004e-18
7648.27354 8.46697e-18
7650.27195 8.39373e-18
7652.27037 8.38885e-18
7654.27888 8.37934e-18
7656.27729 8.25131e-18
7658.27570 8.11610e-18
7660.27412 8.02990e-18
7662.28262 8.00173e-18
7664.28104 8.01617e-18
7666.27945 8.06031e-18
7668.27787 8.12061e-18
7670.27628 8.16970e-18
7672.28479 8.22725e-18
7674.28320 8.32837e-18
7676.28162 8.41226e-18
7678.28003 8.41186e-18
7680.27844 8.32244e-18
7682.28695 8.21449e-18
7684.28536 8.15856e-18
7686.28378 8.12001e-18
7688.28219 8.09815e-18
7690.29070 8.08512e-18
7692.28911 8.06467e-18
7694.28753 8.05322e-18
7696.28594 8.08781e-18
7698.28436 8.18921e-18
7700.29286 8.28626e-18
7702.29128 8.29090e-18
7704.28969 8.24814e-18
7706.28810 8.14824e-18
7708.29661 8.04404e-18
7710.29503 7.98019e-18
7712.29344 7.99631e-18
7714.29185 8.04747e-18
7716.29027 8.10361e-18
7718.29877 8.16807e-18
7720.29719 8.23652e-18
7722.29560 8.30138e-18
7724.29402 8.35463e-18
7726.29243 8.39861e-18
7728.30094 8.44478e-18
7730.29935 8.50639e-18
7732.29777 8.59646e-18
7734.29618 8.74563e-18
7736.30469 8.92511e-18
7738.30310 9.13086e-18
7740.30151 9.32091e-18
7742.29993 9.46471e-18
7744.29834 9.51852e-18
7746.30685 9.52998e-18
7748.30526 9.50129e-18
7750.30368 9.50227e-18
7752.30209 9.60737e-18
7754.30051 9.78987e-18
7756.30901 9.99398e-18
7758.30743 1.01616e-17
7760.30584 1.02991e-17
7762.30425 1.03651e-17
7764.31276 1.04060e-17
7766.31118 1.04446e-17
7768.30959 1.04857e-17
7770.30800 1.05183e-17
7772.30642 1.05511e-17
7774.31492 1.05995e-17
7776.31334 1.06887e-17
7778.31175 1.07910e-17
7780.31017 1.09049e-17
7782.30858 1.09972e-17
7784.31709 1.10325e-17
7786.31550 1.10177e-17
7788.31392 1.09915e-17
7790.31233 1.09954e-17
7792.32084 1.10193e-17
7794.31925 1.11024e-17
7796.31766 1.11716e-17
7798.31608 1.11597e-17
7800.31449 1.10843e-17
7802.32300 1.09988e-17
7804.32141 1.09516e-17
7806.31983 1.09250e-17
7808.31824 1.09644e-17
7810.32675 1.09686e-17
7812.32516 1.08335e-17
7814.32358 1.06302e-17
7816.32199 1.04331e-17
7818.32040 1.03291e-17
7820.32891 1.03187e-17
7822.32733 1.04729e-17
7824.32574 1.06697e-17
7826.32415 1.08378e-17
7828.32257 1.09429e-17
7830.33107 1.09536e-17
7832.32949 1.08847e-17
7834.32790 1.07909e-17
7836.32632 1.07368e-17
7838.33482 1.07144e-17
7840.33324 1.07521e-17
7842.33165 1.08328e-17
7844.33007 1.09738e-17
7846.32848 1.11193e-17
7848.33699 1.12117e-17
7850.33540 1.11926e-17
7852.33381 1.11337e-17
7854.33223 1.10727e-17
7856.33064 1.10436e-17
7858.33915 1.11339e-17
7860.33756 1.12461e-17
7862.33598 1.12534e-17
7864.33439 1.10907e-17
7866.34290 1.08787e-17
7868.34131 1.07149e-17
7870.33973 1.06115e-17
7872.33814 1.06350e-17
7874.33655 1.07437e-17
7876.34506 1.09208e-17
7878.34348 1.11002e-17
7880.34189 1.12393e-17
7882.34030 1.12552e-17
7884.34881 1.12156e-17
7886.34722 1.11259e-17
7888.34564 1.10489e-17
7890.34405 1.10556e-17
7892.34247 1.11211e-17
7894.35097 1.11673e-17
7896.34939 1.11202e-17
7898.34780 1.10246e-17
7900.34622 1.08786e-17
7902.34463 1.07153e-17
7904.35314 1.05480e-17
7906.35155 1.04058e-17
7908.34996 1.02941e-17
7910.34838 1.02370e-17
7912.35689 1.02361e-17
7914.35530 1.03184e-17
7916.35371 1.04447e-17
7918.35213 1.06187e-17
7920.35054 1.07782e-17
7922.35905 1.08760e-17
7924.35746 1.08827e-17
7926.35588 1.08353e-17
7928.35429 1.07553e-17
7930.35270 1.06763e-17
7932.36121 1.06401e-17
7934.35963 1.06491e-17
7936.35804 1.07167e-17
7938.35645 1.08225e-17
7940.36496 1.09386e-17
7942.36337 1.10277e-17
7944.36179 1.10994e-17
7946.36020 1.11679e-17
7948.35862 1.11791e-17
7950.36712 1.10665e-17
7952.36554 1.08743e-17
7954.36395 1.06484e-17
7956.36237 1.04742e-17
7958.37087 1.03886e-17
7960.36929 1.05593e-17
7962.36770 1.07630e-17
7964.36611 1.08813e-17
7966.36453 1.08783e-17
7968.37304 1.07322e-17
7970.37145 1.04917e-17
7972.36986 1.02779e-17
7974.36828 1.02714e-17
7976.36669 1.02910e-17
7978.37520 1.02117e-17
7980.37361 1.00884e-17
7982.37203 9.95106e-18
7984.37044 9.85847e-18
7986.37895 9.85595e-18
7988.37736 1.00007e-17
7990.37578 1.01572e-17
7992.37419 1.01520e-17
7994.37260 1.01185e-17
7996.38111 1.01654e-17
7998.37952 1.02604e-17
8000.37794 1.03026e-17
8002.37635 1.02283e-17
8004.37477 1.01264e-17
8006.38327 1.00878e-17
8008.38169 1.00567e-17
8010.38010 9.99715e-18
8012.37852 9.94944e-18
8014.38702 9.97683e-18
8016.38544 1.00833e-17
8018.38385 1.01861e-17
8020.38226 1.01871e-17
8022.38068 1.01297e-17
8024.38919 9.98089e-18
8026.38760 9.81954e-18
8028.38601 9.70988e-18
8030.38443 9.68224e-18
8032.39293 9.69354e-18
8034.39135 9.71662e-18
8036.38976 9.74020e-18
8038.38818 9.74101e-18
8040.38659 9.71711e-18
8042.39510 9.66232e-18
8044.39351 9.58095e-18
8046.39193 9.46268e-18
8048.39034 9.32969e-18
8050.38875 9.25051e-18
8052.39726 9.39163e-18
8054.39567 9.56673e-18
8056.39409 9.68703e-18
8058.39250 9.71053e-18
8060.40101 9.63355e-18
8062.39942 9.47016e-18
8064.39784 9.28872e-18
8066.39625 9.19304e-18
8068.39467 9.10525e-18
8070.40317 8.96633e-18
8072.40159 8.83578e-18
8074.40000 8.78083e-18
8076.39841 8.81359e-18
8078.39683 8.87805e-18
8080.40534 8.92162e-18
8082.40375 8.93861e-18
8084.40216 8.87992e-18
8086.40058 8.79213e-18
8088.40908 8.68612e-18
8090.40750 8.61589e-18
8092.40591 8.62288e-18
8094.40433 8.75132e-18
8096.40274 8.91325e-18
8098.41125 9.01656e-18
8100.40966 9.09972e-18
8102.40808 9.18223e-18
8104.40649 9.24531e-18
8106.40490 9.26555e-18
8108.41341 9.22556e-18
8110.41182 9.14402e-18
8112.41024 9.02347e-18
8114.40865 8.89585e-18
8116.41716 8.79237e-18
8118.41557 8.70913e-18
8120.41399 8.62979e-18
8122.41240 8.55655e-18
8124.41082 8.50314e-18
8126.41932 8.48583e-18
8128.41774 8.49737e-18
8130.41615 8.55427e-18
8132.41456 8.61752e-18
8134.42307 8.65727e-18
8136.42149 8.66084e-18
8138.41990 8.63873e-18
8140.41831 8.60175e-18
8142.41673 8.58264e-18
8144.42523 8.65426e-18
8146.42365 8.74075e-18
8148.42206 8.80416e-18
8150.42048 8.81789e-18
8152.41889 8.77310e-18
8154.42740 8.67450e-18
8156.42581 8.57533e-18
8158.42423 8.56996e-18
8160.42264 8.57256e-18
8162.43115 8.55305e-18
8164.42956 8.48705e-18
8166.42797 8.34512e-18
8168.42639 8.15019e-18
8170.42480 7.97637e-18
8172.43331 7.92709e-18
8174.43172 7.92671e-18
8176.43014 7.96191e-18
8178.42855 7.99314e-18
8180.43706 7.98671e-18
8182.43547 7.93789e-18
8184.43389 7.87726e-18
8186.43230 7.83379e-18
8188.43071 7.81254e-18
8190.43922 7.83028e-18
8192.43764 7.89317e-18
8194.43605 8.02823e-18
8196.43446 8.19872e-18
8198.43288 8.36967e-18
8200.44138 8.48786e-18
8202.43980 8.55525e-18
8204.43821 8.53013e-18
8206.43663 8.44697e-18
8208.44513 8.29773e-18
8210.44355 8.13125e-18
8212.44196 7.97813e-18
8214.44038 7.87885e-18
8216.43879 7.81744e-18
8218.44730 7.79954e-18
8220.44571 7.82666e-18
8222.44412 7.93556e-18
8224.44254 8.05205e-18
8226.44095 8.11682e-18
8228.44946 8.09706e-18
8230.44787 8.02747e-18
8232.44629 7.92596e-18
8234.44470 7.80994e-18
8236.45321 7.70538e-18
8238.45162 7.61323e-18
8240.45004 7.53733e-18
8242.44845 7.47646e-18
8244.44686 7.42524e-18
8246.45537 7.37873e-18
8248.45378 7.33872e-18
8250.45220 7.29050e-18
8252.45061 7.26931e-18
8254.45912 7.32862e-18
8256.45753 7.41143e-18
8258.45595 7.45125e-18
8260.45436 7.39823e-18
8262.45278 7.29861e-18
8264.46128 7.16621e-18
8266.45970 7.04632e-18
8268.45811 7.01709e-18
8270.45653 7.00861e-18
8272.45494 6.93185e-18
8274.46345 6.78372e-18
8276.46186 6.65328e-18
8278.46027 6.63217e-18
8280.45869 6.67335e-18
8282.46720 6.81301e-18
8284.46561 6.94947e-18
8286.46402 6.99040e-18
8288.46244 6.93680e-18
8290.46085 6.87285e-18
8292.46936 6.85755e-18
8294.46777 6.82666e-18
8296.46619 6.71415e-18
8298.46460 6.57995e-18
8300.46301 6.44810e-18
8302.47152 6.34114e-18
8304.46994 6.26267e-18
8306.46835 6.22160e-18
8308.46676 6.20576e-18
8310.47527 6.22091e-18
8312.47368 6.21439e-18
8314.47210 6.12428e-18
8316.47051 5.98826e-18
8318.46893 5.84400e-18
8320.47743 5.72675e-18
8322.47585 5.63018e-18
8324.47426 5.56931e-18
8326.47268 5.52450e-18
8328.47109 5.48992e-18
8330.47960 5.44894e-18
8332.47801 5.37042e-18
8334.47642 5.28201e-18
8336.47484 5.24847e-18
8338.48335 5.32150e-18
8340.48176 5.38602e-18
8342.48017 5.29905e-18
8344.47859 5.16331e-18
8346.47700 5.03916e-18
8348.48551 4.92864e-18
8350.48392 4.78084e-18
8352.48234 4.59479e-18
8354.48075 4.44134e-18
8356.48926 4.44511e-18
8358.48767 4.48349e-18
8360.48609 4.50749e-18
8362.48450 4.48814e-18
8364.48291 4.41021e-18
8366.49142 4.28162e-18
8368.48983 4.15186e-18
8370.48825 4.08601e-18
8372.48666 4.03190e-18
8374.48508 3.96355e-18
8376.49358 3.88593e-18
8378.49200 3.79777e-18
8380.49041 3.71380e-18
8382.48883 3.65086e-18
8384.49733 3.63107e-18
8386.49575 3.63130e-18
8388.49416 3.64137e-18
8390.49257 3.65163e-18
8392.49099 3.65611e-18
8394.49950 3.64707e-18
8396.49791 3.61195e-18
8398.49632 3.55762e-18
8400.49474 3.53038e-18
8402.50324 3.63404e-18
8404.50166 3.75511e-18
8406.50007 3.82309e-18
8408.49849 3.85786e-18
8410.49690 3.91187e-18
8412.50541 3.99949e-18
8414.50382 4.07635e-18
8416.50224 4.09154e-18
8418.50065 4.10116e-18
8420.49906 4.15519e-18
8422.50757 4.21479e-18
8424.50598 4.23777e-18
8426.50440 4.21624e-18
8428.50281 4.17964e-18
8430.51132 4.15472e-18
8432.50973 4.14997e-18
8434.50815 4.20286e-18
8436.50656 4.27469e-18
8438.50497 4.33263e-18
8440.51348 4.37937e-18
8442.51190 4.44354e-18
8444.51031 4.54259e-18
8446.50872 4.65132e-18
8448.50714 4.75094e-18
8450.51564 4.83927e-18
8452.51406 4.88636e-18
8454.51247 4.93869e-18
8456.51089 5.05577e-18
8458.51939 5.26096e-18
8460.51781 5.48362e-18
8462.51622 5.65234e-18
8464.51464 5.78402e-18
8466.51305 5.86706e-18
8468.52156 5.90226e-18
8470.51997 5.88155e-18
8472.51839 5.82352e-18
8474.51680 5.74873e-18
8476.52531 5.69104e-18
8478.52372 5.66732e-18
8480.52213 5.74624e-18
8482.52055 5.84209e-18
8484.51896 5.88801e-18
8486.52747 5.86686e-18
8488.52588 5.81154e-18
8490.52430 5.75012e-18
8492.52271 5.70624e-18
8494.52113 5.72364e-18
8496.52963 5.79644e-18
8498.52805 5.96175e-18
8500.52646 6.15636e-18
8502.52487 6.31364e-18
8504.53338 6.37711e-18
8506.53180 6.40285e-18
8508.53021 6.41625e-18
8510.52862 6.44243e-18
8512.52704 6.53785e-18
8514.53554 6.64814e-18
8516.53396 6.72338e-18
8518.53237 6.72274e-18
8520.53079 6.66043e-18
8522.52920 6.52470e-18
8524.53771 6.38962e-18
8526.53612 6.32299e-18
8528.53454 6.32536e-18
8530.53295 6.42468e-18
8532.54146 6.56870e-18
8534.53987 6.67638e-18
8536.53828 6.66362e-18
8538.53670 6.64428e-18
8540.53511 6.73670e-18
8542.54362 6.85505e-18
8544.54203 6.94234e-18
8546.54045 7.00861e-18
8548.53886 7.09590e-18
8550.53728 7.22970e-18
8552.54578 7.38345e-18
8554.54420 7.55310e-18
8556.54261 7.70179e-18
8558.54102 7.78558e-18
8560.54953 7.82746e-18
8562.54795 7.85369e-18
8564.54636 7.89129e-18
8566.54477 7.93508e-18
8568.54319 7.99343e-18
8570.55169 8.08620e-18
8572.55011 8.25993e-18
8574.54852 8.45990e-18
8576.54694 8.63556e-18
8578.54535 8.77530e-18
8580.55386 8.91950e-18
8582.55227 9.09745e-18
8584.55069 9.28222e-18
8586.54910 9.47617e-18
8588.55761 9.63851e-18
8590.55602 9.70419e-18
8592.55443 9.72930e-18
8594.55285 9.81263e-18
8596.55126 1.00219e-17
8598.55977 1.02458e-17
8600.55818 1.03473e-17
8602.55660 1.04363e-17
8604.55501 1.05759e-17
8606.55343 1.07327e-17
8608.56193 1.08459e-17
8610.56035 1.08960e-17
8612.55876 1.09364e-17
8614.55717 1.10190e-17
8616.56568 1.11300e-17
8618.56409 1.12958e-17
8620.56251 1.14738e-17
8622.56092 1.16179e-17
8624.55934 1.17264e-17
8626.56784 1.18528e-17
8628.56626 1.20443e-17
8630.56467 1.22293e-17
8632.56309 1.23126e-17
8634.57159 1.23947e-17
8636.57001 1.25672e-17
8638.56842 1.28129e-17
8640.56684 1.30463e-17
8642.56525 1.32083e-17
8644.57376 1.33723e-17
8646.57217 1.36195e-17
8648.57058 1.38790e-17
8650.56900 1.41599e-17
8652.56741 1.43689e-17
8654.57592 1.44040e-17
8656.57433 1.42397e-17
8658.57275 1.40335e-17
8660.57116 1.39684e-17
8662.57967 1.39730e-17
8664.57808 1.40792e-17
8666.57650 1.42243e-17
8668.57491 1.43616e-17
8670.57332 1.44513e-17
8672.58183 1.45231e-17
8674.58025 1.45833e-17
8676.57866 1.45864e-17
8678.57707 1.44476e-17
8680.57549 1.42632e-17
8682.58399 1.40955e-17
8684.58241 1.39870e-17
8686.58082 1.39147e-17
8688.57924 1.38864e-17
8690.58774 1.39101e-17
8692.58616 1.40317e-17
8694.58457 1.41700e-17
8696.58299 1.42699e-17
8698.58140 1.43243e-17
8700.58991 1.43571e-17
8702.58832 1.43829e-17
8704.58673 1.44048e-17
8706.58515 1.44388e-17
8708.59366 1.44722e-17
8710.59207 1.45045e-17
8712.59048 1.45257e-17
8714.58890 1.45004e-17
8716.58731 1.44654e-17
8718.59582 1.45026e-17
8720.59423 1.47294e-17
8722.59265 1.50156e-17
8724.59106 1.53186e-17
8726.58947 1.55558e-17
8728.59798 1.56418e-17
8730.59640 1.55935e-17
8732.59481 1.55157e-17
8734.59322 1.55015e-17
8736.60173 1.54670e-17
8738.60014 1.53419e-17
8740.59856 1.51848e-17
8742.59697 1.50038e-17
8744.59539 1.48562e-17
8746.60389 1.47851e-17
8748.60231 1.48272e-17
8750.60072 1.49169e-17
8752.59914 1.50086e-17
8754.60764 1.50718e-17
8756.60606 1.50603e-17
8758.60447 1.49834e-17
8760.60288 1.48503e-17
8762.60130 1.46927e-17
8764.60981 1.45360e-17
8766.60822 1.44280e-17
8768.60663 1.43639e-17
8770.60505 1.43775e-17
8772.60346 1.44250e-17
8774.61197 1.44780e-17
8776.61038 1.45075e-17
8778.60880 1.45192e-17
8780.60721 1.45023e-17
8782.61572 1.44680e-17
8784.61413 1.44013e-17
8786.61254 1.43543e-17
8788.61096 1.43689e-17
8790.60937 1.44489e-17
8792.61788 1.45754e-17
8794.61629 1.47250e-17
8796.61471 1.48772e-17
8798.61312 1.50124e-17
8800.61154 1.50849e-17
8802.62004 1.50397e-17
8804.61846 1.48990e-17
8806.61687 1.46815e-17
8808.61529 1.44391e-17
8810.62379 1.42115e-17
8812.62221 1.40913e-17
8814.62062 1.39784e-17
8816.61903 1.37987e-17
8818.61745 1.35897e-17
8820.62596 1.33676e-17
8822.62437 1.31884e-17
8824.62278 1.30873e-17
8826.62120 1.31311e-17
8828.62970 1.32723e-17
8830.62812 1.35829e-17
8832.62653 1.38489e-17
8834.62495 1.38639e-17
8836.62336 1.36648e-17
8838.63187 1.34353e-17
8840.63028 1.33293e-17
8842.62870 1.32520e-17
8844.62711 1.31921e-17
8846.62552 1.31147e-17
8848.63403 1.29519e-17
8850.63244 1.27752e-17
8852.63086 1.26923e-17
8854.62927 1.27390e-17
8856.63778 1.27852e-17
8858.63619 1.26776e-17
8860.63461 1.25204e-17
8862.63302 1.23408e-17
8864.63144 1.21608e-17
8866.63994 1.19886e-17
8868.63836 1.18347e-17
8870.63677 1.16891e-17
8872.63518 1.15473e-17
8874.63360 1.14101e-17
8876.64211 1.12613e-17
8878.64052 1.11350e-17
8880.63893 1.10706e-17
8882.63735 1.10533e-17
8884.64585 1.10420e-17
8886.64427 1.09946e-17
8888.64268 1.09326e-17
8890.64110 1.08400e-17
8892.63951 1.07608e-17
8894.64802 1.07323e-17
8896.64643 1.07477e-17
8898.64485 1.07965e-17
8900.64326 1.08448e-17
8902.65177 1.08549e-17
8904.65018 1.07301e-17
8906.64859 1.05850e-17
8908.64701 1.04507e-17
8910.64542 1.04034e-17
8912.65393 1.05406e-17
8914.65234 1.08217e-17
8916.65076 1.10731e-17
8918.64917 1.10759e-17
8920.64759 1.09439e-17
8922.65609 1.06547e-17
8924.65451 1.03067e-17
8926.65292 9.97504e-18
8928.65133 9.69175e-18
8930.65984 9.38651e-18
8932.65826 9.03819e-18
8934.65667 8.76400e-18
8936.65508 8.75270e-18
8938.65350 8.83188e-18
8940.66200 8.91959e-18
8942.66042 8.95170e-18
8944.65883 8.92162e-18
8946.65725 8.81708e-18
8948.66575 8.70328e-18
8950.66417 8.68523e-18
8952.66258 8.66206e-18
8954.66100 8.55305e-18
8956.65941 8.42218e-18
8958.66792 8.36983e-18
8960.66633 8.40755e-18
8962.66474 8.41324e-18
8964.66316 8.23806e-18
8966.66157 8.05866e-18
8968.67008 8.02864e-18
8970.66849 8.04626e-18
8972.66691 8.01756e-18
8974.66532 7.90686e-18
8976.67383 7.76339e-18
8978.67224 7.61472e-18
8980.67066 7.45830e-18
8982.66907 7.27828e-18
8984.66748 7.13777e-18
8986.67599 7.11138e-18
8988.67441 7.15908e-18
8990.67282 7.19890e-18
8992.67123 7.16125e-18
8994.66965 7.10440e-18
8996.67815 7.05933e-18
8998.67657 7.02257e-18
9000.67498 6.98491e-18
9002.67340 6.98016e-18
9004.68190 7.06339e-18
9006.68032 7.22131e-18
9008.67873 7.35378e-18
9010.67714 7.32189e-18
9012.67556 7.22530e-18
9014.68407 7.08193e-18
9016.68248 6.93875e-18
9018.68089 6.83857e-18
9020.67931 6.78187e-18
9022.67772 6.70485e-18
9024.68623 6.55020e-18
9026.68464 6.41665e-18
9028.68306 6.41458e-18
9030.68147 6.46345e-18
9032.68998 6.50514e-18
9034.68839 6.52937e-18
9036.68681 6.57262e-18
9038.68522 6.65094e-18
9040.68363 6.73728e-18
9042.69214 6.80174e-18
9044.69056 6.86266e-18
9046.68897 6.93086e-18
9048.68738 6.99897e-18
9050.68580 7.05235e-18
9052.69430 7.08861e-18
9054.69272 7.12919e-18
9056.69113 7.21186e-18
9058.68955 7.27481e-18
9060.69805 7.24013e-18
9062.69647 7.18669e-18
9064.69488 7.20560e-18
9066.69330 7.31381e-18
9068.69171 7.42758e-18
9070.70022 7.46827e-18
9072.69863 7.47667e-18
9074.69704 7.44615e-18
9076.69546 7.40786e-18
9078.69387 7.36798e-18
9080.70238 7.36655e-18
9082.70079 7.43976e-18
9084.69921 7.61761e-18
9086.69762 7.80582e-18
9088.70613 7.90619e-18
9090.70454 7.93754e-18
9092.70296 7.87033e-18
9094.70137 7.74960e-18
9096.69978 7.61209e-18
9098.70829 7.51691e-18
9100.70671 7.46828e-18
9102.70512 7.52537e-18
9104.70353 7.62131e-18
9106.70195 7.72253e-18
9108.71045 7.81998e-18
9110.70887 7.93032e-18
9112.70728 8.03307e-18
9114.70570 8.09585e-18
9116.71420 8.06719e-18
9118.71262 8.02473e-18
9120.71103 8.05221e-18
9122.70945 8.08267e-18
9124.70786 8.06491e-18
9126.71637 7.97190e-18
9128.71478 7.81020e-18
9130.71319 7.58725e-18
9132.71161 7.37793e-18
9134.72012 7.29380e-18
9136.71853 7.27219e-18
9138.71694 7.31311e-18
9140.71536 7.35044e-18
9142.71377 7.31855e-18
9144.72228 7.17828e-18
9146.72069 7.03586e-18
9148.71911 7.00685e-18
9150.71752 7.05565e-18
9152.71593 7.25770e-18
9154.72444 7.47242e-18
9156.72286 7.55095e-18
9158.72127 7.43318e-18
9160.71968 7.27195e-18
9162.72819 7.21016e-18
9164.72660 7.17697e-18
9166.72502 7.15837e-18
9168.72343 7.16295e-18
9170.72185 7.20976e-18
9172.73035 7.28340e-18
9174.72877 7.35793e-18
9176.72718 7.39878e-18
9178.72559 7.41466e-18
9180.73410 7.37787e-18
9182.73252 7.33753e-18
9184.73093 7.32254e-18
9186.72934 7.35365e-18
9188.72776 7.43810e-18
9190.73626 7.56992e-18
9192.73468 7.69494e-18
9194.73309 7.70052e-18
9196.73151 7.70059e-18
9198.72992 7.77782e-18
9200.73843 7.88406e-18
9202.73684 7.93316e-18
9204.73526 7.89996e-18
9206.73367 7.87314e-18
9208.74218 7.95732e-18
9210.74059 8.04626e-18
9212.73901 8.05113e-18
9214.73742 8.03985e-18
9216.73583 8.08581e-18
9218.74434 8.20693e-18
9220.74275 8.35430e-18
9222.74117 8.48632e-18
9224.73958 8.58614e-18
9226.73800 8.59280e-18
9228.74650 8.56509e-18
9230.74492 8.55224e-18
9232.74333 8.55249e-18
9234.74175 8.52241e-18
9236.75025 8.43844e-18
9238.74867 8.34552e-18
9240.74708 8.27838e-18
9242.74549 8.24830e-18
9244.74391 8.28399e-18
9246.75242 8.36625e-18
9248.75083 8.47884e-18
9250.74924 8.58663e-18
9252.74766 8.66922e-18
9254.75616 8.65873e-18
9256.75458 8.65515e-18
9258.75299 8.75685e-18
9260.75141 8.89114e-18
9262.74982 8.98876e-18
9264.75833 8.99884e-18
9266.75674 8.94267e-18
9268.75516 8.81326e-18
9270.75357 8.66182e-18
9272.75198 8.52720e-18
9274.76049 8.43177e-18
9276.75890 8.39438e-18
9278.75732 8.41917e-18
9280.75573 8.50363e-18
9282.76424 8.62792e-18
9284.76265 8.72750e-18
9286.76107 8.66775e-18
9288.75948 8.57695e-18
9290.75790 8.54655e-18
9292.76640 8.55232e-18
9294.76482 8.50835e-18
9296.76323 8.38918e-18
9298.76164 8.28675e-18
9300.76006 8.30520e-18
9302.76857 8.40673e-18
9304.76698 8.68677e-18
9306.76539 8.94739e-18
9308.76381 8.99218e-18
9310.77231 8.74734e-18
9312.77073 8.38088e-18
9314.76914 8.02687e-18
9316.76756 7.81252e-18
9318.76597 8.08372e-18
9320.77448 8.46087e-18
9322.77289 8.61451e-18
9324.77131 8.46795e-18
9326.76972 8.24448e-18
9328.77823 8.10267e-18
9330.77664 7.97976e-18
9332.77505 7.85621e-18
9334.77347 7.80342e-18
9336.77188 7.92630e-18
9338.78039 8.13499e-18
9340.77880 8.32634e-18
9342.77722 8.36064e-18
9344.77563 8.24017e-18
9346.77405 7.70549e-18
9348.78255 7.27048e-18
9350.78097 7.40862e-18
9352.77938 7.86120e-18
9354.77779 8.28098e-18
9356.78630 8.43356e-18
9358.78471 8.48453e-18
9360.78313 8.47908e-18
9362.78154 8.41665e-18
9364.77996 8.29147e-18
9366.78846 8.15612e-18
9368.78688 7.99047e-18
9370.78529 7.91489e-18
9372.78371 8.07897e-18
9374.79221 8.64914e-18
9376.79063 9.24222e-18
9378.78904 9.49471e-18
9380.78746 9.49040e-18
9382.78587 9.16451e-18
9384.79438 8.69190e-18
9386.79279 8.25351e-18
9388.79120 8.05184e-18
9390.78962 7.93840e-18
9392.78803 7.83625e-18
9394.79654 7.78478e-18
9396.79495 7.82234e-18
9398.79337 7.88701e-18
9400.79178 7.88684e-18
9402.80029 7.81687e-18
9404.79870 7.82258e-18
9406.79712 8.11666e-18
9408.79553 8.41893e-18
9410.79394 8.52062e-18
9412.80245 8.49054e-18
9414.80086 8.41576e-18
9416.79928 8.33284e-18
9418.79769 8.19091e-18
9420.79611 7.97000e-18
9422.80461 7.79656e-18
9424.80303 7.84916e-18
9426.80144 7.99335e-18
9428.79986 8.17953e-18
9430.80836 8.29960e-18
9432.80678 8.28204e-18
9434.80519 8.06132e-18
9436.80361 7.81563e-18
9438.80202 7.74797e-18
9440.81053 7.77662e-18
9442.80894 7.95698e-18
9444.80735 8.14913e-18
9446.80577 8.20839e-18
9448.81428 8.04506e-18
9450.81269 7.81011e-18
9452.81110 7.59871e-18
9454.80952 7.52158e-18
9456.80793 7.88042e-18
9458.81644 8.31008e-18
9460.81485 8.41551e-18
9462.81327 8.09589e-18
9464.81168 7.69564e-18
9466.81009 7.52295e-18
9468.81860 7.50948e-18
9470.81702 7.79794e-18
9472.81543 8.20806e-18
9474.81384 8.68043e-18
9476.82235 9.02754e-18
9478.82076 9.14004e-18
9480.81918 8.86854e-18
9482.81759 8.45315e-18
9484.81601 8.04558e-18
9486.82451 7.74638e-18
9488.82293 7.72105e-18
9490.82134 7.88166e-18
9492.81976 8.10737e-18
9494.81817 8.23245e-18
9496.82668 8.22570e-18
9498.82509 7.86356e-18
9500.82350 7.44864e-18
9502.82192 7.14167e-18
9504.83043 6.99767e-18
9506.82884 7.03905e-18
9508.82725 7.22984e-18
9510.82567 7.46591e-18
9512.82408 7.61023e-18
9514.83259 7.67857e-18
9516.83100 7.55150e-18
9518.82942 7.40722e-18
9520.82783 7.42987e-18
9522.82624 7.60171e-18
9524.83475 7.74499e-18
9526.83317 7.69576e-18
9528.83158 7.55598e-18
9530.82999 7.29783e-18
9532.83850 7.06244e-18
9534.83691 6.99348e-18
9536.83533 7.04135e-18
9538.83374 7.07788e-18
9540.83216 7.00431e-18
9542.84066 6.89314e-18
9544.83908 6.74609e-18
9546.83749 6.63949e-18
9548.83591 6.66731e-18
9550.83432 6.76987e-18
9552.84283 6.88623e-18
9554.84124 6.94498e-18
9556.83965 6.94318e-18
9558.83807 6.82456e-18
9560.84658 6.67661e-18
9562.84499 6.57219e-18
9564.84340 6.48397e-18
9566.84182 6.38036e-18
9568.84023 6.25499e-18
9570.84874 6.11874e-18
9572.84715 5.98358e-18
9574.84557 5.88000e-18
9576.84398 5.84107e-18
9578.84239 5.87897e-18
9580.85090 6.05010e-18
9582.84931 6.27608e-18
9584.84773 6.46864e-18
9586.84614 6.52296e-18
9588.85465 6.48989e-18
9590.85306 6.32281e-18
9592.85148 6.14189e-18
9594.84989 6.01029e-18
9596.84831 5.97586e-18
9598.85681 6.07158e-18
9600.85523 6.27804e-18
9602.85364 6.49307e-18
9604.85206 6.57821e-18
9606.86056 6.59160e-18
9608.85898 6.47169e-18
9610.85739 6.35697e-18
9612.85580 6.39149e-18
9614.85422 6.58511e-18
9616.86273 6.79401e-18
9618.86114 6.87613e-18
9620.85955 6.86957e-18
9622.85797 6.68408e-18
9624.85638 6.47366e-18
9626.86489 6.34748e-18
9628.86330 6.34885e-18
9630.86172 6.45219e-18
9632.86013 6.61940e-18
9634.86864 6.74095e-18
9636.86705 6.54362e-18
9638.86547 6.34266e-18
9640.86388 6.36295e-18
9642.86229 6.54054e-18
9644.87080 6.72510e-18
9646.86921 6.80534e-18
9648.86763 6.83545e-18
9650.86604 6.80502e-18
9652.86446 6.74610e-18
9654.87296 6.65799e-18
9656.87138 6.59693e-18
9658.86979 6.61816e-18
9660.86821 6.72596e-18
9662.87671 6.85509e-18
9664.87513 6.93800e-18
9666.87354 6.98875e-18
9668.87195 6.98389e-18
9670.87037 6.94268e-18
9672.87888 6.86037e-18
9674.87729 6.77684e-18
9676.87570 6.73016e-18
9678.87412 6.76455e-18
9680.88262 6.82254e-18
9682.88104 6.85871e-18
9684.87945 6.88236e-18
9686.87787 6.88093e-18
9688.87628 6.87484e-18
9690.88479 6.89941e-18
9692.88320 6.96076e-18
9694.88162 7.00020e-18
9696.88003 6.93132e-18
9698.87844 6.82447e-18
9700.88695 6.68245e-18
9702.88536 6.56615e-18
9704.88378 6.52019e-18
9706.88219 6.57296e-18
9708.89070 6.69125e-18
9710.88911 6.86050e-18
9712.88753 6.99307e-18
9714.88594 6.93320e-18
9716.88436 6.82797e-18
9718.89286 6.82523e-18
9720.89128 6.92391e-18
9722.88969 6.97476e-18
9724.88810 6.87079e-18
9726.89661 6.79691e-18
9728.89503 6.99271e-18
9730.89344 7.23822e-18
9732.89185 7.39922e-18
9734.89027 7.44581e-18
9736.89877 7.42181e-18
9738.89719 7.36907e-18
9740.89560 7.33573e-18
9742.89402 7.46380e-18
9744.89243 7.58371e-18
9746.90094 7.59756e-18
9748.89935 7.50838e-18
9750.89776 7.32343e-18
9752.89618 7.10389e-18
9754.90469 6.93282e-18
9756.90310 6.96013e-18
9758.90151 7.01883e-18
9760.89993 7.01339e-18
9762.89834 6.93646e-18
9764.90685 6.75730e-18
9766.90526 6.53589e-18
9768.90368 6.37187e-18
9770.90209 6.38460e-18
9772.90051 6.44284e-18
9774.90901 6.44300e-18
9776.90743 6.43458e-18
9778.90584 6.43370e-18
9780.90425 6.46866e-18
9782.91276 6.57015e-18
9784.91118 6.74496e-18
9786.90959 6.90998e-18
9788.90800 6.93464e-18
9790.90642 6.91022e-18
9792.91492 6.87549e-18
9794.91334 6.82382e-18
9796.91175 6.71289e-18
9798.91017 6.55692e-18
9800.91867 6.42161e-18
9802.91709 6.40356e-18
9804.91550 6.43097e-18
9806.91392 6.48898e-18
9808.91233 6.54532e-18
9810.92084 6.56854e-18
9812.91925 6.56241e-18
9814.91766 6.58025e-18
9816.91608 6.67311e-18
9818.91449 6.74639e-18
9820.92300 6.71490e-18
9822.92141 6.60374e-18
9824.91983 6.39431e-18
9826.91824 6.15198e-18
9828.92675 5.93688e-18
9830.92516 5.83122e-18
9832.92358 5.79528e-18
9834.92199 5.83377e-18
9836.92040 5.93132e-18
9838.92891 6.13778e-18
9840.92733 6.32825e-18
9842.92574 6.34576e-18
9844.92415 6.14434e-18
9846.92257 5.95637e-18
9848.93107 6.08775e-18
9850.92949 6.27840e-18
9852.92790 6.41707e-18
9854.92632 6.48146e-18
9856.93482 6.47976e-18
9858.93324 6.41414e-18
9860.93165 6.30356e-18
9862.93007 6.16992e-18
9864.92848 6.02319e-18
9866.93699 5.84664e-18
9868.93540 5.72442e-18
9870.93381 5.75386e-18
9872.93223 5.89939e-18
9874.94074 6.04879e-18
9876.93915 6.09572e-18
9878.93756 6.12014e-18
9880.93598 6.17891e-18
9882.93439 6.21772e-18
9884.94290 6.20834e-18
9886.94131 6.13940e-18
9888.93973 5.98759e-18
9890.93814 5.78653e-18
9892.93655 5.63973e-18
9894.94506 5.76112e-18
9896.94348 5.91087e-18
9898.94189 5.93060e-18
9900.94030 5.87173e-18
9902.94881 5.82917e-18
9904.94722 5.83473e-18
9906.94564 5.81913e-18
9908.94405 5.71716e-18
9910.94247 5.66421e-18
9912.95097 5.81914e-18
9914.94939 6.05862e-18
9916.94780 6.32529e-18
9918.94621 6.50079e-18
9920.95472 6.51361e-18
9922.95314 6.26843e-18
9924.95155 5.98832e-18
9926.94996 5.93006e-18
9928.94838 5.94658e-18
9930.95689 5.96081e-18
9932.95530 5.95991e-18
9934.95371 5.99841e-18
9936.95213 6.07190e-18
9938.95054 6.10040e-18
9940.95905 5.87346e-18
9942.95746 5.70400e-18
9944.95588 5.85850e-18
9946.95429 6.18695e-18
9948.96280 6.53941e-18
9950.96121 6.70794e-18
9952.95963 6.62238e-18
9954.95804 6.01126e-18
9956.95645 5.42421e-18
9958.96496 5.39330e-18
9960.96337 5.65085e-18
9962.96179 5.98777e-18
9964.96020 6.20423e-18
9966.95862 6.27819e-18
9968.96712 6.09595e-18
9970.96554 5.87728e-18
9972.96395 5.86095e-18
9974.96236 5.90481e-18
9976.97087 5.88784e-18
9978.96929 5.85507e-18
9980.96770 5.95641e-18
9982.96611 6.25093e-18
9984.96453 6.51577e-18
9986.97304 6.41472e-18
9988.97145 6.21637e-18
9990.96986 6.02837e-18
9992.96828 5.87797e-18
9994.97678 5.71263e-18
9996.97520 5.55707e-18
9998.97361 5.47194e-18
10000.97203 5.56514e-18
10002.97044 5.70844e-18
