# wavelength flux
3418.65380 4.27005e-19
3420.17075 7.26868e-19
3421.68769 1.02670e-18
3423.20464 1.33419e-18
3424.72158 1.64165e-18
3426.23853 1.36717e-18
3427.75548 1.09194e-18
3429.27242 1.21532e-18
3430.78937 1.33948e-18
3432.30631 1.42237e-18
3433.82326 1.50517e-18
3435.34021 1.54824e-18
3436.85715 1.59120e-18
3438.37410 1.88321e-18
3439.89104 2.17601e-18
3441.40799 2.27515e-18
3442.92494 2.37352e-18
3444.44188 2.32913e-18
3445.95883 2.28408e-18
3447.47577 2.15737e-18
3448.99272 2.03023e-18
3450.50967 1.57252e-18
3452.02661 1.11288e-18
3453.54356 1.21553e-18
3455.06050 1.32190e-18
3456.57745 1.75429e-18
3458.09440 2.18881e-18
3459.61134 2.05824e-18
3461.12829 1.92355e-18
3462.64523 2.24497e-18
3464.16218 2.56998e-18
3465.67913 2.20776e-18
3467.19607 1.83964e-18
3468.71302 2.03588e-18
3470.22996 2.23736e-18
3471.74691 2.01786e-18
3473.26386 1.79417e-18
3474.78080 1.62788e-18
3476.29775 1.46222e-18
3477.81469 1.52458e-18
3479.33164 1.58953e-18
3480.84859 2.00295e-18
3482.36553 2.42028e-18
3483.88248 1.79142e-18
3485.39942 1.15007e-18
3486.91637 1.80167e-18
3488.43332 2.46961e-18
3489.95026 2.28789e-18
3491.46721 2.09484e-18
3492.98415 1.85851e-18
3494.50110 1.62160e-18
3496.01805 2.00161e-18
3497.53499 2.39065e-18
3499.05194 2.42357e-18
3500.56888 2.45100e-18
3502.08583 2.24674e-18
3503.60278 2.03876e-18
3505.11972 2.14396e-18
3506.63667 2.25419e-18
3508.15361 2.32199e-18
3509.67056 2.38908e-18
3511.18751 2.18715e-18
3512.70445 1.98054e-18
3514.22140 2.03337e-18
3515.73834 2.09090e-18
3517.25529 2.54639e-18
3518.77224 3.00933e-18
3520.28918 2.52781e-18
3521.80613 2.02793e-18
3523.32307 2.25723e-18
3524.84002 2.50122e-18
3526.35697 2.00318e-18
3527.87391 1.48970e-18
3529.39086 1.98379e-18
3530.90780 2.49885e-18
3532.42475 2.37202e-18
3533.94170 2.23136e-18
3535.45864 2.11417e-18
3536.97559 1.99751e-18
3538.49253 2.32047e-18
3540.00948 2.65348e-18
3541.52643 2.14813e-18
3543.04337 1.62302e-18
3544.56032 1.83717e-18
3546.07726 2.06928e-18
3547.59421 2.25739e-18
3549.11116 2.44439e-18
3550.62810 1.78571e-18
3552.14505 1.10537e-18
3553.66199 1.07091e-18
3555.17894 1.05306e-18
3556.69589 1.29664e-18
3558.21283 1.54711e-18
3559.72978 2.57178e-18
3561.24672 3.61732e-18
3562.76367 2.60075e-18
3564.28062 1.52698e-18
3565.79756 1.55593e-18
3567.31451 1.61628e-18
3568.83145 2.06915e-18
3570.34840 2.53342e-18
3571.86535 2.32136e-18
3573.38229 2.08911e-18
3574.89924 2.34756e-18
3576.41618 2.62099e-18
3577.93313 1.86956e-18
3579.45008 1.08687e-18
3580.96702 1.56170e-18
3582.48397 2.07581e-18
3584.00091 2.42783e-18
3585.51786 2.77465e-18
3587.03481 2.68283e-18
3588.55175 2.57668e-18
3590.06870 2.67464e-18
3591.58564 2.77940e-18
3593.10259 2.81344e-18
3594.61954 2.84507e-18
3596.13648 3.16258e-18
3597.65343 3.49001e-18
3599.17037 3.14035e-18
3600.68732 2.76668e-18
3602.20427 3.18345e-18
3603.72121 3.62824e-18
3605.23816 3.50271e-18
3606.75510 3.35655e-18
3608.27205 3.77922e-18
3609.78900 4.22285e-18
3611.30594 4.46615e-18
3612.82289 4.70190e-18
3614.33983 4.29487e-18
3615.85678 3.86324e-18
3617.37373 3.87432e-18
3618.89067 3.90269e-18
3620.40762 3.81913e-18
3621.92456 3.73112e-18
3623.44151 3.78263e-18
3624.95846 3.83977e-18
3626.47540 3.64851e-18
3627.99235 3.44721e-18
3629.50929 3.08603e-18
3631.02624 2.71829e-18
3632.54319 2.85852e-18
3634.06013 3.02002e-18
3635.57708 3.06733e-18
3637.09402 3.10977e-18
3638.61097 2.78087e-18
3640.12792 2.43590e-18
3641.64486 2.61308e-18
3643.16181 2.81324e-18
3644.67875 2.51770e-18
3646.19570 2.19998e-18
3647.71265 2.41146e-18
3649.22959 2.64699e-18
3650.74654 2.89304e-18
3652.26348 3.13954e-18
3653.78043 2.58242e-18
3655.29738 1.98821e-18
3656.81432 2.34144e-18
3658.33127 2.73909e-18
3659.84821 3.03123e-18
3661.36516 3.31831e-18
3662.88211 3.16832e-18
3664.39905 2.99719e-18
3665.91600 3.12109e-18
3667.43294 3.25946e-18
3668.94989 3.22510e-18
3670.46684 3.18213e-18
3671.98378 2.94204e-18
3673.50073 2.69200e-18
3675.01767 2.63323e-18
3676.53462 2.58414e-18
3678.05157 2.77518e-18
3679.56851 2.97853e-18
3681.08546 2.81499e-18
3682.60240 2.63238e-18
3684.11935 2.45828e-18
3685.63630 2.28465e-18
3687.15324 2.36097e-18
3688.67019 2.45065e-18
3690.18713 2.24776e-18
3691.70408 2.02903e-18
3693.22103 2.20438e-18
3694.73797 2.40136e-18
3696.25492 2.44043e-18
3697.77186 2.47070e-18
3699.28881 2.28324e-18
3700.80576 2.08367e-18
3702.32270 2.29998e-18
3703.83965 2.53973e-18
3705.35659 2.62686e-18
3706.87354 2.70525e-18
3708.39049 2.46750e-18
3709.90743 2.21146e-18
3711.42438 2.16150e-18
3712.94132 2.12362e-18
3714.45827 2.36689e-18
3715.97522 2.62683e-18
3717.49216 2.53512e-18
3719.00911 2.42230e-18
3720.52605 2.23615e-18
3722.04300 2.04555e-18
3723.55995 2.23611e-18
3725.07689 2.44985e-18
3726.59384 2.60055e-18
3728.11078 2.74737e-18
3729.62773 2.72063e-18
3731.14468 2.68308e-18
3732.66162 2.45608e-18
3734.17857 2.21715e-18
3735.69551 2.65255e-18
3737.21246 3.13095e-18
3738.72941 3.45650e-18
3740.24635 3.77216e-18
3741.76330 3.47022e-18
3743.28024 3.12796e-18
3744.79719 3.07268e-18
3746.31414 3.03634e-18
3747.83108 2.64814e-18
3749.34803 2.23672e-18
3750.86497 2.16842e-18
3752.38192 2.12304e-18
3753.89887 1.66609e-18
3755.41581 1.18137e-18
3756.93276 1.10449e-18
3758.44970 1.05548e-18
3759.96665 1.05006e-18
3761.48360 1.04766e-18
3763.00054 9.80041e-19
3764.51749 9.07869e-19
3766.03443 1.23397e-18
3767.55138 1.58815e-18
3769.06833 1.15760e-18
3770.58527 6.71114e-19
3772.10222 7.85571e-19
3773.61916 9.42881e-19
3775.13611 7.70769e-19
3776.65306 5.74923e-19
3778.17000 6.80235e-19
3779.68695 8.07476e-19
3781.20389 8.58048e-19
3782.72084 9.02976e-19
3784.23779 9.44296e-19
3785.75473 9.85346e-19
3787.27168 9.19335e-19
3788.78862 8.45285e-19
3790.30557 9.50523e-19
3791.82252 1.06936e-18
3793.33946 8.80581e-19
3794.85641 6.68238e-19
3796.37335 6.52799e-19
3797.89030 6.52452e-19
3799.40725 8.24909e-19
3800.92419 1.01073e-18
3802.44114 8.14476e-19
3803.95808 5.88362e-19
3805.47503 6.04466e-19
3806.99198 6.39690e-19
3808.50892 7.22809e-19
3810.02587 8.09742e-19
3811.54281 7.21194e-19
3813.05976 6.18528e-19
3814.57671 8.92986e-19
3816.09365 1.19807e-18
3817.61060 1.20482e-18
3819.12754 1.18709e-18
3820.64449 7.88662e-19
3822.16144 3.59027e-19
3823.67838 6.58032e-19
3825.19533 1.01735e-18
3826.71227 7.14998e-19
3828.22922 3.57376e-19
3829.74617 2.38833e-19
3831.26311 1.40459e-19
3832.78006 3.95675e-19
3834.29700 6.80974e-19
3835.81395 7.54595e-19
3837.33090 8.10032e-19
3838.84784 8.60069e-19
3840.36479 9.09636e-19
3841.88173 8.15331e-19
3843.39868 7.08451e-19
3844.91563 4.45974e-19
3846.43257 1.69904e-19
3847.94952 5.98430e-19
3849.46646 1.08910e-18
3850.98341 1.16262e-18
3852.50036 1.19900e-18
3854.01730 8.85412e-19
3855.53425 5.40420e-19
3857.05119 2.71534e-19
3858.56814 9.55448e-21
3860.08509 4.25049e-19
3861.60203 9.02418e-19
3863.11898 8.10649e-19
3864.63592 6.66442e-19
3866.15287 1.04078e-18
3867.66982 1.46328e-18
3869.18676 1.63820e-18
3870.70371 1.79010e-18
3872.22065 1.34948e-18
3873.73760 8.53357e-19
3875.25455 1.17584e-18
3876.77149 1.57567e-18
3878.28844 1.56119e-18
3879.80538 1.50722e-18
3881.32233 1.50233e-18
3882.83928 1.50216e-18
3884.35622 1.82974e-18
3885.87317 2.18906e-18
3887.39011 2.31554e-18
3888.90706 2.41926e-18
3890.42401 2.62400e-18
3891.94095 2.83867e-18
3893.45790 3.01384e-18
3894.97484 3.18511e-18
3896.49179 3.00010e-18
3898.00874 2.77974e-18
3899.52568 2.94984e-18
3901.04263 3.15901e-18
3902.55957 3.38902e-18
3904.07652 3.62112e-18
3905.59347 3.74198e-18
3907.11041 3.85152e-18
3908.62736 3.68525e-18
3910.14430 3.49073e-18
3911.66125 3.49510e-18
3913.17820 3.52000e-18
3914.69514 3.87263e-18
3916.21209 4.25934e-18
3917.72903 4.45054e-18
3919.24598 4.62138e-18
3920.76293 5.12605e-18
3922.27987 5.66570e-18
3923.79682 5.62046e-18
3925.31376 5.51341e-18
3926.83071 5.59989e-18
3928.34766 5.70698e-18
3929.86460 5.89393e-18
3931.38155 6.08945e-18
3932.89849 6.10757e-18
3934.41544 6.10652e-18
3935.93239 6.12181e-18
3937.44933 6.13889e-18
3938.96628 6.16215e-18
3940.48322 6.18609e-18
3942.00017 5.96863e-18
3943.51712 5.72468e-18
3945.03406 6.03220e-18
3946.55101 6.40066e-18
3948.06795 6.13163e-18
3949.58490 5.79162e-18
3951.10185 5.85798e-18
3952.61879 5.96992e-18
3954.13574 6.03872e-18
3955.65268 6.10265e-18
3957.16963 6.22338e-18
3958.68658 6.35056e-18
3960.20352 6.55646e-18
3961.72047 6.77137e-18
3963.23741 6.84016e-18
3964.75436 6.89208e-18
3966.27131 6.92444e-18
3967.78825 6.95455e-18
3969.30520 7.25949e-18
3970.82214 7.59636e-18
3972.33909 7.57115e-18
3973.85604 7.50356e-18
3975.37298 7.56365e-18
3976.88993 7.63878e-18
3978.40687 7.58984e-18
3979.92382 7.52617e-18
3981.44077 7.68815e-18
3982.95771 7.87710e-18
3984.47466 8.21802e-18
3985.99160 8.57722e-18
3987.50855 8.36765e-18
3989.02550 8.08915e-18
3990.54244 8.14029e-18
3992.05939 8.23139e-18
3993.57633 8.32844e-18
3995.09328 8.42621e-18
3996.61023 8.63012e-18
3998.12717 8.84706e-18
3999.64412 9.21484e-18
4001.16106 9.60126e-18
4002.67801 9.75373e-18
4004.19496 9.87708e-18
4005.71190 1.00493e-17
4007.22885 1.02276e-17
4008.74579 1.01060e-17
4010.26274 9.94651e-18
4011.77969 1.00095e-17
4013.29663 1.01008e-17
4014.81358 1.04679e-17
4016.33052 1.08701e-17
4017.84747 1.09150e-17
4019.36442 1.09142e-17
4020.88136 1.08335e-17
4022.39831 1.07425e-17
4023.91525 1.07340e-17
4025.43220 1.07362e-17
4026.94915 1.11653e-17
4028.46609 1.16500e-17
4029.98304 1.16591e-17
4031.49998 1.16058e-17
4033.01693 1.16114e-17
4034.53388 1.16247e-17
4036.05082 1.17314e-17
4037.56777 1.18505e-17
4039.08471 1.15636e-17
4040.60166 1.12226e-17
4042.11861 1.15336e-17
4043.63555 1.19318e-17
4045.15250 1.16431e-17
4046.66944 1.12619e-17
4048.18639 1.13880e-17
4049.70334 1.15829e-17
4051.22028 1.14827e-17
4052.73723 1.13423e-17
4054.25417 1.11901e-17
4055.77112 1.10362e-17
4057.28807 1.11093e-17
4058.80501 1.12138e-17
4060.32196 1.16240e-17
4061.83890 1.20766e-17
4063.35585 1.21295e-17
4064.87280 1.21269e-17
4066.38974 1.20768e-17
4067.90669 1.20201e-17
4069.42363 1.18143e-17
4070.94058 1.15875e-17
4072.45753 1.19358e-17
4073.97447 1.23655e-17
4075.49142 1.19410e-17
4077.00836 1.13949e-17
4078.52531 1.13876e-17
4080.04226 1.14574e-17
4081.55920 1.15829e-17
4083.07615 1.17165e-17
4084.59309 1.18397e-17
4086.11004 1.19613e-17
4087.62699 1.20272e-17
4089.14393 1.20851e-17
4090.66088 1.19562e-17
4092.17782 1.18001e-17
4093.69477 1.17355e-17
4095.21172 1.16842e-17
4096.72866 1.16252e-17
4098.24561 1.15651e-17
4099.76255 1.16876e-17
4101.27950 1.18373e-17
4102.79645 1.21426e-17
4104.31339 1.24710e-17
4105.83034 1.22169e-17
4107.34728 1.18753e-17
4108.86423 1.16917e-17
4110.38118 1.15319e-17
4111.89812 1.15402e-17
4113.41507 1.15738e-17
4114.93201 1.16273e-17
4116.44896 1.16839e-17
4117.96591 1.13576e-17
4119.48285 1.09729e-17
4120.99980 1.11778e-17
4122.51674 1.14732e-17
4124.03369 1.14025e-17
4125.55064 1.12752e-17
4127.06758 1.11283e-17
4128.58453 1.09783e-17
4130.10147 1.07624e-17
4131.61842 1.05362e-17
4133.13537 1.04351e-17
4134.65231 1.03536e-17
4136.16926 1.03813e-17
4137.68620 1.04262e-17
4139.20315 1.04265e-17
4140.72010 1.04199e-17
4142.23704 1.03652e-17
4143.75399 1.03030e-17
4145.27093 1.01030e-17
4146.78788 9.88109e-18
4148.30483 9.81749e-18
4149.82177 9.77934e-18
4151.33872 1.01197e-17
4152.85566 1.05212e-17
4154.37261 1.04257e-17
4155.88956 1.02495e-17
4157.40650 1.02026e-17
4158.92345 1.01769e-17
4160.44039 1.02864e-17
4161.95734 1.04180e-17
4163.47429 1.03849e-17
4164.99123 1.03247e-17
4166.50818 1.04676e-17
4168.02512 1.06440e-17
4169.54207 1.04592e-17
4171.05902 1.02144e-17
4172.57596 9.96587e-18
4174.09291 9.71678e-18
4175.60985 9.85494e-18
4177.12680 1.00581e-17
4178.64375 1.01848e-17
4180.16069 1.02986e-17
4181.67764 1.00976e-17
4183.19458 9.84326e-18
4184.71153 9.39985e-18
4186.22848 8.92438e-18
4187.74542 9.25718e-18
4189.26237 9.72779e-18
4190.77931 9.84082e-18
4192.29626 9.89256e-18
4193.81321 9.69511e-18
4195.33015 9.45473e-18
4196.84710 9.54111e-18
4198.36404 9.68408e-18
4199.88099 9.88004e-18
4201.39794 1.00852e-17
4202.91488 1.02347e-17
4204.43183 1.03745e-17
4205.94877 1.00266e-17
4207.46572 9.59294e-18
4208.98267 9.57142e-18
4210.49961 9.62241e-18
4212.01656 9.60017e-18
4213.53350 9.56498e-18
4215.05045 9.44413e-18
4216.56740 9.30806e-18
4218.08434 9.38524e-18
4219.60129 9.50054e-18
4221.11823 9.82139e-18
4222.63518 1.01791e-17
4224.15213 1.02768e-17
4225.66907 1.03274e-17
4227.18602 1.02370e-17
4228.70296 1.01210e-17
4230.21991 1.00817e-17
4231.73686 1.00564e-17
4233.25380 9.97039e-18
4234.77075 9.87327e-18
4236.28769 9.85899e-18
4237.80464 9.85989e-18
4239.32159 9.79505e-18
4240.83853 9.71810e-18
4242.35548 9.62257e-18
4243.87242 9.52360e-18
4245.38937 9.27693e-18
4246.90632 9.00278e-18
4248.42326 8.99542e-18
4249.94021 9.03794e-18
4251.45715 8.93108e-18
4252.97410 8.79615e-18
4254.49105 8.44838e-18
4256.00799 8.06042e-18
4257.52494 8.18197e-18
4259.04188 8.39974e-18
4260.55883 8.43212e-18
4262.07578 8.42932e-18
4263.59272 8.50620e-18
4265.10967 8.59827e-18
4266.62661 8.60595e-18
4268.14356 8.59745e-18
4269.66051 8.66251e-18
4271.17745 8.74174e-18
4272.69440 8.80783e-18
4274.21134 8.87137e-18
4275.72829 8.75241e-18
4277.24524 8.59796e-18
4278.76218 8.47990e-18
4280.27913 8.36896e-18
4281.79607 8.12851e-18
4283.31302 7.86275e-18
4284.82997 8.02966e-18
4286.34691 8.28153e-18
4287.86386 8.43294e-18
4289.38080 8.56452e-18
4290.89775 8.64032e-18
4292.41470 8.70506e-18
4293.93164 8.52897e-18
4295.44859 8.30490e-18
4296.96553 8.29950e-18
4298.48248 8.33786e-18
4299.99943 8.42360e-18
4301.51637 8.51886e-18
4303.03332 8.47369e-18
4304.55026 8.40015e-18
4306.06721 8.26734e-18
4307.58416 8.12255e-18
4309.10110 8.00220e-18
4310.61805 7.88682e-18
4312.13499 7.80636e-18
4313.65194 7.73303e-18
4315.16889 7.74095e-18
4316.68583 7.76551e-18
4318.20278 7.53397e-18
4319.71972 7.24971e-18
4321.23667 7.28081e-18
4322.75362 7.37712e-18
4324.27056 7.18477e-18
4325.78751 6.93244e-18
4327.30445 6.98368e-18
4328.82140 7.09829e-18
4330.33835 7.15257e-18
4331.85529 7.19426e-18
4333.37224 7.18853e-18
4334.88918 7.17285e-18
4336.40613 7.31500e-18
4337.92308 7.49039e-18
4339.44002 7.42820e-18
4340.95697 7.31572e-18
4342.47391 7.25985e-18
4343.99086 7.21602e-18
4345.49776 7.30034e-18
4347.02475 7.41202e-18
4348.53165 7.17485e-18
4350.05864 6.86284e-18
4351.57559 6.66845e-18
4353.09254 6.49943e-18
4354.60948 6.41193e-18
4356.12643 6.34201e-18
4357.64337 6.47285e-18
4359.16032 6.64714e-18
4360.67727 6.60486e-18
4362.18417 6.51548e-18
4363.71116 6.51442e-18
4365.22810 6.53266e-18
4366.74505 6.24047e-18
4368.26200 5.88017e-18
4369.77894 5.49516e-18
4371.28584 5.10473e-18
4372.81283 5.10197e-18
4374.32978 5.18503e-18
4375.84673 5.20978e-18
4377.36367 5.22157e-18
4378.87057 4.98389e-18
4380.38752 4.69075e-18
4381.91451 4.61062e-18
4383.42141 4.57807e-18
4384.94840 4.45507e-18
4386.46535 4.31178e-18
4387.97225 4.28064e-18
4389.49924 4.27478e-18
4391.01619 4.16156e-18
4392.53313 4.02405e-18
4394.05008 4.16209e-18
4395.56702 4.36276e-18
4397.07392 4.47137e-18
4398.60092 4.55895e-18
4400.11786 4.58211e-18
4401.63481 4.59050e-18
4403.14171 4.60773e-18
4404.66870 4.62698e-18
4406.17560 4.68324e-18
4407.70259 4.74803e-18
4409.20949 5.00420e-18
4410.73648 5.30463e-18
4412.24338 5.27041e-18
4413.76033 5.15845e-18
4415.27728 5.36974e-18
4416.80427 5.65643e-18
4418.31117 5.87418e-18
4419.82811 6.07577e-18
4421.34506 6.01803e-18
4422.86201 5.89926e-18
4424.37895 5.91058e-18
4425.90594 5.95264e-18
4427.42289 6.09921e-18
4428.92979 6.27046e-18
4430.45678 6.52629e-18
4431.96368 6.80218e-18
4433.49067 6.87162e-18
4435.00762 6.89185e-18
4436.51452 6.92443e-18
4438.03147 6.95997e-18
4439.54841 7.15946e-18
4441.06536 7.39836e-18
4442.59235 7.59256e-18
4444.09925 7.77595e-18
4445.61620 7.96149e-18
4447.13314 8.14754e-18
4448.65009 8.29082e-18
4450.16703 8.42369e-18
4451.69403 8.36135e-18
4453.20093 8.25148e-18
4454.71787 8.08957e-18
4456.23482 7.91494e-18
4457.75176 8.20865e-18
4459.26871 8.61731e-18
4460.78566 8.52646e-18
4462.30260 8.31249e-18
4463.81955 8.50030e-18
4465.34654 8.78755e-18
4466.85344 8.81640e-18
4468.38043 8.78103e-18
4469.88733 8.68846e-18
4471.40428 8.58161e-18
4472.92122 8.68588e-18
4474.43817 8.84305e-18
4475.95512 8.85727e-18
4477.47206 8.83566e-18
4478.98901 8.57699e-18
4480.50595 8.25868e-18
4482.02290 8.35116e-18
4483.53985 8.54743e-18
4485.05679 8.85685e-18
4486.57374 9.19497e-18
4488.09068 9.05709e-18
4489.60763 8.79797e-18
4491.12458 8.59409e-18
4492.64152 8.40435e-18
4494.15847 8.39481e-18
4495.67541 8.43156e-18
4497.19236 8.39901e-18
4498.70931 8.34860e-18
4500.22625 8.59376e-18
4501.74320 8.91512e-18
4503.26014 9.07959e-18
4504.77709 9.20344e-18
4506.29404 9.21088e-18
4507.81098 9.18806e-18
4509.32793 8.88233e-18
4510.84487 8.50279e-18
4512.36182 8.49988e-18
4513.87877 8.59565e-18
4515.39571 8.75706e-18
4516.91266 8.93573e-18
4518.42960 8.79232e-18
4519.94655 8.56384e-18
4521.46350 8.59946e-18
4522.98044 8.70512e-18
4524.49739 8.83465e-18
4526.01433 8.97050e-18
4527.53128 8.94574e-18
4529.04823 8.87821e-18
4530.56517 9.06183e-18
4532.08212 9.31256e-18
4533.59906 9.33711e-18
4535.11601 9.30094e-18
4536.63296 9.24428e-18
4538.14990 9.18209e-18
4539.66685 9.30030e-18
4541.18379 9.46732e-18
4542.70074 9.54912e-18
4544.21769 9.60779e-18
4545.73463 9.88098e-18
4547.25158 1.02127e-17
4548.76852 1.03544e-17
4550.28547 1.04443e-17
4551.80242 1.04662e-17
4553.31936 1.04694e-17
4554.83631 1.05213e-17
4556.35325 1.05866e-17
4557.87020 1.05821e-17
4559.38715 1.05583e-17
4560.90409 1.06640e-17
4562.42104 1.08054e-17
4563.93798 1.09458e-17
4565.45493 1.10858e-17
4566.97188 1.13721e-17
4568.48882 1.16992e-17
4570.00577 1.18505e-17
4571.52271 1.19525e-17
4573.03966 1.21207e-17
4574.55661 1.23074e-17
4576.07355 1.22783e-17
4577.59050 1.21886e-17
4579.10744 1.20910e-17
4580.62439 1.19913e-17
4582.14134 1.23612e-17
4583.65828 1.28642e-17
4585.17523 1.28168e-17
4586.69217 1.26129e-17
4588.20912 1.28229e-17
4589.72607 1.31511e-17
4591.24301 1.31123e-17
4592.75996 1.29682e-17
4594.27690 1.27997e-17
4595.79385 1.26242e-17
4597.31080 1.26346e-17
4598.82774 1.26984e-17
4600.34469 1.28470e-17
4601.86163 1.30201e-17
4603.37858 1.30321e-17
4604.89553 1.29973e-17
4606.41247 1.28631e-17
4607.92942 1.27001e-17
4609.44636 1.25526e-17
4610.96331 1.24096e-17
4612.48026 1.24218e-17
4613.99720 1.24794e-17
4615.51415 1.26162e-17
4617.03109 1.27763e-17
4618.54804 1.28374e-17
4620.06499 1.28691e-17
4621.58193 1.26880e-17
4623.09888 1.24441e-17
4624.61582 1.24746e-17
4626.13277 1.25866e-17
4627.64972 1.24482e-17
4629.16666 1.22351e-17
4630.68361 1.19734e-17
4632.20055 1.16972e-17
4633.71750 1.15189e-17
4635.23445 1.13699e-17
4636.75139 1.12723e-17
4638.26834 1.11901e-17
4639.78528 1.11440e-17
4641.30223 1.11087e-17
4642.81918 1.11859e-17
4644.33612 1.12971e-17
4645.85307 1.13611e-17
4647.37001 1.14108e-17
4648.88696 1.13370e-17
4650.40391 1.12257e-17
4651.92085 1.12069e-17
4653.43780 1.12164e-17
4654.95474 1.14252e-17
4656.47169 1.16950e-17
4657.98864 1.19211e-17
4659.50558 1.21336e-17
4661.02253 1.24040e-17
4662.53947 1.26924e-17
4664.05642 1.27657e-17
4665.57337 1.27725e-17
4667.09031 1.28249e-17
4668.60726 1.28916e-17
4670.12420 1.29465e-17
4671.64115 1.29977e-17
4673.15810 1.30155e-17
4674.67504 1.30229e-17
4676.19199 1.30026e-17
4677.70893 1.29737e-17
4679.22588 1.31763e-17
4680.74283 1.34518e-17
4682.25977 1.35687e-17
4683.77672 1.36355e-17
4685.29366 1.36834e-17
4686.81061 1.37253e-17
4688.32756 1.38332e-17
4689.84450 1.39621e-17
4691.36145 1.41803e-17
4692.87839 1.44271e-17
4694.39534 1.46942e-17
4695.91229 1.49677e-17
4697.42923 1.52252e-17
4698.94618 1.54776e-17
4700.46312 1.54013e-17
4701.98007 1.52195e-17
4703.49702 1.52960e-17
4705.01396 1.54557e-17
4706.53091 1.54513e-17
4708.04785 1.53937e-17
4709.56480 1.52696e-17
4711.08175 1.51239e-17
4712.59869 1.51446e-17
4714.11564 1.52196e-17
4715.63258 1.53231e-17
4717.14953 1.54360e-17
4718.66648 1.55818e-17
4720.18342 1.57382e-17
4721.70037 1.59274e-17
4723.21731 1.61272e-17
4724.73426 1.61964e-17
4726.25121 1.62225e-17
4727.76815 1.62964e-17
4729.28510 1.63861e-17
4730.80204 1.60973e-17
4732.31899 1.56829e-17
4733.83594 1.54747e-17
4735.35288 1.53352e-17
4736.86983 1.53847e-17
4738.38677 1.54972e-17
4739.90372 1.55681e-17
4741.42067 1.56251e-17
4742.93761 1.54312e-17
4744.45456 1.51530e-17
4745.97150 1.50334e-17
4747.48845 1.49672e-17
4749.00540 1.51049e-17
4750.52234 1.53115e-17
4752.03929 1.54251e-17
4753.55623 1.55072e-17
4755.07318 1.54456e-17
4756.59013 1.53353e-17
4758.10707 1.54126e-17
4759.62402 1.55540e-17
4761.14096 1.55506e-17
4762.65791 1.54976e-17
4764.17486 1.52985e-17
4765.69180 1.50493e-17
4767.20875 1.52132e-17
4768.72569 1.55189e-17
4770.24264 1.55839e-17
4771.75959 1.55659e-17
4773.27653 1.53416e-17
4774.79348 1.50458e-17
4776.31042 1.50197e-17
4777.82737 1.50872e-17
4779.34432 1.50520e-17
4780.86126 1.49812e-17
4782.37821 1.49308e-17
4783.89515 1.48877e-17
4785.41210 1.48257e-17
4786.92905 1.47571e-17
4788.44599 1.46135e-17
4789.96294 1.44436e-17
4791.47988 1.42285e-17
4792.99683 1.39976e-17
4794.51378 1.38944e-17
4796.03072 1.38363e-17
4797.54767 1.39160e-17
4799.06461 1.40447e-17
4800.58156 1.40483e-17
4802.09851 1.40075e-17
4803.61545 1.37242e-17
4805.13240 1.33543e-17
4806.64934 1.33274e-17
4808.16629 1.34233e-17
4809.68324 1.32295e-17
4811.20018 1.29316e-17
4812.71713 1.27292e-17
4814.23407 1.25612e-17
4815.75102 1.24150e-17
4817.26797 1.22765e-17
4818.78491 1.20625e-17
4820.30186 1.18213e-17
4821.81880 1.15278e-17
4823.33575 1.12155e-17
4824.85270 1.09371e-17
4826.36964 1.06710e-17
4827.88659 1.05396e-17
4829.40353 1.04575e-17
4830.92048 1.01284e-17
4832.43743 9.70885e-18
4833.95437 9.50118e-18
4835.47132 9.37147e-18
4836.98826 9.23240e-18
4838.50521 9.08987e-18
4840.02216 8.87929e-18
4841.53910 8.64358e-18
4843.05605 8.47066e-18
4844.57299 8.32099e-18
4846.08994 8.18263e-18
4847.60689 8.04849e-18
4849.12383 7.82268e-18
4850.64078 7.56270e-18
4852.15772 7.36853e-18
4853.67467 7.19898e-18
4855.19162 7.15659e-18
4856.70856 7.16193e-18
4858.22551 6.94287e-18
4859.74245 6.63933e-18
4861.25940 6.54277e-18
4862.77635 6.52441e-18
4864.29329 6.48163e-18
4865.81024 6.42962e-18
4867.32718 6.16042e-18
4868.84413 5.80892e-18
4870.36108 5.74174e-18
4871.87802 5.78270e-18
4873.39497 5.59114e-18
4874.91191 5.31087e-18
4876.42886 5.16636e-18
4877.94581 5.07383e-18
4879.46275 5.10173e-18
4880.97970 5.17587e-18
4882.49664 5.16699e-18
4884.01359 5.12612e-18
4885.53054 5.00981e-18
4887.04748 4.86433e-18
4888.56443 4.67366e-18
4890.08137 4.46553e-18
4891.59832 4.38401e-18
4893.11527 4.35160e-18
4894.63221 4.39988e-18
4896.14916 4.47957e-18
4897.66610 4.48949e-18
4899.18305 4.47218e-18
4900.70000 4.60895e-18
4902.21694 4.80608e-18
4903.73389 4.86719e-18
4905.25083 4.87483e-18
4906.76778 4.77521e-18
4908.28473 4.63330e-18
4909.80167 4.65115e-18
4911.31862 4.73220e-18
4912.83556 4.76991e-18
4914.35251 4.79048e-18
4915.86946 4.91178e-18
4917.38640 5.07304e-18
4918.90335 5.06943e-18
4920.42029 5.00018e-18
4921.93724 5.05315e-18
4923.45419 5.15492e-18
4924.97113 5.29170e-18
4926.48808 5.44249e-18
4928.00502 5.46175e-18
4929.52197 5.42813e-18
4931.03892 5.58972e-18
4932.55586 5.83004e-18
4934.07281 5.89714e-18
4935.58975 5.89416e-18
4937.10670 6.00085e-18
4938.62365 6.15191e-18
4940.14059 6.23483e-18
4941.65754 6.29008e-18
4943.17448 6.46716e-18
4944.69143 6.69384e-18
4946.20838 6.92051e-18
4947.72532 7.14716e-18
4949.24227 7.32117e-18
4950.75921 7.47360e-18
4952.27616 7.58089e-18
4953.79311 7.66962e-18
4955.31005 7.98417e-18
4956.82700 8.39185e-18
4958.34394 8.52683e-18
4959.86089 8.54896e-18
4961.37784 8.48022e-18
4962.89478 8.37387e-18
4964.41173 8.70139e-18
4965.92867 9.20897e-18
4967.44562 9.42306e-18
4968.96257 9.51491e-18
4970.47951 9.87648e-18
4971.99646 1.03507e-17
4973.51340 1.07189e-17
4975.03035 1.10427e-17
4976.54730 1.13425e-17
4978.06424 1.16323e-17
4979.58119 1.21607e-17
4981.09813 1.27898e-17
4982.61508 1.29286e-17
4984.13203 1.28601e-17
4985.64897 1.28015e-17
4987.16592 1.27471e-17
4988.68286 1.30320e-17
4990.19981 1.34608e-17
4991.71676 1.37872e-17
4993.23370 1.40701e-17
4994.75065 1.43489e-17
4996.26759 1.46259e-17
4997.78454 1.49220e-17
4999.30149 1.52263e-17
5000.81843 1.54427e-17
5002.33538 1.56213e-17
5003.85232 1.61533e-17
5005.36927 1.68375e-17
5006.88622 1.71014e-17
5008.40316 1.71834e-17
5009.92011 1.72252e-17
5011.43705 1.72495e-17
5012.95400 1.72906e-17
5014.47095 1.73390e-17
5015.98789 1.76218e-17
5017.50484 1.80067e-17
5019.02178 1.84422e-17
5020.53873 1.88999e-17
5022.05568 1.92450e-17
5023.57262 1.95408e-17
5025.08957 2.02295e-17
5026.60651 2.10908e-17
5028.12346 2.13449e-17
5029.64041 2.13315e-17
5031.15735 2.10375e-17
5032.67430 2.06195e-17
5034.19124 2.03826e-17
5035.70819 2.02259e-17
5037.22514 2.00930e-17
5038.74208 1.99707e-17
5040.25903 2.01610e-17
5041.77597 2.04904e-17
5043.29292 2.04936e-17
5044.80987 2.03513e-17
5046.32681 2.01382e-17
5047.84376 1.98934e-17
5049.36070 2.00796e-17
5050.87765 2.04593e-17
5052.39460 2.05398e-17
5053.91154 2.04856e-17
5055.42849 2.04904e-17
5056.94543 2.05219e-17
5058.46238 2.05136e-17
5059.97933 2.04874e-17
5061.49627 2.04293e-17
5063.01322 2.03566e-17
5064.53016 2.02263e-17
5066.04711 2.00696e-17
5067.56406 1.99097e-17
5069.08100 1.97482e-17
5070.59795 1.95638e-17
5072.11489 1.93687e-17
5073.63184 1.93191e-17
5075.14879 1.93362e-17
5076.66573 1.92825e-17
5078.18268 1.91964e-17
5079.69962 1.90006e-17
5081.21657 1.87544e-17
5082.73352 1.83976e-17
5084.25046 1.79898e-17
5085.76741 1.75597e-17
5087.28435 1.71191e-17
5088.80130 1.68229e-17
5090.31825 1.65936e-17
5091.83519 1.62641e-17
5093.35214 1.58879e-17
5094.86908 1.56002e-17
5096.38603 1.53540e-17
5097.90298 1.50568e-17
5099.41992 1.47358e-17
5100.93687 1.44651e-17
5102.45381 1.42181e-17
5103.97076 1.40543e-17
5105.48771 1.39295e-17
5107.00465 1.36908e-17
5108.52160 1.33984e-17
5110.03854 1.31367e-17
5111.55549 1.28895e-17
5113.07244 1.27996e-17
5114.58938 1.27843e-17
5116.10633 1.27281e-17
5117.62327 1.26525e-17
5119.14022 1.26670e-17
5120.65717 1.27245e-17
5122.17411 1.25683e-17
5123.69106 1.23100e-17
5125.20800 1.22932e-17
5126.72495 1.23923e-17
5128.24190 1.24719e-17
5129.75884 1.25422e-17
5131.27579 1.24743e-17
5132.79273 1.23399e-17
5134.30968 1.23217e-17
5135.82663 1.23597e-17
5137.34357 1.24934e-17
5138.86052 1.26736e-17
5140.37746 1.28177e-17
5141.89441 1.29443e-17
5143.41136 1.30558e-17
5144.92830 1.31599e-17
5146.44525 1.31809e-17
5147.96219 1.31612e-17
5149.47914 1.32539e-17
5150.99609 1.34017e-17
5152.51303 1.35509e-17
5154.02998 1.37008e-17
5155.54692 1.36877e-17
5157.06387 1.35945e-17
5158.58082 1.34866e-17
5160.09776 1.33715e-17
5161.61471 1.32989e-17
5163.13165 1.32473e-17
5164.64860 1.33273e-17
5166.16555 1.34726e-17
5167.68249 1.36201e-17
5169.19944 1.37687e-17
5170.71638 1.37588e-17
5172.23333 1.36697e-17
5173.75028 1.36964e-17
5175.26722 1.37809e-17
5176.78417 1.38369e-17
5178.30111 1.38786e-17
5179.81806 1.40054e-17
5181.33501 1.41751e-17
5182.85195 1.43854e-17
5184.36890 1.46163e-17
5185.88584 1.47324e-17
5187.40279 1.47907e-17
5188.91974 1.47289e-17
5190.43668 1.46063e-17
5191.95363 1.44602e-17
5193.47057 1.43021e-17
5194.98752 1.42799e-17
5196.50447 1.43269e-17
5198.02141 1.43402e-17
5199.53836 1.43363e-17
5201.05530 1.42607e-17
5202.57225 1.41483e-17
5204.08920 1.41350e-17
5205.60614 1.41724e-17
5207.12309 1.40581e-17
5208.64003 1.38660e-17
5210.15698 1.38024e-17
5211.67393 1.38050e-17
5213.19087 1.38755e-17
5214.70782 1.39811e-17
5216.22476 1.39908e-17
5217.74171 1.39506e-17
5219.25866 1.41244e-17
5220.77560 1.44095e-17
5222.29255 1.44614e-17
5223.80949 1.43919e-17
5225.32644 1.43390e-17
5226.84339 1.42950e-17
5228.36033 1.40632e-17
5229.87728 1.37331e-17
5231.39422 1.36648e-17
5232.91117 1.37338e-17
5234.42812 1.38193e-17
5235.94506 1.39135e-17
5237.46201 1.37425e-17
5238.97895 1.34315e-17
5240.49590 1.32806e-17
5242.01285 1.32144e-17
5243.52979 1.30864e-17
5245.04674 1.29255e-17
5246.56368 1.27780e-17
5248.08063 1.26375e-17
5249.59758 1.26418e-17
5251.11452 1.27235e-17
5252.63147 1.26895e-17
5254.14841 1.25937e-17
5255.66536 1.26441e-17
5257.18231 1.27727e-17
5258.69925 1.26030e-17
5260.21620 1.22730e-17
5261.73314 1.22619e-17
5263.25009 1.24225e-17
5264.76704 1.25463e-17
5266.28398 1.26501e-17
5267.80093 1.26817e-17
5269.31787 1.26742e-17
5270.83482 1.26524e-17
5272.35177 1.26229e-17
5273.86871 1.27414e-17
5275.38566 1.29405e-17
5276.90260 1.28885e-17
5278.41955 1.26997e-17
5279.93650 1.28030e-17
5281.45344 1.30659e-17
5282.97039 1.30645e-17
5284.48733 1.29184e-17
5286.00428 1.29145e-17
5287.52123 1.29888e-17
5289.03817 1.30806e-17
5290.55512 1.31822e-17
5292.07206 1.32571e-17
5293.58901 1.33173e-17
5295.10596 1.33097e-17
5296.62290 1.32644e-17
5298.13985 1.31757e-17
5299.65679 1.30628e-17
5301.17374 1.31657e-17
5302.69069 1.33884e-17
5304.20763 1.35076e-17
5305.72458 1.35689e-17
5307.24152 1.36466e-17
5308.75847 1.37336e-17
5310.27542 1.39022e-17
5311.79236 1.41167e-17
5313.30931 1.42044e-17
5314.82625 1.42208e-17
5316.34320 1.43486e-17
5317.86015 1.45393e-17
5319.37709 1.45292e-17
5320.89404 1.44056e-17
5322.41098 1.45131e-17
5323.92793 1.47516e-17
5325.44488 1.47810e-17
5326.96182 1.46920e-17
5328.47877 1.47350e-17
5329.99571 1.48532e-17
5331.51266 1.48759e-17
5333.02961 1.48440e-17
5334.54655 1.49395e-17
5336.06350 1.51079e-17
5337.58044 1.51256e-17
5339.09739 1.50570e-17
5340.61434 1.50676e-17
5342.13128 1.51237e-17
5343.64823 1.51166e-17
5345.16517 1.50729e-17
5346.68212 1.50978e-17
5348.19907 1.51626e-17
5349.71601 1.53330e-17
5351.23296 1.55647e-17
5352.74990 1.55755e-17
5354.26685 1.54580e-17
5355.78380 1.54433e-17
5357.30074 1.54883e-17
5358.81769 1.55539e-17
5360.33463 1.56316e-17
5361.85158 1.55992e-17
5363.36853 1.55025e-17
5364.88547 1.55336e-17
5366.40242 1.56397e-17
5367.91936 1.58876e-17
5369.43631 1.62189e-17
5370.95326 1.62700e-17
5372.47020 1.61557e-17
5373.98715 1.60560e-17
5375.50409 1.59648e-17
5377.02104 1.60582e-17
5378.53799 1.62608e-17
5380.05493 1.64169e-17
5381.57188 1.65455e-17
5383.08882 1.65682e-17
5384.60577 1.65280e-17
5386.12272 1.63871e-17
5387.63966 1.61862e-17
5389.15661 1.61555e-17
5390.67355 1.62267e-17
5392.19050 1.62343e-17
5393.70745 1.62037e-17
5395.22439 1.63316e-17
5396.74134 1.65549e-17
5398.25828 1.65878e-17
5399.77523 1.65063e-17
5401.29218 1.64168e-17
5402.80912 1.63225e-17
5404.32607 1.61727e-17
5405.84301 1.59893e-17
5407.35996 1.60827e-17
5408.87691 1.63441e-17
5410.39385 1.65520e-17
5411.91080 1.67274e-17
5413.42774 1.68228e-17
5414.94469 1.68694e-17
5416.46164 1.67703e-17
5417.97858 1.65822e-17
5419.49553 1.65488e-17
5421.01247 1.66105e-17
5422.52942 1.66722e-17
5424.04637 1.67338e-17
5425.56331 1.67201e-17
5427.08026 1.66601e-17
5428.59720 1.66650e-17
5430.11415 1.67099e-17
5431.63110 1.66487e-17
5433.14804 1.65219e-17
5434.66499 1.63847e-17
5436.18193 1.62412e-17
5437.69888 1.62158e-17
5439.21583 1.62639e-17
5440.73277 1.63253e-17
5442.24972 1.63948e-17
5443.76666 1.63050e-17
5445.28361 1.61153e-17
5446.80056 1.58835e-17
5448.31750 1.56253e-17
5449.83445 1.56124e-17
5451.35139 1.57534e-17
5452.86834 1.57048e-17
5454.38529 1.55369e-17
5455.90223 1.55805e-17
5457.41918 1.57574e-17
5458.93612 1.58969e-17
5460.45307 1.60126e-17
5461.97002 1.60355e-17
5463.48696 1.59993e-17
5465.00391 1.60312e-17
5466.52085 1.61063e-17
5468.03780 1.61417e-17
5469.55475 1.61517e-17
5471.07169 1.60932e-17
5472.58864 1.59911e-17
5474.10558 1.60698e-17
5475.62253 1.62641e-17
5477.13948 1.62760e-17
5478.65642 1.61707e-17
5480.17337 1.60790e-17
5481.69031 1.59959e-17
5483.20726 1.60448e-17
5484.72421 1.61787e-17
5486.24115 1.61882e-17
5487.75810 1.61171e-17
5489.27504 1.60629e-17
5490.79199 1.60196e-17
5492.30894 1.60456e-17
5493.82588 1.61168e-17
5495.34283 1.60748e-17
5496.85977 1.59593e-17
5498.37672 1.58342e-17
5499.89367 1.57029e-17
5501.41061 1.56191e-17
5502.92756 1.55665e-17
5504.44450 1.54988e-17
5505.96145 1.54211e-17
5507.47840 1.55453e-17
5508.99534 1.58023e-17
5510.51229 1.59640e-17
5512.02923 1.60630e-17
5513.54618 1.61877e-17
5515.06313 1.63295e-17
5516.58007 1.64733e-17
5518.09702 1.66183e-17
5519.61396 1.68469e-17
5521.13091 1.71309e-17
5522.64786 1.73767e-17
5524.16480 1.75971e-17
5525.68175 1.76722e-17
5527.19869 1.76503e-17
5528.71564 1.76161e-17
5530.23259 1.75736e-17
5531.74953 1.75407e-17
5533.26648 1.75141e-17
5534.78342 1.75843e-17
5536.30037 1.77197e-17
5537.81732 1.76967e-17
5539.33426 1.75669e-17
5540.85121 1.75987e-17
5542.36815 1.77397e-17
5543.88510 1.78782e-17
5545.40205 1.80152e-17
5546.91899 1.80150e-17
5548.43594 1.79217e-17
5549.95288 1.79083e-17
5551.46983 1.79492e-17
5552.98678 1.78635e-17
5554.50372 1.76917e-17
5556.02067 1.77287e-17
5557.53761 1.79085e-17
5559.05456 1.80280e-17
5560.57151 1.81062e-17
5562.08845 1.81896e-17
5563.60540 1.82765e-17
5565.12234 1.83456e-17
5566.63929 1.84024e-17
5568.15624 1.82134e-17
5569.67318 1.78550e-17
5571.19013 1.78031e-17
5572.70707 1.79631e-17
5574.22402 1.79721e-17
5575.74097 1.78765e-17
5577.25791 1.81699e-17
5578.77486 1.87338e-17
5580.29180 1.87107e-17
5581.80875 1.82786e-17
5583.32570 1.80894e-17
5584.84264 1.80700e-17
5586.35959 1.79558e-17
5587.87653 1.77753e-17
5589.39348 1.74922e-17
5590.91043 1.71371e-17
5592.42737 1.70332e-17
5593.94432 1.71058e-17
5595.46126 1.71514e-17
5596.97821 1.71780e-17
5598.49516 1.70475e-17
5600.01210 1.68060e-17
5601.52905 1.67567e-17
5603.04599 1.68436e-17
5604.56294 1.68210e-17
5606.07989 1.67207e-17
5607.59683 1.67265e-17
5609.11378 1.68079e-17
5610.63072 1.68027e-17
5612.14767 1.67357e-17
5613.66462 1.66544e-17
5615.18156 1.65628e-17
5616.69851 1.65160e-17
5618.21545 1.65014e-17
5619.73240 1.64757e-17
5621.24935 1.64421e-17
5622.76629 1.61962e-17
5624.28324 1.57974e-17
5625.80018 1.57638e-17
5627.31713 1.59937e-17
5628.83408 1.60025e-17
5630.35102 1.58513e-17
5631.86797 1.57375e-17
5633.38491 1.56509e-17
5634.90186 1.55499e-17
5636.41881 1.54386e-17
5637.93575 1.51917e-17
5639.45270 1.48459e-17
5640.96964 1.47634e-17
5642.48659 1.48732e-17
5644.00354 1.48530e-17
5645.52048 1.47378e-17
5647.03743 1.47432e-17
5648.55437 1.48370e-17
5650.07132 1.49723e-17
5651.58827 1.51382e-17
5653.10521 1.50695e-17
5654.62216 1.48277e-17
5656.13910 1.45485e-17
5657.65605 1.42418e-17
5659.17300 1.41158e-17
5660.68994 1.41239e-17
5662.20689 1.40772e-17
5663.72383 1.39897e-17
5665.24078 1.38699e-17
5666.75773 1.37260e-17
5668.27467 1.34650e-17
5669.79162 1.31165e-17
5671.30856 1.29067e-17
5672.82551 1.28005e-17
5674.34246 1.25403e-17
5675.85940 1.21644e-17
5677.37635 1.19547e-17
5678.89329 1.18699e-17
5680.41024 1.17520e-17
5681.92719 1.16091e-17
5683.44413 1.12977e-17
5684.96108 1.08589e-17
5686.47802 1.05098e-17
5687.99497 1.02286e-17
5689.51192 9.99322e-18
5691.02886 9.79262e-18
5692.54581 9.60266e-18
5694.06275 9.42078e-18
5695.57970 9.11884e-18
5697.09665 8.72542e-18
5698.61359 8.43399e-18
5700.13054 8.22045e-18
5701.64748 8.00123e-18
5703.16443 7.77765e-18
5704.68138 7.59378e-18
5706.19832 7.44042e-18
5707.71527 7.30957e-18
5709.23221 7.19606e-18
5710.74916 6.88145e-18
5712.26611 6.41155e-18
5713.78305 6.13567e-18
5715.30000 6.00960e-18
5716.81694 5.86402e-18
5718.33389 5.70335e-18
5719.85084 5.59173e-18
5721.36778 5.51819e-18
5722.88473 5.37536e-18
5724.40167 5.17859e-18
5725.91862 5.02088e-18
5727.43557 4.89367e-18
5728.95251 4.78854e-18
5730.46946 4.70069e-18
5731.98640 4.62172e-18
5733.50335 4.54972e-18
5735.02030 4.52737e-18
5736.53724 4.54408e-18
5738.05419 4.48260e-18
5739.57113 4.35961e-18
5741.08808 4.34787e-18
5742.60503 4.42389e-18
5744.12197 4.33945e-18
5745.63892 4.12811e-18
5747.15586 4.03882e-18
5748.67281 4.04635e-18
5750.18976 4.12651e-18
5751.70670 4.26444e-18
5753.22365 4.33105e-18
5754.74059 4.34078e-18
5756.25754 4.32535e-18
5757.77449 4.28980e-18
5759.29143 4.28726e-18
5760.80838 4.31117e-18
5762.32532 4.34229e-18
5763.84227 4.37918e-18
5765.35922 4.45780e-18
5766.87616 4.56997e-18
5768.39311 4.65842e-18
5769.91005 4.72776e-18
5771.42700 4.82314e-18
5772.94395 4.93957e-18
5774.46089 5.04647e-18
5775.97784 5.14563e-18
5777.49478 5.24169e-18
5779.01173 5.33523e-18
5780.52868 5.45764e-18
5782.04562 5.60357e-18
5783.56257 5.78395e-18
5785.07951 5.99246e-18
5786.59646 6.17805e-18
5788.11341 6.34493e-18
5789.63035 6.58951e-18
5791.14730 6.89771e-18
5792.66424 7.04929e-18
5794.18119 7.07227e-18
5795.69814 7.26925e-18
5797.21508 7.60947e-18
5798.73203 7.84404e-18
5800.24897 7.99140e-18
5801.76592 8.20642e-18
5803.28287 8.47744e-18
5804.79981 8.70975e-18
5806.31676 8.90994e-18
5807.83370 9.23522e-18
5809.35065 9.66459e-18
5810.86760 1.00644e-17
5812.38454 1.04397e-17
5813.90149 1.08523e-17
5815.41843 1.12961e-17
5816.93538 1.15469e-17
5818.45233 1.16363e-17
5819.96927 1.19687e-17
5821.48622 1.25049e-17
5823.00316 1.28687e-17
5824.52011 1.30875e-17
5826.03706 1.33101e-17
5827.55400 1.35360e-17
5829.07095 1.38765e-17
5830.58789 1.43139e-17
5832.10484 1.46658e-17
5833.62179 1.49452e-17
5835.13873 1.52550e-17
5836.65568 1.55905e-17
5838.17262 1.60119e-17
5839.68957 1.65063e-17
5841.20652 1.69428e-17
5842.72346 1.73300e-17
5844.24041 1.76682e-17
5845.75735 1.79645e-17
5847.27430 1.81649e-17
5848.79125 1.82832e-17
5850.30819 1.85249e-17
5851.82514 1.88725e-17
5853.34208 1.92631e-17
5854.85903 1.96905e-17
5856.37598 2.00935e-17
5857.89292 2.04752e-17
5859.40987 2.07181e-17
5860.92681 2.08411e-17
5862.44376 2.10763e-17
5863.96071 2.14089e-17
5865.47765 2.17249e-17
5866.99460 2.20265e-17
5868.51154 2.21967e-17
5870.02849 2.22525e-17
5871.54544 2.25429e-17
5873.06238 2.30383e-17
5874.57933 2.35926e-17
5876.09627 2.41986e-17
5877.61322 2.44475e-17
5879.13017 2.43830e-17
5880.64711 2.43594e-17
5882.16406 2.43716e-17
5883.68100 2.43619e-17
5885.19795 2.43331e-17
5886.71490 2.45436e-17
5888.23184 2.49653e-17
5889.74879 2.52339e-17
5891.26573 2.53670e-17
5892.78268 2.54952e-17
5894.29963 2.56188e-17
5895.81657 2.58333e-17
5897.33352 2.61284e-17
5898.85046 2.62297e-17
5900.36741 2.61581e-17
5901.88436 2.63278e-17
5903.40130 2.67130e-17
5904.91825 2.68456e-17
5906.43519 2.67519e-17
5907.95214 2.65573e-17
5909.46909 2.62723e-17
5910.98603 2.62080e-17
5912.50298 2.63419e-17
5914.01992 2.63328e-17
5915.53687 2.61949e-17
5917.05382 2.61570e-17
5918.57076 2.62095e-17
5920.08771 2.62197e-17
5921.60465 2.61916e-17
5923.12160 2.62169e-17
5924.63855 2.62907e-17
5926.15549 2.64775e-17
5927.67244 2.67670e-17
5929.18938 2.70206e-17
5930.70633 2.72415e-17
5932.22328 2.73537e-17
5933.74022 2.73667e-17
5935.25717 2.73363e-17
5936.77411 2.72663e-17
5938.29106 2.73212e-17
5939.80801 2.74906e-17
5941.32495 2.75131e-17
5942.84190 2.74005e-17
5944.35884 2.71728e-17
5945.87579 2.68390e-17
5947.39274 2.66841e-17
5948.90968 2.66947e-17
5950.42663 2.67537e-17
5951.94357 2.68575e-17
5953.46052 2.68868e-17
5954.97747 2.68469e-17
5956.49441 2.66911e-17
5958.01136 2.64276e-17
5959.52830 2.63281e-17
5961.04525 2.63813e-17
5962.56220 2.62640e-17
5964.07914 2.59871e-17
5965.59609 2.59337e-17
5967.11303 2.60896e-17
5968.62998 2.58352e-17
5970.14693 2.51950e-17
5971.66387 2.49888e-17
5973.18082 2.51913e-17
5974.69776 2.53439e-17
5976.21471 2.54493e-17
5977.73166 2.53897e-17
5979.24860 2.51736e-17
5980.76555 2.50026e-17
5982.28249 2.48742e-17
5983.79944 2.45928e-17
5985.31639 2.41660e-17
5986.83333 2.39609e-17
5988.35028 2.39668e-17
5989.86722 2.39238e-17
5991.38417 2.38342e-17
5992.90112 2.37878e-17
5994.41806 2.37827e-17
5995.93501 2.38138e-17
5997.45195 2.38798e-17
5998.96890 2.36870e-17
6000.48585 2.32453e-17
6002.00279 2.30712e-17
6003.51974 2.31553e-17
6005.03668 2.30490e-17
6006.55363 2.27589e-17
6008.07058 2.26477e-17
6009.58752 2.27097e-17
6011.10447 2.26559e-17
6012.62141 2.24898e-17
6014.13836 2.23397e-17
6015.65531 2.22051e-17
6017.17225 2.19351e-17
6018.68920 2.15330e-17
6020.20614 2.14074e-17
6021.72309 2.15523e-17
6023.24004 2.15525e-17
6024.75698 2.14109e-17
6026.27393 2.12390e-17
6027.79087 2.10373e-17
6029.30782 2.09718e-17
6030.82477 2.10402e-17
6032.34171 2.09586e-17
6033.85866 2.07294e-17
6035.37560 2.04292e-17
6036.89255 2.00587e-17
6038.40950 1.98888e-17
6039.92644 1.99177e-17
6041.44339 2.00159e-17
6042.96033 2.01829e-17
6044.47728 2.02364e-17
6045.99423 2.01769e-17
6047.51117 2.00756e-17
6049.02812 1.99324e-17
6050.54506 1.96725e-17
6052.06201 1.92957e-17
6053.57896 1.90526e-17
6055.09590 1.89434e-17
6056.61285 1.88504e-17
6058.12979 1.87735e-17
6059.64674 1.87415e-17
6061.16369 1.87547e-17
6062.68063 1.85997e-17
6064.19758 1.82751e-17
6065.71452 1.81349e-17
6067.23147 1.81812e-17
6068.74842 1.80641e-17
6070.26536 1.77814e-17
6071.78231 1.75863e-17
6073.29925 1.74803e-17
6074.81620 1.73184e-17
6076.33315 1.70996e-17
6077.85009 1.69823e-17
6079.36704 1.69686e-17
6080.88398 1.70135e-17
6082.40093 1.71181e-17
6083.91788 1.71219e-17
6085.43482 1.70223e-17
6086.95177 1.69615e-17
6088.46871 1.69407e-17
6089.98566 1.69153e-17
6091.50261 1.68851e-17
6093.01955 1.69406e-17
6094.53650 1.70847e-17
6096.05344 1.70064e-17
6097.57039 1.66977e-17
6099.08734 1.65593e-17
6100.60428 1.65977e-17
6102.12123 1.66500e-17
6103.63817 1.67168e-17
6105.15512 1.67168e-17
6106.67207 1.66471e-17
6108.18901 1.65304e-17
6109.70596 1.63646e-17
6111.22290 1.63204e-17
6112.73985 1.64038e-17
6114.25680 1.64341e-17
6115.77374 1.64086e-17
6117.29069 1.63735e-17
6118.80763 1.63283e-17
6120.32458 1.62589e-17
6121.84153 1.61641e-17
6123.35847 1.60408e-17
6124.87542 1.58876e-17
6126.39236 1.58535e-17
6127.90931 1.59455e-17
6129.42626 1.59725e-17
6130.94320 1.59304e-17
6132.46015 1.59350e-17
6133.97709 1.59892e-17
6135.49404 1.60056e-17
6137.01099 1.59817e-17
6138.52793 1.58776e-17
6140.04488 1.56878e-17
6141.56182 1.57098e-17
6143.07877 1.59591e-17
6144.59572 1.61167e-17
6146.11266 1.61756e-17
6147.62961 1.61498e-17
6149.14655 1.60329e-17
6150.66350 1.59945e-17
6152.18045 1.60408e-17
6153.69739 1.59732e-17
6155.21434 1.57825e-17
6156.73128 1.55759e-17
6158.24823 1.53520e-17
6159.76518 1.52546e-17
6161.28212 1.52945e-17
6162.79907 1.53643e-17
6164.31601 1.54669e-17
6165.83296 1.55452e-17
6167.34991 1.55971e-17
6168.86685 1.54646e-17
6170.38380 1.51301e-17
6171.90074 1.51261e-17
6173.41769 1.54850e-17
6174.93464 1.55024e-17
6176.45158 1.51447e-17
6177.96853 1.49425e-17
6179.48547 1.49114e-17
6181.00242 1.48756e-17
6182.51937 1.48347e-17
6184.03631 1.47979e-17
6185.55326 1.47659e-17
6187.07020 1.46707e-17
6188.58715 1.45055e-17
6190.10410 1.44421e-17
6191.62104 1.44922e-17
6193.13799 1.44603e-17
6194.65493 1.43368e-17
6196.17188 1.43934e-17
6197.68883 1.46514e-17
6199.20577 1.48348e-17
6200.72272 1.49346e-17
6202.23966 1.49851e-17
6203.75661 1.49804e-17
6205.27356 1.49342e-17
6206.79050 1.48413e-17
6208.30745 1.47942e-17
6209.82439 1.47986e-17
6211.34134 1.48741e-17
6212.85829 1.50298e-17
6214.37523 1.50376e-17
6215.89218 1.48777e-17
6217.40912 1.48606e-17
6218.92607 1.50056e-17
6220.44302 1.51423e-17
6221.95996 1.52696e-17
6223.47691 1.52650e-17
6224.99385 1.51100e-17
6226.51080 1.51402e-17
6228.02775 1.53818e-17
6229.54469 1.55003e-17
6231.06164 1.54777e-17
6232.57858 1.54744e-17
6234.09553 1.54932e-17
6235.61248 1.55832e-17
6237.12942 1.57550e-17
6238.64637 1.58397e-17
6240.16331 1.58237e-17
6241.68026 1.56995e-17
6243.19721 1.54500e-17
6244.71415 1.53653e-17
6246.23110 1.54720e-17
6247.74804 1.54878e-17
6249.26499 1.53980e-17
6250.78194 1.52785e-17
6252.29888 1.51243e-17
6253.81583 1.49946e-17
6255.33277 1.48935e-17
6256.84972 1.48062e-17
6258.36667 1.47351e-17
6259.88361 1.46521e-17
6261.40056 1.45551e-17
6262.91750 1.44732e-17
6264.43445 1.44088e-17
6265.95140 1.44094e-17
6267.46834 1.44868e-17
6268.98529 1.45567e-17
6270.50223 1.46176e-17
6272.01918 1.46696e-17
6273.53613 1.47113e-17
6275.05307 1.46794e-17
6276.57002 1.45605e-17
6278.08696 1.44222e-17
6279.60391 1.42608e-17
6281.12086 1.41302e-17
6282.63780 1.40364e-17
6284.15475 1.40155e-17
6285.67169 1.40819e-17
6287.18864 1.42001e-17
6288.70559 1.43805e-17
6290.22253 1.46180e-17
6291.73948 1.49240e-17
6293.25642 1.50033e-17
6294.77337 1.48097e-17
6296.29032 1.46904e-17
6297.80726 1.46605e-17
6299.32421 1.46904e-17
6300.84115 1.47924e-17
6302.35810 1.48452e-17
6303.87505 1.48383e-17
6305.39199 1.48043e-17
6306.90894 1.47373e-17
6308.42588 1.46801e-17
6309.94283 1.46346e-17
6311.45978 1.45912e-17
6312.97672 1.45502e-17
6314.49367 1.45297e-17
6316.01061 1.45341e-17
6317.52756 1.45220e-17
6319.04451 1.44896e-17
6320.56145 1.44339e-17
6322.07840 1.43494e-17
6323.59534 1.42932e-17
6325.11229 1.42716e-17
6326.62924 1.43625e-17
6328.14618 1.45923e-17
6329.66313 1.45805e-17
6331.18007 1.42698e-17
6332.69702 1.41397e-17
6334.21397 1.42336e-17
6335.73091 1.42263e-17
6337.24786 1.40934e-17
6338.76480 1.40434e-17
6340.28175 1.40970e-17
6341.79870 1.40588e-17
6343.31564 1.39058e-17
6344.83259 1.38089e-17
6346.34953 1.37822e-17
6347.86648 1.37759e-17
6349.38343 1.37952e-17
6350.90037 1.37152e-17
6352.41732 1.35106e-17
6353.93426 1.34402e-17
6355.45121 1.35389e-17
6356.96816 1.35087e-17
6358.48510 1.33156e-17
6360.00205 1.32374e-17
6361.51899 1.33048e-17
6363.03594 1.33531e-17
6364.55289 1.33770e-17
6366.06983 1.34781e-17
6367.58678 1.36777e-17
6369.10372 1.37431e-17
6370.62067 1.36377e-17
6372.13762 1.35110e-17
6373.65456 1.33572e-17
6375.17151 1.32797e-17
6376.68845 1.33002e-17
6378.20540 1.32122e-17
6379.72235 1.29850e-17
6381.23929 1.29297e-17
6382.75624 1.30957e-17
6384.27318 1.31698e-17
6385.79013 1.31252e-17
6387.30708 1.31581e-17
6388.82402 1.32913e-17
6390.34097 1.33377e-17
6391.85791 1.32714e-17
6393.37486 1.32191e-17
6394.89181 1.31852e-17
6396.40875 1.32940e-17
6397.92570 1.35885e-17
6399.44264 1.36936e-17
6400.95959 1.35514e-17
6402.47654 1.33630e-17
6403.99348 1.31141e-17
6405.51043 1.30515e-17
6407.02737 1.32333e-17
6408.54432 1.33327e-17
6410.06127 1.33235e-17
6411.57821 1.33649e-17
6413.09516 1.34729e-17
6414.61210 1.36035e-17
6416.12905 1.37640e-17
6417.64600 1.37741e-17
6419.16294 1.35852e-17
6420.67989 1.34406e-17
6422.19683 1.33549e-17
6423.71378 1.33247e-17
6425.23073 1.33685e-17
6426.74767 1.33117e-17
6428.26462 1.31206e-17
6429.78156 1.30611e-17
6431.29851 1.31778e-17
6432.81546 1.32627e-17
6434.33240 1.33051e-17
6435.84935 1.34224e-17
6437.36629 1.36405e-17
6438.88324 1.37271e-17
6440.40019 1.36363e-17
6441.91713 1.35610e-17
6443.43408 1.35066e-17
6444.95102 1.34838e-17
6446.46797 1.35039e-17
6447.98492 1.35140e-17
6449.50186 1.35106e-17
6451.01881 1.34651e-17
6452.53575 1.33627e-17
6454.05270 1.33031e-17
6455.56965 1.33020e-17
6457.08659 1.32963e-17
6458.60354 1.32844e-17
6460.12048 1.33225e-17
6461.63743 1.34290e-17
6463.15438 1.34688e-17
6464.67132 1.34171e-17
6466.18827 1.33198e-17
6467.70521 1.31601e-17
6469.22216 1.31280e-17
6470.73911 1.32719e-17
6472.25605 1.33362e-17
6473.77300 1.32907e-17
6475.28994 1.32349e-17
6476.80689 1.31649e-17
6478.32384 1.30184e-17
6479.84078 1.27656e-17
6481.35773 1.25720e-17
6482.87467 1.24607e-17
6484.39162 1.24515e-17
6485.90857 1.25849e-17
6487.42551 1.25293e-17
6488.94246 1.22091e-17
6490.45940 1.19970e-17
6491.97635 1.19362e-17
6493.49330 1.18910e-17
6495.01024 1.18677e-17
6496.52719 1.17598e-17
6498.04413 1.15327e-17
6499.56108 1.14760e-17
6501.07803 1.16597e-17
6502.59497 1.16915e-17
6504.11192 1.15084e-17
6505.62886 1.12950e-17
6507.14581 1.10386e-17
6508.66276 1.07920e-17
6510.17970 1.05590e-17
6511.69665 1.02640e-17
6513.21359 9.88041e-18
6514.73054 9.58801e-18
6516.24749 9.42571e-18
6517.76443 9.31331e-18
6519.28138 9.27233e-18
6520.79832 9.13110e-18
6522.31527 8.84600e-18
6523.83222 8.54683e-18
6525.34916 8.22742e-18
6526.86611 8.00822e-18
6528.38305 7.93364e-18
6529.90000 7.84503e-18
6531.41695 7.73611e-18
6532.93389 7.63845e-18
6534.45084 7.55712e-18
6535.96778 7.44530e-18
6537.48473 7.28913e-18
6539.00168 7.09336e-18
6540.51862 6.83999e-18
6542.03557 6.71453e-18
6543.55251 6.77564e-18
6545.06946 6.74026e-18
6546.58641 6.56374e-18
6548.10335 6.47097e-18
6549.62030 6.50106e-18
6551.13724 6.50373e-18
6552.65419 6.46610e-18
6554.17114 6.43504e-18
6555.68808 6.41368e-18
6557.20503 6.42146e-18
6558.72197 6.47236e-18
6560.23892 6.55788e-18
6561.75587 6.69475e-18
6563.27281 6.69044e-18
6564.78976 6.47679e-18
6566.30670 6.31820e-18
6567.82365 6.24146e-18
6569.34060 6.24336e-18
6570.85754 6.36251e-18
6572.37449 6.45688e-18
6573.89143 6.51421e-18
6575.40838 6.57019e-18
6576.92533 6.62414e-18
6578.44227 6.65798e-18
6579.95922 6.66158e-18
6581.47616 6.73203e-18
6582.99311 6.90322e-18
6584.51006 7.13414e-18
6586.02700 7.45535e-18
6587.54395 7.92596e-18
6589.06089 8.62241e-18
6590.57784 9.05049e-18
6592.09479 9.07181e-18
6593.61173 8.95833e-18
6595.12868 8.63996e-18
6596.64562 8.43271e-18
6598.16257 8.39484e-18
6599.67952 8.34724e-18
6601.19646 8.28479e-18
6602.71341 8.33672e-18
6604.23035 8.56392e-18
6605.74730 8.82991e-18
6607.26425 9.15548e-18
6608.78119 9.48885e-18
6610.29814 9.83423e-18
6611.81508 1.00828e-17
6613.33203 1.01820e-17
6614.84898 1.02275e-17
6616.36592 1.01897e-17
6617.88287 1.03159e-17
6619.39981 1.06961e-17
6620.91676 1.09425e-17
6622.43371 1.09809e-17
6623.95065 1.11449e-17
6625.46760 1.15043e-17
6626.98454 1.18610e-17
6628.50149 1.22135e-17
6630.01844 1.23905e-17
6631.53538 1.22925e-17
6633.05233 1.23788e-17
6634.56927 1.27541e-17
6636.08622 1.31005e-17
6637.60317 1.34017e-17
6639.12011 1.35806e-17
6640.63706 1.35669e-17
6642.15400 1.36075e-17
6643.67095 1.37337e-17
6645.18790 1.39863e-17
6646.70484 1.44392e-17
6648.22179 1.48722e-17
6649.73873 1.52737e-17
6651.25568 1.55867e-17
6652.77263 1.57585e-17
6654.28957 1.58983e-17
6655.80652 1.59868e-17
6657.32346 1.60535e-17
6658.84041 1.60855e-17
6660.35736 1.61796e-17
6661.87430 1.63733e-17
6663.39125 1.66000e-17
6664.90819 1.68800e-17
6666.42514 1.70875e-17
6667.94209 1.71783e-17
6669.45903 1.72671e-17
6670.97598 1.73524e-17
6672.49292 1.75416e-17
6674.00987 1.78993e-17
6675.52682 1.82318e-17
6677.04376 1.85234e-17
6678.56071 1.86599e-17
6680.07765 1.85435e-17
6681.59460 1.83677e-17
6683.11155 1.80952e-17
6684.62849 1.80271e-17
6686.14544 1.82929e-17
6687.66238 1.85322e-17
6689.17933 1.87281e-17
6690.69628 1.87821e-17
6692.21322 1.86030e-17
6693.73017 1.84801e-17
6695.24711 1.84501e-17
6696.76406 1.84491e-17
6698.28101 1.84959e-17
6699.79795 1.85309e-17
6701.31490 1.85464e-17
6702.83184 1.85672e-17
6704.34879 1.85967e-17
6705.86574 1.85477e-17
6707.38268 1.83678e-17
6708.89963 1.83891e-17
6710.41657 1.87458e-17
6711.93352 1.89950e-17
6713.45047 1.90646e-17
6714.96741 1.90591e-17
6716.48436 1.89279e-17
6718.00130 1.88950e-17
6719.51825 1.90273e-17
6721.03520 1.90948e-17
6722.55214 1.90530e-17
6724.06909 1.90934e-17
6725.58603 1.92728e-17
6727.10298 1.93733e-17
6728.61993 1.93401e-17
6730.13687 1.92950e-17
6731.65382 1.92296e-17
6733.17076 1.91780e-17
6734.68771 1.91495e-17
6736.19461 1.90926e-17
6737.72160 1.89872e-17
6739.23855 1.89300e-17
6740.75549 1.89548e-17
6742.27244 1.90525e-17
6743.78939 1.92750e-17
6745.30633 1.94329e-17
6746.82328 1.94797e-17
6748.34022 1.93895e-17
6749.85717 1.90630e-17
6751.37412 1.88724e-17
6752.88102 1.89169e-17
6754.40801 1.89622e-17
6755.92495 1.90091e-17
6757.44190 1.90080e-17
6758.95885 1.89238e-17
6760.47579 1.88683e-17
6761.98269 1.88626e-17
6763.50968 1.88746e-17
6765.01658 1.89175e-17
6766.54358 1.87863e-17
6768.06052 1.83509e-17
6769.56742 1.80186e-17
6771.08437 1.78670e-17
6772.61136 1.78099e-17
6774.11826 1.79186e-17
6775.64525 1.80402e-17
6777.15215 1.81843e-17
6778.66910 1.82475e-17
6780.19609 1.81681e-17
6781.71304 1.81966e-17
6783.22998 1.84159e-17
6784.74693 1.84692e-17
6786.26387 1.82283e-17
6787.77077 1.80193e-17
6789.29777 1.78669e-17
6790.81471 1.77484e-17
6792.33166 1.76902e-17
6793.83856 1.75839e-17
6795.36555 1.73916e-17
6796.87245 1.74791e-17
6798.39944 1.80684e-17
6799.90634 1.82541e-17
6801.43333 1.77137e-17
6802.94023 1.72765e-17
6804.45718 1.70254e-17
6805.97413 1.68894e-17
6807.50112 1.69613e-17
6809.00802 1.69992e-17
6810.52496 1.69755e-17
6812.04191 1.68766e-17
6813.55886 1.66412e-17
6815.08585 1.64195e-17
6816.60279 1.62225e-17
6818.11974 1.59786e-17
6819.62664 1.56489e-17
6821.15363 1.54227e-17
6822.66053 1.53861e-17
6824.18752 1.54386e-17
6825.70447 1.56547e-17
6827.21137 1.58020e-17
6828.72832 1.58230e-17
6830.24526 1.58152e-17
6831.76221 1.57547e-17
6833.28920 1.56955e-17
6834.79610 1.56389e-17
6836.31305 1.56309e-17
6837.82999 1.57130e-17
6839.34694 1.57173e-17
6840.86388 1.55770e-17
6842.39088 1.55672e-17
6843.89778 1.58003e-17
6845.41472 1.56685e-17
6846.93167 1.55367e-17
6848.44861 1.54049e-17
6849.96556 1.52731e-17
6851.48251 1.51414e-17
6852.99945 1.50096e-17
6854.51640 1.48778e-17
6856.04339 1.47460e-17
6857.55029 1.46142e-17
6859.07728 1.44824e-17
6860.58418 1.43506e-17
6862.10113 1.42189e-17
6863.61807 1.40871e-17
6865.13502 1.39554e-17
6866.65197 1.38236e-17
6868.16891 1.36919e-17
6869.68586 1.35601e-17
6871.20280 1.34284e-17
6872.71975 1.32966e-17
6874.23670 1.31649e-17
6875.75364 1.30331e-17
6877.27059 1.29014e-17
6878.78753 1.27697e-17
6880.30448 1.26379e-17
6881.82143 1.25062e-17
6883.33837 1.23745e-17
6884.85532 1.22428e-17
6886.37226 1.21111e-17
6887.88921 1.19793e-17
6889.40616 1.18476e-17
6890.93315 1.17159e-17
6892.44005 1.15842e-17
6893.95699 1.14525e-17
6895.47394 1.13208e-17
6896.99089 1.11891e-17
6898.50783 1.10574e-17
6900.02478 1.09257e-17
6901.54172 1.07941e-17
6903.05867 1.06624e-17
6904.57562 1.05307e-17
6906.09256 1.03990e-17
6907.60951 1.02674e-17
6909.12645 1.01357e-17
6910.64340 1.00041e-17
6912.16035 9.87240e-18
6913.67729 9.74074e-18
6915.19424 9.60908e-18
6916.71118 9.47742e-18
6918.22813 9.34581e-18
6919.74508 9.21416e-18
6921.26202 9.08251e-18
6922.77897 8.95087e-18
6924.29591 8.81923e-18
6925.81286 8.68763e-18
6927.32981 8.55600e-18
6928.84675 8.42437e-18
6930.36370 8.29274e-18
6931.88064 8.16111e-18
6933.39759 8.02949e-18
6934.91454 7.89792e-18
6936.43148 7.96841e-18
6937.94843 7.98420e-18
6939.46537 7.99150e-18
6940.98232 7.98161e-18
6942.49927 7.96642e-18
6944.01621 7.94048e-18
6945.53316 7.89991e-18
6947.05010 7.82955e-18
6948.56705 7.87484e-18
6950.08400 8.15535e-18
6951.60094 8.36748e-18
6953.11789 8.44011e-18
6954.63483 8.48551e-18
6956.15178 8.47523e-18
6957.66873 8.48490e-18
6959.18567 8.53552e-18
6960.70262 8.61899e-18
6962.21956 8.77005e-18
6963.73651 8.96942e-18
6965.25346 9.26851e-18
6966.77040 9.55747e-18
6968.28735 9.82547e-18
6969.80429 1.00606e-17
6971.32124 1.02275e-17
6972.83819 1.03692e-17
6974.35513 1.04584e-17
6975.87208 1.05463e-17
6977.38902 1.06313e-17
6978.90597 1.07148e-17
6980.42292 1.07956e-17
6981.93986 1.08376e-17
6983.45681 1.07987e-17
6984.97375 1.08457e-17
6986.49070 1.10735e-17
6988.00765 1.13045e-17
6989.52459 1.15424e-17
6991.04154 1.16997e-17
6992.55848 1.16865e-17
6994.07543 1.17511e-17
6995.59238 1.19805e-17
6997.10932 1.23016e-17
6998.62627 1.28173e-17
7000.14321 1.33244e-17
7001.66016 1.38135e-17
7003.17711 1.41184e-17
7004.69405 1.40303e-17
7006.21100 1.40287e-17
7007.72794 1.42120e-17
7009.24489 1.43066e-17
7010.76184 1.42108e-17
7012.27878 1.41696e-17
7013.79573 1.42459e-17
7015.31267 1.43892e-17
7016.82962 1.46776e-17
7018.34657 1.49500e-17
7019.86351 1.51880e-17
7021.38046 1.53957e-17
7022.89740 1.55377e-17
7024.41435 1.55979e-17
7025.93130 1.54804e-17
7027.44824 1.54680e-17
7028.96519 1.56849e-17
7030.48213 1.59861e-17
7031.99908 1.64718e-17
7033.51603 1.68736e-17
7035.03297 1.70917e-17
7036.54992 1.71932e-17
7038.06686 1.70380e-17
7039.58381 1.70322e-17
7041.10076 1.73559e-17
7042.61770 1.76494e-17
7044.13465 1.78761e-17
7045.65159 1.80137e-17
7047.16854 1.79540e-17
7048.68549 1.79116e-17
7050.20243 1.79075e-17
7051.71938 1.79309e-17
7053.23632 1.80160e-17
7054.75327 1.81042e-17
7056.27022 1.81994e-17
7057.78716 1.82400e-17
7059.30411 1.81584e-17
7060.82105 1.82336e-17
7062.33800 1.86613e-17
7063.85495 1.89265e-17
7065.37189 1.88253e-17
7066.88884 1.87078e-17
7068.40578 1.85535e-17
7069.92273 1.84490e-17
7071.43968 1.84573e-17
7072.95662 1.85282e-17
7074.47357 1.87407e-17
7075.99051 1.88887e-17
7077.50746 1.88900e-17
7079.02441 1.89230e-17
7080.54135 1.90284e-17
7082.05830 1.90907e-17
7083.57524 1.90545e-17
7085.09219 1.89981e-17
7086.60914 1.88954e-17
7088.12608 1.88261e-17
7089.64303 1.88336e-17
7091.15997 1.88327e-17
7092.67692 1.88121e-17
7094.19387 1.88267e-17
7095.71081 1.89227e-17
7097.22776 1.90820e-17
7098.74470 1.93883e-17
7100.26165 1.95862e-17
7101.77860 1.95320e-17
7103.29554 1.93955e-17
7104.81249 1.90668e-17
7106.32943 1.88013e-17
7107.84638 1.86838e-17
7109.36333 1.86018e-17
7110.88027 1.86031e-17
7112.39722 1.86128e-17
7113.91416 1.86423e-17
7115.43111 1.85625e-17
7116.94806 1.82243e-17
7118.46500 1.80801e-17
7119.98195 1.83942e-17
7121.49889 1.85306e-17
7123.01584 1.82458e-17
7124.53279 1.79901e-17
7126.04973 1.78038e-17
7127.56668 1.76967e-17
7129.08362 1.77786e-17
7130.60057 1.78395e-17
7132.11752 1.78502e-17
7133.63446 1.78512e-17
7135.15141 1.78291e-17
7136.66835 1.76852e-17
7138.18530 1.72480e-17
7139.70225 1.68882e-17
7141.21919 1.67151e-17
7142.73614 1.66384e-17
7144.25308 1.67946e-17
7145.77003 1.68528e-17
7147.28698 1.66735e-17
7148.80392 1.65592e-17
7150.32087 1.66028e-17
7151.83781 1.64941e-17
7153.35476 1.60140e-17
7154.87171 1.56207e-17
7156.38865 1.54400e-17
7157.90560 1.52879e-17
7159.42254 1.52058e-17
7160.93949 1.51610e-17
7162.45644 1.52080e-17
7163.97338 1.52363e-17
7165.49033 1.52184e-17
7167.00727 1.52018e-17
7168.52422 1.51882e-17
7170.04117 1.51754e-17
7171.55811 1.51643e-17
7173.07506 1.51504e-17
7174.59200 1.51293e-17
7176.10895 1.50870e-17
7177.62590 1.49916e-17
7179.14284 1.49632e-17
7180.65979 1.51022e-17
7182.17673 1.50656e-17
7183.69368 1.45877e-17
7185.21063 1.42343e-17
7186.72757 1.41945e-17
7188.24452 1.42359e-17
7189.76146 1.44825e-17
7191.27841 1.47071e-17
7192.79536 1.48762e-17
7194.31230 1.49490e-17
7195.82925 1.47775e-17
7197.34619 1.46177e-17
7198.86314 1.44878e-17
7200.38009 1.43846e-17
7201.89703 1.43496e-17
7203.41398 1.43703e-17
7204.93092 1.45337e-17
7206.44787 1.46394e-17
7207.96482 1.45968e-17
7209.48176 1.45964e-17
7210.99871 1.47044e-17
7212.51565 1.47286e-17
7214.03260 1.45361e-17
7215.54955 1.44564e-17
7217.06649 1.46687e-17
7218.58344 1.49018e-17
7220.10038 1.51892e-17
7221.61733 1.53405e-17
7223.13428 1.51373e-17
7224.65122 1.49335e-17
7226.16817 1.47282e-17
7227.68511 1.45444e-17
7229.20206 1.44165e-17
7230.71901 1.42722e-17
7232.23595 1.40848e-17
7233.75290 1.40552e-17
7235.26984 1.44421e-17
7236.78679 1.46832e-17
7238.30374 1.45382e-17
7239.82068 1.44402e-17
7241.33763 1.44666e-17
7242.85457 1.45071e-17
7244.37152 1.45852e-17
7245.88847 1.46097e-17
7247.40541 1.44916e-17
7248.92236 1.44429e-17
7250.43930 1.45799e-17
7251.95625 1.46616e-17
7253.47320 1.45950e-17
7254.99014 1.45025e-17
7256.50709 1.43406e-17
7258.02403 1.42829e-17
7259.54098 1.45066e-17
7261.05793 1.47482e-17
7262.57487 1.50384e-17
7264.09182 1.52770e-17
7265.60876 1.53760e-17
7267.12571 1.55038e-17
7268.64266 1.57098e-17
7270.15960 1.58810e-17
7271.67655 1.59574e-17
7273.19349 1.59600e-17
7274.71044 1.57609e-17
7276.22739 1.55877e-17
7277.74433 1.54854e-17
7279.26128 1.54622e-17
7280.77822 1.56567e-17
7282.29517 1.57767e-17
7283.81212 1.56906e-17
7285.32906 1.55600e-17
7286.84601 1.53060e-17
7288.36295 1.50976e-17
7289.87990 1.50160e-17
7291.39685 1.49904e-17
7292.91379 1.51208e-17
7294.43074 1.52138e-17
7295.94768 1.52022e-17
7297.46463 1.51933e-17
7298.98158 1.51921e-17
7300.49852 1.51624e-17
7302.01547 1.50524e-17
7303.53241 1.49603e-17
7305.04936 1.49186e-17
7306.56631 1.48936e-17
7308.08325 1.49159e-17
7309.60020 1.49831e-17
7311.11714 1.51782e-17
7312.63409 1.52573e-17
7314.15104 1.50067e-17
7315.66798 1.48975e-17
7317.18493 1.51909e-17
7318.70187 1.54142e-17
7320.21882 1.54369e-17
7321.73577 1.54260e-17
7323.25271 1.53188e-17
7324.76966 1.53480e-17
7326.28660 1.57701e-17
7327.80355 1.61861e-17
7329.32050 1.65847e-17
7330.83744 1.67765e-17
7332.35439 1.63689e-17
7333.87133 1.60013e-17
7335.38828 1.57502e-17
7336.90523 1.56030e-17
7338.42217 1.57585e-17
7339.93912 1.59033e-17
7341.45606 1.60170e-17
7342.97301 1.60122e-17
7344.48996 1.56600e-17
7346.00690 1.54116e-17
7347.52385 1.54679e-17
7349.04079 1.54803e-17
7350.55774 1.53629e-17
7352.07469 1.53416e-17
7353.59163 1.56049e-17
7355.10858 1.57522e-17
7356.62552 1.55547e-17
7358.14247 1.54409e-17
7359.65942 1.55763e-17
7361.17636 1.55424e-17
7362.69331 1.50035e-17
7364.21025 1.46429e-17
7365.72720 1.48155e-17
7367.24415 1.49195e-17
7368.76109 1.48173e-17
7370.27804 1.48158e-17
7371.79498 1.51175e-17
7373.31193 1.52931e-17
7374.82888 1.50874e-17
7376.34582 1.48802e-17
7377.86277 1.46683e-17
7379.37971 1.44454e-17
7380.89666 1.41889e-17
7382.41361 1.40762e-17
7383.93055 1.44027e-17
7385.44750 1.46318e-17
7386.96444 1.45632e-17
7388.48139 1.44604e-17
7389.99834 1.42528e-17
7391.51528 1.41785e-17
7393.03223 1.45142e-17
7394.54917 1.47085e-17
7396.06612 1.44656e-17
7397.58307 1.42887e-17
7399.10001 1.43159e-17
7400.61696 1.42768e-17
7402.13390 1.40311e-17
7403.65085 1.38535e-17
7405.16780 1.38885e-17
7406.68474 1.38756e-17
7408.20169 1.37129e-17
7409.71863 1.36540e-17
7411.23558 1.39200e-17
7412.75253 1.40673e-17
7414.26947 1.38408e-17
7415.78642 1.36623e-17
7417.30336 1.36348e-17
7418.82031 1.36204e-17
7420.33726 1.36472e-17
7421.85420 1.36135e-17
7423.37115 1.33869e-17
7424.88809 1.32073e-17
7426.40504 1.31771e-17
7427.92199 1.31147e-17
7429.43893 1.29490e-17
7430.95588 1.28124e-17
7432.47282 1.27693e-17
7433.98977 1.27797e-17
7435.50672 1.29623e-17
7437.02366 1.30716e-17
7438.54061 1.29449e-17
7440.05755 1.28287e-17
7441.57450 1.27462e-17
7443.09145 1.27257e-17
7444.60839 1.29063e-17
7446.12534 1.30612e-17
7447.64228 1.31319e-17
7449.15923 1.31997e-17
7450.67618 1.32576e-17
7452.19312 1.32699e-17
7453.71007 1.31324e-17
7455.22701 1.30159e-17
7456.74396 1.29683e-17
7458.26091 1.28858e-17
7459.77785 1.26880e-17
7461.29480 1.25246e-17
7462.81174 1.24750e-17
7464.32869 1.24846e-17
7465.84564 1.26909e-17
7467.36258 1.28240e-17
7468.87953 1.27127e-17
7470.39647 1.25380e-17
7471.91342 1.21508e-17
7473.43037 1.18815e-17
7474.94731 1.20085e-17
7476.46426 1.21169e-17
7477.98120 1.21620e-17
7479.49815 1.22157e-17
7481.01510 1.22978e-17
7482.53204 1.23569e-17
7484.04899 1.23379e-17
7485.56593 1.23430e-17
7487.08288 1.24304e-17
7488.59983 1.25075e-17
7490.11677 1.25499e-17
7491.63372 1.26027e-17
7493.15066 1.26913e-17
7494.66761 1.26959e-17
7496.18456 1.24117e-17
7497.70150 1.22198e-17
7499.21845 1.23465e-17
7500.73539 1.24416e-17
7502.25234 1.24274e-17
7503.76929 1.23662e-17
7505.28623 1.21417e-17
7506.80318 1.20200e-17
7508.32012 1.22552e-17
7509.83707 1.24152e-17
7511.35402 1.23131e-17
7512.87096 1.22185e-17
7514.38791 1.21505e-17
7515.90485 1.21156e-17
7517.42180 1.21971e-17
7518.93875 1.21939e-17
7520.45569 1.18915e-17
7521.97264 1.17397e-17
7523.48958 1.21208e-17
7525.00653 1.24040e-17
7526.52348 1.23393e-17
7528.04042 1.22537e-17
7529.55737 1.20930e-17
7531.07431 1.19113e-17
7532.59126 1.16544e-17
7534.10821 1.14959e-17
7535.62515 1.16897e-17
7537.14210 1.18963e-17
7538.65904 1.21489e-17
7540.17599 1.23208e-17
7541.69294 1.22015e-17
7543.20988 1.20543e-17
7544.72683 1.18059e-17
7546.24377 1.17545e-17
7547.76072 1.24207e-17
7549.27767 1.28649e-17
7550.79461 1.28316e-17
7552.31156 1.27983e-17
7553.82850 1.27650e-17
7555.34545 1.27317e-17
7556.86240 1.26984e-17
7558.37934 1.26651e-17
7559.89629 1.26318e-17
7561.41323 1.25986e-17
7562.93018 1.25653e-17
7564.44713 1.25320e-17
7565.96407 1.24987e-17
7567.48102 1.24654e-17
7568.99796 1.24322e-17
7570.51491 1.23989e-17
7572.03186 1.23656e-17
7573.54880 1.23323e-17
7575.06575 1.22990e-17
7576.58269 1.22658e-17
7578.09964 1.22325e-17
7579.61659 1.21992e-17
7581.13353 1.21659e-17
7582.65048 1.21327e-17
7584.16742 1.20994e-17
7585.68437 1.20661e-17
7587.20132 1.20329e-17
7588.71826 1.19996e-17
7590.23521 1.19663e-17
7591.75215 1.19331e-17
7593.26910 1.18998e-17
7594.78605 1.18665e-17
7596.30299 1.18333e-17
7597.81994 1.18000e-17
7599.33688 1.17667e-17
7600.85383 1.17335e-17
7602.37078 1.17002e-17
7603.88772 1.16670e-17
7605.40467 1.16337e-17
7606.92161 1.16004e-17
7608.43856 1.15672e-17
7609.95551 1.15339e-17
7611.47245 1.15007e-17
7612.98940 1.14674e-17
7614.50634 1.14342e-17
7616.02329 1.14009e-17
7617.54024 1.13676e-17
7619.05718 1.13344e-17
7620.57413 1.13012e-17
7622.09107 1.12679e-17
7623.60802 1.12347e-17
7625.12497 1.12014e-17
7626.64191 1.11682e-17
7628.15886 1.11349e-17
7629.67580 1.11017e-17
7631.19275 1.10684e-17
7632.70970 1.10352e-17
7634.22664 1.10019e-17
7635.74359 1.09687e-17
7637.26053 1.09355e-17
7638.77748 1.09022e-17
7640.29443 1.08690e-17
7641.81137 1.08357e-17
7643.32832 1.08025e-17
7644.84526 1.07693e-17
7646.36221 1.07360e-17
7647.87916 1.07028e-17
7649.39610 1.06696e-17
7650.91305 1.06363e-17
7652.42999 1.06031e-17
7653.94694 1.05699e-17
7655.46389 1.05366e-17
7656.98083 1.05034e-17
7658.49778 1.04702e-17
7660.01472 1.04370e-17
7661.53167 1.04037e-17
7663.04862 1.03705e-17
7664.56556 1.03373e-17
7666.08251 1.03041e-17
7667.59945 1.02709e-17
7669.11640 1.02376e-17
7670.63335 1.02044e-17
7672.15029 1.01712e-17
7673.66724 1.01380e-17
7675.18418 1.01047e-17
7676.70113 1.00715e-17
7678.21808 1.00383e-17
7679.73502 1.00051e-17
7681.25197 9.78357e-18
7682.76891 9.69370e-18
7684.28586 1.01657e-17
7685.80281 1.05028e-17
7687.31975 1.02620e-17
7688.83670 1.00081e-17
7690.35364 9.69814e-18
7691.87059 9.54047e-18
7693.38754 1.00411e-17
7694.90448 1.04978e-17
7696.42143 1.07636e-17
7697.93837 1.09338e-17
7699.45532 1.06873e-17
7700.97227 1.04485e-17
7702.48921 1.02432e-17
7704.00616 1.01184e-17
7705.52310 1.03465e-17
7707.04005 1.05041e-17
7708.55700 1.03521e-17
7710.07394 1.02391e-17
7711.59089 1.02985e-17
7713.10783 1.03946e-17
7714.62478 1.06533e-17
7716.14173 1.08849e-17
7717.65867 1.09955e-17
7719.17562 1.10078e-17
7720.69256 1.05799e-17
7722.20951 1.01893e-17
7723.72646 9.96595e-18
7725.24340 9.78632e-18
7726.76035 9.80314e-18
7728.27729 9.80419e-18
7729.79424 9.73407e-18
7731.31119 9.68668e-18
7732.82813 9.74237e-18
7734.34508 9.79269e-18
7735.86202 9.81852e-18
7737.37897 9.83686e-18
7738.89592 9.82094e-18
7740.41286 9.81430e-18
7741.92981 9.85031e-18
7743.44675 9.85386e-18
7744.96370 9.70748e-18
7746.48065 9.61760e-18
7747.99759 9.78980e-18
7749.51454 9.91002e-18
7751.03148 9.78907e-18
7752.54843 9.69160e-18
7754.06538 9.70359e-18
7755.58232 9.74397e-18
7757.09927 9.91727e-18
7758.61621 1.00574e-17
7760.13316 1.00416e-17
7761.65011 1.00430e-17
7763.16705 1.01255e-17
7764.68400 1.01626e-17
7766.20094 9.98415e-18
7767.71789 9.91049e-18
7769.23484 1.03365e-17
7770.75178 1.07099e-17
7772.26873 1.08310e-17
7773.78567 1.09293e-17
7775.30262 1.09190e-17
7776.81957 1.08998e-17
7778.33651 1.08382e-17
7779.85346 1.07817e-17
7781.37040 1.07502e-17
7782.88735 1.07026e-17
7784.40430 1.05772e-17
7785.92124 1.04749e-17
7787.43819 1.04857e-17
7788.95513 1.05430e-17
7790.47208 1.08283e-17
7791.98903 1.10593e-17
7793.50597 1.10227e-17
7795.02292 1.09427e-17
7796.53986 1.06481e-17
7798.05681 1.04110e-17
7799.57376 1.04581e-17
7801.09070 1.04782e-17
7802.60765 1.03634e-17
7804.12459 1.02744e-17
7805.64154 1.03138e-17
7807.15849 1.03886e-17
7808.67543 1.06415e-17
7810.19238 1.08449e-17
7811.70932 1.07990e-17
7813.22627 1.07939e-17
7814.74322 1.09956e-17
7816.26016 1.12232e-17
7817.77711 1.15828e-17
7819.29405 1.18900e-17
7820.81100 1.19298e-17
7822.32795 1.18988e-17
7823.84489 1.15052e-17
7825.36184 1.12298e-17
7826.87878 1.15611e-17
7828.39573 1.18217e-17
7829.91268 1.17169e-17
7831.42962 1.16161e-17
7832.94657 1.15364e-17
7834.46351 1.14579e-17
7835.98046 1.13857e-17
7837.49741 1.13091e-17
7839.01435 1.12092e-17
7840.53130 1.11733e-17
7842.04824 1.14742e-17
7843.56519 1.17091e-17
7845.08214 1.15946e-17
7846.59908 1.14638e-17
7848.11603 1.12470e-17
7849.63297 1.10160e-17
7851.14992 1.07091e-17
7852.66687 1.04965e-17
7854.18381 1.07884e-17
7855.70076 1.10410e-17
7857.21770 1.10825e-17
7858.73465 1.11017e-17
7860.25160 1.10004e-17
7861.76854 1.09279e-17
7863.28549 1.10119e-17
7864.80243 1.10687e-17
7866.31938 1.09775e-17
7867.83633 1.09288e-17
7869.35327 1.11128e-17
7870.87022 1.12053e-17
7872.38716 1.07957e-17
7873.90411 1.04717e-17
7875.42106 1.06200e-17
7876.93800 1.08047e-17
7878.45495 1.11913e-17
7879.97189 1.15040e-17
7881.48884 1.14050e-17
7883.00579 1.12673e-17
7884.52273 1.09126e-17
7886.03968 1.06330e-17
7887.55662 1.07756e-17
7889.07357 1.09058e-17
7890.59052 1.09666e-17
7892.10746 1.09992e-17
7893.62441 1.08710e-17
7895.14135 1.07941e-17
7896.65830 1.10083e-17
7898.17525 1.12172e-17
7899.69219 1.13955e-17
7901.20914 1.15031e-17
7902.72608 1.12049e-17
7904.24303 1.09830e-17
7905.75998 1.12014e-17
7907.27692 1.13695e-17
7908.79387 1.12456e-17
7910.31081 1.11049e-17
7911.82776 1.08657e-17
7913.34471 1.06749e-17
7914.86165 1.07681e-17
7916.37860 1.07783e-17
7917.89554 1.02989e-17
7919.41249 9.86754e-18
7920.92944 9.71930e-18
7922.44638 9.64019e-18
7923.96333 9.97070e-18
7925.48027 1.02449e-17
7926.99722 1.01839e-17
7928.51417 1.01635e-17
7930.03111 1.03858e-17
7931.54806 1.05824e-17
7933.06500 1.06246e-17
7934.58195 1.06451e-17
7936.09890 1.05348e-17
7937.61584 1.04848e-17
7939.13279 1.08017e-17
7940.64973 1.10362e-17
7942.16668 1.07669e-17
7943.68363 1.05306e-17
7945.20057 1.04969e-17
7946.71752 1.05282e-17
7948.23446 1.09590e-17
7949.75141 1.13148e-17
7951.26836 1.12059e-17
7952.78530 1.10549e-17
7954.30225 1.06421e-17
7955.81919 1.02752e-17
7957.33614 1.01954e-17
7958.85309 1.01677e-17
7960.37003 1.04680e-17
7961.88698 1.06971e-17
7963.40392 1.04746e-17
7964.92087 1.03124e-17
7966.43782 1.05337e-17
7967.95476 1.07158e-17
7969.47171 1.06481e-17
7970.98865 1.05502e-17
7972.50560 1.02590e-17
7974.02255 1.00582e-17
7975.53949 1.04394e-17
7977.05644 1.07507e-17
7978.57338 1.06103e-17
7980.09033 1.04478e-17
7981.60728 1.01417e-17
7983.12422 9.88189e-18
7984.64117 9.92488e-18
7986.15811 9.99002e-18
7987.67506 1.02010e-17
7989.19201 1.03677e-17
7990.70895 1.02406e-17
7992.22590 1.02160e-17
7993.74284 1.08706e-17
7995.25979 1.13777e-17
7996.77674 1.09036e-17
7998.29368 1.04846e-17
7999.81063 1.04355e-17
8001.32757 1.04237e-17
8002.84452 1.06632e-17
8004.36147 1.08242e-17
8005.87841 1.04541e-17
8007.39536 1.01552e-17
8008.91230 1.03426e-17
8010.42925 1.05296e-17
8011.94620 1.07138e-17
8013.46314 1.08260e-17
8014.98009 1.04407e-17
8016.49703 1.00739e-17
8018.01398 9.83473e-18
8019.53093 9.64958e-18
8021.04787 9.83920e-18
8022.56482 1.00213e-17
8024.08176 1.01505e-17
8025.59871 1.01869e-17
8027.11566 9.57054e-18
8028.63260 9.01777e-18
8030.14955 8.91451e-18
8031.66649 8.86330e-18
8033.18344 9.18217e-18
8034.70039 9.45677e-18
8036.21733 9.41469e-18
8037.73428 9.39671e-18
8039.25122 9.55224e-18
8040.76817 9.69074e-18
8042.28512 9.70666e-18
8043.80206 9.75896e-18
8045.31901 1.00749e-17
8046.83595 1.03415e-17
8048.35290 1.02482e-17
8049.86985 1.01362e-17
8051.38679 9.88609e-18
8052.90374 9.70570e-18
8054.42068 1.00397e-17
8055.93763 1.02947e-17
8057.45458 9.96324e-18
8058.97152 9.66782e-18
8060.48847 9.64179e-18
8062.00541 9.63983e-18
8063.52236 9.81889e-18
8065.03931 9.98688e-18
8066.55625 1.00715e-17
8068.07320 1.01475e-17
8069.59014 1.01575e-17
8071.10709 1.01111e-17
8072.62404 9.63472e-18
8074.14098 9.27350e-18
8075.65793 9.79515e-18
8077.17487 1.02348e-17
8078.69182 1.00420e-17
8080.20877 9.86398e-18
8081.72571 9.80076e-18
8083.24266 9.74683e-18
8084.75960 9.76560e-18
8086.27655 9.75508e-18
8087.79350 9.51400e-18
8089.31044 9.29253e-18
8090.82739 9.22536e-18
8092.34433 9.18044e-18
8093.86128 9.31174e-18
8095.37823 9.42445e-18
8096.89517 9.38882e-18
8098.41212 9.38850e-18
8099.92906 9.67160e-18
8101.44601 9.90382e-18
8102.96296 9.72484e-18
8104.47990 9.53378e-18
8105.99685 9.24439e-18
8107.51379 9.01068e-18
8109.03074 9.23317e-18
8110.54769 9.41301e-18
8112.06463 9.24113e-18
8113.58158 9.13459e-18
8115.09852 9.56719e-18
8116.61547 9.93329e-18
8118.13242 9.74705e-18
8119.64936 9.57425e-18
8121.16631 9.51384e-18
8122.68325 9.45848e-18
8124.20020 9.44564e-18
8125.71715 9.45305e-18
8127.23409 9.63219e-18
8128.75104 9.76947e-18
8130.26798 9.54933e-18
8131.78493 9.36642e-18
8133.30188 9.50379e-18
8134.81882 9.61563e-18
8136.33577 9.50623e-18
8137.85271 9.40462e-18
8139.36966 9.37041e-18
8140.88661 9.34093e-18
8142.40355 9.35281e-18
8143.92050 9.35483e-18
8145.43744 9.27027e-18
8146.95439 9.16669e-18
8148.47134 8.89469e-18
8149.98828 8.65729e-18
8151.50523 8.72827e-18
8153.02217 8.80681e-18
8154.53912 8.95323e-18
8156.05607 9.08442e-18
8157.57301 9.07795e-18
8159.08996 9.06538e-18
8160.60690 8.99731e-18
8162.12385 8.95925e-18
8163.64080 9.19464e-18
8165.15774 9.40049e-18
8166.67469 9.33523e-18
8168.19163 9.24819e-18
8169.70858 8.95967e-18
8171.22553 8.71281e-18
8172.74247 8.85409e-18
8174.25942 8.96870e-18
8175.77636 8.83283e-18
8177.29331 8.74093e-18
8178.81026 9.06511e-18
8180.32720 9.40330e-18
8181.84415 9.87512e-18
8183.36109 1.02863e-17
8184.87804 1.01147e-17
8186.39499 9.92765e-18
8187.91193 9.59132e-18
8189.42888 9.29788e-18
8190.94582 9.41970e-18
8192.46277 9.50980e-18
8193.97972 9.29041e-18
8195.49666 9.10632e-18
8197.01361 9.26948e-18
8198.53055 9.41161e-18
8200.04750 9.34528e-18
8201.56445 9.28818e-18
8203.08139 9.32320e-18
8204.59834 9.35748e-18
8206.11528 9.38438e-18
8207.63223 9.41050e-18
8209.14918 9.42888e-18
8210.66612 9.42343e-18
8212.18307 9.17597e-18
8213.70001 8.98456e-18
8215.21696 9.36692e-18
8216.73391 9.70333e-18
8218.25085 9.56565e-18
8219.76780 9.40839e-18
8221.28474 9.04739e-18
8222.80169 8.70769e-18
8224.31864 8.59123e-18
8225.83558 8.48574e-18
8227.35253 8.49623e-18
8228.86947 8.49753e-18
8230.38642 8.40074e-18
8231.90337 8.36733e-18
8233.42031 9.01578e-18
8234.93726 9.60054e-18
8236.45420 9.50019e-18
8237.97115 9.37204e-18
8239.48810 8.94230e-18
8241.00504 8.57793e-18
8242.52199 8.92878e-18
8244.03893 9.26059e-18
8245.55588 9.38227e-18
8247.07283 9.49636e-18
8248.58977 9.52595e-18
8250.10672 9.56569e-18
8251.62366 9.71948e-18
8253.14061 9.82284e-18
8254.65756 9.35486e-18
8256.17450 8.90826e-18
8257.69145 8.70611e-18
8259.20839 8.52835e-18
8260.72534 8.62929e-18
8262.24229 8.75183e-18
8263.75923 9.12366e-18
8265.27618 9.46941e-18
8266.79312 9.51176e-18
8268.31007 9.53597e-18
8269.82702 9.34705e-18
8271.34396 9.18076e-18
8272.86091 9.28253e-18
8274.37785 9.34796e-18
8275.89480 8.97856e-18
8277.41175 8.62020e-18
8278.92869 8.39519e-18
8280.44564 8.16379e-18
8281.96258 7.85451e-18
8283.47953 7.53181e-18
8284.99648 7.04533e-18
8286.51342 6.60920e-18
8288.03037 6.79246e-18
8289.54731 7.00613e-18
8291.06426 7.59790e-18
8292.58121 8.11210e-18
8294.09815 7.65351e-18
8295.61510 7.21422e-18
8297.13204 7.01927e-18
8298.64899 6.84972e-18
8300.16594 7.00495e-18
8301.68288 7.14903e-18
8303.19983 7.14916e-18
8304.71677 7.13683e-18
8306.23372 6.96180e-18
8307.75067 6.79654e-18
8309.26761 6.75878e-18
8310.78456 6.73147e-18
8312.30150 6.84183e-18
8313.81845 6.95434e-18
8315.33540 7.09554e-18
8316.85234 7.16872e-18
8318.36929 6.32702e-18
8319.88623 5.54685e-18
8321.40318 5.60223e-18
8322.92013 5.64596e-18
8324.43707 5.52989e-18
8325.95402 5.43082e-18
8327.47096 5.56770e-18
8328.98791 5.69985e-18
8330.50486 5.76560e-18
8332.02180 5.82536e-18
8333.53875 5.80108e-18
8335.05569 5.76563e-18
8336.57264 5.57193e-18
8338.08959 5.34244e-18
8339.60653 4.60021e-18
8341.12348 3.89083e-18
8342.64042 3.65688e-18
8344.15737 3.44330e-18
8345.67432 3.52776e-18
8347.19126 3.61715e-18
8348.70821 3.77939e-18
8350.22515 3.90986e-18
8351.74210 3.56475e-18
8353.25905 3.26282e-18
8354.77599 3.61452e-18
8356.29294 3.92976e-18
8357.80988 3.69337e-18
8359.32683 3.46168e-18
8360.84378 3.30199e-18
8362.36072 3.15372e-18
8363.87767 3.18220e-18
8365.39461 3.19496e-18
8366.91156 2.96122e-18
8368.42851 2.74851e-18
8369.94545 2.86907e-18
8371.46240 2.98957e-18
8372.97934 3.10927e-18
8374.49629 3.22332e-18
8376.01324 3.24570e-18
8377.53018 3.28478e-18
8379.04713 3.59844e-18
8380.56407 3.88784e-18
8382.08102 3.77872e-18
8383.59797 3.67141e-18
8385.11491 3.59407e-18
8386.63186 3.51986e-18
8388.14880 3.49841e-18
8389.66575 3.47492e-18
8391.18270 3.41683e-18
8392.69964 3.37491e-18
8394.21659 3.61221e-18
8395.73353 3.83116e-18
8397.25048 3.72886e-18
8398.76743 3.63269e-18
8400.28437 3.64524e-18
8401.80132 3.63737e-18
8403.31826 3.26270e-18
8404.83521 2.94202e-18
8406.35216 3.59105e-18
8407.86910 4.18818e-18
8409.38605 3.84084e-18
8410.90299 3.50182e-18
8412.41994 3.31624e-18
8413.93689 3.14692e-18
8415.45383 3.28172e-18
8416.97078 3.40518e-18
8418.48772 3.31365e-18
8420.00467 3.22953e-18
8421.52162 3.28782e-18
8423.03856 3.35998e-18
8424.55551 3.70238e-18
8426.07245 4.02869e-18
8427.58940 4.03660e-18
8429.10635 4.03622e-18
8430.62329 3.87207e-18
8432.14024 3.74086e-18
8433.65718 4.27106e-18
8435.17413 4.77197e-18
8436.69108 4.67665e-18
8438.20802 4.58533e-18
8439.72497 4.57678e-18
8441.24191 4.58445e-18
8442.75886 4.93266e-18
8444.27581 5.26869e-18
8445.79275 5.34549e-18
8447.30970 5.40025e-18
8448.82664 4.97800e-18
8450.34359 4.59740e-18
8451.86054 5.13216e-18
8453.37748 5.65751e-18
8454.89443 5.97624e-18
8456.41137 6.26616e-18
8457.92832 5.91276e-18
8459.44527 5.58047e-18
8460.96221 5.72716e-18
8462.47916 5.86579e-18
8463.99610 5.81852e-18
8465.51305 5.77166e-18
8467.03000 5.73420e-18
8468.54694 5.70199e-18
8470.06389 5.79491e-18
8471.58083 5.89024e-18
8473.09778 6.04418e-18
8474.61473 6.18899e-18
8476.13167 6.10840e-18
8477.64862 6.01904e-18
8479.16556 5.71266e-18
8480.68251 5.42002e-18
8482.19946 5.47270e-18
8483.71640 5.53221e-18
8485.23335 5.76660e-18
8486.75029 5.99222e-18
8488.26724 5.98906e-18
8489.78419 5.99205e-18
8491.30113 6.15862e-18
8492.81808 6.31637e-18
8494.33502 6.23506e-18
8495.85197 6.14788e-18
8497.36892 5.89884e-18
8498.88586 5.65401e-18
8500.40281 5.52742e-18
8501.91975 5.40805e-18
8503.43670 5.49222e-18
8504.95365 5.55610e-18
8506.47059 5.03661e-18
8507.98754 4.54474e-18
8509.50448 4.86295e-18
8511.02143 5.16860e-18
8512.53838 5.09773e-18
8514.05532 5.02349e-18
8515.57227 4.84592e-18
8517.08921 4.67464e-18
8518.60616 4.69975e-18
8520.12311 4.72486e-18
8521.64005 4.74981e-18
8523.15700 4.76683e-18
8524.67394 4.52420e-18
8526.19089 4.29328e-18
8527.70784 4.44531e-18
8529.22478 4.60044e-18
8530.74173 4.85931e-18
8532.25867 5.10441e-18
8533.77562 4.87769e-18
8535.29257 4.66235e-18
8536.80951 4.84610e-18
8538.32646 5.03027e-18
8539.84340 5.23014e-18
8541.36035 5.42394e-18
8542.87730 5.39353e-18
8544.39424 5.37096e-18
8545.91119 5.64500e-18
8547.42813 5.93036e-18
8548.94508 6.65679e-18
8550.46203 7.36639e-18
8551.97897 7.42188e-18
8553.49592 7.47085e-18
8555.01286 7.25919e-18
8556.52981 7.05273e-18
8558.04676 7.05975e-18
8559.56370 7.06840e-18
8561.08065 7.14619e-18
8562.59759 7.22634e-18
8564.11454 7.40955e-18
8565.63149 7.58718e-18
8567.14843 7.51416e-18
8568.66538 7.43835e-18
8570.18232 7.23329e-18
8571.69927 7.03707e-18
8573.21622 7.26495e-18
8574.73316 7.49486e-18
8576.25011 7.82221e-18
8577.76705 8.14415e-18
8579.28400 8.19854e-18
8580.80095 8.24600e-18
8582.31789 7.93863e-18
8583.83484 7.63920e-18
8585.35178 7.76226e-18
8586.86873 7.88530e-18
8588.38568 8.00713e-18
8589.90262 8.13146e-18
8591.41957 8.39973e-18
8592.93651 8.66533e-18
8594.45346 8.77163e-18
8595.97041 8.89172e-18
8597.48735 9.86937e-18
8599.00430 1.08443e-17
8600.52124 1.16487e-17
8602.03819 1.24247e-17
8603.55514 1.13634e-17
8605.07208 1.03175e-17
8606.58903 1.03202e-17
8608.10597 1.03253e-17
8609.62292 1.05037e-17
8611.13987 1.06735e-17
8612.65681 1.01875e-17
8614.17376 9.70557e-18
8615.69070 9.53620e-18
8617.20765 9.37217e-18
8618.72460 9.65364e-18
8620.24154 9.93387e-18
8621.75849 1.01047e-17
8623.27543 1.02695e-17
8624.79238 9.90964e-18
8626.30933 9.55732e-18
8627.82627 9.91653e-18
8629.34322 1.02770e-17
8630.86016 1.07656e-17
8632.37711 1.12466e-17
8633.89406 1.09113e-17
8635.41100 1.05809e-17
8636.92795 1.08205e-17
8638.44489 1.10611e-17
8639.96184 1.14300e-17
8641.47879 1.17940e-17
8642.99573 1.14947e-17
8644.51268 1.12018e-17
8646.02962 1.18515e-17
8647.54657 1.24974e-17
8649.06352 1.25643e-17
8650.58046 1.26325e-17
8652.09741 1.29043e-17
8653.61435 1.31723e-17
8655.13130 1.27180e-17
8656.64825 1.22675e-17
8658.16519 1.26219e-17
8659.68214 1.29753e-17
8661.19908 1.30892e-17
8662.71603 1.32022e-17
8664.23298 1.30592e-17
8665.74992 1.29160e-17
8667.26687 1.27093e-17
8668.78381 1.25031e-17
8670.30076 1.25502e-17
8671.81771 1.25969e-17
8673.33465 1.24325e-17
8674.85160 1.22682e-17
8676.36854 1.21279e-17
8677.88549 1.19876e-17
8679.40244 1.16886e-17
8680.91938 1.13897e-17
8682.43633 1.21651e-17
8683.95327 1.29405e-17
8685.47022 1.26048e-17
8686.98717 1.22683e-17
8688.50411 1.24568e-17
8690.02106 1.26459e-17
8691.53800 1.25771e-17
8693.05495 1.25077e-17
8694.57190 1.29424e-17
8696.08884 1.33784e-17
8697.60579 1.37484e-17
8699.12273 1.41182e-17
8700.63968 1.40050e-17
8702.15663 1.38902e-17
8703.67357 1.38335e-17
8705.19052 1.37770e-17
8706.70746 1.33050e-17
8708.22441 1.28311e-17
8709.74136 1.33535e-17
8711.25830 1.38811e-17
8712.77525 1.32785e-17
8714.29219 1.26692e-17
8715.80914 1.30329e-17
8717.32609 1.34031e-17
8718.84303 1.33209e-17
8720.35998 1.32354e-17
8721.87692 1.31355e-17
8723.39387 1.30354e-17
8724.91082 1.27697e-17
8726.42776 1.25026e-17
8727.94471 1.23173e-17
8729.46165 1.21327e-17
8730.97860 1.23931e-17
8732.49555 1.26577e-17
8734.01249 1.29320e-17
8735.52944 1.32064e-17
8737.04638 1.32422e-17
8738.56333 1.32754e-17
8740.08028 1.34284e-17
8741.59722 1.35827e-17
8743.11417 1.37537e-17
8744.63111 1.39250e-17
8746.14806 1.34430e-17
8747.66501 1.29532e-17
8749.18195 1.31383e-17
8750.69890 1.33319e-17
8752.21584 1.35470e-17
8753.73279 1.37623e-17
8755.24974 1.33594e-17
8756.76668 1.29478e-17
8758.28363 1.33856e-17
8759.80057 1.38360e-17
8761.31752 1.29325e-17
8762.83447 1.20081e-17
8764.35141 1.12901e-17
8765.86836 1.05754e-17
8767.38530 1.01958e-17
8768.90225 9.82195e-18
8770.41920 1.05661e-17
8771.93614 1.13289e-17
8773.45309 1.14900e-17
8774.97003 1.16406e-17
8776.48698 1.13351e-17
8778.00393 1.10214e-17
8779.52087 1.13807e-17
8781.03782 1.17526e-17
8782.55476 1.23987e-17
8784.07171 1.30502e-17
8785.58866 1.28233e-17
8787.10560 1.25787e-17
8788.62255 1.27368e-17
8790.13949 1.29034e-17
8791.65644 1.28551e-17
8793.17339 1.28021e-17
8794.69033 1.31197e-17
8796.20728 1.34452e-17
8797.72422 1.30168e-17
8799.24117 1.25715e-17
8800.75812 1.19828e-17
8802.27506 1.13907e-17
8803.79201 1.14418e-17
8805.30895 1.15081e-17
8806.82590 1.19684e-17
8808.34285 1.24382e-17
8809.85979 1.17221e-17
8811.37674 1.09765e-17
8812.89368 1.10879e-17
8814.41063 1.12214e-17
8815.92758 1.07505e-17
8817.44452 1.02637e-17
8818.96147 1.04153e-17
8820.47841 1.05839e-17
8821.99536 1.08668e-17
8823.51231 1.11527e-17
8825.02925 1.09313e-17
8826.54620 1.06958e-17
8828.06314 9.90471e-18
8829.58009 9.09781e-18
8831.09704 9.00734e-18
8832.61398 8.93778e-18
8834.13093 8.99797e-18
8835.64787 9.06204e-18
8837.16482 8.73747e-18
8838.68177 8.40102e-18
8840.19871 8.60142e-18
8841.71566 8.81861e-18
8843.23260 8.81025e-18
8844.74955 8.79484e-18
8846.26650 9.19752e-18
8847.78344 9.61356e-18
8849.30039 9.89133e-18
8850.81733 1.01646e-17
8852.33428 1.00639e-17
8853.85123 9.95073e-18
8855.36817 9.84085e-18
8856.88512 9.73108e-18
8858.40206 9.24145e-18
8859.91901 8.73862e-18
8861.43596 8.82602e-18
8862.95290 8.93436e-18
8864.46985 9.05308e-18
8865.98679 9.17216e-18
8867.50374 1.00780e-17
8869.02069 1.10122e-17
8870.53763 1.09399e-17
8872.05458 1.08304e-17
8873.57152 1.01219e-17
8875.08847 9.39089e-18
8876.60542 8.99686e-18
8878.12236 8.61576e-18
8879.63931 8.70089e-18
8881.15625 8.80422e-18
8882.67320 8.94087e-18
8884.19015 9.07885e-18
8885.70709 9.42493e-18
8887.22404 9.77943e-18
8888.74098 9.52933e-18
8890.25793 9.25434e-18
8891.77488 8.43567e-18
8893.29182 7.59463e-18
8894.80877 7.92020e-18
8896.32571 8.29463e-18
8897.84266 8.80442e-18
8899.35961 9.31996e-18
8900.87655 8.95858e-18
8902.39350 8.55921e-18
8903.91044 8.46884e-18
8905.42739 8.39208e-18
8906.94434 8.29468e-18
8908.46128 8.19637e-18
8909.97823 8.50771e-18
8911.49517 8.83768e-18
8913.01212 9.20573e-18
8914.52907 9.57554e-18
8916.04601 9.23011e-18
8917.56296 8.85164e-18
8919.07990 7.98580e-18
8920.59685 7.09710e-18
8922.11380 7.75520e-18
8923.63074 8.48701e-18
8925.14769 8.25731e-18
8926.66463 7.98110e-18
8928.18158 7.82406e-18
8929.69853 7.67288e-18
8931.21547 7.60786e-18
8932.73242 7.54713e-18
8934.24936 7.36184e-18
8935.76631 7.17025e-18
8937.28326 7.66236e-18
8938.80020 8.18951e-18
8940.31715 8.41754e-18
8941.83409 8.63022e-18
8943.35104 8.46038e-18
8944.86799 8.27064e-18
8946.38493 8.21010e-18
8947.90188 8.15638e-18
8949.41882 7.98700e-18
8950.93577 7.81143e-18
8952.45272 7.98670e-18
8953.96966 8.18097e-18
8955.48661 8.19664e-18
8957.00355 8.20249e-18
8958.52050 7.19165e-18
8960.03745 6.12422e-18
8961.55439 5.93337e-18
8963.07134 5.79196e-18
8964.58828 6.19111e-18
8966.10523 6.62074e-18
8967.62218 6.50311e-18
8969.13912 6.35421e-18
8970.65607 6.59649e-18
8972.17301 6.86141e-18
8973.68996 6.48774e-18
8975.20691 6.07664e-18
8976.72385 5.75142e-18
8978.24080 5.43131e-18
8979.75774 5.71235e-18
8981.27469 6.02951e-18
8982.79164 6.25759e-18
8984.30858 6.48025e-18
8985.82553 5.89588e-18
8987.34247 5.26183e-18
8988.85942 4.68859e-18
8990.37637 4.11910e-18
8991.89331 4.23118e-18
8993.41026 4.38574e-18
8994.92720 5.02716e-18
8996.44415 5.69928e-18
8997.96110 6.07475e-18
8999.47804 6.43128e-18
9000.99499 6.06079e-18
9002.51193 5.64338e-18
9004.02888 5.46194e-18
9005.54583 5.29593e-18
9007.06277 5.57063e-18
9008.57972 5.87444e-18
9010.09666 6.15958e-18
9011.61361 6.44347e-18
9013.13056 6.54327e-18
9014.64750 6.63078e-18
9016.16445 6.41824e-18
9017.68139 6.18544e-18
9019.19834 6.39975e-18
9020.71529 6.64460e-18
9022.23223 6.44461e-18
9023.73913 6.21389e-18
9025.26612 6.82590e-18
9026.78307 7.49674e-18
9028.30002 7.11058e-18
9029.81696 6.64983e-18
9031.33391 6.36158e-18
9032.85085 6.08564e-18
9034.36780 6.01765e-18
9035.88475 5.96466e-18
9037.40169 6.42921e-18
9038.91864 6.93107e-18
9040.43558 7.14114e-18
9041.94248 7.32995e-18
9043.46948 6.73720e-18
9044.98642 6.08693e-18
9046.50337 6.23557e-18
9048.02031 6.44361e-18
9049.52721 5.56934e-18
9051.05421 4.61378e-18
9052.57115 5.21853e-18
9054.08810 5.94168e-18
9055.60504 5.74890e-18
9057.12199 5.48593e-18
9058.63894 5.72825e-18
9060.15588 6.00969e-18
9061.67283 5.47090e-18
9063.18977 4.86863e-18
9064.70672 5.09147e-18
9066.22367 5.37881e-18
9067.73057 5.68839e-18
9069.25756 5.99972e-18
9070.77450 6.14705e-18
9072.29145 6.28131e-18
9073.80840 6.11372e-18
9075.31530 5.92184e-18
9076.84229 6.05463e-18
9078.35923 6.21380e-18
9079.87618 6.38463e-18
9081.39313 6.55641e-18
9082.91007 6.66955e-18
9084.42702 6.77783e-18
9085.93392 6.24913e-18
9087.46091 5.66769e-18
9088.97786 5.71984e-18
9090.49480 5.82494e-18
9092.01175 5.67957e-18
9093.51865 5.51317e-18
9095.04564 5.92824e-18
9096.56259 6.39280e-18
9098.07953 6.59133e-18
9099.59648 6.76702e-18
9101.11342 6.92777e-18
9102.63037 7.08722e-18
9104.14732 6.89546e-18
9105.66426 6.67300e-18
9107.18121 6.49882e-18
9108.69815 6.32891e-18
9110.21510 6.07510e-18
9111.72200 5.81389e-18
9113.24899 5.73530e-18
9114.76594 5.67297e-18
9116.28288 5.61296e-18
9117.79983 5.55317e-18
9119.30673 5.98083e-18
9120.83372 6.45264e-18
9122.35067 6.46560e-18
9123.85757 6.43663e-18
9125.38456 6.32276e-18
9126.90151 6.20106e-18
9128.41845 6.51135e-18
9129.92535 6.86179e-18
9131.44230 6.30404e-18
9132.96929 5.66117e-18
9134.48624 5.79115e-18
9136.00318 5.99357e-18
9137.51008 6.53523e-18
9139.03707 7.10895e-18
9140.55402 7.11818e-18
9142.07097 7.07360e-18
9143.58791 6.72619e-18
9145.09481 6.34969e-18
9146.62180 6.18811e-18
9148.13875 6.04735e-18
9149.64565 5.98204e-18
9151.17264 5.92410e-18
9152.68959 5.58506e-18
9154.20653 5.21835e-18
9155.71343 5.42916e-18
9157.23038 5.69731e-18
9158.75737 5.41507e-18
9160.27432 5.07820e-18
9161.79126 5.44184e-18
9163.29816 5.87557e-18
9164.81511 6.14629e-18
9166.34210 6.40057e-18
9167.85905 5.97206e-18
9169.37599 5.47414e-18
9170.88289 5.80808e-18
9172.39984 6.22726e-18
9173.92683 5.88898e-18
9175.43373 5.47249e-18
9176.96072 5.49593e-18
9178.47767 5.56515e-18
9179.99462 5.74659e-18
9181.50152 5.93980e-18
9183.01846 6.04584e-18
9184.54545 6.14273e-18
9186.06240 6.21953e-18
9187.57935 6.29421e-18
9189.08625 6.25640e-18
9190.60319 6.20662e-18
9192.13018 5.66872e-18
9193.63708 5.07846e-18
9195.16408 5.36631e-18
9196.68102 5.74908e-18
9198.18792 6.37904e-18
9199.70487 7.03591e-18
9201.22181 6.89149e-18
9202.74881 6.65914e-18
9204.26575 6.52304e-18
9205.77265 6.39758e-18
9207.28960 6.05580e-18
9208.80654 5.69010e-18
9210.33354 5.78449e-18
9211.85048 5.93010e-18
9213.35738 5.92311e-18
9214.87433 5.89901e-18
9216.39127 5.81262e-18
9217.91827 5.71919e-18
9219.42517 5.61706e-18
9220.95216 5.51395e-18
9222.46910 5.62612e-18
9223.97600 5.76297e-18
9225.49295 5.82539e-18
9227.00990 5.87923e-18
9228.53689 5.65055e-18
9230.05383 5.38903e-18
9231.56073 5.28767e-18
9233.07768 5.20493e-18
9234.59463 4.97737e-18
9236.12162 4.73286e-18
9237.62852 5.22623e-18
9239.14546 5.80659e-18
9240.66241 6.01907e-18
9242.17936 6.18787e-18
9243.70635 6.10261e-18
9245.21325 5.98698e-18
9246.73019 5.53895e-18
9248.25719 5.05091e-18
9249.76409 5.13026e-18
9251.28103 5.27839e-18
9252.79798 5.68389e-18
9254.32497 6.12080e-18
9255.84192 6.11314e-18
9257.34882 6.05124e-18
9258.86576 5.57337e-18
9260.38271 5.04440e-18
9261.90970 5.50203e-18
9263.41660 6.08171e-18
9264.93355 5.91326e-18
9266.45049 5.65164e-18
9267.96744 5.49920e-18
9269.48438 5.36046e-18
9271.00133 5.50202e-18
9272.51828 5.67894e-18
9274.04527 5.63026e-18
9275.55217 5.55292e-18
9277.06911 5.69683e-18
9278.58606 5.86904e-18
9280.10301 5.81461e-18
9281.61995 5.73120e-18
9283.13690 5.46923e-18
9284.65384 5.18428e-18
9286.17079 4.89369e-18
9287.68774 4.60237e-18
9289.20468 4.50124e-18
9290.72163 4.42491e-18
9292.24862 4.65170e-18
9293.75552 4.91828e-18
9295.27247 5.02618e-18
9296.78941 5.11312e-18
9298.30636 4.91502e-18
9299.83335 4.67904e-18
9301.34025 4.71115e-18
9302.85720 4.77913e-18
9304.37414 4.74877e-18
9305.89109 4.70525e-18
9307.40803 3.94243e-18
9308.92498 3.08277e-18
9310.44193 2.96713e-18
9311.95887 2.95228e-18
9313.47582 3.86827e-18
9314.99276 4.91114e-18
9316.50971 4.74419e-18
9318.03670 4.41128e-18
9319.54360 4.89431e-18
9321.06055 5.48996e-18
9322.57749 5.52432e-18
9324.09444 5.48072e-18
9325.62143 5.43704e-18
9327.12833 5.39335e-18
9328.64528 5.34974e-18
9330.16222 5.30615e-18
9331.67917 5.26248e-18
9333.19612 5.21881e-18
9334.71306 5.17521e-18
9336.23001 5.13162e-18
9337.74695 5.08802e-18
9339.26390 5.04443e-18
9340.78085 5.00077e-18
9342.29779 4.95711e-18
9343.82478 5.27037e-18
9345.33168 5.63505e-18
9346.84863 5.34282e-18
9348.36558 4.95542e-18
9349.88252 4.39797e-18
9351.39947 3.81574e-18
9352.91641 4.13664e-18
9354.43336 4.58918e-18
9355.95031 4.51673e-18
9357.46725 4.36730e-18
9358.98420 3.91908e-18
9360.50114 3.42678e-18
9362.01809 3.65430e-18
9363.53504 3.98862e-18
9365.05198 4.25035e-18
9366.56893 4.50125e-18
9368.08587 3.88866e-18
9369.61287 3.14646e-18
9371.11977 3.11694e-18
9372.63671 3.19503e-18
9374.15366 3.27314e-18
9375.67060 3.35125e-18
9377.18755 3.42934e-18
9378.70450 3.50742e-18
9380.22144 3.58544e-18
9381.73839 3.66344e-18
9383.25533 3.74151e-18
9384.77228 3.81959e-18
9386.28923 3.89767e-18
9387.80617 3.97574e-18
9389.32312 3.84058e-18
9390.84006 3.67229e-18
9392.35701 3.84559e-18
9393.87396 4.07227e-18
9395.39090 3.68033e-18
9396.90785 3.19119e-18
9398.42479 3.62614e-18
9399.94174 4.20711e-18
9401.45869 4.40638e-18
9402.97563 4.54535e-18
9404.49258 3.90161e-18
9406.00952 3.13350e-18
9407.52647 3.25887e-18
9409.04342 3.52701e-18
9410.56036 4.22213e-18
9412.07731 4.98585e-18
9413.59425 4.96631e-18
9415.11120 4.82022e-18
9416.62815 4.53997e-18
9418.14509 4.23794e-18
9419.66204 4.07167e-18
9421.17898 3.92759e-18
9422.69593 4.55275e-18
9424.21288 5.30424e-18
9425.72982 5.53348e-18
9427.24677 5.67695e-18
9428.76371 5.59866e-18
9430.28066 5.48375e-18
9431.79761 4.96519e-18
9433.31455 4.37961e-18
9434.83150 3.87741e-18
9436.34844 3.38913e-18
9437.86539 3.96846e-18
9439.38234 4.72694e-18
9440.89928 4.82570e-18
9442.41623 4.81315e-18
9443.93317 4.84799e-18
9445.45012 4.89088e-18
9446.96707 5.23875e-18
9448.48401 5.63862e-18
9450.00096 5.44674e-18
9451.51790 5.15396e-18
9453.03485 4.77329e-18
9454.55180 4.37756e-18
9456.06874 4.40770e-18
9457.58569 4.51124e-18
9459.10263 4.43862e-18
9460.61958 4.33548e-18
9462.13653 4.23235e-18
9463.65347 4.12921e-18
9465.17042 4.02608e-18
9466.68736 3.92295e-18
9468.20431 3.81982e-18
9469.72126 3.71669e-18
9471.23820 3.61354e-18
9472.75515 3.51038e-18
9474.27209 3.40725e-18
9475.78904 3.30413e-18
9477.30599 3.36962e-18
9478.82293 3.46509e-18
9480.33988 3.96513e-18
9481.85682 4.53747e-18
9483.37377 4.27846e-18
9484.89072 3.87012e-18
9486.40766 3.90499e-18
9487.92461 4.01987e-18
9489.44155 3.83270e-18
9490.95850 3.59072e-18
9492.47545 3.49683e-18
9493.99239 3.42995e-18
9495.50934 3.80839e-18
9497.02628 4.26846e-18
9498.54323 4.10352e-18
9500.06018 3.82401e-18
9501.57712 3.42959e-18
9503.09407 3.01400e-18
9504.61101 3.60131e-18
9506.12796 4.37430e-18
9507.64491 4.25403e-18
9509.16185 3.96755e-18
9510.67880 3.22048e-18
9512.19574 2.38729e-18
9513.71269 2.82514e-18
9515.22964 3.50185e-18
9516.74658 3.57454e-18
9518.26353 3.53315e-18
9519.78047 3.31480e-18
9521.29742 3.06288e-18
9522.81437 3.47667e-18
9524.33131 4.01681e-18
9525.84826 3.57394e-18
9527.36520 2.94357e-18
9528.88215 2.62139e-18
9530.39910 2.35828e-18
9531.91604 2.74707e-18
9533.43299 3.26141e-18
9534.94993 3.20905e-18
9536.46688 3.04702e-18
9537.98383 3.40657e-18
9539.50077 3.86755e-18
9541.01772 3.72917e-18
9542.53466 3.47367e-18
9544.05161 3.60522e-18
9545.56856 3.81277e-18
9547.08550 3.60397e-18
9548.60245 3.31340e-18
9550.11939 3.10519e-18
9551.63634 2.91324e-18
9553.15329 2.94276e-18
9554.67023 3.01618e-18
9556.18718 3.31190e-18
9557.70412 3.65191e-18
9559.22107 3.33205e-18
9560.73802 2.88012e-18
9562.25496 2.94997e-18
9563.77191 3.12476e-18
9565.28885 3.49814e-18
9566.80580 3.91164e-18
9568.32275 3.79649e-18
9569.83969 3.57401e-18
9571.35664 3.05666e-18
9572.87358 2.47945e-18
9574.39053 2.32251e-18
9575.90748 2.25128e-18
9577.42442 2.80312e-18
9578.94137 3.48264e-18
9580.45831 3.59895e-18
9581.97526 3.59931e-18
9583.49221 3.56152e-18
9585.00915 3.51584e-18
9586.52610 3.42576e-18
9588.04304 3.32645e-18
9589.55999 3.19356e-18
9591.07694 3.05367e-18
9592.59388 3.39161e-18
9594.11083 3.82976e-18
9595.62777 3.38759e-18
9597.14472 2.76080e-18
9598.66167 2.80735e-18
9600.17861 2.99576e-18
9601.69556 3.11256e-18
9603.21250 3.21420e-18
9604.72945 3.41206e-18
9606.24640 3.63039e-18
9607.76334 3.87786e-18
9609.28029 4.13155e-18
9610.79723 3.43313e-18
9612.31418 2.53042e-18
9613.83113 2.65965e-18
9615.34807 3.01131e-18
9616.86502 3.33752e-18
9618.38196 3.65820e-18
9619.89891 3.57728e-18
9621.41586 3.40940e-18
9622.93280 3.54133e-18
9624.44975 3.73846e-18
9625.96669 3.90865e-18
9627.48364 4.07295e-18
9629.00059 3.72384e-18
9630.51753 3.26208e-18
9630.86172 3.26208e-18
9632.86013 3.34661e-18
9634.86864 3.40807e-18
9636.86705 3.30830e-18
9638.86547 3.20670e-18
9640.86388 3.21696e-18
9642.86229 3.30675e-18
9644.87080 3.40005e-18
9646.86921 3.44063e-18
9648.86763 3.45585e-18
9650.86604 3.44046e-18
9652.86446 3.41067e-18
9654.87296 3.36613e-18
9656.87138 3.33525e-18
9658.86979 3.34599e-18
9660.86821 3.40049e-18
9662.87671 3.46578e-18
9664.87513 3.50769e-18
9666.87354 3.53335e-18
9668.87195 3.53089e-18
9670.87037 3.51006e-18
9672.87888 3.46844e-18
9674.87729 3.42621e-18
9676.87570 3.40261e-18
9678.87412 3.42000e-18
9680.88262 3.44932e-18
9682.88104 3.46761e-18
9684.87945 3.47956e-18
9686.87787 3.47884e-18
9688.87628 3.47576e-18
9690.88479 3.48818e-18
9692.88320 3.51920e-18
9694.88162 3.53914e-18
9696.88003 3.50432e-18
9698.87844 3.45030e-18
9700.88695 3.37849e-18
9702.88536 3.31969e-18
9704.88378 3.29646e-18
9706.88219 3.32314e-18
9708.89070 3.38294e-18
9710.88911 3.46851e-18
9712.88753 3.53554e-18
9714.88594 3.50527e-18
9716.88436 3.45206e-18
9718.89286 3.45068e-18
9720.89128 3.50057e-18
9722.88969 3.52628e-18
9724.88810 3.47371e-18
9726.89661 3.43636e-18
9728.89503 3.53535e-18
9730.89344 3.65948e-18
9732.89185 3.74087e-18
9734.89027 3.76443e-18
9736.89877 3.75230e-18
9738.89719 3.72563e-18
9740.89560 3.70878e-18
9742.89402 3.77353e-18
9744.89243 3.83415e-18
9746.90094 3.84115e-18
9748.89935 3.79606e-18
9750.89776 3.70256e-18
9752.89618 3.59157e-18
9754.90469 3.50507e-18
9756.90310 3.51888e-18
9758.90151 3.54856e-18
9760.89993 3.54581e-18
9762.89834 3.50692e-18
9764.90685 3.41634e-18
9766.90526 3.30439e-18
9768.90368 3.22147e-18
9770.90209 3.22791e-18
9772.90051 3.25735e-18
9774.90901 3.25743e-18
9776.90743 3.25318e-18
9778.90584 3.25273e-18
9780.90425 3.27041e-18
9782.91276 3.32172e-18
9784.91118 3.41010e-18
9786.90959 3.49353e-18
9788.90800 3.50600e-18
9790.90642 3.49365e-18
9792.91492 3.47609e-18
9794.91334 3.44997e-18
9796.91175 3.39388e-18
9798.91017 3.31503e-18
9800.91867 3.24662e-18
9802.91709 3.23749e-18
9804.91550 3.25135e-18
9806.91392 3.28068e-18
9808.91233 3.30917e-18
9810.92084 3.32090e-18
9812.91925 3.31780e-18
9814.91766 3.32683e-18
9816.91608 3.37377e-18
9818.91449 3.41082e-18
9820.92300 3.39490e-18
9822.92141 3.33870e-18
9824.91983 3.23282e-18
9826.91824 3.11030e-18
9828.92675 3.00155e-18
9830.92516 2.94813e-18
9832.92358 2.92996e-18
9834.92199 2.94942e-18
9836.92040 2.99874e-18
9838.92891 3.10312e-18
9840.92733 3.19942e-18
9842.92574 3.20827e-18
9844.92415 3.10644e-18
9846.92257 3.01140e-18
9848.93107 3.07783e-18
9850.92949 3.17422e-18
9852.92790 3.24432e-18
9854.92632 3.27688e-18
9856.93482 3.27602e-18
9858.93324 3.24284e-18
9860.93165 3.18694e-18
9862.93007 3.11937e-18
9864.92848 3.04519e-18
9866.93699 2.95593e-18
9868.93540 2.89414e-18
9870.93381 2.90902e-18
9872.93223 2.98259e-18
9874.94074 3.05813e-18
9876.93915 3.08185e-18
9878.93756 3.09420e-18
9880.93598 3.12391e-18
9882.93439 3.14354e-18
9884.94290 3.13879e-18
9886.94131 3.10394e-18
9888.93973 3.02719e-18
9890.93814 2.92554e-18
9892.93655 2.85132e-18
9894.94506 2.91269e-18
9896.94348 2.98840e-18
9898.94189 2.99838e-18
9900.94030 2.96861e-18
9902.94881 2.94709e-18
9904.94722 2.94991e-18
9906.94564 2.94202e-18
9908.94405 2.89047e-18
9910.94247 2.86369e-18
9912.95097 2.94202e-18
9914.94939 3.06310e-18
9916.94780 3.19792e-18
9918.94621 3.28665e-18
9920.95472 3.29313e-18
9922.95314 3.16917e-18
9924.95155 3.02756e-18
9926.94996 2.99810e-18
9928.94838 3.00645e-18
9930.95689 3.01365e-18
9932.95530 3.01320e-18
9934.95371 3.03266e-18
9936.95213 3.06981e-18
9938.95054 3.08422e-18
9940.95905 2.96948e-18
9942.95746 2.88381e-18
9944.95588 2.96192e-18
9946.95429 3.12798e-18
9948.96280 3.30617e-18
9950.96121 3.39138e-18
9952.95963 3.34812e-18
9954.95804 3.03915e-18
9956.95645 2.74236e-18
9958.96496 2.72673e-18
9960.96337 2.85694e-18
9962.96179 3.02728e-18
9964.96020 3.13672e-18
9966.95862 3.17411e-18
9968.96712 3.08197e-18
9970.96554 2.97142e-18
9972.96395 2.96316e-18
9974.96236 2.98534e-18
9976.97087 2.97676e-18
9978.96929 2.96019e-18
9980.96770 3.01142e-18
9982.96611 3.16033e-18
9984.96453 3.29422e-18
9986.97304 3.24313e-18
9988.97145 3.14286e-18
9990.96986 3.04780e-18
9992.96828 2.97177e-18
9994.97678 2.88817e-18
9996.97520 2.80953e-18
9998.97361 2.76649e-18
10000.97203 2.81361e-18
10002.97044 2.88606e-18
