# wavelength flux
3799.84927 1.21153e-17
3801.36622 1.26383e-17
3802.89321 1.31613e-17
3804.41015 1.38718e-17
3805.92710 1.45822e-17
3807.45409 1.49440e-17
3808.97104 1.53054e-17
3810.48798 1.48134e-17
3812.01498 1.43208e-17
3813.53192 1.37228e-17
3815.04887 1.31246e-17
3816.57586 1.32224e-17
3818.09281 1.33210e-17
3819.60975 1.36279e-17
3821.13674 1.39349e-17
3822.65369 1.48009e-17
3824.18068 1.56679e-17
3825.69763 1.59631e-17
3827.21457 1.62571e-17
3828.74157 1.60375e-17
3830.25851 1.58164e-17
3831.77546 1.56438e-17
3833.30245 1.54712e-17
3834.81940 1.56489e-17
3836.33634 1.58278e-17
3837.86333 1.64264e-17
3839.38028 1.70264e-17
3840.89723 1.71645e-17
3842.42422 1.73010e-17
3843.94116 1.78662e-17
3845.45811 1.84330e-17
3846.98510 1.81436e-17
3848.50205 1.78509e-17
3850.01899 1.76256e-17
3851.54599 1.74006e-17
3853.06293 1.77103e-17
3854.57988 1.80224e-17
3856.10687 1.83621e-17
3857.62382 1.87020e-17
3859.15081 1.93114e-17
3860.66775 1.99223e-17
3862.18470 2.04629e-17
3863.71169 2.10031e-17
3865.22864 2.02507e-17
3866.74558 1.94906e-17
3868.27258 1.95625e-17
3869.78952 1.96394e-17
3871.30647 2.04208e-17
3872.83346 2.12064e-17
3874.35041 2.09150e-17
3875.86735 2.06164e-17
3877.39434 2.09826e-17
3878.91129 2.13531e-17
3880.42824 2.21524e-17
3881.95523 2.29548e-17
3883.47217 2.33313e-17
3884.98912 2.37046e-17
3886.51611 2.43655e-17
3888.03306 2.50285e-17
3889.55000 2.51120e-17
3891.07700 2.51908e-17
3892.59394 2.47847e-17
3894.12093 2.43746e-17
3895.63788 2.54726e-17
3897.15483 2.65835e-17
3898.68182 2.72693e-17
3900.19876 2.79515e-17
3901.71571 2.81954e-17
3903.24270 2.84352e-17
3904.75965 2.79398e-17
3906.27659 2.74375e-17
3907.80359 2.76492e-17
3909.32053 2.78676e-17
3910.83748 2.94619e-17
3912.36447 3.10700e-17
3913.88142 3.15179e-17
3915.39836 3.19542e-17
3916.92535 3.31451e-17
3918.44230 3.43440e-17
3919.95925 3.41897e-17
3921.48624 3.40210e-17
3923.00318 3.42508e-17
3924.52013 3.44848e-17
3926.04712 3.50409e-17
3927.56407 3.56006e-17
3929.08101 3.52923e-17
3930.60801 3.49742e-17
3932.12495 3.44209e-17
3933.65194 3.38649e-17
3935.16889 3.46655e-17
3936.68584 3.54823e-17
3938.21283 3.66802e-17
3939.72977 3.78826e-17
3941.24672 3.78080e-17
3942.77371 3.77173e-17
3944.29066 3.74955e-17
3945.80760 3.72720e-17
3947.33460 3.74961e-17
3948.85154 3.77261e-17
3950.36849 3.80792e-17
3951.89548 3.84339e-17
3953.41243 3.91515e-17
3954.92937 3.98741e-17
3956.45636 4.04087e-17
3957.97331 4.09407e-17
3959.49026 3.98742e-17
3961.01725 3.87853e-17
3962.53419 3.96421e-17
3964.06119 4.05273e-17
3965.57813 4.11182e-17
3967.09508 4.17048e-17
3968.62207 4.06175e-17
3970.13902 3.95045e-17
3971.65596 3.96072e-17
3973.18295 3.97286e-17
3974.69990 4.08573e-17
3976.21685 4.20013e-17
3977.74384 4.07887e-17
3979.26078 3.95384e-17
3980.77773 3.98026e-17
3982.30472 4.00910e-17
3983.82167 3.94561e-17
3985.33861 3.88058e-17
3986.86561 3.79105e-17
3988.38255 3.70111e-17
3989.89950 3.75829e-17
3991.42649 3.81793e-17
3992.94344 3.81108e-17
3994.46038 3.80307e-17
3995.98737 3.78228e-17
3997.50432 3.76127e-17
3999.03131 3.77633e-17
4000.54826 3.79203e-17
4002.06520 3.71817e-17
4003.59220 3.64270e-17
4005.10914 3.61046e-17
4006.62609 3.57900e-17
4008.15308 3.68181e-17
4009.67003 3.78714e-17
4011.18697 3.79201e-17
4012.71396 3.79500e-17
4014.23091 3.65850e-17
4015.74786 3.51930e-17
4017.27485 3.54606e-17
4018.79179 3.57605e-17
4020.30874 3.48045e-17
4021.83573 3.38232e-17
4023.35268 3.32521e-17
4024.86962 3.26892e-17
4026.39662 3.34855e-17
4027.91356 3.43092e-17
4029.43051 3.37489e-17
4030.95750 3.31599e-17
4032.47445 3.26609e-17
4033.99139 3.21639e-17
4035.51838 3.21848e-17
4037.03533 3.22170e-17
4038.56232 3.11767e-17
4040.07927 3.01135e-17
4041.59621 3.05310e-17
4043.12321 3.09804e-17
4044.64015 3.02454e-17
4046.15710 2.94841e-17
4047.68409 2.91379e-17
4049.20104 2.88009e-17
4050.71798 2.86528e-17
4052.24497 2.85091e-17
4053.76192 2.86747e-17
4055.27887 2.88473e-17
4056.80586 2.85190e-17
4058.32280 2.81792e-17
4059.83975 2.77254e-17
4061.36674 2.72689e-17
4062.88369 2.71138e-17
4064.40063 2.69659e-17
4065.92763 2.68166e-17
4067.44457 2.66673e-17
4068.96152 2.60944e-17
4070.48851 2.55113e-17
4072.00546 2.55407e-17
4073.53245 2.55853e-17
4075.04939 2.53225e-17
4076.56634 2.50521e-17
4078.09333 2.49782e-17
4079.61028 2.49093e-17
4081.12722 2.50636e-17
4082.65422 2.52238e-17
4084.17116 2.37290e-17
4085.68811 2.21919e-17
4087.21510 2.30249e-17
4088.73205 2.39203e-17
4090.24899 2.31342e-17
4091.77598 2.23040e-17
4093.29293 2.19070e-17
4094.80988 2.15214e-17
4096.33687 2.25817e-17
4097.85381 2.36810e-17
4099.37076 2.31447e-17
4100.89775 2.25642e-17
4102.41470 2.20185e-17
4103.94169 2.14737e-17
4105.45864 2.19030e-17
4106.97558 2.23592e-17
4108.50257 2.32909e-17
4110.01952 2.42356e-17
4111.53647 2.40012e-17
4113.06346 2.37333e-17
4114.58040 2.38779e-17
4116.09735 2.40343e-17
4117.62434 2.44682e-17
4119.14129 2.49101e-17
4120.65823 2.50060e-17
4122.18523 2.50917e-17
4123.70217 2.44258e-17
4125.21912 2.37381e-17
4126.74611 2.37683e-17
4128.26306 2.38198e-17
4129.78000 2.40640e-17
4131.30699 2.43138e-17
4132.82394 2.41456e-17
4134.34089 2.39646e-17
4135.86788 2.44237e-17
4137.38482 2.49022e-17
4138.90177 2.51825e-17
4140.42876 2.54565e-17
4141.94571 2.44684e-17
4143.47270 2.34411e-17
4144.98965 2.30747e-17
4146.50659 2.27289e-17
4148.03358 2.32324e-17
4149.55053 2.37630e-17
4151.06748 2.36768e-17
4152.59447 2.35711e-17
4154.11141 2.34630e-17
4155.62836 2.33548e-17
4157.15535 2.36371e-17
4158.67230 2.39322e-17
4160.18924 2.45635e-17
4161.71624 2.52058e-17
4163.23318 2.49056e-17
4164.75013 2.45740e-17
4166.27712 2.44027e-17
4167.79407 2.42367e-17
4169.31101 2.43447e-17
4170.83800 2.44620e-17
4172.35495 2.49537e-17
4173.88194 2.54582e-17
4175.39889 2.45894e-17
4176.91583 2.36739e-17
4178.44283 2.39028e-17
4179.95977 2.41714e-17
4181.47672 2.40693e-17
4183.00371 2.39544e-17
4184.52066 2.41467e-17
4186.03760 2.43499e-17
4187.56459 2.43505e-17
4189.08154 2.43440e-17
4190.59849 2.37544e-17
4192.12548 2.31438e-17
4193.64242 2.35802e-17
4195.15937 2.40545e-17
4196.68636 2.43304e-17
4198.20331 2.45990e-17
4199.72025 2.40604e-17
4201.24725 2.34922e-17
4202.76419 2.37485e-17
4204.28114 2.40352e-17
4205.80813 2.45141e-17
4207.32508 2.50003e-17
4208.85207 2.50530e-17
4210.36901 2.50895e-17
4211.88596 2.43064e-17
4213.41295 2.34925e-17
4214.92990 2.34305e-17
4216.44684 2.33972e-17
4217.97384 2.34688e-17
4219.49078 2.35445e-17
4221.00773 2.35092e-17
4222.53472 2.34697e-17
4224.05167 2.39695e-17
4225.56861 2.44902e-17
4227.09560 2.45519e-17
4228.61255 2.45957e-17
4230.12950 2.49661e-17
4231.65649 2.53495e-17
4233.17343 2.50174e-17
4234.69038 2.46569e-17
4236.21737 2.48111e-17
4237.73432 2.49861e-17
4239.25126 2.41695e-17
4240.77826 2.33130e-17
4242.29520 2.29857e-17
4243.81215 2.26798e-17
4245.33914 2.30513e-17
4246.85609 2.34505e-17
4248.38308 2.37279e-17
4249.90002 2.40002e-17
4251.41697 2.39647e-17
4252.94396 2.39163e-17
4254.46091 2.37742e-17
4255.97785 2.36281e-17
4257.50485 2.33767e-17
4259.02179 2.31209e-17
4260.53874 2.31314e-17
4262.06573 2.31533e-17
4263.58268 2.35367e-17
4265.09962 2.39355e-17
4266.62661 2.43417e-17
4268.14356 2.47483e-17
4269.66051 2.45401e-17
4271.18750 2.43055e-17
4272.70444 2.42137e-17
4274.22139 2.41281e-17
4275.74838 2.41285e-17
4277.26533 2.41326e-17
4278.78227 2.41133e-17
4280.30927 2.40929e-17
4281.82621 2.48340e-17
4283.35320 2.56090e-17
4284.87015 2.49788e-17
4286.38710 2.42859e-17
4287.91409 2.36657e-17
4289.43103 2.30488e-17
4290.94798 2.32116e-17
4292.47497 2.34097e-17
4293.99192 2.32915e-17
4295.50886 2.31589e-17
4297.03586 2.35115e-17
4298.55280 2.38864e-17
4300.06975 2.36455e-17
4301.59674 2.33763e-17
4303.11369 2.32816e-17
4304.63063 2.31952e-17
4306.15762 2.28397e-17
4307.67457 2.24717e-17
4309.19152 2.28719e-17
4310.71851 2.33086e-17
4312.23545 2.35048e-17
4313.75240 2.36896e-17
4315.27939 2.38743e-17
4316.79634 2.40589e-17
4318.32333 2.34285e-17
4319.84028 2.27588e-17
4321.35722 2.28088e-17
4322.88421 2.28935e-17
4324.40116 2.23930e-17
4325.91811 2.18638e-17
4327.44510 2.21384e-17
4328.96204 2.24523e-17
4330.47899 2.27282e-17
4332.00598 2.30021e-17
4333.52293 2.23632e-17
4335.03987 2.16790e-17
4336.56687 2.16244e-17
4338.08381 2.16011e-17
4339.60076 2.13090e-17
4341.12775 2.10035e-17
4342.64470 2.12535e-17
4344.16164 2.15315e-17
4345.68863 2.15271e-17
4347.20558 2.15085e-17
4348.72253 2.11185e-17
4350.24952 2.07095e-17
4351.76646 2.09306e-17
4353.28341 2.11839e-17
4354.81040 2.12380e-17
4356.32735 2.12817e-17
4357.85434 2.15595e-17
4359.37129 2.18495e-17
4360.88823 2.08189e-17
4362.41522 1.97197e-17
4363.93217 1.95534e-17
4365.44912 1.94362e-17
4366.97611 1.93813e-17
4368.49305 1.93297e-17
4370.01000 1.91103e-17
4371.53699 1.88820e-17
4373.05394 1.84809e-17
4374.57088 1.80707e-17
4376.09788 1.83461e-17
4377.61482 1.86586e-17
4379.13177 1.84015e-17
4380.65876 1.81135e-17
4382.17571 1.78560e-17
4383.69265 1.76000e-17
4385.21964 1.72321e-17
4386.73659 1.68580e-17
4388.26358 1.66712e-17
4389.78053 1.64947e-17
4391.29747 1.67469e-17
4392.82447 1.70229e-17
4394.34141 1.68735e-17
4395.85836 1.67006e-17
4397.38535 1.62945e-17
4398.90230 1.58755e-17
4400.41924 1.58671e-17
4401.94623 1.58819e-17
4403.46318 1.58609e-17
4404.98013 1.58380e-17
4406.50712 1.57327e-17
4408.02406 1.56227e-17
4409.54101 1.58947e-17
4411.06800 1.61885e-17
4412.58495 1.60071e-17
4414.10189 1.57986e-17
4415.62889 1.61198e-17
4417.14583 1.64716e-17
4418.66278 1.67075e-17
4420.18977 1.69368e-17
4421.70672 1.60727e-17
4423.23371 1.51448e-17
4424.75065 1.58924e-17
4426.26760 1.67380e-17
4427.79459 1.67433e-17
4429.31154 1.66995e-17
4430.82848 1.67794e-17
4432.35548 1.68665e-17
4433.87242 1.67370e-17
4435.38937 1.65947e-17
4436.91636 1.63686e-17
4438.43331 1.61374e-17
4439.95025 1.65528e-17
4441.47724 1.70069e-17
4442.99419 1.69877e-17
4444.51114 1.69396e-17
4446.03813 1.73324e-17
4447.55507 1.77519e-17
4449.07202 1.80433e-17
4450.59901 1.83270e-17
4452.11596 1.81932e-17
4453.63290 1.80339e-17
4455.15990 1.82003e-17
4456.67684 1.83867e-17
4458.20383 1.87263e-17
4459.72078 1.90754e-17
4461.23773 1.94252e-17
4462.76472 1.97750e-17
4464.28166 1.97619e-17
4465.79861 1.97263e-17
4467.32560 1.99767e-17
4468.84255 2.02450e-17
4470.35949 2.06205e-17
4471.88649 2.10028e-17
4473.40343 2.06839e-17
4474.92038 2.03204e-17
4476.44737 2.02763e-17
4477.96432 2.02526e-17
4479.48126 2.02651e-17
4481.00825 2.02798e-17
4482.52520 2.09232e-17
4484.04215 2.16070e-17
4485.56914 2.16913e-17
4487.08608 2.17370e-17
4488.60303 2.21204e-17
4490.13002 2.25258e-17
4491.64697 2.28720e-17
4493.17396 2.32144e-17
4494.69091 2.30100e-17
4496.20785 2.27696e-17
4497.73484 2.30764e-17
4499.25179 2.34193e-17
4500.76874 2.34815e-17
4502.29573 2.35252e-17
4503.81267 2.35740e-17
4505.32962 2.36231e-17
4506.85661 2.41148e-17
4508.37356 2.46358e-17
4509.89050 2.48150e-17
4511.41750 2.49710e-17
4512.93444 2.53076e-17
4514.45139 2.56563e-17
4515.97838 2.52254e-17
4517.49533 2.47420e-17
4519.01227 2.49389e-17
4520.53926 2.51822e-17
4522.05621 2.52800e-17
4523.57316 2.53680e-17
4525.10015 2.54245e-17
4526.61709 2.54788e-17
4528.14409 2.60322e-17
4529.66103 2.66201e-17
4531.17798 2.65749e-17
4532.70497 2.64862e-17
4534.22192 2.62307e-17
4535.73886 2.59635e-17
4537.26585 2.56463e-17
4538.78280 2.53255e-17
4540.29975 2.55904e-17
4541.82674 2.58964e-17
4543.34368 2.58728e-17
4544.86063 2.58259e-17
4546.38762 2.59510e-17
4547.90457 2.60882e-17
4549.42151 2.59742e-17
4550.94851 2.58423e-17
4552.46545 2.64190e-17
4553.98240 2.70460e-17
4555.50939 2.72671e-17
4557.02634 2.74589e-17
4558.54328 2.77286e-17
4560.07027 2.80038e-17
4561.58722 2.80252e-17
4563.11421 2.80282e-17
4564.63116 2.80057e-17
4566.14810 2.79814e-17
4567.67510 2.75577e-17
4569.19204 2.71049e-17
4570.70899 2.75738e-17
4572.23598 2.81103e-17
4573.75293 2.79403e-17
4575.26987 2.77185e-17
4576.79686 2.72570e-17
4578.31381 2.67777e-17
4579.83076 2.73322e-17
4581.35775 2.79634e-17
4582.87469 2.79129e-17
4584.39164 2.78118e-17
4585.91863 2.71377e-17
4587.43558 2.64208e-17
4588.95252 2.69253e-17
4590.47952 2.75213e-17
4591.99646 2.73563e-17
4593.51341 2.71337e-17
4595.04040 2.69437e-17
4596.55735 2.67561e-17
4598.08434 2.69745e-17
4599.60128 2.72236e-17
4601.11823 2.70895e-17
4602.64522 2.69262e-17
4604.16217 2.67700e-17
4605.67911 2.66143e-17
4607.20611 2.64627e-17
4608.72305 2.63114e-17
4610.24000 2.63645e-17
4611.76699 2.64333e-17
4613.28394 2.66728e-17
4614.80088 2.69255e-17
4616.32787 2.67031e-17
4617.84482 2.64437e-17
4619.36177 2.63282e-17
4620.88876 2.62238e-17
4622.40570 2.58116e-17
4623.92265 2.53752e-17
4625.44964 2.54696e-17
4626.96659 2.56059e-17
4628.48353 2.55546e-17
4630.01053 2.54885e-17
4631.52747 2.55505e-17
4633.04442 2.56226e-17
4634.57141 2.50069e-17
4636.08836 2.43365e-17
4637.61535 2.44275e-17
4639.13229 2.45797e-17
4640.64924 2.46821e-17
4642.17623 2.47805e-17
4643.69318 2.47087e-17
4645.21012 2.46232e-17
4646.73712 2.41117e-17
4648.25406 2.35657e-17
4649.77101 2.36861e-17
4651.29800 2.38605e-17
4652.81495 2.43899e-17
4654.33189 2.49484e-17
4655.85888 2.45264e-17
4657.37583 2.40241e-17
4658.89278 2.40936e-17
4660.41977 2.42103e-17
4661.93671 2.46013e-17
4663.45366 2.50149e-17
4664.98065 2.48076e-17
4666.49760 2.45489e-17
4668.02459 2.40806e-17
4669.54154 2.35949e-17
4671.05848 2.38288e-17
4672.58547 2.41228e-17
4674.10242 2.38167e-17
4675.61937 2.34602e-17
4677.14636 2.36516e-17
4678.66330 2.38891e-17
4680.18025 2.37118e-17
4681.70724 2.34995e-17
4683.22419 2.30825e-17
4684.74113 2.26482e-17
4686.26813 2.26016e-17
4687.78507 2.25879e-17
4689.30202 2.24443e-17
4690.82901 2.22896e-17
4692.34596 2.23721e-17
4693.86290 2.24750e-17
4695.38989 2.21860e-17
4696.90684 2.18632e-17
4698.43383 2.17347e-17
4699.95078 2.16229e-17
4701.46772 2.16612e-17
4702.99472 2.17124e-17
4704.51166 2.13870e-17
4706.02861 2.10287e-17
4707.55560 2.03523e-17
4709.07255 1.96481e-17
4710.58949 1.97724e-17
4712.11648 1.99697e-17
4713.63343 1.99600e-17
4715.15038 1.99321e-17
4716.67737 1.95175e-17
4718.19431 1.90690e-17
4719.71126 1.88480e-17
4721.23825 1.86473e-17
4722.75520 1.86864e-17
4724.27214 1.87467e-17
4725.79914 1.85586e-17
4727.31608 1.83482e-17
4728.83303 1.74221e-17
4730.36002 1.64319e-17
4731.87697 1.58640e-17
4733.39391 1.53342e-17
4734.92090 1.52773e-17
4736.43785 1.52631e-17
4737.96484 1.50459e-17
4739.48179 1.48104e-17
4740.99873 1.43877e-17
4742.52573 1.39480e-17
4744.04267 1.38571e-17
4745.55962 1.37980e-17
4747.08661 1.35708e-17
4748.60356 1.33283e-17
4750.12050 1.32354e-17
4751.64749 1.31563e-17
4753.16444 1.31064e-17
4754.68139 1.30593e-17
4756.20838 1.32306e-17
4757.72532 1.34222e-17
4759.24227 1.31830e-17
4760.76926 1.29037e-17
4762.28621 1.27617e-17
4763.80315 1.26326e-17
4765.33015 1.27055e-17
4766.84709 1.27974e-17
4768.36404 1.27972e-17
4769.89103 1.27884e-17
4771.40798 1.25267e-17
4772.93497 1.22412e-17
4774.45191 1.21560e-17
4775.96886 1.20897e-17
4777.49585 1.21543e-17
4779.01280 1.22315e-17
4780.52974 1.22997e-17
4782.05674 1.23670e-17
4783.57368 1.22222e-17
4785.09063 1.20573e-17
4786.61762 1.18942e-17
4788.13457 1.17313e-17
4789.65151 1.16152e-17
4791.17850 1.15036e-17
4792.69545 1.14597e-17
4794.21240 1.14224e-17
4795.73939 1.14768e-17
4797.25633 1.15400e-17
4798.77328 1.17568e-17
4800.30027 1.19885e-17
4801.81722 1.19150e-17
4803.33416 1.18118e-17
4804.86116 1.16515e-17
4806.37810 1.14856e-17
4807.89505 1.13911e-17
4809.42204 1.13036e-17
4810.93899 1.09048e-17
4812.46598 1.04754e-17
4813.98292 1.04471e-17
4815.49987 1.04584e-17
4817.02686 1.02636e-17
4818.54381 1.00483e-17
4820.06075 1.00976e-17
4821.58775 1.01730e-17
4823.10469 1.00340e-17
4824.62164 9.87371e-18
4826.14863 9.93249e-18
4827.66558 1.00131e-17
4829.18252 9.90510e-18
4830.70951 9.77810e-18
4832.22646 9.83794e-18
4833.74341 9.91659e-18
4835.27040 9.71381e-18
4836.78734 9.48273e-18
4838.30429 9.27378e-18
4839.83128 9.06710e-18
4841.34823 9.45017e-18
4842.86517 9.89302e-18
4844.39217 9.80133e-18
4845.90911 9.65502e-18
4847.43610 9.61811e-18
4848.95305 9.59237e-18
4850.47000 9.54462e-18
4851.99699 9.49460e-18
4853.51393 9.79408e-18
4855.03088 1.01295e-17
4856.55787 1.03528e-17
4858.07482 1.05644e-17
4859.59176 1.06531e-17
4861.11876 1.07290e-17
4862.63570 1.04259e-17
4864.15265 1.00834e-17
4865.67964 1.04706e-17
4867.19659 1.09341e-17
4868.71353 1.09543e-17
4870.24052 1.09280e-17
4871.75747 1.06924e-17
4873.27442 1.04349e-17
4874.80141 1.06027e-17
4876.31835 1.08154e-17
4877.84535 1.11831e-17
4879.36229 1.15671e-17
4880.87924 1.18304e-17
4882.40623 1.20809e-17
4883.92318 1.21212e-17
4885.44012 1.21392e-17
4886.96711 1.18980e-17
4888.48406 1.16293e-17
4890.00101 1.15456e-17
4891.52800 1.14818e-17
4893.04494 1.17939e-17
4894.56189 1.21463e-17
4896.08888 1.25852e-17
4897.60583 1.30334e-17
4899.12277 1.32460e-17
4900.64977 1.34331e-17
4902.16671 1.36302e-17
4903.68366 1.38284e-17
4905.21065 1.39263e-17
4906.72760 1.40131e-17
4908.24454 1.39440e-17
4909.77153 1.38580e-17
4911.28848 1.39137e-17
4912.80543 1.39849e-17
4914.33242 1.42135e-17
4915.84936 1.44594e-17
4917.37636 1.46720e-17
4918.89330 1.48810e-17
4920.41025 1.50240e-17
4921.93724 1.51597e-17
4923.45419 1.52997e-17
4924.97113 1.54401e-17
4926.49812 1.54497e-17
4928.01507 1.54448e-17
4929.53202 1.54079e-17
4931.05901 1.53673e-17
4932.57595 1.55482e-17
4934.09290 1.57539e-17
4935.61989 1.57687e-17
4937.13684 1.57622e-17
4938.65378 1.56719e-17
4940.18078 1.55723e-17
4941.69772 1.55910e-17
4943.21467 1.56229e-17
4944.74166 1.56808e-17
4946.25861 1.57416e-17
4947.77555 1.56160e-17
4949.30254 1.54693e-17
4950.81949 1.49919e-17
4952.34648 1.44770e-17
4953.86343 1.46440e-17
4955.38037 1.48885e-17
4956.90737 1.46514e-17
4958.42431 1.43593e-17
4959.94126 1.41865e-17
4961.46825 1.40272e-17
4962.98520 1.38511e-17
4964.50214 1.36729e-17
4966.02913 1.36766e-17
4967.54608 1.37013e-17
4969.06303 1.32550e-17
4970.59002 1.27541e-17
4972.10696 1.24102e-17
4973.62391 1.20845e-17
4975.15090 1.20927e-17
4976.66785 1.21395e-17
4978.18479 1.27518e-17
4979.71179 1.34302e-17
4981.22873 1.33158e-17
4982.75572 1.31089e-17
4984.27267 1.25848e-17
4985.78962 1.20233e-17
4987.31661 1.18887e-17
4988.83355 1.18043e-17
4990.35050 1.19126e-17
4991.87749 1.20434e-17
4993.39444 1.21296e-17
4994.91138 1.22105e-17
4996.43838 1.20339e-17
4997.95532 1.18268e-17
4999.47227 1.15310e-17
5000.99926 1.12246e-17
5002.51621 1.13807e-17
5004.03315 1.15920e-17
5005.56014 1.15409e-17
5007.07709 1.14586e-17
5008.59404 1.18144e-17
5010.12103 1.22229e-17
5011.63797 1.20196e-17
5013.15492 1.17428e-17
5014.68191 1.17154e-17
5016.19886 1.17181e-17
5017.72585 1.18285e-17
5019.24280 1.19519e-17
5020.75974 1.19930e-17
5022.28673 1.20242e-17
5023.80368 1.27288e-17
5025.32063 1.35154e-17
5026.84762 1.43433e-17
5028.36456 1.51761e-17
5029.88151 1.47884e-17
5031.40850 1.42512e-17
5032.92545 1.35316e-17
5034.44239 1.27897e-17
5035.96939 1.24880e-17
5037.48633 1.22407e-17
5039.00328 1.22386e-17
5040.53027 1.22667e-17
5042.04722 1.24765e-17
5043.56416 1.27087e-17
5045.09115 1.26175e-17
5046.60810 1.24860e-17
5048.12505 1.25264e-17
5049.65204 1.25882e-17
5051.16898 1.27986e-17
5052.69598 1.30277e-17
5054.21292 1.30282e-17
5055.72987 1.30001e-17
5057.25686 1.30640e-17
5058.77381 1.31394e-17
5060.29075 1.32548e-17
5061.81774 1.33752e-17
5063.33469 1.36825e-17
5064.85164 1.40133e-17
5066.37863 1.40316e-17
5067.89557 1.40103e-17
5069.41252 1.41843e-17
5070.93951 1.43831e-17
5072.45646 1.43792e-17
5073.97340 1.43496e-17
5075.50040 1.45170e-17
5077.01734 1.47094e-17
5078.53429 1.48525e-17
5080.06128 1.49892e-17
5081.57823 1.49243e-17
5083.09517 1.48335e-17
5084.62216 1.49552e-17
5086.13911 1.51042e-17
5087.65606 1.53217e-17
5089.18305 1.55481e-17
5090.69999 1.57430e-17
5092.22699 1.59339e-17
5093.74393 1.59453e-17
5095.26088 1.59335e-17
5096.78787 1.59363e-17
5098.30482 1.59409e-17
5099.82176 1.60921e-17
5101.34875 1.62623e-17
5102.86570 1.64141e-17
5104.38265 1.65635e-17
5105.90964 1.62223e-17
5107.42658 1.58170e-17
5108.94353 1.60586e-17
5110.47052 1.63849e-17
5111.98747 1.65994e-17
5113.50441 1.67992e-17
5115.03141 1.67903e-17
5116.54835 1.67541e-17
5118.06530 1.69647e-17
5119.59229 1.72081e-17
5121.10924 1.71950e-17
5122.62618 1.71480e-17
5124.15317 1.69218e-17
5125.67012 1.66718e-17
5127.19711 1.70926e-17
5128.71406 1.76029e-17
5130.23100 1.77765e-17
5131.75800 1.79052e-17
5133.27494 1.80726e-17
5134.79189 1.82452e-17
5136.31888 1.81279e-17
5137.83583 1.79717e-17
5139.35277 1.80573e-17
5140.87976 1.81754e-17
5142.39671 1.85971e-17
5143.91366 1.90598e-17
5145.44065 1.93208e-17
5146.95759 1.95547e-17
5148.47454 1.92661e-17
5150.00153 1.89064e-17
5151.51848 1.88485e-17
5153.03542 1.88316e-17
5154.56242 1.91025e-17
5156.07936 1.94127e-17
5157.59631 1.95613e-17
5159.12330 1.96879e-17
5160.64025 1.97111e-17
5162.16724 1.97201e-17
5163.68418 1.95618e-17
5165.20113 1.93805e-17
5166.72812 1.96288e-17
5168.24507 1.99363e-17
5169.76201 2.00371e-17
5171.28901 2.01093e-17
5172.80595 2.00243e-17
5174.32290 1.99176e-17
5175.84989 1.98529e-17
5177.36684 1.97941e-17
5178.88378 1.99424e-17
5180.41077 2.01195e-17
5181.92772 2.02370e-17
5183.44467 2.03462e-17
5184.97166 2.04580e-17
5186.48860 2.05700e-17
5188.00555 2.05457e-17
5189.53254 2.05022e-17
5191.04949 2.04236e-17
5192.56643 2.03400e-17
5194.09343 2.04256e-17
5195.61037 2.05350e-17
5197.12732 2.06041e-17
5198.65431 2.06674e-17
5200.17126 2.03931e-17
5201.69825 2.00708e-17
5203.21519 2.01630e-17
5204.73214 2.03139e-17
5206.25913 2.02433e-17
5207.77608 2.01411e-17
5209.29302 2.03445e-17
5210.82002 2.05916e-17
5212.33696 2.05991e-17
5213.85391 2.05724e-17
5215.38090 2.06289e-17
5216.89785 2.06974e-17
5218.41479 2.08607e-17
5219.94178 2.10376e-17
5221.45873 2.13158e-17
5222.97568 2.16087e-17
5224.50267 2.14294e-17
5226.01961 2.11818e-17
5227.53656 2.14237e-17
5229.06355 2.17364e-17
5230.58050 2.16541e-17
5232.10749 2.15143e-17
5233.62444 2.13992e-17
5235.14138 2.12876e-17
5236.66837 2.11269e-17
5238.18532 2.09591e-17
5239.70227 2.09986e-17
5241.22926 2.10683e-17
5242.74620 2.11943e-17
5244.26315 2.13284e-17
5245.79014 2.13612e-17
5247.30709 2.13791e-17
5248.82403 2.15442e-17
5250.35103 2.17309e-17
5251.86797 2.18633e-17
5253.38492 2.19877e-17
5254.91191 2.19340e-17
5256.42886 2.18539e-17
5257.94580 2.15694e-17
5259.47279 2.12546e-17
5260.98974 2.13787e-17
5262.51673 2.15680e-17
5264.03368 2.15579e-17
5265.55062 2.15180e-17
5267.07762 2.15521e-17
5268.59456 2.15973e-17
5270.11151 2.16522e-17
5271.63850 2.17086e-17
5273.15545 2.17412e-17
5274.67239 2.17702e-17
5276.19938 2.18662e-17
5277.71633 2.19722e-17
5279.23328 2.17614e-17
5280.76027 2.15028e-17
5282.27721 2.14321e-17
5283.79416 2.13898e-17
5285.32115 2.16141e-17
5286.83810 2.18788e-17
5288.35504 2.16165e-17
5289.88204 2.12740e-17
5291.39898 2.14673e-17
5292.91593 2.17422e-17
5294.44292 2.17725e-17
5295.95987 2.17656e-17
5297.47681 2.16085e-17
5299.00380 2.14284e-17
5300.52075 2.12792e-17
5302.04774 2.11347e-17
5303.56469 2.10507e-17
5305.08163 2.09760e-17
5306.60863 2.11371e-17
5308.12557 2.13347e-17
5309.64252 2.11594e-17
5311.16951 2.09268e-17
5312.68646 2.10457e-17
5314.20340 2.12191e-17
5315.73039 2.11217e-17
5317.24734 2.09824e-17
5318.76429 2.11359e-17
5320.29128 2.13350e-17
5321.80822 2.13049e-17
5323.32517 2.12390e-17
5324.85216 2.10482e-17
5326.36911 2.08378e-17
5327.88605 2.08192e-17
5329.41305 2.08307e-17
5330.92999 2.04643e-17
5332.44694 2.00386e-17
5333.97393 2.02101e-17
5335.49088 2.04757e-17
5337.01787 2.06008e-17
5338.53481 2.07036e-17
5340.05176 2.07097e-17
5341.57875 2.07006e-17
5343.09570 2.05187e-17
5344.61264 2.03095e-17
5346.13964 1.98889e-17
5347.65658 1.94347e-17
5349.17353 1.94888e-17
5350.70052 1.96237e-17
5352.21747 1.95547e-17
5353.73441 1.94531e-17
5355.26140 1.91946e-17
5356.77835 1.89111e-17
5358.29530 1.88305e-17
5359.82229 1.87825e-17
5361.33923 1.90323e-17
5362.85618 1.93297e-17
5364.38317 1.89844e-17
5365.90012 1.85356e-17
5367.42711 1.84827e-17
5368.94406 1.84937e-17
5370.46100 1.86686e-17
5371.97795 1.88701e-17
5373.50494 1.87771e-17
5375.02189 1.86364e-17
5376.54888 1.84743e-17
5378.06582 1.83088e-17
5379.58277 1.81258e-17
5381.10976 1.79400e-17
5382.62671 1.78884e-17
5384.14365 1.78587e-17
5385.67065 1.77801e-17
5387.18759 1.76936e-17
5388.70454 1.74953e-17
5390.23153 1.72787e-17
5391.74848 1.74133e-17
5393.26542 1.76057e-17
5394.79241 1.74866e-17
5396.30936 1.73161e-17
5397.82631 1.74897e-17
5399.35330 1.77199e-17
5400.87024 1.77874e-17
5402.38719 1.78279e-17
5403.91418 1.77047e-17
5405.43113 1.75544e-17
5406.95812 1.73329e-17
5408.47507 1.70995e-17
5409.99201 1.68943e-17
5411.51900 1.66938e-17
5413.03595 1.68063e-17
5414.55290 1.69709e-17
5416.07989 1.66984e-17
5417.59683 1.63527e-17
5419.11378 1.62816e-17
5420.64077 1.62565e-17
5422.15772 1.63462e-17
5423.67466 1.64552e-17
5425.20166 1.65438e-17
5426.71860 1.66290e-17
5428.23555 1.66597e-17
5429.76254 1.66813e-17
5431.27949 1.67568e-17
5432.79643 1.68414e-17
5434.32342 1.69199e-17
5435.84037 1.69974e-17
5437.35732 1.73293e-17
5438.88431 1.77045e-17
5440.40125 1.73958e-17
5441.92825 1.69707e-17
5443.44519 1.68345e-17
5444.96214 1.67474e-17
5446.48913 1.69776e-17
5448.00608 1.72620e-17
5449.52302 1.68695e-17
5451.05001 1.63613e-17
5452.56696 1.61114e-17
5454.08391 1.59059e-17
5455.61090 1.59464e-17
5457.12784 1.60292e-17
5458.64479 1.59661e-17
5460.17178 1.58777e-17
5461.68873 1.57741e-17
5463.20567 1.56678e-17
5464.73267 1.55473e-17
5466.24961 1.54243e-17
5467.76656 1.55550e-17
5469.29355 1.57297e-17
5470.81050 1.59044e-17
5472.32744 1.60791e-17
5473.85443 1.60157e-17
5475.37138 1.59106e-17
5476.88833 1.58195e-17
5478.41532 1.57307e-17
5479.93226 1.56931e-17
5481.45926 1.56643e-17
5482.97620 1.54706e-17
5484.49315 1.52480e-17
5486.02014 1.52563e-17
5487.53709 1.53052e-17
5489.05403 1.54299e-17
5490.58102 1.55680e-17
5492.09797 1.55083e-17
5493.61492 1.54136e-17
5495.14191 1.57159e-17
5496.65885 1.60882e-17
5498.17580 1.61493e-17
5499.70279 1.61552e-17
5501.21974 1.58533e-17
5502.73668 1.54967e-17
5504.26368 1.52656e-17
5505.78062 1.50569e-17
5507.29757 1.50389e-17
5508.82456 1.50549e-17
5510.34151 1.49897e-17
5511.85845 1.49098e-17
5513.38544 1.48426e-17
5514.90239 1.47777e-17
5516.42938 1.48852e-17
5517.94633 1.50236e-17
5519.46327 1.48900e-17
5520.99027 1.47075e-17
5522.50721 1.46102e-17
5524.02416 1.45283e-17
5525.55115 1.46969e-17
5527.06810 1.49107e-17
5528.58504 1.49227e-17
5530.11203 1.48982e-17
5531.62898 1.48745e-17
5533.14593 1.48510e-17
5534.67292 1.47834e-17
5536.18986 1.47078e-17
5537.70681 1.45263e-17
5539.23380 1.43256e-17
5540.75075 1.43735e-17
5542.27774 1.44669e-17
5543.79469 1.46503e-17
5545.31163 1.48501e-17
5546.83862 1.47382e-17
5548.35557 1.45693e-17
5549.87252 1.44505e-17
5551.39951 1.43410e-17
5552.91645 1.44551e-17
5554.43340 1.46102e-17
5555.96039 1.44396e-17
5557.47734 1.42088e-17
5558.99428 1.41678e-17
5560.52128 1.41618e-17
5562.03822 1.42021e-17
5563.55517 1.42509e-17
5565.08216 1.44073e-17
5566.59911 1.45835e-17
5568.11605 1.42542e-17
5569.64304 1.38311e-17
5571.15999 1.39404e-17
5572.67694 1.41489e-17
5574.20393 1.41344e-17
5575.72087 1.40782e-17
5577.23782 1.42283e-17
5578.76481 1.44171e-17
5580.28176 1.46524e-17
5581.80875 1.48965e-17
5583.32570 1.44808e-17
5584.84264 1.39415e-17
5586.36963 1.39498e-17
5587.88658 1.40612e-17
5589.40353 1.39012e-17
5590.93052 1.36901e-17
5592.44746 1.36884e-17
5593.96441 1.37263e-17
5595.49140 1.38454e-17
5597.00835 1.39799e-17
5598.52529 1.38355e-17
5600.05229 1.36383e-17
5601.56923 1.34452e-17
5603.08618 1.32530e-17
5604.61317 1.35202e-17
5606.13012 1.38747e-17
5607.64706 1.37551e-17
5609.17405 1.35450e-17
5610.69100 1.36061e-17
5612.20795 1.37190e-17
5613.73494 1.37400e-17
5615.25188 1.37435e-17
5616.77888 1.36807e-17
5618.29582 1.36051e-17
5619.81277 1.37027e-17
5621.33976 1.38335e-17
5622.85671 1.38188e-17
5624.37365 1.37760e-17
5625.90064 1.37427e-17
5627.41759 1.37111e-17
5628.93454 1.36737e-17
5630.46153 1.36352e-17
5631.97847 1.35783e-17
5633.49542 1.35178e-17
5635.02241 1.35208e-17
5636.53936 1.35360e-17
5638.05630 1.34712e-17
5639.58330 1.33908e-17
5641.10024 1.35194e-17
5642.61719 1.36887e-17
5644.14418 1.34723e-17
5645.66113 1.31804e-17
5647.17807 1.32224e-17
5648.70506 1.33297e-17
5650.22201 1.31976e-17
5651.74900 1.30185e-17
5653.26595 1.29765e-17
5654.78289 1.29616e-17
5656.30989 1.30170e-17
5657.82683 1.30864e-17
5659.34378 1.30211e-17
5660.87077 1.29293e-17
5662.38772 1.29357e-17
5663.90466 1.29616e-17
5665.43165 1.30031e-17
5666.94860 1.30478e-17
5668.46555 1.29288e-17
5669.99254 1.27772e-17
5671.50948 1.31167e-17
5673.02643 1.35537e-17
5674.55342 1.32100e-17
5676.07037 1.27104e-17
5677.58731 1.27685e-17
5679.11431 1.29378e-17
5680.63125 1.31149e-17
5682.14820 1.32936e-17
5683.67519 1.30379e-17
5685.19214 1.26951e-17
5686.70908 1.26482e-17
5688.23607 1.26606e-17
5689.75302 1.26599e-17
5691.28001 1.26565e-17
5692.79696 1.28836e-17
5694.31390 1.31571e-17
5695.84090 1.30684e-17
5697.35784 1.29063e-17
5698.87479 1.27054e-17
5700.40178 1.24967e-17
5701.91873 1.26143e-17
5703.43567 1.27980e-17
5704.96266 1.26454e-17
5706.47961 1.24245e-17
5707.99656 1.21585e-17
5709.52355 1.18832e-17
5711.04049 1.20633e-17
5712.55744 1.23365e-17
5714.08443 1.24115e-17
5715.60138 1.24460e-17
5717.11832 1.23126e-17
5718.64532 1.21450e-17
5720.16226 1.20646e-17
5721.68925 1.20021e-17
5723.20620 1.19433e-17
5724.72315 1.18853e-17
5726.25014 1.18623e-17
5727.76708 1.18466e-17
5729.28403 1.18562e-17
5730.81102 1.18712e-17
5732.32797 1.18450e-17
5733.84491 1.18104e-17
5735.37191 1.17719e-17
5736.88885 1.17325e-17
5738.40580 1.16167e-17
5739.93279 1.14851e-17
5741.44974 1.15848e-17
5742.96668 1.17326e-17
5744.49367 1.17477e-17
5746.01062 1.17353e-17
5747.52757 1.15752e-17
5749.05456 1.13841e-17
5750.57150 1.13634e-17
5752.08845 1.13783e-17
5753.61544 1.14894e-17
5755.13239 1.16206e-17
5756.64933 1.16806e-17
5758.17633 1.17257e-17
5759.69327 1.18034e-17
5761.22026 1.18879e-17
5762.73721 1.20265e-17
5764.25416 1.21764e-17
5765.78115 1.21912e-17
5767.29809 1.21774e-17
5768.81504 1.21431e-17
5770.34203 1.21044e-17
5771.85898 1.21262e-17
5773.37592 1.21609e-17
5774.90292 1.23413e-17
5776.41986 1.25525e-17
5777.93681 1.24849e-17
5779.46380 1.23579e-17
5780.98075 1.23386e-17
5782.49769 1.23423e-17
5784.02468 1.25307e-17
5785.54163 1.27585e-17
5787.05858 1.26851e-17
5788.58557 1.25474e-17
5790.10251 1.25132e-17
5791.61946 1.25011e-17
5793.14645 1.26503e-17
5794.66340 1.28343e-17
5796.19039 1.31256e-17
5797.70734 1.34398e-17
5799.22428 1.37870e-17
5800.75127 1.41412e-17
5802.26822 1.40861e-17
5803.78517 1.39427e-17
5805.31216 1.38226e-17
5806.82910 1.37075e-17
5808.34605 1.37728e-17
5809.87304 1.38771e-17
5811.38999 1.39406e-17
5812.90693 1.39953e-17
5814.43393 1.38651e-17
5815.95087 1.36946e-17
5817.46782 1.35757e-17
5818.99481 1.34680e-17
5820.51176 1.34185e-17
5822.02870 1.33816e-17
5823.55569 1.35007e-17
5825.07264 1.36539e-17
5826.59963 1.37107e-17
5828.11658 1.37463e-17
5829.63352 1.39870e-17
5831.16052 1.42727e-17
5832.67746 1.44039e-17
5834.19441 1.45011e-17
5835.72140 1.45822e-17
5837.23835 1.46597e-17
5838.75529 1.47569e-17
5840.28228 1.48584e-17
5841.79923 1.49837e-17
5843.31618 1.51143e-17
5844.84317 1.51753e-17
5846.36011 1.52208e-17
5847.87706 1.51948e-17
5849.40405 1.51530e-17
5850.92100 1.51811e-17
5852.43794 1.52247e-17
5853.96494 1.54135e-17
5855.48188 1.56345e-17
5856.99883 1.56584e-17
5858.52582 1.56384e-17
5860.04277 1.55113e-17
5861.55971 1.53604e-17
5863.08670 1.55225e-17
5864.60365 1.57547e-17
5866.13064 1.58381e-17
5867.64759 1.58881e-17
5869.16453 1.57979e-17
5870.69153 1.56762e-17
5872.20847 1.57662e-17
5873.72542 1.59039e-17
5875.25241 1.60070e-17
5876.76936 1.61023e-17
5878.28630 1.61586e-17
5879.81329 1.62062e-17
5881.33024 1.59705e-17
5882.84719 1.56707e-17
5884.37418 1.55796e-17
5885.89112 1.55358e-17
5887.40807 1.54780e-17
5888.93506 1.54169e-17
5890.45201 1.52324e-17
5891.96895 1.50197e-17
5893.49595 1.52654e-17
5895.01289 1.56155e-17
5896.53988 1.58318e-17
5898.05683 1.60175e-17
5899.57378 1.58743e-17
5901.10077 1.56558e-17
5902.61771 1.55667e-17
5904.13466 1.55071e-17
5905.66165 1.57610e-17
5907.17860 1.60868e-17
5908.69554 1.58829e-17
5910.22254 1.55574e-17
5911.73948 1.50379e-17
5913.25643 1.44736e-17
5914.78342 1.43423e-17
5916.30037 1.43108e-17
5917.81731 1.43501e-17
5919.34430 1.44057e-17
5920.86125 1.46155e-17
5922.37820 1.48610e-17
5923.90519 1.48411e-17
5925.42213 1.47597e-17
5926.93908 1.47758e-17
5928.46607 1.48146e-17
5929.98302 1.48396e-17
5931.51001 1.48613e-17
5933.02696 1.47805e-17
5934.54390 1.46757e-17
5936.07089 1.45772e-17
5937.58784 1.44802e-17
5939.10479 1.43915e-17
5940.63178 1.43049e-17
5942.14872 1.42588e-17
5943.66567 1.42222e-17
5945.19266 1.43982e-17
5946.70961 1.46241e-17
5948.22655 1.45245e-17
5949.75355 1.43483e-17
5951.27049 1.41472e-17
5952.78744 1.39403e-17
5954.31443 1.38525e-17
5955.83138 1.37927e-17
5957.34832 1.38389e-17
5958.87531 1.39103e-17
5960.39226 1.37382e-17
5961.90921 1.35085e-17
5963.43620 1.34979e-17
5964.95314 1.35395e-17
5966.47009 1.36408e-17
5967.99708 1.37562e-17
5969.51403 1.36674e-17
5971.04102 1.35301e-17
5972.55797 1.34065e-17
5974.07491 1.32861e-17
5975.60190 1.33304e-17
5977.11885 1.34140e-17
5978.63580 1.33715e-17
5980.16279 1.32988e-17
5981.67973 1.31044e-17
5983.19668 1.28807e-17
5984.72367 1.27696e-17
5986.24062 1.26856e-17
5987.75756 1.27859e-17
5989.28456 1.29305e-17
5990.80150 1.27900e-17
5992.31845 1.25810e-17
5993.84544 1.25447e-17
5995.36239 1.25503e-17
5996.87933 1.25097e-17
5998.40632 1.24578e-17
5999.92327 1.26079e-17
6001.44022 1.28070e-17
6002.96721 1.26851e-17
6004.48415 1.24854e-17
6006.01115 1.23762e-17
6007.52809 1.22890e-17
6009.04504 1.21535e-17
6010.57203 1.20063e-17
6012.08898 1.18834e-17
6013.60592 1.17665e-17
6015.13291 1.17673e-17
6016.64986 1.17970e-17
6018.16681 1.18132e-17
6019.69380 1.18260e-17
6021.21074 1.18475e-17
6022.72769 1.18711e-17
6024.25468 1.18996e-17
6025.77163 1.19293e-17
6027.28857 1.19441e-17
6028.81557 1.19552e-17
6030.33251 1.20407e-17
6031.84946 1.21446e-17
6033.37645 1.20789e-17
6034.89340 1.19714e-17
6036.41034 1.17341e-17
6037.93733 1.14649e-17
6039.45428 1.15863e-17
6040.97123 1.18044e-17
6042.49822 1.17370e-17
6044.01516 1.15988e-17
6045.54216 1.15233e-17
6047.05910 1.14634e-17
6048.57605 1.15486e-17
6050.10304 1.16698e-17
6051.61999 1.16498e-17
6053.13693 1.15946e-17
6054.66392 1.15662e-17
6056.18087 1.15445e-17
6057.69782 1.15078e-17
6059.22481 1.14674e-17
6060.74175 1.15198e-17
6062.25870 1.15955e-17
6063.78569 1.16852e-17
6065.30264 1.17783e-17
6066.81958 1.16239e-17
6068.34658 1.14070e-17
6069.86352 1.14880e-17
6071.38047 1.16440e-17
6072.90746 1.17329e-17
6074.42441 1.18049e-17
6075.95140 1.15180e-17
6077.46834 1.11402e-17
6078.98529 1.12563e-17
6080.51228 1.14973e-17
6082.02923 1.16460e-17
6083.54617 1.17712e-17
6085.07317 1.17494e-17
6086.59011 1.16904e-17
6088.10706 1.16232e-17
6089.63405 1.15539e-17
6091.15100 1.14756e-17
6092.66794 1.13948e-17
6094.19493 1.14266e-17
6095.71188 1.14871e-17
6097.22883 1.16819e-17
6098.75582 1.19111e-17
6100.27276 1.19072e-17
6101.78971 1.18437e-17
6103.31670 1.16643e-17
6104.83365 1.14552e-17
6106.36064 1.14508e-17
6107.87759 1.14990e-17
6109.39453 1.13888e-17
6110.92152 1.12380e-17
6112.43847 1.13345e-17
6113.95542 1.14948e-17
6115.48241 1.14745e-17
6116.99935 1.14076e-17
6118.51630 1.13604e-17
6120.04329 1.13183e-17
6121.56024 1.14059e-17
6123.07718 1.15272e-17
6124.60418 1.15439e-17
6126.12112 1.15334e-17
6127.63807 1.15041e-17
6129.16506 1.14699e-17
6130.68201 1.14917e-17
6132.19895 1.15280e-17
6133.72594 1.14996e-17
6135.24289 1.14543e-17
6136.75984 1.14129e-17
6138.28683 1.13724e-17
6139.80377 1.12879e-17
6141.32072 1.11919e-17
6142.84771 1.13828e-17
6144.36466 1.16489e-17
6145.89165 1.16921e-17
6147.40860 1.16768e-17
6148.92554 1.15039e-17
6150.45253 1.12895e-17
6151.96948 1.13579e-17
6153.48643 1.15007e-17
6155.01342 1.15342e-17
6156.53036 1.15390e-17
6158.04731 1.14284e-17
6159.57430 1.12874e-17
6161.09125 1.12193e-17
6162.60819 1.11706e-17
6164.13519 1.12241e-17
6165.65213 1.13049e-17
6167.16908 1.12206e-17
6168.69607 1.10925e-17
6170.21302 1.11774e-17
6171.72996 1.13191e-17
6173.25695 1.11259e-17
6174.77390 1.08435e-17
6176.29085 1.07463e-17
6177.81784 1.06983e-17
6179.33478 1.07241e-17
6180.86178 1.07697e-17
6182.37872 1.09519e-17
6183.89567 1.11706e-17
6185.42266 1.09369e-17
6186.93961 1.05817e-17
6188.45655 1.04678e-17
6189.98354 1.04188e-17
6191.50049 1.04409e-17
6193.01744 1.04821e-17
6194.54443 1.03419e-17
6196.06137 1.01528e-17
6197.57832 1.00629e-17
6199.10531 9.99978e-18
6200.62226 1.00045e-17
6202.13920 1.00277e-17
6203.66620 9.87793e-18
6205.18314 9.68135e-18
6206.70009 9.49422e-18
6208.22708 9.30965e-18
6209.74403 9.45192e-18
6211.27102 9.68305e-18
6212.78796 9.65692e-18
6214.30491 9.56087e-18
6215.83190 9.38314e-18
6217.34885 9.18313e-18
6218.86579 9.21211e-18
6220.39279 9.30358e-18
6221.90973 9.20469e-18
6223.42668 9.05365e-18
6224.95367 9.01567e-18
6226.47062 9.00868e-18
6227.98756 9.05213e-18
6229.51455 9.10941e-18
6231.03150 8.97000e-18
6232.54845 8.77651e-18
6234.07544 8.77582e-18
6235.59238 8.82815e-18
6237.10933 8.91303e-18
6238.63632 9.00688e-18
6240.15327 8.91554e-18
6241.67021 8.77308e-18
6243.19721 8.72095e-18
6244.71415 8.69378e-18
6246.23110 8.70293e-18
6247.75809 8.72216e-18
6249.27504 8.62984e-18
6250.80203 8.50660e-18
6252.31897 8.42185e-18
6253.83592 8.34781e-18
6255.36291 8.35630e-18
6256.87986 8.38776e-18
6258.39680 8.45479e-18
6259.92380 8.53171e-18
6261.44074 8.69318e-18
6262.95769 8.87826e-18
6264.48468 8.93484e-18
6266.00163 8.95551e-18
6267.51857 8.94583e-18
6269.04556 8.92763e-18
6270.56251 9.15955e-18
6272.07946 9.46161e-18
6273.60645 9.33699e-18
6275.12339 9.09274e-18
6276.64034 9.06116e-18
6278.16733 9.08946e-18
6279.68428 9.21105e-18
6281.20122 9.35891e-18
6282.72822 9.42774e-18
6284.24516 9.47423e-18
6285.77215 9.41828e-18
6287.28910 9.33338e-18
6288.80605 9.23023e-18
6290.33304 9.12191e-18
6291.84998 9.03186e-18
6293.36693 8.94701e-18
6294.89392 8.72650e-18
6296.41087 8.46752e-18
6297.92781 8.97018e-18
6299.45481 9.68970e-18
6300.97175 1.00808e-17
6302.48870 1.03785e-17
6304.01569 1.02524e-17
6305.53264 1.00052e-17
6307.04958 9.94212e-18
6308.57657 9.93164e-18
6310.09352 9.99099e-18
6311.61047 1.00703e-17
6313.13746 1.01479e-17
6314.65440 1.02250e-17
6316.17135 1.03777e-17
6317.69834 1.05522e-17
6319.21529 1.07734e-17
6320.73223 1.10081e-17
6322.25923 1.09966e-17
6323.77617 1.09142e-17
6325.30316 1.09916e-17
6326.82011 1.11150e-17
6328.33706 1.13997e-17
6329.86405 1.17310e-17
6331.38099 1.16450e-17
6332.89794 1.14383e-17
6334.42493 1.13853e-17
6335.94188 1.13769e-17
6337.45882 1.14710e-17
6338.98582 1.15949e-17
6340.50276 1.17273e-17
6342.01971 1.18622e-17
6343.54670 1.19805e-17
6345.06365 1.20940e-17
6346.58059 1.21544e-17
6348.10758 1.21993e-17
6349.62453 1.22744e-17
6351.14148 1.23583e-17
6352.66847 1.23036e-17
6354.18541 1.22082e-17
6355.70236 1.21013e-17
6357.22935 1.19910e-17
6358.74630 1.20489e-17
6360.27329 1.21562e-17
6361.79024 1.24965e-17
6363.30718 1.29053e-17
6364.83417 1.28519e-17
6366.35112 1.26625e-17
6367.86807 1.27793e-17
6369.39506 1.29863e-17
6370.91200 1.30641e-17
6372.42895 1.31036e-17
6373.95594 1.32010e-17
6375.47289 1.33156e-17
6376.98983 1.31589e-17
6378.51683 1.29220e-17
6380.03377 1.29549e-17
6381.55072 1.30680e-17
6383.07771 1.32576e-17
6384.59466 1.34699e-17
6386.12165 1.34117e-17
6387.63859 1.32729e-17
6389.15554 1.31316e-17
6390.68253 1.29895e-17
6392.19948 1.29233e-17
6393.71642 1.28796e-17
6395.24342 1.29995e-17
6396.76036 1.31684e-17
6398.27731 1.31922e-17
6399.80430 1.31727e-17
6401.32125 1.31836e-17
6402.83819 1.32037e-17
6404.36518 1.29923e-17
6405.88213 1.27114e-17
6407.39908 1.27870e-17
6408.92607 1.29699e-17
6410.44301 1.29892e-17
6411.95996 1.29592e-17
6413.48695 1.28884e-17
6415.00390 1.28054e-17
6416.52084 1.29844e-17
6418.04784 1.32427e-17
6419.56478 1.31288e-17
6421.08173 1.29025e-17
6422.60872 1.27656e-17
6424.12567 1.26559e-17
6425.65266 1.26630e-17
6427.16960 1.27055e-17
6428.68655 1.26466e-17
6430.21354 1.25568e-17
6431.73049 1.25313e-17
6433.24743 1.25253e-17
6434.77443 1.25538e-17
6436.29137 1.25927e-17
6437.80832 1.26932e-17
6439.33531 1.28124e-17
6440.85226 1.26022e-17
6442.36920 1.22912e-17
6443.89619 1.24231e-17
6445.41314 1.26902e-17
6446.93009 1.28262e-17
6448.45708 1.29219e-17
6449.97402 1.29637e-17
6451.49097 1.29891e-17
6453.01796 1.28751e-17
6454.53491 1.27182e-17
6456.05185 1.25248e-17
6457.57885 1.23202e-17
6459.09579 1.22906e-17
6460.62278 1.23152e-17
6462.13973 1.24184e-17
6463.65668 1.25460e-17
6465.18367 1.26193e-17
6466.70061 1.26758e-17
6468.21756 1.24991e-17
6469.74455 1.22499e-17
6471.26150 1.21347e-17
6472.77844 1.20611e-17
6474.30544 1.19715e-17
6475.82238 1.18769e-17
6477.33933 1.19086e-17
6478.86632 1.19796e-17
6480.38327 1.21807e-17
6481.90021 1.24222e-17
6483.42720 1.23093e-17
6484.94415 1.20855e-17
6486.46110 1.17708e-17
6487.98809 1.14277e-17
6489.50503 1.15927e-17
6491.02198 1.19171e-17
6492.54897 1.21108e-17
6494.06592 1.22636e-17
6495.59291 1.21943e-17
6497.10986 1.20554e-17
6498.62680 1.19834e-17
6500.15379 1.19325e-17
6501.67074 1.17976e-17
6503.18769 1.16363e-17
6504.71468 1.16303e-17
6506.23162 1.16732e-17
6507.74857 1.17469e-17
6509.27556 1.18303e-17
6510.79251 1.17656e-17
6512.30945 1.16541e-17
6513.83645 1.14975e-17
6515.35339 1.13267e-17
6516.87034 1.13385e-17
6518.39733 1.14083e-17
6519.91428 1.11815e-17
6521.43122 1.08602e-17
6522.95821 1.08301e-17
6524.47516 1.08927e-17
6525.99211 1.09764e-17
6527.51910 1.10669e-17
6529.03604 1.09616e-17
6530.55299 1.07938e-17
6532.07998 1.07269e-17
6533.59693 1.06922e-17
6535.12392 1.07667e-17
6536.64087 1.08762e-17
6538.15781 1.09669e-17
6539.68480 1.10516e-17
6541.20175 1.10159e-17
6542.71870 1.09414e-17
6544.24569 1.08895e-17
6545.76263 1.08448e-17
6547.27958 1.09174e-17
6548.80657 1.10276e-17
6550.32352 1.10604e-17
6551.84046 1.10681e-17
6553.36746 1.11445e-17
6554.88440 1.12430e-17
6556.40135 1.11263e-17
6557.92834 1.09398e-17
6559.44529 1.08337e-17
6560.96223 1.07536e-17
6562.48922 1.08670e-17
6564.00617 1.10430e-17
6565.53316 1.10484e-17
6567.05011 1.09983e-17
6568.56705 1.10150e-17
6570.09405 1.10535e-17
6571.61099 1.10417e-17
6573.12794 1.10135e-17
6574.65493 1.10673e-17
6576.17188 1.11479e-17
6577.68882 1.13212e-17
6579.21581 1.15248e-17
6580.73276 1.15207e-17
6582.24971 1.14486e-17
6583.77670 1.14399e-17
6585.29364 1.14520e-17
6586.81059 1.17919e-17
6588.33758 1.22394e-17
6589.85453 1.25635e-17
6591.37147 1.28470e-17
6592.89847 1.27745e-17
6594.41541 1.25846e-17
6595.93236 1.22557e-17
6597.45935 1.18810e-17
6598.97630 1.16474e-17
6600.50329 1.14604e-17
6602.02023 1.13281e-17
6603.53718 1.12138e-17
6605.06417 1.10420e-17
6606.58112 1.08513e-17
6608.09806 1.10289e-17
6609.62506 1.13288e-17
6611.14200 1.14283e-17
6612.65895 1.14611e-17
6614.18594 1.14172e-17
6615.70289 1.13478e-17
6617.21983 1.11604e-17
6618.74682 1.09337e-17
6620.26377 1.07170e-17
6621.78072 1.05038e-17
6623.30771 1.04946e-17
6624.82465 1.05537e-17
6626.34160 1.05075e-17
6627.86859 1.04263e-17
6629.38554 1.05048e-17
6630.90248 1.06368e-17
6632.42948 1.06936e-17
6633.94642 1.07251e-17
6635.46337 1.07648e-17
6636.99036 1.08072e-17
6638.50731 1.08596e-17
6640.03430 1.09154e-17
6641.55124 1.10006e-17
6643.06819 1.10956e-17
6644.59518 1.11501e-17
6646.11213 1.11909e-17
6647.62907 1.10190e-17
6649.15607 1.07752e-17
6650.67301 1.07556e-17
6652.18996 1.08117e-17
6653.71695 1.09212e-17
6655.23390 1.10488e-17
6656.75084 1.11463e-17
6658.27783 1.12336e-17
6659.79478 1.12101e-17
6661.31173 1.11488e-17
6662.83872 1.10845e-17
6664.35566 1.10191e-17
6665.87261 1.09775e-17
6667.39960 1.09442e-17
6668.91655 1.09368e-17
6670.44354 1.09383e-17
6671.96049 1.08320e-17
6673.47743 1.06888e-17
6675.00442 1.06123e-17
6676.52137 1.05588e-17
6678.03832 1.06463e-17
6679.56531 1.07822e-17
6681.08225 1.09728e-17
6682.59920 1.11821e-17
6684.12619 1.11035e-17
6685.64314 1.09258e-17
6687.16008 1.07916e-17
6688.68708 1.06725e-17
6690.20402 1.07505e-17
6691.72097 1.08964e-17
6693.24796 1.08266e-17
6694.76491 1.06823e-17
6696.28185 1.05645e-17
6697.80884 1.04559e-17
6699.32579 1.05526e-17
6700.84274 1.07204e-17
6702.36973 1.07664e-17
6703.88667 1.07702e-17
6705.40362 1.06611e-17
6706.93061 1.05128e-17
6708.44756 1.04281e-17
6709.97455 1.03655e-17
6711.49150 1.03677e-17
6713.00844 1.03925e-17
6714.53543 1.04409e-17
6716.05238 1.04976e-17
6717.56933 1.04622e-17
6719.09632 1.03948e-17
6720.61326 1.04030e-17
6722.13021 1.04376e-17
6723.65720 1.03124e-17
6725.17415 1.01312e-17
6726.69109 1.01461e-17
6728.21809 1.02296e-17
6729.73503 1.02574e-17
6731.25198 1.02657e-17
6732.77897 1.02953e-17
6734.29592 1.03325e-17
6735.81286 1.02184e-17
6737.33985 1.00510e-17
6738.85680 1.01050e-17
6740.38379 1.02370e-17
6741.90074 1.03674e-17
6743.41768 1.04972e-17
6744.94468 1.03848e-17
6746.46162 1.01867e-17
6747.97857 1.02686e-17
6749.50556 1.04494e-17
6751.02251 1.03494e-17
6752.53945 1.01497e-17
6754.06644 1.00751e-17
6755.58339 1.00448e-17
6757.10034 1.01535e-17
6758.62733 1.03115e-17
6760.14427 1.03539e-17
6761.66122 1.03552e-17
6763.18821 1.01991e-17
6764.70516 9.98681e-18
6766.22210 9.75989e-18
6767.74910 9.52774e-18
6769.26604 9.37269e-18
6770.78299 9.24517e-18
6772.30998 9.24743e-18
6773.82693 9.29616e-18
6775.35392 9.38784e-18
6776.87086 9.49490e-18
6778.38781 9.59667e-18
6779.91480 9.69654e-18
6781.43175 9.60044e-18
6782.94869 9.43390e-18
6784.47569 9.35481e-18
6785.99263 9.30714e-18
6787.50958 9.30290e-18
6789.03657 9.31431e-18
6790.55352 9.31701e-18
6792.07046 9.31657e-18
6793.59745 9.26446e-18
6795.11440 9.19366e-18
6796.63135 9.17395e-18
6798.15834 9.17273e-18
6799.67528 9.20767e-18
6801.19223 9.25569e-18
6802.71922 9.28181e-18
6804.23617 9.29999e-18
6805.75311 9.16212e-18
6807.28011 8.96759e-18
6808.79705 8.88277e-18
6810.31400 8.83790e-18
6811.84099 8.83232e-18
6813.35794 8.84105e-18
6814.88493 8.81884e-18
6816.40187 8.78536e-18
6817.91882 8.83920e-18
6819.44581 8.92495e-18
6820.96276 8.92294e-18
6822.47970 8.88884e-18
6824.00670 8.88899e-18
6825.52364 8.90170e-18
6827.04059 8.97654e-18
6828.56758 9.07417e-18
6830.08453 9.16890e-18
6831.60147 9.26256e-18
6833.12846 9.38141e-18
6834.64541 9.50952e-18
6836.16236 9.47790e-18
6837.68935 9.38749e-18
6839.20629 9.29862e-18
6840.72324 9.21031e-18
6842.25023 9.13314e-18
6843.76718 9.06007e-18
6845.28412 9.04293e-18
6846.81112 9.02579e-18
6848.32806 9.00865e-18
6849.85505 8.99152e-18
6851.37200 8.97438e-18
6852.88895 8.95724e-18
6854.41594 8.94011e-18
6855.93288 8.92297e-18
6857.44983 8.90584e-18
6858.97682 8.88870e-18
6860.49377 8.87157e-18
6862.01071 8.85443e-18
6863.53771 8.83730e-18
6865.05465 8.82016e-18
6866.57160 8.80303e-18
6868.09859 8.78590e-18
6869.61554 8.76877e-18
6871.13248 8.75164e-18
6872.65947 8.73450e-18
6874.17642 8.71737e-18
6875.69337 8.70024e-18
6877.22036 8.68311e-18
6878.73730 8.66598e-18
6880.25425 8.64885e-18
6881.78124 8.63172e-18
6883.29819 8.61460e-18
6884.82518 8.59747e-18
6886.34213 8.58034e-18
6887.85907 8.56321e-18
6889.38606 8.54609e-18
6890.90301 8.52897e-18
6892.41996 8.51184e-18
6893.94695 8.49471e-18
6895.46389 8.47759e-18
6896.98084 8.46046e-18
6898.50783 8.44334e-18
6900.02478 8.42622e-18
6901.54172 8.40909e-18
6903.06872 8.39197e-18
6904.58566 8.37485e-18
6906.10261 8.35773e-18
6907.62960 8.34060e-18
6909.14655 8.32348e-18
6910.66349 8.30636e-18
6912.19048 8.28924e-18
6913.70743 8.27212e-18
6915.22438 8.25500e-18
6916.75137 8.23788e-18
6918.26831 8.22076e-18
6919.79531 8.20364e-18
6921.31225 8.18653e-18
6922.82920 8.16941e-18
6924.35619 8.15229e-18
6925.87314 8.13518e-18
6927.39008 8.11806e-18
6928.91707 8.10094e-18
6930.43402 8.08383e-18
6931.95097 8.06671e-18
6933.47796 8.04960e-18
6934.99490 8.03248e-18
6936.51185 8.07864e-18
6938.03884 8.19268e-18
6939.55579 8.34050e-18
6941.07273 8.50134e-18
6942.59973 8.58169e-18
6944.11667 8.63091e-18
6945.63362 8.57796e-18
6947.16061 8.48551e-18
6948.67756 8.54655e-18
6950.20455 8.66713e-18
6951.72149 8.62438e-18
6953.23844 8.51827e-18
6954.76543 8.52574e-18
6956.28238 8.57728e-18
6957.79932 8.74197e-18
6959.32632 8.95071e-18
6960.84326 9.03111e-18
6962.36021 9.06156e-18
6963.88720 9.02948e-18
6965.40415 8.97298e-18
6966.92109 9.02596e-18
6968.44808 9.12169e-18
6969.96503 9.27727e-18
6971.48198 9.45621e-18
6973.00897 9.38631e-18
6974.52591 9.21893e-18
6976.04286 9.14411e-18
6977.56985 9.10556e-18
6979.08680 9.04147e-18
6980.60374 8.96735e-18
6982.13074 9.10322e-18
6983.64768 9.32162e-18
6985.16463 9.25477e-18
6986.69162 9.07581e-18
6988.20857 9.14785e-18
6989.73556 9.31887e-18
6991.25250 9.19913e-18
6992.76945 8.96476e-18
6994.29644 8.91449e-18
6995.81339 8.93705e-18
6997.33033 9.06219e-18
6998.85733 9.22790e-18
7000.37427 9.25583e-18
7001.89122 9.22909e-18
7003.41821 9.25320e-18
7004.93516 9.29749e-18
7006.45210 9.26496e-18
7007.97909 9.20194e-18
7009.49604 9.09892e-18
7011.01299 8.97996e-18
7012.53998 9.10674e-18
7014.05692 9.33134e-18
7015.57387 9.41422e-18
7017.10086 9.44049e-18
7018.61781 9.37569e-18
7020.13475 9.27453e-18
7021.66175 9.46096e-18
7023.17869 9.76227e-18
7024.70568 9.95626e-18
7026.22263 1.01073e-17
7027.73958 1.00262e-17
7029.26657 9.85225e-18
7030.78351 9.58406e-18
7032.30046 9.27800e-18
7033.82745 9.27331e-18
7035.34440 9.38978e-18
7036.86134 9.69507e-18
7038.38834 1.00763e-17
7039.90528 1.00701e-17
7041.42223 9.90756e-18
7042.94922 9.83024e-18
7044.46617 9.78727e-18
7045.98311 9.66077e-18
7047.51010 9.50048e-18
7049.02705 9.53783e-18
7050.54400 9.65516e-18
7052.07099 9.91582e-18
7053.58793 1.02345e-17
7055.10488 1.02233e-17
7056.63187 1.00782e-17
7058.14882 1.00854e-17
7059.67581 1.01543e-17
7061.19276 1.00457e-17
7062.70970 9.86479e-18
7064.23669 9.74117e-18
7065.75364 9.64087e-18
7067.27059 9.66549e-18
7068.79758 9.74113e-18
7070.31452 9.54609e-18
7071.83147 9.24049e-18
7073.35846 9.22445e-18
7074.87541 9.32672e-18
7076.39235 9.50138e-18
7077.91935 9.70572e-18
7079.43629 9.70882e-18
7080.95324 9.62946e-18
7082.48023 9.63660e-18
7083.99718 9.67931e-18
7085.51412 9.79568e-18
7087.04111 9.94234e-18
7088.55806 9.77015e-18
7090.07501 9.46687e-18
7091.60200 9.40645e-18
7093.11894 9.44619e-18
7094.64594 9.53943e-18
7096.16288 9.65473e-18
7097.67983 9.95799e-18
7099.20682 1.03390e-17
7100.72377 1.00413e-17
7102.24071 9.46285e-18
7103.76770 9.34494e-18
7105.28465 9.41759e-18
7106.80160 9.37313e-18
7108.32859 9.28005e-18
7109.84553 9.27054e-18
7111.36248 9.29570e-18
7112.88947 9.25253e-18
7114.40642 9.18091e-18
7115.92336 9.26524e-18
7117.45036 9.41451e-18
7118.96730 9.29456e-18
7120.48425 9.06217e-18
7122.01124 9.05222e-18
7123.52819 9.13518e-18
7125.04513 9.25698e-18
7126.57212 9.39500e-18
7128.08907 9.33636e-18
7129.61606 9.19532e-18
7131.13301 9.11214e-18
7132.64995 9.05322e-18
7134.17695 8.93701e-18
7135.69389 8.79672e-18
7137.21084 8.72101e-18
7138.73783 8.67243e-18
7140.25478 8.69286e-18
7141.77172 8.74229e-18
7143.29871 8.69271e-18
7144.81566 8.60138e-18
7146.33261 8.75527e-18
7147.85960 9.01256e-18
7149.37654 9.25796e-18
7150.89349 9.49832e-18
7152.42048 9.54340e-18
7153.93743 9.50588e-18
7155.45437 9.26532e-18
7156.98137 8.93887e-18
7158.49831 8.63667e-18
7160.01526 8.34476e-18
7161.54225 8.48798e-18
7163.05920 8.81584e-18
7164.58619 8.82700e-18
7166.10313 8.70335e-18
7167.62008 8.80768e-18
7169.14707 9.00907e-18
7170.66402 8.99771e-18
7172.18096 8.89580e-18
7173.70796 8.80346e-18
7175.22490 8.71522e-18
7176.74185 8.48826e-18
7178.26884 8.20206e-18
7179.78579 8.19342e-18
7181.30273 8.30366e-18
7182.82972 8.43418e-18
7184.34667 8.57338e-18
7185.86362 8.65129e-18
7187.39061 8.70286e-18
7188.90755 8.51598e-18
7190.42450 8.22663e-18
7191.95149 8.16985e-18
7193.46844 8.21299e-18
7194.98538 8.45324e-18
7196.51238 8.77845e-18
7198.02932 8.80135e-18
7199.54627 8.69395e-18
7201.07326 8.69529e-18
7202.59021 8.74366e-18
7204.11720 8.89892e-18
7205.63414 9.10042e-18
7207.15109 8.98446e-18
7208.67808 8.73123e-18
7210.19503 8.72398e-18
7211.71197 8.82342e-18
7213.23897 8.84674e-18
7214.75591 8.83704e-18
7216.27286 8.71104e-18
7217.79985 8.53445e-18
7219.31680 8.50796e-18
7220.83374 8.54678e-18
7222.36073 8.59639e-18
7223.87768 8.65069e-18
7225.39463 8.51420e-18
7226.92162 8.29445e-18
7228.43856 8.24683e-18
7229.95551 8.27434e-18
7231.48250 8.43020e-18
7232.99945 8.64225e-18
7234.52644 8.54227e-18
7236.04339 8.30568e-18
7237.56033 8.21723e-18
7239.08732 8.19385e-18
7240.60427 8.29947e-18
7242.12122 8.46173e-18
7243.64821 8.48629e-18
7245.16515 8.45037e-18
7246.68210 8.41387e-18
7248.20909 8.37713e-18
7249.72604 8.45413e-18
7251.24298 8.58125e-18
7252.76998 8.71790e-18
7254.28692 8.85876e-18
7255.80387 8.83979e-18
7257.33086 8.75021e-18
7258.84781 8.68326e-18
7260.36475 8.62631e-18
7261.89174 8.50780e-18
7263.40869 8.36200e-18
7264.93568 8.37084e-18
7266.45263 8.44821e-18
7267.96957 8.33911e-18
7269.49657 8.14710e-18
7271.01351 8.01399e-18
7272.53046 7.90707e-18
7274.05745 8.18627e-18
7275.57440 8.63717e-18
7277.09134 8.91043e-18
7278.61833 9.10448e-18
7280.13528 8.78599e-18
7281.65223 8.23892e-18
7283.17922 8.06990e-18
7284.69616 8.07002e-18
7286.21311 8.21485e-18
7287.74010 8.42442e-18
7289.25705 8.59626e-18
7290.77399 8.75123e-18
7292.30099 8.77296e-18
7293.81793 8.73488e-18
7295.33488 8.61788e-18
7296.86187 8.46544e-18
7298.37882 8.39811e-18
7299.89576 8.36907e-18
7301.42275 8.39609e-18
7302.93970 8.44834e-18
7304.46669 8.40142e-18
7305.98364 8.30972e-18
7307.50058 8.30295e-18
7309.02758 8.33453e-18
7310.54452 8.21911e-18
7312.06147 8.03732e-18
7313.58846 7.95690e-18
7315.10541 7.92238e-18
7316.62235 8.06049e-18
7318.14934 8.27679e-18
7319.66629 8.30215e-18
7321.18324 8.24078e-18
7322.71023 8.15943e-18
7324.22717 8.06902e-18
7325.74412 8.12427e-18
7327.27111 8.24570e-18
7328.78806 8.38363e-18
7330.30500 8.52908e-18
7331.83200 8.41910e-18
7333.34894 8.19272e-18
7334.86589 8.17059e-18
7336.39288 8.24182e-18
7337.90983 8.41698e-18
7339.43682 8.63964e-18
7340.95376 8.50897e-18
7342.47071 8.21680e-18
7343.99770 8.15976e-18
7345.51465 8.21054e-18
7347.03159 8.33094e-18
7348.55859 8.48326e-18
7350.07553 8.49217e-18
7351.59248 8.43513e-18
7353.11947 8.37196e-18
7354.63642 8.30596e-18
7356.15336 8.11091e-18
7357.68035 7.85633e-18
7359.19730 7.87530e-18
7360.71425 8.02045e-18
7362.24124 8.17889e-18
7363.75818 8.34345e-18
7365.27513 8.32337e-18
7366.80212 8.21787e-18
7368.31907 8.17518e-18
7369.83601 8.16155e-18
7371.36301 8.02831e-18
7372.87995 7.83954e-18
7374.39690 7.92116e-18
7375.92389 8.12827e-18
7377.44084 8.18022e-18
7378.96783 8.16017e-18
7380.48477 8.02583e-18
7382.00172 7.83827e-18
7383.52871 7.85065e-18
7385.04566 7.95609e-18
7386.56260 8.07512e-18
7388.08960 8.20049e-18
7389.60654 8.24241e-18
7391.12349 8.24537e-18
7392.65048 8.11151e-18
7394.16743 7.91377e-18
7395.68437 7.85804e-18
7397.21136 7.86882e-18
7398.72831 8.04936e-18
7400.24526 8.30941e-18
7401.77225 8.38739e-18
7403.28919 8.37983e-18
7404.80614 8.19288e-18
7406.33313 7.92166e-18
7407.85008 8.00550e-18
7409.36702 8.25613e-18
7410.89402 8.21726e-18
7412.41096 8.04197e-18
7413.93795 7.95961e-18
7415.45490 7.92104e-18
7416.97185 7.85732e-18
7418.49884 7.78171e-18
7420.01578 7.87422e-18
7421.53273 8.04618e-18
7423.05972 8.09796e-18
7424.57667 8.09277e-18
7426.09361 8.13740e-18
7427.62061 8.20565e-18
7429.13755 8.22741e-18
7430.65450 8.22712e-18
7432.18149 8.02278e-18
7433.69844 7.72143e-18
7435.21538 7.80829e-18
7436.74237 8.07973e-18
7438.25932 8.06848e-18
7439.77627 7.92241e-18
7441.30326 7.78820e-18
7442.82020 7.65964e-18
7444.34720 7.76749e-18
7445.86414 7.98807e-18
7447.38109 8.22829e-18
7448.90808 8.47790e-18
7450.42503 8.31022e-18
7451.94197 7.94294e-18
7453.46896 7.79315e-18
7454.98591 7.74770e-18
7456.50286 7.74098e-18
7458.02985 7.75284e-18
7459.54679 7.90852e-18
7461.06374 8.13319e-18
7462.59073 8.21920e-18
7464.10768 8.23847e-18
7465.62462 8.09131e-18
7467.15162 7.86406e-18
7468.66856 7.83476e-18
7470.18551 7.90101e-18
7471.71250 8.01453e-18
7473.22945 8.15086e-18
7474.74639 8.14821e-18
7476.27338 8.07827e-18
7477.79033 8.00102e-18
7479.30728 7.92022e-18
7480.83427 7.98236e-18
7482.35121 8.11369e-18
7483.87821 8.06239e-18
7485.39515 7.92240e-18
7486.91210 7.79569e-18
7488.43909 7.67544e-18
7489.95604 7.57688e-18
7491.47298 7.48891e-18
7492.99997 7.76885e-18
7494.51692 8.22798e-18
7496.03387 8.30914e-18
7497.56086 8.20623e-18
7499.07780 8.06469e-18
7500.59475 7.90428e-18
7502.12174 7.92338e-18
7503.63869 8.03017e-18
7505.15563 8.00700e-18
7506.68263 7.92015e-18
7508.19957 7.87307e-18
7509.71652 7.84548e-18
7511.24351 7.86426e-18
7512.76046 7.90576e-18
7514.28745 7.90711e-18
7515.80439 7.88873e-18
7517.32134 7.70723e-18
7518.84833 7.44558e-18
7520.36528 7.61667e-18
7521.88222 8.00104e-18
7523.40922 8.21239e-18
7524.92616 8.33848e-18
7526.44311 8.49646e-18
7527.97010 8.67017e-18
7529.48705 8.36360e-18
7531.00399 7.81961e-18
7532.53098 7.76894e-18
7534.04793 7.96212e-18
7535.56488 7.96013e-18
7537.09187 7.86138e-18
7538.60881 7.80211e-18
7540.12576 7.76242e-18
7541.65275 7.74363e-18
7543.16970 7.73522e-18
7544.68664 7.69943e-18
7546.21364 7.65002e-18
7547.73058 7.71098e-18
7549.25757 7.82682e-18
7550.77452 7.82568e-18
7552.29147 7.82454e-18
7553.81846 7.82340e-18
7555.33540 7.82226e-18
7556.85235 7.82112e-18
7558.37934 7.81998e-18
7559.89629 7.81884e-18
7561.41323 7.81770e-18
7562.94023 7.81657e-18
7564.45717 7.81542e-18
7565.97412 7.81429e-18
7567.50111 7.81315e-18
7569.01806 7.81201e-18
7570.53500 7.81087e-18
7572.06199 7.80973e-18
7573.57894 7.80859e-18
7575.09589 7.80745e-18
7576.62288 7.80631e-18
7578.13982 7.80517e-18
7579.65677 7.80403e-18
7581.18376 7.80289e-18
7582.70071 7.80175e-18
7584.22770 7.80061e-18
7585.74465 7.79947e-18
7587.26159 7.79834e-18
7588.78858 7.79720e-18
7590.30553 7.79606e-18
7591.82248 7.79492e-18
7593.34947 7.79378e-18
7594.86641 7.79264e-18
7596.38336 7.79150e-18
7597.91035 7.79036e-18
7599.42730 7.78922e-18
7600.94424 7.78808e-18
7602.47124 7.78694e-18
7603.98818 7.78580e-18
7605.50513 7.78466e-18
7607.03212 7.78353e-18
7608.54907 7.78239e-18
7610.06601 7.78125e-18
7611.59300 7.78011e-18
7613.10995 7.77897e-18
7614.62690 7.77783e-18
7616.15389 7.77669e-18
7617.67083 7.77555e-18
7619.19783 7.77441e-18
7620.71477 7.77328e-18
7622.23172 7.77214e-18
7623.75871 7.77100e-18
7625.27566 7.76986e-18
7626.79260 7.76872e-18
7628.31959 7.76758e-18
7629.83654 7.76644e-18
7631.35349 7.76530e-18
7632.88048 7.76416e-18
7634.39742 7.76302e-18
7635.91437 7.76189e-18
7637.44136 7.76075e-18
7638.95831 7.75961e-18
7640.47525 7.75847e-18
7642.00225 7.75733e-18
7643.51919 7.75619e-18
7645.03614 7.75505e-18
7646.56313 7.75391e-18
7648.08008 7.75278e-18
7649.59702 7.75164e-18
7651.12401 7.75050e-18
7652.64096 7.74936e-18
7654.15791 7.74822e-18
7655.68490 7.74708e-18
7657.20184 7.74594e-18
7658.72884 7.74481e-18
7660.24578 7.74367e-18
7661.76273 7.74253e-18
7663.28972 7.74139e-18
7664.80667 7.74025e-18
7666.32361 7.73911e-18
7667.85060 7.73797e-18
7669.36755 7.73684e-18
7670.88450 7.73570e-18
7672.41149 7.73456e-18
7673.92843 7.73342e-18
7675.44538 7.73228e-18
7676.97237 7.73114e-18
7678.48932 7.73000e-18
7680.00626 7.72887e-18
7681.53326 7.75830e-18
7683.05020 7.89833e-18
7684.56715 7.70840e-18
7686.09414 7.34497e-18
7687.61109 7.41807e-18
7689.12803 7.72071e-18
7690.65502 7.78074e-18
7692.17197 7.71282e-18
7693.69896 7.69979e-18
7695.21591 7.71570e-18
7696.73285 7.62309e-18
7698.25985 7.47325e-18
7699.77679 7.40832e-18
7701.29374 7.38830e-18
7702.82073 7.47943e-18
7704.33768 7.62935e-18
7705.85462 7.68698e-18
7707.38161 7.69564e-18
7708.89856 7.73059e-18
7710.41551 7.77949e-18
7711.94250 7.89204e-18
7713.45944 8.03836e-18
7714.97639 7.93841e-18
7716.50338 7.70745e-18
7718.02033 7.54842e-18
7719.53727 7.42764e-18
7721.06427 7.50041e-18
7722.58121 7.67644e-18
7724.09816 7.82930e-18
7725.62515 7.96979e-18
7727.14210 7.89324e-18
7728.66909 7.70057e-18
7730.18603 7.69923e-18
7731.70298 7.80027e-18
7733.22997 7.73709e-18
7734.74692 7.58605e-18
7736.26386 7.59201e-18
7737.79086 7.68222e-18
7739.30780 7.73927e-18
7740.82475 7.77853e-18
7742.35174 7.93816e-18
7743.86869 8.16258e-18
7745.38563 7.90145e-18
7746.91262 7.37903e-18
7748.42957 7.45181e-18
7749.94652 7.84491e-18
7751.47351 8.11962e-18
7752.99045 8.33043e-18
7754.50740 8.23026e-18
7756.03439 7.96225e-18
7757.55134 8.09647e-18
7759.06828 8.44842e-18
7760.59528 8.34249e-18
7762.11222 7.98873e-18
7763.62917 7.80240e-18
7765.15616 7.70669e-18
7766.67311 7.78234e-18
7768.20010 7.95100e-18
7769.71704 8.00295e-18
7771.23399 7.99156e-18
7772.76098 7.83379e-18
7774.27793 7.59631e-18
7775.79487 7.66845e-18
7777.32187 7.90915e-18
7778.83881 7.98554e-18
7780.35576 7.97222e-18
7781.88275 8.03668e-18
7783.39970 8.14361e-18
7784.91664 8.29714e-18
7786.44363 8.47611e-18
7787.96058 8.59594e-18
7789.47753 8.68338e-18
7791.00452 8.46536e-18
7792.52146 8.08010e-18
7794.03841 8.16466e-18
7795.56540 8.50722e-18
7797.08235 8.49572e-18
7798.60934 8.28978e-18
7800.12629 8.31667e-18
7801.64323 8.47143e-18
7803.17022 8.46518e-18
7804.68717 8.37027e-18
7806.20412 8.37791e-18
7807.73111 8.44204e-18
7809.24805 8.44633e-18
7810.76500 8.41759e-18
7812.29199 8.34771e-18
7813.80894 8.25512e-18
7815.32588 8.14681e-18
7816.85288 8.02983e-18
7818.36982 8.04674e-18
7819.88677 8.13780e-18
7821.41376 8.16675e-18
7822.93071 8.16131e-18
7824.44765 8.11317e-18
7825.97464 8.04133e-18
7827.49159 7.88466e-18
7829.01858 7.68086e-18
7830.53553 7.60203e-18
7832.05247 7.59261e-18
7833.57947 7.66526e-18
7835.09641 7.78363e-18
7836.61336 7.92552e-18
7838.14035 8.08050e-18
7839.65730 8.07907e-18
7841.17424 7.99026e-18
7842.70123 7.99770e-18
7844.21818 8.05891e-18
7845.73513 8.17908e-18
7847.26212 8.33226e-18
7848.77906 8.27229e-18
7850.29601 8.09288e-18
7851.82300 8.00497e-18
7853.33995 7.96832e-18
7854.85689 8.30805e-18
7856.38389 8.85926e-18
7857.90083 8.72182e-18
7859.41778 8.19746e-18
7860.94477 7.80066e-18
7862.46172 7.47573e-18
7863.97866 7.60486e-18
7865.50565 7.98983e-18
7867.02260 8.05973e-18
7868.54959 7.95209e-18
7870.06654 7.86626e-18
7871.58348 7.79276e-18
7873.11048 7.82819e-18
7874.62742 7.92517e-18
7876.14437 7.99089e-18
7877.67136 8.03891e-18
7879.18831 8.04128e-18
7880.70525 8.01779e-18
7882.23224 7.68963e-18
7883.74919 7.18880e-18
7885.26614 7.10641e-18
7886.79313 7.26182e-18
7888.31007 7.48579e-18
7889.82702 7.74873e-18
7891.35401 7.98102e-18
7892.87096 8.19585e-18
7894.38790 8.17642e-18
7895.91490 8.02348e-18
7897.43184 7.92478e-18
7898.94879 7.85708e-18
7900.47578 7.81940e-18
7901.99273 7.79889e-18
7903.51972 7.69088e-18
7905.03666 7.53285e-18
7906.55361 7.58017e-18
7908.08060 7.74518e-18
7909.59755 7.88105e-18
7911.11449 8.00023e-18
7912.64149 7.91971e-18
7914.15843 7.72441e-18
7915.67538 7.49992e-18
7917.20237 7.25866e-18
7918.71932 7.20591e-18
7920.23626 7.26153e-18
7921.76325 7.30759e-18
7923.28020 7.34815e-18
7924.79715 7.43681e-18
7926.32414 7.55320e-18
7927.84108 7.54582e-18
7929.35803 7.46687e-18
7930.88502 7.55126e-18
7932.40197 7.73006e-18
7933.91891 7.65519e-18
7935.44591 7.43367e-18
7936.96285 7.30726e-18
7938.47980 7.23599e-18
7940.00679 7.36859e-18
7941.52374 7.61936e-18
7943.05073 7.56669e-18
7944.56767 7.33761e-18
7946.08462 7.21007e-18
7947.61161 7.14157e-18
7949.12856 7.27358e-18
7950.64550 7.52216e-18
7952.17250 7.64769e-18
7953.68944 7.70146e-18
7955.20639 7.50127e-18
7956.73338 7.15302e-18
7958.25033 6.85069e-18
7959.76727 6.57521e-18
7961.29426 6.60790e-18
7962.81121 6.82076e-18
7964.32816 6.99669e-18
7965.85515 7.15096e-18
7967.37209 7.08571e-18
7968.88904 6.89175e-18
7970.41603 6.69332e-18
7971.93298 6.49227e-18
7973.45997 6.42646e-18
7974.97692 6.44017e-18
7976.49386 6.45162e-18
7978.02085 6.46176e-18
7979.53780 6.62404e-18
7981.05475 6.87602e-18
7982.58174 6.95483e-18
7984.09868 6.93152e-18
7985.61563 6.83077e-18
7987.14262 6.68434e-18
7988.65957 6.64952e-18
7990.17651 6.68070e-18
7991.70351 6.61189e-18
7993.22045 6.48397e-18
7994.73740 6.38628e-18
7996.26439 6.30652e-18
7997.78134 6.37410e-18
7999.29828 6.52905e-18
8000.82527 6.58266e-18
8002.34222 6.57618e-18
8003.85917 6.61757e-18
8005.38616 6.68743e-18
8006.90310 6.47895e-18
8008.43010 6.10496e-18
8009.94704 6.18855e-18
8011.46399 6.54498e-18
8012.99098 6.58939e-18
8014.50793 6.44773e-18
8016.02487 6.25121e-18
8017.55186 6.02188e-18
8019.06881 6.07948e-18
8020.58576 6.30867e-18
8022.11275 5.99272e-18
8023.62969 5.35079e-18
8025.14664 5.47537e-18
8026.67363 6.05958e-18
8028.19058 6.32053e-18
8029.70752 6.38763e-18
8031.23452 6.25797e-18
8032.75146 6.01000e-18
8034.26841 5.90590e-18
8035.79540 5.88832e-18
8037.31235 5.81411e-18
8038.82929 5.70584e-18
8040.35628 5.68541e-18
8041.87323 5.71795e-18
8043.39018 5.86788e-18
8044.91717 6.08861e-18
8046.43411 6.06843e-18
8047.96111 5.90257e-18
8049.47805 5.80856e-18
8050.99500 5.75799e-18
8052.52199 5.76213e-18
8054.03894 5.79934e-18
8055.55588 5.77366e-18
8057.08287 5.70985e-18
8058.59982 5.77149e-18
8060.11677 5.90921e-18
8061.64376 5.81722e-18
8063.16070 5.58555e-18
8064.67765 5.56676e-18
8066.20464 5.67743e-18
8067.72159 5.58251e-18
8069.23853 5.36258e-18
8070.76553 5.08886e-18
8072.28247 4.78236e-18
8073.79942 4.85858e-18
8075.32641 5.16820e-18
8076.84336 5.32017e-18
8078.37035 5.37574e-18
8079.88729 5.41283e-18
8081.40424 5.43862e-18
8082.93123 5.38710e-18
8084.44818 5.28817e-18
8085.96512 5.20386e-18
8087.49212 5.12851e-18
8089.00906 5.07661e-18
8090.52601 5.03908e-18
8092.05300 4.92082e-18
8093.56995 4.75292e-18
8095.08689 4.81070e-18
8096.61388 5.00727e-18
8098.13083 5.15470e-18
8099.64778 5.27182e-18
8101.17477 5.28951e-18
8102.69171 5.24587e-18
8104.20866 4.98539e-18
8105.73565 4.59119e-18
8107.25260 4.46069e-18
8108.77959 4.49325e-18
8110.29654 4.53909e-18
8111.81348 4.59313e-18
8113.34047 4.66517e-18
8114.85742 4.74837e-18
8116.37437 4.86822e-18
8117.90136 5.01080e-18
8119.41830 5.01913e-18
8120.93525 4.94422e-18
8122.46224 4.93467e-18
8123.97919 4.96575e-18
8125.49613 5.00189e-18
8127.02313 5.04118e-18
8128.54007 4.87688e-18
8130.05702 4.58563e-18
8131.58401 4.58737e-18
8133.10096 4.77181e-18
8134.61790 5.00435e-18
8136.14489 5.26697e-18
8137.66184 5.17720e-18
8139.17879 4.86710e-18
8140.70578 4.84679e-18
8142.22272 5.00770e-18
8143.73967 5.04808e-18
8145.26666 5.01286e-18
8146.78361 5.01979e-18
8148.31060 5.05314e-18
8149.82755 5.10953e-18
8151.34449 5.18042e-18
8152.87148 5.28103e-18
8154.38843 5.40035e-18
8155.90538 5.43258e-18
8157.43237 5.41006e-18
8158.94931 5.28934e-18
8160.46626 5.10672e-18
8161.99325 5.00507e-18
8163.51020 4.95446e-18
8165.02714 5.10865e-18
8166.55414 5.39234e-18
8168.07108 5.64033e-18
8169.58803 5.86575e-18
8171.11502 5.84561e-18
8172.63197 5.67020e-18
8174.14891 5.33987e-18
8175.67590 4.91133e-18
8177.19285 5.13994e-18
8178.70980 5.78520e-18
8180.23679 5.97328e-18
8181.75373 5.87068e-18
8183.28073 5.69489e-18
8184.79767 5.47256e-18
8186.31462 5.33837e-18
8187.84161 5.26022e-18
8189.35856 5.49399e-18
8190.87550 5.92662e-18
8192.40249 5.96140e-18
8193.91944 5.74252e-18
8195.43639 5.67446e-18
8196.96338 5.70282e-18
8198.48032 5.82083e-18
8199.99727 5.99616e-18
8201.52426 6.08770e-18
8203.04121 6.12553e-18
8204.55815 6.05605e-18
8206.08515 5.91778e-18
8207.60209 5.90264e-18
8209.11904 5.96644e-18
8210.64603 6.15333e-18
8212.16298 6.41934e-18
8213.67992 6.38551e-18
8215.20691 6.15891e-18
8216.72386 5.98507e-18
8218.25085 5.84523e-18
8219.76780 5.68383e-18
8221.28474 5.50853e-18
8222.81174 5.21416e-18
8224.32868 4.84304e-18
8225.84563 4.75788e-18
8227.37262 4.85758e-18
8228.88957 5.15681e-18
8230.40651 5.58502e-18
8231.93350 5.71428e-18
8233.45045 5.64977e-18
8234.96740 5.73733e-18
8236.49439 5.92346e-18
8238.01133 5.89564e-18
8239.52828 5.72913e-18
8241.05527 5.51890e-18
8242.57222 5.28025e-18
8244.08916 5.27753e-18
8245.61616 5.42814e-18
8247.13310 5.41307e-18
8248.65005 5.29001e-18
8250.17704 5.26898e-18
8251.69399 5.31447e-18
8253.22098 5.49094e-18
8254.73792 5.75303e-18
8256.25487 5.79999e-18
8257.78186 5.70635e-18
8259.29881 5.74641e-18
8260.81575 5.87385e-18
8262.34275 5.90853e-18
8263.85969 5.88243e-18
8265.37664 5.73970e-18
8266.90363 5.52055e-18
8268.42058 5.44021e-18
8269.93752 5.45111e-18
8271.46451 5.28042e-18
8272.98146 4.99040e-18
8274.49841 4.97162e-18
8276.02540 5.13110e-18
8277.54234 5.47567e-18
8279.05929 5.94221e-18
8280.58628 6.20956e-18
8282.10323 6.34563e-18
8283.62017 6.15939e-18
8285.14717 5.76015e-18
8286.66411 5.52838e-18
8288.18106 5.40728e-18
8289.70805 5.35626e-18
8291.22500 5.35154e-18
8292.75199 5.41921e-18
8294.26893 5.53484e-18
8295.78588 5.33087e-18
8297.31287 4.91512e-18
8298.82982 4.93399e-18
8300.34676 5.24164e-18
8301.87376 5.54598e-18
8303.39070 5.84812e-18
8304.90765 5.78729e-18
8306.43464 5.48528e-18
8307.95159 5.60404e-18
8309.46853 6.00314e-18
8310.99552 6.05845e-18
8312.51247 5.88471e-18
8314.02942 5.71789e-18
8315.55641 5.55569e-18
8317.07335 5.45169e-18
8318.59030 5.38658e-18
8320.11729 5.53088e-18
8321.63424 5.81548e-18
8323.15118 5.87863e-18
8324.67818 5.79341e-18
8326.19512 5.74622e-18
8327.71207 5.72451e-18
8329.23906 5.76817e-18
8330.75601 5.85575e-18
8332.28300 5.86079e-18
8333.79994 5.81037e-18
8335.31689 5.80786e-18
8336.84388 5.83762e-18
8338.36083 5.70382e-18
8339.87777 5.45985e-18
8341.40477 5.18922e-18
8342.92171 4.90064e-18
8344.43866 5.03985e-18
8345.96565 5.46801e-18
8347.48260 5.64205e-18
8348.99954 5.64444e-18
8350.52653 5.89689e-18
8352.04348 6.31871e-18
8353.56043 6.27363e-18
8355.08742 5.91231e-18
8356.60436 5.72831e-18
8358.13136 5.66440e-18
8359.64830 5.52752e-18
8361.16525 5.34108e-18
8362.69224 5.30809e-18
8364.20919 5.37932e-18
8365.72613 5.54152e-18
8367.25312 5.76566e-18
8368.77007 5.77696e-18
8370.28702 5.64332e-18
8371.81401 5.51816e-18
8373.33095 5.39881e-18
8374.84790 5.37010e-18
8376.37489 5.40329e-18
8377.89184 5.32044e-18
8379.40878 5.15835e-18
8380.93578 5.15165e-18
8382.45272 5.25136e-18
8383.96967 5.37568e-18
8385.49666 5.51686e-18
8387.01361 5.51036e-18
8388.53055 5.40247e-18
8390.05754 5.33338e-18
8391.57449 5.29092e-18
8393.10148 5.17452e-18
8394.61843 5.00736e-18
8396.13537 5.10982e-18
8397.66237 5.39792e-18
8399.17931 5.51690e-18
8400.69626 5.51945e-18
8402.22325 5.42601e-18
8403.74020 5.26631e-18
8405.25714 5.32906e-18
8406.78413 5.54539e-18
8408.30108 5.62163e-18
8409.81803 5.60117e-18
8411.34502 5.44806e-18
8412.86196 5.20313e-18
8414.37891 5.40177e-18
8415.90590 5.90748e-18
8417.42285 5.99072e-18
8418.93979 5.78073e-18
8420.46679 5.73782e-18
8421.98373 5.81089e-18
8423.50068 5.75351e-18
8425.02767 5.60558e-18
8426.54462 5.61587e-18
8428.07161 5.73630e-18
8429.58855 5.64744e-18
8431.10550 5.41292e-18
8432.63249 5.29494e-18
8434.14944 5.25830e-18
8435.66638 5.24093e-18
8437.19338 5.23702e-18
8438.71032 5.40437e-18
8440.22727 5.69157e-18
8441.75426 5.83119e-18
8443.27121 5.86752e-18
8444.78815 5.92104e-18
8446.31514 5.98658e-18
8447.83209 5.97723e-18
8449.34904 5.91532e-18
8450.87603 5.69732e-18
8452.39297 5.36977e-18
8453.90992 5.17207e-18
8455.43691 5.06573e-18
8456.95386 5.21564e-18
8458.47080 5.54587e-18
8459.99780 5.50405e-18
8461.51474 5.20046e-18
8463.03169 5.15168e-18
8464.55868 5.28267e-18
8466.07563 5.28220e-18
8467.60262 5.18899e-18
8469.11956 5.17987e-18
8470.63651 5.23023e-18
8472.16350 5.51760e-18
8473.68045 5.97264e-18
8475.19739 6.27901e-18
8476.72439 6.48022e-18
8478.24133 6.30582e-18
8479.75828 5.86500e-18
8481.28527 5.77007e-18
8482.80222 5.92050e-18
8484.31916 5.91546e-18
8485.84615 5.79984e-18
8487.36310 5.53930e-18
8488.88005 5.17569e-18
8490.40704 5.16863e-18
8491.92398 5.41518e-18
8493.44093 5.40834e-18
8494.96792 5.22078e-18
8496.48487 5.08608e-18
8498.00181 4.98909e-18
8499.52881 5.12892e-18
8501.04575 5.43811e-18
8502.56270 5.63861e-18
8504.08969 5.76138e-18
8505.60664 5.48463e-18
8507.13363 4.92138e-18
8508.65057 4.78926e-18
8510.16752 4.96630e-18
8511.69451 5.13219e-18
8513.21146 5.29008e-18
8514.72840 5.61512e-18
8516.25540 6.06034e-18
8517.77234 6.14447e-18
8519.28929 5.96896e-18
8520.81628 5.79204e-18
8522.33323 5.61411e-18
8523.85017 5.70485e-18
8525.37716 5.98930e-18
8526.89411 6.10589e-18
8528.41106 6.10145e-18
8529.93805 6.03833e-18
8531.45499 5.93277e-18
8532.98199 6.11091e-18
8534.49893 6.49416e-18
8536.01588 6.72314e-18
8537.54287 6.84029e-18
8539.05982 6.77827e-18
8540.57676 6.58635e-18
8542.10375 6.42641e-18
8543.62070 6.28965e-18
8545.13765 6.15321e-18
8546.66464 6.01700e-18
8548.18158 5.99361e-18
8549.69853 6.05220e-18
8551.22552 5.89840e-18
8552.74247 5.58979e-18
8554.25941 5.56713e-18
8555.78641 5.75285e-18
8557.30335 5.86078e-18
8558.82030 5.91186e-18
8560.34729 6.07841e-18
8561.86424 6.32935e-18
8563.38118 6.43869e-18
8564.90817 6.44455e-18
8566.42512 6.44647e-18
8567.94207 6.44552e-18
8569.46906 6.46202e-18
8570.98600 6.49132e-18
8572.51300 6.55568e-18
8574.02994 6.64581e-18
8575.54689 6.38385e-18
8577.07388 5.86320e-18
8578.59083 5.79467e-18
8580.10777 6.05834e-18
8581.63476 6.23165e-18
8583.15171 6.33840e-18
8584.66866 6.40533e-18
8586.19565 6.44293e-18
8587.71259 6.36563e-18
8589.22954 6.20346e-18
8590.75653 6.10143e-18
8592.27348 6.04383e-18
8593.79042 6.19237e-18
8595.31742 6.49317e-18
8596.83436 6.64234e-18
8598.35131 6.67918e-18
8599.87830 6.43369e-18
8601.39525 5.97909e-18
8602.92224 5.65349e-18
8604.43918 5.42370e-18
8605.95613 5.58801e-18
8607.48312 6.04502e-18
8609.00007 6.31187e-18
8610.51701 6.43751e-18
8612.04401 6.46574e-18
8613.56095 6.42144e-18
8615.07790 6.43043e-18
8616.60489 6.47911e-18
8618.12184 6.52206e-18
8619.63878 6.56072e-18
8621.16577 6.46172e-18
8622.68272 6.25993e-18
8624.19967 6.07140e-18
8625.72666 5.89278e-18
8627.24360 6.07192e-18
8628.76055 6.51889e-18
8630.28754 6.49921e-18
8631.80449 6.13014e-18
8633.32143 6.07481e-18
8634.84843 6.25499e-18
8636.36537 6.27998e-18
8637.88232 6.18847e-18
8639.40931 6.27165e-18
8640.92626 6.48634e-18
8642.45325 6.57694e-18
8643.97019 6.57414e-18
8645.48714 6.15973e-18
8647.01413 5.43549e-18
8648.53108 5.28994e-18
8650.04802 5.58116e-18
8651.57502 5.82065e-18
8653.09196 6.02110e-18
8654.60891 5.88346e-18
8656.13590 5.48997e-18
8657.65285 5.80898e-18
8659.16979 6.66718e-18
8660.69678 6.84707e-18
8662.21373 6.51364e-18
8663.73068 6.32273e-18
8665.25767 6.23995e-18
8666.77461 6.39031e-18
8668.29156 6.71756e-18
8669.81855 6.84945e-18
8671.33550 6.83270e-18
8672.85244 6.67960e-18
8674.37944 6.42275e-18
8675.89638 6.26804e-18
8677.41333 6.19125e-18
8678.94032 6.14812e-18
8680.45727 6.13068e-18
8681.98426 6.24898e-18
8683.50120 6.47083e-18
8685.01815 6.67043e-18
8686.54514 6.85299e-18
8688.06209 6.85881e-18
8689.57903 6.72943e-18
8691.10603 6.76791e-18
8692.62297 6.93513e-18
8694.13992 6.98858e-18
8695.66691 6.95477e-18
8697.18386 6.78451e-18
8698.70080 6.50961e-18
8700.22779 6.45980e-18
8701.74474 6.58310e-18
8703.26169 6.74001e-18
8704.78868 6.92276e-18
8706.30562 6.97952e-18
8707.83262 6.93912e-18
8709.34956 6.77434e-18
8710.86651 6.51366e-18
8712.39350 6.38396e-18
8713.91045 6.35525e-18
8715.42739 6.25931e-18
8716.95438 6.11139e-18
8718.47133 6.11389e-18
8719.98828 6.23267e-18
8721.51527 6.29056e-18
8723.03221 6.30125e-18
8724.54916 6.10130e-18
8726.07615 5.73806e-18
8727.59310 5.66417e-18
8729.11004 5.81519e-18
8730.63704 5.98215e-18
8732.15398 6.16151e-18
8733.67093 6.11645e-18
8735.19792 5.89696e-18
8736.71487 6.02703e-18
8738.23181 6.42954e-18
8739.75880 6.68297e-18
8741.27575 6.82023e-18
8742.79270 6.71615e-18
8744.31969 6.42347e-18
8745.83663 6.35119e-18
8747.36363 6.45115e-18
8748.88057 6.29616e-18
8750.39752 5.94195e-18
8751.92451 6.02345e-18
8753.44146 6.44636e-18
8754.95840 6.79125e-18
8756.48539 7.07499e-18
8758.00234 6.90247e-18
8759.51929 6.37150e-18
8761.04628 6.14281e-18
8762.56322 6.15161e-18
8764.08017 6.25900e-18
8765.60716 6.44384e-18
8767.12411 6.46164e-18
8768.64105 6.34787e-18
8770.16805 6.25908e-18
8771.68499 6.18998e-18
8773.20194 6.15496e-18
8774.72893 6.14688e-18
8776.24588 5.97760e-18
8777.77287 5.68098e-18
8779.28981 5.38835e-18
8780.80676 5.09889e-18
8782.33375 5.37001e-18
8783.85070 6.08511e-18
8785.36764 6.55994e-18
8786.89464 6.84450e-18
8788.41158 6.53829e-18
8789.92853 5.76297e-18
8791.45552 5.54966e-18
8792.97247 5.78263e-18
8794.48941 5.89137e-18
8796.01640 5.90120e-18
8797.53335 5.70883e-18
8799.05030 5.35546e-18
8800.57729 5.16389e-18
8802.09423 5.10112e-18
8803.61118 5.19792e-18
8805.13817 5.42210e-18
8806.65512 5.49940e-18
8808.17206 5.45943e-18
8809.69906 5.69047e-18
8811.21600 6.13844e-18
8812.73295 6.23412e-18
8814.25994 6.04782e-18
8815.77689 5.74803e-18
8817.30388 5.35741e-18
8818.82082 5.41814e-18
8820.33777 5.84110e-18
8821.86476 6.17026e-18
8823.38171 6.42413e-18
8824.89865 6.38314e-18
8826.42565 6.10488e-18
8827.94259 5.94527e-18
8829.45954 5.88114e-18
8830.98653 5.83819e-18
8832.50348 5.81226e-18
8834.02042 5.77531e-18
8835.54741 5.72945e-18
8837.06436 5.71241e-18
8838.58131 5.71861e-18
8840.10830 5.59686e-18
8841.62524 5.37159e-18
8843.14219 5.36307e-18
8844.66918 5.52991e-18
8846.18613 5.49731e-18
8847.70307 5.30294e-18
8849.23007 5.18071e-18
8850.74701 5.11701e-18
8852.26396 4.94676e-18
8853.79095 4.69008e-18
8855.30790 4.29826e-18
8856.83489 3.79653e-18
8858.35183 4.08122e-18
8859.86878 5.00554e-18
8861.39577 5.73932e-18
8862.91272 6.31771e-18
8864.42966 6.32314e-18
8865.95666 5.86131e-18
8867.47360 5.80564e-18
8868.99055 6.08119e-18
8870.51754 6.14396e-18
8872.03449 6.03275e-18
8873.55143 5.90473e-18
8875.07842 5.76296e-18
8876.59537 5.64805e-18
8878.11232 5.55516e-18
8879.63931 5.50388e-18
8881.15625 5.48671e-18
8882.67320 5.68899e-18
8884.20019 6.07120e-18
8885.71714 6.05051e-18
8887.23408 5.69862e-18
8888.76108 5.48614e-18
8890.27802 5.38825e-18
8891.79497 5.35540e-18
8893.32196 5.37617e-18
8894.83891 5.39483e-18
8896.36590 5.41177e-18
8897.88284 5.49437e-18
8899.39979 5.63107e-18
8900.92678 5.53179e-18
8902.44373 5.23751e-18
8903.96067 5.00886e-18
8905.48767 4.83443e-18
8907.00461 4.84114e-18
8908.52156 4.99793e-18
8910.04855 5.08869e-18
8911.56550 5.12473e-18
8913.08244 5.03952e-18
8914.60943 4.85358e-18
8916.12638 4.80897e-18
8917.64333 4.88177e-18
8919.17032 4.95273e-18
8920.68726 5.02217e-18
8922.21426 5.65666e-18
8923.73120 6.76185e-18
8925.24815 6.91542e-18
8926.77514 6.27628e-18
8928.29209 5.79524e-18
8929.80903 5.44626e-18
8931.33602 5.54277e-18
8932.85297 6.01136e-18
8934.36992 6.03949e-18
8935.89691 5.69972e-18
8937.41385 5.50411e-18
8938.93080 5.42922e-18
8940.45779 5.52089e-18
8941.97474 5.75203e-18
8943.49168 5.72577e-18
8945.01868 5.48338e-18
8946.53562 5.49702e-18
8948.05257 5.72565e-18
8949.57956 5.65842e-18
8951.09651 5.34276e-18
8952.61345 4.96154e-18
8954.14044 4.52512e-18
8955.65739 4.29216e-18
8957.18438 4.23048e-18
8958.70133 4.53424e-18
8960.21827 5.14649e-18
8961.74527 5.69052e-18
8963.26221 6.17696e-18
8964.77916 6.38097e-18
8966.30615 6.34657e-18
8967.82310 6.13557e-18
8969.34004 5.77511e-18
8970.86703 5.56695e-18
8972.38398 5.48769e-18
8973.90093 5.15316e-18
8975.42792 4.60200e-18
8976.94486 4.38134e-18
8978.46181 4.44115e-18
8979.98880 4.49041e-18
8981.50575 4.53071e-18
8983.02269 4.26066e-18
8984.54969 3.72654e-18
8986.06663 3.47456e-18
8987.58358 3.46265e-18
8989.11057 3.73570e-18
8990.62752 4.25185e-18
8992.15451 4.78016e-18
8993.67145 5.31884e-18
8995.18840 5.48009e-18
8996.71539 5.31850e-18
8998.23234 5.22677e-18
8999.74928 5.19482e-18
9001.27628 5.12118e-18
9002.79322 5.01189e-18
9004.31017 4.72882e-18
9005.83716 4.29672e-18
9007.35411 4.29354e-18
9008.87105 4.65821e-18
9010.39804 4.80203e-18
9011.91499 4.75594e-18
9013.43194 4.76825e-18
9014.95893 4.83077e-18
9016.47587 4.99605e-18
9018.00287 5.24968e-18
9019.51981 5.09160e-18
9021.03676 4.57856e-18
9022.56375 4.23674e-18
9024.08070 4.04255e-18
9025.59764 3.97624e-18
9027.11459 4.02048e-18
9028.64158 4.13342e-18
9030.15853 4.30577e-18
9031.68552 4.55259e-18
9033.20246 4.86396e-18
9034.71941 4.97458e-18
9036.24640 4.91119e-18
9037.76335 4.66169e-18
9039.28029 4.25088e-18
9040.80729 4.20876e-18
9042.32423 4.48708e-18
9043.84118 4.62564e-18
9045.36817 4.64276e-18
9046.88512 4.71854e-18
9048.40206 4.84544e-18
9049.92905 4.83714e-18
9051.44600 4.71103e-18
9052.96295 4.41972e-18
9054.48994 3.98446e-18
9056.00688 4.00764e-18
9057.52383 4.43136e-18
9059.05082 4.47501e-18
9060.56777 4.18663e-18
9062.08471 4.20662e-18
9063.61171 4.49672e-18
9065.12865 4.70843e-18
9066.64560 4.85146e-18
9068.17259 4.44781e-18
9069.68954 3.56529e-18
9071.21653 3.26971e-18
9072.73347 3.48965e-18
9074.25042 3.77824e-18
9075.77741 4.12713e-18
9077.29436 4.53901e-18
9078.81130 5.00637e-18
9080.33830 5.24366e-18
9081.85524 5.27833e-18
9083.37219 5.21473e-18
9084.89918 5.06458e-18
9086.41613 5.10343e-18
9087.93307 5.30915e-18
9089.46006 5.13108e-18
9090.97701 4.61408e-18
9092.49396 4.28307e-18
9094.02095 4.11662e-18
9095.53789 4.34494e-18
9097.06489 4.92274e-18
9098.58183 5.14811e-18
9100.09878 5.06066e-18
9101.62577 4.97272e-18
9103.14272 4.88436e-18
9104.65966 4.90118e-18
9106.18665 5.01134e-18
9107.70360 4.86372e-18
9109.22055 4.48666e-18
9110.74754 4.29527e-18
9112.26448 4.26910e-18
9113.78143 4.43215e-18
9115.30842 4.76406e-18
9116.82537 4.62580e-18
9118.34231 4.06800e-18
9119.86931 3.89641e-18
9121.38625 4.06944e-18
9122.90320 4.23888e-18
9124.43019 4.40511e-18
9125.94714 4.31577e-18
9127.46408 3.99778e-18
9128.99107 4.04753e-18
9130.50802 4.42714e-18
9132.02497 4.52906e-18
9133.55196 4.38187e-18
9135.06890 4.09175e-18
9136.59590 3.67343e-18
9138.11284 3.65989e-18
9139.62979 4.01042e-18
9141.15678 4.26478e-18
9142.67373 4.43265e-18
9144.19067 4.39619e-18
9145.71766 4.17546e-18
9147.23461 3.96015e-18
9148.75156 3.74972e-18
9150.27855 3.62358e-18
9151.79549 3.57364e-18
9153.31244 3.65180e-18
9154.83943 3.84576e-18
9156.35638 3.90940e-18
9157.87332 3.85518e-18
9159.40032 3.96943e-18
9160.91726 4.23641e-18
9162.43421 4.49593e-18
9163.96120 4.74870e-18
9165.47815 4.76717e-18
9167.00514 4.57268e-18
9168.52208 4.45043e-18
9170.03903 4.39384e-18
9171.56602 4.41815e-18
9173.08297 4.51601e-18
9174.59991 4.50102e-18
9176.12691 4.38320e-18
9177.64385 4.35160e-18
9179.16080 4.39859e-18
9180.68779 4.64953e-18
9182.20474 5.08686e-18
9183.72168 5.37408e-18
9185.24867 5.52414e-18
9186.76562 5.36045e-18
9188.28257 4.91005e-18
9189.80956 4.48310e-18
9191.32650 4.07764e-18
9192.84345 4.04319e-18
9194.37044 4.34866e-18
9195.88739 4.51297e-18
9197.40433 4.54762e-18
9198.93133 4.62520e-18
9200.44827 4.74221e-18
9201.96522 4.66073e-18
9203.49221 4.39690e-18
9205.00916 4.15691e-18
9206.53615 3.93888e-18
9208.05309 3.91090e-18
9209.57004 4.05794e-18
9211.09703 4.29962e-18
9212.61398 4.62870e-18
9214.13092 4.73090e-18
9215.65792 4.62361e-18
9217.17486 4.57211e-18
9218.69181 4.57224e-18
9220.21880 4.68057e-18
9221.73575 4.88906e-18
9223.25269 4.99187e-18
9224.77968 4.99681e-18
9226.29663 4.80537e-18
9227.81358 4.43163e-18
9229.34057 4.15279e-18
9230.85751 3.96203e-18
9232.37446 3.90625e-18
9233.90145 3.97610e-18
9233.95513 3.97610e-18
9235.65272 3.85097e-18
9237.35031 3.98861e-18
9239.04790 4.62361e-18
9240.74549 5.68847e-18
9242.44307 6.81124e-18
9244.14066 7.42004e-18
9245.83825 7.29368e-18
9247.53584 6.55531e-18
9249.23343 5.45637e-18
9250.93101 4.37390e-18
9252.62860 3.59684e-18
9254.32619 3.26099e-18
9256.02378 3.42466e-18
9257.72137 4.06581e-18
9259.41895 4.83767e-18
9261.11654 4.96819e-18
9262.81413 4.26988e-18
9264.51172 3.49954e-18
9266.20931 3.18092e-18
9267.91694 3.32887e-18
9269.60448 3.73873e-18
9271.31212 3.79473e-18
9272.99966 3.23337e-18
9274.70729 2.76482e-18
9276.40488 2.92914e-18
9278.10247 3.43570e-18
9279.80006 3.86526e-18
9281.49764 3.87996e-18
9283.19523 3.37621e-18
9284.89282 2.99187e-18
9286.59041 3.34151e-18
9288.28800 3.96535e-18
9289.98559 4.17569e-18
9291.68317 4.29180e-18
9293.38076 4.89375e-18
9295.07835 5.38951e-18
9296.77594 4.83386e-18
9298.47353 4.02591e-18
9300.17111 4.60241e-18
9301.86870 6.03054e-18
9303.56629 6.32351e-18
9305.26388 5.33877e-18
9306.96147 4.45878e-18
9308.65905 4.20078e-18
9310.35664 4.29639e-18
9312.05423 4.37705e-18
9313.75182 3.85423e-18
9315.44941 3.10041e-18
9317.14700 3.81713e-18
9318.84458 6.20493e-18
9320.54217 8.23092e-18
9322.23976 8.45664e-18
9323.93735 6.53733e-18
9325.63494 3.05067e-18
9327.33252 2.17866e-19
9329.03011 -6.69586e-19
9330.72770 -8.85284e-19
9332.42529 -1.48938e-18
9334.12288 -2.02528e-18
9335.82046 -1.89245e-18
9337.51805 -7.42108e-19
9339.21564 1.45111e-18
9340.91323 3.97438e-18
9342.61082 5.98558e-18
9344.30840 7.07645e-18
9346.00599 7.13466e-18
9347.70358 6.26326e-18
9349.41121 4.80853e-18
9351.09876 3.54999e-18
9352.80639 3.27218e-18
9354.49393 3.86752e-18
9356.20157 4.64490e-18
9357.89915 5.03482e-18
9359.59674 4.63990e-18
9361.29433 3.65634e-18
9362.99192 2.79273e-18
9364.68951 2.17900e-18
9366.38709 1.40025e-18
9368.08468 5.82615e-19
9369.78227 3.67535e-19
9371.47986 1.05441e-18
9373.17745 2.58613e-18
9374.87504 4.26465e-18
9376.57262 4.45380e-18
9378.27021 2.91350e-18
9379.96780 1.72200e-18
9381.66539 2.08983e-18
9383.36298 3.39616e-18
9385.06056 4.83348e-18
9386.75815 5.47524e-18
9388.45574 5.01745e-18
9390.15333 4.81061e-18
9391.85092 5.75482e-18
9393.54850 6.69700e-18
9395.24609 6.59443e-18
9396.94368 6.05236e-18
9398.64127 5.86757e-18
9400.33886 6.09976e-18
9402.03644 6.47759e-18
9403.73403 6.31702e-18
9405.43162 5.06624e-18
9407.12921 3.33098e-18
9408.82680 2.19979e-18
9410.52439 2.30885e-18
9412.22197 3.80120e-18
9413.91956 5.86873e-18
9415.61715 7.13681e-18
9417.31474 6.98324e-18
9419.01233 5.52232e-18
9420.70991 3.62871e-18
9422.40750 2.80432e-18
9424.10509 3.06563e-18
9425.80268 2.85922e-18
9427.50027 2.00007e-18
9429.19785 1.91028e-18
9430.89544 2.82855e-18
9432.59303 3.42796e-18
9434.29062 3.30942e-18
9435.98821 3.52168e-18
9437.69584 4.51832e-18
9439.39343 5.69247e-18
9441.09102 6.43368e-18
9442.78860 6.18671e-18
9444.48619 4.92719e-18
9446.18378 3.77149e-18
9447.88137 3.56170e-18
9449.57896 4.03523e-18
9451.27654 4.67799e-18
9452.97413 4.95737e-18
9454.67172 4.56085e-18
9456.36931 3.80284e-18
9458.06690 3.20926e-18
9459.76449 3.34801e-18
9461.46207 4.49838e-18
9463.15966 5.83972e-18
9464.85725 6.29017e-18
9466.55484 5.94620e-18
9468.25243 5.48938e-18
9469.95001 5.14384e-18
9471.64760 4.85115e-18
9473.34519 4.43598e-18
9475.04278 3.65402e-18
9476.74037 2.57811e-18
9478.43795 1.56899e-18
9480.13554 1.34451e-18
9481.83313 2.87925e-18
9483.53072 5.56392e-18
9485.22831 7.07013e-18
9486.92589 6.68532e-18
9488.62348 5.79004e-18
9490.32107 5.19438e-18
9492.01866 4.84761e-18
9493.71625 4.62328e-18
9495.41384 4.17795e-18
9497.11142 3.52196e-18
9498.80901 3.46763e-18
9500.50660 4.32506e-18
9502.20419 5.17155e-18
9503.90178 5.36533e-18
9505.59936 5.39551e-18
9507.29695 5.63314e-18
9508.99454 5.55520e-18
9510.69213 4.74727e-18
9512.38972 3.66795e-18
9514.08730 2.85998e-18
9515.78489 2.16930e-18
9517.48248 1.42012e-18
9519.19011 1.44669e-18
9520.88770 3.01177e-18
9522.58529 4.92093e-18
9524.28288 5.40987e-18
9525.98047 4.67357e-18
9527.67805 3.98985e-18
9529.37564 3.97859e-18
9531.07323 4.75351e-18
9532.77082 5.86061e-18
9534.46841 6.38064e-18
9536.16599 6.09048e-18
9537.86358 5.44637e-18
9539.56117 4.84118e-18
9541.25876 4.60863e-18
9542.95635 4.71064e-18
9544.65394 4.63107e-18
9546.35152 4.11641e-18
9548.04911 3.29659e-18
9549.74670 2.41379e-18
9551.44429 1.81853e-18
9553.14188 1.84855e-18
9554.83946 2.92023e-18
9556.53705 4.72818e-18
9558.23464 5.43491e-18
9559.93223 4.25268e-18
9561.62982 3.21827e-18
9563.32740 3.78823e-18
9565.02499 4.79723e-18
9566.72258 5.00321e-18
9568.42017 4.41446e-18
9570.11776 3.45403e-18
9571.81534 2.80749e-18
9573.51293 3.07807e-18
9575.21052 4.26800e-18
9576.90811 6.00404e-18
9578.60570 7.65082e-18
9580.30329 8.54757e-18
9582.00087 8.45520e-18
9583.69846 7.49207e-18
9585.39605 6.01286e-18
9587.09364 4.52976e-18
9588.79123 3.50456e-18
9590.48881 3.25571e-18
9592.18640 3.52740e-18
9593.88399 3.59184e-18
9595.58158 3.55833e-18
9597.27917 4.34293e-18
9598.97675 5.72790e-18
9600.67434 6.26727e-18
9602.38198 5.64907e-18
9604.07956 5.00115e-18
9605.76711 4.88567e-18
9607.47474 5.01523e-18
9609.17233 5.10207e-18
9610.86992 4.86529e-18
9612.56750 4.24062e-18
9614.26509 3.57987e-18
9615.96268 3.21673e-18
9617.66027 3.37366e-18
9619.35786 4.01041e-18
9621.05544 4.57040e-18
9622.75303 4.56828e-18
9624.45062 3.87812e-18
9626.14821 2.71881e-18
9627.84580 1.99361e-18
9629.54339 2.46188e-18
9631.24097 3.82412e-18
9632.93856 5.37042e-18
9634.63615 6.48228e-18
9636.33374 6.72722e-18
9638.03133 6.20799e-18
9639.72891 5.35962e-18
9641.42650 4.58862e-18
9643.12409 4.21294e-18
9644.82168 4.17414e-18
9646.51927 4.14982e-18
9648.21685 4.13852e-18
9649.91444 4.37067e-18
9651.61203 5.00013e-18
9653.30962 6.11640e-18
9655.00721 6.98594e-18
9656.70479 6.04893e-18
9658.40238 3.71637e-18
9660.09997 2.74049e-18
9661.79756 4.24918e-18
9663.49515 7.12290e-18
9665.19274 9.96507e-18
9666.89032 1.10373e-17
9668.58791 9.79847e-18
9670.28550 7.92466e-18
9671.98309 6.74803e-18
9673.68068 6.41165e-18
9675.37826 6.65971e-18
9677.07585 6.72438e-18
9678.77344 5.98500e-18
9680.47103 4.39546e-18
9682.16862 2.32596e-18
9683.86620 8.78468e-19
9685.56379 8.90065e-19
9687.26138 1.85544e-18
9688.96901 2.85522e-18
9690.66660 3.17620e-18
9692.36419 2.47741e-18
9694.06178 1.54787e-18
9695.75937 1.47919e-18
9697.45695 2.03747e-18
9699.15454 2.32494e-18
9700.85213 2.09293e-18
9702.54972 1.53394e-18
9704.24731 1.06879e-18
9705.94489 1.26430e-18
9707.64248 2.02592e-18
9709.34007 2.67431e-18
9711.03766 2.89385e-18
9712.73525 2.73784e-18
9714.43283 2.46987e-18
9716.13042 2.61471e-18
9717.82801 3.21266e-18
9719.52560 3.65614e-18
9721.22319 3.58203e-18
9722.92078 2.98368e-18
9724.61836 2.16129e-18
9726.31595 1.92872e-18
9728.01354 2.60890e-18
9729.71113 3.52370e-18
9731.40872 4.09387e-18
9733.10630 4.18535e-18
9734.80389 3.89943e-18
9736.50148 3.75184e-18
9738.19907 4.08926e-18
9739.89666 4.62046e-18
9741.59424 4.91338e-18
9743.29183 4.48184e-18
9744.98942 3.18054e-18
9746.68701 2.12219e-18
9748.38460 2.39464e-18
9750.08219 3.21509e-18
9751.77977 3.24935e-18
9753.47736 2.35342e-18
9755.17495 1.09775e-18
9756.87254 5.47310e-19
9758.57013 1.78767e-18
9760.26771 4.01654e-18
9761.96530 5.19691e-18
9763.66289 4.65025e-18
9765.36048 2.90535e-18
9767.05807 1.11217e-18
9768.75565 9.83665e-19
9770.45324 2.54529e-18
9772.16088 3.92280e-18
9773.85846 4.39698e-18
9775.55605 4.69982e-18
9777.25364 5.25642e-18
9778.95123 6.10834e-18
9780.64882 7.10405e-18
9782.34640 7.76801e-18
9784.04399 7.73302e-18
9785.74158 6.83325e-18
9787.43917 5.26577e-18
9789.13676 3.90702e-18
9790.83434 3.29115e-18
9792.53193 2.95761e-18
9794.22952 2.44187e-18
9795.92711 1.68504e-18
9797.62470 8.51941e-19
9799.32228 6.12742e-19
9801.01987 1.38388e-18
9802.71746 2.23421e-18
9804.41505 2.19019e-18
9806.11264 1.84326e-18
9807.81023 2.16039e-18
9809.50781 3.06039e-18
9811.20540 3.95044e-18
9812.90299 4.13632e-18
9814.60058 3.07430e-18
9816.29817 1.49288e-18
9817.99575 8.48397e-19
9819.69334 1.27944e-18
9821.39093 1.90867e-18
9823.08852 2.45561e-18
9824.78611 3.11152e-18
9826.48369 3.64189e-18
9828.18128 3.48037e-18
9829.87887 2.82657e-18
9831.57646 2.71576e-18
9833.27405 3.54337e-18
9834.97163 4.86865e-18
9836.66922 6.08729e-18
9838.36681 6.36842e-18
9840.06440 5.50724e-18
9841.76199 4.40315e-18
9843.45958 3.72657e-18
9845.15716 3.48760e-18
9846.85475 3.55339e-18
9848.55234 3.64172e-18
9850.24993 3.55147e-18
9851.94752 3.44261e-18
9853.65515 3.42296e-18
9855.34269 3.17395e-18
9857.05033 2.49158e-18
9858.74791 1.88430e-18
9860.44550 1.83647e-18
9862.14309 1.84045e-18
9863.84068 1.33706e-18
9865.53827 1.22688e-18
9867.23585 2.60444e-18
9868.93344 4.32590e-18
9870.63103 4.53725e-18
9872.32862 4.25539e-18
9874.02621 5.81425e-18
9875.72379 8.47630e-18
9877.42138 9.52683e-18
9879.11897 7.76345e-18
9880.81656 3.36375e-18
9882.51415 -1.58841e-18
9884.21173 -3.27074e-18
9885.90932 -1.23816e-18
9887.60691 1.16604e-18
9889.30450 2.03215e-18
9891.00209 1.25351e-18
9892.69968 -2.99714e-19
9894.39726 -2.14587e-19
9896.09485 2.14121e-18
9897.79244 4.33583e-18
9899.49003 4.66701e-18
9901.18762 3.04612e-18
9902.88520 2.05559e-19
9904.58279 -1.72474e-18
9906.28038 -1.48298e-18
9907.97797 -3.50045e-19
9909.67556 3.75793e-19
9911.37314 6.92546e-19
9913.07073 8.95424e-19
9914.76832 1.31075e-18
9916.46591 2.15817e-18
9918.16350 3.21710e-18
9919.86108 4.10297e-18
9921.55867 4.46703e-18
9923.25626 4.11900e-18
9924.95385 3.32258e-18
9926.65144 2.56555e-18
9928.34903 2.27910e-18
9930.04661 2.70406e-18
9931.74420 3.23443e-18
9933.44179 2.82742e-18
9935.14942 1.75813e-18
9936.83697 1.26985e-18
9938.54460 1.54972e-18
9940.23214 1.87264e-18
9941.93978 1.84698e-18
9943.63736 1.37169e-18
9945.33495 6.97224e-19
9947.03254 5.61041e-19
9948.73013 8.75394e-19
9950.42772 3.79887e-19
9952.12530 -1.13883e-18
9953.82289 -2.26079e-18
9955.52048 -2.12130e-18
9957.21807 -9.58170e-19
9958.91566 8.61702e-19
9960.61324 2.91392e-18
9962.31083 4.84262e-18
9964.00842 6.67192e-18
9965.70601 8.21543e-18
9967.40360 8.53027e-18
9969.10118 7.08366e-18
9970.79877 4.60804e-18
9972.49636 2.19426e-18
9974.19395 9.46110e-19
9975.89154 1.49002e-18
9977.58913 3.05189e-18
9979.28671 4.38329e-18
9980.98430 4.87068e-18
9982.68189 4.34146e-18
9984.37948 2.93358e-18
9986.07707 1.09769e-18
9987.77465 -4.91011e-19
9989.47224 -1.14658e-18
9991.16983 -5.62373e-19
9992.86742 1.13476e-18
9994.56501 2.81759e-18
9996.26259 2.68629e-18
9997.96018 1.21300e-18
9999.65777 1.03122e-18
