# wavelength flux
3475.89900 2.60737e-18
3477.36148 2.61769e-18
3478.83398 2.71434e-18
3480.30648 2.48202e-18
3481.77898 2.06647e-18
3483.24146 2.33111e-18
3484.71396 2.59637e-18
3486.18646 2.69721e-18
3487.65896 2.57929e-18
3489.12144 2.71479e-18
3490.59394 2.87974e-18
3492.06644 2.62061e-18
3493.53894 2.41306e-18
3495.00142 2.47913e-18
3496.47392 2.27708e-18
3497.94642 2.33977e-18
3499.41892 2.26729e-18
3500.88140 2.40428e-18
3502.35390 2.74490e-18
3503.82640 2.54271e-18
3505.29889 2.36683e-18
3506.76138 2.68903e-18
3508.23388 2.55550e-18
3509.70638 2.73009e-18
3511.17887 2.75992e-18
3512.64136 2.33360e-18
3514.11386 2.71637e-18
3515.58635 3.04595e-18
3517.05885 2.98180e-18
3518.52134 2.74130e-18
3519.99383 2.57733e-18
3521.46633 2.54120e-18
3522.93883 2.31003e-18
3524.40131 2.57156e-18
3525.87381 2.86479e-18
3527.34631 3.05290e-18
3528.81881 3.05714e-18
3530.28129 2.59957e-18
3531.75379 2.61299e-18
3533.22629 2.59780e-18
3534.69879 2.77141e-18
3536.16127 2.87152e-18
3537.63377 2.38800e-18
3539.10627 2.53343e-18
3540.57877 2.79448e-18
3542.04125 2.70169e-18
3543.51375 2.68856e-18
3544.98625 2.54181e-18
3546.45875 2.76868e-18
3547.92123 2.65441e-18
3549.39373 2.43902e-18
3550.86623 2.55207e-18
3552.32871 2.76751e-18
3553.80121 2.47503e-18
3555.27371 2.32889e-18
3556.74621 2.45763e-18
3558.21871 2.56358e-18
3559.68119 2.59693e-18
3561.15369 2.76085e-18
3562.62619 2.66377e-18
3564.08867 2.70889e-18
3565.56117 3.04298e-18
3567.03367 2.69004e-18
3568.50616 2.22033e-18
3569.96865 2.50116e-18
3571.44115 2.81991e-18
3572.91365 2.68393e-18
3574.38614 2.91306e-18
3575.84863 2.69934e-18
3577.32112 2.27287e-18
3578.79362 2.70128e-18
3580.26612 2.92129e-18
3581.72861 2.59118e-18
3583.20110 2.60172e-18
3584.67360 2.93078e-18
3586.14610 2.52194e-18
3587.60858 2.39239e-18
3589.08108 2.59483e-18
3590.55358 2.54176e-18
3592.02608 2.52771e-18
3593.48856 2.62637e-18
3594.96106 2.91307e-18
3596.43356 3.10941e-18
3597.90606 3.29153e-18
3599.36854 3.45091e-18
3600.84104 3.29407e-18
3602.31354 3.16033e-18
3603.78604 2.99768e-18
3605.24852 3.04353e-18
3606.72102 3.18713e-18
3608.19352 3.19614e-18
3609.66602 3.02375e-18
3611.12850 2.61056e-18
3612.60100 2.75861e-18
3614.07350 2.96579e-18
3615.54600 3.10899e-18
3617.00848 2.77711e-18
3618.48098 2.40859e-18
3619.95348 2.79028e-18
3621.42598 2.72744e-18
3622.88846 2.37369e-18
3624.36096 2.40782e-18
3625.83346 2.41542e-18
3627.30596 2.43969e-18
3628.76844 2.61795e-18
3630.24094 3.00742e-18
3631.71344 2.65838e-18
3633.18593 2.44917e-18
3634.64842 2.44416e-18
3636.12091 2.36393e-18
3637.59341 2.51906e-18
3639.06591 2.44406e-18
3640.52839 2.46300e-18
3642.00089 2.49987e-18
3643.47339 2.67302e-18
3644.94589 2.80142e-18
3646.40837 2.36210e-18
3647.88087 2.27749e-18
3649.35337 2.55540e-18
3650.81585 2.65718e-18
3652.28835 2.67848e-18
3653.76085 2.93392e-18
3655.23335 3.10701e-18
3656.69583 2.88962e-18
3658.16833 2.87470e-18
3659.64083 3.10996e-18
3661.11333 3.23043e-18
3662.57581 3.20212e-18
3664.04831 3.17700e-18
3665.52081 3.04923e-18
3666.99331 3.05835e-18
3668.45579 3.26022e-18
3669.92829 3.31138e-18
3671.40079 3.37209e-18
3672.87329 3.45179e-18
3674.33577 3.46304e-18
3675.80827 3.59639e-18
3677.28077 3.57616e-18
3678.75327 3.68041e-18
3680.21575 3.94420e-18
3681.68825 4.19087e-18
3683.16075 4.00964e-18
3684.63325 3.96631e-18
3686.09573 4.11227e-18
3687.56823 3.98179e-18
3689.04073 4.15074e-18
3690.51323 4.07489e-18
3691.97571 4.14806e-18
3693.44821 4.30252e-18
3694.92070 4.42986e-18
3696.39320 4.78727e-18
3697.85569 4.65824e-18
3699.32819 4.56893e-18
3700.80068 4.67362e-18
3702.27318 4.81742e-18
3703.73567 4.40399e-18
3705.20816 4.41954e-18
3706.68066 4.43450e-18
3708.15316 4.38968e-18
3709.61564 4.58654e-18
3711.08814 4.66279e-18
3712.56064 4.59671e-18
3714.03314 4.43434e-18
3715.49562 4.35069e-18
3716.96812 4.26708e-18
3718.44062 4.19289e-18
3719.91312 4.11872e-18
3721.37560 4.04457e-18
3722.84810 3.97043e-18
3724.32060 3.89631e-18
3725.79310 3.82220e-18
3727.25558 3.74809e-18
3728.72808 3.67402e-18
3730.20058 3.59995e-18
3731.67308 3.52589e-18
3733.13556 3.45186e-18
3734.60806 3.37784e-18
3736.08056 3.30384e-18
3737.55306 3.22984e-18
3739.01554 3.15586e-18
3740.48804 3.08189e-18
3741.96054 3.00793e-18
3743.42302 2.93400e-18
3744.89552 2.86008e-18
3746.36802 2.78616e-18
3747.84052 2.71228e-18
3749.30300 2.63839e-18
3750.77550 2.56453e-18
3752.24800 2.49066e-18
3753.72050 2.41682e-18
3755.18298 2.26879e-18
3756.65548 2.24863e-18
3758.12798 2.29782e-18
3759.60047 2.32865e-18
3761.06296 2.35089e-18
3762.53546 2.32767e-18
3764.00795 2.42263e-18
3765.48045 2.36931e-18
3766.94294 2.12743e-18
3768.41543 2.03190e-18
3769.88793 2.08477e-18
3771.36043 1.98613e-18
3772.82291 1.94410e-18
3774.29541 1.98858e-18
3775.76791 1.83425e-18
3777.24041 1.89602e-18
3778.70289 1.73368e-18
3780.17539 1.83678e-18
3781.64789 1.77235e-18
3783.12039 1.77051e-18
3784.58287 1.79211e-18
3786.05537 1.68810e-18
3787.52787 1.76811e-18
3789.00037 1.93042e-18
3790.46285 2.10653e-18
3791.93535 2.08520e-18
3793.40785 2.09689e-18
3794.88035 2.13055e-18
3796.34283 1.98014e-18
3797.81533 1.78082e-18
3799.28783 1.85526e-18
3800.76033 1.92324e-18
3802.22281 1.95245e-18
3803.69531 1.86197e-18
3805.16781 1.71027e-18
3806.64031 1.77355e-18
3808.10279 1.93758e-18
3809.57529 1.91366e-18
3811.04779 1.97833e-18
3812.52029 2.13473e-18
3813.98277 2.11905e-18
3815.45527 2.00082e-18
3816.92776 2.01810e-18
3818.40026 2.19465e-18
3819.86275 2.20547e-18
3821.33525 2.15850e-18
3822.80774 2.38824e-18
3824.28024 2.39045e-18
3825.74273 2.22202e-18
3827.21522 2.27980e-18
3828.68772 2.33584e-18
3830.16022 2.30453e-18
3831.62270 2.37750e-18
3833.09520 2.48848e-18
3834.56770 2.61768e-18
3836.03018 2.65576e-18
3837.50268 2.69889e-18
3838.97518 2.79248e-18
3840.44768 2.59481e-18
3841.92018 2.53263e-18
3843.38266 2.69030e-18
3844.85516 2.95622e-18
3846.32766 2.99867e-18
3847.79014 3.03935e-18
3849.26264 3.03229e-18
3850.73514 3.06011e-18
3852.20764 2.96257e-18
3853.67012 3.24407e-18
3855.14262 3.63665e-18
3856.61512 3.55314e-18
3858.08762 3.61222e-18
3859.55010 3.86222e-18
3861.02260 3.89070e-18
3862.49510 3.97335e-18
3863.96760 4.12674e-18
3865.43008 4.25411e-18
3866.90258 4.15745e-18
3868.37508 4.44096e-18
3869.84758 4.79955e-18
3871.31006 4.94919e-18
3872.78256 4.77423e-18
3874.25506 4.86424e-18
3875.72756 4.98743e-18
3877.19004 5.46110e-18
3878.66254 5.55372e-18
3880.13504 5.86982e-18
3881.60753 5.95266e-18
3883.07002 6.03117e-18
3884.54252 6.26533e-18
3886.01501 6.30723e-18
3887.48751 6.59687e-18
3888.94999 6.88722e-18
3890.42249 7.07822e-18
3891.89499 7.34891e-18
3893.36749 7.30228e-18
3894.82997 7.46397e-18
3896.30247 7.60234e-18
3897.77497 7.67353e-18
3899.24747 7.64458e-18
3900.70995 7.82001e-18
3902.18245 8.20789e-18
3903.65495 8.37747e-18
3905.12745 8.26400e-18
3906.58993 8.53598e-18
3908.06243 8.79421e-18
3909.53493 8.62480e-18
3911.00743 8.57731e-18
3912.46991 8.82090e-18
3913.94241 9.09345e-18
3915.41491 9.41680e-18
3916.88741 9.22357e-18
3918.34989 8.97654e-18
3919.82239 9.02466e-18
3921.29489 9.36624e-18
3922.76739 9.64227e-18
3924.22987 9.44513e-18
3925.70237 9.59731e-18
3927.17487 9.58912e-18
3928.64737 8.98540e-18
3930.10985 8.67393e-18
3931.58235 8.55133e-18
3933.05485 8.37515e-18
3934.51733 8.74425e-18
3935.98983 8.77041e-18
3937.46233 8.81361e-18
3938.93483 8.80088e-18
3940.39731 8.71343e-18
3941.86981 8.68529e-18
3943.34231 8.82216e-18
3944.81480 9.13494e-18
3946.27729 9.15890e-18
3947.74979 8.95618e-18
3949.22228 8.81203e-18
3950.69478 8.70230e-18
3952.15726 8.59582e-18
3953.62976 8.56838e-18
3955.10226 8.46947e-18
3956.57476 8.53042e-18
3958.03724 8.68104e-18
3959.50974 8.32630e-18
3960.98224 8.06376e-18
3962.45474 8.02588e-18
3963.91722 8.10226e-18
3965.38972 7.67608e-18
3966.86222 7.54370e-18
3968.33472 7.53836e-18
3969.79720 7.57124e-18
3971.26970 7.24020e-18
3972.74220 7.38647e-18
3974.21470 7.59320e-18
3975.67718 7.70035e-18
3977.14968 7.92100e-18
3978.62218 7.69656e-18
3980.09468 7.59956e-18
3981.55716 7.46490e-18
3983.02966 7.57195e-18
3984.50216 7.59566e-18
3985.97466 7.63623e-18
3987.43714 7.90985e-18
3988.90964 7.89066e-18
3990.38214 7.91451e-18
3991.85464 7.90100e-18
3993.31712 7.89130e-18
3994.78962 8.32261e-18
3996.26212 8.60265e-18
3997.73461 8.46301e-18
3999.19710 8.53354e-18
4000.66960 8.74007e-18
4002.14210 8.79616e-18
4003.61459 8.70845e-18
4005.07708 8.96971e-18
4006.54958 9.44063e-18
4008.02207 9.59497e-18
4009.49457 9.80035e-18
4010.95706 1.00175e-17
4012.42955 1.00897e-17
4013.90205 1.01416e-17
4015.37455 1.03964e-17
4016.83703 1.06137e-17
4018.30953 1.07606e-17
4019.78203 1.11739e-17
4021.25453 1.11143e-17
4022.71701 1.10491e-17
4024.18951 1.15245e-17
4025.66201 1.19700e-17
4027.12449 1.21749e-17
4028.59699 1.24002e-17
4030.06949 1.25795e-17
4031.54199 1.25678e-17
4033.00447 1.26032e-17
4034.47697 1.26746e-17
4035.94947 1.26319e-17
4037.42197 1.27557e-17
4038.88445 1.31316e-17
4040.35695 1.29572e-17
4041.82945 1.27281e-17
4043.30195 1.30092e-17
4044.76443 1.29517e-17
4046.23693 1.26910e-17
4047.70943 1.24607e-17
4049.18193 1.22400e-17
4050.64441 1.20107e-17
4052.11691 1.21076e-17
4053.58941 1.19892e-17
4055.06191 1.17204e-17
4056.52439 1.14729e-17
4057.99689 1.14927e-17
4059.46939 1.13527e-17
4060.94189 1.10074e-17
4062.40437 1.07242e-17
4063.87687 1.07106e-17
4065.34937 1.07156e-17
4066.82186 1.02597e-17
4068.28435 1.02194e-17
4069.75684 1.01465e-17
4071.22934 9.97364e-18
4072.70184 9.81032e-18
4074.16433 9.82176e-18
4075.63682 9.53637e-18
4077.10932 9.40216e-18
4078.58182 9.18552e-18
4080.04430 8.89065e-18
4081.51680 8.78833e-18
4082.98930 8.90718e-18
4084.46180 8.46626e-18
4085.92428 8.12733e-18
4087.39678 7.96882e-18
4088.86928 7.97209e-18
4090.34178 7.91322e-18
4091.80426 7.76552e-18
4093.27676 7.61560e-18
4094.74926 7.56054e-18
4096.22176 7.31742e-18
4097.68424 7.12754e-18
4099.15674 7.16669e-18
4100.62924 7.20419e-18
4102.10174 6.88809e-18
4103.56422 6.92843e-18
4105.03672 6.89376e-18
4106.50922 6.83800e-18
4107.98172 6.97407e-18
4109.44420 6.81888e-18
4110.91670 6.53431e-18
4112.38920 6.40086e-18
4113.86170 6.24183e-18
4115.32418 6.13236e-18
4116.79668 5.97331e-18
4118.26918 6.09627e-18
4119.74168 5.87912e-18
4121.20416 5.81904e-18
4122.67666 5.77141e-18
4124.14916 5.60757e-18
4125.62165 5.77191e-18
4127.08414 5.77286e-18
4128.55663 5.63829e-18
4130.02913 5.62911e-18
4131.49162 5.63724e-18
4132.96411 5.46343e-18
4134.43661 5.53824e-18
4135.90911 5.56946e-18
4137.37160 5.61594e-18
4138.84409 5.59283e-18
4140.31659 5.61351e-18
4141.78909 5.61828e-18
4143.25157 5.48434e-18
4144.72407 5.39706e-18
4146.19657 5.43613e-18
4147.66907 5.51981e-18
4149.13155 5.49833e-18
4150.60405 5.42914e-18
4152.07655 5.56547e-18
4153.54905 5.54201e-18
4155.01153 5.37933e-18
4156.48403 5.56787e-18
4157.95653 5.78072e-18
4159.42903 5.75566e-18
4160.89151 5.82110e-18
4162.36401 5.99469e-18
4163.83651 6.03846e-18
4165.30901 5.81181e-18
4166.77149 5.66565e-18
4168.24399 5.78476e-18
4169.71649 5.85934e-18
4171.18899 5.79662e-18
4172.65147 5.73839e-18
4174.12397 5.78966e-18
4175.59647 5.79254e-18
4177.06897 5.55002e-18
4178.53145 5.34109e-18
4180.00395 5.26374e-18
4181.47645 5.36789e-18
4182.94895 5.54297e-18
4184.41143 5.54706e-18
4185.88393 5.31421e-18
4187.35642 5.19617e-18
4188.82892 5.31688e-18
4190.29141 5.16352e-18
4191.76390 5.02974e-18
4193.23640 5.07588e-18
4194.70890 5.29282e-18
4196.17139 5.16753e-18
4197.64388 4.99996e-18
4199.11638 5.12527e-18
4200.58888 5.12985e-18
4202.05136 4.93937e-18
4203.52386 5.00944e-18
4204.99636 4.98639e-18
4206.46886 4.98202e-18
4207.93134 5.13275e-18
4209.40384 5.10317e-18
4210.87634 5.20625e-18
4212.34884 5.07713e-18
4213.81132 5.10472e-18
4215.28382 5.14275e-18
4216.75632 5.13585e-18
4218.21880 5.50598e-18
4219.69130 5.45261e-18
4221.16380 5.53191e-18
4222.63630 5.41585e-18
4224.10880 5.38190e-18
4225.57128 5.66452e-18
4227.04378 5.67564e-18
4228.51628 5.63341e-18
4229.97876 5.68136e-18
4231.45126 5.77838e-18
4232.92376 5.75362e-18
4234.39626 5.86647e-18
4235.85874 5.83329e-18
4237.33124 5.79580e-18
4238.80374 5.92879e-18
4240.27624 6.00537e-18
4241.73872 6.11342e-18
4243.21122 6.10937e-18
4244.68372 6.22338e-18
4246.15621 6.48239e-18
4247.61870 6.31424e-18
4249.09120 6.24851e-18
4250.56370 6.23612e-18
4252.03619 6.41368e-18
4253.49868 6.39207e-18
4254.97118 6.28622e-18
4256.44367 6.31639e-18
4257.91617 6.54212e-18
4259.37865 6.37730e-18
4260.85115 6.36919e-18
4262.32365 6.49369e-18
4263.79615 6.41014e-18
4265.25863 6.60820e-18
4266.73113 6.29520e-18
4268.20363 6.35060e-18
4269.67613 6.35514e-18
4271.13861 6.32995e-18
4272.61111 6.31332e-18
4274.08361 6.22361e-18
4275.55611 6.15962e-18
4277.01859 6.24591e-18
4278.49109 6.20448e-18
4279.96359 6.14988e-18
4281.43609 5.86757e-18
4282.89857 6.04816e-18
4284.37107 6.04757e-18
4285.84357 5.81180e-18
4287.31607 5.96783e-18
4288.77855 5.94011e-18
4290.25105 5.98272e-18
4291.72355 6.09956e-18
4293.19605 6.04951e-18
4294.65853 6.12884e-18
4296.13103 6.08215e-18
4297.60353 6.05469e-18
4299.07603 5.97924e-18
4300.53851 6.16047e-18
4302.01101 6.38180e-18
4303.48351 6.21985e-18
4304.95601 6.04373e-18
4306.41849 6.18370e-18
4307.89099 6.21628e-18
4309.36349 6.17552e-18
4310.83598 6.46974e-18
4312.29847 6.40383e-18
4313.77096 6.20790e-18
4315.24346 6.24440e-18
4316.70595 6.20969e-18
4318.17845 6.28348e-18
4319.65094 6.37025e-18
4321.12344 6.39688e-18
4322.58593 6.56443e-18
4324.05842 6.45070e-18
4325.53092 6.32593e-18
4327.00342 6.41848e-18
4328.46590 6.41833e-18
4329.93840 6.41732e-18
4331.41090 6.63476e-18
4332.88340 6.58827e-18
4334.34588 6.53634e-18
4335.81838 6.51232e-18
4337.29088 6.40667e-18
4338.76338 6.43739e-18
4340.22586 6.45017e-18
4341.69836 6.48058e-18
4343.17086 6.53019e-18
4344.64336 6.79924e-18
4346.10584 7.17433e-18
4347.57834 7.17777e-18
4349.05084 7.08202e-18
4350.52334 6.90411e-18
4351.98582 6.71010e-18
4353.45832 6.70044e-18
4354.93082 6.69077e-18
4356.40332 6.68110e-18
4357.86580 6.67144e-18
4359.33830 6.66177e-18
4360.81080 6.65211e-18
4362.28330 6.64245e-18
4363.74578 6.63279e-18
4365.21828 6.62313e-18
4366.69078 6.61347e-18
4368.16327 6.60381e-18
4369.62576 6.59415e-18
4371.09826 6.58450e-18
4372.57075 6.57484e-18
4374.04325 6.56519e-18
4375.50574 6.55553e-18
4376.97824 6.54588e-18
4378.45073 6.53623e-18
4379.92323 6.52658e-18
4381.38572 6.51693e-18
4382.85821 6.50728e-18
4384.33071 6.49764e-18
4385.80321 6.48799e-18
4387.26569 6.47835e-18
4388.73819 6.46870e-18
4390.21069 6.32023e-18
4391.68319 6.34191e-18
4393.14567 6.43434e-18
4394.61817 6.28981e-18
4396.09067 6.26390e-18
4397.56317 6.23422e-18
4399.02565 6.24755e-18
4400.49815 6.19312e-18
4401.97065 6.19514e-18
4403.43313 6.20201e-18
4404.90563 6.03853e-18
4406.37813 6.05859e-18
4407.85063 6.05966e-18
4409.31311 5.95437e-18
4410.78561 6.04137e-18
4412.25811 5.96351e-18
4413.73061 6.04221e-18
4415.20311 5.98500e-18
4416.66559 5.76228e-18
4418.13809 5.77866e-18
4419.61059 5.62296e-18
4421.07307 5.40331e-18
4422.54557 5.50801e-18
4424.01807 5.63830e-18
4425.49057 5.35188e-18
4426.95305 5.35662e-18
4428.42555 5.34689e-18
4429.89805 5.37298e-18
4431.37055 5.44949e-18
4432.83303 5.37122e-18
4434.30553 5.34599e-18
4435.77803 5.43874e-18
4437.25052 5.27110e-18
4438.71301 5.37427e-18
4440.18550 5.40486e-18
4441.65800 5.49674e-18
4443.13050 5.43698e-18
4444.59299 5.29610e-18
4446.06548 5.42236e-18
4447.53798 5.41675e-18
4449.01048 5.33125e-18
4450.47296 5.49087e-18
4451.94546 5.64067e-18
4453.41796 5.60548e-18
4454.89046 5.46678e-18
4456.35294 5.63636e-18
4457.82544 5.64736e-18
4459.29794 5.66163e-18
4460.77044 5.83681e-18
4462.23292 5.81594e-18
4463.70542 5.86607e-18
4465.17792 6.14217e-18
4466.65042 6.06198e-18
4468.11290 6.06182e-18
4469.58540 6.35659e-18
4471.05790 6.37169e-18
4472.53040 6.25947e-18
4473.99288 6.41420e-18
4475.46538 6.55635e-18
4476.93788 6.83391e-18
4478.41038 6.74130e-18
4479.87286 7.01855e-18
4481.34536 7.17142e-18
4482.81786 7.21568e-18
4484.29036 7.32312e-18
4485.75284 7.34557e-18
4487.22534 7.57739e-18
4488.69784 7.78342e-18
4490.16032 7.89922e-18
4491.63282 8.08318e-18
4493.10532 7.84023e-18
4494.57781 7.95995e-18
4496.05031 8.35100e-18
4497.51280 8.66351e-18
4498.98530 8.66808e-18
4500.45779 8.98964e-18
4501.93029 9.04349e-18
4503.39278 9.19860e-18
4504.86527 9.39530e-18
4506.33777 9.48468e-18
4507.80026 9.65870e-18
4509.27275 9.75859e-18
4510.74525 1.01785e-17
4512.21775 1.04548e-17
4513.68023 1.05877e-17
4515.15273 1.07227e-17
4516.62523 1.08738e-17
4518.09773 1.13318e-17
4519.56021 1.13698e-17
4521.03271 1.12839e-17
4522.50521 1.16353e-17
4523.97771 1.19449e-17
4525.44019 1.18679e-17
4526.91269 1.21866e-17
4528.38519 1.25180e-17
4529.85769 1.24151e-17
4531.32017 1.25356e-17
4532.79267 1.29307e-17
4534.26517 1.28958e-17
4535.73767 1.30793e-17
4537.20015 1.29386e-17
4538.67265 1.30669e-17
4540.14515 1.31072e-17
4541.61765 1.33618e-17
4543.08013 1.34487e-17
4544.55263 1.32814e-17
4546.02513 1.33401e-17
4547.49763 1.33646e-17
4548.96011 1.32302e-17
4550.43261 1.33134e-17
4551.90511 1.33238e-17
4553.37760 1.31600e-17
4554.84009 1.30524e-17
4556.31259 1.33507e-17
4557.78509 1.33022e-17
4559.25758 1.32345e-17
4560.72007 1.32397e-17
4562.19257 1.33898e-17
4563.66506 1.35871e-17
4565.13756 1.40619e-17
4566.60005 1.40798e-17
4568.07254 1.39435e-17
4569.54504 1.40341e-17
4571.01754 1.41460e-17
4572.48002 1.46882e-17
4573.95252 1.49028e-17
4575.42502 1.47360e-17
4576.89752 1.48346e-17
4578.36000 1.48609e-17
4579.83250 1.49778e-17
4581.30500 1.48937e-17
4582.77750 1.49592e-17
4584.23998 1.52754e-17
4585.71248 1.51225e-17
4587.18498 1.52630e-17
4588.65748 1.52709e-17
4590.11996 1.51044e-17
4591.59246 1.48879e-17
4593.06496 1.50933e-17
4594.52744 1.51744e-17
4595.99994 1.50341e-17
4597.47244 1.50159e-17
4598.94494 1.53054e-17
4600.40742 1.55538e-17
4601.87992 1.55201e-17
4603.35242 1.56449e-17
4604.82492 1.57134e-17
4606.29742 1.57816e-17
4607.75990 1.61497e-17
4609.23240 1.62732e-17
4610.70490 1.64727e-17
4612.16738 1.64171e-17
4613.63988 1.67220e-17
4615.11238 1.67778e-17
4616.58488 1.68523e-17
4618.04736 1.67899e-17
4619.51986 1.71370e-17
4620.99235 1.72952e-17
4622.46485 1.69799e-17
4623.92734 1.69154e-17
4625.39984 1.72141e-17
4626.87233 1.72898e-17
4628.34483 1.73186e-17
4629.80732 1.72441e-17
4631.27981 1.73366e-17
4632.75231 1.72276e-17
4634.22481 1.72938e-17
4635.68729 1.74063e-17
4637.15979 1.71853e-17
4638.63229 1.70479e-17
4640.10479 1.69154e-17
4641.56727 1.68386e-17
4643.03977 1.66950e-17
4644.51227 1.68226e-17
4645.98477 1.68617e-17
4647.44725 1.67942e-17
4648.91975 1.65645e-17
4650.39225 1.65413e-17
4651.86475 1.62189e-17
4653.32723 1.60865e-17
4654.79973 1.59715e-17
4656.27223 1.57066e-17
4657.74473 1.55983e-17
4659.20721 1.54470e-17
4660.67971 1.52871e-17
4662.15221 1.51250e-17
4663.62471 1.50648e-17
4665.08719 1.44269e-17
4666.55969 1.42756e-17
4668.03219 1.43717e-17
4669.50469 1.41978e-17
4670.96717 1.38658e-17
4672.43967 1.36314e-17
4673.91217 1.35647e-17
4675.38466 1.33730e-17
4676.84715 1.31216e-17
4678.31965 1.28040e-17
4679.79215 1.25073e-17
4681.26464 1.23105e-17
4682.72713 1.22110e-17
4684.19963 1.20697e-17
4685.67212 1.19963e-17
4687.14462 1.19191e-17
4688.60711 1.17195e-17
4690.07960 1.13505e-17
4691.55210 1.11724e-17
4693.02460 1.09373e-17
4694.48708 1.10395e-17
4695.95958 1.10731e-17
4697.43208 1.09340e-17
4698.89456 1.07888e-17
4700.36706 1.05687e-17
4701.83956 1.03834e-17
4703.31206 1.07308e-17
4704.77454 1.08393e-17
4706.24704 1.07680e-17
4707.71954 1.07991e-17
4709.19204 1.10500e-17
4710.65452 1.10169e-17
4712.12702 1.11203e-17
4713.59952 1.13500e-17
4715.07202 1.14290e-17
4716.53450 1.13180e-17
4718.00700 1.12699e-17
4719.47950 1.13550e-17
4720.95200 1.14457e-17
4722.41448 1.15659e-17
4723.88698 1.16058e-17
4725.35948 1.15115e-17
4726.83198 1.14996e-17
4728.29446 1.14674e-17
4729.76696 1.15268e-17
4731.23946 1.14157e-17
4732.71196 1.14349e-17
4734.17444 1.13826e-17
4735.64694 1.14187e-17
4737.11944 1.14130e-17
4738.59194 1.14118e-17
4740.05442 1.12139e-17
4741.52692 1.14784e-17
4742.99942 1.14584e-17
4744.47191 1.12962e-17
4745.93440 1.12832e-17
4747.40690 1.10899e-17
4748.87939 1.11846e-17
4750.35189 1.12098e-17
4751.81437 1.11397e-17
4753.28687 1.11201e-17
4754.75937 1.11825e-17
4756.23187 1.11345e-17
4757.69435 1.12531e-17
4759.16685 1.12776e-17
4760.63935 1.11314e-17
4762.11185 1.11527e-17
4763.57433 1.12326e-17
4765.04683 1.09220e-17
4766.51933 1.10070e-17
4767.99183 1.09951e-17
4769.45431 1.06990e-17
4770.92681 1.07400e-17
4772.39931 1.07308e-17
4773.87181 1.06536e-17
4775.33429 1.07636e-17
4776.80679 1.06763e-17
4778.27929 1.05771e-17
4779.75179 1.06876e-17
4781.21427 1.04038e-17
4782.68677 1.02436e-17
4784.15927 1.02185e-17
4785.62175 1.00753e-17
4787.09425 9.93793e-18
4788.56675 9.76800e-18
4790.03925 9.83762e-18
4791.51175 9.66148e-18
4792.97423 9.47666e-18
4794.44673 9.49479e-18
4795.91923 9.20900e-18
4797.38171 9.12899e-18
4798.85421 8.95588e-18
4800.32671 8.81652e-18
4801.79921 8.77554e-18
4803.26169 8.58895e-18
4804.73419 8.49247e-18
4806.20669 8.21586e-18
4807.67918 8.09004e-18
4809.14167 8.08101e-18
4810.61416 8.19822e-18
4812.08666 8.10139e-18
4813.55916 7.90532e-18
4815.02165 7.74606e-18
4816.49414 7.79787e-18
4817.96664 7.87858e-18
4819.43914 7.70150e-18
4820.90162 7.82097e-18
4822.37412 7.84078e-18
4823.84662 7.77901e-18
4825.31912 7.84890e-18
4826.78160 7.92203e-18
4828.25410 7.87282e-18
4829.72660 7.88621e-18
4831.19910 8.02203e-18
4832.66158 8.07598e-18
4834.13408 8.20306e-18
4835.60658 8.41362e-18
4837.07908 8.58084e-18
4838.54156 8.64071e-18
4840.01406 8.62075e-18
4841.48656 8.83086e-18
4842.95906 9.09576e-18
4844.42154 9.21007e-18
4845.89404 9.46387e-18
4847.36654 9.66289e-18
4848.83904 9.79201e-18
4850.30152 9.80072e-18
4851.77402 9.84145e-18
4853.24652 9.88220e-18
4854.71902 9.92294e-18
4856.18150 9.96368e-18
4857.65400 1.00044e-17
4859.12650 1.00451e-17
4860.59900 1.00858e-17
4862.06148 1.01265e-17
4863.53398 1.01672e-17
4865.00648 1.02079e-17
4866.47897 1.02486e-17
4867.94146 1.02893e-17
4869.41395 1.03299e-17
4870.88645 1.03706e-17
4872.35895 1.04113e-17
4873.82144 1.04519e-17
4875.29393 1.04926e-17
4876.76643 1.05332e-17
4878.23893 1.05738e-17
4879.70141 1.06145e-17
4881.17391 1.06551e-17
4882.64641 1.06957e-17
4884.10889 1.07363e-17
4885.58139 1.07769e-17
4887.05389 1.08175e-17
4888.52639 1.08581e-17
4889.98887 1.07680e-17
4891.46137 1.04168e-17
4892.93387 1.01285e-17
4894.40637 9.82931e-18
4895.86885 9.64527e-18
4897.34135 9.53263e-18
4898.81385 9.64823e-18
4900.28635 9.52570e-18
4901.74883 9.48348e-18
4903.22133 9.10941e-18
4904.69383 9.11428e-18
4906.16633 9.17313e-18
4907.62881 8.69348e-18
4909.10131 8.60165e-18
4910.57381 8.66940e-18
4912.04631 8.70759e-18
4913.50879 8.62544e-18
4914.98129 8.61630e-18
4916.45379 8.57331e-18
4917.92629 8.48135e-18
4919.38877 8.54983e-18
4920.86127 8.71303e-18
4922.33377 8.79841e-18
4923.80627 8.88328e-18
4925.26875 8.89650e-18
4926.74125 8.93285e-18
4928.21375 9.12933e-18
4929.68624 8.98354e-18
4931.14873 9.23100e-18
4932.62122 9.38379e-18
4934.09372 9.37036e-18
4935.56622 9.60444e-18
4937.02870 9.59069e-18
4938.50120 9.61102e-18
4939.97370 9.79443e-18
4941.44620 1.00522e-17
4942.90868 1.00762e-17
4944.38118 1.01521e-17
4945.85368 1.03971e-17
4947.32618 1.05360e-17
4948.78866 1.05205e-17
4950.26116 1.06301e-17
4951.73366 1.07396e-17
4953.20616 1.08492e-17
4954.66864 1.09587e-17
4956.14114 1.10681e-17
4957.61364 1.11776e-17
4959.08614 1.12871e-17
4960.54862 1.13965e-17
4962.02112 1.15059e-17
4963.49362 1.16153e-17
4964.96612 1.17246e-17
4966.42860 1.18340e-17
4967.90110 1.19434e-17
4969.37360 1.20527e-17
4970.84610 1.21620e-17
4972.30858 1.22713e-17
4973.78108 1.23806e-17
4975.25358 1.24898e-17
4976.72608 1.25991e-17
4978.18856 1.27082e-17
4979.66106 1.28175e-17
4981.13356 1.29266e-17
4982.60606 1.30358e-17
4984.06854 1.31450e-17
4985.54104 1.32541e-17
4987.01354 1.35447e-17
4988.47602 1.36006e-17
4989.94852 1.35052e-17
4991.42101 1.35531e-17
4992.89351 1.36862e-17
4994.35600 1.35610e-17
4995.82850 1.34118e-17
4997.30099 1.32515e-17
4998.77349 1.30912e-17
5000.23598 1.29309e-17
5001.70847 1.27707e-17
5003.18097 1.26105e-17
5004.65347 1.24503e-17
5006.11595 1.22901e-17
5007.58845 1.21300e-17
5009.06095 1.19699e-17
5010.53345 1.18098e-17
5011.99593 1.16498e-17
5013.46843 1.14897e-17
5014.94093 1.13298e-17
5016.41343 1.11698e-17
5017.87591 1.10098e-17
5019.34841 1.08499e-17
5020.82091 1.06899e-17
5022.29341 1.05301e-17
5023.75589 1.03702e-17
5025.22839 1.02104e-17
5026.70089 1.00506e-17
5028.17339 9.89086e-18
5029.63587 9.73113e-18
5031.10837 9.57144e-18
5032.58087 9.41171e-18
5034.05337 9.25200e-18
5035.51585 8.80343e-18
5036.98835 8.76761e-18
5038.46085 8.58507e-18
5039.93335 8.33992e-18
5041.39583 8.13078e-18
5042.86833 8.12377e-18
5044.34083 7.91885e-18
5045.81333 7.76101e-18
5047.27581 7.60135e-18
5048.74831 7.52348e-18
5050.22080 7.58828e-18
5051.69330 7.40610e-18
5053.15579 7.32823e-18
5054.62829 7.41204e-18
5056.10078 7.31350e-18
5057.57328 7.19511e-18
5059.03576 7.31083e-18
5060.50826 7.30693e-18
5061.98076 7.23487e-18
5063.45326 7.35325e-18
5064.91574 7.37280e-18
5066.38824 7.27417e-18
5067.86074 7.35651e-18
5069.33324 7.42139e-18
5070.79572 7.49020e-18
5072.26822 7.55418e-18
5073.74072 7.48363e-18
5075.20320 7.70583e-18
5076.67570 7.76580e-18
5078.14820 7.80811e-18
5079.62070 7.94995e-18
5081.08318 7.96182e-18
5082.55568 8.12095e-18
5084.02818 8.11502e-18
5085.50068 8.30345e-18
5086.96316 8.60263e-18
5088.43566 8.63680e-18
5089.90816 8.76820e-18
5091.38066 8.91338e-18
5092.84314 9.20537e-18
5094.31564 9.20670e-18
5095.78814 9.24522e-18
5097.26064 9.27104e-18
5098.72312 9.38526e-18
5100.19562 9.57439e-18
5101.66812 9.73850e-18
5103.14062 9.76542e-18
5104.60310 9.68409e-18
5106.07560 9.83152e-18
5107.54810 9.87382e-18
5109.02060 1.00601e-17
5110.48308 1.03604e-17
5111.95558 1.03588e-17
5113.42807 1.03341e-17
5114.90057 1.05977e-17
5116.36306 1.06247e-17
5117.83555 1.06953e-17
5119.30805 1.07512e-17
5120.78055 1.09195e-17
5122.24304 1.09456e-17
5123.71553 1.11722e-17
5125.18803 1.13616e-17
5126.66053 1.12906e-17
5128.12301 1.13038e-17
5129.59551 1.13295e-17
5131.06801 1.14965e-17
5132.54051 1.15481e-17
5134.00299 1.16686e-17
5135.47549 1.15881e-17
5136.94799 1.14439e-17
5138.42049 1.16350e-17
5139.88297 1.15983e-17
5141.35547 1.17716e-17
5142.82797 1.18191e-17
5144.30047 1.15792e-17
5145.76295 1.15753e-17
5147.23545 1.17028e-17
5148.70795 1.17856e-17
5150.18045 1.17903e-17
5151.64293 1.18375e-17
5153.11543 1.18272e-17
5154.58793 1.18767e-17
5156.06043 1.18828e-17
5157.52291 1.19015e-17
5158.99541 1.19535e-17
5160.46791 1.19511e-17
5161.93039 1.21006e-17
5163.40289 1.21202e-17
5164.87539 1.21686e-17
5166.34789 1.20920e-17
5167.82038 1.21692e-17
5169.28287 1.22861e-17
5170.75537 1.24447e-17
5172.22786 1.25325e-17
5173.70036 1.24618e-17
5175.16285 1.24233e-17
5176.63535 1.24821e-17
5178.10784 1.23842e-17
5179.57033 1.22537e-17
5181.04283 1.22560e-17
5182.51532 1.21749e-17
5183.98782 1.21215e-17
5185.45030 1.21693e-17
5186.92280 1.21539e-17
5188.39530 1.21430e-17
5189.86780 1.21531e-17
5191.33028 1.21266e-17
5192.80278 1.21597e-17
5194.27528 1.21642e-17
5195.74778 1.22027e-17
5197.21026 1.21808e-17
5198.68276 1.21851e-17
5200.15526 1.21068e-17
5201.62776 1.20745e-17
5203.09024 1.20356e-17
5204.56274 1.20261e-17
5206.03524 1.22938e-17
5207.50774 1.22836e-17
5208.97022 1.20946e-17
5210.44272 1.21390e-17
5211.91522 1.22517e-17
5213.38772 1.22583e-17
5214.85020 1.20874e-17
5216.32270 1.20787e-17
5217.79520 1.20142e-17
5219.26770 1.20126e-17
5220.73018 1.21023e-17
5222.20268 1.21105e-17
5223.67518 1.20771e-17
5225.14768 1.22205e-17
5226.61016 1.21275e-17
5228.08266 1.22487e-17
5229.55516 1.22327e-17
5231.02765 1.22550e-17
5232.49014 1.23580e-17
5233.96264 1.24126e-17
5235.43514 1.22812e-17
5236.90763 1.24554e-17
5238.37012 1.25984e-17
5239.84261 1.26760e-17
5241.31511 1.28299e-17
5242.78761 1.29725e-17
5244.25010 1.31561e-17
5245.72259 1.32551e-17
5247.19509 1.32841e-17
5248.66759 1.34615e-17
5250.13007 1.35079e-17
5251.60257 1.36449e-17
5253.07507 1.36755e-17
5254.54757 1.35894e-17
5256.01005 1.37073e-17
5257.48255 1.38928e-17
5258.95505 1.39322e-17
5260.42755 1.40733e-17
5261.89003 1.40562e-17
5263.36253 1.38669e-17
5264.83503 1.41318e-17
5266.29751 1.42484e-17
5267.77001 1.43367e-17
5269.24251 1.45048e-17
5270.71501 1.46257e-17
5272.17749 1.46653e-17
5273.64999 1.44758e-17
5275.12249 1.44716e-17
5276.59499 1.46132e-17
5278.05747 1.45444e-17
5279.52997 1.45268e-17
5281.00247 1.45892e-17
5282.47497 1.46423e-17
5283.93745 1.45297e-17
5285.40995 1.43696e-17
5286.88245 1.43477e-17
5288.35495 1.44033e-17
5289.81743 1.44420e-17
5291.28993 1.46460e-17
5292.76243 1.47320e-17
5294.23492 1.45784e-17
5295.69741 1.45912e-17
5297.16991 1.47039e-17
5298.64240 1.48667e-17
5300.11490 1.50661e-17
5301.57739 1.49023e-17
5303.04989 1.48157e-17
5304.52238 1.50011e-17
5305.99488 1.51250e-17
5307.45737 1.52392e-17
5308.92986 1.54061e-17
5310.40236 1.54332e-17
5311.87486 1.53702e-17
5313.33734 1.54750e-17
5314.80984 1.56266e-17
5316.28234 1.57458e-17
5317.75484 1.57586e-17
5319.21732 1.59364e-17
5320.68982 1.61871e-17
5322.16232 1.62047e-17
5323.63482 1.60135e-17
5325.09730 1.59280e-17
5326.56980 1.61916e-17
5328.04230 1.63753e-17
5329.51480 1.62157e-17
5330.97728 1.61192e-17
5332.44978 1.60974e-17
5333.92228 1.60498e-17
5335.39478 1.62267e-17
5336.85726 1.63866e-17
5338.32976 1.62750e-17
5339.80226 1.60779e-17
5341.27476 1.61067e-17
5342.73724 1.62270e-17
5344.20974 1.61848e-17
5345.68224 1.61324e-17
5347.15474 1.61111e-17
5348.61722 1.61702e-17
5350.08972 1.63979e-17
5351.56222 1.64371e-17
5353.03471 1.62252e-17
5354.49720 1.63045e-17
5355.96970 1.64860e-17
5357.44220 1.64030e-17
5358.90468 1.63880e-17
5360.37718 1.65294e-17
5361.84968 1.67077e-17
5363.32217 1.66548e-17
5364.79467 1.67348e-17
5366.25716 1.68136e-17
5367.72965 1.66695e-17
5369.20215 1.68407e-17
5370.66464 1.70619e-17
5372.13713 1.70306e-17
5373.60963 1.70225e-17
5375.08213 1.71410e-17
5376.54461 1.72340e-17
5378.01711 1.73201e-17
5379.48961 1.73380e-17
5380.96211 1.72594e-17
5382.42459 1.72359e-17
5383.89709 1.73181e-17
5385.36959 1.72262e-17
5386.84209 1.72060e-17
5388.30457 1.71800e-17
5389.77707 1.69769e-17
5391.24957 1.68662e-17
5392.72207 1.69372e-17
5394.18455 1.68865e-17
5395.65705 1.67173e-17
5397.12955 1.66110e-17
5398.60205 1.63748e-17
5400.06453 1.63043e-17
5401.53703 1.62039e-17
5403.00953 1.59497e-17
5404.48203 1.58198e-17
5405.94451 1.56383e-17
5407.41701 1.55596e-17
5408.88951 1.54590e-17
5410.36201 1.52654e-17
5411.82449 1.52435e-17
5413.29699 1.49888e-17
5414.76949 1.47410e-17
5416.24199 1.46598e-17
5417.70447 1.45580e-17
5419.17697 1.43312e-17
5420.64947 1.44042e-17
5422.12196 1.44981e-17
5423.58445 1.41726e-17
5425.05695 1.39894e-17
5426.52944 1.40316e-17
5428.00194 1.37524e-17
5429.46443 1.36367e-17
5430.93692 1.35635e-17
5432.40942 1.35414e-17
5433.88192 1.33480e-17
5435.34440 1.35114e-17
5436.81690 1.34049e-17
5438.28940 1.32342e-17
5439.76190 1.32815e-17
5441.22438 1.34148e-17
5442.69688 1.33138e-17
5444.16938 1.35455e-17
5445.64188 1.35468e-17
5447.10436 1.34333e-17
5448.57686 1.34604e-17
5450.04936 1.36162e-17
5451.52186 1.36894e-17
5452.98434 1.38128e-17
5454.45684 1.40168e-17
5455.92934 1.42582e-17
5457.39182 1.42456e-17
5458.86432 1.43186e-17
5460.33682 1.45433e-17
5461.80932 1.47245e-17
5463.27180 1.48553e-17
5464.74430 1.50528e-17
5466.21680 1.53434e-17
5467.68930 1.56762e-17
5469.15178 1.57849e-17
5470.62428 1.59152e-17
5472.09678 1.62428e-17
5473.56928 1.64992e-17
5475.03176 1.67067e-17
5476.50426 1.67908e-17
5477.97676 1.70134e-17
5479.44925 1.70546e-17
5480.91174 1.72976e-17
5482.38424 1.75602e-17
5483.85674 1.77269e-17
5485.32923 1.79130e-17
5486.79172 1.81745e-17
5488.26422 1.84234e-17
5489.73671 1.84468e-17
5491.20921 1.86293e-17
5492.67170 1.87102e-17
5494.14419 1.87692e-17
5495.61669 1.90187e-17
5497.08919 1.92776e-17
5498.55167 1.92968e-17
5500.02417 1.91427e-17
5501.49667 1.92411e-17
5502.96917 1.93504e-17
5504.43165 1.94895e-17
5505.90415 1.93754e-17
5507.37665 1.93706e-17
5508.84915 1.92884e-17
5510.31163 1.92124e-17
5511.78413 1.90714e-17
5513.25663 1.88366e-17
5514.72913 1.87310e-17
5516.19161 1.89709e-17
5517.66411 1.87372e-17
5519.13661 1.86380e-17
5520.60911 1.86420e-17
5522.07159 1.88056e-17
5523.54409 1.85810e-17
5525.01659 1.83077e-17
5526.48909 1.81733e-17
5527.95157 1.82196e-17
5529.42407 1.79841e-17
5530.89657 1.79138e-17
5532.36907 1.77291e-17
5533.83155 1.72966e-17
5535.30405 1.73080e-17
5536.77655 1.72920e-17
5538.24905 1.71925e-17
5539.71153 1.68802e-17
5541.18403 1.66460e-17
5542.65653 1.64073e-17
5544.12902 1.61804e-17
5545.59151 1.59398e-17
5547.06401 1.57402e-17
5548.53650 1.55624e-17
5549.99899 1.53413e-17
5551.47149 1.51910e-17
5552.94398 1.50528e-17
5554.41648 1.46796e-17
5555.87896 1.44266e-17
5557.35146 1.44004e-17
5558.82396 1.42964e-17
5560.29646 1.40446e-17
5561.75894 1.38461e-17
5563.23144 1.37322e-17
5564.70394 1.34913e-17
5566.17644 1.33250e-17
5567.63892 1.31961e-17
5569.11142 1.32240e-17
5570.58392 1.33585e-17
5572.05642 1.32732e-17
5573.51890 1.31126e-17
5574.99140 1.31070e-17
5576.46390 1.31279e-17
5577.93640 1.30991e-17
5579.39888 1.31713e-17
5580.87138 1.31173e-17
5582.34388 1.30503e-17
5583.81638 1.32310e-17
5585.27886 1.32918e-17
5586.75136 1.32116e-17
5588.22386 1.33182e-17
5589.69636 1.33525e-17
5591.15884 1.33779e-17
5592.63134 1.35516e-17
5594.10384 1.35760e-17
5595.57634 1.36123e-17
5597.03882 1.39036e-17
5598.51132 1.41254e-17
5599.98382 1.41205e-17
5601.45632 1.41563e-17
5602.91880 1.43652e-17
5604.39130 1.45995e-17
5605.86380 1.47077e-17
5607.33629 1.47922e-17
5608.79878 1.48624e-17
5610.27128 1.48516e-17
5611.74377 1.49148e-17
5613.21627 1.51616e-17
5614.67875 1.53067e-17
5616.15125 1.53628e-17
5617.62375 1.55805e-17
5619.09625 1.55528e-17
5620.55873 1.56038e-17
5622.03123 1.59079e-17
5623.50373 1.60454e-17
5624.97623 1.61094e-17
5626.43871 1.60730e-17
5627.91121 1.61540e-17
5629.38371 1.62757e-17
5630.85621 1.63689e-17
5632.31869 1.64027e-17
5633.79119 1.63389e-17
5635.26369 1.63789e-17
5636.73619 1.64145e-17
5638.19867 1.64507e-17
5639.67117 1.64172e-17
5641.14367 1.62867e-17
5642.60615 1.63585e-17
5644.07865 1.64682e-17
5645.55115 1.66124e-17
5647.02365 1.66417e-17
5648.49615 1.65797e-17
5649.95863 1.63452e-17
5651.43113 1.64613e-17
5652.90363 1.65148e-17
5654.36611 1.62306e-17
5655.83861 1.61655e-17
5657.31111 1.62011e-17
5658.78361 1.62348e-17
5660.24609 1.62834e-17
5661.71859 1.61909e-17
5663.19109 1.62350e-17
5664.66359 1.61804e-17
5666.12607 1.58757e-17
5667.59857 1.56209e-17
5669.07107 1.55550e-17
5670.54356 1.56130e-17
5672.00605 1.55849e-17
5673.47855 1.54092e-17
5674.95104 1.51778e-17
5676.42354 1.49191e-17
5677.88602 1.48568e-17
5679.35852 1.48239e-17
5680.83102 1.47172e-17
5682.30352 1.46995e-17
5683.76600 1.43764e-17
5685.23850 1.41098e-17
5686.71100 1.40520e-17
5688.18350 1.38564e-17
5689.64598 1.36170e-17
5691.11848 1.34100e-17
5692.59098 1.32920e-17
5694.06348 1.30876e-17
5695.52596 1.28907e-17
5696.99846 1.28032e-17
5698.47096 1.26282e-17
5699.94346 1.23455e-17
5701.40594 1.22773e-17
5702.87844 1.20718e-17
5704.35094 1.17591e-17
5705.82344 1.16375e-17
5707.28592 1.15375e-17
5708.75842 1.13297e-17
5710.23092 1.11371e-17
5711.70342 1.09499e-17
5713.16590 1.08337e-17
5714.63840 1.07448e-17
5716.11090 1.05418e-17
5717.58340 1.03726e-17
5719.04588 1.03046e-17
5720.51838 1.01561e-17
5721.99088 1.00238e-17
5723.46338 9.87625e-18
5724.92586 9.60322e-18
5726.39836 9.55449e-18
5727.87086 9.46642e-18
5729.34335 9.41727e-18
5730.80584 9.25466e-18
5732.27833 9.06171e-18
5733.75083 8.89187e-18
5735.22333 8.84544e-18
5736.68581 8.86153e-18
5738.15831 8.73582e-18
5739.63081 8.72876e-18
5741.09330 8.55610e-18
5742.56579 8.35744e-18
5744.03829 8.19949e-18
5745.51079 8.13818e-18
5746.97327 8.00966e-18
5748.44577 7.86599e-18
5749.91827 7.89533e-18
5751.39077 7.90635e-18
5752.85325 7.78135e-18
5754.32575 7.74354e-18
5755.79825 7.78084e-18
5757.27075 7.78934e-18
5758.73323 7.74044e-18
5760.20573 7.78430e-18
5761.67823 7.74969e-18
5763.15073 7.73277e-18
5764.61321 7.73449e-18
5766.08571 7.77708e-18
5767.55821 7.72895e-18
5769.03071 7.68969e-18
5770.49319 7.80513e-18
5771.96569 7.82906e-18
5773.43819 7.83728e-18
5774.91069 7.78824e-18
5776.37317 7.77650e-18
5777.84567 7.83310e-18
5779.31817 7.86470e-18
5780.79067 7.91521e-18
5782.25315 7.98023e-18
5783.72565 8.10883e-18
5785.19815 8.16372e-18
5786.67065 8.23981e-18
5788.13313 8.41016e-18
5789.60563 8.52348e-18
5791.07812 8.62460e-18
5792.55062 8.75513e-18
5794.01311 8.84202e-18
5795.48560 9.00501e-18
5796.95810 9.29604e-18
5798.43060 9.50909e-18
5799.89309 9.61296e-18
5801.36558 9.84590e-18
5802.83808 1.00294e-17
5804.31058 1.01050e-17
5805.77306 1.03935e-17
5807.24556 1.07091e-17
5808.71806 1.10399e-17
5810.19056 1.14315e-17
5811.65304 1.17269e-17
5813.12554 1.19749e-17
5814.59804 1.23127e-17
5816.07054 1.25920e-17
5817.53302 1.28020e-17
5819.00552 1.32065e-17
5820.47802 1.35491e-17
5821.95052 1.37033e-17
5823.41300 1.38167e-17
5824.88550 1.39592e-17
5826.35800 1.42670e-17
5827.83050 1.45951e-17
5829.29298 1.48280e-17
5830.76548 1.50605e-17
5832.23798 1.53008e-17
5833.70046 1.53886e-17
5835.17296 1.54946e-17
5836.64546 1.56636e-17
5838.11796 1.57855e-17
5839.58044 1.58971e-17
5841.05294 1.60869e-17
5842.52544 1.63550e-17
5843.99794 1.63923e-17
5845.46042 1.63490e-17
5846.93292 1.64547e-17
5848.40542 1.65895e-17
5849.87792 1.67262e-17
5851.34040 1.68872e-17
5852.81290 1.69387e-17
5854.28540 1.68630e-17
5855.75789 1.69530e-17
5857.22038 1.70944e-17
5858.69288 1.70024e-17
5860.16537 1.70142e-17
5861.63787 1.71269e-17
5863.10035 1.72213e-17
5864.57285 1.75108e-17
5866.04535 1.76380e-17
5867.51785 1.75997e-17
5868.98033 1.76038e-17
5870.45283 1.74905e-17
5871.92533 1.74581e-17
5873.39783 1.75528e-17
5874.86031 1.74893e-17
5876.33281 1.74273e-17
5877.80531 1.75120e-17
5879.27781 1.74870e-17
5880.74029 1.74910e-17
5882.21279 1.74412e-17
5883.68529 1.73240e-17
5885.15779 1.72848e-17
5886.62027 1.69657e-17
5888.09277 1.64087e-17
5889.56527 1.60171e-17
5891.03777 1.60161e-17
5892.50025 1.60759e-17
5893.97275 1.61112e-17
5895.44525 1.59291e-17
5896.91775 1.59581e-17
5898.38023 1.62590e-17
5899.85273 1.60944e-17
5901.32523 1.60355e-17
5902.79773 1.62446e-17
5904.26021 1.63542e-17
5905.73271 1.64547e-17
5907.20521 1.65297e-17
5908.67771 1.65959e-17
5910.14019 1.66031e-17
5911.61269 1.65562e-17
5913.08519 1.65598e-17
5914.55768 1.66181e-17
5916.02017 1.67111e-17
5917.49266 1.63966e-17
5918.96516 1.62598e-17
5920.43766 1.62903e-17
5921.90015 1.62330e-17
5923.37264 1.63215e-17
5924.84514 1.64667e-17
5926.31764 1.65085e-17
5927.78012 1.65297e-17
5929.25262 1.67361e-17
5930.72512 1.67944e-17
5932.18760 1.66850e-17
5933.66010 1.66934e-17
5935.13260 1.67576e-17
5936.60510 1.67648e-17
5938.06758 1.66972e-17
5939.54008 1.65213e-17
5941.01258 1.64230e-17
5942.48508 1.63747e-17
5943.94756 1.64616e-17
5945.42006 1.64332e-17
5946.89256 1.64692e-17
5948.36506 1.65114e-17
5949.82754 1.63323e-17
5951.30004 1.61403e-17
5952.77254 1.63663e-17
5954.24504 1.65374e-17
5955.70752 1.64081e-17
5957.18002 1.64554e-17
5958.65252 1.64130e-17
5960.12502 1.62924e-17
5961.58750 1.64122e-17
5963.06000 1.64228e-17
5964.53250 1.64170e-17
5966.00500 1.64230e-17
5967.46748 1.64060e-17
5968.93998 1.62330e-17
5970.41248 1.63307e-17
5971.88497 1.63124e-17
5973.34746 1.62683e-17
5974.81996 1.62722e-17
5976.29245 1.62647e-17
5977.76495 1.64219e-17
5979.22744 1.64456e-17
5980.69994 1.61537e-17
5982.17243 1.60172e-17
5983.64493 1.62228e-17
5985.10742 1.63579e-17
5986.57991 1.62806e-17
5988.05241 1.61479e-17
5989.52491 1.59661e-17
5990.98739 1.58056e-17
5992.45989 1.58764e-17
5993.93239 1.58796e-17
5995.40489 1.56031e-17
5996.86737 1.53943e-17
5998.33987 1.54330e-17
5999.81237 1.53371e-17
6001.28487 1.52038e-17
6002.74735 1.52415e-17
6004.21985 1.51581e-17
6005.69235 1.49893e-17
6007.16485 1.49164e-17
6008.62733 1.49506e-17
6010.09983 1.48989e-17
6011.57233 1.46589e-17
6013.04483 1.46229e-17
6014.50731 1.47068e-17
6015.97981 1.45806e-17
6017.45231 1.45327e-17
6018.92481 1.44878e-17
6020.38729 1.43377e-17
6021.85979 1.43638e-17
6023.33229 1.43673e-17
6024.80479 1.41244e-17
6026.26727 1.40249e-17
6027.73977 1.41529e-17
6029.21227 1.40442e-17
6030.67475 1.38165e-17
6032.14725 1.38520e-17
6033.61975 1.39022e-17
6035.09225 1.37927e-17
6036.55473 1.37191e-17
6038.02723 1.38000e-17
6039.49973 1.38484e-17
6040.97222 1.37312e-17
6042.43471 1.35365e-17
6043.90720 1.34856e-17
6045.37970 1.35398e-17
6046.85220 1.35617e-17
6048.31469 1.35844e-17
6049.78718 1.34361e-17
6051.25968 1.32775e-17
6052.73218 1.33271e-17
6054.19466 1.33949e-17
6055.66716 1.33395e-17
6057.13966 1.31704e-17
6058.61216 1.29944e-17
6060.07464 1.29647e-17
6061.54714 1.30763e-17
6063.01964 1.30624e-17
6064.49214 1.29411e-17
6065.95462 1.30108e-17
6067.42712 1.30386e-17
6068.89962 1.28351e-17
6070.37212 1.28239e-17
6071.83460 1.30773e-17
6073.30710 1.31656e-17
6074.77960 1.31202e-17
6076.25210 1.32955e-17
6077.71458 1.35267e-17
6079.18708 1.34813e-17
6080.65958 1.34259e-17
6082.13208 1.35108e-17
6083.59456 1.36121e-17
6085.06706 1.37395e-17
6086.53956 1.38424e-17
6088.01206 1.39572e-17
6089.47454 1.39468e-17
6090.94704 1.39833e-17
6092.41954 1.41472e-17
6093.89204 1.41358e-17
6095.35452 1.41564e-17
6096.82702 1.42684e-17
6098.29951 1.42171e-17
6099.77201 1.41633e-17
6101.23450 1.41600e-17
6102.70700 1.42720e-17
6104.17949 1.44159e-17
6105.65199 1.43041e-17
6107.11448 1.42201e-17
6108.58697 1.42796e-17
6110.05947 1.42904e-17
6111.53197 1.43360e-17
6112.99445 1.42934e-17
6114.46695 1.41430e-17
6115.93945 1.41915e-17
6117.40193 1.42282e-17
6118.87443 1.42208e-17
6120.34693 1.41502e-17
6121.81943 1.41744e-17
6123.29193 1.41867e-17
6124.75441 1.39583e-17
6126.22691 1.38668e-17
6127.69941 1.39369e-17
6129.16189 1.38510e-17
6130.63439 1.37047e-17
6132.10689 1.36601e-17
6133.57939 1.35767e-17
6135.04187 1.35572e-17
6136.51437 1.34774e-17
6137.98687 1.32858e-17
6139.45937 1.32213e-17
6140.92185 1.31650e-17
6142.39435 1.29972e-17
6143.86685 1.28878e-17
6145.33935 1.29459e-17
6146.80183 1.30013e-17
6148.27433 1.29120e-17
6149.74683 1.27785e-17
6151.21933 1.27329e-17
6152.68181 1.25837e-17
6154.15431 1.24544e-17
6155.62681 1.24451e-17
6157.09930 1.25600e-17
6158.56179 1.26576e-17
6160.03429 1.25604e-17
6161.50679 1.25790e-17
6162.97928 1.27320e-17
6164.44177 1.28720e-17
6165.91427 1.29257e-17
6167.38676 1.29376e-17
6168.85926 1.29958e-17
6170.32175 1.31013e-17
6171.79424 1.32170e-17
6173.26674 1.33162e-17
6174.73924 1.34386e-17
6176.20172 1.34991e-17
6177.67422 1.35239e-17
6179.14672 1.36942e-17
6180.61922 1.38084e-17
6182.08170 1.38718e-17
6183.55420 1.39149e-17
6185.02670 1.39936e-17
6186.49920 1.41072e-17
6187.96168 1.41774e-17
6189.43418 1.43122e-17
6190.90668 1.43769e-17
6192.37918 1.45548e-17
6193.84166 1.46559e-17
6195.31416 1.45760e-17
6196.78666 1.47198e-17
6198.25916 1.47004e-17
6199.72164 1.46270e-17
6201.19414 1.48558e-17
6202.66664 1.50907e-17
6204.12912 1.50360e-17
6205.60162 1.50141e-17
6207.07412 1.52805e-17
6208.54662 1.53696e-17
6210.01912 1.53398e-17
6211.48160 1.53632e-17
6212.95410 1.54915e-17
6214.42660 1.55268e-17
6215.89910 1.54616e-17
6217.36158 1.54765e-17
6218.83408 1.54093e-17
6220.30658 1.55329e-17
6221.76906 1.54832e-17
6223.24156 1.51855e-17
6224.71405 1.52959e-17
6226.18655 1.54743e-17
6227.64904 1.54301e-17
6229.12154 1.53424e-17
6230.59403 1.53278e-17
6232.06653 1.53951e-17
6233.52902 1.53665e-17
6235.00151 1.52996e-17
6236.47401 1.52996e-17
6237.94651 1.51984e-17
6239.40899 1.50648e-17
6240.88149 1.50257e-17
6242.35399 1.50093e-17
6243.82649 1.49515e-17
6245.28897 1.49373e-17
6246.76147 1.49815e-17
6248.23397 1.49866e-17
6249.70647 1.49977e-17
6251.16895 1.49555e-17
6252.64145 1.48375e-17
6254.11395 1.46908e-17
6255.58645 1.45994e-17
6257.04893 1.45705e-17
6258.52143 1.45433e-17
6259.99393 1.45354e-17
6261.46643 1.46101e-17
6262.92891 1.46822e-17
6264.40141 1.46548e-17
6265.87391 1.45609e-17
6267.34641 1.45697e-17
6268.80889 1.45664e-17
6270.28139 1.43051e-17
6271.75389 1.42466e-17
6273.22639 1.44011e-17
6274.68887 1.43554e-17
6276.16137 1.42674e-17
6277.63387 1.43010e-17
6279.10636 1.41995e-17
6280.56885 1.39545e-17
6282.04135 1.37950e-17
6283.51385 1.38524e-17
6284.98634 1.40385e-17
6286.44883 1.40348e-17
6287.92133 1.39238e-17
6289.39382 1.38754e-17
6290.86632 1.38927e-17
6292.32881 1.37984e-17
6293.80130 1.38167e-17
6295.27380 1.40325e-17
6296.74630 1.40254e-17
6298.20878 1.40162e-17
6299.68128 1.40883e-17
6301.15378 1.41034e-17
6302.62628 1.39604e-17
6304.08876 1.37871e-17
6305.56126 1.38293e-17
6307.03376 1.38543e-17
6308.49624 1.38155e-17
6309.96874 1.38716e-17
6311.44124 1.39285e-17
6312.91374 1.39587e-17
6314.37622 1.38912e-17
6315.84872 1.38353e-17
6317.32122 1.37822e-17
6318.79372 1.36793e-17
6320.26622 1.35648e-17
6321.72870 1.34475e-17
6323.20120 1.33635e-17
6324.67370 1.31028e-17
6326.13618 1.30380e-17
6327.60868 1.29958e-17
6329.08118 1.30183e-17
6330.55368 1.30477e-17
6332.01616 1.29532e-17
6333.48866 1.29217e-17
6334.96116 1.28164e-17
6336.43366 1.27864e-17
6337.89614 1.27126e-17
6339.36864 1.26073e-17
6340.84114 1.25153e-17
6342.31364 1.25249e-17
6343.77612 1.26126e-17
6345.24862 1.27420e-17
6346.72112 1.27123e-17
6348.19361 1.25604e-17
6349.65610 1.24475e-17
6351.12860 1.23031e-17
6352.60109 1.21743e-17
6354.07359 1.20273e-17
6355.53607 1.20508e-17
6357.00857 1.21358e-17
6358.48107 1.20732e-17
6359.95357 1.19467e-17
6361.41605 1.18198e-17
6362.88855 1.18235e-17
6364.36105 1.18847e-17
6365.83355 1.17804e-17
6367.29603 1.17976e-17
6368.76853 1.19055e-17
6370.24103 1.20402e-17
6371.71353 1.21808e-17
6373.17601 1.21429e-17
6374.64851 1.22672e-17
6376.12101 1.24393e-17
6377.59351 1.24178e-17
6379.05599 1.24585e-17
6380.52849 1.25277e-17
6382.00099 1.26552e-17
6383.47349 1.27145e-17
6384.93597 1.26496e-17
6386.40847 1.26671e-17
6387.88097 1.27440e-17
6389.35347 1.28688e-17
6390.81595 1.28859e-17
6392.28845 1.28629e-17
6393.76095 1.29206e-17
6395.23345 1.30003e-17
6396.69593 1.30062e-17
6398.16843 1.31241e-17
6399.64093 1.32306e-17
6401.11343 1.31301e-17
6402.57591 1.30530e-17
6404.04841 1.30467e-17
6405.52091 1.30508e-17
6406.99340 1.31365e-17
6408.45589 1.32536e-17
6409.92839 1.31250e-17
6411.40088 1.30585e-17
6412.86337 1.32720e-17
6414.33587 1.33245e-17
6415.80836 1.32862e-17
6417.28086 1.34673e-17
6418.74335 1.35411e-17
6420.21584 1.35221e-17
6421.68834 1.34606e-17
6423.16084 1.34086e-17
6424.62332 1.34655e-17
6426.09582 1.36097e-17
6427.56832 1.36922e-17
6429.04082 1.36924e-17
6430.50330 1.37117e-17
6431.97580 1.37244e-17
6433.44830 1.37418e-17
6434.92080 1.37994e-17
6436.38328 1.38958e-17
6437.85578 1.39305e-17
6439.32828 1.40574e-17
6440.80078 1.42695e-17
6442.26326 1.43672e-17
6443.73576 1.44244e-17
6445.20826 1.44463e-17
6446.68076 1.45401e-17
6448.14324 1.46314e-17
6449.61574 1.45670e-17
6451.08824 1.46027e-17
6452.56074 1.46097e-17
6454.02322 1.45251e-17
6455.49572 1.45885e-17
6456.96822 1.46733e-17
6458.44072 1.45482e-17
6459.90320 1.44085e-17
6461.37570 1.44418e-17
6462.84820 1.43990e-17
6464.32070 1.43227e-17
6465.78318 1.43178e-17
6467.25568 1.41967e-17
6468.72818 1.39899e-17
6470.20067 1.40012e-17
6471.66316 1.39947e-17
6473.13566 1.38923e-17
6474.60815 1.39046e-17
6476.08065 1.37454e-17
6477.54314 1.36333e-17
6479.01563 1.36504e-17
6480.48813 1.37394e-17
6481.96063 1.37392e-17
6483.42311 1.35617e-17
6484.89561 1.34948e-17
6486.36811 1.34985e-17
6487.84061 1.35820e-17
6489.30309 1.35830e-17
6490.77559 1.35580e-17
6492.24809 1.36073e-17
6493.72059 1.34793e-17
6495.18307 1.33811e-17
6496.65557 1.35295e-17
6498.12807 1.35887e-17
6499.59055 1.36621e-17
6501.06305 1.35736e-17
6502.53555 1.34314e-17
6504.00805 1.33985e-17
6505.47053 1.34701e-17
6506.94303 1.34965e-17
6508.41553 1.34765e-17
6509.88803 1.35144e-17
6511.35051 1.34855e-17
6512.82301 1.34719e-17
6514.29551 1.32861e-17
6515.76801 1.30568e-17
6517.23049 1.31217e-17
6518.70299 1.32486e-17
6520.17549 1.34729e-17
6521.64799 1.35742e-17
6523.11047 1.36040e-17
6524.58297 1.36220e-17
6526.05547 1.37740e-17
6527.52797 1.40165e-17
6528.99045 1.40665e-17
6530.46295 1.38870e-17
6531.93545 1.38553e-17
6533.40794 1.39753e-17
6534.87043 1.41756e-17
6536.34292 1.41420e-17
6537.81542 1.39318e-17
6539.28792 1.40269e-17
6540.75040 1.42537e-17
6542.22290 1.42902e-17
6543.69540 1.42068e-17
6545.16790 1.41890e-17
6546.63038 1.41712e-17
6548.10288 1.41535e-17
6549.57538 1.41357e-17
6551.04788 1.41179e-17
6552.51036 1.41002e-17
6553.98286 1.40824e-17
6555.45536 1.40647e-17
6556.92786 1.40469e-17
6558.39034 1.40292e-17
6559.86284 1.40114e-17
6561.33534 1.39936e-17
6562.80784 1.39759e-17
6564.27032 1.39581e-17
6565.74282 1.39404e-17
6567.21532 1.39226e-17
6568.68782 1.39049e-17
6570.15030 1.38872e-17
6571.62280 1.38694e-17
6573.09530 1.38517e-17
6574.56780 1.38339e-17
6576.03028 1.38162e-17
6577.50278 1.37985e-17
6578.97528 1.37807e-17
6580.44778 1.37630e-17
6581.91026 1.37453e-17
6583.38276 1.37275e-17
6584.85526 1.37098e-17
6586.32776 1.36921e-17
6587.79024 1.36743e-17
6589.26274 1.36566e-17
6590.73524 1.36389e-17
6592.20773 1.36212e-17
6593.67022 1.36034e-17
6595.14271 1.35857e-17
6596.61521 1.35680e-17
6598.07770 1.35503e-17
6599.55020 1.35326e-17
6601.02269 1.35149e-17
6602.49519 1.34971e-17
6603.95768 1.34794e-17
6605.43017 1.34617e-17
6606.90267 1.33821e-17
6608.37517 1.34881e-17
6609.83765 1.35384e-17
6611.31015 1.34804e-17
6612.78265 1.34129e-17
6614.25515 1.34971e-17
6615.71763 1.34071e-17
6617.19013 1.32985e-17
6618.66263 1.33975e-17
6620.13513 1.34853e-17
6621.59761 1.33300e-17
6623.07011 1.33511e-17
6624.54261 1.34560e-17
6626.01511 1.33847e-17
6627.47759 1.33419e-17
6628.95009 1.34279e-17
6630.42259 1.32486e-17
6631.89509 1.31058e-17
6633.35757 1.32148e-17
6634.83007 1.32425e-17
6636.30257 1.33675e-17
6637.77507 1.33788e-17
6639.23755 1.33642e-17
6640.71005 1.33943e-17
6642.18255 1.32844e-17
6643.65505 1.31691e-17
6645.11753 1.32615e-17
6646.59003 1.32921e-17
6648.06253 1.31950e-17
6649.53503 1.32433e-17
6650.99751 1.31494e-17
6652.47001 1.30350e-17
6653.94250 1.31413e-17
6655.41500 1.33243e-17
6656.87749 1.33552e-17
6658.34999 1.32874e-17
6659.82248 1.32255e-17
6661.29498 1.31926e-17
6662.75746 1.31720e-17
6664.22996 1.31431e-17
6665.70246 1.31456e-17
6667.17496 1.31214e-17
6668.63744 1.30569e-17
6670.10994 1.30270e-17
6671.58244 1.29770e-17
6673.05494 1.27978e-17
6674.51742 1.26567e-17
6675.98992 1.27877e-17
6677.46242 1.29127e-17
6678.93492 1.28752e-17
6680.39740 1.29074e-17
6681.86990 1.28892e-17
6683.34240 1.27766e-17
6684.80488 1.27040e-17
6686.27738 1.27385e-17
6687.74988 1.28093e-17
6689.22238 1.28349e-17
6690.68486 1.28439e-17
6692.15736 1.26858e-17
6693.62986 1.25099e-17
6695.10236 1.25452e-17
6696.57486 1.24875e-17
6698.03734 1.23395e-17
6699.50984 1.22071e-17
6700.98234 1.21480e-17
6702.44482 1.21535e-17
6703.91732 1.21573e-17
6705.38982 1.20963e-17
6706.86232 1.18356e-17
6708.32480 1.17986e-17
6709.79730 1.19964e-17
6711.26980 1.19847e-17
6712.74230 1.18601e-17
6714.20478 1.17366e-17
6715.67728 1.18212e-17
6717.14977 1.18959e-17
6718.62227 1.17338e-17
6720.08476 1.17289e-17
6721.55725 1.18179e-17
6723.02975 1.17956e-17
6724.50225 1.20775e-17
6725.96474 1.22883e-17
6727.43723 1.21892e-17
6728.90973 1.22016e-17
6730.38223 1.20196e-17
6731.84471 1.18258e-17
6733.31721 1.17844e-17
6734.78971 1.17994e-17
6736.26221 1.17043e-17
6737.72469 1.17371e-17
6739.19719 1.18460e-17
6740.66969 1.21673e-17
6742.14219 1.22131e-17
6743.60467 1.20808e-17
6745.07717 1.20348e-17
6746.54967 1.19690e-17
6748.02217 1.18759e-17
6749.48465 1.19323e-17
6750.95715 1.19759e-17
6752.42965 1.18753e-17
6753.90215 1.19823e-17
6755.36463 1.19696e-17
6756.83713 1.18737e-17
6758.30963 1.18287e-17
6759.78213 1.18990e-17
6761.24461 1.20090e-17
6762.71711 1.20096e-17
6764.18961 1.19541e-17
6765.66211 1.19932e-17
6767.12459 1.22835e-17
6768.59709 1.22739e-17
6770.06959 1.21057e-17
6771.54209 1.20925e-17
6773.00457 1.20992e-17
6774.47707 1.20862e-17
6775.94956 1.21229e-17
6777.42206 1.21604e-17
6778.88455 1.20964e-17
6780.35705 1.21513e-17
6781.82954 1.22143e-17
6783.30204 1.21899e-17
6784.76453 1.21467e-17
6786.23702 1.21740e-17
6787.70952 1.21496e-17
6789.17200 1.22238e-17
6790.64450 1.23641e-17
6792.11700 1.22605e-17
6793.58950 1.23163e-17
6795.05198 1.23265e-17
6796.52448 1.21243e-17
6797.99698 1.21683e-17
6799.46948 1.20754e-17
6800.93196 1.20508e-17
6802.40446 1.21491e-17
6803.87696 1.20569e-17
6805.34946 1.20030e-17
6806.81194 1.20547e-17
6808.28444 1.21819e-17
6809.75694 1.21760e-17
6811.22944 1.20330e-17
6812.69192 1.19891e-17
6814.16442 1.20732e-17
6815.63692 1.21096e-17
6817.10942 1.20836e-17
6818.57190 1.19681e-17
6820.04440 1.20129e-17
6821.51690 1.19682e-17
6822.98940 1.18575e-17
6824.45188 1.17193e-17
6825.92438 1.16577e-17
6827.39688 1.15863e-17
6828.86938 1.15841e-17
6830.33186 1.17123e-17
6831.80436 1.17927e-17
6833.27686 1.16791e-17
6834.74935 1.15808e-17
6836.21184 1.16413e-17
6837.68434 1.15102e-17
6839.15684 1.13787e-17
6840.62933 1.13695e-17
6842.09182 1.14212e-17
6843.56431 1.14910e-17
6845.03681 1.14878e-17
6846.50931 1.14845e-17
6847.97180 1.14812e-17
6849.44429 1.14779e-17
6850.91679 1.14747e-17
6852.38929 1.14714e-17
6853.85177 1.14681e-17
6855.32427 1.14648e-17
6856.79677 1.14616e-17
6858.26927 1.14583e-17
6859.73175 1.14550e-17
6861.20425 1.14517e-17
6862.67675 1.14484e-17
6864.14925 1.14452e-17
6865.61173 1.14419e-17
6867.08423 1.14386e-17
6868.55673 1.14353e-17
6870.02923 1.14321e-17
6871.49171 1.14288e-17
6872.96421 1.14255e-17
6874.43671 1.14223e-17
6875.89919 1.14190e-17
6877.37169 1.14157e-17
6878.84419 1.14124e-17
6880.31669 1.14092e-17
6881.77917 1.14059e-17
6883.25167 1.14026e-17
6884.72417 1.13993e-17
6886.19667 1.13961e-17
6887.66917 1.13928e-17
6889.13165 1.13895e-17
6890.60415 1.13862e-17
6892.07665 1.13830e-17
6893.53913 1.13797e-17
6895.01163 1.13764e-17
6896.48413 1.13732e-17
6897.95662 1.13699e-17
6899.41911 1.13666e-17
6900.89161 1.13633e-17
6902.36410 1.13601e-17
6903.83660 1.13568e-17
6905.29909 1.13535e-17
6906.77159 1.13503e-17
6908.24408 1.13470e-17
6909.71658 1.13437e-17
6911.17907 1.13405e-17
6912.65156 1.13372e-17
6914.12406 1.13339e-17
6915.59656 1.13306e-17
6917.05904 1.13274e-17
6918.53154 1.13241e-17
6920.00404 1.13208e-17
6921.47654 1.13176e-17
6922.93902 1.13143e-17
6924.41152 1.13110e-17
6925.88402 1.13078e-17
6927.35652 1.13045e-17
6928.81900 1.13012e-17
6930.29150 1.12980e-17
6931.76400 1.12947e-17
6933.23650 1.12914e-17
6934.69898 1.12882e-17
6936.17148 1.12849e-17
6937.64398 1.13783e-17
6939.11648 1.14937e-17
6940.57896 1.14008e-17
6942.05146 1.14304e-17
6943.52396 1.14903e-17
6944.99646 1.13528e-17
6946.45894 1.12439e-17
6947.93144 1.14027e-17
6949.40394 1.14850e-17
6950.87644 1.14313e-17
6952.33892 1.14609e-17
6953.81142 1.16586e-17
6955.28392 1.16507e-17
6956.75641 1.15774e-17
6958.21890 1.13939e-17
6959.69140 1.12795e-17
6961.16390 1.12122e-17
6962.62638 1.11424e-17
6964.09888 1.12160e-17
6965.57138 1.11001e-17
6967.04387 1.10506e-17
6968.51637 1.12324e-17
6969.97886 1.11149e-17
6971.45135 1.10177e-17
6972.92385 1.09008e-17
6974.39635 1.08881e-17
6975.85883 1.09599e-17
6977.33133 1.09499e-17
6978.80383 1.09001e-17
6980.26631 1.05471e-17
6981.73881 1.05083e-17
6983.21131 1.05435e-17
6984.68381 1.05268e-17
6986.14629 1.06567e-17
6987.61879 1.06547e-17
6989.09129 1.04109e-17
6990.56379 1.02513e-17
6992.02627 1.02397e-17
6993.49877 1.01258e-17
6994.97127 1.01076e-17
6996.44377 1.00855e-17
6997.90625 1.00481e-17
6999.37875 1.00335e-17
7000.85125 1.00064e-17
7002.32375 9.94569e-18
7003.78623 9.85938e-18
7005.25873 1.00120e-17
7006.73123 9.88469e-18
7008.20373 9.70265e-18
7009.66621 9.81725e-18
7011.13871 9.90680e-18
7012.61121 9.99635e-18
7014.08371 1.00859e-17
7015.54619 1.01754e-17
7017.01869 1.02649e-17
7018.49119 1.03545e-17
7019.96369 1.04440e-17
7021.42617 1.04436e-17
7022.89867 1.05173e-17
7024.37117 1.06090e-17
7025.84366 1.06233e-17
7027.30615 1.05759e-17
7028.77865 1.05313e-17
7030.25114 1.06881e-17
7031.72364 1.07495e-17
7033.18613 1.07616e-17
7034.65862 1.07730e-17
7036.13112 1.09763e-17
7037.60362 1.10522e-17
7039.06610 1.10717e-17
7040.53860 1.11646e-17
7042.01110 1.10513e-17
7043.48360 1.10909e-17
7044.94608 1.10179e-17
7046.41858 1.10908e-17
7047.89108 1.11165e-17
7049.36358 1.11978e-17
7050.82606 1.13112e-17
7052.29856 1.11471e-17
7053.77106 1.10233e-17
7055.24356 1.11503e-17
7056.70604 1.12683e-17
7058.17854 1.12631e-17
7059.65104 1.12899e-17
7061.12354 1.12053e-17
7062.58602 1.12603e-17
7064.05852 1.12673e-17
7065.53102 1.13207e-17
7066.99350 1.13504e-17
7068.46600 1.14802e-17
7069.93850 1.13944e-17
7071.41100 1.13340e-17
7072.88350 1.11658e-17
7074.34598 1.11798e-17
7075.81848 1.11819e-17
7077.29098 1.12172e-17
7078.76348 1.12999e-17
7080.22596 1.12965e-17
7081.69846 1.11813e-17
7083.17095 1.11317e-17
7084.63344 1.11661e-17
7086.10594 1.11136e-17
7087.57844 1.11229e-17
7089.05093 1.10757e-17
7090.51342 1.09475e-17
7091.98592 1.08213e-17
7093.45841 1.08347e-17
7094.93091 1.08537e-17
7096.39340 1.09289e-17
7097.86589 1.08249e-17
7099.33839 1.07650e-17
7100.81089 1.10121e-17
7102.27337 1.09254e-17
7103.74587 1.08743e-17
7105.21837 1.08527e-17
7106.69087 1.07439e-17
7108.15335 1.06906e-17
7109.62585 1.07068e-17
7111.09835 1.06682e-17
7112.57085 1.07340e-17
7114.03333 1.07615e-17
7115.50583 1.06577e-17
7116.97833 1.06735e-17
7118.45083 1.04497e-17
7119.91331 1.04059e-17
7121.38581 1.05420e-17
7122.85831 1.07035e-17
7124.33081 1.05498e-17
7125.79329 1.05218e-17
7127.26579 1.05285e-17
7128.73829 1.05949e-17
7130.21079 1.07199e-17
7131.67327 1.09337e-17
7133.14577 1.08985e-17
7134.61827 1.07608e-17
7136.09077 1.09357e-17
7137.55325 1.10696e-17
7139.02575 1.10631e-17
7140.49825 1.11611e-17
7141.97075 1.12055e-17
7143.43323 1.12939e-17
7144.90573 1.13832e-17
7146.37823 1.13618e-17
7147.85072 1.14209e-17
7149.31321 1.14529e-17
7150.78571 1.14835e-17
7152.25820 1.14228e-17
7153.73070 1.13358e-17
7155.19319 1.12926e-17
7156.66568 1.13863e-17
7158.13818 1.15811e-17
7159.61068 1.15743e-17
7161.07316 1.15263e-17
7162.54566 1.15959e-17
7164.01816 1.17432e-17
7165.49066 1.18909e-17
7166.95314 1.21045e-17
7168.42564 1.21571e-17
7169.89814 1.21306e-17
7171.36062 1.22443e-17
7172.83312 1.22339e-17
7174.30562 1.22868e-17
7175.77812 1.22535e-17
7177.24060 1.23037e-17
7178.71310 1.21949e-17
7180.18560 1.20327e-17
7181.65810 1.21880e-17
7183.12058 1.24080e-17
7184.59308 1.24603e-17
7186.06558 1.24785e-17
7187.53808 1.22399e-17
7189.00056 1.18976e-17
7190.47306 1.20093e-17
7191.94556 1.19458e-17
7193.41806 1.19741e-17
7194.88054 1.20205e-17
7196.35304 1.20120e-17
7197.82554 1.21678e-17
7199.29804 1.24330e-17
7200.76052 1.21916e-17
7202.23302 1.17343e-17
7203.70552 1.16955e-17
7205.17802 1.16269e-17
7206.64050 1.15102e-17
7208.11300 1.13962e-17
7209.58550 1.12501e-17
7211.05799 1.12123e-17
7212.52048 1.12999e-17
7213.99298 1.14014e-17
7215.46547 1.14528e-17
7216.93797 1.13991e-17
7218.40045 1.11540e-17
7219.87295 1.10138e-17
7221.34545 1.12491e-17
7222.81795 1.14010e-17
7224.28043 1.14657e-17
7225.75293 1.16912e-17
7227.22543 1.15636e-17
7228.69793 1.15938e-17
7230.16041 1.18160e-17
7231.63291 1.18947e-17
7233.10541 1.20704e-17
7234.57791 1.22522e-17
7236.04039 1.21216e-17
7237.51289 1.21098e-17
7238.98539 1.21210e-17
7240.45789 1.22332e-17
7241.92037 1.23980e-17
7243.39287 1.21885e-17
7244.86537 1.21888e-17
7246.33787 1.23031e-17
7247.80035 1.22949e-17
7249.27285 1.24138e-17
7250.74535 1.24674e-17
7252.21785 1.24399e-17
7253.68033 1.22943e-17
7255.15283 1.20129e-17
7256.62533 1.19776e-17
7258.08781 1.21338e-17
7259.56031 1.22452e-17
7261.03281 1.23537e-17
7262.50531 1.26418e-17
7263.97780 1.27234e-17
7265.44029 1.22885e-17
7266.91279 1.20347e-17
7268.38529 1.21156e-17
7269.84777 1.23872e-17
7271.32027 1.24892e-17
7272.79277 1.26394e-17
7274.26526 1.29643e-17
7275.72775 1.29415e-17
7277.20025 1.28961e-17
7278.67274 1.27429e-17
7280.14524 1.25017e-17
7281.60772 1.25129e-17
7283.08022 1.25076e-17
7284.55272 1.25299e-17
7286.02522 1.26150e-17
7287.48770 1.28308e-17
7288.96020 1.29627e-17
7290.43270 1.28395e-17
7291.90520 1.30146e-17
7293.36768 1.29384e-17
7294.84018 1.25716e-17
7296.31268 1.25161e-17
7297.78518 1.26667e-17
7299.24766 1.25525e-17
7300.72016 1.25698e-17
7302.19266 1.26076e-17
7303.66516 1.24658e-17
7305.12764 1.25289e-17
7306.60014 1.25612e-17
7308.07264 1.24574e-17
7309.54514 1.23100e-17
7311.00762 1.21896e-17
7312.48012 1.22443e-17
7313.95262 1.22700e-17
7315.42512 1.23681e-17
7316.88760 1.24897e-17
7318.36010 1.23126e-17
7319.83260 1.21802e-17
7321.30510 1.19661e-17
7322.76758 1.20648e-17
7324.24008 1.19737e-17
7325.71258 1.19025e-17
7327.18508 1.20067e-17
7328.64756 1.19360e-17
7330.12006 1.18994e-17
7331.59256 1.19655e-17
7333.06505 1.19751e-17
7334.52754 1.17362e-17
7336.00004 1.17405e-17
7337.47253 1.14084e-17
7338.94503 1.13778e-17
7340.40751 1.14871e-17
7341.88001 1.12546e-17
7343.35251 1.12732e-17
7344.82501 1.13711e-17
7346.28749 1.14912e-17
7347.75999 1.14232e-17
7349.23249 1.12255e-17
7350.70499 1.11319e-17
7352.16747 1.10467e-17
7353.63997 1.08871e-17
7355.11247 1.08762e-17
7356.57495 1.10817e-17
7358.04745 1.11779e-17
7359.51995 1.11481e-17
7360.99245 1.09887e-17
7362.45493 1.08824e-17
7363.92743 1.07800e-17
7365.39993 1.09146e-17
7366.87243 1.11584e-17
7368.33491 1.10455e-17
7369.80741 1.10741e-17
7371.27991 1.07871e-17
7372.75241 1.07846e-17
7374.21489 1.08787e-17
7375.68739 1.09918e-17
7377.15989 1.11949e-17
7378.63239 1.10656e-17
7380.09487 1.09739e-17
7381.56737 1.09998e-17
7383.03987 1.12792e-17
7384.51237 1.13175e-17
7385.97485 1.11408e-17
7387.44735 1.12263e-17
7388.91985 1.11303e-17
7390.39235 1.13406e-17
7391.85483 1.14919e-17
7393.32733 1.13355e-17
7394.79983 1.14857e-17
7396.27232 1.16030e-17
7397.73481 1.13989e-17
7399.20730 1.14014e-17
7400.67980 1.13690e-17
7402.15230 1.11059e-17
7403.61479 1.11210e-17
7405.08728 1.12999e-17
7406.55978 1.11358e-17
7408.03228 1.11833e-17
7409.49476 1.11307e-17
7410.96726 1.11599e-17
7412.43976 1.11988e-17
7413.91226 1.10266e-17
7415.37474 1.11335e-17
7416.84724 1.09913e-17
7418.31974 1.09682e-17
7418.36983 1.09682e-17
7419.23129 1.09737e-17
7420.09275 1.09747e-17
7420.95421 1.09757e-17
7421.82569 1.09736e-17
7422.68715 1.09713e-17
7423.54861 1.09713e-17
7424.41008 1.09713e-17
7425.27154 1.09768e-17
7426.13300 1.09822e-17
7426.99446 1.09918e-17
7427.85592 1.10013e-17
7428.71739 1.10127e-17
7429.57885 1.10240e-17
7430.44031 1.10315e-17
7431.31179 1.10391e-17
7432.17325 1.10387e-17
7433.03471 1.10383e-17
7433.89618 1.10342e-17
7434.75764 1.10302e-17
7435.61910 1.10271e-17
7436.48056 1.10241e-17
7437.34202 1.10232e-17
7438.20349 1.10224e-17
7439.06495 1.10241e-17
7439.92641 1.10258e-17
7440.79789 1.10299e-17
7441.65935 1.10340e-17
7442.52081 1.10392e-17
7443.38227 1.10445e-17
7444.24374 1.10509e-17
7445.10520 1.10572e-17
7445.96666 1.10651e-17
7446.82812 1.10731e-17
7447.68959 1.10779e-17
7448.55105 1.10828e-17
7449.41251 1.10768e-17
7450.28399 1.10708e-17
7451.14545 1.10559e-17
7452.00691 1.10411e-17
7452.86837 1.10273e-17
7453.72984 1.10135e-17
7454.59130 1.10044e-17
7455.45276 1.09954e-17
7456.31422 1.09869e-17
7457.17568 1.09785e-17
7458.03715 1.09687e-17
7458.89861 1.09589e-17
7459.77009 1.09477e-17
7460.63155 1.09364e-17
7461.49301 1.09261e-17
7462.35447 1.09156e-17
7463.21594 1.09159e-17
7464.07740 1.09163e-17
7464.93886 1.09331e-17
7465.80032 1.09499e-17
7466.66178 1.09750e-17
7467.52325 1.10001e-17
7468.38471 1.10243e-17
7469.25619 1.10483e-17
7470.11765 1.10624e-17
7470.97911 1.10764e-17
7471.84057 1.10730e-17
7472.70203 1.10694e-17
7473.56350 1.10572e-17
7474.42496 1.10451e-17
7475.28642 1.10367e-17
7476.14788 1.10284e-17
7477.00934 1.10244e-17
7477.87081 1.10205e-17
7478.73227 1.10179e-17
7479.60375 1.10152e-17
7480.46521 1.10110e-17
7481.32667 1.10069e-17
7482.18813 1.09979e-17
7483.04960 1.09890e-17
7483.91106 1.09766e-17
7484.77252 1.09641e-17
7485.63398 1.09531e-17
7486.49544 1.09421e-17
7487.35690 1.09332e-17
7488.21837 1.09242e-17
7489.08985 1.09139e-17
7489.95131 1.09037e-17
7490.81277 1.08909e-17
7491.67423 1.08781e-17
7492.53569 1.08645e-17
7493.39716 1.08510e-17
7494.25862 1.08376e-17
7495.12008 1.08244e-17
7495.98154 1.08118e-17
7496.84300 1.07991e-17
7497.70447 1.07869e-17
7498.57595 1.07748e-17
7499.43741 1.07611e-17
7500.29887 1.07473e-17
7501.16033 1.07303e-17
7502.02179 1.07134e-17
7502.88325 1.06952e-17
7503.74472 1.06770e-17
7504.60618 1.06593e-17
7505.46764 1.06416e-17
7506.32910 1.06196e-17
7507.19056 1.05975e-17
7508.06204 1.05665e-17
7508.92351 1.05356e-17
7509.78497 1.04964e-17
7510.64643 1.04571e-17
7511.50789 1.04115e-17
7512.36935 1.03660e-17
7513.23082 1.03230e-17
7514.09228 1.02801e-17
7514.95374 1.02517e-17
7515.81520 1.02233e-17
7516.67666 1.02051e-17
7517.54814 1.01869e-17
7518.40960 1.01654e-17
7519.27107 1.01438e-17
7520.13253 1.01133e-17
7520.99399 1.00828e-17
7521.85545 1.00446e-17
7522.71691 1.00064e-17
7523.57838 9.96344e-18
7524.43984 9.92043e-18
7525.30130 9.87899e-18
7526.16276 9.83745e-18
7527.02423 9.79999e-18
7527.89570 9.76243e-18
7528.75717 9.72375e-18
7529.61863 9.68508e-18
7530.48009 9.64173e-18
7531.34155 9.59838e-18
7532.20301 9.55139e-18
7533.06448 9.50449e-18
7533.92594 9.45439e-18
7534.78740 9.40429e-18
7535.64886 9.34753e-18
7536.52034 9.29077e-18
7537.38180 9.22561e-18
7538.24327 9.16046e-18
7539.10473 9.09461e-18
7539.96619 9.02876e-18
7540.82765 8.97018e-18
7541.68911 8.91160e-18
7542.55058 8.86090e-18
7543.41204 8.81019e-18
7544.27350 8.76606e-18
7545.13496 8.72193e-18
7545.99642 8.67754e-18
7546.86790 8.63311e-18
7547.72936 8.57983e-18
7548.59083 8.52653e-18
7549.45229 8.46432e-18
7550.31375 8.40210e-18
7551.17521 8.33526e-18
7552.03667 8.26841e-18
7552.89814 8.20163e-18
7553.75960 8.13486e-18
7554.62106 8.07328e-18
7555.48252 8.01171e-18
7556.35400 7.95646e-18
7557.21546 7.90122e-18
7558.07693 7.84892e-18
7558.93839 7.79662e-18
7559.79985 7.74437e-18
7560.66131 7.69211e-18
7561.52277 7.63846e-18
7562.38424 7.58482e-18
7563.24570 7.52742e-18
7564.10716 7.47002e-18
7564.96862 7.40373e-18
7565.84010 7.33743e-18
7566.70156 7.26219e-18
7567.56302 7.18694e-18
7568.42449 7.11719e-18
7569.28595 7.04746e-18
7570.14741 6.99521e-18
7571.00887 6.94300e-18
7571.87033 6.91001e-18
7572.73180 6.87706e-18
7573.59326 6.86139e-18
7574.45472 6.84576e-18
7575.31618 6.82558e-18
7576.18766 6.80539e-18
7577.04912 6.75672e-18
7577.91059 6.70800e-18
7578.77205 6.64396e-18
7579.63351 6.57989e-18
7580.49497 6.52143e-18
7581.35643 6.46299e-18
7582.21790 6.40680e-18
7583.07936 6.35063e-18
7583.94082 6.28694e-18
7584.81230 6.22325e-18
7585.67376 6.11679e-18
7586.53522 6.01024e-18
7587.39668 5.81204e-18
7588.25815 5.61366e-18
7589.11961 5.33339e-18
7589.98107 5.05297e-18
7590.84253 4.74908e-18
7591.70399 4.44515e-18
7592.56546 4.17326e-18
7593.42692 3.90144e-18
7594.28838 3.71368e-18
7595.15986 3.52608e-18
7596.02132 3.44845e-18
7596.88278 3.37103e-18
7597.74425 3.37837e-18
7598.60571 3.38588e-18
7599.46717 3.46000e-18
7600.32863 3.53425e-18
7601.19009 3.68893e-18
7602.05156 3.84375e-18
7602.91302 4.07936e-18
7603.77448 4.31511e-18
7604.64596 4.60118e-18
7605.50742 4.88734e-18
7606.36888 5.18750e-18
7607.23034 5.48767e-18
7608.09181 5.76494e-18
7608.95327 6.04216e-18
7609.81473 6.25959e-18
7610.67619 6.47689e-18
7611.53765 6.58276e-18
7612.39912 6.68840e-18
7613.26058 6.64113e-18
7614.13206 6.59355e-18
7614.99352 6.39541e-18
7615.85498 6.19698e-18
7616.71644 5.87136e-18
7617.57791 5.54548e-18
7618.43937 5.18960e-18
7619.30083 4.83368e-18
7620.16229 4.57855e-18
7621.02375 4.32364e-18
7621.88522 4.21884e-18
7622.74668 4.11436e-18
7623.61816 4.14951e-18
7624.47962 4.18493e-18
7625.34108 4.31503e-18
7626.20254 4.44531e-18
7627.06400 4.58770e-18
7627.92547 4.73010e-18
7628.78693 4.83881e-18
7629.64839 4.94744e-18
7630.50985 5.03986e-18
7631.37131 5.13223e-18
7632.23278 5.21961e-18
7633.10426 5.30698e-18
7633.96572 5.38888e-18
7634.82718 5.47078e-18
7635.68864 5.54722e-18
7636.55010 5.62365e-18
7637.41157 5.67958e-18
7638.27303 5.73546e-18
7639.13449 5.76325e-18
7639.99595 5.79099e-18
7640.85741 5.81709e-18
7641.71888 5.84317e-18
7642.59035 5.89377e-18
7643.45182 5.94439e-18
7644.31328 6.03066e-18
7645.17474 6.11699e-18
7646.03620 6.24369e-18
7646.89766 6.37046e-18
7647.75913 6.50340e-18
7648.62059 6.63634e-18
7649.48205 6.73241e-18
7650.34351 6.82841e-18
7651.20497 6.87844e-18
7652.06644 6.92838e-18
7652.93792 6.93716e-18
7653.79938 6.94584e-18
7654.66084 6.94642e-18
7655.52230 6.94699e-18
7656.38376 6.99045e-18
7657.24523 7.03399e-18
7658.10669 7.12856e-18
7658.96815 7.22324e-18
7659.82961 7.34090e-18
7660.69107 7.45861e-18
7661.55254 7.57553e-18
7662.42401 7.69245e-18
7663.28548 7.78703e-18
7664.14694 7.88157e-18
7665.00840 7.95253e-18
7665.86986 8.02344e-18
7666.73132 8.11173e-18
7667.59279 8.20006e-18
7668.45425 8.32471e-18
7669.31571 8.44942e-18
7670.17717 8.57158e-18
7671.03863 8.69373e-18
7671.91011 8.78207e-18
7672.77158 8.87033e-18
7673.63304 8.91913e-18
7674.49450 8.96776e-18
7675.35596 8.97918e-18
7676.21742 8.99052e-18
7677.07889 9.01076e-18
7677.94035 9.03093e-18
7678.80181 9.10612e-18
7679.66327 9.18148e-18
7680.52473 9.28445e-18
7681.38620 9.38742e-18
7682.25767 9.47507e-18
7683.11914 9.56281e-18
7683.98060 9.63506e-18
7684.84206 9.70731e-18
7685.70352 9.77628e-18
7686.56498 9.84524e-18
7687.42645 9.91377e-18
7688.28791 9.98221e-18
7689.14937 1.00513e-17
7690.01083 1.01203e-17
7690.88231 1.01833e-17
7691.74377 1.02463e-17
7692.60524 1.02899e-17
7693.46670 1.03336e-17
7694.32816 1.03611e-17
7695.18962 1.03886e-17
7696.05108 1.04204e-17
7696.91255 1.04521e-17
7697.77401 1.04958e-17
7698.63547 1.05395e-17
7699.49693 1.05847e-17
7700.35839 1.06299e-17
7701.22987 1.06680e-17
7702.09133 1.07062e-17
7702.95280 1.07322e-17
7703.81426 1.07579e-17
7704.67572 1.07681e-17
7705.53718 1.07780e-17
7706.39864 1.07730e-17
7707.26011 1.07679e-17
7708.12157 1.07522e-17
7708.98303 1.07366e-17
7709.84449 1.07284e-17
7710.71597 1.07204e-17
7711.57743 1.07360e-17
7712.43890 1.07518e-17
7713.30036 1.07874e-17
7714.16182 1.08230e-17
7715.02328 1.08696e-17
7715.88474 1.09163e-17
7716.74620 1.09596e-17
7717.60767 1.10031e-17
7718.46913 1.10276e-17
7719.33059 1.10523e-17
7720.20207 1.10571e-17
7721.06353 1.10618e-17
7721.92499 1.10524e-17
7722.78646 1.10430e-17
7723.64792 1.10290e-17
7724.50938 1.10151e-17
7725.37084 1.10096e-17
7726.23230 1.10041e-17
7727.09377 1.10113e-17
7727.95523 1.10186e-17
7728.81669 1.10341e-17
7729.67815 1.10498e-17
7730.54963 1.10729e-17
7731.41109 1.10961e-17
7732.27255 1.11316e-17
7733.13402 1.11670e-17
7733.99548 1.12091e-17
7734.85694 1.12511e-17
7735.71840 1.12772e-17
7736.57986 1.13031e-17
7737.44133 1.13001e-17
7738.30279 1.12971e-17
7739.17427 1.12743e-17
7740.03573 1.12516e-17
7740.89719 1.12212e-17
7741.75865 1.11908e-17
7742.62012 1.11709e-17
7743.48158 1.11510e-17
7744.34304 1.11563e-17
7745.20450 1.11616e-17
7746.06596 1.11821e-17
7746.92743 1.12026e-17
7747.78889 1.12246e-17
7748.65035 1.12466e-17
7749.52183 1.12652e-17
7750.38329 1.12837e-17
7751.24475 1.12953e-17
7752.10621 1.13069e-17
7752.96768 1.13115e-17
7753.82914 1.13161e-17
7754.69060 1.13164e-17
7755.55206 1.13166e-17
7756.41352 1.13093e-17
7757.27499 1.13019e-17
7758.13645 1.12810e-17
7759.00793 1.12601e-17
7759.86939 1.12317e-17
7760.73085 1.12031e-17
7761.59231 1.11814e-17
7762.45378 1.11597e-17
7763.31524 1.11482e-17
7764.17670 1.11366e-17
7765.03816 1.11278e-17
7765.89962 1.11189e-17
7766.76109 1.11070e-17
7767.62255 1.10951e-17
7768.49403 1.10757e-17
7769.35549 1.10562e-17
7770.21695 1.10290e-17
7771.07841 1.10018e-17
7771.93988 1.09760e-17
7772.80134 1.09503e-17
7773.66280 1.09328e-17
7774.52426 1.09153e-17
7775.38572 1.09025e-17
7776.24719 1.08898e-17
7777.10865 1.08789e-17
7777.98013 1.08681e-17
7778.84159 1.08607e-17
7779.70305 1.08534e-17
7780.56451 1.08510e-17
7781.42597 1.08487e-17
7782.28744 1.08510e-17
7783.14890 1.08532e-17
7784.01036 1.08591e-17
7784.87182 1.08650e-17
7785.73328 1.08737e-17
7786.59475 1.08825e-17
7787.46623 1.08930e-17
7788.32769 1.09037e-17
7789.18915 1.09131e-17
7790.05061 1.09224e-17
7790.91207 1.09272e-17
7791.77354 1.09319e-17
7792.63500 1.09301e-17
7793.49646 1.09284e-17
7794.35792 1.09197e-17
7795.21938 1.09108e-17
7796.08085 1.08992e-17
7796.94231 1.08875e-17
7797.81379 1.08803e-17
7798.67525 1.08732e-17
7799.53671 1.08762e-17
7800.39817 1.08793e-17
7801.25963 1.08963e-17
7802.12110 1.09133e-17
7802.98256 1.09414e-17
7803.84402 1.09695e-17
7804.70548 1.09944e-17
7805.56694 1.10194e-17
7806.42841 1.10310e-17
7807.29989 1.10426e-17
7808.16135 1.10420e-17
7809.02281 1.10414e-17
7809.88427 1.10306e-17
7810.74573 1.10197e-17
7811.60720 1.10008e-17
7812.46866 1.09819e-17
7813.33012 1.09583e-17
7814.19158 1.09348e-17
7815.05304 1.09109e-17
7815.91450 1.08870e-17
7816.78598 1.08668e-17
7817.64745 1.08465e-17
7818.50891 1.08348e-17
7819.37037 1.08230e-17
7820.23183 1.08235e-17
7821.09329 1.08241e-17
7821.95476 1.08282e-17
7822.81622 1.08324e-17
7823.67768 1.08268e-17
7824.53914 1.08213e-17
7825.40060 1.08045e-17
7826.27208 1.07876e-17
7827.13355 1.07636e-17
7827.99501 1.07396e-17
7828.85647 1.07116e-17
7829.71793 1.06838e-17
7830.57939 1.06554e-17
7831.44085 1.06270e-17
7832.30232 1.06004e-17
7833.16378 1.05737e-17
7834.02524 1.05488e-17
7834.88670 1.05239e-17
7835.75818 1.05030e-17
7836.61964 1.04822e-17
7837.48111 1.04719e-17
7838.34257 1.04616e-17
7839.20403 1.04636e-17
7840.06549 1.04655e-17
7840.92695 1.04724e-17
7841.78842 1.04793e-17
7842.64988 1.04849e-17
7843.51134 1.04904e-17
7844.37280 1.04916e-17
7845.23426 1.04929e-17
7846.10574 1.04881e-17
7846.96720 1.04835e-17
7847.82867 1.04752e-17
7848.69013 1.04669e-17
7849.55159 1.04579e-17
7850.41305 1.04490e-17
7851.27452 1.04414e-17
7852.13598 1.04337e-17
7852.99744 1.04286e-17
7853.85890 1.04235e-17
7854.72036 1.04219e-17
7855.59184 1.04204e-17
7856.45330 1.04229e-17
7857.31477 1.04255e-17
7858.17623 1.04282e-17
7859.03769 1.04309e-17
7859.89915 1.04274e-17
7860.76061 1.04239e-17
7861.62208 1.04148e-17
7862.48354 1.04056e-17
7863.34500 1.03958e-17
7864.20646 1.03860e-17
7865.07794 1.03730e-17
7865.93940 1.03600e-17
7866.80087 1.03351e-17
7867.66233 1.03102e-17
7868.52379 1.02726e-17
7869.38525 1.02350e-17
7870.24671 1.01919e-17
7871.10818 1.01486e-17
7871.96964 1.01098e-17
7872.83110 1.00710e-17
7873.69256 1.00528e-17
7874.56404 1.00348e-17
7875.42550 1.00437e-17
7876.28696 1.00527e-17
7877.14843 1.00704e-17
7878.00989 1.00880e-17
7878.87135 1.00975e-17
7879.73281 1.01070e-17
7880.59427 1.01031e-17
7881.45574 1.00992e-17
7882.31720 1.00792e-17
7883.17866 1.00591e-17
7884.05014 1.00301e-17
7884.91160 1.00010e-17
7885.77306 9.97166e-18
7886.63453 9.94241e-18
7887.49599 9.91221e-18
7888.35745 9.88193e-18
7889.21891 9.84870e-18
7890.08037 9.81547e-18
7890.94184 9.78104e-18
7891.80330 9.74668e-18
7892.66476 9.71320e-18
7893.52622 9.67980e-18
7894.39770 9.65600e-18
7895.25916 9.63221e-18
7896.12062 9.63013e-18
7896.98209 9.62797e-18
7897.84355 9.64069e-18
7898.70501 9.65332e-18
7899.56647 9.66076e-18
7900.42793 9.66820e-18
7901.28940 9.66163e-18
7902.15086 9.65505e-18
7903.01232 9.63662e-18
7903.88380 9.61810e-18
7904.74526 9.59344e-18
7905.60672 9.56887e-18
7906.46819 9.55087e-18
7907.32965 9.53296e-18
7908.19111 9.52673e-18
7909.05257 9.52050e-18
7909.91403 9.51159e-18
7910.77550 9.50268e-18
7911.63696 9.48251e-18
7912.49842 9.46235e-18
7913.36990 9.44124e-18
7914.23136 9.42004e-18
7915.09282 9.40654e-18
7915.95428 9.39304e-18
7916.81575 9.38777e-18
7917.67721 9.38249e-18
7918.53867 9.38431e-18
7919.40013 9.38612e-18
7920.26159 9.38232e-18
7921.12306 9.37859e-18
7921.98452 9.35644e-18
7922.85600 9.33421e-18
7923.71746 9.30150e-18
7924.57892 9.26879e-18
7925.44038 9.23928e-18
7926.30185 9.20969e-18
7927.16331 9.19135e-18
7928.02477 9.17300e-18
7928.88623 9.17119e-18
7929.74769 9.16946e-18
7930.60916 9.18088e-18
7931.47062 9.19230e-18
7932.34210 9.20753e-18
7933.20356 9.22284e-18
7934.06502 9.23383e-18
7934.92648 9.24482e-18
7935.78794 9.24482e-18
7936.64941 9.24491e-18
7937.51087 9.23055e-18
7938.37233 9.21609e-18
7939.23379 9.18806e-18
7940.09525 9.15994e-18
7940.95672 9.12230e-18
7941.81818 9.08466e-18
7942.68966 9.04685e-18
7943.55112 9.00903e-18
7944.41258 8.97840e-18
7945.27404 8.94777e-18
7946.13551 8.92562e-18
7946.99697 8.90347e-18
7947.85843 8.88971e-18
7948.71989 8.87587e-18
7949.58135 8.86791e-18
7950.44282 8.85995e-18
7951.30428 8.85423e-18
7952.17576 8.84852e-18
7953.03722 8.83745e-18
7953.89868 8.82637e-18
7954.76014 8.80336e-18
7955.62160 8.78034e-18
7956.48307 8.75499e-18
7957.34453 8.72955e-18
7958.20599 8.71432e-18
7959.06745 8.69918e-18
7959.92891 8.69502e-18
7960.79038 8.69087e-18
7961.66186 8.69511e-18
7962.52332 8.69926e-18
7963.38478 8.70523e-18
7964.24624 8.71120e-18
7965.10770 8.70939e-18
7965.96917 8.70748e-18
7966.83063 8.70333e-18
7967.69209 8.69909e-18
7968.55355 8.70835e-18
7969.41501 8.71769e-18
7970.27648 8.74408e-18
7971.14795 8.77056e-18
7972.00942 8.80613e-18
7972.87088 8.84169e-18
7973.73234 8.87569e-18
7974.59380 8.90979e-18
7975.45526 8.92675e-18
7976.31673 8.94370e-18
7977.17819 8.93696e-18
7978.03965 8.93021e-18
7978.90111 8.91247e-18
7979.76257 8.89473e-18
7980.63405 8.87708e-18
7981.49552 8.85951e-18
7982.35698 8.84472e-18
7983.21844 8.82992e-18
7984.07990 8.81971e-18
7984.94136 8.80950e-18
7985.80283 8.80015e-18
7986.66429 8.79090e-18
7987.52575 8.77852e-18
7988.38721 8.76606e-18
7989.24867 8.75222e-18
7990.11014 8.73837e-18
7990.98161 8.72514e-18
7991.84308 8.71190e-18
7992.70454 8.70333e-18
7993.56600 8.69476e-18
7994.42746 8.69554e-18
7995.28892 8.69641e-18
7996.15039 8.69727e-18
7997.01185 8.69814e-18
7997.87331 8.68429e-18
7998.73477 8.67045e-18
7999.59623 8.64369e-18
8000.46771 8.61692e-18
8001.32917 8.58844e-18
8002.19064 8.55994e-18
8003.05210 8.53817e-18
8003.91356 8.51642e-18
8004.77502 8.50857e-18
8005.63649 8.50077e-18
8006.49795 8.50500e-18
8007.35941 8.50926e-18
8008.22087 8.51083e-18
8009.08233 8.51240e-18
8009.95381 8.50650e-18
8010.81527 8.50059e-18
8011.67674 8.50131e-18
8012.53820 8.50205e-18
8013.39966 8.51626e-18
8014.26112 8.53048e-18
8015.12258 8.54825e-18
8015.98405 8.56601e-18
8016.84551 8.57786e-18
8017.70697 8.58970e-18
8018.56843 8.58603e-18
8019.43991 8.58234e-18
8020.30137 8.55724e-18
8021.16284 8.53212e-18
8022.02430 8.50151e-18
8022.88576 8.47089e-18
8023.74722 8.45234e-18
8024.60868 8.43382e-18
8025.47015 8.42680e-18
8026.33161 8.41982e-18
8027.19307 8.41967e-18
8028.05453 8.41952e-18
8028.92601 8.42044e-18
8029.78747 8.42135e-18
8030.64893 8.41664e-18
8031.51040 8.41190e-18
8032.37186 8.40222e-18
8033.23332 8.39253e-18
8034.09478 8.38256e-18
8034.95624 8.37260e-18
8035.81771 8.36536e-18
8036.67917 8.35813e-18
8037.54063 8.35541e-18
8038.41211 8.35270e-18
8039.27357 8.35517e-18
8040.13503 8.35763e-18
8040.99650 8.36449e-18
8041.85796 8.37134e-18
8042.71942 8.38030e-18
8043.58088 8.38925e-18
8044.44234 8.39629e-18
8045.30380 8.40333e-18
8046.16527 8.40541e-18
8047.02673 8.40748e-18
8047.88819 8.40320e-18
8048.75967 8.39890e-18
8049.62113 8.38899e-18
8050.48259 8.37908e-18
8051.34406 8.37087e-18
8052.20552 8.36267e-18
8053.06698 8.36164e-18
8053.92844 8.36063e-18
8054.78990 8.36261e-18
8055.65137 8.36460e-18
8056.51283 8.36437e-18
8057.37429 8.36414e-18
8058.24577 8.35546e-18
8059.10723 8.34676e-18
8059.96869 8.32431e-18
8060.83015 8.30184e-18
8061.69162 8.26995e-18
8062.55308 8.23804e-18
8063.41454 8.20406e-18
8064.27600 8.17008e-18
8065.13746 8.14237e-18
8065.99893 8.11466e-18
8066.86039 8.10138e-18
8067.73187 8.08813e-18
8068.59333 8.08976e-18
8069.45479 8.09141e-18
8070.31625 8.10356e-18
8071.17772 8.11574e-18
8072.03918 8.12970e-18
8072.90064 8.14367e-18
8073.76210 8.14701e-18
8074.62356 8.15031e-18
8075.48503 8.13843e-18
8076.34649 8.12652e-18
8077.21797 8.10535e-18
8078.07943 8.08417e-18
8078.94089 8.05743e-18
8079.80235 8.03068e-18
8080.66381 7.99767e-18
8081.52528 7.96464e-18
8082.38674 7.92588e-18
8083.24820 7.88709e-18
8084.10966 7.84419e-18
8084.97113 7.80129e-18
8085.83259 7.75621e-18
8086.70407 7.71111e-18
8087.56553 7.66669e-18
8088.42699 7.62228e-18
8089.28845 7.58120e-18
8090.14991 7.54013e-18
8091.01138 7.50483e-18
8091.87284 7.46955e-18
8092.73430 7.44130e-18
8093.59576 7.41308e-18
8094.45722 7.39135e-18
8095.31869 7.36965e-18
8096.18015 7.35270e-18
8097.05163 7.33577e-18
8097.91309 7.31416e-18
8098.77455 7.29254e-18
8099.63601 7.25509e-18
8100.49748 7.21758e-18
8101.35894 7.16074e-18
8102.22040 7.10383e-18
8103.08186 7.02832e-18
8103.94332 6.95276e-18
8104.80479 6.86772e-18
8105.67626 6.78266e-18
8106.53773 6.70293e-18
8107.39919 6.62322e-18
8108.26065 6.55806e-18
8109.12211 6.49293e-18
8109.98357 6.44547e-18
8110.84504 6.39804e-18
8111.70650 6.36412e-18
8112.56796 6.33022e-18
8113.42942 6.29530e-18
8114.29088 6.26038e-18
8115.15235 6.21270e-18
8116.02383 6.16501e-18
8116.88529 6.09958e-18
8117.74675 6.03412e-18
8118.60821 5.95002e-18
8119.46967 5.86587e-18
8120.33114 5.77521e-18
8121.19260 5.68454e-18
8122.05406 5.59703e-18
8122.91552 5.50953e-18
8123.77698 5.41435e-18
8124.63845 5.31915e-18
8125.49991 5.20626e-18
8126.37139 5.09332e-18
8127.23285 4.96810e-18
8128.09431 4.84285e-18
8128.95577 4.71320e-18
8129.81723 4.58356e-18
8130.67870 4.46468e-18
8131.54016 4.34582e-18
8132.40162 4.25403e-18
8133.26308 4.16231e-18
8134.12454 4.08883e-18
8134.99602 4.01540e-18
8135.85749 3.94061e-18
8136.71895 3.86581e-18
8137.58041 3.78225e-18
8138.44187 3.69867e-18
8139.30333 3.60607e-18
8140.16480 3.51344e-18
8141.02626 3.41416e-18
8141.88772 3.31486e-18
8142.74918 3.21443e-18
8143.61064 3.11399e-18
8144.47210 3.01787e-18
8145.34358 2.92177e-18
8146.20505 2.83436e-18
8147.06651 2.74698e-18
8147.92797 2.67134e-18
8148.78943 2.59575e-18
8149.65089 2.53287e-18
8150.51236 2.47004e-18
8151.37382 2.41835e-18
8152.23528 2.36670e-18
8153.09674 2.31941e-18
8153.95820 2.27213e-18
8154.82968 2.22371e-18
8155.69115 2.17530e-18
8156.55261 2.12628e-18
8157.41407 2.07726e-18
8158.27553 2.02931e-18
8159.13699 1.98138e-18
8159.99845 1.93859e-18
8160.85992 1.89581e-18
8161.72138 1.86219e-18
8162.58284 1.82858e-18
8163.44430 1.80533e-18
8164.31578 1.78210e-18
8165.17724 1.76902e-18
8166.03871 1.75596e-18
8166.90017 1.74681e-18
8167.76163 1.73767e-18
8168.62309 1.72490e-18
8169.48455 1.71213e-18
8170.34602 1.68943e-18
8171.20748 1.66672e-18
8172.06894 1.62812e-18
8172.93040 1.58948e-18
8173.80188 1.54516e-18
8174.66334 1.50085e-18
8175.52481 1.47285e-18
8176.38627 1.44490e-18
8177.24773 1.43813e-18
8178.10919 1.43141e-18
8178.97065 1.43309e-18
8179.83212 1.43478e-18
8180.69358 1.43519e-18
8181.55504 1.43559e-18
8182.41650 1.42861e-18
8183.28798 1.42162e-18
8184.14944 1.40502e-18
8185.01090 1.38841e-18
8185.87237 1.37044e-18
8186.73383 1.35246e-18
8187.59529 1.33900e-18
8188.45675 1.32555e-18
8189.31821 1.31206e-18
8190.17968 1.29856e-18
8191.04114 1.28185e-18
8191.90260 1.26513e-18
8192.77408 1.24907e-18
8193.63554 1.23302e-18
8194.49700 1.22157e-18
8195.35846 1.21012e-18
8196.21993 1.20677e-18
8197.08139 1.20344e-18
8197.94285 1.21086e-18
8198.80431 1.21829e-18
8199.66577 1.23011e-18
8200.52724 1.24194e-18
8201.38870 1.24927e-18
8202.25016 1.25660e-18
8203.12164 1.25773e-18
8203.98310 1.25884e-18
8204.84456 1.25520e-18
8205.70603 1.25155e-18
8206.56749 1.24387e-18
8207.42895 1.23618e-18
8208.29041 1.22509e-18
8209.15187 1.21399e-18
8210.01334 1.20128e-18
8210.87480 1.18857e-18
8211.73626 1.17658e-18
8212.60774 1.16461e-18
8213.46920 1.15434e-18
8214.33066 1.14409e-18
8215.19212 1.13538e-18
8216.05359 1.12667e-18
8216.91505 1.11675e-18
8217.77651 1.10682e-18
8218.63797 1.08802e-18
8219.49943 1.06919e-18
8220.36090 1.03857e-18
8221.22236 1.00792e-18
8222.08382 9.73327e-19
8222.95530 9.38725e-19
8223.81676 9.08916e-19
8224.67822 8.79116e-19
8225.53969 8.65064e-19
8226.40115 8.51054e-19
8227.26261 8.60684e-19
8228.12407 8.70368e-19
8228.98553 8.96300e-19
8229.84700 9.22267e-19
8230.70846 9.54248e-19
8231.57994 9.86246e-19
8232.44140 1.01432e-18
8233.30286 1.04239e-18
8234.16432 1.05729e-18
8235.02578 1.07218e-18
8235.88725 1.07700e-18
8236.74871 1.08178e-18
8237.61017 1.08422e-18
8238.47163 1.08666e-18
8239.33309 1.09210e-18
8240.19456 1.09756e-18
8241.06604 1.11048e-18
8241.92750 1.12343e-18
8242.78896 1.14122e-18
8243.65042 1.15902e-18
8244.51188 1.17359e-18
8245.37335 1.18816e-18
8246.23481 1.19555e-18
8247.09627 1.20292e-18
8247.95773 1.20357e-18
8248.81919 1.20420e-18
8249.68066 1.19973e-18
8250.54212 1.19525e-18
8251.41360 1.18924e-18
8252.27506 1.18323e-18
8253.13652 1.17904e-18
8253.99798 1.17486e-18
8254.85945 1.17452e-18
8255.72091 1.17420e-18
8256.58237 1.17887e-18
8257.44383 1.18355e-18
8258.30529 1.19242e-18
8259.16676 1.20129e-18
8260.02822 1.21266e-18
8260.89970 1.22404e-18
8261.76116 1.23476e-18
8262.62262 1.24549e-18
8263.48408 1.25248e-18
8264.34554 1.25945e-18
8265.20701 1.25991e-18
8266.06847 1.26035e-18
8266.92993 1.25245e-18
8267.79139 1.24453e-18
8268.65285 1.23248e-18
8269.52433 1.22041e-18
8270.38580 1.21003e-18
8271.24726 1.19967e-18
8272.10872 1.19489e-18
8272.97018 1.19013e-18
8273.83164 1.19399e-18
8274.69311 1.19787e-18
8275.55457 1.20733e-18
8276.41603 1.21680e-18
8277.27749 1.22504e-18
8278.13895 1.23327e-18
8279.01043 1.23749e-18
8279.87189 1.24170e-18
8280.73336 1.24257e-18
8281.59482 1.24342e-18
8282.45628 1.24300e-18
8283.31774 1.24257e-18
8284.17920 1.24516e-18
8285.04067 1.24777e-18
8285.90213 1.25503e-18
8286.76359 1.26230e-18
8287.62505 1.27032e-18
8288.48651 1.27834e-18
8289.34798 1.28504e-18
8290.21946 1.29174e-18
8291.08092 1.30025e-18
8291.94238 1.30875e-18
8292.80384 1.32084e-18
8293.66530 1.33293e-18
8294.52677 1.34545e-18
8295.38823 1.35796e-18
8296.24969 1.36798e-18
8297.11115 1.37800e-18
8297.97261 1.38364e-18
8298.83408 1.38928e-18
8299.70555 1.38942e-18
8300.56702 1.38955e-18
8301.42848 1.39084e-18
8302.28994 1.39213e-18
8303.15140 1.40242e-18
8304.01286 1.41272e-18
8304.87433 1.42899e-18
8305.73579 1.44526e-18
8306.59725 1.46096e-18
8307.45871 1.47665e-18
8308.32017 1.48781e-18
8309.18164 1.49896e-18
8310.05312 1.50268e-18
8310.91458 1.50638e-18
8311.77604 1.50576e-18
8312.63750 1.50512e-18
8313.49896 1.50765e-18
8314.36043 1.51019e-18
8315.22189 1.52010e-18
8316.08335 1.53003e-18
8316.94481 1.54816e-18
8317.80627 1.56631e-18
8318.67775 1.59052e-18
8319.53921 1.61475e-18
8320.40068 1.63830e-18
8321.26214 1.66186e-18
8322.12360 1.67993e-18
8322.98506 1.69799e-18
8323.84652 1.71052e-18
8324.70799 1.72304e-18
8325.56945 1.73065e-18
8326.43091 1.73827e-18
8327.29237 1.74285e-18
8328.16385 1.74742e-18
8329.02531 1.75131e-18
8329.88678 1.75519e-18
8330.74824 1.75970e-18
8331.60970 1.76423e-18
8332.47116 1.77071e-18
8333.33262 1.77720e-18
8334.19408 1.78890e-18
8335.05555 1.80061e-18
8335.91701 1.82024e-18
8336.77847 1.83988e-18
8337.64995 1.86532e-18
8338.51141 1.89076e-18
8339.37287 1.91838e-18
8340.23434 1.94601e-18
8341.09580 1.97083e-18
8341.95726 1.99565e-18
8342.81872 2.01229e-18
8343.68018 2.02891e-18
8344.54165 2.03748e-18
8345.40311 2.04603e-18
8346.26457 2.05032e-18
8347.12603 2.05458e-18
8347.99751 2.05764e-18
8348.85897 2.06072e-18
8349.72043 2.06486e-18
8350.58190 2.06901e-18
8351.44336 2.07691e-18
8352.30482 2.08481e-18
8353.16628 2.09928e-18
8354.02775 2.11377e-18
8354.88921 2.13514e-18
8355.75067 2.15653e-18
8356.62215 2.18131e-18
8357.48361 2.20611e-18
8358.34507 2.23082e-18
8359.20653 2.25553e-18
8360.06800 2.27715e-18
8360.92946 2.29875e-18
8361.79092 2.31543e-18
8362.65238 2.33210e-18
8363.51384 2.34701e-18
8364.37531 2.36191e-18
8365.23677 2.37813e-18
8366.10825 2.39435e-18
8366.96971 2.40986e-18
8367.83117 2.42536e-18
8368.69263 2.43803e-18
8369.55410 2.45070e-18
8370.41556 2.46259e-18
8371.27702 2.47448e-18
8372.13848 2.48845e-18
8372.99994 2.50242e-18
8373.86140 2.52000e-18
8374.72287 2.53760e-18
8375.59435 2.55980e-18
8376.45581 2.58202e-18
8377.31727 2.60864e-18
8378.17873 2.63526e-18
8379.04019 2.66526e-18
8379.90166 2.69527e-18
8380.76312 2.72702e-18
8381.62458 2.75876e-18
8382.48604 2.79032e-18
8383.34750 2.82188e-18
8384.20897 2.85165e-18
8385.07043 2.88141e-18
8385.94191 2.90792e-18
8386.80337 2.93443e-18
8387.66483 2.95856e-18
8388.52629 2.98270e-18
8389.38775 3.00914e-18
8390.24922 3.03559e-18
8391.11068 3.06566e-18
8391.97214 3.09573e-18
8392.83360 3.12337e-18
8393.69507 3.15102e-18
8394.55653 3.17191e-18
8395.41799 3.19279e-18
8396.28947 3.20680e-18
8397.15093 3.22080e-18
8398.01239 3.22970e-18
8398.87385 3.23858e-18
8399.73532 3.25218e-18
8400.59678 3.26579e-18
8401.45824 3.29306e-18
8402.31970 3.32037e-18
8403.18116 3.35843e-18
8404.04263 3.39650e-18
8404.90409 3.43985e-18
8405.77557 3.48320e-18
8406.63703 3.52577e-18
8407.49849 3.56834e-18
8408.35995 3.60386e-18
8409.22142 3.63936e-18
8410.08288 3.66786e-18
8410.94434 3.69635e-18
8411.80580 3.72102e-18
8412.66726 3.74569e-18
8413.52873 3.76876e-18
8414.39019 3.79182e-18
8415.26167 3.81506e-18
8416.12313 3.83831e-18
8416.98459 3.86363e-18
8417.84605 3.88896e-18
8418.70751 3.91792e-18
8419.56898 3.94688e-18
8420.43044 3.98008e-18
8421.29190 4.01329e-18
8422.15336 4.05059e-18
8423.01482 4.08791e-18
8423.87629 4.12733e-18
8424.74777 4.16677e-18
8425.60923 4.20287e-18
8426.47069 4.23897e-18
8427.33215 4.26952e-18
8428.19361 4.30007e-18
8429.05508 4.33124e-18
8429.91654 4.36240e-18
8430.77800 4.39920e-18
8431.63946 4.43601e-18
8432.50092 4.47898e-18
8433.36239 4.52196e-18
8434.23386 4.57030e-18
8435.09533 4.61865e-18
8435.95679 4.66433e-18
8436.81825 4.71000e-18
8437.67971 4.74512e-18
8438.54117 4.78021e-18
8439.40264 4.80938e-18
8440.26410 4.83853e-18
8441.12556 4.86927e-18
8441.98702 4.89999e-18
8442.84848 4.93450e-18
8443.70995 4.96902e-18
8444.58143 5.00782e-18
8445.44289 5.04663e-18
8446.30435 5.09014e-18
8447.16581 5.13365e-18
8448.02727 5.18174e-18
8448.88874 5.22982e-18
8449.75020 5.28099e-18
8450.61166 5.33217e-18
8451.47312 5.38425e-18
8452.33458 5.43632e-18
8453.20606 5.48682e-18
8454.06752 5.53730e-18
8454.92899 5.58317e-18
8455.79045 5.62903e-18
8456.65191 5.67095e-18
8457.51337 5.71285e-18
8458.37483 5.75731e-18
8459.23630 5.80178e-18
8460.09776 5.85152e-18
8460.95922 5.90129e-18
8461.82068 5.95074e-18
8462.69216 6.00019e-18
8463.55362 6.04538e-18
8464.41508 6.09057e-18
8465.27655 6.13181e-18
8466.13801 6.17304e-18
8466.99947 6.21199e-18
8467.86093 6.25093e-18
8468.72240 6.29584e-18
8469.58386 6.34077e-18
8470.44532 6.39897e-18
8471.30678 6.45719e-18
8472.16824 6.52415e-18
8473.03972 6.59113e-18
8473.90118 6.66027e-18
8474.76265 6.72942e-18
8475.62411 6.79577e-18
8476.48557 6.86211e-18
8477.34703 6.92087e-18
8478.20849 6.97961e-18
8479.06996 7.03646e-18
8479.93142 7.09329e-18
8480.79288 7.15855e-18
8481.65434 7.22382e-18
8482.51580 7.29518e-18
8483.38728 7.36655e-18
8484.24875 7.43439e-18
8485.11021 7.50221e-18
8485.97167 7.56223e-18
8486.83313 7.62222e-18
8487.69459 7.67430e-18
8488.55605 7.72637e-18
8489.41752 7.77327e-18
8490.27898 7.82016e-18
8491.14044 7.86881e-18
8492.00190 7.91747e-18
8492.87338 7.97241e-18
8493.73484 8.02736e-18
8494.59631 8.08735e-18
8495.45777 8.14734e-18
8496.31923 8.21305e-18
8497.18069 8.27876e-18
8498.04215 8.35751e-18
8498.90362 8.43630e-18
8499.76508 8.53086e-18
8500.62654 8.62547e-18
8501.48800 8.72323e-18
8502.35948 8.82101e-18
8503.22094 8.90961e-18
8504.08240 8.99822e-18
8504.94387 9.07514e-18
8505.80533 9.15198e-18
8506.66679 9.21670e-18
8507.52825 9.28134e-18
8508.38972 9.33836e-18
8509.25118 9.39538e-18
8510.11264 9.45085e-18
8510.98412 9.50640e-18
8511.84558 9.56273e-18
8512.70704 9.61906e-18
8513.56850 9.67746e-18
8514.42997 9.73578e-18
8515.29143 9.79601e-18
8516.15289 9.85623e-18
8517.01435 9.91758e-18
8517.87581 9.97893e-18
8518.73728 1.00414e-17
8519.59874 1.01038e-17
8520.46020 1.01676e-17
8521.33168 1.02312e-17
8522.19314 1.02991e-17
8523.05460 1.03668e-17
8523.91607 1.04439e-17
8524.77753 1.05211e-17
8525.63899 1.06093e-17
8526.50045 1.06975e-17
8527.36191 1.07935e-17
8528.22337 1.08895e-17
8529.08484 1.09883e-17
8529.94630 1.10871e-17
8530.80776 1.11805e-17
8531.67924 1.12738e-17
8532.54070 1.13551e-17
8533.40216 1.14362e-17
8534.26363 1.15028e-17
8535.12509 1.15693e-17
8535.98655 1.16218e-17
8536.84801 1.16744e-17
8537.70947 1.17232e-17
8538.57094 1.17719e-17
8539.43240 1.18275e-17
8540.30388 1.18832e-17
8541.16534 1.19530e-17
8542.02680 1.20227e-17
8542.88826 1.21108e-17
8543.74972 1.21990e-17
8544.61119 1.22996e-17
8545.47265 1.24002e-17
8546.33411 1.25042e-17
8547.19557 1.26080e-17
8548.05703 1.26992e-17
8548.91850 1.27903e-17
8549.78998 1.28511e-17
8550.65144 1.29120e-17
8551.51290 1.29441e-17
8552.37436 1.29761e-17
8553.23582 1.29927e-17
8554.09729 1.30093e-17
8554.95875 1.30284e-17
8555.82021 1.30476e-17
8556.68167 1.30906e-17
8557.54313 1.31336e-17
8558.40460 1.32100e-17
8559.27607 1.32864e-17
8560.13754 1.33903e-17
8560.99900 1.34942e-17
8561.86046 1.36143e-17
8562.72192 1.37344e-17
8563.58338 1.38521e-17
8564.44485 1.39699e-17
8565.30631 1.40682e-17
8566.16777 1.41664e-17
8567.02923 1.42339e-17
8567.89070 1.43014e-17
8568.75216 1.43329e-17
8569.62364 1.43644e-17
8570.48510 1.43687e-17
8571.34656 1.43731e-17
8572.20802 1.43631e-17
8573.06948 1.43531e-17
8573.93095 1.43430e-17
8574.79241 1.43328e-17
8575.65387 1.43362e-17
8576.51533 1.43397e-17
8577.37679 1.43709e-17
8578.23826 1.44022e-17
8579.09972 1.44722e-17
8579.97120 1.45422e-17
8580.83266 1.46372e-17
8581.69412 1.47323e-17
8582.55558 1.48298e-17
8583.41705 1.49273e-17
8584.27851 1.50091e-17
8585.13997 1.50909e-17
8586.00143 1.51421e-17
8586.86289 1.51934e-17
8587.72436 1.52120e-17
8588.58582 1.52306e-17
8589.45730 1.52249e-17
8590.31876 1.52190e-17
8591.18022 1.52017e-17
8592.04168 1.51844e-17
8592.90314 1.51728e-17
8593.76461 1.51612e-17
8594.62607 1.51650e-17
8595.48753 1.51687e-17
8596.34899 1.51840e-17
8597.21045 1.51992e-17
8598.07192 1.52236e-17
8598.94340 1.52481e-17
8599.80486 1.52841e-17
8600.66632 1.53202e-17
8601.52778 1.53668e-17
8602.38924 1.54133e-17
8603.25071 1.54630e-17
8604.11217 1.55127e-17
8604.97363 1.55574e-17
8605.83509 1.56021e-17
8606.69655 1.56308e-17
8607.56803 1.56596e-17
8608.42949 1.56636e-17
8609.29096 1.56674e-17
8610.15242 1.56491e-17
8611.01388 1.56306e-17
8611.87534 1.55961e-17
8612.73680 1.55616e-17
8613.59827 1.55182e-17
8614.45973 1.54747e-17
8615.32119 1.54297e-17
8616.18265 1.53847e-17
8617.04411 1.53522e-17
8617.91559 1.53198e-17
8618.77706 1.53153e-17
8619.63852 1.53108e-17
8620.49998 1.53351e-17
8621.36144 1.53594e-17
8622.22290 1.54041e-17
8623.08437 1.54491e-17
8623.94583 1.55024e-17
8624.80729 1.55557e-17
8625.66875 1.56026e-17
8626.53021 1.56494e-17
8627.40169 1.56806e-17
8628.26315 1.57118e-17
8629.12462 1.57272e-17
8629.98608 1.57426e-17
8630.84754 1.57418e-17
8631.70900 1.57410e-17
8632.57046 1.57220e-17
8633.43193 1.57028e-17
8634.29339 1.56681e-17
8635.15485 1.56334e-17
8636.01631 1.55940e-17
8636.88779 1.55544e-17
8637.74925 1.55216e-17
8638.61072 1.54888e-17
8639.47218 1.54756e-17
8640.33364 1.54625e-17
8641.19510 1.54782e-17
8642.05656 1.54939e-17
8642.91803 1.55306e-17
8643.77949 1.55676e-17
8644.64095 1.56141e-17
8645.50241 1.56605e-17
8646.37389 1.57046e-17
8647.23535 1.57486e-17
8648.09681 1.57782e-17
8648.95828 1.58077e-17
8649.81974 1.58184e-17
8650.68120 1.58290e-17
8651.54266 1.58209e-17
8652.40412 1.58126e-17
8653.26559 1.57844e-17
8654.12705 1.57562e-17
8654.98851 1.57071e-17
8655.85999 1.56579e-17
8656.72145 1.55964e-17
8657.58291 1.55349e-17
8658.44438 1.54758e-17
8659.30584 1.54167e-17
8660.16730 1.53701e-17
8661.02876 1.53237e-17
8661.89022 1.52942e-17
8662.75168 1.52648e-17
8663.61315 1.52548e-17
8664.47461 1.52448e-17
8665.33607 1.52536e-17
8666.20755 1.52623e-17
8667.06901 1.52857e-17
8667.93047 1.53091e-17
8668.79194 1.53399e-17
8669.65340 1.53707e-17
8670.51486 1.53989e-17
8671.37632 1.54271e-17
8672.23778 1.54358e-17
8673.09925 1.54445e-17
8673.96071 1.54211e-17
8674.82217 1.53977e-17
8675.68363 1.53460e-17
8676.55511 1.52943e-17
8677.41657 1.52226e-17
8678.27803 1.51508e-17
8679.13950 1.50732e-17
8680.00096 1.49955e-17
8680.86242 1.49272e-17
8681.72388 1.48590e-17
8682.58535 1.48063e-17
8683.44681 1.47537e-17
8684.30827 1.47188e-17
8685.16973 1.46838e-17
8686.04121 1.46687e-17
8686.90267 1.46536e-17
8687.76413 1.46585e-17
8688.62560 1.46636e-17
8689.48706 1.46847e-17
8690.34852 1.47059e-17
8691.20998 1.47371e-17
8692.07144 1.47683e-17
8692.93291 1.47990e-17
8693.79437 1.48295e-17
8694.66585 1.48460e-17
8695.52731 1.48626e-17
8696.38877 1.48569e-17
8697.25023 1.48511e-17
8698.11170 1.48216e-17
8698.97316 1.47921e-17
8699.83462 1.47422e-17
8700.69608 1.46923e-17
8701.55754 1.46327e-17
8702.41900 1.45730e-17
8703.28047 1.45129e-17
8704.15195 1.44527e-17
8705.01341 1.43922e-17
8705.87487 1.43318e-17
8706.73633 1.42736e-17
8707.59779 1.42154e-17
8708.45926 1.41716e-17
8709.32072 1.41279e-17
8710.18218 1.41081e-17
8711.04364 1.40883e-17
8711.90510 1.40928e-17
8712.76657 1.40975e-17
8713.62803 1.41229e-17
8714.49951 1.41484e-17
8715.36097 1.41761e-17
8716.22243 1.42039e-17
8717.08389 1.42129e-17
8717.94535 1.42219e-17
8718.80682 1.42036e-17
8719.66828 1.41851e-17
8720.52974 1.41362e-17
8721.39120 1.40872e-17
8722.25267 1.40197e-17
8723.11413 1.39522e-17
8723.98561 1.38871e-17
8724.84707 1.38220e-17
8725.70853 1.37670e-17
8726.56999 1.37120e-17
8727.43145 1.36649e-17
8728.29292 1.36179e-17
8729.15438 1.35790e-17
8730.01584 1.35401e-17
8730.87730 1.35103e-17
8731.73876 1.34805e-17
8732.61024 1.34626e-17
8733.47170 1.34447e-17
8734.33317 1.34471e-17
8735.19463 1.34495e-17
8736.05609 1.34696e-17
8736.91755 1.34896e-17
8737.77902 1.35037e-17
8738.64048 1.35178e-17
8739.50194 1.35059e-17
8740.36340 1.34940e-17
8741.22486 1.34450e-17
8742.08633 1.33959e-17
8742.95780 1.33071e-17
8743.81927 1.32181e-17
8744.68073 1.31150e-17
8745.54219 1.30117e-17
8746.40365 1.29222e-17
8747.26511 1.28326e-17
8748.12658 1.27696e-17
8748.98804 1.27068e-17
8749.84950 1.26783e-17
8750.71096 1.26498e-17
8751.57242 1.26476e-17
8752.44390 1.26455e-17
8753.30537 1.26544e-17
8754.16683 1.26633e-17
8755.02829 1.26747e-17
8755.88975 1.26861e-17
8756.75121 1.26946e-17
8757.61268 1.27031e-17
8758.47414 1.26963e-17
8759.33560 1.26893e-17
8760.19706 1.26521e-17
8761.05852 1.26148e-17
8761.91999 1.25448e-17
8762.79146 1.24747e-17
8763.65293 1.23800e-17
8764.51439 1.22852e-17
8765.37585 1.21788e-17
8766.23731 1.20726e-17
8767.09877 1.19736e-17
8767.96024 1.18748e-17
8768.82170 1.17953e-17
8769.68316 1.17161e-17
8770.54462 1.16547e-17
8771.40608 1.15935e-17
8772.26755 1.15475e-17
8773.13903 1.15016e-17
8774.00049 1.14690e-17
8774.86195 1.14363e-17
8775.72341 1.14126e-17
8776.58487 1.13888e-17
8777.44633 1.13701e-17
8778.30780 1.13515e-17
8779.16926 1.13325e-17
8780.03072 1.13134e-17
8780.89218 1.12775e-17
8781.76366 1.12415e-17
8782.62512 1.11739e-17
8783.48659 1.11060e-17
8784.34805 1.10137e-17
8785.20951 1.09214e-17
8786.07097 1.08176e-17
8786.93243 1.07139e-17
8787.79390 1.06087e-17
8788.65536 1.05035e-17
8789.51682 1.04065e-17
8790.37828 1.03095e-17
8791.24976 1.02204e-17
8792.11122 1.01314e-17
8792.97268 1.00434e-17
8793.83415 9.95530e-18
8794.69561 9.87276e-18
8795.55707 9.79029e-18
8796.41853 9.72592e-18
8797.28000 9.66171e-18
8798.14146 9.61300e-18
8799.00292 9.56437e-18
8799.86438 9.51436e-18
8800.72584 9.46434e-18
8801.59732 9.39919e-18
8802.45878 9.33403e-18
8803.32025 9.24439e-18
8804.18171 9.15475e-18
8805.04317 9.03940e-18
8805.90463 8.92406e-18
8806.76609 8.79964e-18
8807.62756 8.67512e-18
8808.48902 8.55673e-18
8809.35048 8.43839e-18
8810.21194 8.33337e-18
8811.08342 8.22839e-18
8811.94488 8.14162e-18
8812.80635 8.05490e-18
8813.66781 7.98446e-18
8814.52927 7.91408e-18
8815.39073 7.85537e-18
8816.25219 7.79669e-18
8817.11365 7.74395e-18
8817.97512 7.69123e-18
8818.83658 7.63802e-18
8819.70806 7.58483e-18
8820.56952 7.52337e-18
8821.43098 7.46190e-18
8822.29244 7.38541e-18
8823.15391 7.30890e-18
8824.01537 7.21655e-18
8824.87683 7.12416e-18
8825.73829 7.01838e-18
8826.59975 6.91256e-18
8827.46122 6.80310e-18
8828.32268 6.69362e-18
8829.19416 6.59450e-18
8830.05562 6.49542e-18
8830.91708 6.41381e-18
8831.77854 6.33225e-18
8832.64000 6.26865e-18
8833.50147 6.20510e-18
8834.36293 6.15724e-18
8835.22439 6.10943e-18
8836.08585 6.07171e-18
8836.94732 6.03402e-18
8837.80878 5.99988e-18
8838.67024 5.96574e-18
8839.54172 5.92844e-18
8840.40318 5.89114e-18
8841.26464 5.84572e-18
8842.12610 5.80028e-18
8842.98757 5.74609e-18
8843.84903 5.69187e-18
8844.71049 5.62994e-18
8845.57195 5.56800e-18
8846.43341 5.50196e-18
8847.29488 5.43591e-18
8848.15634 5.37041e-18
8849.02782 5.30491e-18
8849.88928 5.24243e-18
8850.75074 5.17996e-18
8851.61220 5.12286e-18
8852.47367 5.06579e-18
8853.33513 5.02621e-18
8854.19659 4.98667e-18
8855.05805 4.97667e-18
8855.91951 4.96676e-18
8856.78097 4.97677e-18
8857.64244 4.98683e-18
8858.50390 4.99993e-18
8859.36536 5.01303e-18
8860.23684 5.01527e-18
8861.09830 5.01746e-18
8861.95976 4.99622e-18
8862.82123 4.97491e-18
8863.68269 4.93493e-18
8864.54415 4.89491e-18
8865.40561 4.85458e-18
8866.26707 4.81426e-18
8867.12854 4.78214e-18
8867.99000 4.75005e-18
8868.86148 4.72398e-18
8869.72294 4.69792e-18
8870.58440 4.67695e-18
8871.44586 4.65599e-18
8872.30732 4.63932e-18
8873.16879 4.62266e-18
8874.03025 4.61120e-18
8874.89171 4.59974e-18
8875.75317 4.60055e-18
8876.61463 4.60140e-18
8877.47610 4.61735e-18
8878.34758 4.63334e-18
8879.20904 4.65560e-18
8880.07050 4.67788e-18
8880.93196 4.69721e-18
8881.79342 4.71654e-18
8882.65489 4.72433e-18
8883.51635 4.73209e-18
8884.37781 4.72209e-18
8885.23927 4.71205e-18
8886.10073 4.69002e-18
8886.96220 4.66798e-18
8887.83367 4.64300e-18
8888.69514 4.61802e-18
8889.55660 4.59847e-18
8890.41806 4.57892e-18
8891.27952 4.57237e-18
8892.14099 4.56587e-18
8893.00245 4.57661e-18
8893.86391 4.58741e-18
8894.72537 4.61716e-18
8895.58683 4.64695e-18
8896.44830 4.68869e-18
8897.30976 4.73047e-18
8898.18124 4.77226e-18
8899.04270 4.81404e-18
8899.90416 4.84567e-18
8900.76562 4.87726e-18
8901.62708 4.89021e-18
8902.48855 4.90310e-18
8903.35001 4.89868e-18
8904.21147 4.89421e-18
8905.07293 4.88657e-18
8905.93439 4.87892e-18
8906.80587 4.87736e-18
8907.66734 4.87580e-18
8908.52880 4.87937e-18
8909.39026 4.88296e-18
8910.25172 4.89170e-18
8911.11318 4.90045e-18
8911.97465 4.91609e-18
8912.83611 4.93173e-18
8913.69757 4.95496e-18
8914.55903 4.97822e-18
8915.42049 5.01071e-18
8916.29197 5.04322e-18
8917.15343 5.08457e-18
8918.01490 5.12594e-18
8918.87636 5.16552e-18
8919.73782 5.20509e-18
8920.59928 5.23224e-18
8921.46074 5.25936e-18
8922.32221 5.27107e-18
8923.18367 5.28274e-18
8924.04513 5.27869e-18
8924.90659 5.27460e-18
8925.76805 5.26733e-18
8926.63953 5.26005e-18
8927.50100 5.26668e-18
8928.36246 5.27334e-18
8929.22392 5.29453e-18
8930.08538 5.31574e-18
8930.94684 5.34373e-18
8931.80831 5.37174e-18
8932.66977 5.40095e-18
8933.53123 5.43014e-18
8934.39269 5.45512e-18
8935.25415 5.48009e-18
8936.12563 5.50340e-18
8936.98709 5.52672e-18
8937.84856 5.56060e-18
8938.71002 5.59452e-18
8939.57148 5.63953e-18
8940.43294 5.68457e-18
8941.29440 5.72411e-18
8942.15587 5.76365e-18
8943.01733 5.78555e-18
8943.87879 5.80739e-18
8944.74025 5.80619e-18
8945.61173 5.80492e-18
8946.47319 5.78258e-18
8947.33466 5.76018e-18
8948.19612 5.74231e-18
8949.05758 5.72445e-18
8949.91904 5.73184e-18
8950.78050 5.73930e-18
8951.64197 5.76549e-18
8952.50343 5.79172e-18
8953.36489 5.82626e-18
8954.22635 5.86082e-18
8955.08781 5.87646e-18
8955.95929 5.89205e-18
8956.82075 5.86203e-18
8957.68222 5.83189e-18
8958.54368 5.78951e-18
8959.40514 5.74710e-18
8960.26660 5.74145e-18
8961.12806 5.73591e-18
8961.98953 5.77399e-18
8962.85099 5.81221e-18
8963.71245 5.88474e-18
8964.57391 5.95737e-18
8965.44539 6.04085e-18
8966.30685 6.12435e-18
8967.16832 6.18318e-18
8968.02978 6.24196e-18
8968.89124 6.28004e-18
8969.75270 6.31809e-18
8970.61416 6.37433e-18
8971.47563 6.43063e-18
8972.33709 6.51850e-18
8973.19855 6.60645e-18
8974.06001 6.70929e-18
8974.93149 6.81216e-18
8975.79295 6.90584e-18
8976.65441 6.99949e-18
8977.51588 7.04712e-18
8978.37734 7.09464e-18
8979.23880 7.06750e-18
8980.10026 7.04016e-18
8980.96172 6.91975e-18
8981.82319 6.79911e-18
8982.68465 6.59732e-18
8983.54611 6.39531e-18
8984.41759 6.22066e-18
8985.27905 6.04609e-18
8986.14051 5.99872e-18
8987.00198 5.95168e-18
8987.86344 6.06591e-18
8988.72490 6.18058e-18
8989.58636 6.46159e-18
8990.44782 6.74304e-18
8991.30928 7.05671e-18
8992.17075 7.37046e-18
8993.03221 7.55535e-18
8993.89367 7.73988e-18
8994.76515 7.77176e-18
8995.62661 7.80324e-18
8996.48807 7.71164e-18
8997.34954 7.61971e-18
8998.21100 7.47685e-18
8999.07246 7.33385e-18
8999.93392 7.23826e-18
9000.79538 7.14278e-18
9001.65685 7.13741e-18
9002.51831 7.13228e-18
9003.38979 7.21449e-18
9004.25125 7.29691e-18
9005.11271 7.43803e-18
9005.97417 7.57930e-18
9006.83563 7.72314e-18
9007.69710 7.86699e-18
9008.55856 7.96975e-18
9009.42002 8.07241e-18
9010.28148 8.11379e-18
9011.14295 8.15499e-18
9012.00441 8.13590e-18
9012.87589 8.11663e-18
9013.73735 8.08531e-18
9014.59881 8.05397e-18
9015.46027 8.04626e-18
9016.32173 8.03861e-18
9017.18320 8.03263e-18
9018.04466 8.02666e-18
9018.90612 8.00613e-18
9019.76758 7.98556e-18
9020.62904 7.96930e-18
9021.49051 7.95305e-18
9022.35197 7.96060e-18
9023.22345 7.96821e-18
9024.08491 8.02417e-18
9024.94637 8.08026e-18
9025.80783 8.20426e-18
9026.66930 8.32846e-18
9027.53076 8.49070e-18
9028.39222 8.65306e-18
9029.25368 8.80846e-18
9030.11514 8.96378e-18
9030.97660 9.08102e-18
9031.83807 9.19810e-18
9032.70955 9.25391e-18
9033.57101 9.30955e-18
9034.43247 9.30184e-18
9035.29393 9.29397e-18
9036.15539 9.23461e-18
9037.01686 9.17508e-18
9037.87832 9.09452e-18
9038.73978 9.01388e-18
9039.60124 8.95893e-18
9040.46270 8.90416e-18
9041.32417 8.88738e-18
9042.18563 8.87068e-18
9043.05711 8.85778e-18
9043.91857 8.84480e-18
9044.78003 8.81772e-18
9045.64149 8.79055e-18
9046.50295 8.76009e-18
9047.36442 8.72963e-18
9048.22588 8.70523e-18
9049.08734 8.68083e-18
9049.94880 8.67754e-18
9050.81027 8.67417e-18
9051.67173 8.69598e-18
9052.54321 8.71787e-18
9053.40467 8.72020e-18
9054.26613 8.72237e-18
9055.12759 8.66612e-18
9055.98905 8.60975e-18
9056.85052 8.51579e-18
9057.71198 8.42172e-18
9058.57344 8.31835e-18
9059.43490 8.21496e-18
9060.29636 8.10568e-18
9061.16784 7.99639e-18
9062.02931 7.88261e-18
9062.89077 7.76882e-18
9063.75223 7.64640e-18
9064.61369 7.52395e-18
9065.47515 7.38377e-18
9066.33662 7.24353e-18
9067.19808 7.12129e-18
9068.05954 6.99909e-18
9068.92100 6.95405e-18
9069.78246 6.90922e-18
9070.64393 6.92829e-18
9071.51540 6.94753e-18
9072.37687 6.96433e-18
9073.23833 6.98114e-18
9074.09979 6.97120e-18
9074.96125 6.96120e-18
9075.82271 6.94305e-18
9076.68418 6.92487e-18
9077.54564 6.91010e-18
9078.40710 6.89534e-18
9079.26856 6.89064e-18
9080.13002 6.88597e-18
9080.99149 6.89108e-18
9081.86297 6.89621e-18
9082.72443 6.88813e-18
9083.58589 6.88000e-18
9084.44735 6.84587e-18
9085.30881 6.81167e-18
9086.17028 6.77685e-18
9087.03174 6.74201e-18
9087.89320 6.72600e-18
9088.75466 6.71004e-18
9089.61612 6.68794e-18
9090.48760 6.66581e-18
9091.34906 6.61373e-18
9092.21053 6.56187e-18
9093.07199 6.50446e-18
9093.93345 6.44704e-18
9094.79491 6.41444e-18
9095.65637 6.38192e-18
9096.51784 6.36560e-18
9097.37930 6.34934e-18
9098.24076 6.33131e-18
9099.10222 6.31327e-18
9099.97370 6.29819e-18
9100.83516 6.28312e-18
9101.69663 6.28061e-18
9102.55809 6.27813e-18
9103.41955 6.30663e-18
9104.28101 6.33522e-18
9105.14247 6.42114e-18
9106.00393 6.50722e-18
9106.86540 6.61923e-18
9107.72686 6.73132e-18
9108.58832 6.78915e-18
9109.45980 6.84682e-18
9110.32126 6.81622e-18
9111.18272 6.78539e-18
9112.04419 6.68629e-18
9112.90565 6.58701e-18
9113.76711 6.46036e-18
9114.62857 6.33365e-18
9115.49003 6.26349e-18
9116.35150 6.19349e-18
9117.21296 6.22361e-18
9118.07442 6.25401e-18
9118.93588 6.31957e-18
9119.80736 6.38524e-18
9120.66882 6.42294e-18
9121.53028 6.46056e-18
9122.39175 6.42985e-18
9123.25321 6.39895e-18
9124.11467 6.27548e-18
9124.97613 6.15177e-18
9125.83760 5.99264e-18
9126.69906 5.83343e-18
9127.56052 5.70816e-18
9128.43200 5.58299e-18
9129.29346 5.52749e-18
9130.15492 5.47218e-18
9131.01638 5.50957e-18
9131.87785 5.54721e-18
9132.73931 5.66191e-18
9133.60077 5.77682e-18
9134.46223 5.93355e-18
9135.32369 6.09039e-18
9136.18516 6.25246e-18
9137.04662 6.41454e-18
9137.90808 6.54407e-18
9138.76954 6.67350e-18
9139.64102 6.74610e-18
9140.50248 6.81854e-18
9141.36395 6.82599e-18
9142.22541 6.83327e-18
9143.08687 6.76323e-18
9143.94833 6.69297e-18
9144.80979 6.52768e-18
9145.67125 6.36213e-18
9146.53272 6.12301e-18
9147.39418 5.88369e-18
9148.26566 5.64297e-18
9149.12712 5.40225e-18
9149.98858 5.22547e-18
9150.85004 5.04886e-18
9151.71151 4.98902e-18
9152.57297 4.92952e-18
9153.43443 5.00732e-18
9154.29589 5.08550e-18
9155.15735 5.23294e-18
9156.01882 5.38057e-18
9156.88028 5.52580e-18
9157.75176 5.67102e-18
9158.61322 5.78044e-18
9159.47468 5.88976e-18
9160.33614 5.93743e-18
9161.19760 5.98492e-18
9162.05907 5.97255e-18
9162.92053 5.96001e-18
9163.78199 5.90172e-18
9164.64345 5.84330e-18
9165.50492 5.73713e-18
9166.36638 5.63083e-18
9167.22784 5.47426e-18
9168.09932 5.31757e-18
9168.96078 5.14946e-18
9169.82224 4.98133e-18
9170.68370 4.85426e-18
9171.54517 4.72732e-18
9172.40663 4.66757e-18
9173.26809 4.60800e-18
9174.12955 4.62701e-18
9174.99101 4.64624e-18
9175.85248 4.71169e-18
9176.71394 4.77726e-18
9177.58542 4.81570e-18
9178.44688 4.85406e-18
9179.30834 4.84410e-18
9180.16980 4.83402e-18
9181.03127 4.82389e-18
9181.89273 4.81377e-18
9182.75419 4.82998e-18
9183.61565 4.84628e-18
9184.47711 4.87938e-18
9185.33857 4.91253e-18
9186.20004 4.95110e-18
9187.07152 4.98969e-18
9187.93298 5.00607e-18
9188.79444 5.02239e-18
9189.65590 5.00121e-18
9190.51736 4.97993e-18
9191.37883 4.96396e-18
9192.24029 4.94801e-18
9193.10175 4.97532e-18
9193.96321 5.00274e-18
9194.82467 5.05639e-18
9195.68614 5.11011e-18
9196.55762 5.16596e-18
9197.41908 5.22182e-18
9198.28054 5.25804e-18
9199.14200 5.29421e-18
9200.00346 5.28982e-18
9200.86492 5.28533e-18
9201.72639 5.25580e-18
9202.58785 5.22619e-18
9203.44931 5.20191e-18
9204.31077 5.17764e-18
9205.17224 5.15950e-18
9206.04371 5.14136e-18
9206.90518 5.11600e-18
9207.76664 5.09061e-18
9208.62810 5.06228e-18
9209.48956 5.03393e-18
9210.35102 5.01690e-18
9211.21249 4.99990e-18
9212.07395 5.00852e-18
9212.93541 5.01721e-18
9213.79687 5.06792e-18
9214.65833 5.11874e-18
9215.52981 5.20824e-18
9216.39127 5.29786e-18
9217.25274 5.39216e-18
9218.11420 5.48646e-18
9218.97566 5.56347e-18
9219.83712 5.64042e-18
9220.69859 5.70718e-18
9221.56005 5.77391e-18
9222.42151 5.83438e-18
9223.28297 5.89484e-18
9224.14443 5.94230e-18
9225.00590 5.98973e-18
9225.87737 6.01946e-18
9226.73884 6.04915e-18
9227.60030 6.05621e-18
9228.46176 6.06322e-18
9229.32322 6.04573e-18
9230.18468 6.02818e-18
9231.04615 6.00606e-18
9231.90761 5.98394e-18
9232.76907 5.98023e-18
9233.63053 5.97657e-18
9234.49199 5.98622e-18
9235.35346 5.99590e-18
9236.22494 6.00592e-18
9237.08640 6.01595e-18
9237.94786 6.03227e-18
9238.80932 6.04861e-18
9239.67078 6.08340e-18
9240.53225 6.11824e-18
9241.39371 6.17734e-18
9242.25517 6.23650e-18
9243.11663 6.32229e-18
9243.97809 6.40815e-18
9244.84957 6.51315e-18
9245.71103 6.61820e-18
9246.57250 6.72537e-18
9247.43396 6.83254e-18
9248.29542 6.93215e-18
9249.15688 7.03172e-18
9250.01834 7.12576e-18
9250.87981 7.21979e-18
9251.74127 7.30352e-18
9252.60273 7.38722e-18
9253.46419 7.44058e-18
9254.32565 7.49384e-18
9255.19713 7.51354e-18
9256.05860 7.53313e-18
9256.92006 7.55817e-18
9257.78152 7.58323e-18
9258.64298 7.64297e-18
9259.50444 7.70281e-18
9260.36591 7.78838e-18
9261.22737 7.87403e-18
9262.08883 7.96966e-18
9262.95029 8.06531e-18
9263.81175 8.13647e-18
9264.68323 8.20755e-18
9265.54469 8.22120e-18
9266.40616 8.23469e-18
9267.26762 8.19175e-18
9268.12908 8.14866e-18
9268.99054 8.06275e-18
9269.85200 7.97672e-18
9270.71347 7.87982e-18
9271.57493 7.78289e-18
9272.43639 7.71312e-18
9273.29785 7.64343e-18
9274.16933 7.63089e-18
9275.03079 7.61851e-18
9275.89226 7.68522e-18
9276.75372 7.75216e-18
9277.61518 7.88690e-18
9278.47664 8.02184e-18
9279.33810 8.18750e-18
9280.19957 8.35325e-18
9281.06103 8.50978e-18
9281.92249 8.66630e-18
9282.79397 8.77506e-18
9283.65543 8.88374e-18
9284.51689 8.91403e-18
9285.37835 8.94405e-18
9286.23982 8.87760e-18
9287.10128 8.81088e-18
9287.96274 8.65574e-18
9288.82420 8.50026e-18
9289.68566 8.30558e-18
9290.54713 8.11080e-18
9291.40859 7.93380e-18
9292.27005 7.75686e-18
9293.14153 7.67287e-18
9294.00299 7.58913e-18
9294.86445 7.64730e-18
9295.72592 7.70587e-18
9296.58738 7.85555e-18
9297.44884 8.00550e-18
9298.31030 8.17947e-18
9299.17176 8.35350e-18
9300.03323 8.46012e-18
9300.89469 8.56654e-18
9301.75615 8.51792e-18
9302.62763 8.46885e-18
9303.48909 8.34939e-18
9304.35055 8.22974e-18
9305.21201 8.17749e-18
9306.07348 8.12544e-18
9306.93494 8.10823e-18
9307.79640 8.09112e-18
9308.65786 8.00880e-18
9309.51932 7.92630e-18
9310.38079 7.78351e-18
9311.24225 7.64057e-18
9312.11373 7.49641e-18
9312.97519 7.35227e-18
9313.83665 7.26470e-18
9314.69811 7.17729e-18
9315.55958 7.21218e-18
9316.42104 7.24744e-18
9317.28250 7.39198e-18
9318.14396 7.53684e-18
9319.00542 7.66433e-18
9319.86688 7.79176e-18
9320.72835 7.85246e-18
9321.58981 7.91297e-18
9322.46129 8.02365e-18
9323.32275 8.13448e-18
9324.18421 8.32069e-18
9325.04567 8.50710e-18
9325.90714 8.53007e-18
9326.76860 8.55256e-18
9327.63006 8.26507e-18
9328.49152 7.97670e-18
9329.35298 7.60988e-18
9330.21445 7.24282e-18
9331.07591 7.02042e-18
9331.94739 6.79844e-18
9332.80885 6.67731e-18
9333.67031 6.55648e-18
9334.53177 6.47200e-18
9335.39323 6.38762e-18
9336.25470 6.34123e-18
9337.11616 6.29495e-18
9337.97762 6.27558e-18
9338.83908 6.25629e-18
9339.70055 6.46097e-18
9340.56201 6.66629e-18
9341.43349 7.36189e-18
9342.29495 8.05887e-18
9343.15641 8.90356e-18
9344.01787 9.74859e-18
9344.87933 1.01135e-17
9345.74080 1.04769e-17
9346.60226 1.01744e-17
9347.46372 9.86990e-18
9348.32518 9.00704e-18
9349.18664 8.14264e-18
9350.04811 7.11626e-18
9350.90957 6.08944e-18
9351.78105 5.63134e-18
9352.64251 5.17487e-18
9353.50397 5.52515e-18
9354.36543 5.87772e-18
9355.22689 6.50697e-18
9356.08836 7.13700e-18
9356.94982 7.60013e-18
9357.81128 8.06277e-18
9358.67274 8.09428e-18
9359.53420 8.12455e-18
9360.39567 7.60964e-18
9361.26715 7.09318e-18
9362.12861 6.44891e-18
9362.99007 5.80430e-18
9363.85153 5.42430e-18
9364.71299 5.04507e-18
9365.57446 4.95202e-18
9366.43592 4.85980e-18
9367.29738 5.01577e-18
9368.15884 5.17243e-18
9369.02030 5.38187e-18
9369.89178 5.59144e-18
9370.75324 5.63037e-18
9371.61471 5.66880e-18
9372.47617 5.55096e-18
9373.33763 5.43268e-18
9374.19909 5.24175e-18
9375.06056 5.05062e-18
9375.92202 4.91457e-18
9376.78348 4.77868e-18
9377.64494 4.85382e-18
9378.50640 4.92956e-18
9379.37788 5.15661e-18
9380.23934 5.38409e-18
9381.10081 5.56179e-18
9381.96227 5.73934e-18
9382.82373 5.80357e-18
9383.68519 5.86747e-18
9384.54665 5.87610e-18
9385.40812 5.88456e-18
9386.26958 5.85360e-18
9387.13104 5.82252e-18
9387.99250 5.72486e-18
9388.85396 5.62701e-18
9389.72544 5.46113e-18
9390.58691 5.29505e-18
9391.44837 5.08597e-18
9392.30983 4.87677e-18
9393.17129 4.65879e-18
9394.03275 4.44079e-18
9394.89422 4.27478e-18
9395.75568 4.10894e-18
9396.61714 4.03611e-18
9397.47860 3.96356e-18
9398.34006 3.95338e-18
9399.21154 3.94337e-18
9400.07300 3.95744e-18
9400.93447 3.97158e-18
9401.79593 3.97301e-18
9402.65739 3.97439e-18
9403.51885 3.93089e-18
9404.38031 3.88725e-18
9405.24178 3.83509e-18
9406.10324 3.78292e-18
9406.96470 3.77307e-18
9407.82616 3.76334e-18
9408.69764 3.79635e-18
9409.55910 3.82949e-18
9410.42057 3.88764e-18
9411.28203 3.94587e-18
9412.14349 4.00165e-18
9413.00495 4.05743e-18
9413.86641 4.07820e-18
9414.72788 4.09886e-18
9415.58934 4.06288e-18
9416.45080 4.02672e-18
9417.31226 3.92725e-18
9418.17372 3.82758e-18
9419.04520 3.67158e-18
9419.90666 3.51542e-18
9420.76813 3.31330e-18
9421.62959 3.11106e-18
9422.49105 2.93518e-18
9423.35251 2.75937e-18
9424.21397 2.78234e-18
9425.07544 2.80589e-18
9425.93690 3.08316e-18
9426.79836 3.36114e-18
9427.65982 3.71170e-18
9428.53130 4.06245e-18
9429.39276 4.31181e-18
9430.25423 4.56086e-18
9431.11569 4.54748e-18
9431.97715 4.53334e-18
9432.83861 4.17539e-18
9433.70007 3.81645e-18
9434.56153 3.39776e-18
9435.42300 2.97892e-18
9436.28446 2.79637e-18
9437.14592 2.61452e-18
9438.01740 2.71489e-18
9438.87886 2.81609e-18
9439.74032 3.18015e-18
9440.60179 3.54497e-18
9441.46325 3.98783e-18
9442.32471 4.43091e-18
9443.18617 4.71457e-18
9444.04763 4.99777e-18
9444.90910 5.05417e-18
9445.77056 5.10990e-18
9446.63202 4.95389e-18
9447.49348 4.79727e-18
9448.36496 4.51307e-18
9449.22642 4.22851e-18
9450.08788 3.95162e-18
9450.94935 3.67476e-18
9451.81081 3.49346e-18
9452.67227 3.31246e-18
9453.53373 3.26117e-18
9454.39520 3.21027e-18
9455.25666 3.29758e-18
9456.11812 3.38530e-18
9456.98960 3.59004e-18
9457.85106 3.79510e-18
9458.71252 4.05596e-18
9459.57398 4.31696e-18
9460.43545 4.51024e-18
9461.29691 4.70331e-18
9462.15837 4.75447e-18
9463.01983 4.80523e-18
9463.88129 4.77251e-18
9464.74276 4.73956e-18
9465.60422 4.68385e-18
9466.47570 4.62807e-18
9467.33716 4.58675e-18
9468.19862 4.54548e-18
9469.06008 4.54860e-18
9469.92155 4.55186e-18
9470.78301 4.55335e-18
9471.64447 4.55484e-18
9472.50593 4.50563e-18
9473.36739 4.45629e-18
9474.22885 4.38710e-18
9475.09032 4.31786e-18
9475.96180 4.27048e-18
9476.82326 4.22317e-18
9477.68472 4.28425e-18
9478.54618 4.34564e-18
9479.40764 4.61286e-18
9480.26911 4.88066e-18
9481.13057 5.24793e-18
9481.99203 5.61548e-18
9482.85349 5.87759e-18
9483.71495 6.13939e-18
9484.57642 6.18818e-18
9485.43788 6.23634e-18
9486.30936 6.03394e-18
9487.17082 5.83081e-18
9488.03228 5.45963e-18
9488.89374 5.08797e-18
9489.75520 4.76509e-18
9490.61667 4.44235e-18
9491.47813 4.30654e-18
9492.33959 4.17129e-18
9493.20105 4.22002e-18
9494.06252 4.26930e-18
9494.92398 4.50189e-18
9495.79546 4.73500e-18
9496.65692 5.18106e-18
9497.51838 5.62774e-18
9498.37984 6.24025e-18
9499.24130 6.85324e-18
9500.10277 7.39253e-18
9500.96423 7.93159e-18
9501.82569 8.19033e-18
9502.68715 8.44825e-18
9503.54861 8.39368e-18
9504.41008 8.33819e-18
9505.28155 7.99146e-18
9506.14302 7.64389e-18
9507.00448 7.18511e-18
9507.86594 6.72602e-18
9508.72740 6.36940e-18
9509.58887 6.01310e-18
9510.45033 5.77964e-18
9511.31179 5.54656e-18
9512.17325 5.39393e-18
9513.03471 5.24154e-18
9513.89617 5.21142e-18
9514.75764 5.18165e-18
9515.62912 5.33369e-18
9516.49058 5.48625e-18
9517.35204 5.80305e-18
9518.21350 6.12032e-18
9519.07496 6.54338e-18
9519.93643 6.96676e-18
9520.79789 7.39310e-18
9521.65935 7.81945e-18
9522.52081 8.10722e-18
9523.38227 8.39459e-18
9524.24374 8.49602e-18
9525.11522 8.59690e-18
9525.97668 8.58652e-18
9526.83814 8.57581e-18
9527.69960 8.52235e-18
9528.56106 8.46876e-18
9529.42252 8.42651e-18
9530.28399 8.38430e-18
9531.14545 8.38371e-18
9532.00691 8.38325e-18
9532.86837 8.37611e-18
9533.72984 8.36894e-18
9534.60131 8.31452e-18
9535.46278 8.25994e-18
9536.32424 8.14590e-18
9537.18570 8.03168e-18
9538.04716 7.86457e-18
9538.90862 7.69730e-18
9539.77009 7.62963e-18
9540.63155 7.56225e-18
9541.49301 7.73796e-18
9542.35447 7.91439e-18
9543.21593 8.23036e-18
9544.08741 8.54673e-18
9544.94888 8.84948e-18
9545.81034 9.15215e-18
9546.67180 9.29189e-18
9547.53326 9.43112e-18
9548.39472 9.25425e-18
9549.25619 9.07653e-18
9550.11765 8.76122e-18
9550.97911 8.44552e-18
9551.84057 8.35040e-18
9552.70203 8.25593e-18
9553.57351 8.40536e-18
9554.43497 8.55551e-18
9555.29644 8.73751e-18
9556.15790 8.91956e-18
9557.01936 8.99130e-18
9557.88082 9.06268e-18
9558.74228 8.92900e-18
9559.60375 8.79479e-18
9560.46521 8.51471e-18
9561.32667 8.23425e-18
9562.18813 8.13157e-18
9563.05961 8.02942e-18
9563.92107 8.27117e-18
9564.78254 8.51392e-18
9565.64400 8.92813e-18
9566.50546 9.34286e-18
9567.36692 9.74452e-18
9568.22838 1.01461e-17
9569.08985 1.03144e-17
9569.95131 1.04821e-17
9570.81277 1.02651e-17
9571.67423 1.00469e-17
9572.53569 9.63584e-18
9573.40717 9.22423e-18
9574.26863 8.84627e-18
9575.13010 8.46849e-18
9575.99156 8.27561e-18
9576.85302 8.08328e-18
9577.71448 8.19542e-18
9578.57594 8.30846e-18
9579.43741 8.53708e-18
9580.29887 8.76598e-18
9581.16033 8.83563e-18
9582.02179 8.90485e-18
9582.89327 8.77913e-18
9583.75473 8.65288e-18
9584.61620 8.38582e-18
9585.47766 8.11831e-18
9586.33912 7.90250e-18
9587.20058 7.68683e-18
9588.06204 7.81549e-18
9588.92351 7.94518e-18
9589.78497 8.38164e-18
9590.64643 8.81902e-18
9591.51791 9.22682e-18
9592.37937 9.63463e-18
9593.24083 9.83243e-18
9594.10229 1.00297e-17
9594.96376 1.00349e-17
9595.82522 1.00396e-17
9596.68668 9.88868e-18
9597.54814 9.73734e-18
9598.40960 9.51540e-18
9599.27107 9.29336e-18
9600.13253 9.09435e-18
9600.99399 8.89534e-18
9601.86547 8.79349e-18
9602.72693 8.69191e-18
9603.58839 8.73569e-18
9604.44986 8.77999e-18
9605.31132 8.96136e-18
9606.17278 9.14315e-18
9607.03424 9.42125e-18
9607.89570 9.69953e-18
9608.75717 9.89750e-18
9609.61863 1.00952e-17
9610.48009 1.00426e-17
9611.35157 9.98922e-18
9612.21303 9.75828e-18
9613.07449 9.52690e-18
9613.93595 9.25399e-18
9614.79742 8.98091e-18
9615.65888 8.76078e-18
9616.52034 8.54077e-18
9617.38180 8.45242e-18
9618.24326 8.36449e-18
9619.10473 8.42825e-18
9619.96619 8.49246e-18
9620.82765 8.68637e-18
9621.69913 8.88071e-18
9622.56059 9.13485e-18
9623.42205 9.38915e-18
9624.28352 9.60616e-18
9625.14498 9.82309e-18
9626.00644 9.91022e-18
9626.86790 9.99692e-18
9627.72936 9.86722e-18
9628.59083 9.73691e-18
9629.45229 9.41589e-18
9630.31375 9.09435e-18
9631.17521 8.77203e-18
9632.04669 8.44966e-18
9632.90815 8.27348e-18
9633.76961 8.09772e-18
9634.63108 8.12506e-18
9635.49254 8.15302e-18
9636.35400 8.37784e-18
9637.21546 8.60323e-18
9638.07692 8.81227e-18
9638.93839 9.02123e-18
9639.79985 9.03819e-18
9640.67133 9.05455e-18
9641.53279 8.98948e-18
9642.39425 8.92415e-18
9643.25571 8.90563e-18
9644.11718 8.88729e-18
9644.97864 8.94639e-18
9645.84010 9.00583e-18
9646.70156 9.15518e-18
9647.56302 9.30479e-18
9648.42448 9.44462e-18
9649.28595 9.58436e-18
9650.15743 9.58470e-18
9651.01889 9.58453e-18
9651.88035 9.44487e-18
9652.74181 9.30479e-18
9653.60327 9.08345e-18
9654.46474 8.86176e-18
9655.32620 8.63875e-18
9656.18766 8.41569e-18
9657.04912 8.28340e-18
9657.91058 8.15139e-18
9658.77205 8.16143e-18
9659.64352 8.17192e-18
9660.50499 8.33695e-18
9661.36645 8.50246e-18
9662.22791 8.77022e-18
9663.08937 9.03828e-18
9663.95083 9.27234e-18
9664.81230 9.50631e-18
9665.67376 9.62771e-18
9666.53522 9.74885e-18
9667.39668 9.79938e-18
9668.25815 9.84974e-18
9669.11961 9.85337e-18
9669.99109 9.85683e-18
9670.85255 9.77316e-18
9671.71401 9.68914e-18
9672.57547 9.50709e-18
9673.43693 9.32469e-18
9674.29840 9.11866e-18
9675.15986 8.91247e-18
9676.02132 8.75672e-18
9676.88278 8.60115e-18
9677.74424 8.54754e-18
9678.61572 8.49423e-18
9679.47718 8.57709e-18
9680.33865 8.66033e-18
9681.20011 8.81140e-18
9682.06157 8.96257e-18
9682.92303 9.08674e-18
9683.78449 9.21082e-18
9684.64596 9.27995e-18
9685.50742 9.34883e-18
9686.36888 9.35904e-18
9687.23034 9.36908e-18
9688.10182 9.33023e-18
9688.96328 9.29129e-18
9689.82475 9.22743e-18
9690.68621 9.16349e-18
9691.54767 9.07895e-18
9692.40913 8.99432e-18
9693.27059 8.87639e-18
9694.13206 8.75828e-18
9694.99352 8.62430e-18
9695.85498 8.49028e-18
9696.71644 8.38788e-18
9697.57790 8.28558e-18
9698.44938 8.23841e-18
9699.31084 8.19140e-18
9700.17231 8.19048e-18
9701.03377 8.18970e-18
9701.89523 8.21555e-18
9702.75669 8.24150e-18
9703.61816 8.25085e-18
9704.47962 8.26015e-18
9705.34108 8.22505e-18
9706.20254 8.18981e-18
9707.06400 8.13721e-18
9707.93548 8.08456e-18
9708.79694 8.04241e-18
9709.65841 8.00031e-18
9710.51987 7.98386e-18
9711.38133 7.96749e-18
9712.24279 7.98668e-18
9713.10425 8.00598e-18
9713.96572 8.03427e-18
9714.82718 8.06258e-18
9715.68864 8.06803e-18
9716.55010 8.07342e-18
9717.41156 8.04689e-18
9718.28304 8.02026e-18
9719.14451 7.95806e-18
9720.00597 7.89576e-18
9720.86743 7.83117e-18
9721.72889 7.76658e-18
9722.59035 7.75077e-18
9723.45182 7.73511e-18
9724.31328 7.74561e-18
9725.17474 7.75620e-18
9726.03620 7.72626e-18
9726.89766 7.69618e-18
9727.76914 7.60213e-18
9728.63060 7.50789e-18
9729.49207 7.36216e-18
9730.35353 7.21628e-18
9731.21499 7.04995e-18
9732.07645 6.88357e-18
9732.93791 6.75383e-18
9733.79938 6.62421e-18
9734.66084 6.56669e-18
9735.52230 6.50938e-18
9736.38376 6.51714e-18
9737.25524 6.52509e-18
9738.11670 6.58211e-18
9738.97817 6.63927e-18
9739.83963 6.71397e-18
9740.70109 6.78874e-18
9741.56255 6.84995e-18
9742.42401 6.91113e-18
9743.28548 6.94230e-18
9744.14694 6.97339e-18
9745.00840 6.96473e-18
9745.86986 6.95596e-18
9746.74134 6.92076e-18
9747.60280 6.88549e-18
9748.46426 6.84200e-18
9749.32573 6.79849e-18
9750.18719 6.75104e-18
9751.04865 6.70358e-18
9751.91011 6.65447e-18
9752.77157 6.60535e-18
9753.63304 6.55295e-18
9754.49450 6.50054e-18
9755.35596 6.44145e-18
9756.22744 6.38235e-18
9757.08890 6.32888e-18
9757.95036 6.27542e-18
9758.81183 6.24574e-18
9759.67329 6.21612e-18
9760.53475 6.22426e-18
9761.39621 6.23252e-18
9762.25767 6.29054e-18
9763.11913 6.34872e-18
9763.98060 6.43837e-18
9764.84206 6.52809e-18
9765.71354 6.59791e-18
9766.57500 6.66766e-18
9767.43646 6.69240e-18
9768.29792 6.71701e-18
9769.15939 6.71324e-18
9770.02085 6.70937e-18
9770.88231 6.69117e-18
9771.74377 6.67292e-18
9772.60523 6.64732e-18
9773.46670 6.62171e-18
9774.32816 6.59766e-18
9775.19964 6.57361e-18
9776.06110 6.55817e-18
9776.92256 6.54275e-18
9777.78402 6.54063e-18
9778.64548 6.53856e-18
9779.50695 6.55577e-18
9780.36841 6.57305e-18
9781.22987 6.61127e-18
9782.09133 6.64956e-18
9782.95280 6.67570e-18
9783.81426 6.70180e-18
9784.68574 6.67989e-18
9785.54720 6.65783e-18
9786.40866 6.60529e-18
9787.27012 6.55268e-18
9788.13158 6.50229e-18
9788.99305 6.45192e-18
9789.85451 6.41522e-18
9790.71597 6.37856e-18
9791.57743 6.36035e-18
9792.43889 6.34219e-18
9793.30036 6.33018e-18
9794.16182 6.31819e-18
9795.03330 6.28654e-18
9795.89476 6.25484e-18
9796.75622 6.21110e-18
9797.61768 6.16733e-18
9798.47915 6.14924e-18
9799.34061 6.13123e-18
9800.20207 6.15139e-18
9801.06353 6.17167e-18
9801.92499 6.21220e-18
9802.78645 6.25279e-18
9803.64792 6.29563e-18
9804.51940 6.33847e-18
9805.38086 6.36244e-18
9806.24232 6.38634e-18
9807.10378 6.38117e-18
9807.96524 6.37589e-18
9808.82671 6.36189e-18
9809.68817 6.34786e-18
9810.54963 6.34438e-18
9811.41109 6.34093e-18
9812.27255 6.36020e-18
9813.13402 6.37953e-18
9813.99548 6.42723e-18
9814.86696 6.47502e-18
9815.72842 6.51720e-18
9816.58988 6.55937e-18
9817.45134 6.55998e-18
9818.31280 6.56047e-18
9819.17427 6.52431e-18
9820.03573 6.48805e-18
9820.89719 6.43029e-18
9821.75865 6.37247e-18
9822.62012 6.31537e-18
9823.48158 6.25827e-18
9824.35306 6.22777e-18
9825.21452 6.19736e-18
9826.07598 6.18968e-18
9826.93744 6.18207e-18
9827.79890 6.17621e-18
9828.66037 6.17036e-18
9829.52183 6.16114e-18
9830.38329 6.15191e-18
9831.24475 6.14554e-18
9832.10621 6.13918e-18
9832.97769 6.13423e-18
9833.83915 6.12928e-18
9834.70062 6.11759e-18
9835.56208 6.10588e-18
9836.42354 6.08370e-18
9837.28500 6.06148e-18
9838.14647 6.03099e-18
9839.00793 6.00048e-18
9839.86939 5.96418e-18
9840.73085 5.92787e-18
9841.59231 5.88704e-18
9842.45377 5.84620e-18
9843.32525 5.80551e-18
9844.18672 5.76481e-18
9845.04818 5.73867e-18
9845.90964 5.71256e-18
9846.77110 5.71233e-18
9847.63256 5.71216e-18
9848.49403 5.73432e-18
9849.35549 5.75654e-18
9850.21695 5.79464e-18
9851.07841 5.83279e-18
9851.93987 5.88066e-18
9852.81135 5.92856e-18
9853.67282 5.97892e-18
9854.53428 6.02928e-18
9855.39574 6.07753e-18
9856.25720 6.12576e-18
9857.11866 6.16849e-18
9857.98013 6.21121e-18
9858.84159 6.23930e-18
9859.70305 6.26733e-18
9860.56451 6.27029e-18
9861.42597 6.27318e-18
9862.29745 6.24960e-18
9863.15891 6.22595e-18
9864.02038 6.18032e-18
9864.88184 6.13463e-18
9865.74330 6.07528e-18
9866.60476 6.01587e-18
9867.46622 5.95471e-18
9868.32769 5.89354e-18
9869.18915 5.83739e-18
9870.05061 5.78125e-18
9870.92209 5.72931e-18
9871.78355 5.67739e-18
9872.64501 5.63057e-18
9873.50648 5.58377e-18
9874.36794 5.54608e-18
9875.22940 5.50841e-18
9876.09086 5.48302e-18
9876.95232 5.45767e-18
9877.81379 5.44749e-18
9878.67525 5.43737e-18
9879.53671 5.44374e-18
9880.39817 5.45017e-18
9881.26965 5.47108e-18
9882.13111 5.49203e-18
9882.99257 5.52370e-18
9883.85404 5.55541e-18
9884.71550 5.59101e-18
9885.57696 5.62661e-18
9886.43842 5.65871e-18
9887.29988 5.69081e-18
9888.16135 5.71246e-18
9889.02281 5.73410e-18
9889.88427 5.73950e-18
9890.74573 5.74485e-18
9891.61721 5.73385e-18
9892.47867 5.72281e-18
9893.34014 5.69835e-18
9894.20160 5.67385e-18
9895.06306 5.63907e-18
9895.92452 5.60425e-18
9896.78598 5.56247e-18
9897.64745 5.52067e-18
9898.50891 5.47731e-18
9899.37037 5.43394e-18
9900.23183 5.39619e-18
9901.09329 5.35845e-18
9901.96477 5.32749e-18
9902.82623 5.29655e-18
9903.68770 5.26628e-18
9904.54916 5.23602e-18
9905.41062 5.20785e-18
9906.27208 5.17969e-18
9907.13354 5.16690e-18
9907.99501 5.15414e-18
9908.85647 5.16304e-18
9909.71793 5.17200e-18
9910.57939 5.19654e-18
9911.45087 5.22112e-18
9912.31233 5.25143e-18
9913.17380 5.28176e-18
9914.03526 5.29700e-18
9914.89672 5.31219e-18
9915.75818 5.29580e-18
9916.61964 5.27931e-18
9917.48111 5.23708e-18
9918.34257 5.19477e-18
9919.20403 5.13681e-18
9920.07551 5.07881e-18
9920.93697 5.01663e-18
9921.79843 4.95444e-18
9922.65989 4.89973e-18
9923.52136 4.84506e-18
9924.38282 4.80295e-18
9925.24428 4.76089e-18
9926.10574 4.73339e-18
9926.96720 4.70595e-18
9927.82867 4.68545e-18
9928.69013 4.66497e-18
9929.56161 4.63936e-18
9930.42307 4.61374e-18
9931.28453 4.57909e-18
9932.14599 4.54441e-18
9933.00746 4.50243e-18
9933.86892 4.46043e-18
9934.73038 4.41469e-18
9935.59184 4.36894e-18
9936.45330 4.32459e-18
9937.31477 4.28024e-18
9938.17623 4.24407e-18
9939.03769 4.20792e-18
9939.90917 4.18848e-18
9940.77063 4.16909e-18
9941.63209 4.16872e-18
9942.49355 4.16841e-18
9943.35502 4.17826e-18
9944.21648 4.18814e-18
9945.07794 4.20060e-18
9945.93940 4.21305e-18
9946.80086 4.22616e-18
9947.66233 4.23927e-18
9948.52379 4.25083e-18
9949.39527 4.26238e-18
9950.25673 4.26814e-18
9951.11819 4.27389e-18
9951.97965 4.27112e-18
9952.84112 4.26835e-18
9953.70258 4.26255e-18
9954.56404 4.25674e-18
9955.42550 4.25393e-18
9956.28696 4.25113e-18
9957.14843 4.24728e-18
9958.00989 4.24342e-18
9958.88137 4.23297e-18
9959.74283 4.22248e-18
9960.60429 4.20259e-18
9961.46575 4.18266e-18
9962.32721 4.15148e-18
9963.18868 4.12027e-18
9964.05014 4.08715e-18
9964.91160 4.05403e-18
9965.77306 4.03455e-18
9966.63452 4.01511e-18
9967.49599 4.01293e-18
9968.36747 4.01081e-18
9969.22893 4.01992e-18
9970.09039 4.02905e-18
9970.95185 4.04851e-18
9971.81331 4.06801e-18
9972.67477 4.10229e-18
9973.53624 4.13662e-18
9974.39770 4.18386e-18
9975.25916 4.23114e-18
9976.12062 4.28123e-18
9976.98208 4.33132e-18
9977.85356 4.37621e-18
9978.71503 4.42109e-18
9979.57649 4.45693e-18
9980.43795 4.49274e-18
9981.29941 4.51818e-18
9982.16087 4.54359e-18
9983.02234 4.56404e-18
9983.88380 4.58448e-18
9984.74526 4.60539e-18
9985.60672 4.62631e-18
9986.46818 4.65041e-18
9987.32965 4.67451e-18
9988.20112 4.70319e-18
9989.06259 4.73189e-18
9989.92405 4.75505e-18
9990.78551 4.77820e-18
9991.64697 4.78438e-18
9992.50843 4.79052e-18
9993.36990 4.78833e-18
9994.23136 4.78611e-18
9995.09282 4.79024e-18
9995.95428 4.79439e-18
9996.81574 4.80234e-18
9997.67721 4.81030e-18
9998.54869 4.81269e-18
9999.41015 4.81507e-18
