# wavelength flux
3205.99597 7.37566e-18
3207.94955 7.35002e-18
3209.90313 7.17612e-18
3211.84664 7.19023e-18
3213.80022 7.05795e-18
3215.75380 7.29444e-18
3217.69731 7.28246e-18
3219.65089 7.34563e-18
3221.60447 7.04906e-18
3223.54798 6.84942e-18
3225.50156 6.90612e-18
3227.44507 6.90023e-18
3229.39865 6.84967e-18
3231.35223 6.69886e-18
3233.29574 6.90960e-18
3235.24932 6.77289e-18
3237.20290 6.93089e-18
3239.14641 7.15863e-18
3241.09999 6.97134e-18
3243.05357 7.03588e-18
3244.99708 6.97457e-18
3246.95066 6.77773e-18
3248.90424 6.85071e-18
3250.84775 7.05103e-18
3252.80133 6.87104e-18
3254.75491 7.18017e-18
3256.69842 7.14654e-18
3258.65200 7.04321e-18
3260.59551 6.89412e-18
3262.54909 7.06062e-18
3264.50267 7.17498e-18
3266.44618 7.45132e-18
3268.39976 7.74579e-18
3270.35334 7.69344e-18
3272.29685 7.45494e-18
3274.25043 7.48571e-18
3276.20401 7.44988e-18
3278.14752 7.46115e-18
3280.10110 7.66270e-18
3282.05468 7.50393e-18
3283.99819 7.41657e-18
3285.95177 7.63011e-18
3287.89528 7.55984e-18
3289.84886 7.53168e-18
3291.80244 7.72566e-18
3293.74595 7.85453e-18
3295.69953 7.69763e-18
3297.65311 7.76105e-18
3299.59662 8.05802e-18
3301.55020 8.04119e-18
3303.50378 7.99519e-18
3305.44729 7.83779e-18
3307.40087 7.87328e-18
3309.35445 7.89473e-18
3311.29796 7.80265e-18
3313.25154 7.75972e-18
3315.20512 7.87370e-18
3317.14863 8.10571e-18
3319.10221 8.08680e-18
3321.04572 8.00852e-18
3322.99930 8.35237e-18
3324.95288 8.44139e-18
3326.89639 8.30495e-18
3328.84997 8.31356e-18
3330.80355 8.20306e-18
3332.74706 8.47071e-18
3334.70064 8.67287e-18
3336.65422 8.65623e-18
3338.59773 8.55007e-18
3340.55131 8.37862e-18
3342.50489 8.24110e-18
3344.44840 8.26868e-18
3346.40198 8.16463e-18
3348.34549 8.53688e-18
3350.29907 9.05017e-18
3352.25265 9.07038e-18
3354.19616 9.03129e-18
3356.14974 8.95360e-18
3358.10332 9.01847e-18
3360.04683 9.27303e-18
3362.00041 9.07697e-18
3363.95399 9.19656e-18
3365.89750 9.55704e-18
3367.85108 9.58337e-18
3369.80466 9.58368e-18
3371.74817 9.68993e-18
3373.70175 9.75818e-18
3375.64526 9.64197e-18
3377.59884 9.84193e-18
3379.55242 9.86052e-18
3381.49593 9.62054e-18
3383.44951 9.77025e-18
3385.40309 1.00591e-17
3387.34660 1.00197e-17
3389.30018 1.01383e-17
3391.25376 1.03590e-17
3393.19727 1.03910e-17
3395.15085 1.05731e-17
3397.10443 1.04967e-17
3399.04794 1.02589e-17
3401.00152 1.02463e-17
3402.94503 1.03494e-17
3404.89861 1.04200e-17
3406.85219 1.04751e-17
3408.79570 1.04965e-17
3410.74928 1.05837e-17
3412.70286 1.05718e-17
3414.64637 1.07123e-17
3416.59995 1.07782e-17
3418.55353 1.07894e-17
3420.49704 1.06910e-17
3422.45062 1.06740e-17
3424.40420 1.06015e-17
3426.34771 1.06192e-17
3428.30129 1.07827e-17
3430.25487 1.07590e-17
3432.19838 1.07564e-17
3434.15196 1.09067e-17
3436.09547 1.09316e-17
3438.04905 1.07817e-17
3440.00263 1.08749e-17
3441.94614 1.07753e-17
3443.89972 1.06999e-17
3445.85330 1.08943e-17
3447.79681 1.08562e-17
3449.75039 1.09400e-17
3451.70397 1.10754e-17
3453.64748 1.11291e-17
3455.60106 1.09259e-17
3457.55464 1.07650e-17
3459.49815 1.08745e-17
3461.45173 1.09562e-17
3463.39524 1.09809e-17
3465.34882 1.09051e-17
3467.30240 1.08243e-17
3469.24591 1.08237e-17
3471.19949 1.07874e-17
3473.15307 1.06176e-17
3475.09658 1.07301e-17
3477.05016 1.08870e-17
3479.00374 1.07770e-17
3480.94725 1.08407e-17
3482.90083 1.07362e-17
3484.85441 1.04864e-17
3486.79792 1.05221e-17
3488.75150 1.04851e-17
3490.70508 1.04816e-17
3492.64859 1.04519e-17
3494.60217 1.04377e-17
3496.54568 1.05824e-17
3498.49926 1.06082e-17
3500.45284 1.03286e-17
3502.39635 1.02386e-17
3504.34993 1.04880e-17
3506.30351 1.04979e-17
3508.24702 1.03140e-17
3510.20060 1.02808e-17
3512.15418 1.02811e-17
3514.09769 1.02940e-17
3516.05127 1.02690e-17
3518.00485 1.02379e-17
3519.94836 1.01622e-17
3521.90194 1.00640e-17
3523.84545 1.00937e-17
3525.79903 1.01199e-17
3527.75261 1.00839e-17
3529.69612 1.00761e-17
3531.64970 1.02587e-17
3533.60328 1.00890e-17
3535.54679 1.00034e-17
3537.50037 1.00122e-17
3539.45395 9.96320e-18
3541.39746 1.01719e-17
3543.35104 1.02258e-17
3545.30462 1.00230e-17
3547.24813 9.99663e-18
3549.20171 1.01774e-17
3551.14522 1.02552e-17
3553.09880 1.02098e-17
3555.05238 1.01494e-17
3556.99589 1.02817e-17
3558.94947 1.03613e-17
3560.90305 1.02036e-17
3562.84656 1.00323e-17
3564.80014 1.01792e-17
3566.75372 1.02056e-17
3568.69723 1.02698e-17
3570.65081 1.04913e-17
3572.60439 1.03977e-17
3574.54790 1.02800e-17
3576.50148 1.02706e-17
3578.44499 1.02210e-17
3580.39857 1.02564e-17
3582.35215 1.03180e-17
3584.29566 1.03357e-17
3586.24924 1.03001e-17
3588.20282 1.03319e-17
3590.14633 1.03221e-17
3592.09991 1.03178e-17
3594.05349 1.05488e-17
3595.99700 1.07846e-17
3597.95058 1.07920e-17
3599.90416 1.06556e-17
3601.84767 1.07422e-17
3603.80125 1.07538e-17
3605.75483 1.06429e-17
3607.69834 1.07878e-17
3609.65192 1.08991e-17
3611.59543 1.06969e-17
3613.54901 1.05625e-17
3615.50259 1.06199e-17
3617.44610 1.04401e-17
3619.39968 1.01566e-17
3621.35326 1.01563e-17
3623.29677 1.00893e-17
3625.25035 9.89379e-18
3627.20393 9.73690e-18
3629.14744 9.62392e-18
3631.10102 9.68100e-18
3633.05460 9.52625e-18
3634.99811 9.29918e-18
3636.95169 9.34085e-18
3638.89520 9.30672e-18
3640.84878 9.07654e-18
3642.80236 9.00115e-18
3644.74587 9.03156e-18
3646.69945 8.93997e-18
3648.65303 8.87152e-18
3650.59654 8.73879e-18
3652.55012 8.65556e-18
3654.50370 8.61932e-18
3656.44721 8.55753e-18
3658.40079 8.54651e-18
3660.35437 8.48450e-18
3662.29788 8.30563e-18
3664.25146 8.12424e-18
3666.20504 8.13679e-18
3668.14855 8.05949e-18
3670.10213 7.83106e-18
3672.04564 7.73760e-18
3673.99922 7.61902e-18
3675.95280 7.37723e-18
3677.89631 7.31207e-18
3679.84989 7.32482e-18
3681.80347 7.22089e-18
3683.74698 7.10363e-18
3685.70056 7.07670e-18
3687.65414 6.94935e-18
3689.59765 6.91617e-18
3691.55123 7.11911e-18
3693.50481 7.02004e-18
3695.44832 6.75898e-18
3697.40190 6.68975e-18
3699.34541 6.66506e-18
3701.29899 6.65493e-18
3703.25257 6.60753e-18
3705.19608 6.56310e-18
3707.14966 6.54308e-18
3709.10324 6.50481e-18
3711.04675 6.34853e-18
3713.00033 6.40506e-18
3714.95391 6.38471e-18
3716.89742 6.34580e-18
3718.85100 6.30014e-18
3720.80458 6.25150e-18
3722.74809 6.21610e-18
3724.70167 6.21095e-18
3726.64518 6.14994e-18
3728.59876 6.17332e-18
3730.55234 6.16206e-18
3732.49585 6.22397e-18
3734.44943 6.26244e-18
3736.40301 6.30091e-18
3738.34652 6.34520e-18
3740.30010 6.38948e-18
3742.25368 6.43376e-18
3744.19719 6.47803e-18
3746.15077 6.52230e-18
3748.10435 6.56658e-18
3750.04786 6.61084e-18
3752.00144 6.65511e-18
3753.94495 6.69936e-18
3755.89853 6.74362e-18
3757.85211 6.78788e-18
3759.79562 6.83213e-18
3761.74920 6.87638e-18
3763.70278 6.92063e-18
3765.64629 6.96486e-18
3767.59987 7.00911e-18
3769.55345 7.05335e-18
3771.49696 7.09758e-18
3773.45054 7.14181e-18
3775.40412 7.23903e-18
3777.34763 7.21235e-18
3779.30121 7.25327e-18
3781.25479 7.42821e-18
3783.19830 7.55468e-18
3785.15188 7.66188e-18
3787.09539 7.85178e-18
3789.04897 8.11003e-18
3791.00255 8.34912e-18
3792.94606 8.52151e-18
3794.89964 8.64833e-18
3796.85322 8.79950e-18
3798.79673 8.92158e-18
3800.75031 8.95516e-18
3802.70389 9.10155e-18
3804.64740 9.40003e-18
3806.60098 9.50954e-18
3808.55456 9.74691e-18
3810.49807 9.98332e-18
3812.45165 1.02860e-17
3814.39516 1.06557e-17
3816.34874 1.08770e-17
3818.30232 1.12161e-17
3820.24583 1.14786e-17
3822.19941 1.17519e-17
3824.15299 1.20971e-17
3826.09650 1.22600e-17
3828.05008 1.26096e-17
3830.00366 1.30311e-17
3831.94717 1.34371e-17
3833.90075 1.37773e-17
3835.85433 1.38160e-17
3837.79784 1.40327e-17
3839.75142 1.44526e-17
3841.70500 1.47655e-17
3843.64851 1.49894e-17
3845.60209 1.51357e-17
3847.54560 1.54354e-17
3849.49918 1.57239e-17
3851.45276 1.58152e-17
3853.39627 1.57009e-17
3855.34985 1.59838e-17
3857.30343 1.62191e-17
3859.24694 1.63841e-17
3861.20052 1.65734e-17
3863.15410 1.67853e-17
3865.09761 1.67281e-17
3867.05119 1.70197e-17
3869.00477 1.71649e-17
3870.94828 1.73573e-17
3872.90186 1.70416e-17
3874.84537 1.70568e-17
3876.79895 1.71369e-17
3878.75253 1.69280e-17
3880.69604 1.67141e-17
3882.64962 1.64975e-17
3884.60320 1.60374e-17
3886.54671 1.51431e-17
3888.50029 1.41826e-17
3890.45387 1.39669e-17
3892.39738 1.45265e-17
3894.35096 1.50470e-17
3896.30454 1.53290e-17
3898.24805 1.51927e-17
3900.20163 1.51575e-17
3902.14514 1.48961e-17
3904.09872 1.48331e-17
3906.05230 1.46927e-17
3907.99581 1.46913e-17
3909.94939 1.47974e-17
3911.90297 1.48829e-17
3913.84648 1.48659e-17
3915.80006 1.47546e-17
3917.75364 1.45379e-17
3919.69715 1.46879e-17
3921.65073 1.46435e-17
3923.60431 1.46099e-17
3925.54782 1.46948e-17
3927.50140 1.46644e-17
3929.45498 1.44451e-17
3931.39849 1.39792e-17
3933.35207 1.41605e-17
3935.29558 1.45187e-17
3937.24916 1.49065e-17
3939.20274 1.51907e-17
3941.14625 1.51086e-17
3943.09983 1.53050e-17
3945.05341 1.50935e-17
3946.99692 1.49747e-17
3948.95050 1.50340e-17
3950.90408 1.49944e-17
3952.84759 1.47663e-17
3954.80117 1.42657e-17
3956.75475 1.35102e-17
3958.69826 1.34543e-17
3960.65184 1.41233e-17
3962.59535 1.48290e-17
3964.54893 1.47887e-17
3966.50251 1.45710e-17
3968.44602 1.45089e-17
3970.39960 1.45643e-17
3972.35318 1.47764e-17
3974.29669 1.49405e-17
3976.25027 1.50922e-17
3978.20385 1.51213e-17
3980.14736 1.51435e-17
3982.10094 1.51379e-17
3984.05452 1.49392e-17
3985.99803 1.49403e-17
3987.95161 1.49015e-17
3989.89512 1.45179e-17
3991.84870 1.40752e-17
3993.80228 1.41600e-17
3995.74579 1.45601e-17
3997.69937 1.47386e-17
3999.65295 1.47595e-17
4001.59646 1.47051e-17
4003.55004 1.47937e-17
4005.50362 1.45529e-17
4007.44713 1.42325e-17
4009.40071 1.41572e-17
4011.35429 1.40083e-17
4013.29780 1.37523e-17
4015.25138 1.36282e-17
4017.20496 1.35585e-17
4019.14847 1.34535e-17
4021.10205 1.33410e-17
4023.04556 1.31863e-17
4024.99914 1.31281e-17
4026.95272 1.28498e-17
4028.89623 1.27945e-17
4030.84981 1.28768e-17
4032.80339 1.27762e-17
4034.74690 1.27382e-17
4036.70048 1.26991e-17
4038.65406 1.26046e-17
4040.59757 1.24574e-17
4042.55115 1.23542e-17
4044.50473 1.22423e-17
4046.44824 1.21992e-17
4048.40182 1.22048e-17
4050.34533 1.20828e-17
4052.29891 1.20631e-17
4054.25249 1.20504e-17
4056.19600 1.20160e-17
4058.14958 1.20853e-17
4060.10316 1.22585e-17
4062.04667 1.22162e-17
4064.00025 1.21916e-17
4065.95383 1.22842e-17
4067.89734 1.22195e-17
4069.85092 1.23170e-17
4071.80450 1.24795e-17
4073.74801 1.25741e-17
4075.70159 1.25738e-17
4077.64510 1.26764e-17
4079.59868 1.25349e-17
4081.55226 1.25135e-17
4083.49577 1.26780e-17
4085.44935 1.27828e-17
4087.40293 1.29377e-17
4089.34644 1.28388e-17
4091.30002 1.27211e-17
4093.25360 1.28001e-17
4095.19711 1.27941e-17
4097.15069 1.26637e-17
4099.10427 1.25812e-17
4101.04778 1.24703e-17
4103.00136 1.24483e-17
4104.95494 1.22960e-17
4106.89845 1.21653e-17
4108.85203 1.20401e-17
4110.79554 1.18766e-17
4112.74912 1.18281e-17
4114.70270 1.16868e-17
4116.64621 1.17035e-17
4118.59979 1.16288e-17
4120.55337 1.15068e-17
4122.49688 1.13254e-17
4124.45046 1.15143e-17
4126.40404 1.16418e-17
4128.34755 1.15504e-17
4130.30113 1.11989e-17
4132.25471 1.09994e-17
4134.19822 1.11048e-17
4136.15180 1.11054e-17
4138.09531 1.11132e-17
4140.04889 1.11754e-17
4142.00247 1.11317e-17
4143.94598 1.11564e-17
4145.89956 1.10822e-17
4147.85314 1.11459e-17
4149.79665 1.12165e-17
4151.75023 1.10703e-17
4153.70381 1.09636e-17
4155.64732 1.08539e-17
4157.60090 1.07570e-17
4159.55448 1.06592e-17
4161.49799 1.06317e-17
4163.45157 1.07865e-17
4165.39508 1.07863e-17
4167.34866 1.08546e-17
4169.30224 1.08496e-17
4171.24575 1.07426e-17
4173.19933 1.06088e-17
4175.15291 1.04442e-17
4177.09642 1.04302e-17
4179.05000 1.04305e-17
4181.00358 1.04552e-17
4182.94709 1.04140e-17
4184.90067 1.03887e-17
4186.85425 1.04690e-17
4188.79776 1.04149e-17
4190.75134 1.04268e-17
4192.70492 1.03698e-17
4194.64843 1.03567e-17
4196.60201 1.03114e-17
4198.54552 1.01019e-17
4200.49910 9.97546e-18
4202.45268 1.00076e-17
4204.39619 1.01888e-17
4206.34977 1.02892e-17
4208.30335 1.02802e-17
4210.24686 1.03684e-17
4212.20044 1.04504e-17
4214.15402 1.03264e-17
4216.09753 1.02800e-17
4218.05111 1.03652e-17
4220.00469 1.04789e-17
4221.94820 1.03983e-17
4223.90178 1.02851e-17
4225.85536 1.01936e-17
4227.79887 1.01394e-17
4229.75245 1.01081e-17
4231.69596 1.00534e-17
4233.64954 9.89565e-18
4235.60312 9.77048e-18
4237.54663 9.69720e-18
4239.50021 9.74461e-18
4241.45379 9.72529e-18
4243.39730 9.64261e-18
4245.35088 9.60520e-18
4247.30446 9.55084e-18
4249.24797 9.48015e-18
4251.20155 9.32179e-18
4253.14506 9.22411e-18
4255.09864 9.32054e-18
4257.05222 9.28946e-18
4258.99573 9.07717e-18
4260.94931 8.97741e-18
4262.90289 8.95913e-18
4264.84640 8.86552e-18
4266.79998 8.86597e-18
4268.75356 8.95105e-18
4270.69707 9.02107e-18
4272.65065 8.95530e-18
4274.60423 8.88541e-18
4276.54774 8.74812e-18
4278.50132 8.62723e-18
4280.45490 8.74859e-18
4282.39841 8.80158e-18
4284.35199 8.77761e-18
4286.29550 8.80543e-18
4288.24908 8.79981e-18
4290.20266 8.78022e-18
4292.14617 8.77693e-18
4294.09975 8.87596e-18
4296.05333 8.95480e-18
4297.99684 8.88617e-18
4299.95042 8.92215e-18
4301.90400 9.01113e-18
4303.84751 9.17262e-18
4305.80109 9.20888e-18
4307.75467 9.21809e-18
4309.69818 9.28195e-18
4311.65176 9.36857e-18
4313.59527 9.49890e-18
4315.54885 9.50589e-18
4317.50243 9.45370e-18
4319.44594 9.48861e-18
4321.39952 9.68228e-18
4323.35310 9.80567e-18
4325.29661 9.79126e-18
4327.25019 9.89894e-18
4329.20377 9.96978e-18
4331.14728 9.79004e-18
4333.10086 9.73819e-18
4335.05444 9.83193e-18
4336.99795 9.94204e-18
4338.95153 1.01409e-17
4340.90511 1.02802e-17
4342.84862 1.04158e-17
4344.80220 1.05406e-17
4346.74571 1.05044e-17
4348.69929 1.05674e-17
4350.65287 1.06069e-17
4352.59638 1.06952e-17
4354.54996 1.07886e-17
4356.50354 1.07897e-17
4358.44705 1.09613e-17
4360.40063 1.11002e-17
4362.35421 1.13104e-17
4364.29772 1.14890e-17
4366.25130 1.16675e-17
4368.20488 1.18461e-17
4370.14839 1.20245e-17
4372.10197 1.22031e-17
4374.04548 1.23816e-17
4375.99906 1.25601e-17
4377.95264 1.27385e-17
4379.89615 1.29170e-17
4381.84973 1.30955e-17
4383.80331 1.32738e-17
4385.74682 1.34523e-17
4387.70040 1.36307e-17
4389.65398 1.38091e-17
4391.59749 1.39875e-17
4393.55107 1.41658e-17
4395.50465 1.43442e-17
4397.44816 1.45226e-17
4399.40174 1.47009e-17
4401.34525 1.48792e-17
4403.29883 1.50574e-17
4405.25241 1.52358e-17
4407.19592 1.54141e-17
4409.14950 1.55923e-17
4411.10308 1.57705e-17
4413.04659 1.59488e-17
4415.00017 1.61270e-17
4416.95375 1.63052e-17
4418.89726 1.64834e-17
4420.85084 1.66616e-17
4422.80442 1.68398e-17
4424.74793 1.70179e-17
4426.70151 1.72184e-17
4428.64502 1.74542e-17
4430.59860 1.76375e-17
4432.55218 1.78594e-17
4434.49569 1.81357e-17
4436.44927 1.82635e-17
4438.40285 1.82875e-17
4440.34636 1.82949e-17
4442.29994 1.81909e-17
4444.25352 1.79914e-17
4446.19703 1.78747e-17
4448.15061 1.77949e-17
4450.10419 1.76418e-17
4452.04770 1.75498e-17
4454.00128 1.76512e-17
4455.95486 1.76619e-17
4457.89837 1.76589e-17
4459.85195 1.77249e-17
4461.79546 1.77602e-17
4463.74904 1.77773e-17
4465.70262 1.76461e-17
4467.64613 1.74490e-17
4469.59971 1.72615e-17
4471.55329 1.71370e-17
4473.49680 1.72943e-17
4475.45038 1.76975e-17
4477.40396 1.80613e-17
4479.34747 1.82196e-17
4481.30105 1.83055e-17
4483.25463 1.83147e-17
4485.19814 1.81679e-17
4487.15172 1.80346e-17
4489.10530 1.79738e-17
4491.04881 1.79713e-17
4493.00239 1.78208e-17
4494.94590 1.76112e-17
4496.89948 1.77683e-17
4498.85306 1.79129e-17
4500.79657 1.77830e-17
4502.75015 1.76430e-17
4504.70373 1.75063e-17
4506.64724 1.72945e-17
4508.60082 1.70723e-17
4510.55440 1.68086e-17
4512.49791 1.66658e-17
4514.45149 1.65125e-17
4516.39500 1.63190e-17
4518.34858 1.63210e-17
4520.30216 1.61611e-17
4522.24567 1.59545e-17
4524.19925 1.59033e-17
4526.15283 1.58482e-17
4528.09634 1.58175e-17
4530.04992 1.56770e-17
4532.00350 1.55084e-17
4533.94701 1.54962e-17
4535.90059 1.54838e-17
4537.85417 1.51998e-17
4539.79768 1.51073e-17
4541.75126 1.50730e-17
4543.70484 1.48025e-17
4545.64835 1.46076e-17
4547.60193 1.46706e-17
4549.54544 1.46530e-17
4551.49902 1.46001e-17
4553.45260 1.44892e-17
4555.39611 1.44201e-17
4557.34969 1.43489e-17
4559.30327 1.42577e-17
4561.24678 1.42234e-17
4563.20036 1.42610e-17
4565.15394 1.42237e-17
4567.09745 1.42556e-17
4569.05103 1.43500e-17
4571.00461 1.43478e-17
4572.94812 1.43180e-17
4574.90170 1.44331e-17
4576.85528 1.44932e-17
4578.79879 1.44735e-17
4580.75237 1.45919e-17
4582.69588 1.46940e-17
4584.64946 1.47199e-17
4586.60304 1.47845e-17
4588.54655 1.47756e-17
4590.50013 1.47352e-17
4592.45371 1.47509e-17
4594.39722 1.46566e-17
4596.35080 1.46631e-17
4598.30438 1.46762e-17
4600.24789 1.45689e-17
4602.20147 1.45227e-17
4604.15505 1.43204e-17
4606.09856 1.43116e-17
4608.05214 1.41542e-17
4609.99565 1.39879e-17
4611.94923 1.39798e-17
4613.90281 1.38190e-17
4615.84632 1.38786e-17
4617.79990 1.39035e-17
4619.75348 1.37750e-17
4621.69699 1.36688e-17
4623.65057 1.37270e-17
4625.60415 1.36883e-17
4627.54766 1.36807e-17
4629.50124 1.37522e-17
4631.45482 1.37203e-17
4633.39833 1.37883e-17
4635.35191 1.38584e-17
4637.29542 1.39503e-17
4639.24900 1.39663e-17
4641.20258 1.39540e-17
4643.14609 1.40024e-17
4645.09967 1.42659e-17
4647.05325 1.44070e-17
4648.99676 1.43635e-17
4650.95034 1.44633e-17
4652.90392 1.45856e-17
4654.84743 1.46898e-17
4656.80101 1.45879e-17
4658.75459 1.45727e-17
4660.69810 1.46848e-17
4662.65168 1.45854e-17
4664.59519 1.45625e-17
4666.54877 1.46030e-17
4668.50235 1.44746e-17
4670.44586 1.42773e-17
4672.39944 1.42125e-17
4674.35302 1.42375e-17
4676.29653 1.40500e-17
4678.25011 1.41240e-17
4680.20369 1.39971e-17
4682.14720 1.35138e-17
4684.10078 1.31139e-17
4686.05436 1.29079e-17
4687.99787 1.26173e-17
4689.95145 1.25071e-17
4691.90503 1.22327e-17
4693.84854 1.18028e-17
4695.80212 1.15559e-17
4697.74563 1.12625e-17
4699.69921 1.12157e-17
4701.65279 1.11377e-17
4703.59630 1.10502e-17
4705.54988 1.09953e-17
4707.50346 1.10692e-17
4709.44697 1.10405e-17
4711.40055 1.09105e-17
4713.35413 1.10270e-17
4715.29764 1.10385e-17
4717.25122 1.11480e-17
4719.20480 1.13577e-17
4721.14831 1.14459e-17
4723.10189 1.14125e-17
4725.04540 1.15596e-17
4726.99898 1.16468e-17
4728.95256 1.17221e-17
4730.89607 1.17951e-17
4732.84965 1.20103e-17
4734.80323 1.20805e-17
4736.74674 1.21437e-17
4738.70032 1.22238e-17
4740.65390 1.22656e-17
4742.59741 1.23360e-17
4744.55099 1.24094e-17
4746.50457 1.23902e-17
4748.44808 1.25414e-17
4750.40166 1.27158e-17
4752.34517 1.28053e-17
4754.29875 1.29371e-17
4756.25233 1.30452e-17
4758.19584 1.31912e-17
4760.14942 1.33007e-17
4762.10300 1.31438e-17
4764.04651 1.31596e-17
4766.00009 1.33182e-17
4767.95367 1.33134e-17
4769.89718 1.34079e-17
4771.85076 1.34516e-17
4773.80434 1.35742e-17
4775.74785 1.36621e-17
4777.70143 1.36205e-17
4779.65501 1.35504e-17
4781.59852 1.35428e-17
4783.55210 1.34924e-17
4785.49561 1.34381e-17
4787.44919 1.31947e-17
4789.40277 1.29436e-17
4791.34628 1.28839e-17
4793.29986 1.28764e-17
4795.25344 1.28458e-17
4797.19695 1.28419e-17
4799.15053 1.28064e-17
4801.10411 1.28126e-17
4803.04762 1.27934e-17
4805.00120 1.27920e-17
4806.95478 1.28390e-17
4808.89829 1.27491e-17
4810.85187 1.25749e-17
4812.79538 1.25588e-17
4814.74896 1.25168e-17
4816.70254 1.24238e-17
4818.64605 1.23338e-17
4820.59963 1.21936e-17
4822.55321 1.21127e-17
4824.49672 1.19791e-17
4826.45030 1.19011e-17
4828.40388 1.18573e-17
4830.34739 1.17706e-17
4832.30097 1.16073e-17
4834.25455 1.14643e-17
4836.19806 1.13433e-17
4838.15164 1.13091e-17
4840.10522 1.12086e-17
4842.04873 1.10677e-17
4844.00231 1.08973e-17
4845.94582 1.06991e-17
4847.89940 1.05550e-17
4849.85298 1.05180e-17
4851.79649 1.05083e-17
4853.75007 1.04287e-17
4855.70365 1.04296e-17
4857.64716 1.04465e-17
4859.60074 1.05060e-17
4861.55432 1.04862e-17
4863.49783 1.04923e-17
4865.45141 1.05415e-17
4867.39492 1.05796e-17
4869.34850 1.06780e-17
4871.30208 1.07066e-17
4873.24559 1.07789e-17
4875.19917 1.06895e-17
4877.15275 1.08031e-17
4879.09626 1.08280e-17
4881.04984 1.08528e-17
4883.00342 1.08777e-17
4884.94693 1.09025e-17
4886.90051 1.09273e-17
4888.85409 1.09522e-17
4890.79760 1.09770e-17
4892.75118 1.10019e-17
4894.70476 1.10267e-17
4896.64827 1.10515e-17
4898.60185 1.10764e-17
4900.54536 1.11012e-17
4902.49894 1.11260e-17
4904.45252 1.11509e-17
4906.39603 1.11757e-17
4908.34961 1.12005e-17
4910.30319 1.12253e-17
4912.24670 1.12502e-17
4914.20028 1.12750e-17
4916.15386 1.12189e-17
4918.09737 1.13699e-17
4920.05095 1.13016e-17
4922.00453 1.12813e-17
4923.94804 1.13895e-17
4925.90162 1.13625e-17
4927.85520 1.14644e-17
4929.79871 1.16577e-17
4931.75229 1.16421e-17
4933.69580 1.16971e-17
4935.64938 1.16280e-17
4937.60296 1.16647e-17
4939.54647 1.17295e-17
4941.50005 1.18217e-17
4943.45363 1.18831e-17
4945.39714 1.19891e-17
4947.35072 1.19908e-17
4949.30430 1.20138e-17
4951.24781 1.22859e-17
4953.20139 1.22939e-17
4955.15497 1.22352e-17
4957.09848 1.22931e-17
4959.05206 1.23531e-17
4960.99557 1.23236e-17
4962.94915 1.23245e-17
4964.90273 1.23713e-17
4966.84624 1.23667e-17
4968.79982 1.23378e-17
4970.75340 1.22503e-17
4972.69691 1.23543e-17
4974.65049 1.23288e-17
4976.60407 1.23543e-17
4978.54758 1.23799e-17
4980.50116 1.24054e-17
4982.45474 1.24310e-17
4984.39825 1.24565e-17
4986.35183 1.24821e-17
4988.29534 1.25076e-17
4990.24892 1.25332e-17
4992.20250 1.25587e-17
4994.14601 1.25842e-17
4996.09959 1.26098e-17
4998.05317 1.26353e-17
4999.99668 1.26608e-17
5001.95026 1.26864e-17
5003.90384 1.27119e-17
5005.84735 1.27374e-17
5007.80093 1.27630e-17
5009.75451 1.27885e-17
5011.69802 1.28140e-17
5013.65160 1.28395e-17
5015.59511 1.27831e-17
5017.54869 1.28879e-17
5019.50227 1.31462e-17
5021.44578 1.33884e-17
5023.39936 1.36326e-17
5025.35294 1.37172e-17
5027.29645 1.38018e-17
5029.25003 1.38864e-17
5031.20361 1.39709e-17
5033.14712 1.40555e-17
5035.10070 1.41400e-17
5037.05428 1.42245e-17
5038.99779 1.43091e-17
5040.95137 1.43936e-17
5042.90495 1.44781e-17
5044.84846 1.45626e-17
5046.80204 1.46471e-17
5048.74555 1.47316e-17
5050.69913 1.48161e-17
5052.65271 1.49006e-17
5054.59622 1.49851e-17
5056.54980 1.50696e-17
5058.50338 1.51540e-17
5060.44689 1.52385e-17
5062.40047 1.51656e-17
5064.35405 1.52394e-17
5066.29756 1.54277e-17
5068.25114 1.53689e-17
5070.20472 1.52165e-17
5072.14823 1.54277e-17
5074.10181 1.55799e-17
5076.04532 1.56753e-17
5077.99890 1.57897e-17
5079.95248 1.59023e-17
5081.89599 1.59804e-17
5083.84957 1.61548e-17
5085.80315 1.62554e-17
5087.74666 1.63139e-17
5089.70024 1.66021e-17
5091.65382 1.66652e-17
5093.59733 1.67737e-17
5095.55091 1.68626e-17
5097.50449 1.68463e-17
5099.44800 1.70356e-17
5101.40158 1.72822e-17
5103.35516 1.73573e-17
5105.29867 1.74556e-17
5107.25225 1.75803e-17
5109.19576 1.77999e-17
5111.14934 1.79724e-17
5113.10292 1.78827e-17
5115.04643 1.78413e-17
5117.00001 1.79689e-17
5118.95359 1.79786e-17
5120.89710 1.78881e-17
5122.85068 1.78738e-17
5124.80426 1.79121e-17
5126.74777 1.78174e-17
5128.70135 1.78300e-17
5130.65493 1.79235e-17
5132.59844 1.78061e-17
5134.55202 1.77826e-17
5136.49553 1.77784e-17
5138.44911 1.77903e-17
5140.40269 1.78024e-17
5142.34620 1.76600e-17
5144.29978 1.77267e-17
5146.25336 1.78704e-17
5148.19687 1.78813e-17
5150.15045 1.76524e-17
5152.10403 1.74983e-17
5154.04754 1.75501e-17
5156.00112 1.76139e-17
5157.95470 1.75851e-17
5159.89821 1.74774e-17
5161.85179 1.74523e-17
5163.79530 1.74732e-17
5165.74888 1.73404e-17
5167.70246 1.73563e-17
5169.64597 1.74194e-17
5171.59955 1.73737e-17
5173.55313 1.73442e-17
5175.49664 1.74585e-17
5177.45022 1.75235e-17
5179.40380 1.75358e-17
5181.34731 1.76179e-17
5183.30089 1.77865e-17
5185.25447 1.78992e-17
5187.19798 1.78686e-17
5189.15156 1.78675e-17
5191.10514 1.79931e-17
5193.04865 1.81505e-17
5195.00223 1.82618e-17
5196.94574 1.82994e-17
5198.89932 1.82884e-17
5200.85290 1.84143e-17
5202.79641 1.85816e-17
5204.74999 1.86354e-17
5206.70357 1.86853e-17
5208.64708 1.88551e-17
5210.60066 1.89716e-17
5212.55424 1.89366e-17
5214.49775 1.89379e-17
5216.45133 1.88925e-17
5218.39484 1.89002e-17
5220.34842 1.89242e-17
5222.30200 1.89321e-17
5224.24551 1.89772e-17
5226.19909 1.90415e-17
5228.15267 1.90522e-17
5230.09618 1.90364e-17
5232.04976 1.91641e-17
5234.00334 1.92370e-17
5235.94685 1.91965e-17
5237.90043 1.92489e-17
5239.85401 1.93787e-17
5241.79752 1.94654e-17
5243.75110 1.95447e-17
5245.70468 1.95299e-17
5247.64819 1.93877e-17
5249.60177 1.93389e-17
5251.54528 1.94034e-17
5253.49886 1.94170e-17
5255.45244 1.95347e-17
5257.39595 1.96550e-17
5259.34953 1.94516e-17
5261.30311 1.93176e-17
5263.24662 1.94655e-17
5265.20020 1.95330e-17
5267.15378 1.93574e-17
5269.09729 1.91884e-17
5271.05087 1.91059e-17
5273.00445 1.89935e-17
5274.94796 1.88567e-17
5276.90154 1.88424e-17
5278.85512 1.90043e-17
5280.79863 1.89784e-17
5282.75221 1.87489e-17
5284.69572 1.86957e-17
5286.64930 1.87491e-17
5288.60288 1.86331e-17
5290.54639 1.86066e-17
5292.49997 1.87005e-17
5294.45355 1.86446e-17
5296.39706 1.86040e-17
5298.35064 1.85698e-17
5300.30422 1.84770e-17
5302.24773 1.83511e-17
5304.20131 1.83514e-17
5306.15489 1.84218e-17
5308.09840 1.84042e-17
5310.05198 1.84061e-17
5311.99549 1.83848e-17
5313.94907 1.83563e-17
5315.90265 1.83252e-17
5317.84616 1.81483e-17
5319.79974 1.82146e-17
5321.75332 1.82936e-17
5323.69683 1.82410e-17
5325.65041 1.83320e-17
5327.60399 1.84318e-17
5329.54750 1.84137e-17
5331.50108 1.83417e-17
5333.45466 1.83226e-17
5335.39817 1.83390e-17
5337.35175 1.83156e-17
5339.29526 1.82601e-17
5341.24884 1.82463e-17
5343.20242 1.82954e-17
5345.14593 1.81438e-17
5347.09951 1.81157e-17
5349.05309 1.81917e-17
5350.99660 1.81431e-17
5352.95018 1.81877e-17
5354.90376 1.81511e-17
5356.84727 1.80750e-17
5358.80085 1.82477e-17
5360.75443 1.83907e-17
5362.69794 1.82547e-17
5364.65152 1.81945e-17
5366.60510 1.82777e-17
5368.54861 1.82566e-17
5370.50219 1.82100e-17
5372.44570 1.81512e-17
5374.39928 1.81078e-17
5376.35286 1.79970e-17
5378.29637 1.80448e-17
5380.24995 1.80224e-17
5382.20353 1.78456e-17
5384.14704 1.78495e-17
5386.10062 1.79292e-17
5388.05420 1.79515e-17
5389.99771 1.78844e-17
5391.95129 1.76394e-17
5393.90487 1.76057e-17
5395.84838 1.75805e-17
5397.80196 1.75425e-17
5399.74547 1.74471e-17
5401.69905 1.74095e-17
5403.65263 1.74418e-17
5405.59614 1.73638e-17
5407.54972 1.73054e-17
5409.50330 1.72200e-17
5411.44681 1.69942e-17
5413.40039 1.69461e-17
5415.35397 1.69967e-17
5417.29748 1.69186e-17
5419.25106 1.68509e-17
5421.20464 1.67516e-17
5423.14815 1.66819e-17
5425.10173 1.66816e-17
5427.04524 1.66245e-17
5428.99882 1.66669e-17
5430.95240 1.67125e-17
5432.89591 1.64343e-17
5434.84949 1.63889e-17
5436.80307 1.63569e-17
5438.74658 1.61942e-17
5440.70016 1.60229e-17
5442.65374 1.60389e-17
5444.59725 1.60061e-17
5446.55083 1.59019e-17
5448.50441 1.58026e-17
5450.44792 1.56770e-17
5452.40150 1.55480e-17
5454.35508 1.54348e-17
5456.29859 1.52981e-17
5458.25217 1.50661e-17
5460.19568 1.50248e-17
5462.14926 1.47929e-17
5464.10284 1.41623e-17
5466.04635 1.37978e-17
5467.99993 1.34438e-17
5469.95351 1.30831e-17
5471.89702 1.26550e-17
5473.85060 1.25695e-17
5475.80418 1.24361e-17
5477.74769 1.23548e-17
5479.70127 1.24034e-17
5481.65485 1.24954e-17
5483.59836 1.24915e-17
5485.55194 1.26184e-17
5487.49545 1.25439e-17
5489.44903 1.25355e-17
5491.40261 1.26258e-17
5493.34612 1.26068e-17
5495.29970 1.26562e-17
5497.25328 1.26855e-17
5499.19679 1.27947e-17
5501.15037 1.26037e-17
5503.10395 1.26475e-17
5505.04746 1.26525e-17
5507.00104 1.26729e-17
5508.95462 1.27994e-17
5510.89813 1.26817e-17
5512.85171 1.25471e-17
5514.79522 1.25206e-17
5516.74880 1.24547e-17
5518.70238 1.25743e-17
5520.64589 1.26141e-17
5522.59947 1.26999e-17
5524.55305 1.26939e-17
5526.49656 1.25696e-17
5528.45014 1.24542e-17
5530.40372 1.25021e-17
5532.34723 1.25825e-17
5534.30081 1.25791e-17
5536.25439 1.24633e-17
5538.19790 1.23904e-17
5540.15148 1.22178e-17
5542.10506 1.20863e-17
5544.04857 1.21777e-17
5546.00215 1.22205e-17
5547.94566 1.19438e-17
5549.89924 1.19279e-17
5551.85282 1.19251e-17
5553.79633 1.19400e-17
5555.74991 1.18314e-17
5557.70349 1.18267e-17
5559.64700 1.19709e-17
5561.60058 1.18046e-17
5563.55416 1.18437e-17
5565.49767 1.19285e-17
5567.45125 1.19259e-17
5569.40483 1.20986e-17
5571.34834 1.21487e-17
5573.30192 1.20528e-17
5575.24543 1.18746e-17
5577.19901 1.19913e-17
5579.15259 1.19990e-17
5581.09610 1.21739e-17
5583.04968 1.21592e-17
5585.00326 1.21936e-17
5586.94677 1.21023e-17
5588.90035 1.21315e-17
5590.85393 1.21641e-17
5592.79744 1.22418e-17
5594.75102 1.20855e-17
5596.70460 1.21197e-17
5598.64811 1.22421e-17
5600.60169 1.24571e-17
5602.54520 1.23914e-17
5604.49878 1.24369e-17
5606.45236 1.23839e-17
5608.39587 1.24983e-17
5610.34945 1.26129e-17
5612.30303 1.26434e-17
5614.24654 1.24952e-17
5616.20012 1.24188e-17
5618.15370 1.26658e-17
5620.09721 1.26955e-17
5622.05079 1.28072e-17
5624.00437 1.27912e-17
5625.94788 1.25958e-17
5627.90146 1.25698e-17
5629.85504 1.26391e-17
5631.79855 1.24877e-17
5633.75213 1.24244e-17
5635.69564 1.23200e-17
5637.64922 1.21296e-17
5639.60280 1.23391e-17
5641.54631 1.23946e-17
5643.49989 1.22930e-17
5645.45347 1.21193e-17
5647.39698 1.23965e-17
5649.35056 1.24566e-17
5651.30414 1.24900e-17
5653.24765 1.26070e-17
5655.20123 1.26197e-17
5657.15481 1.26224e-17
5659.09832 1.27410e-17
5661.05190 1.27037e-17
5662.99541 1.26900e-17
5664.94899 1.30934e-17
5666.90257 1.32273e-17
5668.84608 1.31243e-17
5670.79966 1.30798e-17
5672.75324 1.32690e-17
5674.69675 1.33817e-17
5676.65033 1.35951e-17
5678.60391 1.36755e-17
5680.54742 1.38240e-17
5682.50100 1.37081e-17
5684.45458 1.37297e-17
5686.39809 1.36820e-17
5688.35167 1.35457e-17
5690.29518 1.36128e-17
5692.24876 1.37824e-17
5694.20234 1.37643e-17
5696.14585 1.38257e-17
5698.09943 1.40447e-17
5700.05301 1.39055e-17
5701.99652 1.39570e-17
5703.95010 1.39563e-17
5705.90368 1.40709e-17
5707.84719 1.40286e-17
5709.80077 1.41786e-17
5711.75435 1.43446e-17
5713.69786 1.42773e-17
5715.65144 1.42525e-17
5717.60502 1.43028e-17
5719.54853 1.44659e-17
5721.50211 1.46432e-17
5723.44562 1.47488e-17
5725.39920 1.47892e-17
5727.35278 1.48128e-17
5729.29629 1.49058e-17
5731.24987 1.48770e-17
5733.20345 1.48407e-17
5735.14696 1.45772e-17
5737.10054 1.48101e-17
5739.05412 1.50464e-17
5740.99763 1.51503e-17
5742.95121 1.53450e-17
5744.90479 1.53275e-17
5746.84830 1.50841e-17
5748.80188 1.51320e-17
5750.74539 1.52520e-17
5752.69897 1.53794e-17
5754.65255 1.53917e-17
5756.59606 1.53471e-17
5758.54964 1.52718e-17
5760.50322 1.52367e-17
5762.44673 1.52674e-17
5764.40031 1.53976e-17
5766.35389 1.52854e-17
5768.29740 1.54417e-17
5770.25098 1.55803e-17
5772.20456 1.55744e-17
5774.14807 1.56717e-17
5776.10165 1.57126e-17
5778.04516 1.59859e-17
5779.99874 1.61652e-17
5781.95232 1.60990e-17
5783.89583 1.58658e-17
5785.84941 1.58061e-17
5787.80299 1.55511e-17
5789.74650 1.54800e-17
5791.70008 1.55497e-17
5793.65366 1.55905e-17
5795.59717 1.57862e-17
5797.55075 1.58913e-17
5799.50433 1.55065e-17
5801.44784 1.54467e-17
5803.40142 1.55126e-17
5805.35500 1.53235e-17
5807.29851 1.53324e-17
5809.25209 1.53990e-17
5811.19560 1.53981e-17
5813.14918 1.52835e-17
5815.10276 1.51345e-17
5817.04627 1.50649e-17
5818.99985 1.51377e-17
5820.95343 1.51822e-17
5822.89694 1.50814e-17
5824.85052 1.51461e-17
5826.80410 1.51447e-17
5828.74761 1.49456e-17
5830.70119 1.49467e-17
5832.65477 1.50125e-17
5834.59828 1.49467e-17
5836.55186 1.49636e-17
5838.49537 1.49432e-17
5840.44895 1.50545e-17
5842.40253 1.49373e-17
5844.34604 1.47903e-17
5846.29962 1.47008e-17
5848.25320 1.47641e-17
5850.19671 1.47575e-17
5852.15029 1.45454e-17
5854.10387 1.46011e-17
5856.04738 1.44815e-17
5858.00096 1.44153e-17
5859.95454 1.43223e-17
5861.89805 1.42113e-17
5863.85163 1.42691e-17
5865.79514 1.41313e-17
5867.74872 1.41046e-17
5869.70230 1.42752e-17
5871.64581 1.44546e-17
5873.59939 1.49718e-17
5875.55297 1.57406e-17
5877.49648 1.54430e-17
5879.45006 1.46761e-17
5881.40364 1.41540e-17
5883.34715 1.39381e-17
5885.30073 1.38951e-17
5887.25431 1.38694e-17
5889.19782 1.38437e-17
5891.15140 1.38179e-17
5893.10498 1.37922e-17
5895.04849 1.37665e-17
5897.00207 1.37407e-17
5898.94558 1.37150e-17
5900.89916 1.36893e-17
5902.85274 1.36636e-17
5904.79625 1.36378e-17
5906.74983 1.36121e-17
5908.70341 1.35864e-17
5910.64692 1.35607e-17
5912.60050 1.35350e-17
5914.55408 1.35092e-17
5916.49759 1.34835e-17
5918.45117 1.34578e-17
5920.40475 1.34321e-17
5922.34826 1.34064e-17
5924.30184 1.33807e-17
5926.24535 1.33550e-17
5928.19893 1.33293e-17
5930.15251 1.33036e-17
5932.09602 1.32779e-17
5934.04960 1.32522e-17
5936.00318 1.32265e-17
5937.94669 1.32008e-17
5939.90027 1.31751e-17
5941.85385 1.31494e-17
5943.79736 1.31237e-17
5945.75094 1.30980e-17
5947.70452 1.30723e-17
5949.64803 1.27774e-17
5951.60161 1.24418e-17
5953.55519 1.23681e-17
5955.49870 1.22089e-17
5957.45228 1.19501e-17
5959.39579 1.16868e-17
5961.34937 1.15113e-17
5963.30295 1.13179e-17
5965.24646 1.12280e-17
5967.20004 1.10961e-17
5969.15362 1.08527e-17
5971.09713 1.07247e-17
5973.05071 1.04831e-17
5975.00429 1.01944e-17
5976.94780 1.02110e-17
5978.90138 1.01265e-17
5980.85496 9.90711e-18
5982.79847 9.85234e-18
5984.75205 9.91049e-18
5986.69556 9.82770e-18
5988.64914 9.77394e-18
5990.60272 9.54273e-18
5992.54623 9.42926e-18
5994.49981 9.43747e-18
5996.45339 9.41889e-18
5998.39690 9.31130e-18
6000.35048 9.21842e-18
6002.30406 9.16725e-18
6004.24757 9.01583e-18
6006.20115 8.99280e-18
6008.15473 9.15532e-18
6010.09824 9.06955e-18
6012.05182 9.00717e-18
6013.99533 9.07217e-18
6015.94891 9.02860e-18
6017.90249 8.80810e-18
6019.84600 8.77232e-18
6021.79958 8.88706e-18
6023.75316 8.93627e-18
6025.69667 8.90843e-18
6027.65025 8.86417e-18
6029.60383 8.88801e-18
6031.54734 8.90276e-18
6033.50092 8.93991e-18
6035.45450 8.85228e-18
6037.39801 8.80571e-18
6039.35159 8.78794e-18
6041.29510 8.77715e-18
6043.24868 8.73964e-18
6045.20226 8.74663e-18
6047.14577 8.60267e-18
6049.09935 8.60144e-18
6051.05293 8.69599e-18
6052.99644 8.65981e-18
6054.95002 8.63350e-18
6056.90360 8.65958e-18
6058.84711 8.60004e-18
6060.80069 8.56970e-18
6062.75427 8.50782e-18
6064.69778 8.43956e-18
6066.65136 8.47639e-18
6068.60494 8.52686e-18
6070.54845 8.51246e-18
6072.50203 8.46918e-18
6074.44554 8.42409e-18
6076.39912 8.42202e-18
6078.35270 8.48193e-18
6080.29621 8.52587e-18
6082.24979 8.51441e-18
6084.20337 8.58731e-18
6086.14688 8.59872e-18
6088.10046 8.63426e-18
6090.05404 8.71550e-18
6091.99755 8.81343e-18
6093.95113 8.91756e-18
6095.90471 8.90571e-18
6097.84822 8.91011e-18
6099.80180 8.97363e-18
6101.74531 8.97089e-18
6103.69889 9.09782e-18
6105.65247 9.24158e-18
6107.59598 9.25079e-18
6109.54956 9.22344e-18
6111.50314 9.14421e-18
6113.44665 9.26667e-18
6115.40023 9.46774e-18
6117.35381 9.59975e-18
6119.29732 9.71710e-18
6121.25090 9.78218e-18
6123.20448 9.79033e-18
6125.14799 9.78527e-18
6127.10157 9.84660e-18
6129.04508 9.93950e-18
6130.99866 1.00245e-17
6132.95224 1.00239e-17
6134.89575 9.95016e-18
6136.84933 9.98354e-18
6138.80291 1.01604e-17
6140.74642 1.03551e-17
6142.70000 1.04548e-17
6144.65358 1.04701e-17
6146.59709 1.04469e-17
6148.55067 1.04441e-17
6150.50425 1.04447e-17
6152.44776 1.04903e-17
6154.40134 1.05176e-17
6156.35492 1.05765e-17
6158.29843 1.08146e-17
6160.25201 1.09289e-17
6162.19552 1.09150e-17
6164.14910 1.10140e-17
6166.10268 1.10181e-17
6168.04619 1.10196e-17
6169.99977 1.10437e-17
6171.95335 1.11300e-17
6173.89686 1.12285e-17
6175.85044 1.13178e-17
6177.80402 1.13623e-17
6179.74753 1.13886e-17
6181.70111 1.15173e-17
6183.65469 1.15339e-17
6185.59820 1.14937e-17
6187.55178 1.15620e-17
6189.50536 1.15748e-17
6191.44887 1.16179e-17
6193.40245 1.15947e-17
6195.34596 1.15442e-17
6197.29954 1.16091e-17
6199.25312 1.17075e-17
6201.19663 1.15810e-17
6203.15021 1.16201e-17
6205.10379 1.17182e-17
6207.04730 1.16295e-17
6209.00088 1.15642e-17
6210.95446 1.15582e-17
6212.89797 1.14614e-17
6214.85155 1.13272e-17
6216.79506 1.13680e-17
6218.74864 1.13331e-17
6220.70222 1.11831e-17
6222.64573 1.11698e-17
6224.59931 1.12807e-17
6226.55289 1.13251e-17
6228.49640 1.13905e-17
6230.44998 1.13955e-17
6232.40356 1.13019e-17
6234.34707 1.12751e-17
6236.30065 1.12456e-17
6238.25423 1.12068e-17
6240.19774 1.12640e-17
6242.15132 1.12556e-17
6244.10490 1.11665e-17
6246.04841 1.13187e-17
6248.00199 1.13681e-17
6249.94550 1.14725e-17
6251.89908 1.15509e-17
6253.85266 1.15548e-17
6255.79617 1.15575e-17
6257.74975 1.15247e-17
6259.70333 1.15806e-17
6261.64684 1.16779e-17
6263.60042 1.16773e-17
6265.55400 1.16922e-17
6267.49751 1.19011e-17
6269.45109 1.19736e-17
6271.40467 1.19375e-17
6273.34818 1.20139e-17
6275.30176 1.19890e-17
6277.24527 1.21145e-17
6279.19885 1.23286e-17
6281.15243 1.24636e-17
6283.09594 1.25186e-17
6285.04952 1.25147e-17
6287.00310 1.25699e-17
6288.94661 1.24034e-17
6290.90019 1.21505e-17
6292.85377 1.21581e-17
6294.79728 1.22589e-17
6296.75086 1.21684e-17
6298.70444 1.21240e-17
6300.64795 1.22545e-17
6302.60153 1.22676e-17
6304.55511 1.21380e-17
6306.49862 1.21979e-17
6308.45220 1.21175e-17
6310.39571 1.19556e-17
6312.34929 1.20214e-17
6314.30287 1.20119e-17
6316.24638 1.20454e-17
6318.19996 1.22028e-17
6320.15354 1.21388e-17
6322.09705 1.18546e-17
6324.05063 1.17209e-17
6326.00421 1.19059e-17
6327.94772 1.18961e-17
6329.90130 1.17831e-17
6331.85488 1.19889e-17
6333.79839 1.21627e-17
6335.75197 1.22634e-17
6337.70555 1.21406e-17
6339.64906 1.21346e-17
6341.60264 1.22444e-17
6343.54615 1.21518e-17
6345.49973 1.21041e-17
6347.45331 1.21704e-17
6349.39682 1.20166e-17
6351.35040 1.17924e-17
6353.30398 1.20989e-17
6355.24749 1.20211e-17
6357.20107 1.17395e-17
6359.15465 1.17538e-17
6361.09816 1.14116e-17
6363.05174 1.15386e-17
6364.99525 1.15428e-17
6366.94883 1.14132e-17
6368.90241 1.14313e-17
6370.84592 1.13795e-17
6372.79950 1.14346e-17
6374.75308 1.13937e-17
6376.69659 1.12943e-17
6378.65017 1.12672e-17
6380.60375 1.12580e-17
6382.54726 1.12230e-17
6384.50084 1.11532e-17
6386.45442 1.12516e-17
6388.39793 1.12632e-17
6390.35151 1.12916e-17
6392.29502 1.15040e-17
6394.24860 1.14739e-17
6396.20218 1.13517e-17
6398.14569 1.14478e-17
6400.09927 1.13937e-17
6402.05285 1.12149e-17
6403.99636 1.11817e-17
6405.94994 1.10879e-17
6407.90352 1.11245e-17
6409.84703 1.11522e-17
6411.80061 1.12051e-17
6413.75419 1.12076e-17
6415.69770 1.11954e-17
6417.65128 1.11949e-17
6419.60486 1.12683e-17
6421.54837 1.13541e-17
6423.50195 1.13049e-17
6425.44546 1.13820e-17
6427.39904 1.14991e-17
6429.35262 1.16605e-17
6431.29613 1.15587e-17
6433.24971 1.14436e-17
6435.20329 1.13372e-17
6437.14680 1.14343e-17
6439.10038 1.16082e-17
6441.05396 1.15410e-17
6442.99747 1.16802e-17
6444.95105 1.16745e-17
6446.90463 1.16346e-17
6448.84814 1.16400e-17
6450.80172 1.18596e-17
6452.75530 1.20867e-17
6454.69881 1.20343e-17
6456.65239 1.20436e-17
6458.59590 1.20194e-17
6460.54948 1.20838e-17
6462.50306 1.20172e-17
6464.44657 1.19360e-17
6466.40015 1.20047e-17
6468.35373 1.20894e-17
6470.29724 1.20765e-17
6472.25082 1.21035e-17
6474.20440 1.19646e-17
6476.14791 1.20495e-17
6478.10149 1.22532e-17
6480.04500 1.22323e-17
6481.99858 1.22364e-17
6483.95216 1.22001e-17
6485.89567 1.21586e-17
6487.84925 1.21082e-17
6489.80283 1.22943e-17
6491.74634 1.23816e-17
6493.69992 1.22621e-17
6495.65350 1.22018e-17
6497.59701 1.24198e-17
6499.55059 1.23752e-17
6501.50417 1.23765e-17
6503.44768 1.23616e-17
6505.40126 1.23148e-17
6507.35484 1.24728e-17
6509.29835 1.24455e-17
6511.25193 1.24403e-17
6513.19544 1.24975e-17
6515.14902 1.25184e-17
6517.10260 1.24579e-17
6519.04611 1.23887e-17
6520.99969 1.22726e-17
6522.95327 1.21949e-17
6524.89678 1.23738e-17
6526.85036 1.24588e-17
6528.80394 1.22999e-17
6530.74745 1.20282e-17
6532.70103 1.20923e-17
6534.65461 1.21427e-17
6536.59812 1.20561e-17
6538.55170 1.21126e-17
6540.50528 1.18860e-17
6542.44879 1.19670e-17
6544.40237 1.19927e-17
6546.34588 1.20385e-17
6548.29946 1.20052e-17
6550.25304 1.18548e-17
6552.19655 1.18212e-17
6554.15013 1.17759e-17
6556.10371 1.17398e-17
6558.04722 1.17547e-17
6560.00080 1.16061e-17
6561.95438 1.15239e-17
6563.89789 1.15651e-17
6565.85147 1.16570e-17
6567.80505 1.17657e-17
6569.74856 1.16166e-17
6571.70214 1.14646e-17
6573.64565 1.13596e-17
6575.59923 1.12955e-17
6577.55281 1.12916e-17
6579.49632 1.12877e-17
6581.44990 1.12838e-17
6583.40348 1.12799e-17
6585.34699 1.12760e-17
6587.30057 1.12721e-17
6589.25415 1.12682e-17
6591.19766 1.12643e-17
6593.15124 1.12604e-17
6595.10482 1.12565e-17
6597.04833 1.12526e-17
6599.00191 1.12487e-17
6600.94542 1.12448e-17
6602.89900 1.12409e-17
6604.85258 1.12370e-17
6606.79609 1.12331e-17
6608.74967 1.12292e-17
6610.70325 1.12253e-17
6612.64676 1.12214e-17
6614.60034 1.12185e-17
6616.55392 1.12157e-17
6618.49743 1.12128e-17
6620.45101 1.12099e-17
6622.40459 1.12071e-17
6624.34810 1.12042e-17
6626.30168 1.12013e-17
6628.24519 1.11985e-17
6630.19877 1.11956e-17
6632.15235 1.11927e-17
6634.09586 1.11899e-17
6636.04944 1.11870e-17
6638.00302 1.11841e-17
6639.94653 1.11813e-17
6641.90011 1.11784e-17
6643.85369 1.11755e-17
6645.79720 1.11726e-17
6647.75078 1.11698e-17
6649.70436 1.11676e-17
6651.64787 1.12144e-17
6653.60145 1.13136e-17
6655.55503 1.12729e-17
6657.49854 1.11978e-17
6659.45212 1.11591e-17
6661.39563 1.11868e-17
6663.34921 1.12515e-17
6665.30279 1.11438e-17
6667.24630 1.09865e-17
6669.19988 1.09806e-17
6671.15346 1.09417e-17
6673.09697 1.07670e-17
6675.05055 1.06043e-17
6677.00413 1.07369e-17
6678.94764 1.06865e-17
6680.90122 1.05631e-17
6682.85480 1.05506e-17
6684.79831 1.06633e-17
6686.75189 1.07017e-17
6688.70547 1.06447e-17
6690.64898 1.06344e-17
6692.60256 1.06895e-17
6694.54607 1.06408e-17
6696.49965 1.06966e-17
6698.45323 1.09561e-17
6700.39674 1.09902e-17
6702.35032 1.07810e-17
6704.30390 1.07665e-17
6706.24741 1.06827e-17
6708.20099 1.06426e-17
6710.15457 1.06398e-17
6712.09808 1.04704e-17
6714.05166 1.03617e-17
6715.99517 1.04352e-17
6717.94875 1.03475e-17
6719.90233 1.02659e-17
6721.84584 1.02336e-17
6723.79942 9.98831e-18
6725.75300 1.00101e-17
6727.69651 1.01120e-17
6729.65009 1.00488e-17
6731.60367 9.98358e-18
6733.54718 9.81709e-18
6735.50076 9.75692e-18
6737.45434 9.71544e-18
6739.39785 9.53859e-18
6741.35143 9.48113e-18
6743.29494 9.61879e-18
6745.24852 9.71723e-18
6747.20210 9.71403e-18
6749.14561 9.71084e-18
6751.09919 9.70764e-18
6753.05277 9.70444e-18
6754.99628 9.70125e-18
6756.94986 9.69806e-18
6758.90344 9.69486e-18
6760.84695 9.70734e-18
6762.80053 9.71982e-18
6764.75411 9.73230e-18
6766.69762 9.74477e-18
6768.65120 9.75725e-18
6770.60478 9.76973e-18
6772.54829 9.78220e-18
6774.50187 9.79468e-18
6776.45545 9.80716e-18
6778.39896 9.81963e-18
6780.35254 9.83210e-18
6782.29605 9.84457e-18
6784.24963 9.85705e-18
6786.20321 9.86953e-18
6788.14672 9.88200e-18
6790.10030 9.89447e-18
6792.05388 9.90694e-18
6793.99739 9.91941e-18
6795.95097 9.93188e-18
6797.90455 9.94435e-18
6799.84806 9.86194e-18
6801.80164 9.83841e-18
6803.75522 1.00595e-17
6805.69873 1.01124e-17
6807.65231 1.00695e-17
6809.59582 1.01348e-17
6811.54940 1.01122e-17
6813.50298 1.01215e-17
6815.44649 1.02966e-17
6817.40007 1.03207e-17
6819.35365 1.03014e-17
6821.29716 1.03101e-17
6823.25074 1.03885e-17
6825.20432 1.04196e-17
6827.14783 1.04710e-17
6829.10141 1.05781e-17
6831.04492 1.05424e-17
6832.99850 1.04980e-17
6834.95208 1.04488e-17
6836.89559 1.04514e-17
6838.84917 1.04577e-17
6840.80275 1.05037e-17
6842.74626 1.05507e-17
6844.69984 1.05060e-17
6846.65342 1.04494e-17
6848.59693 1.05640e-17
6850.55051 1.05602e-17
6852.50409 1.04756e-17
6854.44760 1.05294e-17
6856.40118 1.04703e-17
6858.35476 1.05005e-17
6860.29827 1.04924e-17
6862.25185 1.03367e-17
6864.19536 1.04942e-17
6866.14894 1.05529e-17
6868.10252 1.04391e-17
6870.04603 1.01355e-17
6871.99961 1.00801e-17
6873.95319 1.00963e-17
6875.89670 1.00768e-17
6877.85028 1.02055e-17
6879.80386 1.03034e-17
6881.74737 1.03689e-17
6883.70095 1.04082e-17
6885.65453 1.04244e-17
6887.59804 1.04969e-17
6889.55162 1.05313e-17
6891.50520 1.05002e-17
6893.44871 1.05156e-17
6895.40229 1.05877e-17
6897.34580 1.07464e-17
6899.29938 1.07231e-17
6901.25296 1.07077e-17
6903.19647 1.07021e-17
6905.15005 1.06138e-17
6907.10363 1.05221e-17
6909.04714 1.05182e-17
6911.00072 1.05885e-17
6912.95430 1.05554e-17
6914.89781 1.05641e-17
6916.85139 1.05717e-17
6918.80497 1.06375e-17
6920.74848 1.07189e-17
6922.70206 1.07310e-17
6924.64557 1.07130e-17
6926.59915 1.07751e-17
6928.55273 1.06931e-17
6930.49624 1.08345e-17
6932.44982 1.10935e-17
6934.40340 1.10002e-17
6936.34691 1.09421e-17
6938.30049 1.03931e-17
6940.25407 1.00066e-17
6942.19758 1.07695e-17
6944.15116 1.10699e-17
6946.10474 1.09752e-17
6948.04825 1.10873e-17
6950.00183 1.11811e-17
6951.94534 1.11948e-17
6953.89892 1.09288e-17
6955.85250 1.06401e-17
6957.79601 1.06939e-17
6959.74959 1.06721e-17
6961.70317 1.05561e-17
6963.64668 1.06425e-17
6965.60026 1.07006e-17
6967.55384 1.06656e-17
6969.49735 1.06917e-17
6971.45093 1.06758e-17
6973.40451 1.05762e-17
6975.34802 1.05769e-17
6977.30160 1.05155e-17
6979.24511 1.04920e-17
6981.19869 1.06807e-17
6983.15227 1.07105e-17
6985.09578 1.05449e-17
6987.04936 1.04895e-17
6989.00294 1.05926e-17
6990.94645 1.07365e-17
6992.90003 1.07606e-17
6994.85361 1.06643e-17
6996.79712 1.05559e-17
6998.75070 1.04828e-17
7000.70428 1.04550e-17
7002.64779 1.04249e-17
7004.60137 1.04714e-17
7006.55495 1.03994e-17
7008.49846 1.01279e-17
7010.45204 1.01035e-17
7012.39555 1.01529e-17
7014.34913 1.00984e-17
7016.30271 1.01919e-17
7018.24622 1.03698e-17
7020.19980 1.04113e-17
7022.15338 1.03568e-17
7024.09689 1.04448e-17
7026.05047 1.04404e-17
7028.00405 1.01842e-17
7029.94756 1.01426e-17
7031.90114 1.03794e-17
7033.85472 1.03779e-17
7035.79823 1.03152e-17
7037.75181 1.04108e-17
7039.70539 1.02519e-17
7041.64890 1.00950e-17
7043.60248 1.01303e-17
7045.54599 1.00217e-17
7047.49957 9.86342e-18
7049.45315 9.90872e-18
7051.39666 1.00063e-17
7053.35024 1.00162e-17
7055.30382 1.00140e-17
7057.24733 1.00616e-17
7059.20091 1.00528e-17
7061.15449 1.01513e-17
7063.09800 1.05363e-17
7065.05158 1.08123e-17
7067.00516 1.07381e-17
7068.94867 1.06021e-17
7070.90225 1.04454e-17
7072.84576 1.02713e-17
7074.79934 1.02587e-17
7076.75292 1.01791e-17
7078.69643 1.01801e-17
7080.65001 1.01162e-17
7082.60359 1.00992e-17
7084.54710 1.00703e-17
7086.50068 1.00112e-17
7088.45426 9.95532e-18
7090.39777 9.90602e-18
7092.35135 9.97731e-18
7094.30493 9.97768e-18
7096.24844 9.89257e-18
7098.20202 9.83121e-18
7100.14553 9.96833e-18
7102.09911 1.01364e-17
7104.05269 1.03707e-17
7105.99620 1.03459e-17
7107.94978 1.02681e-17
7109.90336 1.02713e-17
7111.84687 1.02759e-17
7113.80045 1.03177e-17
7115.75403 1.02859e-17
7117.69754 1.02633e-17
7119.65112 1.01535e-17
7121.60470 1.01746e-17
7123.54821 1.01447e-17
7125.50179 1.00756e-17
7127.45537 1.00775e-17
7129.39888 1.00352e-17
7131.35246 9.98118e-18
7133.29597 1.01134e-17
7135.24955 1.00764e-17
7137.20313 1.00816e-17
7139.14664 1.00758e-17
7141.10022 9.99107e-18
7143.05380 1.01253e-17
7144.99731 1.03796e-17
7146.95089 1.01881e-17
7148.90447 1.00722e-17
7150.84798 1.02381e-17
7152.80156 1.03036e-17
7154.75514 1.04048e-17
7156.69865 1.04682e-17
7158.65223 1.03999e-17
7160.59574 1.01939e-17
7162.54932 1.01861e-17
7164.50290 1.02360e-17
7166.44641 1.01501e-17
7168.39999 9.94007e-18
7170.35357 9.97873e-18
7172.29708 1.00739e-17
7174.25066 1.00264e-17
7176.20424 1.01431e-17
7178.14775 1.01919e-17
7180.10133 1.01071e-17
7182.04484 1.01041e-17
7183.99842 1.00685e-17
7185.95200 1.01213e-17
7187.89551 1.02440e-17
7189.84909 1.02091e-17
7191.80267 1.02472e-17
7193.74618 1.00818e-17
7195.69976 1.00642e-17
7197.65334 1.01946e-17
7199.59685 1.00987e-17
7201.55043 9.90096e-18
7203.50401 9.87855e-18
7205.44752 9.81289e-18
7207.40110 9.69830e-18
7209.35468 9.63983e-18
7211.29819 9.76278e-18
7213.25177 9.74034e-18
7215.19528 9.74920e-18
7217.14886 9.60379e-18
7219.10244 9.54588e-18
7221.04595 9.64152e-18
7222.99953 9.80816e-18
7224.95311 9.95406e-18
7226.89662 9.90670e-18
7228.85020 9.83766e-18
7230.80378 9.98678e-18
7232.74729 9.97343e-18
7234.70087 9.85924e-18
7236.65445 9.81954e-18
7238.59796 9.78090e-18
7240.55154 9.62424e-18
7242.50512 9.65163e-18
7244.44863 9.57538e-18
7246.40221 9.44731e-18
7248.34572 9.37976e-18
7250.29930 9.36736e-18
7252.25288 9.31483e-18
7254.19639 9.22214e-18
7256.14997 9.15566e-18
7258.10355 9.05114e-18
7260.04706 9.11334e-18
7262.00064 9.19717e-18
7263.95422 9.24214e-18
7265.89773 9.18418e-18
7267.85131 9.02299e-18
7269.80489 9.03190e-18
7271.74840 9.21615e-18
7273.70198 9.18498e-18
7275.64549 9.04047e-18
7277.59907 9.11896e-18
7279.55265 9.11533e-18
7281.49616 9.09735e-18
7283.44974 9.00868e-18
7285.40332 8.77599e-18
7287.34683 8.56500e-18
7289.30041 8.40133e-18
7291.25399 8.36423e-18
7293.19750 8.28157e-18
7295.15108 8.24710e-18
7297.10466 8.45622e-18
7299.04817 8.62063e-18
7301.00175 8.42429e-18
7302.95533 8.19306e-18
7304.89884 8.24805e-18
7306.85242 8.36428e-18
7308.79593 8.30064e-18
7310.74951 8.13761e-18
7312.70309 8.16607e-18
7314.64660 8.11472e-18
7316.60018 8.05239e-18
7318.55376 8.23980e-18
7320.49727 7.98815e-18
7322.45085 7.76861e-18
7324.40443 7.89947e-18
7326.34794 7.85751e-18
7328.30152 7.82787e-18
7330.24503 7.80593e-18
7332.19861 7.79090e-18
7334.15219 7.72865e-18
7336.09570 7.65978e-18
7338.04928 7.69871e-18
7340.00286 7.60198e-18
7341.94637 7.31736e-18
7343.89995 7.42744e-18
7345.85353 7.50042e-18
7347.79704 7.37466e-18
7349.75062 7.52867e-18
7351.70420 7.53630e-18
7353.64771 7.54583e-18
7355.60129 7.55442e-18
7357.55487 7.39414e-18
7359.49838 7.34660e-18
7361.45196 7.61787e-18
7363.39547 7.60748e-18
7365.34905 7.56357e-18
7367.30263 7.49138e-18
7369.24614 7.56804e-18
7371.19972 7.46485e-18
7373.15330 7.39567e-18
7375.09681 7.32319e-18
7377.05039 7.19539e-18
7379.00397 7.34573e-18
7380.94748 7.36791e-18
7382.90106 7.19298e-18
7384.85464 7.13952e-18
7386.79815 7.27317e-18
7388.75173 7.19037e-18
7390.70531 7.17333e-18
7392.64882 7.11218e-18
7394.60240 7.21612e-18
7396.54591 7.29458e-18
7398.49949 7.51521e-18
7400.45307 7.29302e-18
7402.39658 7.26378e-18
7404.35016 7.38930e-18
7406.30374 7.21132e-18
7408.24725 7.32257e-18
7410.20083 7.38760e-18
7412.15441 7.21934e-18
7414.09792 7.07634e-18
7416.05150 6.99463e-18
7418.00508 6.99228e-18
7419.94859 6.94512e-18
7421.90217 6.79135e-18
7423.84568 6.70280e-18
7425.79926 6.61419e-18
7427.75284 6.71188e-18
7429.69635 6.68374e-18
7431.64993 6.56245e-18
7433.60351 6.68382e-18
7435.54702 6.70218e-18
7437.50060 6.67315e-18
7439.45418 6.72357e-18
7441.39769 6.79744e-18
7443.35127 6.83556e-18
7445.30485 6.83578e-18
7447.24836 6.97720e-18
7449.20194 6.80704e-18
7451.14545 6.82181e-18
7453.09903 6.96713e-18
7455.05261 7.03959e-18
7456.99612 6.89393e-18
7458.94970 6.91197e-18
7460.90328 6.91785e-18
7462.84679 6.85435e-18
7464.80037 6.81211e-18
7466.75395 6.75816e-18
7468.69746 6.77935e-18
7470.65104 6.70551e-18
7472.60462 6.70638e-18
7474.54813 6.84536e-18
7476.50171 6.77383e-18
7478.45529 6.84470e-18
7480.39880 6.89525e-18
7482.35238 6.85480e-18
7484.29589 6.84649e-18
7486.24947 6.99712e-18
7488.20305 7.09626e-18
7490.14656 7.07059e-18
7492.10014 7.17653e-18
7494.05372 7.24816e-18
7495.99723 7.26222e-18
7497.95081 7.29349e-18
7499.90439 7.25415e-18
7501.84790 7.22428e-18
7503.80148 7.19641e-18
7505.75506 7.01719e-18
7507.69857 6.84997e-18
7509.65215 6.92569e-18
7511.59566 7.04434e-18
7513.54924 7.01828e-18
7515.50282 6.98769e-18
7517.44633 7.06677e-18
7519.39991 7.10340e-18
7521.35349 7.03888e-18
7523.29700 7.07612e-18
7525.25058 7.19459e-18
7527.20416 7.19134e-18
7529.14767 7.25719e-18
7531.10125 7.29782e-18
7533.05483 7.24958e-18
7534.99834 7.36451e-18
7536.95192 7.37186e-18
7538.89543 7.37566e-18
7540.84901 7.34471e-18
7542.80259 7.30901e-18
7544.74610 7.46514e-18
7546.69968 7.46399e-18
7548.65326 7.20962e-18
7550.59677 7.19639e-18
7552.55035 7.23032e-18
7554.50393 7.23356e-18
7556.44744 7.28449e-18
7558.40102 7.33873e-18
7560.35460 7.27387e-18
7562.29811 7.43369e-18
7564.25169 7.50015e-18
7566.19520 7.59341e-18
7568.14878 7.57834e-18
7570.10236 7.61838e-18
7572.04587 7.79299e-18
7573.99945 7.63207e-18
7575.95303 7.66773e-18
7577.89654 7.90040e-18
7579.85012 7.98798e-18
7581.80370 8.02496e-18
7583.74721 7.85598e-18
7585.70079 7.79580e-18
7587.65437 7.91397e-18
7589.59788 8.02126e-18
7591.55146 7.93659e-18
7593.50504 7.86518e-18
7595.44855 7.56291e-18
7597.40213 7.66408e-18
7599.34564 7.69872e-18
7601.29922 7.56499e-18
7603.25280 7.38162e-18
7605.19631 7.25478e-18
7607.14989 7.47700e-18
7609.10347 7.44475e-18
7611.04698 7.58529e-18
7613.00056 7.49258e-18
7614.95414 7.59789e-18
7616.89765 7.93257e-18
7618.85123 8.39468e-18
7620.80481 8.48931e-18
7622.74832 8.26121e-18
7624.70190 8.02990e-18
7626.64541 7.94534e-18
7628.59899 8.07122e-18
7630.55257 8.01650e-18
7632.49608 7.97660e-18
7634.44966 8.15797e-18
7636.40324 8.23993e-18
7638.34675 8.21730e-18
7640.30033 8.17167e-18
7642.25391 7.96963e-18
7644.19742 7.77529e-18
7646.15100 7.86895e-18
7648.10458 7.93057e-18
7650.04809 7.97524e-18
7652.00167 8.03923e-18
7653.95525 7.93058e-18
7655.89876 7.92577e-18
7657.85234 8.22923e-18
7659.79585 8.37184e-18
7661.74943 8.53937e-18
7663.70301 8.62886e-18
7665.64652 8.65074e-18
7667.60010 8.82815e-18
7669.55368 8.90135e-18
7671.49719 9.00688e-18
7673.45077 9.01145e-18
7675.40435 8.92638e-18
7677.34786 8.83529e-18
7679.30144 8.75805e-18
7681.25502 8.53806e-18
7683.19853 8.47188e-18
7685.15211 8.52996e-18
7687.09562 8.45419e-18
7689.04920 8.43103e-18
7691.00278 8.39534e-18
7692.94629 8.19916e-18
7694.89987 8.12771e-18
7696.85345 8.22486e-18
7698.79696 8.34992e-18
7700.75054 8.39190e-18
7702.70412 8.34442e-18
7704.64763 8.27777e-18
7706.60121 8.29096e-18
7708.55479 8.49290e-18
7710.49830 8.62761e-18
7712.45188 8.66096e-18
7714.39539 8.69730e-18
7716.34897 8.65087e-18
7718.30255 8.48975e-18
7720.24606 8.42903e-18
7722.19964 8.42604e-18
7724.15322 8.35127e-18
7726.09673 8.37524e-18
7728.05031 8.40629e-18
7730.00389 8.38472e-18
7731.94740 8.33230e-18
7733.90098 8.22191e-18
7735.85456 8.09595e-18
7737.79807 8.05241e-18
7739.75165 8.03163e-18
7741.70523 8.00195e-18
7743.64874 7.92012e-18
7745.60232 7.91938e-18
7747.54583 8.00112e-18
7749.49941 7.99996e-18
7751.45299 8.01126e-18
7753.39650 8.15877e-18
7755.35008 8.28751e-18
7757.30366 8.23345e-18
7759.24717 8.22861e-18
7761.20075 8.38528e-18
7763.15433 8.57546e-18
7765.09784 8.63283e-18
7767.05142 8.51836e-18
7769.00500 8.46766e-18
7770.94851 8.59449e-18
7772.90209 8.61506e-18
7774.84560 8.61250e-18
7776.79918 8.47076e-18
7778.75276 8.22516e-18
7780.69627 8.13450e-18
7782.64985 7.93849e-18
7784.60343 7.98614e-18
7786.54694 8.08682e-18
7788.50052 7.87149e-18
7790.45410 7.82115e-18
7792.39761 7.86601e-18
7794.35119 7.74223e-18
7796.30477 7.78007e-18
7798.24828 7.93490e-18
7800.20186 7.98719e-18
7802.14537 8.08646e-18
7804.09895 7.99840e-18
7806.05253 7.96970e-18
7807.99604 8.09335e-18
7809.94962 8.06871e-18
7811.90320 8.10922e-18
7813.84671 8.24370e-18
7815.80029 8.26668e-18
7817.75387 8.11451e-18
7819.69738 7.93157e-18
7821.65096 7.90082e-18
7823.60454 7.95879e-18
7825.54805 7.93971e-18
7827.50163 7.80859e-18
7829.45521 7.64916e-18
7831.39872 7.55852e-18
7833.35230 7.56471e-18
7835.29581 7.49729e-18
7837.24939 7.48458e-18
7839.20297 7.47050e-18
7841.14648 7.44711e-18
7843.10006 7.56185e-18
7845.05364 7.60381e-18
7846.99715 7.60099e-18
7848.95073 7.67352e-18
7850.90431 7.70978e-18
7852.84782 7.71029e-18
7854.80140 7.70799e-18
7856.75498 7.69564e-18
7858.69849 7.68766e-18
7860.65207 7.71515e-18
7862.59558 7.75178e-18
7864.54916 7.73000e-18
7866.50274 7.77835e-18
7868.44625 7.72738e-18
7870.39983 7.59761e-18
7872.35341 7.54577e-18
7874.29692 7.45531e-18
7876.25050 7.46740e-18
7878.20408 7.44844e-18
7880.14759 7.33521e-18
7882.10117 7.26450e-18
7884.05475 7.29636e-18
7885.99826 7.36765e-18
7887.95184 7.33540e-18
7889.89535 7.29230e-18
7891.84893 7.27421e-18
7893.80251 7.32269e-18
7895.74602 7.43864e-18
7897.69960 7.51010e-18
7899.65318 7.47349e-18
7901.59669 7.49218e-18
7903.55027 7.51486e-18
7905.50385 7.42455e-18
7907.44736 7.37943e-18
7909.40094 7.35473e-18
7911.35452 7.34524e-18
7913.29803 7.21613e-18
7915.25161 7.12663e-18
7917.20519 7.11051e-18
7919.14870 6.86619e-18
7921.10228 6.70064e-18
7923.04579 6.66241e-18
7924.99937 6.40663e-18
7926.95295 6.21577e-18
7928.89646 6.13590e-18
7930.85004 5.86726e-18
7932.80362 5.61197e-18
7934.74713 5.62202e-18
7936.70071 5.62091e-18
7938.65429 5.52010e-18
7940.59780 5.34573e-18
7942.55138 5.22780e-18
7944.50496 5.16761e-18
7946.44847 5.07396e-18
7948.40205 4.96085e-18
7950.34556 4.91176e-18
7952.29914 4.87340e-18
7954.25272 4.86861e-18
7956.19623 4.83961e-18
7958.14981 4.88619e-18
7960.10339 4.72231e-18
7962.04690 4.52127e-18
7964.00048 4.48986e-18
7965.95406 4.45935e-18
7967.89757 4.26831e-18
7969.85115 4.09466e-18
7971.80473 4.07253e-18
7973.74824 3.99736e-18
7975.70182 4.07033e-18
7977.64533 3.92059e-18
7979.59891 3.84737e-18
7981.55249 3.69592e-18
7983.49600 3.55969e-18
7985.44958 3.56632e-18
7987.40316 3.51161e-18
7989.34667 3.42842e-18
7991.30025 3.47862e-18
7993.25383 3.47930e-18
7995.19734 3.54021e-18
7997.15092 3.52037e-18
7999.10450 3.41042e-18
8001.04801 3.36639e-18
8003.00159 3.53460e-18
8004.95517 3.57440e-18
8006.89868 3.41507e-18
8008.85226 3.44808e-18
8010.79577 3.51721e-18
8012.74935 3.55808e-18
8014.70293 3.47210e-18
8016.64644 3.40260e-18
8018.60002 3.40459e-18
8020.55360 3.35139e-18
8022.49711 3.34706e-18
8024.45069 3.41482e-18
8026.40427 3.40485e-18
8028.34778 3.26519e-18
8030.30136 3.23156e-18
8032.25494 3.40023e-18
8034.19845 3.42846e-18
8036.15203 3.36335e-18
8038.09554 3.33567e-18
8040.04912 3.37668e-18
8042.00270 3.47000e-18
8043.94621 3.52954e-18
8045.89979 3.58125e-18
8047.85337 3.66404e-18
8049.79688 3.66319e-18
8051.75046 3.67339e-18
8053.70404 3.70243e-18
8055.64755 3.69393e-18
8057.60113 3.65059e-18
8059.55471 3.57810e-18
8061.49822 3.67046e-18
8063.45180 3.54129e-18
8065.39531 3.41511e-18
8067.34889 3.59645e-18
8069.30247 3.60254e-18
8071.24598 3.48137e-18
8073.19956 3.50879e-18
8075.15314 3.41917e-18
8077.09665 3.47463e-18
8079.05023 3.50898e-18
8081.00381 3.37717e-18
8082.94732 3.34687e-18
8084.90090 3.35414e-18
8086.85448 3.39485e-18
8088.79799 3.36186e-18
8090.75157 3.27768e-18
8092.70515 3.25309e-18
8094.64866 3.20967e-18
8096.60224 3.17063e-18
8098.54575 3.22353e-18
8100.49933 3.22127e-18
8102.45291 3.11825e-18
8104.39642 3.02054e-18
8106.35000 2.93389e-18
8108.30358 2.98285e-18
8110.24709 3.03226e-18
8112.20067 2.96526e-18
8114.15425 2.99116e-18
8116.09776 2.96494e-18
8118.05134 2.83984e-18
8120.00492 2.85974e-18
8121.94843 2.79577e-18
8123.90201 2.75353e-18
8125.84552 2.90925e-18
8127.79910 2.98270e-18
8129.75268 3.00103e-18
8131.69619 2.88067e-18
8133.64977 2.92664e-18
8135.60335 3.00527e-18
8137.54686 3.11738e-18
8139.50044 3.08405e-18
8141.45402 3.02156e-18
8143.39753 2.98178e-18
8145.35111 3.14234e-18
8147.30469 3.11724e-18
8149.24820 3.08118e-18
8151.20178 3.04714e-18
8153.14529 3.10200e-18
8155.09887 3.10653e-18
8157.05245 3.04144e-18
8158.99596 3.20821e-18
8160.94954 3.20458e-18
8162.90312 3.12730e-18
8164.84663 3.37166e-18
8166.80021 3.49597e-18
8168.75379 3.35950e-18
8170.69730 3.39852e-18
8172.65088 3.46038e-18
8174.60446 3.55150e-18
8176.54797 3.52735e-18
8178.50155 3.58190e-18
8180.45513 3.68256e-18
8182.39864 3.53904e-18
8184.35222 3.53857e-18
8186.29573 3.71440e-18
8188.24931 3.82475e-18
8190.20289 3.75657e-18
8192.14640 3.61024e-18
8194.09998 3.68032e-18
8196.05356 3.79247e-18
8197.99707 3.95586e-18
8199.95065 4.06281e-18
8201.90423 4.08938e-18
8203.84774 4.32495e-18
8205.80132 4.29015e-18
8207.75490 4.23469e-18
8209.69841 4.34226e-18
8211.65199 4.34443e-18
8213.59550 4.44720e-18
8215.54908 4.50559e-18
8217.50266 4.56413e-18
8219.44617 4.43614e-18
8221.39975 4.34989e-18
8223.35333 4.23605e-18
8225.29684 4.37203e-18
8227.25042 4.31926e-18
8229.20400 4.44341e-18
8231.14751 4.70633e-18
8233.10109 4.68635e-18
8235.05467 4.82113e-18
8236.99818 5.10377e-18
8238.95176 4.97960e-18
8240.90534 4.92196e-18
8242.84885 4.88525e-18
8244.80243 5.00918e-18
8246.74594 5.03693e-18
8248.69952 5.03592e-18
8250.65310 4.82025e-18
8252.59661 4.89156e-18
8254.55019 4.93529e-18
8256.50377 4.89683e-18
8258.44728 5.08387e-18
8260.40086 5.19243e-18
8262.35444 5.32340e-18
8264.29795 5.34140e-18
8266.25153 5.24869e-18
8268.20511 5.33240e-18
8270.14862 5.36791e-18
8272.10220 5.22414e-18
8274.04571 5.41493e-18
8275.99929 5.38813e-18
8277.95287 5.25820e-18
8279.89638 5.59251e-18
8281.84996 5.59158e-18
8283.80354 5.71816e-18
8285.74705 5.54642e-18
8287.70063 5.58259e-18
8289.65421 5.58688e-18
8291.59772 5.61581e-18
8293.55130 5.51139e-18
8295.49481 5.59783e-18
8297.44839 5.71189e-18
8299.40197 5.86874e-18
8301.34548 6.01132e-18
8303.29906 5.92157e-18
8305.25264 5.92134e-18
8307.19615 6.05179e-18
8309.14973 6.06554e-18
8311.10331 6.12766e-18
8313.04682 5.92796e-18
8315.00040 6.01029e-18
8316.95398 5.99813e-18
8318.89749 6.08577e-18
8320.85107 6.30261e-18
8322.80465 6.25265e-18
8324.74816 6.07757e-18
8326.70174 6.11137e-18
8328.64525 6.09659e-18
8330.59883 5.97572e-18
8332.55241 5.92546e-18
8334.49592 6.05100e-18
8336.44950 6.26185e-18
8338.40308 6.28216e-18
8340.34659 6.33071e-18
8342.30017 6.26450e-18
8344.25375 6.27887e-18
8346.19726 6.43255e-18
8348.15084 6.30648e-18
8350.10442 6.33681e-18
8352.04793 6.35207e-18
8354.00151 6.37322e-18
8355.95509 6.66587e-18
8357.89860 6.53684e-18
8359.85218 6.50428e-18
8361.79569 6.48020e-18
8363.74927 6.42935e-18
8365.70285 6.67495e-18
8367.64636 6.73813e-18
8369.59994 6.75451e-18
8371.55352 6.62154e-18
8373.49703 6.56227e-18
8375.45061 6.77025e-18
8377.40419 6.93774e-18
8379.34770 7.01097e-18
8381.30128 7.08707e-18
8383.25486 6.69805e-18
8385.19837 6.56222e-18
8387.15195 6.55783e-18
8389.09546 6.56944e-18
8391.04904 6.76741e-18
8393.00262 6.96102e-18
8394.94613 6.69307e-18
8396.89971 6.74795e-18
8398.85329 6.76214e-18
8400.33893 6.76214e-18
8402.03652 5.69472e-18
8403.73410 5.01934e-18
8405.43169 5.19104e-18
8407.12928 5.37354e-18
8408.82687 5.02137e-18
8410.52446 4.55906e-18
8412.22204 4.38747e-18
8413.91963 4.56307e-18
8415.61722 5.02375e-18
8417.31481 5.52495e-18
8419.01240 5.84742e-18
8420.70998 6.06262e-18
8422.40757 6.27208e-18
8424.10516 6.27848e-18
8425.80275 5.92626e-18
8427.50034 5.66516e-18
8429.19792 5.99998e-18
8430.89551 6.54751e-18
8432.59310 6.62111e-18
8434.29069 6.28935e-18
8435.99832 6.02556e-18
8437.69591 6.04802e-18
8439.39350 6.36979e-18
8441.09109 6.62941e-18
8442.77863 6.21767e-18
8444.48626 5.32276e-18
8446.18385 4.85780e-18
8447.88144 5.19006e-18
8449.57903 6.08190e-18
8451.27662 7.14263e-18
8452.97420 7.78363e-18
8454.67179 7.79193e-18
8456.36938 7.55630e-18
8458.06697 7.26206e-18
8459.76456 6.69660e-18
8461.46214 5.82628e-18
8463.15973 4.91303e-18
8464.85732 4.26455e-18
8466.55491 4.27010e-18
8468.25250 5.03402e-18
8469.95008 6.04489e-18
8471.64767 6.78111e-18
8473.34526 6.95463e-18
8475.04285 6.53969e-18
8476.74044 6.10423e-18
8478.43802 6.16600e-18
8480.13561 6.53512e-18
8481.83320 6.82417e-18
8483.53079 6.76941e-18
8485.22838 6.27337e-18
8486.92597 5.74769e-18
8488.62355 5.73665e-18
8490.32114 6.16779e-18
8492.01873 6.66046e-18
8493.71632 7.22618e-18
8495.41391 8.05855e-18
8497.11149 8.93242e-18
8498.80908 9.37312e-18
8500.50667 9.20520e-18
8502.20426 8.54288e-18
8503.90185 7.82312e-18
8505.59943 7.77733e-18
8507.29702 8.49749e-18
8508.99461 9.29706e-18
8510.69220 9.79633e-18
8512.38979 1.00807e-17
8514.08737 1.00665e-17
8515.78496 9.41201e-18
8517.49260 8.16083e-18
8519.19018 6.95305e-18
8520.87773 6.33939e-18
8522.58536 6.67247e-18
8524.27290 7.82007e-18
8525.98054 8.62782e-18
8527.67812 8.34320e-18
8529.37571 7.61101e-18
8531.07330 7.16038e-18
8532.77089 7.19615e-18
8534.46848 7.65938e-18
8536.16606 7.98493e-18
8537.86365 7.68963e-18
8539.56124 7.21589e-18
8541.25883 7.16842e-18
8542.95642 7.41586e-18
8544.65401 7.56643e-18
8546.35159 7.48824e-18
8548.04918 7.20532e-18
8549.74677 6.87504e-18
8551.44436 6.73349e-18
8553.14195 6.88605e-18
8554.83953 7.30942e-18
8556.53712 7.92344e-18
8558.23471 8.58939e-18
8559.93230 9.04769e-18
8561.62989 8.96929e-18
8563.32747 8.48713e-18
8565.02506 8.23361e-18
8566.72265 8.43268e-18
8568.42024 8.76811e-18
8570.11783 9.06615e-18
8571.81542 9.36940e-18
8573.51300 9.65668e-18
8575.21059 9.84201e-18
8576.90818 9.80523e-18
8578.60577 9.31686e-18
8580.30336 8.40448e-18
8582.00094 7.65083e-18
8583.69853 7.44714e-18
8585.39612 7.54366e-18
8587.09371 7.67385e-18
8588.79130 7.83998e-18
8590.48888 8.08292e-18
8592.18647 8.49845e-18
8593.88406 9.06866e-18
8595.58165 9.27544e-18
8597.27924 8.68022e-18
8598.97682 7.66570e-18
8600.67441 6.88147e-18
8602.37200 6.70702e-18
8604.07963 7.25627e-18
8605.76718 8.04309e-18
8607.47481 8.34537e-18
8609.17240 8.26227e-18
8610.86999 8.39500e-18
8612.56757 8.74034e-18
8614.26516 8.88372e-18
8615.96275 8.71496e-18
8617.66034 8.38229e-18
8619.35793 8.37325e-18
8621.05551 9.47834e-18
8622.75310 1.16182e-17
8624.45069 1.37070e-17
8626.14828 1.46872e-17
8627.84587 1.35837e-17
8629.54346 1.05995e-17
8631.24104 7.73005e-18
8632.93863 6.31216e-18
8634.63622 6.30648e-18
8636.33381 7.19676e-18
8638.03140 7.70956e-18
8639.72898 7.19580e-18
8641.42657 6.77084e-18
8643.12416 7.29714e-18
8644.82175 8.30435e-18
8646.51934 9.14226e-18
8648.21692 9.33149e-18
8649.91451 8.68264e-18
8651.61210 7.77807e-18
8653.30969 7.30844e-18
8655.00728 7.40818e-18
8656.70486 7.94651e-18
8658.40245 8.69385e-18
8660.10004 9.37036e-18
8661.79763 9.82923e-18
8663.49522 1.00168e-17
8665.19281 9.78576e-18
8666.89039 9.02247e-18
8668.58798 8.07362e-18
8670.28557 7.55679e-18
8671.98316 7.58197e-18
8673.68075 7.82154e-18
8675.37833 8.13958e-18
8677.07592 8.57038e-18
8678.77351 9.10974e-18
8680.47110 9.74002e-18
8682.16869 1.03372e-17
8683.86627 1.06493e-17
8685.56386 1.05106e-17
8687.26145 9.87096e-18
8688.96908 8.91730e-18
8690.66667 8.19498e-18
8692.36426 8.04208e-18
8694.06185 8.36765e-18
8695.75944 8.94079e-18
8697.45702 9.37158e-18
8699.15461 9.38772e-18
8700.85220 9.04856e-18
8702.54979 8.54161e-18
8704.24738 8.15573e-18
8705.94496 8.12763e-18
8707.64255 8.55438e-18
8709.34014 9.33060e-18
8711.03773 9.77467e-18
8712.73532 9.32460e-18
8714.43291 8.65956e-18
8716.13049 8.71371e-18
8717.82808 9.21275e-18
8719.52567 9.41474e-18
8721.22326 9.24052e-18
8722.92085 8.98023e-18
8724.61843 8.95730e-18
8726.31602 9.46439e-18
8728.01361 1.01420e-17
8729.71120 1.01723e-17
8731.40879 9.62344e-18
8733.10637 9.34690e-18
8734.80396 9.57891e-18
8736.50155 9.92235e-18
8738.19914 1.00952e-17
8739.89673 9.93169e-18
8741.59431 9.44430e-18
8743.29190 8.91899e-18
8744.98949 8.55729e-18
8746.68708 8.39549e-18
8748.38467 8.38625e-18
8750.08226 8.35750e-18
8751.77984 8.19493e-18
8753.47743 7.87659e-18
8755.17502 7.57806e-18
8756.87261 7.94358e-18
8758.57020 9.26234e-18
8760.26778 1.08004e-17
8761.96537 1.17829e-17
8763.66296 1.18986e-17
8765.36055 1.11591e-17
8767.05814 1.02326e-17
8768.75572 9.73480e-18
8770.45331 9.18284e-18
8772.16095 7.92923e-18
8773.85853 6.28664e-18
8775.55612 4.98014e-18
8777.25371 4.79523e-18
8778.95130 6.24977e-18
8780.64889 8.28608e-18
8782.34647 9.06363e-18
8784.04406 8.58196e-18
8785.74165 8.17275e-18
8787.43924 8.15222e-18
8789.13683 8.02697e-18
8790.83441 7.74541e-18
8792.53200 7.59066e-18
8794.22959 7.61358e-18
8795.92718 7.65727e-18
8797.62477 7.51546e-18
8799.32236 6.89422e-18
8801.01994 5.95637e-18
8802.71753 5.57129e-18
8804.41512 6.01576e-18
8806.11271 6.49427e-18
8807.81030 6.49610e-18
8809.50788 6.20758e-18
8811.20547 5.85747e-18
8812.90306 5.64543e-18
8814.60065 5.64868e-18
8816.29824 5.59334e-18
8817.99582 5.29163e-18
8819.69341 4.97305e-18
8821.39100 4.89943e-18
8823.08859 5.15544e-18
8824.78618 5.70672e-18
8826.48376 6.33265e-18
8828.18135 6.78136e-18
8829.87894 6.93850e-18
8831.57653 6.80831e-18
8833.27412 6.60095e-18
8834.97171 6.57629e-18
8836.66929 6.64872e-18
8838.36688 6.55920e-18
8840.06447 6.40070e-18
8841.76206 6.45709e-18
8843.45965 6.55066e-18
8845.15723 6.20056e-18
8846.85482 5.48043e-18
8848.55241 4.95681e-18
8850.25000 4.98876e-18
8851.94759 5.70306e-18
8853.65522 6.90357e-18
8855.34276 7.97084e-18
8857.05040 8.70910e-18
8858.74798 9.60081e-18
8860.44557 1.06228e-17
8862.14316 1.08957e-17
8863.84075 1.00740e-17
8865.53834 8.78565e-18
8867.23592 7.67129e-18
8868.93351 7.27218e-18
8870.63110 7.67490e-18
8872.32869 7.87318e-18
8874.02628 7.23391e-18
8875.72386 6.60475e-18
8877.42145 6.82971e-18
8879.11904 7.92237e-18
8880.81663 9.51146e-18
8882.51422 1.07003e-17
8884.21181 1.07267e-17
8885.90939 9.98514e-18
8887.60698 9.24181e-18
8889.30457 8.57650e-18
8891.00216 7.86190e-18
8892.69975 7.63110e-18
8894.39733 8.52189e-18
8896.09492 9.98287e-18
8897.79251 1.08067e-17
8899.49010 1.08029e-17
8901.18769 1.05420e-17
8902.88527 9.83408e-18
8904.58286 7.96346e-18
8906.28045 5.82357e-18
8907.97804 5.75912e-18
8909.67563 7.79114e-18
8911.37321 9.30023e-18
8913.07080 8.92590e-18
8914.76839 6.99144e-18
8916.46598 4.44561e-18
8918.16357 3.23337e-18
8919.86116 3.95248e-18
8921.55874 4.62581e-18
8923.25633 4.14242e-18
8924.95392 3.52553e-18
8926.65151 3.60469e-18
8928.34910 4.38475e-18
8930.04668 5.58980e-18
8931.74427 6.46391e-18
8933.44186 6.48921e-18
8935.14949 6.10812e-18
8936.83704 5.86577e-18
8938.53462 5.82077e-18
8940.24226 5.90232e-18
8941.93985 6.00171e-18
8943.63743 6.07309e-18
8945.33502 6.59052e-18
8947.03261 7.98433e-18
8948.73020 9.45943e-18
8950.42779 9.83758e-18
8952.12537 9.33074e-18
8953.82296 8.89991e-18
8955.52055 8.58612e-18
8957.21814 7.86893e-18
8958.91573 6.82052e-18
8960.61331 5.92995e-18
8962.31090 5.46376e-18
8964.00849 5.47909e-18
8965.70608 5.86061e-18
8967.40367 6.30562e-18
8969.10125 6.45848e-18
8970.79884 5.91030e-18
8972.49643 4.92402e-18
8974.19402 4.74027e-18
8975.89161 5.74351e-18
8977.58920 6.82886e-18
8979.28678 7.29634e-18
8980.98437 7.45661e-18
8982.68196 7.43328e-18
8984.37955 6.62696e-18
8986.07714 5.05870e-18
8987.77472 4.42999e-18
8989.47231 5.79763e-18
8991.16990 7.79465e-18
8992.86749 9.01822e-18
8994.56508 9.70036e-18
8996.26266 1.03036e-17
8997.96025 1.05374e-17
8999.65784 1.00636e-17
9001.35543 9.06262e-18
9003.05302 7.90131e-18
9004.75061 6.91095e-18
9006.44819 6.31088e-18
9008.14578 5.87581e-18
9009.84337 5.19221e-18
9011.54096 4.29170e-18
9013.23855 3.52187e-18
9014.93613 3.24977e-18
9016.63372 3.80324e-18
9018.33131 5.08634e-18
9020.02890 6.58641e-18
9021.72649 7.85366e-18
9023.43412 8.56194e-18
9025.13171 8.35685e-18
9026.82930 6.87047e-18
9028.52688 4.71977e-18
9030.22447 3.81046e-18
9031.92206 4.75789e-18
9033.61965 6.09318e-18
9035.31724 6.87087e-18
9037.01482 7.31155e-18
9038.71241 7.59216e-18
9040.41000 7.69343e-18
9042.10759 7.59645e-18
9043.80518 7.20567e-18
9045.50276 6.52513e-18
9047.20035 5.88968e-18
9048.89794 5.50257e-18
9050.59553 4.91882e-18
9052.29312 3.85044e-18
9053.99070 3.02620e-18
9055.68829 3.17522e-18
9057.38588 4.04602e-18
9059.08347 5.01379e-18
9060.78106 5.52346e-18
9062.47865 5.20962e-18
9064.17623 4.18148e-18
9065.87382 2.92394e-18
9067.57141 2.52720e-18
9069.26900 4.08605e-18
9070.96659 6.41689e-18
9072.66417 6.92453e-18
9074.36176 5.54471e-18
9076.05935 4.30327e-18
9077.75694 4.04307e-18
9079.45453 4.49041e-18
9081.15211 5.34851e-18
9082.84970 6.20408e-18
9084.54729 6.49327e-18
9086.24488 5.53259e-18
9087.94247 3.67567e-18
9089.64005 2.76016e-18
9091.33764 3.65428e-18
9093.03523 5.54552e-18
9094.73282 7.47690e-18
9096.43041 8.42813e-18
9098.12800 8.04718e-18
9099.82558 7.43727e-18
9101.52317 7.52051e-18
9103.22076 8.27835e-18
9104.92839 9.36783e-18
9106.62598 1.00289e-17
9108.32357 9.73287e-18
9110.01111 8.97511e-18
9111.71875 8.39330e-18
9113.41633 8.05754e-18
9115.11392 7.82218e-18
9116.81151 7.40893e-18
9118.50910 6.61452e-18
9120.20669 5.87352e-18
9121.90427 5.79523e-18
9123.60186 6.31345e-18
9125.29945 6.95721e-18
9126.99704 7.20984e-18
9128.69463 6.64152e-18
9130.39221 5.81936e-18
9132.08980 6.00618e-18
9133.78739 6.99953e-18
9135.48498 7.31071e-18
9137.18257 6.86333e-18
9138.88015 7.00887e-18
9140.57774 7.92705e-18
9142.27533 8.44472e-18
9143.97292 8.18865e-18
9145.67051 7.83545e-18
9147.36810 7.86242e-18
9149.06568 8.47722e-18
9150.76327 9.40906e-18
9152.46086 9.49343e-18
9154.15845 8.22235e-18
9155.85604 6.64318e-18
9157.55362 5.47346e-18
9159.25121 4.03576e-18
9160.94880 2.11067e-18
9162.64639 1.25717e-18
9164.34398 2.51491e-18
9166.04156 4.71857e-18
9167.73915 6.33633e-18
9169.43674 6.34687e-18
9171.13433 4.49719e-18
9172.83192 2.60387e-18
9174.52950 2.67906e-18
9176.22709 4.17573e-18
9177.92468 5.50565e-18
9179.62227 5.98960e-18
9181.31986 5.58726e-18
9183.01745 5.14204e-18
9184.71503 5.90848e-18
9186.42267 7.54815e-18
9188.11021 8.59593e-18
9189.81784 8.55230e-18
9191.50539 7.76261e-18
9193.21302 7.04132e-18
9194.91061 7.66097e-18
9196.60820 9.33499e-18
9198.30578 9.97940e-18
9200.00337 9.01509e-18
9201.70096 7.83149e-18
9203.39855 7.31684e-18
9205.09614 7.63327e-18
9206.79372 8.42873e-18
9208.49131 8.41783e-18
9210.18890 7.15295e-18
9211.88649 5.99719e-18
9213.58408 5.85417e-18
9215.28166 6.12044e-18
9216.97925 6.35586e-18
9218.67684 7.21098e-18
9220.37443 8.87438e-18
9222.07202 9.79928e-18
9223.76960 8.78074e-18
9225.46719 6.62988e-18
9227.16478 4.65633e-18
9228.86237 3.85268e-18
9230.55996 4.67725e-18
9232.25755 6.02281e-18
9233.95513 6.45268e-18
9235.65272 6.24961e-18
9237.35031 6.47298e-18
9239.04790 7.50349e-18
9240.74549 9.23162e-18
9242.44307 1.10537e-17
9244.14066 1.20417e-17
9245.83825 1.18367e-17
9247.53584 1.06384e-17
9249.23343 8.85495e-18
9250.93101 7.09825e-18
9252.62860 5.83718e-18
9254.32619 5.29215e-18
9256.02378 5.55776e-18
9257.72137 6.59827e-18
9259.41895 7.85088e-18
9261.11654 8.06270e-18
9262.81413 6.92944e-18
9264.51172 5.67929e-18
9266.20931 5.16221e-18
9267.91694 5.40232e-18
9269.60448 6.06746e-18
9271.31212 6.15834e-18
9272.99966 5.24733e-18
9274.70729 4.48693e-18
9276.40488 4.75361e-18
9278.10247 5.57568e-18
9279.80006 6.27279e-18
9281.49764 6.29665e-18
9283.19523 5.47913e-18
9284.89282 4.85540e-18
9286.59041 5.42283e-18
9288.28800 6.43522e-18
9289.98559 6.77659e-18
9291.68317 6.96501e-18
9293.38076 7.94191e-18
9295.07835 8.74645e-18
9296.77594 7.84471e-18
9298.47353 6.53350e-18
9300.17111 7.46910e-18
9301.86870 9.78675e-18
9303.56629 1.02622e-17
9305.26388 8.66410e-18
9306.96147 7.23601e-18
9308.65905 6.81730e-18
9310.35664 6.97246e-18
9312.05423 7.10336e-18
9313.75182 6.25489e-18
9315.44941 5.03155e-18
9317.14700 6.19469e-18
9318.84458 1.00698e-17
9320.54217 1.33577e-17
9322.23976 1.37240e-17
9323.93735 1.06092e-17
9325.63494 4.95083e-18
9327.33252 3.53567e-19
9329.03011 -1.08665e-18
9330.72770 -1.43670e-18
9332.42529 -2.41706e-18
9334.12288 -3.28676e-18
9335.82046 -3.07119e-18
9337.51805 -1.20434e-18
9339.21564 2.35495e-18
9340.91323 6.44988e-18
9342.61082 9.71380e-18
9344.30840 1.14841e-17
9346.00599 1.15786e-17
9347.70358 1.01644e-17
9349.41121 7.80359e-18
9351.09876 5.76115e-18
9352.80639 5.31031e-18
9354.49393 6.27646e-18
9356.20157 7.53804e-18
9357.89915 8.17084e-18
9359.59674 7.52994e-18
9361.29433 5.93375e-18
9362.99192 4.53222e-18
9364.68951 3.53622e-18
9366.38709 2.27242e-18
9368.08468 9.45506e-19
9369.78227 5.96460e-19
9371.47986 1.71117e-18
9373.17745 4.19694e-18
9374.87504 6.92095e-18
9376.57262 7.22791e-18
9378.27021 4.72822e-18
9379.96780 2.79457e-18
9381.66539 3.39152e-18
9383.36298 5.51151e-18
9385.06056 7.84408e-18
9386.75815 8.88557e-18
9388.45574 8.14264e-18
9390.15333 7.80697e-18
9391.85092 9.33930e-18
9393.54850 1.08683e-17
9395.24609 1.07019e-17
9396.94368 9.82217e-18
9398.64127 9.52227e-18
9400.33886 9.89909e-18
9402.03644 1.05123e-17
9403.73403 1.02517e-17
9405.43162 8.22183e-18
9407.12921 5.40574e-18
9408.82680 3.56996e-18
9410.52439 3.74695e-18
9412.22197 6.16884e-18
9413.91956 9.52416e-18
9415.61715 1.15821e-17
9417.31474 1.13329e-17
9419.01233 8.96199e-18
9420.70991 5.88891e-18
9422.40750 4.55103e-18
9424.10509 4.97510e-18
9425.80268 4.64014e-18
9427.50027 3.24585e-18
9429.19785 3.10013e-18
9430.89544 4.59036e-18
9432.59303 5.56312e-18
9434.29062 5.37075e-18
9435.98821 5.71522e-18
9437.69584 7.33262e-18
9439.39343 9.23811e-18
9441.09102 1.04410e-17
9442.78860 1.00402e-17
9444.48619 7.99617e-18
9446.18378 6.12062e-18
9447.88137 5.78017e-18
9449.57896 6.54864e-18
9451.27654 7.59175e-18
9452.97413 8.04514e-18
9454.67172 7.40165e-18
9456.36931 6.17149e-18
9458.06690 5.20821e-18
9459.76449 5.43337e-18
9461.46207 7.30027e-18
9463.15966 9.47708e-18
9464.85725 1.02081e-17
9466.55484 9.64988e-18
9468.25243 8.90853e-18
9469.95001 8.34775e-18
9471.64760 7.87277e-18
9473.34519 7.19900e-18
9475.04278 5.92998e-18
9476.74037 4.18392e-18
9478.43795 2.54625e-18
9480.13554 2.18196e-18
9481.83313 4.67264e-18
9483.53072 9.02950e-18
9485.22831 1.14739e-17
9486.92589 1.08494e-17
9488.62348 9.39646e-18
9490.32107 8.42978e-18
9492.01866 7.86702e-18
9493.71625 7.50296e-18
9495.41384 6.78025e-18
9497.11142 5.71566e-18
9498.80901 5.62750e-18
9500.50660 7.01898e-18
9502.20419 8.39273e-18
9503.90178 8.70720e-18
9505.59936 8.75619e-18
9507.29695 9.14182e-18
9508.99454 9.01535e-18
9510.69213 7.70418e-18
9512.38972 5.95259e-18
9514.08730 4.64137e-18
9515.78489 3.52048e-18
9517.48248 2.30466e-18
9519.19011 2.34778e-18
9520.88770 4.88771e-18
9522.58529 7.98602e-18
9524.28288 8.77949e-18
9525.98047 7.58458e-18
9527.67805 6.47500e-18
9529.37564 6.45672e-18
9531.07323 7.71430e-18
9532.77082 9.51098e-18
9534.46841 1.03549e-17
9536.16599 9.88403e-18
9537.86358 8.83873e-18
9539.56117 7.85658e-18
9541.25876 7.47919e-18
9542.95635 7.64474e-18
9544.65394 7.51560e-18
9546.35152 6.68038e-18
9548.04911 5.34992e-18
9549.74670 3.91726e-18
9551.44429 2.95123e-18
9553.14188 2.99996e-18
9554.83946 4.73914e-18
9556.53705 7.67320e-18
9558.23464 8.82013e-18
9559.93223 6.90152e-18
9561.62982 5.22281e-18
9563.32740 6.14779e-18
9565.02499 7.78525e-18
9566.72258 8.11954e-18
9568.42017 7.16408e-18
9570.11776 5.60542e-18
9571.81534 4.55618e-18
9573.51293 4.99529e-18
9575.21052 6.92639e-18
9576.90811 9.74374e-18
9578.60570 1.24163e-17
9580.30329 1.38716e-17
9582.00087 1.37217e-17
9583.69846 1.21586e-17
9585.39605 9.75807e-18
9587.09364 7.35119e-18
9588.79123 5.68743e-18
9590.48881 5.28358e-18
9592.18640 5.72449e-18
9593.88399 5.82907e-18
9595.58158 5.77469e-18
9597.27917 7.04799e-18
9598.97675 9.29561e-18
9600.67434 1.01709e-17
9602.38198 9.16768e-18
9604.07956 8.11619e-18
9605.76711 7.92879e-18
9607.47474 8.13905e-18
9609.17233 8.27997e-18
9610.86992 7.89572e-18
9612.56750 6.88195e-18
9614.26509 5.80964e-18
9615.96268 5.22031e-18
9617.66027 5.47500e-18
9619.35786 6.50835e-18
9621.05544 7.41715e-18
9622.75303 7.41371e-18
9624.45062 6.29367e-18
9626.14821 4.41226e-18
9627.84580 3.23537e-18
9629.54339 3.99530e-18
9631.24097 6.20603e-18
9632.93856 8.71547e-18
9634.63615 1.05199e-17
9636.33374 1.09174e-17
9638.03133 1.00747e-17
9639.72891 8.69794e-18
9641.42650 7.44672e-18
9643.12409 6.83704e-18
9644.82168 6.77406e-18
9646.51927 6.73460e-18
9648.21685 6.71627e-18
9649.91444 7.09301e-18
9651.61203 8.11454e-18
9653.30962 9.92609e-18
9655.00721 1.13372e-17
9656.70479 9.81660e-18
9658.40238 6.03117e-18
9660.09997 4.44744e-18
9661.79756 6.89585e-18
9663.49515 1.15595e-17
9665.19274 1.61720e-17
9666.89032 1.79121e-17
9668.58791 1.59016e-17
9670.28550 1.28607e-17
9671.98309 1.09511e-17
9673.68068 1.04053e-17
9675.37826 1.08078e-17
9677.07585 1.09128e-17
9678.77344 9.71285e-18
9680.47103 7.13324e-18
9682.16862 3.77472e-18
9683.86620 1.42564e-18
9685.56379 1.44446e-18
9687.26138 3.01113e-18
9688.96901 4.63363e-18
9690.66660 5.15454e-18
9692.36419 4.02051e-18
9694.06178 2.51199e-18
9695.75937 2.40053e-18
9697.45695 3.30654e-18
9699.15454 3.77307e-18
9700.85213 3.39654e-18
9702.54972 2.48938e-18
9704.24731 1.73450e-18
9705.94489 2.05178e-18
9707.64248 3.28779e-18
9709.34007 4.34005e-18
9711.03766 4.69633e-18
9712.73525 4.44314e-18
9714.43283 4.00826e-18
9716.13042 4.24333e-18
9717.82801 5.21371e-18
9719.52560 5.93342e-18
9721.22319 5.81315e-18
9722.92078 4.84211e-18
9724.61836 3.50748e-18
9726.31595 3.13005e-18
9728.01354 4.23389e-18
9729.71113 5.71849e-18
9731.40872 6.64381e-18
9733.10630 6.79226e-18
9734.80389 6.32826e-18
9736.50148 6.08873e-18
9738.19907 6.63632e-18
9739.89666 7.49838e-18
9741.59424 7.97376e-18
9743.29183 7.27343e-18
9744.98942 5.16160e-18
9746.68701 3.44404e-18
9748.38460 3.88617e-18
9750.08219 5.21765e-18
9751.77977 5.27325e-18
9753.47736 3.81929e-18
9755.17495 1.78150e-18
9756.87254 8.88211e-19
9758.57013 2.90114e-18
9760.26771 6.51830e-18
9761.96530 8.43389e-18
9763.66289 7.54674e-18
9765.36048 4.71499e-18
9767.05807 1.80490e-18
9768.75565 1.59636e-18
9770.45324 4.13066e-18
9772.16088 6.36617e-18
9773.85846 7.13570e-18
9775.55605 7.62718e-18
9777.25364 8.53046e-18
9778.95123 9.91301e-18
9780.64882 1.15289e-17
9782.34640 1.26064e-17
9784.04399 1.25496e-17
9785.74158 1.10894e-17
9787.43917 8.54563e-18
9789.13676 6.34057e-18
9790.83434 5.34110e-18
9792.53193 4.79981e-18
9794.22952 3.96282e-18
9795.92711 2.73459e-18
9797.62470 1.38259e-18
9799.32228 9.94398e-19
9801.01987 2.24584e-18
9802.71746 3.62582e-18
9804.41505 3.55439e-18
9806.11264 2.99137e-18
9807.81023 3.50603e-18
9809.50781 4.96660e-18
9811.20540 6.41103e-18
9812.90299 6.71269e-18
9814.60058 4.98918e-18
9816.29817 2.42275e-18
9817.99575 1.37683e-18
9819.69334 2.07635e-18
9821.39093 3.09752e-18
9823.08852 3.98512e-18
9824.78611 5.04958e-18
9826.48369 5.91030e-18
9828.18128 5.64817e-18
9829.87887 4.58715e-18
9831.57646 4.40731e-18
9833.27405 5.75041e-18
9834.97163 7.90116e-18
9836.66922 9.87885e-18
9838.36681 1.03351e-17
9840.06440 8.93752e-18
9841.76199 7.14572e-18
9843.45958 6.04773e-18
9845.15716 5.65990e-18
9846.85475 5.76667e-18
9848.55234 5.91003e-18
9850.24993 5.76356e-18
9851.94752 5.58689e-18
9853.65515 5.55500e-18
9855.34269 5.15089e-18
9857.05033 4.04350e-18
9858.74791 3.05796e-18
9860.44550 2.98035e-18
9862.14309 2.98680e-18
9863.84068 2.16987e-18
9865.53827 1.99106e-18
9867.23585 4.22666e-18
9868.93344 7.02035e-18
9870.63103 7.36334e-18
9872.32862 6.90592e-18
9874.02621 9.43574e-18
9875.72379 1.37559e-17
9877.42138 1.54608e-17
9879.11897 1.25990e-17
9880.81656 5.45892e-18
9882.51415 -2.57777e-18
9884.21173 -5.30798e-18
9885.90932 -2.00937e-18
9887.60691 1.89232e-18
9889.30450 3.29790e-18
9891.00209 2.03428e-18
9892.69968 -4.86396e-19
9894.39726 -3.48246e-19
9896.09485 3.47489e-18
9897.79244 7.03647e-18
9899.49003 7.57393e-18
9901.18762 4.94344e-18
9902.88520 3.33594e-19
9904.58279 -2.79902e-18
9906.28038 -2.40667e-18
9907.97797 -5.68077e-19
9909.67556 6.09862e-19
9911.37314 1.12391e-18
9913.07073 1.45315e-18
9914.76832 2.12718e-18
9916.46591 3.50242e-18
9918.16350 5.22092e-18
9919.86108 6.65856e-18
9921.55867 7.24938e-18
9923.25626 6.68459e-18
9924.95385 5.39211e-18
9926.65144 4.16354e-18
9928.34903 3.69868e-18
9930.04661 4.38832e-18
9931.74420 5.24904e-18
9933.44179 4.58853e-18
9935.14942 2.85321e-18
9936.83697 2.06080e-18
9938.54460 2.51499e-18
9940.23214 3.03904e-18
9941.93978 2.99739e-18
9943.63736 2.22606e-18
9945.33495 1.13150e-18
9947.03254 9.10493e-19
9948.73013 1.42065e-18
9950.42772 6.16506e-19
9952.12530 -1.84817e-18
9953.82289 -3.66895e-18
9955.52048 -3.44258e-18
9957.21807 -1.55498e-18
9958.91566 1.39843e-18
9960.61324 4.72890e-18
9962.31083 7.85892e-18
9964.00842 1.08276e-17
9965.70601 1.33325e-17
9967.40360 1.38435e-17
9969.10118 1.14958e-17
9970.79877 7.47823e-18
9972.49636 3.56099e-18
9974.19395 1.53541e-18
9975.89154 2.41810e-18
9977.58913 4.95280e-18
9979.28671 7.11350e-18
9980.98430 7.90446e-18
9982.68189 7.04561e-18
9984.37948 4.76081e-18
9986.07707 1.78140e-18
9987.77465 -7.96845e-19
9989.47224 -1.86075e-18
9991.16983 -9.12656e-19
9992.86742 1.84156e-18
9994.56501 4.57256e-18
9996.26259 4.35950e-18
9997.96018 1.96854e-18
9999.65777 1.67354e-18
