# wavelength flux
3474.89730 4.91633e-18
3476.36980 5.15233e-18
3477.83228 5.52298e-18
3479.30478 5.71829e-18
3480.77728 4.91897e-18
3482.24978 4.34357e-18
3483.71226 5.73365e-18
3485.18476 6.35553e-18
3486.65726 5.47611e-18
3488.12976 5.65290e-18
3489.59224 5.53902e-18
3491.06474 4.95410e-18
3492.53724 4.80712e-18
3494.00974 4.38331e-18
3495.47222 4.51870e-18
3496.94472 4.73609e-18
3498.41722 4.87855e-18
3499.88971 5.40556e-18
3501.35220 4.81059e-18
3502.82470 4.18386e-18
3504.29720 5.04286e-18
3505.76969 5.33404e-18
3507.23218 4.44424e-18
3508.70467 4.40291e-18
3510.17717 4.38138e-18
3511.64967 4.42745e-18
3513.11216 4.73997e-18
3514.58465 4.45590e-18
3516.05715 4.55316e-18
3517.51964 4.32335e-18
3518.99213 4.03061e-18
3520.46463 4.29278e-18
3521.93713 4.80276e-18
3523.40963 4.93179e-18
3524.87211 4.36320e-18
3526.34461 4.27784e-18
3527.81711 5.14244e-18
3529.27959 4.45640e-18
3530.75209 4.38478e-18
3532.22459 4.98198e-18
3533.69709 4.73329e-18
3535.15957 4.83657e-18
3536.63207 5.67545e-18
3538.10457 5.07858e-18
3539.57707 4.43536e-18
3541.03955 4.16194e-18
3542.51205 4.65935e-18
3543.98455 4.41666e-18
3545.45705 3.79238e-18
3546.91953 4.63969e-18
3548.39203 4.61144e-18
3549.86453 4.54267e-18
3551.33703 4.62600e-18
3552.79951 4.78944e-18
3554.27201 5.18097e-18
3555.74451 5.25087e-18
3557.21701 4.59655e-18
3558.67949 3.88817e-18
3560.15199 4.31155e-18
3561.62449 4.96236e-18
3563.09699 5.08686e-18
3564.55947 5.17902e-18
3566.03197 4.69453e-18
3567.50446 3.78482e-18
3568.97696 4.29179e-18
3570.43945 4.89240e-18
3571.91194 4.62746e-18
3573.38444 4.28574e-18
3574.85694 3.80404e-18
3576.31943 3.60304e-18
3577.79192 4.47810e-18
3579.26442 5.12231e-18
3580.73692 4.69185e-18
3582.19940 4.18648e-18
3583.67190 4.57126e-18
3585.14440 4.96733e-18
3586.61690 4.57967e-18
3588.07938 5.01094e-18
3589.55188 4.94116e-18
3591.02438 4.37014e-18
3592.49688 4.28106e-18
3593.95936 4.16165e-18
3595.43186 4.32438e-18
3596.90436 3.98417e-18
3598.37686 5.08103e-18
3599.83934 5.98253e-18
3601.31184 5.00632e-18
3602.78434 4.69701e-18
3604.25684 5.88863e-18
3605.71932 5.31163e-18
3607.19182 4.81239e-18
3608.66432 5.29913e-18
3610.13682 5.07861e-18
3611.59930 5.11734e-18
3613.07180 5.36154e-18
3614.54430 5.54929e-18
3616.01680 6.05238e-18
3617.47928 5.91600e-18
3618.95178 5.89871e-18
3620.42428 5.75781e-18
3621.88676 5.47558e-18
3623.35926 6.51736e-18
3624.83176 6.40996e-18
3626.30426 4.78575e-18
3627.76674 4.34800e-18
3629.23924 5.25231e-18
3630.71174 6.30497e-18
3632.18423 6.20637e-18
3633.64672 5.47355e-18
3635.11922 5.43648e-18
3636.59171 5.65614e-18
3638.06421 5.45046e-18
3639.52670 4.84297e-18
3640.99919 4.82076e-18
3642.47169 5.42178e-18
3643.94419 4.34114e-18
3645.40667 3.14995e-18
3646.87917 3.81028e-18
3648.35167 4.61948e-18
3649.82417 4.67480e-18
3651.28665 3.95881e-18
3652.75915 3.97009e-18
3654.23165 4.88625e-18
3655.70415 5.08964e-18
3657.16663 4.73351e-18
3658.63913 4.20849e-18
3660.11163 4.16802e-18
3661.58413 4.77334e-18
3663.04661 5.01580e-18
3664.51911 4.86923e-18
3665.99161 4.35668e-18
3667.46411 4.51566e-18
3668.92659 5.02925e-18
3670.39909 4.99892e-18
3671.87159 5.38716e-18
3673.34409 5.32147e-18
3674.80657 4.79376e-18
3676.27907 5.00396e-18
3677.75157 5.28760e-18
3679.22407 4.90329e-18
3680.68655 5.18070e-18
3682.15905 6.08868e-18
3683.63155 6.27207e-18
3685.10405 6.09409e-18
3686.56653 5.98895e-18
3688.03903 6.02870e-18
3689.51153 6.10417e-18
3690.98402 6.70575e-18
3692.44651 6.88517e-18
3693.91901 7.11062e-18
3695.39150 7.39090e-18
3696.86400 7.66914e-18
3698.32649 7.57967e-18
3699.79898 7.30537e-18
3701.27148 7.47645e-18
3702.74398 7.81323e-18
3704.20646 8.13991e-18
3705.67896 8.07049e-18
3707.15146 7.55736e-18
3708.62396 8.24957e-18
3710.08644 8.66197e-18
3711.55894 8.41418e-18
3713.03144 8.43831e-18
3714.50394 8.38328e-18
3715.96642 8.32826e-18
3717.43892 8.28057e-18
3718.91142 8.23287e-18
3720.37390 8.18520e-18
3721.84640 8.13753e-18
3723.31890 8.08987e-18
3724.79140 8.04222e-18
3726.25388 7.99458e-18
3727.72638 7.94695e-18
3729.19888 7.89934e-18
3730.67138 7.85173e-18
3732.13386 7.80414e-18
3733.60636 7.75655e-18
3735.07886 7.70898e-18
3736.55136 7.66142e-18
3738.01384 7.61386e-18
3739.48634 7.56631e-18
3740.95884 7.51878e-18
3742.43134 7.47126e-18
3743.89382 7.42375e-18
3745.36632 7.37624e-18
3746.83882 7.32875e-18
3748.31131 7.28127e-18
3749.77380 7.23380e-18
3751.24630 7.18633e-18
3752.71880 7.13888e-18
3754.19129 7.09144e-18
3755.65378 6.56720e-18
3757.12628 6.57182e-18
3758.59877 6.89638e-18
3760.07127 6.61397e-18
3761.53376 6.05890e-18
3763.00625 5.60907e-18
3764.47875 5.64403e-18
3765.95125 5.34875e-18
3767.41373 4.84036e-18
3768.88623 5.24689e-18
3770.35873 5.39665e-18
3771.83123 4.99300e-18
3773.29371 4.46458e-18
3774.76621 4.10118e-18
3776.23871 4.50002e-18
3777.71121 4.55235e-18
3779.17369 4.43207e-18
3780.64619 4.44318e-18
3782.11869 4.12566e-18
3783.59119 3.58073e-18
3785.05367 3.63823e-18
3786.52617 3.84430e-18
3787.99867 3.74952e-18
3789.47117 3.59450e-18
3790.93365 3.49533e-18
3792.40615 3.45122e-18
3793.87865 3.69754e-18
3795.35115 3.60028e-18
3796.81363 3.16957e-18
3798.28613 2.98526e-18
3799.75863 3.15334e-18
3801.23113 3.01141e-18
3802.69361 2.98208e-18
3804.16611 3.03520e-18
3805.63861 2.83797e-18
3807.11111 2.74123e-18
3808.57359 3.03503e-18
3810.04609 3.25545e-18
3811.51859 3.15137e-18
3812.98107 2.84384e-18
3814.45357 2.62585e-18
3815.92607 2.98184e-18
3817.39856 3.13578e-18
3818.86105 2.91051e-18
3820.33354 2.97071e-18
3821.80604 3.04011e-18
3823.27854 2.86652e-18
3824.74103 2.88318e-18
3826.21352 2.93197e-18
3827.68602 2.87580e-18
3829.15852 2.89262e-18
3830.62100 2.85152e-18
3832.09350 2.62903e-18
3833.56600 2.64066e-18
3835.03850 2.80814e-18
3836.50098 3.25295e-18
3837.97348 3.36060e-18
3839.44598 3.09914e-18
3840.91848 3.13232e-18
3842.38096 3.33890e-18
3843.85346 3.36368e-18
3845.32596 3.43768e-18
3846.79846 3.54420e-18
3848.26094 3.01346e-18
3849.73344 3.18955e-18
3851.20594 3.64276e-18
3852.67844 3.55352e-18
3854.14092 3.54483e-18
3855.61342 3.70054e-18
3857.08592 3.56322e-18
3858.55842 3.64084e-18
3860.02090 4.33236e-18
3861.49340 4.57423e-18
3862.96590 4.35499e-18
3864.43840 4.75986e-18
3865.90088 4.78789e-18
3867.37338 4.92646e-18
3868.84588 5.10069e-18
3870.31838 4.92090e-18
3871.78086 5.26306e-18
3873.25336 5.55452e-18
3874.72586 5.99557e-18
3876.19835 6.28807e-18
3877.66084 6.04200e-18
3879.13334 6.01753e-18
3880.60583 6.51226e-18
3882.07833 7.10101e-18
3883.54081 7.41757e-18
3885.01331 7.95192e-18
3886.48581 8.05357e-18
3887.95831 7.91740e-18
3889.42079 8.15854e-18
3890.89329 8.37785e-18
3892.36579 8.97839e-18
3893.83829 9.28429e-18
3895.30077 9.83386e-18
3896.77327 1.05982e-17
3898.24577 1.08613e-17
3899.71827 1.10307e-17
3901.18075 1.08744e-17
3902.65325 1.09019e-17
3904.12575 1.11241e-17
3905.58823 1.18061e-17
3907.06073 1.23119e-17
3908.53323 1.20916e-17
3910.00573 1.23416e-17
3911.46821 1.26115e-17
3912.94071 1.26923e-17
3914.41321 1.30444e-17
3915.88571 1.36598e-17
3917.34819 1.37777e-17
3918.82069 1.33462e-17
3920.29319 1.32515e-17
3921.76569 1.33973e-17
3923.22817 1.38036e-17
3924.70067 1.39627e-17
3926.17317 1.37870e-17
3927.64567 1.34608e-17
3929.10815 1.33731e-17
3930.58065 1.35237e-17
3932.05315 1.31512e-17
3933.52565 1.24625e-17
3934.98813 1.24192e-17
3936.46063 1.30816e-17
3937.93313 1.32130e-17
3939.40562 1.26522e-17
3940.86811 1.29125e-17
3942.34061 1.35724e-17
3943.81310 1.32499e-17
3945.28560 1.29495e-17
3946.74809 1.34474e-17
3948.22058 1.35964e-17
3949.69308 1.36726e-17
3951.16558 1.35852e-17
3952.62806 1.32662e-17
3954.10056 1.28756e-17
3955.57306 1.30616e-17
3957.04556 1.33328e-17
3958.50804 1.30608e-17
3959.98054 1.27566e-17
3961.45304 1.23079e-17
3962.92554 1.22231e-17
3964.38802 1.24381e-17
3965.86052 1.24887e-17
3967.33302 1.23262e-17
3968.80552 1.20757e-17
3970.26800 1.24358e-17
3971.74050 1.26227e-17
3973.21300 1.26967e-17
3974.68550 1.26925e-17
3976.14798 1.25998e-17
3977.62048 1.25877e-17
3979.09298 1.21200e-17
3980.56548 1.23131e-17
3982.02796 1.25231e-17
3983.50046 1.24637e-17
3984.97296 1.22600e-17
3986.44546 1.20335e-17
3987.90794 1.22271e-17
3989.38044 1.20262e-17
3990.85294 1.16972e-17
3992.32544 1.14875e-17
3993.78792 1.15085e-17
3995.26042 1.13205e-17
3996.73292 1.09432e-17
3998.20541 1.09620e-17
3999.66790 1.13823e-17
4001.14039 1.16079e-17
4002.61289 1.12575e-17
4004.07538 1.12471e-17
4005.54788 1.15511e-17
4007.02037 1.14474e-17
4008.49287 1.12160e-17
4009.95536 1.16100e-17
4011.42785 1.18222e-17
4012.90035 1.16470e-17
4014.37285 1.17133e-17
4015.83533 1.18491e-17
4017.30783 1.20560e-17
4018.78033 1.22136e-17
4020.25283 1.20079e-17
4021.71531 1.22078e-17
4023.18781 1.28803e-17
4024.66031 1.28354e-17
4026.13281 1.31525e-17
4027.59529 1.38103e-17
4029.06779 1.38892e-17
4030.54029 1.39274e-17
4032.01279 1.38894e-17
4033.47527 1.38188e-17
4034.94777 1.39011e-17
4036.42027 1.43003e-17
4037.89277 1.44384e-17
4039.35525 1.41772e-17
4040.82775 1.40143e-17
4042.30025 1.40722e-17
4043.77275 1.45079e-17
4045.23523 1.45958e-17
4046.70773 1.44377e-17
4048.18023 1.44146e-17
4049.65273 1.45334e-17
4051.11521 1.45397e-17
4052.58771 1.40832e-17
4054.06021 1.39303e-17
4055.53271 1.37092e-17
4056.99519 1.36083e-17
4058.46769 1.40819e-17
4059.94019 1.40892e-17
4061.41268 1.38718e-17
4062.87517 1.34769e-17
4064.34766 1.30705e-17
4065.82016 1.30388e-17
4067.29266 1.30009e-17
4068.75515 1.26353e-17
4070.22764 1.22547e-17
4071.70014 1.21988e-17
4073.17264 1.23132e-17
4074.63512 1.25934e-17
4076.10762 1.27144e-17
4077.58012 1.24296e-17
4079.05262 1.21188e-17
4080.51510 1.19903e-17
4081.98760 1.16698e-17
4083.46010 1.11241e-17
4084.93260 1.10873e-17
4086.39508 1.15001e-17
4087.86758 1.13022e-17
4089.34008 1.09347e-17
4090.80256 1.08131e-17
4092.27506 1.06329e-17
4093.74756 1.05857e-17
4095.22006 1.05980e-17
4096.68254 1.03789e-17
4098.15504 1.03678e-17
4099.62754 1.05599e-17
4101.10004 1.04137e-17
4102.56252 1.01186e-17
4104.03502 1.03806e-17
4105.50752 1.08173e-17
4106.98002 1.05856e-17
4108.44250 1.02049e-17
4109.91500 1.04779e-17
4111.38750 1.03839e-17
4112.86000 9.83357e-18
4114.32248 9.69390e-18
4115.79498 9.75044e-18
4117.26748 9.97363e-18
4118.73998 9.90171e-18
4120.20246 9.36220e-18
4121.67496 9.32907e-18
4123.14745 9.57118e-18
4124.61995 9.38600e-18
4126.08244 9.27517e-18
4127.55494 9.54313e-18
4129.02743 9.21180e-18
4130.49993 8.89767e-18
4131.96241 9.01446e-18
4133.43491 8.80615e-18
4134.90741 8.67102e-18
4136.37991 8.55344e-18
4137.84239 8.31160e-18
4139.31489 8.36570e-18
4140.78739 8.30127e-18
4142.25989 8.33045e-18
4143.72237 8.51347e-18
4145.19487 8.17783e-18
4146.66737 7.92950e-18
4148.13987 7.83508e-18
4149.60235 7.84118e-18
4151.07485 7.88546e-18
4152.54735 7.93388e-18
4154.01985 7.97660e-18
4155.48233 7.74096e-18
4156.95483 7.66362e-18
4158.42733 7.71013e-18
4159.89983 7.55487e-18
4161.36231 7.57674e-18
4162.83481 7.68519e-18
4164.30731 7.65649e-18
4165.77981 7.71756e-18
4167.24229 7.49568e-18
4168.71479 7.40737e-18
4170.18729 7.78183e-18
4171.65979 7.80077e-18
4173.12227 7.66172e-18
4174.59477 7.76510e-18
4176.06727 7.96433e-18
4177.53976 7.82774e-18
4179.00225 7.64667e-18
4180.47475 7.81978e-18
4181.94725 7.90168e-18
4183.40973 7.99269e-18
4184.88223 8.22499e-18
4186.35473 8.22927e-18
4187.82722 8.02306e-18
4189.29972 8.05274e-18
4190.76220 8.15900e-18
4192.23470 8.01995e-18
4193.70720 7.70041e-18
4195.16969 7.52552e-18
4196.64218 7.42146e-18
4198.11468 7.45366e-18
4199.58718 7.46251e-18
4201.04966 7.49705e-18
4202.52216 7.70922e-18
4203.99466 7.59997e-18
4205.46716 7.53311e-18
4206.92964 7.40271e-18
4208.40214 6.92750e-18
4209.87464 6.81186e-18
4211.34714 6.94813e-18
4212.80962 6.94630e-18
4214.28212 7.05313e-18
4215.75462 7.16255e-18
4217.22712 7.19391e-18
4218.68960 7.11216e-18
4220.16210 7.27328e-18
4221.63460 7.48734e-18
4223.10710 7.34229e-18
4224.56958 7.18283e-18
4226.04208 7.13662e-18
4227.51458 7.20600e-18
4228.98708 7.28942e-18
4230.44956 7.38568e-18
4231.92206 7.38694e-18
4233.39456 7.48065e-18
4234.86706 7.69498e-18
4236.32954 7.82103e-18
4237.80204 7.88282e-18
4239.27454 7.83883e-18
4240.74704 7.68832e-18
4242.20952 7.85770e-18
4243.68202 8.03956e-18
4245.15452 7.85897e-18
4246.62701 7.89783e-18
4248.08950 8.13730e-18
4249.56200 8.06429e-18
4251.03449 8.31895e-18
4252.50699 8.83797e-18
4253.96947 8.75771e-18
4255.44197 8.52727e-18
4256.91447 8.82567e-18
4258.38697 9.01548e-18
4259.84945 9.02815e-18
4261.32195 9.01286e-18
4262.79445 8.83630e-18
4264.26695 9.04347e-18
4265.72943 9.15372e-18
4267.20193 9.13634e-18
4268.67443 9.33308e-18
4270.14693 9.30882e-18
4271.60941 9.15463e-18
4273.08191 9.13169e-18
4274.55441 9.17748e-18
4276.02691 9.07084e-18
4277.48939 9.09507e-18
4278.96189 9.67033e-18
4280.43439 9.40196e-18
4281.89687 9.02265e-18
4283.36937 9.10457e-18
4284.84187 9.32824e-18
4286.31437 8.97807e-18
4287.77685 8.77177e-18
4289.24935 9.13914e-18
4290.72185 8.99777e-18
4292.19435 8.63917e-18
4293.66685 8.74028e-18
4295.12933 8.83752e-18
4296.60183 8.86076e-18
4298.07433 8.71008e-18
4299.53681 8.35323e-18
4301.00931 8.30336e-18
4302.48181 8.39523e-18
4303.95431 8.42039e-18
4305.41679 8.49883e-18
4306.88929 8.46912e-18
4308.36179 8.28496e-18
4309.83428 8.04755e-18
4311.29677 8.37907e-18
4312.76926 8.68650e-18
4314.24176 8.41721e-18
4315.71426 8.32705e-18
4317.17675 8.63300e-18
4318.64924 8.54131e-18
4320.12174 7.96033e-18
4321.59424 8.30407e-18
4323.05672 8.94534e-18
4324.52922 8.93390e-18
4326.00172 8.79242e-18
4327.47422 8.69360e-18
4328.93670 8.64856e-18
4330.40920 8.69670e-18
4331.88170 8.80956e-18
4333.35420 8.93916e-18
4334.81668 8.87650e-18
4336.28918 9.01312e-18
4337.76168 8.98940e-18
4339.23418 8.84346e-18
4340.69666 8.95916e-18
4342.16916 9.21333e-18
4343.64166 9.70999e-18
4345.11416 1.00059e-17
4346.57664 1.00388e-17
4348.04914 1.00521e-17
4349.52164 9.97425e-18
4350.99414 9.44822e-18
4352.45662 8.95132e-18
4353.92912 8.94904e-18
4355.40162 8.94676e-18
4356.87412 8.94448e-18
4358.33660 8.94220e-18
4359.80910 8.93992e-18
4361.28160 8.93765e-18
4362.75410 8.93537e-18
4364.21658 8.93309e-18
4365.68908 8.93081e-18
4367.16158 8.92853e-18
4368.62406 8.92625e-18
4370.09656 8.92397e-18
4371.56905 8.92169e-18
4373.04155 8.91941e-18
4374.51405 8.91713e-18
4375.97654 8.91485e-18
4377.44903 8.91257e-18
4378.92153 8.91029e-18
4380.39403 8.90800e-18
4381.85651 8.90572e-18
4383.32901 8.90344e-18
4384.80151 8.90116e-18
4386.26399 8.89888e-18
4387.73649 8.89659e-18
4389.20899 8.89431e-18
4390.68149 8.90539e-18
4392.14397 8.79669e-18
4393.61647 8.62095e-18
4395.08897 8.73123e-18
4396.56147 8.85988e-18
4398.02395 8.74887e-18
4399.49645 8.72228e-18
4400.96895 8.87548e-18
4402.44145 8.95716e-18
4403.90393 8.88310e-18
4405.37643 8.69675e-18
4406.84893 8.66677e-18
4408.32143 8.50366e-18
4409.78391 8.40647e-18
4411.25641 8.53934e-18
4412.72891 8.43782e-18
4414.20141 8.38362e-18
4415.66389 8.62188e-18
4417.13639 8.60814e-18
4418.60889 8.41983e-18
4420.08139 8.12531e-18
4421.54387 7.91559e-18
4423.01637 8.04046e-18
4424.48887 7.99787e-18
4425.96137 7.87096e-18
4427.42385 7.74829e-18
4428.89635 7.86132e-18
4430.36885 7.83849e-18
4431.84134 7.61263e-18
4433.30383 7.49395e-18
4434.77632 7.40324e-18
4436.24882 7.37054e-18
4437.72132 7.38930e-18
4439.18380 7.46215e-18
4440.65630 7.42050e-18
4442.12880 7.52621e-18
4443.60130 7.46977e-18
4445.06378 7.41704e-18
4446.53628 7.38541e-18
4448.00878 7.24087e-18
4449.48128 7.01669e-18
4450.94376 7.24229e-18
4452.41626 7.56964e-18
4453.88876 7.28532e-18
4455.36126 7.03193e-18
4456.82374 7.24636e-18
4458.29624 7.43288e-18
4459.76874 7.49591e-18
4461.24124 7.28591e-18
4462.70372 7.29500e-18
4464.17622 7.55563e-18
4465.64872 7.53303e-18
4467.12122 7.38854e-18
4468.58370 7.50311e-18
4470.05620 7.49533e-18
4471.52870 7.45308e-18
4472.99118 7.53742e-18
4474.46368 7.74236e-18
4475.93618 7.82735e-18
4477.40868 7.88498e-18
4478.87116 8.14942e-18
4480.34366 8.09910e-18
4481.81616 8.10040e-18
4483.28866 8.40465e-18
4484.76116 8.59517e-18
4486.22364 8.30746e-18
4487.69614 8.38807e-18
4489.16863 8.53064e-18
4490.63112 8.55988e-18
4492.10362 8.75136e-18
4493.57611 9.23684e-18
4495.04861 9.63344e-18
4496.51110 9.73949e-18
4497.98360 9.88023e-18
4499.45609 9.84198e-18
4500.92859 9.95168e-18
4502.39108 1.01213e-17
4503.86357 1.04679e-17
4505.33607 1.09215e-17
4506.80857 1.09252e-17
4508.27105 1.12122e-17
4509.74355 1.14236e-17
4511.21605 1.11402e-17
4512.68855 1.13680e-17
4514.15103 1.19989e-17
4515.62353 1.21242e-17
4517.09603 1.20662e-17
4518.56853 1.22299e-17
4520.03101 1.27702e-17
4521.50351 1.29058e-17
4522.97601 1.30595e-17
4524.44851 1.36367e-17
4525.91099 1.37157e-17
4527.38349 1.40470e-17
4528.85599 1.43235e-17
4530.32849 1.43189e-17
4531.79097 1.44022e-17
4533.26347 1.46987e-17
4534.73597 1.47471e-17
4536.20847 1.48689e-17
4537.67095 1.50310e-17
4539.14345 1.50045e-17
4540.61595 1.50694e-17
4542.08845 1.54117e-17
4543.55093 1.58839e-17
4545.02343 1.58554e-17
4546.49593 1.56717e-17
4547.96843 1.57615e-17
4549.43091 1.59162e-17
4550.90341 1.54755e-17
4552.37590 1.54251e-17
4553.84840 1.56771e-17
4555.31089 1.53966e-17
4556.78339 1.55960e-17
4558.25588 1.57918e-17
4559.71837 1.60351e-17
4561.19086 1.62680e-17
4562.66336 1.59741e-17
4564.13586 1.60399e-17
4565.60836 1.63512e-17
4567.07084 1.65565e-17
4568.54334 1.68127e-17
4570.01584 1.64520e-17
4571.48834 1.64052e-17
4572.95082 1.66000e-17
4574.42332 1.69284e-17
4575.89582 1.68092e-17
4577.35830 1.66505e-17
4578.83080 1.65453e-17
4580.30330 1.69797e-17
4581.77580 1.75438e-17
4583.23828 1.74042e-17
4584.71078 1.72230e-17
4586.18328 1.74225e-17
4587.65578 1.75035e-17
4589.11826 1.71370e-17
4590.59076 1.70043e-17
4592.06326 1.71915e-17
4593.53576 1.71666e-17
4594.99824 1.71164e-17
4596.47074 1.71190e-17
4597.94324 1.71890e-17
4599.41574 1.70771e-17
4600.87822 1.68756e-17
4602.35072 1.65798e-17
4603.82322 1.69017e-17
4605.29572 1.72883e-17
4606.75820 1.69750e-17
4608.23070 1.68184e-17
4609.70320 1.70125e-17
4611.17570 1.67838e-17
4612.63818 1.67291e-17
4614.11068 1.72260e-17
4615.58317 1.74352e-17
4617.05567 1.76055e-17
4618.51816 1.77711e-17
4619.99065 1.76579e-17
4621.46315 1.77919e-17
4622.93565 1.79318e-17
4624.39814 1.80546e-17
4625.87063 1.78081e-17
4627.34313 1.77273e-17
4628.81563 1.78887e-17
4630.27811 1.76526e-17
4631.75061 1.78420e-17
4633.22311 1.81946e-17
4634.69561 1.77809e-17
4636.15809 1.74582e-17
4637.63059 1.76479e-17
4639.10309 1.79564e-17
4640.57559 1.76847e-17
4642.03807 1.74942e-17
4643.51057 1.73258e-17
4644.98307 1.75634e-17
4646.45557 1.76450e-17
4647.91805 1.72083e-17
4649.39055 1.69450e-17
4650.86305 1.70042e-17
4652.33555 1.70548e-17
4653.79803 1.68058e-17
4655.27053 1.65865e-17
4656.74303 1.66247e-17
4658.21553 1.65926e-17
4659.67801 1.65165e-17
4661.15051 1.64028e-17
4662.62301 1.61472e-17
4664.08549 1.58800e-17
4665.55799 1.58464e-17
4667.03049 1.59978e-17
4668.50299 1.59333e-17
4669.96547 1.55302e-17
4671.43797 1.57072e-17
4672.91047 1.57687e-17
4674.38296 1.56556e-17
4675.85546 1.51942e-17
4677.31795 1.47136e-17
4678.79045 1.50559e-17
4680.26294 1.54425e-17
4681.72543 1.54224e-17
4683.19793 1.51622e-17
4684.67042 1.48490e-17
4686.14292 1.49727e-17
4687.60541 1.50907e-17
4689.07790 1.44774e-17
4690.55040 1.42469e-17
4692.02290 1.47552e-17
4693.48538 1.42463e-17
4694.95788 1.39277e-17
4696.43038 1.39418e-17
4697.90288 1.36010e-17
4699.36536 1.35129e-17
4700.83786 1.32088e-17
4702.31036 1.25504e-17
4703.78286 1.26462e-17
4705.24534 1.29557e-17
4706.71784 1.25884e-17
4708.19034 1.21512e-17
4709.66284 1.22325e-17
4711.12532 1.21376e-17
4712.59782 1.20622e-17
4714.07032 1.19624e-17
4715.54282 1.21054e-17
4717.00530 1.21198e-17
4718.47780 1.19709e-17
4719.95030 1.18951e-17
4721.42280 1.21033e-17
4722.88528 1.20609e-17
4724.35778 1.19855e-17
4725.83028 1.21731e-17
4727.30278 1.21745e-17
4728.76526 1.21147e-17
4730.23776 1.24952e-17
4731.71026 1.23242e-17
4733.18275 1.20871e-17
4734.64524 1.19877e-17
4736.11774 1.20362e-17
4737.59024 1.22411e-17
4739.06273 1.21015e-17
4740.52522 1.19776e-17
4741.99772 1.19855e-17
4743.47021 1.19992e-17
4744.94271 1.22262e-17
4746.40520 1.22648e-17
4747.87769 1.21713e-17
4749.35019 1.25136e-17
4750.82269 1.24337e-17
4752.28517 1.22308e-17
4753.75767 1.24404e-17
4755.23017 1.19801e-17
4756.69265 1.19958e-17
4758.16515 1.22821e-17
4759.63765 1.20756e-17
4761.11015 1.20848e-17
4762.58265 1.21237e-17
4764.04513 1.21778e-17
4765.51763 1.22120e-17
4766.99013 1.22569e-17
4768.45261 1.22341e-17
4769.92511 1.21723e-17
4771.39761 1.22088e-17
4772.87011 1.18823e-17
4774.33259 1.15595e-17
4775.80509 1.16701e-17
4777.27759 1.20322e-17
4778.75009 1.18281e-17
4780.21257 1.14705e-17
4781.68507 1.14622e-17
4783.15757 1.16008e-17
4784.63007 1.15192e-17
4786.09255 1.15886e-17
4787.56505 1.13712e-17
4789.03755 1.10201e-17
4790.51005 1.11667e-17
4791.97253 1.13945e-17
4793.44503 1.10922e-17
4794.91753 1.07553e-17
4796.39003 1.08240e-17
4797.85251 1.09004e-17
4799.32501 1.07609e-17
4800.79750 1.06938e-17
4802.27000 1.04497e-17
4803.73249 1.03476e-17
4805.20499 1.01455e-17
4806.67748 9.84235e-18
4808.14998 9.74454e-18
4809.61247 9.75123e-18
4811.08496 9.63574e-18
4812.55746 9.46517e-18
4814.02996 9.53354e-18
4815.49244 9.52191e-18
4816.96494 9.27570e-18
4818.43744 9.07887e-18
4819.90994 9.20387e-18
4821.37242 9.15075e-18
4822.84492 9.05137e-18
4824.31742 8.90626e-18
4825.78992 8.96648e-18
4827.25240 8.83352e-18
4828.72490 8.63023e-18
4830.19740 8.73432e-18
4831.66990 8.75193e-18
4833.13238 8.80354e-18
4834.60488 8.97643e-18
4836.07738 9.01979e-18
4837.54988 9.03568e-18
4839.01236 9.32144e-18
4840.48486 9.42500e-18
4841.95736 9.42670e-18
4843.42986 9.74169e-18
4844.89234 9.77218e-18
4846.36484 1.00406e-17
4847.83734 1.03088e-17
4849.30984 1.04504e-17
4850.77232 1.05284e-17
4852.24482 1.06255e-17
4853.71732 1.07225e-17
4855.17980 1.08196e-17
4856.65230 1.09166e-17
4858.12480 1.10136e-17
4859.59730 1.11107e-17
4861.05978 1.12076e-17
4862.53228 1.13046e-17
4864.00478 1.14015e-17
4865.47727 1.14985e-17
4866.93976 1.15954e-17
4868.41226 1.16923e-17
4869.88475 1.17892e-17
4871.35725 1.18861e-17
4872.81974 1.19830e-17
4874.29223 1.20798e-17
4875.76473 1.21766e-17
4877.23723 1.22734e-17
4878.69971 1.23702e-17
4880.17221 1.24670e-17
4881.64471 1.25638e-17
4883.11721 1.26605e-17
4884.57969 1.27572e-17
4886.05219 1.28540e-17
4887.52469 1.29507e-17
4888.99719 1.30474e-17
4890.45967 1.24963e-17
4891.93217 1.24516e-17
4893.40467 1.24209e-17
4894.87717 1.25321e-17
4896.33965 1.26348e-17
4897.81215 1.21572e-17
4899.28465 1.19505e-17
4900.75715 1.17144e-17
4902.21963 1.14017e-17
4903.69213 1.13238e-17
4905.16463 1.10884e-17
4906.63713 1.09259e-17
4908.09961 1.08879e-17
4909.57211 1.06259e-17
4911.04461 1.04242e-17
4912.51711 1.03553e-17
4913.97959 9.93124e-18
4915.45209 9.52630e-18
4916.92459 9.60747e-18
4918.39709 9.59920e-18
4919.85957 9.54608e-18
4921.33207 9.79782e-18
4922.80457 9.75594e-18
4924.27706 9.39652e-18
4925.73955 9.49956e-18
4927.21205 9.56462e-18
4928.68454 9.55345e-18
4930.15704 9.84450e-18
4931.61953 9.91941e-18
4933.09202 9.72861e-18
4934.56452 9.90636e-18
4936.03702 1.00607e-17
4937.49950 1.02620e-17
4938.97200 1.04813e-17
4940.44450 1.05131e-17
4941.91700 1.07866e-17
4943.37948 1.10166e-17
4944.85198 1.11588e-17
4946.32448 1.14262e-17
4947.79698 1.19298e-17
4949.25946 1.18007e-17
4950.73196 1.19499e-17
4952.20446 1.20991e-17
4953.66694 1.22483e-17
4955.13944 1.23975e-17
4956.61194 1.25466e-17
4958.08444 1.26956e-17
4959.54692 1.28448e-17
4961.01942 1.29938e-17
4962.49192 1.31428e-17
4963.96442 1.32918e-17
4965.42690 1.34408e-17
4966.89940 1.35897e-17
4968.37190 1.37387e-17
4969.84440 1.38876e-17
4971.30688 1.40365e-17
4972.77938 1.41854e-17
4974.25188 1.43342e-17
4975.72438 1.44830e-17
4977.18686 1.46318e-17
4978.65936 1.47806e-17
4980.13186 1.49293e-17
4981.60435 1.50780e-17
4983.06684 1.52267e-17
4984.53934 1.53754e-17
4986.01184 1.55241e-17
4987.48433 1.56553e-17
4988.94682 1.58689e-17
4990.41932 1.58721e-17
4991.89181 1.55844e-17
4993.36431 1.58472e-17
4994.82680 1.59425e-17
4996.29929 1.61952e-17
4997.77179 1.59986e-17
4999.24429 1.58019e-17
5000.70677 1.56054e-17
5002.17927 1.54088e-17
5003.65177 1.52124e-17
5005.12427 1.50159e-17
5006.58675 1.48194e-17
5008.05925 1.46230e-17
5009.53175 1.44265e-17
5011.00425 1.42303e-17
5012.46673 1.40339e-17
5013.93923 1.38377e-17
5015.41173 1.36414e-17
5016.88423 1.34452e-17
5018.34671 1.32490e-17
5019.81921 1.30528e-17
5021.29171 1.28567e-17
5022.76421 1.26605e-17
5024.22669 1.24645e-17
5025.69919 1.22685e-17
5027.17169 1.20725e-17
5028.64419 1.18765e-17
5030.10667 1.16806e-17
5031.57917 1.14846e-17
5033.05167 1.12888e-17
5034.52417 1.10930e-17
5035.98665 1.10189e-17
5037.45915 1.06882e-17
5038.93165 1.05185e-17
5040.39413 1.03100e-17
5041.86663 1.00694e-17
5043.33913 9.72819e-18
5044.81163 9.37934e-18
5046.28412 9.44317e-18
5047.74661 9.41502e-18
5049.21911 9.03870e-18
5050.69160 8.54395e-18
5052.15409 8.73845e-18
5053.62658 8.57916e-18
5055.09908 8.43842e-18
5056.57158 8.38556e-18
5058.03406 8.27435e-18
5059.50656 8.04124e-18
5060.97906 7.91954e-18
5062.45156 8.04177e-18
5063.91404 7.78780e-18
5065.38654 7.83227e-18
5066.85904 7.65810e-18
5068.33154 7.53563e-18
5069.79402 7.51877e-18
5071.26652 7.66395e-18
5072.73902 7.86680e-18
5074.21152 7.72741e-18
5075.67400 7.73323e-18
5077.14650 7.90161e-18
5078.61900 8.29186e-18
5080.09150 8.17771e-18
5081.55398 8.23137e-18
5083.02648 8.45372e-18
5084.49898 8.43283e-18
5085.97148 8.28025e-18
5087.43396 8.61478e-18
5088.90646 8.76750e-18
5090.37896 9.03550e-18
5091.85146 9.35048e-18
5093.31394 9.65893e-18
5094.78644 9.56760e-18
5096.25894 9.68687e-18
5097.73144 1.01540e-17
5099.19392 1.02940e-17
5100.66642 1.05752e-17
5102.13892 1.08860e-17
5103.61142 1.07636e-17
5105.07390 1.09901e-17
5106.54640 1.12579e-17
5108.01890 1.13213e-17
5109.49139 1.16451e-17
5110.95388 1.15912e-17
5112.42638 1.18182e-17
5113.89887 1.18783e-17
5115.37137 1.18396e-17
5116.83385 1.22903e-17
5118.30635 1.23011e-17
5119.77885 1.23043e-17
5121.25135 1.25336e-17
5122.71383 1.25530e-17
5124.18633 1.29199e-17
5125.65883 1.28306e-17
5127.13133 1.30949e-17
5128.59381 1.28843e-17
5130.06631 1.30767e-17
5131.53881 1.36534e-17
5133.01131 1.36899e-17
5134.47379 1.36609e-17
5135.94629 1.34835e-17
5137.41879 1.37483e-17
5138.89129 1.38835e-17
5140.35377 1.38333e-17
5141.82627 1.37279e-17
5143.29877 1.39739e-17
5144.76125 1.37987e-17
5146.23375 1.38388e-17
5147.70625 1.41280e-17
5149.17875 1.40145e-17
5150.64123 1.37076e-17
5152.11373 1.38748e-17
5153.58623 1.38621e-17
5155.05873 1.37399e-17
5156.52121 1.40091e-17
5157.99371 1.41677e-17
5159.46621 1.40361e-17
5160.93871 1.39709e-17
5162.40119 1.40797e-17
5163.87369 1.37911e-17
5165.34619 1.41995e-17
5166.81869 1.44646e-17
5168.28117 1.41033e-17
5169.75367 1.39001e-17
5171.22617 1.43298e-17
5172.69866 1.43059e-17
5174.16115 1.42338e-17
5175.63365 1.45519e-17
5177.10614 1.44336e-17
5178.57864 1.45362e-17
5180.04112 1.44840e-17
5181.51362 1.45551e-17
5182.98612 1.45239e-17
5184.45862 1.47614e-17
5185.92110 1.49116e-17
5187.39360 1.49592e-17
5188.86610 1.47424e-17
5190.33860 1.42892e-17
5191.80108 1.43345e-17
5193.27358 1.44145e-17
5194.74608 1.43013e-17
5196.21858 1.44101e-17
5197.68106 1.47916e-17
5199.15356 1.47087e-17
5200.62606 1.41622e-17
5202.09856 1.45004e-17
5203.56104 1.45264e-17
5205.03354 1.44375e-17
5206.50604 1.46702e-17
5207.97854 1.47439e-17
5209.44102 1.48816e-17
5210.91352 1.47698e-17
5212.38602 1.45780e-17
5213.85852 1.46637e-17
5215.32100 1.48782e-17
5216.79350 1.48019e-17
5218.26600 1.46933e-17
5219.73850 1.48480e-17
5221.20098 1.47133e-17
5222.67348 1.48591e-17
5224.14598 1.49464e-17
5225.61848 1.49017e-17
5227.08096 1.50723e-17
5228.55346 1.49258e-17
5230.02596 1.47118e-17
5231.48844 1.45593e-17
5232.96094 1.45102e-17
5234.43343 1.46884e-17
5235.90593 1.47609e-17
5237.36842 1.44445e-17
5238.84091 1.45035e-17
5240.31341 1.47397e-17
5241.78591 1.48264e-17
5243.24840 1.46372e-17
5244.72089 1.48438e-17
5246.19339 1.49797e-17
5247.66589 1.49784e-17
5249.12837 1.48646e-17
5250.60087 1.49469e-17
5252.07337 1.51973e-17
5253.54587 1.51685e-17
5255.00835 1.51438e-17
5256.48085 1.53517e-17
5257.95335 1.54879e-17
5259.42585 1.52938e-17
5260.88833 1.53750e-17
5262.36083 1.57725e-17
5263.83333 1.56950e-17
5265.30583 1.55401e-17
5266.76831 1.59856e-17
5268.24081 1.65029e-17
5269.71331 1.63106e-17
5271.18581 1.62859e-17
5272.64829 1.62104e-17
5274.12079 1.61875e-17
5275.59329 1.65624e-17
5277.06579 1.67875e-17
5278.52827 1.70911e-17
5280.00077 1.69079e-17
5281.47327 1.66800e-17
5282.94577 1.68012e-17
5284.40825 1.67895e-17
5285.88075 1.68389e-17
5287.35325 1.68409e-17
5288.82575 1.67691e-17
5290.28823 1.67773e-17
5291.76073 1.68401e-17
5293.23322 1.69179e-17
5294.70572 1.71616e-17
5296.16821 1.70255e-17
5297.64070 1.67767e-17
5299.11320 1.69065e-17
5300.58570 1.68654e-17
5302.04819 1.67373e-17
5303.52068 1.68100e-17
5304.99318 1.67215e-17
5306.46568 1.64838e-17
5307.92816 1.66598e-17
5309.40066 1.68554e-17
5310.87316 1.68618e-17
5312.34566 1.66779e-17
5313.80814 1.63296e-17
5315.28064 1.65059e-17
5316.75314 1.68180e-17
5318.22564 1.68377e-17
5319.68812 1.69704e-17
5321.16062 1.69696e-17
5322.63312 1.71361e-17
5324.09560 1.70656e-17
5325.56810 1.65660e-17
5327.04060 1.68566e-17
5328.51310 1.70979e-17
5329.98560 1.70545e-17
5331.44808 1.73074e-17
5332.92058 1.70448e-17
5334.39308 1.68152e-17
5335.85556 1.69534e-17
5337.32806 1.68508e-17
5338.80056 1.67988e-17
5340.27306 1.69030e-17
5341.73554 1.68854e-17
5343.20804 1.69557e-17
5344.68054 1.71473e-17
5346.15304 1.67021e-17
5347.61552 1.64403e-17
5349.08802 1.68970e-17
5350.56052 1.69045e-17
5352.03301 1.67115e-17
5353.49550 1.67659e-17
5354.96800 1.66987e-17
5356.44050 1.69129e-17
5357.91299 1.69411e-17
5359.37548 1.67979e-17
5360.84798 1.69762e-17
5362.32047 1.71594e-17
5363.79297 1.69851e-17
5365.25545 1.70357e-17
5366.72795 1.69583e-17
5368.20045 1.71141e-17
5369.67295 1.72555e-17
5371.13543 1.70160e-17
5372.60793 1.72725e-17
5374.08043 1.75218e-17
5375.55293 1.76882e-17
5377.01541 1.75800e-17
5378.48791 1.74661e-17
5379.96041 1.76267e-17
5381.43291 1.74229e-17
5382.89539 1.75077e-17
5384.36789 1.74552e-17
5385.84039 1.74953e-17
5387.31289 1.80291e-17
5388.77537 1.81178e-17
5390.24787 1.76500e-17
5391.72037 1.78893e-17
5393.19287 1.78306e-17
5394.65535 1.80529e-17
5396.12785 1.79849e-17
5397.60035 1.78907e-17
5399.07285 1.82500e-17
5400.53533 1.77442e-17
5402.00783 1.72512e-17
5403.48033 1.75094e-17
5404.95283 1.74206e-17
5406.41531 1.71540e-17
5407.88781 1.71822e-17
5409.36031 1.69472e-17
5410.83281 1.70390e-17
5412.29529 1.67024e-17
5413.76779 1.65271e-17
5415.24029 1.62583e-17
5416.71278 1.61658e-17
5418.17527 1.63102e-17
5419.64776 1.62382e-17
5421.12026 1.57681e-17
5422.59276 1.54532e-17
5424.05525 1.53798e-17
5425.52774 1.51099e-17
5427.00024 1.52201e-17
5428.46273 1.52738e-17
5429.93522 1.50059e-17
5431.40772 1.46232e-17
5432.88022 1.43777e-17
5434.34270 1.47203e-17
5435.81520 1.46278e-17
5437.28770 1.44174e-17
5438.76020 1.42087e-17
5440.22268 1.36203e-17
5441.69518 1.38961e-17
5443.16768 1.40581e-17
5444.64018 1.37911e-17
5446.10266 1.37237e-17
5447.57516 1.36313e-17
5449.04766 1.38783e-17
5450.52016 1.39052e-17
5451.98264 1.36999e-17
5453.45514 1.37546e-17
5454.92764 1.36923e-17
5456.40014 1.37326e-17
5457.86262 1.37388e-17
5459.33512 1.38664e-17
5460.80762 1.43502e-17
5462.28012 1.42992e-17
5463.74260 1.44160e-17
5465.21510 1.44776e-17
5466.68760 1.47839e-17
5468.16010 1.50837e-17
5469.62258 1.51593e-17
5471.09508 1.55664e-17
5472.56758 1.58504e-17
5474.04007 1.59890e-17
5475.50256 1.62969e-17
5476.97506 1.59824e-17
5478.44755 1.64046e-17
5479.92005 1.68098e-17
5481.38254 1.69919e-17
5482.85504 1.72480e-17
5484.32753 1.76376e-17
5485.80003 1.78244e-17
5487.26252 1.83574e-17
5488.73501 1.83864e-17
5490.20751 1.81598e-17
5491.68001 1.87875e-17
5493.14249 1.92027e-17
5494.61499 1.94695e-17
5496.08749 1.99430e-17
5497.55999 2.02621e-17
5499.02247 2.02755e-17
5500.49497 2.08611e-17
5501.96747 2.11937e-17
5503.43997 2.14030e-17
5504.90245 2.16586e-17
5506.37495 2.22980e-17
5507.84745 2.19731e-17
5509.31995 2.20452e-17
5510.78243 2.22333e-17
5512.25493 2.21669e-17
5513.72743 2.24108e-17
5515.18991 2.23553e-17
5516.66241 2.20216e-17
5518.13491 2.22710e-17
5519.60741 2.20938e-17
5521.07991 2.19212e-17
5522.54239 2.21455e-17
5524.01489 2.20761e-17
5525.48739 2.18893e-17
5526.94987 2.18419e-17
5528.42237 2.13601e-17
5529.89487 2.15245e-17
5531.36737 2.16363e-17
5532.82985 2.10652e-17
5534.30235 2.08464e-17
5535.77485 2.05824e-17
5537.24735 2.02879e-17
5538.70983 2.04804e-17
5540.18233 2.05279e-17
5541.65483 2.01147e-17
5543.12732 1.99613e-17
5544.58981 1.99163e-17
5546.06230 1.97841e-17
5547.53480 1.94566e-17
5549.00730 1.97164e-17
5550.46979 1.91780e-17
5551.94228 1.89776e-17
5553.41478 1.86347e-17
5554.88728 1.82529e-17
5556.34976 1.81253e-17
5557.82226 1.78154e-17
5559.29476 1.77182e-17
5560.76726 1.71905e-17
5562.22974 1.67639e-17
5563.70224 1.68240e-17
5565.17474 1.64521e-17
5566.64724 1.54928e-17
5568.10972 1.51872e-17
5569.58222 1.53445e-17
5571.05472 1.47519e-17
5572.52722 1.44569e-17
5573.98970 1.44832e-17
5575.46220 1.42746e-17
5576.93470 1.41805e-17
5578.40720 1.37963e-17
5579.86968 1.33659e-17
5581.34218 1.32552e-17
5582.81468 1.34796e-17
5584.28718 1.33301e-17
5585.74966 1.31539e-17
5587.22216 1.32612e-17
5588.69466 1.32502e-17
5590.16716 1.30818e-17
5591.62964 1.29519e-17
5593.10214 1.30619e-17
5594.57464 1.31548e-17
5596.04714 1.30376e-17
5597.50962 1.29566e-17
5598.98212 1.29123e-17
5600.45461 1.32891e-17
5601.92711 1.33598e-17
5603.38960 1.30563e-17
5604.86210 1.29836e-17
5606.33459 1.31891e-17
5607.80709 1.30156e-17
5609.26958 1.28852e-17
5610.74207 1.32792e-17
5612.21457 1.34906e-17
5613.68707 1.36254e-17
5615.14955 1.33438e-17
5616.62205 1.32163e-17
5618.09455 1.35150e-17
5619.55703 1.37437e-17
5621.02953 1.34700e-17
5622.50203 1.34031e-17
5623.97453 1.36130e-17
5625.43701 1.38124e-17
5626.90951 1.41384e-17
5628.38201 1.40983e-17
5629.85451 1.40501e-17
5631.31699 1.41366e-17
5632.78949 1.40935e-17
5634.26199 1.38759e-17
5635.73449 1.39513e-17
5637.19697 1.39223e-17
5638.66947 1.40183e-17
5640.14197 1.42864e-17
5641.61447 1.41590e-17
5643.07695 1.42592e-17
5644.54945 1.44391e-17
5646.02195 1.41661e-17
5647.49445 1.38042e-17
5648.95693 1.39772e-17
5650.42943 1.41902e-17
5651.90193 1.38821e-17
5653.37443 1.37466e-17
5654.83691 1.37954e-17
5656.30941 1.35634e-17
5657.78191 1.36328e-17
5659.25440 1.33886e-17
5660.71689 1.29458e-17
5662.18939 1.27667e-17
5663.66189 1.28164e-17
5665.13438 1.25161e-17
5666.59687 1.22698e-17
5668.06937 1.22094e-17
5669.54186 1.20348e-17
5671.01436 1.16683e-17
5672.47685 1.15982e-17
5673.94934 1.13368e-17
5675.42184 1.09103e-17
5676.89434 1.06945e-17
5678.35682 1.06074e-17
5679.82932 1.03606e-17
5681.30182 1.01229e-17
5682.77432 9.42248e-18
5684.23680 9.46156e-18
5685.70930 9.17590e-18
5687.18180 9.08808e-18
5688.65430 8.70615e-18
5690.11678 8.33220e-18
5691.58928 8.08305e-18
5693.06178 7.94663e-18
5694.53428 7.74028e-18
5695.99676 7.38234e-18
5697.46926 7.17204e-18
5698.94176 6.94234e-18
5700.41426 6.73927e-18
5701.87674 6.67531e-18
5703.34924 6.49538e-18
5704.82174 6.03170e-18
5706.28422 5.87966e-18
5707.75672 5.77033e-18
5709.22922 5.50917e-18
5710.70172 5.13661e-18
5712.16420 5.09087e-18
5713.63670 5.13623e-18
5715.10920 4.94126e-18
5716.58170 4.86503e-18
5718.05420 4.50398e-18
5719.51668 4.69197e-18
5720.98918 4.57363e-18
5722.46168 4.27921e-18
5723.92416 4.31762e-18
5725.39666 4.13149e-18
5726.86915 4.12832e-18
5728.34165 4.07643e-18
5729.80414 4.08305e-18
5731.27664 3.96000e-18
5732.74913 4.03317e-18
5734.22163 3.85076e-18
5735.68412 3.75109e-18
5737.15661 3.86458e-18
5738.62911 3.69330e-18
5740.10161 3.93992e-18
5741.56409 3.90048e-18
5743.03659 3.85284e-18
5744.50909 3.81760e-18
5745.98159 3.97335e-18
5747.44407 4.11217e-18
5748.91657 3.95637e-18
5750.38907 4.08542e-18
5751.86157 4.20005e-18
5753.32405 4.04457e-18
5754.79655 4.22414e-18
5756.26905 4.22091e-18
5757.74155 4.48635e-18
5759.20403 4.46002e-18
5760.67653 4.49912e-18
5762.14903 4.73234e-18
5763.62153 4.70206e-18
5765.08401 4.61633e-18
5766.55651 4.88368e-18
5768.02901 4.94358e-18
5769.50151 4.75689e-18
5770.96399 5.06069e-18
5772.43649 5.15088e-18
5773.90899 5.17094e-18
5775.38149 5.04085e-18
5776.84397 5.17647e-18
5778.31647 5.39315e-18
5779.78897 5.45191e-18
5781.26146 5.59254e-18
5782.72395 5.72388e-18
5784.19645 5.90029e-18
5785.66895 6.02008e-18
5787.14144 6.10034e-18
5788.60393 6.19186e-18
5790.07643 6.29893e-18
5791.54892 6.42501e-18
5793.02142 6.50247e-18
5794.48391 6.67114e-18
5795.95640 6.90194e-18
5797.42890 6.87801e-18
5798.90140 7.21338e-18
5800.36388 7.37978e-18
5801.83638 7.29008e-18
5803.30888 7.47154e-18
5804.78138 8.01886e-18
5806.24386 8.14618e-18
5807.71636 8.06615e-18
5809.18886 8.54964e-18
5810.65134 8.63997e-18
5812.12384 8.80845e-18
5813.59634 9.26605e-18
5815.06884 9.35045e-18
5816.53132 9.47098e-18
5818.00382 9.79668e-18
5819.47632 1.01469e-17
5820.94882 1.05063e-17
5822.41130 1.06003e-17
5823.88380 1.11011e-17
5825.35630 1.13923e-17
5826.82880 1.13884e-17
5828.29128 1.16844e-17
5829.76378 1.17956e-17
5831.23628 1.17714e-17
5832.70878 1.22618e-17
5834.17126 1.27769e-17
5835.64376 1.27226e-17
5837.11626 1.28486e-17
5838.58876 1.31967e-17
5840.05124 1.31047e-17
5841.52374 1.31790e-17
5842.99624 1.35161e-17
5844.46874 1.38872e-17
5845.93122 1.41492e-17
5847.40372 1.41928e-17
5848.87622 1.43755e-17
5850.34871 1.40688e-17
5851.81120 1.43954e-17
5853.28370 1.50916e-17
5854.75619 1.48911e-17
5856.22869 1.48129e-17
5857.69117 1.50729e-17
5859.16367 1.52138e-17
5860.63617 1.52837e-17
5862.10867 1.52396e-17
5863.57115 1.55874e-17
5865.04365 1.59943e-17
5866.51615 1.59519e-17
5867.98865 1.62005e-17
5869.45113 1.60790e-17
5870.92363 1.58315e-17
5872.39613 1.59071e-17
5873.86863 1.63279e-17
5875.33111 1.62500e-17
5876.80361 1.63501e-17
5878.27611 1.61744e-17
5879.74861 1.61380e-17
5881.21109 1.63081e-17
5882.68359 1.66174e-17
5884.15609 1.69162e-17
5885.62859 1.65635e-17
5887.09107 1.58330e-17
5888.56357 1.54507e-17
5890.03607 1.56768e-17
5891.50857 1.57871e-17
5892.97105 1.59263e-17
5894.44355 1.51926e-17
5895.91605 1.54630e-17
5897.38855 1.57432e-17
5898.85103 1.55517e-17
5900.32353 1.58128e-17
5901.79603 1.60703e-17
5903.25851 1.62081e-17
5904.73101 1.63915e-17
5906.20351 1.65242e-17
5907.67601 1.65265e-17
5909.13849 1.67982e-17
5910.61099 1.67558e-17
5912.08349 1.66247e-17
5913.55598 1.68580e-17
5915.01847 1.68432e-17
5916.49096 1.64344e-17
5917.96346 1.65463e-17
5919.43596 1.63930e-17
5920.89845 1.63541e-17
5922.37094 1.64598e-17
5923.84344 1.64336e-17
5925.31594 1.65851e-17
5926.77842 1.66152e-17
5928.25092 1.64899e-17
5929.72342 1.64794e-17
5931.19592 1.64183e-17
5932.65840 1.66535e-17
5934.13090 1.66374e-17
5935.60340 1.68246e-17
5937.07590 1.62922e-17
5938.53838 1.61951e-17
5940.01088 1.57819e-17
5941.48338 1.55890e-17
5942.95588 1.57966e-17
5944.41836 1.61027e-17
5945.89086 1.57393e-17
5947.36336 1.57906e-17
5948.83586 1.59270e-17
5950.29834 1.61299e-17
5951.77084 1.60670e-17
5953.24334 1.60758e-17
5954.71584 1.59548e-17
5956.17832 1.60828e-17
5957.65082 1.58749e-17
5959.12332 1.60277e-17
5960.59582 1.59928e-17
5962.05830 1.59456e-17
5963.53080 1.62715e-17
5965.00330 1.60539e-17
5966.47580 1.58232e-17
5967.93828 1.57738e-17
5969.41078 1.57018e-17
5970.88328 1.57838e-17
5972.35577 1.60879e-17
5973.81826 1.57707e-17
5975.29075 1.55945e-17
5976.76325 1.57176e-17
5978.23575 1.55706e-17
5979.69824 1.58794e-17
5981.17073 1.57968e-17
5982.64323 1.56117e-17
5984.11573 1.54657e-17
5985.57821 1.57523e-17
5987.05071 1.57579e-17
5988.52321 1.54254e-17
5989.99571 1.54938e-17
5991.45819 1.54923e-17
5992.93069 1.54315e-17
5994.40319 1.53346e-17
5995.86567 1.56687e-17
5997.33817 1.56290e-17
5998.81067 1.56677e-17
6000.28317 1.56456e-17
6001.74565 1.52646e-17
6003.21815 1.52451e-17
6004.69065 1.50235e-17
6006.16315 1.48475e-17
6007.62563 1.48094e-17
6009.09813 1.47845e-17
6010.57063 1.48159e-17
6012.04313 1.46668e-17
6013.50561 1.46865e-17
6014.97811 1.47220e-17
6016.45061 1.42176e-17
6017.92311 1.41813e-17
6019.38559 1.44588e-17
6020.85809 1.44331e-17
6022.33059 1.44076e-17
6023.80309 1.42837e-17
6025.26557 1.39820e-17
6026.73807 1.38572e-17
6028.21057 1.39508e-17
6029.68307 1.39360e-17
6031.14555 1.37815e-17
6032.61805 1.38707e-17
6034.09055 1.39575e-17
6035.56304 1.39226e-17
6037.02553 1.38594e-17
6038.49802 1.36042e-17
6039.97052 1.33668e-17
6041.44302 1.35670e-17
6042.90550 1.35046e-17
6044.37800 1.33311e-17
6045.85050 1.34005e-17
6047.32300 1.33628e-17
6048.78548 1.34045e-17
6050.25798 1.33230e-17
6051.73048 1.31236e-17
6053.20298 1.31147e-17
6054.66546 1.29557e-17
6056.13796 1.26869e-17
6057.61046 1.27618e-17
6059.08296 1.27742e-17
6060.54544 1.25423e-17
6062.01794 1.25020e-17
6063.49044 1.23016e-17
6064.96294 1.19585e-17
6066.42542 1.22357e-17
6067.89792 1.24133e-17
6069.37042 1.23403e-17
6070.84292 1.21575e-17
6072.30540 1.22815e-17
6073.77790 1.21395e-17
6075.25040 1.19030e-17
6076.72290 1.21735e-17
6078.18538 1.22402e-17
6079.65788 1.20896e-17
6081.13038 1.19536e-17
6082.59286 1.19995e-17
6084.06536 1.20735e-17
6085.53786 1.19193e-17
6087.01036 1.20038e-17
6088.48286 1.20332e-17
6089.94534 1.20737e-17
6091.41784 1.20476e-17
6092.89034 1.22966e-17
6094.36283 1.26206e-17
6095.82532 1.24525e-17
6097.29781 1.26396e-17
6098.77031 1.26722e-17
6100.23280 1.25972e-17
6101.70530 1.27647e-17
6103.17779 1.27212e-17
6104.65029 1.30848e-17
6106.11278 1.29236e-17
6107.58527 1.30698e-17
6109.05777 1.33063e-17
6110.53027 1.33364e-17
6111.99275 1.30320e-17
6113.46525 1.31837e-17
6114.93775 1.31159e-17
6116.41025 1.31069e-17
6117.87273 1.32424e-17
6119.34523 1.33558e-17
6120.81773 1.33201e-17
6122.29023 1.29189e-17
6123.75271 1.31990e-17
6125.22521 1.30722e-17
6126.69771 1.30297e-17
6128.17021 1.34000e-17
6129.63269 1.33173e-17
6131.10519 1.30441e-17
6132.57769 1.30695e-17
6134.05019 1.31294e-17
6135.51267 1.31385e-17
6136.98517 1.27371e-17
6138.45767 1.28140e-17
6139.93017 1.29032e-17
6141.39265 1.27892e-17
6142.86515 1.28303e-17
6144.33765 1.27915e-17
6145.81015 1.25569e-17
6147.27263 1.26586e-17
6148.74513 1.28041e-17
6150.21763 1.24971e-17
6151.69013 1.25576e-17
6153.15261 1.23377e-17
6154.62511 1.24126e-17
6156.09760 1.25479e-17
6157.57010 1.24889e-17
6159.03259 1.26250e-17
6160.50509 1.23142e-17
6161.97758 1.24249e-17
6163.45008 1.26603e-17
6164.91256 1.27201e-17
6166.38506 1.26389e-17
6167.85756 1.27764e-17
6169.32005 1.29949e-17
6170.79254 1.29163e-17
6172.26504 1.30864e-17
6173.73754 1.32472e-17
6175.21004 1.35040e-17
6176.67252 1.38606e-17
6178.14502 1.38921e-17
6179.61752 1.37795e-17
6181.09002 1.40415e-17
6182.55250 1.45247e-17
6184.02500 1.44607e-17
6185.49750 1.46228e-17
6186.95998 1.46717e-17
6188.43248 1.49035e-17
6189.90498 1.53888e-17
6191.37748 1.53393e-17
6192.83996 1.54443e-17
6194.31246 1.55185e-17
6195.78496 1.56873e-17
6197.25746 1.60282e-17
6198.71994 1.62265e-17
6200.19244 1.66649e-17
6201.66494 1.67476e-17
6203.13744 1.68195e-17
6204.59992 1.71454e-17
6206.07242 1.74126e-17
6207.54492 1.76871e-17
6209.01742 1.79125e-17
6210.47990 1.82847e-17
6211.95240 1.83510e-17
6213.42490 1.86207e-17
6214.89740 1.88924e-17
6216.35988 1.94063e-17
6217.83238 1.98204e-17
6219.30487 1.97399e-17
6220.77737 1.99055e-17
6222.23986 1.98565e-17
6223.71235 1.96842e-17
6225.18485 2.01513e-17
6226.65735 2.03611e-17
6228.11984 1.97510e-17
6229.59233 1.97366e-17
6231.06483 2.01585e-17
6232.53733 2.05201e-17
6233.99981 2.05331e-17
6235.47231 2.05553e-17
6236.94481 2.07446e-17
6238.41731 2.06602e-17
6239.87979 2.04483e-17
6241.35229 2.04764e-17
6242.82479 2.03720e-17
6244.29729 2.04801e-17
6245.75977 2.06380e-17
6247.23227 2.05993e-17
6248.70477 2.08000e-17
6250.17727 2.09427e-17
6251.63975 2.07842e-17
6253.11225 2.10514e-17
6254.58475 2.11665e-17
6256.05725 2.11766e-17
6257.51973 2.13217e-17
6258.99223 2.11118e-17
6260.46473 2.13298e-17
6261.93723 2.16271e-17
6263.39971 2.20212e-17
6264.87221 2.21679e-17
6266.34471 2.17816e-17
6267.81721 2.17137e-17
6269.27969 2.18888e-17
6270.75219 2.19301e-17
6272.22469 2.17108e-17
6273.68717 2.14412e-17
6275.15967 2.15310e-17
6276.63217 2.18095e-17
6278.10466 2.15486e-17
6279.56715 2.10200e-17
6281.03965 2.09028e-17
6282.51215 2.09888e-17
6283.98464 2.09747e-17
6285.45714 2.08587e-17
6286.91963 2.07800e-17
6288.39212 2.06755e-17
6289.86462 2.05806e-17
6291.32711 2.02412e-17
6292.79960 2.05257e-17
6294.27210 2.04972e-17
6295.74460 2.05852e-17
6297.20708 2.04707e-17
6298.67958 2.03170e-17
6300.15208 2.03240e-17
6301.62458 2.04509e-17
6303.08706 2.02713e-17
6304.55956 2.02571e-17
6306.03206 2.01698e-17
6307.50456 2.00455e-17
6308.96704 2.01272e-17
6310.43954 2.01331e-17
6311.91204 2.00790e-17
6313.38454 2.01382e-17
6314.84702 1.99397e-17
6316.31952 1.95213e-17
6317.79202 1.96052e-17
6319.26452 1.95512e-17
6320.72700 1.92131e-17
6322.19950 1.89500e-17
6323.67200 1.90227e-17
6325.14450 1.90580e-17
6326.60698 1.93038e-17
6328.07948 1.91674e-17
6329.55198 1.91037e-17
6331.02448 1.87842e-17
6332.48696 1.86218e-17
6333.95946 1.83673e-17
6335.43196 1.81466e-17
6336.90445 1.78619e-17
6338.36694 1.78785e-17
6339.83944 1.76804e-17
6341.31194 1.75127e-17
6342.78443 1.77385e-17
6344.24692 1.74083e-17
6345.71942 1.72659e-17
6347.19191 1.72781e-17
6348.66441 1.68912e-17
6350.12690 1.70139e-17
6351.59939 1.65431e-17
6353.07189 1.63403e-17
6354.54439 1.63312e-17
6356.00687 1.64209e-17
6357.47937 1.63472e-17
6358.95187 1.61098e-17
6360.41435 1.58367e-17
6361.88685 1.61313e-17
6363.35935 1.60058e-17
6364.83185 1.59263e-17
6366.30435 1.55281e-17
6367.76683 1.59143e-17
6369.23933 1.55965e-17
6370.71183 1.54983e-17
6372.18433 1.55352e-17
6373.64681 1.54238e-17
6375.11931 1.50950e-17
6376.59181 1.51096e-17
6378.05429 1.52643e-17
6379.52679 1.51118e-17
6380.99929 1.50066e-17
6382.47179 1.53536e-17
6383.93427 1.54306e-17
6385.40677 1.54177e-17
6386.87927 1.50678e-17
6388.35177 1.49620e-17
6389.81425 1.47975e-17
6391.28675 1.51226e-17
6392.75925 1.53038e-17
6394.23175 1.50487e-17
6395.69423 1.50617e-17
6397.16673 1.51219e-17
6398.63923 1.50177e-17
6400.11173 1.51897e-17
6401.57421 1.53685e-17
6403.04671 1.51325e-17
6404.51920 1.50739e-17
6405.99170 1.51336e-17
6407.45419 1.50133e-17
6408.92669 1.49841e-17
6410.39918 1.47469e-17
6411.87168 1.49570e-17
6413.33417 1.52894e-17
6414.80666 1.52559e-17
6416.27916 1.49360e-17
6417.75166 1.48479e-17
6419.21414 1.48772e-17
6420.68664 1.48376e-17
6422.15914 1.50165e-17
6423.63164 1.48643e-17
6425.09412 1.48163e-17
6426.56662 1.50717e-17
6428.03912 1.52292e-17
6429.51162 1.51852e-17
6430.97410 1.50477e-17
6432.44660 1.52825e-17
6433.91910 1.53804e-17
6435.39160 1.53333e-17
6436.85408 1.53561e-17
6438.32658 1.52979e-17
6439.79908 1.51844e-17
6441.27158 1.53111e-17
6442.73406 1.54544e-17
6444.20656 1.54730e-17
6445.67906 1.54837e-17
6447.15156 1.54849e-17
6448.61404 1.55221e-17
6450.08654 1.56182e-17
6451.55904 1.58476e-17
6453.03154 1.59005e-17
6454.49402 1.59581e-17
6455.96652 1.60421e-17
6457.43902 1.57773e-17
6458.91151 1.57016e-17
6460.37400 1.59056e-17
6461.84650 1.59343e-17
6463.31900 1.59531e-17
6464.78148 1.60620e-17
6466.25398 1.60161e-17
6467.72648 1.59779e-17
6469.19897 1.60185e-17
6470.67147 1.59018e-17
6472.13396 1.57502e-17
6473.60645 1.55274e-17
6475.07895 1.53479e-17
6476.55145 1.55292e-17
6478.01393 1.58777e-17
6479.48643 1.57488e-17
6480.95893 1.54995e-17
6482.42141 1.53527e-17
6483.89391 1.52049e-17
6485.36641 1.53144e-17
6486.83891 1.53662e-17
6488.30139 1.55570e-17
6489.77389 1.55025e-17
6491.24639 1.51278e-17
6492.71889 1.51430e-17
6494.18137 1.54568e-17
6495.65387 1.52284e-17
6497.12637 1.49960e-17
6498.59887 1.53420e-17
6500.06135 1.54870e-17
6501.53385 1.49554e-17
6503.00635 1.51621e-17
6504.47885 1.53298e-17
6505.94133 1.49864e-17
6507.41383 1.48780e-17
6508.88633 1.48681e-17
6510.35883 1.50223e-17
6511.82131 1.48187e-17
6513.29381 1.44914e-17
6514.76631 1.41473e-17
6516.23881 1.39012e-17
6517.70129 1.39871e-17
6519.17379 1.42500e-17
6520.64629 1.41763e-17
6522.11879 1.41582e-17
6523.58127 1.41500e-17
6525.05377 1.41085e-17
6526.52627 1.42168e-17
6527.99876 1.42424e-17
6529.46125 1.42438e-17
6530.93375 1.38860e-17
6532.40624 1.37653e-17
6533.87874 1.36844e-17
6535.34123 1.38548e-17
6536.81372 1.36934e-17
6538.28622 1.35639e-17
6539.75872 1.40021e-17
6541.22120 1.41329e-17
6542.69370 1.38660e-17
6544.16620 1.38423e-17
6545.63870 1.38185e-17
6547.10118 1.37947e-17
6548.57368 1.37710e-17
6550.04618 1.37472e-17
6551.51868 1.37235e-17
6552.98116 1.36997e-17
6554.45366 1.36760e-17
6555.92616 1.36522e-17
6557.39866 1.36285e-17
6558.86114 1.36047e-17
6560.33364 1.35810e-17
6561.80614 1.35572e-17
6563.27864 1.35335e-17
6564.74112 1.35097e-17
6566.21362 1.34860e-17
6567.68612 1.34623e-17
6569.14860 1.34385e-17
6570.62110 1.34148e-17
6572.09360 1.33911e-17
6573.56610 1.33673e-17
6575.02858 1.33436e-17
6576.50108 1.33199e-17
6577.97358 1.32961e-17
6579.44608 1.32724e-17
6580.90856 1.32487e-17
6582.38106 1.32250e-17
6583.85356 1.32013e-17
6585.32605 1.31776e-17
6586.78854 1.31538e-17
6588.26104 1.31301e-17
6589.73354 1.31064e-17
6591.20603 1.30827e-17
6592.66852 1.30590e-17
6594.14102 1.30353e-17
6595.61351 1.30116e-17
6597.08601 1.29879e-17
6598.54850 1.29642e-17
6600.02099 1.29405e-17
6601.49349 1.29168e-17
6602.96599 1.28931e-17
6604.42847 1.28694e-17
6605.90097 1.29009e-17
6607.37347 1.26856e-17
6608.84597 1.24828e-17
6610.30845 1.25230e-17
6611.78095 1.24788e-17
6613.25345 1.23780e-17
6614.72595 1.22976e-17
6616.18843 1.23992e-17
6617.66093 1.23934e-17
6619.13343 1.23685e-17
6620.60593 1.22439e-17
6622.06841 1.21149e-17
6623.54091 1.20963e-17
6625.01341 1.21238e-17
6626.48591 1.20587e-17
6627.94839 1.18030e-17
6629.42089 1.16245e-17
6630.89339 1.16804e-17
6632.36589 1.16473e-17
6633.82837 1.15860e-17
6635.30087 1.16660e-17
6636.77337 1.17149e-17
6638.24587 1.15693e-17
6639.70835 1.14790e-17
6641.18085 1.13495e-17
6642.65335 1.10931e-17
6644.12585 1.11672e-17
6645.58833 1.12899e-17
6647.06083 1.11561e-17
6648.53333 1.12533e-17
6650.00582 1.12093e-17
6651.46831 1.10406e-17
6652.94081 1.10246e-17
6654.41330 1.09979e-17
6655.87579 1.10630e-17
6657.34829 1.08506e-17
6658.82078 1.08431e-17
6660.29328 1.07335e-17
6661.76578 1.05684e-17
6663.22826 1.07266e-17
6664.70076 1.06873e-17
6666.17326 1.08209e-17
6667.63574 1.10057e-17
6669.10824 1.08453e-17
6670.58074 1.06989e-17
6672.05324 1.06284e-17
6673.51572 1.03349e-17
6674.98822 1.03243e-17
6676.46072 1.06153e-17
6677.93322 1.05648e-17
6679.39570 1.04679e-17
6680.86820 1.05210e-17
6682.34070 1.04020e-17
6683.81320 1.02669e-17
6685.27568 1.01533e-17
6686.74818 1.03124e-17
6688.22068 1.03236e-17
6689.69318 1.00896e-17
6691.15566 1.02377e-17
6692.62816 1.02125e-17
6694.10066 1.01238e-17
6695.57316 1.01383e-17
6697.03564 1.00747e-17
6698.50814 1.00358e-17
6699.98064 9.92361e-18
6701.45314 9.93803e-18
6702.91562 9.90797e-18
6704.38812 9.88608e-18
6705.86062 9.70770e-18
6707.33312 9.64329e-18
6708.79560 9.62101e-18
6710.26810 9.62890e-18
6711.74060 9.43501e-18
6713.21309 9.29922e-18
6714.67558 9.19763e-18
6716.14808 9.27304e-18
6717.62057 9.29079e-18
6719.09307 9.36583e-18
6720.55555 9.47790e-18
6722.02805 9.16744e-18
6723.50055 9.24718e-18
6724.97305 9.54925e-18
6726.43553 9.58971e-18
6727.90803 9.68739e-18
6729.38053 9.89319e-18
6730.85303 9.70276e-18
6732.31551 8.97603e-18
6733.78801 8.72673e-18
6735.26051 8.76174e-18
6736.73301 8.83323e-18
6738.19549 9.07093e-18
6739.66799 9.21844e-18
6741.14049 9.42903e-18
6742.61299 9.32905e-18
6744.07547 9.20588e-18
6745.54797 9.01044e-18
6747.02047 8.78474e-18
6748.49297 8.69445e-18
6749.95545 8.52715e-18
6751.42795 8.48061e-18
6752.90045 8.74107e-18
6754.36293 8.62292e-18
6755.83543 8.71444e-18
6757.30793 8.70436e-18
6758.78043 8.66908e-18
6760.24291 8.48800e-18
6761.71541 8.61091e-18
6763.18791 8.82522e-18
6764.66041 8.94998e-18
6766.13290 8.85341e-18
6767.59539 8.70168e-18
6769.06789 8.73252e-18
6770.54039 8.61886e-18
6772.00287 8.90932e-18
6773.47537 8.92097e-18
6774.94787 8.77653e-18
6776.42036 8.74430e-18
6777.88285 8.84688e-18
6779.35535 8.97922e-18
6780.82784 8.89918e-18
6782.30034 8.95650e-18
6783.76282 8.76904e-18
6785.23532 8.88798e-18
6786.70782 9.05525e-18
6788.18032 8.90998e-18
6789.64280 8.98925e-18
6791.11530 9.00055e-18
6792.58780 8.92296e-18
6794.06030 9.06313e-18
6795.52278 8.88727e-18
6796.99528 8.81112e-18
6798.46778 8.94411e-18
6799.94028 8.96991e-18
6801.40276 9.02995e-18
6802.87526 9.31077e-18
6804.34776 9.33314e-18
6805.82026 9.15897e-18
6807.28274 9.09954e-18
6808.75524 9.02200e-18
6810.22774 9.06514e-18
6811.70024 8.83425e-18
6813.16272 8.77119e-18
6814.63522 8.82705e-18
6816.10772 8.93311e-18
6817.58022 8.87367e-18
6819.04270 8.78704e-18
6820.51520 8.64711e-18
6821.98770 8.81644e-18
6823.46020 8.76956e-18
6824.92268 8.79120e-18
6826.39518 8.92328e-18
6827.86768 8.85877e-18
6829.34018 8.76251e-18
6830.80266 8.72334e-18
6832.27516 8.71270e-18
6833.74766 8.80122e-18
6835.22015 8.52798e-18
6836.68264 8.34622e-18
6838.15513 8.56423e-18
6839.62763 8.81966e-18
6841.09012 8.56514e-18
6842.56261 8.42884e-18
6844.03511 8.35975e-18
6845.50761 8.35426e-18
6846.98011 8.34877e-18
6848.44259 8.34329e-18
6849.91509 8.33780e-18
6851.38759 8.33232e-18
6852.86009 8.32683e-18
6854.32257 8.32135e-18
6855.79507 8.31587e-18
6857.26757 8.31038e-18
6858.73005 8.30490e-18
6860.20255 8.29942e-18
6861.67505 8.29393e-18
6863.14755 8.28845e-18
6864.61003 8.28297e-18
6866.08253 8.27749e-18
6867.55503 8.27201e-18
6869.02753 8.26653e-18
6870.49001 8.26105e-18
6871.96251 8.25557e-18
6873.43501 8.25009e-18
6874.90751 8.24461e-18
6876.36999 8.23913e-18
6877.84249 8.23365e-18
6879.31499 8.22817e-18
6880.78749 8.22269e-18
6882.24997 8.21722e-18
6883.72247 8.21174e-18
6885.19497 8.20626e-18
6886.66747 8.20079e-18
6888.12995 8.19531e-18
6889.60245 8.18984e-18
6891.07495 8.18436e-18
6892.54745 8.17888e-18
6894.00993 8.17341e-18
6895.48243 8.16794e-18
6896.95493 8.16246e-18
6898.42742 8.15699e-18
6899.88991 8.15151e-18
6901.36240 8.14604e-18
6902.83490 8.14057e-18
6904.30740 8.13510e-18
6905.76989 8.12962e-18
6907.24238 8.12415e-18
6908.71488 8.11868e-18
6910.18738 8.11321e-18
6911.64986 8.10774e-18
6913.12236 8.10227e-18
6914.59486 8.09680e-18
6916.06736 8.09133e-18
6917.52984 8.08586e-18
6919.00234 8.08039e-18
6920.47484 8.07492e-18
6921.94734 8.06945e-18
6923.40982 8.06398e-18
6924.88232 8.05852e-18
6926.35482 8.05305e-18
6927.82732 8.04758e-18
6929.28980 8.04211e-18
6930.76230 8.03665e-18
6932.23480 8.03118e-18
6933.70730 8.02571e-18
6935.16978 8.02025e-18
6936.64228 8.04430e-18
6938.11478 7.99978e-18
6939.58728 7.97524e-18
6941.04976 8.12285e-18
6942.52226 8.29480e-18
6943.99476 8.38366e-18
6945.45724 8.49408e-18
6946.92974 8.45800e-18
6948.40224 8.45939e-18
6949.87474 8.70285e-18
6951.33722 8.86089e-18
6952.80972 8.83037e-18
6954.28222 8.74511e-18
6955.75472 8.97408e-18
6957.22721 9.04285e-18
6958.68970 9.09938e-18
6960.16220 9.29863e-18
6961.63469 9.39264e-18
6963.09718 9.30402e-18
6964.56968 9.41477e-18
6966.04217 9.60400e-18
6967.51467 9.68314e-18
6968.97715 9.64044e-18
6970.44965 9.54185e-18
6971.92215 9.42730e-18
6973.39465 9.59939e-18
6974.85713 9.78332e-18
6976.32963 9.79284e-18
6977.80213 9.73020e-18
6979.27463 9.72923e-18
6980.73711 9.84666e-18
6982.20961 9.82569e-18
6983.68211 9.71823e-18
6985.15461 9.65618e-18
6986.61709 9.64260e-18
6988.08959 9.72502e-18
6989.56209 9.37511e-18
6991.03459 9.32682e-18
6992.49707 9.63023e-18
6993.96957 9.67302e-18
6995.44207 9.66306e-18
6996.91457 9.70065e-18
6998.37705 9.58647e-18
6999.84955 9.55697e-18
7001.32205 9.58229e-18
7002.79455 9.57140e-18
7004.25703 9.52498e-18
7005.72953 9.26623e-18
7007.20203 9.25735e-18
7008.67453 9.24847e-18
7010.13701 9.23960e-18
7011.60951 9.23072e-18
7013.08201 9.22185e-18
7014.55451 9.21297e-18
7016.01699 9.20409e-18
7017.48949 9.20377e-18
7018.96199 9.40461e-18
7020.43448 9.43105e-18
7021.89697 9.17822e-18
7023.36946 8.97870e-18
7024.84196 8.95469e-18
7026.31446 8.83573e-18
7027.77695 9.15453e-18
7029.24944 9.42344e-18
7030.72194 9.44427e-18
7032.18443 9.36202e-18
7033.65692 9.35620e-18
7035.12942 9.33699e-18
7036.60192 9.12217e-18
7038.06440 8.81331e-18
7039.53690 8.98597e-18
7041.00940 9.15100e-18
7042.48190 9.33755e-18
7043.95440 9.21308e-18
7045.41688 9.29184e-18
7046.88938 9.35211e-18
7048.36188 9.33391e-18
7049.82436 9.28099e-18
7051.29686 9.07262e-18
7052.76936 9.03178e-18
7054.24186 9.15079e-18
7055.70434 9.15873e-18
7057.17684 9.17351e-18
7058.64934 9.32757e-18
7060.12184 9.36725e-18
7061.58432 9.28364e-18
7063.05682 9.39752e-18
7064.52932 9.61213e-18
7066.00182 9.39595e-18
7067.46430 9.42584e-18
7068.93680 9.64446e-18
7070.40930 9.44943e-18
7071.88180 9.29510e-18
7073.34428 9.42423e-18
7074.81678 9.71142e-18
7076.28928 9.84391e-18
7077.76177 9.48653e-18
7079.22426 9.32619e-18
7080.69676 9.47992e-18
7082.16925 9.63101e-18
7083.64175 9.66973e-18
7085.10424 9.56739e-18
7086.57674 9.45644e-18
7088.04923 9.57054e-18
7089.52173 9.61478e-18
7090.98422 9.48765e-18
7092.45671 9.66133e-18
7093.92921 9.58316e-18
7095.40171 9.45543e-18
7096.86419 9.54297e-18
7098.33669 9.52240e-18
7099.80919 9.52363e-18
7101.28169 9.62830e-18
7102.74417 9.52726e-18
7104.21667 9.44384e-18
7105.68917 9.43120e-18
7107.16167 9.43201e-18
7108.62415 9.27248e-18
7110.09665 9.21310e-18
7111.56915 9.25553e-18
7113.04165 9.15648e-18
7114.50413 9.11204e-18
7115.97663 9.12853e-18
7117.44913 9.09041e-18
7118.92163 9.02055e-18
7120.38411 9.21148e-18
7121.85661 9.27353e-18
7123.32911 9.37318e-18
7124.80161 9.58257e-18
7126.26409 9.32799e-18
7127.73659 9.24745e-18
7129.20909 9.31178e-18
7130.68159 9.14920e-18
7132.14407 9.08490e-18
7133.61657 9.27316e-18
7135.08907 9.37802e-18
7136.55155 9.16817e-18
7138.02405 9.22230e-18
7139.49655 9.44269e-18
7140.96905 9.64835e-18
7142.43153 9.61539e-18
7143.90403 9.79169e-18
7145.37653 9.88814e-18
7146.84902 9.63128e-18
7148.31151 9.63425e-18
7149.78400 9.77932e-18
7151.25650 9.98906e-18
7152.72900 1.01661e-17
7154.19149 1.02239e-17
7155.66398 1.02941e-17
7157.13648 1.03792e-17
7158.60898 1.03946e-17
7160.07146 1.04227e-17
7161.54396 1.07761e-17
7163.01646 1.08495e-17
7164.48896 1.05441e-17
7165.95144 1.04369e-17
7167.42394 1.02696e-17
7168.89644 1.02228e-17
7170.36894 1.02233e-17
7171.83142 1.01156e-17
7173.30392 1.02711e-17
7174.77642 1.03137e-17
7176.24892 1.01141e-17
7177.71140 1.04362e-17
7179.18390 1.09708e-17
7180.65640 1.10775e-17
7182.12890 1.08767e-17
7183.59138 1.05658e-17
7185.06388 1.03787e-17
7186.53638 1.05507e-17
7188.00888 1.10854e-17
7189.47136 1.12604e-17
7190.94386 1.08721e-17
7192.41636 1.07946e-17
7193.88886 1.12036e-17
7195.35134 1.16660e-17
7196.82384 1.16370e-17
7198.29634 1.11985e-17
7199.76884 1.09712e-17
7201.23132 1.12055e-17
7202.70382 1.14122e-17
7204.17631 1.13907e-17
7205.64881 1.16257e-17
7207.11130 1.18306e-17
7208.58380 1.18893e-17
7210.05629 1.21496e-17
7211.52879 1.25244e-17
7212.99128 1.24410e-17
7214.46377 1.19003e-17
7215.93627 1.19059e-17
7217.40877 1.21360e-17
7218.87125 1.22088e-17
7220.34375 1.22900e-17
7221.81625 1.22125e-17
7223.28875 1.22859e-17
7224.75123 1.22593e-17
7226.22373 1.22203e-17
7227.69623 1.25446e-17
7229.16873 1.26608e-17
7230.63121 1.22811e-17
7232.10371 1.18987e-17
7233.57621 1.16319e-17
7235.03869 1.18660e-17
7236.51119 1.24622e-17
7237.98369 1.27056e-17
7239.45619 1.24842e-17
7240.91867 1.24012e-17
7242.39117 1.25763e-17
7243.86367 1.28087e-17
7245.33617 1.28911e-17
7246.79865 1.29852e-17
7248.27115 1.32819e-17
7249.74365 1.31608e-17
7251.21615 1.26903e-17
7252.67863 1.26883e-17
7254.15113 1.29097e-17
7255.62363 1.31052e-17
7257.09613 1.33022e-17
7258.55861 1.34636e-17
7260.03111 1.35937e-17
7261.50361 1.33314e-17
7262.97610 1.32246e-17
7264.43859 1.31598e-17
7265.91109 1.34516e-17
7267.38359 1.42039e-17
7268.85608 1.45775e-17
7270.31857 1.45252e-17
7271.79107 1.43560e-17
7273.26356 1.40055e-17
7274.73606 1.33397e-17
7276.19855 1.33232e-17
7277.67104 1.36902e-17
7279.14354 1.40306e-17
7280.61604 1.45656e-17
7282.07852 1.48986e-17
7283.55102 1.51498e-17
7285.02352 1.51099e-17
7286.49602 1.46611e-17
7287.95850 1.43291e-17
7289.43100 1.39752e-17
7290.90350 1.38265e-17
7292.37600 1.39010e-17
7293.83848 1.42017e-17
7295.31098 1.47390e-17
7296.78348 1.51877e-17
7298.25598 1.50990e-17
7299.71846 1.49006e-17
7301.19096 1.46993e-17
7302.66346 1.46531e-17
7304.13596 1.51991e-17
7305.59844 1.57044e-17
7307.07094 1.57322e-17
7308.54344 1.54176e-17
7310.01594 1.53526e-17
7311.47842 1.54074e-17
7312.95092 1.56511e-17
7314.42342 1.54480e-17
7315.89592 1.49584e-17
7317.35840 1.51900e-17
7318.83090 1.52657e-17
7320.30340 1.52357e-17
7321.77590 1.55557e-17
7323.23838 1.52152e-17
7324.71088 1.49662e-17
7326.18338 1.49957e-17
7327.64586 1.48064e-17
7329.11836 1.48742e-17
7330.59085 1.47985e-17
7332.06335 1.45153e-17
7333.52584 1.41599e-17
7334.99834 1.42387e-17
7336.47083 1.47045e-17
7337.94333 1.48585e-17
7339.40582 1.47241e-17
7340.87831 1.44979e-17
7342.35081 1.44343e-17
7343.82331 1.41960e-17
7345.28579 1.42910e-17
7346.75829 1.44177e-17
7348.23079 1.43418e-17
7349.70329 1.42487e-17
7351.16577 1.39588e-17
7352.63827 1.40661e-17
7354.11077 1.40972e-17
7355.58327 1.36186e-17
7357.04575 1.33008e-17
7358.51825 1.31559e-17
7359.99075 1.31160e-17
7361.46325 1.31973e-17
7362.92573 1.27545e-17
7364.39823 1.25211e-17
7365.87073 1.26284e-17
7367.34323 1.24259e-17
7368.80571 1.22275e-17
7370.27821 1.22577e-17
7371.75071 1.24078e-17
7373.22321 1.23962e-17
7374.68569 1.24439e-17
7376.15819 1.25291e-17
7377.63069 1.25731e-17
7379.10319 1.26829e-17
7380.56567 1.24382e-17
7382.03817 1.23737e-17
7383.51067 1.23728e-17
7384.98316 1.24695e-17
7386.44565 1.23968e-17
7387.91815 1.21752e-17
7389.39065 1.22035e-17
7390.86314 1.22544e-17
7392.32563 1.22307e-17
7393.79813 1.22650e-17
7395.27062 1.22596e-17
7396.74312 1.22412e-17
7398.20561 1.24301e-17
7399.67810 1.24895e-17
7401.15060 1.23899e-17
7402.62310 1.23548e-17
7404.08558 1.24716e-17
7405.55808 1.23366e-17
7407.03058 1.23314e-17
7408.50308 1.24278e-17
7409.96556 1.22220e-17
7411.43806 1.19274e-17
7412.91056 1.19714e-17
7414.38306 1.22216e-17
7415.84554 1.19230e-17
7417.31804 1.17350e-17
7417.50836 1.17350e-17
7418.36983 1.17407e-17
7419.23129 1.17466e-17
7420.09275 1.17477e-17
7420.95421 1.17488e-17
7421.82569 1.17465e-17
7422.68715 1.17441e-17
7423.54861 1.17441e-17
7424.41008 1.17441e-17
7425.27154 1.17499e-17
7426.13300 1.17557e-17
7426.99446 1.17660e-17
7427.85592 1.17762e-17
7428.71739 1.17884e-17
7429.57885 1.18005e-17
7430.44031 1.18085e-17
7431.31179 1.18166e-17
7432.17325 1.18162e-17
7433.03471 1.18158e-17
7433.89618 1.18114e-17
7434.75764 1.18071e-17
7435.61910 1.18038e-17
7436.48056 1.18006e-17
7437.34202 1.17997e-17
7438.20349 1.17987e-17
7439.06495 1.18006e-17
7439.92641 1.18024e-17
7440.79789 1.18068e-17
7441.65935 1.18111e-17
7442.52081 1.18168e-17
7443.38227 1.18224e-17
7444.24374 1.18293e-17
7445.10520 1.18361e-17
7445.96666 1.18445e-17
7446.82812 1.18530e-17
7447.68959 1.18582e-17
7448.55105 1.18634e-17
7449.41251 1.18570e-17
7450.28399 1.18506e-17
7451.14545 1.18347e-17
7452.00691 1.18187e-17
7452.86837 1.18040e-17
7453.72984 1.17892e-17
7454.59130 1.17795e-17
7455.45276 1.17698e-17
7456.31422 1.17607e-17
7457.17568 1.17518e-17
7458.03715 1.17413e-17
7458.89861 1.17308e-17
7459.77009 1.17188e-17
7460.63155 1.17068e-17
7461.49301 1.16956e-17
7462.35447 1.16844e-17
7463.21594 1.16848e-17
7464.07740 1.16852e-17
7464.93886 1.17031e-17
7465.80032 1.17212e-17
7466.66178 1.17481e-17
7467.52325 1.17749e-17
7468.38471 1.18008e-17
7469.25619 1.18265e-17
7470.11765 1.18416e-17
7470.97911 1.18566e-17
7471.84057 1.18529e-17
7472.70203 1.18491e-17
7473.56350 1.18361e-17
7474.42496 1.18231e-17
7475.28642 1.18141e-17
7476.14788 1.18052e-17
7477.00934 1.18009e-17
7477.87081 1.17968e-17
7478.73227 1.17939e-17
7479.60375 1.17910e-17
7480.46521 1.17866e-17
7481.32667 1.17821e-17
7482.18813 1.17725e-17
7483.04960 1.17630e-17
7483.91106 1.17497e-17
7484.77252 1.17364e-17
7485.63398 1.17246e-17
7486.49544 1.17128e-17
7487.35690 1.17032e-17
7488.21837 1.16937e-17
7489.08985 1.16827e-17
7489.95131 1.16717e-17
7490.81277 1.16580e-17
7491.67423 1.16443e-17
7492.53569 1.16298e-17
7493.39716 1.16152e-17
7494.25862 1.16010e-17
7495.12008 1.15868e-17
7495.98154 1.15733e-17
7496.84300 1.15598e-17
7497.70447 1.15467e-17
7498.57595 1.15337e-17
7499.43741 1.15190e-17
7500.29887 1.15043e-17
7501.16033 1.14861e-17
7502.02179 1.14680e-17
7502.88325 1.14485e-17
7503.74472 1.14291e-17
7504.60618 1.14101e-17
7505.46764 1.13911e-17
7506.32910 1.13676e-17
7507.19056 1.13439e-17
7508.06204 1.13108e-17
7508.92351 1.12776e-17
7509.78497 1.12357e-17
7510.64643 1.11936e-17
7511.50789 1.11448e-17
7512.36935 1.10961e-17
7513.23082 1.10501e-17
7514.09228 1.10042e-17
7514.95374 1.09737e-17
7515.81520 1.09434e-17
7516.67666 1.09239e-17
7517.54814 1.09045e-17
7518.40960 1.08814e-17
7519.27107 1.08582e-17
7520.13253 1.08256e-17
7520.99399 1.07930e-17
7521.85545 1.07521e-17
7522.71691 1.07112e-17
7523.57838 1.06652e-17
7524.43984 1.06192e-17
7525.30130 1.05748e-17
7526.16276 1.05304e-17
7527.02423 1.04902e-17
7527.89570 1.04500e-17
7528.75717 1.04086e-17
7529.61863 1.03672e-17
7530.48009 1.03208e-17
7531.34155 1.02744e-17
7532.20301 1.02241e-17
7533.06448 1.01739e-17
7533.92594 1.01203e-17
7534.78740 1.00667e-17
7535.64886 1.00059e-17
7536.52034 9.94516e-18
7537.38180 9.87542e-18
7538.24327 9.80567e-18
7539.10473 9.73519e-18
7539.96619 9.66470e-18
7540.82765 9.60200e-18
7541.68911 9.53929e-18
7542.55058 9.48501e-18
7543.41204 9.43074e-18
7544.27350 9.38350e-18
7545.13496 9.33626e-18
7545.99642 9.28875e-18
7546.86790 9.24118e-18
7547.72936 9.18415e-18
7548.59083 9.12709e-18
7549.45229 9.06051e-18
7550.31375 8.99390e-18
7551.17521 8.92235e-18
7552.03667 8.85080e-18
7552.89814 8.77931e-18
7553.75960 8.70784e-18
7554.62106 8.64192e-18
7555.48252 8.57602e-18
7556.35400 8.51688e-18
7557.21546 8.45775e-18
7558.07693 8.40176e-18
7558.93839 8.34577e-18
7559.79985 8.28984e-18
7560.66131 8.23390e-18
7561.52277 8.17648e-18
7562.38424 8.11905e-18
7563.24570 8.05762e-18
7564.10716 7.99617e-18
7564.96862 7.92521e-18
7565.84010 7.85424e-18
7566.70156 7.77370e-18
7567.56302 7.69316e-18
7568.42449 7.61849e-18
7569.28595 7.54385e-18
7570.14741 7.48791e-18
7571.00887 7.43202e-18
7571.87033 7.39672e-18
7572.73180 7.36145e-18
7573.59326 7.34467e-18
7574.45472 7.32794e-18
7575.31618 7.30634e-18
7576.18766 7.28473e-18
7577.04912 7.23263e-18
7577.91059 7.18048e-18
7578.77205 7.11192e-18
7579.63351 7.04334e-18
7580.49497 6.98077e-18
7581.35643 6.91821e-18
7582.21790 6.85806e-18
7583.07936 6.79793e-18
7583.94082 6.72976e-18
7584.81230 6.66158e-18
7585.67376 6.54763e-18
7586.53522 6.43357e-18
7587.39668 6.22141e-18
7588.25815 6.00906e-18
7589.11961 5.70905e-18
7589.98107 5.40888e-18
7590.84253 5.08358e-18
7591.70399 4.75824e-18
7592.56546 4.46720e-18
7593.42692 4.17624e-18
7594.28838 3.97525e-18
7595.15986 3.77444e-18
7596.02132 3.69134e-18
7596.88278 3.60847e-18
7597.74425 3.61633e-18
7598.60571 3.62437e-18
7599.46717 3.70371e-18
7600.32863 3.78319e-18
7601.19009 3.94876e-18
7602.05156 4.11449e-18
7602.91302 4.36669e-18
7603.77448 4.61904e-18
7604.64596 4.92526e-18
7605.50742 5.23158e-18
7606.36888 5.55288e-18
7607.23034 5.87420e-18
7608.09181 6.17100e-18
7608.95327 6.46774e-18
7609.81473 6.70048e-18
7610.67619 6.93309e-18
7611.53765 7.04642e-18
7612.39912 7.15949e-18
7613.26058 7.10889e-18
7614.13206 7.05797e-18
7614.99352 6.84587e-18
7615.85498 6.63346e-18
7616.71644 6.28490e-18
7617.57791 5.93608e-18
7618.43937 5.55513e-18
7619.30083 5.17414e-18
7620.16229 4.90104e-18
7621.02375 4.62817e-18
7621.88522 4.51600e-18
7622.74668 4.40416e-18
7623.61816 4.44178e-18
7624.47962 4.47970e-18
7625.34108 4.61896e-18
7626.20254 4.75842e-18
7627.06400 4.91083e-18
7627.92547 5.06326e-18
7628.78693 5.17963e-18
7629.64839 5.29592e-18
7630.50985 5.39484e-18
7631.37131 5.49371e-18
7632.23278 5.58725e-18
7633.10426 5.68077e-18
7633.96572 5.76845e-18
7634.82718 5.85612e-18
7635.68864 5.93794e-18
7636.55010 6.01975e-18
7637.41157 6.07961e-18
7638.27303 6.13943e-18
7639.13449 6.16918e-18
7639.99595 6.19888e-18
7640.85741 6.22681e-18
7641.71888 6.25474e-18
7642.59035 6.30889e-18
7643.45182 6.36309e-18
7644.31328 6.45543e-18
7645.17474 6.54784e-18
7646.03620 6.68346e-18
7646.89766 6.81916e-18
7647.75913 6.96147e-18
7648.62059 7.10377e-18
7649.48205 7.20661e-18
7650.34351 7.30936e-18
7651.20497 7.36292e-18
7652.06644 7.41638e-18
7652.93792 7.42577e-18
7653.79938 7.43507e-18
7654.66084 7.43569e-18
7655.52230 7.43630e-18
7656.38376 7.48282e-18
7657.24523 7.52943e-18
7658.10669 7.63066e-18
7658.96815 7.73201e-18
7659.82961 7.85796e-18
7660.69107 7.98395e-18
7661.55254 8.10911e-18
7662.42401 8.23427e-18
7663.28548 8.33551e-18
7664.14694 8.43671e-18
7665.00840 8.51266e-18
7665.86986 8.58857e-18
7666.73132 8.68308e-18
7667.59279 8.77763e-18
7668.45425 8.91106e-18
7669.31571 9.04456e-18
7670.17717 9.17532e-18
7671.03863 9.30607e-18
7671.91011 9.40063e-18
7672.77158 9.49511e-18
7673.63304 9.54735e-18
7674.49450 9.59940e-18
7675.35596 9.61163e-18
7676.21742 9.62376e-18
7677.07889 9.64544e-18
7677.94035 9.66702e-18
7678.80181 9.74751e-18
7679.66327 9.82818e-18
7680.52473 9.93840e-18
7681.38620 1.00486e-17
7682.25767 1.01424e-17
7683.11914 1.02364e-17
7683.98060 1.03137e-17
7684.84206 1.03910e-17
7685.70352 1.04649e-17
7686.56498 1.05387e-17
7687.42645 1.06120e-17
7688.28791 1.06853e-17
7689.14937 1.07592e-17
7690.01083 1.08331e-17
7690.88231 1.09006e-17
7691.74377 1.09680e-17
7692.60524 1.10147e-17
7693.46670 1.10614e-17
7694.32816 1.10909e-17
7695.18962 1.11204e-17
7696.05108 1.11543e-17
7696.91255 1.11883e-17
7697.77401 1.12351e-17
7698.63547 1.12818e-17
7699.49693 1.13302e-17
7700.35839 1.13786e-17
7701.22987 1.14194e-17
7702.09133 1.14603e-17
7702.95280 1.14881e-17
7703.81426 1.15157e-17
7704.67572 1.15265e-17
7705.53718 1.15372e-17
7706.39864 1.15318e-17
7707.26011 1.15263e-17
7708.12157 1.15096e-17
7708.98303 1.14928e-17
7709.84449 1.14841e-17
7710.71597 1.14755e-17
7711.57743 1.14922e-17
7712.43890 1.15091e-17
7713.30036 1.15472e-17
7714.16182 1.15853e-17
7715.02328 1.16352e-17
7715.88474 1.16852e-17
7716.74620 1.17316e-17
7717.60767 1.17781e-17
7718.46913 1.18044e-17
7719.33059 1.18308e-17
7720.20207 1.18359e-17
7721.06353 1.18410e-17
7721.92499 1.18309e-17
7722.78646 1.18208e-17
7723.64792 1.18059e-17
7724.50938 1.17909e-17
7725.37084 1.17851e-17
7726.23230 1.17792e-17
7727.09377 1.17869e-17
7727.95523 1.17946e-17
7728.81669 1.18113e-17
7729.67815 1.18281e-17
7730.54963 1.18528e-17
7731.41109 1.18776e-17
7732.27255 1.19156e-17
7733.13402 1.19535e-17
7733.99548 1.19986e-17
7734.85694 1.20436e-17
7735.71840 1.20715e-17
7736.57986 1.20993e-17
7737.44133 1.20960e-17
7738.30279 1.20928e-17
7739.17427 1.20684e-17
7740.03573 1.20441e-17
7740.89719 1.20116e-17
7741.75865 1.19791e-17
7742.62012 1.19578e-17
7743.48158 1.19365e-17
7744.34304 1.19421e-17
7745.20450 1.19478e-17
7746.06596 1.19697e-17
7746.92743 1.19917e-17
7747.78889 1.20152e-17
7748.65035 1.20387e-17
7749.52183 1.20586e-17
7750.38329 1.20784e-17
7751.24475 1.20909e-17
7752.10621 1.21033e-17
7752.96768 1.21083e-17
7753.82914 1.21132e-17
7754.69060 1.21135e-17
7755.55206 1.21136e-17
7756.41352 1.21059e-17
7757.27499 1.20980e-17
7758.13645 1.20756e-17
7759.00793 1.20533e-17
7759.86939 1.20228e-17
7760.73085 1.19922e-17
7761.59231 1.19690e-17
7762.45378 1.19457e-17
7763.31524 1.19334e-17
7764.17670 1.19210e-17
7765.03816 1.19115e-17
7765.89962 1.19021e-17
7766.76109 1.18893e-17
7767.62255 1.18765e-17
7768.49403 1.18558e-17
7769.35549 1.18349e-17
7770.21695 1.18059e-17
7771.07841 1.17767e-17
7771.93988 1.17491e-17
7772.80134 1.17216e-17
7773.66280 1.17029e-17
7774.52426 1.16842e-17
7775.38572 1.16704e-17
7776.24719 1.16568e-17
7777.10865 1.16452e-17
7777.98013 1.16336e-17
7778.84159 1.16257e-17
7779.70305 1.16178e-17
7780.56451 1.16153e-17
7781.42597 1.16128e-17
7782.28744 1.16152e-17
7783.14890 1.16176e-17
7784.01036 1.16239e-17
7784.87182 1.16302e-17
7785.73328 1.16396e-17
7786.59475 1.16490e-17
7787.46623 1.16603e-17
7788.32769 1.16716e-17
7789.18915 1.16817e-17
7790.05061 1.16917e-17
7790.91207 1.16968e-17
7791.77354 1.17018e-17
7792.63500 1.17000e-17
7793.49646 1.16981e-17
7794.35792 1.16888e-17
7795.21938 1.16793e-17
7796.08085 1.16668e-17
7796.94231 1.16543e-17
7797.81379 1.16466e-17
7798.67525 1.16390e-17
7799.53671 1.16423e-17
7800.39817 1.16456e-17
7801.25963 1.16638e-17
7802.12110 1.16820e-17
7802.98256 1.17120e-17
7803.84402 1.17421e-17
7804.70548 1.17688e-17
7805.56694 1.17956e-17
7806.42841 1.18080e-17
7807.29989 1.18204e-17
7808.16135 1.18197e-17
7809.02281 1.18191e-17
7809.88427 1.18075e-17
7810.74573 1.17959e-17
7811.60720 1.17757e-17
7812.46866 1.17554e-17
7813.33012 1.17302e-17
7814.19158 1.17050e-17
7815.05304 1.16794e-17
7815.91450 1.16539e-17
7816.78598 1.16322e-17
7817.64745 1.16105e-17
7818.50891 1.15979e-17
7819.37037 1.15853e-17
7820.23183 1.15859e-17
7821.09329 1.15865e-17
7821.95476 1.15909e-17
7822.81622 1.15953e-17
7823.67768 1.15894e-17
7824.53914 1.15835e-17
7825.40060 1.15655e-17
7826.27208 1.15474e-17
7827.13355 1.15217e-17
7827.99501 1.14960e-17
7828.85647 1.14661e-17
7829.71793 1.14363e-17
7830.57939 1.14059e-17
7831.44085 1.13755e-17
7832.30232 1.13470e-17
7833.16378 1.13185e-17
7834.02524 1.12918e-17
7834.88670 1.12651e-17
7835.75818 1.12428e-17
7836.61964 1.12205e-17
7837.48111 1.12095e-17
7838.34257 1.11984e-17
7839.20403 1.12006e-17
7840.06549 1.12026e-17
7840.92695 1.12100e-17
7841.78842 1.12174e-17
7842.64988 1.12234e-17
7843.51134 1.12293e-17
7844.37280 1.12306e-17
7845.23426 1.12320e-17
7846.10574 1.12269e-17
7846.96720 1.12219e-17
7847.82867 1.12130e-17
7848.69013 1.12041e-17
7849.55159 1.11945e-17
7850.41305 1.11850e-17
7851.27452 1.11769e-17
7852.13598 1.11686e-17
7852.99744 1.11631e-17
7853.85890 1.11577e-17
7854.72036 1.11560e-17
7855.59184 1.11543e-17
7856.45330 1.11570e-17
7857.31477 1.11598e-17
7858.17623 1.11627e-17
7859.03769 1.11656e-17
7859.89915 1.11619e-17
7860.76061 1.11581e-17
7861.62208 1.11483e-17
7862.48354 1.11385e-17
7863.34500 1.11280e-17
7864.20646 1.11176e-17
7865.07794 1.11036e-17
7865.93940 1.10897e-17
7866.80087 1.10630e-17
7867.66233 1.10364e-17
7868.52379 1.09961e-17
7869.38525 1.09560e-17
7870.24671 1.09097e-17
7871.10818 1.08634e-17
7871.96964 1.08219e-17
7872.83110 1.07803e-17
7873.69256 1.07609e-17
7874.56404 1.07416e-17
7875.42550 1.07512e-17
7876.28696 1.07608e-17
7877.14843 1.07797e-17
7878.00989 1.07986e-17
7878.87135 1.08087e-17
7879.73281 1.08189e-17
7880.59427 1.08147e-17
7881.45574 1.08105e-17
7882.31720 1.07891e-17
7883.17866 1.07677e-17
7884.05014 1.07365e-17
7884.91160 1.07054e-17
7885.77306 1.06740e-17
7886.63453 1.06427e-17
7887.49599 1.06104e-17
7888.35745 1.05780e-17
7889.21891 1.05424e-17
7890.08037 1.05068e-17
7890.94184 1.04700e-17
7891.80330 1.04332e-17
7892.66476 1.03973e-17
7893.52622 1.03616e-17
7894.39770 1.03361e-17
7895.25916 1.03107e-17
7896.12062 1.03084e-17
7896.98209 1.03061e-17
7897.84355 1.03197e-17
7898.70501 1.03333e-17
7899.56647 1.03412e-17
7900.42793 1.03492e-17
7901.28940 1.03421e-17
7902.15086 1.03351e-17
7903.01232 1.03154e-17
7903.88380 1.02956e-17
7904.74526 1.02692e-17
7905.60672 1.02429e-17
7906.46819 1.02236e-17
7907.32965 1.02044e-17
7908.19111 1.01977e-17
7909.05257 1.01911e-17
7909.91403 1.01815e-17
7910.77550 1.01720e-17
7911.63696 1.01504e-17
7912.49842 1.01288e-17
7913.36990 1.01062e-17
7914.23136 1.00835e-17
7915.09282 1.00691e-17
7915.95428 1.00546e-17
7916.81575 1.00490e-17
7917.67721 1.00433e-17
7918.53867 1.00453e-17
7919.40013 1.00472e-17
7920.26159 1.00432e-17
7921.12306 1.00392e-17
7921.98452 1.00155e-17
7922.85600 9.99166e-18
7923.71746 9.95665e-18
7924.57892 9.92164e-18
7925.44038 9.89005e-18
7926.30185 9.85837e-18
7927.16331 9.83874e-18
7928.02477 9.81910e-18
7928.88623 9.81716e-18
7929.74769 9.81530e-18
7930.60916 9.82753e-18
7931.47062 9.83976e-18
7932.34210 9.85606e-18
7933.20356 9.87245e-18
7934.06502 9.88422e-18
7934.92648 9.89598e-18
7935.78794 9.89598e-18
7936.64941 9.89607e-18
7937.51087 9.88070e-18
7938.37233 9.86523e-18
7939.23379 9.83522e-18
7940.09525 9.80512e-18
7940.95672 9.76483e-18
7941.81818 9.72453e-18
7942.68966 9.68406e-18
7943.55112 9.64358e-18
7944.41258 9.61079e-18
7945.27404 9.57801e-18
7946.13551 9.55429e-18
7946.99697 9.53058e-18
7947.85843 9.51586e-18
7948.71989 9.50104e-18
7949.58135 9.49252e-18
7950.44282 9.48399e-18
7951.30428 9.47788e-18
7952.17576 9.47177e-18
7953.03722 9.45991e-18
7953.89868 9.44806e-18
7954.76014 9.42342e-18
7955.62160 9.39878e-18
7956.48307 9.37164e-18
7957.34453 9.34441e-18
7958.20599 9.32811e-18
7959.06745 9.31190e-18
7959.92891 9.30746e-18
7960.79038 9.30301e-18
7961.66186 9.30755e-18
7962.52332 9.31199e-18
7963.38478 9.31838e-18
7964.24624 9.32478e-18
7965.10770 9.32283e-18
7965.96917 9.32079e-18
7966.83063 9.31635e-18
7967.69209 9.31181e-18
7968.55355 9.32172e-18
7969.41501 9.33172e-18
7970.27648 9.35997e-18
7971.14795 9.38831e-18
7972.00942 9.42638e-18
7972.87088 9.46445e-18
7973.73234 9.50085e-18
7974.59380 9.53734e-18
7975.45526 9.55550e-18
7976.31673 9.57365e-18
7977.17819 9.56643e-18
7978.03965 9.55920e-18
7978.90111 9.54022e-18
7979.76257 9.52123e-18
7980.63405 9.50233e-18
7981.49552 9.48353e-18
7982.35698 9.46769e-18
7983.21844 9.45185e-18
7984.07990 9.44092e-18
7984.94136 9.43000e-18
7985.80283 9.41999e-18
7986.66429 9.41008e-18
7987.52575 9.39684e-18
7988.38721 9.38350e-18
7989.24867 9.36868e-18
7990.11014 9.35386e-18
7990.98161 9.33969e-18
7991.84308 9.32552e-18
7992.70454 9.31635e-18
7993.56600 9.30718e-18
7994.42746 9.30801e-18
7995.28892 9.30894e-18
7996.15039 9.30986e-18
7997.01185 9.31079e-18
7997.87331 9.29597e-18
7998.73477 9.28115e-18
7999.59623 9.25250e-18
8000.46771 9.22385e-18
8001.32917 9.19336e-18
8002.19064 9.16286e-18
8003.05210 9.13956e-18
8003.91356 9.11627e-18
8004.77502 9.10787e-18
8005.63649 9.09952e-18
8006.49795 9.10405e-18
8007.35941 9.10860e-18
8008.22087 9.11029e-18
8009.08233 9.11197e-18
8009.95381 9.10565e-18
8010.81527 9.09932e-18
8011.67674 9.10010e-18
8012.53820 9.10089e-18
8013.39966 9.11610e-18
8014.26112 9.13132e-18
8015.12258 9.15034e-18
8015.98405 9.16936e-18
8016.84551 9.18204e-18
8017.70697 9.19472e-18
8018.56843 9.19079e-18
8019.43991 9.18683e-18
8020.30137 9.15997e-18
8021.16284 9.13307e-18
8022.02430 9.10031e-18
8022.88576 9.06754e-18
8023.74722 9.04768e-18
8024.60868 9.02786e-18
8025.47015 9.02034e-18
8026.33161 9.01287e-18
8027.19307 9.01270e-18
8028.05453 9.01255e-18
8028.92601 9.01353e-18
8029.78747 9.01451e-18
8030.64893 9.00946e-18
8031.51040 9.00439e-18
8032.37186 8.99403e-18
8033.23332 8.98366e-18
8034.09478 8.97299e-18
8034.95624 8.96233e-18
8035.81771 8.95457e-18
8036.67917 8.94683e-18
8037.54063 8.94392e-18
8038.41211 8.94102e-18
8039.27357 8.94366e-18
8040.13503 8.94630e-18
8040.99650 8.95364e-18
8041.85796 8.96097e-18
8042.71942 8.97056e-18
8043.58088 8.98015e-18
8044.44234 8.98769e-18
8045.30380 8.99522e-18
8046.16527 8.99745e-18
8047.02673 8.99966e-18
8047.88819 8.99508e-18
8048.75967 8.99047e-18
8049.62113 8.97987e-18
8050.48259 8.96925e-18
8051.34406 8.96047e-18
8052.20552 8.95169e-18
8053.06698 8.95059e-18
8053.92844 8.94951e-18
8054.78990 8.95163e-18
8055.65137 8.95376e-18
8056.51283 8.95352e-18
8057.37429 8.95327e-18
8058.24577 8.94398e-18
8059.10723 8.93466e-18
8059.96869 8.91063e-18
8060.83015 8.88658e-18
8061.69162 8.85245e-18
8062.55308 8.81829e-18
8063.41454 8.78192e-18
8064.27600 8.74554e-18
8065.13746 8.71588e-18
8065.99893 8.68622e-18
8066.86039 8.67200e-18
8067.73187 8.65782e-18
8068.59333 8.65956e-18
8069.45479 8.66133e-18
8070.31625 8.67433e-18
8071.17772 8.68737e-18
8072.03918 8.70232e-18
8072.90064 8.71726e-18
8073.76210 8.72084e-18
8074.62356 8.72438e-18
8075.48503 8.71166e-18
8076.34649 8.69891e-18
8077.21797 8.67625e-18
8078.07943 8.65358e-18
8078.94089 8.62496e-18
8079.80235 8.59632e-18
8080.66381 8.56098e-18
8081.52528 8.52563e-18
8082.38674 8.48413e-18
8083.24820 8.44261e-18
8084.10966 8.39670e-18
8084.97113 8.35078e-18
8085.83259 8.30252e-18
8086.70407 8.25424e-18
8087.56553 8.20669e-18
8088.42699 8.15915e-18
8089.28845 8.11518e-18
8090.14991 8.07122e-18
8091.01138 8.03343e-18
8091.87284 7.99566e-18
8092.73430 7.96543e-18
8093.59576 7.93522e-18
8094.45722 7.91196e-18
8095.31869 7.88873e-18
8096.18015 7.87058e-18
8097.05163 7.85247e-18
8097.91309 7.82933e-18
8098.77455 7.80619e-18
8099.63601 7.76610e-18
8100.49748 7.72595e-18
8101.35894 7.66510e-18
8102.22040 7.60419e-18
8103.08186 7.52336e-18
8103.94332 7.44247e-18
8104.80479 7.35144e-18
8105.67626 7.26040e-18
8106.53773 7.17505e-18
8107.39919 7.08973e-18
8108.26065 7.01997e-18
8109.12211 6.95026e-18
8109.98357 6.89945e-18
8110.84504 6.84869e-18
8111.70650 6.81238e-18
8112.56796 6.77609e-18
8113.42942 6.73871e-18
8114.29088 6.70133e-18
8115.15235 6.65029e-18
8116.02383 6.59924e-18
8116.88529 6.52920e-18
8117.74675 6.45914e-18
8118.60821 6.36911e-18
8119.46967 6.27903e-18
8120.33114 6.18198e-18
8121.19260 6.08493e-18
8122.05406 5.99125e-18
8122.91552 5.89759e-18
8123.77698 5.79571e-18
8124.63845 5.69380e-18
8125.49991 5.57296e-18
8126.37139 5.45207e-18
8127.23285 5.31803e-18
8128.09431 5.18395e-18
8128.95577 5.04518e-18
8129.81723 4.90640e-18
8130.67870 4.77915e-18
8131.54016 4.65192e-18
8132.40162 4.55366e-18
8133.26308 4.45548e-18
8134.12454 4.37682e-18
8134.99602 4.29822e-18
8135.85749 4.21816e-18
8136.71895 4.13810e-18
8137.58041 4.04865e-18
8138.44187 3.95919e-18
8139.30333 3.86006e-18
8140.16480 3.76091e-18
8141.02626 3.65464e-18
8141.88772 3.54834e-18
8142.74918 3.44084e-18
8143.61064 3.33332e-18
8144.47210 3.23043e-18
8145.34358 3.12757e-18
8146.20505 3.03400e-18
8147.06651 2.94046e-18
8147.92797 2.85950e-18
8148.78943 2.77858e-18
8149.65089 2.71128e-18
8150.51236 2.64401e-18
8151.37382 2.58869e-18
8152.23528 2.53340e-18
8153.09674 2.48278e-18
8153.95820 2.43217e-18
8154.82968 2.38033e-18
8155.69115 2.32851e-18
8156.55261 2.27604e-18
8157.41407 2.22357e-18
8158.27553 2.17225e-18
8159.13699 2.12094e-18
8159.99845 2.07513e-18
8160.85992 2.02934e-18
8161.72138 1.99335e-18
8162.58284 1.95737e-18
8163.44430 1.93249e-18
8164.31578 1.90763e-18
8165.17724 1.89362e-18
8166.03871 1.87964e-18
8166.90017 1.86985e-18
8167.76163 1.86006e-18
8168.62309 1.84639e-18
8169.48455 1.83272e-18
8170.34602 1.80843e-18
8171.20748 1.78411e-18
8172.06894 1.74280e-18
8172.93040 1.70143e-18
8173.80188 1.65400e-18
8174.66334 1.60656e-18
8175.52481 1.57659e-18
8176.38627 1.54668e-18
8177.24773 1.53942e-18
8178.10919 1.53223e-18
8178.97065 1.53402e-18
8179.83212 1.53584e-18
8180.69358 1.53627e-18
8181.55504 1.53671e-18
8182.41650 1.52924e-18
8183.28798 1.52175e-18
8184.14944 1.50399e-18
8185.01090 1.48620e-18
8185.87237 1.46697e-18
8186.73383 1.44772e-18
8187.59529 1.43332e-18
8188.45675 1.41891e-18
8189.31821 1.40447e-18
8190.17968 1.39002e-18
8191.04114 1.37214e-18
8191.90260 1.35423e-18
8192.77408 1.33705e-18
8193.63554 1.31987e-18
8194.49700 1.30761e-18
8195.35846 1.29535e-18
8196.21993 1.29177e-18
8197.08139 1.28820e-18
8197.94285 1.29614e-18
8198.80431 1.30410e-18
8199.66577 1.31675e-18
8200.52724 1.32941e-18
8201.38870 1.33727e-18
8202.25016 1.34511e-18
8203.12164 1.34632e-18
8203.98310 1.34751e-18
8204.84456 1.34361e-18
8205.70603 1.33970e-18
8206.56749 1.33149e-18
8207.42895 1.32325e-18
8208.29041 1.31138e-18
8209.15187 1.29949e-18
8210.01334 1.28589e-18
8210.87480 1.27228e-18
8211.73626 1.25945e-18
8212.60774 1.24663e-18
8213.46920 1.23565e-18
8214.33066 1.22467e-18
8215.19212 1.21535e-18
8216.05359 1.20603e-18
8216.91505 1.19541e-18
8217.77651 1.18478e-18
8218.63797 1.16465e-18
8219.49943 1.14450e-18
8220.36090 1.11172e-18
8221.22236 1.07891e-18
8222.08382 1.04188e-18
8222.95530 1.00484e-18
8223.81676 9.72935e-19
8224.67822 9.41036e-19
8225.53969 9.25995e-19
8226.40115 9.10997e-19
8227.26261 9.21306e-19
8228.12407 9.31672e-19
8228.98553 9.59431e-19
8229.84700 9.87227e-19
8230.70846 1.02146e-18
8231.57994 1.05571e-18
8232.44140 1.08576e-18
8233.30286 1.11581e-18
8234.16432 1.13176e-18
8235.02578 1.14770e-18
8235.88725 1.15285e-18
8236.74871 1.15798e-18
8237.61017 1.16059e-18
8238.47163 1.16320e-18
8239.33309 1.16903e-18
8240.19456 1.17486e-18
8241.06604 1.18870e-18
8241.92750 1.20256e-18
8242.78896 1.22160e-18
8243.65042 1.24065e-18
8244.51188 1.25625e-18
8245.37335 1.27185e-18
8246.23481 1.27976e-18
8247.09627 1.28765e-18
8247.95773 1.28834e-18
8248.81919 1.28902e-18
8249.68066 1.28423e-18
8250.54212 1.27943e-18
8251.41360 1.27300e-18
8252.27506 1.26657e-18
8253.13652 1.26208e-18
8253.99798 1.25761e-18
8254.85945 1.25725e-18
8255.72091 1.25691e-18
8256.58237 1.26190e-18
8257.44383 1.26691e-18
8258.30529 1.27640e-18
8259.16676 1.28591e-18
8260.02822 1.29808e-18
8260.89970 1.31026e-18
8261.76116 1.32173e-18
8262.62262 1.33322e-18
8263.48408 1.34069e-18
8264.34554 1.34816e-18
8265.20701 1.34865e-18
8266.06847 1.34912e-18
8266.92993 1.34067e-18
8267.79139 1.33219e-18
8268.65285 1.31929e-18
8269.52433 1.30637e-18
8270.38580 1.29526e-18
8271.24726 1.28417e-18
8272.10872 1.27905e-18
8272.97018 1.27396e-18
8273.83164 1.27809e-18
8274.69311 1.28224e-18
8275.55457 1.29237e-18
8276.41603 1.30250e-18
8277.27749 1.31132e-18
8278.13895 1.32013e-18
8279.01043 1.32465e-18
8279.87189 1.32916e-18
8280.73336 1.33009e-18
8281.59482 1.33100e-18
8282.45628 1.33055e-18
8283.31774 1.33009e-18
8284.17920 1.33287e-18
8285.04067 1.33565e-18
8285.90213 1.34343e-18
8286.76359 1.35121e-18
8287.62505 1.35979e-18
8288.48651 1.36838e-18
8289.34798 1.37556e-18
8290.21946 1.38273e-18
8291.08092 1.39183e-18
8291.94238 1.40093e-18
8292.80384 1.41387e-18
8293.66530 1.42681e-18
8294.52677 1.44022e-18
8295.38823 1.45361e-18
8296.24969 1.46433e-18
8297.11115 1.47506e-18
8297.97261 1.48110e-18
8298.83408 1.48713e-18
8299.70555 1.48729e-18
8300.56702 1.48743e-18
8301.42848 1.48881e-18
8302.28994 1.49019e-18
8303.15140 1.50120e-18
8304.01286 1.51223e-18
8304.87433 1.52964e-18
8305.73579 1.54706e-18
8306.59725 1.56386e-18
8307.45871 1.58066e-18
8308.32017 1.59261e-18
8309.18164 1.60454e-18
8310.05312 1.60852e-18
8310.91458 1.61248e-18
8311.77604 1.61182e-18
8312.63750 1.61113e-18
8313.49896 1.61385e-18
8314.36043 1.61656e-18
8315.22189 1.62717e-18
8316.08335 1.63780e-18
8316.94481 1.65720e-18
8317.80627 1.67663e-18
8318.67775 1.70255e-18
8319.53921 1.72849e-18
8320.40068 1.75370e-18
8321.26214 1.77891e-18
8322.12360 1.79826e-18
8322.98506 1.81759e-18
8323.84652 1.83100e-18
8324.70799 1.84440e-18
8325.56945 1.85255e-18
8326.43091 1.86070e-18
8327.29237 1.86560e-18
8328.16385 1.87050e-18
8329.02531 1.87466e-18
8329.88678 1.87881e-18
8330.74824 1.88365e-18
8331.60970 1.88849e-18
8332.47116 1.89543e-18
8333.33262 1.90237e-18
8334.19408 1.91490e-18
8335.05555 1.92744e-18
8335.91701 1.94845e-18
8336.77847 1.96947e-18
8337.64995 1.99670e-18
8338.51141 2.02393e-18
8339.37287 2.05350e-18
8340.23434 2.08307e-18
8341.09580 2.10965e-18
8341.95726 2.13621e-18
8342.81872 2.15402e-18
8343.68018 2.17181e-18
8344.54165 2.18099e-18
8345.40311 2.19014e-18
8346.26457 2.19473e-18
8347.12603 2.19929e-18
8347.99751 2.20257e-18
8348.85897 2.20586e-18
8349.72043 2.21030e-18
8350.58190 2.21473e-18
8351.44336 2.22319e-18
8352.30482 2.23166e-18
8353.16628 2.24714e-18
8354.02775 2.26265e-18
8354.88921 2.28553e-18
8355.75067 2.30842e-18
8356.62215 2.33495e-18
8357.48361 2.36150e-18
8358.34507 2.38795e-18
8359.20653 2.41440e-18
8360.06800 2.43754e-18
8360.92946 2.46066e-18
8361.79092 2.47851e-18
8362.65238 2.49636e-18
8363.51384 2.51232e-18
8364.37531 2.52827e-18
8365.23677 2.54563e-18
8366.10825 2.56300e-18
8366.96971 2.57959e-18
8367.83117 2.59619e-18
8368.69263 2.60975e-18
8369.55410 2.62331e-18
8370.41556 2.63604e-18
8371.27702 2.64877e-18
8372.13848 2.66372e-18
8372.99994 2.67867e-18
8373.86140 2.69749e-18
8374.72287 2.71633e-18
8375.59435 2.74010e-18
8376.45581 2.76388e-18
8377.31727 2.79238e-18
8378.17873 2.82088e-18
8379.04019 2.85299e-18
8379.90166 2.88511e-18
8380.76312 2.91909e-18
8381.62458 2.95308e-18
8382.48604 2.98686e-18
8383.34750 3.02063e-18
8384.20897 3.05251e-18
8385.07043 3.08436e-18
8385.94191 3.11274e-18
8386.80337 3.14112e-18
8387.66483 3.16695e-18
8388.52629 3.19278e-18
8389.38775 3.22109e-18
8390.24922 3.24940e-18
8391.11068 3.28159e-18
8391.97214 3.31378e-18
8392.83360 3.34337e-18
8393.69507 3.37296e-18
8394.55653 3.39532e-18
8395.41799 3.41767e-18
8396.28947 3.43268e-18
8397.15093 3.44766e-18
8398.01239 3.45718e-18
8398.87385 3.46669e-18
8399.73532 3.48125e-18
8400.59678 3.49582e-18
8401.45824 3.52501e-18
8402.31970 3.55424e-18
8403.18116 3.59498e-18
8404.04263 3.63573e-18
8404.90409 3.68214e-18
8405.77557 3.72854e-18
8406.63703 3.77411e-18
8407.49849 3.81967e-18
8408.35995 3.85769e-18
8409.22142 3.89570e-18
8410.08288 3.92621e-18
8410.94434 3.95670e-18
8411.80580 3.98311e-18
8412.66726 4.00952e-18
8413.52873 4.03421e-18
8414.39019 4.05890e-18
8415.26167 4.08377e-18
8416.12313 4.10866e-18
8416.98459 4.13576e-18
8417.84605 4.16287e-18
8418.70751 4.19388e-18
8419.56898 4.22488e-18
8420.43044 4.26042e-18
8421.29190 4.29596e-18
8422.15336 4.33589e-18
8423.01482 4.37584e-18
8423.87629 4.41804e-18
8424.74777 4.46026e-18
8425.60923 4.49890e-18
8426.47069 4.53754e-18
8427.33215 4.57025e-18
8428.19361 4.60294e-18
8429.05508 4.63631e-18
8429.91654 4.66967e-18
8430.77800 4.70906e-18
8431.63946 4.74846e-18
8432.50092 4.79446e-18
8433.36239 4.84046e-18
8434.23386 4.89221e-18
8435.09533 4.94396e-18
8435.95679 4.99286e-18
8436.81825 5.04175e-18
8437.67971 5.07934e-18
8438.54117 5.11691e-18
8439.40264 5.14813e-18
8440.26410 5.17933e-18
8441.12556 5.21223e-18
8441.98702 5.24512e-18
8442.84848 5.28206e-18
8443.70995 5.31902e-18
8444.58143 5.36055e-18
8445.44289 5.40209e-18
8446.30435 5.44866e-18
8447.16581 5.49524e-18
8448.02727 5.54671e-18
8448.88874 5.59818e-18
8449.75020 5.65296e-18
8450.61166 5.70774e-18
8451.47312 5.76348e-18
8452.33458 5.81923e-18
8453.20606 5.87328e-18
8454.06752 5.92732e-18
8454.92899 5.97642e-18
8455.79045 6.02551e-18
8456.65191 6.07038e-18
8457.51337 6.11524e-18
8458.37483 6.16283e-18
8459.23630 6.21043e-18
8460.09776 6.26367e-18
8460.95922 6.31694e-18
8461.82068 6.36988e-18
8462.69216 6.42281e-18
8463.55362 6.47119e-18
8464.41508 6.51956e-18
8465.27655 6.56371e-18
8466.13801 6.60784e-18
8466.99947 6.64953e-18
8467.86093 6.69121e-18
8468.72240 6.73929e-18
8469.58386 6.78738e-18
8470.44532 6.84968e-18
8471.30678 6.91200e-18
8472.16824 6.98368e-18
8473.03972 7.05538e-18
8473.90118 7.12939e-18
8474.76265 7.20340e-18
8475.62411 7.27443e-18
8476.48557 7.34544e-18
8477.34703 7.40834e-18
8478.20849 7.47122e-18
8479.06996 7.53207e-18
8479.93142 7.59290e-18
8480.79288 7.66276e-18
8481.65434 7.73263e-18
8482.51580 7.80902e-18
8483.38728 7.88541e-18
8484.24875 7.95803e-18
8485.11021 8.03063e-18
8485.97167 8.09487e-18
8486.83313 8.15909e-18
8487.69459 8.21484e-18
8488.55605 8.27057e-18
8489.41752 8.32078e-18
8490.27898 8.37097e-18
8491.14044 8.42305e-18
8492.00190 8.47514e-18
8492.87338 8.53395e-18
8493.73484 8.59277e-18
8494.59631 8.65699e-18
8495.45777 8.72120e-18
8496.31923 8.79153e-18
8497.18069 8.86188e-18
8498.04215 8.94617e-18
8498.90362 9.03050e-18
8499.76508 9.13173e-18
8500.62654 9.23301e-18
8501.48800 9.33765e-18
8502.35948 9.44231e-18
8503.22094 9.53716e-18
8504.08240 9.63200e-18
8504.94387 9.71435e-18
8505.80533 9.79660e-18
8506.66679 9.86588e-18
8507.52825 9.93507e-18
8508.38972 9.99610e-18
8509.25118 1.00571e-17
8510.11264 1.01165e-17
8510.98412 1.01760e-17
8511.84558 1.02363e-17
8512.70704 1.02966e-17
8513.56850 1.03591e-17
8514.42997 1.04215e-17
8515.29143 1.04860e-17
8516.15289 1.05505e-17
8517.01435 1.06161e-17
8517.87581 1.06818e-17
8518.73728 1.07487e-17
8519.59874 1.08154e-17
8520.46020 1.08837e-17
8521.33168 1.09519e-17
8522.19314 1.10245e-17
8523.05460 1.10970e-17
8523.91607 1.11795e-17
8524.77753 1.12622e-17
8525.63899 1.13565e-17
8526.50045 1.14509e-17
8527.36191 1.15537e-17
8528.22337 1.16565e-17
8529.08484 1.17622e-17
8529.94630 1.18680e-17
8530.80776 1.19679e-17
8531.67924 1.20679e-17
8532.54070 1.21549e-17
8533.40216 1.22417e-17
8534.26363 1.23130e-17
8535.12509 1.23842e-17
8535.98655 1.24404e-17
8536.84801 1.24967e-17
8537.70947 1.25489e-17
8538.57094 1.26010e-17
8539.43240 1.26606e-17
8540.30388 1.27202e-17
8541.16534 1.27949e-17
8542.02680 1.28695e-17
8542.88826 1.29638e-17
8543.74972 1.30582e-17
8544.61119 1.31659e-17
8545.47265 1.32736e-17
8546.33411 1.33849e-17
8547.19557 1.34960e-17
8548.05703 1.35937e-17
8548.91850 1.36912e-17
8549.78998 1.37563e-17
8550.65144 1.38214e-17
8551.51290 1.38558e-17
8552.37436 1.38900e-17
8553.23582 1.39078e-17
8554.09729 1.39256e-17
8554.95875 1.39461e-17
8555.82021 1.39666e-17
8556.68167 1.40126e-17
8557.54313 1.40586e-17
8558.40460 1.41404e-17
8559.27607 1.42222e-17
8560.13754 1.43334e-17
8560.99900 1.44447e-17
8561.86046 1.45732e-17
8562.72192 1.47018e-17
8563.58338 1.48278e-17
8564.44485 1.49538e-17
8565.30631 1.50590e-17
8566.16777 1.51642e-17
8567.02923 1.52365e-17
8567.89070 1.53087e-17
8568.75216 1.53425e-17
8569.62364 1.53762e-17
8570.48510 1.53808e-17
8571.34656 1.53854e-17
8572.20802 1.53748e-17
8573.06948 1.53640e-17
8573.93095 1.53532e-17
8574.79241 1.53424e-17
8575.65387 1.53460e-17
8576.51533 1.53497e-17
8577.37679 1.53831e-17
8578.23826 1.54167e-17
8579.09972 1.54915e-17
8579.97120 1.55664e-17
8580.83266 1.56681e-17
8581.69412 1.57699e-17
8582.55558 1.58743e-17
8583.41705 1.59787e-17
8584.27851 1.60662e-17
8585.13997 1.61538e-17
8586.00143 1.62087e-17
8586.86289 1.62635e-17
8587.72436 1.62834e-17
8588.58582 1.63033e-17
8589.45730 1.62972e-17
8590.31876 1.62909e-17
8591.18022 1.62724e-17
8592.04168 1.62539e-17
8592.90314 1.62415e-17
8593.76461 1.62290e-17
8594.62607 1.62331e-17
8595.48753 1.62371e-17
8596.34899 1.62535e-17
8597.21045 1.62698e-17
8598.07192 1.62959e-17
8598.94340 1.63221e-17
8599.80486 1.63607e-17
8600.66632 1.63993e-17
8601.52778 1.64491e-17
8602.38924 1.64989e-17
8603.25071 1.65521e-17
8604.11217 1.66054e-17
8604.97363 1.66532e-17
8605.83509 1.67011e-17
8606.69655 1.67318e-17
8607.56803 1.67626e-17
8608.42949 1.67668e-17
8609.29096 1.67710e-17
8610.15242 1.67513e-17
8611.01388 1.67315e-17
8611.87534 1.66947e-17
8612.73680 1.66577e-17
8613.59827 1.66112e-17
8614.45973 1.65646e-17
8615.32119 1.65165e-17
8616.18265 1.64683e-17
8617.04411 1.64336e-17
8617.91559 1.63988e-17
8618.77706 1.63940e-17
8619.63852 1.63892e-17
8620.49998 1.64152e-17
8621.36144 1.64412e-17
8622.22290 1.64891e-17
8623.08437 1.65372e-17
8623.94583 1.65943e-17
8624.80729 1.66514e-17
8625.66875 1.67015e-17
8626.53021 1.67516e-17
8627.40169 1.67851e-17
8628.26315 1.68184e-17
8629.12462 1.68349e-17
8629.98608 1.68514e-17
8630.84754 1.68505e-17
8631.70900 1.68497e-17
8632.57046 1.68293e-17
8633.43193 1.68089e-17
8634.29339 1.67717e-17
8635.15485 1.67346e-17
8636.01631 1.66923e-17
8636.88779 1.66500e-17
8637.74925 1.66148e-17
8638.61072 1.65797e-17
8639.47218 1.65656e-17
8640.33364 1.65517e-17
8641.19510 1.65684e-17
8642.05656 1.65852e-17
8642.91803 1.66245e-17
8643.77949 1.66641e-17
8644.64095 1.67138e-17
8645.50241 1.67636e-17
8646.37389 1.68107e-17
8647.23535 1.68579e-17
8648.09681 1.68895e-17
8648.95828 1.69211e-17
8649.81974 1.69325e-17
8650.68120 1.69439e-17
8651.54266 1.69352e-17
8652.40412 1.69264e-17
8653.26559 1.68962e-17
8654.12705 1.68660e-17
8654.98851 1.68134e-17
8655.85999 1.67608e-17
8656.72145 1.66949e-17
8657.58291 1.66291e-17
8658.44438 1.65658e-17
8659.30584 1.65026e-17
8660.16730 1.64527e-17
8661.02876 1.64030e-17
8661.89022 1.63714e-17
8662.75168 1.63400e-17
8663.61315 1.63293e-17
8664.47461 1.63186e-17
8665.33607 1.63280e-17
8666.20755 1.63373e-17
8667.06901 1.63623e-17
8667.93047 1.63874e-17
8668.79194 1.64203e-17
8669.65340 1.64533e-17
8670.51486 1.64835e-17
8671.37632 1.65137e-17
8672.23778 1.65230e-17
8673.09925 1.65323e-17
8673.96071 1.65073e-17
8674.82217 1.64822e-17
8675.68363 1.64269e-17
8676.55511 1.63715e-17
8677.41657 1.62948e-17
8678.27803 1.62179e-17
8679.13950 1.61348e-17
8680.00096 1.60517e-17
8680.86242 1.59786e-17
8681.72388 1.59056e-17
8682.58535 1.58492e-17
8683.44681 1.57929e-17
8684.30827 1.57555e-17
8685.16973 1.57180e-17
8686.04121 1.57018e-17
8686.90267 1.56857e-17
8687.76413 1.56910e-17
8688.62560 1.56964e-17
8689.48706 1.57191e-17
8690.34852 1.57418e-17
8691.20998 1.57751e-17
8692.07144 1.58085e-17
8692.93291 1.58413e-17
8693.79437 1.58740e-17
8694.66585 1.58917e-17
8695.52731 1.59094e-17
8696.38877 1.59033e-17
8697.25023 1.58971e-17
8698.11170 1.58656e-17
8698.97316 1.58340e-17
8699.83462 1.57806e-17
8700.69608 1.57271e-17
8701.55754 1.56633e-17
8702.41900 1.55995e-17
8703.28047 1.55351e-17
8704.15195 1.54707e-17
8705.01341 1.54059e-17
8705.87487 1.53413e-17
8706.73633 1.52789e-17
8707.59779 1.52167e-17
8708.45926 1.51698e-17
8709.32072 1.51230e-17
8710.18218 1.51018e-17
8711.04364 1.50806e-17
8711.90510 1.50854e-17
8712.76657 1.50904e-17
8713.62803 1.51177e-17
8714.49951 1.51449e-17
8715.36097 1.51746e-17
8716.22243 1.52044e-17
8717.08389 1.52140e-17
8717.94535 1.52236e-17
8718.80682 1.52040e-17
8719.66828 1.51842e-17
8720.52974 1.51318e-17
8721.39120 1.50794e-17
8722.25267 1.50072e-17
8723.11413 1.49349e-17
8723.98561 1.48653e-17
8724.84707 1.47955e-17
8725.70853 1.47367e-17
8726.56999 1.46778e-17
8727.43145 1.46274e-17
8728.29292 1.45771e-17
8729.15438 1.45354e-17
8730.01584 1.44938e-17
8730.87730 1.44619e-17
8731.73876 1.44299e-17
8732.61024 1.44109e-17
8733.47170 1.43917e-17
8734.33317 1.43942e-17
8735.19463 1.43968e-17
8736.05609 1.44183e-17
8736.91755 1.44398e-17
8737.77902 1.44549e-17
8738.64048 1.44700e-17
8739.50194 1.44572e-17
8740.36340 1.44444e-17
8741.22486 1.43920e-17
8742.08633 1.43395e-17
8742.95780 1.42443e-17
8743.81927 1.41491e-17
8744.68073 1.40387e-17
8745.54219 1.39282e-17
8746.40365 1.38323e-17
8747.26511 1.37365e-17
8748.12658 1.36691e-17
8748.98804 1.36018e-17
8749.84950 1.35712e-17
8750.71096 1.35408e-17
8751.57242 1.35385e-17
8752.44390 1.35362e-17
8753.30537 1.35457e-17
8754.16683 1.35552e-17
8755.02829 1.35674e-17
8755.88975 1.35797e-17
8756.75121 1.35887e-17
8757.61268 1.35978e-17
8758.47414 1.35905e-17
8759.33560 1.35831e-17
8760.19706 1.35433e-17
8761.05852 1.35033e-17
8761.91999 1.34284e-17
8762.79146 1.33534e-17
8763.65293 1.32520e-17
8764.51439 1.31505e-17
8765.37585 1.30366e-17
8766.23731 1.29229e-17
8767.09877 1.28169e-17
8767.96024 1.27111e-17
8768.82170 1.26261e-17
8769.68316 1.25413e-17
8770.54462 1.24756e-17
8771.40608 1.24100e-17
8772.26755 1.23609e-17
8773.13903 1.23118e-17
8774.00049 1.22768e-17
8774.86195 1.22418e-17
8775.72341 1.22165e-17
8776.58487 1.21910e-17
8777.44633 1.21710e-17
8778.30780 1.21511e-17
8779.16926 1.21307e-17
8780.03072 1.21103e-17
8780.89218 1.20719e-17
8781.76366 1.20333e-17
8782.62512 1.19609e-17
8783.48659 1.18883e-17
8784.34805 1.17895e-17
8785.20951 1.16906e-17
8786.07097 1.15796e-17
8786.93243 1.14685e-17
8787.79390 1.13559e-17
8788.65536 1.12433e-17
8789.51682 1.11394e-17
8790.37828 1.10356e-17
8791.24976 1.09403e-17
8792.11122 1.08450e-17
8792.97268 1.07508e-17
8793.83415 1.06565e-17
8794.69561 1.05681e-17
8795.55707 1.04799e-17
8796.41853 1.04110e-17
8797.28000 1.03422e-17
8798.14146 1.02901e-17
8799.00292 1.02380e-17
8799.86438 1.01845e-17
8800.72584 1.01310e-17
8801.59732 1.00612e-17
8802.45878 9.99147e-18
8803.32025 9.89552e-18
8804.18171 9.79956e-18
8805.04317 9.67609e-18
8805.90463 9.55263e-18
8806.76609 9.41944e-18
8807.62756 9.28615e-18
8808.48902 9.15942e-18
8809.35048 9.03275e-18
8810.21194 8.92033e-18
8811.08342 8.80795e-18
8811.94488 8.71507e-18
8812.80635 8.62224e-18
8813.66781 8.54685e-18
8814.52927 8.47151e-18
8815.39073 8.40866e-18
8816.25219 8.34585e-18
8817.11365 8.28939e-18
8817.97512 8.23296e-18
8818.83658 8.17601e-18
8819.70806 8.11906e-18
8820.56952 8.05328e-18
8821.43098 7.98747e-18
8822.29244 7.90560e-18
8823.15391 7.82370e-18
8824.01537 7.72484e-18
8824.87683 7.62595e-18
8825.73829 7.51272e-18
8826.59975 7.39945e-18
8827.46122 7.28227e-18
8828.32268 7.16509e-18
8829.19416 7.05899e-18
8830.05562 6.95293e-18
8830.91708 6.86556e-18
8831.77854 6.77826e-18
8832.64000 6.71018e-18
8833.50147 6.64216e-18
8834.36293 6.59093e-18
8835.22439 6.53975e-18
8836.08585 6.49937e-18
8836.94732 6.45902e-18
8837.80878 6.42248e-18
8838.67024 6.38594e-18
8839.54172 6.34601e-18
8840.40318 6.30608e-18
8841.26464 6.25746e-18
8842.12610 6.20882e-18
8842.98757 6.15081e-18
8843.84903 6.09278e-18
8844.71049 6.02649e-18
8845.57195 5.96018e-18
8846.43341 5.88949e-18
8847.29488 5.81879e-18
8848.15634 5.74867e-18
8849.02782 5.67856e-18
8849.88928 5.61168e-18
8850.75074 5.54481e-18
8851.61220 5.48369e-18
8852.47367 5.42260e-18
8853.33513 5.38023e-18
8854.19659 5.33790e-18
8855.05805 5.32720e-18
8855.91951 5.31659e-18
8856.78097 5.32731e-18
8857.64244 5.33808e-18
8858.50390 5.35210e-18
8859.36536 5.36612e-18
8860.23684 5.36851e-18
8861.09830 5.37087e-18
8861.95976 5.34813e-18
8862.82123 5.32532e-18
8863.68269 5.28252e-18
8864.54415 5.23968e-18
8865.40561 5.19651e-18
8866.26707 5.15335e-18
8867.12854 5.11897e-18
8867.99000 5.08462e-18
8868.86148 5.05671e-18
8869.72294 5.02881e-18
8870.58440 5.00637e-18
8871.44586 4.98394e-18
8872.30732 4.96609e-18
8873.16879 4.94826e-18
8874.03025 4.93599e-18
8874.89171 4.92372e-18
8875.75317 4.92459e-18
8876.61463 4.92550e-18
8877.47610 4.94257e-18
8878.34758 4.95969e-18
8879.20904 4.98352e-18
8880.07050 5.00737e-18
8880.93196 5.02806e-18
8881.79342 5.04874e-18
8882.65489 5.05709e-18
8883.51635 5.06540e-18
8884.37781 5.05469e-18
8885.23927 5.04394e-18
8886.10073 5.02036e-18
8886.96220 4.99676e-18
8887.83367 4.97003e-18
8888.69514 4.94329e-18
8889.55660 4.92236e-18
8890.41806 4.90144e-18
8891.27952 4.89443e-18
8892.14099 4.88746e-18
8893.00245 4.89896e-18
8893.86391 4.91052e-18
8894.72537 4.94237e-18
8895.58683 4.97426e-18
8896.44830 5.01894e-18
8897.30976 5.06366e-18
8898.18124 5.10839e-18
8899.04270 5.15312e-18
8899.90416 5.18697e-18
8900.76562 5.22079e-18
8901.62708 5.23465e-18
8902.48855 5.24845e-18
8903.35001 5.24371e-18
8904.21147 5.23894e-18
8905.07293 5.23076e-18
8905.93439 5.22257e-18
8906.80587 5.22089e-18
8907.66734 5.21923e-18
8908.52880 5.22305e-18
8909.39026 5.22689e-18
8910.25172 5.23625e-18
8911.11318 5.24561e-18
8911.97465 5.26235e-18
8912.83611 5.27910e-18
8913.69757 5.30397e-18
8914.55903 5.32886e-18
8915.42049 5.36364e-18
8916.29197 5.39844e-18
8917.15343 5.44271e-18
8918.01490 5.48699e-18
8918.87636 5.52935e-18
8919.73782 5.57171e-18
8920.59928 5.60077e-18
8921.46074 5.62980e-18
8922.32221 5.64233e-18
8923.18367 5.65483e-18
8924.04513 5.65049e-18
8924.90659 5.64611e-18
8925.76805 5.63833e-18
8926.63953 5.63054e-18
8927.50100 5.63764e-18
8928.36246 5.64477e-18
8929.22392 5.66744e-18
8930.08538 5.69016e-18
8930.94684 5.72012e-18
8931.80831 5.75010e-18
8932.66977 5.78136e-18
8933.53123 5.81261e-18
8934.39269 5.83935e-18
8935.25415 5.86607e-18
8936.12563 5.89104e-18
8936.98709 5.91599e-18
8937.84856 5.95226e-18
8938.71002 5.98857e-18
8939.57148 6.03675e-18
8940.43294 6.08496e-18
8941.29440 6.12729e-18
8942.15587 6.16961e-18
8943.01733 6.19305e-18
8943.87879 6.21644e-18
8944.74025 6.21515e-18
8945.61173 6.21379e-18
8946.47319 6.18987e-18
8947.33466 6.16589e-18
8948.19612 6.14677e-18
8949.05758 6.12765e-18
8949.91904 6.13556e-18
8950.78050 6.14354e-18
8951.64197 6.17158e-18
8952.50343 6.19966e-18
8953.36489 6.23663e-18
8954.22635 6.27362e-18
8955.08781 6.29037e-18
8955.95929 6.30706e-18
8956.82075 6.27492e-18
8957.68222 6.24266e-18
8958.54368 6.19729e-18
8959.40514 6.15190e-18
8960.26660 6.14585e-18
8961.12806 6.13991e-18
8961.98953 6.18068e-18
8962.85099 6.22159e-18
8963.71245 6.29923e-18
8964.57391 6.37698e-18
8965.44539 6.46633e-18
8966.30685 6.55571e-18
8967.16832 6.61869e-18
8968.02978 6.68161e-18
8968.89124 6.72238e-18
8969.75270 6.76310e-18
8970.61416 6.82331e-18
8971.47563 6.88357e-18
8972.33709 6.97763e-18
8973.19855 7.07178e-18
8974.06001 7.18186e-18
8974.93149 7.29197e-18
8975.79295 7.39225e-18
8976.65441 7.49250e-18
8977.51588 7.54349e-18
8978.37734 7.59435e-18
8979.23880 7.56530e-18
8980.10026 7.53603e-18
8980.96172 7.40715e-18
8981.82319 7.27800e-18
8982.68465 7.06200e-18
8983.54611 6.84576e-18
8984.41759 6.65881e-18
8985.27905 6.47195e-18
8986.14051 6.42123e-18
8987.00198 6.37089e-18
8987.86344 6.49317e-18
8988.72490 6.61591e-18
8989.58636 6.91671e-18
8990.44782 7.21798e-18
8991.30928 7.55375e-18
8992.17075 7.88960e-18
8993.03221 8.08751e-18
8993.89367 8.28503e-18
8994.76515 8.31916e-18
8995.62661 8.35286e-18
8996.48807 8.25481e-18
8997.34954 8.15641e-18
8998.21100 8.00348e-18
8999.07246 7.85041e-18
8999.93392 7.74808e-18
9000.79538 7.64588e-18
9001.65685 7.64013e-18
9002.51831 7.63465e-18
9003.38979 7.72264e-18
9004.25125 7.81087e-18
9005.11271 7.96193e-18
9005.97417 8.11314e-18
9006.83563 8.26712e-18
9007.69710 8.42109e-18
9008.55856 8.53110e-18
9009.42002 8.64099e-18
9010.28148 8.68528e-18
9011.14295 8.72939e-18
9012.00441 8.70895e-18
9012.87589 8.68832e-18
9013.73735 8.65480e-18
9014.59881 8.62125e-18
9015.46027 8.61300e-18
9016.32173 8.60481e-18
9017.18320 8.59841e-18
9018.04466 8.59202e-18
9018.90612 8.57004e-18
9019.76758 8.54802e-18
9020.62904 8.53062e-18
9021.49051 8.51322e-18
9022.35197 8.52130e-18
9023.22345 8.52945e-18
9024.08491 8.58935e-18
9024.94637 8.64939e-18
9025.80783 8.78213e-18
9026.66930 8.91507e-18
9027.53076 9.08874e-18
9028.39222 9.26253e-18
9029.25368 9.42888e-18
9030.11514 9.59514e-18
9030.97660 9.72064e-18
9031.83807 9.84596e-18
9032.70955 9.90570e-18
9033.57101 9.96526e-18
9034.43247 9.95702e-18
9035.29393 9.94859e-18
9036.15539 9.88505e-18
9037.01686 9.82133e-18
9037.87832 9.73509e-18
9038.73978 9.64877e-18
9039.60124 9.58995e-18
9040.46270 9.53132e-18
9041.32417 9.51336e-18
9042.18563 9.49548e-18
9043.05711 9.48168e-18
9043.91857 9.46779e-18
9044.78003 9.43879e-18
9045.64149 9.40971e-18
9046.50295 9.37711e-18
9047.36442 9.34450e-18
9048.22588 9.31838e-18
9049.08734 9.29227e-18
9049.94880 9.28875e-18
9050.81027 9.28513e-18
9051.67173 9.30847e-18
9052.54321 9.33191e-18
9053.40467 9.33441e-18
9054.26613 9.33672e-18
9055.12759 9.27652e-18
9055.98905 9.21618e-18
9056.85052 9.11560e-18
9057.71198 9.01491e-18
9058.57344 8.90425e-18
9059.43490 8.79358e-18
9060.29636 8.67660e-18
9061.16784 8.55961e-18
9062.02931 8.43782e-18
9062.89077 8.31601e-18
9063.75223 8.18497e-18
9064.61369 8.05390e-18
9065.47515 7.90384e-18
9066.33662 7.75373e-18
9067.19808 7.62287e-18
9068.05954 7.49207e-18
9068.92100 7.44386e-18
9069.78246 7.39587e-18
9070.64393 7.41628e-18
9071.51540 7.43688e-18
9072.37687 7.45487e-18
9073.23833 7.47285e-18
9074.09979 7.46222e-18
9074.96125 7.45151e-18
9075.82271 7.43208e-18
9076.68418 7.41262e-18
9077.54564 7.39681e-18
9078.40710 7.38101e-18
9079.26856 7.37598e-18
9080.13002 7.37098e-18
9080.99149 7.37645e-18
9081.86297 7.38194e-18
9082.72443 7.37329e-18
9083.58589 7.36460e-18
9084.44735 7.32806e-18
9085.30881 7.29145e-18
9086.17028 7.25417e-18
9087.03174 7.21688e-18
9087.89320 7.19975e-18
9088.75466 7.18266e-18
9089.61612 7.15900e-18
9090.48760 7.13532e-18
9091.34906 7.07957e-18
9092.21053 7.02405e-18
9093.07199 6.96260e-18
9093.93345 6.90113e-18
9094.79491 6.86624e-18
9095.65637 6.83143e-18
9096.51784 6.81396e-18
9097.37930 6.79655e-18
9098.24076 6.77726e-18
9099.10222 6.75795e-18
9099.97370 6.74180e-18
9100.83516 6.72567e-18
9101.69663 6.72298e-18
9102.55809 6.72033e-18
9103.41955 6.75084e-18
9104.28101 6.78144e-18
9105.14247 6.87341e-18
9106.00393 6.96555e-18
9106.86540 7.08546e-18
9107.72686 7.20544e-18
9108.58832 7.26734e-18
9109.45980 7.32907e-18
9110.32126 7.29632e-18
9111.18272 7.26331e-18
9112.04419 7.15724e-18
9112.90565 7.05097e-18
9113.76711 6.91539e-18
9114.62857 6.77976e-18
9115.49003 6.70466e-18
9116.35150 6.62973e-18
9117.21296 6.66197e-18
9118.07442 6.69451e-18
9118.93588 6.76469e-18
9119.80736 6.83498e-18
9120.66882 6.87534e-18
9121.53028 6.91561e-18
9122.39175 6.88274e-18
9123.25321 6.84966e-18
9124.11467 6.71750e-18
9124.97613 6.58507e-18
9125.83760 6.41473e-18
9126.69906 6.24431e-18
9127.56052 6.11022e-18
9128.43200 5.97623e-18
9129.29346 5.91681e-18
9130.15492 5.85761e-18
9131.01638 5.89763e-18
9131.87785 5.93793e-18
9132.73931 6.06070e-18
9133.60077 6.18370e-18
9134.46223 6.35148e-18
9135.32369 6.51937e-18
9136.18516 6.69285e-18
9137.04662 6.86635e-18
9137.90808 7.00500e-18
9138.76954 7.14354e-18
9139.64102 7.22126e-18
9140.50248 7.29881e-18
9141.36395 7.30678e-18
9142.22541 7.31457e-18
9143.08687 7.23959e-18
9143.94833 7.16439e-18
9144.80979 6.98745e-18
9145.67125 6.81025e-18
9146.53272 6.55429e-18
9147.39418 6.29811e-18
9148.26566 6.04044e-18
9149.12712 5.78276e-18
9149.98858 5.59352e-18
9150.85004 5.40447e-18
9151.71151 5.34042e-18
9152.57297 5.27673e-18
9153.43443 5.36001e-18
9154.29589 5.44370e-18
9155.15735 5.60153e-18
9156.01882 5.75955e-18
9156.88028 5.91501e-18
9157.75176 6.07045e-18
9158.61322 6.18759e-18
9159.47468 6.30460e-18
9160.33614 6.35563e-18
9161.19760 6.40646e-18
9162.05907 6.39323e-18
9162.92053 6.37980e-18
9163.78199 6.31740e-18
9164.64345 6.25488e-18
9165.50492 6.14123e-18
9166.36638 6.02743e-18
9167.22784 5.85984e-18
9168.09932 5.69211e-18
9168.96078 5.51216e-18
9169.82224 5.33219e-18
9170.68370 5.19617e-18
9171.54517 5.06029e-18
9172.40663 4.99633e-18
9173.26809 4.93257e-18
9174.12955 4.95292e-18
9174.99101 4.97350e-18
9175.85248 5.04356e-18
9176.71394 5.11375e-18
9177.58542 5.15489e-18
9178.44688 5.19595e-18
9179.30834 5.18530e-18
9180.16980 5.17451e-18
9181.03127 5.16366e-18
9181.89273 5.15282e-18
9182.75419 5.17018e-18
9183.61565 5.18762e-18
9184.47711 5.22306e-18
9185.33857 5.25854e-18
9186.20004 5.29983e-18
9187.07152 5.34114e-18
9187.93298 5.35867e-18
9188.79444 5.37614e-18
9189.65590 5.35347e-18
9190.51736 5.33069e-18
9191.37883 5.31360e-18
9192.24029 5.29652e-18
9193.10175 5.32575e-18
9193.96321 5.35510e-18
9194.82467 5.41254e-18
9195.68614 5.47004e-18
9196.55762 5.52983e-18
9197.41908 5.58961e-18
9198.28054 5.62839e-18
9199.14200 5.66710e-18
9200.00346 5.66241e-18
9200.86492 5.65760e-18
9201.72639 5.62599e-18
9202.58785 5.59429e-18
9203.44931 5.56830e-18
9204.31077 5.54233e-18
9205.17224 5.52291e-18
9206.04371 5.50349e-18
9206.90518 5.47635e-18
9207.76664 5.44917e-18
9208.62810 5.41884e-18
9209.48956 5.38849e-18
9210.35102 5.37027e-18
9211.21249 5.35206e-18
9212.07395 5.36129e-18
9212.93541 5.37060e-18
9213.79687 5.42488e-18
9214.65833 5.47927e-18
9215.52981 5.57508e-18
9216.39127 5.67101e-18
9217.25274 5.77195e-18
9218.11420 5.87290e-18
9218.97566 5.95533e-18
9219.83712 6.03770e-18
9220.69859 6.10916e-18
9221.56005 6.18059e-18
9222.42151 6.24533e-18
9223.28297 6.31004e-18
9224.14443 6.36084e-18
9225.00590 6.41161e-18
9225.87737 6.44344e-18
9226.73884 6.47522e-18
9227.60030 6.48278e-18
9228.46176 6.49028e-18
9229.32322 6.47156e-18
9230.18468 6.45277e-18
9231.04615 6.42910e-18
9231.90761 6.40541e-18
9232.76907 6.40145e-18
9233.63053 6.39753e-18
9234.49199 6.40786e-18
9235.35346 6.41822e-18
9236.22494 6.42895e-18
9237.08640 6.43969e-18
9237.94786 6.45715e-18
9238.80932 6.47464e-18
9239.67078 6.51188e-18
9240.53225 6.54917e-18
9241.39371 6.61244e-18
9242.25517 6.67577e-18
9243.11663 6.76760e-18
9243.97809 6.85951e-18
9244.84957 6.97190e-18
9245.71103 7.08435e-18
9246.57250 7.19907e-18
9247.43396 7.31379e-18
9248.29542 7.42041e-18
9249.15688 7.52700e-18
9250.01834 7.62766e-18
9250.87981 7.72831e-18
9251.74127 7.81795e-18
9252.60273 7.90754e-18
9253.46419 7.96465e-18
9254.32565 8.02167e-18
9255.19713 8.04275e-18
9256.05860 8.06372e-18
9256.92006 8.09052e-18
9257.78152 8.11735e-18
9258.64298 8.18130e-18
9259.50444 8.24535e-18
9260.36591 8.33696e-18
9261.22737 8.42863e-18
9262.08883 8.53100e-18
9262.95029 8.63339e-18
9263.81175 8.70956e-18
9264.68323 8.78565e-18
9265.54469 8.80025e-18
9266.40616 8.81469e-18
9267.26762 8.76873e-18
9268.12908 8.72261e-18
9268.99054 8.63064e-18
9269.85200 8.53856e-18
9270.71347 8.43483e-18
9271.57493 8.33107e-18
9272.43639 8.25639e-18
9273.29785 8.18179e-18
9274.16933 8.16837e-18
9275.03079 8.15512e-18
9275.89226 8.22653e-18
9276.75372 8.29818e-18
9277.61518 8.44242e-18
9278.47664 8.58685e-18
9279.33810 8.76419e-18
9280.19957 8.94161e-18
9281.06103 9.10917e-18
9281.92249 9.27670e-18
9282.79397 9.39313e-18
9283.65543 9.50947e-18
9284.51689 9.54188e-18
9285.37835 9.57402e-18
9286.23982 9.50289e-18
9287.10128 9.43148e-18
9287.96274 9.26540e-18
9288.82420 9.09897e-18
9289.68566 8.89058e-18
9290.54713 8.68208e-18
9291.40859 8.49262e-18
9292.27005 8.30321e-18
9293.14153 8.21331e-18
9294.00299 8.12367e-18
9294.86445 8.18594e-18
9295.72592 8.24863e-18
9296.58738 8.40886e-18
9297.44884 8.56936e-18
9298.31030 8.75559e-18
9299.17176 8.94187e-18
9300.03323 9.05600e-18
9300.89469 9.16992e-18
9301.75615 9.11788e-18
9302.62763 9.06535e-18
9303.48909 8.93747e-18
9304.35055 8.80940e-18
9305.21201 8.75347e-18
9306.07348 8.69775e-18
9306.93494 8.67934e-18
9307.79640 8.66101e-18
9308.65786 8.57290e-18
9309.51932 8.48459e-18
9310.38079 8.33174e-18
9311.24225 8.17873e-18
9312.11373 8.02442e-18
9312.97519 7.87012e-18
9313.83665 7.77639e-18
9314.69811 7.68282e-18
9315.55958 7.72017e-18
9316.42104 7.75791e-18
9317.28250 7.91263e-18
9318.14396 8.06769e-18
9319.00542 8.20416e-18
9319.86688 8.34057e-18
9320.72835 8.40554e-18
9321.58981 8.47032e-18
9322.46129 8.58880e-18
9323.32275 8.70743e-18
9324.18421 8.90675e-18
9325.04567 9.10630e-18
9325.90714 9.13088e-18
9326.76860 9.15496e-18
9327.63006 8.84722e-18
9328.49152 8.53854e-18
9329.35298 8.14588e-18
9330.21445 7.75297e-18
9331.07591 7.51490e-18
9331.94739 7.27729e-18
9332.80885 7.14763e-18
9333.67031 7.01829e-18
9334.53177 6.92785e-18
9335.39323 6.83753e-18
9336.25470 6.78787e-18
9337.11616 6.73834e-18
9337.97762 6.71760e-18
9338.83908 6.69695e-18
9339.70055 6.91605e-18
9340.56201 7.13583e-18
9341.43349 7.88042e-18
9342.29495 8.62649e-18
9343.15641 9.53068e-18
9344.01787 1.04352e-17
9344.87933 1.08258e-17
9345.74080 1.12148e-17
9346.60226 1.08910e-17
9347.46372 1.05651e-17
9348.32518 9.64145e-18
9349.18664 8.71616e-18
9350.04811 7.61749e-18
9350.90957 6.51835e-18
9351.78105 6.02798e-18
9352.64251 5.53937e-18
9353.50397 5.91431e-18
9354.36543 6.29171e-18
9355.22689 6.96529e-18
9356.08836 7.63969e-18
9356.94982 8.13545e-18
9357.81128 8.63067e-18
9358.67274 8.66440e-18
9359.53420 8.69680e-18
9360.39567 8.14563e-18
9361.26715 7.59279e-18
9362.12861 6.90314e-18
9362.99007 6.21312e-18
9363.85153 5.80636e-18
9364.71299 5.40042e-18
9365.57446 5.30082e-18
9366.43592 5.20210e-18
9367.29738 5.36905e-18
9368.15884 5.53675e-18
9369.02030 5.76094e-18
9369.89178 5.98527e-18
9370.75324 6.02694e-18
9371.61471 6.06808e-18
9372.47617 5.94194e-18
9373.33763 5.81533e-18
9374.19909 5.61095e-18
9375.06056 5.40636e-18
9375.92202 5.26073e-18
9376.78348 5.11527e-18
9377.64494 5.19570e-18
9378.50640 5.27677e-18
9379.37788 5.51981e-18
9380.23934 5.76332e-18
9381.10081 5.95354e-18
9381.96227 6.14359e-18
9382.82373 6.21234e-18
9383.68519 6.28074e-18
9384.54665 6.28998e-18
9385.40812 6.29904e-18
9386.26958 6.26590e-18
9387.13104 6.23263e-18
9387.99250 6.12809e-18
9388.85396 6.02335e-18
9389.72544 5.84578e-18
9390.58691 5.66800e-18
9391.44837 5.44420e-18
9392.30983 5.22026e-18
9393.17129 4.98693e-18
9394.03275 4.75357e-18
9394.89422 4.57588e-18
9395.75568 4.39835e-18
9396.61714 4.32040e-18
9397.47860 4.24273e-18
9398.34006 4.23183e-18
9399.21154 4.22112e-18
9400.07300 4.23619e-18
9400.93447 4.25132e-18
9401.79593 4.25285e-18
9402.65739 4.25433e-18
9403.51885 4.20776e-18
9404.38031 4.16105e-18
9405.24178 4.10522e-18
9406.10324 4.04937e-18
9406.96470 4.03883e-18
9407.82616 4.02841e-18
9408.69764 4.06374e-18
9409.55910 4.09921e-18
9410.42057 4.16147e-18
9411.28203 4.22379e-18
9412.14349 4.28351e-18
9413.00495 4.34321e-18
9413.86641 4.36545e-18
9414.72788 4.38757e-18
9415.58934 4.34905e-18
9416.45080 4.31034e-18
9417.31226 4.20386e-18
9418.17372 4.09718e-18
9419.04520 3.93019e-18
9419.90666 3.76302e-18
9420.76813 3.54668e-18
9421.62959 3.33019e-18
9422.49105 3.14191e-18
9423.35251 2.95372e-18
9424.21397 2.97832e-18
9425.07544 3.00353e-18
9425.93690 3.30032e-18
9426.79836 3.59789e-18
9427.65982 3.97314e-18
9428.53130 4.34859e-18
9429.39276 4.61551e-18
9430.25423 4.88211e-18
9431.11569 4.86778e-18
9431.97715 4.85264e-18
9432.83861 4.46948e-18
9433.70007 4.08527e-18
9434.56153 3.63708e-18
9435.42300 3.18874e-18
9436.28446 2.99333e-18
9437.14592 2.79867e-18
9438.01740 2.90612e-18
9438.87886 3.01444e-18
9439.74032 3.40415e-18
9440.60179 3.79466e-18
9441.46325 4.26871e-18
9442.32471 4.74300e-18
9443.18617 5.04664e-18
9444.04763 5.34979e-18
9444.90910 5.41016e-18
9445.77056 5.46982e-18
9446.63202 5.30282e-18
9447.49348 5.13516e-18
9448.36496 4.83094e-18
9449.22642 4.52634e-18
9450.08788 4.22995e-18
9450.94935 3.93359e-18
9451.81081 3.73952e-18
9452.67227 3.54577e-18
9453.53373 3.49087e-18
9454.39520 3.43638e-18
9455.25666 3.52985e-18
9456.11812 3.62375e-18
9456.98960 3.84290e-18
9457.85106 4.06241e-18
9458.71252 4.34164e-18
9459.57398 4.62102e-18
9460.43545 4.82791e-18
9461.29691 5.03458e-18
9462.15837 5.08935e-18
9463.01983 5.14368e-18
9463.88129 5.10866e-18
9464.74276 5.07339e-18
9465.60422 5.01375e-18
9466.47570 4.95405e-18
9467.33716 4.90982e-18
9468.19862 4.86564e-18
9469.06008 4.86898e-18
9469.92155 4.87247e-18
9470.78301 4.87407e-18
9471.64447 4.87566e-18
9472.50593 4.82299e-18
9473.36739 4.77016e-18
9474.22885 4.69610e-18
9475.09032 4.62199e-18
9475.96180 4.57128e-18
9476.82326 4.52063e-18
9477.68472 4.58601e-18
9478.54618 4.65173e-18
9479.40764 4.93776e-18
9480.26911 5.22443e-18
9481.13057 5.61757e-18
9481.99203 6.01101e-18
9482.85349 6.29158e-18
9483.71495 6.57181e-18
9484.57642 6.62404e-18
9485.43788 6.67559e-18
9486.30936 6.45894e-18
9487.17082 6.24150e-18
9488.03228 5.84418e-18
9488.89374 5.44635e-18
9489.75520 5.10071e-18
9490.61667 4.75524e-18
9491.47813 4.60987e-18
9492.33959 4.46509e-18
9493.20105 4.51726e-18
9494.06252 4.57001e-18
9494.92398 4.81898e-18
9495.79546 5.06851e-18
9496.65692 5.54599e-18
9497.51838 6.02412e-18
9498.37984 6.67978e-18
9499.24130 7.33595e-18
9500.10277 7.91322e-18
9500.96423 8.49025e-18
9501.82569 8.76722e-18
9502.68715 9.04331e-18
9503.54861 8.98489e-18
9504.41008 8.92549e-18
9505.28155 8.55434e-18
9506.14302 8.18229e-18
9507.00448 7.69119e-18
9507.86594 7.19976e-18
9508.72740 6.81803e-18
9509.58887 6.43663e-18
9510.45033 6.18673e-18
9511.31179 5.93723e-18
9512.17325 5.77385e-18
9513.03471 5.61072e-18
9513.89617 5.57848e-18
9514.75764 5.54662e-18
9515.62912 5.70937e-18
9516.49058 5.87268e-18
9517.35204 6.21179e-18
9518.21350 6.55141e-18
9519.07496 7.00427e-18
9519.93643 7.45746e-18
9520.79789 7.91383e-18
9521.65935 8.37021e-18
9522.52081 8.67825e-18
9523.38227 8.98586e-18
9524.24374 9.09443e-18
9525.11522 9.20242e-18
9525.97668 9.19131e-18
9526.83814 9.17985e-18
9527.69960 9.12262e-18
9528.56106 9.06526e-18
9529.42252 9.02003e-18
9530.28399 8.97485e-18
9531.14545 8.97422e-18
9532.00691 8.97373e-18
9532.86837 8.96608e-18
9533.72984 8.95841e-18
9534.60131 8.90015e-18
9535.46278 8.84173e-18
9536.32424 8.71965e-18
9537.18570 8.59739e-18
9538.04716 8.41851e-18
9538.90862 8.23946e-18
9539.77009 8.16702e-18
9540.63155 8.09490e-18
9541.49301 8.28299e-18
9542.35447 8.47183e-18
9543.21593 8.81006e-18
9544.08741 9.14872e-18
9544.94888 9.47279e-18
9545.81034 9.79678e-18
9546.67180 9.94637e-18
9547.53326 1.00954e-17
9548.39472 9.90608e-18
9549.25619 9.71583e-18
9550.11765 9.37831e-18
9550.97911 9.04038e-18
9551.84057 8.93856e-18
9552.70203 8.83743e-18
9553.57351 8.99739e-18
9554.43497 9.15811e-18
9555.29644 9.35293e-18
9556.15790 9.54781e-18
9557.01936 9.62460e-18
9557.88082 9.70101e-18
9558.74228 9.55791e-18
9559.60375 9.41425e-18
9560.46521 9.11444e-18
9561.32667 8.81423e-18
9562.18813 8.70432e-18
9563.05961 8.59497e-18
9563.92107 8.85374e-18
9564.78254 9.11360e-18
9565.64400 9.55698e-18
9566.50546 1.00009e-17
9567.36692 1.04309e-17
9568.22838 1.08607e-17
9569.08985 1.10409e-17
9569.95131 1.12204e-17
9570.81277 1.09881e-17
9571.67423 1.07546e-17
9572.53569 1.03145e-17
9573.40717 9.87393e-18
9574.26863 9.46936e-18
9575.13010 9.06497e-18
9575.99156 8.85850e-18
9576.85302 8.65262e-18
9577.71448 8.77266e-18
9578.57594 8.89366e-18
9579.43741 9.13838e-18
9580.29887 9.38341e-18
9581.16033 9.45797e-18
9582.02179 9.53207e-18
9582.89327 9.39748e-18
9583.75473 9.26235e-18
9584.61620 8.97648e-18
9585.47766 8.69013e-18
9586.33912 8.45911e-18
9587.20058 8.22825e-18
9588.06204 8.36597e-18
9588.92351 8.50480e-18
9589.78497 8.97200e-18
9590.64643 9.44018e-18
9591.51791 9.87671e-18
9592.37937 1.03132e-17
9593.24083 1.05250e-17
9594.10229 1.07362e-17
9594.96376 1.07417e-17
9595.82522 1.07467e-17
9596.68668 1.05852e-17
9597.54814 1.04232e-17
9598.40960 1.01856e-17
9599.27107 9.94794e-18
9600.13253 9.73491e-18
9600.99399 9.52188e-18
9601.86547 9.41286e-18
9602.72693 9.30412e-18
9603.58839 9.35099e-18
9604.44986 9.39841e-18
9605.31132 9.59255e-18
9606.17278 9.78715e-18
9607.03424 1.00848e-17
9607.89570 1.03827e-17
9608.75717 1.05946e-17
9609.61863 1.08063e-17
9610.48009 1.07500e-17
9611.35157 1.06928e-17
9612.21303 1.04456e-17
9613.07449 1.01979e-17
9613.93595 9.90580e-18
9614.79742 9.61348e-18
9615.65888 9.37785e-18
9616.52034 9.14234e-18
9617.38180 9.04777e-18
9618.24326 8.95364e-18
9619.10473 9.02189e-18
9619.96619 9.09063e-18
9620.82765 9.29819e-18
9621.69913 9.50622e-18
9622.56059 9.77826e-18
9623.42205 1.00505e-17
9624.28352 1.02828e-17
9625.14498 1.05150e-17
9626.00644 1.06082e-17
9626.86790 1.07011e-17
9627.72936 1.05622e-17
9628.59083 1.04227e-17
9629.45229 1.00791e-17
9630.31375 9.73491e-18
9631.17521 9.38989e-18
9632.04669 9.04481e-18
9632.90815 8.85622e-18
9633.76961 8.66808e-18
9634.63108 8.69735e-18
9635.49254 8.72728e-18
9636.35400 8.96793e-18
9637.21546 9.20920e-18
9638.07692 9.43296e-18
9638.93839 9.65664e-18
9639.79985 9.67480e-18
9640.67133 9.69230e-18
9641.53279 9.62265e-18
9642.39425 9.55272e-18
9643.25571 9.53290e-18
9644.11718 9.51326e-18
9644.97864 9.57652e-18
9645.84010 9.64016e-18
9646.70156 9.80002e-18
9647.56302 9.96017e-18
9648.42448 1.01098e-17
9649.28595 1.02594e-17
9650.15743 1.02598e-17
9651.01889 1.02596e-17
9651.88035 1.01101e-17
9652.74181 9.96017e-18
9653.60327 9.72324e-18
9654.46474 9.48594e-18
9655.32620 9.24721e-18
9656.18766 9.00845e-18
9657.04912 8.86684e-18
9657.91058 8.72553e-18
9658.77205 8.73628e-18
9659.64352 8.74751e-18
9660.50499 8.92416e-18
9661.36645 9.10132e-18
9662.22791 9.38794e-18
9663.08937 9.67489e-18
9663.95083 9.92543e-18
9664.81230 1.01759e-17
9665.67376 1.03058e-17
9666.53522 1.04355e-17
9667.39668 1.04896e-17
9668.25815 1.05435e-17
9669.11961 1.05474e-17
9669.99109 1.05511e-17
9670.85255 1.04615e-17
9671.71401 1.03716e-17
9672.57547 1.01767e-17
9673.43693 9.98147e-18
9674.29840 9.76094e-18
9675.15986 9.54022e-18
9676.02132 9.37350e-18
9676.88278 9.20697e-18
9677.74424 9.14958e-18
9678.61572 9.09252e-18
9679.47718 9.18121e-18
9680.33865 9.27031e-18
9681.20011 9.43203e-18
9682.06157 9.59384e-18
9682.92303 9.72676e-18
9683.78449 9.85958e-18
9684.64596 9.93358e-18
9685.50742 1.00073e-17
9686.36888 1.00182e-17
9687.23034 1.00290e-17
9688.10182 9.98740e-18
9688.96328 9.94572e-18
9689.82475 9.87736e-18
9690.68621 9.80891e-18
9691.54767 9.71842e-18
9692.40913 9.62784e-18
9693.27059 9.50159e-18
9694.13206 9.37516e-18
9694.99352 9.23176e-18
9695.85498 9.08829e-18
9696.71644 8.97868e-18
9697.57790 8.86917e-18
9698.44938 8.81868e-18
9699.31084 8.76836e-18
9700.17231 8.76737e-18
9701.03377 8.76654e-18
9701.89523 8.79422e-18
9702.75669 8.82198e-18
9703.61816 8.83200e-18
9704.47962 8.84195e-18
9705.34108 8.80438e-18
9706.20254 8.76666e-18
9707.06400 8.71035e-18
9707.93548 8.65399e-18
9708.79694 8.60888e-18
9709.65841 8.56381e-18
9710.51987 8.54620e-18
9711.38133 8.52868e-18
9712.24279 8.54922e-18
9713.10425 8.56987e-18
9713.96572 8.60016e-18
9714.82718 8.63047e-18
9715.68864 8.63630e-18
9716.55010 8.64207e-18
9717.41156 8.61367e-18
9718.28304 8.58517e-18
9719.14451 8.51859e-18
9720.00597 8.45189e-18
9720.86743 8.38276e-18
9721.72889 8.31362e-18
9722.59035 8.29669e-18
9723.45182 8.27993e-18
9724.31328 8.29117e-18
9725.17474 8.30251e-18
9726.03620 8.27045e-18
9726.89766 8.23826e-18
9727.76914 8.13759e-18
9728.63060 8.03671e-18
9729.49207 7.88072e-18
9730.35353 7.72455e-18
9731.21499 7.54652e-18
9732.07645 7.36841e-18
9732.93791 7.22953e-18
9733.79938 7.09078e-18
9734.66084 7.02921e-18
9735.52230 6.96787e-18
9736.38376 6.97617e-18
9737.25524 6.98469e-18
9738.11670 7.04571e-18
9738.97817 7.10690e-18
9739.83963 7.18687e-18
9740.70109 7.26691e-18
9741.56255 7.33243e-18
9742.42401 7.39791e-18
9743.28548 7.43128e-18
9744.14694 7.46456e-18
9745.00840 7.45529e-18
9745.86986 7.44590e-18
9746.74134 7.40822e-18
9747.60280 7.37047e-18
9748.46426 7.32392e-18
9749.32573 7.27734e-18
9750.18719 7.22655e-18
9751.04865 7.17575e-18
9751.91011 7.12317e-18
9752.77157 7.07059e-18
9753.63304 7.01450e-18
9754.49450 6.95840e-18
9755.35596 6.89516e-18
9756.22744 6.83189e-18
9757.08890 6.77465e-18
9757.95036 6.71743e-18
9758.81183 6.68565e-18
9759.67329 6.65395e-18
9760.53475 6.66266e-18
9761.39621 6.67150e-18
9762.25767 6.73361e-18
9763.11913 6.79589e-18
9763.98060 6.89185e-18
9764.84206 6.98790e-18
9765.71354 7.06263e-18
9766.57500 7.13729e-18
9767.43646 7.16378e-18
9768.29792 7.19012e-18
9769.15939 7.18608e-18
9770.02085 7.18194e-18
9770.88231 7.16246e-18
9771.74377 7.14292e-18
9772.60523 7.11552e-18
9773.46670 7.08811e-18
9774.32816 7.06237e-18
9775.19964 7.03662e-18
9776.06110 7.02010e-18
9776.92256 7.00359e-18
9777.78402 7.00132e-18
9778.64548 6.99910e-18
9779.50695 7.01753e-18
9780.36841 7.03603e-18
9781.22987 7.07694e-18
9782.09133 7.11792e-18
9782.95280 7.14590e-18
9783.81426 7.17384e-18
9784.68574 7.15039e-18
9785.54720 7.12677e-18
9786.40866 7.07054e-18
9787.27012 7.01421e-18
9788.13158 6.96028e-18
9788.99305 6.90635e-18
9789.85451 6.86707e-18
9790.71597 6.82783e-18
9791.57743 6.80834e-18
9792.43889 6.78890e-18
9793.30036 6.77604e-18
9794.16182 6.76321e-18
9795.03330 6.72933e-18
9795.89476 6.69540e-18
9796.75622 6.64858e-18
9797.61768 6.60173e-18
9798.47915 6.58236e-18
9799.34061 6.56308e-18
9800.20207 6.58466e-18
9801.06353 6.60637e-18
9801.92499 6.64975e-18
9802.78645 6.69320e-18
9803.64792 6.73906e-18
9804.51940 6.78492e-18
9805.38086 6.81057e-18
9806.24232 6.83617e-18
9807.10378 6.83063e-18
9807.96524 6.82498e-18
9808.82671 6.80999e-18
9809.68817 6.79497e-18
9810.54963 6.79124e-18
9811.41109 6.78755e-18
9812.27255 6.80817e-18
9813.13402 6.82888e-18
9813.99548 6.87993e-18
9814.86696 6.93108e-18
9815.72842 6.97624e-18
9816.58988 7.02137e-18
9817.45134 7.02203e-18
9818.31280 7.02256e-18
9819.17427 6.98385e-18
9820.03573 6.94503e-18
9820.89719 6.88321e-18
9821.75865 6.82131e-18
9822.62012 6.76019e-18
9823.48158 6.69907e-18
9824.35306 6.66643e-18
9825.21452 6.63387e-18
9826.07598 6.62564e-18
9826.93744 6.61750e-18
9827.79890 6.61123e-18
9828.66037 6.60497e-18
9829.52183 6.59510e-18
9830.38329 6.58521e-18
9831.24475 6.57840e-18
9832.10621 6.57159e-18
9832.97769 6.56629e-18
9833.83915 6.56099e-18
9834.70062 6.54848e-18
9835.56208 6.53595e-18
9836.42354 6.51220e-18
9837.28500 6.48841e-18
9838.14647 6.45578e-18
9839.00793 6.42312e-18
9839.86939 6.38427e-18
9840.73085 6.34540e-18
9841.59231 6.30170e-18
9842.45377 6.25798e-18
9843.32525 6.21442e-18
9844.18672 6.17085e-18
9845.04818 6.14287e-18
9845.90964 6.11492e-18
9846.77110 6.11467e-18
9847.63256 6.11450e-18
9848.49403 6.13822e-18
9849.35549 6.16200e-18
9850.21695 6.20278e-18
9851.07841 6.24362e-18
9851.93987 6.29486e-18
9852.81135 6.34614e-18
9853.67282 6.40004e-18
9854.53428 6.45395e-18
9855.39574 6.50560e-18
9856.25720 6.55722e-18
9857.11866 6.60297e-18
9857.98013 6.64870e-18
9858.84159 6.67876e-18
9859.70305 6.70877e-18
9860.56451 6.71194e-18
9861.42597 6.71503e-18
9862.29745 6.68979e-18
9863.15891 6.66447e-18
9864.02038 6.61563e-18
9864.88184 6.56672e-18
9865.74330 6.50319e-18
9866.60476 6.43960e-18
9867.46622 6.37413e-18
9868.32769 6.30865e-18
9869.18915 6.24854e-18
9870.05061 6.18845e-18
9870.92209 6.13285e-18
9871.78355 6.07728e-18
9872.64501 6.02716e-18
9873.50648 5.97706e-18
9874.36794 5.93672e-18
9875.22940 5.89640e-18
9876.09086 5.86921e-18
9876.95232 5.84208e-18
9877.81379 5.83118e-18
9878.67525 5.82035e-18
9879.53671 5.82717e-18
9880.39817 5.83405e-18
9881.26965 5.85643e-18
9882.13111 5.87886e-18
9882.99257 5.91276e-18
9883.85404 5.94670e-18
9884.71550 5.98481e-18
9885.57696 6.02292e-18
9886.43842 6.05728e-18
9887.29988 6.09164e-18
9888.16135 6.11482e-18
9889.02281 6.13798e-18
9889.88427 6.14377e-18
9890.74573 6.14949e-18
9891.61721 6.13772e-18
9892.47867 6.12590e-18
9893.34014 6.09971e-18
9894.20160 6.07348e-18
9895.06306 6.03626e-18
9895.92452 5.99899e-18
9896.78598 5.95426e-18
9897.64745 5.90951e-18
9898.50891 5.86310e-18
9899.37037 5.81668e-18
9900.23183 5.77627e-18
9901.09329 5.73587e-18
9901.96477 5.70273e-18
9902.82623 5.66961e-18
9903.68770 5.63721e-18
9904.54916 5.60482e-18
9905.41062 5.57466e-18
9906.27208 5.54452e-18
9907.13354 5.53083e-18
9907.99501 5.51717e-18
9908.85647 5.52670e-18
9909.71793 5.53629e-18
9910.57939 5.56256e-18
9911.45087 5.58887e-18
9912.31233 5.62132e-18
9913.17380 5.65378e-18
9914.03526 5.67009e-18
9914.89672 5.68636e-18
9915.75818 5.66881e-18
9916.61964 5.65116e-18
9917.48111 5.60595e-18
9918.34257 5.56066e-18
9919.20403 5.49862e-18
9920.07551 5.43654e-18
9920.93697 5.36998e-18
9921.79843 5.30341e-18
9922.65989 5.24484e-18
9923.52136 5.18632e-18
9924.38282 5.14125e-18
9925.24428 5.09622e-18
9926.10574 5.06679e-18
9926.96720 5.03741e-18
9927.82867 5.01547e-18
9928.69013 4.99354e-18
9929.56161 4.96613e-18
9930.42307 4.93871e-18
9931.28453 4.90161e-18
9932.14599 4.86449e-18
9933.00746 4.81956e-18
9933.86892 4.77460e-18
9934.73038 4.72564e-18
9935.59184 4.67667e-18
9936.45330 4.62919e-18
9937.31477 4.58171e-18
9938.17623 4.54300e-18
9939.03769 4.50431e-18
9939.90917 4.48350e-18
9940.77063 4.46274e-18
9941.63209 4.46234e-18
9942.49355 4.46201e-18
9943.35502 4.47256e-18
9944.21648 4.48314e-18
9945.07794 4.49646e-18
9945.93940 4.50979e-18
9946.80086 4.52382e-18
9947.66233 4.53787e-18
9948.52379 4.55023e-18
9949.39527 4.56260e-18
9950.25673 4.56877e-18
9951.11819 4.57492e-18
9951.97965 4.57196e-18
9952.84112 4.56899e-18
9953.70258 4.56278e-18
9954.56404 4.55657e-18
9955.42550 4.55356e-18
9956.28696 4.55056e-18
9957.14843 4.54643e-18
9958.00989 4.54230e-18
9958.88137 4.53111e-18
9959.74283 4.51989e-18
9960.60429 4.49859e-18
9961.46575 4.47726e-18
9962.32721 4.44389e-18
9963.18868 4.41048e-18
9964.05014 4.37503e-18
9964.91160 4.33957e-18
9965.77306 4.31872e-18
9966.63452 4.29792e-18
9967.49599 4.29558e-18
9968.36747 4.29331e-18
9969.22893 4.30306e-18
9970.09039 4.31284e-18
9970.95185 4.33367e-18
9971.81331 4.35454e-18
9972.67477 4.39124e-18
9973.53624 4.42798e-18
9974.39770 4.47855e-18
9975.25916 4.52916e-18
9976.12062 4.58278e-18
9976.98208 4.63640e-18
9977.85356 4.68445e-18
9978.71503 4.73248e-18
9979.57649 4.77085e-18
9980.43795 4.80919e-18
9981.29941 4.83642e-18
9982.16087 4.86362e-18
9983.02234 4.88551e-18
9983.88380 4.90738e-18
9984.74526 4.92977e-18
9985.60672 4.95217e-18
9986.46818 4.97796e-18
9987.32965 5.00376e-18
9988.20112 5.03446e-18
9989.06259 5.06518e-18
9989.92405 5.08997e-18
9990.78551 5.11475e-18
9991.64697 5.12137e-18
9992.50843 5.12794e-18
9993.36990 5.12559e-18
9994.23136 5.12322e-18
9995.09282 5.12764e-18
9995.95428 5.13209e-18
9996.81574 5.14059e-18
9997.67721 5.14911e-18
9998.54869 5.15168e-18
9999.41015 5.15421e-18
