# wavelength flux
3469.89882 3.86051e-18
3471.36130 3.86068e-18
3472.83380 3.90344e-18
3474.30630 4.14022e-18
3475.77880 4.13714e-18
3477.24128 3.54338e-18
3478.71378 3.47733e-18
3480.18628 4.04913e-18
3481.65878 4.65335e-18
3483.12126 4.49830e-18
3484.59376 4.21301e-18
3486.06626 4.23971e-18
3487.53875 4.20109e-18
3489.00124 4.13840e-18
3490.47374 3.65953e-18
3491.94623 3.49553e-18
3493.41873 3.76338e-18
3494.88121 3.49048e-18
3496.35371 4.24081e-18
3497.82621 3.93201e-18
3499.29871 3.60365e-18
3500.76119 3.77185e-18
3502.23369 3.55094e-18
3503.70619 3.62157e-18
3505.17869 3.65386e-18
3506.64117 4.04143e-18
3508.11367 4.53824e-18
3509.58617 4.34931e-18
3511.05867 4.27940e-18
3512.52115 4.23898e-18
3513.99365 4.24460e-18
3515.46615 4.01179e-18
3516.93865 4.03932e-18
3518.40113 4.30864e-18
3519.87363 4.35013e-18
3521.34613 3.89876e-18
3522.81863 3.38155e-18
3524.28111 3.61461e-18
3525.75361 3.91266e-18
3527.22611 3.60987e-18
3528.69861 3.71402e-18
3530.16109 4.11528e-18
3531.63359 4.38697e-18
3533.10609 4.49664e-18
3534.57859 4.49008e-18
3536.04107 3.94183e-18
3537.51357 4.18306e-18
3538.98607 4.30842e-18
3540.45856 4.13086e-18
3541.92105 4.48879e-18
3543.39355 4.72300e-18
3544.86605 3.80089e-18
3546.33854 4.13447e-18
3547.80103 4.26074e-18
3549.27353 4.27130e-18
3550.74602 4.32384e-18
3552.21852 4.20732e-18
3553.68101 3.81034e-18
3555.15350 4.36751e-18
3556.62600 4.64406e-18
3558.08849 4.09028e-18
3559.56098 4.00850e-18
3561.03348 4.34944e-18
3562.50598 4.71201e-18
3563.97848 4.24895e-18
3565.44096 3.75403e-18
3566.91346 3.80299e-18
3568.38596 3.96943e-18
3569.84844 3.80540e-18
3571.32094 3.81185e-18
3572.79344 4.13038e-18
3574.26594 4.78336e-18
3575.72842 4.56746e-18
3577.20092 3.95206e-18
3578.67342 4.01813e-18
3580.14592 3.92214e-18
3581.60840 4.09209e-18
3583.08090 4.09215e-18
3584.55340 4.25050e-18
3586.02590 4.32911e-18
3587.48838 4.04942e-18
3588.96088 4.38798e-18
3590.43338 4.77274e-18
3591.90588 4.73751e-18
3593.36836 4.54146e-18
3594.84086 4.37227e-18
3596.31336 4.26856e-18
3597.78586 4.09278e-18
3599.24834 4.12108e-18
3600.72084 4.29419e-18
3602.19334 4.22914e-18
3603.66584 4.16729e-18
3605.12832 3.93552e-18
3606.60082 3.85265e-18
3608.07332 4.00902e-18
3609.54581 4.13866e-18
3611.00830 3.95929e-18
3612.48079 3.94602e-18
3613.95329 4.17976e-18
3615.42579 4.02982e-18
3616.88828 4.26349e-18
3618.36077 4.10097e-18
3619.83327 4.14212e-18
3621.30577 3.83005e-18
3622.76825 4.20177e-18
3624.24075 4.37025e-18
3625.71325 4.08744e-18
3627.18575 4.29551e-18
3628.64823 4.15495e-18
3630.12073 3.94047e-18
3631.59323 4.16195e-18
3633.06573 4.00513e-18
3634.52821 3.82184e-18
3636.00071 3.90509e-18
3637.47321 4.34570e-18
3638.94571 4.48807e-18
3640.40819 4.18995e-18
3641.88069 4.17874e-18
3643.35319 4.16719e-18
3644.82569 4.06638e-18
3646.28817 4.50862e-18
3647.76067 4.78742e-18
3649.23317 4.51951e-18
3650.70567 4.86206e-18
3652.16815 5.25402e-18
3653.64065 5.24858e-18
3655.11315 5.13173e-18
3656.58565 5.33918e-18
3658.04813 5.58726e-18
3659.52063 5.67782e-18
3660.99313 5.76325e-18
3662.45561 5.71320e-18
3663.92811 5.49300e-18
3665.40061 5.40259e-18
3666.87311 5.78892e-18
3668.33559 6.24658e-18
3669.80809 6.12229e-18
3671.28059 6.13786e-18
3672.75308 6.52898e-18
3674.21557 6.68956e-18
3675.68806 6.65113e-18
3677.16056 6.77340e-18
3678.63306 7.32242e-18
3680.09555 7.40298e-18
3681.56804 7.52759e-18
3683.04054 7.74583e-18
3684.51304 7.64646e-18
3685.97552 7.66447e-18
3687.44802 8.06904e-18
3688.92052 8.77969e-18
3690.39302 8.83946e-18
3691.85550 9.04536e-18
3693.32800 8.73545e-18
3694.80050 8.59487e-18
3696.27300 8.69431e-18
3697.73548 8.91201e-18
3699.20798 9.00849e-18
3700.68048 8.43793e-18
3702.15298 8.08043e-18
3703.61546 8.89572e-18
3705.08796 8.43600e-18
3706.56046 8.56595e-18
3708.03296 8.90207e-18
3709.49544 8.76480e-18
3710.96794 8.30819e-18
3712.44044 8.07451e-18
3713.91294 7.73454e-18
3715.37542 7.57465e-18
3716.84792 7.41482e-18
3718.32042 7.29118e-18
3719.79292 7.16756e-18
3721.25540 7.04396e-18
3722.72790 6.92039e-18
3724.20040 6.79687e-18
3725.67290 6.67335e-18
3727.13538 6.54985e-18
3728.60788 6.42640e-18
3730.08038 6.30296e-18
3731.55287 6.17955e-18
3733.01536 6.05615e-18
3734.48786 5.93276e-18
3735.96035 5.80943e-18
3737.43285 5.68610e-18
3738.89534 5.56282e-18
3740.36783 5.43954e-18
3741.84033 5.31628e-18
3743.31283 5.19307e-18
3744.77531 5.06986e-18
3746.24781 4.94668e-18
3747.72031 4.82352e-18
3749.19281 4.70038e-18
3750.65529 4.57728e-18
3752.12779 4.45419e-18
3753.60029 4.33114e-18
3755.06277 4.07938e-18
3756.53527 4.01938e-18
3758.00777 4.21078e-18
3759.48027 4.23529e-18
3760.94275 3.99945e-18
3762.41525 3.66165e-18
3763.88775 3.85005e-18
3765.36025 4.04729e-18
3766.82273 3.73707e-18
3768.29523 3.77548e-18
3769.76773 3.57403e-18
3771.24023 3.99511e-18
3772.70271 3.98579e-18
3774.17521 3.64373e-18
3775.64771 3.70285e-18
3777.12021 3.49241e-18
3778.58269 3.44375e-18
3780.05519 3.67958e-18
3781.52769 4.00346e-18
3783.00019 3.83417e-18
3784.46267 3.49621e-18
3785.93517 3.73436e-18
3787.40767 4.13018e-18
3788.88017 4.03415e-18
3790.34265 4.10711e-18
3791.81515 3.65536e-18
3793.28764 3.84426e-18
3794.76014 4.01535e-18
3796.22263 3.75742e-18
3797.69513 3.93403e-18
3799.16762 4.11496e-18
3800.64012 4.08656e-18
3802.10261 3.95557e-18
3803.57510 4.09706e-18
3805.04760 4.09580e-18
3806.52010 4.31230e-18
3807.98258 4.01269e-18
3809.45508 4.17948e-18
3810.92758 4.10513e-18
3812.40008 4.33158e-18
3813.86256 4.69002e-18
3815.33506 5.13170e-18
3816.80756 4.70733e-18
3818.28006 4.32708e-18
3819.74254 4.20835e-18
3821.21504 4.56152e-18
3822.68754 4.60318e-18
3824.16004 4.25571e-18
3825.62252 4.46687e-18
3827.09502 4.87714e-18
3828.56752 4.85116e-18
3830.04002 4.87447e-18
3831.50250 4.83165e-18
3832.97500 4.78538e-18
3834.44750 4.63141e-18
3835.92000 4.99542e-18
3837.38248 5.16714e-18
3838.85498 5.17645e-18
3840.32748 5.44176e-18
3841.78996 5.61870e-18
3843.26246 5.65271e-18
3844.73496 5.96329e-18
3846.20746 6.22177e-18
3847.67996 5.72190e-18
3849.14244 5.73246e-18
3850.61494 6.32685e-18
3852.08744 6.77201e-18
3853.54992 6.70095e-18
3855.02242 6.58123e-18
3856.49491 7.03205e-18
3857.96741 7.38064e-18
3859.42990 7.06632e-18
3860.90240 7.05841e-18
3862.37489 7.58274e-18
3863.84739 7.63164e-18
3865.30987 7.87426e-18
3866.78237 8.16056e-18
3868.25487 7.97592e-18
3869.72737 8.31078e-18
3871.18985 8.67907e-18
3872.66235 8.51939e-18
3874.13485 9.19277e-18
3875.60735 9.27191e-18
3877.06983 9.30724e-18
3878.54233 9.75742e-18
3880.01483 1.03205e-17
3881.48733 1.02789e-17
3882.94981 1.04438e-17
3884.42231 1.06176e-17
3885.89481 1.09526e-17
3887.36731 1.06795e-17
3888.82979 1.08947e-17
3890.30229 1.11599e-17
3891.77479 1.21630e-17
3893.24729 1.25324e-17
3894.70977 1.25882e-17
3896.18227 1.23951e-17
3897.65477 1.26706e-17
3899.12727 1.29802e-17
3900.58975 1.27545e-17
3902.06225 1.31554e-17
3903.53475 1.33667e-17
3905.00725 1.35857e-17
3906.46973 1.39577e-17
3907.94223 1.37186e-17
3909.41473 1.38069e-17
3910.88722 1.41855e-17
3912.34971 1.42115e-17
3913.82221 1.42798e-17
3915.29471 1.43160e-17
3916.76720 1.44104e-17
3918.22969 1.42660e-17
3919.70219 1.43987e-17
3921.17468 1.43038e-17
3922.64718 1.43606e-17
3924.10966 1.48408e-17
3925.58216 1.49502e-17
3927.05466 1.43787e-17
3928.52716 1.38392e-17
3929.98964 1.39172e-17
3931.46214 1.38710e-17
3932.93464 1.35696e-17
3934.40714 1.33699e-17
3935.86962 1.37926e-17
3937.34212 1.41209e-17
3938.81462 1.39198e-17
3940.27710 1.40637e-17
3941.74960 1.45502e-17
3943.22210 1.50594e-17
3944.69460 1.53927e-17
3946.15708 1.56460e-17
3947.62958 1.58102e-17
3949.10208 1.54134e-17
3950.57458 1.53849e-17
3952.03706 1.61121e-17
3953.50956 1.62475e-17
3954.98206 1.55716e-17
3956.45456 1.55396e-17
3957.91704 1.58549e-17
3959.38954 1.58635e-17
3960.86204 1.56856e-17
3962.33454 1.58409e-17
3963.79702 1.56030e-17
3965.26952 1.51472e-17
3966.74202 1.50833e-17
3968.21452 1.51470e-17
3969.67700 1.52183e-17
3971.14950 1.59412e-17
3972.62200 1.64917e-17
3974.09449 1.62117e-17
3975.55698 1.62155e-17
3977.02948 1.63683e-17
3978.50198 1.69710e-17
3979.97447 1.76760e-17
3981.43696 1.74637e-17
3982.90946 1.72267e-17
3984.38195 1.73049e-17
3985.85445 1.75436e-17
3987.31694 1.75043e-17
3988.78943 1.79913e-17
3990.26193 1.84131e-17
3991.73443 1.83341e-17
3993.19691 1.81278e-17
3994.66941 1.78367e-17
3996.14191 1.80566e-17
3997.61441 1.84020e-17
3999.07689 1.86910e-17
4000.54939 1.87002e-17
4002.02189 1.88082e-17
4003.49439 1.89918e-17
4004.95687 1.90338e-17
4006.42937 1.87905e-17
4007.90187 1.89491e-17
4009.37437 1.90556e-17
4010.83685 1.91828e-17
4012.30935 1.93032e-17
4013.78185 1.88283e-17
4015.25435 1.88265e-17
4016.71683 1.91416e-17
4018.18933 1.90247e-17
4019.66183 1.87718e-17
4021.13433 1.86407e-17
4022.59681 1.86195e-17
4024.06931 1.83768e-17
4025.54181 1.83689e-17
4027.01431 1.79746e-17
4028.47679 1.75871e-17
4029.94929 1.80519e-17
4031.42179 1.76416e-17
4032.89429 1.69500e-17
4034.35677 1.66916e-17
4035.82927 1.67872e-17
4037.30177 1.70883e-17
4038.76425 1.69889e-17
4040.23675 1.64352e-17
4041.70925 1.57930e-17
4043.18174 1.53907e-17
4044.64423 1.57829e-17
4046.11673 1.57956e-17
4047.58922 1.50559e-17
4049.06172 1.52564e-17
4050.52421 1.48705e-17
4051.99670 1.47219e-17
4053.46920 1.46918e-17
4054.94170 1.42308e-17
4056.40418 1.40944e-17
4057.87668 1.40136e-17
4059.34918 1.36776e-17
4060.82168 1.36704e-17
4062.28416 1.33332e-17
4063.75666 1.32646e-17
4065.22916 1.35303e-17
4066.70166 1.31953e-17
4068.16414 1.25912e-17
4069.63664 1.24264e-17
4071.10914 1.25408e-17
4072.58164 1.22837e-17
4074.04412 1.20078e-17
4075.51662 1.21887e-17
4076.98912 1.22702e-17
4078.46162 1.17395e-17
4079.92410 1.17000e-17
4081.39660 1.16483e-17
4082.86910 1.15092e-17
4084.34160 1.16771e-17
4085.80408 1.16088e-17
4087.27658 1.14143e-17
4088.74908 1.11160e-17
4090.22158 1.12925e-17
4091.68406 1.13809e-17
4093.15656 1.09576e-17
4094.62906 1.11749e-17
4096.10156 1.10183e-17
4097.56404 1.07739e-17
4099.03654 1.06341e-17
4100.50904 1.03242e-17
4101.98153 1.04668e-17
4103.44402 1.05680e-17
4104.91651 1.07101e-17
4106.38901 1.05464e-17
4107.86151 1.04240e-17
4109.32400 1.05177e-17
4110.79649 1.02615e-17
4112.26899 1.01788e-17
4113.74149 1.00554e-17
4115.20397 9.99205e-18
4116.67647 9.93148e-18
4118.14897 9.65399e-18
4119.62147 9.37051e-18
4121.08395 9.32642e-18
4122.55645 9.28092e-18
4124.02895 9.12039e-18
4125.50145 9.04550e-18
4126.96393 9.00615e-18
4128.43643 8.82453e-18
4129.90893 8.37524e-18
4131.38143 8.78752e-18
4132.84391 8.97437e-18
4134.31641 9.02628e-18
4135.78891 9.09563e-18
4137.25139 9.17729e-18
4138.72389 9.13023e-18
4140.19639 8.88416e-18
4141.66889 9.18933e-18
4143.13137 9.14996e-18
4144.60387 8.84025e-18
4146.07637 8.92318e-18
4147.54887 8.98980e-18
4149.01135 9.06361e-18
4150.48385 8.89095e-18
4151.95635 8.97649e-18
4153.42885 8.76911e-18
4154.89133 8.71599e-18
4156.36383 8.81027e-18
4157.83633 8.79069e-18
4159.30883 8.73164e-18
4160.77131 8.83478e-18
4162.24381 8.62974e-18
4163.71630 8.46791e-18
4165.18880 8.57878e-18
4166.65129 8.26913e-18
4168.12379 8.36333e-18
4169.59628 8.19508e-18
4171.06878 8.06616e-18
4172.53126 7.92992e-18
4174.00376 8.18484e-18
4175.47626 7.97967e-18
4176.94876 7.64930e-18
4178.41124 7.79266e-18
4179.88374 7.92927e-18
4181.35624 7.72902e-18
4182.82874 7.80089e-18
4184.29122 7.93926e-18
4185.76372 7.77888e-18
4187.23622 7.60369e-18
4188.70872 7.61287e-18
4190.17120 7.81124e-18
4191.64370 7.88655e-18
4193.11620 7.75255e-18
4194.58870 7.80384e-18
4196.05118 7.68699e-18
4197.52368 8.01099e-18
4198.99618 8.04828e-18
4200.46868 7.98773e-18
4201.93116 8.08773e-18
4203.40366 8.08875e-18
4204.87616 7.98553e-18
4206.34866 8.32911e-18
4207.81114 8.63219e-18
4209.28364 8.68970e-18
4210.75614 8.84707e-18
4212.22864 8.72660e-18
4213.69112 8.79437e-18
4215.16362 8.77593e-18
4216.63612 8.83810e-18
4218.10862 8.72636e-18
4219.57110 8.87078e-18
4221.04360 9.04184e-18
4222.51610 8.83000e-18
4223.97858 8.86136e-18
4225.45108 9.08098e-18
4226.92357 9.16041e-18
4228.39607 9.26724e-18
4229.86857 9.20063e-18
4231.33105 9.27116e-18
4232.80355 9.33554e-18
4234.27605 9.47452e-18
4235.73854 9.43799e-18
4237.21103 9.17915e-18
4238.68353 9.48455e-18
4240.15603 9.65575e-18
4241.61851 9.41020e-18
4243.09101 9.49773e-18
4244.56351 9.54754e-18
4246.03601 9.16690e-18
4247.49849 9.36924e-18
4248.97099 9.40794e-18
4250.44349 9.39253e-18
4251.91599 9.65407e-18
4253.37847 9.39345e-18
4254.85097 9.22306e-18
4256.32347 9.10509e-18
4257.79597 9.34218e-18
4259.25845 9.22553e-18
4260.73095 9.15773e-18
4262.20345 9.17420e-18
4263.67595 9.30867e-18
4265.13843 9.09998e-18
4266.61093 9.03141e-18
4268.08343 9.04099e-18
4269.55593 9.07393e-18
4271.01841 9.09201e-18
4272.49091 9.05693e-18
4273.96341 8.98847e-18
4275.43591 9.01497e-18
4276.89839 9.03753e-18
4278.37089 8.90962e-18
4279.84339 8.82128e-18
4281.31588 8.93032e-18
4282.77837 8.96014e-18
4284.25087 8.85518e-18
4285.72336 8.77237e-18
4287.19586 8.88110e-18
4288.65835 8.88147e-18
4290.13085 8.79418e-18
4291.60334 8.95065e-18
4293.07584 9.23211e-18
4294.53833 9.00170e-18
4296.01082 8.83729e-18
4297.48332 9.07337e-18
4298.95582 9.22057e-18
4300.41830 9.04969e-18
4301.89080 8.96111e-18
4303.36330 9.24560e-18
4304.83580 9.05064e-18
4306.29828 8.77826e-18
4307.77078 9.13573e-18
4309.24328 9.26646e-18
4310.71578 9.33942e-18
4312.17826 9.27966e-18
4313.65076 9.37383e-18
4315.12326 9.86083e-18
4316.59576 9.98319e-18
4318.05824 9.83454e-18
4319.53074 9.67199e-18
4321.00324 9.74577e-18
4322.47574 9.72518e-18
4323.93822 9.91380e-18
4325.41072 9.77145e-18
4326.88322 9.81195e-18
4328.34570 1.00526e-17
4329.81820 1.00497e-17
4331.29070 9.65135e-18
4332.76320 9.58607e-18
4334.22568 9.73395e-18
4335.69818 9.59063e-18
4337.17068 9.67772e-18
4338.64318 9.38246e-18
4340.10566 9.30636e-18
4341.57816 9.28521e-18
4343.05066 9.56856e-18
4344.52315 9.65224e-18
4345.98564 9.86653e-18
4347.45814 1.01614e-17
4348.93064 9.87903e-18
4350.40313 9.87003e-18
4351.86562 9.91639e-18
4353.33811 9.86441e-18
4354.81061 9.81244e-18
4356.28311 9.76045e-18
4357.74560 9.70849e-18
4359.21809 9.65652e-18
4360.69059 9.60459e-18
4362.16309 9.55263e-18
4363.62557 9.50070e-18
4365.09807 9.44876e-18
4366.57057 9.39682e-18
4368.04307 9.34492e-18
4369.50555 9.29300e-18
4370.97805 9.24110e-18
4372.45055 9.18919e-18
4373.92305 9.13731e-18
4375.38553 9.08543e-18
4376.85803 9.03354e-18
4378.33053 8.98168e-18
4379.80303 8.92981e-18
4381.26551 8.87796e-18
4382.73801 8.82611e-18
4384.21051 8.77428e-18
4385.68301 8.72243e-18
4387.14549 8.67061e-18
4388.61799 8.61878e-18
4390.09049 8.56697e-18
4391.56299 8.75991e-18
4393.02547 8.56519e-18
4394.49797 8.51514e-18
4395.97047 8.37858e-18
4397.44297 8.09430e-18
4398.90545 8.21494e-18
4400.37795 8.16189e-18
4401.85045 7.94974e-18
4403.32295 7.81154e-18
4404.78543 7.60178e-18
4406.25793 7.53242e-18
4407.73042 7.68878e-18
4409.20292 7.68608e-18
4410.66541 7.92080e-18
4412.13790 7.97323e-18
4413.61040 7.87750e-18
4415.07289 7.61506e-18
4416.54539 7.47245e-18
4418.01788 7.31463e-18
4419.49038 7.58101e-18
4420.95287 7.46871e-18
4422.42536 7.34739e-18
4423.89786 7.17646e-18
4425.37036 7.34782e-18
4426.83284 7.33509e-18
4428.30534 7.21869e-18
4429.77784 7.46543e-18
4431.25034 7.58350e-18
4432.71282 7.55345e-18
4434.18532 7.75774e-18
4435.65782 7.67067e-18
4437.13032 7.66889e-18
4438.59280 7.77109e-18
4440.06530 7.89782e-18
4441.53780 7.86329e-18
4443.01030 7.63478e-18
4444.47278 7.59759e-18
4445.94528 7.56775e-18
4447.41778 7.64263e-18
4448.89028 7.87841e-18
4450.35276 7.86672e-18
4451.82526 7.92860e-18
4453.29776 8.10143e-18
4454.77026 8.42072e-18
4456.23274 8.52032e-18
4457.70524 8.28847e-18
4459.17774 8.47978e-18
4460.65024 8.83626e-18
4462.11272 8.81382e-18
4463.58522 8.96972e-18
4465.05772 8.93151e-18
4466.53021 8.81909e-18
4467.99270 9.18346e-18
4469.46520 9.24171e-18
4470.93770 9.46587e-18
4472.41019 9.64978e-18
4473.87268 9.57571e-18
4475.34518 9.99751e-18
4476.81767 1.02072e-17
4478.29017 1.00502e-17
4479.75266 1.03342e-17
4481.22515 1.05012e-17
4482.69765 1.06201e-17
4484.17015 1.09763e-17
4485.63263 1.12061e-17
4487.10513 1.12233e-17
4488.57763 1.17439e-17
4490.05013 1.17868e-17
4491.51261 1.17186e-17
4492.98511 1.21747e-17
4494.45761 1.22933e-17
4495.93011 1.21992e-17
4497.39259 1.25513e-17
4498.86509 1.27502e-17
4500.33759 1.27834e-17
4501.81009 1.30174e-17
4503.27257 1.33575e-17
4504.74507 1.32420e-17
4506.21757 1.31571e-17
4507.69007 1.33522e-17
4509.15255 1.34055e-17
4510.62505 1.33378e-17
4512.09755 1.34606e-17
4513.57005 1.35002e-17
4515.03253 1.32396e-17
4516.50503 1.35632e-17
4517.97753 1.37907e-17
4519.44001 1.38213e-17
4520.91251 1.38307e-17
4522.38501 1.36966e-17
4523.85751 1.39513e-17
4525.31999 1.36132e-17
4526.79249 1.40149e-17
4528.26499 1.41308e-17
4529.73749 1.41324e-17
4531.19997 1.42116e-17
4532.67247 1.45208e-17
4534.14497 1.43140e-17
4535.61746 1.46779e-17
4537.07995 1.50039e-17
4538.55245 1.51491e-17
4540.02494 1.50028e-17
4541.49744 1.52304e-17
4542.95993 1.52702e-17
4544.43242 1.54049e-17
4545.90492 1.54450e-17
4547.37742 1.57362e-17
4548.83990 1.60544e-17
4550.31240 1.63015e-17
4551.78490 1.58555e-17
4553.25740 1.66894e-17
4554.71988 1.67937e-17
4556.19238 1.65928e-17
4557.66488 1.67656e-17
4559.13738 1.68823e-17
4560.59986 1.72979e-17
4562.07236 1.75265e-17
4563.54486 1.76590e-17
4565.01736 1.79545e-17
4566.47984 1.79703e-17
4567.95234 1.80121e-17
4569.42484 1.82645e-17
4570.89734 1.79589e-17
4572.35982 1.84996e-17
4573.83232 1.86695e-17
4575.30482 1.88002e-17
4576.77732 1.84939e-17
4578.23980 1.89935e-17
4579.71230 1.92623e-17
4581.18480 1.93590e-17
4582.65730 1.94229e-17
4584.11978 1.92007e-17
4585.59228 1.92310e-17
4587.06478 1.91660e-17
4588.53728 2.01100e-17
4589.99976 2.00353e-17
4591.47226 1.97988e-17
4592.94475 1.98301e-17
4594.41725 2.01740e-17
4595.87974 2.07726e-17
4597.35224 2.02735e-17
4598.82473 2.00376e-17
4600.29723 1.98237e-17
4601.75972 1.81124e-17
4603.23221 1.98820e-17
4604.70471 2.04816e-17
4606.16720 2.05596e-17
4607.63969 2.04350e-17
4609.11219 2.04994e-17
4610.58469 2.02536e-17
4612.04717 2.00217e-17
4613.51967 2.01077e-17
4614.99217 1.98916e-17
4616.46467 2.02482e-17
4617.92715 2.00467e-17
4619.39965 1.98831e-17
4620.87215 1.96128e-17
4622.34465 1.99898e-17
4623.80713 2.00530e-17
4625.27963 1.95612e-17
4626.75213 1.95630e-17
4628.22463 1.94020e-17
4629.68711 1.94210e-17
4631.15961 1.92004e-17
4632.63211 1.90274e-17
4634.10461 1.88813e-17
4635.56709 1.87357e-17
4637.03959 1.91163e-17
4638.51209 1.88781e-17
4639.98459 1.87195e-17
4641.44707 1.81952e-17
4642.91957 1.83908e-17
4644.39207 1.81928e-17
4645.86457 1.75774e-17
4647.32705 1.75265e-17
4648.79955 1.77024e-17
4650.27205 1.73570e-17
4651.74455 1.73648e-17
4653.20703 1.70523e-17
4654.67953 1.67213e-17
4656.15203 1.71116e-17
4657.62452 1.70713e-17
4659.08701 1.67045e-17
4660.55951 1.66377e-17
4662.03200 1.67061e-17
4663.50450 1.65456e-17
4664.96699 1.64333e-17
4666.43948 1.65642e-17
4667.91198 1.63960e-17
4669.38448 1.67156e-17
4670.84696 1.65258e-17
4672.31946 1.61826e-17
4673.79196 1.62283e-17
4675.26446 1.63967e-17
4676.72694 1.63135e-17
4678.19944 1.62066e-17
4679.67194 1.64858e-17
4681.14444 1.62185e-17
4682.60692 1.62593e-17
4684.07942 1.59644e-17
4685.55192 1.59685e-17
4687.02442 1.60469e-17
4688.48690 1.58379e-17
4689.95940 1.57432e-17
4691.43190 1.58911e-17
4692.90440 1.56845e-17
4694.36688 1.55473e-17
4695.83938 1.58336e-17
4697.31188 1.55417e-17
4698.78438 1.57037e-17
4700.24686 1.55740e-17
4701.71936 1.55370e-17
4703.19186 1.54023e-17
4704.65434 1.52131e-17
4706.12684 1.48562e-17
4707.59934 1.51301e-17
4709.07184 1.53950e-17
4710.53432 1.51473e-17
4712.00682 1.49562e-17
4713.47932 1.48360e-17
4714.95182 1.50448e-17
4716.41430 1.48848e-17
4717.88680 1.46512e-17
4719.35930 1.45039e-17
4720.83179 1.42749e-17
4722.29428 1.45216e-17
4723.76678 1.47229e-17
4725.23927 1.44040e-17
4726.71177 1.40486e-17
4728.17425 1.41173e-17
4729.64675 1.41538e-17
4731.11925 1.39812e-17
4732.59175 1.38189e-17
4734.05423 1.36300e-17
4735.52673 1.37955e-17
4736.99923 1.38638e-17
4738.47173 1.37406e-17
4739.93421 1.37338e-17
4741.40671 1.37864e-17
4742.87921 1.39004e-17
4744.35171 1.34206e-17
4745.81419 1.33407e-17
4747.28669 1.32354e-17
4748.75919 1.33390e-17
4750.23169 1.33164e-17
4751.69417 1.32975e-17
4753.16667 1.32712e-17
4754.63917 1.31426e-17
4756.11167 1.28336e-17
4757.57415 1.28737e-17
4759.04665 1.27938e-17
4760.51915 1.27731e-17
4761.99165 1.25615e-17
4763.45413 1.24070e-17
4764.92663 1.25464e-17
4766.39913 1.21724e-17
4767.87163 1.20653e-17
4769.33411 1.18871e-17
4770.80661 1.15467e-17
4772.27911 1.16653e-17
4773.75160 1.15526e-17
4775.21409 1.12687e-17
4776.68659 1.13181e-17
4778.15909 1.13309e-17
4779.63158 1.09626e-17
4781.09407 1.07573e-17
4782.56657 1.08483e-17
4784.03906 1.06470e-17
4785.51156 1.04717e-17
4786.97405 1.03264e-17
4788.44654 1.01240e-17
4789.91904 1.01920e-17
4791.38152 9.68864e-18
4792.85402 9.79834e-18
4794.32652 9.80069e-18
4795.79902 9.81350e-18
4797.26150 9.55434e-18
4798.73400 9.52996e-18
4800.20650 9.48399e-18
4801.67900 9.58654e-18
4803.14148 9.63161e-18
4804.61398 9.81857e-18
4806.08648 9.69555e-18
4807.55898 9.81106e-18
4809.02146 1.00655e-17
4810.49396 1.02858e-17
4811.96646 1.01818e-17
4813.43896 1.04177e-17
4814.90144 1.04088e-17
4816.37394 1.07825e-17
4817.84644 1.09809e-17
4819.31894 1.11283e-17
4820.78142 1.13135e-17
4822.25392 1.14114e-17
4823.72642 1.15438e-17
4825.19892 1.16978e-17
4826.66140 1.17608e-17
4828.13390 1.21153e-17
4829.60640 1.21592e-17
4831.07890 1.22688e-17
4832.54138 1.27111e-17
4834.01388 1.27972e-17
4835.48638 1.31978e-17
4836.95888 1.33362e-17
4838.42136 1.32378e-17
4839.89386 1.31624e-17
4841.36636 1.31859e-17
4842.83885 1.34281e-17
4844.30134 1.35157e-17
4845.77383 1.35235e-17
4847.24633 1.33972e-17
4848.71883 1.37539e-17
4850.18131 1.36568e-17
4851.65381 1.35179e-17
4853.12631 1.33790e-17
4854.59881 1.32400e-17
4856.06129 1.31012e-17
4857.53379 1.29623e-17
4859.00629 1.28235e-17
4860.47879 1.26847e-17
4861.94127 1.25459e-17
4863.41377 1.24072e-17
4864.88627 1.22685e-17
4866.35877 1.21297e-17
4867.82125 1.19910e-17
4869.29375 1.18524e-17
4870.76625 1.17137e-17
4872.23875 1.15751e-17
4873.70123 1.14365e-17
4875.17373 1.12980e-17
4876.64623 1.11594e-17
4878.10871 1.10209e-17
4879.58121 1.08824e-17
4881.05371 1.07439e-17
4882.52621 1.06054e-17
4883.99871 1.04670e-17
4885.46119 1.03286e-17
4886.93369 1.01902e-17
4888.40619 1.00518e-17
4889.87869 1.00704e-17
4891.34117 1.02351e-17
4892.81367 1.01871e-17
4894.28617 1.01861e-17
4895.74865 1.01243e-17
4897.22115 1.01355e-17
4898.69365 1.02892e-17
4900.16615 1.04956e-17
4901.62863 1.04767e-17
4903.10113 1.04599e-17
4904.57362 1.08291e-17
4906.04612 1.10361e-17
4907.50861 1.11093e-17
4908.98110 1.12944e-17
4910.45360 1.15344e-17
4911.92610 1.17781e-17
4913.38859 1.16424e-17
4914.86108 1.17163e-17
4916.33358 1.20646e-17
4917.80608 1.22917e-17
4919.26856 1.22899e-17
4920.74106 1.25478e-17
4922.21356 1.28215e-17
4923.68606 1.28029e-17
4925.14854 1.30134e-17
4926.62104 1.31426e-17
4928.09354 1.33394e-17
4929.56604 1.37509e-17
4931.02852 1.39500e-17
4932.50102 1.42192e-17
4933.97352 1.42512e-17
4935.44602 1.43384e-17
4936.90850 1.44405e-17
4938.38100 1.45706e-17
4939.85350 1.47097e-17
4941.32600 1.50762e-17
4942.78848 1.51083e-17
4944.26098 1.53620e-17
4945.73348 1.55349e-17
4947.20598 1.56997e-17
4948.66846 1.56204e-17
4950.14096 1.56393e-17
4951.61346 1.56582e-17
4953.08596 1.56771e-17
4954.54844 1.56960e-17
4956.02094 1.57149e-17
4957.49344 1.57338e-17
4958.96594 1.57527e-17
4960.42842 1.57716e-17
4961.90092 1.57904e-17
4963.37342 1.58093e-17
4964.84591 1.58282e-17
4966.30840 1.58470e-17
4967.78090 1.58659e-17
4969.25339 1.58848e-17
4970.72589 1.59036e-17
4972.18837 1.59225e-17
4973.66087 1.59414e-17
4975.13337 1.59602e-17
4976.60587 1.59791e-17
4978.06835 1.59979e-17
4979.54085 1.60168e-17
4981.01335 1.60356e-17
4982.47583 1.60544e-17
4983.94833 1.60733e-17
4985.42083 1.60921e-17
4986.89333 1.59659e-17
4988.35581 1.58167e-17
4989.82831 1.56443e-17
4991.30081 1.55737e-17
4992.77331 1.53540e-17
4994.24581 1.49014e-17
4995.70829 1.46294e-17
4997.18079 1.45906e-17
4998.65329 1.43911e-17
5000.11577 1.41916e-17
5001.58827 1.39921e-17
5003.06077 1.37928e-17
5004.53327 1.35933e-17
5005.99575 1.33940e-17
5007.46825 1.31946e-17
5008.94075 1.29954e-17
5010.41325 1.27961e-17
5011.87573 1.25969e-17
5013.34823 1.23977e-17
5014.82073 1.21985e-17
5016.29323 1.19994e-17
5017.75571 1.18003e-17
5019.22821 1.16012e-17
5020.70071 1.14022e-17
5022.17321 1.12032e-17
5023.63569 1.10042e-17
5025.10819 1.08053e-17
5026.58068 1.06064e-17
5028.05318 1.04075e-17
5029.51567 1.02086e-17
5030.98816 1.00098e-17
5032.46066 9.81109e-18
5033.93316 9.61230e-18
5035.39565 9.23517e-18
5036.86814 9.13176e-18
5038.34064 9.13937e-18
5039.81314 9.14870e-18
5041.27562 9.22653e-18
5042.74812 9.42430e-18
5044.22062 9.58611e-18
5045.69312 9.46044e-18
5047.15560 9.74351e-18
5048.62810 9.84408e-18
5050.10060 9.89863e-18
5051.57310 9.55458e-18
5053.03558 9.80105e-18
5054.50808 1.00291e-17
5055.98058 1.03213e-17
5057.45308 1.03348e-17
5058.91556 1.02614e-17
5060.38806 1.03744e-17
5061.86056 1.03215e-17
5063.33306 1.05737e-17
5064.79554 1.08470e-17
5066.26804 1.07531e-17
5067.74054 1.07320e-17
5069.20302 1.08797e-17
5070.67552 1.09497e-17
5072.14802 1.10551e-17
5073.62052 1.14933e-17
5075.09302 1.12693e-17
5076.55550 1.12192e-17
5078.02800 1.14687e-17
5079.50050 1.15636e-17
5080.97300 1.15148e-17
5082.43548 1.14910e-17
5083.90798 1.16069e-17
5085.38047 1.19821e-17
5086.84296 1.19125e-17
5088.31546 1.17879e-17
5089.78795 1.23448e-17
5091.26045 1.21231e-17
5092.72294 1.20906e-17
5094.19544 1.20708e-17
5095.66793 1.21962e-17
5097.14043 1.23704e-17
5098.60292 1.24214e-17
5100.07541 1.23446e-17
5101.54791 1.26185e-17
5103.02041 1.24878e-17
5104.48289 1.22838e-17
5105.95539 1.24344e-17
5107.42789 1.25453e-17
5108.90039 1.24987e-17
5110.36287 1.28732e-17
5111.83537 1.29735e-17
5113.30787 1.28060e-17
5114.78037 1.29451e-17
5116.24285 1.30446e-17
5117.71535 1.31269e-17
5119.18785 1.29503e-17
5120.66035 1.28054e-17
5122.12283 1.28216e-17
5123.59533 1.29004e-17
5125.06783 1.31627e-17
5126.54033 1.31354e-17
5128.00281 1.30111e-17
5129.47531 1.30825e-17
5130.94781 1.30066e-17
5132.42031 1.28254e-17
5133.88279 1.28547e-17
5135.35529 1.28903e-17
5136.82779 1.29718e-17
5138.30029 1.28926e-17
5139.76277 1.28731e-17
5141.23527 1.29935e-17
5142.70777 1.29813e-17
5144.18026 1.27687e-17
5145.64275 1.28279e-17
5147.11525 1.29392e-17
5148.58775 1.28229e-17
5150.06024 1.28200e-17
5151.52273 1.29425e-17
5152.99523 1.27591e-17
5154.46772 1.27339e-17
5155.94022 1.27667e-17
5157.40270 1.30526e-17
5158.87520 1.30502e-17
5160.34770 1.28259e-17
5161.82020 1.26769e-17
5163.28268 1.25577e-17
5164.75518 1.27351e-17
5166.22768 1.28274e-17
5167.70018 1.26888e-17
5169.16266 1.25670e-17
5170.63516 1.25519e-17
5172.10766 1.26542e-17
5173.57014 1.26234e-17
5175.04264 1.26629e-17
5176.51514 1.26269e-17
5177.98764 1.25805e-17
5179.45012 1.27107e-17
5180.92262 1.26183e-17
5182.39512 1.24671e-17
5183.86762 1.24375e-17
5185.34012 1.22938e-17
5186.80260 1.25724e-17
5188.27510 1.27379e-17
5189.74760 1.26125e-17
5191.21008 1.24461e-17
5192.68258 1.24793e-17
5194.15508 1.24721e-17
5195.62758 1.26627e-17
5197.09006 1.25600e-17
5198.56256 1.29400e-17
5200.03506 1.29593e-17
5201.50756 1.26337e-17
5202.97004 1.28639e-17
5204.44254 1.31429e-17
5205.91504 1.30437e-17
5207.38754 1.29759e-17
5208.85002 1.31993e-17
5210.32252 1.32615e-17
5211.79501 1.32069e-17
5213.26751 1.34700e-17
5214.73000 1.36233e-17
5216.20250 1.35447e-17
5217.67499 1.36570e-17
5219.14749 1.39342e-17
5220.60998 1.40890e-17
5222.08247 1.40729e-17
5223.55497 1.42282e-17
5225.02747 1.42354e-17
5226.48995 1.41051e-17
5227.96245 1.42623e-17
5229.43495 1.45395e-17
5230.90745 1.46943e-17
5232.36993 1.48106e-17
5233.84243 1.49214e-17
5235.31493 1.48682e-17
5236.78743 1.48278e-17
5238.24991 1.50542e-17
5239.72241 1.53407e-17
5241.19491 1.54395e-17
5242.66741 1.53614e-17
5244.12989 1.51506e-17
5245.60239 1.51275e-17
5247.07489 1.52535e-17
5248.54739 1.53233e-17
5250.00987 1.54726e-17
5251.48237 1.55535e-17
5252.95487 1.54787e-17
5254.42737 1.56055e-17
5255.88985 1.57866e-17
5257.36235 1.58027e-17
5258.83485 1.57139e-17
5260.30735 1.56534e-17
5261.76983 1.55797e-17
5263.24233 1.58144e-17
5264.71483 1.61421e-17
5266.18732 1.60484e-17
5267.64981 1.61359e-17
5269.12231 1.65587e-17
5270.59480 1.66473e-17
5272.06730 1.66895e-17
5273.52979 1.69313e-17
5275.00229 1.67332e-17
5276.47478 1.67450e-17
5277.93727 1.70488e-17
5279.40977 1.72451e-17
5280.88226 1.73722e-17
5282.35476 1.73827e-17
5283.81725 1.73567e-17
5285.28974 1.72274e-17
5286.76224 1.73154e-17
5288.23474 1.74802e-17
5289.69722 1.73841e-17
5291.16972 1.75285e-17
5292.64222 1.74568e-17
5294.11472 1.74810e-17
5295.57720 1.76716e-17
5297.04970 1.74865e-17
5298.52220 1.73303e-17
5299.99470 1.74000e-17
5301.45718 1.74913e-17
5302.92968 1.74276e-17
5304.40218 1.76190e-17
5305.87468 1.78634e-17
5307.33716 1.79231e-17
5308.80966 1.77365e-17
5310.28216 1.74383e-17
5311.75466 1.75712e-17
5313.21714 1.78717e-17
5314.68964 1.78536e-17
5316.16214 1.77587e-17
5317.63464 1.77596e-17
5319.09712 1.77040e-17
5320.56962 1.77390e-17
5322.04212 1.78264e-17
5323.51462 1.76689e-17
5324.97710 1.75894e-17
5326.44960 1.77234e-17
5327.92210 1.78318e-17
5329.39460 1.78371e-17
5330.85708 1.78247e-17
5332.32958 1.79515e-17
5333.80208 1.80155e-17
5335.27457 1.79618e-17
5336.73706 1.82038e-17
5338.20955 1.80709e-17
5339.68205 1.77251e-17
5341.15455 1.79174e-17
5342.61704 1.79571e-17
5344.08953 1.79113e-17
5345.56203 1.80047e-17
5347.03453 1.81486e-17
5348.49701 1.80406e-17
5349.96951 1.79428e-17
5351.44201 1.79936e-17
5352.91451 1.81087e-17
5354.37699 1.80192e-17
5355.84949 1.77691e-17
5357.32199 1.77653e-17
5358.79449 1.76707e-17
5360.25697 1.76556e-17
5361.72947 1.76319e-17
5363.20197 1.77667e-17
5364.66445 1.78391e-17
5366.13695 1.75333e-17
5367.60945 1.72917e-17
5369.08195 1.71394e-17
5370.55445 1.71728e-17
5372.01693 1.73635e-17
5373.48943 1.73446e-17
5374.96193 1.73309e-17
5376.42441 1.71980e-17
5377.89691 1.71477e-17
5379.36941 1.73291e-17
5380.84191 1.72397e-17
5382.30439 1.69494e-17
5383.77689 1.69226e-17
5385.24939 1.69482e-17
5386.72189 1.68897e-17
5388.18437 1.66825e-17
5389.65687 1.64767e-17
5391.12937 1.63889e-17
5392.60186 1.63133e-17
5394.06435 1.62182e-17
5395.53685 1.63626e-17
5397.00935 1.63135e-17
5398.48184 1.63969e-17
5399.94433 1.61991e-17
5401.41683 1.59935e-17
5402.88932 1.59676e-17
5404.36182 1.61078e-17
5405.82431 1.61200e-17
5407.29680 1.60034e-17
5408.76930 1.58839e-17
5410.24180 1.56875e-17
5411.70428 1.58083e-17
5413.17678 1.59327e-17
5414.64928 1.58731e-17
5416.12178 1.59727e-17
5417.58426 1.60823e-17
5419.05676 1.58476e-17
5420.52926 1.57555e-17
5422.00176 1.59237e-17
5423.46424 1.59882e-17
5424.93674 1.59416e-17
5426.40924 1.59933e-17
5427.88174 1.58455e-17
5429.34422 1.58109e-17
5430.81672 1.60003e-17
5432.28922 1.59428e-17
5433.76172 1.58628e-17
5435.22420 1.62025e-17
5436.69670 1.64181e-17
5438.16920 1.64609e-17
5439.64170 1.65366e-17
5441.10418 1.64992e-17
5442.57668 1.65421e-17
5444.04918 1.67214e-17
5445.52168 1.67399e-17
5446.98416 1.67413e-17
5448.45666 1.65644e-17
5449.92916 1.67684e-17
5451.40165 1.69490e-17
5452.86414 1.69130e-17
5454.33664 1.69883e-17
5455.80914 1.71366e-17
5457.28163 1.70863e-17
5458.74412 1.72194e-17
5460.21662 1.72531e-17
5461.68911 1.72591e-17
5463.15160 1.73838e-17
5464.62410 1.73497e-17
5466.09659 1.72995e-17
5467.56909 1.75038e-17
5469.03157 1.76391e-17
5470.50407 1.76646e-17
5471.97657 1.76321e-17
5473.44907 1.76141e-17
5474.91155 1.74943e-17
5476.38405 1.74603e-17
5477.85655 1.78330e-17
5479.32905 1.77293e-17
5480.79153 1.76941e-17
5482.26403 1.78333e-17
5483.73653 1.78652e-17
5485.20903 1.78013e-17
5486.67151 1.76993e-17
5488.14401 1.75781e-17
5489.61651 1.76302e-17
5491.08901 1.77615e-17
5492.55149 1.76842e-17
5494.02399 1.75522e-17
5495.49649 1.75671e-17
5496.96899 1.76069e-17
5498.43147 1.74605e-17
5499.90397 1.72851e-17
5501.37647 1.73918e-17
5502.84897 1.74947e-17
5504.31145 1.73756e-17
5505.78395 1.70943e-17
5507.25645 1.69587e-17
5508.72895 1.70748e-17
5510.19143 1.70205e-17
5511.66393 1.71919e-17
5513.13643 1.71756e-17
5514.60893 1.69665e-17
5516.07141 1.70000e-17
5517.54391 1.68308e-17
5519.01640 1.68627e-17
5520.48890 1.69498e-17
5521.95139 1.65975e-17
5523.42389 1.64811e-17
5524.89638 1.62478e-17
5526.36888 1.60584e-17
5527.83137 1.61895e-17
5529.30386 1.60918e-17
5530.77636 1.60804e-17
5532.24886 1.59971e-17
5533.71134 1.60618e-17
5535.18384 1.62383e-17
5536.65634 1.61608e-17
5538.12884 1.60518e-17
5539.59132 1.59450e-17
5541.06382 1.58296e-17
5542.53632 1.59774e-17
5544.00882 1.59080e-17
5545.47130 1.57309e-17
5546.94380 1.57711e-17
5548.41630 1.57765e-17
5549.87878 1.57345e-17
5551.35128 1.56921e-17
5552.82378 1.56832e-17
5554.29628 1.56868e-17
5555.76878 1.56524e-17
5557.23126 1.55914e-17
5558.70376 1.54234e-17
5560.17626 1.54767e-17
5561.64876 1.55945e-17
5563.11124 1.54891e-17
5564.58374 1.54755e-17
5566.05624 1.55529e-17
5567.51872 1.55387e-17
5568.99122 1.54672e-17
5570.46372 1.52598e-17
5571.93622 1.54388e-17
5573.39870 1.56208e-17
5574.87120 1.56129e-17
5576.34370 1.57675e-17
5577.81620 1.56419e-17
5579.27868 1.55387e-17
5580.75118 1.56467e-17
5582.22368 1.54753e-17
5583.69617 1.52430e-17
5585.15866 1.52968e-17
5586.63116 1.53765e-17
5588.10365 1.54258e-17
5589.57615 1.54302e-17
5591.03864 1.54781e-17
5592.51113 1.55545e-17
5593.98363 1.55210e-17
5595.45613 1.54698e-17
5596.91861 1.55089e-17
5598.39111 1.56979e-17
5599.86361 1.56588e-17
5601.33611 1.56043e-17
5602.79859 1.57707e-17
5604.27109 1.58179e-17
5605.74359 1.56778e-17
5607.21609 1.55856e-17
5608.67857 1.56948e-17
5610.15107 1.55745e-17
5611.62357 1.54274e-17
5613.09607 1.56628e-17
5614.55855 1.56390e-17
5616.03105 1.54330e-17
5617.50355 1.54506e-17
5618.97605 1.54790e-17
5620.43853 1.56141e-17
5621.91103 1.57465e-17
5623.38353 1.57628e-17
5624.85603 1.57168e-17
5626.31851 1.58104e-17
5627.79101 1.57280e-17
5629.26351 1.56317e-17
5630.73601 1.55991e-17
5632.19849 1.54318e-17
5633.67099 1.55607e-17
5635.14349 1.55574e-17
5636.61599 1.54010e-17
5638.07847 1.54073e-17
5639.55097 1.55560e-17
5641.02347 1.54721e-17
5642.49596 1.54263e-17
5643.95845 1.54457e-17
5645.43095 1.54750e-17
5646.90344 1.53672e-17
5648.37594 1.52550e-17
5649.83842 1.51907e-17
5651.31092 1.52027e-17
5652.78342 1.53205e-17
5654.24590 1.52513e-17
5655.71840 1.52890e-17
5657.19090 1.51383e-17
5658.66340 1.50187e-17
5660.12588 1.50296e-17
5661.59838 1.51266e-17
5663.07088 1.50298e-17
5664.54338 1.49630e-17
5666.01588 1.49948e-17
5667.47836 1.51008e-17
5668.95086 1.49953e-17
5670.42336 1.46807e-17
5671.88584 1.45908e-17
5673.35834 1.47440e-17
5674.83084 1.47210e-17
5676.30334 1.46543e-17
5677.76582 1.45600e-17
5679.23832 1.45776e-17
5680.71082 1.46584e-17
5682.18332 1.43334e-17
5683.64580 1.43571e-17
5685.11830 1.44481e-17
5686.59080 1.43644e-17
5688.06330 1.43072e-17
5689.52578 1.41334e-17
5690.99828 1.38988e-17
5692.47078 1.38477e-17
5693.94328 1.37511e-17
5695.40576 1.37450e-17
5696.87826 1.37076e-17
5698.35076 1.36668e-17
5699.82326 1.36552e-17
5701.28574 1.34646e-17
5702.75824 1.33825e-17
5704.23074 1.35189e-17
5705.70323 1.34315e-17
5707.16572 1.32760e-17
5708.63821 1.33142e-17
5710.11071 1.34441e-17
5711.58321 1.35193e-17
5713.04570 1.34590e-17
5714.51819 1.31209e-17
5715.99069 1.31296e-17
5717.46319 1.31974e-17
5718.92567 1.32091e-17
5720.39817 1.32860e-17
5721.87067 1.32524e-17
5723.34317 1.28939e-17
5724.80565 1.28272e-17
5726.27815 1.29164e-17
5727.75065 1.27800e-17
5729.22315 1.27675e-17
5730.68563 1.27450e-17
5732.15813 1.26364e-17
5733.63063 1.27095e-17
5735.10313 1.26760e-17
5736.56561 1.25977e-17
5738.03811 1.25604e-17
5739.51061 1.23043e-17
5740.97309 1.22657e-17
5742.44559 1.23985e-17
5743.91809 1.23120e-17
5745.39059 1.20768e-17
5746.85307 1.19873e-17
5748.32557 1.21900e-17
5749.79807 1.20878e-17
5751.27057 1.19639e-17
5752.74307 1.21818e-17
5754.20555 1.20356e-17
5755.67805 1.19150e-17
5757.15055 1.19762e-17
5758.61303 1.18422e-17
5760.08553 1.19201e-17
5761.55803 1.20405e-17
5763.03053 1.20534e-17
5764.49301 1.20042e-17
5765.96551 1.19683e-17
5767.43800 1.19815e-17
5768.91050 1.20989e-17
5770.37299 1.20730e-17
5771.84549 1.19933e-17
5773.31798 1.19826e-17
5774.79048 1.20771e-17
5776.25296 1.21884e-17
5777.72546 1.20364e-17
5779.19796 1.19187e-17
5780.67046 1.20326e-17
5782.13294 1.21505e-17
5783.60544 1.22347e-17
5785.07794 1.23026e-17
5786.55044 1.23167e-17
5788.01292 1.25098e-17
5789.48542 1.26629e-17
5790.95792 1.26855e-17
5792.43042 1.26447e-17
5793.89290 1.25792e-17
5795.36540 1.26795e-17
5796.83790 1.27295e-17
5798.31040 1.28115e-17
5799.77288 1.29143e-17
5801.24538 1.27781e-17
5802.71788 1.27468e-17
5804.19038 1.29352e-17
5805.65286 1.31350e-17
5807.12536 1.32670e-17
5808.59786 1.31679e-17
5810.07036 1.31976e-17
5811.53284 1.34330e-17
5813.00534 1.33428e-17
5814.47784 1.33148e-17
5815.95034 1.36365e-17
5817.41282 1.37039e-17
5818.88532 1.35840e-17
5820.35782 1.36231e-17
5821.83032 1.36902e-17
5823.29280 1.37934e-17
5824.76530 1.39307e-17
5826.23780 1.39974e-17
5827.71029 1.37469e-17
5829.17278 1.35292e-17
5830.64527 1.37975e-17
5832.11777 1.39926e-17
5833.59027 1.40421e-17
5835.05275 1.40949e-17
5836.52525 1.40412e-17
5837.99775 1.40644e-17
5839.47025 1.40779e-17
5840.93273 1.39764e-17
5842.40523 1.39121e-17
5843.87773 1.39003e-17
5845.34021 1.39475e-17
5846.81271 1.38144e-17
5848.28521 1.35976e-17
5849.75771 1.37362e-17
5851.22019 1.39400e-17
5852.69269 1.39313e-17
5854.16519 1.38117e-17
5855.63769 1.37672e-17
5857.10017 1.37255e-17
5858.57267 1.37574e-17
5860.04517 1.37262e-17
5861.51767 1.36777e-17
5862.98015 1.36827e-17
5864.45265 1.36849e-17
5865.92515 1.36645e-17
5867.39765 1.37344e-17
5868.86013 1.37206e-17
5870.33263 1.36292e-17
5871.80513 1.35277e-17
5873.27763 1.34398e-17
5874.74011 1.34836e-17
5876.21261 1.35914e-17
5877.68511 1.35401e-17
5879.15761 1.32791e-17
5880.62009 1.32690e-17
5882.09259 1.34289e-17
5883.56509 1.34216e-17
5885.03759 1.31371e-17
5886.50007 1.26856e-17
5887.97257 1.24077e-17
5889.44506 1.19960e-17
5890.91756 1.18353e-17
5892.38005 1.21392e-17
5893.85255 1.23546e-17
5895.32504 1.21960e-17
5896.79754 1.21386e-17
5898.26003 1.22172e-17
5899.73252 1.25110e-17
5901.20502 1.26944e-17
5902.67752 1.27535e-17
5904.14000 1.31051e-17
5905.61250 1.32266e-17
5907.08500 1.31223e-17
5908.55750 1.31790e-17
5910.01998 1.32253e-17
5911.49248 1.32631e-17
5912.96498 1.33201e-17
5914.43748 1.34101e-17
5915.89996 1.35151e-17
5917.37246 1.35072e-17
5918.84496 1.34677e-17
5920.31746 1.34094e-17
5921.77994 1.32882e-17
5923.25244 1.33730e-17
5924.72494 1.34638e-17
5926.19744 1.34289e-17
5927.65992 1.36768e-17
5929.13242 1.38771e-17
5930.60492 1.38246e-17
5932.07742 1.38406e-17
5933.53990 1.39601e-17
5935.01240 1.39151e-17
5936.48490 1.37514e-17
5937.95740 1.35492e-17
5939.41988 1.34424e-17
5940.89238 1.32448e-17
5942.36488 1.30993e-17
5943.82736 1.32279e-17
5945.29986 1.31780e-17
5946.77236 1.30465e-17
5948.24485 1.31997e-17
5949.70734 1.34481e-17
5951.17984 1.35876e-17
5952.65234 1.35401e-17
5954.12483 1.35284e-17
5955.58732 1.34892e-17
5957.05981 1.32539e-17
5958.53231 1.31359e-17
5960.00481 1.33472e-17
5961.46730 1.34951e-17
5962.93979 1.34368e-17
5964.41229 1.32802e-17
5965.88479 1.32537e-17
5967.34727 1.33712e-17
5968.81977 1.33717e-17
5970.29227 1.31675e-17
5971.76477 1.32103e-17
5973.22725 1.35154e-17
5974.69975 1.34958e-17
5976.17225 1.31850e-17
5977.64475 1.31511e-17
5979.10723 1.32598e-17
5980.57973 1.32600e-17
5982.05223 1.32071e-17
5983.52473 1.30888e-17
5984.98721 1.30833e-17
5986.45971 1.31064e-17
5987.93221 1.29662e-17
5989.40471 1.29509e-17
5990.86719 1.29200e-17
5992.33969 1.27918e-17
5993.81219 1.28035e-17
5995.28469 1.28084e-17
5996.74717 1.28198e-17
5998.21967 1.28695e-17
5999.69217 1.27032e-17
6001.16467 1.25547e-17
6002.62715 1.26071e-17
6004.09965 1.25117e-17
6005.57215 1.25131e-17
6007.04465 1.25767e-17
6008.50713 1.24945e-17
6009.97963 1.24058e-17
6011.45212 1.22816e-17
6012.92462 1.22608e-17
6014.38711 1.22303e-17
6015.85960 1.21005e-17
6017.33210 1.20674e-17
6018.80460 1.21643e-17
6020.26709 1.21770e-17
6021.73958 1.20555e-17
6023.21208 1.19759e-17
6024.68458 1.20270e-17
6026.14706 1.22108e-17
6027.61956 1.21518e-17
6029.09206 1.18891e-17
6030.56456 1.20060e-17
6032.02704 1.22376e-17
6033.49954 1.20222e-17
6034.97204 1.17921e-17
6036.43452 1.19078e-17
6037.90702 1.19782e-17
6039.37952 1.19805e-17
6040.85202 1.19605e-17
6042.31450 1.19439e-17
6043.78700 1.20630e-17
6045.25950 1.21901e-17
6046.73200 1.22745e-17
6048.19448 1.21736e-17
6049.66698 1.21152e-17
6051.13948 1.22502e-17
6052.61198 1.23285e-17
6054.07446 1.23494e-17
6055.54696 1.23182e-17
6057.01946 1.22132e-17
6058.49196 1.21824e-17
6059.95444 1.21747e-17
6061.42694 1.22779e-17
6062.89944 1.24077e-17
6064.37194 1.23959e-17
6065.83442 1.25330e-17
6067.30692 1.25540e-17
6068.77942 1.23517e-17
6070.25191 1.22938e-17
6071.71440 1.24024e-17
6073.18690 1.23670e-17
6074.65940 1.22308e-17
6076.13189 1.23576e-17
6077.59438 1.25951e-17
6079.06688 1.25626e-17
6080.53937 1.24778e-17
6082.01187 1.24898e-17
6083.47436 1.25313e-17
6084.94685 1.26340e-17
6086.41935 1.25992e-17
6087.89185 1.23993e-17
6089.35433 1.24244e-17
6090.82683 1.27265e-17
6092.29933 1.27687e-17
6093.77183 1.24551e-17
6095.23431 1.22789e-17
6096.70681 1.22747e-17
6098.17931 1.23369e-17
6099.65181 1.23755e-17
6101.11429 1.22969e-17
6102.58679 1.22865e-17
6104.05929 1.23087e-17
6105.53179 1.21775e-17
6106.99427 1.20075e-17
6108.46677 1.20763e-17
6109.93927 1.21755e-17
6111.41177 1.20811e-17
6112.87425 1.19633e-17
6114.34675 1.21253e-17
6115.81925 1.22857e-17
6117.29175 1.20489e-17
6118.75423 1.19223e-17
6120.22673 1.19500e-17
6121.69923 1.18988e-17
6123.17173 1.19883e-17
6124.63421 1.20359e-17
6126.10671 1.18777e-17
6127.57921 1.18677e-17
6129.05170 1.19947e-17
6130.51419 1.20974e-17
6131.98669 1.23031e-17
6133.45919 1.23641e-17
6134.92167 1.22352e-17
6136.39417 1.21579e-17
6137.86667 1.21325e-17
6139.33916 1.22196e-17
6140.80165 1.23358e-17
6142.27415 1.23187e-17
6143.74664 1.24539e-17
6145.21914 1.26641e-17
6146.68163 1.25215e-17
6148.15412 1.23388e-17
6149.62662 1.24393e-17
6151.09912 1.26953e-17
6152.56160 1.27797e-17
6154.03410 1.28376e-17
6155.50660 1.29020e-17
6156.97910 1.28172e-17
6158.44158 1.27597e-17
6159.91408 1.27610e-17
6161.38658 1.29268e-17
6162.85908 1.30951e-17
6164.32156 1.31104e-17
6165.79406 1.29299e-17
6167.26656 1.29085e-17
6168.73906 1.31909e-17
6170.20154 1.33192e-17
6171.67404 1.32394e-17
6173.14654 1.31631e-17
6174.61904 1.30756e-17
6176.08152 1.30972e-17
6177.55402 1.32813e-17
6179.02652 1.33656e-17
6180.49902 1.32366e-17
6181.96150 1.32297e-17
6183.43400 1.33965e-17
6184.90650 1.34023e-17
6186.37900 1.33326e-17
6187.84148 1.31908e-17
6189.31398 1.32268e-17
6190.78648 1.33254e-17
6192.25898 1.31059e-17
6193.72146 1.29500e-17
6195.19396 1.29227e-17
6196.66645 1.28858e-17
6198.13895 1.29726e-17
6199.60144 1.29547e-17
6201.07394 1.27861e-17
6202.54643 1.27624e-17
6204.01893 1.27600e-17
6205.48142 1.26629e-17
6206.95391 1.25444e-17
6208.42641 1.24082e-17
6209.89891 1.23244e-17
6211.36139 1.22119e-17
6212.83389 1.21209e-17
6214.30639 1.20816e-17
6215.77889 1.19070e-17
6217.24137 1.17498e-17
6218.71387 1.17124e-17
6220.18637 1.16481e-17
6221.64885 1.15843e-17
6223.12135 1.14684e-17
6224.59385 1.13422e-17
6226.06635 1.12147e-17
6227.52883 1.10708e-17
6229.00133 1.10441e-17
6230.47383 1.10450e-17
6231.94633 1.10125e-17
6233.40881 1.09773e-17
6234.88131 1.09110e-17
6236.35381 1.08391e-17
6237.82631 1.07990e-17
6239.28879 1.07592e-17
6240.76129 1.07391e-17
6242.23379 1.07477e-17
6243.70629 1.07758e-17
6245.16877 1.06927e-17
6246.64127 1.06164e-17
6248.11377 1.07685e-17
6249.58627 1.09681e-17
6251.04875 1.09121e-17
6252.52125 1.07640e-17
6253.99375 1.08249e-17
6255.46625 1.08314e-17
6256.92873 1.06660e-17
6258.40123 1.08056e-17
6259.87373 1.11335e-17
6261.34622 1.10740e-17
6262.80871 1.08554e-17
6264.28121 1.08664e-17
6265.75370 1.10503e-17
6267.22620 1.10322e-17
6268.68869 1.09229e-17
6270.16118 1.10195e-17
6271.63368 1.11995e-17
6273.10618 1.10651e-17
6274.56866 1.08680e-17
6276.04116 1.09548e-17
6277.51366 1.11328e-17
6278.98616 1.11720e-17
6280.44864 1.11583e-17
6281.92114 1.11985e-17
6283.39364 1.10801e-17
6284.86614 1.10119e-17
6286.32862 1.10287e-17
6287.80112 1.10238e-17
6289.27362 1.10895e-17
6290.74612 1.12884e-17
6292.20860 1.14108e-17
6293.68110 1.14892e-17
6295.15360 1.14010e-17
6296.62610 1.11005e-17
6298.08858 1.10562e-17
6299.56108 1.12773e-17
6301.03358 1.12460e-17
6302.50608 1.11737e-17
6303.96856 1.11521e-17
6305.44106 1.11577e-17
6306.91356 1.11710e-17
6308.38606 1.11835e-17
6309.84854 1.12685e-17
6311.32104 1.12975e-17
6312.79354 1.13019e-17
6314.26604 1.11782e-17
6315.72852 1.10721e-17
6317.20102 1.09899e-17
6318.67352 1.11293e-17
6320.14601 1.12106e-17
6321.60850 1.11170e-17
6323.08100 1.12435e-17
6324.55349 1.13808e-17
6326.01598 1.13209e-17
6327.48848 1.11851e-17
6328.96097 1.11948e-17
6330.43347 1.12437e-17
6331.89595 1.11358e-17
6333.36845 1.10521e-17
6334.84095 1.11186e-17
6336.31345 1.12313e-17
6337.77593 1.13220e-17
6339.24843 1.14312e-17
6340.72093 1.14758e-17
6342.19343 1.14325e-17
6343.65591 1.14852e-17
6345.12841 1.14680e-17
6346.60091 1.14471e-17
6348.07341 1.16270e-17
6349.53589 1.16976e-17
6351.00839 1.16770e-17
6352.48089 1.18626e-17
6353.95339 1.18642e-17
6355.41587 1.17743e-17
6356.88837 1.18093e-17
6358.36087 1.18418e-17
6359.83337 1.19779e-17
6361.29585 1.20399e-17
6362.76835 1.20285e-17
6364.24085 1.20394e-17
6365.71335 1.19887e-17
6367.17583 1.21145e-17
6368.64833 1.23055e-17
6370.12083 1.23508e-17
6371.59333 1.22738e-17
6373.05581 1.21848e-17
6374.52831 1.21705e-17
6376.00081 1.21934e-17
6377.47330 1.23322e-17
6378.93579 1.23831e-17
6380.40829 1.23734e-17
6381.88079 1.24225e-17
6383.35328 1.24285e-17
6384.81577 1.24378e-17
6386.28827 1.26264e-17
6387.76076 1.26710e-17
6389.23326 1.26063e-17
6390.69575 1.27183e-17
6392.16824 1.26313e-17
6393.64074 1.24868e-17
6395.11324 1.26990e-17
6396.57572 1.27982e-17
6398.04822 1.26967e-17
6399.52072 1.25942e-17
6400.99322 1.26919e-17
6402.45570 1.28056e-17
6403.92820 1.26845e-17
6405.40070 1.26458e-17
6406.87320 1.26527e-17
6408.33568 1.26881e-17
6409.80818 1.27792e-17
6411.28068 1.27970e-17
6412.74316 1.27643e-17
6414.21566 1.27597e-17
6415.68816 1.28667e-17
6417.16066 1.29779e-17
6418.62314 1.29353e-17
6420.09564 1.29032e-17
6421.56814 1.29798e-17
6423.04064 1.30093e-17
6424.50312 1.30887e-17
6425.97562 1.31714e-17
6427.44812 1.31249e-17
6428.92062 1.30863e-17
6430.38310 1.29464e-17
6431.85560 1.28136e-17
6433.32810 1.28560e-17
6434.80060 1.29388e-17
6436.26308 1.30580e-17
6437.73558 1.30608e-17
6439.20808 1.30734e-17
6440.68058 1.30854e-17
6442.14306 1.30255e-17
6443.61556 1.28362e-17
6445.08806 1.27996e-17
6446.56055 1.30137e-17
6448.02304 1.29363e-17
6449.49554 1.29343e-17
6450.96803 1.28888e-17
6452.44053 1.29619e-17
6453.90301 1.29683e-17
6455.37551 1.27058e-17
6456.84801 1.26408e-17
6458.32051 1.24853e-17
6459.78299 1.24998e-17
6461.25549 1.26066e-17
6462.72799 1.26896e-17
6464.20049 1.24822e-17
6465.66297 1.23015e-17
6467.13547 1.24294e-17
6468.60797 1.24425e-17
6470.08047 1.22921e-17
6471.54295 1.21467e-17
6473.01545 1.20757e-17
6474.48795 1.20073e-17
6475.96045 1.18554e-17
6477.42293 1.19125e-17
6478.89543 1.22110e-17
6480.36793 1.23464e-17
6481.84043 1.21268e-17
6483.30291 1.20944e-17
6484.77541 1.24399e-17
6486.24791 1.25400e-17
6487.72041 1.24752e-17
6489.18289 1.23700e-17
6490.65539 1.22832e-17
6492.12789 1.22877e-17
6493.60039 1.24275e-17
6495.06287 1.25092e-17
6496.53537 1.24157e-17
6498.00787 1.24583e-17
6499.48037 1.25544e-17
6500.94285 1.26311e-17
6502.41535 1.26145e-17
6503.88785 1.26914e-17
6505.35033 1.26661e-17
6506.82283 1.26412e-17
6508.29533 1.27431e-17
6509.76782 1.26555e-17
6511.24032 1.25036e-17
6512.70280 1.23745e-17
6514.17530 1.22319e-17
6515.64780 1.21055e-17
6517.11029 1.20552e-17
6518.58278 1.22141e-17
6520.05528 1.23730e-17
6521.52778 1.23766e-17
6522.99026 1.24153e-17
6524.46276 1.25505e-17
6525.93526 1.25774e-17
6527.40776 1.26048e-17
6528.87024 1.25116e-17
6530.34274 1.22985e-17
6531.81524 1.24032e-17
6533.28774 1.23492e-17
6534.75022 1.21318e-17
6536.22272 1.20903e-17
6537.69522 1.21976e-17
6539.16772 1.21935e-17
6540.63020 1.22360e-17
6542.10270 1.22575e-17
6543.57520 1.22751e-17
6545.04770 1.22633e-17
6546.51018 1.22515e-17
6547.98268 1.22397e-17
6549.45518 1.22280e-17
6550.92768 1.22162e-17
6552.39016 1.22044e-17
6553.86266 1.21927e-17
6555.33516 1.21809e-17
6556.80766 1.21691e-17
6558.27014 1.21574e-17
6559.74264 1.21456e-17
6561.21514 1.21338e-17
6562.68764 1.21221e-17
6564.15012 1.21103e-17
6565.62262 1.20986e-17
6567.09512 1.20868e-17
6568.56761 1.20750e-17
6570.03010 1.20633e-17
6571.50260 1.20515e-17
6572.97509 1.20398e-17
6574.44759 1.20280e-17
6575.91007 1.20163e-17
6577.38257 1.20045e-17
6578.85507 1.19928e-17
6580.32757 1.19810e-17
6581.79005 1.19693e-17
6583.26255 1.19575e-17
6584.73505 1.19458e-17
6586.20755 1.19340e-17
6587.67003 1.19223e-17
6589.14253 1.19105e-17
6590.61503 1.18988e-17
6592.08753 1.18870e-17
6593.55001 1.18753e-17
6595.02251 1.18635e-17
6596.49501 1.18518e-17
6597.96751 1.18401e-17
6599.42999 1.18283e-17
6600.90249 1.18166e-17
6602.37499 1.18048e-17
6603.84749 1.17931e-17
6605.30997 1.17814e-17
6606.78247 1.17136e-17
6608.25497 1.16800e-17
6609.71745 1.17066e-17
6611.18995 1.16942e-17
6612.66245 1.17790e-17
6614.13495 1.17915e-17
6615.59743 1.16057e-17
6617.06993 1.14797e-17
6618.54243 1.15479e-17
6620.01493 1.15210e-17
6621.47741 1.15567e-17
6622.94991 1.17733e-17
6624.42241 1.19105e-17
6625.89491 1.18045e-17
6627.35739 1.16642e-17
6628.82989 1.15336e-17
6630.30238 1.15332e-17
6631.77488 1.16217e-17
6633.23737 1.15716e-17
6634.70986 1.15201e-17
6636.18236 1.14918e-17
6637.65486 1.15106e-17
6639.11735 1.14131e-17
6640.58984 1.12897e-17
6642.06234 1.12464e-17
6643.53484 1.12046e-17
6644.99732 1.13039e-17
6646.46982 1.13407e-17
6647.94232 1.12809e-17
6649.41482 1.12614e-17
6650.87730 1.11043e-17
6652.34980 1.10091e-17
6653.82230 1.12286e-17
6655.29480 1.13088e-17
6656.75728 1.12589e-17
6658.22978 1.13085e-17
6659.70228 1.11439e-17
6661.17478 1.09620e-17
6662.63726 1.10862e-17
6664.10976 1.12425e-17
6665.58226 1.10393e-17
6667.05476 1.09926e-17
6668.51724 1.11265e-17
6669.98974 1.09885e-17
6671.46224 1.08600e-17
6672.93474 1.08567e-17
6674.39722 1.09067e-17
6675.86972 1.07864e-17
6677.34222 1.06682e-17
6678.81472 1.06364e-17
6680.27720 1.06846e-17
6681.74970 1.08479e-17
6683.22220 1.06865e-17
6684.69470 1.06419e-17
6686.15718 1.07266e-17
6687.62968 1.05389e-17
6689.10217 1.04706e-17
6690.57467 1.05750e-17
6692.03716 1.07714e-17
6693.50965 1.07764e-17
6694.98215 1.06419e-17
6696.44464 1.06820e-17
6697.91714 1.07548e-17
6699.38963 1.08413e-17
6700.86213 1.08085e-17
6702.32462 1.06368e-17
6703.79711 1.08019e-17
6705.26961 1.07223e-17
6706.74211 1.06052e-17
6708.20459 1.03741e-17
6709.67709 1.04634e-17
6711.14959 1.04371e-17
6712.62209 1.03659e-17
6714.08457 1.03528e-17
6715.55707 1.03909e-17
6717.02957 1.03152e-17
6718.50207 1.03212e-17
6719.96455 1.02792e-17
6721.43705 1.02768e-17
6722.90955 1.04102e-17
6724.38205 1.05952e-17
6725.84453 1.06037e-17
6727.31703 1.07408e-17
6728.78953 1.07747e-17
6730.26203 1.06758e-17
6731.72451 1.05851e-17
6733.19701 1.03279e-17
6734.66951 1.04096e-17
6736.14201 1.04594e-17
6737.60449 1.04674e-17
6739.07699 1.05811e-17
6740.54949 1.07569e-17
6742.02199 1.08452e-17
6743.48447 1.10074e-17
6744.95697 1.08973e-17
6746.42947 1.06231e-17
6747.90197 1.04394e-17
6749.36445 1.05075e-17
6750.83695 1.05404e-17
6752.30945 1.04373e-17
6753.78194 1.03078e-17
6755.24443 1.03297e-17
6756.71693 1.02908e-17
6758.18942 1.03946e-17
6759.66192 1.03900e-17
6761.12440 1.02651e-17
6762.59690 1.02403e-17
6764.06940 1.01048e-17
6765.54190 1.02503e-17
6767.00438 1.03676e-17
6768.47688 1.02785e-17
6769.94938 1.02442e-17
6771.42188 1.03080e-17
6772.88436 1.03942e-17
6774.35686 1.03307e-17
6775.82936 1.03409e-17
6777.30186 1.03875e-17
6778.76434 1.04384e-17
6780.23684 1.04220e-17
6781.70934 1.03397e-17
6783.18184 1.03842e-17
6784.64432 1.02886e-17
6786.11682 1.01595e-17
6787.58932 1.02559e-17
6789.05180 1.05083e-17
6790.52430 1.03812e-17
6791.99680 1.02991e-17
6793.46930 1.02895e-17
6794.94180 1.02538e-17
6796.40428 1.02839e-17
6797.87678 1.02285e-17
6799.34928 1.00437e-17
6800.81176 9.96160e-18
6802.28426 1.01529e-17
6803.75676 1.01840e-17
6805.22926 9.99724e-18
6806.69174 1.00942e-17
6808.16424 1.01389e-17
6809.63674 9.93002e-18
6811.10924 9.88857e-18
6812.57172 9.85566e-18
6814.04422 9.87425e-18
6815.51671 9.91941e-18
6816.98921 9.97038e-18
6818.45170 1.01230e-17
6819.92420 1.00371e-17
6821.39669 9.92852e-18
6822.86919 1.00146e-17
6824.33168 9.96695e-18
6825.80417 9.91683e-18
6827.27667 9.92766e-18
6828.74917 9.98284e-18
6830.21165 1.01244e-17
6831.68415 1.00722e-17
6833.15665 9.80682e-18
6834.62915 9.72903e-18
6836.09163 9.76793e-18
6837.56413 9.74531e-18
6839.03663 9.76909e-18
6840.50913 9.66736e-18
6841.97161 9.76135e-18
6843.44411 9.93542e-18
6844.91661 9.92518e-18
6846.38911 9.91494e-18
6847.85159 9.90470e-18
6849.32409 9.89447e-18
6850.79659 9.88423e-18
6852.26909 9.87399e-18
6853.73157 9.86376e-18
6855.20407 9.85352e-18
6856.67657 9.84329e-18
6858.14907 9.83305e-18
6859.61155 9.82282e-18
6861.08405 9.81259e-18
6862.55655 9.80236e-18
6864.02905 9.79212e-18
6865.49153 9.78189e-18
6866.96403 9.77166e-18
6868.43653 9.76143e-18
6869.90902 9.75121e-18
6871.37151 9.74098e-18
6872.84401 9.73075e-18
6874.31650 9.72052e-18
6875.78900 9.71030e-18
6877.25149 9.70007e-18
6878.72399 9.68985e-18
6880.19648 9.67962e-18
6881.66898 9.66940e-18
6883.13147 9.65918e-18
6884.60396 9.64896e-18
6886.07646 9.63874e-18
6887.53895 9.62851e-18
6889.01144 9.61829e-18
6890.48394 9.60808e-18
6891.95644 9.59786e-18
6893.41892 9.58764e-18
6894.89142 9.57742e-18
6896.36392 9.56721e-18
6897.83642 9.55699e-18
6899.29890 9.54678e-18
6900.77140 9.53656e-18
6902.24390 9.52634e-18
6903.71640 9.51613e-18
6905.17888 9.50592e-18
6906.65138 9.49571e-18
6908.12388 9.48550e-18
6909.59638 9.47529e-18
6911.05886 9.46508e-18
6912.53136 9.45486e-18
6914.00386 9.44466e-18
6915.47636 9.43445e-18
6916.93884 9.42424e-18
6918.41134 9.41403e-18
6919.88384 9.40383e-18
6921.35634 9.39362e-18
6922.81882 9.38342e-18
6924.29132 9.37321e-18
6925.76382 9.36301e-18
6927.23632 9.35281e-18
6928.69880 9.34261e-18
6930.17130 9.33241e-18
6931.64380 9.32220e-18
6933.11630 9.31200e-18
6934.57878 9.30180e-18
6936.05128 9.29161e-18
6937.52378 9.26292e-18
6938.99627 9.22378e-18
6940.45876 9.44584e-18
6941.93125 9.46309e-18
6943.40375 9.18237e-18
6944.87625 8.99594e-18
6946.33874 8.95650e-18
6947.81123 9.26078e-18
6949.28373 9.49865e-18
6950.75623 9.35819e-18
6952.21871 9.03664e-18
6953.69121 8.97568e-18
6955.16371 9.14899e-18
6956.63621 9.24482e-18
6958.09869 9.13117e-18
6959.57119 9.07623e-18
6961.04369 9.03813e-18
6962.51619 9.02029e-18
6963.97867 9.08904e-18
6965.45117 9.04948e-18
6966.92367 9.04873e-18
6968.39617 8.97075e-18
6969.85865 9.03855e-18
6971.33115 9.12956e-18
6972.80365 9.29362e-18
6974.27615 9.18694e-18
6975.73863 9.00328e-18
6977.21113 9.13222e-18
6978.68363 9.26641e-18
6980.15613 9.17949e-18
6981.61861 9.24192e-18
6983.09111 9.21088e-18
6984.56361 9.21250e-18
6986.03611 9.55193e-18
6987.49859 9.47044e-18
6988.97109 9.29191e-18
6990.44359 9.23470e-18
6991.90607 9.30299e-18
6993.37857 9.30913e-18
6994.85107 9.55772e-18
6996.32356 9.46298e-18
6997.78605 9.30750e-18
6999.25855 9.45687e-18
7000.73105 9.42755e-18
7002.20354 9.44634e-18
7003.66603 9.46512e-18
7005.13853 9.48390e-18
7006.61102 9.50268e-18
7008.08352 9.52145e-18
7009.54601 9.54023e-18
7011.01850 9.55900e-18
7012.49100 9.57778e-18
7013.96350 9.59655e-18
7015.42598 9.59621e-18
7016.89848 9.70795e-18
7018.37098 9.74037e-18
7019.84348 9.59918e-18
7021.30596 9.36776e-18
7022.77846 9.30933e-18
7024.25096 9.56322e-18
7025.72346 9.63138e-18
7027.18594 9.77168e-18
7028.65844 9.70110e-18
7030.13094 9.42363e-18
7031.60344 9.38267e-18
7033.06592 9.45534e-18
7034.53842 9.37671e-18
7036.01092 9.27341e-18
7037.48342 9.35798e-18
7038.94590 9.38053e-18
7040.41840 9.44128e-18
7041.89090 9.42396e-18
7043.36340 9.42654e-18
7044.82588 9.48564e-18
7046.29838 9.51675e-18
7047.77088 9.41008e-18
7049.24338 9.40211e-18
7050.70586 9.42171e-18
7052.17836 9.52321e-18
7053.65086 9.52498e-18
7055.12335 9.30786e-18
7056.58584 9.42899e-18
7058.05834 9.46991e-18
7059.53084 9.54922e-18
7061.00333 9.52050e-18
7062.46582 9.28319e-18
7063.93832 9.31236e-18
7065.41081 9.33259e-18
7066.88331 9.35923e-18
7068.34580 9.26200e-18
7069.81829 9.23742e-18
7071.29079 9.20209e-18
7072.76329 9.17348e-18
7074.22577 9.29431e-18
7075.69827 9.30042e-18
7077.17077 9.13587e-18
7078.63325 9.21974e-18
7080.10575 9.38323e-18
7081.57825 9.24063e-18
7083.05075 9.31492e-18
7084.51323 9.46474e-18
7085.98573 9.38716e-18
7087.45823 9.25641e-18
7088.93073 9.30223e-18
7090.39321 9.30548e-18
7091.86571 9.25738e-18
7093.33821 9.21093e-18
7094.81071 9.27466e-18
7096.27319 9.33107e-18
7097.74569 9.36314e-18
7099.21819 9.08679e-18
7100.69069 8.93667e-18
7102.15317 9.15329e-18
7103.62567 9.26560e-18
7105.09817 9.19140e-18
7106.57067 9.27128e-18
7108.03315 9.42195e-18
7109.50565 9.27769e-18
7110.97815 9.17838e-18
7112.45065 9.22372e-18
7113.91313 9.28462e-18
7115.38563 9.26853e-18
7116.85813 9.34010e-18
7118.33063 9.27591e-18
7119.79311 9.19161e-18
7121.26561 9.33557e-18
7122.73810 9.41715e-18
7124.21060 9.25986e-18
7125.67309 9.04409e-18
7127.14559 8.99395e-18
7128.61808 9.11987e-18
7130.09058 9.12161e-18
7131.55307 9.00074e-18
7133.02556 8.92825e-18
7134.49806 8.85826e-18
7135.97056 8.99878e-18
7137.43304 9.23987e-18
7138.90554 9.30597e-18
7140.37804 9.28139e-18
7141.85054 9.24413e-18
7143.31302 9.22667e-18
7144.78552 9.32095e-18
7146.25802 9.33088e-18
7147.73052 9.38382e-18
7149.19300 9.39158e-18
7150.66550 9.22408e-18
7152.13800 9.18342e-18
7153.61050 9.25009e-18
7155.07298 9.20729e-18
7156.54548 9.09763e-18
7158.01798 9.05549e-18
7159.49048 9.12856e-18
7160.95296 9.08017e-18
7162.42546 8.99647e-18
7163.89796 9.11605e-18
7165.37046 9.15730e-18
7166.83294 9.39783e-18
7168.30544 9.54496e-18
7169.77794 9.47407e-18
7171.25044 9.45733e-18
7172.71292 9.72631e-18
7174.18542 9.86696e-18
7175.65792 9.78196e-18
7177.12040 9.62413e-18
7178.59290 9.68475e-18
7180.06540 9.46739e-18
7181.53790 9.46775e-18
7183.00038 9.59968e-18
7184.47288 9.42587e-18
7185.94538 9.67432e-18
7187.41787 9.86912e-18
7188.88036 9.32165e-18
7190.35286 8.97065e-18
7191.82535 9.58716e-18
7193.29785 9.97241e-18
7194.76034 9.91727e-18
7196.23283 9.70027e-18
7197.70533 9.75102e-18
7199.17783 9.90832e-18
7200.64031 9.92997e-18
7202.11281 1.00347e-17
7203.58531 1.00466e-17
7205.05781 9.90982e-18
7206.52029 9.98814e-18
7207.99279 9.71429e-18
7209.46529 9.71744e-18
7210.93779 9.81807e-18
7212.40027 9.64941e-18
7213.87277 9.52187e-18
7215.34527 9.67666e-18
7216.81777 9.89823e-18
7218.28025 9.84663e-18
7219.75275 9.86637e-18
7221.22525 9.89942e-18
7222.69775 1.00734e-17
7224.16023 1.00840e-17
7225.63273 9.92061e-18
7227.10523 1.00090e-17
7228.57773 1.02137e-17
7230.04021 1.00270e-17
7231.51271 9.84058e-18
7232.98521 1.01965e-17
7234.45771 1.06262e-17
7235.92019 1.02370e-17
7237.39269 1.00790e-17
7238.86519 9.88949e-18
7240.33769 1.00754e-17
7241.80017 1.02761e-17
7243.27267 1.02344e-17
7244.74517 1.02571e-17
7246.21766 1.00360e-17
7247.68015 9.80527e-18
7249.15265 9.95070e-18
7250.62514 9.97427e-18
7252.09764 1.03268e-17
7253.56012 1.05610e-17
7255.03262 1.02772e-17
7256.50512 9.92927e-18
7257.97762 1.01907e-17
7259.44010 1.02948e-17
7260.91260 1.00876e-17
7262.38510 9.94249e-18
7263.84758 1.00878e-17
7265.32008 1.03357e-17
7266.79258 9.88322e-18
7268.26508 9.71313e-18
7269.73758 9.93954e-18
7271.20006 9.84262e-18
7272.67256 1.00744e-17
7274.14506 9.88316e-18
7275.60754 9.85723e-18
7277.08004 1.05102e-17
7278.55254 1.01552e-17
7280.02504 9.52449e-18
7281.48752 9.69945e-18
7282.96002 9.75036e-18
7284.43252 9.76055e-18
7285.90502 9.89576e-18
7287.36750 9.80692e-18
7288.84000 9.84873e-18
7290.31250 1.02239e-17
7291.78500 1.02054e-17
7293.24748 1.00054e-17
7294.71998 1.00009e-17
7296.19248 9.79279e-18
7297.66498 9.78100e-18
7299.12746 9.76521e-18
7300.59996 9.81935e-18
7302.07246 9.83983e-18
7303.54496 9.81568e-18
7305.00744 1.00059e-17
7306.47994 9.68043e-18
7307.95244 9.38992e-18
7309.42493 9.83419e-18
7310.88742 9.84923e-18
7312.35992 9.61464e-18
7313.83241 9.39830e-18
7315.30491 9.34425e-18
7316.76740 9.57539e-18
7318.23989 9.84603e-18
7319.71239 9.75436e-18
7321.18489 9.28127e-18
7322.64737 9.16721e-18
7324.11987 9.47455e-18
7325.59237 9.51216e-18
7327.06487 9.37406e-18
7328.52735 9.58354e-18
7329.99985 9.65860e-18
7331.47235 9.77849e-18
7332.94485 9.75410e-18
7334.40733 9.83275e-18
7335.87983 9.58461e-18
7337.35233 9.32448e-18
7338.82483 9.39582e-18
7340.28731 9.56655e-18
7341.75981 9.48905e-18
7343.23231 9.64963e-18
7344.70481 9.66854e-18
7346.16729 9.39965e-18
7347.63979 9.30233e-18
7349.11229 9.52508e-18
7350.57477 9.69633e-18
7352.04727 9.59269e-18
7353.51977 9.42994e-18
7354.99227 9.62171e-18
7356.46477 9.50132e-18
7357.92725 9.41534e-18
7359.39975 9.45463e-18
7360.87225 9.70707e-18
7362.34475 9.86841e-18
7363.80723 9.55274e-18
7365.27973 9.49735e-18
7366.75223 9.53400e-18
7368.21471 9.79608e-18
7369.68721 9.81827e-18
7371.15971 9.50020e-18
7372.63220 9.36234e-18
7374.09469 9.47378e-18
7375.56719 9.44652e-18
7377.03968 9.46922e-18
7378.51218 9.47521e-18
7379.97466 9.44766e-18
7381.44716 9.52574e-18
7382.91966 9.54299e-18
7384.39216 9.49083e-18
7385.85464 9.44523e-18
7387.32714 9.36837e-18
7388.79964 9.45309e-18
7390.27214 9.36869e-18
7391.73462 9.49763e-18
7393.20712 9.53562e-18
7394.67962 9.65028e-18
7396.15212 9.78899e-18
7397.61460 9.73243e-18
7399.08710 9.82688e-18
7400.55960 9.98730e-18
7402.03210 9.89789e-18
7403.49458 9.74122e-18
7404.96708 9.81511e-18
7406.43958 9.67935e-18
7407.91208 9.81320e-18
7409.37456 9.63323e-18
7410.84706 9.59712e-18
7412.31956 9.29860e-18
7412.33959 9.29860e-18
7413.20105 9.30162e-18
7414.06252 9.30471e-18
7414.92398 9.31082e-18
7415.78544 9.31686e-18
7416.64690 9.32334e-18
7417.50836 9.32982e-18
7418.36983 9.33439e-18
7419.23129 9.33903e-18
7420.09275 9.33991e-18
7420.95421 9.34080e-18
7421.82569 9.33895e-18
7422.68715 9.33704e-18
7423.54861 9.33704e-18
7424.41008 9.33704e-18
7425.27154 9.34168e-18
7426.13300 9.34632e-18
7426.99446 9.35449e-18
7427.85592 9.36259e-18
7428.71739 9.37224e-18
7429.57885 9.38189e-18
7430.44031 9.38829e-18
7431.31179 9.39470e-18
7432.17325 9.39440e-18
7433.03471 9.39404e-18
7433.89618 9.39057e-18
7434.75764 9.38711e-18
7435.61910 9.38454e-18
7436.48056 9.38196e-18
7437.34202 9.38122e-18
7438.20349 9.38049e-18
7439.06495 9.38196e-18
7439.92641 9.38343e-18
7440.79789 9.38689e-18
7441.65935 9.39035e-18
7442.52081 9.39485e-18
7443.38227 9.39934e-18
7444.24374 9.40479e-18
7445.10520 9.41016e-18
7445.96666 9.41686e-18
7446.82812 9.42364e-18
7447.68959 9.42776e-18
7448.55105 9.43189e-18
7449.41251 9.42681e-18
7450.28399 9.42172e-18
7451.14545 9.40906e-18
7452.00691 9.39639e-18
7452.86837 9.38468e-18
7453.72984 9.37290e-18
7454.59130 9.36517e-18
7455.45276 9.35751e-18
7456.31422 9.35029e-18
7457.17568 9.34315e-18
7458.03715 9.33483e-18
7458.89861 9.32651e-18
7459.77009 9.31694e-18
7460.63155 9.30736e-18
7461.49301 9.29853e-18
7462.35447 9.28962e-18
7463.21594 9.28991e-18
7464.07740 9.29021e-18
7464.93886 9.30449e-18
7465.80032 9.31885e-18
7466.66178 9.34021e-18
7467.52325 9.36156e-18
7468.38471 9.38211e-18
7469.25619 9.40258e-18
7470.11765 9.41458e-18
7470.97911 9.42651e-18
7471.84057 9.42357e-18
7472.70203 9.42055e-18
7473.56350 9.41016e-18
7474.42496 9.39985e-18
7475.28642 9.39271e-18
7476.14788 9.38564e-18
7477.00934 9.38225e-18
7477.87081 9.37894e-18
7478.73227 9.37666e-18
7479.60375 9.37437e-18
7480.46521 9.37084e-18
7481.32667 9.36731e-18
7482.18813 9.35965e-18
7483.04960 9.35206e-18
7483.91106 9.34153e-18
7484.77252 9.33093e-18
7485.63398 9.32158e-18
7486.49544 9.31215e-18
7487.35690 9.30456e-18
7488.21837 9.29698e-18
7489.08985 9.28822e-18
7489.95131 9.27953e-18
7490.81277 9.26863e-18
7491.67423 9.25773e-18
7492.53569 9.24617e-18
7493.39716 9.23461e-18
7494.25862 9.22327e-18
7495.12008 9.21200e-18
7495.98154 9.20125e-18
7496.84300 9.19050e-18
7497.70447 9.18012e-18
7498.57595 9.16981e-18
7499.43741 9.15810e-18
7500.29887 9.14639e-18
7501.16033 9.13196e-18
7502.02179 9.11752e-18
7502.88325 9.10206e-18
7503.74472 9.08659e-18
7504.60618 9.07150e-18
7505.46764 9.05640e-18
7506.32910 9.03770e-18
7507.19056 9.01892e-18
7508.06204 8.99256e-18
7508.92351 8.96619e-18
7509.78497 8.93284e-18
7510.64643 8.89940e-18
7511.50789 8.86060e-18
7512.36935 8.82186e-18
7513.23082 8.78534e-18
7514.09228 8.74881e-18
7514.95374 8.72459e-18
7515.81520 8.70043e-18
7516.67666 8.68497e-18
7517.54814 8.66950e-18
7518.40960 8.65117e-18
7519.27107 8.63276e-18
7520.13253 8.60684e-18
7520.99399 8.58092e-18
7521.85545 8.54837e-18
7522.71691 8.51589e-18
7523.57838 8.47929e-18
7524.43984 8.44270e-18
7525.30130 8.40742e-18
7526.16276 8.37208e-18
7527.02423 8.34019e-18
7527.89570 8.30823e-18
7528.75717 8.27531e-18
7529.61863 8.24240e-18
7530.48009 8.20550e-18
7531.34155 8.16861e-18
7532.20301 8.12863e-18
7533.06448 8.08871e-18
7533.92594 8.04608e-18
7534.78740 8.00344e-18
7535.64886 7.95513e-18
7536.52034 7.90683e-18
7537.38180 7.85138e-18
7538.24327 7.79593e-18
7539.10473 7.73989e-18
7539.96619 7.68385e-18
7540.82765 7.63399e-18
7541.68911 7.58414e-18
7542.55058 7.54099e-18
7543.41204 7.49784e-18
7544.27350 7.46028e-18
7545.13496 7.42272e-18
7545.99642 7.38495e-18
7546.86790 7.34713e-18
7547.72936 7.30179e-18
7548.59083 7.25642e-18
7549.45229 7.20349e-18
7550.31375 7.15053e-18
7551.17521 7.09365e-18
7552.03667 7.03676e-18
7552.89814 6.97993e-18
7553.75960 6.92310e-18
7554.62106 6.87069e-18
7555.48252 6.81830e-18
7556.35400 6.77128e-18
7557.21546 6.72427e-18
7558.07693 6.67975e-18
7558.93839 6.63524e-18
7559.79985 6.59077e-18
7560.66131 6.54630e-18
7561.52277 6.50065e-18
7562.38424 6.45499e-18
7563.24570 6.40615e-18
7564.10716 6.35729e-18
7564.96862 6.30088e-18
7565.84010 6.24445e-18
7566.70156 6.18042e-18
7567.56302 6.11638e-18
7568.42449 6.05702e-18
7569.28595 5.99768e-18
7570.14741 5.95321e-18
7571.00887 5.90877e-18
7571.87033 5.88070e-18
7572.73180 5.85266e-18
7573.59326 5.83933e-18
7574.45472 5.82603e-18
7575.31618 5.80885e-18
7576.18766 5.79167e-18
7577.04912 5.75025e-18
7577.91059 5.70879e-18
7578.77205 5.65428e-18
7579.63351 5.59976e-18
7580.49497 5.55001e-18
7581.35643 5.50027e-18
7582.21790 5.45245e-18
7583.07936 5.40464e-18
7583.94082 5.35045e-18
7584.81230 5.29624e-18
7585.67376 5.20564e-18
7586.53522 5.11496e-18
7587.39668 4.94629e-18
7588.25815 4.77745e-18
7589.11961 4.53894e-18
7589.98107 4.30029e-18
7590.84253 4.04166e-18
7591.70399 3.78301e-18
7592.56546 3.55162e-18
7593.42692 3.32029e-18
7594.28838 3.16049e-18
7595.15986 3.00084e-18
7596.02132 2.93477e-18
7596.88278 2.86889e-18
7597.74425 2.87513e-18
7598.60571 2.88153e-18
7599.46717 2.94460e-18
7600.32863 3.00779e-18
7601.19009 3.13943e-18
7602.05156 3.27119e-18
7602.91302 3.47170e-18
7603.77448 3.67233e-18
7604.64596 3.91579e-18
7605.50742 4.15933e-18
7606.36888 4.41477e-18
7607.23034 4.67024e-18
7608.09181 4.90620e-18
7608.95327 5.14213e-18
7609.81473 5.32717e-18
7610.67619 5.51210e-18
7611.53765 5.60220e-18
7612.39912 5.69210e-18
7613.26058 5.65187e-18
7614.13206 5.61138e-18
7614.99352 5.44276e-18
7615.85498 5.27388e-18
7616.71644 4.99676e-18
7617.57791 4.71943e-18
7618.43937 4.41656e-18
7619.30083 4.11366e-18
7620.16229 3.89653e-18
7621.02375 3.67959e-18
7621.88522 3.59041e-18
7622.74668 3.50149e-18
7623.61816 3.53140e-18
7624.47962 3.56155e-18
7625.34108 3.67227e-18
7626.20254 3.78314e-18
7627.06400 3.90432e-18
7627.92547 4.02551e-18
7628.78693 4.11803e-18
7629.64839 4.21048e-18
7630.50985 4.28912e-18
7631.37131 4.36773e-18
7632.23278 4.44210e-18
7633.10426 4.51646e-18
7633.96572 4.58616e-18
7634.82718 4.65586e-18
7635.68864 4.72091e-18
7636.55010 4.78596e-18
7637.41157 4.83355e-18
7638.27303 4.88111e-18
7639.13449 4.90476e-18
7639.99595 4.92837e-18
7640.85741 4.95058e-18
7641.71888 4.97278e-18
7642.59035 5.01584e-18
7643.45182 5.05892e-18
7644.31328 5.13234e-18
7645.17474 5.20581e-18
7646.03620 5.31363e-18
7646.89766 5.42152e-18
7647.75913 5.53466e-18
7648.62059 5.64780e-18
7649.48205 5.72956e-18
7650.34351 5.81125e-18
7651.20497 5.85383e-18
7652.06644 5.89634e-18
7652.93792 5.90380e-18
7653.79938 5.91120e-18
7654.66084 5.91169e-18
7655.52230 5.91218e-18
7656.38376 5.94916e-18
7657.24523 5.98621e-18
7658.10669 6.06670e-18
7658.96815 6.14728e-18
7659.82961 6.24741e-18
7660.69107 6.34758e-18
7661.55254 6.44709e-18
7662.42401 6.54659e-18
7663.28548 6.62709e-18
7664.14694 6.70754e-18
7665.00840 6.76793e-18
7665.86986 6.82827e-18
7666.73132 6.90342e-18
7667.59279 6.97859e-18
7668.45425 7.08467e-18
7669.31571 7.19081e-18
7670.17717 7.29477e-18
7671.03863 7.39872e-18
7671.91011 7.47390e-18
7672.77158 7.54901e-18
7673.63304 7.59055e-18
7674.49450 7.63193e-18
7675.35596 7.64165e-18
7676.21742 7.65130e-18
7677.07889 7.66853e-18
7677.94035 7.68569e-18
7678.80181 7.74968e-18
7679.66327 7.81382e-18
7680.52473 7.90145e-18
7681.38620 7.98908e-18
7682.25767 8.06368e-18
7683.11914 8.13835e-18
7683.98060 8.19983e-18
7684.84206 8.26132e-18
7685.70352 8.32001e-18
7686.56498 8.37870e-18
7687.42645 8.43703e-18
7688.28791 8.49527e-18
7689.14937 8.55404e-18
7690.01083 8.61280e-18
7690.88231 8.66641e-18
7691.74377 8.72002e-18
7692.60524 8.75713e-18
7693.46670 8.79432e-18
7694.32816 8.81774e-18
7695.18962 8.84116e-18
7696.05108 8.86818e-18
7696.91255 8.89521e-18
7697.77401 8.93239e-18
7698.63547 8.96951e-18
7699.49693 9.00802e-18
7700.35839 9.04646e-18
7701.22987 9.07894e-18
7702.09133 9.11141e-18
7702.95280 9.13350e-18
7703.81426 9.15545e-18
7704.67572 9.16406e-18
7705.53718 9.17253e-18
7706.39864 9.16826e-18
7707.26011 9.16391e-18
7708.12157 9.15059e-18
7708.98303 9.13726e-18
7709.84449 9.13034e-18
7710.71597 9.12349e-18
7711.57743 9.13682e-18
7712.43890 9.15022e-18
7713.30036 9.18048e-18
7714.16182 9.21082e-18
7715.02328 9.25051e-18
7715.88474 9.29021e-18
7716.74620 9.32710e-18
7717.60767 9.36406e-18
7718.46913 9.38498e-18
7719.33059 9.40597e-18
7720.20207 9.41002e-18
7721.06353 9.41407e-18
7721.92499 9.40604e-18
7722.78646 9.39801e-18
7723.64792 9.38616e-18
7724.50938 9.37430e-18
7725.37084 9.36966e-18
7726.23230 9.36495e-18
7727.09377 9.37106e-18
7727.95523 9.37725e-18
7728.81669 9.39050e-18
7729.67815 9.40383e-18
7730.54963 9.42349e-18
7731.41109 9.44323e-18
7732.27255 9.47342e-18
7733.13402 9.50354e-18
7733.99548 9.53940e-18
7734.85694 9.57519e-18
7735.71840 9.59735e-18
7736.57986 9.61944e-18
7737.44133 9.61687e-18
7738.30279 9.61429e-18
7739.17427 9.59492e-18
7740.03573 9.57556e-18
7740.89719 9.54971e-18
7741.75865 9.52386e-18
7742.62012 9.50692e-18
7743.48158 9.48999e-18
7744.34304 9.49448e-18
7745.20450 9.49897e-18
7746.06596 9.51642e-18
7746.92743 9.53388e-18
7747.78889 9.55258e-18
7748.65035 9.57128e-18
7749.52183 9.58712e-18
7750.38329 9.60288e-18
7751.24475 9.61274e-18
7752.10621 9.62261e-18
7752.96768 9.62659e-18
7753.82914 9.63049e-18
7754.69060 9.63071e-18
7755.55206 9.63086e-18
7756.41352 9.62467e-18
7757.27499 9.61841e-18
7758.13645 9.60059e-18
7759.00793 9.58285e-18
7759.86939 9.55862e-18
7760.73085 9.53432e-18
7761.59231 9.51583e-18
7762.45378 9.49735e-18
7763.31524 9.48756e-18
7764.17670 9.47769e-18
7765.03816 9.47018e-18
7765.89962 9.46267e-18
7766.76109 9.45251e-18
7767.62255 9.44234e-18
7768.49403 9.42585e-18
7769.35549 9.40928e-18
7770.21695 9.38616e-18
7771.07841 9.36296e-18
7771.93988 9.34102e-18
7772.80134 9.31915e-18
7773.66280 9.30427e-18
7774.52426 9.28940e-18
7775.38572 9.27850e-18
7776.24719 9.26767e-18
7777.10865 9.25839e-18
7777.98013 9.24919e-18
7778.84159 9.24293e-18
7779.70305 9.23667e-18
7780.56451 9.23468e-18
7781.42597 9.23269e-18
7782.28744 9.23461e-18
7783.14890 9.23652e-18
7784.01036 9.24153e-18
7784.87182 9.24654e-18
7785.73328 9.25397e-18
7786.59475 9.26141e-18
7787.46623 9.27040e-18
7788.32769 9.27945e-18
7789.18915 9.28748e-18
7790.05061 9.29543e-18
7790.91207 9.29948e-18
7791.77354 9.30346e-18
7792.63500 9.30199e-18
7793.49646 9.30051e-18
7794.35792 9.29308e-18
7795.21938 9.28557e-18
7796.08085 9.27562e-18
7796.94231 9.26568e-18
7797.81379 9.25957e-18
7798.67525 9.25353e-18
7799.53671 9.25611e-18
7800.39817 9.25876e-18
7801.25963 9.27319e-18
7802.12110 9.28770e-18
7802.98256 9.31156e-18
7803.84402 9.33549e-18
7804.70548 9.35670e-18
7805.56694 9.37798e-18
7806.42841 9.38785e-18
7807.29989 9.39772e-18
7808.16135 9.39720e-18
7809.02281 9.39669e-18
7809.88427 9.38748e-18
7810.74573 9.37820e-18
7811.60720 9.36215e-18
7812.46866 9.34602e-18
7813.33012 9.32599e-18
7814.19158 9.30596e-18
7815.05304 9.28564e-18
7815.91450 9.26532e-18
7816.78598 9.24808e-18
7817.64745 9.23085e-18
7818.50891 9.22084e-18
7819.37037 9.21082e-18
7820.23183 9.21126e-18
7821.09329 9.21178e-18
7821.95476 9.21524e-18
7822.81622 9.21878e-18
7823.67768 9.21406e-18
7824.53914 9.20935e-18
7825.40060 9.19506e-18
7826.27208 9.18070e-18
7827.13355 9.16023e-18
7827.99501 9.13983e-18
7828.85647 9.11605e-18
7829.71793 9.09234e-18
7830.57939 9.06818e-18
7831.44085 9.04403e-18
7832.30232 9.02135e-18
7833.16378 8.99867e-18
7834.02524 8.97746e-18
7834.88670 8.95625e-18
7835.75818 8.93851e-18
7836.61964 8.92076e-18
7837.48111 8.91200e-18
7838.34257 8.90323e-18
7839.20403 8.90493e-18
7840.06549 8.90655e-18
7840.92695 8.91244e-18
7841.78842 8.91833e-18
7842.64988 8.92304e-18
7843.51134 8.92775e-18
7844.37280 8.92879e-18
7845.23426 8.92989e-18
7846.10574 8.92584e-18
7846.96720 8.92186e-18
7847.82867 8.91479e-18
7848.69013 8.90772e-18
7849.55159 8.90014e-18
7850.41305 8.89256e-18
7851.27452 8.88608e-18
7852.13598 8.87952e-18
7852.99744 8.87518e-18
7853.85890 8.87083e-18
7854.72036 8.86951e-18
7855.59184 8.86818e-18
7856.45330 8.87032e-18
7857.31477 8.87253e-18
7858.17623 8.87481e-18
7859.03769 8.87709e-18
7859.89915 8.87415e-18
7860.76061 8.87120e-18
7861.62208 8.86339e-18
7862.48354 8.85559e-18
7863.34500 8.84727e-18
7864.20646 8.83895e-18
7865.07794 8.82783e-18
7865.93940 8.81678e-18
7866.80087 8.79557e-18
7867.66233 8.77444e-18
7868.52379 8.74241e-18
7869.38525 8.71045e-18
7870.24671 8.67370e-18
7871.10818 8.63688e-18
7871.96964 8.60389e-18
7872.83110 8.57083e-18
7873.69256 8.55536e-18
7874.56404 8.54005e-18
7875.42550 8.54763e-18
7876.28696 8.55529e-18
7877.14843 8.57031e-18
7878.00989 8.58533e-18
7878.87135 8.59336e-18
7879.73281 8.60146e-18
7880.59427 8.59815e-18
7881.45574 8.59483e-18
7882.31720 8.57782e-18
7883.17866 8.56074e-18
7884.05014 8.53600e-18
7884.91160 8.51125e-18
7885.77306 8.48629e-18
7886.63453 8.46140e-18
7887.49599 8.43570e-18
7888.35745 8.40993e-18
7889.21891 8.38165e-18
7890.08037 8.35337e-18
7890.94184 8.32406e-18
7891.80330 8.29483e-18
7892.66476 8.26633e-18
7893.52622 8.23791e-18
7894.39770 8.21766e-18
7895.25916 8.19740e-18
7896.12062 8.19564e-18
7896.98209 8.19380e-18
7897.84355 8.20462e-18
7898.70501 8.21537e-18
7899.56647 8.22171e-18
7900.42793 8.22804e-18
7901.28940 8.22244e-18
7902.15086 8.21685e-18
7903.01232 8.20116e-18
7903.88380 8.18540e-18
7904.74526 8.16441e-18
7905.60672 8.14350e-18
7906.46819 8.12818e-18
7907.32965 8.11294e-18
7908.19111 8.10764e-18
7909.05257 8.10234e-18
7909.91403 8.09475e-18
7910.77550 8.08717e-18
7911.63696 8.07001e-18
7912.49842 8.05285e-18
7913.36990 8.03488e-18
7914.23136 8.01684e-18
7915.09282 8.00535e-18
7915.95428 7.99387e-18
7916.81575 7.98937e-18
7917.67721 7.98488e-18
7918.53867 7.98643e-18
7919.40013 7.98798e-18
7920.26159 7.98474e-18
7921.12306 7.98157e-18
7921.98452 7.96272e-18
7922.85600 7.94379e-18
7923.71746 7.91596e-18
7924.57892 7.88812e-18
7925.44038 7.86301e-18
7926.30185 7.83783e-18
7927.16331 7.82221e-18
7928.02477 7.80660e-18
7928.88623 7.80506e-18
7929.74769 7.80358e-18
7930.60916 7.81330e-18
7931.47062 7.82302e-18
7932.34210 7.83598e-18
7933.20356 7.84902e-18
7934.06502 7.85837e-18
7934.92648 7.86772e-18
7935.78794 7.86772e-18
7936.64941 7.86780e-18
7937.51087 7.85557e-18
7938.37233 7.84328e-18
7939.23379 7.81942e-18
7940.09525 7.79548e-18
7940.95672 7.76345e-18
7941.81818 7.73142e-18
7942.68966 7.69924e-18
7943.55112 7.66706e-18
7944.41258 7.64099e-18
7945.27404 7.61492e-18
7946.13551 7.59607e-18
7946.99697 7.57722e-18
7947.85843 7.56551e-18
7948.71989 7.55373e-18
7949.58135 7.54695e-18
7950.44282 7.54018e-18
7951.30428 7.53532e-18
7952.17576 7.53046e-18
7953.03722 7.52103e-18
7953.89868 7.51161e-18
7954.76014 7.49202e-18
7955.62160 7.47243e-18
7956.48307 7.45085e-18
7957.34453 7.42920e-18
7958.20599 7.41624e-18
7959.06745 7.40336e-18
7959.92891 7.39982e-18
7960.79038 7.39629e-18
7961.66186 7.39990e-18
7962.52332 7.40343e-18
7963.38478 7.40851e-18
7964.24624 7.41359e-18
7965.10770 7.41205e-18
7965.96917 7.41043e-18
7966.83063 7.40689e-18
7967.69209 7.40328e-18
7968.55355 7.41116e-18
7969.41501 7.41912e-18
7970.27648 7.44158e-18
7971.14795 7.46411e-18
7972.00942 7.49437e-18
7972.87088 7.52464e-18
7973.73234 7.55358e-18
7974.59380 7.58259e-18
7975.45526 7.59703e-18
7976.31673 7.61146e-18
7977.17819 7.60572e-18
7978.03965 7.59997e-18
7978.90111 7.58488e-18
7979.76257 7.56978e-18
7980.63405 7.55476e-18
7981.49552 7.53981e-18
7982.35698 7.52722e-18
7983.21844 7.51462e-18
7984.07990 7.50594e-18
7984.94136 7.49725e-18
7985.80283 7.48929e-18
7986.66429 7.48141e-18
7987.52575 7.47088e-18
7988.38721 7.46028e-18
7989.24867 7.44850e-18
7990.11014 7.43672e-18
7990.98161 7.42545e-18
7991.84308 7.41418e-18
7992.70454 7.40689e-18
7993.56600 7.39960e-18
7994.42746 7.40026e-18
7995.28892 7.40100e-18
7996.15039 7.40174e-18
7997.01185 7.40247e-18
7997.87331 7.39069e-18
7998.73477 7.37891e-18
7999.59623 7.35613e-18
8000.46771 7.33336e-18
8001.32917 7.30911e-18
8002.19064 7.28486e-18
8003.05210 7.26634e-18
8003.91356 7.24782e-18
8004.77502 7.24114e-18
8005.63649 7.23450e-18
8006.49795 7.23810e-18
8007.35941 7.24173e-18
8008.22087 7.24307e-18
8009.08233 7.24440e-18
8009.95381 7.23938e-18
8010.81527 7.23435e-18
8011.67674 7.23497e-18
8012.53820 7.23559e-18
8013.39966 7.24768e-18
8014.26112 7.25979e-18
8015.12258 7.27491e-18
8015.98405 7.29003e-18
8016.84551 7.30011e-18
8017.70697 7.31019e-18
8018.56843 7.30707e-18
8019.43991 7.30392e-18
8020.30137 7.28257e-18
8021.16284 7.26118e-18
8022.02430 7.23514e-18
8022.88576 7.20908e-18
8023.74722 7.19329e-18
8024.60868 7.17753e-18
8025.47015 7.17156e-18
8026.33161 7.16561e-18
8027.19307 7.16548e-18
8028.05453 7.16536e-18
8028.92601 7.16614e-18
8029.78747 7.16692e-18
8030.64893 7.16290e-18
8031.51040 7.15888e-18
8032.37186 7.15064e-18
8033.23332 7.14239e-18
8034.09478 7.13390e-18
8034.95624 7.12543e-18
8035.81771 7.11927e-18
8036.67917 7.11311e-18
8037.54063 7.11080e-18
8038.41211 7.10849e-18
8039.27357 7.11059e-18
8040.13503 7.11269e-18
8040.99650 7.11852e-18
8041.85796 7.12435e-18
8042.71942 7.13198e-18
8043.58088 7.13960e-18
8044.44234 7.14559e-18
8045.30380 7.15158e-18
8046.16527 7.15335e-18
8047.02673 7.15511e-18
8047.88819 7.15147e-18
8048.75967 7.14781e-18
8049.62113 7.13938e-18
8050.48259 7.13094e-18
8051.34406 7.12396e-18
8052.20552 7.11698e-18
8053.06698 7.11610e-18
8053.92844 7.11524e-18
8054.78990 7.11692e-18
8055.65137 7.11862e-18
8056.51283 7.11843e-18
8057.37429 7.11823e-18
8058.24577 7.11084e-18
8059.10723 7.10343e-18
8059.96869 7.08433e-18
8060.83015 7.06521e-18
8061.69162 7.03807e-18
8062.55308 7.01091e-18
8063.41454 6.98200e-18
8064.27600 6.95308e-18
8065.13746 6.92949e-18
8065.99893 6.90591e-18
8066.86039 6.89461e-18
8067.73187 6.88333e-18
8068.59333 6.88472e-18
8069.45479 6.88612e-18
8070.31625 6.89646e-18
8071.17772 6.90682e-18
8072.03918 6.91871e-18
8072.90064 6.93060e-18
8073.76210 6.93344e-18
8074.62356 6.93625e-18
8075.48503 6.92614e-18
8076.34649 6.91600e-18
8077.21797 6.89799e-18
8078.07943 6.87996e-18
8078.94089 6.85721e-18
8079.80235 6.83444e-18
8080.66381 6.80634e-18
8081.52528 6.77824e-18
8082.38674 6.74525e-18
8083.24820 6.71223e-18
8084.10966 6.67573e-18
8084.97113 6.63922e-18
8085.83259 6.60086e-18
8086.70407 6.56247e-18
8087.56553 6.52467e-18
8088.42699 6.48687e-18
8089.28845 6.45191e-18
8090.14991 6.41696e-18
8091.01138 6.38692e-18
8091.87284 6.35689e-18
8092.73430 6.33285e-18
8093.59576 6.30883e-18
8094.45722 6.29034e-18
8095.31869 6.27187e-18
8096.18015 6.25745e-18
8097.05163 6.24304e-18
8097.91309 6.22465e-18
8098.77455 6.20625e-18
8099.63601 6.17438e-18
8100.49748 6.14246e-18
8101.35894 6.09408e-18
8102.22040 6.04565e-18
8103.08186 5.98139e-18
8103.94332 5.91708e-18
8104.80479 5.84471e-18
8105.67626 5.77232e-18
8106.53773 5.70447e-18
8107.39919 5.63664e-18
8108.26065 5.58118e-18
8109.12211 5.52575e-18
8109.98357 5.48536e-18
8110.84504 5.44500e-18
8111.70650 5.41613e-18
8112.56796 5.38728e-18
8113.42942 5.35756e-18
8114.29088 5.32784e-18
8115.15235 5.28726e-18
8116.02383 5.24667e-18
8116.88529 5.19099e-18
8117.74675 5.13529e-18
8118.60821 5.06371e-18
8119.46967 4.99210e-18
8120.33114 4.91494e-18
8121.19260 4.83778e-18
8122.05406 4.76330e-18
8122.91552 4.68884e-18
8123.77698 4.60783e-18
8124.63845 4.52682e-18
8125.49991 4.43074e-18
8126.37139 4.33463e-18
8127.23285 4.22806e-18
8128.09431 4.12146e-18
8128.95577 4.01113e-18
8129.81723 3.90080e-18
8130.67870 3.79963e-18
8131.54016 3.69848e-18
8132.40162 3.62035e-18
8133.26308 3.54229e-18
8134.12454 3.47976e-18
8134.99602 3.41727e-18
8135.85749 3.35362e-18
8136.71895 3.28996e-18
8137.58041 3.21885e-18
8138.44187 3.14772e-18
8139.30333 3.06891e-18
8140.16480 2.99008e-18
8141.02626 2.90559e-18
8141.88772 2.82108e-18
8142.74918 2.73561e-18
8143.61064 2.65013e-18
8144.47210 2.56833e-18
8145.34358 2.48655e-18
8146.20505 2.41216e-18
8147.06651 2.33779e-18
8147.92797 2.27342e-18
8148.78943 2.20909e-18
8149.65089 2.15558e-18
8150.51236 2.10210e-18
8151.37382 2.05812e-18
8152.23528 2.01416e-18
8153.09674 1.97391e-18
8153.95820 1.93368e-18
8154.82968 1.89247e-18
8155.69115 1.85127e-18
8156.55261 1.80955e-18
8157.41407 1.76783e-18
8158.27553 1.72703e-18
8159.13699 1.68623e-18
8159.99845 1.64982e-18
8160.85992 1.61341e-18
8161.72138 1.58480e-18
8162.58284 1.55620e-18
8163.44430 1.53641e-18
8164.31578 1.51664e-18
8165.17724 1.50551e-18
8166.03871 1.49439e-18
8166.90017 1.48661e-18
8167.76163 1.47883e-18
8168.62309 1.46796e-18
8169.48455 1.45709e-18
8170.34602 1.43778e-18
8171.20748 1.41845e-18
8172.06894 1.38560e-18
8172.93040 1.35271e-18
8173.80188 1.31500e-18
8174.66334 1.27728e-18
8175.52481 1.25346e-18
8176.38627 1.22967e-18
8177.24773 1.22391e-18
8178.10919 1.21819e-18
8178.97065 1.21961e-18
8179.83212 1.22106e-18
8180.69358 1.22140e-18
8181.55504 1.22175e-18
8182.41650 1.21581e-18
8183.28798 1.20986e-18
8184.14944 1.19573e-18
8185.01090 1.18159e-18
8185.87237 1.16630e-18
8186.73383 1.15100e-18
8187.59529 1.13955e-18
8188.45675 1.12810e-18
8189.31821 1.11662e-18
8190.17968 1.10513e-18
8191.04114 1.09091e-18
8191.90260 1.07667e-18
8192.77408 1.06301e-18
8193.63554 1.04935e-18
8194.49700 1.03960e-18
8195.35846 1.02986e-18
8196.21993 1.02701e-18
8197.08139 1.02418e-18
8197.94285 1.03049e-18
8198.80431 1.03681e-18
8199.66577 1.04687e-18
8200.52724 1.05694e-18
8201.38870 1.06318e-18
8202.25016 1.06942e-18
8203.12164 1.07038e-18
8203.98310 1.07133e-18
8204.84456 1.06823e-18
8205.70603 1.06512e-18
8206.56749 1.05859e-18
8207.42895 1.05204e-18
8208.29041 1.04260e-18
8209.15187 1.03315e-18
8210.01334 1.02234e-18
8210.87480 1.01152e-18
8211.73626 1.00132e-18
8212.60774 9.91128e-19
8213.46920 9.82394e-19
8214.33066 9.73668e-19
8215.19212 9.66252e-19
8216.05359 9.58844e-19
8216.91505 9.50398e-19
8217.77651 9.41952e-19
8218.63797 9.25950e-19
8219.49943 9.09926e-19
8220.36090 8.83865e-19
8221.22236 8.57782e-19
8222.08382 8.28341e-19
8222.95530 7.98893e-19
8223.81676 7.73525e-19
8224.67822 7.48163e-19
8225.53969 7.36205e-19
8226.40115 7.24282e-19
8227.26261 7.32478e-19
8228.12407 7.40719e-19
8228.98553 7.62788e-19
8229.84700 7.84887e-19
8230.70846 8.12104e-19
8231.57994 8.39336e-19
8232.44140 8.63224e-19
8233.30286 8.87113e-19
8234.16432 8.99801e-19
8235.02578 9.12467e-19
8235.88725 9.16568e-19
8236.74871 9.20640e-19
8237.61017 9.22717e-19
8238.47163 9.24794e-19
8239.33309 9.29426e-19
8240.19456 9.34065e-19
8241.06604 9.45066e-19
8241.92750 9.56083e-19
8242.78896 9.71223e-19
8243.65042 9.86370e-19
8244.51188 9.98771e-19
8245.37335 1.01117e-18
8246.23481 1.01746e-18
8247.09627 1.02373e-18
8247.95773 1.02429e-18
8248.81919 1.02482e-18
8249.68066 1.02102e-18
8250.54212 1.01720e-18
8251.41360 1.01209e-18
8252.27506 1.00697e-18
8253.13652 1.00341e-18
8253.99798 9.99854e-19
8254.85945 9.99567e-19
8255.72091 9.99294e-19
8256.58237 1.00326e-18
8257.44383 1.00725e-18
8258.30529 1.01480e-18
8259.16676 1.02235e-18
8260.02822 1.03203e-18
8260.89970 1.04171e-18
8261.76116 1.05083e-18
8262.62262 1.05997e-18
8263.48408 1.06591e-18
8264.34554 1.07184e-18
8265.20701 1.07223e-18
8266.06847 1.07261e-18
8266.92993 1.06589e-18
8267.79139 1.05915e-18
8268.65285 1.04889e-18
8269.52433 1.03862e-18
8270.38580 1.02979e-18
8271.24726 1.02097e-18
8272.10872 1.01690e-18
8272.97018 1.01285e-18
8273.83164 1.01614e-18
8274.69311 1.01943e-18
8275.55457 1.02749e-18
8276.41603 1.03555e-18
8277.27749 1.04256e-18
8278.13895 1.04956e-18
8279.01043 1.05315e-18
8279.87189 1.05674e-18
8280.73336 1.05748e-18
8281.59482 1.05821e-18
8282.45628 1.05784e-18
8283.31774 1.05748e-18
8284.17920 1.05969e-18
8285.04067 1.06190e-18
8285.90213 1.06808e-18
8286.76359 1.07427e-18
8287.62505 1.08109e-18
8288.48651 1.08792e-18
8289.34798 1.09363e-18
8290.21946 1.09933e-18
8291.08092 1.10656e-18
8291.94238 1.11380e-18
8292.80384 1.12409e-18
8293.66530 1.13438e-18
8294.52677 1.14503e-18
8295.38823 1.15568e-18
8296.24969 1.16421e-18
8297.11115 1.17274e-18
8297.97261 1.17754e-18
8298.83408 1.18233e-18
8299.70555 1.18246e-18
8300.56702 1.18257e-18
8301.42848 1.18366e-18
8302.28994 1.18476e-18
8303.15140 1.19352e-18
8304.01286 1.20229e-18
8304.87433 1.21613e-18
8305.73579 1.22998e-18
8306.59725 1.24333e-18
8307.45871 1.25669e-18
8308.32017 1.26619e-18
8309.18164 1.27568e-18
8310.05312 1.27884e-18
8310.91458 1.28199e-18
8311.77604 1.28146e-18
8312.63750 1.28092e-18
8313.49896 1.28308e-18
8314.36043 1.28523e-18
8315.22189 1.29367e-18
8316.08335 1.30212e-18
8316.94481 1.31755e-18
8317.80627 1.33300e-18
8318.67775 1.35360e-18
8319.53921 1.37422e-18
8320.40068 1.39426e-18
8321.26214 1.41431e-18
8322.12360 1.42969e-18
8322.98506 1.44506e-18
8323.84652 1.45572e-18
8324.70799 1.46638e-18
8325.56945 1.47286e-18
8326.43091 1.47934e-18
8327.29237 1.48323e-18
8328.16385 1.48713e-18
8329.02531 1.49044e-18
8329.88678 1.49373e-18
8330.74824 1.49758e-18
8331.60970 1.50143e-18
8332.47116 1.50695e-18
8333.33262 1.51247e-18
8334.19408 1.52242e-18
8335.05555 1.53240e-18
8335.91701 1.54910e-18
8336.77847 1.56581e-18
8337.64995 1.58746e-18
8338.51141 1.60911e-18
8339.37287 1.63262e-18
8340.23434 1.65613e-18
8341.09580 1.67726e-18
8341.95726 1.69838e-18
8342.81872 1.71254e-18
8343.68018 1.72668e-18
8344.54165 1.73398e-18
8345.40311 1.74126e-18
8346.26457 1.74490e-18
8347.12603 1.74853e-18
8347.99751 1.75114e-18
8348.85897 1.75375e-18
8349.72043 1.75728e-18
8350.58190 1.76081e-18
8351.44336 1.76753e-18
8352.30482 1.77426e-18
8353.16628 1.78657e-18
8354.02775 1.79890e-18
8354.88921 1.81709e-18
8355.75067 1.83529e-18
8356.62215 1.85638e-18
8357.48361 1.87749e-18
8358.34507 1.89852e-18
8359.20653 1.91955e-18
8360.06800 1.93795e-18
8360.92946 1.95633e-18
8361.79092 1.97052e-18
8362.65238 1.98471e-18
8363.51384 1.99740e-18
8364.37531 2.01008e-18
8365.23677 2.02388e-18
8366.10825 2.03769e-18
8366.96971 2.05089e-18
8367.83117 2.06408e-18
8368.69263 2.07486e-18
8369.55410 2.08564e-18
8370.41556 2.09576e-18
8371.27702 2.10589e-18
8372.13848 2.11777e-18
8372.99994 2.12966e-18
8373.86140 2.14462e-18
8374.72287 2.15960e-18
8375.59435 2.17850e-18
8376.45581 2.19741e-18
8377.31727 2.22006e-18
8378.17873 2.24272e-18
8379.04019 2.26825e-18
8379.90166 2.29378e-18
8380.76312 2.32080e-18
8381.62458 2.34782e-18
8382.48604 2.37468e-18
8383.34750 2.40153e-18
8384.20897 2.42687e-18
8385.07043 2.45220e-18
8385.94191 2.47476e-18
8386.80337 2.49732e-18
8387.66483 2.51786e-18
8388.52629 2.53840e-18
8389.38775 2.56090e-18
8390.24922 2.58341e-18
8391.11068 2.60900e-18
8391.97214 2.63459e-18
8392.83360 2.65812e-18
8393.69507 2.68165e-18
8394.55653 2.69942e-18
8395.41799 2.71719e-18
8396.28947 2.72912e-18
8397.15093 2.74104e-18
8398.01239 2.74861e-18
8398.87385 2.75616e-18
8399.73532 2.76774e-18
8400.59678 2.77932e-18
8401.45824 2.80253e-18
8402.31970 2.82577e-18
8403.18116 2.85816e-18
8404.04263 2.89056e-18
8404.90409 2.92745e-18
8405.77557 2.96435e-18
8406.63703 3.00058e-18
8407.49849 3.03680e-18
8408.35995 3.06703e-18
8409.22142 3.09724e-18
8410.08288 3.12150e-18
8410.94434 3.14574e-18
8411.80580 3.16674e-18
8412.66726 3.18774e-18
8413.52873 3.20737e-18
8414.39019 3.22699e-18
8415.26167 3.24677e-18
8416.12313 3.26656e-18
8416.98459 3.28811e-18
8417.84605 3.30966e-18
8418.70751 3.33431e-18
8419.56898 3.35896e-18
8420.43044 3.38721e-18
8421.29190 3.41547e-18
8422.15336 3.44722e-18
8423.01482 3.47898e-18
8423.87629 3.51253e-18
8424.74777 3.54609e-18
8425.60923 3.57682e-18
8426.47069 3.60754e-18
8427.33215 3.63354e-18
8428.19361 3.65953e-18
8429.05508 3.68606e-18
8429.91654 3.71258e-18
8430.77800 3.74390e-18
8431.63946 3.77523e-18
8432.50092 3.81180e-18
8433.36239 3.84837e-18
8434.23386 3.88952e-18
8435.09533 3.93066e-18
8435.95679 3.96953e-18
8436.81825 4.00841e-18
8437.67971 4.03829e-18
8438.54117 4.06816e-18
8439.40264 4.09298e-18
8440.26410 4.11779e-18
8441.12556 4.14395e-18
8441.98702 4.17010e-18
8442.84848 4.19946e-18
8443.70995 4.22884e-18
8444.58143 4.26186e-18
8445.44289 4.29489e-18
8446.30435 4.33192e-18
8447.16581 4.36895e-18
8448.02727 4.40987e-18
8448.88874 4.45079e-18
8449.75020 4.49434e-18
8450.61166 4.53789e-18
8451.47312 4.58221e-18
8452.33458 4.62653e-18
8453.20606 4.66951e-18
8454.06752 4.71247e-18
8454.92899 4.75151e-18
8455.79045 4.79054e-18
8456.65191 4.82621e-18
8457.51337 4.86187e-18
8458.37483 4.89971e-18
8459.23630 4.93755e-18
8460.09776 4.97989e-18
8460.95922 5.02224e-18
8461.82068 5.06432e-18
8462.69216 5.10641e-18
8463.55362 5.14487e-18
8464.41508 5.18333e-18
8465.27655 5.21843e-18
8466.13801 5.25351e-18
8466.99947 5.28666e-18
8467.86093 5.31980e-18
8468.72240 5.35802e-18
8469.58386 5.39626e-18
8470.44532 5.44579e-18
8471.30678 5.49534e-18
8472.16824 5.55232e-18
8473.03972 5.60932e-18
8473.90118 5.66817e-18
8474.76265 5.72701e-18
8475.62411 5.78348e-18
8476.48557 5.83994e-18
8477.34703 5.88995e-18
8478.20849 5.93994e-18
8479.06996 5.98831e-18
8479.93142 6.03668e-18
8480.79288 6.09222e-18
8481.65434 6.14777e-18
8482.51580 6.20850e-18
8483.38728 6.26924e-18
8484.24875 6.32697e-18
8485.11021 6.38469e-18
8485.97167 6.43576e-18
8486.83313 6.48683e-18
8487.69459 6.53115e-18
8488.55605 6.57546e-18
8489.41752 6.61537e-18
8490.27898 6.65527e-18
8491.14044 6.69668e-18
8492.00190 6.73810e-18
8492.87338 6.78485e-18
8493.73484 6.83162e-18
8494.59631 6.88267e-18
8495.45777 6.93372e-18
8496.31923 6.98964e-18
8497.18069 7.04557e-18
8498.04215 7.11259e-18
8498.90362 7.17963e-18
8499.76508 7.26011e-18
8500.62654 7.34063e-18
8501.48800 7.42383e-18
8502.35948 7.50704e-18
8503.22094 7.58245e-18
8504.08240 7.65785e-18
8504.94387 7.72332e-18
8505.80533 7.78871e-18
8506.66679 7.84379e-18
8507.52825 7.89880e-18
8508.38972 7.94733e-18
8509.25118 7.99585e-18
8510.11264 8.04306e-18
8510.98412 8.09033e-18
8511.84558 8.13827e-18
8512.70704 8.18621e-18
8513.56850 8.23592e-18
8514.42997 8.28555e-18
8515.29143 8.33680e-18
8516.15289 8.38806e-18
8517.01435 8.44027e-18
8517.87581 8.49248e-18
8518.73728 8.54564e-18
8519.59874 8.59874e-18
8520.46020 8.65301e-18
8521.33168 8.70721e-18
8522.19314 8.76494e-18
8523.05460 8.82260e-18
8523.91607 8.88821e-18
8524.77753 8.95390e-18
8525.63899 9.02893e-18
8526.50045 9.10397e-18
8527.36191 9.18571e-18
8528.22337 9.26738e-18
8529.08484 9.35147e-18
8529.94630 9.43557e-18
8530.80776 9.51502e-18
8531.67924 9.59448e-18
8532.54070 9.66363e-18
8533.40216 9.73270e-18
8534.26363 9.78933e-18
8535.12509 9.84596e-18
8535.98655 9.89066e-18
8536.84801 9.93543e-18
8537.70947 9.97689e-18
8538.57094 1.00183e-17
8539.43240 1.00657e-17
8540.30388 1.01131e-17
8541.16534 1.01725e-17
8542.02680 1.02318e-17
8542.88826 1.03068e-17
8543.74972 1.03818e-17
8544.61119 1.04675e-17
8545.47265 1.05531e-17
8546.33411 1.06416e-17
8547.19557 1.07299e-17
8548.05703 1.08075e-17
8548.91850 1.08851e-17
8549.78998 1.09368e-17
8550.65144 1.09886e-17
8551.51290 1.10159e-17
8552.37436 1.10432e-17
8553.23582 1.10573e-17
8554.09729 1.10715e-17
8554.95875 1.10877e-17
8555.82021 1.11041e-17
8556.68167 1.11406e-17
8557.54313 1.11772e-17
8558.40460 1.12422e-17
8559.27607 1.13072e-17
8560.13754 1.13957e-17
8560.99900 1.14841e-17
8561.86046 1.15863e-17
8562.72192 1.16885e-17
8563.58338 1.17887e-17
8564.44485 1.18889e-17
8565.30631 1.19726e-17
8566.16777 1.20562e-17
8567.02923 1.21137e-17
8567.89070 1.21711e-17
8568.75216 1.21979e-17
8569.62364 1.22247e-17
8570.48510 1.22284e-17
8571.34656 1.22321e-17
8572.20802 1.22236e-17
8573.06948 1.22151e-17
8573.93095 1.22065e-17
8574.79241 1.21978e-17
8575.65387 1.22007e-17
8576.51533 1.22037e-17
8577.37679 1.22302e-17
8578.23826 1.22569e-17
8579.09972 1.23164e-17
8579.97120 1.23760e-17
8580.83266 1.24568e-17
8581.69412 1.25378e-17
8582.55558 1.26207e-17
8583.41705 1.27037e-17
8584.27851 1.27733e-17
8585.13997 1.28430e-17
8586.00143 1.28866e-17
8586.86289 1.29302e-17
8587.72436 1.29460e-17
8588.58582 1.29618e-17
8589.45730 1.29570e-17
8590.31876 1.29520e-17
8591.18022 1.29372e-17
8592.04168 1.29225e-17
8592.90314 1.29126e-17
8593.76461 1.29028e-17
8594.62607 1.29060e-17
8595.48753 1.29092e-17
8596.34899 1.29222e-17
8597.21045 1.29352e-17
8598.07192 1.29559e-17
8598.94340 1.29768e-17
8599.80486 1.30074e-17
8600.66632 1.30381e-17
8601.52778 1.30777e-17
8602.38924 1.31174e-17
8603.25071 1.31596e-17
8604.11217 1.32020e-17
8604.97363 1.32400e-17
8605.83509 1.32780e-17
8606.69655 1.33025e-17
8607.56803 1.33269e-17
8608.42949 1.33303e-17
8609.29096 1.33336e-17
8610.15242 1.33180e-17
8611.01388 1.33023e-17
8611.87534 1.32730e-17
8612.73680 1.32436e-17
8613.59827 1.32066e-17
8614.45973 1.31696e-17
8615.32119 1.31313e-17
8616.18265 1.30930e-17
8617.04411 1.30654e-17
8617.91559 1.30378e-17
8618.77706 1.30339e-17
8619.63852 1.30301e-17
8620.49998 1.30508e-17
8621.36144 1.30715e-17
8622.22290 1.31096e-17
8623.08437 1.31478e-17
8623.94583 1.31931e-17
8624.80729 1.32386e-17
8625.66875 1.32784e-17
8626.53021 1.33183e-17
8627.40169 1.33448e-17
8628.26315 1.33713e-17
8629.12462 1.33845e-17
8629.98608 1.33976e-17
8630.84754 1.33969e-17
8631.70900 1.33962e-17
8632.57046 1.33800e-17
8633.43193 1.33638e-17
8634.29339 1.33342e-17
8635.15485 1.33047e-17
8636.01631 1.32711e-17
8636.88779 1.32375e-17
8637.74925 1.32095e-17
8638.61072 1.31816e-17
8639.47218 1.31704e-17
8640.33364 1.31593e-17
8641.19510 1.31726e-17
8642.05656 1.31859e-17
8642.91803 1.32172e-17
8643.77949 1.32487e-17
8644.64095 1.32882e-17
8645.50241 1.33278e-17
8646.37389 1.33652e-17
8647.23535 1.34027e-17
8648.09681 1.34279e-17
8648.95828 1.34530e-17
8649.81974 1.34621e-17
8650.68120 1.34711e-17
8651.54266 1.34642e-17
8652.40412 1.34572e-17
8653.26559 1.34332e-17
8654.12705 1.34092e-17
8654.98851 1.33674e-17
8655.85999 1.33255e-17
8656.72145 1.32732e-17
8657.58291 1.32208e-17
8658.44438 1.31705e-17
8659.30584 1.31202e-17
8660.16730 1.30806e-17
8661.02876 1.30411e-17
8661.89022 1.30160e-17
8662.75168 1.29910e-17
8663.61315 1.29825e-17
8664.47461 1.29740e-17
8665.33607 1.29814e-17
8666.20755 1.29889e-17
8667.06901 1.30087e-17
8667.93047 1.30287e-17
8668.79194 1.30548e-17
8669.65340 1.30811e-17
8670.51486 1.31051e-17
8671.37632 1.31291e-17
8672.23778 1.31365e-17
8673.09925 1.31439e-17
8673.96071 1.31240e-17
8674.82217 1.31040e-17
8675.68363 1.30601e-17
8676.55511 1.30160e-17
8677.41657 1.29551e-17
8678.27803 1.28939e-17
8679.13950 1.28279e-17
8680.00096 1.27618e-17
8680.86242 1.27037e-17
8681.72388 1.26456e-17
8682.58535 1.26008e-17
8683.44681 1.25560e-17
8684.30827 1.25263e-17
8685.16973 1.24965e-17
8686.04121 1.24836e-17
8686.90267 1.24708e-17
8687.76413 1.24750e-17
8688.62560 1.24793e-17
8689.48706 1.24973e-17
8690.34852 1.25154e-17
8691.20998 1.25419e-17
8692.07144 1.25685e-17
8692.93291 1.25945e-17
8693.79437 1.26205e-17
8694.66585 1.26346e-17
8695.52731 1.26487e-17
8696.38877 1.26438e-17
8697.25023 1.26389e-17
8698.11170 1.26138e-17
8698.97316 1.25887e-17
8699.83462 1.25462e-17
8700.69608 1.25037e-17
8701.55754 1.24530e-17
8702.41900 1.24023e-17
8703.28047 1.23511e-17
8704.15195 1.22998e-17
8705.01341 1.22484e-17
8705.87487 1.21970e-17
8706.73633 1.21474e-17
8707.59779 1.20979e-17
8708.45926 1.20606e-17
8709.32072 1.20235e-17
8710.18218 1.20066e-17
8711.04364 1.19897e-17
8711.90510 1.19936e-17
8712.76657 1.19975e-17
8713.62803 1.20192e-17
8714.49951 1.20408e-17
8715.36097 1.20645e-17
8716.22243 1.20881e-17
8717.08389 1.20958e-17
8717.94535 1.21034e-17
8718.80682 1.20878e-17
8719.66828 1.20721e-17
8720.52974 1.20305e-17
8721.39120 1.19888e-17
8722.25267 1.19313e-17
8723.11413 1.18739e-17
8723.98561 1.18185e-17
8724.84707 1.17631e-17
8725.70853 1.17163e-17
8726.56999 1.16695e-17
8727.43145 1.16294e-17
8728.29292 1.15894e-17
8729.15438 1.15563e-17
8730.01584 1.15232e-17
8730.87730 1.14978e-17
8731.73876 1.14724e-17
8732.61024 1.14572e-17
8733.47170 1.14420e-17
8734.33317 1.14440e-17
8735.19463 1.14461e-17
8736.05609 1.14631e-17
8736.91755 1.14802e-17
8737.77902 1.14922e-17
8738.64048 1.15042e-17
8739.50194 1.14941e-17
8740.36340 1.14839e-17
8741.22486 1.14422e-17
8742.08633 1.14005e-17
8742.95780 1.13248e-17
8743.81927 1.12491e-17
8744.68073 1.11614e-17
8745.54219 1.10735e-17
8746.40365 1.09973e-17
8747.26511 1.09211e-17
8748.12658 1.08675e-17
8748.98804 1.08140e-17
8749.84950 1.07897e-17
8750.71096 1.07655e-17
8751.57242 1.07636e-17
8752.44390 1.07619e-17
8753.30537 1.07694e-17
8754.16683 1.07770e-17
8755.02829 1.07867e-17
8755.88975 1.07964e-17
8756.75121 1.08036e-17
8757.61268 1.08108e-17
8758.47414 1.08050e-17
8759.33560 1.07991e-17
8760.19706 1.07675e-17
8761.05852 1.07357e-17
8761.91999 1.06762e-17
8762.79146 1.06165e-17
8763.65293 1.05359e-17
8764.51439 1.04552e-17
8765.37585 1.03647e-17
8766.23731 1.02742e-17
8767.09877 1.01900e-17
8767.96024 1.01059e-17
8768.82170 1.00383e-17
8769.68316 9.97085e-18
8770.54462 9.91864e-18
8771.40608 9.86650e-18
8772.26755 9.82740e-18
8773.13903 9.78837e-18
8774.00049 9.76061e-18
8774.86195 9.73277e-18
8775.72341 9.71260e-18
8776.58487 9.69235e-18
8777.44633 9.67644e-18
8778.30780 9.66061e-18
8779.16926 9.64441e-18
8780.03072 9.62821e-18
8780.89218 9.59765e-18
8781.76366 9.56701e-18
8782.62512 9.50943e-18
8783.48659 9.45170e-18
8784.34805 9.37312e-18
8785.20951 9.29455e-18
8786.07097 9.20626e-18
8786.93243 9.11796e-18
8787.79390 9.02842e-18
8788.65536 8.93887e-18
8789.51682 8.85632e-18
8790.37828 8.77378e-18
8791.24976 8.69800e-18
8792.11122 8.62223e-18
8792.97268 8.54734e-18
8793.83415 8.47237e-18
8794.69561 8.40212e-18
8795.55707 8.33194e-18
8796.41853 8.27716e-18
8797.28000 8.22252e-18
8798.14146 8.18106e-18
8799.00292 8.13967e-18
8799.86438 8.09711e-18
8800.72584 8.05455e-18
8801.59732 7.99910e-18
8802.45878 7.94364e-18
8803.32025 7.86736e-18
8804.18171 7.79107e-18
8805.04317 7.69290e-18
8805.90463 7.59474e-18
8806.76609 7.48885e-18
8807.62756 7.38289e-18
8808.48902 7.28212e-18
8809.35048 7.18142e-18
8810.21194 7.09204e-18
8811.08342 7.00269e-18
8811.94488 6.92885e-18
8812.80635 6.85505e-18
8813.66781 6.79511e-18
8814.52927 6.73521e-18
8815.39073 6.68525e-18
8816.25219 6.63530e-18
8817.11365 6.59042e-18
8817.97512 6.54555e-18
8818.83658 6.50027e-18
8819.70806 6.45500e-18
8820.56952 6.40270e-18
8821.43098 6.35038e-18
8822.29244 6.28529e-18
8823.15391 6.22017e-18
8824.01537 6.14158e-18
8824.87683 6.06295e-18
8825.73829 5.97293e-18
8826.59975 5.88288e-18
8827.46122 5.78972e-18
8828.32268 5.69655e-18
8829.19416 5.61219e-18
8830.05562 5.52787e-18
8830.91708 5.45841e-18
8831.77854 5.38900e-18
8832.64000 5.33488e-18
8833.50147 5.28080e-18
8834.36293 5.24007e-18
8835.22439 5.19937e-18
8836.08585 5.16728e-18
8836.94732 5.13520e-18
8837.80878 5.10614e-18
8838.67024 5.07709e-18
8839.54172 5.04534e-18
8840.40318 5.01360e-18
8841.26464 4.97495e-18
8842.12610 4.93628e-18
8842.98757 4.89016e-18
8843.84903 4.84402e-18
8844.71049 4.79131e-18
8845.57195 4.73859e-18
8846.43341 4.68239e-18
8847.29488 4.62618e-18
8848.15634 4.57044e-18
8849.02782 4.51470e-18
8849.88928 4.46152e-18
8850.75074 4.40836e-18
8851.61220 4.35977e-18
8852.47367 4.31119e-18
8853.33513 4.27751e-18
8854.19659 4.24386e-18
8855.05805 4.23535e-18
8855.91951 4.22691e-18
8856.78097 4.23543e-18
8857.64244 4.24400e-18
8858.50390 4.25515e-18
8859.36536 4.26630e-18
8860.23684 4.26820e-18
8861.09830 4.27007e-18
8861.95976 4.25199e-18
8862.82123 4.23385e-18
8863.68269 4.19983e-18
8864.54415 4.16577e-18
8865.40561 4.13145e-18
8866.26707 4.09713e-18
8867.12854 4.06980e-18
8867.99000 4.04249e-18
8868.86148 4.02030e-18
8869.72294 3.99812e-18
8870.58440 3.98028e-18
8871.44586 3.96244e-18
8872.30732 3.94825e-18
8873.16879 3.93408e-18
8874.03025 3.92432e-18
8874.89171 3.91457e-18
8875.75317 3.91526e-18
8876.61463 3.91598e-18
8877.47610 3.92955e-18
8878.34758 3.94316e-18
8879.20904 3.96211e-18
8880.07050 3.98107e-18
8880.93196 3.99752e-18
8881.79342 4.01397e-18
8882.65489 4.02060e-18
8883.51635 4.02721e-18
8884.37781 4.01869e-18
8885.23927 4.01014e-18
8886.10073 3.99140e-18
8886.96220 3.97264e-18
8887.83367 3.95139e-18
8888.69514 3.93013e-18
8889.55660 3.91349e-18
8890.41806 3.89685e-18
8891.27952 3.89128e-18
8892.14099 3.88574e-18
8893.00245 3.89488e-18
8893.86391 3.90407e-18
8894.72537 3.92939e-18
8895.58683 3.95475e-18
8896.44830 3.99027e-18
8897.30976 4.02582e-18
8898.18124 4.06139e-18
8899.04270 4.09695e-18
8899.90416 4.12386e-18
8900.76562 4.15075e-18
8901.62708 4.16177e-18
8902.48855 4.17274e-18
8903.35001 4.16898e-18
8904.21147 4.16518e-18
8905.07293 4.15867e-18
8905.93439 4.15216e-18
8906.80587 4.15083e-18
8907.66734 4.14951e-18
8908.52880 4.15255e-18
8909.39026 4.15560e-18
8910.25172 4.16304e-18
8911.11318 4.17049e-18
8911.97465 4.18379e-18
8912.83611 4.19711e-18
8913.69757 4.21688e-18
8914.55903 4.23667e-18
8915.42049 4.26432e-18
8916.29197 4.29199e-18
8917.15343 4.32718e-18
8918.01490 4.36239e-18
8918.87636 4.39607e-18
8919.73782 4.42975e-18
8920.59928 4.45285e-18
8921.46074 4.47593e-18
8922.32221 4.48590e-18
8923.18367 4.49583e-18
8924.04513 4.49238e-18
8924.90659 4.48890e-18
8925.76805 4.48271e-18
8926.63953 4.47652e-18
8927.50100 4.48216e-18
8928.36246 4.48783e-18
8929.22392 4.50586e-18
8930.08538 4.52392e-18
8930.94684 4.54774e-18
8931.80831 4.57157e-18
8932.66977 4.59643e-18
8933.53123 4.62127e-18
8934.39269 4.64253e-18
8935.25415 4.66378e-18
8936.12563 4.68362e-18
8936.98709 4.70346e-18
8937.84856 4.73230e-18
8938.71002 4.76116e-18
8939.57148 4.79947e-18
8940.43294 4.83780e-18
8941.29440 4.87145e-18
8942.15587 4.90510e-18
8943.01733 4.92374e-18
8943.87879 4.94233e-18
8944.74025 4.94131e-18
8945.61173 4.94023e-18
8946.47319 4.92121e-18
8947.33466 4.90215e-18
8948.19612 4.88694e-18
8949.05758 4.87174e-18
8949.91904 4.87803e-18
8950.78050 4.88438e-18
8951.64197 4.90667e-18
8952.50343 4.92900e-18
8953.36489 4.95838e-18
8954.22635 4.98780e-18
8955.08781 5.00111e-18
8955.95929 5.01438e-18
8956.82075 4.98883e-18
8957.68222 4.96318e-18
8958.54368 4.92711e-18
8959.40514 4.89102e-18
8960.26660 4.88621e-18
8961.12806 4.88149e-18
8961.98953 4.91391e-18
8962.85099 4.94643e-18
8963.71245 5.00816e-18
8964.57391 5.06997e-18
8965.44539 5.14101e-18
8966.30685 5.21207e-18
8967.16832 5.26214e-18
8968.02978 5.31216e-18
8968.89124 5.34458e-18
8969.75270 5.37696e-18
8970.61416 5.42482e-18
8971.47563 5.47273e-18
8972.33709 5.54751e-18
8973.19855 5.62236e-18
8974.06001 5.70988e-18
8974.93149 5.79743e-18
8975.79295 5.87715e-18
8976.65441 5.95685e-18
8977.51588 5.99739e-18
8978.37734 6.03783e-18
8979.23880 6.01473e-18
8980.10026 5.99146e-18
8980.96172 5.88900e-18
8981.82319 5.78632e-18
8982.68465 5.61459e-18
8983.54611 5.44267e-18
8984.41759 5.29404e-18
8985.27905 5.14547e-18
8986.14051 5.10515e-18
8987.00198 5.06512e-18
8987.86344 5.16234e-18
8988.72490 5.25993e-18
8989.58636 5.49908e-18
8990.44782 5.73860e-18
8991.30928 6.00555e-18
8992.17075 6.27257e-18
8993.03221 6.42991e-18
8993.89367 6.58695e-18
8994.76515 6.61409e-18
8995.62661 6.64088e-18
8996.48807 6.56292e-18
8997.34954 6.48469e-18
8998.21100 6.36310e-18
8999.07246 6.24141e-18
8999.93392 6.16005e-18
9000.79538 6.07880e-18
9001.65685 6.07423e-18
9002.51831 6.06987e-18
9003.38979 6.13982e-18
9004.25125 6.20997e-18
9005.11271 6.33007e-18
9005.97417 6.45029e-18
9006.83563 6.57271e-18
9007.69710 6.69513e-18
9008.55856 6.78259e-18
9009.42002 6.86995e-18
9010.28148 6.90517e-18
9011.14295 6.94023e-18
9012.00441 6.92398e-18
9012.87589 6.90758e-18
9013.73735 6.88093e-18
9014.59881 6.85426e-18
9015.46027 6.84770e-18
9016.32173 6.84119e-18
9017.18320 6.83610e-18
9018.04466 6.83102e-18
9018.90612 6.81355e-18
9019.76758 6.79604e-18
9020.62904 6.78221e-18
9021.49051 6.76837e-18
9022.35197 6.77480e-18
9023.22345 6.78128e-18
9024.08491 6.82890e-18
9024.94637 6.87663e-18
9025.80783 6.98216e-18
9026.66930 7.08786e-18
9027.53076 7.22593e-18
9028.39222 7.36411e-18
9029.25368 7.49636e-18
9030.11514 7.62854e-18
9030.97660 7.72832e-18
9031.83807 7.82796e-18
9032.70955 7.87546e-18
9033.57101 7.92281e-18
9034.43247 7.91625e-18
9035.29393 7.90955e-18
9036.15539 7.85903e-18
9037.01686 7.80837e-18
9037.87832 7.73981e-18
9038.73978 7.67118e-18
9039.60124 7.62442e-18
9040.46270 7.57781e-18
9041.32417 7.56352e-18
9042.18563 7.54931e-18
9043.05711 7.53834e-18
9043.91857 7.52729e-18
9044.78003 7.50424e-18
9045.64149 7.48112e-18
9046.50295 7.45520e-18
9047.36442 7.42928e-18
9048.22588 7.40851e-18
9049.08734 7.38775e-18
9049.94880 7.38495e-18
9050.81027 7.38207e-18
9051.67173 7.40063e-18
9052.54321 7.41926e-18
9053.40467 7.42125e-18
9054.26613 7.42309e-18
9055.12759 7.37523e-18
9055.98905 7.32725e-18
9056.85052 7.24729e-18
9057.71198 7.16723e-18
9058.57344 7.07926e-18
9059.43490 6.99127e-18
9060.29636 6.89827e-18
9061.16784 6.80525e-18
9062.02931 6.70843e-18
9062.89077 6.61158e-18
9063.75223 6.50740e-18
9064.61369 6.40319e-18
9065.47515 6.28389e-18
9066.33662 6.16454e-18
9067.19808 6.06051e-18
9068.05954 5.95651e-18
9068.92100 5.91819e-18
9069.78246 5.88003e-18
9070.64393 5.89626e-18
9071.51540 5.91263e-18
9072.37687 5.92693e-18
9073.23833 5.94123e-18
9074.09979 5.93278e-18
9074.96125 5.92427e-18
9075.82271 5.90882e-18
9076.68418 5.89335e-18
9077.54564 5.88078e-18
9078.40710 5.86821e-18
9079.26856 5.86422e-18
9080.13002 5.86024e-18
9080.99149 5.86459e-18
9081.86297 5.86896e-18
9082.72443 5.86208e-18
9083.58589 5.85517e-18
9084.44735 5.82612e-18
9085.30881 5.79701e-18
9086.17028 5.76737e-18
9087.03174 5.73773e-18
9087.89320 5.72410e-18
9088.75466 5.71052e-18
9089.61612 5.69171e-18
9090.48760 5.67288e-18
9091.34906 5.62856e-18
9092.21053 5.58442e-18
9093.07199 5.53556e-18
9093.93345 5.48669e-18
9094.79491 5.45895e-18
9095.65637 5.43128e-18
9096.51784 5.41739e-18
9097.37930 5.40355e-18
9098.24076 5.38821e-18
9099.10222 5.37285e-18
9099.97370 5.36002e-18
9100.83516 5.34719e-18
9101.69663 5.34505e-18
9102.55809 5.34295e-18
9103.41955 5.36721e-18
9104.28101 5.39154e-18
9105.14247 5.46465e-18
9106.00393 5.53791e-18
9106.86540 5.63324e-18
9107.72686 5.72863e-18
9108.58832 5.77785e-18
9109.45980 5.82693e-18
9110.32126 5.80089e-18
9111.18272 5.77464e-18
9112.04419 5.69031e-18
9112.90565 5.60582e-18
9113.76711 5.49803e-18
9114.62857 5.39020e-18
9115.49003 5.33049e-18
9116.35150 5.27092e-18
9117.21296 5.29655e-18
9118.07442 5.32242e-18
9118.93588 5.37821e-18
9119.80736 5.43410e-18
9120.66882 5.46618e-18
9121.53028 5.49820e-18
9122.39175 5.47207e-18
9123.25321 5.44577e-18
9124.11467 5.34070e-18
9124.97613 5.23541e-18
9125.83760 5.09998e-18
9126.69906 4.96449e-18
9127.56052 4.85788e-18
9128.43200 4.75136e-18
9129.29346 4.70412e-18
9130.15492 4.65705e-18
9131.01638 4.68887e-18
9131.87785 4.72091e-18
9132.73931 4.81851e-18
9133.60077 4.91631e-18
9134.46223 5.04970e-18
9135.32369 5.18317e-18
9136.18516 5.32110e-18
9137.04662 5.45904e-18
9137.90808 5.56927e-18
9138.76954 5.67942e-18
9139.64102 5.74121e-18
9140.50248 5.80286e-18
9141.36395 5.80920e-18
9142.22541 5.81539e-18
9143.08687 5.75578e-18
9143.94833 5.69600e-18
9144.80979 5.55532e-18
9145.67125 5.41444e-18
9146.53272 5.21094e-18
9147.39418 5.00727e-18
9148.26566 4.80240e-18
9149.12712 4.59754e-18
9149.98858 4.44709e-18
9150.85004 4.29678e-18
9151.71151 4.24586e-18
9152.57297 4.19522e-18
9153.43443 4.26144e-18
9154.29589 4.32797e-18
9155.15735 4.45345e-18
9156.01882 4.57909e-18
9156.88028 4.70268e-18
9157.75176 4.82627e-18
9158.61322 4.91939e-18
9159.47468 5.01243e-18
9160.33614 5.05300e-18
9161.19760 5.09341e-18
9162.05907 5.08289e-18
9162.92053 5.07222e-18
9163.78199 5.02260e-18
9164.64345 4.97289e-18
9165.50492 4.88254e-18
9166.36638 4.79206e-18
9167.22784 4.65882e-18
9168.09932 4.52547e-18
9168.96078 4.38240e-18
9169.82224 4.23932e-18
9170.68370 4.13118e-18
9171.54517 4.02314e-18
9172.40663 3.97229e-18
9173.26809 3.92160e-18
9174.12955 3.93778e-18
9174.99101 3.95414e-18
9175.85248 4.00984e-18
9176.71394 4.06565e-18
9177.58542 4.09836e-18
9178.44688 4.13100e-18
9179.30834 4.12253e-18
9180.16980 4.11395e-18
9181.03127 4.10533e-18
9181.89273 4.09671e-18
9182.75419 4.11051e-18
9183.61565 4.12438e-18
9184.47711 4.15255e-18
9185.33857 4.18077e-18
9186.20004 4.21359e-18
9187.07152 4.24643e-18
9187.93298 4.26037e-18
9188.79444 4.27426e-18
9189.65590 4.25624e-18
9190.51736 4.23812e-18
9191.37883 4.22454e-18
9192.24029 4.21096e-18
9193.10175 4.23420e-18
9193.96321 4.25753e-18
9194.82467 4.30320e-18
9195.68614 4.34891e-18
9196.55762 4.39645e-18
9197.41908 4.44398e-18
9198.28054 4.47481e-18
9199.14200 4.50559e-18
9200.00346 4.50185e-18
9200.86492 4.49803e-18
9201.72639 4.47290e-18
9202.58785 4.44770e-18
9203.44931 4.42704e-18
9204.31077 4.40639e-18
9205.17224 4.39095e-18
9206.04371 4.37551e-18
9206.90518 4.35393e-18
9207.76664 4.33232e-18
9208.62810 4.30820e-18
9209.48956 4.28408e-18
9210.35102 4.26959e-18
9211.21249 4.25512e-18
9212.07395 4.26245e-18
9212.93541 4.26985e-18
9213.79687 4.31301e-18
9214.65833 4.35625e-18
9215.52981 4.43243e-18
9216.39127 4.50869e-18
9217.25274 4.58895e-18
9218.11420 4.66920e-18
9218.97566 4.73474e-18
9219.83712 4.80023e-18
9220.69859 4.85704e-18
9221.56005 4.91383e-18
9222.42151 4.96530e-18
9223.28297 5.01675e-18
9224.14443 5.05714e-18
9225.00590 5.09750e-18
9225.87737 5.12281e-18
9226.73884 5.14807e-18
9227.60030 5.15409e-18
9228.46176 5.16005e-18
9229.32322 5.14516e-18
9230.18468 5.13023e-18
9231.04615 5.11141e-18
9231.90761 5.09258e-18
9232.76907 5.08942e-18
9233.63053 5.08631e-18
9234.49199 5.09452e-18
9235.35346 5.10275e-18
9236.22494 5.11129e-18
9237.08640 5.11982e-18
9237.94786 5.13371e-18
9238.80932 5.14761e-18
9239.67078 5.17722e-18
9240.53225 5.20687e-18
9241.39371 5.25717e-18
9242.25517 5.30752e-18
9243.11663 5.38053e-18
9243.97809 5.45360e-18
9244.84957 5.54296e-18
9245.71103 5.63236e-18
9246.57250 5.72357e-18
9247.43396 5.81477e-18
9248.29542 5.89954e-18
9249.15688 5.98428e-18
9250.01834 6.06431e-18
9250.87981 6.14434e-18
9251.74127 6.21560e-18
9252.60273 6.28683e-18
9253.46419 6.33224e-18
9254.32565 6.37757e-18
9255.19713 6.39433e-18
9256.05860 6.41100e-18
9256.92006 6.43231e-18
9257.78152 6.45364e-18
9258.64298 6.50448e-18
9259.50444 6.55541e-18
9260.36591 6.62823e-18
9261.22737 6.70112e-18
9262.08883 6.78251e-18
9262.95029 6.86391e-18
9263.81175 6.92447e-18
9264.68323 6.98496e-18
9265.54469 6.99658e-18
9266.40616 7.00806e-18
9267.26762 6.97152e-18
9268.12908 6.93484e-18
9268.99054 6.86173e-18
9269.85200 6.78852e-18
9270.71347 6.70605e-18
9271.57493 6.62356e-18
9272.43639 6.56418e-18
9273.29785 6.50487e-18
9274.16933 6.49420e-18
9275.03079 6.48367e-18
9275.89226 6.54044e-18
9276.75372 6.59741e-18
9277.61518 6.71208e-18
9278.47664 6.82691e-18
9279.33810 6.96790e-18
9280.19957 7.10896e-18
9281.06103 7.24218e-18
9281.92249 7.37537e-18
9282.79397 7.46794e-18
9283.65543 7.56043e-18
9284.51689 7.58620e-18
9285.37835 7.61175e-18
9286.23982 7.55520e-18
9287.10128 7.49842e-18
9287.96274 7.36639e-18
9288.82420 7.23407e-18
9289.68566 7.06839e-18
9290.54713 6.90262e-18
9291.40859 6.75199e-18
9292.27005 6.60141e-18
9293.14153 6.52993e-18
9294.00299 6.45866e-18
9294.86445 6.50817e-18
9295.72592 6.55801e-18
9296.58738 6.68540e-18
9297.44884 6.81301e-18
9298.31030 6.96107e-18
9299.17176 7.10917e-18
9300.03323 7.19991e-18
9300.89469 7.29048e-18
9301.75615 7.24910e-18
9302.62763 7.20734e-18
9303.48909 7.10567e-18
9304.35055 7.00384e-18
9305.21201 6.95938e-18
9306.07348 6.91508e-18
9306.93494 6.90044e-18
9307.79640 6.88587e-18
9308.65786 6.81582e-18
9309.51932 6.74561e-18
9310.38079 6.62409e-18
9311.24225 6.50244e-18
9312.11373 6.37975e-18
9312.97519 6.25708e-18
9313.83665 6.18256e-18
9314.69811 6.10817e-18
9315.55958 6.13787e-18
9316.42104 6.16787e-18
9317.28250 6.29088e-18
9318.14396 6.41416e-18
9319.00542 6.52266e-18
9319.86688 6.63111e-18
9320.72835 6.68276e-18
9321.58981 6.73427e-18
9322.46129 6.82846e-18
9323.32275 6.92277e-18
9324.18421 7.08125e-18
9325.04567 7.23989e-18
9325.90714 7.25944e-18
9326.76860 7.27858e-18
9327.63006 7.03392e-18
9328.49152 6.78850e-18
9329.35298 6.47632e-18
9330.21445 6.16394e-18
9331.07591 5.97467e-18
9331.94739 5.78575e-18
9332.80885 5.68267e-18
9333.67031 5.57984e-18
9334.53177 5.50794e-18
9335.39323 5.43612e-18
9336.25470 5.39665e-18
9337.11616 5.35726e-18
9337.97762 5.34078e-18
9338.83908 5.32436e-18
9339.70055 5.49855e-18
9340.56201 5.67329e-18
9341.43349 6.26527e-18
9342.29495 6.85843e-18
9343.15641 7.57729e-18
9344.01787 8.29645e-18
9344.87933 8.60698e-18
9345.74080 8.91627e-18
9346.60226 8.65883e-18
9347.46372 8.39969e-18
9348.32518 7.66536e-18
9349.18664 6.92972e-18
9350.04811 6.05623e-18
9350.90957 5.18236e-18
9351.78105 4.79250e-18
9352.64251 4.40403e-18
9353.50397 4.70213e-18
9354.36543 5.00218e-18
9355.22689 5.53770e-18
9356.08836 6.07388e-18
9356.94982 6.46803e-18
9357.81128 6.86175e-18
9358.67274 6.88856e-18
9359.53420 6.91433e-18
9360.39567 6.47612e-18
9361.26715 6.03659e-18
9362.12861 5.48829e-18
9362.99007 4.93969e-18
9363.85153 4.61630e-18
9364.71299 4.29357e-18
9365.57446 4.21437e-18
9366.43592 4.13589e-18
9367.29738 4.26862e-18
9368.15884 4.40195e-18
9369.02030 4.58019e-18
9369.89178 4.75854e-18
9370.75324 4.79167e-18
9371.61471 4.82438e-18
9372.47617 4.72409e-18
9373.33763 4.62343e-18
9374.19909 4.46095e-18
9375.06056 4.29829e-18
9375.92202 4.18250e-18
9376.78348 4.06685e-18
9377.64494 4.13080e-18
9378.50640 4.19526e-18
9379.37788 4.38849e-18
9380.23934 4.58208e-18
9381.10081 4.73331e-18
9381.96227 4.88441e-18
9382.82373 4.93908e-18
9383.68519 4.99346e-18
9384.54665 5.00080e-18
9385.40812 5.00800e-18
9386.26958 4.98165e-18
9387.13104 4.95520e-18
9387.99250 4.87209e-18
9388.85396 4.78882e-18
9389.72544 4.64764e-18
9390.58691 4.50630e-18
9391.44837 4.32837e-18
9392.30983 4.15033e-18
9393.17129 3.96482e-18
9394.03275 3.77929e-18
9394.89422 3.63802e-18
9395.75568 3.49687e-18
9396.61714 3.43490e-18
9397.47860 3.37315e-18
9398.34006 3.36449e-18
9399.21154 3.35597e-18
9400.07300 3.36795e-18
9400.93447 3.37998e-18
9401.79593 3.38119e-18
9402.65739 3.38237e-18
9403.51885 3.34535e-18
9404.38031 3.30821e-18
9405.24178 3.26382e-18
9406.10324 3.21942e-18
9406.96470 3.21104e-18
9407.82616 3.20275e-18
9408.69764 3.23085e-18
9409.55910 3.25905e-18
9410.42057 3.30854e-18
9411.28203 3.35809e-18
9412.14349 3.40557e-18
9413.00495 3.45304e-18
9413.86641 3.47072e-18
9414.72788 3.48830e-18
9415.58934 3.45768e-18
9416.45080 3.42690e-18
9417.31226 3.34225e-18
9418.17372 3.25743e-18
9419.04520 3.12467e-18
9419.90666 2.99176e-18
9420.76813 2.81976e-18
9421.62959 2.64764e-18
9422.49105 2.49796e-18
9423.35251 2.34834e-18
9424.21397 2.36789e-18
9425.07544 2.38793e-18
9425.93690 2.62389e-18
9426.79836 2.86047e-18
9427.65982 3.15881e-18
9428.53130 3.45732e-18
9429.39276 3.66953e-18
9430.25423 3.88148e-18
9431.11569 3.87009e-18
9431.97715 3.85806e-18
9432.83861 3.55343e-18
9433.70007 3.24796e-18
9434.56153 2.89164e-18
9435.42300 2.53518e-18
9436.28446 2.37982e-18
9437.14592 2.22506e-18
9438.01740 2.31049e-18
9438.87886 2.39661e-18
9439.74032 2.70644e-18
9440.60179 3.01692e-18
9441.46325 3.39381e-18
9442.32471 3.77088e-18
9443.18617 4.01229e-18
9444.04763 4.25331e-18
9444.90910 4.30130e-18
9445.77056 4.34874e-18
9446.63202 4.21596e-18
9447.49348 4.08267e-18
9448.36496 3.84080e-18
9449.22642 3.59864e-18
9450.08788 3.36299e-18
9450.94935 3.12737e-18
9451.81081 2.97308e-18
9452.67227 2.81904e-18
9453.53373 2.77539e-18
9454.39520 2.73207e-18
9455.25666 2.80638e-18
9456.11812 2.88103e-18
9456.98960 3.05527e-18
9457.85106 3.22979e-18
9458.71252 3.45178e-18
9459.57398 3.67391e-18
9460.43545 3.83840e-18
9461.29691 4.00271e-18
9462.15837 4.04625e-18
9463.01983 4.08945e-18
9463.88129 4.06160e-18
9464.74276 4.03356e-18
9465.60422 3.98615e-18
9466.47570 3.93868e-18
9467.33716 3.90352e-18
9468.19862 3.86839e-18
9469.06008 3.87105e-18
9469.92155 3.87382e-18
9470.78301 3.87509e-18
9471.64447 3.87636e-18
9472.50593 3.83448e-18
9473.36739 3.79248e-18
9474.22885 3.73360e-18
9475.09032 3.67467e-18
9475.96180 3.63436e-18
9476.82326 3.59409e-18
9477.68472 3.64607e-18
9478.54618 3.69832e-18
9479.40764 3.92573e-18
9480.26911 4.15364e-18
9481.13057 4.46620e-18
9481.99203 4.77901e-18
9482.85349 5.00207e-18
9483.71495 5.22487e-18
9484.57642 5.26639e-18
9485.43788 5.30738e-18
9486.30936 5.13513e-18
9487.17082 4.96226e-18
9488.03228 4.64637e-18
9488.89374 4.33008e-18
9489.75520 4.05528e-18
9490.61667 3.78062e-18
9491.47813 3.66504e-18
9492.33959 3.54994e-18
9493.20105 3.59141e-18
9494.06252 3.63335e-18
9494.92398 3.83129e-18
9495.79546 4.02968e-18
9496.65692 4.40930e-18
9497.51838 4.78943e-18
9498.37984 5.31071e-18
9499.24130 5.83239e-18
9500.10277 6.29134e-18
9500.96423 6.75011e-18
9501.82569 6.97031e-18
9502.68715 7.18981e-18
9503.54861 7.14337e-18
9504.41008 7.09614e-18
9505.28155 6.80106e-18
9506.14302 6.50526e-18
9507.00448 6.11482e-18
9507.86594 5.72412e-18
9508.72740 5.42062e-18
9509.58887 5.11739e-18
9510.45033 4.91872e-18
9511.31179 4.72035e-18
9512.17325 4.59046e-18
9513.03471 4.46076e-18
9513.89617 4.43513e-18
9514.75764 4.40980e-18
9515.62912 4.53919e-18
9516.49058 4.66903e-18
9517.35204 4.93863e-18
9518.21350 5.20865e-18
9519.07496 5.56869e-18
9519.93643 5.92900e-18
9520.79789 6.29183e-18
9521.65935 6.65467e-18
9522.52081 6.89958e-18
9523.38227 7.14414e-18
9524.24374 7.23046e-18
9525.11522 7.31632e-18
9525.97668 7.30748e-18
9526.83814 7.29837e-18
9527.69960 7.25287e-18
9528.56106 7.20726e-18
9529.42252 7.17131e-18
9530.28399 7.13538e-18
9531.14545 7.13488e-18
9532.00691 7.13449e-18
9532.86837 7.12841e-18
9533.72984 7.12231e-18
9534.60131 7.07600e-18
9535.46278 7.02955e-18
9536.32424 6.93250e-18
9537.18570 6.83529e-18
9538.04716 6.69307e-18
9538.90862 6.55072e-18
9539.77009 6.49313e-18
9540.63155 6.43579e-18
9541.49301 6.58532e-18
9542.35447 6.73547e-18
9543.21593 7.00437e-18
9544.08741 7.27362e-18
9544.94888 7.53127e-18
9545.81034 7.78886e-18
9546.67180 7.90778e-18
9547.53326 8.02627e-18
9548.39472 7.87575e-18
9549.25619 7.72450e-18
9550.11765 7.45616e-18
9550.97911 7.18748e-18
9551.84057 7.10653e-18
9552.70203 7.02613e-18
9553.57351 7.15331e-18
9554.43497 7.28109e-18
9555.29644 7.43598e-18
9556.15790 7.59091e-18
9557.01936 7.65196e-18
9557.88082 7.71271e-18
9558.74228 7.59894e-18
9559.60375 7.48473e-18
9560.46521 7.24637e-18
9561.32667 7.00769e-18
9562.18813 6.92030e-18
9563.05961 6.83337e-18
9563.92107 7.03910e-18
9564.78254 7.24570e-18
9565.64400 7.59821e-18
9566.50546 7.95116e-18
9567.36692 8.29299e-18
9568.22838 8.63475e-18
9569.08985 8.77797e-18
9569.95131 8.92069e-18
9570.81277 8.73600e-18
9571.67423 8.55036e-18
9572.53569 8.20050e-18
9573.40717 7.85020e-18
9574.26863 7.52854e-18
9575.13010 7.20704e-18
9575.99156 7.04288e-18
9576.85302 6.87920e-18
9577.71448 6.97464e-18
9578.57594 7.07084e-18
9579.43741 7.26540e-18
9580.29887 7.46021e-18
9581.16033 7.51949e-18
9582.02179 7.57840e-18
9582.89327 7.47140e-18
9583.75473 7.36396e-18
9584.61620 7.13668e-18
9585.47766 6.90902e-18
9586.33912 6.72535e-18
9587.20058 6.54180e-18
9588.06204 6.65131e-18
9588.92351 6.76167e-18
9589.78497 7.13312e-18
9590.64643 7.50535e-18
9591.51791 7.85241e-18
9592.37937 8.19947e-18
9593.24083 8.36780e-18
9594.10229 8.53570e-18
9594.96376 8.54012e-18
9595.82522 8.54410e-18
9596.68668 8.41567e-18
9597.54814 8.28688e-18
9598.40960 8.09799e-18
9599.27107 7.90903e-18
9600.13253 7.73967e-18
9600.99399 7.57030e-18
9601.86547 7.48362e-18
9602.72693 7.39717e-18
9603.58839 7.43443e-18
9604.44986 7.47214e-18
9605.31132 7.62648e-18
9606.17278 7.78120e-18
9607.03424 8.01787e-18
9607.89570 8.25470e-18
9608.75717 8.42318e-18
9609.61863 8.59145e-18
9610.48009 8.54667e-18
9611.35157 8.50124e-18
9612.21303 8.30470e-18
9613.07449 8.10779e-18
9613.93595 7.87553e-18
9614.79742 7.64312e-18
9615.65888 7.45579e-18
9616.52034 7.26855e-18
9617.38180 7.19336e-18
9618.24326 7.11852e-18
9619.10473 7.17279e-18
9619.96619 7.22743e-18
9620.82765 7.39246e-18
9621.69913 7.55785e-18
9622.56059 7.77413e-18
9623.42205 7.99055e-18
9624.28352 8.17524e-18
9625.14498 8.35985e-18
9626.00644 8.43401e-18
9626.86790 8.50779e-18
9627.72936 8.39741e-18
9628.59083 8.28651e-18
9629.45229 8.01331e-18
9630.31375 7.73967e-18
9631.17521 7.46536e-18
9632.04669 7.19101e-18
9632.90815 7.04107e-18
9633.76961 6.89149e-18
9634.63108 6.91476e-18
9635.49254 6.93856e-18
9636.35400 7.12988e-18
9637.21546 7.32171e-18
9638.07692 7.49960e-18
9638.93839 7.67744e-18
9639.79985 7.69187e-18
9640.67133 7.70579e-18
9641.53279 7.65041e-18
9642.39425 7.59482e-18
9643.25571 7.57906e-18
9644.11718 7.56345e-18
9644.97864 7.61374e-18
9645.84010 7.66433e-18
9646.70156 7.79143e-18
9647.56302 7.91876e-18
9648.42448 8.03776e-18
9649.28595 8.15668e-18
9650.15743 8.15698e-18
9651.01889 8.15683e-18
9651.88035 8.03798e-18
9652.74181 7.91876e-18
9653.60327 7.73039e-18
9654.46474 7.54172e-18
9655.32620 7.35193e-18
9656.18766 7.16210e-18
9657.04912 7.04951e-18
9657.91058 6.93716e-18
9658.77205 6.94571e-18
9659.64352 6.95464e-18
9660.50499 7.09509e-18
9661.36645 7.23594e-18
9662.22791 7.46381e-18
9663.08937 7.69195e-18
9663.95083 7.89114e-18
9664.81230 8.09026e-18
9665.67376 8.19358e-18
9666.53522 8.29667e-18
9667.39668 8.33967e-18
9668.25815 8.38253e-18
9669.11961 8.38563e-18
9669.99109 8.38857e-18
9670.85255 8.31736e-18
9671.71401 8.24586e-18
9672.57547 8.09092e-18
9673.43693 7.93569e-18
9674.29840 7.76036e-18
9675.15986 7.58488e-18
9676.02132 7.45233e-18
9676.88278 7.31993e-18
9677.74424 7.27430e-18
9678.61572 7.22894e-18
9679.47718 7.29945e-18
9680.33865 7.37029e-18
9681.20011 7.49887e-18
9682.06157 7.62751e-18
9682.92303 7.73319e-18
9683.78449 7.83878e-18
9684.64596 7.89762e-18
9685.50742 7.95624e-18
9686.36888 7.96493e-18
9687.23034 7.97347e-18
9688.10182 7.94040e-18
9688.96328 7.90727e-18
9689.82475 7.85292e-18
9690.68621 7.79850e-18
9691.54767 7.72656e-18
9692.40913 7.65454e-18
9693.27059 7.55417e-18
9694.13206 7.45365e-18
9694.99352 7.33964e-18
9695.85498 7.22558e-18
9696.71644 7.13843e-18
9697.57790 7.05137e-18
9698.44938 7.01122e-18
9699.31084 6.97122e-18
9700.17231 6.97043e-18
9701.03377 6.96977e-18
9701.89523 6.99177e-18
9702.75669 7.01385e-18
9703.61816 7.02181e-18
9704.47962 7.02973e-18
9705.34108 6.99985e-18
9706.20254 6.96987e-18
9707.06400 6.92510e-18
9707.93548 6.88029e-18
9708.79694 6.84442e-18
9709.65841 6.80859e-18
9710.51987 6.79459e-18
9711.38133 6.78066e-18
9712.24279 6.79699e-18
9713.10425 6.81341e-18
9713.96572 6.83749e-18
9714.82718 6.86159e-18
9715.68864 6.86623e-18
9716.55010 6.87082e-18
9717.41156 6.84823e-18
9718.28304 6.82557e-18
9719.14451 6.77264e-18
9720.00597 6.71961e-18
9720.86743 6.66465e-18
9721.72889 6.60968e-18
9722.59035 6.59622e-18
9723.45182 6.58289e-18
9724.31328 6.59183e-18
9725.17474 6.60085e-18
9726.03620 6.57536e-18
9726.89766 6.54976e-18
9727.76914 6.46973e-18
9728.63060 6.38953e-18
9729.49207 6.26550e-18
9730.35353 6.14135e-18
9731.21499 5.99980e-18
9732.07645 5.85820e-18
9732.93791 5.74779e-18
9733.79938 5.63747e-18
9734.66084 5.58852e-18
9735.52230 5.53975e-18
9736.38376 5.54635e-18
9737.25524 5.55312e-18
9738.11670 5.60164e-18
9738.97817 5.65029e-18
9739.83963 5.71387e-18
9740.70109 5.77750e-18
9741.56255 5.82959e-18
9742.42401 5.88165e-18
9743.28548 5.90819e-18
9744.14694 5.93464e-18
9745.00840 5.92727e-18
9745.86986 5.91981e-18
9746.74134 5.88985e-18
9747.60280 5.85983e-18
9748.46426 5.82282e-18
9749.32573 5.78579e-18
9750.18719 5.74541e-18
9751.04865 5.70502e-18
9751.91011 5.66323e-18
9752.77157 5.62142e-18
9753.63304 5.57683e-18
9754.49450 5.53222e-18
9755.35596 5.48194e-18
9756.22744 5.43164e-18
9757.08890 5.38614e-18
9757.95036 5.34064e-18
9758.81183 5.31538e-18
9759.67329 5.29017e-18
9760.53475 5.29710e-18
9761.39621 5.30413e-18
9762.25767 5.35351e-18
9763.11913 5.40302e-18
9763.98060 5.47931e-18
9764.84206 5.55568e-18
9765.71354 5.61509e-18
9766.57500 5.67445e-18
9767.43646 5.69551e-18
9768.29792 5.71645e-18
9769.15939 5.71324e-18
9770.02085 5.70995e-18
9770.88231 5.69446e-18
9771.74377 5.67893e-18
9772.60523 5.65714e-18
9773.46670 5.63535e-18
9774.32816 5.61488e-18
9775.19964 5.59441e-18
9776.06110 5.58127e-18
9776.92256 5.56815e-18
9777.78402 5.56635e-18
9778.64548 5.56458e-18
9779.50695 5.57923e-18
9780.36841 5.59394e-18
9781.22987 5.62647e-18
9782.09133 5.65905e-18
9782.95280 5.68130e-18
9783.81426 5.70351e-18
9784.68574 5.68486e-18
9785.54720 5.66608e-18
9786.40866 5.62138e-18
9787.27012 5.57660e-18
9788.13158 5.53372e-18
9788.99305 5.49084e-18
9789.85451 5.45961e-18
9790.71597 5.42841e-18
9791.57743 5.41292e-18
9792.43889 5.39746e-18
9793.30036 5.38724e-18
9794.16182 5.37704e-18
9795.03330 5.35011e-18
9795.89476 5.32313e-18
9796.75622 5.28590e-18
9797.61768 5.24865e-18
9798.47915 5.23326e-18
9799.34061 5.21792e-18
9800.20207 5.23508e-18
9801.06353 5.25234e-18
9801.92499 5.28684e-18
9802.78645 5.32138e-18
9803.64792 5.35784e-18
9804.51940 5.39430e-18
9805.38086 5.41469e-18
9806.24232 5.43504e-18
9807.10378 5.43064e-18
9807.96524 5.42615e-18
9808.82671 5.41423e-18
9809.68817 5.40229e-18
9810.54963 5.39933e-18
9811.41109 5.39639e-18
9812.27255 5.41279e-18
9813.13402 5.42925e-18
9813.99548 5.46984e-18
9814.86696 5.51051e-18
9815.72842 5.54641e-18
9816.58988 5.58229e-18
9817.45134 5.58281e-18
9818.31280 5.58323e-18
9819.17427 5.55246e-18
9820.03573 5.52160e-18
9820.89719 5.47244e-18
9821.75865 5.42323e-18
9822.62012 5.37464e-18
9823.48158 5.32605e-18
9824.35306 5.30009e-18
9825.21452 5.27421e-18
9826.07598 5.26767e-18
9826.93744 5.26119e-18
9827.79890 5.25621e-18
9828.66037 5.25123e-18
9829.52183 5.24338e-18
9830.38329 5.23552e-18
9831.24475 5.23010e-18
9832.10621 5.22469e-18
9832.97769 5.22048e-18
9833.83915 5.21627e-18
9834.70062 5.20632e-18
9835.56208 5.19636e-18
9836.42354 5.17747e-18
9837.28500 5.15856e-18
9838.14647 5.13262e-18
9839.00793 5.10666e-18
9839.86939 5.07576e-18
9840.73085 5.04486e-18
9841.59231 5.01012e-18
9842.45377 4.97536e-18
9843.32525 4.94073e-18
9844.18672 4.90609e-18
9845.04818 4.88384e-18
9845.90964 4.86162e-18
9846.77110 4.86142e-18
9847.63256 4.86128e-18
9848.49403 4.88014e-18
9849.35549 4.89905e-18
9850.21695 4.93148e-18
9851.07841 4.96394e-18
9851.93987 5.00468e-18
9852.81135 5.04545e-18
9853.67282 5.08831e-18
9854.53428 5.13116e-18
9855.39574 5.17222e-18
9856.25720 5.21327e-18
9857.11866 5.24964e-18
9857.98013 5.28600e-18
9858.84159 5.30990e-18
9859.70305 5.33376e-18
9860.56451 5.33628e-18
9861.42597 5.33874e-18
9862.29745 5.31867e-18
9863.15891 5.29854e-18
9864.02038 5.25971e-18
9864.88184 5.22082e-18
9865.74330 5.17031e-18
9866.60476 5.11976e-18
9867.46622 5.06770e-18
9868.32769 5.01565e-18
9869.18915 4.96785e-18
9870.05061 4.92008e-18
9870.92209 4.87588e-18
9871.78355 4.83170e-18
9872.64501 4.79185e-18
9873.50648 4.75202e-18
9874.36794 4.71994e-18
9875.22940 4.68789e-18
9876.09086 4.66627e-18
9876.95232 4.64470e-18
9877.81379 4.63604e-18
9878.67525 4.62742e-18
9879.53671 4.63285e-18
9880.39817 4.63832e-18
9881.26965 4.65611e-18
9882.13111 4.67394e-18
9882.99257 4.70090e-18
9883.85404 4.72788e-18
9884.71550 4.75818e-18
9885.57696 4.78848e-18
9886.43842 4.81580e-18
9887.29988 4.84311e-18
9888.16135 4.86154e-18
9889.02281 4.87995e-18
9889.88427 4.88455e-18
9890.74573 4.88910e-18
9891.61721 4.87975e-18
9892.47867 4.87035e-18
9893.34014 4.84953e-18
9894.20160 4.82868e-18
9895.06306 4.79908e-18
9895.92452 4.76945e-18
9896.78598 4.73389e-18
9897.64745 4.69831e-18
9898.50891 4.66141e-18
9899.37037 4.62451e-18
9900.23183 4.59238e-18
9901.09329 4.56026e-18
9901.96477 4.53392e-18
9902.82623 4.50758e-18
9903.68770 4.48182e-18
9904.54916 4.45607e-18
9905.41062 4.43209e-18
9906.27208 4.40813e-18
9907.13354 4.39724e-18
9907.99501 4.38639e-18
9908.85647 4.39396e-18
9909.71793 4.40159e-18
9910.57939 4.42247e-18
9911.45087 4.44339e-18
9912.31233 4.46919e-18
9913.17380 4.49500e-18
9914.03526 4.50796e-18
9914.89672 4.52090e-18
9915.75818 4.50694e-18
9916.61964 4.49291e-18
9917.48111 4.45697e-18
9918.34257 4.42096e-18
9919.20403 4.37164e-18
9920.07551 4.32228e-18
9920.93697 4.26936e-18
9921.79843 4.21644e-18
9922.65989 4.16987e-18
9923.52136 4.12334e-18
9924.38282 4.08751e-18
9925.24428 4.05171e-18
9926.10574 4.02831e-18
9926.96720 4.00495e-18
9927.82867 3.98751e-18
9928.69013 3.97008e-18
9929.56161 3.94829e-18
9930.42307 3.92648e-18
9931.28453 3.89699e-18
9932.14599 3.86748e-18
9933.00746 3.83175e-18
9933.86892 3.79601e-18
9934.73038 3.75708e-18
9935.59184 3.71815e-18
9936.45330 3.68040e-18
9937.31477 3.64266e-18
9938.17623 3.61188e-18
9939.03769 3.58112e-18
9939.90917 3.56457e-18
9940.77063 3.54807e-18
9941.63209 3.54775e-18
9942.49355 3.54749e-18
9943.35502 3.55587e-18
9944.21648 3.56428e-18
9945.07794 3.57488e-18
9945.93940 3.58548e-18
9946.80086 3.59663e-18
9947.66233 3.60780e-18
9948.52379 3.61763e-18
9949.39527 3.62746e-18
9950.25673 3.63236e-18
9951.11819 3.63725e-18
9951.97965 3.63490e-18
9952.84112 3.63254e-18
9953.70258 3.62760e-18
9954.56404 3.62266e-18
9955.42550 3.62027e-18
9956.28696 3.61788e-18
9957.14843 3.61461e-18
9958.00989 3.61132e-18
9958.88137 3.60243e-18
9959.74283 3.59350e-18
9960.60429 3.57657e-18
9961.46575 3.55961e-18
9962.32721 3.53308e-18
9963.18868 3.50652e-18
9964.05014 3.47833e-18
9964.91160 3.45014e-18
9965.77306 3.43357e-18
9966.63452 3.41703e-18
9967.49599 3.41517e-18
9968.36747 3.41336e-18
9969.22893 3.42111e-18
9970.09039 3.42889e-18
9970.95185 3.44545e-18
9971.81331 3.46204e-18
9972.67477 3.49122e-18
9973.53624 3.52043e-18
9974.39770 3.56064e-18
9975.25916 3.60087e-18
9976.12062 3.64350e-18
9976.98208 3.68613e-18
9977.85356 3.72434e-18
9978.71503 3.76253e-18
9979.57649 3.79303e-18
9980.43795 3.82351e-18
9981.29941 3.84516e-18
9982.16087 3.86678e-18
9983.02234 3.88418e-18
9983.88380 3.90158e-18
9984.74526 3.91938e-18
9985.60672 3.93718e-18
9986.46818 3.95769e-18
9987.32965 3.97820e-18
9988.20112 4.00261e-18
9989.06259 4.02703e-18
9989.92405 4.04674e-18
9990.78551 4.06644e-18
9991.64697 4.07171e-18
9992.50843 4.07693e-18
9993.36990 4.07506e-18
9994.23136 4.07318e-18
9995.09282 4.07669e-18
9995.95428 4.08023e-18
9996.81574 4.08699e-18
9997.67721 4.09376e-18
9998.54869 4.09580e-18
9999.41015 4.09782e-18
