# wavelength flux
3474.99588 2.23832e-18
3476.46610 8.32967e-18
3477.93632 1.14113e-17
3479.40654 -5.41145e-18
3480.87676 4.83558e-20
3482.34698 6.95812e-18
3483.81720 6.15409e-18
3485.28742 8.27397e-18
3486.75764 6.56960e-18
3488.22786 1.05450e-17
3489.69808 2.58223e-18
3491.16830 -3.32502e-18
3492.63852 3.70874e-18
3494.10874 1.38859e-17
3495.57896 1.89944e-17
3497.04918 1.49031e-17
3498.51940 -8.05293e-19
3499.98962 7.13045e-18
3501.45984 1.40600e-17
3502.93006 3.98652e-18
3504.40028 -4.10402e-18
3505.87050 -2.39916e-18
3507.34072 3.63135e-18
3508.81094 5.93072e-18
3510.28116 6.15909e-18
3511.75138 -4.17704e-19
3513.22160 1.08142e-17
3514.69182 1.43282e-17
3516.16204 3.11866e-18
3517.63226 7.41499e-18
3519.10248 1.05304e-17
3520.57270 1.13542e-18
3522.04292 -1.15115e-18
3523.51314 2.41705e-18
3524.98336 3.23071e-18
3526.45358 4.03539e-18
3527.92380 1.98242e-18
3529.39402 1.35583e-18
3530.86424 3.58282e-18
3532.33446 8.08938e-18
3533.80468 4.55029e-18
3535.27490 5.54763e-18
3536.74512 4.79009e-18
3538.20527 -9.98348e-19
3539.67549 4.82968e-18
3541.14571 1.48325e-18
3542.61593 1.96372e-19
3544.08615 3.55784e-18
3545.55637 1.54748e-17
3547.02659 7.38441e-18
3548.49681 6.01984e-18
3549.96703 4.94252e-18
3551.43725 3.56546e-18
3552.90747 3.86421e-19
3554.37769 9.65130e-18
3555.84791 1.27192e-17
3557.31813 1.38765e-17
3558.78835 1.14042e-17
3560.25857 2.26081e-18
3561.72879 2.06193e-18
3563.19901 4.07784e-18
3564.66923 1.07250e-17
3566.13945 9.91239e-18
3567.60967 8.83437e-18
3569.07989 5.13215e-18
3570.55011 3.80539e-18
3572.02033 6.94362e-19
3573.49055 3.97133e-18
3574.96077 7.77804e-18
3576.43099 7.06956e-18
3577.90121 6.12407e-18
3579.37143 1.19782e-17
3580.84165 9.85895e-18
3582.31187 -1.08261e-18
3583.78209 -2.99107e-18
3585.25231 8.50214e-19
3586.72253 5.53463e-18
3588.19275 9.39839e-18
3589.66297 1.30385e-17
3591.13319 1.17928e-17
3592.60341 1.02110e-17
3594.07363 1.58845e-17
3595.54385 1.15329e-17
3597.01407 8.65914e-18
3598.48429 8.19528e-18
3599.95451 9.29802e-18
3601.42473 9.24141e-18
3602.88488 9.26426e-18
3604.36517 1.69827e-17
3605.82532 7.84489e-18
3607.29554 1.16146e-18
3608.76576 8.63251e-18
3610.23598 9.72696e-18
3611.70620 9.17014e-18
3613.17642 7.95325e-18
3614.64664 5.75090e-18
3616.11686 8.18903e-18
3617.58708 1.01320e-17
3619.05730 -6.03359e-18
3620.52752 -3.43762e-18
3621.99774 1.51519e-18
3623.46796 8.75040e-18
3624.93818 1.59792e-17
3626.40840 7.07141e-18
3627.87862 2.24739e-18
3629.34884 6.28025e-18
3630.81906 1.00012e-17
3632.28928 1.64230e-18
3633.75950 8.83360e-18
3635.22972 1.44289e-17
3636.69994 1.16601e-17
3638.17016 1.12797e-17
3639.64038 1.27886e-17
3641.11060 7.82226e-18
3642.58082 2.25792e-18
3644.05104 5.38079e-18
3645.52126 1.03829e-17
3646.99148 1.13675e-17
3648.46170 1.22215e-17
3649.93192 6.27856e-18
3651.40214 4.25754e-19
3652.87236 2.32110e-18
3654.34258 8.10670e-18
3655.81280 1.06736e-18
3657.28302 2.41134e-19
3658.75324 3.73332e-18
3660.22346 1.94783e-18
3661.69368 6.66414e-18
3663.16390 1.08503e-17
3664.63412 8.17316e-18
3666.10434 5.40514e-18
3667.57456 3.62745e-18
3669.04478 9.03801e-18
3670.51500 1.04440e-17
3671.97515 9.16927e-18
3673.44537 9.34308e-18
3674.91559 1.05214e-17
3676.38581 5.65946e-18
3677.85603 8.58266e-18
3679.32625 1.01141e-17
3680.79647 7.38760e-18
3682.26669 4.45254e-18
3683.73691 4.24155e-18
3685.20713 1.05995e-18
3686.67735 2.05928e-18
3688.14757 3.02308e-18
3689.61779 8.84786e-18
3691.08801 9.10424e-18
3692.55823 3.90990e-18
3694.02845 2.82430e-18
3695.49867 4.68486e-18
3696.96889 6.35029e-18
3698.43911 6.45223e-18
3699.90933 -5.30835e-20
3701.37955 -1.60536e-18
3702.84977 6.34710e-20
3704.31999 2.36554e-18
3705.79021 6.04857e-18
3707.26043 3.94799e-18
3708.73065 3.08694e-18
3710.20087 1.05690e-18
3711.67109 2.95685e-18
3713.14131 -3.18753e-18
3714.61153 -1.26933e-18
3716.08175 1.40648e-18
3717.55197 5.50989e-18
3719.02219 7.56132e-18
3720.49241 3.59010e-18
3721.96263 2.43233e-18
3723.43285 7.30118e-18
3724.90307 7.75383e-18
3726.37329 3.41753e-18
3727.84351 3.23898e-18
3729.31373 8.10892e-18
3730.78395 7.28768e-18
3732.25417 6.19996e-18
3733.72439 3.48200e-18
3735.19461 3.45825e-18
3736.66483 3.43451e-18
3738.13505 3.47882e-18
3739.59520 3.52313e-18
3741.06542 3.56743e-18
3742.53564 3.61173e-18
3744.00586 3.65603e-18
3745.47608 3.70033e-18
3746.94630 3.74462e-18
3748.41652 3.78891e-18
3749.88674 3.83319e-18
3751.35696 3.87748e-18
3752.82718 3.92177e-18
3754.29740 3.96604e-18
3755.76762 4.01033e-18
3757.23784 4.05460e-18
3758.70806 4.09887e-18
3760.17828 4.14314e-18
3761.64850 4.18740e-18
3763.11872 4.23167e-18
3764.58894 4.27593e-18
3766.05916 4.32020e-18
3767.52938 4.36445e-18
3768.99960 4.40871e-18
3770.46982 4.45296e-18
3771.94004 4.49720e-18
3773.41026 4.54145e-18
3774.88048 6.06419e-18
3776.35070 4.75851e-18
3777.82092 1.42657e-18
3779.29114 -1.43594e-18
3780.76136 2.10986e-18
3782.23158 8.30773e-18
3783.70180 7.31654e-18
3785.17202 4.67442e-18
3786.64224 6.53658e-18
3788.11246 3.27817e-18
3789.58268 2.09882e-18
3791.05290 5.82718e-20
3792.52312 -6.42527e-19
3793.99334 5.63901e-18
3795.46356 5.18220e-18
3796.93378 4.56178e-19
3798.40400 3.12648e-18
3799.87422 5.72039e-18
3801.34444 3.45883e-18
3802.81466 1.22820e-18
3804.28488 1.41246e-19
3805.75510 2.77005e-18
3807.21525 3.19588e-18
3808.68547 8.51084e-18
3810.15569 9.80683e-18
3811.62591 5.76939e-18
3813.09613 4.97678e-18
3814.56635 5.26544e-18
3816.03657 4.42876e-18
3817.50679 4.03977e-18
3818.97701 5.82632e-18
3820.44723 6.06622e-18
3821.91745 9.22070e-18
3823.38767 7.02906e-18
3824.85789 4.83574e-18
3826.32811 6.20992e-18
3827.79833 7.64586e-18
3829.26855 9.52398e-18
3830.73877 6.74028e-18
3832.20899 7.89232e-18
3833.67921 6.95568e-18
3835.14943 5.44828e-18
3836.61965 4.00592e-18
3838.08987 4.51360e-18
3839.56009 7.98595e-18
3841.03031 7.91685e-18
3842.50053 5.78525e-18
3843.97075 3.31146e-18
3845.44097 4.48463e-18
3846.91119 4.48319e-18
3848.38141 6.10497e-18
3849.85163 8.86871e-18
3851.32185 6.37893e-18
3852.79207 7.59090e-18
3854.26229 8.79337e-18
3855.73251 7.26896e-18
3857.20273 3.86554e-18
3858.67295 2.39043e-18
3860.14317 1.25982e-18
3861.61339 2.89402e-18
3863.08361 7.88569e-18
3864.55383 9.41147e-18
3866.02405 8.16646e-18
3867.49427 4.28571e-18
3868.96449 3.73908e-18
3870.43471 7.40823e-18
3871.90493 1.04441e-17
3873.37515 1.25613e-17
3874.83530 7.89604e-18
3876.30552 7.02457e-18
3877.77574 5.67715e-18
3879.24596 6.24261e-18
3880.71618 5.06977e-18
3882.18640 6.39519e-18
3883.65662 5.94647e-18
3885.12684 4.38062e-18
3886.59706 4.50936e-18
3888.06728 7.17359e-18
3889.53750 8.01732e-18
3891.00772 5.86434e-18
3892.47794 4.69988e-18
3893.94816 7.92931e-18
3895.41838 5.97980e-18
3896.88860 4.82093e-18
3898.35882 7.01094e-18
3899.82904 7.88494e-18
3901.29926 5.28945e-18
3902.76948 6.55481e-18
3904.23970 1.11049e-17
3905.70992 9.52841e-18
3907.18014 5.44507e-18
3908.65036 6.24722e-18
3910.12058 1.17850e-17
3911.59080 1.29979e-17
3913.06102 1.11863e-17
3914.53124 9.06068e-18
3916.00146 1.04607e-17
3917.47168 7.93531e-18
3918.94190 4.61730e-18
3920.41212 6.03521e-18
3921.88234 5.27087e-18
3923.35256 8.64127e-18
3924.82278 1.24958e-17
3926.29300 8.45217e-18
3927.76322 8.18529e-18
3929.23344 7.79719e-18
3930.70366 5.17061e-18
3932.17388 7.81179e-18
3933.64410 1.10627e-17
3935.11432 1.15747e-17
3936.58454 1.05338e-17
3938.05476 1.10337e-17
3939.52498 9.47700e-18
3940.98513 7.79614e-18
3942.45535 8.28092e-18
3943.92557 8.03218e-18
3945.39579 8.74491e-18
3946.86601 9.11802e-18
3948.33623 8.76810e-18
3949.80645 7.53209e-18
3951.27667 6.27373e-18
3952.74689 1.10870e-17
3954.21711 1.08992e-17
3955.68733 9.42860e-18
3957.15755 7.85840e-18
3958.62777 7.83192e-18
3960.09799 5.20349e-18
3961.56821 6.71071e-18
3963.03843 1.00945e-17
3964.50865 7.73887e-18
3965.97887 9.14057e-18
3967.44909 9.86275e-18
3968.91931 1.08517e-17
3970.38953 8.47079e-18
3971.85975 7.64235e-18
3973.32997 1.07719e-17
3974.80019 5.82098e-18
3976.27041 5.40028e-18
3977.74063 9.14504e-18
3979.21085 1.08046e-17
3980.68107 1.15906e-17
3982.15129 1.09370e-17
3983.62151 1.15434e-17
3985.09173 8.88529e-18
3986.56195 8.62489e-18
3988.03217 8.11349e-18
3989.50239 6.23815e-18
3990.97261 5.36046e-18
3992.44283 6.73393e-18
3993.91305 8.93568e-18
3995.38327 9.06430e-18
3996.85349 8.79204e-18
3998.32371 7.47507e-18
3999.79393 7.41064e-18
4001.26415 7.39886e-18
4002.73437 9.29755e-18
4004.20459 1.04516e-17
4005.67481 9.29638e-18
4007.13496 6.42375e-18
4008.61525 7.30222e-18
4010.07540 8.70737e-18
4011.54562 6.59103e-18
4013.01584 9.31604e-18
4014.48606 9.59711e-18
4015.95628 7.14948e-18
4017.42650 8.31068e-18
4018.89672 6.04385e-18
4020.36694 4.76788e-18
4021.83716 8.15919e-18
4023.30738 1.04922e-17
4024.77760 1.16352e-17
4026.24782 9.34785e-18
4027.71804 7.39944e-18
4029.18826 8.32595e-18
4030.65848 9.09726e-18
4032.12870 9.09670e-18
4033.59892 1.07029e-17
4035.06914 9.37949e-18
4036.53936 7.98471e-18
4038.00958 9.80350e-18
4039.47980 9.88588e-18
4040.95002 6.88785e-18
4042.42024 7.24154e-18
4043.89046 8.78187e-18
4045.36068 6.30767e-18
4046.83090 3.29690e-18
4048.30112 2.80218e-18
4049.77134 4.16376e-18
4051.24156 6.93086e-18
4052.71178 6.66092e-18
4054.18200 7.86513e-18
4055.65222 7.99782e-18
4057.12244 7.21749e-18
4058.59266 9.27378e-18
4060.06288 8.12602e-18
4061.53310 8.59036e-18
4063.00332 8.33376e-18
4064.47354 6.73719e-18
4065.94376 1.04767e-17
4067.41398 9.25372e-18
4068.88420 6.13472e-18
4070.35442 9.66887e-18
4071.82464 8.57753e-18
4073.29486 8.50791e-18
4074.76508 6.81945e-18
4076.22523 7.77494e-18
4077.69545 1.10706e-17
4079.16567 9.34929e-18
4080.63589 8.21547e-18
4082.10611 9.19902e-18
4083.57633 8.05205e-18
4085.04655 8.01581e-18
4086.51677 6.88945e-18
4087.98699 3.38861e-18
4089.45721 7.81749e-18
4090.92743 7.85843e-18
4092.39765 7.82386e-18
4093.86787 8.88827e-18
4095.33809 5.61873e-18
4096.80831 7.30148e-18
4098.27853 9.51668e-18
4099.74875 8.17283e-18
4101.21897 8.59915e-18
4102.68919 7.06017e-18
4104.15941 5.12078e-18
4105.62963 7.17560e-18
4107.09985 8.13055e-18
4108.57007 8.45486e-18
4110.04029 7.51255e-18
4111.51051 7.44021e-18
4112.98073 5.89152e-18
4114.45095 6.89346e-18
4115.92117 7.73210e-18
4117.39139 3.30333e-18
4118.86161 6.46392e-18
4120.33183 8.40447e-18
4121.80205 6.25647e-18
4123.27227 1.00891e-17
4124.74249 9.35470e-18
4126.21271 8.67429e-18
4127.68293 1.14218e-17
4129.15315 1.07510e-17
4130.62337 6.10128e-18
4132.09359 5.88843e-18
4133.56381 4.89013e-18
4135.03403 7.41088e-18
4136.50425 7.06771e-18
4137.97447 6.23992e-18
4139.44469 6.13932e-18
4140.91491 8.11860e-18
4142.37506 7.13324e-18
4143.84528 9.60725e-18
4145.31550 9.40656e-18
4146.78572 8.15079e-18
4148.25594 6.49980e-18
4149.72616 9.47728e-18
4151.19638 7.71795e-18
4152.66660 5.63884e-18
4154.13682 6.58106e-18
4155.60704 4.30516e-18
4157.07726 5.43127e-18
4158.54748 8.47094e-18
4160.01770 9.42498e-18
4161.48792 6.60733e-18
4162.95814 5.78751e-18
4164.42836 6.94011e-18
4165.89858 7.87995e-18
4167.36880 7.06316e-18
4168.83902 6.15284e-18
4170.30924 6.42269e-18
4171.77946 6.22022e-18
4173.24968 6.08546e-18
4174.71990 7.91384e-18
4176.19012 9.03483e-18
4177.66034 7.82990e-18
4179.13056 6.55213e-18
4180.60078 8.34186e-18
4182.07100 7.74388e-18
4183.54122 5.62094e-18
4185.01144 7.10820e-18
4186.48166 7.87111e-18
4187.95188 7.65467e-18
4189.42210 6.37892e-18
4190.89232 6.70189e-18
4192.36254 9.76402e-18
4193.83276 7.83974e-18
4195.30298 5.54543e-18
4196.77320 6.73391e-18
4198.24342 6.83211e-18
4199.71364 5.90350e-18
4201.18386 3.12027e-18
4202.65408 4.19546e-18
4204.12430 6.37559e-18
4205.59452 7.21888e-18
4207.06474 6.48889e-18
4208.52489 6.38866e-18
4209.99511 6.05310e-18
4211.46533 8.44352e-18
4212.93555 7.90959e-18
4214.40577 8.57628e-18
4215.87599 7.92683e-18
4217.34621 5.85597e-18
4218.81643 5.56760e-18
4220.28665 6.94746e-18
4221.75687 5.82928e-18
4223.22709 6.03679e-18
4224.69731 6.53482e-18
4226.16753 6.23989e-18
4227.63775 1.00042e-17
4229.10797 9.44913e-18
4230.57819 7.48611e-18
4232.04841 7.17807e-18
4233.51863 8.07440e-18
4234.98885 7.50701e-18
4236.45907 6.27180e-18
4237.92929 7.92999e-18
4239.39951 7.77265e-18
4240.86973 7.74582e-18
4242.33995 9.08817e-18
4243.81017 1.06156e-17
4245.28039 8.87632e-18
4246.75061 5.78676e-18
4248.22083 6.17897e-18
4249.69105 5.26864e-18
4251.16127 5.31546e-18
4252.63149 4.88466e-18
4254.10171 4.67756e-18
4255.57193 4.84783e-18
4257.04215 6.43470e-18
4258.51237 7.26074e-18
4259.98259 5.70486e-18
4261.45281 6.85712e-18
4262.92303 7.88359e-18
4264.39325 5.63553e-18
4265.86347 7.40478e-18
4267.33369 6.54371e-18
4268.80391 8.52705e-18
4270.27413 8.08285e-18
4271.74435 8.18669e-18
4273.21457 9.86468e-18
4274.68479 8.66140e-18
4276.15501 7.02980e-18
4277.62523 6.83879e-18
4279.08538 7.99841e-18
4280.55560 7.01534e-18
4282.02582 7.77473e-18
4283.49604 7.62979e-18
4284.96626 7.28343e-18
4286.43648 7.81470e-18
4287.90670 5.65061e-18
4289.37692 8.28175e-18
4290.84714 1.01645e-17
4292.31736 1.00606e-17
4293.78758 9.92300e-18
4295.25780 1.09710e-17
4296.72802 7.36911e-18
4298.19824 6.55338e-18
4299.66846 6.66510e-18
4301.13868 6.88897e-18
4302.60890 7.53800e-18
4304.07912 5.23107e-18
4305.54934 7.89671e-18
4307.01956 1.03029e-17
4308.48978 8.00252e-18
4309.96000 5.11403e-18
4311.43022 5.05162e-18
4312.90044 5.26723e-18
4314.37066 6.80935e-18
4315.84088 5.84413e-18
4317.31110 8.37925e-18
4318.78132 8.63087e-18
4320.25154 6.32497e-18
4321.72176 7.07573e-18
4323.19198 6.88485e-18
4324.66220 8.42883e-18
4326.13242 3.43461e-18
4327.60264 5.18893e-18
4329.07286 7.57953e-18
4330.54308 7.41271e-18
4332.01330 6.96766e-18
4333.48352 7.51608e-18
4334.95374 6.80103e-18
4336.42396 6.95333e-18
4337.89418 6.66702e-18
4339.36440 6.14006e-18
4340.83462 4.34794e-18
4342.30484 7.19030e-18
4343.77506 9.09563e-18
4345.24528 7.13764e-18
4346.70543 4.89058e-18
4348.17565 6.60461e-18
4349.64587 7.58953e-18
4351.11609 4.96613e-18
4352.58631 4.19701e-18
4354.05653 5.80634e-18
4355.52675 5.96398e-18
4356.99697 3.57882e-18
4358.46719 3.18105e-18
4359.93741 4.85256e-18
4361.40763 6.71568e-18
4362.87785 7.22143e-18
4364.34807 7.20777e-18
4365.81829 7.19412e-18
4367.28851 7.18046e-18
4368.75873 7.16681e-18
4370.22895 7.15315e-18
4371.69917 7.13950e-18
4373.16939 7.12584e-18
4374.63961 7.11219e-18
4376.10983 7.09854e-18
4377.58005 7.08488e-18
4379.05027 7.07123e-18
4380.52049 7.05758e-18
4381.99071 7.04393e-18
4383.46093 7.03028e-18
4384.93115 7.01663e-18
4386.40137 7.00299e-18
4387.87159 6.98934e-18
4389.34181 6.97569e-18
4390.81203 6.96205e-18
4392.28225 6.94840e-18
4393.75247 6.93476e-18
4395.22269 6.92111e-18
4396.69291 6.90747e-18
4398.16313 6.89382e-18
4399.63335 6.88018e-18
4401.10357 6.86653e-18
4402.57379 6.85289e-18
4404.04401 6.83925e-18
4405.51423 6.82561e-18
4406.98445 6.81197e-18
4408.45467 6.79833e-18
4409.92489 6.78469e-18
4411.39511 6.77105e-18
4412.85526 6.75742e-18
4414.32548 6.74378e-18
4415.79570 6.73014e-18
4417.26592 6.71651e-18
4418.73614 6.70287e-18
4420.20636 6.68923e-18
4421.67658 6.67560e-18
4423.14680 6.66197e-18
4424.61702 6.64833e-18
4426.08724 7.79519e-18
4427.55746 9.12073e-18
4429.02768 8.17025e-18
4430.49790 6.00122e-18
4431.96812 5.46644e-18
4433.43834 5.79295e-18
4434.90856 5.88609e-18
4436.37878 6.99974e-18
4437.84900 1.02936e-17
4439.31922 6.11376e-18
4440.78944 8.21998e-18
4442.25966 8.77979e-18
4443.72988 7.04143e-18
4445.20010 7.19135e-18
4446.67032 5.93969e-18
4448.14054 8.52413e-18
4449.61076 1.08527e-17
4451.08098 9.78802e-18
4452.55120 8.36595e-18
4454.02142 8.78112e-18
4455.49164 9.53044e-18
4456.96186 8.81332e-18
4458.43208 7.61346e-18
4459.90230 8.92107e-18
4461.37252 7.43703e-18
4462.84274 6.01515e-18
4464.31296 8.46237e-18
4465.78318 8.95263e-18
4467.25340 8.92758e-18
4468.72362 8.06582e-18
4470.19384 7.91149e-18
4471.66406 6.51815e-18
4473.13428 6.18970e-18
4474.60450 1.05300e-17
4476.07472 8.84023e-18
4477.54494 7.01065e-18
4479.01516 9.57650e-18
4480.47531 8.76819e-18
4481.94553 8.35702e-18
4483.41575 9.20955e-18
4484.88597 6.64797e-18
4486.35619 8.51913e-18
4487.82641 8.15467e-18
4489.29663 8.80272e-18
4490.76685 9.77685e-18
4492.23707 9.33247e-18
4493.70729 9.85178e-18
4495.17751 8.45978e-18
4496.64773 8.66129e-18
4498.11795 1.36484e-17
4499.58817 1.15063e-17
4501.05839 7.27405e-18
4502.52861 6.40212e-18
4503.99883 8.54076e-18
4505.46905 9.38486e-18
4506.93927 8.04832e-18
4508.40949 8.88775e-18
4509.87971 1.02974e-17
4511.34993 1.18367e-17
4512.82015 1.29756e-17
4514.29037 1.00814e-17
4515.76059 1.15611e-17
4517.23081 1.07175e-17
4518.70103 8.95438e-18
4520.17125 9.45582e-18
4521.64147 1.12832e-17
4523.11169 9.63749e-18
4524.58191 9.29421e-18
4526.05213 9.36427e-18
4527.52235 9.32365e-18
4528.99257 1.32573e-17
4530.46279 1.15863e-17
4531.93301 1.20809e-17
4533.40323 9.18143e-18
4534.87345 1.10163e-17
4536.34367 9.68171e-18
4537.81389 1.09173e-17
4539.28411 1.21209e-17
4540.75433 9.85544e-18
4542.22455 1.13441e-17
4543.69477 1.13640e-17
4545.16499 9.92500e-18
4546.62514 8.15881e-18
4548.09536 9.35430e-18
4549.56558 1.10627e-17
4551.03580 9.43893e-18
4552.50602 1.27662e-17
4553.97624 1.04605e-17
4555.44646 9.00641e-18
4556.91668 9.89067e-18
4558.38690 8.98531e-18
4559.85712 1.01044e-17
4561.32734 8.43903e-18
4562.79756 1.01065e-17
4564.26778 9.90826e-18
4565.73800 9.99463e-18
4567.20822 1.02374e-17
4568.67844 1.28462e-17
4570.14866 1.37605e-17
4571.61888 1.05524e-17
4573.08910 1.23563e-17
4574.55932 1.14258e-17
4576.02954 1.13507e-17
4577.49976 1.04350e-17
4578.96998 1.28564e-17
4580.44020 1.05951e-17
4581.91042 8.71065e-18
4583.38064 9.91159e-18
4584.85086 9.42177e-18
4586.32108 9.78296e-18
4587.79130 8.79189e-18
4589.26152 1.04922e-17
4590.73174 8.53088e-18
4592.20196 1.04719e-17
4593.67218 1.25994e-17
4595.14240 1.13972e-17
4596.61262 1.05992e-17
4598.08284 8.36817e-18
4599.55306 1.09066e-17
4601.02328 1.05051e-17
4602.49350 1.08488e-17
4603.96372 1.09348e-17
4605.43394 1.06918e-17
4606.90416 1.10336e-17
4608.37438 1.16505e-17
4609.84460 1.16525e-17
4611.31482 9.96252e-18
4612.77497 1.22077e-17
4614.24519 1.17572e-17
4615.71541 1.18003e-17
4617.18563 1.40704e-17
4618.65585 1.23835e-17
4620.12607 1.11484e-17
4621.59629 1.16707e-17
4623.06651 1.16428e-17
4624.53673 1.18472e-17
4626.00695 1.18778e-17
4627.47717 1.06424e-17
4628.94739 1.03844e-17
4630.41761 9.78422e-18
4631.88783 1.10668e-17
4633.35805 9.32108e-18
4634.82827 8.18598e-18
4636.29849 1.10101e-17
4637.76871 1.31934e-17
4639.23893 1.24194e-17
4640.70915 1.11667e-17
4642.17937 1.23129e-17
4643.64959 1.23294e-17
4645.11981 1.10185e-17
4646.59003 1.37361e-17
4648.06025 1.32927e-17
4649.53047 1.20083e-17
4651.00069 1.18386e-17
4652.47091 9.62591e-18
4653.94113 9.91221e-18
4655.41135 1.13956e-17
4656.88157 1.09984e-17
4658.35179 1.14180e-17
4659.82201 1.27630e-17
4661.29223 1.13574e-17
4662.76245 1.15847e-17
4664.23267 8.19440e-18
4665.70289 1.07734e-17
4667.17311 1.07926e-17
4668.64333 9.61254e-18
4670.11355 1.23985e-17
4671.58377 1.19906e-17
4673.05399 1.26912e-17
4674.52421 1.16885e-17
4675.99443 1.07978e-17
4677.46465 8.70956e-18
4678.93487 9.94355e-18
4680.39502 9.79051e-18
4681.87531 1.09493e-17
4683.33546 1.14078e-17
4684.80568 1.15832e-17
4686.27590 1.20315e-17
4687.74612 1.28759e-17
4689.21634 8.19693e-18
4690.68656 9.26589e-18
4692.15678 1.13257e-17
4693.62700 1.08368e-17
4695.09722 9.35471e-18
4696.56744 9.11708e-18
4698.03766 8.26353e-18
4699.50788 8.71069e-18
4700.97810 1.18350e-17
4702.44832 1.06185e-17
4703.91854 9.95170e-18
4705.38876 1.25896e-17
4706.85898 1.31117e-17
4708.32920 1.01736e-17
4709.79942 9.42338e-18
4711.26964 9.17411e-18
4712.73986 1.06081e-17
4714.21008 9.36672e-18
4715.68030 8.96827e-18
4717.15052 1.12949e-17
4718.62074 1.03495e-17
4720.09096 9.86595e-18
4721.56118 9.82993e-18
4723.03140 1.18143e-17
4724.50162 1.23240e-17
4725.97184 1.11000e-17
4727.44206 9.80604e-18
4728.91228 1.02507e-17
4730.38250 9.87814e-18
4731.85272 9.28603e-18
4733.32294 1.03623e-17
4734.79316 9.61851e-18
4736.26338 9.22207e-18
4737.73360 8.14629e-18
4739.20382 8.47806e-18
4740.67404 1.04184e-17
4742.14426 1.18818e-17
4743.61448 9.04646e-18
4745.08470 7.07172e-18
4746.55492 9.63045e-18
4748.02514 1.05885e-17
4749.49536 1.13338e-17
4750.95551 9.66686e-18
4752.42573 9.41216e-18
4753.89595 7.75601e-18
4755.36617 6.64147e-18
4756.83639 7.50734e-18
4758.30661 7.13353e-18
4759.77683 9.93553e-18
4761.24705 1.07969e-17
4762.71727 8.17217e-18
4764.18749 9.73701e-18
4765.65771 1.28323e-17
4767.12793 1.01378e-17
4768.59815 9.68216e-18
4770.06837 8.44824e-18
4771.53859 8.99073e-18
4773.00881 1.15526e-17
4774.47903 9.52501e-18
4775.94925 8.31067e-18
4777.41947 8.25406e-18
4778.88969 8.08479e-18
4780.35991 7.48032e-18
4781.83013 8.09018e-18
4783.30035 8.33991e-18
4784.77057 9.22120e-18
4786.24079 8.44935e-18
4787.71101 1.05075e-17
4789.18123 1.01509e-17
4790.65145 8.11038e-18
4792.12167 1.00976e-17
4793.59189 1.04975e-17
4795.06211 8.26393e-18
4796.53233 7.48777e-18
4798.00255 9.03715e-18
4799.47277 9.39006e-18
4800.94299 8.83137e-18
4802.41321 9.21824e-18
4803.88343 7.45829e-18
4805.35365 8.14841e-18
4806.82387 8.34441e-18
4808.29409 8.02608e-18
4809.76431 6.51773e-18
4811.23453 7.67530e-18
4812.70475 8.59709e-18
4814.17497 9.51904e-18
4815.64519 8.62071e-18
4817.10534 8.49424e-18
4818.57556 8.48121e-18
4820.04578 8.59941e-18
4821.51600 1.08607e-17
4822.98622 9.08001e-18
4824.45644 6.62145e-18
4825.92666 7.50748e-18
4827.39688 6.55050e-18
4828.86710 8.88606e-18
4830.33732 1.17894e-17
4831.80754 9.60126e-18
4833.27776 9.31824e-18
4834.74798 9.41844e-18
4836.21820 8.50212e-18
4837.68842 8.54781e-18
4839.15864 1.01924e-17
4840.62886 8.63355e-18
4842.09908 7.94971e-18
4843.56930 9.13367e-18
4845.03952 8.48718e-18
4846.50974 1.13383e-17
4847.97996 1.20014e-17
4849.45018 7.81524e-18
4850.92040 8.30007e-18
4852.39062 1.03598e-17
4853.86084 7.66587e-18
4855.33106 1.08799e-17
4856.80128 1.10128e-17
4858.27150 1.00008e-17
4859.74172 9.39240e-18
4861.21194 1.01916e-17
4862.68216 1.04936e-17
4864.15238 7.73397e-18
4865.62260 8.07998e-18
4867.09282 8.28598e-18
4868.56304 1.13816e-17
4870.03326 1.17731e-17
4871.50348 8.76903e-18
4872.97370 8.72720e-18
4874.44392 9.88687e-18
4875.91414 1.07598e-17
4877.38436 1.06760e-17
4878.85458 1.05922e-17
4880.32480 1.05084e-17
4881.78495 1.04246e-17
4883.25517 1.03408e-17
4884.72539 1.02570e-17
4886.19561 1.01732e-17
4887.66583 1.00895e-17
4889.13605 1.00057e-17
4890.60627 9.92198e-18
4892.07649 9.83822e-18
4893.54671 9.75449e-18
4895.01693 9.67074e-18
4896.48715 9.58700e-18
4897.95737 9.50328e-18
4899.42759 9.41955e-18
4900.89781 9.33584e-18
4902.36803 9.25212e-18
4903.83825 9.16840e-18
4905.30847 9.08468e-18
4906.77869 9.00100e-18
4908.24891 8.91729e-18
4909.71913 8.83359e-18
4911.18935 8.74992e-18
4912.65957 8.66623e-18
4914.12979 8.58258e-18
4915.60001 8.52074e-18
4917.07023 9.21345e-18
4918.54045 9.54693e-18
4920.01067 8.87688e-18
4921.48089 8.97741e-18
4922.95111 1.01255e-17
4924.42133 1.03514e-17
4925.89155 9.33229e-18
4927.36177 1.08295e-17
4928.83199 1.01980e-17
4930.30221 1.01573e-17
4931.77243 1.04136e-17
4933.24265 9.03173e-18
4934.71287 1.00966e-17
4936.18309 9.88026e-18
4937.65331 1.11052e-17
4939.12353 1.19659e-17
4940.59375 1.10773e-17
4942.06397 1.01872e-17
4943.53419 1.17809e-17
4945.00441 1.24455e-17
4946.47463 1.01303e-17
4947.94485 1.02002e-17
4949.41507 1.13287e-17
4950.87522 1.17575e-17
4952.34544 1.12029e-17
4953.81566 1.05055e-17
4955.28588 1.12688e-17
4956.75610 1.21311e-17
4958.22632 1.09072e-17
4959.69654 1.23331e-17
4961.16676 1.05534e-17
4962.63698 9.75165e-18
4964.10720 9.24767e-18
4965.57742 9.04439e-18
4967.04764 1.15975e-17
4968.51786 1.02292e-17
4969.98808 9.26743e-18
4971.45830 1.01536e-17
4972.92852 1.02653e-17
4974.39874 1.36298e-17
4975.86896 1.35212e-17
4977.33918 1.34127e-17
4978.80940 1.33041e-17
4980.27962 1.31956e-17
4981.74984 1.30870e-17
4983.22006 1.29784e-17
4984.69028 1.28699e-17
4986.16050 1.27613e-17
4987.63072 1.26528e-17
4989.10094 1.25443e-17
4990.57116 1.24358e-17
4992.04138 1.23273e-17
4993.51160 1.22188e-17
4994.98182 1.21103e-17
4996.45204 1.20018e-17
4997.92226 1.18934e-17
4999.39248 1.17849e-17
5000.86270 1.16764e-17
5002.33292 1.15680e-17
5003.80314 1.14595e-17
5005.27336 1.13510e-17
5006.74358 1.12426e-17
5008.21380 1.11342e-17
5009.68402 1.10257e-17
5011.15424 1.09173e-17
5012.62446 1.08089e-17
5014.09468 1.08451e-17
5015.56490 1.01816e-17
5017.02505 8.52975e-18
5018.49527 9.02124e-18
5019.96549 1.07015e-17
5021.43571 1.09954e-17
5022.90593 9.62542e-18
5024.37615 9.63681e-18
5025.84637 9.64821e-18
5027.31659 9.65959e-18
5028.78681 9.67099e-18
5030.25703 9.68237e-18
5031.72725 9.69377e-18
5033.19747 9.70516e-18
5034.66769 9.71654e-18
5036.13791 9.72793e-18
5037.60813 9.73932e-18
5039.07835 9.75071e-18
5040.54857 9.76209e-18
5042.01879 9.77348e-18
5043.48901 9.78486e-18
5044.95923 9.79625e-18
5046.42945 9.80764e-18
5047.89967 9.81902e-18
5049.36989 9.83040e-18
5050.84011 9.84178e-18
5052.31033 9.85317e-18
5053.78055 9.86455e-18
5055.25077 9.87593e-18
5056.72099 9.88731e-18
5058.19121 9.89869e-18
5059.66143 9.91007e-18
5061.13165 9.92144e-18
5062.60187 1.09669e-17
5064.07209 9.20767e-18
5065.54231 1.00610e-17
5067.01253 1.15492e-17
5068.48275 1.15534e-17
5069.95297 1.16545e-17
5071.42319 1.06444e-17
5072.89341 1.06815e-17
5074.36363 9.03780e-18
5075.83385 8.68506e-18
5077.30407 8.76276e-18
5078.77429 1.06623e-17
5080.24451 9.73983e-18
5081.71473 1.05813e-17
5083.18495 1.02994e-17
5084.64510 1.01882e-17
5086.12539 8.89491e-18
5087.58554 1.01249e-17
5089.05576 1.01358e-17
5090.52598 8.16776e-18
5091.99620 1.06223e-17
5093.46642 1.08460e-17
5094.93664 8.48211e-18
5096.40686 7.92503e-18
5097.87708 1.00906e-17
5099.34730 9.56388e-18
5100.81752 1.04334e-17
5102.28774 9.22504e-18
5103.75796 8.57909e-18
5105.22818 9.13247e-18
5106.69840 1.15647e-17
5108.16862 1.07114e-17
5109.63884 1.05488e-17
5111.10906 1.07544e-17
5112.57928 1.03916e-17
5114.04950 1.29346e-17
5115.51972 1.24326e-17
5116.98994 1.07654e-17
5118.46016 9.49628e-18
5119.93038 9.51749e-18
5121.40060 7.88072e-18
5122.87082 1.00862e-17
5124.34104 1.18590e-17
5125.81126 1.15129e-17
5127.28148 1.05111e-17
5128.75170 1.04904e-17
5130.22192 8.98640e-18
5131.69214 9.62927e-18
5133.16236 9.71948e-18
5134.63258 8.83089e-18
5136.10280 8.98622e-18
5137.57302 9.45822e-18
5139.04324 8.82680e-18
5140.51346 1.15187e-17
5141.98368 1.16294e-17
5143.45390 8.61306e-18
5144.92412 1.06949e-17
5146.39434 1.00154e-17
5147.86456 9.86347e-18
5149.33478 1.14133e-17
5150.80500 1.26096e-17
5152.27522 1.09597e-17
5153.74544 9.79374e-18
5155.20559 1.09987e-17
5156.67581 1.01687e-17
5158.14603 9.44295e-18
5159.61625 1.15985e-17
5161.08647 1.04276e-17
5162.55669 8.89994e-18
5164.02691 1.05957e-17
5165.49713 1.11580e-17
5166.96735 9.55446e-18
5168.43757 1.08827e-17
5169.90779 1.14643e-17
5171.37801 1.13035e-17
5172.84823 8.72755e-18
5174.31845 9.73501e-18
5175.78867 1.02276e-17
5177.25889 1.13337e-17
5178.72911 1.20718e-17
5180.19933 9.57011e-18
5181.66955 1.08152e-17
5183.13977 1.12312e-17
5184.60999 9.94264e-18
5186.08021 1.04825e-17
5187.55043 1.03606e-17
5189.02065 8.80236e-18
5190.49087 1.00339e-17
5191.96109 1.14346e-17
5193.43131 1.23393e-17
5194.90153 1.22096e-17
5196.37175 1.10573e-17
5197.84197 1.05513e-17
5199.31219 1.01565e-17
5200.78241 1.16461e-17
5202.25263 1.00190e-17
5203.72285 9.44632e-18
5205.19307 1.04731e-17
5206.66329 1.28929e-17
5208.13351 1.08117e-17
5209.60373 9.77041e-18
5211.07395 8.22934e-18
5212.54417 1.08863e-17
5214.01439 1.16832e-17
5215.48461 1.14313e-17
5216.95483 1.02293e-17
5218.42505 1.16315e-17
5219.88520 1.04387e-17
5221.35542 8.68967e-18
5222.82564 1.19347e-17
5224.29586 1.17653e-17
5225.76608 1.20782e-17
5227.23630 1.08071e-17
5228.70652 1.03941e-17
5230.17674 1.14422e-17
5231.64696 1.11645e-17
5233.11718 1.07626e-17
5234.58740 1.00712e-17
5236.05762 1.25536e-17
5237.52784 1.14302e-17
5238.99806 1.08808e-17
5240.46828 1.02866e-17
5241.93850 1.15664e-17
5243.40872 1.14696e-17
5244.87894 9.60611e-18
5246.34916 1.20869e-17
5247.81938 1.37091e-17
5249.28960 1.27237e-17
5250.75982 1.15210e-17
5252.23004 1.15319e-17
5253.70026 9.84150e-18
5255.17048 1.06090e-17
5256.64070 1.28984e-17
5258.11092 1.28388e-17
5259.58114 1.07762e-17
5261.05136 1.12188e-17
5262.52158 1.21053e-17
5263.99180 9.98810e-18
5265.46202 1.21303e-17
5266.93224 1.22510e-17
5268.40246 1.01887e-17
5269.87268 1.14661e-17
5271.34290 1.17708e-17
5272.81312 1.08311e-17
5274.28334 1.05737e-17
5275.75356 1.01120e-17
5277.22378 1.09817e-17
5278.69400 1.08385e-17
5280.16422 9.57411e-18
5281.63444 1.05056e-17
5283.10466 9.94444e-18
5284.56481 1.11834e-17
5286.03503 1.24013e-17
5287.50525 1.14733e-17
5288.97547 1.12204e-17
5290.44569 1.12948e-17
5291.91591 1.07302e-17
5293.38613 1.12739e-17
5294.85635 1.19721e-17
5296.32657 1.17896e-17
5297.79679 1.11643e-17
5299.26701 1.24192e-17
5300.73723 1.24891e-17
5302.20745 1.23258e-17
5303.67767 1.21429e-17
5305.14789 1.16931e-17
5306.61811 1.06485e-17
5308.08833 1.10011e-17
5309.55855 1.25919e-17
5311.02877 1.30261e-17
5312.49899 1.22217e-17
5313.96921 1.18236e-17
5315.43943 1.25239e-17
5316.90965 1.38254e-17
5318.37987 1.28593e-17
5319.85009 1.17311e-17
5321.32031 1.42608e-17
5322.79053 1.43000e-17
5324.26075 1.13931e-17
5325.73097 1.10528e-17
5327.20119 1.19687e-17
5328.67141 1.08398e-17
5330.14163 1.23072e-17
5331.61185 1.23007e-17
5333.08207 1.18289e-17
5334.55229 1.24473e-17
5336.02251 1.21754e-17
5337.49273 1.12304e-17
5338.96295 1.17555e-17
5340.43317 1.29820e-17
5341.90339 1.32144e-17
5343.37361 1.13918e-17
5344.84383 1.22743e-17
5346.31405 1.31675e-17
5347.78427 1.00650e-17
5349.25449 9.73356e-18
5350.72471 1.13050e-17
5352.19493 1.25239e-17
5353.66515 1.31415e-17
5355.12530 1.36226e-17
5356.59552 1.31736e-17
5358.06574 1.08223e-17
5359.53596 1.18119e-17
5361.00618 1.43685e-17
5362.47640 1.50166e-17
5363.94662 1.33583e-17
5365.41684 1.17377e-17
5366.88706 1.37767e-17
5368.35728 1.32937e-17
5369.82750 1.14821e-17
5371.29772 1.25424e-17
5372.76794 1.47422e-17
5374.23816 1.42628e-17
5375.70838 1.27852e-17
5377.17860 1.28012e-17
5378.64882 1.23317e-17
5380.11904 1.26307e-17
5381.58926 1.33294e-17
5383.05948 1.31459e-17
5384.52970 1.30190e-17
5385.99992 1.42260e-17
5387.47014 1.32995e-17
5388.94036 1.22010e-17
5390.41058 1.37563e-17
5391.88080 1.32760e-17
5393.35102 1.30204e-17
5394.82124 1.41450e-17
5396.29146 1.49816e-17
5397.76168 1.30018e-17
5399.23190 1.04813e-17
5400.70212 1.18840e-17
5402.17234 1.22537e-17
5403.64256 1.28523e-17
5405.11278 1.41016e-17
5406.58300 1.34440e-17
5408.05322 1.43048e-17
5409.52344 1.38595e-17
5410.99366 1.15745e-17
5412.46388 1.28961e-17
5413.93410 1.41965e-17
5415.40432 1.18131e-17
5416.87454 1.17314e-17
5418.34476 1.35374e-17
5419.81498 1.38213e-17
5421.27513 1.45829e-17
5422.74535 1.32373e-17
5424.21557 1.26857e-17
5425.68579 1.24396e-17
5427.15601 1.18907e-17
5428.62623 1.13030e-17
5430.09645 1.22781e-17
5431.56667 1.42192e-17
5433.03689 1.27046e-17
5434.50711 1.12953e-17
5435.97733 1.26027e-17
5437.44755 1.22364e-17
5438.91777 1.28401e-17
5440.38799 1.21740e-17
5441.85821 1.27805e-17
5443.32843 1.33828e-17
5444.79865 1.27026e-17
5446.26887 1.23299e-17
5447.73909 1.29834e-17
5449.20931 1.28065e-17
5450.67953 1.22943e-17
5452.14975 1.24479e-17
5453.61997 1.14473e-17
5455.09019 1.31379e-17
5456.56041 1.43575e-17
5458.03063 1.18596e-17
5459.50085 1.16704e-17
5460.97107 1.34456e-17
5462.44129 1.35146e-17
5463.91151 1.40741e-17
5465.38173 1.42781e-17
5466.85195 1.41189e-17
5468.32217 1.50273e-17
5469.79239 1.38252e-17
5471.26261 1.27374e-17
5472.73283 1.39298e-17
5474.20305 1.39539e-17
5475.67327 1.49122e-17
5477.14349 1.50726e-17
5478.61371 1.48477e-17
5480.08393 1.48105e-17
5481.55415 1.49129e-17
5483.02437 1.47701e-17
5484.49459 1.49100e-17
5485.96481 1.37644e-17
5487.43503 1.39997e-17
5488.89518 1.45179e-17
5490.37547 1.59236e-17
5491.83562 1.70175e-17
5493.30584 1.58200e-17
5494.77606 1.47173e-17
5496.24628 1.39012e-17
5497.71650 1.41686e-17
5499.18672 1.41826e-17
5500.65694 1.46665e-17
5502.12716 1.39860e-17
5503.59738 1.45736e-17
5505.06760 1.46072e-17
5506.53782 1.43715e-17
5508.00804 1.60178e-17
5509.47826 1.53218e-17
5510.94848 1.44005e-17
5512.41870 1.65327e-17
5513.88892 1.49012e-17
5515.35914 1.55242e-17
5516.82936 1.56769e-17
5518.29958 1.43112e-17
5519.76980 1.55302e-17
5521.24002 1.62694e-17
5522.71024 1.45377e-17
5524.18046 1.47557e-17
5525.65068 1.55105e-17
5527.12090 1.43327e-17
5528.59112 1.38838e-17
5530.06134 1.46618e-17
5531.53156 1.39845e-17
5533.00178 1.27118e-17
5534.47200 1.38023e-17
5535.94222 1.33752e-17
5537.41244 1.21832e-17
5538.88266 1.26043e-17
5540.35288 1.30980e-17
5541.82310 1.24295e-17
5543.29332 1.29011e-17
5544.76354 1.44423e-17
5546.23376 1.24611e-17
5547.70398 1.33032e-17
5549.17420 1.30841e-17
5550.64442 1.27016e-17
5552.11464 1.47290e-17
5553.58486 1.41803e-17
5555.05508 1.26074e-17
5556.52530 1.36177e-17
5557.98545 1.46724e-17
5559.45567 1.34016e-17
5560.92589 1.29405e-17
5562.39611 1.29349e-17
5563.86633 1.20637e-17
5565.33655 1.09003e-17
5566.80677 1.07132e-17
5568.27699 1.21217e-17
5569.74721 1.30602e-17
5571.21743 1.41596e-17
5572.68765 1.13165e-17
5574.15787 1.11332e-17
5575.62809 1.15935e-17
5577.09831 1.05380e-17
5578.56853 1.31986e-17
5580.03875 1.12680e-17
5581.50897 1.10481e-17
5582.97919 1.18945e-17
5584.44941 1.17696e-17
5585.91963 1.22245e-17
5587.38985 1.15021e-17
5588.86007 1.02480e-17
5590.33029 1.22184e-17
5591.80051 1.19994e-17
5593.27073 1.10206e-17
5594.74095 1.18168e-17
5596.21117 1.26175e-17
5597.68139 1.18744e-17
5599.15161 1.04267e-17
5600.62183 1.09178e-17
5602.09205 1.08527e-17
5603.56227 1.18276e-17
5605.03249 1.21212e-17
5606.50271 1.25055e-17
5607.97293 1.25485e-17
5609.44315 1.14387e-17
5610.91337 1.09361e-17
5612.38359 1.08316e-17
5613.85381 1.21083e-17
5615.32403 1.18653e-17
5616.79425 1.13191e-17
5618.26447 1.14764e-17
5619.73469 1.10203e-17
5621.20491 1.08096e-17
5622.66506 1.06030e-17
5624.13528 9.26787e-18
5625.60550 9.76532e-18
5627.07572 1.10020e-17
5628.54594 9.79965e-18
5630.01616 9.50592e-18
5631.48638 9.17246e-18
5632.95660 8.68656e-18
5634.42682 9.17062e-18
5635.89704 1.03825e-17
5637.36726 1.10292e-17
5638.83748 9.59976e-18
5640.30770 8.66300e-18
5641.77792 1.05013e-17
5643.24814 1.23509e-17
5644.71836 1.14882e-17
5646.18858 9.83469e-18
5647.65880 8.40023e-18
5649.12902 9.41039e-18
5650.59924 1.03301e-17
5652.06946 1.01858e-17
5653.53968 9.20980e-18
5655.00990 7.79385e-18
5656.48012 9.82013e-18
5657.95034 1.10668e-17
5659.42056 9.74625e-18
5660.89078 9.95793e-18
5662.36100 1.13164e-17
5663.83122 1.10844e-17
5665.30144 9.84456e-18
5666.77166 8.11014e-18
5668.24188 8.48242e-18
5669.71210 8.64410e-18
5671.18232 1.03388e-17
5672.65254 1.00318e-17
5674.12276 8.69338e-18
5675.59298 8.36748e-18
5677.06320 9.35625e-18
5678.53342 9.90746e-18
5680.00364 8.59191e-18
5681.47386 9.00552e-18
5682.94408 7.79212e-18
5684.41430 8.43463e-18
5685.88452 9.53567e-18
5687.35474 9.30053e-18
5688.81489 1.00133e-17
5690.28511 8.03249e-18
5691.75533 8.04265e-18
5693.22555 1.03736e-17
5694.69577 9.00950e-18
5696.16599 7.37254e-18
5697.63621 8.67464e-18
5699.10643 1.00037e-17
5700.57665 1.12731e-17
5702.04687 1.23868e-17
5703.51709 9.81049e-18
5704.98731 7.82032e-18
5706.45753 6.45114e-18
5707.92775 8.60653e-18
5709.39797 8.68962e-18
5710.86819 7.83947e-18
5712.33841 7.96306e-18
5713.80863 9.12649e-18
5715.27885 8.52466e-18
5716.74907 9.94104e-18
5718.21929 9.36650e-18
5719.68951 8.88776e-18
5721.15973 7.75867e-18
5722.62995 7.78815e-18
5724.10017 1.03274e-17
5725.57039 8.67523e-18
5727.04061 8.03041e-18
5728.51083 1.00072e-17
5729.98105 1.00542e-17
5731.45127 8.86219e-18
5732.92149 9.12939e-18
5734.39171 8.43662e-18
5735.86193 8.72410e-18
5737.33215 1.00067e-17
5738.80237 1.07540e-17
5740.27259 9.48242e-18
5741.74281 9.45017e-18
5743.21303 1.03394e-17
5744.68325 8.42892e-18
5746.15347 8.32077e-18
5747.62369 8.23786e-18
5749.09391 8.62518e-18
5750.56413 8.25982e-18
5752.03435 8.41106e-18
5753.50457 9.42685e-18
5754.97479 1.00610e-17
5756.44501 9.40050e-18
5757.91523 8.50054e-18
5759.37538 1.00222e-17
5760.84560 9.52712e-18
5762.31582 8.48257e-18
5763.78604 9.15462e-18
5765.25626 8.97978e-18
5766.72648 9.65373e-18
5768.19670 9.93735e-18
5769.66692 9.30019e-18
5771.13714 8.73739e-18
5772.60736 8.60807e-18
5774.07758 9.89748e-18
5775.54780 9.04227e-18
5777.01802 9.23621e-18
5778.48824 8.76615e-18
5779.95846 9.19390e-18
5781.42868 9.88648e-18
5782.89890 1.04213e-17
5784.36912 7.97653e-18
5785.83934 9.31094e-18
5787.30956 1.11241e-17
5788.77978 1.01333e-17
5790.25000 1.09789e-17
5791.72022 1.10224e-17
5793.19044 1.09482e-17
5794.66066 1.09046e-17
5796.13088 1.00092e-17
5797.60110 1.07279e-17
5799.07132 1.16076e-17
5800.54154 1.05852e-17
5802.01176 1.00261e-17
5803.48198 1.02081e-17
5804.95220 1.22147e-17
5806.42242 1.28015e-17
5807.89264 1.13099e-17
5809.36286 9.10629e-18
5810.83308 1.01597e-17
5812.30330 1.11544e-17
5813.77352 1.15830e-17
5815.24374 1.09441e-17
5816.71396 1.18943e-17
5818.18418 1.18275e-17
5819.65440 1.12396e-17
5821.12462 1.15384e-17
5822.59484 1.14258e-17
5824.06506 1.13552e-17
5825.52521 1.12167e-17
5826.99543 1.06746e-17
5828.46565 1.19544e-17
5829.93587 1.26428e-17
5831.40609 1.14412e-17
5832.87631 1.26871e-17
5834.34653 1.41547e-17
5835.81675 1.23384e-17
5837.28697 1.11154e-17
5838.75719 1.09275e-17
5840.22741 1.17927e-17
5841.69763 1.29236e-17
5843.16785 1.26880e-17
5844.63807 1.35513e-17
5846.10829 1.39765e-17
5847.57851 1.23784e-17
5849.04873 1.18339e-17
5850.51895 1.20477e-17
5851.98917 1.19233e-17
5853.45939 1.25491e-17
5854.92961 1.32806e-17
5856.39983 1.27297e-17
5857.87005 1.23731e-17
5859.34027 1.35053e-17
5860.81049 1.51482e-17
5862.28071 1.49420e-17
5863.75093 1.41722e-17
5865.22115 1.31035e-17
5866.69137 1.15957e-17
5868.16159 1.33123e-17
5869.63181 1.50948e-17
5871.10203 1.46866e-17
5872.57225 1.28971e-17
5874.04247 1.38847e-17
5875.51269 1.58945e-17
5876.98291 1.55182e-17
5878.45313 1.48222e-17
5879.92335 1.52933e-17
5881.39357 1.55959e-17
5882.86379 1.57522e-17
5884.33401 1.64075e-17
5885.80423 1.67859e-17
5887.27445 1.67616e-17
5888.74467 1.67373e-17
5890.21489 1.67130e-17
5891.68511 1.66886e-17
5893.14526 1.66643e-17
5894.62555 1.66400e-17
5896.08570 1.66157e-17
5897.55592 1.65914e-17
5899.02614 1.65671e-17
5900.49636 1.65427e-17
5901.96658 1.65184e-17
5903.43680 1.64941e-17
5904.90702 1.64698e-17
5906.37724 1.64455e-17
5907.84746 1.64212e-17
5909.31768 1.63969e-17
5910.78790 1.63726e-17
5912.25812 1.63483e-17
5913.72834 1.63240e-17
5915.19856 1.62997e-17
5916.66878 1.62754e-17
5918.13900 1.62511e-17
5919.60922 1.62268e-17
5921.07944 1.62025e-17
5922.54966 1.61782e-17
5924.01988 1.61539e-17
5925.49010 1.61296e-17
5926.96032 1.61053e-17
5928.43054 1.60810e-17
5929.90076 1.60567e-17
5931.37098 1.60324e-17
5932.84120 1.60082e-17
5934.31142 1.59839e-17
5935.78164 1.59596e-17
5937.25186 1.59353e-17
5938.72208 1.59110e-17
5940.19230 1.58867e-17
5941.66252 1.58625e-17
5943.13274 1.58382e-17
5944.60296 1.58139e-17
5946.07318 1.57896e-17
5947.54340 1.57653e-17
5949.01362 1.53908e-17
5950.48384 1.49661e-17
5951.95406 1.57877e-17
5953.42428 1.65755e-17
5954.89450 1.52694e-17
5956.36472 1.67638e-17
5957.83494 1.72717e-17
5959.30516 1.52474e-17
5960.76531 1.44604e-17
5962.23553 1.48010e-17
5963.70575 1.62554e-17
5965.17597 1.55377e-17
5966.64619 1.73756e-17
5968.11641 1.67551e-17
5969.58663 1.40925e-17
5971.05685 1.43313e-17
5972.52707 1.39133e-17
5973.99729 1.36164e-17
5975.46751 1.58531e-17
5976.93773 1.58334e-17
5978.40795 1.42593e-17
5979.87817 1.53287e-17
5981.34839 1.42687e-17
5982.81861 1.48274e-17
5984.28883 1.56617e-17
5985.75905 1.47969e-17
5987.22927 1.42351e-17
5988.69949 1.32851e-17
5990.16971 1.35942e-17
5991.63993 1.50932e-17
5993.11015 1.45856e-17
5994.58037 1.35475e-17
5996.05059 1.34202e-17
5997.52081 1.53645e-17
5998.99103 1.44805e-17
6000.46125 1.24034e-17
6001.93147 1.35657e-17
6003.40169 1.35747e-17
6004.87191 1.21078e-17
6006.34213 1.27264e-17
6007.81235 1.33852e-17
6009.28257 1.27276e-17
6010.75279 1.23716e-17
6012.22301 1.28547e-17
6013.69323 1.26984e-17
6015.16345 1.29348e-17
6016.63367 1.31970e-17
6018.10389 1.35673e-17
6019.57411 1.34255e-17
6021.04433 1.37294e-17
6022.51455 1.20563e-17
6023.98477 1.12532e-17
6025.45499 1.35547e-17
6026.91514 1.17897e-17
6028.38536 1.10562e-17
6029.85558 1.23773e-17
6031.32580 1.09282e-17
6032.79602 1.07036e-17
6034.26624 1.19645e-17
6035.73646 1.28356e-17
6037.20668 1.19836e-17
6038.67690 1.24181e-17
6040.14712 1.23620e-17
6041.61734 1.14421e-17
6043.08756 1.14234e-17
6044.55778 1.16953e-17
6046.02800 1.12904e-17
6047.49822 1.06969e-17
6048.96844 1.15782e-17
6050.43866 1.17632e-17
6051.90888 1.24733e-17
6053.37910 1.37319e-17
6054.84932 1.27379e-17
6056.31954 1.12293e-17
6057.78976 1.09977e-17
6059.25998 1.20099e-17
6060.73020 1.25891e-17
6062.20042 1.19269e-17
6063.67064 1.05799e-17
6065.14086 1.06512e-17
6066.61108 1.06168e-17
6068.08130 1.03917e-17
6069.55152 1.22896e-17
6071.02174 1.15789e-17
6072.49196 1.09100e-17
6073.96218 1.22350e-17
6075.43240 1.17686e-17
6076.90262 1.16130e-17
6078.37284 1.16852e-17
6079.84306 1.03779e-17
6081.31328 1.11518e-17
6082.78350 1.08896e-17
6084.25372 1.13688e-17
6085.72394 1.23848e-17
6087.19416 1.17644e-17
6088.66438 1.28542e-17
6090.13460 1.21803e-17
6091.60482 1.00633e-17
6093.06497 9.28079e-18
6094.53519 9.76735e-18
6096.00541 1.11579e-17
6097.47563 1.08807e-17
6098.94585 1.07480e-17
6100.41607 1.09827e-17
6101.88629 1.25283e-17
6103.35651 1.17585e-17
6104.82673 1.15093e-17
6106.29695 1.19387e-17
6107.76717 1.14389e-17
6109.23739 1.01077e-17
6110.70761 8.54054e-18
6112.17783 8.44401e-18
6113.64805 1.10790e-17
6115.11827 1.06342e-17
6116.58849 1.07099e-17
6118.05871 1.21987e-17
6119.52893 1.29224e-17
6120.99915 1.15141e-17
6122.46937 9.71954e-18
6123.93959 9.78254e-18
6125.40981 1.01920e-17
6126.88003 9.97284e-18
6128.35025 9.11790e-18
6129.82047 9.74667e-18
6131.29069 9.78117e-18
6132.76091 1.00373e-17
6134.23113 1.16934e-17
6135.70135 1.14675e-17
6137.17157 9.30237e-18
6138.64179 8.27461e-18
6140.11201 1.15851e-17
6141.58223 1.07834e-17
6143.05245 9.41905e-18
6144.52267 9.20477e-18
6145.99289 9.99787e-18
6147.46311 1.00073e-17
6148.93333 9.08576e-18
6150.40355 9.39131e-18
6151.87377 9.66291e-18
6153.34399 9.71295e-18
6154.81421 9.35437e-18
6156.28443 9.21409e-18
6157.75465 1.03625e-17
6159.22487 9.27432e-18
6160.69509 8.93601e-18
6162.16531 1.04121e-17
6163.62546 1.10240e-17
6165.09568 1.08955e-17
6166.56590 1.04747e-17
6168.03612 1.13332e-17
6169.50634 1.20400e-17
6170.97656 1.14387e-17
6172.44678 9.67350e-18
6173.91700 1.15898e-17
6175.38722 1.04833e-17
6176.85744 9.75819e-18
6178.32766 1.09459e-17
6179.79788 1.09628e-17
6181.26810 9.82327e-18
6182.73832 1.04384e-17
6184.20854 1.10452e-17
6185.67876 1.03206e-17
6187.14898 1.09889e-17
6188.61920 1.13175e-17
6190.08942 1.13651e-17
6191.55964 1.28975e-17
6193.02986 1.22935e-17
6194.50008 1.14110e-17
6195.97030 1.26434e-17
6197.44052 1.28600e-17
6198.91074 1.15812e-17
6200.38096 1.01792e-17
6201.85118 1.17451e-17
6203.32140 1.19079e-17
6204.79162 1.16500e-17
6206.26184 1.28935e-17
6207.73206 1.26109e-17
6209.20228 1.28994e-17
6210.67250 1.20525e-17
6212.14272 1.15236e-17
6213.61294 1.20000e-17
6215.08316 1.22631e-17
6216.55338 1.15327e-17
6218.02360 1.25716e-17
6219.49382 1.38132e-17
6220.96404 1.21698e-17
6222.43426 1.15171e-17
6223.90448 1.25115e-17
6225.37470 1.21128e-17
6226.84492 1.18478e-17
6228.31514 1.28735e-17
6229.77529 1.24859e-17
6231.24551 1.18463e-17
6232.71573 1.28035e-17
6234.18595 1.13831e-17
6235.65617 1.06815e-17
6237.12639 1.15104e-17
6238.59661 1.11936e-17
6240.06683 1.14071e-17
6241.53705 1.24604e-17
6243.00727 1.20324e-17
6244.47749 1.07896e-17
6245.94771 1.14873e-17
6247.41793 1.26118e-17
6248.88815 1.20109e-17
6250.35837 1.20166e-17
6251.82859 1.23262e-17
6253.29881 1.10743e-17
6254.76903 1.22680e-17
6256.23925 1.36483e-17
6257.70947 1.39627e-17
6259.17969 1.40394e-17
6260.64991 1.20067e-17
6262.12013 1.14758e-17
6263.59035 1.20992e-17
6265.06057 1.31648e-17
6266.53079 1.33105e-17
6268.00101 1.13311e-17
6269.47123 1.07664e-17
6270.94145 1.11949e-17
6272.41167 1.17659e-17
6273.88189 1.33671e-17
6275.35211 1.31466e-17
6276.82233 1.25710e-17
6278.29255 1.25781e-17
6279.76277 1.24413e-17
6281.23299 1.23772e-17
6282.70321 1.19830e-17
6284.17343 1.14594e-17
6285.64365 1.20565e-17
6287.11387 1.28899e-17
6288.58409 1.03380e-17
6290.05431 9.25134e-18
6291.52453 1.08332e-17
6292.99475 1.17727e-17
6294.46497 1.21565e-17
6295.93519 1.34182e-17
6297.39534 1.34541e-17
6298.86556 1.22392e-17
6300.33578 1.34448e-17
6301.80600 1.28584e-17
6303.27622 1.31102e-17
6304.74644 1.34655e-17
6306.21666 1.26272e-17
6307.68688 1.21327e-17
6309.15710 1.07817e-17
6310.62732 1.08924e-17
6312.09754 1.18640e-17
6313.56776 1.25417e-17
6315.03798 1.20222e-17
6316.50820 1.23166e-17
6317.97842 1.29899e-17
6319.44864 1.15962e-17
6320.91886 1.09139e-17
6322.38908 1.16198e-17
6323.85930 1.29331e-17
6325.32952 1.31076e-17
6326.79974 1.47594e-17
6328.26996 1.44248e-17
6329.74018 1.34771e-17
6331.21040 1.21981e-17
6332.68062 1.21448e-17
6334.15084 1.29178e-17
6335.62106 1.26592e-17
6337.09128 1.44166e-17
6338.56150 1.46634e-17
6340.03172 1.44183e-17
6341.50194 1.56977e-17
6342.97216 1.40000e-17
6344.44238 1.23862e-17
6345.91260 1.34232e-17
6347.38282 1.33178e-17
6348.85304 1.28713e-17
6350.32326 1.29493e-17
6351.79348 1.27642e-17
6353.26370 1.23863e-17
6354.73392 1.25237e-17
6356.20414 1.25138e-17
6357.67436 1.14782e-17
6359.14458 1.08487e-17
6360.61480 1.10978e-17
6362.08502 1.13849e-17
6363.54517 1.24637e-17
6365.01539 1.30450e-17
6366.48561 1.37119e-17
6367.95583 1.37959e-17
6369.42605 1.23162e-17
6370.89627 1.19007e-17
6372.36649 1.21012e-17
6373.83671 1.20352e-17
6375.30693 1.28063e-17
6376.77715 1.18633e-17
6378.24737 1.10585e-17
6379.71759 1.09436e-17
6381.18781 1.09382e-17
6382.65803 1.28118e-17
6384.12825 1.33202e-17
6385.59847 1.22183e-17
6387.06869 1.35201e-17
6388.53891 1.39531e-17
6390.00913 1.22106e-17
6391.47935 1.24423e-17
6392.94957 1.30594e-17
6394.41979 1.37080e-17
6395.89001 1.31866e-17
6397.36023 1.31726e-17
6398.83045 1.36710e-17
6400.30067 1.24777e-17
6401.77089 1.28849e-17
6403.24111 1.42968e-17
6404.71133 1.39186e-17
6406.18155 1.27690e-17
6407.65177 1.21982e-17
6409.12199 1.33037e-17
6410.59221 1.28794e-17
6412.06243 1.17909e-17
6413.53265 1.17328e-17
6415.00287 1.16314e-17
6416.47309 1.12602e-17
6417.94331 1.13628e-17
6419.41353 1.21162e-17
6420.88375 1.26813e-17
6422.35397 1.25948e-17
6423.82419 1.20152e-17
6425.29441 1.14969e-17
6426.76463 1.18891e-17
6428.23485 1.33262e-17
6429.70507 1.31201e-17
6431.16522 1.20329e-17
6432.63544 1.16572e-17
6434.10566 1.18933e-17
6435.57588 1.21952e-17
6437.04610 1.29000e-17
6438.51632 1.35471e-17
6439.98654 1.26481e-17
6441.45676 1.22008e-17
6442.92698 1.23834e-17
6444.39720 1.24690e-17
6445.86742 1.28038e-17
6447.33764 1.19435e-17
6448.80786 1.14534e-17
6450.27808 1.19130e-17
6451.74830 1.21264e-17
6453.21852 1.24645e-17
6454.68874 1.25133e-17
6456.15896 1.19447e-17
6457.62918 1.13693e-17
6459.09940 1.18259e-17
6460.56962 1.18715e-17
6462.03984 1.18619e-17
6463.51006 1.19637e-17
6464.98028 1.15869e-17
6466.45050 1.19785e-17
6467.92072 1.24420e-17
6469.39094 1.22995e-17
6470.86116 1.16779e-17
6472.33138 1.19704e-17
6473.80160 1.21149e-17
6475.27182 1.15387e-17
6476.74204 1.26830e-17
6478.21226 1.32821e-17
6479.68248 1.28792e-17
6481.15270 1.24767e-17
6482.62292 1.15244e-17
6484.09314 1.18193e-17
6485.56336 1.19595e-17
6487.03358 1.13709e-17
6488.50380 1.22658e-17
6489.97402 1.26065e-17
6491.44424 1.20401e-17
6492.91446 1.13645e-17
6494.38468 1.18187e-17
6495.85490 1.24859e-17
6497.31505 1.13296e-17
6498.78527 1.06535e-17
6500.25549 1.04596e-17
6501.72571 1.02354e-17
6503.19593 1.10366e-17
6504.66615 1.17962e-17
6506.13637 1.19528e-17
6507.60659 1.13529e-17
6509.07681 1.02267e-17
6510.54703 1.07662e-17
6512.01725 1.27329e-17
6513.48747 1.27411e-17
6514.95769 1.27842e-17
6516.42791 1.32323e-17
6517.89813 9.96636e-18
6519.36835 1.11781e-17
6520.83857 1.24398e-17
6522.30879 1.05298e-17
6523.77901 1.08179e-17
6525.24923 1.21883e-17
6526.71945 1.25605e-17
6528.18967 1.11017e-17
6529.65989 1.24074e-17
6531.13011 1.32459e-17
6532.60033 1.19381e-17
6534.07055 1.18563e-17
6535.54077 1.31944e-17
6537.01099 1.32366e-17
6538.48121 1.25926e-17
6539.95143 1.09266e-17
6541.42165 1.07012e-17
6542.89187 1.32883e-17
6544.36209 1.34599e-17
6545.83231 1.28920e-17
6547.30253 1.26504e-17
6548.77275 1.20632e-17
6550.24297 1.20922e-17
6551.71319 1.23899e-17
6553.18341 1.06055e-17
6554.65363 1.05419e-17
6556.12385 1.26803e-17
6557.59407 1.27545e-17
6559.06429 1.22812e-17
6560.53451 1.23171e-17
6562.00473 1.24074e-17
6563.47495 1.15795e-17
6564.94517 1.08235e-17
6566.41539 1.16117e-17
6567.87554 1.25802e-17
6569.34576 1.13231e-17
6570.81598 1.02538e-17
6572.28620 1.04323e-17
6573.75642 1.00213e-17
6575.22664 9.51888e-18
6576.69686 9.57835e-18
6578.16708 9.63780e-18
6579.63730 9.69726e-18
6581.10752 9.75671e-18
6582.57774 9.81620e-18
6584.04796 9.87564e-18
6585.51818 9.93510e-18
6586.98840 9.99456e-18
6588.45862 1.00540e-17
6589.92884 1.01135e-17
6591.39906 1.01729e-17
6592.86928 1.02323e-17
6594.33950 1.02918e-17
6595.80972 1.03512e-17
6597.27994 1.04107e-17
6598.75016 1.04701e-17
6600.22038 1.05296e-17
6601.69060 1.05890e-17
6603.16082 1.06484e-17
6604.63104 1.07079e-17
6606.10126 1.07673e-17
6607.57148 1.08267e-17
6609.04170 1.08862e-17
6610.51192 1.09456e-17
6611.98214 1.10050e-17
6613.45236 1.10644e-17
6614.92258 1.10715e-17
6616.39280 1.10786e-17
6617.86302 1.10857e-17
6619.33324 1.10928e-17
6620.80346 1.10999e-17
6622.27368 1.11070e-17
6623.74390 1.11141e-17
6625.21412 1.11212e-17
6626.68434 1.11283e-17
6628.15456 1.11354e-17
6629.62478 1.11424e-17
6631.09500 1.11495e-17
6632.56522 1.11566e-17
6634.02537 1.11637e-17
6635.49559 1.11708e-17
6636.96581 1.11779e-17
6638.43603 1.11850e-17
6639.90625 1.11921e-17
6641.37647 1.11992e-17
6642.84669 1.12062e-17
6644.31691 1.12133e-17
6645.78713 1.12204e-17
6647.25735 1.12275e-17
6648.72757 1.12346e-17
6650.19779 1.05479e-17
6651.66801 1.07390e-17
6653.13823 1.14990e-17
6654.60845 1.15111e-17
6656.07867 1.11929e-17
6657.54889 9.91329e-18
6659.01911 9.56380e-18
6660.48933 1.16835e-17
6661.95955 1.15669e-17
6663.42977 1.07201e-17
6664.89999 1.13361e-17
6666.37021 1.11553e-17
6667.84043 1.03748e-17
6669.31065 9.45004e-18
6670.78087 1.07976e-17
6672.25109 1.29139e-17
6673.72131 1.25237e-17
6675.19153 1.11084e-17
6676.66175 1.02788e-17
6678.13197 1.07807e-17
6679.60219 1.20325e-17
6681.07241 1.20963e-17
6682.54263 1.08621e-17
6684.01285 1.01045e-17
6685.48307 1.03534e-17
6686.95329 1.16688e-17
6688.42351 1.10513e-17
6689.89373 9.32799e-18
6691.36395 1.03922e-17
6692.83417 1.11825e-17
6694.30439 1.06786e-17
6695.77461 1.04676e-17
6697.24483 1.05444e-17
6698.71505 1.12942e-17
6700.17520 1.20261e-17
6701.64542 1.22402e-17
6703.11564 1.28220e-17
6704.58586 1.29466e-17
6706.05608 1.14607e-17
6707.52630 1.11888e-17
6708.99652 1.23154e-17
6710.46674 1.15548e-17
6711.93696 1.15414e-17
6713.40718 1.19095e-17
6714.87740 1.13593e-17
6716.34762 1.26924e-17
6717.81784 1.41214e-17
6719.28806 1.36020e-17
6720.75828 1.29676e-17
6722.22850 1.26507e-17
6723.69872 1.15682e-17
6725.16894 1.12937e-17
6726.63916 1.09797e-17
6728.10938 1.06786e-17
6729.57960 1.10386e-17
6731.04982 1.13771e-17
6732.52004 1.14402e-17
6733.99026 1.05947e-17
6735.46048 1.02064e-17
6736.93070 1.09028e-17
6738.40092 1.15822e-17
6739.87114 1.07365e-17
6741.34136 9.22556e-18
6742.81158 9.04226e-18
6744.28180 9.18523e-18
6745.75202 9.20349e-18
6747.22224 9.22176e-18
6748.69246 9.24002e-18
6750.16268 9.25829e-18
6751.63290 9.27655e-18
6753.10312 9.29482e-18
6754.57334 9.31308e-18
6756.04356 9.33134e-18
6757.51378 9.34960e-18
6758.98400 9.36786e-18
6760.45422 9.35982e-18
6761.92444 9.35177e-18
6763.39466 9.34373e-18
6764.86488 9.33568e-18
6766.33510 9.32763e-18
6767.79525 9.31959e-18
6769.26547 9.31154e-18
6770.73569 9.30350e-18
6772.20591 9.29545e-18
6773.67613 9.28741e-18
6775.14635 9.27937e-18
6776.61657 9.27132e-18
6778.08679 9.26328e-18
6779.55701 9.25524e-18
6781.02723 9.24720e-18
6782.49745 9.23915e-18
6783.96767 9.23111e-18
6785.43789 9.22306e-18
6786.90811 9.21502e-18
6788.37833 9.20698e-18
6789.84855 9.19894e-18
6791.31877 9.19090e-18
6792.78899 9.18285e-18
6794.25921 9.17481e-18
6795.72943 9.16677e-18
6797.19965 9.15873e-18
6798.66987 7.91517e-18
6800.14009 9.28314e-18
6801.61031 9.47944e-18
6803.08053 8.26681e-18
6804.55075 8.93217e-18
6806.02097 9.30926e-18
6807.49119 8.25268e-18
6808.96141 8.23203e-18
6810.43163 8.01657e-18
6811.90185 6.50485e-18
6813.37207 7.50461e-18
6814.84229 9.07191e-18
6816.31251 8.79495e-18
6817.78273 8.03063e-18
6819.25295 8.13798e-18
6820.72317 9.34765e-18
6822.19339 8.81639e-18
6823.66361 7.17004e-18
6825.13383 6.51340e-18
6826.60405 6.37085e-18
6828.07427 6.82817e-18
6829.54449 8.02972e-18
6831.01471 7.64129e-18
6832.48493 7.74406e-18
6833.95515 8.70234e-18
6835.41530 8.39429e-18
6836.88552 7.70961e-18
6838.35574 7.15893e-18
6839.82596 7.11020e-18
6841.29618 7.30227e-18
6842.76640 7.64879e-18
6844.23662 7.43859e-18
6845.70684 7.64048e-18
6847.17706 7.94396e-18
6848.64728 7.24459e-18
6850.11750 7.65252e-18
6851.58772 8.74876e-18
6853.05794 8.41937e-18
6854.52816 6.50769e-18
6855.99838 5.70249e-18
6857.46860 7.41054e-18
6858.93882 7.98524e-18
6860.40904 8.28825e-18
6861.87926 9.57426e-18
6863.34948 7.42433e-18
6864.81970 6.83742e-18
6866.28992 9.60394e-18
6867.76014 9.03612e-18
6869.23036 7.23292e-18
6870.70058 6.51479e-18
6872.17080 7.00153e-18
6873.64102 8.34529e-18
6875.11124 8.12626e-18
6876.58146 7.93092e-18
6878.05168 8.26967e-18
6879.52190 7.58414e-18
6880.99212 5.97433e-18
6882.46234 5.77875e-18
6883.93256 7.54027e-18
6885.40278 7.86268e-18
6886.87300 7.10374e-18
6888.34322 7.02874e-18
6889.81344 6.53845e-18
6891.28366 6.60918e-18
6892.75388 7.28200e-18
6894.22410 7.78210e-18
6895.69432 8.62258e-18
6897.16454 7.35461e-18
6898.63476 5.59204e-18
6900.10498 7.08892e-18
6901.56513 7.90630e-18
6903.03535 6.74088e-18
6904.50557 6.63829e-18
6905.97579 7.23873e-18
6907.44601 7.43887e-18
6908.91623 6.55938e-18
6910.38645 5.95489e-18
6911.85667 7.43583e-18
6913.32689 8.59798e-18
6914.79711 8.14211e-18
6916.26733 9.11515e-18
6917.73755 9.80027e-18
6919.20777 8.12072e-18
6920.67799 7.54303e-18
6922.14821 8.15167e-18
6923.61843 8.42607e-18
6925.08865 7.73625e-18
6926.55887 7.23344e-18
6928.02909 8.11718e-18
6929.49931 6.96041e-18
6930.96953 6.20323e-18
6932.43975 7.80891e-18
6933.90997 8.55866e-18
6935.38019 8.84902e-18
6936.85041 8.10271e-18
6938.32063 7.31276e-18
6939.79085 7.82296e-18
6941.26107 8.55563e-18
6942.73129 8.70420e-18
6944.20151 8.08544e-18
6945.67173 7.19137e-18
6947.14195 8.02214e-18
6948.61217 8.24341e-18
6950.08239 7.83515e-18
6951.55261 9.48580e-18
6953.02283 8.60988e-18
6954.49305 7.18699e-18
6955.96327 8.31168e-18
6957.43349 9.28155e-18
6958.90371 8.71389e-18
6960.37393 8.14281e-18
6961.84415 8.73303e-18
6963.31437 9.49318e-18
6964.78459 9.87330e-18
6966.25481 8.31037e-18
6967.72503 8.10272e-18
6969.19525 9.88422e-18
6970.66547 9.85220e-18
6972.12562 8.89958e-18
6973.59584 9.79801e-18
6975.06606 1.10005e-17
6976.53628 1.03012e-17
6978.00650 9.90933e-18
6979.47672 9.26351e-18
6980.94694 9.40685e-18
6982.41716 1.07955e-17
6983.88738 1.12976e-17
6985.35760 1.11006e-17
6986.82782 9.72883e-18
6988.29804 1.01182e-17
6989.76826 1.14822e-17
6991.23848 1.13749e-17
6992.70870 1.15584e-17
6994.17892 1.08836e-17
6995.64914 9.59566e-18
6997.11936 9.84950e-18
6998.58958 9.56940e-18
7000.05980 1.00182e-17
7001.53002 1.06151e-17
7003.00024 1.04957e-17
7004.47046 1.02370e-17
7005.94068 1.10289e-17
7007.41090 1.09727e-17
7008.88112 1.00384e-17
7010.35134 9.41137e-18
7011.82156 9.78158e-18
7013.29178 1.07141e-17
7014.76200 1.04148e-17
7016.23222 1.12620e-17
7017.70244 1.17894e-17
7019.17266 1.08661e-17
7020.64288 1.15653e-17
7022.11310 1.01329e-17
7023.58332 9.60884e-18
7025.05354 9.73688e-18
7026.52376 8.46600e-18
7027.99398 9.38187e-18
7029.46420 1.13447e-17
7030.93442 1.14095e-17
7032.40464 1.04768e-17
7033.87486 1.10627e-17
7035.34508 1.08039e-17
7036.81530 1.04092e-17
7038.27545 1.23028e-17
7039.74567 1.27358e-17
7041.21589 1.07254e-17
7042.68611 1.01623e-17
7044.15633 1.07472e-17
7045.62655 1.20582e-17
7047.09677 1.28348e-17
7048.56699 1.06583e-17
7050.03721 9.72728e-18
7051.50743 1.04637e-17
7052.97765 1.11073e-17
7054.44787 1.28700e-17
7055.91809 1.25067e-17
7057.38831 1.07113e-17
7058.85853 1.09748e-17
7060.32875 1.20812e-17
7061.79897 1.15804e-17
7063.26919 1.12047e-17
7064.73941 1.19095e-17
7066.20963 1.12439e-17
7067.67985 1.20237e-17
7069.15007 1.30216e-17
7070.62029 1.30065e-17
7072.09051 1.23843e-17
7073.56073 1.21327e-17
7075.03095 1.20021e-17
7076.50117 1.16443e-17
7077.97139 1.27735e-17
7079.44161 1.31549e-17
7080.91183 1.33603e-17
7082.38205 1.37815e-17
7083.85227 1.27210e-17
7085.32249 1.22616e-17
7086.79271 1.28618e-17
7088.26293 1.35157e-17
7089.73315 1.27672e-17
7091.20337 1.28835e-17
7092.67359 1.35943e-17
7094.14381 1.28589e-17
7095.61403 1.26561e-17
7097.08425 1.31531e-17
7098.55447 1.25883e-17
7100.02469 1.30653e-17
7101.49491 1.42753e-17
7102.95506 1.36188e-17
7104.42528 1.29196e-17
7105.89550 1.37281e-17
7107.36572 1.45384e-17
7108.83594 1.53096e-17
7110.30616 1.51719e-17
7111.77638 1.48887e-17
7113.24660 1.43784e-17
7114.71682 1.30854e-17
7116.18704 1.23058e-17
7117.65726 1.36073e-17
7119.12748 1.38611e-17
7120.59770 1.29093e-17
7122.06792 1.24789e-17
7123.53814 1.30780e-17
7125.00836 1.38003e-17
7126.47858 1.28221e-17
7127.94880 1.10535e-17
7129.41902 1.11258e-17
7130.88924 1.16444e-17
7132.35946 1.23428e-17
7133.82968 1.24103e-17
7135.29990 1.10317e-17
7136.77012 1.20108e-17
7138.24034 1.27940e-17
7139.71056 1.20497e-17
7141.18078 1.22224e-17
7142.65100 1.18696e-17
7144.12122 1.22579e-17
7145.59144 1.19465e-17
7147.06166 1.11342e-17
7148.53188 1.26167e-17
7150.00210 1.36800e-17
7151.47232 1.19971e-17
7152.94254 1.10546e-17
7154.41276 1.12515e-17
7155.88298 1.10511e-17
7157.35320 1.00699e-17
7158.82342 9.62465e-18
7160.29364 9.17963e-18
7161.76386 8.59170e-18
7163.23408 1.07283e-17
7164.70430 1.17280e-17
7166.17452 1.12421e-17
7167.64474 1.11434e-17
7169.11496 1.20485e-17
7170.58518 1.30318e-17
7172.04533 1.13522e-17
7173.51555 1.10175e-17
7174.98577 1.22030e-17
7176.45599 1.12929e-17
7177.92621 1.13887e-17
7179.39643 1.36174e-17
7180.86665 1.45502e-17
7182.33687 1.29332e-17
7183.80709 1.18975e-17
7185.27731 1.17815e-17
7186.74753 1.00904e-17
7188.21775 9.90843e-18
7189.68797 1.09653e-17
7191.15819 1.06629e-17
7192.62841 1.09202e-17
7194.09863 1.11631e-17
7195.56885 1.08468e-17
7197.03907 1.16478e-17
7198.50929 1.19448e-17
7199.97951 1.08550e-17
7201.44973 1.11396e-17
7202.91995 1.20628e-17
7204.39017 1.05774e-17
7205.86039 9.77301e-18
7207.33061 1.07137e-17
7208.80083 1.10726e-17
7210.27105 1.24282e-17
7211.74127 1.33818e-17
7213.21149 1.26911e-17
7214.68171 1.18453e-17
7216.15193 1.07784e-17
7217.62215 1.09520e-17
7219.09237 1.18081e-17
7220.56259 1.09580e-17
7222.03281 9.64773e-18
7223.50303 1.01979e-17
7224.97325 1.12809e-17
7226.44347 1.10657e-17
7227.91369 1.09389e-17
7229.38391 1.08411e-17
7230.85413 1.12510e-17
7232.32435 1.29424e-17
7233.79457 1.10147e-17
7235.26479 8.27213e-18
7236.73501 1.05241e-17
7238.20523 1.30685e-17
7239.66538 1.16912e-17
7241.13560 1.15958e-17
7242.60582 1.41810e-17
7244.07604 1.31573e-17
7245.54626 1.14375e-17
7247.01648 1.29218e-17
7248.48670 1.29531e-17
7249.95692 1.14211e-17
7251.42714 1.07728e-17
7252.89736 1.05144e-17
7254.36758 9.76819e-18
7255.83780 1.21630e-17
7257.30802 1.37795e-17
7258.77824 1.13681e-17
7260.24846 1.11739e-17
7261.71868 1.21364e-17
7263.18890 1.09462e-17
7264.65912 1.13367e-17
7266.12934 1.31174e-17
7267.59956 1.34018e-17
7269.06978 1.32483e-17
7270.54000 1.23311e-17
7272.01022 1.15885e-17
7273.48044 1.28558e-17
7274.95066 1.29427e-17
7276.42088 1.16352e-17
7277.89110 1.13707e-17
7279.36132 1.30549e-17
7280.83154 1.31975e-17
7282.30176 1.31731e-17
7283.77198 1.52379e-17
7285.24220 1.51232e-17
7286.71242 1.27522e-17
7288.18264 1.28605e-17
7289.65286 1.12097e-17
7291.12308 1.05647e-17
7292.59330 1.26806e-17
7294.06352 1.19177e-17
7295.53374 1.22675e-17
7297.00396 1.33431e-17
7298.47418 1.32398e-17
7299.94440 1.21043e-17
7301.41462 1.04653e-17
7302.88484 1.10383e-17
7304.35506 1.24814e-17
7305.81521 1.23156e-17
7307.28543 1.17319e-17
7308.75565 1.03856e-17
7310.22587 1.05106e-17
7311.69609 1.18631e-17
7313.16631 1.12847e-17
7314.63653 1.14365e-17
7316.10675 1.15550e-17
7317.57697 1.13829e-17
7319.04719 1.26260e-17
7320.51741 1.13796e-17
7321.98763 1.06789e-17
7323.45785 1.19639e-17
7324.92807 1.25436e-17
7326.39829 1.20834e-17
7327.86851 1.08024e-17
7329.33873 1.10694e-17
7330.80895 1.34820e-17
7332.27917 1.44778e-17
7333.74939 1.41262e-17
7335.21961 1.24266e-17
7336.68983 1.16422e-17
7338.16005 9.66060e-18
7339.63027 9.74405e-18
7341.10049 1.13292e-17
7342.57071 1.33284e-17
7344.04093 1.20979e-17
7345.51115 1.17827e-17
7346.98137 1.23536e-17
7348.45159 1.15361e-17
7349.92181 1.11021e-17
7351.39203 1.18178e-17
7352.86225 1.10804e-17
7354.33247 1.05923e-17
7355.80269 1.14875e-17
7357.27291 1.19876e-17
7358.74313 1.16111e-17
7360.21335 1.05088e-17
7361.68357 1.11155e-17
7363.15379 1.12210e-17
7364.62401 1.15705e-17
7366.09423 1.29234e-17
7367.56445 1.35567e-17
7369.03467 1.20484e-17
7370.50489 1.10097e-17
7371.97511 1.16205e-17
7373.44533 1.08728e-17
7374.91555 9.73707e-18
7376.37570 9.87172e-18
7377.84592 1.01398e-17
7379.31614 1.00030e-17
7380.78636 1.05925e-17
7382.25658 1.18708e-17
7383.72680 1.10728e-17
7385.19702 1.06911e-17
7386.66724 1.10806e-17
7388.13746 1.20897e-17
7389.60768 1.26608e-17
7391.07790 1.15820e-17
7392.54812 1.01711e-17
7394.01834 9.70306e-18
7395.48856 9.82303e-18
7396.95878 1.08750e-17
7398.42900 1.12535e-17
7399.89922 1.08634e-17
7401.36944 1.10604e-17
7402.83966 1.16990e-17
7404.30988 1.05383e-17
7405.78010 1.04016e-17
7407.25032 1.02995e-17
7408.72054 9.94063e-18
7410.19076 1.06885e-17
7411.66098 1.06078e-17
7413.13120 1.16913e-17
7414.60142 1.15979e-17
7416.07164 1.17273e-17
7417.54186 1.12913e-17
7418.20361 1.12913e-17
7420.20202 1.12825e-17
7422.21053 1.13015e-17
7424.20894 1.13041e-17
7426.20735 1.12175e-17
7428.20577 1.11467e-17
7430.20418 1.12000e-17
7432.21269 1.12915e-17
7434.21110 1.13277e-17
7436.20952 1.12960e-17
7438.20793 1.12812e-17
7440.21644 1.13520e-17
7442.21485 1.14168e-17
7444.21327 1.13823e-17
7446.21168 1.13166e-17
7448.21009 1.12662e-17
7450.21860 1.12399e-17
7452.21702 1.12097e-17
7454.21543 1.11646e-17
7456.21384 1.11244e-17
7458.22235 1.11173e-17
7460.22076 1.11149e-17
7462.21918 1.11068e-17
7464.21759 1.10825e-17
7466.21601 1.10329e-17
7468.22451 1.09618e-17
7470.22293 1.08941e-17
7472.22134 1.08646e-17
7474.21976 1.08524e-17
7476.21817 1.08793e-17
7478.22668 1.08841e-17
7480.22509 1.07908e-17
7482.22350 1.06136e-17
7484.22192 1.04568e-17
7486.23043 1.04344e-17
7488.22884 1.04402e-17
7490.22725 1.03893e-17
7492.22567 1.03457e-17
7494.22408 1.03715e-17
7496.23259 1.04528e-17
7498.23100 1.05350e-17
7500.22942 1.05686e-17
7502.22783 1.05833e-17
7504.22624 1.05915e-17
7506.23475 1.05820e-17
7508.23317 1.05423e-17
7510.23158 1.04848e-17
7512.22999 1.04186e-17
7514.23850 1.03631e-17
7516.23691 1.03248e-17
7518.23533 1.03262e-17
7520.23374 1.03548e-17
7522.23216 1.04421e-17
7524.24066 1.05134e-17
7526.23908 1.04863e-17
7528.23749 1.03519e-17
7530.23591 1.02062e-17
7532.23432 1.01488e-17
7534.24283 1.01249e-17
7536.24124 1.01301e-17
7538.23965 1.01467e-17
7540.23807 1.01618e-17
7542.24658 1.01694e-17
7544.24499 1.01816e-17
7546.24340 1.02024e-17
7548.24182 1.02174e-17
7550.24023 1.02175e-17
7552.24874 1.01914e-17
7554.24715 1.01157e-17
7556.24557 1.00132e-17
7558.24398 9.90556e-18
7560.24239 9.82796e-18
7562.25090 9.78674e-18
7564.24932 9.84286e-18
7566.24773 9.89542e-18
7568.24614 9.85912e-18
7570.25465 9.77501e-18
7572.25306 9.70256e-18
7574.25148 9.67321e-18
7576.24989 9.65574e-18
7578.24831 9.63555e-18
7580.25681 9.60053e-18
7582.25523 9.51393e-18
7584.25364 9.41931e-18
7586.25206 9.37877e-18
7588.26056 9.36259e-18
7590.25898 9.27576e-18
7592.25739 9.03260e-18
7594.25580 8.78090e-18
7596.25422 8.66011e-18
7598.26273 8.61813e-18
7600.26114 8.66102e-18
7602.25955 8.73022e-18
7604.25797 8.78627e-18
7606.25638 8.76350e-18
7608.26489 8.67350e-18
7610.26330 8.40719e-18
7612.26172 8.18619e-18
7614.26013 8.20109e-18
7616.26864 8.36809e-18
7618.26705 8.57585e-18
7620.26547 8.70556e-18
7622.26388 8.75299e-18
7624.26229 8.62146e-18
7626.27080 8.45159e-18
7628.26921 8.34858e-18
7630.26763 8.28679e-18
7632.26604 8.22378e-18
7634.27455 8.15980e-18
7636.27296 8.12955e-18
7638.27138 8.16192e-18
7640.26979 8.19361e-18
7642.26821 8.15912e-18
7644.27671 8.08840e-18
7646.27513 7.98304e-18
7648.27354 7.87784e-18
7650.27195 7.80969e-18
7652.27037 7.80516e-18
7654.27888 7.79631e-18
7656.27729 7.67719e-18
7658.27570 7.55139e-18
7660.27412 7.47118e-18
7662.28262 7.44497e-18
7664.28104 7.45840e-18
7666.27945 7.49947e-18
7668.27787 7.55558e-18
7670.27628 7.60125e-18
7672.28479 7.65480e-18
7674.28320 7.74889e-18
7676.28162 7.82694e-18
7678.28003 7.82656e-18
7680.27844 7.74336e-18
7682.28695 7.64292e-18
7684.28536 7.59089e-18
7686.28378 7.55502e-18
7688.28219 7.53469e-18
7690.29070 7.52256e-18
7692.28911 7.50353e-18
7694.28753 7.49288e-18
7696.28594 7.52506e-18
7698.28436 7.61940e-18
7700.29286 7.70971e-18
7702.29128 7.71402e-18
7704.28969 7.67424e-18
7706.28810 7.58128e-18
7708.29661 7.48434e-18
7710.29503 7.42493e-18
7712.29344 7.43993e-18
7714.29185 7.48753e-18
7716.29027 7.53976e-18
7718.29877 7.59974e-18
7720.29719 7.66342e-18
7722.29560 7.72378e-18
7724.29402 7.77331e-18
7726.29243 7.81423e-18
7728.30094 7.85719e-18
7730.29935 7.91452e-18
7732.29777 7.99832e-18
7734.29618 8.13711e-18
7736.30469 8.30411e-18
7738.30310 8.49553e-18
7740.30151 8.67236e-18
7742.29993 8.80616e-18
7744.29834 8.85623e-18
7746.30685 8.86689e-18
7748.30526 8.84019e-18
7750.30368 8.84110e-18
7752.30209 8.93889e-18
7754.30051 9.10869e-18
7756.30901 9.29860e-18
7758.30743 9.45456e-18
7760.30584 9.58245e-18
7762.30425 9.64394e-18
7764.31276 9.68191e-18
7766.31118 9.71783e-18
7768.30959 9.75610e-18
7770.30800 9.78643e-18
7772.30642 9.81691e-18
7774.31492 9.86199e-18
7776.31334 9.94496e-18
7778.31175 1.00402e-17
7780.31017 1.01461e-17
7782.30858 1.02321e-17
7784.31709 1.02649e-17
7786.31550 1.02510e-17
7788.31392 1.02267e-17
7790.31233 1.02303e-17
7792.32084 1.02526e-17
7794.31925 1.03299e-17
7796.31766 1.03943e-17
7798.31608 1.03833e-17
7800.31449 1.03131e-17
7802.32300 1.02335e-17
7804.32141 1.01896e-17
7806.31983 1.01648e-17
7808.31824 1.02015e-17
7810.32675 1.02054e-17
7812.32516 1.00797e-17
7814.32358 9.89058e-18
7816.32199 9.70717e-18
7818.32040 9.61036e-18
7820.32891 9.60076e-18
7822.32733 9.74415e-18
7824.32574 9.92726e-18
7826.32415 1.00837e-17
7828.32257 1.01815e-17
7830.33107 1.01914e-17
7832.32949 1.01274e-17
7834.32790 1.00400e-17
7836.32632 9.98973e-18
7838.33482 9.96886e-18
7840.33324 1.00040e-17
7842.33165 1.00791e-17
7844.33007 1.02102e-17
7846.32848 1.03457e-17
7848.33699 1.04316e-17
7850.33540 1.04138e-17
7852.33381 1.03590e-17
7854.33223 1.03022e-17
7856.33064 1.02752e-17
7858.33915 1.03592e-17
7860.33756 1.04636e-17
7862.33598 1.04704e-17
7864.33439 1.03190e-17
7866.34290 1.01218e-17
7868.34131 9.96939e-18
7870.33973 9.87318e-18
7872.33814 9.89504e-18
7874.33655 9.99616e-18
7876.34506 1.01609e-17
7878.34348 1.03278e-17
7880.34189 1.04573e-17
7882.34030 1.04720e-17
7884.34881 1.04352e-17
7886.34722 1.03518e-17
7888.34564 1.02801e-17
7890.34405 1.02864e-17
7892.34247 1.03473e-17
7894.35097 1.03903e-17
7896.34939 1.03465e-17
7898.34780 1.02575e-17
7900.34622 1.01216e-17
7902.34463 9.96969e-18
7904.35314 9.81412e-18
7906.35155 9.68176e-18
7908.34996 9.57784e-18
7910.34838 9.52467e-18
7912.35689 9.52384e-18
7914.35530 9.60045e-18
7916.35371 9.71799e-18
7918.35213 9.87984e-18
7920.35054 1.00282e-17
7922.35905 1.01192e-17
7924.35746 1.01255e-17
7926.35588 1.00814e-17
7928.35429 1.00069e-17
7930.35270 9.93346e-18
7932.36121 9.89973e-18
7934.35963 9.90813e-18
7936.35804 9.97105e-18
7938.35645 1.00695e-17
7940.36496 1.01775e-17
7942.36337 1.02603e-17
7944.36179 1.03271e-17
7946.36020 1.03908e-17
7948.35862 1.04013e-17
7950.36712 1.02965e-17
7952.36554 1.01176e-17
7954.36395 9.90745e-18
7956.36237 9.74537e-18
7958.37087 9.66580e-18
7960.36929 9.82463e-18
7962.36770 1.00141e-17
7964.36611 1.01242e-17
7966.36453 1.01214e-17
7968.37304 9.98550e-18
7970.37145 9.76170e-18
7972.36986 9.56279e-18
7974.36828 9.55674e-18
7976.36669 9.57496e-18
7978.37520 9.50115e-18
7980.37361 9.38649e-18
7982.37203 9.25867e-18
7984.37044 9.17252e-18
7986.37895 9.17018e-18
7988.37736 9.30488e-18
7990.37578 9.45047e-18
7992.37419 9.44563e-18
7994.37260 9.41447e-18
7996.38111 9.45811e-18
7998.37952 9.54653e-18
8000.37794 9.58578e-18
8002.37635 9.51665e-18
8004.37477 9.42181e-18
8006.38327 9.38588e-18
8008.38169 9.35699e-18
8010.38010 9.30155e-18
8012.37852 9.25716e-18
8014.38702 9.28264e-18
8016.38544 9.38172e-18
8018.38385 9.47740e-18
8020.38226 9.47831e-18
8022.38068 9.42483e-18
8024.38919 9.28643e-18
8026.38760 9.13629e-18
8028.38601 9.03427e-18
8030.38443 9.00855e-18
8032.39293 9.01906e-18
8034.39135 9.04054e-18
8036.38976 9.06248e-18
8038.38818 9.06323e-18
8040.38659 9.04100e-18
8042.39510 8.99002e-18
8044.39351 8.91431e-18
8046.39193 8.80427e-18
8048.39034 8.68053e-18
8050.38875 8.60686e-18
8052.39726 8.73816e-18
8054.39567 8.90108e-18
8056.39409 9.01301e-18
8058.39250 9.03487e-18
8060.40101 8.96325e-18
8062.39942 8.81122e-18
8064.39784 8.64241e-18
8066.39625 8.55339e-18
8068.39467 8.47171e-18
8070.40317 8.34245e-18
8072.40159 8.22099e-18
8074.40000 8.16986e-18
8076.39841 8.20034e-18
8078.39683 8.26031e-18
8080.40534 8.30085e-18
8082.40375 8.31666e-18
8084.40216 8.26205e-18
8086.40058 8.18037e-18
8088.40908 8.08175e-18
8090.40750 8.01640e-18
8092.40591 8.02290e-18
8094.40433 8.14240e-18
8096.40274 8.29306e-18
8098.41125 8.38919e-18
8100.40966 8.46657e-18
8102.40808 8.54333e-18
8104.40649 8.60202e-18
8106.40490 8.62086e-18
8108.41341 8.58364e-18
8110.41182 8.50779e-18
8112.41024 8.39562e-18
8114.40865 8.27688e-18
8116.41716 8.18060e-18
8118.41557 8.10315e-18
8120.41399 8.02933e-18
8122.41240 7.96119e-18
8124.41082 7.91150e-18
8126.41932 7.89539e-18
8128.41774 7.90613e-18
8130.41615 7.95907e-18
8132.41456 8.01791e-18
8134.42307 8.05490e-18
8136.42149 8.05822e-18
8138.41990 8.03765e-18
8140.41831 8.00324e-18
8142.41673 7.98546e-18
8144.42523 8.05210e-18
8146.42365 8.13257e-18
8148.42206 8.19156e-18
8150.42048 8.20435e-18
8152.41889 8.16267e-18
8154.42740 8.07093e-18
8156.42581 7.97866e-18
8158.42423 7.97367e-18
8160.42264 7.97609e-18
8162.43115 7.95793e-18
8164.42956 7.89652e-18
8166.42797 7.76447e-18
8168.42639 7.58310e-18
8170.42480 7.42138e-18
8172.43331 7.37552e-18
8174.43172 7.37517e-18
8176.43014 7.40792e-18
8178.42855 7.43698e-18
8180.43706 7.43100e-18
8182.43547 7.38558e-18
8184.43389 7.32916e-18
8186.43230 7.28871e-18
8188.43071 7.26894e-18
8190.43922 7.28545e-18
8192.43764 7.34396e-18
8194.43605 7.46963e-18
8196.43446 7.62825e-18
8198.43288 7.78731e-18
8200.44138 7.89728e-18
8202.43980 7.95998e-18
8204.43821 7.93661e-18
8206.43663 7.85923e-18
8208.44513 7.72037e-18
8210.44355 7.56548e-18
8212.44196 7.42301e-18
8214.44038 7.33064e-18
8216.43879 7.27350e-18
8218.44730 7.25685e-18
8220.44571 7.28208e-18
8222.44412 7.38340e-18
8224.44254 7.49179e-18
8226.44095 7.55205e-18
8228.44946 7.53366e-18
8230.44787 7.46892e-18
8232.44629 7.37447e-18
8234.44470 7.26653e-18
8236.45321 7.16924e-18
8238.45162 7.08350e-18
8240.45004 7.01289e-18
8242.44845 6.95625e-18
8244.44686 6.90859e-18
8246.45537 6.86532e-18
8248.45378 6.82809e-18
8250.45220 6.78323e-18
8252.45061 6.76351e-18
8254.45912 6.81869e-18
8256.45753 6.89574e-18
8258.45595 6.93279e-18
8260.45436 6.88346e-18
8262.45278 6.79078e-18
8264.46128 6.66759e-18
8266.45970 6.55604e-18
8268.45811 6.52884e-18
8270.45653 6.52095e-18
8272.45494 6.44953e-18
8274.46345 6.31171e-18
8276.46186 6.19035e-18
8278.46027 6.17070e-18
8280.45869 6.20902e-18
8282.46720 6.33896e-18
8284.46561 6.46593e-18
8286.46402 6.50401e-18
8288.46244 6.45414e-18
8290.46085 6.39464e-18
8292.46936 6.38040e-18
8294.46777 6.35166e-18
8296.46619 6.24698e-18
8298.46460 6.12212e-18
8300.46301 5.99944e-18
8302.47152 5.89992e-18
8304.46994 5.82691e-18
8306.46835 5.78870e-18
8308.46676 5.77396e-18
8310.47527 5.78806e-18
8312.47368 5.78199e-18
8314.47210 5.69815e-18
8316.47051 5.57160e-18
8318.46893 5.43738e-18
8320.47743 5.32828e-18
8322.47585 5.23844e-18
8324.47426 5.18180e-18
8326.47268 5.14011e-18
8328.47109 5.10793e-18
8330.47960 5.06980e-18
8332.47801 4.99674e-18
8334.47642 4.91449e-18
8336.47484 4.88328e-18
8338.48335 4.95123e-18
8340.48176 5.01126e-18
8342.48017 4.93034e-18
8344.47859 4.80405e-18
8346.47700 4.68853e-18
8348.48551 4.58571e-18
8350.48392 4.44819e-18
8352.48234 4.27508e-18
8354.48075 4.13231e-18
8356.48926 4.13582e-18
8358.48767 4.17153e-18
8360.48609 4.19386e-18
8362.48450 4.17585e-18
8364.48291 4.10335e-18
8366.49142 3.98370e-18
8368.48983 3.86298e-18
8370.48825 3.80171e-18
8372.48666 3.75136e-18
8374.48508 3.68777e-18
8376.49358 3.61555e-18
8378.49200 3.53352e-18
8380.49041 3.45540e-18
8382.48883 3.39684e-18
8384.49733 3.37842e-18
8386.49575 3.37863e-18
8388.49416 3.38800e-18
8390.49257 3.39755e-18
8392.49099 3.40171e-18
8394.49950 3.39331e-18
8396.49791 3.36063e-18
8398.49632 3.31009e-18
8400.49474 3.28473e-18
8402.50324 3.38119e-18
8404.50166 3.49383e-18
8406.50007 3.55708e-18
8408.49849 3.58943e-18
8410.49690 3.63968e-18
8412.50541 3.72120e-18
8414.50382 3.79271e-18
8416.50224 3.80685e-18
8418.50065 3.81580e-18
8420.49906 3.86607e-18
8422.50757 3.92152e-18
8424.50598 3.94291e-18
8426.50440 3.92288e-18
8428.50281 3.88882e-18
8430.51132 3.86564e-18
8432.50973 3.86121e-18
8434.50815 3.91042e-18
8436.50656 3.97726e-18
8438.50497 4.03117e-18
8440.51348 4.07466e-18
8442.51190 4.13436e-18
8444.51031 4.22651e-18
8446.50872 4.32768e-18
8448.50714 4.42037e-18
8450.51564 4.50256e-18
8452.51406 4.54637e-18
8454.51247 4.59506e-18
8456.51089 4.70399e-18
8458.51939 4.89490e-18
8460.51781 5.10207e-18
8462.51622 5.25905e-18
8464.51464 5.38157e-18
8466.51305 5.45883e-18
8468.52156 5.49158e-18
8470.51997 5.47231e-18
8472.51839 5.41832e-18
8474.51680 5.34873e-18
8476.52531 5.29506e-18
8478.52372 5.27299e-18
8480.52213 5.34642e-18
8482.52055 5.43560e-18
8484.51896 5.47833e-18
8486.52747 5.45865e-18
8488.52588 5.40717e-18
8490.52430 5.35003e-18
8492.52271 5.30920e-18
8494.52113 5.32539e-18
8496.52963 5.39313e-18
8498.52805 5.54693e-18
8500.52646 5.72800e-18
8502.52487 5.87434e-18
8504.53338 5.93339e-18
8506.53180 5.95734e-18
8508.53021 5.96981e-18
8510.52862 5.99417e-18
8512.52704 6.08294e-18
8514.53554 6.18556e-18
8516.53396 6.25557e-18
8518.53237 6.25497e-18
8520.53079 6.19700e-18
8522.52920 6.07071e-18
8524.53771 5.94503e-18
8526.53612 5.88304e-18
8528.53454 5.88524e-18
8530.53295 5.97765e-18
8532.54146 6.11165e-18
8534.53987 6.21184e-18
8536.53828 6.19997e-18
8538.53670 6.18197e-18
8540.53511 6.26796e-18
8542.54362 6.37808e-18
8544.54203 6.45929e-18
8546.54045 6.52096e-18
8548.53886 6.60217e-18
8550.53728 6.72665e-18
8552.54578 6.86971e-18
8554.54420 7.02756e-18
8556.54261 7.16590e-18
8558.54102 7.24386e-18
8560.54953 7.28283e-18
8562.54795 7.30724e-18
8564.54636 7.34222e-18
8566.54477 7.38296e-18
8568.54319 7.43725e-18
8570.55169 7.52356e-18
8572.55011 7.68520e-18
8574.54852 7.87126e-18
8576.54694 8.03470e-18
8578.54535 8.16471e-18
8580.55386 8.29889e-18
8582.55227 8.46445e-18
8584.55069 8.63636e-18
8586.54910 8.81682e-18
8588.55761 8.96786e-18
8590.55602 9.02897e-18
8592.55443 9.05234e-18
8594.55285 9.12987e-18
8596.55126 9.32454e-18
8598.55977 9.53291e-18
8600.55818 9.62738e-18
8602.55660 9.71012e-18
8604.55501 9.84006e-18
8606.55343 9.98588e-18
8608.56193 1.00912e-17
8610.56035 1.01378e-17
8612.55876 1.01755e-17
8614.55717 1.02523e-17
8616.56568 1.03556e-17
8618.56409 1.05099e-17
8620.56251 1.06754e-17
8622.56092 1.08095e-17
8624.55934 1.09105e-17
8626.56784 1.10281e-17
8628.56626 1.12063e-17
8630.56467 1.13784e-17
8632.56309 1.14559e-17
8634.57159 1.15323e-17
8636.57001 1.16928e-17
8638.56842 1.19214e-17
8640.56684 1.21385e-17
8642.56525 1.22893e-17
8644.57376 1.24419e-17
8646.57217 1.26718e-17
8648.57058 1.29133e-17
8650.56900 1.31746e-17
8652.56741 1.33691e-17
8654.57592 1.34018e-17
8656.57433 1.32489e-17
8658.57275 1.30570e-17
8660.57116 1.29964e-17
8662.57967 1.30008e-17
8664.57808 1.30995e-17
8666.57650 1.32346e-17
8668.57491 1.33624e-17
8670.57332 1.34458e-17
8672.58183 1.35126e-17
8674.58025 1.35686e-17
8676.57866 1.35715e-17
8678.57707 1.34424e-17
8680.57549 1.32708e-17
8682.58399 1.31147e-17
8684.58241 1.30138e-17
8686.58082 1.29465e-17
8688.57924 1.29202e-17
8690.58774 1.29422e-17
8692.58616 1.30554e-17
8694.58457 1.31840e-17
8696.58299 1.32770e-17
8698.58140 1.33276e-17
8700.58991 1.33581e-17
8702.58832 1.33821e-17
8704.58673 1.34025e-17
8706.58515 1.34341e-17
8708.59366 1.34652e-17
8710.59207 1.34953e-17
8712.59048 1.35150e-17
8714.58890 1.34915e-17
8716.58731 1.34589e-17
8718.59582 1.34935e-17
8720.59423 1.37045e-17
8722.59265 1.39708e-17
8724.59106 1.42528e-17
8726.58947 1.44734e-17
8728.59798 1.45534e-17
8730.59640 1.45085e-17
8732.59481 1.44361e-17
8734.59322 1.44230e-17
8736.60173 1.43908e-17
8738.60014 1.42744e-17
8740.59856 1.41282e-17
8742.59697 1.39599e-17
8744.59539 1.38225e-17
8746.60389 1.37564e-17
8748.60231 1.37955e-17
8750.60072 1.38790e-17
8752.59914 1.39643e-17
8754.60764 1.40231e-17
8756.60606 1.40124e-17
8758.60447 1.39409e-17
8760.60288 1.38171e-17
8762.60130 1.36704e-17
8764.60981 1.35246e-17
8766.60822 1.34241e-17
8768.60663 1.33645e-17
8770.60505 1.33771e-17
8772.60346 1.34213e-17
8774.61197 1.34706e-17
8776.61038 1.34981e-17
8778.60880 1.35089e-17
8780.60721 1.34932e-17
8782.61572 1.34613e-17
8784.61413 1.33993e-17
8786.61254 1.33555e-17
8788.61096 1.33691e-17
8790.60937 1.34435e-17
8792.61788 1.35613e-17
8794.61629 1.37004e-17
8796.61471 1.38421e-17
8798.61312 1.39678e-17
8800.61154 1.40353e-17
8802.62004 1.39933e-17
8804.61846 1.38623e-17
8806.61687 1.36600e-17
8808.61529 1.34344e-17
8810.62379 1.32227e-17
8812.62221 1.31108e-17
8814.62062 1.30058e-17
8816.61903 1.28386e-17
8818.61745 1.26441e-17
8820.62596 1.24374e-17
8822.62437 1.22707e-17
8824.62278 1.21767e-17
8826.62120 1.22174e-17
8828.62970 1.23488e-17
8830.62812 1.26378e-17
8832.62653 1.28853e-17
8834.62495 1.28993e-17
8836.62336 1.27140e-17
8838.63187 1.25005e-17
8840.63028 1.24018e-17
8842.62870 1.23300e-17
8844.62711 1.22742e-17
8846.62552 1.22021e-17
8848.63403 1.20507e-17
8850.63244 1.18863e-17
8852.63086 1.18092e-17
8854.62927 1.18526e-17
8856.63778 1.18956e-17
8858.63619 1.17955e-17
8860.63461 1.16492e-17
8862.63302 1.14821e-17
8864.63144 1.13147e-17
8866.63994 1.11544e-17
8868.63836 1.10112e-17
8870.63677 1.08758e-17
8872.63518 1.07439e-17
8874.63360 1.06162e-17
8876.64211 1.04777e-17
8878.64052 1.03603e-17
8880.63893 1.03003e-17
8882.63735 1.02842e-17
8884.64585 1.02737e-17
8886.64427 1.02296e-17
8888.64268 1.01719e-17
8890.64110 1.00858e-17
8892.63951 1.00120e-17
8894.64802 9.98557e-18
8896.64643 9.99987e-18
8898.64485 1.00452e-17
8900.64326 1.00902e-17
8902.65177 1.00996e-17
8904.65018 9.98346e-18
8906.64859 9.84845e-18
8908.64701 9.72351e-18
8910.64542 9.67956e-18
8912.65393 9.80723e-18
8914.65234 1.00687e-17
8916.65076 1.03026e-17
8918.64917 1.03052e-17
8920.64759 1.01824e-17
8922.65609 9.91335e-18
8924.65451 9.58956e-18
8926.65292 9.28098e-18
8928.65133 9.01740e-18
8930.65984 8.73340e-18
8932.65826 8.40931e-18
8934.65667 8.15420e-18
8936.65508 8.14369e-18
8938.65350 8.21736e-18
8940.66200 8.29896e-18
8942.66042 8.32884e-18
8944.65883 8.30085e-18
8946.65725 8.20359e-18
8948.66575 8.09770e-18
8950.66417 8.08091e-18
8952.66258 8.05936e-18
8954.66100 7.95793e-18
8956.65941 7.83617e-18
8958.66792 7.78746e-18
8960.66633 7.82255e-18
8962.66474 7.82785e-18
8964.66316 7.66486e-18
8966.66157 7.49794e-18
8968.67008 7.47000e-18
8970.66849 7.48640e-18
8972.66691 7.45970e-18
8974.66532 7.35671e-18
8976.67383 7.22321e-18
8978.67224 7.08489e-18
8980.67066 6.93935e-18
8982.66907 6.77186e-18
8984.66748 6.64112e-18
8986.67599 6.61657e-18
8988.67441 6.66095e-18
8990.67282 6.69800e-18
8992.67123 6.66297e-18
8994.66965 6.61007e-18
8996.67815 6.56814e-18
8998.67657 6.53394e-18
9000.67498 6.49890e-18
9002.67340 6.49448e-18
9004.68190 6.57192e-18
9006.68032 6.71885e-18
9008.67873 6.84210e-18
9010.67714 6.81244e-18
9012.67556 6.72256e-18
9014.68407 6.58917e-18
9016.68248 6.45595e-18
9018.68089 6.36274e-18
9020.67931 6.30999e-18
9022.67772 6.23833e-18
9024.68623 6.09444e-18
9026.68464 5.97018e-18
9028.68306 5.96825e-18
9030.68147 6.01372e-18
9032.68998 6.05251e-18
9034.68839 6.07506e-18
9036.68681 6.11530e-18
9038.68522 6.18817e-18
9040.68363 6.26850e-18
9042.69214 6.32848e-18
9044.69056 6.38516e-18
9046.68897 6.44861e-18
9048.68738 6.51198e-18
9050.68580 6.56165e-18
9052.69430 6.59539e-18
9054.69272 6.63314e-18
9056.69113 6.71006e-18
9058.68955 6.76863e-18
9060.69805 6.73636e-18
9062.69647 6.68665e-18
9064.69488 6.70424e-18
9066.69330 6.80491e-18
9068.69171 6.91077e-18
9070.70022 6.94863e-18
9072.69863 6.95644e-18
9074.69704 6.92805e-18
9076.69546 6.89242e-18
9078.69387 6.85531e-18
9080.70238 6.85399e-18
9082.70079 6.92211e-18
9084.69921 7.08757e-18
9086.69762 7.26269e-18
9088.70613 7.35608e-18
9090.70454 7.38524e-18
9092.70296 7.32272e-18
9094.70137 7.21039e-18
9096.69978 7.08244e-18
9098.70829 6.99388e-18
9100.70671 6.94864e-18
9102.70512 7.00175e-18
9104.70353 7.09102e-18
9106.70195 7.18519e-18
9108.71045 7.27586e-18
9110.70887 7.37853e-18
9112.70728 7.47413e-18
9114.70570 7.53255e-18
9116.71420 7.50588e-18
9118.71262 7.46637e-18
9120.71103 7.49194e-18
9122.70945 7.52028e-18
9124.70786 7.50375e-18
9126.71637 7.41721e-18
9128.71478 7.26677e-18
9130.71319 7.05933e-18
9132.71161 6.86458e-18
9134.72012 6.78630e-18
9136.71853 6.76619e-18
9138.71694 6.80427e-18
9140.71536 6.83900e-18
9142.71377 6.80933e-18
9144.72228 6.67882e-18
9146.72069 6.54631e-18
9148.71911 6.51932e-18
9150.71752 6.56472e-18
9152.71593 6.75271e-18
9154.72444 6.95249e-18
9156.72286 7.02556e-18
9158.72127 6.91598e-18
9160.71968 6.76597e-18
9162.72819 6.70848e-18
9164.72660 6.67760e-18
9166.72502 6.66029e-18
9168.72343 6.66455e-18
9170.72185 6.70811e-18
9172.73035 6.77662e-18
9174.72877 6.84597e-18
9176.72718 6.88398e-18
9178.72559 6.89875e-18
9180.73410 6.86452e-18
9182.73252 6.82698e-18
9184.73093 6.81304e-18
9186.72934 6.84199e-18
9188.72776 6.92056e-18
9190.73626 7.04321e-18
9192.73468 7.15953e-18
9194.73309 7.16472e-18
9196.73151 7.16478e-18
9198.72992 7.23664e-18
9200.73843 7.33549e-18
9202.73684 7.38117e-18
9204.73526 7.35028e-18
9206.73367 7.32533e-18
9208.74218 7.40365e-18
9210.74059 7.48640e-18
9212.73901 7.49093e-18
9214.73742 7.48044e-18
9216.73583 7.52320e-18
9218.74434 7.63589e-18
9220.74275 7.77301e-18
9222.74117 7.89584e-18
9224.73958 7.98872e-18
9226.73800 7.99492e-18
9228.74650 7.96913e-18
9230.74492 7.95718e-18
9232.74333 7.95741e-18
9234.74175 7.92942e-18
9236.75025 7.85129e-18
9238.74867 7.76484e-18
9240.74708 7.70237e-18
9242.74549 7.67439e-18
9244.74391 7.70759e-18
9246.75242 7.78413e-18
9248.75083 7.88888e-18
9250.74924 7.98917e-18
9252.74766 8.06601e-18
9254.75616 8.05626e-18
9256.75458 8.05293e-18
9258.75299 8.14755e-18
9260.75141 8.27249e-18
9262.74982 8.36333e-18
9264.75833 8.37270e-18
9266.75674 8.32044e-18
9268.75516 8.20004e-18
9270.75357 8.05913e-18
9272.75198 7.93388e-18
9274.76049 7.84509e-18
9276.75890 7.81030e-18
9278.75732 7.83337e-18
9280.75573 7.91195e-18
9282.76424 8.02759e-18
9284.76265 8.12024e-18
9286.76107 8.06465e-18
9288.75948 7.98017e-18
9290.75790 7.95188e-18
9292.76640 7.95725e-18
9294.76482 7.91634e-18
9296.76323 7.80546e-18
9298.76164 7.71016e-18
9300.76006 7.72733e-18
9302.76857 7.82180e-18
9304.76698 8.08235e-18
9306.76539 8.32483e-18
9308.76381 8.36650e-18
9310.77231 8.13870e-18
9312.77073 7.79774e-18
9314.76914 7.46836e-18
9316.76756 7.26893e-18
9318.76597 7.52125e-18
9320.77448 7.87217e-18
9322.77289 8.01511e-18
9324.77131 7.87875e-18
9326.76972 7.67083e-18
9328.77823 7.53888e-18
9330.77664 7.42453e-18
9332.77505 7.30957e-18
9334.77347 7.26046e-18
9336.77188 7.37479e-18
9338.78039 7.56895e-18
9340.77880 7.74699e-18
9342.77722 7.77891e-18
9344.77563 7.66682e-18
9346.77405 7.16934e-18
9348.78255 6.76460e-18
9350.78097 6.89313e-18
9352.77938 7.31422e-18
9354.77779 7.70479e-18
9356.78630 7.84675e-18
9358.78471 7.89418e-18
9360.78313 7.88911e-18
9362.78154 7.83102e-18
9364.77996 7.71455e-18
9366.78846 7.58862e-18
9368.78688 7.43449e-18
9370.78529 7.36417e-18
9372.78371 7.51684e-18
9374.79221 8.04733e-18
9376.79063 8.59915e-18
9378.78904 8.83407e-18
9380.78746 8.83006e-18
9382.78587 8.52684e-18
9384.79438 8.08712e-18
9386.79279 7.67923e-18
9388.79120 7.49160e-18
9390.78962 7.38604e-18
9392.78803 7.29100e-18
9394.79654 7.24311e-18
9396.79495 7.27806e-18
9398.79337 7.33823e-18
9400.79178 7.33808e-18
9402.80029 7.27297e-18
9404.79870 7.27828e-18
9406.79712 7.55190e-18
9408.79553 7.83314e-18
9410.79394 7.92776e-18
9412.80245 7.89977e-18
9414.80086 7.83019e-18
9416.79928 7.75305e-18
9418.79769 7.62099e-18
9420.79611 7.41545e-18
9422.80461 7.25408e-18
9424.80303 7.30301e-18
9426.80144 7.43717e-18
9428.79986 7.61040e-18
9430.80836 7.72211e-18
9432.80678 7.70577e-18
9434.80519 7.50042e-18
9436.80361 7.27182e-18
9438.80202 7.20887e-18
9440.81053 7.23553e-18
9442.80894 7.40333e-18
9444.80735 7.58212e-18
9446.80577 7.63725e-18
9448.81428 7.48529e-18
9450.81269 7.26668e-18
9452.81110 7.07000e-18
9454.80952 6.99823e-18
9456.80793 7.33210e-18
9458.81644 7.73187e-18
9460.81485 7.82996e-18
9462.81327 7.53258e-18
9464.81168 7.16017e-18
9466.81009 6.99951e-18
9468.81860 6.98698e-18
9470.81702 7.25536e-18
9472.81543 7.63695e-18
9474.81384 8.07645e-18
9476.82235 8.39940e-18
9478.82076 8.50408e-18
9480.81918 8.25147e-18
9482.81759 7.86498e-18
9484.81601 7.48577e-18
9486.82451 7.20739e-18
9488.82293 7.18382e-18
9490.82134 7.33325e-18
9492.81976 7.54326e-18
9494.81817 7.65964e-18
9496.82668 7.65336e-18
9498.82509 7.31642e-18
9500.82350 6.93036e-18
9502.82192 6.64475e-18
9504.83043 6.51078e-18
9506.82884 6.54927e-18
9508.82725 6.72679e-18
9510.82567 6.94643e-18
9512.82408 7.08071e-18
9514.83259 7.14429e-18
9516.83100 7.02607e-18
9518.82942 6.89183e-18
9520.82783 6.91290e-18
9522.82624 7.07279e-18
9524.83475 7.20609e-18
9526.83317 7.16029e-18
9528.83158 7.03024e-18
9530.82999 6.79005e-18
9532.83850 6.57104e-18
9534.83691 6.50687e-18
9536.83533 6.55141e-18
9538.83374 6.58540e-18
9540.83216 6.51696e-18
9542.84066 6.41352e-18
9544.83908 6.27670e-18
9546.83749 6.17752e-18
9548.83591 6.20340e-18
9550.83432 6.29882e-18
9552.84283 6.40709e-18
9554.84124 6.46175e-18
9556.83965 6.46007e-18
9558.83807 6.34971e-18
9560.84658 6.21205e-18
9562.84499 6.11490e-18
9564.84340 6.03281e-18
9566.84182 5.93641e-18
9568.84023 5.81976e-18
9570.84874 5.69300e-18
9572.84715 5.56724e-18
9574.84557 5.47087e-18
9576.84398 5.43465e-18
9578.84239 5.46991e-18
9580.85090 5.62913e-18
9582.84931 5.83939e-18
9584.84773 6.01855e-18
9586.84614 6.06910e-18
9588.85465 6.03833e-18
9590.85306 5.88287e-18
9592.85148 5.71454e-18
9594.84989 5.59209e-18
9596.84831 5.56006e-18
9598.85681 5.64912e-18
9600.85523 5.84121e-18
9602.85364 6.04129e-18
9604.85206 6.12050e-18
9606.86056 6.13296e-18
9608.85898 6.02139e-18
9610.85739 5.91465e-18
9612.85580 5.94677e-18
9614.85422 6.12692e-18
9616.86273 6.32129e-18
9618.86114 6.39769e-18
9620.85955 6.39159e-18
9622.85797 6.21901e-18
9624.85638 6.02322e-18
9626.86489 5.90582e-18
9628.86330 5.90710e-18
9630.86172 6.00325e-18
9632.86013 6.15882e-18
9634.86864 6.27191e-18
9636.86705 6.08831e-18
9638.86547 5.90133e-18
9640.86388 5.92022e-18
9642.86229 6.08545e-18
9644.87080 6.25716e-18
9646.86921 6.33183e-18
9648.86763 6.35984e-18
9650.86604 6.33153e-18
9652.86446 6.27671e-18
9654.87296 6.19473e-18
9656.87138 6.13791e-18
9658.86979 6.15767e-18
9660.86821 6.25797e-18
9662.87671 6.37812e-18
9664.87513 6.45525e-18
9666.87354 6.50247e-18
9668.87195 6.49795e-18
9670.87037 6.45961e-18
9672.87888 6.38302e-18
9674.87729 6.30530e-18
9676.87570 6.26188e-18
9678.87412 6.29388e-18
9680.88262 6.34783e-18
9682.88104 6.38148e-18
9684.87945 6.40348e-18
9686.87787 6.40216e-18
9688.87628 6.39649e-18
9690.88479 6.41935e-18
9692.88320 6.47643e-18
9694.88162 6.51313e-18
9696.88003 6.44904e-18
9698.87844 6.34963e-18
9700.88695 6.21749e-18
9702.88536 6.10928e-18
9704.88378 6.06652e-18
9706.88219 6.11562e-18
9708.89070 6.22568e-18
9710.88911 6.38315e-18
9712.88753 6.50650e-18
9714.88594 6.45079e-18
9716.88436 6.35288e-18
9718.89286 6.35034e-18
9720.89128 6.44215e-18
9722.88969 6.48946e-18
9724.88810 6.39272e-18
9726.89661 6.32399e-18
9728.89503 6.50615e-18
9730.89344 6.73459e-18
9732.89185 6.88438e-18
9734.89027 6.92773e-18
9736.89877 6.90541e-18
9738.89719 6.85633e-18
9740.89560 6.82531e-18
9742.89402 6.94447e-18
9744.89243 7.05604e-18
9746.90094 7.06892e-18
9748.89935 6.98595e-18
9750.89776 6.81387e-18
9752.89618 6.60961e-18
9754.90469 6.45044e-18
9756.90310 6.47584e-18
9758.90151 6.53046e-18
9760.89993 6.52540e-18
9762.89834 6.45382e-18
9764.90685 6.28713e-18
9766.90526 6.08112e-18
9768.90368 5.92852e-18
9770.90209 5.94036e-18
9772.90051 5.99454e-18
9774.90901 5.99470e-18
9776.90743 5.98687e-18
9778.90584 5.98604e-18
9780.90425 6.01857e-18
9782.91276 6.11300e-18
9784.91118 6.27565e-18
9786.90959 6.42918e-18
9788.90800 6.45213e-18
9790.90642 6.42941e-18
9792.91492 6.39709e-18
9794.91334 6.34902e-18
9796.91175 6.24580e-18
9798.91017 6.10069e-18
9800.91867 5.97480e-18
9802.91709 5.95800e-18
9804.91550 5.98350e-18
9806.91392 6.03748e-18
9808.91233 6.08990e-18
9810.92084 6.11150e-18
9812.91925 6.10580e-18
9814.91766 6.12240e-18
9816.91608 6.20880e-18
9818.91449 6.27698e-18
9820.92300 6.24768e-18
9822.92141 6.14425e-18
9824.91983 5.94940e-18
9826.91824 5.72393e-18
9828.92675 5.52379e-18
9830.92516 5.42548e-18
9832.92358 5.39205e-18
9834.92199 5.42786e-18
9836.92040 5.51862e-18
9838.92891 5.71072e-18
9840.92733 5.88793e-18
9842.92574 5.90422e-18
9844.92415 5.71682e-18
9846.92257 5.54193e-18
9848.93107 5.66416e-18
9850.92949 5.84155e-18
9852.92790 5.97057e-18
9854.92632 6.03048e-18
9856.93482 6.02890e-18
9858.93324 5.96785e-18
9860.93165 5.86496e-18
9862.93007 5.74062e-18
9864.92848 5.60410e-18
9866.93699 5.43983e-18
9868.93540 5.32612e-18
9870.93381 5.35351e-18
9872.93223 5.48891e-18
9874.94074 5.62791e-18
9876.93915 5.67158e-18
9878.93756 5.69430e-18
9880.93598 5.74898e-18
9882.93439 5.78509e-18
9884.94290 5.77637e-18
9886.94131 5.71222e-18
9888.93973 5.57098e-18
9890.93814 5.38391e-18
9892.93655 5.24732e-18
9894.94506 5.36026e-18
9896.94348 5.49960e-18
9898.94189 5.51795e-18
9900.94030 5.46318e-18
9902.94881 5.42358e-18
9904.94722 5.42875e-18
9906.94564 5.41424e-18
9908.94405 5.31936e-18
9910.94247 5.27010e-18
9912.95097 5.41424e-18
9914.94939 5.63706e-18
9916.94780 5.88518e-18
9918.94621 6.04847e-18
9920.95472 6.06040e-18
9922.95314 5.83227e-18
9924.95155 5.57165e-18
9926.94996 5.51744e-18
9928.94838 5.53281e-18
9930.95689 5.54606e-18
9932.95530 5.54522e-18
9934.95371 5.58104e-18
9936.95213 5.64942e-18
9938.95054 5.67593e-18
9940.95905 5.46478e-18
9942.95746 5.30712e-18
9944.95588 5.45087e-18
9946.95429 5.75647e-18
9948.96280 6.08440e-18
9950.96121 6.24121e-18
9952.95963 6.16159e-18
9954.95804 5.59299e-18
9956.95645 5.04680e-18
9958.96496 5.01803e-18
9960.96337 5.25767e-18
9962.96179 5.57114e-18
9964.96020 5.77254e-18
9966.95862 5.84135e-18
9968.96712 5.67180e-18
9970.96554 5.46834e-18
9972.96395 5.45314e-18
9974.96236 5.49395e-18
9976.97087 5.47817e-18
9978.96929 5.44767e-18
9980.96770 5.54196e-18
9982.96611 5.81599e-18
9984.96453 6.06240e-18
9986.97304 5.96838e-18
9988.97145 5.78384e-18
9990.96986 5.60892e-18
9992.96828 5.46898e-18
9994.97678 5.31514e-18
9996.97520 5.17041e-18
9998.97361 5.09120e-18
10000.97203 5.17792e-18
10002.97044 5.31125e-18
