# wavelength flux
3470.99809 2.84180e-17
3472.46831 2.72802e-17
3473.93853 2.48222e-17
3475.40875 1.75755e-17
3476.87897 5.32660e-19
3478.34919 1.17603e-17
3479.81941 1.64583e-17
3481.28963 2.19495e-17
3482.75985 3.26503e-17
3484.23007 3.04748e-17
3485.70029 2.82995e-17
3487.17051 2.61244e-17
3488.64073 2.39495e-17
3490.11095 2.17748e-17
3491.58117 1.96003e-17
3493.05139 1.95994e-17
3494.52161 1.51865e-17
3495.99183 1.05245e-17
3497.46205 1.54919e-17
3498.93227 2.67645e-17
3500.40249 9.57455e-18
3501.87271 -3.68443e-19
3503.34293 5.41653e-18
3504.81315 1.36118e-17
3506.28337 9.79349e-18
3507.75359 2.41547e-17
3509.22381 2.08560e-17
3510.69403 7.60909e-18
3512.16425 1.34313e-17
3513.63447 2.91785e-18
3515.10469 9.54281e-18
3516.57491 2.27361e-17
3518.03506 1.13230e-17
3519.50528 2.39269e-18
3520.97550 6.12464e-19
3522.44572 4.60278e-18
3523.91594 1.38031e-17
3525.38616 2.31057e-17
3526.85638 1.07472e-17
3528.32660 6.57910e-18
3529.79682 1.92517e-17
3531.26704 1.82052e-17
3532.73726 2.01709e-17
3534.20748 1.57696e-17
3535.67770 2.55574e-17
3537.14792 9.34394e-18
3538.61814 -6.92802e-18
3540.08836 1.22128e-17
3541.55858 1.11638e-17
3543.02880 4.29462e-18
3544.49902 1.92386e-17
3545.96924 1.64543e-17
3547.43946 1.31173e-17
3548.90968 1.91544e-17
3550.37990 1.28855e-17
3551.85012 2.51766e-17
3553.32034 7.55035e-18
3554.79056 1.46590e-17
3556.26078 1.54624e-17
3557.73100 1.14286e-17
3559.20122 4.49051e-18
3560.67144 6.82936e-18
3562.14166 3.05407e-17
3563.61188 4.09693e-17
3565.08210 1.80415e-17
3566.55232 -1.48048e-18
3568.02254 1.50264e-17
3569.49276 1.47934e-17
3570.96298 1.36627e-17
3572.43320 8.03410e-18
3573.90342 1.63766e-17
3575.37364 1.92178e-17
3576.84386 1.08994e-17
3578.31408 1.31835e-17
3579.78430 1.24609e-17
3581.25452 8.98056e-18
3582.72474 1.09207e-17
3584.19496 1.92393e-17
3585.65511 3.26674e-17
3587.12533 1.51081e-17
3588.59555 1.08243e-17
3590.06577 2.05504e-17
3591.53599 3.08067e-17
3593.00621 3.62975e-17
3594.47643 3.28183e-17
3595.94665 2.53624e-17
3597.41687 2.79981e-17
3598.88709 1.70832e-17
3600.35731 1.08534e-17
3601.82753 5.57560e-18
3603.29775 9.55482e-18
3604.76797 1.18147e-17
3606.23819 1.67192e-17
3607.70841 1.54574e-17
3609.17863 1.88586e-17
3610.64885 2.59760e-17
3612.11907 2.73875e-17
3613.58929 1.04254e-17
3615.05951 6.31500e-18
3616.52973 1.57961e-17
3617.99995 6.52784e-18
3619.47017 4.88121e-18
3620.94039 -8.06180e-19
3622.41061 4.39374e-18
3623.88083 1.74057e-17
3625.35105 7.25037e-18
3626.82127 2.18552e-17
3628.29149 1.98754e-17
3629.76171 1.73147e-17
3631.23193 1.49977e-18
3632.70215 3.85557e-18
3634.17237 1.09335e-17
3635.64259 1.65890e-17
3637.11281 2.13654e-17
3638.58303 1.68564e-17
3640.05325 6.99144e-18
3641.52347 9.58149e-18
3642.99369 1.07086e-17
3644.46391 1.89635e-17
3645.93413 1.77572e-17
3647.40435 2.17608e-17
3648.87457 1.24122e-17
3650.34479 1.28543e-17
3651.81501 1.03943e-17
3653.28523 -1.54037e-18
3654.74538 -4.72635e-18
3656.21560 2.05602e-17
3657.68582 1.94274e-17
3659.15604 -3.48494e-19
3660.62626 -6.20788e-18
3662.09648 5.83590e-18
3663.56670 1.38858e-17
3665.03692 6.61132e-18
3666.50714 2.90252e-18
3667.97736 1.02064e-17
3669.44758 3.70282e-18
3670.91780 7.19458e-19
3672.38802 1.03225e-17
3673.85824 1.56376e-17
3675.32846 1.45729e-17
3676.79868 1.27368e-17
3678.26890 4.94687e-18
3679.73912 -3.91156e-19
3681.20934 -4.04251e-18
3682.67956 7.70164e-18
3684.14978 1.39802e-17
3685.62000 5.11325e-18
3687.09022 3.35865e-18
3688.56044 1.28495e-17
3690.03066 6.31039e-18
3691.50088 -1.27062e-18
3692.97110 -8.93543e-19
3694.44132 1.41122e-17
3695.91154 1.19045e-17
3697.38176 1.09119e-17
3698.85198 1.54495e-17
3700.32220 8.89308e-18
3701.79242 4.56822e-18
3703.26264 3.54227e-19
3704.73286 1.09838e-19
3706.20308 1.22310e-17
3707.67330 1.43369e-17
3709.14352 1.43804e-17
3710.61374 1.40686e-17
3712.08396 1.14906e-17
3713.55418 -2.22086e-18
3715.02440 1.21853e-17
3716.49462 1.63487e-17
3717.96484 1.09447e-17
3719.42499 2.20012e-18
3720.89521 8.99541e-18
3722.36543 1.41443e-17
3723.83565 1.85298e-17
3725.30587 1.10388e-17
3726.77609 5.50768e-18
3728.24631 1.14634e-17
3729.71653 8.57767e-18
3731.18675 7.84283e-18
3732.65697 7.10408e-18
3734.12719 7.21591e-18
3735.59741 7.32775e-18
3737.06763 7.37842e-18
3738.53785 7.42909e-18
3740.00807 7.47975e-18
3741.47829 7.53041e-18
3742.94851 7.58108e-18
3744.41873 7.63174e-18
3745.88895 7.68239e-18
3747.35917 7.73305e-18
3748.82939 7.78370e-18
3750.29961 7.83434e-18
3751.76983 7.88499e-18
3753.24005 7.93563e-18
3754.71027 7.98627e-18
3756.18049 8.03691e-18
3757.65071 8.08754e-18
3759.12093 8.13818e-18
3760.59115 8.18880e-18
3762.06137 8.23943e-18
3763.53159 8.29006e-18
3765.00181 8.34068e-18
3766.47203 8.39129e-18
3767.94225 8.44191e-18
3769.41247 8.49252e-18
3770.88269 8.54312e-18
3772.35291 8.59375e-18
3773.82313 8.64435e-18
3775.29335 9.20290e-18
3776.76357 1.79036e-17
3778.23379 2.00444e-17
3779.70401 1.67758e-17
3781.17423 1.58442e-17
3782.64445 1.39352e-17
3784.11467 1.43835e-17
3785.58489 1.55872e-17
3787.05511 1.99058e-17
3788.51526 1.46256e-17
3789.98548 1.01140e-17
3791.45570 1.07048e-17
3792.92592 1.00909e-17
3794.39614 1.75464e-17
3795.86636 1.40866e-17
3797.33658 9.42175e-18
3798.80680 1.20647e-17
3800.27702 2.13752e-17
3801.74724 1.76400e-17
3803.21746 1.53528e-17
3804.68768 1.61478e-17
3806.15790 1.54425e-17
3807.62812 1.57071e-17
3809.09834 1.91985e-17
3810.56856 1.00204e-17
3812.03878 1.46126e-17
3813.50900 1.18244e-17
3814.97922 1.25250e-17
3816.44944 8.41451e-18
3817.91966 1.40687e-17
3819.38988 1.66517e-17
3820.86010 8.06700e-18
3822.33032 1.00821e-17
3823.80054 1.47019e-17
3825.27076 1.52701e-17
3826.74098 1.97870e-17
3828.21120 1.97783e-17
3829.68142 2.07417e-17
3831.15164 1.90724e-17
3832.62186 2.27541e-17
3834.09208 2.55299e-17
3835.56230 2.13155e-17
3837.03252 1.31531e-17
3838.50274 1.15606e-17
3839.97296 1.51584e-17
3841.44318 1.89800e-17
3842.91340 2.08565e-17
3844.38362 2.32380e-17
3845.85384 2.58436e-17
3847.32406 1.94161e-17
3848.79428 1.01304e-17
3850.26450 1.91676e-17
3851.73472 2.17230e-17
3853.20494 1.85893e-17
3854.67516 2.26643e-17
3856.13531 2.43428e-17
3857.60553 2.19376e-17
3859.07575 1.87561e-17
3860.54597 1.96440e-17
3862.01619 1.70885e-17
3863.48641 1.87830e-17
3864.95663 2.42879e-17
3866.42685 2.22630e-17
3867.89707 1.94883e-17
3869.36729 1.51824e-17
3870.83751 1.65504e-17
3872.30773 1.60477e-17
3873.77795 1.30430e-17
3875.24817 2.05199e-17
3876.71839 1.95958e-17
3878.18861 1.42548e-17
3879.65883 1.63544e-17
3881.12905 1.75073e-17
3882.59927 1.59980e-17
3884.06949 1.51318e-17
3885.53971 1.48918e-17
3887.00993 1.54143e-17
3888.48015 1.76134e-17
3889.95037 1.86115e-17
3891.42059 2.01357e-17
3892.89081 8.74493e-18
3894.36103 1.47996e-17
3895.83125 1.91148e-17
3897.30147 1.97322e-17
3898.77169 1.49292e-17
3900.24191 8.42077e-18
3901.71213 1.13082e-17
3903.18235 1.19773e-17
3904.65257 1.93201e-17
3906.12279 1.57614e-17
3907.59301 9.17803e-18
3909.06323 1.67634e-17
3910.53345 1.45544e-17
3912.00367 1.63544e-17
3913.47389 1.53377e-17
3914.94411 1.59476e-17
3916.41433 1.11075e-17
3917.88455 1.34234e-17
3919.35477 1.99953e-17
3920.82499 1.56286e-17
3922.28514 1.48100e-17
3923.75536 1.29271e-17
3925.22558 1.50377e-17
3926.69580 1.97594e-17
3928.16602 2.04683e-17
3929.63624 1.27488e-17
3931.10646 1.29704e-17
3932.57668 1.69373e-17
3934.04690 1.88929e-17
3935.51712 1.72606e-17
3936.98734 2.24168e-17
3938.45756 2.02438e-17
3939.92778 1.57931e-17
3941.39800 1.52162e-17
3942.86822 1.64108e-17
3944.33844 1.54790e-17
3945.80866 1.33935e-17
3947.27888 1.19871e-17
3948.74910 1.37917e-17
3950.21932 1.59108e-17
3951.68954 1.24960e-17
3953.15976 1.41120e-17
3954.62998 1.51218e-17
3956.10020 1.47996e-17
3957.57042 1.12338e-17
3959.04064 1.12948e-17
3960.51086 1.59276e-17
3961.98108 1.63310e-17
3963.45130 1.32344e-17
3964.92152 1.89312e-17
3966.39174 1.85147e-17
3967.86196 1.39796e-17
3969.33218 1.59664e-17
3970.80240 1.31775e-17
3972.27262 1.22874e-17
3973.74284 1.35432e-17
3975.21306 1.84164e-17
3976.68328 2.05056e-17
3978.15350 1.61917e-17
3979.62372 9.51331e-18
3981.09394 1.41682e-17
3982.56416 1.74403e-17
3984.03438 1.57766e-17
3985.50460 1.75227e-17
3986.97482 1.56042e-17
3988.44504 1.47492e-17
3989.90519 1.58237e-17
3991.37541 1.38935e-17
3992.84563 1.27212e-17
3994.31585 1.56533e-17
3995.78607 1.46874e-17
3997.25629 1.39741e-17
3998.72651 2.01337e-17
4000.19673 1.62519e-17
4001.66695 1.55682e-17
4003.13717 1.75211e-17
4004.60739 1.48319e-17
4006.07761 1.35177e-17
4007.54783 1.34527e-17
4009.01805 9.24459e-18
4010.48827 8.60858e-18
4011.95849 1.70985e-17
4013.42871 1.41361e-17
4014.89893 1.80316e-17
4016.36915 1.37123e-17
4017.83937 1.22061e-17
4019.30959 1.25858e-17
4020.77981 1.35646e-17
4022.25003 1.62196e-17
4023.72025 1.41958e-17
4025.19047 1.16630e-17
4026.66069 1.28784e-17
4028.13091 1.25687e-17
4029.60113 1.53933e-17
4031.07135 1.64096e-17
4032.54157 1.43231e-17
4034.01179 1.66938e-17
4035.48201 1.45929e-17
4036.95223 1.23828e-17
4038.42245 1.90651e-17
4039.89267 1.31548e-17
4041.36289 1.32161e-17
4042.83311 1.69333e-17
4044.30333 1.20913e-17
4045.77355 1.22210e-17
4047.24377 1.57825e-17
4048.71399 1.47904e-17
4050.18421 1.20031e-17
4051.65443 1.98248e-17
4053.12465 1.48725e-17
4054.59487 1.93172e-17
4056.06509 1.43245e-17
4057.52524 1.28819e-17
4058.99546 1.65681e-17
4060.46568 1.86949e-17
4061.93590 1.80749e-17
4063.40612 1.82843e-17
4064.87634 2.09988e-17
4066.34656 1.95225e-17
4067.81678 1.64765e-17
4069.28700 1.72563e-17
4070.75722 1.43001e-17
4072.22744 1.26483e-17
4073.69766 1.32857e-17
4075.16788 1.88123e-17
4076.63810 1.71683e-17
4078.10832 1.61394e-17
4079.57854 1.73958e-17
4081.04876 1.95054e-17
4082.51898 2.00071e-17
4083.98920 1.99466e-17
4085.45942 1.42528e-17
4086.92964 1.51699e-17
4088.39986 1.80009e-17
4089.87008 1.31564e-17
4091.34030 1.09264e-17
4092.81052 1.20765e-17
4094.28074 9.61545e-18
4095.75096 7.01738e-18
4097.22118 1.18984e-17
4098.69140 1.31384e-17
4100.16162 1.21848e-17
4101.63184 1.24304e-17
4103.10206 1.52881e-17
4104.57228 1.43414e-17
4106.04250 1.55723e-17
4107.51272 1.60774e-17
4108.98294 1.41438e-17
4110.45316 1.29823e-17
4111.92338 1.43700e-17
4113.39360 1.57603e-17
4114.86382 1.52094e-17
4116.33404 1.41292e-17
4117.80426 1.28682e-17
4119.27448 1.14492e-17
4120.74470 1.10201e-17
4122.21492 1.22148e-17
4123.68514 1.51781e-17
4125.14529 1.35017e-17
4126.61551 1.33516e-17
4128.08573 1.07513e-17
4129.55595 1.40598e-17
4131.02617 1.14165e-17
4132.49639 1.40543e-17
4133.96661 1.59867e-17
4135.43683 1.37476e-17
4136.90705 1.38562e-17
4138.37727 1.25818e-17
4139.84749 8.65177e-18
4141.31771 1.36692e-17
4142.78793 1.31064e-17
4144.25815 1.25634e-17
4145.72837 1.14858e-17
4147.19859 9.88366e-18
4148.66881 1.02227e-17
4150.13903 1.33054e-17
4151.60925 1.34097e-17
4153.07947 1.25088e-17
4154.54969 1.36517e-17
4156.01991 1.23718e-17
4157.49013 5.45557e-18
4158.96035 1.60656e-17
4160.43057 1.45951e-17
4161.90079 1.54733e-17
4163.37101 1.50395e-17
4164.84123 1.33102e-17
4166.31145 1.75759e-17
4167.78167 1.00217e-17
4169.25189 1.38604e-17
4170.72211 1.43016e-17
4172.19233 9.43123e-18
4173.66255 9.71627e-18
4175.13277 9.75677e-18
4176.60299 9.21348e-18
4178.07321 1.42345e-17
4179.54343 1.22387e-17
4181.01365 1.05642e-17
4182.48387 8.46489e-18
4183.95409 9.28270e-18
4185.42431 1.07504e-17
4186.89453 1.03382e-17
4188.36475 1.16404e-17
4189.83497 1.11514e-17
4191.29512 9.16530e-18
4192.76534 1.22032e-17
4194.23556 1.16933e-17
4195.70578 1.07741e-17
4197.17600 6.85558e-18
4198.64622 9.76263e-19
4200.11644 1.24980e-17
4201.58666 9.54883e-18
4203.05688 8.07709e-18
4204.52710 1.08595e-17
4205.99732 1.29287e-17
4207.46754 8.16483e-18
4208.93776 6.34998e-18
4210.40798 1.17695e-17
4211.87820 1.69930e-17
4213.34842 1.15593e-17
4214.81864 5.52757e-18
4216.28886 6.20697e-18
4217.75908 6.23446e-18
4219.22930 1.03523e-17
4220.69952 1.22261e-17
4222.16974 1.01648e-17
4223.63996 9.13049e-18
4225.11018 1.14740e-17
4226.58040 1.31126e-17
4228.05062 1.59940e-17
4229.52084 1.12281e-17
4230.99106 7.60332e-18
4232.46128 8.55508e-18
4233.93150 1.15099e-17
4235.40172 1.38532e-17
4236.87194 1.30832e-17
4238.34216 1.01941e-17
4239.81238 9.07558e-18
4241.28260 1.08901e-17
4242.75282 1.29382e-17
4244.22304 1.16462e-17
4245.69326 7.34257e-18
4247.16348 7.86535e-18
4248.63370 9.49579e-18
4250.10392 1.21524e-17
4251.57414 1.22561e-17
4253.04436 5.80444e-18
4254.51458 3.37381e-18
4255.98480 8.92126e-18
4257.45502 1.06770e-17
4258.91517 6.53966e-18
4260.38539 8.75122e-18
4261.85561 1.11787e-17
4263.32583 9.43102e-18
4264.79605 8.97459e-18
4266.26627 1.11050e-17
4267.73649 1.04743e-17
4269.20671 7.21266e-18
4270.67693 8.16356e-18
4272.14715 1.40027e-17
4273.61737 1.34695e-17
4275.08759 1.09937e-17
4276.55781 9.42992e-18
4278.02803 1.02026e-17
4279.49825 9.94406e-18
4280.96847 9.73321e-18
4282.43869 1.08705e-17
4283.90891 9.43269e-18
4285.37913 8.18584e-18
4286.84935 9.46803e-18
4288.31957 1.14113e-17
4289.78979 1.22120e-17
4291.26001 8.43951e-18
4292.73023 1.17019e-17
4294.20045 1.46010e-17
4295.67067 1.40072e-17
4297.14089 1.25852e-17
4298.61111 1.01015e-17
4300.08133 8.56476e-18
4301.55155 9.37168e-18
4303.02177 1.23539e-17
4304.49199 1.12103e-17
4305.96221 1.28411e-17
4307.43243 1.19980e-17
4308.90265 1.04470e-17
4310.37287 1.17102e-17
4311.84309 1.15956e-17
4313.31331 1.15579e-17
4314.78353 1.35961e-17
4316.25375 1.29825e-17
4317.72397 1.54812e-17
4319.19419 1.31977e-17
4320.66441 1.19427e-17
4322.13463 9.78684e-18
4323.60485 8.62174e-18
4325.06500 1.16423e-17
4326.53522 1.31622e-17
4328.00544 1.12830e-17
4329.47566 1.37087e-17
4330.94588 1.36070e-17
4332.41610 1.53627e-17
4333.88632 1.29065e-17
4335.35654 1.00301e-17
4336.82676 1.21110e-17
4338.29698 1.33836e-17
4339.76720 1.53372e-17
4341.23742 1.48514e-17
4342.70764 1.34406e-17
4344.17786 1.35545e-17
4345.64808 1.15093e-17
4347.11830 1.11120e-17
4348.58852 1.50152e-17
4350.05874 1.27482e-17
4351.52896 1.13254e-17
4352.99918 6.13211e-18
4354.46940 1.15774e-17
4355.93962 1.65580e-17
4357.40984 1.72659e-17
4358.88006 1.20231e-17
4360.35028 1.56341e-17
4361.82050 1.58255e-17
4363.29072 1.25532e-17
4364.76094 1.26836e-17
4366.23116 1.28141e-17
4367.70138 1.29445e-17
4369.17160 1.30749e-17
4370.64182 1.32054e-17
4372.11204 1.33357e-17
4373.58226 1.34662e-17
4375.05248 1.35966e-17
4376.52270 1.37270e-17
4377.99292 1.38574e-17
4379.46314 1.39878e-17
4380.93336 1.41181e-17
4382.40358 1.42485e-17
4383.87380 1.43788e-17
4385.34402 1.45092e-17
4386.81424 1.46395e-17
4388.28446 1.47698e-17
4389.75468 1.49002e-17
4391.22490 1.50305e-17
4392.68505 1.51608e-17
4394.15527 1.52911e-17
4395.62549 1.54214e-17
4397.09571 1.55518e-17
4398.56593 1.56820e-17
4400.03615 1.58123e-17
4401.50637 1.59426e-17
4402.97659 1.60728e-17
4404.44681 1.62031e-17
4405.91703 1.63333e-17
4407.38725 1.64636e-17
4408.85747 1.65938e-17
4410.32769 1.67240e-17
4411.79791 1.68542e-17
4413.26813 1.69845e-17
4414.73835 1.71147e-17
4416.20857 1.72449e-17
4417.67879 1.73751e-17
4419.14901 1.75052e-17
4420.61923 1.76354e-17
4422.08945 1.77656e-17
4423.55967 1.78958e-17
4425.02989 1.80259e-17
4426.50011 1.86427e-17
4427.97033 1.92359e-17
4429.44055 2.06533e-17
4430.91077 1.92052e-17
4432.38099 2.00427e-17
4433.85121 1.89325e-17
4435.32143 1.60994e-17
4436.79165 1.43582e-17
4438.26187 1.49357e-17
4439.73209 1.59703e-17
4441.20231 1.83562e-17
4442.67253 1.99258e-17
4444.14275 1.68462e-17
4445.61297 1.89090e-17
4447.08319 1.66169e-17
4448.55341 1.43093e-17
4450.02363 1.37695e-17
4451.49385 1.58740e-17
4452.96407 1.62453e-17
4454.43429 1.59089e-17
4455.90451 1.27661e-17
4457.37473 1.07326e-17
4458.84495 1.67461e-17
4460.31517 1.90851e-17
4461.77532 1.97585e-17
4463.24554 1.85144e-17
4464.71576 1.43697e-17
4466.18598 1.53799e-17
4467.65620 1.78423e-17
4469.12642 2.10122e-17
4470.59664 1.96476e-17
4472.06686 1.79801e-17
4473.53708 1.95808e-17
4475.00730 1.99565e-17
4476.47752 1.84521e-17
4477.94774 1.67855e-17
4479.41796 1.89098e-17
4480.88818 1.71518e-17
4482.35840 1.55691e-17
4483.82862 1.69093e-17
4485.29884 1.79898e-17
4486.76906 1.37291e-17
4488.23928 1.27150e-17
4489.70950 1.81686e-17
4491.17972 1.65231e-17
4492.64994 1.55124e-17
4494.12016 1.86894e-17
4495.59038 1.70077e-17
4497.06060 1.59220e-17
4498.53082 1.68548e-17
4500.00104 1.47720e-17
4501.47126 1.52882e-17
4502.94148 1.49439e-17
4504.41170 1.60955e-17
4505.88192 1.68695e-17
4507.35214 1.35437e-17
4508.82236 1.38181e-17
4510.29258 1.55651e-17
4511.76280 1.52000e-17
4513.23302 1.48741e-17
4514.70324 1.54886e-17
4516.17346 1.68869e-17
4517.64368 1.59573e-17
4519.11390 1.61659e-17
4520.58412 1.75788e-17
4522.05434 1.40471e-17
4523.52456 1.20339e-17
4524.99478 1.31365e-17
4526.46500 1.16511e-17
4527.93522 1.42265e-17
4529.39537 1.52736e-17
4530.86559 1.19112e-17
4532.33581 9.53865e-18
4533.80603 1.10013e-17
4535.27625 1.18981e-17
4536.74647 1.09228e-17
4538.21669 1.09492e-17
4539.68691 1.39473e-17
4541.15713 1.19506e-17
4542.62735 1.18951e-17
4544.09757 1.41020e-17
4545.56779 1.35544e-17
4547.03801 1.18764e-17
4548.50823 1.08663e-17
4549.97845 1.38105e-17
4551.44867 1.52891e-17
4552.91889 1.47200e-17
4554.38911 1.21252e-17
4555.85933 1.14376e-17
4557.32955 1.43214e-17
4558.79977 1.52420e-17
4560.26999 1.18416e-17
4561.74021 1.07461e-17
4563.21043 1.35446e-17
4564.68065 1.47829e-17
4566.15087 1.39363e-17
4567.62109 1.56146e-17
4569.09131 1.15536e-17
4570.56153 1.16780e-17
4572.03175 1.46597e-17
4573.50197 1.23634e-17
4574.97219 1.21485e-17
4576.44241 1.36013e-17
4577.91263 1.36497e-17
4579.38285 1.35647e-17
4580.85307 1.32764e-17
4582.32329 1.21376e-17
4583.79351 1.50003e-17
4585.26373 1.66751e-17
4586.73395 1.28284e-17
4588.20417 1.48016e-17
4589.67439 1.54428e-17
4591.14461 1.38626e-17
4592.61483 1.48396e-17
4594.08505 1.20843e-17
4595.54520 8.73410e-18
4597.01542 9.14369e-18
4598.48564 1.41426e-17
4599.95586 1.34247e-17
4601.42608 1.50793e-17
4602.89630 1.50202e-17
4604.36652 1.15129e-17
4605.83674 1.32810e-17
4607.30696 1.18634e-17
4608.77718 1.18061e-17
4610.24740 1.24320e-17
4611.71762 1.22496e-17
4613.18784 1.20017e-17
4614.65806 1.13458e-17
4616.12828 1.04245e-17
4617.59850 1.25552e-17
4619.06872 1.13999e-17
4620.53894 1.03609e-17
4622.00916 1.00641e-17
4623.47938 9.98217e-18
4624.94960 1.12834e-17
4626.41982 1.10590e-17
4627.89004 1.05904e-17
4629.36026 1.07256e-17
4630.83048 1.46362e-17
4632.30070 1.42005e-17
4633.77092 1.05947e-17
4635.24114 1.01611e-17
4636.71136 1.39118e-17
4638.18158 1.79307e-17
4639.65180 1.26171e-17
4641.12202 1.31529e-17
4642.59224 1.73887e-17
4644.06246 1.50788e-17
4645.53268 1.41852e-17
4647.00290 1.11652e-17
4648.47312 1.35005e-17
4649.94334 1.68700e-17
4651.41356 1.38892e-17
4652.88378 1.17332e-17
4654.35400 1.16122e-17
4655.82422 1.33450e-17
4657.29444 1.58553e-17
4658.76466 1.63499e-17
4660.23488 1.52894e-17
4661.70510 1.58791e-17
4663.16525 1.38556e-17
4664.63547 1.47958e-17
4666.10569 1.32008e-17
4667.57591 1.36085e-17
4669.04613 1.20142e-17
4670.51635 1.27169e-17
4671.98657 1.12315e-17
4673.45679 1.32732e-17
4674.92701 1.26649e-17
4676.39723 1.19131e-17
4677.86745 1.27354e-17
4679.33767 1.39474e-17
4680.80789 9.64060e-18
4682.27811 1.00273e-17
4683.74833 1.15296e-17
4685.21855 1.12698e-17
4686.68877 9.37317e-18
4688.15899 1.15778e-17
4689.62921 1.11260e-17
4691.09943 1.23341e-17
4692.56965 9.80184e-18
4694.03987 1.10320e-17
4695.51009 1.21544e-17
4696.98031 1.16277e-17
4698.45053 8.55562e-18
4699.92075 8.35606e-18
4701.39097 8.32239e-18
4702.86119 1.00999e-17
4704.33141 8.40068e-18
4705.80163 7.87732e-18
4707.27185 9.87430e-18
4708.74207 1.31058e-17
4710.21229 9.08303e-18
4711.68251 1.01804e-17
4713.15273 1.25615e-17
4714.62295 1.31873e-17
4716.09317 8.52101e-18
4717.56339 8.90413e-18
4719.03361 8.97789e-18
4720.50383 1.50595e-17
4721.97405 1.37120e-17
4723.44427 1.03417e-17
4724.91449 1.18480e-17
4726.38471 1.22307e-17
4727.85493 1.19035e-17
4729.31508 1.12650e-17
4730.78530 1.03156e-17
4732.25552 9.41007e-18
4733.72574 1.08577e-17
4735.19596 1.09553e-17
4736.66618 1.43421e-17
4738.13640 9.79725e-18
4739.60662 1.25281e-17
4741.07684 1.26397e-17
4742.54706 1.20262e-17
4744.01728 1.28667e-17
4745.48750 8.29715e-18
4746.95772 1.07734e-17
4748.42794 1.15422e-17
4749.89816 1.04213e-17
4751.36838 1.19661e-17
4752.83860 1.25783e-17
4754.30882 1.10623e-17
4755.77904 9.18896e-18
4757.24926 1.40755e-17
4758.71948 1.10910e-17
4760.18970 1.35724e-17
4761.65992 1.44564e-17
4763.13014 1.10500e-17
4764.60036 1.49151e-17
4766.07058 1.09695e-17
4767.54080 1.33384e-17
4769.01102 1.33445e-17
4770.48124 1.00732e-17
4771.95146 9.95977e-18
4773.42168 1.01247e-17
4774.89190 1.37535e-17
4776.36212 1.47050e-17
4777.83234 1.18683e-17
4779.30256 1.13193e-17
4780.77278 1.35293e-17
4782.24300 9.58359e-18
4783.71322 8.17442e-18
4785.18344 7.93880e-18
4786.65366 1.42200e-17
4788.12388 1.13296e-17
4789.59410 8.40910e-18
4791.06432 1.25520e-17
4792.53454 1.14850e-17
4794.00476 1.28857e-17
4795.47498 1.17893e-17
4796.93513 1.15311e-17
4798.40535 1.18475e-17
4799.87557 1.09038e-17
4801.34579 1.29630e-17
4802.81601 1.11366e-17
4804.28623 1.07094e-17
4805.75645 1.15744e-17
4807.22667 1.24335e-17
4808.69689 9.41413e-18
4810.16711 9.46657e-18
4811.63733 1.12081e-17
4813.10755 1.23010e-17
4814.57777 1.31050e-17
4816.04799 1.24874e-17
4817.51821 1.04219e-17
4818.98843 1.15329e-17
4820.45865 1.29842e-17
4821.92887 1.17042e-17
4823.39909 1.29716e-17
4824.86931 1.07946e-17
4826.33953 1.05690e-17
4827.80975 1.06369e-17
4829.27997 9.45755e-18
4830.75019 9.38258e-18
4832.22041 1.29764e-17
4833.69063 1.05850e-17
4835.16085 1.23625e-17
4836.63107 1.41781e-17
4838.10129 1.43275e-17
4839.57151 1.14370e-17
4841.04173 1.10503e-17
4842.51195 8.56933e-18
4843.98217 8.43989e-18
4845.45239 1.02893e-17
4846.92261 9.29167e-18
4848.39283 6.73109e-18
4849.86305 5.80077e-18
4851.33327 9.35840e-18
4852.80349 9.64084e-18
4854.27371 1.07213e-17
4855.74393 1.03981e-17
4857.21415 1.14350e-17
4858.68437 1.09778e-17
4860.15459 8.27817e-18
4861.62481 9.34380e-18
4863.09503 1.12142e-17
4864.56525 1.02602e-17
4866.02540 8.71943e-18
4867.49562 1.03826e-17
4868.96584 9.92010e-18
4870.43606 8.37288e-18
4871.90628 1.25159e-17
4873.37650 1.41607e-17
4874.84672 1.13260e-17
4876.31694 9.01094e-18
4877.78716 9.16162e-18
4879.25738 9.31225e-18
4880.72760 9.46296e-18
4882.19782 9.61362e-18
4883.66804 9.76421e-18
4885.13826 9.91485e-18
4886.60848 1.00654e-17
4888.07870 1.02160e-17
4889.54892 1.03666e-17
4891.01914 1.05172e-17
4892.48936 1.06678e-17
4893.95958 1.08183e-17
4895.42980 1.09689e-17
4896.90002 1.11194e-17
4898.37024 1.12700e-17
4899.84046 1.14205e-17
4901.31068 1.15711e-17
4902.78090 1.17215e-17
4904.25112 1.18721e-17
4905.72134 1.20226e-17
4907.19156 1.21730e-17
4908.66178 1.23235e-17
4910.13200 1.24740e-17
4911.60222 1.26244e-17
4913.07244 1.27748e-17
4914.54266 1.29253e-17
4916.01288 1.29172e-17
4917.48310 1.31219e-17
4918.95332 1.09507e-17
4920.42354 1.36808e-17
4921.89376 1.36846e-17
4923.36398 9.42431e-18
4924.83420 1.25703e-17
4926.30442 8.07856e-18
4927.77464 1.13082e-17
4929.24486 8.45281e-18
4930.71508 1.12076e-17
4932.18530 1.03557e-17
4933.64545 1.02333e-17
4935.11567 1.36974e-17
4936.58589 1.67905e-17
4938.05611 1.51980e-17
4939.52633 1.39516e-17
4940.99655 1.23340e-17
4942.46677 1.07896e-17
4943.93699 1.27127e-17
4945.40721 1.45275e-17
4946.87743 1.21390e-17
4948.34765 1.32936e-17
4949.81787 1.21721e-17
4951.28809 1.36687e-17
4952.75831 1.20601e-17
4954.22853 1.15927e-17
4955.69875 1.13574e-17
4957.16897 1.45435e-17
4958.63919 1.34740e-17
4960.10941 1.20321e-17
4961.57963 1.29145e-17
4963.04985 1.28950e-17
4964.52007 1.25786e-17
4965.99029 1.14562e-17
4967.46051 1.13258e-17
4968.93073 1.27447e-17
4970.40095 1.34399e-17
4971.87117 1.07030e-17
4973.34139 1.26242e-17
4974.81161 1.04568e-17
4976.28183 1.05644e-17
4977.75205 1.06720e-17
4979.22227 1.07797e-17
4980.69249 1.08873e-17
4982.16271 1.09949e-17
4983.63293 1.11025e-17
4985.10315 1.12101e-17
4986.57337 1.13177e-17
4988.04359 1.14253e-17
4989.51381 1.15329e-17
4990.98403 1.16404e-17
4992.45425 1.17480e-17
4993.92447 1.18556e-17
4995.39469 1.19631e-17
4996.85484 1.20707e-17
4998.32506 1.21782e-17
4999.79528 1.22858e-17
5001.26550 1.23933e-17
5002.73572 1.25009e-17
5004.20594 1.26084e-17
5005.67616 1.27159e-17
5007.14638 1.28234e-17
5008.61660 1.29309e-17
5010.08682 1.30384e-17
5011.55704 1.31459e-17
5013.02726 1.32533e-17
5014.49748 1.86180e-17
5015.96770 1.29041e-17
5017.43792 1.14286e-17
5018.90814 1.36773e-17
5020.37836 1.53990e-17
5021.84858 1.40442e-17
5023.31880 1.50420e-17
5024.78902 1.50396e-17
5026.25924 1.50373e-17
5027.72946 1.50349e-17
5029.19968 1.50325e-17
5030.66990 1.50301e-17
5032.14012 1.50277e-17
5033.61034 1.50254e-17
5035.08056 1.50230e-17
5036.55078 1.50206e-17
5038.02100 1.50182e-17
5039.49122 1.50159e-17
5040.96144 1.50135e-17
5042.43166 1.50111e-17
5043.90188 1.50087e-17
5045.37210 1.50063e-17
5046.84232 1.50040e-17
5048.31254 1.50016e-17
5049.78276 1.49992e-17
5051.25298 1.49968e-17
5052.72320 1.49945e-17
5054.19342 1.49921e-17
5055.66364 1.49897e-17
5057.13386 1.49874e-17
5058.60408 1.49850e-17
5060.07430 1.49826e-17
5061.54452 1.28303e-17
5063.01474 1.40744e-17
5064.48496 1.57179e-17
5065.95518 1.38862e-17
5067.41533 1.34946e-17
5068.88555 1.00617e-17
5070.35577 1.58909e-17
5071.82599 1.40171e-17
5073.29621 1.15481e-17
5074.76643 1.23806e-17
5076.23665 1.43764e-17
5077.70687 1.57961e-17
5079.17709 1.52307e-17
5080.64731 1.48565e-17
5082.11753 1.63829e-17
5083.58775 1.47643e-17
5085.05797 1.40646e-17
5086.52819 1.29936e-17
5087.99841 1.44365e-17
5089.46863 1.48862e-17
5090.93885 1.43199e-17
5092.40907 1.37927e-17
5093.87929 1.32271e-17
5095.34951 1.33960e-17
5096.81973 1.45241e-17
5098.28995 1.43688e-17
5099.76017 1.25371e-17
5101.23039 1.31387e-17
5102.70061 1.38531e-17
5104.17083 1.44496e-17
5105.64105 1.41397e-17
5107.11127 1.36673e-17
5108.58149 1.29832e-17
5110.05171 1.37978e-17
5111.52193 1.36647e-17
5112.99215 1.59896e-17
5114.46237 1.39889e-17
5115.93259 1.51235e-17
5117.40281 1.46344e-17
5118.87303 1.42432e-17
5120.34325 1.32291e-17
5121.81347 1.49082e-17
5123.28369 1.54813e-17
5124.75391 1.28417e-17
5126.22413 1.45067e-17
5127.69435 1.53042e-17
5129.16457 1.19345e-17
5130.63479 1.20972e-17
5132.10501 1.53490e-17
5133.56516 1.61238e-17
5135.03538 1.53948e-17
5136.50560 1.51931e-17
5137.97582 1.37980e-17
5139.44604 1.54734e-17
5140.91626 1.60712e-17
5142.38648 1.42275e-17
5143.85670 1.24148e-17
5145.32692 1.58461e-17
5146.79714 1.14357e-17
5148.26736 1.31590e-17
5149.73758 1.12016e-17
5151.20780 1.46930e-17
5152.67802 1.47552e-17
5154.14824 1.77803e-17
5155.61846 1.39192e-17
5157.08868 1.46103e-17
5158.55890 1.41185e-17
5160.02912 1.30617e-17
5161.49934 1.16578e-17
5162.96956 1.29950e-17
5164.43978 1.16978e-17
5165.91000 1.50290e-17
5167.38022 1.32341e-17
5168.85044 1.15210e-17
5170.32066 1.10508e-17
5171.79088 1.25415e-17
5173.26110 1.21225e-17
5174.73132 1.50157e-17
5176.20154 1.12450e-17
5177.67176 1.34891e-17
5179.14198 1.71725e-17
5180.61220 1.48209e-17
5182.08242 1.44441e-17
5183.55264 1.31535e-17
5185.02286 1.11321e-17
5186.49308 1.41584e-17
5187.96330 1.44622e-17
5189.43352 1.31110e-17
5190.90374 1.11887e-17
5192.37396 1.45262e-17
5193.84418 1.48621e-17
5195.31440 1.32844e-17
5196.78462 1.58589e-17
5198.25484 1.43956e-17
5199.72506 1.44039e-17
5201.18521 1.30945e-17
5202.65543 1.47168e-17
5204.12565 1.45021e-17
5205.59587 1.39167e-17
5207.06609 1.45005e-17
5208.53631 1.47486e-17
5210.00653 1.40006e-17
5211.47675 1.45107e-17
5212.94697 1.56922e-17
5214.41719 1.56241e-17
5215.88741 1.53879e-17
5217.35763 1.29511e-17
5218.82785 1.47997e-17
5220.29807 1.54599e-17
5221.76829 1.53342e-17
5223.23851 1.54249e-17
5224.70873 1.66993e-17
5226.17895 1.50739e-17
5227.64917 1.31944e-17
5229.11939 1.19326e-17
5230.58961 1.32656e-17
5232.05983 1.49023e-17
5233.53005 1.58249e-17
5235.00027 1.61960e-17
5236.47049 1.53063e-17
5237.94071 1.29019e-17
5239.41093 1.42507e-17
5240.88115 1.54619e-17
5242.35137 1.53728e-17
5243.82159 1.55906e-17
5245.29181 1.40855e-17
5246.76203 1.35857e-17
5248.23225 1.31844e-17
5249.70247 1.30451e-17
5251.17269 1.26494e-17
5252.64291 1.33172e-17
5254.11313 1.25110e-17
5255.58335 1.41496e-17
5257.05357 1.43882e-17
5258.52379 1.26242e-17
5259.99401 1.62145e-17
5261.46423 1.53294e-17
5262.93445 1.41181e-17
5264.40467 1.63027e-17
5265.87489 1.46457e-17
5267.34511 1.38189e-17
5268.81533 1.50788e-17
5270.27548 1.45037e-17
5271.74570 1.42294e-17
5273.21592 1.51365e-17
5274.68614 1.27130e-17
5276.15636 1.29918e-17
5277.62658 1.32962e-17
5279.09680 1.39750e-17
5280.56702 1.36558e-17
5282.03724 1.39845e-17
5283.50746 1.56687e-17
5284.97768 1.63531e-17
5286.44790 1.54907e-17
5287.91812 1.21948e-17
5289.38834 1.16436e-17
5290.85856 1.14013e-17
5292.32878 1.32765e-17
5293.79900 1.31830e-17
5295.26922 1.00820e-17
5296.73944 1.01452e-17
5298.20966 1.17776e-17
5299.67988 1.29783e-17
5301.15010 1.30585e-17
5302.62032 1.37457e-17
5304.09054 1.19432e-17
5305.56076 1.19317e-17
5307.03098 1.37545e-17
5308.50120 1.32104e-17
5309.97142 1.33808e-17
5311.44164 1.31669e-17
5312.91186 1.32276e-17
5314.38208 1.41662e-17
5315.85230 1.38525e-17
5317.32252 1.18503e-17
5318.79274 1.14402e-17
5320.26296 1.26804e-17
5321.73318 1.18541e-17
5323.20340 1.09775e-17
5324.67362 1.29860e-17
5326.14384 1.25402e-17
5327.61406 1.05364e-17
5329.08428 1.27948e-17
5330.55450 1.37067e-17
5332.02472 1.32116e-17
5333.49494 1.28646e-17
5334.96516 1.19314e-17
5336.42531 1.29922e-17
5337.89553 1.28762e-17
5339.36575 1.06245e-17
5340.83597 1.00141e-17
5342.30619 1.26615e-17
5343.77641 1.33425e-17
5345.24663 1.19204e-17
5346.71685 1.25805e-17
5348.18707 1.08521e-17
5349.65729 1.09366e-17
5351.12751 1.24631e-17
5352.59773 1.14301e-17
5354.06795 1.34390e-17
5355.53817 1.31685e-17
5357.00839 1.30091e-17
5358.47861 1.05800e-17
5359.94883 9.93638e-18
5361.41905 1.22289e-17
5362.88927 1.24641e-17
5364.35949 1.38447e-17
5365.82971 1.35794e-17
5367.29993 1.21057e-17
5368.77015 1.14093e-17
5370.24037 1.22407e-17
5371.71059 1.12940e-17
5373.18081 1.23939e-17
5374.65103 1.50384e-17
5376.12125 1.57596e-17
5377.59147 1.48305e-17
5379.06169 1.46176e-17
5380.53191 1.36269e-17
5382.00213 1.17593e-17
5383.47235 1.22094e-17
5384.94257 1.17150e-17
5386.41279 1.21933e-17
5387.88301 1.37731e-17
5389.35323 1.29040e-17
5390.82345 1.28047e-17
5392.29367 1.42606e-17
5393.76389 1.16615e-17
5395.23411 1.04652e-17
5396.70433 1.23480e-17
5398.17455 1.28863e-17
5399.64477 1.23450e-17
5401.10492 1.16480e-17
5402.57514 8.72246e-18
5404.04536 1.06614e-17
5405.51558 1.29373e-17
5406.98580 1.53655e-17
5408.45602 1.44148e-17
5409.92624 1.43799e-17
5411.39646 1.38009e-17
5412.86668 1.16938e-17
5414.33690 1.16448e-17
5415.80712 1.06783e-17
5417.27734 1.35537e-17
5418.74756 1.26598e-17
5420.21778 1.22922e-17
5421.68800 1.35985e-17
5423.15822 1.10865e-17
5424.62844 1.35952e-17
5426.09866 1.26946e-17
5427.56888 9.18711e-18
5429.03910 1.02638e-17
5430.50932 9.91788e-18
5431.97954 1.02912e-17
5433.44976 1.18071e-17
5434.91998 1.00597e-17
5436.39020 1.05871e-17
5437.86042 1.15098e-17
5439.33064 9.18648e-18
5440.80086 1.16735e-17
5442.27108 1.11251e-17
5443.74130 9.53469e-18
5445.21152 9.40068e-18
5446.68174 1.07539e-17
5448.15196 1.01789e-17
5449.62218 9.53104e-18
5451.09240 1.10200e-17
5452.56262 1.14974e-17
5454.03284 1.18317e-17
5455.50306 9.78974e-18
5456.97328 1.06296e-17
5458.44350 1.27250e-17
5459.91372 1.03272e-17
5461.38394 8.96150e-18
5462.85416 8.85579e-18
5464.32438 6.86060e-18
5465.79460 6.64889e-18
5467.26482 7.52419e-18
5468.73504 1.01443e-17
5470.20526 7.38409e-18
5471.66541 7.25016e-18
5473.13563 9.62889e-18
5474.60585 8.59749e-18
5476.07607 9.35668e-18
5477.54629 7.41228e-18
5479.01651 5.38155e-18
5480.48673 6.20514e-18
5481.95695 8.78781e-18
5483.42717 6.51711e-18
5484.89739 7.31058e-18
5486.36761 9.61422e-18
5487.83783 9.07684e-18
5489.30805 7.99038e-18
5490.77827 5.61032e-18
5492.24849 5.82763e-18
5493.71871 8.57681e-18
5495.18893 7.70552e-18
5496.65915 8.79532e-18
5498.12937 1.08990e-17
5499.59959 9.47615e-18
5501.06981 7.56295e-18
5502.54003 6.53415e-18
5504.01025 8.39336e-18
5505.48047 9.45367e-18
5506.95069 7.18875e-18
5508.42091 7.23915e-18
5509.89113 8.13185e-18
5511.36135 6.75192e-18
5512.83157 9.40657e-18
5514.30179 1.02617e-17
5515.77201 9.11839e-18
5517.24223 9.98731e-18
5518.71245 6.11736e-18
5520.18267 8.60547e-18
5521.65289 6.54751e-18
5523.12311 8.03339e-18
5524.59333 1.19008e-17
5526.06355 9.51239e-18
5527.53377 1.04988e-17
5529.00399 8.94337e-18
5530.47421 7.40248e-18
5531.94443 7.73991e-18
5533.41465 1.21852e-17
5534.88487 1.33947e-17
5536.35509 1.08531e-17
5537.81524 1.46269e-17
5539.28546 1.19348e-17
5540.75568 8.85479e-18
5542.22590 1.01668e-17
5543.69612 8.29033e-18
5545.16634 9.88701e-18
5546.63656 9.53182e-18
5548.10678 1.02247e-17
5549.57700 1.01966e-17
5551.04722 9.69723e-18
5552.51744 1.00679e-17
5553.98766 1.02062e-17
5555.45788 1.17767e-17
5556.92810 1.07791e-17
5558.39832 8.66604e-18
5559.86854 1.07019e-17
5561.33876 9.45324e-18
5562.80898 1.01648e-17
5564.27920 9.29527e-18
5565.74942 1.07595e-17
5567.21964 1.32798e-17
5568.68986 1.31315e-17
5570.16008 1.17352e-17
5571.63030 1.18673e-17
5573.10052 1.14961e-17
5574.57074 1.21081e-17
5576.04096 1.45695e-17
5577.51118 1.48736e-17
5578.98140 1.12158e-17
5580.45162 8.49140e-18
5581.92184 9.56125e-18
5583.39206 1.23702e-17
5584.86228 1.23863e-17
5586.33250 9.84779e-18
5587.80272 1.06869e-17
5589.27294 1.12043e-17
5590.74316 1.00427e-17
5592.21338 9.77979e-18
5593.68360 8.50799e-18
5595.15382 8.47388e-18
5596.62404 1.09140e-17
5598.09426 1.04006e-17
5599.56448 9.72688e-18
5601.03470 1.22565e-17
5602.50492 1.28716e-17
5603.97514 1.21831e-17
5605.43529 1.19940e-17
5606.90551 1.11956e-17
5608.37573 1.08500e-17
5609.84595 1.12847e-17
5611.31617 1.07796e-17
5612.78639 1.02232e-17
5614.25661 1.03976e-17
5615.72683 1.12215e-17
5617.19705 1.19933e-17
5618.66727 1.12323e-17
5620.13749 1.02903e-17
5621.60771 1.21288e-17
5623.07793 1.35957e-17
5624.54815 1.20205e-17
5626.01837 1.06949e-17
5627.48859 1.07024e-17
5628.95881 1.15442e-17
5630.42903 1.20702e-17
5631.89925 1.32026e-17
5633.36947 1.24558e-17
5634.83969 1.20505e-17
5636.30991 1.12657e-17
5637.78013 1.21798e-17
5639.25035 1.03884e-17
5640.72057 9.75952e-18
5642.19079 1.03885e-17
5643.66101 8.96730e-18
5645.13123 1.01955e-17
5646.60145 1.45434e-17
5648.07167 1.13129e-17
5649.54189 1.09530e-17
5651.01211 1.32867e-17
5652.48233 1.06109e-17
5653.95255 1.07169e-17
5655.42277 1.07298e-17
5656.89299 1.08507e-17
5658.36321 1.10790e-17
5659.83343 1.12972e-17
5661.30365 1.08323e-17
5662.77387 1.10494e-17
5664.24409 1.08541e-17
5665.71431 1.24946e-17
5667.18453 1.03219e-17
5668.65475 1.11490e-17
5670.12497 1.28198e-17
5671.59519 1.35935e-17
5673.05534 1.21598e-17
5674.52556 1.18582e-17
5675.99578 9.58396e-18
5677.46600 1.18554e-17
5678.93622 1.45287e-17
5680.40644 1.24050e-17
5681.87666 1.12892e-17
5683.34688 1.29605e-17
5684.81710 1.42672e-17
5686.28732 1.27627e-17
5687.75754 1.10505e-17
5689.22776 1.12322e-17
5690.69798 1.42314e-17
5692.16820 1.52822e-17
5693.63842 1.20276e-17
5695.10864 1.10008e-17
5696.57886 1.25305e-17
5698.04908 1.19697e-17
5699.51930 1.14953e-17
5700.98952 1.08345e-17
5702.45974 1.13345e-17
5703.92996 1.26750e-17
5705.40018 1.20005e-17
5706.87040 1.14279e-17
5708.34062 1.18935e-17
5709.81084 1.28853e-17
5711.28106 1.22547e-17
5712.75128 1.10227e-17
5714.22150 1.19389e-17
5715.69172 1.53858e-17
5717.16194 1.25767e-17
5718.63216 1.18020e-17
5720.10238 1.04097e-17
5721.57260 1.17288e-17
5723.04282 1.26300e-17
5724.51304 1.15674e-17
5725.98326 1.11236e-17
5727.45348 1.16437e-17
5728.92370 1.00872e-17
5730.39392 1.32936e-17
5731.86414 1.28068e-17
5733.33436 1.23616e-17
5734.80458 1.26721e-17
5736.27480 1.22104e-17
5737.74502 1.00905e-17
5739.20517 1.25068e-17
5740.67539 1.30164e-17
5742.14561 1.11530e-17
5743.61583 9.48680e-18
5745.08605 1.33337e-17
5746.55627 1.16613e-17
5748.02649 1.03297e-17
5749.49671 1.09278e-17
5750.96693 9.11614e-18
5752.43715 1.15194e-17
5753.90737 1.27062e-17
5755.37759 1.18891e-17
5756.84781 1.16382e-17
5758.31803 1.51507e-17
5759.78825 1.38554e-17
5761.25847 1.34470e-17
5762.72869 1.27022e-17
5764.19891 1.23908e-17
5765.66913 1.20850e-17
5767.13935 1.13263e-17
5768.60957 1.21506e-17
5770.07979 1.43766e-17
5771.55001 1.26334e-17
5773.02023 1.20970e-17
5774.49045 1.24434e-17
5775.96067 1.24648e-17
5777.43089 1.26831e-17
5778.90111 1.22809e-17
5780.37133 1.29779e-17
5781.84155 1.46323e-17
5783.31177 1.39280e-17
5784.78199 1.36080e-17
5786.25221 1.16028e-17
5787.72243 1.23758e-17
5789.19265 1.44058e-17
5790.66287 1.41700e-17
5792.13309 1.45281e-17
5793.60331 1.45551e-17
5795.07353 1.68356e-17
5796.54375 1.66304e-17
5798.01397 1.36174e-17
5799.48419 1.35178e-17
5800.95441 1.42655e-17
5802.42463 1.48411e-17
5803.89485 1.13674e-17
5805.35500 1.29293e-17
5806.82522 1.45592e-17
5808.29544 1.21859e-17
5809.76566 1.14339e-17
5811.23588 1.11278e-17
5812.70610 1.17174e-17
5814.17632 1.38060e-17
5815.64654 1.34867e-17
5817.11676 1.13207e-17
5818.58698 1.26958e-17
5820.05720 1.50897e-17
5821.52742 1.31905e-17
5822.99764 1.18883e-17
5824.46786 1.14132e-17
5825.93808 1.04115e-17
5827.40830 1.09963e-17
5828.87852 1.14863e-17
5830.34874 9.15247e-18
5831.81896 9.11741e-18
5833.28918 1.23870e-17
5834.75940 1.11849e-17
5836.22962 1.06497e-17
5837.69984 1.17578e-17
5839.17006 1.06376e-17
5840.64028 1.09642e-17
5842.11050 1.18758e-17
5843.58072 1.18630e-17
5845.05094 1.21509e-17
5846.52116 1.38983e-17
5847.99138 1.36774e-17
5849.46160 1.03311e-17
5850.93182 1.06731e-17
5852.40204 1.14948e-17
5853.87226 1.08381e-17
5855.34248 1.13811e-17
5856.81270 1.01622e-17
5858.28292 1.02262e-17
5859.75314 1.09247e-17
5861.22336 1.14325e-17
5862.69358 1.00810e-17
5864.16380 1.14688e-17
5865.63402 1.26791e-17
5867.10424 1.06281e-17
5868.57446 9.76644e-18
5870.04468 1.04728e-17
5871.51490 1.38310e-17
5872.98512 1.50566e-17
5874.45534 1.28495e-17
5875.91549 1.06997e-17
5877.38571 1.17620e-17
5878.85593 1.26433e-17
5880.32615 1.30831e-17
5881.79637 1.21785e-17
5883.26659 1.23984e-17
5884.73681 1.06225e-17
5886.20703 7.48847e-18
5887.67725 7.56714e-18
5889.14747 7.64578e-18
5890.61769 7.72444e-18
5892.08791 7.80310e-18
5893.55813 7.88176e-18
5895.02835 7.96039e-18
5896.49857 8.03904e-18
5897.96879 8.11769e-18
5899.43901 8.19631e-18
5900.90923 8.27495e-18
5902.37945 8.35357e-18
5903.84967 8.43221e-18
5905.31989 8.51082e-18
5906.79011 8.58945e-18
5908.26033 8.66805e-18
5909.73055 8.74668e-18
5911.20077 8.82531e-18
5912.67099 8.90393e-18
5914.14121 8.98256e-18
5915.61143 9.06115e-18
5917.08165 9.13976e-18
5918.55187 9.21835e-18
5920.02209 9.29696e-18
5921.49231 9.37557e-18
5922.96253 9.45415e-18
5924.43275 9.53275e-18
5925.90297 9.61133e-18
5927.37319 9.68992e-18
5928.84341 9.76849e-18
5930.31363 9.84709e-18
5931.78385 9.92565e-18
5933.25407 1.00043e-17
5934.72429 1.00829e-17
5936.19451 1.01614e-17
5937.66473 1.02400e-17
5939.13495 1.03185e-17
5940.60517 1.03971e-17
5942.06532 1.04757e-17
5943.53554 1.05542e-17
5945.00576 1.06328e-17
5946.47598 1.07113e-17
5947.94620 1.07899e-17
5949.41642 1.03949e-17
5950.88664 7.86594e-18
5952.35686 7.71961e-18
5953.82708 9.40773e-18
5955.29730 1.05077e-17
5956.76752 7.25598e-18
5958.23774 6.34912e-18
5959.70796 5.99712e-18
5961.17818 8.05310e-18
5962.64840 8.93472e-18
5964.11862 9.16656e-18
5965.58884 7.06368e-18
5967.05906 7.12096e-18
5968.52928 5.45215e-18
5969.99950 6.12867e-18
5971.46972 7.37918e-18
5972.93994 6.24972e-18
5974.41016 5.72591e-18
5975.88038 8.01402e-18
5977.35060 7.27239e-18
5978.82082 6.15121e-18
5980.29104 6.32999e-18
5981.76126 8.27837e-18
5983.23148 6.17612e-18
5984.70170 6.71823e-18
5986.17192 9.03893e-18
5987.64214 7.65958e-18
5989.11236 7.02384e-18
5990.58258 7.93509e-18
5992.05280 7.99787e-18
5993.52302 6.93388e-18
5994.99324 7.18257e-18
5996.46346 6.89015e-18
5997.93368 8.53145e-18
5999.40390 9.04463e-18
6000.87412 6.83141e-18
6002.34434 9.02053e-18
6003.81456 8.96114e-18
6005.28478 6.39758e-18
6006.75500 6.81211e-18
6008.22522 8.70928e-18
6009.68537 8.99893e-18
6011.15559 8.32767e-18
6012.62581 7.20562e-18
6014.09603 8.56472e-18
6015.56625 8.65006e-18
6017.03647 6.95141e-18
6018.50669 8.02326e-18
6019.97691 9.99507e-18
6021.44713 9.07104e-18
6022.91735 7.26474e-18
6024.38757 8.15073e-18
6025.85779 6.68048e-18
6027.32801 5.41430e-18
6028.79823 8.78070e-18
6030.26845 8.21276e-18
6031.73867 6.62832e-18
6033.20889 7.69257e-18
6034.67911 9.31921e-18
6036.14933 9.15078e-18
6037.61955 7.56696e-18
6039.08977 8.12273e-18
6040.55999 7.81696e-18
6042.03021 6.89173e-18
6043.50043 5.98265e-18
6044.97065 5.82717e-18
6046.44087 5.18835e-18
6047.91109 6.10850e-18
6049.38131 7.96075e-18
6050.85153 7.77350e-18
6052.32175 7.35677e-18
6053.79197 9.23827e-18
6055.26219 9.07077e-18
6056.73241 6.20821e-18
6058.20263 5.42924e-18
6059.67285 8.83468e-18
6061.14307 9.82460e-18
6062.61329 7.97647e-18
6064.08351 6.28482e-18
6065.55373 9.18175e-18
6067.02395 7.75949e-18
6068.49417 7.87348e-18
6069.96439 1.04578e-17
6071.43461 1.15224e-17
6072.90483 7.77465e-18
6074.37505 4.88815e-18
6075.83520 5.99739e-18
6077.30542 8.62365e-18
6078.77564 7.48930e-18
6080.24586 7.54546e-18
6081.71608 9.72029e-18
6083.18630 1.14533e-17
6084.65652 9.51616e-18
6086.12674 6.98615e-18
6087.59696 7.42192e-18
6089.06718 7.63959e-18
6090.53740 7.99492e-18
6092.00762 7.66619e-18
6093.47784 7.18498e-18
6094.94806 8.32527e-18
6096.41828 8.06613e-18
6097.88850 9.39119e-18
6099.35872 8.88524e-18
6100.82894 8.03485e-18
6102.29916 8.38307e-18
6103.76938 7.75339e-18
6105.23960 8.96727e-18
6106.70982 6.82802e-18
6108.18004 9.42179e-18
6109.65026 1.02283e-17
6111.12048 7.96433e-18
6112.59070 9.84078e-18
6114.06092 1.07486e-17
6115.53114 8.66199e-18
6117.00136 9.61243e-18
6118.47158 8.41927e-18
6119.94180 7.29231e-18
6121.41202 7.67866e-18
6122.88224 8.98004e-18
6124.35246 8.83766e-18
6125.82268 9.36188e-18
6127.29290 8.81776e-18
6128.76312 9.78654e-18
6130.23334 1.01549e-17
6131.70356 9.40053e-18
6133.17378 8.06926e-18
6134.64400 1.01860e-17
6136.11422 1.06288e-17
6137.58444 9.45136e-18
6139.05466 8.36530e-18
6140.52488 9.97210e-18
6141.99510 1.04727e-17
6143.45525 9.27520e-18
6144.92547 7.53442e-18
6146.39569 9.28664e-18
6147.86591 1.10017e-17
6149.33613 1.12287e-17
6150.80635 8.64350e-18
6152.27657 8.20698e-18
6153.74679 6.97475e-18
6155.21701 6.88708e-18
6156.68723 9.21423e-18
6158.15745 1.18048e-17
6159.62767 8.60407e-18
6161.09789 1.02750e-17
6162.56811 8.41585e-18
6164.03833 6.05679e-18
6165.50855 8.18257e-18
6166.97877 8.19205e-18
6168.44899 9.83536e-18
6169.91921 9.52639e-18
6171.38943 9.65808e-18
6172.85965 9.58644e-18
6174.32987 9.15511e-18
6175.80009 8.36840e-18
6177.27031 9.74585e-18
6178.74053 8.99585e-18
6180.21075 8.31581e-18
6181.68097 8.11753e-18
6183.15119 7.49889e-18
6184.62141 9.14555e-18
6186.09163 9.68587e-18
6187.56185 9.54523e-18
6189.03207 1.04928e-17
6190.50229 1.08860e-17
6191.97251 1.02838e-17
6193.44273 8.14836e-18
6194.91295 8.82381e-18
6196.38317 1.10882e-17
6197.85339 9.82893e-18
6199.32361 1.08478e-17
6200.79383 1.11927e-17
6202.26405 8.33611e-18
6203.73427 9.34725e-18
6205.20449 9.43567e-18
6206.67471 9.28828e-18
6208.14493 8.97888e-18
6209.60508 1.01779e-17
6211.07530 1.26983e-17
6212.54552 1.08355e-17
6214.01574 9.48768e-18
6215.48596 9.96091e-18
6216.95618 8.65032e-18
6218.42640 7.34630e-18
6219.89662 7.21208e-18
6221.36684 7.93018e-18
6222.83706 9.72222e-18
6224.30728 9.01453e-18
6225.77750 5.70083e-18
6227.24772 5.70189e-18
6228.71794 8.18512e-18
6230.18816 9.65095e-18
6231.65838 8.84716e-18
6233.12860 7.81101e-18
6234.59882 8.61780e-18
6236.06904 9.05199e-18
6237.53926 7.62498e-18
6239.00948 5.43254e-18
6240.47970 8.65037e-18
6241.94992 1.12186e-17
6243.42014 1.01085e-17
6244.89036 9.98217e-18
6246.36058 9.88500e-18
6247.83080 8.86792e-18
6249.30102 8.51314e-18
6250.77124 9.00796e-18
6252.24146 1.06208e-17
6253.71168 9.24121e-18
6255.18190 9.48957e-18
6256.65212 9.08579e-18
6258.12234 7.10429e-18
6259.59256 7.71137e-18
6261.06278 7.45882e-18
6262.53300 8.04729e-18
6264.00322 7.98646e-18
6265.47344 9.82631e-18
6266.94366 1.00575e-17
6268.41388 8.24215e-18
6269.88410 8.93574e-18
6271.35432 8.45787e-18
6272.82454 8.22381e-18
6274.29476 9.41318e-18
6275.76498 9.28596e-18
6277.23520 7.64768e-18
6278.70542 8.35672e-18
6280.16557 8.52161e-18
6281.63579 7.62740e-18
6283.10601 7.88072e-18
6284.57623 7.36432e-18
6286.04645 8.66372e-18
6287.51667 1.02694e-17
6288.98689 1.02104e-17
6290.45711 8.81931e-18
6291.92733 9.70148e-18
6293.39755 8.67411e-18
6294.86777 9.31372e-18
6296.33799 8.65689e-18
6297.80821 9.37101e-18
6299.27843 1.24960e-17
6300.74865 9.64595e-18
6302.21887 9.78354e-18
6303.68909 1.01922e-17
6305.15931 9.54724e-18
6306.62953 8.11140e-18
6308.09975 8.42068e-18
6309.56997 1.12953e-17
6311.04019 8.33672e-18
6312.51041 8.57196e-18
6313.98063 9.94600e-18
6315.45085 9.16260e-18
6316.92107 8.13178e-18
6318.39129 9.51213e-18
6319.86151 8.56459e-18
6321.33173 8.29873e-18
6322.80195 7.73449e-18
6324.27217 8.17705e-18
6325.74239 8.30678e-18
6327.21261 8.52440e-18
6328.68283 7.41765e-18
6330.15305 7.44430e-18
6331.62327 9.82055e-18
6333.09349 8.61778e-18
6334.56371 8.68854e-18
6336.03393 1.12116e-17
6337.50415 9.54825e-18
6338.97437 7.77733e-18
6340.44459 9.39566e-18
6341.91481 9.99117e-18
6343.38503 8.91048e-18
6344.85525 8.70261e-18
6346.31540 9.07128e-18
6347.78562 9.68878e-18
6349.25584 1.19584e-17
6350.72606 9.80096e-18
6352.19628 8.90477e-18
6353.66650 8.14843e-18
6355.13672 7.49892e-18
6356.60694 9.73877e-18
6358.07716 1.13890e-17
6359.54738 1.08279e-17
6361.01760 9.26451e-18
6362.48782 9.40003e-18
6363.95804 8.35112e-18
6365.42826 9.43703e-18
6366.89848 9.08970e-18
6368.36870 7.59285e-18
6369.83892 9.30179e-18
6371.30914 9.16815e-18
6372.77936 8.14791e-18
6374.24958 8.16441e-18
6375.71980 8.67248e-18
6377.19002 8.96228e-18
6378.66024 7.46513e-18
6380.13046 7.53247e-18
6381.60068 8.69054e-18
6383.07090 9.93609e-18
6384.54112 9.90647e-18
6386.01134 1.00301e-17
6387.48156 1.11351e-17
6388.95178 9.15359e-18
6390.42200 7.97537e-18
6391.89222 8.29646e-18
6393.36244 9.04648e-18
6394.83266 8.90546e-18
6396.30288 8.91686e-18
6397.77310 7.69454e-18
6399.24332 8.37403e-18
6400.71354 1.07806e-17
6402.18376 9.09919e-18
6403.65398 8.91986e-18
6405.12420 1.00789e-17
6406.59442 1.00508e-17
6408.06464 1.01007e-17
6409.53486 1.04801e-17
6411.00508 1.11698e-17
6412.47530 1.05135e-17
6413.93545 9.89973e-18
6415.40567 8.93885e-18
6416.87589 9.53846e-18
6418.34611 1.08307e-17
6419.81633 1.03553e-17
6421.28655 1.19636e-17
6422.75677 1.10533e-17
6424.22699 9.92685e-18
6425.69721 1.10410e-17
6427.16743 9.08855e-18
6428.63765 9.62330e-18
6430.10787 1.15273e-17
6431.57809 1.02563e-17
6433.04831 9.76036e-18
6434.51853 9.89780e-18
6435.98875 9.93047e-18
6437.45897 9.33205e-18
6438.92919 9.09651e-18
6440.39941 1.07154e-17
6441.86963 9.04073e-18
6443.33985 8.42599e-18
6444.81007 8.57837e-18
6446.28029 8.88286e-18
6447.75051 7.89908e-18
6449.22073 8.59486e-18
6450.69095 9.49433e-18
6452.16117 9.63531e-18
6453.63139 8.85848e-18
6455.10161 8.77549e-18
6456.57183 9.89647e-18
6458.04205 9.02143e-18
6459.51227 7.82645e-18
6460.98249 8.99058e-18
6462.45271 9.91027e-18
6463.92293 9.38142e-18
6465.39315 1.00577e-17
6466.86337 8.76573e-18
6468.33359 8.13152e-18
6469.80381 9.56056e-18
6471.27403 8.14513e-18
6472.74425 7.78177e-18
6474.21447 9.26644e-18
6475.68469 9.00541e-18
6477.14484 7.30525e-18
6478.62513 1.01522e-17
6480.08528 1.07769e-17
6481.55550 1.20240e-17
6483.02572 1.01731e-17
6484.49594 8.44494e-18
6485.96616 8.65155e-18
6487.43638 1.03226e-17
6488.90660 9.10322e-18
6490.37682 9.44316e-18
6491.84704 9.43215e-18
6493.31726 8.61874e-18
6494.78748 9.17888e-18
6496.25770 8.86601e-18
6497.72792 7.33292e-18
6499.19814 7.50219e-18
6500.66836 7.29052e-18
6502.13858 9.03148e-18
6503.60880 9.58633e-18
6505.07902 9.80153e-18
6506.54924 7.94885e-18
6508.01946 7.30290e-18
6509.48968 9.67292e-18
6510.95990 9.33554e-18
6512.43012 8.08241e-18
6513.90034 8.93769e-18
6515.37056 1.19852e-17
6516.84078 1.09226e-17
6518.31100 8.30879e-18
6519.78122 8.61754e-18
6521.25144 1.01168e-17
6522.72166 1.14291e-17
6524.19188 8.91562e-18
6525.66210 8.36585e-18
6527.13232 8.37619e-18
6528.60254 9.18195e-18
6530.07276 9.11426e-18
6531.54298 1.00636e-17
6533.01320 1.12927e-17
6534.48342 7.89467e-18
6535.95364 7.87407e-18
6537.42386 1.05783e-17
6538.89408 9.38807e-18
6540.36430 9.16240e-18
6541.83452 9.70814e-18
6543.30474 1.06618e-17
6544.77496 1.05896e-17
6546.24518 9.73197e-18
6547.70533 9.33963e-18
6549.17555 8.93840e-18
6550.64577 7.99692e-18
6552.11599 8.48010e-18
6553.58621 1.00137e-17
6555.05643 9.23035e-18
6556.52665 8.94467e-18
6557.99687 9.74567e-18
6559.46709 8.54819e-18
6560.93731 9.35360e-18
6562.40753 9.73742e-18
6563.87775 9.33981e-18
6565.34797 8.50443e-18
6566.81819 7.38658e-18
6568.28841 8.83899e-18
6569.75863 9.00680e-18
6571.22885 8.48210e-18
6572.69907 8.94755e-18
6574.16929 9.65849e-18
6575.63951 8.49471e-18
6577.10973 8.47807e-18
6578.57995 8.46143e-18
6580.05017 8.44478e-18
6581.52039 8.42814e-18
6582.99061 8.41149e-18
6584.46083 8.39485e-18
6585.93105 8.37821e-18
6587.40127 8.36157e-18
6588.87149 8.34493e-18
6590.34171 8.32829e-18
6591.81193 8.31165e-18
6593.28215 8.29501e-18
6594.75237 8.27837e-18
6596.22259 8.26173e-18
6597.69281 8.24509e-18
6599.16303 8.22845e-18
6600.63325 8.21181e-18
6602.10347 8.19517e-18
6603.57369 8.17854e-18
6605.04391 8.16190e-18
6606.51413 8.14527e-18
6607.98435 8.12863e-18
6609.45457 8.11199e-18
6610.92479 8.09536e-18
6612.39501 8.07873e-18
6613.85516 8.07056e-18
6615.32538 8.06240e-18
6616.79560 8.05423e-18
6618.26582 8.04607e-18
6619.73604 8.03790e-18
6621.20626 8.02974e-18
6622.67648 8.02157e-18
6624.14670 8.01341e-18
6625.61692 8.00524e-18
6627.08714 7.99708e-18
6628.55736 7.98891e-18
6630.02758 7.98075e-18
6631.49780 7.97259e-18
6632.96802 7.96442e-18
6634.43824 7.95626e-18
6635.90846 7.94810e-18
6637.37868 7.93994e-18
6638.84890 7.93177e-18
6640.31912 7.92361e-18
6641.78934 7.91545e-18
6643.25956 7.90729e-18
6644.72978 7.89912e-18
6646.20000 7.89096e-18
6647.67022 7.88280e-18
6649.14044 7.51859e-18
6650.61066 7.39155e-18
6652.08088 9.39866e-18
6653.55110 8.43726e-18
6655.02132 6.66877e-18
6656.49154 7.68433e-18
6657.96176 8.32121e-18
6659.43198 8.49600e-18
6660.90220 8.83754e-18
6662.37242 6.01408e-18
6663.84264 8.18410e-18
6665.31286 8.08950e-18
6666.78308 7.13629e-18
6668.25330 9.45438e-18
6669.72352 8.70863e-18
6671.19374 8.26957e-18
6672.66396 9.34389e-18
6674.13418 8.14779e-18
6675.60440 8.96260e-18
6677.07462 9.39468e-18
6678.54484 7.27594e-18
6680.00499 5.50207e-18
6681.48528 7.45496e-18
6682.95550 8.41421e-18
6684.41565 8.00873e-18
6685.88587 8.53625e-18
6687.35609 7.44267e-18
6688.82631 8.49547e-18
6690.29653 1.06239e-17
6691.76675 9.27175e-18
6693.23697 8.35481e-18
6694.70719 7.68782e-18
6696.17741 9.26377e-18
6697.64763 1.00016e-17
6699.11785 8.14495e-18
6700.58807 6.80667e-18
6702.05829 8.45652e-18
6703.52851 1.04660e-17
6704.99873 8.71109e-18
6706.46895 7.93161e-18
6707.93917 7.76004e-18
6709.40939 8.09494e-18
6710.87961 8.78686e-18
6712.34983 8.26448e-18
6713.82005 7.49013e-18
6715.29027 9.32910e-18
6716.76049 7.50587e-18
6718.23071 7.72527e-18
6719.70093 8.25954e-18
6721.17115 8.20868e-18
6722.64137 8.44317e-18
6724.11159 1.03021e-17
6725.58181 7.85121e-18
6727.05203 6.97769e-18
6728.52225 8.60832e-18
6729.99247 8.12206e-18
6731.46269 7.79590e-18
6732.93291 7.62561e-18
6734.40313 6.56769e-18
6735.87335 9.72374e-18
6737.34357 8.71624e-18
6738.81379 9.17807e-18
6740.28401 8.96044e-18
6741.75423 8.99361e-18
6743.22445 7.56927e-18
6744.69467 6.34767e-18
6746.16489 6.40943e-18
6747.63511 6.47118e-18
6749.10533 6.53295e-18
6750.56548 6.59469e-18
6752.03570 6.65645e-18
6753.50592 6.71819e-18
6754.97614 6.77995e-18
6756.44636 6.84171e-18
6757.91658 6.90345e-18
6759.38680 6.96520e-18
6760.85702 7.04323e-18
6762.32724 7.12131e-18
6763.79746 7.19933e-18
6765.26768 7.27738e-18
6766.73790 7.35543e-18
6768.20812 7.43345e-18
6769.67834 7.51149e-18
6771.14856 7.58950e-18
6772.61878 7.66754e-18
6774.08900 7.74555e-18
6775.55922 7.82359e-18
6777.02944 7.90159e-18
6778.49966 7.97963e-18
6779.96988 8.05765e-18
6781.44010 8.13566e-18
6782.91032 8.21371e-18
6784.38054 8.29170e-18
6785.85076 8.36973e-18
6787.32098 8.44772e-18
6788.79120 8.52573e-18
6790.26142 8.60372e-18
6791.73164 8.68174e-18
6793.20186 8.75975e-18
6794.67208 8.83773e-18
6796.14230 8.91574e-18
6797.61252 8.99372e-18
6799.08274 9.29126e-18
6800.55296 7.97450e-18
6802.02318 7.47406e-18
6803.49340 9.94882e-18
6804.96362 8.84989e-18
6806.43384 7.90333e-18
6807.90406 8.53953e-18
6809.37428 9.34569e-18
6810.84450 8.74682e-18
6812.31472 7.43377e-18
6813.78494 7.95178e-18
6815.25516 9.41872e-18
6816.71531 8.99240e-18
6818.18553 6.41938e-18
6819.65575 6.81273e-18
6821.12597 8.80127e-18
6822.59619 9.08679e-18
6824.06641 8.63388e-18
6825.53663 9.20030e-18
6827.00685 9.78713e-18
6828.47707 8.93332e-18
6829.94729 7.07072e-18
6831.41751 6.81073e-18
6832.88773 9.40840e-18
6834.35795 7.81407e-18
6835.82817 6.26896e-18
6837.29839 8.66803e-18
6838.76861 8.97783e-18
6840.23883 8.76165e-18
6841.70905 8.46384e-18
6843.17927 8.60620e-18
6844.64949 8.43589e-18
6846.11971 7.87973e-18
6847.58993 7.73408e-18
6849.06015 8.70653e-18
6850.53037 9.67626e-18
6852.00059 9.23143e-18
6853.47081 9.38005e-18
6854.94103 7.70905e-18
6856.41125 9.48304e-18
6857.88147 1.05168e-17
6859.35169 9.45347e-18
6860.82191 7.96752e-18
6862.29213 6.76048e-18
6863.76235 8.49871e-18
6865.23257 9.46085e-18
6866.70279 7.90326e-18
6868.17301 9.94748e-18
6869.64323 9.83682e-18
6871.11345 6.15125e-18
6872.58367 7.35282e-18
6874.05389 8.40281e-18
6875.52411 9.65265e-18
6876.99433 1.07292e-17
6878.46455 9.33992e-18
6879.93477 8.61625e-18
6881.39492 9.03769e-18
6882.87521 8.98523e-18
6884.33536 9.55646e-18
6885.80558 7.69223e-18
6887.27580 8.75009e-18
6888.74602 1.01195e-17
6890.21624 8.72978e-18
6891.68646 8.78220e-18
6893.15668 9.21715e-18
6894.62690 9.35491e-18
6896.09712 1.05127e-17
6897.56734 8.12242e-18
6899.03756 6.16968e-18
6900.50778 7.46167e-18
6901.97800 9.69149e-18
6903.44822 8.92912e-18
6904.91844 8.77751e-18
6906.38866 9.23670e-18
6907.85888 8.71000e-18
6909.32910 7.50285e-18
6910.79932 7.47233e-18
6912.26954 6.81981e-18
6913.73976 8.33003e-18
6915.20998 8.39671e-18
6916.68020 6.54684e-18
6918.15042 8.38467e-18
6919.62064 8.02016e-18
6921.09086 8.83063e-18
6922.56108 8.66620e-18
6924.03130 7.92275e-18
6925.50152 6.93734e-18
6926.97174 8.29164e-18
6928.44196 8.57608e-18
6929.91218 8.56244e-18
6931.38240 9.52557e-18
6932.85262 8.02653e-18
6934.32284 8.99268e-18
6935.79306 8.90343e-18
6937.26328 9.58469e-18
6938.73350 7.94763e-18
6940.20372 8.80522e-18
6941.67394 7.81059e-18
6943.14416 7.74480e-18
6944.61438 7.91050e-18
6946.08460 8.38493e-18
6947.55482 7.62834e-18
6949.02504 7.61631e-18
6950.49526 1.07379e-17
6951.95541 1.10483e-17
6953.42563 7.81571e-18
6954.89585 7.22623e-18
6956.36607 7.34200e-18
6957.83629 7.40910e-18
6959.30651 7.92518e-18
6960.77673 8.50600e-18
6962.24695 8.76533e-18
6963.71717 8.28872e-18
6965.18739 7.71314e-18
6966.65761 9.54518e-18
6968.12783 8.53207e-18
6969.59805 8.86867e-18
6971.06827 9.29177e-18
6972.53849 9.42353e-18
6974.00871 8.66045e-18
6975.47893 8.75140e-18
6976.94915 9.57185e-18
6978.41937 1.01213e-17
6979.88959 8.40131e-18
6981.35981 7.48633e-18
6982.83003 7.17545e-18
6984.30025 7.68332e-18
6985.77047 8.11396e-18
6987.24069 8.02382e-18
6988.71091 8.07996e-18
6990.18113 7.45479e-18
6991.65135 7.69433e-18
6993.12157 7.71877e-18
6994.59179 8.35110e-18
6996.06201 7.70707e-18
6997.53223 7.85165e-18
6999.00245 8.29074e-18
7000.47267 8.26368e-18
7001.94289 7.87994e-18
7003.41311 9.10083e-18
7004.88333 8.64562e-18
7006.35355 6.76554e-18
7007.82377 8.83137e-18
7009.29399 7.77545e-18
7010.76421 6.72727e-18
7012.23443 6.89904e-18
7013.70465 8.84398e-18
7015.17487 8.96588e-18
7016.64509 8.11214e-18
7018.10524 7.16754e-18
7019.57546 8.50774e-18
7021.04568 9.36947e-18
7022.51590 8.59198e-18
7023.98612 9.71093e-18
7025.45634 8.26978e-18
7026.92656 6.72788e-18
7028.39678 9.03554e-18
7029.86700 8.32968e-18
7031.33722 7.58733e-18
7032.80744 9.03595e-18
7034.27766 8.07549e-18
7035.74788 8.32622e-18
7037.21810 7.82651e-18
7038.68832 8.53101e-18
7040.15854 9.66972e-18
7041.62876 9.44410e-18
7043.09898 8.36013e-18
7044.56920 7.48551e-18
7046.03942 8.79870e-18
7047.50964 7.94418e-18
7048.97986 7.22906e-18
7050.45008 6.78684e-18
7051.92030 8.25829e-18
7053.39052 8.09472e-18
7054.86074 5.99668e-18
7056.33096 7.62217e-18
7057.80118 8.74349e-18
7059.27140 8.65967e-18
7060.74162 7.90003e-18
7062.21184 7.04859e-18
7063.68206 8.16642e-18
7065.15228 8.06968e-18
7066.62250 7.15825e-18
7068.09272 7.07883e-18
7069.56294 7.20091e-18
7071.03316 7.21592e-18
7072.50338 7.45263e-18
7073.97360 8.34428e-18
7075.44382 7.70130e-18
7076.91404 7.00466e-18
7078.38426 7.96566e-18
7079.85448 7.52718e-18
7081.32470 7.57391e-18
7082.79492 8.28949e-18
7084.25507 8.25998e-18
7085.73536 9.21600e-18
7087.20558 9.02674e-18
7088.66573 7.53509e-18
7090.13595 7.95500e-18
7091.60617 8.67458e-18
7093.07639 9.18487e-18
7094.54661 8.67612e-18
7096.01683 6.98450e-18
7097.48705 6.40015e-18
7098.95727 6.88034e-18
7100.42749 7.14615e-18
7101.89771 7.78413e-18
7103.36793 8.71253e-18
7104.83815 9.45648e-18
7106.30837 9.52360e-18
7107.77859 8.89149e-18
7109.24881 8.46731e-18
7110.71903 7.87209e-18
7112.18925 7.48534e-18
7113.65947 7.23364e-18
7115.12969 7.21860e-18
7116.59991 7.42430e-18
7118.07013 6.35249e-18
7119.54035 6.67797e-18
7121.01057 8.21020e-18
7122.48079 8.00906e-18
7123.95101 8.62379e-18
7125.42123 7.49889e-18
7126.89145 6.38677e-18
7128.36167 8.42831e-18
7129.83189 9.73124e-18
7131.30211 8.80025e-18
7132.77233 7.98651e-18
7134.24255 7.83838e-18
7135.71277 6.98533e-18
7137.18299 6.37318e-18
7138.65321 6.57052e-18
7140.12343 5.67849e-18
7141.59365 6.58737e-18
7143.06387 8.14248e-18
7144.53409 7.41729e-18
7146.00431 8.57872e-18
7147.47453 8.56056e-18
7148.94475 8.27616e-18
7150.41497 8.87338e-18
7151.88519 8.96618e-18
7153.34534 7.63988e-18
7154.81556 6.66022e-18
7156.28578 8.05195e-18
7157.75600 8.86953e-18
7159.22622 8.56987e-18
7160.69644 9.72939e-18
7162.16666 8.88228e-18
7163.63688 7.80346e-18
7165.10710 9.15772e-18
7166.57732 8.00252e-18
7168.04754 7.44859e-18
7169.51776 8.01567e-18
7170.98798 7.22304e-18
7172.45820 7.87988e-18
7173.92842 9.13727e-18
7175.39864 8.31342e-18
7176.86886 8.59679e-18
7178.33908 7.97263e-18
7179.80930 8.38288e-18
7181.27952 8.69011e-18
7182.74974 6.76423e-18
7184.21996 7.31356e-18
7185.69018 8.16102e-18
7187.16040 7.25926e-18
7188.63062 9.85516e-18
7190.10084 7.90732e-18
7191.57106 6.73711e-18
7193.04128 6.66621e-18
7194.51150 6.61156e-18
7195.98172 7.96553e-18
7197.45194 9.06549e-18
7198.92216 8.32595e-18
7200.39238 5.28375e-18
7201.86260 6.87343e-18
7203.33282 8.57848e-18
7204.80304 7.41402e-18
7206.27326 6.55004e-18
7207.74348 7.27199e-18
7209.21370 7.59318e-18
7210.68392 9.29076e-18
7212.15414 1.00439e-17
7213.62436 7.85803e-18
7215.09458 7.24882e-18
7216.56480 8.23796e-18
7218.02495 7.98904e-18
7219.49517 6.98390e-18
7220.96539 8.15346e-18
7222.43561 7.49239e-18
7223.90583 6.93005e-18
7225.37605 7.73563e-18
7226.84627 8.08121e-18
7228.31649 7.80330e-18
7229.78671 6.79253e-18
7231.25693 7.29308e-18
7232.72715 8.71450e-18
7234.19737 7.94257e-18
7235.66759 7.00081e-18
7237.13781 6.92899e-18
7238.60803 8.55367e-18
7240.07825 1.08784e-17
7241.54847 7.29211e-18
7243.01869 6.71498e-18
7244.48891 1.08539e-17
7245.95913 9.10838e-18
7247.42935 7.08428e-18
7248.89957 8.20185e-18
7250.36979 6.54812e-18
7251.84001 6.40131e-18
7253.31023 9.08984e-18
7254.78045 7.94581e-18
7256.25067 6.48154e-18
7257.72089 6.41283e-18
7259.19111 7.57476e-18
7260.66133 8.24806e-18
7262.13155 6.95311e-18
7263.60177 6.65303e-18
7265.07199 7.80975e-18
7266.54221 5.86702e-18
7268.01243 5.53298e-18
7269.48265 8.87082e-18
7270.95287 9.54509e-18
7272.42309 7.87897e-18
7273.89331 6.34536e-18
7275.36353 6.48565e-18
7276.83375 7.26952e-18
7278.30397 1.01377e-17
7279.77419 9.12958e-18
7281.24441 8.00359e-18
7282.71463 6.03008e-18
7284.18485 8.03109e-18
7285.64500 6.43015e-18
7287.11522 6.85170e-18
7288.58544 6.14321e-18
7290.05566 5.19173e-18
7291.52588 6.90931e-18
7292.99610 7.47484e-18
7294.46632 6.66344e-18
7295.93654 6.14915e-18
7297.40676 5.96362e-18
7298.87698 7.13982e-18
7300.34720 7.29087e-18
7301.81742 6.03527e-18
7303.28764 6.63454e-18
7304.75786 5.51963e-18
7306.22808 6.83365e-18
7307.69830 5.73277e-18
7309.16852 5.44999e-18
7310.63874 5.32191e-18
7312.10896 3.98639e-18
7313.57918 5.10554e-18
7315.04940 6.58407e-18
7316.51962 4.76504e-18
7317.98984 7.37404e-18
7319.46006 7.94447e-18
7320.93028 8.29315e-18
7322.40050 6.47917e-18
7323.87072 4.58705e-18
7325.34094 7.02977e-18
7326.81116 8.54427e-18
7328.28138 8.50851e-18
7329.75160 6.61149e-18
7331.22182 6.91021e-18
7332.69204 5.32593e-18
7334.16226 3.72818e-18
7335.63248 3.42135e-18
7337.10270 6.05988e-18
7338.57292 6.59152e-18
7340.04314 6.11501e-18
7341.51336 4.90733e-18
7342.98358 2.14490e-18
7344.45380 2.39792e-18
7345.92402 4.45824e-18
7347.39424 4.95292e-18
7348.86446 5.08801e-18
7350.33468 5.45541e-18
7351.80490 6.86574e-18
7353.27512 5.56302e-18
7354.74534 5.25324e-18
7356.20549 6.02934e-18
7357.67571 6.26419e-18
7359.14593 5.40591e-18
7360.61615 5.88379e-18
7362.08637 6.57891e-18
7363.55659 7.57256e-18
7365.02681 8.17212e-18
7366.49703 7.44517e-18
7367.96725 6.67331e-18
7369.43747 6.48611e-18
7370.90769 6.09499e-18
7372.37791 5.77404e-18
7373.84813 6.11209e-18
7375.31835 5.25457e-18
7376.78857 5.67040e-18
7378.25879 6.25539e-18
7379.72901 7.38409e-18
7381.19923 8.49714e-18
7382.66945 6.32778e-18
7384.13967 7.48070e-18
7385.60989 5.51412e-18
7387.08011 5.76211e-18
7388.55033 5.96712e-18
7390.02055 5.64191e-18
7391.49077 5.14150e-18
7392.96099 4.13563e-18
7394.43121 2.94839e-18
7395.90143 4.43288e-18
7397.37165 4.88925e-18
7398.84187 6.37558e-18
7400.31209 7.16975e-18
7401.78231 5.88078e-18
7403.25253 5.79430e-18
7404.72275 7.13807e-18
7406.19297 5.38122e-18
7407.66319 6.83081e-18
7409.13341 7.42893e-18
7410.60363 6.74764e-18
7412.07385 6.20091e-18
7412.22211 6.20091e-18
7413.91970 6.54043e-18
7415.61729 6.83018e-18
7417.31488 7.32366e-18
7419.01247 7.83033e-18
7420.71005 7.56595e-18
7422.40764 6.48964e-18
7424.10523 5.75947e-18
7425.80282 5.96956e-18
7427.50041 6.55717e-18
7429.19800 7.03445e-18
7430.89558 7.25911e-18
7432.59317 7.21661e-18
7434.29076 7.14861e-18
7435.98835 7.26553e-18
7437.68594 7.54807e-18
7439.38352 7.90235e-18
7441.09116 8.21361e-18
7442.78874 8.34129e-18
7444.48633 7.98033e-18
7446.18392 7.00609e-18
7447.88151 6.13940e-18
7449.57910 6.14690e-18
7451.27669 6.76122e-18
7452.97427 7.30186e-18
7454.67186 7.31436e-18
7456.36945 6.58653e-18
7458.06704 5.52587e-18
7459.76463 4.87467e-18
7461.46221 4.81698e-18
7463.15980 5.10028e-18
7464.85739 5.61725e-18
7466.55498 6.34615e-18
7468.25257 7.06671e-18
7469.95015 7.42438e-18
7471.64774 7.31937e-18
7473.34533 6.93854e-18
7475.04292 6.57496e-18
7476.74051 6.64913e-18
7478.43809 7.12177e-18
7480.13568 7.22175e-18
7481.83327 6.70424e-18
7483.53086 6.31588e-18
7485.22845 6.48980e-18
7486.92604 6.91692e-18
7488.62362 7.30244e-18
7490.32121 7.56370e-18
7492.01880 7.61558e-18
7493.71639 7.27228e-18
7495.41398 6.53684e-18
7497.11156 5.95899e-18
7498.80915 5.99004e-18
7500.50674 6.40011e-18
7502.20433 6.82311e-18
7503.90192 7.08819e-18
7505.59950 7.15026e-18
7507.29709 7.30418e-18
7508.99468 7.83825e-18
7510.69227 8.36993e-18
7512.38986 8.30111e-18
7514.08745 7.44415e-18
7515.78503 5.96031e-18
7517.48262 4.66642e-18
7519.18021 4.64542e-18
7520.87780 5.62610e-18
7522.58543 6.30605e-18
7524.28302 6.37830e-18
7525.98061 6.44770e-18
7527.67819 6.68603e-18
7529.37578 6.85749e-18
7531.07337 6.86047e-18
7532.77096 6.70927e-18
7534.46855 6.49681e-18
7536.16614 6.44006e-18
7537.86372 6.60561e-18
7539.56131 6.79978e-18
7541.25890 6.89304e-18
7542.95649 6.91158e-18
7544.65408 6.88487e-18
7546.35166 6.83959e-18
7548.04925 6.77421e-18
7549.74684 6.57855e-18
7551.44443 6.57284e-18
7553.14202 6.56714e-18
7554.83960 6.56144e-18
7556.53719 6.55574e-18
7558.23478 6.55004e-18
7559.93237 6.54434e-18
7561.62996 6.53864e-18
7563.32754 6.53294e-18
7565.02513 6.52724e-18
7566.72272 6.52154e-18
7568.42031 6.51584e-18
7570.11790 6.51015e-18
7571.81549 6.50444e-18
7573.51307 6.49874e-18
7575.21066 6.49305e-18
7576.90825 6.48735e-18
7578.60584 6.48166e-18
7580.30343 6.47596e-18
7582.00101 6.47026e-18
7583.69860 6.46457e-18
7585.39619 6.45888e-18
7587.09378 6.45318e-18
7588.79137 6.44749e-18
7590.48895 6.44179e-18
7592.18654 6.43609e-18
7593.88413 6.43040e-18
7595.58172 6.42471e-18
7597.27931 6.41902e-18
7598.97689 6.41332e-18
7600.67448 6.40763e-18
7602.37207 6.40194e-18
7604.06966 6.39625e-18
7605.76725 6.39056e-18
7607.47488 6.38487e-18
7609.17247 6.37918e-18
7610.87006 6.37349e-18
7612.56764 6.36780e-18
7614.26523 6.36211e-18
7615.96282 6.35642e-18
7617.66041 6.35073e-18
7619.35800 6.34505e-18
7621.05559 6.33936e-18
7622.75317 6.33368e-18
7624.45076 6.32799e-18
7626.14835 6.32230e-18
7627.84594 6.31661e-18
7629.54353 6.31093e-18
7631.24111 6.30525e-18
7632.93870 6.29956e-18
7634.63629 6.29387e-18
7636.33388 6.28819e-18
7638.03147 6.28251e-18
7639.72905 6.27682e-18
7641.42664 6.27114e-18
7643.12423 6.26546e-18
7644.82182 6.25977e-18
7646.51941 6.25409e-18
7648.21699 6.24841e-18
7649.91458 6.24273e-18
7651.61217 6.23705e-18
7653.30976 6.23137e-18
7655.00735 6.22569e-18
7656.70494 6.22001e-18
7658.40252 6.21433e-18
7660.10011 6.20865e-18
7661.79770 6.20297e-18
7663.49529 6.19729e-18
7665.19288 6.19162e-18
7666.89046 6.18594e-18
7668.58805 6.18026e-18
7670.28564 6.17459e-18
7671.98323 6.16890e-18
7673.68082 6.16324e-18
7675.37840 6.15756e-18
7677.07599 6.15188e-18
7678.77358 6.14621e-18
7680.47117 6.14053e-18
7682.16876 6.14026e-18
7683.86634 6.07272e-18
7685.56393 5.95994e-18
7687.26152 5.83410e-18
7688.96915 5.77088e-18
7690.66674 5.84772e-18
7692.36433 6.01354e-18
7694.06192 6.12565e-18
7695.75951 6.11399e-18
7697.45709 5.98581e-18
7699.15468 5.79114e-18
7700.85227 5.62297e-18
7702.54986 5.61885e-18
7704.24745 5.95430e-18
7705.94504 6.53899e-18
7707.64262 6.92293e-18
7709.34021 6.92128e-18
7711.03780 6.80542e-18
7712.73539 6.69971e-18
7714.43298 6.39480e-18
7716.13056 5.86973e-18
7717.82815 5.54832e-18
7719.52574 5.61622e-18
7721.22333 5.55239e-18
7722.92092 5.08297e-18
7724.61850 4.89390e-18
7726.31609 5.48506e-18
7728.01368 6.30455e-18
7729.71127 6.74939e-18
7731.40886 6.92245e-18
7733.10644 7.04010e-18
7734.80403 6.87661e-18
7736.50162 6.23882e-18
7738.19921 5.68030e-18
7739.89680 5.85607e-18
7741.59439 6.44300e-18
7743.29197 6.73338e-18
7744.98956 6.72401e-18
7746.68715 6.78925e-18
7748.38474 6.98213e-18
7750.08233 7.15717e-18
7751.77991 7.21382e-18
7753.47750 7.08658e-18
7755.17509 6.89392e-18
7756.87268 6.91905e-18
7758.57027 7.25187e-18
7760.26785 7.76762e-18
7761.96544 8.14362e-18
7763.66303 7.80497e-18
7765.36062 6.84003e-18
7767.05821 6.34029e-18
7768.75579 6.72824e-18
7770.46343 7.20862e-18
7772.16102 7.25937e-18
7773.85860 7.03899e-18
7775.55619 6.71555e-18
7777.25378 6.34796e-18
7778.95137 6.03735e-18
7780.64896 5.99343e-18
7782.34654 6.29611e-18
7784.04413 6.66018e-18
7785.74172 6.80567e-18
7787.43931 6.69750e-18
7789.13690 6.41714e-18
7790.83448 6.24707e-18
7792.53207 6.42149e-18
7794.22966 6.59574e-18
7795.92725 6.37303e-18
7797.62484 6.29131e-18
7799.32243 7.07684e-18
7801.02001 8.20794e-18
7802.71760 8.62675e-18
7804.41519 8.18897e-18
7806.11278 7.37235e-18
7807.81037 6.68524e-18
7809.50795 6.61580e-18
7811.20554 6.97849e-18
7812.90313 6.97551e-18
7814.60072 6.59522e-18
7816.29831 6.64225e-18
7817.99589 7.16539e-18
7819.69348 7.32315e-18
7821.39107 6.93807e-18
7823.08866 6.75494e-18
7824.78625 7.01790e-18
7826.48384 7.13903e-18
7828.18142 6.84499e-18
7829.87901 6.50925e-18
7831.57660 6.32166e-18
7833.27419 5.96321e-18
7834.97178 5.34170e-18
7836.66936 5.00015e-18
7838.36695 5.31448e-18
7840.06454 6.08078e-18
7841.76213 6.91444e-18
7843.45972 7.18953e-18
7845.15730 6.54441e-18
7846.85489 5.64984e-18
7848.55248 5.30360e-18
7850.25007 5.53659e-18
7851.94766 6.08601e-18
7853.64524 6.79217e-18
7855.35288 7.49182e-18
7857.05047 7.86093e-18
7858.74805 7.61667e-18
7860.44564 6.99917e-18
7862.14323 6.52260e-18
7863.84082 6.24022e-18
7865.53841 5.88454e-18
7867.23599 5.52321e-18
7868.93358 5.46102e-18
7870.63117 5.56070e-18
7872.32876 5.30046e-18
7874.02635 4.75507e-18
7875.72393 4.64532e-18
7877.42152 5.19673e-18
7879.11911 6.01518e-18
7880.81670 6.58351e-18
7882.51429 6.16789e-18
7884.21188 4.88096e-18
7885.90946 4.35072e-18
7887.60705 5.31759e-18
7889.30464 6.57086e-18
7891.00223 7.14931e-18
7892.69982 7.06554e-18
7894.39740 6.54081e-18
7896.09499 6.04347e-18
7897.79258 5.91728e-18
7899.49017 5.89043e-18
7901.18776 5.70498e-18
7902.88534 5.67155e-18
7904.58293 6.06805e-18
7906.28052 6.59390e-18
7907.97811 6.82900e-18
7909.67570 6.54406e-18
7911.37328 5.72583e-18
7913.07087 4.91721e-18
7914.76846 4.78909e-18
7916.46605 5.36531e-18
7918.16364 6.23547e-18
7919.86123 6.72496e-18
7921.55881 6.14199e-18
7923.25640 4.91534e-18
7924.95399 4.31034e-18
7926.65158 4.72398e-18
7928.34917 5.71026e-18
7930.04675 6.70878e-18
7931.74434 7.03388e-18
7933.44193 6.63006e-18
7935.13952 6.28559e-18
7936.84715 6.26722e-18
7938.54474 6.03853e-18
7940.24233 5.51208e-18
7941.93992 5.33224e-18
7943.63750 5.80498e-18
7945.33509 6.62805e-18
7947.03268 7.36276e-18
7948.73027 7.35251e-18
7950.42786 6.37139e-18
7952.12544 5.25835e-18
7953.82303 4.74123e-18
7955.52062 4.75664e-18
7957.21821 5.07452e-18
7958.91580 5.46510e-18
7960.61338 5.75068e-18
7962.31097 6.07873e-18
7964.00856 6.58256e-18
7965.70615 6.87682e-18
7967.40374 6.55209e-18
7969.10133 5.85085e-18
7970.79891 5.25378e-18
7972.49650 4.95227e-18
7974.19409 4.94541e-18
7975.89168 5.06854e-18
7977.58927 5.06584e-18
7979.28685 4.92940e-18
7980.98444 4.83529e-18
7982.68203 4.77448e-18
7984.37962 4.59955e-18
7986.07721 4.28969e-18
7987.77479 3.94027e-18
7989.47238 3.73388e-18
7991.16997 3.94362e-18
7992.86756 4.54498e-18
7994.56515 5.12112e-18
7996.26273 5.39156e-18
7997.96032 5.31080e-18
7999.65791 4.94777e-18
8001.35550 4.56179e-18
8003.05309 4.28901e-18
8004.75068 3.94203e-18
8006.44826 3.44479e-18
8008.14585 3.06502e-18
8009.84344 2.96924e-18
8011.54103 2.94328e-18
8013.23862 2.82139e-18
8014.93620 2.79149e-18
8016.63379 3.01881e-18
8018.34143 3.34833e-18
8020.03901 3.58941e-18
8021.73660 3.76819e-18
8023.43419 3.94796e-18
8025.13178 4.01841e-18
8026.82937 3.85390e-18
8028.52695 3.57838e-18
8030.22454 3.39085e-18
8031.92213 3.19435e-18
8033.61972 2.77216e-18
8035.31731 2.25928e-18
8037.01489 1.99625e-18
8038.71248 2.01863e-18
8040.41007 2.12782e-18
8042.10766 2.29819e-18
8043.80525 2.64487e-18
8045.50283 3.16750e-18
8047.20042 3.75468e-18
8048.89801 4.21817e-18
8050.59560 4.28455e-18
8052.29319 3.86959e-18
8053.99078 3.16458e-18
8055.68836 2.39048e-18
8057.38595 1.74239e-18
8059.08354 1.45544e-18
8060.78113 1.88267e-18
8062.47872 2.96639e-18
8064.17630 3.79591e-18
8065.87389 3.76524e-18
8067.57148 3.24843e-18
8069.26907 2.71408e-18
8070.96666 2.37331e-18
8072.66424 2.35192e-18
8074.36183 2.70805e-18
8076.05942 3.35272e-18
8077.75701 3.83052e-18
8079.45460 3.73859e-18
8081.15218 3.31637e-18
8082.84977 2.98010e-18
8084.54736 2.72541e-18
8086.24495 2.40471e-18
8087.94254 2.11017e-18
8089.64013 2.02369e-18
8091.33771 2.21141e-18
8093.03530 2.64191e-18
8094.73289 3.14444e-18
8096.43048 3.46024e-18
8098.12807 3.49538e-18
8099.82565 3.32124e-18
8101.52324 3.05110e-18
8103.22083 2.83938e-18
8104.92846 2.70335e-18
8106.62605 2.47869e-18
8108.32364 2.21355e-18
8110.02123 2.24873e-18
8111.71882 2.62112e-18
8113.41640 2.92172e-18
8115.11399 2.81700e-18
8116.81158 2.08148e-18
8118.50917 9.22107e-19
8120.20676 4.34796e-19
8121.90434 1.15742e-18
8123.60193 2.11967e-18
8125.29952 2.51801e-18
8126.99711 2.59543e-18
8128.69470 2.67487e-18
8130.39228 2.75501e-18
8132.08987 2.78418e-18
8133.78746 2.72139e-18
8135.48505 2.53862e-18
8137.18264 2.23053e-18
8138.88023 1.84621e-18
8140.57781 1.64574e-18
8142.27540 1.86662e-18
8143.97299 2.26964e-18
8145.67058 2.43139e-18
8147.36817 2.24514e-18
8149.06575 1.83267e-18
8150.76334 1.46593e-18
8152.46093 1.48739e-18
8154.15852 1.87684e-18
8155.85611 2.30224e-18
8157.55369 2.63696e-18
8159.25128 2.95299e-18
8160.94887 3.21659e-18
8162.64646 3.29892e-18
8164.34405 3.22345e-18
8166.04163 3.19570e-18
8167.73922 3.23994e-18
8169.43681 3.11375e-18
8171.13440 2.69158e-18
8172.83199 2.04750e-18
8174.52958 1.32391e-18
8176.22716 7.43165e-19
8177.92475 4.95157e-19
8179.62234 7.14767e-19
8181.31993 1.33631e-18
8183.01752 1.87069e-18
8184.71510 1.94385e-18
8186.41269 1.63715e-18
8188.12032 1.20491e-18
8189.81791 1.15873e-18
8191.51550 1.80232e-18
8193.21309 2.49131e-18
8194.91068 2.48758e-18
8196.60827 1.86706e-18
8198.30585 1.05808e-18
8200.00344 5.92595e-19
8201.70103 8.95581e-19
8203.39862 1.54886e-18
8205.09621 1.77036e-18
8206.79379 1.67901e-18
8208.49138 1.92402e-18
8210.18897 2.53235e-18
8211.88656 3.08325e-18
8213.58415 3.32121e-18
8215.28173 3.13548e-18
8216.97932 2.67843e-18
8218.67691 2.38868e-18
8220.37450 2.35320e-18
8222.07209 2.21619e-18
8223.76967 1.88303e-18
8225.46726 1.62795e-18
8227.16485 1.55381e-18
8228.86244 1.47841e-18
8230.56003 1.37353e-18
8232.25762 1.51977e-18
8233.95520 2.00271e-18
8235.65279 2.46944e-18
8237.35038 2.68200e-18
8239.04797 2.79843e-18
8240.74556 2.94045e-18
8242.44314 2.95931e-18
8244.14073 2.75417e-18
8245.83832 2.48770e-18
8247.53591 2.32368e-18
8249.23350 2.26078e-18
8250.93108 2.22686e-18
8252.62867 2.00670e-18
8254.32626 1.46145e-18
8256.02385 1.02594e-18
8257.72144 1.21860e-18
8259.41903 1.78859e-18
8261.11661 2.14692e-18
8262.81420 2.07871e-18
8264.51179 1.65066e-18
8266.20938 1.21751e-18
8267.91701 1.29216e-18
8269.60455 1.80022e-18
8271.30214 2.17057e-18
8273.00977 2.16452e-18
8274.70736 1.87935e-18
8276.40495 1.49681e-18
8278.10254 1.30976e-18
8279.80013 1.42451e-18
8281.49772 1.67204e-18
8283.19530 1.95282e-18
8284.89289 2.29645e-18
8286.59048 2.65335e-18
8288.28807 2.84638e-18
8289.98566 2.80845e-18
8291.68324 2.68254e-18
8293.38083 2.59885e-18
8295.07842 2.60872e-18
8296.77601 2.71381e-18
8298.47360 2.82501e-18
8300.17118 2.85610e-18
8301.86877 2.78748e-18
8303.56636 2.62717e-18
8305.26395 2.41381e-18
8306.96154 2.18677e-18
8308.65912 1.94324e-18
8310.35671 1.67824e-18
8312.05430 1.39952e-18
8313.75189 1.14589e-18
8315.44948 1.10418e-18
8317.14707 1.45438e-18
8318.84465 2.02280e-18
8320.54224 2.46482e-18
8322.23983 2.66611e-18
8323.93742 2.68927e-18
8325.63501 2.67378e-18
8327.33259 2.80777e-18
8329.03018 3.05985e-18
8330.72777 3.19302e-18
8332.42536 3.08867e-18
8334.12295 2.75767e-18
8335.82053 2.35097e-18
8337.51812 2.19821e-18
8339.21571 2.31098e-18
8340.91330 2.23335e-18
8342.61089 1.84243e-18
8344.30847 1.56437e-18
8346.00606 1.68828e-18
8347.70365 2.23727e-18
8349.40124 3.04506e-18
8351.09883 3.59717e-18
8352.79642 3.58115e-18
8354.50405 3.24882e-18
8356.20164 2.90933e-18
8357.89922 2.74546e-18
8359.59681 2.84428e-18
8361.29440 3.11099e-18
8362.99199 3.37834e-18
8364.68958 3.43156e-18
8366.38717 3.13599e-18
8368.08475 2.67707e-18
8369.78234 2.32827e-18
8371.47993 2.12470e-18
8373.17752 2.02276e-18
8374.87511 2.20591e-18
8376.57269 2.87746e-18
8378.27028 3.77585e-18
8379.96787 4.39767e-18
8381.66546 4.63213e-18
8383.36305 4.65864e-18
8385.06063 4.51463e-18
8386.75822 4.14688e-18
8388.45581 3.49473e-18
8390.15340 2.48150e-18
8391.85099 1.53110e-18
8393.54857 1.60967e-18
8395.24616 2.77215e-18
8396.94375 3.87873e-18
8398.64134 4.25615e-18
8400.33893 3.98964e-18
8402.03652 3.35987e-18
8403.73410 2.96140e-18
8405.43169 3.06269e-18
8407.12928 3.17037e-18
8408.82687 2.96259e-18
8410.52446 2.68983e-18
8412.22204 2.58859e-18
8413.91963 2.69219e-18
8415.61722 2.96400e-18
8417.31481 3.25970e-18
8419.01240 3.44996e-18
8420.70998 3.57693e-18
8422.40757 3.70051e-18
8424.10516 3.70428e-18
8425.80275 3.49648e-18
8427.50034 3.34243e-18
8429.19792 3.53997e-18
8430.89551 3.86301e-18
8432.59310 3.90643e-18
8434.29069 3.71069e-18
8435.99832 3.55506e-18
8437.69591 3.56831e-18
8439.39350 3.75816e-18
8441.09109 3.91133e-18
8442.77863 3.66841e-18
8444.48626 3.14041e-18
8446.18385 2.86609e-18
8447.88144 3.06212e-18
8449.57903 3.58830e-18
8451.27662 4.21413e-18
8452.97420 4.59232e-18
8454.67179 4.59721e-18
8456.36938 4.45819e-18
8458.06697 4.28459e-18
8459.76456 3.95097e-18
8461.46214 3.43749e-18
8463.15973 2.89867e-18
8464.85732 2.51607e-18
8466.55491 2.51934e-18
8468.25250 2.97006e-18
8469.95008 3.56647e-18
8471.64767 4.00083e-18
8473.34526 4.10321e-18
8475.04285 3.85839e-18
8476.74044 3.60147e-18
8478.43802 3.63792e-18
8480.13561 3.85570e-18
8481.83320 4.02624e-18
8483.53079 3.99393e-18
8485.22838 3.70127e-18
8486.92597 3.39112e-18
8488.62355 3.38461e-18
8490.32114 3.63897e-18
8492.01873 3.92965e-18
8493.71632 4.26342e-18
8495.41391 4.75452e-18
8497.11149 5.27010e-18
8498.80908 5.53011e-18
8500.50667 5.43104e-18
8502.20426 5.04027e-18
8503.90185 4.61561e-18
8505.59943 4.58860e-18
8507.29702 5.01349e-18
8508.99461 5.48524e-18
8510.69220 5.77980e-18
8512.38979 5.94757e-18
8514.08737 5.93919e-18
8515.78496 5.55306e-18
8517.49260 4.81486e-18
8519.19018 4.10228e-18
8520.87773 3.74022e-18
8522.58536 3.93674e-18
8524.27290 4.61382e-18
8525.98054 5.09038e-18
8527.67812 4.92246e-18
8529.37571 4.49047e-18
8531.07330 4.22460e-18
8532.77089 4.24570e-18
8534.46848 4.51901e-18
8536.16606 4.71108e-18
8537.86365 4.53686e-18
8539.56124 4.25735e-18
8541.25883 4.22934e-18
8542.95642 4.37534e-18
8544.65401 4.46417e-18
8546.35159 4.41804e-18
8548.04918 4.25112e-18
8549.74677 4.05625e-18
8551.44436 3.97274e-18
8553.14195 4.06275e-18
8554.83953 4.31253e-18
8556.53712 4.67481e-18
8558.23471 5.06771e-18
8559.93230 5.33811e-18
8561.62989 5.29186e-18
8563.32747 5.00738e-18
8565.02506 4.85780e-18
8566.72265 4.97526e-18
8568.42024 5.17316e-18
8570.11783 5.34900e-18
8571.81542 5.52792e-18
8573.51300 5.69741e-18
8575.21059 5.80676e-18
8576.90818 5.78506e-18
8578.60577 5.49692e-18
8580.30336 4.95861e-18
8582.00094 4.51397e-18
8583.69853 4.39379e-18
8585.39612 4.45073e-18
8587.09371 4.52755e-18
8588.79130 4.62556e-18
8590.48888 4.76890e-18
8592.18647 5.01406e-18
8593.88406 5.35048e-18
8595.58165 5.47248e-18
8597.27924 5.12130e-18
8598.97682 4.52274e-18
8600.67441 4.06005e-18
8602.37200 3.95712e-18
8604.07963 4.28117e-18
8605.76718 4.74540e-18
8607.47481 4.92374e-18
8609.17240 4.87471e-18
8610.86999 4.95303e-18
8612.56757 5.15677e-18
8614.26516 5.24137e-18
8615.96275 5.14180e-18
8617.66034 4.94553e-18
8619.35793 4.94019e-18
8621.05551 5.59219e-18
8622.75310 6.85467e-18
8624.45069 8.08708e-18
8626.14828 8.66541e-18
8627.84587 8.01434e-18
8629.54346 6.25365e-18
8631.24104 4.56070e-18
8632.93863 3.72415e-18
8634.63622 3.72080e-18
8636.33381 4.24607e-18
8638.03140 4.54862e-18
8639.72898 4.24550e-18
8641.42657 3.99477e-18
8643.12416 4.30529e-18
8644.82175 4.89954e-18
8646.51934 5.39390e-18
8648.21692 5.50555e-18
8649.91451 5.12273e-18
8651.61210 4.58904e-18
8653.30969 4.31196e-18
8655.00728 4.37080e-18
8656.70486 4.68842e-18
8658.40245 5.12934e-18
8660.10004 5.52848e-18
8661.79763 5.79921e-18
8663.49522 5.90986e-18
8665.19281 5.77357e-18
8666.89039 5.32323e-18
8668.58798 4.76341e-18
8670.28557 4.45848e-18
8671.98316 4.47334e-18
8673.68075 4.61468e-18
8675.37833 4.80232e-18
8677.07592 5.05650e-18
8678.77351 5.37472e-18
8680.47110 5.74658e-18
8682.16869 6.09894e-18
8683.86627 6.28304e-18
8685.56386 6.20123e-18
8687.26145 5.82383e-18
8688.96908 5.26118e-18
8690.66667 4.83501e-18
8692.36426 4.74480e-18
8694.06185 4.93689e-18
8695.75944 5.27504e-18
8697.45702 5.52920e-18
8699.15461 5.53872e-18
8700.85220 5.33862e-18
8702.54979 5.03952e-18
8704.24738 4.81185e-18
8705.94496 4.79528e-18
8707.64255 5.04706e-18
8709.34014 5.50503e-18
8711.03773 5.76703e-18
8712.73532 5.50149e-18
8714.43291 5.10911e-18
8716.13049 5.14106e-18
8717.82808 5.43549e-18
8719.52567 5.55467e-18
8721.22326 5.45188e-18
8722.92085 5.29831e-18
8724.61843 5.28478e-18
8726.31602 5.58396e-18
8728.01361 5.98376e-18
8729.71120 6.00161e-18
8731.40879 5.67780e-18
8733.10637 5.51464e-18
8734.80396 5.65153e-18
8736.50155 5.85415e-18
8738.19914 5.95613e-18
8739.89673 5.85967e-18
8741.59431 5.57211e-18
8743.29190 5.26218e-18
8744.98949 5.04877e-18
8746.68708 4.95331e-18
8748.38467 4.94786e-18
8750.08226 4.93090e-18
8751.77984 4.83498e-18
8753.47743 4.64716e-18
8755.17502 4.47103e-18
8756.87261 4.68669e-18
8758.57020 5.46475e-18
8760.26778 6.37221e-18
8761.96537 6.95189e-18
8763.66296 7.02015e-18
8765.36055 6.58382e-18
8767.05814 6.03721e-18
8768.75572 5.74350e-18
8770.45331 5.41785e-18
8772.16095 4.67822e-18
8773.85853 3.70910e-18
8775.55612 2.93826e-18
8777.25371 2.82917e-18
8778.95130 3.68734e-18
8780.64889 4.88876e-18
8782.34647 5.34752e-18
8784.04406 5.06333e-18
8785.74165 4.82190e-18
8787.43924 4.80978e-18
8789.13683 4.73589e-18
8790.83441 4.56977e-18
8792.53200 4.47847e-18
8794.22959 4.49199e-18
8795.92718 4.51777e-18
8797.62477 4.43410e-18
8799.32236 4.06757e-18
8801.01994 3.51424e-18
8802.71753 3.28704e-18
8804.41512 3.54928e-18
8806.11271 3.83160e-18
8807.81030 3.83268e-18
8809.50788 3.66245e-18
8811.20547 3.45589e-18
8812.90306 3.33078e-18
8814.60065 3.33270e-18
8816.29824 3.30005e-18
8817.99582 3.12205e-18
8819.69341 2.93409e-18
8821.39100 2.89065e-18
8823.08859 3.04169e-18
8824.78618 3.36695e-18
8826.48376 3.73625e-18
8828.18135 4.00098e-18
8829.87894 4.09369e-18
8831.57653 4.01688e-18
8833.27412 3.89454e-18
8834.97171 3.87999e-18
8836.66929 3.92272e-18
8838.36688 3.86991e-18
8840.06447 3.77639e-18
8841.76206 3.80966e-18
8843.45965 3.86487e-18
8845.15723 3.65831e-18
8846.85482 3.23344e-18
8848.55241 2.92450e-18
8850.25000 2.94335e-18
8851.94759 3.36479e-18
8853.65522 4.07308e-18
8855.34276 4.70277e-18
8857.05040 5.13834e-18
8858.74798 5.66445e-18
8860.44557 6.26741e-18
8862.14316 6.42842e-18
8863.84075 5.94364e-18
8865.53834 5.18351e-18
8867.23592 4.52604e-18
8868.93351 4.29056e-18
8870.63110 4.52817e-18
8872.32869 4.64515e-18
8874.02628 4.26798e-18
8875.72386 3.89678e-18
8877.42145 4.02951e-18
8879.11904 4.67417e-18
8880.81663 5.61173e-18
8882.51422 6.31312e-18
8884.21181 6.32869e-18
8885.90939 5.89120e-18
8887.60698 5.45264e-18
8889.30457 5.06011e-18
8891.00216 4.63850e-18
8892.69975 4.50232e-18
8894.39733 5.02789e-18
8896.09492 5.88986e-18
8897.79251 6.37590e-18
8899.49010 6.37368e-18
8901.18769 6.21974e-18
8902.88527 5.80208e-18
8904.58286 4.69842e-18
8906.28045 3.43589e-18
8907.97804 3.39786e-18
8909.67563 4.59675e-18
8911.37321 5.48710e-18
8913.07080 5.26625e-18
8914.76839 4.12493e-18
8916.46598 2.62289e-18
8918.16357 1.90768e-18
8919.86116 2.33195e-18
8921.55874 2.72921e-18
8923.25633 2.44402e-18
8924.95392 2.08005e-18
8926.65151 2.12676e-18
8928.34910 2.58699e-18
8930.04668 3.29796e-18
8931.74427 3.81369e-18
8933.44186 3.82861e-18
8935.14949 3.60377e-18
8936.83704 3.46079e-18
8938.53462 3.43423e-18
8940.24226 3.48235e-18
8941.93985 3.54099e-18
8943.63743 3.58310e-18
8945.33502 3.88839e-18
8947.03261 4.71073e-18
8948.73020 5.58103e-18
8950.42779 5.80414e-18
8952.12537 5.50511e-18
8953.82296 5.25092e-18
8955.52055 5.06579e-18
8957.21814 4.64264e-18
8958.91573 4.02409e-18
8960.61331 3.49865e-18
8962.31090 3.22360e-18
8964.00849 3.23265e-18
8965.70608 3.45774e-18
8967.40367 3.72029e-18
8969.10125 3.81048e-18
8970.79884 3.48706e-18
8972.49643 2.90515e-18
8974.19402 2.79674e-18
8975.89161 3.38865e-18
8977.58920 4.02901e-18
8979.28678 4.30482e-18
8980.98437 4.39938e-18
8982.68196 4.38561e-18
8984.37955 3.90988e-18
8986.07714 2.98461e-18
8987.77472 2.61368e-18
8989.47231 3.42059e-18
8991.16990 4.59882e-18
8992.86749 5.32072e-18
8994.56508 5.72318e-18
8996.26266 6.07910e-18
8997.96025 6.21704e-18
8999.65784 5.93746e-18
9001.35543 5.34692e-18
9003.05302 4.66175e-18
9004.75061 4.07744e-18
9006.44819 3.72340e-18
9008.14578 3.46671e-18
9009.84337 3.06338e-18
9011.54096 2.53209e-18
9013.23855 2.07789e-18
9014.93613 1.91735e-18
9016.63372 2.24390e-18
9018.33131 3.00092e-18
9020.02890 3.88596e-18
9021.72649 4.63364e-18
9023.43412 5.05152e-18
9025.13171 4.93051e-18
9026.82930 4.05356e-18
9028.52688 2.78465e-18
9030.22447 2.24816e-18
9031.92206 2.80714e-18
9033.61965 3.59496e-18
9035.31724 4.05379e-18
9037.01482 4.31379e-18
9038.71241 4.47935e-18
9040.41000 4.53910e-18
9042.10759 4.48188e-18
9043.80518 4.25132e-18
9045.50276 3.84980e-18
9047.20035 3.47489e-18
9048.89794 3.24650e-18
9050.59553 2.90209e-18
9052.29312 2.27175e-18
9053.99070 1.78545e-18
9055.68829 1.87337e-18
9057.38588 2.38714e-18
9059.08347 2.95812e-18
9060.78106 3.25882e-18
9062.47865 3.07366e-18
9064.17623 2.46706e-18
9065.87382 1.72512e-18
9067.57141 1.49104e-18
9069.26900 2.41076e-18
9070.96659 3.78595e-18
9072.66417 4.08545e-18
9074.36176 3.27136e-18
9076.05935 2.53891e-18
9077.75694 2.38540e-18
9079.45453 2.64933e-18
9081.15211 3.15561e-18
9082.84970 3.66039e-18
9084.54729 3.83101e-18
9086.24488 3.26421e-18
9087.94247 2.16863e-18
9089.64005 1.62849e-18
9091.33764 2.15602e-18
9093.03523 3.27184e-18
9094.73282 4.41135e-18
9096.43041 4.97257e-18
9098.12800 4.74781e-18
9099.82558 4.38797e-18
9101.52317 4.43708e-18
9103.22076 4.88420e-18
9104.92839 5.52699e-18
9106.62598 5.91701e-18
9108.32357 5.74236e-18
9110.01111 5.29529e-18
9111.71875 4.95202e-18
9113.41633 4.75392e-18
9115.11392 4.61506e-18
9116.81151 4.37125e-18
9118.50910 3.90254e-18
9120.20669 3.46536e-18
9121.90427 3.41917e-18
9123.60186 3.72492e-18
9125.29945 4.10473e-18
9126.99704 4.25378e-18
9128.69463 3.91847e-18
9130.39221 3.43340e-18
9132.08980 3.54363e-18
9133.78739 4.12970e-18
9135.48498 4.31330e-18
9137.18257 4.04934e-18
9138.88015 4.13521e-18
9140.57774 4.67694e-18
9142.27533 4.98236e-18
9143.97292 4.83128e-18
9145.67051 4.62289e-18
9147.36810 4.63880e-18
9149.06568 5.00154e-18
9150.76327 5.55132e-18
9152.46086 5.60109e-18
9154.15845 4.85116e-18
9155.85604 3.91945e-18
9157.55362 3.22933e-18
9159.25121 2.38108e-18
9160.94880 1.24529e-18
9162.64639 7.41726e-19
9164.34398 1.48379e-18
9166.04156 2.78394e-18
9167.73915 3.73841e-18
9169.43674 3.74463e-18
9171.13433 2.65333e-18
9172.83192 1.53628e-18
9174.52950 1.58064e-18
9176.22709 2.46367e-18
9177.92468 3.24831e-18
9179.62227 3.53385e-18
9181.31986 3.29647e-18
9183.01745 3.03379e-18
9184.71503 3.48598e-18
9186.42267 4.45339e-18
9188.11021 5.07157e-18
9189.81784 5.04583e-18
9191.50539 4.57992e-18
9193.21302 4.15435e-18
9194.91061 4.51995e-18
9196.60820 5.50761e-18
9198.30578 5.88781e-18
9200.00337 5.31887e-18
9201.70096 4.62056e-18
9203.39855 4.31692e-18
9205.09614 4.50360e-18
9206.79372 4.97292e-18
9208.49131 4.96649e-18
9210.18890 4.22022e-18
9211.88649 3.53832e-18
9213.58408 3.45394e-18
9215.28166 3.61104e-18
9216.97925 3.74994e-18
9218.67684 4.25445e-18
9220.37443 5.23585e-18
9222.07202 5.78155e-18
9223.76960 5.18061e-18
9225.46719 3.91161e-18
9227.16478 2.74722e-18
9228.86237 2.27307e-18
9230.55996 2.75956e-18
9232.25755 3.55344e-18
9233.95513 3.80706e-18
9235.65272 3.68725e-18
9237.35031 3.81903e-18
9239.04790 4.42704e-18
9240.74549 5.44663e-18
9242.44307 6.52167e-18
9244.14066 7.10458e-18
9245.83825 6.98359e-18
9247.53584 6.27661e-18
9249.23343 5.22439e-18
9250.93101 4.18794e-18
9252.62860 3.44392e-18
9254.32619 3.12235e-18
9256.02378 3.27906e-18
9257.72137 3.89296e-18
9259.41895 4.63199e-18
9261.11654 4.75697e-18
9262.81413 4.08835e-18
9264.51172 3.35076e-18
9266.20931 3.04569e-18
9267.91694 3.18735e-18
9269.60448 3.57978e-18
9271.31212 3.63340e-18
9272.99966 3.09591e-18
9274.70729 2.64728e-18
9276.40488 2.80461e-18
9278.10247 3.28964e-18
9279.80006 3.70093e-18
9281.49764 3.71500e-18
9283.19523 3.23267e-18
9284.89282 2.86467e-18
9286.59041 3.19945e-18
9288.28800 3.79676e-18
9289.98559 3.99817e-18
9291.68317 4.10933e-18
9293.38076 4.68570e-18
9295.07835 5.16038e-18
9296.77594 4.62835e-18
9298.47353 3.85475e-18
9300.17111 4.40675e-18
9301.86870 5.77415e-18
9303.56629 6.05467e-18
9305.26388 5.11179e-18
9306.96147 4.26922e-18
9308.65905 4.02218e-18
9310.35664 4.11373e-18
9312.05423 4.19096e-18
9313.75182 3.69037e-18
9315.44941 2.96860e-18
9317.14700 3.65485e-18
9318.84458 5.94113e-18
9320.54217 7.88099e-18
9322.23976 8.09711e-18
9323.93735 6.25940e-18
9325.63494 2.92098e-18
9327.33252 2.08603e-19
9329.03011 -6.41119e-19
9330.72770 -8.47647e-19
9332.42529 -1.42606e-18
9334.12288 -1.93918e-18
9335.82046 -1.81199e-18
9337.51805 -7.10558e-19
9339.21564 1.38941e-18
9340.91323 3.80541e-18
9342.61082 5.73111e-18
9344.30840 6.77560e-18
9346.00599 6.83134e-18
9347.70358 5.99698e-18
9349.41121 4.60410e-18
9351.09876 3.39906e-18
9352.80639 3.13306e-18
9354.49393 3.70309e-18
9356.20157 4.44742e-18
9357.89915 4.82077e-18
9359.59674 4.44264e-18
9361.29433 3.50090e-18
9362.99192 2.67400e-18
9364.68951 2.08636e-18
9366.38709 1.34072e-18
9368.08468 5.57845e-19
9369.78227 3.51909e-19
9371.47986 1.00958e-18
9373.17745 2.47618e-18
9374.87504 4.08334e-18
9376.57262 4.26445e-18
9378.27021 2.78963e-18
9379.96780 1.64879e-18
9381.66539 2.00098e-18
9383.36298 3.25177e-18
9385.06056 4.62798e-18
9386.75815 5.24246e-18
9388.45574 4.80413e-18
9390.15333 4.60609e-18
9391.85092 5.51016e-18
9393.54850 6.41228e-18
9395.24609 6.31407e-18
9396.94368 5.79505e-18
9398.64127 5.61811e-18
9400.33886 5.84043e-18
9402.03644 6.20220e-18
9403.73403 6.04846e-18
9405.43162 4.85086e-18
9407.12921 3.18937e-18
9408.82680 2.10626e-18
9410.52439 2.21069e-18
9412.22197 3.63960e-18
9413.91956 5.61922e-18
9415.61715 6.83339e-18
9417.31474 6.68636e-18
9419.01233 5.28755e-18
9420.70991 3.47444e-18
9422.40750 2.68509e-18
9424.10509 2.93529e-18
9425.80268 2.73767e-18
9427.50027 1.91504e-18
9429.19785 1.82907e-18
9430.89544 2.70830e-18
9432.59303 3.28222e-18
9434.29062 3.16872e-18
9435.98821 3.37196e-18
9437.69584 4.32622e-18
9439.39343 5.45046e-18
9441.09102 6.16016e-18
9442.78860 5.92369e-18
9444.48619 4.71771e-18
9446.18378 3.61115e-18
9447.88137 3.41028e-18
9449.57896 3.86368e-18
9451.27654 4.47911e-18
9452.97413 4.74661e-18
9454.67172 4.36695e-18
9456.36931 3.64116e-18
9458.06690 3.07282e-18
9459.76449 3.20567e-18
9461.46207 4.30713e-18
9463.15966 5.59145e-18
9464.85725 6.02275e-18
9466.55484 5.69340e-18
9468.25243 5.25601e-18
9469.95001 4.92515e-18
9471.64760 4.64491e-18
9473.34519 4.24739e-18
9475.04278 3.49867e-18
9476.74037 2.46850e-18
9478.43795 1.50228e-18
9480.13554 1.28735e-18
9481.83313 2.75684e-18
9483.53072 5.32738e-18
9485.22831 6.76954e-18
9486.92589 6.40110e-18
9488.62348 5.54388e-18
9490.32107 4.97354e-18
9492.01866 4.64151e-18
9493.71625 4.42672e-18
9495.41384 4.00032e-18
9497.11142 3.37222e-18
9498.80901 3.32021e-18
9500.50660 4.14118e-18
9502.20419 4.95168e-18
9503.90178 5.13722e-18
9505.59936 5.16612e-18
9507.29695 5.39365e-18
9508.99454 5.31903e-18
9510.69213 4.54544e-18
9512.38972 3.51201e-18
9514.08730 2.73839e-18
9515.78489 2.07707e-18
9517.48248 1.35974e-18
9519.19011 1.38518e-18
9520.88770 2.88373e-18
9522.58529 4.71172e-18
9524.28288 5.17987e-18
9525.98047 4.47488e-18
9527.67805 3.82023e-18
9529.37564 3.80944e-18
9531.07323 4.55142e-18
9532.77082 5.61145e-18
9534.46841 6.10937e-18
9536.16599 5.83154e-18
9537.86358 5.21482e-18
9539.56117 4.63536e-18
9541.25876 4.41270e-18
9542.95635 4.51037e-18
9544.65394 4.43418e-18
9546.35152 3.94140e-18
9548.04911 3.15643e-18
9549.74670 2.31117e-18
9551.44429 1.74121e-18
9553.14188 1.76996e-18
9554.83946 2.79608e-18
9556.53705 4.52716e-18
9558.23464 5.20385e-18
9559.93223 4.07188e-18
9561.62982 3.08144e-18
9563.32740 3.62718e-18
9565.02499 4.59327e-18
9566.72258 4.79050e-18
9568.42017 4.22679e-18
9570.11776 3.30718e-18
9571.81534 2.68813e-18
9573.51293 2.94720e-18
9575.21052 4.08655e-18
9576.90811 5.74878e-18
9578.60570 7.32555e-18
9580.30329 8.18418e-18
9582.00087 8.09573e-18
9583.69846 7.17355e-18
9585.39605 5.75723e-18
9587.09364 4.33718e-18
9588.79123 3.35557e-18
9590.48881 3.11729e-18
9592.18640 3.37743e-18
9593.88399 3.43913e-18
9595.58158 3.40705e-18
9597.27917 4.15829e-18
9598.97675 5.48438e-18
9600.67434 6.00082e-18
9602.38198 5.40890e-18
9604.07956 4.78852e-18
9605.76711 4.67796e-18
9607.47474 4.80201e-18
9609.17233 4.88516e-18
9610.86992 4.65845e-18
9612.56750 4.06033e-18
9614.26509 3.42767e-18
9615.96268 3.07997e-18
9617.66027 3.23023e-18
9619.35786 3.83991e-18
9621.05544 4.37609e-18
9622.75303 4.37406e-18
9624.45062 3.71325e-18
9626.14821 2.60322e-18
9627.84580 1.90886e-18
9629.54339 2.35722e-18
9631.24097 3.66154e-18
9632.93856 5.14210e-18
9634.63615 6.20669e-18
9636.33374 6.44122e-18
9638.03133 5.94406e-18
9639.72891 5.13176e-18
9641.42650 4.39354e-18
9643.12409 4.03383e-18
9644.82168 3.99668e-18
9646.51927 3.97339e-18
9648.21685 3.96258e-18
9649.91444 4.18485e-18
9651.61203 4.78755e-18
9653.30962 5.85636e-18
9655.00721 6.68894e-18
9656.70479 5.79176e-18
9658.40238 3.55837e-18
9660.09997 2.62398e-18
9661.79756 4.06853e-18
9663.49515 6.82007e-18
9665.19274 9.54141e-18
9666.89032 1.05681e-17
9668.58791 9.38189e-18
9670.28550 7.58775e-18
9671.98309 6.46114e-18
9673.68068 6.13907e-18
9675.37826 6.37657e-18
9677.07585 6.43850e-18
9678.77344 5.73055e-18
9680.47103 4.20859e-18
9682.16862 2.22708e-18
9683.86620 8.41120e-19
9685.56379 8.52225e-19
9687.26138 1.77656e-18
9688.96901 2.73383e-18
9690.66660 3.04116e-18
9692.36419 2.37209e-18
9694.06178 1.48206e-18
9695.75937 1.41630e-18
9697.45695 1.95085e-18
9699.15454 2.22610e-18
9700.85213 2.00395e-18
9702.54972 1.46873e-18
9704.24731 1.02335e-18
9705.94489 1.21054e-18
9707.64248 1.93979e-18
9709.34007 2.56061e-18
9711.03766 2.77082e-18
9712.73525 2.62144e-18
9714.43283 2.36486e-18
9716.13042 2.50355e-18
9717.82801 3.07607e-18
9719.52560 3.50070e-18
9721.22319 3.42974e-18
9722.92078 2.85683e-18
9724.61836 2.06940e-18
9726.31595 1.84672e-18
9728.01354 2.49798e-18
9729.71113 3.37389e-18
9731.40872 3.91982e-18
9733.10630 4.00741e-18
9734.80389 3.73365e-18
9736.50148 3.59233e-18
9738.19907 3.91541e-18
9739.89666 4.42402e-18
9741.59424 4.70449e-18
9743.29183 4.29130e-18
9744.98942 3.04533e-18
9746.68701 2.03197e-18
9748.38460 2.29283e-18
9750.08219 3.07840e-18
9751.77977 3.11120e-18
9753.47736 2.25337e-18
9755.17495 1.05108e-18
9756.87254 5.24042e-19
9758.57013 1.71167e-18
9760.26771 3.84578e-18
9761.96530 4.97597e-18
9763.66289 4.45255e-18
9765.36048 2.78183e-18
9767.05807 1.06489e-18
9768.75565 9.41845e-19
9770.45324 2.43708e-18
9772.16088 3.75602e-18
9773.85846 4.21004e-18
9775.55605 4.50001e-18
9777.25364 5.03294e-18
9778.95123 5.84864e-18
9780.64882 6.80203e-18
9782.34640 7.43775e-18
9784.04399 7.40425e-18
9785.74158 6.54274e-18
9787.43917 5.04190e-18
9789.13676 3.74092e-18
9790.83434 3.15123e-18
9792.53193 2.83187e-18
9794.22952 2.33805e-18
9795.92711 1.61340e-18
9797.62470 8.15721e-19
9799.32228 5.86691e-19
9801.01987 1.32504e-18
9802.71746 2.13922e-18
9804.41505 2.09708e-18
9806.11264 1.76490e-18
9807.81023 2.06855e-18
9809.50781 2.93028e-18
9811.20540 3.78249e-18
9812.90299 3.96046e-18
9814.60058 2.94360e-18
9816.29817 1.42941e-18
9817.99575 8.12328e-19
9819.69334 1.22504e-18
9821.39093 1.82753e-18
9823.08852 2.35121e-18
9824.78611 2.97924e-18
9826.48369 3.48706e-18
9828.18128 3.33240e-18
9829.87887 2.70640e-18
9831.57646 2.60030e-18
9833.27405 3.39272e-18
9834.97163 4.66166e-18
9836.66922 5.82849e-18
9838.36681 6.09767e-18
9840.06440 5.27311e-18
9841.76199 4.21595e-18
9843.45958 3.56814e-18
9845.15716 3.33932e-18
9846.85475 3.40232e-18
9848.55234 3.48690e-18
9850.24993 3.40048e-18
9851.94752 3.29625e-18
9853.65515 3.27743e-18
9855.34269 3.03901e-18
9857.05033 2.38565e-18
9858.74791 1.80419e-18
9860.44550 1.75839e-18
9862.14309 1.76220e-18
9863.84068 1.28022e-18
9865.53827 1.17472e-18
9867.23585 2.49372e-18
9868.93344 4.14198e-18
9870.63103 4.34435e-18
9872.32862 4.07447e-18
9874.02621 5.56706e-18
9875.72379 8.11594e-18
9877.42138 9.12180e-18
9879.11897 7.43339e-18
9880.81656 3.22074e-18
9882.51415 -1.52088e-18
9884.21173 -3.13169e-18
9885.90932 -1.18552e-18
9887.60691 1.11646e-18
9889.30450 1.94575e-18
9891.00209 1.20022e-18
9892.69968 -2.86972e-19
9894.39726 -2.05464e-19
9896.09485 2.05018e-18
9897.79244 4.15150e-18
9899.49003 4.46860e-18
9901.18762 2.91662e-18
9902.88520 1.96819e-19
9904.58279 -1.65141e-18
9906.28038 -1.41993e-18
9907.97797 -3.35163e-19
9909.67556 3.59817e-19
9911.37314 6.63103e-19
9913.07073 8.57356e-19
9914.76832 1.25503e-18
9916.46591 2.06642e-18
9918.16350 3.08032e-18
9919.86108 3.92853e-18
9921.55867 4.27711e-18
9923.25626 3.94389e-18
9924.95385 3.18133e-18
9926.65144 2.45647e-18
9928.34903 2.18221e-18
9930.04661 2.58909e-18
9931.74420 3.09692e-18
9933.44179 2.70722e-18
9935.14942 1.68338e-18
9936.83697 1.21586e-18
9938.54460 1.48384e-18
9940.23214 1.79302e-18
9941.93978 1.76845e-18
9943.63736 1.31337e-18
9945.33495 6.67582e-19
9947.03254 5.37188e-19
9948.73013 8.38177e-19
9950.42772 3.63737e-19
9952.12530 -1.09042e-18
9953.82289 -2.16467e-18
9955.52048 -2.03111e-18
9957.21807 -9.17434e-19
9958.91566 8.25067e-19
9960.61324 2.79003e-18
9962.31083 4.63674e-18
9964.00842 6.38827e-18
9965.70601 7.86616e-18
9967.40360 8.16761e-18
9969.10118 6.78250e-18
9970.79877 4.41213e-18
9972.49636 2.10097e-18
9974.19395 9.05886e-19
9975.89154 1.42667e-18
9977.58913 2.92214e-18
9979.28671 4.19694e-18
9980.98430 4.66361e-18
9982.68189 4.15689e-18
9984.37948 2.80886e-18
9986.07707 1.05102e-18
9987.77465 -4.70136e-19
9989.47224 -1.09784e-18
9991.16983 -5.38464e-19
9992.86742 1.08651e-18
9994.56501 2.69780e-18
9996.26259 2.57209e-18
9997.96018 1.16143e-18
9999.65777 9.87381e-19
