# wavelength flux
3492.02637 2.69198e-17
3494.14997 2.62174e-17
3496.27358 2.55153e-17
3498.38717 2.48437e-17
3500.51077 2.41723e-17
3502.62436 2.50619e-17
3504.74796 2.59513e-17
3506.86155 2.51561e-17
3508.98515 2.43613e-17
3511.10876 2.36646e-17
3513.22234 2.29681e-17
3515.34595 2.38305e-17
3517.45953 2.46927e-17
3519.58314 2.51742e-17
3521.69672 2.56555e-17
3523.82033 2.46981e-17
3525.94393 2.37411e-17
3528.05752 2.38811e-17
3530.18112 2.40210e-17
3532.29471 2.42813e-17
3534.41831 2.45416e-17
3536.53190 2.43111e-17
3538.65551 2.40807e-17
3540.77911 2.30227e-17
3542.89270 2.19651e-17
3545.01630 2.18844e-17
3547.12989 2.18037e-17
3549.25349 2.16360e-17
3551.36708 2.14684e-17
3553.49068 2.16143e-17
3555.61429 2.17602e-17
3557.72787 2.23007e-17
3559.85148 2.28411e-17
3561.96506 2.30256e-17
3564.08867 2.32100e-17
3566.20226 2.26509e-17
3568.32586 2.20920e-17
3570.44946 2.24182e-17
3572.56305 2.27443e-17
3574.68665 2.29463e-17
3576.80024 2.31482e-17
3578.92385 2.26244e-17
3581.03743 2.21008e-17
3583.16104 2.25911e-17
3585.28464 2.30813e-17
3587.39823 2.27479e-17
3589.52183 2.24147e-17
3591.63542 2.26230e-17
3593.75902 2.28313e-17
3595.87261 2.21723e-17
3597.99621 2.15135e-17
3600.11982 2.15155e-17
3602.23340 2.15175e-17
3604.35701 2.10421e-17
3606.47060 2.05669e-17
3608.59420 2.05582e-17
3610.70779 2.05494e-17
3612.83139 2.09564e-17
3614.95499 2.13633e-17
3617.06858 2.17642e-17
3619.19219 2.21649e-17
3621.30577 2.20277e-17
3623.42938 2.18905e-17
3625.54296 2.20765e-17
3627.66657 2.22625e-17
3629.79017 2.25294e-17
3631.90376 2.27963e-17
3634.02736 2.23719e-17
3636.14095 2.19475e-17
3638.26455 2.16190e-17
3640.37814 2.12905e-17
3642.50174 2.17504e-17
3644.62535 2.22101e-17
3646.73894 2.19967e-17
3648.86254 2.17834e-17
3650.97613 2.16816e-17
3653.09973 2.15799e-17
3655.21332 2.09105e-17
3657.33692 2.02413e-17
3659.46052 2.07121e-17
3661.57411 2.11828e-17
3663.69772 2.12235e-17
3665.81130 2.12642e-17
3667.93491 2.07284e-17
3670.04849 2.01928e-17
3672.17210 2.02719e-17
3674.29570 2.03510e-17
3676.40929 2.04191e-17
3678.53289 2.04871e-17
3680.64648 1.99561e-17
3682.77008 1.94252e-17
3684.88367 1.91519e-17
3687.00727 1.88788e-17
3689.13088 1.94448e-17
3691.24447 2.00107e-17
3693.36807 1.95244e-17
3695.48166 1.90383e-17
3697.60526 1.91550e-17
3699.71885 1.92717e-17
3701.84245 1.91368e-17
3703.96606 1.90019e-17
3706.07964 1.89256e-17
3708.20325 1.88493e-17
3710.31683 1.88558e-17
3712.44044 1.88624e-17
3714.55402 1.88015e-17
3716.67763 1.87406e-17
3718.80123 1.86498e-17
3720.91482 1.85589e-17
3723.03842 1.84681e-17
3725.15201 1.83773e-17
3727.27562 1.82866e-17
3729.38920 1.81958e-17
3731.51281 1.81052e-17
3733.63641 1.80145e-17
3735.75000 1.79239e-17
3737.87360 1.78333e-17
3739.98719 1.77428e-17
3742.11079 1.76522e-17
3744.22438 1.75617e-17
3746.34798 1.74713e-17
3748.47159 1.73808e-17
3750.58517 1.72905e-17
3752.70878 1.72001e-17
3754.82236 1.71097e-17
3756.94597 1.70405e-17
3759.05956 1.69712e-17
3761.18316 1.66449e-17
3763.30676 1.63188e-17
3765.42035 1.61430e-17
3767.54396 1.59673e-17
3769.65754 1.58967e-17
3771.78115 1.58262e-17
3773.89473 1.61293e-17
3776.01834 1.64323e-17
3778.14194 1.63695e-17
3780.25553 1.63068e-17
3782.37913 1.61240e-17
3784.49272 1.59412e-17
3786.61632 1.56882e-17
3788.72991 1.54352e-17
3790.85351 1.54067e-17
3792.97712 1.53783e-17
3795.09071 1.54754e-17
3797.21431 1.55724e-17
3799.32790 1.55246e-17
3801.45150 1.54769e-17
3803.56509 1.55571e-17
3805.68869 1.56372e-17
3807.81230 1.58694e-17
3809.92588 1.61014e-17
3812.04949 1.63035e-17
3814.16307 1.65054e-17
3816.28668 1.66790e-17
3818.40026 1.68525e-17
3820.52387 1.73448e-17
3822.64747 1.78371e-17
3824.76106 1.81784e-17
3826.88466 1.85197e-17
3828.99825 1.89890e-17
3831.12185 1.94581e-17
3833.23544 1.96661e-17
3835.35905 1.98740e-17
3837.48265 2.00245e-17
3839.59624 2.01750e-17
3841.71984 2.03918e-17
3843.83343 2.06085e-17
3845.95703 2.12818e-17
3848.07062 2.19549e-17
3850.19422 2.21358e-17
3852.31783 2.23167e-17
3854.43141 2.27350e-17
3856.55502 2.31532e-17
3858.66860 2.31769e-17
3860.79221 2.32007e-17
3862.90580 2.33632e-17
3865.02940 2.35257e-17
3867.15300 2.37817e-17
3869.26659 2.40376e-17
3871.39019 2.42196e-17
3873.50378 2.44015e-17
3875.62739 2.48802e-17
3877.74097 2.53589e-17
3879.86458 2.57257e-17
3881.98818 2.60923e-17
3884.10177 2.61737e-17
3886.22537 2.62551e-17
3888.33896 2.64403e-17
3890.46256 2.66255e-17
3892.57615 2.71340e-17
3894.69975 2.76423e-17
3896.82336 2.76295e-17
3898.93694 2.76168e-17
3901.06055 2.76029e-17
3903.17414 2.75891e-17
3905.29774 2.79092e-17
3907.41133 2.82292e-17
3909.53493 2.81462e-17
3911.65853 2.80631e-17
3913.77212 2.83417e-17
3915.89573 2.86203e-17
3918.00931 2.88668e-17
3920.13292 2.91133e-17
3922.24650 2.90603e-17
3924.37011 2.90073e-17
3926.49371 2.88646e-17
3928.60730 2.87220e-17
3930.73090 2.87878e-17
3932.84449 2.88535e-17
3934.96809 2.88380e-17
3937.08168 2.88226e-17
3939.20528 2.90215e-17
3941.32889 2.92203e-17
3943.44248 2.94970e-17
3945.56608 2.97737e-17
3947.67967 2.99621e-17
3949.80327 3.01504e-17
3951.91686 3.02276e-17
3954.04046 3.03048e-17
3956.16406 3.04540e-17
3958.27765 3.06032e-17
3960.40126 3.04929e-17
3962.51484 3.03827e-17
3964.63845 2.99190e-17
3966.75203 2.94553e-17
3968.87564 2.91829e-17
3970.99924 2.89106e-17
3973.11283 2.88958e-17
3975.23643 2.88811e-17
3977.35002 2.91195e-17
3979.47362 2.93578e-17
3981.58721 2.93481e-17
3983.71081 2.93384e-17
3985.83442 2.93065e-17
3987.94801 2.92746e-17
3990.07161 2.89915e-17
3992.18520 2.87084e-17
3994.30880 2.83752e-17
3996.42239 2.80421e-17
3998.54599 2.79488e-17
4000.66960 2.78556e-17
4002.78318 2.75937e-17
4004.90679 2.73318e-17
4007.02037 2.72446e-17
4009.14398 2.71574e-17
4011.25756 2.72031e-17
4013.38117 2.72489e-17
4015.50477 2.70718e-17
4017.61836 2.68947e-17
4019.74196 2.66924e-17
4021.85555 2.64902e-17
4023.97916 2.62685e-17
4026.09274 2.60468e-17
4028.21635 2.59608e-17
4030.33995 2.58749e-17
4032.45354 2.54072e-17
4034.57714 2.49397e-17
4036.69073 2.49370e-17
4038.81433 2.49344e-17
4040.92792 2.49926e-17
4043.05152 2.50508e-17
4045.17513 2.50267e-17
4047.28871 2.50026e-17
4049.41232 2.51298e-17
4051.52591 2.52570e-17
4053.64951 2.49107e-17
4055.76310 2.45644e-17
4057.88670 2.45700e-17
4060.01030 2.45756e-17
4062.12389 2.46763e-17
4064.24750 2.47769e-17
4066.36108 2.46719e-17
4068.48469 2.45668e-17
4070.59827 2.44482e-17
4072.72188 2.43296e-17
4074.84548 2.42121e-17
4076.95907 2.40946e-17
4079.08267 2.41333e-17
4081.19626 2.41719e-17
4083.31986 2.40341e-17
4085.43345 2.38963e-17
4087.55705 2.38421e-17
4089.68066 2.37878e-17
4091.79425 2.37989e-17
4093.91785 2.38100e-17
4096.03144 2.37587e-17
4098.15504 2.37075e-17
4100.26863 2.35411e-17
4102.39223 2.33748e-17
4104.51584 2.34688e-17
4106.62942 2.35628e-17
4108.75303 2.36173e-17
4110.86661 2.36719e-17
4112.99022 2.35989e-17
4115.10380 2.35259e-17
4117.22741 2.35276e-17
4119.35101 2.35293e-17
4121.46460 2.33636e-17
4123.58820 2.31980e-17
4125.70179 2.30323e-17
4127.82539 2.28666e-17
4129.94900 2.27804e-17
4132.06259 2.26942e-17
4134.18619 2.25587e-17
4136.29978 2.24233e-17
4138.42338 2.21124e-17
4140.53697 2.18015e-17
4142.66057 2.16300e-17
4144.77416 2.14585e-17
4146.89776 2.15817e-17
4149.02137 2.17049e-17
4151.13495 2.17839e-17
4153.25856 2.18629e-17
4155.37214 2.19424e-17
4157.49575 2.20219e-17
4159.60934 2.23525e-17
4161.73294 2.26831e-17
4163.85654 2.28994e-17
4165.97013 2.31158e-17
4168.09373 2.31779e-17
4170.20732 2.32400e-17
4172.33093 2.33914e-17
4174.44451 2.35428e-17
4176.56812 2.36082e-17
4178.69172 2.36735e-17
4180.80531 2.36754e-17
4182.92891 2.36773e-17
4185.04250 2.37817e-17
4187.16610 2.38862e-17
4189.27969 2.38502e-17
4191.40329 2.38143e-17
4193.52690 2.38469e-17
4195.64048 2.38795e-17
4197.76409 2.39653e-17
4199.87767 2.40511e-17
4202.00128 2.38185e-17
4204.11487 2.35859e-17
4206.23847 2.34122e-17
4208.36207 2.32386e-17
4210.47566 2.31809e-17
4212.59926 2.31232e-17
4214.71285 2.30520e-17
4216.83646 2.29809e-17
4218.95004 2.29798e-17
4221.07365 2.29787e-17
4223.19725 2.29842e-17
4225.31084 2.29897e-17
4227.43444 2.30358e-17
4229.54803 2.30819e-17
4231.67163 2.30164e-17
4233.78522 2.29509e-17
4235.90882 2.26410e-17
4238.03243 2.23311e-17
4240.14602 2.23706e-17
4242.26962 2.24101e-17
4244.38321 2.23564e-17
4246.50681 2.23027e-17
4248.63041 2.23078e-17
4250.74400 2.23129e-17
4252.86760 2.24264e-17
4254.98119 2.25399e-17
4257.10480 2.24664e-17
4259.21838 2.23929e-17
4261.34199 2.25023e-17
4263.45557 2.26117e-17
4265.57918 2.25052e-17
4267.70278 2.23987e-17
4269.81637 2.24389e-17
4271.93997 2.24790e-17
4274.05356 2.25675e-17
4276.17716 2.26559e-17
4278.29075 2.25925e-17
4280.41435 2.25290e-17
4282.53796 2.25410e-17
4284.65155 2.25530e-17
4286.77515 2.26157e-17
4288.88874 2.26784e-17
4291.01234 2.26026e-17
4293.12593 2.25269e-17
4295.24953 2.24031e-17
4297.37314 2.22793e-17
4299.48672 2.20533e-17
4301.61033 2.18274e-17
4303.72391 2.17450e-17
4305.84752 2.16625e-17
4307.96110 2.17766e-17
4310.08471 2.18907e-17
4312.20831 2.17541e-17
4314.32190 2.16176e-17
4316.44550 2.14988e-17
4318.55909 2.13801e-17
4320.68270 2.13048e-17
4322.79628 2.12296e-17
4324.91989 2.10454e-17
4327.04349 2.08613e-17
4329.15708 2.05705e-17
4331.28068 2.02798e-17
4333.39427 2.01727e-17
4335.51787 2.00656e-17
4337.63146 1.99868e-17
4339.75506 1.99081e-17
4341.87867 1.97405e-17
4343.99225 1.95729e-17
4346.11586 1.94484e-17
4348.22945 1.93240e-17
4350.35305 1.93601e-17
4352.46664 1.93963e-17
4354.59024 1.94070e-17
4356.71384 1.94177e-17
4358.82743 1.94284e-17
4360.95104 1.94392e-17
4363.06462 1.94499e-17
4365.18823 1.94606e-17
4367.31183 1.94713e-17
4369.42542 1.94820e-17
4371.54902 1.94926e-17
4373.66261 1.95033e-17
4375.78621 1.95140e-17
4377.89980 1.95247e-17
4380.02340 1.95353e-17
4382.14701 1.95460e-17
4384.26059 1.95567e-17
4386.38420 1.95673e-17
4388.49779 1.95780e-17
4390.62139 1.95886e-17
4392.73498 1.95787e-17
4394.85858 1.95687e-17
4396.97217 1.96287e-17
4399.09577 1.96886e-17
4401.21938 1.97138e-17
4403.33296 1.97389e-17
4405.45657 1.98291e-17
4407.57015 1.99193e-17
4409.69376 1.98592e-17
4411.81736 1.97991e-17
4413.93095 1.97327e-17
4416.05455 1.96664e-17
4418.16814 1.97025e-17
4420.29174 1.97386e-17
4422.40533 1.98071e-17
4424.52893 1.98755e-17
4426.64252 1.99478e-17
4428.76613 2.00200e-17
4430.88973 2.01865e-17
4433.00332 2.03530e-17
4435.12692 2.04064e-17
4437.24051 2.04598e-17
4439.36411 2.04469e-17
4441.47770 2.04339e-17
4443.60130 2.06503e-17
4445.72491 2.08667e-17
4447.83849 2.10912e-17
4449.96210 2.13157e-17
4452.07568 2.13998e-17
4454.19929 2.14839e-17
4456.31288 2.15960e-17
4458.43648 2.17080e-17
4460.56008 2.19312e-17
4462.67367 2.21544e-17
4464.79727 2.21930e-17
4466.91086 2.22316e-17
4469.03446 2.21925e-17
4471.14805 2.21534e-17
4473.27166 2.22794e-17
4475.39526 2.24054e-17
4477.50885 2.24540e-17
4479.63245 2.25024e-17
4481.74604 2.24194e-17
4483.86964 2.23363e-17
4485.99325 2.24756e-17
4488.10683 2.26149e-17
4490.23044 2.28159e-17
4492.34402 2.30168e-17
4494.46763 2.31938e-17
4496.58122 2.33708e-17
4498.70482 2.35557e-17
4500.82842 2.37405e-17
4502.94201 2.37816e-17
4505.06561 2.38226e-17
4507.17920 2.38872e-17
4509.30280 2.39518e-17
4511.41639 2.41229e-17
4513.54000 2.42940e-17
4515.65358 2.43397e-17
4517.77719 2.43853e-17
4519.90079 2.43900e-17
4522.01438 2.43947e-17
4524.13798 2.44494e-17
4526.25157 2.45041e-17
4528.37517 2.46763e-17
4530.49878 2.48484e-17
4532.61236 2.50598e-17
4534.73597 2.52711e-17
4536.84955 2.53271e-17
4538.97316 2.53831e-17
4541.08675 2.53973e-17
4543.21035 2.54114e-17
4545.32394 2.56472e-17
4547.44754 2.58830e-17
4549.57115 2.61343e-17
4551.68473 2.63855e-17
4553.80834 2.64328e-17
4555.92192 2.64802e-17
4558.04553 2.65653e-17
4560.15911 2.66505e-17
4562.28272 2.66835e-17
4564.40632 2.67165e-17
4566.51991 2.66339e-17
4568.64351 2.65514e-17
4570.75710 2.65544e-17
4572.88070 2.65574e-17
4574.99429 2.64442e-17
4577.11790 2.63310e-17
4579.24150 2.63036e-17
4581.35509 2.62763e-17
4583.47869 2.62410e-17
4585.59228 2.62057e-17
4587.71588 2.60522e-17
4589.82947 2.58988e-17
4591.95307 2.58806e-17
4594.07668 2.58625e-17
4596.19026 2.58691e-17
4598.31387 2.58757e-17
4600.42745 2.58725e-17
4602.55106 2.58693e-17
4604.66465 2.59270e-17
4606.78825 2.59847e-17
4608.91185 2.58545e-17
4611.02544 2.57243e-17
4613.14904 2.56243e-17
4615.26263 2.55242e-17
4617.38623 2.56972e-17
4619.50984 2.58702e-17
4621.62343 2.58239e-17
4623.74703 2.57777e-17
4625.86062 2.57015e-17
4627.98422 2.56253e-17
4630.09781 2.55719e-17
4632.22141 2.55185e-17
4634.34502 2.55052e-17
4636.45860 2.54920e-17
4638.58221 2.54199e-17
4640.69579 2.53478e-17
4642.81940 2.52837e-17
4644.93299 2.52197e-17
4647.05659 2.51059e-17
4649.18019 2.49921e-17
4651.29378 2.48410e-17
4653.41738 2.46898e-17
4655.53097 2.45510e-17
4657.65458 2.44122e-17
4659.76816 2.42770e-17
4661.89177 2.41419e-17
4664.01537 2.39881e-17
4666.12896 2.38343e-17
4668.25256 2.36401e-17
4670.36615 2.34459e-17
4672.48975 2.32857e-17
4674.60334 2.31255e-17
4676.72694 2.29910e-17
4678.84053 2.28565e-17
4680.96413 2.26192e-17
4683.08774 2.23821e-17
4685.20132 2.22114e-17
4687.32493 2.20407e-17
4689.43852 2.19472e-17
4691.56212 2.18537e-17
4693.68572 2.17087e-17
4695.79931 2.15637e-17
4697.92292 2.13985e-17
4700.03650 2.12333e-17
4702.16011 2.10775e-17
4704.27369 2.09216e-17
4706.39730 2.07279e-17
4708.51088 2.05342e-17
4710.63449 2.04231e-17
4712.75809 2.03121e-17
4714.87168 2.01727e-17
4716.99528 2.00335e-17
4719.10887 1.98586e-17
4721.23247 1.96838e-17
4723.35608 1.95031e-17
4725.46966 1.93225e-17
4727.59327 1.92628e-17
4729.70686 1.92031e-17
4731.83046 1.90906e-17
4733.94405 1.89781e-17
4736.06765 1.87220e-17
4738.19125 1.84661e-17
4740.30484 1.83077e-17
4742.42845 1.81494e-17
4744.54203 1.80570e-17
4746.66564 1.79646e-17
4748.77922 1.78639e-17
4750.90283 1.77632e-17
4753.02643 1.76618e-17
4755.14002 1.75605e-17
4757.26362 1.74748e-17
4759.37721 1.73892e-17
4761.50081 1.72902e-17
4763.61440 1.71912e-17
4765.73801 1.72161e-17
4767.86161 1.72410e-17
4769.97520 1.72626e-17
4772.09880 1.72842e-17
4774.21239 1.73188e-17
4776.33599 1.73534e-17
4778.44958 1.73800e-17
4780.57318 1.74066e-17
4782.69679 1.74596e-17
4784.81037 1.75126e-17
4786.93398 1.75990e-17
4789.04756 1.76853e-17
4791.17117 1.76596e-17
4793.28475 1.76339e-17
4795.40836 1.76812e-17
4797.52195 1.77286e-17
4799.64555 1.77418e-17
4801.76915 1.77551e-17
4803.88274 1.77234e-17
4806.00635 1.76917e-17
4808.11993 1.77094e-17
4810.24354 1.77272e-17
4812.36714 1.75579e-17
4814.48073 1.73887e-17
4816.60433 1.72980e-17
4818.71792 1.72074e-17
4820.84152 1.71526e-17
4822.95511 1.70977e-17
4825.07871 1.70645e-17
4827.19230 1.70313e-17
4829.31590 1.69920e-17
4831.43951 1.69526e-17
4833.55310 1.69601e-17
4835.67670 1.69676e-17
4837.79029 1.69307e-17
4839.91389 1.68939e-17
4842.03749 1.69460e-17
4844.15108 1.69981e-17
4846.27469 1.70755e-17
4848.38827 1.71529e-17
4850.51188 1.71545e-17
4852.62546 1.72482e-17
4854.74907 1.73418e-17
4856.86265 1.74354e-17
4858.98626 1.75290e-17
4861.10986 1.76226e-17
4863.22345 1.77162e-17
4865.34705 1.78097e-17
4867.46064 1.79032e-17
4869.58424 1.79967e-17
4871.70785 1.80902e-17
4873.82144 1.81836e-17
4875.94504 1.82770e-17
4878.05863 1.83705e-17
4880.18223 1.84638e-17
4882.29582 1.85572e-17
4884.41942 1.86505e-17
4886.54302 1.87438e-17
4888.65661 1.88371e-17
4890.78022 1.89449e-17
4892.89380 1.88554e-17
4895.01741 1.87659e-17
4897.13099 1.87345e-17
4899.25460 1.87030e-17
4901.37820 1.87082e-17
4903.49179 1.87134e-17
4905.61539 1.87632e-17
4907.72898 1.88130e-17
4909.85258 1.87821e-17
4911.96617 1.87513e-17
4914.08978 1.87776e-17
4916.21338 1.88039e-17
4918.32697 1.87465e-17
4920.45057 1.86890e-17
4922.56416 1.86655e-17
4924.68776 1.86420e-17
4926.80135 1.87181e-17
4928.92495 1.87942e-17
4931.04856 1.87302e-17
4933.16214 1.86663e-17
4935.28575 1.86368e-17
4937.39933 1.86074e-17
4939.52294 1.85312e-17
4941.63652 1.84550e-17
4943.76013 1.84088e-17
4945.88373 1.83625e-17
4947.99732 1.82374e-17
4950.12092 1.81584e-17
4952.23451 1.80795e-17
4954.35811 1.80005e-17
4956.47170 1.79216e-17
4958.59531 1.78427e-17
4960.71891 1.77638e-17
4962.83250 1.76849e-17
4964.95610 1.76061e-17
4967.06969 1.75273e-17
4969.19329 1.74485e-17
4971.30688 1.73697e-17
4973.43048 1.72909e-17
4975.55409 1.72121e-17
4977.66767 1.71334e-17
4979.79128 1.70547e-17
4981.90487 1.69760e-17
4984.02847 1.68973e-17
4986.14206 1.68187e-17
4988.26566 1.68011e-17
4990.38926 1.67194e-17
4992.50285 1.66378e-17
4994.62645 1.64521e-17
4996.74004 1.62664e-17
4998.86365 1.63617e-17
5000.97723 1.64570e-17
5003.10084 1.65522e-17
5005.22444 1.66474e-17
5007.33803 1.67426e-17
5009.46163 1.68378e-17
5011.57522 1.69330e-17
5013.69882 1.70281e-17
5015.81241 1.71232e-17
5017.93601 1.72183e-17
5020.05962 1.73134e-17
5022.17321 1.74084e-17
5024.29681 1.75035e-17
5026.41040 1.75985e-17
5028.53400 1.76935e-17
5030.64759 1.77884e-17
5032.77119 1.78834e-17
5034.89480 1.79783e-17
5037.00838 1.81661e-17
5039.13199 1.83538e-17
5041.24557 1.83901e-17
5043.36918 1.84265e-17
5045.48276 1.84824e-17
5047.60637 1.85382e-17
5049.72997 1.85792e-17
5051.84356 1.86201e-17
5053.96716 1.86530e-17
5056.08075 1.86859e-17
5058.20435 1.86240e-17
5060.31794 1.85622e-17
5062.44155 1.84770e-17
5064.56515 1.83919e-17
5066.67874 1.83693e-17
5068.80234 1.83467e-17
5070.91593 1.84355e-17
5073.03953 1.85243e-17
5075.15312 1.85734e-17
5077.27672 1.86225e-17
5079.40033 1.86979e-17
5081.51391 1.87732e-17
5083.63752 1.87482e-17
5085.75110 1.87231e-17
5087.87471 1.86900e-17
5089.98830 1.86569e-17
5092.11190 1.86800e-17
5094.23550 1.87031e-17
5096.34909 1.86476e-17
5098.47269 1.85920e-17
5100.58628 1.85852e-17
5102.70989 1.85784e-17
5104.82347 1.86357e-17
5106.94708 1.86930e-17
5109.07068 1.87759e-17
5111.18427 1.88588e-17
5113.30787 1.88638e-17
5115.42146 1.88689e-17
5117.54506 1.89292e-17
5119.65865 1.89895e-17
5121.78225 1.90259e-17
5123.90586 1.90623e-17
5126.01944 1.90200e-17
5128.14305 1.89777e-17
5130.25664 1.90314e-17
5132.38024 1.90851e-17
5134.49383 1.91239e-17
5136.61743 1.91626e-17
5138.74103 1.92275e-17
5140.85462 1.92924e-17
5142.97822 1.93104e-17
5145.09181 1.93284e-17
5147.21542 1.93357e-17
5149.32900 1.93431e-17
5151.45261 1.94706e-17
5153.57621 1.95980e-17
5155.68980 1.96768e-17
5157.81340 1.97555e-17
5159.92699 1.98588e-17
5162.05059 1.99620e-17
5164.16418 2.00768e-17
5166.28778 2.01915e-17
5168.41139 2.03378e-17
5170.52498 2.04841e-17
5172.64858 2.05790e-17
5174.76217 2.06739e-17
5176.88577 2.06482e-17
5178.99936 2.06225e-17
5181.12296 2.07359e-17
5183.24657 2.08493e-17
5185.36015 2.10023e-17
5187.48376 2.11553e-17
5189.59734 2.12175e-17
5191.72095 2.12797e-17
5193.83453 2.12611e-17
5195.95814 2.12424e-17
5198.08174 2.11888e-17
5200.19533 2.11353e-17
5202.31893 2.11823e-17
5204.43252 2.12294e-17
5206.55612 2.12903e-17
5208.66971 2.13512e-17
5210.79331 2.14583e-17
5212.91692 2.15653e-17
5215.03051 2.16559e-17
5217.15411 2.17466e-17
5219.26770 2.17599e-17
5221.39130 2.17732e-17
5223.50489 2.18764e-17
5225.62849 2.19795e-17
5227.75210 2.20224e-17
5229.86568 2.20653e-17
5231.98929 2.20874e-17
5234.10287 2.21094e-17
5236.22648 2.20803e-17
5238.34007 2.20511e-17
5240.46367 2.20133e-17
5242.58727 2.19755e-17
5244.70086 2.19888e-17
5246.82446 2.20021e-17
5248.93805 2.19822e-17
5251.06165 2.19623e-17
5253.17524 2.19107e-17
5255.29885 2.18591e-17
5257.42245 2.18895e-17
5259.53604 2.19199e-17
5261.65964 2.19622e-17
5263.77323 2.20044e-17
5265.89683 2.20342e-17
5268.01042 2.20639e-17
5270.13402 2.20953e-17
5272.25763 2.21267e-17
5274.37121 2.20579e-17
5276.49482 2.19892e-17
5278.60840 2.20271e-17
5280.73201 2.20650e-17
5282.84560 2.19868e-17
5284.96920 2.19087e-17
5287.09280 2.18411e-17
5289.20639 2.17734e-17
5291.33000 2.17212e-17
5293.44358 2.16690e-17
5295.56719 2.16086e-17
5297.68077 2.15483e-17
5299.80438 2.15576e-17
5301.92798 2.15669e-17
5304.04157 2.15325e-17
5306.16517 2.14981e-17
5308.27876 2.13826e-17
5310.40236 2.12672e-17
5312.51595 2.12196e-17
5314.63955 2.11720e-17
5316.76316 2.11284e-17
5318.87675 2.10848e-17
5321.00035 2.10297e-17
5323.11394 2.09746e-17
5325.23754 2.08879e-17
5327.35113 2.08011e-17
5329.47473 2.08161e-17
5331.59834 2.08312e-17
5333.71192 2.07893e-17
5335.83553 2.07474e-17
5337.94911 2.07063e-17
5340.07272 2.06651e-17
5342.18630 2.06158e-17
5344.30991 2.05664e-17
5346.43351 2.05702e-17
5348.54710 2.05740e-17
5350.67070 2.06087e-17
5352.78429 2.06433e-17
5354.90789 2.05814e-17
5357.02148 2.05194e-17
5359.14509 2.04588e-17
5361.26869 2.03982e-17
5363.38228 2.04108e-17
5365.50588 2.04234e-17
5367.61947 2.05369e-17
5369.74307 2.06504e-17
5371.85666 2.06767e-17
5373.98026 2.07030e-17
5376.10387 2.06110e-17
5378.21745 2.05190e-17
5380.34106 2.05010e-17
5382.45464 2.04831e-17
5384.57825 2.04949e-17
5386.69184 2.05068e-17
5388.81544 2.05285e-17
5390.93904 2.05502e-17
5393.05263 2.05938e-17
5395.17623 2.06374e-17
5397.28982 2.05666e-17
5399.41342 2.04958e-17
5401.52701 2.04882e-17
5403.65062 2.04807e-17
5405.77422 2.05166e-17
5407.88781 2.05526e-17
5410.01141 2.04946e-17
5412.12500 2.04365e-17
5414.24860 2.04011e-17
5416.36219 2.03658e-17
5418.48579 2.03472e-17
5420.60940 2.03287e-17
5422.72298 2.02321e-17
5424.84659 2.01355e-17
5426.96018 2.00583e-17
5429.08378 1.99812e-17
5431.19737 2.00202e-17
5433.32097 2.00592e-17
5435.44457 2.00324e-17
5437.55816 2.00056e-17
5439.68177 1.99415e-17
5441.79535 1.98775e-17
5443.91896 1.97698e-17
5446.03254 1.96621e-17
5448.15615 1.96134e-17
5450.27975 1.95646e-17
5452.39334 1.94415e-17
5454.51694 1.93185e-17
5456.63053 1.92490e-17
5458.75413 1.91796e-17
5460.86772 1.92150e-17
5462.99132 1.92503e-17
5465.11493 1.91423e-17
5467.22851 1.90342e-17
5469.35212 1.89278e-17
5471.46571 1.88214e-17
5473.58931 1.88465e-17
5475.70290 1.88716e-17
5477.82650 1.88204e-17
5479.95010 1.87692e-17
5482.06369 1.86447e-17
5484.18730 1.85202e-17
5486.30088 1.84450e-17
5488.42449 1.83699e-17
5490.53807 1.83024e-17
5492.66168 1.82349e-17
5494.78528 1.81251e-17
5496.89887 1.80153e-17
5499.02247 1.79319e-17
5501.13606 1.78486e-17
5503.25966 1.78032e-17
5505.37325 1.77579e-17
5507.49685 1.77629e-17
5509.62046 1.77680e-17
5511.73405 1.77943e-17
5513.85765 1.78206e-17
5515.97124 1.77930e-17
5518.09484 1.77653e-17
5520.20843 1.76933e-17
5522.33203 1.76214e-17
5524.45564 1.76569e-17
5526.56922 1.76925e-17
5528.69283 1.76927e-17
5530.80641 1.76930e-17
5532.93002 1.76968e-17
5535.04360 1.77005e-17
5537.16721 1.77020e-17
5539.29081 1.77034e-17
5541.40440 1.77210e-17
5543.52800 1.77386e-17
5545.64159 1.77463e-17
5547.76520 1.77539e-17
5549.87878 1.77116e-17
5552.00239 1.76692e-17
5554.12599 1.76101e-17
5556.23958 1.75510e-17
5558.36318 1.75076e-17
5560.47677 1.74642e-17
5562.60037 1.74198e-17
5564.71396 1.73753e-17
5566.83756 1.73823e-17
5568.96117 1.73894e-17
5571.07475 1.73977e-17
5573.19836 1.74061e-17
5575.31195 1.74049e-17
5577.43555 1.74037e-17
5579.54914 1.74380e-17
5581.67274 1.74723e-17
5583.79634 1.73737e-17
5585.90993 1.72752e-17
5588.03354 1.71655e-17
5590.14712 1.70559e-17
5592.27073 1.70001e-17
5594.38431 1.69444e-17
5596.50792 1.69141e-17
5598.63152 1.68838e-17
5600.74511 1.69575e-17
5602.86871 1.70311e-17
5604.98230 1.69361e-17
5607.10590 1.68411e-17
5609.21949 1.68048e-17
5611.34309 1.67686e-17
5613.46670 1.67671e-17
5615.58029 1.67657e-17
5617.70389 1.67253e-17
5619.81748 1.66850e-17
5621.94108 1.66308e-17
5624.05467 1.65766e-17
5626.17827 1.64756e-17
5628.30188 1.63747e-17
5630.41546 1.62777e-17
5632.53907 1.61808e-17
5634.65265 1.61521e-17
5636.77626 1.61234e-17
5638.88984 1.60771e-17
5641.01345 1.60308e-17
5643.13705 1.60146e-17
5645.25064 1.59984e-17
5647.37424 1.58563e-17
5649.48783 1.57142e-17
5651.61143 1.56385e-17
5653.72502 1.55628e-17
5655.84863 1.55582e-17
5657.97223 1.55537e-17
5660.08582 1.54590e-17
5662.20942 1.53643e-17
5664.32301 1.52444e-17
5666.44661 1.51245e-17
5668.56020 1.50592e-17
5670.68380 1.49940e-17
5672.80741 1.49688e-17
5674.92099 1.49436e-17
5677.04460 1.49367e-17
5679.15818 1.49299e-17
5681.28179 1.47570e-17
5683.39538 1.45842e-17
5685.51898 1.44129e-17
5687.64258 1.42417e-17
5689.75617 1.42969e-17
5691.87977 1.43520e-17
5693.99336 1.43585e-17
5696.11697 1.43651e-17
5698.23055 1.42651e-17
5700.35416 1.41650e-17
5702.47776 1.41211e-17
5704.59135 1.40771e-17
5706.71495 1.40876e-17
5708.82854 1.40982e-17
5710.95214 1.41374e-17
5713.06573 1.41766e-17
5715.18933 1.42060e-17
5717.31294 1.42353e-17
5719.42652 1.43325e-17
5721.55013 1.44297e-17
5723.66371 1.45371e-17
5725.78732 1.46445e-17
5727.90091 1.46923e-17
5730.02451 1.47401e-17
5732.14811 1.48255e-17
5734.26170 1.49109e-17
5736.38530 1.49984e-17
5738.49889 1.50860e-17
5740.62250 1.52276e-17
5742.73608 1.53692e-17
5744.85969 1.55121e-17
5746.98329 1.56550e-17
5749.09688 1.56771e-17
5751.22048 1.56992e-17
5753.33407 1.57315e-17
5755.45767 1.57638e-17
5757.57126 1.58933e-17
5759.69486 1.60228e-17
5761.81847 1.61402e-17
5763.93206 1.62576e-17
5766.05566 1.62086e-17
5768.16925 1.61597e-17
5770.29285 1.60672e-17
5772.40644 1.59748e-17
5774.53004 1.60443e-17
5776.65365 1.61138e-17
5778.76723 1.61085e-17
5780.89084 1.61031e-17
5783.00442 1.60461e-17
5785.12803 1.59892e-17
5787.24161 1.60718e-17
5789.36522 1.61544e-17
5791.48882 1.61768e-17
5793.60241 1.61992e-17
5795.72601 1.61397e-17
5797.83960 1.60802e-17
5799.96320 1.60895e-17
5802.07679 1.60987e-17
5804.20040 1.61677e-17
5806.32400 1.62368e-17
5808.43759 1.62521e-17
5810.56119 1.62674e-17
5812.67478 1.62323e-17
5814.79838 1.61972e-17
5816.91197 1.62662e-17
5819.03557 1.63353e-17
5821.15918 1.63683e-17
5823.27276 1.64012e-17
5825.39637 1.63927e-17
5827.50995 1.63842e-17
5829.63356 1.64509e-17
5831.74715 1.65175e-17
5833.87075 1.64585e-17
5835.99435 1.63995e-17
5838.10794 1.63333e-17
5840.23154 1.62672e-17
5842.34513 1.62195e-17
5844.46874 1.61719e-17
5846.58232 1.61807e-17
5848.70593 1.61895e-17
5850.82953 1.62442e-17
5852.94312 1.62989e-17
5855.06672 1.62786e-17
5857.18031 1.62584e-17
5859.30391 1.62566e-17
5861.41750 1.62548e-17
5863.54110 1.61580e-17
5865.66471 1.60613e-17
5867.77829 1.60106e-17
5869.90190 1.59599e-17
5872.01549 1.59898e-17
5874.13909 1.60196e-17
5876.25268 1.59561e-17
5878.37628 1.58927e-17
5880.49988 1.55932e-17
5882.61347 1.52938e-17
5884.73708 1.49958e-17
5886.85066 1.46977e-17
5888.97427 1.45370e-17
5891.08785 1.43763e-17
5893.21146 1.43022e-17
5895.33506 1.42282e-17
5897.44865 1.42693e-17
5899.57225 1.43104e-17
5901.68584 1.44798e-17
5903.80944 1.46493e-17
5905.92303 1.47821e-17
5908.04663 1.49149e-17
5910.17024 1.49601e-17
5912.28383 1.50053e-17
5914.40743 1.49826e-17
5916.52102 1.49600e-17
5918.64462 1.49246e-17
5920.75821 1.48891e-17
5922.88181 1.48579e-17
5925.00541 1.48267e-17
5927.11900 1.48332e-17
5929.24261 1.48397e-17
5931.35619 1.48675e-17
5933.47980 1.48954e-17
5935.59338 1.48032e-17
5937.71699 1.47110e-17
5939.84059 1.45545e-17
5941.95418 1.43981e-17
5944.07778 1.43579e-17
5946.19137 1.43176e-17
5948.31497 1.43681e-17
5950.42856 1.44185e-17
5952.55217 1.44569e-17
5954.67577 1.44953e-17
5956.78936 1.44885e-17
5958.91296 1.44816e-17
5961.02655 1.44592e-17
5963.15015 1.44369e-17
5965.26374 1.44139e-17
5967.38734 1.43909e-17
5969.51095 1.43366e-17
5971.62453 1.42823e-17
5973.74814 1.42916e-17
5975.86172 1.43010e-17
5977.98533 1.43858e-17
5980.09891 1.44706e-17
5982.22252 1.45245e-17
5984.34612 1.45784e-17
5986.45971 1.45447e-17
5988.58331 1.45110e-17
5990.69690 1.45495e-17
5992.82050 1.45880e-17
5994.93409 1.45568e-17
5997.05770 1.45256e-17
5999.18130 1.46106e-17
6001.29489 1.46957e-17
6003.41849 1.47172e-17
6005.53208 1.47388e-17
6007.65568 1.47273e-17
6009.76927 1.47159e-17
6011.89287 1.47608e-17
6014.01648 1.48058e-17
6016.13006 1.47652e-17
6018.25367 1.47246e-17
6020.36726 1.46713e-17
6022.49086 1.46180e-17
6024.60445 1.46122e-17
6026.72805 1.46063e-17
6028.85165 1.45614e-17
6030.96524 1.45166e-17
6033.08885 1.44537e-17
6035.20243 1.43908e-17
6037.32604 1.44112e-17
6039.43962 1.44316e-17
6041.56323 1.45117e-17
6043.68683 1.45918e-17
6045.80042 1.46094e-17
6047.92402 1.46269e-17
6050.03761 1.46256e-17
6052.16121 1.46242e-17
6054.27480 1.46078e-17
6056.39840 1.45915e-17
6058.52201 1.45643e-17
6060.63560 1.45371e-17
6062.75920 1.45480e-17
6064.87279 1.45590e-17
6066.99639 1.45206e-17
6069.10998 1.44822e-17
6071.23358 1.45102e-17
6073.35719 1.45381e-17
6075.47077 1.45676e-17
6077.59438 1.45972e-17
6079.70796 1.45759e-17
6081.83157 1.45546e-17
6083.94515 1.45358e-17
6086.06876 1.45169e-17
6088.19236 1.45296e-17
6090.30595 1.45422e-17
6092.42955 1.45853e-17
6094.54314 1.46284e-17
6096.66674 1.45290e-17
6098.78033 1.44297e-17
6100.90394 1.43622e-17
6103.02754 1.42948e-17
6105.14113 1.43600e-17
6107.26473 1.44252e-17
6109.37832 1.43871e-17
6111.50192 1.43491e-17
6113.61551 1.42041e-17
6115.73911 1.40590e-17
6117.86272 1.39896e-17
6119.97630 1.39202e-17
6122.09991 1.38212e-17
6124.21349 1.37222e-17
6126.33710 1.36126e-17
6128.45069 1.35029e-17
6130.57429 1.34071e-17
6132.69789 1.33113e-17
6134.81148 1.31243e-17
6136.93508 1.29374e-17
6139.04867 1.28191e-17
6141.17227 1.27009e-17
6143.28586 1.26186e-17
6145.40947 1.25362e-17
6147.53307 1.24361e-17
6149.64666 1.23360e-17
6151.77026 1.22702e-17
6153.88385 1.22044e-17
6156.00745 1.21785e-17
6158.12104 1.21526e-17
6160.24464 1.21251e-17
6162.36825 1.20977e-17
6164.48183 1.20499e-17
6166.60544 1.20022e-17
6168.71903 1.19333e-17
6170.84263 1.18645e-17
6172.95622 1.18813e-17
6175.07982 1.18981e-17
6177.20342 1.18484e-17
6179.31701 1.17987e-17
6181.44062 1.17749e-17
6183.55420 1.17512e-17
6185.67781 1.18133e-17
6187.79139 1.18753e-17
6189.91500 1.18765e-17
6192.03860 1.18778e-17
6194.15219 1.18330e-17
6196.27579 1.17882e-17
6198.38938 1.18297e-17
6200.51298 1.18712e-17
6202.62657 1.19207e-17
6204.75017 1.19702e-17
6206.87378 1.19251e-17
6208.98736 1.18800e-17
6211.11097 1.18803e-17
6213.22456 1.18805e-17
6215.34816 1.19037e-17
6217.46175 1.19269e-17
6219.58535 1.19599e-17
6221.70896 1.19928e-17
6223.82254 1.20692e-17
6225.94615 1.21455e-17
6228.05973 1.21594e-17
6230.18334 1.21733e-17
6232.30694 1.21933e-17
6234.42053 1.22133e-17
6236.54413 1.22313e-17
6238.65772 1.22494e-17
6240.78132 1.22758e-17
6242.89491 1.23023e-17
6245.01851 1.23360e-17
6247.13210 1.23697e-17
6249.25570 1.23841e-17
6251.37931 1.23985e-17
6253.49290 1.24486e-17
6255.61650 1.24987e-17
6257.73009 1.25696e-17
6259.85369 1.26406e-17
6261.97730 1.27184e-17
6264.09088 1.27962e-17
6266.21449 1.27948e-17
6268.32807 1.27934e-17
6270.45168 1.26960e-17
6272.56526 1.25987e-17
6274.68887 1.25422e-17
6276.80246 1.24856e-17
6278.92606 1.24707e-17
6281.04966 1.24558e-17
6283.16325 1.25461e-17
6285.28685 1.26363e-17
6287.40044 1.27544e-17
6289.52405 1.28724e-17
6291.63763 1.28508e-17
6293.76124 1.28291e-17
6295.88484 1.28278e-17
6297.99843 1.28265e-17
6300.12203 1.28756e-17
6302.23562 1.29246e-17
6304.35922 1.29295e-17
6306.47281 1.29345e-17
6308.59641 1.29610e-17
6310.72002 1.29875e-17
6312.83360 1.29881e-17
6314.95721 1.29887e-17
6317.07080 1.29416e-17
6319.19440 1.28946e-17
6321.30799 1.28618e-17
6323.43159 1.28291e-17
6325.55519 1.28168e-17
6327.66878 1.28045e-17
6329.79239 1.27366e-17
6331.90597 1.26686e-17
6334.02958 1.25942e-17
6336.14316 1.25198e-17
6338.26677 1.25118e-17
6340.39037 1.25038e-17
6342.50396 1.24608e-17
6344.62756 1.24178e-17
6346.74115 1.23655e-17
6348.86475 1.23133e-17
6350.98836 1.23032e-17
6353.10194 1.22931e-17
6355.22555 1.22965e-17
6357.33914 1.23000e-17
6359.46274 1.22740e-17
6361.57633 1.22479e-17
6363.69993 1.22118e-17
6365.81352 1.21756e-17
6367.93712 1.21178e-17
6370.06073 1.20601e-17
6372.17431 1.20610e-17
6374.29792 1.20620e-17
6376.41150 1.20550e-17
6378.53511 1.20479e-17
6380.65871 1.20802e-17
6382.77230 1.21124e-17
6384.89590 1.21577e-17
6387.00949 1.22029e-17
6389.13309 1.22632e-17
6391.24668 1.23235e-17
6393.37028 1.23865e-17
6395.48387 1.24494e-17
6397.60747 1.25010e-17
6399.73108 1.25525e-17
6401.84467 1.26871e-17
6403.96827 1.28217e-17
6406.08186 1.29448e-17
6408.20546 1.30680e-17
6410.31905 1.31408e-17
6412.44265 1.32137e-17
6414.56626 1.32661e-17
6416.67984 1.33184e-17
6418.80345 1.33953e-17
6420.91703 1.34722e-17
6423.04064 1.35725e-17
6425.15423 1.36728e-17
6427.27783 1.37193e-17
6429.40143 1.37657e-17
6431.51502 1.38429e-17
6433.63862 1.39201e-17
6435.75221 1.39588e-17
6437.87582 1.39974e-17
6439.98940 1.40064e-17
6442.11301 1.40154e-17
6444.23661 1.40062e-17
6446.35020 1.39970e-17
6448.47380 1.40292e-17
6450.58739 1.40614e-17
6452.71099 1.40648e-17
6454.83460 1.40682e-17
6456.94818 1.40265e-17
6459.07179 1.39848e-17
6461.18537 1.39653e-17
6463.30898 1.39458e-17
6465.42256 1.39109e-17
6467.54617 1.38760e-17
6469.66977 1.37733e-17
6471.78336 1.36706e-17
6473.90696 1.36203e-17
6476.02055 1.35701e-17
6478.14415 1.36048e-17
6480.25774 1.36395e-17
6482.38135 1.36629e-17
6484.50495 1.36863e-17
6486.61854 1.36804e-17
6488.74214 1.36745e-17
6490.85573 1.36822e-17
6492.97933 1.36900e-17
6495.09292 1.37665e-17
6497.21652 1.38431e-17
6499.34013 1.38928e-17
6501.45371 1.39425e-17
6503.57732 1.39252e-17
6505.69090 1.39080e-17
6507.81451 1.38370e-17
6509.92810 1.37661e-17
6512.05170 1.36686e-17
6514.17530 1.35711e-17
6516.28889 1.35732e-17
6518.41250 1.35752e-17
6520.52608 1.36735e-17
6522.64969 1.37717e-17
6524.76327 1.38676e-17
6526.88688 1.39634e-17
6529.00046 1.39518e-17
6531.12407 1.39402e-17
6533.24767 1.39067e-17
6535.36126 1.38731e-17
6537.48486 1.38359e-17
6539.59845 1.37986e-17
6541.72205 1.37365e-17
6543.84566 1.36744e-17
6545.95925 1.36361e-17
6548.08285 1.35978e-17
6550.19644 1.35596e-17
6552.32004 1.35213e-17
6554.43363 1.34831e-17
6556.55723 1.34449e-17
6558.67082 1.34066e-17
6560.79442 1.33684e-17
6562.91803 1.33302e-17
6565.03161 1.32919e-17
6567.15522 1.32537e-17
6569.26880 1.32155e-17
6571.39241 1.31773e-17
6573.50600 1.31391e-17
6575.62960 1.31009e-17
6577.75320 1.30627e-17
6579.86679 1.30245e-17
6581.99039 1.29863e-17
6584.10398 1.29481e-17
6586.22759 1.29099e-17
6588.35119 1.28717e-17
6590.46478 1.28336e-17
6592.58838 1.27954e-17
6594.70197 1.27572e-17
6596.82557 1.27191e-17
6598.93916 1.26809e-17
6601.06276 1.26428e-17
6603.18637 1.26046e-17
6605.29995 1.25665e-17
6607.42356 1.24717e-17
6609.53714 1.24838e-17
6611.66075 1.24959e-17
6613.77434 1.24823e-17
6615.89794 1.24687e-17
6618.02154 1.25126e-17
6620.13513 1.25566e-17
6622.25873 1.25714e-17
6624.37232 1.25863e-17
6626.49593 1.25170e-17
6628.60951 1.24476e-17
6630.73312 1.24252e-17
6632.85672 1.24028e-17
6634.97031 1.24141e-17
6637.09391 1.24254e-17
6639.20750 1.24031e-17
6641.33110 1.23807e-17
6643.44469 1.23735e-17
6645.56829 1.23662e-17
6647.68188 1.23550e-17
6649.80548 1.23437e-17
6651.92909 1.22902e-17
6654.04268 1.22367e-17
6656.16628 1.22155e-17
6658.27987 1.21944e-17
6660.40347 1.21785e-17
6662.52707 1.21626e-17
6664.64066 1.21426e-17
6666.76426 1.21226e-17
6668.87785 1.21420e-17
6671.00146 1.21613e-17
6673.11504 1.20721e-17
6675.23865 1.19829e-17
6677.35223 1.20337e-17
6679.47584 1.20846e-17
6681.59944 1.20571e-17
6683.71303 1.20296e-17
6685.83663 1.19454e-17
6687.95022 1.18611e-17
6690.07382 1.18162e-17
6692.18741 1.17712e-17
6694.31102 1.17569e-17
6696.43462 1.17425e-17
6698.54821 1.17285e-17
6700.67181 1.17146e-17
6702.78540 1.17457e-17
6704.90900 1.17768e-17
6707.03260 1.17841e-17
6709.14619 1.17913e-17
6711.26980 1.17420e-17
6713.38338 1.16927e-17
6715.50699 1.16684e-17
6717.62057 1.16441e-17
6719.74418 1.16590e-17
6721.86778 1.16738e-17
6723.98137 1.16545e-17
6726.10497 1.16351e-17
6728.21856 1.15693e-17
6730.34216 1.15035e-17
6732.45575 1.14981e-17
6734.57935 1.14928e-17
6736.70296 1.15210e-17
6738.81655 1.15493e-17
6740.94015 1.15083e-17
6743.05374 1.14673e-17
6745.17734 1.14458e-17
6747.29093 1.14243e-17
6749.41453 1.13537e-17
6751.53814 1.12831e-17
6753.65172 1.11835e-17
6755.77533 1.10840e-17
6757.88891 1.10621e-17
6760.01252 1.10403e-17
6762.12611 1.10118e-17
6764.24971 1.09834e-17
6766.37331 1.09654e-17
6768.48690 1.09474e-17
6770.61050 1.09503e-17
6772.72409 1.09532e-17
6774.84770 1.09150e-17
6776.96128 1.08769e-17
6779.08489 1.08737e-17
6781.20849 1.08705e-17
6783.32208 1.08495e-17
6785.44568 1.08285e-17
6787.55927 1.07532e-17
6789.68287 1.06778e-17
6791.79646 1.06413e-17
6793.92006 1.06047e-17
6796.04367 1.06025e-17
6798.15725 1.06004e-17
6800.28086 1.06118e-17
6802.39445 1.06231e-17
6804.51805 1.06038e-17
6806.63164 1.05844e-17
6808.75524 1.05313e-17
6810.86883 1.04783e-17
6812.99243 1.04772e-17
6815.11604 1.04761e-17
6817.22962 1.04524e-17
6819.35323 1.04286e-17
6821.46681 1.03952e-17
6823.59042 1.03618e-17
6825.71402 1.03703e-17
6827.82761 1.03788e-17
6829.95121 1.03386e-17
6832.06480 1.02985e-17
6834.18840 1.02563e-17
6836.30199 1.02141e-17
6838.42559 1.02132e-17
6840.54920 1.02123e-17
6842.66279 1.01624e-17
6844.78639 1.01124e-17
6846.89998 1.01012e-17
6849.02358 1.00899e-17
6851.13717 1.00786e-17
6853.26077 1.00673e-17
6855.38438 1.00560e-17
6857.49796 1.00447e-17
6859.62157 1.00335e-17
6861.73515 1.00222e-17
6863.85876 1.00109e-17
6865.97234 9.99963e-18
6868.09595 9.98836e-18
6870.21955 9.97708e-18
6872.33314 9.96581e-18
6874.45674 9.95453e-18
6876.57033 9.94326e-18
6878.69393 9.93199e-18
6880.80752 9.92072e-18
6882.93113 9.90945e-18
6885.05473 9.89819e-18
6887.16832 9.88692e-18
6889.29192 9.87565e-18
6891.40551 9.86439e-18
6893.52911 9.85313e-18
6895.64270 9.84186e-18
6897.76630 9.83060e-18
6899.88991 9.81934e-18
6902.00349 9.80808e-18
6904.12710 9.79682e-18
6906.24068 9.78556e-18
6908.36429 9.77431e-18
6910.47788 9.76305e-18
6912.60148 9.75180e-18
6914.72508 9.74054e-18
6916.83867 9.72929e-18
6918.96227 9.71804e-18
6921.07586 9.70679e-18
6923.19946 9.69554e-18
6925.31305 9.68429e-18
6927.43666 9.67305e-18
6929.55024 9.66180e-18
6931.67385 9.65055e-18
6933.79745 9.63931e-18
6935.91104 9.62807e-18
6938.03464 9.62954e-18
6940.14823 9.66057e-18
6942.27183 9.69161e-18
6944.39544 9.74069e-18
6946.50902 9.78977e-18
6948.63263 9.79465e-18
6950.74622 9.79952e-18
6952.86982 9.75978e-18
6954.98341 9.72004e-18
6957.10701 9.71279e-18
6959.23061 9.70554e-18
6961.34420 9.74449e-18
6963.46781 9.78343e-18
6965.58139 9.79083e-18
6967.70500 9.79822e-18
6969.81858 9.76602e-18
6971.94219 9.73381e-18
6974.06579 9.69698e-18
6976.17938 9.66016e-18
6978.30298 9.62764e-18
6980.41657 9.59513e-18
6982.54017 9.50654e-18
6984.65376 9.41797e-18
6986.77736 9.32834e-18
6988.90097 9.23872e-18
6991.01455 9.19469e-18
6993.13816 9.15066e-18
6995.25175 9.12513e-18
6997.37535 9.09960e-18
6999.48894 9.10465e-18
7001.61254 9.10970e-18
7003.73615 9.11981e-18
7005.84973 9.12991e-18
7007.97334 9.10269e-18
7010.08692 9.07547e-18
7012.21053 9.09814e-18
7014.32411 9.12082e-18
7016.44772 9.14420e-18
7018.57132 9.16756e-18
7020.68491 9.15044e-18
7022.80851 9.13333e-18
7024.92210 9.17363e-18
7027.04570 9.21393e-18
7029.15929 9.26600e-18
7031.28290 9.31806e-18
7033.40650 9.34545e-18
7035.52009 9.37284e-18
7037.64369 9.42443e-18
7039.75728 9.47601e-18
7041.88088 9.51374e-18
7043.99447 9.55147e-18
7046.11807 9.59468e-18
7048.24168 9.63789e-18
7050.35526 9.66294e-18
7052.47887 9.68798e-18
7054.59245 9.71873e-18
7056.71606 9.74947e-18
7058.82965 9.83484e-18
7060.95325 9.92020e-18
7063.07685 9.97448e-18
7065.19044 1.00288e-17
7067.31404 1.00172e-17
7069.42763 1.00057e-17
7071.55124 1.00520e-17
7073.66482 1.00982e-17
7075.78843 1.01235e-17
7077.91203 1.01488e-17
7080.02562 1.01714e-17
7082.14922 1.01940e-17
7084.26281 1.02362e-17
7086.38641 1.02784e-17
7088.50000 1.02635e-17
7090.62360 1.02486e-17
7092.74721 1.02181e-17
7094.86079 1.01877e-17
7096.98440 1.02246e-17
7099.09799 1.02616e-17
7101.22159 1.03103e-17
7103.33518 1.03590e-17
7105.45878 1.03792e-17
7107.58238 1.03994e-17
7109.69597 1.04352e-17
7111.81958 1.04709e-17
7113.93316 1.04838e-17
7116.05677 1.04966e-17
7118.17035 1.04854e-17
7120.29396 1.04743e-17
7122.41756 1.04855e-17
7124.53115 1.04967e-17
7126.65475 1.04846e-17
7128.76834 1.04725e-17
7130.89194 1.04625e-17
7133.00553 1.04526e-17
7135.12913 1.04503e-17
7137.25274 1.04480e-17
7139.36632 1.04263e-17
7141.48993 1.04045e-17
7143.60352 1.03494e-17
7145.72712 1.02944e-17
7147.84071 1.02713e-17
7149.96431 1.02482e-17
7152.08792 1.02571e-17
7154.20150 1.02660e-17
7156.32511 1.02307e-17
7158.43869 1.01953e-17
7160.56230 1.01120e-17
7162.67588 1.00287e-17
7164.79949 1.00108e-17
7166.92309 9.99285e-18
7169.03668 9.98997e-18
7171.16028 9.98709e-18
7173.27387 9.93649e-18
7175.39747 9.88589e-18
7177.51106 9.84082e-18
7179.63467 9.79575e-18
7181.75827 9.80807e-18
7183.87186 9.82038e-18
7185.99546 9.86661e-18
7188.10905 9.91283e-18
7190.23265 9.84583e-18
7192.34624 9.77884e-18
7194.46984 9.73210e-18
7196.59345 9.68537e-18
7198.70703 9.67311e-18
7200.83064 9.66086e-18
7202.94422 9.68514e-18
7205.06783 9.70943e-18
7207.18142 9.69803e-18
7209.30502 9.68664e-18
7211.42862 9.69961e-18
7213.54221 9.71259e-18
7215.66581 9.70181e-18
7217.77940 9.69103e-18
7219.90301 9.64619e-18
7222.01659 9.60135e-18
7224.14020 9.59920e-18
7226.26380 9.59706e-18
7228.37739 9.56472e-18
7230.50099 9.53237e-18
7232.61458 9.47457e-18
7234.73818 9.41677e-18
7236.85177 9.37759e-18
7238.97537 9.33843e-18
7241.09898 9.36141e-18
7243.21256 9.38438e-18
7245.33617 9.40781e-18
7247.44975 9.43122e-18
7249.57336 9.40317e-18
7251.68695 9.37512e-18
7253.81055 9.36466e-18
7255.93415 9.35420e-18
7258.04774 9.32226e-18
7260.17135 9.29031e-18
7262.28493 9.29191e-18
7264.40854 9.29350e-18
7266.52212 9.31912e-18
7268.64573 9.34474e-18
7270.76933 9.31683e-18
7272.88292 9.28893e-18
7275.00652 9.29836e-18
7277.12011 9.30780e-18
7279.24371 9.30041e-18
7281.35730 9.29301e-18
7283.48090 9.23572e-18
7285.60451 9.17843e-18
7287.71810 9.19307e-18
7289.84170 9.20771e-18
7291.95529 9.21918e-18
7294.07889 9.23065e-18
7296.19248 9.20969e-18
7298.31608 9.18874e-18
7300.43969 9.20485e-18
7302.55327 9.22096e-18
7304.67688 9.20603e-18
7306.79046 9.19110e-18
7308.91407 9.12046e-18
7311.02765 9.04983e-18
7313.15126 9.05060e-18
7315.27486 9.05138e-18
7317.38845 9.10234e-18
7319.51205 9.15329e-18
7321.62564 9.14733e-18
7323.74924 9.14138e-18
7325.86283 9.11072e-18
7327.98644 9.08007e-18
7330.11004 9.08542e-18
7332.22363 9.09076e-18
7334.34723 9.12498e-18
7336.46082 9.15919e-18
7338.58442 9.13412e-18
7340.69801 9.10906e-18
7342.82161 9.08874e-18
7344.94522 9.06842e-18
7347.05880 9.05633e-18
7349.18241 9.04424e-18
7351.29599 9.05217e-18
7353.41960 9.06009e-18
7355.53319 9.00415e-18
7357.65679 8.94823e-18
7359.78039 8.92811e-18
7361.89398 8.90800e-18
7364.01758 8.91796e-18
7366.13117 8.92792e-18
7368.25478 8.92039e-18
7370.36836 8.91286e-18
7372.49197 8.89428e-18
7374.61557 8.87571e-18
7376.72916 8.85417e-18
7378.85276 8.83263e-18
7380.96635 8.79454e-18
7383.08995 8.75646e-18
7385.20354 8.71668e-18
7387.32714 8.67691e-18
7389.45075 8.61876e-18
7391.56433 8.56061e-18
7393.68794 8.50889e-18
7395.80152 8.45717e-18
7397.92513 8.47855e-18
7400.03872 8.49992e-18
7402.16232 8.46093e-18
7404.28592 8.42194e-18
7406.39951 8.31750e-18
7408.52311 8.21307e-18
7410.63670 8.16549e-18
7412.76031 8.11792e-18
7414.87389 8.07619e-18
7416.99750 8.03447e-18
7419.12110 7.94154e-18
7421.23469 7.84863e-18
7423.35829 7.79183e-18
7425.47188 7.73503e-18
7427.59548 7.68829e-18
7429.70907 7.64155e-18
7431.83267 7.59002e-18
7433.95628 7.53849e-18
7436.06987 7.48285e-18
7438.19347 7.42721e-18
7440.30706 7.36742e-18
7442.43066 7.30764e-18
7444.54425 7.23316e-18
7446.66785 7.15868e-18
7448.79145 7.07443e-18
7450.90504 6.99020e-18
7453.02865 6.92068e-18
7455.14223 6.85118e-18
7457.26584 6.77729e-18
7459.37942 6.70341e-18
7461.50303 6.62234e-18
7463.62663 6.54127e-18
7465.74022 6.49136e-18
7467.86382 6.44144e-18
7469.97741 6.38138e-18
7472.10101 6.32132e-18
7474.21460 6.23486e-18
7476.33821 6.14842e-18
7478.46181 6.09507e-18
7480.57540 6.04172e-18
7482.69900 6.01599e-18
7484.81259 5.99028e-18
7486.93619 5.99649e-18
7489.04978 6.00270e-18
7491.17338 5.98667e-18
7493.29699 5.97065e-18
7495.41057 5.94661e-18
7497.53418 5.92257e-18
7499.64776 5.89866e-18
7501.77137 5.87475e-18
7503.88495 5.85979e-18
7506.00856 5.84482e-18
7508.13216 5.82400e-18
7510.24575 5.80318e-18
7512.36935 5.79384e-18
7514.48294 5.78451e-18
7516.60655 5.81532e-18
7518.72013 5.84612e-18
7520.84374 5.86576e-18
7522.96734 5.88539e-18
7525.08093 5.87278e-18
7527.20453 5.86018e-18
7529.31812 5.86796e-18
7531.44172 5.87575e-18
7533.55531 5.91590e-18
7535.67891 5.95605e-18
7537.80252 5.99156e-18
7539.91610 6.02706e-18
7542.03971 6.06906e-18
7544.15330 6.11105e-18
7546.27690 6.18213e-18
7548.39049 6.25320e-18
7550.51409 6.28493e-18
7552.63769 6.31665e-18
7554.75128 6.34837e-18
7556.87489 6.38008e-18
7558.98847 6.41180e-18
7561.11208 6.44350e-18
7563.22566 6.47520e-18
7565.34927 6.50691e-18
7567.47287 6.53860e-18
7569.58646 6.57030e-18
7571.71006 6.60199e-18
7573.82365 6.63368e-18
7575.94725 6.66536e-18
7578.06084 6.69704e-18
7580.18444 6.72871e-18
7582.30805 6.76039e-18
7584.42164 6.79205e-18
7586.54524 6.82372e-18
7588.65883 6.85538e-18
7590.78243 6.88704e-18
7592.89602 6.91869e-18
7595.01962 6.95035e-18
7597.14323 6.98199e-18
7599.25681 7.01364e-18
7601.38042 7.04527e-18
7603.49400 7.07691e-18
7605.61761 7.10854e-18
7607.73119 7.14017e-18
7609.85480 7.17179e-18
7611.97840 7.20342e-18
7614.09199 7.23503e-18
7616.21559 7.26665e-18
7618.32918 7.29825e-18
7620.45278 7.32986e-18
7622.56637 7.36146e-18
7624.68998 7.39306e-18
7626.81358 7.42466e-18
7628.92717 7.45625e-18
7631.05077 7.48784e-18
7633.16436 7.51942e-18
7635.28796 7.55100e-18
7637.40155 7.58258e-18
7639.52515 7.61415e-18
7641.64876 7.64572e-18
7643.76234 7.67729e-18
7645.88595 7.70885e-18
7647.99953 7.74041e-18
7650.12314 7.77196e-18
7652.23673 7.80352e-18
7654.36033 7.83506e-18
7656.48393 7.86661e-18
7658.59752 7.89815e-18
7660.72112 7.92969e-18
7662.83471 7.96121e-18
7664.95831 7.99275e-18
7667.07190 8.02427e-18
7669.19551 8.05580e-18
7671.31911 8.08731e-18
7673.43270 8.11883e-18
7675.55630 8.15034e-18
7677.66989 8.18185e-18
7679.79349 8.21335e-18
7681.90708 8.28647e-18
7684.03068 8.35959e-18
7686.15429 8.41656e-18
7688.26787 8.47352e-18
7690.39148 8.47445e-18
7692.50507 8.47538e-18
7694.62867 8.45441e-18
7696.74226 8.43343e-18
7698.86586 8.46149e-18
7700.98946 8.48954e-18
7703.10305 8.50631e-18
7705.22665 8.52308e-18
7707.34024 8.52364e-18
7709.46385 8.52420e-18
7711.57743 8.58453e-18
7713.70104 8.64486e-18
7715.82464 8.74076e-18
7717.93823 8.83665e-18
7720.06183 8.84259e-18
7722.17542 8.84853e-18
7724.29902 8.82032e-18
7726.41261 8.79212e-18
7728.53621 8.81240e-18
7730.65982 8.83268e-18
7732.77340 8.85601e-18
7734.89701 8.87934e-18
7737.01060 8.88527e-18
7739.13420 8.89119e-18
7741.24779 8.90189e-18
7743.37139 8.91258e-18
7745.49500 8.92395e-18
7747.60858 8.93531e-18
7749.73219 8.94939e-18
7751.84577 8.96347e-18
7753.96938 9.00116e-18
7756.08296 9.03883e-18
7758.20657 9.05251e-18
7760.33017 9.06619e-18
7762.44376 9.04863e-18
7764.56736 9.03108e-18
7766.68095 9.08051e-18
7768.80455 9.12992e-18
7770.91814 9.13762e-18
7773.04175 9.14531e-18
7775.16535 9.10604e-18
7777.27894 9.06678e-18
7779.40254 9.05629e-18
7781.51613 9.04580e-18
7783.63973 9.05718e-18
7785.75332 9.06857e-18
7787.87692 9.06924e-18
7790.00053 9.06990e-18
7792.11411 9.06141e-18
7794.23772 9.05291e-18
7796.35130 9.04699e-18
7798.47491 9.04107e-18
7800.58850 9.05242e-18
7802.71210 9.06377e-18
7804.83570 9.08193e-18
7806.94929 9.10008e-18
7809.07289 9.07889e-18
7811.18648 9.05771e-18
7813.31009 9.04796e-18
7815.42367 9.03821e-18
7817.54728 9.03787e-18
7819.67088 9.03753e-18
7821.78447 9.06346e-18
7823.90807 9.08938e-18
7826.02166 9.08903e-18
7828.14526 9.08869e-18
7830.25885 9.10805e-18
7832.38245 9.12741e-18
7834.50606 9.14676e-18
7836.61964 9.16611e-18
7838.74325 9.16577e-18
7840.85684 9.16542e-18
7842.98044 9.17187e-18
7845.09403 9.17831e-18
7847.21763 9.15147e-18
7849.34123 9.12464e-18
7851.45482 9.10460e-18
7853.57843 9.08456e-18
7855.69201 9.05796e-18
7857.81562 9.03137e-18
7859.92920 9.04677e-18
7862.05281 9.06217e-18
7864.17641 9.03310e-18
7866.29000 9.00403e-18
7868.41360 8.97178e-18
7870.52719 8.93954e-18
7872.65079 8.90614e-18
7874.76438 8.87274e-18
7876.88798 8.84009e-18
7879.01159 8.80745e-18
7881.12518 8.77727e-18
7883.24878 8.74709e-18
7885.36237 8.72173e-18
7887.48597 8.69637e-18
7889.59956 8.67557e-18
7891.72316 8.65477e-18
7893.84677 8.63614e-18
7895.96035 8.61752e-18
7898.08396 8.59900e-18
7900.19754 8.58049e-18
7902.32115 8.55993e-18
7904.43473 8.53938e-18
7906.55834 8.51695e-18
7908.68194 8.49452e-18
7910.79553 8.46980e-18
7912.91913 8.44508e-18
7915.03272 8.41794e-18
7917.15632 8.39080e-18
7919.26991 8.36028e-18
7921.39351 8.32977e-18
7923.51712 8.29512e-18
7925.63071 8.26048e-18
7927.75431 8.22080e-18
7929.86790 8.18113e-18
7931.99150 8.13669e-18
7934.10509 8.09226e-18
7936.22869 8.04416e-18
7938.35230 7.99606e-18
7940.46588 7.94528e-18
7942.58949 7.89450e-18
7944.70307 7.84199e-18
7946.82668 7.78950e-18
7948.94027 7.73536e-18
7951.06387 7.68123e-18
7953.18747 7.62578e-18
7955.30106 7.57034e-18
7957.42466 7.51392e-18
7959.53825 7.45751e-18
7961.66186 7.39995e-18
7963.77544 7.34240e-18
7965.89905 7.28355e-18
7968.02265 7.22470e-18
7970.13624 7.16442e-18
7972.25984 7.10414e-18
7974.37343 7.04244e-18
7976.49703 6.98075e-18
7978.61062 6.91784e-18
7980.73422 6.85493e-18
7982.85783 6.79091e-18
7984.97141 6.72689e-18
7987.09502 6.66218e-18
7989.20860 6.59747e-18
7991.33221 6.53385e-18
7993.44580 6.47024e-18
7995.56940 6.40914e-18
7997.69300 6.34806e-18
7999.80659 6.29104e-18
8001.93020 6.23402e-18
8004.04378 6.18151e-18
8006.16739 6.12902e-18
8008.28097 6.08133e-18
8010.40458 6.03364e-18
8012.52818 5.99135e-18
8014.64177 5.94907e-18
8016.76537 5.91134e-18
8018.87896 5.87361e-18
8021.00256 5.83891e-18
8023.11615 5.80421e-18
8025.23975 5.77090e-18
8027.36336 5.73759e-18
8029.47695 5.70444e-18
8031.60055 5.67130e-18
8033.71414 5.63945e-18
8035.83774 5.60761e-18
8037.95133 5.57755e-18
8040.07493 5.54750e-18
8042.19854 5.52006e-18
8044.31212 5.49262e-18
8046.43573 5.46693e-18
8048.54931 5.44123e-18
8050.67292 5.41653e-18
8052.78650 5.39184e-18
8054.91011 5.36751e-18
8057.03371 5.34318e-18
8059.14730 5.31841e-18
8061.27090 5.29364e-18
8063.38449 5.26765e-18
8065.50809 5.24165e-18
8067.62168 5.21365e-18
8069.74529 5.18565e-18
8071.86889 5.15520e-18
8073.98248 5.12474e-18
8076.10608 5.09227e-18
8078.21967 5.05980e-18
8080.34327 5.02564e-18
8082.46688 4.99149e-18
8084.58046 4.95585e-18
8086.70407 4.92022e-18
8088.81765 4.88483e-18
8090.94126 4.84944e-18
8093.05484 4.81572e-18
8095.17845 4.78200e-18
8097.29204 4.75232e-18
8099.41564 4.72264e-18
8101.53924 4.69608e-18
8103.65283 4.66952e-18
8105.77643 4.64403e-18
8107.89002 4.61855e-18
8110.01363 4.59204e-18
8112.12721 4.56553e-18
8114.25082 4.53693e-18
8116.37442 4.50832e-18
8118.48801 4.48032e-18
8120.61161 4.45233e-18
8122.72520 4.42655e-18
8124.84880 4.40078e-18
8126.96239 4.37933e-18
8129.08599 4.35789e-18
8131.20960 4.33967e-18
8133.32318 4.32146e-18
8135.44679 4.30572e-18
8137.56038 4.28998e-18
8139.68398 4.27592e-18
8141.79757 4.26185e-18
8143.92117 4.24876e-18
8146.04477 4.23566e-18
8148.15836 4.22292e-18
8150.28197 4.21018e-18
8152.39555 4.19690e-18
8154.51916 4.18362e-18
8156.63274 4.16951e-18
8158.75635 4.15540e-18
8160.87995 4.14173e-18
8162.99354 4.12806e-18
8165.11714 4.11574e-18
8167.23073 4.10343e-18
8169.35433 4.09373e-18
8171.46792 4.08403e-18
8173.59152 4.07586e-18
8175.71513 4.06769e-18
8177.82872 4.06036e-18
8179.95232 4.05304e-18
8182.06591 4.04562e-18
8184.18951 4.03821e-18
8186.30310 4.03098e-18
8188.42670 4.02375e-18
8190.55030 4.01735e-18
8192.66389 4.01095e-18
8194.78750 4.00580e-18
8196.90108 4.00065e-18
8199.02469 3.99749e-18
8201.14829 3.99432e-18
8203.26188 3.99449e-18
8205.38548 3.99465e-18
8207.49907 3.99918e-18
8209.62267 4.00370e-18
8211.73626 4.01347e-18
8213.85986 4.02324e-18
8215.97345 4.03819e-18
8218.09706 4.05314e-18
8220.22066 4.07293e-18
8222.33425 4.09272e-18
8224.45785 4.11796e-18
8226.57144 4.14318e-18
8228.69504 4.17038e-18
8230.80863 4.19758e-18
8232.93223 4.22260e-18
8235.05584 4.24763e-18
8237.16942 4.26605e-18
8239.29303 4.28446e-18
8241.40661 4.29437e-18
8243.53022 4.30427e-18
8245.65382 4.30889e-18
8247.76741 4.31351e-18
8249.89101 4.31487e-18
8252.00460 4.31622e-18
8254.12820 4.31675e-18
8256.24179 4.31728e-18
8258.36540 4.31937e-18
8260.48900 4.32146e-18
8262.60259 4.32738e-18
8264.72619 4.33330e-18
8266.83978 4.34624e-18
8268.96338 4.35919e-18
8271.07697 4.37789e-18
8273.20057 4.39660e-18
8275.31416 4.41882e-18
8277.43776 4.44104e-18
8279.56137 4.46462e-18
8281.67495 4.48819e-18
8283.79856 4.51126e-18
8285.91215 4.53434e-18
8288.03575 4.55598e-18
8290.14934 4.57762e-18
8292.27294 4.59657e-18
8294.39654 4.61552e-18
8296.51013 4.63055e-18
8298.63373 4.64558e-18
8300.74732 4.65933e-18
8302.87093 4.67307e-18
8304.99453 4.68757e-18
8307.10812 4.70208e-18
8309.23172 4.72004e-18
8311.34531 4.73799e-18
8313.46891 4.75954e-18
8315.58250 4.78109e-18
8317.70610 4.80584e-18
8319.82971 4.83059e-18
8321.94329 4.85859e-18
8324.06690 4.88658e-18
8326.18048 4.91694e-18
8328.30409 4.94730e-18
8330.41768 4.97804e-18
8332.54128 5.00878e-18
8334.65487 5.03804e-18
8336.77847 5.06730e-18
8338.90207 5.09314e-18
8341.01566 5.11897e-18
8343.13927 5.14334e-18
8345.25285 5.16770e-18
8347.37646 5.19185e-18
8349.50006 5.21599e-18
8351.61365 5.24205e-18
8353.73725 5.26810e-18
8355.85084 5.29520e-18
8357.97444 5.32229e-18
8360.08803 5.34936e-18
8362.21163 5.37643e-18
8364.32522 5.40236e-18
8366.44882 5.42828e-18
8368.57243 5.45308e-18
8370.68602 5.47788e-18
8372.80962 5.50314e-18
8374.92321 5.52840e-18
8377.04681 5.55513e-18
8379.17042 5.58186e-18
8381.28400 5.61110e-18
8383.40761 5.64033e-18
8385.52119 5.67327e-18
8387.64480 5.70620e-18
8389.75838 5.74379e-18
8391.88199 5.78137e-18
8393.99558 5.82547e-18
8396.11918 5.86957e-18
8398.24278 5.91760e-18
8400.35637 5.96563e-18
8402.47997 6.01481e-18
8404.59356 6.06399e-18
8406.71717 6.11066e-18
8408.83075 6.15733e-18
8410.95436 6.20105e-18
8413.07796 6.24477e-18
8415.19155 6.28883e-18
8417.31515 6.33288e-18
8419.42874 6.37939e-18
8421.55234 6.42591e-18
8423.67595 6.47704e-18
8425.78953 6.52816e-18
8427.91314 6.58245e-18
8430.02672 6.63674e-18
8432.15033 6.69332e-18
8434.26392 6.74990e-18
8436.38752 6.80826e-18
8438.51112 6.86661e-18
8440.62471 6.92384e-18
8442.74831 6.98106e-18
8444.86190 7.03429e-18
8446.98551 7.08751e-18
8449.09909 7.13326e-18
8451.22270 7.17901e-18
8453.33628 7.21654e-18
8455.45989 7.25405e-18
8457.58349 7.28531e-18
8459.69708 7.31656e-18
8461.82068 7.34294e-18
8463.93427 7.36931e-18
8466.05787 7.39249e-18
8468.17146 7.41567e-18
8470.29506 7.43683e-18
8472.41867 7.45799e-18
8474.53226 7.47848e-18
8476.65586 7.49897e-18
8478.76945 7.52043e-18
8480.89305 7.54187e-18
8483.01665 7.56409e-18
8485.13024 7.58631e-18
8487.25385 7.60890e-18
8489.36743 7.63149e-18
8491.49104 7.65392e-18
8493.60462 7.67634e-18
8495.72823 7.69815e-18
8497.85183 7.71995e-18
8499.96542 7.74081e-18
8502.08902 7.76166e-18
8504.20261 7.78110e-18
8506.32621 7.80054e-18
8508.43980 7.81812e-18
8510.56340 7.83569e-18
8512.68701 7.85052e-18
8514.80060 7.86536e-18
8516.92420 7.87683e-18
8519.03779 7.88830e-18
8521.16139 7.89576e-18
8523.27498 7.90322e-18
8525.39858 7.90695e-18
8527.51217 7.91068e-18
8529.63577 7.91116e-18
8531.75938 7.91165e-18
8533.87296 7.90901e-18
8535.99657 7.90637e-18
8538.11015 7.90204e-18
8540.23376 7.89771e-18
8542.35736 7.89393e-18
8544.47095 7.89015e-18
8546.59455 7.88898e-18
8548.70814 7.88780e-18
8550.83174 7.89081e-18
8552.94533 7.89381e-18
8555.06893 7.89938e-18
8557.19254 7.90495e-18
8559.30613 7.91206e-18
8561.42973 7.91917e-18
8563.54332 7.92679e-18
8565.66692 7.93441e-18
8567.78051 7.94054e-18
8569.90411 7.94666e-18
8572.02772 7.94951e-18
8574.14130 7.95236e-18
8576.26491 7.94918e-18
8578.37849 7.94600e-18
8580.50210 7.93769e-18
8582.61568 7.92939e-18
8584.73929 7.91911e-18
8586.86289 7.90883e-18
8588.97648 7.89915e-18
8591.10008 7.88947e-18
8593.21367 7.88266e-18
8595.33727 7.87586e-18
8597.45086 7.87160e-18
8599.57447 7.86734e-18
8601.68805 7.86575e-18
8603.81166 7.86417e-18
8605.93526 7.86569e-18
8608.04885 7.86721e-18
8610.17245 7.86855e-18
8612.28604 7.86988e-18
8614.40964 7.86797e-18
8616.53325 7.86606e-18
8618.64683 7.85731e-18
8620.77044 7.84855e-18
8622.88403 7.83196e-18
8625.00763 7.81537e-18
8627.12122 7.79164e-18
8629.24482 7.76791e-18
8631.36842 7.73725e-18
8633.48201 7.70658e-18
8635.60562 7.67008e-18
8637.71920 7.63358e-18
8639.84281 7.59504e-18
8641.95639 7.55651e-18
8644.08000 7.51918e-18
8646.19358 7.48185e-18
8648.31719 7.44942e-18
8650.44079 7.41699e-18
8652.55438 7.38938e-18
8654.67798 7.36177e-18
8656.79157 7.33874e-18
8658.91517 7.31571e-18
8661.02876 7.29740e-18
8663.15237 7.27910e-18
8665.27597 7.26355e-18
8667.38956 7.24800e-18
8669.51316 7.23235e-18
8671.62675 7.21669e-18
8673.75035 7.19802e-18
8675.87395 7.17935e-18
8677.98754 7.15551e-18
8680.11115 7.13167e-18
8682.22473 7.10359e-18
8684.34834 7.07551e-18
8686.46192 7.04357e-18
8688.58553 7.01163e-18
8690.70913 6.97632e-18
8692.82272 6.94102e-18
8694.94632 6.90456e-18
8697.05991 6.86811e-18
8699.18351 6.83261e-18
8701.29710 6.79712e-18
8703.42071 6.76523e-18
8705.53429 6.73334e-18
8707.65790 6.70556e-18
8709.78150 6.67778e-18
8711.89509 6.65361e-18
8714.01869 6.62943e-18
8716.13228 6.60855e-18
8718.25588 6.58768e-18
8720.37949 6.56940e-18
8722.49307 6.55112e-18
8724.61668 6.53412e-18
8726.73026 6.51712e-18
8728.85387 6.50013e-18
8730.96745 6.48313e-18
8733.09106 6.46475e-18
8735.21466 6.44637e-18
8737.32825 6.42607e-18
8739.45185 6.40576e-18
8741.56544 6.38308e-18
8743.68905 6.36040e-18
8745.80263 6.33483e-18
8747.92624 6.30925e-18
8750.04984 6.28125e-18
8752.16343 6.25325e-18
8754.28703 6.22375e-18
8756.40062 6.19425e-18
8758.52422 6.16418e-18
8760.63781 6.13411e-18
8762.76141 6.10452e-18
8764.88502 6.07492e-18
8766.99860 6.04686e-18
8769.12221 6.01879e-18
8771.23580 5.99334e-18
8773.35940 5.96789e-18
8775.47299 5.94624e-18
8777.59659 5.92459e-18
8779.72019 5.90655e-18
8781.83378 5.88851e-18
8783.95738 5.87400e-18
8786.07097 5.85950e-18
8788.19458 5.84799e-18
8790.30816 5.83648e-18
8792.43177 5.82859e-18
8794.54535 5.82070e-18
8796.66896 5.81724e-18
8798.79256 5.81378e-18
8800.90615 5.81531e-18
8803.02975 5.81684e-18
8805.14334 5.82348e-18
8807.26694 5.83011e-18
8809.39055 5.84107e-18
8811.50413 5.85203e-18
8813.62774 5.86666e-18
8815.74133 5.88128e-18
8817.86493 5.89907e-18
8819.97852 5.91686e-18
8822.10212 5.93441e-18
8824.22573 5.95196e-18
8826.33931 5.96652e-18
8828.46292 5.98108e-18
8830.57650 5.98921e-18
8832.70011 5.99734e-18
8834.81369 5.99935e-18
8836.93730 6.00137e-18
8839.05088 5.99877e-18
8841.17449 5.99617e-18
8843.29809 5.98990e-18
8845.41168 5.98362e-18
8847.53528 5.97568e-18
8849.64887 5.96774e-18
8851.77247 5.96188e-18
8853.89608 5.95603e-18
8856.00967 5.95552e-18
8858.13327 5.95501e-18
8860.24686 5.96338e-18
8862.37046 5.97176e-18
8864.48405 5.98500e-18
8866.60765 5.99824e-18
8868.73126 6.01320e-18
8870.84484 6.02817e-18
8872.96845 6.04096e-18
8875.08203 6.05376e-18
8877.20564 6.06241e-18
8879.31923 6.07106e-18
8881.44283 6.07407e-18
8883.56643 6.07708e-18
8885.68002 6.07287e-18
8887.80362 6.06865e-18
8889.91721 6.05641e-18
8892.04082 6.04417e-18
8894.15440 6.02423e-18
8896.27801 6.00428e-18
8898.39159 5.97696e-18
8900.51520 5.94964e-18
8902.63880 5.91529e-18
8904.75239 5.88094e-18
8906.87599 5.84524e-18
8908.98958 5.80955e-18
8911.11318 5.77705e-18
8913.23679 5.74455e-18
8915.35037 5.72137e-18
8917.47398 5.69819e-18
8919.58757 5.68283e-18
8921.71117 5.66747e-18
8923.82476 5.65693e-18
8925.94836 5.64640e-18
8928.07196 5.63829e-18
8930.18555 5.63018e-18
8932.30916 5.62153e-18
8934.42274 5.61288e-18
8936.54635 5.60039e-18
8938.65993 5.58790e-18
8940.78354 5.56830e-18
8942.90714 5.54870e-18
8945.02073 5.51888e-18
8947.14433 5.48905e-18
8949.25792 5.45463e-18
8951.38152 5.42021e-18
8953.49511 5.38556e-18
8955.61871 5.35091e-18
8957.74232 5.32104e-18
8959.85591 5.29117e-18
8961.97951 5.26894e-18
8964.09310 5.24671e-18
8966.21670 5.23426e-18
8968.33029 5.22180e-18
8970.45389 5.22218e-18
8972.57750 5.22255e-18
8974.69108 5.23513e-18
8976.81469 5.24770e-18
8978.92827 5.26715e-18
8981.05188 5.28660e-18
8983.16546 5.30843e-18
8985.28907 5.33027e-18
8987.41267 5.34962e-18
8989.52626 5.36896e-18
8991.64986 5.38507e-18
8993.76345 5.40117e-18
8995.88705 5.41266e-18
8998.00064 5.42414e-18
9000.12425 5.42974e-18
9002.24785 5.43533e-18
9004.36144 5.43527e-18
9006.48504 5.43521e-18
9008.59863 5.43026e-18
9010.72223 5.42530e-18
9012.83582 5.41660e-18
9014.95942 5.40790e-18
9017.08303 5.39674e-18
9019.19661 5.38558e-18
9021.32022 5.37327e-18
9023.43380 5.36096e-18
9025.55741 5.34879e-18
9027.67100 5.33662e-18
9029.79460 5.32581e-18
9031.90819 5.31500e-18
9034.03179 5.30907e-18
9036.15539 5.30313e-18
9038.26898 5.30458e-18
9040.39258 5.30602e-18
9042.50617 5.31822e-18
9044.62978 5.33041e-18
9046.75338 5.35051e-18
9048.86697 5.37060e-18
9050.99057 5.39502e-18
9053.10416 5.41944e-18
9055.22776 5.44511e-18
9057.34135 5.47078e-18
9059.46495 5.49386e-18
9061.58856 5.51695e-18
9063.70214 5.53335e-18
9065.82575 5.54975e-18
9067.93933 5.55520e-18
9070.06294 5.56066e-18
9072.17653 5.55184e-18
9074.30013 5.54302e-18
9076.42373 5.52783e-18
9078.53732 5.51264e-18
9080.66093 5.49679e-18
9082.77451 5.48094e-18
9084.89812 5.47234e-18
9087.01170 5.46374e-18
9089.13531 5.46127e-18
9091.25891 5.45856e-18
9093.37250 5.46074e-18
9095.49610 5.46292e-18
9097.60969 5.46849e-18
9099.73329 5.47407e-18
9101.84688 5.48172e-18
9103.97048 5.48937e-18
9106.09409 5.49792e-18
9108.20767 5.50647e-18
9110.33128 5.51419e-18
9112.44487 5.52190e-18
9114.56847 5.52729e-18
9116.68206 5.53267e-18
9118.80566 5.53792e-18
9120.92927 5.54316e-18
9123.04285 5.54959e-18
9125.16646 5.55601e-18
9127.28004 5.56587e-18
9129.40365 5.57573e-18
9131.51723 5.58694e-18
9133.64084 5.59815e-18
9135.76444 5.60873e-18
9137.87803 5.61931e-18
9140.00163 5.62697e-18
9142.11522 5.63462e-18
9144.23882 5.63881e-18
9146.35241 5.64300e-18
9148.47602 5.64457e-18
9150.59962 5.64614e-18
9152.71321 5.64559e-18
9154.83681 5.64504e-18
9156.95040 5.64307e-18
9159.07400 5.64110e-18
9161.18759 5.63831e-18
9163.31119 5.63553e-18
9165.43480 5.63266e-18
9167.54838 5.62980e-18
9169.67199 5.62749e-18
9171.78557 5.62518e-18
9173.90918 5.62444e-18
9176.02277 5.62370e-18
9178.14637 5.62535e-18
9180.26997 5.62700e-18
9182.38356 5.63214e-18
9184.50716 5.63728e-18
9186.62075 5.64550e-18
9188.74436 5.65372e-18
9190.85794 5.66359e-18
9192.98155 5.67346e-18
9195.10515 5.68363e-18
9197.21874 5.69380e-18
9199.34234 5.70296e-18
9201.45593 5.71213e-18
9203.57953 5.72028e-18
9205.69312 5.72842e-18
9207.81672 5.73514e-18
9209.94033 5.74185e-18
9212.05391 5.74672e-18
9214.17752 5.75158e-18
9216.29111 5.75411e-18
9218.41471 5.75663e-18
9220.52830 5.75627e-18
9222.65190 5.75591e-18
9224.77550 5.75255e-18
9226.88909 5.74919e-18
9229.01270 5.74157e-18
9231.12628 5.73396e-18
9233.24989 5.72032e-18
9235.36347 5.70667e-18
9237.48708 5.68566e-18
9239.61068 5.66465e-18
9241.72427 5.63537e-18
9243.84787 5.60610e-18
9245.96146 5.56896e-18
9248.08506 5.53182e-18
9250.19865 5.48731e-18
9252.32225 5.44280e-18
9254.44586 5.39100e-18
9256.55945 5.33921e-18
9258.68305 5.28503e-18
9260.79664 5.23086e-18
9262.92024 5.17881e-18
9265.03383 5.12676e-18
9267.15743 5.08255e-18
9269.27102 5.03834e-18
9271.39462 5.00299e-18
9273.51823 4.96765e-18
9275.63181 4.93983e-18
9277.75542 4.91200e-18
9279.86900 4.89028e-18
9281.99261 4.86856e-18
9284.11621 4.85174e-18
9286.22980 4.83493e-18
9288.35340 4.82530e-18
9290.46699 4.81568e-18
9292.59059 4.81414e-18
9294.70418 4.81260e-18
9296.82778 4.82161e-18
9298.95139 4.83062e-18
9301.06498 4.84182e-18
9303.18858 4.85302e-18
9305.30217 4.85970e-18
9307.42577 4.86638e-18
9309.53936 4.85892e-18
9311.66296 4.85147e-18
9313.78657 4.83229e-18
9315.90015 4.81310e-18
9318.02376 4.78966e-18
9320.13734 4.76622e-18
9322.26095 4.74469e-18
9324.37453 4.72317e-18
9326.49814 4.70901e-18
9328.62174 4.69485e-18
9330.73533 4.68901e-18
9332.85893 4.68318e-18
9334.97252 4.68785e-18
9337.09613 4.69253e-18
9339.20971 4.71115e-18
9341.33332 4.72977e-18
9343.45692 4.75339e-18
9345.57051 4.77701e-18
9347.69411 4.79849e-18
9349.80770 4.81998e-18
9351.93130 4.82689e-18
9354.04489 4.83379e-18
9356.16849 4.83187e-18
9358.29210 4.82995e-18
9360.40568 4.83071e-18
9362.52929 4.83147e-18
9364.64287 4.84580e-18
9366.76648 4.86014e-18
9368.88007 4.89357e-18
9371.00367 4.92700e-18
9373.12727 4.96753e-18
9375.24086 5.00806e-18
9377.36447 5.04870e-18
9379.47805 5.08933e-18
9381.60166 5.12283e-18
9383.71524 5.15633e-18
9385.83885 5.17504e-18
9387.96245 5.19375e-18
9390.07604 5.19169e-18
9392.19964 5.18963e-18
9394.31323 5.15519e-18
9396.43683 5.12075e-18
9398.55042 5.06627e-18
9400.67402 5.01178e-18
9402.78761 4.95642e-18
9404.91122 4.90106e-18
9407.03482 4.86332e-18
9409.14841 4.82559e-18
9411.27201 4.81769e-18
9413.39561 4.80979e-18
9415.50920 4.82632e-18
9417.63280 4.84285e-18
9419.74639 4.88261e-18
9421.87000 4.92238e-18
9423.98358 4.98427e-18
9426.10719 5.04616e-18
9428.22077 5.11049e-18
9430.34438 5.17482e-18
9432.46798 5.22522e-18
9434.58157 5.27561e-18
9436.70517 5.28770e-18
9438.81876 5.29979e-18
9440.94236 5.28129e-18
9443.05595 5.26279e-18
9445.17956 5.22974e-18
9447.30316 5.19668e-18
9449.41675 5.16435e-18
9451.54035 5.13202e-18
9453.65394 5.11127e-18
9455.77754 5.09051e-18
9457.89113 5.07926e-18
9460.01473 5.06801e-18
9462.13834 5.06837e-18
9464.25192 5.06873e-18
9466.37553 5.08242e-18
9468.48911 5.09612e-18
9470.61272 5.11638e-18
9472.72631 5.13663e-18
9474.84991 5.15776e-18
9476.97351 5.17888e-18
9479.08710 5.19051e-18
9481.21070 5.20214e-18
9483.32429 5.20944e-18
9485.44790 5.21675e-18
9487.56148 5.22735e-18
9489.68509 5.23796e-18
9491.80869 5.26052e-18
9493.92228 5.28308e-18
9496.04588 5.31911e-18
9498.15947 5.35515e-18
9500.28307 5.39204e-18
9502.39666 5.42893e-18
9504.52026 5.45814e-18
9506.64387 5.48735e-18
9508.75745 5.49903e-18
9510.88106 5.51071e-18
9512.99465 5.50956e-18
9515.11825 5.50841e-18
9517.23184 5.49696e-18
9519.35544 5.48551e-18
9521.47904 5.46835e-18
9523.59263 5.45118e-18
9525.71623 5.42802e-18
9527.82982 5.40485e-18
9529.95343 5.37532e-18
9532.06701 5.34579e-18
9534.19062 5.30891e-18
9536.31422 5.27203e-18
9538.42781 5.23052e-18
9540.55141 5.18902e-18
9542.66500 5.15163e-18
9544.78860 5.11424e-18
9546.91221 5.08770e-18
9549.02579 5.06116e-18
9551.14940 5.05236e-18
9553.26298 5.04356e-18
9555.38659 5.04583e-18
9557.50018 5.04810e-18
9559.62378 5.05663e-18
9561.73737 5.06516e-18
9563.86097 5.07498e-18
9565.98458 5.08480e-18
9568.09816 5.09085e-18
9570.22177 5.09689e-18
9572.33535 5.09483e-18
9574.45896 5.09276e-18
9576.57254 5.07565e-18
9578.69615 5.05855e-18
9580.81975 5.02767e-18
9582.93334 4.99679e-18
9585.05694 4.96456e-18
9587.17053 4.93233e-18
9589.29413 4.90846e-18
9591.40772 4.88460e-18
9593.53132 4.87936e-18
9595.65493 4.87412e-18
9597.76852 4.87978e-18
9599.89212 4.88543e-18
9602.00571 4.89739e-18
9604.12931 4.90935e-18
9606.25292 4.92232e-18
9608.36650 4.93529e-18
9610.49011 4.94538e-18
9612.60369 4.95547e-18
9614.72730 4.95937e-18
9616.84088 4.96328e-18
9618.96449 4.95564e-18
9621.07807 4.94801e-18
9623.20168 4.92992e-18
9625.32528 4.91183e-18
9627.43887 4.89197e-18
9629.56247 4.87211e-18
9631.67606 4.85723e-18
9633.79967 4.84236e-18
9635.91325 4.83932e-18
9638.03686 4.83629e-18
9640.16046 4.84374e-18
9642.27405 4.85119e-18
9644.39765 4.86882e-18
9646.51124 4.88646e-18
9648.63484 4.91494e-18
9650.75845 4.94343e-18
9652.87203 4.97626e-18
9654.99564 5.00909e-18
9657.10922 5.03943e-18
9659.23283 5.06978e-18
9661.34642 5.08919e-18
9663.47002 5.10859e-18
9665.58361 5.11486e-18
9667.70721 5.12113e-18
9669.83081 5.11891e-18
9671.94440 5.11668e-18
9674.06800 5.10872e-18
9676.18159 5.10076e-18
9678.30520 5.09036e-18
9680.41878 5.07997e-18
9682.54239 5.06927e-18
9684.66599 5.05858e-18
9686.77958 5.04992e-18
9688.90318 5.04125e-18
9691.01677 5.03900e-18
9693.14037 5.03675e-18
9695.25396 5.03535e-18
9697.37756 5.03394e-18
9699.50117 5.02783e-18
9701.61476 5.02173e-18
9703.73836 5.00347e-18
9705.85195 4.98521e-18
9707.97555 4.95479e-18
9710.08914 4.92436e-18
9712.21274 4.88856e-18
9714.33635 4.85276e-18
9716.44993 4.81664e-18
9718.57354 4.78053e-18
9720.68712 4.74920e-18
9722.81073 4.71787e-18
9724.92431 4.68944e-18
9727.04792 4.66102e-18
9729.17152 4.63521e-18
9731.28511 4.60941e-18
9733.40871 4.58523e-18
9735.52230 4.56106e-18
9737.64590 4.53923e-18
9739.75949 4.51740e-18
9741.88310 4.49833e-18
9744.00670 4.47925e-18
9746.12029 4.46363e-18
9748.24389 4.44800e-18
9750.35748 4.43497e-18
9752.48108 4.42193e-18
9754.59467 4.40955e-18
9756.71827 4.39717e-18
9758.84188 4.38371e-18
9760.95546 4.37026e-18
9763.07907 4.35443e-18
9765.19265 4.33860e-18
9767.31626 4.32287e-18
9769.42985 4.30714e-18
9771.55345 4.29309e-18
9773.67705 4.27903e-18
9775.79064 4.26803e-18
9777.91424 4.25702e-18
9780.02783 4.25087e-18
9782.15143 4.24472e-18
9784.27504 4.24465e-18
9786.38863 4.24458e-18
9788.51223 4.25332e-18
9790.62582 4.26206e-18
9792.74942 4.27646e-18
9794.86301 4.29086e-18
9796.98661 4.30399e-18
9799.10020 4.31712e-18
9801.22380 4.32316e-18
9803.34741 4.32919e-18
9805.46099 4.32312e-18
9807.58460 4.31706e-18
9809.69818 4.29947e-18
9811.82179 4.28187e-18
9813.93538 4.25274e-18
9816.05898 4.22361e-18
9818.18258 4.18229e-18
9820.29617 4.14098e-18
9822.41978 4.09522e-18
9824.53336 4.04945e-18
9826.65697 4.00669e-18
9828.77055 3.96392e-18
9830.89416 3.93350e-18
9833.01776 3.90308e-18
9835.13135 3.88745e-18
9837.25495 3.87182e-18
9839.36854 3.86912e-18
9841.49214 3.86642e-18
9843.61575 3.87545e-18
9845.72933 3.88448e-18
9847.85294 3.90350e-18
9849.96652 3.92253e-18
9852.09013 3.95162e-18
9854.20372 3.98070e-18
9856.32732 4.01852e-18
9858.44091 4.05634e-18
9860.56451 4.10101e-18
9862.68812 4.14567e-18
9864.80170 4.19478e-18
9866.92531 4.24389e-18
9869.03889 4.29447e-18
9871.16250 4.34506e-18
9873.27608 4.39646e-18
9875.39969 4.44786e-18
9877.52329 4.49281e-18
9879.63688 4.53775e-18
9881.76048 4.56656e-18
9883.87407 4.59537e-18
9885.99767 4.59867e-18
9888.11126 4.60196e-18
9890.23487 4.57474e-18
9892.35847 4.54752e-18
9894.47206 4.50256e-18
9896.59566 4.45760e-18
9898.70925 4.40388e-18
9900.83285 4.35016e-18
9902.94644 4.29844e-18
9905.07004 4.24672e-18
9907.19365 4.20122e-18
9909.30723 4.15572e-18
9911.43084 4.12049e-18
9913.54442 4.08526e-18
9915.66803 4.06659e-18
9917.79163 4.04792e-18
9919.90522 4.04236e-18
9922.02882 4.03680e-18
9924.14241 4.03656e-18
9926.26601 4.03633e-18
9928.37960 4.03392e-18
9930.50321 4.03152e-18
9932.61679 4.02087e-18
9934.74040 4.01023e-18
9936.86400 3.99238e-18
9938.97759 3.97453e-18
9941.10119 3.94891e-18
9943.21478 3.92329e-18
9945.33838 3.88940e-18
9947.45197 3.85552e-18
9949.57557 3.81839e-18
9951.69918 3.78126e-18
9953.81276 3.74560e-18
9955.93637 3.70996e-18
9958.04996 3.68147e-18
9960.17356 3.65300e-18
9962.28715 3.63361e-18
9964.41075 3.61423e-18
9966.53435 3.60405e-18
9968.64794 3.59386e-18
9970.77155 3.59383e-18
9972.88513 3.59380e-18
9975.00874 3.60295e-18
9977.13234 3.61211e-18
9979.24593 3.62471e-18
9981.36953 3.63731e-18
9983.48312 3.64858e-18
