# wavelength flux
3474.99588 8.76615e-18
3476.46610 8.68412e-18
3477.93632 7.61856e-18
3479.40654 8.09791e-18
3480.87676 8.89179e-18
3482.34698 8.02658e-18
3483.81720 8.06214e-18
3485.28742 7.87332e-18
3486.75764 8.71732e-18
3488.22786 8.30252e-18
3489.69808 8.12437e-18
3491.16830 8.59425e-18
3492.63852 8.24782e-18
3494.10874 7.68859e-18
3495.57896 7.98140e-18
3497.04918 7.77865e-18
3498.51940 8.69262e-18
3499.98962 9.21398e-18
3501.45984 8.48725e-18
3502.93006 8.29919e-18
3504.40028 9.16903e-18
3505.87050 8.48590e-18
3507.34072 7.78227e-18
3508.81094 7.92337e-18
3510.28116 8.87108e-18
3511.75138 8.60100e-18
3513.22160 7.58405e-18
3514.69182 8.39975e-18
3516.16204 9.00406e-18
3517.63226 8.49303e-18
3519.10248 8.41810e-18
3520.57270 9.08380e-18
3522.04292 8.87152e-18
3523.51314 9.35405e-18
3524.98336 7.87021e-18
3526.45358 8.21508e-18
3527.92380 9.83720e-18
3529.39402 8.87494e-18
3530.86424 8.36865e-18
3532.33446 9.00903e-18
3533.80468 8.88682e-18
3535.27490 8.47763e-18
3536.74512 9.18447e-18
3538.20527 8.32606e-18
3539.67549 8.19476e-18
3541.14571 8.39424e-18
3542.61593 9.92094e-18
3544.08615 9.49799e-18
3545.55637 8.66432e-18
3547.02659 7.66620e-18
3548.49681 8.22561e-18
3549.96703 7.59501e-18
3551.43725 8.46852e-18
3552.90747 8.74065e-18
3554.37769 9.78770e-18
3555.84791 8.77052e-18
3557.31813 7.05693e-18
3558.78835 7.38645e-18
3560.25857 8.71630e-18
3561.72879 9.90765e-18
3563.19901 8.16644e-18
3564.66923 7.65481e-18
3566.13945 7.89535e-18
3567.60967 8.79870e-18
3569.07989 8.23332e-18
3570.55011 7.29119e-18
3572.02033 7.94298e-18
3573.49055 8.52568e-18
3574.96077 9.11780e-18
3576.43099 8.92963e-18
3577.90121 8.26279e-18
3579.37143 9.39107e-18
3580.84165 9.60400e-18
3582.31187 8.52204e-18
3583.78209 7.72030e-18
3585.25231 7.21388e-18
3586.72253 8.57165e-18
3588.19275 9.12128e-18
3589.66297 8.95466e-18
3591.13319 7.39213e-18
3592.60341 8.24708e-18
3594.07363 9.18856e-18
3595.54385 9.44691e-18
3597.01407 9.35315e-18
3598.48429 1.00823e-17
3599.95451 9.18607e-18
3601.42473 8.39335e-18
3602.88488 7.89835e-18
3604.36517 8.07735e-18
3605.82532 7.97102e-18
3607.29554 8.42860e-18
3608.76576 8.11292e-18
3610.23598 8.89270e-18
3611.70620 8.74879e-18
3613.17642 9.14031e-18
3614.64664 8.39250e-18
3616.11686 9.57717e-18
3617.58708 9.68827e-18
3619.05730 9.43102e-18
3620.52752 8.16055e-18
3621.99774 8.13657e-18
3623.46796 7.95261e-18
3624.93818 8.08942e-18
3626.40840 8.72153e-18
3627.87862 7.95228e-18
3629.34884 7.87163e-18
3630.81906 8.49913e-18
3632.28928 9.13215e-18
3633.75950 9.04479e-18
3635.22972 8.36170e-18
3636.69994 7.65063e-18
3638.17016 7.50243e-18
3639.64038 7.85301e-18
3641.11060 7.79736e-18
3642.58082 7.50858e-18
3644.05104 6.52218e-18
3645.52126 6.29328e-18
3646.99148 7.03428e-18
3648.46170 7.23674e-18
3649.93192 7.81337e-18
3651.40214 7.37272e-18
3652.87236 6.86913e-18
3654.34258 7.39050e-18
3655.81280 6.72151e-18
3657.28302 6.11673e-18
3658.75324 6.48527e-18
3660.22346 6.98552e-18
3661.69368 6.00706e-18
3663.16390 7.26752e-18
3664.63412 6.53733e-18
3666.10434 6.72958e-18
3667.57456 7.23503e-18
3669.04478 5.92187e-18
3670.51500 6.29416e-18
3671.97515 6.97420e-18
3673.44537 6.09127e-18
3674.91559 6.29142e-18
3676.38581 6.14705e-18
3677.85603 5.87142e-18
3679.32625 5.06606e-18
3680.79647 5.39018e-18
3682.26669 6.25707e-18
3683.73691 6.40442e-18
3685.20713 6.20240e-18
3686.67735 6.35873e-18
3688.14757 6.03934e-18
3689.61779 5.81623e-18
3691.08801 5.48094e-18
3692.55823 5.93715e-18
3694.02845 5.90098e-18
3695.49867 5.37431e-18
3696.96889 5.14887e-18
3698.43911 4.72805e-18
3699.90933 5.69199e-18
3701.37955 5.50058e-18
3702.84977 5.18112e-18
3704.31999 5.02363e-18
3705.79021 4.55544e-18
3707.26043 5.22935e-18
3708.73065 5.14719e-18
3710.20087 4.94975e-18
3711.67109 5.09626e-18
3713.14131 5.15954e-18
3714.61153 4.69578e-18
3716.08175 4.62811e-18
3717.55197 5.34721e-18
3719.02219 5.33313e-18
3720.49241 4.65820e-18
3721.96263 5.08317e-18
3723.43285 5.53935e-18
3724.90307 5.15121e-18
3726.37329 5.13863e-18
3727.84351 5.99779e-18
3729.31373 5.45274e-18
3730.78395 5.93820e-18
3732.25417 5.38043e-18
3733.72439 5.06504e-18
3735.19461 5.06756e-18
3736.66483 5.07007e-18
3738.13505 5.09837e-18
3739.59520 5.12667e-18
3741.06542 5.15497e-18
3742.53564 5.18326e-18
3744.00586 5.21155e-18
3745.47608 5.23984e-18
3746.94630 5.26813e-18
3748.41652 5.29642e-18
3749.88674 5.32470e-18
3751.35696 5.35299e-18
3752.82718 5.38127e-18
3754.29740 5.40956e-18
3755.76762 5.43784e-18
3757.23784 5.46612e-18
3758.70806 5.49439e-18
3760.17828 5.52267e-18
3761.64850 5.55094e-18
3763.11872 5.57922e-18
3764.58894 5.60749e-18
3766.05916 5.63577e-18
3767.52938 5.66403e-18
3768.99960 5.69230e-18
3770.46982 5.72057e-18
3771.94004 5.74883e-18
3773.41026 5.77709e-18
3774.88048 5.39685e-18
3776.35070 5.33270e-18
3777.82092 5.86266e-18
3779.29114 5.68070e-18
3780.76136 5.63021e-18
3782.23158 5.11355e-18
3783.70180 5.44202e-18
3785.17202 5.63894e-18
3786.64224 5.03862e-18
3788.11246 5.48563e-18
3789.58268 5.73598e-18
3791.05290 5.70127e-18
3792.52312 6.25131e-18
3793.99334 6.79509e-18
3795.46356 6.00987e-18
3796.93378 6.01773e-18
3798.40400 6.90023e-18
3799.87422 6.23048e-18
3801.34444 6.23816e-18
3802.81466 6.78655e-18
3804.28488 7.12906e-18
3805.75510 7.18769e-18
3807.21525 6.60385e-18
3808.68547 6.98197e-18
3810.15569 6.94074e-18
3811.62591 7.23929e-18
3813.09613 7.33192e-18
3814.56635 7.53027e-18
3816.03657 7.82191e-18
3817.50679 7.59051e-18
3818.97701 7.47347e-18
3820.44723 8.43105e-18
3821.91745 8.95075e-18
3823.38767 8.39422e-18
3824.85789 8.99634e-18
3826.32811 9.22759e-18
3827.79833 9.32764e-18
3829.26855 9.77846e-18
3830.73877 9.30511e-18
3832.20899 9.48672e-18
3833.67921 1.02179e-17
3835.14943 1.10920e-17
3836.61965 1.08479e-17
3838.08987 1.01133e-17
3839.56009 1.07599e-17
3841.03031 1.11214e-17
3842.50053 1.11485e-17
3843.97075 1.15925e-17
3845.44097 1.14857e-17
3846.91119 1.14049e-17
3848.38141 1.11783e-17
3849.85163 1.10617e-17
3851.32185 1.12327e-17
3852.79207 1.20298e-17
3854.26229 1.24838e-17
3855.73251 1.23336e-17
3857.20273 1.21070e-17
3858.67295 1.19558e-17
3860.14317 1.20271e-17
3861.61339 1.21117e-17
3863.08361 1.37753e-17
3864.55383 1.29533e-17
3866.02405 1.31723e-17
3867.49427 1.30419e-17
3868.96449 1.32558e-17
3870.43471 1.32822e-17
3871.90493 1.36487e-17
3873.37515 1.32438e-17
3874.83530 1.39937e-17
3876.30552 1.39445e-17
3877.77574 1.37214e-17
3879.24596 1.38054e-17
3880.71618 1.41776e-17
3882.18640 1.32628e-17
3883.65662 1.32766e-17
3885.12684 1.33205e-17
3886.59706 1.25633e-17
3888.06728 1.22219e-17
3889.53750 1.26128e-17
3891.00772 1.31434e-17
3892.47794 1.24272e-17
3893.94816 1.22274e-17
3895.41838 1.31723e-17
3896.88860 1.37253e-17
3898.35882 1.29882e-17
3899.82904 1.26474e-17
3901.29926 1.24249e-17
3902.76948 1.26112e-17
3904.23970 1.22541e-17
3905.70992 1.15390e-17
3907.18014 1.21515e-17
3908.65036 1.22845e-17
3910.12058 1.27430e-17
3911.59080 1.23991e-17
3913.06102 1.23548e-17
3914.53124 1.29745e-17
3916.00146 1.27150e-17
3917.47168 1.13526e-17
3918.94190 1.16384e-17
3920.41212 1.26553e-17
3921.88234 1.30874e-17
3923.35256 1.22401e-17
3924.82278 1.23682e-17
3926.29300 1.20872e-17
3927.76322 1.27589e-17
3929.23344 1.24224e-17
3930.70366 1.18771e-17
3932.17388 1.26714e-17
3933.64410 1.22944e-17
3935.11432 1.19359e-17
3936.58454 1.22354e-17
3938.05476 1.27829e-17
3939.52498 1.35315e-17
3940.98513 1.29544e-17
3942.45535 1.29937e-17
3943.92557 1.29857e-17
3945.39579 1.32923e-17
3946.86601 1.31968e-17
3948.33623 1.23895e-17
3949.80645 1.25498e-17
3951.27667 1.34636e-17
3952.74689 1.29420e-17
3954.21711 1.14824e-17
3955.68733 1.11936e-17
3957.15755 1.04016e-17
3958.62777 1.10828e-17
3960.09799 1.21287e-17
3961.56821 1.27722e-17
3963.03843 1.26770e-17
3964.50865 1.22876e-17
3965.97887 1.28968e-17
3967.44909 1.22815e-17
3968.91931 1.21579e-17
3970.38953 1.27972e-17
3971.85975 1.26455e-17
3973.32997 1.26761e-17
3974.80019 1.29676e-17
3976.27041 1.30349e-17
3977.74063 1.28049e-17
3979.21085 1.24687e-17
3980.68107 1.23621e-17
3982.15129 1.25825e-17
3983.62151 1.26629e-17
3985.09173 1.21019e-17
3986.56195 1.24525e-17
3988.03217 1.23665e-17
3989.50239 1.18474e-17
3990.97261 1.14175e-17
3992.44283 1.16978e-17
3993.91305 1.20458e-17
3995.38327 1.16798e-17
3996.85349 1.20681e-17
3998.32371 1.21077e-17
3999.79393 1.19035e-17
4001.26415 1.20383e-17
4002.73437 1.21668e-17
4004.20459 1.19523e-17
4005.67481 1.19171e-17
4007.13496 1.19573e-17
4008.61525 1.18213e-17
4010.07540 1.17037e-17
4011.54562 1.17316e-17
4013.01584 1.18757e-17
4014.48606 1.15317e-17
4015.95628 1.14585e-17
4017.42650 1.13942e-17
4018.89672 1.07934e-17
4020.36694 1.13759e-17
4021.83716 1.14381e-17
4023.30738 1.11808e-17
4024.77760 1.10771e-17
4026.24782 1.08888e-17
4027.71804 1.08382e-17
4029.18826 1.06312e-17
4030.65848 1.05450e-17
4032.12870 1.02585e-17
4033.59892 1.05109e-17
4035.06914 1.08298e-17
4036.53936 1.02611e-17
4038.00958 1.03498e-17
4039.47980 9.77445e-18
4040.95002 1.00896e-17
4042.42024 1.01763e-17
4043.89046 1.09520e-17
4045.36068 1.02799e-17
4046.83090 1.00141e-17
4048.30112 9.88550e-18
4049.77134 9.99399e-18
4051.24156 1.00650e-17
4052.71178 1.00084e-17
4054.18200 9.97464e-18
4055.65222 9.98023e-18
4057.12244 9.36372e-18
4058.59266 9.42905e-18
4060.06288 9.79540e-18
4061.53310 1.00344e-17
4063.00332 9.68881e-18
4064.47354 9.44351e-18
4065.94376 1.00099e-17
4067.41398 1.02470e-17
4068.88420 9.20286e-18
4070.35442 9.34357e-18
4071.82464 9.34560e-18
4073.29486 1.01176e-17
4074.76508 9.90623e-18
4076.22523 9.79680e-18
4077.69545 1.00952e-17
4079.16567 9.94558e-18
4080.63589 9.88687e-18
4082.10611 9.72040e-18
4083.57633 9.74587e-18
4085.04655 1.05059e-17
4086.51677 1.02647e-17
4087.98699 1.01233e-17
4089.45721 9.76199e-18
4090.92743 9.87445e-18
4092.39765 9.61775e-18
4093.86787 9.60038e-18
4095.33809 9.83713e-18
4096.80831 9.44404e-18
4098.27853 1.04897e-17
4099.74875 9.76186e-18
4101.21897 9.38659e-18
4102.68919 9.71783e-18
4104.15941 9.19189e-18
4105.62963 9.22049e-18
4107.09985 9.59239e-18
4108.57007 8.87738e-18
4110.04029 9.03199e-18
4111.51051 9.68416e-18
4112.98073 9.72120e-18
4114.45095 9.24470e-18
4115.92117 9.13720e-18
4117.39139 8.69749e-18
4118.86161 8.97207e-18
4120.33183 8.82713e-18
4121.80205 8.08228e-18
4123.27227 8.65505e-18
4124.74249 9.31544e-18
4126.21271 9.29670e-18
4127.68293 9.19026e-18
4129.15315 9.02542e-18
4130.62337 8.96099e-18
4132.09359 8.96776e-18
4133.56381 8.68113e-18
4135.03403 8.87422e-18
4136.50425 8.97878e-18
4137.97447 8.62786e-18
4139.44469 8.74575e-18
4140.91491 8.93030e-18
4142.37506 8.63164e-18
4143.84528 8.80757e-18
4145.31550 9.31424e-18
4146.78572 9.15897e-18
4148.25594 8.70009e-18
4149.72616 8.38287e-18
4151.19638 8.60880e-18
4152.66660 8.52726e-18
4154.13682 8.43609e-18
4155.60704 8.79628e-18
4157.07726 8.69948e-18
4158.54748 8.59167e-18
4160.01770 8.67683e-18
4161.48792 8.34497e-18
4162.95814 8.84017e-18
4164.42836 9.25258e-18
4165.89858 8.91887e-18
4167.36880 8.46537e-18
4168.83902 8.46166e-18
4170.30924 8.26250e-18
4171.77946 8.88632e-18
4173.24968 8.94177e-18
4174.71990 8.36607e-18
4176.19012 8.48079e-18
4177.66034 8.70122e-18
4179.13056 8.51998e-18
4180.60078 8.00482e-18
4182.07100 8.00540e-18
4183.54122 8.32385e-18
4185.01144 8.00358e-18
4186.48166 8.32210e-18
4187.95188 8.90679e-18
4189.42210 8.89401e-18
4190.89232 8.68705e-18
4192.36254 8.69367e-18
4193.83276 8.61776e-18
4195.30298 8.69906e-18
4196.77320 8.76660e-18
4198.24342 8.39735e-18
4199.71364 8.59180e-18
4201.18386 8.55275e-18
4202.65408 8.44890e-18
4204.12430 8.39848e-18
4205.59452 8.61893e-18
4207.06474 8.75057e-18
4208.52489 8.44660e-18
4209.99511 8.49716e-18
4211.46533 8.66764e-18
4212.93555 8.83368e-18
4214.40577 8.78710e-18
4215.87599 8.83093e-18
4217.34621 8.49174e-18
4218.81643 8.65403e-18
4220.28665 8.87205e-18
4221.75687 8.48588e-18
4223.22709 8.51752e-18
4224.69731 8.70682e-18
4226.16753 8.44878e-18
4227.63775 8.17477e-18
4229.10797 8.34578e-18
4230.57819 8.52426e-18
4232.04841 7.97292e-18
4233.51863 7.92603e-18
4234.98885 7.91217e-18
4236.45907 8.33102e-18
4237.92929 8.54785e-18
4239.39951 7.87610e-18
4240.86973 8.07134e-18
4242.33995 8.43311e-18
4243.81017 8.11018e-18
4245.28039 8.04279e-18
4246.75061 8.04433e-18
4248.22083 8.06778e-18
4249.69105 7.69013e-18
4251.16127 8.09027e-18
4252.63149 8.16392e-18
4254.10171 7.73457e-18
4255.57193 8.09219e-18
4257.04215 7.84593e-18
4258.51237 7.65647e-18
4259.98259 7.49702e-18
4261.45281 8.07596e-18
4262.92303 7.60216e-18
4264.39325 7.27080e-18
4265.86347 7.69835e-18
4267.33369 7.63933e-18
4268.80391 7.67455e-18
4270.27413 7.82553e-18
4271.74435 7.62102e-18
4273.21457 7.76960e-18
4274.68479 7.11830e-18
4276.15501 7.26924e-18
4277.62523 7.70939e-18
4279.08538 7.79026e-18
4280.55560 7.36429e-18
4282.02582 7.14406e-18
4283.49604 7.17263e-18
4284.96626 7.49175e-18
4286.43648 7.45172e-18
4287.90670 7.19319e-18
4289.37692 7.31331e-18
4290.84714 7.48588e-18
4292.31736 7.43186e-18
4293.78758 7.31075e-18
4295.25780 7.70788e-18
4296.72802 7.82870e-18
4298.19824 7.24792e-18
4299.66846 7.13043e-18
4301.13868 7.36201e-18
4302.60890 7.64398e-18
4304.07912 7.83086e-18
4305.54934 7.45458e-18
4307.01956 7.15682e-18
4308.48978 7.29235e-18
4309.96000 7.80748e-18
4311.43022 7.58077e-18
4312.90044 7.52040e-18
4314.37066 7.55421e-18
4315.84088 7.65247e-18
4317.31110 7.75720e-18
4318.78132 7.94200e-18
4320.25154 8.15547e-18
4321.72176 8.03917e-18
4323.19198 8.31737e-18
4324.66220 8.49649e-18
4326.13242 8.59004e-18
4327.60264 8.18931e-18
4329.07286 7.92885e-18
4330.54308 8.21660e-18
4332.01330 8.07652e-18
4333.48352 8.00309e-18
4334.95374 8.00575e-18
4336.42396 8.26048e-18
4337.89418 8.39264e-18
4339.36440 8.31218e-18
4340.83462 8.27620e-18
4342.30484 8.33857e-18
4343.77506 8.78653e-18
4345.24528 8.66587e-18
4346.70543 8.08189e-18
4348.17565 8.29565e-18
4349.64587 8.21421e-18
4351.11609 8.55149e-18
4352.58631 8.96485e-18
4354.05653 8.27157e-18
4355.52675 8.62347e-18
4356.99697 8.71722e-18
4358.46719 9.00762e-18
4359.93741 8.39070e-18
4361.40763 8.61515e-18
4362.87785 9.26350e-18
4364.34807 9.36886e-18
4365.81829 9.47418e-18
4367.28851 9.57953e-18
4368.75873 9.68484e-18
4370.22895 9.79017e-18
4371.69917 9.89551e-18
4373.16939 1.00008e-17
4374.63961 1.01061e-17
4376.10983 1.02114e-17
4377.58005 1.03167e-17
4379.05027 1.04220e-17
4380.52049 1.05273e-17
4381.99071 1.06326e-17
4383.46093 1.07379e-17
4384.93115 1.08431e-17
4386.40137 1.09484e-17
4387.87159 1.10536e-17
4389.34181 1.11589e-17
4390.81203 1.12641e-17
4392.28225 1.13693e-17
4393.75247 1.14746e-17
4395.22269 1.15798e-17
4396.69291 1.16850e-17
4398.16313 1.17903e-17
4399.63335 1.18955e-17
4401.10357 1.20007e-17
4402.57379 1.21059e-17
4404.04401 1.22111e-17
4405.51423 1.23162e-17
4406.98445 1.24214e-17
4408.45467 1.25266e-17
4409.92489 1.26318e-17
4411.39511 1.27369e-17
4412.85526 1.28421e-17
4414.32548 1.29472e-17
4415.79570 1.30524e-17
4417.26592 1.31575e-17
4418.73614 1.32627e-17
4420.20636 1.33678e-17
4421.67658 1.34729e-17
4423.14680 1.35780e-17
4424.61702 1.36832e-17
4426.08724 1.35643e-17
4427.55746 1.37238e-17
4429.02768 1.37570e-17
4430.49790 1.34362e-17
4431.96812 1.39013e-17
4433.43834 1.46285e-17
4434.90856 1.51889e-17
4436.37878 1.50212e-17
4437.84900 1.43480e-17
4439.31922 1.44609e-17
4440.78944 1.44710e-17
4442.25966 1.49169e-17
4443.72988 1.40311e-17
4445.20010 1.41372e-17
4446.67032 1.42990e-17
4448.14054 1.42831e-17
4449.61076 1.44813e-17
4451.08098 1.45274e-17
4452.55120 1.44616e-17
4454.02142 1.43196e-17
4455.49164 1.47833e-17
4456.96186 1.46110e-17
4458.43208 1.43967e-17
4459.90230 1.42383e-17
4461.37252 1.43102e-17
4462.84274 1.41369e-17
4464.31296 1.36183e-17
4465.78318 1.41411e-17
4467.25340 1.41249e-17
4468.72362 1.37155e-17
4470.19384 1.43218e-17
4471.66406 1.47128e-17
4473.13428 1.49887e-17
4474.60450 1.44347e-17
4476.07472 1.45506e-17
4477.54494 1.47769e-17
4479.01516 1.47439e-17
4480.47531 1.44313e-17
4481.94553 1.48363e-17
4483.41575 1.48215e-17
4484.88597 1.50804e-17
4486.35619 1.50235e-17
4487.82641 1.41687e-17
4489.29663 1.43893e-17
4490.76685 1.48402e-17
4492.23707 1.44387e-17
4493.70729 1.43506e-17
4495.17751 1.39750e-17
4496.64773 1.46589e-17
4498.11795 1.43509e-17
4499.58817 1.42246e-17
4501.05839 1.44030e-17
4502.52861 1.41501e-17
4503.99883 1.38292e-17
4505.46905 1.42616e-17
4506.93927 1.47327e-17
4508.40949 1.40975e-17
4509.87971 1.45649e-17
4511.34993 1.46240e-17
4512.82015 1.43523e-17
4514.29037 1.42000e-17
4515.76059 1.41222e-17
4517.23081 1.37907e-17
4518.70103 1.40838e-17
4520.17125 1.35650e-17
4521.64147 1.40757e-17
4523.11169 1.37059e-17
4524.58191 1.37873e-17
4526.05213 1.32893e-17
4527.52235 1.34400e-17
4528.99257 1.29453e-17
4530.46279 1.34368e-17
4531.93301 1.34970e-17
4533.40323 1.31847e-17
4534.87345 1.34041e-17
4536.34367 1.30441e-17
4537.81389 1.31340e-17
4539.28411 1.31554e-17
4540.75433 1.27028e-17
4542.22455 1.26380e-17
4543.69477 1.30188e-17
4545.16499 1.27906e-17
4546.62514 1.22287e-17
4548.09536 1.26463e-17
4549.56558 1.30038e-17
4551.03580 1.27529e-17
4552.50602 1.25546e-17
4553.97624 1.28088e-17
4555.44646 1.28012e-17
4556.91668 1.24678e-17
4558.38690 1.23958e-17
4559.85712 1.19983e-17
4561.32734 1.21828e-17
4562.79756 1.29666e-17
4564.26778 1.29423e-17
4565.73800 1.27914e-17
4567.20822 1.25920e-17
4568.67844 1.20465e-17
4570.14866 1.19506e-17
4571.61888 1.24103e-17
4573.08910 1.21298e-17
4574.55932 1.22331e-17
4576.02954 1.22940e-17
4577.49976 1.22060e-17
4578.96998 1.25635e-17
4580.44020 1.24501e-17
4581.91042 1.24274e-17
4583.38064 1.25547e-17
4584.85086 1.20900e-17
4586.32108 1.27958e-17
4587.79130 1.21549e-17
4589.26152 1.22693e-17
4590.73174 1.20475e-17
4592.20196 1.21916e-17
4593.67218 1.26579e-17
4595.14240 1.31376e-17
4596.61262 1.26204e-17
4598.08284 1.19423e-17
4599.55306 1.24476e-17
4601.02328 1.24846e-17
4602.49350 1.21332e-17
4603.96372 1.21388e-17
4605.43394 1.22821e-17
4606.90416 1.21359e-17
4608.37438 1.19683e-17
4609.84460 1.21795e-17
4611.31482 1.21138e-17
4612.77497 1.17620e-17
4614.24519 1.20628e-17
4615.71541 1.20825e-17
4617.18563 1.18488e-17
4618.65585 1.20765e-17
4620.12607 1.22529e-17
4621.59629 1.21310e-17
4623.06651 1.17700e-17
4624.53673 1.20049e-17
4626.00695 1.21876e-17
4627.47717 1.15659e-17
4628.94739 1.19270e-17
4630.41761 1.23445e-17
4631.88783 1.20771e-17
4633.35805 1.18893e-17
4634.82827 1.20547e-17
4636.29849 1.16553e-17
4637.76871 1.16972e-17
4639.23893 1.19109e-17
4640.70915 1.20518e-17
4642.17937 1.20104e-17
4643.64959 1.20554e-17
4645.11981 1.22219e-17
4646.59003 1.20111e-17
4648.06025 1.22298e-17
4649.53047 1.26355e-17
4651.00069 1.24612e-17
4652.47091 1.21382e-17
4653.94113 1.18737e-17
4655.41135 1.21915e-17
4656.88157 1.22780e-17
4658.35179 1.22046e-17
4659.82201 1.22518e-17
4661.29223 1.22112e-17
4662.76245 1.22623e-17
4664.23267 1.22793e-17
4665.70289 1.18872e-17
4667.17311 1.25231e-17
4668.64333 1.24270e-17
4670.11355 1.16062e-17
4671.58377 1.17582e-17
4673.05399 1.19285e-17
4674.52421 1.18116e-17
4675.99443 1.20090e-17
4677.46465 1.20646e-17
4678.93487 1.18461e-17
4680.39502 1.15952e-17
4681.87531 1.13325e-17
4683.33546 1.15090e-17
4684.80568 1.15553e-17
4686.27590 1.14308e-17
4687.74612 1.11863e-17
4689.21634 1.06541e-17
4690.68656 1.12374e-17
4692.15678 1.06023e-17
4693.62700 1.02352e-17
4695.09722 1.03333e-17
4696.56744 9.70894e-18
4698.03766 9.40762e-18
4699.50788 9.78622e-18
4700.97810 1.00587e-17
4702.44832 9.60111e-18
4703.91854 9.42949e-18
4705.38876 9.45955e-18
4706.85898 9.70930e-18
4708.32920 9.58143e-18
4709.79942 9.37288e-18
4711.26964 9.44166e-18
4712.73986 9.30834e-18
4714.21008 9.18673e-18
4715.68030 9.36417e-18
4717.15052 9.56581e-18
4718.62074 9.57969e-18
4720.09096 9.61143e-18
4721.56118 9.58494e-18
4723.03140 9.59409e-18
4724.50162 9.28692e-18
4725.97184 9.60214e-18
4727.44206 1.00861e-17
4728.91228 9.79706e-18
4730.38250 9.76646e-18
4731.85272 9.84944e-18
4733.32294 1.02504e-17
4734.79316 1.03471e-17
4736.26338 9.77065e-18
4737.73360 9.78479e-18
4739.20382 1.01828e-17
4740.67404 1.00139e-17
4742.14426 9.80238e-18
4743.61448 1.00996e-17
4745.08470 1.00206e-17
4746.55492 9.64064e-18
4748.02514 9.74914e-18
4749.49536 1.01070e-17
4750.95551 1.03118e-17
4752.42573 1.01971e-17
4753.89595 1.02426e-17
4755.36617 1.04258e-17
4756.83639 1.05126e-17
4758.30661 1.04782e-17
4759.77683 1.04680e-17
4761.24705 1.06581e-17
4762.71727 1.07693e-17
4764.18749 1.06412e-17
4765.65771 1.06935e-17
4767.12793 1.07742e-17
4768.59815 1.06821e-17
4770.06837 1.09640e-17
4771.53859 1.09816e-17
4773.00881 1.07046e-17
4774.47903 1.13677e-17
4775.94925 1.15725e-17
4777.41947 1.12436e-17
4778.88969 1.14241e-17
4780.35991 1.11128e-17
4781.83013 1.10957e-17
4783.30035 1.12726e-17
4784.77057 1.13463e-17
4786.24079 1.17664e-17
4787.71101 1.15684e-17
4789.18123 1.06682e-17
4790.65145 1.05200e-17
4792.12167 1.10447e-17
4793.59189 1.09439e-17
4795.06211 1.06094e-17
4796.53233 1.06344e-17
4798.00255 1.08084e-17
4799.47277 1.08844e-17
4800.94299 1.06044e-17
4802.41321 1.04253e-17
4803.88343 1.03244e-17
4805.35365 1.04501e-17
4806.82387 1.05033e-17
4808.29409 1.04825e-17
4809.76431 1.06465e-17
4811.23453 1.06820e-17
4812.70475 1.06835e-17
4814.17497 1.07445e-17
4815.64519 1.07409e-17
4817.10534 1.04574e-17
4818.57556 1.00665e-17
4820.04578 1.03042e-17
4821.51600 1.05407e-17
4822.98622 1.00237e-17
4824.45644 9.97962e-18
4825.92666 9.93387e-18
4827.39688 9.88812e-18
4828.86710 9.84236e-18
4830.33732 9.79662e-18
4831.80754 9.75087e-18
4833.27776 9.75058e-18
4834.74798 9.74521e-18
4836.21820 9.58833e-18
4837.68842 9.52546e-18
4839.15864 9.53779e-18
4840.62886 9.65056e-18
4842.09908 9.58932e-18
4843.56930 9.18659e-18
4845.03952 8.81442e-18
4846.50974 9.01578e-18
4847.97996 9.13954e-18
4849.45018 8.64122e-18
4850.92040 8.38134e-18
4852.39062 8.39928e-18
4853.86084 8.36512e-18
4855.33106 8.66055e-18
4856.80128 8.81778e-18
4858.27150 8.84182e-18
4859.74172 8.76790e-18
4861.21194 8.87240e-18
4862.68216 8.98529e-18
4864.15238 8.75210e-18
4865.62260 8.76081e-18
4867.09282 8.84040e-18
4868.56304 8.69568e-18
4870.03326 8.78972e-18
4871.50348 8.81182e-18
4872.97370 9.05463e-18
4874.44392 9.04371e-18
4875.91414 8.92458e-18
4877.38436 8.92842e-18
4878.85458 8.93226e-18
4880.32480 8.93611e-18
4881.78495 8.93995e-18
4883.25517 8.94379e-18
4884.72539 8.94764e-18
4886.19561 8.95148e-18
4887.66583 8.95532e-18
4889.13605 8.95917e-18
4890.60627 8.96301e-18
4892.07649 8.96685e-18
4893.54671 8.97069e-18
4895.01693 8.97453e-18
4896.48715 8.97837e-18
4897.95737 8.98222e-18
4899.42759 8.98606e-18
4900.89781 8.98990e-18
4902.36803 8.99374e-18
4903.83825 8.99758e-18
4905.30847 9.00142e-18
4906.77869 9.00526e-18
4908.24891 9.00910e-18
4909.71913 9.01294e-18
4911.18935 9.01678e-18
4912.65957 9.02062e-18
4914.12979 9.02446e-18
4915.60001 9.43136e-18
4917.07023 9.38083e-18
4918.54045 9.56111e-18
4920.01067 9.79232e-18
4921.48089 9.75678e-18
4922.95111 9.66927e-18
4924.42133 9.59996e-18
4925.89155 9.73294e-18
4927.36177 9.79959e-18
4928.83199 9.46281e-18
4930.30221 9.68896e-18
4931.77243 1.00793e-17
4933.24265 9.72056e-18
4934.71287 9.65615e-18
4936.18309 9.92246e-18
4937.65331 1.01369e-17
4939.12353 9.92502e-18
4940.59375 9.65300e-18
4942.06397 9.88275e-18
4943.53419 1.00645e-17
4945.00441 1.01458e-17
4946.47463 1.00905e-17
4947.94485 1.00204e-17
4949.41507 9.77907e-18
4950.87522 1.02375e-17
4952.34544 1.07280e-17
4953.81566 1.02120e-17
4955.28588 1.02333e-17
4956.75610 1.05182e-17
4958.22632 1.03345e-17
4959.69654 1.04816e-17
4961.16676 1.06001e-17
4962.63698 1.02545e-17
4964.10720 1.03580e-17
4965.57742 1.02266e-17
4967.04764 1.02994e-17
4968.51786 1.05631e-17
4969.98808 1.07539e-17
4971.45830 1.05009e-17
4972.92852 1.06545e-17
4974.39874 1.06181e-17
4975.86896 1.06183e-17
4977.33918 1.06186e-17
4978.80940 1.06189e-17
4980.27962 1.06191e-17
4981.74984 1.06194e-17
4983.22006 1.06196e-17
4984.69028 1.06199e-17
4986.16050 1.06202e-17
4987.63072 1.06204e-17
4989.10094 1.06207e-17
4990.57116 1.06210e-17
4992.04138 1.06212e-17
4993.51160 1.06215e-17
4994.98182 1.06217e-17
4996.45204 1.06220e-17
4997.92226 1.06223e-17
4999.39248 1.06225e-17
5000.86270 1.06228e-17
5002.33292 1.06230e-17
5003.80314 1.06233e-17
5005.27336 1.06236e-17
5006.74358 1.06238e-17
5008.21380 1.06241e-17
5009.68402 1.06244e-17
5011.15424 1.06246e-17
5012.62446 1.06249e-17
5014.09468 1.07376e-17
5015.56490 1.07670e-17
5017.02505 1.07319e-17
5018.49527 1.06754e-17
5019.96549 1.07853e-17
5021.43571 1.11365e-17
5022.90593 1.08818e-17
5024.37615 1.09339e-17
5025.84637 1.09860e-17
5027.31659 1.10380e-17
5028.78681 1.10901e-17
5030.25703 1.11422e-17
5031.72725 1.11943e-17
5033.19747 1.12463e-17
5034.66769 1.12984e-17
5036.13791 1.13505e-17
5037.60813 1.14025e-17
5039.07835 1.14546e-17
5040.54857 1.15066e-17
5042.01879 1.15587e-17
5043.48901 1.16108e-17
5044.95923 1.16628e-17
5046.42945 1.17149e-17
5047.89967 1.17669e-17
5049.36989 1.18189e-17
5050.84011 1.18710e-17
5052.31033 1.19230e-17
5053.78055 1.19750e-17
5055.25077 1.20270e-17
5056.72099 1.20791e-17
5058.19121 1.21311e-17
5059.66143 1.21831e-17
5061.13165 1.22351e-17
5062.60187 1.26546e-17
5064.07209 1.28549e-17
5065.54231 1.28251e-17
5067.01253 1.28967e-17
5068.48275 1.31533e-17
5069.95297 1.29476e-17
5071.42319 1.26758e-17
5072.89341 1.24013e-17
5074.36363 1.27222e-17
5075.83385 1.31247e-17
5077.30407 1.30426e-17
5078.77429 1.28148e-17
5080.24451 1.28578e-17
5081.71473 1.29597e-17
5083.18495 1.30813e-17
5084.64510 1.34150e-17
5086.12539 1.37209e-17
5087.58554 1.38534e-17
5089.05576 1.35415e-17
5090.52598 1.35933e-17
5091.99620 1.38725e-17
5093.46642 1.42103e-17
5094.93664 1.41495e-17
5096.40686 1.42825e-17
5097.87708 1.44749e-17
5099.34730 1.42533e-17
5100.81752 1.39624e-17
5102.28774 1.45305e-17
5103.75796 1.46360e-17
5105.22818 1.47730e-17
5106.69840 1.43452e-17
5108.16862 1.48357e-17
5109.63884 1.48259e-17
5111.10906 1.46274e-17
5112.57928 1.48479e-17
5114.04950 1.50361e-17
5115.51972 1.51964e-17
5116.98994 1.53009e-17
5118.46016 1.52281e-17
5119.93038 1.54985e-17
5121.40060 1.59423e-17
5122.87082 1.52972e-17
5124.34104 1.54992e-17
5125.81126 1.54273e-17
5127.28148 1.51533e-17
5128.75170 1.51750e-17
5130.22192 1.51692e-17
5131.69214 1.58832e-17
5133.16236 1.54827e-17
5134.63258 1.53854e-17
5136.10280 1.51212e-17
5137.57302 1.56207e-17
5139.04324 1.56187e-17
5140.51346 1.57933e-17
5141.98368 1.53198e-17
5143.45390 1.53954e-17
5144.92412 1.58092e-17
5146.39434 1.56355e-17
5147.86456 1.60647e-17
5149.33478 1.58977e-17
5150.80500 1.54034e-17
5152.27522 1.56551e-17
5153.74544 1.60386e-17
5155.20559 1.59768e-17
5156.67581 1.54570e-17
5158.14603 1.51937e-17
5159.61625 1.53166e-17
5161.08647 1.55576e-17
5162.55669 1.53417e-17
5164.02691 1.55160e-17
5165.49713 1.55448e-17
5166.96735 1.52001e-17
5168.43757 1.48013e-17
5169.90779 1.52655e-17
5171.37801 1.51528e-17
5172.84823 1.49720e-17
5174.31845 1.55973e-17
5175.78867 1.54341e-17
5177.25889 1.49830e-17
5178.72911 1.51426e-17
5180.19933 1.55425e-17
5181.66955 1.56154e-17
5183.13977 1.59752e-17
5184.60999 1.57831e-17
5186.08021 1.58964e-17
5187.55043 1.55691e-17
5189.02065 1.57714e-17
5190.49087 1.56586e-17
5191.96109 1.52923e-17
5193.43131 1.57754e-17
5194.90153 1.60018e-17
5196.37175 1.60802e-17
5197.84197 1.64785e-17
5199.31219 1.58948e-17
5200.78241 1.57809e-17
5202.25263 1.61195e-17
5203.72285 1.62918e-17
5205.19307 1.57798e-17
5206.66329 1.59458e-17
5208.13351 1.64829e-17
5209.60373 1.64086e-17
5211.07395 1.63649e-17
5212.54417 1.65505e-17
5214.01439 1.70772e-17
5215.48461 1.68587e-17
5216.95483 1.66969e-17
5218.42505 1.66913e-17
5219.88520 1.68952e-17
5221.35542 1.73007e-17
5222.82564 1.68402e-17
5224.29586 1.64463e-17
5225.76608 1.71396e-17
5227.23630 1.71073e-17
5228.70652 1.72749e-17
5230.17674 1.75124e-17
5231.64696 1.70337e-17
5233.11718 1.66767e-17
5234.58740 1.67752e-17
5236.05762 1.66108e-17
5237.52784 1.70875e-17
5238.99806 1.71130e-17
5240.46828 1.70310e-17
5241.93850 1.71111e-17
5243.40872 1.70974e-17
5244.87894 1.72885e-17
5246.34916 1.75471e-17
5247.81938 1.74559e-17
5249.28960 1.71946e-17
5250.75982 1.73076e-17
5252.23004 1.73738e-17
5253.70026 1.74805e-17
5255.17048 1.75467e-17
5256.64070 1.72948e-17
5258.11092 1.71957e-17
5259.58114 1.73958e-17
5261.05136 1.73390e-17
5262.52158 1.74604e-17
5263.99180 1.77800e-17
5265.46202 1.77028e-17
5266.93224 1.77850e-17
5268.40246 1.77377e-17
5269.87268 1.79310e-17
5271.34290 1.76377e-17
5272.81312 1.74549e-17
5274.28334 1.77700e-17
5275.75356 1.77217e-17
5277.22378 1.68324e-17
5278.69400 1.72551e-17
5280.16422 1.74460e-17
5281.63444 1.81743e-17
5283.10466 1.75988e-17
5284.56481 1.72147e-17
5286.03503 1.74338e-17
5287.50525 1.71594e-17
5288.97547 1.75594e-17
5290.44569 1.71522e-17
5291.91591 1.67967e-17
5293.38613 1.71075e-17
5294.85635 1.70810e-17
5296.32657 1.65053e-17
5297.79679 1.67067e-17
5299.26701 1.70980e-17
5300.73723 1.73747e-17
5302.20745 1.69130e-17
5303.67767 1.65077e-17
5305.14789 1.67371e-17
5306.61811 1.71791e-17
5308.08833 1.71960e-17
5309.55855 1.69584e-17
5311.02877 1.67100e-17
5312.49899 1.67584e-17
5313.96921 1.67727e-17
5315.43943 1.67712e-17
5316.90965 1.71017e-17
5318.37987 1.71547e-17
5319.85009 1.73839e-17
5321.32031 1.70875e-17
5322.79053 1.71002e-17
5324.26075 1.71495e-17
5325.73097 1.68370e-17
5327.20119 1.74792e-17
5328.67141 1.71264e-17
5330.14163 1.69128e-17
5331.61185 1.68738e-17
5333.08207 1.70226e-17
5334.55229 1.71880e-17
5336.02251 1.74183e-17
5337.49273 1.69503e-17
5338.96295 1.69355e-17
5340.43317 1.66624e-17
5341.90339 1.70055e-17
5343.37361 1.74437e-17
5344.84383 1.75129e-17
5346.31405 1.73446e-17
5347.78427 1.71657e-17
5349.25449 1.69937e-17
5350.72471 1.67244e-17
5352.19493 1.68903e-17
5353.66515 1.70696e-17
5355.12530 1.69809e-17
5356.59552 1.72234e-17
5358.06574 1.72321e-17
5359.53596 1.69518e-17
5361.00618 1.68412e-17
5362.47640 1.69964e-17
5363.94662 1.73781e-17
5365.41684 1.72364e-17
5366.88706 1.67734e-17
5368.35728 1.66617e-17
5369.82750 1.71304e-17
5371.29772 1.72228e-17
5372.76794 1.71900e-17
5374.23816 1.73041e-17
5375.70838 1.70608e-17
5377.17860 1.68035e-17
5378.64882 1.68064e-17
5380.11904 1.70654e-17
5381.58926 1.68667e-17
5383.05948 1.68015e-17
5384.52970 1.67964e-17
5385.99992 1.65465e-17
5387.47014 1.68873e-17
5388.94036 1.70697e-17
5390.41058 1.69578e-17
5391.88080 1.69409e-17
5393.35102 1.67539e-17
5394.82124 1.67097e-17
5396.29146 1.69371e-17
5397.76168 1.68872e-17
5399.23190 1.66193e-17
5400.70212 1.66339e-17
5402.17234 1.67332e-17
5403.64256 1.67327e-17
5405.11278 1.64082e-17
5406.58300 1.61733e-17
5408.05322 1.62314e-17
5409.52344 1.63620e-17
5410.99366 1.63436e-17
5412.46388 1.61455e-17
5413.93410 1.61068e-17
5415.40432 1.58628e-17
5416.87454 1.59741e-17
5418.34476 1.63458e-17
5419.81498 1.63264e-17
5421.27513 1.62996e-17
5422.74535 1.61883e-17
5424.21557 1.64176e-17
5425.68579 1.64638e-17
5427.15601 1.59880e-17
5428.62623 1.57866e-17
5430.09645 1.58510e-17
5431.56667 1.56451e-17
5433.03689 1.53948e-17
5434.50711 1.53338e-17
5435.97733 1.55968e-17
5437.44755 1.54982e-17
5438.91777 1.58176e-17
5440.38799 1.55403e-17
5441.85821 1.55153e-17
5443.32843 1.52420e-17
5444.79865 1.54915e-17
5446.26887 1.55228e-17
5447.73909 1.51034e-17
5449.20931 1.51078e-17
5450.67953 1.51291e-17
5452.14975 1.47674e-17
5453.61997 1.47613e-17
5455.09019 1.47455e-17
5456.56041 1.43623e-17
5458.03063 1.45575e-17
5459.50085 1.41646e-17
5460.97107 1.38900e-17
5462.44129 1.41315e-17
5463.91151 1.40478e-17
5465.38173 1.37588e-17
5466.85195 1.33310e-17
5468.32217 1.31720e-17
5469.79239 1.30523e-17
5471.26261 1.28176e-17
5472.73283 1.26194e-17
5474.20305 1.24512e-17
5475.67327 1.23024e-17
5477.14349 1.20328e-17
5478.61371 1.19725e-17
5480.08393 1.24935e-17
5481.55415 1.25897e-17
5483.02437 1.27998e-17
5484.49459 1.24081e-17
5485.96481 1.20838e-17
5487.43503 1.19696e-17
5488.89518 1.22262e-17
5490.37547 1.20027e-17
5491.83562 1.19284e-17
5493.30584 1.19599e-17
5494.77606 1.24437e-17
5496.24628 1.22936e-17
5497.71650 1.26611e-17
5499.18672 1.26108e-17
5500.65694 1.23806e-17
5502.12716 1.26190e-17
5503.59738 1.23182e-17
5505.06760 1.25790e-17
5506.53782 1.21115e-17
5508.00804 1.21797e-17
5509.47826 1.19936e-17
5510.94848 1.22020e-17
5512.41870 1.21721e-17
5513.88892 1.22056e-17
5515.35914 1.22094e-17
5516.82936 1.21192e-17
5518.29958 1.24092e-17
5519.76980 1.27270e-17
5521.24002 1.23497e-17
5522.71024 1.24690e-17
5524.18046 1.22718e-17
5525.65068 1.25471e-17
5527.12090 1.20957e-17
5528.59112 1.25632e-17
5530.06134 1.24827e-17
5531.53156 1.18526e-17
5533.00178 1.20703e-17
5534.47200 1.23596e-17
5535.94222 1.25760e-17
5537.41244 1.24689e-17
5538.88266 1.18973e-17
5540.35288 1.18240e-17
5541.82310 1.17403e-17
5543.29332 1.20813e-17
5544.76354 1.20532e-17
5546.23376 1.16450e-17
5547.70398 1.18623e-17
5549.17420 1.17519e-17
5550.64442 1.14267e-17
5552.11464 1.16844e-17
5553.58486 1.16294e-17
5555.05508 1.15218e-17
5556.52530 1.17968e-17
5557.98545 1.17090e-17
5559.45567 1.13013e-17
5560.92589 1.12790e-17
5562.39611 1.15851e-17
5563.86633 1.18303e-17
5565.33655 1.16145e-17
5566.80677 1.14787e-17
5568.27699 1.15775e-17
5569.74721 1.14612e-17
5571.21743 1.14995e-17
5572.68765 1.14508e-17
5574.15787 1.15617e-17
5575.62809 1.14237e-17
5577.09831 1.13408e-17
5578.56853 1.14432e-17
5580.03875 1.13919e-17
5581.50897 1.09827e-17
5582.97919 1.12886e-17
5584.44941 1.15521e-17
5585.91963 1.14444e-17
5587.38985 1.16137e-17
5588.86007 1.12206e-17
5590.33029 1.11973e-17
5591.80051 1.13981e-17
5593.27073 1.17170e-17
5594.74095 1.17015e-17
5596.21117 1.14600e-17
5597.68139 1.13540e-17
5599.15161 1.13425e-17
5600.62183 1.16675e-17
5602.09205 1.17100e-17
5603.56227 1.15620e-17
5605.03249 1.14020e-17
5606.50271 1.12719e-17
5607.97293 1.15461e-17
5609.44315 1.17510e-17
5610.91337 1.15132e-17
5612.38359 1.17913e-17
5613.85381 1.16753e-17
5615.32403 1.16424e-17
5616.79425 1.19427e-17
5618.26447 1.17316e-17
5619.73469 1.18807e-17
5621.20491 1.20619e-17
5622.66506 1.20044e-17
5624.13528 1.15971e-17
5625.60550 1.13659e-17
5627.07572 1.17953e-17
5628.54594 1.18678e-17
5630.01616 1.17701e-17
5631.48638 1.18023e-17
5632.95660 1.16161e-17
5634.42682 1.14695e-17
5635.89704 1.14823e-17
5637.36726 1.15716e-17
5638.83748 1.14046e-17
5640.30770 1.14108e-17
5641.77792 1.14147e-17
5643.24814 1.13444e-17
5644.71836 1.14875e-17
5646.18858 1.14114e-17
5647.65880 1.13134e-17
5649.12902 1.13568e-17
5650.59924 1.14734e-17
5652.06946 1.16082e-17
5653.53968 1.15019e-17
5655.00990 1.13867e-17
5656.48012 1.13268e-17
5657.95034 1.14313e-17
5659.42056 1.16283e-17
5660.89078 1.15000e-17
5662.36100 1.15862e-17
5663.83122 1.15298e-17
5665.30144 1.15749e-17
5666.77166 1.18613e-17
5668.24188 1.19082e-17
5669.71210 1.18924e-17
5671.18232 1.19078e-17
5672.65254 1.16036e-17
5674.12276 1.19097e-17
5675.59298 1.21335e-17
5677.06320 1.19843e-17
5678.53342 1.20070e-17
5680.00364 1.20929e-17
5681.47386 1.21137e-17
5682.94408 1.23625e-17
5684.41430 1.24256e-17
5685.88452 1.22066e-17
5687.35474 1.24827e-17
5688.81489 1.25351e-17
5690.28511 1.23817e-17
5691.75533 1.22974e-17
5693.22555 1.20486e-17
5694.69577 1.25086e-17
5696.16599 1.28686e-17
5697.63621 1.26090e-17
5699.10643 1.24148e-17
5700.57665 1.23590e-17
5702.04687 1.23482e-17
5703.51709 1.24159e-17
5704.98731 1.24350e-17
5706.45753 1.25499e-17
5707.92775 1.28551e-17
5709.39797 1.27562e-17
5710.86819 1.29442e-17
5712.33841 1.31941e-17
5713.80863 1.30539e-17
5715.27885 1.30095e-17
5716.74907 1.25831e-17
5718.21929 1.28410e-17
5719.68951 1.32036e-17
5721.15973 1.30354e-17
5722.62995 1.31626e-17
5724.10017 1.33305e-17
5725.57039 1.33000e-17
5727.04061 1.34554e-17
5728.51083 1.35124e-17
5729.98105 1.33161e-17
5731.45127 1.36669e-17
5732.92149 1.35663e-17
5734.39171 1.34971e-17
5735.86193 1.36643e-17
5737.33215 1.38605e-17
5738.80237 1.35418e-17
5740.27259 1.41718e-17
5741.74281 1.38040e-17
5743.21303 1.34607e-17
5744.68325 1.37545e-17
5746.15347 1.37387e-17
5747.62369 1.39812e-17
5749.09391 1.43655e-17
5750.56413 1.43255e-17
5752.03435 1.42882e-17
5753.50457 1.41813e-17
5754.97479 1.44128e-17
5756.44501 1.38482e-17
5757.91523 1.38540e-17
5759.37538 1.40816e-17
5760.84560 1.43156e-17
5762.31582 1.44848e-17
5763.78604 1.40191e-17
5765.25626 1.40137e-17
5766.72648 1.40665e-17
5768.19670 1.43794e-17
5769.66692 1.43279e-17
5771.13714 1.41897e-17
5772.60736 1.43873e-17
5774.07758 1.42363e-17
5775.54780 1.45291e-17
5777.01802 1.46748e-17
5778.48824 1.40659e-17
5779.95846 1.41391e-17
5781.42868 1.45653e-17
5782.89890 1.42842e-17
5784.36912 1.46232e-17
5785.83934 1.48601e-17
5787.30956 1.46741e-17
5788.77978 1.48940e-17
5790.25000 1.43971e-17
5791.72022 1.43741e-17
5793.19044 1.48841e-17
5794.66066 1.47506e-17
5796.13088 1.47567e-17
5797.60110 1.44546e-17
5799.07132 1.42654e-17
5800.54154 1.44670e-17
5802.01176 1.46451e-17
5803.48198 1.46261e-17
5804.95220 1.41307e-17
5806.42242 1.46417e-17
5807.89264 1.43278e-17
5809.36286 1.44530e-17
5810.83308 1.44450e-17
5812.30330 1.44847e-17
5813.77352 1.44559e-17
5815.24374 1.42058e-17
5816.71396 1.41792e-17
5818.18418 1.41999e-17
5819.65440 1.45124e-17
5821.12462 1.42391e-17
5822.59484 1.43735e-17
5824.06506 1.42667e-17
5825.52521 1.43815e-17
5826.99543 1.42921e-17
5828.46565 1.42401e-17
5829.93587 1.44694e-17
5831.40609 1.42752e-17
5832.87631 1.41543e-17
5834.34653 1.41677e-17
5835.81675 1.39377e-17
5837.28697 1.38531e-17
5838.75719 1.38069e-17
5840.22741 1.38770e-17
5841.69763 1.43651e-17
5843.16785 1.43606e-17
5844.63807 1.40322e-17
5846.10829 1.38522e-17
5847.57851 1.37720e-17
5849.04873 1.38261e-17
5850.51895 1.38210e-17
5851.98917 1.39882e-17
5853.45939 1.40041e-17
5854.92961 1.39544e-17
5856.39983 1.39902e-17
5857.87005 1.38354e-17
5859.34027 1.34749e-17
5860.81049 1.35263e-17
5862.28071 1.35348e-17
5863.75093 1.31144e-17
5865.22115 1.35105e-17
5866.69137 1.36065e-17
5868.16159 1.32465e-17
5869.63181 1.34172e-17
5871.10203 1.33857e-17
5872.57225 1.30675e-17
5874.04247 1.30698e-17
5875.51269 1.31190e-17
5876.98291 1.29447e-17
5878.45313 1.31205e-17
5879.92335 1.29817e-17
5881.39357 1.28840e-17
5882.86379 1.31743e-17
5884.33401 1.31736e-17
5885.80423 1.28322e-17
5887.27445 1.28364e-17
5888.74467 1.28405e-17
5890.21489 1.28446e-17
5891.68511 1.28488e-17
5893.14526 1.28529e-17
5894.62555 1.28571e-17
5896.08570 1.28612e-17
5897.55592 1.28654e-17
5899.02614 1.28695e-17
5900.49636 1.28736e-17
5901.96658 1.28778e-17
5903.43680 1.28819e-17
5904.90702 1.28861e-17
5906.37724 1.28902e-17
5907.84746 1.28943e-17
5909.31768 1.28985e-17
5910.78790 1.29026e-17
5912.25812 1.29068e-17
5913.72834 1.29109e-17
5915.19856 1.29151e-17
5916.66878 1.29192e-17
5918.13900 1.29234e-17
5919.60922 1.29275e-17
5921.07944 1.29316e-17
5922.54966 1.29358e-17
5924.01988 1.29399e-17
5925.49010 1.29441e-17
5926.96032 1.29482e-17
5928.43054 1.29524e-17
5929.90076 1.29565e-17
5931.37098 1.29606e-17
5932.84120 1.29648e-17
5934.31142 1.29689e-17
5935.78164 1.29731e-17
5937.25186 1.29772e-17
5938.72208 1.29814e-17
5940.19230 1.29855e-17
5941.66252 1.29897e-17
5943.13274 1.29938e-17
5944.60296 1.29980e-17
5946.07318 1.30021e-17
5947.54340 1.30062e-17
5949.01362 1.27771e-17
5950.48384 1.28225e-17
5951.95406 1.27572e-17
5953.42428 1.26787e-17
5954.89450 1.26107e-17
5956.36472 1.25134e-17
5957.83494 1.24216e-17
5959.30516 1.22374e-17
5960.76531 1.21327e-17
5962.23553 1.20052e-17
5963.70575 1.16406e-17
5965.17597 1.15299e-17
5966.64619 1.16036e-17
5968.11641 1.15916e-17
5969.58663 1.15961e-17
5971.05685 1.16714e-17
5972.52707 1.12658e-17
5973.99729 1.09788e-17
5975.46751 1.08787e-17
5976.93773 1.08797e-17
5978.40795 1.04763e-17
5979.87817 1.01932e-17
5981.34839 1.04077e-17
5982.81861 1.01784e-17
5984.28883 9.97790e-18
5985.75905 1.04159e-17
5987.22927 1.03479e-17
5988.69949 9.89659e-18
5990.16971 1.01862e-17
5991.63993 1.03559e-17
5993.11015 1.00393e-17
5994.58037 9.90739e-18
5996.05059 9.95967e-18
5997.52081 9.69916e-18
5998.99103 9.31664e-18
6000.46125 9.41442e-18
6001.93147 9.36599e-18
6003.40169 9.42055e-18
6004.87191 9.65930e-18
6006.34213 9.48162e-18
6007.81235 9.26913e-18
6009.28257 9.23843e-18
6010.75279 9.34182e-18
6012.22301 9.32297e-18
6013.69323 9.02438e-18
6015.16345 9.03815e-18
6016.63367 9.11573e-18
6018.10389 9.03977e-18
6019.57411 9.04503e-18
6021.04433 9.40913e-18
6022.51455 9.12334e-18
6023.98477 8.67070e-18
6025.45499 8.51408e-18
6026.91514 8.36919e-18
6028.38536 8.78093e-18
6029.85558 8.95464e-18
6031.32580 8.84559e-18
6032.79602 8.75132e-18
6034.26624 8.72635e-18
6035.73646 8.70869e-18
6037.20668 8.63868e-18
6038.67690 8.70998e-18
6040.14712 8.63812e-18
6041.61734 8.51629e-18
6043.08756 8.61497e-18
6044.55778 8.43781e-18
6046.02800 8.45608e-18
6047.49822 8.20425e-18
6048.96844 8.37160e-18
6050.43866 8.70288e-18
6051.90888 8.60589e-18
6053.37910 8.26518e-18
6054.84932 8.36435e-18
6056.31954 8.54361e-18
6057.78976 8.54468e-18
6059.25998 8.31125e-18
6060.73020 8.51101e-18
6062.20042 8.50738e-18
6063.67064 8.17672e-18
6065.14086 8.04646e-18
6066.61108 8.17513e-18
6068.08130 8.21336e-18
6069.55152 7.96338e-18
6071.02174 8.03673e-18
6072.49196 8.02287e-18
6073.96218 8.00034e-18
6075.43240 7.86021e-18
6076.90262 7.79877e-18
6078.37284 7.94389e-18
6079.84306 8.03605e-18
6081.31328 7.99350e-18
6082.78350 7.83332e-18
6084.25372 8.08419e-18
6085.72394 8.09435e-18
6087.19416 8.05981e-18
6088.66438 7.95242e-18
6090.13460 7.86659e-18
6091.60482 8.11898e-18
6093.06497 7.96448e-18
6094.53519 7.93604e-18
6096.00541 8.29579e-18
6097.47563 8.48082e-18
6098.94585 8.16164e-18
6100.41607 8.12201e-18
6101.88629 8.16170e-18
6103.35651 8.12424e-18
6104.82673 8.41992e-18
6106.29695 8.28073e-18
6107.76717 8.43272e-18
6109.23739 8.53857e-18
6110.70761 8.15157e-18
6112.17783 8.44043e-18
6113.64805 8.54675e-18
6115.11827 8.71747e-18
6116.58849 8.67300e-18
6118.05871 8.63469e-18
6119.52893 8.47023e-18
6120.99915 8.68035e-18
6122.46937 8.88783e-18
6123.93959 8.94963e-18
6125.40981 8.88324e-18
6126.88003 8.91204e-18
6128.35025 9.08216e-18
6129.82047 8.83523e-18
6131.29069 8.78059e-18
6132.76091 9.10643e-18
6134.23113 9.35491e-18
6135.70135 9.24829e-18
6137.17157 9.19704e-18
6138.64179 8.91234e-18
6140.11201 9.02197e-18
6141.58223 9.72700e-18
6143.05245 9.36370e-18
6144.52267 9.43004e-18
6145.99289 9.26122e-18
6147.46311 9.33214e-18
6148.93333 9.07069e-18
6150.40355 9.43842e-18
6151.87377 9.41166e-18
6153.34399 9.45568e-18
6154.81421 9.68015e-18
6156.28443 9.54608e-18
6157.75465 9.31129e-18
6159.22487 9.38846e-18
6160.69509 9.76075e-18
6162.16531 9.87923e-18
6163.62546 9.64796e-18
6165.09568 9.93828e-18
6166.56590 9.92880e-18
6168.03612 9.85207e-18
6169.50634 9.74309e-18
6170.97656 9.93599e-18
6172.44678 1.02984e-17
6173.91700 1.03552e-17
6175.38722 1.00194e-17
6176.85744 1.02463e-17
6178.32766 1.03427e-17
6179.79788 1.03439e-17
6181.26810 1.02365e-17
6182.73832 1.00909e-17
6184.20854 1.01342e-17
6185.67876 1.01163e-17
6187.14898 1.03412e-17
6188.61920 1.03048e-17
6190.08942 1.04237e-17
6191.55964 1.06308e-17
6193.02986 1.04559e-17
6194.50008 1.03078e-17
6195.97030 1.03818e-17
6197.44052 1.03491e-17
6198.91074 1.06705e-17
6200.38096 1.07389e-17
6201.85118 1.06373e-17
6203.32140 1.07724e-17
6204.79162 1.09429e-17
6206.26184 1.05957e-17
6207.73206 1.05750e-17
6209.20228 1.06155e-17
6210.67250 1.07209e-17
6212.14272 1.05686e-17
6213.61294 1.05992e-17
6215.08316 1.06834e-17
6216.55338 1.04017e-17
6218.02360 1.01569e-17
6219.49382 1.03399e-17
6220.96404 1.05066e-17
6222.43426 1.08357e-17
6223.90448 1.04506e-17
6225.37470 1.05743e-17
6226.84492 1.08516e-17
6228.31514 1.04292e-17
6229.77529 1.04687e-17
6231.24551 1.04433e-17
6232.71573 1.07533e-17
6234.18595 1.09758e-17
6235.65617 1.06273e-17
6237.12639 1.06327e-17
6238.59661 1.05298e-17
6240.06683 1.06634e-17
6241.53705 1.09940e-17
6243.00727 1.08431e-17
6244.47749 1.06875e-17
6245.94771 1.06433e-17
6247.41793 1.04704e-17
6248.88815 1.08182e-17
6250.35837 1.10634e-17
6251.82859 1.07722e-17
6253.29881 1.07802e-17
6254.76903 1.11169e-17
6256.23925 1.10448e-17
6257.70947 1.08030e-17
6259.17969 1.05641e-17
6260.64991 1.08379e-17
6262.12013 1.10496e-17
6263.59035 1.09294e-17
6265.06057 1.10625e-17
6266.53079 1.08389e-17
6268.00101 1.10510e-17
6269.47123 1.11419e-17
6270.94145 1.09594e-17
6272.41167 1.09476e-17
6273.88189 1.10488e-17
6275.35211 1.10687e-17
6276.82233 1.10698e-17
6278.29255 1.10516e-17
6279.76277 1.07858e-17
6281.23299 1.10233e-17
6282.70321 1.11773e-17
6284.17343 1.09239e-17
6285.64365 1.10474e-17
6287.11387 1.14124e-17
6288.58409 1.12761e-17
6290.05431 1.13751e-17
6291.52453 1.14486e-17
6292.99475 1.11414e-17
6294.46497 1.12069e-17
6295.93519 1.12451e-17
6297.39534 1.10902e-17
6298.86556 1.16157e-17
6300.33578 1.15717e-17
6301.80600 1.14953e-17
6303.27622 1.14963e-17
6304.74644 1.08976e-17
6306.21666 1.11567e-17
6307.68688 1.12332e-17
6309.15710 1.12957e-17
6310.62732 1.15673e-17
6312.09754 1.16603e-17
6313.56776 1.14183e-17
6315.03798 1.17374e-17
6316.50820 1.16000e-17
6317.97842 1.16864e-17
6319.44864 1.15229e-17
6320.91886 1.11215e-17
6322.38908 1.10946e-17
6323.85930 1.13822e-17
6325.32952 1.11693e-17
6326.79974 1.12509e-17
6328.26996 1.13485e-17
6329.74018 1.13082e-17
6331.21040 1.17132e-17
6332.68062 1.12169e-17
6334.15084 1.11906e-17
6335.62106 1.14862e-17
6337.09128 1.14399e-17
6338.56150 1.13708e-17
6340.03172 1.13918e-17
6341.50194 1.15681e-17
6342.97216 1.12252e-17
6344.44238 1.13403e-17
6345.91260 1.11770e-17
6347.38282 1.12257e-17
6348.85304 1.07827e-17
6350.32326 1.10805e-17
6351.79348 1.10244e-17
6353.26370 1.10927e-17
6354.73392 1.13025e-17
6356.20414 1.11204e-17
6357.67436 1.10927e-17
6359.14458 1.07367e-17
6360.61480 1.10602e-17
6362.08502 1.09781e-17
6363.54517 1.09240e-17
6365.01539 1.10165e-17
6366.48561 1.09220e-17
6367.95583 1.07089e-17
6369.42605 1.08559e-17
6370.89627 1.09315e-17
6372.36649 1.07598e-17
6373.83671 1.08930e-17
6375.30693 1.11444e-17
6376.77715 1.08840e-17
6378.24737 1.09045e-17
6379.71759 1.07784e-17
6381.18781 1.11215e-17
6382.65803 1.10537e-17
6384.12825 1.08536e-17
6385.59847 1.09934e-17
6387.06869 1.08854e-17
6388.53891 1.08870e-17
6390.00913 1.11194e-17
6391.47935 1.09091e-17
6392.94957 1.05181e-17
6394.41979 1.07153e-17
6395.89001 1.10058e-17
6397.36023 1.08634e-17
6398.83045 1.06328e-17
6400.30067 1.07982e-17
6401.77089 1.13976e-17
6403.24111 1.10662e-17
6404.71133 1.11955e-17
6406.18155 1.09483e-17
6407.65177 1.05330e-17
6409.12199 1.07881e-17
6410.59221 1.08854e-17
6412.06243 1.12171e-17
6413.53265 1.08164e-17
6415.00287 1.09811e-17
6416.47309 1.09517e-17
6417.94331 1.10174e-17
6419.41353 1.09188e-17
6420.88375 1.07985e-17
6422.35397 1.10458e-17
6423.82419 1.05960e-17
6425.29441 1.07234e-17
6426.76463 1.10384e-17
6428.23485 1.10740e-17
6429.70507 1.07050e-17
6431.16522 1.14527e-17
6432.63544 1.15256e-17
6434.10566 1.10434e-17
6435.57588 1.12298e-17
6437.04610 1.09699e-17
6438.51632 1.06757e-17
6439.98654 1.09114e-17
6441.45676 1.09234e-17
6442.92698 1.07286e-17
6444.39720 1.07460e-17
6445.86742 1.09693e-17
6447.33764 1.13647e-17
6448.80786 1.10444e-17
6450.27808 1.08852e-17
6451.74830 1.09358e-17
6453.21852 1.13730e-17
6454.68874 1.13486e-17
6456.15896 1.08961e-17
6457.62918 1.09463e-17
6459.09940 1.10148e-17
6460.56962 1.11199e-17
6462.03984 1.11010e-17
6463.51006 1.12185e-17
6464.98028 1.12350e-17
6466.45050 1.11763e-17
6467.92072 1.12436e-17
6469.39094 1.11654e-17
6470.86116 1.12851e-17
6472.33138 1.15261e-17
6473.80160 1.13166e-17
6475.27182 1.13642e-17
6476.74204 1.15347e-17
6478.21226 1.15375e-17
6479.68248 1.15368e-17
6481.15270 1.12891e-17
6482.62292 1.12229e-17
6484.09314 1.12934e-17
6485.56336 1.12830e-17
6487.03358 1.13752e-17
6488.50380 1.14781e-17
6489.97402 1.13519e-17
6491.44424 1.12148e-17
6492.91446 1.13808e-17
6494.38468 1.16862e-17
6495.85490 1.15349e-17
6497.31505 1.16313e-17
6498.78527 1.16107e-17
6500.25549 1.13904e-17
6501.72571 1.18303e-17
6503.19593 1.18224e-17
6504.66615 1.15645e-17
6506.13637 1.14661e-17
6507.60659 1.18054e-17
6509.07681 1.18468e-17
6510.54703 1.17301e-17
6512.01725 1.16539e-17
6513.48747 1.17318e-17
6514.95769 1.15824e-17
6516.42791 1.17775e-17
6517.89813 1.17909e-17
6519.36835 1.17060e-17
6520.83857 1.17159e-17
6522.30879 1.17823e-17
6523.77901 1.15846e-17
6525.24923 1.13674e-17
6526.71945 1.13843e-17
6528.18967 1.17917e-17
6529.65989 1.18139e-17
6531.13011 1.15229e-17
6532.60033 1.15560e-17
6534.07055 1.16708e-17
6535.54077 1.18390e-17
6537.01099 1.15536e-17
6538.48121 1.14093e-17
6539.95143 1.17709e-17
6541.42165 1.15740e-17
6542.89187 1.14846e-17
6544.36209 1.15976e-17
6545.83231 1.13542e-17
6547.30253 1.15424e-17
6548.77275 1.13559e-17
6550.24297 1.14053e-17
6551.71319 1.13772e-17
6553.18341 1.12085e-17
6554.65363 1.12686e-17
6556.12385 1.13839e-17
6557.59407 1.12489e-17
6559.06429 1.14244e-17
6560.53451 1.12198e-17
6562.00473 1.10211e-17
6563.47495 1.12599e-17
6564.94517 1.09742e-17
6566.41539 1.08457e-17
6567.87554 1.12559e-17
6569.34576 1.12334e-17
6570.81598 1.12803e-17
6572.28620 1.10891e-17
6573.75642 1.11245e-17
6575.22664 1.12362e-17
6576.69686 1.12241e-17
6578.16708 1.12120e-17
6579.63730 1.11999e-17
6581.10752 1.11878e-17
6582.57774 1.11757e-17
6584.04796 1.11636e-17
6585.51818 1.11515e-17
6586.98840 1.11394e-17
6588.45862 1.11274e-17
6589.92884 1.11153e-17
6591.39906 1.11032e-17
6592.86928 1.10911e-17
6594.33950 1.10790e-17
6595.80972 1.10669e-17
6597.27994 1.10548e-17
6598.75016 1.10427e-17
6600.22038 1.10306e-17
6601.69060 1.10186e-17
6603.16082 1.10065e-17
6604.63104 1.09944e-17
6606.10126 1.09823e-17
6607.57148 1.09702e-17
6609.04170 1.09581e-17
6610.51192 1.09460e-17
6611.98214 1.09339e-17
6613.45236 1.09219e-17
6614.92258 1.09181e-17
6616.39280 1.09143e-17
6617.86302 1.09105e-17
6619.33324 1.09068e-17
6620.80346 1.09030e-17
6622.27368 1.08992e-17
6623.74390 1.08954e-17
6625.21412 1.08917e-17
6626.68434 1.08879e-17
6628.15456 1.08841e-17
6629.62478 1.08804e-17
6631.09500 1.08766e-17
6632.56522 1.08728e-17
6634.02537 1.08691e-17
6635.49559 1.08653e-17
6636.96581 1.08615e-17
6638.43603 1.08577e-17
6639.90625 1.08540e-17
6641.37647 1.08502e-17
6642.84669 1.08464e-17
6644.31691 1.08427e-17
6645.78713 1.08389e-17
6647.25735 1.08351e-17
6648.72757 1.08313e-17
6650.19779 1.11224e-17
6651.66801 1.11019e-17
6653.13823 1.07679e-17
6654.60845 1.05438e-17
6656.07867 1.07330e-17
6657.54889 1.10078e-17
6659.01911 1.08850e-17
6660.48933 1.06774e-17
6661.95955 1.07956e-17
6663.42977 1.08032e-17
6664.89999 1.06921e-17
6666.37021 1.08036e-17
6667.84043 1.06190e-17
6669.31065 1.08555e-17
6670.78087 1.08597e-17
6672.25109 1.09189e-17
6673.72131 1.08602e-17
6675.19153 1.05398e-17
6676.66175 1.05359e-17
6678.13197 1.04643e-17
6679.60219 1.04806e-17
6681.07241 1.03882e-17
6682.54263 1.06131e-17
6684.01285 1.07408e-17
6685.48307 1.04794e-17
6686.95329 1.06640e-17
6688.42351 1.05254e-17
6689.89373 1.03325e-17
6691.36395 1.04334e-17
6692.83417 1.04596e-17
6694.30439 1.04546e-17
6695.77461 1.04398e-17
6697.24483 1.07539e-17
6698.71505 1.07243e-17
6700.17520 1.04398e-17
6701.64542 1.04842e-17
6703.11564 1.04861e-17
6704.58586 1.03973e-17
6706.05608 1.01826e-17
6707.52630 1.02238e-17
6708.99652 1.04663e-17
6710.46674 1.02284e-17
6711.93696 1.02343e-17
6713.40718 1.05530e-17
6714.87740 1.03250e-17
6716.34762 1.01382e-17
6717.81784 1.01154e-17
6719.28806 1.00171e-17
6720.75828 1.02167e-17
6722.22850 1.01730e-17
6723.69872 1.00620e-17
6725.16894 1.02909e-17
6726.63916 1.02031e-17
6728.10938 1.00678e-17
6729.57960 9.86785e-18
6731.04982 9.87553e-18
6732.52004 9.89909e-18
6733.99026 1.00284e-17
6735.46048 9.87384e-18
6736.93070 9.78707e-18
6738.40092 9.60838e-18
6739.87114 9.45655e-18
6741.34136 9.55796e-18
6742.81158 9.46265e-18
6744.28180 9.56653e-18
6745.75202 9.54967e-18
6747.22224 9.53281e-18
6748.69246 9.51595e-18
6750.16268 9.49909e-18
6751.63290 9.48224e-18
6753.10312 9.46538e-18
6754.57334 9.44852e-18
6756.04356 9.43166e-18
6757.51378 9.41481e-18
6758.98400 9.39795e-18
6760.45422 9.39217e-18
6761.92444 9.38638e-18
6763.39466 9.38059e-18
6764.86488 9.37480e-18
6766.33510 9.36902e-18
6767.79525 9.36323e-18
6769.26547 9.35744e-18
6770.73569 9.35166e-18
6772.20591 9.34587e-18
6773.67613 9.34008e-18
6775.14635 9.33430e-18
6776.61657 9.32851e-18
6778.08679 9.32273e-18
6779.55701 9.31694e-18
6781.02723 9.31116e-18
6782.49745 9.30537e-18
6783.96767 9.29958e-18
6785.43789 9.29380e-18
6786.90811 9.28801e-18
6788.37833 9.28223e-18
6789.84855 9.27644e-18
6791.31877 9.27066e-18
6792.78899 9.26487e-18
6794.25921 9.25909e-18
6795.72943 9.25330e-18
6797.19965 9.24752e-18
6798.66987 9.48566e-18
6800.14009 9.57856e-18
6801.61031 9.45989e-18
6803.08053 9.67094e-18
6804.55075 9.71582e-18
6806.02097 9.69697e-18
6807.49119 9.48372e-18
6808.96141 9.41125e-18
6810.43163 9.69197e-18
6811.90185 9.41572e-18
6813.37207 9.36141e-18
6814.84229 9.78551e-18
6816.31251 9.22209e-18
6817.78273 8.93066e-18
6819.25295 9.44705e-18
6820.72317 9.69971e-18
6822.19339 9.72829e-18
6823.66361 9.69791e-18
6825.13383 9.50978e-18
6826.60405 9.37318e-18
6828.07427 9.54915e-18
6829.54449 9.78473e-18
6831.01471 1.00327e-17
6832.48493 9.61814e-18
6833.95515 9.75155e-18
6835.41530 9.52229e-18
6836.88552 9.42995e-18
6838.35574 9.80880e-18
6839.82596 9.81431e-18
6841.29618 9.73452e-18
6842.76640 9.49936e-18
6844.23662 9.98168e-18
6845.70684 1.02186e-17
6847.17706 9.48165e-18
6848.64728 9.81924e-18
6850.11750 9.57776e-18
6851.58772 9.63874e-18
6853.05794 9.69930e-18
6854.52816 9.58431e-18
6855.99838 9.84040e-18
6857.46860 1.00207e-17
6858.93882 9.90253e-18
6860.40904 1.00595e-17
6861.87926 9.72454e-18
6863.34948 1.01524e-17
6864.81970 1.01961e-17
6866.28992 1.00178e-17
6867.76014 9.80880e-18
6869.23036 9.80734e-18
6870.70058 9.96486e-18
6872.17080 1.02205e-17
6873.64102 1.00727e-17
6875.11124 9.89842e-18
6876.58146 9.88223e-18
6878.05168 1.02006e-17
6879.52190 1.00413e-17
6880.99212 1.00319e-17
6882.46234 9.93379e-18
6883.93256 9.61921e-18
6885.40278 9.78010e-18
6886.87300 9.87866e-18
6888.34322 9.80739e-18
6889.81344 9.74224e-18
6891.28366 9.71059e-18
6892.75388 9.72104e-18
6894.22410 9.50020e-18
6895.69432 9.73322e-18
6897.16454 9.90263e-18
6898.63476 9.77544e-18
6900.10498 9.90360e-18
6901.56513 1.00278e-17
6903.03535 9.80583e-18
6904.50557 1.00379e-17
6905.97579 1.04500e-17
6907.44601 1.02408e-17
6908.91623 9.92006e-18
6910.38645 1.00944e-17
6911.85667 9.97639e-18
6913.32689 1.01191e-17
6914.79711 1.04422e-17
6916.26733 1.02056e-17
6917.73755 1.00718e-17
6919.20777 9.81964e-18
6920.67799 9.76245e-18
6922.14821 1.03167e-17
6923.61843 1.04176e-17
6925.08865 1.01214e-17
6926.55887 1.02960e-17
6928.02909 1.03527e-17
6929.49931 1.04781e-17
6930.96953 1.04689e-17
6932.43975 1.01665e-17
6933.90997 1.04302e-17
6935.38019 1.07127e-17
6936.85041 1.05951e-17
6938.32063 1.05403e-17
6939.79085 1.04967e-17
6941.26107 1.01351e-17
6942.73129 1.02659e-17
6944.20151 1.07343e-17
6945.67173 1.09206e-17
6947.14195 1.07578e-17
6948.61217 1.06171e-17
6950.08239 1.06622e-17
6951.55261 1.06907e-17
6953.02283 1.07088e-17
6954.49305 1.05108e-17
6955.96327 1.05620e-17
6957.43349 1.06421e-17
6958.90371 1.05253e-17
6960.37393 1.06342e-17
6961.84415 1.04739e-17
6963.31437 1.03393e-17
6964.78459 1.03821e-17
6966.25481 1.04140e-17
6967.72503 1.00207e-17
6969.19525 1.01512e-17
6970.66547 1.08899e-17
6972.12562 1.05963e-17
6973.59584 1.02524e-17
6975.06606 1.03972e-17
6976.53628 1.01414e-17
6978.00650 1.01734e-17
6979.47672 1.01586e-17
6980.94694 1.00770e-17
6982.41716 1.01012e-17
6983.88738 1.03699e-17
6985.35760 1.02366e-17
6986.82782 1.04879e-17
6988.29804 1.01555e-17
6989.76826 1.00418e-17
6991.23848 1.03312e-17
6992.70870 1.05575e-17
6994.17892 1.03604e-17
6995.64914 1.02254e-17
6997.11936 1.00406e-17
6998.58958 9.95398e-18
7000.05980 1.01223e-17
7001.53002 1.01011e-17
7003.00024 1.01092e-17
7004.47046 1.00314e-17
7005.94068 1.00916e-17
7007.41090 1.00794e-17
7008.88112 1.00671e-17
7010.35134 1.00549e-17
7011.82156 1.00427e-17
7013.29178 1.00304e-17
7014.76200 1.00182e-17
7016.23222 1.00060e-17
7017.70244 1.00058e-17
7019.17266 1.00380e-17
7020.64288 1.00386e-17
7022.11310 1.00729e-17
7023.58332 9.94070e-18
7025.05354 9.72226e-18
7026.52376 1.01156e-17
7027.99398 1.02450e-17
7029.46420 9.98814e-18
7030.93442 9.93278e-18
7032.40464 9.74709e-18
7033.87486 9.99949e-18
7035.34508 9.84822e-18
7036.81530 9.94515e-18
7038.27545 9.87217e-18
7039.74567 1.01064e-17
7041.21589 1.00679e-17
7042.68611 9.93576e-18
7044.15633 9.88316e-18
7045.62655 1.02704e-17
7047.09677 9.86668e-18
7048.56699 9.61185e-18
7050.03721 9.70196e-18
7051.50743 9.57658e-18
7052.97765 9.62579e-18
7054.44787 9.68135e-18
7055.91809 9.77825e-18
7057.38831 9.94945e-18
7058.85853 9.75065e-18
7060.32875 9.57846e-18
7061.79897 9.43731e-18
7063.26919 9.82646e-18
7064.73941 9.89597e-18
7066.20963 1.00248e-17
7067.67985 9.68156e-18
7069.15007 9.81367e-18
7070.62029 9.61891e-18
7072.09051 9.73497e-18
7073.56073 9.66443e-18
7075.03095 9.90713e-18
7076.50117 9.84652e-18
7077.97139 9.86038e-18
7079.44161 9.91082e-18
7080.91183 9.74158e-18
7082.38205 9.71630e-18
7083.85227 9.82911e-18
7085.32249 9.63459e-18
7086.79271 9.67775e-18
7088.26293 9.86397e-18
7089.73315 9.75181e-18
7091.20337 9.75294e-18
7092.67359 9.63371e-18
7094.14381 9.48226e-18
7095.61403 9.75644e-18
7097.08425 9.67071e-18
7098.55447 9.85009e-18
7100.02469 9.59638e-18
7101.49491 9.92158e-18
7102.95506 1.03336e-17
7104.42528 9.67024e-18
7105.89550 9.48247e-18
7107.36572 9.73258e-18
7108.83594 9.71943e-18
7110.30616 9.64353e-18
7111.77638 9.68784e-18
7113.24660 1.00989e-17
7114.71682 1.00340e-17
7116.18704 9.80450e-18
7117.65726 9.56310e-18
7119.12748 9.67372e-18
7120.59770 9.97136e-18
7122.06792 9.85677e-18
7123.53814 9.65411e-18
7125.00836 9.53748e-18
7126.47858 9.71956e-18
7127.94880 9.73988e-18
7129.41902 9.45685e-18
7130.88924 9.67886e-18
7132.35946 9.76180e-18
7133.82968 9.98284e-18
7135.29990 9.96449e-18
7136.77012 9.54130e-18
7138.24034 9.75810e-18
7139.71056 9.73914e-18
7141.18078 9.90885e-18
7142.65100 1.02189e-17
7144.12122 1.00707e-17
7145.59144 1.00019e-17
7147.06166 1.01232e-17
7148.53188 9.92741e-18
7150.00210 9.91453e-18
7151.47232 9.85331e-18
7152.94254 9.74327e-18
7154.41276 9.85080e-18
7155.88298 9.70754e-18
7157.35320 9.85787e-18
7158.82342 9.96026e-18
7160.29364 9.96267e-18
7161.76386 1.00213e-17
7163.23408 1.01855e-17
7164.70430 1.01768e-17
7166.17452 1.01556e-17
7167.64474 1.01420e-17
7169.11496 1.00603e-17
7170.58518 1.00656e-17
7172.04533 1.01911e-17
7173.51555 1.01881e-17
7174.98577 1.01775e-17
7176.45599 1.01733e-17
7177.92621 1.02386e-17
7179.39643 1.02071e-17
7180.86665 1.03198e-17
7182.33687 1.03300e-17
7183.80709 1.01978e-17
7185.27731 1.01030e-17
7186.74753 9.95760e-18
7188.21775 9.96719e-18
7189.68797 9.73129e-18
7191.15819 9.85931e-18
7192.62841 1.00534e-17
7194.09863 1.00968e-17
7195.56885 1.01231e-17
7197.03907 1.01205e-17
7198.50929 1.03516e-17
7199.97951 1.01017e-17
7201.44973 1.02197e-17
7202.91995 1.03293e-17
7204.39017 1.00876e-17
7205.86039 9.87723e-18
7207.33061 9.58352e-18
7208.80083 9.99855e-18
7210.27105 1.00180e-17
7211.74127 1.00197e-17
7213.21149 1.02834e-17
7214.68171 1.01240e-17
7216.15193 9.91776e-18
7217.62215 9.62532e-18
7219.09237 9.69686e-18
7220.56259 9.68918e-18
7222.03281 9.52581e-18
7223.50303 9.49272e-18
7224.97325 9.62960e-18
7226.44347 9.48875e-18
7227.91369 9.63372e-18
7229.38391 9.94048e-18
7230.85413 9.69979e-18
7232.32435 9.56576e-18
7233.79457 9.55739e-18
7235.26479 9.55383e-18
7236.73501 9.80499e-18
7238.20523 9.81515e-18
7239.66538 9.54377e-18
7241.13560 9.56996e-18
7242.60582 9.54721e-18
7244.07604 9.40302e-18
7245.54626 9.62812e-18
7247.01648 9.52627e-18
7248.48670 9.57281e-18
7249.95692 9.48763e-18
7251.42714 9.58342e-18
7252.89736 9.76653e-18
7254.36758 9.42343e-18
7255.83780 9.28341e-18
7257.30802 9.53998e-18
7258.77824 9.46274e-18
7260.24846 9.46700e-18
7261.71868 9.36260e-18
7263.18890 9.30501e-18
7264.65912 9.25874e-18
7266.12934 9.16685e-18
7267.59956 9.12117e-18
7269.06978 9.19759e-18
7270.54000 9.36115e-18
7272.01022 9.29621e-18
7273.48044 9.33858e-18
7274.95066 9.34937e-18
7276.42088 9.11406e-18
7277.89110 8.93943e-18
7279.36132 9.19647e-18
7280.83154 9.17190e-18
7282.30176 8.97256e-18
7283.77198 8.79592e-18
7285.24220 8.67486e-18
7286.71242 8.75378e-18
7288.18264 9.17019e-18
7289.65286 9.02677e-18
7291.12308 8.92325e-18
7292.59330 8.74203e-18
7294.06352 8.78737e-18
7295.53374 8.46607e-18
7297.00396 8.52910e-18
7298.47418 8.65803e-18
7299.94440 8.59177e-18
7301.41462 8.89211e-18
7302.88484 8.44446e-18
7304.35506 8.41811e-18
7305.81521 8.28056e-18
7307.28543 8.22655e-18
7308.75565 8.32178e-18
7310.22587 8.35168e-18
7311.69609 8.43191e-18
7313.16631 8.41649e-18
7314.63653 8.48409e-18
7316.10675 8.32464e-18
7317.57697 8.28292e-18
7319.04719 8.07348e-18
7320.51741 8.08367e-18
7321.98763 8.37305e-18
7323.45785 8.18599e-18
7324.92807 8.07533e-18
7326.39829 8.11196e-18
7327.86851 7.93948e-18
7329.33873 8.04101e-18
7330.80895 8.08196e-18
7332.27917 8.10975e-18
7333.74939 7.85102e-18
7335.21961 7.99550e-18
7336.68983 7.74004e-18
7338.16005 7.65057e-18
7339.63027 7.87328e-18
7341.10049 7.74870e-18
7342.57071 7.65336e-18
7344.04093 7.86316e-18
7345.51115 7.83665e-18
7346.98137 7.86382e-18
7348.45159 7.42066e-18
7349.92181 7.60723e-18
7351.39203 7.81134e-18
7352.86225 7.81260e-18
7354.33247 7.48881e-18
7355.80269 7.69320e-18
7357.27291 7.79861e-18
7358.74313 7.77507e-18
7360.21335 7.72269e-18
7361.68357 7.24844e-18
7363.15379 7.45206e-18
7364.62401 7.58609e-18
7366.09423 7.41418e-18
7367.56445 7.38349e-18
7369.03467 7.36864e-18
7370.50489 7.18514e-18
7371.97511 7.34151e-18
7373.44533 7.48725e-18
7374.91555 7.50832e-18
7376.37570 7.14421e-18
7377.84592 7.23199e-18
7379.31614 7.38277e-18
7380.78636 7.11058e-18
7382.25658 7.22711e-18
7383.72680 7.37492e-18
7385.19702 7.23300e-18
7386.66724 7.43691e-18
7388.13746 7.06812e-18
7389.60768 7.09936e-18
7391.07790 7.29255e-18
7392.54812 7.27139e-18
7394.01834 7.37451e-18
7395.48856 7.48595e-18
7396.95878 7.36160e-18
7398.42900 7.44473e-18
7399.89922 7.41559e-18
7401.36944 7.34174e-18
7402.83966 7.08547e-18
7404.30988 7.10780e-18
7405.78010 6.89498e-18
7407.25032 6.64710e-18
7408.72054 6.88962e-18
7410.19076 7.05995e-18
7411.66098 7.04990e-18
7413.13120 6.85891e-18
7414.60142 6.79572e-18
7416.07164 7.12252e-18
7416.84125 7.12252e-18
7418.50888 6.92043e-18
7420.16647 6.71843e-18
7421.82406 6.85025e-18
7423.48165 6.98204e-18
7425.14929 7.04255e-18
7426.80688 7.10305e-18
7428.46447 7.08010e-18
7430.13211 7.05710e-18
7431.78970 6.89035e-18
7433.44729 6.72365e-18
7435.10488 6.66800e-18
7436.77251 6.61242e-18
7438.43010 6.75696e-18
7440.08769 6.90144e-18
7441.74528 6.81078e-18
7443.41292 6.72016e-18
7445.07051 6.72777e-18
7446.72810 6.73538e-18
7448.39573 6.81425e-18
7450.05332 6.89310e-18
7451.71091 6.89116e-18
7453.36850 6.88923e-18
7455.03614 6.91052e-18
7456.69373 6.93182e-18
7458.35132 7.01342e-18
7460.00891 7.09501e-18
7461.67655 7.10769e-18
7463.33414 7.12037e-18
7464.99173 7.07977e-18
7466.65936 7.03913e-18
7468.31695 6.78939e-18
7469.97454 6.53973e-18
7471.63213 6.51689e-18
7473.29977 6.49408e-18
7474.95736 6.61274e-18
7476.61495 6.73136e-18
7478.28258 6.72400e-18
7479.94017 6.71661e-18
7481.59776 6.58062e-18
7483.25535 6.44470e-18
7484.92299 6.57630e-18
7486.58058 6.70787e-18
7488.23817 6.76351e-18
7489.89576 6.81915e-18
7491.56340 6.88529e-18
7493.22099 6.95138e-18
7494.87858 6.85574e-18
7496.54621 6.76011e-18
7498.20380 6.67677e-18
7499.86139 6.59340e-18
7501.51898 6.43496e-18
7503.18662 6.27660e-18
7504.84421 6.32252e-18
7506.50180 6.36843e-18
7508.16943 6.40046e-18
7509.82702 6.43248e-18
7511.48461 6.40049e-18
7513.14220 6.36855e-18
7514.80984 6.51805e-18
7516.46743 6.66745e-18
7518.12502 6.49167e-18
7519.78261 6.31597e-18
7521.45025 6.38065e-18
7523.10784 6.44534e-18
7524.76543 6.50506e-18
7526.43306 6.56476e-18
7528.09065 6.54179e-18
7529.74824 6.51879e-18
7531.40583 6.35884e-18
7533.07347 6.19899e-18
7534.73106 6.30968e-18
7536.38865 6.42034e-18
7538.04624 6.45118e-18
7539.71387 6.48200e-18
7541.37146 6.46098e-18
7543.02905 6.43991e-18
7544.69669 6.28103e-18
7546.35428 6.12223e-18
7548.01187 6.21623e-18
7549.66946 6.31022e-18
7551.33710 6.30010e-18
7552.99469 6.28998e-18
7554.65228 6.27986e-18
7556.30987 6.26975e-18
7557.97750 6.25963e-18
7559.63509 6.24953e-18
7561.29268 6.23941e-18
7562.96032 6.22930e-18
7564.61791 6.21918e-18
7566.27550 6.20907e-18
7567.93309 6.19895e-18
7569.60072 6.18884e-18
7571.25831 6.17872e-18
7572.91590 6.16861e-18
7574.58354 6.15850e-18
7576.24113 6.14839e-18
7577.89872 6.13828e-18
7579.55631 6.12817e-18
7581.22395 6.11806e-18
7582.88154 6.10795e-18
7584.53913 6.09784e-18
7586.19672 6.08772e-18
7587.86435 6.07762e-18
7589.52194 6.06750e-18
7591.17953 6.05739e-18
7592.84717 6.04729e-18
7594.50476 6.03718e-18
7596.16235 6.02708e-18
7597.81994 6.01697e-18
7599.48757 6.00686e-18
7601.14516 5.99675e-18
7602.80275 5.98664e-18
7604.46034 5.97653e-18
7606.12798 5.96643e-18
7607.78557 5.95632e-18
7609.44316 5.94622e-18
7611.11080 5.93611e-18
7612.76839 5.92600e-18
7614.42598 5.91590e-18
7616.08357 5.90579e-18
7617.75120 5.89569e-18
7619.40879 5.88558e-18
7621.06638 5.87548e-18
7622.72397 5.86538e-18
7624.39161 5.85528e-18
7626.04920 5.84517e-18
7627.70679 5.83507e-18
7629.37442 5.82497e-18
7631.03201 5.81487e-18
7632.68960 5.80476e-18
7634.34719 5.79467e-18
7636.01483 5.78456e-18
7637.67242 5.77446e-18
7639.33001 5.76436e-18
7640.99765 5.75426e-18
7642.65524 5.74416e-18
7644.31283 5.73406e-18
7645.97042 5.72396e-18
7647.63805 5.71386e-18
7649.29564 5.70376e-18
7650.95323 5.69366e-18
7652.61082 5.68356e-18
7654.27846 5.67346e-18
7655.93605 5.66337e-18
7657.59364 5.65327e-18
7659.26127 5.64317e-18
7660.91886 5.63308e-18
7662.57645 5.62298e-18
7664.23404 5.61288e-18
7665.90168 5.60279e-18
7667.55927 5.59269e-18
7669.21686 5.58259e-18
7670.87445 5.57250e-18
7672.54209 5.56241e-18
7674.19968 5.55231e-18
7675.85727 5.54222e-18
7677.52490 5.53213e-18
7679.18249 5.52203e-18
7680.84008 5.51194e-18
7682.49767 5.38832e-18
7684.16531 5.37563e-18
7685.82290 5.36302e-18
7687.48049 5.63285e-18
7689.13808 5.90255e-18
7690.80571 5.79636e-18
7692.46330 5.69021e-18
7694.12089 5.70664e-18
7695.78853 5.72305e-18
7697.44612 5.66227e-18
7699.10371 5.60155e-18
7700.76130 5.78437e-18
7702.42894 5.96707e-18
7704.08653 5.74724e-18
7705.74412 5.52751e-18
7707.40171 5.66927e-18
7709.06934 5.81096e-18
7710.72693 5.78782e-18
7712.38452 5.76471e-18
7714.05216 5.84690e-18
7715.70975 5.92902e-18
7717.36734 5.80459e-18
7719.02493 5.68023e-18
7720.69256 5.77766e-18
7722.35015 5.87502e-18
7724.00774 5.71997e-18
7725.67538 5.56494e-18
7727.33297 5.44383e-18
7728.99056 5.32281e-18
7730.64815 5.48767e-18
7732.31579 5.65248e-18
7733.97338 5.70031e-18
7735.63097 5.74808e-18
7737.28856 5.67067e-18
7738.95619 5.59329e-18
7740.61378 5.64524e-18
7742.27137 5.69718e-18
7743.93901 5.71583e-18
7745.59660 5.73451e-18
7747.25419 5.86401e-18
7748.91178 5.99340e-18
7750.57941 5.77623e-18
7752.23700 5.55910e-18
7753.89459 5.48221e-18
7755.55218 5.40539e-18
7757.21982 5.53786e-18
7758.87741 5.67038e-18
7760.53500 5.97647e-18
7762.20264 6.28243e-18
7763.86023 6.15943e-18
7765.51782 6.03648e-18
7767.17541 6.06238e-18
7768.84304 6.08826e-18
7770.50063 6.05646e-18
7772.15822 6.02465e-18
7773.81581 5.97480e-18
7775.48345 5.92494e-18
7777.14104 5.86088e-18
7778.79863 5.79689e-18
7780.46626 5.88816e-18
7782.12385 5.97938e-18
7783.78144 5.85936e-18
7785.43903 5.73943e-18
7787.10667 5.89275e-18
7788.76426 6.04605e-18
7790.42185 6.14300e-18
7792.07944 6.23991e-18
7793.74708 6.17897e-18
7795.40467 6.11806e-18
7797.06226 6.15701e-18
7798.72989 6.19597e-18
7800.38748 6.23414e-18
7802.04507 6.27227e-18
7803.70266 6.22125e-18
7805.37030 6.17025e-18
7807.02789 6.20084e-18
7808.68548 6.23139e-18
7810.35311 6.14579e-18
7812.01070 6.06030e-18
7813.66829 6.31177e-18
7815.32588 6.56312e-18
7816.99352 6.41217e-18
7818.65111 6.26126e-18
7820.30870 6.21534e-18
7821.96629 6.16940e-18
7823.63393 6.02943e-18
7825.29152 5.88950e-18
7826.94911 5.89125e-18
7828.61674 5.89299e-18
7830.27433 5.85941e-18
7831.93192 5.82587e-18
7833.58951 5.92496e-18
7835.25715 6.02406e-18
7836.91474 6.14700e-18
7838.57233 6.26982e-18
7840.22992 6.01998e-18
7841.89755 5.77026e-18
7843.55514 5.88659e-18
7845.21273 6.00286e-18
7846.88037 5.98934e-18
7848.53796 5.97586e-18
7850.19555 6.10827e-18
7851.85314 6.24073e-18
7853.52078 6.57409e-18
7855.17837 6.90729e-18
7856.83596 6.71376e-18
7858.50359 6.52026e-18
7860.16118 6.36100e-18
7861.81877 6.20185e-18
7863.47636 6.39070e-18
7865.14400 6.57944e-18
7866.80159 6.42909e-18
7868.45918 6.27882e-18
7870.11677 6.35829e-18
7871.78440 6.43770e-18
7873.44199 6.32967e-18
7875.09958 6.22167e-18
7876.76722 6.21728e-18
7878.42481 6.21292e-18
7880.08240 6.29719e-18
7881.73999 6.38139e-18
7883.40763 6.25162e-18
7885.06522 6.12196e-18
7886.72281 6.35295e-18
7888.38040 6.58384e-18
7890.04803 6.51085e-18
7891.70562 6.43782e-18
7893.36321 6.22638e-18
7895.03085 6.01500e-18
7896.68844 5.97368e-18
7898.34603 5.93235e-18
7900.00362 5.90683e-18
7901.67125 5.88137e-18
7903.32884 6.02677e-18
7904.98643 6.17211e-18
7906.64402 6.17367e-18
7908.31166 6.17520e-18
7909.96925 6.10337e-18
7911.62684 6.03152e-18
7913.29448 5.87090e-18
7914.95207 5.71040e-18
7916.60966 5.91946e-18
7918.26725 6.12842e-18
7919.93488 6.01472e-18
7921.59247 5.90112e-18
7923.25006 6.08959e-18
7924.90765 6.27800e-18
7926.57529 6.26397e-18
7928.23288 6.24989e-18
7929.89047 6.08881e-18
7931.55810 5.92774e-18
7933.21569 5.84041e-18
7934.87328 5.75314e-18
7936.53087 5.84640e-18
7938.19851 5.93959e-18
7939.85610 5.80626e-18
7941.51369 5.67300e-18
7943.18133 5.75400e-18
7944.83892 5.83505e-18
7946.49651 6.09631e-18
7948.15410 6.35741e-18
7949.82173 6.15277e-18
7951.47932 5.94811e-18
7953.13691 5.72303e-18
7954.79450 5.49811e-18
7956.46214 5.72608e-18
7958.11973 5.95390e-18
7959.77732 5.68684e-18
7961.44495 5.41992e-18
7963.10254 5.60208e-18
7964.76013 5.78417e-18
7966.41772 5.75236e-18
7968.08536 5.72055e-18
7969.74295 5.73933e-18
7971.40054 5.75812e-18
7973.05813 5.82558e-18
7974.72577 5.89298e-18
7976.38336 5.71357e-18
7978.04095 5.53420e-18
7979.70858 5.44607e-18
7981.36617 5.35804e-18
7983.02376 5.56466e-18
7984.68135 5.77121e-18
7986.34899 5.83294e-18
7988.00658 5.89461e-18
7989.66417 5.79067e-18
7991.33180 5.68679e-18
7992.98939 5.79283e-18
7994.64698 5.89875e-18
7996.30457 5.63672e-18
7997.97221 5.37485e-18
7999.62980 5.57417e-18
8001.28739 5.77337e-18
8002.94498 5.62489e-18
8004.61262 5.47645e-18
8006.27021 5.42759e-18
8007.92780 5.37883e-18
8009.59543 5.62415e-18
8011.25302 5.86931e-18
8012.91061 5.66602e-18
8014.56820 5.46280e-18
8016.23584 5.48312e-18
8017.89343 5.50345e-18
8019.55102 5.59410e-18
8021.20861 5.68473e-18
8022.87624 5.68955e-18
8024.53383 5.69431e-18
8026.19142 5.56226e-18
8027.85906 5.43022e-18
8029.51665 5.37865e-18
8031.17424 5.32706e-18
8032.83183 5.22924e-18
8034.49947 5.13149e-18
8036.15706 5.30231e-18
8037.81465 5.47306e-18
8039.47224 5.47202e-18
8041.13987 5.47095e-18
8042.79746 5.40436e-18
8044.45505 5.33778e-18
8046.12269 5.26461e-18
8047.78028 5.19149e-18
8049.43787 5.31354e-18
8051.09546 5.43552e-18
8052.76309 5.39830e-18
8054.42068 5.36106e-18
8056.07827 5.23786e-18
8057.73586 5.11472e-18
8059.40350 5.18719e-18
8061.06109 5.25965e-18
8062.71868 5.28216e-18
8064.38632 5.30461e-18
8066.04391 5.16484e-18
8067.70150 5.02510e-18
8069.35909 4.97852e-18
8071.02672 4.93199e-18
8072.68431 5.01383e-18
8074.34190 5.09569e-18
8076.00954 5.17602e-18
8077.66713 5.25632e-18
8079.32472 5.24555e-18
8080.98231 5.23472e-18
8082.64994 5.04940e-18
8084.30753 4.86411e-18
8085.96512 4.77335e-18
8087.62271 4.68263e-18
8089.29035 4.73800e-18
8090.94794 4.79339e-18
8092.60553 4.85438e-18
8094.27317 4.91536e-18
8095.93076 4.91856e-18
8097.58835 4.92177e-18
8099.24594 4.91729e-18
8100.91357 4.91284e-18
8102.57116 4.95221e-18
8104.22875 4.99153e-18
8105.88634 4.90476e-18
8107.55398 4.81804e-18
8109.21157 4.89233e-18
8110.86916 4.96653e-18
8112.53679 4.78333e-18
8114.19438 4.60025e-18
8115.85197 4.75512e-18
8117.50956 4.91001e-18
8119.17720 5.10329e-18
8120.83479 5.29644e-18
8122.49238 5.12036e-18
8124.16002 4.94425e-18
8125.81761 4.68982e-18
8127.47520 4.43550e-18
8129.13279 4.49969e-18
8130.80042 4.56390e-18
8132.45801 4.71033e-18
8134.11560 4.85671e-18
8135.77319 4.87645e-18
8137.44083 4.89619e-18
8139.09842 4.92520e-18
8140.75601 4.95418e-18
8142.41360 4.90223e-18
8144.08123 4.85025e-18
8145.73882 4.67677e-18
8147.39641 4.50340e-18
8149.06405 4.68100e-18
8150.72164 4.85851e-18
8152.37923 4.82373e-18
8154.03682 4.78890e-18
8155.70446 4.61043e-18
8157.36205 4.43207e-18
8159.01964 4.54689e-18
8160.68727 4.66169e-18
8162.34486 4.72122e-18
8164.00245 4.78068e-18
8165.66004 4.63829e-18
8167.32768 4.49602e-18
8168.98527 4.72870e-18
8170.64286 4.96129e-18
8172.30045 4.95239e-18
8173.96808 4.94337e-18
8175.62567 4.54886e-18
8177.28326 4.15452e-18
8178.95090 4.27247e-18
8180.60849 4.39044e-18
8182.26608 4.54632e-18
8183.92367 4.70216e-18
8185.59131 4.77500e-18
8187.24890 4.84773e-18
8188.90649 4.55102e-18
8190.56408 4.25444e-18
8192.23171 4.29977e-18
8193.88930 4.34516e-18
8195.54689 4.56892e-18
8197.21453 4.79259e-18
8198.87212 4.79246e-18
8200.52971 4.79229e-18
8202.18730 4.69587e-18
8203.85493 4.59949e-18
8205.51252 4.61790e-18
8207.17011 4.63631e-18
8208.82770 4.65869e-18
8210.49534 4.68098e-18
8212.15293 4.42759e-18
8213.81052 4.17433e-18
8215.47816 4.29213e-18
8217.13575 4.40986e-18
8218.79334 4.30222e-18
8220.45093 4.19468e-18
8222.11856 4.36660e-18
8223.77615 4.53843e-18
8225.43374 4.42077e-18
8227.09133 4.30320e-18
8228.75897 4.39831e-18
8230.41656 4.49336e-18
8232.07415 4.41032e-18
8233.74178 4.32730e-18
8235.39937 4.32396e-18
8237.05696 4.32060e-18
8238.71455 4.22916e-18
8240.38219 4.13775e-18
8242.03978 4.05507e-18
8243.69737 3.97250e-18
8245.36501 4.21643e-18
8247.02260 4.46026e-18
8248.68019 4.40151e-18
8250.33778 4.34278e-18
8252.00541 4.35977e-18
8253.66300 4.37665e-18
8255.32059 4.06137e-18
8256.97818 3.74631e-18
8258.64582 4.00822e-18
8260.30341 4.27006e-18
8261.96100 4.34139e-18
8263.62863 4.41266e-18
8265.28622 4.32936e-18
8266.94381 4.24605e-18
8268.60140 4.10691e-18
8270.26904 3.96782e-18
8271.92663 3.95448e-18
8273.58422 3.94115e-18
8275.25186 3.98610e-18
8276.90945 4.03101e-18
8278.56704 3.96687e-18
8280.22463 3.90272e-18
8281.89226 3.81345e-18
8283.54985 3.72425e-18
8285.20744 3.82927e-18
8286.86503 3.93423e-18
8288.53267 3.86632e-18
8290.19026 3.79846e-18
8291.84785 3.87257e-18
8293.51548 3.94669e-18
8295.17307 4.00998e-18
8296.83066 4.07325e-18
8298.48825 4.03853e-18
8300.15589 4.00376e-18
8301.81348 3.81274e-18
8303.47107 3.62181e-18
8305.12866 3.67164e-18
8306.79630 3.72144e-18
8308.45389 3.68864e-18
8310.11148 3.65583e-18
8311.77911 3.58580e-18
8313.43670 3.51580e-18
8315.09429 3.58467e-18
8316.75188 3.65353e-18
8318.41952 3.76393e-18
8320.07711 3.87427e-18
8321.73470 3.80050e-18
8323.40233 3.72669e-18
8325.05992 3.51462e-18
8326.71751 3.30268e-18
8328.37510 3.38454e-18
8330.04274 3.46642e-18
8331.70033 3.54215e-18
8333.35792 3.61787e-18
8335.01551 3.63092e-18
8336.68315 3.64399e-18
8338.34074 3.67156e-18
8339.99833 3.69913e-18
8341.65592 3.75859e-18
8343.32355 3.81809e-18
8344.98114 3.98585e-18
8346.63873 4.15351e-18
8348.30637 4.04921e-18
8349.96396 3.94487e-18
8351.62155 3.72876e-18
8353.27914 3.51274e-18
8354.94677 3.56258e-18
8356.60436 3.61244e-18
8358.26195 3.72440e-18
8359.92959 3.83631e-18
8361.58718 3.81614e-18
8363.24477 3.79593e-18
8364.90236 3.68487e-18
8366.57000 3.57382e-18
8368.22759 3.49437e-18
8369.88518 3.41500e-18
8371.54277 3.57216e-18
8373.21040 3.72918e-18
8374.86799 3.49181e-18
8376.52558 3.25460e-18
8378.19322 3.47798e-18
8379.85081 3.70124e-18
8381.50840 3.58587e-18
8383.16599 3.47056e-18
8384.83362 3.53533e-18
8386.49121 3.60001e-18
8388.14880 3.44859e-18
8389.81644 3.29728e-18
8391.47403 3.45198e-18
8393.13162 3.60667e-18
8394.78921 3.74405e-18
8396.45685 3.88136e-18
8398.11444 3.80305e-18
8399.77203 3.72475e-18
8401.42962 3.65961e-18
8403.09725 3.59452e-18
8404.75484 3.65852e-18
8406.41243 3.72256e-18
8408.08007 3.90662e-18
8409.73766 4.09057e-18
8411.39525 3.92683e-18
8413.05284 3.76316e-18
8414.72047 3.77446e-18
8416.37806 3.78571e-18
8418.03565 3.68112e-18
8419.69324 3.57658e-18
8421.36088 3.55294e-18
8423.01847 3.52934e-18
8424.67606 3.57503e-18
8426.34370 3.62065e-18
8428.00129 3.40227e-18
8429.65888 3.18404e-18
8431.31647 3.36268e-18
8432.98410 3.54131e-18
8434.64169 3.67558e-18
8436.29928 3.80979e-18
8437.95687 3.78016e-18
8439.62451 3.75052e-18
8441.28210 3.69846e-18
8442.93969 3.64634e-18
8444.60732 3.41917e-18
8446.26491 3.19212e-18
8447.92250 3.27853e-18
8449.58009 3.36496e-18
8451.24773 3.56229e-18
8452.90532 3.75957e-18
8454.56291 3.82120e-18
8456.22050 3.88276e-18
8457.88814 3.73789e-18
8459.54573 3.59304e-18
8461.20332 3.52346e-18
8462.87095 3.45392e-18
8464.52854 3.51227e-18
8466.18613 3.57060e-18
8467.84372 3.58380e-18
8469.51136 3.59700e-18
8471.16895 3.58618e-18
8472.82654 3.57534e-18
8474.48413 3.54647e-18
8476.15176 3.51764e-18
8477.80935 3.59392e-18
8479.46694 3.67027e-18
8481.13458 3.89128e-18
8482.79217 4.11215e-18
8484.44976 3.93317e-18
8486.10735 3.75426e-18
8487.77499 3.74457e-18
8489.43258 3.73497e-18
8491.09017 3.96262e-18
8492.75780 4.19012e-18
8494.41539 4.00619e-18
8496.07298 3.82233e-18
8497.73057 3.86383e-18
8499.39821 3.90531e-18
8501.05580 3.91611e-18
8502.71339 3.92691e-18
8504.37098 3.92257e-18
8506.03861 3.91821e-18
8507.69620 3.89772e-18
8509.35379 3.87725e-18
8511.01138 3.92456e-18
8512.67902 3.97183e-18
8514.33661 3.92515e-18
8515.99420 3.87853e-18
8517.66184 3.99376e-18
8519.31943 4.10892e-18
8520.97702 4.00041e-18
8522.63461 3.89190e-18
8524.30224 3.80715e-18
8525.95983 3.72251e-18
8527.61742 3.92835e-18
8529.28506 4.13416e-18
8530.94265 4.27666e-18
8532.60024 4.41904e-18
8534.25783 4.19916e-18
8535.92546 3.97942e-18
8537.58305 4.18611e-18
8539.24064 4.39267e-18
8540.89823 4.26682e-18
8542.56587 4.14103e-18
8544.22346 4.13043e-18
8545.88105 4.11984e-18
8547.54869 4.13206e-18
8549.20628 4.14434e-18
8550.86387 4.34414e-18
8552.52146 4.54386e-18
8554.18909 4.54112e-18
8555.84668 4.53842e-18
8557.50427 4.64848e-18
8559.17191 4.75846e-18
8560.82950 4.65495e-18
8562.48709 4.55146e-18
8564.14468 4.47047e-18
8565.81231 4.38955e-18
8567.46990 4.52729e-18
8569.12749 4.66497e-18
8570.78508 4.65288e-18
8572.45272 4.64074e-18
8574.11031 4.49681e-18
8575.76790 4.35288e-18
8577.43554 4.26306e-18
8579.09313 4.17330e-18
8580.75072 4.28615e-18
8582.40831 4.39892e-18
8584.07594 4.35062e-18
8585.73353 4.30235e-18
8587.39112 4.40958e-18
8589.04871 4.51681e-18
8590.71635 4.64125e-18
8592.37394 4.76561e-18
8594.03153 4.63554e-18
8595.69916 4.50551e-18
8597.35675 4.43231e-18
8599.01434 4.35916e-18
8600.67193 4.39455e-18
8602.33957 4.43001e-18
8603.99716 4.64334e-18
8605.65475 4.85655e-18
8607.32239 4.77270e-18
8608.97998 4.68882e-18
8610.63757 4.56422e-18
8612.29516 4.43966e-18
8613.96279 4.44945e-18
8615.62038 4.45924e-18
8617.27797 4.47815e-18
8618.93556 4.49705e-18
8620.60320 4.48039e-18
8622.26079 4.46379e-18
8623.91838 4.65964e-18
8625.58601 4.85545e-18
8627.24360 4.94435e-18
8628.90119 5.03316e-18
8630.55878 4.88821e-18
8632.22642 4.74328e-18
8633.88401 4.65004e-18
8635.54160 4.55691e-18
8637.20924 4.72375e-18
8638.86683 4.89056e-18
8640.52442 4.96636e-18
8642.18201 5.04202e-18
8643.84964 4.71236e-18
8645.50723 4.38283e-18
8647.16482 4.43783e-18
8648.82241 4.49286e-18
8650.49005 4.70683e-18
8652.14764 4.92071e-18
8653.80523 4.92049e-18
8655.46282 4.92024e-18
8657.13045 4.83834e-18
8658.78804 4.75650e-18
8660.44563 4.83795e-18
8662.11327 4.91930e-18
8663.77086 4.74094e-18
8665.42845 4.56266e-18
8667.08604 4.60424e-18
8668.75368 4.64580e-18
8670.41127 4.63177e-18
8672.06886 4.61776e-18
8673.73649 4.66708e-18
8675.39408 4.71633e-18
8677.05167 4.60153e-18
8678.70926 4.48680e-18
8680.37690 4.57057e-18
8682.03449 4.65432e-18
8683.69208 4.69163e-18
8685.34967 4.72886e-18
8687.01730 4.56866e-18
8688.67489 4.40857e-18
8690.33248 4.55944e-18
8691.99007 4.71027e-18
8693.65771 4.76766e-18
8695.31530 4.82497e-18
8696.97289 4.70719e-18
8698.64053 4.58946e-18
8700.29812 4.62039e-18
8701.95571 4.65134e-18
8703.61330 4.73852e-18
8705.28093 4.82564e-18
8706.93852 4.74387e-18
8708.59611 4.66210e-18
8710.26375 4.58026e-18
8711.92134 4.49851e-18
8713.57893 4.60375e-18
8715.23652 4.70893e-18
8716.90415 4.65107e-18
8718.56174 4.59321e-18
8720.21933 4.51647e-18
8721.87692 4.43976e-18
8723.54456 4.46823e-18
8725.20215 4.49672e-18
8726.85974 4.58070e-18
8728.52738 4.66469e-18
8730.18497 4.77916e-18
8731.84256 4.89353e-18
8733.50015 4.75619e-18
8735.16778 4.61895e-18
8736.82537 4.70862e-18
8738.48296 4.79823e-18
8740.14055 4.69328e-18
8741.80819 4.58841e-18
8743.46578 4.69067e-18
8745.12337 4.79281e-18
8746.79100 4.56341e-18
8748.44859 4.33414e-18
8750.10618 4.41765e-18
8751.76377 4.50126e-18
8753.43141 4.82995e-18
8755.08900 5.15852e-18
8756.74659 5.18936e-18
8758.40418 5.22005e-18
8760.07182 4.86253e-18
8761.72941 4.50513e-18
8763.38700 4.45616e-18
8765.05463 4.40724e-18
8766.71222 4.46828e-18
8768.36981 4.52929e-18
8770.02740 4.45989e-18
8771.69504 4.39053e-18
8773.35263 4.39906e-18
8775.01022 4.40756e-18
8776.67785 4.39125e-18
8778.33544 4.37493e-18
8779.99303 4.37205e-18
8781.65062 4.36919e-18
8783.31826 4.41852e-18
8784.97585 4.46777e-18
8786.63344 4.26750e-18
8788.29103 4.06729e-18
8789.95867 3.98639e-18
8791.61626 3.90562e-18
8793.27385 4.17212e-18
8794.94148 4.43847e-18
8796.59907 4.31108e-18
8798.25666 4.18373e-18
8799.91425 4.15819e-18
8801.58189 4.13266e-18
8803.23948 4.11060e-18
8804.89707 4.08853e-18
8806.56470 4.10301e-18
8808.22229 4.11750e-18
8809.87988 4.18539e-18
8811.53747 4.25325e-18
8813.20511 4.26333e-18
8814.86270 4.27342e-18
8816.52029 4.32580e-18
8818.17788 4.37816e-18
8819.84552 4.40085e-18
8821.50311 4.42354e-18
8823.16070 4.41638e-18
8824.82833 4.40923e-18
8826.48592 4.40562e-18
8828.14351 4.40184e-18
8829.80110 4.01682e-18
8831.46874 3.63207e-18
8833.12633 3.97636e-18
8834.78392 4.32048e-18
8836.44151 4.23857e-18
8838.10914 4.15670e-18
8839.76673 4.15012e-18
8841.42432 4.14352e-18
8843.09196 4.06692e-18
8844.74955 3.99035e-18
8846.40714 3.98538e-18
8848.06473 3.98042e-18
8849.73237 3.98199e-18
8851.38996 3.98359e-18
8853.04755 4.07859e-18
8854.71518 4.17351e-18
8856.37277 4.05722e-18
8858.03036 3.94096e-18
8859.68795 3.86070e-18
8861.35559 3.78048e-18
8863.01318 3.77313e-18
8864.67077 3.76581e-18
8866.32836 3.82605e-18
8867.99599 3.88631e-18
8869.65358 3.97590e-18
8871.31117 4.06546e-18
8872.97881 4.06118e-18
8874.63640 4.05685e-18
8876.29399 3.91058e-18
8877.95158 3.76442e-18
8879.61922 3.88359e-18
8881.27681 4.00268e-18
8882.93440 3.96149e-18
8884.60203 3.92036e-18
8886.25962 4.02980e-18
8887.91721 4.13921e-18
8889.57480 4.15927e-18
8891.24244 4.17924e-18
8892.90003 3.95584e-18
8894.55762 3.73256e-18
8896.21521 3.81412e-18
8897.88284 3.89565e-18
8899.54043 3.89682e-18
8901.19802 3.89797e-18
8902.85561 3.87510e-18
8904.52325 3.85223e-18
8906.18084 3.83726e-18
8907.83843 3.82223e-18
8909.50607 3.66419e-18
8911.16366 3.50624e-18
8912.82125 3.54609e-18
8914.47884 3.58589e-18
8916.14647 3.47218e-18
8917.80406 3.35859e-18
8919.46165 3.51831e-18
8921.11924 3.67794e-18
8922.78688 3.62983e-18
8924.44447 3.58184e-18
8926.10206 3.85435e-18
8927.76969 4.12672e-18
8929.42728 4.08372e-18
8931.08487 4.04059e-18
8932.74246 3.68375e-18
8934.41010 3.32704e-18
8936.06769 3.30791e-18
8937.72528 3.28886e-18
8939.38287 3.49068e-18
8941.05051 3.69232e-18
8942.70810 3.45562e-18
8944.36569 3.21904e-18
8946.03332 3.28307e-18
8947.69091 3.34702e-18
8949.34850 3.26441e-18
8951.00609 3.18189e-18
8952.67373 3.32755e-18
8954.33132 3.47307e-18
8955.98891 3.23020e-18
8957.64650 2.98748e-18
8959.31413 3.12177e-18
8960.97172 3.25602e-18
8962.62931 3.35240e-18
8964.29695 3.44878e-18
8965.95454 3.59139e-18
8967.61213 3.73388e-18
8969.26972 3.63341e-18
8970.93736 3.53298e-18
8972.59495 3.51604e-18
8974.25254 3.49910e-18
8975.92017 3.46942e-18
8977.57776 3.43972e-18
8979.23535 3.35358e-18
8980.89294 3.26751e-18
8982.56058 3.34438e-18
8984.21817 3.42124e-18
8985.87576 3.51879e-18
8987.53335 3.61623e-18
8989.20098 3.45758e-18
8990.85857 3.29898e-18
8992.51616 3.24625e-18
8994.18380 3.19356e-18
8995.84139 3.25979e-18
8997.49898 3.32600e-18
8999.15657 3.38764e-18
9000.82421 3.44931e-18
9002.48180 3.55864e-18
9004.13939 3.66793e-18
9005.79698 3.62304e-18
9007.46461 3.57817e-18
9009.12220 3.55538e-18
9010.77979 3.53263e-18
9012.44743 3.63371e-18
9014.10502 3.73469e-18
9015.76261 3.54771e-18
9017.42020 3.36083e-18
9019.08783 3.39546e-18
9020.74542 3.43002e-18
9022.40301 3.33348e-18
9024.07065 3.23697e-18
9025.72824 3.26535e-18
9027.38583 3.29373e-18
9029.04342 3.36278e-18
9030.71106 3.43186e-18
9032.36865 3.58072e-18
9034.02624 3.72943e-18
9035.68383 3.53305e-18
9037.35146 3.33673e-18
9039.00905 3.27605e-18
9040.66664 3.21545e-18
9042.33428 3.32834e-18
9043.99187 3.44113e-18
9045.64946 3.28830e-18
9047.30705 3.13546e-18
9048.97468 2.97434e-18
9050.63227 2.81339e-18
9052.28986 3.06131e-18
9053.95750 3.30914e-18
9055.61509 3.34553e-18
9057.27268 3.38182e-18
9058.93027 3.20059e-18
9060.59791 3.01942e-18
9062.25550 2.98057e-18
9063.91309 2.94175e-18
9065.57068 2.98047e-18
9067.23831 3.01914e-18
9068.89590 2.89045e-18
9070.55349 2.76188e-18
9072.21108 2.90522e-18
9073.87872 3.04848e-18
9075.53631 3.05079e-18
9077.19390 3.05310e-18
9078.86153 3.08194e-18
9080.51912 3.11066e-18
9082.17671 2.86431e-18
9083.83430 2.61814e-18
9085.50194 2.79970e-18
9087.15953 2.98122e-18
9088.81712 3.09743e-18
9090.48476 3.21354e-18
9092.14235 3.10415e-18
9093.79994 2.99494e-18
9095.45753 3.20974e-18
9097.12516 3.42434e-18
9098.78275 3.18904e-18
9100.44034 2.95391e-18
9102.09793 3.10041e-18
9103.76557 3.24697e-18
9105.42316 3.53509e-18
9107.08075 3.82303e-18
9108.74838 3.67006e-18
9110.40597 3.51708e-18
9112.06356 3.31060e-18
9113.72115 3.10420e-18
9115.38879 3.04321e-18
9117.04638 2.98228e-18
9118.70397 3.05321e-18
9120.36156 3.12411e-18
9122.02920 3.08762e-18
9123.68679 3.05117e-18
9125.34438 3.12141e-18
9127.01201 3.19164e-18
9128.66960 3.28344e-18
9130.32719 3.37521e-18
9131.98478 3.42213e-18
9133.65242 3.46904e-18
9135.31001 3.46277e-18
9136.96760 3.45651e-18
9138.63523 3.51620e-18
9140.29282 3.57583e-18
9141.95041 3.46138e-18
9143.60800 3.34699e-18
9145.27564 3.37261e-18
9146.93323 3.39819e-18
9148.59082 3.34936e-18
9150.24841 3.30048e-18
9151.91605 3.16438e-18
9153.57364 3.02842e-18
9155.23123 3.27163e-18
9156.89886 3.51473e-18
9158.55645 3.54116e-18
9160.21404 3.56754e-18
9161.87163 3.50434e-18
9163.53927 3.44110e-18
9165.19686 3.24795e-18
9166.85445 3.05494e-18
9168.51204 3.19261e-18
9170.17967 3.33022e-18
9171.83726 3.33572e-18
9173.49485 3.34120e-18
9175.15244 3.30391e-18
9176.82008 3.26670e-18
9178.47767 3.43964e-18
9180.13526 3.61252e-18
9181.80290 3.66320e-18
9183.46049 3.71383e-18
9185.11808 3.64755e-18
9186.77567 3.58131e-18
9188.44330 3.62365e-18
9190.10089 3.66594e-18
9191.75848 3.61494e-18
9193.42612 3.56389e-18
9195.08371 3.41776e-18
9196.74130 3.27177e-18
9198.39889 3.48248e-18
9200.06652 3.69311e-18
9201.72411 3.70091e-18
9203.38170 3.70863e-18
9205.03929 3.53513e-18
9206.70693 3.36169e-18
9208.36452 3.35712e-18
9210.02211 3.35260e-18
9211.68975 3.49910e-18
9213.34734 3.64552e-18
9215.00493 3.60522e-18
9216.66252 3.56492e-18
9218.33015 3.49900e-18
9219.98774 3.43308e-18
9221.64533 3.36326e-18
9223.31297 3.29349e-18
9224.97056 3.34672e-18
9226.62815 3.39985e-18
9228.28574 3.20915e-18
9229.95337 3.01864e-18
9231.61096 3.32708e-18
9233.26855 3.63543e-18
9234.92614 3.78461e-18
9236.59378 3.93364e-18
9238.25137 3.70865e-18
9239.90896 3.48372e-18
9241.56655 3.36779e-18
9243.23419 3.25199e-18
9244.89178 3.48007e-18
9246.54937 3.70799e-18
9248.21700 3.53788e-18
9249.87459 3.36786e-18
9251.53218 3.38003e-18
9253.18977 3.39217e-18
9254.85741 3.35364e-18
9256.51500 3.31515e-18
9258.17259 3.36145e-18
9259.84022 3.40775e-18
9261.49781 3.49239e-18
9263.15540 3.57697e-18
9264.81299 3.51475e-18
9266.48063 3.45247e-18
9268.13822 3.23384e-18
9269.79581 3.01541e-18
9271.45340 3.26608e-18
9273.12104 3.51659e-18
9274.77863 3.39744e-18
9276.43622 3.27840e-18
9278.10385 3.45879e-18
9279.76144 3.63901e-18
9281.41903 3.46227e-18
9283.07662 3.28561e-18
9284.74426 3.29028e-18
9286.40185 3.29498e-18
9288.05944 3.37819e-18
9289.71703 3.46127e-18
9291.38466 3.18723e-18
9293.04225 2.91335e-18
9294.69984 2.99498e-18
9296.36748 3.07663e-18
9298.02507 3.19559e-18
9299.68266 3.31450e-18
9301.34025 3.32077e-18
9303.00789 3.32702e-18
9304.66548 3.30773e-18
9306.32307 3.28839e-18
9307.99070 3.15718e-18
9309.64829 3.02599e-18
9311.30588 2.96437e-18
9312.96347 2.90281e-18
9314.63111 2.96125e-18
9316.28870 3.01959e-18
9317.94629 2.83326e-18
9319.60388 2.64692e-18
9321.27151 2.39713e-18
9322.92910 2.14758e-18
9324.58669 2.41398e-18
9326.25433 2.68029e-18
9327.91192 2.71702e-18
9329.56951 2.75378e-18
9331.22710 2.84024e-18
9332.89474 2.92661e-18
9334.55233 2.78068e-18
9336.20992 2.63482e-18
9337.87755 2.68599e-18
9339.53514 2.73714e-18
9341.19273 2.76614e-18
9342.85032 2.79520e-18
9344.51796 2.95027e-18
9346.17555 3.10528e-18
9347.83314 3.14238e-18
9349.49073 3.17930e-18
9351.15836 2.78747e-18
9352.81595 2.39580e-18
9354.47354 2.32684e-18
9356.13113 2.25807e-18
9357.79877 2.62719e-18
9359.45636 2.99615e-18
9361.11395 2.96160e-18
9362.78159 2.92714e-18
9364.43918 3.09078e-18
9366.09677 3.25434e-18
9367.75436 3.25419e-18
9369.42199 3.25403e-18
9371.07958 3.22945e-18
9372.73717 3.20469e-18
9374.40481 2.73341e-18
9376.06240 2.26234e-18
9377.71999 2.27449e-18
9379.37758 2.28673e-18
9381.04521 2.48320e-18
9382.70280 2.67959e-18
9384.36039 2.68922e-18
9386.01798 2.69885e-18
9387.68562 2.70049e-18
9389.34321 2.70210e-18
9391.00080 2.69147e-18
9392.66844 2.68090e-18
9394.32603 2.80477e-18
9395.98362 2.92853e-18
9397.64121 2.80163e-18
9399.30884 2.67479e-18
9400.96643 2.68245e-18
9402.62402 2.69011e-18
9404.28161 2.72580e-18
9405.94925 2.76145e-18
9407.60684 2.68994e-18
9409.26443 2.61852e-18
9410.93206 2.76040e-18
9412.58965 2.90223e-18
9414.24724 2.92893e-18
9415.90483 2.95558e-18
9417.57247 2.84329e-18
9419.23006 2.73104e-18
9420.88765 2.69874e-18
9422.54524 2.66641e-18
9424.21288 2.55032e-18
9425.87047 2.43441e-18
9427.52806 2.74970e-18
9429.19569 3.06477e-18
9430.85328 2.87360e-18
9432.51087 2.68247e-18
9434.16846 2.62153e-18
9435.83610 2.56047e-18
9437.49369 2.22453e-18
9439.15128 1.88867e-18
9440.80887 1.76446e-18
9442.47650 1.64054e-18
9444.13409 2.19169e-18
9445.79168 2.74261e-18
9447.45932 2.73254e-18
9449.11691 2.72251e-18
9450.77450 2.79061e-18
9452.43209 2.85860e-18
9454.09973 2.69395e-18
9455.75732 2.52930e-18
9457.41491 2.32726e-18
9459.07250 2.12534e-18
9460.74013 2.17984e-18
9462.39772 2.23440e-18
9464.05531 2.42769e-18
9465.72295 2.62077e-18
9467.38054 2.36240e-18
9469.03813 2.10422e-18
9470.69572 2.29231e-18
9472.36335 2.48040e-18
9474.02094 2.69243e-18
9475.67853 2.90441e-18
9477.34617 3.01326e-18
9479.00376 3.12201e-18
9480.66135 3.00418e-18
9482.31894 2.88641e-18
9483.98658 2.88917e-18
9485.64417 2.89186e-18
9487.30176 2.69652e-18
9488.95935 2.50125e-18
9490.62698 2.48081e-18
9492.28457 2.46035e-18
9493.94216 2.39668e-18
9495.60980 2.33317e-18
9497.26739 2.64384e-18
9498.92498 2.95432e-18
9500.58257 2.81712e-18
9502.25020 2.67999e-18
9503.90779 2.72071e-18
9505.56538 2.76146e-18
9507.23302 2.82571e-18
9508.89061 2.88984e-18
9510.54820 2.68378e-18
9512.20579 2.47776e-18
9513.87343 2.38907e-18
9515.53102 2.30038e-18
9517.18861 2.25583e-18
9518.84620 2.21142e-18
9520.51383 2.49377e-18
9522.17142 2.77591e-18
9523.82901 2.60436e-18
9525.49665 2.43293e-18
9527.15424 2.49759e-18
9528.81183 2.56219e-18
9530.46942 2.46526e-18
9532.13705 2.36843e-18
9533.79464 2.48171e-18
9535.45223 2.59494e-18
9537.10982 2.62142e-18
9538.77746 2.64791e-18
9540.43505 2.71083e-18
9542.09264 2.77371e-18
9543.76028 2.74406e-18
9545.41787 2.71432e-18
9547.07546 2.49670e-18
9548.73305 2.27913e-18
9550.40068 2.16808e-18
9552.05827 2.05731e-18
9553.71586 2.59438e-18
9555.37345 3.13110e-18
9557.04109 2.88606e-18
9558.69868 2.64111e-18
9560.35627 2.60604e-18
9562.02390 2.57103e-18
9563.68149 2.67563e-18
9565.33908 2.78012e-18
9566.99667 2.63579e-18
9568.66431 2.49152e-18
9570.32190 2.51234e-18
9571.97949 2.53319e-18
9573.64713 2.59737e-18
9575.30472 2.66143e-18
9576.96231 2.45969e-18
9578.61990 2.25804e-18
9580.28753 2.25772e-18
9581.94512 2.25744e-18
9583.60271 2.32915e-18
9585.27035 2.40079e-18
9586.92794 2.31103e-18
9588.58553 2.22129e-18
9590.24312 2.18891e-18
9591.91075 2.15664e-18
9593.56834 2.35995e-18
9595.22593 2.56314e-18
9596.88352 2.46878e-18
9598.55116 2.37453e-18
9600.20875 2.54150e-18
9601.86634 2.70839e-18
9603.52393 2.70400e-18
9605.19157 2.69966e-18
9606.84916 2.81522e-18
9608.50675 2.93058e-18
9610.17438 2.62650e-18
9611.83197 2.32255e-18
9613.48956 2.31119e-18
9615.14715 2.29981e-18
9616.81479 2.27486e-18
9618.47238 2.24993e-18
9620.12997 2.29164e-18
9621.79760 2.33336e-18
9623.45519 2.38659e-18
9625.11278 2.43983e-18
9626.77037 2.49061e-18
9628.43801 2.54139e-18
9630.09560 2.60826e-18
9631.75319 2.67509e-18
9633.41078 2.66842e-18
9635.07842 2.66180e-18
9636.73601 2.80385e-18
9638.39360 2.94575e-18
9640.06123 2.77394e-18
9641.71882 2.60222e-18
9643.37641 2.66168e-18
9645.03400 2.72099e-18
9646.70164 2.48303e-18
9648.35923 2.24523e-18
9650.01682 2.40037e-18
9651.67441 2.55543e-18
9653.34204 2.53440e-18
9654.99963 2.51332e-18
9656.65722 2.33855e-18
9658.31481 2.16390e-18
9659.98245 2.23643e-18
9661.64004 2.30903e-18
9663.29763 2.55587e-18
9664.96527 2.80245e-18
9666.62286 2.46804e-18
9668.28045 2.13386e-18
9669.93804 2.30934e-18
9671.60567 2.48482e-18
9673.26326 2.66430e-18
9674.92085 2.84371e-18
9676.58849 2.89044e-18
9678.24608 2.93708e-18
9679.90367 2.80703e-18
9681.56126 2.67719e-18
9683.22889 2.95651e-18
9684.88648 3.23562e-18
9686.54407 3.01715e-18
9688.20166 2.79863e-18
9689.86930 2.49214e-18
9691.52689 2.18594e-18
9693.18448 2.47814e-18
9694.85212 2.77023e-18
9696.50971 2.80816e-18
9698.16730 2.84616e-18
9699.82489 3.05248e-18
9701.49252 3.25844e-18
9703.15011 2.66889e-18
9704.80770 2.07968e-18
9706.46529 2.20855e-18
9708.13293 2.33740e-18
9709.79052 2.39148e-18
9711.44811 2.44543e-18
9713.11574 2.18736e-18
9714.77333 1.92952e-18
9716.43092 2.19196e-18
9718.08851 2.45438e-18
9719.75615 2.69322e-18
9721.41374 2.93185e-18
9723.07133 2.70114e-18
9724.73897 2.47058e-18
9726.39656 2.51970e-18
9728.05415 2.56883e-18
9729.71174 2.64502e-18
9731.37937 2.72111e-18
9733.03696 2.56840e-18
9734.69455 2.41579e-18
9736.35214 2.48224e-18
9738.01978 2.54870e-18
9739.67737 2.65905e-18
9741.33496 2.76934e-18
9743.00259 2.76750e-18
9744.66018 2.76560e-18
9746.31777 2.62351e-18
9747.97536 2.48144e-18
9749.64300 2.36039e-18
9751.30059 2.23952e-18
9752.95818 2.48665e-18
9754.62582 2.73356e-18
9756.28341 2.53564e-18
9757.94100 2.33785e-18
9759.59859 2.43093e-18
9761.26622 2.52400e-18
9762.92381 2.59288e-18
9764.58140 2.66171e-18
9766.23899 2.61772e-18
9767.90663 2.57382e-18
9769.56422 2.69161e-18
9771.22181 2.80931e-18
9772.87940 2.71591e-18
9774.54703 2.62250e-18
9776.20462 2.47794e-18
9777.86221 2.33339e-18
9779.52985 2.21148e-18
9781.18744 2.08973e-18
9782.84503 2.30833e-18
9784.50262 2.52682e-18
9786.17026 2.47602e-18
9787.82785 2.42553e-18
9789.48544 3.02605e-18
9791.15307 3.62614e-18
9792.81066 3.32302e-18
9794.46825 3.01999e-18
9796.12584 2.86605e-18
9797.79348 2.71222e-18
9799.45107 2.80424e-18
9801.10866 2.89598e-18
9802.76625 2.37690e-18
9804.43388 1.85799e-18
9806.09147 1.68767e-18
9807.74906 1.51763e-18
9809.41670 1.91446e-18
9811.07429 2.31113e-18
9812.73188 2.39363e-18
9814.38947 2.47613e-18
9816.05711 2.56062e-18
9817.71470 2.64504e-18
9819.37229 2.57997e-18
9821.03992 2.51484e-18
9822.69751 2.31604e-18
9824.35510 2.11747e-18
9826.01269 2.41156e-18
9827.68033 2.70545e-18
9829.33792 2.54339e-18
9830.99551 2.38146e-18
9832.65310 2.47140e-18
9834.32073 2.56126e-18
9835.97832 2.48853e-18
9837.63591 2.41576e-18
9839.30355 2.26165e-18
9840.96114 2.10776e-18
9842.61873 2.40022e-18
9844.27632 2.69270e-18
9845.94396 3.00014e-18
9847.60155 3.30736e-18
9849.25914 3.16604e-18
9850.91673 3.02471e-18
9852.58436 2.88139e-18
9854.24195 2.73808e-18
9855.89954 2.61110e-18
9857.56718 2.48419e-18
9859.22477 2.46321e-18
9860.88236 2.44224e-18
9862.53995 2.43604e-18
9864.20758 2.43005e-18
9865.86517 2.90673e-18
9867.52276 3.38314e-18
9869.18035 3.26024e-18
9870.84799 3.13746e-18
9872.50558 3.24941e-18
9874.16317 3.36145e-18
9875.83081 3.66704e-18
9877.48840 3.97223e-18
9879.14599 3.45354e-18
9880.80358 2.93486e-18
9882.47121 2.43697e-18
9884.12880 1.93952e-18
9885.78639 2.34258e-18
9887.44398 2.74556e-18
9889.11162 2.96030e-18
9890.76921 3.17496e-18
9892.42680 3.24041e-18
9894.09443 3.30588e-18
9895.75202 3.40548e-18
9897.40961 3.50506e-18
9899.06720 3.55814e-18
9900.73484 3.61090e-18
9902.39243 2.98267e-18
9904.05002 2.35471e-18
9905.70761 2.29398e-18
9907.37525 2.23323e-18
9909.03284 2.13817e-18
9910.69043 2.04315e-18
9912.35806 2.06774e-18
9914.01565 2.09249e-18
9915.67324 2.44512e-18
9917.33083 2.79752e-18
9918.99847 2.67560e-18
9920.65606 2.55376e-18
9922.31365 2.60888e-18
9923.98128 2.66401e-18
9925.63887 2.73413e-18
9927.29646 2.80428e-18
9928.95405 2.93758e-18
9930.62169 3.07055e-18
9932.27928 2.45666e-18
9933.93687 1.84298e-18
9935.59446 1.67040e-18
9937.26210 1.49819e-18
9938.91969 2.07749e-18
9940.57728 2.65661e-18
9942.23487 2.89396e-18
9943.90250 3.13120e-18
9945.56009 3.13291e-18
9947.21768 3.13441e-18
9948.88532 2.70108e-18
9950.54291 2.26820e-18
9952.20050 2.76808e-18
9953.85809 3.26771e-18
9955.52572 3.25999e-18
9957.18331 3.25211e-18
9958.84090 2.90257e-18
9960.50854 2.55313e-18
9962.16613 2.40073e-18
9963.82372 2.24837e-18
9965.48131 2.16118e-18
9967.14895 2.07394e-18
9968.80654 1.86354e-18
9970.46413 1.65320e-18
9972.12172 1.55270e-18
9973.78935 1.45225e-18
9975.44694 1.46579e-18
9977.10453 1.47952e-18
9978.77217 1.89233e-18
9980.42976 2.30493e-18
9982.08735 2.28376e-18
9983.74494 2.26268e-18
9985.41257 2.41849e-18
9987.07016 2.57434e-18
9988.72775 2.81765e-18
9990.39539 3.06080e-18
9992.05298 2.98008e-18
9993.71057 2.89924e-18
9995.36816 2.60961e-18
9997.03580 2.31988e-18
9998.69339 1.79464e-18
