# wavelength flux
3449.89487 5.73721e-18
3451.04682 6.10059e-18
3452.18876 6.46390e-18
3453.34072 6.56546e-18
3454.48265 6.66701e-18
3455.63461 6.50880e-18
3456.77655 6.35062e-18
3457.92850 6.36592e-18
3459.07044 6.38121e-18
3460.21238 6.34906e-18
3461.36433 6.31692e-18
3462.50627 6.22985e-18
3463.65823 6.14279e-18
3464.80016 5.82566e-18
3465.95212 5.50861e-18
3467.09406 5.24287e-18
3468.24601 4.97719e-18
3469.38795 5.06218e-18
3470.53991 5.14715e-18
3471.68184 4.87622e-18
3472.83380 4.60536e-18
3473.97574 5.45262e-18
3475.12769 6.29972e-18
3476.26963 6.54136e-18
3477.42158 6.78294e-18
3478.56352 6.06618e-18
3479.71548 5.34958e-18
3480.85741 5.53008e-18
3481.99935 5.71054e-18
3483.15131 6.08101e-18
3484.29325 6.45139e-18
3485.44520 5.49528e-18
3486.58714 4.53938e-18
3487.73909 4.30926e-18
3488.88103 4.07918e-18
3490.03299 4.64650e-18
3491.17493 5.21370e-18
3492.32688 5.02591e-18
3493.46882 4.83817e-18
3494.62077 5.08917e-18
3495.76271 5.34011e-18
3496.91467 5.82352e-18
3498.05660 6.30683e-18
3499.20856 6.12100e-18
3500.35050 5.93520e-18
3501.50245 5.88756e-18
3502.64439 5.83993e-18
3503.78633 6.02362e-18
3504.93828 6.20728e-18
3506.08022 6.18276e-18
3507.23218 6.15825e-18
3508.37411 6.24909e-18
3509.52607 6.33991e-18
3510.66801 6.12600e-18
3511.81996 5.91213e-18
3512.96190 5.14683e-18
3514.11386 4.38168e-18
3515.25579 4.22073e-18
3516.40775 4.05980e-18
3517.54969 4.17624e-18
3518.70164 4.29265e-18
3519.84358 4.51076e-18
3520.99553 4.72882e-18
3522.13747 4.82360e-18
3523.28943 4.91836e-18
3524.43136 5.37903e-18
3525.57330 5.83960e-18
3526.72526 5.93634e-18
3527.86720 6.03306e-18
3529.01915 5.97067e-18
3530.16109 5.90831e-18
3531.31304 6.11759e-18
3532.45498 6.32683e-18
3533.60694 6.37619e-18
3534.74888 6.42554e-18
3535.90083 6.03374e-18
3537.04277 5.64203e-18
3538.19472 5.69594e-18
3539.33666 5.74985e-18
3540.48862 5.97036e-18
3541.63055 6.19083e-18
3542.78251 6.34360e-18
3543.92445 6.49634e-18
3545.07640 6.25122e-18
3546.21834 6.00615e-18
3547.36028 5.72418e-18
3548.51223 5.44227e-18
3549.65417 5.01794e-18
3550.80613 4.59371e-18
3551.94806 4.88010e-18
3553.10002 5.16644e-18
3554.24196 5.18570e-18
3555.39391 5.20495e-18
3556.53585 5.08255e-18
3557.68781 4.96018e-18
3558.82974 4.98289e-18
3559.98170 5.00559e-18
3561.12364 4.66232e-18
3562.27559 4.31914e-18
3563.41753 4.36625e-18
3564.56948 4.41336e-18
3565.71142 4.46258e-18
3566.86338 4.51180e-18
3568.00531 4.76183e-18
3569.15727 5.01181e-18
3570.29921 4.89060e-18
3571.44115 4.76942e-18
3572.59310 4.61291e-18
3573.73504 4.45645e-18
3574.88699 4.61356e-18
3576.02893 4.77064e-18
3577.18089 4.45844e-18
3578.32283 4.14632e-18
3579.47478 4.38937e-18
3580.61672 4.63237e-18
3581.76867 5.13895e-18
3582.91061 5.64542e-18
3584.06257 5.62382e-18
3585.20450 5.60224e-18
3586.35646 5.70032e-18
3587.49840 5.79838e-18
3588.65035 5.84542e-18
3589.79229 5.89245e-18
3590.94425 5.80264e-18
3592.08618 5.71283e-18
3593.23814 5.23222e-18
3594.38008 4.75170e-18
3595.52201 4.77641e-18
3596.67397 4.80111e-18
3597.81591 5.03830e-18
3598.96786 5.27544e-18
3600.10980 5.39478e-18
3601.26175 5.51408e-18
3602.40369 5.02989e-18
3603.55565 4.54579e-18
3604.69759 4.55633e-18
3605.84954 4.56686e-18
3606.99148 4.56689e-18
3608.14343 4.56693e-18
3609.28537 4.77274e-18
3610.43733 4.97851e-18
3611.57926 5.13917e-18
3612.73122 5.29979e-18
3613.87316 5.33666e-18
3615.02511 5.37352e-18
3616.16705 5.43203e-18
3617.30899 5.49052e-18
3618.46094 5.30636e-18
3619.60288 5.12222e-18
3620.75484 4.80553e-18
3621.89678 4.48892e-18
3623.04873 4.72635e-18
3624.19067 4.96372e-18
3625.34262 4.92474e-18
3626.48456 4.88577e-18
3627.63652 4.96532e-18
3628.77845 5.04486e-18
3629.93041 5.36981e-18
3631.07235 5.69470e-18
3632.22430 5.61749e-18
3633.36624 5.54030e-18
3634.51820 5.92238e-18
3635.66013 6.30437e-18
3636.81209 5.99543e-18
3637.95403 5.68656e-18
3639.09596 5.90635e-18
3640.24792 6.12610e-18
3641.38986 6.25719e-18
3642.54181 6.38827e-18
3643.68375 6.55101e-18
3644.83571 6.71373e-18
3645.97764 7.03773e-18
3647.12960 7.36165e-18
3648.27154 7.23190e-18
3649.42349 7.10218e-18
3650.56543 6.82532e-18
3651.71738 6.54851e-18
3652.85932 6.46887e-18
3654.01128 6.38925e-18
3655.15321 6.40599e-18
3656.30517 6.42275e-18
3657.44711 7.03316e-18
3658.59906 7.64345e-18
3659.74100 7.61926e-18
3660.88294 7.59508e-18
3662.03489 7.67399e-18
3663.17683 7.75286e-18
3664.32879 7.50941e-18
3665.47073 7.26601e-18
3666.62268 7.17955e-18
3667.76462 7.09310e-18
3668.91657 6.97345e-18
3670.05851 6.85382e-18
3671.21047 6.98766e-18
3672.35240 7.12148e-18
3673.50436 7.29781e-18
3674.64630 7.47411e-18
3675.79825 7.72995e-18
3676.94019 7.98574e-18
3678.09215 7.87573e-18
3679.23408 7.76574e-18
3680.38604 7.86555e-18
3681.52798 7.96533e-18
3682.66991 8.00005e-18
3683.82187 8.03476e-18
3684.96381 7.96760e-18
3686.11576 7.90046e-18
3687.25770 7.92339e-18
3688.40966 7.94632e-18
3689.55159 8.12340e-18
3690.70355 8.30048e-18
3691.84549 8.94400e-18
3692.99744 9.58738e-18
3694.13938 9.46298e-18
3695.29133 9.33860e-18
3696.43327 9.13181e-18
3697.58523 8.92508e-18
3698.72716 9.17276e-18
3699.87912 9.42038e-18
3701.02106 9.38486e-18
3702.17301 9.34934e-18
3703.31495 9.07135e-18
3704.46691 8.79342e-18
3705.60884 8.68289e-18
3706.75078 8.57238e-18
3707.90274 8.65506e-18
3709.04468 8.73772e-18
3710.19663 8.68545e-18
3711.33857 8.63318e-18
3712.49052 8.48072e-18
3713.63246 8.32828e-18
3714.78442 8.21253e-18
3715.92635 8.09679e-18
3717.07831 7.98107e-18
3718.22025 7.86185e-18
3719.37220 7.74264e-18
3720.51414 7.62348e-18
3721.66610 7.50432e-18
3722.80803 7.38517e-18
3723.95999 7.26604e-18
3725.10193 7.14693e-18
3726.25388 7.02783e-18
3727.39582 6.90876e-18
3728.53776 6.78970e-18
3729.68971 6.67069e-18
3730.83165 6.55169e-18
3731.98361 6.43269e-18
3733.12554 6.31371e-18
3734.27750 6.19474e-18
3735.41944 6.07579e-18
3736.57139 5.95686e-18
3737.71333 5.83795e-18
3738.86528 5.71905e-18
3740.00722 5.60017e-18
3741.15918 5.48134e-18
3742.30111 5.36250e-18
3743.45307 5.24367e-18
3744.59501 5.12486e-18
3745.74696 5.00607e-18
3746.88890 4.88730e-18
3748.04086 4.76854e-18
3749.18279 4.64981e-18
3750.32473 4.53111e-18
3751.47669 4.41241e-18
3752.61863 4.29372e-18
3753.77058 4.17505e-18
3754.91252 4.01635e-18
3756.06447 4.04473e-18
3757.20641 4.07313e-18
3758.35837 4.61645e-18
3759.50030 5.15967e-18
3760.65226 5.29394e-18
3761.79420 5.42818e-18
3762.94615 5.28154e-18
3764.08809 5.13495e-18
3765.24005 5.24161e-18
3766.38198 5.34826e-18
3767.53394 5.31250e-18
3768.67588 5.27673e-18
3769.82783 5.15067e-18
3770.96977 5.02463e-18
3772.11171 5.02293e-18
3773.26366 5.02123e-18
3774.40560 5.11668e-18
3775.55756 5.21212e-18
3776.69949 5.14828e-18
3777.85145 5.08446e-18
3778.99339 5.28027e-18
3780.14534 5.47603e-18
3781.28728 5.42609e-18
3782.43923 5.37615e-18
3783.58117 5.17196e-18
3784.73313 4.96783e-18
3785.87506 5.08860e-18
3787.02702 5.20935e-18
3788.16896 5.29287e-18
3789.32091 5.37638e-18
3790.46285 5.63760e-18
3791.61481 5.89875e-18
3792.75674 5.73172e-18
3793.89868 5.56471e-18
3795.05064 5.47390e-18
3796.19258 5.38311e-18
3797.34453 5.39443e-18
3798.48647 5.40577e-18
3799.63842 5.66054e-18
3800.78036 5.91525e-18
3801.93232 5.69082e-18
3803.07425 5.46644e-18
3804.22621 5.45464e-18
3805.36815 5.44284e-18
3806.52010 5.65238e-18
3807.66204 5.86187e-18
3808.81399 5.71324e-18
3809.95593 5.56464e-18
3811.10789 5.46462e-18
3812.24983 5.36464e-18
3813.40178 5.69369e-18
3814.54372 6.02267e-18
3815.69567 5.82355e-18
3816.83761 5.62448e-18
3817.97955 5.69774e-18
3819.13151 5.77097e-18
3820.27344 5.66389e-18
3821.42540 5.55683e-18
3822.56734 5.62507e-18
3823.71929 5.69330e-18
3824.86123 5.66014e-18
3826.01318 5.62698e-18
3827.15512 5.61849e-18
3828.30708 5.61000e-18
3829.44902 5.58038e-18
3830.60097 5.55077e-18
3831.74291 5.57785e-18
3832.89486 5.60494e-18
3834.03680 5.77905e-18
3835.18876 5.95314e-18
3836.33069 6.03794e-18
3837.48265 6.12272e-18
3838.62459 6.07073e-18
3839.76653 6.01877e-18
3840.91848 6.19941e-18
3842.06042 6.38004e-18
3843.21237 6.77124e-18
3844.35431 7.16235e-18
3845.50627 7.11610e-18
3846.64820 7.06986e-18
3847.80016 7.01592e-18
3848.94210 6.96202e-18
3850.09405 7.30754e-18
3851.23599 7.65302e-18
3852.38794 8.04470e-18
3853.52988 8.43632e-18
3854.68184 8.52146e-18
3855.82378 8.60658e-18
3856.97573 8.48126e-18
3858.11767 8.35599e-18
3859.26962 8.63205e-18
3860.41156 8.90809e-18
3861.55350 9.15453e-18
3862.70546 9.40094e-18
3863.84739 9.65577e-18
3864.99935 9.91055e-18
3866.14129 9.93512e-18
3867.29324 9.95969e-18
3868.43518 1.01055e-17
3869.58713 1.02512e-17
3870.72907 1.03176e-17
3871.88103 1.03841e-17
3873.02297 1.06012e-17
3874.17492 1.08184e-17
3875.31686 1.11709e-17
3876.46881 1.15233e-17
3877.61075 1.14043e-17
3878.76271 1.12854e-17
3879.90464 1.14609e-17
3881.05660 1.16364e-17
3882.19854 1.19024e-17
3883.35049 1.21684e-17
3884.49243 1.23279e-17
3885.63437 1.24875e-17
3886.78632 1.26937e-17
3887.92826 1.28999e-17
3889.08022 1.31381e-17
3890.22215 1.33763e-17
3891.37411 1.32483e-17
3892.51605 1.31204e-17
3893.66800 1.34338e-17
3894.80994 1.37473e-17
3895.96189 1.40555e-17
3897.10383 1.43636e-17
3898.25579 1.46121e-17
3899.39773 1.48606e-17
3900.54968 1.51592e-17
3901.69162 1.54577e-17
3902.84357 1.55364e-17
3903.98551 1.56151e-17
3905.13747 1.56313e-17
3906.27941 1.56476e-17
3907.42134 1.60680e-17
3908.57330 1.64883e-17
3909.71524 1.63709e-17
3910.86719 1.62535e-17
3912.00913 1.62438e-17
3913.16108 1.62341e-17
3914.30302 1.61731e-17
3915.45498 1.61122e-17
3916.59692 1.63330e-17
3917.74887 1.65537e-17
3918.89081 1.64922e-17
3920.04276 1.64307e-17
3921.18470 1.64326e-17
3922.33666 1.64345e-17
3923.47859 1.65013e-17
3924.63055 1.65681e-17
3925.77249 1.62069e-17
3926.92444 1.58458e-17
3928.06638 1.56687e-17
3929.20832 1.54917e-17
3930.36027 1.58167e-17
3931.50221 1.61416e-17
3932.65417 1.61540e-17
3933.79610 1.61664e-17
3934.94806 1.60090e-17
3936.09000 1.58516e-17
3937.24195 1.60762e-17
3938.38389 1.63008e-17
3939.53584 1.67545e-17
3940.67778 1.72082e-17
3941.82974 1.72382e-17
3942.97168 1.72682e-17
3944.12363 1.72299e-17
3945.26557 1.71918e-17
3946.41752 1.75535e-17
3947.55946 1.79152e-17
3948.71142 1.80238e-17
3949.85336 1.81324e-17
3950.99529 1.78687e-17
3952.14725 1.76051e-17
3953.28919 1.78814e-17
3954.44114 1.81577e-17
3955.58308 1.82211e-17
3956.73503 1.82845e-17
3957.87697 1.81912e-17
3959.02893 1.80980e-17
3960.17087 1.81385e-17
3961.32282 1.81790e-17
3962.46476 1.82214e-17
3963.61671 1.82637e-17
3964.75865 1.82248e-17
3965.91061 1.81859e-17
3967.05254 1.82367e-17
3968.20450 1.82875e-17
3969.34644 1.85527e-17
3970.49839 1.88179e-17
3971.64033 1.89809e-17
3972.79229 1.91439e-17
3973.93422 1.92745e-17
3975.07616 1.94051e-17
3976.22812 1.97316e-17
3977.37005 2.00580e-17
3978.52201 2.00678e-17
3979.66395 2.00777e-17
3980.81590 2.01010e-17
3981.95784 2.01244e-17
3983.10979 2.05541e-17
3984.25173 2.09837e-17
3985.40369 2.07793e-17
3986.54563 2.05750e-17
3987.69758 2.05510e-17
3988.83952 2.05269e-17
3989.99147 2.03397e-17
3991.13341 2.01524e-17
3992.28537 1.97937e-17
3993.42731 1.94351e-17
3994.57926 2.00562e-17
3995.72120 2.06771e-17
3996.86314 2.06952e-17
3998.01509 2.07132e-17
3999.15703 2.06052e-17
4000.30898 2.04972e-17
4001.45092 2.08268e-17
4002.60288 2.11562e-17
4003.74482 2.10582e-17
4004.89677 2.09601e-17
4006.03871 2.07977e-17
4007.19066 2.06353e-17
4008.33260 2.06462e-17
4009.48456 2.06571e-17
4010.62649 2.06112e-17
4011.77845 2.05654e-17
4012.92039 2.05435e-17
4014.07234 2.05216e-17
4015.21428 2.07688e-17
4016.36624 2.10160e-17
4017.50817 2.09185e-17
4018.65011 2.08211e-17
4019.80207 2.05673e-17
4020.94400 2.03136e-17
4022.09596 2.02727e-17
4023.23790 2.02319e-17
4024.38985 2.01591e-17
4025.53179 2.00864e-17
4026.68375 1.99796e-17
4027.82568 1.98729e-17
4028.97764 1.97690e-17
4030.11958 1.96650e-17
4031.27153 1.94348e-17
4032.41347 1.92046e-17
4033.56542 1.87487e-17
4034.70736 1.82929e-17
4035.85932 1.82647e-17
4037.00126 1.82365e-17
4038.15321 1.83218e-17
4039.29515 1.84070e-17
4040.43709 1.81547e-17
4041.58904 1.79024e-17
4042.73098 1.76157e-17
4043.88293 1.73289e-17
4045.02487 1.70418e-17
4046.17683 1.67547e-17
4047.31876 1.67836e-17
4048.47072 1.68125e-17
4049.61266 1.69821e-17
4050.76461 1.71517e-17
4051.90655 1.68063e-17
4053.05851 1.64610e-17
4054.20044 1.57870e-17
4055.35240 1.51133e-17
4056.49434 1.52077e-17
4057.64629 1.53020e-17
4058.78823 1.53088e-17
4059.94019 1.53156e-17
4061.08212 1.49681e-17
4062.22406 1.46207e-17
4063.37602 1.43207e-17
4064.51795 1.40209e-17
4065.66991 1.42197e-17
4066.81185 1.44186e-17
4067.96380 1.43315e-17
4069.10574 1.42444e-17
4070.25770 1.42587e-17
4071.39963 1.42730e-17
4072.55159 1.41090e-17
4073.69353 1.39449e-17
4074.84548 1.37880e-17
4075.98742 1.36312e-17
4077.13937 1.35962e-17
4078.28131 1.35612e-17
4079.43327 1.37514e-17
4080.57521 1.39415e-17
4081.72716 1.39825e-17
4082.86910 1.40236e-17
4084.02105 1.38590e-17
4085.16299 1.36944e-17
4086.30493 1.36888e-17
4087.45688 1.36832e-17
4088.59882 1.34446e-17
4089.75078 1.32061e-17
4090.89271 1.29149e-17
4092.04467 1.26238e-17
4093.18661 1.25852e-17
4094.33856 1.25465e-17
4095.48050 1.25449e-17
4096.63246 1.25433e-17
4097.77439 1.25679e-17
4098.92635 1.25924e-17
4100.06829 1.25221e-17
4101.22024 1.24519e-17
4102.36218 1.24273e-17
4103.51414 1.24028e-17
4104.65607 1.23742e-17
4105.80803 1.23456e-17
4106.94997 1.21411e-17
4108.09190 1.19368e-17
4109.24386 1.18760e-17
4110.38580 1.18153e-17
4111.53775 1.18241e-17
4112.67969 1.18328e-17
4113.83165 1.16347e-17
4114.97358 1.14367e-17
4116.12554 1.18645e-17
4117.26748 1.22922e-17
4118.41943 1.20592e-17
4119.56137 1.18262e-17
4120.71332 1.14440e-17
4121.85526 1.10619e-17
4123.00722 1.12188e-17
4124.14916 1.13756e-17
4125.30111 1.14759e-17
4126.44305 1.15762e-17
4127.59500 1.15340e-17
4128.73694 1.14917e-17
4129.88890 1.13632e-17
4131.03083 1.12346e-17
4132.17277 1.10954e-17
4133.32473 1.09562e-17
4134.46666 1.11168e-17
4135.61862 1.12773e-17
4136.76056 1.13031e-17
4137.91251 1.13288e-17
4139.05445 1.11337e-17
4140.20641 1.09387e-17
4141.34834 1.08394e-17
4142.50030 1.07402e-17
4143.64224 1.09497e-17
4144.79419 1.11593e-17
4145.93613 1.12400e-17
4147.08809 1.13207e-17
4148.23002 1.11947e-17
4149.38198 1.10687e-17
4150.52392 1.09353e-17
4151.66585 1.08019e-17
4152.81781 1.08071e-17
4153.95975 1.08124e-17
4155.11170 1.06778e-17
4156.25364 1.05432e-17
4157.40560 1.05962e-17
4158.54753 1.06492e-17
4159.69949 1.04113e-17
4160.84143 1.01735e-17
4161.99338 1.03002e-17
4163.13532 1.04269e-17
4164.28727 1.02853e-17
4165.42921 1.01437e-17
4166.58117 9.99048e-18
4167.72311 9.83733e-18
4168.87506 9.94503e-18
4170.01700 1.00527e-17
4171.16895 9.92006e-18
4172.31089 9.78747e-18
4173.46285 9.72022e-18
4174.60478 9.65301e-18
4175.75674 9.74673e-18
4176.89868 9.84041e-18
4178.04061 9.67609e-18
4179.19257 9.51180e-18
4180.33451 9.40604e-18
4181.48646 9.30036e-18
4182.62840 9.59836e-18
4183.78036 9.89626e-18
4184.92229 9.72690e-18
4186.07425 9.55760e-18
4187.21619 9.75066e-18
4188.36814 9.94370e-18
4189.51008 1.01686e-17
4190.66204 1.03933e-17
4191.80397 1.01716e-17
4192.95593 9.94997e-18
4194.09787 1.00185e-17
4195.24982 1.00871e-17
4196.39176 1.00819e-17
4197.53370 1.00767e-17
4198.68565 9.93145e-18
4199.82759 9.78631e-18
4200.97955 1.00934e-17
4202.12148 1.04005e-17
4203.27344 1.06248e-17
4204.41538 1.08489e-17
4205.56733 1.09624e-17
4206.70927 1.10758e-17
4207.86122 1.10372e-17
4209.00316 1.09986e-17
4210.15512 1.09314e-17
4211.29706 1.08641e-17
4212.44901 1.08929e-17
4213.59095 1.09217e-17
4214.74290 1.10914e-17
4215.88484 1.12610e-17
4217.03680 1.13860e-17
4218.17873 1.15109e-17
4219.32067 1.16408e-17
4220.47263 1.17707e-17
4221.61456 1.15868e-17
4222.76652 1.14029e-17
4223.90846 1.13431e-17
4225.06041 1.12834e-17
4226.20235 1.15689e-17
4227.35431 1.18544e-17
4228.49624 1.19130e-17
4229.64820 1.19714e-17
4230.79014 1.16745e-17
4231.94209 1.13776e-17
4233.08403 1.15212e-17
4234.23599 1.16649e-17
4235.37792 1.16233e-17
4236.52988 1.15817e-17
4237.67182 1.16222e-17
4238.82377 1.16626e-17
4239.96571 1.16008e-17
4241.11766 1.15390e-17
4242.25960 1.13395e-17
4243.40154 1.11400e-17
4244.55350 1.13970e-17
4245.69543 1.16539e-17
4246.84739 1.15707e-17
4247.98933 1.14875e-17
4249.14128 1.11127e-17
4250.28322 1.07380e-17
4251.43517 1.09259e-17
4252.57711 1.11138e-17
4253.72907 1.14995e-17
4254.87100 1.18850e-17
4256.02296 1.19781e-17
4257.16490 1.20712e-17
4258.31685 1.17831e-17
4259.45879 1.14952e-17
4260.61075 1.12711e-17
4261.75268 1.10472e-17
4262.90464 1.10016e-17
4264.04658 1.09561e-17
4265.18851 1.10467e-17
4266.34047 1.11373e-17
4267.48241 1.12148e-17
4268.63436 1.12922e-17
4269.77630 1.13643e-17
4270.92826 1.14363e-17
4272.07019 1.13819e-17
4273.22215 1.13274e-17
4274.36409 1.10974e-17
4275.51604 1.08673e-17
4276.65798 1.08026e-17
4277.80994 1.07379e-17
4278.95187 1.06640e-17
4280.10383 1.05901e-17
4281.24577 1.08545e-17
4282.39772 1.11190e-17
4283.53966 1.13691e-17
4284.69161 1.16192e-17
4285.83355 1.14255e-17
4286.97549 1.12317e-17
4288.12745 1.08239e-17
4289.26938 1.04163e-17
4290.42134 1.05415e-17
4291.56328 1.06666e-17
4292.71523 1.08824e-17
4293.85717 1.10980e-17
4295.00912 1.10321e-17
4296.15106 1.09661e-17
4297.30302 1.10322e-17
4298.44495 1.10983e-17
4299.59691 1.11329e-17
4300.73885 1.11676e-17
4301.89080 1.10801e-17
4303.03274 1.09928e-17
4304.18470 1.09632e-17
4305.32663 1.09337e-17
4306.47859 1.10477e-17
4307.62053 1.11616e-17
4308.77248 1.13441e-17
4309.91442 1.15265e-17
4311.05636 1.16733e-17
4312.20831 1.18201e-17
4313.35025 1.19866e-17
4314.50221 1.21531e-17
4315.64414 1.19863e-17
4316.79610 1.18194e-17
4317.93804 1.14767e-17
4319.08999 1.11341e-17
4320.23193 1.13015e-17
4321.38389 1.14690e-17
4322.52582 1.17069e-17
4323.67778 1.19447e-17
4324.81972 1.18806e-17
4325.97167 1.18166e-17
4327.11361 1.17508e-17
4328.26556 1.16852e-17
4329.40750 1.18856e-17
4330.55946 1.20859e-17
4331.70140 1.19963e-17
4332.84333 1.19066e-17
4333.99529 1.16213e-17
4335.13723 1.13361e-17
4336.28918 1.15567e-17
4337.43112 1.17773e-17
4338.58307 1.15684e-17
4339.72501 1.13596e-17
4340.87697 1.15258e-17
4342.01890 1.16920e-17
4343.17086 1.20957e-17
4344.31280 1.24994e-17
4345.46475 1.27431e-17
4346.60669 1.29867e-17
4347.75865 1.26577e-17
4348.90058 1.23287e-17
4350.05254 1.21255e-17
4351.19448 1.19225e-17
4352.34643 1.20358e-17
4353.48837 1.19768e-17
4354.63031 1.19179e-17
4355.78226 1.18590e-17
4356.92420 1.18001e-17
4358.07616 1.17412e-17
4359.21809 1.16824e-17
4360.37005 1.16235e-17
4361.51199 1.15646e-17
4362.66394 1.15058e-17
4363.80588 1.14469e-17
4364.95784 1.13880e-17
4366.09977 1.13292e-17
4367.25173 1.12703e-17
4368.39367 1.12115e-17
4369.54562 1.11527e-17
4370.68756 1.10939e-17
4371.83951 1.10350e-17
4372.98145 1.09762e-17
4374.13341 1.09174e-17
4375.27535 1.08586e-17
4376.42730 1.07998e-17
4377.56924 1.07410e-17
4378.71118 1.06823e-17
4379.86313 1.06235e-17
4381.00507 1.05647e-17
4382.15702 1.05060e-17
4383.29896 1.04472e-17
4384.45092 1.03885e-17
4385.59285 1.03297e-17
4386.74481 1.02710e-17
4387.88675 1.02123e-17
4389.03870 1.01535e-17
4390.18064 1.02421e-17
4391.33260 1.01298e-17
4392.47453 1.00175e-17
4393.62649 9.74808e-18
4394.76843 9.47876e-18
4395.92038 9.72210e-18
4397.06232 9.96536e-18
4398.21428 9.92804e-18
4399.35621 9.89069e-18
4400.49815 9.63406e-18
4401.65011 9.37753e-18
4402.79204 9.51036e-18
4403.94400 9.64315e-18
4405.08594 9.60254e-18
4406.23789 9.56197e-18
4407.37983 9.66101e-18
4408.53179 9.75997e-18
4409.67372 9.48099e-18
4410.82568 9.20208e-18
4411.96762 9.14151e-18
4413.11957 9.08097e-18
4414.26151 9.10232e-18
4415.41346 9.12372e-18
4416.55540 9.42275e-18
4417.70736 9.72170e-18
4418.84930 9.81460e-18
4420.00125 9.90748e-18
4421.14319 9.90694e-18
4422.28513 9.90636e-18
4423.43708 9.75127e-18
4424.57902 9.59616e-18
4425.73097 9.25996e-18
4426.87291 8.92389e-18
4428.02487 9.06122e-18
4429.16680 9.19852e-18
4430.31876 9.29436e-18
4431.46070 9.39018e-18
4432.61265 9.51712e-18
4433.75459 9.64402e-18
4434.90655 9.69451e-18
4436.04848 9.74495e-18
4437.20044 9.62444e-18
4438.34238 9.50398e-18
4439.49433 9.57958e-18
4440.63627 9.65516e-18
4441.78823 9.73716e-18
4442.93016 9.81908e-18
4444.07210 9.50063e-18
4445.22406 9.18231e-18
4446.36599 9.30332e-18
4447.51795 9.42440e-18
4448.65989 9.95231e-18
4449.81184 1.04800e-17
4450.95378 1.02657e-17
4452.10574 1.00513e-17
4453.24767 9.96286e-18
4454.39963 9.87446e-18
4455.54157 1.00939e-17
4456.69352 1.03132e-17
4457.83546 1.05000e-17
4458.98741 1.06868e-17
4460.12935 1.07646e-17
4461.28131 1.08425e-17
4462.42325 1.07482e-17
4463.57520 1.06541e-17
4464.71714 1.07691e-17
4465.85908 1.08841e-17
4467.01103 1.11843e-17
4468.15297 1.14844e-17
4469.30492 1.12282e-17
4470.44686 1.09722e-17
4471.59882 1.11810e-17
4472.74075 1.13896e-17
4473.89271 1.15323e-17
4475.03465 1.16750e-17
4476.18660 1.19876e-17
4477.32854 1.23001e-17
4478.48050 1.24983e-17
4479.62243 1.26964e-17
4480.77439 1.27112e-17
4481.91633 1.27260e-17
4483.06828 1.28774e-17
4484.21022 1.30289e-17
4485.36218 1.30964e-17
4486.50411 1.31640e-17
4487.64605 1.33269e-17
4488.79801 1.34897e-17
4489.93994 1.35325e-17
4491.09190 1.35753e-17
4492.23384 1.36652e-17
4493.38579 1.37550e-17
4494.52773 1.37130e-17
4495.67969 1.36710e-17
4496.82162 1.39037e-17
4497.97358 1.41364e-17
4499.11552 1.42756e-17
4500.26747 1.44147e-17
4501.40941 1.46119e-17
4502.56136 1.48091e-17
4503.70330 1.47560e-17
4504.85526 1.47030e-17
4505.99720 1.45026e-17
4507.14915 1.43023e-17
4508.29109 1.44710e-17
4509.43303 1.46396e-17
4510.58498 1.47430e-17
4511.72692 1.48464e-17
4512.87887 1.51907e-17
4514.02081 1.55349e-17
4515.17277 1.54120e-17
4516.31470 1.52892e-17
4517.46666 1.51790e-17
4518.60860 1.50688e-17
4519.76055 1.51388e-17
4520.90249 1.52087e-17
4522.05445 1.52931e-17
4523.19638 1.53775e-17
4524.34834 1.55491e-17
4525.49028 1.57205e-17
4526.64223 1.58225e-17
4527.78417 1.59244e-17
4528.93613 1.60272e-17
4530.07806 1.61300e-17
4531.23002 1.62135e-17
4532.37196 1.62970e-17
4533.51389 1.63152e-17
4534.66585 1.63335e-17
4535.80779 1.64664e-17
4536.95974 1.65993e-17
4538.10168 1.69393e-17
4539.25364 1.72792e-17
4540.39557 1.75039e-17
4541.54753 1.77285e-17
4542.68947 1.77971e-17
4543.84142 1.78657e-17
4544.98336 1.79211e-17
4546.13531 1.79765e-17
4547.27725 1.79230e-17
4548.42921 1.78696e-17
4549.57115 1.79299e-17
4550.72310 1.79902e-17
4551.86504 1.81772e-17
4553.01699 1.83641e-17
4554.15893 1.85670e-17
4555.30087 1.87697e-17
4556.45282 1.87872e-17
4557.59476 1.88047e-17
4558.74672 1.86365e-17
4559.88865 1.84683e-17
4561.04061 1.86953e-17
4562.18255 1.89223e-17
4563.33450 1.90873e-17
4564.47644 1.92523e-17
4565.62840 1.93343e-17
4566.77033 1.94165e-17
4567.92229 1.97919e-17
4569.06423 2.01672e-17
4570.21618 2.02372e-17
4571.35812 2.03070e-17
4572.51008 2.00051e-17
4573.65201 1.97033e-17
4574.80397 1.97217e-17
4575.94591 1.97403e-17
4577.08784 2.00539e-17
4578.23980 2.03674e-17
4579.38174 2.04940e-17
4580.53369 2.06206e-17
4581.67563 2.09450e-17
4582.82758 2.12693e-17
4583.96952 2.14945e-17
4585.12148 2.17195e-17
4586.26342 2.14960e-17
4587.41537 2.12726e-17
4588.55731 2.12578e-17
4589.70926 2.12430e-17
4590.85120 2.12852e-17
4592.00316 2.13275e-17
4593.14510 2.11431e-17
4594.29705 2.09588e-17
4595.43899 2.08481e-17
4596.59094 2.07375e-17
4597.73288 2.10701e-17
4598.88484 2.14027e-17
4600.02677 2.14198e-17
4601.16871 2.14369e-17
4602.32067 2.14113e-17
4603.46260 2.13856e-17
4604.61456 2.11745e-17
4605.75650 2.09634e-17
4606.90845 2.09308e-17
4608.05039 2.08983e-17
4609.20235 2.10459e-17
4610.34428 2.11935e-17
4611.49624 2.10066e-17
4612.63818 2.08198e-17
4613.79013 2.07718e-17
4614.93207 2.07239e-17
4616.08403 2.07858e-17
4617.22596 2.08476e-17
4618.37792 2.08799e-17
4619.51986 2.09123e-17
4620.67181 2.10041e-17
4621.81375 2.10959e-17
4622.95569 2.08928e-17
4624.10764 2.06897e-17
4625.24958 2.05552e-17
4626.40153 2.04208e-17
4627.54347 2.04668e-17
4628.69543 2.05127e-17
4629.83737 2.06644e-17
4630.98932 2.08160e-17
4632.13126 2.07088e-17
4633.28321 2.06015e-17
4634.42515 2.03282e-17
4635.57711 2.00550e-17
4636.71905 2.01547e-17
4637.87100 2.02542e-17
4639.01294 2.00100e-17
4640.16489 1.97658e-17
4641.30683 1.94932e-17
4642.45879 1.92207e-17
4643.60072 1.92363e-17
4644.74266 1.92520e-17
4645.89462 1.95530e-17
4647.03655 1.98539e-17
4648.18851 1.95719e-17
4649.33045 1.92901e-17
4650.48240 1.90204e-17
4651.62434 1.87509e-17
4652.77630 1.88044e-17
4653.91823 1.88579e-17
4655.07019 1.88523e-17
4656.21213 1.88467e-17
4657.36408 1.88883e-17
4658.50602 1.89298e-17
4659.65798 1.89521e-17
4660.79991 1.89742e-17
4661.95187 1.87377e-17
4663.09381 1.85013e-17
4664.24576 1.82553e-17
4665.38770 1.80095e-17
4666.53965 1.80273e-17
4667.68159 1.80450e-17
4668.82353 1.79652e-17
4669.97548 1.78854e-17
4671.11742 1.79579e-17
4672.26938 1.80303e-17
4673.41132 1.81732e-17
4674.56327 1.83160e-17
4675.70521 1.82013e-17
4676.85716 1.80866e-17
4677.99910 1.79549e-17
4679.15106 1.78232e-17
4680.29300 1.77779e-17
4681.44495 1.77326e-17
4682.58689 1.77812e-17
4683.73884 1.78298e-17
4684.88078 1.78913e-17
4686.03274 1.79527e-17
4687.17467 1.76735e-17
4688.32663 1.73944e-17
4689.46857 1.73857e-17
4690.61050 1.73770e-17
4691.76246 1.74822e-17
4692.90440 1.75874e-17
4694.05635 1.73723e-17
4695.19829 1.71574e-17
4696.35025 1.70440e-17
4697.49218 1.69306e-17
4698.64414 1.68906e-17
4699.78608 1.68506e-17
4700.93803 1.67025e-17
4702.07997 1.65544e-17
4703.23193 1.65880e-17
4704.37386 1.66217e-17
4705.52582 1.68839e-17
4706.66776 1.71460e-17
4707.81971 1.70353e-17
4708.96165 1.69245e-17
4710.11360 1.66163e-17
4711.25554 1.63083e-17
4712.39748 1.62759e-17
4713.54943 1.62436e-17
4714.69137 1.61143e-17
4715.84333 1.59850e-17
4716.98527 1.58431e-17
4718.13722 1.57012e-17
4719.27916 1.58650e-17
4720.43111 1.60288e-17
4721.57305 1.59499e-17
4722.72501 1.58710e-17
4723.86695 1.56736e-17
4725.01890 1.54763e-17
4726.16084 1.55022e-17
4727.31279 1.55281e-17
4728.45473 1.56069e-17
4729.60669 1.56857e-17
4730.74862 1.55026e-17
4731.90058 1.53195e-17
4733.04252 1.52726e-17
4734.18445 1.52257e-17
4735.33641 1.52536e-17
4736.47835 1.52814e-17
4737.63030 1.49935e-17
4738.77224 1.47057e-17
4739.92420 1.47340e-17
4741.06613 1.47622e-17
4742.21809 1.47106e-17
4743.36003 1.46591e-17
4744.51198 1.45399e-17
4745.65392 1.44208e-17
4746.80588 1.43479e-17
4747.94781 1.42751e-17
4749.09977 1.40742e-17
4750.24171 1.38733e-17
4751.39366 1.38482e-17
4752.53560 1.38231e-17
4753.68755 1.39037e-17
4754.82949 1.39843e-17
4755.97143 1.39006e-17
4757.12339 1.38170e-17
4758.26532 1.37262e-17
4759.41728 1.36354e-17
4760.55922 1.37631e-17
4761.71117 1.38906e-17
4762.85311 1.35488e-17
4764.00506 1.32070e-17
4765.14700 1.30529e-17
4766.29896 1.28989e-17
4767.44090 1.29058e-17
4768.59285 1.29126e-17
4769.73479 1.26837e-17
4770.88674 1.24549e-17
4772.02868 1.23478e-17
4773.18064 1.22408e-17
4774.32257 1.22992e-17
4775.47453 1.23575e-17
4776.61647 1.21208e-17
4777.75840 1.18842e-17
4778.91036 1.17961e-17
4780.05230 1.17080e-17
4781.20425 1.17426e-17
4782.34619 1.17772e-17
4783.49815 1.16589e-17
4784.64008 1.15407e-17
4785.79204 1.15464e-17
4786.93398 1.15521e-17
4788.08593 1.15359e-17
4789.22787 1.15198e-17
4790.37982 1.15167e-17
4791.52176 1.15137e-17
4792.67372 1.12995e-17
4793.81566 1.10855e-17
4794.96761 1.13286e-17
4796.10955 1.15716e-17
4797.26150 1.15275e-17
4798.40344 1.14834e-17
4799.55540 1.13790e-17
4800.69734 1.12747e-17
4801.83927 1.12576e-17
4802.99123 1.12405e-17
4804.13317 1.13054e-17
4805.28512 1.13703e-17
4806.42706 1.15154e-17
4807.57901 1.16604e-17
4808.72095 1.18683e-17
4809.87291 1.20760e-17
4811.01485 1.21277e-17
4812.16680 1.21795e-17
4813.30874 1.24872e-17
4814.46069 1.27949e-17
4815.60263 1.28760e-17
4816.75459 1.29569e-17
4817.89652 1.27174e-17
4819.04848 1.24779e-17
4820.19042 1.24931e-17
4821.34237 1.25085e-17
4822.48431 1.27759e-17
4823.62625 1.30432e-17
4824.77820 1.32858e-17
4825.92014 1.35283e-17
4827.07210 1.35965e-17
4828.21403 1.36647e-17
4829.36599 1.37338e-17
4830.50793 1.38028e-17
4831.65988 1.39379e-17
4832.80182 1.40729e-17
4833.95377 1.41435e-17
4835.09571 1.42140e-17
4836.24767 1.41662e-17
4837.38961 1.41185e-17
4838.54156 1.39473e-17
4839.68350 1.37762e-17
4840.83545 1.39175e-17
4841.97739 1.40588e-17
4843.12935 1.41351e-17
4844.27129 1.42114e-17
4845.41322 1.41479e-17
4846.56518 1.40845e-17
4847.70712 1.41593e-17
4848.85907 1.42341e-17
4850.00101 1.42368e-17
4851.15296 1.42395e-17
4852.29490 1.41662e-17
4853.44686 1.40929e-17
4854.58880 1.40196e-17
4855.74075 1.39464e-17
4856.88269 1.38731e-17
4858.03464 1.37998e-17
4859.17658 1.37266e-17
4860.32854 1.36533e-17
4861.47047 1.35801e-17
4862.62243 1.35069e-17
4863.76437 1.34337e-17
4864.91632 1.33605e-17
4866.05826 1.32873e-17
4867.21022 1.32141e-17
4868.35215 1.31409e-17
4869.49409 1.30678e-17
4870.64605 1.29946e-17
4871.78798 1.29215e-17
4872.93994 1.28483e-17
4874.08188 1.27752e-17
4875.23383 1.27021e-17
4876.37577 1.26290e-17
4877.52772 1.25559e-17
4878.66966 1.24829e-17
4879.82162 1.24098e-17
4880.96356 1.23367e-17
4882.11551 1.22636e-17
4883.25745 1.21906e-17
4884.40940 1.21175e-17
4885.55134 1.20445e-17
4886.70330 1.19715e-17
4887.84524 1.18985e-17
4888.99719 1.17201e-17
4890.13913 1.15418e-17
4891.28107 1.16349e-17
4892.43302 1.17279e-17
4893.57496 1.17309e-17
4894.72691 1.17339e-17
4895.86885 1.18085e-17
4897.02081 1.18830e-17
4898.16275 1.19623e-17
4899.31470 1.20415e-17
4900.45664 1.20589e-17
4901.60859 1.20763e-17
4902.75053 1.22086e-17
4903.90249 1.23410e-17
4905.04442 1.23912e-17
4906.19638 1.24414e-17
4907.33832 1.26087e-17
4908.49027 1.27761e-17
4909.63221 1.30107e-17
4910.78417 1.32453e-17
4911.92610 1.33297e-17
4913.06804 1.34142e-17
4914.22000 1.34959e-17
4915.36193 1.35778e-17
4916.51389 1.39133e-17
4917.65583 1.42488e-17
4918.80778 1.44486e-17
4919.94972 1.46483e-17
4921.10167 1.47182e-17
4922.24361 1.47880e-17
4923.39557 1.48037e-17
4924.53751 1.48193e-17
4925.68946 1.49964e-17
4926.83140 1.51734e-17
4927.98335 1.53161e-17
4929.12529 1.54589e-17
4930.27725 1.55303e-17
4931.41919 1.56018e-17
4932.57114 1.59741e-17
4933.71308 1.63462e-17
4934.86503 1.64144e-17
4936.00697 1.64825e-17
4937.14891 1.64507e-17
4938.30086 1.64189e-17
4939.44280 1.64723e-17
4940.59476 1.65256e-17
4941.73670 1.65194e-17
4942.88865 1.65132e-17
4944.03059 1.65879e-17
4945.18254 1.66625e-17
4946.32448 1.68112e-17
4947.47644 1.69598e-17
4948.61837 1.71826e-17
4949.77033 1.71319e-17
4950.91227 1.70813e-17
4952.06422 1.70306e-17
4953.20616 1.69799e-17
4954.35811 1.69292e-17
4955.50005 1.68786e-17
4956.65201 1.68279e-17
4957.79395 1.67773e-17
4958.93588 1.67266e-17
4960.08784 1.66760e-17
4961.22978 1.66254e-17
4962.38173 1.65748e-17
4963.52367 1.65241e-17
4964.67562 1.64735e-17
4965.81756 1.64229e-17
4966.96952 1.63723e-17
4968.11146 1.63217e-17
4969.26341 1.62712e-17
4970.40535 1.62206e-17
4971.55730 1.61700e-17
4972.69924 1.61194e-17
4973.85120 1.60689e-17
4974.99314 1.60183e-17
4976.14509 1.59678e-17
4977.28703 1.59173e-17
4978.42897 1.58668e-17
4979.58092 1.58162e-17
4980.72286 1.57657e-17
4981.87481 1.57152e-17
4983.01675 1.56647e-17
4984.16871 1.56142e-17
4985.31065 1.55637e-17
4986.46260 1.55132e-17
4987.60454 1.55282e-17
4988.75649 1.55431e-17
4989.89843 1.53008e-17
4991.05039 1.50585e-17
4992.19232 1.49928e-17
4993.34428 1.49271e-17
4994.48622 1.47870e-17
4995.63817 1.46470e-17
4996.78011 1.45779e-17
4997.93206 1.44552e-17
4999.07400 1.43327e-17
5000.21594 1.42101e-17
5001.36790 1.40874e-17
5002.50983 1.39649e-17
5003.66179 1.38423e-17
5004.80373 1.37198e-17
5005.95568 1.35972e-17
5007.09762 1.34747e-17
5008.24957 1.33522e-17
5009.39151 1.32297e-17
5010.54347 1.31072e-17
5011.68541 1.29848e-17
5012.83736 1.28623e-17
5013.97930 1.27399e-17
5015.13125 1.26175e-17
5016.27319 1.24951e-17
5017.42515 1.23727e-17
5018.56709 1.22504e-17
5019.71904 1.21280e-17
5020.86098 1.20057e-17
5022.01293 1.18834e-17
5023.15487 1.17611e-17
5024.29681 1.16388e-17
5025.44876 1.15165e-17
5026.59070 1.13943e-17
5027.74266 1.12720e-17
5028.88460 1.11498e-17
5030.03655 1.10276e-17
5031.17849 1.09054e-17
5032.33044 1.07832e-17
5033.47238 1.06610e-17
5034.62434 1.07138e-17
5035.76627 1.06145e-17
5036.91823 1.05151e-17
5038.06017 1.05050e-17
5039.21212 1.04949e-17
5040.35406 1.05464e-17
5041.50601 1.05980e-17
5042.64795 1.07161e-17
5043.79991 1.08341e-17
5044.94185 1.08223e-17
5046.08378 1.08106e-17
5047.23574 1.08918e-17
5048.37768 1.09731e-17
5049.52963 1.11168e-17
5050.67157 1.12606e-17
5051.82352 1.15098e-17
5052.96546 1.17588e-17
5054.11742 1.16015e-17
5055.25936 1.14443e-17
5056.41131 1.15506e-17
5057.55325 1.16568e-17
5058.70520 1.16367e-17
5059.84714 1.16167e-17
5060.99910 1.16956e-17
5062.14104 1.17745e-17
5063.29299 1.18906e-17
5064.43493 1.20067e-17
5065.58688 1.20778e-17
5066.72882 1.21489e-17
5067.87076 1.21486e-17
5069.02271 1.21482e-17
5070.16465 1.20864e-17
5071.31661 1.20247e-17
5072.45855 1.20340e-17
5073.61050 1.20435e-17
5074.75244 1.23243e-17
5075.90439 1.26051e-17
5077.04633 1.27829e-17
5078.19829 1.29606e-17
5079.34022 1.28326e-17
5080.49218 1.27046e-17
5081.63412 1.25429e-17
5082.78607 1.23815e-17
5083.92801 1.26408e-17
5085.07996 1.29000e-17
5086.22190 1.28228e-17
5087.37386 1.27457e-17
5088.51580 1.27630e-17
5089.66775 1.27803e-17
5090.80969 1.30154e-17
5091.95163 1.32504e-17
5093.10358 1.32924e-17
5094.24552 1.33345e-17
5095.39747 1.34418e-17
5096.53941 1.35491e-17
5097.69137 1.35393e-17
5098.83331 1.35295e-17
5099.98526 1.34385e-17
5101.12720 1.33476e-17
5102.27915 1.33295e-17
5103.42109 1.33115e-17
5104.57305 1.32916e-17
5105.71499 1.32717e-17
5106.86694 1.32892e-17
5108.00888 1.33068e-17
5109.16083 1.32837e-17
5110.30277 1.32605e-17
5111.45473 1.33133e-17
5112.59666 1.33659e-17
5113.73860 1.32773e-17
5114.89056 1.31888e-17
5116.03250 1.32500e-17
5117.18445 1.33111e-17
5118.32639 1.33934e-17
5119.47834 1.34756e-17
5120.62028 1.33725e-17
5121.77224 1.32695e-17
5122.91417 1.34250e-17
5124.06613 1.35803e-17
5125.20807 1.35132e-17
5126.36002 1.34461e-17
5127.50196 1.35523e-17
5128.65391 1.36585e-17
5129.79585 1.36006e-17
5130.94781 1.35428e-17
5132.08975 1.36033e-17
5133.24170 1.36638e-17
5134.38364 1.38683e-17
5135.52558 1.40726e-17
5136.67753 1.37869e-17
5137.81947 1.35014e-17
5138.97142 1.33628e-17
5140.11336 1.32243e-17
5141.26532 1.32535e-17
5142.40726 1.32827e-17
5143.55921 1.33863e-17
5144.70115 1.34898e-17
5145.85310 1.35450e-17
5146.99504 1.36000e-17
5148.14700 1.33800e-17
5149.28894 1.31601e-17
5150.44089 1.31350e-17
5151.58283 1.31099e-17
5152.73478 1.30181e-17
5153.87672 1.29263e-17
5155.02868 1.30029e-17
5156.17061 1.30795e-17
5157.32257 1.31648e-17
5158.46451 1.32501e-17
5159.60645 1.32150e-17
5160.75840 1.31800e-17
5161.90034 1.29898e-17
5163.05229 1.27998e-17
5164.19423 1.28494e-17
5165.34619 1.28990e-17
5166.48812 1.29484e-17
5167.64008 1.29977e-17
5168.78202 1.31487e-17
5169.93397 1.32995e-17
5171.07591 1.32396e-17
5172.22786 1.31796e-17
5173.36980 1.30941e-17
5174.52176 1.30087e-17
5175.66370 1.30821e-17
5176.81565 1.31554e-17
5177.95759 1.31501e-17
5179.10954 1.31448e-17
5180.25148 1.32579e-17
5181.39342 1.33710e-17
5182.54538 1.33482e-17
5183.68731 1.33254e-17
5184.83927 1.32887e-17
5185.98121 1.32520e-17
5187.13316 1.33507e-17
5188.27510 1.34493e-17
5189.42705 1.34111e-17
5190.56899 1.33728e-17
5191.72095 1.33178e-17
5192.86289 1.32628e-17
5194.01484 1.33124e-17
5195.15678 1.33621e-17
5196.30873 1.34841e-17
5197.45067 1.36061e-17
5198.60263 1.36989e-17
5199.74456 1.37916e-17
5200.89652 1.40165e-17
5202.03846 1.42414e-17
5203.18040 1.44211e-17
5204.33235 1.46006e-17
5205.47429 1.43174e-17
5206.62624 1.40343e-17
5207.76818 1.40006e-17
5208.92014 1.39671e-17
5210.06207 1.43086e-17
5211.21403 1.46499e-17
5212.35597 1.46400e-17
5213.50792 1.46301e-17
5214.64986 1.44853e-17
5215.80181 1.43405e-17
5216.94375 1.43435e-17
5218.09571 1.43465e-17
5219.23765 1.44271e-17
5220.38960 1.45077e-17
5221.53154 1.46858e-17
5222.68349 1.48638e-17
5223.82543 1.50520e-17
5224.97739 1.52402e-17
5226.11933 1.52749e-17
5227.26126 1.53096e-17
5228.41322 1.53071e-17
5229.55516 1.53046e-17
5230.70711 1.54498e-17
5231.84905 1.55950e-17
5233.00100 1.57478e-17
5234.14294 1.59004e-17
5235.29490 1.59185e-17
5236.43684 1.59365e-17
5237.58879 1.60463e-17
5238.73073 1.61560e-17
5239.88268 1.62586e-17
5241.02462 1.63612e-17
5242.17658 1.63150e-17
5243.31851 1.62689e-17
5244.47047 1.63759e-17
5245.61241 1.64829e-17
5246.75435 1.64572e-17
5247.90630 1.64317e-17
5249.04824 1.65540e-17
5250.20019 1.66763e-17
5251.34213 1.67815e-17
5252.49409 1.68865e-17
5253.63602 1.67984e-17
5254.78798 1.67103e-17
5255.92992 1.67044e-17
5257.08187 1.66986e-17
5258.22381 1.68808e-17
5259.37576 1.70630e-17
5260.51770 1.71627e-17
5261.66966 1.72623e-17
5262.81160 1.71945e-17
5263.96355 1.71268e-17
5265.10549 1.72239e-17
5266.25744 1.73212e-17
5267.39938 1.75995e-17
5268.54132 1.78778e-17
5269.69328 1.79025e-17
5270.83521 1.79272e-17
5271.98717 1.79376e-17
5273.12911 1.79480e-17
5274.28106 1.78442e-17
5275.42300 1.77404e-17
5276.57495 1.78200e-17
5277.71689 1.78996e-17
5278.86885 1.81584e-17
5280.01079 1.84170e-17
5281.16274 1.82336e-17
5282.30468 1.80503e-17
5283.45663 1.79566e-17
5284.59857 1.78630e-17
5285.75053 1.80041e-17
5286.89246 1.81452e-17
5288.04442 1.83339e-17
5289.18636 1.85225e-17
5290.33831 1.86200e-17
5291.48025 1.87174e-17
5292.63220 1.85412e-17
5293.77414 1.83649e-17
5294.91608 1.82261e-17
5296.06804 1.80873e-17
5297.20997 1.81119e-17
5298.36193 1.81366e-17
5299.50387 1.82740e-17
5300.65582 1.84115e-17
5301.79776 1.86306e-17
5302.94971 1.88495e-17
5304.09165 1.88394e-17
5305.24361 1.88292e-17
5306.38555 1.86584e-17
5307.53750 1.84877e-17
5308.67944 1.84703e-17
5309.83139 1.84528e-17
5310.97333 1.83025e-17
5312.12529 1.81525e-17
5313.26723 1.84018e-17
5314.41918 1.86510e-17
5315.56112 1.86127e-17
5316.70306 1.85744e-17
5317.85501 1.85373e-17
5318.99695 1.85004e-17
5320.14890 1.86189e-17
5321.29084 1.87374e-17
5322.44280 1.85703e-17
5323.58474 1.84034e-17
5324.73669 1.84142e-17
5325.87863 1.84250e-17
5327.03058 1.85369e-17
5328.17252 1.86487e-17
5329.32448 1.86381e-17
5330.46641 1.86274e-17
5331.61837 1.86590e-17
5332.76031 1.86905e-17
5333.91226 1.87367e-17
5335.05420 1.87828e-17
5336.20615 1.87803e-17
5337.34809 1.87778e-17
5338.49003 1.86850e-17
5339.64199 1.85921e-17
5340.78392 1.84662e-17
5341.93588 1.83403e-17
5343.07782 1.84046e-17
5344.22977 1.84688e-17
5345.37171 1.83976e-17
5346.52366 1.83264e-17
5347.66560 1.83629e-17
5348.81756 1.83995e-17
5349.95950 1.84089e-17
5351.11145 1.84182e-17
5352.25339 1.83923e-17
5353.40534 1.83664e-17
5354.54728 1.84365e-17
5355.69924 1.85064e-17
5356.84118 1.82798e-17
5357.99313 1.80533e-17
5359.13507 1.80499e-17
5360.28702 1.80464e-17
5361.42896 1.80316e-17
5362.57090 1.80168e-17
5363.72285 1.82046e-17
5364.86479 1.83925e-17
5366.01675 1.84964e-17
5367.15869 1.86003e-17
5368.31064 1.84149e-17
5369.45258 1.82296e-17
5370.60453 1.79432e-17
5371.74647 1.76569e-17
5372.89843 1.75921e-17
5374.04036 1.75272e-17
5375.19232 1.74510e-17
5376.33426 1.73749e-17
5377.48621 1.73381e-17
5378.62815 1.73013e-17
5379.78010 1.73328e-17
5380.92204 1.73643e-17
5382.07400 1.73963e-17
5383.21594 1.74282e-17
5384.35787 1.72746e-17
5385.50983 1.71211e-17
5386.65177 1.71849e-17
5387.80372 1.72486e-17
5388.94566 1.72449e-17
5390.09761 1.72412e-17
5391.23955 1.72336e-17
5392.39151 1.72260e-17
5393.53345 1.71337e-17
5394.68540 1.70414e-17
5395.82734 1.68456e-17
5396.97929 1.66500e-17
5398.12123 1.67628e-17
5399.27319 1.68755e-17
5400.41513 1.68352e-17
5401.56708 1.67949e-17
5402.70902 1.66653e-17
5403.86097 1.65357e-17
5405.00291 1.66172e-17
5406.14485 1.66987e-17
5407.29680 1.66415e-17
5408.43874 1.65843e-17
5409.59070 1.65949e-17
5410.73264 1.66055e-17
5411.88459 1.66855e-17
5413.02653 1.67654e-17
5414.17848 1.67659e-17
5415.32042 1.67663e-17
5416.47238 1.66583e-17
5417.61431 1.65505e-17
5418.76627 1.66594e-17
5419.90821 1.67682e-17
5421.06016 1.67728e-17
5422.20210 1.67775e-17
5423.35405 1.68737e-17
5424.49599 1.69700e-17
5425.64795 1.70766e-17
5426.78989 1.71830e-17
5427.94184 1.70888e-17
5429.08378 1.69946e-17
5430.22572 1.69539e-17
5431.37767 1.69132e-17
5432.51961 1.69123e-17
5433.67156 1.69115e-17
5434.81350 1.69900e-17
5435.96546 1.70685e-17
5437.10740 1.72466e-17
5438.25935 1.74245e-17
5439.40129 1.72649e-17
5440.55324 1.71054e-17
5441.69518 1.71748e-17
5442.84714 1.72443e-17
5443.98908 1.74852e-17
5445.14103 1.77261e-17
5446.28297 1.78219e-17
5447.43492 1.79176e-17
5448.57686 1.77791e-17
5449.72882 1.76405e-17
5450.87075 1.74251e-17
5452.01269 1.72099e-17
5453.16465 1.73805e-17
5454.30659 1.75511e-17
5455.45854 1.75289e-17
5456.60048 1.75068e-17
5457.75243 1.76819e-17
5458.89437 1.78569e-17
5460.04633 1.79394e-17
5461.18826 1.80218e-17
5462.34022 1.80203e-17
5463.48216 1.80188e-17
5464.63411 1.79995e-17
5465.77605 1.79802e-17
5466.92800 1.79083e-17
5468.06994 1.78365e-17
5469.22190 1.78170e-17
5470.36384 1.77976e-17
5471.51579 1.79440e-17
5472.65773 1.80903e-17
5473.79967 1.80148e-17
5474.95162 1.79393e-17
5476.09356 1.79251e-17
5477.24551 1.79109e-17
5478.38745 1.77705e-17
5479.53941 1.76303e-17
5480.68135 1.78477e-17
5481.83330 1.80650e-17
5482.97524 1.80912e-17
5484.12719 1.81173e-17
5485.26913 1.79992e-17
5486.42109 1.78812e-17
5487.56303 1.79068e-17
5488.71498 1.79324e-17
5489.85692 1.79983e-17
5491.00887 1.80642e-17
5492.15081 1.79656e-17
5493.30277 1.78670e-17
5494.44470 1.77103e-17
5495.58664 1.75538e-17
5496.73860 1.76154e-17
5497.88054 1.76769e-17
5499.03249 1.75643e-17
5500.17443 1.74517e-17
5501.32638 1.72819e-17
5502.46832 1.71121e-17
5503.62028 1.72012e-17
5504.76221 1.72904e-17
5505.91417 1.74645e-17
5507.05611 1.76386e-17
5508.20806 1.76624e-17
5509.35000 1.76861e-17
5510.50195 1.76246e-17
5511.64389 1.75632e-17
5512.79585 1.75679e-17
5513.93779 1.75725e-17
5515.08974 1.74901e-17
5516.23168 1.74076e-17
5517.37362 1.72766e-17
5518.52557 1.71456e-17
5519.66751 1.68454e-17
5520.81946 1.65453e-17
5521.96140 1.67172e-17
5523.11336 1.68891e-17
5524.25530 1.70612e-17
5525.40725 1.72332e-17
5526.54919 1.70396e-17
5527.70114 1.68461e-17
5528.84308 1.67507e-17
5529.99504 1.66553e-17
5531.13698 1.66339e-17
5532.28893 1.66125e-17
5533.43087 1.65660e-17
5534.58282 1.65195e-17
5535.72476 1.63911e-17
5536.87672 1.62629e-17
5538.01865 1.63522e-17
5539.16059 1.64415e-17
5540.31255 1.63941e-17
5541.45449 1.63466e-17
5542.60644 1.63137e-17
5543.74838 1.62808e-17
5544.90033 1.62902e-17
5546.04227 1.62997e-17
5547.19423 1.63273e-17
5548.33616 1.63548e-17
5549.48812 1.62624e-17
5550.63006 1.61701e-17
5551.78201 1.61573e-17
5552.92395 1.61446e-17
5554.07590 1.61311e-17
5555.21784 1.61176e-17
5556.36980 1.59888e-17
5557.51174 1.58602e-17
5558.66369 1.58643e-17
5559.80563 1.58683e-17
5560.94757 1.58517e-17
5562.09952 1.58351e-17
5563.24146 1.57662e-17
5564.39342 1.56972e-17
5565.53535 1.56644e-17
5566.68731 1.56317e-17
5567.82925 1.57932e-17
5568.98120 1.59546e-17
5570.12314 1.60597e-17
5571.27509 1.61646e-17
5572.41703 1.60324e-17
5573.56899 1.59003e-17
5574.71093 1.59821e-17
5575.86288 1.60639e-17
5577.00482 1.59623e-17
5578.15677 1.58608e-17
5579.29871 1.58240e-17
5580.45067 1.57873e-17
5581.59260 1.58460e-17
5582.74456 1.59047e-17
5583.88650 1.57547e-17
5585.02844 1.56047e-17
5586.18039 1.56043e-17
5587.32233 1.56039e-17
5588.47428 1.56895e-17
5589.61622 1.57750e-17
5590.76818 1.58039e-17
5591.91011 1.58327e-17
5593.06207 1.57319e-17
5594.20401 1.56311e-17
5595.35596 1.56736e-17
5596.49790 1.57160e-17
5597.64985 1.56716e-17
5598.79179 1.56272e-17
5599.94375 1.55110e-17
5601.08569 1.53949e-17
5602.23764 1.55421e-17
5603.37958 1.56892e-17
5604.53153 1.56561e-17
5605.67347 1.56229e-17
5606.81541 1.55686e-17
5607.96737 1.55143e-17
5609.10930 1.56373e-17
5610.26126 1.57602e-17
5611.40320 1.56856e-17
5612.55515 1.56111e-17
5613.69709 1.57156e-17
5614.84904 1.58201e-17
5615.99098 1.57714e-17
5617.14294 1.57227e-17
5618.28488 1.56123e-17
5619.43683 1.55020e-17
5620.57877 1.54514e-17
5621.73072 1.54008e-17
5622.87266 1.55495e-17
5624.02462 1.56980e-17
5625.16655 1.57199e-17
5626.31851 1.57417e-17
5627.46045 1.56810e-17
5628.60239 1.56202e-17
5629.75434 1.56514e-17
5630.89628 1.56825e-17
5632.04823 1.56193e-17
5633.19017 1.55560e-17
5634.34213 1.55125e-17
5635.48406 1.54690e-17
5636.63602 1.52980e-17
5637.77796 1.51270e-17
5638.92991 1.50300e-17
5640.07185 1.49330e-17
5641.22380 1.50251e-17
5642.36574 1.51172e-17
5643.51770 1.51073e-17
5644.65964 1.50975e-17
5645.81159 1.50690e-17
5646.95353 1.50404e-17
5648.10548 1.49694e-17
5649.24742 1.48983e-17
5650.39938 1.48249e-17
5651.54132 1.47516e-17
5652.68325 1.47910e-17
5653.83521 1.48303e-17
5654.97715 1.48062e-17
5656.12910 1.47821e-17
5657.27104 1.46972e-17
5658.42299 1.46123e-17
5659.56493 1.46141e-17
5660.71689 1.46160e-17
5661.85883 1.45879e-17
5663.01078 1.45599e-17
5664.15272 1.45665e-17
5665.30467 1.45730e-17
5666.44661 1.45684e-17
5667.59857 1.45638e-17
5668.74050 1.45328e-17
5669.89246 1.45018e-17
5671.03440 1.45109e-17
5672.18635 1.45199e-17
5673.32829 1.43207e-17
5674.47023 1.41215e-17
5675.62218 1.40961e-17
5676.76412 1.40707e-17
5677.91608 1.41077e-17
5679.05801 1.41445e-17
5680.20997 1.39216e-17
5681.35191 1.36988e-17
5682.50386 1.37402e-17
5683.64580 1.37817e-17
5684.79775 1.40372e-17
5685.93969 1.42925e-17
5687.09165 1.41180e-17
5688.23359 1.39436e-17
5689.38554 1.37494e-17
5690.52748 1.35553e-17
5691.67943 1.35131e-17
5692.82137 1.34708e-17
5693.97333 1.33585e-17
5695.11527 1.32463e-17
5696.25720 1.32171e-17
5697.40916 1.31879e-17
5698.55110 1.32940e-17
5699.70305 1.34001e-17
5700.84499 1.34403e-17
5701.99694 1.34803e-17
5703.13888 1.34117e-17
5704.29084 1.33430e-17
5705.43278 1.33042e-17
5706.58473 1.32654e-17
5707.72667 1.32133e-17
5708.87862 1.31612e-17
5710.02056 1.31355e-17
5711.17252 1.31097e-17
5712.31445 1.29091e-17
5713.46641 1.27085e-17
5714.60835 1.27057e-17
5715.76030 1.27029e-17
5716.90224 1.26950e-17
5718.05420 1.26872e-17
5719.19613 1.27574e-17
5720.33807 1.28275e-17
5721.49003 1.27945e-17
5722.63196 1.27615e-17
5723.78392 1.26692e-17
5724.92586 1.25769e-17
5726.07781 1.26354e-17
5727.21975 1.26939e-17
5728.37170 1.26723e-17
5729.51364 1.26506e-17
5730.66560 1.24618e-17
5731.80754 1.22730e-17
5732.95949 1.21756e-17
5734.10143 1.20783e-17
5735.25338 1.22424e-17
5736.39532 1.24065e-17
5737.54728 1.23384e-17
5738.68922 1.22704e-17
5739.83115 1.21763e-17
5740.98311 1.20823e-17
5742.12505 1.21300e-17
5743.27700 1.21778e-17
5744.41894 1.22520e-17
5745.57089 1.23262e-17
5746.71283 1.22976e-17
5747.86479 1.22689e-17
5749.00673 1.21571e-17
5750.15868 1.20453e-17
5751.30062 1.20050e-17
5752.45257 1.19646e-17
5753.59451 1.18939e-17
5754.74647 1.18232e-17
5755.88840 1.19170e-17
5757.04036 1.20109e-17
5758.18230 1.21051e-17
5759.33425 1.21993e-17
5760.47619 1.22727e-17
5761.61813 1.23460e-17
5762.77008 1.22649e-17
5763.91202 1.21839e-17
5765.06398 1.22483e-17
5766.20591 1.23128e-17
5767.35787 1.23953e-17
5768.49981 1.24778e-17
5769.65176 1.24480e-17
5770.79370 1.24183e-17
5771.94565 1.23506e-17
5773.08759 1.22829e-17
5774.23955 1.22951e-17
5775.38149 1.23073e-17
5776.53344 1.22710e-17
5777.67538 1.22347e-17
5778.82733 1.21344e-17
5779.96927 1.20344e-17
5781.12123 1.22589e-17
5782.26317 1.24832e-17
5783.41512 1.24250e-17
5784.55706 1.23668e-17
5785.69900 1.24075e-17
5786.85095 1.24482e-17
5787.99289 1.23455e-17
5789.14484 1.22428e-17
5790.28678 1.23248e-17
5791.43874 1.24069e-17
5792.58068 1.25349e-17
5793.73263 1.26629e-17
5794.87457 1.27742e-17
5796.02652 1.28854e-17
5797.16846 1.29051e-17
5798.32042 1.29249e-17
5799.46235 1.29517e-17
5800.61431 1.29786e-17
5801.75625 1.30527e-17
5802.90820 1.31268e-17
5804.05014 1.31656e-17
5805.20210 1.32043e-17
5806.34403 1.31426e-17
5807.48597 1.30809e-17
5808.63793 1.31185e-17
5809.77986 1.31561e-17
5810.93182 1.31169e-17
5812.07376 1.30779e-17
5813.22571 1.32346e-17
5814.36765 1.33913e-17
5815.51960 1.34404e-17
5816.66154 1.34893e-17
5817.81350 1.34239e-17
5818.95544 1.33585e-17
5820.10739 1.33658e-17
5821.24933 1.33731e-17
5822.40128 1.34025e-17
5823.54322 1.34319e-17
5824.69518 1.34465e-17
5825.83712 1.34611e-17
5826.98907 1.35765e-17
5828.13101 1.36919e-17
5829.27295 1.37437e-17
5830.42490 1.37955e-17
5831.56684 1.37604e-17
5832.71879 1.37252e-17
5833.86073 1.36876e-17
5835.01269 1.36500e-17
5836.15463 1.38483e-17
5837.30658 1.40464e-17
5838.44852 1.38735e-17
5839.60047 1.37007e-17
5840.74241 1.35965e-17
5841.89437 1.34924e-17
5843.03630 1.34149e-17
5844.18826 1.33375e-17
5845.33020 1.34568e-17
5846.48215 1.35761e-17
5847.62409 1.37223e-17
5848.77605 1.38683e-17
5849.91798 1.38816e-17
5851.06994 1.38950e-17
5852.21188 1.39510e-17
5853.35381 1.40069e-17
5854.50577 1.40129e-17
5855.64771 1.40189e-17
5856.79966 1.39212e-17
5857.94160 1.38235e-17
5859.09355 1.38639e-17
5860.23549 1.39042e-17
5861.38745 1.38435e-17
5862.52939 1.37829e-17
5863.68134 1.36984e-17
5864.82328 1.36139e-17
5865.97523 1.35027e-17
5867.11717 1.33915e-17
5868.26913 1.34325e-17
5869.41107 1.34734e-17
5870.56302 1.36235e-17
5871.70496 1.37734e-17
5872.85691 1.36945e-17
5873.99885 1.36156e-17
5875.14079 1.35748e-17
5876.29274 1.35340e-17
5877.43468 1.34210e-17
5878.58664 1.33080e-17
5879.72858 1.33515e-17
5880.88053 1.33948e-17
5882.02247 1.32258e-17
5883.17442 1.30569e-17
5884.31636 1.30073e-17
5885.46832 1.29575e-17
5886.61025 1.28035e-17
5887.76221 1.26496e-17
5888.90415 1.26251e-17
5890.05610 1.26006e-17
5891.19804 1.25837e-17
5892.35000 1.25668e-17
5893.49193 1.25976e-17
5894.64389 1.26283e-17
5895.78583 1.26184e-17
5896.92776 1.26084e-17
5898.07972 1.25530e-17
5899.22166 1.24976e-17
5900.37361 1.25943e-17
5901.51555 1.26910e-17
5902.66750 1.27776e-17
5903.80944 1.28642e-17
5904.96140 1.29278e-17
5906.10334 1.29915e-17
5907.25529 1.32441e-17
5908.39723 1.34966e-17
5909.54918 1.34724e-17
5910.69112 1.34482e-17
5911.84308 1.33540e-17
5912.98502 1.32597e-17
5914.13697 1.31667e-17
5915.27891 1.30737e-17
5916.43086 1.30987e-17
5917.57280 1.31238e-17
5918.72476 1.32656e-17
5919.86669 1.34074e-17
5921.00863 1.35514e-17
5922.16059 1.36954e-17
5923.30253 1.36700e-17
5924.45448 1.36447e-17
5925.59642 1.36507e-17
5926.74837 1.36567e-17
5927.89031 1.35521e-17
5929.04227 1.34476e-17
5930.18420 1.36040e-17
5931.33616 1.37603e-17
5932.47810 1.37663e-17
5933.63005 1.37723e-17
5934.77199 1.35692e-17
5935.92395 1.33661e-17
5937.06588 1.33576e-17
5938.21784 1.33491e-17
5939.35978 1.34500e-17
5940.51173 1.35507e-17
5941.65367 1.33578e-17
5942.79561 1.31650e-17
5943.94756 1.32462e-17
5945.08950 1.33272e-17
5946.24145 1.32493e-17
5947.38339 1.31714e-17
5948.53535 1.32362e-17
5949.67729 1.33009e-17
5950.82924 1.33081e-17
5951.97118 1.33152e-17
5953.12313 1.32960e-17
5954.26507 1.32769e-17
5955.41703 1.32872e-17
5956.55897 1.32974e-17
5957.71092 1.32695e-17
5958.85286 1.32416e-17
5960.00481 1.33441e-17
5961.14675 1.34465e-17
5962.29871 1.34889e-17
5963.44064 1.35313e-17
5964.58258 1.36433e-17
5965.73454 1.37552e-17
5966.87648 1.37069e-17
5968.02843 1.36587e-17
5969.17037 1.34881e-17
5970.32232 1.33177e-17
5971.46426 1.32155e-17
5972.61622 1.31135e-17
5973.75815 1.32234e-17
5974.91011 1.33333e-17
5976.05205 1.32347e-17
5977.20400 1.31361e-17
5978.34594 1.33063e-17
5979.49790 1.34762e-17
5980.63983 1.33488e-17
5981.79179 1.32213e-17
5982.93373 1.31435e-17
5984.08568 1.30657e-17
5985.22762 1.30710e-17
5986.36956 1.30763e-17
5987.52151 1.29430e-17
5988.66345 1.28100e-17
5989.81541 1.29587e-17
5990.95734 1.31074e-17
5992.10930 1.31285e-17
5993.25124 1.31496e-17
5994.40319 1.31588e-17
5995.54513 1.31679e-17
5996.69708 1.31870e-17
5997.83902 1.32061e-17
5998.99098 1.30579e-17
6000.13292 1.29096e-17
6001.28487 1.26458e-17
6002.42681 1.23823e-17
6003.57876 1.25380e-17
6004.72070 1.26936e-17
6005.87266 1.25290e-17
6007.01459 1.23645e-17
6008.15653 1.23289e-17
6009.30849 1.22933e-17
6010.45042 1.23890e-17
6011.60238 1.24847e-17
6012.74432 1.25539e-17
6013.89627 1.26231e-17
6015.03821 1.24648e-17
6016.19017 1.23067e-17
6017.33210 1.22809e-17
6018.48406 1.22552e-17
6019.62600 1.24334e-17
6020.77795 1.26116e-17
6021.91989 1.26547e-17
6023.07185 1.26977e-17
6024.21378 1.25640e-17
6025.36574 1.24303e-17
6026.50768 1.24521e-17
6027.65963 1.24740e-17
6028.80157 1.26115e-17
6029.94351 1.27489e-17
6031.09546 1.27154e-17
6032.23740 1.26818e-17
6033.38936 1.25473e-17
6034.53129 1.24128e-17
6035.68325 1.24467e-17
6036.82519 1.24807e-17
6037.97714 1.26726e-17
6039.11908 1.28644e-17
6040.27103 1.29335e-17
6041.41297 1.30025e-17
6042.56493 1.27419e-17
6043.70687 1.24816e-17
6044.85882 1.25074e-17
6046.00076 1.25333e-17
6047.15271 1.26139e-17
6048.29465 1.26944e-17
6049.44661 1.28282e-17
6050.58854 1.29618e-17
6051.74050 1.28791e-17
6052.88244 1.27964e-17
6054.02437 1.27777e-17
6055.17633 1.27590e-17
6056.31827 1.26974e-17
6057.47022 1.26359e-17
6058.61216 1.27858e-17
6059.76412 1.29356e-17
6060.90605 1.29433e-17
6062.05801 1.29509e-17
6063.19995 1.28000e-17
6064.35190 1.26493e-17
6065.49384 1.26840e-17
6066.64580 1.27188e-17
6067.78773 1.28807e-17
6068.93969 1.30425e-17
6070.08163 1.30824e-17
6071.23358 1.31222e-17
6072.37552 1.30408e-17
6073.52747 1.29595e-17
6074.66941 1.30250e-17
6075.81135 1.30905e-17
6076.96331 1.31390e-17
6078.10524 1.31874e-17
6079.25720 1.31422e-17
6080.39914 1.30971e-17
6081.55109 1.30752e-17
6082.69303 1.30533e-17
6083.84498 1.28928e-17
6084.98692 1.27323e-17
6086.13888 1.26088e-17
6087.28082 1.24855e-17
6088.43277 1.26225e-17
6089.57471 1.27595e-17
6090.72666 1.28305e-17
6091.86860 1.29014e-17
6093.02056 1.27794e-17
6094.16249 1.26574e-17
6095.31445 1.24976e-17
6096.45639 1.23379e-17
6097.59832 1.23420e-17
6098.75028 1.23461e-17
6099.89222 1.23686e-17
6101.04417 1.23910e-17
6102.18611 1.24473e-17
6103.33807 1.25036e-17
6104.48000 1.26285e-17
6105.63196 1.27534e-17
6106.77390 1.27239e-17
6107.92585 1.26944e-17
6109.06779 1.26707e-17
6110.21975 1.26469e-17
6111.36168 1.25515e-17
6112.51364 1.24563e-17
6113.65558 1.26013e-17
6114.80753 1.27463e-17
6115.94947 1.27352e-17
6117.10142 1.27240e-17
6118.24336 1.27667e-17
6119.38530 1.28094e-17
6120.53726 1.27084e-17
6121.67919 1.26076e-17
6122.83115 1.25947e-17
6123.97309 1.25819e-17
6125.12504 1.26468e-17
6126.26698 1.27117e-17
6127.41893 1.28780e-17
6128.56087 1.30441e-17
6129.71283 1.29933e-17
6130.85477 1.29425e-17
6132.00672 1.29543e-17
6133.14866 1.29662e-17
6134.30061 1.29748e-17
6135.44255 1.29835e-17
6136.59451 1.29442e-17
6137.73644 1.29051e-17
6138.88840 1.29987e-17
6140.03034 1.30923e-17
6141.18229 1.31564e-17
6142.32423 1.32204e-17
6143.46617 1.32818e-17
6144.61812 1.33431e-17
6145.76006 1.32936e-17
6146.91202 1.32441e-17
6148.05395 1.33496e-17
6149.20591 1.34550e-17
6150.34785 1.35042e-17
6151.49980 1.35535e-17
6152.64174 1.35971e-17
6153.79370 1.36408e-17
6154.93563 1.37324e-17
6156.08759 1.38239e-17
6157.22953 1.38590e-17
6158.38148 1.38941e-17
6159.52342 1.37767e-17
6160.67537 1.36594e-17
6161.81731 1.36026e-17
6162.96927 1.35458e-17
6164.11121 1.36114e-17
6165.25314 1.36770e-17
6166.40510 1.37438e-17
6167.54704 1.38105e-17
6168.69899 1.38017e-17
6169.84093 1.37929e-17
6170.99288 1.36867e-17
6172.13482 1.35806e-17
6173.28678 1.34703e-17
6174.42872 1.33601e-17
6175.58067 1.34518e-17
6176.72261 1.35434e-17
6177.87456 1.35035e-17
6179.01650 1.34636e-17
6180.16846 1.34452e-17
6181.31039 1.34267e-17
6182.46235 1.34128e-17
6183.60429 1.33989e-17
6184.75624 1.33510e-17
6185.89818 1.33031e-17
6187.04012 1.32481e-17
6188.19207 1.31931e-17
6189.33401 1.32202e-17
6190.48597 1.32472e-17
6191.62790 1.32632e-17
6192.77986 1.32792e-17
6193.92180 1.32212e-17
6195.07375 1.31632e-17
6196.21569 1.30106e-17
6197.36765 1.28580e-17
6198.50958 1.27352e-17
6199.66154 1.26126e-17
6200.80348 1.26528e-17
6201.95543 1.26930e-17
6203.09737 1.26078e-17
6204.24932 1.25225e-17
6205.39126 1.24067e-17
6206.54322 1.22910e-17
6207.68516 1.22276e-17
6208.83711 1.21642e-17
6209.97905 1.20397e-17
6211.12099 1.19153e-17
6212.27294 1.19226e-17
6213.41488 1.19298e-17
6214.56683 1.17875e-17
6215.70877 1.16453e-17
6216.86073 1.16351e-17
6218.00266 1.16249e-17
6219.15462 1.15681e-17
6220.29656 1.15113e-17
6221.44851 1.14978e-17
6222.59045 1.14842e-17
6223.74241 1.14543e-17
6224.88434 1.14244e-17
6226.03630 1.13270e-17
6227.17824 1.12297e-17
6228.33019 1.12929e-17
6229.47213 1.13560e-17
6230.62409 1.12857e-17
6231.76602 1.12153e-17
6232.90796 1.11928e-17
6234.05992 1.11702e-17
6235.20185 1.12014e-17
6236.35381 1.12326e-17
6237.49575 1.12186e-17
6238.64770 1.12045e-17
6239.78964 1.10981e-17
6240.94160 1.09918e-17
6242.08353 1.09988e-17
6243.23549 1.10059e-17
6244.37743 1.10252e-17
6245.52938 1.10446e-17
6246.67132 1.09357e-17
6247.82327 1.08269e-17
6248.96521 1.08005e-17
6250.11717 1.07742e-17
6251.25911 1.09352e-17
6252.41106 1.10963e-17
6253.55300 1.12193e-17
6254.69494 1.13423e-17
6255.84689 1.13287e-17
6256.98883 1.13150e-17
6258.14078 1.13059e-17
6259.28272 1.12968e-17
6260.43468 1.12548e-17
6261.57661 1.12129e-17
6262.72857 1.12360e-17
6263.87051 1.12592e-17
6265.02246 1.13576e-17
6266.16440 1.14559e-17
6267.31636 1.13444e-17
6268.45829 1.12329e-17
6269.61025 1.11263e-17
6270.75219 1.10198e-17
6271.90414 1.09318e-17
6273.04608 1.08438e-17
6274.19804 1.08294e-17
6275.33997 1.08150e-17
6276.48191 1.09837e-17
6277.63387 1.11523e-17
6278.77580 1.12206e-17
6279.92776 1.12888e-17
6281.06970 1.11260e-17
6282.22165 1.09633e-17
6283.36359 1.10000e-17
6284.51555 1.10367e-17
6285.65748 1.11064e-17
6286.80944 1.11762e-17
6287.95138 1.12014e-17
6289.10333 1.12266e-17
6290.24527 1.13290e-17
6291.39722 1.14312e-17
6292.53916 1.14186e-17
6293.69112 1.14059e-17
6294.83306 1.13148e-17
6295.98501 1.12238e-17
6297.12695 1.12202e-17
6298.26889 1.12166e-17
6299.42084 1.12258e-17
6300.56278 1.12350e-17
6301.71473 1.12254e-17
6302.85667 1.12158e-17
6304.00863 1.13027e-17
6305.15056 1.13896e-17
6306.30252 1.14636e-17
6307.44446 1.15375e-17
6308.59641 1.14823e-17
6309.73835 1.14271e-17
6310.89031 1.14439e-17
6312.03224 1.14607e-17
6313.18420 1.14917e-17
6314.32614 1.15226e-17
6315.47809 1.15272e-17
6316.62003 1.15319e-17
6317.77199 1.15654e-17
6318.91392 1.15989e-17
6320.05586 1.16610e-17
6321.20782 1.17232e-17
6322.34975 1.18311e-17
6323.50171 1.19389e-17
6324.64365 1.19988e-17
6325.79560 1.20587e-17
6326.93754 1.19390e-17
6328.08950 1.18194e-17
6329.23143 1.18093e-17
6330.38339 1.17992e-17
6331.52533 1.18551e-17
6332.67728 1.19109e-17
6333.81922 1.20244e-17
6334.97117 1.21379e-17
6336.11311 1.22195e-17
6337.26507 1.23009e-17
6338.40701 1.21992e-17
6339.55896 1.20975e-17
6340.70090 1.20924e-17
6341.85285 1.20872e-17
6342.99479 1.21723e-17
6344.14675 1.22575e-17
6345.28868 1.24062e-17
6346.43062 1.25548e-17
6347.58258 1.27189e-17
6348.72451 1.28828e-17
6349.87647 1.29313e-17
6351.01841 1.29796e-17
6352.17036 1.27981e-17
6353.31230 1.26167e-17
6354.46426 1.26049e-17
6355.60619 1.25932e-17
6356.75815 1.26516e-17
6357.90009 1.27100e-17
6359.05204 1.27074e-17
6360.19398 1.27048e-17
6361.34594 1.26037e-17
6362.48787 1.25027e-17
6363.63983 1.25707e-17
6364.78177 1.26387e-17
6365.92370 1.27447e-17
6367.07566 1.28507e-17
6368.21760 1.29112e-17
6369.36955 1.29717e-17
6370.51149 1.28776e-17
6371.66345 1.27836e-17
6372.80538 1.27688e-17
6373.95734 1.27542e-17
6375.09928 1.28595e-17
6376.25123 1.29648e-17
6377.39317 1.30631e-17
6378.54512 1.31615e-17
6379.68706 1.32368e-17
6380.83902 1.33121e-17
6381.98095 1.34753e-17
6383.13291 1.36384e-17
6384.27485 1.36505e-17
6385.42680 1.36626e-17
6386.56874 1.35547e-17
6387.72070 1.34468e-17
6388.86263 1.33366e-17
6390.00457 1.32264e-17
6391.15653 1.33721e-17
6392.29846 1.35177e-17
6393.45042 1.35293e-17
6394.59236 1.35410e-17
6395.74431 1.34802e-17
6396.88625 1.34195e-17
6398.03821 1.33612e-17
6399.18014 1.33028e-17
6400.33210 1.32246e-17
6401.47404 1.31466e-17
6402.62599 1.32694e-17
6403.76793 1.33922e-17
6404.91989 1.35093e-17
6406.06182 1.36264e-17
6407.21378 1.36621e-17
6408.35572 1.36978e-17
6409.50767 1.36992e-17
6410.64961 1.37006e-17
6411.80156 1.36696e-17
6412.94350 1.36387e-17
6414.08544 1.36509e-17
6415.23740 1.36630e-17
6416.37933 1.36345e-17
6417.53129 1.36060e-17
6418.67323 1.37255e-17
6419.82518 1.38449e-17
6420.96712 1.38419e-17
6422.11907 1.38389e-17
6423.26101 1.37537e-17
6424.41297 1.36685e-17
6425.55490 1.36304e-17
6426.70686 1.35922e-17
6427.84880 1.34986e-17
6429.00075 1.34051e-17
6430.14269 1.33956e-17
6431.29465 1.33862e-17
6432.43658 1.34915e-17
6433.58854 1.35968e-17
6434.73048 1.35770e-17
6435.87241 1.35572e-17
6437.02437 1.35621e-17
6438.16631 1.35670e-17
6439.31826 1.36517e-17
6440.46020 1.37362e-17
6441.61216 1.36425e-17
6442.75409 1.35489e-17
6443.90605 1.35335e-17
6445.04799 1.35182e-17
6446.19994 1.35343e-17
6447.34188 1.35503e-17
6448.49384 1.33293e-17
6449.63577 1.31085e-17
6450.78773 1.30986e-17
6451.92967 1.30888e-17
6453.08162 1.32257e-17
6454.22356 1.33623e-17
6455.37551 1.33013e-17
6456.51745 1.32403e-17
6457.65939 1.31961e-17
6458.81135 1.31518e-17
6459.95328 1.31007e-17
6461.10524 1.30496e-17
6462.24718 1.30118e-17
6463.39913 1.29740e-17
6464.54107 1.28460e-17
6465.69302 1.27180e-17
6466.83496 1.26288e-17
6467.98692 1.25396e-17
6469.12885 1.24601e-17
6470.28081 1.23807e-17
6471.42275 1.24433e-17
6472.57470 1.25058e-17
6473.71664 1.24655e-17
6474.86860 1.24252e-17
6476.01053 1.24086e-17
6477.16249 1.23921e-17
6478.30443 1.24823e-17
6479.44636 1.25724e-17
6480.59832 1.26461e-17
6481.74026 1.27197e-17
6482.89221 1.27909e-17
6484.03415 1.28621e-17
6485.18611 1.29123e-17
6486.32804 1.29625e-17
6487.48000 1.29243e-17
6488.62194 1.28862e-17
6489.77389 1.28113e-17
6490.91583 1.27364e-17
6492.06779 1.26795e-17
6493.20972 1.26226e-17
6494.36168 1.26689e-17
6495.50362 1.27152e-17
6496.65557 1.28109e-17
6497.79751 1.29066e-17
6498.94946 1.30480e-17
6500.09140 1.31893e-17
6501.23334 1.32652e-17
6502.38530 1.33410e-17
6503.52723 1.33832e-17
6504.67919 1.34252e-17
6505.82113 1.33713e-17
6506.97308 1.33173e-17
6508.11502 1.32506e-17
6509.26697 1.31838e-17
6510.40891 1.29908e-17
6511.56087 1.27978e-17
6512.70280 1.27256e-17
6513.85476 1.26533e-17
6514.99670 1.26655e-17
6516.14865 1.26776e-17
6517.29059 1.26692e-17
6518.44255 1.26607e-17
6519.58448 1.26031e-17
6520.73644 1.25455e-17
6521.87838 1.25923e-17
6523.02031 1.26391e-17
6524.17227 1.27173e-17
6525.31421 1.27956e-17
6526.46616 1.29400e-17
6527.60810 1.30843e-17
6528.76006 1.30466e-17
6529.90199 1.30089e-17
6531.05395 1.29179e-17
6532.19589 1.28271e-17
6533.34784 1.29578e-17
6534.48978 1.30884e-17
6535.64174 1.31545e-17
6536.78367 1.32206e-17
6537.93563 1.31304e-17
6539.07757 1.30405e-17
6540.22952 1.32220e-17
6541.37146 1.34034e-17
6542.52341 1.34222e-17
6543.66535 1.34410e-17
6544.81731 1.34279e-17
6545.95925 1.34147e-17
6547.10118 1.34016e-17
6548.25314 1.33884e-17
6549.39508 1.33753e-17
6550.54703 1.33622e-17
6551.68897 1.33490e-17
6552.84092 1.33359e-17
6553.98286 1.33227e-17
6555.13482 1.33096e-17
6556.27675 1.32965e-17
6557.42871 1.32833e-17
6558.57065 1.32702e-17
6559.72260 1.32571e-17
6560.86454 1.32439e-17
6562.01650 1.32308e-17
6563.15843 1.32177e-17
6564.31039 1.32045e-17
6565.45233 1.31914e-17
6566.60428 1.31783e-17
6567.74622 1.31651e-17
6568.88816 1.31520e-17
6570.04011 1.31389e-17
6571.18205 1.31258e-17
6572.33401 1.31126e-17
6573.47594 1.30995e-17
6574.62790 1.30864e-17
6575.76984 1.30733e-17
6576.92179 1.30601e-17
6578.06373 1.30470e-17
6579.21569 1.30339e-17
6580.35762 1.30208e-17
6581.50958 1.30076e-17
6582.65152 1.29945e-17
6583.80347 1.29814e-17
6584.94541 1.29683e-17
6586.09736 1.29552e-17
6587.23930 1.29421e-17
6588.39126 1.29289e-17
6589.53320 1.29158e-17
6590.67513 1.29027e-17
6591.82709 1.28896e-17
6592.96903 1.28765e-17
6594.12098 1.28634e-17
6595.26292 1.28503e-17
6596.41487 1.28372e-17
6597.55681 1.28240e-17
6598.70877 1.28109e-17
6599.85070 1.27978e-17
6601.00266 1.27847e-17
6602.14460 1.27716e-17
6603.29655 1.27585e-17
6604.43849 1.27454e-17
6605.59045 1.27492e-17
6606.73238 1.27686e-17
6607.88434 1.27880e-17
6609.02628 1.27470e-17
6610.17823 1.27060e-17
6611.32017 1.26165e-17
6612.46211 1.25269e-17
6613.61406 1.23100e-17
6614.75600 1.20932e-17
6615.90796 1.20346e-17
6617.04989 1.19761e-17
6618.20185 1.21112e-17
6619.34379 1.22461e-17
6620.49574 1.21975e-17
6621.63768 1.21489e-17
6622.78964 1.20955e-17
6623.93157 1.20421e-17
6625.08353 1.19599e-17
6626.22547 1.18777e-17
6627.37742 1.18015e-17
6628.51936 1.17251e-17
6629.67131 1.15933e-17
6630.81325 1.14615e-17
6631.96521 1.14749e-17
6633.10715 1.14884e-17
6634.25910 1.15594e-17
6635.40104 1.16303e-17
6636.54298 1.16929e-17
6637.69493 1.17555e-17
6638.83687 1.18444e-17
6639.98882 1.19333e-17
6641.13076 1.19759e-17
6642.28272 1.20184e-17
6643.42465 1.20106e-17
6644.57661 1.20028e-17
6645.71855 1.20806e-17
6646.87050 1.21584e-17
6648.01244 1.22641e-17
6649.16440 1.23696e-17
6650.30633 1.23428e-17
6651.45829 1.23160e-17
6652.60023 1.22118e-17
6653.75218 1.21076e-17
6654.89412 1.18664e-17
6656.04608 1.16252e-17
6657.18801 1.15438e-17
6658.32995 1.14625e-17
6659.48191 1.14972e-17
6660.62384 1.15318e-17
6661.77580 1.13976e-17
6662.91774 1.12636e-17
6664.06969 1.13040e-17
6665.21163 1.13444e-17
6666.36359 1.13789e-17
6667.50552 1.14133e-17
6668.65748 1.12712e-17
6669.79942 1.11293e-17
6670.95137 1.11681e-17
6672.09331 1.12068e-17
6673.24526 1.11638e-17
6674.38720 1.11208e-17
6675.53916 1.12939e-17
6676.68110 1.14669e-17
6677.83305 1.15372e-17
6678.97499 1.16073e-17
6680.11693 1.15172e-17
6681.26888 1.14272e-17
6682.41082 1.15628e-17
6683.56277 1.16984e-17
6684.70471 1.16382e-17
6685.85667 1.15780e-17
6686.99860 1.15221e-17
6688.15056 1.14662e-17
6689.29250 1.14386e-17
6690.44445 1.14110e-17
6691.58639 1.13981e-17
6692.73835 1.13851e-17
6693.88028 1.14323e-17
6695.03224 1.14794e-17
6696.17418 1.12993e-17
6697.32613 1.11193e-17
6698.46807 1.09644e-17
6699.62003 1.08096e-17
6700.76196 1.08232e-17
6701.91392 1.08368e-17
6703.05586 1.08668e-17
6704.19779 1.08970e-17
6705.34975 1.10363e-17
6706.49169 1.11756e-17
6707.64364 1.11908e-17
6708.78558 1.12060e-17
6709.93754 1.10612e-17
6711.07947 1.09166e-17
6712.23143 1.10231e-17
6713.37337 1.11296e-17
6714.52532 1.13302e-17
6715.66726 1.15307e-17
6716.81921 1.14921e-17
6717.96115 1.14535e-17
6719.11311 1.14742e-17
6720.25505 1.14950e-17
6721.40700 1.15163e-17
6722.54894 1.15376e-17
6723.70089 1.14803e-17
6724.84283 1.14232e-17
6725.98477 1.15300e-17
6727.13672 1.16370e-17
6728.27866 1.17934e-17
6729.43062 1.19497e-17
6730.57255 1.19976e-17
6731.72451 1.20454e-17
6732.86645 1.17854e-17
6734.01840 1.15255e-17
6735.16034 1.12743e-17
6736.31230 1.10232e-17
6737.45423 1.09971e-17
6738.60619 1.09711e-17
6739.74813 1.10586e-17
6740.90008 1.11460e-17
6742.04202 1.11451e-17
6743.19398 1.11443e-17
6744.33591 1.11930e-17
6745.48787 1.12417e-17
6746.62981 1.12686e-17
6747.77174 1.12954e-17
6748.92370 1.11739e-17
6750.06564 1.10526e-17
6751.21759 1.11938e-17
6752.35953 1.13350e-17
6753.51148 1.14668e-17
6754.65342 1.15984e-17
6755.80538 1.15143e-17
6756.94732 1.14302e-17
6758.09927 1.14754e-17
6759.24121 1.15205e-17
6760.39316 1.14336e-17
6761.53510 1.13466e-17
6762.68706 1.12432e-17
6763.82900 1.11398e-17
6764.98095 1.11241e-17
6766.12289 1.11082e-17
6767.27484 1.10165e-17
6768.41678 1.09247e-17
6769.55872 1.07918e-17
6770.71067 1.06589e-17
6771.85261 1.07059e-17
6773.00457 1.07529e-17
6774.14650 1.08430e-17
6775.29846 1.09330e-17
6776.44040 1.09685e-17
6777.59235 1.10040e-17
6778.73429 1.10246e-17
6779.88625 1.10452e-17
6781.02818 1.10391e-17
6782.18014 1.10330e-17
6783.32208 1.09285e-17
6784.47403 1.08241e-17
6785.61597 1.08263e-17
6786.76793 1.08285e-17
6787.90986 1.07864e-17
6789.06182 1.07443e-17
6790.20376 1.06486e-17
6791.34569 1.05530e-17
6792.49765 1.05983e-17
6793.63959 1.06436e-17
6794.79154 1.06848e-17
6795.93348 1.07259e-17
6797.08544 1.06768e-17
6798.22737 1.06278e-17
6799.37933 1.06006e-17
6800.52127 1.05735e-17
6801.67322 1.06390e-17
6802.81516 1.07044e-17
6803.96711 1.06651e-17
6805.10905 1.06258e-17
6806.26101 1.06909e-17
6807.40295 1.07560e-17
6808.55490 1.08200e-17
6809.69684 1.08839e-17
6810.84879 1.07984e-17
6811.99073 1.07129e-17
6813.13267 1.06380e-17
6814.28462 1.05630e-17
6815.42656 1.05426e-17
6816.57852 1.05222e-17
6817.72045 1.06694e-17
6818.87241 1.08166e-17
6820.01435 1.07724e-17
6821.16630 1.07282e-17
6822.30824 1.07584e-17
6823.46020 1.07885e-17
6824.60213 1.07493e-17
6825.75409 1.07099e-17
6826.89603 1.05520e-17
6828.04798 1.03941e-17
6829.18992 1.04248e-17
6830.34188 1.04555e-17
6831.48381 1.03591e-17
6832.63577 1.02628e-17
6833.77771 1.02758e-17
6834.92966 1.02888e-17
6836.07160 1.02606e-17
6837.21354 1.02325e-17
6838.36549 1.01793e-17
6839.50743 1.01261e-17
6840.65939 1.00310e-17
6841.80132 9.93610e-18
6842.95328 1.00411e-17
6844.09522 1.01460e-17
6845.24717 1.01685e-17
6846.38911 1.01909e-17
6847.54106 1.01684e-17
6848.68300 1.01460e-17
6849.83496 1.01268e-17
6850.97690 1.01076e-17
6852.12885 1.00038e-17
6853.27079 9.90025e-18
6854.42274 1.01144e-17
6855.56468 1.03284e-17
6856.71664 1.02658e-17
6857.85857 1.02033e-17
6859.00051 1.03296e-17
6860.15247 1.04560e-17
6861.29440 1.06694e-17
6862.44636 1.08827e-17
6863.58830 1.07762e-17
6864.74025 1.06697e-17
6865.88219 1.05028e-17
6867.03415 1.03360e-17
6868.17608 1.02295e-17
6869.32804 1.01227e-17
6870.46998 9.74874e-18
6871.62193 9.37470e-18
6872.76387 8.89954e-18
6873.91583 8.42481e-18
6875.05776 8.54836e-18
6876.20972 8.67186e-18
6877.35166 8.73383e-18
6878.50361 8.79583e-18
6879.64555 8.89195e-18
6880.78749 8.98811e-18
6881.93944 9.15326e-18
6883.08138 9.31841e-18
6884.23334 9.50362e-18
6885.37527 9.68877e-18
6886.52723 9.80265e-18
6887.66917 9.91636e-18
6888.82112 9.79882e-18
6889.96306 9.68130e-18
6891.11501 9.58843e-18
6892.25695 9.49574e-18
6893.40891 9.66255e-18
6894.55085 9.82931e-18
6895.70280 9.93044e-18
6896.84474 1.00314e-17
6897.99669 9.91761e-18
6899.13863 9.80379e-18
6900.29059 9.66866e-18
6901.43252 9.53359e-18
6902.58448 9.47481e-18
6903.72642 9.41605e-18
6904.86835 9.39776e-18
6906.02031 9.37952e-18
6907.16225 9.43851e-18
6908.31420 9.49737e-18
6909.45614 9.37022e-18
6910.60810 9.24315e-18
6911.75003 9.22442e-18
6912.90199 9.20586e-18
6914.04393 9.44486e-18
6915.19588 9.68360e-18
6916.33782 9.55492e-18
6917.48978 9.42629e-18
6918.63171 9.39118e-18
6919.78367 9.35612e-18
6920.92561 9.41176e-18
6922.07756 9.46740e-18
6923.21950 9.52277e-18
6924.37145 9.57808e-18
6925.51339 9.56415e-18
6926.65533 9.55015e-18
6927.80729 9.45536e-18
6928.94922 9.36070e-18
6930.10118 9.45314e-18
6931.24312 9.54552e-18
6932.39507 9.55889e-18
6933.53701 9.57218e-18
6934.68896 9.46087e-18
6935.83090 9.34972e-18
6936.98286 9.47329e-18
6938.12480 9.59669e-18
6939.27675 9.46132e-18
6940.41869 9.32608e-18
6941.57064 9.37695e-18
6942.71258 9.42774e-18
6943.86454 9.36656e-18
6945.00647 9.30535e-18
6946.15843 9.19821e-18
6947.30037 9.09117e-18
6948.44230 9.10493e-18
6949.59426 9.11869e-18
6950.73620 9.11861e-18
6951.88815 9.11854e-18
6953.03009 9.12224e-18
6954.18205 9.12597e-18
6955.32398 9.17859e-18
6956.47594 9.23111e-18
6957.61788 9.14274e-18
6958.76983 9.05447e-18
6959.91177 9.09933e-18
6961.06372 9.14422e-18
6962.20566 9.24752e-18
6963.35762 9.35076e-18
6964.49956 9.38516e-18
6965.65151 9.41956e-18
6966.79345 9.45604e-18
6967.94540 9.49252e-18
6969.08734 9.55454e-18
6970.23930 9.61655e-18
6971.38124 9.68294e-18
6972.52317 9.74927e-18
6973.67513 9.74044e-18
6974.81707 9.73152e-18
6975.96902 9.58770e-18
6977.11096 9.44398e-18
6978.26291 9.42519e-18
6979.40485 9.40648e-18
6980.55681 9.51026e-18
6981.69875 9.61404e-18
6982.85070 9.72174e-18
6983.99264 9.82931e-18
6985.14459 9.75255e-18
6986.28653 9.67584e-18
6987.43849 9.66819e-18
6988.58042 9.66057e-18
6989.73238 9.70389e-18
6990.87432 9.74723e-18
6992.02627 9.82639e-18
6993.16821 9.90544e-18
6994.31015 9.83308e-18
6995.46210 9.76068e-18
6996.60404 9.63889e-18
6997.75600 9.51714e-18
6998.89793 9.44442e-18
7000.04989 9.37171e-18
7001.19183 9.31751e-18
7002.34378 9.26337e-18
7003.48572 9.28942e-18
7004.63767 9.31545e-18
7005.77961 9.30801e-18
7006.93157 9.30062e-18
7008.07351 9.37019e-18
7009.22546 9.43980e-18
7010.36740 9.58865e-18
7011.51935 9.73741e-18
7012.66129 9.77442e-18
7013.80323 9.81141e-18
7014.95519 9.83958e-18
7016.09712 9.86779e-18
7017.24908 9.94649e-18
7018.39102 1.00251e-17
7019.54297 9.92614e-18
7020.68491 9.82721e-18
7021.83686 9.73614e-18
7022.97880 9.64514e-18
7024.13076 9.65406e-18
7025.27270 9.66295e-18
7026.42465 9.63014e-18
7027.56659 9.59736e-18
7028.71854 9.60916e-18
7029.86048 9.62096e-18
7031.01244 9.63013e-18
7032.15437 9.63931e-18
7033.30633 9.64690e-18
7034.44827 9.65450e-18
7035.60022 9.68575e-18
7036.74216 9.71700e-18
7037.88410 9.75045e-18
7039.03605 9.78392e-18
7040.17799 9.85691e-18
7041.32995 9.92983e-18
7042.47188 9.91126e-18
7043.62384 9.89267e-18
7044.76578 9.83061e-18
7045.91773 9.76862e-18
7047.05967 9.80279e-18
7048.21162 9.83696e-18
7049.35356 9.88709e-18
7050.50552 9.93715e-18
7051.64746 9.86742e-18
7052.79941 9.79765e-18
7053.94135 9.66176e-18
7055.09330 9.52597e-18
7056.23524 9.52214e-18
7057.38720 9.51833e-18
7058.52914 9.53882e-18
7059.67107 9.55931e-18
7060.82303 9.58269e-18
7061.96497 9.60601e-18
7063.11692 9.55146e-18
7064.25886 9.49691e-18
7065.41081 9.43319e-18
7066.55275 9.36951e-18
7067.70471 9.35314e-18
7068.84665 9.33680e-18
7069.99860 9.35744e-18
7071.14054 9.37812e-18
7072.29249 9.46968e-18
7073.43443 9.56122e-18
7074.58639 9.62536e-18
7075.72832 9.68954e-18
7076.88028 9.81850e-18
7078.02222 9.94738e-18
7079.17417 9.96892e-18
7080.31611 9.99041e-18
7081.45805 9.95311e-18
7082.61000 9.91581e-18
7083.75194 9.87593e-18
7084.90390 9.83603e-18
7086.04583 9.78029e-18
7087.19779 9.72461e-18
7088.33973 9.75404e-18
7089.49168 9.78343e-18
7090.63362 9.76304e-18
7091.78557 9.74261e-18
7092.92751 9.66956e-18
7094.07947 9.59657e-18
7095.22141 9.60552e-18
7096.37336 9.61442e-18
7097.51530 9.56751e-18
7098.66725 9.52066e-18
7099.80919 9.54586e-18
7100.96115 9.57113e-18
7102.10309 9.68893e-18
7103.25504 9.80669e-18
7104.39698 9.89123e-18
7105.53892 9.97566e-18
7106.69087 9.90287e-18
7107.83281 9.83014e-18
7108.98476 9.83175e-18
7110.12670 9.83340e-18
7111.27866 9.88221e-18
7112.42060 9.93088e-18
7113.57255 9.79450e-18
7114.71449 9.65818e-18
7115.86644 9.58780e-18
7117.00838 9.51736e-18
7118.16034 9.34290e-18
7119.30227 9.16851e-18
7120.45423 9.10029e-18
7121.59617 9.03215e-18
7122.74812 9.06814e-18
7123.89006 9.10407e-18
7125.04201 9.06851e-18
7126.18395 9.03291e-18
7127.32589 8.94421e-18
7128.47785 8.85582e-18
7129.61978 9.20699e-18
7130.77174 9.55802e-18
7131.91368 9.73751e-18
7133.06563 9.91680e-18
7134.20757 9.82042e-18
7135.35952 9.72424e-18
7136.50146 9.91391e-18
7137.65342 1.01035e-17
7138.79536 1.01570e-17
7139.94731 1.02105e-17
7141.08925 1.01718e-17
7142.24120 1.01331e-17
7143.38314 1.01300e-17
7144.53510 1.01269e-17
7145.67704 1.00669e-17
7146.82899 1.00070e-17
7147.97093 1.00387e-17
7149.11287 1.00703e-17
7150.26482 1.00814e-17
7151.40676 1.00923e-17
7152.55871 9.91265e-18
7153.70065 9.73309e-18
7154.85261 9.73954e-18
7155.99455 9.74603e-18
7157.14650 9.80635e-18
7158.28844 9.86660e-18
7159.44039 9.83119e-18
7160.58233 9.79575e-18
7161.73429 9.71345e-18
7162.87622 9.63123e-18
7164.02818 9.66372e-18
7165.17012 9.69622e-18
7166.32207 9.73047e-18
7167.46401 9.76469e-18
7168.61596 9.75809e-18
7169.75790 9.75159e-18
7170.89984 9.89297e-18
7172.05180 1.00343e-17
7173.19373 1.01293e-17
7174.34569 1.02243e-17
7175.48763 1.02862e-17
7176.63958 1.03481e-17
7177.78152 1.03773e-17
7178.93347 1.04064e-17
7180.07541 1.03527e-17
7181.22737 1.02989e-17
7182.36931 1.02304e-17
7183.52126 1.01618e-17
7184.66320 9.98462e-18
7185.81515 9.80737e-18
7186.95709 9.56942e-18
7188.10905 9.33171e-18
7189.25099 9.38781e-18
7190.40294 9.44400e-18
7191.54488 9.63134e-18
7192.69683 9.81844e-18
7193.83877 9.69384e-18
7194.98071 9.56924e-18
7196.13266 9.42439e-18
7197.27460 9.27961e-18
7198.42656 9.21290e-18
7199.56850 9.14622e-18
7200.72045 9.11400e-18
7201.86239 9.08173e-18
7203.01434 8.95207e-18
7204.15628 8.82257e-18
7205.30824 8.88466e-18
7206.45017 8.94692e-18
7207.60213 9.24035e-18
7208.74407 9.53368e-18
7209.89602 9.71952e-18
7211.03796 9.90539e-18
7212.18991 1.01564e-17
7213.33185 1.04072e-17
7214.48381 1.05401e-17
7215.62575 1.06728e-17
7216.76768 1.06636e-17
7217.91964 1.06546e-17
7219.06158 1.07717e-17
7220.21353 1.08889e-17
7221.35547 1.09732e-17
7222.50743 1.10576e-17
7223.64936 1.12362e-17
7224.80132 1.14148e-17
7225.94326 1.14957e-17
7227.09521 1.15765e-17
7228.23715 1.15195e-17
7229.38910 1.14626e-17
7230.53104 1.14587e-17
7231.68300 1.14546e-17
7232.82494 1.12410e-17
7233.97689 1.10271e-17
7235.11883 1.05956e-17
7236.27078 1.01644e-17
7237.41272 9.99667e-18
7238.55466 9.82915e-18
7239.70661 9.87821e-18
7240.84855 9.92718e-18
7242.00051 9.87211e-18
7243.14245 9.81694e-18
7244.29440 9.64008e-18
7245.43634 9.46338e-18
7246.58829 9.49273e-18
7247.73023 9.52219e-18
7248.88219 9.71313e-18
7250.02412 9.90390e-18
7251.17608 9.89213e-18
7252.31802 9.88061e-18
7253.46997 1.01988e-17
7254.61191 1.05168e-17
7255.76386 1.06392e-17
7256.90580 1.07616e-17
7258.05776 1.07930e-17
7259.19970 1.08245e-17
7260.34163 1.09311e-17
7261.49359 1.10374e-17
7262.63553 1.09058e-17
7263.78748 1.07742e-17
7264.92942 1.05812e-17
7266.08138 1.03884e-17
7267.22331 1.04933e-17
7268.37527 1.05981e-17
7269.51721 1.06507e-17
7270.66916 1.07031e-17
7271.81110 1.05407e-17
7272.96305 1.03781e-17
7274.10499 1.00636e-17
7275.25695 9.74909e-18
7276.39889 9.55702e-18
7277.55084 9.36513e-18
7278.69278 9.40891e-18
7279.84473 9.45281e-18
7280.98667 9.65363e-18
7282.12861 9.85436e-18
7283.28056 9.93586e-18
7284.42250 1.00172e-17
7285.57446 9.88325e-18
7286.71640 9.74956e-18
7287.86835 9.97739e-18
7289.01029 1.02051e-17
7290.16224 1.03275e-17
7291.30418 1.04497e-17
7292.45614 1.04310e-17
7293.59807 1.04124e-17
7294.75003 1.04966e-17
7295.89197 1.05807e-17
7297.04392 1.06373e-17
7298.18586 1.06939e-17
7299.33781 1.09012e-17
7300.47975 1.11083e-17
7301.63171 1.09590e-17
7302.77365 1.08099e-17
7303.91558 1.07933e-17
7305.06754 1.07767e-17
7306.20948 1.06183e-17
7307.36143 1.04599e-17
7308.50337 1.02660e-17
7309.65533 1.00722e-17
7310.79726 1.00576e-17
7311.94922 1.00428e-17
7313.09116 9.90364e-18
7314.24311 9.76440e-18
7315.38505 9.53839e-18
7316.53700 9.31254e-18
7317.67894 9.28794e-18
7318.83090 9.26338e-18
7319.97284 9.29506e-18
7321.12479 9.32672e-18
7322.26673 9.33296e-18
7323.41868 9.33917e-18
7324.56062 9.29811e-18
7325.71258 9.25720e-18
7326.85451 9.42033e-18
7327.99645 9.58346e-18
7329.14841 9.74679e-18
7330.29035 9.91007e-18
7331.44230 1.00191e-17
7332.58424 1.01279e-17
7333.73619 1.00454e-17
7334.87813 9.96300e-18
7336.03009 9.96352e-18
7337.17202 9.96423e-18
7338.32398 1.02389e-17
7339.46592 1.05133e-17
7340.61787 1.04690e-17
7341.75981 1.04247e-17
7342.91176 1.04416e-17
7344.05370 1.04586e-17
7345.20566 1.04991e-17
7346.34760 1.05394e-17
7347.49955 1.03269e-17
7348.64149 1.01145e-17
7349.78343 9.86898e-18
7350.93538 9.62351e-18
7352.07732 9.39837e-18
7353.22928 9.17346e-18
7354.37121 9.25362e-18
7355.52317 9.33366e-18
7356.66511 9.27875e-18
7357.81706 9.22376e-18
7358.95900 9.08029e-18
7360.11095 8.93696e-18
7361.25289 8.98202e-18
7362.40485 9.02713e-18
7363.54679 9.15559e-18
7364.69874 9.28397e-18
7365.84068 9.31658e-18
7366.99263 9.34910e-18
7368.13457 9.28100e-18
7369.28653 9.21306e-18
7370.42846 9.36483e-18
7371.57040 9.51655e-18
7372.72236 9.62517e-18
7373.86430 9.73376e-18
7375.01625 9.79473e-18
7376.15819 9.85578e-18
7377.31014 1.00172e-17
7378.45208 1.01787e-17
7379.60404 1.03086e-17
7380.74597 1.04385e-17
7381.89793 1.05747e-17
7383.03987 1.07109e-17
7384.19182 1.07592e-17
7385.33376 1.08075e-17
7386.48571 1.07488e-17
7387.62765 1.06901e-17
7388.77961 1.06906e-17
7389.92155 1.06910e-17
7391.07350 1.07304e-17
7392.21544 1.07696e-17
7393.36739 1.05922e-17
7394.50933 1.04149e-17
7395.65127 1.02876e-17
7396.80323 1.01603e-17
7397.94516 1.00027e-17
7399.09712 9.84510e-18
7400.23906 9.69055e-18
7401.39101 9.53606e-18
7402.53295 9.44196e-18
7403.68490 9.34792e-18
7404.82684 9.32342e-18
7405.97880 9.29892e-18
7407.12074 9.25608e-18
7408.27269 9.21329e-18
7409.41463 9.21694e-18
7410.56658 9.22065e-18
7411.70852 9.30776e-18
7412.86048 9.39483e-18
7414.00241 9.43867e-18
7415.15437 9.48256e-18
7416.29631 9.60831e-18
7417.43825 9.73409e-18
7418.59020 9.89292e-18
7419.73214 1.00517e-17
7420.88409 1.01338e-17
7422.02603 1.02159e-17
7423.17799 1.03470e-17
7424.31992 1.04781e-17
7425.47188 1.06677e-17
7426.61382 1.08571e-17
7427.76577 1.09175e-17
7428.90771 1.09777e-17
7430.05966 1.09442e-17
7431.20160 1.09107e-17
7432.35356 1.08005e-17
7433.49550 1.06902e-17
7434.64745 1.04602e-17
7435.78939 1.02303e-17
7436.94134 1.00655e-17
7438.08328 9.90075e-18
7439.22522 9.65030e-18
7440.37718 9.39993e-18
7441.51911 9.25606e-18
7442.67107 9.11224e-18
7443.81301 9.03648e-18
7444.96496 8.96071e-18
7446.10690 8.85330e-18
7447.25885 8.74588e-18
7448.40079 8.61303e-18
7449.55275 8.48030e-18
7450.69469 8.49023e-18
7451.84664 8.50015e-18
7452.98858 8.49621e-18
7454.14053 8.49246e-18
7455.28247 8.73892e-18
7456.43443 8.98532e-18
7457.57636 9.18436e-18
7458.72832 9.38338e-18
7459.87026 9.58959e-18
7461.02221 9.79567e-18
7462.16415 9.85241e-18
7463.31610 9.90916e-18
7464.45804 9.97984e-18
7465.59998 1.00505e-17
7466.75194 1.01256e-17
7467.89387 1.02008e-17
7469.04583 1.03870e-17
7470.18777 1.05731e-17
7471.33972 1.06595e-17
7472.48166 1.07456e-17
7473.63361 1.05509e-17
7474.77555 1.03564e-17
7475.92751 1.03440e-17
7477.06945 1.03317e-17
7478.22140 1.03609e-17
7479.36334 1.03899e-17
7480.51529 1.00748e-17
7481.65723 9.75957e-18
7482.80919 9.39025e-18
7483.95113 9.02109e-18
7485.10308 8.83753e-18
7486.24502 8.65397e-18
7487.38696 8.45156e-18
7488.53891 8.24922e-18
7489.68085 8.11960e-18
7490.83280 7.99007e-18
7491.97474 7.96927e-18
7493.12670 7.94843e-18
7494.26864 7.88219e-18
7495.42059 7.81601e-18
7496.56253 7.82111e-18
7497.71448 7.82634e-18
7498.85642 7.98638e-18
7500.00838 8.14644e-18
7501.15031 8.34700e-18
7502.30227 8.54747e-18
7503.44421 8.64292e-18
7504.59616 8.73832e-18
7505.73810 8.77036e-18
7506.88004 8.80238e-18
7508.03199 8.80230e-18
7509.17393 8.80215e-18
7510.32589 8.71096e-18
7511.46782 8.61986e-18
7512.61978 8.62706e-18
7513.76172 8.63420e-18
7514.91367 8.56697e-18
7516.05561 8.49950e-18
7517.20756 8.11613e-18
7518.34950 7.73280e-18
7519.50146 7.38629e-18
7520.64340 7.03979e-18
7521.79535 6.69422e-18
7522.93729 6.34867e-18
7524.08924 6.00386e-18
7525.23118 5.65922e-18
7526.38314 5.52109e-18
7527.52508 5.38303e-18
7528.67703 5.34114e-18
7529.81897 5.29927e-18
7530.96091 5.27895e-18
7532.11286 5.25873e-18
7533.25480 5.34998e-18
7534.40675 5.44124e-18
7535.54869 5.53632e-18
7536.70065 5.63136e-18
7537.84259 5.67301e-18
7538.99454 5.71465e-18
7540.13648 5.74801e-18
7541.28843 5.78138e-18
7542.43037 5.83889e-18
7543.58233 5.89640e-18
7544.72426 5.96505e-18
7545.87622 6.03365e-18
7547.01816 6.05365e-18
7548.17011 6.07367e-18
7549.31205 6.11481e-18
7550.46400 6.15592e-18
7551.60594 6.15810e-18
7552.74788 6.16024e-18
7553.89984 6.11797e-18
7555.04177 6.07581e-18
7556.19373 6.18023e-18
7557.33567 6.28436e-18
7558.48762 6.03374e-18
7559.62956 5.78310e-18
7560.78151 5.49210e-18
7561.92345 5.20125e-18
7563.07541 5.08209e-18
7564.21735 4.96289e-18
7565.36930 4.80332e-18
7566.51124 4.64379e-18
7567.66319 4.51547e-18
7568.80513 4.38717e-18
7569.95709 4.26998e-18
7571.09903 4.15288e-18
7572.25098 4.13577e-18
7573.39292 4.11867e-18
7574.53486 4.10996e-18
7575.68681 4.10133e-18
7576.82875 4.19378e-18
7577.98070 4.28628e-18
7579.12264 4.44541e-18
7580.27460 4.60454e-18
7581.41654 4.77730e-18
7582.56849 4.95005e-18
7583.71043 5.11914e-18
7584.86238 5.28825e-18
7586.00432 5.48745e-18
7587.15628 5.68663e-18
7588.29821 5.88014e-18
7589.45017 6.07371e-18
7590.59211 6.35705e-18
7591.74406 6.64039e-18
7592.88600 6.93939e-18
7594.03795 7.23775e-18
7595.17989 6.74942e-18
7596.33185 6.26086e-18
7597.47379 5.43897e-18
7598.61572 4.61737e-18
7599.76768 4.09205e-18
7600.90962 3.56721e-18
7602.06157 3.60409e-18
7603.20351 3.64092e-18
7604.35546 3.63014e-18
7605.49740 3.61936e-18
7606.64936 3.60774e-18
7607.79130 3.59626e-18
7608.94325 3.76103e-18
7610.08519 3.92563e-18
7611.23714 3.88614e-18
7612.37908 3.84668e-18
7613.53104 3.85000e-18
7614.67298 3.85345e-18
7615.82493 4.01805e-18
7616.96687 4.18270e-18
7618.11882 4.41925e-18
7619.26076 4.65574e-18
7620.40270 4.84221e-18
7621.55465 5.02843e-18
7622.69659 4.90760e-18
7623.84855 4.78680e-18
7624.99049 4.69104e-18
7626.14244 4.59545e-18
7627.28438 4.69013e-18
7628.43633 4.78488e-18
7629.57827 4.97017e-18
7630.73023 5.15558e-18
7631.87216 5.49875e-18
7633.02412 5.84171e-18
7634.16606 5.93431e-18
7635.31801 6.02685e-18
7636.45995 6.05306e-18
7637.61190 6.07943e-18
7638.75384 6.29931e-18
7639.90580 6.51902e-18
7641.04774 6.55409e-18
7642.18967 6.58920e-18
7643.34163 6.68321e-18
7644.48357 6.77714e-18
7645.63552 6.77232e-18
7646.77746 6.76754e-18
7647.92942 6.81716e-18
7649.07135 6.86668e-18
7650.22331 6.79668e-18
7651.36525 6.72662e-18
7652.51720 6.57690e-18
7653.65914 6.42737e-18
7654.81109 6.49153e-18
7655.95303 6.55561e-18
7657.10499 6.53335e-18
7658.24693 6.51120e-18
7659.39888 6.60759e-18
7660.54082 6.70399e-18
7661.69277 6.82174e-18
7662.83471 6.93949e-18
7663.98667 7.06054e-18
7665.12860 7.18159e-18
7666.27054 7.30281e-18
7667.42250 7.42408e-18
7668.56444 7.61215e-18
7669.71639 7.80017e-18
7670.85833 7.93742e-18
7672.01028 8.07471e-18
7673.15222 8.25841e-18
7674.30418 8.44204e-18
7675.44611 8.55122e-18
7676.59807 8.66035e-18
7677.74001 8.71322e-18
7678.89196 8.76594e-18
7680.03390 8.63199e-18
7681.18585 8.49809e-18
7682.32779 8.43511e-18
7683.47975 8.37218e-18
7684.62169 8.36193e-18
7685.77364 8.35157e-18
7686.91558 8.21755e-18
7688.05752 8.08354e-18
7689.20947 7.94695e-18
7690.35141 7.81047e-18
7691.50337 7.79649e-18
7692.64530 7.78248e-18
7693.79726 7.73814e-18
7694.93920 7.69373e-18
7696.09115 7.56232e-18
7697.23309 7.43103e-18
7698.38504 7.43531e-18
7699.52698 7.43974e-18
7700.67894 7.62412e-18
7701.82088 7.80837e-18
7702.97283 7.84857e-18
7704.11477 7.88867e-18
7705.26672 7.83349e-18
7706.40866 7.77853e-18
7707.56062 7.98306e-18
7708.70255 8.18746e-18
7709.84449 8.24190e-18
7710.99645 8.29649e-18
7712.13839 8.55069e-18
7713.29034 8.80479e-18
7714.43228 8.95633e-18
7715.58423 9.10770e-18
7716.72617 9.06249e-18
7717.87813 9.01726e-18
7719.02006 8.94915e-18
7720.17202 8.88105e-18
7721.31396 8.82129e-18
7722.46591 8.76142e-18
7723.60785 8.57079e-18
7724.75980 8.38030e-18
7725.90174 8.34003e-18
7727.05370 8.29959e-18
7728.19564 8.04051e-18
7729.34759 7.78154e-18
7730.48953 7.63537e-18
7731.63147 7.48926e-18
7732.78342 7.41711e-18
7733.92536 7.34513e-18
7735.07732 7.46913e-18
7736.21925 7.59321e-18
7737.37121 7.81503e-18
7738.51315 8.03682e-18
7739.66510 8.25237e-18
7740.80704 8.46781e-18
7741.95899 8.57733e-18
7743.10093 8.68672e-18
7744.25289 8.65794e-18
7745.39483 8.62920e-18
7746.54678 8.64594e-18
7747.68872 8.66279e-18
7748.84067 8.81222e-18
7749.98261 8.96141e-18
7751.13457 8.82900e-18
7752.27650 8.69668e-18
7753.41844 8.66639e-18
7754.57040 8.63615e-18
7755.71234 8.66480e-18
7756.86429 8.69326e-18
7758.00623 8.50160e-18
7759.15818 8.30997e-18
7760.30012 8.13528e-18
7761.45208 7.96070e-18
7762.59401 7.90525e-18
7763.74597 7.84982e-18
7764.88791 7.80165e-18
7766.03986 7.75348e-18
7767.18180 7.68501e-18
7768.33375 7.61655e-18
7769.47569 7.56674e-18
7770.62765 7.51702e-18
7771.76959 7.57625e-18
7772.92154 7.63555e-18
7774.06348 7.77873e-18
7775.20542 7.92197e-18
7776.35737 8.16001e-18
7777.49931 8.39792e-18
7778.65127 8.49875e-18
7779.79320 8.59956e-18
7780.94516 8.68572e-18
7782.08710 8.77184e-18
7783.23905 8.81969e-18
7784.38099 8.86758e-18
7785.53294 8.98275e-18
7786.67488 9.09786e-18
7787.82684 9.16654e-18
7788.96878 9.23492e-18
7790.12073 8.95569e-18
7791.26267 8.67649e-18
7792.41462 8.40629e-18
7793.55656 8.13612e-18
7794.70852 7.89046e-18
7795.85045 7.64497e-18
7796.99239 7.59794e-18
7798.14435 7.55106e-18
7799.28629 7.68803e-18
7800.43824 7.82491e-18
7801.58018 7.85968e-18
7802.73213 7.89410e-18
7803.87407 7.51938e-18
7804.70548 7.51938e-18
7805.56694 7.53648e-18
7806.42841 7.54441e-18
7807.29989 7.55234e-18
7808.16135 7.55193e-18
7809.02281 7.55151e-18
7809.88427 7.54412e-18
7810.74573 7.53666e-18
7811.60720 7.52376e-18
7812.46866 7.51080e-18
7813.33012 7.49470e-18
7814.19158 7.47861e-18
7815.05304 7.46227e-18
7815.91450 7.44594e-18
7816.78598 7.43209e-18
7817.64745 7.41824e-18
7818.50891 7.41020e-18
7819.37037 7.40215e-18
7820.23183 7.40250e-18
7821.09329 7.40292e-18
7821.95476 7.40570e-18
7822.81622 7.40854e-18
7823.67768 7.40475e-18
7824.53914 7.40096e-18
7825.40060 7.38948e-18
7826.27208 7.37794e-18
7827.13355 7.36149e-18
7827.99501 7.34510e-18
7828.85647 7.32598e-18
7829.71793 7.30693e-18
7830.57939 7.28752e-18
7831.44085 7.26811e-18
7832.30232 7.24988e-18
7833.16378 7.23165e-18
7834.02524 7.21461e-18
7834.88670 7.19757e-18
7835.75818 7.18330e-18
7836.61964 7.16904e-18
7837.48111 7.16200e-18
7838.34257 7.15496e-18
7839.20403 7.15632e-18
7840.06549 7.15762e-18
7840.92695 7.16235e-18
7841.78842 7.16709e-18
7842.64988 7.17088e-18
7843.51134 7.17466e-18
7844.37280 7.17549e-18
7845.23426 7.17638e-18
7846.10574 7.17312e-18
7846.96720 7.16993e-18
7847.82867 7.16425e-18
7848.69013 7.15857e-18
7849.55159 7.15247e-18
7850.41305 7.14638e-18
7851.27452 7.14117e-18
7852.13598 7.13590e-18
7852.99744 7.13241e-18
7853.85890 7.12892e-18
7854.72036 7.12785e-18
7855.59184 7.12679e-18
7856.45330 7.12850e-18
7857.31477 7.13028e-18
7858.17623 7.13211e-18
7859.03769 7.13395e-18
7859.89915 7.13158e-18
7860.76061 7.12921e-18
7861.62208 7.12294e-18
7862.48354 7.11667e-18
7863.34500 7.10998e-18
7864.20646 7.10329e-18
7865.07794 7.09436e-18
7865.93940 7.08548e-18
7866.80087 7.06844e-18
7867.66233 7.05145e-18
7868.52379 7.02571e-18
7869.38525 7.00003e-18
7870.24671 6.97050e-18
7871.10818 6.94091e-18
7871.96964 6.91439e-18
7872.83110 6.88782e-18
7873.69256 6.87540e-18
7874.56404 6.86309e-18
7875.42550 6.86918e-18
7876.28696 6.87534e-18
7877.14843 6.88741e-18
7878.00989 6.89948e-18
7878.87135 6.90593e-18
7879.73281 6.91244e-18
7880.59427 6.90978e-18
7881.45574 6.90712e-18
7882.31720 6.89345e-18
7883.17866 6.87972e-18
7884.05014 6.85983e-18
7884.91160 6.83995e-18
7885.77306 6.81989e-18
7886.63453 6.79988e-18
7887.49599 6.77923e-18
7888.35745 6.75852e-18
7889.21891 6.73579e-18
7890.08037 6.71307e-18
7890.94184 6.68952e-18
7891.80330 6.66602e-18
7892.66476 6.64312e-18
7893.52622 6.62028e-18
7894.39770 6.60400e-18
7895.25916 6.58773e-18
7896.12062 6.58631e-18
7896.98209 6.58483e-18
7897.84355 6.59353e-18
7898.70501 6.60217e-18
7899.56647 6.60726e-18
7900.42793 6.61235e-18
7901.28940 6.60785e-18
7902.15086 6.60335e-18
7903.01232 6.59075e-18
7903.88380 6.57808e-18
7904.74526 6.56122e-18
7905.60672 6.54441e-18
7906.46819 6.53210e-18
7907.32965 6.51985e-18
7908.19111 6.51559e-18
7909.05257 6.51133e-18
7909.91403 6.50523e-18
7910.77550 6.49914e-18
7911.63696 6.48535e-18
7912.49842 6.47156e-18
7913.36990 6.45712e-18
7914.23136 6.44262e-18
7915.09282 6.43339e-18
7915.95428 6.42416e-18
7916.81575 6.42055e-18
7917.67721 6.41694e-18
7918.53867 6.41818e-18
7919.40013 6.41942e-18
7920.26159 6.41682e-18
7921.12306 6.41427e-18
7921.98452 6.39912e-18
7922.85600 6.38392e-18
7923.71746 6.36155e-18
7924.57892 6.33918e-18
7925.44038 6.31900e-18
7926.30185 6.29876e-18
7927.16331 6.28621e-18
7928.02477 6.27367e-18
7928.88623 6.27242e-18
7929.74769 6.27124e-18
7930.60916 6.27905e-18
7931.47062 6.28686e-18
7932.34210 6.29728e-18
7933.20356 6.30775e-18
7934.06502 6.31527e-18
7934.92648 6.32278e-18
7935.78794 6.32278e-18
7936.64941 6.32284e-18
7937.51087 6.31302e-18
7938.37233 6.30314e-18
7939.23379 6.28396e-18
7940.09525 6.26473e-18
7940.95672 6.23899e-18
7941.81818 6.21324e-18
7942.68966 6.18738e-18
7943.55112 6.16152e-18
7944.41258 6.14057e-18
7945.27404 6.11962e-18
7946.13551 6.10447e-18
7946.99697 6.08932e-18
7947.85843 6.07991e-18
7948.71989 6.07045e-18
7949.58135 6.06500e-18
7950.44282 6.05956e-18
7951.30428 6.05565e-18
7952.17576 6.05175e-18
7953.03722 6.04417e-18
7953.89868 6.03660e-18
7954.76014 6.02085e-18
7955.62160 6.00511e-18
7956.48307 5.98777e-18
7957.34453 5.97037e-18
7958.20599 5.95996e-18
7959.06745 5.94960e-18
7959.92891 5.94676e-18
7960.79038 5.94392e-18
7961.66186 5.94682e-18
7962.52332 5.94966e-18
7963.38478 5.95374e-18
7964.24624 5.95783e-18
7965.10770 5.95659e-18
7965.96917 5.95528e-18
7966.83063 5.95244e-18
7967.69209 5.94954e-18
7968.55355 5.95588e-18
7969.41501 5.96227e-18
7970.27648 5.98032e-18
7971.14795 5.99842e-18
7972.00942 6.02275e-18
7972.87088 6.04707e-18
7973.73234 6.07033e-18
7974.59380 6.09364e-18
7975.45526 6.10524e-18
7976.31673 6.11684e-18
7977.17819 6.11223e-18
7978.03965 6.10761e-18
7978.90111 6.09548e-18
7979.76257 6.08335e-18
7980.63405 6.07127e-18
7981.49552 6.05926e-18
7982.35698 6.04914e-18
7983.21844 6.03902e-18
7984.07990 6.03204e-18
7984.94136 6.02506e-18
7985.80283 6.01866e-18
7986.66429 6.01233e-18
7987.52575 6.00387e-18
7988.38721 5.99535e-18
7989.24867 5.98588e-18
7990.11014 5.97641e-18
7990.98161 5.96736e-18
7991.84308 5.95830e-18
7992.70454 5.95244e-18
7993.56600 5.94658e-18
7994.42746 5.94712e-18
7995.28892 5.94771e-18
7996.15039 5.94830e-18
7997.01185 5.94889e-18
7997.87331 5.93942e-18
7998.73477 5.92996e-18
7999.59623 5.91165e-18
8000.46771 5.89335e-18
8001.32917 5.87387e-18
8002.19064 5.85438e-18
8003.05210 5.83949e-18
8003.91356 5.82461e-18
8004.77502 5.81924e-18
8005.63649 5.81391e-18
8006.49795 5.81680e-18
8007.35941 5.81971e-18
8008.22087 5.82079e-18
8009.08233 5.82186e-18
8009.95381 5.81782e-18
8010.81527 5.81378e-18
8011.67674 5.81428e-18
8012.53820 5.81478e-18
8013.39966 5.82450e-18
8014.26112 5.83423e-18
8015.12258 5.84638e-18
8015.98405 5.85853e-18
8016.84551 5.86663e-18
8017.70697 5.87473e-18
8018.56843 5.87222e-18
8019.43991 5.86969e-18
8020.30137 5.85253e-18
8021.16284 5.83535e-18
8022.02430 5.81441e-18
8022.88576 5.79347e-18
8023.74722 5.78078e-18
8024.60868 5.76812e-18
8025.47015 5.76332e-18
8026.33161 5.75854e-18
8027.19307 5.75844e-18
8028.05453 5.75834e-18
8028.92601 5.75896e-18
8029.78747 5.75959e-18
8030.64893 5.75637e-18
8031.51040 5.75313e-18
8032.37186 5.74651e-18
8033.23332 5.73988e-18
8034.09478 5.73306e-18
8034.95624 5.72625e-18
8035.81771 5.72130e-18
8036.67917 5.71635e-18
8037.54063 5.71449e-18
8038.41211 5.71264e-18
8039.27357 5.71433e-18
8040.13503 5.71601e-18
8040.99650 5.72070e-18
8041.85796 5.72539e-18
8042.71942 5.73151e-18
8043.58088 5.73764e-18
8044.44234 5.74245e-18
8045.30380 5.74726e-18
8046.16527 5.74869e-18
8047.02673 5.75010e-18
8047.88819 5.74718e-18
8048.75967 5.74423e-18
8049.62113 5.73746e-18
8050.48259 5.73068e-18
8051.34406 5.72507e-18
8052.20552 5.71946e-18
8053.06698 5.71875e-18
8053.92844 5.71806e-18
8054.78990 5.71941e-18
8055.65137 5.72078e-18
8056.51283 5.72062e-18
8057.37429 5.72046e-18
8058.24577 5.71453e-18
8059.10723 5.70857e-18
8059.96869 5.69322e-18
8060.83015 5.67785e-18
8061.69162 5.65605e-18
8062.55308 5.63422e-18
8063.41454 5.61098e-18
8064.27600 5.58774e-18
8065.13746 5.56879e-18
8065.99893 5.54984e-18
8066.86039 5.54075e-18
8067.73187 5.53169e-18
8068.59333 5.53281e-18
8069.45479 5.53394e-18
8070.31625 5.54225e-18
8071.17772 5.55057e-18
8072.03918 5.56012e-18
8072.90064 5.56967e-18
8073.76210 5.57196e-18
8074.62356 5.57422e-18
8075.48503 5.56609e-18
8076.34649 5.55795e-18
8077.21797 5.54347e-18
8078.07943 5.52898e-18
8078.94089 5.51070e-18
8079.80235 5.49240e-18
8080.66381 5.46982e-18
8081.52528 5.44723e-18
8082.38674 5.42072e-18
8083.24820 5.39419e-18
8084.10966 5.36486e-18
8084.97113 5.33552e-18
8085.83259 5.30468e-18
8086.70407 5.27384e-18
8087.56553 5.24346e-18
8088.42699 5.21308e-18
8089.28845 5.18499e-18
8090.14991 5.15690e-18
8091.01138 5.13276e-18
8091.87284 5.10862e-18
8092.73430 5.08931e-18
8093.59576 5.07000e-18
8094.45722 5.05514e-18
8095.31869 5.04030e-18
8096.18015 5.02871e-18
8097.05163 5.01713e-18
8097.91309 5.00235e-18
8098.77455 4.98757e-18
8099.63601 4.96195e-18
8100.49748 4.93630e-18
8101.35894 4.89742e-18
8102.22040 4.85850e-18
8103.08186 4.80686e-18
8103.94332 4.75518e-18
8104.80479 4.69702e-18
8105.67626 4.63884e-18
8106.53773 4.58432e-18
8107.39919 4.52980e-18
8108.26065 4.48523e-18
8109.12211 4.44069e-18
8109.98357 4.40823e-18
8110.84504 4.37579e-18
8111.70650 4.35260e-18
8112.56796 4.32941e-18
8113.42942 4.30553e-18
8114.29088 4.28164e-18
8115.15235 4.24903e-18
8116.02383 4.21641e-18
8116.88529 4.17167e-18
8117.74675 4.12690e-18
8118.60821 4.06938e-18
8119.46967 4.01183e-18
8120.33114 3.94982e-18
8121.19260 3.88781e-18
8122.05406 3.82796e-18
8122.91552 3.76812e-18
8123.77698 3.70302e-18
8124.63845 3.63791e-18
8125.49991 3.56070e-18
8126.37139 3.48346e-18
8127.23285 3.39782e-18
8128.09431 3.31216e-18
8128.95577 3.22349e-18
8129.81723 3.13482e-18
8130.67870 3.05351e-18
8131.54016 2.97223e-18
8132.40162 2.90944e-18
8133.26308 2.84671e-18
8134.12454 2.79646e-18
8134.99602 2.74624e-18
8135.85749 2.69509e-18
8136.71895 2.64393e-18
8137.58041 2.58678e-18
8138.44187 2.52962e-18
8139.30333 2.46629e-18
8140.16480 2.40294e-18
8141.02626 2.33504e-18
8141.88772 2.26712e-18
8142.74918 2.19843e-18
8143.61064 2.12974e-18
8144.47210 2.06400e-18
8145.34358 1.99828e-18
8146.20505 1.93850e-18
8147.06651 1.87873e-18
8147.92797 1.82700e-18
8148.78943 1.77531e-18
8149.65089 1.73230e-18
8150.51236 1.68932e-18
8151.37382 1.65398e-18
8152.23528 1.61865e-18
8153.09674 1.58631e-18
8153.95820 1.55397e-18
8154.82968 1.52085e-18
8155.69115 1.48774e-18
8156.55261 1.45422e-18
8157.41407 1.42069e-18
8158.27553 1.38790e-18
8159.13699 1.35512e-18
8159.99845 1.32585e-18
8160.85992 1.29660e-18
8161.72138 1.27360e-18
8162.58284 1.25061e-18
8163.44430 1.23471e-18
8164.31578 1.21883e-18
8165.17724 1.20988e-18
8166.03871 1.20095e-18
8166.90017 1.19469e-18
8167.76163 1.18844e-18
8168.62309 1.17971e-18
8169.48455 1.17097e-18
8170.34602 1.15545e-18
8171.20748 1.13991e-18
8172.06894 1.11351e-18
8172.93040 1.08709e-18
8173.80188 1.05678e-18
8174.66334 1.02647e-18
8175.52481 1.00732e-18
8176.38627 9.88209e-19
8177.24773 9.83576e-19
8178.10919 9.78978e-19
8178.97065 9.80126e-19
8179.83212 9.81286e-19
8180.69358 9.81564e-19
8181.55504 9.81842e-19
8182.41650 9.77066e-19
8183.28798 9.72284e-19
8184.14944 9.60934e-19
8185.01090 9.49572e-19
8185.87237 9.37280e-19
8186.73383 9.24983e-19
8187.59529 9.15780e-19
8188.45675 9.06578e-19
8189.31821 8.97352e-19
8190.17968 8.88120e-19
8191.04114 8.76693e-19
8191.90260 8.65254e-19
8192.77408 8.54276e-19
8193.63554 8.43298e-19
8194.49700 8.35463e-19
8195.35846 8.27634e-19
8196.21993 8.25343e-19
8197.08139 8.23065e-19
8197.94285 8.28137e-19
8198.80431 8.33220e-19
8199.66577 8.41304e-19
8200.52724 8.49394e-19
8201.38870 8.54412e-19
8202.25016 8.59425e-19
8203.12164 8.60194e-19
8203.98310 8.60957e-19
8204.84456 8.58466e-19
8205.70603 8.55968e-19
8206.56749 8.50719e-19
8207.42895 8.45458e-19
8208.29041 8.37872e-19
8209.15187 8.30279e-19
8210.01334 8.21586e-19
8210.87480 8.12892e-19
8211.73626 8.04696e-19
8212.60774 7.96506e-19
8213.46920 7.89487e-19
8214.33066 7.82474e-19
8215.19212 7.76515e-19
8216.05359 7.70562e-19
8216.91505 7.63774e-19
8217.77651 7.56986e-19
8218.63797 7.44126e-19
8219.49943 7.31249e-19
8220.36090 7.10306e-19
8221.22236 6.89345e-19
8222.08382 6.65685e-19
8222.95530 6.42019e-19
8223.81676 6.21632e-19
8224.67822 6.01251e-19
8225.53969 5.91641e-19
8226.40115 5.82059e-19
8227.26261 5.88645e-19
8228.12407 5.95268e-19
8228.98553 6.13004e-19
8229.84700 6.30763e-19
8230.70846 6.52636e-19
8231.57994 6.74520e-19
8232.44140 6.93718e-19
8233.30286 7.12915e-19
8234.16432 7.23112e-19
8235.02578 7.33291e-19
8235.88725 7.36587e-19
8236.74871 7.39860e-19
8237.61017 7.41528e-19
8238.47163 7.43197e-19
8239.33309 7.46920e-19
8240.19456 7.50648e-19
8241.06604 7.59489e-19
8241.92750 7.68342e-19
8242.78896 7.80510e-19
8243.65042 7.92683e-19
8244.51188 8.02648e-19
8245.37335 8.12614e-19
8246.23481 8.17668e-19
8247.09627 8.22710e-19
8247.95773 8.23154e-19
8248.81919 8.23586e-19
8249.68066 8.20526e-19
8250.54212 8.17461e-19
8251.41360 8.13354e-19
8252.27506 8.09241e-19
8253.13652 8.06377e-19
8253.99798 8.03518e-19
8254.85945 8.03287e-19
8255.72091 8.03069e-19
8256.58237 8.06258e-19
8257.44383 8.09460e-19
8258.30529 8.15526e-19
8259.16676 8.21597e-19
8260.02822 8.29373e-19
8260.89970 8.37156e-19
8261.76116 8.44488e-19
8262.62262 8.51826e-19
8263.48408 8.56602e-19
8264.34554 8.61371e-19
8265.20701 8.61685e-19
8266.06847 8.61987e-19
8266.92993 8.56584e-19
8267.79139 8.51169e-19
8268.65285 8.42925e-19
8269.52433 8.34670e-19
8270.38580 8.27574e-19
8271.24726 8.20485e-19
8272.10872 8.17218e-19
8272.97018 8.13963e-19
8273.83164 8.16603e-19
8274.69311 8.19254e-19
8275.55457 8.25728e-19
8276.41603 8.32202e-19
8277.27749 8.37836e-19
8278.13895 8.43464e-19
8279.01043 8.46352e-19
8279.87189 8.49234e-19
8280.73336 8.49826e-19
8281.59482 8.50412e-19
8282.45628 8.50122e-19
8283.31774 8.49826e-19
8284.17920 8.51601e-19
8285.04067 8.53382e-19
8285.90213 8.58347e-19
8286.76359 8.63318e-19
8287.62505 8.68804e-19
8288.48651 8.74290e-19
8289.34798 8.78877e-19
8290.21946 8.83457e-19
8291.08092 8.89274e-19
8291.94238 8.95092e-19
8292.80384 9.03359e-19
8293.66530 9.11626e-19
8294.52677 9.20189e-19
8295.38823 9.28747e-19
8296.24969 9.35599e-19
8297.11115 9.42452e-19
8297.97261 9.46311e-19
8298.83408 9.50163e-19
8299.70555 9.50264e-19
8300.56702 9.50353e-19
8301.42848 9.51235e-19
8302.28994 9.52116e-19
8303.15140 9.59153e-19
8304.01286 9.66201e-19
8304.87433 9.77326e-19
8305.73579 9.88452e-19
8306.59725 9.99187e-19
8307.45871 1.00992e-18
8308.32017 1.01756e-18
8309.18164 1.02518e-18
8310.05312 1.02772e-18
8310.91458 1.03026e-18
8311.77604 1.02983e-18
8312.63750 1.02939e-18
8313.49896 1.03113e-18
8314.36043 1.03286e-18
8315.22189 1.03964e-18
8316.08335 1.04643e-18
8316.94481 1.05883e-18
8317.80627 1.07124e-18
8318.67775 1.08780e-18
8319.53921 1.10437e-18
8320.40068 1.12048e-18
8321.26214 1.13659e-18
8322.12360 1.14895e-18
8322.98506 1.16130e-18
8323.84652 1.16987e-18
8324.70799 1.17843e-18
8325.56945 1.18364e-18
8326.43091 1.18885e-18
8327.29237 1.19198e-18
8328.16385 1.19511e-18
8329.02531 1.19777e-18
8329.88678 1.20042e-18
8330.74824 1.20351e-18
8331.60970 1.20660e-18
8332.47116 1.21104e-18
8333.33262 1.21547e-18
8334.19408 1.22347e-18
8335.05555 1.23149e-18
8335.91701 1.24491e-18
8336.77847 1.25834e-18
8337.64995 1.27574e-18
8338.51141 1.29314e-18
8339.37287 1.31203e-18
8340.23434 1.33093e-18
8341.09580 1.34790e-18
8341.95726 1.36488e-18
8342.81872 1.37626e-18
8343.68018 1.38763e-18
8344.54165 1.39349e-18
8345.40311 1.39934e-18
8346.26457 1.40227e-18
8347.12603 1.40518e-18
8347.99751 1.40728e-18
8348.85897 1.40938e-18
8349.72043 1.41221e-18
8350.58190 1.41505e-18
8351.44336 1.42045e-18
8352.30482 1.42586e-18
8353.16628 1.43576e-18
8354.02775 1.44566e-18
8354.88921 1.46028e-18
8355.75067 1.47491e-18
8356.62215 1.49186e-18
8357.48361 1.50882e-18
8358.34507 1.52572e-18
8359.20653 1.54262e-18
8360.06800 1.55740e-18
8360.92946 1.57217e-18
8361.79092 1.58358e-18
8362.65238 1.59499e-18
8363.51384 1.60518e-18
8364.37531 1.61537e-18
8365.23677 1.62646e-18
8366.10825 1.63756e-18
8366.96971 1.64817e-18
8367.83117 1.65877e-18
8368.69263 1.66743e-18
8369.55410 1.67610e-18
8370.41556 1.68423e-18
8371.27702 1.69237e-18
8372.13848 1.70192e-18
8372.99994 1.71147e-18
8373.86140 1.72349e-18
8374.72287 1.73553e-18
8375.59435 1.75072e-18
8376.45581 1.76591e-18
8377.31727 1.78412e-18
8378.17873 1.80233e-18
8379.04019 1.82284e-18
8379.90166 1.84337e-18
8380.76312 1.86508e-18
8381.62458 1.88679e-18
8382.48604 1.90838e-18
8383.34750 1.92996e-18
8384.20897 1.95032e-18
8385.07043 1.97067e-18
8385.94191 1.98881e-18
8386.80337 2.00694e-18
8387.66483 2.02344e-18
8388.52629 2.03995e-18
8389.38775 2.05803e-18
8390.24922 2.07612e-18
8391.11068 2.09669e-18
8391.97214 2.11725e-18
8392.83360 2.13616e-18
8393.69507 2.15507e-18
8394.55653 2.16935e-18
8395.41799 2.18363e-18
8396.28947 2.19322e-18
8397.15093 2.20280e-18
8398.01239 2.20888e-18
8398.87385 2.21495e-18
8399.73532 2.22425e-18
8400.59678 2.23356e-18
8401.45824 2.25222e-18
8402.31970 2.27089e-18
8403.18116 2.29692e-18
8404.04263 2.32296e-18
8404.90409 2.35261e-18
8405.77557 2.38226e-18
8406.63703 2.41137e-18
8407.49849 2.44048e-18
8408.35995 2.46477e-18
8409.22142 2.48906e-18
8410.08288 2.50855e-18
8410.94434 2.52803e-18
8411.80580 2.54491e-18
8412.66726 2.56178e-18
8413.52873 2.57756e-18
8414.39019 2.59333e-18
8415.26167 2.60922e-18
8416.12313 2.62513e-18
8416.98459 2.64244e-18
8417.84605 2.65976e-18
8418.70751 2.67957e-18
8419.56898 2.69938e-18
8420.43044 2.72208e-18
8421.29190 2.74480e-18
8422.15336 2.77031e-18
8423.01482 2.79583e-18
8423.87629 2.82279e-18
8424.74777 2.84977e-18
8425.60923 2.87446e-18
8426.47069 2.89915e-18
8427.33215 2.92004e-18
8428.19361 2.94093e-18
8429.05508 2.96225e-18
8429.91654 2.98357e-18
8430.77800 3.00873e-18
8431.63946 3.03391e-18
8432.50092 3.06330e-18
8433.36239 3.09269e-18
8434.23386 3.12575e-18
8435.09533 3.15882e-18
8435.95679 3.19006e-18
8436.81825 3.22130e-18
8437.67971 3.24531e-18
8438.54117 3.26932e-18
8439.40264 3.28927e-18
8440.26410 3.30920e-18
8441.12556 3.33022e-18
8441.98702 3.35124e-18
8442.84848 3.37484e-18
8443.70995 3.39845e-18
8444.58143 3.42499e-18
8445.44289 3.45153e-18
8446.30435 3.48128e-18
8447.16581 3.51104e-18
8448.02727 3.54393e-18
8448.88874 3.57682e-18
8449.75020 3.61181e-18
8450.61166 3.64681e-18
8451.47312 3.68243e-18
8452.33458 3.71805e-18
8453.20606 3.75258e-18
8454.06752 3.78711e-18
8454.92899 3.81848e-18
8455.79045 3.84985e-18
8456.65191 3.87852e-18
8457.51337 3.90718e-18
8458.37483 3.93758e-18
8459.23630 3.96799e-18
8460.09776 4.00202e-18
8460.95922 4.03605e-18
8461.82068 4.06987e-18
8462.69216 4.10369e-18
8463.55362 4.13460e-18
8464.41508 4.16551e-18
8465.27655 4.19371e-18
8466.13801 4.22191e-18
8466.99947 4.24855e-18
8467.86093 4.27518e-18
8468.72240 4.30590e-18
8469.58386 4.33662e-18
8470.44532 4.37643e-18
8471.30678 4.41625e-18
8472.16824 4.46204e-18
8473.03972 4.50785e-18
8473.90118 4.55514e-18
8474.76265 4.60243e-18
8475.62411 4.64781e-18
8476.48557 4.69318e-18
8477.34703 4.73337e-18
8478.20849 4.77355e-18
8479.06996 4.81242e-18
8479.93142 4.85129e-18
8480.79288 4.89592e-18
8481.65434 4.94057e-18
8482.51580 4.98937e-18
8483.38728 5.03818e-18
8484.24875 5.08458e-18
8485.11021 5.13096e-18
8485.97167 5.17201e-18
8486.83313 5.21305e-18
8487.69459 5.24866e-18
8488.55605 5.28427e-18
8489.41752 5.31635e-18
8490.27898 5.34842e-18
8491.14044 5.38169e-18
8492.00190 5.41498e-18
8492.87338 5.45255e-18
8493.73484 5.49013e-18
8494.59631 5.53116e-18
8495.45777 5.57219e-18
8496.31923 5.61712e-18
8497.18069 5.66207e-18
8498.04215 5.71593e-18
8498.90362 5.76981e-18
8499.76508 5.83449e-18
8500.62654 5.89919e-18
8501.48800 5.96605e-18
8502.35948 6.03293e-18
8503.22094 6.09353e-18
8504.08240 6.15412e-18
8504.94387 6.20673e-18
8505.80533 6.25929e-18
8506.66679 6.30355e-18
8507.52825 6.34776e-18
8508.38972 6.38676e-18
8509.25118 6.42576e-18
8510.11264 6.46369e-18
8510.98412 6.50168e-18
8511.84558 6.54021e-18
8512.70704 6.57873e-18
8513.56850 6.61868e-18
8514.42997 6.65856e-18
8515.29143 6.69975e-18
8516.15289 6.74094e-18
8517.01435 6.78290e-18
8517.87581 6.82486e-18
8518.73728 6.86758e-18
8519.59874 6.91025e-18
8520.46020 6.95387e-18
8521.33168 6.99742e-18
8522.19314 7.04382e-18
8523.05460 7.09016e-18
8523.91607 7.14288e-18
8524.77753 7.19567e-18
8525.63899 7.25598e-18
8526.50045 7.31628e-18
8527.36191 7.38197e-18
8528.22337 7.44760e-18
8529.08484 7.51518e-18
8529.94630 7.58276e-18
8530.80776 7.64661e-18
8531.67924 7.71047e-18
8532.54070 7.76604e-18
8533.40216 7.82155e-18
8534.26363 7.86706e-18
8535.12509 7.91256e-18
8535.98655 7.94849e-18
8536.84801 7.98447e-18
8537.70947 8.01778e-18
8538.57094 8.05110e-18
8539.43240 8.08915e-18
8540.30388 8.12726e-18
8541.16534 8.17496e-18
8542.02680 8.22266e-18
8542.88826 8.28291e-18
8543.74972 8.34321e-18
8544.61119 8.41203e-18
8545.47265 8.48086e-18
8546.33411 8.55193e-18
8547.19557 8.62295e-18
8548.05703 8.68532e-18
8548.91850 8.74764e-18
8549.78998 8.78924e-18
8550.65144 8.83084e-18
8551.51290 8.85280e-18
8552.37436 8.87469e-18
8553.23582 8.88606e-18
8554.09729 8.89742e-18
8554.95875 8.91050e-18
8555.82021 8.92363e-18
8556.68167 8.95299e-18
8557.54313 8.98240e-18
8558.40460 9.03465e-18
8559.27607 9.08691e-18
8560.13754 9.15798e-18
8560.99900 9.22906e-18
8561.86046 9.31120e-18
8562.72192 9.39334e-18
8563.58338 9.47382e-18
8564.44485 9.55436e-18
8565.30631 9.62159e-18
8566.16777 9.68876e-18
8567.02923 9.73498e-18
8567.89070 9.78114e-18
8568.75216 9.80268e-18
8569.62364 9.82422e-18
8570.48510 9.82718e-18
8571.34656 9.83014e-18
8572.20802 9.82333e-18
8573.06948 9.81647e-18
8573.93095 9.80954e-18
8574.79241 9.80262e-18
8575.65387 9.80493e-18
8576.51533 9.80729e-18
8577.37679 9.82866e-18
8578.23826 9.85008e-18
8579.09972 9.89790e-18
8579.97120 9.94577e-18
8580.83266 1.00107e-17
8581.69412 1.00758e-17
8582.55558 1.01425e-17
8583.41705 1.02092e-17
8584.27851 1.02651e-17
8585.13997 1.03211e-17
8586.00143 1.03561e-17
8586.86289 1.03912e-17
8587.72436 1.04039e-17
8588.58582 1.04166e-17
8589.45730 1.04127e-17
8590.31876 1.04087e-17
8591.18022 1.03968e-17
8592.04168 1.03850e-17
8592.90314 1.03771e-17
8593.76461 1.03691e-17
8594.62607 1.03717e-17
8595.48753 1.03743e-17
8596.34899 1.03848e-17
8597.21045 1.03952e-17
8598.07192 1.04119e-17
8598.94340 1.04286e-17
8599.80486 1.04532e-17
8600.66632 1.04779e-17
8601.52778 1.05097e-17
8602.38924 1.05416e-17
8603.25071 1.05756e-17
8604.11217 1.06096e-17
8604.97363 1.06401e-17
8605.83509 1.06707e-17
8606.69655 1.06904e-17
8607.56803 1.07100e-17
8608.42949 1.07127e-17
8609.29096 1.07154e-17
8610.15242 1.07028e-17
8611.01388 1.06902e-17
8611.87534 1.06666e-17
8612.73680 1.06430e-17
8613.59827 1.06133e-17
8614.45973 1.05835e-17
8615.32119 1.05528e-17
8616.18265 1.05220e-17
8617.04411 1.04998e-17
8617.91559 1.04776e-17
8618.77706 1.04745e-17
8619.63852 1.04715e-17
8620.49998 1.04881e-17
8621.36144 1.05047e-17
8622.22290 1.05353e-17
8623.08437 1.05660e-17
8623.94583 1.06025e-17
8624.80729 1.06390e-17
8625.66875 1.06710e-17
8626.53021 1.07030e-17
8627.40169 1.07244e-17
8628.26315 1.07457e-17
8629.12462 1.07562e-17
8629.98608 1.07668e-17
8630.84754 1.07662e-17
8631.70900 1.07657e-17
8632.57046 1.07527e-17
8633.43193 1.07396e-17
8634.29339 1.07159e-17
8635.15485 1.06921e-17
8636.01631 1.06651e-17
8636.88779 1.06381e-17
8637.74925 1.06156e-17
8638.61072 1.05932e-17
8639.47218 1.05842e-17
8640.33364 1.05753e-17
8641.19510 1.05860e-17
8642.05656 1.05967e-17
8642.91803 1.06218e-17
8643.77949 1.06471e-17
8644.64095 1.06789e-17
8645.50241 1.07107e-17
8646.37389 1.07408e-17
8647.23535 1.07709e-17
8648.09681 1.07911e-17
8648.95828 1.08113e-17
8649.81974 1.08186e-17
8650.68120 1.08259e-17
8651.54266 1.08203e-17
8652.40412 1.08147e-17
8653.26559 1.07954e-17
8654.12705 1.07761e-17
8654.98851 1.07425e-17
8655.85999 1.07089e-17
8656.72145 1.06668e-17
8657.58291 1.06247e-17
8658.44438 1.05843e-17
8659.30584 1.05439e-17
8660.16730 1.05121e-17
8661.02876 1.04803e-17
8661.89022 1.04601e-17
8662.75168 1.04400e-17
8663.61315 1.04332e-17
8664.47461 1.04264e-17
8665.33607 1.04323e-17
8666.20755 1.04383e-17
8667.06901 1.04543e-17
8667.93047 1.04703e-17
8668.79194 1.04913e-17
8669.65340 1.05124e-17
8670.51486 1.05317e-17
8671.37632 1.05510e-17
8672.23778 1.05570e-17
8673.09925 1.05629e-17
8673.96071 1.05469e-17
8674.82217 1.05309e-17
8675.68363 1.04955e-17
8676.55511 1.04602e-17
8677.41657 1.04112e-17
8678.27803 1.03620e-17
8679.13950 1.03090e-17
8680.00096 1.02558e-17
8680.86242 1.02091e-17
8681.72388 1.01625e-17
8682.58535 1.01264e-17
8683.44681 1.00905e-17
8684.30827 1.00666e-17
8685.16973 1.00426e-17
8686.04121 1.00323e-17
8686.90267 1.00220e-17
8687.76413 1.00254e-17
8688.62560 1.00288e-17
8689.48706 1.00433e-17
8690.34852 1.00578e-17
8691.20998 1.00791e-17
8692.07144 1.01005e-17
8692.93291 1.01214e-17
8693.79437 1.01423e-17
8694.66585 1.01536e-17
8695.52731 1.01649e-17
8696.38877 1.01610e-17
8697.25023 1.01570e-17
8698.11170 1.01369e-17
8698.97316 1.01167e-17
8699.83462 1.00826e-17
8700.69608 1.00484e-17
8701.55754 1.00077e-17
8702.41900 9.96690e-18
8703.28047 9.92577e-18
8704.15195 9.88458e-18
8705.01341 9.84321e-18
8705.87487 9.80191e-18
8706.73633 9.76208e-18
8707.59779 9.72231e-18
8708.45926 9.69237e-18
8709.32072 9.66248e-18
8710.18218 9.64893e-18
8711.04364 9.63538e-18
8711.90510 9.63846e-18
8712.76657 9.64165e-18
8713.62803 9.65905e-18
8714.49951 9.67645e-18
8715.36097 9.69544e-18
8716.22243 9.71444e-18
8717.08389 9.72060e-18
8717.94535 9.72675e-18
8718.80682 9.71420e-18
8719.66828 9.70154e-18
8720.52974 9.66810e-18
8721.39120 9.63461e-18
8722.25267 9.58845e-18
8723.11413 9.54229e-18
8723.98561 9.49779e-18
8724.84707 9.45323e-18
8725.70853 9.41565e-18
8726.56999 9.37801e-18
8727.43145 9.34582e-18
8728.29292 9.31368e-18
8729.15438 9.28705e-18
8730.01584 9.26042e-18
8730.87730 9.24006e-18
8731.73876 9.21965e-18
8732.61024 9.20746e-18
8733.47170 9.19521e-18
8734.33317 9.19680e-18
8735.19463 9.19846e-18
8736.05609 9.21219e-18
8736.91755 9.22592e-18
8737.77902 9.23557e-18
8738.64048 9.24521e-18
8739.50194 9.23705e-18
8740.36340 9.22888e-18
8741.22486 9.19538e-18
8742.08633 9.16183e-18
8742.95780 9.10105e-18
8743.81927 9.04022e-18
8744.68073 8.96968e-18
8745.54219 8.89908e-18
8746.40365 8.83783e-18
8747.26511 8.77657e-18
8748.12658 8.73349e-18
8748.98804 8.69053e-18
8749.84950 8.67100e-18
8750.71096 8.65153e-18
8751.57242 8.65005e-18
8752.44390 8.64863e-18
8753.30537 8.65467e-18
8754.16683 8.66076e-18
8755.02829 8.66857e-18
8755.88975 8.67639e-18
8756.75121 8.68218e-18
8757.61268 8.68798e-18
8758.47414 8.68331e-18
8759.33560 8.67857e-18
8760.19706 8.65313e-18
8761.05852 8.62762e-18
8761.91999 8.57975e-18
8762.79146 8.53181e-18
8763.65293 8.46701e-18
8764.51439 8.40215e-18
8765.37585 8.32942e-18
8766.23731 8.25675e-18
8767.09877 8.18905e-18
8767.96024 8.12147e-18
8768.82170 8.06714e-18
8769.68316 8.01293e-18
8770.54462 7.97097e-18
8771.40608 7.92908e-18
8772.26755 7.89765e-18
8773.13903 7.86629e-18
8774.00049 7.84398e-18
8774.86195 7.82161e-18
8775.72341 7.80539e-18
8776.58487 7.78912e-18
8777.44633 7.77633e-18
8778.30780 7.76361e-18
8779.16926 7.75059e-18
8780.03072 7.73757e-18
8780.89218 7.71301e-18
8781.76366 7.68839e-18
8782.62512 7.64212e-18
8783.48659 7.59572e-18
8784.34805 7.53258e-18
8785.20951 7.46943e-18
8786.07097 7.39848e-18
8786.93243 7.32752e-18
8787.79390 7.25556e-18
8788.65536 7.18360e-18
8789.51682 7.11726e-18
8790.37828 7.05092e-18
8791.24976 6.99003e-18
8792.11122 6.92913e-18
8792.97268 6.86895e-18
8793.83415 6.80870e-18
8794.69561 6.75224e-18
8795.55707 6.69585e-18
8796.41853 6.65182e-18
8797.28000 6.60791e-18
8798.14146 6.57459e-18
8799.00292 6.54133e-18
8799.86438 6.50713e-18
8800.72584 6.47292e-18
8801.59732 6.42836e-18
8802.45878 6.38380e-18
8803.32025 6.32249e-18
8804.18171 6.26118e-18
8805.04317 6.18229e-18
8805.90463 6.10341e-18
8806.76609 6.01831e-18
8807.62756 5.93315e-18
8808.48902 5.85218e-18
8809.35048 5.77124e-18
8810.21194 5.69942e-18
8811.08342 5.62762e-18
8811.94488 5.56827e-18
8812.80635 5.50896e-18
8813.66781 5.46079e-18
8814.52927 5.41266e-18
8815.39073 5.37250e-18
8816.25219 5.33237e-18
8817.11365 5.29630e-18
8817.97512 5.26024e-18
8818.83658 5.22385e-18
8819.70806 5.18747e-18
8820.56952 5.14544e-18
8821.43098 5.10339e-18
8822.29244 5.05108e-18
8823.15391 4.99875e-18
8824.01537 4.93559e-18
8824.87683 4.87241e-18
8825.73829 4.80006e-18
8826.59975 4.72769e-18
8827.46122 4.65282e-18
8828.32268 4.57795e-18
8829.19416 4.51016e-18
8830.05562 4.44239e-18
8830.91708 4.38658e-18
8831.77854 4.33080e-18
8832.64000 4.28730e-18
8833.50147 4.24384e-18
8834.36293 4.21111e-18
8835.22439 4.17840e-18
8836.08585 4.15261e-18
8836.94732 4.12683e-18
8837.80878 4.10348e-18
8838.67024 4.08013e-18
8839.54172 4.05462e-18
8840.40318 4.02911e-18
8841.26464 3.99804e-18
8842.12610 3.96697e-18
8842.98757 3.92991e-18
8843.84903 3.89282e-18
8844.71049 3.85047e-18
8845.57195 3.80810e-18
8846.43341 3.76294e-18
8847.29488 3.71777e-18
8848.15634 3.67297e-18
8849.02782 3.62817e-18
8849.88928 3.58544e-18
8850.75074 3.54272e-18
8851.61220 3.50366e-18
8852.47367 3.46463e-18
8853.33513 3.43756e-18
8854.19659 3.41052e-18
8855.05805 3.40368e-18
8855.91951 3.39690e-18
8856.78097 3.40375e-18
8857.64244 3.41063e-18
8858.50390 3.41959e-18
8859.36536 3.42855e-18
8860.23684 3.43008e-18
8861.09830 3.43158e-18
8861.95976 3.41705e-18
8862.82123 3.40247e-18
8863.68269 3.37513e-18
8864.54415 3.34776e-18
8865.40561 3.32018e-18
8866.26707 3.29260e-18
8867.12854 3.27064e-18
8867.99000 3.24869e-18
8868.86148 3.23086e-18
8869.72294 3.21303e-18
8870.58440 3.19869e-18
8871.44586 3.18436e-18
8872.30732 3.17296e-18
8873.16879 3.16156e-18
8874.03025 3.15372e-18
8874.89171 3.14589e-18
8875.75317 3.14644e-18
8876.61463 3.14702e-18
8877.47610 3.15793e-18
8878.34758 3.16887e-18
8879.20904 3.18409e-18
8880.07050 3.19933e-18
8880.93196 3.21255e-18
8881.79342 3.22577e-18
8882.65489 3.23110e-18
8883.51635 3.23641e-18
8884.37781 3.22957e-18
8885.23927 3.22270e-18
8886.10073 3.20763e-18
8886.96220 3.19256e-18
8887.83367 3.17548e-18
8888.69514 3.15839e-18
8889.55660 3.14502e-18
8890.41806 3.13165e-18
8891.27952 3.12717e-18
8892.14099 3.12272e-18
8893.00245 3.13007e-18
8893.86391 3.13745e-18
8894.72537 3.15780e-18
8895.58683 3.17818e-18
8896.44830 3.20672e-18
8897.30976 3.23529e-18
8898.18124 3.26388e-18
8899.04270 3.29246e-18
8899.90416 3.31409e-18
8900.76562 3.33569e-18
8901.62708 3.34454e-18
8902.48855 3.35336e-18
8903.35001 3.35034e-18
8904.21147 3.34728e-18
8905.07293 3.34206e-18
8905.93439 3.33683e-18
8906.80587 3.33576e-18
8907.66734 3.33469e-18
8908.52880 3.33714e-18
8909.39026 3.33959e-18
8910.25172 3.34557e-18
8911.11318 3.35155e-18
8911.97465 3.36225e-18
8912.83611 3.37294e-18
8913.69757 3.38883e-18
8914.55903 3.40474e-18
8915.42049 3.42696e-18
8916.29197 3.44920e-18
8917.15343 3.47748e-18
8918.01490 3.50577e-18
8918.87636 3.53284e-18
8919.73782 3.55990e-18
8920.59928 3.57847e-18
8921.46074 3.59702e-18
8922.32221 3.60503e-18
8923.18367 3.61301e-18
8924.04513 3.61024e-18
8924.90659 3.60744e-18
8925.76805 3.60247e-18
8926.63953 3.59749e-18
8927.50100 3.60203e-18
8928.36246 3.60658e-18
8929.22392 3.62107e-18
8930.08538 3.63558e-18
8930.94684 3.65472e-18
8931.80831 3.67388e-18
8932.66977 3.69385e-18
8933.53123 3.71382e-18
8934.39269 3.73091e-18
8935.25415 3.74798e-18
8936.12563 3.76393e-18
8936.98709 3.77987e-18
8937.84856 3.80304e-18
8938.71002 3.82624e-18
8939.57148 3.85703e-18
8940.43294 3.88783e-18
8941.29440 3.91487e-18
8942.15587 3.94191e-18
8943.01733 3.95689e-18
8943.87879 3.97183e-18
8944.74025 3.97101e-18
8945.61173 3.97014e-18
8946.47319 3.95486e-18
8947.33466 3.93954e-18
8948.19612 3.92732e-18
8949.05758 3.91511e-18
8949.91904 3.92016e-18
8950.78050 3.92526e-18
8951.64197 3.94317e-18
8952.50343 3.96112e-18
8953.36489 3.98474e-18
8954.22635 4.00837e-18
8955.08781 4.01907e-18
8955.95929 4.02973e-18
8956.82075 4.00920e-18
8957.68222 3.98859e-18
8958.54368 3.95960e-18
8959.40514 3.93060e-18
8960.26660 3.92673e-18
8961.12806 3.92294e-18
8961.98953 3.94899e-18
8962.85099 3.97512e-18
8963.71245 4.02473e-18
8964.57391 4.07441e-18
8965.44539 4.13150e-18
8966.30685 4.18861e-18
8967.16832 4.22884e-18
8968.02978 4.26904e-18
8968.89124 4.29509e-18
8969.75270 4.32111e-18
8970.61416 4.35958e-18
8971.47563 4.39808e-18
8972.33709 4.45818e-18
8973.19855 4.51833e-18
8974.06001 4.58867e-18
8974.93149 4.65902e-18
8975.79295 4.72309e-18
8976.65441 4.78714e-18
8977.51588 4.81972e-18
8978.37734 4.85221e-18
8979.23880 4.83366e-18
8980.10026 4.81495e-18
8980.96172 4.73261e-18
8981.82319 4.65009e-18
8982.68465 4.51208e-18
8983.54611 4.37392e-18
8984.41759 4.25448e-18
8985.27905 4.13508e-18
8986.14051 4.10268e-18
8987.00198 4.07051e-18
8987.86344 4.14864e-18
8988.72490 4.22707e-18
8989.58636 4.41926e-18
8990.44782 4.61175e-18
8991.30928 4.82628e-18
8992.17075 5.04086e-18
8993.03221 5.16731e-18
8993.89367 5.29351e-18
8994.76515 5.31532e-18
8995.62661 5.33685e-18
8996.48807 5.27420e-18
8997.34954 5.21133e-18
8998.21100 5.11362e-18
8999.07246 5.01582e-18
8999.93392 4.95044e-18
9000.79538 4.88514e-18
9001.65685 4.88147e-18
9002.51831 4.87796e-18
9003.38979 4.93418e-18
9004.25125 4.99056e-18
9005.11271 5.08707e-18
9005.97417 5.18369e-18
9006.83563 5.28207e-18
9007.69710 5.38044e-18
9008.55856 5.45073e-18
9009.42002 5.52094e-18
9010.28148 5.54924e-18
9011.14295 5.57742e-18
9012.00441 5.56436e-18
9012.87589 5.55118e-18
9013.73735 5.52976e-18
9014.59881 5.50833e-18
9015.46027 5.50306e-18
9016.32173 5.49783e-18
9017.18320 5.49374e-18
9018.04466 5.48965e-18
9018.90612 5.47561e-18
9019.76758 5.46154e-18
9020.62904 5.45042e-18
9021.49051 5.43930e-18
9022.35197 5.44447e-18
9023.22345 5.44968e-18
9024.08491 5.48795e-18
9024.94637 5.52631e-18
9025.80783 5.61112e-18
9026.66930 5.69606e-18
9027.53076 5.80702e-18
9028.39222 5.91806e-18
9029.25368 6.02435e-18
9030.11514 6.13057e-18
9030.97660 6.21076e-18
9031.83807 6.29083e-18
9032.70955 6.32900e-18
9033.57101 6.36705e-18
9034.43247 6.36178e-18
9035.29393 6.35640e-18
9036.15539 6.31580e-18
9037.01686 6.27509e-18
9037.87832 6.21999e-18
9038.73978 6.16484e-18
9039.60124 6.12726e-18
9040.46270 6.08980e-18
9041.32417 6.07832e-18
9042.18563 6.06689e-18
9043.05711 6.05808e-18
9043.91857 6.04920e-18
9044.78003 6.03068e-18
9045.64149 6.01210e-18
9046.50295 5.99126e-18
9047.36442 5.97043e-18
9048.22588 5.95374e-18
9049.08734 5.93706e-18
9049.94880 5.93481e-18
9050.81027 5.93250e-18
9051.67173 5.94741e-18
9052.54321 5.96239e-18
9053.40467 5.96398e-18
9054.26613 5.96546e-18
9055.12759 5.92700e-18
9055.98905 5.88844e-18
9056.85052 5.82418e-18
9057.71198 5.75985e-18
9058.57344 5.68914e-18
9059.43490 5.61843e-18
9060.29636 5.54369e-18
9061.16784 5.46895e-18
9062.02931 5.39113e-18
9062.89077 5.31331e-18
9063.75223 5.22958e-18
9064.61369 5.14584e-18
9065.47515 5.04996e-18
9066.33662 4.95405e-18
9067.19808 4.87044e-18
9068.05954 4.78687e-18
9068.92100 4.75607e-18
9069.78246 4.72541e-18
9070.64393 4.73844e-18
9071.51540 4.75160e-18
9072.37687 4.76310e-18
9073.23833 4.77459e-18
9074.09979 4.76780e-18
9074.96125 4.76095e-18
9075.82271 4.74854e-18
9076.68418 4.73611e-18
9077.54564 4.72600e-18
9078.40710 4.71591e-18
9079.26856 4.71269e-18
9080.13002 4.70950e-18
9080.99149 4.71300e-18
9081.86297 4.71651e-18
9082.72443 4.71098e-18
9083.58589 4.70542e-18
9084.44735 4.68207e-18
9085.30881 4.65869e-18
9086.17028 4.63487e-18
9087.03174 4.61104e-18
9087.89320 4.60009e-18
9088.75466 4.58918e-18
9089.61612 4.57406e-18
9090.48760 4.55893e-18
9091.34906 4.52331e-18
9092.21053 4.48784e-18
9093.07199 4.44857e-18
9093.93345 4.40930e-18
9094.79491 4.38701e-18
9095.65637 4.36477e-18
9096.51784 4.35361e-18
9097.37930 4.34248e-18
9098.24076 4.33016e-18
9099.10222 4.31782e-18
9099.97370 4.30750e-18
9100.83516 4.29719e-18
9101.69663 4.29548e-18
9102.55809 4.29378e-18
9103.41955 4.31328e-18
9104.28101 4.33283e-18
9105.14247 4.39159e-18
9106.00393 4.45046e-18
9106.86540 4.52707e-18
9107.72686 4.60373e-18
9108.58832 4.64328e-18
9109.45980 4.68273e-18
9110.32126 4.66180e-18
9111.18272 4.64071e-18
9112.04419 4.57294e-18
9112.90565 4.50504e-18
9113.76711 4.41842e-18
9114.62857 4.33175e-18
9115.49003 4.28377e-18
9116.35150 4.23590e-18
9117.21296 4.25650e-18
9118.07442 4.27729e-18
9118.93588 4.32213e-18
9119.80736 4.36704e-18
9120.66882 4.39282e-18
9121.53028 4.41855e-18
9122.39175 4.39755e-18
9123.25321 4.37642e-18
9124.11467 4.29197e-18
9124.97613 4.20736e-18
9125.83760 4.09853e-18
9126.69906 3.98964e-18
9127.56052 3.90397e-18
9128.43200 3.81836e-18
9129.29346 3.78040e-18
9130.15492 3.74257e-18
9131.01638 3.76814e-18
9131.87785 3.79389e-18
9132.73931 3.87233e-18
9133.60077 3.95092e-18
9134.46223 4.05812e-18
9135.32369 4.16538e-18
9136.18516 4.27623e-18
9137.04662 4.38708e-18
9137.90808 4.47567e-18
9138.76954 4.56418e-18
9139.64102 4.61384e-18
9140.50248 4.66339e-18
9141.36395 4.66848e-18
9142.22541 4.67346e-18
9143.08687 4.62555e-18
9143.94833 4.57751e-18
9144.80979 4.46446e-18
9145.67125 4.35124e-18
9146.53272 4.18769e-18
9147.39418 4.02402e-18
9148.26566 3.85938e-18
9149.12712 3.69475e-18
9149.98858 3.57384e-18
9150.85004 3.45305e-18
9151.71151 3.41213e-18
9152.57297 3.37143e-18
9153.43443 3.42464e-18
9154.29589 3.47811e-18
9155.15735 3.57895e-18
9156.01882 3.67992e-18
9156.88028 3.77924e-18
9157.75176 3.87856e-18
9158.61322 3.95340e-18
9159.47468 4.02817e-18
9160.33614 4.06077e-18
9161.19760 4.09325e-18
9162.05907 4.08479e-18
9162.92053 4.07621e-18
9163.78199 4.03635e-18
9164.64345 3.99639e-18
9165.50492 3.92378e-18
9166.36638 3.85107e-18
9167.22784 3.74400e-18
9168.09932 3.63683e-18
9168.96078 3.52186e-18
9169.82224 3.40687e-18
9170.68370 3.31996e-18
9171.54517 3.23314e-18
9172.40663 3.19228e-18
9173.26809 3.15154e-18
9174.12955 3.16454e-18
9174.99101 3.17769e-18
9175.85248 3.22245e-18
9176.71394 3.26730e-18
9177.58542 3.29359e-18
9178.44688 3.31982e-18
9179.30834 3.31301e-18
9180.16980 3.30612e-18
9181.03127 3.29919e-18
9181.89273 3.29227e-18
9182.75419 3.30336e-18
9183.61565 3.31450e-18
9184.47711 3.33714e-18
9185.33857 3.35981e-18
9186.20004 3.38619e-18
9187.07152 3.41258e-18
9187.93298 3.42379e-18
9188.79444 3.43495e-18
9189.65590 3.42047e-18
9190.51736 3.40591e-18
9191.37883 3.39499e-18
9192.24029 3.38408e-18
9193.10175 3.40275e-18
9193.96321 3.42151e-18
9194.82467 3.45820e-18
9195.68614 3.49494e-18
9196.55762 3.53314e-18
9197.41908 3.57134e-18
9198.28054 3.59611e-18
9199.14200 3.62085e-18
9200.00346 3.61785e-18
9200.86492 3.61478e-18
9201.72639 3.59458e-18
9202.58785 3.57433e-18
9203.44931 3.55772e-18
9204.31077 3.54113e-18
9205.17224 3.52872e-18
9206.04371 3.51632e-18
9206.90518 3.49897e-18
9207.76664 3.48161e-18
9208.62810 3.46223e-18
9209.48956 3.44284e-18
9210.35102 3.43119e-18
9211.21249 3.41957e-18
9212.07395 3.42546e-18
9212.93541 3.43141e-18
9213.79687 3.46609e-18
9214.65833 3.50084e-18
9215.52981 3.56206e-18
9216.39127 3.62335e-18
9217.25274 3.68784e-18
9218.11420 3.75234e-18
9218.97566 3.80501e-18
9219.83712 3.85764e-18
9220.69859 3.90329e-18
9221.56005 3.94893e-18
9222.42151 3.99029e-18
9223.28297 4.03164e-18
9224.14443 4.06410e-18
9225.00590 4.09654e-18
9225.87737 4.11687e-18
9226.73884 4.13717e-18
9227.60030 4.14201e-18
9228.46176 4.14680e-18
9229.32322 4.13484e-18
9230.18468 4.12283e-18
9231.04615 4.10771e-18
9231.90761 4.09258e-18
9232.76907 4.09004e-18
9233.63053 4.08754e-18
9234.49199 4.09414e-18
9235.35346 4.10076e-18
9236.22494 4.10761e-18
9237.08640 4.11447e-18
9237.94786 4.12563e-18
9238.80932 4.13681e-18
9239.67078 4.16060e-18
9240.53225 4.18443e-18
9241.39371 4.22485e-18
9242.25517 4.26531e-18
9243.11663 4.32398e-18
9243.97809 4.38271e-18
9244.84957 4.45452e-18
9245.71103 4.52636e-18
9246.57250 4.59966e-18
9247.43396 4.67296e-18
9248.29542 4.74108e-18
9249.15688 4.80919e-18
9250.01834 4.87350e-18
9250.87981 4.93781e-18
9251.74127 4.99508e-18
9252.60273 5.05232e-18
9253.46419 5.08881e-18
9254.32565 5.12524e-18
9255.19713 5.13871e-18
9256.05860 5.15211e-18
9256.92006 5.16923e-18
9257.78152 5.18637e-18
9258.64298 5.22724e-18
9259.50444 5.26816e-18
9260.36591 5.32669e-18
9261.22737 5.38526e-18
9262.08883 5.45067e-18
9262.95029 5.51608e-18
9263.81175 5.56475e-18
9264.68323 5.61337e-18
9265.54469 5.62270e-18
9266.40616 5.63192e-18
9267.26762 5.60256e-18
9268.12908 5.57309e-18
9268.99054 5.51433e-18
9269.85200 5.45549e-18
9270.71347 5.38922e-18
9271.57493 5.32293e-18
9272.43639 5.27521e-18
9273.29785 5.22755e-18
9274.16933 5.21897e-18
9275.03079 5.21051e-18
9275.89226 5.25613e-18
9276.75372 5.30191e-18
9277.61518 5.39407e-18
9278.47664 5.48635e-18
9279.33810 5.59965e-18
9280.19957 5.71301e-18
9281.06103 5.82007e-18
9281.92249 5.92711e-18
9282.79397 6.00150e-18
9283.65543 6.07583e-18
9284.51689 6.09654e-18
9285.37835 6.11708e-18
9286.23982 6.07163e-18
9287.10128 6.02600e-18
9287.96274 5.91989e-18
9288.82420 5.81356e-18
9289.68566 5.68041e-18
9290.54713 5.54719e-18
9291.40859 5.42614e-18
9292.27005 5.30513e-18
9293.14153 5.24768e-18
9294.00299 5.19041e-18
9294.86445 5.23020e-18
9295.72592 5.27025e-18
9296.58738 5.37263e-18
9297.44884 5.47518e-18
9298.31030 5.59416e-18
9299.17176 5.71318e-18
9300.03323 5.78610e-18
9300.89469 5.85889e-18
9301.75615 5.82563e-18
9302.62763 5.79207e-18
9303.48909 5.71037e-18
9304.35055 5.62854e-18
9305.21201 5.59281e-18
9306.07348 5.55721e-18
9306.93494 5.54544e-18
9307.79640 5.53374e-18
9308.65786 5.47744e-18
9309.51932 5.42101e-18
9310.38079 5.32335e-18
9311.24225 5.22559e-18
9312.11373 5.12700e-18
9312.97519 5.02841e-18
9313.83665 4.96852e-18
9314.69811 4.90874e-18
9315.55958 4.93261e-18
9316.42104 4.95672e-18
9317.28250 5.05558e-18
9318.14396 5.15465e-18
9319.00542 5.24184e-18
9319.86688 5.32899e-18
9320.72835 5.37051e-18
9321.58981 5.41190e-18
9322.46129 5.48759e-18
9323.32275 5.56339e-18
9324.18421 5.69074e-18
9325.04567 5.81824e-18
9325.90714 5.83394e-18
9326.76860 5.84933e-18
9327.63006 5.65271e-18
9328.49152 5.45548e-18
9329.35298 5.20460e-18
9330.21445 4.95356e-18
9331.07591 4.80146e-18
9331.94739 4.64964e-18
9332.80885 4.56679e-18
9333.67031 4.48416e-18
9334.53177 4.42637e-18
9335.39323 4.36866e-18
9336.25470 4.33694e-18
9337.11616 4.30529e-18
9337.97762 4.29204e-18
9338.83908 4.27885e-18
9339.70055 4.41884e-18
9340.56201 4.55926e-18
9341.43349 5.03499e-18
9342.29495 5.51168e-18
9343.15641 6.08938e-18
9344.01787 6.66732e-18
9344.87933 6.91688e-18
9345.74080 7.16543e-18
9346.60226 6.95854e-18
9347.46372 6.75029e-18
9348.32518 6.16016e-18
9349.18664 5.56897e-18
9350.04811 4.86700e-18
9350.90957 4.16473e-18
9351.78105 3.85142e-18
9352.64251 3.53924e-18
9353.50397 3.77880e-18
9354.36543 4.01993e-18
9355.22689 4.45030e-18
9356.08836 4.88119e-18
9356.94982 5.19794e-18
9357.81128 5.51435e-18
9358.67274 5.53590e-18
9359.53420 5.55660e-18
9360.39567 5.20444e-18
9361.26715 4.85122e-18
9362.12861 4.41059e-18
9362.99007 3.96972e-18
9363.85153 3.70983e-18
9364.71299 3.45046e-18
9365.57446 3.38682e-18
9366.43592 3.32375e-18
9367.29738 3.43042e-18
9368.15884 3.53757e-18
9369.02030 3.68080e-18
9369.89178 3.82414e-18
9370.75324 3.85076e-18
9371.61471 3.87705e-18
9372.47617 3.79645e-18
9373.33763 3.71555e-18
9374.19909 3.58498e-18
9375.06056 3.45426e-18
9375.92202 3.36121e-18
9376.78348 3.26827e-18
9377.64494 3.31966e-18
9378.50640 3.37146e-18
9379.37788 3.52674e-18
9380.23934 3.68233e-18
9381.10081 3.80386e-18
9381.96227 3.92529e-18
9382.82373 3.96922e-18
9383.68519 4.01292e-18
9384.54665 4.01882e-18
9385.40812 4.02461e-18
9386.26958 4.00344e-18
9387.13104 3.98218e-18
9387.99250 3.91539e-18
9388.85396 3.84846e-18
9389.72544 3.73501e-18
9390.58691 3.62142e-18
9391.44837 3.47843e-18
9392.30983 3.33535e-18
9393.17129 3.18627e-18
9394.03275 3.03718e-18
9394.89422 2.92364e-18
9395.75568 2.81021e-18
9396.61714 2.76041e-18
9397.47860 2.71079e-18
9398.34006 2.70382e-18
9399.21154 2.69698e-18
9400.07300 2.70660e-18
9400.93447 2.71627e-18
9401.79593 2.71725e-18
9402.65739 2.71820e-18
9403.51885 2.68844e-18
9404.38031 2.65860e-18
9405.24178 2.62292e-18
9406.10324 2.58724e-18
9406.96470 2.58050e-18
9407.82616 2.57385e-18
9408.69764 2.59642e-18
9409.55910 2.61909e-18
9410.42057 2.65886e-18
9411.28203 2.69868e-18
9412.14349 2.73684e-18
9413.00495 2.77498e-18
9413.86641 2.78919e-18
9414.72788 2.80332e-18
9415.58934 2.77871e-18
9416.45080 2.75398e-18
9417.31226 2.68595e-18
9418.17372 2.61779e-18
9419.04520 2.51109e-18
9419.90666 2.40429e-18
9420.76813 2.26606e-18
9421.62959 2.12774e-18
9422.49105 2.00745e-18
9423.35251 1.88721e-18
9424.21397 1.90292e-18
9425.07544 1.91903e-18
9425.93690 2.10865e-18
9426.79836 2.29878e-18
9427.65982 2.53853e-18
9428.53130 2.77842e-18
9429.39276 2.94896e-18
9430.25423 3.11930e-18
9431.11569 3.11014e-18
9431.97715 3.10047e-18
9432.83861 2.85566e-18
9433.70007 2.61018e-18
9434.56153 2.32382e-18
9435.42300 2.03736e-18
9436.28446 1.91251e-18
9437.14592 1.78814e-18
9438.01740 1.85679e-18
9438.87886 1.92600e-18
9439.74032 2.17499e-18
9440.60179 2.42450e-18
9441.46325 2.72739e-18
9442.32471 3.03042e-18
9443.18617 3.22442e-18
9444.04763 3.41811e-18
9444.90910 3.45668e-18
9445.77056 3.49480e-18
9446.63202 3.38810e-18
9447.49348 3.28098e-18
9448.36496 3.08661e-18
9449.22642 2.89199e-18
9450.08788 2.70262e-18
9450.94935 2.51327e-18
9451.81081 2.38927e-18
9452.67227 2.26548e-18
9453.53373 2.23040e-18
9454.39520 2.19559e-18
9455.25666 2.25531e-18
9456.11812 2.31530e-18
9456.98960 2.45532e-18
9457.85106 2.59557e-18
9458.71252 2.77398e-18
9459.57398 2.95248e-18
9460.43545 3.08467e-18
9461.29691 3.21672e-18
9462.15837 3.25171e-18
9463.01983 3.28643e-18
9463.88129 3.26405e-18
9464.74276 3.24151e-18
9465.60422 3.20341e-18
9466.47570 3.16526e-18
9467.33716 3.13700e-18
9468.19862 3.10878e-18
9469.06008 3.11091e-18
9469.92155 3.11314e-18
9470.78301 3.11416e-18
9471.64447 3.11518e-18
9472.50593 3.08152e-18
9473.36739 3.04777e-18
9474.22885 3.00046e-18
9475.09032 2.95310e-18
9475.96180 2.92070e-18
9476.82326 2.88834e-18
9477.68472 2.93012e-18
9478.54618 2.97210e-18
9479.40764 3.15486e-18
9480.26911 3.33802e-18
9481.13057 3.58920e-18
9481.99203 3.84058e-18
9482.85349 4.01985e-18
9483.71495 4.19889e-18
9484.57642 4.23226e-18
9485.43788 4.26520e-18
9486.30936 4.12678e-18
9487.17082 3.98785e-18
9488.03228 3.73399e-18
9488.89374 3.47980e-18
9489.75520 3.25897e-18
9490.61667 3.03824e-18
9491.47813 2.94536e-18
9492.33959 2.85286e-18
9493.20105 2.88619e-18
9494.06252 2.91989e-18
9494.92398 3.07896e-18
9495.79546 3.23840e-18
9496.65692 3.54347e-18
9497.51838 3.84896e-18
9498.37984 4.26788e-18
9499.24130 4.68712e-18
9500.10277 5.05595e-18
9500.96423 5.42463e-18
9501.82569 5.60159e-18
9502.68715 5.77799e-18
9503.54861 5.74067e-18
9504.41008 5.70271e-18
9505.28155 5.46558e-18
9506.14302 5.22786e-18
9507.00448 4.91409e-18
9507.86594 4.60011e-18
9508.72740 4.35621e-18
9509.58887 4.11252e-18
9510.45033 3.95286e-18
9511.31179 3.79344e-18
9512.17325 3.68905e-18
9513.03471 3.58483e-18
9513.89617 3.56423e-18
9514.75764 3.54387e-18
9515.62912 3.64785e-18
9516.49058 3.75220e-18
9517.35204 3.96886e-18
9518.21350 4.18585e-18
9519.07496 4.47520e-18
9519.93643 4.76475e-18
9520.79789 5.05634e-18
9521.65935 5.34793e-18
9522.52081 5.54475e-18
9523.38227 5.74129e-18
9524.24374 5.81066e-18
9525.11522 5.87965e-18
9525.97668 5.87255e-18
9526.83814 5.86523e-18
9527.69960 5.82866e-18
9528.56106 5.79202e-18
9529.42252 5.76312e-18
9530.28399 5.73425e-18
9531.14545 5.73385e-18
9532.00691 5.73353e-18
9532.86837 5.72865e-18
9533.72984 5.72375e-18
9534.60131 5.68652e-18
9535.46278 5.64920e-18
9536.32424 5.57120e-18
9537.18570 5.49309e-18
9538.04716 5.37879e-18
9538.90862 5.26439e-18
9539.77009 5.21811e-18
9540.63155 5.17203e-18
9541.49301 5.29220e-18
9542.35447 5.41286e-18
9543.21593 5.62897e-18
9544.08741 5.84534e-18
9544.94888 6.05240e-18
9545.81034 6.25940e-18
9546.67180 6.35498e-18
9547.53326 6.45020e-18
9548.39472 6.32923e-18
9549.25619 6.20768e-18
9550.11765 5.99203e-18
9550.97911 5.77612e-18
9551.84057 5.71106e-18
9552.70203 5.64645e-18
9553.57351 5.74865e-18
9554.43497 5.85134e-18
9555.29644 5.97582e-18
9556.15790 6.10033e-18
9557.01936 6.14939e-18
9557.88082 6.19821e-18
9558.74228 6.10678e-18
9559.60375 6.01500e-18
9560.46521 5.82344e-18
9561.32667 5.63163e-18
9562.18813 5.56140e-18
9563.05961 5.49154e-18
9563.92107 5.65687e-18
9564.78254 5.82290e-18
9565.64400 6.10619e-18
9566.50546 6.38983e-18
9567.36692 6.66454e-18
9568.22838 6.93919e-18
9569.08985 7.05429e-18
9569.95131 7.16898e-18
9570.81277 7.02056e-18
9571.67423 6.87137e-18
9572.53569 6.59021e-18
9573.40717 6.30870e-18
9574.26863 6.05021e-18
9575.13010 5.79183e-18
9575.99156 5.65991e-18
9576.85302 5.52837e-18
9577.71448 5.60507e-18
9578.57594 5.68238e-18
9579.43741 5.83874e-18
9580.29887 5.99529e-18
9581.16033 6.04293e-18
9582.02179 6.09027e-18
9582.89327 6.00428e-18
9583.75473 5.91794e-18
9584.61620 5.73529e-18
9585.47766 5.55233e-18
9586.33912 5.40473e-18
9587.20058 5.25723e-18
9588.06204 5.34523e-18
9588.92351 5.43392e-18
9589.78497 5.73243e-18
9590.64643 6.03157e-18
9591.51791 6.31047e-18
9592.37937 6.58938e-18
9593.24083 6.72467e-18
9594.10229 6.85960e-18
9594.96376 6.86315e-18
9595.82522 6.86634e-18
9596.68668 6.76313e-18
9597.54814 6.65963e-18
9598.40960 6.50784e-18
9599.27107 6.35598e-18
9600.13253 6.21987e-18
9600.99399 6.08376e-18
9601.86547 6.01411e-18
9602.72693 5.94463e-18
9603.58839 5.97458e-18
9604.44986 6.00488e-18
9605.31132 6.12891e-18
9606.17278 6.25325e-18
9607.03424 6.44345e-18
9607.89570 6.63377e-18
9608.75717 6.76917e-18
9609.61863 6.90439e-18
9610.48009 6.86841e-18
9611.35157 6.83190e-18
9612.21303 6.67395e-18
9613.07449 6.51571e-18
9613.93595 6.32906e-18
9614.79742 6.14229e-18
9615.65888 5.99174e-18
9616.52034 5.84126e-18
9617.38180 5.78084e-18
9618.24326 5.72070e-18
9619.10473 5.76431e-18
9619.96619 5.80822e-18
9620.82765 5.94084e-18
9621.69913 6.07376e-18
9622.56059 6.24757e-18
9623.42205 6.42149e-18
9624.28352 6.56991e-18
9625.14498 6.71828e-18
9626.00644 6.77787e-18
9626.86790 6.83717e-18
9627.72936 6.74846e-18
9628.59083 6.65933e-18
9629.45229 6.43978e-18
9630.31375 6.21987e-18
9631.17521 5.99943e-18
9632.04669 5.77895e-18
9632.90815 5.65845e-18
9633.76961 5.53825e-18
9634.63108 5.55695e-18
9635.49254 5.57607e-18
9636.35400 5.72983e-18
9637.21546 5.88398e-18
9638.07692 6.02695e-18
9638.93839 6.16987e-18
9639.79985 6.18147e-18
9640.67133 6.19265e-18
9641.53279 6.14815e-18
9642.39425 6.10347e-18
9643.25571 6.09080e-18
9644.11718 6.07826e-18
9644.97864 6.11868e-18
9645.84010 6.15933e-18
9646.70156 6.26147e-18
9647.56302 6.36380e-18
9648.42448 6.45943e-18
9649.28595 6.55500e-18
9650.15743 6.55524e-18
9651.01889 6.55512e-18
9651.88035 6.45961e-18
9652.74181 6.36380e-18
9653.60327 6.21242e-18
9654.46474 6.06080e-18
9655.32620 5.90827e-18
9656.18766 5.75572e-18
9657.04912 5.66524e-18
9657.91058 5.57495e-18
9658.77205 5.58182e-18
9659.64352 5.58900e-18
9660.50499 5.70187e-18
9661.36645 5.81506e-18
9662.22791 5.99819e-18
9663.08937 6.18152e-18
9663.95083 6.34160e-18
9664.81230 6.50162e-18
9665.67376 6.58465e-18
9666.53522 6.66750e-18
9667.39668 6.70206e-18
9668.25815 6.73650e-18
9669.11961 6.73899e-18
9669.99109 6.74136e-18
9670.85255 6.68413e-18
9671.71401 6.62667e-18
9672.57547 6.50216e-18
9673.43693 6.37741e-18
9674.29840 6.23650e-18
9675.15986 6.09548e-18
9676.02132 5.98896e-18
9676.88278 5.88256e-18
9677.74424 5.84589e-18
9678.61572 5.80943e-18
9679.47718 5.86610e-18
9680.33865 5.92303e-18
9681.20011 6.02636e-18
9682.06157 6.12974e-18
9682.92303 6.21466e-18
9683.78449 6.29953e-18
9684.64596 6.34681e-18
9685.50742 6.39392e-18
9686.36888 6.40090e-18
9687.23034 6.40776e-18
9688.10182 6.38119e-18
9688.96328 6.35456e-18
9689.82475 6.31089e-18
9690.68621 6.26716e-18
9691.54767 6.20934e-18
9692.40913 6.15146e-18
9693.27059 6.07080e-18
9694.13206 5.99002e-18
9694.99352 5.89840e-18
9695.85498 5.80673e-18
9696.71644 5.73670e-18
9697.57790 5.66673e-18
9698.44938 5.63447e-18
9699.31084 5.60232e-18
9700.17231 5.60169e-18
9701.03377 5.60116e-18
9701.89523 5.61884e-18
9702.75669 5.63658e-18
9703.61816 5.64298e-18
9704.47962 5.64934e-18
9705.34108 5.62533e-18
9706.20254 5.60123e-18
9707.06400 5.56526e-18
9707.93548 5.52925e-18
9708.79694 5.50042e-18
9709.65841 5.47163e-18
9710.51987 5.46038e-18
9711.38133 5.44918e-18
9712.24279 5.46231e-18
9713.10425 5.47550e-18
9713.96572 5.49485e-18
9714.82718 5.51422e-18
9715.68864 5.51795e-18
9716.55010 5.52163e-18
9717.41156 5.50348e-18
9718.28304 5.48527e-18
9719.14451 5.44274e-18
9720.00597 5.40012e-18
9720.86743 5.35595e-18
9721.72889 5.31177e-18
9722.59035 5.30096e-18
9723.45182 5.29025e-18
9724.31328 5.29743e-18
9725.17474 5.30468e-18
9726.03620 5.28420e-18
9726.89766 5.26363e-18
9727.76914 5.19930e-18
9728.63060 5.13485e-18
9729.49207 5.03518e-18
9730.35353 4.93541e-18
9731.21499 4.82165e-18
9732.07645 4.70786e-18
9732.93791 4.61913e-18
9733.79938 4.53048e-18
9734.66084 4.49113e-18
9735.52230 4.45194e-18
9736.38376 4.45725e-18
9737.25524 4.46269e-18
9738.11670 4.50168e-18
9738.97817 4.54077e-18
9739.83963 4.59187e-18
9740.70109 4.64300e-18
9741.56255 4.68487e-18
9742.42401 4.72671e-18
9743.28548 4.74803e-18
9744.14694 4.76929e-18
9745.00840 4.76337e-18
9745.86986 4.75737e-18
9746.74134 4.73329e-18
9747.60280 4.70917e-18
9748.46426 4.67943e-18
9749.32573 4.64967e-18
9750.18719 4.61722e-18
9751.04865 4.58476e-18
9751.91011 4.55117e-18
9752.77157 4.51758e-18
9753.63304 4.48174e-18
9754.49450 4.44589e-18
9755.35596 4.40548e-18
9756.22744 4.36506e-18
9757.08890 4.32849e-18
9757.95036 4.29193e-18
9758.81183 4.27163e-18
9759.67329 4.25137e-18
9760.53475 4.25694e-18
9761.39621 4.26259e-18
9762.25767 4.30227e-18
9763.11913 4.34206e-18
9763.98060 4.40337e-18
9764.84206 4.46474e-18
9765.71354 4.51249e-18
9766.57500 4.56019e-18
9767.43646 4.57712e-18
9768.29792 4.59395e-18
9769.15939 4.59137e-18
9770.02085 4.58872e-18
9770.88231 4.57627e-18
9771.74377 4.56379e-18
9772.60523 4.54628e-18
9773.46670 4.52877e-18
9774.32816 4.51232e-18
9775.19964 4.49587e-18
9776.06110 4.48531e-18
9776.92256 4.47477e-18
9777.78402 4.47332e-18
9778.64548 4.47190e-18
9779.50695 4.48367e-18
9780.36841 4.49549e-18
9781.22987 4.52163e-18
9782.09133 4.54782e-18
9782.95280 4.56569e-18
9783.81426 4.58354e-18
9784.68574 4.56856e-18
9785.54720 4.55347e-18
9786.40866 4.51754e-18
9787.27012 4.48155e-18
9788.13158 4.44709e-18
9788.99305 4.41264e-18
9789.85451 4.38754e-18
9790.71597 4.36247e-18
9791.57743 4.35002e-18
9792.43889 4.33759e-18
9793.30036 4.32938e-18
9794.16182 4.32118e-18
9795.03330 4.29954e-18
9795.89476 4.27785e-18
9796.75622 4.24794e-18
9797.61768 4.21801e-18
9798.47915 4.20563e-18
9799.34061 4.19331e-18
9800.20207 4.20710e-18
9801.06353 4.22097e-18
9801.92499 4.24869e-18
9802.78645 4.27645e-18
9803.64792 4.30575e-18
9804.51940 4.33505e-18
9805.38086 4.35144e-18
9806.24232 4.36779e-18
9807.10378 4.36425e-18
9807.96524 4.36065e-18
9808.82671 4.35107e-18
9809.68817 4.34147e-18
9810.54963 4.33909e-18
9811.41109 4.33673e-18
9812.27255 4.34991e-18
9813.13402 4.36314e-18
9813.99548 4.39576e-18
9814.86696 4.42844e-18
9815.72842 4.45729e-18
9816.58988 4.48613e-18
9817.45134 4.48655e-18
9818.31280 4.48689e-18
9819.17427 4.46215e-18
9820.03573 4.43735e-18
9820.89719 4.39785e-18
9821.75865 4.35830e-18
9822.62012 4.31925e-18
9823.48158 4.28020e-18
9824.35306 4.25934e-18
9825.21452 4.23854e-18
9826.07598 4.23329e-18
9826.93744 4.22808e-18
9827.79890 4.22408e-18
9828.66037 4.22008e-18
9829.52183 4.21377e-18
9830.38329 4.20745e-18
9831.24475 4.20310e-18
9832.10621 4.19875e-18
9832.97769 4.19536e-18
9833.83915 4.19198e-18
9834.70062 4.18398e-18
9835.56208 4.17598e-18
9836.42354 4.16080e-18
9837.28500 4.14561e-18
9838.14647 4.12476e-18
9839.00793 4.10389e-18
9839.86939 4.07907e-18
9840.73085 4.05423e-18
9841.59231 4.02631e-18
9842.45377 3.99838e-18
9843.32525 3.97054e-18
9844.18672 3.94271e-18
9845.04818 3.92483e-18
9845.90964 3.90697e-18
9846.77110 3.90681e-18
9847.63256 3.90670e-18
9848.49403 3.92186e-18
9849.35549 3.93705e-18
9850.21695 3.96311e-18
9851.07841 3.98920e-18
9851.93987 4.02194e-18
9852.81135 4.05470e-18
9853.67282 4.08914e-18
9854.53428 4.12359e-18
9855.39574 4.15658e-18
9856.25720 4.18957e-18
9857.11866 4.21880e-18
9857.98013 4.24802e-18
9858.84159 4.26723e-18
9859.70305 4.28640e-18
9860.56451 4.28842e-18
9861.42597 4.29040e-18
9862.29745 4.27427e-18
9863.15891 4.25809e-18
9864.02038 4.22689e-18
9864.88184 4.19564e-18
9865.74330 4.15505e-18
9866.60476 4.11442e-18
9867.46622 4.07259e-18
9868.32769 4.03075e-18
9869.18915 3.99235e-18
9870.05061 3.95395e-18
9870.92209 3.91843e-18
9871.78355 3.88292e-18
9872.64501 3.85090e-18
9873.50648 3.81889e-18
9874.36794 3.79311e-18
9875.22940 3.76735e-18
9876.09086 3.74998e-18
9876.95232 3.73265e-18
9877.81379 3.72569e-18
9878.67525 3.71876e-18
9879.53671 3.72312e-18
9880.39817 3.72752e-18
9881.26965 3.74182e-18
9882.13111 3.75615e-18
9882.99257 3.77781e-18
9883.85404 3.79949e-18
9884.71550 3.82384e-18
9885.57696 3.84819e-18
9886.43842 3.87015e-18
9887.29988 3.89210e-18
9888.16135 3.90691e-18
9889.02281 3.92170e-18
9889.88427 3.92540e-18
9890.74573 3.92906e-18
9891.61721 3.92154e-18
9892.47867 3.91399e-18
9893.34014 3.89726e-18
9894.20160 3.88050e-18
9895.06306 3.85671e-18
9895.92452 3.83290e-18
9896.78598 3.80432e-18
9897.64745 3.77573e-18
9898.50891 3.74608e-18
9899.37037 3.71642e-18
9900.23183 3.69060e-18
9901.09329 3.66479e-18
9901.96477 3.64362e-18
9902.82623 3.62245e-18
9903.68770 3.60175e-18
9904.54916 3.58106e-18
9905.41062 3.56179e-18
9906.27208 3.54253e-18
9907.13354 3.53378e-18
9907.99501 3.52506e-18
9908.85647 3.53114e-18
9909.71793 3.53727e-18
9910.57939 3.55406e-18
9911.45087 3.57087e-18
9912.31233 3.59160e-18
9913.17380 3.61234e-18
9914.03526 3.62276e-18
9914.89672 3.63315e-18
9915.75818 3.62194e-18
9916.61964 3.61067e-18
9917.48111 3.58178e-18
9918.34257 3.55284e-18
9919.20403 3.51320e-18
9920.07551 3.47354e-18
9920.93697 3.43101e-18
9921.79843 3.38848e-18
9922.65989 3.35106e-18
9923.52136 3.31367e-18
9924.38282 3.28487e-18
9925.24428 3.25610e-18
9926.10574 3.23729e-18
9926.96720 3.21852e-18
9927.82867 3.20450e-18
9928.69013 3.19050e-18
9929.56161 3.17299e-18
9930.42307 3.15546e-18
9931.28453 3.13176e-18
9932.14599 3.10804e-18
9933.00746 3.07933e-18
9933.86892 3.05061e-18
9934.73038 3.01933e-18
9935.59184 2.98804e-18
9936.45330 2.95770e-18
9937.31477 2.92737e-18
9938.17623 2.90263e-18
9939.03769 2.87791e-18
9939.90917 2.86462e-18
9940.77063 2.85135e-18
9941.63209 2.85110e-18
9942.49355 2.85089e-18
9943.35502 2.85763e-18
9944.21648 2.86439e-18
9945.07794 2.87290e-18
9945.93940 2.88142e-18
9946.80086 2.89038e-18
9947.66233 2.89935e-18
9948.52379 2.90725e-18
9949.39527 2.91515e-18
9950.25673 2.91910e-18
9951.11819 2.92303e-18
9951.97965 2.92114e-18
9952.84112 2.91924e-18
9953.70258 2.91527e-18
9954.56404 2.91130e-18
9955.42550 2.90938e-18
9956.28696 2.90746e-18
9957.14843 2.90483e-18
9958.00989 2.90219e-18
9958.88137 2.89504e-18
9959.74283 2.88787e-18
9960.60429 2.87426e-18
9961.46575 2.86063e-18
9962.32721 2.83931e-18
9963.18868 2.81797e-18
9964.05014 2.79531e-18
9964.91160 2.77266e-18
9965.77306 2.75934e-18
9966.63452 2.74605e-18
9967.49599 2.74455e-18
9968.36747 2.74310e-18
9969.22893 2.74933e-18
9970.09039 2.75558e-18
9970.95185 2.76889e-18
9971.81331 2.78222e-18
9972.67477 2.80567e-18
9973.53624 2.82914e-18
9974.39770 2.86146e-18
9975.25916 2.89379e-18
9976.12062 2.92805e-18
9976.98208 2.96231e-18
9977.85356 2.99301e-18
9978.71503 3.02370e-18
9979.57649 3.04821e-18
9980.43795 3.07271e-18
9981.29941 3.09011e-18
9982.16087 3.10749e-18
9983.02234 3.12147e-18
9983.88380 3.13545e-18
9984.74526 3.14975e-18
9985.60672 3.16406e-18
9986.46818 3.18054e-18
9987.32965 3.19702e-18
9988.20112 3.21664e-18
9989.06259 3.23627e-18
9989.92405 3.25211e-18
9990.78551 3.26794e-18
9991.64697 3.27217e-18
9992.50843 3.27636e-18
9993.36990 3.27487e-18
9994.23136 3.27335e-18
9995.09282 3.27618e-18
9995.95428 3.27902e-18
9996.81574 3.28445e-18
9997.67721 3.28989e-18
9998.54869 3.29153e-18
9999.41015 3.29315e-18
