# wavelength flux
3475.89900 2.72611e-18
3477.36148 2.76044e-18
3478.83398 3.01082e-18
3480.30648 2.88007e-18
3481.77898 2.73345e-18
3483.24146 2.95011e-18
3484.71396 2.71709e-18
3486.18646 2.45048e-18
3487.65896 2.35740e-18
3489.12144 2.40839e-18
3490.59394 2.43329e-18
3492.06644 2.38579e-18
3493.53894 2.47331e-18
3495.00142 2.44132e-18
3496.47392 2.33796e-18
3497.94642 2.47794e-18
3499.41892 2.55709e-18
3500.88140 2.64868e-18
3502.35390 2.68343e-18
3503.82640 2.56468e-18
3505.29889 2.47417e-18
3506.76138 2.46144e-18
3508.23388 2.41054e-18
3509.70638 2.35309e-18
3511.17887 2.48353e-18
3512.64136 2.35141e-18
3514.11386 2.30897e-18
3515.58635 2.59720e-18
3517.05885 2.68352e-18
3518.52134 2.72728e-18
3519.99383 2.74798e-18
3521.46633 2.65398e-18
3522.93883 2.45766e-18
3524.40131 2.33965e-18
3525.87381 2.59544e-18
3527.34631 2.68593e-18
3528.81881 2.63514e-18
3530.28129 2.60838e-18
3531.75379 2.82675e-18
3533.22629 2.72200e-18
3534.69879 2.50919e-18
3536.16127 2.58037e-18
3537.63377 2.63663e-18
3539.10627 2.68638e-18
3540.57877 2.72975e-18
3542.04125 2.63696e-18
3543.51375 2.53755e-18
3544.98625 2.52080e-18
3546.45875 2.59421e-18
3547.92123 2.60975e-18
3549.39373 2.64239e-18
3550.86623 2.60034e-18
3552.32871 2.62758e-18
3553.80121 2.64479e-18
3555.27371 2.54038e-18
3556.74621 2.45742e-18
3558.21871 2.39630e-18
3559.68119 2.21219e-18
3561.15369 2.35282e-18
3562.62619 2.62945e-18
3564.08867 2.61027e-18
3565.56117 2.51622e-18
3567.03367 2.53782e-18
3568.50616 2.44723e-18
3569.96865 2.36263e-18
3571.44115 2.46617e-18
3572.91365 2.53974e-18
3574.38614 2.63270e-18
3575.84863 2.67793e-18
3577.32112 2.57865e-18
3578.79362 2.65205e-18
3580.26612 2.69795e-18
3581.72861 2.80181e-18
3583.20110 2.94471e-18
3584.67360 3.11856e-18
3586.14610 3.03329e-18
3587.60858 2.84804e-18
3589.08108 2.78587e-18
3590.55358 2.69265e-18
3592.02608 2.67836e-18
3593.48856 2.94743e-18
3594.96106 2.98495e-18
3596.43356 2.82326e-18
3597.90606 3.02994e-18
3599.36854 3.32371e-18
3600.84104 3.14327e-18
3602.31354 2.96516e-18
3603.78604 3.03771e-18
3605.24852 2.92180e-18
3606.72102 2.84920e-18
3608.19352 2.95895e-18
3609.66602 3.13195e-18
3611.12850 3.07144e-18
3612.60100 2.82122e-18
3614.07350 2.75020e-18
3615.54600 2.87265e-18
3617.00848 2.77280e-18
3618.48098 2.62347e-18
3619.95348 2.58373e-18
3621.42598 2.60919e-18
3622.88846 2.47991e-18
3624.36096 2.56868e-18
3625.83346 2.68350e-18
3627.30596 2.60457e-18
3628.76844 2.52291e-18
3630.24094 2.60513e-18
3631.71344 2.77351e-18
3633.18593 2.58846e-18
3634.64842 2.50245e-18
3636.12091 2.51832e-18
3637.59341 2.59055e-18
3639.06591 2.71467e-18
3640.52839 2.52418e-18
3642.00089 2.48119e-18
3643.47339 2.64701e-18
3644.94589 2.51635e-18
3646.40837 2.47821e-18
3647.88087 2.70110e-18
3649.35337 2.72783e-18
3650.81585 2.77743e-18
3652.28835 2.81804e-18
3653.76085 2.81177e-18
3655.23335 2.84207e-18
3656.69583 3.04846e-18
3658.16833 3.14300e-18
3659.64083 3.08006e-18
3661.11333 3.23853e-18
3662.57581 3.34956e-18
3664.04831 3.28798e-18
3665.52081 3.32009e-18
3666.99331 3.35679e-18
3668.45579 3.64570e-18
3669.92829 3.80109e-18
3671.40079 3.75090e-18
3672.87329 3.79116e-18
3674.33577 3.74366e-18
3675.80827 3.80064e-18
3677.28077 3.86152e-18
3678.75327 3.94088e-18
3680.21575 4.15244e-18
3681.68825 4.18161e-18
3683.16075 4.45900e-18
3684.63325 4.63396e-18
3686.09573 4.62526e-18
3687.56823 4.65690e-18
3689.04073 4.73518e-18
3690.51323 5.00394e-18
3691.97571 4.96906e-18
3693.44821 5.00171e-18
3694.92070 5.02443e-18
3696.39320 4.81240e-18
3697.85569 4.96487e-18
3699.32819 5.10518e-18
3700.80068 4.97893e-18
3702.27318 5.03244e-18
3703.73567 5.03182e-18
3705.20816 5.05993e-18
3706.68066 5.05165e-18
3708.15316 5.26501e-18
3709.61564 5.31365e-18
3711.08814 5.12618e-18
3712.56064 5.11624e-18
3714.03314 5.24373e-18
3715.49562 5.12883e-18
3716.96812 5.01400e-18
3718.44062 4.91086e-18
3719.91312 4.80774e-18
3721.37560 4.70465e-18
3722.84810 4.60157e-18
3724.32060 4.49853e-18
3725.79310 4.39549e-18
3727.25558 4.29245e-18
3728.72808 4.18946e-18
3730.20058 4.08648e-18
3731.67308 3.98352e-18
3733.13556 3.88060e-18
3734.60806 3.77768e-18
3736.08056 3.67479e-18
3737.55306 3.57191e-18
3739.01554 3.46905e-18
3740.48804 3.36621e-18
3741.96054 3.26338e-18
3743.42302 3.16060e-18
3744.89552 3.05781e-18
3746.36802 2.95505e-18
3747.84052 2.85232e-18
3749.30300 2.74959e-18
3750.77550 2.64690e-18
3752.24800 2.54419e-18
3753.72050 2.44152e-18
3755.18298 2.68295e-18
3756.65548 2.38672e-18
3758.12798 2.30211e-18
3759.60047 2.40345e-18
3761.06296 2.29167e-18
3762.53546 2.12837e-18
3764.00795 2.21908e-18
3765.48045 2.25515e-18
3766.94294 2.09500e-18
3768.41543 2.16151e-18
3769.88793 2.14959e-18
3771.36043 2.09531e-18
3772.82291 2.07226e-18
3774.29541 2.10393e-18
3775.76791 2.18587e-18
3777.24041 2.19224e-18
3778.70289 1.98482e-18
3780.17539 1.93330e-18
3781.64789 1.96951e-18
3783.12039 2.00635e-18
3784.58287 2.16366e-18
3786.05537 2.14854e-18
3787.52787 1.92093e-18
3789.00037 1.90256e-18
3790.46285 2.00943e-18
3791.93535 2.01473e-18
3793.40785 2.10603e-18
3794.88035 2.07849e-18
3796.34283 1.98410e-18
3797.81533 2.05320e-18
3799.28783 2.22132e-18
3800.76033 2.25824e-18
3802.22281 2.18845e-18
3803.69531 2.22893e-18
3805.16781 2.29632e-18
3806.64031 2.15831e-18
3808.10279 2.14204e-18
3809.57529 2.32928e-18
3811.04779 2.31269e-18
3812.52029 2.32877e-18
3813.98277 2.38821e-18
3815.45527 2.37572e-18
3816.92776 2.47243e-18
3818.40026 2.58571e-18
3819.86275 2.58089e-18
3821.33525 2.52095e-18
3822.80774 2.61890e-18
3824.28024 2.74518e-18
3825.74273 2.72982e-18
3827.21522 2.70506e-18
3828.68772 2.71370e-18
3830.16022 2.73572e-18
3831.62270 2.75268e-18
3833.09520 2.75745e-18
3834.56770 2.90189e-18
3836.03018 2.99409e-18
3837.50268 3.01633e-18
3838.97518 3.05752e-18
3840.44768 3.12839e-18
3841.92018 3.29709e-18
3843.38266 3.21298e-18
3844.85516 3.10390e-18
3846.32766 3.32909e-18
3847.79014 3.50488e-18
3849.26264 3.45457e-18
3850.73514 3.61229e-18
3852.20764 3.77801e-18
3853.67012 3.80173e-18
3855.14262 3.90874e-18
3856.61512 4.04644e-18
3858.08762 4.10248e-18
3859.55010 4.20568e-18
3861.02260 4.34909e-18
3862.49510 4.48831e-18
3863.96760 4.65536e-18
3865.43008 4.76987e-18
3866.90258 4.94968e-18
3868.37508 5.06146e-18
3869.84758 5.09769e-18
3871.31006 5.30851e-18
3872.78256 5.56817e-18
3874.25506 5.75720e-18
3875.72756 5.83227e-18
3877.19004 5.90620e-18
3878.66254 6.26292e-18
3880.13504 6.36664e-18
3881.60753 6.29671e-18
3883.07002 6.51417e-18
3884.54252 6.79404e-18
3886.01501 7.00396e-18
3887.48751 7.28459e-18
3888.94999 7.52211e-18
3890.42249 7.70800e-18
3891.89499 7.85166e-18
3893.36749 7.96879e-18
3894.82997 8.08906e-18
3896.30247 8.37459e-18
3897.77497 8.49883e-18
3899.24747 8.66975e-18
3900.70995 8.89258e-18
3902.18245 8.67201e-18
3903.65495 8.78194e-18
3905.12745 9.09941e-18
3906.58993 9.37217e-18
3908.06243 9.53063e-18
3909.53493 9.60340e-18
3911.00743 9.64305e-18
3912.46991 9.72280e-18
3913.94241 9.84171e-18
3915.41491 9.92789e-18
3916.88741 9.97464e-18
3918.34989 9.93133e-18
3919.82239 1.02050e-17
3921.29489 1.03350e-17
3922.76739 1.03089e-17
3924.22987 1.05016e-17
3925.70237 1.04974e-17
3927.17487 1.03548e-17
3928.64737 1.00278e-17
3930.10985 9.64101e-18
3931.58235 9.52100e-18
3933.05485 9.43717e-18
3934.51733 9.50666e-18
3935.98983 9.70570e-18
3937.46233 9.54945e-18
3938.93483 9.30461e-18
3940.39731 9.22327e-18
3941.86981 9.28973e-18
3943.34231 9.59735e-18
3944.81480 9.69220e-18
3946.27729 9.53941e-18
3947.74979 9.67042e-18
3949.22228 9.71798e-18
3950.69478 9.50060e-18
3952.15726 9.42650e-18
3953.62976 9.27793e-18
3955.10226 9.06383e-18
3956.57476 9.05681e-18
3958.03724 9.10589e-18
3959.50974 9.05481e-18
3960.98224 8.89680e-18
3962.45474 8.67620e-18
3963.91722 8.61173e-18
3965.38972 8.47553e-18
3966.86222 8.25297e-18
3968.33472 8.41194e-18
3969.79720 8.47343e-18
3971.26970 8.29075e-18
3972.74220 8.34755e-18
3974.21470 8.40861e-18
3975.67718 8.52715e-18
3977.14968 8.64687e-18
3978.62218 8.67725e-18
3980.09468 8.72719e-18
3981.55716 8.65966e-18
3983.02966 8.69365e-18
3984.50216 8.84036e-18
3985.97466 8.88070e-18
3987.43714 8.84124e-18
3988.90964 9.01073e-18
3990.38214 9.25269e-18
3991.85464 9.61327e-18
3993.31712 9.83878e-18
3994.78962 9.60215e-18
3996.26212 9.54638e-18
3997.73461 9.88976e-18
3999.19710 1.03114e-17
4000.66960 1.05669e-17
4002.14210 1.06812e-17
4003.61459 1.07740e-17
4005.07708 1.10200e-17
4006.54958 1.13342e-17
4008.02207 1.16282e-17
4009.49457 1.19767e-17
4010.95706 1.20685e-17
4012.42955 1.21266e-17
4013.90205 1.25497e-17
4015.37455 1.29691e-17
4016.83703 1.33450e-17
4018.30953 1.35588e-17
4019.78203 1.36283e-17
4021.25453 1.38166e-17
4022.71701 1.41692e-17
4024.18951 1.44433e-17
4025.66201 1.43604e-17
4027.12449 1.45858e-17
4028.59699 1.49206e-17
4030.06949 1.47775e-17
4031.54199 1.47706e-17
4033.00447 1.49617e-17
4034.47697 1.49444e-17
4035.94947 1.49058e-17
4037.42197 1.49196e-17
4038.88445 1.49468e-17
4040.35695 1.48725e-17
4041.82945 1.45389e-17
4043.30195 1.41396e-17
4044.76443 1.38380e-17
4046.23693 1.38284e-17
4047.70943 1.38127e-17
4049.18193 1.35914e-17
4050.64441 1.34018e-17
4052.11691 1.30994e-17
4053.58941 1.28070e-17
4055.06191 1.26082e-17
4056.52439 1.24665e-17
4057.99689 1.23006e-17
4059.46939 1.19612e-17
4060.94189 1.17183e-17
4062.40437 1.17458e-17
4063.87687 1.16361e-17
4065.34937 1.12913e-17
4066.82186 1.10317e-17
4068.28435 1.07037e-17
4069.75684 1.05754e-17
4071.22934 1.05095e-17
4072.70184 1.03304e-17
4074.16433 1.02156e-17
4075.63682 9.90006e-18
4077.10932 9.72184e-18
4078.58182 9.59659e-18
4080.04430 9.31878e-18
4081.51680 9.20899e-18
4082.98930 9.12788e-18
4084.46180 9.08342e-18
4085.92428 8.89288e-18
4087.39678 8.44168e-18
4088.86928 8.15098e-18
4090.34178 8.17239e-18
4091.80426 8.25661e-18
4093.27676 8.14238e-18
4094.74926 8.08447e-18
4096.22176 8.04398e-18
4097.68424 7.80360e-18
4099.15674 7.57089e-18
4100.62924 7.44041e-18
4102.10174 7.36195e-18
4103.56422 7.23316e-18
4105.03672 7.17255e-18
4106.50922 7.11666e-18
4107.98172 7.08106e-18
4109.44420 7.11549e-18
4110.91670 6.94703e-18
4112.38920 6.68076e-18
4113.86170 6.58600e-18
4115.32418 6.55703e-18
4116.79668 6.45077e-18
4118.26918 6.39050e-18
4119.74168 6.37013e-18
4121.20416 6.20802e-18
4122.67666 6.15658e-18
4124.14916 6.11939e-18
4125.62165 6.01388e-18
4127.08414 6.06281e-18
4128.55663 6.02513e-18
4130.02913 5.92528e-18
4131.49162 5.95336e-18
4132.96411 5.99887e-18
4134.43661 6.02842e-18
4135.90911 5.93116e-18
4137.37160 5.89959e-18
4138.84409 5.83310e-18
4140.31659 5.72356e-18
4141.78909 5.83010e-18
4143.25157 5.89937e-18
4144.72407 5.91324e-18
4146.19657 5.92532e-18
4147.66907 5.79425e-18
4149.13155 5.82749e-18
4150.60405 5.97762e-18
4152.07655 6.08643e-18
4153.54905 6.08650e-18
4155.01153 6.01071e-18
4156.48403 6.09803e-18
4157.95653 6.07597e-18
4159.42903 5.91176e-18
4160.89151 5.91303e-18
4162.36401 6.03503e-18
4163.83651 6.12338e-18
4165.30901 6.11881e-18
4166.77149 6.07660e-18
4168.24399 6.06863e-18
4169.71649 6.02022e-18
4171.18899 5.88669e-18
4172.65147 5.90184e-18
4174.12397 5.85128e-18
4175.59647 5.76473e-18
4177.06897 5.80334e-18
4178.53145 5.78197e-18
4180.00395 5.67012e-18
4181.47645 5.60377e-18
4182.94895 5.47411e-18
4184.41143 5.40029e-18
4185.88393 5.46052e-18
4187.35642 5.34643e-18
4188.82892 5.21178e-18
4190.29141 5.16699e-18
4191.76390 5.17115e-18
4193.23640 5.22605e-18
4194.70890 5.22771e-18
4196.17139 5.25253e-18
4197.64388 5.25095e-18
4199.11638 5.21151e-18
4200.58888 5.25513e-18
4202.05136 5.21038e-18
4203.52386 5.11716e-18
4204.99636 5.26961e-18
4206.46886 5.40217e-18
4207.93134 5.32613e-18
4209.40384 5.30897e-18
4210.87634 5.43425e-18
4212.34884 5.48378e-18
4213.81132 5.48819e-18
4215.28382 5.50066e-18
4216.75632 5.56017e-18
4218.21880 5.73868e-18
4219.69130 5.71542e-18
4221.16380 5.75373e-18
4222.63630 5.92771e-18
4224.10880 5.90472e-18
4225.57128 5.86308e-18
4227.04378 5.88119e-18
4228.51628 5.99276e-18
4229.97876 6.00652e-18
4231.45126 5.93084e-18
4232.92376 6.09156e-18
4234.39626 6.27934e-18
4235.85874 6.33047e-18
4237.33124 6.34746e-18
4238.80374 6.23983e-18
4240.27624 6.26686e-18
4241.73872 6.40832e-18
4243.21122 6.48241e-18
4244.68372 6.44787e-18
4246.15621 6.44191e-18
4247.61870 6.51915e-18
4249.09120 6.53584e-18
4250.56370 6.48671e-18
4252.03619 6.58114e-18
4253.49868 6.73259e-18
4254.97118 6.73342e-18
4256.44367 6.72215e-18
4257.91617 6.70406e-18
4259.37865 6.58279e-18
4260.85115 6.60089e-18
4262.32365 6.62148e-18
4263.79615 6.53143e-18
4265.25863 6.57025e-18
4266.73113 6.48365e-18
4268.20363 6.38815e-18
4269.67613 6.44115e-18
4271.13861 6.39138e-18
4272.61111 6.33676e-18
4274.08361 6.33222e-18
4275.55611 6.37845e-18
4277.01859 6.39208e-18
4278.49109 6.38637e-18
4279.96359 6.32875e-18
4281.43609 6.25519e-18
4282.89857 6.16690e-18
4284.37107 6.07402e-18
4285.84357 6.21371e-18
4287.31607 6.25999e-18
4288.77855 6.20671e-18
4290.25105 6.21460e-18
4291.72355 6.17146e-18
4293.19605 6.27960e-18
4294.65853 6.30617e-18
4296.13103 6.38312e-18
4297.60353 6.29086e-18
4299.07603 6.21747e-18
4300.53851 6.34421e-18
4302.01101 6.40562e-18
4303.48351 6.41454e-18
4304.95601 6.38447e-18
4306.41849 6.38681e-18
4307.89099 6.47405e-18
4309.36349 6.59272e-18
4310.83598 6.64136e-18
4312.29847 6.60835e-18
4313.77096 6.63275e-18
4315.24346 6.62641e-18
4316.70595 6.61762e-18
4318.17845 6.73442e-18
4319.65094 6.86580e-18
4321.12344 6.80227e-18
4322.58593 6.72194e-18
4324.05842 6.74506e-18
4325.53092 6.82589e-18
4327.00342 6.92617e-18
4328.46590 6.87432e-18
4329.93840 6.81598e-18
4331.41090 6.84083e-18
4332.88340 6.86078e-18
4334.34588 6.91369e-18
4335.81838 6.89969e-18
4337.29088 6.88588e-18
4338.76338 6.78020e-18
4340.22586 6.72080e-18
4341.69836 6.75125e-18
4343.17086 6.78948e-18
4344.64336 6.94637e-18
4346.10584 7.09169e-18
4347.57834 7.12241e-18
4349.05084 6.99604e-18
4350.52334 6.85274e-18
4351.98582 6.82942e-18
4353.45832 6.81814e-18
4354.93082 6.80687e-18
4356.40332 6.79559e-18
4357.86580 6.78432e-18
4359.33830 6.77304e-18
4360.81080 6.76177e-18
4362.28330 6.75050e-18
4363.74578 6.73923e-18
4365.21828 6.72796e-18
4366.69078 6.71670e-18
4368.16327 6.70543e-18
4369.62576 6.69417e-18
4371.09826 6.68290e-18
4372.57075 6.67164e-18
4374.04325 6.66038e-18
4375.50574 6.64912e-18
4376.97824 6.63786e-18
4378.45073 6.62660e-18
4379.92323 6.61535e-18
4381.38572 6.60409e-18
4382.85821 6.59283e-18
4384.33071 6.58158e-18
4385.80321 6.57033e-18
4387.26569 6.55908e-18
4388.73819 6.54783e-18
4390.21069 6.56877e-18
4391.68319 6.62458e-18
4393.14567 6.45241e-18
4394.61817 6.34264e-18
4396.09067 6.44015e-18
4397.56317 6.41520e-18
4399.02565 6.33208e-18
4400.49815 6.29823e-18
4401.97065 6.25682e-18
4403.43313 6.22480e-18
4404.90563 6.10395e-18
4406.37813 5.99692e-18
4407.85063 6.02290e-18
4409.31311 5.99863e-18
4410.78561 6.00660e-18
4412.25811 5.88422e-18
4413.73061 5.67875e-18
4415.20311 5.69918e-18
4416.66559 5.75101e-18
4418.13809 5.71958e-18
4419.61059 5.65681e-18
4421.07307 5.62196e-18
4422.54557 5.57635e-18
4424.01807 5.49547e-18
4425.49057 5.43273e-18
4426.95305 5.39335e-18
4428.42555 5.51017e-18
4429.89805 5.61376e-18
4431.37055 5.52418e-18
4432.83303 5.48395e-18
4434.30553 5.49666e-18
4435.77803 5.44248e-18
4437.25052 5.47496e-18
4438.71301 5.56071e-18
4440.18550 5.57794e-18
4441.65800 5.57983e-18
4443.13050 5.48323e-18
4444.59299 5.44507e-18
4446.06548 5.47037e-18
4447.53798 5.57861e-18
4449.01048 5.79032e-18
4450.47296 5.83779e-18
4451.94546 5.75837e-18
4453.41796 5.83329e-18
4454.89046 5.90381e-18
4456.35294 5.76022e-18
4457.82544 5.87675e-18
4459.29794 6.05143e-18
4460.77044 5.98108e-18
4462.23292 6.11946e-18
4463.70542 6.32005e-18
4465.17792 6.36721e-18
4466.65042 6.46535e-18
4468.11290 6.55120e-18
4469.58540 6.59443e-18
4471.05790 6.70721e-18
4472.53040 6.85259e-18
4473.99288 7.02361e-18
4475.46538 6.95364e-18
4476.93788 6.99262e-18
4478.41038 7.11302e-18
4479.87286 7.26309e-18
4481.34536 7.50977e-18
4482.81786 7.67846e-18
4484.29036 7.77896e-18
4485.75284 7.99789e-18
4487.22534 8.21685e-18
4488.69784 8.25382e-18
4490.16032 8.28263e-18
4491.63282 8.50694e-18
4493.10532 8.77912e-18
4494.57781 9.00803e-18
4496.05031 9.08817e-18
4497.51280 9.27942e-18
4498.98530 9.52724e-18
4500.45779 9.66346e-18
4501.93029 9.85128e-18
4503.39278 1.00552e-17
4504.86527 1.01862e-17
4506.33777 1.02622e-17
4507.80026 1.04838e-17
4509.27275 1.07228e-17
4510.74525 1.08857e-17
4512.21775 1.09916e-17
4513.68023 1.12150e-17
4515.15273 1.13242e-17
4516.62523 1.14534e-17
4518.09773 1.18041e-17
4519.56021 1.21072e-17
4521.03271 1.20916e-17
4522.50521 1.21438e-17
4523.97771 1.23362e-17
4525.44019 1.26886e-17
4526.91269 1.29160e-17
4528.38519 1.29693e-17
4529.85769 1.29877e-17
4531.32017 1.30446e-17
4532.79267 1.29453e-17
4534.26517 1.29301e-17
4535.73767 1.31018e-17
4537.20015 1.32132e-17
4538.67265 1.32291e-17
4540.14515 1.32473e-17
4541.61765 1.32542e-17
4543.08013 1.34695e-17
4544.55263 1.34046e-17
4546.02513 1.32217e-17
4547.49763 1.32534e-17
4548.96011 1.33970e-17
4550.43261 1.32835e-17
4551.90511 1.33814e-17
4553.37760 1.35343e-17
4554.84009 1.34946e-17
4556.31259 1.35938e-17
4557.78509 1.37096e-17
4559.25758 1.36335e-17
4560.72007 1.37771e-17
4562.19257 1.40336e-17
4563.66506 1.43137e-17
4565.13756 1.45439e-17
4566.60005 1.47424e-17
4568.07254 1.48697e-17
4569.54504 1.51132e-17
4571.01754 1.49088e-17
4572.48002 1.50625e-17
4573.95252 1.55409e-17
4575.42502 1.56505e-17
4576.89752 1.57274e-17
4578.36000 1.57706e-17
4579.83250 1.58085e-17
4581.30500 1.57177e-17
4582.77750 1.57532e-17
4584.23998 1.58566e-17
4585.71248 1.58285e-17
4587.18498 1.57986e-17
4588.65748 1.59681e-17
4590.11996 1.61576e-17
4591.59246 1.63118e-17
4593.06496 1.63087e-17
4594.52744 1.63178e-17
4595.99994 1.65667e-17
4597.47244 1.65916e-17
4598.94494 1.66600e-17
4600.40742 1.68198e-17
4601.87992 1.69366e-17
4603.35242 1.69605e-17
4604.82492 1.70437e-17
4606.29742 1.54906e-17
4607.75990 1.45940e-17
4609.23240 1.74920e-17
4610.70490 1.76922e-17
4612.16738 1.77447e-17
4613.63988 1.78824e-17
4615.11238 1.80262e-17
4616.58488 1.81104e-17
4618.04736 1.81828e-17
4619.51986 1.82739e-17
4620.99235 1.83214e-17
4622.46485 1.81770e-17
4623.92734 1.80845e-17
4625.39984 1.81627e-17
4626.87233 1.82686e-17
4628.34483 1.82509e-17
4629.80732 1.83505e-17
4631.27981 1.82815e-17
4632.75231 1.81156e-17
4634.22481 1.82330e-17
4635.68729 1.81403e-17
4637.15979 1.81806e-17
4638.63229 1.80060e-17
4640.10479 1.77687e-17
4641.56727 1.75085e-17
4643.03977 1.75247e-17
4644.51227 1.75092e-17
4645.98477 1.71542e-17
4647.44725 1.68758e-17
4648.91975 1.67661e-17
4650.39225 1.65252e-17
4651.86475 1.64210e-17
4653.32723 1.62536e-17
4654.79973 1.60486e-17
4656.27223 1.57839e-17
4657.74473 1.56755e-17
4659.20721 1.54415e-17
4660.67971 1.52223e-17
4662.15221 1.49915e-17
4663.62471 1.47522e-17
4665.08719 1.45768e-17
4666.55969 1.42013e-17
4668.03219 1.40596e-17
4669.50469 1.39475e-17
4670.96717 1.37738e-17
4672.43967 1.35161e-17
4673.91217 1.32991e-17
4675.38466 1.32019e-17
4676.84715 1.30860e-17
4678.31965 1.31285e-17
4679.79215 1.29849e-17
4681.26464 1.27669e-17
4682.72713 1.26360e-17
4684.19963 1.23769e-17
4685.67212 1.23630e-17
4687.14462 1.23474e-17
4688.60711 1.22797e-17
4690.07960 1.22947e-17
4691.55210 1.21782e-17
4693.02460 1.19468e-17
4694.48708 1.18438e-17
4695.95958 1.18673e-17
4697.43208 1.19407e-17
4698.89456 1.19686e-17
4700.36706 1.20099e-17
4701.83956 1.20582e-17
4703.31206 1.21589e-17
4704.77454 1.23193e-17
4706.24704 1.23093e-17
4707.71954 1.22876e-17
4709.19204 1.23138e-17
4710.65452 1.24809e-17
4712.12702 1.26660e-17
4713.59952 1.27059e-17
4715.07202 1.25301e-17
4716.53450 1.23713e-17
4718.00700 1.23865e-17
4719.47950 1.25406e-17
4720.95200 1.26089e-17
4722.41448 1.25386e-17
4723.88698 1.23137e-17
4725.35948 1.24519e-17
4726.83198 1.23790e-17
4728.29446 1.22274e-17
4729.76696 1.22852e-17
4731.23946 1.23868e-17
4732.71196 1.22666e-17
4734.17444 1.22474e-17
4735.64694 1.22278e-17
4737.11944 1.22454e-17
4738.59194 1.21654e-17
4740.05442 1.19737e-17
4741.52692 1.19990e-17
4742.99942 1.20372e-17
4744.47191 1.18948e-17
4745.93440 1.18782e-17
4747.40690 1.18979e-17
4748.87939 1.19108e-17
4750.35189 1.17805e-17
4751.81437 1.16405e-17
4753.28687 1.17598e-17
4754.75937 1.18442e-17
4756.23187 1.18276e-17
4757.69435 1.17610e-17
4759.16685 1.16668e-17
4760.63935 1.16012e-17
4762.11185 1.15313e-17
4763.57433 1.14283e-17
4765.04683 1.13959e-17
4766.51933 1.13310e-17
4767.99183 1.10685e-17
4769.45431 1.11238e-17
4770.92681 1.10282e-17
4772.39931 1.09606e-17
4773.87181 1.09906e-17
4775.33429 1.07854e-17
4776.80679 1.07744e-17
4778.27929 1.08558e-17
4779.75179 1.06472e-17
4781.21427 1.04800e-17
4782.68677 1.04765e-17
4784.15927 1.03605e-17
4785.62175 1.01764e-17
4787.09425 1.00962e-17
4788.56675 9.87479e-18
4790.03925 9.85779e-18
4791.51175 9.69805e-18
4792.97423 9.44517e-18
4794.44673 9.26213e-18
4795.91923 9.24977e-18
4797.38171 9.10072e-18
4798.85421 8.91544e-18
4800.32671 8.78615e-18
4801.79921 8.64470e-18
4803.26169 8.44908e-18
4804.73419 8.41903e-18
4806.20669 8.37653e-18
4807.67918 8.24003e-18
4809.14167 8.18952e-18
4810.61416 8.24403e-18
4812.08666 8.24296e-18
4813.55916 8.17858e-18
4815.02165 8.23039e-18
4816.49414 8.30858e-18
4817.96664 8.36977e-18
4819.43914 8.35515e-18
4820.90162 8.35167e-18
4822.37412 8.47985e-18
4823.84662 8.51014e-18
4825.31912 8.65405e-18
4826.78160 8.85088e-18
4828.25410 8.85608e-18
4829.72660 8.96780e-18
4831.19910 8.99861e-18
4832.66158 9.07257e-18
4834.13408 9.40572e-18
4835.60658 9.53524e-18
4837.07908 9.67056e-18
4838.54156 9.95143e-18
4840.01406 1.01954e-17
4841.48656 1.03670e-17
4842.95906 1.04642e-17
4844.42154 1.06491e-17
4845.89404 1.08713e-17
4847.36654 1.11398e-17
4848.83904 1.14400e-17
4850.30152 1.15530e-17
4851.77402 1.15120e-17
4853.24652 1.14711e-17
4854.71902 1.14302e-17
4856.18150 1.13892e-17
4857.65400 1.13483e-17
4859.12650 1.13074e-17
4860.59900 1.12665e-17
4862.06148 1.12256e-17
4863.53398 1.11847e-17
4865.00648 1.11438e-17
4866.47897 1.11029e-17
4867.94146 1.10620e-17
4869.41395 1.10212e-17
4870.88645 1.09803e-17
4872.35895 1.09394e-17
4873.82144 1.08986e-17
4875.29393 1.08577e-17
4876.76643 1.08169e-17
4878.23893 1.07761e-17
4879.70141 1.07352e-17
4881.17391 1.06944e-17
4882.64641 1.06536e-17
4884.10889 1.06128e-17
4885.58139 1.05720e-17
4887.05389 1.05312e-17
4888.52639 1.04905e-17
4889.98887 1.03089e-17
4891.46137 1.01626e-17
4892.93387 9.81002e-18
4894.40637 9.58123e-18
4895.86885 9.51332e-18
4897.34135 9.40932e-18
4898.81385 9.24684e-18
4900.28635 9.24440e-18
4901.74883 9.03993e-18
4903.22133 8.93070e-18
4904.69383 8.92086e-18
4906.16633 8.78240e-18
4907.62881 8.85017e-18
4909.10131 9.03906e-18
4910.57381 8.96812e-18
4912.04631 9.00123e-18
4913.50879 9.04154e-18
4914.98129 9.05396e-18
4916.45379 9.05701e-18
4917.92629 9.27356e-18
4919.38877 9.52207e-18
4920.86127 9.53335e-18
4922.33377 9.60030e-18
4923.80627 9.52878e-18
4925.26875 9.54790e-18
4926.74125 9.79145e-18
4928.21375 9.99937e-18
4929.68624 1.00190e-17
4931.14873 1.01835e-17
4932.62122 1.02451e-17
4934.09372 1.03606e-17
4935.56622 1.04363e-17
4937.02870 1.05765e-17
4938.50120 1.08379e-17
4939.97370 1.09906e-17
4941.44620 1.10788e-17
4942.90868 1.12604e-17
4944.38118 1.13729e-17
4945.85368 1.14867e-17
4947.32618 1.17728e-17
4948.78866 1.17945e-17
4950.26116 1.19066e-17
4951.73366 1.20187e-17
4953.20616 1.21308e-17
4954.66864 1.22428e-17
4956.14114 1.23548e-17
4957.61364 1.24668e-17
4959.08614 1.25788e-17
4960.54862 1.26908e-17
4962.02112 1.28027e-17
4963.49362 1.29146e-17
4964.96612 1.30265e-17
4966.42860 1.31385e-17
4967.90110 1.32503e-17
4969.37360 1.33622e-17
4970.84610 1.34740e-17
4972.30858 1.35858e-17
4973.78108 1.36977e-17
4975.25358 1.38094e-17
4976.72608 1.39212e-17
4978.18856 1.40329e-17
4979.66106 1.41447e-17
4981.13356 1.42564e-17
4982.60606 1.43681e-17
4984.06854 1.44798e-17
4985.54104 1.45914e-17
4987.01354 1.46212e-17
4988.47602 1.46741e-17
4989.94852 1.46693e-17
4991.42101 1.46401e-17
4992.89351 1.45759e-17
4994.35600 1.44542e-17
4995.82850 1.45869e-17
4997.30099 1.43749e-17
4998.77349 1.41629e-17
5000.23598 1.39510e-17
5001.70847 1.37392e-17
5003.18097 1.35273e-17
5004.65347 1.33155e-17
5006.11595 1.31037e-17
5007.58845 1.28920e-17
5009.06095 1.26803e-17
5010.53345 1.24686e-17
5011.99593 1.22569e-17
5013.46843 1.20453e-17
5014.94093 1.18338e-17
5016.41343 1.16222e-17
5017.87591 1.14107e-17
5019.34841 1.11992e-17
5020.82091 1.09877e-17
5022.29341 1.07764e-17
5023.75589 1.05650e-17
5025.22839 1.03537e-17
5026.70089 1.01424e-17
5028.17339 9.93113e-18
5029.63587 9.71992e-18
5031.10837 9.50875e-18
5032.58087 9.29754e-18
5034.05337 9.08637e-18
5035.51585 8.76132e-18
5036.98835 8.46898e-18
5038.46085 8.29270e-18
5039.93335 8.28329e-18
5041.39583 7.97427e-18
5042.86833 7.78391e-18
5044.34083 7.82120e-18
5045.81333 7.73734e-18
5047.27581 7.66902e-18
5048.74831 7.67131e-18
5050.22080 7.60633e-18
5051.69330 7.63927e-18
5053.15579 7.64391e-18
5054.62829 7.61344e-18
5056.10078 7.66751e-18
5057.57328 7.73531e-18
5059.03576 7.71588e-18
5060.50826 7.76768e-18
5061.98076 7.89689e-18
5063.45326 7.86530e-18
5064.91574 8.01759e-18
5066.38824 8.07090e-18
5067.86074 8.04056e-18
5069.33324 8.10501e-18
5070.79572 8.25419e-18
5072.26822 8.30687e-18
5073.74072 8.28506e-18
5075.20320 8.47562e-18
5076.67570 8.64390e-18
5078.14820 8.80968e-18
5079.62070 8.84727e-18
5081.08318 8.91993e-18
5082.55568 9.00433e-18
5084.02818 9.15467e-18
5085.50068 9.31788e-18
5086.96316 9.30151e-18
5088.43566 9.50649e-18
5089.90816 9.66715e-18
5091.38066 9.75501e-18
5092.84314 9.96916e-18
5094.31564 1.00355e-17
5095.78814 1.01110e-17
5097.26064 1.01805e-17
5098.72312 1.01038e-17
5100.19562 1.02438e-17
5101.66812 1.05379e-17
5103.14062 1.06120e-17
5104.60310 1.06341e-17
5106.07560 1.06285e-17
5107.54810 1.06919e-17
5109.02060 1.08229e-17
5110.48308 1.09448e-17
5111.95558 1.11762e-17
5113.42807 1.11699e-17
5114.90057 1.12546e-17
5116.36306 1.15028e-17
5117.83555 1.14833e-17
5119.30805 1.14580e-17
5120.78055 1.16278e-17
5122.24304 1.18729e-17
5123.71553 1.17054e-17
5125.18803 1.16842e-17
5126.66053 1.18574e-17
5128.12301 1.18942e-17
5129.59551 1.20290e-17
5131.06801 1.20694e-17
5132.54051 1.20683e-17
5134.00299 1.18213e-17
5135.47549 1.18683e-17
5136.94799 1.19081e-17
5138.42049 1.17950e-17
5139.88297 1.18788e-17
5141.35547 1.19557e-17
5142.82797 1.21013e-17
5144.30047 1.20467e-17
5145.76295 1.21473e-17
5147.23545 1.20634e-17
5148.70795 1.20895e-17
5150.18045 1.21219e-17
5151.64293 1.21370e-17
5153.11543 1.21282e-17
5154.58793 1.22756e-17
5156.06043 1.23339e-17
5157.52291 1.23297e-17
5158.99541 1.23950e-17
5160.46791 1.23904e-17
5161.93039 1.24262e-17
5163.40289 1.24866e-17
5164.87539 1.23784e-17
5166.34789 1.25261e-17
5167.82038 1.25104e-17
5169.28287 1.24693e-17
5170.75537 1.24858e-17
5172.22786 1.24287e-17
5173.70036 1.25648e-17
5175.16285 1.26125e-17
5176.63535 1.25133e-17
5178.10784 1.24305e-17
5179.57033 1.23633e-17
5181.04283 1.23149e-17
5182.51532 1.24846e-17
5183.98782 1.24759e-17
5185.45030 1.22747e-17
5186.92280 1.22084e-17
5188.39530 1.22157e-17
5189.86780 1.21909e-17
5191.33028 1.23304e-17
5192.80278 1.22995e-17
5194.27528 1.22906e-17
5195.74778 1.22308e-17
5197.21026 1.21086e-17
5198.68276 1.21105e-17
5200.15526 1.21908e-17
5201.62776 1.22199e-17
5203.09024 1.22668e-17
5204.56274 1.23024e-17
5206.03524 1.22299e-17
5207.50774 1.21077e-17
5208.97022 1.21709e-17
5210.44272 1.22032e-17
5211.91522 1.20876e-17
5213.38772 1.20739e-17
5214.85020 1.21989e-17
5216.32270 1.21121e-17
5217.79520 1.21828e-17
5219.26770 1.21344e-17
5220.73018 1.21710e-17
5222.20268 1.22582e-17
5223.67518 1.24168e-17
5225.14768 1.24176e-17
5226.61016 1.24786e-17
5228.08266 1.27975e-17
5229.55516 1.27924e-17
5231.02765 1.27970e-17
5232.49014 1.30765e-17
5233.96264 1.30766e-17
5235.43514 1.32086e-17
5236.90763 1.34021e-17
5238.37012 1.33936e-17
5239.84261 1.33562e-17
5241.31511 1.36171e-17
5242.78761 1.36820e-17
5244.25010 1.37922e-17
5245.72259 1.38660e-17
5247.19509 1.39280e-17
5248.66759 1.38414e-17
5250.13007 1.39502e-17
5251.60257 1.40755e-17
5253.07507 1.42131e-17
5254.54757 1.43297e-17
5256.01005 1.41983e-17
5257.48255 1.42545e-17
5258.95505 1.44330e-17
5260.42755 1.45344e-17
5261.89003 1.45232e-17
5263.36253 1.46044e-17
5264.83503 1.47323e-17
5266.29751 1.47770e-17
5267.77001 1.47717e-17
5269.24251 1.46612e-17
5270.71501 1.47902e-17
5272.17749 1.48513e-17
5273.64999 1.46385e-17
5275.12249 1.46443e-17
5276.59499 1.47826e-17
5278.05747 1.48066e-17
5279.52997 1.48431e-17
5281.00247 1.49260e-17
5282.47497 1.49282e-17
5283.93745 1.48991e-17
5285.40995 1.51502e-17
5286.88245 1.51625e-17
5288.35495 1.50098e-17
5289.81743 1.51520e-17
5291.28993 1.54477e-17
5292.76243 1.54028e-17
5294.23492 1.53754e-17
5295.69741 1.56013e-17
5297.16991 1.57015e-17
5298.64240 1.58182e-17
5300.11490 1.59111e-17
5301.57739 1.57681e-17
5303.04989 1.58580e-17
5304.52238 1.59670e-17
5305.99488 1.61767e-17
5307.45737 1.63962e-17
5308.92986 1.64005e-17
5310.40236 1.65650e-17
5311.87486 1.67506e-17
5313.33734 1.67454e-17
5314.80984 1.67094e-17
5316.28234 1.66571e-17
5317.75484 1.65735e-17
5319.21732 1.68843e-17
5320.68982 1.70877e-17
5322.16232 1.68243e-17
5323.63482 1.66821e-17
5325.09730 1.66616e-17
5326.56980 1.68317e-17
5328.04230 1.69405e-17
5329.51480 1.67577e-17
5330.97728 1.68843e-17
5332.44978 1.69726e-17
5333.92228 1.68351e-17
5335.39478 1.67033e-17
5336.85726 1.67282e-17
5338.32976 1.68111e-17
5339.80226 1.67836e-17
5341.27476 1.67129e-17
5342.73724 1.65206e-17
5344.20974 1.65396e-17
5345.68224 1.67815e-17
5347.15474 1.69608e-17
5348.61722 1.69513e-17
5350.08972 1.69076e-17
5351.56222 1.69229e-17
5353.03471 1.69307e-17
5354.49720 1.68752e-17
5355.96970 1.69445e-17
5357.44220 1.71784e-17
5358.90468 1.71859e-17
5360.37718 1.71755e-17
5361.84968 1.72316e-17
5363.32217 1.71489e-17
5364.79467 1.72479e-17
5366.25716 1.73247e-17
5367.72965 1.73860e-17
5369.20215 1.73191e-17
5370.66464 1.72591e-17
5372.13713 1.72693e-17
5373.60963 1.72268e-17
5375.08213 1.73759e-17
5376.54461 1.74090e-17
5378.01711 1.74500e-17
5379.48961 1.73795e-17
5380.96211 1.71861e-17
5382.42459 1.71347e-17
5383.89709 1.72591e-17
5385.36959 1.71609e-17
5386.84209 1.70229e-17
5388.30457 1.70928e-17
5389.77707 1.68965e-17
5391.24957 1.66729e-17
5392.72207 1.66272e-17
5394.18455 1.65788e-17
5395.65705 1.63236e-17
5397.12955 1.61916e-17
5398.60205 1.59362e-17
5400.06453 1.58988e-17
5401.53703 1.58428e-17
5403.00953 1.55537e-17
5404.48203 1.53393e-17
5405.94451 1.53151e-17
5407.41701 1.53044e-17
5408.88951 1.51007e-17
5410.36201 1.48568e-17
5411.82449 1.47532e-17
5413.29699 1.45636e-17
5414.76949 1.44353e-17
5416.24199 1.44546e-17
5417.70447 1.41894e-17
5419.17697 1.40444e-17
5420.64947 1.40554e-17
5422.12196 1.41066e-17
5423.58445 1.39921e-17
5425.05695 1.39553e-17
5426.52944 1.39842e-17
5428.00194 1.38575e-17
5429.46443 1.37225e-17
5430.93692 1.37557e-17
5432.40942 1.38924e-17
5433.88192 1.39125e-17
5435.34440 1.38885e-17
5436.81690 1.38706e-17
5438.28940 1.39281e-17
5439.76190 1.41642e-17
5441.22438 1.40437e-17
5442.69688 1.42510e-17
5444.16938 1.43154e-17
5445.64188 1.44789e-17
5447.10436 1.46061e-17
5448.57686 1.46662e-17
5450.04936 1.45996e-17
5451.52186 1.47085e-17
5452.98434 1.48443e-17
5454.45684 1.50674e-17
5455.92934 1.52757e-17
5457.39182 1.53463e-17
5458.86432 1.54199e-17
5460.33682 1.57956e-17
5461.80932 1.59522e-17
5463.27180 1.61635e-17
5464.74430 1.64210e-17
5466.21680 1.64971e-17
5467.68930 1.63432e-17
5469.15178 1.66668e-17
5470.62428 1.69340e-17
5472.09678 1.71293e-17
5473.56928 1.71659e-17
5475.03176 1.74515e-17
5476.50426 1.77124e-17
5477.97676 1.77002e-17
5479.44925 1.77714e-17
5480.91174 1.78687e-17
5482.38424 1.79078e-17
5483.85674 1.81085e-17
5485.32923 1.81944e-17
5486.79172 1.83411e-17
5488.26422 1.83092e-17
5489.73671 1.81725e-17
5491.20921 1.85676e-17
5492.67170 1.84948e-17
5494.14419 1.85812e-17
5495.61669 1.86263e-17
5497.08919 1.86962e-17
5498.55167 1.87615e-17
5500.02417 1.87168e-17
5501.49667 1.87066e-17
5502.96917 1.86843e-17
5504.43165 1.85549e-17
5505.90415 1.86574e-17
5507.37665 1.85418e-17
5508.84915 1.84940e-17
5510.31163 1.83346e-17
5511.78413 1.83871e-17
5513.25663 1.82888e-17
5514.72913 1.82166e-17
5516.19161 1.79530e-17
5517.66411 1.79868e-17
5519.13661 1.78088e-17
5520.60911 1.78452e-17
5522.07159 1.77122e-17
5523.54409 1.75957e-17
5525.01659 1.72786e-17
5526.48909 1.72744e-17
5527.95157 1.71184e-17
5529.42407 1.69701e-17
5530.89657 1.68189e-17
5532.36907 1.66114e-17
5533.83155 1.63201e-17
5535.30405 1.63015e-17
5536.77655 1.61621e-17
5538.24905 1.58321e-17
5539.71153 1.57305e-17
5541.18403 1.56318e-17
5542.65653 1.51858e-17
5544.12902 1.51292e-17
5545.59151 1.50599e-17
5547.06401 1.50000e-17
5548.53650 1.48099e-17
5549.99899 1.46002e-17
5551.47149 1.46736e-17
5552.94398 1.44942e-17
5554.41648 1.41284e-17
5555.87896 1.41518e-17
5557.35146 1.41891e-17
5558.82396 1.40252e-17
5560.29646 1.40180e-17
5561.75894 1.40459e-17
5563.23144 1.39177e-17
5564.70394 1.39630e-17
5566.17644 1.38668e-17
5567.63892 1.39502e-17
5569.11142 1.39426e-17
5570.58392 1.39173e-17
5572.05642 1.40470e-17
5573.51890 1.39419e-17
5574.99140 1.40608e-17
5576.46390 1.41857e-17
5577.93640 1.42987e-17
5579.39888 1.42875e-17
5580.87138 1.43299e-17
5582.34388 1.44137e-17
5583.81638 1.43870e-17
5585.27886 1.46103e-17
5586.75136 1.46106e-17
5588.22386 1.45620e-17
5589.69636 1.46858e-17
5591.15884 1.47817e-17
5592.63134 1.49438e-17
5594.10384 1.51062e-17
5595.57634 1.50670e-17
5597.03882 1.52079e-17
5598.51132 1.54813e-17
5599.98382 1.55741e-17
5601.45632 1.55929e-17
5602.91880 1.57663e-17
5604.39130 1.58718e-17
5605.86380 1.58553e-17
5607.33629 1.59047e-17
5608.79878 1.58741e-17
5610.27128 1.59590e-17
5611.74377 1.60669e-17
5613.21627 1.61486e-17
5614.67875 1.62005e-17
5616.15125 1.64089e-17
5617.62375 1.67041e-17
5619.09625 1.66046e-17
5620.55873 1.65947e-17
5622.03123 1.68463e-17
5623.50373 1.69364e-17
5624.97623 1.68925e-17
5626.43871 1.67245e-17
5627.91121 1.67632e-17
5629.38371 1.70461e-17
5630.85621 1.69974e-17
5632.31869 1.69666e-17
5633.79119 1.69347e-17
5635.26369 1.68520e-17
5636.73619 1.68303e-17
5638.19867 1.69135e-17
5639.67117 1.70569e-17
5641.14367 1.70017e-17
5642.60615 1.69028e-17
5644.07865 1.69765e-17
5645.55115 1.69498e-17
5647.02365 1.69492e-17
5648.49615 1.71055e-17
5649.95863 1.70205e-17
5651.43113 1.69703e-17
5652.90363 1.69002e-17
5654.36611 1.67887e-17
5655.83861 1.67278e-17
5657.31111 1.68185e-17
5658.78361 1.66760e-17
5660.24609 1.65674e-17
5661.71859 1.64577e-17
5663.19109 1.63123e-17
5664.66359 1.64525e-17
5666.12607 1.63980e-17
5667.59857 1.62605e-17
5669.07107 1.60728e-17
5670.54356 1.59526e-17
5672.00605 1.59238e-17
5673.47855 1.57497e-17
5674.95104 1.58101e-17
5676.42354 1.56120e-17
5677.88602 1.55078e-17
5679.35852 1.53858e-17
5680.83102 1.54293e-17
5682.30352 1.53569e-17
5683.76600 1.51609e-17
5685.23850 1.50897e-17
5686.71100 1.48410e-17
5688.18350 1.46277e-17
5689.64598 1.47254e-17
5691.11848 1.44976e-17
5692.59098 1.42806e-17
5694.06348 1.43191e-17
5695.52596 1.42319e-17
5696.99846 1.40573e-17
5698.47096 1.39909e-17
5699.94346 1.38103e-17
5701.40594 1.38424e-17
5702.87844 1.36191e-17
5704.35094 1.34977e-17
5705.82344 1.34811e-17
5707.28592 1.32647e-17
5708.75842 1.32319e-17
5710.23092 1.30500e-17
5711.70342 1.28881e-17
5713.16590 1.27897e-17
5714.63840 1.28872e-17
5716.11090 1.28440e-17
5717.58340 1.26852e-17
5719.04588 1.25382e-17
5720.51838 1.24535e-17
5721.99088 1.24417e-17
5723.46338 1.22084e-17
5724.92586 1.21566e-17
5726.39836 1.22439e-17
5727.87086 1.19526e-17
5729.34335 1.19345e-17
5730.80584 1.17107e-17
5732.27833 1.15326e-17
5733.75083 1.14771e-17
5735.22333 1.15060e-17
5736.68581 1.13008e-17
5738.15831 1.10881e-17
5739.63081 1.09958e-17
5741.09330 1.08969e-17
5742.56579 1.07556e-17
5744.03829 1.07469e-17
5745.51079 1.07157e-17
5746.97327 1.05305e-17
5748.44577 1.03635e-17
5749.91827 1.03510e-17
5751.39077 1.01717e-17
5752.85325 1.01043e-17
5754.32575 1.00835e-17
5755.79825 1.00832e-17
5757.27075 9.83735e-18
5758.73323 9.79662e-18
5760.20573 9.91642e-18
5761.67823 9.84269e-18
5763.15073 9.78978e-18
5764.61321 9.62737e-18
5766.08571 9.68623e-18
5767.55821 9.68339e-18
5769.03071 9.63108e-18
5770.49319 9.63119e-18
5771.96569 9.50580e-18
5773.43819 9.56440e-18
5774.91069 9.54093e-18
5776.37317 9.48921e-18
5777.84567 9.51006e-18
5779.31817 9.53777e-18
5780.79067 9.54520e-18
5782.25315 9.71800e-18
5783.72565 9.88259e-18
5785.19815 9.98206e-18
5786.67065 1.00190e-17
5788.13313 1.02002e-17
5789.60563 1.02890e-17
5791.07812 1.03616e-17
5792.55062 1.04548e-17
5794.01311 1.05912e-17
5795.48560 1.07551e-17
5796.95810 1.09685e-17
5798.43060 1.11736e-17
5799.89309 1.14121e-17
5801.36558 1.16098e-17
5802.83808 1.16498e-17
5804.31058 1.18403e-17
5805.77306 1.21437e-17
5807.24556 1.24124e-17
5808.71806 1.25342e-17
5810.19056 1.26578e-17
5811.65304 1.28055e-17
5813.12554 1.31584e-17
5814.59804 1.32418e-17
5816.07054 1.33775e-17
5817.53302 1.35305e-17
5819.00552 1.37380e-17
5820.47802 1.42080e-17
5821.95052 1.42498e-17
5823.41300 1.42403e-17
5824.88550 1.43923e-17
5826.35800 1.45927e-17
5827.83050 1.47647e-17
5829.29298 1.49159e-17
5830.76548 1.50934e-17
5832.23798 1.52036e-17
5833.70046 1.53280e-17
5835.17296 1.53759e-17
5836.64546 1.54831e-17
5838.11796 1.55750e-17
5839.58044 1.55021e-17
5841.05294 1.56085e-17
5842.52544 1.56417e-17
5843.99794 1.55779e-17
5845.46042 1.57362e-17
5846.93292 1.59521e-17
5848.40542 1.60274e-17
5849.87792 1.60181e-17
5851.34040 1.62345e-17
5852.81290 1.62227e-17
5854.28540 1.60073e-17
5855.75789 1.61330e-17
5857.22038 1.63499e-17
5858.69288 1.61367e-17
5860.16537 1.61162e-17
5861.63787 1.63630e-17
5863.10035 1.62716e-17
5864.57285 1.62621e-17
5866.04535 1.61431e-17
5867.51785 1.62481e-17
5868.98033 1.61837e-17
5870.45283 1.60278e-17
5871.92533 1.59120e-17
5873.39783 1.59078e-17
5874.86031 1.59158e-17
5876.33281 1.59392e-17
5877.80531 1.59792e-17
5879.27781 1.60235e-17
5880.74029 1.58764e-17
5882.21279 1.57117e-17
5883.68529 1.57572e-17
5885.15779 1.56120e-17
5886.62027 1.52321e-17
5888.09277 1.46047e-17
5889.56527 1.41847e-17
5891.03777 1.46153e-17
5892.50025 1.48365e-17
5893.97275 1.45202e-17
5895.44525 1.40916e-17
5896.91775 1.42400e-17
5898.38023 1.42939e-17
5899.85273 1.40837e-17
5901.32523 1.42930e-17
5902.79773 1.46785e-17
5904.26021 1.50874e-17
5905.73271 1.47050e-17
5907.20521 1.47613e-17
5908.67771 1.49614e-17
5910.14019 1.51551e-17
5911.61269 1.52410e-17
5913.08519 1.53222e-17
5914.55768 1.52937e-17
5916.02017 1.51283e-17
5917.49266 1.50367e-17
5918.96516 1.49491e-17
5920.43766 1.49634e-17
5921.90015 1.51012e-17
5923.37264 1.52314e-17
5924.84514 1.50710e-17
5926.31764 1.52997e-17
5927.78012 1.56415e-17
5929.25262 1.56577e-17
5930.72512 1.56339e-17
5932.18760 1.54518e-17
5933.66010 1.55980e-17
5935.13260 1.57967e-17
5936.60510 1.57553e-17
5938.06758 1.56054e-17
5939.54008 1.54689e-17
5941.01258 1.52044e-17
5942.48508 1.51904e-17
5943.94756 1.51765e-17
5945.42006 1.51375e-17
5946.89256 1.50852e-17
5948.36506 1.52516e-17
5949.82754 1.53988e-17
5951.30004 1.53595e-17
5952.77254 1.55311e-17
5954.24504 1.55172e-17
5955.70752 1.53649e-17
5957.18002 1.53088e-17
5958.65252 1.51823e-17
5960.12502 1.52180e-17
5961.58750 1.53756e-17
5963.06000 1.54404e-17
5964.53250 1.54850e-17
5966.00500 1.50802e-17
5967.46748 1.49056e-17
5968.93998 1.50979e-17
5970.41248 1.53501e-17
5971.88497 1.52076e-17
5973.34746 1.50934e-17
5974.81996 1.52367e-17
5976.29245 1.51086e-17
5977.76495 1.49661e-17
5979.22744 1.50799e-17
5980.69994 1.52006e-17
5982.17243 1.51499e-17
5983.64493 1.51035e-17
5985.10742 1.49200e-17
5986.57991 1.49618e-17
5988.05241 1.48791e-17
5989.52491 1.48168e-17
5990.98739 1.48259e-17
5992.45989 1.47206e-17
5993.93239 1.48061e-17
5995.40489 1.47511e-17
5996.86737 1.46079e-17
5998.33987 1.45152e-17
5999.81237 1.45297e-17
6001.28487 1.44215e-17
6002.74735 1.44965e-17
6004.21985 1.44281e-17
6005.69235 1.43497e-17
6007.16485 1.42427e-17
6008.62733 1.42423e-17
6010.09983 1.42173e-17
6011.57233 1.42086e-17
6013.04483 1.40884e-17
6014.50731 1.40511e-17
6015.97981 1.41278e-17
6017.45231 1.41935e-17
6018.92481 1.41038e-17
6020.38729 1.38153e-17
6021.85979 1.36738e-17
6023.33229 1.38369e-17
6024.80479 1.38393e-17
6026.26727 1.38431e-17
6027.73977 1.38929e-17
6029.21227 1.38383e-17
6030.67475 1.37227e-17
6032.14725 1.36728e-17
6033.61975 1.36221e-17
6035.09225 1.34974e-17
6036.55473 1.35427e-17
6038.02723 1.37327e-17
6039.49973 1.37128e-17
6040.97222 1.34898e-17
6042.43471 1.33837e-17
6043.90720 1.33480e-17
6045.37970 1.32477e-17
6046.85220 1.31892e-17
6048.31469 1.31337e-17
6049.78718 1.30544e-17
6051.25968 1.30661e-17
6052.73218 1.30023e-17
6054.19466 1.28866e-17
6055.66716 1.27816e-17
6057.13966 1.27374e-17
6058.61216 1.27375e-17
6060.07464 1.27397e-17
6061.54714 1.27576e-17
6063.01964 1.27325e-17
6064.49214 1.26821e-17
6065.95462 1.26969e-17
6067.42712 1.27688e-17
6068.89962 1.28955e-17
6070.37212 1.29237e-17
6071.83460 1.30149e-17
6073.30710 1.30883e-17
6074.77960 1.31150e-17
6076.25210 1.31142e-17
6077.71458 1.32828e-17
6079.18708 1.34921e-17
6080.65958 1.35106e-17
6082.13208 1.34998e-17
6083.59456 1.35725e-17
6085.06706 1.37789e-17
6086.53956 1.38153e-17
6088.01206 1.38381e-17
6089.47454 1.37322e-17
6090.94704 1.36917e-17
6092.41954 1.38030e-17
6093.89204 1.37578e-17
6095.35452 1.38137e-17
6096.82702 1.37652e-17
6098.29951 1.37390e-17
6099.77201 1.40067e-17
6101.23450 1.38327e-17
6102.70700 1.37994e-17
6104.17949 1.38405e-17
6105.65199 1.37762e-17
6107.11448 1.38577e-17
6108.58697 1.37942e-17
6110.05947 1.36192e-17
6111.53197 1.37139e-17
6112.99445 1.37448e-17
6114.46695 1.35337e-17
6115.93945 1.35252e-17
6117.40193 1.34611e-17
6118.87443 1.34287e-17
6120.34693 1.33899e-17
6121.81943 1.33272e-17
6123.29193 1.32873e-17
6124.75441 1.31710e-17
6126.22691 1.31995e-17
6127.69941 1.31108e-17
6129.16189 1.29834e-17
6130.63439 1.29089e-17
6132.10689 1.28311e-17
6133.57939 1.28136e-17
6135.04187 1.26265e-17
6136.51437 1.27385e-17
6137.98687 1.27889e-17
6139.45937 1.25187e-17
6140.92185 1.25088e-17
6142.39435 1.25277e-17
6143.86685 1.25143e-17
6145.33935 1.26384e-17
6146.80183 1.25685e-17
6148.27433 1.23589e-17
6149.74683 1.24633e-17
6151.21933 1.25722e-17
6152.68181 1.25385e-17
6154.15431 1.26736e-17
6155.62681 1.24206e-17
6157.09930 1.25201e-17
6158.56179 1.25656e-17
6160.03429 1.25150e-17
6161.50679 1.26351e-17
6162.97928 1.28723e-17
6164.44177 1.28757e-17
6165.91427 1.30103e-17
6167.38676 1.31870e-17
6168.85926 1.33470e-17
6170.32175 1.34923e-17
6171.79424 1.34812e-17
6173.26674 1.34622e-17
6174.73924 1.35461e-17
6176.20172 1.36715e-17
6177.67422 1.38552e-17
6179.14672 1.38826e-17
6180.61922 1.40159e-17
6182.08170 1.40876e-17
6183.55420 1.41615e-17
6185.02670 1.41476e-17
6186.49920 1.42866e-17
6187.96168 1.42526e-17
6189.43418 1.43102e-17
6190.90668 1.46133e-17
6192.37918 1.45832e-17
6193.84166 1.45460e-17
6195.31416 1.46894e-17
6196.78666 1.46787e-17
6198.25916 1.46234e-17
6199.72164 1.46794e-17
6201.19414 1.47319e-17
6202.66664 1.48526e-17
6204.12912 1.48308e-17
6205.60162 1.47853e-17
6207.07412 1.47745e-17
6208.54662 1.48588e-17
6210.01912 1.49268e-17
6211.48160 1.49246e-17
6212.95410 1.50851e-17
6214.42660 1.50870e-17
6215.89910 1.48854e-17
6217.36158 1.47835e-17
6218.83408 1.48377e-17
6220.30658 1.48278e-17
6221.76906 1.47907e-17
6223.24156 1.48739e-17
6224.71405 1.48603e-17
6226.18655 1.47716e-17
6227.64904 1.46268e-17
6229.12154 1.45279e-17
6230.59403 1.44661e-17
6232.06653 1.44592e-17
6233.52902 1.44184e-17
6235.00151 1.43105e-17
6236.47401 1.42484e-17
6237.94651 1.41907e-17
6239.40899 1.41899e-17
6240.88149 1.40560e-17
6242.35399 1.39563e-17
6243.82649 1.39800e-17
6245.28897 1.39151e-17
6246.76147 1.38507e-17
6248.23397 1.36502e-17
6249.70647 1.34988e-17
6251.16895 1.35818e-17
6252.64145 1.34706e-17
6254.11395 1.34651e-17
6255.58645 1.33591e-17
6257.04893 1.34909e-17
6258.52143 1.35533e-17
6259.99393 1.34234e-17
6261.46643 1.33201e-17
6262.92891 1.32977e-17
6264.40141 1.33787e-17
6265.87391 1.33131e-17
6267.34641 1.31729e-17
6268.80889 1.31677e-17
6270.28139 1.32231e-17
6271.75389 1.31314e-17
6273.22639 1.30662e-17
6274.68887 1.30962e-17
6276.16137 1.29966e-17
6277.63387 1.28925e-17
6279.10636 1.29396e-17
6280.56885 1.27936e-17
6282.04135 1.27850e-17
6283.51385 1.28675e-17
6284.98634 1.28407e-17
6286.44883 1.29517e-17
6287.92133 1.30050e-17
6289.39382 1.30135e-17
6290.86632 1.32145e-17
6292.32881 1.31922e-17
6293.80130 1.30723e-17
6295.27380 1.31253e-17
6296.74630 1.32437e-17
6298.20878 1.31896e-17
6299.68128 1.32156e-17
6301.15378 1.31412e-17
6302.62628 1.30237e-17
6304.08876 1.29869e-17
6305.56126 1.28704e-17
6307.03376 1.29413e-17
6308.49624 1.30845e-17
6309.96874 1.31163e-17
6311.44124 1.30824e-17
6312.91374 1.29506e-17
6314.37622 1.27258e-17
6315.84872 1.27112e-17
6317.32122 1.27950e-17
6318.79372 1.27638e-17
6320.26622 1.26195e-17
6321.72870 1.25285e-17
6323.20120 1.25299e-17
6324.67370 1.25313e-17
6326.13618 1.26030e-17
6327.60868 1.25223e-17
6329.08118 1.22888e-17
6330.55368 1.23561e-17
6332.01616 1.24107e-17
6333.48866 1.24842e-17
6334.96116 1.23705e-17
6336.43366 1.22465e-17
6337.89614 1.21683e-17
6339.36864 1.21327e-17
6340.84114 1.20490e-17
6342.31364 1.20328e-17
6343.77612 1.20945e-17
6345.24862 1.19219e-17
6346.72112 1.19103e-17
6348.19361 1.18870e-17
6349.65610 1.17925e-17
6351.12860 1.17273e-17
6352.60109 1.18331e-17
6354.07359 1.16714e-17
6355.53607 1.17382e-17
6357.00857 1.16703e-17
6358.48107 1.17381e-17
6359.95357 1.17606e-17
6361.41605 1.18309e-17
6362.88855 1.18420e-17
6364.36105 1.19828e-17
6365.83355 1.20504e-17
6367.29603 1.20811e-17
6368.76853 1.21430e-17
6370.24103 1.23440e-17
6371.71353 1.23086e-17
6373.17601 1.25088e-17
6374.64851 1.26000e-17
6376.12101 1.25890e-17
6377.59351 1.26894e-17
6379.05599 1.28082e-17
6380.52849 1.28304e-17
6382.00099 1.29438e-17
6383.47349 1.30526e-17
6384.93597 1.30133e-17
6386.40847 1.30184e-17
6387.88097 1.31830e-17
6389.35347 1.31758e-17
6390.81595 1.32184e-17
6392.28845 1.31598e-17
6393.76095 1.31553e-17
6395.23345 1.32598e-17
6396.69593 1.32657e-17
6398.16843 1.32648e-17
6399.64093 1.31811e-17
6401.11343 1.31976e-17
6402.57591 1.32627e-17
6404.04841 1.32591e-17
6405.52091 1.32317e-17
6406.99340 1.33259e-17
6408.45589 1.33599e-17
6409.92839 1.33704e-17
6411.40088 1.34923e-17
6412.86337 1.34012e-17
6414.33587 1.34853e-17
6415.80836 1.35678e-17
6417.28086 1.34082e-17
6418.74335 1.34188e-17
6420.21584 1.35539e-17
6421.68834 1.35966e-17
6423.16084 1.35576e-17
6424.62332 1.35164e-17
6426.09582 1.35676e-17
6427.56832 1.36926e-17
6429.04082 1.38067e-17
6430.50330 1.38398e-17
6431.97580 1.38242e-17
6433.44830 1.38998e-17
6434.92080 1.40242e-17
6436.38328 1.41754e-17
6437.85578 1.42025e-17
6439.32828 1.41399e-17
6440.80078 1.41803e-17
6442.26326 1.42121e-17
6443.73576 1.42840e-17
6445.20826 1.43013e-17
6446.68076 1.42533e-17
6448.14324 1.42023e-17
6449.61574 1.41438e-17
6451.08824 1.41651e-17
6452.56074 1.40996e-17
6454.02322 1.40620e-17
6455.49572 1.40341e-17
6456.96822 1.39923e-17
6458.44072 1.39410e-17
6459.90320 1.38906e-17
6461.37570 1.37960e-17
6462.84820 1.39300e-17
6464.32070 1.38493e-17
6465.78318 1.37192e-17
6467.25568 1.37479e-17
6468.72818 1.38574e-17
6470.20067 1.36271e-17
6471.66316 1.35997e-17
6473.13566 1.34942e-17
6474.60815 1.33195e-17
6476.08065 1.32977e-17
6477.54314 1.34036e-17
6479.01563 1.33981e-17
6480.48813 1.34115e-17
6481.96063 1.34753e-17
6483.42311 1.33644e-17
6484.89561 1.32753e-17
6486.36811 1.33800e-17
6487.84061 1.34544e-17
6489.30309 1.34125e-17
6490.77559 1.32501e-17
6492.24809 1.32597e-17
6493.72059 1.33325e-17
6495.18307 1.32438e-17
6496.65557 1.33273e-17
6498.12807 1.35244e-17
6499.59055 1.36011e-17
6501.06305 1.36682e-17
6502.53555 1.36478e-17
6504.00805 1.35568e-17
6505.47053 1.35908e-17
6506.94303 1.36643e-17
6508.41553 1.35555e-17
6509.88803 1.36572e-17
6511.35051 1.35632e-17
6512.82301 1.35315e-17
6514.29551 1.33883e-17
6515.76801 1.32013e-17
6517.23049 1.33328e-17
6518.70299 1.34801e-17
6520.17549 1.37230e-17
6521.64799 1.38546e-17
6523.11047 1.38949e-17
6524.58297 1.38594e-17
6526.05547 1.37160e-17
6527.52797 1.37416e-17
6528.99045 1.39993e-17
6530.46295 1.40862e-17
6531.93545 1.39323e-17
6533.40794 1.38565e-17
6534.87043 1.39113e-17
6536.34292 1.41315e-17
6537.81542 1.40069e-17
6539.28792 1.39289e-17
6540.75040 1.39326e-17
6542.22290 1.39008e-17
6543.69540 1.39312e-17
6545.16790 1.39135e-17
6546.63038 1.38958e-17
6548.10288 1.38782e-17
6549.57538 1.38605e-17
6551.04788 1.38428e-17
6552.51036 1.38252e-17
6553.98286 1.38075e-17
6555.45536 1.37899e-17
6556.92786 1.37722e-17
6558.39034 1.37546e-17
6559.86284 1.37369e-17
6561.33534 1.37193e-17
6562.80784 1.37016e-17
6564.27032 1.36840e-17
6565.74282 1.36663e-17
6567.21532 1.36487e-17
6568.68782 1.36310e-17
6570.15030 1.36134e-17
6571.62280 1.35957e-17
6573.09530 1.35781e-17
6574.56780 1.35605e-17
6576.03028 1.35428e-17
6577.50278 1.35252e-17
6578.97528 1.35075e-17
6580.44778 1.34899e-17
6581.91026 1.34723e-17
6583.38276 1.34546e-17
6584.85526 1.34370e-17
6586.32776 1.34194e-17
6587.79024 1.34018e-17
6589.26274 1.33841e-17
6590.73524 1.33665e-17
6592.20773 1.33489e-17
6593.67022 1.33313e-17
6595.14271 1.33136e-17
6596.61521 1.32960e-17
6598.07770 1.32784e-17
6599.55020 1.32608e-17
6601.02269 1.32432e-17
6602.49519 1.32255e-17
6603.95768 1.32079e-17
6605.43017 1.31903e-17
6606.90267 1.32666e-17
6608.37517 1.33770e-17
6609.83765 1.33210e-17
6611.31015 1.33233e-17
6612.78265 1.33076e-17
6614.25515 1.32178e-17
6615.71763 1.33031e-17
6617.19013 1.33400e-17
6618.66263 1.31956e-17
6620.13513 1.32027e-17
6621.59761 1.33590e-17
6623.07011 1.33781e-17
6624.54261 1.32950e-17
6626.01511 1.32309e-17
6627.47759 1.32166e-17
6628.95009 1.31228e-17
6630.42259 1.30582e-17
6631.89509 1.30508e-17
6633.35757 1.30790e-17
6634.83007 1.31155e-17
6636.30257 1.30435e-17
6637.77507 1.30776e-17
6639.23755 1.31954e-17
6640.71005 1.31971e-17
6642.18255 1.31149e-17
6643.65505 1.31282e-17
6645.11753 1.32332e-17
6646.59003 1.32210e-17
6648.06253 1.32471e-17
6649.53503 1.33263e-17
6650.99751 1.32285e-17
6652.47001 1.31775e-17
6653.94250 1.30754e-17
6655.41500 1.29565e-17
6656.87749 1.29809e-17
6658.34999 1.30107e-17
6659.82248 1.29921e-17
6661.29498 1.29548e-17
6662.75746 1.29319e-17
6664.22996 1.29213e-17
6665.70246 1.28989e-17
6667.17496 1.28184e-17
6668.63744 1.27460e-17
6670.10994 1.27028e-17
6671.58244 1.28165e-17
6673.05494 1.28792e-17
6674.51742 1.27530e-17
6675.98992 1.27149e-17
6677.46242 1.26896e-17
6678.93492 1.25879e-17
6680.39740 1.25717e-17
6681.86990 1.26318e-17
6683.34240 1.26620e-17
6684.80488 1.25503e-17
6686.27738 1.25452e-17
6687.74988 1.25592e-17
6689.22238 1.25876e-17
6690.68486 1.24964e-17
6692.15736 1.23644e-17
6693.62986 1.22709e-17
6695.10236 1.21392e-17
6696.57486 1.21439e-17
6698.03734 1.21508e-17
6699.50984 1.20246e-17
6700.98234 1.19170e-17
6702.44482 1.18486e-17
6703.91732 1.19195e-17
6705.38982 1.19583e-17
6706.86232 1.19129e-17
6708.32480 1.19197e-17
6709.79730 1.18936e-17
6711.26980 1.17901e-17
6712.74230 1.16080e-17
6714.20478 1.15687e-17
6715.67728 1.16708e-17
6717.14977 1.17544e-17
6718.62227 1.18494e-17
6720.08476 1.17744e-17
6721.55725 1.16410e-17
6723.02975 1.16760e-17
6724.50225 1.18403e-17
6725.96474 1.20028e-17
6727.43723 1.21328e-17
6728.90973 1.20604e-17
6730.38223 1.20122e-17
6731.84471 1.20343e-17
6733.31721 1.18775e-17
6734.78971 1.17930e-17
6736.26221 1.18803e-17
6737.72469 1.18364e-17
6739.19719 1.18705e-17
6740.66969 1.19563e-17
6742.14219 1.18729e-17
6743.60467 1.18421e-17
6745.07717 1.19734e-17
6746.54967 1.19357e-17
6748.02217 1.18350e-17
6749.48465 1.17115e-17
6750.95715 1.18149e-17
6752.42965 1.18513e-17
6753.90215 1.18538e-17
6755.36463 1.18705e-17
6756.83713 1.18195e-17
6758.30963 1.17560e-17
6759.78213 1.18841e-17
6761.24461 1.19630e-17
6762.71711 1.19215e-17
6764.18961 1.19716e-17
6765.66211 1.20509e-17
6767.12459 1.20732e-17
6768.59709 1.19914e-17
6770.06959 1.20053e-17
6771.54209 1.19060e-17
6773.00457 1.18428e-17
6774.47707 1.19026e-17
6775.94956 1.18649e-17
6777.42206 1.18022e-17
6778.88455 1.19740e-17
6780.35705 1.20323e-17
6781.82954 1.19072e-17
6783.30204 1.17849e-17
6784.76453 1.18023e-17
6786.23702 1.18304e-17
6787.70952 1.17176e-17
6789.17200 1.18390e-17
6790.64450 1.18770e-17
6792.11700 1.18072e-17
6793.58950 1.17904e-17
6795.05198 1.17779e-17
6796.52448 1.18402e-17
6797.99698 1.18801e-17
6799.46948 1.18020e-17
6800.93196 1.17659e-17
6802.40446 1.17742e-17
6803.87696 1.17464e-17
6805.34946 1.16964e-17
6806.81194 1.17778e-17
6808.28444 1.17507e-17
6809.75694 1.16853e-17
6811.22944 1.16978e-17
6812.69192 1.16808e-17
6814.16442 1.16764e-17
6815.63692 1.17332e-17
6817.10942 1.17345e-17
6818.57190 1.17041e-17
6820.04440 1.17290e-17
6821.51690 1.17048e-17
6822.98940 1.17122e-17
6824.45188 1.17440e-17
6825.92438 1.17284e-17
6827.39688 1.16569e-17
6828.86938 1.16118e-17
6830.33186 1.15712e-17
6831.80436 1.14760e-17
6833.27686 1.14117e-17
6834.74935 1.14477e-17
6836.21184 1.14793e-17
6837.68434 1.13620e-17
6839.15684 1.12813e-17
6840.62933 1.12270e-17
6842.09182 1.12809e-17
6843.56431 1.13419e-17
6845.03681 1.13353e-17
6846.50931 1.13287e-17
6847.97180 1.13220e-17
6849.44429 1.13154e-17
6850.91679 1.13088e-17
6852.38929 1.13022e-17
6853.85177 1.12956e-17
6855.32427 1.12890e-17
6856.79677 1.12824e-17
6858.26927 1.12758e-17
6859.73175 1.12692e-17
6861.20425 1.12626e-17
6862.67675 1.12560e-17
6864.14925 1.12494e-17
6865.61173 1.12428e-17
6867.08423 1.12362e-17
6868.55673 1.12295e-17
6870.02923 1.12229e-17
6871.49171 1.12163e-17
6872.96421 1.12097e-17
6874.43671 1.12031e-17
6875.89919 1.11965e-17
6877.37169 1.11899e-17
6878.84419 1.11833e-17
6880.31669 1.11767e-17
6881.77917 1.11701e-17
6883.25167 1.11635e-17
6884.72417 1.11569e-17
6886.19667 1.11503e-17
6887.66917 1.11437e-17
6889.13165 1.11371e-17
6890.60415 1.11305e-17
6892.07665 1.11239e-17
6893.53913 1.11173e-17
6895.01163 1.11107e-17
6896.48413 1.11041e-17
6897.95662 1.10975e-17
6899.41911 1.10909e-17
6900.89161 1.10843e-17
6902.36410 1.10778e-17
6903.83660 1.10712e-17
6905.29909 1.10646e-17
6906.77159 1.10580e-17
6908.24408 1.10514e-17
6909.71658 1.10448e-17
6911.17907 1.10382e-17
6912.65156 1.10316e-17
6914.12406 1.10250e-17
6915.59656 1.10184e-17
6917.05904 1.10118e-17
6918.53154 1.10052e-17
6920.00404 1.09986e-17
6921.47654 1.09920e-17
6922.93902 1.09855e-17
6924.41152 1.09789e-17
6925.88402 1.09723e-17
6927.35652 1.09657e-17
6928.81900 1.09591e-17
6930.29150 1.09525e-17
6931.76400 1.09459e-17
6933.23650 1.09393e-17
6934.69898 1.09328e-17
6936.17148 1.09262e-17
6937.64398 1.07799e-17
6939.11648 1.09020e-17
6940.57896 1.10274e-17
6942.05146 1.10425e-17
6943.52396 1.10155e-17
6944.99646 1.09083e-17
6946.45894 1.08830e-17
6947.93144 1.08993e-17
6949.40394 1.09242e-17
6950.87644 1.08401e-17
6952.33892 1.07452e-17
6953.81142 1.06890e-17
6955.28392 1.06662e-17
6956.75641 1.06133e-17
6958.21890 1.06120e-17
6959.69140 1.05840e-17
6961.16390 1.05044e-17
6962.62638 1.05365e-17
6964.09888 1.04401e-17
6965.57138 1.03621e-17
6967.04387 1.03413e-17
6968.51637 1.03614e-17
6969.97886 1.03138e-17
6971.45135 1.01871e-17
6972.92385 1.00839e-17
6974.39635 1.00542e-17
6975.85883 1.01057e-17
6977.33133 1.01740e-17
6978.80383 1.00460e-17
6980.26631 9.86644e-18
6981.73881 9.92505e-18
6983.21131 1.00202e-17
6984.68381 1.00133e-17
6986.14629 9.93653e-18
6987.61879 9.80631e-18
6989.09129 9.82068e-18
6990.56379 9.97795e-18
6992.02627 9.97482e-18
6993.49877 9.95242e-18
6994.97127 9.97723e-18
6996.44377 9.98348e-18
6997.90625 1.00147e-17
6999.37875 9.89421e-18
7000.85125 9.76619e-18
7002.32375 9.87906e-18
7003.78623 9.97628e-18
7005.25873 1.00454e-17
7006.73123 1.00646e-17
7008.20373 1.00194e-17
7009.66621 1.00269e-17
7011.13871 1.00410e-17
7012.61121 1.05154e-17
7014.08371 1.03037e-17
7015.54619 1.00193e-17
7017.01869 1.04534e-17
7018.49119 1.05977e-17
7019.96369 1.04928e-17
7021.42617 1.04471e-17
7022.89867 1.04232e-17
7024.37117 1.06252e-17
7025.84366 1.08057e-17
7027.30615 1.08129e-17
7028.77865 1.09196e-17
7030.25114 1.09207e-17
7031.72364 1.08746e-17
7033.18613 1.09261e-17
7034.65862 1.09721e-17
7036.13112 1.09113e-17
7037.60362 1.09348e-17
7039.06610 1.10068e-17
7040.53860 1.09872e-17
7042.01110 1.09639e-17
7043.48360 1.09785e-17
7044.94608 1.09292e-17
7046.41858 1.08160e-17
7047.89108 1.07603e-17
7049.36358 1.09329e-17
7050.82606 1.09813e-17
7052.29856 1.09001e-17
7053.77106 1.09112e-17
7055.24356 1.08970e-17
7056.70604 1.09174e-17
7058.17854 1.08738e-17
7059.65104 1.08962e-17
7061.12354 1.10229e-17
7062.58602 1.10334e-17
7064.05852 1.10049e-17
7065.53102 1.09745e-17
7066.99350 1.09893e-17
7068.46600 1.09337e-17
7069.93850 1.08674e-17
7071.41100 1.09116e-17
7072.88350 1.09690e-17
7074.34598 1.08278e-17
7075.81848 1.07340e-17
7077.29098 1.09982e-17
7078.76348 1.10449e-17
7080.22596 1.08680e-17
7081.69846 1.07669e-17
7083.17095 1.07523e-17
7084.63344 1.06542e-17
7086.10594 1.06002e-17
7087.57844 1.07290e-17
7089.05093 1.06897e-17
7090.51342 1.05207e-17
7091.98592 1.05772e-17
7093.45841 1.06312e-17
7094.93091 1.05999e-17
7096.39340 1.07151e-17
7097.86589 1.07432e-17
7099.33839 1.06225e-17
7100.81089 1.05835e-17
7102.27337 1.06397e-17
7103.74587 1.06454e-17
7105.21837 1.05849e-17
7106.69087 1.06459e-17
7108.15335 1.05725e-17
7109.62585 1.04422e-17
7111.09835 1.04686e-17
7112.57085 1.05063e-17
7114.03333 1.05848e-17
7115.50583 1.05838e-17
7116.97833 1.04175e-17
7118.45083 1.03951e-17
7119.91331 1.05869e-17
7121.38581 1.06735e-17
7122.85831 1.05941e-17
7124.33081 1.06289e-17
7125.79329 1.07316e-17
7127.26579 1.07187e-17
7128.73829 1.06597e-17
7130.21079 1.06694e-17
7131.67327 1.07544e-17
7133.14577 1.08252e-17
7134.61827 1.08181e-17
7136.09077 1.07803e-17
7137.55325 1.08206e-17
7139.02575 1.10036e-17
7140.49825 1.10505e-17
7141.97075 1.08989e-17
7143.43323 1.09138e-17
7144.90573 1.09198e-17
7146.37823 1.08947e-17
7147.85072 1.09936e-17
7149.31321 1.09407e-17
7150.78571 1.08069e-17
7152.25820 1.08119e-17
7153.73070 1.08447e-17
7155.19319 1.08672e-17
7156.66568 1.10562e-17
7158.13818 1.12275e-17
7159.61068 1.12750e-17
7161.07316 1.12350e-17
7162.54566 1.10816e-17
7164.01816 1.10722e-17
7165.49066 1.10689e-17
7166.95314 1.09735e-17
7168.42564 1.11520e-17
7169.89814 1.14212e-17
7171.36062 1.13383e-17
7172.83312 1.11122e-17
7174.30562 1.11236e-17
7175.77812 1.10046e-17
7177.24060 1.07370e-17
7178.71310 1.09092e-17
7180.18560 1.10663e-17
7181.65810 1.09794e-17
7183.12058 1.09165e-17
7184.59308 1.06970e-17
7186.06558 1.05163e-17
7187.53808 1.08023e-17
7189.00056 1.12748e-17
7190.47306 1.11640e-17
7191.94556 1.07752e-17
7193.41806 1.09585e-17
7194.88054 1.13394e-17
7196.35304 1.13581e-17
7197.82554 1.12579e-17
7199.29804 1.10225e-17
7200.76052 1.08157e-17
7202.23302 1.10220e-17
7203.70552 1.10108e-17
7205.17802 1.07704e-17
7206.64050 1.08309e-17
7208.11300 1.08661e-17
7209.58550 1.07585e-17
7211.05799 1.08658e-17
7212.52048 1.09541e-17
7213.99298 1.08338e-17
7215.46547 1.07941e-17
7216.93797 1.07666e-17
7218.40045 1.07860e-17
7219.87295 1.08455e-17
7221.34545 1.08936e-17
7222.81795 1.09832e-17
7224.28043 1.09859e-17
7225.75293 1.08999e-17
7227.22543 1.09055e-17
7228.69793 1.11678e-17
7230.16041 1.13797e-17
7231.63291 1.12531e-17
7233.10541 1.10912e-17
7234.57791 1.11095e-17
7236.04039 1.15479e-17
7237.51289 1.19313e-17
7238.98539 1.16010e-17
7240.45789 1.12299e-17
7241.92037 1.14953e-17
7243.39287 1.16780e-17
7244.86537 1.16049e-17
7246.33787 1.17602e-17
7247.80035 1.17578e-17
7249.27285 1.17130e-17
7250.74535 1.16482e-17
7252.21785 1.13229e-17
7253.68033 1.14176e-17
7255.15283 1.18658e-17
7256.62533 1.17337e-17
7258.08781 1.14909e-17
7259.56031 1.15937e-17
7261.03281 1.14961e-17
7262.50531 1.15215e-17
7263.97780 1.15975e-17
7265.44029 1.15357e-17
7266.91279 1.17300e-17
7268.38529 1.19243e-17
7269.84777 1.23471e-17
7271.32027 1.24078e-17
7272.79277 1.19463e-17
7274.26526 1.18876e-17
7275.72775 1.15741e-17
7277.20025 1.13660e-17
7278.67274 1.19407e-17
7280.14524 1.21121e-17
7281.60772 1.18444e-17
7283.08022 1.18960e-17
7284.55272 1.20872e-17
7286.02522 1.19919e-17
7287.48770 1.17485e-17
7288.96020 1.17665e-17
7290.43270 1.15441e-17
7291.90520 1.14276e-17
7293.36768 1.16060e-17
7294.84018 1.15341e-17
7296.31268 1.15887e-17
7297.78518 1.17064e-17
7299.24766 1.15905e-17
7300.72016 1.14369e-17
7302.19266 1.12629e-17
7303.66516 1.11008e-17
7305.12764 1.14800e-17
7306.60014 1.18188e-17
7308.07264 1.13962e-17
7309.54514 1.10670e-17
7311.00762 1.12141e-17
7312.48012 1.12924e-17
7313.95262 1.14929e-17
7315.42512 1.15391e-17
7316.88760 1.12985e-17
7318.36010 1.12192e-17
7319.83260 1.13685e-17
7321.30510 1.14521e-17
7322.76758 1.12008e-17
7324.24008 1.10927e-17
7325.71258 1.11420e-17
7327.18508 1.10839e-17
7328.64756 1.10734e-17
7330.12006 1.10574e-17
7331.59256 1.09585e-17
7333.06505 1.08888e-17
7334.52754 1.07656e-17
7336.00004 1.07616e-17
7337.47253 1.07769e-17
7338.94503 1.07033e-17
7340.40751 1.05528e-17
7341.88001 1.05556e-17
7343.35251 1.05008e-17
7344.82501 1.04758e-17
7346.28749 1.06722e-17
7347.75999 1.05706e-17
7349.23249 1.05138e-17
7350.70499 1.06014e-17
7352.16747 1.07725e-17
7353.63997 1.08363e-17
7355.11247 1.08041e-17
7356.57495 1.07922e-17
7358.04745 1.07200e-17
7359.51995 1.06838e-17
7360.99245 1.06692e-17
7362.45493 1.08209e-17
7363.92743 1.07539e-17
7365.39993 1.05378e-17
7366.87243 1.04178e-17
7368.33491 1.04040e-17
7369.80741 1.05612e-17
7371.27991 1.06797e-17
7372.75241 1.05471e-17
7374.21489 1.04720e-17
7375.68739 1.06451e-17
7377.15989 1.07012e-17
7378.63239 1.07449e-17
7380.09487 1.09581e-17
7381.56737 1.10722e-17
7383.03987 1.09889e-17
7384.51237 1.09963e-17
7385.97485 1.10829e-17
7387.44735 1.10733e-17
7388.91985 1.11891e-17
7390.39235 1.12104e-17
7391.85483 1.11353e-17
7393.32733 1.10625e-17
7394.79983 1.09483e-17
7396.27232 1.09849e-17
7397.73481 1.10741e-17
7399.20730 1.10537e-17
7400.67980 1.10214e-17
7402.15230 1.10563e-17
7403.61479 1.10015e-17
7405.08728 1.08714e-17
7406.55978 1.09114e-17
7408.03228 1.09722e-17
7409.49476 1.07882e-17
7410.96726 1.06700e-17
7412.43976 1.06872e-17
7413.91226 1.06606e-17
7415.37474 1.06216e-17
7416.84724 1.06447e-17
7418.31974 1.06779e-17
7418.36983 1.06779e-17
7419.23129 1.06832e-17
7420.09275 1.06842e-17
7420.95421 1.06852e-17
7421.82569 1.06831e-17
7422.68715 1.06809e-17
7423.54861 1.06809e-17
7424.41008 1.06809e-17
7425.27154 1.06862e-17
7426.13300 1.06915e-17
7426.99446 1.07009e-17
7427.85592 1.07102e-17
7428.71739 1.07212e-17
7429.57885 1.07322e-17
7430.44031 1.07396e-17
7431.31179 1.07469e-17
7432.17325 1.07466e-17
7433.03471 1.07461e-17
7433.89618 1.07422e-17
7434.75764 1.07382e-17
7435.61910 1.07353e-17
7436.48056 1.07323e-17
7437.34202 1.07315e-17
7438.20349 1.07306e-17
7439.06495 1.07323e-17
7439.92641 1.07340e-17
7440.79789 1.07380e-17
7441.65935 1.07419e-17
7442.52081 1.07471e-17
7443.38227 1.07522e-17
7444.24374 1.07584e-17
7445.10520 1.07646e-17
7445.96666 1.07722e-17
7446.82812 1.07800e-17
7447.68959 1.07847e-17
7448.55105 1.07894e-17
7449.41251 1.07836e-17
7450.28399 1.07778e-17
7451.14545 1.07633e-17
7452.00691 1.07488e-17
7452.86837 1.07354e-17
7453.72984 1.07220e-17
7454.59130 1.07131e-17
7455.45276 1.07044e-17
7456.31422 1.06961e-17
7457.17568 1.06879e-17
7458.03715 1.06784e-17
7458.89861 1.06689e-17
7459.77009 1.06579e-17
7460.63155 1.06470e-17
7461.49301 1.06369e-17
7462.35447 1.06267e-17
7463.21594 1.06270e-17
7464.07740 1.06274e-17
7464.93886 1.06437e-17
7465.80032 1.06601e-17
7466.66178 1.06846e-17
7467.52325 1.07090e-17
7468.38471 1.07325e-17
7469.25619 1.07559e-17
7470.11765 1.07696e-17
7470.97911 1.07833e-17
7471.84057 1.07799e-17
7472.70203 1.07765e-17
7473.56350 1.07646e-17
7474.42496 1.07528e-17
7475.28642 1.07446e-17
7476.14788 1.07365e-17
7477.00934 1.07327e-17
7477.87081 1.07289e-17
7478.73227 1.07263e-17
7479.60375 1.07236e-17
7480.46521 1.07196e-17
7481.32667 1.07156e-17
7482.18813 1.07068e-17
7483.04960 1.06981e-17
7483.91106 1.06861e-17
7484.77252 1.06739e-17
7485.63398 1.06632e-17
7486.49544 1.06525e-17
7487.35690 1.06438e-17
7488.21837 1.06351e-17
7489.08985 1.06251e-17
7489.95131 1.06151e-17
7490.81277 1.06027e-17
7491.67423 1.05902e-17
7492.53569 1.05770e-17
7493.39716 1.05638e-17
7494.25862 1.05508e-17
7495.12008 1.05379e-17
7495.98154 1.05256e-17
7496.84300 1.05133e-17
7497.70447 1.05014e-17
7498.57595 1.04896e-17
7499.43741 1.04762e-17
7500.29887 1.04628e-17
7501.16033 1.04463e-17
7502.02179 1.04298e-17
7502.88325 1.04121e-17
7503.74472 1.03944e-17
7504.60618 1.03772e-17
7505.46764 1.03599e-17
7506.32910 1.03385e-17
7507.19056 1.03170e-17
7508.06204 1.02869e-17
7508.92351 1.02567e-17
7509.78497 1.02186e-17
7510.64643 1.01803e-17
7511.50789 1.01359e-17
7512.36935 1.00916e-17
7513.23082 1.00498e-17
7514.09228 1.00080e-17
7514.95374 9.98033e-18
7515.81520 9.95270e-18
7516.67666 9.93501e-18
7517.54814 9.91732e-18
7518.40960 9.89634e-18
7519.27107 9.87528e-18
7520.13253 9.84563e-18
7520.99399 9.81598e-18
7521.85545 9.77875e-18
7522.71691 9.74160e-18
7523.57838 9.69973e-18
7524.43984 9.65786e-18
7525.30130 9.61751e-18
7526.16276 9.57708e-18
7527.02423 9.54061e-18
7527.89570 9.50405e-18
7528.75717 9.46639e-18
7529.61863 9.42874e-18
7530.48009 9.38653e-18
7531.34155 9.34433e-18
7532.20301 9.29859e-18
7533.06448 9.25293e-18
7533.92594 9.20416e-18
7534.78740 9.15539e-18
7535.64886 9.10013e-18
7536.52034 9.04487e-18
7537.38180 8.98143e-18
7538.24327 8.91800e-18
7539.10473 8.85390e-18
7539.96619 8.78979e-18
7540.82765 8.73276e-18
7541.68911 8.67574e-18
7542.55058 8.62637e-18
7543.41204 8.57701e-18
7544.27350 8.53405e-18
7545.13496 8.49109e-18
7545.99642 8.44787e-18
7546.86790 8.40462e-18
7547.72936 8.35274e-18
7548.59083 8.30085e-18
7549.45229 8.24029e-18
7550.31375 8.17972e-18
7551.17521 8.11464e-18
7552.03667 8.04957e-18
7552.89814 7.98456e-18
7553.75960 7.91955e-18
7554.62106 7.85960e-18
7555.48252 7.79966e-18
7556.35400 7.74588e-18
7557.21546 7.69210e-18
7558.07693 7.64118e-18
7558.93839 7.59026e-18
7559.79985 7.53939e-18
7560.66131 7.48852e-18
7561.52277 7.43629e-18
7562.38424 7.38407e-18
7563.24570 7.32819e-18
7564.10716 7.27231e-18
7564.96862 7.20777e-18
7565.84010 7.14322e-18
7566.70156 7.06998e-18
7567.56302 6.99672e-18
7568.42449 6.92882e-18
7569.28595 6.86093e-18
7570.14741 6.81006e-18
7571.00887 6.75923e-18
7571.87033 6.72712e-18
7572.73180 6.69504e-18
7573.59326 6.67979e-18
7574.45472 6.66458e-18
7575.31618 6.64492e-18
7576.18766 6.62527e-18
7577.04912 6.57789e-18
7577.91059 6.53046e-18
7578.77205 6.46811e-18
7579.63351 6.40574e-18
7580.49497 6.34883e-18
7581.35643 6.29193e-18
7582.21790 6.23723e-18
7583.07936 6.18254e-18
7583.94082 6.12054e-18
7584.81230 6.05853e-18
7585.67376 5.95490e-18
7586.53522 5.85117e-18
7587.39668 5.65821e-18
7588.25815 5.46508e-18
7589.11961 5.19223e-18
7589.98107 4.91924e-18
7590.84253 4.62338e-18
7591.70399 4.32750e-18
7592.56546 4.06281e-18
7593.42692 3.79818e-18
7594.28838 3.61539e-18
7595.15986 3.43276e-18
7596.02132 3.35718e-18
7596.88278 3.28181e-18
7597.74425 3.28896e-18
7598.60571 3.29627e-18
7599.46717 3.36843e-18
7600.32863 3.44071e-18
7601.19009 3.59129e-18
7602.05156 3.74202e-18
7602.91302 3.97139e-18
7603.77448 4.20090e-18
7604.64596 4.47940e-18
7605.50742 4.75799e-18
7606.36888 5.05020e-18
7607.23034 5.34243e-18
7608.09181 5.61236e-18
7608.95327 5.88224e-18
7609.81473 6.09391e-18
7610.67619 6.30546e-18
7611.53765 6.40853e-18
7612.39912 6.51137e-18
7613.26058 6.46535e-18
7614.13206 6.41904e-18
7614.99352 6.22614e-18
7615.85498 6.03296e-18
7616.71644 5.71596e-18
7617.57791 5.39871e-18
7618.43937 5.05225e-18
7619.30083 4.70574e-18
7620.16229 4.45737e-18
7621.02375 4.20920e-18
7621.88522 4.10718e-18
7622.74668 4.00547e-18
7623.61816 4.03968e-18
7624.47962 4.07417e-18
7625.34108 4.20082e-18
7626.20254 4.32766e-18
7627.06400 4.46627e-18
7627.92547 4.60490e-18
7628.78693 4.71074e-18
7629.64839 4.81650e-18
7630.50985 4.90646e-18
7631.37131 4.99639e-18
7632.23278 5.08146e-18
7633.10426 5.16652e-18
7633.96572 5.24625e-18
7634.82718 5.32599e-18
7635.68864 5.40040e-18
7636.55010 5.47481e-18
7637.41157 5.52925e-18
7638.27303 5.58365e-18
7639.13449 5.61071e-18
7639.99595 5.63772e-18
7640.85741 5.66312e-18
7641.71888 5.68852e-18
7642.59035 5.73777e-18
7643.45182 5.78706e-18
7644.31328 5.87105e-18
7645.17474 5.95509e-18
7646.03620 6.07843e-18
7646.89766 6.20185e-18
7647.75913 6.33127e-18
7648.62059 6.46069e-18
7649.48205 6.55422e-18
7650.34351 6.64768e-18
7651.20497 6.69638e-18
7652.06644 6.74501e-18
7652.93792 6.75355e-18
7653.79938 6.76200e-18
7654.66084 6.76257e-18
7655.52230 6.76312e-18
7656.38376 6.80543e-18
7657.24523 6.84782e-18
7658.10669 6.93989e-18
7658.96815 7.03206e-18
7659.82961 7.14661e-18
7660.69107 7.26120e-18
7661.55254 7.37503e-18
7662.42401 7.48885e-18
7663.28548 7.58093e-18
7664.14694 7.67297e-18
7665.00840 7.74204e-18
7665.86986 7.81108e-18
7666.73132 7.89703e-18
7667.59279 7.98302e-18
7668.45425 8.10438e-18
7669.31571 8.22579e-18
7670.17717 8.34471e-18
7671.03863 8.46363e-18
7671.91011 8.54963e-18
7672.77158 8.63555e-18
7673.63304 8.68306e-18
7674.49450 8.73041e-18
7675.35596 8.74153e-18
7676.21742 8.75256e-18
7677.07889 8.77227e-18
7677.94035 8.79190e-18
7678.80181 8.86510e-18
7679.66327 8.93847e-18
7680.52473 9.03872e-18
7681.38620 9.13896e-18
7682.25767 9.22429e-18
7683.11914 9.30971e-18
7683.98060 9.38005e-18
7684.84206 9.45039e-18
7685.70352 9.51752e-18
7686.56498 9.58466e-18
7687.42645 9.65138e-18
7688.28791 9.71801e-18
7689.14937 9.78523e-18
7690.01083 9.85245e-18
7690.88231 9.91378e-18
7691.74377 9.97510e-18
7692.60524 1.00176e-17
7693.46670 1.00601e-17
7694.32816 1.00869e-17
7695.18962 1.01137e-17
7696.05108 1.01446e-17
7696.91255 1.01755e-17
7697.77401 1.02180e-17
7698.63547 1.02605e-17
7699.49693 1.03046e-17
7700.35839 1.03485e-17
7701.22987 1.03857e-17
7702.09133 1.04228e-17
7702.95280 1.04481e-17
7703.81426 1.04732e-17
7704.67572 1.04831e-17
7705.53718 1.04927e-17
7706.39864 1.04879e-17
7707.26011 1.04829e-17
7708.12157 1.04676e-17
7708.98303 1.04524e-17
7709.84449 1.04445e-17
7710.71597 1.04366e-17
7711.57743 1.04519e-17
7712.43890 1.04672e-17
7713.30036 1.05018e-17
7714.16182 1.05365e-17
7715.02328 1.05820e-17
7715.88474 1.06274e-17
7716.74620 1.06696e-17
7717.60767 1.07118e-17
7718.46913 1.07358e-17
7719.33059 1.07598e-17
7720.20207 1.07644e-17
7721.06353 1.07690e-17
7721.92499 1.07599e-17
7722.78646 1.07507e-17
7723.64792 1.07371e-17
7724.50938 1.07236e-17
7725.37084 1.07182e-17
7726.23230 1.07129e-17
7727.09377 1.07199e-17
7727.95523 1.07269e-17
7728.81669 1.07421e-17
7729.67815 1.07573e-17
7730.54963 1.07798e-17
7731.41109 1.08024e-17
7732.27255 1.08369e-17
7733.13402 1.08714e-17
7733.99548 1.09124e-17
7734.85694 1.09534e-17
7735.71840 1.09787e-17
7736.57986 1.10040e-17
7737.44133 1.10010e-17
7738.30279 1.09981e-17
7739.17427 1.09759e-17
7740.03573 1.09538e-17
7740.89719 1.09242e-17
7741.75865 1.08946e-17
7742.62012 1.08753e-17
7743.48158 1.08559e-17
7744.34304 1.08610e-17
7745.20450 1.08662e-17
7746.06596 1.08861e-17
7746.92743 1.09061e-17
7747.78889 1.09275e-17
7748.65035 1.09489e-17
7749.52183 1.09670e-17
7750.38329 1.09850e-17
7751.24475 1.09963e-17
7752.10621 1.10076e-17
7752.96768 1.10122e-17
7753.82914 1.10166e-17
7754.69060 1.10169e-17
7755.55206 1.10170e-17
7756.41352 1.10100e-17
7757.27499 1.10028e-17
7758.13645 1.09824e-17
7759.00793 1.09621e-17
7759.86939 1.09344e-17
7760.73085 1.09066e-17
7761.59231 1.08855e-17
7762.45378 1.08643e-17
7763.31524 1.08531e-17
7764.17670 1.08418e-17
7765.03816 1.08332e-17
7765.89962 1.08246e-17
7766.76109 1.08130e-17
7767.62255 1.08014e-17
7768.49403 1.07825e-17
7769.35549 1.07636e-17
7770.21695 1.07371e-17
7771.07841 1.07106e-17
7771.93988 1.06855e-17
7772.80134 1.06605e-17
7773.66280 1.06434e-17
7774.52426 1.06264e-17
7775.38572 1.06140e-17
7776.24719 1.06016e-17
7777.10865 1.05910e-17
7777.98013 1.05804e-17
7778.84159 1.05733e-17
7779.70305 1.05661e-17
7780.56451 1.05638e-17
7781.42597 1.05616e-17
7782.28744 1.05638e-17
7783.14890 1.05659e-17
7784.01036 1.05717e-17
7784.87182 1.05774e-17
7785.73328 1.05859e-17
7786.59475 1.05944e-17
7787.46623 1.06047e-17
7788.32769 1.06151e-17
7789.18915 1.06242e-17
7790.05061 1.06333e-17
7790.91207 1.06380e-17
7791.77354 1.06425e-17
7792.63500 1.06408e-17
7793.49646 1.06392e-17
7794.35792 1.06306e-17
7795.21938 1.06221e-17
7796.08085 1.06107e-17
7796.94231 1.05993e-17
7797.81379 1.05923e-17
7798.67525 1.05854e-17
7799.53671 1.05884e-17
7800.39817 1.05914e-17
7801.25963 1.06079e-17
7802.12110 1.06245e-17
7802.98256 1.06518e-17
7803.84402 1.06792e-17
7804.70548 1.07034e-17
7805.56694 1.07278e-17
7806.42841 1.07391e-17
7807.29989 1.07503e-17
7808.16135 1.07498e-17
7809.02281 1.07492e-17
7809.88427 1.07386e-17
7810.74573 1.07280e-17
7811.60720 1.07097e-17
7812.46866 1.06912e-17
7813.33012 1.06683e-17
7814.19158 1.06454e-17
7815.05304 1.06221e-17
7815.91450 1.05989e-17
7816.78598 1.05792e-17
7817.64745 1.05595e-17
7818.50891 1.05480e-17
7819.37037 1.05365e-17
7820.23183 1.05371e-17
7821.09329 1.05376e-17
7821.95476 1.05416e-17
7822.81622 1.05456e-17
7823.67768 1.05403e-17
7824.53914 1.05349e-17
7825.40060 1.05185e-17
7826.27208 1.05021e-17
7827.13355 1.04787e-17
7827.99501 1.04553e-17
7828.85647 1.04281e-17
7829.71793 1.04010e-17
7830.57939 1.03734e-17
7831.44085 1.03458e-17
7832.30232 1.03198e-17
7833.16378 1.02939e-17
7834.02524 1.02696e-17
7834.88670 1.02453e-17
7835.75818 1.02250e-17
7836.61964 1.02047e-17
7837.48111 1.01947e-17
7838.34257 1.01847e-17
7839.20403 1.01866e-17
7840.06549 1.01885e-17
7840.92695 1.01952e-17
7841.78842 1.02020e-17
7842.64988 1.02073e-17
7843.51134 1.02127e-17
7844.37280 1.02139e-17
7845.23426 1.02152e-17
7846.10574 1.02105e-17
7846.96720 1.02060e-17
7847.82867 1.01979e-17
7848.69013 1.01898e-17
7849.55159 1.01811e-17
7850.41305 1.01725e-17
7851.27452 1.01651e-17
7852.13598 1.01576e-17
7852.99744 1.01526e-17
7853.85890 1.01476e-17
7854.72036 1.01461e-17
7855.59184 1.01446e-17
7856.45330 1.01470e-17
7857.31477 1.01496e-17
7858.17623 1.01522e-17
7859.03769 1.01548e-17
7859.89915 1.01514e-17
7860.76061 1.01480e-17
7861.62208 1.01391e-17
7862.48354 1.01302e-17
7863.34500 1.01207e-17
7864.20646 1.01111e-17
7865.07794 1.00984e-17
7865.93940 1.00858e-17
7866.80087 1.00615e-17
7867.66233 1.00374e-17
7868.52379 1.00007e-17
7869.38525 9.96415e-18
7870.24671 9.92212e-18
7871.10818 9.88000e-18
7871.96964 9.84226e-18
7872.83110 9.80444e-18
7873.69256 9.78675e-18
7874.56404 9.76923e-18
7875.42550 9.77790e-18
7876.28696 9.78666e-18
7877.14843 9.80385e-18
7878.00989 9.82103e-18
7878.87135 9.83021e-18
7879.73281 9.83948e-18
7880.59427 9.83569e-18
7881.45574 9.83190e-18
7882.31720 9.81244e-18
7883.17866 9.79290e-18
7884.05014 9.76459e-18
7884.91160 9.73629e-18
7885.77306 9.70773e-18
7886.63453 9.67926e-18
7887.49599 9.64986e-18
7888.35745 9.62038e-18
7889.21891 9.58803e-18
7890.08037 9.55568e-18
7890.94184 9.52216e-18
7891.80330 9.48871e-18
7892.66476 9.45611e-18
7893.52622 9.42360e-18
7894.39770 9.40043e-18
7895.25916 9.37727e-18
7896.12062 9.37525e-18
7896.98209 9.37314e-18
7897.84355 9.38552e-18
7898.70501 9.39782e-18
7899.56647 9.40507e-18
7900.42793 9.41231e-18
7901.28940 9.40591e-18
7902.15086 9.39951e-18
7903.01232 9.38156e-18
7903.88380 9.36354e-18
7904.74526 9.33953e-18
7905.60672 9.31561e-18
7906.46819 9.29808e-18
7907.32965 9.28065e-18
7908.19111 9.27458e-18
7909.05257 9.26852e-18
7909.91403 9.25984e-18
7910.77550 9.25116e-18
7911.63696 9.23154e-18
7912.49842 9.21191e-18
7913.36990 9.19136e-18
7914.23136 9.17072e-18
7915.09282 9.15758e-18
7915.95428 9.14443e-18
7916.81575 9.13930e-18
7917.67721 9.13416e-18
7918.53867 9.13593e-18
7919.40013 9.13770e-18
7920.26159 9.13399e-18
7921.12306 9.13037e-18
7921.98452 9.10880e-18
7922.85600 9.08715e-18
7923.71746 9.05531e-18
7924.57892 9.02347e-18
7925.44038 8.99474e-18
7926.30185 8.96594e-18
7927.16331 8.94808e-18
7928.02477 8.93022e-18
7928.88623 8.92845e-18
7929.74769 8.92676e-18
7930.60916 8.93788e-18
7931.47062 8.94900e-18
7932.34210 8.96383e-18
7933.20356 8.97874e-18
7934.06502 8.98944e-18
7934.92648 9.00014e-18
7935.78794 9.00014e-18
7936.64941 9.00022e-18
7937.51087 8.98624e-18
7938.37233 8.97217e-18
7939.23379 8.94488e-18
7940.09525 8.91750e-18
7940.95672 8.88085e-18
7941.81818 8.84421e-18
7942.68966 8.80740e-18
7943.55112 8.77059e-18
7944.41258 8.74077e-18
7945.27404 8.71095e-18
7946.13551 8.68938e-18
7946.99697 8.66782e-18
7947.85843 8.65442e-18
7948.71989 8.64095e-18
7949.58135 8.63320e-18
7950.44282 8.62545e-18
7951.30428 8.61989e-18
7952.17576 8.61433e-18
7953.03722 8.60354e-18
7953.89868 8.59276e-18
7954.76014 8.57035e-18
7955.62160 8.54795e-18
7956.48307 8.52327e-18
7957.34453 8.49850e-18
7958.20599 8.48367e-18
7959.06745 8.46893e-18
7959.92891 8.46489e-18
7960.79038 8.46085e-18
7961.66186 8.46497e-18
7962.52332 8.46902e-18
7963.38478 8.47483e-18
7964.24624 8.48064e-18
7965.10770 8.47887e-18
7965.96917 8.47702e-18
7966.83063 8.47298e-18
7967.69209 8.46885e-18
7968.55355 8.47786e-18
7969.41501 8.48696e-18
7970.27648 8.51265e-18
7971.14795 8.53843e-18
7972.00942 8.57305e-18
7972.87088 8.60767e-18
7973.73234 8.64078e-18
7974.59380 8.67397e-18
7975.45526 8.69048e-18
7976.31673 8.70699e-18
7977.17819 8.70042e-18
7978.03965 8.69385e-18
7978.90111 8.67658e-18
7979.76257 8.65931e-18
7980.63405 8.64212e-18
7981.49552 8.62502e-18
7982.35698 8.61062e-18
7983.21844 8.59622e-18
7984.07990 8.58628e-18
7984.94136 8.57634e-18
7985.80283 8.56724e-18
7986.66429 8.55822e-18
7987.52575 8.54618e-18
7988.38721 8.53405e-18
7989.24867 8.52057e-18
7990.11014 8.50709e-18
7990.98161 8.49420e-18
7991.84308 8.48131e-18
7992.70454 8.47298e-18
7993.56600 8.46464e-18
7994.42746 8.46539e-18
7995.28892 8.46624e-18
7996.15039 8.46708e-18
7997.01185 8.46792e-18
7997.87331 8.45444e-18
7998.73477 8.44097e-18
7999.59623 8.41491e-18
8000.46771 8.38886e-18
8001.32917 8.36112e-18
8002.19064 8.33338e-18
8003.05210 8.31219e-18
8003.91356 8.29101e-18
8004.77502 8.28337e-18
8005.63649 8.27577e-18
8006.49795 8.27989e-18
8007.35941 8.28404e-18
8008.22087 8.28557e-18
8009.08233 8.28710e-18
8009.95381 8.28135e-18
8010.81527 8.27560e-18
8011.67674 8.27631e-18
8012.53820 8.27702e-18
8013.39966 8.29085e-18
8014.26112 8.30470e-18
8015.12258 8.32200e-18
8015.98405 8.33929e-18
8016.84551 8.35083e-18
8017.70697 8.36235e-18
8018.56843 8.35878e-18
8019.43991 8.35519e-18
8020.30137 8.33076e-18
8021.16284 8.30629e-18
8022.02430 8.27650e-18
8022.88576 8.24669e-18
8023.74722 8.22863e-18
8024.60868 8.21060e-18
8025.47015 8.20377e-18
8026.33161 8.19697e-18
8027.19307 8.19682e-18
8028.05453 8.19668e-18
8028.92601 8.19757e-18
8029.78747 8.19846e-18
8030.64893 8.19387e-18
8031.51040 8.18926e-18
8032.37186 8.17984e-18
8033.23332 8.17040e-18
8034.09478 8.16070e-18
8034.95624 8.15100e-18
8035.81771 8.14395e-18
8036.67917 8.13691e-18
8037.54063 8.13426e-18
8038.41211 8.13163e-18
8039.27357 8.13403e-18
8040.13503 8.13643e-18
8040.99650 8.14310e-18
8041.85796 8.14977e-18
8042.71942 8.15849e-18
8043.58088 8.16721e-18
8044.44234 8.17407e-18
8045.30380 8.18091e-18
8046.16527 8.18294e-18
8047.02673 8.18496e-18
8047.88819 8.18079e-18
8048.75967 8.17660e-18
8049.62113 8.16696e-18
8050.48259 8.15730e-18
8051.34406 8.14932e-18
8052.20552 8.14133e-18
8053.06698 8.14033e-18
8053.92844 8.13934e-18
8054.78990 8.14127e-18
8055.65137 8.14321e-18
8056.51283 8.14299e-18
8057.37429 8.14276e-18
8058.24577 8.13431e-18
8059.10723 8.12584e-18
8059.96869 8.10399e-18
8060.83015 8.08211e-18
8061.69162 8.05107e-18
8062.55308 8.02000e-18
8063.41454 7.98692e-18
8064.27600 7.95384e-18
8065.13746 7.92686e-18
8065.99893 7.89989e-18
8066.86039 7.88696e-18
8067.73187 7.87406e-18
8068.59333 7.87565e-18
8069.45479 7.87725e-18
8070.31625 7.88908e-18
8071.17772 7.90093e-18
8072.03918 7.91453e-18
8072.90064 7.92813e-18
8073.76210 7.93138e-18
8074.62356 7.93459e-18
8075.48503 7.92303e-18
8076.34649 7.91143e-18
8077.21797 7.89082e-18
8078.07943 7.87020e-18
8078.94089 7.84417e-18
8079.80235 7.81813e-18
8080.66381 7.78599e-18
8081.52528 7.75384e-18
8082.38674 7.71610e-18
8083.24820 7.67833e-18
8084.10966 7.63658e-18
8084.97113 7.59481e-18
8085.83259 7.55093e-18
8086.70407 7.50702e-18
8087.56553 7.46377e-18
8088.42699 7.42053e-18
8089.28845 7.38055e-18
8090.14991 7.34057e-18
8091.01138 7.30620e-18
8091.87284 7.27185e-18
8092.73430 7.24435e-18
8093.59576 7.21687e-18
8094.45722 7.19572e-18
8095.31869 7.17459e-18
8096.18015 7.15809e-18
8097.05163 7.14161e-18
8097.91309 7.12057e-18
8098.77455 7.09953e-18
8099.63601 7.06306e-18
8100.49748 7.02655e-18
8101.35894 6.97121e-18
8102.22040 6.91581e-18
8103.08186 6.84230e-18
8103.94332 6.76874e-18
8104.80479 6.68595e-18
8105.67626 6.60314e-18
8106.53773 6.52552e-18
8107.39919 6.44792e-18
8108.26065 6.38448e-18
8109.12211 6.32108e-18
8109.98357 6.27487e-18
8110.84504 6.22870e-18
8111.70650 6.19568e-18
8112.56796 6.16268e-18
8113.42942 6.12868e-18
8114.29088 6.09468e-18
8115.15235 6.04827e-18
8116.02383 6.00183e-18
8116.88529 5.93814e-18
8117.74675 5.87442e-18
8118.60821 5.79254e-18
8119.46967 5.71062e-18
8120.33114 5.62235e-18
8121.19260 5.53409e-18
8122.05406 5.44889e-18
8122.91552 5.36371e-18
8123.77698 5.27105e-18
8124.63845 5.17837e-18
8125.49991 5.06846e-18
8126.37139 4.95852e-18
8127.23285 4.83661e-18
8128.09431 4.71467e-18
8128.95577 4.58846e-18
8129.81723 4.46225e-18
8130.67870 4.34651e-18
8131.54016 4.23080e-18
8132.40162 4.14143e-18
8133.26308 4.05214e-18
8134.12454 3.98061e-18
8134.99602 3.90912e-18
8135.85749 3.83631e-18
8136.71895 3.76349e-18
8137.58041 3.68214e-18
8138.44187 3.60078e-18
8139.30333 3.51063e-18
8140.16480 3.42045e-18
8141.02626 3.32380e-18
8141.88772 3.22713e-18
8142.74918 3.12935e-18
8143.61064 3.03157e-18
8144.47210 2.93800e-18
8145.34358 2.84444e-18
8146.20505 2.75934e-18
8147.06651 2.67427e-18
8147.92797 2.60064e-18
8148.78943 2.52705e-18
8149.65089 2.46583e-18
8150.51236 2.40466e-18
8151.37382 2.35435e-18
8152.23528 2.30406e-18
8153.09674 2.25802e-18
8153.95820 2.21199e-18
8154.82968 2.16485e-18
8155.69115 2.11772e-18
8156.55261 2.07000e-18
8157.41407 2.02228e-18
8158.27553 1.97560e-18
8159.13699 1.92894e-18
8159.99845 1.88728e-18
8160.85992 1.84563e-18
8161.72138 1.81290e-18
8162.58284 1.78018e-18
8163.44430 1.75755e-18
8164.31578 1.73494e-18
8165.17724 1.72220e-18
8166.03871 1.70948e-18
8166.90017 1.70058e-18
8167.76163 1.69168e-18
8168.62309 1.67925e-18
8169.48455 1.66681e-18
8170.34602 1.64472e-18
8171.20748 1.62261e-18
8172.06894 1.58503e-18
8172.93040 1.54741e-18
8173.80188 1.50427e-18
8174.66334 1.46112e-18
8175.52481 1.43387e-18
8176.38627 1.40666e-18
8177.24773 1.40007e-18
8178.10919 1.39352e-18
8178.97065 1.39515e-18
8179.83212 1.39681e-18
8180.69358 1.39720e-18
8181.55504 1.39760e-18
8182.41650 1.39080e-18
8183.28798 1.38399e-18
8184.14944 1.36784e-18
8185.01090 1.35166e-18
8185.87237 1.33417e-18
8186.73383 1.31666e-18
8187.59529 1.30356e-18
8188.45675 1.29046e-18
8189.31821 1.27733e-18
8190.17968 1.26419e-18
8191.04114 1.24792e-18
8191.90260 1.23164e-18
8192.77408 1.21601e-18
8193.63554 1.20039e-18
8194.49700 1.18924e-18
8195.35846 1.17809e-18
8196.21993 1.17483e-18
8197.08139 1.17159e-18
8197.94285 1.17881e-18
8198.80431 1.18604e-18
8199.66577 1.19755e-18
8200.52724 1.20907e-18
8201.38870 1.21621e-18
8202.25016 1.22334e-18
8203.12164 1.22444e-18
8203.98310 1.22553e-18
8204.84456 1.22198e-18
8205.70603 1.21842e-18
8206.56749 1.21095e-18
8207.42895 1.20346e-18
8208.29041 1.19266e-18
8209.15187 1.18186e-18
8210.01334 1.16948e-18
8210.87480 1.15711e-18
8211.73626 1.14544e-18
8212.60774 1.13378e-18
8213.46920 1.12379e-18
8214.33066 1.11381e-18
8215.19212 1.10533e-18
8216.05359 1.09685e-18
8216.91505 1.08719e-18
8217.77651 1.07753e-18
8218.63797 1.05922e-18
8219.49943 1.04089e-18
8220.36090 1.01108e-18
8221.22236 9.81244e-19
8222.08382 9.47566e-19
8222.95530 9.13879e-19
8223.81676 8.84859e-19
8224.67822 8.55848e-19
8225.53969 8.42168e-19
8226.40115 8.28529e-19
8227.26261 8.37904e-19
8228.12407 8.47331e-19
8228.98553 8.72577e-19
8229.84700 8.97857e-19
8230.70846 9.28991e-19
8231.57994 9.60143e-19
8232.44140 9.87469e-19
8233.30286 1.01480e-18
8234.16432 1.02931e-18
8235.02578 1.04380e-18
8235.88725 1.04849e-18
8236.74871 1.05315e-18
8237.61017 1.05552e-18
8238.47163 1.05790e-18
8239.33309 1.06320e-18
8240.19456 1.06851e-18
8241.06604 1.08109e-18
8241.92750 1.09369e-18
8242.78896 1.11101e-18
8243.65042 1.12834e-18
8244.51188 1.14253e-18
8245.37335 1.15671e-18
8246.23481 1.16391e-18
8247.09627 1.17108e-18
8247.95773 1.17171e-18
8248.81919 1.17233e-18
8249.68066 1.16797e-18
8250.54212 1.16361e-18
8251.41360 1.15776e-18
8252.27506 1.15191e-18
8253.13652 1.14783e-18
8253.99798 1.14376e-18
8254.85945 1.14344e-18
8255.72091 1.14312e-18
8256.58237 1.14766e-18
8257.44383 1.15222e-18
8258.30529 1.16086e-18
8259.16676 1.16950e-18
8260.02822 1.18057e-18
8260.89970 1.19164e-18
8261.76116 1.20208e-18
8262.62262 1.21253e-18
8263.48408 1.21933e-18
8264.34554 1.22611e-18
8265.20701 1.22656e-18
8266.06847 1.22699e-18
8266.92993 1.21930e-18
8267.79139 1.21159e-18
8268.65285 1.19986e-18
8269.52433 1.18811e-18
8270.38580 1.17801e-18
8271.24726 1.16792e-18
8272.10872 1.16327e-18
8272.97018 1.15863e-18
8273.83164 1.16239e-18
8274.69311 1.16616e-18
8275.55457 1.17538e-18
8276.41603 1.18459e-18
8277.27749 1.19261e-18
8278.13895 1.20062e-18
8279.01043 1.20474e-18
8279.87189 1.20884e-18
8280.73336 1.20968e-18
8281.59482 1.21051e-18
8282.45628 1.21010e-18
8283.31774 1.20968e-18
8284.17920 1.21221e-18
8285.04067 1.21474e-18
8285.90213 1.22181e-18
8286.76359 1.22889e-18
8287.62505 1.23670e-18
8288.48651 1.24450e-18
8289.34798 1.25103e-18
8290.21946 1.25755e-18
8291.08092 1.26583e-18
8291.94238 1.27411e-18
8292.80384 1.28588e-18
8293.66530 1.29765e-18
8294.52677 1.30984e-18
8295.38823 1.32202e-18
8296.24969 1.33177e-18
8297.11115 1.34153e-18
8297.97261 1.34702e-18
8298.83408 1.35251e-18
8299.70555 1.35265e-18
8300.56702 1.35277e-18
8301.42848 1.35403e-18
8302.28994 1.35529e-18
8303.15140 1.36530e-18
8304.01286 1.37533e-18
8304.87433 1.39117e-18
8305.73579 1.40701e-18
8306.59725 1.42229e-18
8307.45871 1.43757e-18
8308.32017 1.44844e-18
8309.18164 1.45929e-18
8310.05312 1.46291e-18
8310.91458 1.46651e-18
8311.77604 1.46591e-18
8312.63750 1.46528e-18
8313.49896 1.46775e-18
8314.36043 1.47022e-18
8315.22189 1.47986e-18
8316.08335 1.48953e-18
8316.94481 1.50718e-18
8317.80627 1.52486e-18
8318.67775 1.54843e-18
8319.53921 1.57201e-18
8320.40068 1.59494e-18
8321.26214 1.61787e-18
8322.12360 1.63547e-18
8322.98506 1.65305e-18
8323.84652 1.66525e-18
8324.70799 1.67744e-18
8325.56945 1.68485e-18
8326.43091 1.69226e-18
8327.29237 1.69672e-18
8328.16385 1.70117e-18
8329.02531 1.70496e-18
8329.88678 1.70873e-18
8330.74824 1.71313e-18
8331.60970 1.71753e-18
8332.47116 1.72384e-18
8333.33262 1.73016e-18
8334.19408 1.74155e-18
8335.05555 1.75296e-18
8335.91701 1.77206e-18
8336.77847 1.79118e-18
8337.64995 1.81595e-18
8338.51141 1.84071e-18
8339.37287 1.86760e-18
8340.23434 1.89450e-18
8341.09580 1.91867e-18
8341.95726 1.94283e-18
8342.81872 1.95903e-18
8343.68018 1.97521e-18
8344.54165 1.98356e-18
8345.40311 1.99188e-18
8346.26457 1.99605e-18
8347.12603 2.00020e-18
8347.99751 2.00318e-18
8348.85897 2.00617e-18
8349.72043 2.01021e-18
8350.58190 2.01424e-18
8351.44336 2.02193e-18
8352.30482 2.02963e-18
8353.16628 2.04372e-18
8354.02775 2.05782e-18
8354.88921 2.07863e-18
8355.75067 2.09945e-18
8356.62215 2.12358e-18
8357.48361 2.14772e-18
8358.34507 2.17178e-18
8359.20653 2.19584e-18
8360.06800 2.21688e-18
8360.92946 2.23790e-18
8361.79092 2.25414e-18
8362.65238 2.27038e-18
8363.51384 2.28489e-18
8364.37531 2.29940e-18
8365.23677 2.31518e-18
8366.10825 2.33098e-18
8366.96971 2.34607e-18
8367.83117 2.36117e-18
8368.69263 2.37350e-18
8369.55410 2.38583e-18
8370.41556 2.39741e-18
8371.27702 2.40899e-18
8372.13848 2.42259e-18
8372.99994 2.43618e-18
8373.86140 2.45330e-18
8374.72287 2.47043e-18
8375.59435 2.49205e-18
8376.45581 2.51368e-18
8377.31727 2.53959e-18
8378.17873 2.56551e-18
8379.04019 2.59472e-18
8379.90166 2.62393e-18
8380.76312 2.65484e-18
8381.62458 2.68575e-18
8382.48604 2.71647e-18
8383.34750 2.74719e-18
8384.20897 2.77617e-18
8385.07043 2.80514e-18
8385.94191 2.83095e-18
8386.80337 2.85677e-18
8387.66483 2.88026e-18
8388.52629 2.90375e-18
8389.38775 2.92950e-18
8390.24922 2.95525e-18
8391.11068 2.98452e-18
8391.97214 3.01379e-18
8392.83360 3.04071e-18
8393.69507 3.06762e-18
8394.55653 3.08796e-18
8395.41799 3.10828e-18
8396.28947 3.12193e-18
8397.15093 3.13556e-18
8398.01239 3.14422e-18
8398.87385 3.15286e-18
8399.73532 3.16610e-18
8400.59678 3.17935e-18
8401.45824 3.20591e-18
8402.31970 3.23249e-18
8403.18116 3.26954e-18
8404.04263 3.30660e-18
8404.90409 3.34881e-18
8405.77557 3.39101e-18
8406.63703 3.43245e-18
8407.49849 3.47389e-18
8408.35995 3.50847e-18
8409.22142 3.54303e-18
8410.08288 3.57078e-18
8410.94434 3.59851e-18
8411.80580 3.62254e-18
8412.66726 3.64655e-18
8413.52873 3.66901e-18
8414.39019 3.69146e-18
8415.26167 3.71409e-18
8416.12313 3.73672e-18
8416.98459 3.76137e-18
8417.84605 3.78603e-18
8418.70751 3.81422e-18
8419.56898 3.84241e-18
8420.43044 3.87474e-18
8421.29190 3.90707e-18
8422.15336 3.94338e-18
8423.01482 3.97971e-18
8423.87629 4.01809e-18
8424.74777 4.05649e-18
8425.60923 4.09163e-18
8426.47069 4.12678e-18
8427.33215 4.15652e-18
8428.19361 4.18626e-18
8429.05508 4.21660e-18
8429.91654 4.24694e-18
8430.77800 4.28277e-18
8431.63946 4.31860e-18
8432.50092 4.36044e-18
8433.36239 4.40228e-18
8434.23386 4.44934e-18
8435.09533 4.49640e-18
8435.95679 4.54087e-18
8436.81825 4.58534e-18
8437.67971 4.61953e-18
8438.54117 4.65369e-18
8439.40264 4.68209e-18
8440.26410 4.71047e-18
8441.12556 4.74039e-18
8441.98702 4.77030e-18
8442.84848 4.80390e-18
8443.70995 4.83751e-18
8444.58143 4.87528e-18
8445.44289 4.91306e-18
8446.30435 4.95542e-18
8447.16581 4.99778e-18
8448.02727 5.04459e-18
8448.88874 5.09140e-18
8449.75020 5.14122e-18
8450.61166 5.19104e-18
8451.47312 5.24174e-18
8452.33458 5.29243e-18
8453.20606 5.34160e-18
8454.06752 5.39074e-18
8454.92899 5.43540e-18
8455.79045 5.48005e-18
8456.65191 5.52085e-18
8457.51337 5.56165e-18
8458.37483 5.60493e-18
8459.23630 5.64822e-18
8460.09776 5.69665e-18
8460.95922 5.74509e-18
8461.82068 5.79324e-18
8462.69216 5.84138e-18
8463.55362 5.88538e-18
8464.41508 5.92937e-18
8465.27655 5.96952e-18
8466.13801 6.00966e-18
8466.99947 6.04758e-18
8467.86093 6.08548e-18
8468.72240 6.12921e-18
8469.58386 6.17295e-18
8470.44532 6.22960e-18
8471.30678 6.28629e-18
8472.16824 6.35147e-18
8473.03972 6.41668e-18
8473.90118 6.48399e-18
8474.76265 6.55131e-18
8475.62411 6.61590e-18
8476.48557 6.68049e-18
8477.34703 6.73769e-18
8478.20849 6.79488e-18
8479.06996 6.85022e-18
8479.93142 6.90555e-18
8480.79288 6.96908e-18
8481.65434 7.03263e-18
8482.51580 7.10210e-18
8483.38728 7.17158e-18
8484.24875 7.23762e-18
8485.11021 7.30365e-18
8485.97167 7.36207e-18
8486.83313 7.42048e-18
8487.69459 7.47119e-18
8488.55605 7.52187e-18
8489.41752 7.56753e-18
8490.27898 7.61318e-18
8491.14044 7.66054e-18
8492.00190 7.70792e-18
8492.87338 7.76140e-18
8493.73484 7.81490e-18
8494.59631 7.87330e-18
8495.45777 7.93171e-18
8496.31923 7.99567e-18
8497.18069 8.05965e-18
8498.04215 8.13631e-18
8498.90362 8.21301e-18
8499.76508 8.30507e-18
8500.62654 8.39718e-18
8501.48800 8.49235e-18
8502.35948 8.58754e-18
8503.22094 8.67380e-18
8504.08240 8.76006e-18
8504.94387 8.83495e-18
8505.80533 8.90975e-18
8506.66679 8.97276e-18
8507.52825 9.03568e-18
8508.38972 9.09120e-18
8509.25118 9.14671e-18
8510.11264 9.20071e-18
8510.98412 9.25479e-18
8511.84558 9.30963e-18
8512.70704 9.36446e-18
8513.56850 9.42132e-18
8514.42997 9.47810e-18
8515.29143 9.53673e-18
8516.15289 9.59536e-18
8517.01435 9.65508e-18
8517.87581 9.71481e-18
8518.73728 9.77563e-18
8519.59874 9.83636e-18
8520.46020 9.89845e-18
8521.33168 9.96045e-18
8522.19314 1.00265e-17
8523.05460 1.00924e-17
8523.91607 1.01675e-17
8524.77753 1.02426e-17
8525.63899 1.03285e-17
8526.50045 1.04143e-17
8527.36191 1.05078e-17
8528.22337 1.06012e-17
8529.08484 1.06974e-17
8529.94630 1.07936e-17
8530.80776 1.08845e-17
8531.67924 1.09754e-17
8532.54070 1.10545e-17
8533.40216 1.11335e-17
8534.26363 1.11983e-17
8535.12509 1.12631e-17
8535.98655 1.13142e-17
8536.84801 1.13654e-17
8537.70947 1.14129e-17
8538.57094 1.14603e-17
8539.43240 1.15145e-17
8540.30388 1.15687e-17
8541.16534 1.16366e-17
8542.02680 1.17045e-17
8542.88826 1.17903e-17
8543.74972 1.18761e-17
8544.61119 1.19741e-17
8545.47265 1.20720e-17
8546.33411 1.21732e-17
8547.19557 1.22743e-17
8548.05703 1.23631e-17
8548.91850 1.24518e-17
8549.78998 1.25110e-17
8550.65144 1.25702e-17
8551.51290 1.26015e-17
8552.37436 1.26326e-17
8553.23582 1.26488e-17
8554.09729 1.26650e-17
8554.95875 1.26836e-17
8555.82021 1.27023e-17
8556.68167 1.27441e-17
8557.54313 1.27860e-17
8558.40460 1.28603e-17
8559.27607 1.29347e-17
8560.13754 1.30359e-17
8560.99900 1.31371e-17
8561.86046 1.32540e-17
8562.72192 1.33709e-17
8563.58338 1.34855e-17
8564.44485 1.36001e-17
8565.30631 1.36958e-17
8566.16777 1.37914e-17
8567.02923 1.38572e-17
8567.89070 1.39229e-17
8568.75216 1.39536e-17
8569.62364 1.39842e-17
8570.48510 1.39884e-17
8571.34656 1.39927e-17
8572.20802 1.39830e-17
8573.06948 1.39732e-17
8573.93095 1.39633e-17
8574.79241 1.39535e-17
8575.65387 1.39568e-17
8576.51533 1.39601e-17
8577.37679 1.39906e-17
8578.23826 1.40210e-17
8579.09972 1.40891e-17
8579.97120 1.41573e-17
8580.83266 1.42498e-17
8581.69412 1.43423e-17
8582.55558 1.44373e-17
8583.41705 1.45322e-17
8584.27851 1.46118e-17
8585.13997 1.46915e-17
8586.00143 1.47414e-17
8586.86289 1.47912e-17
8587.72436 1.48093e-17
8588.58582 1.48275e-17
8589.45730 1.48219e-17
8590.31876 1.48162e-17
8591.18022 1.47993e-17
8592.04168 1.47825e-17
8592.90314 1.47712e-17
8593.76461 1.47599e-17
8594.62607 1.47636e-17
8595.48753 1.47672e-17
8596.34899 1.47821e-17
8597.21045 1.47970e-17
8598.07192 1.48207e-17
8598.94340 1.48446e-17
8599.80486 1.48796e-17
8600.66632 1.49147e-17
8601.52778 1.49600e-17
8602.38924 1.50054e-17
8603.25071 1.50537e-17
8604.11217 1.51022e-17
8604.97363 1.51456e-17
8605.83509 1.51892e-17
8606.69655 1.52171e-17
8607.56803 1.52451e-17
8608.42949 1.52490e-17
8609.29096 1.52528e-17
8610.15242 1.52349e-17
8611.01388 1.52169e-17
8611.87534 1.51834e-17
8612.73680 1.51497e-17
8613.59827 1.51075e-17
8614.45973 1.50651e-17
8615.32119 1.50213e-17
8616.18265 1.49775e-17
8617.04411 1.49459e-17
8617.91559 1.49143e-17
8618.77706 1.49099e-17
8619.63852 1.49055e-17
8620.49998 1.49292e-17
8621.36144 1.49529e-17
8622.22290 1.49964e-17
8623.08437 1.50402e-17
8623.94583 1.50920e-17
8624.80729 1.51440e-17
8625.66875 1.51896e-17
8626.53021 1.52352e-17
8627.40169 1.52656e-17
8628.26315 1.52959e-17
8629.12462 1.53109e-17
8629.98608 1.53259e-17
8630.84754 1.53251e-17
8631.70900 1.53244e-17
8632.57046 1.53058e-17
8633.43193 1.52872e-17
8634.29339 1.52534e-17
8635.15485 1.52197e-17
8636.01631 1.51813e-17
8636.88779 1.51428e-17
8637.74925 1.51107e-17
8638.61072 1.50788e-17
8639.47218 1.50660e-17
8640.33364 1.50533e-17
8641.19510 1.50685e-17
8642.05656 1.50838e-17
8642.91803 1.51196e-17
8643.77949 1.51556e-17
8644.64095 1.52008e-17
8645.50241 1.52460e-17
8646.37389 1.52889e-17
8647.23535 1.53318e-17
8648.09681 1.53606e-17
8648.95828 1.53893e-17
8649.81974 1.53997e-17
8650.68120 1.54100e-17
8651.54266 1.54021e-17
8652.40412 1.53941e-17
8653.26559 1.53667e-17
8654.12705 1.53392e-17
8654.98851 1.52914e-17
8655.85999 1.52435e-17
8656.72145 1.51836e-17
8657.58291 1.51237e-17
8658.44438 1.50662e-17
8659.30584 1.50086e-17
8660.16730 1.49633e-17
8661.02876 1.49181e-17
8661.89022 1.48894e-17
8662.75168 1.48608e-17
8663.61315 1.48510e-17
8664.47461 1.48414e-17
8665.33607 1.48499e-17
8666.20755 1.48584e-17
8667.06901 1.48811e-17
8667.93047 1.49039e-17
8668.79194 1.49338e-17
8669.65340 1.49638e-17
8670.51486 1.49913e-17
8671.37632 1.50188e-17
8672.23778 1.50273e-17
8673.09925 1.50357e-17
8673.96071 1.50129e-17
8674.82217 1.49901e-17
8675.68363 1.49398e-17
8676.55511 1.48895e-17
8677.41657 1.48197e-17
8678.27803 1.47498e-17
8679.13950 1.46742e-17
8680.00096 1.45986e-17
8680.86242 1.45321e-17
8681.72388 1.44657e-17
8682.58535 1.44144e-17
8683.44681 1.43632e-17
8684.30827 1.43292e-17
8685.16973 1.42952e-17
8686.04121 1.42804e-17
8686.90267 1.42658e-17
8687.76413 1.42706e-17
8688.62560 1.42754e-17
8689.48706 1.42961e-17
8690.34852 1.43167e-17
8691.20998 1.43470e-17
8692.07144 1.43775e-17
8692.93291 1.44073e-17
8693.79437 1.44370e-17
8694.66585 1.44531e-17
8695.52731 1.44692e-17
8696.38877 1.44636e-17
8697.25023 1.44580e-17
8698.11170 1.44293e-17
8698.97316 1.44006e-17
8699.83462 1.43520e-17
8700.69608 1.43034e-17
8701.55754 1.42454e-17
8702.41900 1.41873e-17
8703.28047 1.41288e-17
8704.15195 1.40702e-17
8705.01341 1.40113e-17
8705.87487 1.39525e-17
8706.73633 1.38958e-17
8707.59779 1.38392e-17
8708.45926 1.37966e-17
8709.32072 1.37540e-17
8710.18218 1.37347e-17
8711.04364 1.37154e-17
8711.90510 1.37198e-17
8712.76657 1.37244e-17
8713.62803 1.37491e-17
8714.49951 1.37739e-17
8715.36097 1.38009e-17
8716.22243 1.38280e-17
8717.08389 1.38367e-17
8717.94535 1.38455e-17
8718.80682 1.38276e-17
8719.66828 1.38096e-17
8720.52974 1.37620e-17
8721.39120 1.37143e-17
8722.25267 1.36486e-17
8723.11413 1.35829e-17
8723.98561 1.35196e-17
8724.84707 1.34561e-17
8725.70853 1.34027e-17
8726.56999 1.33491e-17
8727.43145 1.33033e-17
8728.29292 1.32575e-17
8729.15438 1.32196e-17
8730.01584 1.31817e-17
8730.87730 1.31527e-17
8731.73876 1.31237e-17
8732.61024 1.31063e-17
8733.47170 1.30889e-17
8734.33317 1.30911e-17
8735.19463 1.30935e-17
8736.05609 1.31130e-17
8736.91755 1.31326e-17
8737.77902 1.31463e-17
8738.64048 1.31601e-17
8739.50194 1.31484e-17
8740.36340 1.31368e-17
8741.22486 1.30891e-17
8742.08633 1.30414e-17
8742.95780 1.29548e-17
8743.81927 1.28683e-17
8744.68073 1.27678e-17
8745.54219 1.26673e-17
8746.40365 1.25802e-17
8747.26511 1.24930e-17
8748.12658 1.24316e-17
8748.98804 1.23705e-17
8749.84950 1.23427e-17
8750.71096 1.23150e-17
8751.57242 1.23129e-17
8752.44390 1.23108e-17
8753.30537 1.23194e-17
8754.16683 1.23281e-17
8755.02829 1.23392e-17
8755.88975 1.23504e-17
8756.75121 1.23586e-17
8757.61268 1.23669e-17
8758.47414 1.23602e-17
8759.33560 1.23535e-17
8760.19706 1.23173e-17
8761.05852 1.22809e-17
8761.91999 1.22128e-17
8762.79146 1.21446e-17
8763.65293 1.20523e-17
8764.51439 1.19600e-17
8765.37585 1.18565e-17
8766.23731 1.17530e-17
8767.09877 1.16567e-17
8767.96024 1.15605e-17
8768.82170 1.14831e-17
8769.68316 1.14060e-17
8770.54462 1.13462e-17
8771.40608 1.12866e-17
8772.26755 1.12419e-17
8773.13903 1.11972e-17
8774.00049 1.11655e-17
8774.86195 1.11336e-17
8775.72341 1.11105e-17
8776.58487 1.10874e-17
8777.44633 1.10692e-17
8778.30780 1.10511e-17
8779.16926 1.10325e-17
8780.03072 1.10140e-17
8780.89218 1.09791e-17
8781.76366 1.09440e-17
8782.62512 1.08781e-17
8783.48659 1.08121e-17
8784.34805 1.07222e-17
8785.20951 1.06323e-17
8786.07097 1.05313e-17
8786.93243 1.04303e-17
8787.79390 1.03279e-17
8788.65536 1.02255e-17
8789.51682 1.01310e-17
8790.37828 1.00366e-17
8791.24976 9.94992e-18
8792.11122 9.86324e-18
8792.97268 9.77757e-18
8793.83415 9.69181e-18
8794.69561 9.61145e-18
8795.55707 9.53117e-18
8796.41853 9.46850e-18
8797.28000 9.40599e-18
8798.14146 9.35857e-18
8799.00292 9.31123e-18
8799.86438 9.26254e-18
8800.72584 9.21385e-18
8801.59732 9.15042e-18
8802.45878 9.08698e-18
8803.32025 8.99971e-18
8804.18171 8.91244e-18
8805.04317 8.80016e-18
8805.90463 8.68787e-18
8806.76609 8.56673e-18
8807.62756 8.44551e-18
8808.48902 8.33025e-18
8809.35048 8.21505e-18
8810.21194 8.11281e-18
8811.08342 8.01060e-18
8811.94488 7.92613e-18
8812.80635 7.84171e-18
8813.66781 7.77314e-18
8814.52927 7.70462e-18
8815.39073 7.64746e-18
8816.25219 7.59033e-18
8817.11365 7.53899e-18
8817.97512 7.48766e-18
8818.83658 7.43586e-18
8819.70806 7.38408e-18
8820.56952 7.32425e-18
8821.43098 7.26440e-18
8822.29244 7.18994e-18
8823.15391 7.11545e-18
8824.01537 7.02554e-18
8824.87683 6.93560e-18
8825.73829 6.83262e-18
8826.59975 6.72961e-18
8827.46122 6.62304e-18
8828.32268 6.51646e-18
8829.19416 6.41997e-18
8830.05562 6.32350e-18
8830.91708 6.24405e-18
8831.77854 6.16465e-18
8832.64000 6.10273e-18
8833.50147 6.04087e-18
8834.36293 5.99428e-18
8835.22439 5.94773e-18
8836.08585 5.91101e-18
8836.94732 5.87431e-18
8837.80878 5.84107e-18
8838.67024 5.80784e-18
8839.54172 5.77153e-18
8840.40318 5.73521e-18
8841.26464 5.69100e-18
8842.12610 5.64676e-18
8842.98757 5.59401e-18
8843.84903 5.54122e-18
8844.71049 5.48093e-18
8845.57195 5.42063e-18
8846.43341 5.35634e-18
8847.29488 5.29204e-18
8848.15634 5.22827e-18
8849.02782 5.16450e-18
8849.88928 5.10367e-18
8850.75074 5.04286e-18
8851.61220 4.98727e-18
8852.47367 4.93171e-18
8853.33513 4.89318e-18
8854.19659 4.85468e-18
8855.05805 4.84495e-18
8855.91951 4.83530e-18
8856.78097 4.84505e-18
8857.64244 4.85484e-18
8858.50390 4.86760e-18
8859.36536 4.88035e-18
8860.23684 4.88252e-18
8861.09830 4.88466e-18
8861.95976 4.86398e-18
8862.82123 4.84324e-18
8863.68269 4.80432e-18
8864.54415 4.76535e-18
8865.40561 4.72609e-18
8866.26707 4.68684e-18
8867.12854 4.65557e-18
8867.99000 4.62433e-18
8868.86148 4.59895e-18
8869.72294 4.57357e-18
8870.58440 4.55316e-18
8871.44586 4.53276e-18
8872.30732 4.51653e-18
8873.16879 4.50031e-18
8874.03025 4.48915e-18
8874.89171 4.47800e-18
8875.75317 4.47879e-18
8876.61463 4.47961e-18
8877.47610 4.49514e-18
8878.34758 4.51071e-18
8879.20904 4.53238e-18
8880.07050 4.55407e-18
8880.93196 4.57289e-18
8881.79342 4.59170e-18
8882.65489 4.59929e-18
8883.51635 4.60685e-18
8884.37781 4.59711e-18
8885.23927 4.58733e-18
8886.10073 4.56589e-18
8886.96220 4.54443e-18
8887.83367 4.52012e-18
8888.69514 4.49580e-18
8889.55660 4.47676e-18
8890.41806 4.45773e-18
8891.27952 4.45135e-18
8892.14099 4.44502e-18
8893.00245 4.45548e-18
8893.86391 4.46599e-18
8894.72537 4.49495e-18
8895.58683 4.52396e-18
8896.44830 4.56459e-18
8897.30976 4.60526e-18
8898.18124 4.64595e-18
8899.04270 4.68663e-18
8899.90416 4.71742e-18
8900.76562 4.74817e-18
8901.62708 4.76078e-18
8902.48855 4.77333e-18
8903.35001 4.76902e-18
8904.21147 4.76468e-18
8905.07293 4.75724e-18
8905.93439 4.74979e-18
8906.80587 4.74827e-18
8907.66734 4.74675e-18
8908.52880 4.75023e-18
8909.39026 4.75372e-18
8910.25172 4.76223e-18
8911.11318 4.77075e-18
8911.97465 4.78597e-18
8912.83611 4.80120e-18
8913.69757 4.82382e-18
8914.55903 4.84646e-18
8915.42049 4.87809e-18
8916.29197 4.90974e-18
8917.15343 4.95000e-18
8918.01490 4.99027e-18
8918.87636 5.02880e-18
8919.73782 5.06733e-18
8920.59928 5.09376e-18
8921.46074 5.12016e-18
8922.32221 5.13156e-18
8923.18367 5.14292e-18
8924.04513 5.13898e-18
8924.90659 5.13499e-18
8925.76805 5.12792e-18
8926.63953 5.12083e-18
8927.50100 5.12729e-18
8928.36246 5.13377e-18
8929.22392 5.15439e-18
8930.08538 5.17505e-18
8930.94684 5.20230e-18
8931.80831 5.22957e-18
8932.66977 5.25800e-18
8933.53123 5.28642e-18
8934.39269 5.31074e-18
8935.25415 5.33504e-18
8936.12563 5.35774e-18
8936.98709 5.38044e-18
8937.84856 5.41342e-18
8938.71002 5.44645e-18
8939.57148 5.49027e-18
8940.43294 5.53411e-18
8941.29440 5.57261e-18
8942.15587 5.61110e-18
8943.01733 5.63242e-18
8943.87879 5.65369e-18
8944.74025 5.65252e-18
8945.61173 5.65128e-18
8946.47319 5.62953e-18
8947.33466 5.60772e-18
8948.19612 5.59032e-18
8949.05758 5.57294e-18
8949.91904 5.58013e-18
8950.78050 5.58739e-18
8951.64197 5.61289e-18
8952.50343 5.63843e-18
8953.36489 5.67205e-18
8954.22635 5.70570e-18
8955.08781 5.72093e-18
8955.95929 5.73611e-18
8956.82075 5.70688e-18
8957.68222 5.67754e-18
8958.54368 5.63628e-18
8959.40514 5.59499e-18
8960.26660 5.58949e-18
8961.12806 5.58409e-18
8961.98953 5.62117e-18
8962.85099 5.65837e-18
8963.71245 5.72899e-18
8964.57391 5.79970e-18
8965.44539 5.88096e-18
8966.30685 5.96225e-18
8967.16832 6.01952e-18
8968.02978 6.07675e-18
8968.89124 6.11383e-18
8969.75270 6.15087e-18
8970.61416 6.20562e-18
8971.47563 6.26043e-18
8972.33709 6.34597e-18
8973.19855 6.43160e-18
8974.06001 6.53172e-18
8974.93149 6.63186e-18
8975.79295 6.72306e-18
8976.65441 6.81423e-18
8977.51588 6.86060e-18
8978.37734 6.90686e-18
8979.23880 6.88044e-18
8980.10026 6.85382e-18
8980.96172 6.73661e-18
8981.82319 6.61915e-18
8982.68465 6.42270e-18
8983.54611 6.22604e-18
8984.41759 6.05602e-18
8985.27905 5.88607e-18
8986.14051 5.83995e-18
8987.00198 5.79415e-18
8987.86344 5.90537e-18
8988.72490 6.01700e-18
8989.58636 6.29057e-18
8990.44782 6.56457e-18
8991.30928 6.86994e-18
8992.17075 7.17538e-18
8993.03221 7.35538e-18
8993.89367 7.53502e-18
8994.76515 7.56606e-18
8995.62661 7.59671e-18
8996.48807 7.50753e-18
8997.34954 7.41804e-18
8998.21100 7.27896e-18
8999.07246 7.13974e-18
8999.93392 7.04668e-18
9000.79538 6.95373e-18
9001.65685 6.94850e-18
9002.51831 6.94351e-18
9003.38979 7.02354e-18
9004.25125 7.10378e-18
9005.11271 7.24117e-18
9005.97417 7.37869e-18
9006.83563 7.51873e-18
9007.69710 7.65877e-18
9008.55856 7.75882e-18
9009.42002 7.85876e-18
9010.28148 7.89904e-18
9011.14295 7.93915e-18
9012.00441 7.92056e-18
9012.87589 7.90180e-18
9013.73735 7.87132e-18
9014.59881 7.84080e-18
9015.46027 7.83330e-18
9016.32173 7.82585e-18
9017.18320 7.82003e-18
9018.04466 7.81422e-18
9018.90612 7.79423e-18
9019.76758 7.77421e-18
9020.62904 7.75838e-18
9021.49051 7.74255e-18
9022.35197 7.74990e-18
9023.22345 7.75732e-18
9024.08491 7.81179e-18
9024.94637 7.86640e-18
9025.80783 7.98712e-18
9026.66930 8.10802e-18
9027.53076 8.26597e-18
9028.39222 8.42403e-18
9029.25368 8.57532e-18
9030.11514 8.72653e-18
9030.97660 8.84067e-18
9031.83807 8.95465e-18
9032.70955 9.00898e-18
9033.57101 9.06315e-18
9034.43247 9.05565e-18
9035.29393 9.04798e-18
9036.15539 8.99020e-18
9037.01686 8.93224e-18
9037.87832 8.85381e-18
9038.73978 8.77530e-18
9039.60124 8.72181e-18
9040.46270 8.66849e-18
9041.32417 8.65215e-18
9042.18563 8.63589e-18
9043.05711 8.62334e-18
9043.91857 8.61070e-18
9044.78003 8.58434e-18
9045.64149 8.55789e-18
9046.50295 8.52824e-18
9047.36442 8.49858e-18
9048.22588 8.47483e-18
9049.08734 8.45107e-18
9049.94880 8.44787e-18
9050.81027 8.44459e-18
9051.67173 8.46582e-18
9052.54321 8.48713e-18
9053.40467 8.48940e-18
9054.26613 8.49151e-18
9055.12759 8.43675e-18
9055.98905 8.38187e-18
9056.85052 8.29040e-18
9057.71198 8.19882e-18
9058.57344 8.09818e-18
9059.43490 7.99753e-18
9060.29636 7.89114e-18
9061.16784 7.78474e-18
9062.02931 7.67398e-18
9062.89077 7.56320e-18
9063.75223 7.44402e-18
9064.61369 7.32481e-18
9065.47515 7.18834e-18
9066.33662 7.05182e-18
9067.19808 6.93281e-18
9068.05954 6.81384e-18
9068.92100 6.77000e-18
9069.78246 6.72636e-18
9070.64393 6.74491e-18
9071.51540 6.76365e-18
9072.37687 6.78001e-18
9073.23833 6.79637e-18
9074.09979 6.78669e-18
9074.96125 6.77696e-18
9075.82271 6.75928e-18
9076.68418 6.74159e-18
9077.54564 6.72721e-18
9078.40710 6.71283e-18
9079.26856 6.70826e-18
9080.13002 6.70371e-18
9080.99149 6.70869e-18
9081.86297 6.71369e-18
9082.72443 6.70582e-18
9083.58589 6.69791e-18
9084.44735 6.66468e-18
9085.30881 6.63139e-18
9086.17028 6.59748e-18
9087.03174 6.56357e-18
9087.89320 6.54798e-18
9088.75466 6.53244e-18
9089.61612 6.51093e-18
9090.48760 6.48939e-18
9091.34906 6.43868e-18
9092.21053 6.38819e-18
9093.07199 6.33230e-18
9093.93345 6.27640e-18
9094.79491 6.24467e-18
9095.65637 6.21301e-18
9096.51784 6.19712e-18
9097.37930 6.18129e-18
9098.24076 6.16374e-18
9099.10222 6.14618e-18
9099.97370 6.13149e-18
9100.83516 6.11682e-18
9101.69663 6.11438e-18
9102.55809 6.11197e-18
9103.41955 6.13971e-18
9104.28101 6.16755e-18
9105.14247 6.25119e-18
9106.00393 6.33499e-18
9106.86540 6.44404e-18
9107.72686 6.55316e-18
9108.58832 6.60946e-18
9109.45980 6.66560e-18
9110.32126 6.63582e-18
9111.18272 6.60579e-18
9112.04419 6.50932e-18
9112.90565 6.41267e-18
9113.76711 6.28937e-18
9114.62857 6.16601e-18
9115.49003 6.09771e-18
9116.35150 6.02957e-18
9117.21296 6.05889e-18
9118.07442 6.08848e-18
9118.93588 6.15231e-18
9119.80736 6.21624e-18
9120.66882 6.25294e-18
9121.53028 6.28957e-18
9122.39175 6.25967e-18
9123.25321 6.22959e-18
9124.11467 6.10939e-18
9124.97613 5.98895e-18
9125.83760 5.83403e-18
9126.69906 5.67903e-18
9127.56052 5.55708e-18
9128.43200 5.43523e-18
9129.29346 5.38119e-18
9130.15492 5.32734e-18
9131.01638 5.36374e-18
9131.87785 5.40039e-18
9132.73931 5.51205e-18
9133.60077 5.62392e-18
9134.46223 5.77651e-18
9135.32369 5.92920e-18
9136.18516 6.08697e-18
9137.04662 6.24477e-18
9137.90808 6.37086e-18
9138.76954 6.49687e-18
9139.64102 6.56755e-18
9140.50248 6.63807e-18
9141.36395 6.64533e-18
9142.22541 6.65241e-18
9143.08687 6.58422e-18
9143.94833 6.51583e-18
9144.80979 6.35491e-18
9145.67125 6.19374e-18
9146.53272 5.96095e-18
9147.39418 5.72797e-18
9148.26566 5.49362e-18
9149.12712 5.25927e-18
9149.98858 5.08716e-18
9150.85004 4.91523e-18
9151.71151 4.85697e-18
9152.57297 4.79904e-18
9153.43443 4.87479e-18
9154.29589 4.95090e-18
9155.15735 5.09444e-18
9156.01882 5.23816e-18
9156.88028 5.37954e-18
9157.75176 5.52092e-18
9158.61322 5.62745e-18
9159.47468 5.73387e-18
9160.33614 5.78028e-18
9161.19760 5.82651e-18
9162.05907 5.81447e-18
9162.92053 5.80227e-18
9163.78199 5.74552e-18
9164.64345 5.68865e-18
9165.50492 5.58529e-18
9166.36638 5.48179e-18
9167.22784 5.32937e-18
9168.09932 5.17683e-18
9168.96078 5.01317e-18
9169.82224 4.84949e-18
9170.68370 4.72578e-18
9171.54517 4.60220e-18
9172.40663 4.54403e-18
9173.26809 4.48604e-18
9174.12955 4.50455e-18
9174.99101 4.52327e-18
9175.85248 4.58698e-18
9176.71394 4.65082e-18
9177.58542 4.68824e-18
9178.44688 4.72558e-18
9179.30834 4.71589e-18
9180.16980 4.70608e-18
9181.03127 4.69622e-18
9181.89273 4.68636e-18
9182.75419 4.70215e-18
9183.61565 4.71801e-18
9184.47711 4.75024e-18
9185.33857 4.78251e-18
9186.20004 4.82006e-18
9187.07152 4.85762e-18
9187.93298 4.87357e-18
9188.79444 4.88946e-18
9189.65590 4.86884e-18
9190.51736 4.84812e-18
9191.37883 4.83258e-18
9192.24029 4.81705e-18
9193.10175 4.84363e-18
9193.96321 4.87033e-18
9194.82467 4.92256e-18
9195.68614 4.97486e-18
9196.55762 5.02923e-18
9197.41908 5.08361e-18
9198.28054 5.11887e-18
9199.14200 5.15408e-18
9200.00346 5.14981e-18
9200.86492 5.14544e-18
9201.72639 5.11669e-18
9202.58785 5.08786e-18
9203.44931 5.06423e-18
9204.31077 5.04060e-18
9205.17224 5.02294e-18
9206.04371 5.00528e-18
9206.90518 4.98059e-18
9207.76664 4.95588e-18
9208.62810 4.92829e-18
9209.48956 4.90069e-18
9210.35102 4.88412e-18
9211.21249 4.86756e-18
9212.07395 4.87595e-18
9212.93541 4.88442e-18
9213.79687 4.93378e-18
9214.65833 4.98326e-18
9215.52981 5.07039e-18
9216.39127 5.15764e-18
9217.25274 5.24944e-18
9218.11420 5.34125e-18
9218.97566 5.41622e-18
9219.83712 5.49113e-18
9220.69859 5.55612e-18
9221.56005 5.62109e-18
9222.42151 5.67996e-18
9223.28297 5.73882e-18
9224.14443 5.78502e-18
9225.00590 5.83119e-18
9225.87737 5.86014e-18
9226.73884 5.88904e-18
9227.60030 5.89592e-18
9228.46176 5.90275e-18
9229.32322 5.88571e-18
9230.18468 5.86863e-18
9231.04615 5.84710e-18
9231.90761 5.82556e-18
9232.76907 5.82195e-18
9233.63053 5.81839e-18
9234.49199 5.82778e-18
9235.35346 5.83720e-18
9236.22494 5.84696e-18
9237.08640 5.85673e-18
9237.94786 5.87261e-18
9238.80932 5.88852e-18
9239.67078 5.92239e-18
9240.53225 5.95630e-18
9241.39371 6.01384e-18
9242.25517 6.07144e-18
9243.11663 6.15495e-18
9243.97809 6.23854e-18
9244.84957 6.34076e-18
9245.71103 6.44303e-18
9246.57250 6.54737e-18
9247.43396 6.65170e-18
9248.29542 6.74867e-18
9249.15688 6.84561e-18
9250.01834 6.93716e-18
9250.87981 7.02870e-18
9251.74127 7.11022e-18
9252.60273 7.19170e-18
9253.46419 7.24364e-18
9254.32565 7.29550e-18
9255.19713 7.31467e-18
9256.05860 7.33374e-18
9256.92006 7.35812e-18
9257.78152 7.38252e-18
9258.64298 7.44068e-18
9259.50444 7.49893e-18
9260.36591 7.58224e-18
9261.22737 7.66562e-18
9262.08883 7.75872e-18
9262.95029 7.85184e-18
9263.81175 7.92112e-18
9264.68323 7.99032e-18
9265.54469 8.00360e-18
9266.40616 8.01674e-18
9267.26762 7.97494e-18
9268.12908 7.93299e-18
9268.99054 7.84935e-18
9269.85200 7.76560e-18
9270.71347 7.67126e-18
9271.57493 7.57690e-18
9272.43639 7.50897e-18
9273.29785 7.44113e-18
9274.16933 7.42892e-18
9275.03079 7.41687e-18
9275.89226 7.48182e-18
9276.75372 7.54698e-18
9277.61518 7.67816e-18
9278.47664 7.80952e-18
9279.33810 7.97080e-18
9280.19957 8.13216e-18
9281.06103 8.28455e-18
9281.92249 8.43692e-18
9282.79397 8.54281e-18
9283.65543 8.64861e-18
9284.51689 8.67809e-18
9285.37835 8.70733e-18
9286.23982 8.64263e-18
9287.10128 8.57768e-18
9287.96274 8.42664e-18
9288.82420 8.27528e-18
9289.68566 8.08575e-18
9290.54713 7.89612e-18
9291.40859 7.72381e-18
9292.27005 7.55156e-18
9293.14153 7.46979e-18
9294.00299 7.38826e-18
9294.86445 7.44490e-18
9295.72592 7.50192e-18
9296.58738 7.64764e-18
9297.44884 7.79361e-18
9298.31030 7.96298e-18
9299.17176 8.13240e-18
9300.03323 8.23620e-18
9300.89469 8.33980e-18
9301.75615 8.29247e-18
9302.62763 8.24470e-18
9303.48909 8.12840e-18
9304.35055 8.01192e-18
9305.21201 7.96105e-18
9306.07348 7.91038e-18
9306.93494 7.89363e-18
9307.79640 7.87697e-18
9308.65786 7.79683e-18
9309.51932 7.71651e-18
9310.38079 7.57750e-18
9311.24225 7.43834e-18
9312.11373 7.29800e-18
9312.97519 7.15767e-18
9313.83665 7.07242e-18
9314.69811 6.98732e-18
9315.55958 7.02130e-18
9316.42104 7.05562e-18
9317.28250 7.19633e-18
9318.14396 7.33736e-18
9319.00542 7.46147e-18
9319.86688 7.58553e-18
9320.72835 7.64462e-18
9321.58981 7.70354e-18
9322.46129 7.81129e-18
9323.32275 7.91918e-18
9324.18421 8.10046e-18
9325.04567 8.28194e-18
9325.90714 8.30430e-18
9326.76860 8.32620e-18
9327.63006 8.04632e-18
9328.49152 7.76558e-18
9329.35298 7.40846e-18
9330.21445 7.05113e-18
9331.07591 6.83461e-18
9331.94739 6.61851e-18
9332.80885 6.50058e-18
9333.67031 6.38295e-18
9334.53177 6.30070e-18
9335.39323 6.21855e-18
9336.25470 6.17339e-18
9337.11616 6.12834e-18
9337.97762 6.10948e-18
9338.83908 6.09071e-18
9339.70055 6.28997e-18
9340.56201 6.48985e-18
9341.43349 7.16704e-18
9342.29495 7.84557e-18
9343.15641 8.66790e-18
9344.01787 9.49057e-18
9344.87933 9.84580e-18
9345.74080 1.01996e-17
9346.60226 9.90510e-18
9347.46372 9.60867e-18
9348.32518 8.76865e-18
9349.18664 7.92712e-18
9350.04811 6.92791e-18
9350.90957 5.92827e-18
9351.78105 5.48229e-18
9352.64251 5.03791e-18
9353.50397 5.37891e-18
9354.36543 5.72215e-18
9355.22689 6.33475e-18
9356.08836 6.94810e-18
9356.94982 7.39898e-18
9357.81128 7.84937e-18
9358.67274 7.88004e-18
9359.53420 7.90952e-18
9360.39567 7.40823e-18
9361.26715 6.90544e-18
9362.12861 6.27823e-18
9362.99007 5.65067e-18
9363.85153 5.28073e-18
9364.71299 4.91154e-18
9365.57446 4.82095e-18
9366.43592 4.73117e-18
9367.29738 4.88301e-18
9368.15884 5.03553e-18
9369.02030 5.23942e-18
9369.89178 5.44345e-18
9370.75324 5.48135e-18
9371.61471 5.51876e-18
9372.47617 5.40404e-18
9373.33763 5.28889e-18
9374.19909 5.10302e-18
9375.06056 4.91694e-18
9375.92202 4.78450e-18
9376.78348 4.65220e-18
9377.64494 4.72535e-18
9378.50640 4.79909e-18
9379.37788 5.02013e-18
9380.23934 5.24159e-18
9381.10081 5.41459e-18
9381.96227 5.58743e-18
9382.82373 5.64996e-18
9383.68519 5.71217e-18
9384.54665 5.72057e-18
9385.40812 5.72881e-18
9386.26958 5.69867e-18
9387.13104 5.66841e-18
9387.99250 5.57334e-18
9388.85396 5.47808e-18
9389.72544 5.31658e-18
9390.58691 5.15490e-18
9391.44837 4.95136e-18
9392.30983 4.74769e-18
9393.17129 4.53548e-18
9394.03275 4.32325e-18
9394.89422 4.16164e-18
9395.75568 4.00018e-18
9396.61714 3.92929e-18
9397.47860 3.85866e-18
9398.34006 3.84874e-18
9399.21154 3.83900e-18
9400.07300 3.85270e-18
9400.93447 3.86646e-18
9401.79593 3.86785e-18
9402.65739 3.86920e-18
9403.51885 3.82685e-18
9404.38031 3.78437e-18
9405.24178 3.73359e-18
9406.10324 3.68279e-18
9406.96470 3.67321e-18
9407.82616 3.66373e-18
9408.69764 3.69587e-18
9409.55910 3.72813e-18
9410.42057 3.78475e-18
9411.28203 3.84143e-18
9412.14349 3.89574e-18
9413.00495 3.95004e-18
9413.86641 3.97026e-18
9414.72788 3.99038e-18
9415.58934 3.95534e-18
9416.45080 3.92014e-18
9417.31226 3.82330e-18
9418.17372 3.72628e-18
9419.04520 3.57440e-18
9419.90666 3.42237e-18
9420.76813 3.22561e-18
9421.62959 3.02872e-18
9422.49105 2.85749e-18
9423.35251 2.68634e-18
9424.21397 2.70870e-18
9425.07544 2.73163e-18
9425.93690 3.00155e-18
9426.79836 3.27218e-18
9427.65982 3.61346e-18
9428.53130 3.95493e-18
9429.39276 4.19769e-18
9430.25423 4.44015e-18
9431.11569 4.42712e-18
9431.97715 4.41335e-18
9432.83861 4.06488e-18
9433.70007 3.71544e-18
9434.56153 3.30783e-18
9435.42300 2.90007e-18
9436.28446 2.72236e-18
9437.14592 2.54532e-18
9438.01740 2.64304e-18
9438.87886 2.74155e-18
9439.74032 3.09598e-18
9440.60179 3.45115e-18
9441.46325 3.88228e-18
9442.32471 4.31363e-18
9443.18617 4.58979e-18
9444.04763 4.86549e-18
9444.90910 4.92040e-18
9445.77056 4.97466e-18
9446.63202 4.82277e-18
9447.49348 4.67030e-18
9448.36496 4.39362e-18
9449.22642 4.11659e-18
9450.08788 3.84703e-18
9450.94935 3.57750e-18
9451.81081 3.40100e-18
9452.67227 3.22478e-18
9453.53373 3.17486e-18
9454.39520 3.12530e-18
9455.25666 3.21030e-18
9456.11812 3.29570e-18
9456.98960 3.49502e-18
9457.85106 3.69465e-18
9458.71252 3.94861e-18
9459.57398 4.20270e-18
9460.43545 4.39086e-18
9461.29691 4.57882e-18
9462.15837 4.62863e-18
9463.01983 4.67805e-18
9463.88129 4.64620e-18
9464.74276 4.61412e-18
9465.60422 4.55988e-18
9466.47570 4.50558e-18
9467.33716 4.46535e-18
9468.19862 4.42517e-18
9469.06008 4.42821e-18
9469.92155 4.43138e-18
9470.78301 4.43284e-18
9471.64447 4.43429e-18
9472.50593 4.38638e-18
9473.36739 4.33834e-18
9474.22885 4.27098e-18
9475.09032 4.20358e-18
9475.96180 4.15746e-18
9476.82326 4.11139e-18
9477.68472 4.17086e-18
9478.54618 4.23062e-18
9479.40764 4.49077e-18
9480.26911 4.75148e-18
9481.13057 5.10903e-18
9481.99203 5.46686e-18
9482.85349 5.72203e-18
9483.71495 5.97689e-18
9484.57642 6.02439e-18
9485.43788 6.07128e-18
9486.30936 5.87424e-18
9487.17082 5.67648e-18
9488.03228 5.31513e-18
9488.89374 4.95331e-18
9489.75520 4.63897e-18
9490.61667 4.32477e-18
9491.47813 4.19256e-18
9492.33959 4.06089e-18
9493.20105 4.10833e-18
9494.06252 4.15630e-18
9494.92398 4.38273e-18
9495.79546 4.60968e-18
9496.65692 5.04393e-18
9497.51838 5.47878e-18
9498.37984 6.07509e-18
9499.24130 6.67185e-18
9500.10277 7.19687e-18
9500.96423 7.72166e-18
9501.82569 7.97355e-18
9502.68715 8.22465e-18
9503.54861 8.17152e-18
9504.41008 8.11750e-18
9505.28155 7.77995e-18
9506.14302 7.44158e-18
9507.00448 6.99494e-18
9507.86594 6.54800e-18
9508.72740 6.20082e-18
9509.58887 5.85395e-18
9510.45033 5.62667e-18
9511.31179 5.39975e-18
9512.17325 5.25117e-18
9513.03471 5.10281e-18
9513.89617 5.07348e-18
9514.75764 5.04451e-18
9515.62912 5.19252e-18
9516.49058 5.34105e-18
9517.35204 5.64946e-18
9518.21350 5.95833e-18
9519.07496 6.37020e-18
9519.93643 6.78236e-18
9520.79789 7.19742e-18
9521.65935 7.61249e-18
9522.52081 7.89264e-18
9523.38227 8.17241e-18
9524.24374 8.27115e-18
9525.11522 8.36936e-18
9525.97668 8.35925e-18
9526.83814 8.34883e-18
9527.69960 8.29678e-18
9528.56106 8.24462e-18
9529.42252 8.20348e-18
9530.28399 8.16239e-18
9531.14545 8.16182e-18
9532.00691 8.16137e-18
9532.86837 8.15441e-18
9533.72984 8.14744e-18
9534.60131 8.09445e-18
9535.46278 8.04132e-18
9536.32424 7.93030e-18
9537.18570 7.81910e-18
9538.04716 7.65642e-18
9538.90862 7.49358e-18
9539.77009 7.42769e-18
9540.63155 7.36210e-18
9541.49301 7.53316e-18
9542.35447 7.70491e-18
9543.21593 8.01252e-18
9544.08741 8.32052e-18
9544.94888 8.61525e-18
9545.81034 8.90992e-18
9546.67180 9.04596e-18
9547.53326 9.18150e-18
9548.39472 9.00932e-18
9549.25619 8.83629e-18
9550.11765 8.52933e-18
9550.97911 8.22199e-18
9551.84057 8.12939e-18
9552.70203 8.03742e-18
9553.57351 8.18289e-18
9554.43497 8.32906e-18
9555.29644 8.50625e-18
9556.15790 8.68349e-18
9557.01936 8.75332e-18
9557.88082 8.82282e-18
9558.74228 8.69267e-18
9559.60375 8.56201e-18
9560.46521 8.28935e-18
9561.32667 8.01631e-18
9562.18813 7.91635e-18
9563.05961 7.81691e-18
9563.92107 8.05225e-18
9564.78254 8.28858e-18
9565.64400 8.69183e-18
9566.50546 9.09558e-18
9567.36692 9.48661e-18
9568.22838 9.87756e-18
9569.08985 1.00414e-17
9569.95131 1.02047e-17
9570.81277 9.99338e-18
9571.67423 9.78102e-18
9572.53569 9.38081e-18
9573.40717 8.98009e-18
9574.26863 8.61214e-18
9575.13010 8.24435e-18
9575.99156 8.05657e-18
9576.85302 7.86934e-18
9577.71448 7.97851e-18
9578.57594 8.08856e-18
9579.43741 8.31112e-18
9580.29887 8.53396e-18
9581.16033 8.60178e-18
9582.02179 8.66917e-18
9582.89327 8.54677e-18
9583.75473 8.42386e-18
9584.61620 8.16387e-18
9585.47766 7.90344e-18
9586.33912 7.69334e-18
9587.20058 7.48337e-18
9588.06204 7.60864e-18
9588.92351 7.73489e-18
9589.78497 8.15980e-18
9590.64643 8.58560e-18
9591.51791 8.98261e-18
9592.37937 9.37963e-18
9593.24083 9.57219e-18
9594.10229 9.76426e-18
9594.96376 9.76931e-18
9595.82522 9.77386e-18
9596.68668 9.62695e-18
9597.54814 9.47962e-18
9598.40960 9.26355e-18
9599.27107 9.04739e-18
9600.13253 8.85365e-18
9600.99399 8.65990e-18
9601.86547 8.56075e-18
9602.72693 8.46186e-18
9603.58839 8.50448e-18
9604.44986 8.54761e-18
9605.31132 8.72417e-18
9606.17278 8.90116e-18
9607.03424 9.17190e-18
9607.89570 9.44281e-18
9608.75717 9.63554e-18
9609.61863 9.82802e-18
9610.48009 9.77681e-18
9611.35157 9.72483e-18
9612.21303 9.50000e-18
9613.07449 9.27475e-18
9613.93595 9.00906e-18
9614.79742 8.74321e-18
9615.65888 8.52891e-18
9616.52034 8.31472e-18
9617.38180 8.22871e-18
9618.24326 8.14310e-18
9619.10473 8.20518e-18
9619.96619 8.26769e-18
9620.82765 8.45646e-18
9621.69913 8.64566e-18
9622.56059 8.89307e-18
9623.42205 9.14064e-18
9624.28352 9.35191e-18
9625.14498 9.56310e-18
9626.00644 9.64792e-18
9626.86790 9.73233e-18
9627.72936 9.60606e-18
9628.59083 9.47920e-18
9629.45229 9.16667e-18
9630.31375 8.85365e-18
9631.17521 8.53986e-18
9632.04669 8.22602e-18
9632.90815 8.05450e-18
9633.76961 7.88340e-18
9634.63108 7.91001e-18
9635.49254 7.93723e-18
9636.35400 8.15610e-18
9637.21546 8.37553e-18
9638.07692 8.57903e-18
9638.93839 8.78247e-18
9639.79985 8.79898e-18
9640.67133 8.81490e-18
9641.53279 8.75155e-18
9642.39425 8.68795e-18
9643.25571 8.66992e-18
9644.11718 8.65207e-18
9644.97864 8.70960e-18
9645.84010 8.76747e-18
9646.70156 8.91287e-18
9647.56302 9.05851e-18
9648.42448 9.19464e-18
9649.28595 9.33068e-18
9650.15743 9.33102e-18
9651.01889 9.33085e-18
9651.88035 9.19489e-18
9652.74181 9.05851e-18
9653.60327 8.84303e-18
9654.46474 8.62721e-18
9655.32620 8.41010e-18
9656.18766 8.19295e-18
9657.04912 8.06416e-18
9657.91058 7.93564e-18
9658.77205 7.94542e-18
9659.64352 7.95563e-18
9660.50499 8.11630e-18
9661.36645 8.27742e-18
9662.22791 8.53809e-18
9663.08937 8.79906e-18
9663.95083 9.02692e-18
9664.81230 9.25470e-18
9665.67376 9.37289e-18
9666.53522 9.49082e-18
9667.39668 9.54002e-18
9668.25815 9.58904e-18
9669.11961 9.59258e-18
9669.99109 9.59595e-18
9670.85255 9.51449e-18
9671.71401 9.43270e-18
9672.57547 9.25546e-18
9673.43693 9.07789e-18
9674.29840 8.87732e-18
9675.15986 8.67658e-18
9676.02132 8.52495e-18
9676.88278 8.37350e-18
9677.74424 8.32131e-18
9678.61572 8.26941e-18
9679.47718 8.35007e-18
9680.33865 8.43111e-18
9681.20011 8.57819e-18
9682.06157 8.72535e-18
9682.92303 8.84623e-18
9683.78449 8.96703e-18
9684.64596 9.03434e-18
9685.50742 9.10139e-18
9686.36888 9.11133e-18
9687.23034 9.12110e-18
9688.10182 9.08328e-18
9688.96328 9.04537e-18
9689.82475 8.98320e-18
9690.68621 8.92095e-18
9691.54767 8.83865e-18
9692.40913 8.75627e-18
9693.27059 8.64145e-18
9694.13206 8.52647e-18
9694.99352 8.39604e-18
9695.85498 8.26557e-18
9696.71644 8.16588e-18
9697.57790 8.06628e-18
9698.44938 8.02036e-18
9699.31084 7.97460e-18
9700.17231 7.97370e-18
9701.03377 7.97294e-18
9701.89523 7.99811e-18
9702.75669 8.02336e-18
9703.61816 8.03247e-18
9704.47962 8.04153e-18
9705.34108 8.00735e-18
9706.20254 7.97305e-18
9707.06400 7.92184e-18
9707.93548 7.87058e-18
9708.79694 7.82955e-18
9709.65841 7.78856e-18
9710.51987 7.77255e-18
9711.38133 7.75661e-18
9712.24279 7.77529e-18
9713.10425 7.79408e-18
9713.96572 7.82162e-18
9714.82718 7.84919e-18
9715.68864 7.85449e-18
9716.55010 7.85974e-18
9717.41156 7.83391e-18
9718.28304 7.80799e-18
9719.14451 7.74744e-18
9720.00597 7.68678e-18
9720.86743 7.62390e-18
9721.72889 7.56102e-18
9722.59035 7.54563e-18
9723.45182 7.53038e-18
9724.31328 7.54061e-18
9725.17474 7.55092e-18
9726.03620 7.52176e-18
9726.89766 7.49248e-18
9727.76914 7.40092e-18
9728.63060 7.30918e-18
9729.49207 7.16731e-18
9730.35353 7.02528e-18
9731.21499 6.86336e-18
9732.07645 6.70138e-18
9732.93791 6.57507e-18
9733.79938 6.44888e-18
9734.66084 6.39288e-18
9735.52230 6.33709e-18
9736.38376 6.34465e-18
9737.25524 6.35239e-18
9738.11670 6.40789e-18
9738.97817 6.46354e-18
9739.83963 6.53627e-18
9740.70109 6.60906e-18
9741.56255 6.66865e-18
9742.42401 6.72821e-18
9743.28548 6.75856e-18
9744.14694 6.78883e-18
9745.00840 6.78039e-18
9745.86986 6.77185e-18
9746.74134 6.73758e-18
9747.60280 6.70325e-18
9748.46426 6.66091e-18
9749.32573 6.61855e-18
9750.18719 6.57236e-18
9751.04865 6.52616e-18
9751.91011 6.47834e-18
9752.77157 6.43052e-18
9753.63304 6.37951e-18
9754.49450 6.32848e-18
9755.35596 6.27097e-18
9756.22744 6.21342e-18
9757.08890 6.16137e-18
9757.95036 6.10933e-18
9758.81183 6.08043e-18
9759.67329 6.05159e-18
9760.53475 6.05952e-18
9761.39621 6.06756e-18
9762.25767 6.12405e-18
9763.11913 6.18069e-18
9763.98060 6.26796e-18
9764.84206 6.35531e-18
9765.71354 6.42328e-18
9766.57500 6.49118e-18
9767.43646 6.51527e-18
9768.29792 6.53923e-18
9769.15939 6.53556e-18
9770.02085 6.53179e-18
9770.88231 6.51407e-18
9771.74377 6.49630e-18
9772.60523 6.47138e-18
9773.46670 6.44645e-18
9774.32816 6.42304e-18
9775.19964 6.39962e-18
9776.06110 6.38459e-18
9776.92256 6.36958e-18
9777.78402 6.36752e-18
9778.64548 6.36550e-18
9779.50695 6.38226e-18
9780.36841 6.39908e-18
9781.22987 6.43629e-18
9782.09133 6.47357e-18
9782.95280 6.49901e-18
9783.81426 6.52442e-18
9784.68574 6.50309e-18
9785.54720 6.48161e-18
9786.40866 6.43047e-18
9787.27012 6.37924e-18
9788.13158 6.33019e-18
9788.99305 6.28115e-18
9789.85451 6.24542e-18
9790.71597 6.20973e-18
9791.57743 6.19201e-18
9792.43889 6.17433e-18
9793.30036 6.16264e-18
9794.16182 6.15096e-18
9795.03330 6.12015e-18
9795.89476 6.08929e-18
9796.75622 6.04671e-18
9797.61768 6.00410e-18
9798.47915 5.98649e-18
9799.34061 5.96895e-18
9800.20207 5.98858e-18
9801.06353 6.00832e-18
9801.92499 6.04778e-18
9802.78645 6.08729e-18
9803.64792 6.12900e-18
9804.51940 6.17071e-18
9805.38086 6.19404e-18
9806.24232 6.21731e-18
9807.10378 6.21228e-18
9807.96524 6.20714e-18
9808.82671 6.19351e-18
9809.68817 6.17985e-18
9810.54963 6.17646e-18
9811.41109 6.17310e-18
9812.27255 6.19186e-18
9813.13402 6.21068e-18
9813.99548 6.25712e-18
9814.86696 6.30364e-18
9815.72842 6.34471e-18
9816.58988 6.38576e-18
9817.45134 6.38635e-18
9818.31280 6.38683e-18
9819.17427 6.35163e-18
9820.03573 6.31633e-18
9820.89719 6.26010e-18
9821.75865 6.20380e-18
9822.62012 6.14821e-18
9823.48158 6.09263e-18
9824.35306 6.06294e-18
9825.21452 6.03333e-18
9826.07598 6.02585e-18
9826.93744 6.01845e-18
9827.79890 6.01274e-18
9828.66037 6.00705e-18
9829.52183 5.99807e-18
9830.38329 5.98908e-18
9831.24475 5.98288e-18
9832.10621 5.97669e-18
9832.97769 5.97187e-18
9833.83915 5.96705e-18
9834.70062 5.95567e-18
9835.56208 5.94427e-18
9836.42354 5.92268e-18
9837.28500 5.90104e-18
9838.14647 5.87137e-18
9839.00793 5.84166e-18
9839.86939 5.80633e-18
9840.73085 5.77097e-18
9841.59231 5.73123e-18
9842.45377 5.69147e-18
9843.32525 5.65185e-18
9844.18672 5.61223e-18
9845.04818 5.58678e-18
9845.90964 5.56136e-18
9846.77110 5.56114e-18
9847.63256 5.56098e-18
9848.49403 5.58255e-18
9849.35549 5.60418e-18
9850.21695 5.64127e-18
9851.07841 5.67841e-18
9851.93987 5.72501e-18
9852.81135 5.77165e-18
9853.67282 5.82067e-18
9854.53428 5.86970e-18
9855.39574 5.91667e-18
9856.25720 5.96362e-18
9857.11866 6.00523e-18
9857.98013 6.04682e-18
9858.84159 6.07416e-18
9859.70305 6.10145e-18
9860.56451 6.10433e-18
9861.42597 6.10715e-18
9862.29745 6.08419e-18
9863.15891 6.06116e-18
9864.02038 6.01674e-18
9864.88184 5.97226e-18
9865.74330 5.91448e-18
9866.60476 5.85665e-18
9867.46622 5.79710e-18
9868.32769 5.73755e-18
9869.18915 5.68288e-18
9870.05061 5.62823e-18
9870.92209 5.57767e-18
9871.78355 5.52713e-18
9872.64501 5.48155e-18
9873.50648 5.43598e-18
9874.36794 5.39929e-18
9875.22940 5.36262e-18
9876.09086 5.33790e-18
9876.95232 5.31322e-18
9877.81379 5.30331e-18
9878.67525 5.29345e-18
9879.53671 5.29966e-18
9880.39817 5.30592e-18
9881.26965 5.32627e-18
9882.13111 5.34667e-18
9882.99257 5.37751e-18
9883.85404 5.40837e-18
9884.71550 5.44303e-18
9885.57696 5.47769e-18
9886.43842 5.50894e-18
9887.29988 5.54019e-18
9888.16135 5.56127e-18
9889.02281 5.58233e-18
9889.88427 5.58759e-18
9890.74573 5.59280e-18
9891.61721 5.58209e-18
9892.47867 5.57135e-18
9893.34014 5.54753e-18
9894.20160 5.52368e-18
9895.06306 5.48982e-18
9895.92452 5.45592e-18
9896.78598 5.41524e-18
9897.64745 5.37455e-18
9898.50891 5.33234e-18
9899.37037 5.29012e-18
9900.23183 5.25336e-18
9901.09329 5.21663e-18
9901.96477 5.18649e-18
9902.82623 5.15636e-18
9903.68770 5.12690e-18
9904.54916 5.09744e-18
9905.41062 5.07001e-18
9906.27208 5.04259e-18
9907.13354 5.03014e-18
9907.99501 5.01773e-18
9908.85647 5.02639e-18
9909.71793 5.03511e-18
9910.57939 5.05900e-18
9911.45087 5.08293e-18
9912.31233 5.11244e-18
9913.17380 5.14197e-18
9914.03526 5.15680e-18
9914.89672 5.17159e-18
9915.75818 5.15563e-18
9916.61964 5.13958e-18
9917.48111 5.09847e-18
9918.34257 5.05728e-18
9919.20403 5.00085e-18
9920.07551 4.94439e-18
9920.93697 4.88386e-18
9921.79843 4.82331e-18
9922.65989 4.77005e-18
9923.52136 4.71682e-18
9924.38282 4.67583e-18
9925.24428 4.63488e-18
9926.10574 4.60811e-18
9926.96720 4.58139e-18
9927.82867 4.56144e-18
9928.69013 4.54150e-18
9929.56161 4.51657e-18
9930.42307 4.49163e-18
9931.28453 4.45789e-18
9932.14599 4.42413e-18
9933.00746 4.38326e-18
9933.86892 4.34237e-18
9934.73038 4.29785e-18
9935.59184 4.25331e-18
9936.45330 4.21013e-18
9937.31477 4.16695e-18
9938.17623 4.13174e-18
9939.03769 4.09655e-18
9939.90917 4.07762e-18
9940.77063 4.05875e-18
9941.63209 4.05838e-18
9942.49355 4.05808e-18
9943.35502 4.06768e-18
9944.21648 4.07730e-18
9945.07794 4.08942e-18
9945.93940 4.10154e-18
9946.80086 4.11430e-18
9947.66233 4.12707e-18
9948.52379 4.13832e-18
9949.39527 4.14956e-18
9950.25673 4.15517e-18
9951.11819 4.16077e-18
9951.97965 4.15808e-18
9952.84112 4.15538e-18
9953.70258 4.14973e-18
9954.56404 4.14408e-18
9955.42550 4.14134e-18
9956.28696 4.13861e-18
9957.14843 4.13486e-18
9958.00989 4.13111e-18
9958.88137 4.12093e-18
9959.74283 4.11072e-18
9960.60429 4.09135e-18
9961.46575 4.07195e-18
9962.32721 4.04160e-18
9963.18868 4.01122e-18
9964.05014 3.97897e-18
9964.91160 3.94673e-18
9965.77306 3.92776e-18
9966.63452 3.90884e-18
9967.49599 3.90672e-18
9968.36747 3.90465e-18
9969.22893 3.91352e-18
9970.09039 3.92242e-18
9970.95185 3.94136e-18
9971.81331 3.96034e-18
9972.67477 3.99371e-18
9973.53624 4.02713e-18
9974.39770 4.07313e-18
9975.25916 4.11915e-18
9976.12062 4.16792e-18
9976.98208 4.21668e-18
9977.85356 4.26039e-18
9978.71503 4.30407e-18
9979.57649 4.33896e-18
9980.43795 4.37383e-18
9981.29941 4.39859e-18
9982.16087 4.42334e-18
9983.02234 4.44324e-18
9983.88380 4.46314e-18
9984.74526 4.48350e-18
9985.60672 4.50387e-18
9986.46818 4.52733e-18
9987.32965 4.55079e-18
9988.20112 4.57871e-18
9989.06259 4.60665e-18
9989.92405 4.62920e-18
9990.78551 4.65173e-18
9991.64697 4.65775e-18
9992.50843 4.66373e-18
9993.36990 4.66159e-18
9994.23136 4.65944e-18
9995.09282 4.66346e-18
9995.95428 4.66750e-18
9996.81574 4.67523e-18
9997.67721 4.68298e-18
9998.54869 4.68532e-18
9999.41015 4.68762e-18
