# wavelength flux
3471.89220 3.37785e-18
3473.36470 3.36576e-18
3474.83720 3.30130e-18
3476.30970 3.17322e-18
3477.77218 2.50920e-18
3479.24468 3.64400e-18
3480.71718 3.39807e-18
3482.18968 3.43832e-18
3483.65216 3.13889e-18
3485.12466 3.20975e-18
3486.59716 3.14278e-18
3488.06966 3.21128e-18
3489.53214 3.67879e-18
3491.00464 3.62616e-18
3492.47714 3.23995e-18
3493.94963 3.14691e-18
3495.41212 2.86789e-18
3496.88461 2.49542e-18
3498.35711 2.40497e-18
3499.82961 2.87993e-18
3501.29210 3.64396e-18
3502.76459 3.25270e-18
3504.23709 2.46285e-18
3505.70959 3.01719e-18
3507.17207 3.25854e-18
3508.64457 2.90178e-18
3510.11707 2.78666e-18
3511.58957 2.71809e-18
3513.05205 2.81427e-18
3514.52455 3.01463e-18
3515.99705 3.61570e-18
3517.46955 3.11214e-18
3518.93203 3.29836e-18
3520.40453 3.48285e-18
3521.87703 2.74760e-18
3523.33951 3.23247e-18
3524.81201 3.35427e-18
3526.28451 2.78798e-18
3527.75701 3.00905e-18
3529.22951 3.16279e-18
3530.69199 3.87529e-18
3532.16449 3.26929e-18
3533.63699 3.28796e-18
3535.09947 2.15508e-18
3536.57197 2.37649e-18
3538.04447 2.98756e-18
3539.51697 3.70177e-18
3540.97945 2.75575e-18
3542.45195 3.15508e-18
3543.92445 3.99214e-18
3545.39695 3.47612e-18
3546.85943 3.54552e-18
3548.33193 3.35636e-18
3549.80443 2.97616e-18
3551.27693 3.06109e-18
3552.73941 2.73830e-18
3554.21191 2.57291e-18
3555.68441 2.57934e-18
3557.15690 2.50907e-18
3558.61939 2.55621e-18
3560.09189 3.36090e-18
3561.56438 3.74284e-18
3563.03688 2.50397e-18
3564.49937 3.02361e-18
3565.97186 3.32946e-18
3567.44436 3.06831e-18
3568.91686 3.32633e-18
3570.37934 3.38979e-18
3571.85184 3.15957e-18
3573.32434 2.80649e-18
3574.79684 2.96081e-18
3576.25932 3.18843e-18
3577.73182 2.79495e-18
3579.20432 2.89506e-18
3580.67682 2.99455e-18
3582.13930 2.83208e-18
3583.61180 2.72130e-18
3585.08430 2.44024e-18
3586.55680 2.82971e-18
3588.01928 3.36117e-18
3589.49178 2.83524e-18
3590.96428 2.69039e-18
3592.43678 3.05017e-18
3593.89926 3.15269e-18
3595.37176 3.78351e-18
3596.84426 4.00420e-18
3598.31676 3.54779e-18
3599.77924 3.36531e-18
3601.25174 2.99397e-18
3602.72424 3.22092e-18
3604.19674 3.62048e-18
3605.65922 4.00249e-18
3607.13172 3.76364e-18
3608.60422 3.44520e-18
3610.07672 3.79564e-18
3611.53920 3.74387e-18
3613.01170 4.10470e-18
3614.48419 3.74454e-18
3615.95669 3.54252e-18
3617.41918 3.18208e-18
3618.89168 3.19057e-18
3620.36417 4.14160e-18
3621.82666 3.49423e-18
3623.29916 3.39168e-18
3624.77165 2.64999e-18
3626.24415 3.15411e-18
3627.70664 3.03330e-18
3629.17913 3.09193e-18
3630.65163 3.23208e-18
3632.12413 3.36190e-18
3633.58661 3.42623e-18
3635.05911 2.75258e-18
3636.53161 3.36679e-18
3638.00411 3.06789e-18
3639.46659 2.61215e-18
3640.93909 3.21958e-18
3642.41159 2.03218e-18
3643.88409 1.56615e-18
3645.34657 2.99090e-18
3646.81907 2.85997e-18
3648.29157 2.58788e-18
3649.76407 2.70918e-18
3651.22655 3.20546e-18
3652.69905 3.31243e-18
3654.17155 2.87312e-18
3655.64405 2.99963e-18
3657.10653 2.84074e-18
3658.57903 3.21035e-18
3660.05153 3.21174e-18
3661.52403 3.58123e-18
3662.98651 3.44136e-18
3664.45901 3.11647e-18
3665.93151 3.69647e-18
3667.40401 3.63447e-18
3668.86649 3.43450e-18
3670.33899 3.66024e-18
3671.81149 3.76026e-18
3673.28399 3.95500e-18
3674.74647 3.99593e-18
3676.21897 4.46865e-18
3677.69146 4.06322e-18
3679.16396 3.72309e-18
3680.62645 3.79262e-18
3682.09895 3.70550e-18
3683.57144 4.63758e-18
3685.04394 5.24474e-18
3686.50643 4.21065e-18
3687.97892 4.84379e-18
3689.45142 4.57397e-18
3690.92392 4.56808e-18
3692.38640 4.94805e-18
3693.85890 5.13976e-18
3695.33140 4.68968e-18
3696.80390 4.88344e-18
3698.26638 5.65871e-18
3699.73888 5.72714e-18
3701.21138 5.50028e-18
3702.68388 5.62809e-18
3704.14636 5.11057e-18
3705.61886 4.95767e-18
3707.09136 5.35743e-18
3708.56386 4.93913e-18
3710.02634 5.63432e-18
3711.49884 5.77818e-18
3712.97134 5.11224e-18
3714.44384 5.06520e-18
3715.90632 5.01816e-18
3717.37882 4.96607e-18
3718.85132 4.91400e-18
3720.31380 4.86194e-18
3721.78630 4.80989e-18
3723.25880 4.75783e-18
3724.73130 4.70579e-18
3726.19378 4.65378e-18
3727.66628 4.60176e-18
3729.13878 4.54977e-18
3730.61128 4.49777e-18
3732.07376 4.44579e-18
3733.54626 4.39383e-18
3735.01876 4.34187e-18
3736.49126 4.28992e-18
3737.95374 4.23797e-18
3739.42624 4.18604e-18
3740.89874 4.13413e-18
3742.37123 4.08222e-18
3743.83372 4.03033e-18
3745.30622 3.97844e-18
3746.77871 3.92656e-18
3748.25121 3.87470e-18
3749.71369 3.82284e-18
3751.18619 3.77100e-18
3752.65869 3.71916e-18
3754.13119 3.66733e-18
3755.59367 3.66941e-18
3757.06617 3.21225e-18
3758.53867 3.04951e-18
3760.01117 3.02460e-18
3761.47365 2.49698e-18
3762.94615 2.45527e-18
3764.41865 2.83146e-18
3765.89115 2.43015e-18
3767.35363 2.48700e-18
3768.82613 2.58425e-18
3770.29863 2.33196e-18
3771.77113 3.04356e-18
3773.23361 2.41230e-18
3774.70611 2.28786e-18
3776.17861 2.58458e-18
3777.65111 2.52766e-18
3779.11359 2.09568e-18
3780.58609 2.28455e-18
3782.05859 2.29563e-18
3783.53109 2.41552e-18
3784.99357 2.19725e-18
3786.46607 2.44623e-18
3787.93857 2.37283e-18
3789.41107 2.16944e-18
3790.87355 2.15946e-18
3792.34605 1.97608e-18
3793.81855 2.08860e-18
3795.29104 2.72582e-18
3796.75353 2.68907e-18
3798.22603 2.38517e-18
3799.69853 2.42467e-18
3801.17102 2.24930e-18
3802.63351 2.32049e-18
3804.10601 2.05416e-18
3805.57850 2.35863e-18
3807.04099 2.48283e-18
3808.51349 2.06843e-18
3809.98598 2.28682e-18
3811.45848 2.15115e-18
3812.93098 2.27694e-18
3814.39346 2.39270e-18
3815.86596 2.54938e-18
3817.33846 2.21700e-18
3818.80094 2.29001e-18
3820.27344 2.89885e-18
3821.74594 2.83707e-18
3823.21844 2.36169e-18
3824.68092 2.10251e-18
3826.15342 2.00677e-18
3827.62592 2.43572e-18
3829.09842 2.51644e-18
3830.56090 2.37940e-18
3832.03340 2.57718e-18
3833.50590 2.38362e-18
3834.97840 2.50070e-18
3836.44088 2.62200e-18
3837.91338 2.46373e-18
3839.38588 2.65377e-18
3840.85838 2.86028e-18
3842.32086 3.10191e-18
3843.79336 2.78397e-18
3845.26586 2.87337e-18
3846.73836 3.14842e-18
3848.20084 3.13423e-18
3849.67334 3.65183e-18
3851.14584 3.65808e-18
3852.61834 3.38091e-18
3854.08082 3.48830e-18
3855.55332 3.31645e-18
3857.02582 3.62232e-18
3858.49831 3.47211e-18
3859.96080 3.89005e-18
3861.43330 3.83112e-18
3862.90580 4.06828e-18
3864.37829 4.44566e-18
3865.84078 4.54961e-18
3867.31327 4.38457e-18
3868.78577 4.64644e-18
3870.25827 4.85486e-18
3871.72076 4.53970e-18
3873.19325 4.95456e-18
3874.66575 5.32622e-18
3876.13825 5.23438e-18
3877.60073 5.65962e-18
3879.07323 6.07146e-18
3880.54573 5.61637e-18
3882.01823 6.07651e-18
3883.48071 6.58176e-18
3884.95321 7.08901e-18
3886.42571 6.88754e-18
3887.89821 7.10799e-18
3889.36069 7.48597e-18
3890.83319 7.67562e-18
3892.30569 7.67119e-18
3893.77819 8.21488e-18
3895.24067 8.64671e-18
3896.71317 8.41049e-18
3898.18567 9.08936e-18
3899.65817 9.05878e-18
3901.12065 9.29742e-18
3902.59315 9.28024e-18
3904.06565 9.16740e-18
3905.53815 9.90226e-18
3907.00063 9.94851e-18
3908.47313 1.03251e-17
3909.94563 1.02392e-17
3911.40811 1.04110e-17
3912.88061 1.06877e-17
3914.35311 1.08427e-17
3915.82561 1.10043e-17
3917.28809 1.07696e-17
3918.76059 1.05443e-17
3920.23309 1.07859e-17
3921.70559 1.07317e-17
3923.16807 1.08270e-17
3924.64057 1.12136e-17
3926.11307 1.08836e-17
3927.58556 1.10848e-17
3929.04805 1.08077e-17
3930.52054 1.02021e-17
3931.99304 1.03652e-17
3933.46554 1.02691e-17
3934.92803 1.01021e-17
3936.40052 9.95410e-18
3937.87302 1.01040e-17
3939.34552 9.91125e-18
3940.80800 9.57593e-18
3942.28050 1.00459e-17
3943.75300 1.05544e-17
3945.22550 1.07646e-17
3946.68798 1.01157e-17
3948.16048 9.61372e-18
3949.63298 1.03212e-17
3951.10548 1.00599e-17
3952.56796 9.80823e-18
3954.04046 9.91871e-18
3955.51296 9.92075e-18
3956.98546 1.03217e-17
3958.44794 1.01151e-17
3959.92044 9.53088e-18
3961.39294 9.17313e-18
3962.86544 9.59722e-18
3964.32792 9.49397e-18
3965.80042 9.40565e-18
3967.27292 9.12796e-18
3968.74542 8.83130e-18
3970.20790 8.41950e-18
3971.68040 8.31116e-18
3973.15290 8.52347e-18
3974.62540 8.37502e-18
3976.08788 9.03012e-18
3977.56038 8.88851e-18
3979.03288 8.69634e-18
3980.50538 8.56935e-18
3981.96786 8.36925e-18
3983.44036 8.18195e-18
3984.91286 8.22115e-18
3986.38535 8.48725e-18
3987.84784 8.58380e-18
3989.32034 8.35189e-18
3990.79283 8.10747e-18
3992.26533 8.39398e-18
3993.72781 8.34863e-18
3995.20031 8.44582e-18
3996.67281 8.78526e-18
3998.14531 8.49776e-18
3999.60779 8.94880e-18
4001.08029 9.32469e-18
4002.55279 9.02973e-18
4004.01527 9.09293e-18
4005.48777 8.88158e-18
4006.96027 9.12277e-18
4008.43277 9.11675e-18
4009.89525 9.37367e-18
4011.36775 9.38019e-18
4012.84025 9.51783e-18
4014.31275 9.75021e-18
4015.77523 9.88495e-18
4017.24773 1.02236e-17
4018.72023 1.05591e-17
4020.19273 1.06615e-17
4021.65521 1.10949e-17
4023.12771 1.15059e-17
4024.60021 1.15368e-17
4026.07271 1.22078e-17
4027.53519 1.19483e-17
4029.00769 1.15680e-17
4030.48019 1.17431e-17
4031.95269 1.23783e-17
4033.41517 1.21890e-17
4034.88767 1.20039e-17
4036.36017 1.23315e-17
4037.83267 1.22512e-17
4039.29515 1.24881e-17
4040.76765 1.24739e-17
4042.24015 1.22189e-17
4043.71265 1.27519e-17
4045.17513 1.23974e-17
4046.64763 1.22904e-17
4048.12012 1.24937e-17
4049.59262 1.22228e-17
4051.05511 1.18039e-17
4052.52761 1.22590e-17
4054.00010 1.22283e-17
4055.47260 1.21541e-17
4056.93509 1.22326e-17
4058.40758 1.20704e-17
4059.88008 1.16401e-17
4061.35258 1.11941e-17
4062.81506 1.08960e-17
4064.28756 1.11751e-17
4065.76006 1.11136e-17
4067.23256 1.05800e-17
4068.69504 1.06470e-17
4070.16754 1.06578e-17
4071.64004 1.06246e-17
4073.11254 1.03649e-17
4074.57502 1.01803e-17
4076.04752 1.00024e-17
4077.52002 9.83185e-18
4078.99252 9.74596e-18
4080.45500 9.76162e-18
4081.92750 9.65033e-18
4083.40000 9.23307e-18
4084.87250 9.37451e-18
4086.33498 9.02649e-18
4087.80748 9.27862e-18
4089.27998 8.92193e-18
4090.75248 8.97064e-18
4092.21496 8.75853e-18
4093.68746 8.54219e-18
4095.15996 8.27946e-18
4096.63246 7.97423e-18
4098.09494 8.10313e-18
4099.56744 7.73590e-18
4101.03994 7.84766e-18
4102.50242 7.65636e-18
4103.97492 7.71210e-18
4105.44742 7.93632e-18
4106.91992 7.99209e-18
4108.38240 7.83154e-18
4109.85490 7.83371e-18
4111.32740 7.72254e-18
4112.79989 7.06387e-18
4114.26238 6.74682e-18
4115.73488 7.05868e-18
4117.20737 7.03205e-18
4118.67987 6.69943e-18
4120.14235 6.82472e-18
4121.61485 6.82323e-18
4123.08735 6.55560e-18
4124.55985 6.40836e-18
4126.02233 6.40931e-18
4127.49483 6.62415e-18
4128.96733 6.57275e-18
4130.43983 6.37138e-18
4131.90231 5.88955e-18
4133.37481 6.06680e-18
4134.84731 6.09524e-18
4136.31981 6.38722e-18
4137.78229 5.93562e-18
4139.25479 6.00686e-18
4140.72729 6.12223e-18
4142.19979 6.11009e-18
4143.66227 6.06402e-18
4145.13477 6.00425e-18
4146.60727 6.00666e-18
4148.07977 5.92318e-18
4149.54225 5.82908e-18
4151.01475 5.82396e-18
4152.48725 6.00818e-18
4153.95975 5.93904e-18
4155.42223 6.11018e-18
4156.89473 5.83882e-18
4158.36723 5.65379e-18
4159.83973 6.13902e-18
4161.30221 6.29084e-18
4162.77471 5.99076e-18
4164.24721 6.15305e-18
4165.71970 6.28008e-18
4167.18219 6.10579e-18
4168.65469 6.23605e-18
4170.12719 6.26810e-18
4171.59968 6.37574e-18
4173.06217 6.43493e-18
4174.53467 6.10090e-18
4176.00716 5.90505e-18
4177.47966 6.18643e-18
4178.94215 6.47471e-18
4180.41464 6.33466e-18
4181.88714 6.14713e-18
4183.35964 6.13452e-18
4184.82212 6.29871e-18
4186.29462 6.03310e-18
4187.76712 5.74472e-18
4189.22960 5.81884e-18
4190.70210 5.86595e-18
4192.17460 6.01353e-18
4193.64710 5.84782e-18
4195.11960 5.56212e-18
4196.58208 5.28905e-18
4198.05458 5.38878e-18
4199.52708 5.64597e-18
4200.98956 5.62499e-18
4202.46206 5.62210e-18
4203.93456 5.52431e-18
4205.40706 5.63089e-18
4206.86954 5.76106e-18
4208.34204 5.52927e-18
4209.81454 5.47385e-18
4211.28704 5.58344e-18
4212.74952 5.46458e-18
4214.22202 5.56966e-18
4215.69452 5.62032e-18
4217.16702 5.62816e-18
4218.62950 5.70943e-18
4220.10200 5.73810e-18
4221.57450 5.49408e-18
4223.04700 5.57157e-18
4224.50948 5.76078e-18
4225.98198 5.85230e-18
4227.45448 5.92452e-18
4228.92698 5.84252e-18
4230.38946 5.73441e-18
4231.86196 5.90085e-18
4233.33446 5.95056e-18
4234.80695 6.14385e-18
4236.26944 6.11444e-18
4237.74194 6.21105e-18
4239.21443 6.33515e-18
4240.68693 6.24849e-18
4242.14941 6.49388e-18
4243.62191 6.58985e-18
4245.09441 6.44599e-18
4246.56691 6.60054e-18
4248.02939 6.56591e-18
4249.50189 6.78847e-18
4250.97439 6.89636e-18
4252.44689 6.67315e-18
4253.90937 6.85609e-18
4255.38187 7.23831e-18
4256.85437 7.13764e-18
4258.32687 6.98110e-18
4259.78935 7.31316e-18
4261.26185 7.04575e-18
4262.73435 6.97123e-18
4264.20685 6.74862e-18
4265.66933 6.81967e-18
4267.14183 6.98068e-18
4268.61433 6.94948e-18
4270.08683 7.42506e-18
4271.54931 7.37603e-18
4273.02181 6.70757e-18
4274.49431 6.90445e-18
4275.96681 7.15667e-18
4277.42929 7.02155e-18
4278.90179 7.13382e-18
4280.37429 6.58598e-18
4281.84679 6.56173e-18
4283.30927 6.67062e-18
4284.78177 6.61646e-18
4286.25427 6.58016e-18
4287.72677 6.97159e-18
4289.18925 6.70106e-18
4290.66175 6.77144e-18
4292.13425 6.79699e-18
4293.59673 6.96700e-18
4295.06923 6.71913e-18
4296.54173 6.47518e-18
4298.01422 6.46766e-18
4299.47671 6.60086e-18
4300.94920 6.64255e-18
4302.42170 6.39539e-18
4303.89420 6.46950e-18
4305.35669 6.70579e-18
4306.82918 6.54933e-18
4308.30168 6.52961e-18
4309.77418 6.48478e-18
4311.23666 6.69401e-18
4312.70916 6.93676e-18
4314.18166 6.88770e-18
4315.65416 7.21617e-18
4317.11664 6.76036e-18
4318.58914 6.98256e-18
4320.06164 7.00306e-18
4321.53414 6.94945e-18
4322.99662 6.99037e-18
4324.46912 6.97135e-18
4325.94162 7.03997e-18
4327.41412 7.13630e-18
4328.87660 7.01229e-18
4330.34910 7.03042e-18
4331.82160 7.34530e-18
4333.29410 7.45439e-18
4334.75658 7.13155e-18
4336.22908 6.96674e-18
4337.70158 6.89571e-18
4339.17408 6.97205e-18
4340.63656 6.99595e-18
4342.10906 7.10807e-18
4343.58156 7.32843e-18
4345.05406 7.68939e-18
4346.51654 7.95637e-18
4347.98904 8.10998e-18
4349.46154 7.77502e-18
4350.93404 7.79348e-18
4352.39652 7.19596e-18
4353.86902 7.18468e-18
4355.34152 7.17341e-18
4356.81401 7.16213e-18
4358.27650 7.15086e-18
4359.74900 7.13959e-18
4361.22149 7.12831e-18
4362.69399 7.11705e-18
4364.15647 7.10578e-18
4365.62897 7.09451e-18
4367.10147 7.08324e-18
4368.57397 7.07198e-18
4370.03645 7.06072e-18
4371.50895 7.04945e-18
4372.98145 7.03819e-18
4374.45395 7.02693e-18
4375.91643 7.01568e-18
4377.38893 7.00442e-18
4378.86143 6.99316e-18
4380.33393 6.98191e-18
4381.79641 6.97065e-18
4383.26891 6.95940e-18
4384.74141 6.94815e-18
4386.20389 6.93690e-18
4387.67639 6.92565e-18
4389.14889 6.91440e-18
4390.62139 6.92410e-18
4392.08387 6.84097e-18
4393.55637 6.87596e-18
4395.02887 6.97111e-18
4396.50137 6.95946e-18
4397.96385 6.99477e-18
4399.43635 7.08613e-18
4400.90885 7.04499e-18
4402.38135 6.85856e-18
4403.84383 6.71903e-18
4405.31633 6.64172e-18
4406.78883 6.71110e-18
4408.26133 6.79526e-18
4409.72381 6.56635e-18
4411.19631 6.37297e-18
4412.66881 6.45564e-18
4414.14131 6.44983e-18
4415.60379 6.29546e-18
4417.07629 6.32064e-18
4418.54878 6.38888e-18
4420.02128 6.54064e-18
4421.48377 6.35544e-18
4422.95626 6.01648e-18
4424.42876 5.94767e-18
4425.90126 5.99402e-18
4427.36375 5.94792e-18
4428.83624 5.99047e-18
4430.30874 5.92216e-18
4431.78124 5.82690e-18
4433.24372 6.04945e-18
4434.71622 5.90381e-18
4436.18872 5.70039e-18
4437.66122 5.88309e-18
4439.12370 5.79633e-18
4440.59620 5.75767e-18
4442.06870 5.73996e-18
4443.54120 5.65478e-18
4445.00368 5.90849e-18
4446.47618 6.03232e-18
4447.94868 5.99593e-18
4449.42118 5.85609e-18
4450.88366 5.80251e-18
4452.35616 5.91047e-18
4453.82866 6.05274e-18
4455.30116 6.01977e-18
4456.76364 5.67291e-18
4458.23614 5.75820e-18
4459.70864 6.12657e-18
4461.18114 6.12914e-18
4462.64362 6.01676e-18
4464.11612 6.08145e-18
4465.58862 6.25442e-18
4467.06112 6.18659e-18
4468.52360 6.31249e-18
4469.99610 6.24395e-18
4471.46860 6.44406e-18
4472.93108 6.32330e-18
4474.40358 6.55688e-18
4475.87608 6.70207e-18
4477.34857 6.91950e-18
4478.82107 7.05872e-18
4480.28356 7.14373e-18
4481.75605 7.27442e-18
4483.22855 7.31434e-18
4484.69104 7.30314e-18
4486.16354 7.52600e-18
4487.63603 7.56114e-18
4489.10853 7.61438e-18
4490.57101 7.80499e-18
4492.04351 8.00183e-18
4493.51601 8.42600e-18
4494.98851 8.45591e-18
4496.45099 8.28852e-18
4497.92349 8.23599e-18
4499.39599 8.59163e-18
4500.86849 8.86228e-18
4502.33097 9.22688e-18
4503.80347 9.31162e-18
4505.27597 9.52220e-18
4506.74847 9.84160e-18
4508.21095 9.69977e-18
4509.68345 9.78876e-18
4511.15595 1.00306e-17
4512.62845 1.02590e-17
4514.09093 1.04641e-17
4515.56343 1.07371e-17
4517.03593 1.11595e-17
4518.50843 1.13496e-17
4519.97091 1.16297e-17
4521.44341 1.17182e-17
4522.91591 1.17176e-17
4524.38841 1.16848e-17
4525.85089 1.19214e-17
4527.32339 1.24092e-17
4528.79589 1.24209e-17
4530.26839 1.25121e-17
4531.73087 1.29559e-17
4533.20337 1.27522e-17
4534.67587 1.27345e-17
4536.14837 1.30404e-17
4537.61085 1.30785e-17
4539.08335 1.29769e-17
4540.55585 1.30940e-17
4542.02834 1.36184e-17
4543.49083 1.35043e-17
4544.96332 1.34542e-17
4546.43582 1.36367e-17
4547.90832 1.36463e-17
4549.37080 1.35946e-17
4550.84330 1.35297e-17
4552.31580 1.35722e-17
4553.78830 1.31652e-17
4555.25078 1.35055e-17
4556.72328 1.35759e-17
4558.19578 1.35810e-17
4559.66828 1.41557e-17
4561.13076 1.39205e-17
4562.60326 1.37158e-17
4564.07576 1.39529e-17
4565.54826 1.40476e-17
4567.01074 1.41937e-17
4568.48324 1.42919e-17
4569.95574 1.45077e-17
4571.42824 1.43409e-17
4572.89072 1.42809e-17
4574.36322 1.47307e-17
4575.83572 1.49474e-17
4577.29820 1.49206e-17
4578.77070 1.50601e-17
4580.24320 1.54481e-17
4581.71570 1.51600e-17
4583.17818 1.50166e-17
4584.65068 1.51459e-17
4586.12318 1.53029e-17
4587.59568 1.53238e-17
4589.05816 1.53690e-17
4590.53066 1.51662e-17
4592.00316 1.51819e-17
4593.47566 1.51915e-17
4594.93814 1.52404e-17
4596.41064 1.50862e-17
4597.88314 1.52381e-17
4599.35563 1.50198e-17
4600.81812 1.48942e-17
4602.29062 1.49152e-17
4603.76311 1.52701e-17
4605.23561 1.53605e-17
4606.69810 1.54533e-17
4608.17060 1.56191e-17
4609.64309 1.58742e-17
4611.11559 1.59644e-17
4612.57808 1.60301e-17
4614.05057 1.63459e-17
4615.52307 1.64896e-17
4616.99557 1.62998e-17
4618.45805 1.65809e-17
4619.93055 1.66455e-17
4621.40305 1.66018e-17
4622.87555 1.64800e-17
4624.33803 1.65245e-17
4625.81053 1.66163e-17
4627.28303 1.68559e-17
4628.75553 1.68385e-17
4630.21801 1.68712e-17
4631.69051 1.68579e-17
4633.16301 1.66323e-17
4634.63551 1.64511e-17
4636.09799 1.64341e-17
4637.57049 1.66236e-17
4639.04299 1.64930e-17
4640.51549 1.65081e-17
4641.97797 1.64091e-17
4643.45047 1.63892e-17
4644.92297 1.61012e-17
4646.39547 1.58527e-17
4647.85795 1.59958e-17
4649.33045 1.59756e-17
4650.80295 1.60086e-17
4652.27545 1.57202e-17
4653.73793 1.57299e-17
4655.21043 1.56794e-17
4656.68293 1.55175e-17
4658.15542 1.51639e-17
4659.61791 1.51856e-17
4661.09041 1.51638e-17
4662.56290 1.52779e-17
4664.03540 1.52202e-17
4665.49789 1.48289e-17
4666.97039 1.44675e-17
4668.44288 1.45016e-17
4669.90537 1.43713e-17
4671.37787 1.40196e-17
4672.85036 1.39686e-17
4674.32286 1.40394e-17
4675.78535 1.38637e-17
4677.25784 1.36314e-17
4678.73034 1.36999e-17
4680.20284 1.34077e-17
4681.66532 1.30502e-17
4683.13782 1.27446e-17
4684.61032 1.27183e-17
4686.08282 1.24658e-17
4687.54530 1.23478e-17
4689.01780 1.23099e-17
4690.49030 1.20461e-17
4691.96280 1.17411e-17
4693.42528 1.15920e-17
4694.89778 1.13541e-17
4696.37028 1.10460e-17
4697.84278 1.10701e-17
4699.30526 1.11098e-17
4700.77776 1.07679e-17
4702.25026 1.07198e-17
4703.72276 1.06187e-17
4705.18524 1.03968e-17
4706.65774 1.05966e-17
4708.13024 1.06971e-17
4709.60274 1.08728e-17
4711.06522 1.04213e-17
4712.53772 1.02407e-17
4714.01022 1.05783e-17
4715.48272 1.11458e-17
4716.94520 1.10528e-17
4718.41770 1.08401e-17
4719.89020 1.07363e-17
4721.36270 1.07223e-17
4722.82518 1.08984e-17
4724.29768 1.11007e-17
4725.77018 1.08784e-17
4727.24267 1.08976e-17
4728.70516 1.08228e-17
4730.17765 1.06456e-17
4731.65015 1.08469e-17
4733.12265 1.09791e-17
4734.58514 1.08189e-17
4736.05763 1.09017e-17
4737.53013 1.08031e-17
4739.00263 1.07312e-17
4740.46511 1.06234e-17
4741.93761 1.09480e-17
4743.41011 1.09785e-17
4744.88261 1.08946e-17
4746.34509 1.11100e-17
4747.81759 1.12583e-17
4749.29009 1.10009e-17
4750.76259 1.11541e-17
4752.22507 1.11311e-17
4753.69757 1.09342e-17
4755.17007 1.11130e-17
4756.63255 1.08721e-17
4758.10505 1.09551e-17
4759.57755 1.11482e-17
4761.05005 1.10875e-17
4762.52255 1.12191e-17
4763.98503 1.12663e-17
4765.45753 1.10303e-17
4766.93003 1.10930e-17
4768.39251 1.10766e-17
4769.86501 1.09460e-17
4771.33751 1.10564e-17
4772.81001 1.08586e-17
4774.27249 1.09087e-17
4775.74499 1.06318e-17
4777.21749 1.04186e-17
4778.68999 1.05025e-17
4780.15247 1.04556e-17
4781.62497 1.04348e-17
4783.09747 1.05211e-17
4784.56996 1.02987e-17
4786.03245 1.03499e-17
4787.50495 1.02355e-17
4788.97745 1.00291e-17
4790.44994 9.84092e-18
4791.91243 9.95304e-18
4793.38493 9.92403e-18
4794.85742 9.79597e-18
4796.32992 9.76263e-18
4797.79241 9.24551e-18
4799.26490 9.19568e-18
4800.73740 9.27322e-18
4802.20990 9.09486e-18
4803.67238 9.07029e-18
4805.14488 9.13332e-18
4806.61738 8.62397e-18
4808.08988 8.44369e-18
4809.55236 8.33980e-18
4811.02486 8.14322e-18
4812.49736 8.10155e-18
4813.96986 8.34318e-18
4815.43234 8.14711e-18
4816.90484 7.96655e-18
4818.37734 8.14634e-18
4819.84984 7.93442e-18
4821.31232 7.78089e-18
4822.78482 8.01605e-18
4824.25732 7.88338e-18
4825.72982 7.79591e-18
4827.19230 7.98150e-18
4828.66480 7.87539e-18
4830.13730 7.88025e-18
4831.60980 7.98721e-18
4833.07228 7.99729e-18
4834.54478 8.24400e-18
4836.01728 8.16750e-18
4837.48978 8.19600e-18
4838.95226 8.47602e-18
4840.42476 8.50083e-18
4841.89726 8.74238e-18
4843.36975 8.81785e-18
4844.83224 8.86625e-18
4846.30474 9.14175e-18
4847.77724 9.15434e-18
4849.24973 9.24329e-18
4850.71222 9.35921e-18
4852.18472 9.42457e-18
4853.65721 9.48990e-18
4855.12971 9.55524e-18
4856.59220 9.62054e-18
4858.06469 9.68584e-18
4859.53719 9.75114e-18
4860.99968 9.81642e-18
4862.47217 9.88170e-18
4863.94467 9.94693e-18
4865.41717 1.00122e-17
4866.87965 1.00774e-17
4868.35215 1.01427e-17
4869.82465 1.02079e-17
4871.29715 1.02731e-17
4872.75963 1.03383e-17
4874.23213 1.04035e-17
4875.70463 1.04687e-17
4877.17713 1.05338e-17
4878.63961 1.05990e-17
4880.11211 1.06641e-17
4881.58461 1.07292e-17
4883.05711 1.07944e-17
4884.51959 1.08595e-17
4885.99209 1.09246e-17
4887.46459 1.09897e-17
4888.93709 1.10547e-17
4890.39957 1.07941e-17
4891.87207 1.07226e-17
4893.34457 1.04016e-17
4894.81707 1.03257e-17
4896.27955 1.01167e-17
4897.75205 9.96382e-18
4899.22455 9.92838e-18
4900.69705 9.77591e-18
4902.15953 9.70431e-18
4903.63203 9.50843e-18
4905.10453 9.27734e-18
4906.57703 8.95043e-18
4908.03951 8.89926e-18
4909.51201 8.87760e-18
4910.98450 8.93207e-18
4912.45700 8.68130e-18
4913.91949 8.69418e-18
4915.39199 8.42482e-18
4916.86448 8.46317e-18
4918.33698 8.63653e-18
4919.79947 8.47963e-18
4921.27196 8.54961e-18
4922.74446 8.60559e-18
4924.21696 8.84133e-18
4925.67944 8.75330e-18
4927.15194 8.61310e-18
4928.62444 8.86438e-18
4930.09694 9.20421e-18
4931.55942 9.00451e-18
4933.03192 8.90232e-18
4934.50442 9.28462e-18
4935.97692 9.33049e-18
4937.43940 9.40403e-18
4938.91190 9.46561e-18
4940.38440 9.62134e-18
4941.85690 9.76016e-18
4943.31938 1.00011e-17
4944.79188 1.02268e-17
4946.26438 1.06503e-17
4947.72686 1.08816e-17
4949.19936 1.09506e-17
4950.67186 1.10216e-17
4952.14436 1.10926e-17
4953.60684 1.11637e-17
4955.07934 1.12347e-17
4956.55184 1.13057e-17
4958.02434 1.13767e-17
4959.48682 1.14477e-17
4960.95932 1.15186e-17
4962.43182 1.15896e-17
4963.90432 1.16605e-17
4965.36680 1.17315e-17
4966.83930 1.18024e-17
4968.31180 1.18733e-17
4969.78430 1.19442e-17
4971.24678 1.20151e-17
4972.71928 1.20860e-17
4974.19178 1.21569e-17
4975.66427 1.22277e-17
4977.12676 1.22985e-17
4978.59926 1.23694e-17
4980.07175 1.24402e-17
4981.54425 1.25110e-17
4983.00673 1.25818e-17
4984.47923 1.26526e-17
4985.95173 1.27234e-17
4987.42423 1.31208e-17
4988.88671 1.32295e-17
4990.35921 1.32835e-17
4991.83171 1.34108e-17
4993.30421 1.32277e-17
4994.76669 1.31040e-17
4996.23919 1.32074e-17
4997.71169 1.30670e-17
4999.18419 1.29265e-17
5000.64667 1.27860e-17
5002.11917 1.26456e-17
5003.59167 1.25052e-17
5005.06417 1.23649e-17
5006.52665 1.22245e-17
5007.99915 1.20842e-17
5009.47165 1.19438e-17
5010.94415 1.18035e-17
5012.40663 1.16633e-17
5013.87913 1.15231e-17
5015.35163 1.13828e-17
5016.82413 1.12426e-17
5018.28661 1.11025e-17
5019.75911 1.09623e-17
5021.23161 1.08222e-17
5022.70411 1.06821e-17
5024.16659 1.05420e-17
5025.63909 1.04019e-17
5027.11159 1.02620e-17
5028.58409 1.01219e-17
5030.04657 9.98189e-18
5031.51907 9.84194e-18
5032.99157 9.70196e-18
5034.46406 9.56210e-18
5035.92655 9.29050e-18
5037.39905 9.16012e-18
5038.87154 8.98815e-18
5040.34404 8.66171e-18
5041.80652 8.49631e-18
5043.27902 8.28434e-18
5044.75152 8.22034e-18
5046.22402 7.97971e-18
5047.68650 7.88484e-18
5049.15900 7.69923e-18
5050.63150 7.65853e-18
5052.09398 7.70793e-18
5053.56648 7.51938e-18
5055.03898 7.26948e-18
5056.51148 7.20417e-18
5057.97396 7.17225e-18
5059.44646 7.21606e-18
5060.91896 7.18284e-18
5062.39146 7.07867e-18
5063.85394 7.11992e-18
5065.32644 7.04083e-18
5066.79894 7.05893e-18
5068.27144 7.10420e-18
5069.73392 7.11509e-18
5071.20642 7.30909e-18
5072.67892 7.43492e-18
5074.15142 7.32279e-18
5075.61390 7.28251e-18
5077.08640 7.49482e-18
5078.55890 7.53363e-18
5080.03140 7.57701e-18
5081.49388 7.73603e-18
5082.96638 8.07495e-18
5084.43888 8.02577e-18
5085.91138 8.16845e-18
5087.37386 8.32084e-18
5088.84636 8.40024e-18
5090.31886 8.61380e-18
5091.79135 8.73822e-18
5093.25384 8.83483e-18
5094.72634 8.89963e-18
5096.19884 9.20791e-18
5097.67133 9.36723e-18
5099.13382 9.21441e-18
5100.60631 9.36310e-18
5102.07881 9.54176e-18
5103.55131 9.69738e-18
5105.01380 9.87223e-18
5106.48629 1.00621e-17
5107.95879 1.00478e-17
5109.43129 1.01577e-17
5110.89377 1.03542e-17
5112.36627 1.03320e-17
5113.83877 1.04174e-17
5115.31127 1.07985e-17
5116.77375 1.07127e-17
5118.24625 1.09168e-17
5119.71875 1.09862e-17
5121.19125 1.10669e-17
5122.65373 1.11003e-17
5124.12623 1.10327e-17
5125.59873 1.11712e-17
5127.07123 1.15875e-17
5128.53371 1.14897e-17
5130.00621 1.14960e-17
5131.47871 1.17086e-17
5132.95121 1.17059e-17
5134.41369 1.17032e-17
5135.88619 1.17815e-17
5137.35869 1.17282e-17
5138.82117 1.17554e-17
5140.29367 1.18492e-17
5141.76617 1.17425e-17
5143.23867 1.18740e-17
5144.70115 1.19032e-17
5146.17365 1.18102e-17
5147.64615 1.17055e-17
5149.11865 1.19286e-17
5150.59115 1.19573e-17
5152.05363 1.18558e-17
5153.52613 1.18125e-17
5154.99863 1.20316e-17
5156.46111 1.22146e-17
5157.93361 1.21013e-17
5159.40611 1.18629e-17
5160.87860 1.18413e-17
5162.34109 1.21630e-17
5163.81359 1.23424e-17
5165.28608 1.22921e-17
5166.75858 1.23365e-17
5168.22106 1.24994e-17
5169.69356 1.24782e-17
5171.16606 1.22395e-17
5172.63856 1.23878e-17
5174.10104 1.25973e-17
5175.57354 1.26611e-17
5177.04604 1.27213e-17
5178.51854 1.25098e-17
5179.98102 1.24422e-17
5181.45352 1.25413e-17
5182.92602 1.25568e-17
5184.39852 1.25161e-17
5185.86100 1.26095e-17
5187.33350 1.25882e-17
5188.80600 1.23225e-17
5190.27850 1.23439e-17
5191.74098 1.27067e-17
5193.21348 1.27056e-17
5194.68598 1.24935e-17
5196.15848 1.24527e-17
5197.62096 1.24286e-17
5199.09346 1.26354e-17
5200.56596 1.26073e-17
5202.03846 1.24313e-17
5203.50094 1.23671e-17
5204.97344 1.23595e-17
5206.44594 1.22594e-17
5207.91844 1.24126e-17
5209.38092 1.25323e-17
5210.85342 1.25583e-17
5212.32592 1.24752e-17
5213.79842 1.24404e-17
5215.26090 1.25375e-17
5216.73340 1.25268e-17
5218.20590 1.25041e-17
5219.67839 1.25433e-17
5221.14088 1.26674e-17
5222.61337 1.26857e-17
5224.08587 1.27093e-17
5225.55837 1.27393e-17
5227.02085 1.26717e-17
5228.49335 1.25427e-17
5229.96585 1.24792e-17
5231.43835 1.25430e-17
5232.90083 1.25710e-17
5234.37333 1.24323e-17
5235.84583 1.26538e-17
5237.31833 1.26650e-17
5238.78081 1.27973e-17
5240.25331 1.27626e-17
5241.72581 1.28802e-17
5243.18829 1.30110e-17
5244.66079 1.33441e-17
5246.13329 1.32384e-17
5247.60579 1.31680e-17
5249.06827 1.34296e-17
5250.54077 1.35495e-17
5252.01327 1.37399e-17
5253.48577 1.36882e-17
5254.94825 1.36055e-17
5256.42075 1.38025e-17
5257.89325 1.37498e-17
5259.36575 1.39422e-17
5260.82823 1.41406e-17
5262.30073 1.40673e-17
5263.77323 1.41074e-17
5265.24573 1.44001e-17
5266.70821 1.44480e-17
5268.18071 1.44781e-17
5269.65321 1.46792e-17
5271.12571 1.45752e-17
5272.58819 1.44666e-17
5274.06069 1.47822e-17
5275.53319 1.50453e-17
5277.00569 1.50454e-17
5278.46817 1.49262e-17
5279.94067 1.48953e-17
5281.41316 1.46654e-17
5282.88566 1.46320e-17
5284.34815 1.51575e-17
5285.82065 1.50246e-17
5287.29314 1.47683e-17
5288.76564 1.48361e-17
5290.22813 1.50730e-17
5291.70062 1.48470e-17
5293.17312 1.45254e-17
5294.64562 1.46888e-17
5296.10810 1.49635e-17
5297.58060 1.49830e-17
5299.05310 1.47275e-17
5300.52560 1.47339e-17
5301.98808 1.47246e-17
5303.46058 1.47703e-17
5304.93308 1.48686e-17
5306.40558 1.49143e-17
5307.86806 1.51191e-17
5309.34056 1.50870e-17
5310.81306 1.51091e-17
5312.28556 1.52706e-17
5313.74804 1.53991e-17
5315.22054 1.54912e-17
5316.69304 1.55984e-17
5318.16554 1.54697e-17
5319.62802 1.54331e-17
5321.10052 1.57991e-17
5322.57302 1.58883e-17
5324.04552 1.58042e-17
5325.50800 1.57075e-17
5326.98050 1.57450e-17
5328.45300 1.56288e-17
5329.92550 1.54053e-17
5331.38798 1.56829e-17
5332.86048 1.59239e-17
5334.33298 1.58976e-17
5335.80548 1.57809e-17
5337.26796 1.56922e-17
5338.74046 1.58357e-17
5340.21295 1.58263e-17
5341.67544 1.56725e-17
5343.14794 1.57787e-17
5344.62044 1.59854e-17
5346.09293 1.60263e-17
5347.55542 1.58119e-17
5349.02791 1.55229e-17
5350.50041 1.56467e-17
5351.97291 1.59283e-17
5353.43540 1.60984e-17
5354.90789 1.62536e-17
5356.38039 1.62765e-17
5357.85289 1.62414e-17
5359.31537 1.60779e-17
5360.78787 1.62057e-17
5362.26037 1.64994e-17
5363.73287 1.64611e-17
5365.19535 1.63713e-17
5366.66785 1.64860e-17
5368.14035 1.65693e-17
5369.61285 1.66887e-17
5371.07533 1.68553e-17
5372.54783 1.66081e-17
5374.02033 1.67289e-17
5375.49283 1.72135e-17
5376.95531 1.71153e-17
5378.42781 1.70617e-17
5379.90031 1.71579e-17
5381.37281 1.71038e-17
5382.83529 1.69482e-17
5384.30779 1.69406e-17
5385.78029 1.70834e-17
5387.25279 1.72184e-17
5388.71527 1.74397e-17
5390.18777 1.73595e-17
5391.66027 1.71092e-17
5393.13277 1.70755e-17
5394.59525 1.69095e-17
5396.06775 1.69296e-17
5397.54025 1.70813e-17
5399.01275 1.69844e-17
5400.47523 1.67659e-17
5401.94773 1.65590e-17
5403.42022 1.63295e-17
5404.89272 1.64148e-17
5406.35521 1.61356e-17
5407.82770 1.58850e-17
5409.30020 1.58418e-17
5410.77270 1.56840e-17
5412.23519 1.55210e-17
5413.70768 1.52524e-17
5415.18018 1.51287e-17
5416.65268 1.50608e-17
5418.11516 1.49549e-17
5419.58766 1.48552e-17
5421.06016 1.45799e-17
5422.53266 1.44580e-17
5423.99514 1.42864e-17
5425.46764 1.41390e-17
5426.94014 1.43325e-17
5428.40262 1.40772e-17
5429.87512 1.38615e-17
5431.34762 1.37310e-17
5432.82012 1.38137e-17
5434.28260 1.37809e-17
5435.75510 1.35372e-17
5437.22760 1.34026e-17
5438.70010 1.35327e-17
5440.16258 1.36670e-17
5441.63508 1.37424e-17
5443.10758 1.34546e-17
5444.58008 1.33328e-17
5446.04256 1.32404e-17
5447.51506 1.32641e-17
5448.98756 1.33346e-17
5450.46006 1.32656e-17
5451.92254 1.31822e-17
5453.39504 1.31943e-17
5454.86754 1.35710e-17
5456.34004 1.37256e-17
5457.80252 1.38041e-17
5459.27502 1.40350e-17
5460.74752 1.40455e-17
5462.22001 1.42289e-17
5463.68250 1.44773e-17
5465.15500 1.48072e-17
5466.62750 1.50198e-17
5468.09999 1.52062e-17
5469.56248 1.53361e-17
5471.03498 1.56156e-17
5472.50747 1.60468e-17
5473.97997 1.62973e-17
5475.44245 1.63262e-17
5476.91495 1.62386e-17
5478.38745 1.64229e-17
5479.85995 1.66335e-17
5481.32243 1.68972e-17
5482.79493 1.71950e-17
5484.26743 1.75690e-17
5485.73993 1.77377e-17
5487.20241 1.78515e-17
5488.67491 1.81141e-17
5490.14741 1.84597e-17
5491.61991 1.85603e-17
5493.08239 1.89365e-17
5494.55489 1.90008e-17
5496.02739 1.92216e-17
5497.49989 1.96640e-17
5498.96237 1.98051e-17
5500.43487 1.96795e-17
5501.90737 2.00284e-17
5503.37987 2.04749e-17
5504.84235 2.05382e-17
5506.31485 2.05892e-17
5507.78735 2.07201e-17
5509.25985 2.05420e-17
5510.72233 2.04330e-17
5512.19483 2.07495e-17
5513.66733 2.06541e-17
5515.12981 2.05655e-17
5516.60231 2.03797e-17
5518.07481 2.03594e-17
5519.54731 2.03787e-17
5521.01980 2.01179e-17
5522.48229 2.02099e-17
5523.95479 1.99985e-17
5525.42729 1.95955e-17
5526.89978 1.95954e-17
5528.36227 1.95404e-17
5529.83476 1.95938e-17
5531.30726 1.91961e-17
5532.76975 1.89623e-17
5534.24225 1.90409e-17
5535.71474 1.86637e-17
5537.18724 1.84841e-17
5538.64973 1.85187e-17
5540.12222 1.84510e-17
5541.59472 1.82187e-17
5543.06722 1.79867e-17
5544.52970 1.75023e-17
5546.00220 1.71609e-17
5547.47470 1.71053e-17
5548.94720 1.70835e-17
5550.40968 1.68990e-17
5551.88218 1.66927e-17
5553.35468 1.63488e-17
5554.82718 1.60467e-17
5556.28966 1.57961e-17
5557.76216 1.56384e-17
5559.23466 1.53318e-17
5560.70716 1.50652e-17
5562.16964 1.46873e-17
5563.64214 1.44154e-17
5565.11464 1.44430e-17
5566.58714 1.42686e-17
5568.04962 1.38519e-17
5569.52212 1.37037e-17
5570.99462 1.35529e-17
5572.46712 1.33456e-17
5573.92960 1.32053e-17
5575.40210 1.32395e-17
5576.87460 1.30702e-17
5578.34710 1.27462e-17
5579.80958 1.29022e-17
5581.28208 1.30721e-17
5582.75458 1.29023e-17
5584.22707 1.28715e-17
5585.68956 1.29399e-17
5587.16206 1.28216e-17
5588.63455 1.27259e-17
5590.10705 1.25524e-17
5591.56954 1.27598e-17
5593.04204 1.31667e-17
5594.51453 1.31070e-17
5595.98703 1.29123e-17
5597.44952 1.29485e-17
5598.92201 1.31827e-17
5600.39451 1.32231e-17
5601.85700 1.31753e-17
5603.32949 1.32069e-17
5604.80199 1.32366e-17
5606.27449 1.34024e-17
5607.74699 1.35105e-17
5609.20947 1.34777e-17
5610.68197 1.34900e-17
5612.15447 1.36479e-17
5613.62697 1.38071e-17
5615.08945 1.39624e-17
5616.56195 1.39258e-17
5618.03445 1.39830e-17
5619.49693 1.41994e-17
5620.96943 1.43032e-17
5622.44193 1.44501e-17
5623.91443 1.45043e-17
5625.37691 1.44339e-17
5626.84941 1.43332e-17
5628.32191 1.45927e-17
5629.79441 1.47864e-17
5631.25689 1.47398e-17
5632.72939 1.46713e-17
5634.20189 1.46202e-17
5635.67439 1.47321e-17
5637.13687 1.49020e-17
5638.60937 1.49092e-17
5640.08187 1.47496e-17
5641.55437 1.47238e-17
5643.01685 1.48072e-17
5644.48935 1.50191e-17
5645.96185 1.51074e-17
5647.43435 1.50091e-17
5648.89683 1.47947e-17
5650.36933 1.47912e-17
5651.84183 1.47587e-17
5653.31432 1.47219e-17
5654.77681 1.48126e-17
5656.24931 1.46606e-17
5657.72180 1.44642e-17
5659.19430 1.43244e-17
5660.65679 1.42058e-17
5662.12928 1.41175e-17
5663.60178 1.40021e-17
5665.07428 1.37943e-17
5666.53676 1.36693e-17
5668.00926 1.34754e-17
5669.48176 1.31677e-17
5670.95426 1.30003e-17
5672.41674 1.29286e-17
5673.88924 1.28588e-17
5675.36174 1.26034e-17
5676.83424 1.23748e-17
5678.29672 1.21071e-17
5679.76922 1.17065e-17
5681.24172 1.15764e-17
5682.71422 1.14319e-17
5684.17670 1.12148e-17
5685.64920 1.09535e-17
5687.12170 1.07606e-17
5688.59420 1.04852e-17
5690.05668 1.02499e-17
5691.52918 1.01043e-17
5693.00168 9.80575e-18
5694.47418 9.70110e-18
5695.93666 9.48475e-18
5697.40916 9.12796e-18
5698.88166 8.89389e-18
5700.35416 8.69907e-18
5701.81664 8.33861e-18
5703.28914 7.90657e-18
5704.76164 7.60624e-18
5706.22412 7.54287e-18
5707.69662 7.42341e-18
5709.16912 7.28367e-18
5710.64162 7.05582e-18
5712.11411 6.81269e-18
5713.57660 6.58834e-18
5715.04910 6.42935e-18
5716.52159 6.39128e-18
5717.99409 6.22048e-18
5719.45658 6.05052e-18
5720.92907 5.97536e-18
5722.40157 5.74119e-18
5723.86406 5.69399e-18
5725.33655 5.76078e-18
5726.80905 5.74218e-18
5728.28155 5.54915e-18
5729.74403 5.43228e-18
5731.21653 5.44717e-18
5732.68903 5.43397e-18
5734.16153 5.29205e-18
5735.62401 5.14941e-18
5737.09651 5.19168e-18
5738.56901 5.19210e-18
5740.04151 5.13761e-18
5741.50399 5.07416e-18
5742.97649 5.09513e-18
5744.44899 5.07658e-18
5745.92149 4.91883e-18
5747.38397 5.09774e-18
5748.85647 5.23053e-18
5750.32897 5.20043e-18
5751.80147 5.12780e-18
5753.26395 5.17411e-18
5754.73645 5.22781e-18
5756.20895 5.22654e-18
5757.68145 5.31721e-18
5759.14393 5.36361e-18
5760.61643 5.37555e-18
5762.08893 5.54169e-18
5763.56143 5.66955e-18
5765.02391 5.63859e-18
5766.49641 5.63897e-18
5767.96891 5.77624e-18
5769.44140 5.82571e-18
5770.90389 5.83989e-18
5772.37639 6.04198e-18
5773.84889 6.09164e-18
5775.32138 6.04550e-18
5776.78387 6.24370e-18
5778.25637 6.34383e-18
5779.72886 6.45091e-18
5781.20136 6.61592e-18
5782.66385 6.77927e-18
5784.13634 6.85829e-18
5785.60884 6.97896e-18
5787.08134 7.17706e-18
5788.54382 7.19631e-18
5790.01632 7.27338e-18
5791.48882 7.60437e-18
5792.96132 7.77486e-18
5794.42380 7.85493e-18
5795.89630 7.95142e-18
5797.36880 8.06803e-18
5798.84130 8.35959e-18
5800.30378 8.67397e-18
5801.77628 8.88504e-18
5803.24878 9.06459e-18
5804.72128 9.23398e-18
5806.18376 9.44688e-18
5807.65626 9.67455e-18
5809.12876 9.92728e-18
5810.59124 1.02305e-17
5812.06374 1.05884e-17
5813.53624 1.09220e-17
5815.00874 1.12746e-17
5816.47122 1.15106e-17
5817.94372 1.17728e-17
5819.41622 1.20286e-17
5820.88872 1.22475e-17
5822.35120 1.26877e-17
5823.82370 1.30500e-17
5825.29620 1.31475e-17
5826.76870 1.33653e-17
5828.23118 1.37533e-17
5829.70368 1.38894e-17
5831.17618 1.40547e-17
5832.64868 1.43185e-17
5834.11116 1.44695e-17
5835.58366 1.46230e-17
5837.05616 1.47153e-17
5838.52865 1.49516e-17
5839.99114 1.51015e-17
5841.46364 1.52612e-17
5842.93613 1.55422e-17
5844.40863 1.58148e-17
5845.87111 1.59880e-17
5847.34361 1.58913e-17
5848.81611 1.60822e-17
5850.28861 1.62667e-17
5851.75109 1.62236e-17
5853.22359 1.62972e-17
5854.69609 1.64845e-17
5856.16859 1.65991e-17
5857.63107 1.68513e-17
5859.10357 1.70495e-17
5860.57607 1.70576e-17
5862.04857 1.71446e-17
5863.51105 1.73519e-17
5864.98355 1.75780e-17
5866.45605 1.76314e-17
5867.92855 1.77789e-17
5869.39103 1.78005e-17
5870.86353 1.77127e-17
5872.33603 1.77635e-17
5873.80853 1.79610e-17
5875.27101 1.81325e-17
5876.74351 1.81958e-17
5878.21601 1.82033e-17
5879.68851 1.81904e-17
5881.15099 1.82178e-17
5882.62349 1.84664e-17
5884.09599 1.85750e-17
5885.56849 1.83034e-17
5887.03097 1.78958e-17
5888.50347 1.74014e-17
5889.97597 1.70108e-17
5891.44847 1.71953e-17
5892.91095 1.74400e-17
5894.38345 1.74601e-17
5895.85595 1.71872e-17
5897.31843 1.69165e-17
5898.79093 1.70091e-17
5900.26343 1.73213e-17
5901.73592 1.74742e-17
5903.20842 1.75732e-17
5904.67090 1.77927e-17
5906.14340 1.78589e-17
5907.61590 1.78967e-17
5909.07839 1.79368e-17
5910.55088 1.81420e-17
5912.02338 1.81240e-17
5913.49588 1.83026e-17
5914.95836 1.82285e-17
5916.43086 1.81114e-17
5917.90336 1.80229e-17
5919.37586 1.78529e-17
5920.83834 1.77933e-17
5922.31084 1.77369e-17
5923.78334 1.80124e-17
5925.25584 1.79257e-17
5926.71832 1.77024e-17
5928.19082 1.77130e-17
5929.66332 1.77911e-17
5931.13582 1.79079e-17
5932.59830 1.78316e-17
5934.07080 1.79141e-17
5935.54330 1.79237e-17
5937.01580 1.79162e-17
5938.47828 1.77887e-17
5939.95078 1.76706e-17
5941.42328 1.78004e-17
5942.89578 1.75734e-17
5944.35826 1.73373e-17
5945.83076 1.75619e-17
5947.30326 1.76009e-17
5948.77576 1.76155e-17
5950.23824 1.75653e-17
5951.71074 1.74584e-17
5953.18324 1.75293e-17
5954.65574 1.75896e-17
5956.11822 1.77333e-17
5957.59072 1.76647e-17
5959.06322 1.74929e-17
5960.53571 1.73558e-17
5961.99820 1.74286e-17
5963.47070 1.75026e-17
5964.94319 1.74666e-17
5966.41569 1.75244e-17
5967.87817 1.73701e-17
5969.35067 1.74184e-17
5970.82317 1.75057e-17
5972.29567 1.74457e-17
5973.75815 1.74483e-17
5975.23065 1.73939e-17
5976.70315 1.71712e-17
5978.17565 1.73217e-17
5979.63813 1.75225e-17
5981.11063 1.75297e-17
5982.58313 1.75845e-17
5984.05563 1.73597e-17
5985.51811 1.72135e-17
5986.99061 1.72010e-17
5988.46311 1.71632e-17
5989.93561 1.72214e-17
5991.39809 1.73578e-17
5992.87059 1.73810e-17
5994.34309 1.71536e-17
5995.81559 1.68792e-17
5997.27807 1.68565e-17
5998.75057 1.67164e-17
6000.22307 1.64762e-17
6001.68555 1.64687e-17
6003.15805 1.65448e-17
6004.63055 1.64689e-17
6006.10305 1.62891e-17
6007.56553 1.61105e-17
6009.03803 1.61075e-17
6010.51053 1.62058e-17
6011.98303 1.61128e-17
6013.44551 1.57712e-17
6014.91801 1.54829e-17
6016.39051 1.54203e-17
6017.86301 1.54455e-17
6019.32549 1.54255e-17
6020.79799 1.52523e-17
6022.27049 1.51461e-17
6023.74298 1.51887e-17
6025.20547 1.51547e-17
6026.67796 1.48877e-17
6028.15046 1.47520e-17
6029.62296 1.47764e-17
6031.08545 1.47027e-17
6032.55794 1.47065e-17
6034.03044 1.47021e-17
6035.50294 1.46332e-17
6036.96542 1.46137e-17
6038.43792 1.45669e-17
6039.91042 1.42666e-17
6041.38292 1.40584e-17
6042.84540 1.40489e-17
6044.31790 1.39662e-17
6045.79040 1.39379e-17
6047.26290 1.38503e-17
6048.72538 1.38110e-17
6050.19788 1.38826e-17
6051.67038 1.38386e-17
6053.14288 1.36569e-17
6054.60536 1.35520e-17
6056.07786 1.35738e-17
6057.55036 1.36115e-17
6059.02286 1.34858e-17
6060.48534 1.32340e-17
6061.95784 1.31296e-17
6063.43034 1.32060e-17
6064.90284 1.32551e-17
6066.36532 1.31550e-17
6067.83782 1.30338e-17
6069.31032 1.28916e-17
6070.78282 1.30120e-17
6072.24530 1.32620e-17
6073.71780 1.32542e-17
6075.19030 1.30743e-17
6076.66280 1.29604e-17
6078.12528 1.31214e-17
6079.59778 1.31224e-17
6081.07028 1.32377e-17
6082.54277 1.33724e-17
6084.00526 1.35149e-17
6085.47775 1.37385e-17
6086.95025 1.38177e-17
6088.42275 1.38422e-17
6089.88524 1.36727e-17
6091.35773 1.36207e-17
6092.83023 1.38382e-17
6094.30273 1.40623e-17
6095.76521 1.41962e-17
6097.23771 1.43746e-17
6098.71021 1.42954e-17
6100.17269 1.41133e-17
6101.64519 1.43354e-17
6103.11769 1.45232e-17
6104.59019 1.44447e-17
6106.05267 1.44920e-17
6107.52517 1.46219e-17
6108.99767 1.45069e-17
6110.47017 1.45771e-17
6111.93265 1.48053e-17
6113.40515 1.47423e-17
6114.87765 1.46342e-17
6116.35015 1.46787e-17
6117.81263 1.45830e-17
6119.28513 1.45970e-17
6120.75763 1.46729e-17
6122.23013 1.46586e-17
6123.69261 1.46262e-17
6125.16511 1.46204e-17
6126.63761 1.45168e-17
6128.11011 1.43624e-17
6129.57259 1.43418e-17
6131.04509 1.44430e-17
6132.51759 1.43157e-17
6133.99009 1.39659e-17
6135.45257 1.40658e-17
6136.92507 1.41842e-17
6138.39757 1.40010e-17
6139.87007 1.39709e-17
6141.33255 1.38556e-17
6142.80505 1.37002e-17
6144.27755 1.36137e-17
6145.75004 1.34324e-17
6147.21253 1.34734e-17
6148.68502 1.34354e-17
6150.15752 1.33519e-17
6151.63002 1.35554e-17
6153.09250 1.34692e-17
6154.56500 1.32581e-17
6156.03750 1.33673e-17
6157.51000 1.32290e-17
6158.97248 1.31719e-17
6160.44498 1.32291e-17
6161.91748 1.34087e-17
6163.38998 1.36927e-17
6164.85246 1.39606e-17
6166.32496 1.38402e-17
6167.79746 1.36681e-17
6169.26996 1.37474e-17
6170.73244 1.38479e-17
6172.20494 1.38131e-17
6173.67744 1.37980e-17
6175.14994 1.40164e-17
6176.61242 1.42209e-17
6178.08492 1.43318e-17
6179.55742 1.43112e-17
6181.02992 1.45441e-17
6182.49240 1.47928e-17
6183.96490 1.46829e-17
6185.43740 1.47503e-17
6186.89988 1.49421e-17
6188.37238 1.47759e-17
6189.84488 1.47838e-17
6191.31738 1.51743e-17
6192.77986 1.53214e-17
6194.25236 1.53345e-17
6195.72486 1.54358e-17
6197.19736 1.54131e-17
6198.66986 1.55364e-17
6200.13234 1.58140e-17
6201.60484 1.59437e-17
6203.07733 1.59658e-17
6204.53982 1.61566e-17
6206.01232 1.64802e-17
6207.48481 1.65425e-17
6208.95731 1.65575e-17
6210.41980 1.66892e-17
6211.89230 1.68075e-17
6213.36479 1.69621e-17
6214.83729 1.69900e-17
6216.29978 1.69994e-17
6217.77227 1.70974e-17
6219.24477 1.71696e-17
6220.71727 1.72355e-17
6222.17975 1.72677e-17
6223.65225 1.72594e-17
6225.12475 1.71767e-17
6226.59725 1.71688e-17
6228.05973 1.72888e-17
6229.53223 1.72687e-17
6231.00473 1.71973e-17
6232.47723 1.72896e-17
6233.93971 1.72854e-17
6235.41221 1.71093e-17
6236.88471 1.70871e-17
6238.35721 1.71937e-17
6239.81969 1.72360e-17
6241.29219 1.71309e-17
6242.76469 1.69631e-17
6244.23719 1.70056e-17
6245.69967 1.71778e-17
6247.17217 1.73188e-17
6248.64467 1.72334e-17
6250.11717 1.71627e-17
6251.57965 1.72425e-17
6253.05215 1.71496e-17
6254.52465 1.70904e-17
6255.99715 1.72602e-17
6257.45963 1.72882e-17
6258.93213 1.70258e-17
6260.40463 1.67888e-17
6261.87712 1.69729e-17
6263.33961 1.70640e-17
6264.81211 1.67565e-17
6266.28460 1.67765e-17
6267.75710 1.70405e-17
6269.21959 1.72018e-17
6270.69209 1.71721e-17
6272.16458 1.70415e-17
6273.62707 1.69426e-17
6275.09957 1.68989e-17
6276.57206 1.68752e-17
6278.04456 1.68332e-17
6279.51706 1.68045e-17
6280.97954 1.66854e-17
6282.45204 1.65989e-17
6283.92454 1.63358e-17
6285.39704 1.59572e-17
6286.85952 1.59799e-17
6288.33202 1.60966e-17
6289.80452 1.62001e-17
6291.26700 1.62351e-17
6292.73950 1.60613e-17
6294.21200 1.61302e-17
6295.68450 1.59097e-17
6297.14698 1.56058e-17
6298.61948 1.58855e-17
6300.09198 1.59213e-17
6301.56448 1.61402e-17
6303.02696 1.65372e-17
6304.49946 1.63374e-17
6305.97196 1.59882e-17
6307.44446 1.56857e-17
6308.90694 1.57699e-17
6310.37944 1.59095e-17
6311.85194 1.59349e-17
6313.32444 1.59764e-17
6314.78692 1.56911e-17
6316.25942 1.54856e-17
6317.73192 1.53934e-17
6319.20442 1.53597e-17
6320.66690 1.53914e-17
6322.13940 1.53831e-17
6323.61190 1.51616e-17
6325.08440 1.49911e-17
6326.54688 1.51206e-17
6328.01938 1.51869e-17
6329.49188 1.51554e-17
6330.96437 1.50215e-17
6332.42686 1.48656e-17
6333.89935 1.45516e-17
6335.37185 1.44128e-17
6336.84435 1.45411e-17
6338.30684 1.45330e-17
6339.77933 1.46113e-17
6341.25183 1.45641e-17
6342.72433 1.43299e-17
6344.18681 1.42636e-17
6345.65931 1.42891e-17
6347.13181 1.42061e-17
6348.60431 1.42270e-17
6350.06679 1.41818e-17
6351.53929 1.40261e-17
6353.01179 1.39965e-17
6354.48429 1.38702e-17
6355.94677 1.37050e-17
6357.41927 1.35951e-17
6358.89177 1.34010e-17
6360.36427 1.32285e-17
6361.82675 1.33800e-17
6363.29925 1.34927e-17
6364.77175 1.32958e-17
6366.24425 1.30899e-17
6367.70673 1.31175e-17
6369.17923 1.32060e-17
6370.65173 1.31970e-17
6372.12423 1.33285e-17
6373.58671 1.33016e-17
6375.05921 1.31826e-17
6376.53171 1.33727e-17
6377.99419 1.36027e-17
6379.46669 1.35835e-17
6380.93919 1.34034e-17
6382.41169 1.34343e-17
6383.87417 1.36276e-17
6385.34667 1.36036e-17
6386.81917 1.34740e-17
6388.29166 1.34985e-17
6389.76416 1.34262e-17
6391.22665 1.34568e-17
6392.69915 1.37331e-17
6394.17164 1.37065e-17
6395.63413 1.35202e-17
6397.10663 1.35132e-17
6398.57912 1.35160e-17
6400.05162 1.35076e-17
6401.51411 1.36193e-17
6402.98660 1.37127e-17
6404.45910 1.36857e-17
6405.93160 1.35506e-17
6407.39408 1.34425e-17
6408.86658 1.35065e-17
6410.33908 1.37216e-17
6411.81158 1.37986e-17
6413.27406 1.36863e-17
6414.74656 1.36167e-17
6416.21906 1.37815e-17
6417.69156 1.40209e-17
6419.15404 1.40496e-17
6420.62654 1.40766e-17
6422.09904 1.39908e-17
6423.57154 1.39658e-17
6425.03402 1.42304e-17
6426.50652 1.42254e-17
6427.97902 1.40884e-17
6429.45152 1.41812e-17
6430.91400 1.42037e-17
6432.38650 1.43144e-17
6433.85900 1.45505e-17
6435.33150 1.45793e-17
6436.79398 1.44973e-17
6438.26648 1.45466e-17
6439.73898 1.46783e-17
6441.21148 1.47188e-17
6442.67396 1.48857e-17
6444.14646 1.50221e-17
6445.61896 1.49022e-17
6447.09145 1.49701e-17
6448.55394 1.53041e-17
6450.02644 1.54204e-17
6451.49894 1.52938e-17
6452.97143 1.53792e-17
6454.43392 1.56145e-17
6455.90642 1.56568e-17
6457.37891 1.55500e-17
6458.85141 1.54028e-17
6460.31390 1.55702e-17
6461.78639 1.57862e-17
6463.25889 1.56515e-17
6464.73139 1.56014e-17
6466.19387 1.57233e-17
6467.66637 1.56485e-17
6469.13887 1.54608e-17
6470.60135 1.53691e-17
6472.07385 1.54742e-17
6473.54635 1.55646e-17
6475.01885 1.52720e-17
6476.49135 1.51781e-17
6477.95383 1.52704e-17
6479.42633 1.52705e-17
6480.89883 1.52729e-17
6482.36131 1.52519e-17
6483.83381 1.52930e-17
6485.30631 1.52303e-17
6486.77881 1.52042e-17
6488.24129 1.51453e-17
6489.71379 1.51188e-17
6491.18629 1.51169e-17
6492.65879 1.50929e-17
6494.12127 1.50768e-17
6495.59377 1.49943e-17
6497.06627 1.49192e-17
6498.53877 1.50574e-17
6500.00125 1.51482e-17
6501.47375 1.49503e-17
6502.94625 1.46628e-17
6504.41875 1.46999e-17
6505.88123 1.47834e-17
6507.35373 1.46528e-17
6508.82623 1.45984e-17
6510.29873 1.45705e-17
6511.76121 1.46201e-17
6513.23371 1.44591e-17
6514.70620 1.41715e-17
6516.17870 1.41177e-17
6517.64119 1.40808e-17
6519.11369 1.41126e-17
6520.58618 1.42339e-17
6522.05868 1.42897e-17
6523.52117 1.43873e-17
6524.99366 1.44780e-17
6526.46616 1.43833e-17
6527.93866 1.44232e-17
6529.40114 1.45504e-17
6530.87364 1.46114e-17
6532.34614 1.46269e-17
6533.81864 1.47005e-17
6535.28112 1.46222e-17
6536.75362 1.44204e-17
6538.22612 1.44760e-17
6539.69862 1.45152e-17
6541.16110 1.45624e-17
6542.63360 1.48294e-17
6544.10610 1.48008e-17
6545.57860 1.47722e-17
6547.04108 1.47436e-17
6548.51358 1.47149e-17
6549.98608 1.46863e-17
6551.45858 1.46577e-17
6552.92106 1.46291e-17
6554.39356 1.46005e-17
6555.86606 1.45719e-17
6557.33856 1.45433e-17
6558.80104 1.45147e-17
6560.27354 1.44861e-17
6561.74604 1.44575e-17
6563.21854 1.44289e-17
6564.68102 1.44003e-17
6566.15352 1.43717e-17
6567.62602 1.43431e-17
6569.08850 1.43146e-17
6570.56100 1.42860e-17
6572.03350 1.42574e-17
6573.50600 1.42288e-17
6574.96848 1.42002e-17
6576.44098 1.41717e-17
6577.91348 1.41431e-17
6579.38597 1.41145e-17
6580.84846 1.40860e-17
6582.32096 1.40574e-17
6583.79345 1.40288e-17
6585.26595 1.40003e-17
6586.72843 1.39717e-17
6588.20093 1.39431e-17
6589.67343 1.39146e-17
6591.14593 1.38860e-17
6592.60841 1.38575e-17
6594.08091 1.38289e-17
6595.55341 1.38004e-17
6597.02591 1.37718e-17
6598.48839 1.37433e-17
6599.96089 1.37148e-17
6601.43339 1.36862e-17
6602.90589 1.36577e-17
6604.36837 1.36291e-17
6605.84087 1.35442e-17
6607.31337 1.37481e-17
6608.78587 1.38395e-17
6610.24835 1.35477e-17
6611.72085 1.34543e-17
6613.19335 1.37078e-17
6614.66585 1.36712e-17
6616.12833 1.36091e-17
6617.60083 1.37653e-17
6619.07333 1.36916e-17
6620.54583 1.35909e-17
6622.00831 1.36530e-17
6623.48081 1.35365e-17
6624.95331 1.33196e-17
6626.42581 1.33531e-17
6627.88829 1.34696e-17
6629.36079 1.32475e-17
6630.83329 1.31367e-17
6632.30579 1.33271e-17
6633.76827 1.33135e-17
6635.24077 1.32129e-17
6636.71327 1.31645e-17
6638.18576 1.31647e-17
6639.64825 1.31545e-17
6641.12075 1.31150e-17
6642.59324 1.30372e-17
6644.06574 1.29601e-17
6645.52823 1.30550e-17
6647.00072 1.31644e-17
6648.47322 1.31225e-17
6649.94572 1.30606e-17
6651.40820 1.29016e-17
6652.88070 1.27650e-17
6654.35320 1.28806e-17
6655.82570 1.29315e-17
6657.28818 1.29024e-17
6658.76068 1.27761e-17
6660.23318 1.27484e-17
6661.70568 1.27910e-17
6663.16816 1.27070e-17
6664.64066 1.27258e-17
6666.11316 1.27479e-17
6667.57564 1.27182e-17
6669.04814 1.26764e-17
6670.52064 1.27452e-17
6671.99314 1.26663e-17
6673.45562 1.26225e-17
6674.92812 1.28653e-17
6676.40062 1.27993e-17
6677.87312 1.25754e-17
6679.33560 1.25720e-17
6680.80810 1.26309e-17
6682.28060 1.24455e-17
6683.75310 1.23190e-17
6685.21558 1.23555e-17
6686.68808 1.23933e-17
6688.16058 1.25673e-17
6689.63308 1.24726e-17
6691.09556 1.22018e-17
6692.56806 1.22019e-17
6694.04056 1.24068e-17
6695.51305 1.24484e-17
6696.97554 1.23437e-17
6698.44804 1.24102e-17
6699.92054 1.24199e-17
6701.39303 1.23882e-17
6702.85552 1.22535e-17
6704.32802 1.19450e-17
6705.80051 1.18649e-17
6707.27301 1.19808e-17
6708.73550 1.20990e-17
6710.20799 1.19132e-17
6711.68049 1.16768e-17
6713.15299 1.18382e-17
6714.61547 1.17485e-17
6716.08797 1.14620e-17
6717.56047 1.14579e-17
6719.03297 1.13534e-17
6720.49545 1.14035e-17
6721.96795 1.14897e-17
6723.44045 1.14878e-17
6724.91295 1.18276e-17
6726.37543 1.21818e-17
6727.84793 1.22762e-17
6729.32043 1.22349e-17
6730.79293 1.19889e-17
6732.25541 1.14578e-17
6733.72791 1.12216e-17
6735.20041 1.12657e-17
6736.67291 1.13917e-17
6738.13539 1.14528e-17
6739.60789 1.14676e-17
6741.08039 1.16624e-17
6742.55289 1.16851e-17
6744.01537 1.17323e-17
6745.48787 1.17829e-17
6746.96037 1.15059e-17
6748.43287 1.14160e-17
6749.89535 1.14075e-17
6751.36785 1.13622e-17
6752.84035 1.13002e-17
6754.30283 1.12868e-17
6755.77533 1.12600e-17
6757.24783 1.11971e-17
6758.72033 1.11882e-17
6760.19282 1.12729e-17
6761.65531 1.13000e-17
6763.12781 1.12847e-17
6764.60030 1.13548e-17
6766.06279 1.13864e-17
6767.53529 1.12741e-17
6769.00778 1.12594e-17
6770.48028 1.13826e-17
6771.94276 1.14328e-17
6773.41526 1.15576e-17
6774.88776 1.16562e-17
6776.36026 1.15836e-17
6777.82274 1.15320e-17
6779.29524 1.15687e-17
6780.76774 1.16102e-17
6782.24024 1.16173e-17
6783.70272 1.17359e-17
6785.17522 1.18788e-17
6786.64772 1.17890e-17
6788.12022 1.16769e-17
6789.58270 1.17230e-17
6791.05520 1.17146e-17
6792.52770 1.15555e-17
6794.00020 1.15089e-17
6795.46268 1.16482e-17
6796.93518 1.17238e-17
6798.40768 1.16758e-17
6799.88018 1.16686e-17
6801.34266 1.16029e-17
6802.81516 1.14713e-17
6804.28766 1.14480e-17
6805.76016 1.16068e-17
6807.22264 1.18098e-17
6808.69514 1.16724e-17
6810.16764 1.15133e-17
6811.64014 1.15374e-17
6813.10262 1.15080e-17
6814.57512 1.15374e-17
6816.04762 1.15278e-17
6817.52012 1.13520e-17
6818.98260 1.13393e-17
6820.45510 1.14122e-17
6821.92760 1.14490e-17
6823.40009 1.16181e-17
6824.86258 1.16033e-17
6826.33507 1.14202e-17
6827.80757 1.12302e-17
6829.28007 1.12697e-17
6830.74255 1.13560e-17
6832.21505 1.12983e-17
6833.68755 1.14298e-17
6835.16005 1.14362e-17
6836.62253 1.13016e-17
6838.09503 1.13558e-17
6839.56753 1.12854e-17
6841.04003 1.10715e-17
6842.50251 1.10174e-17
6843.97501 1.10572e-17
6845.44751 1.10520e-17
6846.92001 1.10468e-17
6848.38249 1.10416e-17
6849.85499 1.10364e-17
6851.32749 1.10312e-17
6852.79999 1.10260e-17
6854.26247 1.10208e-17
6855.73497 1.10156e-17
6857.20747 1.10104e-17
6858.66995 1.10052e-17
6860.14245 1.10000e-17
6861.61495 1.09948e-17
6863.08745 1.09896e-17
6864.54993 1.09844e-17
6866.02243 1.09792e-17
6867.49493 1.09740e-17
6868.96743 1.09688e-17
6870.42991 1.09636e-17
6871.90241 1.09584e-17
6873.37491 1.09532e-17
6874.84741 1.09480e-17
6876.30989 1.09427e-17
6877.78239 1.09375e-17
6879.25489 1.09323e-17
6880.72739 1.09272e-17
6882.18987 1.09220e-17
6883.66237 1.09168e-17
6885.13486 1.09116e-17
6886.60736 1.09064e-17
6888.06985 1.09012e-17
6889.54235 1.08960e-17
6891.01484 1.08908e-17
6892.48734 1.08856e-17
6893.94983 1.08804e-17
6895.42232 1.08752e-17
6896.89482 1.08700e-17
6898.36732 1.08648e-17
6899.82980 1.08596e-17
6901.30230 1.08544e-17
6902.77480 1.08492e-17
6904.24730 1.08440e-17
6905.70978 1.08388e-17
6907.18228 1.08336e-17
6908.65478 1.08284e-17
6910.12728 1.08232e-17
6911.58976 1.08180e-17
6913.06226 1.08128e-17
6914.53476 1.08076e-17
6916.00726 1.08025e-17
6917.46974 1.07973e-17
6918.94224 1.07921e-17
6920.41474 1.07869e-17
6921.88724 1.07817e-17
6923.34972 1.07765e-17
6924.82222 1.07713e-17
6926.29472 1.07661e-17
6927.76722 1.07609e-17
6929.22970 1.07557e-17
6930.70220 1.07505e-17
6932.17470 1.07454e-17
6933.64720 1.07402e-17
6935.10968 1.07350e-17
6936.58218 1.07085e-17
6938.05468 1.09120e-17
6939.52718 1.10616e-17
6940.98966 1.11877e-17
6942.46216 1.10942e-17
6943.93466 1.12021e-17
6945.39714 1.13455e-17
6946.86964 1.16160e-17
6948.34214 1.17508e-17
6949.81463 1.15034e-17
6951.28713 1.13519e-17
6952.74961 1.12505e-17
6954.22211 1.13509e-17
6955.69461 1.14309e-17
6957.15710 1.14140e-17
6958.62959 1.15123e-17
6960.10209 1.16553e-17
6961.57459 1.16682e-17
6963.03707 1.14400e-17
6964.50957 1.13639e-17
6965.98207 1.15176e-17
6967.45457 1.16470e-17
6968.91705 1.15466e-17
6970.38955 1.15189e-17
6971.86205 1.15297e-17
6973.33455 1.16408e-17
6974.79703 1.15740e-17
6976.26953 1.14679e-17
6977.74203 1.14160e-17
6979.21453 1.14953e-17
6980.67701 1.15169e-17
6982.14951 1.13983e-17
6983.62201 1.13411e-17
6985.09451 1.14044e-17
6986.55699 1.12759e-17
6988.02949 1.12193e-17
6989.50199 1.11360e-17
6990.97449 1.11573e-17
6992.43697 1.09496e-17
6993.90947 1.06655e-17
6995.38197 1.06500e-17
6996.85447 1.09453e-17
6998.31695 1.09698e-17
6999.78945 1.06787e-17
7001.26195 1.07993e-17
7002.73445 1.06511e-17
7004.19693 1.04802e-17
7005.66943 1.03227e-17
7007.14192 1.03021e-17
7008.61442 1.02815e-17
7010.07691 1.02610e-17
7011.54940 1.02404e-17
7013.02190 1.02198e-17
7014.49440 1.01993e-17
7015.95689 1.01787e-17
7017.42938 1.01582e-17
7018.90188 1.01578e-17
7020.37438 1.01520e-17
7021.83686 1.01247e-17
7023.30936 1.03693e-17
7024.78186 1.05763e-17
7026.25436 1.03047e-17
7027.71684 1.03106e-17
7029.18934 1.06273e-17
7030.66184 1.07568e-17
7032.13434 1.07241e-17
7033.59682 1.06406e-17
7035.06932 1.07201e-17
7036.54182 1.07130e-17
7038.01432 1.06631e-17
7039.47680 1.08427e-17
7040.94930 1.09456e-17
7042.42180 1.08348e-17
7043.89430 1.06294e-17
7045.35678 1.06891e-17
7046.82928 1.08856e-17
7048.30178 1.08456e-17
7049.76426 1.07496e-17
7051.23676 1.08200e-17
7052.70926 1.09925e-17
7054.18176 1.12045e-17
7055.64424 1.10821e-17
7057.11674 1.07916e-17
7058.58924 1.07452e-17
7060.06174 1.09141e-17
7061.52422 1.10647e-17
7062.99672 1.08638e-17
7064.46922 1.07645e-17
7065.94171 1.09443e-17
7067.40420 1.09215e-17
7068.87670 1.09352e-17
7070.34920 1.11673e-17
7071.82169 1.11195e-17
7073.28418 1.10077e-17
7074.75668 1.11733e-17
7076.22917 1.11592e-17
7077.70167 1.10366e-17
7079.16415 1.11526e-17
7080.63665 1.10932e-17
7082.10915 1.10997e-17
7083.58165 1.12150e-17
7085.04413 1.10275e-17
7086.51663 1.08883e-17
7087.98913 1.09914e-17
7089.46163 1.11626e-17
7090.92411 1.11441e-17
7092.39661 1.10295e-17
7093.86911 1.07575e-17
7095.34161 1.06444e-17
7096.80409 1.08729e-17
7098.27659 1.09563e-17
7099.74909 1.09301e-17
7101.22159 1.10285e-17
7102.68407 1.09385e-17
7104.15657 1.08534e-17
7105.62907 1.08836e-17
7107.10157 1.08783e-17
7108.56405 1.07518e-17
7110.03655 1.05924e-17
7111.50905 1.05063e-17
7112.98155 1.05247e-17
7114.44403 1.06492e-17
7115.91653 1.06309e-17
7117.38903 1.06323e-17
7118.86153 1.06002e-17
7120.32401 1.04786e-17
7121.79651 1.04888e-17
7123.26901 1.05425e-17
7124.74150 1.06326e-17
7126.20399 1.04840e-17
7127.67649 1.03138e-17
7129.14899 1.05483e-17
7130.62148 1.06970e-17
7132.08397 1.07356e-17
7133.55646 1.07208e-17
7135.02896 1.06981e-17
7136.50146 1.08445e-17
7137.96395 1.07829e-17
7139.43644 1.08135e-17
7140.90894 1.11214e-17
7142.37143 1.12389e-17
7143.84392 1.13119e-17
7145.31642 1.12787e-17
7146.78892 1.13176e-17
7148.25140 1.15122e-17
7149.72390 1.16869e-17
7151.19640 1.18421e-17
7152.66890 1.18103e-17
7154.13138 1.16932e-17
7155.60388 1.15189e-17
7157.07638 1.15896e-17
7158.54888 1.17158e-17
7160.01136 1.17622e-17
7161.48386 1.18867e-17
7162.95636 1.21211e-17
7164.42886 1.20639e-17
7165.89134 1.20146e-17
7167.36384 1.24487e-17
7168.83634 1.28597e-17
7170.30884 1.28883e-17
7171.77132 1.28070e-17
7173.24382 1.27870e-17
7174.71632 1.28344e-17
7176.18882 1.27210e-17
7177.65130 1.28600e-17
7179.12380 1.30871e-17
7180.59630 1.30892e-17
7182.06880 1.28864e-17
7183.53128 1.28203e-17
7185.00378 1.31317e-17
7186.47628 1.32472e-17
7187.94877 1.32049e-17
7189.41126 1.31128e-17
7190.88376 1.30664e-17
7192.35625 1.30275e-17
7193.82875 1.29623e-17
7195.29124 1.29080e-17
7196.76374 1.29622e-17
7198.23623 1.28982e-17
7199.70873 1.30068e-17
7201.17122 1.31116e-17
7202.64371 1.30270e-17
7204.11621 1.30018e-17
7205.58871 1.28166e-17
7207.05119 1.26158e-17
7208.52369 1.25415e-17
7209.99619 1.23953e-17
7211.46869 1.23381e-17
7212.93117 1.21345e-17
7214.40367 1.21340e-17
7215.87617 1.23010e-17
7217.34867 1.24018e-17
7218.81115 1.22222e-17
7220.28365 1.20253e-17
7221.75615 1.19547e-17
7223.22865 1.20351e-17
7224.69113 1.21320e-17
7226.16363 1.25167e-17
7227.63613 1.25514e-17
7229.09861 1.27393e-17
7230.57111 1.28911e-17
7232.04361 1.29724e-17
7233.51611 1.30488e-17
7234.98861 1.32332e-17
7236.45109 1.34022e-17
7237.92359 1.32816e-17
7239.39609 1.30883e-17
7240.85857 1.33802e-17
7242.33107 1.34827e-17
7243.80357 1.34333e-17
7245.27607 1.36325e-17
7246.73855 1.33811e-17
7248.21105 1.32485e-17
7249.68355 1.34534e-17
7251.15605 1.35066e-17
7252.61853 1.36596e-17
7254.09103 1.38926e-17
7255.56353 1.35453e-17
7257.03602 1.35695e-17
7258.49851 1.35985e-17
7259.97101 1.35481e-17
7261.44350 1.35237e-17
7262.91600 1.35604e-17
7264.37849 1.33735e-17
7265.85098 1.34654e-17
7267.32348 1.37030e-17
7268.79598 1.35261e-17
7270.25846 1.34934e-17
7271.73096 1.35299e-17
7273.20346 1.35892e-17
7274.67596 1.39425e-17
7276.13844 1.42366e-17
7277.61094 1.39826e-17
7279.08344 1.38320e-17
7280.55594 1.38648e-17
7282.01842 1.40090e-17
7283.49092 1.39928e-17
7284.96342 1.40240e-17
7286.43592 1.39929e-17
7287.89840 1.38345e-17
7289.37090 1.39834e-17
7290.84340 1.40410e-17
7292.31590 1.40295e-17
7293.77838 1.41189e-17
7295.25088 1.38895e-17
7296.72338 1.38053e-17
7298.19588 1.39044e-17
7299.65836 1.37334e-17
7301.13086 1.39400e-17
7302.60336 1.41027e-17
7304.07586 1.43884e-17
7305.53834 1.43222e-17
7307.01084 1.38956e-17
7308.48334 1.38675e-17
7309.95584 1.41011e-17
7311.41832 1.41290e-17
7312.89082 1.41301e-17
7314.36332 1.41520e-17
7315.83581 1.43663e-17
7317.29830 1.45485e-17
7318.77080 1.43853e-17
7320.24329 1.39272e-17
7321.71579 1.36623e-17
7323.17828 1.37181e-17
7324.65077 1.34422e-17
7326.12327 1.33266e-17
7327.59577 1.34420e-17
7329.05825 1.34241e-17
7330.53075 1.33941e-17
7332.00325 1.34640e-17
7333.46573 1.36310e-17
7334.93823 1.33825e-17
7336.41073 1.31766e-17
7337.88323 1.29469e-17
7339.34571 1.29718e-17
7340.81821 1.30080e-17
7342.29071 1.31124e-17
7343.76321 1.30950e-17
7345.22569 1.27461e-17
7346.69819 1.26645e-17
7348.17069 1.28549e-17
7349.64319 1.25965e-17
7351.10567 1.24502e-17
7352.57817 1.25898e-17
7354.05067 1.25884e-17
7355.52317 1.26081e-17
7356.98565 1.24701e-17
7358.45815 1.23780e-17
7359.93065 1.23013e-17
7361.40315 1.20793e-17
7362.86563 1.19773e-17
7364.33813 1.18584e-17
7365.81063 1.21541e-17
7367.28313 1.21776e-17
7368.74561 1.19265e-17
7370.21811 1.19380e-17
7371.69061 1.19293e-17
7373.16310 1.19127e-17
7374.62559 1.15926e-17
7376.09809 1.16682e-17
7377.57059 1.18411e-17
7379.04308 1.19648e-17
7380.50557 1.19547e-17
7381.97807 1.19474e-17
7383.45056 1.19454e-17
7384.92306 1.18706e-17
7386.38555 1.19327e-17
7387.85804 1.20777e-17
7389.33054 1.21872e-17
7390.80304 1.21247e-17
7392.26552 1.20448e-17
7393.73802 1.21994e-17
7395.21052 1.24149e-17
7396.68302 1.26033e-17
7398.14550 1.24951e-17
7399.61800 1.23909e-17
7401.09050 1.24393e-17
7402.56300 1.25722e-17
7404.02548 1.24033e-17
7405.49798 1.21938e-17
7406.97048 1.23750e-17
7408.44298 1.24666e-17
7409.90546 1.25555e-17
7411.37796 1.23031e-17
7412.85046 1.20929e-17
7414.32296 1.23790e-17
7414.92398 1.23790e-17
7415.78544 1.23870e-17
7416.64690 1.23956e-17
7417.50836 1.24043e-17
7418.36983 1.24103e-17
7419.23129 1.24165e-17
7420.09275 1.24177e-17
7420.95421 1.24188e-17
7421.82569 1.24164e-17
7422.68715 1.24139e-17
7423.54861 1.24139e-17
7424.41008 1.24139e-17
7425.27154 1.24200e-17
7426.13300 1.24262e-17
7426.99446 1.24371e-17
7427.85592 1.24478e-17
7428.71739 1.24607e-17
7429.57885 1.24735e-17
7430.44031 1.24820e-17
7431.31179 1.24905e-17
7432.17325 1.24901e-17
7433.03471 1.24896e-17
7433.89618 1.24850e-17
7434.75764 1.24804e-17
7435.61910 1.24770e-17
7436.48056 1.24736e-17
7437.34202 1.24726e-17
7438.20349 1.24716e-17
7439.06495 1.24736e-17
7439.92641 1.24755e-17
7440.79789 1.24801e-17
7441.65935 1.24847e-17
7442.52081 1.24907e-17
7443.38227 1.24967e-17
7444.24374 1.25039e-17
7445.10520 1.25111e-17
7445.96666 1.25200e-17
7446.82812 1.25290e-17
7447.68959 1.25345e-17
7448.55105 1.25400e-17
7449.41251 1.25332e-17
7450.28399 1.25264e-17
7451.14545 1.25096e-17
7452.00691 1.24928e-17
7452.86837 1.24772e-17
7453.72984 1.24615e-17
7454.59130 1.24513e-17
7455.45276 1.24411e-17
7456.31422 1.24315e-17
7457.17568 1.24220e-17
7458.03715 1.24109e-17
7458.89861 1.23999e-17
7459.77009 1.23871e-17
7460.63155 1.23744e-17
7461.49301 1.23626e-17
7462.35447 1.23508e-17
7463.21594 1.23512e-17
7464.07740 1.23516e-17
7464.93886 1.23706e-17
7465.80032 1.23897e-17
7466.66178 1.24181e-17
7467.52325 1.24465e-17
7468.38471 1.24738e-17
7469.25619 1.25010e-17
7470.11765 1.25169e-17
7470.97911 1.25328e-17
7471.84057 1.25289e-17
7472.70203 1.25249e-17
7473.56350 1.25111e-17
7474.42496 1.24974e-17
7475.28642 1.24879e-17
7476.14788 1.24785e-17
7477.00934 1.24740e-17
7477.87081 1.24696e-17
7478.73227 1.24665e-17
7479.60375 1.24635e-17
7480.46521 1.24588e-17
7481.32667 1.24541e-17
7482.18813 1.24439e-17
7483.04960 1.24338e-17
7483.91106 1.24198e-17
7484.77252 1.24057e-17
7485.63398 1.23933e-17
7486.49544 1.23808e-17
7487.35690 1.23707e-17
7488.21837 1.23606e-17
7489.08985 1.23489e-17
7489.95131 1.23374e-17
7490.81277 1.23229e-17
7491.67423 1.23084e-17
7492.53569 1.22930e-17
7493.39716 1.22777e-17
7494.25862 1.22626e-17
7495.12008 1.22476e-17
7495.98154 1.22333e-17
7496.84300 1.22190e-17
7497.70447 1.22052e-17
7498.57595 1.21915e-17
7499.43741 1.21759e-17
7500.29887 1.21604e-17
7501.16033 1.21412e-17
7502.02179 1.21220e-17
7502.88325 1.21014e-17
7503.74472 1.20809e-17
7504.60618 1.20608e-17
7505.46764 1.20407e-17
7506.32910 1.20159e-17
7507.19056 1.19909e-17
7508.06204 1.19559e-17
7508.92351 1.19208e-17
7509.78497 1.18765e-17
7510.64643 1.18320e-17
7511.50789 1.17804e-17
7512.36935 1.17289e-17
7513.23082 1.16804e-17
7514.09228 1.16318e-17
7514.95374 1.15996e-17
7515.81520 1.15675e-17
7516.67666 1.15469e-17
7517.54814 1.15263e-17
7518.40960 1.15020e-17
7519.27107 1.14775e-17
7520.13253 1.14430e-17
7520.99399 1.14086e-17
7521.85545 1.13653e-17
7522.71691 1.13221e-17
7523.57838 1.12735e-17
7524.43984 1.12248e-17
7525.30130 1.11779e-17
7526.16276 1.11309e-17
7527.02423 1.10885e-17
7527.89570 1.10460e-17
7528.75717 1.10023e-17
7529.61863 1.09585e-17
7530.48009 1.09094e-17
7531.34155 1.08604e-17
7532.20301 1.08072e-17
7533.06448 1.07542e-17
7533.92594 1.06975e-17
7534.78740 1.06408e-17
7535.64886 1.05766e-17
7536.52034 1.05123e-17
7537.38180 1.04386e-17
7538.24327 1.03649e-17
7539.10473 1.02904e-17
7539.96619 1.02159e-17
7540.82765 1.01496e-17
7541.68911 1.00833e-17
7542.55058 1.00260e-17
7543.41204 9.96858e-18
7544.27350 9.91865e-18
7545.13496 9.86872e-18
7545.99642 9.81849e-18
7546.86790 9.76822e-18
7547.72936 9.70793e-18
7548.59083 9.64762e-18
7549.45229 9.57724e-18
7550.31375 9.50683e-18
7551.17521 9.43120e-18
7552.03667 9.35557e-18
7552.89814 9.28001e-18
7553.75960 9.20445e-18
7554.62106 9.13477e-18
7555.48252 9.06511e-18
7556.35400 9.00260e-18
7557.21546 8.94010e-18
7558.07693 8.88092e-18
7558.93839 8.82174e-18
7559.79985 8.76262e-18
7560.66131 8.70349e-18
7561.52277 8.64279e-18
7562.38424 8.58209e-18
7563.24570 8.51715e-18
7564.10716 8.45220e-18
7564.96862 8.37720e-18
7565.84010 8.30217e-18
7566.70156 8.21704e-18
7567.56302 8.13190e-18
7568.42449 8.05298e-18
7569.28595 7.97408e-18
7570.14741 7.91496e-18
7571.00887 7.85588e-18
7571.87033 7.81856e-18
7572.73180 7.78128e-18
7573.59326 7.76355e-18
7574.45472 7.74587e-18
7575.31618 7.72302e-18
7576.18766 7.70018e-18
7577.04912 7.64511e-18
7577.91059 7.58999e-18
7578.77205 7.51752e-18
7579.63351 7.44503e-18
7580.49497 7.37889e-18
7581.35643 7.31276e-18
7582.21790 7.24918e-18
7583.07936 7.18562e-18
7583.94082 7.11357e-18
7584.81230 7.04150e-18
7585.67376 6.92105e-18
7586.53522 6.80049e-18
7587.39668 6.57622e-18
7588.25815 6.35176e-18
7589.11961 6.03464e-18
7589.98107 5.71735e-18
7590.84253 5.37350e-18
7591.70399 5.02961e-18
7592.56546 4.72197e-18
7593.42692 4.41442e-18
7594.28838 4.20196e-18
7595.15986 3.98970e-18
7596.02132 3.90186e-18
7596.88278 3.81427e-18
7597.74425 3.82257e-18
7598.60571 3.83107e-18
7599.46717 3.91493e-18
7600.32863 3.99895e-18
7601.19009 4.17396e-18
7602.05156 4.34914e-18
7602.91302 4.61573e-18
7603.77448 4.88247e-18
7604.64596 5.20615e-18
7605.50742 5.52994e-18
7606.36888 5.86957e-18
7607.23034 6.20921e-18
7608.09181 6.52293e-18
7608.95327 6.83660e-18
7609.81473 7.08262e-18
7610.67619 7.32849e-18
7611.53765 7.44828e-18
7612.39912 7.56781e-18
7613.26058 7.51432e-18
7614.13206 7.46049e-18
7614.99352 7.23630e-18
7615.85498 7.01177e-18
7616.71644 6.64334e-18
7617.57791 6.27462e-18
7618.43937 5.87195e-18
7619.30083 5.46922e-18
7620.16229 5.18055e-18
7621.02375 4.89212e-18
7621.88522 4.77355e-18
7622.74668 4.65533e-18
7623.61816 4.69510e-18
7624.47962 4.73518e-18
7625.34108 4.88238e-18
7626.20254 5.02980e-18
7627.06400 5.19090e-18
7627.92547 5.35202e-18
7628.78693 5.47503e-18
7629.64839 5.59795e-18
7630.50985 5.70251e-18
7631.37131 5.80702e-18
7632.23278 5.90590e-18
7633.10426 6.00475e-18
7633.96572 6.09743e-18
7634.82718 6.19010e-18
7635.68864 6.27659e-18
7636.55010 6.36307e-18
7637.41157 6.42634e-18
7638.27303 6.48957e-18
7639.13449 6.52102e-18
7639.99595 6.55240e-18
7640.85741 6.58193e-18
7641.71888 6.61145e-18
7642.59035 6.66870e-18
7643.45182 6.72598e-18
7644.31328 6.82359e-18
7645.17474 6.92127e-18
7646.03620 7.06462e-18
7646.89766 7.20806e-18
7647.75913 7.35848e-18
7648.62059 7.50891e-18
7649.48205 7.61761e-18
7650.34351 7.72623e-18
7651.20497 7.78283e-18
7652.06644 7.83934e-18
7652.93792 7.84927e-18
7653.79938 7.85910e-18
7654.66084 7.85976e-18
7655.52230 7.86040e-18
7656.38376 7.90957e-18
7657.24523 7.95884e-18
7658.10669 8.06585e-18
7658.96815 8.17298e-18
7659.82961 8.30611e-18
7660.69107 8.43929e-18
7661.55254 8.57159e-18
7662.42401 8.70387e-18
7663.28548 8.81089e-18
7664.14694 8.91787e-18
7665.00840 8.99815e-18
7665.86986 9.07838e-18
7666.73132 9.17828e-18
7667.59279 9.27822e-18
7668.45425 9.41927e-18
7669.31571 9.56038e-18
7670.17717 9.69860e-18
7671.03863 9.83680e-18
7671.91011 9.93676e-18
7672.77158 1.00366e-17
7673.63304 1.00918e-17
7674.49450 1.01469e-17
7675.35596 1.01598e-17
7676.21742 1.01726e-17
7677.07889 1.01955e-17
7677.94035 1.02183e-17
7678.80181 1.03034e-17
7679.66327 1.03887e-17
7680.52473 1.05052e-17
7681.38620 1.06217e-17
7682.25767 1.07209e-17
7683.11914 1.08202e-17
7683.98060 1.09019e-17
7684.84206 1.09837e-17
7685.70352 1.10617e-17
7686.56498 1.11397e-17
7687.42645 1.12173e-17
7688.28791 1.12947e-17
7689.14937 1.13728e-17
7690.01083 1.14510e-17
7690.88231 1.15222e-17
7691.74377 1.15935e-17
7692.60524 1.16429e-17
7693.46670 1.16923e-17
7694.32816 1.17234e-17
7695.18962 1.17546e-17
7696.05108 1.17905e-17
7696.91255 1.18264e-17
7697.77401 1.18759e-17
7698.63547 1.19252e-17
7699.49693 1.19764e-17
7700.35839 1.20275e-17
7701.22987 1.20707e-17
7702.09133 1.21139e-17
7702.95280 1.21432e-17
7703.81426 1.21724e-17
7704.67572 1.21839e-17
7705.53718 1.21951e-17
7706.39864 1.21895e-17
7707.26011 1.21837e-17
7708.12157 1.21660e-17
7708.98303 1.21482e-17
7709.84449 1.21390e-17
7710.71597 1.21299e-17
7711.57743 1.21477e-17
7712.43890 1.21655e-17
7713.30036 1.22057e-17
7714.16182 1.22460e-17
7715.02328 1.22988e-17
7715.88474 1.23516e-17
7716.74620 1.24006e-17
7717.60767 1.24498e-17
7718.46913 1.24776e-17
7719.33059 1.25055e-17
7720.20207 1.25109e-17
7721.06353 1.25163e-17
7721.92499 1.25056e-17
7722.78646 1.24949e-17
7723.64792 1.24792e-17
7724.50938 1.24634e-17
7725.37084 1.24572e-17
7726.23230 1.24510e-17
7727.09377 1.24591e-17
7727.95523 1.24673e-17
7728.81669 1.24849e-17
7729.67815 1.25027e-17
7730.54963 1.25288e-17
7731.41109 1.25550e-17
7732.27255 1.25952e-17
7733.13402 1.26352e-17
7733.99548 1.26829e-17
7734.85694 1.27305e-17
7735.71840 1.27599e-17
7736.57986 1.27893e-17
7737.44133 1.27859e-17
7738.30279 1.27825e-17
7739.17427 1.27567e-17
7740.03573 1.27310e-17
7740.89719 1.26966e-17
7741.75865 1.26622e-17
7742.62012 1.26397e-17
7743.48158 1.26172e-17
7744.34304 1.26232e-17
7745.20450 1.26291e-17
7746.06596 1.26524e-17
7746.92743 1.26756e-17
7747.78889 1.27004e-17
7748.65035 1.27253e-17
7749.52183 1.27463e-17
7750.38329 1.27673e-17
7751.24475 1.27804e-17
7752.10621 1.27935e-17
7752.96768 1.27988e-17
7753.82914 1.28040e-17
7754.69060 1.28043e-17
7755.55206 1.28045e-17
7756.41352 1.27963e-17
7757.27499 1.27879e-17
7758.13645 1.27643e-17
7759.00793 1.27407e-17
7759.86939 1.27085e-17
7760.73085 1.26761e-17
7761.59231 1.26516e-17
7762.45378 1.26270e-17
7763.31524 1.26140e-17
7764.17670 1.26009e-17
7765.03816 1.25909e-17
7765.89962 1.25809e-17
7766.76109 1.25674e-17
7767.62255 1.25539e-17
7768.49403 1.25319e-17
7769.35549 1.25099e-17
7770.21695 1.24792e-17
7771.07841 1.24483e-17
7771.93988 1.24191e-17
7772.80134 1.23901e-17
7773.66280 1.23703e-17
7774.52426 1.23505e-17
7775.38572 1.23360e-17
7776.24719 1.23216e-17
7777.10865 1.23093e-17
7777.98013 1.22971e-17
7778.84159 1.22887e-17
7779.70305 1.22804e-17
7780.56451 1.22778e-17
7781.42597 1.22751e-17
7782.28744 1.22777e-17
7783.14890 1.22802e-17
7784.01036 1.22869e-17
7784.87182 1.22935e-17
7785.73328 1.23034e-17
7786.59475 1.23133e-17
7787.46623 1.23253e-17
7788.32769 1.23373e-17
7789.18915 1.23480e-17
7790.05061 1.23585e-17
7790.91207 1.23639e-17
7791.77354 1.23692e-17
7792.63500 1.23673e-17
7793.49646 1.23653e-17
7794.35792 1.23554e-17
7795.21938 1.23454e-17
7796.08085 1.23322e-17
7796.94231 1.23190e-17
7797.81379 1.23109e-17
7798.67525 1.23028e-17
7799.53671 1.23063e-17
7800.39817 1.23098e-17
7801.25963 1.23290e-17
7802.12110 1.23483e-17
7802.98256 1.23800e-17
7803.84402 1.24118e-17
7804.70548 1.24400e-17
7805.56694 1.24683e-17
7806.42841 1.24814e-17
7807.29989 1.24945e-17
7808.16135 1.24938e-17
7809.02281 1.24932e-17
7809.88427 1.24809e-17
7810.74573 1.24686e-17
7811.60720 1.24472e-17
7812.46866 1.24258e-17
7813.33012 1.23992e-17
7814.19158 1.23725e-17
7815.05304 1.23455e-17
7815.91450 1.23185e-17
7816.78598 1.22956e-17
7817.64745 1.22727e-17
7818.50891 1.22594e-17
7819.37037 1.22460e-17
7820.23183 1.22466e-17
7821.09329 1.22473e-17
7821.95476 1.22519e-17
7822.81622 1.22566e-17
7823.67768 1.22504e-17
7824.53914 1.22441e-17
7825.40060 1.22251e-17
7826.27208 1.22060e-17
7827.13355 1.21788e-17
7827.99501 1.21517e-17
7828.85647 1.21200e-17
7829.71793 1.20885e-17
7830.57939 1.20564e-17
7831.44085 1.20243e-17
7832.30232 1.19941e-17
7833.16378 1.19640e-17
7834.02524 1.19358e-17
7834.88670 1.19076e-17
7835.75818 1.18840e-17
7836.61964 1.18604e-17
7837.48111 1.18487e-17
7838.34257 1.18371e-17
7839.20403 1.18393e-17
7840.06549 1.18415e-17
7840.92695 1.18493e-17
7841.78842 1.18572e-17
7842.64988 1.18634e-17
7843.51134 1.18697e-17
7844.37280 1.18711e-17
7845.23426 1.18725e-17
7846.10574 1.18672e-17
7846.96720 1.18619e-17
7847.82867 1.18525e-17
7848.69013 1.18431e-17
7849.55159 1.18330e-17
7850.41305 1.18229e-17
7851.27452 1.18143e-17
7852.13598 1.18056e-17
7852.99744 1.17998e-17
7853.85890 1.17940e-17
7854.72036 1.17923e-17
7855.59184 1.17905e-17
7856.45330 1.17933e-17
7857.31477 1.17963e-17
7858.17623 1.17993e-17
7859.03769 1.18023e-17
7859.89915 1.17984e-17
7860.76061 1.17945e-17
7861.62208 1.17841e-17
7862.48354 1.17738e-17
7863.34500 1.17627e-17
7864.20646 1.17516e-17
7865.07794 1.17368e-17
7865.93940 1.17222e-17
7866.80087 1.16940e-17
7867.66233 1.16659e-17
7868.52379 1.16233e-17
7869.38525 1.15808e-17
7870.24671 1.15319e-17
7871.10818 1.14830e-17
7871.96964 1.14391e-17
7872.83110 1.13952e-17
7873.69256 1.13746e-17
7874.56404 1.13542e-17
7875.42550 1.13643e-17
7876.28696 1.13745e-17
7877.14843 1.13945e-17
7878.00989 1.14144e-17
7878.87135 1.14251e-17
7879.73281 1.14359e-17
7880.59427 1.14315e-17
7881.45574 1.14271e-17
7882.31720 1.14045e-17
7883.17866 1.13817e-17
7884.05014 1.13488e-17
7884.91160 1.13159e-17
7885.77306 1.12828e-17
7886.63453 1.12497e-17
7887.49599 1.12155e-17
7888.35745 1.11812e-17
7889.21891 1.11436e-17
7890.08037 1.11060e-17
7890.94184 1.10671e-17
7891.80330 1.10282e-17
7892.66476 1.09903e-17
7893.52622 1.09525e-17
7894.39770 1.09256e-17
7895.25916 1.08987e-17
7896.12062 1.08963e-17
7896.98209 1.08939e-17
7897.84355 1.09083e-17
7898.70501 1.09226e-17
7899.56647 1.09310e-17
7900.42793 1.09394e-17
7901.28940 1.09320e-17
7902.15086 1.09245e-17
7903.01232 1.09037e-17
7903.88380 1.08827e-17
7904.74526 1.08548e-17
7905.60672 1.08270e-17
7906.46819 1.08066e-17
7907.32965 1.07864e-17
7908.19111 1.07793e-17
7909.05257 1.07723e-17
7909.91403 1.07622e-17
7910.77550 1.07521e-17
7911.63696 1.07293e-17
7912.49842 1.07065e-17
7913.36990 1.06826e-17
7914.23136 1.06586e-17
7915.09282 1.06433e-17
7915.95428 1.06281e-17
7916.81575 1.06221e-17
7917.67721 1.06161e-17
7918.53867 1.06182e-17
7919.40013 1.06202e-17
7920.26159 1.06159e-17
7921.12306 1.06117e-17
7921.98452 1.05867e-17
7922.85600 1.05615e-17
7923.71746 1.05245e-17
7924.57892 1.04875e-17
7925.44038 1.04541e-17
7926.30185 1.04206e-17
7927.16331 1.03999e-17
7928.02477 1.03791e-17
7928.88623 1.03770e-17
7929.74769 1.03751e-17
7930.60916 1.03880e-17
7931.47062 1.04009e-17
7932.34210 1.04182e-17
7933.20356 1.04355e-17
7934.06502 1.04479e-17
7934.92648 1.04604e-17
7935.78794 1.04604e-17
7936.64941 1.04605e-17
7937.51087 1.04442e-17
7938.37233 1.04279e-17
7939.23379 1.03961e-17
7940.09525 1.03643e-17
7940.95672 1.03217e-17
7941.81818 1.02791e-17
7942.68966 1.02364e-17
7943.55112 1.01936e-17
7944.41258 1.01589e-17
7945.27404 1.01242e-17
7946.13551 1.00992e-17
7946.99697 1.00741e-17
7947.85843 1.00586e-17
7948.71989 1.00429e-17
7949.58135 1.00339e-17
7950.44282 1.00249e-17
7951.30428 1.00184e-17
7952.17576 1.00120e-17
7953.03722 9.99942e-18
7953.89868 9.98689e-18
7954.76014 9.96085e-18
7955.62160 9.93480e-18
7956.48307 9.90612e-18
7957.34453 9.87733e-18
7958.20599 9.86010e-18
7959.06745 9.84297e-18
7959.92891 9.83827e-18
7960.79038 9.83357e-18
7961.66186 9.83837e-18
7962.52332 9.84307e-18
7963.38478 9.84982e-18
7964.24624 9.85658e-18
7965.10770 9.85452e-18
7965.96917 9.85237e-18
7966.83063 9.84767e-18
7967.69209 9.84287e-18
7968.55355 9.85335e-18
7969.41501 9.86392e-18
7970.27648 9.89378e-18
7971.14795 9.92374e-18
7972.00942 9.96398e-18
7972.87088 1.00042e-17
7973.73234 1.00427e-17
7974.59380 1.00813e-17
7975.45526 1.01005e-17
7976.31673 1.01196e-17
7977.17819 1.01120e-17
7978.03965 1.01044e-17
7978.90111 1.00843e-17
7979.76257 1.00642e-17
7980.63405 1.00443e-17
7981.49552 1.00244e-17
7982.35698 1.00076e-17
7983.21844 9.99090e-18
7984.07990 9.97935e-18
7984.94136 9.96780e-18
7985.80283 9.95722e-18
7986.66429 9.94675e-18
7987.52575 9.93275e-18
7988.38721 9.91865e-18
7989.24867 9.90298e-18
7990.11014 9.88732e-18
7990.98161 9.87234e-18
7991.84308 9.85736e-18
7992.70454 9.84767e-18
7993.56600 9.83798e-18
7994.42746 9.83886e-18
7995.28892 9.83984e-18
7996.15039 9.84081e-18
7997.01185 9.84179e-18
7997.87331 9.82613e-18
7998.73477 9.81046e-18
7999.59623 9.78018e-18
8000.46771 9.74990e-18
8001.32917 9.71767e-18
8002.19064 9.68543e-18
8003.05210 9.66080e-18
8003.91356 9.63618e-18
8004.77502 9.62730e-18
8005.63649 9.61847e-18
8006.49795 9.62326e-18
8007.35941 9.62808e-18
8008.22087 9.62986e-18
8009.08233 9.63163e-18
8009.95381 9.62495e-18
8010.81527 9.61827e-18
8011.67674 9.61909e-18
8012.53820 9.61992e-18
8013.39966 9.63600e-18
8014.26112 9.65209e-18
8015.12258 9.67219e-18
8015.98405 9.69229e-18
8016.84551 9.70571e-18
8017.70697 9.71910e-18
8018.56843 9.71495e-18
8019.43991 9.71077e-18
8020.30137 9.68238e-18
8021.16284 9.65394e-18
8022.02430 9.61931e-18
8022.88576 9.58467e-18
8023.74722 9.56368e-18
8024.60868 9.54272e-18
8025.47015 9.53478e-18
8026.33161 9.52688e-18
8027.19307 9.52671e-18
8028.05453 9.52654e-18
8028.92601 9.52758e-18
8029.78747 9.52862e-18
8030.64893 9.52328e-18
8031.51040 9.51792e-18
8032.37186 9.50697e-18
8033.23332 9.49600e-18
8034.09478 9.48473e-18
8034.95624 9.47346e-18
8035.81771 9.46526e-18
8036.67917 9.45708e-18
8037.54063 9.45400e-18
8038.41211 9.45094e-18
8039.27357 9.45373e-18
8040.13503 9.45652e-18
8040.99650 9.46427e-18
8041.85796 9.47203e-18
8042.71942 9.48216e-18
8043.58088 9.49229e-18
8044.44234 9.50026e-18
8045.30380 9.50822e-18
8046.16527 9.51058e-18
8047.02673 9.51292e-18
8047.88819 9.50808e-18
8048.75967 9.50321e-18
8049.62113 9.49200e-18
8050.48259 9.48078e-18
8051.34406 9.47150e-18
8052.20552 9.46222e-18
8053.06698 9.46105e-18
8053.92844 9.45991e-18
8054.78990 9.46215e-18
8055.65137 9.46440e-18
8056.51283 9.46415e-18
8057.37429 9.46388e-18
8058.24577 9.45406e-18
8059.10723 9.44421e-18
8059.96869 9.41882e-18
8060.83015 9.39339e-18
8061.69162 9.35731e-18
8062.55308 9.32120e-18
8063.41454 9.28276e-18
8064.27600 9.24431e-18
8065.13746 9.21295e-18
8065.99893 9.18160e-18
8066.86039 9.16657e-18
8067.73187 9.15158e-18
8068.59333 9.15342e-18
8069.45479 9.15529e-18
8070.31625 9.16904e-18
8071.17772 9.18282e-18
8072.03918 9.19862e-18
8072.90064 9.21442e-18
8073.76210 9.21820e-18
8074.62356 9.22194e-18
8075.48503 9.20850e-18
8076.34649 9.19501e-18
8077.21797 9.17107e-18
8078.07943 9.14710e-18
8078.94089 9.11685e-18
8079.80235 9.08658e-18
8080.66381 9.04922e-18
8081.52528 9.01185e-18
8082.38674 8.96799e-18
8083.24820 8.92410e-18
8084.10966 8.87557e-18
8084.97113 8.82703e-18
8085.83259 8.77602e-18
8086.70407 8.72499e-18
8087.56553 8.67473e-18
8088.42699 8.62447e-18
8089.28845 8.57800e-18
8090.14991 8.53153e-18
8091.01138 8.49159e-18
8091.87284 8.45166e-18
8092.73430 8.41971e-18
8093.59576 8.38777e-18
8094.45722 8.36319e-18
8095.31869 8.33863e-18
8096.18015 8.31945e-18
8097.05163 8.30030e-18
8097.91309 8.27584e-18
8098.77455 8.25139e-18
8099.63601 8.20900e-18
8100.49748 8.16657e-18
8101.35894 8.10225e-18
8102.22040 8.03787e-18
8103.08186 7.95242e-18
8103.94332 7.86692e-18
8104.80479 7.77070e-18
8105.67626 7.67446e-18
8106.53773 7.58425e-18
8107.39919 7.49406e-18
8108.26065 7.42033e-18
8109.12211 7.34664e-18
8109.98357 7.29294e-18
8110.84504 7.23928e-18
8111.70650 7.20090e-18
8112.56796 7.16254e-18
8113.42942 7.12302e-18
8114.29088 7.08351e-18
8115.15235 7.02956e-18
8116.02383 6.97560e-18
8116.88529 6.90157e-18
8117.74675 6.82751e-18
8118.60821 6.73234e-18
8119.46967 6.63713e-18
8120.33114 6.53455e-18
8121.19260 6.43196e-18
8122.05406 6.33294e-18
8122.91552 6.23394e-18
8123.77698 6.12624e-18
8124.63845 6.01853e-18
8125.49991 5.89079e-18
8126.37139 5.76301e-18
8127.23285 5.62132e-18
8128.09431 5.47960e-18
8128.95577 5.33291e-18
8129.81723 5.18622e-18
8130.67870 5.05171e-18
8131.54016 4.91723e-18
8132.40162 4.81336e-18
8133.26308 4.70958e-18
8134.12454 4.62644e-18
8134.99602 4.54336e-18
8135.85749 4.45873e-18
8136.71895 4.37410e-18
8137.58041 4.27955e-18
8138.44187 4.18498e-18
8139.30333 4.08021e-18
8140.16480 3.97540e-18
8141.02626 3.86306e-18
8141.88772 3.75071e-18
8142.74918 3.63707e-18
8143.61064 3.52342e-18
8144.47210 3.41467e-18
8145.34358 3.30594e-18
8146.20505 3.20703e-18
8147.06651 3.10816e-18
8147.92797 3.02258e-18
8148.78943 2.93705e-18
8149.65089 2.86590e-18
8150.51236 2.79480e-18
8151.37382 2.73632e-18
8152.23528 2.67789e-18
8153.09674 2.62437e-18
8153.95820 2.57088e-18
8154.82968 2.51609e-18
8155.69115 2.46131e-18
8156.55261 2.40585e-18
8157.41407 2.35038e-18
8158.27553 2.29613e-18
8159.13699 2.24190e-18
8159.99845 2.19348e-18
8160.85992 2.14508e-18
8161.72138 2.10703e-18
8162.58284 2.06901e-18
8163.44430 2.04270e-18
8164.31578 2.01642e-18
8165.17724 2.00162e-18
8166.03871 1.98683e-18
8166.90017 1.97648e-18
8167.76163 1.96615e-18
8168.62309 1.95170e-18
8169.48455 1.93724e-18
8170.34602 1.91156e-18
8171.20748 1.88586e-18
8172.06894 1.84219e-18
8172.93040 1.79846e-18
8173.80188 1.74833e-18
8174.66334 1.69818e-18
8175.52481 1.66651e-18
8176.38627 1.63488e-18
8177.24773 1.62722e-18
8178.10919 1.61961e-18
8178.97065 1.62151e-18
8179.83212 1.62343e-18
8180.69358 1.62389e-18
8181.55504 1.62435e-18
8182.41650 1.61645e-18
8183.28798 1.60854e-18
8184.14944 1.58976e-18
8185.01090 1.57096e-18
8185.87237 1.55063e-18
8186.73383 1.53028e-18
8187.59529 1.51506e-18
8188.45675 1.49983e-18
8189.31821 1.48457e-18
8190.17968 1.46930e-18
8191.04114 1.45039e-18
8191.90260 1.43147e-18
8192.77408 1.41331e-18
8193.63554 1.39515e-18
8194.49700 1.38218e-18
8195.35846 1.36923e-18
8196.21993 1.36544e-18
8197.08139 1.36167e-18
8197.94285 1.37006e-18
8198.80431 1.37847e-18
8199.66577 1.39185e-18
8200.52724 1.40523e-18
8201.38870 1.41353e-18
8202.25016 1.42182e-18
8203.12164 1.42310e-18
8203.98310 1.42436e-18
8204.84456 1.42024e-18
8205.70603 1.41611e-18
8206.56749 1.40742e-18
8207.42895 1.39872e-18
8208.29041 1.38617e-18
8209.15187 1.37361e-18
8210.01334 1.35922e-18
8210.87480 1.34484e-18
8211.73626 1.33128e-18
8212.60774 1.31773e-18
8213.46920 1.30612e-18
8214.33066 1.29452e-18
8215.19212 1.28466e-18
8216.05359 1.27481e-18
8216.91505 1.26358e-18
8217.77651 1.25235e-18
8218.63797 1.23108e-18
8219.49943 1.20977e-18
8220.36090 1.17512e-18
8221.22236 1.14045e-18
8222.08382 1.10130e-18
8222.95530 1.06215e-18
8223.81676 1.02842e-18
8224.67822 9.94704e-19
8225.53969 9.78805e-19
8226.40115 9.62953e-19
8227.26261 9.73849e-19
8228.12407 9.84806e-19
8228.98553 1.01415e-18
8229.84700 1.04353e-18
8230.70846 1.07972e-18
8231.57994 1.11592e-18
8232.44140 1.14768e-18
8233.30286 1.17944e-18
8234.16432 1.19631e-18
8235.02578 1.21315e-18
8235.88725 1.21860e-18
8236.74871 1.22402e-18
8237.61017 1.22678e-18
8238.47163 1.22954e-18
8239.33309 1.23570e-18
8240.19456 1.24187e-18
8241.06604 1.25649e-18
8241.92750 1.27114e-18
8242.78896 1.29127e-18
8243.65042 1.31141e-18
8244.51188 1.32789e-18
8245.37335 1.34438e-18
8246.23481 1.35274e-18
8247.09627 1.36108e-18
8247.95773 1.36182e-18
8248.81919 1.36253e-18
8249.68066 1.35747e-18
8250.54212 1.35240e-18
8251.41360 1.34561e-18
8252.27506 1.33880e-18
8253.13652 1.33406e-18
8253.99798 1.32933e-18
8254.85945 1.32895e-18
8255.72091 1.32859e-18
8256.58237 1.33387e-18
8257.44383 1.33916e-18
8258.30529 1.34920e-18
8259.16676 1.35924e-18
8260.02822 1.37211e-18
8260.89970 1.38498e-18
8261.76116 1.39711e-18
8262.62262 1.40925e-18
8263.48408 1.41715e-18
8264.34554 1.42505e-18
8265.20701 1.42556e-18
8266.06847 1.42606e-18
8266.92993 1.41712e-18
8267.79139 1.40817e-18
8268.65285 1.39453e-18
8269.52433 1.38087e-18
8270.38580 1.36913e-18
8271.24726 1.35740e-18
8272.10872 1.35200e-18
8272.97018 1.34661e-18
8273.83164 1.35098e-18
8274.69311 1.35537e-18
8275.55457 1.36608e-18
8276.41603 1.37679e-18
8277.27749 1.38611e-18
8278.13895 1.39542e-18
8279.01043 1.40020e-18
8279.87189 1.40496e-18
8280.73336 1.40594e-18
8281.59482 1.40691e-18
8282.45628 1.40643e-18
8283.31774 1.40594e-18
8284.17920 1.40888e-18
8285.04067 1.41183e-18
8285.90213 1.42004e-18
8286.76359 1.42827e-18
8287.62505 1.43734e-18
8288.48651 1.44642e-18
8289.34798 1.45401e-18
8290.21946 1.46158e-18
8291.08092 1.47121e-18
8291.94238 1.48083e-18
8292.80384 1.49451e-18
8293.66530 1.50819e-18
8294.52677 1.52235e-18
8295.38823 1.53651e-18
8296.24969 1.54785e-18
8297.11115 1.55918e-18
8297.97261 1.56557e-18
8298.83408 1.57194e-18
8299.70555 1.57211e-18
8300.56702 1.57226e-18
8301.42848 1.57371e-18
8302.28994 1.57517e-18
8303.15140 1.58681e-18
8304.01286 1.59847e-18
8304.87433 1.61688e-18
8305.73579 1.63529e-18
8306.59725 1.65305e-18
8307.45871 1.67081e-18
8308.32017 1.68344e-18
8309.18164 1.69605e-18
8310.05312 1.70026e-18
8310.91458 1.70445e-18
8311.77604 1.70374e-18
8312.63750 1.70302e-18
8313.49896 1.70589e-18
8314.36043 1.70875e-18
8315.22189 1.71996e-18
8316.08335 1.73120e-18
8316.94481 1.75171e-18
8317.80627 1.77226e-18
8318.67775 1.79965e-18
8319.53921 1.82706e-18
8320.40068 1.85371e-18
8321.26214 1.88036e-18
8322.12360 1.90081e-18
8322.98506 1.92125e-18
8323.84652 1.93542e-18
8324.70799 1.94959e-18
8325.56945 1.95821e-18
8326.43091 1.96682e-18
8327.29237 1.97200e-18
8328.16385 1.97718e-18
8329.02531 1.98158e-18
8329.88678 1.98596e-18
8330.74824 1.99107e-18
8331.60970 1.99619e-18
8332.47116 2.00353e-18
8333.33262 2.01087e-18
8334.19408 2.02411e-18
8335.05555 2.03736e-18
8335.91701 2.05957e-18
8336.77847 2.08179e-18
8337.64995 2.11058e-18
8338.51141 2.13936e-18
8339.37287 2.17061e-18
8340.23434 2.20187e-18
8341.09580 2.22996e-18
8341.95726 2.25804e-18
8342.81872 2.27687e-18
8343.68018 2.29567e-18
8344.54165 2.30538e-18
8345.40311 2.31505e-18
8346.26457 2.31990e-18
8347.12603 2.32472e-18
8347.99751 2.32819e-18
8348.85897 2.33166e-18
8349.72043 2.33635e-18
8350.58190 2.34104e-18
8351.44336 2.34998e-18
8352.30482 2.35893e-18
8353.16628 2.37530e-18
8354.02775 2.39169e-18
8354.88921 2.41587e-18
8355.75067 2.44007e-18
8356.62215 2.46811e-18
8357.48361 2.49617e-18
8358.34507 2.52414e-18
8359.20653 2.55210e-18
8360.06800 2.57655e-18
8360.92946 2.60099e-18
8361.79092 2.61987e-18
8362.65238 2.63873e-18
8363.51384 2.65560e-18
8364.37531 2.67246e-18
8365.23677 2.69081e-18
8366.10825 2.70917e-18
8366.96971 2.72671e-18
8367.83117 2.74426e-18
8368.69263 2.75859e-18
8369.55410 2.77292e-18
8370.41556 2.78637e-18
8371.27702 2.79984e-18
8372.13848 2.81564e-18
8372.99994 2.83144e-18
8373.86140 2.85133e-18
8374.72287 2.87125e-18
8375.59435 2.89637e-18
8376.45581 2.92151e-18
8377.31727 2.95163e-18
8378.17873 2.98175e-18
8379.04019 3.01570e-18
8379.90166 3.04965e-18
8380.76312 3.08557e-18
8381.62458 3.12149e-18
8382.48604 3.15720e-18
8383.34750 3.19290e-18
8384.20897 3.22659e-18
8385.07043 3.26026e-18
8385.94191 3.29026e-18
8386.80337 3.32026e-18
8387.66483 3.34756e-18
8388.52629 3.37487e-18
8389.38775 3.40479e-18
8390.24922 3.43472e-18
8391.11068 3.46874e-18
8391.97214 3.50276e-18
8392.83360 3.53404e-18
8393.69507 3.56533e-18
8394.55653 3.58896e-18
8395.41799 3.61258e-18
8396.28947 3.62844e-18
8397.15093 3.64429e-18
8398.01239 3.65435e-18
8398.87385 3.66440e-18
8399.73532 3.67979e-18
8400.59678 3.69519e-18
8401.45824 3.72605e-18
8402.31970 3.75694e-18
8403.18116 3.80000e-18
8404.04263 3.84308e-18
8404.90409 3.89213e-18
8405.77557 3.94118e-18
8406.63703 3.98935e-18
8407.49849 4.03751e-18
8408.35995 4.07770e-18
8409.22142 4.11787e-18
8410.08288 4.15012e-18
8410.94434 4.18235e-18
8411.80580 4.21027e-18
8412.66726 4.23819e-18
8413.52873 4.26429e-18
8414.39019 4.29038e-18
8415.26167 4.31668e-18
8416.12313 4.34298e-18
8416.98459 4.37163e-18
8417.84605 4.40029e-18
8418.70751 4.43306e-18
8419.56898 4.46583e-18
8420.43044 4.50339e-18
8421.29190 4.54097e-18
8422.15336 4.58317e-18
8423.01482 4.62540e-18
8423.87629 4.67001e-18
8424.74777 4.71463e-18
8425.60923 4.75548e-18
8426.47069 4.79632e-18
8427.33215 4.83089e-18
8428.19361 4.86545e-18
8429.05508 4.90072e-18
8429.91654 4.93598e-18
8430.77800 4.97762e-18
8431.63946 5.01927e-18
8432.50092 5.06789e-18
8433.36239 5.11652e-18
8434.23386 5.17122e-18
8435.09533 5.22592e-18
8435.95679 5.27760e-18
8436.81825 5.32929e-18
8437.67971 5.36902e-18
8438.54117 5.40873e-18
8439.40264 5.44173e-18
8440.26410 5.47472e-18
8441.12556 5.50949e-18
8441.98702 5.54426e-18
8442.84848 5.58330e-18
8443.70995 5.62237e-18
8444.58143 5.66627e-18
8445.44289 5.71018e-18
8446.30435 5.75940e-18
8447.16581 5.80864e-18
8448.02727 5.86305e-18
8448.88874 5.91745e-18
8449.75020 5.97535e-18
8450.61166 6.03325e-18
8451.47312 6.09218e-18
8452.33458 6.15110e-18
8453.20606 6.20824e-18
8454.06752 6.26536e-18
8454.92899 6.31727e-18
8455.79045 6.36916e-18
8456.65191 6.41658e-18
8457.51337 6.46400e-18
8458.37483 6.51430e-18
8459.23630 6.56461e-18
8460.09776 6.62090e-18
8460.95922 6.67720e-18
8461.82068 6.73316e-18
8462.69216 6.78911e-18
8463.55362 6.84024e-18
8464.41508 6.89138e-18
8465.27655 6.93804e-18
8466.13801 6.98469e-18
8466.99947 7.02876e-18
8467.86093 7.07282e-18
8468.72240 7.12364e-18
8469.58386 7.17447e-18
8470.44532 7.24032e-18
8471.30678 7.30620e-18
8472.16824 7.38196e-18
8473.03972 7.45775e-18
8473.90118 7.53599e-18
8474.76265 7.61422e-18
8475.62411 7.68930e-18
8476.48557 7.76436e-18
8477.34703 7.83085e-18
8478.20849 7.89731e-18
8479.06996 7.96163e-18
8479.93142 8.02593e-18
8480.79288 8.09977e-18
8481.65434 8.17363e-18
8482.51580 8.25437e-18
8483.38728 8.33513e-18
8484.24875 8.41188e-18
8485.11021 8.48862e-18
8485.97167 8.55653e-18
8486.83313 8.62441e-18
8487.69459 8.68334e-18
8488.55605 8.74225e-18
8489.41752 8.79532e-18
8490.27898 8.84837e-18
8491.14044 8.90342e-18
8492.00190 8.95849e-18
8492.87338 9.02065e-18
8493.73484 9.08283e-18
8494.59631 9.15070e-18
8495.45777 9.21858e-18
8496.31923 9.29292e-18
8497.18069 9.36728e-18
8498.04215 9.45638e-18
8498.90362 9.54552e-18
8499.76508 9.65252e-18
8500.62654 9.75957e-18
8501.48800 9.87019e-18
8502.35948 9.98082e-18
8503.22094 1.00811e-17
8504.08240 1.01813e-17
8504.94387 1.02684e-17
8505.80533 1.03553e-17
8506.66679 1.04285e-17
8507.52825 1.05017e-17
8508.38972 1.05662e-17
8509.25118 1.06307e-17
8510.11264 1.06935e-17
8510.98412 1.07563e-17
8511.84558 1.08201e-17
8512.70704 1.08838e-17
8513.56850 1.09499e-17
8514.42997 1.10159e-17
8515.29143 1.10840e-17
8516.15289 1.11522e-17
8517.01435 1.12216e-17
8517.87581 1.12910e-17
8518.73728 1.13617e-17
8519.59874 1.14323e-17
8520.46020 1.15044e-17
8521.33168 1.15765e-17
8522.19314 1.16532e-17
8523.05460 1.17299e-17
8523.91607 1.18171e-17
8524.77753 1.19045e-17
8525.63899 1.20042e-17
8526.50045 1.21040e-17
8527.36191 1.22127e-17
8528.22337 1.23212e-17
8529.08484 1.24330e-17
8529.94630 1.25449e-17
8530.80776 1.26505e-17
8531.67924 1.27561e-17
8532.54070 1.28481e-17
8533.40216 1.29399e-17
8534.26363 1.30152e-17
8535.12509 1.30905e-17
8535.98655 1.31499e-17
8536.84801 1.32094e-17
8537.70947 1.32645e-17
8538.57094 1.33197e-17
8539.43240 1.33826e-17
8540.30388 1.34457e-17
8541.16534 1.35246e-17
8542.02680 1.36035e-17
8542.88826 1.37032e-17
8543.74972 1.38029e-17
8544.61119 1.39168e-17
8545.47265 1.40307e-17
8546.33411 1.41482e-17
8547.19557 1.42657e-17
8548.05703 1.43689e-17
8548.91850 1.44720e-17
8549.78998 1.45408e-17
8550.65144 1.46097e-17
8551.51290 1.46460e-17
8552.37436 1.46822e-17
8553.23582 1.47010e-17
8554.09729 1.47198e-17
8554.95875 1.47414e-17
8555.82021 1.47632e-17
8556.68167 1.48117e-17
8557.54313 1.48604e-17
8558.40460 1.49469e-17
8559.27607 1.50333e-17
8560.13754 1.51509e-17
8560.99900 1.52685e-17
8561.86046 1.54044e-17
8562.72192 1.55403e-17
8563.58338 1.56734e-17
8564.44485 1.58067e-17
8565.30631 1.59179e-17
8566.16777 1.60290e-17
8567.02923 1.61055e-17
8567.89070 1.61818e-17
8568.75216 1.62175e-17
8569.62364 1.62531e-17
8570.48510 1.62580e-17
8571.34656 1.62629e-17
8572.20802 1.62516e-17
8573.06948 1.62403e-17
8573.93095 1.62288e-17
8574.79241 1.62174e-17
8575.65387 1.62212e-17
8576.51533 1.62251e-17
8577.37679 1.62604e-17
8578.23826 1.62959e-17
8579.09972 1.63750e-17
8579.97120 1.64542e-17
8580.83266 1.65617e-17
8581.69412 1.66693e-17
8582.55558 1.67796e-17
8583.41705 1.68900e-17
8584.27851 1.69825e-17
8585.13997 1.70751e-17
8586.00143 1.71331e-17
8586.86289 1.71910e-17
8587.72436 1.72121e-17
8588.58582 1.72331e-17
8589.45730 1.72267e-17
8590.31876 1.72200e-17
8591.18022 1.72004e-17
8592.04168 1.71808e-17
8592.90314 1.71677e-17
8593.76461 1.71546e-17
8594.62607 1.71589e-17
8595.48753 1.71631e-17
8596.34899 1.71805e-17
8597.21045 1.71977e-17
8598.07192 1.72253e-17
8598.94340 1.72530e-17
8599.80486 1.72937e-17
8600.66632 1.73346e-17
8601.52778 1.73872e-17
8602.38924 1.74399e-17
8603.25071 1.74961e-17
8604.11217 1.75524e-17
8604.97363 1.76029e-17
8605.83509 1.76535e-17
8606.69655 1.76860e-17
8607.56803 1.77185e-17
8608.42949 1.77230e-17
8609.29096 1.77274e-17
8610.15242 1.77067e-17
8611.01388 1.76857e-17
8611.87534 1.76468e-17
8612.73680 1.76077e-17
8613.59827 1.75586e-17
8614.45973 1.75093e-17
8615.32119 1.74584e-17
8616.18265 1.74075e-17
8617.04411 1.73708e-17
8617.91559 1.73341e-17
8618.77706 1.73290e-17
8619.63852 1.73239e-17
8620.49998 1.73514e-17
8621.36144 1.73789e-17
8622.22290 1.74295e-17
8623.08437 1.74803e-17
8623.94583 1.75406e-17
8624.80729 1.76011e-17
8625.66875 1.76540e-17
8626.53021 1.77070e-17
8627.40169 1.77423e-17
8628.26315 1.77776e-17
8629.12462 1.77950e-17
8629.98608 1.78124e-17
8630.84754 1.78115e-17
8631.70900 1.78107e-17
8632.57046 1.77891e-17
8633.43193 1.77675e-17
8634.29339 1.77282e-17
8635.15485 1.76890e-17
8636.01631 1.76443e-17
8636.88779 1.75996e-17
8637.74925 1.75624e-17
8638.61072 1.75253e-17
8639.47218 1.75104e-17
8640.33364 1.74956e-17
8641.19510 1.75133e-17
8642.05656 1.75311e-17
8642.91803 1.75727e-17
8643.77949 1.76145e-17
8644.64095 1.76670e-17
8645.50241 1.77196e-17
8646.37389 1.77694e-17
8647.23535 1.78193e-17
8648.09681 1.78528e-17
8648.95828 1.78862e-17
8649.81974 1.78982e-17
8650.68120 1.79102e-17
8651.54266 1.79010e-17
8652.40412 1.78917e-17
8653.26559 1.78598e-17
8654.12705 1.78279e-17
8654.98851 1.77723e-17
8655.85999 1.77167e-17
8656.72145 1.76471e-17
8657.58291 1.75775e-17
8658.44438 1.75106e-17
8659.30584 1.74437e-17
8660.16730 1.73910e-17
8661.02876 1.73385e-17
8661.89022 1.73051e-17
8662.75168 1.72719e-17
8663.61315 1.72605e-17
8664.47461 1.72493e-17
8665.33607 1.72592e-17
8666.20755 1.72691e-17
8667.06901 1.72955e-17
8667.93047 1.73220e-17
8668.79194 1.73568e-17
8669.65340 1.73916e-17
8670.51486 1.74236e-17
8671.37632 1.74555e-17
8672.23778 1.74654e-17
8673.09925 1.74751e-17
8673.96071 1.74487e-17
8674.82217 1.74222e-17
8675.68363 1.73637e-17
8676.55511 1.73052e-17
8677.41657 1.72241e-17
8678.27803 1.71429e-17
8679.13950 1.70550e-17
8680.00096 1.69671e-17
8680.86242 1.68899e-17
8681.72388 1.68127e-17
8682.58535 1.67531e-17
8683.44681 1.66936e-17
8684.30827 1.66540e-17
8685.16973 1.66145e-17
8686.04121 1.65973e-17
8686.90267 1.65803e-17
8687.76413 1.65859e-17
8688.62560 1.65916e-17
8689.48706 1.66155e-17
8690.34852 1.66395e-17
8691.20998 1.66748e-17
8692.07144 1.67101e-17
8692.93291 1.67448e-17
8693.79437 1.67793e-17
8694.66585 1.67980e-17
8695.52731 1.68167e-17
8696.38877 1.68103e-17
8697.25023 1.68037e-17
8698.11170 1.67704e-17
8698.97316 1.67370e-17
8699.83462 1.66806e-17
8700.69608 1.66241e-17
8701.55754 1.65566e-17
8702.41900 1.64891e-17
8703.28047 1.64211e-17
8704.15195 1.63530e-17
8705.01341 1.62845e-17
8705.87487 1.62162e-17
8706.73633 1.61503e-17
8707.59779 1.60845e-17
8708.45926 1.60350e-17
8709.32072 1.59855e-17
8710.18218 1.59631e-17
8711.04364 1.59407e-17
8711.90510 1.59458e-17
8712.76657 1.59511e-17
8713.62803 1.59798e-17
8714.49951 1.60086e-17
8715.36097 1.60401e-17
8716.22243 1.60715e-17
8717.08389 1.60817e-17
8717.94535 1.60918e-17
8718.80682 1.60711e-17
8719.66828 1.60501e-17
8720.52974 1.59948e-17
8721.39120 1.59394e-17
8722.25267 1.58630e-17
8723.11413 1.57867e-17
8723.98561 1.57131e-17
8724.84707 1.56393e-17
8725.70853 1.55772e-17
8726.56999 1.55149e-17
8727.43145 1.54616e-17
8728.29292 1.54085e-17
8729.15438 1.53644e-17
8730.01584 1.53204e-17
8730.87730 1.52867e-17
8731.73876 1.52529e-17
8732.61024 1.52327e-17
8733.47170 1.52125e-17
8734.33317 1.52151e-17
8735.19463 1.52179e-17
8736.05609 1.52406e-17
8736.91755 1.52633e-17
8737.77902 1.52792e-17
8738.64048 1.52952e-17
8739.50194 1.52817e-17
8740.36340 1.52682e-17
8741.22486 1.52128e-17
8742.08633 1.51572e-17
8742.95780 1.50567e-17
8743.81927 1.49561e-17
8744.68073 1.48394e-17
8745.54219 1.47226e-17
8746.40365 1.46212e-17
8747.26511 1.45199e-17
8748.12658 1.44486e-17
8748.98804 1.43775e-17
8749.84950 1.43452e-17
8750.71096 1.43130e-17
8751.57242 1.43106e-17
8752.44390 1.43082e-17
8753.30537 1.43182e-17
8754.16683 1.43283e-17
8755.02829 1.43412e-17
8755.88975 1.43541e-17
8756.75121 1.43637e-17
8757.61268 1.43733e-17
8758.47414 1.43656e-17
8759.33560 1.43578e-17
8760.19706 1.43157e-17
8761.05852 1.42735e-17
8761.91999 1.41943e-17
8762.79146 1.41150e-17
8763.65293 1.40077e-17
8764.51439 1.39004e-17
8765.37585 1.37801e-17
8766.23731 1.36599e-17
8767.09877 1.35479e-17
8767.96024 1.34361e-17
8768.82170 1.33462e-17
8769.68316 1.32565e-17
8770.54462 1.31871e-17
8771.40608 1.31178e-17
8772.26755 1.30658e-17
8773.13903 1.30139e-17
8774.00049 1.29770e-17
8774.86195 1.29400e-17
8775.72341 1.29132e-17
8776.58487 1.28862e-17
8777.44633 1.28651e-17
8778.30780 1.28440e-17
8779.16926 1.28225e-17
8780.03072 1.28010e-17
8780.89218 1.27603e-17
8781.76366 1.27196e-17
8782.62512 1.26430e-17
8783.48659 1.25663e-17
8784.34805 1.24618e-17
8785.20951 1.23574e-17
8786.07097 1.22400e-17
8786.93243 1.21226e-17
8787.79390 1.20035e-17
8788.65536 1.18845e-17
8789.51682 1.17747e-17
8790.37828 1.16650e-17
8791.24976 1.15642e-17
8792.11122 1.14635e-17
8792.97268 1.13639e-17
8793.83415 1.12643e-17
8794.69561 1.11709e-17
8795.55707 1.10775e-17
8796.41853 1.10047e-17
8797.28000 1.09321e-17
8798.14146 1.08769e-17
8799.00292 1.08219e-17
8799.86438 1.07653e-17
8800.72584 1.07087e-17
8801.59732 1.06350e-17
8802.45878 1.05613e-17
8803.32025 1.04599e-17
8804.18171 1.03584e-17
8805.04317 1.02279e-17
8805.90463 1.00974e-17
8806.76609 9.95664e-18
8807.62756 9.81575e-18
8808.48902 9.68179e-18
8809.35048 9.54789e-18
8810.21194 9.42907e-18
8811.08342 9.31028e-18
8811.94488 9.21210e-18
8812.80635 9.11398e-18
8813.66781 9.03428e-18
8814.52927 8.95465e-18
8815.39073 8.88822e-18
8816.25219 8.82182e-18
8817.11365 8.76215e-18
8817.97512 8.70249e-18
8818.83658 8.64229e-18
8819.70806 8.58210e-18
8820.56952 8.51257e-18
8821.43098 8.44301e-18
8822.29244 8.35647e-18
8823.15391 8.26989e-18
8824.01537 8.16540e-18
8824.87683 8.06086e-18
8825.73829 7.94118e-18
8826.59975 7.82145e-18
8827.46122 7.69759e-18
8828.32268 7.57372e-18
8829.19416 7.46157e-18
8830.05562 7.34946e-18
8830.91708 7.25711e-18
8831.77854 7.16483e-18
8832.64000 7.09287e-18
8833.50147 7.02097e-18
8834.36293 6.96682e-18
8835.22439 6.91271e-18
8836.08585 6.87004e-18
8836.94732 6.82739e-18
8837.80878 6.78876e-18
8838.67024 6.75013e-18
8839.54172 6.70793e-18
8840.40318 6.66572e-18
8841.26464 6.61433e-18
8842.12610 6.56292e-18
8842.98757 6.50160e-18
8843.84903 6.44025e-18
8844.71049 6.37018e-18
8845.57195 6.30009e-18
8846.43341 6.22537e-18
8847.29488 6.15064e-18
8848.15634 6.07653e-18
8849.02782 6.00241e-18
8849.88928 5.93172e-18
8850.75074 5.86104e-18
8851.61220 5.79643e-18
8852.47367 5.73185e-18
8853.33513 5.68707e-18
8854.19659 5.64233e-18
8855.05805 5.63102e-18
8855.91951 5.61980e-18
8856.78097 5.63113e-18
8857.64244 5.64252e-18
8858.50390 5.65734e-18
8859.36536 5.67216e-18
8860.23684 5.67469e-18
8861.09830 5.67717e-18
8861.95976 5.65314e-18
8862.82123 5.62902e-18
8863.68269 5.58379e-18
8864.54415 5.53850e-18
8865.40561 5.49288e-18
8866.26707 5.44725e-18
8867.12854 5.41091e-18
8867.99000 5.37460e-18
8868.86148 5.34510e-18
8869.72294 5.31561e-18
8870.58440 5.29189e-18
8871.44586 5.26818e-18
8872.30732 5.24931e-18
8873.16879 5.23046e-18
8874.03025 5.21749e-18
8874.89171 5.20453e-18
8875.75317 5.20545e-18
8876.61463 5.20641e-18
8877.47610 5.22445e-18
8878.34758 5.24254e-18
8879.20904 5.26773e-18
8880.07050 5.29295e-18
8880.93196 5.31482e-18
8881.79342 5.33668e-18
8882.65489 5.34550e-18
8883.51635 5.35428e-18
8884.37781 5.34297e-18
8885.23927 5.33160e-18
8886.10073 5.30668e-18
8886.96220 5.28174e-18
8887.83367 5.25348e-18
8888.69514 5.22521e-18
8889.55660 5.20309e-18
8890.41806 5.18097e-18
8891.27952 5.17356e-18
8892.14099 5.16620e-18
8893.00245 5.17836e-18
8893.86391 5.19058e-18
8894.72537 5.22424e-18
8895.58683 5.25794e-18
8896.44830 5.30517e-18
8897.30976 5.35244e-18
8898.18124 5.39973e-18
8899.04270 5.44701e-18
8899.90416 5.48279e-18
8900.76562 5.51854e-18
8901.62708 5.53318e-18
8902.48855 5.54777e-18
8903.35001 5.54277e-18
8904.21147 5.53772e-18
8905.07293 5.52907e-18
8905.93439 5.52042e-18
8906.80587 5.51865e-18
8907.66734 5.51688e-18
8908.52880 5.52093e-18
8909.39026 5.52499e-18
8910.25172 5.53488e-18
8911.11318 5.54478e-18
8911.97465 5.56247e-18
8912.83611 5.58017e-18
8913.69757 5.60646e-18
8914.55903 5.63277e-18
8915.42049 5.66954e-18
8916.29197 5.70632e-18
8917.15343 5.75311e-18
8918.01490 5.79992e-18
8918.87636 5.84470e-18
8919.73782 5.88947e-18
8920.59928 5.92019e-18
8921.46074 5.95088e-18
8922.32221 5.96412e-18
8923.18367 5.97733e-18
8924.04513 5.97275e-18
8924.90659 5.96812e-18
8925.76805 5.95989e-18
8926.63953 5.95166e-18
8927.50100 5.95916e-18
8928.36246 5.96670e-18
8929.22392 5.99066e-18
8930.08538 6.01467e-18
8930.94684 6.04634e-18
8931.80831 6.07804e-18
8932.66977 6.11108e-18
8933.53123 6.14411e-18
8934.39269 6.17238e-18
8935.25415 6.20062e-18
8936.12563 6.22701e-18
8936.98709 6.25338e-18
8937.84856 6.29172e-18
8938.71002 6.33010e-18
8939.57148 6.38103e-18
8940.43294 6.43199e-18
8941.29440 6.47673e-18
8942.15587 6.52147e-18
8943.01733 6.54625e-18
8943.87879 6.57097e-18
8944.74025 6.56961e-18
8945.61173 6.56817e-18
8946.47319 6.54289e-18
8947.33466 6.51754e-18
8948.19612 6.49732e-18
8949.05758 6.47712e-18
8949.91904 6.48548e-18
8950.78050 6.49392e-18
8951.64197 6.52355e-18
8952.50343 6.55324e-18
8953.36489 6.59231e-18
8954.22635 6.63141e-18
8955.08781 6.64911e-18
8955.95929 6.66676e-18
8956.82075 6.63278e-18
8957.68222 6.59868e-18
8958.54368 6.55073e-18
8959.40514 6.50275e-18
8960.26660 6.49635e-18
8961.12806 6.49008e-18
8961.98953 6.53318e-18
8962.85099 6.57641e-18
8963.71245 6.65848e-18
8964.57391 6.74067e-18
8965.44539 6.83511e-18
8966.30685 6.92959e-18
8967.16832 6.99616e-18
8968.02978 7.06267e-18
8968.89124 7.10576e-18
8969.75270 7.14881e-18
8970.61416 7.21245e-18
8971.47563 7.27615e-18
8972.33709 7.37557e-18
8973.19855 7.47509e-18
8974.06001 7.59145e-18
8974.93149 7.70784e-18
8975.79295 7.81384e-18
8976.65441 7.91980e-18
8977.51588 7.97370e-18
8978.37734 8.02746e-18
8979.23880 7.99676e-18
8980.10026 7.96582e-18
8980.96172 7.82958e-18
8981.82319 7.69307e-18
8982.68465 7.46475e-18
8983.54611 7.23618e-18
8984.41759 7.03857e-18
8985.27905 6.84105e-18
8986.14051 6.78744e-18
8987.00198 6.73422e-18
8987.86344 6.86348e-18
8988.72490 6.99322e-18
8989.58636 7.31118e-18
8990.44782 7.62963e-18
8991.30928 7.98455e-18
8992.17075 8.33955e-18
8993.03221 8.54874e-18
8993.89367 8.75754e-18
8994.76515 8.79361e-18
8995.62661 8.82923e-18
8996.48807 8.72559e-18
8997.34954 8.62158e-18
8998.21100 8.45992e-18
8999.07246 8.29813e-18
8999.93392 8.18996e-18
9000.79538 8.08193e-18
9001.65685 8.07585e-18
9002.51831 8.07006e-18
9003.38979 8.16307e-18
9004.25125 8.25633e-18
9005.11271 8.41600e-18
9005.97417 8.57584e-18
9006.83563 8.73860e-18
9007.69710 8.90136e-18
9008.55856 9.01764e-18
9009.42002 9.13379e-18
9010.28148 9.18061e-18
9011.14295 9.22724e-18
9012.00441 9.20563e-18
9012.87589 9.18382e-18
9013.73735 9.14839e-18
9014.59881 9.11293e-18
9015.46027 9.10421e-18
9016.32173 9.09555e-18
9017.18320 9.08879e-18
9018.04466 9.08203e-18
9018.90612 9.05880e-18
9019.76758 9.03553e-18
9020.62904 9.01713e-18
9021.49051 8.99873e-18
9022.35197 9.00728e-18
9023.22345 9.01590e-18
9024.08491 9.07921e-18
9024.94637 9.14267e-18
9025.80783 9.28298e-18
9026.66930 9.42351e-18
9027.53076 9.60708e-18
9028.39222 9.79079e-18
9029.25368 9.96662e-18
9030.11514 1.01424e-17
9030.97660 1.02750e-17
9031.83807 1.04075e-17
9032.70955 1.04706e-17
9033.57101 1.05336e-17
9034.43247 1.05249e-17
9035.29393 1.05160e-17
9036.15539 1.04488e-17
9037.01686 1.03814e-17
9037.87832 1.02903e-17
9038.73978 1.01990e-17
9039.60124 1.01369e-17
9040.46270 1.00749e-17
9041.32417 1.00559e-17
9042.18563 1.00370e-17
9043.05711 1.00224e-17
9043.91857 1.00077e-17
9044.78003 9.97710e-18
9045.64149 9.94636e-18
9046.50295 9.91189e-18
9047.36442 9.87743e-18
9048.22588 9.84982e-18
9049.08734 9.82221e-18
9049.94880 9.81849e-18
9050.81027 9.81467e-18
9051.67173 9.83935e-18
9052.54321 9.86412e-18
9053.40467 9.86676e-18
9054.26613 9.86921e-18
9055.12759 9.80557e-18
9055.98905 9.74178e-18
9056.85052 9.63547e-18
9057.71198 9.52904e-18
9058.57344 9.41207e-18
9059.43490 9.29508e-18
9060.29636 9.17144e-18
9061.16784 9.04778e-18
9062.02931 8.91904e-18
9062.89077 8.79029e-18
9063.75223 8.65177e-18
9064.61369 8.51322e-18
9065.47515 8.35461e-18
9066.33662 8.19593e-18
9067.19808 8.05761e-18
9068.05954 7.91935e-18
9068.92100 7.86839e-18
9069.78246 7.81767e-18
9070.64393 7.83924e-18
9071.51540 7.86101e-18
9072.37687 7.88002e-18
9073.23833 7.89904e-18
9074.09979 7.88780e-18
9074.96125 7.87648e-18
9075.82271 7.85594e-18
9076.68418 7.83537e-18
9077.54564 7.81866e-18
9078.40710 7.80195e-18
9079.26856 7.79664e-18
9080.13002 7.79135e-18
9080.99149 7.79714e-18
9081.86297 7.80294e-18
9082.72443 7.79380e-18
9083.58589 7.78461e-18
9084.44735 7.74598e-18
9085.30881 7.70729e-18
9086.17028 7.66788e-18
9087.03174 7.62847e-18
9087.89320 7.61035e-18
9088.75466 7.59229e-18
9089.61612 7.56729e-18
9090.48760 7.54225e-18
9091.34906 7.48332e-18
9092.21053 7.42464e-18
9093.07199 7.35968e-18
9093.93345 7.29471e-18
9094.79491 7.25783e-18
9095.65637 7.22104e-18
9096.51784 7.20257e-18
9097.37930 7.18417e-18
9098.24076 7.16377e-18
9099.10222 7.14336e-18
9099.97370 7.12629e-18
9100.83516 7.10924e-18
9101.69663 7.10640e-18
9102.55809 7.10360e-18
9103.41955 7.13585e-18
9104.28101 7.16820e-18
9105.14247 7.26541e-18
9106.00393 7.36280e-18
9106.86540 7.48955e-18
9107.72686 7.61638e-18
9108.58832 7.68181e-18
9109.45980 7.74706e-18
9110.32126 7.71244e-18
9111.18272 7.67755e-18
9112.04419 7.56543e-18
9112.90565 7.45309e-18
9113.76711 7.30979e-18
9114.62857 7.16641e-18
9115.49003 7.08703e-18
9116.35150 7.00783e-18
9117.21296 7.04191e-18
9118.07442 7.07630e-18
9118.93588 7.15049e-18
9119.80736 7.22479e-18
9120.66882 7.26744e-18
9121.53028 7.31001e-18
9122.39175 7.27527e-18
9123.25321 7.24030e-18
9124.11467 7.10060e-18
9124.97613 6.96062e-18
9125.83760 6.78057e-18
9126.69906 6.60043e-18
9127.56052 6.45869e-18
9128.43200 6.31706e-18
9129.29346 6.25425e-18
9130.15492 6.19167e-18
9131.01638 6.23398e-18
9131.87785 6.27658e-18
9132.73931 6.40635e-18
9133.60077 6.53637e-18
9134.46223 6.71371e-18
9135.32369 6.89117e-18
9136.18516 7.07455e-18
9137.04662 7.25795e-18
9137.90808 7.40450e-18
9138.76954 7.55095e-18
9139.64102 7.63310e-18
9140.50248 7.71506e-18
9141.36395 7.72349e-18
9142.22541 7.73173e-18
9143.08687 7.65247e-18
9143.94833 7.57298e-18
9144.80979 7.38596e-18
9145.67125 7.19865e-18
9146.53272 6.92808e-18
9147.39418 6.65730e-18
9148.26566 6.38493e-18
9149.12712 6.11256e-18
9149.98858 5.91253e-18
9150.85004 5.71269e-18
9151.71151 5.64499e-18
9152.57297 5.57766e-18
9153.43443 5.66570e-18
9154.29589 5.75416e-18
9155.15735 5.92099e-18
9156.01882 6.08802e-18
9156.88028 6.25235e-18
9157.75176 6.41666e-18
9158.61322 6.54047e-18
9159.47468 6.66416e-18
9160.33614 6.71810e-18
9161.19760 6.77183e-18
9162.05907 6.75784e-18
9162.92053 6.74365e-18
9163.78199 6.67769e-18
9164.64345 6.61160e-18
9165.50492 6.49147e-18
9166.36638 6.37118e-18
9167.22784 6.19403e-18
9168.09932 6.01674e-18
9168.96078 5.82653e-18
9169.82224 5.63629e-18
9170.68370 5.49251e-18
9171.54517 5.34888e-18
9172.40663 5.28128e-18
9173.26809 5.21388e-18
9174.12955 5.23539e-18
9174.99101 5.25714e-18
9175.85248 5.33120e-18
9176.71394 5.40539e-18
9177.58542 5.44888e-18
9178.44688 5.49228e-18
9179.30834 5.48102e-18
9180.16980 5.46961e-18
9181.03127 5.45815e-18
9181.89273 5.44670e-18
9182.75419 5.46504e-18
9183.61565 5.48348e-18
9184.47711 5.52094e-18
9185.33857 5.55844e-18
9186.20004 5.60209e-18
9187.07152 5.64575e-18
9187.93298 5.66428e-18
9188.79444 5.68274e-18
9189.65590 5.65879e-18
9190.51736 5.63470e-18
9191.37883 5.61664e-18
9192.24029 5.59859e-18
9193.10175 5.62948e-18
9193.96321 5.66051e-18
9194.82467 5.72122e-18
9195.68614 5.78200e-18
9196.55762 5.84520e-18
9197.41908 5.90840e-18
9198.28054 5.94938e-18
9199.14200 5.99030e-18
9200.00346 5.98534e-18
9200.86492 5.98026e-18
9201.72639 5.94684e-18
9202.58785 5.91334e-18
9203.44931 5.88587e-18
9204.31077 5.85841e-18
9205.17224 5.83788e-18
9206.04371 5.81736e-18
9206.90518 5.78867e-18
9207.76664 5.75994e-18
9208.62810 5.72788e-18
9209.48956 5.69580e-18
9210.35102 5.67654e-18
9211.21249 5.65730e-18
9212.07395 5.66705e-18
9212.93541 5.67689e-18
9213.79687 5.73426e-18
9214.65833 5.79176e-18
9215.52981 5.89303e-18
9216.39127 5.99443e-18
9217.25274 6.10113e-18
9218.11420 6.20784e-18
9218.97566 6.29497e-18
9219.83712 6.38204e-18
9220.69859 6.45757e-18
9221.56005 6.53308e-18
9222.42151 6.60150e-18
9223.28297 6.66991e-18
9224.14443 6.72361e-18
9225.00590 6.77727e-18
9225.87737 6.81091e-18
9226.73884 6.84450e-18
9227.60030 6.85250e-18
9228.46176 6.86043e-18
9229.32322 6.84064e-18
9230.18468 6.82078e-18
9231.04615 6.79576e-18
9231.90761 6.77072e-18
9232.76907 6.76653e-18
9233.63053 6.76239e-18
9234.49199 6.77331e-18
9235.35346 6.78425e-18
9236.22494 6.79560e-18
9237.08640 6.80695e-18
9237.94786 6.82541e-18
9238.80932 6.84390e-18
9239.67078 6.88326e-18
9240.53225 6.92268e-18
9241.39371 6.98955e-18
9242.25517 7.05650e-18
9243.11663 7.15356e-18
9243.97809 7.25071e-18
9244.84957 7.36952e-18
9245.71103 7.48838e-18
9246.57250 7.60964e-18
9247.43396 7.73091e-18
9248.29542 7.84360e-18
9249.15688 7.95627e-18
9250.01834 8.06268e-18
9250.87981 8.16907e-18
9251.74127 8.26381e-18
9252.60273 8.35851e-18
9253.46419 8.41888e-18
9254.32565 8.47915e-18
9255.19713 8.50144e-18
9256.05860 8.52360e-18
9256.92006 8.55194e-18
9257.78152 8.58029e-18
9258.64298 8.64789e-18
9259.50444 8.71559e-18
9260.36591 8.81242e-18
9261.22737 8.90933e-18
9262.08883 9.01753e-18
9262.95029 9.12576e-18
9263.81175 9.20627e-18
9264.68323 9.28670e-18
9265.54469 9.30214e-18
9266.40616 9.31741e-18
9267.26762 9.26883e-18
9268.12908 9.22007e-18
9268.99054 9.12286e-18
9269.85200 9.02552e-18
9270.71347 8.91588e-18
9271.57493 8.80620e-18
9272.43639 8.72726e-18
9273.29785 8.64841e-18
9274.16933 8.63422e-18
9275.03079 8.62021e-18
9275.89226 8.69570e-18
9276.75372 8.77144e-18
9277.61518 8.92390e-18
9278.47664 9.07657e-18
9279.33810 9.26402e-18
9280.19957 9.45155e-18
9281.06103 9.62867e-18
9281.92249 9.80577e-18
9282.79397 9.92883e-18
9283.65543 1.00518e-17
9284.51689 1.00861e-17
9285.37835 1.01200e-17
9286.23982 1.00448e-17
9287.10128 9.96936e-18
9287.96274 9.79382e-18
9288.82420 9.61790e-18
9289.68566 9.39762e-18
9290.54713 9.17723e-18
9291.40859 8.97696e-18
9292.27005 8.77675e-18
9293.14153 8.68172e-18
9294.00299 8.58697e-18
9294.86445 8.65279e-18
9295.72592 8.71906e-18
9296.58738 8.88843e-18
9297.44884 9.05808e-18
9298.31030 9.25493e-18
9299.17176 9.45184e-18
9300.03323 9.57248e-18
9300.89469 9.69289e-18
9301.75615 9.63788e-18
9302.62763 9.58236e-18
9303.48909 9.44719e-18
9304.35055 9.31181e-18
9305.21201 9.25269e-18
9306.07348 9.19379e-18
9306.93494 9.17433e-18
9307.79640 9.15496e-18
9308.65786 9.06182e-18
9309.51932 8.96847e-18
9310.38079 8.80691e-18
9311.24225 8.64517e-18
9312.11373 8.48206e-18
9312.97519 8.31896e-18
9313.83665 8.21988e-18
9314.69811 8.12098e-18
9315.55958 8.16046e-18
9316.42104 8.20035e-18
9317.28250 8.36390e-18
9318.14396 8.52780e-18
9319.00542 8.67206e-18
9319.86688 8.81624e-18
9320.72835 8.88492e-18
9321.58981 8.95340e-18
9322.46129 9.07863e-18
9323.32275 9.20402e-18
9324.18421 9.41471e-18
9325.04567 9.62564e-18
9325.90714 9.65162e-18
9326.76860 9.67708e-18
9327.63006 9.35179e-18
9328.49152 9.02550e-18
9329.35298 8.61044e-18
9330.21445 8.19513e-18
9331.07591 7.94349e-18
9331.94739 7.69232e-18
9332.80885 7.55526e-18
9333.67031 7.41855e-18
9334.53177 7.32296e-18
9335.39323 7.22748e-18
9336.25470 7.17499e-18
9337.11616 7.12263e-18
9337.97762 7.10071e-18
9338.83908 7.07889e-18
9339.70055 7.31048e-18
9340.56201 7.54279e-18
9341.43349 8.32985e-18
9342.29495 9.11847e-18
9343.15641 1.00742e-17
9344.01787 1.10304e-17
9344.87933 1.14432e-17
9345.74080 1.18544e-17
9346.60226 1.15121e-17
9347.46372 1.11676e-17
9348.32518 1.01913e-17
9349.18664 9.21325e-18
9350.04811 8.05193e-18
9350.90957 6.89010e-18
9351.78105 6.37176e-18
9352.64251 5.85528e-18
9353.50397 6.25161e-18
9354.36543 6.65053e-18
9355.22689 7.36253e-18
9356.08836 8.07539e-18
9356.94982 8.59942e-18
9357.81128 9.12289e-18
9358.67274 9.15854e-18
9359.53420 9.19279e-18
9360.39567 8.61018e-18
9361.26715 8.02581e-18
9362.12861 7.29683e-18
9362.99007 6.56746e-18
9363.85153 6.13750e-18
9364.71299 5.70841e-18
9365.57446 5.60313e-18
9366.43592 5.49878e-18
9367.29738 5.67525e-18
9368.15884 5.85252e-18
9369.02030 6.08949e-18
9369.89178 6.32662e-18
9370.75324 6.37066e-18
9371.61471 6.41415e-18
9372.47617 6.28082e-18
9373.33763 6.14698e-18
9374.19909 5.93095e-18
9375.06056 5.71469e-18
9375.92202 5.56075e-18
9376.78348 5.40699e-18
9377.64494 5.49202e-18
9378.50640 5.57771e-18
9379.37788 5.83461e-18
9380.23934 6.09201e-18
9381.10081 6.29307e-18
9381.96227 6.49396e-18
9382.82373 6.56664e-18
9383.68519 6.63894e-18
9384.54665 6.64870e-18
9385.40812 6.65828e-18
9386.26958 6.62325e-18
9387.13104 6.58808e-18
9387.99250 6.47759e-18
9388.85396 6.36686e-18
9389.72544 6.17917e-18
9390.58691 5.99125e-18
9391.44837 5.75468e-18
9392.30983 5.51798e-18
9393.17129 5.27134e-18
9394.03275 5.02468e-18
9394.89422 4.83685e-18
9395.75568 4.64919e-18
9396.61714 4.56679e-18
9397.47860 4.48470e-18
9398.34006 4.47318e-18
9399.21154 4.46186e-18
9400.07300 4.47778e-18
9400.93447 4.49378e-18
9401.79593 4.49539e-18
9402.65739 4.49696e-18
9403.51885 4.44773e-18
9404.38031 4.39836e-18
9405.24178 4.33934e-18
9406.10324 4.28031e-18
9406.96470 4.26916e-18
9407.82616 4.25815e-18
9408.69764 4.29550e-18
9409.55910 4.33300e-18
9410.42057 4.39880e-18
9411.28203 4.46468e-18
9412.14349 4.52780e-18
9413.00495 4.59091e-18
9413.86641 4.61442e-18
9414.72788 4.63780e-18
9415.58934 4.59708e-18
9416.45080 4.55616e-18
9417.31226 4.44361e-18
9418.17372 4.33084e-18
9419.04520 4.15433e-18
9419.90666 3.97763e-18
9420.76813 3.74895e-18
9421.62959 3.52011e-18
9422.49105 3.32110e-18
9423.35251 3.12218e-18
9424.21397 3.14817e-18
9425.07544 3.17482e-18
9425.93690 3.48854e-18
9426.79836 3.80308e-18
9427.65982 4.19973e-18
9428.53130 4.59660e-18
9429.39276 4.87874e-18
9430.25423 5.16054e-18
9431.11569 5.14539e-18
9431.97715 5.12940e-18
9432.83861 4.72438e-18
9433.70007 4.31825e-18
9434.56153 3.84451e-18
9435.42300 3.37059e-18
9436.28446 3.16404e-18
9437.14592 2.95829e-18
9438.01740 3.07185e-18
9438.87886 3.18635e-18
9439.74032 3.59829e-18
9440.60179 4.01108e-18
9441.46325 4.51216e-18
9442.32471 5.01350e-18
9443.18617 5.33446e-18
9444.04763 5.65489e-18
9444.90910 5.71870e-18
9445.77056 5.78177e-18
9446.63202 5.60524e-18
9447.49348 5.42802e-18
9448.36496 5.10646e-18
9449.22642 4.78449e-18
9450.08788 4.47119e-18
9450.94935 4.15792e-18
9451.81081 3.95279e-18
9452.67227 3.74799e-18
9453.53373 3.68996e-18
9454.39520 3.63236e-18
9455.25666 3.73116e-18
9456.11812 3.83041e-18
9456.98960 4.06207e-18
9457.85106 4.29409e-18
9458.71252 4.58924e-18
9459.57398 4.88456e-18
9460.43545 5.10325e-18
9461.29691 5.32171e-18
9462.15837 5.37960e-18
9463.01983 5.43703e-18
9463.88129 5.40001e-18
9464.74276 5.36273e-18
9465.60422 5.29969e-18
9466.47570 5.23658e-18
9467.33716 5.18983e-18
9468.19862 5.14313e-18
9469.06008 5.14667e-18
9469.92155 5.15035e-18
9470.78301 5.15204e-18
9471.64447 5.15372e-18
9472.50593 5.09805e-18
9473.36739 5.04221e-18
9474.22885 4.96393e-18
9475.09032 4.88558e-18
9475.96180 4.83198e-18
9476.82326 4.77845e-18
9477.68472 4.84756e-18
9478.54618 4.91702e-18
9479.40764 5.21937e-18
9480.26911 5.52239e-18
9481.13057 5.93794e-18
9481.99203 6.35382e-18
9482.85349 6.65040e-18
9483.71495 6.94661e-18
9484.57642 7.00182e-18
9485.43788 7.05631e-18
9486.30936 6.82730e-18
9487.17082 6.59746e-18
9488.03228 6.17748e-18
9488.89374 5.75696e-18
9489.75520 5.39161e-18
9490.61667 5.02644e-18
9491.47813 4.87278e-18
9492.33959 4.71974e-18
9493.20105 4.77488e-18
9494.06252 4.83064e-18
9494.92398 5.09381e-18
9495.79546 5.35757e-18
9496.65692 5.86228e-18
9497.51838 6.36769e-18
9498.37984 7.06074e-18
9499.24130 7.75432e-18
9500.10277 8.36452e-18
9500.96423 8.97445e-18
9501.82569 9.26722e-18
9502.68715 9.55905e-18
9503.54861 9.49731e-18
9504.41008 9.43452e-18
9505.28155 9.04220e-18
9506.14302 8.64893e-18
9507.00448 8.12983e-18
9507.86594 7.61037e-18
9508.72740 7.20687e-18
9509.58887 6.80372e-18
9510.45033 6.53957e-18
9511.31179 6.27583e-18
9512.17325 6.10314e-18
9513.03471 5.93071e-18
9513.89617 5.89663e-18
9514.75764 5.86295e-18
9515.62912 6.03498e-18
9516.49058 6.20760e-18
9517.35204 6.56605e-18
9518.21350 6.92504e-18
9519.07496 7.40373e-18
9519.93643 7.88277e-18
9520.79789 8.36516e-18
9521.65935 8.84757e-18
9522.52081 9.17318e-18
9523.38227 9.49833e-18
9524.24374 9.61310e-18
9525.11522 9.72725e-18
9525.97668 9.71550e-18
9526.83814 9.70339e-18
9527.69960 9.64289e-18
9528.56106 9.58226e-18
9529.42252 9.53445e-18
9530.28399 9.48669e-18
9531.14545 9.48603e-18
9532.00691 9.48551e-18
9532.86837 9.47742e-18
9533.72984 9.46931e-18
9534.60131 9.40773e-18
9535.46278 9.34598e-18
9536.32424 9.21695e-18
9537.18570 9.08771e-18
9538.04716 8.89863e-18
9538.90862 8.70937e-18
9539.77009 8.63280e-18
9540.63155 8.55656e-18
9541.49301 8.75537e-18
9542.35447 8.95499e-18
9543.21593 9.31251e-18
9544.08741 9.67048e-18
9544.94888 1.00130e-17
9545.81034 1.03555e-17
9546.67180 1.05136e-17
9547.53326 1.06711e-17
9548.39472 1.04710e-17
9549.25619 1.02699e-17
9550.11765 9.91317e-18
9550.97911 9.55596e-18
9551.84057 9.44833e-18
9552.70203 9.34144e-18
9553.57351 9.51052e-18
9554.43497 9.68041e-18
9555.29644 9.88634e-18
9556.15790 1.00923e-17
9557.01936 1.01735e-17
9557.88082 1.02543e-17
9558.74228 1.01030e-17
9559.60375 9.95115e-18
9560.46521 9.63425e-18
9561.32667 9.31692e-18
9562.18813 9.20073e-18
9563.05961 9.08516e-18
9563.92107 9.35868e-18
9564.78254 9.63335e-18
9565.64400 1.01020e-17
9566.50546 1.05713e-17
9567.36692 1.10258e-17
9568.22838 1.14801e-17
9569.08985 1.16706e-17
9569.95131 1.18603e-17
9570.81277 1.16148e-17
9571.67423 1.13679e-17
9572.53569 1.09028e-17
9573.40717 1.04371e-17
9574.26863 1.00094e-17
9575.13010 9.58195e-18
9575.99156 9.36370e-18
9576.85302 9.14609e-18
9577.71448 9.27298e-18
9578.57594 9.40088e-18
9579.43741 9.65955e-18
9580.29887 9.91855e-18
9581.16033 9.99736e-18
9582.02179 1.00757e-17
9582.89327 9.93343e-18
9583.75473 9.79059e-18
9584.61620 9.48842e-18
9585.47766 9.18573e-18
9586.33912 8.94154e-18
9587.20058 8.69751e-18
9588.06204 8.84310e-18
9588.92351 8.98984e-18
9589.78497 9.48368e-18
9590.64643 9.97857e-18
9591.51791 1.04400e-17
9592.37937 1.09014e-17
9593.24083 1.11252e-17
9594.10229 1.13485e-17
9594.96376 1.13543e-17
9595.82522 1.13596e-17
9596.68668 1.11889e-17
9597.54814 1.10176e-17
9598.40960 1.07665e-17
9599.27107 1.05153e-17
9600.13253 1.02901e-17
9600.99399 1.00649e-17
9601.86547 9.94969e-18
9602.72693 9.83474e-18
9603.58839 9.88428e-18
9604.44986 9.93441e-18
9605.31132 1.01396e-17
9606.17278 1.03453e-17
9607.03424 1.06600e-17
9607.89570 1.09748e-17
9608.75717 1.11989e-17
9609.61863 1.14226e-17
9610.48009 1.13630e-17
9611.35157 1.13026e-17
9612.21303 1.10413e-17
9613.07449 1.07795e-17
9613.93595 1.04707e-17
9614.79742 1.01617e-17
9615.65888 9.91268e-18
9616.52034 9.66373e-18
9617.38180 9.56377e-18
9618.24326 9.46427e-18
9619.10473 9.53642e-18
9619.96619 9.60907e-18
9620.82765 9.82848e-18
9621.69913 1.00484e-17
9622.56059 1.03359e-17
9623.42205 1.06237e-17
9624.28352 1.08692e-17
9625.14498 1.11147e-17
9626.00644 1.12132e-17
9626.86790 1.13113e-17
9627.72936 1.11646e-17
9628.59083 1.10171e-17
9629.45229 1.06539e-17
9630.31375 1.02901e-17
9631.17521 9.92540e-18
9632.04669 9.56065e-18
9632.90815 9.36130e-18
9633.76961 9.16243e-18
9634.63108 9.19337e-18
9635.49254 9.22500e-18
9636.35400 9.47938e-18
9637.21546 9.73441e-18
9638.07692 9.97093e-18
9638.93839 1.02074e-17
9639.79985 1.02266e-17
9640.67133 1.02451e-17
9641.53279 1.01714e-17
9642.39425 1.00975e-17
9643.25571 1.00766e-17
9644.11718 1.00558e-17
9644.97864 1.01227e-17
9645.84010 1.01899e-17
9646.70156 1.03589e-17
9647.56302 1.05282e-17
9648.42448 1.06864e-17
9649.28595 1.08445e-17
9650.15743 1.08449e-17
9651.01889 1.08447e-17
9651.88035 1.06867e-17
9652.74181 1.05282e-17
9653.60327 1.02778e-17
9654.46474 1.00269e-17
9655.32620 9.77459e-18
9656.18766 9.52221e-18
9657.04912 9.37253e-18
9657.91058 9.22315e-18
9658.77205 9.23452e-18
9659.64352 9.24639e-18
9660.50499 9.43312e-18
9661.36645 9.62038e-18
9662.22791 9.92335e-18
9663.08937 1.02267e-17
9663.95083 1.04915e-17
9664.81230 1.07562e-17
9665.67376 1.08936e-17
9666.53522 1.10307e-17
9667.39668 1.10878e-17
9668.25815 1.11448e-17
9669.11961 1.11489e-17
9669.99109 1.11528e-17
9670.85255 1.10582e-17
9671.71401 1.09631e-17
9672.57547 1.07571e-17
9673.43693 1.05507e-17
9674.29840 1.03176e-17
9675.15986 1.00843e-17
9676.02132 9.90808e-18
9676.88278 9.73205e-18
9677.74424 9.67139e-18
9678.61572 9.61107e-18
9679.47718 9.70483e-18
9680.33865 9.79901e-18
9681.20011 9.96995e-18
9682.06157 1.01410e-17
9682.92303 1.02815e-17
9683.78449 1.04219e-17
9684.64596 1.05001e-17
9685.50742 1.05780e-17
9686.36888 1.05896e-17
9687.23034 1.06009e-17
9688.10182 1.05570e-17
9688.96328 1.05129e-17
9689.82475 1.04407e-17
9690.68621 1.03683e-17
9691.54767 1.02727e-17
9692.40913 1.01769e-17
9693.27059 1.00435e-17
9694.13206 9.90984e-18
9694.99352 9.75825e-18
9695.85498 9.60661e-18
9696.71644 9.49075e-18
9697.57790 9.37499e-18
9698.44938 9.32162e-18
9699.31084 9.26843e-18
9700.17231 9.26739e-18
9701.03377 9.26650e-18
9701.89523 9.29576e-18
9702.75669 9.32511e-18
9703.61816 9.33569e-18
9704.47962 9.34622e-18
9705.34108 9.30650e-18
9706.20254 9.26663e-18
9707.06400 9.20712e-18
9707.93548 9.14754e-18
9708.79694 9.09985e-18
9709.65841 9.05221e-18
9710.51987 9.03360e-18
9711.38133 9.01508e-18
9712.24279 9.03679e-18
9713.10425 9.05862e-18
9713.96572 9.09064e-18
9714.82718 9.12267e-18
9715.68864 9.12884e-18
9716.55010 9.13494e-18
9717.41156 9.10491e-18
9718.28304 9.07479e-18
9719.14451 9.00441e-18
9720.00597 8.93391e-18
9720.86743 8.86084e-18
9721.72889 8.78775e-18
9722.59035 8.76986e-18
9723.45182 8.75214e-18
9724.31328 8.76403e-18
9725.17474 8.77601e-18
9726.03620 8.74213e-18
9726.89766 8.70809e-18
9727.76914 8.60168e-18
9728.63060 8.49505e-18
9729.49207 8.33016e-18
9730.35353 8.16509e-18
9731.21499 7.97690e-18
9732.07645 7.78864e-18
9732.93791 7.64184e-18
9733.79938 7.49518e-18
9734.66084 7.43009e-18
9735.52230 7.36525e-18
9736.38376 7.37403e-18
9737.25524 7.38303e-18
9738.11670 7.44754e-18
9738.97817 7.51222e-18
9739.83963 7.59675e-18
9740.70109 7.68135e-18
9741.56255 7.75060e-18
9742.42401 7.81982e-18
9743.28548 7.85510e-18
9744.14694 7.89027e-18
9745.00840 7.88047e-18
9745.86986 7.87055e-18
9746.74134 7.83072e-18
9747.60280 7.79081e-18
9748.46426 7.74161e-18
9749.32573 7.69237e-18
9750.18719 7.63869e-18
9751.04865 7.58499e-18
9751.91011 7.52942e-18
9752.77157 7.47384e-18
9753.63304 7.41455e-18
9754.49450 7.35524e-18
9755.35596 7.28839e-18
9756.22744 7.22152e-18
9757.08890 7.16102e-18
9757.95036 7.10053e-18
9758.81183 7.06694e-18
9759.67329 7.03343e-18
9760.53475 7.04264e-18
9761.39621 7.05198e-18
9762.25767 7.11764e-18
9763.11913 7.18347e-18
9763.98060 7.28490e-18
9764.84206 7.38643e-18
9765.71354 7.46542e-18
9766.57500 7.54434e-18
9767.43646 7.57234e-18
9768.29792 7.60018e-18
9769.15939 7.59591e-18
9770.02085 7.59154e-18
9770.88231 7.57094e-18
9771.74377 7.55029e-18
9772.60523 7.52133e-18
9773.46670 7.49235e-18
9774.32816 7.46514e-18
9775.19964 7.43792e-18
9776.06110 7.42046e-18
9776.92256 7.40301e-18
9777.78402 7.40061e-18
9778.64548 7.39826e-18
9779.50695 7.41775e-18
9780.36841 7.43730e-18
9781.22987 7.48054e-18
9782.09133 7.52387e-18
9782.95280 7.55344e-18
9783.81426 7.58297e-18
9784.68574 7.55818e-18
9785.54720 7.53322e-18
9786.40866 7.47378e-18
9787.27012 7.41424e-18
9788.13158 7.35723e-18
9788.99305 7.30023e-18
9789.85451 7.25871e-18
9790.71597 7.21723e-18
9791.57743 7.19663e-18
9792.43889 7.17608e-18
9793.30036 7.16249e-18
9794.16182 7.14892e-18
9795.03330 7.11312e-18
9795.89476 7.07724e-18
9796.75622 7.02775e-18
9797.61768 6.97823e-18
9798.47915 6.95776e-18
9799.34061 6.93738e-18
9800.20207 6.96019e-18
9801.06353 6.98314e-18
9801.92499 7.02900e-18
9802.78645 7.07492e-18
9803.64792 7.12340e-18
9804.51940 7.17187e-18
9805.38086 7.19899e-18
9806.24232 7.22604e-18
9807.10378 7.22018e-18
9807.96524 7.21421e-18
9808.82671 7.19837e-18
9809.68817 7.18249e-18
9810.54963 7.17856e-18
9811.41109 7.17465e-18
9812.27255 7.19645e-18
9813.13402 7.21833e-18
9813.99548 7.27230e-18
9814.86696 7.32637e-18
9815.72842 7.37410e-18
9816.58988 7.42181e-18
9817.45134 7.42250e-18
9818.31280 7.42306e-18
9819.17427 7.38215e-18
9820.03573 7.34112e-18
9820.89719 7.27576e-18
9821.75865 7.21034e-18
9822.62012 7.14573e-18
9823.48158 7.08113e-18
9824.35306 7.04662e-18
9825.21452 7.01220e-18
9826.07598 7.00351e-18
9826.93744 6.99491e-18
9827.79890 6.98828e-18
9828.66037 6.98166e-18
9829.52183 6.97122e-18
9830.38329 6.96078e-18
9831.24475 6.95357e-18
9832.10621 6.94637e-18
9832.97769 6.94077e-18
9833.83915 6.93517e-18
9834.70062 6.92195e-18
9835.56208 6.90870e-18
9836.42354 6.88360e-18
9837.28500 6.85845e-18
9838.14647 6.82396e-18
9839.00793 6.78944e-18
9839.86939 6.74837e-18
9840.73085 6.70728e-18
9841.59231 6.66109e-18
9842.45377 6.61488e-18
9843.32525 6.56883e-18
9844.18672 6.52278e-18
9845.04818 6.49320e-18
9845.90964 6.46366e-18
9846.77110 6.46340e-18
9847.63256 6.46321e-18
9848.49403 6.48829e-18
9849.35549 6.51343e-18
9850.21695 6.55654e-18
9851.07841 6.59970e-18
9851.93987 6.65386e-18
9852.81135 6.70806e-18
9853.67282 6.76504e-18
9854.53428 6.82202e-18
9855.39574 6.87662e-18
9856.25720 6.93119e-18
9857.11866 6.97954e-18
9857.98013 7.02788e-18
9858.84159 7.05966e-18
9859.70305 7.09138e-18
9860.56451 7.09473e-18
9861.42597 7.09800e-18
9862.29745 7.07132e-18
9863.15891 7.04455e-18
9864.02038 6.99293e-18
9864.88184 6.94122e-18
9865.74330 6.87407e-18
9866.60476 6.80686e-18
9867.46622 6.73765e-18
9868.32769 6.66844e-18
9869.18915 6.60490e-18
9870.05061 6.54138e-18
9870.92209 6.48262e-18
9871.78355 6.42387e-18
9872.64501 6.37090e-18
9873.50648 6.31794e-18
9874.36794 6.27529e-18
9875.22940 6.23268e-18
9876.09086 6.20394e-18
9876.95232 6.17525e-18
9877.81379 6.16374e-18
9878.67525 6.15229e-18
9879.53671 6.15950e-18
9880.39817 6.16678e-18
9881.26965 6.19043e-18
9882.13111 6.21413e-18
9882.99257 6.24998e-18
9883.85404 6.28585e-18
9884.71550 6.32613e-18
9885.57696 6.36641e-18
9886.43842 6.40274e-18
9887.29988 6.43905e-18
9888.16135 6.46356e-18
9889.02281 6.48803e-18
9889.88427 6.49415e-18
9890.74573 6.50020e-18
9891.61721 6.48776e-18
9892.47867 6.47526e-18
9893.34014 6.44759e-18
9894.20160 6.41986e-18
9895.06306 6.38051e-18
9895.92452 6.34112e-18
9896.78598 6.29384e-18
9897.64745 6.24654e-18
9898.50891 6.19748e-18
9899.37037 6.14841e-18
9900.23183 6.10569e-18
9901.09329 6.06300e-18
9901.96477 6.02797e-18
9902.82623 5.99296e-18
9903.68770 5.95871e-18
9904.54916 5.92447e-18
9905.41062 5.89259e-18
9906.27208 5.86073e-18
9907.13354 5.84626e-18
9907.99501 5.83182e-18
9908.85647 5.84189e-18
9909.71793 5.85203e-18
9910.57939 5.87980e-18
9911.45087 5.90761e-18
9912.31233 5.94191e-18
9913.17380 5.97622e-18
9914.03526 5.99346e-18
9914.89672 6.01066e-18
9915.75818 5.99210e-18
9916.61964 5.97345e-18
9917.48111 5.92567e-18
9918.34257 5.87779e-18
9919.20403 5.81221e-18
9920.07551 5.74659e-18
9920.93697 5.67623e-18
9921.79843 5.60587e-18
9922.65989 5.54396e-18
9923.52136 5.48210e-18
9924.38282 5.43446e-18
9925.24428 5.38687e-18
9926.10574 5.35575e-18
9926.96720 5.32470e-18
9927.82867 5.30150e-18
9928.69013 5.27833e-18
9929.56161 5.24936e-18
9930.42307 5.22037e-18
9931.28453 5.18116e-18
9932.14599 5.14192e-18
9933.00746 5.09442e-18
9933.86892 5.04690e-18
9934.73038 4.99515e-18
9935.59184 4.94339e-18
9936.45330 4.89320e-18
9937.31477 4.84301e-18
9938.17623 4.80209e-18
9939.03769 4.76119e-18
9939.90917 4.73920e-18
9940.77063 4.71725e-18
9941.63209 4.71683e-18
9942.49355 4.71648e-18
9943.35502 4.72763e-18
9944.21648 4.73881e-18
9945.07794 4.75290e-18
9945.93940 4.76699e-18
9946.80086 4.78182e-18
9947.66233 4.79667e-18
9948.52379 4.80974e-18
9949.39527 4.82281e-18
9950.25673 4.82933e-18
9951.11819 4.83583e-18
9951.97965 4.83270e-18
9952.84112 4.82956e-18
9953.70258 4.82300e-18
9954.56404 4.81643e-18
9955.42550 4.81325e-18
9956.28696 4.81008e-18
9957.14843 4.80572e-18
9958.00989 4.80136e-18
9958.88137 4.78953e-18
9959.74283 4.77766e-18
9960.60429 4.75515e-18
9961.46575 4.73261e-18
9962.32721 4.69733e-18
9963.18868 4.66202e-18
9964.05014 4.62454e-18
9964.91160 4.58706e-18
9965.77306 4.56502e-18
9966.63452 4.54303e-18
9967.49599 4.54057e-18
9968.36747 4.53816e-18
9969.22893 4.54847e-18
9970.09039 4.55881e-18
9970.95185 4.58082e-18
9971.81331 4.60288e-18
9972.67477 4.64167e-18
9973.53624 4.68051e-18
9974.39770 4.73397e-18
9975.25916 4.78746e-18
9976.12062 4.84414e-18
9976.98208 4.90082e-18
9977.85356 4.95161e-18
9978.71503 5.00238e-18
9979.57649 5.04294e-18
9980.43795 5.08346e-18
9981.29941 5.11224e-18
9982.16087 5.14100e-18
9983.02234 5.16413e-18
9983.88380 5.18726e-18
9984.74526 5.21092e-18
9985.60672 5.23459e-18
9986.46818 5.26186e-18
9987.32965 5.28913e-18
9988.20112 5.32158e-18
9989.06259 5.35405e-18
9989.92405 5.38026e-18
9990.78551 5.40645e-18
9991.64697 5.41345e-18
9992.50843 5.42039e-18
9993.36990 5.41791e-18
9994.23136 5.41540e-18
9995.09282 5.42008e-18
9995.95428 5.42477e-18
9996.81574 5.43376e-18
9997.67721 5.44277e-18
9998.54869 5.44548e-18
9999.41015 5.44816e-18
