# wavelength flux
3479.00393 1.91036e-18
3480.47210 7.94080e-18
3481.94028 5.13214e-18
3483.40846 2.37164e-18
3484.87663 5.54950e-19
3486.35486 3.18160e-18
3487.82304 9.10686e-18
3489.29122 8.06441e-18
3490.75939 3.72265e-18
3492.22757 4.46457e-18
3493.69574 6.31887e-18
3495.17398 5.82581e-18
3496.64215 6.16273e-18
3498.11033 5.03282e-18
3499.57850 4.68344e-18
3501.04668 6.38483e-18
3502.52491 6.50999e-18
3503.99309 1.57961e-18
3505.46126 3.07760e-18
3506.92944 4.52128e-18
3508.39762 2.14237e-18
3509.86579 4.36714e-18
3511.34402 3.86174e-18
3512.81220 2.96318e-18
3514.28038 4.01540e-18
3515.74855 3.59822e-18
3517.21673 5.36467e-18
3518.69496 4.59608e-18
3520.16314 5.63613e-18
3521.63131 1.29853e-17
3523.09949 8.98187e-18
3524.56766 3.46243e-18
3526.03584 4.60728e-18
3527.51407 7.85059e-18
3528.98225 4.13775e-18
3530.45042 3.95004e-18
3531.91860 6.93219e-18
3533.38678 4.26488e-18
3534.86501 5.15716e-18
3536.33318 8.32082e-18
3537.80136 6.93637e-18
3539.26954 8.48739e-18
3540.73771 4.95460e-18
3542.20589 5.48553e-18
3543.68412 9.86647e-18
3545.15230 6.44176e-18
3546.62047 2.35348e-18
3548.08865 1.84204e-18
3549.55682 5.17622e-18
3551.03506 8.71385e-18
3552.50323 5.36391e-18
3553.97141 5.28092e-18
3555.43958 7.46418e-18
3556.90776 8.14903e-18
3558.37594 7.25146e-18
3559.85417 8.32983e-18
3561.32234 8.20449e-18
3562.79052 2.75195e-18
3564.25870 1.16719e-18
3565.72687 5.11689e-18
3567.19505 4.42987e-18
3568.67328 2.72100e-18
3570.14146 4.78243e-18
3571.60963 4.17852e-18
3573.07781 4.96765e-18
3574.54598 7.92909e-18
3576.02422 6.63910e-18
3577.49239 5.04073e-18
3578.96057 5.85269e-18
3580.42874 4.98793e-18
3581.89692 6.59692e-18
3583.37515 5.66677e-18
3584.84333 4.88662e-18
3586.31150 4.88250e-18
3587.77968 6.60286e-18
3589.24786 7.31039e-18
3590.71603 7.76471e-18
3592.19426 7.84115e-18
3593.66244 7.02530e-18
3595.13062 5.58940e-18
3596.59879 4.23918e-18
3598.06697 4.57911e-18
3599.53514 5.70870e-18
3601.01338 7.17145e-18
3602.48155 6.68787e-18
3603.94973 4.09524e-18
3605.41790 4.71250e-18
3606.88608 6.97004e-18
3608.36431 6.27745e-18
3609.83249 4.75439e-18
3611.30066 4.51918e-18
3612.76884 6.15288e-18
3614.23702 5.10409e-18
3615.70519 4.08347e-18
3617.18342 7.02723e-18
3618.65160 6.16404e-18
3620.11978 6.08752e-18
3621.58795 6.01831e-18
3623.05613 2.75666e-18
3624.53436 5.64245e-18
3626.00254 4.68854e-18
3627.47071 2.00852e-18
3628.93889 4.27156e-18
3630.40706 5.47447e-18
3631.87524 4.37395e-18
3633.35347 1.13352e-18
3634.82165 4.62482e-18
3636.28982 7.25543e-18
3637.75800 7.84835e-18
3639.22618 6.83183e-18
3640.70441 5.61889e-18
3642.17258 3.68586e-18
3643.64076 5.07351e-18
3645.10894 4.55173e-18
3646.57711 6.41748e-18
3648.04529 8.09733e-18
3649.52352 5.05159e-18
3650.99170 2.96102e-18
3652.45987 3.22340e-18
3653.92805 6.06383e-18
3655.39622 7.64486e-18
3656.87446 6.06983e-18
3658.34263 4.95893e-18
3659.81081 6.42676e-18
3661.27898 6.26369e-18
3662.74716 4.01262e-18
3664.21534 2.41711e-18
3665.69357 6.39053e-18
3667.16174 6.50619e-18
3668.62992 2.98164e-18
3670.09810 3.99033e-18
3671.56627 5.59862e-18
3673.04450 3.67977e-18
3674.51268 4.28298e-18
3675.98086 6.89420e-18
3677.44903 4.94921e-18
3678.91721 2.37902e-18
3680.38538 5.07619e-18
3681.86362 5.63207e-18
3683.33179 4.88469e-18
3684.79997 7.35976e-18
3686.26814 2.85255e-18
3687.73632 2.19054e-18
3689.21455 4.84128e-18
3690.68273 5.51995e-18
3692.15090 3.93854e-18
3693.61908 5.13992e-18
3695.08726 6.18390e-18
3696.55543 6.82613e-18
3698.03366 6.85901e-18
3699.50184 7.15212e-18
3700.97002 6.53845e-18
3702.43819 4.04352e-18
3703.90637 2.49427e-18
3705.38460 6.83365e-18
3706.85278 5.88941e-18
3708.32095 3.38848e-18
3709.78913 5.91227e-18
3711.25730 6.87566e-18
3712.72548 4.17587e-18
3714.20371 3.66089e-18
3715.67189 5.91708e-18
3717.14006 4.85357e-18
3718.60824 3.52605e-18
3720.07642 4.26974e-18
3721.55465 4.99654e-18
3723.02282 4.09214e-18
3724.49100 4.65155e-18
3725.95918 4.58417e-18
3727.42735 2.74368e-18
3728.89553 2.79403e-18
3730.37376 2.84438e-18
3731.84194 2.93054e-18
3733.31011 3.01667e-18
3734.77829 3.10280e-18
3736.24646 3.18891e-18
3737.72470 3.27501e-18
3739.19287 3.36111e-18
3740.66105 3.44719e-18
3742.12922 3.53327e-18
3743.59740 3.61934e-18
3745.06558 3.70540e-18
3746.54381 3.79144e-18
3748.01198 3.87748e-18
3749.48016 3.96350e-18
3750.94834 4.04953e-18
3752.41651 4.13552e-18
3753.89474 4.22153e-18
3755.36292 4.30752e-18
3756.83110 4.39350e-18
3758.29927 4.47946e-18
3759.76745 4.56542e-18
3761.23562 4.65136e-18
3762.71386 4.73729e-18
3764.18203 4.82323e-18
3765.65021 4.90914e-18
3767.11838 4.99507e-18
3768.58656 5.08096e-18
3770.06479 4.10039e-18
3771.53297 2.60151e-18
3773.00114 3.36628e-18
3774.46932 3.68181e-18
3775.93750 3.93319e-18
3777.40567 6.10324e-18
3778.88390 6.38462e-18
3780.35208 5.73195e-18
3781.82026 5.66981e-18
3783.28843 7.46277e-18
3784.75661 4.81590e-18
3786.23484 3.41123e-18
3787.70302 3.40289e-18
3789.17119 2.62352e-18
3790.63937 4.46235e-18
3792.10754 5.49112e-18
3793.57572 4.04888e-18
3795.05395 4.00898e-18
3796.52213 3.90646e-18
3797.99030 3.13360e-18
3799.45848 5.95316e-18
3800.92666 6.01514e-18
3802.40489 5.03471e-18
3803.87306 5.83318e-18
3805.34124 5.37481e-18
3806.80942 5.00476e-18
3808.27759 5.27337e-18
3809.74577 3.49836e-18
3811.22400 3.01492e-18
3812.69218 3.98945e-18
3814.16035 4.56350e-18
3815.62853 4.16413e-18
3817.09670 3.81226e-18
3818.57494 3.29615e-18
3820.04311 3.79176e-18
3821.51129 4.87261e-18
3822.97946 3.58364e-18
3824.44764 3.66876e-18
3825.91582 4.76478e-18
3827.39405 3.86415e-18
3828.86222 4.09384e-18
3830.33040 5.26720e-18
3831.79858 4.97903e-18
3833.26675 6.22804e-18
3834.74498 6.94027e-18
3836.21316 5.89832e-18
3837.68134 7.18991e-18
3839.14951 6.81319e-18
3840.61769 5.40522e-18
3842.08586 5.70035e-18
3843.56410 5.26040e-18
3845.03227 5.84529e-18
3846.50045 5.11776e-18
3847.96862 5.73081e-18
3849.43680 5.33537e-18
3850.91503 4.34835e-18
3852.38321 3.93942e-18
3853.85138 3.18119e-18
3855.31956 4.08969e-18
3856.78774 4.25456e-18
3858.25591 3.84966e-18
3859.73414 4.59431e-18
3861.20232 3.65024e-18
3862.67050 2.95646e-18
3864.13867 4.34850e-18
3865.60685 4.27346e-18
3867.08508 4.21319e-18
3868.55326 6.11245e-18
3870.02143 7.00411e-18
3871.48961 6.39384e-18
3872.95778 5.64984e-18
3874.42596 4.17754e-18
3875.90419 5.76181e-18
3877.37237 6.70013e-18
3878.84054 5.87403e-18
3880.30872 5.87760e-18
3881.77690 6.13832e-18
3883.24507 6.26661e-18
3884.72330 7.13371e-18
3886.19148 7.61555e-18
3887.65966 7.38967e-18
3889.12783 5.79730e-18
3890.59601 5.69384e-18
3892.07424 7.19197e-18
3893.54242 7.67945e-18
3895.01059 7.67636e-18
3896.47877 6.49265e-18
3897.94694 5.86298e-18
3899.41512 6.91774e-18
3900.89335 6.22903e-18
3902.36153 6.07937e-18
3903.82970 6.16037e-18
3905.29788 6.56357e-18
3906.76606 7.49708e-18
3908.24429 1.06534e-17
3909.71246 8.91722e-18
3911.18064 6.36796e-18
3912.64882 8.20848e-18
3914.11699 7.01517e-18
3915.58517 6.14425e-18
3917.06340 5.70889e-18
3918.53158 6.28130e-18
3919.99975 7.80852e-18
3921.46793 7.38978e-18
3922.93610 8.50350e-18
3924.41434 9.23478e-18
3925.88251 8.77353e-18
3927.35069 7.72076e-18
3928.81886 7.41148e-18
3930.28704 8.80662e-18
3931.75522 8.93102e-18
3933.23345 8.76828e-18
3934.70162 8.51713e-18
3936.16980 7.87483e-18
3937.63798 7.03273e-18
3939.10615 7.14175e-18
3940.58438 8.22517e-18
3942.05256 8.49482e-18
3943.52074 6.46987e-18
3944.98891 7.40276e-18
3946.45709 9.15561e-18
3947.92526 8.80630e-18
3949.40350 8.73017e-18
3950.87167 8.23025e-18
3952.33985 6.85749e-18
3953.80802 7.53997e-18
3955.27620 8.17967e-18
3956.75443 7.19527e-18
3958.22261 7.74858e-18
3959.69078 7.69545e-18
3961.15896 8.11225e-18
3962.62714 8.91312e-18
3964.09531 8.87554e-18
3965.57354 8.85606e-18
3967.04172 8.99078e-18
3968.50990 8.72937e-18
3969.97807 9.24199e-18
3971.44625 8.94040e-18
3972.92448 9.81599e-18
3974.39266 1.01813e-17
3975.86083 9.17300e-18
3977.32901 9.16547e-18
3978.79718 9.30442e-18
3980.26536 9.97313e-18
3981.74359 8.94448e-18
3983.21177 8.58584e-18
3984.67994 8.43298e-18
3986.14812 7.39517e-18
3987.61630 7.34326e-18
3989.09453 6.44473e-18
3990.56270 6.09059e-18
3992.03088 7.26081e-18
3993.49906 8.16572e-18
3994.96723 7.96212e-18
3996.43541 8.14187e-18
3997.91364 8.90488e-18
3999.38182 8.70654e-18
4000.84999 9.56868e-18
4002.31817 1.06905e-17
4003.78634 9.50782e-18
4005.26458 8.47998e-18
4006.73275 1.00639e-17
4008.20093 1.00878e-17
4009.66910 9.65369e-18
4011.13728 1.02500e-17
4012.60546 9.63517e-18
4014.08369 8.50334e-18
4015.55186 8.29221e-18
4017.02004 9.01250e-18
4018.48822 9.50920e-18
4019.95639 9.42041e-18
4021.43462 9.84762e-18
4022.90280 9.89924e-18
4024.37098 9.63880e-18
4025.83915 9.96629e-18
4027.30733 9.89696e-18
4028.77550 9.11117e-18
4030.25374 1.03696e-17
4031.72191 1.14291e-17
4033.19009 1.01108e-17
4034.65826 9.39394e-18
4036.12644 8.66239e-18
4037.60467 9.56892e-18
4039.07285 1.12164e-17
4040.54102 1.05845e-17
4042.00920 9.68959e-18
4043.47738 9.08516e-18
4044.94555 9.54459e-18
4046.42378 9.08825e-18
4047.89196 8.26771e-18
4049.36014 9.74681e-18
4050.82831 9.98710e-18
4052.29649 9.03411e-18
4053.77472 8.87217e-18
4055.24290 9.43728e-18
4056.71107 9.01098e-18
4058.17925 8.69919e-18
4059.64742 8.01000e-18
4061.11560 8.61466e-18
4062.59383 9.35950e-18
4064.06201 9.01526e-18
4065.53018 8.01568e-18
4066.99836 7.37558e-18
4068.46654 9.30666e-18
4069.94477 9.73347e-18
4071.41294 8.79997e-18
4072.88112 8.95258e-18
4074.34930 9.41073e-18
4075.81747 8.82352e-18
4077.28565 7.43599e-18
4078.76388 8.14211e-18
4080.23206 8.41966e-18
4081.70023 9.09597e-18
4083.16841 8.07260e-18
4084.63658 6.70014e-18
4086.11482 6.84363e-18
4087.58299 7.60560e-18
4089.05117 9.18673e-18
4090.51934 8.87264e-18
4091.98752 6.77958e-18
4093.45570 6.64004e-18
4094.93393 7.90505e-18
4096.40210 8.46000e-18
4097.87028 8.50375e-18
4099.33846 7.71550e-18
4100.80663 8.03085e-18
4102.28486 8.01315e-18
4103.75304 7.31437e-18
4105.22122 7.18364e-18
4106.68939 7.49024e-18
4108.15757 7.78020e-18
4109.62574 7.49846e-18
4111.10398 7.43833e-18
4112.57215 7.68115e-18
4114.04033 8.35993e-18
4115.50850 7.76676e-18
4116.97668 7.14935e-18
4118.45491 7.23667e-18
4119.92309 7.21197e-18
4121.39126 7.36907e-18
4122.85944 7.18145e-18
4124.32762 7.24611e-18
4125.79579 8.37569e-18
4127.27402 7.87290e-18
4128.74220 6.94930e-18
4130.21038 6.56909e-18
4131.67855 7.13088e-18
4133.14673 7.26606e-18
4134.62496 7.23571e-18
4136.09314 7.63669e-18
4137.56131 7.49411e-18
4139.02949 6.49330e-18
4140.49766 7.05693e-18
4141.96584 7.29129e-18
4143.44407 7.06938e-18
4144.91225 6.83299e-18
4146.38042 6.69362e-18
4147.84860 7.18649e-18
4149.31678 7.39341e-18
4150.79501 7.48551e-18
4152.26318 7.25921e-18
4153.73136 6.96917e-18
4155.19954 6.72402e-18
4156.66771 6.82354e-18
4158.13589 6.91565e-18
4159.61412 7.69738e-18
4161.08230 8.10271e-18
4162.55047 8.32343e-18
4164.01865 7.71849e-18
4165.48682 7.75930e-18
4166.95500 8.03542e-18
4168.43323 7.14954e-18
4169.90141 7.56951e-18
4171.36958 7.91973e-18
4172.83776 7.47907e-18
4174.30594 7.92106e-18
4175.78417 7.69752e-18
4177.25234 7.17915e-18
4178.72052 7.82307e-18
4180.18870 7.29285e-18
4181.65687 7.59402e-18
4183.12505 7.99806e-18
4184.60328 7.28828e-18
4186.07146 8.32893e-18
4187.53963 9.58288e-18
4189.00781 8.61318e-18
4190.47598 8.52598e-18
4191.95422 9.62814e-18
4193.42239 8.77472e-18
4194.89057 7.07135e-18
4196.35874 7.02981e-18
4197.82692 7.22381e-18
4199.29510 7.52208e-18
4200.77333 7.45275e-18
4202.24150 6.13834e-18
4203.70968 7.64859e-18
4205.17786 8.63096e-18
4206.64603 7.99729e-18
4208.12426 8.00388e-18
4209.59244 8.06636e-18
4211.06062 7.65126e-18
4212.52879 7.91281e-18
4213.99697 7.78853e-18
4215.47520 7.68050e-18
4216.94338 7.57475e-18
4218.41155 7.73742e-18
4219.87973 7.58683e-18
4221.34790 7.89172e-18
4222.81608 8.21244e-18
4224.29431 8.15213e-18
4225.76249 6.93459e-18
4227.23066 6.23855e-18
4228.69884 6.77714e-18
4230.16702 7.31746e-18
4231.64525 7.38266e-18
4233.11342 7.37429e-18
4234.58160 7.78902e-18
4236.04978 7.98891e-18
4237.51795 9.00965e-18
4238.98613 7.92334e-18
4240.46436 7.91484e-18
4241.93254 8.58582e-18
4243.40071 8.85641e-18
4244.86889 7.67146e-18
4246.33706 7.36849e-18
4247.80524 8.27914e-18
4249.28347 8.11603e-18
4250.75165 7.50051e-18
4252.21982 7.34075e-18
4253.68800 7.96271e-18
4255.15618 7.64547e-18
4256.63441 7.76911e-18
4258.10258 7.44039e-18
4259.57076 7.14762e-18
4261.03894 7.48637e-18
4262.50711 8.15991e-18
4263.97529 7.34291e-18
4265.45352 7.64296e-18
4266.92170 8.61274e-18
4268.38987 7.43124e-18
4269.85805 7.26067e-18
4271.32622 8.51575e-18
4272.80446 8.05901e-18
4274.27263 8.21755e-18
4275.74081 7.98000e-18
4277.20898 6.95812e-18
4278.67716 6.97621e-18
4280.14534 5.99664e-18
4281.62357 6.86160e-18
4283.09174 7.90400e-18
4284.55992 7.49407e-18
4286.02810 8.22948e-18
4287.49627 8.37648e-18
4288.97450 7.55030e-18
4290.44268 7.86156e-18
4291.91086 8.83303e-18
4293.37903 8.58432e-18
4294.84721 8.15768e-18
4296.31538 7.38214e-18
4297.79362 7.49543e-18
4299.26179 7.22941e-18
4300.72997 7.17258e-18
4302.19814 7.63018e-18
4303.66632 8.13438e-18
4305.14455 7.95728e-18
4306.61273 7.25046e-18
4308.08090 7.82208e-18
4309.54908 7.86983e-18
4311.01726 7.23062e-18
4312.49549 6.79657e-18
4313.96366 7.31586e-18
4315.43184 7.53991e-18
4316.90002 7.33490e-18
4318.36819 7.37384e-18
4319.83637 8.06956e-18
4321.31460 6.90628e-18
4322.78278 5.99854e-18
4324.25095 7.00225e-18
4325.71913 7.46966e-18
4327.18730 6.65921e-18
4328.65548 6.28413e-18
4330.13371 6.33346e-18
4331.60189 6.70865e-18
4333.07006 7.18895e-18
4334.53824 6.82600e-18
4336.00642 6.84100e-18
4337.48465 7.00215e-18
4338.95282 6.48821e-18
4340.42100 7.32219e-18
4341.88918 8.12590e-18
4343.35735 7.88816e-18
4344.82553 7.18405e-18
4346.30376 7.08470e-18
4347.77194 7.46073e-18
4349.24011 6.55411e-18
4350.70829 5.77115e-18
4352.17646 6.27050e-18
4353.65470 6.94906e-18
4355.12287 7.42255e-18
4356.59105 6.59705e-18
4358.05922 5.97238e-18
4359.52740 6.90887e-18
4360.99558 7.62265e-18
4362.47381 6.87934e-18
4363.94198 7.05435e-18
4365.41016 8.09153e-18
4366.87834 7.40611e-18
4368.34651 6.51383e-18
4369.82474 6.58703e-18
4371.29292 6.66023e-18
4372.76110 6.73340e-18
4374.22927 6.80658e-18
4375.69745 6.87978e-18
4377.16562 6.95292e-18
4378.64386 7.02608e-18
4380.11203 7.09920e-18
4381.58021 7.17237e-18
4383.04838 7.24548e-18
4384.51656 7.31861e-18
4385.99479 7.39173e-18
4387.46297 7.46485e-18
4388.93114 7.53796e-18
4390.39932 7.61103e-18
4391.86750 7.68412e-18
4393.33567 7.75718e-18
4394.81390 7.83028e-18
4396.28208 7.90333e-18
4397.75026 7.97639e-18
4399.21843 8.04944e-18
4400.68661 8.12249e-18
4402.16484 8.19553e-18
4403.63302 8.26853e-18
4405.10119 8.34156e-18
4406.56937 8.41457e-18
4408.03754 6.87909e-18
4409.50572 6.58291e-18
4410.98395 6.99995e-18
4412.45213 6.34284e-18
4413.92030 6.17883e-18
4415.38848 7.51297e-18
4416.85666 7.64049e-18
4418.33489 7.37301e-18
4419.80306 7.29087e-18
4421.27124 6.37148e-18
4422.73942 7.29936e-18
4424.20759 7.37165e-18
4425.67577 7.15443e-18
4427.15400 7.19922e-18
4428.62218 8.17097e-18
4430.09035 7.16871e-18
4431.55853 6.26921e-18
4433.02670 6.63324e-18
4434.50494 7.27033e-18
4435.97311 7.57280e-18
4437.44129 8.07793e-18
4438.90946 7.79941e-18
4440.37764 7.23929e-18
4441.84582 6.80927e-18
4443.32405 7.82389e-18
4444.79222 7.70459e-18
4446.26040 7.23772e-18
4447.72858 7.42252e-18
4449.19675 7.25875e-18
4450.67498 7.65825e-18
4452.14316 8.28838e-18
4453.61134 8.65570e-18
4455.07951 7.96172e-18
4456.54769 7.75372e-18
4458.01586 8.13379e-18
4459.49410 7.70775e-18
4460.96227 6.96050e-18
4462.43045 6.78162e-18
4463.89862 6.91324e-18
4465.36680 8.30616e-18
4466.83498 8.75741e-18
4468.31321 7.59300e-18
4469.78138 7.38501e-18
4471.24956 7.31536e-18
4472.71774 7.43318e-18
4474.18591 9.40443e-18
4475.66414 8.55219e-18
4477.13232 8.01341e-18
4478.60050 8.48670e-18
4480.06867 7.13500e-18
4481.53685 7.73243e-18
4483.00502 8.15791e-18
4484.48326 7.54347e-18
4485.95143 7.03229e-18
4487.41961 8.21278e-18
4488.88778 8.94136e-18
4490.35596 8.52459e-18
4491.83419 9.55042e-18
4493.30237 9.14315e-18
4494.77054 8.16815e-18
4496.23872 8.42653e-18
4497.70690 8.74778e-18
4499.17507 9.03831e-18
4500.65330 9.50280e-18
4502.12148 9.89149e-18
4503.58966 1.02602e-17
4505.05783 8.90709e-18
4506.52601 8.27953e-18
4508.00424 9.44430e-18
4509.47242 9.72485e-18
4510.94059 9.37605e-18
4512.40877 9.73098e-18
4513.87694 9.51489e-18
4515.35518 1.07756e-17
4516.82335 1.05037e-17
4518.29153 9.58420e-18
4519.75970 1.01105e-17
4521.22788 9.37329e-18
4522.69606 9.07583e-18
4524.17429 8.90092e-18
4525.64246 9.24360e-18
4527.11064 9.83844e-18
4528.57882 1.02818e-17
4530.04699 1.11594e-17
4531.52522 1.15821e-17
4532.99340 1.11764e-17
4534.46158 1.13856e-17
4535.92975 9.81671e-18
4537.39793 1.07143e-17
4538.86610 1.14831e-17
4540.34434 1.11435e-17
4541.81251 1.04321e-17
4543.28069 1.09491e-17
4544.74886 1.15931e-17
4546.21704 1.17636e-17
4547.68522 1.07817e-17
4549.16345 1.17020e-17
4550.63162 1.15235e-17
4552.09980 1.14876e-17
4553.56798 1.01988e-17
4555.03615 1.15262e-17
4556.51438 1.12795e-17
4557.98256 1.14092e-17
4559.45074 1.15013e-17
4560.91891 1.12410e-17
4562.38709 1.19039e-17
4563.85526 1.22900e-17
4565.33350 1.11196e-17
4566.80167 1.05247e-17
4568.26985 1.11664e-17
4569.73802 1.14184e-17
4571.20620 1.16708e-17
4572.68443 1.12342e-17
4574.15261 1.16299e-17
4575.62078 1.23252e-17
4577.08896 1.22267e-17
4578.55714 1.10831e-17
4580.02531 1.12136e-17
4581.50354 1.10490e-17
4582.97172 1.22131e-17
4584.43990 1.19281e-17
4585.90807 1.19984e-17
4587.37625 1.26685e-17
4588.85448 1.26201e-17
4590.32266 1.11216e-17
4591.79083 1.19901e-17
4593.25901 1.28427e-17
4594.72718 1.14476e-17
4596.19536 1.24169e-17
4597.67359 1.24426e-17
4599.14177 1.19488e-17
4600.60994 1.18569e-17
4602.07812 1.23099e-17
4603.54630 1.20529e-17
4605.02453 1.14779e-17
4606.49270 1.21317e-17
4607.96088 1.22058e-17
4609.42906 1.22979e-17
4610.89723 1.17160e-17
4612.36541 1.19794e-17
4613.84364 1.26445e-17
4615.31182 1.27236e-17
4616.77999 1.28116e-17
4618.24817 1.24792e-17
4619.71634 1.22990e-17
4621.19458 1.13795e-17
4622.66275 1.18111e-17
4624.13093 1.23308e-17
4625.59910 1.13496e-17
4627.06728 1.14200e-17
4628.53546 1.20517e-17
4630.01369 1.23013e-17
4631.48186 1.22727e-17
4632.95004 1.20462e-17
4634.41822 1.18537e-17
4635.88639 1.20403e-17
4637.36462 1.18758e-17
4638.83280 1.24203e-17
4640.30098 1.26259e-17
4641.76915 1.19181e-17
4643.23733 1.19801e-17
4644.70550 1.26881e-17
4646.18374 1.27090e-17
4647.65191 1.19701e-17
4649.12009 1.14284e-17
4650.58826 1.23149e-17
4652.05644 1.26574e-17
4653.53467 1.27396e-17
4655.00285 1.30614e-17
4656.47102 1.14612e-17
4657.93920 1.12825e-17
4659.40738 1.19017e-17
4660.87555 1.19930e-17
4662.35378 1.20530e-17
4663.82196 1.17248e-17
4665.29014 1.19128e-17
4666.75831 1.11370e-17
4668.22649 1.05697e-17
4669.70472 1.08205e-17
4671.17290 1.17411e-17
4672.64107 1.12127e-17
4674.10925 1.14159e-17
4675.57742 1.17061e-17
4677.04560 1.03580e-17
4678.52383 1.05478e-17
4679.99201 1.08055e-17
4681.46018 1.04732e-17
4682.92836 1.11725e-17
4684.39654 1.10669e-17
4685.87477 1.06161e-17
4687.34294 1.12536e-17
4688.81112 1.12424e-17
4690.27930 1.09097e-17
4691.74747 1.05715e-17
4693.21565 1.08796e-17
4694.69388 1.04444e-17
4696.16206 9.85381e-18
4697.63023 1.15519e-17
4699.09841 1.18214e-17
4700.56658 1.03288e-17
4702.04482 9.57629e-18
4703.51299 1.06400e-17
4704.98117 1.07455e-17
4706.44934 1.00560e-17
4707.91752 9.96363e-18
4709.38570 1.04364e-17
4710.86393 1.11951e-17
4712.33210 1.02686e-17
4713.80028 9.71222e-18
4715.26846 1.01234e-17
4716.73663 1.02177e-17
4718.21486 1.10257e-17
4719.68304 1.12368e-17
4721.15122 1.03614e-17
4722.61939 9.61991e-18
4724.08757 9.80991e-18
4725.55574 1.02542e-17
4727.03398 1.07938e-17
4728.50215 1.05752e-17
4729.97033 1.00178e-17
4731.43850 9.65144e-18
4732.90668 9.42302e-18
4734.38491 9.38140e-18
4735.85309 9.15451e-18
4737.32126 8.95381e-18
4738.78944 9.45861e-18
4740.25762 9.58069e-18
4741.72579 9.62897e-18
4743.20402 9.48539e-18
4744.67220 9.65311e-18
4746.14038 9.20943e-18
4747.60855 9.08230e-18
4749.07673 9.86913e-18
4750.55496 9.87409e-18
4752.02314 9.12264e-18
4753.49131 9.80750e-18
4754.95949 9.32072e-18
4756.42766 8.83002e-18
4757.89584 9.53486e-18
4759.37407 9.31322e-18
4760.84225 9.10910e-18
4762.31042 1.02907e-17
4763.77860 9.63520e-18
4765.24678 9.48705e-18
4766.72501 1.03060e-17
4768.19318 1.03863e-17
4769.66136 1.01265e-17
4771.12954 9.65447e-18
4772.59771 9.55907e-18
4774.06589 1.03942e-17
4775.54412 9.81473e-18
4777.01230 9.32515e-18
4778.48047 9.37200e-18
4779.94865 9.28382e-18
4781.41682 9.09176e-18
4782.89506 9.13864e-18
4784.36323 9.07329e-18
4785.83141 8.54230e-18
4787.29958 8.60673e-18
4788.76776 8.73043e-18
4790.23594 8.99460e-18
4791.71417 8.96770e-18
4793.18234 9.11162e-18
4794.65052 8.24385e-18
4796.11870 8.54083e-18
4797.58687 9.56517e-18
4799.05505 9.17495e-18
4800.53328 9.13921e-18
4802.00146 9.34205e-18
4803.46963 8.67843e-18
4804.93781 8.59125e-18
4806.40598 9.24176e-18
4807.88422 8.55675e-18
4809.35239 8.34519e-18
4810.82057 8.64620e-18
4812.28874 8.50174e-18
4813.75692 8.19685e-18
4815.23515 8.75804e-18
4816.70333 9.50903e-18
4818.17150 8.95286e-18
4819.63968 8.52063e-18
4821.10786 8.67309e-18
4822.57603 8.34178e-18
4824.05426 7.97367e-18
4825.52244 7.94430e-18
4826.99062 7.93280e-18
4828.45879 8.50256e-18
4829.92697 8.85751e-18
4831.39514 8.74569e-18
4832.87338 8.67083e-18
4834.34155 8.15662e-18
4835.80973 8.32881e-18
4837.27790 9.08468e-18
4838.74608 9.67524e-18
4840.22431 9.84523e-18
4841.69249 8.97761e-18
4843.16066 8.39604e-18
4844.62884 8.72769e-18
4846.09702 8.79176e-18
4847.56519 9.32614e-18
4849.04342 9.20780e-18
4850.51160 9.25116e-18
4851.97978 9.87619e-18
4853.44795 9.84606e-18
4854.91613 8.88945e-18
4856.39436 8.52403e-18
4857.86254 9.83285e-18
4859.33071 9.69538e-18
4860.79889 9.41527e-18
4862.26706 9.37939e-18
4863.74530 9.80992e-18
4865.21347 1.05109e-17
4866.68165 9.98851e-18
4868.14982 9.17230e-18
4869.61800 8.83145e-18
4871.08618 8.84789e-18
4872.56441 8.86434e-18
4874.03258 8.88077e-18
4875.50076 8.89721e-18
4876.96894 8.91366e-18
4878.43711 8.93009e-18
4879.90529 8.94652e-18
4881.38352 8.96295e-18
4882.85170 8.97938e-18
4884.31987 8.99581e-18
4885.78805 9.01223e-18
4887.25622 9.02865e-18
4888.73446 9.04508e-18
4890.20263 9.06150e-18
4891.67081 9.07792e-18
4893.13898 9.09434e-18
4894.60716 9.11075e-18
4896.07534 9.12717e-18
4897.55357 9.14358e-18
4899.02174 9.15999e-18
4900.48992 9.17640e-18
4901.95810 9.19280e-18
4903.42627 9.20921e-18
4904.90450 9.22561e-18
4906.37268 9.24201e-18
4907.84086 9.25841e-18
4909.30903 1.00221e-17
4910.77721 1.01464e-17
4912.24538 1.00398e-17
4913.72362 9.59733e-18
4915.19179 9.64848e-18
4916.65997 1.05080e-17
4918.12814 1.01427e-17
4919.59632 9.36182e-18
4921.07455 8.87553e-18
4922.54273 1.00746e-17
4924.01090 1.05713e-17
4925.47908 1.02575e-17
4926.94726 1.05309e-17
4928.41543 1.00243e-17
4929.89366 1.00534e-17
4931.36184 1.10569e-17
4932.83002 1.03800e-17
4934.29819 9.14700e-18
4935.76637 9.12612e-18
4937.24460 9.94812e-18
4938.71278 1.03753e-17
4940.18095 9.57708e-18
4941.64913 9.58841e-18
4943.11730 1.06785e-17
4944.58548 1.06094e-17
4946.06371 1.06129e-17
4947.53189 1.00239e-17
4949.00006 1.03834e-17
4950.46824 1.09166e-17
4951.93642 1.07369e-17
4953.41465 1.03703e-17
4954.88282 1.01452e-17
4956.35100 1.04835e-17
4957.81918 1.05941e-17
4959.28735 1.01949e-17
4960.75553 1.03814e-17
4962.23376 1.06799e-17
4963.70194 1.09120e-17
4965.17011 1.02630e-17
4966.63829 1.01504e-17
4968.10646 1.07839e-17
4969.58470 1.08024e-17
4971.05287 1.08208e-17
4972.52105 1.08393e-17
4973.98922 1.08578e-17
4975.45740 1.08762e-17
4976.92558 1.08947e-17
4978.40381 1.09132e-17
4979.87198 1.09316e-17
4981.34016 1.09501e-17
4982.80834 1.09685e-17
4984.27651 1.09870e-17
4985.75474 1.10054e-17
4987.22292 1.10239e-17
4988.69110 1.10423e-17
4990.15927 1.10608e-17
4991.62745 1.10792e-17
4993.09562 1.10977e-17
4994.57386 1.11161e-17
4996.04203 1.11345e-17
4997.51021 1.11530e-17
4998.97838 1.11714e-17
5000.44656 1.11898e-17
5001.92479 1.12083e-17
5003.39297 1.12267e-17
5004.86114 1.12451e-17
5006.32932 1.02283e-17
5007.79750 1.00797e-17
5009.26567 1.04644e-17
5010.74390 1.00530e-17
5012.21208 9.94838e-18
5013.68026 9.45492e-18
5015.14843 9.39003e-18
5016.61661 9.40504e-18
5018.09484 9.40309e-18
5019.56302 9.40115e-18
5021.03119 9.39921e-18
5022.49937 9.39727e-18
5023.96754 9.39533e-18
5025.43572 9.39340e-18
5026.91395 9.39146e-18
5028.38213 9.38952e-18
5029.85030 9.38758e-18
5031.31848 9.38564e-18
5032.78666 9.38370e-18
5034.26489 9.38177e-18
5035.73306 9.37983e-18
5037.20124 9.37789e-18
5038.66942 9.37596e-18
5040.13759 9.37402e-18
5041.60577 9.37209e-18
5043.08400 9.37015e-18
5044.55218 9.36822e-18
5046.02035 9.36629e-18
5047.48853 9.36435e-18
5048.95670 9.36242e-18
5050.43494 9.36049e-18
5051.90311 9.35855e-18
5053.37129 9.35662e-18
5054.83946 8.76054e-18
5056.30764 9.26411e-18
5057.77582 9.55193e-18
5059.25405 9.13566e-18
5060.72222 9.30919e-18
5062.19040 9.04301e-18
5063.65858 8.44563e-18
5065.12675 9.29618e-18
5066.60498 9.78402e-18
5068.07316 9.48884e-18
5069.54134 9.29463e-18
5071.00951 8.93460e-18
5072.47769 9.60741e-18
5073.94586 9.69453e-18
5075.42410 9.58243e-18
5076.89227 9.78304e-18
5078.36045 9.48012e-18
5079.82862 8.79743e-18
5081.29680 8.69400e-18
5082.77503 9.51959e-18
5084.24321 9.16062e-18
5085.71138 9.26302e-18
5087.17956 1.03733e-17
5088.64774 9.76827e-18
5090.11591 9.71911e-18
5091.59414 9.68227e-18
5093.06232 9.18313e-18
5094.53050 9.23442e-18
5095.99867 1.00433e-17
5097.46685 9.84114e-18
5098.93502 9.58864e-18
5100.41326 9.86216e-18
5101.88143 9.75862e-18
5103.34961 1.00001e-17
5104.81778 9.95315e-18
5106.28596 9.58043e-18
5107.76419 9.25106e-18
5109.23237 9.38006e-18
5110.70054 9.84456e-18
5112.16872 9.36409e-18
5113.63690 9.94865e-18
5115.10507 9.51094e-18
5116.58330 9.43310e-18
5118.05148 9.83274e-18
5119.51966 1.00626e-17
5120.98783 9.36102e-18
5122.45601 9.58937e-18
5123.93424 1.00631e-17
5125.40242 9.74816e-18
5126.87059 9.80445e-18
5128.33877 9.45812e-18
5129.80694 9.15074e-18
5131.27512 9.34100e-18
5132.75335 9.70606e-18
5134.22153 9.96278e-18
5135.68970 1.02114e-17
5137.15788 9.46228e-18
5138.62606 1.00418e-17
5140.10429 9.99867e-18
5141.57246 9.52612e-18
5143.04064 1.04331e-17
5144.50882 9.87761e-18
5145.97699 9.00891e-18
5147.45522 9.19569e-18
5148.92340 9.80279e-18
5150.39158 1.04290e-17
5151.85975 9.80494e-18
5153.32793 1.02464e-17
5154.79610 1.01580e-17
5156.27434 1.01190e-17
5157.74251 9.48328e-18
5159.21069 9.97152e-18
5160.67886 1.00822e-17
5162.14704 1.02596e-17
5163.62527 1.05644e-17
5165.09345 1.00132e-17
5166.56162 9.75431e-18
5168.02980 1.03788e-17
5169.49798 1.06897e-17
5170.96615 1.04008e-17
5172.44438 1.02008e-17
5173.91256 1.00356e-17
5175.38074 1.00324e-17
5176.84891 1.00856e-17
5178.31709 9.79968e-18
5179.78526 1.02312e-17
5181.26350 1.04737e-17
5182.73167 1.04458e-17
5184.19985 1.03185e-17
5185.66802 1.05474e-17
5187.13620 1.08260e-17
5188.61443 1.06617e-17
5190.08261 1.02706e-17
5191.55078 1.13245e-17
5193.01896 1.12772e-17
5194.48714 9.88686e-18
5195.95531 1.00318e-17
5197.43354 1.02176e-17
5198.90172 9.89707e-18
5200.36990 9.86348e-18
5201.83807 1.03020e-17
5203.30625 1.04035e-17
5204.78448 1.10565e-17
5206.25266 1.09650e-17
5207.72083 1.07294e-17
5209.18901 1.02380e-17
5210.65718 1.07289e-17
5212.12536 1.11123e-17
5213.60359 1.07316e-17
5215.07177 1.06446e-17
5216.53994 1.06388e-17
5218.00812 1.11439e-17
5219.47630 1.08345e-17
5220.95453 1.19675e-17
5222.42270 1.14963e-17
5223.89088 1.14854e-17
5225.35906 1.20156e-17
5226.82723 1.11945e-17
5228.29541 1.15181e-17
5229.77364 1.16152e-17
5231.24182 1.21157e-17
5232.70999 1.24985e-17
5234.17817 1.22657e-17
5235.64634 1.17683e-17
5237.12458 1.12516e-17
5238.59275 1.17335e-17
5240.06093 1.21257e-17
5241.52910 1.19838e-17
5242.99728 1.24156e-17
5244.46546 1.24872e-17
5245.94369 1.24494e-17
5247.41186 1.21059e-17
5248.88004 1.19593e-17
5250.34822 1.28306e-17
5251.81639 1.32217e-17
5253.29462 1.29792e-17
5254.76280 1.25550e-17
5256.23098 1.15670e-17
5257.69915 1.16560e-17
5259.16733 1.27423e-17
5260.63550 1.25663e-17
5262.11374 1.24984e-17
5263.58191 1.26430e-17
5265.05009 1.28602e-17
5266.51826 1.27516e-17
5267.98644 1.30614e-17
5269.46467 1.27733e-17
5270.93285 1.27645e-17
5272.40102 1.30693e-17
5273.86920 1.29150e-17
5275.33738 1.26013e-17
5276.80555 1.28193e-17
5278.28378 1.30467e-17
5279.75196 1.30276e-17
5281.22014 1.27395e-17
5282.68831 1.23361e-17
5284.15649 1.34014e-17
5285.63472 1.30083e-17
5287.10290 1.26133e-17
5288.57107 1.29966e-17
5290.03925 1.29545e-17
5291.50742 1.27330e-17
5292.97560 1.30839e-17
5294.45383 1.30464e-17
5295.92201 1.23196e-17
5297.39018 1.17481e-17
5298.85836 1.22204e-17
5300.32654 1.28724e-17
5301.80477 1.30292e-17
5303.27294 1.30107e-17
5304.74112 1.34686e-17
5306.20930 1.27352e-17
5307.67747 1.27538e-17
5309.14565 1.33989e-17
5310.62388 1.31088e-17
5312.09206 1.36367e-17
5313.56023 1.42179e-17
5315.02841 1.39365e-17
5316.49658 1.40208e-17
5317.97482 1.42264e-17
5319.44299 1.35846e-17
5320.91117 1.36420e-17
5322.37934 1.43218e-17
5323.84752 1.35923e-17
5325.31570 1.36203e-17
5326.79393 1.39331e-17
5328.26210 1.39362e-17
5329.73028 1.30318e-17
5331.19846 1.31189e-17
5332.66663 1.34728e-17
5334.14486 1.35596e-17
5335.61304 1.34754e-17
5337.08122 1.30841e-17
5338.54939 1.36028e-17
5340.01757 1.40021e-17
5341.48574 1.36050e-17
5342.96398 1.32716e-17
5344.43215 1.38975e-17
5345.90033 1.42085e-17
5347.36850 1.40428e-17
5348.83668 1.35461e-17
5350.31491 1.37080e-17
5351.78309 1.42233e-17
5353.25126 1.36975e-17
5354.71944 1.35048e-17
5356.18762 1.38995e-17
5357.65579 1.37079e-17
5359.13402 1.35012e-17
5360.60220 1.36407e-17
5362.07038 1.32483e-17
5363.53855 1.31050e-17
5365.00673 1.34271e-17
5366.48496 1.37350e-17
5367.95314 1.40719e-17
5369.42131 1.42982e-17
5370.88949 1.43878e-17
5372.35766 1.38333e-17
5373.82584 1.36011e-17
5375.30407 1.38218e-17
5376.77225 1.40385e-17
5378.24042 1.44506e-17
5379.70860 1.46910e-17
5381.17678 1.47774e-17
5382.65501 1.45669e-17
5384.12318 1.48996e-17
5385.59136 1.53745e-17
5387.05954 1.47944e-17
5388.52771 1.45155e-17
5389.99589 1.51084e-17
5391.47412 1.53596e-17
5392.94230 1.45620e-17
5394.41047 1.39529e-17
5395.87865 1.48367e-17
5397.34682 1.46933e-17
5398.81500 1.44167e-17
5400.29323 1.48196e-17
5401.76141 1.46171e-17
5403.22958 1.50241e-17
5404.69776 1.53624e-17
5406.16594 1.51643e-17
5407.64417 1.48309e-17
5409.11234 1.46214e-17
5410.58052 1.50138e-17
5412.04870 1.44455e-17
5413.51687 1.45166e-17
5414.99510 1.53855e-17
5416.46328 1.50983e-17
5417.93146 1.40063e-17
5419.39963 1.38992e-17
5420.86781 1.40206e-17
5422.33598 1.43713e-17
5423.81422 1.46687e-17
5425.28239 1.41359e-17
5426.75057 1.41201e-17
5428.21874 1.38859e-17
5429.68692 1.40131e-17
5431.16515 1.38252e-17
5432.63333 1.36618e-17
5434.10150 1.41468e-17
5435.56968 1.35987e-17
5437.03786 1.39407e-17
5438.50603 1.41576e-17
5439.98426 1.33435e-17
5441.45244 1.32447e-17
5442.92062 1.36677e-17
5444.38879 1.38022e-17
5445.85697 1.34624e-17
5447.33520 1.37872e-17
5448.80338 1.35299e-17
5450.27155 1.39470e-17
5451.73973 1.43402e-17
5453.20790 1.41668e-17
5454.67608 1.37266e-17
5456.15431 1.36719e-17
5457.62249 1.34197e-17
5459.09066 1.28889e-17
5460.55884 1.34230e-17
5462.02702 1.38121e-17
5463.49519 1.41240e-17
5464.97342 1.40065e-17
5466.44160 1.37341e-17
5467.90978 1.39732e-17
5469.37795 1.44705e-17
5470.84613 1.43313e-17
5472.32436 1.38934e-17
5473.79254 1.34611e-17
5475.26071 1.37721e-17
5476.72889 1.37846e-17
5478.19706 1.41522e-17
5479.66524 1.36516e-17
5481.14347 1.29554e-17
5482.61165 1.36810e-17
5484.07982 1.40565e-17
5485.54800 1.39027e-17
5487.01618 1.35804e-17
5488.49441 1.35152e-17
5489.96258 1.32950e-17
5491.43076 1.36538e-17
5492.89894 1.34984e-17
5494.36711 1.36626e-17
5495.83529 1.33676e-17
5497.31352 1.37574e-17
5498.78170 1.37383e-17
5500.24987 1.38514e-17
5501.71805 1.32789e-17
5503.18622 1.36056e-17
5504.66446 1.37698e-17
5506.13263 1.32417e-17
5507.60081 1.33215e-17
5509.06898 1.35942e-17
5510.53716 1.44796e-17
5512.00534 1.35487e-17
5513.48357 1.37346e-17
5514.95174 1.33268e-17
5516.41992 1.35802e-17
5517.88810 1.37472e-17
5519.35627 1.34991e-17
5520.83450 1.37710e-17
5522.30268 1.37253e-17
5523.77086 1.39737e-17
5525.23903 1.36451e-17
5526.70721 1.32865e-17
5528.18544 1.43017e-17
5529.65362 1.43121e-17
5531.12179 1.41364e-17
5532.58997 1.37685e-17
5534.05814 1.39650e-17
5535.52632 1.34909e-17
5537.00455 1.37602e-17
5538.47273 1.44790e-17
5539.94090 1.46092e-17
5541.40908 1.37933e-17
5542.87726 1.37942e-17
5544.34543 1.40283e-17
5545.82366 1.39454e-17
5547.29184 1.39767e-17
5548.76002 1.32915e-17
5550.22819 1.33469e-17
5551.69637 1.38969e-17
5553.17460 1.41063e-17
5554.64278 1.43641e-17
5556.11095 1.32122e-17
5557.57913 1.26205e-17
5559.04730 1.35104e-17
5560.51548 1.31443e-17
5561.99371 1.31144e-17
5563.46189 1.36727e-17
5564.93006 1.31252e-17
5566.39824 1.28678e-17
5567.86642 1.29457e-17
5569.34465 1.29209e-17
5570.81282 1.29613e-17
5572.28100 1.28967e-17
5573.74918 1.25022e-17
5575.21735 1.24053e-17
5576.68553 1.22271e-17
5578.16376 1.24588e-17
5579.63194 1.32173e-17
5581.10011 1.25007e-17
5582.56829 1.14930e-17
5584.03646 1.14256e-17
5585.51470 1.18238e-17
5586.98287 1.17133e-17
5588.45105 1.19354e-17
5589.91922 1.20846e-17
5591.38740 1.20637e-17
5592.85558 1.16347e-17
5594.33381 1.14172e-17
5595.80198 1.18228e-17
5597.27016 1.12181e-17
5598.73834 1.09061e-17
5600.20651 1.13358e-17
5601.68474 1.10136e-17
5603.15292 1.12284e-17
5604.62110 1.20822e-17
5606.08927 1.18156e-17
5607.55745 1.11068e-17
5609.02562 1.03831e-17
5610.50386 1.14218e-17
5611.97203 1.15505e-17
5613.44021 1.10555e-17
5614.90838 1.12877e-17
5616.37656 1.12094e-17
5617.85479 1.09105e-17
5619.32297 1.06050e-17
5620.79114 1.05646e-17
5622.25932 1.03253e-17
5623.72750 1.04253e-17
5625.19567 1.03348e-17
5626.67390 1.04773e-17
5628.14208 1.07292e-17
5629.61026 1.02134e-17
5631.07843 1.02491e-17
5632.54661 1.02017e-17
5634.02484 1.01915e-17
5635.49302 1.02040e-17
5636.96119 9.72415e-18
5638.42937 1.00842e-17
5639.89754 1.02449e-17
5641.36572 1.00266e-17
5642.84395 1.03171e-17
5644.31213 1.03737e-17
5645.78030 1.03322e-17
5647.24848 1.03674e-17
5648.71666 1.01256e-17
5650.19489 9.73716e-18
5651.66306 9.38767e-18
5653.13124 9.47597e-18
5654.59942 9.65662e-18
5656.06759 9.83643e-18
5657.53577 1.00358e-17
5659.01400 9.49507e-18
5660.48218 9.20999e-18
5661.95035 9.34226e-18
5663.41853 9.49575e-18
5664.88670 9.10971e-18
5666.36494 8.96755e-18
5667.83311 9.31919e-18
5669.30129 9.25383e-18
5670.76946 9.40270e-18
5672.23764 9.95067e-18
5673.70582 9.65492e-18
5675.18405 9.10189e-18
5676.65222 9.17842e-18
5678.12040 8.70880e-18
5679.58858 8.42484e-18
5681.05675 8.88952e-18
5682.52493 9.79066e-18
5684.00316 9.23758e-18
5685.47134 8.45220e-18
5686.93951 8.65278e-18
5688.40769 9.18379e-18
5689.87586 8.99134e-18
5691.35410 9.65159e-18
5692.82227 1.01971e-17
5694.29045 9.27488e-18
5695.75862 8.76096e-18
5697.22680 9.04746e-18
5698.70503 9.00074e-18
5700.17321 8.95250e-18
5701.64138 9.22924e-18
5703.10956 9.03579e-18
5704.57774 9.46475e-18
5706.04591 9.87982e-18
5707.52414 1.02035e-17
5708.99232 9.96233e-18
5710.46050 9.45490e-18
5711.92867 9.33602e-18
5713.39685 9.71447e-18
5714.87508 9.94557e-18
5716.34326 9.56770e-18
5717.81143 9.87429e-18
5719.27961 1.05182e-17
5720.74778 1.04001e-17
5722.21596 1.00399e-17
5723.69419 1.03922e-17
5725.16237 1.07733e-17
5726.63054 1.04533e-17
5728.09872 1.02805e-17
5729.56690 1.05999e-17
5731.03507 1.06288e-17
5732.51330 1.02680e-17
5733.98148 1.09362e-17
5735.44966 1.11092e-17
5736.91783 1.06628e-17
5738.38601 1.08344e-17
5739.86424 1.06515e-17
5741.33242 1.09736e-17
5742.80059 1.10337e-17
5744.26877 1.11097e-17
5745.73694 1.10420e-17
5747.21518 1.17517e-17
5748.68335 1.17421e-17
5750.15153 1.13639e-17
5751.61970 1.08528e-17
5753.08788 1.17456e-17
5754.55606 1.14056e-17
5756.03429 1.12177e-17
5757.50246 1.18341e-17
5758.97064 1.17571e-17
5760.43882 1.13929e-17
5761.90699 1.15753e-17
5763.37517 1.18070e-17
5764.85340 1.22022e-17
5766.32158 1.17375e-17
5767.78975 1.19614e-17
5769.25793 1.24014e-17
5770.72610 1.20060e-17
5772.20434 1.20986e-17
5773.67251 1.20091e-17
5775.14069 1.27056e-17
5776.60886 1.28381e-17
5778.07704 1.24392e-17
5779.54522 1.18123e-17
5781.02345 1.28074e-17
5782.49162 1.26268e-17
5783.95980 1.22882e-17
5785.42798 1.22445e-17
5786.89615 1.29094e-17
5788.37438 1.28245e-17
5789.84256 1.24488e-17
5791.31074 1.23561e-17
5792.77891 1.23071e-17
5794.24709 1.30128e-17
5795.71526 1.27657e-17
5797.19350 1.19874e-17
5798.66167 1.27238e-17
5800.12985 1.27417e-17
5801.59802 1.32189e-17
5803.06620 1.34347e-17
5804.54443 1.26634e-17
5806.01261 1.35228e-17
5807.48078 1.40035e-17
5808.94896 1.37597e-17
5810.41714 1.40266e-17
5811.88531 1.36500e-17
5813.36354 1.32148e-17
5814.83172 1.32684e-17
5816.29990 1.34063e-17
5817.76807 1.29519e-17
5819.23625 1.34017e-17
5820.71448 1.40824e-17
5822.18266 1.39736e-17
5823.65083 1.41107e-17
5825.11901 1.36138e-17
5826.58718 1.37462e-17
5828.05536 1.39795e-17
5829.53359 1.47983e-17
5831.00177 1.46047e-17
5832.46994 1.42285e-17
5833.93812 1.39124e-17
5835.40630 1.37523e-17
5836.88453 1.38964e-17
5838.35270 1.46915e-17
5839.82088 1.47864e-17
5841.28906 1.46109e-17
5842.75723 1.45457e-17
5844.22541 1.47033e-17
5845.70364 1.42194e-17
5847.17182 1.40224e-17
5848.63999 1.52545e-17
5850.10817 1.49697e-17
5851.57634 1.49053e-17
5853.05458 1.46980e-17
5854.52275 1.41422e-17
5855.99093 1.44982e-17
5857.45910 1.46313e-17
5858.92728 1.42318e-17
5860.39546 1.42232e-17
5861.87369 1.45632e-17
5863.34186 1.50204e-17
5864.81004 1.53103e-17
5866.27822 1.47723e-17
5867.74639 1.41615e-17
5869.22462 1.43329e-17
5870.69280 1.45100e-17
5872.16098 1.43750e-17
5873.62915 1.41690e-17
5875.09733 1.39840e-17
5876.56550 1.47638e-17
5878.04374 1.45719e-17
5879.51191 1.43911e-17
5880.98009 1.46264e-17
5882.44826 1.43953e-17
5883.91644 1.45650e-17
5885.39467 1.40805e-17
5886.86285 1.41812e-17
5888.33102 1.41136e-17
5889.79920 1.34624e-17
5891.26738 1.35082e-17
5892.73555 1.39328e-17
5894.21378 1.36927e-17
5895.68196 1.38443e-17
5897.15014 1.42536e-17
5898.61831 1.41454e-17
5900.08649 1.36528e-17
5901.56472 1.36443e-17
5903.03290 1.40252e-17
5904.50107 1.41859e-17
5905.96925 1.43504e-17
5907.43742 1.39850e-17
5908.90560 1.43165e-17
5910.38383 1.47310e-17
5911.85201 1.45318e-17
5913.32018 1.47430e-17
5914.78836 1.42620e-17
5916.25654 1.42025e-17
5917.73477 1.41543e-17
5919.20294 1.40531e-17
5920.67112 1.28451e-17
5922.13930 1.17783e-17
5923.60747 1.13768e-17
5925.07565 1.13354e-17
5926.55388 1.21636e-17
5928.02206 1.20387e-17
5929.49023 1.18557e-17
5930.95841 1.18378e-17
5932.42658 1.21667e-17
5933.90482 1.35724e-17
5935.37299 1.36421e-17
5936.84117 1.35372e-17
5938.30934 1.38884e-17
5939.77752 1.40322e-17
5941.24570 1.37611e-17
5942.72393 1.32587e-17
5944.19210 1.38303e-17
5945.66028 1.45087e-17
5947.12846 1.39387e-17
5948.59663 1.37679e-17
5950.07486 1.38250e-17
5951.54304 1.36035e-17
5953.01122 1.45282e-17
5954.47939 1.45439e-17
5955.94757 1.42114e-17
5957.41574 1.40693e-17
5958.89398 1.39767e-17
5960.36215 1.40848e-17
5961.83033 1.43335e-17
5963.29850 1.42213e-17
5964.76668 1.38623e-17
5966.24491 1.34172e-17
5967.71309 1.35878e-17
5969.18126 1.39545e-17
5970.64944 1.34906e-17
5972.11762 1.35855e-17
5973.58579 1.44071e-17
5975.06402 1.44360e-17
5976.53220 1.33636e-17
5978.00038 1.33000e-17
5979.46855 1.43356e-17
5980.93673 1.38000e-17
5982.41496 1.35480e-17
5983.88314 1.35944e-17
5985.35131 1.36415e-17
5986.81949 1.36342e-17
5988.28766 1.37179e-17
5989.75584 1.38162e-17
5991.23407 1.32860e-17
5992.70225 1.28560e-17
5994.17042 1.30988e-17
5995.63860 1.31862e-17
5997.10678 1.34515e-17
5998.58501 1.36338e-17
6000.05318 1.36283e-17
6001.52136 1.33643e-17
6002.98954 1.32313e-17
6004.45771 1.29558e-17
6005.92589 1.23167e-17
6007.40412 1.26529e-17
6008.87230 1.34054e-17
6010.34047 1.31378e-17
6011.80865 1.30982e-17
6013.27682 1.31304e-17
6014.74500 1.33663e-17
6016.22323 1.35148e-17
6017.69141 1.28257e-17
6019.15958 1.26031e-17
6020.62776 1.24627e-17
6022.09594 1.25903e-17
6023.57417 1.31845e-17
6025.04234 1.32456e-17
6026.51052 1.27449e-17
6027.97870 1.34096e-17
6029.44687 1.37184e-17
6030.91505 1.34938e-17
6032.39328 1.28312e-17
6033.86146 1.23669e-17
6035.32963 1.31081e-17
6036.79781 1.30314e-17
6038.26598 1.27923e-17
6039.74422 1.28169e-17
6041.21239 1.29538e-17
6042.68057 1.28062e-17
6044.14874 1.30825e-17
6045.61692 1.28374e-17
6047.09515 1.26747e-17
6048.56333 1.31135e-17
6050.03150 1.31329e-17
6051.49968 1.24661e-17
6052.96786 1.23868e-17
6054.43603 1.25654e-17
6055.91426 1.28230e-17
6057.38244 1.28757e-17
6058.85062 1.31761e-17
6060.31879 1.30403e-17
6061.78697 1.27770e-17
6063.25514 1.30086e-17
6064.73338 1.30002e-17
6066.20155 1.30533e-17
6067.66973 1.33625e-17
6069.13790 1.30541e-17
6070.60608 1.28753e-17
6072.08431 1.28101e-17
6073.55249 1.28652e-17
6075.02066 1.31479e-17
6076.48884 1.31754e-17
6077.95702 1.31189e-17
6079.43525 1.29248e-17
6080.90342 1.26735e-17
6082.37160 1.26504e-17
6083.83978 1.29309e-17
6085.30795 1.24386e-17
6086.77613 1.27603e-17
6088.25436 1.29643e-17
6089.72254 1.27806e-17
6091.19071 1.28440e-17
6092.65889 1.26242e-17
6094.12706 1.25928e-17
6095.59524 1.29669e-17
6097.07347 1.28646e-17
6098.54165 1.24818e-17
6100.00982 1.20177e-17
6101.47800 1.24743e-17
6102.94618 1.30323e-17
6104.42441 1.28439e-17
6105.89258 1.23385e-17
6107.36076 1.24152e-17
6108.82894 1.20975e-17
6110.29711 1.19437e-17
6111.76529 1.24316e-17
6113.24352 1.24513e-17
6114.71170 1.21235e-17
6116.17987 1.22829e-17
6117.64805 1.22901e-17
6119.11622 1.16400e-17
6120.59446 1.16289e-17
6122.06263 1.12483e-17
6123.53081 1.17121e-17
6124.99898 1.22388e-17
6126.46716 1.21206e-17
6127.93534 1.20294e-17
6129.41357 1.18307e-17
6130.88174 1.17104e-17
6132.34992 1.15222e-17
6133.81810 1.12490e-17
6135.28627 1.17526e-17
6136.76450 1.18953e-17
6138.23268 1.13521e-17
6139.70086 1.08490e-17
6141.16903 1.10604e-17
6142.63721 1.14154e-17
6144.10538 1.19164e-17
6145.58362 1.15778e-17
6147.05179 1.17712e-17
6148.51997 1.14944e-17
6149.98814 1.12035e-17
6151.45632 1.12550e-17
6152.93455 1.12830e-17
6154.40273 1.17195e-17
6155.87090 1.13123e-17
6157.33908 1.13296e-17
6158.80726 1.17123e-17
6160.27543 1.13343e-17
6161.75366 1.12973e-17
6163.22184 1.12246e-17
6164.69002 1.11313e-17
6166.15819 1.13613e-17
6167.62637 1.17554e-17
6169.10460 1.18843e-17
6170.57278 1.15545e-17
6172.04095 1.06834e-17
6173.50913 1.08433e-17
6174.97730 1.09208e-17
6176.44548 1.07496e-17
6177.92371 1.07332e-17
6179.39189 1.11019e-17
6180.86006 1.14618e-17
6182.32824 1.10706e-17
6183.79642 1.13711e-17
6185.27465 1.17366e-17
6186.74282 1.25304e-17
6188.21100 1.12455e-17
6189.67918 1.13244e-17
6191.14735 1.10340e-17
6192.61553 1.07614e-17
6194.09376 1.07760e-17
6195.56194 1.07790e-17
6197.03011 1.02328e-17
6198.49829 1.09261e-17
6199.96646 1.05236e-17
6201.44470 1.00043e-17
6202.91287 1.04952e-17
6204.38105 1.06028e-17
6205.84922 1.00472e-17
6207.31740 9.98961e-18
6208.78558 1.03347e-17
6210.26381 1.03099e-17
6211.73198 1.01239e-17
6213.20016 1.00860e-17
6214.66834 1.06954e-17
6216.13651 1.04518e-17
6217.61474 9.73947e-18
6219.08292 1.03202e-17
6220.55110 9.91836e-18
6222.01927 9.48379e-18
6223.48745 1.01447e-17
6224.95562 1.01809e-17
6226.43386 9.68077e-18
6227.90203 9.61282e-18
6229.37021 1.01970e-17
6230.83838 1.06013e-17
6232.30656 1.01967e-17
6233.77474 1.04932e-17
6235.25297 1.03710e-17
6236.72114 1.01175e-17
6238.18932 9.85415e-18
6239.65750 1.00462e-17
6241.12567 1.02590e-17
6242.60390 1.04851e-17
6244.07208 1.00927e-17
6245.54026 9.70410e-18
6247.00843 9.97867e-18
6248.47661 9.85155e-18
6249.95484 9.82418e-18
6251.42302 9.38345e-18
6252.89119 9.86990e-18
6254.35937 1.00516e-17
6255.82754 9.98186e-18
6257.29572 1.04432e-17
6258.77395 1.01920e-17
6260.24213 9.60650e-18
6261.71030 9.49412e-18
6263.17848 1.01119e-17
6264.64666 1.02449e-17
6266.12489 9.86131e-18
6267.59306 9.37322e-18
6269.06124 9.70000e-18
6270.52942 9.96067e-18
6271.99759 9.62481e-18
6273.46577 1.00101e-17
6274.94400 9.81590e-18
6276.41218 9.88660e-18
6277.88035 9.92380e-18
6279.34853 9.96100e-18
6280.81670 9.99820e-18
6282.29494 1.00354e-17
6283.76311 1.00726e-17
6285.23129 1.01098e-17
6286.69946 1.01470e-17
6288.16764 1.01842e-17
6289.63582 1.02214e-17
6291.11405 1.02585e-17
6292.58222 1.02957e-17
6294.05040 1.03329e-17
6295.51858 1.03326e-17
6296.98675 1.01779e-17
6298.46498 1.03465e-17
6299.93316 1.08523e-17
6301.40134 1.15870e-17
6302.86951 1.17084e-17
6304.33769 1.10129e-17
6305.80586 1.10701e-17
6307.28410 1.11926e-17
6308.75227 1.08539e-17
6310.22045 1.14442e-17
6311.68862 1.18921e-17
6313.15680 1.13661e-17
6314.62498 1.07349e-17
6316.10321 1.08717e-17
6317.57138 1.12780e-17
6319.03956 1.10742e-17
6320.50774 1.08803e-17
6321.97591 1.10219e-17
6323.45414 1.13292e-17
6324.92232 1.13896e-17
6326.39050 1.12871e-17
6327.85867 1.13246e-17
6329.32685 1.12786e-17
6330.79502 1.13847e-17
6332.27326 1.08824e-17
6333.74143 1.12619e-17
6335.20961 1.13651e-17
6336.67778 1.16717e-17
6338.14596 1.13838e-17
6339.62419 1.15347e-17
6341.09237 1.15692e-17
6342.56054 1.12615e-17
6344.02872 1.14454e-17
6345.49690 1.08447e-17
6346.97513 1.13081e-17
6348.44330 1.14737e-17
6349.91148 1.10028e-17
6351.37966 1.12173e-17
6352.84783 1.13568e-17
6354.31601 1.16130e-17
6355.79424 1.18007e-17
6357.26242 1.18972e-17
6358.73059 1.14801e-17
6360.19877 1.13356e-17
6361.66694 1.15175e-17
6363.14518 1.07465e-17
6364.61335 1.16510e-17
6366.08153 1.21869e-17
6367.54970 1.18710e-17
6369.01788 1.15069e-17
6370.48606 1.10363e-17
6371.96429 1.13789e-17
6373.43246 1.14251e-17
6374.90064 1.15953e-17
6376.36882 1.16560e-17
6377.83699 1.12124e-17
6379.31522 1.18322e-17
6380.78340 1.19082e-17
6382.25158 1.16131e-17
6383.71975 1.19965e-17
6385.18793 1.13061e-17
6386.65610 1.20376e-17
6388.13434 1.19878e-17
6389.60251 1.15984e-17
6391.07069 1.19587e-17
6392.53886 1.17926e-17
6394.00704 1.15701e-17
6395.47522 1.13159e-17
6396.95345 1.12567e-17
6398.42162 1.15128e-17
6399.88980 1.20016e-17
6401.35798 1.21491e-17
6402.82615 1.18710e-17
6404.30438 1.14708e-17
6405.77256 1.16650e-17
6407.24074 1.21155e-17
6408.70891 1.16854e-17
6410.17709 1.17913e-17
6411.64526 1.20667e-17
6413.12350 1.15617e-17
6414.59167 1.15176e-17
6416.05985 1.17862e-17
6417.52802 1.13632e-17
6418.99620 1.13563e-17
6420.47443 1.15523e-17
6421.94261 1.21019e-17
6423.41078 1.12805e-17
6424.87896 1.13097e-17
6426.34714 1.16673e-17
6427.81531 1.13850e-17
6429.29354 1.17005e-17
6430.76172 1.19778e-17
6432.22990 1.16589e-17
6433.69807 1.18653e-17
6435.16625 1.17608e-17
6436.64448 1.19642e-17
6438.11266 1.19590e-17
6439.58083 1.19280e-17
6441.04901 1.19514e-17
6442.51718 1.15967e-17
6443.98536 1.20555e-17
6445.46359 1.19475e-17
6446.93177 1.18740e-17
6448.39994 1.18693e-17
6449.86812 1.18199e-17
6451.33630 1.19776e-17
6452.81453 1.22013e-17
6454.28270 1.17888e-17
6455.75088 1.10444e-17
6457.21906 1.13009e-17
6458.68723 1.14377e-17
6460.16546 1.13194e-17
6461.63364 1.14578e-17
6463.10182 1.14267e-17
6464.56999 1.16778e-17
6466.03817 1.18850e-17
6467.50634 1.13651e-17
6468.98458 1.12258e-17
6470.45275 1.13172e-17
6471.92093 1.14211e-17
6473.38910 1.17899e-17
6474.85728 1.17799e-17
6476.32546 1.14194e-17
6477.80369 1.12570e-17
6479.27186 1.16519e-17
6480.74004 1.14561e-17
6482.20822 1.19028e-17
6483.67639 1.25548e-17
6485.15462 1.21195e-17
6486.62280 1.20446e-17
6488.09098 1.17529e-17
6489.55915 1.17930e-17
6491.02733 1.16112e-17
6492.49550 1.17024e-17
6493.97374 1.18315e-17
6495.44191 1.14364e-17
6496.91009 1.19102e-17
6498.37826 1.21519e-17
6499.84644 1.20767e-17
6501.32467 1.19569e-17
6502.79285 1.19945e-17
6504.26102 1.22887e-17
6505.72920 1.23860e-17
6507.19738 1.16162e-17
6508.66555 1.13873e-17
6510.14378 1.22337e-17
6511.61196 1.24637e-17
6513.08014 1.20942e-17
6514.54831 1.21036e-17
6516.01649 1.19174e-17
6517.49472 1.19801e-17
6518.96290 1.18103e-17
6520.43107 1.15167e-17
6521.89925 1.15767e-17
6523.36742 1.19037e-17
6524.83560 1.20524e-17
6526.31383 1.25249e-17
6527.78201 1.22119e-17
6529.25018 1.20653e-17
6530.71836 1.21268e-17
6532.18654 1.17444e-17
6533.66477 1.13781e-17
6535.13294 1.19745e-17
6536.60112 1.20819e-17
6538.06930 1.18614e-17
6539.53747 1.23219e-17
6541.00565 1.26178e-17
6542.48388 1.26078e-17
6543.95206 1.22034e-17
6545.42023 1.18674e-17
6546.88841 1.17495e-17
6548.35658 1.20752e-17
6549.83482 1.19174e-17
6551.30299 1.23646e-17
6552.77117 1.27305e-17
6554.23934 1.20635e-17
6555.70752 1.24675e-17
6557.17570 1.18292e-17
6558.65393 1.23883e-17
6560.12210 1.28746e-17
6561.59028 1.22584e-17
6563.05846 1.25640e-17
6564.52663 1.29496e-17
6566.00486 1.24420e-17
6567.47304 1.24888e-17
6568.94122 1.20587e-17
6570.40939 1.20759e-17
6571.87757 1.20930e-17
6573.34574 1.21101e-17
6574.82398 1.21272e-17
6576.29215 1.21443e-17
6577.76033 1.21614e-17
6579.22850 1.21785e-17
6580.69668 1.21956e-17
6582.17491 1.22127e-17
6583.64309 1.22298e-17
6585.11126 1.22469e-17
6586.57944 1.22640e-17
6588.04762 1.22811e-17
6589.51579 1.22982e-17
6590.99402 1.23153e-17
6592.46220 1.23324e-17
6593.93038 1.23495e-17
6595.39855 1.23666e-17
6596.86673 1.23836e-17
6598.34496 1.24007e-17
6599.81314 1.24178e-17
6601.28131 1.24349e-17
6602.74949 1.24520e-17
6604.21766 1.24691e-17
6605.68584 1.24862e-17
6607.16407 1.25033e-17
6608.63225 1.25204e-17
6610.10042 1.25375e-17
6611.56860 1.25545e-17
6613.03678 1.25716e-17
6614.50495 1.25887e-17
6615.98318 1.26058e-17
6617.45136 1.26229e-17
6618.91954 1.26399e-17
6620.38771 1.26570e-17
6621.85589 1.26741e-17
6623.33412 1.26912e-17
6624.80230 1.27083e-17
6626.27047 1.27253e-17
6627.73865 1.27424e-17
6629.20682 1.27595e-17
6630.68506 1.27766e-17
6632.15323 1.32662e-17
6633.62141 1.26883e-17
6635.08958 1.31674e-17
6636.55776 1.34779e-17
6638.02594 1.33720e-17
6639.50417 1.40603e-17
6640.97234 1.36498e-17
6642.44052 1.32580e-17
6643.90870 1.34926e-17
6645.37687 1.38226e-17
6646.84505 1.35078e-17
6648.32328 1.34128e-17
6649.79146 1.38291e-17
6651.25963 1.37760e-17
6652.72781 1.35492e-17
6654.19598 1.39409e-17
6655.67422 1.37531e-17
6657.14239 1.30698e-17
6658.61057 1.29900e-17
6660.07874 1.41179e-17
6661.54692 1.43811e-17
6663.02515 1.37885e-17
6664.49333 1.31330e-17
6665.96150 1.30056e-17
6667.42968 1.35808e-17
6668.89786 1.40299e-17
6670.36603 1.35631e-17
6671.84426 1.29342e-17
6673.31244 1.34084e-17
6674.78062 1.42454e-17
6676.24879 1.44268e-17
6677.71697 1.39083e-17
6679.19520 1.27728e-17
6680.66338 1.32609e-17
6682.13155 1.39294e-17
6683.59973 1.35772e-17
6685.06790 1.32536e-17
6686.53608 1.33333e-17
6688.01431 1.41419e-17
6689.48249 1.38101e-17
6690.95066 1.31232e-17
6692.41884 1.31253e-17
6693.88702 1.34036e-17
6695.35519 1.32856e-17
6696.83342 1.35955e-17
6698.30160 1.36114e-17
6699.76978 1.35505e-17
6701.23795 1.31774e-17
6702.70613 1.26446e-17
6704.18436 1.30323e-17
6705.65254 1.34182e-17
6707.12071 1.26034e-17
6708.58889 1.22271e-17
6710.05706 1.26877e-17
6711.52524 1.26705e-17
6713.00347 1.29966e-17
6714.47165 1.21887e-17
6715.93982 1.20516e-17
6717.40800 1.21868e-17
6718.87618 1.23499e-17
6720.35441 1.23928e-17
6721.82258 1.27200e-17
6723.29076 1.24259e-17
6724.75894 1.22838e-17
6726.22711 1.20649e-17
6727.69529 1.13437e-17
6729.17352 1.23559e-17
6730.64170 1.24172e-17
6732.10987 1.22667e-17
6733.57805 1.26742e-17
6735.04622 1.24668e-17
6736.52446 1.21720e-17
6737.99263 1.17630e-17
6739.46081 1.19388e-17
6740.92898 1.18008e-17
6742.39716 1.19169e-17
6743.86534 1.19135e-17
6745.34357 1.14456e-17
6746.81174 1.15406e-17
6748.27992 1.15969e-17
6749.74810 1.12538e-17
6751.21627 1.10706e-17
6752.69450 1.13305e-17
6754.16268 1.27699e-17
6755.63086 1.32599e-17
6757.09903 1.34481e-17
6758.56721 1.36152e-17
6760.04544 1.27420e-17
6761.51362 1.19086e-17
6762.98179 1.19072e-17
6764.44997 1.16854e-17
6765.91814 1.15423e-17
6767.38632 1.27440e-17
6768.86455 1.30608e-17
6770.33273 1.29536e-17
6771.80090 1.30327e-17
6773.26908 1.29654e-17
6774.73726 1.24486e-17
6776.20543 1.12931e-17
6777.68366 1.20657e-17
6779.15184 1.16935e-17
6780.62002 1.18330e-17
6782.08819 1.20008e-17
6783.55637 1.17522e-17
6785.03460 1.18653e-17
6786.50278 1.15878e-17
6787.97095 1.20845e-17
6789.43913 1.13894e-17
6790.90730 1.17075e-17
6792.37548 1.17723e-17
6793.85371 1.14782e-17
6795.32189 1.14326e-17
6796.79006 1.18808e-17
6798.25824 1.14801e-17
6799.72642 1.15433e-17
6801.20465 1.17638e-17
6802.67282 1.09663e-17
6804.14100 1.14315e-17
6805.60918 1.16537e-17
6807.07735 1.18419e-17
6808.54553 1.16554e-17
6810.02376 1.13538e-17
6811.49194 1.18650e-17
6812.96011 1.11499e-17
6814.42829 1.13888e-17
6815.89646 1.07820e-17
6817.37470 1.14432e-17
6818.84287 1.17893e-17
6820.31105 1.20752e-17
6821.77922 1.17453e-17
6823.24740 1.08120e-17
6824.71558 1.08511e-17
6826.19381 1.12853e-17
6827.66198 1.15873e-17
6829.13016 1.17528e-17
6830.59834 1.13344e-17
6832.06651 1.12190e-17
6833.54474 1.15361e-17
6835.01292 1.16595e-17
6836.48110 1.22449e-17
6837.94927 1.20796e-17
6839.41745 1.22381e-17
6840.88562 1.15784e-17
6842.36386 1.13607e-17
6843.83203 1.14996e-17
6845.30021 1.16904e-17
6846.76838 1.18642e-17
6848.23656 1.17982e-17
6849.71479 1.16818e-17
6851.18297 1.13755e-17
6852.65114 1.17703e-17
6854.11932 1.17866e-17
6855.58750 1.17163e-17
6857.05567 1.14064e-17
6858.53390 1.19211e-17
6860.00208 1.13724e-17
6861.47026 1.12619e-17
6862.93843 1.20745e-17
6864.40661 1.19784e-17
6865.88484 1.14083e-17
6867.35302 1.10276e-17
6868.82119 1.12870e-17
6870.28937 1.13630e-17
6871.75754 1.12777e-17
6873.22572 1.08593e-17
6874.70395 1.12617e-17
6876.17213 1.10723e-17
6877.64030 1.14053e-17
6879.10848 1.13721e-17
6880.57666 1.17211e-17
6882.05489 1.15892e-17
6883.52306 1.18449e-17
6884.99124 1.18345e-17
6886.45942 1.15440e-17
6887.92759 1.13518e-17
6889.39577 1.11459e-17
6890.87400 1.08207e-17
6892.34218 1.08176e-17
6893.81035 1.13992e-17
6895.27853 1.17028e-17
6896.74670 1.18482e-17
6898.22494 1.23243e-17
6899.69311 1.16668e-17
6901.16129 1.11476e-17
6902.62946 1.09759e-17
6904.09764 1.10033e-17
6905.56582 1.18464e-17
6907.04405 1.17787e-17
6908.51222 1.14524e-17
6909.98040 1.13178e-17
6911.44858 1.16242e-17
6912.91675 1.18199e-17
6914.39498 1.15386e-17
6915.86316 1.19162e-17
6917.33134 1.15801e-17
6918.79951 1.11245e-17
6920.26769 1.15115e-17
6921.73586 1.12148e-17
6923.21410 1.17591e-17
6924.68227 1.20293e-17
6926.15045 1.13033e-17
6927.61862 1.17470e-17
6929.08680 1.16462e-17
6930.56503 1.16766e-17
6932.03321 1.18177e-17
6933.50138 1.15712e-17
6934.96956 1.16150e-17
6936.43774 1.13522e-17
6937.90591 1.13368e-17
6939.38414 1.15968e-17
6940.85232 1.22413e-17
6942.32050 1.24047e-17
6943.78867 1.15463e-17
6945.25685 1.12816e-17
6946.72502 1.13506e-17
6948.20326 1.13968e-17
6949.67143 1.21313e-17
6951.13961 1.19054e-17
6952.60778 1.15672e-17
6954.07596 1.14522e-17
6955.55419 1.19084e-17
6957.02237 1.19007e-17
6958.49054 1.16021e-17
6959.95872 1.17427e-17
6961.42690 1.11831e-17
6962.89507 1.12649e-17
6964.37330 1.12902e-17
6965.84148 1.15255e-17
6967.30966 1.15772e-17
6968.77783 1.19743e-17
6970.24601 1.16775e-17
6971.72424 1.17367e-17
6973.19242 1.21482e-17
6974.66059 1.25301e-17
6976.12877 1.22829e-17
6977.59694 1.17445e-17
6979.07518 1.10830e-17
6980.54335 1.15534e-17
6982.01153 1.18452e-17
6983.47970 1.17747e-17
6984.94788 1.21327e-17
6986.41606 1.24505e-17
6987.89429 1.24002e-17
6989.36246 1.19686e-17
6990.83064 1.20337e-17
6992.29882 1.25162e-17
6993.76699 1.25281e-17
6995.24522 1.24497e-17
6996.71340 1.22510e-17
6998.18158 1.17774e-17
6999.64975 1.24239e-17
7001.11793 1.20602e-17
7002.58610 1.16860e-17
7004.06434 1.25536e-17
7005.53251 1.18795e-17
7007.00069 1.23529e-17
7008.46886 1.26691e-17
7009.93704 1.21443e-17
7011.41527 1.17780e-17
7012.88345 1.17653e-17
7014.35162 1.28243e-17
7015.81980 1.26578e-17
7017.28798 1.14661e-17
7018.75615 1.15897e-17
7020.23438 1.20141e-17
7021.70256 1.17406e-17
7023.17074 1.13401e-17
7024.63891 1.13914e-17
7026.10709 1.18406e-17
7027.57526 1.19771e-17
7029.05350 1.22002e-17
7030.52167 1.24751e-17
7031.98985 1.22988e-17
7033.45802 1.20893e-17
7034.92620 1.19096e-17
7036.40443 1.18197e-17
7037.87261 1.21700e-17
7039.34078 1.19141e-17
7040.80896 1.06855e-17
7042.27714 1.13909e-17
7043.74531 1.17278e-17
7045.22354 1.22937e-17
7046.69172 1.12790e-17
7048.15990 1.15710e-17
7049.62807 1.17130e-17
7051.09625 1.18079e-17
7052.57448 1.17925e-17
7054.04266 1.17520e-17
7055.51083 1.19665e-17
7056.97901 1.13418e-17
7058.44718 1.17317e-17
7059.91536 1.19338e-17
7061.39359 1.19955e-17
7062.86177 1.23670e-17
7064.32994 1.15658e-17
7065.79812 1.13858e-17
7067.26630 1.17750e-17
7068.74453 1.17090e-17
7070.21270 1.13449e-17
7071.68088 1.19806e-17
7073.14906 1.15540e-17
7074.61723 1.12735e-17
7076.08541 1.18856e-17
7077.56364 1.15726e-17
7079.03182 1.17643e-17
7080.49999 1.20564e-17
7081.96817 1.12061e-17
7083.43634 1.16339e-17
7084.91458 1.22619e-17
7086.38275 1.16503e-17
7087.85093 1.22429e-17
7089.31910 1.15868e-17
7090.78728 1.24234e-17
7092.25546 1.21164e-17
7093.73369 1.15955e-17
7095.20186 1.15904e-17
7096.67004 1.23245e-17
7098.13822 1.22784e-17
7099.60639 1.19581e-17
7101.08462 1.15117e-17
7102.55280 1.16968e-17
7104.02098 1.15858e-17
7105.48915 1.16047e-17
7106.95733 1.12936e-17
7108.42550 1.15753e-17
7109.90374 1.12331e-17
7111.37191 1.17788e-17
7112.84009 1.20981e-17
7114.30826 1.20373e-17
7115.77644 1.24424e-17
7117.25467 1.17356e-17
7118.72285 1.16154e-17
7120.19102 1.19345e-17
7121.65920 1.18321e-17
7123.12738 1.17850e-17
7124.59555 1.16135e-17
7126.07378 1.18838e-17
7127.54196 1.19000e-17
7129.01014 1.12527e-17
7130.47831 1.20914e-17
7131.94649 1.26795e-17
7133.42472 1.16283e-17
7134.89290 1.23970e-17
7136.36107 1.25296e-17
7137.82925 1.17027e-17
7139.29742 1.21515e-17
7140.76560 1.22883e-17
7142.24383 1.21441e-17
7143.71201 1.17094e-17
7145.18018 1.18533e-17
7146.64836 1.16979e-17
7148.11654 1.10861e-17
7149.59477 1.18979e-17
7151.06294 1.23048e-17
7152.53112 1.16971e-17
7153.99930 1.18683e-17
7155.46747 1.18044e-17
7156.93565 1.21575e-17
7158.41388 1.20712e-17
7159.88206 1.16230e-17
7161.35023 1.12170e-17
7162.81841 1.14666e-17
7164.28658 1.18320e-17
7165.75476 1.24640e-17
7167.23299 1.25141e-17
7168.70117 1.19325e-17
7170.16934 1.15032e-17
7171.63752 1.17262e-17
7173.10570 1.16078e-17
7174.58393 1.15734e-17
7176.05210 1.14394e-17
7177.52028 1.15908e-17
7178.98846 1.17837e-17
7180.45663 1.21252e-17
7181.93486 1.18530e-17
7183.40304 1.14962e-17
7184.87122 1.16486e-17
7186.33939 1.16920e-17
7187.80757 1.20634e-17
7189.27574 1.17035e-17
7190.75398 1.14038e-17
7192.22215 1.12924e-17
7193.69033 1.16192e-17
7195.15850 1.21528e-17
7196.62668 1.22112e-17
7198.10491 1.23267e-17
7199.57309 1.20593e-17
7201.04126 1.21051e-17
7202.50944 1.13407e-17
7203.97762 1.08514e-17
7205.44579 1.11713e-17
7206.92402 1.15753e-17
7208.39220 1.17345e-17
7209.86038 1.13948e-17
7211.32855 1.14401e-17
7212.79673 1.12017e-17
7214.27496 1.19142e-17
7215.74314 1.22136e-17
7217.21131 1.15465e-17
7218.67949 1.11860e-17
7220.14766 1.10336e-17
7221.61584 1.18927e-17
7223.09407 1.23979e-17
7224.56225 1.21372e-17
7226.03042 1.21965e-17
7227.49860 1.17677e-17
7228.96678 1.13173e-17
7230.44501 1.16282e-17
7231.91318 1.22197e-17
7233.38136 1.19250e-17
7234.84954 1.14919e-17
7236.31771 1.17666e-17
7237.78589 1.19732e-17
7239.26412 1.16775e-17
7240.73230 1.14451e-17
7242.20047 1.20201e-17
7243.66865 1.18097e-17
7245.13682 1.12568e-17
7246.60500 1.18200e-17
7248.08323 1.21780e-17
7249.55141 1.17215e-17
7251.01958 1.15794e-17
7252.48776 1.20802e-17
7253.95594 1.22879e-17
7255.43417 1.19631e-17
7256.90234 1.17079e-17
7258.37052 1.20132e-17
7259.83870 1.20272e-17
7261.30687 1.20959e-17
7262.77505 1.20445e-17
7264.25328 1.17324e-17
7265.72146 1.19468e-17
7267.18963 1.22117e-17
7268.65781 1.17385e-17
7270.12598 1.14434e-17
7271.60422 1.16949e-17
7273.07239 1.19262e-17
7274.54057 1.29234e-17
7276.00874 1.28023e-17
7277.47692 1.20025e-17
7278.95515 1.26052e-17
7280.42333 1.23682e-17
7281.89150 1.18762e-17
7283.35968 1.21471e-17
7284.82786 1.14463e-17
7286.29603 1.11421e-17
7287.77426 1.14693e-17
7289.24244 1.13140e-17
7290.71062 1.18810e-17
7292.17879 1.19643e-17
7293.64697 1.17062e-17
7295.12520 1.17952e-17
7296.59338 1.05993e-17
7298.06155 1.12700e-17
7299.52973 1.20511e-17
7300.99790 1.18602e-17
7302.46608 1.18656e-17
7303.94431 1.11405e-17
7305.41249 1.16004e-17
7306.88066 1.24698e-17
7308.34884 1.19760e-17
7309.81702 1.15734e-17
7311.29525 1.17523e-17
7312.76342 1.12624e-17
7314.23160 1.15812e-17
7315.69978 1.15504e-17
7317.16795 1.08347e-17
7318.63613 1.16740e-17
7320.11436 1.19262e-17
7321.58254 1.13776e-17
7323.05071 1.15762e-17
7324.51889 1.14966e-17
7325.98706 1.09018e-17
7327.45524 1.09903e-17
7328.93347 1.13421e-17
7330.40165 1.15112e-17
7331.86982 1.12967e-17
7333.33800 1.15024e-17
7334.80618 1.13450e-17
7336.28441 1.14002e-17
7337.75258 1.18965e-17
7339.22076 1.21884e-17
7340.68894 1.10329e-17
7342.15711 1.18989e-17
7343.62529 1.17053e-17
7345.10352 1.12967e-17
7346.57170 1.12945e-17
7348.03987 1.14699e-17
7349.50805 1.13261e-17
7350.97622 1.09878e-17
7352.45446 1.14518e-17
7353.92263 1.14718e-17
7355.39081 1.18678e-17
7356.85898 1.22872e-17
7358.32716 1.16132e-17
7359.79534 1.17490e-17
7361.27357 1.09379e-17
7362.74174 1.16887e-17
7364.20992 1.21508e-17
7365.67810 1.19402e-17
7367.14627 1.22065e-17
7368.62450 1.21204e-17
7370.09268 1.21626e-17
7371.56086 1.21856e-17
7373.02903 1.13009e-17
7374.49721 1.18017e-17
7375.97544 1.20271e-17
7377.44362 1.17877e-17
7378.91179 1.17072e-17
7380.37997 1.17797e-17
7381.84814 1.23967e-17
7383.31632 1.21242e-17
7384.79455 1.13218e-17
7386.26273 1.13382e-17
7387.73090 1.10333e-17
7389.19908 1.10898e-17
7390.66726 1.19144e-17
7392.14549 1.15797e-17
7393.61366 1.18898e-17
7395.08184 1.17459e-17
7396.55002 1.09063e-17
7398.01819 1.09219e-17
7399.48637 1.16745e-17
7400.96460 1.19456e-17
7402.43278 1.06167e-17
7403.90095 1.18667e-17
7405.36913 1.05313e-17
7406.83730 9.83784e-18
7408.30548 1.01763e-17
7409.78371 1.03452e-17
7411.25189 1.11468e-17
7412.72006 1.14983e-17
7414.18824 1.07416e-17
7415.65642 1.08026e-17
7416.84125 1.08026e-17
7418.50888 1.04961e-17
7420.16647 1.01897e-17
7421.82406 1.03896e-17
7423.48165 1.05895e-17
7425.14929 1.06813e-17
7426.80688 1.07731e-17
7428.46447 1.07383e-17
7430.13211 1.07034e-17
7431.78970 1.04505e-17
7433.44729 1.01976e-17
7435.10488 1.01132e-17
7436.77251 1.00289e-17
7438.43010 1.02482e-17
7440.08769 1.04673e-17
7441.74528 1.03298e-17
7443.41292 1.01924e-17
7445.07051 1.02039e-17
7446.72810 1.02154e-17
7448.39573 1.03350e-17
7450.05332 1.04546e-17
7451.71091 1.04517e-17
7453.36850 1.04488e-17
7455.03614 1.04811e-17
7456.69373 1.05134e-17
7458.35132 1.06371e-17
7460.00891 1.07609e-17
7461.67655 1.07801e-17
7463.33414 1.07993e-17
7464.99173 1.07378e-17
7466.65936 1.06761e-17
7468.31695 1.02974e-17
7469.97454 9.91870e-18
7471.63213 9.88404e-18
7473.29977 9.84946e-18
7474.95736 1.00294e-17
7476.61495 1.02093e-17
7478.28258 1.01982e-17
7479.94017 1.01870e-17
7481.59776 9.98071e-18
7483.25535 9.77456e-18
7484.92299 9.97415e-18
7486.58058 1.01737e-17
7488.23817 1.02581e-17
7489.89576 1.03425e-17
7491.56340 1.04428e-17
7493.22099 1.05430e-17
7494.87858 1.03980e-17
7496.54621 1.02529e-17
7498.20380 1.01265e-17
7499.86139 1.00001e-17
7501.51898 9.75980e-18
7503.18662 9.51960e-18
7504.84421 9.58925e-18
7506.50180 9.65888e-18
7508.16943 9.70747e-18
7509.82702 9.75603e-18
7511.48461 9.70751e-18
7513.14220 9.65907e-18
7514.80984 9.88581e-18
7516.46743 1.01124e-17
7518.12502 9.84580e-18
7519.78261 9.57931e-18
7521.45025 9.67743e-18
7523.10784 9.77554e-18
7524.76543 9.86611e-18
7526.43306 9.95666e-18
7528.09065 9.92182e-18
7529.74824 9.88693e-18
7531.40583 9.64435e-18
7533.07347 9.40190e-18
7534.73106 9.56979e-18
7536.38865 9.73762e-18
7538.04624 9.78440e-18
7539.71387 9.83113e-18
7541.37146 9.79925e-18
7543.02905 9.76729e-18
7544.69669 9.52633e-18
7546.35428 9.28548e-18
7548.01187 9.42805e-18
7549.66946 9.57060e-18
7551.33710 9.55525e-18
7552.99469 9.53990e-18
7554.65228 9.52456e-18
7556.30987 9.50922e-18
7557.97750 9.49388e-18
7559.63509 9.47854e-18
7561.29268 9.46320e-18
7562.96032 9.44787e-18
7564.61791 9.43252e-18
7566.27550 9.41719e-18
7567.93309 9.40184e-18
7569.60072 9.38651e-18
7571.25831 9.37116e-18
7572.91590 9.35583e-18
7574.58354 9.34050e-18
7576.24113 9.32515e-18
7577.89872 9.30982e-18
7579.55631 9.29448e-18
7581.22395 9.27915e-18
7582.88154 9.26382e-18
7584.53913 9.24849e-18
7586.19672 9.23314e-18
7587.86435 9.21782e-18
7589.52194 9.20248e-18
7591.17953 9.18714e-18
7592.84717 9.17182e-18
7594.50476 9.15648e-18
7596.16235 9.14116e-18
7597.81994 9.12583e-18
7599.48757 9.11049e-18
7601.14516 9.09516e-18
7602.80275 9.07983e-18
7604.46034 9.06450e-18
7606.12798 9.04918e-18
7607.78557 9.03385e-18
7609.44316 9.01853e-18
7611.11080 9.00320e-18
7612.76839 8.98786e-18
7614.42598 8.97255e-18
7616.08357 8.95721e-18
7617.75120 8.94189e-18
7619.40879 8.92656e-18
7621.06638 8.91124e-18
7622.72397 8.89591e-18
7624.39161 8.88059e-18
7626.04920 8.86526e-18
7627.70679 8.84994e-18
7629.37442 8.83462e-18
7631.03201 8.81931e-18
7632.68960 8.80397e-18
7634.34719 8.78867e-18
7636.01483 8.77334e-18
7637.67242 8.75802e-18
7639.33001 8.74270e-18
7640.99765 8.72738e-18
7642.65524 8.71206e-18
7644.31283 8.69675e-18
7645.97042 8.68143e-18
7647.63805 8.66611e-18
7649.29564 8.65079e-18
7650.95323 8.63547e-18
7652.61082 8.62015e-18
7654.27846 8.60484e-18
7655.93605 8.58953e-18
7657.59364 8.57421e-18
7659.26127 8.55890e-18
7660.91886 8.54359e-18
7662.57645 8.52827e-18
7664.23404 8.51296e-18
7665.90168 8.49765e-18
7667.55927 8.48233e-18
7669.21686 8.46701e-18
7670.87445 8.45171e-18
7672.54209 8.43641e-18
7674.19968 8.42109e-18
7675.85727 8.40578e-18
7677.52490 8.39048e-18
7679.18249 8.37516e-18
7680.84008 8.35986e-18
7682.49767 8.17238e-18
7684.16531 8.15313e-18
7685.82290 8.13400e-18
7687.48049 8.54324e-18
7689.13808 8.95229e-18
7690.80571 8.79124e-18
7692.46330 8.63023e-18
7694.12089 8.65516e-18
7695.78853 8.68005e-18
7697.44612 8.58786e-18
7699.10371 8.49578e-18
7700.76130 8.77305e-18
7702.42894 9.05014e-18
7704.08653 8.71673e-18
7705.74412 8.38348e-18
7707.40171 8.59848e-18
7709.06934 8.81339e-18
7710.72693 8.77829e-18
7712.38452 8.74324e-18
7714.05216 8.86789e-18
7715.70975 8.99243e-18
7717.36734 8.80372e-18
7719.02493 8.61510e-18
7720.69256 8.76287e-18
7722.35015 8.91053e-18
7724.00774 8.67538e-18
7725.67538 8.44024e-18
7727.33297 8.25656e-18
7728.99056 8.07301e-18
7730.64815 8.32305e-18
7732.31579 8.57302e-18
7733.97338 8.64555e-18
7735.63097 8.71801e-18
7737.28856 8.60061e-18
7738.95619 8.48324e-18
7740.61378 8.56203e-18
7742.27137 8.64081e-18
7743.93901 8.66909e-18
7745.59660 8.69743e-18
7747.25419 8.89384e-18
7748.91178 9.09008e-18
7750.57941 8.76070e-18
7752.23700 8.43140e-18
7753.89459 8.31477e-18
7755.55218 8.19826e-18
7757.21982 8.39917e-18
7758.87741 8.60017e-18
7760.53500 9.06441e-18
7762.20264 9.52845e-18
7763.86023 9.34190e-18
7765.51782 9.15543e-18
7767.17541 9.19471e-18
7768.84304 9.23395e-18
7770.50063 9.18572e-18
7772.15822 9.13748e-18
7773.81581 9.06187e-18
7775.48345 8.98625e-18
7777.14104 8.88910e-18
7778.79863 8.79203e-18
7780.46626 8.93047e-18
7782.12385 9.06881e-18
7783.78144 8.88678e-18
7785.43903 8.70489e-18
7787.10667 8.93744e-18
7788.76426 9.16994e-18
7790.42185 9.31699e-18
7792.07944 9.46396e-18
7793.74708 9.37153e-18
7795.40467 9.27915e-18
7797.06226 9.33822e-18
7798.72989 9.39731e-18
7800.38748 9.45520e-18
7802.04507 9.51304e-18
7803.70266 9.43566e-18
7805.37030 9.35831e-18
7807.02789 9.40471e-18
7808.68548 9.45105e-18
7810.35311 9.32122e-18
7812.01070 9.19154e-18
7813.66829 9.57295e-18
7815.32588 9.95416e-18
7816.99352 9.72523e-18
7818.65111 9.49635e-18
7820.30870 9.42670e-18
7821.96629 9.35702e-18
7823.63393 9.14472e-18
7825.29152 8.93250e-18
7826.94911 8.93515e-18
7828.61674 8.93779e-18
7830.27433 8.88687e-18
7831.93192 8.83600e-18
7833.58951 8.98629e-18
7835.25715 9.13659e-18
7836.91474 9.32305e-18
7838.57233 9.50932e-18
7840.22992 9.13040e-18
7841.89755 8.75166e-18
7843.55514 8.92808e-18
7845.21273 9.10443e-18
7846.88037 9.08393e-18
7848.53796 9.06348e-18
7850.19555 9.26430e-18
7851.85314 9.46520e-18
7853.52078 9.97080e-18
7855.17837 1.04762e-17
7856.83596 1.01826e-17
7858.50359 9.88916e-18
7860.16118 9.64761e-18
7861.81877 9.40624e-18
7863.47636 9.69266e-18
7865.14400 9.97892e-18
7866.80159 9.75089e-18
7868.45918 9.52298e-18
7870.11677 9.64351e-18
7871.78440 9.76394e-18
7873.44199 9.60010e-18
7875.09958 9.43629e-18
7876.76722 9.42964e-18
7878.42481 9.42302e-18
7880.08240 9.55083e-18
7881.73999 9.67855e-18
7883.40763 9.48172e-18
7885.06522 9.28507e-18
7886.72281 9.63540e-18
7888.38040 9.98559e-18
7890.04803 9.87489e-18
7891.70562 9.76413e-18
7893.36321 9.44344e-18
7895.03085 9.12285e-18
7896.68844 9.06017e-18
7898.34603 8.99749e-18
7900.00362 8.95879e-18
7901.67125 8.92017e-18
7903.32884 9.14069e-18
7904.98643 9.36114e-18
7906.64402 9.36349e-18
7908.31166 9.36582e-18
7909.96925 9.25688e-18
7911.62684 9.14790e-18
7913.29448 8.90429e-18
7914.95207 8.66086e-18
7916.60966 8.97794e-18
7918.26725 9.29487e-18
7919.93488 9.12242e-18
7921.59247 8.95013e-18
7923.25006 9.23598e-18
7924.90765 9.52173e-18
7926.57529 9.50045e-18
7928.23288 9.47910e-18
7929.89047 9.23479e-18
7931.55810 8.99050e-18
7933.21569 8.85805e-18
7934.87328 8.72568e-18
7936.53087 8.86713e-18
7938.19851 9.00848e-18
7939.85610 8.80626e-18
7941.51369 8.60414e-18
7943.18133 8.72698e-18
7944.83892 8.84991e-18
7946.49651 9.24616e-18
7948.15410 9.64218e-18
7949.82173 9.33179e-18
7951.47932 9.02140e-18
7953.13691 8.68002e-18
7954.79450 8.33889e-18
7956.46214 8.68465e-18
7958.11973 9.03017e-18
7959.77732 8.62512e-18
7961.44495 8.22029e-18
7963.10254 8.49657e-18
7964.76013 8.77275e-18
7966.41772 8.72450e-18
7968.08536 8.67626e-18
7969.74295 8.70474e-18
7971.40054 8.73323e-18
7973.05813 8.83556e-18
7974.72577 8.93778e-18
7976.38336 8.66567e-18
7978.04095 8.39362e-18
7979.70858 8.25996e-18
7981.36617 8.12645e-18
7983.02376 8.43981e-18
7984.68135 8.75309e-18
7986.34899 8.84672e-18
7988.00658 8.94025e-18
7989.66417 8.78261e-18
7991.33180 8.62505e-18
7992.98939 8.78589e-18
7994.64698 8.94652e-18
7996.30457 8.54911e-18
7997.97221 8.15195e-18
7999.62980 8.45425e-18
8001.28739 8.75637e-18
8002.94498 8.53117e-18
8004.61262 8.30604e-18
8006.27021 8.23193e-18
8007.92780 8.15798e-18
8009.59543 8.53005e-18
8011.25302 8.90187e-18
8012.91061 8.59355e-18
8014.56820 8.28534e-18
8016.23584 8.31615e-18
8017.89343 8.34698e-18
8019.55102 8.48448e-18
8021.20861 8.62193e-18
8022.87624 8.62924e-18
8024.53383 8.63647e-18
8026.19142 8.43618e-18
8027.85906 8.23592e-18
8029.51665 8.15770e-18
8031.17424 8.07946e-18
8032.83183 7.93109e-18
8034.49947 7.78285e-18
8036.15706 8.04192e-18
8037.81465 8.30090e-18
8039.47224 8.29931e-18
8041.13987 8.29769e-18
8042.79746 8.19670e-18
8044.45505 8.09571e-18
8046.12269 7.98474e-18
8047.78028 7.87385e-18
8049.43787 8.05894e-18
8051.09546 8.24396e-18
8052.76309 8.18751e-18
8054.42068 8.13102e-18
8056.07827 7.94416e-18
8057.73586 7.75741e-18
8059.40350 7.86732e-18
8061.06109 7.97721e-18
8062.71868 8.01136e-18
8064.38632 8.04542e-18
8066.04391 7.83342e-18
8067.70150 7.62147e-18
8069.35909 7.55083e-18
8071.02672 7.48026e-18
8072.68431 7.60439e-18
8074.34190 7.72854e-18
8076.00954 7.85038e-18
8077.66713 7.97217e-18
8079.32472 7.95583e-18
8080.98231 7.93941e-18
8082.64994 7.65834e-18
8084.30753 7.37730e-18
8085.96512 7.23965e-18
8087.62271 7.10206e-18
8089.29035 7.18605e-18
8090.94794 7.27005e-18
8092.60553 7.36255e-18
8094.27317 7.45505e-18
8095.93076 7.45990e-18
8097.58835 7.46476e-18
8099.24594 7.45797e-18
8100.91357 7.45121e-18
8102.57116 7.51092e-18
8104.22875 7.57056e-18
8105.88634 7.43896e-18
8107.55398 7.30744e-18
8109.21157 7.42011e-18
8110.86916 7.53264e-18
8112.53679 7.25479e-18
8114.19438 6.97711e-18
8115.85197 7.21201e-18
8117.50956 7.44692e-18
8119.17720 7.74007e-18
8120.83479 8.03302e-18
8122.49238 7.76595e-18
8124.16002 7.49886e-18
8125.81761 7.11296e-18
8127.47520 6.72724e-18
8129.13279 6.82460e-18
8130.80042 6.92199e-18
8132.45801 7.14408e-18
8134.11560 7.36609e-18
8135.77319 7.39603e-18
8137.44083 7.42597e-18
8139.09842 7.46997e-18
8140.75601 7.51392e-18
8142.41360 7.43513e-18
8144.08123 7.35629e-18
8145.73882 7.09317e-18
8147.39641 6.83023e-18
8149.06405 7.09959e-18
8150.72164 7.36881e-18
8152.37923 7.31606e-18
8154.03682 7.26323e-18
8155.70446 6.99256e-18
8157.36205 6.72204e-18
8159.01964 6.89619e-18
8160.68727 7.07030e-18
8162.34486 7.16059e-18
8164.00245 7.25077e-18
8165.66004 7.03481e-18
8167.32768 6.81903e-18
8168.98527 7.17193e-18
8170.64286 7.52469e-18
8172.30045 7.51121e-18
8173.96808 7.49752e-18
8175.62567 6.89917e-18
8177.28326 6.30109e-18
8178.95090 6.47999e-18
8180.60849 6.65891e-18
8182.26608 6.89533e-18
8183.92367 7.13169e-18
8185.59131 7.24217e-18
8187.24890 7.35246e-18
8188.90649 6.90245e-18
8190.56408 6.45263e-18
8192.23171 6.52138e-18
8193.88930 6.59022e-18
8195.54689 6.92960e-18
8197.21453 7.26884e-18
8198.87212 7.26864e-18
8200.52971 7.26839e-18
8202.18730 7.12215e-18
8203.85493 6.97596e-18
8205.51252 7.00389e-18
8207.17011 7.03181e-18
8208.82770 7.06576e-18
8210.49534 7.09956e-18
8212.15293 6.71525e-18
8213.81052 6.33113e-18
8215.47816 6.50980e-18
8217.13575 6.68835e-18
8218.79334 6.52510e-18
8220.45093 6.36200e-18
8222.11856 6.62275e-18
8223.77615 6.88336e-18
8225.43374 6.70491e-18
8227.09133 6.52658e-18
8228.75897 6.67083e-18
8230.41656 6.81500e-18
8232.07415 6.68905e-18
8233.74178 6.56314e-18
8235.39937 6.55807e-18
8237.05696 6.55297e-18
8238.71455 6.41430e-18
8240.38219 6.27565e-18
8242.03978 6.15025e-18
8243.69737 6.02503e-18
8245.36501 6.39499e-18
8247.02260 6.76480e-18
8248.68019 6.67569e-18
8250.33778 6.58662e-18
8252.00541 6.61239e-18
8253.66300 6.63798e-18
8255.32059 6.15981e-18
8256.97818 5.68196e-18
8258.64582 6.07920e-18
8260.30341 6.47632e-18
8261.96100 6.58450e-18
8263.62863 6.69260e-18
8265.28622 6.56626e-18
8266.94381 6.43991e-18
8268.60140 6.22888e-18
8270.26904 6.01793e-18
8271.92663 5.99768e-18
8273.58422 5.97747e-18
8275.25186 6.04565e-18
8276.90945 6.11377e-18
8278.56704 6.01648e-18
8280.22463 5.91919e-18
8281.89226 5.78379e-18
8283.54985 5.64850e-18
8285.20744 5.80779e-18
8286.86503 5.96697e-18
8288.53267 5.86398e-18
8290.19026 5.76105e-18
8291.84785 5.87346e-18
8293.51548 5.98587e-18
8295.17307 6.08187e-18
8296.83066 6.17782e-18
8298.48825 6.12517e-18
8300.15589 6.07243e-18
8301.81348 5.78272e-18
8303.47107 5.49313e-18
8305.12866 5.56871e-18
8306.79630 5.64424e-18
8308.45389 5.59450e-18
8310.11148 5.54474e-18
8311.77911 5.43852e-18
8313.43670 5.33235e-18
8315.09429 5.43680e-18
8316.75188 5.54124e-18
8318.41952 5.70868e-18
8320.07711 5.87603e-18
8321.73470 5.76415e-18
8323.40233 5.65221e-18
8325.05992 5.33056e-18
8326.71751 5.00911e-18
8328.37510 5.13327e-18
8330.04274 5.25745e-18
8331.70033 5.37232e-18
8333.35792 5.48715e-18
8335.01551 5.50696e-18
8336.68315 5.52678e-18
8338.34074 5.56859e-18
8339.99833 5.61041e-18
8341.65592 5.70059e-18
8343.32355 5.79084e-18
8344.98114 6.04527e-18
8346.63873 6.29956e-18
8348.30637 6.14137e-18
8349.96396 5.98312e-18
8351.62155 5.65534e-18
8353.27914 5.32771e-18
8354.94677 5.40331e-18
8356.60436 5.47892e-18
8358.26195 5.64873e-18
8359.92959 5.81846e-18
8361.58718 5.78787e-18
8363.24477 5.75722e-18
8364.90236 5.58877e-18
8366.57000 5.42034e-18
8368.22759 5.29984e-18
8369.88518 5.17947e-18
8371.54277 5.41783e-18
8373.21040 5.65598e-18
8374.86799 5.29597e-18
8376.52558 4.93619e-18
8378.19322 5.27498e-18
8379.85081 5.61360e-18
8381.50840 5.43863e-18
8383.16599 5.26374e-18
8384.83362 5.36197e-18
8386.49121 5.46007e-18
8388.14880 5.23042e-18
8389.81644 5.00093e-18
8391.47403 5.23556e-18
8393.13162 5.47018e-18
8394.78921 5.67854e-18
8396.45685 5.88679e-18
8398.11444 5.76802e-18
8399.77203 5.64927e-18
8401.42962 5.55047e-18
8403.09725 5.45175e-18
8404.75484 5.54881e-18
8406.41243 5.64594e-18
8408.08007 5.92511e-18
8409.73766 6.20409e-18
8411.39525 5.95576e-18
8413.05284 5.70752e-18
8414.72047 5.72465e-18
8416.37806 5.74172e-18
8418.03565 5.58310e-18
8419.69324 5.42453e-18
8421.36088 5.38869e-18
8423.01847 5.35288e-18
8424.67606 5.42219e-18
8426.34370 5.49137e-18
8428.00129 5.16016e-18
8429.65888 4.82918e-18
8431.31647 5.10012e-18
8432.98410 5.37104e-18
8434.64169 5.57469e-18
8436.29928 5.77824e-18
8437.95687 5.73330e-18
8439.62451 5.68835e-18
8441.28210 5.60939e-18
8442.93969 5.53034e-18
8444.60732 5.18580e-18
8446.26491 4.84143e-18
8447.92250 4.97248e-18
8449.58009 5.10357e-18
8451.24773 5.40287e-18
8452.90532 5.70208e-18
8454.56291 5.79555e-18
8456.22050 5.88891e-18
8457.88814 5.66918e-18
8459.54573 5.44950e-18
8461.20332 5.34397e-18
8462.87095 5.23850e-18
8464.52854 5.32700e-18
8466.18613 5.41546e-18
8467.84372 5.43549e-18
8469.51136 5.45551e-18
8471.16895 5.43910e-18
8472.82654 5.42266e-18
8474.48413 5.37886e-18
8476.15176 5.33514e-18
8477.80935 5.45084e-18
8479.46694 5.56663e-18
8481.13458 5.90184e-18
8482.79217 6.23683e-18
8484.44976 5.96537e-18
8486.10735 5.69401e-18
8487.77499 5.67932e-18
8489.43258 5.66476e-18
8491.09017 6.01003e-18
8492.75780 6.35508e-18
8494.41539 6.07612e-18
8496.07298 5.79727e-18
8497.73057 5.86020e-18
8499.39821 5.92311e-18
8501.05580 5.93949e-18
8502.71339 5.95587e-18
8504.37098 5.94929e-18
8506.03861 5.94268e-18
8507.69620 5.91161e-18
8509.35379 5.88056e-18
8511.01138 5.95231e-18
8512.67902 6.02400e-18
8514.33661 5.95320e-18
8515.99420 5.88249e-18
8517.66184 6.05727e-18
8519.31943 6.23193e-18
8520.97702 6.06735e-18
8522.63461 5.90278e-18
8524.30224 5.77424e-18
8525.95983 5.64586e-18
8527.61742 5.95806e-18
8529.28506 6.27020e-18
8530.94265 6.48633e-18
8532.60024 6.70228e-18
8534.25783 6.36878e-18
8535.92546 6.03552e-18
8537.58305 6.34899e-18
8539.24064 6.66229e-18
8540.89823 6.47141e-18
8542.56587 6.28062e-18
8544.22346 6.26455e-18
8545.88105 6.24850e-18
8547.54869 6.26702e-18
8549.20628 6.28565e-18
8550.86387 6.58868e-18
8552.52146 6.89159e-18
8554.18909 6.88743e-18
8555.84668 6.88334e-18
8557.50427 7.05027e-18
8559.17191 7.21707e-18
8560.82950 7.06008e-18
8562.48709 6.90312e-18
8564.14468 6.78028e-18
8565.81231 6.65756e-18
8567.46990 6.86646e-18
8569.12749 7.07528e-18
8570.78508 7.05694e-18
8572.45272 7.03853e-18
8574.11031 6.82023e-18
8575.76790 6.60194e-18
8577.43554 6.46571e-18
8579.09313 6.32957e-18
8580.75072 6.50073e-18
8582.40831 6.67177e-18
8584.07594 6.59850e-18
8585.73353 6.52530e-18
8587.39112 6.68793e-18
8589.04871 6.85056e-18
8590.71635 7.03931e-18
8592.37394 7.22791e-18
8594.03153 7.03065e-18
8595.69916 6.83343e-18
8597.35675 6.72241e-18
8599.01434 6.61146e-18
8600.67193 6.66514e-18
8602.33957 6.71892e-18
8603.99716 7.04247e-18
8605.65475 7.36585e-18
8607.32239 7.23867e-18
8608.97998 7.11146e-18
8610.63757 6.92247e-18
8612.29516 6.73355e-18
8613.96279 6.74840e-18
8615.62038 6.76325e-18
8617.27797 6.79193e-18
8618.93556 6.82059e-18
8620.60320 6.79532e-18
8622.26079 6.77015e-18
8623.91838 7.06719e-18
8625.58601 7.36417e-18
8627.24360 7.49901e-18
8628.90119 7.63371e-18
8630.55878 7.41386e-18
8632.22642 7.19405e-18
8633.88401 7.05264e-18
8635.54160 6.91138e-18
8637.20924 7.16442e-18
8638.86683 7.41742e-18
8640.52442 7.53239e-18
8642.18201 7.64714e-18
8643.84964 7.14715e-18
8645.50723 6.64737e-18
8647.16482 6.73077e-18
8648.82241 6.81425e-18
8650.49005 7.13877e-18
8652.14764 7.46315e-18
8653.80523 7.46282e-18
8655.46282 7.46244e-18
8657.13045 7.33822e-18
8658.78804 7.21410e-18
8660.44563 7.33764e-18
8662.11327 7.46102e-18
8663.77086 7.19050e-18
8665.42845 6.92010e-18
8667.08604 6.98318e-18
8668.75368 7.04621e-18
8670.41127 7.02493e-18
8672.06886 7.00368e-18
8673.73649 7.07848e-18
8675.39408 7.15318e-18
8677.05167 6.97906e-18
8678.70926 6.80505e-18
8680.37690 6.93211e-18
8682.03449 7.05913e-18
8683.69208 7.11572e-18
8685.34967 7.17218e-18
8687.01730 6.92920e-18
8688.67489 6.68639e-18
8690.33248 6.91522e-18
8691.99007 7.14398e-18
8693.65771 7.23102e-18
8695.31530 7.31795e-18
8696.97289 7.13931e-18
8698.64053 6.96076e-18
8700.29812 7.00766e-18
8701.95571 7.05460e-18
8703.61330 7.18683e-18
8705.28093 7.31896e-18
8706.93852 7.19495e-18
8708.59611 7.07092e-18
8710.26375 6.94680e-18
8711.92134 6.82281e-18
8713.57893 6.98242e-18
8715.23652 7.14195e-18
8716.90415 7.05420e-18
8718.56174 6.96644e-18
8720.21933 6.85005e-18
8721.87692 6.73371e-18
8723.54456 6.77688e-18
8725.20215 6.82010e-18
8726.85974 6.94747e-18
8728.52738 7.07486e-18
8730.18497 7.24847e-18
8731.84256 7.42192e-18
8733.50015 7.21363e-18
8735.16778 7.00548e-18
8736.82537 7.14148e-18
8738.48296 7.27739e-18
8740.14055 7.11821e-18
8741.80819 6.95915e-18
8743.46578 7.11425e-18
8745.12337 7.26917e-18
8746.79100 6.92125e-18
8748.44859 6.57351e-18
8750.10618 6.70018e-18
8751.76377 6.82698e-18
8753.43141 7.32550e-18
8755.08900 7.82383e-18
8756.74659 7.87061e-18
8758.40418 7.91716e-18
8760.07182 7.37492e-18
8761.72941 6.83285e-18
8763.38700 6.75858e-18
8765.05463 6.68438e-18
8766.71222 6.77697e-18
8768.36981 6.86949e-18
8770.02740 6.76423e-18
8771.69504 6.65904e-18
8773.35263 6.67197e-18
8775.01022 6.68487e-18
8776.67785 6.66013e-18
8778.33544 6.63538e-18
8779.99303 6.63101e-18
8781.65062 6.62667e-18
8783.31826 6.70150e-18
8784.97585 6.77619e-18
8786.63344 6.47245e-18
8788.29103 6.16878e-18
8789.95867 6.04609e-18
8791.61626 5.92359e-18
8793.27385 6.32778e-18
8794.94148 6.73175e-18
8796.59907 6.53853e-18
8798.25666 6.34539e-18
8799.91425 6.30666e-18
8801.58189 6.26793e-18
8803.23948 6.23447e-18
8804.89707 6.20101e-18
8806.56470 6.22297e-18
8808.22229 6.24495e-18
8809.87988 6.34790e-18
8811.53747 6.45083e-18
8813.20511 6.46612e-18
8814.86270 6.48142e-18
8816.52029 6.56087e-18
8818.17788 6.64028e-18
8819.84552 6.67469e-18
8821.50311 6.70911e-18
8823.16070 6.69825e-18
8824.82833 6.68740e-18
8826.48592 6.68192e-18
8828.14351 6.67620e-18
8829.80110 6.09223e-18
8831.46874 5.50869e-18
8833.12633 6.03087e-18
8834.78392 6.55280e-18
8836.44151 6.42857e-18
8838.10914 6.30439e-18
8839.76673 6.29441e-18
8841.42432 6.28440e-18
8843.09196 6.16823e-18
8844.74955 6.05210e-18
8846.40714 6.04456e-18
8848.06473 6.03704e-18
8849.73237 6.03941e-18
8851.38996 6.04183e-18
8853.04755 6.18593e-18
8854.71518 6.32989e-18
8856.37277 6.15352e-18
8858.03036 5.97718e-18
8859.68795 5.85546e-18
8861.35559 5.73378e-18
8863.01318 5.72264e-18
8864.67077 5.71153e-18
8866.32836 5.80290e-18
8867.99599 5.89430e-18
8869.65358 6.03018e-18
8871.31117 6.16601e-18
8872.97881 6.15952e-18
8874.63640 6.15295e-18
8876.29399 5.93111e-18
8877.95158 5.70943e-18
8879.61922 5.89017e-18
8881.27681 6.07080e-18
8882.93440 6.00832e-18
8884.60203 5.94594e-18
8886.25962 6.11192e-18
8887.91721 6.27787e-18
8889.57480 6.30829e-18
8891.24244 6.33857e-18
8892.90003 5.99976e-18
8894.55762 5.66111e-18
8896.21521 5.78480e-18
8897.88284 5.90846e-18
8899.54043 5.91023e-18
8901.19802 5.91198e-18
8902.85561 5.87729e-18
8904.52325 5.84261e-18
8906.18084 5.81990e-18
8907.83843 5.79711e-18
8909.50607 5.55741e-18
8911.16366 5.31784e-18
8912.82125 5.37829e-18
8914.47884 5.43866e-18
8916.14647 5.26620e-18
8917.80406 5.09392e-18
8919.46165 5.33616e-18
8921.11924 5.57827e-18
8922.78688 5.50530e-18
8924.44447 5.43251e-18
8926.10206 5.84582e-18
8927.76969 6.25893e-18
8929.42728 6.19371e-18
8931.08487 6.12829e-18
8932.74246 5.58707e-18
8934.41010 5.04606e-18
8936.06769 5.01704e-18
8937.72528 4.98815e-18
8939.38287 5.29425e-18
8941.05051 5.60008e-18
8942.70810 5.24108e-18
8944.36569 4.88226e-18
8946.03332 4.97937e-18
8947.69091 5.07636e-18
8949.34850 4.95107e-18
8951.00609 4.82591e-18
8952.67373 5.04684e-18
8954.33132 5.26755e-18
8955.98891 4.89918e-18
8957.64650 4.53106e-18
8959.31413 4.73473e-18
8960.97172 4.93835e-18
8962.62931 5.08452e-18
8964.29695 5.23071e-18
8965.95454 5.44699e-18
8967.61213 5.66311e-18
8969.26972 5.51074e-18
8970.93736 5.35840e-18
8972.59495 5.33272e-18
8974.25254 5.30703e-18
8975.92017 5.26201e-18
8977.57776 5.21696e-18
8979.23535 5.08631e-18
8980.89294 4.95577e-18
8982.56058 5.07236e-18
8984.21817 5.18894e-18
8985.87576 5.33688e-18
8987.53335 5.48467e-18
8989.20098 5.24405e-18
8990.85857 5.00350e-18
8992.51616 4.92353e-18
8994.18380 4.84362e-18
8995.84139 4.94406e-18
8997.49898 5.04449e-18
8999.15657 5.13797e-18
9000.82421 5.23150e-18
9002.48180 5.39733e-18
9004.13939 5.56308e-18
9005.79698 5.49501e-18
9007.46461 5.42695e-18
9009.12220 5.39238e-18
9010.77979 5.35788e-18
9012.44743 5.51119e-18
9014.10502 5.66434e-18
9015.76261 5.38075e-18
9017.42020 5.09731e-18
9019.08783 5.14983e-18
9020.74542 5.20226e-18
9022.40301 5.05583e-18
9024.07065 4.90946e-18
9025.72824 4.95249e-18
9027.38583 4.99554e-18
9029.04342 5.10027e-18
9030.71106 5.20504e-18
9032.36865 5.43081e-18
9034.02624 5.65637e-18
9035.68383 5.35852e-18
9037.35146 5.06076e-18
9039.00905 4.96873e-18
9040.66664 4.87681e-18
9042.33428 5.04804e-18
9043.99187 5.21911e-18
9045.64946 4.98730e-18
9047.30705 4.75550e-18
9048.97468 4.51113e-18
9050.63227 4.26702e-18
9052.28986 4.64303e-18
9053.95750 5.01892e-18
9055.61509 5.07410e-18
9057.27268 5.12914e-18
9058.93027 4.85428e-18
9060.59791 4.57950e-18
9062.25550 4.52057e-18
9063.91309 4.46170e-18
9065.57068 4.52043e-18
9067.23831 4.57908e-18
9068.89590 4.38390e-18
9070.55349 4.18889e-18
9072.21108 4.40629e-18
9073.87872 4.62358e-18
9075.53631 4.62708e-18
9077.19390 4.63058e-18
9078.86153 4.67432e-18
9080.51912 4.71788e-18
9082.17671 4.34425e-18
9083.83430 3.97089e-18
9085.50194 4.24625e-18
9087.15953 4.52157e-18
9088.81712 4.69782e-18
9090.48476 4.87391e-18
9092.14235 4.70801e-18
9093.79994 4.54238e-18
9095.45753 4.86815e-18
9097.12516 5.19364e-18
9098.78275 4.83676e-18
9100.44034 4.48014e-18
9102.09793 4.70233e-18
9103.76557 4.92462e-18
9105.42316 5.36161e-18
9107.08075 5.79832e-18
9108.74838 5.56632e-18
9110.40597 5.33430e-18
9112.06356 5.02113e-18
9113.72115 4.70808e-18
9115.38879 4.61558e-18
9117.04638 4.52317e-18
9118.70397 4.63075e-18
9120.36156 4.73828e-18
9122.02920 4.68294e-18
9123.68679 4.62766e-18
9125.34438 4.73419e-18
9127.01201 4.84071e-18
9128.66960 4.97993e-18
9130.32719 5.11912e-18
9131.98478 5.19029e-18
9133.65242 5.26143e-18
9135.31001 5.25192e-18
9136.96760 5.24243e-18
9138.63523 5.33296e-18
9140.29282 5.42340e-18
9141.95041 5.24981e-18
9143.60800 5.07632e-18
9145.27564 5.11517e-18
9146.93323 5.15397e-18
9148.59082 5.07991e-18
9150.24841 5.00579e-18
9151.91605 4.79935e-18
9153.57364 4.59315e-18
9155.23123 4.96202e-18
9156.89886 5.33074e-18
9158.55645 5.37081e-18
9160.21404 5.41082e-18
9161.87163 5.31498e-18
9163.53927 5.21905e-18
9165.19686 4.92611e-18
9166.85445 4.63338e-18
9168.51204 4.84217e-18
9170.17967 5.05089e-18
9171.83726 5.05922e-18
9173.49485 5.06754e-18
9175.15244 5.01098e-18
9176.82008 4.95455e-18
9178.47767 5.21684e-18
9180.13526 5.47905e-18
9181.80290 5.55591e-18
9183.46049 5.63270e-18
9185.11808 5.53217e-18
9186.77567 5.43172e-18
9188.44330 5.49593e-18
9190.10089 5.56007e-18
9191.75848 5.48271e-18
9193.42612 5.40530e-18
9195.08371 5.18366e-18
9196.74130 4.96223e-18
9198.39889 5.28181e-18
9200.06652 5.60127e-18
9201.72411 5.61311e-18
9203.38170 5.62482e-18
9205.03929 5.36167e-18
9206.70693 5.09862e-18
9208.36452 5.09168e-18
9210.02211 5.08483e-18
9211.68975 5.30703e-18
9213.34734 5.52909e-18
9215.00493 5.46797e-18
9216.66252 5.40684e-18
9218.33015 5.30687e-18
9219.98774 5.20690e-18
9221.64533 5.10100e-18
9223.31297 4.99518e-18
9224.97056 5.07590e-18
9226.62815 5.15648e-18
9228.28574 4.86726e-18
9229.95337 4.57832e-18
9231.61096 5.04612e-18
9233.26855 5.51379e-18
9234.92614 5.74005e-18
9236.59378 5.96608e-18
9238.25137 5.62485e-18
9239.90896 5.28370e-18
9241.56655 5.10786e-18
9243.23419 4.93223e-18
9244.89178 5.27816e-18
9246.54937 5.62384e-18
9248.21700 5.36584e-18
9249.87459 5.10797e-18
9251.53218 5.12643e-18
9253.18977 5.14484e-18
9254.85741 5.08641e-18
9256.51500 5.02803e-18
9258.17259 5.09825e-18
9259.84022 5.16848e-18
9261.49781 5.29685e-18
9263.15540 5.42513e-18
9264.81299 5.33076e-18
9266.48063 5.23630e-18
9268.13822 4.90471e-18
9269.79581 4.57341e-18
9271.45340 4.95360e-18
9273.12104 5.33355e-18
9274.77863 5.15284e-18
9276.43622 4.97230e-18
9278.10385 5.24588e-18
9279.76144 5.51922e-18
9281.41903 5.25116e-18
9283.07662 4.98323e-18
9284.74426 4.99031e-18
9286.40185 4.99744e-18
9288.05944 5.12365e-18
9289.71703 5.24964e-18
9291.38466 4.83402e-18
9293.04225 4.41863e-18
9294.69984 4.54243e-18
9296.36748 4.66627e-18
9298.02507 4.84670e-18
9299.68266 5.02704e-18
9301.34025 5.03655e-18
9303.00789 5.04603e-18
9304.66548 5.01678e-18
9306.32307 4.98744e-18
9307.99070 4.78844e-18
9309.64829 4.58947e-18
9311.30588 4.49601e-18
9312.96347 4.40264e-18
9314.63111 4.49127e-18
9316.28870 4.57976e-18
9317.94629 4.29716e-18
9319.60388 4.01453e-18
9321.27151 3.63569e-18
9322.92910 3.25719e-18
9324.58669 3.66125e-18
9326.25433 4.06514e-18
9327.91192 4.12086e-18
9329.56951 4.17661e-18
9331.22710 4.30775e-18
9332.89474 4.43874e-18
9334.55233 4.21740e-18
9336.20992 3.99619e-18
9337.87755 4.07379e-18
9339.53514 4.15137e-18
9341.19273 4.19535e-18
9342.85032 4.23943e-18
9344.51796 4.47462e-18
9346.17555 4.70973e-18
9347.83314 4.76599e-18
9349.49073 4.82198e-18
9351.15836 4.22771e-18
9352.81595 3.63366e-18
9354.47354 3.52907e-18
9356.13113 3.42477e-18
9357.79877 3.98462e-18
9359.45636 4.54421e-18
9361.11395 4.49181e-18
9362.78159 4.43954e-18
9364.43918 4.68772e-18
9366.09677 4.93580e-18
9367.75436 4.93557e-18
9369.42199 4.93533e-18
9371.07958 4.89805e-18
9372.73717 4.86050e-18
9374.40481 4.14571e-18
9376.06240 3.43124e-18
9377.71999 3.44969e-18
9379.37758 3.46824e-18
9381.04521 3.76623e-18
9382.70280 4.06409e-18
9384.36039 4.07870e-18
9386.01798 4.09329e-18
9387.68562 4.09578e-18
9389.34321 4.09823e-18
9391.00080 4.08211e-18
9392.66844 4.06608e-18
9394.32603 4.25394e-18
9395.98362 4.44165e-18
9397.64121 4.24919e-18
9399.30884 4.05681e-18
9400.96643 4.06842e-18
9402.62402 4.08005e-18
9404.28161 4.13418e-18
9405.94925 4.18824e-18
9407.60684 4.07978e-18
9409.26443 3.97146e-18
9410.93206 4.18665e-18
9412.58965 4.40176e-18
9414.24724 4.44226e-18
9415.90483 4.48268e-18
9417.57247 4.31236e-18
9419.23006 4.14212e-18
9420.88765 4.09314e-18
9422.54524 4.04410e-18
9424.21288 3.86802e-18
9425.87047 3.69222e-18
9427.52806 4.17042e-18
9429.19569 4.64829e-18
9430.85328 4.35833e-18
9432.51087 4.06845e-18
9434.16846 3.97603e-18
9435.83610 3.88342e-18
9437.49369 3.37390e-18
9439.15128 2.86451e-18
9440.80887 2.67612e-18
9442.47650 2.48817e-18
9444.13409 3.32410e-18
9445.79168 4.15966e-18
9447.45932 4.14440e-18
9449.11691 4.12918e-18
9450.77450 4.23246e-18
9452.43209 4.33559e-18
9454.09973 4.08587e-18
9455.75732 3.83615e-18
9457.41491 3.52971e-18
9459.07250 3.22346e-18
9460.74013 3.30613e-18
9462.39772 3.38888e-18
9464.05531 3.68203e-18
9465.72295 3.97488e-18
9467.38054 3.58301e-18
9469.03813 3.19143e-18
9470.69572 3.47670e-18
9472.36335 3.76199e-18
9474.02094 4.08355e-18
9475.67853 4.40507e-18
9477.34617 4.57016e-18
9479.00376 4.73510e-18
9480.66135 4.55639e-18
9482.31894 4.37777e-18
9483.98658 4.38196e-18
9485.64417 4.38603e-18
9487.30176 4.08976e-18
9488.95935 3.79360e-18
9490.62698 3.76260e-18
9492.28457 3.73158e-18
9493.94216 3.63500e-18
9495.60980 3.53867e-18
9497.26739 4.00986e-18
9498.92498 4.48076e-18
9500.58257 4.27267e-18
9502.25020 4.06469e-18
9503.90779 4.12646e-18
9505.56538 4.18826e-18
9507.23302 4.28570e-18
9508.89061 4.38296e-18
9510.54820 4.07044e-18
9512.20579 3.75798e-18
9513.87343 3.62345e-18
9515.53102 3.48894e-18
9517.18861 3.42138e-18
9518.84620 3.35403e-18
9520.51383 3.78226e-18
9522.17142 4.21018e-18
9523.82901 3.94999e-18
9525.49665 3.68998e-18
9527.15424 3.78805e-18
9528.81183 3.88602e-18
9530.46942 3.73901e-18
9532.13705 3.59215e-18
9533.79464 3.76396e-18
9535.45223 3.93570e-18
9537.10982 3.97586e-18
9538.77746 4.01604e-18
9540.43505 4.11147e-18
9542.09264 4.20684e-18
9543.76028 4.16186e-18
9545.41787 4.11676e-18
9547.07546 3.78670e-18
9548.73305 3.45671e-18
9550.40068 3.28828e-18
9552.05827 3.12028e-18
9553.71586 3.93484e-18
9555.37345 4.74888e-18
9557.04109 4.37724e-18
9558.69868 4.00573e-18
9560.35627 3.95253e-18
9562.02390 3.89944e-18
9563.68149 4.05809e-18
9565.33908 4.21656e-18
9566.99667 3.99765e-18
9568.66431 3.77885e-18
9570.32190 3.81042e-18
9571.97949 3.84204e-18
9573.64713 3.93939e-18
9575.30472 4.03655e-18
9576.96231 3.73057e-18
9578.61990 3.42473e-18
9580.28753 3.42425e-18
9581.94512 3.42382e-18
9583.60271 3.53258e-18
9585.27035 3.64124e-18
9586.92794 3.50510e-18
9588.58553 3.36899e-18
9590.24312 3.31989e-18
9591.91075 3.27094e-18
9593.56834 3.57930e-18
9595.22593 3.88747e-18
9596.88352 3.74435e-18
9598.55116 3.60141e-18
9600.20875 3.85465e-18
9601.86634 4.10777e-18
9603.52393 4.10112e-18
9605.19157 4.09453e-18
9606.84916 4.26979e-18
9608.50675 4.44476e-18
9610.17438 3.98357e-18
9611.83197 3.52257e-18
9613.48956 3.50534e-18
9615.14715 3.48809e-18
9616.81479 3.45024e-18
9618.47238 3.41243e-18
9620.12997 3.47569e-18
9621.79760 3.53897e-18
9623.45519 3.61971e-18
9625.11278 3.70044e-18
9626.77037 3.77746e-18
9628.43801 3.85448e-18
9630.09560 3.95590e-18
9631.75319 4.05726e-18
9633.41078 4.04714e-18
9635.07842 4.03710e-18
9636.73601 4.25255e-18
9638.39360 4.46777e-18
9640.06123 4.20718e-18
9641.71882 3.94674e-18
9643.37641 4.03692e-18
9645.03400 4.12688e-18
9646.70164 3.76596e-18
9648.35923 3.40531e-18
9650.01682 3.64060e-18
9651.67441 3.87577e-18
9653.34204 3.84389e-18
9654.99963 3.81190e-18
9656.65722 3.54683e-18
9658.31481 3.28195e-18
9659.98245 3.39195e-18
9661.64004 3.50207e-18
9663.29763 3.87644e-18
9664.96527 4.25042e-18
9666.62286 3.74323e-18
9668.28045 3.23639e-18
9669.93804 3.50254e-18
9671.60567 3.76869e-18
9673.26326 4.04089e-18
9674.92085 4.31300e-18
9676.58849 4.38387e-18
9678.24608 4.45461e-18
9679.90367 4.25738e-18
9681.56126 4.06044e-18
9683.22889 4.48409e-18
9684.88648 4.90740e-18
9686.54407 4.57605e-18
9688.20166 4.24463e-18
9689.86930 3.77979e-18
9691.52689 3.31537e-18
9693.18448 3.75855e-18
9694.85212 4.20156e-18
9696.50971 4.25908e-18
9698.16730 4.31672e-18
9699.82489 4.62965e-18
9701.49252 4.94202e-18
9703.15011 4.04786e-18
9704.80770 3.15421e-18
9706.46529 3.34967e-18
9708.13293 3.54509e-18
9709.79052 3.62712e-18
9711.44811 3.70895e-18
9713.11574 3.31753e-18
9714.77333 2.92647e-18
9716.43092 3.32450e-18
9718.08851 3.72252e-18
9719.75615 4.08476e-18
9721.41374 4.44668e-18
9723.07133 4.09677e-18
9724.73897 3.74708e-18
9726.39656 3.82158e-18
9728.05415 3.89610e-18
9729.71174 4.01166e-18
9731.37937 4.12705e-18
9733.03696 3.89545e-18
9734.69455 3.66399e-18
9736.35214 3.76477e-18
9738.01978 3.86556e-18
9739.67737 4.03293e-18
9741.33496 4.20021e-18
9743.00259 4.19741e-18
9744.66018 4.19453e-18
9746.31777 3.97904e-18
9747.97536 3.76356e-18
9749.64300 3.57997e-18
9751.30059 3.39663e-18
9752.95818 3.77145e-18
9754.62582 4.14595e-18
9756.28341 3.84576e-18
9757.94100 3.54577e-18
9759.59859 3.68696e-18
9761.26622 3.82811e-18
9762.92381 3.93257e-18
9764.58140 4.03696e-18
9766.23899 3.97025e-18
9767.90663 3.90367e-18
9769.56422 4.08232e-18
9771.22181 4.26083e-18
9772.87940 4.11917e-18
9774.54703 3.97751e-18
9776.20462 3.75825e-18
9777.86221 3.53901e-18
9779.52985 3.35411e-18
9781.18744 3.16946e-18
9782.84503 3.50101e-18
9784.50262 3.83239e-18
9786.17026 3.75534e-18
9787.82785 3.67876e-18
9789.48544 4.58955e-18
9791.15307 5.49970e-18
9792.81066 5.03997e-18
9794.46825 4.58037e-18
9796.12584 4.34689e-18
9797.79348 4.11358e-18
9799.45107 4.25315e-18
9801.10866 4.39228e-18
9802.76625 3.60500e-18
9804.43388 2.81798e-18
9806.09147 2.55967e-18
9807.74906 2.30177e-18
9809.41670 2.90362e-18
9811.07429 3.50525e-18
9812.73188 3.63038e-18
9814.38947 3.75550e-18
9816.05711 3.88365e-18
9817.71470 4.01169e-18
9819.37229 3.91300e-18
9821.03992 3.81421e-18
9822.69751 3.51269e-18
9824.35510 3.21152e-18
9826.01269 3.65757e-18
9827.68033 4.10330e-18
9829.33792 3.85751e-18
9830.99551 3.61191e-18
9832.65310 3.74833e-18
9834.32073 3.88462e-18
9835.97832 3.77431e-18
9837.63591 3.66394e-18
9839.30355 3.43021e-18
9840.96114 3.19680e-18
9842.61873 3.64038e-18
9844.27632 4.08397e-18
9845.94396 4.55026e-18
9847.60155 5.01622e-18
9849.25914 4.80188e-18
9850.91673 4.58752e-18
9852.58436 4.37016e-18
9854.24195 4.15279e-18
9855.89954 3.96021e-18
9857.56718 3.76772e-18
9859.22477 3.73591e-18
9860.88236 3.70411e-18
9862.53995 3.69469e-18
9864.20758 3.68562e-18
9865.86517 4.40859e-18
9867.52276 5.13114e-18
9869.18035 4.94476e-18
9870.84799 4.75854e-18
9872.50558 4.92833e-18
9874.16317 5.09825e-18
9875.83081 5.56173e-18
9877.48840 6.02461e-18
9879.14599 5.23792e-18
9880.80358 4.45125e-18
9882.47121 3.69611e-18
9884.12880 2.94163e-18
9885.78639 3.55295e-18
9887.44398 4.16415e-18
9889.11162 4.48984e-18
9890.76921 4.81541e-18
9892.42680 4.91467e-18
9894.09443 5.01396e-18
9895.75202 5.16503e-18
9897.40961 5.31606e-18
9899.06720 5.39657e-18
9900.73484 5.47659e-18
9902.39243 4.52377e-18
9904.05002 3.57135e-18
9905.70761 3.47924e-18
9907.37525 3.38711e-18
9909.03284 3.24293e-18
9910.69043 3.09881e-18
9912.35806 3.13611e-18
9914.01565 3.17365e-18
9915.67324 3.70848e-18
9917.33083 4.24296e-18
9918.99847 4.05803e-18
9920.65606 3.87324e-18
9922.31365 3.95683e-18
9923.98128 4.04045e-18
9925.63887 4.14680e-18
9927.29646 4.25321e-18
9928.95405 4.45538e-18
9930.62169 4.65704e-18
9932.27928 3.72597e-18
9933.93687 2.79522e-18
9935.59446 2.53347e-18
9937.26210 2.27228e-18
9938.91969 3.15089e-18
9940.57728 4.02924e-18
9942.23487 4.38922e-18
9943.90250 4.74904e-18
9945.56009 4.75162e-18
9947.21768 4.75391e-18
9948.88532 4.09669e-18
9950.54291 3.44013e-18
9952.20050 4.19829e-18
9953.85809 4.95608e-18
9955.52572 4.94437e-18
9957.18331 4.93242e-18
9958.84090 4.40227e-18
9960.50854 3.87229e-18
9962.16613 3.64114e-18
9963.82372 3.41006e-18
9965.48131 3.27782e-18
9967.14895 3.14551e-18
9968.80654 2.82639e-18
9970.46413 2.50738e-18
9972.12172 2.35495e-18
9973.78935 2.20260e-18
9975.44694 2.22313e-18
9977.10453 2.24396e-18
9978.77217 2.87006e-18
9980.42976 3.49584e-18
9982.08735 3.46374e-18
9983.74494 3.43177e-18
9985.41257 3.66809e-18
9987.07016 3.90445e-18
9988.72775 4.27348e-18
9990.39539 4.64227e-18
9992.05298 4.51983e-18
9993.71057 4.39723e-18
9995.36816 3.95796e-18
9997.03580 3.51853e-18
9998.69339 2.72189e-18
