# wavelength flux
3799.84927 4.62138e-18
3801.36622 6.18441e-18
3802.89321 7.74734e-18
3804.41015 7.25903e-18
3805.92710 6.77075e-18
3807.45409 6.04397e-18
3808.97104 5.31724e-18
3810.49803 6.41932e-18
3812.01498 7.52134e-18
3813.53192 6.43213e-18
3815.05891 5.34297e-18
3816.57586 5.78315e-18
3818.09281 6.22330e-18
3819.61980 6.56563e-18
3821.13674 6.90794e-18
3822.65369 7.91650e-18
3824.18068 8.92501e-18
3825.69763 9.49023e-18
3827.22462 1.00554e-17
3828.74157 8.44111e-18
3830.25851 6.82687e-18
3831.78550 8.54311e-18
3833.30245 1.02593e-17
3834.81940 1.03190e-17
3836.34639 1.03788e-17
3837.86333 1.15154e-17
3839.39033 1.26519e-17
3840.90727 1.21658e-17
3842.42422 1.16798e-17
3843.95121 1.08323e-17
3845.46816 9.98496e-18
3846.98510 1.04734e-17
3848.51209 1.09617e-17
3850.02904 1.15734e-17
3851.54599 1.21850e-17
3853.07298 1.13132e-17
3854.58992 1.04414e-17
3856.11692 1.13293e-17
3857.63386 1.22172e-17
3859.15081 1.36253e-17
3860.67780 1.50333e-17
3862.19475 1.41527e-17
3863.71169 1.32721e-17
3865.23868 1.34552e-17
3866.75563 1.36383e-17
3868.28262 1.46927e-17
3869.79957 1.57470e-17
3871.31651 1.39782e-17
3872.84351 1.22095e-17
3874.36045 1.39135e-17
3875.87740 1.56175e-17
3877.40439 1.56193e-17
3878.92134 1.56211e-17
3880.43828 1.57652e-17
3881.96527 1.59094e-17
3883.48222 1.73422e-17
3885.00921 1.87749e-17
3886.52616 2.00800e-17
3888.04310 2.13851e-17
3889.57010 2.08297e-17
3891.08704 2.02744e-17
3892.60399 1.89920e-17
3894.13098 1.77097e-17
3895.64793 1.92771e-17
3897.17492 2.08444e-17
3898.69186 2.07967e-17
3900.20881 2.07490e-17
3901.73580 2.19006e-17
3903.25275 2.30522e-17
3904.76969 2.36739e-17
3906.29669 2.42955e-17
3907.81363 2.43534e-17
3909.33058 2.44112e-17
3910.85757 2.56174e-17
3912.37452 2.68235e-17
3913.90151 2.70873e-17
3915.41845 2.73511e-17
3916.93540 2.80586e-17
3918.46239 2.87660e-17
3919.97934 2.96405e-17
3921.49628 3.05150e-17
3923.02328 3.02253e-17
3924.54022 2.99357e-17
3926.05717 3.02063e-17
3927.58416 3.04768e-17
3929.10111 3.06170e-17
3930.62810 3.07572e-17
3932.14504 3.08378e-17
3933.66199 3.09185e-17
3935.18898 3.25198e-17
3936.70593 3.41210e-17
3938.22287 3.32073e-17
3939.74987 3.22937e-17
3941.26681 3.15828e-17
3942.79380 3.08720e-17
3944.31075 3.15186e-17
3945.82770 3.21653e-17
3947.35469 3.32187e-17
3948.87163 3.42720e-17
3950.38858 3.48054e-17
3951.91557 3.53387e-17
3953.43252 3.54052e-17
3954.94946 3.54717e-17
3956.47646 3.48136e-17
3957.99340 3.41556e-17
3959.52039 3.38666e-17
3961.03734 3.35776e-17
3962.55429 3.49033e-17
3964.08128 3.62290e-17
3965.59822 3.64623e-17
3967.11517 3.66956e-17
3968.64216 3.83545e-17
3970.15911 4.00134e-17
3971.68610 3.89926e-17
3973.20305 3.79719e-17
3974.71999 3.64064e-17
3976.24698 3.48411e-17
3977.76393 3.40220e-17
3979.28088 3.32029e-17
3980.80787 3.49566e-17
3982.32481 3.67102e-17
3983.84176 3.60755e-17
3985.36875 3.54408e-17
3986.88570 3.45596e-17
3988.41269 3.36786e-17
3989.92964 3.40118e-17
3991.44658 3.43451e-17
3992.97357 3.38903e-17
3994.49052 3.34355e-17
3996.00747 3.34726e-17
3997.53446 3.35098e-17
3999.05140 3.26179e-17
4000.57840 3.17261e-17
4002.09534 3.21112e-17
4003.61229 3.24962e-17
4005.13928 3.20239e-17
4006.65623 3.15516e-17
4008.17317 3.18971e-17
4009.70016 3.22426e-17
4011.21711 3.12593e-17
4012.73406 3.02760e-17
4014.26105 3.06207e-17
4015.77799 3.09654e-17
4017.30499 3.06171e-17
4018.82193 3.02689e-17
4020.33888 2.89370e-17
4021.86587 2.76053e-17
4023.38282 2.76397e-17
4024.89976 2.76741e-17
4026.42675 2.76022e-17
4027.94370 2.75304e-17
4029.47069 2.79607e-17
4030.98764 2.83909e-17
4032.50458 2.71762e-17
4034.03158 2.59615e-17
4035.54852 2.57105e-17
4037.06547 2.54595e-17
4038.59246 2.45210e-17
4040.10941 2.35825e-17
4041.62635 2.29103e-17
4043.15334 2.22381e-17
4044.67029 2.21800e-17
4046.19728 2.21220e-17
4047.71423 2.15272e-17
4049.23117 2.09324e-17
4050.75817 2.20620e-17
4052.27511 2.31915e-17
4053.79206 2.20960e-17
4055.31905 2.10005e-17
4056.83600 2.07570e-17
4058.36299 2.05135e-17
4059.87993 2.00787e-17
4061.39688 1.96438e-17
4062.92387 2.00102e-17
4064.44082 2.03766e-17
4065.95776 2.00436e-17
4067.48476 1.97105e-17
4069.00170 1.99188e-17
4070.51865 2.01271e-17
4072.04564 1.69680e-17
4073.56259 1.38090e-17
4075.08958 1.48986e-17
4076.60652 1.59882e-17
4078.12347 1.63332e-17
4079.65046 1.66782e-17
4081.16741 1.62733e-17
4082.68435 1.58685e-17
4084.21135 1.59201e-17
4085.72829 1.59718e-17
4087.25528 1.55569e-17
4088.77223 1.51420e-17
4090.28918 1.51085e-17
4091.81617 1.50750e-17
4093.33311 1.60666e-17
4094.85006 1.70581e-17
4096.37705 1.65768e-17
4097.89400 1.60956e-17
4099.42099 1.55242e-17
4100.93794 1.49528e-17
4102.45488 1.41851e-17
4103.98187 1.34173e-17
4105.49882 1.34601e-17
4107.01577 1.35029e-17
4108.54276 1.35616e-17
4110.05970 1.36203e-17
4111.57665 1.42034e-17
4113.10364 1.47866e-17
4114.62059 1.42563e-17
4116.14758 1.37260e-17
4117.66453 1.33373e-17
4119.18147 1.29485e-17
4120.70846 1.29096e-17
4122.22541 1.28706e-17
4123.74236 1.31404e-17
4125.26935 1.34101e-17
4126.78629 1.35972e-17
4128.30324 1.37842e-17
4129.83023 1.32114e-17
4131.34718 1.26387e-17
4132.87417 1.24371e-17
4134.39112 1.22355e-17
4135.90806 1.30108e-17
4137.43505 1.37861e-17
4138.95200 1.37004e-17
4140.46895 1.36148e-17
4141.99594 1.32678e-17
4143.51288 1.29210e-17
4145.03988 1.32424e-17
4146.55682 1.35639e-17
4148.07377 1.33558e-17
4149.60076 1.31477e-17
4151.11771 1.26619e-17
4152.63465 1.21761e-17
4154.16164 1.30291e-17
4155.67859 1.38820e-17
4157.19554 1.37196e-17
4158.72253 1.35573e-17
4160.23947 1.36259e-17
4161.76647 1.36944e-17
4163.28341 1.37334e-17
4164.80036 1.37725e-17
4166.32735 1.34708e-17
4167.84430 1.31692e-17
4169.36124 1.30543e-17
4170.88823 1.29395e-17
4172.40518 1.27488e-17
4173.92213 1.25582e-17
4175.44912 1.18190e-17
4176.96606 1.10798e-17
4178.49306 1.19808e-17
4180.01000 1.28818e-17
4181.52695 1.25379e-17
4183.05394 1.21940e-17
4184.57089 1.21908e-17
4186.08783 1.21875e-17
4187.61482 1.35246e-17
4189.13177 1.48617e-17
4190.65876 1.47724e-17
4192.17571 1.46830e-17
4193.69265 1.48521e-17
4195.21965 1.50212e-17
4196.73659 1.38966e-17
4198.25354 1.27721e-17
4199.78053 1.23341e-17
4201.29748 1.18962e-17
4202.82447 1.35208e-17
4204.34141 1.51453e-17
4205.85836 1.38577e-17
4207.38535 1.25701e-17
4208.90230 1.30283e-17
4210.41924 1.34864e-17
4211.94624 1.38388e-17
4213.46318 1.41911e-17
4214.98013 1.43217e-17
4216.50712 1.44523e-17
4218.02407 1.44130e-17
4219.55106 1.43737e-17
4221.06800 1.46534e-17
4222.58495 1.49331e-17
4224.11194 1.45726e-17
4225.62889 1.42122e-17
4227.14583 1.47654e-17
4228.67283 1.53186e-17
4230.18977 1.53098e-17
4231.71676 1.53009e-17
4233.23371 1.54065e-17
4234.75066 1.55120e-17
4236.27765 1.55436e-17
4237.79459 1.55751e-17
4239.31154 1.48804e-17
4240.83853 1.41857e-17
4242.35548 1.44363e-17
4243.87242 1.46868e-17
4245.39942 1.50634e-17
4246.91636 1.54400e-17
4248.44335 1.53228e-17
4249.96030 1.52056e-17
4251.47725 1.41926e-17
4253.00424 1.31797e-17
4254.52118 1.30772e-17
4256.03813 1.29748e-17
4257.56512 1.36455e-17
4259.08207 1.43162e-17
4260.59901 1.41493e-17
4262.12601 1.39824e-17
4263.64295 1.46130e-17
4265.16994 1.52436e-17
4266.68689 1.46656e-17
4268.20384 1.40875e-17
4269.73083 1.34651e-17
4271.24777 1.28428e-17
4272.76472 1.34258e-17
4274.29171 1.40089e-17
4275.80866 1.44457e-17
4277.33565 1.48824e-17
4278.85260 1.47576e-17
4280.36954 1.46328e-17
4281.89653 1.51493e-17
4283.41348 1.56658e-17
4284.93043 1.56150e-17
4286.45742 1.55643e-17
4287.97436 1.60619e-17
4289.49131 1.65596e-17
4291.01830 1.54802e-17
4292.53525 1.44009e-17
4294.06224 1.47015e-17
4295.57919 1.50021e-17
4297.09613 1.52973e-17
4298.62312 1.55925e-17
4300.14007 1.58986e-17
4301.65702 1.62047e-17
4303.18401 1.55707e-17
4304.70095 1.49366e-17
4306.22795 1.43022e-17
4307.74489 1.36679e-17
4309.26184 1.45394e-17
4310.78883 1.54110e-17
4312.30578 1.52969e-17
4313.82272 1.51828e-17
4315.34971 1.50033e-17
4316.86666 1.48238e-17
4318.39365 1.49931e-17
4319.91060 1.51623e-17
4321.42754 1.52511e-17
4322.95454 1.53399e-17
4324.47148 1.56546e-17
4325.98843 1.59694e-17
4327.51542 1.60361e-17
4329.03237 1.61029e-17
4330.54931 1.56764e-17
4332.07630 1.52499e-17
4333.59325 1.46581e-17
4335.12024 1.40664e-17
4336.63719 1.36332e-17
4338.15413 1.32000e-17
4339.68113 1.40155e-17
4341.19807 1.48309e-17
4342.71502 1.50170e-17
4344.24201 1.52031e-17
4345.75896 1.42925e-17
4347.27590 1.33820e-17
4348.80289 1.28763e-17
4350.31984 1.23705e-17
4351.84683 1.26234e-17
4353.36378 1.28762e-17
4354.88072 1.30489e-17
4356.40772 1.32217e-17
4357.92466 1.29523e-17
4359.44161 1.26829e-17
4360.96860 1.24084e-17
4362.48555 1.21339e-17
4364.01254 1.21752e-17
4365.52948 1.22166e-17
4367.04643 1.21114e-17
4368.57342 1.20063e-17
4370.09037 1.16684e-17
4371.60731 1.13305e-17
4373.13431 1.08476e-17
4374.65125 1.03647e-17
4376.16820 1.00169e-17
4377.69519 9.66922e-18
4379.21214 9.73723e-18
4380.73913 9.80524e-18
4382.25607 1.07683e-17
4383.77302 1.17314e-17
4385.30001 1.07177e-17
4386.81696 9.70402e-18
4388.33390 1.02112e-17
4389.86090 1.07183e-17
4391.37784 1.01553e-17
4392.90483 9.59234e-18
4394.42178 9.67162e-18
4395.93873 9.75091e-18
4397.46572 9.94188e-18
4398.98266 1.01328e-17
4400.49961 1.07818e-17
4402.02660 1.14308e-17
4403.54355 1.07899e-17
4405.07054 1.01490e-17
4406.58749 9.89672e-18
4408.10443 9.64447e-18
4409.63142 1.06047e-17
4411.14837 1.15649e-17
4412.66532 1.12738e-17
4414.19231 1.09828e-17
4415.70925 1.03520e-17
4417.22620 9.72117e-18
4418.75319 9.65157e-18
4420.27014 9.58199e-18
4421.79713 1.02467e-17
4423.31408 1.09114e-17
4424.83102 1.00594e-17
4426.35801 9.20744e-18
4427.87496 1.01384e-17
4429.39191 1.10693e-17
4430.91890 1.10964e-17
4432.43584 1.11234e-17
4433.95279 1.07470e-17
4435.47978 1.03706e-17
4436.99673 1.11713e-17
4438.52372 1.19721e-17
4440.04067 1.20864e-17
4441.55761 1.22007e-17
4443.08460 1.20561e-17
4444.60155 1.19115e-17
4446.11850 1.20770e-17
4447.64549 1.22425e-17
4449.16243 1.21488e-17
4450.68943 1.20550e-17
4452.20637 1.20426e-17
4453.72332 1.20302e-17
4455.25031 1.23865e-17
4456.76726 1.27429e-17
4458.28420 1.23834e-17
4459.81119 1.20239e-17
4461.32814 1.21248e-17
4462.84509 1.22258e-17
4464.37208 1.22520e-17
4465.88902 1.22782e-17
4467.41602 1.24908e-17
4468.93296 1.27035e-17
4470.44991 1.36693e-17
4471.97690 1.46352e-17
4473.49385 1.44369e-17
4475.01079 1.42385e-17
4476.53778 1.41460e-17
4478.05473 1.40534e-17
4479.58172 1.44330e-17
4481.09867 1.48126e-17
4482.61561 1.55253e-17
4484.14261 1.62380e-17
4485.65955 1.62985e-17
4487.17650 1.63590e-17
4488.70349 1.60396e-17
4490.22044 1.57202e-17
4491.73738 1.62211e-17
4493.26437 1.67220e-17
4494.78132 1.71292e-17
4496.30831 1.75363e-17
4497.82526 1.76058e-17
4499.34220 1.76752e-17
4500.86920 1.80537e-17
4502.38614 1.84322e-17
4503.90309 1.80329e-17
4505.43008 1.76335e-17
4506.94703 1.71187e-17
4508.47402 1.66040e-17
4509.99096 1.73321e-17
4511.50791 1.80602e-17
4513.03490 1.83843e-17
4514.55185 1.87083e-17
4516.06879 1.86321e-17
4517.59579 1.85559e-17
4519.11273 1.89273e-17
4520.62968 1.92987e-17
4522.15667 1.96021e-17
4523.67362 1.99055e-17
4525.20061 1.96002e-17
4526.71755 1.92949e-17
4528.23450 1.90352e-17
4529.76149 1.87755e-17
4531.27844 1.93371e-17
4532.79538 1.98986e-17
4534.32238 2.07068e-17
4535.83932 2.15151e-17
4537.35627 2.15162e-17
4538.88326 2.15174e-17
4540.40021 2.12821e-17
4541.92720 2.10469e-17
4543.44414 2.13361e-17
4544.96109 2.16253e-17
4546.48808 2.15183e-17
4548.00503 2.14112e-17
4549.52197 2.19758e-17
4551.04897 2.25403e-17
4552.56591 2.24079e-17
4554.09290 2.22755e-17
4555.60985 2.28930e-17
4557.12680 2.35105e-17
4558.65379 2.39927e-17
4560.17073 2.44749e-17
4561.68768 2.44733e-17
4563.21467 2.44718e-17
4564.73162 2.41156e-17
4566.25861 2.37594e-17
4567.77556 2.53178e-17
4569.29250 2.68762e-17
4570.81949 2.61752e-17
4572.33644 2.54742e-17
4573.85339 2.57129e-17
4575.38038 2.59515e-17
4576.89732 2.62458e-17
4578.41427 2.65401e-17
4579.94126 2.67092e-17
4581.45821 2.68784e-17
4582.98520 2.68283e-17
4584.50215 2.67783e-17
4586.01909 2.64189e-17
4587.54608 2.60595e-17
4589.06303 2.60609e-17
4590.57998 2.60624e-17
4592.10697 2.66024e-17
4593.62391 2.71425e-17
4595.14086 2.72678e-17
4596.66785 2.73930e-17
4598.18480 2.79060e-17
4599.71179 2.84191e-17
4601.22874 2.82110e-17
4602.74568 2.80028e-17
4604.27267 2.77254e-17
4605.78962 2.74479e-17
4607.30657 2.84507e-17
4608.83356 2.94534e-17
4610.35050 2.95135e-17
4611.87750 2.95736e-17
4613.39444 2.89030e-17
4614.91139 2.82323e-17
4616.43838 2.83958e-17
4617.95533 2.85593e-17
4619.47227 2.84764e-17
4620.99926 2.83935e-17
4622.51621 2.88978e-17
4624.03316 2.94022e-17
4625.56015 2.88126e-17
4627.07709 2.82230e-17
4628.60409 2.84382e-17
4630.12103 2.86534e-17
4631.63798 2.85322e-17
4633.16497 2.84110e-17
4634.68192 2.86069e-17
4636.19886 2.88027e-17
4637.72585 2.88750e-17
4639.24280 2.89472e-17
4640.76979 2.89424e-17
4642.28674 2.89375e-17
4643.80368 2.87408e-17
4645.33068 2.85441e-17
4646.84762 2.80500e-17
4648.36457 2.75559e-17
4649.89156 2.75212e-17
4651.40851 2.74866e-17
4652.92545 2.72642e-17
4654.45244 2.70419e-17
4655.96939 2.66868e-17
4657.49638 2.63318e-17
4659.01333 2.70217e-17
4660.53027 2.77116e-17
4662.05727 2.72267e-17
4663.57421 2.67419e-17
4665.09116 2.74427e-17
4666.61815 2.81435e-17
4668.13510 2.76818e-17
4669.66209 2.72201e-17
4671.17903 2.67617e-17
4672.69598 2.63034e-17
4674.22297 2.67078e-17
4675.73992 2.71121e-17
4677.25686 2.62537e-17
4678.78386 2.53953e-17
4680.30080 2.48542e-17
4681.81775 2.43132e-17
4683.34474 2.46019e-17
4684.86169 2.48906e-17
4686.38868 2.43802e-17
4687.90562 2.38699e-17
4689.42257 2.33088e-17
4690.94956 2.27478e-17
4692.46651 2.27550e-17
4693.98345 2.27623e-17
4695.51045 2.24661e-17
4697.02739 2.21699e-17
4698.55438 2.16026e-17
4700.07133 2.10353e-17
4701.58828 2.08814e-17
4703.11527 2.07275e-17
4704.63221 1.96466e-17
4706.14916 1.85658e-17
4707.67615 1.94690e-17
4709.19310 2.03723e-17
4710.72009 2.02263e-17
4712.23704 2.00802e-17
4713.75398 1.94062e-17
4715.28097 1.87322e-17
4716.79792 1.89502e-17
4718.31487 1.91682e-17
4719.84186 1.84039e-17
4721.35880 1.76396e-17
4722.87575 1.70946e-17
4724.40274 1.65497e-17
4725.91969 1.60551e-17
4727.43663 1.55605e-17
4728.96363 1.52665e-17
4730.48057 1.49724e-17
4732.00756 1.48231e-17
4733.52451 1.46737e-17
4735.04146 1.40096e-17
4736.56845 1.33454e-17
4738.08539 1.31372e-17
4739.60234 1.29289e-17
4741.12933 1.24657e-17
4742.64628 1.20026e-17
4744.17327 1.17146e-17
4745.69022 1.14266e-17
4747.20716 1.15674e-17
4748.73415 1.17083e-17
4750.25110 1.14767e-17
4751.76805 1.12450e-17
4753.29504 1.11155e-17
4754.81198 1.09859e-17
4756.33898 1.08831e-17
4757.85592 1.07803e-17
4759.37287 1.01465e-17
4760.89986 9.51273e-18
4762.41681 1.03882e-17
4763.93375 1.12637e-17
4765.46074 1.09507e-17
4766.97769 1.06376e-17
4768.49464 1.00480e-17
4770.02163 9.45845e-18
4771.53857 1.00300e-17
4773.06557 1.06015e-17
4774.58251 9.56265e-18
4776.09946 8.52380e-18
4777.62645 8.35025e-18
4779.14340 8.17676e-18
4780.66034 8.66139e-18
4782.18733 9.14601e-18
4783.70428 8.89251e-18
4785.23127 8.63900e-18
4786.74822 9.12852e-18
4788.26516 9.61804e-18
4789.79216 9.79585e-18
4791.30910 9.97365e-18
4792.82605 9.36307e-18
4794.35304 8.75249e-18
4795.86999 9.27741e-18
4797.38693 9.80235e-18
4798.91392 9.75455e-18
4800.43087 9.70673e-18
4801.95786 9.29275e-18
4803.47481 8.87878e-18
4804.99175 8.92789e-18
4806.51875 8.97702e-18
4808.03569 9.04488e-18
4809.55264 9.11273e-18
4811.07963 9.36012e-18
4812.59658 9.60750e-18
4814.11352 9.45348e-18
4815.64051 9.29946e-18
4817.15746 8.79612e-18
4818.68445 8.29280e-18
4820.20140 8.67129e-18
4821.71834 9.04979e-18
4823.24534 8.95982e-18
4824.76228 8.86984e-18
4826.27923 8.49667e-18
4827.80622 8.12352e-18
4829.32317 8.24100e-18
4830.85016 8.35849e-18
4832.36710 8.39262e-18
4833.88405 8.42674e-18
4835.41104 8.93483e-18
4836.92799 9.44291e-18
4838.44493 9.27358e-18
4839.97193 9.10424e-18
4841.48887 8.96738e-18
4843.00582 8.83053e-18
4844.53281 8.51779e-18
4846.04976 8.20506e-18
4847.57675 8.32014e-18
4849.09369 8.43524e-18
4850.61064 8.60366e-18
4852.13763 8.77208e-18
4853.65458 8.41771e-18
4855.17152 8.06333e-18
4856.69852 8.63558e-18
4858.21546 9.20783e-18
4859.74245 9.28569e-18
4861.25940 9.36353e-18
4862.77635 9.29632e-18
4864.30334 9.22910e-18
4865.82028 9.49468e-18
4867.33723 9.76026e-18
4868.86422 9.92860e-18
4870.38117 1.00969e-17
4871.90816 1.00039e-17
4873.42511 9.91087e-18
4874.94205 1.00171e-17
4876.46904 1.01233e-17
4877.98599 1.00376e-17
4879.50294 9.95191e-18
4881.02993 1.06714e-17
4882.54687 1.13909e-17
4884.06382 1.16849e-17
4885.59081 1.19789e-17
4887.10776 1.14666e-17
4888.63475 1.09542e-17
4890.15170 1.09158e-17
4891.66864 1.08774e-17
4893.19563 1.09996e-17
4894.71258 1.11218e-17
4896.22953 1.16106e-17
4897.75652 1.20995e-17
4899.27346 1.23736e-17
4900.79041 1.26478e-17
4902.31740 1.28157e-17
4903.83435 1.29837e-17
4905.36134 1.23115e-17
4906.87829 1.16393e-17
4908.39523 1.19971e-17
4909.92222 1.23548e-17
4911.43917 1.30310e-17
4912.95612 1.37072e-17
4914.48311 1.41519e-17
4916.00005 1.45965e-17
4917.52705 1.43950e-17
4919.04399 1.41935e-17
4920.56094 1.43306e-17
4922.08793 1.44678e-17
4923.60488 1.46465e-17
4925.12182 1.48252e-17
4926.64881 1.46536e-17
4928.16576 1.44820e-17
4929.68271 1.52009e-17
4931.20970 1.59198e-17
4932.72664 1.60057e-17
4934.25364 1.60917e-17
4935.77058 1.60826e-17
4937.28753 1.60736e-17
4938.81452 1.62433e-17
4940.33147 1.64131e-17
4941.84841 1.65150e-17
4943.37540 1.66169e-17
4944.89235 1.63572e-17
4946.41934 1.60975e-17
4947.93629 1.58693e-17
4949.45323 1.56411e-17
4950.98023 1.53116e-17
4952.49717 1.49821e-17
4954.01412 1.46657e-17
4955.54111 1.43492e-17
4957.05806 1.46173e-17
4958.58505 1.48853e-17
4960.10199 1.47618e-17
4961.61894 1.46383e-17
4963.14593 1.45013e-17
4964.66288 1.43643e-17
4966.17982 1.42904e-17
4967.70682 1.42165e-17
4969.22376 1.40715e-17
4970.74071 1.39265e-17
4972.26770 1.37033e-17
4973.78465 1.34801e-17
4975.31164 1.36511e-17
4976.82858 1.38222e-17
4978.34553 1.32649e-17
4979.87252 1.27077e-17
4981.38947 1.33733e-17
4982.90641 1.40389e-17
4984.43341 1.39415e-17
4985.95035 1.38440e-17
4987.46730 1.31612e-17
4988.99429 1.24783e-17
4990.51124 1.23004e-17
4992.03823 1.21225e-17
4993.55517 1.22501e-17
4995.07212 1.23776e-17
4996.59911 1.20760e-17
4998.11606 1.17744e-17
4999.63300 1.17874e-17
5001.16000 1.18004e-17
5002.67694 1.16905e-17
5004.20393 1.15805e-17
5005.72088 1.12869e-17
5007.23783 1.09932e-17
5008.76482 1.18072e-17
5010.28176 1.26212e-17
5011.79871 1.19989e-17
5013.32570 1.13766e-17
5014.84265 1.09620e-17
5016.35959 1.05474e-17
5017.88659 1.12070e-17
5019.40353 1.18667e-17
5020.93052 1.17152e-17
5022.44747 1.15637e-17
5023.96442 1.15418e-17
5025.49141 1.15199e-17
5027.00835 1.14980e-17
5028.52530 1.14762e-17
5030.05229 1.14543e-17
5031.56924 1.14324e-17
5033.09623 1.14106e-17
5034.61318 1.13887e-17
5036.13012 1.13668e-17
5037.65711 1.13449e-17
5039.17406 1.13231e-17
5040.69101 1.13012e-17
5042.21800 1.12793e-17
5043.73494 1.12575e-17
5045.25189 1.12356e-17
5046.77888 1.12138e-17
5048.29583 1.13806e-17
5049.82282 1.15475e-17
5051.33977 1.17229e-17
5052.85671 1.18983e-17
5054.38370 1.22931e-17
5055.90065 1.26880e-17
5057.41760 1.29739e-17
5058.94459 1.32597e-17
5060.46153 1.26377e-17
5061.98853 1.20156e-17
5063.50547 1.23111e-17
5065.02242 1.26066e-17
5066.54941 1.30316e-17
5068.06636 1.34565e-17
5069.58330 1.31855e-17
5071.11029 1.29144e-17
5072.62724 1.29384e-17
5074.14419 1.29625e-17
5075.67118 1.32917e-17
5077.18812 1.36208e-17
5078.71512 1.35786e-17
5080.23206 1.35364e-17
5081.74901 1.36838e-17
5083.27600 1.38312e-17
5084.79295 1.40262e-17
5086.30989 1.42212e-17
5087.83688 1.41691e-17
5089.35383 1.41169e-17
5090.88082 1.41384e-17
5092.39777 1.41598e-17
5093.91471 1.43961e-17
5095.44171 1.46323e-17
5096.95865 1.41087e-17
5098.47560 1.35850e-17
5100.00259 1.37728e-17
5101.51954 1.39606e-17
5103.03648 1.36195e-17
5104.56347 1.32782e-17
5106.08042 1.35975e-17
5107.60741 1.39168e-17
5109.12436 1.36998e-17
5110.64130 1.34829e-17
5112.16830 1.35919e-17
5113.68524 1.37008e-17
5115.20219 1.35717e-17
5116.72918 1.34425e-17
5118.24613 1.35584e-17
5119.77312 1.36742e-17
5121.29006 1.36721e-17
5122.80701 1.36699e-17
5124.33400 1.39203e-17
5125.85095 1.41707e-17
5127.36789 1.40343e-17
5128.89489 1.38979e-17
5130.41183 1.40101e-17
5131.92878 1.41222e-17
5133.45577 1.39387e-17
5134.97272 1.37552e-17
5136.49971 1.40906e-17
5138.01665 1.44260e-17
5139.53360 1.44641e-17
5141.06059 1.45021e-17
5142.57754 1.47863e-17
5144.09448 1.50705e-17
5145.62148 1.48183e-17
5147.13842 1.45661e-17
5148.65537 1.47067e-17
5150.18236 1.48473e-17
5151.69931 1.51180e-17
5153.22630 1.53888e-17
5154.74324 1.49653e-17
5156.26019 1.45419e-17
5157.78718 1.51731e-17
5159.30413 1.58043e-17
5160.82107 1.58066e-17
5162.34807 1.58087e-17
5163.86501 1.59167e-17
5165.39200 1.60247e-17
5166.90895 1.58501e-17
5168.42590 1.56756e-17
5169.95289 1.58919e-17
5171.46983 1.61081e-17
5172.98678 1.63925e-17
5174.51377 1.66769e-17
5176.03072 1.66392e-17
5177.55771 1.66014e-17
5179.07466 1.63268e-17
5180.59160 1.60521e-17
5182.11859 1.61389e-17
5183.63554 1.62257e-17
5185.15249 1.67748e-17
5186.67948 1.73238e-17
5188.19642 1.72524e-17
5189.71337 1.71810e-17
5191.24036 1.75364e-17
5192.75731 1.78919e-17
5194.28430 1.74652e-17
5195.80125 1.70384e-17
5197.31819 1.73457e-17
5198.84518 1.76530e-17
5200.36213 1.80955e-17
5201.87908 1.85381e-17
5203.40607 1.80213e-17
5204.92301 1.75045e-17
5206.43996 1.76740e-17
5207.96695 1.78435e-17
5209.48390 1.77596e-17
5211.01089 1.76756e-17
5212.52784 1.77038e-17
5214.04478 1.77320e-17
5215.57177 1.81912e-17
5217.08872 1.86504e-17
5218.60567 1.93007e-17
5220.13266 1.99509e-17
5221.64960 1.96144e-17
5223.17660 1.92780e-17
5224.69354 1.94881e-17
5226.21049 1.96981e-17
5227.73748 1.97624e-17
5229.25443 1.98266e-17
5230.77137 1.98360e-17
5232.29836 1.98454e-17
5233.81531 2.00928e-17
5235.33226 2.03403e-17
5236.85925 2.01483e-17
5238.37619 1.99564e-17
5239.90319 2.04213e-17
5241.42013 2.08861e-17
5242.93708 2.09317e-17
5244.46407 2.09773e-17
5245.98102 2.11633e-17
5247.49796 2.13494e-17
5249.02495 2.12613e-17
5250.54190 2.11732e-17
5252.06889 2.09908e-17
5253.58584 2.08084e-17
5255.10278 2.09252e-17
5256.62978 2.10421e-17
5258.14672 2.07500e-17
5259.66367 2.04580e-17
5261.19066 2.09284e-17
5262.70761 2.13988e-17
5264.22455 2.15687e-17
5265.75154 2.17386e-17
5267.26849 2.18139e-17
5268.79548 2.18891e-17
5270.31243 2.24426e-17
5271.82937 2.29961e-17
5273.35637 2.32323e-17
5274.87331 2.34684e-17
5276.39026 2.29549e-17
5277.91725 2.24413e-17
5279.43420 2.21753e-17
5280.96119 2.19094e-17
5282.47813 2.27465e-17
5283.99508 2.35836e-17
5285.52207 2.35666e-17
5287.03902 2.35495e-17
5288.55596 2.41954e-17
5290.08296 2.48414e-17
5291.59990 2.46026e-17
5293.11685 2.43637e-17
5294.64384 2.38373e-17
5296.16079 2.33109e-17
5297.68778 2.39135e-17
5299.20472 2.45163e-17
5300.72167 2.47144e-17
5302.24866 2.49126e-17
5303.76561 2.41875e-17
5305.28255 2.34624e-17
5306.80955 2.37007e-17
5308.32649 2.39391e-17
5309.85348 2.41919e-17
5311.37043 2.44447e-17
5312.88738 2.41473e-17
5314.41437 2.38499e-17
5315.93131 2.42276e-17
5317.44826 2.46052e-17
5318.97525 2.48865e-17
5320.49220 2.51678e-17
5322.00914 2.44483e-17
5323.53614 2.37288e-17
5325.05308 2.35919e-17
5326.58007 2.34551e-17
5328.09702 2.35109e-17
5329.61397 2.35666e-17
5331.14096 2.43355e-17
5332.65790 2.51044e-17
5334.17485 2.48563e-17
5335.70184 2.46081e-17
5337.21879 2.40665e-17
5338.74578 2.35248e-17
5340.26273 2.38769e-17
5341.77967 2.42291e-17
5343.30666 2.43637e-17
5344.82361 2.44984e-17
5346.34056 2.41696e-17
5347.86755 2.38409e-17
5349.38449 2.40650e-17
5350.90144 2.42891e-17
5352.42843 2.37794e-17
5353.94538 2.32697e-17
5355.47237 2.32889e-17
5356.98932 2.33082e-17
5358.50626 2.36508e-17
5360.03325 2.39934e-17
5361.55020 2.34116e-17
5363.06715 2.28297e-17
5364.59414 2.29168e-17
5366.11108 2.30039e-17
5367.63808 2.31856e-17
5369.15502 2.33674e-17
5370.67197 2.29079e-17
5372.19896 2.24483e-17
5373.71591 2.29358e-17
5375.23285 2.34234e-17
5376.75984 2.34231e-17
5378.27679 2.34227e-17
5379.80378 2.25873e-17
5381.32073 2.17520e-17
5382.83767 2.19229e-17
5384.36467 2.20939e-17
5385.88161 2.18161e-17
5387.39856 2.15383e-17
5388.92555 2.13941e-17
5390.44250 2.12499e-17
5391.95944 2.12034e-17
5393.48643 2.11569e-17
5395.00338 2.12293e-17
5396.52033 2.13016e-17
5398.04732 2.07717e-17
5399.56426 2.02417e-17
5401.09126 2.00259e-17
5402.60820 1.98102e-17
5404.12515 2.02534e-17
5405.65214 2.06966e-17
5407.16909 2.06213e-17
5408.68603 2.05459e-17
5410.21302 2.07062e-17
5411.72997 2.08665e-17
5413.25696 2.03517e-17
5414.77391 1.98369e-17
5416.29085 1.94618e-17
5417.81785 1.90867e-17
5419.33479 1.92592e-17
5420.85174 1.94317e-17
5422.37873 1.92843e-17
5423.89568 1.91369e-17
5425.42267 1.99500e-17
5426.93961 2.07632e-17
5428.45656 2.09949e-17
5429.98355 2.12266e-17
5431.50050 2.01444e-17
5433.01744 1.90621e-17
5434.54444 1.93659e-17
5436.06138 1.96698e-17
5437.57833 2.00174e-17
5439.10532 2.03650e-17
5440.62227 2.00045e-17
5442.14926 1.96439e-17
5443.66620 1.97968e-17
5445.18315 1.99498e-17
5446.71014 1.98899e-17
5448.22709 1.98300e-17
5449.74403 1.95848e-17
5451.27103 1.93397e-17
5452.78797 1.89535e-17
5454.30492 1.85673e-17
5455.83191 1.85373e-17
5457.34886 1.85073e-17
5458.87585 1.85997e-17
5460.39279 1.86921e-17
5461.90974 1.87608e-17
5463.43673 1.88294e-17
5464.95368 1.93639e-17
5466.47062 1.98984e-17
5467.99762 1.95747e-17
5469.51456 1.92509e-17
5471.04155 1.93098e-17
5472.55850 1.93688e-17
5474.07545 1.98622e-17
5475.60244 2.03556e-17
5477.11938 2.00721e-17
5478.63633 1.97886e-17
5480.16332 1.91708e-17
5481.68027 1.85530e-17
5483.19721 1.93767e-17
5484.72421 2.02005e-17
5486.24115 1.95225e-17
5487.76814 1.88443e-17
5489.28509 1.88766e-17
5490.80204 1.89090e-17
5492.32903 1.86724e-17
5493.84597 1.84357e-17
5495.36292 1.78124e-17
5496.88991 1.71890e-17
5498.40686 1.77518e-17
5499.93385 1.83147e-17
5501.45080 1.81530e-17
5502.96774 1.79912e-17
5504.49473 1.81994e-17
5506.01168 1.84075e-17
5507.52863 1.83137e-17
5509.05562 1.82200e-17
5510.57256 1.80686e-17
5512.08951 1.79172e-17
5513.61650 1.76828e-17
5515.13345 1.74484e-17
5516.66044 1.77889e-17
5518.17739 1.81295e-17
5519.69433 1.83362e-17
5521.22132 1.85429e-17
5522.73827 1.83617e-17
5524.25522 1.81805e-17
5525.78221 1.82299e-17
5527.29915 1.82794e-17
5528.82615 1.84959e-17
5530.34309 1.87124e-17
5531.86004 1.85485e-17
5533.38703 1.83847e-17
5534.90398 1.92491e-17
5536.42092 2.01136e-17
5537.94791 1.93721e-17
5539.46486 1.86305e-17
5540.98181 1.90200e-17
5542.50880 1.94096e-17
5544.02574 1.94943e-17
5545.55274 1.95788e-17
5547.06968 1.93122e-17
5548.58663 1.90455e-17
5550.11362 1.90983e-17
5551.63057 1.91512e-17
5553.14751 1.94071e-17
5554.67450 1.96631e-17
5556.19145 1.99302e-17
5557.71844 2.01974e-17
5559.23539 2.06520e-17
5560.75233 2.11067e-17
5562.27933 2.04267e-17
5563.79627 1.97467e-17
5565.31322 1.96706e-17
5566.84021 1.95946e-17
5568.35716 1.95603e-17
5569.88415 1.95260e-17
5571.40109 1.94917e-17
5572.91804 1.94575e-17
5574.44503 1.94232e-17
5575.96198 1.93889e-17
5577.47892 1.93546e-17
5579.00592 1.93204e-17
5580.52286 1.92861e-17
5582.03981 1.92518e-17
5583.56680 1.90426e-17
5585.08375 1.88333e-17
5586.61074 1.85840e-17
5588.12768 1.83347e-17
5589.64463 1.88043e-17
5591.17162 1.92739e-17
5592.68857 1.94418e-17
5594.20551 1.96098e-17
5595.73251 1.92375e-17
5597.24945 1.88652e-17
5598.76640 1.86912e-17
5600.29339 1.85172e-17
5601.81034 1.86098e-17
5603.33733 1.87024e-17
5604.85427 1.91733e-17
5606.37122 1.96442e-17
5607.89821 1.88407e-17
5609.41516 1.80371e-17
5610.93210 1.78244e-17
5612.45910 1.76116e-17
5613.97604 1.80307e-17
5615.50303 1.84498e-17
5617.01998 1.82182e-17
5618.53693 1.79866e-17
5620.06392 1.79190e-17
5621.58086 1.78514e-17
5623.09781 1.79198e-17
5624.62480 1.79881e-17
5626.14175 1.79722e-17
5627.65869 1.79562e-17
5629.18569 1.80321e-17
5630.70263 1.81080e-17
5632.22962 1.76560e-17
5633.74657 1.72041e-17
5635.26352 1.69971e-17
5636.79051 1.67902e-17
5638.30745 1.70390e-17
5639.82440 1.72879e-17
5641.35139 1.73388e-17
5642.86834 1.73896e-17
5644.39533 1.74657e-17
5645.91228 1.75419e-17
5647.42922 1.74982e-17
5648.95621 1.74545e-17
5650.47316 1.69961e-17
5651.99011 1.65377e-17
5653.51710 1.67364e-17
5655.03404 1.69352e-17
5656.55099 1.70207e-17
5658.07798 1.71061e-17
5659.59493 1.71680e-17
5661.12192 1.72299e-17
5662.63887 1.75030e-17
5664.15581 1.77761e-17
5665.68280 1.72222e-17
5667.19975 1.66682e-17
5668.71670 1.66191e-17
5670.24369 1.65700e-17
5671.76063 1.65473e-17
5673.28763 1.65247e-17
5674.80457 1.62646e-17
5676.32152 1.60044e-17
5677.84851 1.61270e-17
5679.36546 1.62496e-17
5680.88240 1.61074e-17
5682.40939 1.59652e-17
5683.92634 1.63185e-17
5685.44329 1.66719e-17
5686.97028 1.61445e-17
5688.48722 1.56170e-17
5690.01422 1.57667e-17
5691.53116 1.59164e-17
5693.04811 1.59262e-17
5694.57510 1.59360e-17
5696.09205 1.57035e-17
5697.60899 1.54710e-17
5699.13598 1.54928e-17
5700.65293 1.55146e-17
5702.16988 1.55689e-17
5703.69687 1.56231e-17
5705.21381 1.59045e-17
5706.74081 1.61859e-17
5708.25775 1.58248e-17
5709.77470 1.54638e-17
5711.30169 1.53162e-17
5712.81864 1.51687e-17
5714.33558 1.50187e-17
5715.86257 1.48687e-17
5717.37952 1.47219e-17
5718.90651 1.45752e-17
5720.42346 1.49823e-17
5721.94040 1.53894e-17
5723.46740 1.53889e-17
5724.98434 1.53884e-17
5726.50129 1.51830e-17
5728.02828 1.49776e-17
5729.54523 1.50910e-17
5731.07222 1.52045e-17
5732.58916 1.49823e-17
5734.10611 1.47601e-17
5735.63310 1.49483e-17
5737.15005 1.51365e-17
5738.66699 1.50786e-17
5740.19399 1.50206e-17
5741.71093 1.54465e-17
5743.22788 1.58725e-17
5744.75487 1.56350e-17
5746.27182 1.53975e-17
5747.79881 1.47349e-17
5749.31575 1.40722e-17
5750.83270 1.44973e-17
5752.35969 1.49224e-17
5753.87664 1.39271e-17
5755.39358 1.29319e-17
5756.92058 1.34071e-17
5758.43752 1.38825e-17
5759.96451 1.37423e-17
5761.48146 1.36021e-17
5762.99841 1.34826e-17
5764.52540 1.33631e-17
5766.04234 1.39825e-17
5767.55929 1.46019e-17
5769.08628 1.55904e-17
5770.60323 1.65788e-17
5772.12017 1.57600e-17
5773.64717 1.49411e-17
5775.16411 1.47546e-17
5776.69110 1.45682e-17
5778.20805 1.38780e-17
5779.72500 1.31879e-17
5781.25199 1.33389e-17
5782.76893 1.34901e-17
5784.28588 1.41695e-17
5785.81287 1.48489e-17
5787.32982 1.49114e-17
5788.84676 1.49739e-17
5790.37376 1.48072e-17
5791.89070 1.46405e-17
5793.41769 1.42133e-17
5794.93464 1.37861e-17
5796.45159 1.40206e-17
5797.97858 1.42551e-17
5799.49552 1.42052e-17
5801.01247 1.41553e-17
5802.53946 1.45302e-17
5804.05641 1.49050e-17
5805.58340 1.45601e-17
5807.10035 1.42152e-17
5808.61729 1.43319e-17
5810.14428 1.44486e-17
5811.66123 1.45091e-17
5813.17818 1.45696e-17
5814.70517 1.46770e-17
5816.22211 1.47845e-17
5817.73906 1.47787e-17
5819.26605 1.47729e-17
5820.78300 1.53685e-17
5822.30999 1.59641e-17
5823.82694 1.54991e-17
5825.34388 1.50339e-17
5826.87087 1.52161e-17
5828.38782 1.53984e-17
5829.90477 1.53625e-17
5831.43176 1.53267e-17
5832.94870 1.53244e-17
5834.47570 1.53221e-17
5835.99264 1.54843e-17
5837.50959 1.56464e-17
5839.03658 1.58196e-17
5840.55353 1.59927e-17
5842.07047 1.60125e-17
5843.59746 1.60323e-17
5845.11441 1.61055e-17
5846.64140 1.61787e-17
5848.15835 1.64845e-17
5849.67529 1.67904e-17
5851.20229 1.69943e-17
5852.71923 1.71981e-17
5854.23618 1.68659e-17
5855.76317 1.65337e-17
5857.28012 1.67325e-17
5858.79706 1.69314e-17
5860.32405 1.70005e-17
5861.84100 1.70697e-17
5863.36799 1.74462e-17
5864.88494 1.78228e-17
5866.40188 1.75807e-17
5867.92888 1.73387e-17
5869.44582 1.71583e-17
5870.96277 1.69780e-17
5872.48976 1.71354e-17
5874.00671 1.72928e-17
5875.52365 1.76288e-17
5877.05064 1.79648e-17
5878.56759 1.76702e-17
5880.09458 1.73754e-17
5881.61153 1.67039e-17
5883.12847 1.60324e-17
5884.65547 1.60543e-17
5886.17241 1.60764e-17
5887.68936 1.58644e-17
5889.21635 1.56524e-17
5890.73330 1.64917e-17
5892.26029 1.73310e-17
5893.77723 1.71530e-17
5895.29418 1.69749e-17
5896.82117 1.69675e-17
5898.33812 1.69602e-17
5899.85506 1.72135e-17
5901.38206 1.74669e-17
5902.89900 1.71159e-17
5904.41595 1.67648e-17
5905.94294 1.70276e-17
5907.45989 1.72905e-17
5908.98688 1.68230e-17
5910.50382 1.63554e-17
5912.02077 1.67570e-17
5913.54776 1.71585e-17
5915.06471 1.72104e-17
5916.58165 1.72622e-17
5918.10865 1.65454e-17
5919.62559 1.58285e-17
5921.15258 1.56053e-17
5922.66953 1.53820e-17
5924.18648 1.55016e-17
5925.71347 1.56213e-17
5927.23041 1.58098e-17
5928.74736 1.59983e-17
5930.27435 1.62333e-17
5931.79130 1.64682e-17
5933.31829 1.63294e-17
5934.83524 1.61905e-17
5936.35218 1.62793e-17
5937.87917 1.63682e-17
5939.39612 1.69173e-17
5940.91307 1.74665e-17
5942.44006 1.70034e-17
5943.95700 1.65402e-17
5945.47395 1.65562e-17
5947.00094 1.65721e-17
5948.51789 1.64103e-17
5950.04488 1.62485e-17
5951.56183 1.64326e-17
5953.07877 1.66168e-17
5954.60576 1.62226e-17
5956.12271 1.58283e-17
5957.63966 1.55991e-17
5959.16665 1.53698e-17
5960.68359 1.58727e-17
5962.20054 1.63755e-17
5963.72753 1.61135e-17
5965.24448 1.58514e-17
5966.77147 1.56343e-17
5968.28842 1.54172e-17
5969.80536 1.54418e-17
5971.33235 1.54664e-17
5972.84930 1.53027e-17
5974.36625 1.51390e-17
5975.89324 1.49007e-17
5977.41018 1.46624e-17
5978.93718 1.47932e-17
5980.45412 1.49241e-17
5981.97107 1.51020e-17
5983.49806 1.52798e-17
5985.01501 1.48978e-17
5986.53195 1.45158e-17
5988.05894 1.43703e-17
5989.57589 1.42249e-17
5991.09284 1.44556e-17
5992.61983 1.46864e-17
5994.13677 1.42361e-17
5995.66377 1.37857e-17
5997.18071 1.37528e-17
5998.69766 1.37198e-17
6000.22465 1.36563e-17
6001.74160 1.35928e-17
6003.25854 1.37166e-17
6004.78553 1.38404e-17
6006.30248 1.38626e-17
6007.81943 1.38847e-17
6009.34642 1.35186e-17
6010.86336 1.31526e-17
6012.39036 1.31180e-17
6013.90730 1.30835e-17
6015.42425 1.29268e-17
6016.95124 1.27702e-17
6018.46819 1.27694e-17
6019.98513 1.27686e-17
6021.51212 1.28843e-17
6023.02907 1.30000e-17
6024.55606 1.28332e-17
6026.07301 1.26664e-17
6027.58995 1.24908e-17
6029.11695 1.23151e-17
6030.63389 1.21207e-17
6032.15084 1.19263e-17
6033.67783 1.20699e-17
6035.19478 1.22136e-17
6036.72177 1.22891e-17
6038.23871 1.23646e-17
6039.75566 1.25873e-17
6041.28265 1.28100e-17
6042.79960 1.27955e-17
6044.31654 1.27809e-17
6045.84354 1.27141e-17
6047.36048 1.26473e-17
6048.87743 1.27174e-17
6050.40442 1.27874e-17
6051.92137 1.29386e-17
6053.44836 1.30898e-17
6054.96530 1.27689e-17
6056.48225 1.24479e-17
6058.00924 1.22247e-17
6059.52619 1.20015e-17
6061.04313 1.21412e-17
6062.57013 1.22809e-17
6064.08707 1.25218e-17
6065.60402 1.27627e-17
6067.13101 1.28758e-17
6068.64796 1.29889e-17
6070.17495 1.28008e-17
6071.69189 1.26127e-17
6073.20884 1.24805e-17
6074.73583 1.23483e-17
6076.25278 1.22825e-17
6077.76972 1.22167e-17
6079.29672 1.24294e-17
6080.81366 1.26422e-17
6082.34065 1.25074e-17
6083.85760 1.23726e-17
6085.37455 1.20140e-17
6086.90154 1.16553e-17
6088.41848 1.18524e-17
6089.93543 1.20496e-17
6091.46242 1.19910e-17
6092.97937 1.19325e-17
6094.49631 1.16547e-17
6096.02331 1.13769e-17
6097.54025 1.16636e-17
6099.06724 1.19504e-17
6100.58419 1.18120e-17
6102.10114 1.16735e-17
6103.62813 1.17202e-17
6105.14507 1.17668e-17
6106.66202 1.19324e-17
6108.18901 1.20980e-17
6109.70596 1.15496e-17
6111.23295 1.10012e-17
6112.74990 1.15198e-17
6114.26684 1.20385e-17
6115.79383 1.18614e-17
6117.31078 1.16843e-17
6118.82773 1.13483e-17
6120.35472 1.10124e-17
6121.87166 1.11313e-17
6123.38861 1.12503e-17
6124.91560 1.10045e-17
6126.43255 1.07588e-17
6127.95954 1.07845e-17
6129.47649 1.08103e-17
6130.99343 1.06343e-17
6132.52042 1.04583e-17
6134.03737 1.06353e-17
6135.55432 1.08123e-17
6137.08131 1.10653e-17
6138.59825 1.13184e-17
6140.12525 1.11027e-17
6141.64219 1.08870e-17
6143.15914 1.07603e-17
6144.68613 1.06335e-17
6146.20308 1.08811e-17
6147.72002 1.11286e-17
6149.24701 1.10380e-17
6150.76396 1.09473e-17
6152.28091 1.12352e-17
6153.80790 1.15231e-17
6155.32484 1.15552e-17
6156.85184 1.15873e-17
6158.36878 1.13618e-17
6159.88573 1.11363e-17
6161.41272 1.08778e-17
6162.92967 1.06194e-17
6164.44661 1.04386e-17
6165.97360 1.02578e-17
6167.49055 1.05667e-17
6169.01754 1.08757e-17
6170.53449 1.06624e-17
6172.05143 1.04490e-17
6173.57843 1.04065e-17
6175.09537 1.03639e-17
6176.61232 1.03211e-17
6178.13931 1.02783e-17
6179.65626 1.00877e-17
6181.17320 9.89716e-18
6182.70019 9.99879e-18
6184.21714 1.01005e-17
6185.74413 1.02401e-17
6187.26108 1.03798e-17
6188.77802 1.03161e-17
6190.30502 1.02523e-17
6191.82196 1.02324e-17
6193.33891 1.02125e-17
6194.86590 1.01285e-17
6196.38285 1.00444e-17
6197.90984 9.65273e-18
6199.42678 9.26102e-18
6200.94373 9.01540e-18
6202.47072 8.76981e-18
6203.98767 8.84335e-18
6205.50461 8.91693e-18
6207.03161 9.13663e-18
6208.54855 9.35634e-18
6210.06550 9.00051e-18
6211.59249 8.64463e-18
6213.10944 8.71153e-18
6214.63643 8.77846e-18
6216.15337 8.88264e-18
6217.67032 8.98681e-18
6219.19731 8.52915e-18
6220.71426 8.07144e-18
6222.23120 8.15600e-18
6223.75820 8.24062e-18
6225.27514 8.43120e-18
6226.80213 8.62179e-18
6228.31908 8.40584e-18
6229.83603 8.18987e-18
6231.36302 7.74990e-18
6232.87996 7.30992e-18
6234.39691 7.27519e-18
6235.92390 7.24050e-18
6237.44085 7.59221e-18
6238.96784 7.94394e-18
6240.48479 8.47078e-18
6242.00173 8.99762e-18
6243.52872 8.96517e-18
6245.04567 8.93267e-18
6246.56262 8.88397e-18
6248.08961 8.83526e-18
6249.60655 8.69580e-18
6251.12350 8.55634e-18
6252.65049 8.17116e-18
6254.16744 7.78597e-18
6255.68438 7.83215e-18
6257.21138 7.87838e-18
6258.72832 8.40256e-18
6260.25531 8.92677e-18
6261.77226 9.10305e-18
6263.28921 9.27930e-18
6264.81620 8.97655e-18
6266.33314 8.67375e-18
6267.85009 9.06157e-18
6269.37708 9.44944e-18
6270.89403 9.26033e-18
6272.42102 9.07116e-18
6273.93797 9.07834e-18
6275.45491 9.08554e-18
6276.98190 9.27863e-18
6278.49885 9.47173e-18
6280.01580 9.27397e-18
6281.54279 9.07618e-18
6283.05973 8.80387e-18
6284.58673 8.53157e-18
6286.10367 8.89004e-18
6287.62062 9.24856e-18
6289.14761 9.16105e-18
6290.66456 9.07349e-18
6292.18150 9.05205e-18
6293.70849 9.03063e-18
6295.22544 9.38357e-18
6296.74239 9.73653e-18
6298.26938 1.05317e-17
6299.78632 1.13269e-17
6301.31332 1.09380e-17
6302.83026 1.05490e-17
6304.34721 9.66711e-18
6305.87420 8.78517e-18
6307.39115 9.82572e-18
6308.90809 1.08664e-17
6310.43508 1.09801e-17
6311.95203 1.10936e-17
6313.47902 1.10054e-17
6314.99597 1.09173e-17
6316.51291 1.08107e-17
6318.03991 1.07042e-17
6319.55685 1.10609e-17
6321.07380 1.14177e-17
6322.60079 1.10117e-17
6324.11774 1.06056e-17
6325.63468 1.10098e-17
6327.16167 1.14140e-17
6328.67862 1.15767e-17
6330.20561 1.17394e-17
6331.72256 1.16116e-17
6333.23950 1.14838e-17
6334.76650 1.16848e-17
6336.28344 1.18858e-17
6337.80039 1.21018e-17
6339.32738 1.23179e-17
6340.84433 1.21364e-17
6342.36127 1.19548e-17
6343.88826 1.22871e-17
6345.40521 1.26195e-17
6346.93220 1.27984e-17
6348.44915 1.29772e-17
6349.96609 1.26295e-17
6351.49309 1.22818e-17
6353.01003 1.26067e-17
6354.52698 1.29316e-17
6356.05397 1.31925e-17
6357.57092 1.34535e-17
6359.09791 1.31018e-17
6360.61485 1.27501e-17
6362.13180 1.30089e-17
6363.65879 1.32678e-17
6365.17574 1.33602e-17
6366.69268 1.34527e-17
6368.21968 1.33458e-17
6369.73662 1.32389e-17
6371.25357 1.36164e-17
6372.78056 1.39939e-17
6374.29751 1.42097e-17
6375.82450 1.44254e-17
6377.34144 1.48969e-17
6378.85839 1.53684e-17
6380.38538 1.48420e-17
6381.90233 1.43156e-17
6383.41927 1.43218e-17
6384.94627 1.43281e-17
6386.46321 1.44433e-17
6387.99020 1.45585e-17
6389.50715 1.46845e-17
6391.02410 1.48105e-17
6392.55109 1.49567e-17
6394.06803 1.51029e-17
6395.58498 1.53856e-17
6397.11197 1.56684e-17
6398.62892 1.53325e-17
6400.15591 1.49966e-17
6401.67286 1.54620e-17
6403.18980 1.59274e-17
6404.71679 1.58884e-17
6406.23374 1.58492e-17
6407.75069 1.57025e-17
6409.27768 1.55557e-17
6410.79462 1.59079e-17
6412.31157 1.62602e-17
6413.83856 1.62213e-17
6415.35551 1.61823e-17
6416.88250 1.58332e-17
6418.39945 1.54840e-17
6419.91639 1.60183e-17
6421.44338 1.65526e-17
6422.96033 1.64522e-17
6424.47728 1.63518e-17
6426.00427 1.59520e-17
6427.52121 1.55521e-17
6429.03816 1.62077e-17
6430.56515 1.68634e-17
6432.08210 1.67341e-17
6433.60909 1.66047e-17
6435.12604 1.67212e-17
6436.64298 1.68378e-17
6438.16997 1.68529e-17
6439.68692 1.68680e-17
6441.20387 1.67696e-17
6442.73086 1.66711e-17
6444.24780 1.67949e-17
6445.77480 1.69187e-17
6447.29174 1.64983e-17
6448.80869 1.60779e-17
6450.33568 1.68380e-17
6451.85263 1.75982e-17
6453.36957 1.75203e-17
6454.89656 1.74424e-17
6456.41351 1.71355e-17
6457.93046 1.68287e-17
6459.45745 1.68504e-17
6460.97439 1.68721e-17
6462.50139 1.68601e-17
6464.01833 1.68481e-17
6465.53528 1.71072e-17
6467.06227 1.73663e-17
6468.57922 1.71847e-17
6470.09616 1.70031e-17
6471.62315 1.68520e-17
6473.14010 1.67010e-17
6474.66709 1.66391e-17
6476.18404 1.65772e-17
6477.70098 1.69481e-17
6479.22798 1.73191e-17
6480.74492 1.74744e-17
6482.26187 1.76296e-17
6483.78886 1.71962e-17
6485.30581 1.67627e-17
6486.82275 1.66651e-17
6488.34974 1.65676e-17
6489.86669 1.64566e-17
6491.39368 1.63457e-17
6492.91063 1.63738e-17
6494.42757 1.64018e-17
6495.95457 1.67216e-17
6497.47151 1.70413e-17
6498.98846 1.72196e-17
6500.51545 1.73978e-17
6502.03240 1.71149e-17
6503.55939 1.68319e-17
6505.07633 1.70348e-17
6506.59328 1.72377e-17
6508.12027 1.70839e-17
6509.63722 1.69301e-17
6511.15416 1.67509e-17
6512.68116 1.65717e-17
6514.19810 1.69148e-17
6515.71505 1.72580e-17
6517.24204 1.66193e-17
6518.75899 1.59804e-17
6520.28598 1.57550e-17
6521.80292 1.55296e-17
6523.31987 1.58230e-17
6524.84686 1.61165e-17
6526.36381 1.60794e-17
6527.88075 1.60423e-17
6529.40775 1.60792e-17
6530.92469 1.61161e-17
6532.45168 1.58811e-17
6533.96863 1.56460e-17
6535.48558 1.56753e-17
6537.01257 1.57046e-17
6538.52951 1.54526e-17
6540.04646 1.52006e-17
6541.57345 1.54296e-17
6543.09040 1.56586e-17
6544.60734 1.54356e-17
6546.13434 1.52125e-17
6547.65128 1.51342e-17
6549.17827 1.50559e-17
6550.69522 1.50414e-17
6552.21217 1.50269e-17
6553.73916 1.52361e-17
6555.25610 1.54453e-17
6556.77305 1.50733e-17
6558.30004 1.47013e-17
6559.81699 1.50334e-17
6561.33393 1.53655e-17
6562.86093 1.52224e-17
6564.37787 1.50793e-17
6565.90486 1.48592e-17
6567.42181 1.46392e-17
6568.93876 1.48745e-17
6570.46575 1.51099e-17
6571.98269 1.48322e-17
6573.49964 1.45545e-17
6575.02663 1.46875e-17
6576.54358 1.48206e-17
6578.07057 1.47211e-17
6579.58752 1.46216e-17
6581.10446 1.45801e-17
6582.63145 1.45386e-17
6584.14840 1.44085e-17
6585.66535 1.42784e-17
6587.19234 1.43008e-17
6588.70928 1.43233e-17
6590.23628 1.45436e-17
6591.75322 1.47638e-17
6593.27017 1.53314e-17
6594.79716 1.58989e-17
6596.31411 1.51685e-17
6597.83105 1.44379e-17
6599.35804 1.38430e-17
6600.87499 1.32480e-17
6602.39194 1.32515e-17
6603.91893 1.32550e-17
6605.43587 1.34721e-17
6606.96287 1.36892e-17
6608.47981 1.39605e-17
6609.99676 1.42317e-17
6611.52375 1.40921e-17
6613.04070 1.39525e-17
6614.55764 1.40517e-17
6616.08463 1.41510e-17
6617.60158 1.36897e-17
6619.12857 1.32283e-17
6620.64552 1.31523e-17
6622.16246 1.30763e-17
6623.68946 1.27879e-17
6625.20640 1.24995e-17
6626.72335 1.27259e-17
6628.25034 1.29522e-17
6629.76729 1.29525e-17
6631.28423 1.29527e-17
6632.81122 1.26053e-17
6634.32817 1.22578e-17
6635.85516 1.29916e-17
6637.37211 1.37254e-17
6638.88905 1.34499e-17
6640.41605 1.31742e-17
6641.93299 1.30460e-17
6643.44994 1.29179e-17
6644.97693 1.28266e-17
6646.49388 1.27354e-17
6648.01082 1.26583e-17
6649.53781 1.25812e-17
6651.05476 1.26369e-17
6652.58175 1.26926e-17
6654.09870 1.27025e-17
6655.61564 1.27124e-17
6657.14264 1.27753e-17
6658.65958 1.28383e-17
6660.17653 1.29950e-17
6661.70352 1.31517e-17
6663.22047 1.28947e-17
6664.74746 1.26377e-17
6666.26440 1.29485e-17
6667.78135 1.32593e-17
6669.30834 1.31286e-17
6670.82529 1.29978e-17
6672.34223 1.28079e-17
6673.86923 1.26181e-17
6675.38617 1.28979e-17
6676.90312 1.31778e-17
6678.43011 1.30147e-17
6679.94706 1.28514e-17
6681.47405 1.33437e-17
6682.99099 1.38360e-17
6684.50794 1.35270e-17
6686.03493 1.32180e-17
6687.55188 1.32137e-17
6689.06882 1.32095e-17
6690.59582 1.30557e-17
6692.11276 1.29019e-17
6693.63975 1.26938e-17
6695.15670 1.24858e-17
6696.67365 1.27971e-17
6698.20064 1.31084e-17
6699.71758 1.33412e-17
6701.23453 1.35739e-17
6702.76152 1.30869e-17
6704.27847 1.25998e-17
6705.80546 1.21300e-17
6707.32241 1.16602e-17
6708.83935 1.22126e-17
6710.36634 1.27652e-17
6711.88329 1.25497e-17
6713.40024 1.23341e-17
6714.92723 1.24068e-17
6716.44417 1.24795e-17
6717.96112 1.25895e-17
6719.48811 1.26995e-17
6721.00506 1.25891e-17
6722.53205 1.24787e-17
6724.04900 1.24166e-17
6725.56594 1.23546e-17
6727.09293 1.22285e-17
6728.60988 1.21024e-17
6730.12683 1.19391e-17
6731.65382 1.17759e-17
6733.17076 1.19292e-17
6734.68771 1.20825e-17
6736.21470 1.17881e-17
6737.73165 1.14937e-17
6739.25864 1.13684e-17
6740.77559 1.12432e-17
6742.29253 1.13423e-17
6743.81952 1.14414e-17
6745.33647 1.18541e-17
6746.85342 1.22669e-17
6748.38041 1.21613e-17
6749.89735 1.20556e-17
6751.42435 1.17648e-17
6752.94129 1.14740e-17
6754.45824 1.15472e-17
6755.98523 1.16205e-17
6757.50218 1.14353e-17
6759.01912 1.12500e-17
6760.54611 1.11762e-17
6762.06306 1.11025e-17
6763.58001 1.14261e-17
6765.10700 1.17496e-17
6766.62394 1.15093e-17
6768.15094 1.12690e-17
6769.66788 1.11902e-17
6771.18483 1.11114e-17
6772.71182 1.10729e-17
6774.22877 1.10344e-17
6775.74571 1.14338e-17
6777.27270 1.18332e-17
6778.78965 1.14093e-17
6780.31664 1.09853e-17
6781.83359 1.12529e-17
6783.35053 1.15205e-17
6784.87753 1.12714e-17
6786.39447 1.10223e-17
6787.91142 1.10890e-17
6789.43841 1.11558e-17
6790.95536 1.11765e-17
6792.48235 1.11973e-17
6793.99929 1.06739e-17
6795.51624 1.01504e-17
6797.04323 1.04648e-17
6798.56018 1.07794e-17
6800.07712 1.09981e-17
6801.60412 1.12167e-17
6803.12106 1.09532e-17
6804.63801 1.06897e-17
6806.16500 1.08099e-17
6807.68195 1.09301e-17
6809.20894 1.06887e-17
6810.72588 1.04473e-17
6812.24283 1.02775e-17
6813.76982 1.01077e-17
6815.28677 1.05332e-17
6816.80371 1.09587e-17
6818.33071 1.12284e-17
6819.84765 1.14981e-17
6821.36460 1.08792e-17
6822.89159 1.02603e-17
6824.40854 1.01858e-17
6825.93553 1.01115e-17
6827.45247 1.03333e-17
6828.96942 1.05552e-17
6830.49641 1.06056e-17
6832.01336 1.06560e-17
6833.53030 1.02396e-17
6835.05730 9.82322e-18
6836.57424 9.90490e-18
6838.10123 9.98663e-18
6839.61818 1.05268e-17
6841.13513 1.10670e-17
6842.66212 1.08787e-17
6844.17906 1.06903e-17
6845.69601 1.06737e-17
6847.22300 1.06572e-17
6848.73995 1.06407e-17
6850.25689 1.06242e-17
6851.78389 1.06077e-17
6853.30083 1.05912e-17
6854.82782 1.05747e-17
6856.34477 1.05581e-17
6857.86172 1.05416e-17
6859.38871 1.05251e-17
6860.90565 1.05086e-17
6862.42260 1.04921e-17
6863.94959 1.04756e-17
6865.46654 1.04591e-17
6866.99353 1.04426e-17
6868.51048 1.04261e-17
6870.02742 1.04096e-17
6871.55441 1.03930e-17
6873.07136 1.03765e-17
6874.58831 1.03600e-17
6876.11530 1.03435e-17
6877.63224 1.03270e-17
6879.14919 1.03105e-17
6880.67618 1.02940e-17
6882.19313 1.02775e-17
6883.72012 1.02610e-17
6885.23707 1.02445e-17
6886.75401 1.02280e-17
6888.28100 1.02115e-17
6889.79795 1.01950e-17
6891.31490 1.01785e-17
6892.84189 1.01620e-17
6894.35883 1.01455e-17
6895.88583 1.01290e-17
6897.40277 1.01125e-17
6898.91972 1.00960e-17
6900.44671 1.00795e-17
6901.96366 1.00630e-17
6903.48060 1.00465e-17
6905.00759 1.00300e-17
6906.52454 1.00135e-17
6908.04149 9.99696e-18
6909.56848 9.98045e-18
6911.08542 9.96396e-18
6912.61242 9.94746e-18
6914.12936 9.93096e-18
6915.64631 9.91447e-18
6917.17330 9.89797e-18
6918.69025 9.88147e-18
6920.20719 9.86497e-18
6921.73418 9.84848e-18
6923.25113 9.83199e-18
6924.76808 9.81549e-18
6926.29507 9.79900e-18
6927.81201 9.78250e-18
6929.33901 9.76601e-18
6930.85595 9.74951e-18
6932.37290 9.73302e-18
6933.89989 9.71653e-18
6935.41684 9.70004e-18
6936.93378 9.66475e-18
6938.46077 9.62942e-18
6939.97772 9.49711e-18
6941.50471 9.36478e-18
6943.02166 9.19714e-18
6944.53860 9.02951e-18
6946.06560 8.87333e-18
6947.58254 8.71716e-18
6949.09949 9.05296e-18
6950.62648 9.38880e-18
6952.14343 9.39689e-18
6953.67042 9.40493e-18
6955.18736 9.40905e-18
6956.70431 9.41317e-18
6958.23130 9.15753e-18
6959.74825 8.90186e-18
6961.26519 9.26004e-18
6962.79219 9.61829e-18
6964.30913 9.66372e-18
6965.82608 9.70911e-18
6967.35307 9.70010e-18
6968.87002 9.69108e-18
6970.39701 9.70405e-18
6971.91395 9.71703e-18
6973.43090 9.41606e-18
6974.95789 9.11505e-18
6976.47484 9.30100e-18
6977.99178 9.48700e-18
6979.51878 9.22492e-18
6981.03572 8.96279e-18
6982.55267 9.35882e-18
6984.07966 9.75492e-18
6985.59661 9.87627e-18
6987.12360 9.99757e-18
6988.64054 1.00715e-17
6990.15749 1.01455e-17
6991.68448 9.87055e-18
6993.20143 9.59556e-18
6994.71837 9.68007e-18
6996.24537 9.76464e-18
6997.76231 9.89704e-18
6999.28930 1.00294e-17
7000.80625 9.95960e-18
7002.32320 9.88974e-18
7003.85019 9.87212e-18
7005.36713 9.85450e-18
7006.88408 1.01773e-17
7008.41107 1.05001e-17
7009.92802 1.01195e-17
7011.44496 9.73891e-18
7012.97196 9.84212e-18
7014.48890 9.94538e-18
7016.01589 1.00469e-17
7017.53284 1.01485e-17
7019.04979 1.00514e-17
7020.57678 9.95427e-18
7022.09372 9.95085e-18
7023.61067 9.94744e-18
7025.13766 1.00816e-17
7026.65461 1.02157e-17
7028.18160 1.00203e-17
7029.69855 9.82477e-18
7031.21549 9.83665e-18
7032.74248 9.84855e-18
7034.25943 1.00210e-17
7035.77638 1.01935e-17
7037.30337 1.00960e-17
7038.82031 9.99840e-18
7040.33726 9.98606e-18
7041.86425 9.97372e-18
7043.38120 9.98134e-18
7044.90819 9.98897e-18
7046.42514 1.01344e-17
7047.94208 1.02798e-17
7049.46907 1.01718e-17
7050.98602 1.00637e-17
7052.50297 9.90720e-18
7054.02996 9.75064e-18
7055.54690 9.92064e-18
7057.07390 1.00907e-17
7058.59084 1.02801e-17
7060.10779 1.04696e-17
7061.63478 1.00025e-17
7063.15173 9.53545e-18
7064.66867 9.88634e-18
7066.19566 1.02373e-17
7067.71261 1.01061e-17
7069.22956 9.97477e-18
7070.75655 1.00455e-17
7072.27349 1.01163e-17
7073.80049 1.05975e-17
7075.31743 1.10787e-17
7076.83438 1.06930e-17
7078.36137 1.03073e-17
7079.87832 1.02142e-17
7081.39526 1.01211e-17
7082.92225 1.00689e-17
7084.43920 1.00167e-17
7085.96619 9.53499e-18
7087.48314 9.05326e-18
7089.00008 9.76015e-18
7090.52708 1.04672e-17
7092.04402 1.02841e-17
7093.56097 1.01010e-17
7095.08796 9.91626e-18
7096.60491 9.73155e-18
7098.12185 9.90444e-18
7099.64884 1.00774e-17
7101.16579 1.03785e-17
7102.69278 1.06797e-17
7104.20973 1.03732e-17
7105.72667 1.00666e-17
7107.25367 9.99499e-18
7108.77061 9.92343e-18
7110.28756 1.01292e-17
7111.81455 1.03350e-17
7113.33150 1.02108e-17
7114.84844 1.00866e-17
7116.37543 9.87880e-18
7117.89238 9.67103e-18
7119.41937 9.85583e-18
7120.93632 1.00407e-17
7122.45326 9.79519e-18
7123.98026 9.54965e-18
7125.49720 9.73000e-18
7127.01415 9.91040e-18
7128.54114 9.81319e-18
7130.05809 9.71594e-18
7131.58508 9.50251e-18
7133.10202 9.28907e-18
7134.61897 9.51022e-18
7136.14596 9.73142e-18
7137.66291 9.48837e-18
7139.17985 9.24526e-18
7140.70685 9.18960e-18
7142.22379 9.13398e-18
7143.75078 9.24975e-18
7145.26773 9.36555e-18
7146.78468 9.13686e-18
7148.31167 8.90812e-18
7149.82861 8.63975e-18
7151.34556 8.37138e-18
7152.87255 8.63682e-18
7154.38950 8.90232e-18
7155.90644 9.07997e-18
7157.43344 9.25761e-18
7158.95038 8.99745e-18
7160.47737 8.73724e-18
7161.99432 8.96188e-18
7163.51127 9.18658e-18
7165.03826 9.41180e-18
7166.55520 9.63701e-18
7168.07215 9.48373e-18
7169.59914 9.33041e-18
7171.11609 8.81196e-18
7172.64308 8.29348e-18
7174.16003 8.68694e-18
7175.67697 9.08051e-18
7177.20396 8.87723e-18
7178.72091 8.67386e-18
7180.23786 9.01858e-18
7181.76485 9.36337e-18
7183.28179 8.85380e-18
7184.79874 8.34414e-18
7186.32573 8.48162e-18
7187.84268 8.61918e-18
7189.36967 9.03915e-18
7190.88662 9.45914e-18
7192.40356 9.14822e-18
7193.93055 8.83720e-18
7195.44750 8.82688e-18
7196.96445 8.81660e-18
7198.49144 9.38721e-18
7200.00838 9.95788e-18
7201.52533 9.61252e-18
7203.05232 9.26705e-18
7204.56927 9.22029e-18
7206.09626 9.17356e-18
7207.61321 9.47911e-18
7209.13015 9.78470e-18
7210.65714 9.81322e-18
7212.17409 9.84170e-18
7213.69104 9.86532e-18
7215.21803 9.88893e-18
7216.73497 9.54736e-18
7218.26197 9.20575e-18
7219.77891 9.41974e-18
7221.29586 9.63380e-18
7222.82285 9.47263e-18
7224.33980 9.31140e-18
7225.85674 9.38322e-18
7227.38373 9.45507e-18
7228.90068 1.01015e-17
7230.41763 1.07481e-17
7231.94462 1.05048e-17
7233.46156 1.02615e-17
7234.98856 9.90723e-18
7236.50550 9.55298e-18
7238.02245 9.70077e-18
7239.54944 9.84862e-18
7241.06639 9.62607e-18
7242.58333 9.40348e-18
7244.11032 9.79613e-18
7245.62727 1.01889e-17
7247.15426 9.76873e-18
7248.67121 9.34850e-18
7250.18815 9.44969e-18
7251.71515 9.55096e-18
7253.23209 9.64810e-18
7254.74904 9.74525e-18
7256.27603 1.00175e-17
7257.79298 1.02898e-17
7259.31997 1.00375e-17
7260.83691 9.78515e-18
7262.35386 9.50173e-18
7263.88085 9.21830e-18
7265.39780 9.14906e-18
7266.91474 9.07985e-18
7268.44174 9.02562e-18
7269.95868 8.97138e-18
7271.47563 8.71672e-18
7273.00262 8.46204e-18
7274.51957 8.93597e-18
7276.04656 9.40999e-18
7277.56350 9.22014e-18
7279.08045 9.03020e-18
7280.60744 9.13037e-18
7282.12439 9.23058e-18
7283.64133 9.41549e-18
7285.16833 9.60041e-18
7286.68527 9.55787e-18
7288.20222 9.51531e-18
7289.72921 9.06112e-18
7291.24616 8.60688e-18
7292.77315 8.87374e-18
7294.29009 9.14069e-18
7295.80704 9.26975e-18
7297.33403 9.39879e-18
7298.85098 9.34958e-18
7300.36792 9.30034e-18
7301.89492 9.40502e-18
7303.41186 9.50972e-18
7304.93885 8.75456e-18
7306.45580 7.99930e-18
7307.97275 8.42333e-18
7309.49974 8.84751e-18
7311.01668 8.60610e-18
7312.53363 8.36459e-18
7314.06062 8.80922e-18
7315.57757 9.25393e-18
7317.09451 9.47763e-18
7318.62151 9.70129e-18
7320.13845 9.39994e-18
7321.66544 9.09852e-18
7323.18239 8.79741e-18
7324.69934 8.49630e-18
7326.22633 8.91218e-18
7327.74327 9.32814e-18
7329.26022 8.89250e-18
7330.78721 8.45675e-18
7332.30416 8.59614e-18
7333.83115 8.73560e-18
7335.34810 9.20832e-18
7336.86504 9.68107e-18
7338.39203 9.85765e-18
7339.90898 1.00342e-17
7341.42593 1.01378e-17
7342.95292 1.02414e-17
7344.46986 9.05165e-18
7345.98681 7.86175e-18
7347.51380 8.28906e-18
7349.03075 8.71658e-18
7350.55774 8.68439e-18
7352.07469 8.65212e-18
7353.59163 8.50171e-18
7355.11862 8.35128e-18
7356.63557 8.76980e-18
7358.15252 9.18838e-18
7359.67951 9.01283e-18
7361.19645 8.83719e-18
7362.72345 8.87025e-18
7364.24039 8.90333e-18
7365.75734 9.51012e-18
7367.28433 1.01170e-17
7368.80128 9.50113e-18
7370.31822 8.88513e-18
7371.84521 8.61448e-18
7373.36216 8.34389e-18
7374.87911 8.91449e-18
7376.40610 9.48520e-18
7377.92304 9.53500e-18
7379.45004 9.58473e-18
7380.96698 9.50982e-18
7382.48393 9.43489e-18
7384.01092 9.16660e-18
7385.52787 8.89830e-18
7387.04481 9.11471e-18
7388.57180 9.33118e-18
7390.08875 9.11493e-18
7391.61574 8.89862e-18
7393.13269 8.89770e-18
7394.64963 8.89681e-18
7396.17663 9.06097e-18
7397.69357 9.22515e-18
7399.21052 9.37497e-18
7400.73751 9.52479e-18
7402.25446 9.49677e-18
7403.77140 9.46874e-18
7405.29839 9.55716e-18
7406.81534 9.64560e-18
7408.34233 9.67517e-18
7409.85928 9.70474e-18
7411.37622 9.65286e-18
7412.90322 9.60097e-18
7414.42016 9.69418e-18
7415.93711 9.78740e-18
7417.46410 9.81375e-18
7418.98105 9.84008e-18
7420.50804 9.37913e-18
7422.02498 8.91812e-18
7423.54193 9.23300e-18
7425.06892 9.54799e-18
7426.58587 9.87343e-18
7428.10281 1.01989e-17
7429.62981 1.02180e-17
7431.14675 1.02372e-17
7432.66370 1.01028e-17
7434.19069 9.96845e-18
7435.70764 9.92897e-18
7437.23463 9.88950e-18
7438.75157 9.94664e-18
7440.26852 1.00038e-17
7441.79551 1.01129e-17
7443.31246 1.02220e-17
7444.82940 9.93696e-18
7446.35640 9.65192e-18
7447.87334 9.78188e-18
7449.40033 9.91190e-18
7450.91728 9.96913e-18
7452.43423 1.00264e-17
7453.96122 1.00079e-17
7455.47816 9.98941e-18
7456.99511 1.00791e-17
7458.52210 1.01688e-17
7460.03905 9.84265e-18
7461.55599 9.51647e-18
7463.08299 9.65538e-18
7464.59993 9.79435e-18
7466.12692 9.44155e-18
7467.64387 9.08868e-18
7469.16082 9.30041e-18
7470.68781 9.51221e-18
7472.20475 9.88566e-18
7473.72170 1.02591e-17
7475.24869 1.02692e-17
7476.76564 1.02792e-17
7478.29263 1.03926e-17
7479.80958 1.05060e-17
7481.32652 1.01521e-17
7482.85351 9.79806e-18
7484.37046 9.77087e-18
7485.88741 9.74373e-18
7487.41440 9.60623e-18
7488.93134 9.46873e-18
7490.44829 9.37779e-18
7491.97528 9.28686e-18
7493.49223 8.84429e-18
7495.01922 8.40169e-18
7496.53617 8.67194e-18
7498.05311 8.94229e-18
7499.58010 9.46679e-18
7501.09705 9.99131e-18
7502.61400 9.66325e-18
7504.14099 9.33508e-18
7505.65793 9.32902e-18
7507.18493 9.32300e-18
7508.70187 9.53240e-18
7510.21882 9.74182e-18
7511.74581 9.67860e-18
7513.26276 9.61535e-18
7514.77970 9.26169e-18
7516.30669 8.90799e-18
7517.82364 8.80227e-18
7519.34059 8.69660e-18
7520.86758 8.89353e-18
7522.38452 9.09051e-18
7523.91152 9.03612e-18
7525.42846 8.98169e-18
7526.94541 8.53839e-18
7528.47240 8.09505e-18
7529.98935 8.29878e-18
7531.50629 8.50260e-18
7533.03328 8.62963e-18
7534.55023 8.75665e-18
7536.06718 8.50698e-18
7537.59417 8.25726e-18
7539.11111 8.21173e-18
7540.63811 8.16623e-18
7542.15505 8.27001e-18
7543.67200 8.37380e-18
7545.19899 8.54372e-18
7546.71594 8.71365e-18
7548.23288 8.66133e-18
7549.75987 8.66744e-18
7551.27682 8.67353e-18
7552.80381 8.67963e-18
7554.32076 8.68573e-18
7555.83770 8.69183e-18
7557.36470 8.69793e-18
7558.88164 8.70402e-18
7560.39859 8.71012e-18
7561.92558 8.71622e-18
7563.44253 8.72232e-18
7564.96952 8.72841e-18
7566.48646 8.73451e-18
7568.00341 8.74061e-18
7569.53040 8.74670e-18
7571.04735 8.75280e-18
7572.56429 8.75890e-18
7574.09129 8.76499e-18
7575.60823 8.77109e-18
7577.12518 8.77718e-18
7578.65217 8.78328e-18
7580.16912 8.78938e-18
7581.69611 8.79547e-18
7583.21305 8.80156e-18
7584.73000 8.80766e-18
7586.25699 8.81376e-18
7587.77394 8.81985e-18
7589.29088 8.82594e-18
7590.81788 8.83204e-18
7592.33482 8.83813e-18
7593.85177 8.84422e-18
7595.37876 8.85032e-18
7596.89571 8.85641e-18
7598.42270 8.86250e-18
7599.93964 8.86859e-18
7601.45659 8.87469e-18
7602.98358 8.88078e-18
7604.50053 8.88687e-18
7606.01747 8.89296e-18
7607.54447 8.89906e-18
7609.06141 8.90515e-18
7610.58840 8.91124e-18
7612.10535 8.91733e-18
7613.62230 8.92342e-18
7615.14929 8.92951e-18
7616.66623 8.93560e-18
7618.18318 8.94169e-18
7619.71017 8.94778e-18
7621.22712 8.95387e-18
7622.74406 8.95996e-18
7624.27106 8.96605e-18
7625.78800 8.97214e-18
7627.31499 8.97823e-18
7628.83194 8.98432e-18
7630.34889 8.99041e-18
7631.87588 8.99650e-18
7633.39282 9.00259e-18
7634.90977 9.00867e-18
7636.43676 9.01476e-18
7637.95371 9.02085e-18
7639.48070 9.02694e-18
7640.99765 9.03302e-18
7642.51459 9.03911e-18
7644.04158 9.04520e-18
7645.55853 9.05129e-18
7647.07548 9.05737e-18
7648.60247 9.06346e-18
7650.11941 9.06955e-18
7651.63636 9.07563e-18
7653.16335 9.08172e-18
7654.68030 9.08780e-18
7656.20729 9.09389e-18
7657.72424 9.09998e-18
7659.24118 9.10606e-18
7660.76817 9.11214e-18
7662.28512 9.11823e-18
7663.80207 9.12431e-18
7665.32906 9.13040e-18
7666.84600 9.13648e-18
7668.37300 9.14257e-18
7669.88994 9.14865e-18
7671.40689 9.15473e-18
7672.93388 9.16082e-18
7674.45083 9.16690e-18
7675.96777 9.17298e-18
7677.49476 9.17907e-18
7679.01171 9.18515e-18
7680.53870 9.19124e-18
7682.05565 9.41023e-18
7683.57259 9.62928e-18
7685.09959 9.70770e-18
7686.61653 9.78609e-18
7688.13348 9.63733e-18
7689.66047 9.48854e-18
7691.17742 9.41891e-18
7692.69436 9.34930e-18
7694.22135 9.09443e-18
7695.73830 8.83954e-18
7697.26529 9.15851e-18
7698.78224 9.47756e-18
7700.29918 9.23072e-18
7701.82618 8.98379e-18
7703.34312 9.08889e-18
7704.86007 9.19404e-18
7706.38706 9.15656e-18
7707.90401 9.11906e-18
7709.42095 9.34558e-18
7710.94794 9.57214e-18
7712.46489 9.75852e-18
7713.99188 9.94488e-18
7715.50883 9.91126e-18
7717.02577 9.87761e-18
7718.55277 9.57891e-18
7720.06971 9.28017e-18
7721.58666 8.54666e-18
7723.11365 7.81310e-18
7724.63060 8.29986e-18
7726.15759 8.78680e-18
7727.67453 9.40075e-18
7729.19148 1.00147e-17
7730.71847 9.86862e-18
7732.23542 9.72242e-18
7733.75236 9.08313e-18
7735.27936 8.44379e-18
7736.79630 8.53157e-18
7738.31325 8.61946e-18
7739.84024 8.67657e-18
7741.35719 8.73368e-18
7742.88418 8.85238e-18
7744.40112 8.97109e-18
7745.91807 9.32638e-18
7747.44506 9.68169e-18
7748.96201 9.68493e-18
7750.47895 9.68811e-18
7752.00595 9.24779e-18
7753.52289 8.80742e-18
7755.04988 8.66991e-18
7756.56683 8.53245e-18
7758.08378 8.91692e-18
7759.61077 9.30146e-18
7761.12771 9.34349e-18
7762.64466 9.38546e-18
7764.17165 8.87276e-18
7765.68860 8.35999e-18
7767.21559 7.87869e-18
7768.73254 7.39741e-18
7770.24948 8.16329e-18
7771.77647 8.92935e-18
7773.29342 8.61008e-18
7774.81037 8.29064e-18
7776.33736 8.20034e-18
7777.85430 8.11008e-18
7779.37125 8.27070e-18
7780.89824 8.43136e-18
7782.41519 8.35708e-18
7783.93213 8.28275e-18
7785.45913 8.76705e-18
7786.97607 9.25141e-18
7788.50306 9.18836e-18
7790.02001 9.12523e-18
7791.53696 8.65185e-18
7793.06395 8.17842e-18
7794.58089 7.78626e-18
7796.09784 7.39413e-18
7797.62483 7.95451e-18
7799.14178 8.51503e-18
7800.66877 8.43977e-18
7802.18572 8.36441e-18
7803.70266 8.34693e-18
7805.22965 8.32946e-18
7806.74660 8.63387e-18
7808.26355 8.93832e-18
7809.79054 8.82371e-18
7811.30748 8.70904e-18
7812.83448 8.30870e-18
7814.35142 7.90832e-18
7815.86837 8.55208e-18
7817.39536 9.19599e-18
7818.91231 9.53326e-18
7820.42925 9.87047e-18
7821.95624 9.77082e-18
7823.47319 9.67109e-18
7824.99014 9.08863e-18
7826.51713 8.50610e-18
7828.03407 8.23607e-18
7829.56107 7.96610e-18
7831.07801 8.42638e-18
7832.59496 8.88676e-18
7834.12195 9.31272e-18
7835.63890 9.73866e-18
7837.15584 9.23683e-18
7838.68283 8.73485e-18
7840.19978 9.09766e-18
7841.71673 9.46059e-18
7843.24372 8.96293e-18
7844.76066 8.46514e-18
7846.28766 8.22785e-18
7847.80460 7.99061e-18
7849.32155 8.17211e-18
7850.84854 8.35366e-18
7852.36549 8.03826e-18
7853.88243 7.72279e-18
7855.40942 8.00794e-18
7856.92637 8.29319e-18
7858.45336 8.84219e-18
7859.97031 9.39121e-18
7861.48725 8.93285e-18
7863.01425 8.47435e-18
7864.53119 8.21992e-18
7866.04814 7.96554e-18
7867.57513 8.25320e-18
7869.09208 8.54094e-18
7870.60902 8.40054e-18
7872.13601 8.26008e-18
7873.65296 8.21354e-18
7875.17995 8.16700e-18
7876.69690 7.89115e-18
7878.21384 7.61527e-18
7879.74084 7.82849e-18
7881.25778 8.04179e-18
7882.77473 8.39621e-18
7884.30172 8.75065e-18
7885.81867 8.71034e-18
7887.34566 8.66997e-18
7888.86260 8.55541e-18
7890.37955 8.44084e-18
7891.90654 7.95782e-18
7893.42349 7.47476e-18
7894.94043 7.88532e-18
7896.46743 8.29600e-18
7897.98437 8.38064e-18
7899.50132 8.46524e-18
7901.02831 8.28942e-18
7902.54526 8.11356e-18
7904.07225 8.10802e-18
7905.58919 8.10250e-18
7907.10614 7.72784e-18
7908.63313 7.35314e-18
7910.15008 8.03155e-18
7911.66702 8.71011e-18
7913.19402 8.02154e-18
7914.71096 7.33276e-18
7916.23795 7.74739e-18
7917.75490 8.16218e-18
7919.27185 8.42519e-18
7920.79884 8.68817e-18
7922.31578 8.40367e-18
7923.83273 8.11909e-18
7925.35972 8.03550e-18
7926.87667 7.95195e-18
7928.39361 7.65187e-18
7929.92061 7.35175e-18
7931.43755 7.67056e-18
7932.96454 7.98946e-18
7934.48149 8.14357e-18
7935.99844 8.29765e-18
7937.52543 8.50182e-18
7939.04237 8.70599e-18
7940.55932 8.41714e-18
7942.08631 8.12821e-18
7943.60326 7.87211e-18
7945.13025 7.61602e-18
7946.64720 7.37005e-18
7948.16414 7.12408e-18
7949.69113 7.67398e-18
7951.20808 8.22400e-18
7952.72503 7.96496e-18
7954.25202 7.70579e-18
7955.76896 7.41472e-18
7957.28591 7.12365e-18
7958.81290 6.81754e-18
7960.32985 6.51143e-18
7961.85684 7.29063e-18
7963.37379 8.07000e-18
7964.89073 7.90296e-18
7966.41772 7.73578e-18
7967.93467 7.26880e-18
7969.45162 6.80180e-18
7970.97861 6.83111e-18
7972.49555 6.86050e-18
7974.02255 7.35114e-18
7975.53949 7.84185e-18
7977.05644 7.46007e-18
7978.58343 7.07816e-18
7980.10038 7.17159e-18
7981.61732 7.26509e-18
7983.14431 7.10568e-18
7984.66126 6.94623e-18
7986.17821 6.42649e-18
7987.70520 5.90672e-18
7989.22214 5.74155e-18
7990.74914 5.57645e-18
7992.26608 6.25460e-18
7993.78303 6.93288e-18
7995.31002 6.96687e-18
7996.82697 7.00075e-18
7998.34391 6.76011e-18
7999.87090 6.51942e-18
8001.38785 6.26861e-18
8002.91484 6.01780e-18
8004.43179 5.98893e-18
8005.94873 5.96010e-18
8007.47573 5.46454e-18
8008.99267 4.96892e-18
8010.50962 5.33021e-18
8012.03661 5.69163e-18
8013.55356 6.18617e-18
8015.07050 6.68071e-18
8016.59749 6.40101e-18
8018.11444 6.12118e-18
8019.64143 5.99601e-18
8021.15838 5.87087e-18
8022.67532 5.55716e-18
8024.20232 5.24343e-18
8025.71926 5.61752e-18
8027.23621 5.99171e-18
8028.76320 5.84313e-18
8030.28015 5.69447e-18
8031.80714 5.86846e-18
8033.32408 6.04249e-18
8034.84103 5.87282e-18
8036.36802 5.70309e-18
8037.88497 5.43238e-18
8039.40191 5.16166e-18
8040.92891 5.07453e-18
8042.44585 4.98743e-18
8043.96280 5.08158e-18
8045.48979 5.17575e-18
8047.00674 5.28540e-18
8048.53373 5.39506e-18
8050.05067 5.27372e-18
8051.56762 5.15234e-18
8053.09461 4.55212e-18
8054.61156 3.95184e-18
8056.12850 4.28749e-18
8057.65550 4.62329e-18
8059.17244 4.82013e-18
8060.69943 5.01693e-18
8062.21638 4.86850e-18
8063.73333 4.72002e-18
8065.26032 4.33604e-18
8066.77726 3.95203e-18
8068.29421 4.08039e-18
8069.82120 4.20883e-18
8071.33815 3.67826e-18
8072.85509 3.14759e-18
8074.38209 3.23050e-18
8075.89903 3.31350e-18
8077.42602 3.45784e-18
8078.94297 3.60218e-18
8080.45992 3.27143e-18
8081.98691 2.94061e-18
8083.50385 2.94134e-18
8085.02080 2.94211e-18
8086.54779 3.09965e-18
8088.06474 3.25720e-18
8089.58168 3.31357e-18
8091.10868 3.36993e-18
8092.62562 3.33270e-18
8094.15261 3.29546e-18
8095.66956 3.05446e-18
8097.18651 2.81344e-18
8098.71350 2.64187e-18
8100.23044 2.47033e-18
8101.74739 2.18765e-18
8103.27438 1.90495e-18
8104.79133 1.90879e-18
8106.31832 1.91268e-18
8107.83527 1.91328e-18
8109.35221 1.91388e-18
8110.87920 1.99782e-18
8112.39615 2.08177e-18
8113.91310 1.76763e-18
8115.44009 1.45343e-18
8116.95703 1.54001e-18
8118.48403 1.62664e-18
8120.00097 1.88803e-18
8121.51792 2.14944e-18
8123.04491 2.08253e-18
8124.56186 2.01557e-18
8126.07880 1.62128e-18
8127.60579 1.22695e-18
8129.12274 1.27496e-18
8130.63969 1.32305e-18
8132.16668 1.57201e-18
8133.68362 1.82100e-18
8135.21062 1.52553e-18
8136.72756 1.22996e-18
8138.24451 1.06410e-18
8139.77150 8.98270e-19
8141.28845 1.03236e-18
8142.80539 1.16651e-18
8144.33238 1.22377e-18
8145.84933 1.28101e-18
8147.37632 1.26374e-18
8148.89327 1.24646e-18
8150.41021 1.21643e-18
8151.93721 1.18640e-18
8153.45415 1.45853e-18
8154.97110 1.73070e-18
8156.49809 1.55632e-18
8158.01504 1.38185e-18
8159.53198 1.31058e-18
8161.05897 1.23932e-18
8162.57592 7.82161e-19
8164.10291 3.24945e-19
8165.61986 3.61630e-19
8167.13680 3.98399e-19
8168.66380 1.07092e-18
8170.18074 1.74353e-18
8171.69769 1.67875e-18
8173.22468 1.61384e-18
8174.74163 1.82100e-18
8176.25857 2.02820e-18
8177.78556 1.56746e-18
8179.30251 1.10661e-18
8180.82950 1.26586e-18
8182.34645 1.42522e-18
8183.86339 1.33409e-18
8185.39039 1.24291e-18
8186.90733 1.18912e-18
8188.42428 1.13535e-18
8189.95127 1.74810e-18
8191.46822 2.36095e-18
8192.99521 2.50449e-18
8194.51215 2.64796e-18
8196.02910 2.81635e-18
8197.55609 2.98475e-18
8199.07304 2.54047e-18
8200.58998 2.09610e-18
8202.11698 1.90282e-18
8203.63392 1.70959e-18
8205.15087 1.69576e-18
8206.67786 1.68197e-18
8208.19481 2.07549e-18
8209.72180 2.46907e-18
8211.23874 2.35547e-18
8212.75569 2.24178e-18
8214.28268 2.02696e-18
8215.79963 1.81213e-18
8217.31657 1.39682e-18
8218.84357 9.81488e-19
8220.36051 1.14703e-18
8221.88750 1.31268e-18
8223.40445 1.84880e-18
8224.92140 2.38498e-18
8226.44839 2.10383e-18
8227.96533 1.82255e-18
8229.48228 1.51607e-18
8231.00927 1.20960e-18
8232.52622 1.56662e-18
8234.04316 1.92376e-18
8235.57016 2.43232e-18
8237.08710 2.94090e-18
8238.61409 2.68656e-18
8240.13104 2.43208e-18
8241.64799 2.05741e-18
8243.17498 1.68272e-18
8244.69192 1.66022e-18
8246.20887 1.63778e-18
8247.73586 1.52900e-18
8249.25281 1.42021e-18
8250.77980 1.46667e-18
8252.29675 1.51316e-18
8253.81369 1.39532e-18
8255.34068 1.27747e-18
8256.85763 1.10160e-18
8258.37458 9.25729e-19
8259.90157 1.52378e-18
8261.41851 2.12195e-18
8262.94551 2.66313e-18
8264.46245 3.20429e-18
8265.97940 2.68354e-18
8267.50639 2.16262e-18
8269.02334 2.06825e-18
8270.54028 1.97397e-18
8272.06727 2.15635e-18
8273.58422 2.33876e-18
8275.10117 2.16941e-18
8276.62816 2.00001e-18
8278.14510 1.99798e-18
8279.67210 1.99598e-18
8281.18904 2.82817e-18
8282.70599 3.66048e-18
8284.23298 2.93333e-18
8285.74993 2.20593e-18
8287.26687 2.13915e-18
8288.79386 2.07250e-18
8290.31081 1.94259e-18
8291.82776 1.81268e-18
8293.35475 7.52265e-19
8294.87169 -3.08287e-19
8296.39869 1.53820e-19
8297.91563 6.16188e-19
8299.43258 1.87638e-18
8300.95957 3.13668e-18
8302.47652 3.14001e-18
8303.99346 3.14312e-18
8305.52045 2.48380e-18
8307.03740 1.82438e-18
8308.56439 1.63101e-18
8310.08134 1.43774e-18
8311.59828 1.71050e-18
8313.12528 1.98335e-18
8314.64222 2.15648e-18
8316.15917 2.32959e-18
8317.68616 3.13178e-18
8319.20311 3.93406e-18
8320.72005 3.55732e-18
8322.24704 3.18038e-18
8323.76399 3.20298e-18
8325.29098 3.22564e-18
8326.80793 2.97862e-18
8328.32487 2.73155e-18
8329.85187 2.60242e-18
8331.36881 2.47331e-18
8332.88576 3.08465e-18
8334.41275 3.69610e-18
8335.92970 3.10531e-18
8337.45669 2.51432e-18
8338.97363 2.72703e-18
8340.49058 2.93989e-18
8342.01757 3.06569e-18
8343.53452 3.19148e-18
8345.05146 2.65789e-18
8346.57846 2.12419e-18
8348.09540 2.29756e-18
8349.61235 2.47105e-18
8351.13934 2.85910e-18
8352.65629 3.24717e-18
8354.18328 2.93440e-18
8355.70022 2.62150e-18
8357.21717 2.60126e-18
8358.74416 2.58108e-18
8360.26111 2.72939e-18
8361.77805 2.87774e-18
8363.30505 2.90223e-18
8364.82199 2.92670e-18
8366.34898 3.08440e-18
8367.86593 3.24212e-18
8369.38288 3.29163e-18
8370.90987 3.34111e-18
8372.42681 3.28001e-18
8373.94376 3.21890e-18
8375.47075 3.57440e-18
8376.98770 3.92997e-18
8378.50464 4.03777e-18
8380.03164 4.14552e-18
8381.54858 3.54492e-18
8383.07557 2.94421e-18
8384.59252 3.03889e-18
8386.10947 3.13369e-18
8387.63646 2.83874e-18
8389.15340 2.54373e-18
8390.67035 2.40687e-18
8392.19734 2.27005e-18
8393.71429 2.93447e-18
8395.23123 3.59902e-18
8396.75823 4.44729e-18
8398.27517 5.29558e-18
8399.80216 5.01902e-18
8401.31911 4.74226e-18
8402.83606 3.84339e-18
8404.36305 2.94442e-18
8405.87999 2.81968e-18
8407.39694 2.69509e-18
8408.92393 2.36169e-18
8410.44088 2.02827e-18
8411.96787 2.13392e-18
8413.48482 2.23966e-18
8415.00176 3.02141e-18
8416.52875 3.80326e-18
8418.04570 3.66603e-18
8419.56265 3.52863e-18
8421.08964 3.50215e-18
8422.60658 3.47569e-18
8424.12353 3.19696e-18
8425.65052 2.91819e-18
8427.16747 3.56513e-18
8428.69446 4.21222e-18
8430.21141 4.78705e-18
8431.72835 5.36186e-18
8433.25534 4.39968e-18
8434.77229 3.43724e-18
8436.29928 3.59939e-18
8437.81623 3.76174e-18
8439.33317 3.58278e-18
8440.86017 3.40377e-18
8442.37711 4.04861e-18
8443.89406 4.69359e-18
8445.42105 4.52939e-18
8446.93800 4.36505e-18
8448.45494 4.15858e-18
8449.98193 3.95211e-18
8451.49888 4.77406e-18
8453.02587 5.59618e-18
8454.54282 5.53837e-18
8456.05976 5.48039e-18
8457.58676 4.71413e-18
8459.10370 3.94776e-18
8460.62065 4.20965e-18
8462.14764 4.47172e-18
8463.66459 4.49920e-18
8465.18153 4.52664e-18
8466.70852 4.44858e-18
8468.22547 4.37051e-18
8469.75246 3.87481e-18
8471.26941 3.37905e-18
8472.78635 4.52746e-18
8474.31335 5.67615e-18
8475.83029 5.66568e-18
8477.34724 5.65499e-18
8478.87423 5.51524e-18
8480.39118 5.37546e-18
8481.91817 5.24345e-18
8483.43511 5.11144e-18
8484.95206 4.92812e-18
8486.47905 4.74480e-18
8487.99600 4.34489e-18
8489.51294 3.94495e-18
8491.03994 4.59647e-18
8492.55688 5.24818e-18
8494.07383 4.80785e-18
8495.60082 4.36733e-18
8497.11777 4.16317e-18
8498.64476 3.95906e-18
8500.16170 4.80690e-18
8501.67865 5.65492e-18
8503.20564 5.19140e-18
8504.72259 4.72765e-18
8506.23953 4.16669e-18
8507.76653 3.60573e-18
8509.28347 4.35138e-18
8510.80042 5.09726e-18
8512.32741 4.98611e-18
8513.84436 4.87480e-18
8515.37135 4.87345e-18
8516.88829 4.87213e-18
8518.40524 5.69505e-18
8519.93223 6.51810e-18
8521.44918 6.40997e-18
8522.96612 6.30166e-18
8524.49312 5.90322e-18
8526.01006 5.50474e-18
8527.53705 5.82081e-18
8529.05400 6.13701e-18
8530.57095 5.85663e-18
8532.09794 5.57614e-18
8533.61488 5.64002e-18
8535.13183 5.70396e-18
8536.65882 6.37199e-18
8538.17577 7.04011e-18
8539.69271 7.03919e-18
8541.21971 7.03814e-18
8542.73665 7.01046e-18
8544.26364 6.98277e-18
8545.78059 6.66130e-18
8547.29754 6.33977e-18
8548.82453 6.44912e-18
8550.34147 6.55855e-18
8551.85842 6.74881e-18
8553.38541 6.93908e-18
8554.90236 6.56781e-18
8556.42935 6.19643e-18
8557.94630 6.12421e-18
8559.46324 6.05205e-18
8560.99023 6.13597e-18
8562.50718 6.21992e-18
8564.02413 6.72665e-18
8565.55112 7.23344e-18
8567.06806 6.99887e-18
8568.58501 6.76415e-18
8570.11200 6.14282e-18
8571.62895 5.52143e-18
8573.15594 5.81926e-18
8574.67289 6.11725e-18
8576.18983 5.76142e-18
8577.71682 5.40547e-18
8579.23377 5.61847e-18
8580.75072 5.83158e-18
8582.27771 5.81969e-18
8583.79465 5.80776e-18
8585.31160 5.98817e-18
8586.83859 6.16860e-18
8588.35554 7.15435e-18
8589.88253 8.14024e-18
8591.39948 7.42184e-18
8592.91642 6.70313e-18
8594.44341 6.73230e-18
8595.96036 6.76161e-18
8597.47731 7.13990e-18
8599.00430 7.51824e-18
8600.52124 7.66245e-18
8602.04824 7.80661e-18
8603.56518 7.67900e-18
8605.08213 7.55134e-18
8606.60912 7.51948e-18
8608.12607 7.48763e-18
8609.64301 8.19193e-18
8611.17000 8.89636e-18
8612.68695 8.02158e-18
8614.20390 7.14653e-18
8615.73089 7.49052e-18
8617.24783 7.83475e-18
8618.77483 8.33935e-18
8620.29177 8.84397e-18
8621.80872 7.91036e-18
8623.33571 6.97649e-18
8624.85266 6.88557e-18
8626.37965 6.79482e-18
8627.89659 7.46395e-18
8629.41354 8.13320e-18
8630.94053 9.20169e-18
8632.45748 1.02702e-17
8633.97442 9.22641e-18
8635.50142 8.18220e-18
8637.01836 8.21125e-18
8638.53531 8.24050e-18
8640.06230 8.06779e-18
8641.57925 7.89505e-18
8643.10624 7.24369e-18
8644.62318 6.59226e-18
8646.14013 6.81374e-18
8647.66712 7.03539e-18
8649.18407 7.29146e-18
8650.70101 7.54752e-18
8652.22801 8.08945e-18
8653.74495 8.63143e-18
8655.26190 9.20284e-18
8656.78889 9.77423e-18
8658.30584 8.60471e-18
8659.83283 7.43486e-18
8661.34977 7.04752e-18
8662.86672 6.66034e-18
8664.39371 7.28532e-18
8665.91066 7.91048e-18
8667.42760 9.03315e-18
8668.95460 1.01559e-17
8670.47154 9.25030e-18
8671.99853 8.34435e-18
8673.51548 7.58001e-18
8675.03243 6.81571e-18
8676.55942 7.62236e-18
8678.07636 8.42931e-18
8679.59331 7.96040e-18
8681.12030 7.49125e-18
8682.63725 7.38828e-18
8684.16424 7.28539e-18
8685.68119 7.67366e-18
8687.19813 8.06202e-18
8688.72512 7.76071e-18
8690.24207 7.45926e-18
8691.75902 7.92273e-18
8693.28601 8.38633e-18
8694.80295 8.89616e-18
8696.31990 9.40598e-18
8697.84689 8.66185e-18
8699.36384 7.91750e-18
8700.88078 7.76340e-18
8702.40778 7.60943e-18
8703.92472 8.48146e-18
8705.45171 9.35367e-18
8706.96866 9.03411e-18
8708.48561 8.71432e-18
8710.01260 8.25972e-18
8711.52954 7.80510e-18
8713.04649 8.00580e-18
8714.57348 8.20662e-18
8716.09043 7.43284e-18
8717.61742 6.65888e-18
8719.13437 6.24216e-18
8720.65131 5.82551e-18
8722.17830 6.66235e-18
8723.69525 7.49941e-18
8725.21220 7.92895e-18
8726.73919 8.35839e-18
8728.25613 8.29244e-18
8729.78313 8.22638e-18
8731.30007 7.62696e-18
8732.81702 7.02743e-18
8734.34401 8.17791e-18
8735.86096 9.32871e-18
8737.37790 8.93310e-18
8738.90489 8.53719e-18
8740.42184 8.58118e-18
8741.93879 8.62526e-18
8743.46578 7.99391e-18
8744.98272 7.36245e-18
8746.50972 7.05765e-18
8748.02666 6.75292e-18
8749.54361 7.40618e-18
8751.07060 8.05962e-18
8752.58755 8.54555e-18
8754.10449 9.03142e-18
8755.63148 7.79776e-18
8757.14843 6.56378e-18
8758.66538 6.77209e-18
8760.19237 6.98068e-18
8761.70931 7.30428e-18
8763.23631 7.62790e-18
8764.75325 7.91540e-18
8766.27020 8.20289e-18
8767.79719 7.75369e-18
8769.31414 7.30435e-18
8770.83108 7.07880e-18
8772.35807 6.85330e-18
8773.87502 8.05016e-18
8775.40201 9.24729e-18
8776.91896 8.69515e-18
8778.43590 8.14268e-18
8779.96290 6.47154e-18
8781.47984 4.80022e-18
8782.99679 5.55337e-18
8784.52378 6.30698e-18
8786.04073 6.91024e-18
8787.55767 7.51345e-18
8789.08466 7.48923e-18
8790.60161 7.46488e-18
8792.12860 6.77713e-18
8793.64555 6.08926e-18
8795.16249 6.56113e-18
8796.68949 7.03322e-18
8798.20643 6.61390e-18
8799.72338 6.19440e-18
8801.25037 6.28310e-18
8802.76732 6.37190e-18
8804.29431 7.09944e-18
8805.81125 7.82708e-18
8807.32820 7.60617e-18
8808.85519 7.38508e-18
8810.37214 7.42693e-18
8811.88908 7.46884e-18
8813.41608 7.31031e-18
8814.93302 7.15174e-18
8816.44997 7.13614e-18
8817.97696 7.12057e-18
8819.49391 7.05970e-18
8821.02090 6.99882e-18
8822.53784 6.31029e-18
8824.05479 5.62165e-18
8825.58178 6.35386e-18
8827.09873 7.08635e-18
8828.61567 5.91141e-18
8830.14267 4.73612e-18
8831.65961 4.95812e-18
8833.18660 5.18039e-18
8834.70355 5.31535e-18
8836.22050 5.45029e-18
8837.74749 6.15083e-18
8839.26443 6.85146e-18
8840.78138 7.02450e-18
8842.30837 7.19743e-18
8843.82532 6.82332e-18
8845.34226 6.44911e-18
8846.86926 6.33389e-18
8848.38620 6.21873e-18
8849.91319 5.68765e-18
8851.43014 5.15650e-18
8852.94709 5.64189e-18
8854.47408 6.12747e-18
8855.99102 6.42980e-18
8857.51802 6.73208e-18
8859.03496 5.65017e-18
8860.55191 4.56801e-18
8862.07890 4.81170e-18
8863.59585 5.05565e-18
8865.11279 5.85572e-18
8866.63978 6.65589e-18
8868.15673 6.53617e-18
8869.67368 6.41627e-18
8871.20067 5.84931e-18
8872.71761 5.28226e-18
8874.24461 5.56011e-18
8875.76155 5.83813e-18
8877.27850 5.77296e-18
8878.80549 5.70772e-18
8880.32244 5.94232e-18
8881.83938 6.17698e-18
8883.36637 5.28594e-18
8884.88332 4.39469e-18
8886.40027 4.84137e-18
8887.92726 5.28830e-18
8889.44420 5.80694e-18
8890.96115 6.32558e-18
8892.48814 5.67083e-18
8894.00509 5.01585e-18
8895.53208 5.95615e-18
8897.04903 6.89676e-18
8898.56597 6.02425e-18
8900.09296 5.15138e-18
8901.60991 5.20850e-18
8903.13690 5.26581e-18
8904.65385 6.06078e-18
8906.17079 6.85589e-18
8907.69779 7.41861e-18
8909.21473 7.98126e-18
8910.73168 7.31525e-18
8912.25867 6.64900e-18
8913.77562 6.34711e-18
8915.29256 6.04530e-18
8916.81955 5.95951e-18
8918.33650 5.87378e-18
8919.86349 5.57123e-18
8921.38044 5.26864e-18
8922.89738 5.87307e-18
8924.42438 6.47767e-18
8925.94132 5.44485e-18
8927.45827 4.41170e-18
8928.98526 4.85577e-18
8930.50221 5.30014e-18
8932.01915 5.33862e-18
8933.54614 5.37701e-18
8935.06309 5.85368e-18
8936.59008 6.33043e-18
8938.10703 5.41588e-18
8939.62397 4.50106e-18
8941.15097 5.86417e-18
8942.66791 7.22772e-18
8944.18486 6.65653e-18
8945.71185 6.08496e-18
8947.22880 5.77064e-18
8948.75579 5.45638e-18
8950.27273 4.91234e-18
8951.78968 4.36825e-18
8953.31667 3.84374e-18
8954.83362 3.31924e-18
8956.35056 2.57497e-18
8957.87756 1.83067e-18
8959.39450 3.24143e-18
8960.91145 4.65260e-18
8962.43844 4.43548e-18
8963.95539 4.21803e-18
8965.48238 4.33267e-18
8966.99932 4.44738e-18
8968.51627 4.53273e-18
8970.04326 4.61808e-18
8971.56021 5.69506e-18
8973.07715 6.77223e-18
8974.60415 5.86558e-18
8976.12109 4.95853e-18
8977.64808 4.68104e-18
8979.16503 4.40369e-18
8980.68198 4.78914e-18
8982.20897 5.17471e-18
8983.72591 4.40940e-18
8985.24286 3.64386e-18
8986.76985 2.29942e-18
8988.28680 9.54886e-19
8989.80374 2.24404e-18
8991.33074 3.53372e-18
8992.84768 3.59373e-18
8994.37467 3.65347e-18
8995.89162 3.94635e-18
8997.40857 4.23926e-18
8998.93556 4.04575e-18
9000.45250 3.85215e-18
9001.96945 3.36460e-18
9003.49644 2.87700e-18
9005.01339 3.13678e-18
9006.53033 3.39672e-18
9008.05733 2.84477e-18
9009.57427 2.29265e-18
9011.10126 2.74981e-18
9012.61821 3.20718e-18
9014.13516 2.94852e-18
9015.66215 2.68972e-18
9017.17909 2.68773e-18
9018.69604 2.68578e-18
9020.22303 3.14806e-18
9021.73998 3.61042e-18
9023.26697 2.45309e-18
9024.78392 1.29544e-18
9026.30086 1.93455e-18
9027.82785 2.57403e-18
9029.34480 3.03237e-18
9030.86175 3.49066e-18
9032.38874 3.25812e-18
9033.90568 3.02545e-18
9035.42263 3.11229e-18
9036.94962 3.19919e-18
9038.46657 3.47909e-18
9039.99356 3.75903e-18
9041.51051 3.70743e-18
9043.02745 3.65576e-18
9044.55444 4.08628e-18
9046.07139 4.51689e-18
9047.59838 4.18253e-18
9049.11533 3.84801e-18
9050.63227 4.18012e-18
9052.15927 4.51236e-18
9053.67621 3.51476e-18
9055.19316 2.51689e-18
9056.72015 2.43815e-18
9058.23710 2.35960e-18
9059.75404 2.07929e-18
9061.28103 1.79893e-18
9062.79798 2.10190e-18
9064.32497 2.40499e-18
9065.84192 3.35026e-18
9067.35886 4.29564e-18
9068.88586 4.36104e-18
9070.40280 4.42624e-18
9071.91975 3.70506e-18
9073.44674 2.98373e-18
9074.96369 3.49463e-18
9076.48063 4.00578e-18
9078.00762 4.38313e-18
9079.52457 4.76046e-18
9081.04152 4.36389e-18
9082.56851 3.96717e-18
9084.08545 3.35104e-18
9085.61245 2.73488e-18
9087.12939 2.95953e-18
9088.64634 3.18435e-18
9090.17333 3.74893e-18
9091.69028 4.31350e-18
9093.21727 4.53699e-18
9094.73421 4.76040e-18
9096.25116 5.26414e-18
9097.77815 5.76793e-18
9099.29510 4.99745e-18
9100.81204 4.22671e-18
9102.33904 3.48774e-18
9103.85598 2.74880e-18
9105.37293 2.91087e-18
9106.89992 3.07314e-18
9108.41687 2.89090e-18
9109.94386 2.70859e-18
9111.46080 3.75352e-18
9112.97775 4.79870e-18
9114.50474 4.38889e-18
9116.02169 3.97878e-18
9117.53863 3.11273e-18
9119.06563 2.24660e-18
9120.58257 3.17099e-18
9122.09952 4.09574e-18
9123.62651 4.27213e-18
9125.14346 4.44836e-18
9126.67045 3.82763e-18
9128.18739 3.20674e-18
9129.70434 3.53717e-18
9131.23133 3.86780e-18
9132.74828 3.33820e-18
9134.26522 2.80843e-18
9135.79222 2.74324e-18
9137.30916 2.67814e-18
9138.83615 3.48091e-18
9140.35310 4.28385e-18
9141.87005 3.92380e-18
9143.39704 3.56351e-18
9144.91398 3.56459e-18
9146.43093 3.56575e-18
9147.95792 4.50643e-18
9149.47487 5.44730e-18
9151.00186 6.10902e-18
9152.51881 6.77066e-18
9154.03575 5.37378e-18
9155.56274 3.97648e-18
9157.07969 4.27876e-18
9158.59664 4.58139e-18
9160.12363 3.52774e-18
9161.64057 2.47382e-18
9163.15752 3.13641e-18
9164.68451 3.79937e-18
9166.20146 4.96826e-18
9167.72845 6.13723e-18
9169.24540 6.22797e-18
9170.76234 6.31847e-18
9172.28933 5.19051e-18
9173.80628 4.06231e-18
9175.32323 4.62926e-18
9176.85022 5.19657e-18
9178.36716 6.08912e-18
9179.88411 6.98173e-18
9181.41110 6.60890e-18
9182.92805 6.23579e-18
9184.45504 6.08341e-18
9185.97199 5.93107e-18
9187.48893 5.26792e-18
9189.01592 4.60468e-18
9190.53287 3.95738e-18
9192.04982 3.31010e-18
9193.57681 3.89495e-18
9195.09375 4.48006e-18
9196.62075 4.27047e-18
9198.13769 4.06072e-18
9199.65464 2.79980e-18
9201.18163 1.53868e-18
9202.69858 1.69067e-18
9204.21552 1.84297e-18
9205.74251 3.53370e-18
9207.25946 5.22473e-18
9208.77641 4.12770e-18
9210.30340 3.03008e-18
9211.82034 4.44157e-18
9213.34734 5.85357e-18
9214.86428 4.20584e-18
9216.38123 2.55748e-18
9217.90822 3.55043e-18
9219.42517 4.54394e-18
9220.94211 4.42742e-18
9222.46910 4.31065e-18
9223.98605 5.53486e-18
9225.50300 6.75933e-18
9227.02999 5.21607e-18
9228.54693 3.67223e-18
9230.07393 4.20946e-18
9231.59087 4.74713e-18
9233.10782 4.97999e-18
9234.63481 5.21277e-18
9235.65272 5.21277e-18
9237.35031 5.39908e-18
9239.04790 6.25863e-18
9240.74549 7.70005e-18
9242.44307 9.21986e-18
9244.14066 1.00439e-17
9245.83825 9.87290e-18
9247.53584 8.87343e-18
9249.23343 7.38587e-18
9250.93101 5.92061e-18
9252.62860 4.86877e-18
9254.32619 4.41416e-18
9256.02378 4.63570e-18
9257.72137 5.50358e-18
9259.41895 6.54838e-18
9261.11654 6.72506e-18
9262.81413 5.77981e-18
9264.51172 4.73707e-18
9266.20931 4.30578e-18
9267.91694 4.50605e-18
9269.60448 5.06084e-18
9271.31212 5.13664e-18
9272.99966 4.37677e-18
9274.70729 3.74253e-18
9276.40488 3.96496e-18
9278.10247 4.65065e-18
9279.80006 5.23211e-18
9281.49764 5.25201e-18
9283.19523 4.57011e-18
9284.89282 4.04986e-18
9286.59041 4.52315e-18
9288.28800 5.36759e-18
9289.98559 5.65232e-18
9291.68317 5.80948e-18
9293.38076 6.62431e-18
9295.07835 7.29537e-18
9296.77594 6.54323e-18
9298.47353 5.44956e-18
9300.17111 6.22994e-18
9301.86870 8.16309e-18
9303.56629 8.55966e-18
9305.26388 7.22669e-18
9306.96147 6.03552e-18
9308.65905 5.68628e-18
9310.35664 5.81570e-18
9312.05423 5.92488e-18
9313.75182 5.21718e-18
9315.44941 4.19679e-18
9317.14700 5.16696e-18
9318.84458 8.39915e-18
9320.54217 1.11416e-17
9322.23976 1.14471e-17
9323.93735 8.84909e-18
9325.63494 4.12947e-18
9327.33252 2.94908e-19
9329.03011 -9.06368e-19
9330.72770 -1.19834e-18
9332.42529 -2.01605e-18
9334.12288 -2.74147e-18
9335.82046 -2.56166e-18
9337.51805 -1.00454e-18
9339.21564 1.96425e-18
9340.91323 5.37981e-18
9342.61082 8.10223e-18
9344.30840 9.57885e-18
9346.00599 9.65766e-18
9347.70358 8.47810e-18
9349.41121 6.50894e-18
9351.09876 4.80535e-18
9352.80639 4.42930e-18
9354.49393 5.23517e-18
9356.20157 6.28744e-18
9357.89915 6.81526e-18
9359.59674 6.28068e-18
9361.29433 4.94932e-18
9362.99192 3.78031e-18
9364.68951 2.94954e-18
9366.38709 1.89542e-18
9368.08468 7.88642e-19
9369.78227 4.97504e-19
9371.47986 1.42728e-18
9373.17745 3.50065e-18
9374.87504 5.77273e-18
9376.57262 6.02877e-18
9378.27021 3.94378e-18
9379.96780 2.33094e-18
9381.66539 2.82885e-18
9383.36298 4.59712e-18
9385.06056 6.54271e-18
9386.75815 7.41141e-18
9388.45574 6.79174e-18
9390.15333 6.51176e-18
9391.85092 7.78986e-18
9393.54850 9.06522e-18
9395.24609 8.92638e-18
9396.94368 8.19262e-18
9398.64127 7.94248e-18
9400.33886 8.25678e-18
9402.03644 8.76822e-18
9403.73403 8.55088e-18
9405.43162 6.85779e-18
9407.12921 4.50890e-18
9408.82680 2.97769e-18
9410.52439 3.12531e-18
9412.22197 5.14540e-18
9413.91956 7.94406e-18
9415.61715 9.66056e-18
9417.31474 9.45269e-18
9419.01233 7.47515e-18
9420.70991 4.91191e-18
9422.40750 3.79599e-18
9424.10509 4.14971e-18
9425.80268 3.87032e-18
9427.50027 2.70735e-18
9429.19785 2.58581e-18
9430.89544 3.82880e-18
9432.59303 4.64017e-18
9434.29062 4.47971e-18
9435.98821 4.76704e-18
9437.69584 6.11611e-18
9439.39343 7.70546e-18
9441.09102 8.70879e-18
9442.78860 8.37448e-18
9444.48619 6.66956e-18
9446.18378 5.10518e-18
9447.88137 4.82121e-18
9449.57896 5.46219e-18
9451.27654 6.33224e-18
9452.97413 6.71041e-18
9454.67172 6.17368e-18
9456.36931 5.14761e-18
9458.06690 4.34414e-18
9459.76449 4.53195e-18
9461.46207 6.08912e-18
9463.15966 7.90479e-18
9464.85725 8.51453e-18
9466.55484 8.04892e-18
9468.25243 7.43056e-18
9469.95001 6.96282e-18
9471.64760 6.56664e-18
9473.34519 6.00465e-18
9475.04278 4.94617e-18
9476.74037 3.48979e-18
9478.43795 2.12382e-18
9480.13554 1.81997e-18
9481.83313 3.89743e-18
9483.53072 7.53146e-18
9485.22831 9.57030e-18
9486.92589 9.04942e-18
9488.62348 7.83755e-18
9490.32107 7.03124e-18
9492.01866 6.56184e-18
9493.71625 6.25818e-18
9495.41384 5.65537e-18
9497.11142 4.76741e-18
9498.80901 4.69387e-18
9500.50660 5.85450e-18
9502.20419 7.00033e-18
9503.90178 7.26264e-18
9505.59936 7.30350e-18
9507.29695 7.62515e-18
9508.99454 7.51966e-18
9510.69213 6.42602e-18
9512.38972 4.96502e-18
9514.08730 3.87134e-18
9515.78489 2.93641e-18
9517.48248 1.92231e-18
9519.19011 1.95827e-18
9520.88770 4.07681e-18
9522.58529 6.66110e-18
9524.28288 7.32293e-18
9525.98047 6.32626e-18
9527.67805 5.40076e-18
9529.37564 5.38552e-18
9531.07323 6.43446e-18
9532.77082 7.93306e-18
9534.46841 8.63699e-18
9536.16599 8.24422e-18
9537.86358 7.37234e-18
9539.56117 6.55314e-18
9541.25876 6.23836e-18
9542.95635 6.37644e-18
9544.65394 6.26873e-18
9546.35152 5.57207e-18
9548.04911 4.46234e-18
9549.74670 3.26737e-18
9551.44429 2.46160e-18
9553.14188 2.50225e-18
9554.83946 3.95290e-18
9556.53705 6.40018e-18
9558.23464 7.35683e-18
9559.93223 5.75653e-18
9561.62982 4.35632e-18
9563.32740 5.12785e-18
9565.02499 6.49364e-18
9566.72258 6.77247e-18
9568.42017 5.97553e-18
9570.11776 4.67545e-18
9571.81534 3.80029e-18
9573.51293 4.16654e-18
9575.21052 5.77727e-18
9576.90811 8.12721e-18
9578.60570 1.03563e-17
9580.30329 1.15702e-17
9582.00087 1.14452e-17
9583.69846 1.01415e-17
9585.39605 8.13916e-18
9587.09364 6.13159e-18
9588.79123 4.74386e-18
9590.48881 4.40701e-18
9592.18640 4.77477e-18
9593.88399 4.86200e-18
9595.58158 4.81664e-18
9597.27917 5.87870e-18
9598.97675 7.75342e-18
9600.67434 8.48353e-18
9602.38198 7.64672e-18
9604.07956 6.76967e-18
9605.76711 6.61336e-18
9607.47474 6.78874e-18
9609.17233 6.90628e-18
9610.86992 6.58578e-18
9612.56750 5.74020e-18
9614.26509 4.84580e-18
9615.96268 4.35424e-18
9617.66027 4.56667e-18
9619.35786 5.42858e-18
9621.05544 6.18661e-18
9622.75303 6.18374e-18
9624.45062 5.24952e-18
9626.14821 3.68025e-18
9627.84580 2.69860e-18
9629.54339 3.33246e-18
9631.24097 5.17642e-18
9632.93856 7.26953e-18
9634.63615 8.77457e-18
9636.33374 9.10613e-18
9638.03133 8.40329e-18
9639.72891 7.25491e-18
9641.42650 6.21127e-18
9643.12409 5.70274e-18
9644.82168 5.65021e-18
9646.51927 5.61730e-18
9648.21685 5.60201e-18
9649.91444 5.91625e-18
9651.61203 6.76830e-18
9653.30962 8.27930e-18
9655.00721 9.45634e-18
9656.70479 8.18798e-18
9658.40238 5.03057e-18
9660.09997 3.70959e-18
9661.79756 5.75179e-18
9663.49515 9.64173e-18
9665.19274 1.34890e-17
9666.89032 1.49404e-17
9668.58791 1.32634e-17
9670.28550 1.07270e-17
9671.98309 9.13430e-18
9673.68068 8.67897e-18
9675.37826 9.01474e-18
9677.07585 9.10229e-18
9678.77344 8.10144e-18
9680.47103 5.94980e-18
9682.16862 3.14848e-18
9683.86620 1.18912e-18
9685.56379 1.20481e-18
9687.26138 2.51157e-18
9688.96901 3.86489e-18
9690.66660 4.29938e-18
9692.36419 3.35349e-18
9694.06178 2.09524e-18
9695.75937 2.00227e-18
9697.45695 2.75797e-18
9699.15454 3.14710e-18
9700.85213 2.83304e-18
9702.54972 2.07638e-18
9704.24731 1.44673e-18
9705.94489 1.71138e-18
9707.64248 2.74233e-18
9709.34007 3.62001e-18
9711.03766 3.91719e-18
9712.73525 3.70600e-18
9714.43283 3.34327e-18
9716.13042 3.53934e-18
9717.82801 4.34873e-18
9719.52560 4.94904e-18
9721.22319 4.84872e-18
9722.92078 4.03878e-18
9724.61836 2.92558e-18
9726.31595 2.61076e-18
9728.01354 3.53147e-18
9729.71113 4.76977e-18
9731.40872 5.54157e-18
9733.10630 5.66539e-18
9734.80389 5.27837e-18
9736.50148 5.07858e-18
9738.19907 5.53532e-18
9739.89666 6.25436e-18
9741.59424 6.65087e-18
9743.29183 6.06673e-18
9744.98942 4.30526e-18
9746.68701 2.87265e-18
9748.38460 3.24144e-18
9750.08219 4.35202e-18
9751.77977 4.39840e-18
9753.47736 3.18565e-18
9755.17495 1.48594e-18
9756.87254 7.40853e-19
9758.57013 2.41983e-18
9760.26771 5.43689e-18
9761.96530 7.03467e-18
9763.66289 6.29470e-18
9765.36048 3.93275e-18
9767.05807 1.50546e-18
9768.75565 1.33151e-18
9770.45324 3.44537e-18
9772.16088 5.30999e-18
9773.85846 5.95186e-18
9775.55605 6.36180e-18
9777.25364 7.11522e-18
9778.95123 8.26839e-18
9780.64882 9.61622e-18
9782.34640 1.05150e-17
9784.04399 1.04676e-17
9785.74158 9.24966e-18
9787.43917 7.12787e-18
9789.13676 5.28864e-18
9790.83434 4.45498e-18
9792.53193 4.00350e-18
9794.22952 3.30537e-18
9795.92711 2.28091e-18
9797.62470 1.15321e-18
9799.32228 8.29422e-19
9801.01987 1.87325e-18
9802.71746 3.02428e-18
9804.41505 2.96470e-18
9806.11264 2.49509e-18
9807.81023 2.92436e-18
9809.50781 4.14262e-18
9811.20540 5.34741e-18
9812.90299 5.59902e-18
9814.60058 4.16145e-18
9816.29817 2.02080e-18
9817.99575 1.14841e-18
9819.69334 1.73188e-18
9821.39093 2.58363e-18
9823.08852 3.32397e-18
9824.78611 4.21183e-18
9826.48369 4.92975e-18
9828.18128 4.71111e-18
9829.87887 3.82612e-18
9831.57646 3.67612e-18
9833.27405 4.79639e-18
9834.97163 6.59032e-18
9836.66922 8.23990e-18
9838.36681 8.62045e-18
9840.06440 7.45474e-18
9841.76199 5.96021e-18
9843.45958 5.04438e-18
9845.15716 4.72089e-18
9846.85475 4.80995e-18
9848.55234 4.92953e-18
9850.24993 4.80736e-18
9851.94752 4.66000e-18
9853.65515 4.63340e-18
9855.34269 4.29633e-18
9857.05033 3.37267e-18
9858.74791 2.55063e-18
9860.44550 2.48589e-18
9862.14309 2.49128e-18
9863.84068 1.80988e-18
9865.53827 1.66073e-18
9867.23585 3.52544e-18
9868.93344 5.85564e-18
9870.63103 6.14173e-18
9872.32862 5.76020e-18
9874.02621 7.87031e-18
9875.72379 1.14737e-17
9877.42138 1.28957e-17
9879.11897 1.05088e-17
9880.81656 4.55326e-18
9882.51415 -2.15011e-18
9884.21173 -4.42736e-18
9885.90932 -1.67601e-18
9887.60691 1.57837e-18
9889.30450 2.75076e-18
9891.00209 1.69678e-18
9892.69968 -4.05700e-19
9894.39726 -2.90470e-19
9896.09485 2.89839e-18
9897.79244 5.86909e-18
9899.49003 6.31738e-18
9901.18762 4.12330e-18
9902.88520 2.78249e-19
9904.58279 -2.33465e-18
9906.28038 -2.00739e-18
9907.97797 -4.73830e-19
9909.67556 5.08683e-19
9911.37314 9.37448e-19
9913.07073 1.21207e-18
9914.76832 1.77427e-18
9916.46591 2.92135e-18
9918.16350 4.35474e-18
9919.86108 5.55388e-18
9921.55867 6.04667e-18
9923.25626 5.57558e-18
9924.95385 4.49753e-18
9926.65144 3.47279e-18
9928.34903 3.08505e-18
9930.04661 3.66028e-18
9931.74420 4.37820e-18
9933.44179 3.82727e-18
9935.14942 2.37984e-18
9936.83697 1.71890e-18
9938.54460 2.09774e-18
9940.23214 2.53485e-18
9941.93978 2.50011e-18
9943.63736 1.85675e-18
9945.33495 9.43779e-19
9947.03254 7.59438e-19
9948.73013 1.18495e-18
9950.42772 5.14225e-19
9952.12530 -1.54155e-18
9953.82289 -3.06026e-18
9955.52048 -2.87144e-18
9957.21807 -1.29700e-18
9958.91566 1.16642e-18
9960.61324 3.94435e-18
9962.31083 6.55509e-18
9964.00842 9.03127e-18
9965.70601 1.11206e-17
9967.40360 1.15468e-17
9969.10118 9.58861e-18
9970.79877 6.23755e-18
9972.49636 2.97021e-18
9974.19395 1.28068e-18
9975.89154 2.01693e-18
9977.58913 4.13111e-18
9979.28671 5.93333e-18
9980.98430 6.59307e-18
9982.68189 5.87671e-18
9984.37948 3.97097e-18
9986.07707 1.48586e-18
9987.77465 -6.64645e-19
9989.47224 -1.55204e-18
9991.16983 -7.61242e-19
9992.86742 1.53604e-18
9994.56501 3.81395e-18
9996.26259 3.63623e-18
9997.96018 1.64195e-18
9999.65777 1.39589e-18
