# wavelength flux
3469.89882 2.55680e-18
3471.36130 2.73204e-18
3472.83380 2.93646e-18
3474.30630 2.87835e-18
3475.77880 3.09653e-18
3477.24128 2.90757e-18
3478.71378 2.74378e-18
3480.18628 2.62695e-18
3481.65878 2.72214e-18
3483.12126 2.83400e-18
3484.59376 2.92771e-18
3486.06626 2.90294e-18
3487.53875 2.59969e-18
3489.00124 2.40636e-18
3490.47374 2.48450e-18
3491.94623 2.75523e-18
3493.41873 2.81298e-18
3494.88121 2.79101e-18
3496.35371 2.83342e-18
3497.82621 2.81835e-18
3499.29871 2.80364e-18
3500.76119 2.96384e-18
3502.23369 2.83983e-18
3503.70619 2.34547e-18
3505.17869 2.35851e-18
3506.64117 2.62622e-18
3508.11367 2.76478e-18
3509.58617 3.04853e-18
3511.05867 3.19942e-18
3512.52115 3.01204e-18
3513.99365 2.74647e-18
3515.46615 2.96762e-18
3516.93865 3.35928e-18
3518.40113 2.85365e-18
3519.87363 2.54874e-18
3521.34613 2.81672e-18
3522.81863 2.83772e-18
3524.28111 2.92976e-18
3525.75361 2.71549e-18
3527.22611 2.57763e-18
3528.69861 2.60346e-18
3530.16109 2.63956e-18
3531.63359 2.78843e-18
3533.10609 2.98183e-18
3534.57859 2.89145e-18
3536.04107 2.66485e-18
3537.51357 2.67013e-18
3538.98607 2.86114e-18
3540.45856 2.86272e-18
3541.92105 2.87416e-18
3543.39355 2.97727e-18
3544.86605 2.63805e-18
3546.33854 2.46642e-18
3547.80103 2.69859e-18
3549.27353 2.88082e-18
3550.74602 3.03068e-18
3552.21852 3.12155e-18
3553.68101 3.05362e-18
3555.15350 3.07324e-18
3556.62600 3.01887e-18
3558.08849 2.84435e-18
3559.56098 2.88895e-18
3561.03348 2.93816e-18
3562.50598 2.85406e-18
3563.97848 2.94881e-18
3565.44096 3.07339e-18
3566.91346 3.04300e-18
3568.38596 2.90893e-18
3569.84844 2.87075e-18
3571.32094 2.94761e-18
3572.79344 2.97512e-18
3574.26594 2.83396e-18
3575.72842 2.80750e-18
3577.20092 3.15515e-18
3578.67342 3.27682e-18
3580.14592 3.11263e-18
3581.60840 3.09314e-18
3583.08090 2.94754e-18
3584.55340 2.89722e-18
3586.02590 3.09742e-18
3587.48838 3.26436e-18
3588.96088 3.13241e-18
3590.43338 3.19711e-18
3591.90588 3.33093e-18
3593.36836 3.28173e-18
3594.84086 3.21954e-18
3596.31336 3.19815e-18
3597.78586 3.18872e-18
3599.24834 3.05223e-18
3600.72084 3.10936e-18
3602.19334 2.99836e-18
3603.66584 2.96847e-18
3605.12832 3.32459e-18
3606.60082 3.14190e-18
3608.07332 3.03482e-18
3609.54581 3.25062e-18
3611.00830 3.16738e-18
3612.48079 2.95679e-18
3613.95329 2.92299e-18
3615.42579 2.78617e-18
3616.88828 2.67190e-18
3618.36077 2.92955e-18
3619.83327 3.04309e-18
3621.30577 2.67727e-18
3622.76825 2.53520e-18
3624.24075 2.84436e-18
3625.71325 3.00702e-18
3627.18575 2.91642e-18
3628.64823 2.76414e-18
3630.12073 2.92408e-18
3631.59323 3.13450e-18
3633.06573 3.06642e-18
3634.52821 2.79033e-18
3636.00071 2.74671e-18
3637.47321 2.98551e-18
3638.94571 2.87889e-18
3640.40819 2.77798e-18
3641.88069 2.99511e-18
3643.35319 3.02831e-18
3644.82569 2.98587e-18
3646.28817 3.08458e-18
3647.76067 3.14884e-18
3649.23317 3.16073e-18
3650.70567 3.27340e-18
3652.16815 3.32641e-18
3653.64065 3.39089e-18
3655.11315 3.57306e-18
3656.58565 3.59530e-18
3658.04813 3.56541e-18
3659.52063 3.72040e-18
3660.99313 3.95635e-18
3662.45561 4.03317e-18
3663.92811 3.86682e-18
3665.40061 3.77199e-18
3666.87311 3.98325e-18
3668.33559 4.29802e-18
3669.80809 4.48582e-18
3671.28059 4.41355e-18
3672.75308 4.57089e-18
3674.21557 4.67675e-18
3675.68806 4.63029e-18
3677.16056 4.78762e-18
3678.63306 4.94476e-18
3680.09555 5.16237e-18
3681.56804 5.33178e-18
3683.04054 5.36610e-18
3684.51304 5.33962e-18
3685.97552 5.58310e-18
3687.44802 5.80223e-18
3688.92052 5.66838e-18
3690.39302 5.72201e-18
3691.85550 5.95332e-18
3693.32800 6.09910e-18
3694.80050 6.04723e-18
3696.27300 6.12960e-18
3697.73548 6.41276e-18
3699.20798 6.57933e-18
3700.68048 6.48073e-18
3702.15298 6.20624e-18
3703.61546 6.40976e-18
3705.08796 6.69156e-18
3706.56046 6.71884e-18
3708.03296 6.72719e-18
3709.49544 6.43178e-18
3710.96794 6.22888e-18
3712.44044 6.20666e-18
3713.91294 6.12335e-18
3715.37542 5.99044e-18
3716.84792 5.85758e-18
3718.32042 5.73586e-18
3719.79292 5.61416e-18
3721.25540 5.49248e-18
3722.72790 5.37082e-18
3724.20040 5.24921e-18
3725.67290 5.12761e-18
3727.13538 5.00603e-18
3728.60788 4.88449e-18
3730.08038 4.76295e-18
3731.55287 4.64146e-18
3733.01536 4.51997e-18
3734.48786 4.39849e-18
3735.96035 4.27707e-18
3737.43285 4.15565e-18
3738.89534 4.03427e-18
3740.36783 3.91290e-18
3741.84033 3.79155e-18
3743.31283 3.67025e-18
3744.77531 3.54894e-18
3746.24781 3.42766e-18
3747.72031 3.30640e-18
3749.19281 3.18517e-18
3750.65529 3.06397e-18
3752.12779 2.94278e-18
3753.60029 2.82163e-18
3755.06277 2.76045e-18
3756.53527 2.62152e-18
3758.00777 2.57084e-18
3759.48027 2.52567e-18
3760.94275 2.55810e-18
3762.41525 2.68722e-18
3763.88775 2.55785e-18
3765.36025 2.52231e-18
3766.82273 2.62093e-18
3768.29523 2.46850e-18
3769.76773 2.41926e-18
3771.24023 2.48209e-18
3772.70271 2.45983e-18
3774.17521 2.42407e-18
3775.64771 2.44898e-18
3777.12021 2.53407e-18
3778.58269 2.48373e-18
3780.05519 2.37771e-18
3781.52769 2.30435e-18
3783.00019 2.48243e-18
3784.46267 2.55650e-18
3785.93517 2.50287e-18
3787.40767 2.72750e-18
3788.88017 2.72589e-18
3790.34265 2.54250e-18
3791.81515 2.53102e-18
3793.28764 2.52255e-18
3794.76014 2.55016e-18
3796.22263 2.54921e-18
3797.69513 2.68343e-18
3799.16762 2.82171e-18
3800.64012 2.78769e-18
3802.10261 2.81361e-18
3803.57510 2.86611e-18
3805.04760 2.84391e-18
3806.52010 2.95653e-18
3807.98258 3.08393e-18
3809.45508 3.02864e-18
3810.92758 2.99661e-18
3812.40008 3.02696e-18
3813.86256 2.96816e-18
3815.33506 2.95226e-18
3816.80756 2.97627e-18
3818.28006 2.99697e-18
3819.74254 3.11899e-18
3821.21504 3.25585e-18
3822.68754 3.25773e-18
3824.16004 3.21355e-18
3825.62252 3.32590e-18
3827.09502 3.30054e-18
3828.56752 3.24681e-18
3830.04002 3.45297e-18
3831.50250 3.45287e-18
3832.97500 3.31921e-18
3834.44750 3.46625e-18
3835.92000 3.76764e-18
3837.38248 3.84807e-18
3838.85498 3.72921e-18
3840.32748 3.66512e-18
3841.78996 3.81007e-18
3843.26246 4.10179e-18
3844.73496 4.18452e-18
3846.20746 4.21427e-18
3847.67996 4.21024e-18
3849.14244 4.38593e-18
3850.61494 4.47376e-18
3852.08744 4.38926e-18
3853.54992 4.62572e-18
3855.02242 4.79891e-18
3856.49491 4.92073e-18
3857.96741 5.05350e-18
3859.42990 5.11872e-18
3860.90240 5.24877e-18
3862.37489 5.57098e-18
3863.84739 5.65741e-18
3865.30987 5.92648e-18
3866.78237 6.04585e-18
3868.25487 5.98878e-18
3869.72737 6.31003e-18
3871.18985 6.50520e-18
3872.66235 6.54792e-18
3874.13485 6.69943e-18
3875.60735 6.92701e-18
3877.06983 7.11363e-18
3878.54233 7.32481e-18
3880.01483 7.57306e-18
3881.48733 7.63786e-18
3882.94981 7.89496e-18
3884.42231 8.40722e-18
3885.89481 8.59089e-18
3887.36731 8.62365e-18
3888.82979 8.73358e-18
3890.30229 8.94634e-18
3891.77479 9.16582e-18
3893.24729 9.54641e-18
3894.70977 1.00831e-17
3896.18227 1.01322e-17
3897.65477 1.01085e-17
3899.12727 1.02826e-17
3900.58975 1.05377e-17
3902.06225 1.06217e-17
3903.53475 1.05649e-17
3905.00725 1.08547e-17
3906.46973 1.11665e-17
3907.94223 1.11705e-17
3909.41473 1.13854e-17
3910.88722 1.14669e-17
3912.34971 1.13341e-17
3913.82221 1.14450e-17
3915.29471 1.16940e-17
3916.76720 1.17849e-17
3918.22969 1.16936e-17
3919.70219 1.17597e-17
3921.17468 1.19573e-17
3922.64718 1.20411e-17
3924.10966 1.19161e-17
3925.58216 1.19224e-17
3927.05466 1.19722e-17
3928.52716 1.17355e-17
3929.98964 1.14292e-17
3931.46214 1.12392e-17
3932.93464 1.10598e-17
3934.40714 1.10894e-17
3935.86962 1.12307e-17
3937.34212 1.11334e-17
3938.81462 1.08781e-17
3940.27710 1.09201e-17
3941.74960 1.11430e-17
3943.22210 1.14367e-17
3944.69460 1.14384e-17
3946.15708 1.15137e-17
3947.62958 1.18500e-17
3949.10208 1.18356e-17
3950.57458 1.15747e-17
3952.03706 1.13190e-17
3953.50956 1.12287e-17
3954.98206 1.14440e-17
3956.45456 1.11980e-17
3957.91704 1.11506e-17
3959.38954 1.13424e-17
3960.86204 1.13705e-17
3962.33454 1.13370e-17
3963.79702 1.10572e-17
3965.26952 1.08872e-17
3966.74202 1.10067e-17
3968.21452 1.09139e-17
3969.67700 1.08453e-17
3971.14950 1.07691e-17
3972.62200 1.09637e-17
3974.09449 1.11709e-17
3975.55698 1.12873e-17
3977.02948 1.14145e-17
3978.50198 1.16331e-17
3979.97447 1.19512e-17
3981.43696 1.20898e-17
3982.90946 1.21225e-17
3984.38195 1.21626e-17
3985.85445 1.23402e-17
3987.31694 1.26998e-17
3988.78943 1.28826e-17
3990.26193 1.29692e-17
3991.73443 1.32733e-17
3993.19691 1.33258e-17
3994.66941 1.35476e-17
3996.14191 1.41080e-17
3997.61441 1.42476e-17
3999.07689 1.42992e-17
4000.54939 1.45541e-17
4002.02189 1.48526e-17
4003.49439 1.52520e-17
4004.95687 1.54050e-17
4006.42937 1.54968e-17
4007.90187 1.58343e-17
4009.37437 1.60050e-17
4010.83685 1.58221e-17
4012.30935 1.62158e-17
4013.78185 1.65230e-17
4015.25435 1.64586e-17
4016.71683 1.67564e-17
4018.18933 1.70083e-17
4019.66183 1.69111e-17
4021.13433 1.67547e-17
4022.59681 1.69500e-17
4024.06931 1.70388e-17
4025.54181 1.70829e-17
4027.01431 1.71806e-17
4028.47679 1.69973e-17
4029.94929 1.68610e-17
4031.42179 1.67235e-17
4032.89429 1.65956e-17
4034.35677 1.66589e-17
4035.82927 1.67039e-17
4037.30177 1.64691e-17
4038.76425 1.61020e-17
4040.23675 1.59210e-17
4041.70925 1.57488e-17
4043.18174 1.54146e-17
4044.64423 1.52082e-17
4046.11673 1.50017e-17
4047.58922 1.49291e-17
4049.06172 1.45622e-17
4050.52421 1.41067e-17
4051.99670 1.39808e-17
4053.46920 1.39776e-17
4054.94170 1.36777e-17
4056.40418 1.32428e-17
4057.87668 1.32143e-17
4059.34918 1.31061e-17
4060.82168 1.26672e-17
4062.28416 1.24371e-17
4063.75666 1.24693e-17
4065.22916 1.21825e-17
4066.70166 1.19887e-17
4068.16414 1.17317e-17
4069.63664 1.12672e-17
4071.10914 1.10057e-17
4072.58164 1.09751e-17
4074.04412 1.08805e-17
4075.51662 1.07697e-17
4076.98912 1.05959e-17
4078.46162 1.04472e-17
4079.92410 1.04052e-17
4081.39660 1.01944e-17
4082.86910 9.83641e-18
4084.34160 9.71979e-18
4085.80408 9.64841e-18
4087.27658 9.69454e-18
4088.74908 9.54901e-18
4090.22158 9.35081e-18
4091.68406 9.27143e-18
4093.15656 9.05923e-18
4094.62906 8.97201e-18
4096.10156 8.97289e-18
4097.56404 9.07894e-18
4099.03654 9.01670e-18
4100.50904 8.81170e-18
4101.98153 8.65976e-18
4103.44402 8.49873e-18
4104.91651 8.43220e-18
4106.38901 8.53870e-18
4107.86151 8.59025e-18
4109.32400 8.57182e-18
4110.79649 8.48242e-18
4112.26899 8.30283e-18
4113.74149 8.00985e-18
4115.20397 7.81461e-18
4116.67647 7.77162e-18
4118.14897 7.62577e-18
4119.62147 7.58366e-18
4121.08395 7.57165e-18
4122.55645 7.47118e-18
4124.02895 7.31715e-18
4125.50145 7.18226e-18
4126.96393 7.00814e-18
4128.43643 6.84970e-18
4129.90893 7.02825e-18
4131.38143 7.08944e-18
4132.84391 6.95826e-18
4134.31641 6.84128e-18
4135.78891 6.95456e-18
4137.25139 7.10513e-18
4138.72389 6.93695e-18
4140.19639 6.81317e-18
4141.66889 6.88248e-18
4143.13137 6.72630e-18
4144.60387 6.83073e-18
4146.07637 7.02028e-18
4147.54887 7.10242e-18
4149.01135 7.01459e-18
4150.48385 6.86690e-18
4151.95635 7.06300e-18
4153.42885 7.11408e-18
4154.89133 7.00679e-18
4156.36383 6.93731e-18
4157.83633 6.87601e-18
4159.30883 6.94103e-18
4160.77131 6.93922e-18
4162.24381 6.84279e-18
4163.71630 6.68405e-18
4165.18880 6.67548e-18
4166.65129 6.74015e-18
4168.12379 6.66955e-18
4169.59628 6.58603e-18
4171.06878 6.59957e-18
4172.53126 6.61868e-18
4174.00376 6.48486e-18
4175.47626 6.39636e-18
4176.94876 6.42840e-18
4178.41124 6.29213e-18
4179.88374 6.20348e-18
4181.35624 6.21317e-18
4182.82874 6.11478e-18
4184.29122 5.95293e-18
4185.76372 5.93746e-18
4187.23622 5.99535e-18
4188.70872 5.94565e-18
4190.17120 5.85777e-18
4191.64370 5.81931e-18
4193.11620 5.89182e-18
4194.58870 5.97325e-18
4196.05118 6.00093e-18
4197.52368 5.99231e-18
4198.99618 6.00463e-18
4200.46868 5.98563e-18
4201.93116 5.92879e-18
4203.40366 6.05591e-18
4204.87616 6.08781e-18
4206.34866 6.08002e-18
4207.81114 6.14083e-18
4209.28364 6.23229e-18
4210.75614 6.22886e-18
4212.22864 6.32823e-18
4213.69112 6.48674e-18
4215.16362 6.49709e-18
4216.63612 6.44802e-18
4218.10862 6.53771e-18
4219.57110 6.72779e-18
4221.04360 6.65279e-18
4222.51610 6.66080e-18
4223.97858 6.87345e-18
4225.45108 6.99156e-18
4226.92357 6.95140e-18
4228.39607 6.96073e-18
4229.86857 7.07665e-18
4231.33105 7.03000e-18
4232.80355 6.99198e-18
4234.27605 7.17702e-18
4235.73854 7.27415e-18
4237.21103 7.28921e-18
4238.68353 7.27094e-18
4240.15603 7.14565e-18
4241.61851 7.25073e-18
4243.09101 7.36014e-18
4244.56351 7.32663e-18
4246.03601 7.31709e-18
4247.49849 7.43916e-18
4248.97099 7.54286e-18
4250.44349 7.49689e-18
4251.91599 7.52683e-18
4253.37847 7.55053e-18
4254.85097 7.52007e-18
4256.32347 7.48459e-18
4257.79597 7.43536e-18
4259.25845 7.40770e-18
4260.73095 7.48451e-18
4262.20345 7.31644e-18
4263.67595 7.34912e-18
4265.13843 7.38979e-18
4266.61093 7.39712e-18
4268.08343 7.30588e-18
4269.55593 7.15525e-18
4271.01841 7.27050e-18
4272.49091 7.27253e-18
4273.96341 7.10988e-18
4275.43591 7.14908e-18
4276.89839 7.16594e-18
4278.37089 7.13128e-18
4279.84339 7.01750e-18
4281.31588 6.94347e-18
4282.77837 6.85052e-18
4284.25087 6.95166e-18
4285.72336 7.02455e-18
4287.19586 7.01292e-18
4288.65835 6.98406e-18
4290.13085 6.93013e-18
4291.60334 7.00071e-18
4293.07584 7.13384e-18
4294.53833 7.15380e-18
4296.01082 7.24998e-18
4297.48332 7.38160e-18
4298.95582 7.22131e-18
4300.41830 7.11079e-18
4301.89080 7.29799e-18
4303.36330 7.41168e-18
4304.83580 7.31476e-18
4306.29828 7.36424e-18
4307.77078 7.46150e-18
4309.24328 7.44598e-18
4310.71578 7.44829e-18
4312.17826 7.51848e-18
4313.65076 7.62525e-18
4315.12326 7.72838e-18
4316.59576 7.52925e-18
4318.05824 7.50701e-18
4319.53074 7.57338e-18
4321.00324 7.58894e-18
4322.47574 7.73067e-18
4323.93822 7.77538e-18
4325.41072 7.79669e-18
4326.88322 7.82886e-18
4328.34570 7.89787e-18
4329.81820 7.78474e-18
4331.29070 7.71659e-18
4332.76320 7.66646e-18
4334.22568 7.68948e-18
4335.69818 7.68019e-18
4337.17068 7.78641e-18
4338.64318 7.79115e-18
4340.10566 7.71269e-18
4341.57816 7.69463e-18
4343.05066 7.74316e-18
4344.52315 7.82326e-18
4345.98564 7.95905e-18
4347.45814 8.04352e-18
4348.93064 8.08661e-18
4350.40313 7.97283e-18
4351.86562 7.87942e-18
4353.33811 7.84945e-18
4354.81061 7.81949e-18
4356.28311 7.78952e-18
4357.74560 7.75956e-18
4359.21809 7.72960e-18
4360.69059 7.69967e-18
4362.16309 7.66971e-18
4363.62557 7.63977e-18
4365.09807 7.60983e-18
4366.57057 7.57989e-18
4368.04307 7.54997e-18
4369.50555 7.52003e-18
4370.97805 7.49011e-18
4372.45055 7.46019e-18
4373.92305 7.43028e-18
4375.38553 7.40037e-18
4376.85803 7.37045e-18
4378.33053 7.34055e-18
4379.80303 7.31065e-18
4381.26551 7.28075e-18
4382.73801 7.25086e-18
4384.21051 7.22098e-18
4385.68301 7.19109e-18
4387.14549 7.16121e-18
4388.61799 7.13133e-18
4390.09049 7.10146e-18
4391.56299 7.10477e-18
4393.02547 7.02133e-18
4394.49797 6.94588e-18
4395.97047 7.02537e-18
4397.44297 6.97546e-18
4398.90545 6.86821e-18
4400.37795 6.80450e-18
4401.85045 6.71505e-18
4403.32295 6.71127e-18
4404.78543 6.69811e-18
4406.25793 6.63289e-18
4407.73042 6.51208e-18
4409.20292 6.37358e-18
4410.66541 6.34998e-18
4412.13790 6.31476e-18
4413.61040 6.20654e-18
4415.07289 6.24810e-18
4416.54539 6.22005e-18
4418.01788 6.16999e-18
4419.49038 6.18212e-18
4420.95287 6.09864e-18
4422.42536 6.01075e-18
4423.89786 6.05880e-18
4425.37036 6.03240e-18
4426.83284 5.89272e-18
4428.30534 5.90649e-18
4429.77784 5.89548e-18
4431.25034 5.97525e-18
4432.71282 6.09620e-18
4434.18532 6.16425e-18
4435.65782 6.09101e-18
4437.13032 6.07602e-18
4438.59280 6.08583e-18
4440.06530 6.15307e-18
4441.53780 6.15807e-18
4443.01030 6.26264e-18
4444.47278 6.28856e-18
4445.94528 6.34532e-18
4447.41778 6.27997e-18
4448.89028 6.23995e-18
4450.35276 6.26617e-18
4451.82526 6.42021e-18
4453.29776 6.41500e-18
4454.77026 6.61511e-18
4456.23274 6.67318e-18
4457.70524 6.64959e-18
4459.17774 6.68669e-18
4460.65024 6.90929e-18
4462.11272 7.05981e-18
4463.58522 7.09837e-18
4465.05772 7.25337e-18
4466.53021 7.28026e-18
4467.99270 7.39323e-18
4469.46520 7.47338e-18
4470.93770 7.53260e-18
4472.41019 7.66278e-18
4473.87268 7.73130e-18
4475.34518 7.92410e-18
4476.81767 8.17856e-18
4478.29017 8.39862e-18
4479.75266 8.51438e-18
4481.22515 8.47720e-18
4482.69765 8.61989e-18
4484.17015 8.83890e-18
4485.63263 9.05680e-18
4487.10513 9.19891e-18
4488.57763 9.42851e-18
4490.05013 9.59784e-18
4491.51261 9.86749e-18
4492.98511 1.01472e-17
4494.45761 1.02592e-17
4495.93011 1.01938e-17
4497.39259 1.02882e-17
4498.86509 1.07464e-17
4500.33759 1.08701e-17
4501.81009 1.11290e-17
4503.27257 1.14498e-17
4504.74507 1.14237e-17
4506.21757 1.15726e-17
4507.69007 1.17670e-17
4509.15255 1.18309e-17
4510.62505 1.20575e-17
4512.09755 1.22556e-17
4513.57005 1.23509e-17
4515.03253 1.25046e-17
4516.50503 1.25070e-17
4517.97753 1.26069e-17
4519.44001 1.27633e-17
4520.91251 1.29648e-17
4522.38501 1.30507e-17
4523.85751 1.29698e-17
4525.31999 1.28425e-17
4526.79249 1.29819e-17
4528.26499 1.31800e-17
4529.73749 1.32842e-17
4531.19997 1.33642e-17
4532.67247 1.34708e-17
4534.14497 1.36537e-17
4535.61746 1.36350e-17
4537.07995 1.37213e-17
4538.55245 1.38873e-17
4540.02494 1.38798e-17
4541.49744 1.39709e-17
4542.95993 1.41891e-17
4544.43242 1.41655e-17
4545.90492 1.41769e-17
4547.37742 1.43407e-17
4548.83990 1.44411e-17
4550.31240 1.44901e-17
4551.78490 1.46378e-17
4553.25740 1.46384e-17
4554.71988 1.47770e-17
4556.19238 1.49029e-17
4557.66488 1.50606e-17
4559.13738 1.51451e-17
4560.59986 1.53878e-17
4562.07236 1.54245e-17
4563.54486 1.55626e-17
4565.01736 1.58251e-17
4566.47984 1.60088e-17
4567.95234 1.60532e-17
4569.42484 1.64486e-17
4570.89734 1.65438e-17
4572.35982 1.66173e-17
4573.83232 1.67262e-17
4575.30482 1.69430e-17
4576.77732 1.73007e-17
4578.23980 1.73645e-17
4579.71230 1.73766e-17
4581.18480 1.75842e-17
4582.65730 1.75787e-17
4584.11978 1.75875e-17
4585.59228 1.76618e-17
4587.06478 1.79739e-17
4588.53728 1.78783e-17
4589.99976 1.78670e-17
4591.47226 1.81487e-17
4592.94475 1.82674e-17
4594.41725 1.83908e-17
4595.87974 1.84113e-17
4597.35224 1.88159e-17
4598.82473 1.88177e-17
4600.29723 1.70995e-17
4601.75972 1.59075e-17
4603.23221 1.92622e-17
4604.70471 1.92897e-17
4606.16720 1.92388e-17
4607.63969 1.92373e-17
4609.11219 1.92673e-17
4610.58469 1.94583e-17
4612.04717 1.95214e-17
4613.51967 1.96570e-17
4614.99217 1.93946e-17
4616.46467 1.92496e-17
4617.92715 1.93619e-17
4619.39965 1.96837e-17
4620.87215 1.95515e-17
4622.34465 1.94418e-17
4623.80713 1.96254e-17
4625.27963 1.97021e-17
4626.75213 1.97227e-17
4628.22463 1.96093e-17
4629.68711 1.94728e-17
4631.15961 1.94352e-17
4632.63211 1.91167e-17
4634.10461 1.89450e-17
4635.56709 1.90141e-17
4637.03959 1.89029e-17
4638.51209 1.87864e-17
4639.98459 1.84465e-17
4641.44707 1.83183e-17
4642.91957 1.82045e-17
4644.39207 1.77903e-17
4645.86457 1.76638e-17
4647.32705 1.75954e-17
4648.79955 1.74806e-17
4650.27205 1.72329e-17
4651.74455 1.68154e-17
4653.20703 1.68339e-17
4654.67953 1.66561e-17
4656.15203 1.64823e-17
4657.62452 1.61207e-17
4659.08701 1.58686e-17
4660.55951 1.57636e-17
4662.03200 1.56792e-17
4663.50450 1.55135e-17
4664.96699 1.53467e-17
4666.43948 1.52451e-17
4667.91198 1.52068e-17
4669.38448 1.50569e-17
4670.84696 1.49297e-17
4672.31946 1.48749e-17
4673.79196 1.47769e-17
4675.26446 1.46027e-17
4676.72694 1.45321e-17
4678.19944 1.45260e-17
4679.67194 1.43644e-17
4681.14444 1.43097e-17
4682.60692 1.43173e-17
4684.07942 1.44636e-17
4685.55192 1.43559e-17
4687.02442 1.42246e-17
4688.48690 1.40939e-17
4689.95940 1.41184e-17
4691.43190 1.41569e-17
4692.90440 1.40669e-17
4694.36688 1.40531e-17
4695.83938 1.41468e-17
4697.31188 1.39262e-17
4698.78438 1.39826e-17
4700.24686 1.39554e-17
4701.71936 1.39812e-17
4703.19186 1.39118e-17
4704.65434 1.40487e-17
4706.12684 1.40523e-17
4707.59934 1.39543e-17
4709.07184 1.39655e-17
4710.53432 1.40107e-17
4712.00682 1.38888e-17
4713.47932 1.39050e-17
4714.95182 1.38744e-17
4716.41430 1.37524e-17
4717.88680 1.38901e-17
4719.35930 1.38128e-17
4720.83179 1.38014e-17
4722.29428 1.38545e-17
4723.76678 1.36676e-17
4725.23927 1.37171e-17
4726.71177 1.37688e-17
4728.17425 1.34220e-17
4729.64675 1.32770e-17
4731.11925 1.32250e-17
4732.59175 1.32824e-17
4734.05423 1.32222e-17
4735.52673 1.32049e-17
4736.99923 1.32009e-17
4738.47173 1.31165e-17
4739.93421 1.30018e-17
4741.40671 1.29757e-17
4742.87921 1.30113e-17
4744.35171 1.28407e-17
4745.81419 1.26745e-17
4747.28669 1.26904e-17
4748.75919 1.28022e-17
4750.23169 1.26706e-17
4751.69417 1.25345e-17
4753.16667 1.25189e-17
4754.63917 1.24478e-17
4756.11167 1.23455e-17
4757.57415 1.22623e-17
4759.04665 1.21382e-17
4760.51915 1.20944e-17
4761.99165 1.22216e-17
4763.45413 1.20659e-17
4764.92663 1.16977e-17
4766.39913 1.17465e-17
4767.87163 1.17439e-17
4769.33411 1.16842e-17
4770.80661 1.17989e-17
4772.27911 1.16028e-17
4773.75160 1.13324e-17
4775.21409 1.13502e-17
4776.68659 1.12394e-17
4778.15909 1.10277e-17
4779.63158 1.09180e-17
4781.09407 1.07694e-17
4782.56657 1.07752e-17
4784.03906 1.07194e-17
4785.51156 1.04476e-17
4786.97405 1.03648e-17
4788.44654 1.02582e-17
4789.91904 9.96443e-18
4791.38152 9.70856e-18
4792.85402 9.74304e-18
4794.32652 9.52106e-18
4795.79902 9.36647e-18
4797.26150 9.28401e-18
4798.73400 9.06761e-18
4800.20650 8.95910e-18
4801.67900 8.90967e-18
4803.14148 8.98721e-18
4804.61398 8.96062e-18
4806.08648 8.83419e-18
4807.55898 8.87236e-18
4809.02146 8.79518e-18
4810.49396 8.81843e-18
4811.96646 8.95399e-18
4813.43896 9.00301e-18
4814.90144 9.12253e-18
4816.37394 9.27705e-18
4817.84644 9.31903e-18
4819.31894 9.52205e-18
4820.78142 9.57163e-18
4822.25392 9.71843e-18
4823.72642 9.89874e-18
4825.19892 1.00358e-17
4826.66140 1.02087e-17
4828.13390 1.02541e-17
4829.60640 1.04416e-17
4831.07890 1.07101e-17
4832.54138 1.08829e-17
4834.01388 1.10083e-17
4835.48638 1.11473e-17
4836.95888 1.14664e-17
4838.42136 1.15690e-17
4839.89386 1.18168e-17
4841.36636 1.19919e-17
4842.83885 1.22548e-17
4844.30134 1.23423e-17
4845.77383 1.23694e-17
4847.24633 1.27760e-17
4848.71883 1.29681e-17
4850.18131 1.30171e-17
4851.65381 1.29028e-17
4853.12631 1.27886e-17
4854.59881 1.26744e-17
4856.06129 1.25602e-17
4857.53379 1.24461e-17
4859.00629 1.23319e-17
4860.47879 1.22178e-17
4861.94127 1.21037e-17
4863.41377 1.19896e-17
4864.88627 1.18756e-17
4866.35877 1.17615e-17
4867.82125 1.16474e-17
4869.29375 1.15334e-17
4870.76625 1.14195e-17
4872.23875 1.13055e-17
4873.70123 1.11915e-17
4875.17373 1.10776e-17
4876.64623 1.09637e-17
4878.10871 1.08498e-17
4879.58121 1.07359e-17
4881.05371 1.06220e-17
4882.52621 1.05082e-17
4883.99871 1.03943e-17
4885.46119 1.02806e-17
4886.93369 1.01668e-17
4888.40619 1.00530e-17
4889.87869 9.82232e-18
4891.34117 9.62059e-18
4892.81367 9.60220e-18
4894.28617 9.48796e-18
4895.74865 9.43759e-18
4897.22115 9.45423e-18
4898.69365 9.46690e-18
4900.16615 9.48539e-18
4901.62863 9.52472e-18
4903.10113 9.53984e-18
4904.57362 9.62346e-18
4906.04612 9.62887e-18
4907.50861 9.69300e-18
4908.98110 9.84079e-18
4910.45360 9.82730e-18
4911.92610 9.76338e-18
4913.38859 9.94908e-18
4914.86108 1.00830e-17
4916.33358 1.01663e-17
4917.80608 1.03645e-17
4919.26856 1.04987e-17
4920.74106 1.06965e-17
4922.21356 1.07689e-17
4923.68606 1.09452e-17
4925.14854 1.10657e-17
4926.62104 1.12928e-17
4928.09354 1.14391e-17
4929.56604 1.14524e-17
4931.02852 1.16540e-17
4932.50102 1.18530e-17
4933.97352 1.20648e-17
4935.44602 1.21762e-17
4936.90850 1.23322e-17
4938.38100 1.25345e-17
4939.85350 1.27654e-17
4941.32600 1.31126e-17
4942.78848 1.31996e-17
4944.26098 1.32000e-17
4945.73348 1.35446e-17
4947.20598 1.38488e-17
4948.66846 1.39615e-17
4950.14096 1.40498e-17
4951.61346 1.41380e-17
4953.08596 1.42263e-17
4954.54844 1.43145e-17
4956.02094 1.44028e-17
4957.49344 1.44910e-17
4958.96594 1.45791e-17
4960.42842 1.46673e-17
4961.90092 1.47555e-17
4963.37342 1.48436e-17
4964.84591 1.49318e-17
4966.30840 1.50199e-17
4967.78090 1.51080e-17
4969.25339 1.51961e-17
4970.72589 1.52842e-17
4972.18837 1.53722e-17
4973.66087 1.54603e-17
4975.13337 1.55483e-17
4976.60587 1.56364e-17
4978.06835 1.57244e-17
4979.54085 1.58124e-17
4981.01335 1.59003e-17
4982.47583 1.59883e-17
4983.94833 1.60763e-17
4985.42083 1.61642e-17
4986.89333 1.60787e-17
4988.35581 1.58289e-17
4989.82831 1.57924e-17
4991.30081 1.58564e-17
4992.77331 1.57439e-17
4994.24581 1.55440e-17
4995.70829 1.54028e-17
4997.18079 1.52389e-17
4998.65329 1.49834e-17
5000.11577 1.47277e-17
5001.58827 1.44721e-17
5003.06077 1.42168e-17
5004.53327 1.39613e-17
5005.99575 1.37059e-17
5007.46825 1.34505e-17
5008.94075 1.31952e-17
5010.41325 1.29399e-17
5011.87573 1.26847e-17
5013.34823 1.24295e-17
5014.82073 1.21743e-17
5016.29323 1.19192e-17
5017.75571 1.16642e-17
5019.22821 1.14091e-17
5020.70071 1.11541e-17
5022.17321 1.08992e-17
5023.63569 1.06442e-17
5025.10819 1.03895e-17
5026.58068 1.01346e-17
5028.05318 9.87975e-18
5029.51567 9.62504e-18
5030.98816 9.37028e-18
5032.46066 9.11573e-18
5033.93316 8.86105e-18
5035.39565 8.69627e-18
5036.86814 8.50952e-18
5038.34064 8.46979e-18
5039.81314 8.45855e-18
5041.27562 8.42101e-18
5042.74812 8.38056e-18
5044.22062 8.28698e-18
5045.69312 8.27728e-18
5047.15560 8.35453e-18
5048.62810 8.26122e-18
5050.10060 8.30824e-18
5051.57310 8.51251e-18
5053.03558 8.60235e-18
5054.50808 8.68948e-18
5055.98058 8.72768e-18
5057.45308 8.76365e-18
5058.91556 8.86870e-18
5060.38806 8.97690e-18
5061.86056 8.87320e-18
5063.33306 8.90766e-18
5064.79554 9.07227e-18
5066.26804 9.04159e-18
5067.74054 9.19833e-18
5069.20302 9.39220e-18
5070.67552 9.51966e-18
5072.14802 9.54938e-18
5073.62052 9.64268e-18
5075.09302 9.79576e-18
5076.55550 9.83520e-18
5078.02800 9.89883e-18
5079.50050 1.01024e-17
5080.97300 1.03284e-17
5082.43548 1.03815e-17
5083.90798 1.04819e-17
5085.38047 1.05607e-17
5086.84296 1.07041e-17
5088.31546 1.08205e-17
5089.78795 1.09547e-17
5091.26045 1.10819e-17
5092.72294 1.12149e-17
5094.19544 1.12873e-17
5095.66793 1.14152e-17
5097.14043 1.14903e-17
5098.60292 1.13205e-17
5100.07541 1.15316e-17
5101.54791 1.15432e-17
5103.02041 1.15726e-17
5104.48289 1.19272e-17
5105.95539 1.18333e-17
5107.42789 1.19018e-17
5108.90039 1.18665e-17
5110.36287 1.17925e-17
5111.83537 1.17981e-17
5113.30787 1.22264e-17
5114.78037 1.23551e-17
5116.24285 1.22918e-17
5117.71535 1.22893e-17
5119.18785 1.24150e-17
5120.66035 1.25311e-17
5122.12283 1.24035e-17
5123.59533 1.24435e-17
5125.06783 1.25883e-17
5126.54033 1.26298e-17
5128.00281 1.26345e-17
5129.47531 1.26391e-17
5130.94781 1.26704e-17
5132.42031 1.26087e-17
5133.88279 1.25871e-17
5135.35529 1.26472e-17
5136.82779 1.26443e-17
5138.30029 1.26607e-17
5139.76277 1.26185e-17
5141.23527 1.26863e-17
5142.70777 1.28002e-17
5144.18026 1.27577e-17
5145.64275 1.29056e-17
5147.11525 1.28307e-17
5148.58775 1.28123e-17
5150.06024 1.28876e-17
5151.52273 1.29968e-17
5152.99523 1.29424e-17
5154.46772 1.29269e-17
5155.94022 1.27969e-17
5157.40270 1.28234e-17
5158.87520 1.30147e-17
5160.34770 1.28934e-17
5161.82020 1.27491e-17
5163.28268 1.26854e-17
5164.75518 1.28650e-17
5166.22768 1.27591e-17
5167.70018 1.28358e-17
5169.16266 1.27974e-17
5170.63516 1.27221e-17
5172.10766 1.27273e-17
5173.57014 1.26569e-17
5175.04264 1.26679e-17
5176.51514 1.26491e-17
5177.98764 1.28213e-17
5179.45012 1.26182e-17
5180.92262 1.26701e-17
5182.39512 1.26579e-17
5183.86762 1.25096e-17
5185.34012 1.24651e-17
5186.80260 1.25420e-17
5188.27510 1.25177e-17
5189.74760 1.25491e-17
5191.21008 1.25326e-17
5192.68258 1.24589e-17
5194.15508 1.24068e-17
5195.62758 1.23918e-17
5197.09006 1.26837e-17
5198.56256 1.25232e-17
5200.03506 1.24861e-17
5201.50756 1.25464e-17
5202.97004 1.24845e-17
5204.44254 1.24995e-17
5205.91504 1.25495e-17
5207.38754 1.25079e-17
5208.85002 1.25496e-17
5210.32252 1.26361e-17
5211.79501 1.26554e-17
5213.26751 1.28045e-17
5214.73000 1.28390e-17
5216.20250 1.28535e-17
5217.67499 1.29420e-17
5219.14749 1.30898e-17
5220.60998 1.31997e-17
5222.08247 1.32844e-17
5223.55497 1.34176e-17
5225.02747 1.35623e-17
5226.48995 1.36083e-17
5227.96245 1.37577e-17
5229.43495 1.38517e-17
5230.90745 1.38658e-17
5232.36993 1.38985e-17
5233.84243 1.39455e-17
5235.31493 1.41737e-17
5236.78743 1.42982e-17
5238.24991 1.43503e-17
5239.72241 1.43945e-17
5241.19491 1.47212e-17
5242.66741 1.47078e-17
5244.12989 1.47556e-17
5245.60239 1.48008e-17
5247.07489 1.47773e-17
5248.54739 1.48113e-17
5250.00987 1.49508e-17
5251.48237 1.52280e-17
5252.95487 1.50390e-17
5254.42737 1.54051e-17
5255.88985 1.52901e-17
5257.36235 1.52783e-17
5258.83485 1.53087e-17
5260.30735 1.52358e-17
5261.76983 1.54483e-17
5263.24233 1.55156e-17
5264.71483 1.54051e-17
5266.18732 1.54546e-17
5267.64981 1.53417e-17
5269.12231 1.55729e-17
5270.59480 1.58030e-17
5272.06730 1.57565e-17
5273.52979 1.58424e-17
5275.00229 1.61136e-17
5276.47478 1.61139e-17
5277.93727 1.61194e-17
5279.40977 1.61362e-17
5280.88226 1.63536e-17
5282.35476 1.64380e-17
5283.81725 1.63598e-17
5285.28974 1.64559e-17
5286.76224 1.66067e-17
5288.23474 1.67172e-17
5289.69722 1.67140e-17
5291.16972 1.67232e-17
5292.64222 1.67626e-17
5294.11472 1.69911e-17
5295.57720 1.71705e-17
5297.04970 1.72279e-17
5298.52220 1.72092e-17
5299.99470 1.74852e-17
5301.45718 1.74274e-17
5302.92968 1.73660e-17
5304.40218 1.75091e-17
5305.87468 1.76554e-17
5307.33716 1.77127e-17
5308.80966 1.74053e-17
5310.28216 1.74741e-17
5311.75466 1.76511e-17
5313.21714 1.76713e-17
5314.68964 1.76579e-17
5316.16214 1.76872e-17
5317.63464 1.77166e-17
5319.09712 1.77245e-17
5320.56962 1.76796e-17
5322.04212 1.76944e-17
5323.51462 1.77901e-17
5324.97710 1.76481e-17
5326.44960 1.76598e-17
5327.92210 1.77671e-17
5329.39460 1.77783e-17
5330.85708 1.77436e-17
5332.32958 1.77430e-17
5333.80208 1.78408e-17
5335.27457 1.78281e-17
5336.73706 1.77594e-17
5338.20955 1.78913e-17
5339.68205 1.78380e-17
5341.15455 1.78800e-17
5342.61704 1.79903e-17
5344.08953 1.78257e-17
5345.56203 1.78648e-17
5347.03453 1.80338e-17
5348.49701 1.80572e-17
5349.96951 1.78299e-17
5351.44201 1.79074e-17
5352.91451 1.80341e-17
5354.37699 1.80586e-17
5355.84949 1.80092e-17
5357.32199 1.79956e-17
5358.79449 1.80401e-17
5360.25697 1.79278e-17
5361.72947 1.80533e-17
5363.20197 1.80387e-17
5364.66445 1.80032e-17
5366.13695 1.81030e-17
5367.60945 1.81087e-17
5369.08195 1.79548e-17
5370.55445 1.79001e-17
5372.01693 1.78551e-17
5373.48943 1.78894e-17
5374.96193 1.78634e-17
5376.42441 1.77674e-17
5377.89691 1.77893e-17
5379.36941 1.77974e-17
5380.84191 1.77983e-17
5382.30439 1.76455e-17
5383.77689 1.74011e-17
5385.24939 1.73581e-17
5386.72189 1.73938e-17
5388.18437 1.73004e-17
5389.65687 1.71217e-17
5391.12937 1.70384e-17
5392.60186 1.67223e-17
5394.06435 1.67364e-17
5395.53685 1.66000e-17
5397.00935 1.65071e-17
5398.48184 1.63890e-17
5399.94433 1.61127e-17
5401.41683 1.60422e-17
5402.88932 1.59599e-17
5404.36182 1.56949e-17
5405.82431 1.56898e-17
5407.29680 1.56981e-17
5408.76930 1.55557e-17
5410.24180 1.54962e-17
5411.70428 1.54011e-17
5413.17678 1.53621e-17
5414.64928 1.53750e-17
5416.12178 1.53815e-17
5417.58426 1.52754e-17
5419.05676 1.53887e-17
5420.52926 1.52727e-17
5422.00176 1.52272e-17
5423.46424 1.51832e-17
5424.93674 1.53099e-17
5426.40924 1.53981e-17
5427.88174 1.55251e-17
5429.34422 1.55537e-17
5430.81672 1.55199e-17
5432.28922 1.54664e-17
5433.76172 1.54294e-17
5435.22420 1.58017e-17
5436.69670 1.57708e-17
5438.16920 1.58298e-17
5439.64170 1.58229e-17
5441.10418 1.59625e-17
5442.57668 1.59715e-17
5444.04918 1.58992e-17
5445.52168 1.60279e-17
5446.98416 1.61515e-17
5448.45666 1.61444e-17
5449.92916 1.60934e-17
5451.40165 1.64019e-17
5452.86414 1.66261e-17
5454.33664 1.68192e-17
5455.80914 1.68053e-17
5457.28163 1.67936e-17
5458.74412 1.69327e-17
5460.21662 1.73551e-17
5461.68911 1.75043e-17
5463.15160 1.74348e-17
5464.62410 1.75527e-17
5466.09659 1.77082e-17
5467.56909 1.76951e-17
5469.03157 1.76484e-17
5470.50407 1.79305e-17
5471.97657 1.81082e-17
5473.44907 1.81078e-17
5474.91155 1.83356e-17
5476.38405 1.85718e-17
5477.85655 1.83270e-17
5479.32905 1.84350e-17
5480.79153 1.86303e-17
5482.26403 1.85387e-17
5483.73653 1.86016e-17
5485.20903 1.87276e-17
5486.67151 1.86525e-17
5488.14401 1.87505e-17
5489.61651 1.88695e-17
5491.08901 1.88021e-17
5492.55149 1.89029e-17
5494.02399 1.87660e-17
5495.49649 1.89297e-17
5496.96899 1.86303e-17
5498.43147 1.87098e-17
5499.90397 1.87409e-17
5501.37647 1.86149e-17
5502.84897 1.86690e-17
5504.31145 1.85347e-17
5505.78395 1.84068e-17
5507.25645 1.84129e-17
5508.72895 1.81783e-17
5510.19143 1.81955e-17
5511.66393 1.81765e-17
5513.13643 1.78931e-17
5514.60893 1.78672e-17
5516.07141 1.76680e-17
5517.54391 1.77261e-17
5519.01640 1.77143e-17
5520.48890 1.75560e-17
5521.95139 1.74297e-17
5523.42389 1.71543e-17
5524.89638 1.69888e-17
5526.36888 1.68044e-17
5527.83137 1.66803e-17
5529.30386 1.64413e-17
5530.77636 1.63065e-17
5532.24886 1.62537e-17
5533.71134 1.60502e-17
5535.18384 1.59949e-17
5536.65634 1.59485e-17
5538.12884 1.58931e-17
5539.59132 1.57622e-17
5541.06382 1.58049e-17
5542.53632 1.56700e-17
5544.00882 1.56627e-17
5545.47130 1.55141e-17
5546.94380 1.54228e-17
5548.41630 1.54096e-17
5549.87878 1.53397e-17
5551.35128 1.52663e-17
5552.82378 1.52756e-17
5554.29628 1.52081e-17
5555.76878 1.52044e-17
5557.23126 1.52040e-17
5558.70376 1.52338e-17
5560.17626 1.51751e-17
5561.64876 1.52498e-17
5563.11124 1.54093e-17
5564.58374 1.52263e-17
5566.05624 1.52576e-17
5567.51872 1.53991e-17
5568.99122 1.53401e-17
5570.46372 1.53148e-17
5571.93622 1.52708e-17
5573.39870 1.54275e-17
5574.87120 1.55436e-17
5576.34370 1.54492e-17
5577.81620 1.56318e-17
5579.27868 1.57175e-17
5580.75118 1.55624e-17
5582.22368 1.56187e-17
5583.69617 1.56934e-17
5585.15866 1.57959e-17
5586.63116 1.57236e-17
5588.10365 1.56840e-17
5589.57615 1.57806e-17
5591.03864 1.58146e-17
5592.51113 1.59518e-17
5593.98363 1.60789e-17
5595.45613 1.60920e-17
5596.91861 1.60327e-17
5598.39111 1.60009e-17
5599.86361 1.60233e-17
5601.33611 1.61420e-17
5602.79859 1.62378e-17
5604.27109 1.63179e-17
5605.74359 1.64046e-17
5607.21609 1.63925e-17
5608.67857 1.65224e-17
5610.15107 1.65123e-17
5611.62357 1.64965e-17
5613.09607 1.66198e-17
5614.55855 1.64727e-17
5616.03105 1.66171e-17
5617.50355 1.67832e-17
5618.97605 1.66898e-17
5620.43853 1.67352e-17
5621.91103 1.68542e-17
5623.38353 1.67907e-17
5624.85603 1.67496e-17
5626.31851 1.70457e-17
5627.79101 1.70276e-17
5629.26351 1.67826e-17
5630.73601 1.67510e-17
5632.19849 1.68489e-17
5633.67099 1.69355e-17
5635.14349 1.69266e-17
5636.61599 1.68867e-17
5638.07847 1.67411e-17
5639.55097 1.66605e-17
5641.02347 1.66989e-17
5642.49596 1.67015e-17
5643.95845 1.67187e-17
5645.43095 1.67340e-17
5646.90344 1.66937e-17
5648.37594 1.66708e-17
5649.83842 1.65720e-17
5651.31092 1.66564e-17
5652.78342 1.66632e-17
5654.24590 1.64598e-17
5655.71840 1.63410e-17
5657.19090 1.63623e-17
5658.66340 1.63417e-17
5660.12588 1.62611e-17
5661.59838 1.62858e-17
5663.07088 1.62337e-17
5664.54338 1.60104e-17
5666.01588 1.59583e-17
5667.47836 1.58928e-17
5668.95086 1.59256e-17
5670.42336 1.58548e-17
5671.88584 1.56545e-17
5673.35834 1.56600e-17
5674.83084 1.56215e-17
5676.30334 1.55636e-17
5677.76582 1.54172e-17
5679.23832 1.54320e-17
5680.71082 1.54539e-17
5682.18332 1.53621e-17
5683.64580 1.52723e-17
5685.11830 1.52309e-17
5686.59080 1.51038e-17
5688.06330 1.49121e-17
5689.52578 1.48296e-17
5690.99828 1.47550e-17
5692.47078 1.46974e-17
5693.94328 1.46994e-17
5695.40576 1.47849e-17
5696.87826 1.45980e-17
5698.35076 1.45005e-17
5699.82326 1.44086e-17
5701.28574 1.43654e-17
5702.75824 1.43953e-17
5704.23074 1.42413e-17
5705.70323 1.41852e-17
5707.16572 1.40469e-17
5708.63821 1.39535e-17
5710.11071 1.37325e-17
5711.58321 1.36085e-17
5713.04570 1.37111e-17
5714.51819 1.38163e-17
5715.99069 1.36757e-17
5717.46319 1.35797e-17
5718.92567 1.34666e-17
5720.39817 1.33848e-17
5721.87067 1.33761e-17
5723.34317 1.32952e-17
5724.80565 1.30352e-17
5726.27815 1.30300e-17
5727.75065 1.30409e-17
5729.22315 1.29046e-17
5730.68563 1.27820e-17
5732.15813 1.27109e-17
5733.63063 1.26298e-17
5735.10313 1.25561e-17
5736.56561 1.23319e-17
5738.03811 1.23135e-17
5739.51061 1.23218e-17
5740.97309 1.21107e-17
5742.44559 1.21120e-17
5743.91809 1.20179e-17
5745.39059 1.18943e-17
5746.85307 1.18374e-17
5748.32557 1.17725e-17
5749.79807 1.18153e-17
5751.27057 1.17343e-17
5752.74307 1.16727e-17
5754.20555 1.16333e-17
5755.67805 1.15604e-17
5757.15055 1.14775e-17
5758.61303 1.15120e-17
5760.08553 1.14974e-17
5761.55803 1.13898e-17
5763.03053 1.13363e-17
5764.49301 1.12941e-17
5765.96551 1.14146e-17
5767.43800 1.14414e-17
5768.91050 1.14711e-17
5770.37299 1.14829e-17
5771.84549 1.14587e-17
5773.31798 1.12952e-17
5774.79048 1.14234e-17
5776.25296 1.15908e-17
5777.72546 1.14284e-17
5779.19796 1.13909e-17
5780.67046 1.14837e-17
5782.13294 1.15872e-17
5783.60544 1.16553e-17
5785.07794 1.16331e-17
5786.55044 1.16124e-17
5788.01292 1.17444e-17
5789.48542 1.20170e-17
5790.95792 1.21619e-17
5792.43042 1.21437e-17
5793.89290 1.23587e-17
5795.36540 1.25601e-17
5796.83790 1.25433e-17
5798.31040 1.26058e-17
5799.77288 1.27189e-17
5801.24538 1.28010e-17
5802.71788 1.30041e-17
5804.19038 1.32799e-17
5805.65286 1.33322e-17
5807.12536 1.34272e-17
5808.59786 1.34503e-17
5810.07036 1.35370e-17
5811.53284 1.35176e-17
5813.00534 1.35900e-17
5814.47784 1.38737e-17
5815.95034 1.39586e-17
5817.41282 1.40490e-17
5818.88532 1.43003e-17
5820.35782 1.44791e-17
5821.83032 1.44610e-17
5823.29280 1.45878e-17
5824.76530 1.46369e-17
5826.23780 1.46991e-17
5827.71029 1.47492e-17
5829.17278 1.47019e-17
5830.64527 1.48374e-17
5832.11777 1.49092e-17
5833.59027 1.49027e-17
5835.05275 1.49319e-17
5836.52525 1.49590e-17
5837.99775 1.50266e-17
5839.47025 1.51333e-17
5840.93273 1.51434e-17
5842.40523 1.51738e-17
5843.87773 1.52661e-17
5845.34021 1.52155e-17
5846.81271 1.51763e-17
5848.28521 1.52195e-17
5849.75771 1.52532e-17
5851.22019 1.53442e-17
5852.69269 1.54040e-17
5854.16519 1.53474e-17
5855.63769 1.53807e-17
5857.10017 1.54457e-17
5858.57267 1.54010e-17
5860.04517 1.53205e-17
5861.51767 1.51753e-17
5862.98015 1.51233e-17
5864.45265 1.52075e-17
5865.92515 1.51200e-17
5867.39765 1.49894e-17
5868.86013 1.51309e-17
5870.33263 1.51585e-17
5871.80513 1.49386e-17
5873.27763 1.49173e-17
5874.74011 1.49220e-17
5876.21261 1.47987e-17
5877.68511 1.48182e-17
5879.15761 1.47816e-17
5880.62009 1.47422e-17
5882.09259 1.47793e-17
5883.56509 1.47210e-17
5885.03759 1.46336e-17
5886.50007 1.43089e-17
5887.97257 1.36791e-17
5889.44506 1.33356e-17
5890.91756 1.33845e-17
5892.38005 1.35066e-17
5893.85255 1.36016e-17
5895.32504 1.34326e-17
5896.79754 1.34147e-17
5898.26003 1.32933e-17
5899.73252 1.34065e-17
5901.20502 1.36794e-17
5902.67752 1.39321e-17
5904.14000 1.40437e-17
5905.61250 1.41021e-17
5907.08500 1.41978e-17
5908.55750 1.43357e-17
5910.01998 1.43608e-17
5911.49248 1.44673e-17
5912.96498 1.46008e-17
5914.43748 1.46538e-17
5915.89996 1.47569e-17
5917.37246 1.46962e-17
5918.84496 1.44865e-17
5920.31746 1.46271e-17
5921.77994 1.46921e-17
5923.25244 1.45758e-17
5924.72494 1.45652e-17
5926.19744 1.49051e-17
5927.65992 1.49455e-17
5929.13242 1.48931e-17
5930.60492 1.49228e-17
5932.07742 1.48115e-17
5933.53990 1.49399e-17
5935.01240 1.50174e-17
5936.48490 1.49452e-17
5937.95740 1.48654e-17
5939.41988 1.47608e-17
5940.89238 1.46125e-17
5942.36488 1.44641e-17
5943.82736 1.44031e-17
5945.29986 1.44027e-17
5946.77236 1.44374e-17
5948.24485 1.45864e-17
5949.70734 1.47173e-17
5951.17984 1.48057e-17
5952.65234 1.47855e-17
5954.12483 1.47025e-17
5955.58732 1.47003e-17
5957.05981 1.45601e-17
5958.53231 1.45345e-17
5960.00481 1.46149e-17
5961.46730 1.46318e-17
5962.93979 1.46303e-17
5964.41229 1.45786e-17
5965.88479 1.44039e-17
5967.34727 1.43890e-17
5968.81977 1.43260e-17
5970.29227 1.42928e-17
5971.76477 1.44029e-17
5973.22725 1.44029e-17
5974.69975 1.43929e-17
5976.17225 1.44554e-17
5977.64475 1.42498e-17
5979.10723 1.42987e-17
5980.57973 1.43129e-17
5982.05223 1.42000e-17
5983.52473 1.41298e-17
5984.98721 1.42405e-17
5986.45971 1.43527e-17
5987.93221 1.43042e-17
5989.40471 1.42281e-17
5990.86719 1.41575e-17
5992.33969 1.40480e-17
5993.81219 1.40293e-17
5995.28469 1.39558e-17
5996.74717 1.41150e-17
5998.21967 1.41904e-17
5999.69217 1.39115e-17
6001.16467 1.39082e-17
6002.62715 1.38834e-17
6004.09965 1.39196e-17
6005.57215 1.39751e-17
6007.04465 1.38506e-17
6008.50713 1.38743e-17
6009.97963 1.37776e-17
6011.45212 1.36899e-17
6012.92462 1.36253e-17
6014.38711 1.36388e-17
6015.85960 1.37144e-17
6017.33210 1.35833e-17
6018.80460 1.35320e-17
6020.26709 1.35254e-17
6021.73958 1.35476e-17
6023.21208 1.35080e-17
6024.68458 1.34083e-17
6026.14706 1.33674e-17
6027.61956 1.33403e-17
6029.09206 1.32038e-17
6030.56456 1.30968e-17
6032.02704 1.30741e-17
6033.49954 1.30818e-17
6034.97204 1.29728e-17
6036.43452 1.29129e-17
6037.90702 1.28118e-17
6039.37952 1.26351e-17
6040.85202 1.26908e-17
6042.31450 1.27078e-17
6043.78700 1.26035e-17
6045.25950 1.25307e-17
6046.73200 1.25120e-17
6048.19448 1.25471e-17
6049.66698 1.25192e-17
6051.13948 1.24692e-17
6052.61198 1.24031e-17
6054.07446 1.25069e-17
6055.54696 1.25751e-17
6057.01946 1.24540e-17
6058.49196 1.25244e-17
6059.95444 1.27015e-17
6061.42694 1.27469e-17
6062.89944 1.27251e-17
6064.37194 1.28250e-17
6065.83442 1.29053e-17
6067.30692 1.28865e-17
6068.77942 1.28845e-17
6070.25191 1.29066e-17
6071.71440 1.30131e-17
6073.18690 1.31288e-17
6074.65940 1.32362e-17
6076.13189 1.32707e-17
6077.59438 1.32915e-17
6079.06688 1.34249e-17
6080.53937 1.34192e-17
6082.01187 1.34052e-17
6083.47436 1.34087e-17
6084.94685 1.33999e-17
6086.41935 1.33126e-17
6087.89185 1.33547e-17
6089.35433 1.35392e-17
6090.82683 1.35494e-17
6092.29933 1.34796e-17
6093.77183 1.35478e-17
6095.23431 1.35461e-17
6096.70681 1.34736e-17
6098.17931 1.34210e-17
6099.65181 1.33677e-17
6101.11429 1.34136e-17
6102.58679 1.33857e-17
6104.05929 1.33741e-17
6105.53179 1.33717e-17
6106.99427 1.32908e-17
6108.46677 1.32211e-17
6109.93927 1.31995e-17
6111.41177 1.30702e-17
6112.87425 1.30094e-17
6114.34675 1.29998e-17
6115.81925 1.28812e-17
6117.29175 1.27271e-17
6118.75423 1.27498e-17
6120.22673 1.28453e-17
6121.69923 1.27551e-17
6123.17173 1.26969e-17
6124.63421 1.26383e-17
6126.10671 1.26331e-17
6127.57921 1.26248e-17
6129.05170 1.25866e-17
6130.51419 1.25076e-17
6131.98669 1.24504e-17
6133.45919 1.24783e-17
6134.92167 1.24531e-17
6136.39417 1.24085e-17
6137.86667 1.24867e-17
6139.33916 1.24422e-17
6140.80165 1.24422e-17
6142.27415 1.24895e-17
6143.74664 1.25567e-17
6145.21914 1.25374e-17
6146.68163 1.25993e-17
6148.15412 1.27230e-17
6149.62662 1.26938e-17
6151.09912 1.26765e-17
6152.56160 1.28243e-17
6154.03410 1.29423e-17
6155.50660 1.29613e-17
6156.97910 1.30610e-17
6158.44158 1.31379e-17
6159.91408 1.31831e-17
6161.38658 1.32304e-17
6162.85908 1.32937e-17
6164.32156 1.33838e-17
6165.79406 1.34374e-17
6167.26656 1.34946e-17
6168.73906 1.35188e-17
6170.20154 1.36118e-17
6171.67404 1.37369e-17
6173.14654 1.38110e-17
6174.61904 1.38790e-17
6176.08152 1.39963e-17
6177.55402 1.40459e-17
6179.02652 1.39786e-17
6180.49902 1.39974e-17
6181.96150 1.41432e-17
6183.43400 1.42603e-17
6184.90650 1.42996e-17
6186.37900 1.42409e-17
6187.84148 1.44411e-17
6189.31398 1.44477e-17
6190.78648 1.42896e-17
6192.25898 1.42572e-17
6193.72146 1.43433e-17
6195.19396 1.44258e-17
6196.66645 1.44350e-17
6198.13895 1.45423e-17
6199.60144 1.45341e-17
6201.07394 1.44161e-17
6202.54643 1.43913e-17
6204.01893 1.43176e-17
6205.48142 1.43089e-17
6206.95391 1.43292e-17
6208.42641 1.43972e-17
6209.89891 1.44185e-17
6211.36139 1.42264e-17
6212.83389 1.41088e-17
6214.30639 1.40702e-17
6215.77889 1.40672e-17
6217.24137 1.39794e-17
6218.71387 1.38625e-17
6220.18637 1.38437e-17
6221.64885 1.36919e-17
6223.12135 1.35764e-17
6224.59385 1.34806e-17
6226.06635 1.33681e-17
6227.52883 1.33844e-17
6229.00133 1.32677e-17
6230.47383 1.31487e-17
6231.94633 1.30009e-17
6233.40881 1.28306e-17
6234.88131 1.27708e-17
6236.35381 1.27416e-17
6237.82631 1.26777e-17
6239.28879 1.25798e-17
6240.76129 1.24837e-17
6242.23379 1.23765e-17
6243.70629 1.23061e-17
6245.16877 1.22941e-17
6246.64127 1.22407e-17
6248.11377 1.22058e-17
6249.58627 1.23419e-17
6251.04875 1.23757e-17
6252.52125 1.23265e-17
6253.99375 1.22116e-17
6255.46625 1.20935e-17
6256.92873 1.21173e-17
6258.40123 1.20543e-17
6259.87373 1.20646e-17
6261.34622 1.20911e-17
6262.80871 1.19484e-17
6264.28121 1.19529e-17
6265.75370 1.21357e-17
6267.22620 1.21293e-17
6268.68869 1.18942e-17
6270.16118 1.18794e-17
6271.63368 1.20323e-17
6273.10618 1.19996e-17
6274.56866 1.20684e-17
6276.04116 1.21690e-17
6277.51366 1.22393e-17
6278.98616 1.22444e-17
6280.44864 1.20616e-17
6281.92114 1.19486e-17
6283.39364 1.18849e-17
6284.86614 1.19908e-17
6286.32862 1.22681e-17
6287.80112 1.22820e-17
6289.27362 1.22878e-17
6290.74612 1.22626e-17
6292.20860 1.22078e-17
6293.68110 1.21551e-17
6295.15360 1.21501e-17
6296.62610 1.23019e-17
6298.08858 1.24173e-17
6299.56108 1.23418e-17
6301.03358 1.22485e-17
6302.50608 1.23470e-17
6303.96856 1.24410e-17
6305.44106 1.22984e-17
6306.91356 1.21651e-17
6308.38606 1.22540e-17
6309.84854 1.22525e-17
6311.32104 1.22518e-17
6312.79354 1.21309e-17
6314.26604 1.20823e-17
6315.72852 1.21427e-17
6317.20102 1.20354e-17
6318.67352 1.19875e-17
6320.14601 1.20040e-17
6321.60850 1.20113e-17
6323.08100 1.19231e-17
6324.55349 1.17705e-17
6326.01598 1.18811e-17
6327.48848 1.20775e-17
6328.96097 1.21288e-17
6330.43347 1.19493e-17
6331.89595 1.17445e-17
6333.36845 1.17123e-17
6334.84095 1.17257e-17
6336.31345 1.17278e-17
6337.77593 1.17590e-17
6339.24843 1.18001e-17
6340.72093 1.16370e-17
6342.19343 1.15589e-17
6343.65591 1.15999e-17
6345.12841 1.16991e-17
6346.60091 1.17533e-17
6348.07341 1.16777e-17
6349.53589 1.17097e-17
6351.00839 1.17304e-17
6352.48089 1.18044e-17
6353.95339 1.20445e-17
6355.41587 1.20720e-17
6356.88837 1.19442e-17
6358.36087 1.19761e-17
6359.83337 1.21009e-17
6361.29585 1.20608e-17
6362.76835 1.20865e-17
6364.24085 1.22764e-17
6365.71335 1.23300e-17
6367.17583 1.23361e-17
6368.64833 1.24385e-17
6370.12083 1.24681e-17
6371.59333 1.24877e-17
6373.05581 1.25399e-17
6374.52831 1.26963e-17
6376.00081 1.29119e-17
6377.47330 1.28217e-17
6378.93579 1.28010e-17
6380.40829 1.28818e-17
6381.88079 1.27865e-17
6383.35328 1.29628e-17
6384.81577 1.31094e-17
6386.28827 1.30975e-17
6387.76076 1.32262e-17
6389.23326 1.31744e-17
6390.69575 1.30806e-17
6392.16824 1.32411e-17
6393.64074 1.33315e-17
6395.11324 1.32273e-17
6396.57572 1.31859e-17
6398.04822 1.32479e-17
6399.52072 1.32770e-17
6400.99322 1.32584e-17
6402.45570 1.33389e-17
6403.92820 1.33944e-17
6405.40070 1.33074e-17
6406.87320 1.32641e-17
6408.33568 1.33400e-17
6409.80818 1.33935e-17
6411.28068 1.33410e-17
6412.74316 1.33314e-17
6414.21566 1.34613e-17
6415.68816 1.34720e-17
6417.16066 1.34316e-17
6418.62314 1.35060e-17
6420.09564 1.35253e-17
6421.56814 1.35368e-17
6423.04064 1.35666e-17
6424.50312 1.36193e-17
6425.97562 1.37546e-17
6427.44812 1.38031e-17
6428.92062 1.38497e-17
6430.38310 1.37942e-17
6431.85560 1.36448e-17
6433.32810 1.36840e-17
6434.80060 1.37850e-17
6436.26308 1.38304e-17
6437.73558 1.37923e-17
6439.20808 1.38153e-17
6440.68058 1.38710e-17
6442.14306 1.37677e-17
6443.61556 1.36651e-17
6445.08806 1.36924e-17
6446.56055 1.36369e-17
6448.02304 1.36128e-17
6449.49554 1.37539e-17
6450.96803 1.37696e-17
6452.44053 1.36475e-17
6453.90301 1.36233e-17
6455.37551 1.37323e-17
6456.84801 1.36708e-17
6458.32051 1.35288e-17
6459.78299 1.35164e-17
6461.25549 1.36175e-17
6462.72799 1.37391e-17
6464.20049 1.35327e-17
6465.66297 1.33405e-17
6467.13547 1.34052e-17
6468.60797 1.34646e-17
6470.08047 1.34722e-17
6471.54295 1.33766e-17
6473.01545 1.32481e-17
6474.48795 1.31063e-17
6475.96045 1.30074e-17
6477.42293 1.30593e-17
6478.89543 1.32400e-17
6480.36793 1.33406e-17
6481.84043 1.32781e-17
6483.30291 1.31305e-17
6484.77541 1.31482e-17
6486.24791 1.31763e-17
6487.72041 1.31681e-17
6489.18289 1.33009e-17
6490.65539 1.32726e-17
6492.12789 1.31998e-17
6493.60039 1.31989e-17
6495.06287 1.32717e-17
6496.53537 1.33315e-17
6498.00787 1.33574e-17
6499.48037 1.34618e-17
6500.94285 1.34861e-17
6502.41535 1.34942e-17
6503.88785 1.34780e-17
6505.35033 1.33903e-17
6506.82283 1.33532e-17
6508.29533 1.34271e-17
6509.76782 1.35509e-17
6511.24032 1.35978e-17
6512.70280 1.34879e-17
6514.17530 1.32395e-17
6515.64780 1.31055e-17
6517.11029 1.30714e-17
6518.58278 1.31409e-17
6520.05528 1.33946e-17
6521.52778 1.35507e-17
6522.99026 1.35181e-17
6524.46276 1.35279e-17
6525.93526 1.36253e-17
6527.40776 1.36313e-17
6528.87024 1.35430e-17
6530.34274 1.34328e-17
6531.81524 1.34011e-17
6533.28774 1.34210e-17
6534.75022 1.34366e-17
6536.22272 1.34279e-17
6537.69522 1.33898e-17
6539.16772 1.34533e-17
6540.63020 1.34694e-17
6542.10270 1.33922e-17
6543.57520 1.32766e-17
6545.04770 1.32654e-17
6546.51018 1.32541e-17
6547.98268 1.32429e-17
6549.45518 1.32317e-17
6550.92768 1.32205e-17
6552.39016 1.32093e-17
6553.86266 1.31981e-17
6555.33516 1.31868e-17
6556.80766 1.31756e-17
6558.27014 1.31644e-17
6559.74264 1.31532e-17
6561.21514 1.31420e-17
6562.68764 1.31308e-17
6564.15012 1.31196e-17
6565.62262 1.31084e-17
6567.09512 1.30972e-17
6568.56761 1.30859e-17
6570.03010 1.30747e-17
6571.50260 1.30635e-17
6572.97509 1.30523e-17
6574.44759 1.30411e-17
6575.91007 1.30299e-17
6577.38257 1.30187e-17
6578.85507 1.30075e-17
6580.32757 1.29963e-17
6581.79005 1.29851e-17
6583.26255 1.29739e-17
6584.73505 1.29627e-17
6586.20755 1.29515e-17
6587.67003 1.29403e-17
6589.14253 1.29291e-17
6590.61503 1.29179e-17
6592.08753 1.29068e-17
6593.55001 1.28956e-17
6595.02251 1.28844e-17
6596.49501 1.28732e-17
6597.96751 1.28620e-17
6599.42999 1.28508e-17
6600.90249 1.28396e-17
6602.37499 1.28284e-17
6603.84749 1.28172e-17
6605.30997 1.28061e-17
6606.78247 1.27621e-17
6608.25497 1.28149e-17
6609.71745 1.28099e-17
6611.18995 1.28035e-17
6612.66245 1.28855e-17
6614.13495 1.29251e-17
6615.59743 1.27472e-17
6617.06993 1.25892e-17
6618.54243 1.27048e-17
6620.01493 1.28184e-17
6621.47741 1.28021e-17
6622.94991 1.27706e-17
6624.42241 1.27400e-17
6625.89491 1.27356e-17
6627.35739 1.27570e-17
6628.82989 1.28236e-17
6630.30238 1.28802e-17
6631.77488 1.28831e-17
6633.23737 1.28326e-17
6634.70986 1.27133e-17
6636.18236 1.25354e-17
6637.65486 1.24843e-17
6639.11735 1.25967e-17
6640.58984 1.26030e-17
6642.06234 1.24750e-17
6643.53484 1.24382e-17
6644.99732 1.25326e-17
6646.46982 1.25156e-17
6647.94232 1.24149e-17
6649.41482 1.24533e-17
6650.87730 1.24946e-17
6652.34980 1.24036e-17
6653.82230 1.23802e-17
6655.29480 1.23984e-17
6656.75728 1.23744e-17
6658.22978 1.23533e-17
6659.70228 1.22381e-17
6661.17478 1.21826e-17
6662.63726 1.21625e-17
6664.10976 1.21473e-17
6665.58226 1.22046e-17
6667.05476 1.21468e-17
6668.51724 1.21110e-17
6669.98974 1.21194e-17
6671.46224 1.20280e-17
6672.93474 1.20098e-17
6674.39722 1.20406e-17
6675.86972 1.20421e-17
6677.34222 1.20547e-17
6678.81472 1.20063e-17
6680.27720 1.18648e-17
6681.74970 1.18579e-17
6683.22220 1.19035e-17
6684.69470 1.18305e-17
6686.15718 1.17639e-17
6687.62968 1.16976e-17
6689.10217 1.17271e-17
6690.57467 1.17314e-17
6692.03716 1.15912e-17
6693.50965 1.14662e-17
6694.98215 1.14795e-17
6696.44464 1.15436e-17
6697.91714 1.14702e-17
6699.38963 1.14536e-17
6700.86213 1.14652e-17
6702.32462 1.13336e-17
6703.79711 1.13540e-17
6705.26961 1.14771e-17
6706.74211 1.14614e-17
6708.20459 1.13902e-17
6709.67709 1.13268e-17
6711.14959 1.12985e-17
6712.62209 1.13407e-17
6714.08457 1.13294e-17
6715.55707 1.12201e-17
6717.02957 1.11818e-17
6718.50207 1.12168e-17
6719.96455 1.12597e-17
6721.43705 1.12599e-17
6722.90955 1.11952e-17
6724.38205 1.13104e-17
6725.84453 1.15057e-17
6727.31703 1.15530e-17
6728.78953 1.16341e-17
6730.26203 1.15802e-17
6731.72451 1.13812e-17
6733.19701 1.13290e-17
6734.66951 1.13408e-17
6736.14201 1.12498e-17
6737.60449 1.12624e-17
6739.07699 1.14623e-17
6740.54949 1.15679e-17
6742.02199 1.16725e-17
6743.48447 1.17119e-17
6744.95697 1.14871e-17
6746.42947 1.13324e-17
6747.90197 1.13213e-17
6749.36445 1.12516e-17
6750.83695 1.12716e-17
6752.30945 1.13319e-17
6753.78194 1.13079e-17
6755.24443 1.13433e-17
6756.71693 1.14080e-17
6758.18942 1.13133e-17
6759.66192 1.12083e-17
6761.12440 1.11591e-17
6762.59690 1.12214e-17
6764.06940 1.12851e-17
6765.54190 1.12858e-17
6767.00438 1.12700e-17
6768.47688 1.11527e-17
6769.94938 1.11712e-17
6771.42188 1.13060e-17
6772.88436 1.13681e-17
6774.35686 1.13335e-17
6775.82936 1.13403e-17
6777.30186 1.12897e-17
6778.76434 1.12337e-17
6780.23684 1.12098e-17
6781.70934 1.12886e-17
6783.18184 1.14191e-17
6784.64432 1.13248e-17
6786.11682 1.11278e-17
6787.58932 1.11110e-17
6789.05180 1.11304e-17
6790.52430 1.11438e-17
6791.99680 1.11477e-17
6793.46930 1.10916e-17
6794.94180 1.11213e-17
6796.40428 1.12398e-17
6797.87678 1.11310e-17
6799.34928 1.09784e-17
6800.81176 1.10260e-17
6802.28426 1.10517e-17
6803.75676 1.10478e-17
6805.22926 1.11326e-17
6806.69174 1.10717e-17
6808.16424 1.09698e-17
6809.63674 1.09564e-17
6811.10924 1.09863e-17
6812.57172 1.10504e-17
6814.04422 1.10174e-17
6815.51671 1.10229e-17
6816.98921 1.09701e-17
6818.45170 1.08561e-17
6819.92420 1.08752e-17
6821.39669 1.09407e-17
6822.86919 1.09065e-17
6824.33168 1.08759e-17
6825.80417 1.08399e-17
6827.27667 1.08220e-17
6828.74917 1.08935e-17
6830.21165 1.08542e-17
6831.68415 1.08182e-17
6833.15665 1.07571e-17
6834.62915 1.06412e-17
6836.09163 1.05786e-17
6837.56413 1.06649e-17
6839.03663 1.07477e-17
6840.50913 1.07268e-17
6841.97161 1.06906e-17
6843.44411 1.06058e-17
6844.91661 1.05959e-17
6846.38911 1.05861e-17
6847.85159 1.05763e-17
6849.32409 1.05664e-17
6850.79659 1.05566e-17
6852.26909 1.05468e-17
6853.73157 1.05369e-17
6855.20407 1.05271e-17
6856.67657 1.05173e-17
6858.14907 1.05074e-17
6859.61155 1.04976e-17
6861.08405 1.04878e-17
6862.55655 1.04779e-17
6864.02905 1.04681e-17
6865.49153 1.04583e-17
6866.96403 1.04485e-17
6868.43653 1.04386e-17
6869.90902 1.04288e-17
6871.37151 1.04190e-17
6872.84401 1.04092e-17
6874.31650 1.03993e-17
6875.78900 1.03895e-17
6877.25149 1.03797e-17
6878.72399 1.03699e-17
6880.19648 1.03600e-17
6881.66898 1.03502e-17
6883.13147 1.03404e-17
6884.60396 1.03306e-17
6886.07646 1.03208e-17
6887.53895 1.03109e-17
6889.01144 1.03011e-17
6890.48394 1.02913e-17
6891.95644 1.02815e-17
6893.41892 1.02717e-17
6894.89142 1.02619e-17
6896.36392 1.02520e-17
6897.83642 1.02422e-17
6899.29890 1.02324e-17
6900.77140 1.02226e-17
6902.24390 1.02128e-17
6903.71640 1.02030e-17
6905.17888 1.01932e-17
6906.65138 1.01833e-17
6908.12388 1.01735e-17
6909.59638 1.01637e-17
6911.05886 1.01539e-17
6912.53136 1.01441e-17
6914.00386 1.01343e-17
6915.47636 1.01245e-17
6916.93884 1.01147e-17
6918.41134 1.01049e-17
6919.88384 1.00951e-17
6921.35634 1.00853e-17
6922.81882 1.00755e-17
6924.29132 1.00657e-17
6925.76382 1.00559e-17
6927.23632 1.00461e-17
6928.69880 1.00363e-17
6930.17130 1.00265e-17
6931.64380 1.00167e-17
6933.11630 1.00069e-17
6934.57878 9.99706e-18
6936.05128 9.98727e-18
6937.52378 9.94738e-18
6938.99627 9.91618e-18
6940.45876 1.00902e-17
6941.93125 1.01998e-17
6943.40375 1.01097e-17
6944.87625 9.94061e-18
6946.33874 9.87623e-18
6947.81123 9.97325e-18
6949.28373 9.89346e-18
6950.75623 9.77374e-18
6952.21871 9.75127e-18
6953.69121 9.81172e-18
6955.16371 9.79981e-18
6956.63621 9.65240e-18
6958.09869 9.67840e-18
6959.57119 9.69744e-18
6961.04369 9.76216e-18
6962.51619 9.73634e-18
6963.97867 9.49209e-18
6965.45117 9.52078e-18
6966.92367 9.68447e-18
6968.39617 9.62485e-18
6969.85865 9.63345e-18
6971.33115 9.71869e-18
6972.80365 9.76315e-18
6974.27615 9.76100e-18
6975.73863 9.73053e-18
6977.21113 9.73147e-18
6978.68363 9.74084e-18
6980.15613 9.68321e-18
6981.61861 9.57408e-18
6983.09111 9.56160e-18
6984.56361 9.62957e-18
6986.03611 9.69102e-18
6987.49859 9.72531e-18
6988.97109 9.62456e-18
6990.44359 9.70225e-18
6991.90607 9.75351e-18
6993.37857 9.68768e-18
6994.85107 9.81984e-18
6996.32356 9.86855e-18
6997.78605 9.74733e-18
6999.25855 9.76702e-18
7000.73105 9.92330e-18
7002.20354 1.00553e-17
7003.66603 9.94347e-18
7005.13853 9.99745e-18
7006.61102 1.00514e-17
7008.08352 1.01054e-17
7009.54601 1.01594e-17
7011.01850 1.02133e-17
7012.49100 1.02673e-17
7013.96350 1.02669e-17
7015.42598 1.03354e-17
7016.89848 1.04061e-17
7018.37098 1.03762e-17
7019.84348 1.01910e-17
7021.30596 1.02255e-17
7022.77846 1.03288e-17
7024.25096 1.03297e-17
7025.72346 1.03560e-17
7027.18594 1.04967e-17
7028.65844 1.05871e-17
7030.13094 1.04024e-17
7031.60344 1.03338e-17
7033.06592 1.03501e-17
7034.53842 1.02881e-17
7036.01092 1.04152e-17
7037.48342 1.04624e-17
7038.94590 1.03991e-17
7040.41840 1.04035e-17
7041.89090 1.03916e-17
7043.36340 1.04357e-17
7044.82588 1.04610e-17
7046.29838 1.03671e-17
7047.77088 1.02972e-17
7049.24338 1.02823e-17
7050.70586 1.03651e-17
7052.17836 1.04452e-17
7053.65086 1.04809e-17
7055.12335 1.03960e-17
7056.58584 1.02364e-17
7058.05834 1.02241e-17
7059.53084 1.03105e-17
7061.00333 1.02659e-17
7062.46582 1.02472e-17
7063.93832 1.01949e-17
7065.41081 1.00873e-17
7066.88331 1.01144e-17
7068.34580 1.01712e-17
7069.81829 1.01527e-17
7071.29079 1.01347e-17
7072.76329 1.02068e-17
7074.22577 1.01133e-17
7075.69827 1.01027e-17
7077.17077 1.01997e-17
7078.63325 1.02702e-17
7080.10575 1.02133e-17
7081.57825 1.01597e-17
7083.05075 1.00812e-17
7084.51323 1.01702e-17
7085.98573 1.02217e-17
7087.45823 1.01926e-17
7088.93073 1.01463e-17
7090.39321 1.00853e-17
7091.86571 1.00648e-17
7093.33821 1.01093e-17
7094.81071 1.00394e-17
7096.27319 9.99289e-18
7097.74569 1.00428e-17
7099.21819 1.00489e-17
7100.69069 1.00707e-17
7102.15317 1.00396e-17
7103.62567 9.98325e-18
7105.09817 1.00542e-17
7106.57067 1.01110e-17
7108.03315 1.00681e-17
7109.50565 1.00781e-17
7110.97815 1.00942e-17
7112.45065 1.00729e-17
7113.91313 1.00793e-17
7115.38563 9.99962e-18
7116.85813 1.00471e-17
7118.33063 1.01281e-17
7119.79311 1.00656e-17
7121.26561 9.90666e-18
7122.73810 1.00483e-17
7124.21060 1.01519e-17
7125.67309 1.00705e-17
7127.14559 1.00540e-17
7128.61808 1.00350e-17
7130.09058 1.00104e-17
7131.55307 1.00473e-17
7133.02556 1.01454e-17
7134.49806 1.01534e-17
7135.97056 1.01720e-17
7137.43304 1.02714e-17
7138.90554 1.01493e-17
7140.37804 1.01690e-17
7141.85054 1.03307e-17
7143.31302 1.03635e-17
7144.78552 1.02924e-17
7146.25802 1.02137e-17
7147.73052 1.02649e-17
7149.19300 1.02578e-17
7150.66550 1.02010e-17
7152.13800 1.02140e-17
7153.61050 1.00653e-17
7155.07298 1.00402e-17
7156.54548 1.00796e-17
7158.01798 1.01179e-17
7159.49048 1.03040e-17
7160.95296 1.03623e-17
7162.42546 1.02834e-17
7163.89796 1.03251e-17
7165.37046 1.04240e-17
7166.83294 1.04509e-17
7168.30544 1.03946e-17
7169.77794 1.04108e-17
7171.25044 1.04874e-17
7172.71292 1.05320e-17
7174.18542 1.04386e-17
7175.65792 1.03539e-17
7177.12040 1.04357e-17
7178.59290 1.03839e-17
7180.06540 1.02497e-17
7181.53790 1.03303e-17
7183.00038 1.04131e-17
7184.47288 1.04768e-17
7185.94538 1.07070e-17
7187.41787 1.07345e-17
7188.88036 1.03787e-17
7190.35286 1.01955e-17
7191.82535 1.03890e-17
7193.29785 1.05685e-17
7194.76034 1.04081e-17
7196.23283 1.02992e-17
7197.70533 1.04923e-17
7199.17783 1.05939e-17
7200.64031 1.05384e-17
7202.11281 1.05245e-17
7203.58531 1.03924e-17
7205.05781 1.04394e-17
7206.52029 1.04846e-17
7207.99279 1.03403e-17
7209.46529 1.03409e-17
7210.93779 1.02893e-17
7212.40027 1.03782e-17
7213.87277 1.04663e-17
7215.34527 1.04902e-17
7216.81777 1.05799e-17
7218.28025 1.05507e-17
7219.75275 1.04769e-17
7221.22525 1.04747e-17
7222.69775 1.06505e-17
7224.16023 1.07790e-17
7225.63273 1.06347e-17
7227.10523 1.07071e-17
7228.57773 1.08575e-17
7230.04021 1.07734e-17
7231.51271 1.08386e-17
7232.98521 1.09170e-17
7234.45771 1.09046e-17
7235.92019 1.10749e-17
7237.39269 1.09599e-17
7238.86519 1.09803e-17
7240.33769 1.12842e-17
7241.80017 1.11486e-17
7243.27267 1.10707e-17
7244.74517 1.12789e-17
7246.21766 1.11279e-17
7247.68015 1.08900e-17
7249.15265 1.10233e-17
7250.62514 1.12302e-17
7252.09764 1.13802e-17
7253.56012 1.13547e-17
7255.03262 1.08258e-17
7256.50512 1.06103e-17
7257.97762 1.10123e-17
7259.44010 1.11370e-17
7260.91260 1.11825e-17
7262.38510 1.11844e-17
7263.84758 1.10289e-17
7265.32008 1.12187e-17
7266.79258 1.12250e-17
7268.26508 1.09318e-17
7269.73758 1.09717e-17
7271.20006 1.10160e-17
7272.67256 1.10978e-17
7274.14506 1.13068e-17
7275.60754 1.13566e-17
7277.08004 1.15980e-17
7278.55254 1.13900e-17
7280.02504 1.09210e-17
7281.48752 1.08498e-17
7282.96002 1.10700e-17
7284.43252 1.10400e-17
7285.90502 1.09755e-17
7287.36750 1.12147e-17
7288.84000 1.11956e-17
7290.31250 1.11776e-17
7291.78500 1.12514e-17
7293.24748 1.08481e-17
7294.71998 1.07450e-17
7296.19248 1.06838e-17
7297.66498 1.06273e-17
7299.12746 1.07885e-17
7300.59996 1.10051e-17
7302.07246 1.08936e-17
7303.54496 1.09058e-17
7305.00744 1.09143e-17
7306.47994 1.05943e-17
7307.95244 1.04354e-17
7309.42493 1.06156e-17
7310.88742 1.07512e-17
7312.35992 1.06270e-17
7313.83241 1.04887e-17
7315.30491 1.04146e-17
7316.76740 1.06056e-17
7318.23989 1.06826e-17
7319.71239 1.05559e-17
7321.18489 1.03973e-17
7322.64737 1.03525e-17
7324.11987 1.04701e-17
7325.59237 1.04720e-17
7327.06487 1.03043e-17
7328.52735 1.02596e-17
7329.99985 1.01068e-17
7331.47235 1.02310e-17
7332.94485 1.03096e-17
7334.40733 1.01760e-17
7335.87983 1.01860e-17
7337.35233 1.00737e-17
7338.82483 1.00358e-17
7340.28731 1.00315e-17
7341.75981 9.97616e-18
7343.23231 1.01204e-17
7344.70481 1.01876e-17
7346.16729 1.01874e-17
7347.63979 1.02255e-17
7349.11229 1.03582e-17
7350.57477 1.03606e-17
7352.04727 1.01829e-17
7353.51977 1.02430e-17
7354.99227 1.04224e-17
7356.46477 1.04651e-17
7357.92725 1.04839e-17
7359.39975 1.03918e-17
7360.87225 1.03567e-17
7362.34475 1.03788e-17
7363.80723 1.04039e-17
7365.27973 1.03475e-17
7366.75223 1.02888e-17
7368.21471 1.01867e-17
7369.68721 1.02265e-17
7371.15971 1.03547e-17
7372.63220 1.02035e-17
7374.09469 1.02454e-17
7375.56719 1.03266e-17
7377.03968 1.04740e-17
7378.51218 1.03860e-17
7379.97466 1.02830e-17
7381.44716 1.03588e-17
7382.91966 1.05940e-17
7384.39216 1.05372e-17
7385.85464 1.04332e-17
7387.32714 1.04538e-17
7388.79964 1.04378e-17
7390.27214 1.04700e-17
7391.73462 1.05255e-17
7393.20712 1.05485e-17
7394.67962 1.06079e-17
7396.15212 1.05570e-17
7397.61460 1.05370e-17
7399.08710 1.05261e-17
7400.55960 1.05387e-17
7402.03210 1.04647e-17
7403.49458 1.05093e-17
7404.96708 1.04717e-17
7406.43958 1.05356e-17
7407.91208 1.04830e-17
7409.37456 1.03227e-17
7410.84706 1.01398e-17
7412.31956 1.02723e-17
7412.33959 1.02723e-17
7413.20105 1.02756e-17
7414.06252 1.02791e-17
7414.92398 1.02858e-17
7415.78544 1.02925e-17
7416.64690 1.02996e-17
7417.50836 1.03068e-17
7418.36983 1.03118e-17
7419.23129 1.03170e-17
7420.09275 1.03179e-17
7420.95421 1.03189e-17
7421.82569 1.03169e-17
7422.68715 1.03148e-17
7423.54861 1.03148e-17
7424.41008 1.03148e-17
7425.27154 1.03199e-17
7426.13300 1.03250e-17
7426.99446 1.03340e-17
7427.85592 1.03430e-17
7428.71739 1.03536e-17
7429.57885 1.03643e-17
7430.44031 1.03714e-17
7431.31179 1.03785e-17
7432.17325 1.03781e-17
7433.03471 1.03777e-17
7433.89618 1.03739e-17
7434.75764 1.03701e-17
7435.61910 1.03672e-17
7436.48056 1.03644e-17
7437.34202 1.03636e-17
7438.20349 1.03628e-17
7439.06495 1.03644e-17
7439.92641 1.03660e-17
7440.79789 1.03698e-17
7441.65935 1.03737e-17
7442.52081 1.03786e-17
7443.38227 1.03836e-17
7444.24374 1.03896e-17
7445.10520 1.03955e-17
7445.96666 1.04029e-17
7446.82812 1.04104e-17
7447.68959 1.04150e-17
7448.55105 1.04195e-17
7449.41251 1.04139e-17
7450.28399 1.04083e-17
7451.14545 1.03943e-17
7452.00691 1.03803e-17
7452.86837 1.03674e-17
7453.72984 1.03544e-17
7454.59130 1.03458e-17
7455.45276 1.03374e-17
7456.31422 1.03294e-17
7457.17568 1.03215e-17
7458.03715 1.03123e-17
7458.89861 1.03031e-17
7459.77009 1.02926e-17
7460.63155 1.02820e-17
7461.49301 1.02722e-17
7462.35447 1.02624e-17
7463.21594 1.02627e-17
7464.07740 1.02630e-17
7464.93886 1.02788e-17
7465.80032 1.02947e-17
7466.66178 1.03183e-17
7467.52325 1.03419e-17
7468.38471 1.03646e-17
7469.25619 1.03872e-17
7470.11765 1.04004e-17
7470.97911 1.04136e-17
7471.84057 1.04104e-17
7472.70203 1.04070e-17
7473.56350 1.03955e-17
7474.42496 1.03842e-17
7475.28642 1.03763e-17
7476.14788 1.03685e-17
7477.00934 1.03647e-17
7477.87081 1.03611e-17
7478.73227 1.03585e-17
7479.60375 1.03560e-17
7480.46521 1.03521e-17
7481.32667 1.03482e-17
7482.18813 1.03397e-17
7483.04960 1.03314e-17
7483.91106 1.03197e-17
7484.77252 1.03080e-17
7485.63398 1.02977e-17
7486.49544 1.02873e-17
7487.35690 1.02789e-17
7488.21837 1.02705e-17
7489.08985 1.02608e-17
7489.95131 1.02512e-17
7490.81277 1.02392e-17
7491.67423 1.02272e-17
7492.53569 1.02144e-17
7493.39716 1.02016e-17
7494.25862 1.01891e-17
7495.12008 1.01766e-17
7495.98154 1.01648e-17
7496.84300 1.01529e-17
7497.70447 1.01414e-17
7498.57595 1.01300e-17
7499.43741 1.01171e-17
7500.29887 1.01041e-17
7501.16033 1.00882e-17
7502.02179 1.00723e-17
7502.88325 1.00552e-17
7503.74472 1.00381e-17
7504.60618 1.00214e-17
7505.46764 1.00047e-17
7506.32910 9.98408e-18
7507.19056 9.96333e-18
7508.06204 9.93421e-18
7508.92351 9.90509e-18
7509.78497 9.86823e-18
7510.64643 9.83130e-18
7511.50789 9.78843e-18
7512.36935 9.74564e-18
7513.23082 9.70529e-18
7514.09228 9.66494e-18
7514.95374 9.63818e-18
7515.81520 9.61149e-18
7516.67666 9.59441e-18
7517.54814 9.57733e-18
7518.40960 9.55707e-18
7519.27107 9.53673e-18
7520.13253 9.50810e-18
7520.99399 9.47946e-18
7521.85545 9.44351e-18
7522.71691 9.40763e-18
7523.57838 9.36720e-18
7524.43984 9.32677e-18
7525.30130 9.28780e-18
7526.16276 9.24876e-18
7527.02423 9.21353e-18
7527.89570 9.17822e-18
7528.75717 9.14186e-18
7529.61863 9.10550e-18
7530.48009 9.06474e-18
7531.34155 9.02399e-18
7532.20301 8.97981e-18
7533.06448 8.93572e-18
7533.92594 8.88862e-18
7534.78740 8.84152e-18
7535.64886 8.78815e-18
7536.52034 8.73479e-18
7537.38180 8.67353e-18
7538.24327 8.61227e-18
7539.10473 8.55037e-18
7539.96619 8.48846e-18
7540.82765 8.43338e-18
7541.68911 8.37831e-18
7542.55058 8.33064e-18
7543.41204 8.28297e-18
7544.27350 8.24148e-18
7545.13496 8.19999e-18
7545.99642 8.15826e-18
7546.86790 8.11649e-18
7547.72936 8.06639e-18
7548.59083 8.01628e-18
7549.45229 7.95780e-18
7550.31375 7.89930e-18
7551.17521 7.83646e-18
7552.03667 7.77361e-18
7552.89814 7.71083e-18
7553.75960 7.64805e-18
7554.62106 7.59015e-18
7555.48252 7.53227e-18
7556.35400 7.48033e-18
7557.21546 7.42840e-18
7558.07693 7.37922e-18
7558.93839 7.33005e-18
7559.79985 7.28092e-18
7560.66131 7.23180e-18
7561.52277 7.18136e-18
7562.38424 7.13092e-18
7563.24570 7.07696e-18
7564.10716 7.02300e-18
7564.96862 6.96067e-18
7565.84010 6.89834e-18
7566.70156 6.82760e-18
7567.56302 6.75686e-18
7568.42449 6.69128e-18
7569.28595 6.62572e-18
7570.14741 6.57660e-18
7571.00887 6.52751e-18
7571.87033 6.49650e-18
7572.73180 6.46552e-18
7573.59326 6.45079e-18
7574.45472 6.43610e-18
7575.31618 6.41712e-18
7576.18766 6.39814e-18
7577.04912 6.35238e-18
7577.91059 6.30658e-18
7578.77205 6.24637e-18
7579.63351 6.18613e-18
7580.49497 6.13117e-18
7581.35643 6.07623e-18
7582.21790 6.02340e-18
7583.07936 5.97059e-18
7583.94082 5.91072e-18
7584.81230 5.85083e-18
7585.67376 5.75075e-18
7586.53522 5.65057e-18
7587.39668 5.46423e-18
7588.25815 5.27772e-18
7589.11961 5.01423e-18
7589.98107 4.75059e-18
7590.84253 4.46488e-18
7591.70399 4.17914e-18
7592.56546 3.92352e-18
7593.42692 3.66797e-18
7594.28838 3.49144e-18
7595.15986 3.31507e-18
7596.02132 3.24209e-18
7596.88278 3.16930e-18
7597.74425 3.17620e-18
7598.60571 3.18326e-18
7599.46717 3.25295e-18
7600.32863 3.32275e-18
7601.19009 3.46818e-18
7602.05156 3.61373e-18
7602.91302 3.83524e-18
7603.77448 4.05688e-18
7604.64596 4.32583e-18
7605.50742 4.59487e-18
7606.36888 4.87707e-18
7607.23034 5.15928e-18
7608.09181 5.41996e-18
7608.95327 5.68058e-18
7609.81473 5.88500e-18
7610.67619 6.08929e-18
7611.53765 6.18883e-18
7612.39912 6.28815e-18
7613.26058 6.24370e-18
7614.13206 6.19898e-18
7614.99352 6.01270e-18
7615.85498 5.82614e-18
7616.71644 5.52000e-18
7617.57791 5.21363e-18
7618.43937 4.87904e-18
7619.30083 4.54442e-18
7620.16229 4.30456e-18
7621.02375 4.06490e-18
7621.88522 3.96638e-18
7622.74668 3.86815e-18
7623.61816 3.90119e-18
7624.47962 3.93450e-18
7625.34108 4.05681e-18
7626.20254 4.17930e-18
7627.06400 4.31316e-18
7627.92547 4.44703e-18
7628.78693 4.54924e-18
7629.64839 4.65138e-18
7630.50985 4.73826e-18
7631.37131 4.82510e-18
7632.23278 4.90726e-18
7633.10426 4.98939e-18
7633.96572 5.06640e-18
7634.82718 5.14340e-18
7635.68864 5.21526e-18
7636.55010 5.28712e-18
7637.41157 5.33970e-18
7638.27303 5.39223e-18
7639.13449 5.41836e-18
7639.99595 5.44444e-18
7640.85741 5.46898e-18
7641.71888 5.49350e-18
7642.59035 5.54107e-18
7643.45182 5.58867e-18
7644.31328 5.66977e-18
7645.17474 5.75094e-18
7646.03620 5.87005e-18
7646.89766 5.98923e-18
7647.75913 6.11422e-18
7648.62059 6.23921e-18
7649.48205 6.32953e-18
7650.34351 6.41978e-18
7651.20497 6.46682e-18
7652.06644 6.51377e-18
7652.93792 6.52202e-18
7653.79938 6.53019e-18
7654.66084 6.53073e-18
7655.52230 6.53127e-18
7656.38376 6.57212e-18
7657.24523 6.61306e-18
7658.10669 6.70197e-18
7658.96815 6.79099e-18
7659.82961 6.90161e-18
7660.69107 7.01227e-18
7661.55254 7.12219e-18
7662.42401 7.23211e-18
7663.28548 7.32104e-18
7664.14694 7.40992e-18
7665.00840 7.47663e-18
7665.86986 7.54329e-18
7666.73132 7.62630e-18
7667.59279 7.70935e-18
7668.45425 7.82654e-18
7669.31571 7.94379e-18
7670.17717 8.05864e-18
7671.03863 8.17347e-18
7671.91011 8.25653e-18
7672.77158 8.33951e-18
7673.63304 8.38539e-18
7674.49450 8.43111e-18
7675.35596 8.44185e-18
7676.21742 8.45250e-18
7677.07889 8.47154e-18
7677.94035 8.49049e-18
7678.80181 8.56119e-18
7679.66327 8.63204e-18
7680.52473 8.72885e-18
7681.38620 8.82565e-18
7682.25767 8.90806e-18
7683.11914 8.99055e-18
7683.98060 9.05848e-18
7684.84206 9.12640e-18
7685.70352 9.19124e-18
7686.56498 9.25608e-18
7687.42645 9.32051e-18
7688.28791 9.38485e-18
7689.14937 9.44977e-18
7690.01083 9.51469e-18
7690.88231 9.57391e-18
7691.74377 9.63313e-18
7692.60524 9.67413e-18
7693.46670 9.71522e-18
7694.32816 9.74108e-18
7695.18962 9.76695e-18
7696.05108 9.79681e-18
7696.91255 9.82667e-18
7697.77401 9.86775e-18
7698.63547 9.90875e-18
7699.49693 9.95129e-18
7700.35839 9.99376e-18
7701.22987 1.00296e-17
7702.09133 1.00655e-17
7702.95280 1.00899e-17
7703.81426 1.01142e-17
7704.67572 1.01237e-17
7705.53718 1.01330e-17
7706.39864 1.01283e-17
7707.26011 1.01235e-17
7708.12157 1.01088e-17
7708.98303 1.00941e-17
7709.84449 1.00864e-17
7710.71597 1.00788e-17
7711.57743 1.00936e-17
7712.43890 1.01084e-17
7713.30036 1.01418e-17
7714.16182 1.01753e-17
7715.02328 1.02192e-17
7715.88474 1.02630e-17
7716.74620 1.03038e-17
7717.60767 1.03446e-17
7718.46913 1.03677e-17
7719.33059 1.03909e-17
7720.20207 1.03954e-17
7721.06353 1.03999e-17
7721.92499 1.03910e-17
7722.78646 1.03821e-17
7723.64792 1.03690e-17
7724.50938 1.03559e-17
7725.37084 1.03508e-17
7726.23230 1.03456e-17
7727.09377 1.03523e-17
7727.95523 1.03592e-17
7728.81669 1.03738e-17
7729.67815 1.03885e-17
7730.54963 1.04103e-17
7731.41109 1.04321e-17
7732.27255 1.04654e-17
7733.13402 1.04987e-17
7733.99548 1.05383e-17
7734.85694 1.05779e-17
7735.71840 1.06023e-17
7736.57986 1.06267e-17
7737.44133 1.06239e-17
7738.30279 1.06210e-17
7739.17427 1.05997e-17
7740.03573 1.05783e-17
7740.89719 1.05497e-17
7741.75865 1.05211e-17
7742.62012 1.05024e-17
7743.48158 1.04837e-17
7744.34304 1.04887e-17
7745.20450 1.04937e-17
7746.06596 1.05129e-17
7746.92743 1.05322e-17
7747.78889 1.05529e-17
7748.65035 1.05735e-17
7749.52183 1.05910e-17
7750.38329 1.06084e-17
7751.24475 1.06193e-17
7752.10621 1.06302e-17
7752.96768 1.06346e-17
7753.82914 1.06389e-17
7754.69060 1.06392e-17
7755.55206 1.06394e-17
7756.41352 1.06325e-17
7757.27499 1.06256e-17
7758.13645 1.06059e-17
7759.00793 1.05863e-17
7759.86939 1.05595e-17
7760.73085 1.05327e-17
7761.59231 1.05123e-17
7762.45378 1.04919e-17
7763.31524 1.04810e-17
7764.17670 1.04701e-17
7765.03816 1.04618e-17
7765.89962 1.04535e-17
7766.76109 1.04423e-17
7767.62255 1.04311e-17
7768.49403 1.04129e-17
7769.35549 1.03946e-17
7770.21695 1.03690e-17
7771.07841 1.03434e-17
7771.93988 1.03192e-17
7772.80134 1.02950e-17
7773.66280 1.02786e-17
7774.52426 1.02621e-17
7775.38572 1.02501e-17
7776.24719 1.02381e-17
7777.10865 1.02279e-17
7777.98013 1.02177e-17
7778.84159 1.02108e-17
7779.70305 1.02039e-17
7780.56451 1.02017e-17
7781.42597 1.01995e-17
7782.28744 1.02016e-17
7783.14890 1.02037e-17
7784.01036 1.02093e-17
7784.87182 1.02148e-17
7785.73328 1.02230e-17
7786.59475 1.02312e-17
7787.46623 1.02411e-17
7788.32769 1.02511e-17
7789.18915 1.02600e-17
7790.05061 1.02688e-17
7790.91207 1.02733e-17
7791.77354 1.02777e-17
7792.63500 1.02760e-17
7793.49646 1.02744e-17
7794.35792 1.02662e-17
7795.21938 1.02579e-17
7796.08085 1.02469e-17
7796.94231 1.02359e-17
7797.81379 1.02292e-17
7798.67525 1.02225e-17
7799.53671 1.02254e-17
7800.39817 1.02283e-17
7801.25963 1.02442e-17
7802.12110 1.02603e-17
7802.98256 1.02866e-17
7803.84402 1.03131e-17
7804.70548 1.03365e-17
7805.56694 1.03600e-17
7806.42841 1.03709e-17
7807.29989 1.03818e-17
7808.16135 1.03812e-17
7809.02281 1.03807e-17
7809.88427 1.03705e-17
7810.74573 1.03602e-17
7811.60720 1.03425e-17
7812.46866 1.03247e-17
7813.33012 1.03026e-17
7814.19158 1.02804e-17
7815.05304 1.02580e-17
7815.91450 1.02355e-17
7816.78598 1.02165e-17
7817.64745 1.01975e-17
7818.50891 1.01864e-17
7819.37037 1.01753e-17
7820.23183 1.01758e-17
7821.09329 1.01764e-17
7821.95476 1.01802e-17
7822.81622 1.01841e-17
7823.67768 1.01789e-17
7824.53914 1.01737e-17
7825.40060 1.01579e-17
7826.27208 1.01421e-17
7827.13355 1.01194e-17
7827.99501 1.00969e-17
7828.85647 1.00706e-17
7829.71793 1.00444e-17
7830.57939 1.00178e-17
7831.44085 9.99107e-18
7832.30232 9.96602e-18
7833.16378 9.94096e-18
7834.02524 9.91753e-18
7834.88670 9.89410e-18
7835.75818 9.87450e-18
7836.61964 9.85489e-18
7837.48111 9.84521e-18
7838.34257 9.83553e-18
7839.20403 9.83740e-18
7840.06549 9.83919e-18
7840.92695 9.84570e-18
7841.78842 9.85221e-18
7842.64988 9.85742e-18
7843.51134 9.86262e-18
7844.37280 9.86376e-18
7845.23426 9.86498e-18
7846.10574 9.86051e-18
7846.96720 9.85611e-18
7847.82867 9.84830e-18
7848.69013 9.84049e-18
7849.55159 9.83212e-18
7850.41305 9.82374e-18
7851.27452 9.81658e-18
7852.13598 9.80934e-18
7852.99744 9.80454e-18
7853.85890 9.79974e-18
7854.72036 9.79827e-18
7855.59184 9.79681e-18
7856.45330 9.79917e-18
7857.31477 9.80161e-18
7858.17623 9.80413e-18
7859.03769 9.80665e-18
7859.89915 9.80340e-18
7860.76061 9.80014e-18
7861.62208 9.79152e-18
7862.48354 9.78290e-18
7863.34500 9.77371e-18
7864.20646 9.76451e-18
7865.07794 9.75223e-18
7865.93940 9.74003e-18
7866.80087 9.71660e-18
7867.66233 9.69325e-18
7868.52379 9.65786e-18
7869.38525 9.62256e-18
7870.24671 9.58196e-18
7871.10818 9.54129e-18
7871.96964 9.50484e-18
7872.83110 9.46832e-18
7873.69256 9.45124e-18
7874.56404 9.43431e-18
7875.42550 9.44269e-18
7876.28696 9.45115e-18
7877.14843 9.46775e-18
7878.00989 9.48434e-18
7878.87135 9.49321e-18
7879.73281 9.50216e-18
7880.59427 9.49850e-18
7881.45574 9.49484e-18
7882.31720 9.47605e-18
7883.17866 9.45717e-18
7884.05014 9.42984e-18
7884.91160 9.40251e-18
7885.77306 9.37493e-18
7886.63453 9.34743e-18
7887.49599 9.31904e-18
7888.35745 9.29057e-18
7889.21891 9.25933e-18
7890.08037 9.22809e-18
7890.94184 9.19571e-18
7891.80330 9.16342e-18
7892.66476 9.13194e-18
7893.52622 9.10054e-18
7894.39770 9.07816e-18
7895.25916 9.05579e-18
7896.12062 9.05384e-18
7896.98209 9.05181e-18
7897.84355 9.06377e-18
7898.70501 9.07564e-18
7899.56647 9.08264e-18
7900.42793 9.08963e-18
7901.28940 9.08345e-18
7902.15086 9.07727e-18
7903.01232 9.05994e-18
7903.88380 9.04253e-18
7904.74526 9.01935e-18
7905.60672 8.99624e-18
7906.46819 8.97932e-18
7907.32965 8.96248e-18
7908.19111 8.95663e-18
7909.05257 8.95077e-18
7909.91403 8.94239e-18
7910.77550 8.93401e-18
7911.63696 8.91506e-18
7912.49842 8.89610e-18
7913.36990 8.87625e-18
7914.23136 8.85632e-18
7915.09282 8.84363e-18
7915.95428 8.83094e-18
7916.81575 8.82598e-18
7917.67721 8.82102e-18
7918.53867 8.82273e-18
7919.40013 8.82443e-18
7920.26159 8.82085e-18
7921.12306 8.81736e-18
7921.98452 8.79653e-18
7922.85600 8.77562e-18
7923.71746 8.74487e-18
7924.57892 8.71412e-18
7925.44038 8.68638e-18
7926.30185 8.65856e-18
7927.16331 8.64132e-18
7928.02477 8.62407e-18
7928.88623 8.62236e-18
7929.74769 8.62073e-18
7930.60916 8.63147e-18
7931.47062 8.64221e-18
7932.34210 8.65653e-18
7933.20356 8.67093e-18
7934.06502 8.68126e-18
7934.92648 8.69159e-18
7935.78794 8.69159e-18
7936.64941 8.69167e-18
7937.51087 8.67817e-18
7938.37233 8.66458e-18
7939.23379 8.63822e-18
7940.09525 8.61179e-18
7940.95672 8.57640e-18
7941.81818 8.54101e-18
7942.68966 8.50546e-18
7943.55112 8.46991e-18
7944.41258 8.44111e-18
7945.27404 8.41232e-18
7946.13551 8.39149e-18
7946.99697 8.37066e-18
7947.85843 8.35773e-18
7948.71989 8.34471e-18
7949.58135 8.33723e-18
7950.44282 8.32974e-18
7951.30428 8.32438e-18
7952.17576 8.31901e-18
7953.03722 8.30859e-18
7953.89868 8.29818e-18
7954.76014 8.27654e-18
7955.62160 8.25490e-18
7956.48307 8.23107e-18
7957.34453 8.20715e-18
7958.20599 8.19283e-18
7959.06745 8.17860e-18
7959.92891 8.17469e-18
7960.79038 8.17079e-18
7961.66186 8.17477e-18
7962.52332 8.17868e-18
7963.38478 8.18429e-18
7964.24624 8.18990e-18
7965.10770 8.18820e-18
7965.96917 8.18641e-18
7966.83063 8.18250e-18
7967.69209 8.17852e-18
7968.55355 8.18722e-18
7969.41501 8.19601e-18
7970.27648 8.22082e-18
7971.14795 8.24571e-18
7972.00942 8.27915e-18
7972.87088 8.31258e-18
7973.73234 8.34455e-18
7974.59380 8.37660e-18
7975.45526 8.39255e-18
7976.31673 8.40849e-18
7977.17819 8.40215e-18
7978.03965 8.39580e-18
7978.90111 8.37912e-18
7979.76257 8.36245e-18
7980.63405 8.34585e-18
7981.49552 8.32934e-18
7982.35698 8.31543e-18
7983.21844 8.30152e-18
7984.07990 8.29192e-18
7984.94136 8.28232e-18
7985.80283 8.27353e-18
7986.66429 8.26483e-18
7987.52575 8.25319e-18
7988.38721 8.24148e-18
7989.24867 8.22846e-18
7990.11014 8.21545e-18
7990.98161 8.20300e-18
7991.84308 8.19056e-18
7992.70454 8.18250e-18
7993.56600 8.17445e-18
7994.42746 8.17518e-18
7995.28892 8.17599e-18
7996.15039 8.17681e-18
7997.01185 8.17762e-18
7997.87331 8.16460e-18
7998.73477 8.15159e-18
7999.59623 8.12643e-18
8000.46771 8.10127e-18
8001.32917 8.07449e-18
8002.19064 8.04770e-18
8003.05210 8.02723e-18
8003.91356 8.00678e-18
8004.77502 7.99940e-18
8005.63649 7.99206e-18
8006.49795 7.99604e-18
8007.35941 8.00004e-18
8008.22087 8.00152e-18
8009.08233 8.00299e-18
8009.95381 7.99745e-18
8010.81527 7.99189e-18
8011.67674 7.99257e-18
8012.53820 7.99327e-18
8013.39966 8.00662e-18
8014.26112 8.02000e-18
8015.12258 8.03670e-18
8015.98405 8.05340e-18
8016.84551 8.06454e-18
8017.70697 8.07567e-18
8018.56843 8.07222e-18
8019.43991 8.06875e-18
8020.30137 8.04516e-18
8021.16284 8.02153e-18
8022.02430 7.99276e-18
8022.88576 7.96397e-18
8023.74722 7.94653e-18
8024.60868 7.92912e-18
8025.47015 7.92252e-18
8026.33161 7.91596e-18
8027.19307 7.91581e-18
8028.05453 7.91567e-18
8028.92601 7.91654e-18
8029.78747 7.91740e-18
8030.64893 7.91296e-18
8031.51040 7.90852e-18
8032.37186 7.89941e-18
8033.23332 7.89030e-18
8034.09478 7.88093e-18
8034.95624 7.87157e-18
8035.81771 7.86476e-18
8036.67917 7.85796e-18
8037.54063 7.85540e-18
8038.41211 7.85286e-18
8039.27357 7.85517e-18
8040.13503 7.85749e-18
8040.99650 7.86394e-18
8041.85796 7.87038e-18
8042.71942 7.87880e-18
8043.58088 7.88722e-18
8044.44234 7.89384e-18
8045.30380 7.90045e-18
8046.16527 7.90241e-18
8047.02673 7.90436e-18
8047.88819 7.90033e-18
8048.75967 7.89629e-18
8049.62113 7.88697e-18
8050.48259 7.87765e-18
8051.34406 7.86994e-18
8052.20552 7.86223e-18
8053.06698 7.86126e-18
8053.92844 7.86031e-18
8054.78990 7.86217e-18
8055.65137 7.86404e-18
8056.51283 7.86383e-18
8057.37429 7.86361e-18
8058.24577 7.85545e-18
8059.10723 7.84727e-18
8059.96869 7.82616e-18
8060.83015 7.80504e-18
8061.69162 7.77506e-18
8062.55308 7.74506e-18
8063.41454 7.71311e-18
8064.27600 7.68117e-18
8065.13746 7.65511e-18
8065.99893 7.62906e-18
8066.86039 7.61657e-18
8067.73187 7.60412e-18
8068.59333 7.60565e-18
8069.45479 7.60720e-18
8070.31625 7.61862e-18
8071.17772 7.63007e-18
8072.03918 7.64320e-18
8072.90064 7.65633e-18
8073.76210 7.65947e-18
8074.62356 7.66258e-18
8075.48503 7.65141e-18
8076.34649 7.64021e-18
8077.21797 7.62031e-18
8078.07943 7.60039e-18
8078.94089 7.57526e-18
8079.80235 7.55010e-18
8080.66381 7.51907e-18
8081.52528 7.48802e-18
8082.38674 7.45157e-18
8083.24820 7.41510e-18
8084.10966 7.37478e-18
8084.97113 7.33444e-18
8085.83259 7.29206e-18
8086.70407 7.24966e-18
8087.56553 7.20790e-18
8088.42699 7.16614e-18
8089.28845 7.12752e-18
8090.14991 7.08891e-18
8091.01138 7.05572e-18
8091.87284 7.02255e-18
8092.73430 6.99600e-18
8093.59576 6.96946e-18
8094.45722 6.94903e-18
8095.31869 6.92863e-18
8096.18015 6.91269e-18
8097.05163 6.89678e-18
8097.91309 6.87646e-18
8098.77455 6.85614e-18
8099.63601 6.82092e-18
8100.49748 6.78567e-18
8101.35894 6.73222e-18
8102.22040 6.67872e-18
8103.08186 6.60773e-18
8103.94332 6.53669e-18
8104.80479 6.45674e-18
8105.67626 6.37677e-18
8106.53773 6.30181e-18
8107.39919 6.22687e-18
8108.26065 6.16561e-18
8109.12211 6.10438e-18
8109.98357 6.05976e-18
8110.84504 6.01517e-18
8111.70650 5.98328e-18
8112.56796 5.95141e-18
8113.42942 5.91857e-18
8114.29088 5.88574e-18
8115.15235 5.84092e-18
8116.02383 5.79608e-18
8116.88529 5.73457e-18
8117.74675 5.67303e-18
8118.60821 5.59395e-18
8119.46967 5.51484e-18
8120.33114 5.42960e-18
8121.19260 5.34437e-18
8122.05406 5.26209e-18
8122.91552 5.17983e-18
8123.77698 5.09034e-18
8124.63845 5.00084e-18
8125.49991 4.89470e-18
8126.37139 4.78853e-18
8127.23285 4.67080e-18
8128.09431 4.55304e-18
8128.95577 4.43116e-18
8129.81723 4.30927e-18
8130.67870 4.19750e-18
8131.54016 4.08576e-18
8132.40162 3.99946e-18
8133.26308 3.91322e-18
8134.12454 3.84414e-18
8134.99602 3.77511e-18
8135.85749 3.70479e-18
8136.71895 3.63447e-18
8137.58041 3.55591e-18
8138.44187 3.47734e-18
8139.30333 3.39027e-18
8140.16480 3.30319e-18
8141.02626 3.20985e-18
8141.88772 3.11649e-18
8142.74918 3.02207e-18
8143.61064 2.92764e-18
8144.47210 2.83727e-18
8145.34358 2.74693e-18
8146.20505 2.66475e-18
8147.06651 2.58259e-18
8147.92797 2.51148e-18
8148.78943 2.44042e-18
8149.65089 2.38130e-18
8150.51236 2.32222e-18
8151.37382 2.27363e-18
8152.23528 2.22508e-18
8153.09674 2.18061e-18
8153.95820 2.13616e-18
8154.82968 2.09064e-18
8155.69115 2.04512e-18
8156.55261 1.99904e-18
8157.41407 1.95295e-18
8158.27553 1.90788e-18
8159.13699 1.86281e-18
8159.99845 1.82258e-18
8160.85992 1.78236e-18
8161.72138 1.75075e-18
8162.58284 1.71915e-18
8163.44430 1.69729e-18
8164.31578 1.67546e-18
8165.17724 1.66316e-18
8166.03871 1.65087e-18
8166.90017 1.64228e-18
8167.76163 1.63369e-18
8168.62309 1.62168e-18
8169.48455 1.60967e-18
8170.34602 1.58833e-18
8171.20748 1.56698e-18
8172.06894 1.53069e-18
8172.93040 1.49436e-18
8173.80188 1.45270e-18
8174.66334 1.41103e-18
8175.52481 1.38471e-18
8176.38627 1.35844e-18
8177.24773 1.35207e-18
8178.10919 1.34575e-18
8178.97065 1.34733e-18
8179.83212 1.34892e-18
8180.69358 1.34930e-18
8181.55504 1.34968e-18
8182.41650 1.34312e-18
8183.28798 1.33655e-18
8184.14944 1.32094e-18
8185.01090 1.30532e-18
8185.87237 1.28843e-18
8186.73383 1.27152e-18
8187.59529 1.25887e-18
8188.45675 1.24622e-18
8189.31821 1.23354e-18
8190.17968 1.22085e-18
8191.04114 1.20514e-18
8191.90260 1.18942e-18
8192.77408 1.17433e-18
8193.63554 1.15924e-18
8194.49700 1.14847e-18
8195.35846 1.13770e-18
8196.21993 1.13455e-18
8197.08139 1.13142e-18
8197.94285 1.13839e-18
8198.80431 1.14538e-18
8199.66577 1.15650e-18
8200.52724 1.16762e-18
8201.38870 1.17451e-18
8202.25016 1.18140e-18
8203.12164 1.18246e-18
8203.98310 1.18351e-18
8204.84456 1.18009e-18
8205.70603 1.17665e-18
8206.56749 1.16944e-18
8207.42895 1.16221e-18
8208.29041 1.15178e-18
8209.15187 1.14134e-18
8210.01334 1.12939e-18
8210.87480 1.11744e-18
8211.73626 1.10617e-18
8212.60774 1.09491e-18
8213.46920 1.08527e-18
8214.33066 1.07563e-18
8215.19212 1.06743e-18
8216.05359 1.05925e-18
8216.91505 1.04992e-18
8217.77651 1.04059e-18
8218.63797 1.02291e-18
8219.49943 1.00521e-18
8220.36090 9.76419e-19
8221.22236 9.47605e-19
8222.08382 9.15081e-19
8222.95530 8.82549e-19
8223.81676 8.54524e-19
8224.67822 8.26507e-19
8225.53969 8.13297e-19
8226.40115 8.00125e-19
8227.26261 8.09179e-19
8228.12407 8.18283e-19
8228.98553 8.42663e-19
8229.84700 8.67076e-19
8230.70846 8.97143e-19
8231.57994 9.27227e-19
8232.44140 9.53616e-19
8233.30286 9.80006e-19
8234.16432 9.94023e-19
8235.02578 1.00802e-18
8235.88725 1.01255e-18
8236.74871 1.01704e-18
8237.61017 1.01934e-18
8238.47163 1.02163e-18
8239.33309 1.02675e-18
8240.19456 1.03188e-18
8241.06604 1.04403e-18
8241.92750 1.05620e-18
8242.78896 1.07292e-18
8243.65042 1.08966e-18
8244.51188 1.10336e-18
8245.37335 1.11706e-18
8246.23481 1.12400e-18
8247.09627 1.13093e-18
8247.95773 1.13155e-18
8248.81919 1.13214e-18
8249.68066 1.12793e-18
8250.54212 1.12372e-18
8251.41360 1.11807e-18
8252.27506 1.11242e-18
8253.13652 1.10848e-18
8253.99798 1.10455e-18
8254.85945 1.10424e-18
8255.72091 1.10393e-18
8256.58237 1.10832e-18
8257.44383 1.11272e-18
8258.30529 1.12106e-18
8259.16676 1.12941e-18
8260.02822 1.14009e-18
8260.89970 1.15079e-18
8261.76116 1.16087e-18
8262.62262 1.17096e-18
8263.48408 1.17752e-18
8264.34554 1.18408e-18
8265.20701 1.18451e-18
8266.06847 1.18493e-18
8266.92993 1.17750e-18
8267.79139 1.17006e-18
8268.65285 1.15872e-18
8269.52433 1.14738e-18
8270.38580 1.13762e-18
8271.24726 1.12788e-18
8272.10872 1.12339e-18
8272.97018 1.11891e-18
8273.83164 1.12254e-18
8274.69311 1.12618e-18
8275.55457 1.13508e-18
8276.41603 1.14398e-18
8277.27749 1.15173e-18
8278.13895 1.15946e-18
8279.01043 1.16343e-18
8279.87189 1.16740e-18
8280.73336 1.16821e-18
8281.59482 1.16901e-18
8282.45628 1.16862e-18
8283.31774 1.16821e-18
8284.17920 1.17065e-18
8285.04067 1.17310e-18
8285.90213 1.17992e-18
8286.76359 1.18676e-18
8287.62505 1.19430e-18
8288.48651 1.20184e-18
8289.34798 1.20814e-18
8290.21946 1.21444e-18
8291.08092 1.22244e-18
8291.94238 1.23043e-18
8292.80384 1.24180e-18
8293.66530 1.25316e-18
8294.52677 1.26493e-18
8295.38823 1.27670e-18
8296.24969 1.28612e-18
8297.11115 1.29554e-18
8297.97261 1.30084e-18
8298.83408 1.30614e-18
8299.70555 1.30628e-18
8300.56702 1.30640e-18
8301.42848 1.30761e-18
8302.28994 1.30882e-18
8303.15140 1.31850e-18
8304.01286 1.32818e-18
8304.87433 1.34348e-18
8305.73579 1.35877e-18
8306.59725 1.37353e-18
8307.45871 1.38829e-18
8308.32017 1.39878e-18
8309.18164 1.40926e-18
8310.05312 1.41276e-18
8310.91458 1.41624e-18
8311.77604 1.41565e-18
8312.63750 1.41505e-18
8313.49896 1.41743e-18
8314.36043 1.41982e-18
8315.22189 1.42913e-18
8316.08335 1.43847e-18
8316.94481 1.45551e-18
8317.80627 1.47258e-18
8318.67775 1.49534e-18
8319.53921 1.51812e-18
8320.40068 1.54026e-18
8321.26214 1.56241e-18
8322.12360 1.57940e-18
8322.98506 1.59638e-18
8323.84652 1.60816e-18
8324.70799 1.61993e-18
8325.56945 1.62709e-18
8326.43091 1.63425e-18
8327.29237 1.63855e-18
8328.16385 1.64285e-18
8329.02531 1.64651e-18
8329.88678 1.65015e-18
8330.74824 1.65440e-18
8331.60970 1.65865e-18
8332.47116 1.66475e-18
8333.33262 1.67085e-18
8334.19408 1.68184e-18
8335.05555 1.69286e-18
8335.91701 1.71131e-18
8336.77847 1.72978e-18
8337.64995 1.75369e-18
8338.51141 1.77761e-18
8339.37287 1.80358e-18
8340.23434 1.82955e-18
8341.09580 1.85289e-18
8341.95726 1.87622e-18
8342.81872 1.89187e-18
8343.68018 1.90749e-18
8344.54165 1.91555e-18
8345.40311 1.92359e-18
8346.26457 1.92762e-18
8347.12603 1.93163e-18
8347.99751 1.93451e-18
8348.85897 1.93740e-18
8349.72043 1.94129e-18
8350.58190 1.94519e-18
8351.44336 1.95262e-18
8352.30482 1.96005e-18
8353.16628 1.97366e-18
8354.02775 1.98727e-18
8354.88921 2.00737e-18
8355.75067 2.02748e-18
8356.62215 2.05077e-18
8357.48361 2.07409e-18
8358.34507 2.09732e-18
8359.20653 2.12056e-18
8360.06800 2.14088e-18
8360.92946 2.16118e-18
8361.79092 2.17687e-18
8362.65238 2.19254e-18
8363.51384 2.20656e-18
8364.37531 2.22057e-18
8365.23677 2.23581e-18
8366.10825 2.25107e-18
8366.96971 2.26564e-18
8367.83117 2.28022e-18
8368.69263 2.29213e-18
8369.55410 2.30404e-18
8370.41556 2.31522e-18
8371.27702 2.32640e-18
8372.13848 2.33953e-18
8372.99994 2.35266e-18
8373.86140 2.36919e-18
8374.72287 2.38574e-18
8375.59435 2.40662e-18
8376.45581 2.42751e-18
8377.31727 2.45253e-18
8378.17873 2.47756e-18
8379.04019 2.50577e-18
8379.90166 2.53398e-18
8380.76312 2.56382e-18
8381.62458 2.59367e-18
8382.48604 2.62334e-18
8383.34750 2.65301e-18
8384.20897 2.68100e-18
8385.07043 2.70898e-18
8385.94191 2.73390e-18
8386.80337 2.75883e-18
8387.66483 2.78152e-18
8388.52629 2.80421e-18
8389.38775 2.82907e-18
8390.24922 2.85393e-18
8391.11068 2.88220e-18
8391.97214 2.91047e-18
8392.83360 2.93646e-18
8393.69507 2.96246e-18
8394.55653 2.98209e-18
8395.41799 3.00172e-18
8396.28947 3.01490e-18
8397.15093 3.02806e-18
8398.01239 3.03643e-18
8398.87385 3.04477e-18
8399.73532 3.05756e-18
8400.59678 3.07036e-18
8401.45824 3.09600e-18
8402.31970 3.12167e-18
8403.18116 3.15745e-18
8404.04263 3.19325e-18
8404.90409 3.23400e-18
8405.77557 3.27476e-18
8406.63703 3.31478e-18
8407.49849 3.35480e-18
8408.35995 3.38819e-18
8409.22142 3.42157e-18
8410.08288 3.44837e-18
8410.94434 3.47515e-18
8411.80580 3.49835e-18
8412.66726 3.52154e-18
8413.52873 3.54323e-18
8414.39019 3.56491e-18
8415.26167 3.58676e-18
8416.12313 3.60862e-18
8416.98459 3.63242e-18
8417.84605 3.65623e-18
8418.70751 3.68346e-18
8419.56898 3.71069e-18
8420.43044 3.74190e-18
8421.29190 3.77312e-18
8422.15336 3.80819e-18
8423.01482 3.84328e-18
8423.87629 3.88034e-18
8424.74777 3.91742e-18
8425.60923 3.95136e-18
8426.47069 3.98530e-18
8427.33215 4.01403e-18
8428.19361 4.04274e-18
8429.05508 4.07204e-18
8429.91654 4.10135e-18
8430.77800 4.13594e-18
8431.63946 4.17055e-18
8432.50092 4.21095e-18
8433.36239 4.25136e-18
8434.23386 4.29681e-18
8435.09533 4.34226e-18
8435.95679 4.38520e-18
8436.81825 4.42815e-18
8437.67971 4.46116e-18
8438.54117 4.49415e-18
8439.40264 4.52158e-18
8440.26410 4.54898e-18
8441.12556 4.57788e-18
8441.98702 4.60677e-18
8442.84848 4.63921e-18
8443.70995 4.67167e-18
8444.58143 4.70814e-18
8445.44289 4.74463e-18
8446.30435 4.78553e-18
8447.16581 4.82644e-18
8448.02727 4.87165e-18
8448.88874 4.91685e-18
8449.75020 4.96497e-18
8450.61166 5.01308e-18
8451.47312 5.06204e-18
8452.33458 5.11100e-18
8453.20606 5.15847e-18
8454.06752 5.20593e-18
8454.92899 5.24906e-18
8455.79045 5.29218e-18
8456.65191 5.33159e-18
8457.51337 5.37098e-18
8458.37483 5.41278e-18
8459.23630 5.45459e-18
8460.09776 5.50135e-18
8460.95922 5.54814e-18
8461.82068 5.59463e-18
8462.69216 5.64112e-18
8463.55362 5.68361e-18
8464.41508 5.72610e-18
8465.27655 5.76487e-18
8466.13801 5.80363e-18
8466.99947 5.84025e-18
8467.86093 5.87686e-18
8468.72240 5.91909e-18
8469.58386 5.96132e-18
8470.44532 6.01604e-18
8471.30678 6.07078e-18
8472.16824 6.13373e-18
8473.03972 6.19670e-18
8473.90118 6.26171e-18
8474.76265 6.32671e-18
8475.62411 6.38909e-18
8476.48557 6.45146e-18
8477.34703 6.50671e-18
8478.20849 6.56194e-18
8479.06996 6.61538e-18
8479.93142 6.66881e-18
8480.79288 6.73016e-18
8481.65434 6.79153e-18
8482.51580 6.85862e-18
8483.38728 6.92572e-18
8484.24875 6.98950e-18
8485.11021 7.05326e-18
8485.97167 7.10968e-18
8486.83313 7.16609e-18
8487.69459 7.21506e-18
8488.55605 7.26400e-18
8489.41752 7.30810e-18
8490.27898 7.35218e-18
8491.14044 7.39792e-18
8492.00190 7.44367e-18
8492.87338 7.49532e-18
8493.73484 7.54699e-18
8494.59631 7.60339e-18
8495.45777 7.65979e-18
8496.31923 7.72156e-18
8497.18069 7.78334e-18
8498.04215 7.85738e-18
8498.90362 7.93145e-18
8499.76508 8.02035e-18
8500.62654 8.10930e-18
8501.48800 8.20121e-18
8502.35948 8.29314e-18
8503.22094 8.37644e-18
8504.08240 8.45974e-18
8504.94387 8.53206e-18
8505.80533 8.60430e-18
8506.66679 8.66515e-18
8507.52825 8.72592e-18
8508.38972 8.77953e-18
8509.25118 8.83314e-18
8510.11264 8.88528e-18
8510.98412 8.93751e-18
8511.84558 8.99047e-18
8512.70704 9.04343e-18
8513.56850 9.09834e-18
8514.42997 9.15317e-18
8515.29143 9.20979e-18
8516.15289 9.26641e-18
8517.01435 9.32409e-18
8517.87581 9.38176e-18
8518.73728 9.44050e-18
8519.59874 9.49915e-18
8520.46020 9.55911e-18
8521.33168 9.61898e-18
8522.19314 9.68276e-18
8523.05460 9.74645e-18
8523.91607 9.81894e-18
8524.77753 9.89150e-18
8525.63899 9.97440e-18
8526.50045 1.00573e-17
8527.36191 1.01476e-17
8528.22337 1.02378e-17
8529.08484 1.03307e-17
8529.94630 1.04236e-17
8530.80776 1.05114e-17
8531.67924 1.05992e-17
8532.54070 1.06756e-17
8533.40216 1.07519e-17
8534.26363 1.08144e-17
8535.12509 1.08770e-17
8535.98655 1.09264e-17
8536.84801 1.09758e-17
8537.70947 1.10216e-17
8538.57094 1.10674e-17
8539.43240 1.11197e-17
8540.30388 1.11721e-17
8541.16534 1.12377e-17
8542.02680 1.13032e-17
8542.88826 1.13861e-17
8543.74972 1.14690e-17
8544.61119 1.15636e-17
8545.47265 1.16582e-17
8546.33411 1.17559e-17
8547.19557 1.18535e-17
8548.05703 1.19392e-17
8548.91850 1.20249e-17
8549.78998 1.20821e-17
8550.65144 1.21393e-17
8551.51290 1.21695e-17
8552.37436 1.21996e-17
8553.23582 1.22152e-17
8554.09729 1.22308e-17
8554.95875 1.22488e-17
8555.82021 1.22668e-17
8556.68167 1.23072e-17
8557.54313 1.23476e-17
8558.40460 1.24195e-17
8559.27607 1.24913e-17
8560.13754 1.25890e-17
8560.99900 1.26867e-17
8561.86046 1.27996e-17
8562.72192 1.29125e-17
8563.58338 1.30231e-17
8564.44485 1.31339e-17
8565.30631 1.32263e-17
8566.16777 1.33186e-17
8567.02923 1.33821e-17
8567.89070 1.34456e-17
8568.75216 1.34752e-17
8569.62364 1.35048e-17
8570.48510 1.35089e-17
8571.34656 1.35130e-17
8572.20802 1.35036e-17
8573.06948 1.34942e-17
8573.93095 1.34846e-17
8574.79241 1.34751e-17
8575.65387 1.34783e-17
8576.51533 1.34816e-17
8577.37679 1.35109e-17
8578.23826 1.35404e-17
8579.09972 1.36061e-17
8579.97120 1.36719e-17
8580.83266 1.37612e-17
8581.69412 1.38506e-17
8582.55558 1.39423e-17
8583.41705 1.40340e-17
8584.27851 1.41109e-17
8585.13997 1.41878e-17
8586.00143 1.42360e-17
8586.86289 1.42842e-17
8587.72436 1.43016e-17
8588.58582 1.43191e-17
8589.45730 1.43138e-17
8590.31876 1.43082e-17
8591.18022 1.42920e-17
8592.04168 1.42757e-17
8592.90314 1.42648e-17
8593.76461 1.42539e-17
8594.62607 1.42575e-17
8595.48753 1.42610e-17
8596.34899 1.42754e-17
8597.21045 1.42897e-17
8598.07192 1.43126e-17
8598.94340 1.43356e-17
8599.80486 1.43695e-17
8600.66632 1.44034e-17
8601.52778 1.44472e-17
8602.38924 1.44909e-17
8603.25071 1.45376e-17
8604.11217 1.45844e-17
8604.97363 1.46264e-17
8605.83509 1.46685e-17
8606.69655 1.46955e-17
8607.56803 1.47225e-17
8608.42949 1.47262e-17
8609.29096 1.47299e-17
8610.15242 1.47126e-17
8611.01388 1.46952e-17
8611.87534 1.46628e-17
8612.73680 1.46304e-17
8613.59827 1.45895e-17
8614.45973 1.45486e-17
8615.32119 1.45063e-17
8616.18265 1.44640e-17
8617.04411 1.44335e-17
8617.91559 1.44030e-17
8618.77706 1.43988e-17
8619.63852 1.43945e-17
8620.49998 1.44174e-17
8621.36144 1.44403e-17
8622.22290 1.44823e-17
8623.08437 1.45245e-17
8623.94583 1.45747e-17
8624.80729 1.46248e-17
8625.66875 1.46689e-17
8626.53021 1.47129e-17
8627.40169 1.47422e-17
8628.26315 1.47715e-17
8629.12462 1.47860e-17
8629.98608 1.48005e-17
8630.84754 1.47997e-17
8631.70900 1.47990e-17
8632.57046 1.47811e-17
8633.43193 1.47631e-17
8634.29339 1.47305e-17
8635.15485 1.46979e-17
8636.01631 1.46608e-17
8636.88779 1.46236e-17
8637.74925 1.45927e-17
8638.61072 1.45619e-17
8639.47218 1.45495e-17
8640.33364 1.45372e-17
8641.19510 1.45520e-17
8642.05656 1.45667e-17
8642.91803 1.46013e-17
8643.77949 1.46360e-17
8644.64095 1.46797e-17
8645.50241 1.47234e-17
8646.37389 1.47648e-17
8647.23535 1.48062e-17
8648.09681 1.48340e-17
8648.95828 1.48617e-17
8649.81974 1.48717e-17
8650.68120 1.48817e-17
8651.54266 1.48741e-17
8652.40412 1.48664e-17
8653.26559 1.48399e-17
8654.12705 1.48133e-17
8654.98851 1.47671e-17
8655.85999 1.47209e-17
8656.72145 1.46631e-17
8657.58291 1.46052e-17
8658.44438 1.45497e-17
8659.30584 1.44941e-17
8660.16730 1.44504e-17
8661.02876 1.44067e-17
8661.89022 1.43789e-17
8662.75168 1.43513e-17
8663.61315 1.43419e-17
8664.47461 1.43326e-17
8665.33607 1.43408e-17
8666.20755 1.43490e-17
8667.06901 1.43710e-17
8667.93047 1.43930e-17
8668.79194 1.44219e-17
8669.65340 1.44508e-17
8670.51486 1.44774e-17
8671.37632 1.45039e-17
8672.23778 1.45121e-17
8673.09925 1.45202e-17
8673.96071 1.44983e-17
8674.82217 1.44762e-17
8675.68363 1.44277e-17
8676.55511 1.43790e-17
8677.41657 1.43116e-17
8678.27803 1.42441e-17
8679.13950 1.41712e-17
8680.00096 1.40981e-17
8680.86242 1.40339e-17
8681.72388 1.39698e-17
8682.58535 1.39203e-17
8683.44681 1.38708e-17
8684.30827 1.38379e-17
8685.16973 1.38051e-17
8686.04121 1.37908e-17
8686.90267 1.37767e-17
8687.76413 1.37813e-17
8688.62560 1.37860e-17
8689.48706 1.38060e-17
8690.34852 1.38259e-17
8691.20998 1.38552e-17
8692.07144 1.38846e-17
8692.93291 1.39134e-17
8693.79437 1.39421e-17
8694.66585 1.39576e-17
8695.52731 1.39732e-17
8696.38877 1.39678e-17
8697.25023 1.39623e-17
8698.11170 1.39347e-17
8698.97316 1.39069e-17
8699.83462 1.38600e-17
8700.69608 1.38131e-17
8701.55754 1.37570e-17
8702.41900 1.37010e-17
8703.28047 1.36444e-17
8704.15195 1.35878e-17
8705.01341 1.35309e-17
8705.87487 1.34742e-17
8706.73633 1.34194e-17
8707.59779 1.33647e-17
8708.45926 1.33236e-17
8709.32072 1.32825e-17
8710.18218 1.32639e-17
8711.04364 1.32452e-17
8711.90510 1.32495e-17
8712.76657 1.32539e-17
8713.62803 1.32778e-17
8714.49951 1.33017e-17
8715.36097 1.33278e-17
8716.22243 1.33539e-17
8717.08389 1.33624e-17
8717.94535 1.33708e-17
8718.80682 1.33536e-17
8719.66828 1.33362e-17
8720.52974 1.32902e-17
8721.39120 1.32442e-17
8722.25267 1.31807e-17
8723.11413 1.31173e-17
8723.98561 1.30561e-17
8724.84707 1.29948e-17
8725.70853 1.29432e-17
8726.56999 1.28914e-17
8727.43145 1.28472e-17
8728.29292 1.28030e-17
8729.15438 1.27664e-17
8730.01584 1.27298e-17
8730.87730 1.27018e-17
8731.73876 1.26738e-17
8732.61024 1.26570e-17
8733.47170 1.26402e-17
8734.33317 1.26423e-17
8735.19463 1.26446e-17
8736.05609 1.26635e-17
8736.91755 1.26824e-17
8737.77902 1.26956e-17
8738.64048 1.27089e-17
8739.50194 1.26977e-17
8740.36340 1.26864e-17
8741.22486 1.26404e-17
8742.08633 1.25943e-17
8742.95780 1.25107e-17
8743.81927 1.24271e-17
8744.68073 1.23301e-17
8745.54219 1.22331e-17
8746.40365 1.21489e-17
8747.26511 1.20647e-17
8748.12658 1.20055e-17
8748.98804 1.19464e-17
8749.84950 1.19196e-17
8750.71096 1.18928e-17
8751.57242 1.18908e-17
8752.44390 1.18888e-17
8753.30537 1.18971e-17
8754.16683 1.19055e-17
8755.02829 1.19162e-17
8755.88975 1.19270e-17
8756.75121 1.19349e-17
8757.61268 1.19429e-17
8758.47414 1.19365e-17
8759.33560 1.19300e-17
8760.19706 1.18950e-17
8761.05852 1.18599e-17
8761.91999 1.17941e-17
8762.79146 1.17282e-17
8763.65293 1.16391e-17
8764.51439 1.15500e-17
8765.37585 1.14500e-17
8766.23731 1.13501e-17
8767.09877 1.12570e-17
8767.96024 1.11641e-17
8768.82170 1.10895e-17
8769.68316 1.10149e-17
8770.54462 1.09573e-17
8771.40608 1.08997e-17
8772.26755 1.08565e-17
8773.13903 1.08134e-17
8774.00049 1.07827e-17
8774.86195 1.07519e-17
8775.72341 1.07296e-17
8776.58487 1.07073e-17
8777.44633 1.06897e-17
8778.30780 1.06722e-17
8779.16926 1.06543e-17
8780.03072 1.06364e-17
8780.89218 1.06027e-17
8781.76366 1.05688e-17
8782.62512 1.05052e-17
8783.48659 1.04414e-17
8784.34805 1.03546e-17
8785.20951 1.02678e-17
8786.07097 1.01703e-17
8786.93243 1.00727e-17
8787.79390 9.97383e-18
8788.65536 9.87491e-18
8789.51682 9.78371e-18
8790.37828 9.69252e-18
8791.24976 9.60881e-18
8792.11122 9.52510e-18
8792.97268 9.44237e-18
8793.83415 9.35955e-18
8794.69561 9.28195e-18
8795.55707 9.20442e-18
8796.41853 9.14390e-18
8797.28000 9.08353e-18
8798.14146 9.03773e-18
8799.00292 8.99201e-18
8799.86438 8.94499e-18
8800.72584 8.89797e-18
8801.59732 8.83672e-18
8802.45878 8.77546e-18
8803.32025 8.69118e-18
8804.18171 8.60690e-18
8805.04317 8.49846e-18
8805.90463 8.39003e-18
8806.76609 8.27304e-18
8807.62756 8.15598e-18
8808.48902 8.04467e-18
8809.35048 7.93342e-18
8810.21194 7.83468e-18
8811.08342 7.73598e-18
8811.94488 7.65440e-18
8812.80635 7.57287e-18
8813.66781 7.50665e-18
8814.52927 7.44048e-18
8815.39073 7.38529e-18
8816.25219 7.33012e-18
8817.11365 7.28053e-18
8817.97512 7.23097e-18
8818.83658 7.18095e-18
8819.70806 7.13093e-18
8820.56952 7.07316e-18
8821.43098 7.01536e-18
8822.29244 6.94345e-18
8823.15391 6.87151e-18
8824.01537 6.78469e-18
8824.87683 6.69783e-18
8825.73829 6.59838e-18
8826.59975 6.49890e-18
8827.46122 6.39598e-18
8828.32268 6.29306e-18
8829.19416 6.19987e-18
8830.05562 6.10672e-18
8830.91708 6.02999e-18
8831.77854 5.95331e-18
8832.64000 5.89352e-18
8833.50147 5.83377e-18
8834.36293 5.78878e-18
8835.22439 5.74383e-18
8836.08585 5.70837e-18
8836.94732 5.67293e-18
8837.80878 5.64083e-18
8838.67024 5.60874e-18
8839.54172 5.57367e-18
8840.40318 5.53860e-18
8841.26464 5.49590e-18
8842.12610 5.45318e-18
8842.98757 5.40223e-18
8843.84903 5.35126e-18
8844.71049 5.29303e-18
8845.57195 5.23479e-18
8846.43341 5.17271e-18
8847.29488 5.11061e-18
8848.15634 5.04903e-18
8849.02782 4.98745e-18
8849.88928 4.92871e-18
8850.75074 4.86998e-18
8851.61220 4.81630e-18
8852.47367 4.76264e-18
8853.33513 4.72543e-18
8854.19659 4.68825e-18
8855.05805 4.67886e-18
8855.91951 4.66953e-18
8856.78097 4.67895e-18
8857.64244 4.68841e-18
8858.50390 4.70072e-18
8859.36536 4.71304e-18
8860.23684 4.71514e-18
8861.09830 4.71721e-18
8861.95976 4.69723e-18
8862.82123 4.67720e-18
8863.68269 4.63961e-18
8864.54415 4.60198e-18
8865.40561 4.56407e-18
8866.26707 4.52616e-18
8867.12854 4.49597e-18
8867.99000 4.46579e-18
8868.86148 4.44128e-18
8869.72294 4.41678e-18
8870.58440 4.39707e-18
8871.44586 4.37737e-18
8872.30732 4.36169e-18
8873.16879 4.34603e-18
8874.03025 4.33525e-18
8874.89171 4.32448e-18
8875.75317 4.32525e-18
8876.61463 4.32604e-18
8877.47610 4.34104e-18
8878.34758 4.35607e-18
8879.20904 4.37700e-18
8880.07050 4.39795e-18
8880.93196 4.41612e-18
8881.79342 4.43429e-18
8882.65489 4.44162e-18
8883.51635 4.44891e-18
8884.37781 4.43951e-18
8885.23927 4.43007e-18
8886.10073 4.40936e-18
8886.96220 4.38863e-18
8887.83367 4.36516e-18
8888.69514 4.34167e-18
8889.55660 4.32329e-18
8890.41806 4.30491e-18
8891.27952 4.29875e-18
8892.14099 4.29263e-18
8893.00245 4.30274e-18
8893.86391 4.31289e-18
8894.72537 4.34086e-18
8895.58683 4.36887e-18
8896.44830 4.40811e-18
8897.30976 4.44738e-18
8898.18124 4.48668e-18
8899.04270 4.52596e-18
8899.90416 4.55569e-18
8900.76562 4.58539e-18
8901.62708 4.59756e-18
8902.48855 4.60969e-18
8903.35001 4.60553e-18
8904.21147 4.60133e-18
8905.07293 4.59415e-18
8905.93439 4.58696e-18
8906.80587 4.58548e-18
8907.66734 4.58402e-18
8908.52880 4.58738e-18
8909.39026 4.59076e-18
8910.25172 4.59897e-18
8911.11318 4.60720e-18
8911.97465 4.62190e-18
8912.83611 4.63660e-18
8913.69757 4.65845e-18
8914.55903 4.68031e-18
8915.42049 4.71086e-18
8916.29197 4.74142e-18
8917.15343 4.78030e-18
8918.01490 4.81919e-18
8918.87636 4.85640e-18
8919.73782 4.89361e-18
8920.59928 4.91913e-18
8921.46074 4.94463e-18
8922.32221 4.95563e-18
8923.18367 4.96661e-18
8924.04513 4.96280e-18
8924.90659 4.95895e-18
8925.76805 4.95212e-18
8926.63953 4.94528e-18
8927.50100 4.95151e-18
8928.36246 4.95777e-18
8929.22392 4.97769e-18
8930.08538 4.99764e-18
8930.94684 5.02395e-18
8931.80831 5.05029e-18
8932.66977 5.07774e-18
8933.53123 5.10519e-18
8934.39269 5.12867e-18
8935.25415 5.15214e-18
8936.12563 5.17407e-18
8936.98709 5.19598e-18
8937.84856 5.22784e-18
8938.71002 5.25973e-18
8939.57148 5.30205e-18
8940.43294 5.34439e-18
8941.29440 5.38157e-18
8942.15587 5.41874e-18
8943.01733 5.43932e-18
8943.87879 5.45987e-18
8944.74025 5.45874e-18
8945.61173 5.45754e-18
8946.47319 5.43653e-18
8947.33466 5.41547e-18
8948.19612 5.39867e-18
8949.05758 5.38188e-18
8949.91904 5.38883e-18
8950.78050 5.39584e-18
8951.64197 5.42047e-18
8952.50343 5.44513e-18
8953.36489 5.47760e-18
8954.22635 5.51009e-18
8955.08781 5.52480e-18
8955.95929 5.53946e-18
8956.82075 5.51123e-18
8957.68222 5.48290e-18
8958.54368 5.44305e-18
8959.40514 5.40318e-18
8960.26660 5.39787e-18
8961.12806 5.39265e-18
8961.98953 5.42846e-18
8962.85099 5.46439e-18
8963.71245 5.53258e-18
8964.57391 5.60087e-18
8965.44539 5.67935e-18
8966.30685 5.75785e-18
8967.16832 5.81316e-18
8968.02978 5.86842e-18
8968.89124 5.90423e-18
8969.75270 5.94000e-18
8970.61416 5.99288e-18
8971.47563 6.04580e-18
8972.33709 6.12842e-18
8973.19855 6.21111e-18
8974.06001 6.30779e-18
8974.93149 6.40450e-18
8975.79295 6.49258e-18
8976.65441 6.58062e-18
8977.51588 6.62541e-18
8978.37734 6.67008e-18
8979.23880 6.64456e-18
8980.10026 6.61886e-18
8980.96172 6.50566e-18
8981.82319 6.39223e-18
8982.68465 6.20252e-18
8983.54611 6.01260e-18
8984.41759 5.84840e-18
8985.27905 5.68428e-18
8986.14051 5.63974e-18
8987.00198 5.59552e-18
8987.86344 5.70291e-18
8988.72490 5.81072e-18
8989.58636 6.07491e-18
8990.44782 6.33952e-18
8991.30928 6.63442e-18
8992.17075 6.92940e-18
8993.03221 7.10322e-18
8993.89367 7.27670e-18
8994.76515 7.30668e-18
8995.62661 7.33628e-18
8996.48807 7.25016e-18
8997.34954 7.16373e-18
8998.21100 7.02942e-18
8999.07246 6.89498e-18
8999.93392 6.80510e-18
9000.79538 6.71534e-18
9001.65685 6.71029e-18
9002.51831 6.70547e-18
9003.38979 6.78275e-18
9004.25125 6.86025e-18
9005.11271 6.99292e-18
9005.97417 7.12573e-18
9006.83563 7.26097e-18
9007.69710 7.39621e-18
9008.55856 7.49282e-18
9009.42002 7.58934e-18
9010.28148 7.62824e-18
9011.14295 7.66698e-18
9012.00441 7.64903e-18
9012.87589 7.63091e-18
9013.73735 7.60147e-18
9014.59881 7.57200e-18
9015.46027 7.56475e-18
9016.32173 7.55756e-18
9017.18320 7.55194e-18
9018.04466 7.54633e-18
9018.90612 7.52702e-18
9019.76758 7.50769e-18
9020.62904 7.49240e-18
9021.49051 7.47712e-18
9022.35197 7.48422e-18
9023.22345 7.49138e-18
9024.08491 7.54399e-18
9024.94637 7.59672e-18
9025.80783 7.71330e-18
9026.66930 7.83006e-18
9027.53076 7.98259e-18
9028.39222 8.13524e-18
9029.25368 8.28134e-18
9030.11514 8.42736e-18
9030.97660 8.53759e-18
9031.83807 8.64766e-18
9032.70955 8.70013e-18
9033.57101 8.75244e-18
9034.43247 8.74520e-18
9035.29393 8.73780e-18
9036.15539 8.68199e-18
9037.01686 8.62602e-18
9037.87832 8.55028e-18
9038.73978 8.47447e-18
9039.60124 8.42281e-18
9040.46270 8.37131e-18
9041.32417 8.35553e-18
9042.18563 8.33983e-18
9043.05711 8.32771e-18
9043.91857 8.31551e-18
9044.78003 8.29005e-18
9045.64149 8.26450e-18
9046.50295 8.23587e-18
9047.36442 8.20723e-18
9048.22588 8.18429e-18
9049.08734 8.16135e-18
9049.94880 8.15826e-18
9050.81027 8.15509e-18
9051.67173 8.17559e-18
9052.54321 8.19617e-18
9053.40467 8.19836e-18
9054.26613 8.20040e-18
9055.12759 8.14752e-18
9055.98905 8.09452e-18
9056.85052 8.00618e-18
9057.71198 7.91775e-18
9058.57344 7.82056e-18
9059.43490 7.72335e-18
9060.29636 7.62062e-18
9061.16784 7.51786e-18
9062.02931 7.41090e-18
9062.89077 7.30391e-18
9063.75223 7.18882e-18
9064.61369 7.07370e-18
9065.47515 6.94191e-18
9066.33662 6.81006e-18
9067.19808 6.69513e-18
9068.05954 6.58025e-18
9068.92100 6.53791e-18
9069.78246 6.49576e-18
9070.64393 6.51368e-18
9071.51540 6.53177e-18
9072.37687 6.54757e-18
9073.23833 6.56337e-18
9074.09979 6.55403e-18
9074.96125 6.54463e-18
9075.82271 6.52756e-18
9076.68418 6.51047e-18
9077.54564 6.49658e-18
9078.40710 6.48270e-18
9079.26856 6.47829e-18
9080.13002 6.47389e-18
9080.99149 6.47870e-18
9081.86297 6.48352e-18
9082.72443 6.47593e-18
9083.58589 6.46829e-18
9084.44735 6.43620e-18
9085.30881 6.40405e-18
9086.17028 6.37130e-18
9087.03174 6.33855e-18
9087.89320 6.32350e-18
9088.75466 6.30849e-18
9089.61612 6.28772e-18
9090.48760 6.26691e-18
9091.34906 6.21795e-18
9092.21053 6.16919e-18
9093.07199 6.11521e-18
9093.93345 6.06123e-18
9094.79491 6.03058e-18
9095.65637 6.00001e-18
9096.51784 5.98467e-18
9097.37930 5.96938e-18
9098.24076 5.95243e-18
9099.10222 5.93547e-18
9099.97370 5.92129e-18
9100.83516 5.90712e-18
9101.69663 5.90476e-18
9102.55809 5.90243e-18
9103.41955 5.92923e-18
9104.28101 5.95611e-18
9105.14247 6.03688e-18
9106.00393 6.11781e-18
9106.86540 6.22312e-18
9107.72686 6.32850e-18
9108.58832 6.38287e-18
9109.45980 6.43709e-18
9110.32126 6.40832e-18
9111.18272 6.37933e-18
9112.04419 6.28617e-18
9112.90565 6.19283e-18
9113.76711 6.07376e-18
9114.62857 5.95463e-18
9115.49003 5.88867e-18
9116.35150 5.82286e-18
9117.21296 5.85118e-18
9118.07442 5.87975e-18
9118.93588 5.94139e-18
9119.80736 6.00313e-18
9120.66882 6.03857e-18
9121.53028 6.07394e-18
9122.39175 6.04507e-18
9123.25321 6.01602e-18
9124.11467 5.89994e-18
9124.97613 5.78363e-18
9125.83760 5.63403e-18
9126.69906 5.48434e-18
9127.56052 5.36657e-18
9128.43200 5.24889e-18
9129.29346 5.19671e-18
9130.15492 5.14471e-18
9131.01638 5.17986e-18
9131.87785 5.21525e-18
9132.73931 5.32308e-18
9133.60077 5.43112e-18
9134.46223 5.57847e-18
9135.32369 5.72593e-18
9136.18516 5.87830e-18
9137.04662 6.03068e-18
9137.90808 6.15245e-18
9138.76954 6.27414e-18
9139.64102 6.34240e-18
9140.50248 6.41050e-18
9141.36395 6.41751e-18
9142.22541 6.42435e-18
9143.08687 6.35850e-18
9143.94833 6.29245e-18
9144.80979 6.13705e-18
9145.67125 5.98141e-18
9146.53272 5.75660e-18
9147.39418 5.53160e-18
9148.26566 5.30528e-18
9149.12712 5.07897e-18
9149.98858 4.91276e-18
9150.85004 4.74672e-18
9151.71151 4.69047e-18
9152.57297 4.63452e-18
9153.43443 4.70767e-18
9154.29589 4.78117e-18
9155.15735 4.91979e-18
9156.01882 5.05858e-18
9156.88028 5.19512e-18
9157.75176 5.33165e-18
9158.61322 5.43453e-18
9159.47468 5.53730e-18
9160.33614 5.58212e-18
9161.19760 5.62676e-18
9162.05907 5.61514e-18
9162.92053 5.60335e-18
9163.78199 5.54855e-18
9164.64345 5.49363e-18
9165.50492 5.39381e-18
9166.36638 5.29386e-18
9167.22784 5.14667e-18
9168.09932 4.99935e-18
9168.96078 4.84131e-18
9169.82224 4.68323e-18
9170.68370 4.56377e-18
9171.54517 4.44442e-18
9172.40663 4.38825e-18
9173.26809 4.33225e-18
9174.12955 4.35012e-18
9174.99101 4.36820e-18
9175.85248 4.42973e-18
9176.71394 4.49138e-18
9177.58542 4.52751e-18
9178.44688 4.56358e-18
9179.30834 4.55422e-18
9180.16980 4.54474e-18
9181.03127 4.53522e-18
9181.89273 4.52570e-18
9182.75419 4.54095e-18
9183.61565 4.55626e-18
9184.47711 4.58739e-18
9185.33857 4.61855e-18
9186.20004 4.65482e-18
9187.07152 4.69109e-18
9187.93298 4.70649e-18
9188.79444 4.72183e-18
9189.65590 4.70193e-18
9190.51736 4.68192e-18
9191.37883 4.66691e-18
9192.24029 4.65191e-18
9193.10175 4.67758e-18
9193.96321 4.70336e-18
9194.82467 4.75381e-18
9195.68614 4.80431e-18
9196.55762 4.85682e-18
9197.41908 4.90933e-18
9198.28054 4.94338e-18
9199.14200 4.97739e-18
9200.00346 4.97326e-18
9200.86492 4.96904e-18
9201.72639 4.94128e-18
9202.58785 4.91344e-18
9203.44931 4.89061e-18
9204.31077 4.86780e-18
9205.17224 4.85074e-18
9206.04371 4.83369e-18
9206.90518 4.80985e-18
9207.76664 4.78598e-18
9208.62810 4.75934e-18
9209.48956 4.73269e-18
9210.35102 4.71668e-18
9211.21249 4.70069e-18
9212.07395 4.70879e-18
9212.93541 4.71697e-18
9213.79687 4.76464e-18
9214.65833 4.81242e-18
9215.52981 4.89657e-18
9216.39127 4.98082e-18
9217.25274 5.06948e-18
9218.11420 5.15814e-18
9218.97566 5.23054e-18
9219.83712 5.30288e-18
9220.69859 5.36565e-18
9221.56005 5.42838e-18
9222.42151 5.48524e-18
9223.28297 5.54208e-18
9224.14443 5.58670e-18
9225.00590 5.63129e-18
9225.87737 5.65924e-18
9226.73884 5.68715e-18
9227.60030 5.69380e-18
9228.46176 5.70038e-18
9229.32322 5.68394e-18
9230.18468 5.66744e-18
9231.04615 5.64665e-18
9231.90761 5.62584e-18
9232.76907 5.62236e-18
9233.63053 5.61892e-18
9234.49199 5.62799e-18
9235.35346 5.63709e-18
9236.22494 5.64652e-18
9237.08640 5.65594e-18
9237.94786 5.67129e-18
9238.80932 5.68664e-18
9239.67078 5.71936e-18
9240.53225 5.75211e-18
9241.39371 5.80767e-18
9242.25517 5.86330e-18
9243.11663 5.94395e-18
9243.97809 6.02467e-18
9244.84957 6.12339e-18
9245.71103 6.22215e-18
9246.57250 6.32291e-18
9247.43396 6.42367e-18
9248.29542 6.51731e-18
9249.15688 6.61093e-18
9250.01834 6.69934e-18
9250.87981 6.78774e-18
9251.74127 6.86646e-18
9252.60273 6.94515e-18
9253.46419 6.99531e-18
9254.32565 7.04539e-18
9255.19713 7.06391e-18
9256.05860 7.08233e-18
9256.92006 7.10587e-18
9257.78152 7.12943e-18
9258.64298 7.18560e-18
9259.50444 7.24185e-18
9260.36591 7.32231e-18
9261.22737 7.40283e-18
9262.08883 7.49274e-18
9262.95029 7.58266e-18
9263.81175 7.64956e-18
9264.68323 7.71639e-18
9265.54469 7.72922e-18
9266.40616 7.74190e-18
9267.26762 7.70154e-18
9268.12908 7.66102e-18
9268.99054 7.58025e-18
9269.85200 7.49937e-18
9270.71347 7.40827e-18
9271.57493 7.31714e-18
9272.43639 7.25155e-18
9273.29785 7.18603e-18
9274.16933 7.17424e-18
9275.03079 7.16260e-18
9275.89226 7.22532e-18
9276.75372 7.28825e-18
9277.61518 7.41493e-18
9278.47664 7.54179e-18
9279.33810 7.69754e-18
9280.19957 7.85337e-18
9281.06103 8.00054e-18
9281.92249 8.14768e-18
9282.79397 8.24994e-18
9283.65543 8.35212e-18
9284.51689 8.38059e-18
9285.37835 8.40882e-18
9286.23982 8.34634e-18
9287.10128 8.28362e-18
9287.96274 8.13776e-18
9288.82420 7.99158e-18
9289.68566 7.80855e-18
9290.54713 7.62543e-18
9291.40859 7.45902e-18
9292.27005 7.29267e-18
9293.14153 7.21371e-18
9294.00299 7.13497e-18
9294.86445 7.18967e-18
9295.72592 7.24473e-18
9296.58738 7.38546e-18
9297.44884 7.52643e-18
9298.31030 7.68999e-18
9299.17176 7.85360e-18
9300.03323 7.95384e-18
9300.89469 8.05390e-18
9301.75615 8.00818e-18
9302.62763 7.96205e-18
9303.48909 7.84974e-18
9304.35055 7.73725e-18
9305.21201 7.68813e-18
9306.07348 7.63919e-18
9306.93494 7.62302e-18
9307.79640 7.60693e-18
9308.65786 7.52954e-18
9309.51932 7.45197e-18
9310.38079 7.31773e-18
9311.24225 7.18334e-18
9312.11373 7.04781e-18
9312.97519 6.91229e-18
9313.83665 6.82996e-18
9314.69811 6.74778e-18
9315.55958 6.78059e-18
9316.42104 6.81373e-18
9317.28250 6.94963e-18
9318.14396 7.08582e-18
9319.00542 7.20568e-18
9319.86688 7.32548e-18
9320.72835 7.38255e-18
9321.58981 7.43944e-18
9322.46129 7.54350e-18
9323.32275 7.64769e-18
9324.18421 7.82276e-18
9325.04567 7.99802e-18
9325.90714 8.01961e-18
9326.76860 8.04076e-18
9327.63006 7.77047e-18
9328.49152 7.49936e-18
9329.35298 7.15448e-18
9330.21445 6.80940e-18
9331.07591 6.60030e-18
9331.94739 6.39161e-18
9332.80885 6.27773e-18
9333.67031 6.16413e-18
9334.53177 6.08470e-18
9335.39323 6.00537e-18
9336.25470 5.96175e-18
9337.11616 5.91825e-18
9337.97762 5.90003e-18
9338.83908 5.88190e-18
9339.70055 6.07433e-18
9340.56201 6.26736e-18
9341.43349 6.92133e-18
9342.29495 7.57661e-18
9343.15641 8.37075e-18
9344.01787 9.16521e-18
9344.87933 9.50826e-18
9345.74080 9.84993e-18
9346.60226 9.56553e-18
9347.46372 9.27926e-18
9348.32518 8.46804e-18
9349.18664 7.65536e-18
9350.04811 6.69041e-18
9350.90957 5.72503e-18
9351.78105 5.29434e-18
9352.64251 4.86520e-18
9353.50397 5.19451e-18
9354.36543 5.52598e-18
9355.22689 6.11758e-18
9356.08836 6.70991e-18
9356.94982 7.14532e-18
9357.81128 7.58028e-18
9358.67274 7.60990e-18
9359.53420 7.63836e-18
9360.39567 7.15426e-18
9361.26715 6.66871e-18
9362.12861 6.06299e-18
9362.99007 5.45695e-18
9363.85153 5.09970e-18
9364.71299 4.74316e-18
9365.57446 4.65568e-18
9366.43592 4.56898e-18
9367.29738 4.71561e-18
9368.15884 4.86290e-18
9369.02030 5.05980e-18
9369.89178 5.25683e-18
9370.75324 5.29343e-18
9371.61471 5.32957e-18
9372.47617 5.21878e-18
9373.33763 5.10757e-18
9374.19909 4.92807e-18
9375.06056 4.74838e-18
9375.92202 4.62047e-18
9376.78348 4.49271e-18
9377.64494 4.56336e-18
9378.50640 4.63456e-18
9379.37788 4.84802e-18
9380.23934 5.06189e-18
9381.10081 5.22896e-18
9381.96227 5.39588e-18
9382.82373 5.45627e-18
9383.68519 5.51635e-18
9384.54665 5.52446e-18
9385.40812 5.53241e-18
9386.26958 5.50331e-18
9387.13104 5.47409e-18
9387.99250 5.38227e-18
9388.85396 5.29028e-18
9389.72544 5.13432e-18
9390.58691 4.97818e-18
9391.44837 4.78161e-18
9392.30983 4.58493e-18
9393.17129 4.37999e-18
9394.03275 4.17504e-18
9394.89422 4.01897e-18
9395.75568 3.86305e-18
9396.61714 3.79458e-18
9397.47860 3.72637e-18
9398.34006 3.71680e-18
9399.21154 3.70739e-18
9400.07300 3.72062e-18
9400.93447 3.73391e-18
9401.79593 3.73526e-18
9402.65739 3.73656e-18
9403.51885 3.69565e-18
9404.38031 3.65463e-18
9405.24178 3.60559e-18
9406.10324 3.55654e-18
9406.96470 3.54728e-18
9407.82616 3.53813e-18
9408.69764 3.56916e-18
9409.55910 3.60032e-18
9410.42057 3.65500e-18
9411.28203 3.70974e-18
9412.14349 3.76218e-18
9413.00495 3.81462e-18
9413.86641 3.83415e-18
9414.72788 3.85358e-18
9415.58934 3.81975e-18
9416.45080 3.78575e-18
9417.31226 3.69223e-18
9418.17372 3.59853e-18
9419.04520 3.45186e-18
9419.90666 3.30504e-18
9420.76813 3.11503e-18
9421.62959 2.92489e-18
9422.49105 2.75953e-18
9423.35251 2.59424e-18
9424.21397 2.61584e-18
9425.07544 2.63798e-18
9425.93690 2.89865e-18
9426.79836 3.16001e-18
9427.65982 3.48959e-18
9428.53130 3.81935e-18
9429.39276 4.05378e-18
9430.25423 4.28793e-18
9431.11569 4.27535e-18
9431.97715 4.26205e-18
9432.83861 3.92552e-18
9433.70007 3.58807e-18
9434.56153 3.19443e-18
9435.42300 2.80065e-18
9436.28446 2.62903e-18
9437.14592 2.45806e-18
9438.01740 2.55243e-18
9438.87886 2.64757e-18
9439.74032 2.98985e-18
9440.60179 3.33283e-18
9441.46325 3.74919e-18
9442.32471 4.16575e-18
9443.18617 4.43244e-18
9444.04763 4.69869e-18
9444.90910 4.75171e-18
9445.77056 4.80411e-18
9446.63202 4.65744e-18
9447.49348 4.51019e-18
9448.36496 4.24299e-18
9449.22642 3.97547e-18
9450.08788 3.71515e-18
9450.94935 3.45485e-18
9451.81081 3.28441e-18
9452.67227 3.11423e-18
9453.53373 3.06601e-18
9454.39520 3.01816e-18
9455.25666 3.10025e-18
9456.11812 3.18272e-18
9456.98960 3.37520e-18
9457.85106 3.56799e-18
9458.71252 3.81324e-18
9459.57398 4.05862e-18
9460.43545 4.24033e-18
9461.29691 4.42185e-18
9462.15837 4.46995e-18
9463.01983 4.51767e-18
9463.88129 4.48691e-18
9464.74276 4.45593e-18
9465.60422 4.40355e-18
9466.47570 4.35112e-18
9467.33716 4.31227e-18
9468.19862 4.27347e-18
9469.06008 4.27640e-18
9469.92155 4.27946e-18
9470.78301 4.28087e-18
9471.64447 4.28227e-18
9472.50593 4.23600e-18
9473.36739 4.18961e-18
9474.22885 4.12456e-18
9475.09032 4.05947e-18
9475.96180 4.01493e-18
9476.82326 3.97045e-18
9477.68472 4.02787e-18
9478.54618 4.08559e-18
9479.40764 4.33681e-18
9480.26911 4.58859e-18
9481.13057 4.93388e-18
9481.99203 5.27944e-18
9482.85349 5.52586e-18
9483.71495 5.77199e-18
9484.57642 5.81786e-18
9485.43788 5.86314e-18
9486.30936 5.67286e-18
9487.17082 5.48188e-18
9488.03228 5.13291e-18
9488.89374 4.78350e-18
9489.75520 4.47993e-18
9490.61667 4.17651e-18
9491.47813 4.04883e-18
9492.33959 3.92167e-18
9493.20105 3.96749e-18
9494.06252 4.01381e-18
9494.92398 4.23248e-18
9495.79546 4.45165e-18
9496.65692 4.87101e-18
9497.51838 5.29096e-18
9498.37984 5.86682e-18
9499.24130 6.44313e-18
9500.10277 6.95014e-18
9500.96423 7.45694e-18
9501.82569 7.70020e-18
9502.68715 7.94269e-18
9503.54861 7.89138e-18
9504.41008 7.83921e-18
9505.28155 7.51324e-18
9506.14302 7.18646e-18
9507.00448 6.75514e-18
9507.86594 6.32352e-18
9508.72740 5.98824e-18
9509.58887 5.65326e-18
9510.45033 5.43378e-18
9511.31179 5.21464e-18
9512.17325 5.07114e-18
9513.03471 4.92787e-18
9513.89617 4.89955e-18
9514.75764 4.87157e-18
9515.62912 5.01451e-18
9516.49058 5.15794e-18
9517.35204 5.45578e-18
9518.21350 5.75407e-18
9519.07496 6.15181e-18
9519.93643 6.54985e-18
9520.79789 6.95068e-18
9521.65935 7.35151e-18
9522.52081 7.62207e-18
9523.38227 7.89224e-18
9524.24374 7.98760e-18
9525.11522 8.08244e-18
9525.97668 8.07268e-18
9526.83814 8.06262e-18
9527.69960 8.01235e-18
9528.56106 7.96197e-18
9529.42252 7.92225e-18
9530.28399 7.88256e-18
9531.14545 7.88201e-18
9532.00691 7.88158e-18
9532.86837 7.87486e-18
9533.72984 7.86812e-18
9534.60131 7.81696e-18
9535.46278 7.76565e-18
9536.32424 7.65843e-18
9537.18570 7.55105e-18
9538.04716 7.39394e-18
9538.90862 7.23668e-18
9539.77009 7.17305e-18
9540.63155 7.10971e-18
9541.49301 7.27490e-18
9542.35447 7.44077e-18
9543.21593 7.73783e-18
9544.08741 8.03527e-18
9544.94888 8.31990e-18
9545.81034 8.60446e-18
9546.67180 8.73584e-18
9547.53326 8.86674e-18
9548.39472 8.70046e-18
9549.25619 8.53336e-18
9550.11765 8.23692e-18
9550.97911 7.94012e-18
9551.84057 7.85069e-18
9552.70203 7.76187e-18
9553.57351 7.90236e-18
9554.43497 8.04352e-18
9555.29644 8.21463e-18
9556.15790 8.38580e-18
9557.01936 8.45323e-18
9557.88082 8.52035e-18
9558.74228 8.39466e-18
9559.60375 8.26849e-18
9560.46521 8.00517e-18
9561.32667 7.74150e-18
9562.18813 7.64496e-18
9563.05961 7.54892e-18
9563.92107 7.77620e-18
9564.78254 8.00443e-18
9565.64400 8.39385e-18
9566.50546 8.78376e-18
9567.36692 9.16139e-18
9568.22838 9.53893e-18
9569.08985 9.69716e-18
9569.95131 9.85481e-18
9570.81277 9.65079e-18
9571.67423 9.44570e-18
9572.53569 9.05921e-18
9573.40717 8.67223e-18
9574.26863 8.31689e-18
9575.13010 7.96172e-18
9575.99156 7.78037e-18
9576.85302 7.59956e-18
9577.71448 7.70499e-18
9578.57594 7.81126e-18
9579.43741 8.02620e-18
9580.29887 8.24140e-18
9581.16033 8.30689e-18
9582.02179 8.37197e-18
9582.89327 8.25376e-18
9583.75473 8.13507e-18
9584.61620 7.88400e-18
9585.47766 7.63249e-18
9586.33912 7.42959e-18
9587.20058 7.22683e-18
9588.06204 7.34779e-18
9588.92351 7.46972e-18
9589.78497 7.88006e-18
9590.64643 8.29127e-18
9591.51791 8.67467e-18
9592.37937 9.05807e-18
9593.24083 9.24404e-18
9594.10229 9.42951e-18
9594.96376 9.43440e-18
9595.82522 9.43879e-18
9596.68668 9.29691e-18
9597.54814 9.15463e-18
9598.40960 8.94597e-18
9599.27107 8.73723e-18
9600.13253 8.55012e-18
9600.99399 8.36302e-18
9601.86547 8.26727e-18
9602.72693 8.17176e-18
9603.58839 8.21293e-18
9604.44986 8.25458e-18
9605.31132 8.42509e-18
9606.17278 8.59600e-18
9607.03424 8.85746e-18
9607.89570 9.11908e-18
9608.75717 9.30521e-18
9609.61863 9.49110e-18
9610.48009 9.44164e-18
9611.35157 9.39144e-18
9612.21303 9.17432e-18
9613.07449 8.95679e-18
9613.93595 8.70021e-18
9614.79742 8.44347e-18
9615.65888 8.23652e-18
9616.52034 8.02967e-18
9617.38180 7.94661e-18
9618.24326 7.86394e-18
9619.10473 7.92388e-18
9619.96619 7.98425e-18
9620.82765 8.16656e-18
9621.69913 8.34927e-18
9622.56059 8.58819e-18
9623.42205 8.82728e-18
9624.28352 9.03131e-18
9625.14498 9.23525e-18
9626.00644 9.31717e-18
9626.86790 9.39868e-18
9627.72936 9.27674e-18
9628.59083 9.15423e-18
9629.45229 8.85242e-18
9630.31375 8.55012e-18
9631.17521 8.24709e-18
9632.04669 7.94402e-18
9632.90815 7.77837e-18
9633.76961 7.61313e-18
9634.63108 7.63884e-18
9635.49254 7.66512e-18
9636.35400 7.87649e-18
9637.21546 8.08840e-18
9638.07692 8.28492e-18
9638.93839 8.48138e-18
9639.79985 8.49733e-18
9640.67133 8.51270e-18
9641.53279 8.45153e-18
9642.39425 8.39011e-18
9643.25571 8.37270e-18
9644.11718 8.35545e-18
9644.97864 8.41101e-18
9645.84010 8.46690e-18
9646.70156 8.60731e-18
9647.56302 8.74796e-18
9648.42448 8.87943e-18
9649.28595 9.01081e-18
9650.15743 9.01113e-18
9651.01889 9.01097e-18
9651.88035 8.87967e-18
9652.74181 8.74796e-18
9653.60327 8.53987e-18
9654.46474 8.33145e-18
9655.32620 8.12178e-18
9656.18766 7.91208e-18
9657.04912 7.78770e-18
9657.91058 7.66359e-18
9658.77205 7.67303e-18
9659.64352 7.68289e-18
9660.50499 7.83805e-18
9661.36645 7.99365e-18
9662.22791 8.24539e-18
9663.08937 8.49741e-18
9663.95083 8.71746e-18
9664.81230 8.93743e-18
9665.67376 9.05156e-18
9666.53522 9.16545e-18
9667.39668 9.21296e-18
9668.25815 9.26031e-18
9669.11961 9.26372e-18
9669.99109 9.26698e-18
9670.85255 9.18831e-18
9671.71401 9.10932e-18
9672.57547 8.93816e-18
9673.43693 8.76668e-18
9674.29840 8.57298e-18
9675.15986 8.37912e-18
9676.02132 8.23269e-18
9676.88278 8.08644e-18
9677.74424 8.03603e-18
9678.61572 7.98591e-18
9679.47718 8.06381e-18
9680.33865 8.14207e-18
9681.20011 8.28411e-18
9682.06157 8.42623e-18
9682.92303 8.54296e-18
9683.78449 8.65962e-18
9684.64596 8.72462e-18
9685.50742 8.78937e-18
9686.36888 8.79897e-18
9687.23034 8.80841e-18
9688.10182 8.77188e-18
9688.96328 8.73527e-18
9689.82475 8.67524e-18
9690.68621 8.61512e-18
9691.54767 8.53564e-18
9692.40913 8.45608e-18
9693.27059 8.34520e-18
9694.13206 8.23416e-18
9694.99352 8.10820e-18
9695.85498 7.98220e-18
9696.71644 7.88593e-18
9697.57790 7.78975e-18
9698.44938 7.74540e-18
9699.31084 7.70121e-18
9700.17231 7.70034e-18
9701.03377 7.69961e-18
9701.89523 7.72392e-18
9702.75669 7.74830e-18
9703.61816 7.75710e-18
9704.47962 7.76584e-18
9705.34108 7.73284e-18
9706.20254 7.69971e-18
9707.06400 7.65026e-18
9707.93548 7.60076e-18
9708.79694 7.56113e-18
9709.65841 7.52155e-18
9710.51987 7.50609e-18
9711.38133 7.49069e-18
9712.24279 7.50874e-18
9713.10425 7.52688e-18
9713.96572 7.55348e-18
9714.82718 7.58010e-18
9715.68864 7.58522e-18
9716.55010 7.59029e-18
9717.41156 7.56534e-18
9718.28304 7.54031e-18
9719.14451 7.48183e-18
9720.00597 7.42325e-18
9720.86743 7.36253e-18
9721.72889 7.30181e-18
9722.59035 7.28694e-18
9723.45182 7.27222e-18
9724.31328 7.28210e-18
9725.17474 7.29205e-18
9726.03620 7.26390e-18
9726.89766 7.23562e-18
9727.76914 7.14720e-18
9728.63060 7.05860e-18
9729.49207 6.92159e-18
9730.35353 6.78444e-18
9731.21499 6.62807e-18
9732.07645 6.47164e-18
9732.93791 6.34966e-18
9733.79938 6.22780e-18
9734.66084 6.17372e-18
9735.52230 6.11984e-18
9736.38376 6.12714e-18
9737.25524 6.13461e-18
9738.11670 6.18822e-18
9738.97817 6.24196e-18
9739.83963 6.31219e-18
9740.70109 6.38249e-18
9741.56255 6.44003e-18
9742.42401 6.49755e-18
9743.28548 6.52686e-18
9744.14694 6.55609e-18
9745.00840 6.54795e-18
9745.86986 6.53970e-18
9746.74134 6.50660e-18
9747.60280 6.47345e-18
9748.46426 6.43256e-18
9749.32573 6.39165e-18
9750.18719 6.34704e-18
9751.04865 6.30242e-18
9751.91011 6.25625e-18
9752.77157 6.21007e-18
9753.63304 6.16080e-18
9754.49450 6.11153e-18
9755.35596 6.05598e-18
9756.22744 6.00041e-18
9757.08890 5.95015e-18
9757.95036 5.89989e-18
9758.81183 5.87198e-18
9759.67329 5.84413e-18
9760.53475 5.85179e-18
9761.39621 5.85955e-18
9762.25767 5.91410e-18
9763.11913 5.96880e-18
9763.98060 6.05308e-18
9764.84206 6.13744e-18
9765.71354 6.20307e-18
9766.57500 6.26865e-18
9767.43646 6.29191e-18
9768.29792 6.31505e-18
9769.15939 6.31150e-18
9770.02085 6.30787e-18
9770.88231 6.29075e-18
9771.74377 6.27359e-18
9772.60523 6.24953e-18
9773.46670 6.22545e-18
9774.32816 6.20284e-18
9775.19964 6.18023e-18
9776.06110 6.16571e-18
9776.92256 6.15122e-18
9777.78402 6.14923e-18
9778.64548 6.14727e-18
9779.50695 6.16346e-18
9780.36841 6.17971e-18
9781.22987 6.21564e-18
9782.09133 6.25164e-18
9782.95280 6.27621e-18
9783.81426 6.30075e-18
9784.68574 6.28015e-18
9785.54720 6.25941e-18
9786.40866 6.21002e-18
9787.27012 6.16055e-18
9788.13158 6.11318e-18
9788.99305 6.06582e-18
9789.85451 6.03132e-18
9790.71597 5.99685e-18
9791.57743 5.97973e-18
9792.43889 5.96266e-18
9793.30036 5.95137e-18
9794.16182 5.94009e-18
9795.03330 5.91034e-18
9795.89476 5.88053e-18
9796.75622 5.83941e-18
9797.61768 5.79827e-18
9798.47915 5.78125e-18
9799.34061 5.76432e-18
9800.20207 5.78327e-18
9801.06353 5.80234e-18
9801.92499 5.84045e-18
9802.78645 5.87861e-18
9803.64792 5.91888e-18
9804.51940 5.95916e-18
9805.38086 5.98169e-18
9806.24232 6.00417e-18
9807.10378 5.99931e-18
9807.96524 5.99434e-18
9808.82671 5.98118e-18
9809.68817 5.96799e-18
9810.54963 5.96472e-18
9811.41109 5.96147e-18
9812.27255 5.97959e-18
9813.13402 5.99777e-18
9813.99548 6.04261e-18
9814.86696 6.08754e-18
9815.72842 6.12720e-18
9816.58988 6.16684e-18
9817.45134 6.16741e-18
9818.31280 6.16788e-18
9819.17427 6.13388e-18
9820.03573 6.09979e-18
9820.89719 6.04549e-18
9821.75865 5.99112e-18
9822.62012 5.93744e-18
9823.48158 5.88376e-18
9824.35306 5.85509e-18
9825.21452 5.82649e-18
9826.07598 5.81927e-18
9826.93744 5.81212e-18
9827.79890 5.80661e-18
9828.66037 5.80111e-18
9829.52183 5.79244e-18
9830.38329 5.78376e-18
9831.24475 5.77777e-18
9832.10621 5.77179e-18
9832.97769 5.76714e-18
9833.83915 5.76249e-18
9834.70062 5.75150e-18
9835.56208 5.74049e-18
9836.42354 5.71963e-18
9837.28500 5.69874e-18
9838.14647 5.67008e-18
9839.00793 5.64140e-18
9839.86939 5.60727e-18
9840.73085 5.57313e-18
9841.59231 5.53475e-18
9842.45377 5.49635e-18
9843.32525 5.45809e-18
9844.18672 5.41983e-18
9845.04818 5.39525e-18
9845.90964 5.37071e-18
9846.77110 5.37049e-18
9847.63256 5.37033e-18
9848.49403 5.39117e-18
9849.35549 5.41206e-18
9850.21695 5.44787e-18
9851.07841 5.48374e-18
9851.93987 5.52874e-18
9852.81135 5.57378e-18
9853.67282 5.62113e-18
9854.53428 5.66847e-18
9855.39574 5.71383e-18
9856.25720 5.75918e-18
9857.11866 5.79936e-18
9857.98013 5.83952e-18
9858.84159 5.86592e-18
9859.70305 5.89228e-18
9860.56451 5.89506e-18
9861.42597 5.89778e-18
9862.29745 5.87561e-18
9863.15891 5.85337e-18
9864.02038 5.81048e-18
9864.88184 5.76751e-18
9865.74330 5.71172e-18
9866.60476 5.65587e-18
9867.46622 5.59836e-18
9868.32769 5.54086e-18
9869.18915 5.48806e-18
9870.05061 5.43528e-18
9870.92209 5.38646e-18
9871.78355 5.33765e-18
9872.64501 5.29363e-18
9873.50648 5.24963e-18
9874.36794 5.21419e-18
9875.22940 5.17878e-18
9876.09086 5.15490e-18
9876.95232 5.13107e-18
9877.81379 5.12150e-18
9878.67525 5.11198e-18
9879.53671 5.11798e-18
9880.39817 5.12402e-18
9881.26965 5.14367e-18
9882.13111 5.16337e-18
9882.99257 5.19315e-18
9883.85404 5.22296e-18
9884.71550 5.25643e-18
9885.57696 5.28990e-18
9886.43842 5.32008e-18
9887.29988 5.35025e-18
9888.16135 5.37062e-18
9889.02281 5.39095e-18
9889.88427 5.39604e-18
9890.74573 5.40107e-18
9891.61721 5.39073e-18
9892.47867 5.38035e-18
9893.34014 5.35735e-18
9894.20160 5.33431e-18
9895.06306 5.30162e-18
9895.92452 5.26888e-18
9896.78598 5.22960e-18
9897.64745 5.19030e-18
9898.50891 5.14953e-18
9899.37037 5.10876e-18
9900.23183 5.07327e-18
9901.09329 5.03779e-18
9901.96477 5.00868e-18
9902.82623 4.97959e-18
9903.68770 4.95114e-18
9904.54916 4.92269e-18
9905.41062 4.89620e-18
9906.27208 4.86972e-18
9907.13354 4.85770e-18
9907.99501 4.84571e-18
9908.85647 4.85407e-18
9909.71793 4.86250e-18
9910.57939 4.88557e-18
9911.45087 4.90868e-18
9912.31233 4.93718e-18
9913.17380 4.96569e-18
9914.03526 4.98002e-18
9914.89672 4.99430e-18
9915.75818 4.97888e-18
9916.61964 4.96339e-18
9917.48111 4.92368e-18
9918.34257 4.88390e-18
9919.20403 4.82941e-18
9920.07551 4.77488e-18
9920.93697 4.71643e-18
9921.79843 4.65796e-18
9922.65989 4.60652e-18
9923.52136 4.55512e-18
9924.38282 4.51553e-18
9925.24428 4.47599e-18
9926.10574 4.45013e-18
9926.96720 4.42433e-18
9927.82867 4.40506e-18
9928.69013 4.38580e-18
9929.56161 4.36173e-18
9930.42307 4.33764e-18
9931.28453 4.30506e-18
9932.14599 4.27246e-18
9933.00746 4.23299e-18
9933.86892 4.19351e-18
9934.73038 4.15051e-18
9935.59184 4.10750e-18
9936.45330 4.06580e-18
9937.31477 4.02410e-18
9938.17623 3.99009e-18
9939.03769 3.95611e-18
9939.90917 3.93783e-18
9940.77063 3.91960e-18
9941.63209 3.91925e-18
9942.49355 3.91896e-18
9943.35502 3.92823e-18
9944.21648 3.93752e-18
9945.07794 3.94922e-18
9945.93940 3.96093e-18
9946.80086 3.97325e-18
9947.66233 3.98559e-18
9948.52379 3.99645e-18
9949.39527 4.00731e-18
9950.25673 4.01272e-18
9951.11819 4.01813e-18
9951.97965 4.01553e-18
9952.84112 4.01292e-18
9953.70258 4.00747e-18
9954.56404 4.00201e-18
9955.42550 3.99937e-18
9956.28696 3.99673e-18
9957.14843 3.99311e-18
9958.00989 3.98948e-18
9958.88137 3.97965e-18
9959.74283 3.96980e-18
9960.60429 3.95109e-18
9961.46575 3.93236e-18
9962.32721 3.90305e-18
9963.18868 3.87370e-18
9964.05014 3.84256e-18
9964.91160 3.81142e-18
9965.77306 3.79311e-18
9966.63452 3.77484e-18
9967.49599 3.77279e-18
9968.36747 3.77079e-18
9969.22893 3.77936e-18
9970.09039 3.78795e-18
9970.95185 3.80624e-18
9971.81331 3.82457e-18
9972.67477 3.85680e-18
9973.53624 3.88907e-18
9974.39770 3.93349e-18
9975.25916 3.97794e-18
9976.12062 4.02503e-18
9976.98208 4.07213e-18
9977.85356 4.11433e-18
9978.71503 4.15652e-18
9979.57649 4.19021e-18
9980.43795 4.22388e-18
9981.29941 4.24780e-18
9982.16087 4.27169e-18
9983.02234 4.29092e-18
9983.88380 4.31013e-18
9984.74526 4.32979e-18
9985.60672 4.34946e-18
9986.46818 4.37212e-18
9987.32965 4.39478e-18
9988.20112 4.42174e-18
9989.06259 4.44872e-18
9989.92405 4.47050e-18
9990.78551 4.49226e-18
9991.64697 4.49807e-18
9992.50843 4.50384e-18
9993.36990 4.50178e-18
9994.23136 4.49970e-18
9995.09282 4.50358e-18
9995.95428 4.50749e-18
9996.81574 4.51495e-18
9997.67721 4.52244e-18
9998.54869 4.52469e-18
9999.41015 4.52692e-18
