# wavelength flux
3473.89560 4.92810e-18
3475.36810 5.02668e-18
3476.84060 6.06099e-18
3478.30308 6.00130e-18
3479.77558 5.63287e-18
3481.24808 5.07283e-18
3482.72058 5.89567e-18
3484.18306 5.06278e-18
3485.65556 4.52672e-18
3487.12806 4.74280e-18
3488.60056 4.36961e-18
3490.06304 4.24350e-18
3491.53554 4.52242e-18
3493.00804 4.89672e-18
3494.47052 4.63859e-18
3495.94302 4.86742e-18
3497.41552 5.65850e-18
3498.88801 5.36899e-18
3500.35050 4.74914e-18
3501.82300 5.05155e-18
3503.29549 3.99902e-18
3504.76799 4.15701e-18
3506.23048 4.96594e-18
3507.70298 4.48165e-18
3509.17547 4.49732e-18
3510.64797 4.79558e-18
3512.11046 4.95876e-18
3513.58295 4.76498e-18
3515.05545 4.64652e-18
3516.52795 4.02813e-18
3517.99043 3.92587e-18
3519.46293 4.74384e-18
3520.93543 4.50647e-18
3522.40793 4.40910e-18
3523.87041 4.57533e-18
3525.34291 5.06476e-18
3526.81541 4.54999e-18
3528.28791 4.41468e-18
3529.75039 4.10024e-18
3531.22289 4.17996e-18
3532.69539 5.48384e-18
3534.16789 5.32444e-18
3535.63037 4.51430e-18
3537.10287 4.76451e-18
3538.57537 4.54004e-18
3540.04787 4.11704e-18
3541.51035 3.86517e-18
3542.98285 4.05546e-18
3544.45535 4.51177e-18
3545.92785 5.01371e-18
3547.39033 4.32254e-18
3548.86283 4.16711e-18
3550.33533 4.46168e-18
3551.80783 4.48710e-18
3553.27031 4.48285e-18
3554.74281 4.89591e-18
3556.21531 4.76829e-18
3557.68781 5.91808e-18
3559.15029 5.07021e-18
3560.62279 4.81766e-18
3562.09529 4.15859e-18
3563.56778 4.88272e-18
3565.03027 5.05453e-18
3566.50276 4.64773e-18
3567.97526 5.13950e-18
3569.44776 5.36867e-18
3570.91025 5.56814e-18
3572.38274 6.12170e-18
3573.85524 4.84775e-18
3575.32774 4.42177e-18
3576.79022 4.47673e-18
3578.26272 4.18691e-18
3579.73522 4.43470e-18
3581.20772 4.70293e-18
3582.67020 4.62509e-18
3584.14270 4.23592e-18
3585.61520 4.34108e-18
3587.07768 4.48734e-18
3588.55018 4.10802e-18
3590.02268 4.81785e-18
3591.49518 4.42922e-18
3592.95766 4.34733e-18
3594.43016 4.98074e-18
3595.90266 5.23666e-18
3597.37516 4.98268e-18
3598.83764 4.18048e-18
3600.31014 5.58089e-18
3601.78264 5.21159e-18
3603.25514 5.01936e-18
3604.71762 5.16033e-18
3606.19012 5.12725e-18
3607.66262 5.66393e-18
3609.13512 5.58992e-18
3610.59760 6.50046e-18
3612.07010 5.71893e-18
3613.54260 5.10451e-18
3615.01510 5.69144e-18
3616.47758 6.41439e-18
3617.95008 6.14351e-18
3619.42258 5.62352e-18
3620.89507 6.66610e-18
3622.35756 7.04185e-18
3623.83006 5.58995e-18
3625.30256 6.14635e-18
3626.77505 5.31440e-18
3628.23754 5.03499e-18
3629.71004 5.35287e-18
3631.18253 6.31089e-18
3632.65503 6.40936e-18
3634.11751 5.50796e-18
3635.59001 5.27087e-18
3637.06251 5.43531e-18
3638.53501 4.90772e-18
3639.99749 4.40819e-18
3641.46999 4.67740e-18
3642.94249 4.97293e-18
3644.41499 3.38267e-18
3645.87747 3.44155e-18
3647.34997 5.56658e-18
3648.82247 4.97584e-18
3650.29497 4.14936e-18
3651.75745 4.96582e-18
3653.22995 5.36744e-18
3654.70245 4.42587e-18
3656.17495 4.49395e-18
3657.63743 4.93044e-18
3659.10993 4.40591e-18
3660.58243 4.41556e-18
3662.05493 4.39235e-18
3663.51741 4.48767e-18
3664.98991 4.80342e-18
3666.46241 3.97508e-18
3667.93491 4.57745e-18
3669.39739 4.73217e-18
3670.86989 4.94946e-18
3672.34239 4.94092e-18
3673.81489 5.11373e-18
3675.27737 5.72306e-18
3676.74987 5.58610e-18
3678.22237 4.91478e-18
3679.69486 5.08994e-18
3681.15735 5.42526e-18
3682.62985 5.75977e-18
3684.10235 5.70356e-18
3685.56483 6.28546e-18
3687.03733 6.57661e-18
3688.50983 7.13481e-18
3689.98232 6.31928e-18
3691.44481 6.92807e-18
3692.91731 7.27228e-18
3694.38980 6.37692e-18
3695.86230 6.65047e-18
3697.32479 7.51912e-18
3698.79728 7.28857e-18
3700.26978 7.50104e-18
3701.74228 7.78470e-18
3703.20476 7.55960e-18
3704.67726 7.38177e-18
3706.14976 8.29494e-18
3707.62226 8.37453e-18
3709.08474 7.78582e-18
3710.55724 7.57844e-18
3712.02974 9.07088e-18
3713.50224 9.23299e-18
3714.96472 9.11652e-18
3716.43722 9.00011e-18
3717.90972 8.89141e-18
3719.38222 8.78275e-18
3720.84470 8.67410e-18
3722.31720 8.56547e-18
3723.78970 8.45688e-18
3725.26220 8.34828e-18
3726.72468 8.23973e-18
3728.19718 8.13119e-18
3729.66968 8.02267e-18
3731.14218 7.91419e-18
3732.60466 7.80572e-18
3734.07716 7.69728e-18
3735.54966 7.58885e-18
3737.02216 7.48044e-18
3738.48464 7.37205e-18
3739.95714 7.26368e-18
3741.42964 7.15535e-18
3742.90214 7.04702e-18
3744.36462 6.93872e-18
3745.83712 6.83045e-18
3747.30962 6.72219e-18
3748.78211 6.61397e-18
3750.24460 6.50573e-18
3751.71709 6.39753e-18
3753.18959 6.28937e-18
3754.66209 6.19695e-18
3756.12458 6.18886e-18
3757.59707 6.18017e-18
3759.06957 6.43781e-18
3760.54207 6.19889e-18
3762.00455 5.40475e-18
3763.47705 5.98937e-18
3764.94955 5.89616e-18
3766.42205 5.98824e-18
3767.88453 5.53646e-18
3769.35703 4.54893e-18
3770.82953 4.60351e-18
3772.30203 4.28943e-18
3773.76451 4.74429e-18
3775.23701 4.48771e-18
3776.70951 4.33272e-18
3778.18201 4.75570e-18
3779.64449 4.08406e-18
3781.11699 4.39552e-18
3782.58949 4.50929e-18
3784.05197 3.85521e-18
3785.52447 3.38594e-18
3786.99697 3.31859e-18
3788.46947 3.83105e-18
3789.93195 3.89491e-18
3791.40445 3.74614e-18
3792.87695 3.17426e-18
3794.34945 3.40188e-18
3795.81193 3.02584e-18
3797.28443 2.83643e-18
3798.75693 2.84449e-18
3800.22943 3.21744e-18
3801.69191 3.73292e-18
3803.16441 2.95030e-18
3804.63691 3.44291e-18
3806.10941 2.85411e-18
3807.57189 3.21400e-18
3809.04439 3.35805e-18
3810.51689 3.47297e-18
3811.98938 3.31149e-18
3813.45187 3.14578e-18
3814.92436 3.16037e-18
3816.39686 3.20634e-18
3817.86936 2.86073e-18
3819.33185 2.96133e-18
3820.80434 3.09129e-18
3822.27684 2.63047e-18
3823.74934 2.85316e-18
3825.21182 3.37703e-18
3826.68432 3.02714e-18
3828.15682 3.06678e-18
3829.62932 3.71443e-18
3831.09180 3.01309e-18
3832.56430 2.98591e-18
3834.03680 3.11003e-18
3835.50930 2.60174e-18
3836.97178 3.39452e-18
3838.44428 3.22654e-18
3839.91678 3.20755e-18
3841.38928 3.43164e-18
3842.85176 3.28799e-18
3844.32426 3.40405e-18
3845.79676 3.64383e-18
3847.26926 3.58920e-18
3848.73174 3.44166e-18
3850.20424 3.50325e-18
3851.67674 3.87837e-18
3853.14924 4.12566e-18
3854.61172 4.09162e-18
3856.08422 3.78184e-18
3857.55672 4.23397e-18
3859.02922 4.40289e-18
3860.49170 4.24019e-18
3861.96420 4.08109e-18
3863.43670 4.29462e-18
3864.90920 4.85678e-18
3866.37168 5.51291e-18
3867.84418 4.72823e-18
3869.31668 5.33459e-18
3870.77916 6.13682e-18
3872.25166 5.44399e-18
3873.72416 5.94042e-18
3875.19665 5.73552e-18
3876.65914 6.10729e-18
3878.13164 6.83511e-18
3879.60413 6.39729e-18
3881.07663 7.20040e-18
3882.53912 7.81200e-18
3884.01161 7.88143e-18
3885.48411 7.99126e-18
3886.95661 7.80245e-18
3888.41909 8.03138e-18
3889.89159 8.53185e-18
3891.36409 8.86255e-18
3892.83659 9.37564e-18
3894.29907 9.49549e-18
3895.77157 9.95074e-18
3897.24407 1.10522e-17
3898.71657 1.03478e-17
3900.17905 1.08940e-17
3901.65155 1.07598e-17
3903.12405 1.10773e-17
3904.59655 1.17134e-17
3906.05903 1.21689e-17
3907.53153 1.20537e-17
3909.00403 1.21428e-17
3910.47653 1.32463e-17
3911.93901 1.34479e-17
3913.41151 1.33353e-17
3914.88401 1.33582e-17
3916.35651 1.34624e-17
3917.81899 1.38507e-17
3919.29149 1.38328e-17
3920.76399 1.46142e-17
3922.23649 1.47746e-17
3923.69897 1.39514e-17
3925.17147 1.32596e-17
3926.64397 1.40580e-17
3928.11647 1.39067e-17
3929.57895 1.35492e-17
3931.05145 1.35299e-17
3932.52394 1.32125e-17
3933.99644 1.30743e-17
3935.45893 1.33195e-17
3936.93143 1.26696e-17
3938.40392 1.27988e-17
3939.87642 1.36370e-17
3941.33891 1.36640e-17
3942.81140 1.29686e-17
3944.28390 1.27566e-17
3945.75640 1.30843e-17
3947.21888 1.37208e-17
3948.69138 1.39840e-17
3950.16388 1.35559e-17
3951.63638 1.36142e-17
3953.09886 1.34821e-17
3954.57136 1.31796e-17
3956.04386 1.33307e-17
3957.51636 1.33110e-17
3958.97884 1.34705e-17
3960.45134 1.27556e-17
3961.92384 1.24412e-17
3963.39634 1.31738e-17
3964.85882 1.31295e-17
3966.33132 1.21887e-17
3967.80382 1.21709e-17
3969.26630 1.30313e-17
3970.73880 1.24740e-17
3972.21130 1.22457e-17
3973.68380 1.24215e-17
3975.14628 1.18202e-17
3976.61878 1.22962e-17
3978.09128 1.22758e-17
3979.56378 1.22657e-17
3981.02626 1.24692e-17
3982.49876 1.19516e-17
3983.97126 1.21789e-17
3985.44376 1.19064e-17
3986.90624 1.16816e-17
3988.37874 1.17077e-17
3989.85124 1.19653e-17
3991.32374 1.19453e-17
3992.78622 1.13156e-17
3994.25872 1.12969e-17
3995.73121 1.09713e-17
3997.20371 1.13142e-17
3998.66620 1.12977e-17
4000.13870 1.13231e-17
4001.61119 1.13235e-17
4003.08369 1.13776e-17
4004.54617 1.10073e-17
4006.01867 1.14539e-17
4007.49117 1.12587e-17
4008.96367 1.12090e-17
4010.42615 1.10367e-17
4011.89865 1.12130e-17
4013.37115 1.17713e-17
4014.84365 1.21072e-17
4016.30613 1.23017e-17
4017.77863 1.19465e-17
4019.25113 1.17675e-17
4020.72363 1.26500e-17
4022.18611 1.21169e-17
4023.65861 1.23397e-17
4025.13111 1.30209e-17
4026.60361 1.29023e-17
4028.06609 1.26434e-17
4029.53859 1.35671e-17
4031.01109 1.35642e-17
4032.48359 1.38554e-17
4033.94607 1.47052e-17
4035.41857 1.43459e-17
4036.89107 1.36090e-17
4038.36357 1.37586e-17
4039.82605 1.41781e-17
4041.29855 1.44660e-17
4042.77105 1.44093e-17
4044.24355 1.43910e-17
4045.70603 1.44894e-17
4047.17853 1.43654e-17
4048.65103 1.44748e-17
4050.12352 1.48598e-17
4051.58601 1.46803e-17
4053.05851 1.38990e-17
4054.53101 1.40896e-17
4056.00350 1.43749e-17
4057.46599 1.42357e-17
4058.93849 1.42109e-17
4060.41098 1.40983e-17
4061.88348 1.36601e-17
4063.34596 1.32081e-17
4064.81846 1.32120e-17
4066.29096 1.33518e-17
4067.75344 1.26572e-17
4069.22594 1.26044e-17
4070.69844 1.31202e-17
4072.17094 1.25994e-17
4073.63342 1.24384e-17
4075.10592 1.29060e-17
4076.57842 1.28887e-17
4078.05092 1.24787e-17
4079.51340 1.20053e-17
4080.98590 1.15449e-17
4082.45840 1.17140e-17
4083.93090 1.20395e-17
4085.39338 1.12414e-17
4086.86588 1.09400e-17
4088.33838 1.13652e-17
4089.81088 1.13659e-17
4091.27336 1.10138e-17
4092.74586 1.06710e-17
4094.21836 1.02857e-17
4095.69086 1.04459e-17
4097.15334 1.04345e-17
4098.62584 1.01696e-17
4100.09834 1.03320e-17
4101.57084 9.87004e-18
4103.03332 9.54415e-18
4104.50582 9.87278e-18
4105.97832 1.08208e-17
4107.45082 1.11663e-17
4108.91330 1.06673e-17
4110.38580 1.05938e-17
4111.85830 1.02816e-17
4113.33080 9.89425e-18
4114.79328 9.97505e-18
4116.26578 9.97609e-18
4117.73827 9.59614e-18
4119.21077 9.83169e-18
4120.67326 9.51017e-18
4122.14575 9.15446e-18
4123.61825 9.02024e-18
4125.09075 8.81068e-18
4126.55324 9.12336e-18
4128.02573 8.98853e-18
4129.49823 8.67540e-18
4130.97073 9.15685e-18
4132.43321 8.92912e-18
4133.90571 8.64988e-18
4135.37821 8.75994e-18
4136.85071 8.88480e-18
4138.31319 8.70231e-18
4139.78569 8.58725e-18
4141.25819 8.18124e-18
4142.73069 8.17761e-18
4144.19317 7.69560e-18
4145.66567 7.88528e-18
4147.13817 8.08161e-18
4148.61067 7.61950e-18
4150.07315 7.83388e-18
4151.54565 7.88360e-18
4153.01815 7.90865e-18
4154.49065 7.34965e-18
4155.95313 7.21684e-18
4157.42563 7.50132e-18
4158.89813 7.51547e-18
4160.37063 7.70824e-18
4161.83311 8.04890e-18
4163.30561 7.22103e-18
4164.77811 7.61413e-18
4166.24059 7.79697e-18
4167.71309 7.45309e-18
4169.18559 7.58575e-18
4170.65809 7.81879e-18
4172.12057 7.78838e-18
4173.59307 7.65237e-18
4175.06557 7.57061e-18
4176.53806 8.09153e-18
4178.00055 8.06002e-18
4179.47305 7.83185e-18
4180.94555 8.15998e-18
4182.41804 8.09083e-18
4183.88053 8.10423e-18
4185.35303 8.00985e-18
4186.82552 8.05253e-18
4188.29802 8.05082e-18
4189.76051 7.91325e-18
4191.23300 7.94248e-18
4192.70550 7.42638e-18
4194.17800 8.01134e-18
4195.64048 7.86536e-18
4197.11298 7.41192e-18
4198.58548 7.21013e-18
4200.05798 7.28133e-18
4201.52046 7.53885e-18
4202.99296 7.45109e-18
4204.46546 7.32078e-18
4205.93796 7.15293e-18
4207.40044 6.96525e-18
4208.87294 6.92518e-18
4210.34544 7.10757e-18
4211.81794 6.93153e-18
4213.28042 6.99455e-18
4214.75292 6.94122e-18
4216.22542 6.83886e-18
4217.69792 6.73669e-18
4219.16040 6.65721e-18
4220.63290 7.15153e-18
4222.10540 7.24606e-18
4223.57790 7.30801e-18
4225.04038 7.33836e-18
4226.51288 7.03304e-18
4227.98538 7.15253e-18
4229.45788 7.07570e-18
4230.92036 6.98168e-18
4232.39286 7.33337e-18
4233.86536 7.66328e-18
4235.33785 7.33620e-18
4236.80034 7.08816e-18
4238.27284 7.58319e-18
4239.74534 7.46833e-18
4241.21783 7.65213e-18
4242.68032 8.16597e-18
4244.15282 8.03972e-18
4245.62531 8.19223e-18
4247.09781 8.05562e-18
4248.56030 8.17722e-18
4250.03279 8.37812e-18
4251.50529 8.34842e-18
4252.96778 8.53630e-18
4254.44027 8.59941e-18
4255.91277 8.86750e-18
4257.38527 9.22382e-18
4258.84775 8.76461e-18
4260.32025 8.47199e-18
4261.79275 8.65408e-18
4263.26525 8.96679e-18
4264.72773 9.35616e-18
4266.20023 9.13319e-18
4267.67273 8.98558e-18
4269.14523 9.36934e-18
4270.60771 9.22415e-18
4272.08021 9.20602e-18
4273.55271 9.24884e-18
4275.02521 9.44467e-18
4276.48769 9.42734e-18
4277.96019 8.99709e-18
4279.43269 8.96917e-18
4280.90519 9.09575e-18
4282.36767 8.83110e-18
4283.84017 9.03555e-18
4285.31267 9.32645e-18
4286.78517 8.88255e-18
4288.24765 8.80659e-18
4289.72015 8.56680e-18
4291.19265 8.67497e-18
4292.66515 8.70403e-18
4294.12763 8.89277e-18
4295.60013 8.98493e-18
4297.07263 8.72990e-18
4298.54513 8.66957e-18
4300.00761 8.71639e-18
4301.48011 8.70362e-18
4302.95260 8.70112e-18
4304.42510 8.42644e-18
4305.88759 8.46843e-18
4307.36009 8.57889e-18
4308.83258 8.65675e-18
4310.30508 8.47987e-18
4311.76757 8.66414e-18
4313.24006 8.73733e-18
4314.71256 8.50605e-18
4316.18506 8.39611e-18
4317.64754 8.23596e-18
4319.12004 8.58539e-18
4320.59254 8.67018e-18
4322.06504 8.91748e-18
4323.52752 8.92300e-18
4325.00002 8.77956e-18
4326.47252 8.49570e-18
4327.94502 9.25084e-18
4329.40750 9.08070e-18
4330.88000 8.70773e-18
4332.35250 8.92303e-18
4333.82500 9.26483e-18
4335.28748 8.79731e-18
4336.75998 8.88641e-18
4338.23248 9.20138e-18
4339.70498 8.94860e-18
4341.16746 9.05546e-18
4342.63996 9.20879e-18
4344.11246 9.67328e-18
4345.58496 1.00230e-17
4347.04744 9.66780e-18
4348.51994 9.84706e-18
4349.99244 9.71893e-18
4351.45492 9.54570e-18
4352.92742 9.51259e-18
4354.39992 9.47949e-18
4355.87242 9.44640e-18
4357.33490 9.41329e-18
4358.80740 9.38021e-18
4360.27990 9.34712e-18
4361.75240 9.31404e-18
4363.21488 9.28096e-18
4364.68738 9.24790e-18
4366.15988 9.21482e-18
4367.63237 9.18176e-18
4369.09486 9.14869e-18
4370.56736 9.11564e-18
4372.03985 9.08259e-18
4373.51235 9.04953e-18
4374.97483 9.01650e-18
4376.44733 8.98345e-18
4377.91983 8.95043e-18
4379.39233 8.91739e-18
4380.85481 8.88435e-18
4382.32731 8.85134e-18
4383.79981 8.81831e-18
4385.27231 8.78531e-18
4386.73479 8.75229e-18
4388.20729 8.71929e-18
4389.67979 8.68628e-18
4391.15229 8.59416e-18
4392.61477 8.87557e-18
4394.08727 9.00258e-18
4395.55977 8.86406e-18
4397.03227 8.93815e-18
4398.49475 8.71548e-18
4399.96725 8.41384e-18
4401.43975 8.53935e-18
4402.91225 8.38035e-18
4404.37473 8.75645e-18
4405.84723 8.97137e-18
4407.31973 8.79991e-18
4408.79223 8.66752e-18
4410.25471 8.24195e-18
4411.72721 8.24449e-18
4413.19971 8.32252e-18
4414.67221 8.12561e-18
4416.13469 8.08023e-18
4417.60719 8.29973e-18
4419.07969 8.30246e-18
4420.55219 8.19886e-18
4422.01467 8.07532e-18
4423.48717 7.61110e-18
4424.95967 7.44512e-18
4426.43216 7.64328e-18
4427.89465 7.62112e-18
4429.36715 7.61817e-18
4430.83964 7.62707e-18
4432.31214 7.45305e-18
4433.77463 7.25153e-18
4435.24712 7.27154e-18
4436.71962 7.06988e-18
4438.18210 7.24744e-18
4439.65460 7.67239e-18
4441.12710 7.31728e-18
4442.59960 7.01273e-18
4444.07210 6.97139e-18
4445.53458 7.20871e-18
4447.00708 7.28071e-18
4448.47958 7.16259e-18
4449.95208 7.14162e-18
4451.41456 7.21590e-18
4452.88706 6.98282e-18
4454.35956 6.83311e-18
4455.82204 6.90624e-18
4457.29454 7.20718e-18
4458.76704 7.25086e-18
4460.23954 7.17260e-18
4461.70202 7.05672e-18
4463.17452 6.96650e-18
4464.64702 7.04148e-18
4466.11952 7.58651e-18
4467.58200 7.56389e-18
4469.05450 7.44281e-18
4470.52700 7.27693e-18
4471.99950 7.36144e-18
4473.46198 7.75160e-18
4474.93448 7.53539e-18
4476.40698 7.68362e-18
4477.87948 8.08980e-18
4479.34196 8.26726e-18
4480.81446 7.77532e-18
4482.28696 7.84104e-18
4483.75945 8.17837e-18
4485.22194 8.43859e-18
4486.69444 8.43184e-18
4488.16694 8.93975e-18
4489.63943 9.16893e-18
4491.10192 8.74969e-18
4492.57442 8.61844e-18
4494.04691 8.93635e-18
4495.51941 9.27255e-18
4496.98190 9.68245e-18
4498.45439 9.44545e-18
4499.92689 9.70692e-18
4501.39939 9.92362e-18
4502.86187 1.01517e-17
4504.33437 1.03992e-17
4505.80687 1.04105e-17
4507.27937 1.02476e-17
4508.74185 1.05277e-17
4510.21435 1.08295e-17
4511.68685 1.14948e-17
4513.15935 1.14747e-17
4514.62183 1.19400e-17
4516.09433 1.17852e-17
4517.56683 1.19107e-17
4519.03933 1.23845e-17
4520.50181 1.26211e-17
4521.97431 1.29504e-17
4523.44681 1.32126e-17
4524.91931 1.31360e-17
4526.38179 1.37012e-17
4527.85429 1.36246e-17
4529.32679 1.38615e-17
4530.79929 1.44399e-17
4532.26177 1.42268e-17
4533.73427 1.42545e-17
4535.20677 1.47323e-17
4536.67927 1.51332e-17
4538.14175 1.51349e-17
4539.61425 1.50868e-17
4541.08675 1.48930e-17
4542.54923 1.53991e-17
4544.02173 1.56654e-17
4545.49423 1.52020e-17
4546.96673 1.52947e-17
4548.42921 1.56693e-17
4549.90171 1.56634e-17
4551.37421 1.51632e-17
4552.84670 1.54403e-17
4554.30919 1.54666e-17
4555.78168 1.56372e-17
4557.25418 1.60813e-17
4558.72668 1.61395e-17
4560.18916 1.58885e-17
4561.66166 1.65138e-17
4563.13416 1.60774e-17
4564.60666 1.58578e-17
4566.06914 1.62382e-17
4567.54164 1.59581e-17
4569.01414 1.59411e-17
4570.48664 1.60684e-17
4571.94912 1.62179e-17
4573.42162 1.64689e-17
4574.89412 1.69626e-17
4576.36662 1.63962e-17
4577.82910 1.66483e-17
4579.30160 1.73381e-17
4580.77410 1.70683e-17
4582.24660 1.72559e-17
4583.70908 1.70480e-17
4585.18158 1.71632e-17
4586.65408 1.72685e-17
4588.12658 1.72683e-17
4589.58906 1.70608e-17
4591.06156 1.70966e-17
4592.53406 1.71774e-17
4594.00656 1.73622e-17
4595.46904 1.72814e-17
4596.94154 1.71413e-17
4598.41404 1.67792e-17
4599.88654 1.71061e-17
4601.34902 1.68949e-17
4602.82152 1.67572e-17
4604.29402 1.73490e-17
4605.76652 1.68981e-17
4607.22900 1.66558e-17
4608.70150 1.71235e-17
4610.17400 1.72066e-17
4611.64649 1.73546e-17
4613.10898 1.73123e-17
4614.58147 1.70751e-17
4616.05397 1.70921e-17
4617.52647 1.71377e-17
4618.98895 1.72833e-17
4620.46145 1.75506e-17
4621.93395 1.77952e-17
4623.40645 1.79601e-17
4624.86893 1.74373e-17
4626.34143 1.74662e-17
4627.81393 1.76840e-17
4629.27641 1.79747e-17
4630.74891 1.80867e-17
4632.22141 1.79945e-17
4633.69391 1.77813e-17
4635.15639 1.77652e-17
4636.62889 1.77238e-17
4638.10139 1.78549e-17
4639.57389 1.75315e-17
4641.04639 1.79034e-17
4642.50887 1.72558e-17
4643.98137 1.67860e-17
4645.45387 1.74632e-17
4646.91635 1.67613e-17
4648.38885 1.70472e-17
4649.86135 1.71279e-17
4651.33385 1.69963e-17
4652.79633 1.69396e-17
4654.26883 1.69273e-17
4655.74133 1.64867e-17
4657.21383 1.67167e-17
4658.67631 1.66557e-17
4660.14881 1.63499e-17
4661.62131 1.63094e-17
4663.09381 1.59005e-17
4664.55629 1.53761e-17
4666.02879 1.53003e-17
4667.50129 1.57004e-17
4668.97379 1.56207e-17
4670.43627 1.54705e-17
4671.90877 1.54547e-17
4673.38126 1.50328e-17
4674.85376 1.52038e-17
4676.31625 1.50245e-17
4677.78875 1.52080e-17
4679.26124 1.49972e-17
4680.73374 1.47502e-17
4682.19623 1.48144e-17
4683.66872 1.49159e-17
4685.14122 1.50073e-17
4686.61372 1.48441e-17
4688.07620 1.46989e-17
4689.54870 1.46277e-17
4691.02120 1.45530e-17
4692.49370 1.42465e-17
4693.95618 1.39832e-17
4695.42868 1.37367e-17
4696.90118 1.31894e-17
4698.37368 1.32019e-17
4699.83616 1.30138e-17
4701.30866 1.26533e-17
4702.78116 1.24679e-17
4704.25366 1.22899e-17
4705.71614 1.19285e-17
4707.18864 1.19103e-17
4708.66114 1.21051e-17
4710.13364 1.19238e-17
4711.59612 1.16375e-17
4713.06862 1.15723e-17
4714.54112 1.17348e-17
4716.01362 1.19013e-17
4717.47610 1.18679e-17
4718.94860 1.17791e-17
4720.42110 1.18927e-17
4721.89360 1.18872e-17
4723.35608 1.19725e-17
4724.82858 1.21211e-17
4726.30108 1.20304e-17
4727.77358 1.14830e-17
4729.23606 1.16871e-17
4730.70856 1.21658e-17
4732.18106 1.21642e-17
4733.64354 1.22790e-17
4735.11604 1.21171e-17
4736.58854 1.19745e-17
4738.06103 1.19527e-17
4739.52352 1.18122e-17
4740.99601 1.18167e-17
4742.46851 1.19924e-17
4743.94101 1.22201e-17
4745.40350 1.22269e-17
4746.87599 1.19592e-17
4748.34849 1.20874e-17
4749.82099 1.21105e-17
4751.28347 1.24067e-17
4752.75597 1.21066e-17
4754.22847 1.20517e-17
4755.70097 1.23605e-17
4757.16345 1.20743e-17
4758.63595 1.18684e-17
4760.10845 1.18464e-17
4761.58095 1.20164e-17
4763.04343 1.22250e-17
4764.51593 1.19044e-17
4765.98843 1.19738e-17
4767.46093 1.19694e-17
4768.92341 1.17692e-17
4770.39591 1.17341e-17
4771.86841 1.21461e-17
4773.34091 1.21085e-17
4774.80339 1.16708e-17
4776.27589 1.15203e-17
4777.74839 1.17567e-17
4779.22089 1.15929e-17
4780.68337 1.17075e-17
4782.15587 1.12831e-17
4783.62837 1.14060e-17
4785.10087 1.14973e-17
4786.56335 1.16166e-17
4788.03585 1.11959e-17
4789.50835 1.10420e-17
4790.98085 1.10321e-17
4792.44333 1.10245e-17
4793.91583 1.11863e-17
4795.38832 1.10772e-17
4796.86082 1.07135e-17
4798.32331 1.07795e-17
4799.79580 1.07552e-17
4801.26830 1.04806e-17
4802.74080 1.02688e-17
4804.20329 1.00817e-17
4805.67578 1.03575e-17
4807.14828 9.90474e-18
4808.62078 9.49729e-18
4810.08326 9.58704e-18
4811.55576 9.60355e-18
4813.02826 9.18415e-18
4814.50076 8.96077e-18
4815.96324 8.88363e-18
4817.43574 8.82024e-18
4818.90824 8.84556e-18
4820.38074 8.93894e-18
4821.84322 8.47240e-18
4823.31572 8.54082e-18
4824.78822 8.47464e-18
4826.25070 8.57359e-18
4827.72320 8.68804e-18
4829.19570 8.45934e-18
4830.66820 8.81615e-18
4832.13068 8.86225e-18
4833.60318 8.82602e-18
4835.07568 8.95349e-18
4836.54818 9.08602e-18
4838.01066 8.89626e-18
4839.48316 8.85556e-18
4840.95566 9.31397e-18
4842.42816 9.48861e-18
4843.89064 9.47600e-18
4845.36314 9.62424e-18
4846.83564 9.62134e-18
4848.30814 9.71280e-18
4849.77062 1.00901e-17
4851.24312 1.01606e-17
4852.71562 1.02529e-17
4854.18811 1.03453e-17
4855.65060 1.04376e-17
4857.12310 1.05299e-17
4858.59560 1.06222e-17
4860.06809 1.07144e-17
4861.53058 1.08067e-17
4863.00308 1.08989e-17
4864.47557 1.09911e-17
4865.94807 1.10833e-17
4867.41055 1.11755e-17
4868.88305 1.12677e-17
4870.35555 1.13598e-17
4871.82805 1.14520e-17
4873.29053 1.15441e-17
4874.76303 1.16362e-17
4876.23553 1.17283e-17
4877.70803 1.18204e-17
4879.17051 1.19125e-17
4880.64301 1.20045e-17
4882.11551 1.20965e-17
4883.58801 1.21886e-17
4885.05049 1.22806e-17
4886.52299 1.23726e-17
4887.99549 1.24646e-17
4889.46799 1.26388e-17
4890.93047 1.26223e-17
4892.40297 1.22902e-17
4893.87547 1.20531e-17
4895.34797 1.20996e-17
4896.81045 1.19795e-17
4898.28295 1.14772e-17
4899.75545 1.09894e-17
4901.22795 1.09748e-17
4902.69043 1.08461e-17
4904.16293 1.06523e-17
4905.63543 1.03220e-17
4907.10793 1.00839e-17
4908.57041 1.01720e-17
4910.04291 9.92473e-18
4911.51541 9.88881e-18
4912.98790 9.73082e-18
4914.45039 9.73726e-18
4915.92289 9.46432e-18
4917.39539 9.29379e-18
4918.85787 9.42774e-18
4920.33037 9.14496e-18
4921.80286 8.93207e-18
4923.27536 9.30176e-18
4924.73785 9.40134e-18
4926.21035 8.95611e-18
4927.68284 9.19921e-18
4929.15534 9.37685e-18
4930.61783 9.68110e-18
4932.09032 9.77138e-18
4933.56282 9.50553e-18
4935.03532 9.70404e-18
4936.49780 9.96631e-18
4937.97030 1.00203e-17
4939.44280 9.89892e-18
4940.91530 1.03232e-17
4942.37778 1.08522e-17
4943.85028 1.07256e-17
4945.32278 1.05845e-17
4946.79528 1.08640e-17
4948.25776 1.09747e-17
4949.73026 1.11229e-17
4951.20276 1.12710e-17
4952.67526 1.14191e-17
4954.13774 1.15671e-17
4955.61024 1.17152e-17
4957.08274 1.18632e-17
4958.55524 1.20112e-17
4960.01772 1.21592e-17
4961.49022 1.23071e-17
4962.96272 1.24550e-17
4964.43522 1.26030e-17
4965.89770 1.27508e-17
4967.37020 1.28987e-17
4968.84270 1.30465e-17
4970.31520 1.31943e-17
4971.77768 1.33421e-17
4973.25018 1.34899e-17
4974.72268 1.36376e-17
4976.19517 1.37853e-17
4977.65766 1.39330e-17
4979.13016 1.40807e-17
4980.60265 1.42283e-17
4982.07515 1.43760e-17
4983.53764 1.45235e-17
4985.01014 1.46711e-17
4986.48263 1.48186e-17
4987.95513 1.49165e-17
4989.41762 1.49629e-17
4990.89011 1.54059e-17
4992.36261 1.56988e-17
4993.83511 1.54401e-17
4995.29759 1.53793e-17
4996.77009 1.50009e-17
4998.24259 1.48361e-17
4999.71509 1.46712e-17
5001.17757 1.45063e-17
5002.65007 1.43415e-17
5004.12257 1.41767e-17
5005.59507 1.40119e-17
5007.05755 1.38472e-17
5008.53005 1.36824e-17
5010.00255 1.35178e-17
5011.47505 1.33531e-17
5012.93753 1.31885e-17
5014.41003 1.30239e-17
5015.88253 1.28593e-17
5017.34501 1.26947e-17
5018.81751 1.25301e-17
5020.29001 1.23657e-17
5021.76251 1.22012e-17
5023.22499 1.20368e-17
5024.69749 1.18723e-17
5026.16999 1.17079e-17
5027.64249 1.15436e-17
5029.10497 1.13793e-17
5030.57747 1.12149e-17
5032.04997 1.10506e-17
5033.52247 1.08863e-17
5034.98495 1.07017e-17
5036.45745 1.04245e-17
5037.92995 1.02396e-17
5039.40245 1.01779e-17
5040.86493 9.96931e-18
5042.33743 9.52345e-18
5043.80993 9.13524e-18
5045.28242 9.20489e-18
5046.74491 9.12642e-18
5048.21740 8.87274e-18
5049.68990 8.96751e-18
5051.16240 8.67974e-18
5052.62489 8.50079e-18
5054.09738 8.34544e-18
5055.56988 8.06903e-18
5057.04238 7.90551e-18
5058.50486 7.68525e-18
5059.97736 7.61081e-18
5061.44986 7.38283e-18
5062.92236 7.46000e-18
5064.38484 7.59885e-18
5065.85734 7.44207e-18
5067.32984 7.33670e-18
5068.80234 7.59131e-18
5070.26482 7.69957e-18
5071.73732 7.61878e-18
5073.20982 7.68585e-18
5074.68232 7.57958e-18
5076.14480 7.61732e-18
5077.61730 7.88181e-18
5079.08980 7.86216e-18
5080.56230 7.96982e-18
5082.02478 8.38936e-18
5083.49728 8.41658e-18
5084.96978 8.15786e-18
5086.44228 8.22501e-18
5087.90476 8.79124e-18
5089.37726 8.96727e-18
5090.84976 9.03915e-18
5092.32226 9.32621e-18
5093.78474 9.33500e-18
5095.25724 9.45494e-18
5096.72974 9.87775e-18
5098.20224 9.85906e-18
5099.66472 9.94228e-18
5101.13722 1.03440e-17
5102.60971 1.04354e-17
5104.08221 1.04157e-17
5105.54470 1.06540e-17
5107.01720 1.09349e-17
5108.48969 1.09642e-17
5109.95218 1.12393e-17
5111.42468 1.17448e-17
5112.89717 1.18049e-17
5114.36967 1.17601e-17
5115.84217 1.18023e-17
5117.30465 1.15369e-17
5118.77715 1.17284e-17
5120.24965 1.23623e-17
5121.71213 1.19945e-17
5123.18463 1.22093e-17
5124.65713 1.23012e-17
5126.12963 1.24496e-17
5127.59211 1.24618e-17
5129.06461 1.29283e-17
5130.53711 1.31282e-17
5132.00961 1.29645e-17
5133.47209 1.37419e-17
5134.94459 1.32897e-17
5136.41709 1.34212e-17
5137.88959 1.32480e-17
5139.35207 1.32530e-17
5140.82457 1.33664e-17
5142.29707 1.36411e-17
5143.76957 1.35131e-17
5145.23205 1.32719e-17
5146.70455 1.33594e-17
5148.17705 1.32427e-17
5149.64955 1.36194e-17
5151.11203 1.37222e-17
5152.58453 1.34586e-17
5154.05703 1.31531e-17
5155.52953 1.35904e-17
5156.99201 1.34988e-17
5158.46451 1.34889e-17
5159.93701 1.38684e-17
5161.40950 1.33900e-17
5162.87199 1.33739e-17
5164.34449 1.36357e-17
5165.81699 1.38431e-17
5167.28948 1.36334e-17
5168.75197 1.38055e-17
5170.22447 1.40045e-17
5171.69696 1.39543e-17
5173.16946 1.37271e-17
5174.63195 1.39027e-17
5176.10444 1.39752e-17
5177.57694 1.44216e-17
5179.04944 1.39704e-17
5180.51192 1.39212e-17
5181.98442 1.39343e-17
5183.45692 1.41578e-17
5184.92942 1.41502e-17
5186.39190 1.41697e-17
5187.86440 1.41725e-17
5189.33690 1.40730e-17
5190.80940 1.39930e-17
5192.27188 1.41691e-17
5193.74438 1.39963e-17
5195.21688 1.37306e-17
5196.68938 1.34853e-17
5198.15186 1.38202e-17
5199.62436 1.37150e-17
5201.09686 1.36613e-17
5202.56936 1.41468e-17
5204.03184 1.40193e-17
5205.50434 1.41376e-17
5206.97684 1.40203e-17
5208.43932 1.42011e-17
5209.91182 1.41350e-17
5211.38432 1.42097e-17
5212.85682 1.41033e-17
5214.31930 1.38526e-17
5215.79180 1.39236e-17
5217.26430 1.42147e-17
5218.73680 1.41039e-17
5220.19928 1.42885e-17
5221.67178 1.42437e-17
5223.14428 1.43895e-17
5224.61678 1.44526e-17
5226.07926 1.42153e-17
5227.55176 1.39895e-17
5229.02426 1.41702e-17
5230.49675 1.39918e-17
5231.95924 1.40702e-17
5233.43174 1.41786e-17
5234.90423 1.41161e-17
5236.37673 1.42636e-17
5237.83921 1.41945e-17
5239.31171 1.40992e-17
5240.78421 1.39629e-17
5242.25671 1.40199e-17
5243.71919 1.41865e-17
5245.19169 1.40259e-17
5246.66419 1.40623e-17
5248.13669 1.45739e-17
5249.59917 1.47031e-17
5251.07167 1.47399e-17
5252.54417 1.48422e-17
5254.01667 1.49373e-17
5255.47915 1.52262e-17
5256.95165 1.52891e-17
5258.42415 1.50888e-17
5259.89665 1.52722e-17
5261.35913 1.52655e-17
5262.83163 1.52734e-17
5264.30413 1.56054e-17
5265.77663 1.54526e-17
5267.23911 1.53844e-17
5268.71161 1.54551e-17
5270.18411 1.56238e-17
5271.65661 1.54335e-17
5273.11909 1.59639e-17
5274.59159 1.61821e-17
5276.06409 1.59787e-17
5277.53659 1.60992e-17
5278.99907 1.61518e-17
5280.47157 1.60940e-17
5281.94407 1.63340e-17
5283.41657 1.65962e-17
5284.87905 1.64594e-17
5286.35155 1.64089e-17
5287.82405 1.67374e-17
5289.29654 1.64037e-17
5290.75903 1.59747e-17
5292.23153 1.63247e-17
5293.70402 1.61044e-17
5295.17652 1.60959e-17
5296.63900 1.61645e-17
5298.11150 1.59318e-17
5299.58400 1.59312e-17
5301.04649 1.61134e-17
5302.51898 1.63144e-17
5303.99148 1.60318e-17
5305.46398 1.62584e-17
5306.92646 1.64943e-17
5308.39896 1.60978e-17
5309.87146 1.60032e-17
5311.34396 1.62725e-17
5312.80644 1.64676e-17
5314.27894 1.63256e-17
5315.75144 1.61758e-17
5317.22394 1.61214e-17
5318.68642 1.62681e-17
5320.15892 1.62634e-17
5321.63142 1.63779e-17
5323.10392 1.66493e-17
5324.56640 1.67257e-17
5326.03890 1.65097e-17
5327.51140 1.65355e-17
5328.98390 1.66597e-17
5330.44638 1.66284e-17
5331.91888 1.66828e-17
5333.39138 1.63902e-17
5334.86388 1.66984e-17
5336.32636 1.66715e-17
5337.79886 1.62215e-17
5339.27136 1.62759e-17
5340.74386 1.65699e-17
5342.20634 1.67700e-17
5343.67884 1.65177e-17
5345.15134 1.64351e-17
5346.62384 1.62293e-17
5348.08632 1.61191e-17
5349.55882 1.62267e-17
5351.03132 1.63578e-17
5352.50381 1.64688e-17
5353.96630 1.66469e-17
5355.43880 1.67752e-17
5356.91129 1.67159e-17
5358.38379 1.68541e-17
5359.84627 1.64970e-17
5361.31877 1.64980e-17
5362.79127 1.66540e-17
5364.26377 1.65834e-17
5365.72625 1.67158e-17
5367.19875 1.67466e-17
5368.67125 1.68949e-17
5370.14375 1.70363e-17
5371.60623 1.73778e-17
5373.07873 1.72404e-17
5374.55123 1.69442e-17
5376.02373 1.70419e-17
5377.48621 1.71665e-17
5378.95871 1.72635e-17
5380.43121 1.74915e-17
5381.90371 1.73645e-17
5383.36619 1.73232e-17
5384.83869 1.79622e-17
5386.31119 1.81162e-17
5387.78369 1.76880e-17
5389.24617 1.78845e-17
5390.71867 1.81822e-17
5392.19117 1.75045e-17
5393.65365 1.72993e-17
5395.12615 1.76335e-17
5396.59865 1.76948e-17
5398.07115 1.71851e-17
5399.54365 1.72745e-17
5401.00613 1.72291e-17
5402.47863 1.68386e-17
5403.95113 1.69466e-17
5405.41361 1.69888e-17
5406.88611 1.66527e-17
5408.35861 1.68294e-17
5409.83111 1.64866e-17
5411.29359 1.62574e-17
5412.76609 1.62763e-17
5414.23859 1.63199e-17
5415.71108 1.60941e-17
5417.17357 1.60109e-17
5418.64606 1.57320e-17
5420.11856 1.51456e-17
5421.59106 1.48769e-17
5423.05355 1.50844e-17
5424.52604 1.51618e-17
5425.99854 1.49110e-17
5427.47104 1.48906e-17
5428.93352 1.48300e-17
5430.40602 1.45096e-17
5431.87852 1.42635e-17
5433.35102 1.41256e-17
5434.81350 1.40100e-17
5436.28600 1.38255e-17
5437.75850 1.38049e-17
5439.23100 1.39286e-17
5440.69348 1.36428e-17
5442.16598 1.34944e-17
5443.63848 1.34170e-17
5445.11098 1.32586e-17
5446.57346 1.31717e-17
5448.04596 1.32647e-17
5449.51846 1.35515e-17
5450.99096 1.33657e-17
5452.45344 1.32759e-17
5453.92594 1.33135e-17
5455.39844 1.34286e-17
5456.87094 1.34621e-17
5458.33342 1.34326e-17
5459.80592 1.36845e-17
5461.27842 1.38941e-17
5462.75092 1.38513e-17
5464.21340 1.42645e-17
5465.68590 1.45424e-17
5467.15840 1.45700e-17
5468.63090 1.48714e-17
5470.09338 1.52036e-17
5471.56588 1.51835e-17
5473.03838 1.56109e-17
5474.51087 1.61217e-17
5475.97336 1.59298e-17
5477.44585 1.62359e-17
5478.91835 1.65594e-17
5480.38084 1.67671e-17
5481.85334 1.68729e-17
5483.32583 1.68637e-17
5484.79833 1.73494e-17
5486.27083 1.76883e-17
5487.73331 1.77443e-17
5489.20581 1.81417e-17
5490.67831 1.82206e-17
5492.15081 1.87313e-17
5493.61329 1.90662e-17
5495.08579 1.92012e-17
5496.55829 1.96698e-17
5498.02077 1.96991e-17
5499.49327 1.98456e-17
5500.96577 2.02328e-17
5502.43827 2.06302e-17
5503.90075 2.12279e-17
5505.37325 2.18144e-17
5506.84575 2.17043e-17
5508.31825 2.16201e-17
5509.78073 2.17545e-17
5511.25323 2.18133e-17
5512.72573 2.19931e-17
5514.19823 2.16935e-17
5515.66071 2.17758e-17
5517.13321 2.15517e-17
5518.60571 2.16868e-17
5520.07821 2.14337e-17
5521.54069 2.14476e-17
5523.01319 2.15498e-17
5524.48569 2.13237e-17
5525.95819 2.12461e-17
5527.42067 2.12126e-17
5528.89317 2.08136e-17
5530.36567 2.06083e-17
5531.83817 2.05869e-17
5533.30065 2.03607e-17
5534.77315 2.00201e-17
5536.24565 1.98894e-17
5537.71814 2.00254e-17
5539.18063 2.00215e-17
5540.65312 1.95767e-17
5542.12562 1.94840e-17
5543.59812 1.93326e-17
5545.06060 1.92977e-17
5546.53310 1.89108e-17
5548.00560 1.88740e-17
5549.47810 1.87030e-17
5550.94058 1.83183e-17
5552.41308 1.85403e-17
5553.88558 1.83888e-17
5555.35808 1.74451e-17
5556.82056 1.72989e-17
5558.29306 1.69962e-17
5559.76556 1.67092e-17
5561.23806 1.62486e-17
5562.70054 1.59986e-17
5564.17304 1.58852e-17
5565.64554 1.55494e-17
5567.11804 1.53040e-17
5568.58052 1.46331e-17
5570.05302 1.47108e-17
5571.52552 1.45662e-17
5572.99802 1.39153e-17
5574.46050 1.36710e-17
5575.93300 1.37363e-17
5577.40550 1.37074e-17
5578.87800 1.34416e-17
5580.34048 1.34073e-17
5581.81298 1.31416e-17
5583.28548 1.30077e-17
5584.74796 1.30391e-17
5586.22046 1.27181e-17
5587.69296 1.23181e-17
5589.16546 1.21226e-17
5590.62794 1.23721e-17
5592.10044 1.26541e-17
5593.57294 1.25645e-17
5595.04543 1.25228e-17
5596.50792 1.27457e-17
5597.98042 1.28880e-17
5599.45291 1.30639e-17
5600.92541 1.30664e-17
5602.38790 1.32202e-17
5603.86040 1.29299e-17
5605.33289 1.27348e-17
5606.80539 1.29338e-17
5608.26788 1.29208e-17
5609.74037 1.30929e-17
5611.21287 1.31711e-17
5612.68537 1.31783e-17
5614.14785 1.32906e-17
5615.62035 1.32217e-17
5617.09285 1.32199e-17
5618.56535 1.33058e-17
5620.02783 1.33024e-17
5621.50033 1.35270e-17
5622.97283 1.35465e-17
5624.44533 1.36841e-17
5625.90781 1.38879e-17
5627.38031 1.36045e-17
5628.85281 1.38429e-17
5630.32531 1.41246e-17
5631.78779 1.39233e-17
5633.26029 1.39224e-17
5634.73279 1.38823e-17
5636.20529 1.40728e-17
5637.66777 1.42464e-17
5639.14027 1.40275e-17
5640.61277 1.37603e-17
5642.08527 1.36119e-17
5643.54775 1.36100e-17
5645.02025 1.34491e-17
5646.49275 1.36640e-17
5647.96525 1.36476e-17
5649.42773 1.35089e-17
5650.90023 1.37026e-17
5652.37273 1.36901e-17
5653.84523 1.35639e-17
5655.30771 1.32325e-17
5656.78021 1.31625e-17
5658.25270 1.30600e-17
5659.72520 1.29195e-17
5661.18769 1.28856e-17
5662.66019 1.25765e-17
5664.13268 1.25460e-17
5665.60518 1.23079e-17
5667.06766 1.20242e-17
5668.54016 1.19431e-17
5670.01266 1.18789e-17
5671.47515 1.13803e-17
5672.94764 1.14335e-17
5674.42014 1.13741e-17
5675.89264 1.09677e-17
5677.35512 1.04005e-17
5678.82762 1.03093e-17
5680.30012 1.01207e-17
5681.77262 9.64296e-18
5683.24512 9.26688e-18
5684.70760 9.12120e-18
5686.18010 8.99426e-18
5687.65260 8.68425e-18
5689.11508 8.18682e-18
5690.58758 8.15217e-18
5692.06008 8.14799e-18
5693.53258 7.98821e-18
5694.99506 7.52031e-18
5696.46756 7.08366e-18
5697.94006 7.02477e-18
5699.41256 7.00108e-18
5700.87504 6.85937e-18
5702.34754 6.58482e-18
5703.82004 6.10805e-18
5705.29254 5.81802e-18
5706.75502 5.53382e-18
5708.22752 5.50776e-18
5709.70002 5.47998e-18
5711.17252 5.31506e-18
5712.63500 5.00942e-18
5714.10750 4.92926e-18
5715.58000 5.04040e-18
5717.05250 4.62608e-18
5718.51498 4.46083e-18
5719.98748 4.38824e-18
5721.45997 4.49218e-18
5722.93247 4.48815e-18
5724.39496 4.29857e-18
5725.86745 4.27033e-18
5727.33995 4.26526e-18
5728.81245 4.16879e-18
5730.27494 3.94400e-18
5731.74743 3.79911e-18
5733.21993 3.92290e-18
5734.69243 3.95547e-18
5736.15491 3.80442e-18
5737.62741 3.72677e-18
5739.09991 3.88270e-18
5740.57241 4.03502e-18
5742.03489 3.91689e-18
5743.50739 3.86874e-18
5744.97989 3.79010e-18
5746.45239 3.72951e-18
5747.91487 3.96608e-18
5749.38737 4.21408e-18
5750.85987 4.23771e-18
5752.33237 4.17074e-18
5753.79485 4.25617e-18
5755.26735 4.09816e-18
5756.73985 4.18263e-18
5758.21235 4.47283e-18
5759.67483 4.38728e-18
5761.14733 4.37944e-18
5762.61983 4.72916e-18
5764.09233 4.73816e-18
5765.55481 4.67248e-18
5767.02731 4.69416e-18
5768.49981 4.74991e-18
5769.97231 4.89229e-18
5771.43479 5.13221e-18
5772.90729 4.96818e-18
5774.37979 4.91749e-18
5775.84227 5.16225e-18
5777.31477 5.29944e-18
5778.78727 5.50596e-18
5780.25976 5.53852e-18
5781.72225 5.68990e-18
5783.19475 5.76008e-18
5784.66725 5.72617e-18
5786.13974 5.98486e-18
5787.60223 6.00608e-18
5789.07473 6.15897e-18
5790.54722 6.24027e-18
5792.01972 6.39635e-18
5793.48221 6.63965e-18
5794.95470 6.54849e-18
5796.42720 6.66218e-18
5797.89970 6.77992e-18
5799.36218 7.02234e-18
5800.83468 7.33812e-18
5802.30718 7.51531e-18
5803.77968 7.66789e-18
5805.24216 7.89919e-18
5806.71466 7.93031e-18
5808.18716 7.94092e-18
5809.65966 8.58525e-18
5811.12214 8.94394e-18
5812.59464 8.90433e-18
5814.06714 9.15104e-18
5815.53964 9.25502e-18
5817.00212 9.55558e-18
5818.47462 9.89392e-18
5819.94712 1.01172e-17
5821.41962 1.03627e-17
5822.88210 1.07956e-17
5824.35460 1.09808e-17
5825.82710 1.10768e-17
5827.29960 1.14747e-17
5828.76208 1.17141e-17
5830.23458 1.18044e-17
5831.70708 1.21569e-17
5833.17958 1.25339e-17
5834.64206 1.26077e-17
5836.11456 1.26170e-17
5837.58706 1.26094e-17
5839.05955 1.25522e-17
5840.52204 1.31031e-17
5841.99454 1.35868e-17
5843.46704 1.35126e-17
5844.93953 1.34540e-17
5846.40202 1.36423e-17
5847.87452 1.40751e-17
5849.34701 1.42921e-17
5850.81951 1.41894e-17
5852.28200 1.43731e-17
5853.75449 1.46165e-17
5855.22699 1.45324e-17
5856.69949 1.46731e-17
5858.16197 1.50561e-17
5859.63447 1.51377e-17
5861.10697 1.49417e-17
5862.56945 1.51459e-17
5864.04195 1.54721e-17
5865.51445 1.55314e-17
5866.98695 1.55729e-17
5868.45945 1.58443e-17
5869.92193 1.61817e-17
5871.39443 1.63880e-17
5872.86693 1.62705e-17
5874.32941 1.59863e-17
5875.80191 1.61580e-17
5877.27441 1.63599e-17
5878.74691 1.62180e-17
5880.20939 1.66186e-17
5881.68189 1.67946e-17
5883.15439 1.66739e-17
5884.62689 1.65743e-17
5886.08937 1.65188e-17
5887.56187 1.59088e-17
5889.03437 1.55376e-17
5890.50687 1.55472e-17
5891.96935 1.58683e-17
5893.44185 1.64079e-17
5894.91435 1.61531e-17
5896.38685 1.58297e-17
5897.84933 1.56984e-17
5899.32183 1.58235e-17
5900.79433 1.59828e-17
5902.26683 1.60859e-17
5903.72931 1.60863e-17
5905.20181 1.62583e-17
5906.67430 1.61379e-17
5908.14680 1.62952e-17
5909.60929 1.67886e-17
5911.08179 1.71011e-17
5912.55428 1.66367e-17
5914.02678 1.63400e-17
5915.48927 1.61225e-17
5916.96176 1.60950e-17
5918.43426 1.63669e-17
5919.90676 1.62721e-17
5921.36924 1.61625e-17
5922.84174 1.63642e-17
5924.31424 1.62181e-17
5925.78674 1.63741e-17
5927.24922 1.64055e-17
5928.72172 1.60921e-17
5930.19422 1.61484e-17
5931.66672 1.62044e-17
5933.12920 1.60729e-17
5934.60170 1.62163e-17
5936.07420 1.63152e-17
5937.54670 1.62280e-17
5939.00918 1.61860e-17
5940.48168 1.62076e-17
5941.95418 1.61548e-17
5943.42668 1.58095e-17
5944.88916 1.57796e-17
5946.36166 1.58696e-17
5947.83416 1.57548e-17
5949.30666 1.54469e-17
5950.76914 1.57353e-17
5952.24164 1.59861e-17
5953.71414 1.58786e-17
5955.18664 1.59203e-17
5956.64912 1.56078e-17
5958.12162 1.56634e-17
5959.59412 1.57644e-17
5961.06661 1.59200e-17
5962.52910 1.60143e-17
5964.00160 1.57116e-17
5965.47410 1.59137e-17
5966.93658 1.58742e-17
5968.40908 1.55384e-17
5969.88158 1.54282e-17
5971.35407 1.56755e-17
5972.81656 1.54758e-17
5974.28906 1.55886e-17
5975.76155 1.57272e-17
5977.23405 1.55109e-17
5978.69654 1.53974e-17
5980.16903 1.55820e-17
5981.64153 1.56867e-17
5983.11403 1.57640e-17
5984.57651 1.53826e-17
5986.04901 1.51074e-17
5987.52151 1.53521e-17
5988.99401 1.53459e-17
5990.45649 1.54514e-17
5991.92899 1.56229e-17
5993.40149 1.54710e-17
5994.87399 1.53454e-17
5996.33647 1.51074e-17
5997.80897 1.53254e-17
5999.28147 1.51455e-17
6000.75397 1.47920e-17
6002.21645 1.49836e-17
6003.68895 1.50086e-17
6005.16145 1.47915e-17
6006.63395 1.46693e-17
6008.09643 1.45762e-17
6009.56893 1.47576e-17
6011.04143 1.45926e-17
6012.51393 1.44052e-17
6013.97641 1.42358e-17
6015.44891 1.42691e-17
6016.92141 1.41889e-17
6018.39391 1.40769e-17
6019.85639 1.39776e-17
6021.32889 1.39815e-17
6022.80139 1.38448e-17
6024.27389 1.36779e-17
6025.73637 1.36158e-17
6027.20887 1.37155e-17
6028.68137 1.37769e-17
6030.15386 1.37564e-17
6031.61635 1.37604e-17
6033.08885 1.35583e-17
6034.56134 1.34193e-17
6036.03384 1.32965e-17
6037.49633 1.32923e-17
6038.96882 1.34095e-17
6040.44132 1.33573e-17
6041.91382 1.32244e-17
6043.37630 1.30999e-17
6044.84880 1.30447e-17
6046.32130 1.30514e-17
6047.79380 1.30676e-17
6049.25628 1.30038e-17
6050.72878 1.29522e-17
6052.20128 1.27535e-17
6053.67378 1.26050e-17
6055.13626 1.25886e-17
6056.60876 1.23912e-17
6058.08126 1.22729e-17
6059.55376 1.22945e-17
6061.01624 1.23199e-17
6062.48874 1.22186e-17
6063.96124 1.21369e-17
6065.42372 1.19146e-17
6066.89622 1.18863e-17
6068.36872 1.20366e-17
6069.84122 1.19439e-17
6071.30370 1.17455e-17
6072.77620 1.16479e-17
6074.24870 1.18773e-17
6075.72120 1.19273e-17
6077.18368 1.19002e-17
6078.65618 1.19759e-17
6080.12868 1.19788e-17
6081.60118 1.18026e-17
6083.06366 1.19352e-17
6084.53616 1.19109e-17
6086.00866 1.18239e-17
6087.48115 1.20150e-17
6088.94364 1.21034e-17
6090.41614 1.20791e-17
6091.88864 1.21113e-17
6093.36113 1.19875e-17
6094.82362 1.21673e-17
6096.29612 1.20789e-17
6097.76861 1.21470e-17
6099.24111 1.22753e-17
6100.70360 1.24267e-17
6102.17609 1.27884e-17
6103.64859 1.27695e-17
6105.12109 1.27698e-17
6106.58357 1.27042e-17
6108.05607 1.28645e-17
6109.52857 1.29889e-17
6111.00107 1.27773e-17
6112.46355 1.27164e-17
6113.93605 1.28847e-17
6115.40855 1.31506e-17
6116.88105 1.31173e-17
6118.34353 1.29982e-17
6119.81603 1.29487e-17
6121.28853 1.29546e-17
6122.76103 1.29860e-17
6124.22351 1.29983e-17
6125.69601 1.28601e-17
6127.16851 1.28658e-17
6128.64101 1.29229e-17
6130.10349 1.29761e-17
6131.57599 1.27567e-17
6133.04849 1.25278e-17
6134.52099 1.26890e-17
6135.98347 1.27984e-17
6137.45597 1.28822e-17
6138.92847 1.26999e-17
6140.40097 1.28175e-17
6141.86345 1.30548e-17
6143.33595 1.29461e-17
6144.80845 1.27272e-17
6146.28095 1.26023e-17
6147.74343 1.23639e-17
6149.21593 1.22099e-17
6150.68843 1.21639e-17
6152.15091 1.21442e-17
6153.62341 1.20557e-17
6155.09591 1.21666e-17
6156.56840 1.19447e-17
6158.03089 1.21660e-17
6159.50338 1.20978e-17
6160.97588 1.20479e-17
6162.44838 1.23830e-17
6163.92088 1.26327e-17
6165.38336 1.25198e-17
6166.85586 1.23443e-17
6168.32836 1.24799e-17
6169.79084 1.25681e-17
6171.26334 1.25797e-17
6172.73584 1.28493e-17
6174.20834 1.28961e-17
6175.67082 1.30838e-17
6177.14332 1.34962e-17
6178.61582 1.36891e-17
6180.08832 1.33460e-17
6181.55080 1.35239e-17
6183.02330 1.39730e-17
6184.49580 1.40929e-17
6185.96830 1.41446e-17
6187.43078 1.44710e-17
6188.90328 1.46751e-17
6190.37578 1.48654e-17
6191.84828 1.49359e-17
6193.31076 1.49473e-17
6194.78326 1.51696e-17
6196.25576 1.54449e-17
6197.72826 1.53566e-17
6199.19074 1.56369e-17
6200.66324 1.59111e-17
6202.13574 1.60724e-17
6203.60824 1.61959e-17
6205.07072 1.66117e-17
6206.54322 1.71048e-17
6208.01572 1.71011e-17
6209.48822 1.72295e-17
6210.95070 1.75281e-17
6212.42320 1.79976e-17
6213.89570 1.80933e-17
6215.36819 1.82474e-17
6216.83068 1.85890e-17
6218.30318 1.87909e-17
6219.77567 1.91505e-17
6221.24817 1.90340e-17
6222.71065 1.91886e-17
6224.18315 1.95964e-17
6225.65565 1.94169e-17
6227.12815 1.92571e-17
6228.59063 1.91177e-17
6230.06313 1.92913e-17
6231.53563 1.95535e-17
6233.00813 1.95398e-17
6234.47061 1.95724e-17
6235.94311 1.96635e-17
6237.41561 1.97023e-17
6238.87809 1.97345e-17
6240.35059 1.96829e-17
6241.82309 1.96475e-17
6243.29559 1.96199e-17
6244.76809 1.94802e-17
6246.23057 1.96802e-17
6247.70307 1.95464e-17
6249.17557 1.94016e-17
6250.64807 1.97493e-17
6252.11055 1.98126e-17
6253.58305 1.98880e-17
6255.05555 1.99654e-17
6256.51803 1.98229e-17
6257.99053 1.99129e-17
6259.46303 2.02045e-17
6260.93553 2.04476e-17
6262.39801 2.02741e-17
6263.87051 2.03664e-17
6265.34301 2.05026e-17
6266.81551 2.06252e-17
6268.27799 2.04607e-17
6269.75049 2.02548e-17
6271.22299 2.02813e-17
6272.69549 2.02241e-17
6274.15797 2.02227e-17
6275.63047 2.03610e-17
6277.10297 2.02834e-17
6278.57546 2.01904e-17
6280.03795 2.00329e-17
6281.51045 1.96198e-17
6282.98294 1.93173e-17
6284.45544 1.93242e-17
6285.91793 1.95777e-17
6287.39042 1.94646e-17
6288.86292 1.92697e-17
6290.33542 1.95275e-17
6291.79790 1.94277e-17
6293.27040 1.90750e-17
6294.74290 1.92732e-17
6296.21540 1.93247e-17
6297.67788 1.87809e-17
6299.15038 1.87033e-17
6300.62288 1.88965e-17
6302.09538 1.87911e-17
6303.55786 1.86150e-17
6305.03036 1.87682e-17
6306.50286 1.88504e-17
6307.97536 1.88947e-17
6309.43784 1.89351e-17
6310.91034 1.84012e-17
6312.38284 1.86444e-17
6313.85534 1.90085e-17
6315.31782 1.87918e-17
6316.79032 1.83283e-17
6318.26282 1.81684e-17
6319.73532 1.82253e-17
6321.19780 1.82217e-17
6322.67030 1.79006e-17
6324.14280 1.79858e-17
6325.61530 1.80259e-17
6327.07778 1.76979e-17
6328.55028 1.77465e-17
6330.02278 1.79014e-17
6331.49528 1.77293e-17
6332.95776 1.75321e-17
6334.43026 1.71372e-17
6335.90276 1.69699e-17
6337.37525 1.68740e-17
6338.83774 1.68611e-17
6340.31024 1.67892e-17
6341.78273 1.65919e-17
6343.24522 1.65569e-17
6344.71771 1.64958e-17
6346.19021 1.64247e-17
6347.66271 1.60732e-17
6349.12520 1.57175e-17
6350.59769 1.57960e-17
6352.07019 1.58818e-17
6353.54269 1.59032e-17
6355.01519 1.55562e-17
6356.47767 1.53900e-17
6357.95017 1.54682e-17
6359.42267 1.55204e-17
6360.88515 1.52221e-17
6362.35765 1.49369e-17
6363.83015 1.51175e-17
6365.30265 1.49795e-17
6366.76513 1.49604e-17
6368.23763 1.48455e-17
6369.71013 1.47721e-17
6371.18263 1.47349e-17
6372.64511 1.46166e-17
6374.11761 1.44846e-17
6375.59011 1.45548e-17
6377.06261 1.43728e-17
6378.52509 1.43662e-17
6379.99759 1.46874e-17
6381.47009 1.45760e-17
6382.94259 1.44375e-17
6384.40507 1.45435e-17
6385.87757 1.46200e-17
6387.35007 1.45602e-17
6388.82257 1.43612e-17
6390.28505 1.44103e-17
6391.75755 1.42869e-17
6393.23005 1.41291e-17
6394.70255 1.45325e-17
6396.16503 1.45356e-17
6397.63753 1.44156e-17
6399.11002 1.44333e-17
6400.58252 1.44704e-17
6402.04501 1.44483e-17
6403.51750 1.42805e-17
6404.99000 1.40757e-17
6406.46250 1.43078e-17
6407.92499 1.44285e-17
6409.39748 1.40057e-17
6410.86998 1.39836e-17
6412.34248 1.41971e-17
6413.80496 1.42454e-17
6415.27746 1.42199e-17
6416.74996 1.42221e-17
6418.22246 1.42196e-17
6419.68494 1.42890e-17
6421.15744 1.42736e-17
6422.62994 1.41060e-17
6424.10244 1.42076e-17
6425.56492 1.42458e-17
6427.03742 1.41780e-17
6428.50992 1.42955e-17
6429.97240 1.44127e-17
6431.44490 1.44425e-17
6432.91740 1.43793e-17
6434.38990 1.42820e-17
6435.86240 1.43808e-17
6437.32488 1.46177e-17
6438.79738 1.44709e-17
6440.26988 1.44960e-17
6441.74238 1.49501e-17
6443.20486 1.49798e-17
6444.67736 1.50227e-17
6446.14986 1.51178e-17
6447.61234 1.50890e-17
6449.08484 1.51879e-17
6450.55734 1.52520e-17
6452.02984 1.52131e-17
6453.49232 1.50824e-17
6454.96482 1.51618e-17
6456.43732 1.54495e-17
6457.90981 1.54270e-17
6459.37230 1.55805e-17
6460.84480 1.54217e-17
6462.31730 1.54103e-17
6463.78979 1.54513e-17
6465.25228 1.55272e-17
6466.72478 1.53443e-17
6468.19727 1.53231e-17
6469.66977 1.55683e-17
6471.13225 1.53876e-17
6472.60475 1.52440e-17
6474.07725 1.50768e-17
6475.54975 1.50836e-17
6477.01223 1.52447e-17
6478.48473 1.51947e-17
6479.95723 1.49698e-17
6481.42973 1.50352e-17
6482.89221 1.50331e-17
6484.36471 1.50590e-17
6485.83721 1.50058e-17
6487.30971 1.49087e-17
6488.77219 1.50287e-17
6490.24469 1.49473e-17
6491.71719 1.48966e-17
6493.18969 1.45660e-17
6494.65217 1.44078e-17
6496.12467 1.44564e-17
6497.59717 1.46554e-17
6499.06967 1.48169e-17
6500.53215 1.47978e-17
6502.00465 1.46546e-17
6503.47715 1.45338e-17
6504.94965 1.44584e-17
6506.41213 1.44654e-17
6507.88463 1.42191e-17
6509.35713 1.42434e-17
6510.82963 1.42819e-17
6512.29211 1.42351e-17
6513.76461 1.42588e-17
6515.23711 1.41059e-17
6516.70961 1.39662e-17
6518.17209 1.39281e-17
6519.64459 1.38788e-17
6521.11709 1.38993e-17
6522.58958 1.36233e-17
6524.05207 1.35254e-17
6525.52456 1.36681e-17
6526.99706 1.36354e-17
6528.46956 1.36362e-17
6529.93205 1.35561e-17
6531.40454 1.36999e-17
6532.87704 1.38787e-17
6534.33953 1.37024e-17
6535.81202 1.37542e-17
6537.28452 1.38170e-17
6538.75702 1.35072e-17
6540.21950 1.33831e-17
6541.69200 1.35203e-17
6543.16450 1.35236e-17
6544.63700 1.34989e-17
6546.09948 1.34742e-17
6547.57198 1.34495e-17
6549.04448 1.34249e-17
6550.51698 1.34002e-17
6551.97946 1.33755e-17
6553.45196 1.33508e-17
6554.92446 1.33262e-17
6556.39696 1.33015e-17
6557.85944 1.32768e-17
6559.33194 1.32522e-17
6560.80444 1.32275e-17
6562.27694 1.32029e-17
6563.73942 1.31782e-17
6565.21192 1.31536e-17
6566.68442 1.31289e-17
6568.15692 1.31042e-17
6569.61940 1.30796e-17
6571.09190 1.30550e-17
6572.56440 1.30303e-17
6574.03690 1.30057e-17
6575.49938 1.29810e-17
6576.97188 1.29564e-17
6578.44438 1.29318e-17
6579.91687 1.29071e-17
6581.37936 1.28825e-17
6582.85186 1.28578e-17
6584.32435 1.28332e-17
6585.79685 1.28086e-17
6587.25934 1.27840e-17
6588.73184 1.27593e-17
6590.20433 1.27347e-17
6591.67683 1.27101e-17
6593.13932 1.26855e-17
6594.61181 1.26609e-17
6596.08431 1.26362e-17
6597.55681 1.26116e-17
6599.01929 1.25870e-17
6600.49179 1.25624e-17
6601.96429 1.25378e-17
6603.43679 1.25132e-17
6604.89927 1.24886e-17
6606.37177 1.23092e-17
6607.84427 1.19327e-17
6609.31677 1.20920e-17
6610.77925 1.22884e-17
6612.25175 1.19844e-17
6613.72425 1.19030e-17
6615.19675 1.22613e-17
6616.65923 1.21184e-17
6618.13173 1.17654e-17
6619.60423 1.18518e-17
6621.07673 1.18478e-17
6622.53921 1.17163e-17
6624.01171 1.17232e-17
6625.48421 1.17594e-17
6626.95671 1.15799e-17
6628.41919 1.13671e-17
6629.89169 1.13831e-17
6631.36419 1.13475e-17
6632.82667 1.13136e-17
6634.29917 1.13258e-17
6635.77167 1.13735e-17
6637.24417 1.13682e-17
6638.70665 1.11910e-17
6640.17915 1.11156e-17
6641.65165 1.10479e-17
6643.12415 1.09995e-17
6644.58663 1.11008e-17
6646.05913 1.09828e-17
6647.53163 1.09912e-17
6649.00412 1.08786e-17
6650.46661 1.09175e-17
6651.93910 1.10313e-17
6653.41160 1.09689e-17
6654.88410 1.09387e-17
6656.34659 1.08267e-17
6657.81908 1.08382e-17
6659.29158 1.07841e-17
6660.76408 1.06938e-17
6662.22656 1.07173e-17
6663.69906 1.07034e-17
6665.17156 1.08148e-17
6666.64406 1.05940e-17
6668.10654 1.03547e-17
6669.57904 1.06347e-17
6671.05154 1.07902e-17
6672.52404 1.04322e-17
6673.98652 1.01705e-17
6675.45902 1.02348e-17
6676.93152 1.04102e-17
6678.40402 1.05196e-17
6679.86650 1.01333e-17
6681.33900 1.01217e-17
6682.81150 1.03666e-17
6684.28400 1.02192e-17
6685.74648 1.02321e-17
6687.21898 1.04143e-17
6688.69148 1.04076e-17
6690.16398 1.02536e-17
6691.62646 1.02302e-17
6693.09896 1.02045e-17
6694.57146 1.02632e-17
6696.04396 1.01559e-17
6697.50644 1.00575e-17
6698.97894 1.00763e-17
6700.45144 9.86697e-18
6701.92394 9.83926e-18
6703.38642 9.68738e-18
6704.85892 9.63234e-18
6706.33141 9.60187e-18
6707.80391 9.67585e-18
6709.26640 9.56872e-18
6710.73890 9.41863e-18
6712.21139 9.46792e-18
6713.68389 9.49457e-18
6715.14638 9.39160e-18
6716.61887 9.31535e-18
6718.09137 9.25175e-18
6719.55386 9.00245e-18
6721.02635 8.96016e-18
6722.49885 9.16512e-18
6723.97135 9.25864e-18
6725.43383 9.66663e-18
6726.90633 9.88515e-18
6728.37883 9.92627e-18
6729.85133 9.84899e-18
6731.32383 9.56671e-18
6732.78631 9.22092e-18
6734.25881 8.76678e-18
6735.73131 8.62478e-18
6737.19379 8.89347e-18
6738.66629 9.02791e-18
6740.13879 9.22392e-18
6741.61129 9.59971e-18
6743.07377 9.49881e-18
6744.54627 9.28983e-18
6746.01877 9.06786e-18
6747.49127 8.72277e-18
6748.95375 8.76498e-18
6750.42625 8.63008e-18
6751.89875 8.59587e-18
6753.37125 8.72627e-18
6754.83373 8.59783e-18
6756.30623 8.78806e-18
6757.77873 9.05737e-18
6759.25123 8.87139e-18
6760.71371 8.91185e-18
6762.18621 8.88756e-18
6763.65871 8.66345e-18
6765.13120 8.83654e-18
6766.59369 8.95387e-18
6768.06619 8.83826e-18
6769.53869 8.74530e-18
6771.01118 8.87163e-18
6772.47367 8.86754e-18
6773.94617 8.91915e-18
6775.41866 9.01890e-18
6776.89116 9.07242e-18
6778.35365 8.97428e-18
6779.82614 8.95214e-18
6781.29864 9.13673e-18
6782.77114 9.21175e-18
6784.23362 8.96074e-18
6785.70612 8.78819e-18
6787.17862 9.01764e-18
6788.65112 9.21190e-18
6790.11360 8.96708e-18
6791.58610 8.73420e-18
6793.05860 8.84053e-18
6794.53110 8.96626e-18
6795.99358 8.98496e-18
6797.46608 8.93000e-18
6798.93858 8.90285e-18
6800.41108 8.85385e-18
6801.87356 8.93916e-18
6803.34606 9.02087e-18
6804.81856 8.99571e-18
6806.29106 8.92763e-18
6807.75354 9.05103e-18
6809.22604 9.21554e-18
6810.69854 8.99912e-18
6812.17104 8.80379e-18
6813.63352 8.84903e-18
6815.10602 8.86280e-18
6816.57852 8.80674e-18
6818.05102 8.72817e-18
6819.51350 8.73659e-18
6820.98600 8.71938e-18
6822.45850 8.68529e-18
6823.92098 8.82181e-18
6825.39348 8.81231e-18
6826.86598 8.67345e-18
6828.33848 8.57513e-18
6829.80096 8.57900e-18
6831.27346 8.54597e-18
6832.74596 8.53826e-18
6834.21845 8.66002e-18
6835.68094 8.59736e-18
6837.15344 8.56393e-18
6838.62593 8.53953e-18
6840.09843 8.53232e-18
6841.56092 8.53203e-18
6843.03341 8.42888e-18
6844.50591 8.59071e-18
6845.97841 8.58591e-18
6847.44089 8.58111e-18
6848.91339 8.57631e-18
6850.38589 8.57151e-18
6851.85839 8.56671e-18
6853.32087 8.56192e-18
6854.79337 8.55712e-18
6856.26587 8.55232e-18
6857.73837 8.54752e-18
6859.20085 8.54273e-18
6860.67335 8.53793e-18
6862.14585 8.53313e-18
6863.61835 8.52834e-18
6865.08083 8.52354e-18
6866.55333 8.51875e-18
6868.02583 8.51395e-18
6869.49833 8.50916e-18
6870.96081 8.50436e-18
6872.43331 8.49957e-18
6873.90581 8.49478e-18
6875.37831 8.48998e-18
6876.84079 8.48519e-18
6878.31329 8.48040e-18
6879.78579 8.47560e-18
6881.25829 8.47081e-18
6882.72077 8.46602e-18
6884.19327 8.46123e-18
6885.66577 8.45644e-18
6887.13827 8.45165e-18
6888.60075 8.44686e-18
6890.07325 8.44207e-18
6891.54575 8.43728e-18
6893.01824 8.43249e-18
6894.48073 8.42770e-18
6895.95323 8.42291e-18
6897.42572 8.41812e-18
6898.89822 8.41333e-18
6900.36071 8.40854e-18
6901.83320 8.40375e-18
6903.30570 8.39897e-18
6904.77820 8.39418e-18
6906.24068 8.38939e-18
6907.71318 8.38460e-18
6909.18568 8.37982e-18
6910.64816 8.37503e-18
6912.12066 8.37024e-18
6913.59316 8.36546e-18
6915.06566 8.36067e-18
6916.53816 8.35588e-18
6918.00064 8.35110e-18
6919.47314 8.34632e-18
6920.94564 8.34153e-18
6922.41814 8.33675e-18
6923.88062 8.33196e-18
6925.35312 8.32718e-18
6926.82562 8.32240e-18
6928.28810 8.31761e-18
6929.76060 8.31283e-18
6931.23310 8.30805e-18
6932.70560 8.30327e-18
6934.16808 8.29848e-18
6935.64058 8.29370e-18
6937.11308 8.40042e-18
6938.58558 8.56262e-18
6940.04806 8.65817e-18
6941.52056 8.60147e-18
6942.99306 8.70658e-18
6944.46556 8.78995e-18
6945.92804 8.72976e-18
6947.40054 8.82879e-18
6948.87304 8.98099e-18
6950.34554 8.94677e-18
6951.80802 8.89913e-18
6953.28052 9.04236e-18
6954.75302 9.12925e-18
6956.22551 9.17335e-18
6957.68800 9.19810e-18
6959.16050 9.32860e-18
6960.63299 9.41462e-18
6962.10549 9.32755e-18
6963.56797 9.31363e-18
6965.04047 9.51581e-18
6966.51297 9.64342e-18
6967.98547 9.56030e-18
6969.44795 9.64219e-18
6970.92045 9.78516e-18
6972.39295 9.82701e-18
6973.86545 9.85009e-18
6975.32793 9.73454e-18
6976.80043 9.68529e-18
6978.27293 9.74064e-18
6979.74543 9.85587e-18
6981.20791 9.84378e-18
6982.68041 9.56153e-18
6984.15291 9.61486e-18
6985.62541 9.86033e-18
6987.08789 9.92153e-18
6988.56039 9.86238e-18
6990.03289 9.63606e-18
6991.50539 9.62088e-18
6992.96787 9.81807e-18
6994.44037 9.83354e-18
6995.91287 9.60696e-18
6997.38537 9.65494e-18
6998.84785 9.93717e-18
7000.32035 9.86791e-18
7001.79285 9.74841e-18
7003.26535 9.56996e-18
7004.72783 9.34719e-18
7006.20033 9.51176e-18
7007.67283 9.68776e-18
7009.14533 9.36146e-18
7010.60781 9.60602e-18
7012.08031 1.00214e-17
7013.55281 9.80508e-18
7015.01529 9.38477e-18
7016.48779 9.31662e-18
7017.96029 9.36060e-18
7019.43278 9.51352e-18
7020.89527 9.66711e-18
7022.36776 9.60495e-18
7023.84026 9.36800e-18
7025.31276 9.12802e-18
7026.77525 9.28303e-18
7028.24774 9.39728e-18
7029.72024 9.29703e-18
7031.19274 9.35916e-18
7032.65522 9.40346e-18
7034.12772 9.32493e-18
7035.60022 9.31289e-18
7037.07272 9.10478e-18
7038.53520 9.08899e-18
7040.00770 9.21081e-18
7041.48020 9.26121e-18
7042.95270 9.06101e-18
7044.41518 9.02204e-18
7045.88768 9.12590e-18
7047.36018 9.42756e-18
7048.83268 9.31440e-18
7050.29516 8.99569e-18
7051.76766 9.02606e-18
7053.24016 9.36547e-18
7054.71266 9.39929e-18
7056.17514 9.26497e-18
7057.64764 9.25879e-18
7059.12014 9.06606e-18
7060.59264 9.24308e-18
7062.05512 9.51777e-18
7063.52762 9.51615e-18
7065.00012 9.53243e-18
7066.47262 9.42218e-18
7067.93510 9.24027e-18
7069.40760 9.41884e-18
7070.88010 9.64706e-18
7072.35260 9.58590e-18
7073.81508 9.64087e-18
7075.28758 9.67806e-18
7076.76008 9.60539e-18
7078.23257 9.60832e-18
7079.69506 9.76725e-18
7081.16755 9.64880e-18
7082.64005 9.30009e-18
7084.11255 9.35454e-18
7085.57504 9.58543e-18
7087.04753 9.39638e-18
7088.52003 9.19969e-18
7089.99253 9.31149e-18
7091.45501 9.55208e-18
7092.92751 9.45842e-18
7094.40001 9.16918e-18
7095.87251 9.20958e-18
7097.33499 9.35456e-18
7098.80749 9.39865e-18
7100.27999 9.32304e-18
7101.74247 9.37548e-18
7103.21497 9.60001e-18
7104.68747 9.51819e-18
7106.15997 9.18825e-18
7107.62245 9.04026e-18
7109.09495 9.14415e-18
7110.56745 9.22247e-18
7112.03995 9.17014e-18
7113.51245 9.09808e-18
7114.97493 9.17318e-18
7116.44743 9.18998e-18
7117.91993 9.15181e-18
7119.38241 9.28614e-18
7120.85491 9.20815e-18
7122.32741 9.09969e-18
7123.79991 9.20562e-18
7125.26239 9.14649e-18
7126.73489 9.08880e-18
7128.20739 9.12459e-18
7129.67989 9.22998e-18
7131.14237 9.24867e-18
7132.61487 9.04645e-18
7134.08737 9.12869e-18
7135.55987 9.28040e-18
7137.02235 9.38592e-18
7138.49485 9.67596e-18
7139.96735 9.83760e-18
7141.43984 9.70327e-18
7142.90233 9.61113e-18
7144.37482 9.81826e-18
7145.84732 1.00040e-17
7147.31982 9.92374e-18
7148.78230 9.85908e-18
7150.25480 9.98485e-18
7151.72730 1.01146e-17
7153.19980 1.02528e-17
7154.66228 1.01831e-17
7156.13478 1.00992e-17
7157.60728 1.03070e-17
7159.07978 1.05401e-17
7160.54226 1.05248e-17
7162.01476 1.05101e-17
7163.48726 1.06293e-17
7164.95976 1.07374e-17
7166.42224 1.08950e-17
7167.89474 1.09279e-17
7169.36724 1.09605e-17
7170.83974 1.12458e-17
7172.30222 1.16881e-17
7173.77472 1.18662e-17
7175.24722 1.15786e-17
7176.71972 1.16210e-17
7178.18220 1.19070e-17
7179.65470 1.20668e-17
7181.12720 1.21053e-17
7182.59970 1.20208e-17
7184.06218 1.19980e-17
7185.53468 1.21298e-17
7187.00718 1.22501e-17
7188.47968 1.22421e-17
7189.94216 1.22786e-17
7191.41466 1.23501e-17
7192.88716 1.22878e-17
7194.35966 1.24507e-17
7195.82214 1.26148e-17
7197.29464 1.25584e-17
7198.76714 1.26815e-17
7200.23963 1.25937e-17
7201.70212 1.23795e-17
7203.17461 1.23417e-17
7204.64711 1.21771e-17
7206.10960 1.23473e-17
7207.58210 1.25844e-17
7209.05459 1.25345e-17
7210.52709 1.23680e-17
7211.98958 1.23341e-17
7213.46207 1.22505e-17
7214.93457 1.19417e-17
7216.40707 1.19816e-17
7217.86955 1.22041e-17
7219.34205 1.22859e-17
7220.81455 1.23611e-17
7222.28705 1.24352e-17
7223.74953 1.22682e-17
7225.22203 1.22077e-17
7226.69453 1.26642e-17
7228.16703 1.29518e-17
7229.62951 1.25914e-17
7231.10201 1.26355e-17
7232.57451 1.29706e-17
7234.04701 1.30763e-17
7235.50949 1.30734e-17
7236.98199 1.30440e-17
7238.45449 1.32355e-17
7239.92699 1.34431e-17
7241.38947 1.36007e-17
7242.86197 1.35661e-17
7244.33447 1.35903e-17
7245.80697 1.37056e-17
7247.26945 1.40164e-17
7248.74195 1.38716e-17
7250.21445 1.36261e-17
7251.68695 1.36251e-17
7253.14943 1.37283e-17
7254.62193 1.39792e-17
7256.09443 1.41742e-17
7257.56693 1.43444e-17
7259.02941 1.41561e-17
7260.50191 1.39125e-17
7261.97440 1.40736e-17
7263.44690 1.42852e-17
7264.90939 1.40291e-17
7266.38189 1.40542e-17
7267.85438 1.42373e-17
7269.32688 1.42134e-17
7270.78936 1.42923e-17
7272.26186 1.45652e-17
7273.73436 1.48750e-17
7275.20686 1.49743e-17
7276.66934 1.49385e-17
7278.14184 1.48323e-17
7279.61434 1.48796e-17
7281.08684 1.48495e-17
7282.54932 1.49081e-17
7284.02182 1.49015e-17
7285.49432 1.47454e-17
7286.96682 1.47438e-17
7288.42930 1.50817e-17
7289.90180 1.52912e-17
7291.37430 1.50579e-17
7292.84680 1.49330e-17
7294.30928 1.48457e-17
7295.78178 1.50693e-17
7297.25428 1.52304e-17
7298.71676 1.49853e-17
7300.18926 1.48572e-17
7301.66176 1.50348e-17
7303.13426 1.51571e-17
7304.59674 1.55593e-17
7306.06924 1.55970e-17
7307.54174 1.53723e-17
7309.01424 1.55201e-17
7310.47672 1.54252e-17
7311.94922 1.53067e-17
7313.42172 1.56574e-17
7314.89422 1.55234e-17
7316.35670 1.54362e-17
7317.82920 1.56455e-17
7319.30170 1.52350e-17
7320.77420 1.49819e-17
7322.23668 1.50893e-17
7323.70918 1.49371e-17
7325.18167 1.46735e-17
7326.65417 1.46112e-17
7328.11666 1.47432e-17
7329.58915 1.47541e-17
7331.06165 1.48470e-17
7332.53415 1.47738e-17
7333.99664 1.44849e-17
7335.46913 1.44816e-17
7336.94163 1.45299e-17
7338.41413 1.43715e-17
7339.87661 1.42329e-17
7341.34911 1.42514e-17
7342.82161 1.40566e-17
7344.29411 1.41435e-17
7345.75659 1.42170e-17
7347.22909 1.38370e-17
7348.70159 1.35469e-17
7350.17409 1.34489e-17
7351.63657 1.34025e-17
7353.10907 1.33093e-17
7354.58157 1.30541e-17
7356.05407 1.29589e-17
7357.51655 1.29336e-17
7358.98905 1.29326e-17
7360.46155 1.31418e-17
7361.93405 1.29277e-17
7363.39653 1.25314e-17
7364.86903 1.24840e-17
7366.34153 1.23703e-17
7367.81403 1.21160e-17
7369.27651 1.22984e-17
7370.74901 1.24647e-17
7372.22151 1.22401e-17
7373.69401 1.21654e-17
7375.15649 1.21164e-17
7376.62899 1.19291e-17
7378.10149 1.21664e-17
7379.57398 1.21683e-17
7381.03647 1.19163e-17
7382.50897 1.19343e-17
7383.98146 1.19720e-17
7385.45396 1.19881e-17
7386.91645 1.22329e-17
7388.38895 1.22187e-17
7389.86144 1.22732e-17
7391.32393 1.23207e-17
7392.79643 1.20761e-17
7394.26892 1.22262e-17
7395.74142 1.24408e-17
7397.20391 1.21153e-17
7398.67640 1.20466e-17
7400.14890 1.20640e-17
7401.62140 1.22466e-17
7403.08388 1.23180e-17
7404.55638 1.21580e-17
7406.02888 1.19938e-17
7407.50138 1.18798e-17
7408.96386 1.18598e-17
7410.43636 1.20207e-17
7411.90886 1.22259e-17
7413.38136 1.22009e-17
7414.84384 1.18998e-17
7416.31634 1.17168e-17
7416.64690 1.17168e-17
7417.50836 1.17249e-17
7418.36983 1.17307e-17
7419.23129 1.17365e-17
7420.09275 1.17376e-17
7420.95421 1.17387e-17
7421.82569 1.17364e-17
7422.68715 1.17340e-17
7423.54861 1.17340e-17
7424.41008 1.17340e-17
7425.27154 1.17398e-17
7426.13300 1.17457e-17
7426.99446 1.17559e-17
7427.85592 1.17661e-17
7428.71739 1.17782e-17
7429.57885 1.17904e-17
7430.44031 1.17984e-17
7431.31179 1.18065e-17
7432.17325 1.18061e-17
7433.03471 1.18056e-17
7433.89618 1.18013e-17
7434.75764 1.17969e-17
7435.61910 1.17937e-17
7436.48056 1.17905e-17
7437.34202 1.17895e-17
7438.20349 1.17886e-17
7439.06495 1.17905e-17
7439.92641 1.17923e-17
7440.79789 1.17967e-17
7441.65935 1.18010e-17
7442.52081 1.18067e-17
7443.38227 1.18123e-17
7444.24374 1.18192e-17
7445.10520 1.18259e-17
7445.96666 1.18343e-17
7446.82812 1.18428e-17
7447.68959 1.18480e-17
7448.55105 1.18532e-17
7449.41251 1.18468e-17
7450.28399 1.18404e-17
7451.14545 1.18245e-17
7452.00691 1.18086e-17
7452.86837 1.17939e-17
7453.72984 1.17791e-17
7454.59130 1.17694e-17
7455.45276 1.17597e-17
7456.31422 1.17507e-17
7457.17568 1.17417e-17
7458.03715 1.17312e-17
7458.89861 1.17208e-17
7459.77009 1.17087e-17
7460.63155 1.16967e-17
7461.49301 1.16856e-17
7462.35447 1.16744e-17
7463.21594 1.16748e-17
7464.07740 1.16752e-17
7464.93886 1.16931e-17
7465.80032 1.17112e-17
7466.66178 1.17380e-17
7467.52325 1.17648e-17
7468.38471 1.17906e-17
7469.25619 1.18164e-17
7470.11765 1.18315e-17
7470.97911 1.18465e-17
7471.84057 1.18428e-17
7472.70203 1.18390e-17
7473.56350 1.18259e-17
7474.42496 1.18130e-17
7475.28642 1.18040e-17
7476.14788 1.17951e-17
7477.00934 1.17908e-17
7477.87081 1.17867e-17
7478.73227 1.17838e-17
7479.60375 1.17809e-17
7480.46521 1.17765e-17
7481.32667 1.17720e-17
7482.18813 1.17624e-17
7483.04960 1.17529e-17
7483.91106 1.17397e-17
7484.77252 1.17263e-17
7485.63398 1.17146e-17
7486.49544 1.17027e-17
7487.35690 1.16932e-17
7488.21837 1.16837e-17
7489.08985 1.16727e-17
7489.95131 1.16617e-17
7490.81277 1.16480e-17
7491.67423 1.16343e-17
7492.53569 1.16198e-17
7493.39716 1.16053e-17
7494.25862 1.15910e-17
7495.12008 1.15769e-17
7495.98154 1.15634e-17
7496.84300 1.15499e-17
7497.70447 1.15368e-17
7498.57595 1.15238e-17
7499.43741 1.15091e-17
7500.29887 1.14944e-17
7501.16033 1.14763e-17
7502.02179 1.14581e-17
7502.88325 1.14387e-17
7503.74472 1.14193e-17
7504.60618 1.14003e-17
7505.46764 1.13813e-17
7506.32910 1.13578e-17
7507.19056 1.13342e-17
7508.06204 1.13011e-17
7508.92351 1.12680e-17
7509.78497 1.12260e-17
7510.64643 1.11840e-17
7511.50789 1.11353e-17
7512.36935 1.10866e-17
7513.23082 1.10407e-17
7514.09228 1.09948e-17
7514.95374 1.09643e-17
7515.81520 1.09340e-17
7516.67666 1.09145e-17
7517.54814 1.08951e-17
7518.40960 1.08721e-17
7519.27107 1.08489e-17
7520.13253 1.08164e-17
7520.99399 1.07838e-17
7521.85545 1.07429e-17
7522.71691 1.07021e-17
7523.57838 1.06561e-17
7524.43984 1.06101e-17
7525.30130 1.05657e-17
7526.16276 1.05213e-17
7527.02423 1.04813e-17
7527.89570 1.04411e-17
7528.75717 1.03997e-17
7529.61863 1.03584e-17
7530.48009 1.03120e-17
7531.34155 1.02656e-17
7532.20301 1.02154e-17
7533.06448 1.01652e-17
7533.92594 1.01116e-17
7534.78740 1.00581e-17
7535.64886 9.99735e-18
7536.52034 9.93664e-18
7537.38180 9.86695e-18
7538.24327 9.79727e-18
7539.10473 9.72684e-18
7539.96619 9.65642e-18
7540.82765 9.59377e-18
7541.68911 9.53112e-18
7542.55058 9.47688e-18
7543.41204 9.42265e-18
7544.27350 9.37546e-18
7545.13496 9.32826e-18
7545.99642 9.28079e-18
7546.86790 9.23326e-18
7547.72936 9.17628e-18
7548.59083 9.11927e-18
7549.45229 9.05274e-18
7550.31375 8.98619e-18
7551.17521 8.91470e-18
7552.03667 8.84321e-18
7552.89814 8.77179e-18
7553.75960 8.70037e-18
7554.62106 8.63451e-18
7555.48252 8.56867e-18
7556.35400 8.50958e-18
7557.21546 8.45050e-18
7558.07693 8.39456e-18
7558.93839 8.33862e-18
7559.79985 8.28274e-18
7560.66131 8.22685e-18
7561.52277 8.16947e-18
7562.38424 8.11209e-18
7563.24570 8.05071e-18
7564.10716 7.98932e-18
7564.96862 7.91842e-18
7565.84010 7.84750e-18
7566.70156 7.76704e-18
7567.56302 7.68656e-18
7568.42449 7.61196e-18
7569.28595 7.53738e-18
7570.14741 7.48150e-18
7571.00887 7.42566e-18
7571.87033 7.39038e-18
7572.73180 7.35514e-18
7573.59326 7.33838e-18
7574.45472 7.32167e-18
7575.31618 7.30007e-18
7576.18766 7.27848e-18
7577.04912 7.22643e-18
7577.91059 7.17433e-18
7578.77205 7.10583e-18
7579.63351 7.03731e-18
7580.49497 6.97479e-18
7581.35643 6.91228e-18
7582.21790 6.85218e-18
7583.07936 6.79211e-18
7583.94082 6.72399e-18
7584.81230 6.65587e-18
7585.67376 6.54202e-18
7586.53522 6.42806e-18
7587.39668 6.21608e-18
7588.25815 6.00391e-18
7589.11961 5.70416e-18
7589.98107 5.40424e-18
7590.84253 5.07922e-18
7591.70399 4.75417e-18
7592.56546 4.46338e-18
7593.42692 4.17266e-18
7594.28838 3.97184e-18
7595.15986 3.77121e-18
7596.02132 3.68818e-18
7596.88278 3.60538e-18
7597.74425 3.61323e-18
7598.60571 3.62126e-18
7599.46717 3.70053e-18
7600.32863 3.77994e-18
7601.19009 3.94538e-18
7602.05156 4.11096e-18
7602.91302 4.36295e-18
7603.77448 4.61508e-18
7604.64596 4.92104e-18
7605.50742 5.22710e-18
7606.36888 5.54812e-18
7607.23034 5.86916e-18
7608.09181 6.16571e-18
7608.95327 6.46220e-18
7609.81473 6.69474e-18
7610.67619 6.92714e-18
7611.53765 7.04038e-18
7612.39912 7.15336e-18
7613.26058 7.10280e-18
7614.13206 7.05192e-18
7614.99352 6.84001e-18
7615.85498 6.62778e-18
7616.71644 6.27952e-18
7617.57791 5.93099e-18
7618.43937 5.55037e-18
7619.30083 5.16970e-18
7620.16229 4.89684e-18
7621.02375 4.62421e-18
7621.88522 4.51213e-18
7622.74668 4.40038e-18
7623.61816 4.43797e-18
7624.47962 4.47586e-18
7625.34108 4.61500e-18
7626.20254 4.75434e-18
7627.06400 4.90662e-18
7627.92547 5.05892e-18
7628.78693 5.17519e-18
7629.64839 5.29138e-18
7630.50985 5.39021e-18
7631.37131 5.48900e-18
7632.23278 5.58246e-18
7633.10426 5.67590e-18
7633.96572 5.76351e-18
7634.82718 5.85110e-18
7635.68864 5.93285e-18
7636.55010 6.01459e-18
7637.41157 6.07441e-18
7638.27303 6.13417e-18
7639.13449 6.16389e-18
7639.99595 6.19356e-18
7640.85741 6.22147e-18
7641.71888 6.24938e-18
7642.59035 6.30349e-18
7643.45182 6.35763e-18
7644.31328 6.44990e-18
7645.17474 6.54223e-18
7646.03620 6.67773e-18
7646.89766 6.81332e-18
7647.75913 6.95550e-18
7648.62059 7.09768e-18
7649.48205 7.20043e-18
7650.34351 7.30310e-18
7651.20497 7.35661e-18
7652.06644 7.41003e-18
7652.93792 7.41941e-18
7653.79938 7.42870e-18
7654.66084 7.42932e-18
7655.52230 7.42993e-18
7656.38376 7.47641e-18
7657.24523 7.52297e-18
7658.10669 7.62412e-18
7658.96815 7.72538e-18
7659.82961 7.85122e-18
7660.69107 7.97711e-18
7661.55254 8.10217e-18
7662.42401 8.22721e-18
7663.28548 8.32837e-18
7664.14694 8.42948e-18
7665.00840 8.50537e-18
7665.86986 8.58121e-18
7666.73132 8.67564e-18
7667.59279 8.77010e-18
7668.45425 8.90342e-18
7669.31571 9.03680e-18
7670.17717 9.16746e-18
7671.03863 9.29809e-18
7671.91011 9.39258e-18
7672.77158 9.48697e-18
7673.63304 9.53917e-18
7674.49450 9.59118e-18
7675.35596 9.60339e-18
7676.21742 9.61551e-18
7677.07889 9.63717e-18
7677.94035 9.65873e-18
7678.80181 9.73915e-18
7679.66327 9.81976e-18
7680.52473 9.92988e-18
7681.38620 1.00400e-17
7682.25767 1.01338e-17
7683.11914 1.02276e-17
7683.98060 1.03049e-17
7684.84206 1.03821e-17
7685.70352 1.04559e-17
7686.56498 1.05297e-17
7687.42645 1.06030e-17
7688.28791 1.06762e-17
7689.14937 1.07500e-17
7690.01083 1.08239e-17
7690.88231 1.08912e-17
7691.74377 1.09586e-17
7692.60524 1.10052e-17
7693.46670 1.10520e-17
7694.32816 1.10814e-17
7695.18962 1.11108e-17
7696.05108 1.11448e-17
7696.91255 1.11788e-17
7697.77401 1.12255e-17
7698.63547 1.12721e-17
7699.49693 1.13205e-17
7700.35839 1.13688e-17
7701.22987 1.14096e-17
7702.09133 1.14505e-17
7702.95280 1.14782e-17
7703.81426 1.15058e-17
7704.67572 1.15166e-17
7705.53718 1.15273e-17
7706.39864 1.15219e-17
7707.26011 1.15164e-17
7708.12157 1.14997e-17
7708.98303 1.14829e-17
7709.84449 1.14742e-17
7710.71597 1.14656e-17
7711.57743 1.14824e-17
7712.43890 1.14992e-17
7713.30036 1.15373e-17
7714.16182 1.15754e-17
7715.02328 1.16253e-17
7715.88474 1.16752e-17
7716.74620 1.17215e-17
7717.60767 1.17680e-17
7718.46913 1.17943e-17
7719.33059 1.18206e-17
7720.20207 1.18257e-17
7721.06353 1.18308e-17
7721.92499 1.18207e-17
7722.78646 1.18106e-17
7723.64792 1.17957e-17
7724.50938 1.17808e-17
7725.37084 1.17750e-17
7726.23230 1.17691e-17
7727.09377 1.17768e-17
7727.95523 1.17845e-17
7728.81669 1.18012e-17
7729.67815 1.18179e-17
7730.54963 1.18427e-17
7731.41109 1.18675e-17
7732.27255 1.19054e-17
7733.13402 1.19433e-17
7733.99548 1.19883e-17
7734.85694 1.20333e-17
7735.71840 1.20612e-17
7736.57986 1.20889e-17
7737.44133 1.20857e-17
7738.30279 1.20824e-17
7739.17427 1.20581e-17
7740.03573 1.20338e-17
7740.89719 1.20013e-17
7741.75865 1.19688e-17
7742.62012 1.19475e-17
7743.48158 1.19262e-17
7744.34304 1.19319e-17
7745.20450 1.19375e-17
7746.06596 1.19594e-17
7746.92743 1.19814e-17
7747.78889 1.20049e-17
7748.65035 1.20284e-17
7749.52183 1.20483e-17
7750.38329 1.20681e-17
7751.24475 1.20805e-17
7752.10621 1.20929e-17
7752.96768 1.20979e-17
7753.82914 1.21028e-17
7754.69060 1.21031e-17
7755.55206 1.21033e-17
7756.41352 1.20955e-17
7757.27499 1.20876e-17
7758.13645 1.20652e-17
7759.00793 1.20429e-17
7759.86939 1.20125e-17
7760.73085 1.19819e-17
7761.59231 1.19587e-17
7762.45378 1.19355e-17
7763.31524 1.19232e-17
7764.17670 1.19108e-17
7765.03816 1.19013e-17
7765.89962 1.18919e-17
7766.76109 1.18791e-17
7767.62255 1.18663e-17
7768.49403 1.18456e-17
7769.35549 1.18248e-17
7770.21695 1.17957e-17
7771.07841 1.17666e-17
7771.93988 1.17390e-17
7772.80134 1.17115e-17
7773.66280 1.16928e-17
7774.52426 1.16741e-17
7775.38572 1.16604e-17
7776.24719 1.16468e-17
7777.10865 1.16352e-17
7777.98013 1.16236e-17
7778.84159 1.16157e-17
7779.70305 1.16079e-17
7780.56451 1.16054e-17
7781.42597 1.16029e-17
7782.28744 1.16053e-17
7783.14890 1.16077e-17
7784.01036 1.16140e-17
7784.87182 1.16203e-17
7785.73328 1.16296e-17
7786.59475 1.16390e-17
7787.46623 1.16503e-17
7788.32769 1.16616e-17
7789.18915 1.16717e-17
7790.05061 1.16817e-17
7790.91207 1.16868e-17
7791.77354 1.16918e-17
7792.63500 1.16900e-17
7793.49646 1.16881e-17
7794.35792 1.16788e-17
7795.21938 1.16693e-17
7796.08085 1.16568e-17
7796.94231 1.16443e-17
7797.81379 1.16367e-17
7798.67525 1.16291e-17
7799.53671 1.16323e-17
7800.39817 1.16356e-17
7801.25963 1.16538e-17
7802.12110 1.16720e-17
7802.98256 1.17020e-17
7803.84402 1.17321e-17
7804.70548 1.17587e-17
7805.56694 1.17855e-17
7806.42841 1.17979e-17
7807.29989 1.18103e-17
7808.16135 1.18096e-17
7809.02281 1.18090e-17
7809.88427 1.17974e-17
7810.74573 1.17857e-17
7811.60720 1.17656e-17
7812.46866 1.17453e-17
7813.33012 1.17201e-17
7814.19158 1.16950e-17
7815.05304 1.16694e-17
7815.91450 1.16439e-17
7816.78598 1.16222e-17
7817.64745 1.16006e-17
7818.50891 1.15880e-17
7819.37037 1.15754e-17
7820.23183 1.15759e-17
7821.09329 1.15766e-17
7821.95476 1.15809e-17
7822.81622 1.15854e-17
7823.67768 1.15795e-17
7824.53914 1.15735e-17
7825.40060 1.15556e-17
7826.27208 1.15375e-17
7827.13355 1.15118e-17
7827.99501 1.14862e-17
7828.85647 1.14563e-17
7829.71793 1.14265e-17
7830.57939 1.13961e-17
7831.44085 1.13658e-17
7832.30232 1.13373e-17
7833.16378 1.13088e-17
7834.02524 1.12821e-17
7834.88670 1.12555e-17
7835.75818 1.12332e-17
7836.61964 1.12109e-17
7837.48111 1.11999e-17
7838.34257 1.11888e-17
7839.20403 1.11910e-17
7840.06549 1.11930e-17
7840.92695 1.12004e-17
7841.78842 1.12078e-17
7842.64988 1.12137e-17
7843.51134 1.12197e-17
7844.37280 1.12210e-17
7845.23426 1.12223e-17
7846.10574 1.12173e-17
7846.96720 1.12123e-17
7847.82867 1.12034e-17
7848.69013 1.11945e-17
7849.55159 1.11850e-17
7850.41305 1.11754e-17
7851.27452 1.11673e-17
7852.13598 1.11590e-17
7852.99744 1.11536e-17
7853.85890 1.11481e-17
7854.72036 1.11465e-17
7855.59184 1.11448e-17
7856.45330 1.11475e-17
7857.31477 1.11503e-17
7858.17623 1.11531e-17
7859.03769 1.11560e-17
7859.89915 1.11523e-17
7860.76061 1.11486e-17
7861.62208 1.11388e-17
7862.48354 1.11290e-17
7863.34500 1.11185e-17
7864.20646 1.11081e-17
7865.07794 1.10941e-17
7865.93940 1.10802e-17
7866.80087 1.10535e-17
7867.66233 1.10270e-17
7868.52379 1.09867e-17
7869.38525 1.09466e-17
7870.24671 1.09004e-17
7871.10818 1.08541e-17
7871.96964 1.08127e-17
7872.83110 1.07711e-17
7873.69256 1.07517e-17
7874.56404 1.07324e-17
7875.42550 1.07420e-17
7876.28696 1.07516e-17
7877.14843 1.07705e-17
7878.00989 1.07893e-17
7878.87135 1.07994e-17
7879.73281 1.08096e-17
7880.59427 1.08054e-17
7881.45574 1.08013e-17
7882.31720 1.07799e-17
7883.17866 1.07584e-17
7884.05014 1.07273e-17
7884.91160 1.06962e-17
7885.77306 1.06649e-17
7886.63453 1.06336e-17
7887.49599 1.06013e-17
7888.35745 1.05689e-17
7889.21891 1.05334e-17
7890.08037 1.04978e-17
7890.94184 1.04610e-17
7891.80330 1.04242e-17
7892.66476 1.03884e-17
7893.52622 1.03527e-17
7894.39770 1.03273e-17
7895.25916 1.03018e-17
7896.12062 1.02996e-17
7896.98209 1.02973e-17
7897.84355 1.03109e-17
7898.70501 1.03244e-17
7899.56647 1.03324e-17
7900.42793 1.03403e-17
7901.28940 1.03333e-17
7902.15086 1.03262e-17
7903.01232 1.03065e-17
7903.88380 1.02867e-17
7904.74526 1.02604e-17
7905.60672 1.02341e-17
7906.46819 1.02148e-17
7907.32965 1.01957e-17
7908.19111 1.01890e-17
7909.05257 1.01823e-17
7909.91403 1.01728e-17
7910.77550 1.01633e-17
7911.63696 1.01417e-17
7912.49842 1.01202e-17
7913.36990 1.00976e-17
7914.23136 1.00749e-17
7915.09282 1.00605e-17
7915.95428 1.00460e-17
7916.81575 1.00404e-17
7917.67721 1.00347e-17
7918.53867 1.00367e-17
7919.40013 1.00386e-17
7920.26159 1.00345e-17
7921.12306 1.00306e-17
7921.98452 1.00069e-17
7922.85600 9.98310e-18
7923.71746 9.94811e-18
7924.57892 9.91313e-18
7925.44038 9.88158e-18
7926.30185 9.84993e-18
7927.16331 9.83031e-18
7928.02477 9.81069e-18
7928.88623 9.80874e-18
7929.74769 9.80689e-18
7930.60916 9.81911e-18
7931.47062 9.83133e-18
7932.34210 9.84761e-18
7933.20356 9.86399e-18
7934.06502 9.87575e-18
7934.92648 9.88750e-18
7935.78794 9.88750e-18
7936.64941 9.88759e-18
7937.51087 9.87223e-18
7938.37233 9.85677e-18
7939.23379 9.82679e-18
7940.09525 9.79671e-18
7940.95672 9.75646e-18
7941.81818 9.71620e-18
7942.68966 9.67576e-18
7943.55112 9.63532e-18
7944.41258 9.60256e-18
7945.27404 9.56980e-18
7946.13551 9.54611e-18
7946.99697 9.52242e-18
7947.85843 9.50770e-18
7948.71989 9.49289e-18
7949.58135 9.48438e-18
7950.44282 9.47587e-18
7951.30428 9.46976e-18
7952.17576 9.46365e-18
7953.03722 9.45181e-18
7953.89868 9.43996e-18
7954.76014 9.41534e-18
7955.62160 9.39073e-18
7956.48307 9.36361e-18
7957.34453 9.33640e-18
7958.20599 9.32012e-18
7959.06745 9.30392e-18
7959.92891 9.29948e-18
7960.79038 9.29504e-18
7961.66186 9.29957e-18
7962.52332 9.30401e-18
7963.38478 9.31040e-18
7964.24624 9.31679e-18
7965.10770 9.31484e-18
7965.96917 9.31281e-18
7966.83063 9.30836e-18
7967.69209 9.30383e-18
7968.55355 9.31373e-18
7969.41501 9.32373e-18
7970.27648 9.35195e-18
7971.14795 9.38027e-18
7972.00942 9.41830e-18
7972.87088 9.45634e-18
7973.73234 9.49271e-18
7974.59380 9.52917e-18
7975.45526 9.54731e-18
7976.31673 9.56545e-18
7977.17819 9.55823e-18
7978.03965 9.55101e-18
7978.90111 9.53204e-18
7979.76257 9.51307e-18
7980.63405 9.49419e-18
7981.49552 9.47540e-18
7982.35698 9.45958e-18
7983.21844 9.44375e-18
7984.07990 9.43283e-18
7984.94136 9.42191e-18
7985.80283 9.41192e-18
7986.66429 9.40202e-18
7987.52575 9.38878e-18
7988.38721 9.37546e-18
7989.24867 9.36065e-18
7990.11014 9.34584e-18
7990.98161 9.33168e-18
7991.84308 9.31753e-18
7992.70454 9.30836e-18
7993.56600 9.29920e-18
7994.42746 9.30003e-18
7995.28892 9.30096e-18
7996.15039 9.30189e-18
7997.01185 9.30281e-18
7997.87331 9.28800e-18
7998.73477 9.27320e-18
7999.59623 9.24457e-18
8000.46771 9.21595e-18
8001.32917 9.18548e-18
8002.19064 9.15501e-18
8003.05210 9.13173e-18
8003.91356 9.10846e-18
8004.77502 9.10007e-18
8005.63649 9.09172e-18
8006.49795 9.09625e-18
8007.35941 9.10080e-18
8008.22087 9.10248e-18
8009.08233 9.10416e-18
8009.95381 9.09785e-18
8010.81527 9.09153e-18
8011.67674 9.09230e-18
8012.53820 9.09309e-18
8013.39966 9.10829e-18
8014.26112 9.12350e-18
8015.12258 9.14250e-18
8015.98405 9.16150e-18
8016.84551 9.17418e-18
8017.70697 9.18684e-18
8018.56843 9.18291e-18
8019.43991 9.17896e-18
8020.30137 9.15212e-18
8021.16284 9.12525e-18
8022.02430 9.09252e-18
8022.88576 9.05976e-18
8023.74722 9.03992e-18
8024.60868 9.02012e-18
8025.47015 9.01261e-18
8026.33161 9.00515e-18
8027.19307 9.00498e-18
8028.05453 9.00482e-18
8028.92601 9.00580e-18
8029.78747 9.00678e-18
8030.64893 9.00174e-18
8031.51040 8.99668e-18
8032.37186 8.98632e-18
8033.23332 8.97596e-18
8034.09478 8.96530e-18
8034.95624 8.95465e-18
8035.81771 8.94690e-18
8036.67917 8.93916e-18
8037.54063 8.93626e-18
8038.41211 8.93336e-18
8039.27357 8.93600e-18
8040.13503 8.93864e-18
8040.99650 8.94596e-18
8041.85796 8.95329e-18
8042.71942 8.96287e-18
8043.58088 8.97245e-18
8044.44234 8.97998e-18
8045.30380 8.98751e-18
8046.16527 8.98974e-18
8047.02673 8.99195e-18
8047.88819 8.98737e-18
8048.75967 8.98277e-18
8049.62113 8.97217e-18
8050.48259 8.96157e-18
8051.34406 8.95279e-18
8052.20552 8.94402e-18
8053.06698 8.94292e-18
8053.92844 8.94184e-18
8054.78990 8.94396e-18
8055.65137 8.94608e-18
8056.51283 8.94584e-18
8057.37429 8.94559e-18
8058.24577 8.93631e-18
8059.10723 8.92700e-18
8059.96869 8.90300e-18
8060.83015 8.87896e-18
8061.69162 8.84486e-18
8062.55308 8.81073e-18
8063.41454 8.77439e-18
8064.27600 8.73805e-18
8065.13746 8.70841e-18
8065.99893 8.67877e-18
8066.86039 8.66457e-18
8067.73187 8.65040e-18
8068.59333 8.65214e-18
8069.45479 8.65391e-18
8070.31625 8.66690e-18
8071.17772 8.67992e-18
8072.03918 8.69486e-18
8072.90064 8.70979e-18
8073.76210 8.71337e-18
8074.62356 8.71690e-18
8075.48503 8.70420e-18
8076.34649 8.69145e-18
8077.21797 8.66882e-18
8078.07943 8.64616e-18
8078.94089 8.61757e-18
8079.80235 8.58895e-18
8080.66381 8.55365e-18
8081.52528 8.51832e-18
8082.38674 8.47686e-18
8083.24820 8.43538e-18
8084.10966 8.38950e-18
8084.97113 8.34362e-18
8085.83259 8.29540e-18
8086.70407 8.24717e-18
8087.56553 8.19966e-18
8088.42699 8.15216e-18
8089.28845 8.10823e-18
8090.14991 8.06431e-18
8091.01138 8.02655e-18
8091.87284 7.98881e-18
8092.73430 7.95860e-18
8093.59576 7.92842e-18
8094.45722 7.90518e-18
8095.31869 7.88197e-18
8096.18015 7.86384e-18
8097.05163 7.84574e-18
8097.91309 7.82262e-18
8098.77455 7.79950e-18
8099.63601 7.75944e-18
8100.49748 7.71933e-18
8101.35894 7.65853e-18
8102.22040 7.59768e-18
8103.08186 7.51691e-18
8103.94332 7.43609e-18
8104.80479 7.34514e-18
8105.67626 7.25417e-18
8106.53773 7.16890e-18
8107.39919 7.08365e-18
8108.26065 7.01396e-18
8109.12211 6.94430e-18
8109.98357 6.89354e-18
8110.84504 6.84282e-18
8111.70650 6.80654e-18
8112.56796 6.77028e-18
8113.42942 6.73293e-18
8114.29088 6.69558e-18
8115.15235 6.64459e-18
8116.02383 6.59358e-18
8116.88529 6.52361e-18
8117.74675 6.45360e-18
8118.60821 6.36365e-18
8119.46967 6.27365e-18
8120.33114 6.17668e-18
8121.19260 6.07972e-18
8122.05406 5.98612e-18
8122.91552 5.89254e-18
8123.77698 5.79074e-18
8124.63845 5.68893e-18
8125.49991 5.56818e-18
8126.37139 5.44740e-18
8127.23285 5.31347e-18
8128.09431 5.17951e-18
8128.95577 5.04086e-18
8129.81723 4.90220e-18
8130.67870 4.77505e-18
8131.54016 4.64794e-18
8132.40162 4.54976e-18
8133.26308 4.45166e-18
8134.12454 4.37307e-18
8134.99602 4.29454e-18
8135.85749 4.21455e-18
8136.71895 4.13455e-18
8137.58041 4.04518e-18
8138.44187 3.95580e-18
8139.30333 3.85676e-18
8140.16480 3.75769e-18
8141.02626 3.65150e-18
8141.88772 3.54530e-18
8142.74918 3.43789e-18
8143.61064 3.33046e-18
8144.47210 3.22767e-18
8145.34358 3.12489e-18
8146.20505 3.03140e-18
8147.06651 2.93794e-18
8147.92797 2.85705e-18
8148.78943 2.77620e-18
8149.65089 2.70895e-18
8150.51236 2.64175e-18
8151.37382 2.58647e-18
8152.23528 2.53123e-18
8153.09674 2.48065e-18
8153.95820 2.43008e-18
8154.82968 2.37830e-18
8155.69115 2.32652e-18
8156.55261 2.27409e-18
8157.41407 2.22167e-18
8158.27553 2.17039e-18
8159.13699 2.11912e-18
8159.99845 2.07336e-18
8160.85992 2.02760e-18
8161.72138 1.99164e-18
8162.58284 1.95570e-18
8163.44430 1.93083e-18
8164.31578 1.90599e-18
8165.17724 1.89200e-18
8166.03871 1.87803e-18
8166.90017 1.86824e-18
8167.76163 1.85847e-18
8168.62309 1.84481e-18
8169.48455 1.83115e-18
8170.34602 1.80688e-18
8171.20748 1.78259e-18
8172.06894 1.74130e-18
8172.93040 1.69997e-18
8173.80188 1.65258e-18
8174.66334 1.60518e-18
8175.52481 1.57524e-18
8176.38627 1.54535e-18
8177.24773 1.53810e-18
8178.10919 1.53091e-18
8178.97065 1.53271e-18
8179.83212 1.53452e-18
8180.69358 1.53496e-18
8181.55504 1.53539e-18
8182.41650 1.52792e-18
8183.28798 1.52045e-18
8184.14944 1.50270e-18
8185.01090 1.48493e-18
8185.87237 1.46571e-18
8186.73383 1.44648e-18
8187.59529 1.43209e-18
8188.45675 1.41770e-18
8189.31821 1.40327e-18
8190.17968 1.38883e-18
8191.04114 1.37096e-18
8191.90260 1.35307e-18
8192.77408 1.33591e-18
8193.63554 1.31874e-18
8194.49700 1.30649e-18
8195.35846 1.29424e-18
8196.21993 1.29066e-18
8197.08139 1.28710e-18
8197.94285 1.29503e-18
8198.80431 1.30298e-18
8199.66577 1.31562e-18
8200.52724 1.32827e-18
8201.38870 1.33612e-18
8202.25016 1.34396e-18
8203.12164 1.34516e-18
8203.98310 1.34636e-18
8204.84456 1.34246e-18
8205.70603 1.33855e-18
8206.56749 1.33035e-18
8207.42895 1.32212e-18
8208.29041 1.31025e-18
8209.15187 1.29838e-18
8210.01334 1.28479e-18
8210.87480 1.27119e-18
8211.73626 1.25837e-18
8212.60774 1.24557e-18
8213.46920 1.23459e-18
8214.33066 1.22362e-18
8215.19212 1.21431e-18
8216.05359 1.20500e-18
8216.91505 1.19438e-18
8217.77651 1.18377e-18
8218.63797 1.16366e-18
8219.49943 1.14352e-18
8220.36090 1.11077e-18
8221.22236 1.07799e-18
8222.08382 1.04099e-18
8222.95530 1.00398e-18
8223.81676 9.72101e-19
8224.67822 9.40229e-19
8225.53969 9.25201e-19
8226.40115 9.10217e-19
8227.26261 9.20517e-19
8228.12407 9.30873e-19
8228.98553 9.58609e-19
8229.84700 9.86381e-19
8230.70846 1.02058e-18
8231.57994 1.05481e-18
8232.44140 1.08483e-18
8233.30286 1.11485e-18
8234.16432 1.13079e-18
8235.02578 1.14671e-18
8235.88725 1.15187e-18
8236.74871 1.15698e-18
8237.61017 1.15959e-18
8238.47163 1.16220e-18
8239.33309 1.16802e-18
8240.19456 1.17385e-18
8241.06604 1.18768e-18
8241.92750 1.20153e-18
8242.78896 1.22055e-18
8243.65042 1.23959e-18
8244.51188 1.25517e-18
8245.37335 1.27076e-18
8246.23481 1.27866e-18
8247.09627 1.28654e-18
8247.95773 1.28724e-18
8248.81919 1.28791e-18
8249.68066 1.28313e-18
8250.54212 1.27834e-18
8251.41360 1.27191e-18
8252.27506 1.26548e-18
8253.13652 1.26100e-18
8253.99798 1.25653e-18
8254.85945 1.25617e-18
8255.72091 1.25583e-18
8256.58237 1.26082e-18
8257.44383 1.26582e-18
8258.30529 1.27531e-18
8259.16676 1.28480e-18
8260.02822 1.29696e-18
8260.89970 1.30913e-18
8261.76116 1.32060e-18
8262.62262 1.33208e-18
8263.48408 1.33954e-18
8264.34554 1.34700e-18
8265.20701 1.34749e-18
8266.06847 1.34797e-18
8266.92993 1.33952e-18
8267.79139 1.33105e-18
8268.65285 1.31816e-18
8269.52433 1.30525e-18
8270.38580 1.29415e-18
8271.24726 1.28306e-18
8272.10872 1.27796e-18
8272.97018 1.27287e-18
8273.83164 1.27699e-18
8274.69311 1.28114e-18
8275.55457 1.29126e-18
8276.41603 1.30139e-18
8277.27749 1.31020e-18
8278.13895 1.31900e-18
8279.01043 1.32352e-18
8279.87189 1.32802e-18
8280.73336 1.32895e-18
8281.59482 1.32986e-18
8282.45628 1.32941e-18
8283.31774 1.32895e-18
8284.17920 1.33172e-18
8285.04067 1.33451e-18
8285.90213 1.34227e-18
8286.76359 1.35005e-18
8287.62505 1.35863e-18
8288.48651 1.36721e-18
8289.34798 1.37438e-18
8290.21946 1.38154e-18
8291.08092 1.39064e-18
8291.94238 1.39973e-18
8292.80384 1.41266e-18
8293.66530 1.42559e-18
8294.52677 1.43898e-18
8295.38823 1.45236e-18
8296.24969 1.46308e-18
8297.11115 1.47380e-18
8297.97261 1.47983e-18
8298.83408 1.48585e-18
8299.70555 1.48601e-18
8300.56702 1.48615e-18
8301.42848 1.48753e-18
8302.28994 1.48891e-18
8303.15140 1.49991e-18
8304.01286 1.51093e-18
8304.87433 1.52833e-18
8305.73579 1.54573e-18
8306.59725 1.56252e-18
8307.45871 1.57930e-18
8308.32017 1.59124e-18
8309.18164 1.60316e-18
8310.05312 1.60714e-18
8310.91458 1.61110e-18
8311.77604 1.61044e-18
8312.63750 1.60975e-18
8313.49896 1.61246e-18
8314.36043 1.61517e-18
8315.22189 1.62577e-18
8316.08335 1.63639e-18
8316.94481 1.65578e-18
8317.80627 1.67520e-18
8318.67775 1.70109e-18
8319.53921 1.72700e-18
8320.40068 1.75219e-18
8321.26214 1.77738e-18
8322.12360 1.79672e-18
8322.98506 1.81603e-18
8323.84652 1.82943e-18
8324.70799 1.84282e-18
8325.56945 1.85097e-18
8326.43091 1.85911e-18
8327.29237 1.86400e-18
8328.16385 1.86890e-18
8329.02531 1.87306e-18
8329.88678 1.87720e-18
8330.74824 1.88203e-18
8331.60970 1.88687e-18
8332.47116 1.89380e-18
8333.33262 1.90074e-18
8334.19408 1.91326e-18
8335.05555 1.92579e-18
8335.91701 1.94678e-18
8336.77847 1.96778e-18
8337.64995 1.99499e-18
8338.51141 2.02220e-18
8339.37287 2.05174e-18
8340.23434 2.08129e-18
8341.09580 2.10784e-18
8341.95726 2.13438e-18
8342.81872 2.15218e-18
8343.68018 2.16995e-18
8344.54165 2.17912e-18
8345.40311 2.18827e-18
8346.26457 2.19285e-18
8347.12603 2.19741e-18
8347.99751 2.20069e-18
8348.85897 2.20397e-18
8349.72043 2.20840e-18
8350.58190 2.21284e-18
8351.44336 2.22129e-18
8352.30482 2.22974e-18
8353.16628 2.24522e-18
8354.02775 2.26071e-18
8354.88921 2.28357e-18
8355.75067 2.30644e-18
8356.62215 2.33295e-18
8357.48361 2.35947e-18
8358.34507 2.38590e-18
8359.20653 2.41233e-18
8360.06800 2.43545e-18
8360.92946 2.45855e-18
8361.79092 2.47639e-18
8362.65238 2.49422e-18
8363.51384 2.51017e-18
8364.37531 2.52611e-18
8365.23677 2.54345e-18
8366.10825 2.56080e-18
8366.96971 2.57738e-18
8367.83117 2.59397e-18
8368.69263 2.60752e-18
8369.55410 2.62106e-18
8370.41556 2.63378e-18
8371.27702 2.64650e-18
8372.13848 2.66144e-18
8372.99994 2.67638e-18
8373.86140 2.69518e-18
8374.72287 2.71400e-18
8375.59435 2.73775e-18
8376.45581 2.76152e-18
8377.31727 2.78998e-18
8378.17873 2.81846e-18
8379.04019 2.85054e-18
8379.90166 2.88264e-18
8380.76312 2.91659e-18
8381.62458 2.95055e-18
8382.48604 2.98430e-18
8383.34750 3.01805e-18
8384.20897 3.04989e-18
8385.07043 3.08172e-18
8385.94191 3.11007e-18
8386.80337 3.13843e-18
8387.66483 3.16424e-18
8388.52629 3.19005e-18
8389.38775 3.21833e-18
8390.24922 3.24662e-18
8391.11068 3.27878e-18
8391.97214 3.31094e-18
8392.83360 3.34050e-18
8393.69507 3.37007e-18
8394.55653 3.39241e-18
8395.41799 3.41474e-18
8396.28947 3.42973e-18
8397.15093 3.44471e-18
8398.01239 3.45422e-18
8398.87385 3.46372e-18
8399.73532 3.47826e-18
8400.59678 3.49282e-18
8401.45824 3.52199e-18
8402.31970 3.55120e-18
8403.18116 3.59190e-18
8404.04263 3.63262e-18
8404.90409 3.67898e-18
8405.77557 3.72534e-18
8406.63703 3.77088e-18
8407.49849 3.81640e-18
8408.35995 3.85439e-18
8409.22142 3.89236e-18
8410.08288 3.92284e-18
8410.94434 3.95331e-18
8411.80580 3.97970e-18
8412.66726 4.00608e-18
8413.52873 4.03076e-18
8414.39019 4.05542e-18
8415.26167 4.08028e-18
8416.12313 4.10514e-18
8416.98459 4.13222e-18
8417.84605 4.15931e-18
8418.70751 4.19028e-18
8419.56898 4.22126e-18
8420.43044 4.25676e-18
8421.29190 4.29228e-18
8422.15336 4.33218e-18
8423.01482 4.37209e-18
8423.87629 4.41425e-18
8424.74777 4.45644e-18
8425.60923 4.49504e-18
8426.47069 4.53365e-18
8427.33215 4.56633e-18
8428.19361 4.59900e-18
8429.05508 4.63233e-18
8429.91654 4.66567e-18
8430.77800 4.70503e-18
8431.63946 4.74439e-18
8432.50092 4.79035e-18
8433.36239 4.83632e-18
8434.23386 4.88802e-18
8435.09533 4.93972e-18
8435.95679 4.98858e-18
8436.81825 5.03743e-18
8437.67971 5.07498e-18
8438.54117 5.11252e-18
8439.40264 5.14372e-18
8440.26410 5.17489e-18
8441.12556 5.20777e-18
8441.98702 5.24063e-18
8442.84848 5.27753e-18
8443.70995 5.31446e-18
8444.58143 5.35596e-18
8445.44289 5.39746e-18
8446.30435 5.44399e-18
8447.16581 5.49053e-18
8448.02727 5.54196e-18
8448.88874 5.59338e-18
8449.75020 5.64811e-18
8450.61166 5.70284e-18
8451.47312 5.75855e-18
8452.33458 5.81424e-18
8453.20606 5.86825e-18
8454.06752 5.92224e-18
8454.92899 5.97130e-18
8455.79045 6.02035e-18
8456.65191 6.06518e-18
8457.51337 6.11000e-18
8458.37483 6.15755e-18
8459.23630 6.20510e-18
8460.09776 6.25831e-18
8460.95922 6.31153e-18
8461.82068 6.36442e-18
8462.69216 6.41731e-18
8463.55362 6.46564e-18
8464.41508 6.51398e-18
8465.27655 6.55808e-18
8466.13801 6.60218e-18
8466.99947 6.64383e-18
8467.86093 6.68548e-18
8468.72240 6.73352e-18
8469.58386 6.78156e-18
8470.44532 6.84381e-18
8471.30678 6.90608e-18
8472.16824 6.97769e-18
8473.03972 7.04933e-18
8473.90118 7.12328e-18
8474.76265 7.19723e-18
8475.62411 7.26819e-18
8476.48557 7.33915e-18
8477.34703 7.40199e-18
8478.20849 7.46482e-18
8479.06996 7.52561e-18
8479.93142 7.58639e-18
8480.79288 7.65619e-18
8481.65434 7.72600e-18
8482.51580 7.80233e-18
8483.38728 7.87865e-18
8484.24875 7.95121e-18
8485.11021 8.02374e-18
8485.97167 8.08793e-18
8486.83313 8.15210e-18
8487.69459 8.20780e-18
8488.55605 8.26349e-18
8489.41752 8.31364e-18
8490.27898 8.36379e-18
8491.14044 8.41583e-18
8492.00190 8.46788e-18
8492.87338 8.52663e-18
8493.73484 8.58541e-18
8494.59631 8.64957e-18
8495.45777 8.71373e-18
8496.31923 8.78400e-18
8497.18069 8.85428e-18
8498.04215 8.93851e-18
8498.90362 9.02277e-18
8499.76508 9.12391e-18
8500.62654 9.22509e-18
8501.48800 9.32965e-18
8502.35948 9.43422e-18
8503.22094 9.52899e-18
8504.08240 9.62375e-18
8504.94387 9.70602e-18
8505.80533 9.78820e-18
8506.66679 9.85742e-18
8507.52825 9.92655e-18
8508.38972 9.98754e-18
8509.25118 1.00485e-17
8510.11264 1.01078e-17
8510.98412 1.01673e-17
8511.84558 1.02275e-17
8512.70704 1.02877e-17
8513.56850 1.03502e-17
8514.42997 1.04126e-17
8515.29143 1.04770e-17
8516.15289 1.05414e-17
8517.01435 1.06070e-17
8517.87581 1.06726e-17
8518.73728 1.07395e-17
8519.59874 1.08062e-17
8520.46020 1.08744e-17
8521.33168 1.09425e-17
8522.19314 1.10150e-17
8523.05460 1.10875e-17
8523.91607 1.11700e-17
8524.77753 1.12525e-17
8525.63899 1.13468e-17
8526.50045 1.14411e-17
8527.36191 1.15438e-17
8528.22337 1.16465e-17
8529.08484 1.17522e-17
8529.94630 1.18578e-17
8530.80776 1.19577e-17
8531.67924 1.20575e-17
8532.54070 1.21444e-17
8533.40216 1.22312e-17
8534.26363 1.23024e-17
8535.12509 1.23736e-17
8535.98655 1.24298e-17
8536.84801 1.24860e-17
8537.70947 1.25381e-17
8538.57094 1.25902e-17
8539.43240 1.26497e-17
8540.30388 1.27093e-17
8541.16534 1.27839e-17
8542.02680 1.28585e-17
8542.88826 1.29527e-17
8543.74972 1.30470e-17
8544.61119 1.31546e-17
8545.47265 1.32623e-17
8546.33411 1.33734e-17
8547.19557 1.34845e-17
8548.05703 1.35820e-17
8548.91850 1.36795e-17
8549.78998 1.37445e-17
8550.65144 1.38096e-17
8551.51290 1.38439e-17
8552.37436 1.38781e-17
8553.23582 1.38959e-17
8554.09729 1.39137e-17
8554.95875 1.39341e-17
8555.82021 1.39547e-17
8556.68167 1.40006e-17
8557.54313 1.40466e-17
8558.40460 1.41283e-17
8559.27607 1.42100e-17
8560.13754 1.43212e-17
8560.99900 1.44323e-17
8561.86046 1.45607e-17
8562.72192 1.46892e-17
8563.58338 1.48151e-17
8564.44485 1.49410e-17
8565.30631 1.50461e-17
8566.16777 1.51512e-17
8567.02923 1.52234e-17
8567.89070 1.52956e-17
8568.75216 1.53293e-17
8569.62364 1.53630e-17
8570.48510 1.53676e-17
8571.34656 1.53723e-17
8572.20802 1.53616e-17
8573.06948 1.53509e-17
8573.93095 1.53401e-17
8574.79241 1.53292e-17
8575.65387 1.53328e-17
8576.51533 1.53365e-17
8577.37679 1.53699e-17
8578.23826 1.54034e-17
8579.09972 1.54782e-17
8579.97120 1.55531e-17
8580.83266 1.56547e-17
8581.69412 1.57564e-17
8582.55558 1.58607e-17
8583.41705 1.59650e-17
8584.27851 1.60524e-17
8585.13997 1.61400e-17
8586.00143 1.61948e-17
8586.86289 1.62496e-17
8587.72436 1.62695e-17
8588.58582 1.62894e-17
8589.45730 1.62833e-17
8590.31876 1.62770e-17
8591.18022 1.62584e-17
8592.04168 1.62399e-17
8592.90314 1.62275e-17
8593.76461 1.62151e-17
8594.62607 1.62192e-17
8595.48753 1.62232e-17
8596.34899 1.62396e-17
8597.21045 1.62559e-17
8598.07192 1.62820e-17
8598.94340 1.63081e-17
8599.80486 1.63466e-17
8600.66632 1.63852e-17
8601.52778 1.64350e-17
8602.38924 1.64848e-17
8603.25071 1.65379e-17
8604.11217 1.65911e-17
8604.97363 1.66389e-17
8605.83509 1.66867e-17
8606.69655 1.67175e-17
8607.56803 1.67482e-17
8608.42949 1.67524e-17
8609.29096 1.67566e-17
8610.15242 1.67370e-17
8611.01388 1.67172e-17
8611.87534 1.66804e-17
8612.73680 1.66434e-17
8613.59827 1.65970e-17
8614.45973 1.65504e-17
8615.32119 1.65023e-17
8616.18265 1.64542e-17
8617.04411 1.64195e-17
8617.91559 1.63848e-17
8618.77706 1.63800e-17
8619.63852 1.63751e-17
8620.49998 1.64012e-17
8621.36144 1.64272e-17
8622.22290 1.64750e-17
8623.08437 1.65230e-17
8623.94583 1.65800e-17
8624.80729 1.66371e-17
8625.66875 1.66872e-17
8626.53021 1.67373e-17
8627.40169 1.67707e-17
8628.26315 1.68040e-17
8629.12462 1.68205e-17
8629.98608 1.68369e-17
8630.84754 1.68361e-17
8631.70900 1.68353e-17
8632.57046 1.68149e-17
8633.43193 1.67945e-17
8634.29339 1.67573e-17
8635.15485 1.67202e-17
8636.01631 1.66780e-17
8636.88779 1.66357e-17
8637.74925 1.66006e-17
8638.61072 1.65655e-17
8639.47218 1.65514e-17
8640.33364 1.65375e-17
8641.19510 1.65542e-17
8642.05656 1.65710e-17
8642.91803 1.66103e-17
8643.77949 1.66498e-17
8644.64095 1.66995e-17
8645.50241 1.67492e-17
8646.37389 1.67963e-17
8647.23535 1.68434e-17
8648.09681 1.68751e-17
8648.95828 1.69066e-17
8649.81974 1.69180e-17
8650.68120 1.69294e-17
8651.54266 1.69207e-17
8652.40412 1.69119e-17
8653.26559 1.68817e-17
8654.12705 1.68516e-17
8654.98851 1.67990e-17
8655.85999 1.67464e-17
8656.72145 1.66806e-17
8657.58291 1.66148e-17
8658.44438 1.65516e-17
8659.30584 1.64884e-17
8660.16730 1.64386e-17
8661.02876 1.63889e-17
8661.89022 1.63574e-17
8662.75168 1.63260e-17
8663.61315 1.63153e-17
8664.47461 1.63046e-17
8665.33607 1.63140e-17
8666.20755 1.63233e-17
8667.06901 1.63483e-17
8667.93047 1.63734e-17
8668.79194 1.64062e-17
8669.65340 1.64392e-17
8670.51486 1.64694e-17
8671.37632 1.64995e-17
8672.23778 1.65089e-17
8673.09925 1.65181e-17
8673.96071 1.64931e-17
8674.82217 1.64681e-17
8675.68363 1.64128e-17
8676.55511 1.63575e-17
8677.41657 1.62808e-17
8678.27803 1.62040e-17
8679.13950 1.61210e-17
8680.00096 1.60379e-17
8680.86242 1.59649e-17
8681.72388 1.58920e-17
8682.58535 1.58356e-17
8683.44681 1.57794e-17
8684.30827 1.57420e-17
8685.16973 1.57046e-17
8686.04121 1.56884e-17
8686.90267 1.56723e-17
8687.76413 1.56776e-17
8688.62560 1.56829e-17
8689.48706 1.57056e-17
8690.34852 1.57283e-17
8691.20998 1.57616e-17
8692.07144 1.57950e-17
8692.93291 1.58278e-17
8693.79437 1.58604e-17
8694.66585 1.58781e-17
8695.52731 1.58958e-17
8696.38877 1.58897e-17
8697.25023 1.58835e-17
8698.11170 1.58520e-17
8698.97316 1.58204e-17
8699.83462 1.57670e-17
8700.69608 1.57136e-17
8701.55754 1.56499e-17
8702.41900 1.55861e-17
8703.28047 1.55218e-17
8704.15195 1.54574e-17
8705.01341 1.53927e-17
8705.87487 1.53281e-17
8706.73633 1.52658e-17
8707.59779 1.52036e-17
8708.45926 1.51568e-17
8709.32072 1.51101e-17
8710.18218 1.50889e-17
8711.04364 1.50677e-17
8711.90510 1.50725e-17
8712.76657 1.50775e-17
8713.62803 1.51047e-17
8714.49951 1.51319e-17
8715.36097 1.51616e-17
8716.22243 1.51913e-17
8717.08389 1.52010e-17
8717.94535 1.52106e-17
8718.80682 1.51910e-17
8719.66828 1.51712e-17
8720.52974 1.51189e-17
8721.39120 1.50665e-17
8722.25267 1.49943e-17
8723.11413 1.49221e-17
8723.98561 1.48525e-17
8724.84707 1.47828e-17
8725.70853 1.47241e-17
8726.56999 1.46652e-17
8727.43145 1.46149e-17
8728.29292 1.45646e-17
8729.15438 1.45230e-17
8730.01584 1.44813e-17
8730.87730 1.44495e-17
8731.73876 1.44176e-17
8732.61024 1.43985e-17
8733.47170 1.43794e-17
8734.33317 1.43819e-17
8735.19463 1.43844e-17
8736.05609 1.44059e-17
8736.91755 1.44274e-17
8737.77902 1.44425e-17
8738.64048 1.44576e-17
8739.50194 1.44448e-17
8740.36340 1.44320e-17
8741.22486 1.43796e-17
8742.08633 1.43272e-17
8742.95780 1.42321e-17
8743.81927 1.41370e-17
8744.68073 1.40267e-17
8745.54219 1.39163e-17
8746.40365 1.38205e-17
8747.26511 1.37247e-17
8748.12658 1.36573e-17
8748.98804 1.35902e-17
8749.84950 1.35596e-17
8750.71096 1.35292e-17
8751.57242 1.35269e-17
8752.44390 1.35246e-17
8753.30537 1.35341e-17
8754.16683 1.35436e-17
8755.02829 1.35558e-17
8755.88975 1.35680e-17
8756.75121 1.35771e-17
8757.61268 1.35862e-17
8758.47414 1.35789e-17
8759.33560 1.35715e-17
8760.19706 1.35317e-17
8761.05852 1.34918e-17
8761.91999 1.34169e-17
8762.79146 1.33420e-17
8763.65293 1.32406e-17
8764.51439 1.31392e-17
8765.37585 1.30255e-17
8766.23731 1.29118e-17
8767.09877 1.28059e-17
8767.96024 1.27003e-17
8768.82170 1.26153e-17
8769.68316 1.25305e-17
8770.54462 1.24649e-17
8771.40608 1.23994e-17
8772.26755 1.23503e-17
8773.13903 1.23012e-17
8774.00049 1.22663e-17
8774.86195 1.22313e-17
8775.72341 1.22060e-17
8776.58487 1.21805e-17
8777.44633 1.21605e-17
8778.30780 1.21406e-17
8779.16926 1.21203e-17
8780.03072 1.20999e-17
8780.89218 1.20615e-17
8781.76366 1.20230e-17
8782.62512 1.19507e-17
8783.48659 1.18781e-17
8784.34805 1.17794e-17
8785.20951 1.16806e-17
8786.07097 1.15697e-17
8786.93243 1.14587e-17
8787.79390 1.13462e-17
8788.65536 1.12336e-17
8789.51682 1.11299e-17
8790.37828 1.10262e-17
8791.24976 1.09309e-17
8792.11122 1.08357e-17
8792.97268 1.07416e-17
8793.83415 1.06474e-17
8794.69561 1.05591e-17
8795.55707 1.04709e-17
8796.41853 1.04020e-17
8797.28000 1.03334e-17
8798.14146 1.02813e-17
8799.00292 1.02293e-17
8799.86438 1.01758e-17
8800.72584 1.01223e-17
8801.59732 1.00526e-17
8802.45878 9.98291e-18
8803.32025 9.88704e-18
8804.18171 9.79116e-18
8805.04317 9.66780e-18
8805.90463 9.54444e-18
8806.76609 9.41136e-18
8807.62756 9.27819e-18
8808.48902 9.15157e-18
8809.35048 9.02501e-18
8810.21194 8.91269e-18
8811.08342 8.80040e-18
8811.94488 8.70760e-18
8812.80635 8.61485e-18
8813.66781 8.53952e-18
8814.52927 8.46425e-18
8815.39073 8.40146e-18
8816.25219 8.33870e-18
8817.11365 8.28229e-18
8817.97512 8.22590e-18
8818.83658 8.16900e-18
8819.70806 8.11210e-18
8820.56952 8.04638e-18
8821.43098 7.98063e-18
8822.29244 7.89883e-18
8823.15391 7.81699e-18
8824.01537 7.71822e-18
8824.87683 7.61941e-18
8825.73829 7.50628e-18
8826.59975 7.39311e-18
8827.46122 7.27603e-18
8828.32268 7.15895e-18
8829.19416 7.05294e-18
8830.05562 6.94697e-18
8830.91708 6.85968e-18
8831.77854 6.77245e-18
8832.64000 6.70443e-18
8833.50147 6.63647e-18
8834.36293 6.58528e-18
8835.22439 6.53414e-18
8836.08585 6.49380e-18
8836.94732 6.45349e-18
8837.80878 6.41697e-18
8838.67024 6.38046e-18
8839.54172 6.34057e-18
8840.40318 6.30067e-18
8841.26464 6.25210e-18
8842.12610 6.20350e-18
8842.98757 6.14554e-18
8843.84903 6.08756e-18
8844.71049 6.02132e-18
8845.57195 5.95507e-18
8846.43341 5.88444e-18
8847.29488 5.81380e-18
8848.15634 5.74375e-18
8849.02782 5.67369e-18
8849.88928 5.60687e-18
8850.75074 5.54006e-18
8851.61220 5.47899e-18
8852.47367 5.41795e-18
8853.33513 5.37562e-18
8854.19659 5.33333e-18
8855.05805 5.32264e-18
8855.91951 5.31203e-18
8856.78097 5.32274e-18
8857.64244 5.33350e-18
8858.50390 5.34752e-18
8859.36536 5.36153e-18
8860.23684 5.36391e-18
8861.09830 5.36626e-18
8861.95976 5.34355e-18
8862.82123 5.32075e-18
8863.68269 5.27800e-18
8864.54415 5.23519e-18
8865.40561 5.19206e-18
8866.26707 5.14894e-18
8867.12854 5.11458e-18
8867.99000 5.08026e-18
8868.86148 5.05238e-18
8869.72294 5.02450e-18
8870.58440 5.00208e-18
8871.44586 4.97967e-18
8872.30732 4.96183e-18
8873.16879 4.94402e-18
8874.03025 4.93176e-18
8874.89171 4.91950e-18
8875.75317 4.92037e-18
8876.61463 4.92128e-18
8877.47610 4.93834e-18
8878.34758 4.95544e-18
8879.20904 4.97925e-18
8880.07050 5.00308e-18
8880.93196 5.02375e-18
8881.79342 5.04442e-18
8882.65489 5.05276e-18
8883.51635 5.06106e-18
8884.37781 5.05036e-18
8885.23927 5.03961e-18
8886.10073 5.01606e-18
8886.96220 4.99248e-18
8887.83367 4.96577e-18
8888.69514 4.93906e-18
8889.55660 4.91814e-18
8890.41806 4.89724e-18
8891.27952 4.89023e-18
8892.14099 4.88327e-18
8893.00245 4.89477e-18
8893.86391 4.90632e-18
8894.72537 4.93813e-18
8895.58683 4.96999e-18
8896.44830 5.01464e-18
8897.30976 5.05932e-18
8898.18124 5.10402e-18
8899.04270 5.14870e-18
8899.90416 5.18253e-18
8900.76562 5.21632e-18
8901.62708 5.23016e-18
8902.48855 5.24395e-18
8903.35001 5.23922e-18
8904.21147 5.23445e-18
8905.07293 5.22627e-18
8905.93439 5.21809e-18
8906.80587 5.21642e-18
8907.66734 5.21475e-18
8908.52880 5.21857e-18
8909.39026 5.22242e-18
8910.25172 5.23176e-18
8911.11318 5.24112e-18
8911.97465 5.25784e-18
8912.83611 5.27457e-18
8913.69757 5.29942e-18
8914.55903 5.32430e-18
8915.42049 5.35905e-18
8916.29197 5.39381e-18
8917.15343 5.43804e-18
8918.01490 5.48229e-18
8918.87636 5.52462e-18
8919.73782 5.56694e-18
8920.59928 5.59598e-18
8921.46074 5.62498e-18
8922.32221 5.63750e-18
8923.18367 5.64998e-18
8924.04513 5.64565e-18
8924.90659 5.64128e-18
8925.76805 5.63350e-18
8926.63953 5.62572e-18
8927.50100 5.63281e-18
8928.36246 5.63993e-18
8929.22392 5.66259e-18
8930.08538 5.68528e-18
8930.94684 5.71522e-18
8931.80831 5.74517e-18
8932.66977 5.77641e-18
8933.53123 5.80763e-18
8934.39269 5.83435e-18
8935.25415 5.86105e-18
8936.12563 5.88599e-18
8936.98709 5.91092e-18
8937.84856 5.94716e-18
8938.71002 5.98344e-18
8939.57148 6.03158e-18
8940.43294 6.07974e-18
8941.29440 6.12204e-18
8942.15587 6.16432e-18
8943.01733 6.18774e-18
8943.87879 6.21111e-18
8944.74025 6.20982e-18
8945.61173 6.20846e-18
8946.47319 6.18457e-18
8947.33466 6.16061e-18
8948.19612 6.14150e-18
8949.05758 6.12240e-18
8949.91904 6.13030e-18
8950.78050 6.13828e-18
8951.64197 6.16629e-18
8952.50343 6.19435e-18
8953.36489 6.23128e-18
8954.22635 6.26825e-18
8955.08781 6.28498e-18
8955.95929 6.30165e-18
8956.82075 6.26954e-18
8957.68222 6.23731e-18
8958.54368 6.19198e-18
8959.40514 6.14663e-18
8960.26660 6.14058e-18
8961.12806 6.13465e-18
8961.98953 6.17539e-18
8962.85099 6.21626e-18
8963.71245 6.29383e-18
8964.57391 6.37151e-18
8965.44539 6.46079e-18
8966.30685 6.55010e-18
8967.16832 6.61302e-18
8968.02978 6.67588e-18
8968.89124 6.71662e-18
8969.75270 6.75731e-18
8970.61416 6.81746e-18
8971.47563 6.87767e-18
8972.33709 6.97165e-18
8973.19855 7.06572e-18
8974.06001 7.17571e-18
8974.93149 7.28572e-18
8975.79295 7.38592e-18
8976.65441 7.48608e-18
8977.51588 7.53702e-18
8978.37734 7.58784e-18
8979.23880 7.55882e-18
8980.10026 7.52957e-18
8980.96172 7.40080e-18
8981.82319 7.27177e-18
8982.68465 7.05595e-18
8983.54611 6.83989e-18
8984.41759 6.65311e-18
8985.27905 6.46640e-18
8986.14051 6.41573e-18
8987.00198 6.36543e-18
8987.86344 6.48760e-18
8988.72490 6.61024e-18
8989.58636 6.91078e-18
8990.44782 7.21180e-18
8991.30928 7.54728e-18
8992.17075 7.88284e-18
8993.03221 8.08057e-18
8993.89367 8.27793e-18
8994.76515 8.31203e-18
8995.62661 8.34570e-18
8996.48807 8.24774e-18
8997.34954 8.14942e-18
8998.21100 7.99662e-18
8999.07246 7.84368e-18
8999.93392 7.74144e-18
9000.79538 7.63933e-18
9001.65685 7.63358e-18
9002.51831 7.62810e-18
9003.38979 7.71602e-18
9004.25125 7.80418e-18
9005.11271 7.95510e-18
9005.97417 8.10619e-18
9006.83563 8.26003e-18
9007.69710 8.41388e-18
9008.55856 8.52379e-18
9009.42002 8.63359e-18
9010.28148 8.67784e-18
9011.14295 8.72191e-18
9012.00441 8.70148e-18
9012.87589 8.68087e-18
9013.73735 8.64738e-18
9014.59881 8.61386e-18
9015.46027 8.60562e-18
9016.32173 8.59744e-18
9017.18320 8.59104e-18
9018.04466 8.58466e-18
9018.90612 8.56270e-18
9019.76758 8.54070e-18
9020.62904 8.52331e-18
9021.49051 8.50592e-18
9022.35197 8.51400e-18
9023.22345 8.52214e-18
9024.08491 8.58199e-18
9024.94637 8.64198e-18
9025.80783 8.77460e-18
9026.66930 8.90743e-18
9027.53076 9.08095e-18
9028.39222 9.25460e-18
9029.25368 9.42080e-18
9030.11514 9.58692e-18
9030.97660 9.71231e-18
9031.83807 9.83753e-18
9032.70955 9.89722e-18
9033.57101 9.95672e-18
9034.43247 9.94848e-18
9035.29393 9.94006e-18
9036.15539 9.87658e-18
9037.01686 9.81291e-18
9037.87832 9.72675e-18
9038.73978 9.64050e-18
9039.60124 9.58174e-18
9040.46270 9.52316e-18
9041.32417 9.50520e-18
9042.18563 9.48734e-18
9043.05711 9.47355e-18
9043.91857 9.45967e-18
9044.78003 9.43071e-18
9045.64149 9.40165e-18
9046.50295 9.36907e-18
9047.36442 9.33650e-18
9048.22588 9.31040e-18
9049.08734 9.28430e-18
9049.94880 9.28079e-18
9050.81027 9.27718e-18
9051.67173 9.30050e-18
9052.54321 9.32391e-18
9053.40467 9.32641e-18
9054.26613 9.32872e-18
9055.12759 9.26857e-18
9055.98905 9.20828e-18
9056.85052 9.10779e-18
9057.71198 9.00718e-18
9058.57344 8.89662e-18
9059.43490 8.78604e-18
9060.29636 8.66917e-18
9061.16784 8.55228e-18
9062.02931 8.43059e-18
9062.89077 8.30889e-18
9063.75223 8.17796e-18
9064.61369 8.04700e-18
9065.47515 7.89707e-18
9066.33662 7.74709e-18
9067.19808 7.61634e-18
9068.05954 7.48565e-18
9068.92100 7.43748e-18
9069.78246 7.38954e-18
9070.64393 7.40992e-18
9071.51540 7.43051e-18
9072.37687 7.44848e-18
9073.23833 7.46645e-18
9074.09979 7.45582e-18
9074.96125 7.44513e-18
9075.82271 7.42571e-18
9076.68418 7.40627e-18
9077.54564 7.39047e-18
9078.40710 7.37468e-18
9079.26856 7.36966e-18
9080.13002 7.36466e-18
9080.99149 7.37013e-18
9081.86297 7.37562e-18
9082.72443 7.36697e-18
9083.58589 7.35828e-18
9084.44735 7.32178e-18
9085.30881 7.28520e-18
9086.17028 7.24795e-18
9087.03174 7.21070e-18
9087.89320 7.19358e-18
9088.75466 7.17650e-18
9089.61612 7.15287e-18
9090.48760 7.12920e-18
9091.34906 7.07350e-18
9092.21053 7.01803e-18
9093.07199 6.95663e-18
9093.93345 6.89522e-18
9094.79491 6.86036e-18
9095.65637 6.82558e-18
9096.51784 6.80812e-18
9097.37930 6.79073e-18
9098.24076 6.77145e-18
9099.10222 6.75215e-18
9099.97370 6.73602e-18
9100.83516 6.71990e-18
9101.69663 6.71722e-18
9102.55809 6.71457e-18
9103.41955 6.74506e-18
9104.28101 6.77563e-18
9105.14247 6.86752e-18
9106.00393 6.95958e-18
9106.86540 7.07939e-18
9107.72686 7.19927e-18
9108.58832 7.26111e-18
9109.45980 7.32279e-18
9110.32126 7.29007e-18
9111.18272 7.25709e-18
9112.04419 7.15111e-18
9112.90565 7.04492e-18
9113.76711 6.90947e-18
9114.62857 6.77395e-18
9115.49003 6.69891e-18
9116.35150 6.62405e-18
9117.21296 6.65626e-18
9118.07442 6.68877e-18
9118.93588 6.75889e-18
9119.80736 6.82912e-18
9120.66882 6.86944e-18
9121.53028 6.90968e-18
9122.39175 6.87684e-18
9123.25321 6.84379e-18
9124.11467 6.71174e-18
9124.97613 6.57942e-18
9125.83760 6.40924e-18
9126.69906 6.23896e-18
9127.56052 6.10498e-18
9128.43200 5.97111e-18
9129.29346 5.91174e-18
9130.15492 5.85259e-18
9131.01638 5.89258e-18
9131.87785 5.93284e-18
9132.73931 6.05551e-18
9133.60077 6.17841e-18
9134.46223 6.34604e-18
9135.32369 6.51378e-18
9136.18516 6.68711e-18
9137.04662 6.86047e-18
9137.90808 6.99899e-18
9138.76954 7.13742e-18
9139.64102 7.21507e-18
9140.50248 7.29255e-18
9141.36395 7.30052e-18
9142.22541 7.30830e-18
9143.08687 7.23339e-18
9143.94833 7.15825e-18
9144.80979 6.98147e-18
9145.67125 6.80441e-18
9146.53272 6.54867e-18
9147.39418 6.29271e-18
9148.26566 6.03526e-18
9149.12712 5.77780e-18
9149.98858 5.58873e-18
9150.85004 5.39984e-18
9151.71151 5.33585e-18
9152.57297 5.27220e-18
9153.43443 5.35542e-18
9154.29589 5.43903e-18
9155.15735 5.59672e-18
9156.01882 5.75461e-18
9156.88028 5.90994e-18
9157.75176 6.06525e-18
9158.61322 6.18228e-18
9159.47468 6.29920e-18
9160.33614 6.35018e-18
9161.19760 6.40097e-18
9162.05907 6.38775e-18
9162.92053 6.37434e-18
9163.78199 6.31199e-18
9164.64345 6.24952e-18
9165.50492 6.13596e-18
9166.36638 6.02227e-18
9167.22784 5.85482e-18
9168.09932 5.68723e-18
9168.96078 5.50744e-18
9169.82224 5.32762e-18
9170.68370 5.19172e-18
9171.54517 5.05595e-18
9172.40663 4.99205e-18
9173.26809 4.92834e-18
9174.12955 4.94867e-18
9174.99101 4.96924e-18
9175.85248 5.03924e-18
9176.71394 5.10936e-18
9177.58542 5.15047e-18
9178.44688 5.19150e-18
9179.30834 5.18085e-18
9180.16980 5.17007e-18
9181.03127 5.15924e-18
9181.89273 5.14841e-18
9182.75419 5.16575e-18
9183.61565 5.18318e-18
9184.47711 5.21858e-18
9185.33857 5.25404e-18
9186.20004 5.29529e-18
9187.07152 5.33656e-18
9187.93298 5.35408e-18
9188.79444 5.37153e-18
9189.65590 5.34888e-18
9190.51736 5.32612e-18
9191.37883 5.30905e-18
9192.24029 5.29198e-18
9193.10175 5.32119e-18
9193.96321 5.35051e-18
9194.82467 5.40790e-18
9195.68614 5.46535e-18
9196.55762 5.52509e-18
9197.41908 5.58482e-18
9198.28054 5.62356e-18
9199.14200 5.66225e-18
9200.00346 5.65755e-18
9200.86492 5.65275e-18
9201.72639 5.62117e-18
9202.58785 5.58950e-18
9203.44931 5.56353e-18
9204.31077 5.53758e-18
9205.17224 5.51817e-18
9206.04371 5.49878e-18
9206.90518 5.47165e-18
9207.76664 5.44450e-18
9208.62810 5.41419e-18
9209.48956 5.38388e-18
9210.35102 5.36566e-18
9211.21249 5.34748e-18
9212.07395 5.35670e-18
9212.93541 5.36600e-18
9213.79687 5.42023e-18
9214.65833 5.47458e-18
9215.52981 5.57030e-18
9216.39127 5.66615e-18
9217.25274 5.76700e-18
9218.11420 5.86787e-18
9218.97566 5.95023e-18
9219.83712 6.03253e-18
9220.69859 6.10393e-18
9221.56005 6.17530e-18
9222.42151 6.23997e-18
9223.28297 6.30463e-18
9224.14443 6.35539e-18
9225.00590 6.40612e-18
9225.87737 6.43791e-18
9226.73884 6.46967e-18
9227.60030 6.47723e-18
9228.46176 6.48472e-18
9229.32322 6.46601e-18
9230.18468 6.44724e-18
9231.04615 6.42359e-18
9231.90761 6.39993e-18
9232.76907 6.39596e-18
9233.63053 6.39205e-18
9234.49199 6.40237e-18
9235.35346 6.41272e-18
9236.22494 6.42344e-18
9237.08640 6.43417e-18
9237.94786 6.45162e-18
9238.80932 6.46909e-18
9239.67078 6.50630e-18
9240.53225 6.54356e-18
9241.39371 6.60677e-18
9242.25517 6.67005e-18
9243.11663 6.76180e-18
9243.97809 6.85363e-18
9244.84957 6.96593e-18
9245.71103 7.07828e-18
9246.57250 7.19290e-18
9247.43396 7.30752e-18
9248.29542 7.41405e-18
9249.15688 7.52055e-18
9250.01834 7.62113e-18
9250.87981 7.72169e-18
9251.74127 7.81125e-18
9252.60273 7.90076e-18
9253.46419 7.95783e-18
9254.32565 8.01480e-18
9255.19713 8.03586e-18
9256.05860 8.05681e-18
9256.92006 8.08359e-18
9257.78152 8.11039e-18
9258.64298 8.17429e-18
9259.50444 8.23829e-18
9260.36591 8.32981e-18
9261.22737 8.42141e-18
9262.08883 8.52369e-18
9262.95029 8.62599e-18
9263.81175 8.70209e-18
9264.68323 8.77812e-18
9265.54469 8.79271e-18
9266.40616 8.80714e-18
9267.26762 8.76122e-18
9268.12908 8.71513e-18
9268.99054 8.62325e-18
9269.85200 8.53124e-18
9270.71347 8.42760e-18
9271.57493 8.32394e-18
9272.43639 8.24932e-18
9273.29785 8.17478e-18
9274.16933 8.16137e-18
9275.03079 8.14813e-18
9275.89226 8.21948e-18
9276.75372 8.29107e-18
9277.61518 8.43518e-18
9278.47664 8.57949e-18
9279.33810 8.75668e-18
9280.19957 8.93394e-18
9281.06103 9.10136e-18
9281.92249 9.26876e-18
9282.79397 9.38508e-18
9283.65543 9.50132e-18
9284.51689 9.53371e-18
9285.37835 9.56582e-18
9286.23982 9.49475e-18
9287.10128 9.42339e-18
9287.96274 9.25746e-18
9288.82420 9.09117e-18
9289.68566 8.88296e-18
9290.54713 8.67464e-18
9291.40859 8.48534e-18
9292.27005 8.29610e-18
9293.14153 8.20627e-18
9294.00299 8.11670e-18
9294.86445 8.17892e-18
9295.72592 8.24156e-18
9296.58738 8.40165e-18
9297.44884 8.56202e-18
9298.31030 8.74809e-18
9299.17176 8.93421e-18
9300.03323 9.04824e-18
9300.89469 9.16206e-18
9301.75615 9.11006e-18
9302.62763 9.05758e-18
9303.48909 8.92982e-18
9304.35055 8.80185e-18
9305.21201 8.74597e-18
9306.07348 8.69030e-18
9306.93494 8.67190e-18
9307.79640 8.65359e-18
9308.65786 8.56556e-18
9309.51932 8.47732e-18
9310.38079 8.32460e-18
9311.24225 8.17172e-18
9312.11373 8.01754e-18
9312.97519 7.86338e-18
9313.83665 7.76972e-18
9314.69811 7.67624e-18
9315.55958 7.71356e-18
9316.42104 7.75126e-18
9317.28250 7.90585e-18
9318.14396 8.06078e-18
9319.00542 8.19713e-18
9319.86688 8.33342e-18
9320.72835 8.39834e-18
9321.58981 8.46306e-18
9322.46129 8.58144e-18
9323.32275 8.69997e-18
9324.18421 8.89912e-18
9325.04567 9.09849e-18
9325.90714 9.12306e-18
9326.76860 9.14712e-18
9327.63006 8.83964e-18
9328.49152 8.53122e-18
9329.35298 8.13890e-18
9330.21445 7.74633e-18
9331.07591 7.50846e-18
9331.94739 7.27105e-18
9332.80885 7.14150e-18
9333.67031 7.01227e-18
9334.53177 6.92192e-18
9335.39323 6.83167e-18
9336.25470 6.78206e-18
9337.11616 6.73256e-18
9337.97762 6.71184e-18
9338.83908 6.69121e-18
9339.70055 6.91013e-18
9340.56201 7.12971e-18
9341.43349 7.87367e-18
9342.29495 8.61910e-18
9343.15641 9.52251e-18
9344.01787 1.04263e-17
9344.87933 1.08165e-17
9345.74080 1.12052e-17
9346.60226 1.08817e-17
9347.46372 1.05560e-17
9348.32518 9.63319e-18
9349.18664 8.70869e-18
9350.04811 7.61096e-18
9350.90957 6.51276e-18
9351.78105 6.02281e-18
9352.64251 5.53462e-18
9353.50397 5.90924e-18
9354.36543 6.28632e-18
9355.22689 6.95932e-18
9356.08836 7.63315e-18
9356.94982 8.12848e-18
9357.81128 8.62328e-18
9358.67274 8.65697e-18
9359.53420 8.68935e-18
9360.39567 8.13865e-18
9361.26715 7.58628e-18
9362.12861 6.89723e-18
9362.99007 6.20780e-18
9363.85153 5.80138e-18
9364.71299 5.39580e-18
9365.57446 5.29627e-18
9366.43592 5.19764e-18
9367.29738 5.36445e-18
9368.15884 5.53201e-18
9369.02030 5.75600e-18
9369.89178 5.98014e-18
9370.75324 6.02178e-18
9371.61471 6.06288e-18
9372.47617 5.93685e-18
9373.33763 5.81034e-18
9374.19909 5.60615e-18
9375.06056 5.40173e-18
9375.92202 5.25622e-18
9376.78348 5.11088e-18
9377.64494 5.19125e-18
9378.50640 5.27225e-18
9379.37788 5.51508e-18
9380.23934 5.75838e-18
9381.10081 5.94844e-18
9381.96227 6.13832e-18
9382.82373 6.20702e-18
9383.68519 6.27536e-18
9384.54665 6.28459e-18
9385.40812 6.29364e-18
9386.26958 6.26053e-18
9387.13104 6.22729e-18
9387.99250 6.12284e-18
9388.85396 6.01819e-18
9389.72544 5.84077e-18
9390.58691 5.66314e-18
9391.44837 5.43953e-18
9392.30983 5.21579e-18
9393.17129 4.98265e-18
9394.03275 4.74950e-18
9394.89422 4.57196e-18
9395.75568 4.39458e-18
9396.61714 4.31670e-18
9397.47860 4.23910e-18
9398.34006 4.22821e-18
9399.21154 4.21751e-18
9400.07300 4.23256e-18
9400.93447 4.24768e-18
9401.79593 4.24920e-18
9402.65739 4.25068e-18
9403.51885 4.20415e-18
9404.38031 4.15748e-18
9405.24178 4.10170e-18
9406.10324 4.04590e-18
9406.96470 4.03536e-18
9407.82616 4.02495e-18
9408.69764 4.06026e-18
9409.55910 4.09570e-18
9410.42057 4.15790e-18
9411.28203 4.22017e-18
9412.14349 4.27984e-18
9413.00495 4.33949e-18
9413.86641 4.36171e-18
9414.72788 4.38381e-18
9415.58934 4.34532e-18
9416.45080 4.30665e-18
9417.31226 4.20026e-18
9418.17372 4.09367e-18
9419.04520 3.92682e-18
9419.90666 3.75980e-18
9420.76813 3.54364e-18
9421.62959 3.32733e-18
9422.49105 3.13922e-18
9423.35251 2.95119e-18
9424.21397 2.97576e-18
9425.07544 3.00095e-18
9425.93690 3.29749e-18
9426.79836 3.59480e-18
9427.65982 3.96973e-18
9428.53130 4.34487e-18
9429.39276 4.61156e-18
9430.25423 4.87792e-18
9431.11569 4.86361e-18
9431.97715 4.84849e-18
9432.83861 4.46565e-18
9433.70007 4.08177e-18
9434.56153 3.63397e-18
9435.42300 3.18600e-18
9436.28446 2.99076e-18
9437.14592 2.79628e-18
9438.01740 2.90363e-18
9438.87886 3.01185e-18
9439.74032 3.40123e-18
9440.60179 3.79141e-18
9441.46325 4.26506e-18
9442.32471 4.73893e-18
9443.18617 5.04232e-18
9444.04763 5.34520e-18
9444.90910 5.40552e-18
9445.77056 5.46513e-18
9446.63202 5.29827e-18
9447.49348 5.13076e-18
9448.36496 4.82680e-18
9449.22642 4.52247e-18
9450.08788 4.22633e-18
9450.94935 3.93022e-18
9451.81081 3.73632e-18
9452.67227 3.54273e-18
9453.53373 3.48788e-18
9454.39520 3.43344e-18
9455.25666 3.52682e-18
9456.11812 3.62064e-18
9456.98960 3.83961e-18
9457.85106 4.05893e-18
9458.71252 4.33792e-18
9459.57398 4.61706e-18
9460.43545 4.82378e-18
9461.29691 5.03027e-18
9462.15837 5.08499e-18
9463.01983 5.13927e-18
9463.88129 5.10428e-18
9464.74276 5.06904e-18
9465.60422 5.00946e-18
9466.47570 4.94980e-18
9467.33716 4.90561e-18
9468.19862 4.86147e-18
9469.06008 4.86481e-18
9469.92155 4.86829e-18
9470.78301 4.86989e-18
9471.64447 4.87148e-18
9472.50593 4.81885e-18
9473.36739 4.76608e-18
9474.22885 4.69208e-18
9475.09032 4.61803e-18
9475.96180 4.56736e-18
9476.82326 4.51676e-18
9477.68472 4.58208e-18
9478.54618 4.64774e-18
9479.40764 4.93353e-18
9480.26911 5.21995e-18
9481.13057 5.61275e-18
9481.99203 6.00586e-18
9482.85349 6.28619e-18
9483.71495 6.56618e-18
9484.57642 6.61836e-18
9485.43788 6.66987e-18
9486.30936 6.45341e-18
9487.17082 6.23615e-18
9488.03228 5.83917e-18
9488.89374 5.44168e-18
9489.75520 5.09634e-18
9490.61667 4.75117e-18
9491.47813 4.60592e-18
9492.33959 4.46127e-18
9493.20105 4.51339e-18
9494.06252 4.56609e-18
9494.92398 4.81485e-18
9495.79546 5.06417e-18
9496.65692 5.54124e-18
9497.51838 6.01896e-18
9498.37984 6.67406e-18
9499.24130 7.32966e-18
9500.10277 7.90644e-18
9500.96423 8.48297e-18
9501.82569 8.75970e-18
9502.68715 9.03556e-18
9503.54861 8.97719e-18
9504.41008 8.91784e-18
9505.28155 8.54701e-18
9506.14302 8.17527e-18
9507.00448 7.68460e-18
9507.86594 7.19359e-18
9508.72740 6.81219e-18
9509.58887 6.43111e-18
9510.45033 6.18143e-18
9511.31179 5.93214e-18
9512.17325 5.76890e-18
9513.03471 5.60591e-18
9513.89617 5.57370e-18
9514.75764 5.54187e-18
9515.62912 5.70447e-18
9516.49058 5.86765e-18
9517.35204 6.20646e-18
9518.21350 6.54579e-18
9519.07496 6.99826e-18
9519.93643 7.45107e-18
9520.79789 7.90705e-18
9521.65935 8.36304e-18
9522.52081 8.67082e-18
9523.38227 8.97816e-18
9524.24374 9.08664e-18
9525.11522 9.19454e-18
9525.97668 9.18343e-18
9526.83814 9.17198e-18
9527.69960 9.11480e-18
9528.56106 9.05749e-18
9529.42252 9.01230e-18
9530.28399 8.96716e-18
9531.14545 8.96653e-18
9532.00691 8.96604e-18
9532.86837 8.95839e-18
9533.72984 8.95073e-18
9534.60131 8.89252e-18
9535.46278 8.83415e-18
9536.32424 8.71218e-18
9537.18570 8.59002e-18
9538.04716 8.41130e-18
9538.90862 8.23240e-18
9539.77009 8.16002e-18
9540.63155 8.08796e-18
9541.49301 8.27589e-18
9542.35447 8.46457e-18
9543.21593 8.80251e-18
9544.08741 9.14088e-18
9544.94888 9.46467e-18
9545.81034 9.78839e-18
9546.67180 9.93784e-18
9547.53326 1.00867e-17
9548.39472 9.89759e-18
9549.25619 9.70750e-18
9550.11765 9.37028e-18
9550.97911 9.03263e-18
9551.84057 8.93090e-18
9552.70203 8.82986e-18
9553.57351 8.98968e-18
9554.43497 9.15026e-18
9555.29644 9.34492e-18
9556.15790 9.53963e-18
9557.01936 9.61635e-18
9557.88082 9.69270e-18
9558.74228 9.54972e-18
9559.60375 9.40618e-18
9560.46521 9.10663e-18
9561.32667 8.80668e-18
9562.18813 8.69686e-18
9563.05961 8.58761e-18
9563.92107 8.84616e-18
9564.78254 9.10579e-18
9565.64400 9.54879e-18
9566.50546 9.99235e-18
9567.36692 1.04219e-17
9568.22838 1.08514e-17
9569.08985 1.10314e-17
9569.95131 1.12108e-17
9570.81277 1.09787e-17
9571.67423 1.07454e-17
9572.53569 1.03057e-17
9573.40717 9.86547e-18
9574.26863 9.46124e-18
9575.13010 9.05720e-18
9575.99156 8.85090e-18
9576.85302 8.64521e-18
9577.71448 8.76514e-18
9578.57594 8.88604e-18
9579.43741 9.13055e-18
9580.29887 9.37536e-18
9581.16033 9.44986e-18
9582.02179 9.52390e-18
9582.89327 9.38943e-18
9583.75473 9.25441e-18
9584.61620 8.96879e-18
9585.47766 8.68268e-18
9586.33912 8.45186e-18
9587.20058 8.22119e-18
9588.06204 8.35881e-18
9588.92351 8.49751e-18
9589.78497 8.96431e-18
9590.64643 9.43209e-18
9591.51791 9.86825e-18
9592.37937 1.03044e-17
9593.24083 1.05160e-17
9594.10229 1.07270e-17
9594.96376 1.07325e-17
9595.82522 1.07375e-17
9596.68668 1.05761e-17
9597.54814 1.04143e-17
9598.40960 1.01769e-17
9599.27107 9.93942e-18
9600.13253 9.72657e-18
9600.99399 9.51372e-18
9601.86547 9.40479e-18
9602.72693 9.29615e-18
9603.58839 9.34297e-18
9604.44986 9.39036e-18
9605.31132 9.58433e-18
9606.17278 9.77876e-18
9607.03424 1.00762e-17
9607.89570 1.03738e-17
9608.75717 1.05856e-17
9609.61863 1.07970e-17
9610.48009 1.07407e-17
9611.35157 1.06836e-17
9612.21303 1.04367e-17
9613.07449 1.01892e-17
9613.93595 9.89731e-18
9614.79742 9.60524e-18
9615.65888 9.36981e-18
9616.52034 9.13450e-18
9617.38180 9.04002e-18
9618.24326 8.94596e-18
9619.10473 9.01416e-18
9619.96619 9.08284e-18
9620.82765 9.29023e-18
9621.69913 9.49808e-18
9622.56059 9.76988e-18
9623.42205 1.00419e-17
9624.28352 1.02740e-17
9625.14498 1.05060e-17
9626.00644 1.05992e-17
9626.86790 1.06919e-17
9627.72936 1.05532e-17
9628.59083 1.04138e-17
9629.45229 1.00705e-17
9630.31375 9.72657e-18
9631.17521 9.38184e-18
9632.04669 9.03706e-18
9632.90815 8.84863e-18
9633.76961 8.66065e-18
9634.63108 8.68990e-18
9635.49254 8.71980e-18
9636.35400 8.96024e-18
9637.21546 9.20131e-18
9638.07692 9.42488e-18
9638.93839 9.64837e-18
9639.79985 9.66651e-18
9640.67133 9.68400e-18
9641.53279 9.61440e-18
9642.39425 9.54453e-18
9643.25571 9.52473e-18
9644.11718 9.50511e-18
9644.97864 9.56832e-18
9645.84010 9.63189e-18
9646.70156 9.79162e-18
9647.56302 9.95163e-18
9648.42448 1.01012e-17
9649.28595 1.02506e-17
9650.15743 1.02510e-17
9651.01889 1.02508e-17
9651.88035 1.01015e-17
9652.74181 9.95163e-18
9653.60327 9.71491e-18
9654.46474 9.47781e-18
9655.32620 9.23929e-18
9656.18766 9.00073e-18
9657.04912 8.85924e-18
9657.91058 8.71805e-18
9658.77205 8.72879e-18
9659.64352 8.74001e-18
9660.50499 8.91652e-18
9661.36645 9.09352e-18
9662.22791 9.37990e-18
9663.08937 9.66660e-18
9663.95083 9.91693e-18
9664.81230 1.01672e-17
9665.67376 1.02970e-17
9666.53522 1.04266e-17
9667.39668 1.04806e-17
9668.25815 1.05345e-17
9669.11961 1.05384e-17
9669.99109 1.05421e-17
9670.85255 1.04526e-17
9671.71401 1.03627e-17
9672.57547 1.01680e-17
9673.43693 9.97292e-18
9674.29840 9.75257e-18
9675.15986 9.53204e-18
9676.02132 9.36546e-18
9676.88278 9.19908e-18
9677.74424 9.14174e-18
9678.61572 9.08472e-18
9679.47718 9.17334e-18
9680.33865 9.26237e-18
9681.20011 9.42395e-18
9682.06157 9.58562e-18
9682.92303 9.71842e-18
9683.78449 9.85113e-18
9684.64596 9.92507e-18
9685.50742 9.99874e-18
9686.36888 1.00097e-17
9687.23034 1.00204e-17
9688.10182 9.97884e-18
9688.96328 9.93719e-18
9689.82475 9.86890e-18
9690.68621 9.80051e-18
9691.54767 9.71009e-18
9692.40913 9.61959e-18
9693.27059 9.49345e-18
9694.13206 9.36713e-18
9694.99352 9.22384e-18
9695.85498 9.08050e-18
9696.71644 8.97099e-18
9697.57790 8.86157e-18
9698.44938 8.81112e-18
9699.31084 8.76085e-18
9700.17231 8.75986e-18
9701.03377 8.75903e-18
9701.89523 8.78668e-18
9702.75669 8.81442e-18
9703.61816 8.82443e-18
9704.47962 8.83438e-18
9705.34108 8.79683e-18
9706.20254 8.75915e-18
9707.06400 8.70289e-18
9707.93548 8.64658e-18
9708.79694 8.60150e-18
9709.65841 8.55647e-18
9710.51987 8.53888e-18
9711.38133 8.52137e-18
9712.24279 8.54189e-18
9713.10425 8.56253e-18
9713.96572 8.59279e-18
9714.82718 8.62307e-18
9715.68864 8.62890e-18
9716.55010 8.63467e-18
9717.41156 8.60628e-18
9718.28304 8.57781e-18
9719.14451 8.51129e-18
9720.00597 8.44465e-18
9720.86743 8.37557e-18
9721.72889 8.30649e-18
9722.59035 8.28958e-18
9723.45182 8.27283e-18
9724.31328 8.28407e-18
9725.17474 8.29540e-18
9726.03620 8.26337e-18
9726.89766 8.23120e-18
9727.76914 8.13061e-18
9728.63060 8.02982e-18
9729.49207 7.87396e-18
9730.35353 7.71793e-18
9731.21499 7.54005e-18
9732.07645 7.36210e-18
9732.93791 7.22334e-18
9733.79938 7.08471e-18
9734.66084 7.02319e-18
9735.52230 6.96189e-18
9736.38376 6.97020e-18
9737.25524 6.97870e-18
9738.11670 7.03968e-18
9738.97817 7.10081e-18
9739.83963 7.18071e-18
9740.70109 7.26068e-18
9741.56255 7.32614e-18
9742.42401 7.39157e-18
9743.28548 7.42492e-18
9744.14694 7.45817e-18
9745.00840 7.44890e-18
9745.86986 7.43952e-18
9746.74134 7.40187e-18
9747.60280 7.36415e-18
9748.46426 7.31764e-18
9749.32573 7.27110e-18
9750.18719 7.22036e-18
9751.04865 7.16960e-18
9751.91011 7.11707e-18
9752.77157 7.06453e-18
9753.63304 7.00849e-18
9754.49450 6.95244e-18
9755.35596 6.88925e-18
9756.22744 6.82603e-18
9757.08890 6.76885e-18
9757.95036 6.71168e-18
9758.81183 6.67992e-18
9759.67329 6.64825e-18
9760.53475 6.65696e-18
9761.39621 6.66578e-18
9762.25767 6.72784e-18
9763.11913 6.79007e-18
9763.98060 6.88594e-18
9764.84206 6.98191e-18
9765.71354 7.05658e-18
9766.57500 7.13117e-18
9767.43646 7.15764e-18
9768.29792 7.18396e-18
9769.15939 7.17993e-18
9770.02085 7.17579e-18
9770.88231 7.15632e-18
9771.74377 7.13680e-18
9772.60523 7.10943e-18
9773.46670 7.08203e-18
9774.32816 7.05632e-18
9775.19964 7.03059e-18
9776.06110 7.01408e-18
9776.92256 6.99759e-18
9777.78402 6.99532e-18
9778.64548 6.99310e-18
9779.50695 7.01152e-18
9780.36841 7.03000e-18
9781.22987 7.07087e-18
9782.09133 7.11182e-18
9782.95280 7.13978e-18
9783.81426 7.16769e-18
9784.68574 7.14426e-18
9785.54720 7.12066e-18
9786.40866 7.06448e-18
9787.27012 7.00820e-18
9788.13158 6.95431e-18
9788.99305 6.90044e-18
9789.85451 6.86119e-18
9790.71597 6.82198e-18
9791.57743 6.80251e-18
9792.43889 6.78308e-18
9793.30036 6.77024e-18
9794.16182 6.75741e-18
9795.03330 6.72357e-18
9795.89476 6.68966e-18
9796.75622 6.64288e-18
9797.61768 6.59607e-18
9798.47915 6.57672e-18
9799.34061 6.55745e-18
9800.20207 6.57902e-18
9801.06353 6.60071e-18
9801.92499 6.64405e-18
9802.78645 6.68747e-18
9803.64792 6.73328e-18
9804.51940 6.77910e-18
9805.38086 6.80474e-18
9806.24232 6.83031e-18
9807.10378 6.82477e-18
9807.96524 6.81913e-18
9808.82671 6.80415e-18
9809.68817 6.78914e-18
9810.54963 6.78542e-18
9811.41109 6.78173e-18
9812.27255 6.80234e-18
9813.13402 6.82302e-18
9813.99548 6.87403e-18
9814.86696 6.92515e-18
9815.72842 6.97026e-18
9816.58988 7.01536e-18
9817.45134 7.01601e-18
9818.31280 7.01654e-18
9819.17427 6.97787e-18
9820.03573 6.93908e-18
9820.89719 6.87731e-18
9821.75865 6.81546e-18
9822.62012 6.75439e-18
9823.48158 6.69333e-18
9824.35306 6.66071e-18
9825.21452 6.62818e-18
9826.07598 6.61997e-18
9826.93744 6.61183e-18
9827.79890 6.60557e-18
9828.66037 6.59931e-18
9829.52183 6.58944e-18
9830.38329 6.57957e-18
9831.24475 6.57276e-18
9832.10621 6.56596e-18
9832.97769 6.56066e-18
9833.83915 6.55537e-18
9834.70062 6.54287e-18
9835.56208 6.53035e-18
9836.42354 6.50662e-18
9837.28500 6.48285e-18
9838.14647 6.45025e-18
9839.00793 6.41762e-18
9839.86939 6.37880e-18
9840.73085 6.33996e-18
9841.59231 6.29630e-18
9842.45377 6.25262e-18
9843.32525 6.20909e-18
9844.18672 6.16556e-18
9845.04818 6.13760e-18
9845.90964 6.10968e-18
9846.77110 6.10943e-18
9847.63256 6.10926e-18
9848.49403 6.13296e-18
9849.35549 6.15672e-18
9850.21695 6.19747e-18
9851.07841 6.23827e-18
9851.93987 6.28947e-18
9852.81135 6.34070e-18
9853.67282 6.39456e-18
9854.53428 6.44842e-18
9855.39574 6.50002e-18
9856.25720 6.55160e-18
9857.11866 6.59731e-18
9857.98013 6.64300e-18
9858.84159 6.67304e-18
9859.70305 6.70302e-18
9860.56451 6.70619e-18
9861.42597 6.70928e-18
9862.29745 6.68406e-18
9863.15891 6.65876e-18
9864.02038 6.60996e-18
9864.88184 6.56109e-18
9865.74330 6.49761e-18
9866.60476 6.43408e-18
9867.46622 6.36866e-18
9868.32769 6.30325e-18
9869.18915 6.24319e-18
9870.05061 6.18314e-18
9870.92209 6.12760e-18
9871.78355 6.07207e-18
9872.64501 6.02200e-18
9873.50648 5.97194e-18
9874.36794 5.93163e-18
9875.22940 5.89135e-18
9876.09086 5.86418e-18
9876.95232 5.83707e-18
9877.81379 5.82619e-18
9878.67525 5.81536e-18
9879.53671 5.82218e-18
9880.39817 5.82905e-18
9881.26965 5.85141e-18
9882.13111 5.87382e-18
9882.99257 5.90770e-18
9883.85404 5.94161e-18
9884.71550 5.97968e-18
9885.57696 6.01776e-18
9886.43842 6.05209e-18
9887.29988 6.08642e-18
9888.16135 6.10958e-18
9889.02281 6.13272e-18
9889.88427 6.13850e-18
9890.74573 6.14422e-18
9891.61721 6.13246e-18
9892.47867 6.12065e-18
9893.34014 6.09449e-18
9894.20160 6.06828e-18
9895.06306 6.03109e-18
9895.92452 5.99385e-18
9896.78598 5.94916e-18
9897.64745 5.90445e-18
9898.50891 5.85808e-18
9899.37037 5.81169e-18
9900.23183 5.77132e-18
9901.09329 5.73096e-18
9901.96477 5.69785e-18
9902.82623 5.66475e-18
9903.68770 5.63238e-18
9904.54916 5.60002e-18
9905.41062 5.56989e-18
9906.27208 5.53976e-18
9907.13354 5.52609e-18
9907.99501 5.51245e-18
9908.85647 5.52196e-18
9909.71793 5.53155e-18
9910.57939 5.55779e-18
9911.45087 5.58408e-18
9912.31233 5.61650e-18
9913.17380 5.64894e-18
9914.03526 5.66523e-18
9914.89672 5.68149e-18
9915.75818 5.66395e-18
9916.61964 5.64632e-18
9917.48111 5.60115e-18
9918.34257 5.55589e-18
9919.20403 5.49391e-18
9920.07551 5.43188e-18
9920.93697 5.36538e-18
9921.79843 5.29887e-18
9922.65989 5.24035e-18
9923.52136 5.18187e-18
9924.38282 5.13684e-18
9925.24428 5.09186e-18
9926.10574 5.06245e-18
9926.96720 5.03309e-18
9927.82867 5.01117e-18
9928.69013 4.98926e-18
9929.56161 4.96188e-18
9930.42307 4.93448e-18
9931.28453 4.89741e-18
9932.14599 4.86032e-18
9933.00746 4.81543e-18
9933.86892 4.77051e-18
9934.73038 4.72159e-18
9935.59184 4.67266e-18
9936.45330 4.62523e-18
9937.31477 4.57779e-18
9938.17623 4.53910e-18
9939.03769 4.50045e-18
9939.90917 4.47965e-18
9940.77063 4.45892e-18
9941.63209 4.45852e-18
9942.49355 4.45818e-18
9943.35502 4.46873e-18
9944.21648 4.47929e-18
9945.07794 4.49261e-18
9945.93940 4.50593e-18
9946.80086 4.51995e-18
9947.66233 4.53398e-18
9948.52379 4.54633e-18
9949.39527 4.55869e-18
9950.25673 4.56485e-18
9951.11819 4.57099e-18
9951.97965 4.56804e-18
9952.84112 4.56507e-18
9953.70258 4.55887e-18
9954.56404 4.55266e-18
9955.42550 4.54965e-18
9956.28696 4.54666e-18
9957.14843 4.54254e-18
9958.00989 4.53841e-18
9958.88137 4.52723e-18
9959.74283 4.51601e-18
9960.60429 4.49474e-18
9961.46575 4.47343e-18
9962.32721 4.44008e-18
9963.18868 4.40670e-18
9964.05014 4.37128e-18
9964.91160 4.33585e-18
9965.77306 4.31502e-18
9966.63452 4.29424e-18
9967.49599 4.29190e-18
9968.36747 4.28963e-18
9969.22893 4.29937e-18
9970.09039 4.30914e-18
9970.95185 4.32996e-18
9971.81331 4.35081e-18
9972.67477 4.38747e-18
9973.53624 4.42418e-18
9974.39770 4.47471e-18
9975.25916 4.52528e-18
9976.12062 4.57885e-18
9976.98208 4.63242e-18
9977.85356 4.68044e-18
9978.71503 4.72843e-18
9979.57649 4.76676e-18
9980.43795 4.80506e-18
9981.29941 4.83227e-18
9982.16087 4.85945e-18
9983.02234 4.88132e-18
9983.88380 4.90318e-18
9984.74526 4.92555e-18
9985.60672 4.94792e-18
9986.46818 4.97370e-18
9987.32965 4.99947e-18
9988.20112 5.03015e-18
9989.06259 5.06084e-18
9989.92405 5.08561e-18
9990.78551 5.11036e-18
9991.64697 5.11698e-18
9992.50843 5.12354e-18
9993.36990 5.12120e-18
9994.23136 5.11883e-18
9995.09282 5.12325e-18
9995.95428 5.12769e-18
9996.81574 5.13618e-18
9997.67721 5.14470e-18
9998.54869 5.14726e-18
9999.41015 5.14980e-18
