# wavelength flux
3475.00164 8.31698e-18
3476.46982 1.20406e-17
3477.93799 9.31371e-18
3479.40617 5.96842e-18
3480.88440 5.15935e-18
3482.35258 7.35392e-18
3483.82075 7.25909e-18
3485.28893 7.73360e-18
3486.75710 1.18758e-17
3488.22528 1.04167e-17
3489.70351 6.85595e-18
3491.17169 8.52774e-18
3492.63986 7.61810e-18
3494.10804 7.08783e-18
3495.57622 6.64684e-18
3497.05445 1.00144e-17
3498.52262 7.15432e-18
3499.99080 4.76951e-18
3501.45898 5.28785e-18
3502.92715 9.91496e-18
3504.39533 1.18666e-17
3505.87356 3.68377e-18
3507.34174 -1.56513e-18
3508.80991 -1.44827e-18
3510.27809 2.23906e-18
3511.74626 9.42235e-18
3513.22450 8.00954e-18
3514.69267 1.01506e-17
3516.16085 7.22329e-18
3517.62902 9.40499e-18
3519.09720 1.73726e-17
3520.56538 9.16641e-18
3522.04361 5.44153e-18
3523.51178 6.21305e-18
3524.97996 8.30164e-18
3526.44814 1.38287e-17
3527.91631 9.10361e-18
3529.39454 9.38800e-18
3530.86272 1.07037e-17
3532.33090 4.24086e-18
3533.79907 1.08447e-17
3535.26725 4.86280e-18
3536.73542 1.48405e-18
3538.21366 -4.56040e-18
3539.68183 5.62125e-18
3541.15001 7.25149e-18
3542.61818 6.99619e-18
3544.08636 7.69342e-18
3545.56459 1.08857e-17
3547.03277 1.22973e-17
3548.50094 7.47399e-18
3549.96912 1.31385e-17
3551.43730 1.30333e-17
3552.90547 6.67674e-18
3554.38370 9.11064e-18
3555.85188 1.69806e-17
3557.32006 2.07033e-17
3558.78823 1.34310e-17
3560.25641 1.16762e-17
3561.73464 3.70859e-18
3563.20282 1.22207e-17
3564.67099 9.92598e-18
3566.13917 1.02132e-17
3567.60734 1.52321e-17
3569.07552 1.32053e-17
3570.55375 9.21573e-18
3572.02193 8.35577e-18
3573.49010 8.27785e-18
3574.95828 3.72290e-18
3576.42646 3.95849e-18
3577.90469 7.44809e-18
3579.37286 9.38601e-18
3580.84104 9.51779e-18
3582.30922 1.36489e-17
3583.77739 8.00927e-18
3585.24557 6.93944e-18
3586.72380 1.07990e-17
3588.19198 8.96424e-18
3589.66015 8.79324e-18
3591.12833 1.00095e-17
3592.59650 8.10391e-18
3594.07474 8.71065e-18
3595.54291 5.12113e-18
3597.01109 8.39478e-18
3598.47926 1.41483e-17
3599.94744 1.14327e-17
3601.41562 4.16140e-18
3602.89385 8.02881e-18
3604.36202 3.45168e-18
3605.83020 6.32060e-18
3607.29838 1.37766e-17
3608.76655 1.02309e-17
3610.24478 1.17843e-17
3611.71296 6.17413e-18
3613.18114 2.51481e-18
3614.64931 5.21877e-18
3616.11749 2.98068e-18
3617.58566 6.14261e-18
3619.06390 8.03721e-18
3620.53207 1.18879e-17
3622.00025 8.23411e-18
3623.46842 6.48721e-18
3624.93660 8.11039e-18
3626.41483 6.49164e-18
3627.88301 8.97274e-18
3629.35118 3.65847e-18
3630.81936 9.00888e-18
3632.28754 1.23928e-17
3633.75571 1.41635e-17
3635.23394 1.27365e-17
3636.70212 1.22278e-17
3638.17030 1.17769e-17
3639.63847 8.89995e-18
3641.10665 1.06266e-17
3642.58488 9.61994e-18
3644.05306 7.63069e-18
3645.52123 1.04379e-17
3646.98941 1.01895e-17
3648.45758 1.19190e-17
3649.92576 1.08188e-17
3651.40399 9.59858e-18
3652.87217 7.36169e-18
3654.34034 9.23226e-18
3655.80852 7.14179e-18
3657.27670 2.76566e-18
3658.75493 5.15664e-18
3660.22310 7.86532e-18
3661.69128 1.18467e-17
3663.15946 1.19743e-17
3664.62763 1.85286e-17
3666.09581 1.10565e-17
3667.57404 8.75681e-18
3669.04222 7.73534e-18
3670.51039 1.54589e-18
3671.97857 4.21689e-18
3673.44674 1.11695e-17
3674.92498 9.49590e-18
3676.39315 8.89449e-18
3677.86133 1.37127e-17
3679.32950 8.19592e-18
3680.79768 9.29954e-18
3682.26586 8.33162e-18
3683.74409 6.12174e-18
3685.21226 7.19848e-18
3686.68044 8.70910e-18
3688.14862 1.10970e-17
3689.61679 8.38252e-18
3691.09502 6.45460e-18
3692.56320 2.91825e-18
3694.03138 1.19446e-17
3695.49955 1.21504e-17
3696.96773 1.24195e-17
3698.43590 1.18018e-17
3699.91414 3.68383e-18
3701.38231 2.83781e-18
3702.85049 6.04344e-18
3704.31866 1.03288e-17
3705.78684 5.96066e-18
3707.25502 4.56016e-18
3708.73325 7.09975e-18
3710.20142 1.11761e-17
3711.66960 8.70537e-18
3713.13778 5.67411e-18
3714.60595 1.27511e-17
3716.08418 1.22661e-17
3717.55236 1.53834e-17
3719.02054 8.93534e-18
3720.48871 9.10244e-18
3721.95689 8.19125e-18
3723.42506 7.41196e-18
3724.90330 6.13347e-18
3726.37147 7.96351e-18
3727.83965 1.22551e-17
3729.30782 1.19818e-17
3730.77600 1.17085e-17
3732.25423 1.14723e-17
3733.72241 1.12360e-17
3735.19058 1.09999e-17
3736.65876 1.07637e-17
3738.12694 1.05276e-17
3739.60517 1.02915e-17
3741.07334 1.00554e-17
3742.54152 9.81939e-18
3744.00970 9.58342e-18
3745.47787 9.34747e-18
3746.94605 9.11152e-18
3748.42428 8.87564e-18
3749.89246 8.63975e-18
3751.36063 8.40389e-18
3752.82881 8.16806e-18
3754.29698 7.93230e-18
3755.76516 7.69652e-18
3757.24339 7.46082e-18
3758.71157 7.22511e-18
3760.17974 6.98947e-18
3761.64792 6.75381e-18
3763.11610 6.51819e-18
3764.59433 6.28259e-18
3766.06250 6.04706e-18
3767.53068 5.81153e-18
3768.99886 5.57606e-18
3770.46703 5.78419e-18
3771.93521 5.99230e-18
3773.41344 6.20039e-18
3774.88162 6.40845e-18
3776.34979 6.61649e-18
3777.81797 6.82451e-18
3779.28614 6.82411e-18
3780.76438 7.52540e-18
3782.23255 8.32265e-18
3783.70073 2.98005e-18
3785.16890 1.21981e-17
3786.63708 1.13737e-17
3788.10526 6.44873e-18
3789.58349 8.98817e-18
3791.05166 1.03754e-17
3792.51984 8.33797e-18
3793.98802 7.95076e-18
3795.45619 6.36505e-18
3796.93442 5.36202e-18
3798.40260 9.39751e-18
3799.87078 8.59286e-18
3801.33895 7.10631e-18
3802.80713 9.35418e-18
3804.27530 7.93464e-18
3805.75354 6.68183e-18
3807.22171 6.02597e-18
3808.68989 5.14929e-18
3810.15806 3.13284e-18
3811.62624 3.64006e-18
3813.10447 4.53229e-18
3814.57265 4.47389e-18
3816.04082 6.44007e-18
3817.50900 8.08051e-18
3818.97718 6.76641e-18
3820.44535 7.96328e-18
3821.92358 8.01526e-18
3823.39176 6.88394e-18
3824.85994 1.14909e-17
3826.32811 1.22763e-17
3827.79629 8.65300e-18
3829.27452 9.51508e-18
3830.74270 1.01760e-17
3832.21087 5.39166e-18
3833.67905 5.23054e-18
3835.14722 9.22090e-18
3836.61540 9.77646e-18
3838.09363 6.22057e-18
3839.56181 7.91200e-18
3841.02998 1.47256e-17
3842.49816 1.36678e-17
3843.96634 1.18449e-17
3845.44457 8.09929e-18
3846.91274 8.13724e-18
3848.38092 9.01418e-18
3849.84910 9.56077e-18
3851.31727 6.70696e-18
3852.78545 9.50663e-18
3854.26368 1.03062e-17
3855.73186 6.18574e-18
3857.20003 6.95393e-18
3858.66821 8.33065e-18
3860.13638 1.09456e-17
3861.61462 8.27553e-18
3863.08279 9.97471e-18
3864.55097 7.34734e-18
3866.01914 6.24078e-18
3867.48732 1.03265e-17
3868.95550 1.47228e-17
3870.43373 6.89062e-18
3871.90190 6.38396e-18
3873.37008 1.05594e-17
3874.83826 8.50786e-18
3876.30643 1.73442e-17
3877.78466 1.05632e-17
3879.25284 9.20323e-18
3880.72102 8.50661e-18
3882.18919 1.31087e-17
3883.65737 1.03731e-17
3885.12554 9.30174e-18
3886.60378 1.42837e-17
3888.07195 1.32173e-17
3889.54013 1.08164e-17
3891.00830 1.17589e-17
3892.47648 9.45240e-18
3893.95471 1.08376e-17
3895.42289 9.91546e-18
3896.89106 1.16596e-17
3898.35924 1.13860e-17
3899.82742 1.37159e-17
3901.29559 1.37966e-17
3902.77382 8.80560e-18
3904.24200 8.96381e-18
3905.71018 1.22305e-17
3907.17835 1.51761e-17
3908.64653 1.62677e-17
3910.12476 1.43969e-17
3911.59294 1.10879e-17
3913.06111 1.02656e-17
3914.52929 1.09807e-17
3915.99746 1.05163e-17
3917.46564 1.32407e-17
3918.94387 1.33405e-17
3920.41205 1.18779e-17
3921.88022 1.26977e-17
3923.34840 1.26835e-17
3924.81658 1.17981e-17
3926.29481 1.19193e-17
3927.76298 1.05874e-17
3929.23116 1.22062e-17
3930.69934 1.36465e-17
3932.16751 1.07223e-17
3933.63569 1.16767e-17
3935.11392 1.16948e-17
3936.58210 1.29441e-17
3938.05027 1.45736e-17
3939.51845 1.54110e-17
3940.98662 1.63574e-17
3942.46486 1.53950e-17
3943.93303 1.57821e-17
3945.40121 1.40363e-17
3946.86938 1.56852e-17
3948.33756 1.48019e-17
3949.80574 1.11736e-17
3951.28397 1.37638e-17
3952.75214 1.46722e-17
3954.22032 1.09119e-17
3955.68850 9.51200e-18
3957.15667 9.46179e-18
3958.63490 1.12267e-17
3960.10308 1.58947e-17
3961.57126 1.62378e-17
3963.03943 1.28764e-17
3964.50761 1.43815e-17
3965.97578 1.41720e-17
3967.45402 1.14974e-17
3968.92219 1.15642e-17
3970.39037 1.26433e-17
3971.85854 1.45198e-17
3973.32672 1.20496e-17
3974.80495 1.29119e-17
3976.27313 1.06377e-17
3977.74130 1.29787e-17
3979.20948 1.37694e-17
3980.67766 1.29921e-17
3982.14583 1.14729e-17
3983.62406 1.02221e-17
3985.09224 1.30780e-17
3986.56042 1.38892e-17
3988.02859 1.20038e-17
3989.49677 9.18014e-18
3990.97500 1.27975e-17
3992.44318 1.15918e-17
3993.91135 1.16395e-17
3995.37953 1.20008e-17
3996.84770 1.29866e-17
3998.31588 1.66325e-17
3999.79411 1.73162e-17
4001.26229 1.49167e-17
4002.73046 1.43728e-17
4004.19864 1.10737e-17
4005.66682 1.03347e-17
4007.13499 1.20575e-17
4008.61322 1.34220e-17
4010.08140 1.60192e-17
4011.54958 1.49378e-17
4013.01775 1.25994e-17
4014.48593 1.13288e-17
4015.96416 1.27998e-17
4017.43234 1.50177e-17
4018.90051 1.48775e-17
4020.36869 1.25909e-17
4021.83686 1.36817e-17
4023.31510 1.65857e-17
4024.78327 1.42458e-17
4026.25145 1.34311e-17
4027.71962 1.02233e-17
4029.18780 1.14383e-17
4030.65598 1.29130e-17
4032.13421 1.36226e-17
4033.60238 1.13141e-17
4035.07056 1.03093e-17
4036.53874 1.47379e-17
4038.00691 1.36968e-17
4039.47509 1.35229e-17
4040.95332 1.36189e-17
4042.42150 1.38840e-17
4043.88967 1.41722e-17
4045.35785 1.37281e-17
4046.82602 1.27385e-17
4048.30426 9.87998e-18
4049.77243 1.08756e-17
4051.24061 1.25349e-17
4052.70878 1.31469e-17
4054.17696 1.27731e-17
4055.64514 1.23795e-17
4057.12337 1.09510e-17
4058.59154 1.09267e-17
4060.05972 1.06542e-17
4061.52790 7.00932e-18
4062.99607 8.13580e-18
4064.47430 1.25650e-17
4065.94248 1.51017e-17
4067.41066 1.19139e-17
4068.87883 1.14290e-17
4070.34701 1.31961e-17
4071.82524 1.22172e-17
4073.29342 1.25258e-17
4074.76159 1.35815e-17
4076.22977 1.40023e-17
4077.69794 1.32258e-17
4079.16612 1.17828e-17
4080.64435 1.02779e-17
4082.11253 1.11719e-17
4083.58070 1.09753e-17
4085.04888 1.35250e-17
4086.51706 1.34517e-17
4087.98523 1.18155e-17
4089.46346 1.05004e-17
4090.93164 9.66491e-18
4092.39982 6.80097e-18
4093.86799 6.01863e-18
4095.33617 1.09419e-17
4096.81440 1.33384e-17
4098.28258 1.45353e-17
4099.75075 1.29867e-17
4101.21893 1.16931e-17
4102.68710 1.06892e-17
4104.15528 1.05782e-17
4105.63351 1.27563e-17
4107.10169 1.02305e-17
4108.56986 8.73293e-18
4110.03804 1.28010e-17
4111.50622 1.08350e-17
4112.98445 9.90034e-18
4114.45262 1.20202e-17
4115.92080 1.24263e-17
4117.38898 1.27420e-17
4118.85715 9.83284e-18
4120.32533 6.51976e-18
4121.80356 6.56194e-18
4123.27174 1.17153e-17
4124.73991 1.23475e-17
4126.20809 8.96191e-18
4127.67626 1.13847e-17
4129.15450 1.34946e-17
4130.62267 1.31859e-17
4132.09085 1.37849e-17
4133.55902 1.20539e-17
4135.02720 1.01652e-17
4136.49538 1.00840e-17
4137.97361 1.30884e-17
4139.44178 1.41507e-17
4140.90996 1.40476e-17
4142.37814 1.53896e-17
4143.84631 1.36480e-17
4145.32454 1.11555e-17
4146.79272 1.30942e-17
4148.26090 1.21072e-17
4149.72907 9.80470e-18
4151.19725 1.27407e-17
4152.66542 1.26953e-17
4154.14366 1.03678e-17
4155.61183 1.37413e-17
4157.08001 1.26094e-17
4158.54818 1.31925e-17
4160.01636 1.16351e-17
4161.49459 9.28763e-18
4162.96277 1.29486e-17
4164.43094 1.30966e-17
4165.89912 8.98295e-18
4167.36730 9.00076e-18
4168.83547 1.11985e-17
4170.31370 1.16988e-17
4171.78188 1.44287e-17
4173.25006 1.21376e-17
4174.71823 1.27464e-17
4176.18641 1.39161e-17
4177.66464 1.37598e-17
4179.13282 1.25618e-17
4180.60099 1.16303e-17
4182.06917 1.04266e-17
4183.53734 1.24318e-17
4185.00552 1.18249e-17
4186.48375 1.02048e-17
4187.95193 1.04689e-17
4189.42010 1.35667e-17
4190.88828 1.24153e-17
4192.35646 9.83650e-18
4193.83469 1.16827e-17
4195.30286 1.27674e-17
4196.77104 1.38029e-17
4198.23922 1.28346e-17
4199.70739 1.04781e-17
4201.17557 1.09979e-17
4202.65380 8.49046e-18
4204.12198 9.62640e-18
4205.59015 1.28835e-17
4207.05833 1.14796e-17
4208.52650 1.20835e-17
4210.00474 1.21062e-17
4211.47291 1.17517e-17
4212.94109 1.41911e-17
4214.40926 1.08305e-17
4215.87744 9.62662e-18
4217.34562 1.15479e-17
4218.82385 9.62533e-18
4220.29202 9.58444e-18
4221.76020 1.28846e-17
4223.22838 1.38314e-17
4224.69655 1.27057e-17
4226.17478 1.05935e-17
4227.64296 1.07130e-17
4229.11114 1.21707e-17
4230.57931 1.30314e-17
4232.04749 1.23076e-17
4233.51566 1.26105e-17
4234.99390 1.33295e-17
4236.46207 1.19077e-17
4237.93025 1.22497e-17
4239.39842 9.56970e-18
4240.86660 9.21859e-18
4242.34483 1.05803e-17
4243.81301 1.01352e-17
4245.28118 1.15046e-17
4246.74936 1.05863e-17
4248.21754 1.03442e-17
4249.68571 1.40583e-17
4251.16394 1.30745e-17
4252.63212 1.25622e-17
4254.10030 1.12965e-17
4255.56847 1.14291e-17
4257.03665 1.06321e-17
4258.50482 9.18012e-18
4259.98306 1.08347e-17
4261.45123 1.05502e-17
4262.91941 1.12719e-17
4264.38758 1.17093e-17
4265.85576 1.14762e-17
4267.33399 1.12627e-17
4268.80217 1.21826e-17
4270.27034 1.30740e-17
4271.73852 1.30411e-17
4273.20670 1.26959e-17
4274.68493 1.13752e-17
4276.15310 1.14244e-17
4277.62128 1.22903e-17
4279.08946 1.14377e-17
4280.55763 1.31348e-17
4282.02581 1.26051e-17
4283.50404 1.04368e-17
4284.97222 1.27341e-17
4286.44039 1.05600e-17
4287.90857 1.19650e-17
4289.37674 1.16991e-17
4290.85498 8.99227e-18
4292.32315 7.15689e-18
4293.79133 9.01453e-18
4295.25950 1.17027e-17
4296.72768 1.19569e-17
4298.19586 1.22556e-17
4299.67409 1.12170e-17
4301.14226 9.56447e-18
4302.61044 1.05188e-17
4304.07862 8.97673e-18
4305.54679 9.97688e-18
4307.02502 1.13682e-17
4308.49320 1.23971e-17
4309.96138 1.12452e-17
4311.42955 9.97789e-18
4312.89773 8.72766e-18
4314.36590 9.74061e-18
4315.84414 1.07608e-17
4317.31231 8.94119e-18
4318.78049 8.83835e-18
4320.24866 1.06444e-17
4321.71684 1.00355e-17
4323.19507 1.33001e-17
4324.66325 1.11273e-17
4326.13142 9.41125e-18
4327.59960 1.03223e-17
4329.06778 9.19281e-18
4330.53595 8.23780e-18
4332.01418 8.69603e-18
4333.48236 8.53195e-18
4334.95054 9.69205e-18
4336.41871 9.37526e-18
4337.88689 7.90942e-18
4339.35506 8.46093e-18
4340.83330 1.08708e-17
4342.30147 9.80804e-18
4343.76965 8.16523e-18
4345.23782 6.50805e-18
4346.70600 9.92076e-18
4348.18423 9.84554e-18
4349.65241 8.91375e-18
4351.12058 7.81727e-18
4352.58876 1.13869e-17
4354.05694 1.28187e-17
4355.52511 8.26617e-18
4357.00334 6.17998e-18
4358.47152 7.68772e-18
4359.93970 7.00189e-18
4361.40787 1.02284e-17
4362.87605 1.20881e-17
4364.35428 1.10581e-17
4365.82246 9.51793e-18
4367.29063 9.22139e-18
4368.75881 9.32142e-18
4370.22698 9.41135e-18
4371.69516 9.50127e-18
4373.17339 9.59118e-18
4374.64157 9.68108e-18
4376.10974 9.77095e-18
4377.57792 9.86083e-18
4379.04610 9.95068e-18
4380.52433 1.00406e-17
4381.99250 1.01304e-17
4383.46068 1.02202e-17
4384.92886 1.03101e-17
4386.39703 1.03999e-17
4387.87526 1.04897e-17
4389.34344 1.05795e-17
4390.81162 1.06693e-17
4392.27979 1.07591e-17
4393.74797 1.08489e-17
4395.21614 1.09387e-17
4396.69438 1.10284e-17
4398.16255 1.11182e-17
4399.63073 1.12079e-17
4401.09890 1.12976e-17
4402.56708 1.13873e-17
4404.03526 1.14770e-17
4405.51349 1.15668e-17
4406.98166 1.16565e-17
4408.44984 1.08215e-17
4409.91802 1.09414e-17
4411.38619 1.10050e-17
4412.86442 1.16316e-17
4414.33260 9.32771e-18
4415.80078 9.63474e-18
4417.26895 9.10507e-18
4418.73713 8.43127e-18
4420.20530 1.08175e-17
4421.68354 1.16872e-17
4423.15171 1.13697e-17
4424.61989 1.03623e-17
4426.08806 1.10721e-17
4427.55624 1.16560e-17
4429.03447 1.15329e-17
4430.50265 1.20107e-17
4431.97082 9.28708e-18
4433.43900 9.10247e-18
4434.90718 1.12374e-17
4436.37535 1.04960e-17
4437.85358 8.78100e-18
4439.32176 1.09450e-17
4440.78994 1.21171e-17
4442.25811 1.06778e-17
4443.72629 1.16664e-17
4445.20452 1.16380e-17
4446.67270 9.11847e-18
4448.14087 1.14834e-17
4449.60905 1.10995e-17
4451.07722 1.14103e-17
4452.54540 1.08680e-17
4454.02363 1.12627e-17
4455.49181 1.02433e-17
4456.95998 1.11072e-17
4458.42816 1.23112e-17
4459.89634 1.11244e-17
4461.37457 9.29546e-18
4462.84274 1.07080e-17
4464.31092 1.16715e-17
4465.77910 1.18782e-17
4467.24727 1.20272e-17
4468.71545 1.12132e-17
4470.19368 1.03848e-17
4471.66186 1.07886e-17
4473.13003 1.30011e-17
4474.59821 1.42326e-17
4476.06638 1.30636e-17
4477.54462 1.05535e-17
4479.01279 1.33536e-17
4480.48097 1.24186e-17
4481.94914 1.05397e-17
4483.41732 1.19687e-17
4484.88550 1.40169e-17
4486.36373 1.43843e-17
4487.83190 1.25341e-17
4489.30008 1.35418e-17
4490.76826 1.37790e-17
4492.23643 1.15128e-17
4493.71466 1.23827e-17
4495.18284 1.44465e-17
4496.65102 1.49601e-17
4498.11919 1.37798e-17
4499.58737 1.18421e-17
4501.05554 1.24453e-17
4502.53378 1.27491e-17
4504.00195 1.25221e-17
4505.47013 1.50494e-17
4506.93830 1.46933e-17
4508.40648 1.35962e-17
4509.88471 1.37514e-17
4511.35289 1.47353e-17
4512.82106 1.45956e-17
4514.28924 1.47504e-17
4515.75742 1.56444e-17
4517.22559 1.38422e-17
4518.70382 1.51588e-17
4520.17200 1.60683e-17
4521.64018 1.50141e-17
4523.10835 1.56523e-17
4524.57653 1.64342e-17
4526.05476 1.52243e-17
4527.52294 1.56035e-17
4528.99111 1.55240e-17
4530.45929 1.50984e-17
4531.92746 1.60249e-17
4533.39564 1.60177e-17
4534.87387 1.28878e-17
4536.34205 1.32721e-17
4537.81022 1.78391e-17
4539.27840 1.75811e-17
4540.74658 1.39857e-17
4542.22481 1.43129e-17
4543.69298 1.42862e-17
4545.16116 1.54999e-17
4546.62934 1.46588e-17
4548.09751 1.36503e-17
4549.56569 1.32213e-17
4551.04392 1.26792e-17
4552.51210 1.34815e-17
4553.98027 1.45959e-17
4555.44845 1.53165e-17
4556.91662 1.75655e-17
4558.39486 1.78739e-17
4559.86303 1.73456e-17
4561.33121 1.72679e-17
4562.79938 1.41529e-17
4564.26756 1.20783e-17
4565.73574 1.57593e-17
4567.21397 1.65039e-17
4568.68214 1.54681e-17
4570.15032 1.50257e-17
4571.61850 1.43023e-17
4573.08667 1.54855e-17
4574.56490 1.41819e-17
4576.03308 1.44319e-17
4577.50126 1.56650e-17
4578.96943 1.56588e-17
4580.43761 1.61990e-17
4581.90578 1.60097e-17
4583.38402 1.58205e-17
4584.85219 1.56312e-17
4586.32037 1.54420e-17
4587.78854 1.52528e-17
4589.25672 1.50636e-17
4590.73495 1.48744e-17
4592.20313 1.46853e-17
4593.67130 1.46845e-17
4595.13948 1.50435e-17
4596.60766 1.59748e-17
4598.07583 1.40519e-17
4599.55406 1.48390e-17
4601.02224 1.64262e-17
4602.49042 1.54590e-17
4603.95859 1.48202e-17
4605.42677 1.33653e-17
4606.90500 1.48741e-17
4608.37318 1.60071e-17
4609.84135 1.53498e-17
4611.30953 1.44611e-17
4612.77770 1.44272e-17
4614.24588 1.51356e-17
4615.72411 1.60053e-17
4617.19229 1.46822e-17
4618.66046 1.45749e-17
4620.12864 1.48703e-17
4621.59682 1.52621e-17
4623.06499 1.58589e-17
4624.54322 1.47490e-17
4626.01140 1.48169e-17
4627.47958 1.46908e-17
4628.94775 1.41025e-17
4630.41593 1.48739e-17
4631.89416 1.42810e-17
4633.36234 1.35549e-17
4634.83051 1.42828e-17
4636.29869 1.42709e-17
4637.76686 1.44757e-17
4639.24510 1.39894e-17
4640.71327 1.42646e-17
4642.18145 1.68857e-17
4643.64962 1.53247e-17
4645.11780 1.56661e-17
4646.58598 1.47913e-17
4648.06421 1.41688e-17
4649.53238 1.45612e-17
4651.00056 1.40830e-17
4652.46874 1.24494e-17
4653.93691 1.15855e-17
4655.41514 1.37653e-17
4656.88332 1.37060e-17
4658.35150 1.43708e-17
4659.81967 1.49426e-17
4661.28785 1.46080e-17
4662.75602 1.43950e-17
4664.23426 1.48564e-17
4665.70243 1.32148e-17
4667.17061 1.29114e-17
4668.63878 1.60420e-17
4670.10696 1.44085e-17
4671.57514 1.37405e-17
4673.05337 1.33744e-17
4674.52154 1.36489e-17
4675.98972 1.15697e-17
4677.45790 1.12477e-17
4678.92607 1.34663e-17
4680.40430 1.40941e-17
4681.87248 1.25511e-17
4683.34066 1.19685e-17
4684.80883 1.29299e-17
4686.27701 1.03948e-17
4687.75524 1.20272e-17
4689.22342 1.39661e-17
4690.69159 1.19299e-17
4692.15977 1.28046e-17
4693.62794 1.26799e-17
4695.09612 1.25764e-17
4696.57435 1.10381e-17
4698.04253 1.21439e-17
4699.51070 1.31181e-17
4700.97888 1.33144e-17
4702.44706 1.31822e-17
4703.91523 1.23827e-17
4705.39346 1.22932e-17
4706.86164 1.24675e-17
4708.32982 1.17042e-17
4709.79799 1.21639e-17
4711.26617 1.06425e-17
4712.74440 1.03395e-17
4714.21258 1.07555e-17
4715.68075 1.05114e-17
4717.14893 1.15007e-17
4718.61710 1.13621e-17
4720.08528 1.04479e-17
4721.56351 1.05754e-17
4723.03169 1.14267e-17
4724.49986 1.18035e-17
4725.96804 1.46199e-17
4727.43622 1.25427e-17
4728.91445 1.13716e-17
4730.38262 1.25578e-17
4731.85080 1.25185e-17
4733.31898 1.27222e-17
4734.78715 1.20234e-17
4736.25533 1.06833e-17
4737.73356 1.24824e-17
4739.20174 1.21383e-17
4740.66991 1.11984e-17
4742.13809 1.10645e-17
4743.60626 1.19633e-17
4745.08450 1.16666e-17
4746.55267 1.09199e-17
4748.02085 8.86016e-18
4749.48902 8.30020e-18
4750.95720 9.99854e-18
4752.42538 1.12469e-17
4753.90361 1.25209e-17
4755.37178 1.16387e-17
4756.83996 9.90920e-18
4758.30814 1.04129e-17
4759.77631 1.17684e-17
4761.25454 1.07023e-17
4762.72272 1.02836e-17
4764.19090 1.03918e-17
4765.65907 1.17668e-17
4767.12725 1.33866e-17
4768.59542 1.20047e-17
4770.07366 1.09841e-17
4771.54183 1.14481e-17
4773.01001 1.21600e-17
4774.47818 1.14240e-17
4775.94636 8.56076e-18
4777.42459 7.37139e-18
4778.89277 9.93174e-18
4780.36094 1.02971e-17
4781.82912 9.91364e-18
4783.29730 1.09865e-17
4784.76547 1.04610e-17
4786.24370 8.94573e-18
4787.71188 9.59355e-18
4789.18006 1.10794e-17
4790.64823 9.71493e-18
4792.11641 7.97575e-18
4793.59464 8.15167e-18
4795.06282 9.49418e-18
4796.53099 1.04452e-17
4797.99917 8.88455e-18
4799.46734 7.75594e-18
4800.93552 9.48009e-18
4802.41375 1.08865e-17
4803.88193 9.02818e-18
4805.35010 8.25602e-18
4806.81828 1.05044e-17
4808.28646 1.12741e-17
4809.76469 1.21217e-17
4811.23286 1.13323e-17
4812.70104 1.03844e-17
4814.16922 1.13262e-17
4815.63739 1.13837e-17
4817.10557 1.04751e-17
4818.58380 1.10784e-17
4820.05198 1.17603e-17
4821.52015 1.09905e-17
4822.98833 9.78203e-18
4824.45650 1.01340e-17
4825.93474 1.19072e-17
4827.40291 1.12011e-17
4828.87109 9.82965e-18
4830.33926 9.71190e-18
4831.80744 1.06918e-17
4833.27562 1.11156e-17
4834.75385 1.03048e-17
4836.22202 1.09501e-17
4837.69020 1.20861e-17
4839.15838 1.11576e-17
4840.62655 1.14425e-17
4842.10478 1.07630e-17
4843.57296 1.09287e-17
4845.04114 1.22323e-17
4846.50931 1.13977e-17
4847.97749 9.80376e-18
4849.44566 8.87068e-18
4850.92390 9.57634e-18
4852.39207 1.01224e-17
4853.86025 1.05898e-17
4855.32842 1.11009e-17
4856.79660 1.13042e-17
4858.27483 1.07574e-17
4859.74301 1.05745e-17
4861.21118 1.08181e-17
4862.67936 1.11615e-17
4864.14754 1.10087e-17
4865.61571 1.04681e-17
4867.09394 1.15846e-17
4868.56212 1.13983e-17
4870.03030 1.06381e-17
4871.49847 1.06813e-17
4872.96665 1.07245e-17
4874.44488 1.07678e-17
4875.91306 1.08110e-17
4877.38123 1.08542e-17
4878.84941 1.08974e-17
4880.31758 1.09406e-17
4881.78576 1.09838e-17
4883.26399 1.10270e-17
4884.73217 1.10702e-17
4886.20034 1.11133e-17
4887.66852 1.11565e-17
4889.13670 1.11997e-17
4890.61493 1.12429e-17
4892.08310 1.12860e-17
4893.55128 1.13292e-17
4895.01946 1.13723e-17
4896.48763 1.14155e-17
4897.95581 1.14586e-17
4899.43404 1.15018e-17
4900.90222 1.15449e-17
4902.37039 1.15880e-17
4903.83857 1.16312e-17
4905.30674 1.16743e-17
4906.78498 1.17174e-17
4908.25315 1.12929e-17
4909.72133 1.12497e-17
4911.18950 1.24846e-17
4912.65768 1.14165e-17
4914.12586 1.05927e-17
4915.60409 1.20382e-17
4917.07226 1.27726e-17
4918.54044 1.31781e-17
4920.00862 1.23051e-17
4921.47679 1.05794e-17
4922.95502 1.16485e-17
4924.42320 1.35406e-17
4925.89138 1.26513e-17
4927.35955 1.24131e-17
4928.82773 1.26273e-17
4930.29590 1.12309e-17
4931.77414 1.05044e-17
4933.24231 1.14113e-17
4934.71049 1.31981e-17
4936.17866 1.35262e-17
4937.64684 1.21320e-17
4939.12507 1.15308e-17
4940.59325 1.19385e-17
4942.06142 1.24564e-17
4943.52960 1.29772e-17
4944.99778 1.27033e-17
4946.46595 1.24604e-17
4947.94418 1.32147e-17
4949.41236 1.35588e-17
4950.88054 1.25064e-17
4952.34871 1.28363e-17
4953.81689 1.30073e-17
4955.28506 1.27158e-17
4956.76330 1.27013e-17
4958.23147 1.12027e-17
4959.69965 1.13117e-17
4961.16782 1.30584e-17
4962.63600 1.27089e-17
4964.11423 1.18014e-17
4965.58241 1.10741e-17
4967.05058 1.24011e-17
4968.51876 1.21779e-17
4969.98694 1.21062e-17
4971.45511 1.20346e-17
4972.93334 1.19629e-17
4974.40152 1.18912e-17
4975.86970 1.18195e-17
4977.33787 1.17479e-17
4978.80605 1.16762e-17
4980.28428 1.16046e-17
4981.75246 1.15330e-17
4983.22063 1.14613e-17
4984.68881 1.13897e-17
4986.15698 1.13181e-17
4987.62516 1.12465e-17
4989.10339 1.11749e-17
4990.57157 1.11033e-17
4992.03974 1.10318e-17
4993.50792 1.09602e-17
4994.97610 1.08886e-17
4996.45433 1.08171e-17
4997.92250 1.07455e-17
4999.39068 1.06740e-17
5000.85886 1.06025e-17
5002.32703 1.05309e-17
5003.79521 1.04595e-17
5005.27344 1.03879e-17
5006.74162 1.27842e-17
5008.20979 1.34935e-17
5009.67797 1.22263e-17
5011.14614 1.14511e-17
5012.62438 1.18507e-17
5014.09255 1.20361e-17
5015.56073 1.10818e-17
5017.02890 1.10986e-17
5018.49708 1.11153e-17
5019.97531 1.11321e-17
5021.44349 1.11488e-17
5022.91166 1.11656e-17
5024.37984 1.11823e-17
5025.84802 1.11991e-17
5027.31619 1.12158e-17
5028.79442 1.12326e-17
5030.26260 1.12493e-17
5031.73078 1.12660e-17
5033.19895 1.12828e-17
5034.66713 1.12995e-17
5036.13530 1.13163e-17
5037.61354 1.13330e-17
5039.08171 1.13497e-17
5040.54989 1.13665e-17
5042.01806 1.13832e-17
5043.48624 1.13999e-17
5044.96447 1.14166e-17
5046.43265 1.14334e-17
5047.90082 1.14501e-17
5049.36900 1.14668e-17
5050.83718 1.14835e-17
5052.30535 1.15003e-17
5053.78358 1.15170e-17
5055.25176 1.13595e-17
5056.71994 1.10839e-17
5058.18811 1.12154e-17
5059.65629 1.16321e-17
5061.13452 1.14125e-17
5062.60270 1.11455e-17
5064.07087 1.15617e-17
5065.53905 1.12318e-17
5067.00722 1.17134e-17
5068.47540 1.20103e-17
5069.95363 1.11158e-17
5071.42181 1.26607e-17
5072.88998 1.45893e-17
5074.35816 1.30715e-17
5075.82634 1.10570e-17
5077.30457 1.19289e-17
5078.77274 1.26739e-17
5080.24092 1.25164e-17
5081.70910 1.31675e-17
5083.17727 1.27548e-17
5084.64545 1.09342e-17
5086.12368 1.07363e-17
5087.59186 1.21287e-17
5089.06003 1.28810e-17
5090.52821 1.24521e-17
5091.99638 1.27089e-17
5093.47462 1.42841e-17
5094.94279 1.29728e-17
5096.41097 1.34809e-17
5097.87914 1.38662e-17
5099.34732 1.44795e-17
5100.81550 1.41682e-17
5102.29373 1.36893e-17
5103.76190 1.45067e-17
5105.23008 1.34495e-17
5106.69826 1.24001e-17
5108.16643 1.28207e-17
5109.64466 1.40938e-17
5111.11284 1.48063e-17
5112.58102 1.46229e-17
5114.04919 1.39476e-17
5115.51737 1.29507e-17
5116.98554 1.24262e-17
5118.46378 1.25051e-17
5119.93195 1.40451e-17
5121.40013 1.38065e-17
5122.86830 1.35847e-17
5124.33648 1.47033e-17
5125.81471 1.38517e-17
5127.28289 1.38503e-17
5128.75106 1.38488e-17
5130.21924 1.33941e-17
5131.68742 1.31484e-17
5133.15559 1.41109e-17
5134.63382 1.52907e-17
5136.10200 1.46546e-17
5137.57018 1.40592e-17
5139.03835 1.30207e-17
5140.50653 1.15287e-17
5141.98476 1.27950e-17
5143.45294 1.44874e-17
5144.92111 1.39804e-17
5146.38929 1.46018e-17
5147.85746 1.43627e-17
5149.32564 1.39266e-17
5150.80387 1.36690e-17
5152.27205 1.34366e-17
5153.74022 1.35728e-17
5155.20840 1.33196e-17
5156.67658 1.32708e-17
5158.15481 1.37252e-17
5159.62298 1.39272e-17
5161.09116 1.38806e-17
5162.55934 1.45082e-17
5164.02751 1.37311e-17
5165.49569 1.25349e-17
5166.97392 1.26628e-17
5168.44210 1.36611e-17
5169.91027 1.41230e-17
5171.37845 1.36483e-17
5172.84662 1.30601e-17
5174.31480 1.26354e-17
5175.79303 1.33540e-17
5177.26121 1.44295e-17
5178.72938 1.40722e-17
5180.19756 1.36343e-17
5181.66574 1.42361e-17
5183.14397 1.44432e-17
5184.61214 1.39000e-17
5186.08032 1.31300e-17
5187.54850 1.30224e-17
5189.01667 1.36475e-17
5190.49490 1.47273e-17
5191.96308 1.43559e-17
5193.43126 1.41241e-17
5194.89943 1.41765e-17
5196.36761 1.33851e-17
5197.83578 1.30508e-17
5199.31402 1.43751e-17
5200.78219 1.50950e-17
5202.25037 1.43552e-17
5203.71854 1.40352e-17
5205.18672 1.43758e-17
5206.66495 1.50757e-17
5208.13313 1.52545e-17
5209.60130 1.51537e-17
5211.06948 1.49640e-17
5212.53766 1.50555e-17
5214.00583 1.62611e-17
5215.48406 1.67253e-17
5216.95224 1.50133e-17
5218.42042 1.40103e-17
5219.88859 1.53969e-17
5221.35677 1.69367e-17
5222.83500 1.72142e-17
5224.30318 1.58607e-17
5225.77135 1.48666e-17
5227.23953 1.55938e-17
5228.70770 1.54193e-17
5230.17588 1.48766e-17
5231.65411 1.48511e-17
5233.12229 1.45434e-17
5234.59046 1.45243e-17
5236.05864 1.45317e-17
5237.52682 1.43399e-17
5239.00505 1.50562e-17
5240.47322 1.57698e-17
5241.94140 1.49670e-17
5243.40958 1.32498e-17
5244.87775 1.34789e-17
5246.34593 1.60017e-17
5247.82416 1.61565e-17
5249.29234 1.42090e-17
5250.76051 1.35505e-17
5252.22869 1.43873e-17
5253.69686 1.57759e-17
5255.16504 1.67857e-17
5256.64327 1.71638e-17
5258.11145 1.67199e-17
5259.57962 1.52103e-17
5261.04780 1.48414e-17
5262.51598 1.51296e-17
5263.99421 1.48843e-17
5265.46238 1.49845e-17
5266.93056 1.51272e-17
5268.39874 1.53930e-17
5269.86691 1.50353e-17
5271.33509 1.51035e-17
5272.81332 1.50652e-17
5274.28150 1.39748e-17
5275.74967 1.49372e-17
5277.21785 1.67763e-17
5278.68602 1.76687e-17
5280.16426 1.71356e-17
5281.63243 1.49909e-17
5283.10061 1.39673e-17
5284.56878 1.39146e-17
5286.03696 1.38717e-17
5287.50514 1.49831e-17
5288.98337 1.56086e-17
5290.45154 1.49329e-17
5291.91972 1.49585e-17
5293.38790 1.59668e-17
5294.85607 1.60171e-17
5296.33430 1.47779e-17
5297.80248 1.52390e-17
5299.27066 1.60018e-17
5300.73883 1.46831e-17
5302.20701 1.42959e-17
5303.68524 1.51093e-17
5305.15342 1.62959e-17
5306.62159 1.67267e-17
5308.08977 1.59739e-17
5309.55794 1.58253e-17
5311.02612 1.54032e-17
5312.50435 1.46123e-17
5313.97253 1.47693e-17
5315.44070 1.47748e-17
5316.90888 1.41456e-17
5318.37706 1.51910e-17
5319.85529 1.64692e-17
5321.32346 1.55070e-17
5322.79164 1.40811e-17
5324.25982 1.47204e-17
5325.72799 1.65829e-17
5327.19617 1.65027e-17
5328.67440 1.46281e-17
5330.14258 1.42125e-17
5331.61075 1.56401e-17
5333.07893 1.66846e-17
5334.54710 1.64904e-17
5336.01528 1.58117e-17
5337.49351 1.60909e-17
5338.96169 1.70140e-17
5340.42986 1.61477e-17
5341.89804 1.46261e-17
5343.36622 1.52468e-17
5344.84445 1.64406e-17
5346.31262 1.64346e-17
5347.78080 1.62785e-17
5349.24898 1.59157e-17
5350.71715 1.47963e-17
5352.18533 1.46079e-17
5353.66356 1.58209e-17
5355.13174 1.54311e-17
5356.59991 1.47591e-17
5358.06809 1.50760e-17
5359.53626 1.46486e-17
5361.01450 1.45329e-17
5362.48267 1.48399e-17
5363.95085 1.60680e-17
5365.41902 1.64616e-17
5366.88720 1.50897e-17
5368.35538 1.46847e-17
5369.83361 1.49859e-17
5371.30178 1.44697e-17
5372.76996 1.45459e-17
5374.23814 1.54666e-17
5375.70631 1.49993e-17
5377.18454 1.45058e-17
5378.65272 1.41415e-17
5380.12090 1.38328e-17
5381.58907 1.44227e-17
5383.05725 1.45451e-17
5384.52542 1.45650e-17
5386.00366 1.44928e-17
5387.47183 1.40997e-17
5388.94001 1.39208e-17
5390.40818 1.37544e-17
5391.87636 1.43218e-17
5393.35459 1.53254e-17
5394.82277 1.40048e-17
5396.29094 1.28026e-17
5397.75912 1.46104e-17
5399.22730 1.45004e-17
5400.69547 1.34380e-17
5402.17370 1.37509e-17
5403.64188 1.39379e-17
5405.11006 1.45022e-17
5406.57823 1.43041e-17
5408.04641 1.43783e-17
5409.52464 1.49328e-17
5410.99282 1.42962e-17
5412.46099 1.30274e-17
5413.92917 1.31720e-17
5415.39734 1.39600e-17
5416.86552 1.34285e-17
5418.34375 1.35655e-17
5419.81193 1.38577e-17
5421.28010 1.28247e-17
5422.74828 1.26812e-17
5424.21646 1.39490e-17
5425.69469 1.46077e-17
5427.16286 1.44062e-17
5428.63104 1.35641e-17
5430.09922 1.26404e-17
5431.56739 1.33877e-17
5433.03557 1.33519e-17
5434.51380 1.31673e-17
5435.98198 1.36905e-17
5437.45015 1.37861e-17
5438.91833 1.41154e-17
5440.38650 1.40731e-17
5441.86474 1.29044e-17
5443.33291 1.24981e-17
5444.80109 1.24643e-17
5446.26926 1.30500e-17
5447.73744 1.35677e-17
5449.20562 1.33925e-17
5450.68385 1.44251e-17
5452.15202 1.52277e-17
5453.62020 1.36582e-17
5455.08838 1.14431e-17
5456.55655 1.18145e-17
5458.03478 1.41480e-17
5459.50296 1.49746e-17
5460.97114 1.40352e-17
5462.43931 1.30569e-17
5463.90749 1.32529e-17
5465.37566 1.40929e-17
5466.85390 1.35059e-17
5468.32207 1.31515e-17
5469.79025 1.36392e-17
5471.25842 1.31074e-17
5472.72660 1.26735e-17
5474.20483 1.31230e-17
5475.67301 1.33803e-17
5477.14118 1.34870e-17
5478.60936 1.37386e-17
5480.07754 1.45392e-17
5481.54571 1.49999e-17
5483.02394 1.42809e-17
5484.49212 1.47877e-17
5485.96030 1.50454e-17
5487.42847 1.45765e-17
5488.89665 1.43018e-17
5490.37488 1.41635e-17
5491.84306 1.32407e-17
5493.31123 1.34847e-17
5494.77941 1.44421e-17
5496.24758 1.39914e-17
5497.71576 1.40554e-17
5499.19399 1.35479e-17
5500.66217 1.41161e-17
5502.13034 1.55535e-17
5503.59852 1.51255e-17
5505.06670 1.38809e-17
5506.54493 1.28602e-17
5508.01310 1.32231e-17
5509.48128 1.31746e-17
5510.94946 1.38207e-17
5512.41763 1.40152e-17
5513.88581 1.36826e-17
5515.36404 1.38101e-17
5516.83222 1.33129e-17
5518.30039 1.33263e-17
5519.76857 1.30510e-17
5521.23674 1.32157e-17
5522.71498 1.28422e-17
5524.18315 1.36974e-17
5525.65133 1.40770e-17
5527.11950 1.27336e-17
5528.58768 1.33766e-17
5530.05586 1.38488e-17
5531.53409 1.47005e-17
5533.00226 1.46180e-17
5534.47044 1.32287e-17
5535.93862 1.29671e-17
5537.40679 1.28329e-17
5538.88502 1.27836e-17
5540.35320 1.33741e-17
5541.82138 1.35093e-17
5543.28955 1.30990e-17
5544.75773 1.25478e-17
5546.22590 1.26749e-17
5547.70414 1.21183e-17
5549.17231 1.27423e-17
5550.64049 1.26930e-17
5552.10866 1.36234e-17
5553.57684 1.42208e-17
5555.04502 1.30340e-17
5556.52325 1.21516e-17
5557.99142 1.21454e-17
5559.45960 1.19642e-17
5560.92778 1.21268e-17
5562.39595 1.16478e-17
5563.87418 1.20880e-17
5565.34236 1.26056e-17
5566.81054 1.18656e-17
5568.27871 1.17186e-17
5569.74689 1.08338e-17
5571.22512 1.07690e-17
5572.69330 1.16556e-17
5574.16147 1.07948e-17
5575.62965 1.04646e-17
5577.09782 1.07527e-17
5578.56600 1.04453e-17
5580.04423 1.15146e-17
5581.51241 1.13594e-17
5582.98058 9.87823e-18
5584.44876 9.47043e-18
5585.91694 9.68523e-18
5587.38511 9.48782e-18
5588.86334 9.87112e-18
5590.33152 9.68285e-18
5591.79970 9.24617e-18
5593.26787 9.55449e-18
5594.73605 9.91805e-18
5596.21428 9.76020e-18
5597.68246 9.67036e-18
5599.15063 1.01441e-17
5600.61881 1.09078e-17
5602.08698 1.05127e-17
5603.55516 9.71322e-18
5605.03339 9.62656e-18
5606.50157 1.00267e-17
5607.96974 1.03874e-17
5609.43792 1.02057e-17
5610.90610 9.95646e-18
5612.38433 9.90469e-18
5613.85250 1.07148e-17
5615.32068 1.12286e-17
5616.78886 1.12564e-17
5618.25703 1.06002e-17
5619.73526 9.44840e-18
5621.20344 9.91436e-18
5622.67162 1.04309e-17
5624.13979 1.05047e-17
5625.60797 9.20688e-18
5627.07614 8.38303e-18
5628.55438 9.84950e-18
5630.02255 9.83794e-18
5631.49073 9.74777e-18
5632.95890 9.68327e-18
5634.42708 9.31390e-18
5635.89526 1.01827e-17
5637.37349 9.86257e-18
5638.84166 8.49041e-18
5640.30984 8.38977e-18
5641.77802 9.11298e-18
5643.24619 9.86304e-18
5644.72442 9.59643e-18
5646.19260 8.64537e-18
5647.66078 9.32506e-18
5649.12895 1.03328e-17
5650.59713 1.00623e-17
5652.06530 9.17001e-18
5653.54354 8.84086e-18
5655.01171 8.84829e-18
5656.47989 9.61697e-18
5657.94806 1.00364e-17
5659.41624 1.08456e-17
5660.89447 1.09981e-17
5662.36265 1.00446e-17
5663.83082 1.02735e-17
5665.29900 9.66328e-18
5666.76718 9.97130e-18
5668.23535 1.05437e-17
5669.71358 9.92239e-18
5671.18176 1.00862e-17
5672.64994 1.04365e-17
5674.11811 9.84475e-18
5675.58629 9.91555e-18
5677.06452 1.08426e-17
5678.53270 1.14551e-17
5680.00087 1.20416e-17
5681.46905 1.24881e-17
5682.93722 1.17250e-17
5684.40540 1.07510e-17
5685.88363 1.06048e-17
5687.35181 1.13532e-17
5688.81998 1.21601e-17
5690.28816 1.15440e-17
5691.75634 1.15248e-17
5693.23457 1.14803e-17
5694.70274 1.12476e-17
5696.17092 1.21087e-17
5697.63910 1.24130e-17
5699.10727 1.12431e-17
5700.57545 1.12704e-17
5702.05368 1.15502e-17
5703.52186 1.15800e-17
5704.99003 1.14051e-17
5706.45821 1.11517e-17
5707.92638 1.09239e-17
5709.40462 1.07832e-17
5710.87279 1.11480e-17
5712.34097 1.23378e-17
5713.80914 1.20183e-17
5715.27732 1.09449e-17
5716.74550 1.07644e-17
5718.22373 1.15854e-17
5719.69190 1.21318e-17
5721.16008 1.22477e-17
5722.62826 1.27227e-17
5724.09643 1.34611e-17
5725.57466 1.25102e-17
5727.04284 1.36495e-17
5728.51102 1.32910e-17
5729.97919 1.24726e-17
5731.44737 1.24394e-17
5732.91554 1.23420e-17
5734.39378 1.31363e-17
5735.86195 1.41870e-17
5737.33013 1.29112e-17
5738.79830 1.21813e-17
5740.26648 1.33819e-17
5741.74471 1.23278e-17
5743.21289 1.17673e-17
5744.68106 1.23653e-17
5746.14924 1.30817e-17
5747.61742 1.44338e-17
5749.08559 1.38898e-17
5750.56382 1.41646e-17
5752.03200 1.49460e-17
5753.50018 1.51930e-17
5754.96835 1.53013e-17
5756.43653 1.36614e-17
5757.91476 1.27368e-17
5759.38294 1.30846e-17
5760.85111 1.31026e-17
5762.31929 1.39742e-17
5763.78746 1.36614e-17
5765.25564 1.33270e-17
5766.73387 1.38254e-17
5768.20205 1.44927e-17
5769.67022 1.37934e-17
5771.13840 1.32710e-17
5772.60658 1.30711e-17
5774.08481 1.39275e-17
5775.55298 1.48304e-17
5777.02116 1.44751e-17
5778.48934 1.46360e-17
5779.95751 1.50545e-17
5781.42569 1.39965e-17
5782.90392 1.36979e-17
5784.37210 1.41179e-17
5785.84027 1.41309e-17
5787.30845 1.49746e-17
5788.77662 1.56004e-17
5790.25486 1.50766e-17
5791.72303 1.46105e-17
5793.19121 1.52194e-17
5794.65938 1.52055e-17
5796.12756 1.59538e-17
5797.59574 1.57644e-17
5799.07397 1.52972e-17
5800.54214 1.58981e-17
5802.01032 1.52980e-17
5803.47850 1.51308e-17
5804.94667 1.50802e-17
5806.41485 1.53392e-17
5807.89308 1.60630e-17
5809.36126 1.58194e-17
5810.82943 1.53815e-17
5812.29761 1.51067e-17
5813.76578 1.45900e-17
5815.24402 1.47996e-17
5816.71219 1.48026e-17
5818.18037 1.41329e-17
5819.64854 1.54020e-17
5821.11672 1.64598e-17
5822.59495 1.58755e-17
5824.06313 1.50672e-17
5825.53130 1.48347e-17
5826.99948 1.56874e-17
5828.46766 1.56443e-17
5829.93583 1.53082e-17
5831.41406 1.58035e-17
5832.88224 1.52746e-17
5834.35042 1.55183e-17
5835.81859 1.58753e-17
5837.28677 1.60072e-17
5838.76500 1.55300e-17
5840.23318 1.51308e-17
5841.70135 1.55785e-17
5843.16953 1.47331e-17
5844.63770 1.45614e-17
5846.10588 1.48820e-17
5847.58411 1.49263e-17
5849.05229 1.60354e-17
5850.52046 1.55014e-17
5851.98864 1.44869e-17
5853.45682 1.45922e-17
5854.93505 1.45258e-17
5856.40322 1.45035e-17
5857.87140 1.35249e-17
5859.33958 1.37039e-17
5860.80775 1.50577e-17
5862.27593 1.45189e-17
5863.75416 1.41518e-17
5865.22234 1.45347e-17
5866.69051 1.44600e-17
5868.15869 1.43874e-17
5869.62686 1.47297e-17
5871.10510 1.45954e-17
5872.57327 1.45297e-17
5874.04145 1.46000e-17
5875.50962 1.41089e-17
5876.97780 1.54703e-17
5878.44598 1.54972e-17
5879.92421 1.37439e-17
5881.39238 1.30588e-17
5882.86056 1.42300e-17
5884.32874 1.52258e-17
5885.79691 1.46916e-17
5887.26509 1.34647e-17
5888.74332 1.32422e-17
5890.21150 1.38274e-17
5891.67967 1.32841e-17
5893.14785 1.44012e-17
5894.61602 1.57722e-17
5896.09426 1.45995e-17
5897.56243 1.33014e-17
5899.03061 1.48615e-17
5900.49878 1.52718e-17
5901.96696 1.39917e-17
5903.43514 1.46421e-17
5904.91337 1.49279e-17
5906.38154 1.39688e-17
5907.84972 1.41825e-17
5909.31790 1.47082e-17
5910.78607 1.45253e-17
5912.26430 1.51689e-17
5913.73248 1.44193e-17
5915.20066 1.42552e-17
5916.66883 1.59471e-17
5918.13701 1.54126e-17
5919.61524 1.43449e-17
5921.08342 1.28883e-17
5922.55159 1.32088e-17
5924.01977 1.13203e-17
5925.48794 1.02287e-17
5926.95612 1.17605e-17
5928.43435 1.26405e-17
5929.90253 1.28615e-17
5931.37070 1.13904e-17
5932.83888 1.20684e-17
5934.30706 1.44549e-17
5935.77523 1.53680e-17
5937.25346 1.40609e-17
5938.72164 1.41718e-17
5940.18982 1.55011e-17
5941.65799 1.45871e-17
5943.12617 1.39917e-17
5944.60440 1.42864e-17
5946.07258 1.35853e-17
5947.54075 1.33974e-17
5949.00893 1.38797e-17
5950.47710 1.43366e-17
5951.95534 1.42241e-17
5953.42351 1.50879e-17
5954.89169 1.40274e-17
5956.35986 1.42103e-17
5957.82804 1.48003e-17
5959.29622 1.40299e-17
5960.77445 1.45177e-17
5962.24262 1.47558e-17
5963.71080 1.38328e-17
5965.17898 1.41966e-17
5966.64715 1.33818e-17
5968.11533 1.39278e-17
5969.59356 1.47285e-17
5971.06174 1.34702e-17
5972.52991 1.37890e-17
5973.99809 1.41104e-17
5975.46626 1.45484e-17
5976.94450 1.41818e-17
5978.41267 1.40182e-17
5979.88085 1.28915e-17
5981.34902 1.34493e-17
5982.81720 1.39105e-17
5984.28538 1.34840e-17
5985.76361 1.33974e-17
5987.23178 1.40036e-17
5988.69996 1.40395e-17
5990.16814 1.33666e-17
5991.63631 1.33950e-17
5993.11454 1.43032e-17
5994.58272 1.43007e-17
5996.05090 1.35138e-17
5997.51907 1.31807e-17
5998.98725 1.42658e-17
6000.45542 1.26570e-17
6001.93366 1.33306e-17
6003.40183 1.34587e-17
6004.87001 1.45764e-17
6006.33818 1.47469e-17
6007.80636 1.39252e-17
6009.28459 1.25469e-17
6010.75277 1.30579e-17
6012.22094 1.38060e-17
6013.68912 1.41971e-17
6015.15730 1.40288e-17
6016.62547 1.38411e-17
6018.10370 1.43691e-17
6019.57188 1.34050e-17
6021.04006 1.35413e-17
6022.50823 1.37881e-17
6023.97641 1.27951e-17
6025.45464 1.32987e-17
6026.92282 1.39084e-17
6028.39099 1.48008e-17
6029.85917 1.52318e-17
6031.32734 1.41745e-17
6032.79552 1.33608e-17
6034.27375 1.25592e-17
6035.74193 1.31392e-17
6037.21010 1.30428e-17
6038.67828 1.21874e-17
6040.14646 1.28164e-17
6041.62469 1.28493e-17
6043.09286 1.35427e-17
6044.56104 1.40447e-17
6046.02922 1.31694e-17
6047.49739 1.27553e-17
6048.96557 1.27997e-17
6050.44380 1.23615e-17
6051.91198 1.23421e-17
6053.38015 1.26175e-17
6054.84833 1.22649e-17
6056.31650 1.25893e-17
6057.79474 1.28252e-17
6059.26291 1.23927e-17
6060.73109 1.15061e-17
6062.19926 1.09519e-17
6063.66744 1.21078e-17
6065.13562 1.17235e-17
6066.61385 1.07474e-17
6068.08202 1.17336e-17
6069.55020 1.25195e-17
6071.01838 1.24660e-17
6072.48655 1.18269e-17
6073.96478 1.11661e-17
6075.43296 1.08855e-17
6076.90114 1.05983e-17
6078.36931 1.10244e-17
6079.83749 1.24386e-17
6081.30566 1.19625e-17
6082.78390 1.07926e-17
6084.25207 1.07067e-17
6085.72025 1.04829e-17
6087.18842 1.07483e-17
6088.65660 1.06216e-17
6090.13483 1.11542e-17
6091.60301 1.09341e-17
6093.07118 1.00585e-17
6094.53936 1.07888e-17
6096.00754 1.09204e-17
6097.47571 1.12644e-17
6098.95394 9.77360e-18
6100.42212 9.04336e-18
6101.89030 9.39739e-18
6103.35847 9.48430e-18
6104.82665 9.28155e-18
6106.29482 9.89462e-18
6107.77306 1.01264e-17
6109.24123 9.43446e-18
6110.70941 8.47139e-18
6112.17758 9.06536e-18
6113.64576 1.14525e-17
6115.12399 1.05371e-17
6116.59217 1.00925e-17
6118.06034 1.06620e-17
6119.52852 1.09941e-17
6120.99670 1.06660e-17
6122.47493 1.20476e-17
6123.94310 1.16788e-17
6125.41128 1.02949e-17
6126.87946 1.01435e-17
6128.34763 1.11735e-17
6129.81581 1.02349e-17
6131.29404 1.02909e-17
6132.76222 1.11856e-17
6134.23039 9.89587e-18
6135.69857 1.09495e-17
6137.16674 1.17918e-17
6138.64498 1.19183e-17
6140.11315 1.25599e-17
6141.58133 1.06668e-17
6143.04950 1.03299e-17
6144.51768 1.13746e-17
6145.98586 1.06352e-17
6147.46409 1.03738e-17
6148.93226 1.06435e-17
6150.40044 1.09291e-17
6151.86862 1.00486e-17
6153.33679 9.23580e-18
6154.81502 9.80204e-18
6156.28320 1.05821e-17
6157.75138 1.10130e-17
6159.21955 1.09234e-17
6160.68773 1.09123e-17
6162.15590 9.67502e-18
6163.63414 1.07580e-17
6165.10231 1.05493e-17
6166.57049 1.01191e-17
6168.03866 1.02719e-17
6169.50684 1.00982e-17
6170.98507 9.58708e-18
6172.45325 9.45028e-18
6173.92142 1.03055e-17
6175.38960 1.01349e-17
6176.85778 9.91451e-18
6178.32595 1.03325e-17
6179.80418 1.01699e-17
6181.27236 1.01435e-17
6182.74054 1.12357e-17
6184.20871 9.53007e-18
6185.67689 9.53899e-18
6187.14506 1.11302e-17
6188.62330 1.02843e-17
6190.09147 1.07307e-17
6191.55965 1.16216e-17
6193.02782 1.15751e-17
6194.49600 1.10136e-17
6195.97423 1.10442e-17
6197.44241 1.00201e-17
6198.91058 1.02980e-17
6200.37876 1.07577e-17
6201.84694 1.10039e-17
6203.31511 1.09200e-17
6204.79334 1.04870e-17
6206.26152 1.02323e-17
6207.72970 1.00721e-17
6209.19787 9.56737e-18
6210.66605 9.88124e-18
6212.14428 1.08758e-17
6213.61246 1.11667e-17
6215.08063 1.05909e-17
6216.54881 1.06666e-17
6218.01698 1.10734e-17
6219.48516 1.03926e-17
6220.96339 1.09234e-17
6222.43157 1.02763e-17
6223.89974 1.16203e-17
6225.36792 1.24080e-17
6226.83610 1.11075e-17
6228.31433 1.12125e-17
6229.78250 1.17193e-17
6231.25068 1.11123e-17
6232.71886 1.00416e-17
6234.18703 9.19177e-18
6235.66526 1.06954e-17
6237.13344 1.14567e-17
6238.60162 1.17683e-17
6240.06979 1.15733e-17
6241.53797 1.09874e-17
6243.00614 1.06084e-17
6244.48438 1.08509e-17
6245.95255 1.14541e-17
6247.42073 1.09782e-17
6248.88890 1.10291e-17
6250.35708 1.20107e-17
6251.83531 1.19523e-17
6253.30349 1.08782e-17
6254.77166 1.06969e-17
6256.23984 1.06768e-17
6257.70802 1.08554e-17
6259.17619 1.11995e-17
6260.65442 1.13600e-17
6262.12260 1.07919e-17
6263.59078 1.13837e-17
6265.05895 1.26327e-17
6266.52713 1.19352e-17
6267.99530 1.14405e-17
6269.47354 1.08841e-17
6270.94171 1.15915e-17
6272.40989 1.12324e-17
6273.87806 1.05907e-17
6275.34624 1.16720e-17
6276.82447 1.11328e-17
6278.29265 1.08280e-17
6279.76082 1.19607e-17
6281.22900 1.27482e-17
6282.69718 1.30155e-17
6284.16535 1.02734e-17
6285.64358 1.09876e-17
6287.11176 1.13484e-17
6288.57994 1.14127e-17
6290.04811 1.21660e-17
6291.51629 1.12077e-17
6292.99452 1.12002e-17
6294.46270 1.16185e-17
6295.93087 1.28121e-17
6297.39905 1.25831e-17
6298.86722 1.10535e-17
6300.33540 1.11160e-17
6301.81363 1.13966e-17
6303.28181 1.10901e-17
6304.74998 1.21243e-17
6306.21816 1.15694e-17
6307.68634 1.21414e-17
6309.16457 1.10740e-17
6310.63274 1.14883e-17
6312.10092 1.17218e-17
6313.56910 1.09570e-17
6315.03727 1.19953e-17
6316.50545 1.20987e-17
6317.98368 1.10953e-17
6319.45186 1.14801e-17
6320.92003 1.14296e-17
6322.38821 1.16374e-17
6323.85638 1.10851e-17
6325.33462 1.09084e-17
6326.80279 1.09413e-17
6328.27097 1.01522e-17
6329.73914 1.15088e-17
6331.20732 1.20933e-17
6332.68555 1.14836e-17
6334.15373 1.05649e-17
6335.62190 1.08479e-17
6337.09008 1.12907e-17
6338.55826 1.13263e-17
6340.02643 1.03396e-17
6341.50466 1.00490e-17
6342.97284 1.10199e-17
6344.44102 1.04996e-17
6345.90919 9.57518e-18
6347.37737 1.07923e-17
6348.84554 1.12999e-17
6350.32378 1.12583e-17
6351.79195 1.06456e-17
6353.26013 1.10310e-17
6354.72830 1.02642e-17
6356.19648 9.36424e-18
6357.67471 1.13040e-17
6359.14289 1.15927e-17
6360.61106 1.23865e-17
6362.07924 9.76484e-18
6363.54742 1.09654e-17
6365.01559 1.05234e-17
6366.49382 9.71498e-18
6367.96200 9.97788e-18
6369.43018 1.07282e-17
6370.89835 1.06011e-17
6372.36653 1.12368e-17
6373.84476 1.14666e-17
6375.31294 1.01219e-17
6376.78111 1.06433e-17
6378.24929 1.14268e-17
6379.71746 1.03526e-17
6381.18564 1.03355e-17
6382.66387 1.10842e-17
6384.13205 1.16689e-17
6385.60022 1.13831e-17
6387.06840 1.07824e-17
6388.53658 1.07070e-17
6390.01481 1.04959e-17
6391.48298 9.44070e-18
6392.95116 1.00340e-17
6394.41934 1.01599e-17
6395.88751 1.07145e-17
6397.35569 1.00948e-17
6398.83392 1.03398e-17
6400.30210 1.09505e-17
6401.77027 9.44646e-18
6403.23845 9.50735e-18
6404.70662 1.05544e-17
6406.18486 1.07310e-17
6407.65303 9.69050e-18
6409.12121 1.07180e-17
6410.58938 1.11121e-17
6412.05756 1.10453e-17
6413.52574 1.02245e-17
6415.00397 1.01610e-17
6416.47214 1.08470e-17
6417.94032 1.03334e-17
6419.40850 1.05949e-17
6420.87667 1.13002e-17
6422.35490 1.11714e-17
6423.82308 1.09926e-17
6425.29126 1.02270e-17
6426.75943 1.08703e-17
6428.22761 1.07939e-17
6429.69578 1.00137e-17
6431.17402 1.02925e-17
6432.64219 1.10683e-17
6434.11037 1.19338e-17
6435.57854 1.16104e-17
6437.04672 1.14432e-17
6438.52495 1.12377e-17
6439.99313 1.11294e-17
6441.46130 1.07093e-17
6442.92948 1.05116e-17
6444.39766 1.07496e-17
6445.86583 1.01040e-17
6447.34406 1.06225e-17
6448.81224 1.07250e-17
6450.28042 1.03103e-17
6451.74859 1.08391e-17
6453.21677 1.08633e-17
6454.69500 1.03385e-17
6456.16318 9.76802e-18
6457.63135 1.07003e-17
6459.09953 1.09334e-17
6460.56770 1.02073e-17
6462.03588 1.11321e-17
6463.51411 1.08534e-17
6464.98229 1.06554e-17
6466.45046 1.17294e-17
6467.91864 1.19266e-17
6469.38682 1.21091e-17
6470.86505 1.13239e-17
6472.33322 1.04414e-17
6473.80140 1.01976e-17
6475.26958 1.04454e-17
6476.73775 1.19796e-17
6478.20593 1.11939e-17
6479.68416 1.08879e-17
6481.15234 1.12457e-17
6482.62051 1.20999e-17
6484.08869 1.20471e-17
6485.55686 1.09656e-17
6487.02504 1.01506e-17
6488.50327 1.11281e-17
6489.97145 1.13158e-17
6491.43962 1.05829e-17
6492.90780 1.19094e-17
6494.37598 1.19244e-17
6495.85421 1.00289e-17
6497.32238 1.02132e-17
6498.79056 1.14811e-17
6500.25874 1.18322e-17
6501.72691 1.13047e-17
6503.20514 1.06802e-17
6504.67332 1.17283e-17
6506.14150 1.15726e-17
6507.60967 1.03865e-17
6509.07785 1.13828e-17
6510.54602 1.23102e-17
6512.02426 1.18105e-17
6513.49243 1.09844e-17
6514.96061 1.04285e-17
6516.42878 1.05375e-17
6517.89696 1.08072e-17
6519.36514 1.16878e-17
6520.84337 1.15553e-17
6522.31154 1.08605e-17
6523.77972 1.06855e-17
6525.24790 1.21184e-17
6526.71607 1.19143e-17
6528.19430 1.15001e-17
6529.66248 1.03137e-17
6531.13066 1.18688e-17
6532.59883 1.23527e-17
6534.06701 1.03113e-17
6535.54524 1.09559e-17
6537.01342 1.12986e-17
6538.48159 1.13908e-17
6539.94977 1.13560e-17
6541.41794 1.10137e-17
6542.88612 1.13378e-17
6544.36435 1.19947e-17
6545.83253 1.32130e-17
6547.30070 1.19158e-17
6548.76888 1.06243e-17
6550.23706 1.24277e-17
6551.71529 1.13702e-17
6553.18346 1.15002e-17
6554.65164 1.12434e-17
6556.11982 1.15674e-17
6557.58799 1.32414e-17
6559.05617 1.25003e-17
6560.53440 1.19619e-17
6562.00258 1.18329e-17
6563.47075 1.18310e-17
6564.93893 1.23392e-17
6566.40710 1.26789e-17
6567.87528 1.18032e-17
6569.35351 1.12177e-17
6570.82169 1.12226e-17
6572.28986 1.12275e-17
6573.75804 1.12323e-17
6575.22622 1.12372e-17
6576.70445 1.12421e-17
6578.17262 1.12470e-17
6579.64080 1.12519e-17
6581.10898 1.12568e-17
6582.57715 1.12616e-17
6584.04533 1.12665e-17
6585.52356 1.12714e-17
6586.99174 1.12763e-17
6588.45991 1.12812e-17
6589.92809 1.12860e-17
6591.39626 1.12909e-17
6592.87450 1.12958e-17
6594.34267 1.13007e-17
6595.81085 1.13056e-17
6597.27902 1.13105e-17
6598.74720 1.13153e-17
6600.21538 1.13202e-17
6601.69361 1.13251e-17
6603.16178 1.13300e-17
6604.62996 1.13349e-17
6606.09814 1.13397e-17
6607.56631 1.13446e-17
6609.04454 1.13495e-17
6610.51272 1.13544e-17
6611.98090 1.13593e-17
6613.44907 1.13641e-17
6614.91725 1.13690e-17
6616.38542 1.13739e-17
6617.86366 1.13788e-17
6619.33183 1.13836e-17
6620.80001 1.13885e-17
6622.26818 1.13934e-17
6623.73636 1.13983e-17
6625.21459 1.14032e-17
6626.68277 1.14080e-17
6628.15094 1.14129e-17
6629.61912 1.14178e-17
6631.08730 1.14227e-17
6632.55547 1.09140e-17
6634.03370 1.17200e-17
6635.50188 1.17493e-17
6636.97006 1.27706e-17
6638.43823 1.26825e-17
6639.90641 1.20508e-17
6641.38464 1.16045e-17
6642.85282 1.12581e-17
6644.32099 1.14028e-17
6645.78917 1.11383e-17
6647.25734 1.11028e-17
6648.72552 1.16468e-17
6650.20375 1.19877e-17
6651.67193 1.22193e-17
6653.14010 1.17994e-17
6654.60828 1.15785e-17
6656.07646 1.17004e-17
6657.55469 1.09999e-17
6659.02286 1.05957e-17
6660.49104 1.11331e-17
6661.95922 1.16582e-17
6663.42739 1.16020e-17
6664.89557 1.12262e-17
6666.37380 1.16590e-17
6667.84198 1.24742e-17
6669.31015 1.12062e-17
6670.77833 1.08601e-17
6672.24650 1.16146e-17
6673.72474 1.15140e-17
6675.19291 1.16424e-17
6676.66109 1.15503e-17
6678.12926 1.08557e-17
6679.59744 1.09232e-17
6681.06562 1.24586e-17
6682.54385 1.18169e-17
6684.01202 1.13455e-17
6685.48020 1.05066e-17
6686.94838 1.00348e-17
6688.41655 1.19108e-17
6689.89478 1.12079e-17
6691.36296 1.00004e-17
6692.83114 9.82439e-18
6694.29931 1.07690e-17
6695.76749 1.02756e-17
6697.23566 1.05552e-17
6698.71390 1.08474e-17
6700.18207 1.02741e-17
6701.65025 1.09923e-17
6703.11842 1.18428e-17
6704.58660 1.15538e-17
6706.06483 1.09027e-17
6707.53301 1.08549e-17
6709.00118 9.89063e-18
6710.46936 1.04532e-17
6711.93754 9.74807e-18
6713.40571 9.76894e-18
6714.88394 1.10532e-17
6716.35212 1.06694e-17
6717.82030 1.04093e-17
6719.28847 1.06699e-17
6720.75665 1.11173e-17
6722.23488 1.09038e-17
6723.70306 9.49454e-18
6725.17123 1.06191e-17
6726.63941 9.65283e-18
6728.10758 1.02694e-17
6729.57576 1.05604e-17
6731.05399 9.62244e-18
6732.52217 9.43411e-18
6733.99034 9.81864e-18
6735.45852 1.01587e-17
6736.92670 1.05960e-17
6738.40493 9.49356e-18
6739.87310 9.50667e-18
6741.34128 1.01586e-17
6742.80946 1.03657e-17
6744.27763 9.73798e-18
6745.74581 1.02376e-17
6747.22404 1.03041e-17
6748.69222 1.05864e-17
6750.16039 9.91646e-18
6751.62857 9.90178e-18
6753.09674 1.17444e-17
6754.57498 1.26274e-17
6756.04315 1.15419e-17
6757.51133 1.34160e-17
6758.97950 1.09873e-17
6760.44768 1.06753e-17
6761.91586 1.08682e-17
6763.39409 1.02017e-17
6764.86226 1.00701e-17
6766.33044 1.13536e-17
6767.79862 1.05694e-17
6769.26679 1.23752e-17
6770.74502 1.24806e-17
6772.21320 1.15700e-17
6773.68138 1.09647e-17
6775.14955 1.00011e-17
6776.61773 9.52987e-18
6778.08590 8.76681e-18
6779.56414 9.71892e-18
6781.03231 9.97169e-18
6782.50049 9.76184e-18
6783.96866 1.07961e-17
6785.43684 1.01682e-17
6786.91507 1.04559e-17
6788.38325 8.96013e-18
6789.85142 1.06410e-17
6791.31960 1.08088e-17
6792.78778 9.76110e-18
6794.25595 9.67093e-18
6795.73418 1.04667e-17
6797.20236 9.59652e-18
6798.67054 9.33408e-18
6800.13871 9.49631e-18
6801.60689 9.20739e-18
6803.08512 1.00721e-17
6804.55330 1.05463e-17
6806.02147 1.06509e-17
6807.48965 1.02759e-17
6808.95782 1.03851e-17
6810.42600 1.00168e-17
6811.90423 1.02266e-17
6813.37241 1.06259e-17
6814.84058 9.53697e-18
6816.30876 9.87817e-18
6817.77694 9.27122e-18
6819.24511 9.73813e-18
6820.72334 9.47254e-18
6822.19152 9.90188e-18
6823.65970 9.63228e-18
6825.12787 1.00318e-17
6826.59605 9.69146e-18
6828.07428 1.06328e-17
6829.54246 1.08731e-17
6831.01063 9.47634e-18
6832.47881 9.32333e-18
6833.94698 9.53863e-18
6835.41516 9.20480e-18
6836.89339 9.79645e-18
6838.36157 1.03148e-17
6839.82974 1.09424e-17
6841.29792 9.56682e-18
6842.76610 1.00070e-17
6844.24433 1.05078e-17
6845.71250 1.01844e-17
6847.18068 1.04933e-17
6848.64886 1.02775e-17
6850.11703 9.73378e-18
6851.58521 9.91560e-18
6853.06344 1.06855e-17
6854.53162 1.00529e-17
6855.99979 9.44019e-18
6857.46797 1.02408e-17
6858.93614 9.75042e-18
6860.41438 9.58198e-18
6861.88255 1.00559e-17
6863.35073 1.00069e-17
6864.81890 9.15964e-18
6866.28708 9.66063e-18
6867.75526 1.02597e-17
6869.23349 1.02255e-17
6870.70166 1.00826e-17
6872.16984 9.17207e-18
6873.63802 9.43098e-18
6875.10619 1.03582e-17
6876.58442 1.04247e-17
6878.05260 9.83241e-18
6879.52078 9.57208e-18
6880.98895 1.00913e-17
6882.45713 1.08850e-17
6883.93536 1.07641e-17
6885.40354 1.05249e-17
6886.87171 1.07593e-17
6888.33989 1.05976e-17
6889.80806 1.04014e-17
6891.27624 1.04821e-17
6892.75447 1.09500e-17
6894.22265 1.13046e-17
6895.69082 1.03432e-17
6897.15900 9.48152e-18
6898.62718 9.54805e-18
6900.09535 9.26353e-18
6901.57358 1.03744e-17
6903.04176 1.12720e-17
6904.50994 1.04144e-17
6905.97811 1.00434e-17
6907.44629 1.02410e-17
6908.92452 1.12771e-17
6910.39270 1.21717e-17
6911.86087 1.11109e-17
6913.32905 9.35479e-18
6914.79722 1.03907e-17
6916.26540 1.08218e-17
6917.74363 1.11037e-17
6919.21181 1.12051e-17
6920.67998 1.00086e-17
6922.14816 1.06290e-17
6923.61634 1.12507e-17
6925.09457 1.03280e-17
6926.56274 1.00902e-17
6928.03092 1.00590e-17
6929.49910 9.46813e-18
6930.96727 1.04803e-17
6932.43545 1.09220e-17
6933.91368 1.10041e-17
6935.38186 9.99948e-18
6936.85003 1.04381e-17
6938.31821 1.06695e-17
6939.78638 1.03648e-17
6941.26462 1.06037e-17
6942.73279 1.11804e-17
6944.20097 1.06924e-17
6945.66914 1.04405e-17
6947.13732 1.01821e-17
6948.60550 1.09205e-17
6950.08373 1.02655e-17
6951.55190 1.07051e-17
6953.02008 1.19929e-17
6954.48826 1.15170e-17
6955.95643 1.04425e-17
6957.43466 9.43871e-18
6958.90284 1.08524e-17
6960.37102 1.03616e-17
6961.83919 1.04845e-17
6963.30737 1.08747e-17
6964.77554 9.99121e-18
6966.25378 1.06625e-17
6967.72195 1.00706e-17
6969.19013 1.12094e-17
6970.65830 1.16704e-17
6972.12648 9.90342e-18
6973.60471 9.88539e-18
6975.07289 1.05600e-17
6976.54106 9.85424e-18
6978.00924 1.02400e-17
6979.47742 1.05012e-17
6980.94559 1.01803e-17
6982.42382 1.04861e-17
6983.89200 1.13098e-17
6985.36018 1.13911e-17
6986.82835 9.90979e-18
6988.29653 1.05300e-17
6989.77476 1.02856e-17
6991.24294 1.05007e-17
6992.71111 1.13574e-17
6994.17929 1.11179e-17
6995.64746 1.12739e-17
6997.11564 1.05438e-17
6998.59387 9.72938e-18
7000.06205 1.09100e-17
7001.53022 1.04311e-17
7002.99840 1.01982e-17
7004.46658 1.09605e-17
7005.94481 1.11560e-17
7007.41298 1.08414e-17
7008.88116 1.10325e-17
7010.34934 1.10244e-17
7011.81751 9.80248e-18
7013.28569 1.05633e-17
7014.76392 1.07838e-17
7016.23210 1.09393e-17
7017.70027 1.05282e-17
7019.16845 9.72105e-18
7020.63662 9.98821e-18
7022.11486 1.14362e-17
7023.58303 1.15778e-17
7025.05121 1.07562e-17
7026.51938 1.05130e-17
7027.98756 1.01426e-17
7029.45574 1.08149e-17
7030.93397 1.05659e-17
7032.40214 1.00406e-17
7033.87032 1.05457e-17
7035.33850 1.09567e-17
7036.80667 1.05207e-17
7038.27485 1.02221e-17
7039.75308 1.06850e-17
7041.22126 1.13420e-17
7042.68943 1.00968e-17
7044.15761 9.91496e-18
7045.62578 1.00447e-17
7047.10402 1.04404e-17
7048.57219 9.68532e-18
7050.04037 1.12659e-17
7051.50854 1.07048e-17
7052.97672 1.04125e-17
7054.45495 1.02138e-17
7055.92313 1.04713e-17
7057.39130 1.05656e-17
7058.85948 1.04000e-17
7060.32766 1.06034e-17
7061.79583 1.09399e-17
7063.27406 1.07140e-17
7064.74224 1.08458e-17
7066.21042 1.12369e-17
7067.67859 1.02773e-17
7069.14677 1.10343e-17
7070.62500 1.09675e-17
7072.09318 1.03325e-17
7073.56135 1.14805e-17
7075.02953 1.16093e-17
7076.49770 1.10190e-17
7077.96588 1.01048e-17
7079.44411 1.08350e-17
7080.91229 1.09739e-17
7082.38046 1.08811e-17
7083.84864 1.16115e-17
7085.31682 1.12751e-17
7086.79505 1.06177e-17
7088.26322 1.06215e-17
7089.73140 1.14586e-17
7091.19958 1.12428e-17
7092.66775 1.14985e-17
7094.13593 1.17297e-17
7095.61416 9.75807e-18
7097.08234 1.00475e-17
7098.55051 1.08308e-17
7100.01869 1.10016e-17
7101.48686 1.06938e-17
7102.96510 1.08322e-17
7104.43327 1.05891e-17
7105.90145 9.45674e-18
7107.36962 9.51951e-18
7108.83780 9.47062e-18
7110.30598 1.08874e-17
7111.78421 1.00576e-17
7113.25238 9.35994e-18
7114.72056 1.03977e-17
7116.18874 1.10653e-17
7117.65691 9.93437e-18
7119.12509 1.03182e-17
7120.60332 1.03564e-17
7122.07150 1.02162e-17
7123.53967 1.05220e-17
7125.00785 9.81089e-18
7126.47602 1.06302e-17
7127.95426 1.04145e-17
7129.42243 8.89861e-18
7130.89061 9.00697e-18
7132.35878 1.00984e-17
7133.82696 9.41616e-18
7135.29514 8.36561e-18
7136.77337 8.72136e-18
7138.24154 1.01307e-17
7139.70972 1.00609e-17
7141.17790 9.22805e-18
7142.64607 1.04566e-17
7144.12430 1.05725e-17
7145.59248 1.00798e-17
7147.06066 1.02468e-17
7148.52883 1.08183e-17
7149.99701 1.01597e-17
7151.47524 9.94505e-18
7152.94342 1.00307e-17
7154.41159 9.57531e-18
7155.87977 1.02284e-17
7157.34794 1.02346e-17
7158.81612 9.79856e-18
7160.29435 1.03964e-17
7161.76253 1.03109e-17
7163.23070 9.33200e-18
7164.69888 9.28570e-18
7166.16706 9.44216e-18
7167.64529 9.95485e-18
7169.11346 1.03013e-17
7170.58164 9.43052e-18
7172.04982 9.81511e-18
7173.51799 9.97849e-18
7174.98617 9.49732e-18
7176.46440 1.00400e-17
7177.93258 1.00965e-17
7179.40075 1.06247e-17
7180.86893 1.10032e-17
7182.33710 9.65770e-18
7183.80528 9.22275e-18
7185.28351 1.07057e-17
7186.75169 1.10039e-17
7188.21986 9.57753e-18
7189.68804 9.30971e-18
7191.15622 1.01371e-17
7192.63445 1.08639e-17
7194.10262 1.07538e-17
7195.57080 1.04732e-17
7197.03898 1.11351e-17
7198.50715 1.06982e-17
7199.97533 9.66016e-18
7201.45356 1.03969e-17
7202.92174 1.06287e-17
7204.38991 8.59391e-18
7205.85809 9.03027e-18
7207.32626 1.01211e-17
7208.80450 9.71360e-18
7210.27267 9.44328e-18
7211.74085 8.97728e-18
7213.20902 9.04028e-18
7214.67720 1.02390e-17
7216.14538 1.00040e-17
7217.62361 1.01117e-17
7219.09178 1.09327e-17
7220.55996 1.03207e-17
7222.02814 9.31179e-18
7223.49631 9.76795e-18
7224.97454 1.03009e-17
7226.44272 9.98921e-18
7227.91090 9.38876e-18
7229.37907 8.84848e-18
7230.84725 8.87214e-18
7232.31542 9.62945e-18
7233.79366 9.68174e-18
7235.26183 9.08347e-18
7236.73001 9.22556e-18
7238.19818 9.00518e-18
7239.66636 9.30059e-18
7241.14459 1.03182e-17
7242.61277 1.00342e-17
7244.08094 9.29243e-18
7245.54912 9.81798e-18
7247.01730 1.06804e-17
7248.48547 9.67097e-18
7249.96370 8.86885e-18
7251.43188 8.89329e-18
7252.90006 8.96199e-18
7254.36823 9.70396e-18
7255.83641 9.70459e-18
7257.31464 9.84400e-18
7258.78282 9.85513e-18
7260.25099 9.92363e-18
7261.71917 9.87506e-18
7263.18734 1.04756e-17
7264.65552 1.01449e-17
7266.13375 9.21526e-18
7267.60193 1.01783e-17
7269.07010 9.54823e-18
7270.53828 8.22024e-18
7272.00646 8.78132e-18
7273.48469 9.74015e-18
7274.95286 9.96673e-18
7276.42104 9.47644e-18
7277.88922 9.94413e-18
7279.35739 1.01458e-17
7280.82557 9.32507e-18
7282.30380 9.22843e-18
7283.77198 8.89826e-18
7285.24015 9.43067e-18
7286.70833 9.63612e-18
7288.17650 1.02404e-17
7289.65474 1.00241e-17
7291.12291 9.21638e-18
7292.59109 9.49952e-18
7294.05926 1.00208e-17
7295.52744 9.99310e-18
7296.99562 9.95946e-18
7298.47385 9.47388e-18
7299.94202 9.42757e-18
7301.41020 8.94651e-18
7302.87838 9.18994e-18
7304.34655 9.13898e-18
7305.82478 9.39516e-18
7307.29296 9.87296e-18
7308.76114 9.08550e-18
7310.22931 8.81981e-18
7311.69749 9.84728e-18
7313.16566 9.66491e-18
7314.64390 8.61701e-18
7316.11207 9.63120e-18
7317.58025 9.88467e-18
7319.04842 9.04205e-18
7320.51660 9.90756e-18
7321.99483 9.66418e-18
7323.46301 8.73909e-18
7324.93118 8.61745e-18
7326.39936 8.51310e-18
7327.86754 8.80852e-18
7329.33571 9.44271e-18
7330.81394 9.52994e-18
7332.28212 9.46763e-18
7333.75030 8.73752e-18
7335.21847 9.77665e-18
7336.68665 9.51862e-18
7338.16488 8.50615e-18
7339.63306 1.06064e-17
7341.10123 1.04081e-17
7342.56941 1.00632e-17
7344.03758 9.30206e-18
7345.50576 8.85127e-18
7346.98399 8.29707e-18
7348.45217 8.07599e-18
7349.92034 8.97690e-18
7351.38852 8.92762e-18
7352.85670 9.10828e-18
7354.33493 8.81511e-18
7355.80310 9.05165e-18
7357.27128 9.84690e-18
7358.73946 9.02092e-18
7360.20763 8.19944e-18
7361.67581 8.77570e-18
7363.15404 9.86519e-18
7364.62222 9.14272e-18
7366.09039 9.38213e-18
7367.55857 9.19296e-18
7369.02674 7.91534e-18
7370.50498 7.79281e-18
7371.97315 8.91693e-18
7373.44133 9.95648e-18
7374.90950 9.66864e-18
7376.37768 7.97413e-18
7377.84586 8.45213e-18
7379.32409 8.54794e-18
7380.79226 9.04484e-18
7382.26044 8.48849e-18
7383.72862 8.23951e-18
7385.19679 8.74869e-18
7386.67502 8.94383e-18
7388.14320 8.83240e-18
7389.61138 8.61192e-18
7391.07955 9.44318e-18
7392.54773 8.93690e-18
7394.01590 9.30852e-18
7395.49414 9.00370e-18
7396.96231 8.38766e-18
7398.43049 8.77419e-18
7399.89866 9.35948e-18
7401.36684 9.99198e-18
7402.83502 9.82899e-18
7404.31325 9.35298e-18
7405.78142 8.99530e-18
7407.24960 8.46905e-18
7408.71778 8.45089e-18
7410.18595 8.08332e-18
7411.66418 7.62070e-18
7412.22211 7.62070e-18
7413.91970 8.03796e-18
7415.61729 8.39404e-18
7417.31488 9.00052e-18
7419.01247 9.62320e-18
7420.71005 9.29829e-18
7422.40764 7.97554e-18
7424.10523 7.07819e-18
7425.80282 7.33637e-18
7427.50041 8.05853e-18
7429.19800 8.64509e-18
7430.89558 8.92119e-18
7432.59317 8.86896e-18
7434.29076 8.78539e-18
7435.98835 8.92908e-18
7437.68594 9.27631e-18
7439.38352 9.71171e-18
7441.09116 1.00942e-17
7442.78874 1.02512e-17
7444.48633 9.80754e-18
7446.18392 8.61023e-18
7447.88151 7.54511e-18
7449.57910 7.55432e-18
7451.27669 8.30931e-18
7452.97427 8.97373e-18
7454.67186 8.98909e-18
7456.36945 8.09462e-18
7458.06704 6.79110e-18
7459.76463 5.99080e-18
7461.46221 5.91989e-18
7463.15980 6.26807e-18
7464.85739 6.90341e-18
7466.55498 7.79919e-18
7468.25257 8.68474e-18
7469.95015 9.12431e-18
7471.64774 8.99525e-18
7473.34533 8.52723e-18
7475.04292 8.08039e-18
7476.74051 8.17154e-18
7478.43809 8.75241e-18
7480.13568 8.87528e-18
7481.83327 8.23928e-18
7483.53086 7.76199e-18
7485.22845 7.97573e-18
7486.92604 8.50065e-18
7488.62362 8.97444e-18
7490.32121 9.29552e-18
7492.01880 9.35929e-18
7493.71639 8.93738e-18
7495.41398 8.03355e-18
7497.11156 7.32339e-18
7498.80915 7.36154e-18
7500.50674 7.86551e-18
7502.20433 8.38536e-18
7503.90192 8.71114e-18
7505.59950 8.78742e-18
7507.29709 8.97658e-18
7508.99468 9.63294e-18
7510.69227 1.02863e-17
7512.38986 1.02018e-17
7514.08745 9.14860e-18
7515.78503 7.32501e-18
7517.48262 5.73487e-18
7519.18021 5.70905e-18
7520.87780 6.91428e-18
7522.58543 7.74991e-18
7524.28302 7.83870e-18
7525.98061 7.92400e-18
7527.67819 8.21689e-18
7529.37578 8.42762e-18
7531.07337 8.43127e-18
7532.77096 8.24546e-18
7534.46855 7.98435e-18
7536.16614 7.91461e-18
7537.86372 8.11806e-18
7539.56131 8.35669e-18
7541.25890 8.47131e-18
7542.95649 8.49409e-18
7544.65408 8.46126e-18
7546.35166 8.40561e-18
7548.04925 8.32527e-18
7549.74684 8.08480e-18
7551.44443 8.07779e-18
7553.14202 8.07079e-18
7554.83960 8.06378e-18
7556.53719 8.05678e-18
7558.23478 8.04977e-18
7559.93237 8.04276e-18
7561.62996 8.03576e-18
7563.32754 8.02875e-18
7565.02513 8.02175e-18
7566.72272 8.01475e-18
7568.42031 8.00774e-18
7570.11790 8.00074e-18
7571.81549 7.99373e-18
7573.51307 7.98673e-18
7575.21066 7.97973e-18
7576.90825 7.97272e-18
7578.60584 7.96573e-18
7580.30343 7.95873e-18
7582.00101 7.95173e-18
7583.69860 7.94472e-18
7585.39619 7.93773e-18
7587.09378 7.93073e-18
7588.79137 7.92374e-18
7590.48895 7.91673e-18
7592.18654 7.90973e-18
7593.88413 7.90274e-18
7595.58172 7.89575e-18
7597.27931 7.88874e-18
7598.97689 7.88175e-18
7600.67448 7.87476e-18
7602.37207 7.86776e-18
7604.06966 7.86077e-18
7605.76725 7.85378e-18
7607.47488 7.84678e-18
7609.17247 7.83979e-18
7610.87006 7.83280e-18
7612.56764 7.82581e-18
7614.26523 7.81881e-18
7615.96282 7.81182e-18
7617.66041 7.80483e-18
7619.35800 7.79784e-18
7621.05559 7.79085e-18
7622.75317 7.78386e-18
7624.45076 7.77687e-18
7626.14835 7.76989e-18
7627.84594 7.76289e-18
7629.54353 7.75591e-18
7631.24111 7.74893e-18
7632.93870 7.74193e-18
7634.63629 7.73495e-18
7636.33388 7.72796e-18
7638.03147 7.72098e-18
7639.72905 7.71400e-18
7641.42664 7.70701e-18
7643.12423 7.70003e-18
7644.82182 7.69304e-18
7646.51941 7.68606e-18
7648.21699 7.67907e-18
7649.91458 7.67210e-18
7651.61217 7.66511e-18
7653.30976 7.65813e-18
7655.00735 7.65116e-18
7656.70494 7.64417e-18
7658.40252 7.63720e-18
7660.10011 7.63021e-18
7661.79770 7.62324e-18
7663.49529 7.61625e-18
7665.19288 7.60928e-18
7666.89046 7.60230e-18
7668.58805 7.59533e-18
7670.28564 7.58835e-18
7671.98323 7.58137e-18
7673.68082 7.57440e-18
7675.37840 7.56743e-18
7677.07599 7.56044e-18
7678.77358 7.55347e-18
7680.47117 7.54650e-18
7682.16876 7.54617e-18
7683.86634 7.46316e-18
7685.56393 7.32456e-18
7687.26152 7.16991e-18
7688.96915 7.09221e-18
7690.66674 7.18664e-18
7692.36433 7.39043e-18
7694.06192 7.52821e-18
7695.75951 7.51388e-18
7697.45709 7.35635e-18
7699.15468 7.11710e-18
7700.85227 6.91044e-18
7702.54986 6.90536e-18
7704.24745 7.31763e-18
7705.94504 8.03619e-18
7707.64262 8.50804e-18
7709.34021 8.50602e-18
7711.03780 8.36362e-18
7712.73539 8.23371e-18
7714.43298 7.85898e-18
7716.13056 7.21370e-18
7717.82815 6.81869e-18
7719.52574 6.90214e-18
7721.22333 6.82369e-18
7722.92092 6.24679e-18
7724.61850 6.01443e-18
7726.31609 6.74095e-18
7728.01368 7.74807e-18
7729.71127 8.29476e-18
7731.40886 8.50744e-18
7733.10644 8.65203e-18
7734.80403 8.45112e-18
7736.50162 7.66729e-18
7738.19921 6.98089e-18
7739.89680 7.19691e-18
7741.59439 7.91823e-18
7743.29197 8.27509e-18
7744.98956 8.26357e-18
7746.68715 8.34375e-18
7748.38474 8.58080e-18
7750.08233 8.79590e-18
7751.77991 8.86553e-18
7753.47750 8.70916e-18
7755.17509 8.47238e-18
7756.87268 8.50326e-18
7758.57027 8.91230e-18
7760.26785 9.54613e-18
7761.96544 1.00082e-17
7763.66303 9.59203e-18
7765.36062 8.40616e-18
7767.05821 7.79199e-18
7768.75579 8.26878e-18
7770.46343 8.85914e-18
7772.16102 8.92150e-18
7773.85860 8.65067e-18
7775.55619 8.25317e-18
7777.25378 7.80141e-18
7778.95137 7.41969e-18
7780.64896 7.36571e-18
7782.34654 7.73770e-18
7784.04413 8.18513e-18
7785.74172 8.36393e-18
7787.43931 8.23099e-18
7789.13690 7.88644e-18
7790.83448 7.67743e-18
7792.53207 7.89179e-18
7794.22966 8.10593e-18
7795.92725 7.83223e-18
7797.62484 7.73180e-18
7799.32243 8.69719e-18
7801.02001 1.00873e-17
7802.71760 1.06020e-17
7804.41519 1.00640e-17
7806.11278 9.06036e-18
7807.81037 8.21593e-18
7809.50795 8.13058e-18
7811.20554 8.57632e-18
7812.90313 8.57266e-18
7814.60072 8.10530e-18
7816.29831 8.16309e-18
7817.99589 8.80601e-18
7819.69348 8.99989e-18
7821.39107 8.52664e-18
7823.08866 8.30159e-18
7824.78625 8.62475e-18
7826.48384 8.77361e-18
7828.18142 8.41226e-18
7829.87901 7.99963e-18
7831.57660 7.76909e-18
7833.27419 7.32857e-18
7834.97178 6.56476e-18
7836.66936 6.14501e-18
7838.36695 6.53131e-18
7840.06454 7.47307e-18
7841.76213 8.49760e-18
7843.45972 8.83568e-18
7845.15730 8.04285e-18
7846.85489 6.94346e-18
7848.55248 6.51794e-18
7850.25007 6.80427e-18
7851.94766 7.47950e-18
7853.64524 8.34734e-18
7855.35288 9.20719e-18
7857.05047 9.66080e-18
7858.74805 9.36063e-18
7860.44564 8.60173e-18
7862.14323 8.01604e-18
7863.84082 7.66901e-18
7865.53841 7.23190e-18
7867.23599 6.78783e-18
7868.93358 6.71140e-18
7870.63117 6.83390e-18
7872.32876 6.51408e-18
7874.02635 5.84381e-18
7875.72393 5.70894e-18
7877.42152 6.38660e-18
7879.11911 7.39245e-18
7880.81670 8.09090e-18
7882.51429 7.58012e-18
7884.21188 5.99852e-18
7885.90946 5.34688e-18
7887.60705 6.53513e-18
7889.30464 8.07536e-18
7891.00223 8.78625e-18
7892.69982 8.68330e-18
7894.39740 8.03843e-18
7896.09499 7.42721e-18
7897.79258 7.27212e-18
7899.49017 7.23913e-18
7901.18776 7.01122e-18
7902.88534 6.97013e-18
7904.58293 7.45742e-18
7906.28052 8.10367e-18
7907.97811 8.39260e-18
7909.67570 8.04242e-18
7911.37328 7.03684e-18
7913.07087 6.04307e-18
7914.76846 5.88562e-18
7916.46605 6.59377e-18
7918.16364 7.66317e-18
7919.86123 8.26474e-18
7921.55881 7.54829e-18
7923.25640 6.04078e-18
7924.95399 5.29725e-18
7926.65158 5.80561e-18
7928.34917 7.01771e-18
7930.04675 8.24486e-18
7931.74434 8.64439e-18
7933.44193 8.14811e-18
7935.13952 7.72477e-18
7936.84715 7.70219e-18
7938.54474 7.42114e-18
7940.24233 6.77415e-18
7941.93992 6.55313e-18
7943.63750 7.13412e-18
7945.33509 8.14564e-18
7947.03268 9.04857e-18
7948.73027 9.03598e-18
7950.42786 7.83022e-18
7952.12544 6.46232e-18
7953.82303 5.82680e-18
7955.52062 5.84575e-18
7957.21821 6.23641e-18
7958.91580 6.71641e-18
7960.61338 7.06738e-18
7962.31097 7.47054e-18
7964.00856 8.08973e-18
7965.70615 8.45137e-18
7967.40374 8.05228e-18
7969.10133 7.19049e-18
7970.79891 6.45671e-18
7972.49650 6.08617e-18
7974.19409 6.07773e-18
7975.89168 6.22906e-18
7977.58927 6.22573e-18
7979.28685 6.05806e-18
7980.98444 5.94240e-18
7982.68203 5.86767e-18
7984.37962 5.65268e-18
7986.07721 5.27188e-18
7987.77479 4.84246e-18
7989.47238 4.58880e-18
7991.16997 4.84658e-18
7992.86756 5.58562e-18
7994.56515 6.29367e-18
7996.26273 6.62604e-18
7997.96032 6.52679e-18
7999.65791 6.08064e-18
8001.35550 5.60628e-18
8003.05309 5.27104e-18
8004.75068 4.84462e-18
8006.44826 4.23352e-18
8008.14585 3.76680e-18
8009.84344 3.64909e-18
8011.54103 3.61719e-18
8013.23862 3.46739e-18
8014.93620 3.43065e-18
8016.63379 3.71001e-18
8018.34143 4.11498e-18
8020.03901 4.41126e-18
8021.73660 4.63098e-18
8023.43419 4.85191e-18
8025.13178 4.93848e-18
8026.82937 4.73631e-18
8028.52695 4.39770e-18
8030.22454 4.16723e-18
8031.92213 3.92574e-18
8033.61972 3.40689e-18
8035.31731 2.77658e-18
8037.01489 2.45332e-18
8038.71248 2.48082e-18
8040.41007 2.61501e-18
8042.10766 2.82439e-18
8043.80525 3.25045e-18
8045.50283 3.89274e-18
8047.20042 4.61437e-18
8048.89801 5.18398e-18
8050.59560 5.26557e-18
8052.29319 4.75558e-18
8053.99078 3.88916e-18
8055.68836 2.93782e-18
8057.38595 2.14134e-18
8059.08354 1.78869e-18
8060.78113 2.31374e-18
8062.47872 3.64559e-18
8064.17630 4.66504e-18
8065.87389 4.62735e-18
8067.57148 3.99221e-18
8069.26907 3.33551e-18
8070.96666 2.91671e-18
8072.66424 2.89043e-18
8074.36183 3.32810e-18
8076.05942 4.12037e-18
8077.75701 4.70757e-18
8079.45460 4.59459e-18
8081.15218 4.07570e-18
8082.84977 3.66244e-18
8084.54736 3.34943e-18
8086.24495 2.95530e-18
8087.94254 2.59333e-18
8089.64013 2.48704e-18
8091.33771 2.71775e-18
8093.03530 3.24682e-18
8094.73289 3.86440e-18
8096.43048 4.25251e-18
8098.12807 4.29570e-18
8099.82565 4.08169e-18
8101.52324 3.74970e-18
8103.22083 3.48950e-18
8104.92846 3.32232e-18
8106.62605 3.04622e-18
8108.32364 2.72038e-18
8110.02123 2.76361e-18
8111.71882 3.22127e-18
8113.41640 3.59070e-18
8115.11399 3.46200e-18
8116.81158 2.55807e-18
8118.50917 1.13324e-18
8120.20676 5.34349e-19
8121.90434 1.42243e-18
8123.60193 2.60500e-18
8125.29952 3.09455e-18
8126.99711 3.18969e-18
8128.69470 3.28732e-18
8130.39228 3.38580e-18
8132.08987 3.42165e-18
8133.78746 3.34450e-18
8135.48505 3.11988e-18
8137.18264 2.74125e-18
8138.88023 2.26893e-18
8140.57781 2.02256e-18
8142.27540 2.29401e-18
8143.97299 2.78931e-18
8145.67058 2.98810e-18
8147.36817 2.75920e-18
8149.06575 2.25229e-18
8150.76334 1.80158e-18
8152.46093 1.82795e-18
8154.15852 2.30657e-18
8155.85611 2.82937e-18
8157.55369 3.24074e-18
8159.25128 3.62913e-18
8160.94887 3.95307e-18
8162.64646 4.05425e-18
8164.34405 3.96150e-18
8166.04163 3.92740e-18
8167.73922 3.98177e-18
8169.43681 3.82669e-18
8171.13440 3.30785e-18
8172.83199 2.51631e-18
8174.52958 1.62703e-18
8176.22716 9.13324e-19
8177.92475 6.08531e-19
8179.62234 8.78424e-19
8181.31993 1.64228e-18
8183.01752 2.29901e-18
8184.71510 2.38892e-18
8186.41269 2.01201e-18
8188.12032 1.48080e-18
8189.81791 1.42404e-18
8191.51550 2.21499e-18
8193.21309 3.06174e-18
8194.91068 3.05715e-18
8196.60827 2.29455e-18
8198.30585 1.30035e-18
8200.00344 7.28278e-19
8201.70103 1.10064e-18
8203.39862 1.90349e-18
8205.09621 2.17571e-18
8206.79379 2.06344e-18
8208.49138 2.36455e-18
8210.18897 3.11217e-18
8211.88656 3.78921e-18
8213.58415 4.08164e-18
8215.28173 3.85340e-18
8216.97932 3.29170e-18
8218.67691 2.93561e-18
8220.37450 2.89200e-18
8222.07209 2.72362e-18
8223.76967 2.31418e-18
8225.46726 2.00070e-18
8227.16485 1.90957e-18
8228.86244 1.81691e-18
8230.56003 1.68802e-18
8232.25762 1.86775e-18
8233.95520 2.46125e-18
8235.65279 3.03485e-18
8237.35038 3.29608e-18
8239.04797 3.43917e-18
8240.74556 3.61371e-18
8242.44314 3.63689e-18
8244.14073 3.38478e-18
8245.83832 3.05730e-18
8247.53591 2.85572e-18
8249.23350 2.77842e-18
8250.93108 2.73674e-18
8252.62867 2.46616e-18
8254.32626 1.79607e-18
8256.02385 1.26085e-18
8257.72144 1.49762e-18
8259.41903 2.19811e-18
8261.11661 2.63849e-18
8262.81420 2.55466e-18
8264.51179 2.02861e-18
8266.20938 1.49627e-18
8267.91701 1.58802e-18
8269.60455 2.21240e-18
8271.30214 2.66756e-18
8273.00977 2.66012e-18
8274.70736 2.30966e-18
8276.40495 1.83953e-18
8278.10254 1.60965e-18
8279.80013 1.75067e-18
8281.49772 2.05488e-18
8283.19530 2.39994e-18
8284.89289 2.82225e-18
8286.59048 3.26088e-18
8288.28807 3.49810e-18
8289.98566 3.45148e-18
8291.68324 3.29675e-18
8293.38083 3.19390e-18
8295.07842 3.20602e-18
8296.77601 3.33518e-18
8298.47360 3.47184e-18
8300.17118 3.51005e-18
8301.86877 3.42572e-18
8303.56636 3.22870e-18
8305.26395 2.96648e-18
8306.96154 2.68746e-18
8308.65912 2.38817e-18
8310.35671 2.06249e-18
8312.05430 1.71996e-18
8313.75189 1.40826e-18
8315.44948 1.35700e-18
8317.14707 1.78739e-18
8318.84465 2.48595e-18
8320.54224 3.02917e-18
8322.23983 3.27656e-18
8323.93742 3.30502e-18
8325.63501 3.28598e-18
8327.33259 3.45065e-18
8329.03018 3.76045e-18
8330.72777 3.92411e-18
8332.42536 3.79587e-18
8334.12295 3.38907e-18
8335.82053 2.88926e-18
8337.51812 2.70152e-18
8339.21571 2.84011e-18
8340.91330 2.74470e-18
8342.61089 2.26428e-18
8344.30847 1.92256e-18
8346.00606 2.07484e-18
8347.70365 2.74953e-18
8349.40124 3.74228e-18
8351.09883 4.42080e-18
8352.79642 4.40111e-18
8354.50405 3.99268e-18
8356.20164 3.57546e-18
8357.89922 3.37407e-18
8359.59681 3.49552e-18
8361.29440 3.82329e-18
8362.99199 4.15186e-18
8364.68958 4.21726e-18
8366.38717 3.85402e-18
8368.08475 3.29003e-18
8369.78234 2.86136e-18
8371.47993 2.61118e-18
8373.17752 2.48590e-18
8374.87511 2.71099e-18
8376.57269 3.53630e-18
8378.27028 4.64039e-18
8379.96787 5.40458e-18
8381.66546 5.69272e-18
8383.36305 5.72531e-18
8385.06063 5.54832e-18
8386.75822 5.09636e-18
8388.45581 4.29490e-18
8390.15340 3.04968e-18
8391.85099 1.88167e-18
8393.54857 1.97823e-18
8395.24616 3.40687e-18
8396.94375 4.76682e-18
8398.64134 5.23065e-18
8400.33893 4.90313e-18
8402.03652 4.12916e-18
8403.73410 3.63945e-18
8405.43169 3.76394e-18
8407.12928 3.89628e-18
8408.82687 3.64092e-18
8410.52446 3.30571e-18
8412.22204 3.18129e-18
8413.91963 3.30861e-18
8415.61722 3.64265e-18
8417.31481 4.00606e-18
8419.01240 4.23988e-18
8420.70998 4.39592e-18
8422.40757 4.54779e-18
8424.10516 4.55244e-18
8425.80275 4.29705e-18
8427.50034 4.10772e-18
8429.19792 4.35050e-18
8430.89551 4.74750e-18
8432.59310 4.80087e-18
8434.29069 4.56031e-18
8435.99832 4.36904e-18
8437.69591 4.38533e-18
8439.39350 4.61864e-18
8441.09109 4.80689e-18
8442.77863 4.50834e-18
8444.48626 3.85945e-18
8446.18385 3.52232e-18
8447.88144 3.76324e-18
8449.57903 4.40989e-18
8451.27662 5.17901e-18
8452.97420 5.64379e-18
8454.67179 5.64981e-18
8456.36938 5.47896e-18
8458.06697 5.26561e-18
8459.76456 4.85561e-18
8461.46214 4.22455e-18
8463.15973 3.56237e-18
8464.85732 3.09216e-18
8466.55491 3.09618e-18
8468.25250 3.65010e-18
8469.95008 4.38306e-18
8471.64767 4.91688e-18
8473.34526 5.04270e-18
8475.04285 4.74183e-18
8476.74044 4.42609e-18
8478.43802 4.47088e-18
8480.13561 4.73852e-18
8481.83320 4.94811e-18
8483.53079 4.90840e-18
8485.22838 4.54873e-18
8486.92597 4.16756e-18
8488.62355 4.15956e-18
8490.32114 4.47217e-18
8492.01873 4.82940e-18
8493.71632 5.23959e-18
8495.41391 5.84314e-18
8497.11149 6.47676e-18
8498.80908 6.79631e-18
8500.50667 6.67455e-18
8502.20426 6.19431e-18
8503.90185 5.67243e-18
8505.59943 5.63923e-18
8507.29702 6.16140e-18
8508.99461 6.74116e-18
8510.69220 7.10317e-18
8512.38979 7.30935e-18
8514.08737 7.29905e-18
8515.78496 6.82451e-18
8517.49260 5.91729e-18
8519.19018 5.04155e-18
8520.87773 4.59660e-18
8522.58536 4.83811e-18
8524.27290 5.67022e-18
8525.98054 6.25590e-18
8527.67812 6.04953e-18
8529.37571 5.51863e-18
8531.07330 5.19188e-18
8532.77089 5.21782e-18
8534.46848 5.55370e-18
8536.16606 5.78976e-18
8537.86365 5.57564e-18
8539.56124 5.23214e-18
8541.25883 5.19772e-18
8542.95642 5.37713e-18
8544.65401 5.48631e-18
8546.35159 5.42961e-18
8548.04918 5.22447e-18
8549.74677 4.98499e-18
8551.44436 4.88235e-18
8553.14195 4.99298e-18
8554.83953 5.29995e-18
8556.53712 5.74517e-18
8558.23471 6.22804e-18
8559.93230 6.56035e-18
8561.62989 6.50350e-18
8563.32747 6.15389e-18
8565.02506 5.97007e-18
8566.72265 6.11442e-18
8568.42024 6.35763e-18
8570.11783 6.57373e-18
8571.81542 6.79362e-18
8573.51300 7.00192e-18
8575.21059 7.13630e-18
8576.90818 7.10963e-18
8578.60577 6.75552e-18
8580.30336 6.09396e-18
8582.00094 5.54751e-18
8583.69853 5.39981e-18
8585.39612 5.46980e-18
8587.09371 5.56420e-18
8588.79130 5.68465e-18
8590.48888 5.86080e-18
8592.18647 6.16210e-18
8593.88406 6.57555e-18
8595.58165 6.72549e-18
8597.27924 6.29390e-18
8598.97682 5.55829e-18
8600.67441 4.98965e-18
8602.37200 4.86316e-18
8604.07963 5.26141e-18
8605.76718 5.83193e-18
8607.47481 6.05110e-18
8609.17240 5.99085e-18
8610.86999 6.08709e-18
8612.56757 6.33749e-18
8614.26516 6.44146e-18
8615.96275 6.31909e-18
8617.66034 6.07788e-18
8619.35793 6.07132e-18
8621.05551 6.87260e-18
8622.75310 8.42415e-18
8624.45069 9.93874e-18
8626.14828 1.06495e-17
8627.84587 9.84934e-18
8629.54346 7.68551e-18
8631.24104 5.60494e-18
8632.93863 4.57685e-18
8634.63622 4.57274e-18
8636.33381 5.21827e-18
8638.03140 5.59009e-18
8639.72898 5.21757e-18
8641.42657 4.90943e-18
8643.12416 5.29105e-18
8644.82175 6.02136e-18
8646.51934 6.62892e-18
8648.21692 6.76613e-18
8649.91451 6.29566e-18
8651.61210 5.63977e-18
8653.30969 5.29925e-18
8655.00728 5.37156e-18
8656.70486 5.76190e-18
8658.40245 6.30378e-18
8660.10004 6.79431e-18
8661.79763 7.12703e-18
8663.49522 7.26300e-18
8665.19281 7.09551e-18
8666.89039 6.54206e-18
8668.58798 5.85406e-18
8670.28557 5.47932e-18
8671.98316 5.49757e-18
8673.68075 5.67128e-18
8675.37833 5.90189e-18
8677.07592 6.21426e-18
8678.77351 6.60534e-18
8680.47110 7.06235e-18
8682.16869 7.49538e-18
8683.86627 7.72163e-18
8685.56386 7.62109e-18
8687.26145 7.15729e-18
8688.96908 6.46580e-18
8690.66667 5.94206e-18
8692.36426 5.83120e-18
8694.06185 6.06726e-18
8695.75944 6.48284e-18
8697.45702 6.79520e-18
8699.15461 6.80690e-18
8700.85220 6.56098e-18
8702.54979 6.19339e-18
8704.24738 5.91360e-18
8705.94496 5.89322e-18
8707.64255 6.20266e-18
8709.34014 6.76548e-18
8711.03773 7.08747e-18
8712.73532 6.76113e-18
8714.43291 6.27892e-18
8716.13049 6.31818e-18
8717.82808 6.68003e-18
8719.52567 6.82649e-18
8721.22326 6.70017e-18
8722.92085 6.51143e-18
8724.61843 6.49480e-18
8726.31602 6.86249e-18
8728.01361 7.35383e-18
8729.71120 7.37577e-18
8731.40879 6.97781e-18
8733.10637 6.77730e-18
8734.80396 6.94553e-18
8736.50155 7.19455e-18
8738.19914 7.31988e-18
8739.89673 7.20133e-18
8741.59431 6.84793e-18
8743.29190 6.46703e-18
8744.98949 6.20476e-18
8746.68708 6.08744e-18
8748.38467 6.08074e-18
8750.08226 6.05990e-18
8751.77984 5.94203e-18
8753.47743 5.71120e-18
8755.17502 5.49474e-18
8756.87261 5.75977e-18
8758.57020 6.71599e-18
8760.26778 7.83123e-18
8761.96537 8.54362e-18
8763.66296 8.62752e-18
8765.36055 8.09129e-18
8767.05814 7.41952e-18
8768.75572 7.05856e-18
8770.45331 6.65834e-18
8772.16095 5.74937e-18
8773.85853 4.55835e-18
8775.55612 3.61102e-18
8777.25371 3.47695e-18
8778.95130 4.53162e-18
8780.64889 6.00812e-18
8782.34647 6.57191e-18
8784.04406 6.22265e-18
8785.74165 5.92594e-18
8787.43924 5.91105e-18
8789.13683 5.82024e-18
8790.83441 5.61608e-18
8792.53200 5.50388e-18
8794.22959 5.52050e-18
8795.92718 5.55218e-18
8797.62477 5.44935e-18
8799.32236 4.99890e-18
8801.01994 4.31888e-18
8802.71753 4.03966e-18
8804.41512 4.36194e-18
8806.11271 4.70890e-18
8807.81030 4.71022e-18
8809.50788 4.50103e-18
8811.20547 4.24717e-18
8812.90306 4.09342e-18
8814.60065 4.09577e-18
8816.29824 4.05565e-18
8817.99582 3.83688e-18
8819.69341 3.60589e-18
8821.39100 3.55251e-18
8823.08859 3.73813e-18
8824.78618 4.13786e-18
8826.48376 4.59171e-18
8828.18135 4.91706e-18
8829.87894 5.03101e-18
8831.57653 4.93660e-18
8833.27412 4.78625e-18
8834.97171 4.76837e-18
8836.66929 4.82089e-18
8838.36688 4.75598e-18
8840.06447 4.64105e-18
8841.76206 4.68194e-18
8843.45965 4.74979e-18
8845.15723 4.49594e-18
8846.85482 3.97378e-18
8848.55241 3.59411e-18
8850.25000 3.61728e-18
8851.94759 4.13520e-18
8853.65522 5.00568e-18
8855.34276 5.77954e-18
8857.05040 6.31484e-18
8858.74798 6.96141e-18
8860.44557 7.70243e-18
8862.14316 7.90030e-18
8863.84075 7.30453e-18
8865.53834 6.37035e-18
8867.23592 5.56234e-18
8868.93351 5.27295e-18
8870.63110 5.56496e-18
8872.32869 5.70872e-18
8874.02628 5.24520e-18
8875.72386 4.78901e-18
8877.42145 4.95213e-18
8879.11904 5.74440e-18
8880.81663 6.89662e-18
8882.51422 7.75861e-18
8884.21181 7.77774e-18
8885.90939 7.24008e-18
8887.60698 6.70110e-18
8889.30457 6.21870e-18
8891.00216 5.70055e-18
8892.69975 5.53320e-18
8894.39733 6.17910e-18
8896.09492 7.23844e-18
8897.79251 7.83575e-18
8899.49010 7.83303e-18
8901.18769 7.64384e-18
8902.88527 7.13055e-18
8904.58286 5.77419e-18
8906.28045 4.22259e-18
8907.97804 4.17585e-18
8909.67563 5.64924e-18
8911.37321 6.74346e-18
8913.07080 6.47204e-18
8914.76839 5.06939e-18
8916.46598 3.22344e-18
8918.16357 2.34447e-18
8919.86116 2.86588e-18
8921.55874 3.35411e-18
8923.25633 3.00361e-18
8924.95392 2.55631e-18
8926.65151 2.61371e-18
8928.34910 3.17932e-18
8930.04668 4.05308e-18
8931.74427 4.68689e-18
8933.44186 4.70523e-18
8935.14949 4.42891e-18
8936.83704 4.25319e-18
8938.53462 4.22055e-18
8940.24226 4.27969e-18
8941.93985 4.35175e-18
8943.63743 4.40351e-18
8945.33502 4.77869e-18
8947.03261 5.78932e-18
8948.73020 6.85889e-18
8950.42779 7.13308e-18
8952.12537 6.76558e-18
8953.82296 6.45319e-18
8955.52055 6.22567e-18
8957.21814 5.70564e-18
8958.91573 4.94546e-18
8960.61331 4.29972e-18
8962.31090 3.96169e-18
8964.00849 3.97281e-18
8965.70608 4.24944e-18
8967.40367 4.57211e-18
8969.10125 4.68295e-18
8970.79884 4.28547e-18
8972.49643 3.57033e-18
8974.19402 3.43710e-18
8975.89161 4.16454e-18
8977.58920 4.95151e-18
8979.28678 5.29047e-18
8980.98437 5.40668e-18
8982.68196 5.38976e-18
8984.37955 4.80511e-18
8986.07714 3.66799e-18
8987.77472 3.21212e-18
8989.47231 4.20378e-18
8991.16990 5.65179e-18
8992.86749 6.53898e-18
8994.56508 7.03359e-18
8996.26266 7.47100e-18
8997.96025 7.64052e-18
8999.65784 7.29693e-18
9001.35543 6.57118e-18
9003.05302 5.72912e-18
9004.75061 5.01103e-18
9006.44819 4.57592e-18
9008.14578 4.26047e-18
9009.84337 3.76479e-18
9011.54096 3.11185e-18
9013.23855 2.55366e-18
9014.93613 2.35636e-18
9016.63372 2.75767e-18
9018.33131 3.68803e-18
9020.02890 4.77571e-18
9021.72649 5.69458e-18
9023.43412 6.20814e-18
9025.13171 6.05943e-18
9026.82930 4.98168e-18
9028.52688 3.42224e-18
9030.22447 2.76291e-18
9031.92206 3.44988e-18
9033.61965 4.41807e-18
9035.31724 4.98196e-18
9037.01482 5.30150e-18
9038.71241 5.50497e-18
9040.41000 5.57839e-18
9042.10759 5.50808e-18
9043.80518 5.22472e-18
9045.50276 4.73127e-18
9047.20035 4.27052e-18
9048.89794 3.98983e-18
9050.59553 3.56656e-18
9052.29312 2.79190e-18
9053.99070 2.19426e-18
9055.68829 2.30231e-18
9057.38588 2.93371e-18
9059.08347 3.63542e-18
9060.78106 4.00498e-18
9062.47865 3.77742e-18
9064.17623 3.03193e-18
9065.87382 2.12011e-18
9067.57141 1.83243e-18
9069.26900 2.96273e-18
9070.96659 4.65280e-18
9072.66417 5.02088e-18
9074.36176 4.02039e-18
9076.05935 3.12024e-18
9077.75694 2.93157e-18
9079.45453 3.25593e-18
9081.15211 3.87813e-18
9082.84970 4.49849e-18
9084.54729 4.70818e-18
9086.24488 4.01160e-18
9087.94247 2.66517e-18
9089.64005 2.00135e-18
9091.33764 2.64967e-18
9093.03523 4.02097e-18
9094.73282 5.42139e-18
9096.43041 6.11111e-18
9098.12800 5.83490e-18
9099.82558 5.39266e-18
9101.52317 5.45301e-18
9103.22076 6.00251e-18
9104.92839 6.79247e-18
9106.62598 7.27180e-18
9108.32357 7.05716e-18
9110.01111 6.50772e-18
9111.71875 6.08586e-18
9113.41633 5.84241e-18
9115.11392 5.67175e-18
9116.81151 5.37211e-18
9118.50910 4.79609e-18
9120.20669 4.25880e-18
9121.90427 4.20204e-18
9123.60186 4.57779e-18
9125.29945 5.04457e-18
9126.99704 5.22775e-18
9128.69463 4.81567e-18
9130.39221 4.21953e-18
9132.08980 4.35499e-18
9133.78739 5.07526e-18
9135.48498 5.30089e-18
9137.18257 4.97650e-18
9138.88015 5.08203e-18
9140.57774 5.74779e-18
9142.27533 6.12314e-18
9143.97292 5.93747e-18
9145.67051 5.68137e-18
9147.36810 5.70093e-18
9149.06568 6.14671e-18
9150.76327 6.82237e-18
9152.46086 6.88354e-18
9154.15845 5.96191e-18
9155.85604 4.81687e-18
9157.55362 3.96873e-18
9159.25121 2.92627e-18
9160.94880 1.53042e-18
9162.64639 9.11555e-19
9164.34398 1.82352e-18
9166.04156 3.42137e-18
9167.73915 4.59438e-18
9169.43674 4.60202e-18
9171.13433 3.26085e-18
9172.83192 1.88803e-18
9174.52950 1.94255e-18
9176.22709 3.02776e-18
9177.92468 3.99206e-18
9179.62227 4.34297e-18
9181.31986 4.05124e-18
9183.01745 3.72842e-18
9184.71503 4.28415e-18
9186.42267 5.47306e-18
9188.11021 6.23278e-18
9189.81784 6.20115e-18
9191.50539 5.62856e-18
9193.21302 5.10555e-18
9194.91061 5.55486e-18
9196.60820 6.76866e-18
9198.30578 7.23592e-18
9200.00337 6.53671e-18
9201.70096 5.67850e-18
9203.39855 5.30534e-18
9205.09614 5.53477e-18
9206.79372 6.11155e-18
9208.49131 6.10364e-18
9210.18890 5.18650e-18
9211.88649 4.34847e-18
9213.58408 4.24477e-18
9215.28166 4.43784e-18
9216.97925 4.60854e-18
9218.67684 5.22857e-18
9220.37443 6.43468e-18
9222.07202 7.10532e-18
9223.76960 6.36678e-18
9225.46719 4.80723e-18
9227.16478 3.37624e-18
9228.86237 2.79352e-18
9230.55996 3.39140e-18
9232.25755 4.36705e-18
9233.95513 4.67874e-18
9235.65272 4.53150e-18
9237.35031 4.69346e-18
9239.04790 5.44067e-18
9240.74549 6.69371e-18
9242.44307 8.01490e-18
9244.14066 8.73128e-18
9245.83825 8.58259e-18
9247.53584 7.71374e-18
9249.23343 6.42060e-18
9250.93101 5.14683e-18
9252.62860 4.23246e-18
9254.32619 3.83726e-18
9256.02378 4.02985e-18
9257.72137 4.78431e-18
9259.41895 5.69256e-18
9261.11654 5.84615e-18
9262.81413 5.02443e-18
9264.51172 4.11797e-18
9266.20931 3.74304e-18
9267.91694 3.91714e-18
9269.60448 4.39943e-18
9271.31212 4.46532e-18
9272.99966 3.80476e-18
9274.70729 3.25341e-18
9276.40488 3.44677e-18
9278.10247 4.04285e-18
9279.80006 4.54831e-18
9281.49764 4.56561e-18
9283.19523 3.97284e-18
9284.89282 3.52058e-18
9286.59041 3.93201e-18
9288.28800 4.66609e-18
9289.98559 4.91360e-18
9291.68317 5.05023e-18
9293.38076 5.75856e-18
9295.07835 6.34192e-18
9296.77594 5.68808e-18
9298.47353 4.73735e-18
9300.17111 5.41574e-18
9301.86870 7.09623e-18
9303.56629 7.44098e-18
9305.26388 6.28221e-18
9306.96147 5.24672e-18
9308.65905 4.94312e-18
9310.35664 5.05563e-18
9312.05423 5.15054e-18
9313.75182 4.53533e-18
9315.44941 3.64830e-18
9317.14700 4.49168e-18
9318.84458 7.30144e-18
9320.54217 9.68545e-18
9322.23976 9.95107e-18
9323.93735 7.69258e-18
9325.63494 3.58978e-18
9327.33252 2.56366e-19
9329.03011 -7.87912e-19
9330.72770 -1.04173e-18
9332.42529 -1.75257e-18
9334.12288 -2.38318e-18
9335.82046 -2.22687e-18
9337.51805 -8.73250e-19
9339.21564 1.70754e-18
9340.91323 4.67671e-18
9342.61082 7.04333e-18
9344.30840 8.32697e-18
9346.00599 8.39547e-18
9347.70358 7.37008e-18
9349.41121 5.65827e-18
9351.09876 4.17732e-18
9352.80639 3.85042e-18
9354.49393 4.55097e-18
9356.20157 5.46572e-18
9357.89915 5.92456e-18
9359.59674 5.45985e-18
9361.29433 4.30248e-18
9362.99192 3.28625e-18
9364.68951 2.56406e-18
9366.38709 1.64770e-18
9368.08468 6.85572e-19
9369.78227 4.32484e-19
9371.47986 1.24074e-18
9373.17745 3.04314e-18
9374.87504 5.01828e-18
9376.57262 5.24085e-18
9378.27021 3.42836e-18
9379.96780 2.02630e-18
9381.66539 2.45914e-18
9383.36298 3.99632e-18
9385.06056 5.68763e-18
9386.75815 6.44280e-18
9388.45574 5.90411e-18
9390.15333 5.66072e-18
9391.85092 6.77179e-18
9393.54850 7.88046e-18
9395.24609 7.75977e-18
9396.94368 7.12191e-18
9398.64127 6.90446e-18
9400.33886 7.17769e-18
9402.03644 7.62228e-18
9403.73403 7.43334e-18
9405.43162 5.96153e-18
9407.12921 3.91962e-18
9408.82680 2.58852e-18
9410.52439 2.71686e-18
9412.22197 4.47294e-18
9413.91956 6.90583e-18
9415.61715 8.39800e-18
9417.31474 8.21730e-18
9419.01233 6.49821e-18
9420.70991 4.26996e-18
9422.40750 3.29989e-18
9424.10509 3.60737e-18
9425.80268 3.36449e-18
9427.50027 2.35352e-18
9429.19785 2.24786e-18
9430.89544 3.32840e-18
9432.59303 4.03374e-18
9434.29062 3.89425e-18
9435.98821 4.14402e-18
9437.69584 5.31678e-18
9439.39343 6.69842e-18
9441.09102 7.57061e-18
9442.78860 7.28000e-18
9444.48619 5.79790e-18
9446.18378 4.43797e-18
9447.88137 4.19111e-18
9449.57896 4.74832e-18
9451.27654 5.50466e-18
9452.97413 5.83341e-18
9454.67172 5.36683e-18
9456.36931 4.47486e-18
9458.06690 3.77639e-18
9459.76449 3.93966e-18
9461.46207 5.29332e-18
9463.15966 6.87169e-18
9464.85725 7.40174e-18
9466.55484 6.99699e-18
9468.25243 6.45945e-18
9469.95001 6.05283e-18
9471.64760 5.70843e-18
9473.34519 5.21989e-18
9475.04278 4.29974e-18
9476.74037 3.03370e-18
9478.43795 1.84625e-18
9480.13554 1.58211e-18
9481.83313 3.38806e-18
9483.53072 6.54716e-18
9485.22831 8.31953e-18
9486.92589 7.86673e-18
9488.62348 6.81324e-18
9490.32107 6.11231e-18
9492.01866 5.70426e-18
9493.71625 5.44029e-18
9495.41384 4.91626e-18
9497.11142 4.14434e-18
9498.80901 4.08042e-18
9500.50660 5.08936e-18
9502.20419 6.08544e-18
9503.90178 6.31347e-18
9505.59936 6.34898e-18
9507.29695 6.62860e-18
9508.99454 6.53690e-18
9510.69213 5.58619e-18
9512.38972 4.31613e-18
9514.08730 3.36539e-18
9515.78489 2.55265e-18
9517.48248 1.67107e-18
9519.19011 1.70234e-18
9520.88770 3.54400e-18
9522.58529 5.79054e-18
9524.28288 6.36588e-18
9525.98047 5.49947e-18
9527.67805 4.69492e-18
9529.37564 4.68167e-18
9531.07323 5.59353e-18
9532.77082 6.89627e-18
9534.46841 7.50820e-18
9536.16599 7.16676e-18
9537.86358 6.40883e-18
9539.56117 5.69669e-18
9541.25876 5.42305e-18
9542.95635 5.54309e-18
9544.65394 5.44945e-18
9546.35152 4.84384e-18
9548.04911 3.87915e-18
9549.74670 2.84035e-18
9551.44429 2.13989e-18
9553.14188 2.17522e-18
9554.83946 3.43628e-18
9556.53705 5.56373e-18
9558.23464 6.39535e-18
9559.93223 5.00419e-18
9561.62982 3.78699e-18
9563.32740 4.45768e-18
9565.02499 5.64497e-18
9566.72258 5.88736e-18
9568.42017 5.19457e-18
9570.11776 4.06441e-18
9571.81534 3.30362e-18
9573.51293 3.62201e-18
9575.21052 5.02223e-18
9576.90811 7.06504e-18
9578.60570 9.00284e-18
9580.30329 1.00581e-17
9582.00087 9.94937e-18
9583.69846 8.81604e-18
9585.39605 7.07543e-18
9587.09364 5.33024e-18
9588.79123 4.12387e-18
9590.48881 3.83104e-18
9592.18640 4.15075e-18
9593.88399 4.22657e-18
9595.58158 4.18714e-18
9597.27917 5.11040e-18
9598.97675 6.74011e-18
9600.67434 7.37480e-18
9602.38198 6.64735e-18
9604.07956 5.88493e-18
9605.76711 5.74905e-18
9607.47474 5.90150e-18
9609.17233 6.00369e-18
9610.86992 5.72507e-18
9612.56750 4.99000e-18
9614.26509 4.21249e-18
9615.96268 3.78517e-18
9617.66027 3.96984e-18
9619.35786 4.71911e-18
9621.05544 5.37806e-18
9622.75303 5.37557e-18
9624.45062 4.56345e-18
9626.14821 3.19927e-18
9627.84580 2.34592e-18
9629.54339 2.89694e-18
9631.24097 4.49990e-18
9632.93856 6.31946e-18
9634.63615 7.62780e-18
9636.33374 7.91603e-18
9638.03133 7.30504e-18
9639.72891 6.30675e-18
9641.42650 5.39951e-18
9643.12409 4.95744e-18
9644.82168 4.91177e-18
9646.51927 4.88316e-18
9648.21685 4.86987e-18
9649.91444 5.14304e-18
9651.61203 5.88373e-18
9653.30962 7.19726e-18
9655.00721 8.22047e-18
9656.70479 7.11787e-18
9658.40238 4.37311e-18
9660.09997 3.22478e-18
9661.79756 5.00008e-18
9663.49515 8.38163e-18
9665.19274 1.17261e-17
9666.89032 1.29878e-17
9668.58791 1.15300e-17
9670.28550 9.32508e-18
9671.98309 7.94052e-18
9673.68068 7.54470e-18
9675.37826 7.83659e-18
9677.07585 7.91269e-18
9678.77344 7.04265e-18
9680.47103 5.17221e-18
9682.16862 2.73700e-18
9683.86620 1.03371e-18
9685.56379 1.04735e-18
9687.26138 2.18332e-18
9688.96901 3.35978e-18
9690.66660 3.73748e-18
9692.36419 2.91521e-18
9694.06178 1.82140e-18
9695.75937 1.74059e-18
9697.45695 2.39752e-18
9699.15454 2.73580e-18
9700.85213 2.46278e-18
9702.54972 1.80502e-18
9704.24731 1.25766e-18
9705.94489 1.48772e-18
9707.64248 2.38393e-18
9709.34007 3.14690e-18
9711.03766 3.40524e-18
9712.73525 3.22166e-18
9714.43283 2.90633e-18
9716.13042 3.07678e-18
9717.82801 3.78039e-18
9719.52560 4.30224e-18
9721.22319 4.21503e-18
9722.92078 3.51094e-18
9724.61836 2.54323e-18
9726.31595 2.26956e-18
9728.01354 3.06993e-18
9729.71113 4.14640e-18
9731.40872 4.81733e-18
9733.10630 4.92497e-18
9734.80389 4.58853e-18
9736.50148 4.41485e-18
9738.19907 4.81190e-18
9739.89666 5.43696e-18
9741.59424 5.78166e-18
9743.29183 5.27385e-18
9744.98942 3.74260e-18
9746.68701 2.49722e-18
9748.38460 2.81781e-18
9750.08219 3.78324e-18
9751.77977 3.82356e-18
9753.47736 2.76931e-18
9755.17495 1.29174e-18
9756.87254 6.44029e-19
9758.57013 2.10358e-18
9760.26771 4.72633e-18
9761.96530 6.11529e-18
9763.66289 5.47203e-18
9765.36048 3.41877e-18
9767.05807 1.30871e-18
9768.75565 1.15749e-18
9770.45324 2.99508e-18
9772.16088 4.61602e-18
9773.85846 5.17399e-18
9775.55605 5.53036e-18
9777.25364 6.18531e-18
9778.95123 7.18778e-18
9780.64882 8.35945e-18
9782.34640 9.14074e-18
9784.04399 9.09957e-18
9785.74158 8.04080e-18
9787.43917 6.19631e-18
9789.13676 4.59746e-18
9790.83434 3.87275e-18
9792.53193 3.48027e-18
9794.22952 2.87339e-18
9795.92711 1.98281e-18
9797.62470 1.00249e-18
9799.32228 7.21023e-19
9801.01987 1.62843e-18
9802.71746 2.62903e-18
9804.41505 2.57724e-18
9806.11264 2.16900e-18
9807.81023 2.54217e-18
9809.50781 3.60121e-18
9811.20540 4.64854e-18
9812.90299 4.86727e-18
9814.60058 3.61758e-18
9816.29817 1.75670e-18
9817.99575 9.98322e-19
9819.69334 1.50553e-18
9821.39093 2.24597e-18
9823.08852 2.88955e-18
9824.78611 3.66138e-18
9826.48369 4.28547e-18
9828.18128 4.09541e-18
9829.87887 3.32607e-18
9831.57646 3.19568e-18
9833.27405 4.16954e-18
9834.97163 5.72902e-18
9836.66922 7.16301e-18
9838.36681 7.49382e-18
9840.06440 6.48046e-18
9841.76199 5.18126e-18
9843.45958 4.38512e-18
9845.15716 4.10391e-18
9846.85475 4.18133e-18
9848.55234 4.28528e-18
9850.24993 4.17908e-18
9851.94752 4.05097e-18
9853.65515 4.02785e-18
9855.34269 3.73484e-18
9857.05033 2.93188e-18
9858.74791 2.21728e-18
9860.44550 2.16101e-18
9862.14309 2.16569e-18
9863.84068 1.57334e-18
9865.53827 1.44369e-18
9867.23585 3.06469e-18
9868.93344 5.09035e-18
9870.63103 5.33905e-18
9872.32862 5.00738e-18
9874.02621 6.84172e-18
9875.72379 9.97420e-18
9877.42138 1.12104e-17
9879.11897 9.13538e-18
9880.81656 3.95818e-18
9882.51415 -1.86911e-18
9884.21173 -3.84874e-18
9885.90932 -1.45697e-18
9887.60691 1.37209e-18
9889.30450 2.39126e-18
9891.00209 1.47503e-18
9892.69968 -3.52678e-19
9894.39726 -2.52508e-19
9896.09485 2.51959e-18
9897.79244 5.10204e-18
9899.49003 5.49175e-18
9901.18762 3.58442e-18
9902.88520 2.41884e-19
9904.58279 -2.02953e-18
9906.28038 -1.74504e-18
9907.97797 -4.11904e-19
9909.67556 4.42202e-19
9911.37314 8.14930e-19
9913.07073 1.05366e-18
9914.76832 1.54238e-18
9916.46591 2.53955e-18
9918.16350 3.78561e-18
9919.86108 4.82803e-18
9921.55867 5.25642e-18
9923.25626 4.84690e-18
9924.95385 3.90974e-18
9926.65144 3.01892e-18
9928.34903 2.68186e-18
9930.04661 3.18191e-18
9931.74420 3.80600e-18
9933.44179 3.32707e-18
9935.14942 2.06882e-18
9936.83697 1.49425e-18
9938.54460 1.82358e-18
9940.23214 2.20356e-18
9941.93978 2.17337e-18
9943.63736 1.61408e-18
9945.33495 8.20435e-19
9947.03254 6.60185e-19
9948.73013 1.03009e-18
9950.42772 4.47020e-19
9952.12530 -1.34008e-18
9953.82289 -2.66030e-18
9955.52048 -2.49617e-18
9957.21807 -1.12749e-18
9958.91566 1.01398e-18
9960.61324 3.42885e-18
9962.31083 5.69839e-18
9964.00842 7.85096e-18
9965.70601 9.66723e-18
9967.40360 1.00377e-17
9969.10118 8.33546e-18
9970.79877 5.42235e-18
9972.49636 2.58202e-18
9974.19395 1.11330e-18
9975.89154 1.75333e-18
9977.58913 3.59120e-18
9979.28671 5.15789e-18
9980.98430 5.73141e-18
9982.68189 5.10867e-18
9984.37948 3.45199e-18
9986.07707 1.29167e-18
9987.77465 -5.77781e-19
9989.47224 -1.34920e-18
9991.16983 -6.61754e-19
9992.86742 1.33529e-18
9994.56501 3.31550e-18
9996.26259 3.16101e-18
9997.96018 1.42736e-18
9999.65777 1.21346e-18
