# wavelength flux
3474.89730 2.75750e-18
3476.36980 2.68573e-18
3477.83228 2.37011e-18
3479.30478 2.28609e-18
3480.77728 2.43809e-18
3482.24978 2.61260e-18
3483.71226 2.81275e-18
3485.18476 2.50711e-18
3486.65726 2.33077e-18
3488.12976 2.23155e-18
3489.59224 2.30023e-18
3491.06474 2.26868e-18
3492.53724 2.53430e-18
3494.00974 2.60721e-18
3495.47222 2.55463e-18
3496.94472 2.44856e-18
3498.41722 2.44989e-18
3499.88971 2.60799e-18
3501.35220 2.36779e-18
3502.82470 2.09101e-18
3504.29720 2.32493e-18
3505.76969 2.48264e-18
3507.23218 2.50810e-18
3508.70467 2.45732e-18
3510.17717 2.35170e-18
3511.64967 2.26668e-18
3513.11216 2.21248e-18
3514.58465 2.33397e-18
3516.05715 2.24175e-18
3517.51964 2.33996e-18
3518.99213 2.47302e-18
3520.46463 2.33046e-18
3521.93713 2.42281e-18
3523.40963 2.26096e-18
3524.87211 2.28383e-18
3526.34461 2.37361e-18
3527.81711 2.33939e-18
3529.27959 2.49110e-18
3530.75209 2.73869e-18
3532.22459 2.59476e-18
3533.69709 2.44352e-18
3535.15957 2.73365e-18
3536.63207 2.56803e-18
3538.10457 2.57719e-18
3539.57707 2.27584e-18
3541.03955 2.54495e-18
3542.51205 2.32222e-18
3543.98455 2.32388e-18
3545.45705 2.43566e-18
3546.91953 2.43284e-18
3548.39203 2.56921e-18
3549.86453 2.63123e-18
3551.33703 2.52214e-18
3552.79951 2.56668e-18
3554.27201 2.62363e-18
3555.74451 2.39457e-18
3557.21701 2.42492e-18
3558.67949 2.40127e-18
3560.15199 2.31204e-18
3561.62449 2.34905e-18
3563.09699 2.64253e-18
3564.55947 2.63215e-18
3566.03197 2.29485e-18
3567.50446 2.18665e-18
3568.97696 2.36675e-18
3570.43945 2.38646e-18
3571.91194 2.43398e-18
3573.38444 2.39068e-18
3574.85694 2.61998e-18
3576.31943 2.73128e-18
3577.79192 2.50223e-18
3579.26442 2.45402e-18
3580.73692 2.36720e-18
3582.19940 2.58212e-18
3583.67190 2.60632e-18
3585.14440 2.58499e-18
3586.61690 2.68260e-18
3588.07938 2.56703e-18
3589.55188 2.53295e-18
3591.02438 2.72609e-18
3592.49688 2.98072e-18
3593.95936 2.84007e-18
3595.43186 2.83589e-18
3596.90436 2.82471e-18
3598.37686 3.02480e-18
3599.83934 3.06075e-18
3601.31184 2.88708e-18
3602.78434 2.47683e-18
3604.25684 2.69309e-18
3605.71932 3.09185e-18
3607.19182 2.78380e-18
3608.66432 2.56949e-18
3610.13682 2.57195e-18
3611.59930 2.49577e-18
3613.07180 2.77289e-18
3614.54430 2.89288e-18
3616.01680 2.84267e-18
3617.47928 2.79635e-18
3618.95178 2.50374e-18
3620.42428 2.90670e-18
3621.88676 2.92737e-18
3623.35926 2.59265e-18
3624.83176 2.41701e-18
3626.30426 2.46433e-18
3627.76674 2.80831e-18
3629.23924 2.51980e-18
3630.71174 2.28300e-18
3632.18423 2.43267e-18
3633.64672 2.59457e-18
3635.11922 2.46915e-18
3636.59171 2.26268e-18
3638.06421 2.43313e-18
3639.52670 2.56524e-18
3640.99919 2.38035e-18
3642.47169 2.57574e-18
3643.94419 2.53082e-18
3645.40667 2.14500e-18
3646.87917 2.28926e-18
3648.35167 2.69574e-18
3649.82417 2.41503e-18
3651.28665 2.35196e-18
3652.75915 2.66608e-18
3654.23165 2.71572e-18
3655.70415 2.74262e-18
3657.16663 2.95945e-18
3658.63913 2.99424e-18
3660.11163 3.01390e-18
3661.58413 2.96142e-18
3663.04661 2.99376e-18
3664.51911 3.03618e-18
3665.99161 3.23326e-18
3667.46411 3.29089e-18
3668.92659 3.55159e-18
3670.39909 3.54386e-18
3671.87159 3.72090e-18
3673.34409 4.10588e-18
3674.80657 4.21572e-18
3676.27907 3.91766e-18
3677.75157 3.63726e-18
3679.22407 3.83132e-18
3680.68655 3.97875e-18
3682.15905 4.36649e-18
3683.63155 4.43515e-18
3685.10405 3.94247e-18
3686.56653 4.20013e-18
3688.03903 4.44625e-18
3689.51153 4.51256e-18
3690.98402 4.53161e-18
3692.44651 4.29868e-18
3693.91901 4.12285e-18
3695.39150 4.47731e-18
3696.86400 4.67057e-18
3698.32649 4.62095e-18
3699.79898 4.82325e-18
3701.27148 4.81621e-18
3702.74398 4.74238e-18
3704.20646 5.27782e-18
3705.67896 4.89577e-18
3707.15146 4.73192e-18
3708.62396 4.64496e-18
3710.08644 4.45031e-18
3711.55894 4.88683e-18
3713.03144 4.89726e-18
3714.50394 4.79989e-18
3715.96642 4.70254e-18
3717.43892 4.60901e-18
3718.91142 4.51549e-18
3720.37390 4.42200e-18
3721.84640 4.32851e-18
3723.31890 4.23504e-18
3724.79140 4.14160e-18
3726.25388 4.04816e-18
3727.72638 3.95476e-18
3729.19888 3.86136e-18
3730.67138 3.76798e-18
3732.13386 3.67464e-18
3733.60636 3.58130e-18
3735.07886 3.48799e-18
3736.55136 3.39468e-18
3738.01384 3.30140e-18
3739.48634 3.20813e-18
3740.95884 3.11487e-18
3742.43134 3.02165e-18
3743.89382 2.92844e-18
3745.36632 2.83523e-18
3746.83882 2.74207e-18
3748.31131 2.64890e-18
3749.77380 2.55577e-18
3751.24630 2.46262e-18
3752.71880 2.36951e-18
3754.19129 2.27643e-18
3755.65378 2.26278e-18
3757.12628 2.21941e-18
3758.59877 2.14383e-18
3760.07127 2.22403e-18
3761.53376 2.11205e-18
3763.00625 2.26395e-18
3764.47875 2.11240e-18
3765.95125 2.04231e-18
3767.41373 2.02148e-18
3768.88623 1.98980e-18
3770.35873 2.14375e-18
3771.83123 2.02675e-18
3773.29371 2.07681e-18
3774.76621 2.05393e-18
3776.23871 2.05299e-18
3777.71121 1.90705e-18
3779.17369 2.02098e-18
3780.64619 1.90311e-18
3782.11869 1.98322e-18
3783.59119 1.92353e-18
3785.05367 1.99475e-18
3786.52617 1.93753e-18
3787.99867 1.89032e-18
3789.47117 2.04071e-18
3790.93365 1.93716e-18
3792.40615 1.92265e-18
3793.87865 2.11484e-18
3795.35115 2.05110e-18
3796.81363 1.99420e-18
3798.28613 1.81678e-18
3799.75863 1.83417e-18
3801.23113 1.98335e-18
3802.69361 2.15970e-18
3804.16611 2.09316e-18
3805.63861 1.90093e-18
3807.11111 1.95614e-18
3808.57359 2.02400e-18
3810.04609 2.11312e-18
3811.51859 2.06804e-18
3812.98107 2.16907e-18
3814.45357 2.19115e-18
3815.92607 2.23977e-18
3817.39856 2.31197e-18
3818.86105 2.26065e-18
3820.33354 2.26053e-18
3821.80604 2.48939e-18
3823.27854 2.66156e-18
3824.74103 2.41058e-18
3826.21352 2.40786e-18
3827.68602 2.47773e-18
3829.15852 2.53870e-18
3830.62100 2.62736e-18
3832.09350 2.55981e-18
3833.56600 2.65379e-18
3835.03850 2.68315e-18
3836.50098 2.77032e-18
3837.97348 2.85314e-18
3839.44598 2.81683e-18
3840.91848 2.88163e-18
3842.38096 2.99167e-18
3843.85346 2.94451e-18
3845.32596 3.07564e-18
3846.79846 3.18426e-18
3848.26094 3.15268e-18
3849.73344 3.15891e-18
3851.20594 3.36045e-18
3852.67844 3.45453e-18
3854.14092 3.49271e-18
3855.61342 3.69490e-18
3857.08592 3.71235e-18
3858.55842 3.75394e-18
3860.02090 3.85764e-18
3861.49340 3.95262e-18
3862.96590 4.36041e-18
3864.43840 4.29476e-18
3865.90088 4.33210e-18
3867.37338 4.57110e-18
3868.84588 4.60680e-18
3870.31838 4.70038e-18
3871.78086 4.76465e-18
3873.25336 5.10132e-18
3874.72586 5.39229e-18
3876.19835 5.39821e-18
3877.66084 5.40975e-18
3879.13334 5.74995e-18
3880.60583 6.01195e-18
3882.07833 6.20458e-18
3883.54081 6.34155e-18
3885.01331 6.44527e-18
3886.48581 6.54661e-18
3887.95831 6.91945e-18
3889.42079 6.90775e-18
3890.89329 7.05610e-18
3892.36579 7.32147e-18
3893.83829 7.40431e-18
3895.30077 7.68385e-18
3896.77327 7.87948e-18
3898.24577 7.88864e-18
3899.71827 8.30515e-18
3901.18075 8.18166e-18
3902.65325 8.22488e-18
3904.12575 8.54170e-18
3905.58823 8.73138e-18
3907.06073 8.76324e-18
3908.53323 9.04907e-18
3910.00573 9.09839e-18
3911.46821 9.07884e-18
3912.94071 9.35163e-18
3914.41321 9.25692e-18
3915.88571 9.44100e-18
3917.34819 9.53863e-18
3918.82069 9.64200e-18
3920.29319 9.56396e-18
3921.76569 9.89107e-18
3923.22817 9.67792e-18
3924.70067 9.37106e-18
3926.17317 9.42722e-18
3927.64567 9.55421e-18
3929.10815 9.62932e-18
3930.58065 9.32009e-18
3932.05315 9.04718e-18
3933.52565 8.97379e-18
3934.98813 8.96889e-18
3936.46063 8.95060e-18
3937.93313 8.87091e-18
3939.40562 8.86602e-18
3940.86811 8.93473e-18
3942.34061 9.22963e-18
3943.81310 9.30379e-18
3945.28560 9.33494e-18
3946.74809 9.45544e-18
3948.22058 9.24003e-18
3949.69308 9.15335e-18
3951.16558 9.26686e-18
3952.62806 9.02842e-18
3954.10056 8.84049e-18
3955.57306 8.61761e-18
3957.04556 8.92036e-18
3958.50804 8.65671e-18
3959.98054 8.53691e-18
3961.45304 8.74729e-18
3962.92554 8.22496e-18
3964.38802 7.93694e-18
3965.86052 7.78298e-18
3967.33302 7.83742e-18
3968.80552 7.87622e-18
3970.26800 7.82299e-18
3971.74050 8.00785e-18
3973.21300 7.94229e-18
3974.68550 7.74188e-18
3976.14798 7.74535e-18
3977.62048 8.10831e-18
3979.09298 8.28079e-18
3980.56548 8.13486e-18
3982.02796 8.18006e-18
3983.50046 8.30638e-18
3984.97296 8.44769e-18
3986.44546 8.67984e-18
3987.90794 8.60561e-18
3989.38044 8.56920e-18
3990.85294 8.81700e-18
3992.32544 8.81022e-18
3993.78792 8.85994e-18
3995.26042 8.73713e-18
3996.73292 9.19873e-18
3998.20541 9.34422e-18
3999.66790 9.51446e-18
4001.14039 9.84334e-18
4002.61289 1.00101e-17
4004.07538 1.01375e-17
4005.54788 1.03627e-17
4007.02037 1.04963e-17
4008.49287 1.08367e-17
4009.95536 1.12756e-17
4011.42785 1.12293e-17
4012.90035 1.13188e-17
4014.37285 1.16645e-17
4015.83533 1.17929e-17
4017.30783 1.22742e-17
4018.78033 1.27078e-17
4020.25283 1.29746e-17
4021.71531 1.31147e-17
4023.18781 1.33223e-17
4024.66031 1.35211e-17
4026.13281 1.35929e-17
4027.59529 1.36808e-17
4029.06779 1.38264e-17
4030.54029 1.39377e-17
4032.01279 1.39526e-17
4033.47527 1.40361e-17
4034.94777 1.40091e-17
4036.42027 1.42633e-17
4037.89277 1.40049e-17
4039.35525 1.39175e-17
4040.82775 1.40717e-17
4042.30025 1.39181e-17
4043.77275 1.35132e-17
4045.23523 1.32846e-17
4046.70773 1.35294e-17
4048.18023 1.34219e-17
4049.65273 1.30527e-17
4051.11521 1.31087e-17
4052.58771 1.29669e-17
4054.06021 1.27859e-17
4055.53271 1.24402e-17
4056.99519 1.23750e-17
4058.46769 1.21996e-17
4059.94019 1.17647e-17
4061.41268 1.16700e-17
4062.87517 1.13727e-17
4064.34766 1.13257e-17
4065.82016 1.11416e-17
4067.29266 1.07720e-17
4068.75515 1.03818e-17
4070.22764 1.00551e-17
4071.70014 1.00369e-17
4073.17264 1.01536e-17
4074.63512 9.90985e-18
4076.10762 9.66419e-18
4077.58012 9.47412e-18
4079.05262 9.23024e-18
4080.51510 9.18306e-18
4081.98760 9.19620e-18
4083.46010 8.84747e-18
4084.93260 8.47036e-18
4086.39508 8.43777e-18
4087.86758 8.35094e-18
4089.34008 8.22151e-18
4090.80256 8.07337e-18
4092.27506 8.05729e-18
4093.74756 8.01335e-18
4095.22006 7.62495e-18
4096.68254 7.69235e-18
4098.15504 7.39756e-18
4099.62754 7.29358e-18
4101.10004 7.17381e-18
4102.56252 7.13203e-18
4104.03502 7.37445e-18
4105.50752 7.07816e-18
4106.98002 6.69245e-18
4108.44250 6.76086e-18
4109.91500 6.71492e-18
4111.38750 6.47989e-18
4112.86000 6.55783e-18
4114.32248 6.36975e-18
4115.79498 6.20047e-18
4117.26748 6.43979e-18
4118.73998 6.25182e-18
4120.20246 6.23514e-18
4121.67496 6.10293e-18
4123.14745 6.20460e-18
4124.61995 5.91242e-18
4126.08244 5.76496e-18
4127.55494 5.83562e-18
4129.02743 5.86098e-18
4130.49993 5.87194e-18
4131.96241 5.65358e-18
4133.43491 5.74050e-18
4134.90741 5.66392e-18
4136.37991 5.74902e-18
4137.84239 5.73350e-18
4139.31489 5.71516e-18
4140.78739 5.63064e-18
4142.25989 5.58719e-18
4143.72237 5.80569e-18
4145.19487 5.79275e-18
4146.66737 5.75687e-18
4148.13987 5.73524e-18
4149.60235 5.77777e-18
4151.07485 5.89668e-18
4152.54735 5.81252e-18
4154.01985 5.90554e-18
4155.48233 5.90901e-18
4156.95483 5.75300e-18
4158.42733 5.78007e-18
4159.89983 5.98398e-18
4161.36231 5.98657e-18
4162.83481 5.99538e-18
4164.30731 5.84304e-18
4165.77981 5.87382e-18
4167.24229 5.95061e-18
4168.71479 5.79738e-18
4170.18729 5.81844e-18
4171.65979 5.92152e-18
4173.12227 5.81385e-18
4174.59477 5.83748e-18
4176.06727 5.74785e-18
4177.53976 5.64246e-18
4179.00225 5.65297e-18
4180.47475 5.66871e-18
4181.94725 5.65804e-18
4183.40973 5.43499e-18
4184.88223 5.29219e-18
4186.35473 5.25424e-18
4187.82722 5.25600e-18
4189.29972 5.33863e-18
4190.76220 5.34971e-18
4192.23470 5.18181e-18
4193.70720 5.26673e-18
4195.16969 5.10578e-18
4196.64218 5.03777e-18
4198.11468 5.15554e-18
4199.58718 5.18757e-18
4201.04966 5.07979e-18
4202.52216 5.01470e-18
4203.99466 5.20889e-18
4205.46716 5.31721e-18
4206.92964 5.31663e-18
4208.40214 5.29636e-18
4209.87464 5.35968e-18
4211.34714 5.42023e-18
4212.80962 5.28563e-18
4214.28212 5.22991e-18
4215.75462 5.49118e-18
4217.22712 5.34313e-18
4218.68960 5.27190e-18
4220.16210 5.46616e-18
4221.63460 5.43878e-18
4223.10710 5.52998e-18
4224.56958 5.79238e-18
4226.04208 5.89111e-18
4227.51458 5.89536e-18
4228.98708 5.95589e-18
4230.44956 5.96791e-18
4231.92206 5.89750e-18
4233.39456 5.97075e-18
4234.86706 5.93948e-18
4236.32954 5.98391e-18
4237.80204 6.05209e-18
4239.27454 5.93937e-18
4240.74704 6.22181e-18
4242.20952 6.28760e-18
4243.68202 6.25825e-18
4245.15452 6.25648e-18
4246.62701 6.35875e-18
4248.08950 6.45179e-18
4249.56200 6.46777e-18
4251.03449 6.35482e-18
4252.50699 6.39987e-18
4253.96947 6.46732e-18
4255.44197 6.51960e-18
4256.91447 6.72987e-18
4258.38697 6.51492e-18
4259.84945 6.48033e-18
4261.32195 6.57074e-18
4262.79445 6.46571e-18
4264.26695 6.53318e-18
4265.72943 6.59822e-18
4267.20193 6.47860e-18
4268.67443 6.40754e-18
4270.14693 6.45327e-18
4271.60941 6.31628e-18
4273.08191 6.20682e-18
4274.55441 6.23932e-18
4276.02691 6.41260e-18
4277.48939 6.31813e-18
4278.96189 6.30263e-18
4280.43439 6.20705e-18
4281.89687 6.12733e-18
4283.36937 6.17338e-18
4284.84187 6.12061e-18
4286.31437 6.02469e-18
4287.77685 6.00251e-18
4289.24935 6.05453e-18
4290.72185 5.99064e-18
4292.19435 6.09568e-18
4293.66685 6.10450e-18
4295.12933 6.06821e-18
4296.60183 6.06790e-18
4298.07433 6.13419e-18
4299.53681 6.02067e-18
4301.00931 6.23434e-18
4302.48181 6.37917e-18
4303.95431 6.33815e-18
4305.41679 6.23697e-18
4306.88929 6.48035e-18
4308.36179 6.41175e-18
4309.83428 6.53254e-18
4311.29677 6.47924e-18
4312.76926 6.39199e-18
4314.24176 6.56471e-18
4315.71426 6.61407e-18
4317.17675 6.60899e-18
4318.64924 6.62339e-18
4320.12174 6.62412e-18
4321.59424 6.55650e-18
4323.05672 6.62126e-18
4324.52922 6.68888e-18
4326.00172 6.77129e-18
4327.47422 6.76581e-18
4328.93670 6.48949e-18
4330.40920 6.72538e-18
4331.88170 6.74397e-18
4333.35420 6.67754e-18
4334.81668 6.62100e-18
4336.28918 6.63687e-18
4337.76168 6.88839e-18
4339.23418 6.68297e-18
4340.69666 6.56043e-18
4342.16916 6.67388e-18
4343.64166 6.91713e-18
4345.11416 6.71389e-18
4346.57664 6.87715e-18
4348.04914 6.99278e-18
4349.52164 6.88842e-18
4350.99414 6.79341e-18
4352.45662 6.81976e-18
4353.92912 6.80963e-18
4355.40162 6.79951e-18
4356.87412 6.78939e-18
4358.33660 6.77926e-18
4359.80910 6.76914e-18
4361.28160 6.75902e-18
4362.75410 6.74890e-18
4364.21658 6.73878e-18
4365.68908 6.72867e-18
4367.16158 6.71855e-18
4368.62406 6.70844e-18
4370.09656 6.69832e-18
4371.56905 6.68821e-18
4373.04155 6.67810e-18
4374.51405 6.66799e-18
4375.97654 6.65788e-18
4377.44903 6.64777e-18
4378.92153 6.63766e-18
4380.39403 6.62756e-18
4381.85651 6.61745e-18
4383.32901 6.60735e-18
4384.80151 6.59724e-18
4386.26399 6.58714e-18
4387.73649 6.57704e-18
4389.20899 6.56694e-18
4390.68149 6.42081e-18
4392.14397 6.47332e-18
4393.61647 6.64373e-18
4395.08897 6.45827e-18
4396.56147 6.34018e-18
4398.02395 6.25034e-18
4399.49645 6.22014e-18
4400.96895 6.18256e-18
4402.44145 6.15695e-18
4403.90393 6.24130e-18
4405.37643 6.10166e-18
4406.84893 6.09492e-18
4408.32143 6.06535e-18
4409.78391 5.96923e-18
4411.25641 6.00056e-18
4412.72891 5.90517e-18
4414.20141 5.70802e-18
4415.66389 5.74109e-18
4417.13639 5.81959e-18
4418.60889 5.76292e-18
4420.08139 5.67028e-18
4421.54387 5.68887e-18
4423.01637 5.49445e-18
4424.48887 5.46310e-18
4425.96137 5.52685e-18
4427.42385 5.44407e-18
4428.89635 5.49099e-18
4430.36885 5.53024e-18
4431.84134 5.43664e-18
4433.30383 5.31821e-18
4434.77632 5.37635e-18
4436.24882 5.45753e-18
4437.72132 5.35853e-18
4439.18380 5.31839e-18
4440.65630 5.41003e-18
4442.12880 5.47957e-18
4443.60130 5.56869e-18
4445.06378 5.46863e-18
4446.53628 5.51655e-18
4448.00878 5.61018e-18
4449.48128 5.59664e-18
4450.94376 5.73526e-18
4452.41626 5.83106e-18
4453.88876 5.84320e-18
4455.36126 5.77203e-18
4456.82374 5.73611e-18
4458.29624 5.70054e-18
4459.76874 5.77711e-18
4461.24124 5.86825e-18
4462.70372 5.98652e-18
4464.17622 6.22216e-18
4465.64872 6.13029e-18
4467.12122 6.08756e-18
4468.58370 6.12106e-18
4470.05620 6.51563e-18
4471.52870 6.73582e-18
4472.99118 6.60240e-18
4474.46368 6.80236e-18
4475.93618 6.90447e-18
4477.40868 6.97875e-18
4478.87116 7.02583e-18
4480.34366 7.16496e-18
4481.81616 7.29196e-18
4483.28866 7.46617e-18
4484.76116 7.70036e-18
4486.22364 7.73755e-18
4487.69614 7.91443e-18
4489.16863 7.96381e-18
4490.63112 8.29256e-18
4492.10362 8.67174e-18
4493.57611 8.64446e-18
4495.04861 8.83283e-18
4496.51110 8.98719e-18
4497.98360 9.17046e-18
4499.45609 9.32875e-18
4500.92859 9.48751e-18
4502.39108 9.66090e-18
4503.86357 9.63673e-18
4505.33607 9.82871e-18
4506.80857 1.01077e-17
4508.27105 1.02934e-17
4509.74355 1.03231e-17
4511.21605 1.06558e-17
4512.68855 1.08568e-17
4514.15103 1.10435e-17
4515.62353 1.13406e-17
4517.09603 1.14713e-17
4518.56853 1.17380e-17
4520.03101 1.19546e-17
4521.50351 1.21251e-17
4522.97601 1.21524e-17
4524.44851 1.23948e-17
4525.91099 1.24819e-17
4527.38349 1.25591e-17
4528.85599 1.28140e-17
4530.32849 1.29339e-17
4531.79097 1.29664e-17
4533.26347 1.29139e-17
4534.73597 1.30678e-17
4536.20847 1.31754e-17
4537.67095 1.32662e-17
4539.14345 1.33115e-17
4540.61595 1.33170e-17
4542.08845 1.34258e-17
4543.55093 1.35238e-17
4545.02343 1.32898e-17
4546.49593 1.33005e-17
4547.96843 1.32686e-17
4549.43091 1.33992e-17
4550.90341 1.34225e-17
4552.37590 1.32527e-17
4553.84840 1.34862e-17
4555.31089 1.33897e-17
4556.78339 1.35105e-17
4558.25588 1.38798e-17
4559.71837 1.36243e-17
4561.19086 1.37986e-17
4562.66336 1.39232e-17
4564.13586 1.40679e-17
4565.60836 1.40651e-17
4567.07084 1.43043e-17
4568.54334 1.43803e-17
4570.01584 1.44911e-17
4571.48834 1.46675e-17
4572.95082 1.50645e-17
4574.42332 1.51548e-17
4575.89582 1.52051e-17
4577.35830 1.51908e-17
4578.83080 1.54426e-17
4580.30330 1.55549e-17
4581.77580 1.55232e-17
4583.23828 1.56986e-17
4584.71078 1.55909e-17
4586.18328 1.56402e-17
4587.65578 1.56219e-17
4589.11826 1.56902e-17
4590.59076 1.55829e-17
4592.06326 1.56706e-17
4593.53576 1.57156e-17
4594.99824 1.56790e-17
4596.47074 1.58784e-17
4597.94324 1.57462e-17
4599.41574 1.60561e-17
4600.87822 1.61517e-17
4602.35072 1.63067e-17
4603.82322 1.63730e-17
4605.29572 1.66671e-17
4606.75820 1.60507e-17
4608.23070 1.67205e-17
4609.70320 1.71214e-17
4611.17570 1.72475e-17
4612.63818 1.71990e-17
4614.11068 1.71084e-17
4615.58317 1.73480e-17
4617.05567 1.76341e-17
4618.51816 1.74974e-17
4619.99065 1.73622e-17
4621.46315 1.76279e-17
4622.93565 1.79138e-17
4624.39814 1.79111e-17
4625.87063 1.77546e-17
4627.34313 1.75701e-17
4628.81563 1.74636e-17
4630.27811 1.77425e-17
4631.75061 1.77518e-17
4633.22311 1.75899e-17
4634.69561 1.75817e-17
4636.15809 1.74211e-17
4637.63059 1.74734e-17
4639.10309 1.76162e-17
4640.57559 1.72473e-17
4642.03807 1.69815e-17
4643.51057 1.71377e-17
4644.98307 1.71162e-17
4646.45557 1.66635e-17
4647.91805 1.65255e-17
4649.39055 1.65966e-17
4650.86305 1.62695e-17
4652.33555 1.60371e-17
4653.79803 1.59354e-17
4655.27053 1.58609e-17
4656.74303 1.57604e-17
4658.21553 1.53735e-17
4659.67801 1.51269e-17
4661.15051 1.51286e-17
4662.62301 1.49480e-17
4664.08549 1.45279e-17
4665.55799 1.43448e-17
4667.03049 1.41589e-17
4668.50299 1.39642e-17
4669.96547 1.37868e-17
4671.43797 1.32730e-17
4672.91047 1.30446e-17
4674.38296 1.31388e-17
4675.85546 1.31249e-17
4677.31795 1.28418e-17
4678.79045 1.26111e-17
4680.26294 1.25905e-17
4681.72543 1.24173e-17
4683.19793 1.21945e-17
4684.67042 1.21876e-17
4686.14292 1.18017e-17
4687.60541 1.15311e-17
4689.07790 1.16825e-17
4690.55040 1.16601e-17
4692.02290 1.17030e-17
4693.48538 1.16190e-17
4694.95788 1.14333e-17
4696.43038 1.14434e-17
4697.90288 1.15203e-17
4699.36536 1.15033e-17
4700.83786 1.14333e-17
4702.31036 1.13540e-17
4703.78286 1.15353e-17
4705.24534 1.16591e-17
4706.71784 1.16440e-17
4708.19034 1.16975e-17
4709.66284 1.20515e-17
4711.12532 1.18787e-17
4712.59782 1.19413e-17
4714.07032 1.19772e-17
4715.54282 1.18620e-17
4717.00530 1.19398e-17
4718.47780 1.20074e-17
4719.95030 1.20318e-17
4721.42280 1.21091e-17
4722.88528 1.21805e-17
4724.35778 1.21438e-17
4725.83028 1.19637e-17
4727.30278 1.17788e-17
4728.76526 1.17831e-17
4730.23776 1.16755e-17
4731.71026 1.19891e-17
4733.18275 1.19229e-17
4734.64524 1.17921e-17
4736.11774 1.17382e-17
4737.59024 1.17760e-17
4739.06273 1.17231e-17
4740.52522 1.16958e-17
4741.99772 1.18201e-17
4743.47021 1.16913e-17
4744.94271 1.16142e-17
4746.40520 1.15040e-17
4747.87769 1.16289e-17
4749.35019 1.13730e-17
4750.82269 1.14201e-17
4752.28517 1.14427e-17
4753.75767 1.14326e-17
4755.23017 1.14552e-17
4756.69265 1.15234e-17
4758.16515 1.15181e-17
4759.63765 1.13308e-17
4761.11015 1.14234e-17
4762.58265 1.13881e-17
4764.04513 1.13451e-17
4765.51763 1.12225e-17
4766.99013 1.11260e-17
4768.45261 1.11221e-17
4769.92511 1.11170e-17
4771.39761 1.09282e-17
4772.87011 1.08626e-17
4774.33259 1.08236e-17
4775.80509 1.06253e-17
4777.27759 1.05453e-17
4778.75009 1.06135e-17
4780.21257 1.03510e-17
4781.68507 1.00941e-17
4783.15757 1.01021e-17
4784.63007 1.00930e-17
4786.09255 1.00142e-17
4787.56505 9.84250e-18
4789.03755 9.60862e-18
4790.51005 9.53647e-18
4791.97253 9.37058e-18
4793.44503 9.34476e-18
4794.91753 9.13216e-18
4796.39003 8.86760e-18
4797.85251 8.87589e-18
4799.32501 8.83509e-18
4800.79750 8.66186e-18
4802.27000 8.61893e-18
4803.73249 8.55190e-18
4805.20499 8.40231e-18
4806.67748 8.35248e-18
4808.14998 8.30589e-18
4809.61247 8.21862e-18
4811.08496 8.13077e-18
4812.55746 8.10947e-18
4814.02996 8.02417e-18
4815.49244 7.93892e-18
4816.96494 7.87149e-18
4818.43744 8.01136e-18
4819.90994 8.12379e-18
4821.37242 8.08595e-18
4822.84492 8.18272e-18
4824.31742 8.28691e-18
4825.78992 8.17693e-18
4827.25240 8.35791e-18
4828.72490 8.47486e-18
4830.19740 8.44769e-18
4831.66990 8.64334e-18
4833.13238 8.84864e-18
4834.60488 9.01315e-18
4836.07738 9.17360e-18
4837.54988 9.38231e-18
4839.01236 9.48089e-18
4840.48486 9.54089e-18
4841.95736 9.72074e-18
4843.42986 9.96375e-18
4844.89234 9.90921e-18
4846.36484 1.02469e-17
4847.83734 1.05978e-17
4849.30984 1.08461e-17
4850.77232 1.12757e-17
4852.24482 1.12475e-17
4853.71732 1.12193e-17
4855.17980 1.11911e-17
4856.65230 1.11629e-17
4858.12480 1.11346e-17
4859.59730 1.11064e-17
4861.05978 1.10783e-17
4862.53228 1.10501e-17
4864.00478 1.10219e-17
4865.47727 1.09937e-17
4866.93976 1.09656e-17
4868.41226 1.09374e-17
4869.88475 1.09092e-17
4871.35725 1.08811e-17
4872.81974 1.08529e-17
4874.29223 1.08248e-17
4875.76473 1.07966e-17
4877.23723 1.07685e-17
4878.69971 1.07404e-17
4880.17221 1.07122e-17
4881.64471 1.06841e-17
4883.11721 1.06560e-17
4884.57969 1.06279e-17
4886.05219 1.05998e-17
4887.52469 1.05717e-17
4888.99719 1.05436e-17
4890.45967 1.04267e-17
4891.93217 1.01011e-17
4893.40467 9.89515e-18
4894.87717 9.80862e-18
4896.33965 9.57475e-18
4897.81215 9.41567e-18
4899.28465 9.31845e-18
4900.75715 9.23477e-18
4902.21963 9.15776e-18
4903.69213 9.06342e-18
4905.16463 8.98960e-18
4906.63713 8.87699e-18
4908.09961 8.82337e-18
4909.57211 8.79309e-18
4911.04461 8.79942e-18
4912.51711 8.91145e-18
4913.97959 8.92330e-18
4915.45209 8.98320e-18
4916.92459 9.00431e-18
4918.39709 9.05473e-18
4919.85957 9.25688e-18
4921.33207 9.29714e-18
4922.80457 9.28243e-18
4924.27706 9.41576e-18
4925.73955 9.45549e-18
4927.21205 9.53261e-18
4928.68454 9.55121e-18
4930.15704 9.68339e-18
4931.61953 9.96404e-18
4933.09202 1.01061e-17
4934.56452 1.01745e-17
4936.03702 1.02719e-17
4937.49950 1.03928e-17
4938.97200 1.05809e-17
4940.44450 1.08138e-17
4941.91700 1.08061e-17
4943.37948 1.08719e-17
4944.85198 1.10865e-17
4946.32448 1.11398e-17
4947.79698 1.11930e-17
4949.25946 1.14503e-17
4950.73196 1.15569e-17
4952.20446 1.16635e-17
4953.66694 1.17701e-17
4955.13944 1.18767e-17
4956.61194 1.19833e-17
4958.08444 1.20898e-17
4959.54692 1.21963e-17
4961.01942 1.23028e-17
4962.49192 1.24094e-17
4963.96442 1.25158e-17
4965.42690 1.26223e-17
4966.89940 1.27287e-17
4968.37190 1.28352e-17
4969.84440 1.29416e-17
4971.30688 1.30480e-17
4972.77938 1.31544e-17
4974.25188 1.32607e-17
4975.72438 1.33671e-17
4977.18686 1.34734e-17
4978.65936 1.35797e-17
4980.13186 1.36860e-17
4981.60435 1.37923e-17
4983.06684 1.38986e-17
4984.53934 1.40048e-17
4986.01184 1.41110e-17
4987.48433 1.40923e-17
4988.94682 1.42938e-17
4990.41932 1.44644e-17
4991.89181 1.43562e-17
4993.36431 1.43946e-17
4994.82680 1.43030e-17
4996.29929 1.40294e-17
4997.77179 1.38318e-17
4999.24429 1.36342e-17
5000.70677 1.34366e-17
5002.17927 1.32391e-17
5003.65177 1.30416e-17
5005.12427 1.28441e-17
5006.58675 1.26467e-17
5008.05925 1.24493e-17
5009.53175 1.22518e-17
5011.00425 1.20546e-17
5012.46673 1.18572e-17
5013.93923 1.16600e-17
5015.41173 1.14627e-17
5016.88423 1.12655e-17
5018.34671 1.10683e-17
5019.81921 1.08712e-17
5021.29171 1.06741e-17
5022.76421 1.04769e-17
5024.22669 1.02799e-17
5025.69919 1.00829e-17
5027.17169 9.88593e-18
5028.64419 9.68893e-18
5030.10667 9.49202e-18
5031.57917 9.29508e-18
5033.05167 9.09824e-18
5034.52417 8.90143e-18
5035.98665 8.70151e-18
5037.45915 8.54118e-18
5038.93165 8.48494e-18
5040.39413 8.31974e-18
5041.86663 8.00272e-18
5043.33913 7.82790e-18
5044.81163 7.85043e-18
5046.28412 7.71078e-18
5047.74661 7.70257e-18
5049.21911 7.72536e-18
5050.69160 7.62538e-18
5052.15409 7.63066e-18
5053.62658 7.53383e-18
5055.09908 7.50300e-18
5056.57158 7.56341e-18
5058.03406 7.54554e-18
5059.50656 7.59975e-18
5060.97906 7.61096e-18
5062.45156 7.52599e-18
5063.91404 7.53655e-18
5065.38654 7.69379e-18
5066.85904 7.74583e-18
5068.33154 7.82136e-18
5069.79402 7.89274e-18
5071.26652 7.96114e-18
5072.73902 8.07333e-18
5074.21152 8.13519e-18
5075.67400 8.18743e-18
5077.14650 8.33222e-18
5078.61900 8.52504e-18
5080.09150 8.56268e-18
5081.55398 8.63085e-18
5083.02648 8.65408e-18
5084.49898 8.84706e-18
5085.97148 9.13045e-18
5087.43396 9.23094e-18
5088.90646 9.26627e-18
5090.37896 9.28526e-18
5091.85146 9.37036e-18
5093.31394 9.57818e-18
5094.78644 9.74106e-18
5096.25894 9.84994e-18
5097.73144 9.91653e-18
5099.19392 1.00173e-17
5100.66642 1.01879e-17
5102.13892 1.02835e-17
5103.61142 1.02987e-17
5105.07390 1.02217e-17
5106.54640 1.03612e-17
5108.01890 1.06244e-17
5109.49139 1.07424e-17
5110.95388 1.06959e-17
5112.42638 1.06994e-17
5113.89887 1.08586e-17
5115.37137 1.09882e-17
5116.83385 1.11248e-17
5118.30635 1.12130e-17
5119.77885 1.11999e-17
5121.25135 1.12097e-17
5122.71383 1.14518e-17
5124.18633 1.16690e-17
5125.65883 1.17826e-17
5127.13133 1.17081e-17
5128.59381 1.17158e-17
5130.06631 1.17478e-17
5131.53881 1.17549e-17
5133.01131 1.17501e-17
5134.47379 1.18729e-17
5135.94629 1.20461e-17
5137.41879 1.19340e-17
5138.89129 1.19106e-17
5140.35377 1.19012e-17
5141.82627 1.18953e-17
5143.29877 1.19594e-17
5144.76125 1.19506e-17
5146.23375 1.19432e-17
5147.70625 1.19317e-17
5149.17875 1.19249e-17
5150.64123 1.19855e-17
5152.11373 1.20607e-17
5153.58623 1.22102e-17
5155.05873 1.22550e-17
5156.52121 1.23023e-17
5157.99371 1.23370e-17
5159.46621 1.23427e-17
5160.93871 1.23527e-17
5162.40119 1.23681e-17
5163.87369 1.24195e-17
5165.34619 1.24198e-17
5166.81869 1.24141e-17
5168.28117 1.23336e-17
5169.75367 1.24460e-17
5171.22617 1.25683e-17
5172.69866 1.24388e-17
5174.16115 1.24287e-17
5175.63365 1.24586e-17
5177.10614 1.23386e-17
5178.57864 1.23118e-17
5180.04112 1.23006e-17
5181.51362 1.23449e-17
5182.98612 1.23764e-17
5184.45862 1.23273e-17
5185.92110 1.21952e-17
5187.39360 1.21055e-17
5188.86610 1.20696e-17
5190.33860 1.21511e-17
5191.80108 1.21877e-17
5193.27358 1.20977e-17
5194.74608 1.20665e-17
5196.21858 1.20942e-17
5197.68106 1.21362e-17
5199.15356 1.21011e-17
5200.62606 1.21429e-17
5202.09856 1.21996e-17
5203.56104 1.21235e-17
5205.03354 1.21291e-17
5206.50604 1.21029e-17
5207.97854 1.20314e-17
5209.44102 1.20962e-17
5210.91352 1.21234e-17
5212.38602 1.19872e-17
5213.85852 1.20662e-17
5215.32100 1.21241e-17
5216.79350 1.21232e-17
5218.26600 1.22626e-17
5219.73850 1.22804e-17
5221.20098 1.22111e-17
5222.67348 1.23039e-17
5224.14598 1.22273e-17
5225.61848 1.22522e-17
5227.08096 1.23931e-17
5228.55346 1.24178e-17
5230.02596 1.25483e-17
5231.48844 1.27349e-17
5232.96094 1.27939e-17
5234.43343 1.28238e-17
5235.90593 1.29970e-17
5237.36842 1.32899e-17
5238.84091 1.32994e-17
5240.31341 1.33274e-17
5241.78591 1.34650e-17
5243.24840 1.34230e-17
5244.72089 1.35518e-17
5246.19339 1.37016e-17
5247.66589 1.37311e-17
5249.12837 1.37390e-17
5250.60087 1.37510e-17
5252.07337 1.38374e-17
5253.54587 1.39472e-17
5255.00835 1.40407e-17
5256.48085 1.41045e-17
5257.95335 1.42670e-17
5259.42585 1.43195e-17
5260.88833 1.42763e-17
5262.36083 1.42230e-17
5263.83333 1.43779e-17
5265.30583 1.45295e-17
5266.76831 1.45784e-17
5268.24081 1.46868e-17
5269.71331 1.46967e-17
5271.18581 1.46124e-17
5272.64829 1.46920e-17
5274.12079 1.47309e-17
5275.59329 1.46447e-17
5277.06579 1.46151e-17
5278.52827 1.45815e-17
5280.00077 1.46235e-17
5281.47327 1.46706e-17
5282.94577 1.46352e-17
5284.40825 1.46600e-17
5285.88075 1.47977e-17
5287.35325 1.48702e-17
5288.82575 1.48720e-17
5290.28823 1.48901e-17
5291.76073 1.49264e-17
5293.23322 1.50016e-17
5294.70572 1.50135e-17
5296.16821 1.50254e-17
5297.64070 1.51651e-17
5299.11320 1.53443e-17
5300.58570 1.54006e-17
5302.04819 1.55394e-17
5303.52068 1.57301e-17
5304.99318 1.57575e-17
5306.46568 1.58308e-17
5307.92816 1.59288e-17
5309.40066 1.60848e-17
5310.87316 1.62918e-17
5312.34566 1.63575e-17
5313.80814 1.62536e-17
5315.28064 1.62496e-17
5316.75314 1.64382e-17
5318.22564 1.65553e-17
5319.68812 1.67193e-17
5321.16062 1.68118e-17
5322.63312 1.67317e-17
5324.09560 1.66492e-17
5325.56810 1.66263e-17
5327.04060 1.66903e-17
5328.51310 1.66524e-17
5329.98560 1.65761e-17
5331.44808 1.66146e-17
5332.92058 1.66279e-17
5334.39308 1.66494e-17
5335.85556 1.66770e-17
5337.32806 1.66040e-17
5338.80056 1.64846e-17
5340.27306 1.64882e-17
5341.73554 1.65826e-17
5343.20804 1.64592e-17
5344.68054 1.65174e-17
5346.15304 1.65899e-17
5347.61552 1.64847e-17
5349.08802 1.64605e-17
5350.56052 1.65789e-17
5352.03301 1.68039e-17
5353.49550 1.67797e-17
5354.96800 1.67191e-17
5356.44050 1.68254e-17
5357.91299 1.68784e-17
5359.37548 1.68576e-17
5360.84798 1.68964e-17
5362.32047 1.69762e-17
5363.79297 1.70405e-17
5365.25545 1.69903e-17
5366.72795 1.69175e-17
5368.20045 1.71238e-17
5369.67295 1.72540e-17
5371.13543 1.72600e-17
5372.60793 1.73050e-17
5374.08043 1.72831e-17
5375.55293 1.72169e-17
5377.01541 1.72356e-17
5378.48791 1.72530e-17
5379.96041 1.72497e-17
5381.43291 1.73104e-17
5382.89539 1.72555e-17
5384.36789 1.70950e-17
5385.84039 1.70555e-17
5387.31289 1.70836e-17
5388.77537 1.69103e-17
5390.24787 1.66264e-17
5391.72037 1.66773e-17
5393.19287 1.66763e-17
5394.65535 1.65118e-17
5396.12785 1.63251e-17
5397.60035 1.61102e-17
5399.07285 1.59677e-17
5400.53533 1.60204e-17
5402.00783 1.58941e-17
5403.48033 1.56128e-17
5404.95283 1.54313e-17
5406.41531 1.53081e-17
5407.88781 1.51795e-17
5409.36031 1.50616e-17
5410.83281 1.50552e-17
5412.29529 1.49523e-17
5413.76779 1.46997e-17
5415.24029 1.45637e-17
5416.71278 1.44728e-17
5418.17527 1.42375e-17
5419.64776 1.40415e-17
5421.12026 1.39993e-17
5422.59276 1.39926e-17
5424.05525 1.39665e-17
5425.52774 1.39605e-17
5427.00024 1.39190e-17
5428.46273 1.38318e-17
5429.93522 1.37213e-17
5431.40772 1.36764e-17
5432.88022 1.36963e-17
5434.34270 1.36172e-17
5435.81520 1.36482e-17
5437.28770 1.36559e-17
5438.76020 1.37490e-17
5440.22268 1.37867e-17
5441.69518 1.37217e-17
5443.16768 1.38786e-17
5444.64018 1.40711e-17
5446.10266 1.41490e-17
5447.57516 1.42242e-17
5449.04766 1.42541e-17
5450.52016 1.44150e-17
5451.98264 1.46225e-17
5453.45514 1.45800e-17
5454.92764 1.46551e-17
5456.40014 1.47806e-17
5457.86262 1.49976e-17
5459.33512 1.54137e-17
5460.80762 1.54618e-17
5462.28012 1.54491e-17
5463.74260 1.57209e-17
5465.21510 1.59508e-17
5466.68760 1.61468e-17
5468.16010 1.62701e-17
5469.62258 1.64862e-17
5471.09508 1.66501e-17
5472.56758 1.67575e-17
5474.04007 1.69461e-17
5475.50256 1.71046e-17
5476.97506 1.74034e-17
5478.44755 1.76134e-17
5479.92005 1.75829e-17
5481.38254 1.77021e-17
5482.85504 1.78651e-17
5484.32753 1.80533e-17
5485.80003 1.81243e-17
5487.26252 1.82093e-17
5488.73501 1.82629e-17
5490.20751 1.82349e-17
5491.68001 1.85440e-17
5493.14249 1.86303e-17
5494.61499 1.85198e-17
5496.08749 1.86925e-17
5497.55999 1.88251e-17
5499.02247 1.87825e-17
5500.49497 1.87321e-17
5501.96747 1.88227e-17
5503.43997 1.88256e-17
5504.90245 1.86958e-17
5506.37495 1.86067e-17
5507.84745 1.86324e-17
5509.31995 1.87342e-17
5510.78243 1.86427e-17
5512.25493 1.85280e-17
5513.72743 1.84998e-17
5515.18991 1.82468e-17
5516.66241 1.79051e-17
5518.13491 1.79320e-17
5519.60741 1.80154e-17
5521.07991 1.78459e-17
5522.54239 1.77441e-17
5524.01489 1.75623e-17
5525.48739 1.74419e-17
5526.94987 1.74176e-17
5528.42237 1.72637e-17
5529.89487 1.70529e-17
5531.36737 1.68209e-17
5532.82985 1.66798e-17
5534.30235 1.66467e-17
5535.77485 1.65179e-17
5537.24735 1.62705e-17
5538.70983 1.62021e-17
5540.18233 1.59864e-17
5541.65483 1.57082e-17
5543.12732 1.55808e-17
5544.58981 1.53994e-17
5546.06230 1.52008e-17
5547.53480 1.49897e-17
5549.00730 1.48702e-17
5550.46979 1.46587e-17
5551.94228 1.44701e-17
5553.41478 1.44499e-17
5554.88728 1.43235e-17
5556.34976 1.41218e-17
5557.82226 1.38587e-17
5559.29476 1.36475e-17
5560.76726 1.37279e-17
5562.22974 1.37145e-17
5563.70224 1.35559e-17
5565.17474 1.35850e-17
5566.64724 1.35893e-17
5568.10972 1.36501e-17
5569.58222 1.36933e-17
5571.05472 1.35576e-17
5572.52722 1.35504e-17
5573.98970 1.36507e-17
5575.46220 1.37198e-17
5576.93470 1.36689e-17
5578.40720 1.37844e-17
5579.86968 1.40162e-17
5581.34218 1.39685e-17
5582.81468 1.40524e-17
5584.28718 1.42444e-17
5585.74966 1.42643e-17
5587.22216 1.41744e-17
5588.69466 1.41195e-17
5590.16716 1.42712e-17
5591.62964 1.44148e-17
5593.10214 1.45062e-17
5594.57464 1.46372e-17
5596.04714 1.47152e-17
5597.50962 1.47378e-17
5598.98212 1.49156e-17
5600.45461 1.51820e-17
5601.92711 1.51872e-17
5603.38960 1.51965e-17
5604.86210 1.53623e-17
5606.33459 1.55658e-17
5607.80709 1.56782e-17
5609.26958 1.56700e-17
5610.74207 1.58163e-17
5612.21457 1.59251e-17
5613.68707 1.59292e-17
5615.14955 1.60067e-17
5616.62205 1.61911e-17
5618.09455 1.63615e-17
5619.55703 1.63490e-17
5621.02953 1.63759e-17
5622.50203 1.64905e-17
5623.97453 1.65610e-17
5625.43701 1.66130e-17
5626.90951 1.66387e-17
5628.38201 1.67254e-17
5629.85451 1.67269e-17
5631.31699 1.67701e-17
5632.78949 1.69185e-17
5634.26199 1.68857e-17
5635.73449 1.69078e-17
5637.19697 1.69724e-17
5638.66947 1.69593e-17
5640.14197 1.69231e-17
5641.61447 1.69954e-17
5643.07695 1.70796e-17
5644.54945 1.70099e-17
5646.02195 1.69266e-17
5647.49445 1.69652e-17
5648.95693 1.70471e-17
5650.42943 1.70434e-17
5651.90193 1.69313e-17
5653.37443 1.67385e-17
5654.83691 1.67148e-17
5656.30941 1.67407e-17
5657.78191 1.67294e-17
5659.25440 1.66890e-17
5660.71689 1.64469e-17
5662.18939 1.63350e-17
5663.66189 1.64366e-17
5665.13438 1.64665e-17
5666.59687 1.63874e-17
5668.06937 1.62729e-17
5669.54186 1.59826e-17
5671.01436 1.57590e-17
5672.47685 1.58398e-17
5673.94934 1.58236e-17
5675.42184 1.57036e-17
5676.89434 1.56142e-17
5678.35682 1.54370e-17
5679.82932 1.52905e-17
5681.30182 1.51624e-17
5682.77432 1.50496e-17
5684.23680 1.49986e-17
5685.70930 1.48827e-17
5687.18180 1.45923e-17
5688.65430 1.43848e-17
5690.11678 1.44290e-17
5691.58928 1.44215e-17
5693.06178 1.42917e-17
5694.53428 1.41864e-17
5695.99676 1.39965e-17
5697.46926 1.38665e-17
5698.94176 1.37502e-17
5700.41426 1.35536e-17
5701.87674 1.33758e-17
5703.34924 1.33069e-17
5704.82174 1.31939e-17
5706.28422 1.29953e-17
5707.75672 1.28477e-17
5709.22922 1.28080e-17
5710.70172 1.26278e-17
5712.16420 1.25133e-17
5713.63670 1.24603e-17
5715.10920 1.22505e-17
5716.58170 1.21444e-17
5718.05420 1.22379e-17
5719.51668 1.20646e-17
5720.98918 1.17650e-17
5722.46168 1.16631e-17
5723.92416 1.16684e-17
5725.39666 1.16211e-17
5726.86915 1.13638e-17
5728.34165 1.13084e-17
5729.80414 1.13436e-17
5731.27664 1.12550e-17
5732.74913 1.10977e-17
5734.22163 1.09466e-17
5735.68412 1.08598e-17
5737.15661 1.06964e-17
5738.62911 1.04833e-17
5740.10161 1.04757e-17
5741.56409 1.05015e-17
5743.03659 1.03782e-17
5744.50909 1.01271e-17
5745.98159 9.93702e-18
5747.44407 9.83630e-18
5748.91657 9.82797e-18
5750.38907 9.84665e-18
5751.86157 9.71510e-18
5753.32405 9.67429e-18
5754.79655 9.58058e-18
5756.26905 9.41704e-18
5757.74155 9.45722e-18
5759.20403 9.45735e-18
5760.67653 9.43096e-18
5762.14903 9.37433e-18
5763.62153 9.26985e-18
5765.08401 9.31763e-18
5766.55651 9.26141e-18
5768.02901 9.16255e-18
5769.50151 9.19327e-18
5770.96399 9.17626e-18
5772.43649 9.17699e-18
5773.90899 9.07372e-18
5775.38149 9.03512e-18
5776.84397 9.12503e-18
5778.31647 9.06513e-18
5779.78897 8.99544e-18
5781.26146 9.05801e-18
5782.72395 9.24236e-18
5784.19645 9.31186e-18
5785.66895 9.36360e-18
5787.14144 9.49756e-18
5788.60393 9.67834e-18
5790.07643 9.80281e-18
5791.54892 9.86438e-18
5793.02142 9.99932e-18
5794.48391 1.01138e-17
5795.95640 1.02136e-17
5797.42890 1.05306e-17
5798.90140 1.07691e-17
5800.36388 1.08214e-17
5801.83638 1.09842e-17
5803.30888 1.12260e-17
5804.78138 1.15051e-17
5806.24386 1.17640e-17
5807.71636 1.19360e-17
5809.18886 1.20874e-17
5810.65134 1.22842e-17
5812.12384 1.25756e-17
5813.59634 1.29105e-17
5815.06884 1.31272e-17
5816.53132 1.33704e-17
5818.00382 1.36056e-17
5819.47632 1.37049e-17
5820.94882 1.39693e-17
5822.41130 1.42062e-17
5823.88380 1.42894e-17
5825.35630 1.44993e-17
5826.82880 1.46509e-17
5828.29128 1.47974e-17
5829.76378 1.50473e-17
5831.23628 1.52082e-17
5832.70878 1.52507e-17
5834.17126 1.53035e-17
5835.64376 1.53766e-17
5837.11626 1.53413e-17
5838.58876 1.54171e-17
5840.05124 1.56490e-17
5841.52374 1.57906e-17
5842.99624 1.58944e-17
5844.46874 1.58470e-17
5845.93122 1.58416e-17
5847.40372 1.60745e-17
5848.87622 1.61810e-17
5850.34871 1.62761e-17
5851.81120 1.62778e-17
5853.28370 1.62745e-17
5854.75619 1.65202e-17
5856.22869 1.66051e-17
5857.69117 1.65137e-17
5859.16367 1.64768e-17
5860.63617 1.64674e-17
5862.10867 1.64607e-17
5863.57115 1.65328e-17
5865.04365 1.64911e-17
5866.51615 1.64387e-17
5867.98865 1.64391e-17
5869.45113 1.65048e-17
5870.92363 1.66231e-17
5872.39613 1.65560e-17
5873.86863 1.64917e-17
5875.33111 1.65232e-17
5876.80361 1.63489e-17
5878.27611 1.61813e-17
5879.74861 1.62693e-17
5881.21109 1.63248e-17
5882.68359 1.62977e-17
5884.15609 1.61457e-17
5885.62859 1.58134e-17
5887.09107 1.53926e-17
5888.56357 1.49516e-17
5890.03607 1.47466e-17
5891.50857 1.47510e-17
5892.97105 1.48362e-17
5894.44355 1.49049e-17
5895.91605 1.47732e-17
5897.38855 1.44919e-17
5898.85103 1.44576e-17
5900.32353 1.46230e-17
5901.79603 1.47732e-17
5903.25851 1.51298e-17
5904.73101 1.53171e-17
5906.20351 1.53239e-17
5907.67601 1.52079e-17
5909.13849 1.51975e-17
5910.61099 1.53174e-17
5912.08349 1.54692e-17
5913.55598 1.55270e-17
5915.01847 1.54846e-17
5916.49096 1.54449e-17
5917.96346 1.53051e-17
5919.43596 1.52434e-17
5920.89845 1.52980e-17
5922.37094 1.53478e-17
5923.84344 1.55244e-17
5925.31594 1.56840e-17
5926.77842 1.57804e-17
5928.25092 1.57420e-17
5929.72342 1.57453e-17
5931.19592 1.58550e-17
5932.65840 1.58507e-17
5934.13090 1.58505e-17
5935.60340 1.59015e-17
5937.07590 1.59730e-17
5938.53838 1.58779e-17
5940.01088 1.56643e-17
5941.48338 1.55859e-17
5942.95588 1.55653e-17
5944.41836 1.55190e-17
5945.89086 1.53740e-17
5947.36336 1.53882e-17
5948.83586 1.55959e-17
5950.29834 1.56867e-17
5951.77084 1.56232e-17
5953.24334 1.57319e-17
5954.71584 1.57951e-17
5956.17832 1.55649e-17
5957.65082 1.54764e-17
5959.12332 1.55015e-17
5960.59582 1.55370e-17
5962.05830 1.56140e-17
5963.53080 1.57039e-17
5965.00330 1.55948e-17
5966.47580 1.54346e-17
5967.93828 1.53979e-17
5969.41078 1.54309e-17
5970.88328 1.55039e-17
5972.35577 1.56319e-17
5973.81826 1.57107e-17
5975.29075 1.55810e-17
5976.76325 1.53205e-17
5978.23575 1.53928e-17
5979.69824 1.54539e-17
5981.17073 1.54237e-17
5982.64323 1.53766e-17
5984.11573 1.52809e-17
5985.57821 1.52225e-17
5987.05071 1.52900e-17
5988.52321 1.51624e-17
5989.99571 1.50780e-17
5991.45819 1.50690e-17
5992.93069 1.49298e-17
5994.40319 1.49605e-17
5995.86567 1.48624e-17
5997.33817 1.46883e-17
5998.81067 1.46870e-17
6000.28317 1.47112e-17
6001.74565 1.45626e-17
6003.21815 1.44653e-17
6004.69065 1.45884e-17
6006.16315 1.45785e-17
6007.62563 1.44599e-17
6009.09813 1.44621e-17
6010.57063 1.44574e-17
6012.04313 1.44438e-17
6013.50561 1.43660e-17
6014.97811 1.41958e-17
6016.45061 1.41772e-17
6017.92311 1.42210e-17
6019.38559 1.40780e-17
6020.85809 1.39850e-17
6022.33059 1.40088e-17
6023.80309 1.40191e-17
6025.26557 1.39963e-17
6026.73807 1.39977e-17
6028.21057 1.39979e-17
6029.68307 1.38595e-17
6031.14555 1.37510e-17
6032.61805 1.37603e-17
6034.09055 1.37908e-17
6035.56304 1.37525e-17
6037.02553 1.37088e-17
6038.49802 1.37758e-17
6039.97052 1.38018e-17
6041.44302 1.37599e-17
6042.90550 1.36397e-17
6044.37800 1.34301e-17
6045.85050 1.33333e-17
6047.32300 1.33865e-17
6048.78548 1.34252e-17
6050.25798 1.33614e-17
6051.73048 1.32096e-17
6053.20298 1.31252e-17
6054.66546 1.31225e-17
6056.13796 1.30144e-17
6057.61046 1.29100e-17
6059.08296 1.28588e-17
6060.54544 1.27577e-17
6062.01794 1.26855e-17
6063.49044 1.28033e-17
6064.96294 1.28226e-17
6066.42542 1.27981e-17
6067.89792 1.30345e-17
6069.37042 1.30871e-17
6070.84292 1.30898e-17
6072.30540 1.32080e-17
6073.77790 1.31811e-17
6075.25040 1.31505e-17
6076.72290 1.33912e-17
6078.18538 1.35427e-17
6079.65788 1.35759e-17
6081.13038 1.36682e-17
6082.59286 1.38457e-17
6084.06536 1.39050e-17
6085.53786 1.38279e-17
6087.01036 1.37618e-17
6088.48286 1.39177e-17
6089.94534 1.39302e-17
6091.41784 1.38605e-17
6092.89034 1.39965e-17
6094.36283 1.40305e-17
6095.82532 1.39907e-17
6097.29781 1.40520e-17
6098.77031 1.40718e-17
6100.23280 1.39844e-17
6101.70530 1.39241e-17
6103.17779 1.39680e-17
6104.65029 1.39460e-17
6106.11278 1.39998e-17
6107.58527 1.41787e-17
6109.05777 1.39428e-17
6110.53027 1.37477e-17
6111.99275 1.39491e-17
6113.46525 1.40475e-17
6114.93775 1.38274e-17
6116.41025 1.37511e-17
6117.87273 1.37853e-17
6119.34523 1.38805e-17
6120.81773 1.37409e-17
6122.29023 1.34860e-17
6123.75271 1.34557e-17
6125.22521 1.35268e-17
6126.69771 1.35569e-17
6128.17021 1.34341e-17
6129.63269 1.32717e-17
6131.10519 1.31812e-17
6132.57769 1.32171e-17
6134.05019 1.30655e-17
6135.51267 1.29454e-17
6136.98517 1.29454e-17
6138.45767 1.28731e-17
6139.93017 1.27667e-17
6141.39265 1.28197e-17
6142.86515 1.27987e-17
6144.33765 1.27720e-17
6145.81015 1.27297e-17
6147.27263 1.25375e-17
6148.74513 1.24925e-17
6150.21763 1.25450e-17
6151.69013 1.25644e-17
6153.15261 1.25060e-17
6154.62511 1.25060e-17
6156.09760 1.26149e-17
6157.57010 1.27383e-17
6159.03259 1.27223e-17
6160.50509 1.27644e-17
6161.97758 1.28641e-17
6163.45008 1.29154e-17
6164.91256 1.29628e-17
6166.38506 1.31087e-17
6167.85756 1.32301e-17
6169.32005 1.31445e-17
6170.79254 1.32606e-17
6172.26504 1.35329e-17
6173.73754 1.37250e-17
6175.21004 1.37384e-17
6176.67252 1.36712e-17
6178.14502 1.38570e-17
6179.61752 1.39104e-17
6181.09002 1.39747e-17
6182.55250 1.40588e-17
6184.02500 1.40977e-17
6185.49750 1.42526e-17
6186.95998 1.43572e-17
6188.43248 1.43445e-17
6189.90498 1.44267e-17
6191.37748 1.45441e-17
6192.83996 1.46441e-17
6194.31246 1.46987e-17
6195.78496 1.46001e-17
6197.25746 1.46019e-17
6198.71994 1.48889e-17
6200.19244 1.50737e-17
6201.66494 1.49890e-17
6203.13744 1.48322e-17
6204.59992 1.47932e-17
6206.07242 1.49193e-17
6207.54492 1.50500e-17
6209.01742 1.50465e-17
6210.47990 1.51593e-17
6211.95240 1.50724e-17
6213.42490 1.51744e-17
6214.89740 1.53417e-17
6216.35988 1.52662e-17
6217.83238 1.51250e-17
6219.30487 1.51089e-17
6220.77737 1.51461e-17
6222.23986 1.51377e-17
6223.71235 1.50800e-17
6225.18485 1.50601e-17
6226.65735 1.50662e-17
6228.11984 1.49874e-17
6229.59233 1.50191e-17
6231.06483 1.50346e-17
6232.53733 1.48209e-17
6233.99981 1.47873e-17
6235.47231 1.48734e-17
6236.94481 1.47435e-17
6238.41731 1.47184e-17
6239.87979 1.47872e-17
6241.35229 1.45805e-17
6242.82479 1.44184e-17
6244.29729 1.44456e-17
6245.75977 1.43338e-17
6247.23227 1.41772e-17
6248.70477 1.39930e-17
6250.17727 1.39809e-17
6251.63975 1.41807e-17
6253.11225 1.43653e-17
6254.58475 1.42311e-17
6256.05725 1.38577e-17
6257.51973 1.37756e-17
6258.99223 1.38898e-17
6260.46473 1.38827e-17
6261.93723 1.38538e-17
6263.39971 1.37958e-17
6264.87221 1.37257e-17
6266.34471 1.37283e-17
6267.81721 1.37641e-17
6269.27969 1.35649e-17
6270.75219 1.35016e-17
6272.22469 1.35780e-17
6273.68717 1.35254e-17
6275.15967 1.35042e-17
6276.63217 1.35914e-17
6278.10466 1.34888e-17
6279.56715 1.33330e-17
6281.03965 1.32384e-17
6282.51215 1.30020e-17
6283.98464 1.30273e-17
6285.45714 1.31532e-17
6286.91963 1.33859e-17
6288.39212 1.33645e-17
6289.86462 1.32733e-17
6291.32711 1.34140e-17
6292.79960 1.33994e-17
6294.27210 1.33603e-17
6295.74460 1.34785e-17
6297.20708 1.35863e-17
6298.67958 1.34609e-17
6300.15208 1.31888e-17
6301.62458 1.31928e-17
6303.08706 1.31803e-17
6304.55956 1.30833e-17
6306.03206 1.31032e-17
6307.50456 1.31973e-17
6308.96704 1.32610e-17
6310.43954 1.33965e-17
6311.91204 1.33628e-17
6313.38454 1.32348e-17
6314.84702 1.30428e-17
6316.31952 1.30027e-17
6317.79202 1.29826e-17
6319.26452 1.30396e-17
6320.72700 1.30066e-17
6322.19950 1.27641e-17
6323.67200 1.26222e-17
6325.14450 1.25882e-17
6326.60698 1.25873e-17
6328.07948 1.24904e-17
6329.55198 1.26041e-17
6331.02448 1.27144e-17
6332.48696 1.27365e-17
6333.95946 1.26527e-17
6335.43196 1.26926e-17
6336.90445 1.25364e-17
6338.36694 1.23728e-17
6339.83944 1.24055e-17
6341.31194 1.24382e-17
6342.78443 1.24322e-17
6344.24692 1.23304e-17
6345.71942 1.21212e-17
6347.19191 1.21155e-17
6348.66441 1.20529e-17
6350.12690 1.19683e-17
6351.59939 1.20849e-17
6353.07189 1.20004e-17
6354.54439 1.18554e-17
6356.00687 1.18580e-17
6357.47937 1.18545e-17
6358.95187 1.18717e-17
6360.41435 1.19712e-17
6361.88685 1.19649e-17
6363.35935 1.18062e-17
6364.83185 1.18289e-17
6366.30435 1.19029e-17
6367.76683 1.21734e-17
6369.23933 1.23479e-17
6370.71183 1.23226e-17
6372.18433 1.24496e-17
6373.64681 1.24610e-17
6375.11931 1.24642e-17
6376.59181 1.26005e-17
6378.05429 1.26709e-17
6379.52679 1.28210e-17
6380.99929 1.28659e-17
6382.47179 1.28863e-17
6383.93427 1.30633e-17
6385.40677 1.31303e-17
6386.87927 1.31198e-17
6388.35177 1.31599e-17
6389.81425 1.32101e-17
6391.28675 1.32990e-17
6392.75925 1.32617e-17
6394.23175 1.33269e-17
6395.69423 1.33698e-17
6397.16673 1.33531e-17
6398.63923 1.33437e-17
6400.11173 1.33209e-17
6401.57421 1.34310e-17
6403.04671 1.34847e-17
6404.51920 1.34528e-17
6405.99170 1.34908e-17
6407.45419 1.34988e-17
6408.92669 1.34369e-17
6410.39918 1.33858e-17
6411.87168 1.34450e-17
6413.33417 1.35031e-17
6414.80666 1.35862e-17
6416.27916 1.37081e-17
6417.75166 1.36715e-17
6419.21414 1.35281e-17
6420.68664 1.35026e-17
6422.15914 1.37032e-17
6423.63164 1.37844e-17
6425.09412 1.38247e-17
6426.56662 1.38953e-17
6428.03912 1.37971e-17
6429.51162 1.38444e-17
6430.97410 1.38270e-17
6432.44660 1.37489e-17
6433.91910 1.38736e-17
6435.39160 1.40362e-17
6436.85408 1.41825e-17
6438.32658 1.42471e-17
6439.79908 1.42473e-17
6441.27158 1.43071e-17
6442.73406 1.42844e-17
6444.20656 1.42480e-17
6445.67906 1.43748e-17
6447.15156 1.42257e-17
6448.61404 1.41614e-17
6450.08654 1.43638e-17
6451.55904 1.43724e-17
6453.03154 1.42278e-17
6454.49402 1.42320e-17
6455.96652 1.42419e-17
6457.43902 1.42173e-17
6458.91151 1.41796e-17
6460.37400 1.41358e-17
6461.84650 1.40273e-17
6463.31900 1.38273e-17
6464.78148 1.38462e-17
6466.25398 1.38577e-17
6467.72648 1.38281e-17
6469.19897 1.38394e-17
6470.67147 1.37182e-17
6472.13396 1.36808e-17
6473.60645 1.36742e-17
6475.07895 1.34923e-17
6476.55145 1.35310e-17
6478.01393 1.35518e-17
6479.48643 1.35284e-17
6480.95893 1.34426e-17
6482.42141 1.35861e-17
6483.89391 1.34927e-17
6485.36641 1.34821e-17
6486.83891 1.36244e-17
6488.30139 1.35192e-17
6489.77389 1.35398e-17
6491.24639 1.34356e-17
6492.71889 1.33648e-17
6494.18137 1.33702e-17
6495.65387 1.32758e-17
6497.12637 1.33945e-17
6498.59887 1.36064e-17
6500.06135 1.36169e-17
6501.53385 1.37003e-17
6503.00635 1.36592e-17
6504.47885 1.35911e-17
6505.94133 1.35133e-17
6507.41383 1.35927e-17
6508.88633 1.37400e-17
6510.35883 1.36848e-17
6511.82131 1.37068e-17
6513.29381 1.36689e-17
6514.76631 1.36105e-17
6516.23881 1.34583e-17
6517.70129 1.34429e-17
6519.17379 1.35370e-17
6520.64629 1.37231e-17
6522.11879 1.39174e-17
6523.58127 1.40475e-17
6525.05377 1.37145e-17
6526.52627 1.39906e-17
6527.99876 1.41709e-17
6529.46125 1.40722e-17
6530.93375 1.40690e-17
6532.40624 1.41530e-17
6533.87874 1.40880e-17
6535.34123 1.41176e-17
6536.81372 1.41798e-17
6538.28622 1.42959e-17
6539.75872 1.41548e-17
6541.22120 1.41547e-17
6542.69370 1.41903e-17
6544.16620 1.41770e-17
6545.63870 1.41637e-17
6547.10118 1.41505e-17
6548.57368 1.41372e-17
6550.04618 1.41239e-17
6551.51868 1.41107e-17
6552.98116 1.40974e-17
6554.45366 1.40841e-17
6555.92616 1.40709e-17
6557.39866 1.40576e-17
6558.86114 1.40444e-17
6560.33364 1.40311e-17
6561.80614 1.40178e-17
6563.27864 1.40046e-17
6564.74112 1.39913e-17
6566.21362 1.39781e-17
6567.68612 1.39648e-17
6569.14860 1.39516e-17
6570.62110 1.39383e-17
6572.09360 1.39251e-17
6573.56610 1.39118e-17
6575.02858 1.38986e-17
6576.50108 1.38853e-17
6577.97358 1.38721e-17
6579.44608 1.38588e-17
6580.90856 1.38456e-17
6582.38106 1.38323e-17
6583.85356 1.38191e-17
6585.32605 1.38058e-17
6586.78854 1.37926e-17
6588.26104 1.37794e-17
6589.73354 1.37661e-17
6591.20603 1.37529e-17
6592.66852 1.37397e-17
6594.14102 1.37264e-17
6595.61351 1.37132e-17
6597.08601 1.37000e-17
6598.54850 1.36867e-17
6600.02099 1.36735e-17
6601.49349 1.36603e-17
6602.96599 1.36470e-17
6604.42847 1.36338e-17
6605.90097 1.38343e-17
6607.37347 1.37253e-17
6608.84597 1.35840e-17
6610.30845 1.34280e-17
6611.78095 1.34990e-17
6613.25345 1.35474e-17
6614.72595 1.35572e-17
6616.18843 1.35302e-17
6617.66093 1.35800e-17
6619.13343 1.36190e-17
6620.60593 1.36234e-17
6622.06841 1.36465e-17
6623.54091 1.35429e-17
6625.01341 1.34379e-17
6626.48591 1.34738e-17
6627.94839 1.35873e-17
6629.42089 1.35633e-17
6630.89339 1.35943e-17
6632.36589 1.35497e-17
6633.82837 1.33772e-17
6635.30087 1.32629e-17
6636.77337 1.33117e-17
6638.24587 1.35005e-17
6639.70835 1.33863e-17
6641.18085 1.33722e-17
6642.65335 1.33428e-17
6644.12585 1.32616e-17
6645.58833 1.33869e-17
6647.06083 1.32799e-17
6648.53333 1.33347e-17
6650.00582 1.34706e-17
6651.46831 1.34044e-17
6652.94081 1.33289e-17
6654.41330 1.33175e-17
6655.87579 1.32089e-17
6657.34829 1.31724e-17
6658.82078 1.32265e-17
6660.29328 1.31896e-17
6661.76578 1.31867e-17
6663.22826 1.32034e-17
6664.70076 1.30536e-17
6666.17326 1.29653e-17
6667.63574 1.30253e-17
6669.10824 1.31513e-17
6670.58074 1.29317e-17
6672.05324 1.28083e-17
6673.51572 1.30585e-17
6674.98822 1.31023e-17
6676.46072 1.29104e-17
6677.93322 1.29247e-17
6679.39570 1.27743e-17
6680.86820 1.27831e-17
6682.34070 1.29079e-17
6683.81320 1.27869e-17
6685.27568 1.27385e-17
6686.74818 1.27037e-17
6688.22068 1.26568e-17
6689.69318 1.27278e-17
6691.15566 1.26239e-17
6692.62816 1.25128e-17
6694.10066 1.25058e-17
6695.57316 1.23181e-17
6697.03564 1.25082e-17
6698.50814 1.24274e-17
6699.98064 1.23324e-17
6701.45314 1.22440e-17
6702.91562 1.23366e-17
6704.38812 1.22130e-17
6705.86062 1.19741e-17
6707.33312 1.18908e-17
6708.79560 1.18787e-17
6710.26810 1.18061e-17
6711.74060 1.19226e-17
6713.21309 1.19160e-17
6714.67558 1.17591e-17
6716.14808 1.18130e-17
6717.62057 1.18155e-17
6719.09307 1.19497e-17
6720.55555 1.18253e-17
6722.02805 1.19384e-17
6723.50055 1.21902e-17
6724.97305 1.22348e-17
6726.43553 1.22380e-17
6727.90803 1.23048e-17
6729.38053 1.24138e-17
6730.85303 1.23197e-17
6732.31551 1.21372e-17
6733.78801 1.20412e-17
6735.26051 1.19163e-17
6736.73301 1.19729e-17
6738.19549 1.19622e-17
6739.66799 1.22708e-17
6741.14049 1.22771e-17
6742.61299 1.22590e-17
6744.07547 1.21287e-17
6745.54797 1.18635e-17
6747.02047 1.19143e-17
6748.49297 1.19743e-17
6749.95545 1.20439e-17
6751.42795 1.21936e-17
6752.90045 1.21746e-17
6754.36293 1.20510e-17
6755.83543 1.20705e-17
6757.30793 1.21139e-17
6758.78043 1.21475e-17
6760.24291 1.22159e-17
6761.71541 1.20888e-17
6763.18791 1.20238e-17
6764.66041 1.21214e-17
6766.13290 1.22146e-17
6767.59539 1.22909e-17
6769.06789 1.21510e-17
6770.54039 1.22553e-17
6772.00287 1.22139e-17
6773.47537 1.22527e-17
6774.94787 1.23126e-17
6776.42036 1.21321e-17
6777.88285 1.21970e-17
6779.35535 1.22006e-17
6780.82784 1.24002e-17
6782.30034 1.22934e-17
6783.76282 1.21260e-17
6785.23532 1.21224e-17
6786.70782 1.21297e-17
6788.18032 1.20959e-17
6789.64280 1.20631e-17
6791.11530 1.21527e-17
6792.58780 1.20229e-17
6794.06030 1.19476e-17
6795.52278 1.20866e-17
6796.99528 1.20342e-17
6798.46778 1.18520e-17
6799.94028 1.17900e-17
6801.40276 1.19879e-17
6802.87526 1.19669e-17
6804.34776 1.19579e-17
6805.82026 1.18674e-17
6807.28274 1.19960e-17
6808.75524 1.20674e-17
6810.22774 1.19690e-17
6811.70024 1.19318e-17
6813.16272 1.18345e-17
6814.63522 1.19095e-17
6816.10772 1.19499e-17
6817.58022 1.19272e-17
6819.04270 1.19345e-17
6820.51520 1.19049e-17
6821.98770 1.17681e-17
6823.46020 1.18440e-17
6824.92268 1.17446e-17
6826.39518 1.18373e-17
6827.86768 1.17969e-17
6829.34018 1.17190e-17
6830.80266 1.16448e-17
6832.27516 1.16384e-17
6833.74766 1.17193e-17
6835.22015 1.16913e-17
6836.68264 1.17978e-17
6838.15513 1.14702e-17
6839.62763 1.13151e-17
6841.09012 1.16496e-17
6842.56261 1.15486e-17
6844.03511 1.13484e-17
6845.50761 1.13469e-17
6846.98011 1.13453e-17
6848.44259 1.13437e-17
6849.91509 1.13421e-17
6851.38759 1.13405e-17
6852.86009 1.13389e-17
6854.32257 1.13373e-17
6855.79507 1.13357e-17
6857.26757 1.13342e-17
6858.73005 1.13326e-17
6860.20255 1.13310e-17
6861.67505 1.13294e-17
6863.14755 1.13278e-17
6864.61003 1.13262e-17
6866.08253 1.13246e-17
6867.55503 1.13231e-17
6869.02753 1.13215e-17
6870.49001 1.13199e-17
6871.96251 1.13183e-17
6873.43501 1.13167e-17
6874.90751 1.13151e-17
6876.36999 1.13135e-17
6877.84249 1.13119e-17
6879.31499 1.13104e-17
6880.78749 1.13088e-17
6882.24997 1.13072e-17
6883.72247 1.13056e-17
6885.19497 1.13040e-17
6886.66747 1.13024e-17
6888.12995 1.13008e-17
6889.60245 1.12993e-17
6891.07495 1.12977e-17
6892.54745 1.12961e-17
6894.00993 1.12945e-17
6895.48243 1.12929e-17
6896.95493 1.12913e-17
6898.42742 1.12897e-17
6899.88991 1.12882e-17
6901.36240 1.12866e-17
6902.83490 1.12850e-17
6904.30740 1.12834e-17
6905.76989 1.12818e-17
6907.24238 1.12802e-17
6908.71488 1.12787e-17
6910.18738 1.12771e-17
6911.64986 1.12755e-17
6913.12236 1.12739e-17
6914.59486 1.12723e-17
6916.06736 1.12707e-17
6917.52984 1.12691e-17
6919.00234 1.12676e-17
6920.47484 1.12660e-17
6921.94734 1.12644e-17
6923.40982 1.12628e-17
6924.88232 1.12612e-17
6926.35482 1.12596e-17
6927.82732 1.12581e-17
6929.28980 1.12565e-17
6930.76230 1.12549e-17
6932.23480 1.12533e-17
6933.70730 1.12517e-17
6935.16978 1.12501e-17
6936.64228 1.12521e-17
6938.11478 1.12257e-17
6939.58728 1.11499e-17
6941.04976 1.12460e-17
6942.52226 1.12286e-17
6943.99476 1.11866e-17
6945.45724 1.12178e-17
6946.92974 1.10911e-17
6948.40224 1.09845e-17
6949.87474 1.10243e-17
6951.33722 1.07446e-17
6952.80972 1.06419e-17
6954.28222 1.09248e-17
6955.75472 1.10966e-17
6957.22721 1.10323e-17
6958.68970 1.11006e-17
6960.16220 1.10972e-17
6961.63469 1.08063e-17
6963.09718 1.07236e-17
6964.56968 1.07909e-17
6966.04217 1.09442e-17
6967.51467 1.07509e-17
6968.97715 1.05074e-17
6970.44965 1.07826e-17
6971.92215 1.04469e-17
6973.39465 1.03541e-17
6974.85713 1.03923e-17
6976.32963 1.02845e-17
6977.80213 1.02582e-17
6979.27463 1.02052e-17
6980.73711 1.02915e-17
6982.20961 1.01565e-17
6983.68211 9.87862e-18
6985.15461 9.93381e-18
6986.61709 1.00634e-17
6988.08959 9.93104e-18
6989.56209 1.00525e-17
6991.03459 1.00487e-17
6992.49707 9.93574e-18
6993.96957 9.90392e-18
6995.44207 9.94280e-18
6996.91457 1.00249e-17
6998.37705 1.00107e-17
6999.84955 1.00166e-17
7001.32205 1.01272e-17
7002.79455 1.02197e-17
7004.25703 1.01998e-17
7005.72953 1.00041e-17
7007.20203 1.00750e-17
7008.67453 1.01108e-17
7010.13701 1.01466e-17
7011.60951 1.01824e-17
7013.08201 1.02182e-17
7014.55451 1.02540e-17
7016.01699 1.02898e-17
7017.48949 1.03256e-17
7018.96199 1.03614e-17
7020.43448 1.03610e-17
7021.89697 1.06562e-17
7023.36946 1.06775e-17
7024.84196 1.06828e-17
7026.31446 1.06710e-17
7027.77695 1.08637e-17
7029.24944 1.08528e-17
7030.72194 1.09377e-17
7032.18443 1.11251e-17
7033.65692 1.12478e-17
7035.12942 1.13408e-17
7036.60192 1.13641e-17
7038.06440 1.13940e-17
7039.53690 1.13467e-17
7041.00940 1.14101e-17
7042.48190 1.13570e-17
7043.95440 1.13138e-17
7045.41688 1.13234e-17
7046.88938 1.12189e-17
7048.36188 1.11940e-17
7049.82436 1.09715e-17
7051.29686 1.10487e-17
7052.76936 1.11414e-17
7054.24186 1.12202e-17
7055.70434 1.11099e-17
7057.17684 1.10219e-17
7058.64934 1.11137e-17
7060.12184 1.10665e-17
7061.58432 1.09842e-17
7063.05682 1.10348e-17
7064.52932 1.12552e-17
7066.00182 1.13178e-17
7067.46430 1.11848e-17
7068.93680 1.10881e-17
7070.40930 1.11379e-17
7071.88180 1.12270e-17
7073.34428 1.11847e-17
7074.81678 1.10156e-17
7076.28928 1.11249e-17
7077.76177 1.13218e-17
7079.22426 1.12553e-17
7080.69676 1.10625e-17
7082.16925 1.09585e-17
7083.64175 1.09194e-17
7085.10424 1.09225e-17
7086.57674 1.08625e-17
7088.04923 1.08160e-17
7089.52173 1.09282e-17
7090.98422 1.08406e-17
7092.45671 1.07863e-17
7093.92921 1.08035e-17
7095.40171 1.07248e-17
7096.86419 1.09205e-17
7098.33669 1.09667e-17
7099.80919 1.09137e-17
7101.28169 1.09322e-17
7102.74417 1.09492e-17
7104.21667 1.08771e-17
7105.68917 1.07799e-17
7107.16167 1.08112e-17
7108.62415 1.07765e-17
7110.09665 1.07842e-17
7111.56915 1.05711e-17
7113.04165 1.07194e-17
7114.50413 1.07804e-17
7115.97663 1.04663e-17
7117.44913 1.04872e-17
7118.92163 1.06108e-17
7120.38411 1.06601e-17
7121.85661 1.07819e-17
7123.32911 1.07385e-17
7124.80161 1.07451e-17
7126.26409 1.06279e-17
7127.73659 1.07448e-17
7129.20909 1.10319e-17
7130.68159 1.07447e-17
7132.14407 1.06605e-17
7133.61657 1.08506e-17
7135.08907 1.09770e-17
7136.55155 1.11726e-17
7138.02405 1.11874e-17
7139.49655 1.09691e-17
7140.96905 1.11111e-17
7142.43153 1.12886e-17
7143.90403 1.12662e-17
7145.37653 1.10027e-17
7146.84902 1.07794e-17
7148.31151 1.08566e-17
7149.78400 1.10564e-17
7151.25650 1.11566e-17
7152.72900 1.11758e-17
7154.19149 1.13166e-17
7155.66398 1.12360e-17
7157.13648 1.13125e-17
7158.60898 1.15409e-17
7160.07146 1.14793e-17
7161.54396 1.13187e-17
7163.01646 1.12534e-17
7164.48896 1.13601e-17
7165.95144 1.12659e-17
7167.42394 1.13201e-17
7168.89644 1.15711e-17
7170.36894 1.14609e-17
7171.83142 1.13905e-17
7173.30392 1.15374e-17
7174.77642 1.15457e-17
7176.24892 1.12944e-17
7177.71140 1.13509e-17
7179.18390 1.12663e-17
7180.65640 1.11934e-17
7182.12890 1.13230e-17
7183.59138 1.10875e-17
7185.06388 1.10309e-17
7186.53638 1.12664e-17
7188.00888 1.14469e-17
7189.47136 1.12260e-17
7190.94386 1.11017e-17
7192.41636 1.11139e-17
7193.88886 1.13391e-17
7195.35134 1.14206e-17
7196.82384 1.11892e-17
7198.29634 1.12934e-17
7199.76884 1.14713e-17
7201.23132 1.13607e-17
7202.70382 1.12520e-17
7204.17631 1.11950e-17
7205.64881 1.11604e-17
7207.11130 1.11644e-17
7208.58380 1.11135e-17
7210.05629 1.12781e-17
7211.52879 1.11823e-17
7212.99128 1.09280e-17
7214.46377 1.10086e-17
7215.93627 1.08944e-17
7217.40877 1.08545e-17
7218.87125 1.08857e-17
7220.34375 1.07056e-17
7221.81625 1.06726e-17
7223.28875 1.10474e-17
7224.75123 1.12036e-17
7226.22373 1.11016e-17
7227.69623 1.11783e-17
7229.16873 1.11999e-17
7230.63121 1.13076e-17
7232.10371 1.15551e-17
7233.57621 1.15489e-17
7235.03869 1.15524e-17
7236.51119 1.17450e-17
7237.98369 1.15172e-17
7239.45619 1.12734e-17
7240.91867 1.15837e-17
7242.39117 1.18384e-17
7243.86367 1.18532e-17
7245.33617 1.16930e-17
7246.79865 1.17487e-17
7248.27115 1.17690e-17
7249.74365 1.16244e-17
7251.21615 1.14722e-17
7252.67863 1.16621e-17
7254.15113 1.19148e-17
7255.62363 1.18901e-17
7257.09613 1.16586e-17
7258.55861 1.15082e-17
7260.03111 1.16012e-17
7261.50361 1.15607e-17
7262.97610 1.15948e-17
7264.43859 1.18538e-17
7265.91109 1.18754e-17
7267.38359 1.16293e-17
7268.85608 1.19075e-17
7270.31857 1.20368e-17
7271.79107 1.20109e-17
7273.26356 1.18302e-17
7274.73606 1.18697e-17
7276.19855 1.23069e-17
7277.67104 1.25365e-17
7279.14354 1.23893e-17
7280.61604 1.22680e-17
7282.07852 1.21268e-17
7283.55102 1.20144e-17
7285.02352 1.18773e-17
7286.49602 1.19449e-17
7287.95850 1.20174e-17
7289.43100 1.19341e-17
7290.90350 1.19118e-17
7292.37600 1.20204e-17
7293.83848 1.17441e-17
7295.31098 1.15571e-17
7296.78348 1.14666e-17
7298.25598 1.15602e-17
7299.71846 1.17058e-17
7301.19096 1.16428e-17
7302.66346 1.15908e-17
7304.13596 1.16463e-17
7305.59844 1.15650e-17
7307.07094 1.13512e-17
7308.54344 1.16763e-17
7310.01594 1.20318e-17
7311.47842 1.18430e-17
7312.95092 1.14800e-17
7314.42342 1.14421e-17
7315.89592 1.16796e-17
7317.35840 1.15412e-17
7318.83090 1.14994e-17
7320.30340 1.16968e-17
7321.77590 1.14721e-17
7323.23838 1.14909e-17
7324.71088 1.14549e-17
7326.18338 1.13213e-17
7327.64586 1.15065e-17
7329.11836 1.11998e-17
7330.59085 1.13052e-17
7332.06335 1.12200e-17
7333.52584 1.10429e-17
7334.99834 1.10293e-17
7336.47083 1.09209e-17
7337.94333 1.07306e-17
7339.40582 1.07035e-17
7340.87831 1.08144e-17
7342.35081 1.07930e-17
7343.82331 1.05575e-17
7345.28579 1.07166e-17
7346.75829 1.08576e-17
7348.23079 1.09951e-17
7349.70329 1.08960e-17
7351.16577 1.07327e-17
7352.63827 1.07382e-17
7354.11077 1.07703e-17
7355.58327 1.08343e-17
7357.04575 1.08230e-17
7358.51825 1.08631e-17
7359.99075 1.08567e-17
7361.46325 1.08083e-17
7362.92573 1.07942e-17
7364.39823 1.07970e-17
7365.87073 1.06999e-17
7367.34323 1.05766e-17
7368.80571 1.05638e-17
7370.27821 1.06039e-17
7371.75071 1.04210e-17
7373.22321 1.04993e-17
7374.68569 1.04518e-17
7376.15819 1.06479e-17
7377.63069 1.07565e-17
7379.10319 1.07689e-17
7380.56567 1.09431e-17
7382.03817 1.09149e-17
7383.51067 1.10902e-17
7384.98316 1.13343e-17
7386.44565 1.14413e-17
7387.91815 1.14265e-17
7389.39065 1.13784e-17
7390.86314 1.11363e-17
7392.32563 1.11710e-17
7393.79813 1.10635e-17
7395.27062 1.08801e-17
7396.74312 1.08753e-17
7398.20561 1.10080e-17
7399.67810 1.08894e-17
7401.15060 1.07899e-17
7402.62310 1.08185e-17
7404.08558 1.07542e-17
7405.55808 1.08217e-17
7407.03058 1.09712e-17
7408.50308 1.06558e-17
7409.96556 1.05704e-17
7411.43806 1.05024e-17
7412.91056 1.04831e-17
7414.38306 1.04430e-17
7415.84554 1.03746e-17
7417.31804 1.05533e-17
7417.50836 1.05533e-17
7418.36983 1.05585e-17
7419.23129 1.05637e-17
7420.09275 1.05647e-17
7420.95421 1.05657e-17
7421.82569 1.05636e-17
7422.68715 1.05615e-17
7423.54861 1.05615e-17
7424.41008 1.05615e-17
7425.27154 1.05667e-17
7426.13300 1.05720e-17
7426.99446 1.05812e-17
7427.85592 1.05904e-17
7428.71739 1.06013e-17
7429.57885 1.06122e-17
7430.44031 1.06194e-17
7431.31179 1.06267e-17
7432.17325 1.06264e-17
7433.03471 1.06259e-17
7433.89618 1.06220e-17
7434.75764 1.06181e-17
7435.61910 1.06152e-17
7436.48056 1.06123e-17
7437.34202 1.06114e-17
7438.20349 1.06106e-17
7439.06495 1.06123e-17
7439.92641 1.06139e-17
7440.79789 1.06179e-17
7441.65935 1.06218e-17
7442.52081 1.06268e-17
7443.38227 1.06319e-17
7444.24374 1.06381e-17
7445.10520 1.06442e-17
7445.96666 1.06518e-17
7446.82812 1.06594e-17
7447.68959 1.06641e-17
7448.55105 1.06687e-17
7449.41251 1.06630e-17
7450.28399 1.06573e-17
7451.14545 1.06429e-17
7452.00691 1.06286e-17
7452.86837 1.06154e-17
7453.72984 1.06020e-17
7454.59130 1.05933e-17
7455.45276 1.05846e-17
7456.31422 1.05765e-17
7457.17568 1.05684e-17
7458.03715 1.05590e-17
7458.89861 1.05496e-17
7459.77009 1.05387e-17
7460.63155 1.05279e-17
7461.49301 1.05179e-17
7462.35447 1.05078e-17
7463.21594 1.05082e-17
7464.07740 1.05085e-17
7464.93886 1.05246e-17
7465.80032 1.05409e-17
7466.66178 1.05650e-17
7467.52325 1.05892e-17
7468.38471 1.06124e-17
7469.25619 1.06356e-17
7470.11765 1.06492e-17
7470.97911 1.06627e-17
7471.84057 1.06593e-17
7472.70203 1.06559e-17
7473.56350 1.06442e-17
7474.42496 1.06325e-17
7475.28642 1.06244e-17
7476.14788 1.06164e-17
7477.00934 1.06126e-17
7477.87081 1.06089e-17
7478.73227 1.06063e-17
7479.60375 1.06037e-17
7480.46521 1.05997e-17
7481.32667 1.05957e-17
7482.18813 1.05870e-17
7483.04960 1.05785e-17
7483.91106 1.05665e-17
7484.77252 1.05545e-17
7485.63398 1.05440e-17
7486.49544 1.05333e-17
7487.35690 1.05247e-17
7488.21837 1.05162e-17
7489.08985 1.05062e-17
7489.95131 1.04964e-17
7490.81277 1.04841e-17
7491.67423 1.04718e-17
7492.53569 1.04587e-17
7493.39716 1.04456e-17
7494.25862 1.04328e-17
7495.12008 1.04200e-17
7495.98154 1.04079e-17
7496.84300 1.03957e-17
7497.70447 1.03840e-17
7498.57595 1.03723e-17
7499.43741 1.03591e-17
7500.29887 1.03458e-17
7501.16033 1.03295e-17
7502.02179 1.03132e-17
7502.88325 1.02957e-17
7503.74472 1.02782e-17
7504.60618 1.02611e-17
7505.46764 1.02440e-17
7506.32910 1.02229e-17
7507.19056 1.02016e-17
7508.06204 1.01718e-17
7508.92351 1.01420e-17
7509.78497 1.01043e-17
7510.64643 1.00664e-17
7511.50789 1.00225e-17
7512.36935 9.97873e-18
7513.23082 9.93741e-18
7514.09228 9.89610e-18
7514.95374 9.86869e-18
7515.81520 9.84137e-18
7516.67666 9.82388e-18
7517.54814 9.80639e-18
7518.40960 9.78565e-18
7519.27107 9.76482e-18
7520.13253 9.73550e-18
7520.99399 9.70618e-18
7521.85545 9.66937e-18
7522.71691 9.63263e-18
7523.57838 9.59124e-18
7524.43984 9.54984e-18
7525.30130 9.50994e-18
7526.16276 9.46996e-18
7527.02423 9.43389e-18
7527.89570 9.39774e-18
7528.75717 9.36051e-18
7529.61863 9.32327e-18
7530.48009 9.28154e-18
7531.34155 9.23981e-18
7532.20301 9.19458e-18
7533.06448 9.14944e-18
7533.92594 9.10121e-18
7534.78740 9.05298e-18
7535.64886 8.99834e-18
7536.52034 8.94370e-18
7537.38180 8.88097e-18
7538.24327 8.81825e-18
7539.10473 8.75487e-18
7539.96619 8.69148e-18
7540.82765 8.63509e-18
7541.68911 8.57869e-18
7542.55058 8.52988e-18
7543.41204 8.48107e-18
7544.27350 8.43859e-18
7545.13496 8.39611e-18
7545.99642 8.35338e-18
7546.86790 8.31061e-18
7547.72936 8.25931e-18
7548.59083 8.20800e-18
7549.45229 8.14812e-18
7550.31375 8.08823e-18
7551.17521 8.02388e-18
7552.03667 7.95953e-18
7552.89814 7.89525e-18
7553.75960 7.83097e-18
7554.62106 7.77169e-18
7555.48252 7.71242e-18
7556.35400 7.65924e-18
7557.21546 7.60606e-18
7558.07693 7.55571e-18
7558.93839 7.50536e-18
7559.79985 7.45506e-18
7560.66131 7.40476e-18
7561.52277 7.35312e-18
7562.38424 7.30147e-18
7563.24570 7.24622e-18
7564.10716 7.19097e-18
7564.96862 7.12715e-18
7565.84010 7.06332e-18
7566.70156 6.99090e-18
7567.56302 6.91846e-18
7568.42449 6.85132e-18
7569.28595 6.78419e-18
7570.14741 6.73389e-18
7571.00887 6.68363e-18
7571.87033 6.65188e-18
7572.73180 6.62016e-18
7573.59326 6.60507e-18
7574.45472 6.59003e-18
7575.31618 6.57060e-18
7576.18766 6.55116e-18
7577.04912 6.50431e-18
7577.91059 6.45741e-18
7578.77205 6.39576e-18
7579.63351 6.33409e-18
7580.49497 6.27781e-18
7581.35643 6.22156e-18
7582.21790 6.16746e-18
7583.07936 6.11339e-18
7583.94082 6.05208e-18
7584.81230 5.99077e-18
7585.67376 5.88829e-18
7586.53522 5.78572e-18
7587.39668 5.59492e-18
7588.25815 5.40395e-18
7589.11961 5.13416e-18
7589.98107 4.86421e-18
7590.84253 4.57167e-18
7591.70399 4.27909e-18
7592.56546 4.01736e-18
7593.42692 3.75570e-18
7594.28838 3.57495e-18
7595.15986 3.39436e-18
7596.02132 3.31963e-18
7596.88278 3.24510e-18
7597.74425 3.25217e-18
7598.60571 3.25940e-18
7599.46717 3.33075e-18
7600.32863 3.40222e-18
7601.19009 3.55112e-18
7602.05156 3.70016e-18
7602.91302 3.92697e-18
7603.77448 4.15391e-18
7604.64596 4.42929e-18
7605.50742 4.70477e-18
7606.36888 4.99371e-18
7607.23034 5.28267e-18
7608.09181 5.54958e-18
7608.95327 5.81645e-18
7609.81473 6.02575e-18
7610.67619 6.23493e-18
7611.53765 6.33685e-18
7612.39912 6.43854e-18
7613.26058 6.39304e-18
7614.13206 6.34724e-18
7614.99352 6.15650e-18
7615.85498 5.96548e-18
7616.71644 5.65202e-18
7617.57791 5.33832e-18
7618.43937 4.99574e-18
7619.30083 4.65311e-18
7620.16229 4.40751e-18
7621.02375 4.16212e-18
7621.88522 4.06124e-18
7622.74668 3.96066e-18
7623.61816 3.99450e-18
7624.47962 4.02860e-18
7625.34108 4.15383e-18
7626.20254 4.27925e-18
7627.06400 4.41631e-18
7627.92547 4.55339e-18
7628.78693 4.65805e-18
7629.64839 4.76262e-18
7630.50985 4.85158e-18
7631.37131 4.94050e-18
7632.23278 5.02462e-18
7633.10426 5.10873e-18
7633.96572 5.18757e-18
7634.82718 5.26641e-18
7635.68864 5.34000e-18
7636.55010 5.41357e-18
7637.41157 5.46741e-18
7638.27303 5.52120e-18
7639.13449 5.54795e-18
7639.99595 5.57466e-18
7640.85741 5.59978e-18
7641.71888 5.62489e-18
7642.59035 5.67360e-18
7643.45182 5.72233e-18
7644.31328 5.80538e-18
7645.17474 5.88848e-18
7646.03620 6.01044e-18
7646.89766 6.13248e-18
7647.75913 6.26045e-18
7648.62059 6.38843e-18
7649.48205 6.48091e-18
7650.34351 6.57332e-18
7651.20497 6.62148e-18
7652.06644 6.66956e-18
7652.93792 6.67801e-18
7653.79938 6.68637e-18
7654.66084 6.68693e-18
7655.52230 6.68748e-18
7656.38376 6.72931e-18
7657.24523 6.77122e-18
7658.10669 6.86226e-18
7658.96815 6.95341e-18
7659.82961 7.06667e-18
7660.69107 7.17998e-18
7661.55254 7.29254e-18
7662.42401 7.40509e-18
7663.28548 7.49614e-18
7664.14694 7.58714e-18
7665.00840 7.65545e-18
7665.86986 7.72371e-18
7666.73132 7.80870e-18
7667.59279 7.89373e-18
7668.45425 8.01373e-18
7669.31571 8.13378e-18
7670.17717 8.25138e-18
7671.03863 8.36896e-18
7671.91011 8.45400e-18
7672.77158 8.53896e-18
7673.63304 8.58594e-18
7674.49450 8.63275e-18
7675.35596 8.64375e-18
7676.21742 8.65466e-18
7677.07889 8.67415e-18
7677.94035 8.69356e-18
7678.80181 8.76594e-18
7679.66327 8.83849e-18
7680.52473 8.93762e-18
7681.38620 9.03674e-18
7682.25767 9.12112e-18
7683.11914 9.20558e-18
7683.98060 9.27513e-18
7684.84206 9.34468e-18
7685.70352 9.41107e-18
7686.56498 9.47745e-18
7687.42645 9.54342e-18
7688.28791 9.60931e-18
7689.14937 9.67578e-18
7690.01083 9.74225e-18
7690.88231 9.80289e-18
7691.74377 9.86353e-18
7692.60524 9.90551e-18
7693.46670 9.94757e-18
7694.32816 9.97406e-18
7695.18962 1.00006e-17
7696.05108 1.00311e-17
7696.91255 1.00617e-17
7697.77401 1.01038e-17
7698.63547 1.01457e-17
7699.49693 1.01893e-17
7700.35839 1.02328e-17
7701.22987 1.02695e-17
7702.09133 1.03062e-17
7702.95280 1.03312e-17
7703.81426 1.03561e-17
7704.67572 1.03658e-17
7705.53718 1.03754e-17
7706.39864 1.03705e-17
7707.26011 1.03656e-17
7708.12157 1.03506e-17
7708.98303 1.03355e-17
7709.84449 1.03277e-17
7710.71597 1.03199e-17
7711.57743 1.03350e-17
7712.43890 1.03501e-17
7713.30036 1.03844e-17
7714.16182 1.04187e-17
7715.02328 1.04636e-17
7715.88474 1.05085e-17
7716.74620 1.05502e-17
7717.60767 1.05920e-17
7718.46913 1.06157e-17
7719.33059 1.06394e-17
7720.20207 1.06440e-17
7721.06353 1.06486e-17
7721.92499 1.06395e-17
7722.78646 1.06304e-17
7723.64792 1.06170e-17
7724.50938 1.06036e-17
7725.37084 1.05984e-17
7726.23230 1.05930e-17
7727.09377 1.05999e-17
7727.95523 1.06069e-17
7728.81669 1.06219e-17
7729.67815 1.06370e-17
7730.54963 1.06593e-17
7731.41109 1.06816e-17
7732.27255 1.07157e-17
7733.13402 1.07498e-17
7733.99548 1.07904e-17
7734.85694 1.08308e-17
7735.71840 1.08559e-17
7736.57986 1.08809e-17
7737.44133 1.08780e-17
7738.30279 1.08751e-17
7739.17427 1.08532e-17
7740.03573 1.08313e-17
7740.89719 1.08020e-17
7741.75865 1.07728e-17
7742.62012 1.07536e-17
7743.48158 1.07345e-17
7744.34304 1.07395e-17
7745.20450 1.07446e-17
7746.06596 1.07644e-17
7746.92743 1.07841e-17
7747.78889 1.08053e-17
7748.65035 1.08264e-17
7749.52183 1.08443e-17
7750.38329 1.08622e-17
7751.24475 1.08733e-17
7752.10621 1.08845e-17
7752.96768 1.08890e-17
7753.82914 1.08934e-17
7754.69060 1.08936e-17
7755.55206 1.08938e-17
7756.41352 1.08868e-17
7757.27499 1.08797e-17
7758.13645 1.08596e-17
7759.00793 1.08395e-17
7759.86939 1.08121e-17
7760.73085 1.07846e-17
7761.59231 1.07637e-17
7762.45378 1.07428e-17
7763.31524 1.07317e-17
7764.17670 1.07206e-17
7765.03816 1.07121e-17
7765.89962 1.07036e-17
7766.76109 1.06921e-17
7767.62255 1.06806e-17
7768.49403 1.06619e-17
7769.35549 1.06432e-17
7770.21695 1.06170e-17
7771.07841 1.05908e-17
7771.93988 1.05660e-17
7772.80134 1.05412e-17
7773.66280 1.05244e-17
7774.52426 1.05076e-17
7775.38572 1.04952e-17
7776.24719 1.04830e-17
7777.10865 1.04725e-17
7777.98013 1.04621e-17
7778.84159 1.04550e-17
7779.70305 1.04479e-17
7780.56451 1.04457e-17
7781.42597 1.04434e-17
7782.28744 1.04456e-17
7783.14890 1.04478e-17
7784.01036 1.04534e-17
7784.87182 1.04591e-17
7785.73328 1.04675e-17
7786.59475 1.04759e-17
7787.46623 1.04861e-17
7788.32769 1.04963e-17
7789.18915 1.05054e-17
7790.05061 1.05144e-17
7790.91207 1.05190e-17
7791.77354 1.05235e-17
7792.63500 1.05218e-17
7793.49646 1.05201e-17
7794.35792 1.05117e-17
7795.21938 1.05032e-17
7796.08085 1.04920e-17
7796.94231 1.04807e-17
7797.81379 1.04738e-17
7798.67525 1.04670e-17
7799.53671 1.04699e-17
7800.39817 1.04729e-17
7801.25963 1.04892e-17
7802.12110 1.05057e-17
7802.98256 1.05326e-17
7803.84402 1.05597e-17
7804.70548 1.05837e-17
7805.56694 1.06078e-17
7806.42841 1.06189e-17
7807.29989 1.06301e-17
7808.16135 1.06295e-17
7809.02281 1.06289e-17
7809.88427 1.06185e-17
7810.74573 1.06080e-17
7811.60720 1.05899e-17
7812.46866 1.05716e-17
7813.33012 1.05490e-17
7814.19158 1.05263e-17
7815.05304 1.05033e-17
7815.91450 1.04803e-17
7816.78598 1.04608e-17
7817.64745 1.04414e-17
7818.50891 1.04300e-17
7819.37037 1.04187e-17
7820.23183 1.04192e-17
7821.09329 1.04198e-17
7821.95476 1.04237e-17
7822.81622 1.04277e-17
7823.67768 1.04224e-17
7824.53914 1.04170e-17
7825.40060 1.04009e-17
7826.27208 1.03846e-17
7827.13355 1.03615e-17
7827.99501 1.03384e-17
7828.85647 1.03115e-17
7829.71793 1.02847e-17
7830.57939 1.02574e-17
7831.44085 1.02300e-17
7832.30232 1.02044e-17
7833.16378 1.01787e-17
7834.02524 1.01547e-17
7834.88670 1.01307e-17
7835.75818 1.01107e-17
7836.61964 1.00906e-17
7837.48111 1.00807e-17
7838.34257 1.00708e-17
7839.20403 1.00727e-17
7840.06549 1.00745e-17
7840.92695 1.00812e-17
7841.78842 1.00878e-17
7842.64988 1.00932e-17
7843.51134 1.00985e-17
7844.37280 1.00997e-17
7845.23426 1.01009e-17
7846.10574 1.00963e-17
7846.96720 1.00918e-17
7847.82867 1.00838e-17
7848.69013 1.00758e-17
7849.55159 1.00673e-17
7850.41305 1.00587e-17
7851.27452 1.00514e-17
7852.13598 1.00439e-17
7852.99744 1.00390e-17
7853.85890 1.00341e-17
7854.72036 1.00326e-17
7855.59184 1.00311e-17
7856.45330 1.00335e-17
7857.31477 1.00360e-17
7858.17623 1.00386e-17
7859.03769 1.00412e-17
7859.89915 1.00379e-17
7860.76061 1.00345e-17
7861.62208 1.00257e-17
7862.48354 1.00169e-17
7863.34500 1.00075e-17
7864.20646 9.99805e-18
7865.07794 9.98547e-18
7865.93940 9.97298e-18
7866.80087 9.94899e-18
7867.66233 9.92508e-18
7868.52379 9.88885e-18
7869.38525 9.85270e-18
7870.24671 9.81114e-18
7871.10818 9.76949e-18
7871.96964 9.73217e-18
7872.83110 9.69477e-18
7873.69256 9.67728e-18
7874.56404 9.65995e-18
7875.42550 9.66853e-18
7876.28696 9.67720e-18
7877.14843 9.69419e-18
7878.00989 9.71118e-18
7878.87135 9.72026e-18
7879.73281 9.72942e-18
7880.59427 9.72568e-18
7881.45574 9.72193e-18
7882.31720 9.70269e-18
7883.17866 9.68336e-18
7884.05014 9.65537e-18
7884.91160 9.62739e-18
7885.77306 9.59915e-18
7886.63453 9.57100e-18
7887.49599 9.54193e-18
7888.35745 9.51277e-18
7889.21891 9.48079e-18
7890.08037 9.44880e-18
7890.94184 9.41565e-18
7891.80330 9.38258e-18
7892.66476 9.35035e-18
7893.52622 9.31819e-18
7894.39770 9.29529e-18
7895.25916 9.27238e-18
7896.12062 9.27038e-18
7896.98209 9.26830e-18
7897.84355 9.28054e-18
7898.70501 9.29270e-18
7899.56647 9.29987e-18
7900.42793 9.30703e-18
7901.28940 9.30070e-18
7902.15086 9.29437e-18
7903.01232 9.27663e-18
7903.88380 9.25880e-18
7904.74526 9.23506e-18
7905.60672 9.21141e-18
7906.46819 9.19408e-18
7907.32965 9.17684e-18
7908.19111 9.17084e-18
7909.05257 9.16485e-18
7909.91403 9.15627e-18
7910.77550 9.14769e-18
7911.63696 9.12828e-18
7912.49842 9.10887e-18
7913.36990 9.08855e-18
7914.23136 9.06814e-18
7915.09282 9.05515e-18
7915.95428 9.04215e-18
7916.81575 9.03707e-18
7917.67721 9.03199e-18
7918.53867 9.03374e-18
7919.40013 9.03549e-18
7920.26159 9.03182e-18
7921.12306 9.02824e-18
7921.98452 9.00692e-18
7922.85600 8.98551e-18
7923.71746 8.95402e-18
7924.57892 8.92254e-18
7925.44038 8.89414e-18
7926.30185 8.86565e-18
7927.16331 8.84799e-18
7928.02477 8.83033e-18
7928.88623 8.82858e-18
7929.74769 8.82692e-18
7930.60916 8.83791e-18
7931.47062 8.84891e-18
7932.34210 8.86357e-18
7933.20356 8.87831e-18
7934.06502 8.88889e-18
7934.92648 8.89947e-18
7935.78794 8.89947e-18
7936.64941 8.89955e-18
7937.51087 8.88572e-18
7938.37233 8.87181e-18
7939.23379 8.84482e-18
7940.09525 8.81775e-18
7940.95672 8.78152e-18
7941.81818 8.74529e-18
7942.68966 8.70889e-18
7943.55112 8.67249e-18
7944.41258 8.64300e-18
7945.27404 8.61351e-18
7946.13551 8.59219e-18
7946.99697 8.57087e-18
7947.85843 8.55762e-18
7948.71989 8.54429e-18
7949.58135 8.53663e-18
7950.44282 8.52897e-18
7951.30428 8.52347e-18
7952.17576 8.51797e-18
7953.03722 8.50731e-18
7953.89868 8.49665e-18
7954.76014 8.47449e-18
7955.62160 8.45234e-18
7956.48307 8.42793e-18
7957.34453 8.40344e-18
7958.20599 8.38878e-18
7959.06745 8.37420e-18
7959.92891 8.37021e-18
7960.79038 8.36621e-18
7961.66186 8.37029e-18
7962.52332 8.37429e-18
7963.38478 8.38004e-18
7964.24624 8.38578e-18
7965.10770 8.38403e-18
7965.96917 8.38220e-18
7966.83063 8.37820e-18
7967.69209 8.37412e-18
7968.55355 8.38303e-18
7969.41501 8.39203e-18
7970.27648 8.41743e-18
7971.14795 8.44292e-18
7972.00942 8.47716e-18
7972.87088 8.51139e-18
7973.73234 8.54413e-18
7974.59380 8.57695e-18
7975.45526 8.59327e-18
7976.31673 8.60960e-18
7977.17819 8.60310e-18
7978.03965 8.59660e-18
7978.90111 8.57953e-18
7979.76257 8.56245e-18
7980.63405 8.54546e-18
7981.49552 8.52855e-18
7982.35698 8.51431e-18
7983.21844 8.50006e-18
7984.07990 8.49024e-18
7984.94136 8.48041e-18
7985.80283 8.47141e-18
7986.66429 8.46250e-18
7987.52575 8.45059e-18
7988.38721 8.43859e-18
7989.24867 8.42526e-18
7990.11014 8.41194e-18
7990.98161 8.39919e-18
7991.84308 8.38645e-18
7992.70454 8.37820e-18
7993.56600 8.36996e-18
7994.42746 8.37071e-18
7995.28892 8.37154e-18
7996.15039 8.37237e-18
7997.01185 8.37320e-18
7997.87331 8.35988e-18
7998.73477 8.34655e-18
7999.59623 8.32079e-18
8000.46771 8.29502e-18
8001.32917 8.26760e-18
8002.19064 8.24017e-18
8003.05210 8.21922e-18
8003.91356 8.19828e-18
8004.77502 8.19072e-18
8005.63649 8.18321e-18
8006.49795 8.18728e-18
8007.35941 8.19138e-18
8008.22087 8.19289e-18
8009.08233 8.19440e-18
8009.95381 8.18872e-18
8010.81527 8.18303e-18
8011.67674 8.18373e-18
8012.53820 8.18444e-18
8013.39966 8.19812e-18
8014.26112 8.21181e-18
8015.12258 8.22891e-18
8015.98405 8.24601e-18
8016.84551 8.25742e-18
8017.70697 8.26882e-18
8018.56843 8.26529e-18
8019.43991 8.26173e-18
8020.30137 8.23757e-18
8021.16284 8.21339e-18
8022.02430 8.18392e-18
8022.88576 8.15445e-18
8023.74722 8.13659e-18
8024.60868 8.11876e-18
8025.47015 8.11201e-18
8026.33161 8.10528e-18
8027.19307 8.10513e-18
8028.05453 8.10499e-18
8028.92601 8.10588e-18
8029.78747 8.10676e-18
8030.64893 8.10222e-18
8031.51040 8.09766e-18
8032.37186 8.08834e-18
8033.23332 8.07901e-18
8034.09478 8.06942e-18
8034.95624 8.05983e-18
8035.81771 8.05286e-18
8036.67917 8.04589e-18
8037.54063 8.04328e-18
8038.41211 8.04067e-18
8039.27357 8.04305e-18
8040.13503 8.04542e-18
8040.99650 8.05202e-18
8041.85796 8.05861e-18
8042.71942 8.06724e-18
8043.58088 8.07586e-18
8044.44234 8.08264e-18
8045.30380 8.08941e-18
8046.16527 8.09142e-18
8047.02673 8.09341e-18
8047.88819 8.08928e-18
8048.75967 8.08514e-18
8049.62113 8.07561e-18
8050.48259 8.06606e-18
8051.34406 8.05816e-18
8052.20552 8.05027e-18
8053.06698 8.04928e-18
8053.92844 8.04830e-18
8054.78990 8.05021e-18
8055.65137 8.05213e-18
8056.51283 8.05191e-18
8057.37429 8.05168e-18
8058.24577 8.04333e-18
8059.10723 8.03495e-18
8059.96869 8.01334e-18
8060.83015 7.99171e-18
8061.69162 7.96102e-18
8062.55308 7.93030e-18
8063.41454 7.89759e-18
8064.27600 7.86488e-18
8065.13746 7.83820e-18
8065.99893 7.81153e-18
8066.86039 7.79874e-18
8067.73187 7.78599e-18
8068.59333 7.78755e-18
8069.45479 7.78914e-18
8070.31625 7.80084e-18
8071.17772 7.81256e-18
8072.03918 7.82600e-18
8072.90064 7.83945e-18
8073.76210 7.84266e-18
8074.62356 7.84584e-18
8075.48503 7.83441e-18
8076.34649 7.82294e-18
8077.21797 7.80256e-18
8078.07943 7.78217e-18
8078.94089 7.75643e-18
8079.80235 7.73068e-18
8080.66381 7.69890e-18
8081.52528 7.66711e-18
8082.38674 7.62979e-18
8083.24820 7.59245e-18
8084.10966 7.55116e-18
8084.97113 7.50986e-18
8085.83259 7.46647e-18
8086.70407 7.42305e-18
8087.56553 7.38029e-18
8088.42699 7.33753e-18
8089.28845 7.29799e-18
8090.14991 7.25846e-18
8091.01138 7.22448e-18
8091.87284 7.19051e-18
8092.73430 7.16332e-18
8093.59576 7.13615e-18
8094.45722 7.11523e-18
8095.31869 7.09434e-18
8096.18015 7.07803e-18
8097.05163 7.06173e-18
8097.91309 7.04093e-18
8098.77455 7.02012e-18
8099.63601 6.98406e-18
8100.49748 6.94796e-18
8101.35894 6.89323e-18
8102.22040 6.83846e-18
8103.08186 6.76577e-18
8103.94332 6.69302e-18
8104.80479 6.61116e-18
8105.67626 6.52928e-18
8106.53773 6.45253e-18
8107.39919 6.37580e-18
8108.26065 6.31307e-18
8109.12211 6.25038e-18
8109.98357 6.20469e-18
8110.84504 6.15903e-18
8111.70650 6.12638e-18
8112.56796 6.09375e-18
8113.42942 6.06013e-18
8114.29088 6.02651e-18
8115.15235 5.98061e-18
8116.02383 5.93470e-18
8116.88529 5.87172e-18
8117.74675 5.80871e-18
8118.60821 5.72775e-18
8119.46967 5.64674e-18
8120.33114 5.55946e-18
8121.19260 5.47219e-18
8122.05406 5.38794e-18
8122.91552 5.30371e-18
8123.77698 5.21209e-18
8124.63845 5.12045e-18
8125.49991 5.01177e-18
8126.37139 4.90305e-18
8127.23285 4.78251e-18
8128.09431 4.66194e-18
8128.95577 4.53714e-18
8129.81723 4.41233e-18
8130.67870 4.29789e-18
8131.54016 4.18348e-18
8132.40162 4.09511e-18
8133.26308 4.00682e-18
8134.12454 3.93608e-18
8134.99602 3.86540e-18
8135.85749 3.79340e-18
8136.71895 3.72140e-18
8137.58041 3.64096e-18
8138.44187 3.56050e-18
8139.30333 3.47136e-18
8140.16480 3.38219e-18
8141.02626 3.28662e-18
8141.88772 3.19103e-18
8142.74918 3.09435e-18
8143.61064 2.99766e-18
8144.47210 2.90513e-18
8145.34358 2.81263e-18
8146.20505 2.72848e-18
8147.06651 2.64436e-18
8147.92797 2.57155e-18
8148.78943 2.49878e-18
8149.65089 2.43825e-18
8150.51236 2.37776e-18
8151.37382 2.32801e-18
8152.23528 2.27829e-18
8153.09674 2.23276e-18
8153.95820 2.18725e-18
8154.82968 2.14064e-18
8155.69115 2.09403e-18
8156.55261 2.04685e-18
8157.41407 1.99966e-18
8158.27553 1.95351e-18
8159.13699 1.90736e-18
8159.99845 1.86617e-18
8160.85992 1.82499e-18
8161.72138 1.79262e-18
8162.58284 1.76027e-18
8163.44430 1.73789e-18
8164.31578 1.71553e-18
8165.17724 1.70294e-18
8166.03871 1.69036e-18
8166.90017 1.68155e-18
8167.76163 1.67276e-18
8168.62309 1.66046e-18
8169.48455 1.64817e-18
8170.34602 1.62632e-18
8171.20748 1.60446e-18
8172.06894 1.56730e-18
8172.93040 1.53010e-18
8173.80188 1.48744e-18
8174.66334 1.44478e-18
8175.52481 1.41783e-18
8176.38627 1.39093e-18
8177.24773 1.38441e-18
8178.10919 1.37793e-18
8178.97065 1.37955e-18
8179.83212 1.38118e-18
8180.69358 1.38157e-18
8181.55504 1.38197e-18
8182.41650 1.37524e-18
8183.28798 1.36851e-18
8184.14944 1.35254e-18
8185.01090 1.33654e-18
8185.87237 1.31924e-18
8186.73383 1.30193e-18
8187.59529 1.28898e-18
8188.45675 1.27603e-18
8189.31821 1.26304e-18
8190.17968 1.25005e-18
8191.04114 1.23397e-18
8191.90260 1.21786e-18
8192.77408 1.20241e-18
8193.63554 1.18696e-18
8194.49700 1.17593e-18
8195.35846 1.16491e-18
8196.21993 1.16169e-18
8197.08139 1.15848e-18
8197.94285 1.16562e-18
8198.80431 1.17278e-18
8199.66577 1.18415e-18
8200.52724 1.19554e-18
8201.38870 1.20260e-18
8202.25016 1.20966e-18
8203.12164 1.21074e-18
8203.98310 1.21182e-18
8204.84456 1.20831e-18
8205.70603 1.20480e-18
8206.56749 1.19741e-18
8207.42895 1.19000e-18
8208.29041 1.17932e-18
8209.15187 1.16864e-18
8210.01334 1.15640e-18
8210.87480 1.14416e-18
8211.73626 1.13263e-18
8212.60774 1.12110e-18
8213.46920 1.11122e-18
8214.33066 1.10135e-18
8215.19212 1.09296e-18
8216.05359 1.08458e-18
8216.91505 1.07503e-18
8217.77651 1.06548e-18
8218.63797 1.04738e-18
8219.49943 1.02925e-18
8220.36090 9.99772e-19
8221.22236 9.70269e-19
8222.08382 9.36967e-19
8222.95530 9.03657e-19
8223.81676 8.74962e-19
8224.67822 8.46275e-19
8225.53969 8.32748e-19
8226.40115 8.19261e-19
8227.26261 8.28532e-19
8228.12407 8.37854e-19
8228.98553 8.62817e-19
8229.84700 8.87814e-19
8230.70846 9.18600e-19
8231.57994 9.49403e-19
8232.44140 9.76424e-19
8233.30286 1.00345e-18
8234.16432 1.01780e-18
8235.02578 1.03212e-18
8235.88725 1.03676e-18
8236.74871 1.04137e-18
8237.61017 1.04372e-18
8238.47163 1.04607e-18
8239.33309 1.05131e-18
8240.19456 1.05655e-18
8241.06604 1.06900e-18
8241.92750 1.08146e-18
8242.78896 1.09859e-18
8243.65042 1.11572e-18
8244.51188 1.12975e-18
8245.37335 1.14377e-18
8246.23481 1.15089e-18
8247.09627 1.15798e-18
8247.95773 1.15861e-18
8248.81919 1.15922e-18
8249.68066 1.15491e-18
8250.54212 1.15060e-18
8251.41360 1.14481e-18
8252.27506 1.13903e-18
8253.13652 1.13499e-18
8253.99798 1.13097e-18
8254.85945 1.13065e-18
8255.72091 1.13034e-18
8256.58237 1.13483e-18
8257.44383 1.13933e-18
8258.30529 1.14787e-18
8259.16676 1.15642e-18
8260.02822 1.16736e-18
8260.89970 1.17832e-18
8261.76116 1.18864e-18
8262.62262 1.19896e-18
8263.48408 1.20569e-18
8264.34554 1.21240e-18
8265.20701 1.21284e-18
8266.06847 1.21327e-18
8266.92993 1.20566e-18
8267.79139 1.19804e-18
8268.65285 1.18644e-18
8269.52433 1.17482e-18
8270.38580 1.16483e-18
8271.24726 1.15485e-18
8272.10872 1.15025e-18
8272.97018 1.14567e-18
8273.83164 1.14939e-18
8274.69311 1.15312e-18
8275.55457 1.16223e-18
8276.41603 1.17134e-18
8277.27749 1.17927e-18
8278.13895 1.18720e-18
8279.01043 1.19126e-18
8279.87189 1.19532e-18
8280.73336 1.19615e-18
8281.59482 1.19697e-18
8282.45628 1.19657e-18
8283.31774 1.19615e-18
8284.17920 1.19865e-18
8285.04067 1.20116e-18
8285.90213 1.20814e-18
8286.76359 1.21514e-18
8287.62505 1.22286e-18
8288.48651 1.23058e-18
8289.34798 1.23704e-18
8290.21946 1.24349e-18
8291.08092 1.25167e-18
8291.94238 1.25986e-18
8292.80384 1.27150e-18
8293.66530 1.28314e-18
8294.52677 1.29519e-18
8295.38823 1.30723e-18
8296.24969 1.31688e-18
8297.11115 1.32652e-18
8297.97261 1.33195e-18
8298.83408 1.33738e-18
8299.70555 1.33752e-18
8300.56702 1.33764e-18
8301.42848 1.33888e-18
8302.28994 1.34013e-18
8303.15140 1.35003e-18
8304.01286 1.35995e-18
8304.87433 1.37561e-18
8305.73579 1.39127e-18
8306.59725 1.40638e-18
8307.45871 1.42149e-18
8308.32017 1.43223e-18
8309.18164 1.44296e-18
8310.05312 1.44654e-18
8310.91458 1.45011e-18
8311.77604 1.44951e-18
8312.63750 1.44889e-18
8313.49896 1.45133e-18
8314.36043 1.45377e-18
8315.22189 1.46331e-18
8316.08335 1.47287e-18
8316.94481 1.49032e-18
8317.80627 1.50780e-18
8318.67775 1.53111e-18
8319.53921 1.55443e-18
8320.40068 1.57710e-18
8321.26214 1.59977e-18
8322.12360 1.61718e-18
8322.98506 1.63456e-18
8323.84652 1.64662e-18
8324.70799 1.65867e-18
8325.56945 1.66600e-18
8326.43091 1.67333e-18
8327.29237 1.67774e-18
8328.16385 1.68215e-18
8329.02531 1.68589e-18
8329.88678 1.68962e-18
8330.74824 1.69397e-18
8331.60970 1.69832e-18
8332.47116 1.70456e-18
8333.33262 1.71081e-18
8334.19408 1.72207e-18
8335.05555 1.73335e-18
8335.91701 1.75224e-18
8336.77847 1.77115e-18
8337.64995 1.79564e-18
8338.51141 1.82013e-18
8339.37287 1.84671e-18
8340.23434 1.87331e-18
8341.09580 1.89721e-18
8341.95726 1.92110e-18
8342.81872 1.93711e-18
8343.68018 1.95311e-18
8344.54165 1.96137e-18
8345.40311 1.96960e-18
8346.26457 1.97372e-18
8347.12603 1.97783e-18
8347.99751 1.98078e-18
8348.85897 1.98373e-18
8349.72043 1.98772e-18
8350.58190 1.99171e-18
8351.44336 1.99932e-18
8352.30482 2.00693e-18
8353.16628 2.02086e-18
8354.02775 2.03480e-18
8354.88921 2.05538e-18
8355.75067 2.07597e-18
8356.62215 2.09982e-18
8357.48361 2.12370e-18
8358.34507 2.14748e-18
8359.20653 2.17127e-18
8360.06800 2.19208e-18
8360.92946 2.21287e-18
8361.79092 2.22893e-18
8362.65238 2.24498e-18
8363.51384 2.25933e-18
8364.37531 2.27368e-18
8365.23677 2.28929e-18
8366.10825 2.30491e-18
8366.96971 2.31983e-18
8367.83117 2.33476e-18
8368.69263 2.34695e-18
8369.55410 2.35915e-18
8370.41556 2.37059e-18
8371.27702 2.38205e-18
8372.13848 2.39549e-18
8372.99994 2.40893e-18
8373.86140 2.42586e-18
8374.72287 2.44280e-18
8375.59435 2.46417e-18
8376.45581 2.48557e-18
8377.31727 2.51119e-18
8378.17873 2.53682e-18
8379.04019 2.56570e-18
8379.90166 2.59458e-18
8380.76312 2.62514e-18
8381.62458 2.65570e-18
8382.48604 2.68608e-18
8383.34750 2.71646e-18
8384.20897 2.74512e-18
8385.07043 2.77377e-18
8385.94191 2.79929e-18
8386.80337 2.82481e-18
8387.66483 2.84804e-18
8388.52629 2.87127e-18
8389.38775 2.89673e-18
8390.24922 2.92219e-18
8391.11068 2.95114e-18
8391.97214 2.98008e-18
8392.83360 3.00670e-18
8393.69507 3.03331e-18
8394.55653 3.05342e-18
8395.41799 3.07352e-18
8396.28947 3.08701e-18
8397.15093 3.10049e-18
8398.01239 3.10905e-18
8398.87385 3.11760e-18
8399.73532 3.13069e-18
8400.59678 3.14379e-18
8401.45824 3.17005e-18
8402.31970 3.19633e-18
8403.18116 3.23297e-18
8404.04263 3.26962e-18
8404.90409 3.31135e-18
8405.77557 3.35308e-18
8406.63703 3.39406e-18
8407.49849 3.43503e-18
8408.35995 3.46923e-18
8409.22142 3.50340e-18
8410.08288 3.53084e-18
8410.94434 3.55826e-18
8411.80580 3.58202e-18
8412.66726 3.60577e-18
8413.52873 3.62797e-18
8414.39019 3.65017e-18
8415.26167 3.67254e-18
8416.12313 3.69493e-18
8416.98459 3.71930e-18
8417.84605 3.74368e-18
8418.70751 3.77156e-18
8419.56898 3.79944e-18
8420.43044 3.83140e-18
8421.29190 3.86337e-18
8422.15336 3.89927e-18
8423.01482 3.93520e-18
8423.87629 3.97315e-18
8424.74777 4.01112e-18
8425.60923 4.04587e-18
8426.47069 4.08062e-18
8427.33215 4.11003e-18
8428.19361 4.13943e-18
8429.05508 4.16944e-18
8429.91654 4.19944e-18
8430.77800 4.23486e-18
8431.63946 4.27030e-18
8432.50092 4.31166e-18
8433.36239 4.35304e-18
8434.23386 4.39957e-18
8435.09533 4.44611e-18
8435.95679 4.49008e-18
8436.81825 4.53405e-18
8437.67971 4.56785e-18
8438.54117 4.60164e-18
8439.40264 4.62972e-18
8440.26410 4.65778e-18
8441.12556 4.68737e-18
8441.98702 4.71695e-18
8442.84848 4.75016e-18
8443.70995 4.78340e-18
8444.58143 4.82075e-18
8445.44289 4.85811e-18
8446.30435 4.89999e-18
8447.16581 4.94188e-18
8448.02727 4.98816e-18
8448.88874 5.03445e-18
8449.75020 5.08371e-18
8450.61166 5.13297e-18
8451.47312 5.18311e-18
8452.33458 5.23324e-18
8453.20606 5.28185e-18
8454.06752 5.33044e-18
8454.92899 5.37461e-18
8455.79045 5.41875e-18
8456.65191 5.45910e-18
8457.51337 5.49944e-18
8458.37483 5.54224e-18
8459.23630 5.58504e-18
8460.09776 5.63293e-18
8460.95922 5.68083e-18
8461.82068 5.72844e-18
8462.69216 5.77604e-18
8463.55362 5.81955e-18
8464.41508 5.86305e-18
8465.27655 5.90275e-18
8466.13801 5.94244e-18
8466.99947 5.97993e-18
8467.86093 6.01741e-18
8468.72240 6.06065e-18
8469.58386 6.10390e-18
8470.44532 6.15992e-18
8471.30678 6.21597e-18
8472.16824 6.28043e-18
8473.03972 6.34491e-18
8473.90118 6.41147e-18
8474.76265 6.47803e-18
8475.62411 6.54190e-18
8476.48557 6.60576e-18
8477.34703 6.66233e-18
8478.20849 6.71888e-18
8479.06996 6.77360e-18
8479.93142 6.82831e-18
8480.79288 6.89113e-18
8481.65434 6.95396e-18
8482.51580 7.02266e-18
8483.38728 7.09136e-18
8484.24875 7.15666e-18
8485.11021 7.22195e-18
8485.97167 7.27973e-18
8486.83313 7.33748e-18
8487.69459 7.38762e-18
8488.55605 7.43774e-18
8489.41752 7.48288e-18
8490.27898 7.52802e-18
8491.14044 7.57486e-18
8492.00190 7.62170e-18
8492.87338 7.67459e-18
8493.73484 7.72749e-18
8494.59631 7.78524e-18
8495.45777 7.84299e-18
8496.31923 7.90623e-18
8497.18069 7.96950e-18
8498.04215 8.04530e-18
8498.90362 8.12114e-18
8499.76508 8.21218e-18
8500.62654 8.30325e-18
8501.48800 8.39736e-18
8502.35948 8.49148e-18
8503.22094 8.57678e-18
8504.08240 8.66207e-18
8504.94387 8.73612e-18
8505.80533 8.81009e-18
8506.66679 8.87240e-18
8507.52825 8.93462e-18
8508.38972 8.98951e-18
8509.25118 9.04440e-18
8510.11264 9.09779e-18
8510.98412 9.15127e-18
8511.84558 9.20549e-18
8512.70704 9.25972e-18
8513.56850 9.31594e-18
8514.42997 9.37209e-18
8515.29143 9.43006e-18
8516.15289 9.48803e-18
8517.01435 9.54709e-18
8517.87581 9.60615e-18
8518.73728 9.66629e-18
8519.59874 9.72634e-18
8520.46020 9.78773e-18
8521.33168 9.84904e-18
8522.19314 9.91434e-18
8523.05460 9.97956e-18
8523.91607 1.00538e-17
8524.77753 1.01281e-17
8525.63899 1.02130e-17
8526.50045 1.02978e-17
8527.36191 1.03903e-17
8528.22337 1.04827e-17
8529.08484 1.05778e-17
8529.94630 1.06729e-17
8530.80776 1.07628e-17
8531.67924 1.08527e-17
8532.54070 1.09309e-17
8533.40216 1.10090e-17
8534.26363 1.10731e-17
8535.12509 1.11371e-17
8535.98655 1.11877e-17
8536.84801 1.12383e-17
8537.70947 1.12852e-17
8538.57094 1.13321e-17
8539.43240 1.13857e-17
8540.30388 1.14393e-17
8541.16534 1.15065e-17
8542.02680 1.15736e-17
8542.88826 1.16584e-17
8543.74972 1.17433e-17
8544.61119 1.18401e-17
8545.47265 1.19370e-17
8546.33411 1.20370e-17
8547.19557 1.21370e-17
8548.05703 1.22248e-17
8548.91850 1.23125e-17
8549.78998 1.23711e-17
8550.65144 1.24296e-17
8551.51290 1.24605e-17
8552.37436 1.24913e-17
8553.23582 1.25073e-17
8554.09729 1.25233e-17
8554.95875 1.25417e-17
8555.82021 1.25602e-17
8556.68167 1.26015e-17
8557.54313 1.26429e-17
8558.40460 1.27165e-17
8559.27607 1.27900e-17
8560.13754 1.28901e-17
8560.99900 1.29901e-17
8561.86046 1.31057e-17
8562.72192 1.32213e-17
8563.58338 1.33346e-17
8564.44485 1.34480e-17
8565.30631 1.35426e-17
8566.16777 1.36372e-17
8567.02923 1.37022e-17
8567.89070 1.37672e-17
8568.75216 1.37975e-17
8569.62364 1.38278e-17
8570.48510 1.38320e-17
8571.34656 1.38361e-17
8572.20802 1.38266e-17
8573.06948 1.38169e-17
8573.93095 1.38072e-17
8574.79241 1.37974e-17
8575.65387 1.38007e-17
8576.51533 1.38040e-17
8577.37679 1.38341e-17
8578.23826 1.38642e-17
8579.09972 1.39315e-17
8579.97120 1.39989e-17
8580.83266 1.40904e-17
8581.69412 1.41819e-17
8582.55558 1.42758e-17
8583.41705 1.43697e-17
8584.27851 1.44484e-17
8585.13997 1.45272e-17
8586.00143 1.45765e-17
8586.86289 1.46258e-17
8587.72436 1.46437e-17
8588.58582 1.46616e-17
8589.45730 1.46561e-17
8590.31876 1.46504e-17
8591.18022 1.46338e-17
8592.04168 1.46171e-17
8592.90314 1.46060e-17
8593.76461 1.45948e-17
8594.62607 1.45985e-17
8595.48753 1.46020e-17
8596.34899 1.46168e-17
8597.21045 1.46315e-17
8598.07192 1.46549e-17
8598.94340 1.46785e-17
8599.80486 1.47132e-17
8600.66632 1.47479e-17
8601.52778 1.47927e-17
8602.38924 1.48375e-17
8603.25071 1.48853e-17
8604.11217 1.49332e-17
8604.97363 1.49762e-17
8605.83509 1.50193e-17
8606.69655 1.50469e-17
8607.56803 1.50746e-17
8608.42949 1.50784e-17
8609.29096 1.50822e-17
8610.15242 1.50645e-17
8611.01388 1.50467e-17
8611.87534 1.50135e-17
8612.73680 1.49803e-17
8613.59827 1.49385e-17
8614.45973 1.48966e-17
8615.32119 1.48533e-17
8616.18265 1.48100e-17
8617.04411 1.47787e-17
8617.91559 1.47475e-17
8618.77706 1.47432e-17
8619.63852 1.47388e-17
8620.49998 1.47622e-17
8621.36144 1.47856e-17
8622.22290 1.48287e-17
8623.08437 1.48719e-17
8623.94583 1.49232e-17
8624.80729 1.49746e-17
8625.66875 1.50197e-17
8626.53021 1.50648e-17
8627.40169 1.50948e-17
8628.26315 1.51248e-17
8629.12462 1.51396e-17
8629.98608 1.51545e-17
8630.84754 1.51537e-17
8631.70900 1.51530e-17
8632.57046 1.51346e-17
8633.43193 1.51162e-17
8634.29339 1.50828e-17
8635.15485 1.50494e-17
8636.01631 1.50114e-17
8636.88779 1.49734e-17
8637.74925 1.49417e-17
8638.61072 1.49102e-17
8639.47218 1.48975e-17
8640.33364 1.48849e-17
8641.19510 1.49000e-17
8642.05656 1.49151e-17
8642.91803 1.49505e-17
8643.77949 1.49860e-17
8644.64095 1.50308e-17
8645.50241 1.50755e-17
8646.37389 1.51179e-17
8647.23535 1.51603e-17
8648.09681 1.51888e-17
8648.95828 1.52172e-17
8649.81974 1.52274e-17
8650.68120 1.52377e-17
8651.54266 1.52298e-17
8652.40412 1.52219e-17
8653.26559 1.51948e-17
8654.12705 1.51676e-17
8654.98851 1.51203e-17
8655.85999 1.50730e-17
8656.72145 1.50138e-17
8657.58291 1.49546e-17
8658.44438 1.48977e-17
8659.30584 1.48408e-17
8660.16730 1.47960e-17
8661.02876 1.47512e-17
8661.89022 1.47228e-17
8662.75168 1.46946e-17
8663.61315 1.46849e-17
8664.47461 1.46753e-17
8665.33607 1.46838e-17
8666.20755 1.46922e-17
8667.06901 1.47147e-17
8667.93047 1.47372e-17
8668.79194 1.47668e-17
8669.65340 1.47965e-17
8670.51486 1.48236e-17
8671.37632 1.48508e-17
8672.23778 1.48592e-17
8673.09925 1.48675e-17
8673.96071 1.48450e-17
8674.82217 1.48224e-17
8675.68363 1.47727e-17
8676.55511 1.47229e-17
8677.41657 1.46539e-17
8678.27803 1.45848e-17
8679.13950 1.45101e-17
8680.00096 1.44353e-17
8680.86242 1.43696e-17
8681.72388 1.43039e-17
8682.58535 1.42532e-17
8683.44681 1.42026e-17
8684.30827 1.41689e-17
8685.16973 1.41353e-17
8686.04121 1.41207e-17
8686.90267 1.41062e-17
8687.76413 1.41109e-17
8688.62560 1.41158e-17
8689.48706 1.41362e-17
8690.34852 1.41566e-17
8691.20998 1.41866e-17
8692.07144 1.42166e-17
8692.93291 1.42461e-17
8693.79437 1.42755e-17
8694.66585 1.42914e-17
8695.52731 1.43073e-17
8696.38877 1.43019e-17
8697.25023 1.42963e-17
8698.11170 1.42679e-17
8698.97316 1.42395e-17
8699.83462 1.41915e-17
8700.69608 1.41434e-17
8701.55754 1.40860e-17
8702.41900 1.40286e-17
8703.28047 1.39708e-17
8704.15195 1.39128e-17
8705.01341 1.38546e-17
8705.87487 1.37964e-17
8706.73633 1.37404e-17
8707.59779 1.36844e-17
8708.45926 1.36422e-17
8709.32072 1.36002e-17
8710.18218 1.35811e-17
8711.04364 1.35620e-17
8711.90510 1.35664e-17
8712.76657 1.35708e-17
8713.62803 1.35953e-17
8714.49951 1.36198e-17
8715.36097 1.36466e-17
8716.22243 1.36733e-17
8717.08389 1.36820e-17
8717.94535 1.36906e-17
8718.80682 1.36730e-17
8719.66828 1.36551e-17
8720.52974 1.36081e-17
8721.39120 1.35609e-17
8722.25267 1.34960e-17
8723.11413 1.34310e-17
8723.98561 1.33684e-17
8724.84707 1.33056e-17
8725.70853 1.32527e-17
8726.56999 1.31998e-17
8727.43145 1.31545e-17
8728.29292 1.31092e-17
8729.15438 1.30717e-17
8730.01584 1.30343e-17
8730.87730 1.30056e-17
8731.73876 1.29769e-17
8732.61024 1.29597e-17
8733.47170 1.29425e-17
8734.33317 1.29447e-17
8735.19463 1.29470e-17
8736.05609 1.29664e-17
8736.91755 1.29857e-17
8737.77902 1.29993e-17
8738.64048 1.30129e-17
8739.50194 1.30014e-17
8740.36340 1.29899e-17
8741.22486 1.29427e-17
8742.08633 1.28955e-17
8742.95780 1.28099e-17
8743.81927 1.27243e-17
8744.68073 1.26250e-17
8745.54219 1.25257e-17
8746.40365 1.24394e-17
8747.26511 1.23532e-17
8748.12658 1.22926e-17
8748.98804 1.22321e-17
8749.84950 1.22046e-17
8750.71096 1.21772e-17
8751.57242 1.21751e-17
8752.44390 1.21731e-17
8753.30537 1.21816e-17
8754.16683 1.21902e-17
8755.02829 1.22012e-17
8755.88975 1.22122e-17
8756.75121 1.22204e-17
8757.61268 1.22285e-17
8758.47414 1.22220e-17
8759.33560 1.22153e-17
8760.19706 1.21795e-17
8761.05852 1.21436e-17
8761.91999 1.20762e-17
8762.79146 1.20087e-17
8763.65293 1.19175e-17
8764.51439 1.18262e-17
8765.37585 1.17239e-17
8766.23731 1.16216e-17
8767.09877 1.15263e-17
8767.96024 1.14312e-17
8768.82170 1.13547e-17
8769.68316 1.12784e-17
8770.54462 1.12193e-17
8771.40608 1.11604e-17
8772.26755 1.11161e-17
8773.13903 1.10720e-17
8774.00049 1.10406e-17
8774.86195 1.10091e-17
8775.72341 1.09863e-17
8776.58487 1.09634e-17
8777.44633 1.09454e-17
8778.30780 1.09275e-17
8779.16926 1.09091e-17
8780.03072 1.08908e-17
8780.89218 1.08562e-17
8781.76366 1.08216e-17
8782.62512 1.07565e-17
8783.48659 1.06912e-17
8784.34805 1.06023e-17
8785.20951 1.05134e-17
8786.07097 1.04135e-17
8786.93243 1.03137e-17
8787.79390 1.02124e-17
8788.65536 1.01111e-17
8789.51682 1.00177e-17
8790.37828 9.92434e-18
8791.24976 9.83862e-18
8792.11122 9.75291e-18
8792.97268 9.66820e-18
8793.83415 9.58341e-18
8794.69561 9.50394e-18
8795.55707 9.42456e-18
8796.41853 9.36259e-18
8797.28000 9.30078e-18
8798.14146 9.25389e-18
8799.00292 9.20708e-18
8799.86438 9.15893e-18
8800.72584 9.11079e-18
8801.59732 9.04807e-18
8802.45878 8.98534e-18
8803.32025 8.89905e-18
8804.18171 8.81276e-18
8805.04317 8.70172e-18
8805.90463 8.59069e-18
8806.76609 8.47091e-18
8807.62756 8.35105e-18
8808.48902 8.23707e-18
8809.35048 8.12316e-18
8810.21194 8.02206e-18
8811.08342 7.92100e-18
8811.94488 7.83747e-18
8812.80635 7.75399e-18
8813.66781 7.68619e-18
8814.52927 7.61844e-18
8815.39073 7.56192e-18
8816.25219 7.50543e-18
8817.11365 7.45466e-18
8817.97512 7.40391e-18
8818.83658 7.35269e-18
8819.70806 7.30148e-18
8820.56952 7.24233e-18
8821.43098 7.18314e-18
8822.29244 7.10952e-18
8823.15391 7.03586e-18
8824.01537 6.94696e-18
8824.87683 6.85802e-18
8825.73829 6.75620e-18
8826.59975 6.65433e-18
8827.46122 6.54896e-18
8828.32268 6.44357e-18
8829.19416 6.34816e-18
8830.05562 6.25277e-18
8830.91708 6.17421e-18
8831.77854 6.09570e-18
8832.64000 6.03447e-18
8833.50147 5.97330e-18
8834.36293 5.92723e-18
8835.22439 5.88120e-18
8836.08585 5.84489e-18
8836.94732 5.80861e-18
8837.80878 5.77574e-18
8838.67024 5.74288e-18
8839.54172 5.70697e-18
8840.40318 5.67106e-18
8841.26464 5.62734e-18
8842.12610 5.58360e-18
8842.98757 5.53143e-18
8843.84903 5.47924e-18
8844.71049 5.41963e-18
8845.57195 5.36000e-18
8846.43341 5.29642e-18
8847.29488 5.23284e-18
8848.15634 5.16979e-18
8849.02782 5.10674e-18
8849.88928 5.04659e-18
8850.75074 4.98646e-18
8851.61220 4.93149e-18
8852.47367 4.87655e-18
8853.33513 4.83845e-18
8854.19659 4.80038e-18
8855.05805 4.79076e-18
8855.91951 4.78122e-18
8856.78097 4.79085e-18
8857.64244 4.80054e-18
8858.50390 4.81315e-18
8859.36536 4.82576e-18
8860.23684 4.82791e-18
8861.09830 4.83003e-18
8861.95976 4.80958e-18
8862.82123 4.78906e-18
8863.68269 4.75058e-18
8864.54415 4.71205e-18
8865.40561 4.67323e-18
8866.26707 4.63442e-18
8867.12854 4.60350e-18
8867.99000 4.57260e-18
8868.86148 4.54751e-18
8869.72294 4.52242e-18
8870.58440 4.50223e-18
8871.44586 4.48206e-18
8872.30732 4.46601e-18
8873.16879 4.44997e-18
8874.03025 4.43894e-18
8874.89171 4.42791e-18
8875.75317 4.42869e-18
8876.61463 4.42951e-18
8877.47610 4.44486e-18
8878.34758 4.46025e-18
8879.20904 4.48169e-18
8880.07050 4.50313e-18
8880.93196 4.52174e-18
8881.79342 4.54034e-18
8882.65489 4.54785e-18
8883.51635 4.55532e-18
8884.37781 4.54569e-18
8885.23927 4.53602e-18
8886.10073 4.51482e-18
8886.96220 4.49360e-18
8887.83367 4.46956e-18
8888.69514 4.44551e-18
8889.55660 4.42669e-18
8890.41806 4.40787e-18
8891.27952 4.40156e-18
8892.14099 4.39530e-18
8893.00245 4.40564e-18
8893.86391 4.41604e-18
8894.72537 4.44468e-18
8895.58683 4.47336e-18
8896.44830 4.51354e-18
8897.30976 4.55375e-18
8898.18124 4.59398e-18
8899.04270 4.63421e-18
8899.90416 4.66465e-18
8900.76562 4.69506e-18
8901.62708 4.70752e-18
8902.48855 4.71994e-18
8903.35001 4.71568e-18
8904.21147 4.71138e-18
8905.07293 4.70403e-18
8905.93439 4.69666e-18
8906.80587 4.69516e-18
8907.66734 4.69366e-18
8908.52880 4.69710e-18
8909.39026 4.70055e-18
8910.25172 4.70897e-18
8911.11318 4.71739e-18
8911.97465 4.73244e-18
8912.83611 4.74750e-18
8913.69757 4.76986e-18
8914.55903 4.79225e-18
8915.42049 4.82353e-18
8916.29197 4.85482e-18
8917.15343 4.89463e-18
8918.01490 4.93446e-18
8918.87636 4.97255e-18
8919.73782 5.01065e-18
8920.59928 5.03678e-18
8921.46074 5.06289e-18
8922.32221 5.07416e-18
8923.18367 5.08540e-18
8924.04513 5.08150e-18
8924.90659 5.07756e-18
8925.76805 5.07056e-18
8926.63953 5.06355e-18
8927.50100 5.06994e-18
8928.36246 5.07635e-18
8929.22392 5.09674e-18
8930.08538 5.11716e-18
8930.94684 5.14411e-18
8931.80831 5.17107e-18
8932.66977 5.19919e-18
8933.53123 5.22729e-18
8934.39269 5.25134e-18
8935.25415 5.27537e-18
8936.12563 5.29782e-18
8936.98709 5.32026e-18
8937.84856 5.35287e-18
8938.71002 5.38553e-18
8939.57148 5.42886e-18
8940.43294 5.47221e-18
8941.29440 5.51028e-18
8942.15587 5.54834e-18
8943.01733 5.56942e-18
8943.87879 5.59045e-18
8944.74025 5.58929e-18
8945.61173 5.58807e-18
8946.47319 5.56656e-18
8947.33466 5.54500e-18
8948.19612 5.52779e-18
8949.05758 5.51060e-18
8949.91904 5.51772e-18
8950.78050 5.52490e-18
8951.64197 5.55011e-18
8952.50343 5.57536e-18
8953.36489 5.60861e-18
8954.22635 5.64188e-18
8955.08781 5.65694e-18
8955.95929 5.67195e-18
8956.82075 5.64304e-18
8957.68222 5.61403e-18
8958.54368 5.57323e-18
8959.40514 5.53241e-18
8960.26660 5.52697e-18
8961.12806 5.52163e-18
8961.98953 5.55830e-18
8962.85099 5.59508e-18
8963.71245 5.66491e-18
8964.57391 5.73483e-18
8965.44539 5.81518e-18
8966.30685 5.89556e-18
8967.16832 5.95219e-18
8968.02978 6.00878e-18
8968.89124 6.04544e-18
8969.75270 6.08207e-18
8970.61416 6.13621e-18
8971.47563 6.19040e-18
8972.33709 6.27499e-18
8973.19855 6.35966e-18
8974.06001 6.45866e-18
8974.93149 6.55768e-18
8975.79295 6.64786e-18
8976.65441 6.73801e-18
8977.51588 6.78387e-18
8978.37734 6.82960e-18
8979.23880 6.80348e-18
8980.10026 6.77716e-18
8980.96172 6.66126e-18
8981.82319 6.54512e-18
8982.68465 6.35086e-18
8983.54611 6.15640e-18
8984.41759 5.98828e-18
8985.27905 5.82023e-18
8986.14051 5.77462e-18
8987.00198 5.72934e-18
8987.86344 5.83931e-18
8988.72490 5.94969e-18
8989.58636 6.22021e-18
8990.44782 6.49114e-18
8991.30928 6.79310e-18
8992.17075 7.09513e-18
8993.03221 7.27310e-18
8993.89367 7.45074e-18
8994.76515 7.48143e-18
8995.62661 7.51174e-18
8996.48807 7.42356e-18
8997.34954 7.33507e-18
8998.21100 7.19754e-18
8999.07246 7.05988e-18
8999.93392 6.96786e-18
9000.79538 6.87595e-18
9001.65685 6.87078e-18
9002.51831 6.86585e-18
9003.38979 6.94498e-18
9004.25125 7.02432e-18
9005.11271 7.16017e-18
9005.97417 7.29616e-18
9006.83563 7.43463e-18
9007.69710 7.57310e-18
9008.55856 7.67203e-18
9009.42002 7.77085e-18
9010.28148 7.81068e-18
9011.14295 7.85035e-18
9012.00441 7.83197e-18
9012.87589 7.81342e-18
9013.73735 7.78327e-18
9014.59881 7.75310e-18
9015.46027 7.74568e-18
9016.32173 7.73832e-18
9017.18320 7.73256e-18
9018.04466 7.72681e-18
9018.90612 7.70705e-18
9019.76758 7.68725e-18
9020.62904 7.67160e-18
9021.49051 7.65595e-18
9022.35197 7.66322e-18
9023.22345 7.67055e-18
9024.08491 7.72442e-18
9024.94637 7.77841e-18
9025.80783 7.89778e-18
9026.66930 8.01733e-18
9027.53076 8.17351e-18
9028.39222 8.32981e-18
9029.25368 8.47941e-18
9030.11514 8.62892e-18
9030.97660 8.74179e-18
9031.83807 8.85449e-18
9032.70955 8.90821e-18
9033.57101 8.96177e-18
9034.43247 8.95436e-18
9035.29393 8.94678e-18
9036.15539 8.88964e-18
9037.01686 8.83233e-18
9037.87832 8.75478e-18
9038.73978 8.67715e-18
9039.60124 8.62426e-18
9040.46270 8.57153e-18
9041.32417 8.55537e-18
9042.18563 8.53930e-18
9043.05711 8.52689e-18
9043.91857 8.51439e-18
9044.78003 8.48832e-18
9045.64149 8.46216e-18
9046.50295 8.43284e-18
9047.36442 8.40352e-18
9048.22588 8.38004e-18
9049.08734 8.35655e-18
9049.94880 8.35338e-18
9050.81027 8.35013e-18
9051.67173 8.37112e-18
9052.54321 8.39220e-18
9053.40467 8.39445e-18
9054.26613 8.39653e-18
9055.12759 8.34239e-18
9055.98905 8.28812e-18
9056.85052 8.19767e-18
9057.71198 8.10712e-18
9058.57344 8.00760e-18
9059.43490 7.90807e-18
9060.29636 7.80288e-18
9061.16784 7.69767e-18
9062.02931 7.58814e-18
9062.89077 7.47860e-18
9063.75223 7.36076e-18
9064.61369 7.24288e-18
9065.47515 7.10794e-18
9066.33662 6.97294e-18
9067.19808 6.85526e-18
9068.05954 6.73763e-18
9068.92100 6.69427e-18
9069.78246 6.65112e-18
9070.64393 6.66947e-18
9071.51540 6.68799e-18
9072.37687 6.70417e-18
9073.23833 6.72035e-18
9074.09979 6.71078e-18
9074.96125 6.70115e-18
9075.82271 6.68368e-18
9076.68418 6.66618e-18
9077.54564 6.65196e-18
9078.40710 6.63775e-18
9079.26856 6.63323e-18
9080.13002 6.62873e-18
9080.99149 6.63365e-18
9081.86297 6.63859e-18
9082.72443 6.63081e-18
9083.58589 6.62299e-18
9084.44735 6.59013e-18
9085.30881 6.55721e-18
9086.17028 6.52368e-18
9087.03174 6.49015e-18
9087.89320 6.47474e-18
9088.75466 6.45937e-18
9089.61612 6.43810e-18
9090.48760 6.41680e-18
9091.34906 6.36666e-18
9092.21053 6.31674e-18
9093.07199 6.26147e-18
9093.93345 6.20620e-18
9094.79491 6.17482e-18
9095.65637 6.14352e-18
9096.51784 6.12781e-18
9097.37930 6.11215e-18
9098.24076 6.09480e-18
9099.10222 6.07743e-18
9099.97370 6.06291e-18
9100.83516 6.04840e-18
9101.69663 6.04598e-18
9102.55809 6.04360e-18
9103.41955 6.07104e-18
9104.28101 6.09856e-18
9105.14247 6.18126e-18
9106.00393 6.26413e-18
9106.86540 6.37196e-18
9107.72686 6.47986e-18
9108.58832 6.53553e-18
9109.45980 6.59105e-18
9110.32126 6.56159e-18
9111.18272 6.53191e-18
9112.04419 6.43652e-18
9112.90565 6.34094e-18
9113.76711 6.21902e-18
9114.62857 6.09704e-18
9115.49003 6.02951e-18
9116.35150 5.96212e-18
9117.21296 5.99112e-18
9118.07442 6.02038e-18
9118.93588 6.08349e-18
9119.80736 6.14671e-18
9120.66882 6.18300e-18
9121.53028 6.21921e-18
9122.39175 6.18965e-18
9123.25321 6.15991e-18
9124.11467 6.04105e-18
9124.97613 5.92196e-18
9125.83760 5.76878e-18
9126.69906 5.61551e-18
9127.56052 5.49493e-18
9128.43200 5.37443e-18
9129.29346 5.32100e-18
9130.15492 5.26775e-18
9131.01638 5.30375e-18
9131.87785 5.33999e-18
9132.73931 5.45040e-18
9133.60077 5.56101e-18
9134.46223 5.71189e-18
9135.32369 5.86288e-18
9136.18516 6.01889e-18
9137.04662 6.17492e-18
9137.90808 6.29960e-18
9138.76954 6.42420e-18
9139.64102 6.49409e-18
9140.50248 6.56382e-18
9141.36395 6.57100e-18
9142.22541 6.57800e-18
9143.08687 6.51057e-18
9143.94833 6.44295e-18
9144.80979 6.28383e-18
9145.67125 6.12447e-18
9146.53272 5.89428e-18
9147.39418 5.66390e-18
9148.26566 5.43217e-18
9149.12712 5.20044e-18
9149.98858 5.03026e-18
9150.85004 4.86025e-18
9151.71151 4.80265e-18
9152.57297 4.74537e-18
9153.43443 4.82027e-18
9154.29589 4.89552e-18
9155.15735 5.03746e-18
9156.01882 5.17957e-18
9156.88028 5.31937e-18
9157.75176 5.45917e-18
9158.61322 5.56450e-18
9159.47468 5.66974e-18
9160.33614 5.71563e-18
9161.19760 5.76134e-18
9162.05907 5.74944e-18
9162.92053 5.73737e-18
9163.78199 5.68125e-18
9164.64345 5.62502e-18
9165.50492 5.52281e-18
9166.36638 5.42048e-18
9167.22784 5.26976e-18
9168.09932 5.11892e-18
9168.96078 4.95709e-18
9169.82224 4.79524e-18
9170.68370 4.67292e-18
9171.54517 4.55072e-18
9172.40663 4.49321e-18
9173.26809 4.43586e-18
9174.12955 4.45416e-18
9174.99101 4.47267e-18
9175.85248 4.53568e-18
9176.71394 4.59880e-18
9177.58542 4.63580e-18
9178.44688 4.67272e-18
9179.30834 4.66314e-18
9180.16980 4.65344e-18
9181.03127 4.64369e-18
9181.89273 4.63394e-18
9182.75419 4.64955e-18
9183.61565 4.66524e-18
9184.47711 4.69710e-18
9185.33857 4.72901e-18
9186.20004 4.76615e-18
9187.07152 4.80329e-18
9187.93298 4.81906e-18
9188.79444 4.83477e-18
9189.65590 4.81438e-18
9190.51736 4.79389e-18
9191.37883 4.77853e-18
9192.24029 4.76317e-18
9193.10175 4.78945e-18
9193.96321 4.81585e-18
9194.82467 4.86750e-18
9195.68614 4.91921e-18
9196.55762 4.97298e-18
9197.41908 5.02675e-18
9198.28054 5.06161e-18
9199.14200 5.09643e-18
9200.00346 5.09221e-18
9200.86492 5.08789e-18
9201.72639 5.05946e-18
9202.58785 5.03095e-18
9203.44931 5.00758e-18
9204.31077 4.98422e-18
9205.17224 4.96676e-18
9206.04371 4.94930e-18
9206.90518 4.92488e-18
9207.76664 4.90045e-18
9208.62810 4.87317e-18
9209.48956 4.84588e-18
9210.35102 4.82949e-18
9211.21249 4.81312e-18
9212.07395 4.82141e-18
9212.93541 4.82979e-18
9213.79687 4.87860e-18
9214.65833 4.92752e-18
9215.52981 5.01368e-18
9216.39127 5.09995e-18
9217.25274 5.19072e-18
9218.11420 5.28151e-18
9218.97566 5.35564e-18
9219.83712 5.42971e-18
9220.69859 5.49398e-18
9221.56005 5.55821e-18
9222.42151 5.61643e-18
9223.28297 5.67463e-18
9224.14443 5.72032e-18
9225.00590 5.76597e-18
9225.87737 5.79459e-18
9226.73884 5.82317e-18
9227.60030 5.82997e-18
9228.46176 5.83672e-18
9229.32322 5.81988e-18
9230.18468 5.80299e-18
9231.04615 5.78170e-18
9231.90761 5.76040e-18
9232.76907 5.75683e-18
9233.63053 5.75331e-18
9234.49199 5.76260e-18
9235.35346 5.77191e-18
9236.22494 5.78156e-18
9237.08640 5.79122e-18
9237.94786 5.80693e-18
9238.80932 5.82265e-18
9239.67078 5.85615e-18
9240.53225 5.88968e-18
9241.39371 5.94657e-18
9242.25517 6.00353e-18
9243.11663 6.08611e-18
9243.97809 6.16876e-18
9244.84957 6.26984e-18
9245.71103 6.37096e-18
9246.57250 6.47413e-18
9247.43396 6.57730e-18
9248.29542 6.67318e-18
9249.15688 6.76904e-18
9250.01834 6.85957e-18
9250.87981 6.95008e-18
9251.74127 7.03069e-18
9252.60273 7.11126e-18
9253.46419 7.16262e-18
9254.32565 7.21390e-18
9255.19713 7.23286e-18
9256.05860 7.25171e-18
9256.92006 7.27582e-18
9257.78152 7.29994e-18
9258.64298 7.35746e-18
9259.50444 7.41506e-18
9260.36591 7.49744e-18
9261.22737 7.57988e-18
9262.08883 7.67194e-18
9262.95029 7.76401e-18
9263.81175 7.83252e-18
9264.68323 7.90094e-18
9265.54469 7.91408e-18
9266.40616 7.92707e-18
9267.26762 7.88573e-18
9268.12908 7.84425e-18
9268.99054 7.76155e-18
9269.85200 7.67874e-18
9270.71347 7.58545e-18
9271.57493 7.49215e-18
9272.43639 7.42498e-18
9273.29785 7.35790e-18
9274.16933 7.34583e-18
9275.03079 7.33391e-18
9275.89226 7.39813e-18
9276.75372 7.46257e-18
9277.61518 7.59228e-18
9278.47664 7.72217e-18
9279.33810 7.88164e-18
9280.19957 8.04120e-18
9281.06103 8.19189e-18
9281.92249 8.34255e-18
9282.79397 8.44725e-18
9283.65543 8.55187e-18
9284.51689 8.58103e-18
9285.37835 8.60993e-18
9286.23982 8.54596e-18
9287.10128 8.48174e-18
9287.96274 8.33239e-18
9288.82420 8.18272e-18
9289.68566 7.99531e-18
9290.54713 7.80780e-18
9291.40859 7.63742e-18
9292.27005 7.46709e-18
9293.14153 7.38624e-18
9294.00299 7.30562e-18
9294.86445 7.36162e-18
9295.72592 7.41800e-18
9296.58738 7.56210e-18
9297.44884 7.70644e-18
9298.31030 7.87391e-18
9299.17176 8.04144e-18
9300.03323 8.14408e-18
9300.89469 8.24652e-18
9301.75615 8.19972e-18
9302.62763 8.15248e-18
9303.48909 8.03748e-18
9304.35055 7.92230e-18
9305.21201 7.87201e-18
9306.07348 7.82190e-18
9306.93494 7.80534e-18
9307.79640 7.78886e-18
9308.65786 7.70962e-18
9309.51932 7.63020e-18
9310.38079 7.49275e-18
9311.24225 7.35514e-18
9312.11373 7.21637e-18
9312.97519 7.07761e-18
9313.83665 6.99331e-18
9314.69811 6.90917e-18
9315.55958 6.94276e-18
9316.42104 6.97670e-18
9317.28250 7.11584e-18
9318.14396 7.25529e-18
9319.00542 7.37801e-18
9319.86688 7.50068e-18
9320.72835 7.55912e-18
9321.58981 7.61737e-18
9322.46129 7.72392e-18
9323.32275 7.83060e-18
9324.18421 8.00985e-18
9325.04567 8.18930e-18
9325.90714 8.21141e-18
9326.76860 8.23307e-18
9327.63006 7.95632e-18
9328.49152 7.67872e-18
9329.35298 7.32560e-18
9330.21445 6.97226e-18
9331.07591 6.75816e-18
9331.94739 6.54448e-18
9332.80885 6.42787e-18
9333.67031 6.31156e-18
9334.53177 6.23023e-18
9335.39323 6.14900e-18
9336.25470 6.10434e-18
9337.11616 6.05980e-18
9337.97762 6.04115e-18
9338.83908 6.02258e-18
9339.70055 6.21961e-18
9340.56201 6.41726e-18
9341.43349 7.08687e-18
9342.29495 7.75782e-18
9343.15641 8.57095e-18
9344.01787 9.38441e-18
9344.87933 9.73567e-18
9345.74080 1.00855e-17
9346.60226 9.79431e-18
9347.46372 9.50119e-18
9348.32518 8.67057e-18
9349.18664 7.83846e-18
9350.04811 6.85042e-18
9350.90957 5.86196e-18
9351.78105 5.42097e-18
9352.64251 4.98156e-18
9353.50397 5.31875e-18
9354.36543 5.65814e-18
9355.22689 6.26389e-18
9356.08836 6.87039e-18
9356.94982 7.31622e-18
9357.81128 7.76157e-18
9358.67274 7.79190e-18
9359.53420 7.82105e-18
9360.39567 7.32537e-18
9361.26715 6.82821e-18
9362.12861 6.20800e-18
9362.99007 5.58747e-18
9363.85153 5.22167e-18
9364.71299 4.85661e-18
9365.57446 4.76703e-18
9366.43592 4.67825e-18
9367.29738 4.82839e-18
9368.15884 4.97921e-18
9369.02030 5.18082e-18
9369.89178 5.38256e-18
9370.75324 5.42004e-18
9371.61471 5.45703e-18
9372.47617 5.34359e-18
9373.33763 5.22973e-18
9374.19909 5.04594e-18
9375.06056 4.86195e-18
9375.92202 4.73098e-18
9376.78348 4.60016e-18
9377.64494 4.67250e-18
9378.50640 4.74541e-18
9379.37788 4.96398e-18
9380.23934 5.18296e-18
9381.10081 5.35402e-18
9381.96227 5.52494e-18
9382.82373 5.58677e-18
9383.68519 5.64828e-18
9384.54665 5.65659e-18
9385.40812 5.66473e-18
9386.26958 5.63493e-18
9387.13104 5.60501e-18
9387.99250 5.51100e-18
9388.85396 5.41680e-18
9389.72544 5.25712e-18
9390.58691 5.09724e-18
9391.44837 4.89597e-18
9392.30983 4.69459e-18
9393.17129 4.48475e-18
9394.03275 4.27490e-18
9394.89422 4.11509e-18
9395.75568 3.95544e-18
9396.61714 3.88534e-18
9397.47860 3.81550e-18
9398.34006 3.80569e-18
9399.21154 3.79606e-18
9400.07300 3.80961e-18
9400.93447 3.82322e-18
9401.79593 3.82459e-18
9402.65739 3.82592e-18
9403.51885 3.78404e-18
9404.38031 3.74204e-18
9405.24178 3.69183e-18
9406.10324 3.64160e-18
9406.96470 3.63212e-18
9407.82616 3.62275e-18
9408.69764 3.65453e-18
9409.55910 3.68643e-18
9410.42057 3.74241e-18
9411.28203 3.79846e-18
9412.14349 3.85216e-18
9413.00495 3.90585e-18
9413.86641 3.92585e-18
9414.72788 3.94574e-18
9415.58934 3.91110e-18
9416.45080 3.87629e-18
9417.31226 3.78054e-18
9418.17372 3.68460e-18
9419.04520 3.53442e-18
9419.90666 3.38409e-18
9420.76813 3.18953e-18
9421.62959 2.99484e-18
9422.49105 2.82553e-18
9423.35251 2.65629e-18
9424.21397 2.67840e-18
9425.07544 2.70108e-18
9425.93690 2.96798e-18
9426.79836 3.23558e-18
9427.65982 3.57305e-18
9428.53130 3.91069e-18
9429.39276 4.15074e-18
9430.25423 4.39048e-18
9431.11569 4.37760e-18
9431.97715 4.36399e-18
9432.83861 4.01941e-18
9433.70007 3.67388e-18
9434.56153 3.27083e-18
9435.42300 2.86763e-18
9436.28446 2.69190e-18
9437.14592 2.51685e-18
9438.01740 2.61347e-18
9438.87886 2.71089e-18
9439.74032 3.06135e-18
9440.60179 3.41254e-18
9441.46325 3.83886e-18
9442.32471 4.26538e-18
9443.18617 4.53845e-18
9444.04763 4.81107e-18
9444.90910 4.86536e-18
9445.77056 4.91901e-18
9446.63202 4.76883e-18
9447.49348 4.61806e-18
9448.36496 4.34447e-18
9449.22642 4.07055e-18
9450.08788 3.80400e-18
9450.94935 3.53748e-18
9451.81081 3.36296e-18
9452.67227 3.18871e-18
9453.53373 3.13934e-18
9454.39520 3.09034e-18
9455.25666 3.17439e-18
9456.11812 3.25884e-18
9456.98960 3.45593e-18
9457.85106 3.65333e-18
9458.71252 3.90444e-18
9459.57398 4.15569e-18
9460.43545 4.34175e-18
9461.29691 4.52761e-18
9462.15837 4.57686e-18
9463.01983 4.62572e-18
9463.88129 4.59423e-18
9464.74276 4.56251e-18
9465.60422 4.50887e-18
9466.47570 4.45518e-18
9467.33716 4.41541e-18
9468.19862 4.37568e-18
9469.06008 4.37868e-18
9469.92155 4.38181e-18
9470.78301 4.38325e-18
9471.64447 4.38469e-18
9472.50593 4.33732e-18
9473.36739 4.28981e-18
9474.22885 4.22321e-18
9475.09032 4.15656e-18
9475.96180 4.11095e-18
9476.82326 4.06541e-18
9477.68472 4.12421e-18
9478.54618 4.18330e-18
9479.40764 4.44054e-18
9480.26911 4.69834e-18
9481.13057 5.05189e-18
9481.99203 5.40571e-18
9482.85349 5.65803e-18
9483.71495 5.91004e-18
9484.57642 5.95701e-18
9485.43788 6.00337e-18
9486.30936 5.80853e-18
9487.17082 5.61299e-18
9488.03228 5.25568e-18
9488.89374 4.89791e-18
9489.75520 4.58708e-18
9490.61667 4.27640e-18
9491.47813 4.14566e-18
9492.33959 4.01546e-18
9493.20105 4.06238e-18
9494.06252 4.10981e-18
9494.92398 4.33371e-18
9495.79546 4.55812e-18
9496.65692 4.98751e-18
9497.51838 5.41750e-18
9498.37984 6.00714e-18
9499.24130 6.59723e-18
9500.10277 7.11637e-18
9500.96423 7.63529e-18
9501.82569 7.88437e-18
9502.68715 8.13266e-18
9503.54861 8.08012e-18
9504.41008 8.02670e-18
9505.28155 7.69293e-18
9506.14302 7.35834e-18
9507.00448 6.91670e-18
9507.86594 6.47476e-18
9508.72740 6.13146e-18
9509.58887 5.78847e-18
9510.45033 5.56374e-18
9511.31179 5.33935e-18
9512.17325 5.19243e-18
9513.03471 5.04573e-18
9513.89617 5.01673e-18
9514.75764 4.98808e-18
9515.62912 5.13444e-18
9516.49058 5.28131e-18
9517.35204 5.58627e-18
9518.21350 5.89169e-18
9519.07496 6.29894e-18
9519.93643 6.70650e-18
9520.79789 7.11692e-18
9521.65935 7.52734e-18
9522.52081 7.80436e-18
9523.38227 8.08100e-18
9524.24374 8.17863e-18
9525.11522 8.27575e-18
9525.97668 8.26575e-18
9526.83814 8.25545e-18
9527.69960 8.20398e-18
9528.56106 8.15240e-18
9529.42252 8.11172e-18
9530.28399 8.07109e-18
9531.14545 8.07053e-18
9532.00691 8.07008e-18
9532.86837 8.06320e-18
9533.72984 8.05631e-18
9534.60131 8.00391e-18
9535.46278 7.95138e-18
9536.32424 7.84160e-18
9537.18570 7.73165e-18
9538.04716 7.57078e-18
9538.90862 7.40976e-18
9539.77009 7.34461e-18
9540.63155 7.27975e-18
9541.49301 7.44890e-18
9542.35447 7.61873e-18
9543.21593 7.92290e-18
9544.08741 8.22745e-18
9544.94888 8.51889e-18
9545.81034 8.81026e-18
9546.67180 8.94478e-18
9547.53326 9.07880e-18
9548.39472 8.90855e-18
9549.25619 8.73746e-18
9550.11765 8.43393e-18
9550.97911 8.13002e-18
9551.84057 8.03846e-18
9552.70203 7.94751e-18
9553.57351 8.09137e-18
9554.43497 8.23590e-18
9555.29644 8.41110e-18
9556.15790 8.58636e-18
9557.01936 8.65541e-18
9557.88082 8.72413e-18
9558.74228 8.59544e-18
9559.60375 8.46625e-18
9560.46521 8.19663e-18
9561.32667 7.92665e-18
9562.18813 7.82780e-18
9563.05961 7.72947e-18
9563.92107 7.96218e-18
9564.78254 8.19587e-18
9565.64400 8.59460e-18
9566.50546 8.99384e-18
9567.36692 9.38050e-18
9568.22838 9.76707e-18
9569.08985 9.92908e-18
9569.95131 1.00905e-17
9570.81277 9.88160e-18
9571.67423 9.67162e-18
9572.53569 9.27588e-18
9573.40717 8.87964e-18
9574.26863 8.51581e-18
9575.13010 8.15214e-18
9575.99156 7.96646e-18
9576.85302 7.78131e-18
9577.71448 7.88927e-18
9578.57594 7.99808e-18
9579.43741 8.21816e-18
9580.29887 8.43851e-18
9581.16033 8.50556e-18
9582.02179 8.57220e-18
9582.89327 8.45117e-18
9583.75473 8.32964e-18
9584.61620 8.07256e-18
9585.47766 7.81504e-18
9586.33912 7.60729e-18
9587.20058 7.39967e-18
9588.06204 7.52353e-18
9588.92351 7.64838e-18
9589.78497 8.06853e-18
9590.64643 8.48957e-18
9591.51791 8.88214e-18
9592.37937 9.27471e-18
9593.24083 9.46513e-18
9594.10229 9.65504e-18
9594.96376 9.66004e-18
9595.82522 9.66454e-18
9596.68668 9.51927e-18
9597.54814 9.37358e-18
9598.40960 9.15993e-18
9599.27107 8.94620e-18
9600.13253 8.75462e-18
9600.99399 8.56304e-18
9601.86547 8.46500e-18
9602.72693 8.36721e-18
9603.58839 8.40936e-18
9604.44986 8.45200e-18
9605.31132 8.62659e-18
9606.17278 8.80159e-18
9607.03424 9.06931e-18
9607.89570 9.33718e-18
9608.75717 9.52776e-18
9609.61863 9.71810e-18
9610.48009 9.66745e-18
9611.35157 9.61606e-18
9612.21303 9.39374e-18
9613.07449 9.17101e-18
9613.93595 8.90830e-18
9614.79742 8.64541e-18
9615.65888 8.43351e-18
9616.52034 8.22172e-18
9617.38180 8.13667e-18
9618.24326 8.05202e-18
9619.10473 8.11340e-18
9619.96619 8.17521e-18
9620.82765 8.36188e-18
9621.69913 8.54896e-18
9622.56059 8.79360e-18
9623.42205 9.03840e-18
9624.28352 9.24731e-18
9625.14498 9.45613e-18
9626.00644 9.54001e-18
9626.86790 9.62347e-18
9627.72936 9.49861e-18
9628.59083 9.37317e-18
9629.45229 9.06414e-18
9630.31375 8.75462e-18
9631.17521 8.44434e-18
9632.04669 8.13401e-18
9632.90815 7.96441e-18
9633.76961 7.79522e-18
9634.63108 7.82154e-18
9635.49254 7.84845e-18
9636.35400 8.06487e-18
9637.21546 8.28185e-18
9638.07692 8.48307e-18
9638.93839 8.68423e-18
9639.79985 8.70056e-18
9640.67133 8.71630e-18
9641.53279 8.65366e-18
9642.39425 8.59077e-18
9643.25571 8.57295e-18
9644.11718 8.55529e-18
9644.97864 8.61218e-18
9645.84010 8.66940e-18
9646.70156 8.81317e-18
9647.56302 8.95719e-18
9648.42448 9.09180e-18
9649.28595 9.22632e-18
9650.15743 9.22665e-18
9651.01889 9.22648e-18
9651.88035 9.09205e-18
9652.74181 8.95719e-18
9653.60327 8.74412e-18
9654.46474 8.53072e-18
9655.32620 8.31603e-18
9656.18766 8.10131e-18
9657.04912 7.97396e-18
9657.91058 7.84688e-18
9658.77205 7.85655e-18
9659.64352 7.86664e-18
9660.50499 8.02551e-18
9661.36645 8.18483e-18
9662.22791 8.44259e-18
9663.08937 8.70064e-18
9663.95083 8.92595e-18
9664.81230 9.15119e-18
9665.67376 9.26805e-18
9666.53522 9.38466e-18
9667.39668 9.43331e-18
9668.25815 9.48179e-18
9669.11961 9.48528e-18
9669.99109 9.48862e-18
9670.85255 9.40807e-18
9671.71401 9.32719e-18
9672.57547 9.15194e-18
9673.43693 8.97635e-18
9674.29840 8.77802e-18
9675.15986 8.57953e-18
9676.02132 8.42960e-18
9676.88278 8.27984e-18
9677.74424 8.22823e-18
9678.61572 8.17691e-18
9679.47718 8.25667e-18
9680.33865 8.33680e-18
9681.20011 8.48224e-18
9682.06157 8.62776e-18
9682.92303 8.74729e-18
9683.78449 8.86673e-18
9684.64596 8.93328e-18
9685.50742 8.99959e-18
9686.36888 9.00942e-18
9687.23034 9.01908e-18
9688.10182 8.98168e-18
9688.96328 8.94420e-18
9689.82475 8.88272e-18
9690.68621 8.82117e-18
9691.54767 8.73979e-18
9692.40913 8.65833e-18
9693.27059 8.54479e-18
9694.13206 8.43110e-18
9694.99352 8.30213e-18
9695.85498 8.17311e-18
9696.71644 8.07454e-18
9697.57790 7.97606e-18
9698.44938 7.93065e-18
9699.31084 7.88540e-18
9700.17231 7.88451e-18
9701.03377 7.88376e-18
9701.89523 7.90865e-18
9702.75669 7.93362e-18
9703.61816 7.94262e-18
9704.47962 7.95158e-18
9705.34108 7.91779e-18
9706.20254 7.88387e-18
9707.06400 7.83323e-18
9707.93548 7.78255e-18
9708.79694 7.74197e-18
9709.65841 7.70144e-18
9710.51987 7.68561e-18
9711.38133 7.66985e-18
9712.24279 7.68832e-18
9713.10425 7.70690e-18
9713.96572 7.73414e-18
9714.82718 7.76139e-18
9715.68864 7.76664e-18
9716.55010 7.77183e-18
9717.41156 7.74628e-18
9718.28304 7.72065e-18
9719.14451 7.66078e-18
9720.00597 7.60080e-18
9720.86743 7.53862e-18
9721.72889 7.47644e-18
9722.59035 7.46123e-18
9723.45182 7.44615e-18
9724.31328 7.45626e-18
9725.17474 7.46646e-18
9726.03620 7.43763e-18
9726.89766 7.40868e-18
9727.76914 7.31814e-18
9728.63060 7.22742e-18
9729.49207 7.08714e-18
9730.35353 6.94670e-18
9731.21499 6.78659e-18
9732.07645 6.62642e-18
9732.93791 6.50153e-18
9733.79938 6.37675e-18
9734.66084 6.32138e-18
9735.52230 6.26621e-18
9736.38376 6.27368e-18
9737.25524 6.28134e-18
9738.11670 6.33622e-18
9738.97817 6.39124e-18
9739.83963 6.46316e-18
9740.70109 6.53514e-18
9741.56255 6.59406e-18
9742.42401 6.65295e-18
9743.28548 6.68296e-18
9744.14694 6.71289e-18
9745.00840 6.70455e-18
9745.86986 6.69611e-18
9746.74134 6.66222e-18
9747.60280 6.62827e-18
9748.46426 6.58641e-18
9749.32573 6.54452e-18
9750.18719 6.49885e-18
9751.04865 6.45316e-18
9751.91011 6.40588e-18
9752.77157 6.35859e-18
9753.63304 6.30815e-18
9754.49450 6.25770e-18
9755.35596 6.20082e-18
9756.22744 6.14392e-18
9757.08890 6.09246e-18
9757.95036 6.04100e-18
9758.81183 6.01242e-18
9759.67329 5.98390e-18
9760.53475 5.99174e-18
9761.39621 5.99969e-18
9762.25767 6.05555e-18
9763.11913 6.11155e-18
9763.98060 6.19785e-18
9764.84206 6.28423e-18
9765.71354 6.35143e-18
9766.57500 6.41857e-18
9767.43646 6.44240e-18
9768.29792 6.46609e-18
9769.15939 6.46245e-18
9770.02085 6.45873e-18
9770.88231 6.44121e-18
9771.74377 6.42364e-18
9772.60523 6.39900e-18
9773.46670 6.37434e-18
9774.32816 6.35120e-18
9775.19964 6.32804e-18
9776.06110 6.31318e-18
9776.92256 6.29834e-18
9777.78402 6.29630e-18
9778.64548 6.29430e-18
9779.50695 6.31087e-18
9780.36841 6.32751e-18
9781.22987 6.36430e-18
9782.09133 6.40116e-18
9782.95280 6.42632e-18
9783.81426 6.45144e-18
9784.68574 6.43035e-18
9785.54720 6.40911e-18
9786.40866 6.35854e-18
9787.27012 6.30789e-18
9788.13158 6.25939e-18
9788.99305 6.21089e-18
9789.85451 6.17557e-18
9790.71597 6.14028e-18
9791.57743 6.12275e-18
9792.43889 6.10527e-18
9793.30036 6.09370e-18
9794.16182 6.08216e-18
9795.03330 6.05170e-18
9795.89476 6.02118e-18
9796.75622 5.97907e-18
9797.61768 5.93694e-18
9798.47915 5.91953e-18
9799.34061 5.90218e-18
9800.20207 5.92159e-18
9801.06353 5.94112e-18
9801.92499 5.98013e-18
9802.78645 6.01921e-18
9803.64792 6.06044e-18
9804.51940 6.10168e-18
9805.38086 6.12476e-18
9806.24232 6.14777e-18
9807.10378 6.14279e-18
9807.96524 6.13771e-18
9808.82671 6.12423e-18
9809.68817 6.11072e-18
9810.54963 6.10737e-18
9811.41109 6.10405e-18
9812.27255 6.12260e-18
9813.13402 6.14122e-18
9813.99548 6.18713e-18
9814.86696 6.23313e-18
9815.72842 6.27374e-18
9816.58988 6.31433e-18
9817.45134 6.31492e-18
9818.31280 6.31540e-18
9819.17427 6.28059e-18
9820.03573 6.24568e-18
9820.89719 6.19008e-18
9821.75865 6.13441e-18
9822.62012 6.07944e-18
9823.48158 6.02449e-18
9824.35306 5.99512e-18
9825.21452 5.96585e-18
9826.07598 5.95845e-18
9826.93744 5.95113e-18
9827.79890 5.94549e-18
9828.66037 5.93986e-18
9829.52183 5.93098e-18
9830.38329 5.92209e-18
9831.24475 5.91596e-18
9832.10621 5.90984e-18
9832.97769 5.90507e-18
9833.83915 5.90031e-18
9834.70062 5.88906e-18
9835.56208 5.87779e-18
9836.42354 5.85643e-18
9837.28500 5.83504e-18
9838.14647 5.80569e-18
9839.00793 5.77632e-18
9839.86939 5.74138e-18
9840.73085 5.70642e-18
9841.59231 5.66712e-18
9842.45377 5.62781e-18
9843.32525 5.58863e-18
9844.18672 5.54945e-18
9845.04818 5.52429e-18
9845.90964 5.49916e-18
9846.77110 5.49893e-18
9847.63256 5.49877e-18
9848.49403 5.52011e-18
9849.35549 5.54150e-18
9850.21695 5.57817e-18
9851.07841 5.61490e-18
9851.93987 5.66098e-18
9852.81135 5.70709e-18
9853.67282 5.75557e-18
9854.53428 5.80404e-18
9855.39574 5.85049e-18
9856.25720 5.89692e-18
9857.11866 5.93806e-18
9857.98013 5.97918e-18
9858.84159 6.00622e-18
9859.70305 6.03321e-18
9860.56451 6.03606e-18
9861.42597 6.03884e-18
9862.29745 6.01614e-18
9863.15891 5.99337e-18
9864.02038 5.94945e-18
9864.88184 5.90546e-18
9865.74330 5.84832e-18
9866.60476 5.79114e-18
9867.46622 5.73226e-18
9868.32769 5.67338e-18
9869.18915 5.61932e-18
9870.05061 5.56528e-18
9870.92209 5.51528e-18
9871.78355 5.46531e-18
9872.64501 5.42023e-18
9873.50648 5.37518e-18
9874.36794 5.33890e-18
9875.22940 5.30264e-18
9876.09086 5.27819e-18
9876.95232 5.25379e-18
9877.81379 5.24399e-18
9878.67525 5.23424e-18
9879.53671 5.24038e-18
9880.39817 5.24657e-18
9881.26965 5.26670e-18
9882.13111 5.28686e-18
9882.99257 5.31736e-18
9883.85404 5.34788e-18
9884.71550 5.38214e-18
9885.57696 5.41642e-18
9886.43842 5.44732e-18
9887.29988 5.47822e-18
9888.16135 5.49907e-18
9889.02281 5.51989e-18
9889.88427 5.52510e-18
9890.74573 5.53024e-18
9891.61721 5.51966e-18
9892.47867 5.50903e-18
9893.34014 5.48548e-18
9894.20160 5.46189e-18
9895.06306 5.42841e-18
9895.92452 5.39490e-18
9896.78598 5.35467e-18
9897.64745 5.31443e-18
9898.50891 5.27269e-18
9899.37037 5.23095e-18
9900.23183 5.19460e-18
9901.09329 5.15828e-18
9901.96477 5.12848e-18
9902.82623 5.09869e-18
9903.68770 5.06955e-18
9904.54916 5.04042e-18
9905.41062 5.01330e-18
9906.27208 4.98619e-18
9907.13354 4.97388e-18
9907.99501 4.96160e-18
9908.85647 4.97016e-18
9909.71793 4.97879e-18
9910.57939 5.00242e-18
9911.45087 5.02608e-18
9912.31233 5.05526e-18
9913.17380 5.08445e-18
9914.03526 5.09912e-18
9914.89672 5.11375e-18
9915.75818 5.09796e-18
9916.61964 5.08210e-18
9917.48111 5.04144e-18
9918.34257 5.00071e-18
9919.20403 4.94492e-18
9920.07551 4.88908e-18
9920.93697 4.82923e-18
9921.79843 4.76936e-18
9922.65989 4.71670e-18
9923.52136 4.66406e-18
9924.38282 4.62353e-18
9925.24428 4.58304e-18
9926.10574 4.55657e-18
9926.96720 4.53015e-18
9927.82867 4.51041e-18
9928.69013 4.49070e-18
9929.56161 4.46605e-18
9930.42307 4.44139e-18
9931.28453 4.40803e-18
9932.14599 4.37464e-18
9933.00746 4.33424e-18
9933.86892 4.29380e-18
9934.73038 4.24977e-18
9935.59184 4.20574e-18
9936.45330 4.16304e-18
9937.31477 4.12034e-18
9938.17623 4.08552e-18
9939.03769 4.05073e-18
9939.90917 4.03201e-18
9940.77063 4.01335e-18
9941.63209 4.01299e-18
9942.49355 4.01269e-18
9943.35502 4.02218e-18
9944.21648 4.03169e-18
9945.07794 4.04368e-18
9945.93940 4.05566e-18
9946.80086 4.06828e-18
9947.66233 4.08091e-18
9948.52379 4.09203e-18
9949.39527 4.10315e-18
9950.25673 4.10870e-18
9951.11819 4.11423e-18
9951.97965 4.11157e-18
9952.84112 4.10890e-18
9953.70258 4.10332e-18
9954.56404 4.09773e-18
9955.42550 4.09502e-18
9956.28696 4.09232e-18
9957.14843 4.08861e-18
9958.00989 4.08490e-18
9958.88137 4.07484e-18
9959.74283 4.06474e-18
9960.60429 4.04559e-18
9961.46575 4.02641e-18
9962.32721 3.99640e-18
9963.18868 3.96635e-18
9964.05014 3.93447e-18
9964.91160 3.90258e-18
9965.77306 3.88383e-18
9966.63452 3.86512e-18
9967.49599 3.86302e-18
9968.36747 3.86097e-18
9969.22893 3.86975e-18
9970.09039 3.87854e-18
9970.95185 3.89728e-18
9971.81331 3.91604e-18
9972.67477 3.94904e-18
9973.53624 3.98209e-18
9974.39770 4.02757e-18
9975.25916 4.07308e-18
9976.12062 4.12130e-18
9976.98208 4.16952e-18
9977.85356 4.21273e-18
9978.71503 4.25593e-18
9979.57649 4.29043e-18
9980.43795 4.32491e-18
9981.29941 4.34940e-18
9982.16087 4.37386e-18
9983.02234 4.39354e-18
9983.88380 4.41322e-18
9984.74526 4.43335e-18
9985.60672 4.45349e-18
9986.46818 4.47669e-18
9987.32965 4.49989e-18
9988.20112 4.52750e-18
9989.06259 4.55512e-18
9989.92405 4.57742e-18
9990.78551 4.59970e-18
9991.64697 4.60565e-18
9992.50843 4.61156e-18
9993.36990 4.60945e-18
9994.23136 4.60732e-18
9995.09282 4.61129e-18
9995.95428 4.61529e-18
9996.81574 4.62294e-18
9997.67721 4.63060e-18
9998.54869 4.63291e-18
9999.41015 4.63519e-18
