# wavelength flux
3473.99604 4.21054e-18
3475.47427 8.91369e-18
3476.94245 1.41964e-17
3478.41062 1.04345e-17
3479.87880 9.01681e-18
3481.34698 5.88605e-18
3482.82521 1.86189e-18
3484.29338 2.42990e-18
3485.76156 1.03146e-17
3487.22974 1.21860e-17
3488.69791 9.69078e-18
3490.16609 1.24428e-17
3491.64432 6.17034e-18
3493.11250 -3.41451e-18
3494.58067 4.95515e-18
3496.04885 7.45693e-18
3497.51702 3.02935e-18
3498.98520 -1.89590e-18
3500.46343 2.64779e-18
3501.93161 5.20761e-18
3503.39978 8.25185e-18
3504.86796 6.74965e-18
3506.33614 2.97141e-18
3507.81437 4.57601e-18
3509.28254 7.09194e-18
3510.75072 8.94689e-18
3512.21890 1.02594e-17
3513.68707 1.11266e-17
3515.15525 6.58386e-18
3516.63348 6.86535e-18
3518.10166 1.09509e-17
3519.56983 6.21390e-18
3521.03801 9.47610e-18
3522.50618 7.72267e-18
3523.98442 9.12877e-18
3525.45259 1.03179e-17
3526.92077 4.29731e-18
3528.38894 5.83180e-18
3529.85712 8.97693e-18
3531.32530 8.75317e-18
3532.80353 3.05784e-18
3534.27170 3.26523e-18
3535.73988 9.44167e-18
3537.20806 9.10617e-18
3538.67623 1.27814e-17
3540.15446 5.85149e-18
3541.62264 2.27485e-18
3543.09082 3.63415e-18
3544.55899 6.66098e-18
3546.02717 1.16419e-17
3547.49534 7.72030e-18
3548.97358 6.36250e-18
3550.44175 8.32166e-18
3551.90993 1.05948e-17
3553.37810 4.61486e-18
3554.84628 2.98120e-18
3556.32451 6.98326e-18
3557.79269 6.59068e-18
3559.26086 3.73175e-18
3560.72904 4.43713e-18
3562.19722 8.98745e-18
3563.66539 8.08964e-18
3565.14362 7.38280e-18
3566.61180 7.32575e-18
3568.07998 6.08706e-18
3569.54815 7.32331e-18
3571.01633 7.67848e-18
3572.49456 4.49963e-18
3573.96274 5.48259e-18
3575.43091 8.57770e-18
3576.89909 8.33887e-18
3578.36726 1.92330e-18
3579.83544 -9.65375e-19
3581.31367 4.89384e-18
3582.78185 1.10004e-17
3584.25002 1.32157e-17
3585.71820 9.46189e-18
3587.18638 1.59017e-17
3588.66461 1.25100e-17
3590.13278 5.26735e-18
3591.60096 7.88377e-18
3593.06914 1.05607e-17
3594.53731 5.74331e-18
3596.00549 2.43690e-18
3597.48372 4.84693e-19
3598.95190 2.66980e-18
3600.42007 4.92925e-18
3601.88825 6.27835e-18
3603.35642 7.71482e-18
3604.83466 4.71115e-18
3606.30283 3.32955e-18
3607.77101 8.35692e-18
3609.23918 7.08960e-18
3610.70736 6.42193e-18
3612.17554 1.09136e-17
3613.65377 7.44926e-18
3615.12194 4.58238e-18
3616.59012 6.19139e-18
3618.05830 8.02663e-18
3619.52647 6.61558e-18
3621.00470 4.50731e-18
3622.47288 5.79642e-18
3623.94106 7.59010e-18
3625.40923 6.60221e-18
3626.87741 7.62163e-18
3628.34558 6.17322e-18
3629.82382 6.45979e-18
3631.29199 9.34193e-18
3632.76017 9.83816e-18
3634.22834 1.32751e-17
3635.69652 9.45320e-18
3637.17475 4.75818e-18
3638.64293 5.92845e-18
3640.11110 8.41017e-18
3641.57928 7.19805e-18
3643.04746 5.76343e-18
3644.51563 5.76134e-18
3645.99386 7.40330e-18
3647.46204 7.95360e-18
3648.93022 5.55603e-18
3650.39839 6.17950e-18
3651.86657 5.65074e-18
3653.34480 4.86024e-18
3654.81298 7.27155e-18
3656.28115 9.37296e-18
3657.74933 8.01446e-18
3659.21750 8.89896e-18
3660.68568 5.68233e-18
3662.16391 6.10883e-18
3663.63209 1.36052e-17
3665.10026 1.00243e-17
3666.56844 9.32586e-18
3668.03662 7.77034e-18
3669.51485 7.86906e-18
3670.98302 5.88964e-18
3672.45120 6.79565e-18
3673.91938 8.23906e-18
3675.38755 7.01737e-18
3676.85573 9.65741e-18
3678.33396 1.19054e-17
3679.80214 8.38831e-18
3681.27031 6.44990e-18
3682.73849 4.92725e-18
3684.20666 7.89209e-18
3685.68490 1.22917e-17
3687.15307 1.08423e-17
3688.62125 7.80916e-18
3690.08942 3.69910e-18
3691.55760 7.11363e-18
3693.02578 8.62720e-18
3694.50401 5.67715e-18
3695.97218 7.18938e-18
3697.44036 4.90177e-18
3698.90854 6.11340e-18
3700.37671 4.20937e-18
3701.85494 5.66010e-18
3703.32312 6.82271e-18
3704.79130 6.03550e-18
3706.25947 8.08461e-18
3707.72765 6.36830e-18
3709.19582 9.03425e-18
3710.67406 6.00988e-18
3712.14223 4.39836e-19
3713.61041 2.73962e-18
3715.07858 4.77945e-18
3716.54676 5.75277e-18
3718.02499 9.96945e-18
3719.49317 7.42856e-18
3720.96134 4.71789e-18
3722.42952 1.96835e-18
3723.89770 4.95212e-18
3725.36587 5.90902e-18
3726.84410 5.42964e-18
3728.31228 1.03260e-17
3729.78046 1.03400e-17
3731.24863 1.03540e-17
3732.71681 1.01612e-17
3734.19504 9.96835e-18
3735.66322 9.77556e-18
3737.13139 9.58277e-18
3738.59957 9.39000e-18
3740.06774 9.19726e-18
3741.53592 9.00457e-18
3743.01415 8.81188e-18
3744.48233 8.61925e-18
3745.95050 8.42661e-18
3747.41868 8.23402e-18
3748.88686 8.04143e-18
3750.36509 7.84886e-18
3751.83326 7.65632e-18
3753.30144 7.46383e-18
3754.76962 7.27133e-18
3756.23779 7.07890e-18
3757.70597 6.88645e-18
3759.18420 6.69406e-18
3760.65238 6.50170e-18
3762.12055 6.30929e-18
3763.58873 6.11697e-18
3765.05690 5.92464e-18
3766.52508 5.73237e-18
3768.00331 5.54010e-18
3769.47149 4.46675e-18
3770.93966 6.14512e-18
3772.40784 4.92351e-18
3773.87602 4.64047e-18
3775.35425 4.67712e-18
3776.82242 6.62251e-18
3778.29060 6.26694e-18
3779.75878 1.00900e-17
3781.22695 9.01732e-18
3782.69513 5.34534e-18
3784.17336 3.17394e-18
3785.64154 4.78176e-18
3787.10971 2.68484e-18
3788.57789 4.81714e-18
3790.04606 4.60231e-18
3791.52430 6.18222e-18
3792.99247 7.50956e-18
3794.46065 3.71619e-18
3795.92882 4.47919e-18
3797.39700 3.81882e-18
3798.87523 2.55127e-18
3800.34341 2.19003e-18
3801.81158 3.26239e-18
3803.27976 7.05687e-19
3804.74794 3.23015e-18
3806.21611 5.27251e-18
3807.69434 1.40856e-18
3809.16252 2.97364e-18
3810.63070 6.64799e-18
3812.09887 5.45859e-18
3813.56705 6.64623e-18
3815.03522 6.14965e-18
3816.51346 3.60701e-18
3817.98163 3.35835e-18
3819.44981 4.85951e-18
3820.91798 6.73406e-18
3822.38616 5.17469e-18
3823.86439 3.44733e-18
3825.33257 5.07702e-18
3826.80074 4.03096e-18
3828.26892 3.88987e-18
3829.73710 9.07625e-18
3831.20527 8.94130e-18
3832.68350 4.84190e-18
3834.15168 4.75274e-18
3835.61986 5.96119e-18
3837.08803 7.35106e-18
3838.55621 7.16366e-18
3840.03444 7.11734e-18
3841.50262 5.26244e-18
3842.97079 5.57398e-18
3844.43897 6.39850e-18
3845.90714 8.57715e-18
3847.37532 6.54046e-18
3848.85355 7.39282e-18
3850.32173 4.42137e-18
3851.78990 5.38481e-18
3853.25808 9.34942e-18
3854.72626 7.08509e-18
3856.20449 3.97754e-18
3857.67266 5.00350e-18
3859.14084 5.94349e-18
3860.60902 7.95543e-18
3862.07719 6.84747e-18
3863.54537 6.84171e-18
3865.02360 8.26856e-18
3866.49178 1.17557e-17
3867.95995 6.51824e-18
3869.42813 4.77992e-18
3870.89630 7.18601e-18
3872.37454 6.54718e-18
3873.84271 8.58786e-18
3875.31089 8.94901e-18
3876.77906 8.63462e-18
3878.24724 1.08919e-17
3879.71542 8.40927e-18
3881.19365 6.20884e-18
3882.66182 7.52649e-18
3884.13000 9.61239e-18
3885.59818 8.08796e-18
3887.06635 8.39305e-18
3888.54458 1.00375e-17
3890.01276 9.36200e-18
3891.48094 1.13233e-17
3892.94911 7.89592e-18
3894.41729 3.73797e-18
3895.88546 5.96059e-18
3897.36370 7.64790e-18
3898.83187 8.40809e-18
3900.30005 9.27534e-18
3901.76822 1.00442e-17
3903.23640 9.13645e-18
3904.71463 8.87993e-18
3906.18281 1.04071e-17
3907.65098 1.10591e-17
3909.11916 1.09104e-17
3910.58734 9.89597e-18
3912.05551 9.51537e-18
3913.53374 1.07132e-17
3915.00192 1.10329e-17
3916.47010 8.90011e-18
3917.93827 1.00531e-17
3919.40645 1.35430e-17
3920.88468 1.26521e-17
3922.35286 1.11312e-17
3923.82103 1.17200e-17
3925.28921 1.13749e-17
3926.75738 1.27482e-17
3928.22556 1.16722e-17
3929.70379 1.21206e-17
3931.17197 1.14028e-17
3932.64014 1.11791e-17
3934.10832 1.17277e-17
3935.57650 1.12356e-17
3937.05473 1.09783e-17
3938.52290 1.05129e-17
3939.99108 1.22841e-17
3941.45926 1.31491e-17
3942.92743 1.09326e-17
3944.39561 1.11231e-17
3945.87384 1.19453e-17
3947.34202 1.05678e-17
3948.81019 9.57072e-18
3950.27837 9.93383e-18
3951.74654 9.77223e-18
3953.22478 1.18586e-17
3954.69295 1.18475e-17
3956.16113 1.03663e-17
3957.62930 1.11783e-17
3959.09748 1.02381e-17
3960.56566 1.11435e-17
3962.04389 1.28090e-17
3963.51206 1.28198e-17
3964.98024 1.20340e-17
3966.44842 1.22389e-17
3967.91659 1.15833e-17
3969.39482 1.09364e-17
3970.86300 1.21866e-17
3972.33118 1.46954e-17
3973.79935 1.22881e-17
3975.26753 1.12613e-17
3976.73570 1.32424e-17
3978.21394 1.40286e-17
3979.68211 1.17404e-17
3981.15029 1.26446e-17
3982.61846 1.41341e-17
3984.08664 1.45987e-17
3985.56487 1.20080e-17
3987.03305 1.21649e-17
3988.50122 1.11602e-17
3989.96940 9.91095e-18
3991.43758 9.37517e-18
3992.90575 1.06278e-17
3994.38398 1.28013e-17
3995.85216 9.82271e-18
3997.32034 1.06295e-17
3998.78851 7.83243e-18
4000.25669 1.09928e-17
4001.73492 1.38869e-17
4003.20310 1.07930e-17
4004.67127 1.11000e-17
4006.13945 1.10773e-17
4007.60762 1.26063e-17
4009.07580 1.12651e-17
4010.55403 9.73005e-18
4012.02221 1.22757e-17
4013.49038 1.06497e-17
4014.95856 8.54306e-18
4016.42674 1.07937e-17
4017.90497 1.07309e-17
4019.37314 1.15809e-17
4020.84132 1.20914e-17
4022.30950 1.15818e-17
4023.77767 1.12082e-17
4025.24585 1.06122e-17
4026.72408 1.18170e-17
4028.19226 1.32733e-17
4029.66043 1.17758e-17
4031.12861 1.01443e-17
4032.59678 9.67045e-18
4034.07502 9.50983e-18
4035.54319 1.16670e-17
4037.01137 1.24519e-17
4038.47954 1.24536e-17
4039.94772 1.23360e-17
4041.41590 1.10291e-17
4042.89413 1.24515e-17
4044.36230 1.12075e-17
4045.83048 8.44458e-18
4047.29866 8.54145e-18
4048.76683 1.05046e-17
4050.24506 1.09895e-17
4051.71324 9.68284e-18
4053.18142 1.04956e-17
4054.64959 1.13692e-17
4056.11777 1.02478e-17
4057.58594 1.09721e-17
4059.06418 1.22720e-17
4060.53235 1.08016e-17
4062.00053 8.75078e-18
4063.46870 1.02164e-17
4064.93688 1.15719e-17
4066.40506 1.12791e-17
4067.88329 8.46159e-18
4069.35146 8.89367e-18
4070.81964 1.34327e-17
4072.28782 1.25940e-17
4073.75599 9.82696e-18
4075.23422 1.04632e-17
4076.70240 1.26570e-17
4078.17058 1.10028e-17
4079.63875 9.25263e-18
4081.10693 8.41695e-18
4082.57510 7.91597e-18
4084.05334 8.29965e-18
4085.52151 1.10869e-17
4086.98969 1.10302e-17
4088.45786 8.68909e-18
4089.92604 8.09770e-18
4091.40427 9.80497e-18
4092.87245 8.71710e-18
4094.34062 1.02714e-17
4095.80880 9.88515e-18
4097.27698 1.01330e-17
4098.74515 1.04854e-17
4100.22338 1.16986e-17
4101.69156 1.20391e-17
4103.15974 1.21640e-17
4104.62791 1.18298e-17
4106.09609 1.08240e-17
4107.57432 7.71994e-18
4109.04250 5.98788e-18
4110.51067 6.32815e-18
4111.97885 7.20666e-18
4113.44702 6.84285e-18
4114.91520 4.65532e-18
4116.39343 7.63706e-18
4117.86161 1.01643e-17
4119.32978 7.82981e-18
4120.79796 1.08941e-17
4122.26614 1.33629e-17
4123.74437 1.02370e-17
4125.21254 8.61871e-18
4126.68072 7.64364e-18
4128.14890 6.60603e-18
4129.61707 9.36405e-18
4131.08525 9.27283e-18
4132.56348 7.21182e-18
4134.03166 9.55330e-18
4135.49983 9.81636e-18
4136.96801 9.67421e-18
4138.43618 7.70225e-18
4139.91442 7.05311e-18
4141.38259 7.39529e-18
4142.85077 8.88393e-18
4144.31894 1.21722e-17
4145.78712 1.04651e-17
4147.25530 9.47501e-18
4148.73353 1.18451e-17
4150.20170 1.28353e-17
4151.66988 1.02030e-17
4153.13806 9.77133e-18
4154.60623 9.47462e-18
4156.08446 7.61745e-18
4157.55264 8.42270e-18
4159.02082 7.74244e-18
4160.48899 6.50485e-18
4161.95717 6.45227e-18
4163.43540 9.66350e-18
4164.90358 9.61201e-18
4166.37175 7.45711e-18
4167.83993 8.03536e-18
4169.30810 9.37092e-18
4170.77628 8.61809e-18
4172.25451 7.55163e-18
4173.72269 8.19893e-18
4175.19086 9.05451e-18
4176.65904 9.52137e-18
4178.12722 9.54648e-18
4179.59539 1.00832e-17
4181.07362 1.06164e-17
4182.54180 1.21511e-17
4184.00998 1.10121e-17
4185.47815 9.17540e-18
4186.94633 9.40185e-18
4188.42456 9.29500e-18
4189.89274 8.64425e-18
4191.36091 9.23243e-18
4192.82909 9.57725e-18
4194.29726 9.59072e-18
4195.76544 1.09732e-17
4197.24367 1.05511e-17
4198.71185 1.09564e-17
4200.18002 1.06520e-17
4201.64820 9.42757e-18
4203.11638 1.07376e-17
4204.59461 9.38929e-18
4206.06278 9.90715e-18
4207.53096 1.15007e-17
4208.99914 8.36035e-18
4210.46731 8.20214e-18
4211.93549 8.91289e-18
4213.41372 7.80473e-18
4214.88190 8.90593e-18
4216.35007 9.63421e-18
4217.81825 9.26982e-18
4219.28642 9.42827e-18
4220.76466 9.51571e-18
4222.23283 8.23615e-18
4223.70101 8.06702e-18
4225.16918 8.08478e-18
4226.63736 9.87817e-18
4228.10554 1.11881e-17
4229.58377 1.04791e-17
4231.05194 9.85224e-18
4232.52012 8.88150e-18
4233.98830 1.05325e-17
4235.45647 1.09617e-17
4236.93470 7.38387e-18
4238.40288 1.04012e-17
4239.87106 1.18676e-17
4241.33923 8.44950e-18
4242.80741 7.84500e-18
4244.27558 1.01300e-17
4245.75382 9.21386e-18
4247.22199 9.58909e-18
4248.69017 1.15553e-17
4250.15834 1.20009e-17
4251.62652 1.16715e-17
4253.10475 1.12286e-17
4254.57293 1.06905e-17
4256.04110 1.12671e-17
4257.50928 9.09775e-18
4258.97746 8.96973e-18
4260.44563 1.05409e-17
4261.92386 1.05319e-17
4263.39204 1.06516e-17
4264.86022 1.04815e-17
4266.32839 7.91569e-18
4267.79657 9.64929e-18
4269.27480 1.10464e-17
4270.74298 1.10233e-17
4272.21115 9.36751e-18
4273.67933 7.17231e-18
4275.14750 9.13495e-18
4276.61568 1.02585e-17
4278.09391 1.06167e-17
4279.56209 1.23700e-17
4281.03026 1.15163e-17
4282.49844 1.06870e-17
4283.96662 9.41700e-18
4285.44485 1.00109e-17
4286.91302 9.70181e-18
4288.38120 8.55678e-18
4289.84938 9.39799e-18
4291.31755 1.02343e-17
4292.78573 8.49409e-18
4294.26396 9.04029e-18
4295.73214 1.01003e-17
4297.20031 9.25759e-18
4298.66849 8.40359e-18
4300.13666 1.02950e-17
4301.61490 1.00355e-17
4303.08307 1.01160e-17
4304.55125 8.24711e-18
4306.01942 6.63898e-18
4307.48760 8.56416e-18
4308.95578 8.31720e-18
4310.43401 7.62230e-18
4311.90218 7.72161e-18
4313.37036 8.00186e-18
4314.83854 8.96058e-18
4316.30671 8.45466e-18
4317.77489 8.66628e-18
4319.25312 8.02486e-18
4320.72130 8.69215e-18
4322.18947 1.08389e-17
4323.65765 8.66416e-18
4325.12582 7.64782e-18
4326.60406 7.34005e-18
4328.07223 8.56647e-18
4329.54041 8.83490e-18
4331.00858 7.97495e-18
4332.47676 7.25869e-18
4333.95499 7.59614e-18
4335.42317 7.79902e-18
4336.89134 5.84202e-18
4338.35952 6.38422e-18
4339.82770 8.63432e-18
4341.29587 8.66008e-18
4342.77410 9.46699e-18
4344.24228 9.32673e-18
4345.71046 8.79193e-18
4347.17863 9.24049e-18
4348.64681 9.09549e-18
4350.12504 7.63623e-18
4351.59322 6.68412e-18
4353.06139 7.09979e-18
4354.52957 8.47476e-18
4355.99774 9.08598e-18
4357.46592 8.38006e-18
4358.94415 8.28331e-18
4360.41233 9.24129e-18
4361.88050 7.78366e-18
4363.34868 6.98466e-18
4364.81686 7.47780e-18
4366.29509 6.80061e-18
4367.76326 6.13959e-18
4369.23144 9.96303e-18
4370.69962 9.85691e-18
4372.16779 9.75087e-18
4373.63597 9.64481e-18
4375.11420 9.53879e-18
4376.58238 9.43271e-18
4378.05055 9.32671e-18
4379.51873 9.22069e-18
4380.98690 9.11467e-18
4382.46514 9.00867e-18
4383.93331 8.90268e-18
4385.40149 8.79673e-18
4386.86966 8.69076e-18
4388.33784 8.58483e-18
4389.80602 8.47884e-18
4391.28425 8.37293e-18
4392.75242 8.26700e-18
4394.22060 8.16108e-18
4395.68878 8.05517e-18
4397.15695 7.94927e-18
4398.62513 7.84341e-18
4400.10336 7.73753e-18
4401.57154 7.63166e-18
4403.03971 7.52580e-18
4404.50789 7.41998e-18
4405.97606 7.31414e-18
4407.45430 6.50618e-18
4408.92247 6.37891e-18
4410.39065 8.02024e-18
4411.85882 8.88909e-18
4413.32700 8.39388e-18
4414.79518 7.25638e-18
4416.27341 7.86491e-18
4417.74158 8.84698e-18
4419.20976 8.86013e-18
4420.67794 8.53239e-18
4422.14611 8.06105e-18
4423.62434 6.38606e-18
4425.09252 5.81721e-18
4426.56070 7.56079e-18
4428.02887 8.54655e-18
4429.49705 8.15420e-18
4430.96522 7.85393e-18
4432.44346 8.76583e-18
4433.91163 9.58321e-18
4435.37981 9.69059e-18
4436.84798 9.34042e-18
4438.31616 8.29411e-18
4439.79439 7.19867e-18
4441.26257 7.76984e-18
4442.73074 7.45149e-18
4444.19892 7.63766e-18
4445.66710 8.95448e-18
4447.14533 9.85055e-18
4448.61350 8.56686e-18
4450.08168 6.85351e-18
4451.54986 7.06529e-18
4453.01803 7.89385e-18
4454.48621 8.05612e-18
4455.96444 9.73165e-18
4457.43262 9.10263e-18
4458.90079 8.89510e-18
4460.36897 9.29083e-18
4461.83714 9.85347e-18
4463.30532 1.02550e-17
4464.78355 9.90742e-18
4466.25173 9.42185e-18
4467.71990 1.10915e-17
4469.18808 1.22872e-17
4470.65626 9.39947e-18
4472.13449 7.11809e-18
4473.60266 9.87588e-18
4475.07084 1.28702e-17
4476.53902 1.00887e-17
4478.00719 7.83815e-18
4479.47537 8.93776e-18
4480.95360 1.09840e-17
4482.42178 9.95474e-18
4483.88995 9.65985e-18
4485.35813 1.09676e-17
4486.82630 9.77173e-18
4488.30454 1.09083e-17
4489.77271 1.16580e-17
4491.24089 1.22802e-17
4492.70906 1.35480e-17
4494.17724 1.34336e-17
4495.64542 1.17982e-17
4497.12365 1.15641e-17
4498.59182 1.27765e-17
4500.06000 1.16693e-17
4501.52818 9.15666e-18
4502.99635 1.01290e-17
4504.47458 1.29264e-17
4505.94276 1.33234e-17
4507.41094 1.28128e-17
4508.87911 1.44565e-17
4510.34729 1.41963e-17
4511.81546 1.32331e-17
4513.29370 1.36769e-17
4514.76187 1.50565e-17
4516.23005 1.53598e-17
4517.69822 1.33692e-17
4519.16640 1.22390e-17
4520.64463 1.46943e-17
4522.11281 1.59704e-17
4523.58098 1.28282e-17
4525.04916 1.18043e-17
4526.51734 1.34390e-17
4527.98551 1.37234e-17
4529.46374 1.34673e-17
4530.93192 1.34739e-17
4532.40010 1.30276e-17
4533.86827 1.33469e-17
4535.33645 1.42112e-17
4536.81468 1.33322e-17
4538.28286 1.29193e-17
4539.75103 1.51043e-17
4541.21921 1.60068e-17
4542.68738 1.50591e-17
4544.15556 1.42785e-17
4545.63379 1.18259e-17
4547.10197 1.03791e-17
4548.57014 1.46877e-17
4550.03832 1.57495e-17
4551.50650 1.42642e-17
4552.98473 1.39824e-17
4554.45290 1.23996e-17
4555.92108 1.22620e-17
4557.38926 1.49122e-17
4558.85743 1.71779e-17
4560.32561 1.60857e-17
4561.80384 1.48361e-17
4563.27202 1.41126e-17
4564.74019 1.52535e-17
4566.20837 1.78179e-17
4567.67654 1.82760e-17
4569.15478 1.65931e-17
4570.62295 1.49996e-17
4572.09113 1.57259e-17
4573.55930 1.70237e-17
4575.02748 1.56388e-17
4576.49566 1.45774e-17
4577.97389 1.43332e-17
4579.44206 1.35433e-17
4580.91024 1.38120e-17
4582.37842 1.58087e-17
4583.84659 1.55197e-17
4585.32482 1.56185e-17
4586.79300 1.56741e-17
4588.26118 1.56137e-17
4589.72935 1.74634e-17
4591.19753 1.66830e-17
4592.66570 1.56207e-17
4594.14394 1.56446e-17
4595.61211 1.47913e-17
4597.08029 1.47279e-17
4598.54846 1.60061e-17
4600.01664 1.61821e-17
4601.49487 1.56579e-17
4602.96305 1.47327e-17
4604.43122 1.39362e-17
4605.89940 1.39817e-17
4607.36758 1.53035e-17
4608.83575 1.57446e-17
4610.31398 1.51219e-17
4611.78216 1.55120e-17
4613.25034 1.59291e-17
4614.71851 1.45618e-17
4616.18669 1.26068e-17
4617.66492 1.25589e-17
4619.13310 1.47039e-17
4620.60127 1.47319e-17
4622.06945 1.45802e-17
4623.53762 1.41662e-17
4625.00580 1.43274e-17
4626.48403 1.37809e-17
4627.95221 1.35949e-17
4629.42038 1.56978e-17
4630.88856 1.44460e-17
4632.35674 1.42077e-17
4633.83497 1.67513e-17
4635.30314 1.52588e-17
4636.77132 1.23177e-17
4638.23950 1.25074e-17
4639.70767 1.35278e-17
4641.17585 1.34622e-17
4642.65408 1.28061e-17
4644.12226 1.33573e-17
4645.59043 1.35906e-17
4647.05861 1.35250e-17
4648.52678 1.44134e-17
4649.99496 1.41122e-17
4651.47319 1.36208e-17
4652.94137 1.45576e-17
4654.40954 1.31209e-17
4655.87772 1.17961e-17
4657.34590 1.07077e-17
4658.82413 1.23678e-17
4660.29230 1.46771e-17
4661.76048 1.22699e-17
4663.22866 9.72799e-18
4664.69683 1.10836e-17
4666.17506 1.27667e-17
4667.64324 1.28339e-17
4669.11142 1.20858e-17
4670.57959 1.21343e-17
4672.04777 1.33961e-17
4673.51594 1.32641e-17
4674.99418 1.19483e-17
4676.46235 1.38623e-17
4677.93053 1.64095e-17
4679.39870 1.38094e-17
4680.86688 1.22635e-17
4682.33506 1.19196e-17
4683.81329 9.74387e-18
4685.28146 9.71151e-18
4686.74964 1.13412e-17
4688.21782 1.08685e-17
4689.68599 1.08957e-17
4691.16422 1.28234e-17
4692.63240 1.32268e-17
4694.10058 1.39872e-17
4695.56875 1.28276e-17
4697.03693 1.01434e-17
4698.50510 1.12400e-17
4699.98334 1.26187e-17
4701.45151 1.08663e-17
4702.91969 9.74761e-18
4704.38786 1.04404e-17
4705.85604 1.03287e-17
4707.33427 9.84574e-18
4708.80245 9.33897e-18
4710.27062 1.10633e-17
4711.73880 1.04993e-17
4713.20698 9.26808e-18
4714.68521 1.20579e-17
4716.15338 1.22989e-17
4717.62156 1.17809e-17
4719.08974 1.26456e-17
4720.55791 1.25096e-17
4722.02609 1.18228e-17
4723.50432 1.15060e-17
4724.97250 1.07467e-17
4726.44067 9.90195e-18
4727.90885 1.02505e-17
4729.37702 1.17814e-17
4730.84520 1.26043e-17
4732.32343 1.18925e-17
4733.79161 1.19098e-17
4735.25978 1.07187e-17
4736.72796 9.98634e-18
4738.19614 1.17947e-17
4739.67437 1.21256e-17
4741.14254 1.16924e-17
4742.61072 1.19665e-17
4744.07890 1.06369e-17
4745.54707 1.02216e-17
4747.01525 1.11324e-17
4748.49348 1.11454e-17
4749.96166 1.13596e-17
4751.42983 1.15455e-17
4752.89801 1.13974e-17
4754.36618 1.05505e-17
4755.84442 1.09625e-17
4757.31259 1.18716e-17
4758.78077 1.11730e-17
4760.24894 9.81708e-18
4761.71712 9.16612e-18
4763.18530 9.64525e-18
4764.66353 7.84083e-18
4766.13170 8.24049e-18
4767.59988 1.04389e-17
4769.06806 9.96535e-18
4770.53623 1.04019e-17
4772.01446 1.19043e-17
4773.48264 1.16459e-17
4774.95082 8.32094e-18
4776.41899 6.66446e-18
4777.88717 9.89422e-18
4779.35534 1.15315e-17
4780.83358 9.61426e-18
4782.30175 9.51562e-18
4783.76993 9.15206e-18
4785.23810 8.10449e-18
4786.70628 9.04792e-18
4788.18451 1.03599e-17
4789.65269 9.43790e-18
4791.12086 8.30064e-18
4792.58904 8.90492e-18
4794.05722 9.43323e-18
4795.52539 9.62741e-18
4797.00362 1.01484e-17
4798.47180 1.09500e-17
4799.93998 1.00365e-17
4801.40815 9.47811e-18
4802.87633 9.80038e-18
4804.35456 9.93021e-18
4805.82274 1.03271e-17
4807.29091 8.85904e-18
4808.75909 7.94811e-18
4810.22726 9.22027e-18
4811.69544 9.44050e-18
4813.17367 8.98951e-18
4814.64185 9.41005e-18
4816.11002 9.03505e-18
4817.57820 8.18826e-18
4819.04638 8.81388e-18
4820.52461 8.27099e-18
4821.99278 8.80179e-18
4823.46096 9.79853e-18
4824.92914 1.01627e-17
4826.39731 1.21308e-17
4827.86549 1.16344e-17
4829.34372 1.14198e-17
4830.81190 1.07552e-17
4832.28007 1.02041e-17
4833.74825 1.22886e-17
4835.21642 1.17786e-17
4836.69466 1.06162e-17
4838.16283 9.94619e-18
4839.63101 9.93064e-18
4841.09918 1.03232e-17
4842.56736 9.71737e-18
4844.03554 1.01451e-17
4845.51377 1.00133e-17
4846.98194 9.53815e-18
4848.45012 9.81229e-18
4849.91830 9.47458e-18
4851.38647 1.06143e-17
4852.86470 1.06011e-17
4854.33288 8.75091e-18
4855.80106 9.71357e-18
4857.26923 1.09784e-17
4858.73741 9.56674e-18
4860.20558 8.87512e-18
4861.68382 1.07391e-17
4863.15199 1.15171e-17
4864.62017 1.15798e-17
4866.08834 1.24254e-17
4867.55652 1.16562e-17
4869.03475 9.67713e-18
4870.50293 9.70146e-18
4871.97110 9.72578e-18
4873.43928 9.75008e-18
4874.90746 9.77440e-18
4876.37563 9.79870e-18
4877.85386 9.82301e-18
4879.32204 9.84731e-18
4880.79022 9.87161e-18
4882.25839 9.89590e-18
4883.72657 9.92020e-18
4885.20480 9.94449e-18
4886.67298 9.96877e-18
4888.14115 9.99306e-18
4889.60933 1.00173e-17
4891.07750 1.00416e-17
4892.54568 1.00659e-17
4894.02391 1.00902e-17
4895.49209 1.01145e-17
4896.96026 1.01387e-17
4898.42844 1.01630e-17
4899.89662 1.01872e-17
4901.37485 1.02115e-17
4902.84302 1.02358e-17
4904.31120 1.02600e-17
4905.77938 1.02843e-17
4907.24755 1.03085e-17
4908.71573 1.13138e-17
4910.19396 1.14949e-17
4911.66214 1.17624e-17
4913.13031 1.11035e-17
4914.59849 1.09666e-17
4916.06666 1.06763e-17
4917.54490 1.02143e-17
4919.01307 1.25625e-17
4920.48125 1.17003e-17
4921.94942 9.93950e-18
4923.41760 1.09464e-17
4924.88578 1.08509e-17
4926.36401 1.11268e-17
4927.83218 1.28314e-17
4929.30036 1.21720e-17
4930.76854 1.16980e-17
4932.23671 1.09094e-17
4933.71494 9.85641e-18
4935.18312 1.06251e-17
4936.65130 1.04607e-17
4938.11947 1.00178e-17
4939.58765 1.07645e-17
4941.05582 1.17941e-17
4942.53406 1.10910e-17
4944.00223 9.87713e-18
4945.47041 1.11828e-17
4946.93858 1.21462e-17
4948.40676 1.16637e-17
4949.87494 1.11342e-17
4951.35317 1.07200e-17
4952.82134 1.15567e-17
4954.28952 1.12249e-17
4955.75770 1.05718e-17
4957.22587 1.18562e-17
4958.70410 1.31987e-17
4960.17228 1.37422e-17
4961.64046 1.34060e-17
4963.10863 1.29491e-17
4964.57681 1.13143e-17
4966.05504 1.19723e-17
4967.52322 1.34225e-17
4968.99139 1.33342e-17
4970.45957 1.32460e-17
4971.92774 1.31577e-17
4973.39592 1.30695e-17
4974.87415 1.29813e-17
4976.34233 1.28931e-17
4977.81050 1.28048e-17
4979.27868 1.27167e-17
4980.74686 1.26285e-17
4982.22509 1.25403e-17
4983.69326 1.24521e-17
4985.16144 1.23640e-17
4986.62962 1.22759e-17
4988.09779 1.21877e-17
4989.56597 1.20996e-17
4991.04420 1.20115e-17
4992.51238 1.19234e-17
4993.98055 1.18353e-17
4995.44873 1.17472e-17
4996.91690 1.16591e-17
4998.39514 1.15710e-17
4999.86331 1.14830e-17
5001.33149 1.13949e-17
5002.79966 1.13069e-17
5004.26784 1.12189e-17
5005.73602 1.11308e-17
5007.21425 1.11838e-17
5008.68242 1.10546e-17
5010.15060 1.07552e-17
5011.61878 9.73121e-18
5013.08695 1.05894e-17
5014.56518 1.11388e-17
5016.03336 1.01520e-17
5017.50154 1.01753e-17
5018.96971 1.01986e-17
5020.43789 1.02219e-17
5021.90606 1.02453e-17
5023.38430 1.02686e-17
5024.85247 1.02919e-17
5026.32065 1.03152e-17
5027.78882 1.03385e-17
5029.25700 1.03618e-17
5030.72518 1.03851e-17
5032.20341 1.04084e-17
5033.67158 1.04317e-17
5035.13976 1.04550e-17
5036.60794 1.04783e-17
5038.07611 1.05016e-17
5039.55434 1.05249e-17
5041.02252 1.05481e-17
5042.49070 1.05714e-17
5043.95887 1.05947e-17
5045.42705 1.06180e-17
5046.89522 1.06413e-17
5048.37346 1.06645e-17
5049.84163 1.06878e-17
5051.30981 1.07111e-17
5052.77798 1.07343e-17
5054.24616 1.07576e-17
5055.72439 9.18861e-18
5057.19257 1.00866e-17
5058.66074 1.04885e-17
5060.12892 9.55421e-18
5061.59710 1.11251e-17
5063.06527 1.17819e-17
5064.54350 1.01431e-17
5066.01168 1.08355e-17
5067.47986 1.24974e-17
5068.94803 1.26615e-17
5070.41621 1.28486e-17
5071.89444 1.26366e-17
5073.36262 1.21775e-17
5074.83079 1.01371e-17
5076.29897 9.99522e-18
5077.76714 1.05299e-17
5079.24538 1.04537e-17
5080.71355 1.15381e-17
5082.18173 1.07539e-17
5083.64990 1.01425e-17
5085.11808 1.04730e-17
5086.58626 1.06277e-17
5088.06449 1.10308e-17
5089.53266 1.06814e-17
5091.00084 1.00304e-17
5092.46902 1.08692e-17
5093.93719 1.27117e-17
5095.40537 1.28701e-17
5096.88360 1.19377e-17
5098.35178 1.22705e-17
5099.81995 1.23571e-17
5101.28813 1.15436e-17
5102.75630 1.23614e-17
5104.23454 1.19575e-17
5105.70271 1.12162e-17
5107.17089 1.25590e-17
5108.63906 1.30352e-17
5110.10724 1.15128e-17
5111.57542 1.13874e-17
5113.05365 1.25501e-17
5114.52182 1.30246e-17
5115.99000 1.27154e-17
5117.45818 1.19285e-17
5118.92635 1.29629e-17
5120.40458 1.26026e-17
5121.87276 1.15018e-17
5123.34094 1.23871e-17
5124.80911 1.23847e-17
5126.27729 1.33800e-17
5127.74546 1.42009e-17
5129.22370 1.29950e-17
5130.69187 1.21202e-17
5132.16005 1.26727e-17
5133.62822 1.32882e-17
5135.09640 1.43625e-17
5136.57463 1.58508e-17
5138.04281 1.52140e-17
5139.51098 1.46025e-17
5140.97916 1.36229e-17
5142.44734 1.30408e-17
5143.91551 1.27427e-17
5145.39374 1.20556e-17
5146.86192 1.27355e-17
5148.33010 1.46636e-17
5149.79827 1.52108e-17
5151.26645 1.37927e-17
5152.74468 1.45948e-17
5154.21286 1.40453e-17
5155.68103 1.29276e-17
5157.14921 1.36098e-17
5158.61738 1.46225e-17
5160.08556 1.44188e-17
5161.56379 1.35808e-17
5163.03197 1.21601e-17
5164.50014 1.33835e-17
5165.96832 1.44374e-17
5167.43650 1.42146e-17
5168.91473 1.42305e-17
5170.38290 1.41567e-17
5171.85108 1.35876e-17
5173.31926 1.31944e-17
5174.78743 1.35731e-17
5176.25561 1.43880e-17
5177.73384 1.38437e-17
5179.20202 1.29303e-17
5180.67019 1.36916e-17
5182.13837 1.52346e-17
5183.60654 1.53337e-17
5185.08478 1.38893e-17
5186.55295 1.37598e-17
5188.02113 1.48532e-17
5189.48930 1.38316e-17
5190.95748 1.39044e-17
5192.42566 1.46007e-17
5193.90389 1.39347e-17
5195.37206 1.32293e-17
5196.84024 1.40981e-17
5198.30842 1.46679e-17
5199.77659 1.37004e-17
5201.25482 1.34755e-17
5202.72300 1.32539e-17
5204.19118 1.36028e-17
5205.65935 1.38454e-17
5207.12753 1.43187e-17
5208.59570 1.48890e-17
5210.07394 1.38813e-17
5211.54211 1.38916e-17
5213.01029 1.48290e-17
5214.47846 1.50398e-17
5215.94664 1.46612e-17
5217.42487 1.46442e-17
5218.89305 1.53758e-17
5220.36122 1.55280e-17
5221.82940 1.39432e-17
5223.29758 1.51587e-17
5224.76575 1.53813e-17
5226.24398 1.47091e-17
5227.71216 1.62119e-17
5229.18034 1.71229e-17
5230.64851 1.65356e-17
5232.11669 1.56595e-17
5233.59492 1.46841e-17
5235.06310 1.54947e-17
5236.53127 1.69537e-17
5237.99945 1.60604e-17
5239.46762 1.52540e-17
5240.93580 1.49063e-17
5242.41403 1.44289e-17
5243.88221 1.52799e-17
5245.35038 1.76054e-17
5246.81856 1.79134e-17
5248.28674 1.74887e-17
5249.75491 1.67377e-17
5251.23314 1.68350e-17
5252.70132 1.54152e-17
5254.16950 1.39633e-17
5255.63767 1.47422e-17
5257.10585 1.64257e-17
5258.58408 1.62030e-17
5260.05226 1.54754e-17
5261.52043 1.43659e-17
5262.98861 1.35043e-17
5264.45678 1.48356e-17
5265.93502 1.52349e-17
5267.40319 1.55831e-17
5268.87137 1.52796e-17
5270.33954 1.54983e-17
5271.80772 1.72477e-17
5273.27590 1.69001e-17
5274.75413 1.61175e-17
5276.22230 1.60183e-17
5277.69048 1.60461e-17
5279.15866 1.63829e-17
5280.62683 1.59419e-17
5282.10506 1.53043e-17
5283.57324 1.54698e-17
5285.04142 1.60547e-17
5286.50959 1.62585e-17
5287.97777 1.50917e-17
5289.44594 1.47495e-17
5290.92418 1.60261e-17
5292.39235 1.65748e-17
5293.86053 1.64961e-17
5295.32870 1.56973e-17
5296.79688 1.50901e-17
5298.27511 1.64622e-17
5299.74329 1.63772e-17
5301.21146 1.59271e-17
5302.67964 1.73723e-17
5304.14782 1.69229e-17
5305.61599 1.53319e-17
5307.09422 1.47197e-17
5308.56240 1.49160e-17
5310.03058 1.64368e-17
5311.49875 1.70244e-17
5312.96693 1.62745e-17
5314.43510 1.45308e-17
5315.91334 1.34836e-17
5317.38151 1.39265e-17
5318.84969 1.39195e-17
5320.31786 1.52379e-17
5321.78604 1.69496e-17
5323.26427 1.65948e-17
5324.73245 1.57425e-17
5326.20062 1.56139e-17
5327.66880 1.61830e-17
5329.13698 1.65151e-17
5330.60515 1.61494e-17
5332.08338 1.55388e-17
5333.55156 1.52194e-17
5335.01974 1.66982e-17
5336.48791 1.71631e-17
5337.95609 1.67034e-17
5339.43432 1.80732e-17
5340.90250 1.78732e-17
5342.37067 1.59761e-17
5343.83885 1.46082e-17
5345.30702 1.52319e-17
5346.77520 1.60685e-17
5348.25343 1.57324e-17
5349.72161 1.55887e-17
5351.18978 1.56618e-17
5352.65796 1.68584e-17
5354.12614 1.60333e-17
5355.60437 1.50043e-17
5357.07254 1.53567e-17
5358.54072 1.57294e-17
5360.00890 1.59102e-17
5361.47707 1.56129e-17
5362.94525 1.68219e-17
5364.42348 1.77693e-17
5365.89166 1.68525e-17
5367.35983 1.57274e-17
5368.82801 1.59512e-17
5370.29618 1.47040e-17
5371.77442 1.51950e-17
5373.24259 1.74643e-17
5374.71077 1.62443e-17
5376.17894 1.59191e-17
5377.64712 1.66540e-17
5379.12535 1.58240e-17
5380.59353 1.60871e-17
5382.06170 1.60437e-17
5383.52988 1.53545e-17
5384.99806 1.44958e-17
5386.46623 1.50522e-17
5387.94446 1.60259e-17
5389.41264 1.51554e-17
5390.88082 1.39464e-17
5392.34899 1.40649e-17
5393.81717 1.43333e-17
5395.28534 1.52239e-17
5396.76358 1.46793e-17
5398.23175 1.34371e-17
5399.69993 1.50714e-17
5401.16810 1.73067e-17
5402.63628 1.59535e-17
5404.11451 1.40534e-17
5405.58269 1.40536e-17
5407.05086 1.50654e-17
5408.51904 1.48941e-17
5409.98722 1.34064e-17
5411.45539 1.29160e-17
5412.93362 1.34613e-17
5414.40180 1.47935e-17
5415.86998 1.61786e-17
5417.33815 1.60862e-17
5418.80633 1.65868e-17
5420.28456 1.61851e-17
5421.75274 1.57571e-17
5423.22091 1.53683e-17
5424.68909 1.50805e-17
5426.15726 1.45255e-17
5427.62544 1.48829e-17
5429.10367 1.62869e-17
5430.57185 1.51545e-17
5432.04002 1.34879e-17
5433.50820 1.28792e-17
5434.97638 1.28256e-17
5436.45461 1.28644e-17
5437.92278 1.32578e-17
5439.39096 1.42930e-17
5440.85914 1.51683e-17
5442.32731 1.53144e-17
5443.79549 1.43196e-17
5445.27372 1.36615e-17
5446.74190 1.42452e-17
5448.21007 1.18531e-17
5449.67825 1.20996e-17
5451.14642 1.32390e-17
5452.62466 1.37429e-17
5454.09283 1.41821e-17
5455.56101 1.34620e-17
5457.02918 1.39329e-17
5458.49736 1.46126e-17
5459.96554 1.35515e-17
5461.44377 1.32786e-17
5462.91194 1.18400e-17
5464.38012 1.26983e-17
5465.84830 1.46435e-17
5467.31647 1.39620e-17
5468.79470 1.39666e-17
5470.26288 1.30004e-17
5471.73106 1.29148e-17
5473.19923 1.35944e-17
5474.66741 1.45424e-17
5476.13558 1.37786e-17
5477.61382 1.28338e-17
5479.08199 1.41518e-17
5480.55017 1.52824e-17
5482.01834 1.47418e-17
5483.48652 1.36793e-17
5484.96475 1.41774e-17
5486.43293 1.45883e-17
5487.90110 1.26051e-17
5489.36928 1.38672e-17
5490.83746 1.44124e-17
5492.30563 1.42775e-17
5493.78386 1.37691e-17
5495.25204 1.31636e-17
5496.72022 1.45122e-17
5498.18839 1.40120e-17
5499.65657 1.33988e-17
5501.13480 1.51535e-17
5502.60298 1.39504e-17
5504.07115 1.28570e-17
5505.53933 1.37788e-17
5507.00750 1.51188e-17
5508.47568 1.45585e-17
5509.95391 1.34482e-17
5511.42209 1.42614e-17
5512.89026 1.39405e-17
5514.35844 1.55620e-17
5515.82662 1.40313e-17
5517.30485 1.27440e-17
5518.77302 1.42809e-17
5520.24120 1.41993e-17
5521.70938 1.40933e-17
5523.17755 1.39386e-17
5524.64573 1.38393e-17
5526.12396 1.40194e-17
5527.59214 1.47305e-17
5529.06031 1.45616e-17
5530.52849 1.44368e-17
5531.99666 1.25256e-17
5533.47490 1.33160e-17
5534.94307 1.46394e-17
5536.41125 1.49690e-17
5537.87942 1.44381e-17
5539.34760 1.36527e-17
5540.81578 1.38302e-17
5542.29401 1.45139e-17
5543.76218 1.37469e-17
5545.23036 1.30863e-17
5546.69854 1.35138e-17
5548.16671 1.30639e-17
5549.64494 1.17883e-17
5551.11312 1.19014e-17
5552.58130 1.23477e-17
5554.04947 1.22246e-17
5555.51765 1.18340e-17
5556.98582 1.19704e-17
5558.46406 1.17029e-17
5559.93223 1.18445e-17
5561.40041 1.24257e-17
5562.86858 1.23094e-17
5564.33676 1.23169e-17
5565.81499 1.20549e-17
5567.28317 1.19807e-17
5568.75134 1.11041e-17
5570.21952 1.19980e-17
5571.68770 1.25688e-17
5573.15587 1.26580e-17
5574.63410 1.16813e-17
5576.10228 1.09447e-17
5577.57046 1.09713e-17
5579.03863 1.06927e-17
5580.50681 9.42127e-18
5581.98504 8.55184e-18
5583.45322 1.00628e-17
5584.92139 1.18331e-17
5586.38957 1.09223e-17
5587.85774 9.82866e-18
5589.32592 1.00389e-17
5590.80415 1.08298e-17
5592.27233 1.18049e-17
5593.74050 1.20900e-17
5595.20868 1.19602e-17
5596.67686 1.11530e-17
5598.15509 1.01491e-17
5599.62326 9.93159e-18
5601.09144 9.72455e-18
5602.55962 9.40138e-18
5604.02779 8.88845e-18
5605.49597 1.00091e-17
5606.97420 1.11165e-17
5608.44238 1.10123e-17
5609.91055 1.00296e-17
5611.37873 9.28031e-18
5612.84690 9.86637e-18
5614.31508 9.15399e-18
5615.79331 9.94797e-18
5617.26149 1.00667e-17
5618.72966 9.01559e-18
5620.19784 9.70081e-18
5621.66602 1.06961e-17
5623.14425 9.94550e-18
5624.61242 8.82682e-18
5626.08060 9.40144e-18
5627.54878 9.66022e-18
5629.01695 9.43037e-18
5630.49518 8.44877e-18
5631.96336 9.02266e-18
5633.43154 1.03968e-17
5634.89971 1.01293e-17
5636.36789 9.14751e-18
5637.83606 1.05713e-17
5639.31430 1.04976e-17
5640.78247 9.39645e-18
5642.25065 9.72075e-18
5643.71882 9.39209e-18
5645.18700 9.69166e-18
5646.66523 1.06082e-17
5648.13341 1.11041e-17
5649.60158 1.11924e-17
5651.06976 1.03470e-17
5652.53794 9.72355e-18
5654.00611 1.03148e-17
5655.48434 9.72571e-18
5656.95252 1.12426e-17
5658.42070 1.07095e-17
5659.88887 1.07392e-17
5661.35705 1.09833e-17
5662.82522 1.07111e-17
5664.30346 1.05348e-17
5665.77163 1.01629e-17
5667.23981 9.25667e-18
5668.70798 8.46813e-18
5670.17616 9.88831e-18
5671.65439 9.70861e-18
5673.12257 9.88461e-18
5674.59074 1.02099e-17
5676.05892 1.05805e-17
5677.52710 1.07384e-17
5679.00533 1.13214e-17
5680.47350 1.31311e-17
5681.94168 1.16467e-17
5683.40986 1.06097e-17
5684.87803 8.34295e-18
5686.34621 9.87371e-18
5687.82444 1.11704e-17
5689.29262 1.08106e-17
5690.76079 1.14200e-17
5692.22897 1.19732e-17
5693.69714 1.19131e-17
5695.16532 1.09243e-17
5696.64355 1.15907e-17
5698.11173 1.23317e-17
5699.57990 1.04976e-17
5701.04808 1.04443e-17
5702.51626 1.05009e-17
5703.99449 1.14057e-17
5705.46266 9.69375e-18
5706.93084 1.08071e-17
5708.39902 1.09892e-17
5709.86719 1.09677e-17
5711.33537 1.12954e-17
5712.81360 1.12350e-17
5714.28178 1.10325e-17
5715.74995 1.25281e-17
5717.21813 1.13993e-17
5718.68630 1.07046e-17
5720.16454 1.15264e-17
5721.63271 1.16926e-17
5723.10089 1.13625e-17
5724.56906 1.03262e-17
5726.03724 1.05208e-17
5727.50542 1.24257e-17
5728.98365 1.23273e-17
5730.45182 1.11249e-17
5731.92000 1.15171e-17
5733.38818 1.21961e-17
5734.85635 1.25683e-17
5736.33458 1.32179e-17
5737.80276 1.28090e-17
5739.27094 1.24741e-17
5740.73911 1.16420e-17
5742.20729 1.29857e-17
5743.67546 1.27069e-17
5745.15370 1.24489e-17
5746.62187 1.33108e-17
5748.09005 1.26392e-17
5749.55822 1.36870e-17
5751.02640 1.38088e-17
5752.50463 1.37472e-17
5753.97281 1.54031e-17
5755.44098 1.52933e-17
5756.90916 1.35452e-17
5758.37734 1.21472e-17
5759.84551 1.27299e-17
5761.32374 1.50073e-17
5762.79192 1.50027e-17
5764.26010 1.36513e-17
5765.72827 1.43668e-17
5767.19645 1.44552e-17
5768.67468 1.50079e-17
5770.14286 1.33262e-17
5771.61103 1.33607e-17
5773.07921 1.40596e-17
5774.54738 1.30137e-17
5776.01556 1.29819e-17
5777.49379 1.43248e-17
5778.96197 1.49887e-17
5780.43014 1.45185e-17
5781.89832 1.49738e-17
5783.36650 1.55932e-17
5784.84473 1.40326e-17
5786.31290 1.29339e-17
5787.78108 1.41753e-17
5789.24926 1.69799e-17
5790.71743 1.63452e-17
5792.18561 1.57916e-17
5793.66384 1.57707e-17
5795.13202 1.53461e-17
5796.60019 1.50447e-17
5798.06837 1.46028e-17
5799.53654 1.54699e-17
5801.01478 1.58138e-17
5802.48295 1.28990e-17
5803.95113 1.48505e-17
5805.41930 1.59190e-17
5806.88748 1.52456e-17
5808.35566 1.59033e-17
5809.83389 1.57794e-17
5811.30206 1.47946e-17
5812.77024 1.50911e-17
5814.23842 1.50850e-17
5815.70659 1.52891e-17
5817.18482 1.54020e-17
5818.65300 1.43582e-17
5820.12118 1.47109e-17
5821.58935 1.52000e-17
5823.05753 1.54205e-17
5824.52570 1.60000e-17
5826.00394 1.69299e-17
5827.47211 1.66043e-17
5828.94029 1.59627e-17
5830.40846 1.66558e-17
5831.87664 1.61580e-17
5833.35487 1.56636e-17
5834.82305 1.66149e-17
5836.29122 1.59920e-17
5837.75940 1.51094e-17
5839.22758 1.58598e-17
5840.69575 1.67963e-17
5842.17398 1.68169e-17
5843.64216 1.50758e-17
5845.11034 1.46718e-17
5846.57851 1.58183e-17
5848.04669 1.62085e-17
5849.52492 1.53328e-17
5850.99310 1.46554e-17
5852.46127 1.51200e-17
5853.92945 1.55719e-17
5855.39762 1.57658e-17
5856.86580 1.49372e-17
5858.34403 1.35263e-17
5859.81221 1.30344e-17
5861.28038 1.48825e-17
5862.74856 1.62690e-17
5864.21674 1.47953e-17
5865.68491 1.54958e-17
5867.16314 1.63387e-17
5868.63132 1.53062e-17
5870.09950 1.37248e-17
5871.56767 1.41241e-17
5873.03585 1.43775e-17
5874.51408 1.51944e-17
5875.98226 1.59902e-17
5877.45043 1.50753e-17
5878.91861 1.36039e-17
5880.38678 1.45167e-17
5881.85496 1.50040e-17
5883.33319 1.42033e-17
5884.80137 1.48937e-17
5886.26954 1.52965e-17
5887.73772 1.34889e-17
5889.20590 1.44483e-17
5890.68413 1.51884e-17
5892.15230 1.38059e-17
5893.62048 1.49812e-17
5895.08866 1.42986e-17
5896.55683 1.38253e-17
5898.03506 1.35712e-17
5899.50324 1.35590e-17
5900.97142 1.20983e-17
5902.43959 1.25415e-17
5903.90777 1.42238e-17
5905.37594 1.56694e-17
5906.85418 1.52956e-17
5908.32235 1.52025e-17
5909.79053 1.44609e-17
5911.25870 1.42598e-17
5912.72688 1.50436e-17
5914.20511 1.55237e-17
5915.67329 1.54941e-17
5917.14146 1.42812e-17
5918.60964 1.36703e-17
5920.07782 1.36322e-17
5921.54599 1.20960e-17
5923.02422 1.19724e-17
5924.49240 1.11645e-17
5925.96058 1.16626e-17
5927.42875 1.30018e-17
5928.89693 1.24867e-17
5930.37516 1.24520e-17
5931.84334 1.29010e-17
5933.31151 1.51108e-17
5934.77969 1.57150e-17
5936.24786 1.67026e-17
5937.71604 1.46021e-17
5939.19427 1.52826e-17
5940.66245 1.45085e-17
5942.13062 1.41508e-17
5943.59880 1.40865e-17
5945.06698 1.44413e-17
5946.53515 1.33696e-17
5948.01338 1.44257e-17
5949.48156 1.52056e-17
5950.94974 1.53352e-17
5952.41791 1.43286e-17
5953.88609 1.53576e-17
5955.36432 1.47275e-17
5956.83250 1.35691e-17
5958.30067 1.41555e-17
5959.76885 1.34015e-17
5961.23702 1.32077e-17
5962.70520 1.44892e-17
5964.18343 1.42924e-17
5965.65161 1.39280e-17
5967.11978 1.56607e-17
5968.58796 1.46299e-17
5970.05614 1.40612e-17
5971.53437 1.23314e-17
5973.00254 1.42370e-17
5974.47072 1.66357e-17
5975.93890 1.47925e-17
5977.40707 1.33361e-17
5978.87525 1.34610e-17
5980.35348 1.33377e-17
5981.82166 1.50805e-17
5983.28983 1.54074e-17
5984.75801 1.53640e-17
5986.22618 1.47715e-17
5987.70442 1.35840e-17
5989.17259 1.36372e-17
5990.64077 1.50520e-17
5992.10894 1.39728e-17
5993.57712 1.43334e-17
5995.04530 1.42128e-17
5996.52353 1.37237e-17
5997.99170 1.44624e-17
5999.45988 1.53649e-17
6000.92806 1.61323e-17
6002.39623 1.43320e-17
6003.87446 1.48243e-17
6005.34264 1.56429e-17
6006.81082 1.44909e-17
6008.27899 1.52413e-17
6009.74717 1.50645e-17
6011.22540 1.48602e-17
6012.69358 1.42305e-17
6014.16175 1.52596e-17
6015.62993 1.47518e-17
6017.09810 1.41357e-17
6018.56628 1.44850e-17
6020.04451 1.45791e-17
6021.51269 1.46765e-17
6022.98086 1.45730e-17
6024.44904 1.53857e-17
6025.91722 1.39246e-17
6027.38539 1.24191e-17
6028.86362 1.40527e-17
6030.33180 1.53971e-17
6031.79998 1.41591e-17
6033.26815 1.34978e-17
6034.73633 1.46240e-17
6036.21456 1.52921e-17
6037.68274 1.45935e-17
6039.15091 1.40545e-17
6040.61909 1.30240e-17
6042.08726 1.16550e-17
6043.55544 1.27707e-17
6045.03367 1.43362e-17
6046.50185 1.38109e-17
6047.97002 1.25049e-17
6049.43820 1.38028e-17
6050.90638 1.48537e-17
6052.38461 1.37135e-17
6053.85278 1.30597e-17
6055.32096 1.36867e-17
6056.78914 1.37227e-17
6058.25731 1.34118e-17
6059.72549 1.39459e-17
6061.20372 1.36576e-17
6062.67190 1.25954e-17
6064.14007 1.19079e-17
6065.60825 1.13922e-17
6067.07642 1.25316e-17
6068.55466 1.39849e-17
6070.02283 1.16665e-17
6071.49101 1.26058e-17
6072.95918 1.27874e-17
6074.42736 1.17700e-17
6075.89554 1.26758e-17
6077.37377 1.05569e-17
6078.84194 9.47032e-18
6080.31012 1.04502e-17
6081.77830 1.06997e-17
6083.24647 1.08993e-17
6084.72470 1.22492e-17
6086.19288 1.19059e-17
6087.66106 1.21694e-17
6089.12923 1.20886e-17
6090.59741 1.16005e-17
6092.06558 1.14643e-17
6093.54382 1.02447e-17
6095.01199 9.87136e-18
6096.48017 1.09071e-17
6097.94834 1.11919e-17
6099.41652 1.12112e-17
6100.89475 1.10772e-17
6102.36293 1.22573e-17
6103.83110 1.33238e-17
6105.29928 1.02632e-17
6106.76746 1.08504e-17
6108.23563 1.26216e-17
6109.71386 1.19947e-17
6111.18204 1.15103e-17
6112.65022 1.10384e-17
6114.11839 1.04834e-17
6115.58657 1.15050e-17
6117.06480 1.17257e-17
6118.53298 1.16267e-17
6120.00115 1.03241e-17
6121.46933 1.04479e-17
6122.93750 1.22493e-17
6124.40568 1.09533e-17
6125.88391 1.24324e-17
6127.35209 1.08709e-17
6128.82026 1.00722e-17
6130.28844 9.76885e-18
6131.75662 1.14316e-17
6133.23485 1.21358e-17
6134.70302 1.26070e-17
6136.17120 1.08943e-17
6137.63938 1.12868e-17
6139.10755 1.17896e-17
6140.57573 1.03494e-17
6142.05396 1.02608e-17
6143.52214 1.18911e-17
6144.99031 1.27450e-17
6146.45849 1.13574e-17
6147.92666 9.71200e-18
6149.40490 1.15172e-17
6150.87307 1.09660e-17
6152.34125 1.12708e-17
6153.80942 1.09738e-17
6155.27760 1.16421e-17
6156.74578 1.03203e-17
6158.22401 1.12515e-17
6159.69218 1.09171e-17
6161.16036 1.03470e-17
6162.62854 1.08766e-17
6164.09671 1.07307e-17
6165.56489 1.07342e-17
6167.04312 1.17057e-17
6168.51130 1.24142e-17
6169.97947 1.14410e-17
6171.44765 1.06719e-17
6172.91582 9.63836e-18
6174.39406 1.06657e-17
6175.86223 1.08952e-17
6177.33041 9.92064e-18
6178.79858 9.78951e-18
6180.26676 1.06535e-17
6181.74499 1.08568e-17
6183.21317 1.14407e-17
6184.68134 9.38627e-18
6186.14952 9.97365e-18
6187.61770 9.75084e-18
6189.08587 1.02482e-17
6190.56410 1.05128e-17
6192.03228 1.07940e-17
6193.50046 9.76038e-18
6194.96863 9.03720e-18
6196.43681 1.02718e-17
6197.91504 9.88149e-18
6199.38322 1.05355e-17
6200.85139 1.07882e-17
6202.31957 9.05199e-18
6203.78774 8.80101e-18
6205.25592 1.14563e-17
6206.73415 1.09466e-17
6208.20233 1.01251e-17
6209.67050 9.18497e-18
6211.13868 9.77435e-18
6212.60686 1.05847e-17
6214.08509 1.02997e-17
6215.55326 1.02653e-17
6217.02144 1.14809e-17
6218.48962 1.05288e-17
6219.95779 9.56360e-18
6221.42597 9.98534e-18
6222.90420 1.05989e-17
6224.37238 1.03440e-17
6225.84055 8.69819e-18
6227.30873 9.78797e-18
6228.77690 1.10641e-17
6230.25514 1.04747e-17
6231.72331 1.03917e-17
6233.19149 9.82297e-18
6234.65966 1.02013e-17
6236.12784 1.17829e-17
6237.59602 1.15473e-17
6239.07425 1.06111e-17
6240.54242 1.08775e-17
6242.01060 1.04011e-17
6243.47878 9.64172e-18
6244.94695 1.11709e-17
6246.41513 1.16353e-17
6247.89336 1.03446e-17
6249.36154 1.16726e-17
6250.82971 1.28686e-17
6252.29789 1.13087e-17
6253.76606 1.07241e-17
6255.24430 1.14677e-17
6256.71247 1.23390e-17
6258.18065 1.20690e-17
6259.64882 1.19981e-17
6261.11700 1.17730e-17
6262.58518 1.21024e-17
6264.06341 1.15674e-17
6265.53158 1.15743e-17
6266.99976 1.11545e-17
6268.46794 1.18178e-17
6269.93611 1.26859e-17
6271.41434 1.28147e-17
6272.88252 1.26641e-17
6274.35070 1.11215e-17
6275.81887 1.22172e-17
6277.28705 1.41326e-17
6278.75522 1.18430e-17
6280.23346 1.17978e-17
6281.70163 1.36609e-17
6283.16981 1.31573e-17
6284.63798 1.19869e-17
6286.10616 1.30555e-17
6287.58439 1.27672e-17
6289.05257 1.12688e-17
6290.52074 1.15970e-17
6291.98892 1.18518e-17
6293.45710 1.14704e-17
6294.93533 1.27321e-17
6296.40350 1.33860e-17
6297.87168 1.29073e-17
6299.33986 1.33728e-17
6300.80803 1.32956e-17
6302.27621 1.26921e-17
6303.75444 1.32625e-17
6305.22262 1.22082e-17
6306.69079 1.13304e-17
6308.15897 1.09853e-17
6309.62714 1.20540e-17
6311.10538 1.33067e-17
6312.57355 1.25957e-17
6314.04173 1.22395e-17
6315.50990 1.25740e-17
6316.97808 1.22622e-17
6318.44626 1.12998e-17
6319.92449 1.33556e-17
6321.39266 1.22351e-17
6322.86084 1.12290e-17
6324.32902 1.12554e-17
6325.79719 1.24356e-17
6327.26537 1.09691e-17
6328.74360 1.04287e-17
6330.21178 1.01404e-17
6331.67995 9.84370e-18
6333.14813 1.17808e-17
6334.61630 1.21390e-17
6336.09454 1.10266e-17
6337.56271 1.23417e-17
6339.03089 1.16851e-17
6340.49906 1.14506e-17
6341.96724 1.19049e-17
6343.43542 1.27575e-17
6344.91365 1.02088e-17
6346.38182 1.05510e-17
6347.85000 1.10504e-17
6349.31818 1.10392e-17
6350.78635 1.05244e-17
6352.26458 9.50695e-18
6353.73276 1.13606e-17
6355.20094 1.20803e-17
6356.66911 1.12842e-17
6358.13729 1.15024e-17
6359.60546 1.28501e-17
6361.08370 1.31543e-17
6362.55187 1.13028e-17
6364.02005 1.05367e-17
6365.48822 1.16378e-17
6366.95640 1.26093e-17
6368.43463 1.01304e-17
6369.90281 9.98558e-18
6371.37098 1.13856e-17
6372.83916 1.06859e-17
6374.30734 1.13787e-17
6375.77551 1.15862e-17
6377.25374 1.21285e-17
6378.72192 1.22595e-17
6380.19010 9.98737e-18
6381.65827 1.17329e-17
6383.12645 1.17438e-17
6384.60468 1.07656e-17
6386.07286 1.14212e-17
6387.54103 1.20790e-17
6389.00921 1.07589e-17
6390.47738 1.07062e-17
6391.94556 1.05928e-17
6393.42379 1.16659e-17
6394.89197 1.14911e-17
6396.36014 1.10377e-17
6397.82832 1.11968e-17
6399.29650 1.17822e-17
6400.77473 1.12707e-17
6402.24290 1.19629e-17
6403.71108 1.20520e-17
6405.17926 9.64549e-18
6406.64743 1.02236e-17
6408.11561 1.04450e-17
6409.59384 1.03664e-17
6411.06202 1.03039e-17
6412.53019 1.03027e-17
6413.99837 1.12776e-17
6415.46654 1.16460e-17
6416.94478 1.09294e-17
6418.41295 1.06237e-17
6419.88113 1.17150e-17
6421.34930 1.19370e-17
6422.81748 1.18023e-17
6424.28566 1.09494e-17
6425.76389 1.07749e-17
6427.23206 1.05356e-17
6428.70024 1.04669e-17
6430.16842 1.10415e-17
6431.63659 1.17396e-17
6433.11482 1.15368e-17
6434.58300 1.07942e-17
6436.05118 1.12774e-17
6437.51935 1.18315e-17
6438.98753 1.19343e-17
6440.45570 1.01118e-17
6441.93394 1.05100e-17
6443.40211 1.14781e-17
6444.87029 1.09289e-17
6446.33846 1.10721e-17
6447.80664 1.22215e-17
6449.28487 1.14485e-17
6450.75305 1.09715e-17
6452.22122 1.28725e-17
6453.68940 1.09545e-17
6455.15758 1.07834e-17
6456.62575 1.15188e-17
6458.10398 1.10121e-17
6459.57216 1.08134e-17
6461.04034 1.12186e-17
6462.50851 1.20076e-17
6463.97669 1.23523e-17
6465.45492 1.19487e-17
6466.92310 1.25771e-17
6468.39127 1.21970e-17
6469.85945 1.11150e-17
6471.32762 1.18945e-17
6472.79580 1.23281e-17
6474.27403 1.21901e-17
6475.74221 1.14834e-17
6477.21038 1.18774e-17
6478.67856 1.25091e-17
6480.14674 1.09265e-17
6481.62497 1.03237e-17
6483.09314 1.24139e-17
6484.56132 1.14613e-17
6486.02950 1.28095e-17
6487.49767 1.27091e-17
6488.96585 9.96565e-18
6490.44408 1.05836e-17
6491.91226 1.03494e-17
6493.38043 1.18140e-17
6494.84861 1.22123e-17
6496.31678 1.20829e-17
6497.78496 1.26524e-17
6499.26319 1.06373e-17
6500.73137 1.05295e-17
6502.19954 1.20978e-17
6503.66772 1.16796e-17
6505.13590 1.19100e-17
6506.61413 1.36441e-17
6508.08230 1.16990e-17
6509.55048 1.37687e-17
6511.01866 1.24408e-17
6512.48683 9.71074e-18
6513.96506 1.08748e-17
6515.43324 1.15481e-17
6516.90142 1.17951e-17
6518.36959 1.20497e-17
6519.83777 1.15795e-17
6521.30594 1.08225e-17
6522.78418 1.19265e-17
6524.25235 1.21439e-17
6525.72053 1.24278e-17
6527.18870 9.92571e-18
6528.65688 1.10085e-17
6530.13511 1.19850e-17
6531.60329 1.10889e-17
6533.07146 1.25756e-17
6534.53964 1.27404e-17
6536.00782 1.09759e-17
6537.47599 1.22982e-17
6538.95422 1.29011e-17
6540.42240 1.23091e-17
6541.89058 1.18273e-17
6543.35875 1.15090e-17
6544.82693 1.30038e-17
6546.29510 1.23034e-17
6547.77334 1.32085e-17
6549.24151 1.27264e-17
6550.70969 1.14990e-17
6552.17786 1.15104e-17
6553.64604 1.22398e-17
6555.12427 1.22157e-17
6556.59245 1.14560e-17
6558.06062 1.24683e-17
6559.52880 1.23502e-17
6560.99698 1.13073e-17
6562.47521 1.17430e-17
6563.94338 1.10887e-17
6565.41156 1.20174e-17
6566.87974 1.24757e-17
6568.34791 1.17144e-17
6569.81609 1.17143e-17
6571.29432 1.17141e-17
6572.76250 1.17140e-17
6574.23067 1.17139e-17
6575.69885 1.17137e-17
6577.16702 1.17136e-17
6578.63520 1.17135e-17
6580.11343 1.17133e-17
6581.58161 1.17132e-17
6583.04978 1.17130e-17
6584.51796 1.17129e-17
6585.98614 1.17128e-17
6587.46437 1.17126e-17
6588.93254 1.17125e-17
6590.40072 1.17124e-17
6591.86890 1.17122e-17
6593.33707 1.17121e-17
6594.80525 1.17119e-17
6596.28348 1.17118e-17
6597.75166 1.17117e-17
6599.21983 1.17115e-17
6600.68801 1.17114e-17
6602.15618 1.17113e-17
6603.63442 1.17111e-17
6605.10259 1.17110e-17
6606.57077 1.17108e-17
6608.03894 1.17107e-17
6609.50712 1.17106e-17
6610.98535 1.17104e-17
6612.45353 1.17103e-17
6613.92170 1.17102e-17
6615.38988 1.17100e-17
6616.85806 1.17099e-17
6618.32623 1.17097e-17
6619.80446 1.17096e-17
6621.27264 1.17095e-17
6622.74082 1.17093e-17
6624.20899 1.17092e-17
6625.67717 1.17091e-17
6627.14534 1.17089e-17
6628.62358 1.17088e-17
6630.09175 1.17087e-17
6631.55993 1.20287e-17
6633.02810 1.22435e-17
6634.49628 1.24783e-17
6635.97451 1.32207e-17
6637.44269 1.21790e-17
6638.91086 1.22409e-17
6640.37904 1.26358e-17
6641.84722 1.18480e-17
6643.31539 1.28241e-17
6644.79362 1.31312e-17
6646.26180 1.21861e-17
6647.72998 1.34097e-17
6649.19815 1.38769e-17
6650.66633 1.23989e-17
6652.14456 1.20159e-17
6653.61274 1.30648e-17
6655.08091 1.31813e-17
6656.54909 1.27903e-17
6658.01726 1.29900e-17
6659.48544 1.29428e-17
6660.96367 1.25341e-17
6662.43185 1.40885e-17
6663.90002 1.36395e-17
6665.36820 1.24933e-17
6666.83638 1.20738e-17
6668.31461 1.30050e-17
6669.78278 1.28697e-17
6671.25096 1.21105e-17
6672.71914 1.27783e-17
6674.18731 1.21564e-17
6675.65549 1.13193e-17
6677.13372 1.11488e-17
6678.60190 1.20567e-17
6680.07007 1.17703e-17
6681.53825 1.12700e-17
6683.00642 1.12378e-17
6684.48466 1.10718e-17
6685.95283 1.26729e-17
6687.42101 1.17171e-17
6688.88918 1.10347e-17
6690.35736 1.30615e-17
6691.82554 1.19512e-17
6693.30377 1.20583e-17
6694.77194 1.26615e-17
6696.24012 1.08043e-17
6697.70830 1.13902e-17
6699.17647 1.09924e-17
6700.65470 1.06112e-17
6702.12288 1.13556e-17
6703.59106 1.11786e-17
6705.05923 1.21243e-17
6706.52741 1.16700e-17
6707.99558 1.08423e-17
6709.47382 1.13893e-17
6710.94199 1.22072e-17
6712.41017 1.11731e-17
6713.87834 1.02864e-17
6715.34652 9.65016e-18
6716.82475 9.48235e-18
6718.29293 1.07171e-17
6719.76110 1.33799e-17
6721.22928 1.21219e-17
6722.69746 1.01036e-17
6724.16563 9.99809e-18
6725.64386 1.09997e-17
6727.11204 9.41661e-18
6728.58022 1.08215e-17
6730.04839 1.24692e-17
6731.51657 1.06007e-17
6732.99480 1.10075e-17
6734.46298 1.31797e-17
6735.93115 1.08637e-17
6737.39933 1.07508e-17
6738.86750 1.03439e-17
6740.33568 1.01273e-17
6741.81391 1.13825e-17
6743.28209 1.14281e-17
6744.75026 1.09932e-17
6746.21844 1.26258e-17
6747.68662 1.12218e-17
6749.16485 9.26919e-18
6750.63302 1.04491e-17
6752.10120 1.25188e-17
6753.56938 1.23495e-17
6755.03755 1.12209e-17
6756.50573 1.26019e-17
6757.98396 1.18711e-17
6759.45214 1.17719e-17
6760.92031 1.06386e-17
6762.38849 1.14402e-17
6763.85666 1.02273e-17
6765.33490 9.84145e-18
6766.80307 1.02894e-17
6768.27125 1.24376e-17
6769.73942 1.20828e-17
6771.20760 1.13317e-17
6772.67578 1.04103e-17
6774.15401 1.05157e-17
6775.62218 1.09842e-17
6777.09036 9.94869e-18
6778.55854 9.20116e-18
6780.02671 9.18498e-18
6781.50494 9.40005e-18
6782.97312 9.91648e-18
6784.44130 1.09548e-17
6785.90947 1.19113e-17
6787.37765 1.13481e-17
6788.84582 9.36655e-18
6790.32406 1.04083e-17
6791.79223 1.20445e-17
6793.26041 1.01485e-17
6794.72858 9.51499e-18
6796.19676 1.13418e-17
6797.66494 1.25190e-17
6799.14317 1.10867e-17
6800.61134 1.07168e-17
6802.07952 1.08542e-17
6803.54770 1.00384e-17
6805.01587 1.03910e-17
6806.49410 1.05967e-17
6807.96228 1.02422e-17
6809.43046 1.06028e-17
6810.89863 1.12737e-17
6812.36681 1.18337e-17
6813.84504 9.67408e-18
6815.31322 1.04208e-17
6816.78139 1.08969e-17
6818.24957 1.10273e-17
6819.71774 1.01677e-17
6821.18592 1.14041e-17
6822.66415 1.14621e-17
6824.13233 1.16991e-17
6825.60050 1.05685e-17
6827.06868 1.03479e-17
6828.53686 1.08855e-17
6830.01509 1.14303e-17
6831.48326 1.11341e-17
6832.95144 1.06710e-17
6834.41962 1.09149e-17
6835.88779 1.02656e-17
6837.35597 1.14469e-17
6838.83420 1.13809e-17
6840.30238 1.09853e-17
6841.77055 1.12625e-17
6843.23873 1.06108e-17
6844.70690 1.12030e-17
6846.18514 1.07158e-17
6847.65331 1.09616e-17
6849.12149 1.03777e-17
6850.58966 9.88571e-18
6852.05784 1.00604e-17
6853.52602 9.79850e-18
6855.00425 1.07287e-17
6856.47242 1.11059e-17
6857.94060 1.08354e-17
6859.40878 1.12280e-17
6860.87695 1.21856e-17
6862.35518 1.14641e-17
6863.82336 9.56087e-18
6865.29154 9.46692e-18
6866.75971 1.14641e-17
6868.22789 1.27381e-17
6869.69606 1.10954e-17
6871.17430 1.01387e-17
6872.64247 1.06741e-17
6874.11065 1.04267e-17
6875.57882 1.17035e-17
6877.04700 1.23500e-17
6878.51518 1.10807e-17
6879.99341 1.12783e-17
6881.46158 1.12484e-17
6882.92976 1.06191e-17
6884.39794 1.00146e-17
6885.86611 1.01691e-17
6887.34434 1.00934e-17
6888.81252 1.00572e-17
6890.28070 1.09292e-17
6891.74887 1.04957e-17
6893.21705 9.55764e-18
6894.68522 1.02065e-17
6896.16346 1.04072e-17
6897.63163 9.14013e-18
6899.09981 1.02509e-17
6900.56798 1.09957e-17
6902.03616 1.07177e-17
6903.51439 1.11652e-17
6904.98257 1.21140e-17
6906.45074 1.09165e-17
6907.91892 9.64735e-18
6909.38710 1.07353e-17
6910.85527 1.01411e-17
6912.33350 9.95159e-18
6913.80168 1.07165e-17
6915.26986 9.67924e-18
6916.73803 9.27418e-18
6918.20621 1.13366e-17
6919.68444 1.17242e-17
6921.15262 1.03394e-17
6922.62079 1.08357e-17
6924.08897 1.03465e-17
6925.55714 1.07827e-17
6927.02532 1.04825e-17
6928.50355 1.18580e-17
6929.97173 1.15832e-17
6931.43990 1.12157e-17
6932.90808 1.16520e-17
6934.37626 1.10212e-17
6935.85449 1.00240e-17
6937.32266 1.03492e-17
6938.79084 1.08785e-17
6940.25902 1.19564e-17
6941.72719 1.04538e-17
6943.20542 9.53086e-18
6944.67360 1.12030e-17
6946.14178 1.11278e-17
6947.60995 9.85772e-18
6949.07813 1.06841e-17
6950.54630 1.16088e-17
6952.02454 1.11752e-17
6953.49271 1.06052e-17
6954.96089 1.04810e-17
6956.42906 1.14782e-17
6957.89724 1.24544e-17
6959.36542 1.11119e-17
6960.84365 1.06174e-17
6962.31182 1.16523e-17
6963.78000 1.12667e-17
6965.24818 1.09711e-17
6966.71635 1.18811e-17
6968.19458 9.80250e-18
6969.66276 9.48487e-18
6971.13094 1.17271e-17
6972.59911 1.25103e-17
6974.06729 1.21744e-17
6975.53546 9.80824e-18
6977.01370 1.03127e-17
6978.48187 1.05465e-17
6979.95005 1.20601e-17
6981.41822 1.24641e-17
6982.88640 1.26024e-17
6984.36463 1.23345e-17
6985.83281 1.13142e-17
6987.30098 1.10731e-17
6988.76916 1.11618e-17
6990.23734 1.14125e-17
6991.70551 1.14361e-17
6993.18374 1.15942e-17
6994.65192 1.04793e-17
6996.12010 1.13655e-17
6997.58827 1.14795e-17
6999.05645 1.19734e-17
7000.53468 1.07950e-17
7002.00286 1.13765e-17
7003.47103 1.10576e-17
7004.93921 9.96737e-18
7006.40738 1.13681e-17
7007.87556 1.07158e-17
7009.35379 1.34441e-17
7010.82197 7.28847e-18
7012.29014 9.88901e-18
7013.75832 1.21139e-17
7015.22650 1.15027e-17
7016.70473 1.18871e-17
7018.17290 1.21235e-17
7019.64108 1.14449e-17
7021.10926 1.28246e-17
7022.57743 1.10091e-17
7024.04561 1.07000e-17
7025.52384 1.12406e-17
7026.99202 1.15789e-17
7028.46019 1.12117e-17
7029.92837 1.09057e-17
7031.39654 1.05121e-17
7032.87478 1.03230e-17
7034.34295 1.12918e-17
7035.81113 9.84859e-18
7037.27930 1.05854e-17
7038.74748 1.21122e-17
7040.21566 1.17660e-17
7041.69389 1.18929e-17
7043.16206 1.12061e-17
7044.63024 1.12390e-17
7046.09842 1.16391e-17
7047.56659 1.28212e-17
7049.04482 1.19541e-17
7050.51300 1.18167e-17
7051.98118 1.12663e-17
7053.44935 1.02242e-17
7054.91753 1.08769e-17
7056.38570 1.30522e-17
7057.86394 1.15305e-17
7059.33211 1.09677e-17
7060.80029 1.10532e-17
7062.26846 1.06373e-17
7063.73664 1.08579e-17
7065.21487 1.20697e-17
7066.68305 1.15722e-17
7068.15122 1.03951e-17
7069.61940 1.07144e-17
7071.08758 1.15708e-17
7072.55575 1.17871e-17
7074.03398 1.19487e-17
7075.50216 1.10437e-17
7076.97034 1.11156e-17
7078.43851 1.04726e-17
7079.90669 1.09634e-17
7081.38492 1.14447e-17
7082.85310 1.16090e-17
7084.32127 1.23058e-17
7085.78945 1.25625e-17
7087.25762 1.16503e-17
7088.72580 1.14751e-17
7090.20403 1.29410e-17
7091.67221 1.13315e-17
7093.14038 9.66677e-18
7094.60856 1.13390e-17
7096.07674 1.23599e-17
7097.54491 1.18308e-17
7099.02314 1.10669e-17
7100.49132 1.06889e-17
7101.95950 1.13380e-17
7103.42767 1.21186e-17
7104.89585 1.14886e-17
7106.37408 1.10834e-17
7107.84226 1.08088e-17
7109.31043 1.17840e-17
7110.77861 1.28393e-17
7112.24678 1.24247e-17
7113.72502 1.14619e-17
7115.19319 1.09274e-17
7116.66137 1.10784e-17
7118.12954 9.79504e-18
7119.59772 1.03842e-17
7121.06590 1.10832e-17
7122.54413 1.01190e-17
7124.01230 1.06043e-17
7125.48048 1.01035e-17
7126.94866 1.01786e-17
7128.41683 1.05408e-17
7129.89506 1.13129e-17
7131.36324 1.21362e-17
7132.83142 1.27385e-17
7134.29959 1.26670e-17
7135.76777 1.11739e-17
7137.23594 1.03947e-17
7138.71418 1.00665e-17
7140.18235 1.05751e-17
7141.65053 1.11602e-17
7143.11870 1.05293e-17
7144.58688 1.06879e-17
7146.06511 1.10571e-17
7147.53329 1.10838e-17
7149.00146 1.10521e-17
7150.46964 1.07781e-17
7151.93782 1.01390e-17
7153.40599 1.03913e-17
7154.88422 1.16153e-17
7156.35240 1.25331e-17
7157.82058 1.27643e-17
7159.28875 1.16523e-17
7160.75693 1.07157e-17
7162.23516 9.43477e-18
7163.70334 8.81318e-18
7165.17151 1.03889e-17
7166.63969 1.07566e-17
7168.10786 1.09505e-17
7169.57604 1.17296e-17
7171.05427 1.12165e-17
7172.52245 1.09476e-17
7173.99062 1.12589e-17
7175.45880 1.17383e-17
7176.92698 1.15558e-17
7178.39515 1.06469e-17
7179.87338 9.64693e-18
7181.34156 9.38241e-18
7182.80974 1.00186e-17
7184.27791 1.08686e-17
7185.74609 1.12176e-17
7187.22432 9.65303e-18
7188.69250 9.20703e-18
7190.16067 1.11496e-17
7191.62885 1.26625e-17
7193.09702 1.14322e-17
7194.56520 1.06309e-17
7196.04343 1.06495e-17
7197.51161 1.10368e-17
7198.97978 1.23076e-17
7200.44796 1.21191e-17
7201.91614 1.08296e-17
7203.39437 9.14498e-18
7204.86254 9.84720e-18
7206.33072 1.08666e-17
7207.79890 1.10305e-17
7209.26707 1.14353e-17
7210.73525 1.06628e-17
7212.21348 1.06526e-17
7213.68166 9.99965e-18
7215.14983 9.68018e-18
7216.61801 1.14553e-17
7218.08618 1.24030e-17
7219.56442 1.12217e-17
7221.03259 1.06621e-17
7222.50077 1.18794e-17
7223.96894 1.23197e-17
7225.43712 1.28940e-17
7226.91535 1.15783e-17
7228.38353 1.08431e-17
7229.85170 1.09075e-17
7231.31988 1.12279e-17
7232.78806 1.23631e-17
7234.25623 1.12056e-17
7235.73446 8.89823e-18
7237.20264 9.48926e-18
7238.67082 1.03463e-17
7240.13899 1.08824e-17
7241.60717 1.17394e-17
7243.08540 1.13351e-17
7244.55358 1.06254e-17
7246.02175 1.06462e-17
7247.48993 8.88285e-18
7248.95810 9.31392e-18
7250.42628 1.15588e-17
7251.90451 1.17978e-17
7253.37269 1.05290e-17
7254.84086 9.42046e-18
7256.30904 1.07584e-17
7257.77722 1.05168e-17
7259.24539 1.02676e-17
7260.72362 1.05200e-17
7262.19180 1.03217e-17
7263.65998 1.09336e-17
7265.12815 9.68449e-18
7266.59633 9.54442e-18
7268.07456 1.08416e-17
7269.54274 1.13595e-17
7271.01091 1.04792e-17
7272.47909 1.08946e-17
7273.94726 1.14596e-17
7275.41544 1.03936e-17
7276.89367 1.03097e-17
7278.36185 1.12575e-17
7279.83002 1.10302e-17
7281.29820 1.07461e-17
7282.76638 9.82596e-18
7284.24461 9.48773e-18
7285.71278 1.18242e-17
7287.18096 1.16289e-17
7288.64914 1.06969e-17
7290.11731 1.09490e-17
7291.58549 1.01409e-17
7293.06372 1.04425e-17
7294.53190 1.12997e-17
7296.00007 1.02590e-17
7297.46825 1.04772e-17
7298.93642 1.08072e-17
7300.41466 1.13092e-17
7301.88283 1.11255e-17
7303.35101 1.00853e-17
7304.81918 9.76825e-18
7306.28736 9.83881e-18
7307.75554 9.96248e-18
7309.23377 9.59519e-18
7310.70194 9.66392e-18
7312.17012 1.04730e-17
7313.63830 1.00567e-17
7315.10647 9.92306e-18
7316.58470 1.04583e-17
7318.05288 1.01331e-17
7319.52106 1.04370e-17
7320.98923 1.02669e-17
7322.45741 9.88971e-18
7323.92558 1.03306e-17
7325.40382 1.03364e-17
7326.87199 9.89388e-18
7328.34017 9.67690e-18
7329.80834 9.57458e-18
7331.27652 9.73778e-18
7332.75475 1.00848e-17
7334.22293 1.10940e-17
7335.69110 1.11089e-17
7337.15928 9.75666e-18
7338.62746 1.07020e-17
7340.09563 1.07974e-17
7341.57386 1.19726e-17
7343.04204 1.10227e-17
7344.51022 8.76269e-18
7345.97839 9.32429e-18
7347.44657 1.03071e-17
7348.92480 1.04674e-17
7350.39298 1.05078e-17
7351.86115 9.98981e-18
7353.32933 1.02284e-17
7354.79750 1.03990e-17
7356.26568 9.15847e-18
7357.74391 8.65964e-18
7359.21209 1.01564e-17
7360.68026 1.01850e-17
7362.14844 1.05194e-17
7363.61662 9.56529e-18
7365.09485 9.32623e-18
7366.56302 9.86988e-18
7368.03120 9.72809e-18
7369.49938 8.95795e-18
7370.96755 9.68298e-18
7372.43573 9.89645e-18
7373.91396 9.05207e-18
7375.38214 9.38064e-18
7376.85031 9.11500e-18
7378.31849 8.67039e-18
7379.78666 9.37156e-18
7381.26490 1.03176e-17
7382.73307 9.34722e-18
7384.20125 9.17752e-18
7385.66942 9.21371e-18
7387.13760 9.46630e-18
7388.60578 8.64781e-18
7390.08401 8.48646e-18
7391.55218 8.78715e-18
7393.02036 9.42135e-18
7394.48854 9.22659e-18
7395.95671 8.48892e-18
7397.43494 9.23577e-18
7398.90312 1.03966e-17
7400.37130 9.31549e-18
7401.83947 9.48433e-18
7403.30765 1.03417e-17
7404.77582 8.62337e-18
7406.25406 7.77754e-18
7407.72223 9.96617e-18
7409.19041 1.00129e-17
7410.65858 8.51537e-18
7412.22211 8.51537e-18
7413.91970 8.98161e-18
7415.61729 9.37951e-18
7417.31488 1.00572e-17
7419.01247 1.07530e-17
7420.71005 1.03899e-17
7422.40764 8.91186e-18
7424.10523 7.90917e-18
7425.80282 8.19767e-18
7427.50041 9.00460e-18
7429.19800 9.66003e-18
7430.89558 9.96854e-18
7432.59317 9.91018e-18
7434.29076 9.81680e-18
7435.98835 9.97735e-18
7437.68594 1.03654e-17
7439.38352 1.08519e-17
7441.09116 1.12793e-17
7442.78874 1.14546e-17
7444.48633 1.09589e-17
7446.18392 9.62107e-18
7447.88151 8.43090e-18
7449.57910 8.44120e-18
7451.27669 9.28482e-18
7452.97427 1.00272e-17
7454.67186 1.00444e-17
7456.36945 9.04492e-18
7458.06704 7.58837e-18
7459.76463 6.69412e-18
7461.46221 6.61489e-18
7463.15980 7.00394e-18
7464.85739 7.71387e-18
7466.55498 8.71482e-18
7468.25257 9.70433e-18
7469.95015 1.01955e-17
7471.64774 1.00513e-17
7473.34533 9.52832e-18
7475.04292 9.02903e-18
7476.74051 9.13088e-18
7478.43809 9.77994e-18
7480.13568 9.91723e-18
7481.83327 9.20657e-18
7483.53086 8.67325e-18
7485.22845 8.91208e-18
7486.92604 9.49862e-18
7488.62362 1.00280e-17
7490.32121 1.03868e-17
7492.01880 1.04581e-17
7493.71639 9.98662e-18
7495.41398 8.97668e-18
7497.11156 8.18315e-18
7498.80915 8.22579e-18
7500.50674 8.78892e-18
7502.20433 9.36981e-18
7503.90192 9.73383e-18
7505.59950 9.81906e-18
7507.29709 1.00304e-17
7508.99468 1.07638e-17
7510.69227 1.14940e-17
7512.38986 1.13995e-17
7514.08745 1.02226e-17
7515.78503 8.18497e-18
7517.48262 6.40814e-18
7519.18021 6.37930e-18
7520.87780 7.72601e-18
7522.58543 8.65975e-18
7524.28302 8.75897e-18
7525.98061 8.85427e-18
7527.67819 9.18156e-18
7529.37578 9.41702e-18
7531.07337 9.42110e-18
7532.77096 9.21347e-18
7534.46855 8.92171e-18
7536.16614 8.84378e-18
7537.86372 9.07112e-18
7539.56131 9.33777e-18
7541.25890 9.46584e-18
7542.95649 9.49130e-18
7544.65408 9.45461e-18
7546.35166 9.39243e-18
7548.04925 9.30265e-18
7549.74684 9.03396e-18
7551.44443 9.02612e-18
7553.14202 9.01830e-18
7554.83960 9.01046e-18
7556.53719 9.00264e-18
7558.23478 8.99482e-18
7559.93237 8.98698e-18
7561.62996 8.97916e-18
7563.32754 8.97132e-18
7565.02513 8.96350e-18
7566.72272 8.95568e-18
7568.42031 8.94785e-18
7570.11790 8.94003e-18
7571.81549 8.93219e-18
7573.51307 8.92437e-18
7575.21066 8.91655e-18
7576.90825 8.90872e-18
7578.60584 8.90091e-18
7580.30343 8.89308e-18
7582.00101 8.88526e-18
7583.69860 8.87743e-18
7585.39619 8.86962e-18
7587.09378 8.86180e-18
7588.79137 8.85398e-18
7590.48895 8.84616e-18
7592.18654 8.83833e-18
7593.88413 8.83052e-18
7595.58172 8.82271e-18
7597.27931 8.81488e-18
7598.97689 8.80707e-18
7600.67448 8.79925e-18
7602.37207 8.79144e-18
7604.06966 8.78363e-18
7605.76725 8.77581e-18
7607.47488 8.76800e-18
7609.17247 8.76018e-18
7610.87006 8.75237e-18
7612.56764 8.74455e-18
7614.26523 8.73674e-18
7615.96282 8.72893e-18
7617.66041 8.72111e-18
7619.35800 8.71331e-18
7621.05559 8.70549e-18
7622.75317 8.69769e-18
7624.45076 8.68988e-18
7626.14835 8.68207e-18
7627.84594 8.67426e-18
7629.54353 8.66645e-18
7631.24111 8.65865e-18
7632.93870 8.65083e-18
7634.63629 8.64303e-18
7636.33388 8.63523e-18
7638.03147 8.62742e-18
7639.72905 8.61962e-18
7641.42664 8.61181e-18
7643.12423 8.60401e-18
7644.82182 8.59621e-18
7646.51941 8.58840e-18
7648.21699 8.58060e-18
7649.91458 8.57280e-18
7651.61217 8.56500e-18
7653.30976 8.55720e-18
7655.00735 8.54940e-18
7656.70494 8.54160e-18
7658.40252 8.53380e-18
7660.10011 8.52600e-18
7661.79770 8.51820e-18
7663.49529 8.51040e-18
7665.19288 8.50261e-18
7666.89046 8.49481e-18
7668.58805 8.48702e-18
7670.28564 8.47922e-18
7671.98323 8.47142e-18
7673.68082 8.46364e-18
7675.37840 8.45584e-18
7677.07599 8.44804e-18
7678.77358 8.44025e-18
7680.47117 8.43246e-18
7682.16876 8.43209e-18
7683.86634 8.33934e-18
7685.56393 8.18446e-18
7687.26152 8.01165e-18
7688.96915 7.92484e-18
7690.66674 8.03035e-18
7692.36433 8.25806e-18
7694.06192 8.41202e-18
7695.75951 8.39601e-18
7697.45709 8.21999e-18
7699.15468 7.95265e-18
7700.85227 7.72172e-18
7702.54986 7.71605e-18
7704.24745 8.17672e-18
7705.94504 8.97964e-18
7707.64262 9.50689e-18
7709.34021 9.50462e-18
7711.03780 9.34550e-18
7712.73539 9.20035e-18
7714.43298 8.78163e-18
7716.13056 8.06058e-18
7717.82815 7.61921e-18
7719.52574 7.71245e-18
7721.22333 7.62479e-18
7722.92092 6.98017e-18
7724.61850 6.72052e-18
7726.31609 7.53234e-18
7728.01368 8.65769e-18
7729.71127 9.26856e-18
7731.40886 9.50622e-18
7733.10644 9.66778e-18
7734.80403 9.44328e-18
7736.50162 8.56742e-18
7738.19921 7.80045e-18
7739.89680 8.04182e-18
7741.59439 8.84782e-18
7743.29197 9.24659e-18
7744.98956 9.23371e-18
7746.68715 9.32331e-18
7748.38474 9.58818e-18
7750.08233 9.82854e-18
7751.77991 9.90635e-18
7753.47750 9.73161e-18
7755.17509 9.46704e-18
7756.87268 9.50155e-18
7758.57027 9.95860e-18
7760.26785 1.06668e-17
7761.96544 1.11832e-17
7763.66303 1.07181e-17
7765.36062 9.39304e-18
7767.05821 8.70677e-18
7768.75579 9.23953e-18
7770.46343 9.89920e-18
7772.16102 9.96889e-18
7773.85860 9.66626e-18
7775.55619 9.22210e-18
7777.25378 8.71730e-18
7778.95137 8.29077e-18
7780.64896 8.23045e-18
7782.34654 8.64610e-18
7784.04413 9.14606e-18
7785.74172 9.34585e-18
7787.43931 9.19731e-18
7789.13690 8.81231e-18
7790.83448 8.57876e-18
7792.53207 8.81828e-18
7794.22966 9.05757e-18
7795.92725 8.75173e-18
7797.62484 8.63951e-18
7799.32243 9.71824e-18
7801.02001 1.12715e-17
7802.71760 1.18466e-17
7804.41519 1.12455e-17
7806.11278 1.01240e-17
7807.81037 9.18048e-18
7809.50795 9.08511e-18
7811.20554 9.58318e-18
7812.90313 9.57909e-18
7814.60072 9.05686e-18
7816.29831 9.12144e-18
7817.99589 9.83983e-18
7819.69348 1.00565e-17
7821.39107 9.52766e-18
7823.08866 9.27620e-18
7824.78625 9.63729e-18
7826.48384 9.80363e-18
7828.18142 9.39985e-18
7829.87901 8.93879e-18
7831.57660 8.68118e-18
7833.27419 8.18894e-18
7834.97178 7.33547e-18
7836.66936 6.86644e-18
7838.36695 7.29808e-18
7840.06454 8.35040e-18
7841.76213 9.49522e-18
7843.45972 9.87299e-18
7845.15730 8.98708e-18
7846.85489 7.75862e-18
7848.55248 7.28314e-18
7850.25007 7.60309e-18
7851.94766 8.35759e-18
7853.64524 9.32732e-18
7855.35288 1.02881e-17
7857.05047 1.07950e-17
7858.74805 1.04596e-17
7860.44564 9.61157e-18
7862.14323 8.95712e-18
7863.84082 8.56935e-18
7865.53841 8.08092e-18
7867.23599 7.58472e-18
7868.93358 7.49932e-18
7870.63117 7.63621e-18
7872.32876 7.27883e-18
7874.02635 6.52987e-18
7875.72393 6.37917e-18
7877.42152 7.13639e-18
7879.11911 8.26032e-18
7880.81670 9.04077e-18
7882.51429 8.47002e-18
7884.21188 6.70275e-18
7885.90946 5.97461e-18
7887.60705 7.30235e-18
7889.30464 9.02341e-18
7891.00223 9.81776e-18
7892.69982 9.70272e-18
7894.39740 8.98214e-18
7896.09499 8.29917e-18
7897.79258 8.12587e-18
7899.49017 8.08901e-18
7901.18776 7.83433e-18
7902.88534 7.78843e-18
7904.58293 8.33292e-18
7906.28052 9.05504e-18
7907.97811 9.37789e-18
7909.67570 8.98660e-18
7911.37328 7.86296e-18
7913.07087 6.75253e-18
7914.76846 6.57660e-18
7916.46605 7.36788e-18
7918.16364 8.56282e-18
7919.86123 9.23502e-18
7921.55881 8.43446e-18
7923.25640 6.74996e-18
7924.95399 5.91915e-18
7926.65158 6.48719e-18
7928.34917 7.84159e-18
7930.04675 9.21280e-18
7931.74434 9.65924e-18
7933.44193 9.10469e-18
7935.13952 8.63165e-18
7936.84715 8.60643e-18
7938.54474 8.29238e-18
7940.24233 7.56943e-18
7941.93992 7.32247e-18
7943.63750 7.97166e-18
7945.33509 9.10194e-18
7947.03268 1.01109e-17
7948.73027 1.00968e-17
7950.42786 8.74948e-18
7952.12544 7.22100e-18
7953.82303 6.51087e-18
7955.52062 6.53204e-18
7957.21821 6.96856e-18
7958.91580 7.50492e-18
7960.61338 7.89710e-18
7962.31097 8.34758e-18
7964.00856 9.03947e-18
7965.70615 9.44356e-18
7967.40374 8.99762e-18
7969.10133 8.03466e-18
7970.79891 7.21473e-18
7972.49650 6.80068e-18
7974.19409 6.79126e-18
7975.89168 6.96035e-18
7977.58927 6.95663e-18
7979.28685 6.76928e-18
7980.98444 6.64004e-18
7982.68203 6.55654e-18
7984.37962 6.31631e-18
7986.07721 5.89080e-18
7987.77479 5.41096e-18
7989.47238 5.12753e-18
7991.16997 5.41556e-18
7992.86756 6.24138e-18
7994.56515 7.03255e-18
7996.26273 7.40394e-18
7997.96032 7.29303e-18
7999.65791 6.79450e-18
8001.35550 6.26446e-18
8003.05309 5.88986e-18
8004.75068 5.41338e-18
8006.44826 4.73053e-18
8008.14585 4.20902e-18
8009.84344 4.07749e-18
8011.54103 4.04184e-18
8013.23862 3.87446e-18
8014.93620 3.83341e-18
8016.63379 4.14556e-18
8018.34143 4.59807e-18
8020.03901 4.92914e-18
8021.73660 5.17465e-18
8023.43419 5.42152e-18
8025.13178 5.51826e-18
8026.82937 5.29235e-18
8028.52695 4.91399e-18
8030.22454 4.65647e-18
8031.92213 4.38662e-18
8033.61972 3.80686e-18
8035.31731 3.10255e-18
8037.01489 2.74134e-18
8038.71248 2.77207e-18
8040.41007 2.92202e-18
8042.10766 3.15597e-18
8043.80525 3.63206e-18
8045.50283 4.34975e-18
8047.20042 5.15610e-18
8048.89801 5.79258e-18
8050.59560 5.88374e-18
8052.29319 5.31389e-18
8053.99078 4.34575e-18
8055.68836 3.28271e-18
8057.38595 2.39273e-18
8059.08354 1.99868e-18
8060.78113 2.58537e-18
8062.47872 4.07358e-18
8064.17630 5.21272e-18
8065.87389 5.17060e-18
8067.57148 4.46089e-18
8069.26907 3.72710e-18
8070.96666 3.25913e-18
8072.66424 3.22976e-18
8074.36183 3.71882e-18
8076.05942 4.60410e-18
8077.75701 5.26024e-18
8079.45460 5.13400e-18
8081.15218 4.55418e-18
8082.84977 4.09241e-18
8084.54736 3.74265e-18
8086.24495 3.30225e-18
8087.94254 2.89779e-18
8089.64013 2.77902e-18
8091.33771 3.03681e-18
8093.03530 3.62799e-18
8094.73289 4.31808e-18
8096.43048 4.75175e-18
8098.12807 4.80001e-18
8099.82565 4.56088e-18
8101.52324 4.18991e-18
8103.22083 3.89916e-18
8104.92846 3.71236e-18
8106.62605 3.40385e-18
8108.32364 3.03975e-18
8110.02123 3.08806e-18
8111.71882 3.59944e-18
8113.41640 4.01224e-18
8115.11399 3.86844e-18
8116.81158 2.85839e-18
8118.50917 1.26628e-18
8120.20676 5.97082e-19
8121.90434 1.58942e-18
8123.60193 2.91083e-18
8125.29952 3.45785e-18
8126.99711 3.56416e-18
8128.69470 3.67325e-18
8130.39228 3.78330e-18
8132.08987 3.82336e-18
8133.78746 3.73714e-18
8135.48505 3.48615e-18
8137.18264 3.06307e-18
8138.88023 2.53530e-18
8140.57781 2.26001e-18
8142.27540 2.56333e-18
8143.97299 3.11677e-18
8145.67058 3.33890e-18
8147.36817 3.08313e-18
8149.06575 2.51671e-18
8150.76334 2.01308e-18
8152.46093 2.04255e-18
8154.15852 2.57736e-18
8155.85611 3.16154e-18
8157.55369 3.62120e-18
8159.25128 4.05519e-18
8160.94887 4.41716e-18
8162.64646 4.53022e-18
8164.34405 4.42658e-18
8166.04163 4.38848e-18
8167.73922 4.44923e-18
8169.43681 4.27595e-18
8171.13440 3.69620e-18
8172.83199 2.81172e-18
8174.52958 1.81805e-18
8176.22716 1.02055e-18
8177.92475 6.79972e-19
8179.62234 9.81551e-19
8181.31993 1.83508e-18
8183.01752 2.56891e-18
8184.71510 2.66938e-18
8186.41269 2.24822e-18
8188.12032 1.65464e-18
8189.81791 1.59122e-18
8191.51550 2.47502e-18
8193.21309 3.42118e-18
8194.91068 3.41605e-18
8196.60827 2.56393e-18
8198.30585 1.45301e-18
8200.00344 8.13778e-19
8201.70103 1.22985e-18
8203.39862 2.12696e-18
8205.09621 2.43114e-18
8206.79379 2.30569e-18
8208.49138 2.64215e-18
8210.18897 3.47754e-18
8211.88656 4.23406e-18
8213.58415 4.56083e-18
8215.28173 4.30579e-18
8216.97932 3.67814e-18
8218.67691 3.28025e-18
8220.37450 3.23152e-18
8222.07209 3.04337e-18
8223.76967 2.58586e-18
8225.46726 2.23558e-18
8227.16485 2.13376e-18
8228.86244 2.03022e-18
8230.56003 1.88619e-18
8232.25762 2.08702e-18
8233.95520 2.75021e-18
8235.65279 3.39114e-18
8237.35038 3.68304e-18
8239.04797 3.84293e-18
8240.74556 4.03796e-18
8242.44314 4.06386e-18
8244.14073 3.78215e-18
8245.83832 3.41622e-18
8247.53591 3.19098e-18
8249.23350 3.10461e-18
8250.93108 3.05803e-18
8252.62867 2.75568e-18
8254.32626 2.00693e-18
8256.02385 1.40887e-18
8257.72144 1.67344e-18
8259.41903 2.45617e-18
8261.11661 2.94825e-18
8262.81420 2.85457e-18
8264.51179 2.26677e-18
8266.20938 1.67194e-18
8267.91701 1.77446e-18
8269.60455 2.47214e-18
8271.30214 2.98073e-18
8273.00977 2.97241e-18
8274.70736 2.58081e-18
8276.40495 2.05549e-18
8278.10254 1.79862e-18
8279.80013 1.95620e-18
8281.49772 2.29612e-18
8283.19530 2.68169e-18
8284.89289 3.15359e-18
8286.59048 3.64370e-18
8288.28807 3.90877e-18
8289.98566 3.85669e-18
8291.68324 3.68379e-18
8293.38083 3.56886e-18
8295.07842 3.58241e-18
8296.77601 3.72673e-18
8298.47360 3.87943e-18
8300.17118 3.92213e-18
8301.86877 3.82790e-18
8303.56636 3.60775e-18
8305.26395 3.31475e-18
8306.96154 3.00297e-18
8308.65912 2.66854e-18
8310.35671 2.30463e-18
8312.05430 1.92189e-18
8313.75189 1.57358e-18
8315.44948 1.51631e-18
8317.14707 1.99722e-18
8318.84465 2.77780e-18
8320.54224 3.38480e-18
8322.23983 3.66123e-18
8323.93742 3.69303e-18
8325.63501 3.67175e-18
8327.33259 3.85576e-18
8329.03018 4.20193e-18
8330.72777 4.38480e-18
8332.42536 4.24151e-18
8334.12295 3.78695e-18
8335.82053 3.22845e-18
8337.51812 3.01868e-18
8339.21571 3.17354e-18
8340.91330 3.06693e-18
8342.61089 2.53010e-18
8344.30847 2.14827e-18
8346.00606 2.31842e-18
8347.70365 3.07232e-18
8349.40124 4.18162e-18
8351.09883 4.93980e-18
8352.79642 4.91779e-18
8354.50405 4.46142e-18
8356.20164 3.99522e-18
8357.89922 3.77018e-18
8359.59681 3.90590e-18
8361.29440 4.27215e-18
8362.99199 4.63929e-18
8364.68958 4.71237e-18
8366.38717 4.30649e-18
8368.08475 3.67628e-18
8369.78234 3.19729e-18
8371.47993 2.91774e-18
8373.17752 2.77775e-18
8374.87511 3.02926e-18
8376.57269 3.95146e-18
8378.27028 5.18517e-18
8379.96787 6.03908e-18
8381.66546 6.36104e-18
8383.36305 6.39746e-18
8385.06063 6.19969e-18
8386.75822 5.69468e-18
8388.45581 4.79913e-18
8390.15340 3.40771e-18
8391.85099 2.10258e-18
8393.54857 2.21047e-18
8395.24616 3.80684e-18
8396.94375 5.32644e-18
8398.64134 5.84473e-18
8400.33893 5.47876e-18
8402.03652 4.61392e-18
8403.73410 4.06672e-18
8405.43169 4.20583e-18
8407.12928 4.35370e-18
8408.82687 4.06837e-18
8410.52446 3.69380e-18
8412.22204 3.55477e-18
8413.91963 3.69704e-18
8415.61722 4.07030e-18
8417.31481 4.47637e-18
8419.01240 4.73764e-18
8420.70998 4.91200e-18
8422.40757 5.08170e-18
8424.10516 5.08689e-18
8425.80275 4.80152e-18
8427.50034 4.58997e-18
8429.19792 4.86125e-18
8430.89551 5.30486e-18
8432.59310 5.36449e-18
8434.29069 5.09569e-18
8435.99832 4.88197e-18
8437.69591 4.90017e-18
8439.39350 5.16087e-18
8441.09109 5.37121e-18
8442.77863 5.03762e-18
8444.48626 4.31255e-18
8446.18385 3.93584e-18
8447.88144 4.20504e-18
8449.57903 4.92761e-18
8451.27662 5.78703e-18
8452.97420 6.30638e-18
8454.67179 6.31310e-18
8456.36938 6.12219e-18
8458.06697 5.88379e-18
8459.76456 5.42565e-18
8461.46214 4.72052e-18
8463.15973 3.98059e-18
8464.85732 3.45518e-18
8466.55491 3.45968e-18
8468.25250 4.07862e-18
8469.95008 4.89764e-18
8471.64767 5.49412e-18
8473.34526 5.63471e-18
8475.04285 5.29852e-18
8476.74044 4.94571e-18
8478.43802 4.99576e-18
8480.13561 5.29482e-18
8481.83320 5.52901e-18
8483.53079 5.48464e-18
8485.22838 5.08275e-18
8486.92597 4.65683e-18
8488.62355 4.64789e-18
8490.32114 4.99720e-18
8492.01873 5.39637e-18
8493.71632 5.85472e-18
8495.41391 6.52912e-18
8497.11149 7.23714e-18
8498.80908 7.59420e-18
8500.50667 7.45815e-18
8502.20426 6.92153e-18
8503.90185 6.33837e-18
8505.59943 6.30128e-18
8507.29702 6.88475e-18
8508.99461 7.53258e-18
8510.69220 7.93708e-18
8512.38979 8.16747e-18
8514.08737 8.15596e-18
8515.78496 7.62571e-18
8517.49260 6.61198e-18
8519.19018 5.63343e-18
8520.87773 5.13624e-18
8522.58536 5.40610e-18
8524.27290 6.33591e-18
8525.98054 6.99035e-18
8527.67812 6.75974e-18
8529.37571 6.16652e-18
8531.07330 5.80141e-18
8532.77089 5.83039e-18
8534.46848 6.20571e-18
8536.16606 6.46947e-18
8537.86365 6.23022e-18
8539.56124 5.84639e-18
8541.25883 5.80793e-18
8542.95642 6.00841e-18
8544.65401 6.13040e-18
8546.35159 6.06705e-18
8548.04918 5.83783e-18
8549.74677 5.57023e-18
8551.44436 5.45554e-18
8553.14195 5.57915e-18
8554.83953 5.92217e-18
8556.53712 6.41966e-18
8558.23471 6.95921e-18
8559.93230 7.33054e-18
8561.62989 7.26701e-18
8563.32747 6.87636e-18
8565.02506 6.67095e-18
8566.72265 6.83225e-18
8568.42024 7.10402e-18
8570.11783 7.34549e-18
8571.81542 7.59119e-18
8573.51300 7.82394e-18
8575.21059 7.97410e-18
8576.90818 7.94430e-18
8578.60577 7.54861e-18
8580.30336 6.80939e-18
8582.00094 6.19878e-18
8583.69853 6.03375e-18
8585.39612 6.11195e-18
8587.09371 6.21744e-18
8588.79130 6.35203e-18
8590.48888 6.54886e-18
8592.18647 6.88553e-18
8593.88406 7.34752e-18
8595.58165 7.51506e-18
8597.27924 7.03280e-18
8598.97682 6.21083e-18
8600.67441 5.57544e-18
8602.37200 5.43410e-18
8604.07963 5.87910e-18
8605.76718 6.51660e-18
8607.47481 6.76150e-18
8609.17240 6.69418e-18
8610.86999 6.80172e-18
8612.56757 7.08151e-18
8614.26516 7.19769e-18
8615.96275 7.06095e-18
8617.66034 6.79142e-18
8619.35793 6.78410e-18
8621.05551 7.67945e-18
8622.75310 9.41315e-18
8624.45069 1.11056e-17
8626.14828 1.18997e-17
8627.84587 1.10057e-17
8629.54346 8.58779e-18
8631.24104 6.26296e-18
8632.93863 5.11418e-18
8634.63622 5.10958e-18
8636.33381 5.83089e-18
8638.03140 6.24637e-18
8639.72898 5.83011e-18
8641.42657 5.48580e-18
8643.12416 5.91222e-18
8644.82175 6.72827e-18
8646.51934 7.40715e-18
8648.21692 7.56047e-18
8649.91451 7.03477e-18
8651.61210 6.30187e-18
8653.30969 5.92138e-18
8655.00728 6.00218e-18
8656.70486 6.43835e-18
8658.40245 7.04385e-18
8660.10004 7.59196e-18
8661.79763 7.96374e-18
8663.49522 8.11568e-18
8665.19281 7.92852e-18
8666.89039 7.31010e-18
8668.58798 6.54133e-18
8670.28557 6.12259e-18
8671.98316 6.14299e-18
8673.68075 6.33709e-18
8675.37833 6.59477e-18
8677.07592 6.94381e-18
8678.77351 7.38080e-18
8680.47110 7.89147e-18
8682.16869 8.37533e-18
8683.86627 8.62815e-18
8685.56386 8.51581e-18
8687.26145 7.99755e-18
8688.96908 7.22489e-18
8690.66667 6.63966e-18
8692.36426 6.51578e-18
8694.06185 6.77955e-18
8695.75944 7.24392e-18
8697.45702 7.59295e-18
8699.15461 7.60603e-18
8700.85220 7.33123e-18
8702.54979 6.92050e-18
8704.24738 6.60785e-18
8705.94496 6.58509e-18
8707.64255 6.93085e-18
8709.34014 7.55975e-18
8711.03773 7.91954e-18
8712.73532 7.55489e-18
8714.43291 7.01606e-18
8716.13049 7.05994e-18
8717.82808 7.46426e-18
8719.52567 7.62792e-18
8721.22326 7.48677e-18
8722.92085 7.27588e-18
8724.61843 7.25729e-18
8726.31602 7.66815e-18
8728.01361 8.21717e-18
8729.71120 8.24169e-18
8731.40879 7.79701e-18
8733.10637 7.57295e-18
8734.80396 7.76093e-18
8736.50155 8.03919e-18
8738.19914 8.17923e-18
8739.89673 8.04676e-18
8741.59431 7.65187e-18
8743.29190 7.22626e-18
8744.98949 6.93320e-18
8746.68708 6.80211e-18
8748.38467 6.79462e-18
8750.08226 6.77133e-18
8751.77984 6.63962e-18
8753.47743 6.38169e-18
8755.17502 6.13982e-18
8756.87261 6.43597e-18
8758.57020 7.50444e-18
8760.26778 8.75061e-18
8761.96537 9.54665e-18
8763.66296 9.64039e-18
8765.36055 9.04120e-18
8767.05814 8.29058e-18
8768.75572 7.88724e-18
8770.45331 7.44003e-18
8772.16095 6.42435e-18
8773.85853 5.09350e-18
8775.55612 4.03496e-18
8777.25371 3.88514e-18
8778.95130 5.06363e-18
8780.64889 6.71347e-18
8782.34647 7.34345e-18
8784.04406 6.95319e-18
8785.74165 6.62165e-18
8787.43924 6.60501e-18
8789.13683 6.50353e-18
8790.83441 6.27541e-18
8792.53200 6.15003e-18
8794.22959 6.16860e-18
8795.92718 6.20400e-18
8797.62477 6.08911e-18
8799.32236 5.58577e-18
8801.01994 4.82591e-18
8802.71753 4.51391e-18
8804.41512 4.87403e-18
8806.11271 5.26173e-18
8807.81030 5.26320e-18
8809.50788 5.02945e-18
8811.20547 4.74578e-18
8812.90306 4.57398e-18
8814.60065 4.57662e-18
8816.29824 4.53178e-18
8817.99582 4.28733e-18
8819.69341 4.02922e-18
8821.39100 3.96957e-18
8823.08859 4.17699e-18
8824.78618 4.62364e-18
8826.48376 5.13078e-18
8828.18135 5.49432e-18
8829.87894 5.62165e-18
8831.57653 5.51616e-18
8833.27412 5.34816e-18
8834.97171 5.32818e-18
8836.66929 5.38686e-18
8838.36688 5.31433e-18
8840.06447 5.18591e-18
8841.76206 5.23160e-18
8843.45965 5.30741e-18
8845.15723 5.02376e-18
8846.85482 4.44030e-18
8848.55241 4.01606e-18
8850.25000 4.04194e-18
8851.94759 4.62068e-18
8853.65522 5.59334e-18
8855.34276 6.45806e-18
8857.05040 7.05620e-18
8858.74798 7.77868e-18
8860.44557 8.60669e-18
8862.14316 8.82780e-18
8863.84075 8.16208e-18
8865.53834 7.11823e-18
8867.23592 6.21536e-18
8868.93351 5.89200e-18
8870.63110 6.21828e-18
8872.32869 6.37893e-18
8874.02628 5.86099e-18
8875.72386 5.35123e-18
8877.42145 5.53350e-18
8879.11904 6.41879e-18
8880.81663 7.70628e-18
8882.51422 8.66947e-18
8884.21181 8.69084e-18
8885.90939 8.09006e-18
8887.60698 7.48781e-18
8889.30457 6.94877e-18
8891.00216 6.36980e-18
8892.69975 6.18280e-18
8894.39733 6.90452e-18
8896.09492 8.08823e-18
8897.79251 8.75567e-18
8899.49010 8.75263e-18
8901.18769 8.54123e-18
8902.88527 7.96767e-18
8904.58286 6.45208e-18
8906.28045 4.71832e-18
8907.97804 4.66610e-18
8909.67563 6.31246e-18
8911.37321 7.53514e-18
8913.07080 7.23186e-18
8914.76839 5.66454e-18
8916.46598 3.60188e-18
8918.16357 2.61971e-18
8919.86116 3.20234e-18
8921.55874 3.74788e-18
8923.25633 3.35624e-18
8924.95392 2.85642e-18
8926.65151 2.92056e-18
8928.34910 3.55257e-18
8930.04668 4.52891e-18
8931.74427 5.23713e-18
8933.44186 5.25762e-18
8935.14949 4.94886e-18
8936.83704 4.75251e-18
8938.53462 4.71604e-18
8940.24226 4.78212e-18
8941.93985 4.86265e-18
8943.63743 4.92048e-18
8945.33502 5.33971e-18
8947.03261 6.46899e-18
8948.73020 7.66413e-18
8950.42779 7.97051e-18
8952.12537 7.55986e-18
8953.82296 7.21080e-18
8955.52055 6.95657e-18
8957.21814 6.37548e-18
8958.91573 5.52606e-18
8960.61331 4.80450e-18
8962.31090 4.42679e-18
8964.00849 4.43922e-18
8965.70608 4.74833e-18
8967.40367 5.10888e-18
8969.10125 5.23273e-18
8970.79884 4.78859e-18
8972.49643 3.98949e-18
8974.19402 3.84061e-18
8975.89161 4.65345e-18
8977.58920 5.53282e-18
8979.28678 5.91157e-18
8980.98437 6.04142e-18
8982.68196 6.02252e-18
8984.37955 5.36923e-18
8986.07714 4.09861e-18
8987.77472 3.58922e-18
8989.47231 4.69730e-18
8991.16990 6.31531e-18
8992.86749 7.30665e-18
8994.56508 7.85933e-18
8996.26266 8.34809e-18
8997.96025 8.53752e-18
8999.65784 8.15359e-18
9001.35543 7.34263e-18
9003.05302 6.40172e-18
9004.75061 5.59932e-18
9006.44819 5.11314e-18
9008.14578 4.76064e-18
9009.84337 4.20678e-18
9011.54096 3.47718e-18
9013.23855 2.85346e-18
9014.93613 2.63299e-18
9016.63372 3.08142e-18
9018.33131 4.12100e-18
9020.02890 5.33637e-18
9021.72649 6.36312e-18
9023.43412 6.93697e-18
9025.13171 6.77080e-18
9026.82930 5.56653e-18
9028.52688 3.82401e-18
9030.22447 3.08727e-18
9031.92206 3.85489e-18
9033.61965 4.93676e-18
9035.31724 5.56685e-18
9037.01482 5.92389e-18
9038.71241 6.15125e-18
9040.41000 6.23329e-18
9042.10759 6.15472e-18
9043.80518 5.83811e-18
9045.50276 5.28673e-18
9047.20035 4.77188e-18
9048.89794 4.45824e-18
9050.59553 3.98528e-18
9052.29312 3.11967e-18
9053.99070 2.45186e-18
9055.68829 2.57260e-18
9057.38588 3.27812e-18
9059.08347 4.06222e-18
9060.78106 4.47516e-18
9062.47865 4.22089e-18
9064.17623 3.38788e-18
9065.87382 2.36901e-18
9067.57141 2.04756e-18
9069.26900 3.31056e-18
9070.96659 5.19903e-18
9072.66417 5.61033e-18
9074.36176 4.49238e-18
9076.05935 3.48655e-18
9077.75694 3.27574e-18
9079.45453 3.63817e-18
9081.15211 4.33342e-18
9082.84970 5.02661e-18
9084.54729 5.26092e-18
9086.24488 4.48256e-18
9087.94247 2.97806e-18
9089.64005 2.23631e-18
9091.33764 2.96074e-18
9093.03523 4.49304e-18
9094.73282 6.05786e-18
9096.43041 6.82855e-18
9098.12800 6.51991e-18
9099.82558 6.02576e-18
9101.52317 6.09320e-18
9103.22076 6.70720e-18
9104.92839 7.58991e-18
9106.62598 8.12551e-18
9108.32357 7.88567e-18
9110.01111 7.27173e-18
9111.71875 6.80034e-18
9113.41633 6.52830e-18
9115.11392 6.33761e-18
9116.81151 6.00279e-18
9118.50910 5.35915e-18
9120.20669 4.75879e-18
9121.90427 4.69536e-18
9123.60186 5.11522e-18
9125.29945 5.63680e-18
9126.99704 5.84149e-18
9128.69463 5.38102e-18
9130.39221 4.71491e-18
9132.08980 4.86627e-18
9133.78739 5.67110e-18
9135.48498 5.92321e-18
9137.18257 5.56074e-18
9138.88015 5.67866e-18
9140.57774 6.42258e-18
9142.27533 6.84200e-18
9143.97292 6.63453e-18
9145.67051 6.34836e-18
9147.36810 6.37022e-18
9149.06568 6.86833e-18
9150.76327 7.62332e-18
9152.46086 7.69167e-18
9154.15845 6.66183e-18
9155.85604 5.38237e-18
9157.55362 4.43466e-18
9159.25121 3.26981e-18
9160.94880 1.71009e-18
9162.64639 1.01857e-18
9164.34398 2.03760e-18
9166.04156 3.82304e-18
9167.73915 5.13376e-18
9169.43674 5.14230e-18
9171.13433 3.64367e-18
9172.83192 2.10969e-18
9174.52950 2.17060e-18
9176.22709 3.38322e-18
9177.92468 4.46073e-18
9179.62227 4.85284e-18
9181.31986 4.52686e-18
9183.01745 4.16613e-18
9184.71503 4.78711e-18
9186.42267 6.11559e-18
9188.11021 6.96451e-18
9189.81784 6.92916e-18
9191.50539 6.28935e-18
9193.21302 5.70495e-18
9194.91061 6.20700e-18
9196.60820 7.56330e-18
9198.30578 8.08541e-18
9200.00337 7.30412e-18
9201.70096 6.34516e-18
9203.39855 5.92818e-18
9205.09614 6.18455e-18
9206.79372 6.82904e-18
9208.49131 6.82021e-18
9210.18890 5.79539e-18
9211.88649 4.85898e-18
9213.58408 4.74311e-18
9215.28166 4.95884e-18
9216.97925 5.14958e-18
9218.67684 5.84241e-18
9220.37443 7.19011e-18
9222.07202 7.93948e-18
9223.76960 7.11424e-18
9225.46719 5.37159e-18
9227.16478 3.77261e-18
9228.86237 3.12148e-18
9230.55996 3.78956e-18
9232.25755 4.87974e-18
9233.95513 5.22802e-18
9235.65272 5.06350e-18
9237.35031 5.24447e-18
9239.04790 6.07941e-18
9240.74549 7.47955e-18
9242.44307 8.95585e-18
9244.14066 9.75633e-18
9245.83825 9.59019e-18
9247.53584 8.61933e-18
9249.23343 7.17437e-18
9250.93101 5.75107e-18
9252.62860 4.72935e-18
9254.32619 4.28775e-18
9256.02378 4.50296e-18
9257.72137 5.34599e-18
9259.41895 6.36086e-18
9261.11654 6.53249e-18
9262.81413 5.61430e-18
9264.51172 4.60142e-18
9266.20931 4.18248e-18
9267.91694 4.37701e-18
9269.60448 4.91592e-18
9271.31212 4.98955e-18
9272.99966 4.25144e-18
9274.70729 3.63536e-18
9276.40488 3.85142e-18
9278.10247 4.51748e-18
9279.80006 5.08228e-18
9281.49764 5.10161e-18
9283.19523 4.43925e-18
9284.89282 3.93389e-18
9286.59041 4.39363e-18
9288.28800 5.21388e-18
9289.98559 5.49046e-18
9291.68317 5.64312e-18
9293.38076 6.43461e-18
9295.07835 7.08646e-18
9296.77594 6.35586e-18
9298.47353 5.29351e-18
9300.17111 6.05154e-18
9301.86870 7.92933e-18
9303.56629 8.31455e-18
9305.26388 7.01975e-18
9306.96147 5.86269e-18
9308.65905 5.52344e-18
9310.35664 5.64916e-18
9312.05423 5.75521e-18
9313.75182 5.06778e-18
9315.44941 4.07661e-18
9317.14700 5.01900e-18
9318.84458 8.15863e-18
9320.54217 1.08225e-17
9322.23976 1.11193e-17
9323.93735 8.59569e-18
9325.63494 4.01122e-18
9327.33252 2.86463e-19
9329.03011 -8.80413e-19
9330.72770 -1.16403e-18
9332.42529 -1.95832e-18
9334.12288 -2.66296e-18
9335.82046 -2.48831e-18
9337.51805 -9.75770e-19
9339.21564 1.90801e-18
9340.91323 5.22576e-18
9342.61082 7.87022e-18
9344.30840 9.30456e-18
9346.00599 9.38110e-18
9347.70358 8.23533e-18
9349.41121 6.32255e-18
9351.09876 4.66774e-18
9352.80639 4.30246e-18
9354.49393 5.08525e-18
9356.20157 6.10740e-18
9357.89915 6.62010e-18
9359.59674 6.10083e-18
9361.29433 4.80759e-18
9362.99192 3.67205e-18
9364.68951 2.86508e-18
9366.38709 1.84114e-18
9368.08468 7.66059e-19
9369.78227 4.83258e-19
9371.47986 1.38640e-18
9373.17745 3.40041e-18
9374.87504 5.60742e-18
9376.57262 5.85613e-18
9378.27021 3.83085e-18
9379.96780 2.26419e-18
9381.66539 2.74784e-18
9383.36298 4.46548e-18
9385.06056 6.35536e-18
9386.75815 7.19918e-18
9388.45574 6.59725e-18
9390.15333 6.32529e-18
9391.85092 7.56680e-18
9393.54850 8.80563e-18
9395.24609 8.67076e-18
9396.94368 7.95802e-18
9398.64127 7.71505e-18
9400.33886 8.02035e-18
9402.03644 8.51714e-18
9403.73403 8.30602e-18
9405.43162 6.66141e-18
9407.12921 4.37979e-18
9408.82680 2.89242e-18
9410.52439 3.03582e-18
9412.22197 4.99806e-18
9413.91956 7.71657e-18
9415.61715 9.38393e-18
9417.31474 9.18201e-18
9419.01233 7.26110e-18
9420.70991 4.77125e-18
9422.40750 3.68729e-18
9424.10509 4.03088e-18
9425.80268 3.75949e-18
9427.50027 2.62982e-18
9429.19785 2.51176e-18
9430.89544 3.71916e-18
9432.59303 4.50730e-18
9434.29062 4.35143e-18
9435.98821 4.63053e-18
9437.69584 5.94097e-18
9439.39343 7.48481e-18
9441.09102 8.45940e-18
9442.78860 8.13467e-18
9444.48619 6.47858e-18
9446.18378 4.95899e-18
9447.88137 4.68315e-18
9449.57896 5.30578e-18
9451.27654 6.15091e-18
9452.97413 6.51826e-18
9454.67172 5.99689e-18
9456.36931 5.00021e-18
9458.06690 4.21974e-18
9459.76449 4.40217e-18
9461.46207 5.91475e-18
9463.15966 7.67843e-18
9464.85725 8.27071e-18
9466.55484 7.81844e-18
9468.25243 7.21778e-18
9469.95001 6.76344e-18
9471.64760 6.37860e-18
9473.34519 5.83271e-18
9475.04278 4.80453e-18
9476.74037 3.38986e-18
9478.43795 2.06300e-18
9480.13554 1.76785e-18
9481.83313 3.78582e-18
9483.53072 7.31580e-18
9485.22831 9.29624e-18
9486.92589 8.79028e-18
9488.62348 7.61311e-18
9490.32107 6.82989e-18
9492.01866 6.37394e-18
9493.71625 6.07898e-18
9495.41384 5.49343e-18
9497.11142 4.63089e-18
9498.80901 4.55946e-18
9500.50660 5.68685e-18
9502.20419 6.79987e-18
9503.90178 7.05467e-18
9505.59936 7.09436e-18
9507.29695 7.40680e-18
9508.99454 7.30433e-18
9510.69213 6.24201e-18
9512.38972 4.82285e-18
9514.08730 3.76048e-18
9515.78489 2.85233e-18
9517.48248 1.86726e-18
9519.19011 1.90220e-18
9520.88770 3.96007e-18
9522.58529 6.47035e-18
9524.28288 7.11324e-18
9525.98047 6.14510e-18
9527.67805 5.24611e-18
9529.37564 5.23130e-18
9531.07323 6.25021e-18
9532.77082 7.70589e-18
9534.46841 8.38967e-18
9536.16599 8.00814e-18
9537.86358 7.16123e-18
9539.56117 6.36549e-18
9541.25876 6.05972e-18
9542.95635 6.19384e-18
9544.65394 6.08922e-18
9546.35152 5.41251e-18
9548.04911 4.33456e-18
9549.74670 3.17381e-18
9551.44429 2.39111e-18
9553.14188 2.43059e-18
9554.83946 3.83970e-18
9556.53705 6.21691e-18
9558.23464 7.14616e-18
9559.93223 5.59169e-18
9561.62982 4.23158e-18
9563.32740 4.98101e-18
9565.02499 6.30769e-18
9566.72258 6.57853e-18
9568.42017 5.80441e-18
9570.11776 4.54157e-18
9571.81534 3.69146e-18
9573.51293 4.04723e-18
9575.21052 5.61184e-18
9576.90811 7.89448e-18
9578.60570 1.00598e-17
9580.30329 1.12389e-17
9582.00087 1.11174e-17
9583.69846 9.85105e-18
9585.39605 7.90609e-18
9587.09364 5.95601e-18
9588.79123 4.60801e-18
9590.48881 4.28081e-18
9592.18640 4.63804e-18
9593.88399 4.72277e-18
9595.58158 4.67871e-18
9597.27917 5.71036e-18
9598.97675 7.53140e-18
9600.67434 8.24060e-18
9602.38198 7.42775e-18
9604.07956 6.57582e-18
9605.76711 6.42399e-18
9607.47474 6.59434e-18
9609.17233 6.70852e-18
9610.86992 6.39719e-18
9612.56750 5.57583e-18
9614.26509 4.70703e-18
9615.96268 4.22955e-18
9617.66027 4.43590e-18
9619.35786 5.27313e-18
9621.05544 6.00945e-18
9622.75303 6.00666e-18
9624.45062 5.09920e-18
9626.14821 3.57486e-18
9627.84580 2.62133e-18
9629.54339 3.23704e-18
9631.24097 5.02819e-18
9632.93856 7.06136e-18
9634.63615 8.52330e-18
9636.33374 8.84537e-18
9638.03133 8.16266e-18
9639.72891 7.04716e-18
9641.42650 6.03341e-18
9643.12409 5.53944e-18
9644.82168 5.48842e-18
9646.51927 5.45644e-18
9648.21685 5.44159e-18
9649.91444 5.74683e-18
9651.61203 6.57448e-18
9653.30962 8.04222e-18
9655.00721 9.18555e-18
9656.70479 7.95351e-18
9658.40238 4.88652e-18
9660.09997 3.60336e-18
9661.79756 5.58709e-18
9663.49515 9.36563e-18
9665.19274 1.31027e-17
9666.89032 1.45125e-17
9668.58791 1.28836e-17
9670.28550 1.04198e-17
9671.98309 8.87273e-18
9673.68068 8.43044e-18
9675.37826 8.75660e-18
9677.07585 8.84164e-18
9678.77344 7.86945e-18
9680.47103 5.77943e-18
9682.16862 3.05832e-18
9683.86620 1.15506e-18
9685.56379 1.17031e-18
9687.26138 2.43965e-18
9688.96901 3.75422e-18
9690.66660 4.17626e-18
9692.36419 3.25746e-18
9694.06178 2.03524e-18
9695.75937 1.94493e-18
9697.45695 2.67899e-18
9699.15454 3.05698e-18
9700.85213 2.75191e-18
9702.54972 2.01692e-18
9704.24731 1.40531e-18
9705.94489 1.66237e-18
9707.64248 2.66380e-18
9709.34007 3.51635e-18
9711.03766 3.80501e-18
9712.73525 3.59988e-18
9714.43283 3.24754e-18
9716.13042 3.43799e-18
9717.82801 4.22420e-18
9719.52560 4.80732e-18
9721.22319 4.70988e-18
9722.92078 3.92312e-18
9724.61836 2.84180e-18
9726.31595 2.53600e-18
9728.01354 3.43034e-18
9729.71113 4.63318e-18
9731.40872 5.38288e-18
9733.10630 5.50316e-18
9734.80389 5.12722e-18
9736.50148 4.93315e-18
9738.19907 5.37681e-18
9739.89666 6.07526e-18
9741.59424 6.46042e-18
9743.29183 5.89300e-18
9744.98942 4.18198e-18
9746.68701 2.79039e-18
9748.38460 3.14862e-18
9750.08219 4.22740e-18
9751.77977 4.27245e-18
9753.47736 3.09443e-18
9755.17495 1.44339e-18
9756.87254 7.19638e-19
9758.57013 2.35054e-18
9760.26771 5.28120e-18
9761.96530 6.83323e-18
9763.66289 6.11444e-18
9765.36048 3.82013e-18
9767.05807 1.46235e-18
9768.75565 1.29338e-18
9770.45324 3.34670e-18
9772.16088 5.15794e-18
9773.85846 5.78142e-18
9775.55605 6.17962e-18
9777.25364 6.91147e-18
9778.95123 8.03162e-18
9780.64882 9.34085e-18
9782.34640 1.02139e-17
9784.04399 1.01679e-17
9785.74158 8.98479e-18
9787.43917 6.92376e-18
9789.13676 5.13720e-18
9790.83434 4.32741e-18
9792.53193 3.88885e-18
9794.22952 3.21072e-18
9795.92711 2.21559e-18
9797.62470 1.12019e-18
9799.32228 8.05671e-19
9801.01987 1.81961e-18
9802.71746 2.93768e-18
9804.41505 2.87980e-18
9806.11264 2.42364e-18
9807.81023 2.84062e-18
9809.50781 4.02399e-18
9811.20540 5.19428e-18
9812.90299 5.43869e-18
9814.60058 4.04228e-18
9816.29817 1.96293e-18
9817.99575 1.11552e-18
9819.69334 1.68228e-18
9821.39093 2.50964e-18
9823.08852 3.22878e-18
9824.78611 4.09122e-18
9826.48369 4.78859e-18
9828.18128 4.57621e-18
9829.87887 3.71655e-18
9831.57646 3.57085e-18
9833.27405 4.65904e-18
9834.97163 6.40160e-18
9836.66922 8.00395e-18
9838.36681 8.37360e-18
9840.06440 7.24127e-18
9841.76199 5.78953e-18
9843.45958 4.89993e-18
9845.15716 4.58571e-18
9846.85475 4.67221e-18
9848.55234 4.78837e-18
9850.24993 4.66970e-18
9851.94752 4.52656e-18
9853.65515 4.50072e-18
9855.34269 4.17331e-18
9857.05033 3.27609e-18
9858.74791 2.47759e-18
9860.44550 2.41471e-18
9862.14309 2.41994e-18
9863.84068 1.75805e-18
9865.53827 1.61317e-18
9867.23585 3.42449e-18
9868.93344 5.68796e-18
9870.63103 5.96586e-18
9872.32862 5.59525e-18
9874.02621 7.64494e-18
9875.72379 1.11452e-17
9877.42138 1.25265e-17
9879.11897 1.02079e-17
9880.81656 4.42287e-18
9882.51415 -2.08854e-18
9884.21173 -4.30058e-18
9885.90932 -1.62801e-18
9887.60691 1.53318e-18
9889.30450 2.67199e-18
9891.00209 1.64819e-18
9892.69968 -3.94083e-19
9894.39726 -2.82152e-19
9896.09485 2.81539e-18
9897.79244 5.70102e-18
9899.49003 6.13648e-18
9901.18762 4.00523e-18
9902.88520 2.70281e-19
9904.58279 -2.26780e-18
9906.28038 -1.94991e-18
9907.97797 -4.60261e-19
9909.67556 4.94117e-19
9911.37314 9.10603e-19
9913.07073 1.17736e-18
9914.76832 1.72346e-18
9916.46591 2.83770e-18
9918.16350 4.23004e-18
9919.86108 5.39484e-18
9921.55867 5.87352e-18
9923.25626 5.41592e-18
9924.95385 4.36874e-18
9926.65144 3.37334e-18
9928.34903 2.99671e-18
9930.04661 3.55546e-18
9931.74420 4.25282e-18
9933.44179 3.71767e-18
9935.14942 2.31170e-18
9936.83697 1.66968e-18
9938.54460 2.03767e-18
9940.23214 2.46226e-18
9941.93978 2.42852e-18
9943.63736 1.80358e-18
9945.33495 9.16754e-19
9947.03254 7.37691e-19
9948.73013 1.15102e-18
9950.42772 4.99500e-19
9952.12530 -1.49741e-18
9953.82289 -2.97262e-18
9955.52048 -2.78922e-18
9957.21807 -1.25986e-18
9958.91566 1.13302e-18
9960.61324 3.83140e-18
9962.31083 6.36738e-18
9964.00842 8.77266e-18
9965.70601 1.08022e-17
9967.40360 1.12161e-17
9969.10118 9.31404e-18
9970.79877 6.05894e-18
9972.49636 2.88515e-18
9974.19395 1.24400e-18
9975.89154 1.95917e-18
9977.58913 4.01281e-18
9979.28671 5.76343e-18
9980.98430 6.40428e-18
9982.68189 5.70843e-18
9984.37948 3.85726e-18
9986.07707 1.44331e-18
9987.77465 -6.45612e-19
9989.47224 -1.50760e-18
9991.16983 -7.39444e-19
9992.86742 1.49205e-18
9994.56501 3.70474e-18
9996.26259 3.53211e-18
9997.96018 1.59493e-18
9999.65777 1.35592e-18
