# wavelength flux
3208.64544 1.30586e-18
3210.14799 2.66512e-18
3211.64052 4.02412e-18
3213.14307 8.35230e-18
3214.63561 1.26797e-17
3216.12814 1.33398e-17
3217.63069 1.39998e-17
3219.12322 1.29046e-17
3220.62577 1.18096e-17
3222.11831 1.37511e-17
3223.61084 1.56922e-17
3225.11339 1.08941e-17
3226.60592 6.09690e-18
3228.09845 2.80102e-18
3229.60100 -4.94211e-19
3231.09354 2.14131e-18
3232.59609 4.77629e-18
3234.08862 2.60655e-18
3235.58115 4.37256e-19
3237.08370 3.07532e-18
3238.57624 5.71284e-18
3240.06877 3.98348e-18
3241.57132 2.25447e-18
3243.06385 3.87100e-18
3244.56640 5.48719e-18
3246.05894 4.79636e-18
3247.55147 4.10567e-18
3249.05402 2.66670e-18
3250.54655 1.22803e-18
3252.04910 3.72294e-18
3253.54163 6.21732e-18
3255.03417 7.11061e-18
3256.53672 8.00370e-18
3258.02925 8.39977e-18
3259.52178 8.79575e-18
3261.02433 6.30990e-18
3262.51687 3.82460e-18
3264.01942 4.33815e-18
3265.51195 4.85158e-18
3267.00448 5.10663e-18
3268.50703 5.36162e-18
3269.99957 4.75698e-18
3271.50211 4.15248e-18
3272.99465 3.50289e-18
3274.48718 2.85345e-18
3275.98973 3.76122e-18
3277.48226 4.66878e-18
3278.97480 3.62692e-18
3280.47735 2.58529e-18
3281.96988 2.25160e-18
3283.47243 1.91799e-18
3284.96496 3.99793e-18
3286.45750 6.07737e-18
3287.96005 5.85210e-18
3289.45258 5.62688e-18
3290.94511 3.23289e-18
3292.44766 8.39479e-19
3293.94020 9.01748e-19
3295.44274 9.64003e-19
3296.93528 1.71860e-18
3298.42781 2.47301e-18
3299.93036 3.60728e-18
3301.42289 4.74127e-18
3302.92544 4.57041e-18
3304.41798 4.39960e-18
3305.91051 5.36854e-18
3307.41306 6.33725e-18
3308.90559 5.80197e-18
3310.39813 5.26682e-18
3311.90068 4.98822e-18
3313.39321 4.70968e-18
3314.89576 3.62741e-18
3316.38829 2.54540e-18
3317.88083 3.49275e-18
3319.38338 4.43985e-18
3320.87591 4.97920e-18
3322.37846 5.51842e-18
3323.87099 5.11348e-18
3325.36352 4.70865e-18
3326.86607 4.88106e-18
3328.35861 5.05343e-18
3329.85114 5.27129e-18
3331.35369 5.48909e-18
3332.84622 4.40135e-18
3334.34877 3.31389e-18
3335.84131 3.26068e-18
3337.33384 3.20749e-18
3338.83639 3.55857e-18
3340.32892 3.90956e-18
3341.83147 4.47839e-18
3343.32401 5.04708e-18
3344.81654 4.47425e-18
3346.31909 3.90158e-18
3347.81162 4.05181e-18
3349.30415 4.20200e-18
3350.80670 4.24998e-18
3352.29924 4.29794e-18
3353.80179 4.56421e-18
3355.29432 4.83039e-18
3356.78685 4.25773e-18
3358.28940 3.68522e-18
3359.78194 3.57894e-18
3361.27447 3.47269e-18
3362.77702 3.48887e-18
3364.26955 3.50504e-18
3365.77210 3.55362e-18
3367.26464 3.60218e-18
3368.75717 3.85885e-18
3370.25972 4.11546e-18
3371.75225 4.70869e-18
3373.25480 5.30177e-18
3374.74733 5.03146e-18
3376.23987 4.76122e-18
3377.74242 4.55338e-18
3379.23495 4.34561e-18
3380.72748 4.98658e-18
3382.23003 5.62738e-18
3383.72257 5.52005e-18
3385.22512 5.41274e-18
3386.71765 4.61640e-18
3388.21018 3.82028e-18
3389.71273 3.81413e-18
3391.20527 3.80799e-18
3392.70781 4.00838e-18
3394.20035 4.20873e-18
3395.69288 4.79793e-18
3397.19543 5.38697e-18
3398.68796 5.50482e-18
3400.18050 5.62263e-18
3401.68305 5.46626e-18
3403.17558 5.30992e-18
3404.67813 5.31817e-18
3406.17066 5.32642e-18
3407.66320 5.54131e-18
3409.16575 5.75613e-18
3410.65828 5.59551e-18
3412.15081 5.43495e-18
3413.65336 5.90457e-18
3415.14590 6.37407e-18
3416.64844 6.79235e-18
3418.14098 7.21051e-18
3419.63351 6.65216e-18
3421.13606 6.09396e-18
3422.62859 6.12681e-18
3424.13114 6.15965e-18
3425.62368 6.36313e-18
3427.11621 6.56655e-18
3428.61876 6.08396e-18
3430.11129 5.60151e-18
3431.60383 5.50070e-18
3433.10638 5.39992e-18
3434.59891 5.29278e-18
3436.10146 5.18567e-18
3437.59399 5.07255e-18
3439.08653 4.95946e-18
3440.58908 5.26569e-18
3442.08161 5.57183e-18
3443.58416 5.77999e-18
3445.07669 5.98809e-18
3446.56922 5.55980e-18
3448.07177 5.13163e-18
3449.56431 5.16442e-18
3451.05684 5.19720e-18
3452.55939 5.02248e-18
3454.05192 4.84781e-18
3455.55447 4.81361e-18
3457.04701 4.77942e-18
3458.53954 4.80143e-18
3460.04209 4.82344e-18
3461.53462 4.92946e-18
3463.03717 5.03546e-18
3464.52971 4.95110e-18
3466.02224 4.86677e-18
3467.52479 4.68464e-18
3469.01732 4.50256e-18
3470.50985 4.25086e-18
3472.01240 3.99922e-18
3473.50494 4.27170e-18
3475.00749 4.54411e-18
3476.50002 4.48735e-18
3477.99255 4.43060e-18
3479.49510 4.55961e-18
3480.98764 4.68859e-18
3482.48017 4.68583e-18
3483.98272 4.68308e-18
3485.47525 4.48821e-18
3486.97780 4.29339e-18
3488.47034 4.32422e-18
3489.96287 4.35503e-18
3491.46542 4.23336e-18
3492.95795 4.11171e-18
3494.46050 4.08208e-18
3495.95303 4.05246e-18
3497.44557 4.12040e-18
3498.94812 4.18833e-18
3500.44065 4.11145e-18
3501.93318 4.03460e-18
3503.43573 3.98542e-18
3504.92827 3.93626e-18
3506.43082 3.98015e-18
3507.92335 4.02404e-18
3509.41588 3.93031e-18
3510.91843 3.83660e-18
3512.41097 3.96362e-18
3513.91351 4.09061e-18
3515.40605 4.01986e-18
3516.89858 3.94913e-18
3518.40113 3.88378e-18
3519.89366 3.81844e-18
3521.38620 3.86543e-18
3522.88875 3.91241e-18
3524.38128 3.82464e-18
3525.88383 3.73689e-18
3527.37636 3.83683e-18
3528.86890 3.93675e-18
3530.37145 3.92879e-18
3531.86398 3.92082e-18
3533.35651 3.82335e-18
3534.85906 3.72590e-18
3536.35160 3.75470e-18
3537.85415 3.78350e-18
3539.34668 3.97448e-18
3540.83921 4.16541e-18
3542.34176 4.18214e-18
3543.83429 4.19886e-18
3545.33684 4.04995e-18
3546.82938 3.90107e-18
3548.32191 3.92331e-18
3549.82446 3.94555e-18
3551.31699 3.87665e-18
3552.80953 3.80777e-18
3554.31208 3.89825e-18
3555.80461 3.98871e-18
3557.30716 3.97279e-18
3558.79969 3.95687e-18
3560.29223 3.79111e-18
3561.79478 3.62538e-18
3563.28731 3.59614e-18
3564.78986 3.56691e-18
3566.28239 3.59839e-18
3567.77492 3.62987e-18
3569.27747 3.59840e-18
3570.77001 3.56694e-18
3572.26254 3.65584e-18
3573.76509 3.74471e-18
3575.25762 3.91667e-18
3576.76017 4.08858e-18
3578.25271 4.14555e-18
3579.74524 4.20250e-18
3581.24779 4.08938e-18
3582.74032 3.97629e-18
3584.24287 3.88406e-18
3585.73541 3.79186e-18
3587.22794 3.85454e-18
3588.73049 3.91720e-18
3590.22302 3.94297e-18
3591.71555 3.96874e-18
3593.21810 3.78361e-18
3594.71064 3.59852e-18
3596.21319 3.54767e-18
3597.70572 3.49683e-18
3599.19825 3.56192e-18
3600.70080 3.62699e-18
3602.19334 3.71706e-18
3603.68587 3.80712e-18
3605.18842 3.81915e-18
3606.68095 3.83118e-18
3608.18350 3.83301e-18
3609.67604 3.83484e-18
3611.16857 3.79265e-18
3612.67112 3.75047e-18
3614.16365 3.57824e-18
3615.66620 3.40605e-18
3617.15873 3.49603e-18
3618.65127 3.58599e-18
3620.15382 3.69125e-18
3621.64635 3.79650e-18
3623.13888 3.72322e-18
3624.64143 3.64996e-18
3626.13397 3.60150e-18
3627.63652 3.55305e-18
3629.12905 3.44114e-18
3630.62158 3.32925e-18
3632.12413 3.29015e-18
3633.61667 3.25106e-18
3635.11922 3.31656e-18
3636.61175 3.38205e-18
3638.10428 3.39410e-18
3639.60683 3.40616e-18
3641.09936 3.49360e-18
3642.59190 3.58102e-18
3644.09445 3.60080e-18
3645.58698 3.62058e-18
3647.08953 3.64074e-18
3648.58206 3.66090e-18
3650.07460 3.73852e-18
3651.57715 3.81613e-18
3653.06968 3.90057e-18
3654.56221 3.98500e-18
3656.06476 4.15040e-18
3657.55730 4.31577e-18
3659.05985 4.34635e-18
3660.55238 4.37693e-18
3662.04491 4.43417e-18
3663.54746 4.49141e-18
3665.03999 4.67094e-18
3666.54254 4.85043e-18
3668.03508 5.06258e-18
3669.52761 5.27468e-18
3671.03016 5.30495e-18
3672.52269 5.33521e-18
3674.01523 5.47251e-18
3675.51778 5.60978e-18
3677.01031 5.83765e-18
3678.51286 6.06547e-18
3680.00539 6.17768e-18
3681.49793 6.28986e-18
3683.00048 6.38691e-18
3684.49301 6.48393e-18
3685.99556 6.66577e-18
3687.48809 6.84757e-18
3688.98062 6.97646e-18
3690.48317 7.10533e-18
3691.97571 7.24135e-18
3693.46824 7.37735e-18
3694.97079 7.48935e-18
3696.46332 7.60132e-18
3697.96587 7.69095e-18
3699.45841 7.78056e-18
3700.95094 7.72820e-18
3702.45349 7.67585e-18
3703.94602 7.63589e-18
3705.44857 7.59593e-18
3706.94111 7.68521e-18
3708.43364 7.77446e-18
3709.93619 7.69806e-18
3711.42872 7.62168e-18
3712.92125 7.60163e-18
3714.42380 7.43942e-18
3715.91634 7.27728e-18
3717.41889 7.11728e-18
3718.91142 6.95727e-18
3720.40395 6.79734e-18
3721.90650 6.63742e-18
3723.39904 6.47753e-18
3724.89157 6.31769e-18
3726.39412 6.15787e-18
3727.88665 5.99807e-18
3729.38920 5.83830e-18
3730.88174 5.67860e-18
3732.37427 5.51892e-18
3733.87682 5.35923e-18
3735.36935 5.19961e-18
3736.87190 5.04001e-18
3738.36443 4.88043e-18
3739.85697 4.72088e-18
3741.35952 4.56139e-18
3742.85205 4.40191e-18
3744.34458 4.24245e-18
3745.84713 4.08305e-18
3747.33967 3.92366e-18
3748.84222 3.76430e-18
3750.33475 3.60499e-18
3751.82728 3.44568e-18
3753.32983 3.28641e-18
3754.82236 3.13272e-18
3756.32492 2.97907e-18
3757.81745 2.96275e-18
3759.30998 2.94644e-18
3760.81253 2.95585e-18
3762.30506 2.96527e-18
3763.79760 3.00573e-18
3765.30015 3.04619e-18
3766.79268 2.95437e-18
3768.29523 2.86257e-18
3769.78776 2.83361e-18
3771.28030 2.80464e-18
3772.78285 2.72658e-18
3774.27538 2.64853e-18
3775.76791 2.61588e-18
3777.27046 2.58324e-18
3778.76300 2.60021e-18
3780.26555 2.61719e-18
3781.75808 2.65843e-18
3783.25061 2.69966e-18
3784.75316 2.67331e-18
3786.24569 2.64697e-18
3787.74824 2.65125e-18
3789.24078 2.65554e-18
3790.73331 2.63741e-18
3792.23586 2.61929e-18
3793.72839 2.63573e-18
3795.22093 2.65217e-18
3796.72348 2.67057e-18
3798.21601 2.68896e-18
3799.71856 2.73971e-18
3801.21109 2.79045e-18
3802.70363 2.86238e-18
3804.20618 2.93429e-18
3805.69871 2.96473e-18
3807.20126 2.99515e-18
3808.69379 3.03876e-18
3810.18632 3.08237e-18
3811.68887 3.14572e-18
3813.18141 3.20907e-18
3814.67394 3.24643e-18
3816.17649 3.28378e-18
3817.66902 3.32101e-18
3819.17157 3.35825e-18
3820.66411 3.47347e-18
3822.15664 3.58867e-18
3823.65919 3.63848e-18
3825.15172 3.68827e-18
3826.65427 3.71920e-18
3828.14681 3.75012e-18
3829.63934 3.80264e-18
3831.14189 3.85515e-18
3832.63442 3.92851e-18
3834.12695 4.00186e-18
3835.62950 4.04226e-18
3837.12204 4.08265e-18
3838.62459 4.08620e-18
3840.11712 4.08976e-18
3841.60965 4.24371e-18
3843.11220 4.39764e-18
3844.60474 4.49049e-18
3846.09727 4.58332e-18
3847.59982 4.73344e-18
3849.09235 4.88353e-18
3850.59490 5.03492e-18
3852.08744 5.18629e-18
3853.57997 5.25086e-18
3855.08252 5.31543e-18
3856.57505 5.50135e-18
3858.07760 5.68724e-18
3859.57013 5.81828e-18
3861.06267 5.94930e-18
3862.56522 6.16699e-18
3864.05775 6.38463e-18
3865.55028 6.55545e-18
3867.05283 6.72625e-18
3868.54537 6.94854e-18
3870.04792 7.17079e-18
3871.54045 7.42462e-18
3873.03298 7.67841e-18
3874.53553 7.87717e-18
3876.02806 8.07590e-18
3877.53062 8.31797e-18
3879.02315 8.56000e-18
3880.51568 8.87248e-18
3882.01823 9.18491e-18
3883.51076 9.49948e-18
3885.00330 9.81399e-18
3886.50585 1.00117e-17
3887.99838 1.02094e-17
3889.50093 1.04363e-17
3890.99346 1.06633e-17
3892.48600 1.10148e-17
3893.98855 1.13662e-17
3895.48108 1.16718e-17
3896.97361 1.19773e-17
3898.47616 1.19969e-17
3899.96870 1.20166e-17
3901.47125 1.22832e-17
3902.96378 1.25499e-17
3904.45631 1.29814e-17
3905.95886 1.34129e-17
3907.45139 1.35798e-17
3908.95394 1.37467e-17
3910.44648 1.37799e-17
3911.93901 1.38130e-17
3913.44156 1.40153e-17
3914.93409 1.42175e-17
3916.42663 1.43097e-17
3917.92918 1.44018e-17
3919.42171 1.45162e-17
3920.92426 1.46305e-17
3922.41679 1.47303e-17
3923.90933 1.48301e-17
3925.41188 1.48737e-17
3926.90441 1.49174e-17
3928.40696 1.46251e-17
3929.89949 1.43328e-17
3931.39202 1.41442e-17
3932.89457 1.39557e-17
3934.38711 1.38477e-17
3935.87964 1.37397e-17
3937.38219 1.37753e-17
3938.87472 1.38108e-17
3940.37727 1.37377e-17
3941.86981 1.36646e-17
3943.36234 1.36585e-17
3944.86489 1.36523e-17
3946.35742 1.38384e-17
3947.85997 1.40245e-17
3949.35251 1.40892e-17
3950.84504 1.41538e-17
3952.34759 1.40312e-17
3953.84012 1.39087e-17
3955.33265 1.36662e-17
3956.83520 1.34238e-17
3958.32774 1.33902e-17
3959.83029 1.33565e-17
3961.32282 1.32589e-17
3962.81535 1.31612e-17
3964.31790 1.30373e-17
3965.81044 1.29135e-17
3967.30297 1.28554e-17
3968.80552 1.27973e-17
3970.29805 1.26265e-17
3971.80060 1.24558e-17
3973.29314 1.25333e-17
3974.78567 1.26109e-17
3976.28822 1.27828e-17
3977.78075 1.29548e-17
3979.28330 1.29433e-17
3980.77583 1.29318e-17
3982.26837 1.31246e-17
3983.77092 1.33174e-17
3985.26345 1.35352e-17
3986.75598 1.37530e-17
3988.25853 1.38032e-17
3989.75107 1.38534e-17
3991.25362 1.41028e-17
3992.74615 1.43522e-17
3994.23868 1.45654e-17
3995.74123 1.47786e-17
3997.23376 1.49289e-17
3998.73632 1.50792e-17
4000.22885 1.54436e-17
4001.72138 1.58080e-17
4003.22393 1.61294e-17
4004.71646 1.64509e-17
4006.20900 1.68773e-17
4007.71155 1.73037e-17
4009.20408 1.75939e-17
4010.70663 1.78840e-17
4012.19916 1.81438e-17
4013.69170 1.84036e-17
4015.19425 1.87359e-17
4016.68678 1.90681e-17
4018.17931 1.94521e-17
4019.68186 1.98360e-17
4021.17440 2.01736e-17
4022.67695 2.05113e-17
4024.16948 2.09171e-17
4025.66201 2.13228e-17
4027.16456 2.14810e-17
4028.65709 2.16392e-17
4030.15964 2.17681e-17
4031.65218 2.18970e-17
4033.14471 2.18728e-17
4034.64726 2.18486e-17
4036.13979 2.18115e-17
4037.63233 2.17743e-17
4039.13488 2.16447e-17
4040.62741 2.15150e-17
4042.12996 2.12304e-17
4043.62249 2.09458e-17
4045.11503 2.07320e-17
4046.61758 2.05182e-17
4048.11011 2.02027e-17
4049.61266 1.98872e-17
4051.10519 1.94764e-17
4052.59772 1.90657e-17
4054.10027 1.87438e-17
4055.59281 1.84220e-17
4057.08534 1.82485e-17
4058.58789 1.80751e-17
4060.08042 1.77252e-17
4061.58297 1.73754e-17
4063.07551 1.69505e-17
4064.56804 1.65257e-17
4066.07059 1.61301e-17
4067.56312 1.57345e-17
4069.06567 1.53903e-17
4070.55821 1.50463e-17
4072.05074 1.48732e-17
4073.55329 1.47002e-17
4075.04582 1.45095e-17
4076.53835 1.43189e-17
4078.04090 1.39965e-17
4079.53344 1.36742e-17
4081.03599 1.33584e-17
4082.52852 1.30426e-17
4084.02105 1.27554e-17
4085.52360 1.24682e-17
4087.01614 1.23049e-17
4088.50867 1.21416e-17
4090.01122 1.20458e-17
4091.50375 1.19500e-17
4093.00630 1.17349e-17
4094.49884 1.15197e-17
4095.99137 1.13020e-17
4097.49392 1.10843e-17
4098.98645 1.09321e-17
4100.48900 1.07799e-17
4101.98153 1.06731e-17
4103.47407 1.05663e-17
4104.97662 1.03368e-17
4106.46915 1.01073e-17
4107.96168 9.90152e-18
4109.46423 9.69579e-18
4110.95677 9.61403e-18
4112.45932 9.53228e-18
4113.95185 9.49444e-18
4115.44438 9.45659e-18
4116.94693 9.34278e-18
4118.43947 9.22898e-18
4119.93200 9.14356e-18
4121.43455 9.05816e-18
4122.92708 8.97503e-18
4124.42963 8.89191e-18
4125.92216 8.77204e-18
4127.41470 8.65218e-18
4128.91725 8.54872e-18
4130.40978 8.44527e-18
4131.91233 8.43156e-18
4133.40486 8.41786e-18
4134.89740 8.39708e-18
4136.39995 8.37631e-18
4137.89248 8.29641e-18
4139.38501 8.21652e-18
4140.88756 8.17027e-18
4142.38010 8.12403e-18
4143.88265 8.15093e-18
4145.37518 8.17783e-18
4146.86771 8.20277e-18
4148.37026 8.22771e-18
4149.86279 8.24081e-18
4151.36534 8.25391e-18
4152.85788 8.26826e-18
4154.35041 8.28261e-18
4155.85296 8.33930e-18
4157.34549 8.39597e-18
4158.83803 8.41828e-18
4160.34058 8.44058e-18
4161.83311 8.39330e-18
4163.33566 8.34602e-18
4164.82819 8.32180e-18
4166.32073 8.29757e-18
4167.82327 8.22048e-18
4169.31581 8.14340e-18
4170.81836 8.10308e-18
4172.31089 8.06277e-18
4173.80342 7.98149e-18
4175.30597 7.90023e-18
4176.79851 7.84170e-18
4178.29104 7.78319e-18
4179.79359 7.71138e-18
4181.28612 7.63959e-18
4182.78867 7.58127e-18
4184.28121 7.52297e-18
4185.77374 7.44828e-18
4187.27629 7.37360e-18
4188.76882 7.33927e-18
4190.26135 7.30495e-18
4191.76390 7.22519e-18
4193.25644 7.14544e-18
4194.75899 7.09677e-18
4196.25152 7.04811e-18
4197.74405 7.02974e-18
4199.24660 7.01138e-18
4200.73914 7.00239e-18
4202.24169 6.99340e-18
4203.73422 6.98338e-18
4205.22675 6.97336e-18
4206.72930 7.03017e-18
4208.22184 7.08696e-18
4209.71437 7.17475e-18
4211.21692 7.26252e-18
4212.70945 7.33578e-18
4214.21200 7.40902e-18
4215.70454 7.42169e-18
4217.19707 7.43436e-18
4218.69962 7.46770e-18
4220.19215 7.50103e-18
4221.69470 7.62043e-18
4223.18723 7.73980e-18
4224.67977 7.86867e-18
4226.18232 7.99751e-18
4227.67485 8.02218e-18
4229.16738 8.04685e-18
4230.66993 8.03146e-18
4232.16247 8.01607e-18
4233.66502 8.11433e-18
4235.15755 8.21257e-18
4236.65008 8.29315e-18
4238.15263 8.37372e-18
4239.64516 8.45492e-18
4241.13770 8.53610e-18
4242.64025 8.55192e-18
4244.13278 8.56774e-18
4245.63533 8.64091e-18
4247.12786 8.71407e-18
4248.62040 8.72954e-18
4250.12295 8.74502e-18
4251.61548 8.77332e-18
4253.11803 8.80163e-18
4254.61056 8.76533e-18
4256.10310 8.72903e-18
4257.60565 8.72601e-18
4259.09818 8.72300e-18
4260.59071 8.78713e-18
4262.09326 8.85125e-18
4263.58580 8.78196e-18
4265.08835 8.71268e-18
4266.58088 8.63144e-18
4268.07341 8.55021e-18
4269.57596 8.48460e-18
4271.06849 8.41900e-18
4272.57104 8.39711e-18
4274.06358 8.37523e-18
4275.55611 8.33700e-18
4277.05866 8.29877e-18
4278.55119 8.23063e-18
4280.04373 8.16251e-18
4281.54628 8.16335e-18
4283.03881 8.16419e-18
4284.54136 8.11021e-18
4286.03389 8.05623e-18
4287.52643 8.03243e-18
4289.02898 8.00864e-18
4290.52151 8.06269e-18
4292.01404 8.11674e-18
4293.51659 8.11509e-18
4295.00912 8.11344e-18
4296.51167 8.07929e-18
4298.00421 8.04515e-18
4299.49674 8.10116e-18
4300.99929 8.15717e-18
4302.49182 8.21683e-18
4303.99437 8.27649e-18
4305.48691 8.35653e-18
4306.97944 8.43656e-18
4308.48199 8.41594e-18
4309.97452 8.39532e-18
4311.47707 8.35733e-18
4312.96961 8.31934e-18
4314.46214 8.34136e-18
4315.96469 8.36338e-18
4317.45722 8.43770e-18
4318.94975 8.51201e-18
4320.45230 8.60284e-18
4321.94484 8.69366e-18
4323.44739 8.76519e-18
4324.93992 8.83670e-18
4326.43245 8.87617e-18
4327.93500 8.91562e-18
4329.42754 8.91864e-18
4330.92007 8.92166e-18
4332.42262 8.83880e-18
4333.91515 8.75595e-18
4335.41770 8.72066e-18
4336.91024 8.68538e-18
4338.40277 8.66787e-18
4339.90532 8.65036e-18
4341.39785 8.70580e-18
4342.89038 8.76123e-18
4344.39293 8.79429e-18
4345.88547 8.82734e-18
4347.38802 8.84248e-18
4348.88055 8.85762e-18
4350.37308 8.84450e-18
4351.87563 8.83140e-18
4353.36817 8.81863e-18
4354.87072 8.80586e-18
4356.36325 8.79309e-18
4357.85578 8.78032e-18
4359.35833 8.76756e-18
4360.85087 8.75480e-18
4362.35341 8.74203e-18
4363.84595 8.72928e-18
4365.33848 8.71651e-18
4366.84103 8.70375e-18
4368.33356 8.69100e-18
4369.82610 8.67824e-18
4371.32865 8.66548e-18
4372.82118 8.65273e-18
4374.32373 8.63998e-18
4375.81626 8.62723e-18
4377.30880 8.61448e-18
4378.81135 8.60173e-18
4380.30388 8.58899e-18
4381.79641 8.57624e-18
4383.29896 8.56350e-18
4384.79150 8.55076e-18
4386.29405 8.53801e-18
4387.78658 8.52527e-18
4389.27911 8.51254e-18
4390.78166 8.44844e-18
4392.27419 8.37158e-18
4393.76673 8.29472e-18
4395.26928 8.20618e-18
4396.76181 8.11764e-18
4398.26436 8.05325e-18
4399.75689 7.98886e-18
4401.24943 7.90192e-18
4402.75198 7.81500e-18
4404.24451 7.80799e-18
4405.74706 7.80097e-18
4407.23959 7.73610e-18
4408.73213 7.67123e-18
4410.23468 7.56897e-18
4411.72721 7.46672e-18
4413.22976 7.46740e-18
4414.72229 7.46808e-18
4416.21482 7.42747e-18
4417.71737 7.38686e-18
4419.20991 7.28725e-18
4420.70244 7.18765e-18
4422.20499 7.10314e-18
4423.69752 7.01865e-18
4425.20007 6.91909e-18
4426.69261 6.81954e-18
4428.18514 6.80854e-18
4429.68769 6.79755e-18
4431.18022 6.84400e-18
4432.67275 6.89045e-18
4434.17530 6.85931e-18
4435.66784 6.82818e-18
4437.17039 6.86549e-18
4438.66292 6.90280e-18
4440.15545 6.95908e-18
4441.65800 7.01534e-18
4443.15054 7.01823e-18
4444.64307 7.02112e-18
4446.14562 7.05175e-18
4447.63815 7.08238e-18
4449.14070 7.12954e-18
4450.63324 7.17669e-18
4452.12577 7.22237e-18
4453.62832 7.26805e-18
4455.12085 7.31075e-18
4456.62340 7.35345e-18
4458.11594 7.37702e-18
4459.60847 7.40057e-18
4461.11102 7.49106e-18
4462.60355 7.58153e-18
4464.10610 7.68768e-18
4465.59863 7.79381e-18
4467.09117 7.92024e-18
4468.59372 8.04665e-18
4470.08625 8.16828e-18
4471.57878 8.28988e-18
4473.08133 8.41327e-18
4474.57387 8.53664e-18
4476.07642 8.66320e-18
4477.56895 8.78974e-18
4479.06148 8.93031e-18
4480.56403 9.07087e-18
4482.05656 9.25599e-18
4483.54910 9.44108e-18
4485.05165 9.62862e-18
4486.54418 9.81612e-18
4488.04673 1.00263e-17
4489.53926 1.02364e-17
4491.03180 1.04477e-17
4492.53435 1.06589e-17
4494.02688 1.08704e-17
4495.52943 1.10818e-17
4497.02196 1.13162e-17
4498.51450 1.15506e-17
4500.01705 1.17696e-17
4501.50958 1.19886e-17
4503.00211 1.22004e-17
4504.50466 1.24121e-17
4505.99720 1.26465e-17
4507.49975 1.28809e-17
4508.99228 1.31064e-17
4510.48481 1.33319e-17
4511.98736 1.35420e-17
4513.47989 1.37520e-17
4514.98244 1.40136e-17
4516.47498 1.42753e-17
4517.96751 1.44943e-17
4519.47006 1.47133e-17
4520.96259 1.48166e-17
4522.45513 1.49198e-17
4523.95768 1.50028e-17
4525.45021 1.50858e-17
4526.95276 1.52347e-17
4528.44529 1.53836e-17
4529.93782 1.55002e-17
4531.44038 1.56169e-17
4532.93291 1.57234e-17
4534.42544 1.58299e-17
4535.92799 1.59305e-17
4537.42052 1.60310e-17
4538.92307 1.60366e-17
4540.41561 1.60421e-17
4541.90814 1.60816e-17
4543.41069 1.61210e-17
4544.90322 1.61244e-17
4546.40577 1.61279e-17
4547.89831 1.61262e-17
4549.39084 1.61245e-17
4550.89339 1.62127e-17
4552.38592 1.63009e-17
4553.87846 1.64195e-17
4555.38101 1.65380e-17
4556.87354 1.66842e-17
4558.37609 1.68304e-17
4559.86862 1.69901e-17
4561.36115 1.71498e-17
4562.86370 1.72651e-17
4564.35624 1.73804e-17
4565.85879 1.75820e-17
4567.35132 1.77835e-17
4568.84385 1.80011e-17
4570.34640 1.82187e-17
4571.83894 1.83808e-17
4573.33147 1.85428e-17
4574.83402 1.86385e-17
4576.32655 1.87341e-17
4577.82910 1.88073e-17
4579.32164 1.88804e-17
4580.81417 1.89632e-17
4582.31672 1.90460e-17
4583.80925 1.91703e-17
4585.31180 1.92946e-17
4586.80433 1.93786e-17
4588.29687 1.94625e-17
4589.79942 1.95771e-17
4591.29195 1.96916e-17
4592.78448 1.97912e-17
4594.28703 1.98907e-17
4595.77957 2.00244e-17
4597.28212 2.01581e-17
4598.77465 2.02656e-17
4600.26718 2.03732e-17
4601.76973 2.05609e-17
4603.26227 2.07485e-17
4604.75480 2.09438e-17
4606.25735 2.11391e-17
4607.74988 2.12405e-17
4609.25243 2.13419e-17
4610.74496 2.14106e-17
4612.23750 2.14792e-17
4613.74005 2.15780e-17
4615.23258 2.16768e-17
4616.73513 2.18467e-17
4618.22766 2.20167e-17
4619.72020 2.20029e-17
4621.22275 2.19892e-17
4622.71528 2.19293e-17
4624.20781 2.18694e-17
4625.71036 2.18250e-17
4627.20290 2.17805e-17
4628.70545 2.17536e-17
4630.19798 2.17268e-17
4631.69051 2.16317e-17
4633.19306 2.15366e-17
4634.68559 2.16149e-17
4636.18814 2.16932e-17
4637.68068 2.15563e-17
4639.17321 2.14194e-17
4640.67576 2.12245e-17
4642.16829 2.10295e-17
4643.66083 2.07731e-17
4645.16338 2.05168e-17
4646.65591 2.03897e-17
4648.15846 2.02626e-17
4649.65099 2.00965e-17
4651.14353 1.99305e-17
4652.64608 1.95309e-17
4654.13861 1.91313e-17
4655.63114 1.88427e-17
4657.13369 1.85541e-17
4658.62622 1.83527e-17
4660.12877 1.81513e-17
4661.62131 1.78268e-17
4663.11384 1.75024e-17
4664.61639 1.73162e-17
4666.10892 1.71301e-17
4667.61147 1.69355e-17
4669.10401 1.67409e-17
4670.59654 1.63566e-17
4672.09909 1.59724e-17
4673.59162 1.57915e-17
4675.08415 1.56105e-17
4676.58670 1.56243e-17
4678.07924 1.56381e-17
4679.58179 1.55124e-17
4681.07432 1.53868e-17
4682.56685 1.52104e-17
4684.06940 1.50339e-17
4685.56194 1.49529e-17
4687.06449 1.48719e-17
4688.55702 1.48537e-17
4690.04955 1.48355e-17
4691.55210 1.47668e-17
4693.04464 1.46981e-17
4694.53717 1.46106e-17
4696.03972 1.45232e-17
4697.53225 1.45116e-17
4699.03480 1.45001e-17
4700.52734 1.45044e-17
4702.01987 1.45088e-17
4703.52242 1.45146e-17
4705.01495 1.45205e-17
4706.50748 1.45128e-17
4708.01003 1.45050e-17
4709.50257 1.45361e-17
4711.00512 1.45673e-17
4712.49765 1.46157e-17
4713.99018 1.46641e-17
4715.49273 1.46751e-17
4716.98527 1.46861e-17
4718.48782 1.46997e-17
4719.98035 1.47133e-17
4721.47288 1.46681e-17
4722.97543 1.46229e-17
4724.46796 1.45741e-17
4725.96050 1.45253e-17
4727.46305 1.45211e-17
4728.95558 1.45169e-17
4730.45813 1.44558e-17
4731.95066 1.43948e-17
4733.44320 1.44071e-17
4734.94575 1.44194e-17
4736.43828 1.43449e-17
4737.94083 1.42704e-17
4739.43336 1.41822e-17
4740.92590 1.40939e-17
4742.42845 1.39720e-17
4743.92098 1.38501e-17
4745.41351 1.38199e-17
4746.91606 1.37897e-17
4748.40860 1.37801e-17
4749.91115 1.37705e-17
4751.40368 1.36620e-17
4752.89621 1.35536e-17
4754.39876 1.34541e-17
4755.89129 1.33547e-17
4757.38383 1.33957e-17
4758.88638 1.34366e-17
4760.37891 1.33627e-17
4761.88146 1.32889e-17
4763.37399 1.31407e-17
4764.86653 1.29926e-17
4766.36908 1.29089e-17
4767.86161 1.28252e-17
4769.36416 1.27227e-17
4770.85669 1.26203e-17
4772.34922 1.25765e-17
4773.85178 1.25327e-17
4775.34431 1.24429e-17
4776.84686 1.23532e-17
4778.33939 1.22519e-17
4779.83192 1.21507e-17
4781.33447 1.20179e-17
4782.82701 1.18852e-17
4784.31954 1.17973e-17
4785.82209 1.17094e-17
4787.31462 1.15954e-17
4788.81717 1.14815e-17
4790.30971 1.13302e-17
4791.80224 1.11790e-17
4793.30479 1.09542e-17
4794.79732 1.07294e-17
4796.28985 1.05670e-17
4797.79241 1.04047e-17
4799.28494 1.02618e-17
4800.78749 1.01190e-17
4802.28002 9.95138e-18
4803.77255 9.78380e-18
4805.27510 9.66338e-18
4806.76764 9.54297e-18
4808.26017 9.47783e-18
4809.76272 9.41270e-18
4811.25525 9.38254e-18
4812.75780 9.35240e-18
4814.25034 9.41031e-18
4815.74287 9.46821e-18
4817.24542 9.59238e-18
4818.73795 9.71652e-18
4820.24050 9.73610e-18
4821.73304 9.75569e-18
4823.22557 9.83501e-18
4824.72812 9.91433e-18
4826.22065 1.00199e-17
4827.72320 1.01254e-17
4829.21573 1.02732e-17
4830.70827 1.04209e-17
4832.21082 1.06000e-17
4833.70335 1.07791e-17
4835.19588 1.09671e-17
4836.69843 1.11550e-17
4838.19097 1.13825e-17
4839.69352 1.16099e-17
4841.18605 1.18311e-17
4842.67858 1.20522e-17
4844.18113 1.22889e-17
4845.67367 1.25255e-17
4847.16620 1.27750e-17
4848.66875 1.30245e-17
4850.16128 1.32552e-17
4851.66383 1.31867e-17
4853.15636 1.31183e-17
4854.64890 1.30499e-17
4856.15145 1.29815e-17
4857.64398 1.29131e-17
4859.14653 1.28447e-17
4860.63906 1.27763e-17
4862.13160 1.27079e-17
4863.63415 1.26396e-17
4865.12668 1.25712e-17
4866.61921 1.25029e-17
4868.12176 1.24346e-17
4869.61430 1.23663e-17
4871.11685 1.22980e-17
4872.60938 1.22297e-17
4874.10191 1.21614e-17
4875.60446 1.20931e-17
4877.09699 1.20249e-17
4878.59954 1.19566e-17
4880.09208 1.18884e-17
4881.58461 1.18202e-17
4883.08716 1.17520e-17
4884.57969 1.16838e-17
4886.07223 1.16156e-17
4887.57478 1.15474e-17
4889.06731 1.14793e-17
4890.56986 1.12474e-17
4892.06239 1.10255e-17
4893.55493 1.08037e-17
4895.05748 1.05954e-17
4896.55001 1.03872e-17
4898.04254 1.02636e-17
4899.54509 1.01401e-17
4901.03762 1.01145e-17
4902.54017 1.00889e-17
4904.03271 1.01180e-17
4905.52524 1.01470e-17
4907.02779 1.01607e-17
4908.52032 1.01743e-17
4910.02287 1.01696e-17
4911.51541 1.01648e-17
4913.00794 1.01726e-17
4914.51049 1.01804e-17
4916.00302 1.02648e-17
4917.49555 1.03492e-17
4918.99810 1.04869e-17
4920.49064 1.06246e-17
4921.99319 1.07907e-17
4923.48572 1.09568e-17
4924.97825 1.10142e-17
4926.48080 1.10716e-17
4927.97334 1.11648e-17
4929.47589 1.12579e-17
4930.96842 1.14329e-17
4932.46095 1.16080e-17
4933.96350 1.18184e-17
4935.45604 1.20289e-17
4936.94857 1.22094e-17
4938.45112 1.23899e-17
4939.94365 1.24862e-17
4941.44620 1.25825e-17
4942.93874 1.27468e-17
4944.43127 1.29111e-17
4945.93382 1.31148e-17
4947.42635 1.33185e-17
4948.91888 1.35145e-17
4950.42143 1.36319e-17
4951.91397 1.37493e-17
4953.41652 1.38667e-17
4954.90905 1.39841e-17
4956.40158 1.41014e-17
4957.90413 1.42187e-17
4959.39667 1.43360e-17
4960.89922 1.44533e-17
4962.39175 1.45705e-17
4963.88428 1.46878e-17
4965.38683 1.48051e-17
4966.87936 1.49222e-17
4968.37190 1.50394e-17
4969.87445 1.51566e-17
4971.36698 1.52737e-17
4972.86953 1.53909e-17
4974.36206 1.55080e-17
4975.85460 1.56251e-17
4977.35715 1.57421e-17
4978.84968 1.58592e-17
4980.35223 1.59762e-17
4981.84476 1.60932e-17
4983.33730 1.62102e-17
4984.83985 1.63272e-17
4986.33238 1.64442e-17
4987.82491 1.64962e-17
4989.32746 1.65481e-17
4990.82000 1.65074e-17
4992.32255 1.64667e-17
4993.81508 1.63810e-17
4995.30761 1.62954e-17
4996.81016 1.61679e-17
4998.30269 1.59161e-17
4999.80524 1.56642e-17
5001.29778 1.54124e-17
5002.79031 1.51607e-17
5004.29286 1.49090e-17
5005.78539 1.46573e-17
5007.27793 1.44057e-17
5008.78048 1.41541e-17
5010.27301 1.39025e-17
5011.77556 1.36510e-17
5013.26809 1.33996e-17
5014.76062 1.31481e-17
5016.26318 1.28967e-17
5017.75571 1.26455e-17
5019.24824 1.23941e-17
5020.75079 1.21428e-17
5022.24332 1.18916e-17
5023.74587 1.16405e-17
5025.23841 1.13893e-17
5026.73094 1.11382e-17
5028.23349 1.08872e-17
5029.72602 1.06361e-17
5031.22857 1.03852e-17
5032.72111 1.01343e-17
5034.21364 9.88341e-18
5035.71619 9.65782e-18
5037.20872 9.43227e-18
5038.70125 9.19148e-18
5040.20381 8.95074e-18
5041.69634 8.83228e-18
5043.19889 8.71384e-18
5044.69142 8.65435e-18
5046.18395 8.59486e-18
5047.68650 8.55948e-18
5049.17904 8.52412e-18
5050.68159 8.52744e-18
5052.17412 8.53076e-18
5053.66665 8.61184e-18
5055.16920 8.69290e-18
5056.66174 8.72306e-18
5058.15427 8.75322e-18
5059.65682 8.75062e-18
5061.14935 8.74801e-18
5062.65190 8.81884e-18
5064.14444 8.88965e-18
5065.63697 8.96568e-18
5067.13952 9.04169e-18
5068.63205 9.09804e-18
5070.12458 9.15438e-18
5071.62713 9.27860e-18
5073.11967 9.40281e-18
5074.62222 9.55237e-18
5076.11475 9.70191e-18
5077.60728 9.82946e-18
5079.10983 9.95698e-18
5080.60237 1.00310e-17
5082.10492 1.01050e-17
5083.59745 1.02308e-17
5085.08998 1.03565e-17
5086.59253 1.04720e-17
5088.08507 1.05875e-17
5089.57760 1.07674e-17
5091.08015 1.09472e-17
5092.57268 1.10514e-17
5094.07523 1.11556e-17
5095.56776 1.12394e-17
5097.06030 1.13231e-17
5098.56285 1.14158e-17
5100.05538 1.15085e-17
5101.55793 1.15998e-17
5103.05046 1.16911e-17
5104.54300 1.18008e-17
5106.04555 1.19105e-17
5107.53808 1.19702e-17
5109.03061 1.20300e-17
5110.53316 1.21103e-17
5112.02570 1.21906e-17
5113.52825 1.22908e-17
5115.02078 1.23910e-17
5116.51331 1.24981e-17
5118.01586 1.26053e-17
5119.50839 1.27008e-17
5121.00093 1.27963e-17
5122.50348 1.28759e-17
5123.99601 1.29555e-17
5125.49856 1.29917e-17
5126.99109 1.30279e-17
5128.48363 1.30346e-17
5129.98618 1.30413e-17
5131.47871 1.30570e-17
5132.98126 1.30727e-17
5134.47379 1.30986e-17
5135.96633 1.31245e-17
5137.46888 1.31837e-17
5138.96141 1.32429e-17
5140.45394 1.32261e-17
5141.95649 1.32092e-17
5143.44902 1.31682e-17
5144.95157 1.31272e-17
5146.44411 1.31957e-17
5147.93664 1.32643e-17
5149.43919 1.32918e-17
5150.93172 1.33193e-17
5152.43427 1.33237e-17
5153.92681 1.33282e-17
5155.41934 1.34053e-17
5156.92189 1.34823e-17
5158.41442 1.34883e-17
5159.90695 1.34943e-17
5161.40950 1.35015e-17
5162.90204 1.35088e-17
5164.40459 1.35343e-17
5165.89712 1.35598e-17
5167.38965 1.35866e-17
5168.89220 1.36133e-17
5170.38474 1.35855e-17
5171.87727 1.35577e-17
5173.37982 1.35172e-17
5174.87235 1.34767e-17
5176.37490 1.34724e-17
5177.86744 1.34681e-17
5179.35997 1.34746e-17
5180.86252 1.34811e-17
5182.35505 1.34287e-17
5183.85760 1.33764e-17
5185.35014 1.32929e-17
5186.84267 1.32095e-17
5188.34522 1.32028e-17
5189.83775 1.31962e-17
5191.33028 1.32264e-17
5192.83283 1.32567e-17
5194.32537 1.32673e-17
5195.82792 1.32779e-17
5197.32045 1.32767e-17
5198.81298 1.32754e-17
5200.31553 1.32608e-17
5201.80807 1.32463e-17
5203.31062 1.32302e-17
5204.80315 1.32142e-17
5206.29568 1.32297e-17
5207.79823 1.32453e-17
5209.29076 1.32868e-17
5210.78330 1.33282e-17
5212.28585 1.33476e-17
5213.77838 1.33670e-17
5215.28093 1.33685e-17
5216.77346 1.33699e-17
5218.26600 1.34114e-17
5219.76855 1.34528e-17
5221.26108 1.35320e-17
5222.76363 1.36112e-17
5224.25616 1.36842e-17
5225.74870 1.37572e-17
5227.25125 1.38733e-17
5228.74378 1.39893e-17
5230.23631 1.41364e-17
5231.73886 1.42834e-17
5233.23140 1.43837e-17
5234.73395 1.44839e-17
5236.22648 1.45647e-17
5237.71901 1.46454e-17
5239.22156 1.47580e-17
5240.71409 1.48705e-17
5242.21664 1.50155e-17
5243.70918 1.51604e-17
5245.20171 1.52612e-17
5246.70426 1.53619e-17
5248.19679 1.53680e-17
5249.68933 1.53741e-17
5251.19188 1.54514e-17
5252.68441 1.55287e-17
5254.18696 1.55874e-17
5255.67949 1.56461e-17
5257.17202 1.57700e-17
5258.67458 1.58939e-17
5260.16711 1.58970e-17
5261.65964 1.59000e-17
5263.16219 1.59267e-17
5264.65472 1.59533e-17
5266.15727 1.60145e-17
5267.64981 1.60756e-17
5269.14234 1.61409e-17
5270.64489 1.62062e-17
5272.13742 1.61866e-17
5273.63997 1.61670e-17
5275.13251 1.62136e-17
5276.62504 1.62603e-17
5278.12759 1.63346e-17
5279.62012 1.64090e-17
5281.11265 1.64198e-17
5282.61521 1.64306e-17
5284.10774 1.65239e-17
5285.61029 1.66172e-17
5287.10282 1.67559e-17
5288.59535 1.68946e-17
5290.09790 1.69643e-17
5291.59044 1.70340e-17
5293.09299 1.72070e-17
5294.58552 1.73800e-17
5296.07805 1.75205e-17
5297.58060 1.76609e-17
5299.07314 1.77014e-17
5300.56567 1.77419e-17
5302.06822 1.78425e-17
5303.56075 1.79432e-17
5305.06330 1.79817e-17
5306.55584 1.80202e-17
5308.04837 1.80843e-17
5309.55092 1.81483e-17
5311.04345 1.82587e-17
5312.53598 1.83690e-17
5314.03853 1.84233e-17
5315.53107 1.84776e-17
5317.03362 1.85418e-17
5318.52615 1.86060e-17
5320.01868 1.85640e-17
5321.52123 1.85220e-17
5323.01377 1.84472e-17
5324.51632 1.83725e-17
5326.00885 1.84323e-17
5327.50138 1.84921e-17
5329.00393 1.85085e-17
5330.49647 1.85248e-17
5331.98900 1.84961e-17
5333.49155 1.84675e-17
5334.98408 1.85300e-17
5336.48663 1.85924e-17
5337.97916 1.86037e-17
5339.47170 1.86150e-17
5340.97425 1.85836e-17
5342.46678 1.85521e-17
5343.96933 1.85730e-17
5345.46186 1.85938e-17
5346.95440 1.85902e-17
5348.45695 1.85866e-17
5349.94948 1.86108e-17
5351.44201 1.86350e-17
5352.94456 1.86966e-17
5354.43710 1.87581e-17
5355.93965 1.87909e-17
5357.43218 1.88236e-17
5358.92471 1.88418e-17
5360.42726 1.88600e-17
5361.91979 1.88731e-17
5363.41233 1.88862e-17
5364.91488 1.89129e-17
5366.40741 1.89396e-17
5367.90996 1.89143e-17
5369.40249 1.88891e-17
5370.89503 1.88778e-17
5372.39758 1.88665e-17
5373.89011 1.89029e-17
5375.39266 1.89394e-17
5376.88519 1.88499e-17
5378.37773 1.87603e-17
5379.88028 1.87028e-17
5381.37281 1.86452e-17
5382.86534 1.86088e-17
5384.36789 1.85724e-17
5385.86042 1.84918e-17
5387.36297 1.84112e-17
5388.85551 1.83001e-17
5390.34804 1.81891e-17
5391.85059 1.80371e-17
5393.34312 1.78851e-17
5394.84567 1.77742e-17
5396.33821 1.76633e-17
5397.83074 1.75097e-17
5399.33329 1.73561e-17
5400.82582 1.71827e-17
5402.31835 1.70094e-17
5403.82090 1.68634e-17
5405.31344 1.67175e-17
5406.81599 1.65824e-17
5408.30852 1.64474e-17
5409.80105 1.62867e-17
5411.30360 1.61261e-17
5412.79614 1.60098e-17
5414.29869 1.58935e-17
5415.79122 1.58004e-17
5417.28375 1.57073e-17
5418.78630 1.56246e-17
5420.27884 1.55419e-17
5421.77137 1.55288e-17
5423.27392 1.55157e-17
5424.76645 1.55282e-17
5426.26900 1.55407e-17
5427.76154 1.55049e-17
5429.25407 1.54690e-17
5430.75662 1.55004e-17
5432.24915 1.55318e-17
5433.74168 1.55785e-17
5435.24423 1.56251e-17
5436.73677 1.56801e-17
5438.23932 1.57350e-17
5439.73185 1.57858e-17
5441.22438 1.58365e-17
5442.72693 1.59294e-17
5444.21947 1.60223e-17
5445.72202 1.61908e-17
5447.21455 1.63592e-17
5448.70708 1.64855e-17
5450.20963 1.66118e-17
5451.70216 1.66892e-17
5453.19470 1.67666e-17
5454.69725 1.68747e-17
5456.18978 1.69828e-17
5457.69233 1.71280e-17
5459.18486 1.72732e-17
5460.67740 1.74054e-17
5462.17995 1.75375e-17
5463.67248 1.77070e-17
5465.17503 1.78766e-17
5466.66756 1.80382e-17
5468.16010 1.81999e-17
5469.66265 1.83503e-17
5471.15518 1.85007e-17
5472.64771 1.86811e-17
5474.15026 1.88615e-17
5475.64280 1.89935e-17
5477.14535 1.91255e-17
5478.63788 1.92328e-17
5480.13041 1.93400e-17
5481.63296 1.94629e-17
5483.12549 1.95859e-17
5484.61803 1.96132e-17
5486.12058 1.96406e-17
5487.61311 1.97293e-17
5489.11566 1.98179e-17
5490.60819 1.98627e-17
5492.10073 1.99076e-17
5493.60328 1.99752e-17
5495.09581 2.00429e-17
5496.59836 2.00309e-17
5498.09089 2.00190e-17
5499.58342 1.99973e-17
5501.08597 1.99756e-17
5502.57851 1.99096e-17
5504.07104 1.98436e-17
5505.57359 1.98187e-17
5507.06612 1.97939e-17
5508.56867 1.97240e-17
5510.06121 1.96541e-17
5511.55374 1.95783e-17
5513.05629 1.95026e-17
5514.54882 1.94328e-17
5516.05137 1.93631e-17
5517.54391 1.92128e-17
5519.03644 1.90626e-17
5520.53899 1.89023e-17
5522.03152 1.87421e-17
5523.52405 1.85959e-17
5525.02661 1.84497e-17
5526.51914 1.83051e-17
5528.02169 1.81604e-17
5529.51422 1.80223e-17
5531.00675 1.78841e-17
5532.50930 1.77200e-17
5534.00184 1.75558e-17
5535.49437 1.73396e-17
5536.99692 1.71234e-17
5538.48945 1.69418e-17
5539.99200 1.67603e-17
5541.48454 1.66466e-17
5542.97707 1.65329e-17
5544.47962 1.63670e-17
5545.97215 1.62011e-17
5547.47470 1.60412e-17
5548.96724 1.58812e-17
5550.45977 1.58354e-17
5551.96232 1.57895e-17
5553.45485 1.57315e-17
5554.94738 1.56735e-17
5556.44993 1.56041e-17
5557.94247 1.55348e-17
5559.44502 1.55211e-17
5560.93755 1.55073e-17
5562.43008 1.54868e-17
5563.93263 1.54662e-17
5565.42517 1.54846e-17
5566.92772 1.55029e-17
5568.42025 1.54976e-17
5569.91278 1.54924e-17
5571.41533 1.55608e-17
5572.90787 1.56292e-17
5574.40040 1.56970e-17
5575.90295 1.57648e-17
5577.39548 1.57643e-17
5578.89803 1.57637e-17
5580.39056 1.58111e-17
5581.88310 1.58584e-17
5583.38565 1.58963e-17
5584.87818 1.59341e-17
5586.38073 1.59813e-17
5587.87326 1.60285e-17
5589.36580 1.61536e-17
5590.86835 1.62788e-17
5592.36088 1.63925e-17
5593.85341 1.65063e-17
5595.35596 1.65527e-17
5596.84850 1.65991e-17
5598.35105 1.67150e-17
5599.84358 1.68308e-17
5601.33611 1.68991e-17
5602.83866 1.69675e-17
5604.33119 1.69899e-17
5605.82373 1.70123e-17
5607.32628 1.71017e-17
5608.81881 1.71910e-17
5610.32136 1.72832e-17
5611.81389 1.73753e-17
5613.30643 1.74402e-17
5614.80898 1.75052e-17
5616.30151 1.75384e-17
5617.80406 1.75716e-17
5619.29659 1.76164e-17
5620.78913 1.76611e-17
5622.29168 1.77233e-17
5623.78421 1.77854e-17
5625.27674 1.78447e-17
5626.77929 1.79040e-17
5628.27182 1.79382e-17
5629.77437 1.79723e-17
5631.26691 1.79660e-17
5632.75944 1.79596e-17
5634.26199 1.79905e-17
5635.75452 1.80213e-17
5637.25707 1.79866e-17
5638.74961 1.79519e-17
5640.24214 1.79141e-17
5641.74469 1.78763e-17
5643.23722 1.79589e-17
5644.72975 1.80416e-17
5646.23230 1.80515e-17
5647.72484 1.80615e-17
5649.22739 1.79769e-17
5650.71992 1.78924e-17
5652.21245 1.78844e-17
5653.71500 1.78764e-17
5655.20754 1.78188e-17
5656.70007 1.77612e-17
5658.20262 1.76481e-17
5659.69515 1.75350e-17
5661.19770 1.75054e-17
5662.69024 1.74757e-17
5664.18277 1.73629e-17
5665.68532 1.72501e-17
5667.17785 1.71583e-17
5668.68040 1.70665e-17
5670.17294 1.69542e-17
5671.66547 1.68420e-17
5673.16802 1.67519e-17
5674.66055 1.66619e-17
5676.15308 1.65993e-17
5677.65563 1.65368e-17
5679.14817 1.64475e-17
5680.65072 1.63581e-17
5682.14325 1.62849e-17
5683.63578 1.62116e-17
5685.13833 1.61474e-17
5686.63087 1.60831e-17
5688.13342 1.59876e-17
5689.62595 1.58922e-17
5691.11848 1.57552e-17
5692.62103 1.56183e-17
5694.11356 1.54803e-17
5695.60610 1.53422e-17
5697.10865 1.52349e-17
5698.60118 1.51277e-17
5700.10373 1.50388e-17
5701.59626 1.49499e-17
5703.08880 1.48408e-17
5704.59135 1.47316e-17
5706.08388 1.45939e-17
5707.58643 1.44562e-17
5709.07896 1.43595e-17
5710.57150 1.42629e-17
5712.07405 1.42194e-17
5713.56658 1.41760e-17
5715.05911 1.41082e-17
5716.56166 1.40404e-17
5718.05420 1.39277e-17
5719.55675 1.38151e-17
5721.04928 1.37491e-17
5722.54181 1.36831e-17
5724.04436 1.36015e-17
5725.53689 1.35199e-17
5727.02943 1.33866e-17
5728.53198 1.32533e-17
5730.02451 1.31042e-17
5731.52706 1.29551e-17
5733.01959 1.28321e-17
5734.51213 1.27091e-17
5736.01468 1.26279e-17
5737.50721 1.25467e-17
5739.00976 1.24463e-17
5740.50229 1.23459e-17
5741.99482 1.22158e-17
5743.49737 1.20857e-17
5744.98991 1.19775e-17
5746.48244 1.18693e-17
5747.98499 1.17663e-17
5749.47752 1.16634e-17
5750.98007 1.16244e-17
5752.47261 1.15854e-17
5753.96514 1.15027e-17
5755.46769 1.14201e-17
5756.96022 1.13114e-17
5758.46277 1.12028e-17
5759.95531 1.11771e-17
5761.44784 1.11515e-17
5762.95039 1.11452e-17
5764.44292 1.11390e-17
5765.93545 1.11223e-17
5767.43800 1.11056e-17
5768.93054 1.10718e-17
5770.43309 1.10380e-17
5771.92562 1.09956e-17
5773.41815 1.09532e-17
5774.92070 1.09346e-17
5776.41324 1.09159e-17
5777.90577 1.09301e-17
5779.40832 1.09443e-17
5780.90085 1.10233e-17
5782.40340 1.11022e-17
5783.89594 1.11912e-17
5785.38847 1.12802e-17
5786.89102 1.13724e-17
5788.38355 1.14645e-17
5789.88610 1.15834e-17
5791.37864 1.17024e-17
5792.87117 1.18738e-17
5794.37372 1.20451e-17
5795.86625 1.21712e-17
5797.35878 1.22973e-17
5798.86133 1.24561e-17
5800.35387 1.26148e-17
5801.85642 1.27729e-17
5803.34895 1.29310e-17
5804.84148 1.30991e-17
5806.34403 1.32671e-17
5807.83657 1.34444e-17
5809.33912 1.36217e-17
5810.83165 1.37798e-17
5812.32418 1.39379e-17
5813.82673 1.40797e-17
5815.31927 1.42216e-17
5816.81180 1.43571e-17
5818.31435 1.44927e-17
5819.80688 1.46948e-17
5821.30943 1.48969e-17
5822.80196 1.51043e-17
5824.29450 1.53116e-17
5825.79705 1.54551e-17
5827.28958 1.55987e-17
5828.79213 1.56878e-17
5830.28466 1.57769e-17
5831.77720 1.58774e-17
5833.27975 1.59779e-17
5834.77228 1.60403e-17
5836.26481 1.61027e-17
5837.76736 1.61446e-17
5839.25990 1.61864e-17
5840.76245 1.62450e-17
5842.25498 1.63035e-17
5843.74751 1.63453e-17
5845.25006 1.63872e-17
5846.74259 1.64526e-17
5848.23513 1.65181e-17
5849.73768 1.65648e-17
5851.23021 1.66115e-17
5852.73276 1.66722e-17
5854.22529 1.67328e-17
5855.71783 1.67350e-17
5857.22038 1.67371e-17
5858.71291 1.66935e-17
5860.21546 1.66498e-17
5861.70799 1.66541e-17
5863.20053 1.66585e-17
5864.70308 1.67162e-17
5866.19561 1.67738e-17
5867.68814 1.67352e-17
5869.19069 1.66965e-17
5870.68322 1.66038e-17
5872.18577 1.65112e-17
5873.67831 1.64853e-17
5875.17084 1.64594e-17
5876.67339 1.64584e-17
5878.16592 1.64573e-17
5879.66847 1.64167e-17
5881.16101 1.63762e-17
5882.65354 1.62679e-17
5884.15609 1.61596e-17
5885.64862 1.59407e-17
5887.14116 1.57219e-17
5888.64370 1.54668e-17
5890.13624 1.52118e-17
5891.63879 1.51066e-17
5893.13132 1.50015e-17
5894.62385 1.49744e-17
5896.12640 1.49473e-17
5897.61894 1.49159e-17
5899.11147 1.48845e-17
5900.61402 1.49358e-17
5902.10655 1.49870e-17
5903.60910 1.51318e-17
5905.10164 1.52766e-17
5906.59417 1.54226e-17
5908.09672 1.55686e-17
5909.58925 1.56538e-17
5911.09180 1.57390e-17
5912.58434 1.58002e-17
5914.07687 1.58615e-17
5915.57942 1.58798e-17
5917.07195 1.58981e-17
5918.56448 1.58674e-17
5920.06703 1.58367e-17
5921.55957 1.58663e-17
5923.06212 1.58959e-17
5924.55465 1.59685e-17
5926.04718 1.60411e-17
5927.54973 1.60961e-17
5929.04227 1.61511e-17
5930.54482 1.61509e-17
5932.03735 1.61507e-17
5933.52988 1.61391e-17
5935.03243 1.61276e-17
5936.52496 1.61061e-17
5938.01750 1.60846e-17
5939.52005 1.60656e-17
5941.01258 1.60467e-17
5942.51513 1.59769e-17
5944.00766 1.59072e-17
5945.50020 1.58752e-17
5947.00275 1.58431e-17
5948.49528 1.58613e-17
5949.99783 1.58794e-17
5951.49036 1.59062e-17
5952.98290 1.59331e-17
5954.48545 1.59963e-17
5955.97798 1.60595e-17
5957.47051 1.59987e-17
5958.97306 1.59379e-17
5960.46560 1.58549e-17
5961.96815 1.57720e-17
5963.46068 1.57711e-17
5964.95321 1.57701e-17
5966.45576 1.57352e-17
5967.94829 1.57004e-17
5969.44083 1.56716e-17
5970.94338 1.56428e-17
5972.43591 1.56101e-17
5973.93846 1.55774e-17
5975.43099 1.55821e-17
5976.92353 1.55867e-17
5978.42608 1.56080e-17
5979.91861 1.56292e-17
5981.42116 1.56179e-17
5982.91369 1.56066e-17
5984.40623 1.56185e-17
5985.90877 1.56303e-17
5987.40131 1.56423e-17
5988.89384 1.56543e-17
5990.39639 1.55531e-17
5991.88892 1.54518e-17
5993.39147 1.54076e-17
5994.88401 1.53633e-17
5996.37654 1.53348e-17
5997.87909 1.53064e-17
5999.37162 1.52277e-17
6000.87417 1.51490e-17
6002.36671 1.51221e-17
6003.85924 1.50952e-17
6005.36179 1.50753e-17
6006.85432 1.50555e-17
6008.34685 1.50452e-17
6009.84940 1.50350e-17
6011.34194 1.49972e-17
6012.84449 1.49594e-17
6014.33702 1.49073e-17
6015.82955 1.48552e-17
6017.33210 1.48043e-17
6018.82464 1.47533e-17
6020.31717 1.47199e-17
6021.81972 1.46865e-17
6023.31225 1.46621e-17
6024.81480 1.46377e-17
6026.30734 1.46198e-17
6027.79987 1.46020e-17
6029.30242 1.45739e-17
6030.79495 1.45458e-17
6032.29750 1.44816e-17
6033.79003 1.44175e-17
6035.28257 1.43790e-17
6036.78512 1.43406e-17
6038.27765 1.42530e-17
6039.77018 1.41655e-17
6041.27273 1.41070e-17
6042.76527 1.40486e-17
6044.26782 1.39630e-17
6045.76035 1.38773e-17
6047.25288 1.37778e-17
6048.75543 1.36782e-17
6050.24797 1.35835e-17
6051.75052 1.34888e-17
6053.24305 1.34479e-17
6054.73558 1.34071e-17
6056.23813 1.33703e-17
6057.73067 1.33335e-17
6059.22320 1.33442e-17
6060.72575 1.33548e-17
6062.21828 1.34088e-17
6063.72083 1.34628e-17
6065.21336 1.35192e-17
6066.70590 1.35756e-17
6068.20845 1.36086e-17
6069.70098 1.36417e-17
6071.20353 1.37092e-17
6072.69606 1.37767e-17
6074.18860 1.38583e-17
6075.69115 1.39400e-17
6077.18368 1.40083e-17
6078.67621 1.40767e-17
6080.17876 1.41250e-17
6081.67130 1.41733e-17
6083.17385 1.42031e-17
6084.66638 1.42329e-17
6086.15891 1.42638e-17
6087.66146 1.42948e-17
6089.15399 1.43109e-17
6090.64653 1.43271e-17
6092.14908 1.43412e-17
6093.64161 1.43552e-17
6095.14416 1.43101e-17
6096.63669 1.42650e-17
6098.12923 1.42422e-17
6099.63178 1.42193e-17
6101.12431 1.42458e-17
6102.62686 1.42722e-17
6104.11939 1.42267e-17
6105.61193 1.41812e-17
6107.11448 1.41407e-17
6108.60701 1.41001e-17
6110.09954 1.40597e-17
6111.60209 1.40192e-17
6113.09462 1.40118e-17
6114.59717 1.40043e-17
6116.08971 1.39405e-17
6117.58224 1.38768e-17
6119.08479 1.38006e-17
6120.57732 1.37245e-17
6122.07987 1.36532e-17
6123.57241 1.35819e-17
6125.06494 1.35230e-17
6126.56749 1.34642e-17
6128.06002 1.34247e-17
6129.55256 1.33853e-17
6131.05510 1.33376e-17
6132.54764 1.32900e-17
6134.05019 1.32107e-17
6135.54272 1.31313e-17
6137.03525 1.30485e-17
6138.53780 1.29657e-17
6140.03034 1.29523e-17
6141.52287 1.29388e-17
6143.02542 1.29660e-17
6144.51795 1.29932e-17
6146.02050 1.30109e-17
6147.51304 1.30286e-17
6149.00557 1.30808e-17
6150.50812 1.31331e-17
6152.00065 1.31858e-17
6153.50320 1.32386e-17
6154.99574 1.32770e-17
6156.48827 1.33154e-17
6157.99082 1.33425e-17
6159.48335 1.33697e-17
6160.97588 1.34573e-17
6162.47843 1.35448e-17
6163.97097 1.36449e-17
6165.47352 1.37449e-17
6166.96605 1.38081e-17
6168.45858 1.38712e-17
6169.96113 1.39486e-17
6171.45367 1.40259e-17
6172.95622 1.41423e-17
6174.44875 1.42587e-17
6175.94128 1.43567e-17
6177.44383 1.44547e-17
6178.93637 1.44874e-17
6180.42890 1.45200e-17
6181.93145 1.45877e-17
6183.42398 1.46554e-17
6184.92653 1.47268e-17
6186.41906 1.47981e-17
6187.91160 1.48379e-17
6189.41415 1.48776e-17
6190.90668 1.49661e-17
6192.40923 1.50545e-17
6193.90176 1.51183e-17
6195.39430 1.51821e-17
6196.89685 1.52496e-17
6198.38938 1.53171e-17
6199.88191 1.54346e-17
6201.38446 1.55521e-17
6202.87700 1.55102e-17
6204.37955 1.54683e-17
6205.87208 1.53921e-17
6207.36461 1.53158e-17
6208.86716 1.53439e-17
6210.35969 1.53719e-17
6211.85223 1.53809e-17
6213.35478 1.53899e-17
6214.84731 1.53636e-17
6216.34986 1.53372e-17
6217.84239 1.52498e-17
6219.33493 1.51625e-17
6220.83748 1.51045e-17
6222.33001 1.50464e-17
6223.83256 1.49655e-17
6225.32509 1.48845e-17
6226.81763 1.48137e-17
6228.32017 1.47429e-17
6229.81271 1.46620e-17
6231.30524 1.45812e-17
6232.80779 1.45335e-17
6234.30032 1.44858e-17
6235.80287 1.44660e-17
6237.29541 1.44462e-17
6238.78794 1.43658e-17
6240.29049 1.42853e-17
6241.78302 1.41538e-17
6243.28557 1.40223e-17
6244.77811 1.38924e-17
6246.27064 1.37625e-17
6247.77319 1.36404e-17
6249.26572 1.35183e-17
6250.75825 1.34542e-17
6252.26080 1.33901e-17
6253.75334 1.34220e-17
6255.25589 1.34538e-17
6256.74842 1.34593e-17
6258.24095 1.34647e-17
6259.74350 1.34514e-17
6261.23604 1.34380e-17
6262.72857 1.34201e-17
6264.23112 1.34021e-17
6265.72365 1.33046e-17
6267.22620 1.32071e-17
6268.71874 1.31629e-17
6270.21127 1.31187e-17
6271.71382 1.30687e-17
6273.20635 1.30187e-17
6274.70890 1.29233e-17
6276.20143 1.28279e-17
6277.69397 1.27068e-17
6279.19652 1.25857e-17
6280.68905 1.25861e-17
6282.18158 1.25865e-17
6283.68413 1.26893e-17
6285.17667 1.27920e-17
6286.67922 1.28921e-17
6288.17175 1.29921e-17
6289.66428 1.30364e-17
6291.16683 1.30807e-17
6292.65937 1.30695e-17
6294.16192 1.30583e-17
6295.65445 1.30514e-17
6297.14698 1.30445e-17
6298.64953 1.30690e-17
6300.14207 1.30934e-17
6301.63460 1.31329e-17
6303.13715 1.31725e-17
6304.62968 1.31566e-17
6306.13223 1.31408e-17
6307.62476 1.30658e-17
6309.11730 1.29907e-17
6310.61985 1.29744e-17
6312.11238 1.29580e-17
6313.61493 1.29249e-17
6315.10746 1.28918e-17
6316.60000 1.28363e-17
6318.10255 1.27809e-17
6319.59508 1.28142e-17
6321.08761 1.28475e-17
6322.59016 1.28283e-17
6324.08270 1.28090e-17
6325.58525 1.27830e-17
6327.07778 1.27569e-17
6328.57031 1.27307e-17
6330.07286 1.27045e-17
6331.56539 1.26408e-17
6333.05793 1.25771e-17
6334.56048 1.25057e-17
6336.05301 1.24343e-17
6337.55556 1.24047e-17
6339.04809 1.23751e-17
6340.54063 1.23596e-17
6342.04318 1.23441e-17
6343.53571 1.23176e-17
6345.03826 1.22911e-17
6346.53079 1.22754e-17
6348.02333 1.22596e-17
6349.52588 1.22435e-17
6351.01841 1.22273e-17
6352.51094 1.22206e-17
6354.01349 1.22140e-17
6355.50602 1.22238e-17
6357.00857 1.22336e-17
6358.50111 1.22852e-17
6359.99364 1.23368e-17
6361.49619 1.24201e-17
6362.98872 1.25035e-17
6364.49127 1.25462e-17
6365.98381 1.25889e-17
6367.47634 1.27544e-17
6368.97889 1.29199e-17
6370.47142 1.30511e-17
6371.96396 1.31823e-17
6373.46650 1.32358e-17
6374.95904 1.32892e-17
6376.46159 1.33584e-17
6377.95412 1.34275e-17
6379.44665 1.34848e-17
6380.94920 1.35420e-17
6382.44174 1.35669e-17
6383.93427 1.35918e-17
6385.43682 1.36063e-17
6386.92935 1.36208e-17
6388.43190 1.36537e-17
6389.92444 1.36866e-17
6391.41697 1.37519e-17
6392.91952 1.38172e-17
6394.41205 1.38702e-17
6395.91460 1.39232e-17
6397.40714 1.39389e-17
6398.89967 1.39545e-17
6400.40222 1.39837e-17
6401.89475 1.40130e-17
6403.38728 1.40541e-17
6404.88983 1.40953e-17
6406.38237 1.40811e-17
6407.88492 1.40670e-17
6409.37745 1.40542e-17
6410.86998 1.40414e-17
6412.37253 1.40469e-17
6413.86507 1.40524e-17
6415.36762 1.40691e-17
6416.86015 1.40857e-17
6418.35268 1.41357e-17
6419.85523 1.41857e-17
6421.34777 1.42263e-17
6422.84030 1.42670e-17
6424.34285 1.43044e-17
6425.83538 1.43418e-17
6427.33793 1.43943e-17
6428.83046 1.44468e-17
6430.32300 1.44809e-17
6431.82555 1.45149e-17
6433.31808 1.45028e-17
6434.82063 1.44908e-17
6436.31316 1.44910e-17
6437.80570 1.44911e-17
6439.30825 1.45135e-17
6440.80078 1.45358e-17
6442.29331 1.45111e-17
6443.79586 1.44865e-17
6445.28840 1.44840e-17
6446.79095 1.44816e-17
6448.28348 1.45624e-17
6449.77601 1.46431e-17
6451.27856 1.46342e-17
6452.77109 1.46254e-17
6454.26363 1.45359e-17
6455.76618 1.44464e-17
6457.25871 1.44553e-17
6458.76126 1.44641e-17
6460.25379 1.44357e-17
6461.74633 1.44074e-17
6463.24888 1.43882e-17
6464.74141 1.43690e-17
6466.24396 1.43429e-17
6467.73649 1.43169e-17
6469.22903 1.42789e-17
6470.73157 1.42410e-17
6472.22411 1.41854e-17
6473.71664 1.41298e-17
6475.21919 1.41009e-17
6476.71172 1.40720e-17
6478.21427 1.40780e-17
6479.70681 1.40839e-17
6481.19934 1.40904e-17
6482.70189 1.40969e-17
6484.19442 1.40921e-17
6485.69697 1.40874e-17
6487.18951 1.40899e-17
6488.68204 1.40923e-17
6490.18459 1.40916e-17
6491.67712 1.40910e-17
6493.16965 1.40898e-17
6494.67220 1.40886e-17
6496.16474 1.41125e-17
6497.66729 1.41364e-17
6499.15982 1.41432e-17
6500.65235 1.41501e-17
6502.15490 1.41695e-17
6503.64744 1.41889e-17
6505.13997 1.41944e-17
6506.64252 1.41998e-17
6508.13505 1.42315e-17
6509.63760 1.42633e-17
6511.13014 1.42541e-17
6512.62267 1.42449e-17
6514.12522 1.42152e-17
6515.61775 1.41855e-17
6517.12030 1.41984e-17
6518.61284 1.42114e-17
6520.10537 1.42752e-17
6521.60792 1.43389e-17
6523.10045 1.43966e-17
6524.59298 1.44542e-17
6526.09553 1.44361e-17
6527.58807 1.44180e-17
6529.09062 1.44173e-17
6530.58315 1.44167e-17
6532.07568 1.44755e-17
6533.57823 1.45344e-17
6535.07077 1.45339e-17
6536.57332 1.45335e-17
6538.06585 1.45048e-17
6539.55838 1.44761e-17
6541.06093 1.44999e-17
6542.55346 1.45238e-17
6544.04600 1.45075e-17
6545.54855 1.44912e-17
6547.04108 1.44750e-17
6548.54363 1.44587e-17
6550.03616 1.44425e-17
6551.52870 1.44262e-17
6553.03125 1.44100e-17
6554.52378 1.43937e-17
6556.02633 1.43775e-17
6557.51886 1.43613e-17
6559.01140 1.43450e-17
6560.51395 1.43288e-17
6562.00648 1.43125e-17
6563.49901 1.42963e-17
6565.00156 1.42801e-17
6566.49410 1.42638e-17
6567.99665 1.42476e-17
6569.48918 1.42314e-17
6570.98171 1.42151e-17
6572.48426 1.41989e-17
6573.97679 1.41827e-17
6575.46933 1.41664e-17
6576.97188 1.41502e-17
6578.46441 1.41340e-17
6579.96696 1.41178e-17
6581.45949 1.41015e-17
6582.95203 1.40853e-17
6584.45458 1.40691e-17
6585.94711 1.40529e-17
6587.44966 1.40367e-17
6588.94219 1.40204e-17
6590.43473 1.40042e-17
6591.93728 1.39880e-17
6593.42981 1.39718e-17
6594.92234 1.39556e-17
6596.42489 1.39394e-17
6597.91742 1.39232e-17
6599.41997 1.39070e-17
6600.91251 1.38908e-17
6602.40504 1.38746e-17
6603.90759 1.38584e-17
6605.40012 1.38421e-17
6606.90267 1.38041e-17
6608.39521 1.37661e-17
6609.88774 1.37675e-17
6611.39029 1.37689e-17
6612.88282 1.37888e-17
6614.37536 1.38086e-17
6615.87791 1.38121e-17
6617.37044 1.38155e-17
6618.87299 1.38418e-17
6620.36552 1.38680e-17
6621.85805 1.38921e-17
6623.36060 1.39162e-17
6624.85314 1.38385e-17
6626.34567 1.37608e-17
6627.84822 1.37062e-17
6629.34075 1.36517e-17
6630.84330 1.37062e-17
6632.33584 1.37606e-17
6633.82837 1.37205e-17
6635.33092 1.36805e-17
6636.82345 1.36842e-17
6638.32600 1.36878e-17
6639.81854 1.37284e-17
6641.31107 1.37689e-17
6642.81362 1.37799e-17
6644.30615 1.37909e-17
6645.79868 1.37903e-17
6647.30123 1.37897e-17
6648.79377 1.37761e-17
6650.29632 1.37624e-17
6651.78885 1.36685e-17
6653.28138 1.35746e-17
6654.78393 1.35337e-17
6656.27647 1.34928e-17
6657.77902 1.34910e-17
6659.27155 1.34891e-17
6660.76408 1.34814e-17
6662.26663 1.34736e-17
6663.75917 1.35011e-17
6665.25170 1.35285e-17
6666.75425 1.35193e-17
6668.24678 1.35101e-17
6669.74933 1.34387e-17
6671.24186 1.33673e-17
6672.73440 1.33163e-17
6674.23695 1.32653e-17
6675.72948 1.32516e-17
6677.23203 1.32380e-17
6678.72456 1.31769e-17
6680.21710 1.31158e-17
6681.71965 1.30203e-17
6683.21218 1.29248e-17
6684.70471 1.28953e-17
6686.20726 1.28659e-17
6687.69980 1.28229e-17
6689.20235 1.27799e-17
6690.69488 1.27616e-17
6692.18741 1.27432e-17
6693.68996 1.27207e-17
6695.18249 1.26982e-17
6696.67503 1.26645e-17
6698.17758 1.26308e-17
6699.67011 1.26115e-17
6701.17266 1.25921e-17
6702.66519 1.25466e-17
6704.15773 1.25012e-17
6705.66028 1.24100e-17
6707.15281 1.23188e-17
6708.65536 1.22777e-17
6710.14789 1.22366e-17
6711.64043 1.22534e-17
6713.14298 1.22703e-17
6714.63551 1.22410e-17
6716.12804 1.22117e-17
6717.63059 1.22261e-17
6719.12312 1.22405e-17
6720.62567 1.23323e-17
6722.11821 1.24241e-17
6723.61074 1.24381e-17
6725.11329 1.24521e-17
6726.60582 1.24240e-17
6728.10837 1.23960e-17
6729.60091 1.23755e-17
6731.09344 1.23550e-17
6732.59599 1.23670e-17
6734.08852 1.23789e-17
6735.58105 1.23477e-17
6737.08360 1.23164e-17
6738.57614 1.23126e-17
6740.07869 1.23088e-17
6741.57122 1.23512e-17
6743.06375 1.23936e-17
6744.56630 1.24363e-17
6746.05884 1.24789e-17
6747.55137 1.25099e-17
6749.05392 1.25410e-17
6750.54645 1.25566e-17
6752.04900 1.25722e-17
6753.54154 1.25578e-17
6755.03407 1.25433e-17
6756.53662 1.25268e-17
6758.02915 1.25103e-17
6759.53170 1.25264e-17
6761.02424 1.25425e-17
6762.51677 1.25100e-17
6764.01932 1.24775e-17
6765.51185 1.24271e-17
6767.00438 1.23766e-17
6768.50693 1.23646e-17
6769.99947 1.23526e-17
6771.50202 1.23565e-17
6772.99455 1.23604e-17
6774.48708 1.24042e-17
6775.98963 1.24480e-17
6777.48217 1.25259e-17
6778.98472 1.26038e-17
6780.47725 1.25946e-17
6781.96978 1.25853e-17
6783.47233 1.25450e-17
6784.96486 1.25047e-17
6786.45740 1.24877e-17
6787.95995 1.24706e-17
6789.45248 1.24113e-17
6790.95503 1.23519e-17
6792.44756 1.23128e-17
6793.94010 1.22737e-17
6795.44265 1.22730e-17
6796.93518 1.22724e-17
6798.43773 1.22567e-17
6799.93026 1.22411e-17
6801.42280 1.22550e-17
6802.92535 1.22689e-17
6804.41788 1.22449e-17
6805.91041 1.22209e-17
6807.41296 1.22150e-17
6808.90550 1.22090e-17
6810.40805 1.22294e-17
6811.90058 1.22498e-17
6813.39311 1.22745e-17
6814.89566 1.22992e-17
6816.38819 1.22698e-17
6817.88073 1.22404e-17
6819.38328 1.22116e-17
6820.87581 1.21827e-17
6822.37836 1.20981e-17
6823.87089 1.20135e-17
6825.36343 1.19405e-17
6826.86598 1.18675e-17
6828.35851 1.18406e-17
6829.86106 1.18137e-17
6831.35359 1.18179e-17
6832.84613 1.18222e-17
6834.34868 1.18106e-17
6835.84121 1.17989e-17
6837.33374 1.17189e-17
6838.83629 1.16389e-17
6840.32882 1.16612e-17
6841.83137 1.16834e-17
6843.32391 1.17363e-17
6844.81644 1.17892e-17
6846.31899 1.17323e-17
6847.81152 1.16755e-17
6849.31407 1.17103e-17
6850.80661 1.17452e-17
6852.29914 1.17552e-17
6853.80169 1.17653e-17
6855.29422 1.17315e-17
6856.78676 1.16978e-17
6858.28931 1.16569e-17
6859.78184 1.16160e-17
6861.28439 1.17031e-17
6862.77692 1.17902e-17
6864.26945 1.17244e-17
6865.77200 1.16586e-17
6867.26454 1.13564e-17
6868.75707 1.10542e-17
6870.25962 1.08153e-17
6871.75215 1.05765e-17
6873.25470 1.06420e-17
6874.74724 1.07074e-17
6876.23977 1.08341e-17
6877.74232 1.09608e-17
6879.23485 1.09642e-17
6880.73740 1.09677e-17
6882.22994 1.10223e-17
6883.72247 1.10769e-17
6885.22502 1.10578e-17
6886.71755 1.10387e-17
6888.21008 1.09854e-17
6889.71263 1.09321e-17
6891.20517 1.08426e-17
6892.70772 1.07530e-17
6894.20025 1.07259e-17
6895.69278 1.06987e-17
6897.19533 1.07989e-17
6898.68787 1.08990e-17
6900.19042 1.08572e-17
6901.68295 1.08154e-17
6903.17548 1.07869e-17
6904.67803 1.07584e-17
6906.17057 1.08356e-17
6907.66310 1.09128e-17
6909.16565 1.09027e-17
6910.65818 1.08925e-17
6912.16073 1.08545e-17
6913.65326 1.08165e-17
6915.14580 1.08154e-17
6916.64835 1.08143e-17
6918.14088 1.08314e-17
6919.64343 1.08484e-17
6921.13596 1.09056e-17
6922.62850 1.09628e-17
6924.13105 1.09475e-17
6925.62358 1.09322e-17
6927.11611 1.09473e-17
6928.61866 1.09624e-17
6930.11120 1.10189e-17
6931.61375 1.10754e-17
6933.10628 1.10419e-17
6934.59881 1.10083e-17
6936.10136 1.09049e-17
6937.59389 1.08015e-17
6939.08643 1.07727e-17
6940.58898 1.07439e-17
6942.08151 1.07487e-17
6943.58406 1.07535e-17
6945.07659 1.07563e-17
6946.56913 1.07591e-17
6948.07168 1.07597e-17
6949.56421 1.07604e-17
6951.06676 1.07322e-17
6952.55929 1.07041e-17
6954.05183 1.06412e-17
6955.55438 1.05784e-17
6957.04691 1.05466e-17
6958.53944 1.05148e-17
6960.04199 1.05534e-17
6961.53452 1.05920e-17
6963.03707 1.06123e-17
6964.52961 1.06326e-17
6966.02214 1.06374e-17
6967.52469 1.06423e-17
6969.01722 1.06439e-17
6970.51977 1.06454e-17
6972.01231 1.05989e-17
6973.50484 1.05525e-17
6975.00739 1.05193e-17
6976.49992 1.04862e-17
6977.99245 1.04648e-17
6979.49500 1.04434e-17
6980.98754 1.03980e-17
6982.49009 1.03525e-17
6983.98262 1.02875e-17
6985.47515 1.02225e-17
6986.97770 1.01524e-17
6988.47024 1.00823e-17
6989.96277 1.00818e-17
6991.46532 1.00813e-17
6992.95785 1.01675e-17
6994.46040 1.02537e-17
6995.95294 1.03327e-17
6997.44547 1.04118e-17
6998.94802 1.04286e-17
7000.44055 1.04454e-17
7001.94310 1.04523e-17
7003.43564 1.04592e-17
7004.92817 1.05654e-17
7006.43072 1.06716e-17
7007.92325 1.07677e-17
7009.41578 1.08637e-17
7010.91833 1.08634e-17
7012.41087 1.08631e-17
7013.91342 1.08891e-17
7015.40595 1.09151e-17
7016.89848 1.10146e-17
7018.40103 1.11141e-17
7019.89357 1.11230e-17
7021.39612 1.11319e-17
7022.88865 1.10898e-17
7024.38118 1.10477e-17
7025.88373 1.10353e-17
7027.37626 1.10229e-17
7028.86880 1.10305e-17
7030.37135 1.10381e-17
7031.86388 1.11199e-17
7033.36643 1.12017e-17
7034.85896 1.13143e-17
7036.35150 1.14269e-17
7037.85405 1.14622e-17
7039.34658 1.14975e-17
7040.84913 1.14914e-17
7042.34166 1.14853e-17
7043.83420 1.14467e-17
7045.33675 1.14082e-17
7046.82928 1.13939e-17
7048.32181 1.13795e-17
7049.82436 1.14027e-17
7051.31690 1.14258e-17
7052.81945 1.14059e-17
7054.31198 1.13859e-17
7055.80451 1.13479e-17
7057.30706 1.13099e-17
7058.79959 1.12924e-17
7060.29213 1.12749e-17
7061.79468 1.12642e-17
7063.28721 1.12535e-17
7064.78976 1.12429e-17
7066.28229 1.12324e-17
7067.77483 1.12574e-17
7069.27738 1.12825e-17
7070.76991 1.13200e-17
7072.27246 1.13575e-17
7073.76499 1.13682e-17
7075.25752 1.13790e-17
7076.76008 1.13887e-17
7078.25261 1.13985e-17
7079.74514 1.13883e-17
7081.24769 1.13781e-17
7082.74022 1.13432e-17
7084.24277 1.13082e-17
7085.73531 1.12525e-17
7087.22784 1.11968e-17
7088.73039 1.11517e-17
7090.22292 1.11066e-17
7091.72547 1.10950e-17
7093.21801 1.10834e-17
7094.71054 1.10650e-17
7096.21309 1.10466e-17
7097.70562 1.10052e-17
7099.19816 1.09639e-17
7100.70071 1.10013e-17
7102.19324 1.10388e-17
7103.69579 1.10779e-17
7105.18832 1.11169e-17
7106.68085 1.10960e-17
7108.18340 1.10750e-17
7109.67594 1.11146e-17
7111.16847 1.11541e-17
7112.67102 1.12061e-17
7114.16355 1.12582e-17
7115.66610 1.12554e-17
7117.15864 1.12527e-17
7118.65117 1.12609e-17
7120.15372 1.12690e-17
7121.64625 1.12623e-17
7123.14880 1.12555e-17
7124.64134 1.12439e-17
7126.13387 1.12323e-17
7127.63642 1.12095e-17
7129.12895 1.11867e-17
7130.62148 1.11690e-17
7132.12403 1.11513e-17
7133.61657 1.11574e-17
7135.11912 1.11636e-17
7136.61165 1.11535e-17
7138.10418 1.11435e-17
7139.60673 1.11643e-17
7141.09927 1.11851e-17
7142.60182 1.12170e-17
7144.09435 1.12489e-17
7145.58688 1.12558e-17
7147.08943 1.12627e-17
7148.58197 1.13114e-17
7150.07450 1.13600e-17
7151.57705 1.14150e-17
7153.06958 1.14700e-17
7154.57213 1.14437e-17
7156.06466 1.14174e-17
7157.55720 1.14015e-17
7159.05975 1.13855e-17
7160.55228 1.14329e-17
7162.04481 1.14803e-17
7163.54736 1.14246e-17
7165.03990 1.13690e-17
7166.54245 1.14148e-17
7168.03498 1.14605e-17
7169.52751 1.14946e-17
7171.03006 1.15287e-17
7172.52260 1.14681e-17
7174.02515 1.14075e-17
7175.51768 1.13810e-17
7177.01021 1.13545e-17
7178.51276 1.14238e-17
7180.00529 1.14931e-17
7181.49783 1.15661e-17
7183.00038 1.16390e-17
7184.49291 1.16154e-17
7185.99546 1.15919e-17
7187.48799 1.15057e-17
7188.98053 1.14195e-17
7190.48308 1.13073e-17
7191.97561 1.11952e-17
7193.47816 1.11147e-17
7194.97069 1.10342e-17
7196.46323 1.10503e-17
7197.96578 1.10665e-17
7199.45831 1.09390e-17
7200.95084 1.08115e-17
7202.45339 1.06752e-17
7203.94592 1.05389e-17
7205.44847 1.06037e-17
7206.94101 1.06684e-17
7208.43354 1.08236e-17
7209.93609 1.09787e-17
7211.42862 1.10649e-17
7212.92116 1.11511e-17
7214.42371 1.12822e-17
7215.91624 1.14134e-17
7217.41879 1.16030e-17
7218.91132 1.17925e-17
7220.40385 1.18929e-17
7221.90640 1.19933e-17
7223.39894 1.20316e-17
7224.90149 1.20700e-17
7226.39402 1.21876e-17
7227.88655 1.23051e-17
7229.38910 1.22489e-17
7230.88164 1.21927e-17
7232.37417 1.18455e-17
7233.87672 1.14983e-17
7235.36925 1.13967e-17
7236.87180 1.12952e-17
7238.36434 1.13822e-17
7239.85687 1.14691e-17
7241.35942 1.15702e-17
7242.85195 1.16714e-17
7244.35450 1.18161e-17
7245.84704 1.19608e-17
7247.33957 1.20839e-17
7248.84212 1.22070e-17
7250.33465 1.22361e-17
7251.82718 1.22652e-17
7253.32973 1.21799e-17
7254.82227 1.20946e-17
7256.32482 1.20885e-17
7257.81735 1.20824e-17
7259.30988 1.21522e-17
7260.81243 1.22220e-17
7262.30497 1.21611e-17
7263.80752 1.21001e-17
7265.30005 1.20454e-17
7266.79258 1.19907e-17
7268.29513 1.19802e-17
7269.78766 1.19696e-17
7271.28020 1.18331e-17
7272.78275 1.16967e-17
7274.27528 1.15931e-17
7275.77783 1.14896e-17
7277.27036 1.16073e-17
7278.76290 1.17250e-17
7280.26545 1.18435e-17
7281.75798 1.19619e-17
7283.25051 1.20696e-17
7284.75306 1.21774e-17
7286.24560 1.20941e-17
7287.74815 1.20108e-17
7289.24068 1.18717e-17
7290.73321 1.17327e-17
7292.23576 1.17554e-17
7293.72830 1.17780e-17
7295.23085 1.18852e-17
7296.72338 1.19924e-17
7298.21591 1.20816e-17
7299.71846 1.21708e-17
7301.21099 1.20770e-17
7302.70353 1.19832e-17
7304.20608 1.18709e-17
7305.69861 1.17586e-17
7307.20116 1.17146e-17
7308.69369 1.16706e-17
7310.18623 1.15533e-17
7311.68878 1.14359e-17
7313.18131 1.14174e-17
7314.68386 1.13990e-17
7316.17639 1.14291e-17
7317.66892 1.14591e-17
7319.17148 1.13022e-17
7320.66401 1.11453e-17
7322.15654 1.10672e-17
7323.65909 1.09891e-17
7325.15162 1.09885e-17
7326.65417 1.09878e-17
7328.14671 1.09588e-17
7329.63924 1.09297e-17
7331.14179 1.09413e-17
7332.63432 1.09529e-17
7334.12686 1.09611e-17
7335.62941 1.09694e-17
7337.12194 1.10026e-17
7338.62449 1.10359e-17
7340.11702 1.10710e-17
7341.60956 1.11062e-17
7343.11211 1.10779e-17
7344.60464 1.10496e-17
7346.10719 1.10472e-17
7347.59972 1.10447e-17
7349.09225 1.10483e-17
7350.59480 1.10518e-17
7352.08734 1.10403e-17
7353.57987 1.10289e-17
7355.08242 1.10181e-17
7356.57495 1.10073e-17
7358.07750 1.09691e-17
7359.57004 1.09310e-17
7361.06257 1.08751e-17
7362.56512 1.08193e-17
7364.05765 1.07749e-17
7365.56020 1.07305e-17
7367.05274 1.07635e-17
7368.54527 1.07964e-17
7370.04782 1.08863e-17
7371.54035 1.09762e-17
7373.03288 1.09935e-17
7374.53543 1.10109e-17
7376.02797 1.10214e-17
7377.53052 1.10319e-17
7379.02305 1.10615e-17
7380.51558 1.10910e-17
7382.01813 1.11709e-17
7383.51067 1.12507e-17
7385.01322 1.13078e-17
7386.50575 1.13648e-17
7387.99828 1.13635e-17
7389.50083 1.13622e-17
7390.99337 1.13213e-17
7392.48590 1.12804e-17
7393.98845 1.13156e-17
7395.48098 1.13508e-17
7396.98353 1.14000e-17
7398.47606 1.14492e-17
7399.96860 1.14058e-17
7401.47115 1.13624e-17
7402.96368 1.13123e-17
7404.46623 1.12622e-17
7405.95876 1.12716e-17
7407.45130 1.12810e-17
7408.95385 1.13046e-17
7410.44638 1.13282e-17
7411.93891 1.12985e-17
7413.44146 1.12688e-17
7414.93400 1.12444e-17
7416.43655 1.12201e-17
7417.92908 1.11996e-17
7419.42161 1.11791e-17
7420.92416 1.12233e-17
7422.41669 1.12675e-17
7423.90923 1.13566e-17
7425.41178 1.14457e-17
7426.90431 1.15024e-17
7428.40686 1.15591e-17
7429.89939 1.15341e-17
7431.39193 1.15092e-17
7432.89448 1.14687e-17
7434.38701 1.14282e-17
7435.88956 1.14375e-17
7437.38209 1.14467e-17
7438.87463 1.13744e-17
7440.37718 1.13020e-17
7441.86971 1.11935e-17
7443.36224 1.10850e-17
7444.86479 1.11457e-17
7446.35732 1.12063e-17
7447.85987 1.12240e-17
7449.35241 1.12416e-17
7450.84494 1.12038e-17
7452.34749 1.11660e-17
7453.84002 1.11956e-17
7455.34257 1.12253e-17
7456.83511 1.12221e-17
7458.32764 1.12190e-17
7459.83019 1.12117e-17
7461.32272 1.12045e-17
7462.81525 1.12475e-17
7464.31780 1.12905e-17
7465.81034 1.13389e-17
7467.31289 1.13874e-17
7468.80542 1.14073e-17
7470.29795 1.14272e-17
7471.80050 1.14337e-17
7473.29304 1.14401e-17
7474.78557 1.14215e-17
7476.28812 1.14029e-17
7477.78065 1.13343e-17
7479.28320 1.12657e-17
7480.77574 1.12080e-17
7482.26827 1.11503e-17
7483.77082 1.11272e-17
7485.26335 1.11040e-17
7486.76590 1.10531e-17
7488.25844 1.10022e-17
7489.75097 1.09382e-17
7491.25352 1.08742e-17
7492.74605 1.08354e-17
7494.23858 1.07966e-17
7495.74113 1.07450e-17
7497.23367 1.06935e-17
7498.73622 1.06639e-17
7500.22875 1.06344e-17
7501.72128 1.06092e-17
7503.22383 1.05841e-17
7504.71637 1.05720e-17
7506.21892 1.05599e-17
7507.71145 1.05716e-17
7509.20398 1.05832e-17
7510.70653 1.05043e-17
7512.19906 1.04254e-17
7513.69160 1.03447e-17
7515.19415 1.02640e-17
7516.68668 1.02241e-17
7518.18923 1.01841e-17
7519.68176 1.00722e-17
7521.17430 9.96041e-18
7522.67685 9.85557e-18
7524.16938 9.75073e-18
7525.66191 9.63327e-18
7527.16446 9.51583e-18
7528.65700 9.39469e-18
7530.15955 9.27356e-18
7531.65208 9.18130e-18
7533.14461 9.08903e-18
7534.64716 8.98585e-18
7536.13970 8.88267e-18
7537.64225 8.81150e-18
7539.13478 8.74034e-18
7540.62731 8.67109e-18
7542.12986 8.60185e-18
7543.62239 8.49748e-18
7545.11493 8.39313e-18
7546.61748 8.36741e-18
7548.11001 8.34170e-18
7549.61256 8.26609e-18
7551.10509 8.19048e-18
7552.59763 8.03452e-18
7554.10018 7.87857e-18
7555.59271 7.75335e-18
7557.09526 7.62815e-18
7558.58779 7.50011e-18
7560.08032 7.37208e-18
7561.58288 7.23647e-18
7563.07541 7.10088e-18
7564.56794 7.00442e-18
7566.07049 6.90797e-18
7567.56302 6.76846e-18
7569.06557 6.62896e-18
7570.55811 6.47999e-18
7572.05064 6.33103e-18
7573.55319 6.26435e-18
7575.04572 6.19768e-18
7576.53826 6.13813e-18
7578.04081 6.07859e-18
7579.53334 6.13193e-18
7581.03589 6.18526e-18
7582.52842 6.32090e-18
7584.02095 6.45651e-18
7585.52351 6.41229e-18
7587.01604 6.36808e-18
7588.51859 6.40153e-18
7590.01112 6.43497e-18
7591.50365 6.39900e-18
7593.00620 6.36302e-18
7594.49874 6.07174e-18
7595.99127 5.78047e-18
7597.49382 5.39333e-18
7598.98635 5.00622e-18
7600.48890 4.69426e-18
7601.98144 4.38233e-18
7603.47397 4.13284e-18
7604.97652 3.88337e-18
7606.46905 3.61423e-18
7607.97160 3.34513e-18
7609.46414 3.32204e-18
7610.95667 3.29897e-18
7612.45922 3.60202e-18
7613.95175 3.90506e-18
7615.44428 4.32012e-18
7616.94683 4.73516e-18
7618.43937 5.12970e-18
7619.94192 5.52418e-18
7621.43445 5.58192e-18
7622.92698 5.63964e-18
7624.42953 5.57141e-18
7625.92207 5.50319e-18
7627.41460 5.52632e-18
7628.91715 5.54946e-18
7630.40968 5.70143e-18
7631.91223 5.85338e-18
7633.40477 5.97130e-18
7634.89730 6.08921e-18
7636.39985 6.12628e-18
7637.89238 6.16335e-18
7639.39493 6.15535e-18
7640.88746 6.14734e-18
7642.38000 6.00030e-18
7643.88255 5.85328e-18
7645.37508 5.73255e-18
7646.86761 5.61185e-18
7648.37016 5.83945e-18
7649.86270 6.06704e-18
7651.36525 6.39290e-18
7652.85778 6.71872e-18
7654.35031 6.88475e-18
7655.85286 7.05077e-18
7657.34540 7.30835e-18
7658.84795 7.56592e-18
7660.34048 7.91693e-18
7661.83301 8.26791e-18
7663.33556 8.52650e-18
7664.82809 8.78508e-18
7666.32063 9.10909e-18
7667.82318 9.43305e-18
7669.31571 9.60450e-18
7670.81826 9.77592e-18
7672.31079 9.72365e-18
7673.80333 9.67140e-18
7675.30588 9.84320e-18
7676.79841 1.00150e-17
7678.30096 1.03166e-17
7679.79349 1.06181e-17
7681.28603 1.06015e-17
7682.78858 1.05850e-17
7684.28111 1.03821e-17
7685.77364 1.01793e-17
7687.27619 1.01094e-17
7688.76872 1.00395e-17
7690.27127 1.01325e-17
7691.76381 1.02254e-17
7693.25634 1.02943e-17
7694.75889 1.03632e-17
7696.25142 1.04123e-17
7697.74396 1.04615e-17
7699.24651 1.04765e-17
7700.73904 1.04915e-17
7702.24159 1.05387e-17
7703.73412 1.05859e-17
7705.22665 1.06707e-17
7706.72920 1.07554e-17
7708.22174 1.08465e-17
7709.72429 1.09375e-17
7711.21682 1.10315e-17
7712.70935 1.11255e-17
7714.21190 1.12300e-17
7715.70444 1.13346e-17
7717.19697 1.14143e-17
7718.69952 1.14940e-17
7720.19205 1.15000e-17
7721.69460 1.15061e-17
7723.18714 1.15441e-17
7724.67967 1.15820e-17
7726.18222 1.15785e-17
7727.67475 1.15750e-17
7729.17730 1.15979e-17
7730.66984 1.16208e-17
7732.16237 1.16302e-17
7733.66492 1.16397e-17
7735.15745 1.16020e-17
7736.64998 1.15644e-17
7738.15253 1.14958e-17
7739.64507 1.14273e-17
7741.14762 1.14010e-17
7742.64015 1.13748e-17
7744.13268 1.13935e-17
7745.63523 1.14122e-17
7747.12777 1.13611e-17
7748.62030 1.13099e-17
7750.12285 1.12777e-17
7751.61538 1.12455e-17
7753.11793 1.12567e-17
7754.61046 1.12679e-17
7756.10300 1.12402e-17
7757.60555 1.12125e-17
7759.09808 1.12291e-17
7760.60063 1.12457e-17
7762.09316 1.12727e-17
7763.58570 1.12997e-17
7765.08825 1.13339e-17
7766.58078 1.13680e-17
7768.08333 1.13899e-17
7769.57586 1.14118e-17
7771.06840 1.13725e-17
7772.57095 1.13332e-17
7774.06348 1.12766e-17
7775.55601 1.12199e-17
7777.05856 1.12012e-17
7778.55110 1.11825e-17
7780.05365 1.12057e-17
7781.54618 1.12289e-17
7783.03871 1.12695e-17
7784.54126 1.13100e-17
7786.03379 1.12976e-17
7787.52633 1.12851e-17
7789.02888 1.12602e-17
7790.52141 1.12352e-17
7792.02396 1.12717e-17
7793.51649 1.13081e-17
7795.00903 1.13917e-17
7796.51158 1.14753e-17
7798.00411 1.15377e-17
7799.50666 1.16002e-17
7800.99919 1.16411e-17
7802.49172 1.16821e-17
7803.99428 1.17169e-17
7805.48681 1.17517e-17
7806.97934 1.17846e-17
7808.48189 1.18175e-17
7809.97442 1.18740e-17
7811.47697 1.19305e-17
7812.96951 1.18982e-17
7814.46204 1.18658e-17
7815.96459 1.17171e-17
7817.45712 1.15685e-17
7818.95967 1.15183e-17
7820.45221 1.14682e-17
7821.94474 1.14557e-17
7823.44729 1.14431e-17
7824.93982 1.14039e-17
7826.43235 1.13647e-17
7827.93491 1.13023e-17
7829.42744 1.12399e-17
7830.92999 1.12267e-17
7832.42252 1.12136e-17
7833.91505 1.12548e-17
7835.41760 1.12959e-17
7836.91014 1.13185e-17
7838.40267 1.13410e-17
7839.90522 1.13571e-17
7841.39775 1.13733e-17
7842.90030 1.13723e-17
7844.39284 1.13714e-17
7845.88537 1.13814e-17
7847.38792 1.13914e-17
7848.88045 1.14622e-17
7850.38300 1.15330e-17
7851.87554 1.15420e-17
7853.36807 1.15510e-17
7854.87062 1.15847e-17
7856.36315 1.16184e-17
7857.85568 1.15812e-17
7859.35823 1.15439e-17
7860.85077 1.14450e-17
7862.35332 1.13461e-17
7863.84585 1.12978e-17
7865.33838 1.12495e-17
7866.84093 1.11982e-17
7868.33347 1.11470e-17
7869.83602 1.10996e-17
7871.32855 1.10522e-17
7872.82108 1.10319e-17
7874.32363 1.10117e-17
7875.81617 1.09863e-17
7877.30870 1.09609e-17
7878.81125 1.09410e-17
7880.30378 1.09210e-17
7881.80633 1.08594e-17
7883.29886 1.07978e-17
7884.79140 1.07926e-17
7886.29395 1.07874e-17
7887.78648 1.08103e-17
7889.27901 1.08331e-17
7890.78156 1.07815e-17
7892.27410 1.07300e-17
7893.77665 1.07098e-17
7895.26918 1.06896e-17
7896.76171 1.07311e-17
7898.26426 1.07727e-17
7899.75680 1.07775e-17
7901.25935 1.07823e-17
7902.75188 1.06550e-17
7904.24441 1.05278e-17
7905.74696 1.04513e-17
7907.23949 1.03748e-17
7908.73203 1.04355e-17
7910.23458 1.04962e-17
7911.72711 1.05123e-17
7913.22966 1.05284e-17
7914.72219 1.05335e-17
7916.21473 1.05386e-17
7917.71728 1.04339e-17
7919.20981 1.03292e-17
7920.71236 1.02210e-17
7922.20489 1.01128e-17
7923.69743 1.01025e-17
7925.19998 1.00923e-17
7926.69251 1.00850e-17
7928.18504 1.00778e-17
7929.68759 1.00536e-17
7931.18012 1.00294e-17
7932.68267 1.00366e-17
7934.17521 1.00437e-17
7935.66774 1.00447e-17
7937.17029 1.00457e-17
7938.66282 1.00057e-17
7940.15536 9.96577e-18
7941.65791 9.91636e-18
7943.15044 9.86695e-18
7944.65299 9.87974e-18
7946.14552 9.89254e-18
7947.63806 9.90635e-18
7949.14060 9.92016e-18
7950.63314 9.86408e-18
7952.13569 9.80802e-18
7953.62822 9.84561e-18
7955.12075 9.88319e-18
7956.62330 9.85534e-18
7958.11584 9.82749e-18
7959.60837 9.73437e-18
7961.11092 9.64126e-18
7962.60345 9.62848e-18
7964.10600 9.61571e-18
7965.59854 9.68242e-18
7967.09107 9.74913e-18
7968.59362 9.77526e-18
7970.08615 9.80137e-18
7971.58870 9.75828e-18
7973.08124 9.71519e-18
7974.57377 9.66671e-18
7976.07632 9.61823e-18
7977.56885 9.58460e-18
7979.06138 9.55098e-18
7980.56393 9.54274e-18
7982.05647 9.53449e-18
7983.55902 9.48771e-18
7985.05155 9.44094e-18
7986.54408 9.37360e-18
7988.04663 9.30626e-18
7989.53917 9.32190e-18
7991.03170 9.33753e-18
7992.53425 9.33994e-18
7994.02678 9.34234e-18
7995.52933 9.27135e-18
7997.02186 9.20037e-18
7998.51440 9.16154e-18
8000.01695 9.12272e-18
8001.50948 9.15874e-18
8003.01203 9.19476e-18
8004.50456 9.20389e-18
8005.99710 9.21301e-18
8007.49965 9.22975e-18
8008.99218 9.24649e-18
8010.48471 9.29537e-18
8011.98726 9.34423e-18
8013.47980 9.30734e-18
8014.98235 9.27046e-18
8016.47488 9.24551e-18
8017.96741 9.22056e-18
8019.46996 9.13899e-18
8020.96250 9.05743e-18
8022.46505 9.03525e-18
8023.95758 9.01308e-18
8025.45011 9.01829e-18
8026.95266 9.02350e-18
8028.44519 8.96764e-18
8029.93773 8.91179e-18
8031.44028 8.83466e-18
8032.93281 8.75755e-18
8034.43536 8.72409e-18
8035.92789 8.69064e-18
8037.42043 8.68958e-18
8038.92298 8.68851e-18
8040.41551 8.65053e-18
8041.90804 8.61255e-18
8043.41059 8.57282e-18
8044.90313 8.53309e-18
8046.40567 8.53132e-18
8047.89821 8.52955e-18
8049.39074 8.53608e-18
8050.89329 8.54260e-18
8052.38582 8.52514e-18
8053.88837 8.50768e-18
8055.38091 8.49734e-18
8056.87344 8.48700e-18
8058.37599 8.49872e-18
8059.86852 8.51044e-18
8061.36106 8.55210e-18
8062.86361 8.59375e-18
8064.35614 8.61865e-18
8065.85869 8.64354e-18
8067.35122 8.58934e-18
8068.84375 8.53513e-18
8070.34631 8.42287e-18
8071.83884 8.31062e-18
8073.34139 8.22968e-18
8074.83392 8.14876e-18
8076.32645 8.13867e-18
8077.82900 8.12858e-18
8079.32154 8.01810e-18
8080.81407 7.90763e-18
8082.31662 7.73765e-18
8083.80915 7.56769e-18
8085.31170 7.49742e-18
8086.80424 7.42716e-18
8088.29677 7.34498e-18
8089.79932 7.26280e-18
8091.29185 7.07735e-18
8092.79440 6.89193e-18
8094.28694 6.75044e-18
8095.77947 6.60898e-18
8097.28202 6.53599e-18
8098.77455 6.46299e-18
8100.26708 6.33341e-18
8101.76963 6.20383e-18
8103.26217 6.05301e-18
8104.76472 5.90220e-18
8106.25725 5.78717e-18
8107.74978 5.67215e-18
8109.25233 5.55276e-18
8110.74487 5.43339e-18
8112.23740 5.28767e-18
8113.73995 5.14197e-18
8115.23248 5.00518e-18
8116.73503 4.86841e-18
8118.22757 4.73266e-18
8119.72010 4.59691e-18
8121.22265 4.41765e-18
8122.71518 4.23841e-18
8124.21773 4.05387e-18
8125.71026 3.86936e-18
8127.20280 3.73811e-18
8128.70535 3.60688e-18
8130.19788 3.47473e-18
8131.69041 3.34260e-18
8133.19296 3.21523e-18
8134.68550 3.08788e-18
8136.18805 3.01106e-18
8137.68058 2.93425e-18
8139.17311 2.81542e-18
8140.67566 2.69659e-18
8142.16820 2.58160e-18
8143.67075 2.46661e-18
8145.16328 2.41793e-18
8146.65581 2.36924e-18
8148.15836 2.31642e-18
8149.65089 2.26359e-18
8151.14343 2.15284e-18
8152.64598 2.04210e-18
8154.13851 1.97941e-18
8155.64106 1.91673e-18
8157.13359 1.85745e-18
8158.62613 1.79818e-18
8160.12868 1.68779e-18
8161.62121 1.57742e-18
8163.11374 1.53744e-18
8164.61629 1.49746e-18
8166.10883 1.48781e-18
8167.61138 1.47815e-18
8169.10391 1.44640e-18
8170.59644 1.41464e-18
8172.09899 1.36063e-18
8173.59152 1.30663e-18
8175.09407 1.23252e-18
8176.58661 1.15842e-18
8178.07914 1.10801e-18
8179.58169 1.05762e-18
8181.07422 1.05692e-18
8182.57677 1.05622e-18
8184.06931 1.08550e-18
8185.56184 1.11477e-18
8187.06439 1.11231e-18
8188.55692 1.10985e-18
8190.04946 1.07969e-18
8191.55200 1.04954e-18
8193.04454 1.04230e-18
8194.53707 1.03506e-18
8196.03962 1.03051e-18
8197.53215 1.02596e-18
8199.03470 1.04866e-18
8200.52724 1.07136e-18
8202.01977 1.11514e-18
8203.52232 1.15892e-18
8205.01485 1.16849e-18
8206.51740 1.17807e-18
8208.00994 1.18285e-18
8209.50247 1.18763e-18
8211.00502 1.13906e-18
8212.49755 1.09050e-18
8214.00010 1.04353e-18
8215.49263 9.96574e-19
8216.98517 9.71179e-19
8218.48772 9.45786e-19
8219.98025 9.16002e-19
8221.47278 8.86221e-19
8222.97533 8.69180e-19
8224.46787 8.52137e-19
8225.97042 7.99639e-19
8227.46295 7.47148e-19
8228.95548 7.25543e-19
8230.45803 7.03947e-19
8231.95057 7.67166e-19
8233.44310 8.30379e-19
8234.94565 8.67666e-19
8236.43818 9.04952e-19
8237.94073 9.66513e-19
8239.43327 1.02807e-18
8240.92580 1.05611e-18
8242.42835 1.08416e-18
8243.92088 1.07617e-18
8245.41341 1.06818e-18
8246.91596 1.08818e-18
8248.40850 1.10817e-18
8249.91105 1.09947e-18
8251.40358 1.09078e-18
8252.89611 1.07182e-18
8254.39866 1.05287e-18
8255.89120 1.09344e-18
8257.39375 1.13401e-18
8258.88628 1.13891e-18
8260.37881 1.14381e-18
8261.88136 1.11752e-18
8263.37390 1.09122e-18
8264.87644 1.11399e-18
8266.36898 1.13675e-18
8267.86151 1.14926e-18
8269.36406 1.16177e-18
8270.85659 1.09015e-18
8272.34913 1.01854e-18
8273.85168 9.89662e-19
8275.34421 9.60795e-19
8276.84676 9.72775e-19
8278.33929 9.84754e-19
8279.83183 9.89760e-19
8281.33438 9.94766e-19
8282.82691 1.00117e-18
8284.31944 1.00757e-18
8285.82199 1.02602e-18
8287.31452 1.04448e-18
8288.81708 1.08378e-18
8290.30961 1.12307e-18
8291.80214 1.14175e-18
8293.30469 1.16042e-18
8294.79722 1.21650e-18
8296.28976 1.27257e-18
8297.79231 1.31619e-18
8299.28484 1.35981e-18
8300.78739 1.36143e-18
8302.27992 1.36307e-18
8303.77246 1.41822e-18
8305.27501 1.47337e-18
8306.76754 1.52460e-18
8308.27009 1.57582e-18
8309.76262 1.53641e-18
8311.25516 1.49700e-18
8312.75770 1.49831e-18
8314.25024 1.49962e-18
8315.75279 1.51322e-18
8317.24532 1.52682e-18
8318.73785 1.46252e-18
8320.24040 1.39824e-18
8321.73294 1.39636e-18
8323.22547 1.39448e-18
8324.72802 1.39232e-18
8326.22055 1.39015e-18
8327.72310 1.42185e-18
8329.21564 1.45354e-18
8330.70817 1.54229e-18
8332.21072 1.63103e-18
8333.70325 1.69424e-18
8335.19578 1.75745e-18
8336.69833 1.79629e-18
8338.19087 1.83512e-18
8339.69342 1.86191e-18
8341.18595 1.88870e-18
8342.67848 1.94417e-18
8344.18103 1.99964e-18
8345.67357 2.08055e-18
8347.16610 2.16145e-18
8348.66865 2.18956e-18
8350.16118 2.21766e-18
8351.66373 2.21711e-18
8353.15627 2.21657e-18
8354.64880 2.22456e-18
8356.15135 2.23256e-18
8357.64388 2.26060e-18
8359.14643 2.28863e-18
8360.63897 2.28416e-18
8362.13150 2.27970e-18
8363.63405 2.24483e-18
8365.12658 2.20997e-18
8366.62913 2.17651e-18
8368.12166 2.14306e-18
8369.61420 2.18491e-18
8371.11675 2.22676e-18
8372.60928 2.29380e-18
8374.10181 2.36083e-18
8375.60436 2.40733e-18
8377.09690 2.45382e-18
8378.59945 2.53132e-18
8380.09198 2.60882e-18
8381.58451 2.68025e-18
8383.08706 2.75167e-18
8384.57960 2.81832e-18
8386.07213 2.88497e-18
8387.57468 2.93784e-18
8389.06721 2.99071e-18
8390.56976 3.06393e-18
8392.06229 3.13715e-18
8393.55483 3.23211e-18
8395.05738 3.32706e-18
8396.54991 3.38574e-18
8398.05246 3.44443e-18
8399.54499 3.50956e-18
8401.03753 3.57468e-18
8402.54008 3.65258e-18
8404.03261 3.73046e-18
8405.52514 3.73362e-18
8407.02769 3.73678e-18
8408.52023 3.72916e-18
8410.02277 3.72154e-18
8411.51531 3.75827e-18
8413.00784 3.79500e-18
8414.51039 3.81612e-18
8416.00292 3.83725e-18
8417.50547 3.88924e-18
8418.99801 3.94123e-18
8420.49054 3.99762e-18
8421.99309 4.05399e-18
8423.48562 4.08806e-18
8424.97816 4.12212e-18
8426.48071 4.16516e-18
8427.97324 4.20822e-18
8429.47579 4.31128e-18
8430.96832 4.41435e-18
8432.46085 4.54597e-18
8433.96341 4.67758e-18
8435.45594 4.79536e-18
8436.94847 4.91313e-18
8438.45102 5.04274e-18
8439.94355 5.17234e-18
8441.44610 5.27117e-18
8442.93864 5.37000e-18
8444.43117 5.41077e-18
8445.93372 5.45153e-18
8447.42625 5.49703e-18
8448.92880 5.54254e-18
8450.42134 5.61610e-18
8451.91387 5.68966e-18
8453.41642 5.77471e-18
8454.90895 5.85976e-18
8456.40149 5.86748e-18
8457.90403 5.87520e-18
8459.39657 5.88715e-18
8460.89912 5.89910e-18
8462.39165 5.94868e-18
8463.88418 5.99826e-18
8465.38673 6.07197e-18
8466.87927 6.14567e-18
8468.38182 6.24768e-18
8469.87435 6.34969e-18
8471.36688 6.47023e-18
8472.86943 6.59076e-18
8474.36197 6.73738e-18
8475.85450 6.88399e-18
8477.35705 6.98885e-18
8478.84958 7.09372e-18
8480.35213 7.32670e-18
8481.84467 7.55967e-18
8483.33720 7.79569e-18
8484.83975 8.03167e-18
8486.33228 8.11346e-18
8487.82481 8.19523e-18
8489.32736 8.26798e-18
8490.81990 8.34073e-18
8492.32245 8.45166e-18
8493.81498 8.56258e-18
8495.30751 8.68295e-18
8496.81006 8.80330e-18
8498.30260 8.87586e-18
8499.80515 8.94840e-18
8501.29768 8.93779e-18
8502.79021 8.92719e-18
8504.29276 9.00131e-18
8505.78530 9.07542e-18
8507.27783 9.15190e-18
8508.78038 9.22838e-18
8510.27291 9.30711e-18
8511.77546 9.38584e-18
8513.26799 9.51086e-18
8514.76053 9.63587e-18
8516.26308 9.79256e-18
8517.75561 9.94925e-18
8519.25816 1.01440e-17
8520.75069 1.03388e-17
8522.24323 1.05783e-17
8523.74578 1.08178e-17
8525.23831 1.10207e-17
8526.73084 1.12237e-17
8528.23339 1.12532e-17
8529.72593 1.12827e-17
8531.22847 1.14603e-17
8532.72101 1.16380e-17
8534.21354 1.19189e-17
8535.71609 1.21999e-17
8537.20862 1.21888e-17
8538.70116 1.21778e-17
8540.20371 1.23669e-17
8541.69624 1.25560e-17
8543.19879 1.26008e-17
8544.69132 1.26456e-17
8546.18386 1.25928e-17
8547.68641 1.25401e-17
8549.17894 1.25265e-17
8550.68149 1.25130e-17
8552.17402 1.24930e-17
8553.66655 1.24730e-17
8555.16910 1.25493e-17
8556.66164 1.26257e-17
8558.15417 1.27652e-17
8559.65672 1.29047e-17
8561.14925 1.29671e-17
8562.65180 1.30295e-17
8564.14434 1.30995e-17
8565.63687 1.31696e-17
8567.13942 1.33648e-17
8568.63195 1.35599e-17
8570.13450 1.37734e-17
8571.62704 1.39869e-17
8573.11957 1.42238e-17
8574.62212 1.44608e-17
8576.11465 1.48489e-17
8577.61720 1.52370e-17
8579.10974 1.53755e-17
8580.60227 1.55139e-17
8582.10482 1.50309e-17
8583.59735 1.45479e-17
8585.08988 1.44861e-17
8586.59243 1.44244e-17
8588.08497 1.46047e-17
8589.58752 1.47850e-17
8591.08005 1.46331e-17
8592.57258 1.44813e-17
8594.07513 1.49189e-17
8595.56767 1.53564e-17
8597.06020 1.54005e-17
8598.56275 1.54446e-17
8600.05528 1.52717e-17
8601.55783 1.50989e-17
8603.05037 1.48689e-17
8604.54290 1.46389e-17
8606.04545 1.45551e-17
8607.53798 1.44713e-17
8609.03051 1.45008e-17
8610.53306 1.45303e-17
8612.02560 1.45066e-17
8613.52815 1.44828e-17
8615.02068 1.44167e-17
8616.51321 1.43506e-17
8618.01576 1.43545e-17
8619.50830 1.43584e-17
8621.01085 1.45081e-17
8622.50338 1.46578e-17
8623.99591 1.47683e-17
8625.49846 1.48787e-17
8626.99100 1.49692e-17
8628.49355 1.50596e-17
8629.98608 1.52315e-17
8631.47861 1.54034e-17
8632.98116 1.54725e-17
8634.47369 1.55415e-17
8635.96623 1.55973e-17
8637.46878 1.56530e-17
8638.96131 1.57310e-17
8640.46386 1.58090e-17
8641.95639 1.57667e-17
8643.44893 1.57243e-17
8644.95148 1.56388e-17
8646.44401 1.55533e-17
8647.93654 1.55597e-17
8649.43909 1.55661e-17
8650.93163 1.55427e-17
8652.43418 1.55194e-17
8653.92671 1.53467e-17
8655.41924 1.51739e-17
8656.92179 1.49584e-17
8658.41432 1.47429e-17
8659.90686 1.46375e-17
8661.40941 1.45321e-17
8662.90194 1.44884e-17
8664.40449 1.44447e-17
8665.89702 1.43250e-17
8667.38956 1.42054e-17
8668.89211 1.41629e-17
8670.38464 1.41204e-17
8671.88719 1.41329e-17
8673.37972 1.41455e-17
8674.87226 1.41018e-17
8676.37480 1.40583e-17
8677.86734 1.41184e-17
8679.36989 1.41786e-17
8680.86242 1.42622e-17
8682.35495 1.43458e-17
8683.85750 1.43693e-17
8685.35004 1.43928e-17
8686.84257 1.44265e-17
8688.34512 1.44602e-17
8689.83765 1.45220e-17
8691.34020 1.45837e-17
8692.83274 1.47011e-17
8694.32527 1.48184e-17
8695.82782 1.46604e-17
8697.32035 1.45023e-17
8698.81288 1.41486e-17
8700.31544 1.37950e-17
8701.80797 1.38956e-17
8703.31052 1.39962e-17
8704.80305 1.42838e-17
8706.29558 1.45713e-17
8707.79813 1.42172e-17
8709.29067 1.38630e-17
8710.78320 1.34158e-17
8712.28575 1.29687e-17
8713.77828 1.30355e-17
8715.28083 1.31023e-17
8716.77337 1.32002e-17
8718.26590 1.32980e-17
8719.76845 1.32626e-17
8721.26098 1.32272e-17
8722.76353 1.30728e-17
8724.25607 1.29184e-17
8725.74860 1.27448e-17
8727.25115 1.25712e-17
8728.74368 1.24732e-17
8730.24623 1.23752e-17
8731.73876 1.23135e-17
8733.23130 1.22518e-17
8734.73385 1.21759e-17
8736.22638 1.21001e-17
8737.71891 1.20906e-17
8739.22146 1.20812e-17
8740.71400 1.21171e-17
8742.21655 1.21531e-17
8743.70908 1.20591e-17
8745.20161 1.19651e-17
8746.70416 1.19283e-17
8748.19670 1.18915e-17
8749.68923 1.19601e-17
8751.19178 1.20286e-17
8752.68431 1.19717e-17
8754.18686 1.19148e-17
8755.67939 1.19127e-17
8757.17193 1.19106e-17
8758.67448 1.18319e-17
8760.16701 1.17532e-17
8761.65954 1.15611e-17
8763.16209 1.13690e-17
8764.65463 1.12395e-17
8766.15718 1.11100e-17
8767.64971 1.10041e-17
8769.14224 1.08984e-17
8770.64479 1.08428e-17
8772.13732 1.07871e-17
8773.63988 1.05060e-17
8775.13241 1.02249e-17
8776.62494 9.95130e-18
8778.12749 9.67772e-18
8779.62002 9.58116e-18
8781.12257 9.48459e-18
8782.61511 9.36903e-18
8784.10764 9.25347e-18
8785.61019 9.01955e-18
8787.10272 8.78564e-18
8788.59526 8.58585e-18
8790.09781 8.38608e-18
8791.59034 8.31256e-18
8793.09289 8.23904e-18
8794.58542 8.07962e-18
8796.07796 7.92020e-18
8797.58050 7.68452e-18
8799.07304 7.44886e-18
8800.56557 7.38483e-18
8802.06812 7.32080e-18
8803.56065 7.27015e-18
8805.06320 7.21950e-18
8806.55574 7.14441e-18
8808.04827 7.06933e-18
8809.55082 6.98121e-18
8811.04335 6.89310e-18
8812.54590 6.79033e-18
8814.03844 6.68757e-18
8815.53097 6.58989e-18
8817.03352 6.49222e-18
8818.52605 6.39082e-18
8820.01858 6.28944e-18
8821.52113 6.21780e-18
8823.01367 6.14616e-18
8824.51622 6.05348e-18
8826.00875 5.96080e-18
8827.50128 5.76436e-18
8829.00383 5.56793e-18
8830.49637 5.38726e-18
8831.99892 5.20660e-18
8833.49145 5.09287e-18
8834.98398 4.97915e-18
8836.48653 4.86253e-18
8837.97907 4.74591e-18
8839.47160 4.60607e-18
8840.97415 4.46625e-18
8842.46668 4.47371e-18
8843.96923 4.48116e-18
8845.46177 4.46583e-18
8846.95430 4.45049e-18
8848.45685 4.35314e-18
8849.94938 4.25580e-18
8851.44191 4.27441e-18
8852.94446 4.29302e-18
8854.43700 4.34917e-18
8855.93955 4.40531e-18
8857.43208 4.42752e-18
8858.92461 4.44972e-18
8860.42716 4.41947e-18
8861.91970 4.38921e-18
8863.42225 4.33548e-18
8864.91478 4.28175e-18
8866.40731 4.28064e-18
8867.90986 4.27953e-18
8869.40240 4.28580e-18
8870.89493 4.29207e-18
8872.39748 4.31564e-18
8873.89001 4.33922e-18
8875.39256 4.37342e-18
8876.88509 4.40761e-18
8878.37763 4.37847e-18
8879.88018 4.34933e-18
8881.37271 4.32398e-18
8882.87526 4.29864e-18
8884.36779 4.38415e-18
8885.86033 4.46964e-18
8887.36288 4.51474e-18
8888.85541 4.55983e-18
8890.34794 4.51893e-18
8891.85049 4.47804e-18
8893.34303 4.49499e-18
8894.84558 4.51193e-18
8896.33811 4.50476e-18
8897.83064 4.49759e-18
8899.33319 4.46395e-18
8900.82572 4.43031e-18
8902.31826 4.39607e-18
8903.82081 4.36185e-18
8905.31334 4.43761e-18
8906.81589 4.51339e-18
8908.30842 4.72314e-18
8909.80096 4.93286e-18
8911.30351 4.98309e-18
8912.79604 5.03330e-18
8914.29859 4.93645e-18
8915.79112 4.83962e-18
8917.28365 4.90459e-18
8918.78621 4.96956e-18
8920.27874 5.03336e-18
8921.77127 5.09715e-18
8923.27382 5.11574e-18
8924.76635 5.13434e-18
8926.26890 5.26960e-18
8927.76144 5.40486e-18
8929.25397 5.54056e-18
8930.75652 5.67624e-18
8932.24905 5.73341e-18
8933.75160 5.79057e-18
8935.24414 5.88367e-18
8936.73667 5.97677e-18
8938.23922 6.06528e-18
8938.71002 6.06528e-18
8939.57148 6.11408e-18
8940.43294 6.16291e-18
8941.29440 6.20578e-18
8942.15587 6.24864e-18
8943.01733 6.27238e-18
8943.87879 6.29607e-18
8944.74025 6.29477e-18
8945.61173 6.29339e-18
8946.47319 6.26916e-18
8947.33466 6.24488e-18
8948.19612 6.22551e-18
8949.05758 6.20614e-18
8949.91904 6.21415e-18
8950.78050 6.22224e-18
8951.64197 6.25064e-18
8952.50343 6.27908e-18
8953.36489 6.31652e-18
8954.22635 6.35399e-18
8955.08781 6.37095e-18
8955.95929 6.38785e-18
8956.82075 6.35530e-18
8957.68222 6.32263e-18
8958.54368 6.27668e-18
8959.40514 6.23070e-18
8960.26660 6.22458e-18
8961.12806 6.21856e-18
8961.98953 6.25986e-18
8962.85099 6.30128e-18
8963.71245 6.37992e-18
8964.57391 6.45867e-18
8965.44539 6.54917e-18
8966.30685 6.63969e-18
8967.16832 6.70347e-18
8968.02978 6.76720e-18
8968.89124 6.80849e-18
8969.75270 6.84974e-18
8970.61416 6.91072e-18
8971.47563 6.97175e-18
8972.33709 7.06701e-18
8973.19855 7.16237e-18
8974.06001 7.27386e-18
8974.93149 7.38538e-18
8975.79295 7.48695e-18
8976.65441 7.58848e-18
8977.51588 7.64012e-18
8978.37734 7.69163e-18
8979.23880 7.66221e-18
8980.10026 7.63257e-18
8980.96172 7.50203e-18
8981.82319 7.37123e-18
8982.68465 7.15246e-18
8983.54611 6.93345e-18
8984.41759 6.74411e-18
8985.27905 6.55485e-18
8986.14051 6.50349e-18
8987.00198 6.45250e-18
8987.86344 6.57634e-18
8988.72490 6.70066e-18
8989.58636 7.00531e-18
8990.44782 7.31044e-18
8991.30928 7.65051e-18
8992.17075 7.99066e-18
8993.03221 8.19111e-18
8993.89367 8.39116e-18
8994.76515 8.42573e-18
8995.62661 8.45986e-18
8996.48807 8.36055e-18
8997.34954 8.26089e-18
8998.21100 8.10600e-18
8999.07246 7.95097e-18
8999.93392 7.84733e-18
9000.79538 7.74382e-18
9001.65685 7.73800e-18
9002.51831 7.73244e-18
9003.38979 7.82156e-18
9004.25125 7.91093e-18
9005.11271 8.06392e-18
9005.97417 8.21707e-18
9006.83563 8.37302e-18
9007.69710 8.52897e-18
9008.55856 8.64039e-18
9009.42002 8.75168e-18
9010.28148 8.79654e-18
9011.14295 8.84121e-18
9012.00441 8.82051e-18
9012.87589 8.79962e-18
9013.73735 8.76567e-18
9014.59881 8.73169e-18
9015.46027 8.72333e-18
9016.32173 8.71504e-18
9017.18320 8.70856e-18
9018.04466 8.70208e-18
9018.90612 8.67982e-18
9019.76758 8.65752e-18
9020.62904 8.63990e-18
9021.49051 8.62227e-18
9022.35197 8.63046e-18
9023.22345 8.63872e-18
9024.08491 8.69938e-18
9024.94637 8.76019e-18
9025.80783 8.89463e-18
9026.66930 9.02927e-18
9027.53076 9.20516e-18
9028.39222 9.38119e-18
9029.25368 9.54967e-18
9030.11514 9.71805e-18
9030.97660 9.84517e-18
9031.83807 9.97209e-18
9032.70955 1.00326e-17
9033.57101 1.00929e-17
9034.43247 1.00846e-17
9035.29393 1.00760e-17
9036.15539 1.00117e-17
9037.01686 9.94714e-18
9037.87832 9.85980e-18
9038.73978 9.77237e-18
9039.60124 9.71280e-18
9040.46270 9.65342e-18
9041.32417 9.63522e-18
9042.18563 9.61712e-18
9043.05711 9.60314e-18
9043.91857 9.58907e-18
9044.78003 9.55970e-18
9045.64149 9.53025e-18
9046.50295 9.49723e-18
9047.36442 9.46421e-18
9048.22588 9.43775e-18
9049.08734 9.41130e-18
9049.94880 9.40773e-18
9050.81027 9.40408e-18
9051.67173 9.42772e-18
9052.54321 9.45145e-18
9053.40467 9.45398e-18
9054.26613 9.45633e-18
9055.12759 9.39535e-18
9055.98905 9.33423e-18
9056.85052 9.23237e-18
9057.71198 9.13039e-18
9058.57344 9.01831e-18
9059.43490 8.90622e-18
9060.29636 8.78775e-18
9061.16784 8.66926e-18
9062.02931 8.54591e-18
9062.89077 8.42254e-18
9063.75223 8.28982e-18
9064.61369 8.15707e-18
9065.47515 8.00509e-18
9066.33662 7.85306e-18
9067.19808 7.72052e-18
9068.05954 7.58804e-18
9068.92100 7.53922e-18
9069.78246 7.49061e-18
9070.64393 7.51128e-18
9071.51540 7.53214e-18
9072.37687 7.55036e-18
9073.23833 7.56858e-18
9074.09979 7.55781e-18
9074.96125 7.54697e-18
9075.82271 7.52728e-18
9076.68418 7.50758e-18
9077.54564 7.49156e-18
9078.40710 7.47556e-18
9079.26856 7.47046e-18
9080.13002 7.46540e-18
9080.99149 7.47094e-18
9081.86297 7.47651e-18
9082.72443 7.46774e-18
9083.58589 7.45894e-18
9084.44735 7.42193e-18
9085.30881 7.38485e-18
9086.17028 7.34710e-18
9087.03174 7.30933e-18
9087.89320 7.29197e-18
9088.75466 7.27467e-18
9089.61612 7.25071e-18
9090.48760 7.22672e-18
9091.34906 7.17026e-18
9092.21053 7.11403e-18
9093.07199 7.05179e-18
9093.93345 6.98953e-18
9094.79491 6.95420e-18
9095.65637 6.91894e-18
9096.51784 6.90125e-18
9097.37930 6.88361e-18
9098.24076 6.86407e-18
9099.10222 6.84451e-18
9099.97370 6.82816e-18
9100.83516 6.81182e-18
9101.69663 6.80910e-18
9102.55809 6.80642e-18
9103.41955 6.83732e-18
9104.28101 6.86831e-18
9105.14247 6.96146e-18
9106.00393 7.05478e-18
9106.86540 7.17622e-18
9107.72686 7.29774e-18
9108.58832 7.36044e-18
9109.45980 7.42296e-18
9110.32126 7.38979e-18
9111.18272 7.35636e-18
9112.04419 7.24892e-18
9112.90565 7.14129e-18
9113.76711 7.00398e-18
9114.62857 6.86661e-18
9115.49003 6.79055e-18
9116.35150 6.71465e-18
9117.21296 6.74731e-18
9118.07442 6.78026e-18
9118.93588 6.85134e-18
9119.80736 6.92254e-18
9120.66882 6.96341e-18
9121.53028 7.00420e-18
9122.39175 6.97090e-18
9123.25321 6.93740e-18
9124.11467 6.80355e-18
9124.97613 6.66942e-18
9125.83760 6.49690e-18
9126.69906 6.32430e-18
9127.56052 6.18849e-18
9128.43200 6.05278e-18
9129.29346 5.99261e-18
9130.15492 5.93264e-18
9131.01638 5.97318e-18
9131.87785 6.01399e-18
9132.73931 6.13834e-18
9133.60077 6.26292e-18
9134.46223 6.43284e-18
9135.32369 6.60288e-18
9136.18516 6.77859e-18
9137.04662 6.95431e-18
9137.90808 7.09473e-18
9138.76954 7.23505e-18
9139.64102 7.31377e-18
9140.50248 7.39230e-18
9141.36395 7.40038e-18
9142.22541 7.40827e-18
9143.08687 7.33233e-18
9143.94833 7.25617e-18
9144.80979 7.07696e-18
9145.67125 6.89749e-18
9146.53272 6.63825e-18
9147.39418 6.37879e-18
9148.26566 6.11781e-18
9149.12712 5.85684e-18
9149.98858 5.66518e-18
9150.85004 5.47370e-18
9151.71151 5.40883e-18
9152.57297 5.34432e-18
9153.43443 5.42867e-18
9154.29589 5.51343e-18
9155.15735 5.67328e-18
9156.01882 5.83333e-18
9156.88028 5.99078e-18
9157.75176 6.14822e-18
9158.61322 6.26685e-18
9159.47468 6.38537e-18
9160.33614 6.43705e-18
9161.19760 6.48853e-18
9162.05907 6.47512e-18
9162.92053 6.46153e-18
9163.78199 6.39833e-18
9164.64345 6.33500e-18
9165.50492 6.21990e-18
9166.36638 6.10464e-18
9167.22784 5.93490e-18
9168.09932 5.76503e-18
9168.96078 5.58277e-18
9169.82224 5.40049e-18
9170.68370 5.26273e-18
9171.54517 5.12511e-18
9172.40663 5.06033e-18
9173.26809 4.99575e-18
9174.12955 5.01636e-18
9174.99101 5.03721e-18
9175.85248 5.10817e-18
9176.71394 5.17925e-18
9177.58542 5.22092e-18
9178.44688 5.26251e-18
9179.30834 5.25172e-18
9180.16980 5.24079e-18
9181.03127 5.22981e-18
9181.89273 5.21883e-18
9182.75419 5.23641e-18
9183.61565 5.25408e-18
9184.47711 5.28997e-18
9185.33857 5.32591e-18
9186.20004 5.36773e-18
9187.07152 5.40955e-18
9187.93298 5.42731e-18
9188.79444 5.44501e-18
9189.65590 5.42205e-18
9190.51736 5.39897e-18
9191.37883 5.38167e-18
9192.24029 5.36437e-18
9193.10175 5.39397e-18
9193.96321 5.42370e-18
9194.82467 5.48187e-18
9195.68614 5.54011e-18
9196.55762 5.60066e-18
9197.41908 5.66122e-18
9198.28054 5.70048e-18
9199.14200 5.73970e-18
9200.00346 5.73494e-18
9200.86492 5.73007e-18
9201.72639 5.69806e-18
9202.58785 5.66595e-18
9203.44931 5.63963e-18
9204.31077 5.61333e-18
9205.17224 5.59366e-18
9206.04371 5.57399e-18
9206.90518 5.54650e-18
9207.76664 5.51897e-18
9208.62810 5.48825e-18
9209.48956 5.45752e-18
9210.35102 5.43906e-18
9211.21249 5.42062e-18
9212.07395 5.42997e-18
9212.93541 5.43940e-18
9213.79687 5.49437e-18
9214.65833 5.54946e-18
9215.52981 5.64650e-18
9216.39127 5.74366e-18
9217.25274 5.84589e-18
9218.11420 5.94813e-18
9218.97566 6.03162e-18
9219.83712 6.11505e-18
9220.69859 6.18742e-18
9221.56005 6.25976e-18
9222.42151 6.32533e-18
9223.28297 6.39087e-18
9224.14443 6.44233e-18
9225.00590 6.49374e-18
9225.87737 6.52598e-18
9226.73884 6.55816e-18
9227.60030 6.56583e-18
9228.46176 6.57342e-18
9229.32322 6.55446e-18
9230.18468 6.53543e-18
9231.04615 6.51145e-18
9231.90761 6.48747e-18
9232.76907 6.48345e-18
9233.63053 6.47948e-18
9234.49199 6.48994e-18
9235.35346 6.50043e-18
9236.22494 6.51130e-18
9237.08640 6.52218e-18
9237.94786 6.53987e-18
9238.80932 6.55758e-18
9239.67078 6.59530e-18
9240.53225 6.63307e-18
9241.39371 6.69714e-18
9242.25517 6.76129e-18
9243.11663 6.85429e-18
9243.97809 6.94738e-18
9244.84957 7.06121e-18
9245.71103 7.17510e-18
9246.57250 7.29129e-18
9247.43396 7.40748e-18
9248.29542 7.51546e-18
9249.15688 7.62342e-18
9250.01834 7.72537e-18
9250.87981 7.82731e-18
9251.74127 7.91809e-18
9252.60273 8.00883e-18
9253.46419 8.06668e-18
9254.32565 8.12443e-18
9255.19713 8.14578e-18
9256.05860 8.16702e-18
9256.92006 8.19416e-18
9257.78152 8.22133e-18
9258.64298 8.28611e-18
9259.50444 8.35097e-18
9260.36591 8.44375e-18
9261.22737 8.53660e-18
9262.08883 8.64028e-18
9262.95029 8.74398e-18
9263.81175 8.82113e-18
9264.68323 8.89819e-18
9265.54469 8.91298e-18
9266.40616 8.92761e-18
9267.26762 8.88106e-18
9268.12908 8.83434e-18
9268.99054 8.74120e-18
9269.85200 8.64794e-18
9270.71347 8.54288e-18
9271.57493 8.43780e-18
9272.43639 8.36216e-18
9273.29785 8.28660e-18
9274.16933 8.27301e-18
9275.03079 8.25959e-18
9275.89226 8.33191e-18
9276.75372 8.40448e-18
9277.61518 8.55056e-18
9278.47664 8.69685e-18
9279.33810 8.87646e-18
9280.19957 9.05615e-18
9281.06103 9.22586e-18
9281.92249 9.39554e-18
9282.79397 9.51346e-18
9283.65543 9.63128e-18
9284.51689 9.66411e-18
9285.37835 9.69667e-18
9286.23982 9.62462e-18
9287.10128 9.55229e-18
9287.96274 9.38409e-18
9288.82420 9.21553e-18
9289.68566 9.00447e-18
9290.54713 8.79329e-18
9291.40859 8.60141e-18
9292.27005 8.40958e-18
9293.14153 8.31852e-18
9294.00299 8.22773e-18
9294.86445 8.29080e-18
9295.72592 8.35430e-18
9296.58738 8.51658e-18
9297.44884 8.67914e-18
9298.31030 8.86775e-18
9299.17176 9.05642e-18
9300.03323 9.17201e-18
9300.89469 9.28739e-18
9301.75615 9.23467e-18
9302.62763 9.18148e-18
9303.48909 9.05196e-18
9304.35055 8.92224e-18
9305.21201 8.86560e-18
9306.07348 8.80917e-18
9306.93494 8.79052e-18
9307.79640 8.77196e-18
9308.65786 8.68272e-18
9309.51932 8.59327e-18
9310.38079 8.43847e-18
9311.24225 8.28350e-18
9312.11373 8.12721e-18
9312.97519 7.97094e-18
9313.83665 7.87600e-18
9314.69811 7.78124e-18
9315.55958 7.81907e-18
9316.42104 7.85729e-18
9317.28250 8.01399e-18
9318.14396 8.17104e-18
9319.00542 8.30926e-18
9319.86688 8.44741e-18
9320.72835 8.51322e-18
9321.58981 8.57883e-18
9322.46129 8.69882e-18
9323.32275 8.81897e-18
9324.18421 9.02085e-18
9325.04567 9.22295e-18
9325.90714 9.24785e-18
9326.76860 9.27224e-18
9327.63006 8.96056e-18
9328.49152 8.64792e-18
9329.35298 8.25022e-18
9330.21445 7.85229e-18
9331.07591 7.61117e-18
9331.94739 7.37051e-18
9332.80885 7.23919e-18
9333.67031 7.10819e-18
9334.53177 7.01660e-18
9335.39323 6.92511e-18
9336.25470 6.87482e-18
9337.11616 6.82465e-18
9337.97762 6.80365e-18
9338.83908 6.78274e-18
9339.70055 7.00465e-18
9340.56201 7.22724e-18
9341.43349 7.98137e-18
9342.29495 8.73700e-18
9343.15641 9.65276e-18
9344.01787 1.05689e-17
9344.87933 1.09645e-17
9345.74080 1.13585e-17
9346.60226 1.10305e-17
9347.46372 1.07004e-17
9348.32518 9.76496e-18
9349.18664 8.82782e-18
9350.04811 7.71507e-18
9350.90957 6.60185e-18
9351.78105 6.10520e-18
9352.64251 5.61032e-18
9353.50397 5.99007e-18
9354.36543 6.37231e-18
9355.22689 7.05452e-18
9356.08836 7.73756e-18
9356.94982 8.23966e-18
9357.81128 8.74123e-18
9358.67274 8.77539e-18
9359.53420 8.80821e-18
9360.39567 8.24997e-18
9361.26715 7.69005e-18
9362.12861 6.99157e-18
9362.99007 6.29271e-18
9363.85153 5.88074e-18
9364.71299 5.46960e-18
9365.57446 5.36872e-18
9366.43592 5.26874e-18
9367.29738 5.43783e-18
9368.15884 5.60768e-18
9369.02030 5.83473e-18
9369.89178 6.06194e-18
9370.75324 6.10415e-18
9371.61471 6.14582e-18
9372.47617 6.01806e-18
9373.33763 5.88982e-18
9374.19909 5.68283e-18
9375.06056 5.47562e-18
9375.92202 5.32812e-18
9376.78348 5.18079e-18
9377.64494 5.26226e-18
9378.50640 5.34437e-18
9379.37788 5.59052e-18
9380.23934 5.83715e-18
9381.10081 6.02980e-18
9381.96227 6.22229e-18
9382.82373 6.29192e-18
9383.68519 6.36120e-18
9384.54665 6.37055e-18
9385.40812 6.37973e-18
9386.26958 6.34616e-18
9387.13104 6.31247e-18
9387.99250 6.20659e-18
9388.85396 6.10051e-18
9389.72544 5.92066e-18
9390.58691 5.74061e-18
9391.44837 5.51394e-18
9392.30983 5.28713e-18
9393.17129 5.05081e-18
9394.03275 4.81447e-18
9394.89422 4.63450e-18
9395.75568 4.45469e-18
9396.61714 4.37574e-18
9397.47860 4.29708e-18
9398.34006 4.28604e-18
9399.21154 4.27520e-18
9400.07300 4.29045e-18
9400.93447 4.30578e-18
9401.79593 4.30733e-18
9402.65739 4.30883e-18
9403.51885 4.26166e-18
9404.38031 4.21435e-18
9405.24178 4.15780e-18
9406.10324 4.10124e-18
9406.96470 4.09056e-18
9407.82616 4.08001e-18
9408.69764 4.11580e-18
9409.55910 4.15173e-18
9410.42057 4.21477e-18
9411.28203 4.27790e-18
9412.14349 4.33838e-18
9413.00495 4.39885e-18
9413.86641 4.42137e-18
9414.72788 4.44377e-18
9415.58934 4.40476e-18
9416.45080 4.36555e-18
9417.31226 4.25771e-18
9418.17372 4.14966e-18
9419.04520 3.98053e-18
9419.90666 3.81123e-18
9420.76813 3.59211e-18
9421.62959 3.37285e-18
9422.49105 3.18216e-18
9423.35251 2.99156e-18
9424.21397 3.01647e-18
9425.07544 3.04200e-18
9425.93690 3.34259e-18
9426.79836 3.64397e-18
9427.65982 4.02403e-18
9428.53130 4.40430e-18
9429.39276 4.67464e-18
9430.25423 4.94465e-18
9431.11569 4.93013e-18
9431.97715 4.91481e-18
9432.83861 4.52674e-18
9433.70007 4.13760e-18
9434.56153 3.68367e-18
9435.42300 3.22958e-18
9436.28446 3.03167e-18
9437.14592 2.83452e-18
9438.01740 2.94334e-18
9438.87886 3.05305e-18
9439.74032 3.44775e-18
9440.60179 3.84327e-18
9441.46325 4.32340e-18
9442.32471 4.80375e-18
9443.18617 5.11129e-18
9444.04763 5.41832e-18
9444.90910 5.47946e-18
9445.77056 5.53988e-18
9446.63202 5.37075e-18
9447.49348 5.20094e-18
9448.36496 4.89283e-18
9449.22642 4.58433e-18
9450.08788 4.28414e-18
9450.94935 3.98398e-18
9451.81081 3.78743e-18
9452.67227 3.59119e-18
9453.53373 3.53559e-18
9454.39520 3.48040e-18
9455.25666 3.57506e-18
9456.11812 3.67017e-18
9456.98960 3.89213e-18
9457.85106 4.11445e-18
9458.71252 4.39725e-18
9459.57398 4.68022e-18
9460.43545 4.88976e-18
9461.29691 5.09907e-18
9462.15837 5.15454e-18
9463.01983 5.20957e-18
9463.88129 5.17410e-18
9464.74276 5.13838e-18
9465.60422 5.07798e-18
9466.47570 5.01751e-18
9467.33716 4.97271e-18
9468.19862 4.92797e-18
9469.06008 4.93135e-18
9469.92155 4.93488e-18
9470.78301 4.93650e-18
9471.64447 4.93812e-18
9472.50593 4.88477e-18
9473.36739 4.83127e-18
9474.22885 4.75626e-18
9475.09032 4.68119e-18
9475.96180 4.62983e-18
9476.82326 4.57854e-18
9477.68472 4.64476e-18
9478.54618 4.71132e-18
9479.40764 5.00102e-18
9480.26911 5.29136e-18
9481.13057 5.68953e-18
9481.99203 6.08801e-18
9482.85349 6.37218e-18
9483.71495 6.65600e-18
9484.57642 6.70889e-18
9485.43788 6.76111e-18
9486.30936 6.54168e-18
9487.17082 6.32145e-18
9488.03228 5.91904e-18
9488.89374 5.51611e-18
9489.75520 5.16605e-18
9490.61667 4.81616e-18
9491.47813 4.66892e-18
9492.33959 4.52229e-18
9493.20105 4.57512e-18
9494.06252 4.62855e-18
9494.92398 4.88071e-18
9495.79546 5.13344e-18
9496.65692 5.61703e-18
9497.51838 6.10129e-18
9498.37984 6.76535e-18
9499.24130 7.42992e-18
9500.10277 8.01459e-18
9500.96423 8.59901e-18
9501.82569 8.87952e-18
9502.68715 9.15915e-18
9503.54861 9.09998e-18
9504.41008 9.03982e-18
9505.28155 8.66392e-18
9506.14302 8.28710e-18
9507.00448 7.78972e-18
9507.86594 7.29199e-18
9508.72740 6.90537e-18
9509.58887 6.51908e-18
9510.45033 6.26598e-18
9511.31179 6.01328e-18
9512.17325 5.84781e-18
9513.03471 5.68260e-18
9513.89617 5.64994e-18
9514.75764 5.61767e-18
9515.62912 5.78250e-18
9516.49058 5.94791e-18
9517.35204 6.29136e-18
9518.21350 6.63533e-18
9519.07496 7.09399e-18
9519.93643 7.55299e-18
9520.79789 8.01520e-18
9521.65935 8.47743e-18
9522.52081 8.78942e-18
9523.38227 9.10097e-18
9524.24374 9.21093e-18
9525.11522 9.32030e-18
9525.97668 9.30905e-18
9526.83814 9.29744e-18
9527.69960 9.23948e-18
9528.56106 9.18138e-18
9529.42252 9.13557e-18
9530.28399 9.08981e-18
9531.14545 9.08918e-18
9532.00691 9.08868e-18
9532.86837 9.08093e-18
9533.72984 9.07316e-18
9534.60131 9.01416e-18
9535.46278 8.95499e-18
9536.32424 8.83135e-18
9537.18570 8.70752e-18
9538.04716 8.52635e-18
9538.90862 8.34501e-18
9539.77009 8.27164e-18
9540.63155 8.19859e-18
9541.49301 8.38909e-18
9542.35447 8.58036e-18
9543.21593 8.92292e-18
9544.08741 9.26591e-18
9544.94888 9.59413e-18
9545.81034 9.92228e-18
9546.67180 1.00738e-17
9547.53326 1.02247e-17
9548.39472 1.00330e-17
9549.25619 9.84029e-18
9550.11765 9.49845e-18
9550.97911 9.15618e-18
9551.84057 9.05306e-18
9552.70203 8.95064e-18
9553.57351 9.11265e-18
9554.43497 9.27543e-18
9555.29644 9.47274e-18
9556.15790 9.67012e-18
9557.01936 9.74789e-18
9557.88082 9.82528e-18
9558.74228 9.68034e-18
9559.60375 9.53485e-18
9560.46521 9.23119e-18
9561.32667 8.92714e-18
9562.18813 8.81582e-18
9563.05961 8.70508e-18
9563.92107 8.96716e-18
9564.78254 9.23034e-18
9565.64400 9.67940e-18
9566.50546 1.01290e-17
9567.36692 1.05645e-17
9568.22838 1.09999e-17
9569.08985 1.11823e-17
9569.95131 1.13641e-17
9570.81277 1.11288e-17
9571.67423 1.08924e-17
9572.53569 1.04467e-17
9573.40717 1.00004e-17
9574.26863 9.59066e-18
9575.13010 9.18109e-18
9575.99156 8.97197e-18
9576.85302 8.76346e-18
9577.71448 8.88504e-18
9578.57594 9.00759e-18
9579.43741 9.25544e-18
9580.29887 9.50361e-18
9581.16033 9.57912e-18
9582.02179 9.65417e-18
9582.89327 9.51787e-18
9583.75473 9.38100e-18
9584.61620 9.09147e-18
9585.47766 8.80145e-18
9586.33912 8.56747e-18
9587.20058 8.33365e-18
9588.06204 8.47314e-18
9588.92351 8.61374e-18
9589.78497 9.08693e-18
9590.64643 9.56111e-18
9591.51791 1.00032e-17
9592.37937 1.04454e-17
9593.24083 1.06598e-17
9594.10229 1.08737e-17
9594.96376 1.08793e-17
9595.82522 1.08844e-17
9596.68668 1.07208e-17
9597.54814 1.05567e-17
9598.40960 1.03161e-17
9599.27107 1.00754e-17
9600.13253 9.85961e-18
9600.99399 9.64385e-18
9601.86547 9.53344e-18
9602.72693 9.42331e-18
9603.58839 9.47077e-18
9604.44986 9.51880e-18
9605.31132 9.71543e-18
9606.17278 9.91252e-18
9607.03424 1.02140e-17
9607.89570 1.05157e-17
9608.75717 1.07303e-17
9609.61863 1.09447e-17
9610.48009 1.08877e-17
9611.35157 1.08298e-17
9612.21303 1.05794e-17
9613.07449 1.03286e-17
9613.93595 1.00327e-17
9614.79742 9.73663e-18
9615.65888 9.49798e-18
9616.52034 9.25945e-18
9617.38180 9.16367e-18
9618.24326 9.06833e-18
9619.10473 9.13746e-18
9619.96619 9.20708e-18
9620.82765 9.41730e-18
9621.69913 9.62800e-18
9622.56059 9.90351e-18
9623.42205 1.01792e-17
9624.28352 1.04145e-17
9625.14498 1.06497e-17
9626.00644 1.07441e-17
9626.86790 1.08381e-17
9627.72936 1.06975e-17
9628.59083 1.05562e-17
9629.45229 1.02082e-17
9630.31375 9.85961e-18
9631.17521 9.51017e-18
9632.04669 9.16068e-18
9632.90815 8.96966e-18
9633.76961 8.77912e-18
9634.63108 8.80876e-18
9635.49254 8.83907e-18
9636.35400 9.08281e-18
9637.21546 9.32717e-18
9638.07692 9.55379e-18
9638.93839 9.78034e-18
9639.79985 9.79873e-18
9640.67133 9.81646e-18
9641.53279 9.74592e-18
9642.39425 9.67509e-18
9643.25571 9.65501e-18
9644.11718 9.63513e-18
9644.97864 9.69920e-18
9645.84010 9.76365e-18
9646.70156 9.92556e-18
9647.56302 1.00878e-17
9648.42448 1.02394e-17
9649.28595 1.03909e-17
9650.15743 1.03912e-17
9651.01889 1.03910e-17
9651.88035 1.02396e-17
9652.74181 1.00878e-17
9653.60327 9.84779e-18
9654.46474 9.60745e-18
9655.32620 9.36567e-18
9656.18766 9.12385e-18
9657.04912 8.98042e-18
9657.91058 8.83730e-18
9658.77205 8.84819e-18
9659.64352 8.85956e-18
9660.50499 9.03848e-18
9661.36645 9.21791e-18
9662.22791 9.50820e-18
9663.08937 9.79882e-18
9663.95083 1.00526e-17
9664.81230 1.03062e-17
9665.67376 1.04379e-17
9666.53522 1.05692e-17
9667.39668 1.06240e-17
9668.25815 1.06786e-17
9669.11961 1.06825e-17
9669.99109 1.06863e-17
9670.85255 1.05955e-17
9671.71401 1.05045e-17
9672.57547 1.03071e-17
9673.43693 1.01093e-17
9674.29840 9.88597e-18
9675.15986 9.66243e-18
9676.02132 9.49357e-18
9676.88278 9.32491e-18
9677.74424 9.26679e-18
9678.61572 9.20899e-18
9679.47718 9.29882e-18
9680.33865 9.38907e-18
9681.20011 9.55286e-18
9682.06157 9.71674e-18
9682.92303 9.85136e-18
9683.78449 9.98588e-18
9684.64596 1.00608e-17
9685.50742 1.01355e-17
9686.36888 1.01466e-17
9687.23034 1.01575e-17
9688.10182 1.01153e-17
9688.96328 1.00731e-17
9689.82475 1.00039e-17
9690.68621 9.93457e-18
9691.54767 9.84291e-18
9692.40913 9.75117e-18
9693.27059 9.62331e-18
9694.13206 9.49526e-18
9694.99352 9.35001e-18
9695.85498 9.20471e-18
9696.71644 9.09370e-18
9697.57790 8.98279e-18
9698.44938 8.93164e-18
9699.31084 8.88069e-18
9700.17231 8.87968e-18
9701.03377 8.87884e-18
9701.89523 8.90687e-18
9702.75669 8.93499e-18
9703.61816 8.94513e-18
9704.47962 8.95522e-18
9705.34108 8.91716e-18
9706.20254 8.87896e-18
9707.06400 8.82193e-18
9707.93548 8.76485e-18
9708.79694 8.71916e-18
9709.65841 8.67351e-18
9710.51987 8.65568e-18
9711.38133 8.63793e-18
9712.24279 8.65873e-18
9713.10425 8.67965e-18
9713.96572 8.71033e-18
9714.82718 8.74102e-18
9715.68864 8.74693e-18
9716.55010 8.75278e-18
9717.41156 8.72401e-18
9718.28304 8.69514e-18
9719.14451 8.62771e-18
9720.00597 8.56016e-18
9720.86743 8.49014e-18
9721.72889 8.42011e-18
9722.59035 8.40297e-18
9723.45182 8.38599e-18
9724.31328 8.39738e-18
9725.17474 8.40886e-18
9726.03620 8.37640e-18
9726.89766 8.34379e-18
9727.76914 8.24183e-18
9728.63060 8.13966e-18
9729.49207 7.98167e-18
9730.35353 7.82351e-18
9731.21499 7.64319e-18
9732.07645 7.46280e-18
9732.93791 7.32214e-18
9733.79938 7.18162e-18
9734.66084 7.11925e-18
9735.52230 7.05712e-18
9736.38376 7.06554e-18
9737.25524 7.07416e-18
9738.11670 7.13597e-18
9738.97817 7.19794e-18
9739.83963 7.27893e-18
9740.70109 7.35999e-18
9741.56255 7.42636e-18
9742.42401 7.49268e-18
9743.28548 7.52648e-18
9744.14694 7.56018e-18
9745.00840 7.55079e-18
9745.86986 7.54128e-18
9746.74134 7.50312e-18
9747.60280 7.46488e-18
9748.46426 7.41773e-18
9749.32573 7.37056e-18
9750.18719 7.31912e-18
9751.04865 7.26767e-18
9751.91011 7.21442e-18
9752.77157 7.16117e-18
9753.63304 7.10436e-18
9754.49450 7.04754e-18
9755.35596 6.98348e-18
9756.22744 6.91940e-18
9757.08890 6.86144e-18
9757.95036 6.80348e-18
9758.81183 6.77130e-18
9759.67329 6.73919e-18
9760.53475 6.74801e-18
9761.39621 6.75696e-18
9762.25767 6.81987e-18
9763.11913 6.88295e-18
9763.98060 6.98013e-18
9764.84206 7.07741e-18
9765.71354 7.15310e-18
9766.57500 7.22872e-18
9767.43646 7.25555e-18
9768.29792 7.28223e-18
9769.15939 7.27814e-18
9770.02085 7.27394e-18
9770.88231 7.25421e-18
9771.74377 7.23442e-18
9772.60523 7.20667e-18
9773.46670 7.17891e-18
9774.32816 7.15284e-18
9775.19964 7.12676e-18
9776.06110 7.11002e-18
9776.92256 7.09331e-18
9777.78402 7.09101e-18
9778.64548 7.08876e-18
9779.50695 7.10742e-18
9780.36841 7.12616e-18
9781.22987 7.16759e-18
9782.09133 7.20910e-18
9782.95280 7.23744e-18
9783.81426 7.26574e-18
9784.68574 7.24198e-18
9785.54720 7.21806e-18
9786.40866 7.16111e-18
9787.27012 7.10407e-18
9788.13158 7.04944e-18
9788.99305 6.99482e-18
9789.85451 6.95504e-18
9790.71597 6.91529e-18
9791.57743 6.89556e-18
9792.43889 6.87587e-18
9793.30036 6.86284e-18
9794.16182 6.84984e-18
9795.03330 6.81554e-18
9795.89476 6.78116e-18
9796.75622 6.73374e-18
9797.61768 6.68630e-18
9798.47915 6.66668e-18
9799.34061 6.64715e-18
9800.20207 6.66901e-18
9801.06353 6.69100e-18
9801.92499 6.73494e-18
9802.78645 6.77894e-18
9803.64792 6.82539e-18
9804.51940 6.87183e-18
9805.38086 6.89782e-18
9806.24232 6.92374e-18
9807.10378 6.91813e-18
9807.96524 6.91240e-18
9808.82671 6.89723e-18
9809.68817 6.88201e-18
9810.54963 6.87824e-18
9811.41109 6.87450e-18
9812.27255 6.89539e-18
9813.13402 6.91635e-18
9813.99548 6.96806e-18
9814.86696 7.01987e-18
9815.72842 7.06560e-18
9816.58988 7.11132e-18
9817.45134 7.11198e-18
9818.31280 7.11252e-18
9819.17427 7.07331e-18
9820.03573 7.03400e-18
9820.89719 6.97138e-18
9821.75865 6.90869e-18
9822.62012 6.84678e-18
9823.48158 6.78489e-18
9824.35306 6.75182e-18
9825.21452 6.71885e-18
9826.07598 6.71052e-18
9826.93744 6.70227e-18
9827.79890 6.69592e-18
9828.66037 6.68958e-18
9829.52183 6.67958e-18
9830.38329 6.66957e-18
9831.24475 6.66267e-18
9832.10621 6.65577e-18
9832.97769 6.65040e-18
9833.83915 6.64504e-18
9834.70062 6.63237e-18
9835.56208 6.61967e-18
9836.42354 6.59562e-18
9837.28500 6.57153e-18
9838.14647 6.53848e-18
9839.00793 6.50540e-18
9839.86939 6.46605e-18
9840.73085 6.42668e-18
9841.59231 6.38242e-18
9842.45377 6.33814e-18
9843.32525 6.29402e-18
9844.18672 6.24990e-18
9845.04818 6.22156e-18
9845.90964 6.19325e-18
9846.77110 6.19300e-18
9847.63256 6.19282e-18
9848.49403 6.21685e-18
9849.35549 6.24094e-18
9850.21695 6.28224e-18
9851.07841 6.32360e-18
9851.93987 6.37550e-18
9852.81135 6.42743e-18
9853.67282 6.48203e-18
9854.53428 6.53662e-18
9855.39574 6.58893e-18
9856.25720 6.64122e-18
9857.11866 6.68755e-18
9857.98013 6.73387e-18
9858.84159 6.76432e-18
9859.70305 6.79471e-18
9860.56451 6.79792e-18
9861.42597 6.80105e-18
9862.29745 6.77549e-18
9863.15891 6.74984e-18
9864.02038 6.70038e-18
9864.88184 6.65084e-18
9865.74330 6.58649e-18
9866.60476 6.52209e-18
9867.46622 6.45578e-18
9868.32769 6.38947e-18
9869.18915 6.32858e-18
9870.05061 6.26772e-18
9870.92209 6.21142e-18
9871.78355 6.15513e-18
9872.64501 6.10437e-18
9873.50648 6.05363e-18
9874.36794 6.01277e-18
9875.22940 5.97193e-18
9876.09086 5.94440e-18
9876.95232 5.91691e-18
9877.81379 5.90588e-18
9878.67525 5.89490e-18
9879.53671 5.90182e-18
9880.39817 5.90879e-18
9881.26965 5.93145e-18
9882.13111 5.95416e-18
9882.99257 5.98851e-18
9883.85404 6.02288e-18
9884.71550 6.06147e-18
9885.57696 6.10007e-18
9886.43842 6.13488e-18
9887.29988 6.16967e-18
9888.16135 6.19315e-18
9889.02281 6.21660e-18
9889.88427 6.22247e-18
9890.74573 6.22826e-18
9891.61721 6.21634e-18
9892.47867 6.20437e-18
9893.34014 6.17785e-18
9894.20160 6.15128e-18
9895.06306 6.11358e-18
9895.92452 6.07583e-18
9896.78598 6.03053e-18
9897.64745 5.98521e-18
9898.50891 5.93821e-18
9899.37037 5.89119e-18
9900.23183 5.85026e-18
9901.09329 5.80935e-18
9901.96477 5.77579e-18
9902.82623 5.74224e-18
9903.68770 5.70942e-18
9904.54916 5.67662e-18
9905.41062 5.64608e-18
9906.27208 5.61554e-18
9907.13354 5.60168e-18
9907.99501 5.58785e-18
9908.85647 5.59749e-18
9909.71793 5.60721e-18
9910.57939 5.63381e-18
9911.45087 5.66047e-18
9912.31233 5.69333e-18
9913.17380 5.72621e-18
9914.03526 5.74273e-18
9914.89672 5.75920e-18
9915.75818 5.74142e-18
9916.61964 5.72355e-18
9917.48111 5.67776e-18
9918.34257 5.63189e-18
9919.20403 5.56906e-18
9920.07551 5.50618e-18
9920.93697 5.43877e-18
9921.79843 5.37135e-18
9922.65989 5.31203e-18
9923.52136 5.25275e-18
9924.38282 5.20711e-18
9925.24428 5.16150e-18
9926.10574 5.13169e-18
9926.96720 5.10194e-18
9927.82867 5.07971e-18
9928.69013 5.05751e-18
9929.56161 5.02975e-18
9930.42307 5.00197e-18
9931.28453 4.96440e-18
9932.14599 4.92680e-18
9933.00746 4.88130e-18
9933.86892 4.83576e-18
9934.73038 4.78617e-18
9935.59184 4.73658e-18
9936.45330 4.68849e-18
9937.31477 4.64041e-18
9938.17623 4.60119e-18
9939.03769 4.56201e-18
9939.90917 4.54093e-18
9940.77063 4.51991e-18
9941.63209 4.51950e-18
9942.49355 4.51917e-18
9943.35502 4.52985e-18
9944.21648 4.54056e-18
9945.07794 4.55406e-18
9945.93940 4.56756e-18
9946.80086 4.58177e-18
9947.66233 4.59600e-18
9948.52379 4.60852e-18
9949.39527 4.62104e-18
9950.25673 4.62729e-18
9951.11819 4.63352e-18
9951.97965 4.63053e-18
9952.84112 4.62752e-18
9953.70258 4.62123e-18
9954.56404 4.61494e-18
9955.42550 4.61189e-18
9956.28696 4.60885e-18
9957.14843 4.60467e-18
9958.00989 4.60049e-18
9958.88137 4.58916e-18
9959.74283 4.57779e-18
9960.60429 4.55622e-18
9961.46575 4.53462e-18
9962.32721 4.50082e-18
9963.18868 4.46698e-18
9964.05014 4.43107e-18
9964.91160 4.39516e-18
9965.77306 4.37404e-18
9966.63452 4.35297e-18
9967.49599 4.35061e-18
9968.36747 4.34830e-18
9969.22893 4.35818e-18
9970.09039 4.36809e-18
9970.95185 4.38918e-18
9971.81331 4.41032e-18
9972.67477 4.44749e-18
9973.53624 4.48470e-18
9974.39770 4.53592e-18
9975.25916 4.58718e-18
9976.12062 4.64148e-18
9976.98208 4.69579e-18
9977.85356 4.74446e-18
9978.71503 4.79311e-18
9979.57649 4.83196e-18
9980.43795 4.87079e-18
9981.29941 4.89837e-18
9982.16087 4.92592e-18
9983.02234 4.94809e-18
9983.88380 4.97025e-18
9984.74526 4.99292e-18
9985.60672 5.01560e-18
9986.46818 5.04173e-18
9987.32965 5.06786e-18
9988.20112 5.09895e-18
9989.06259 5.13006e-18
9989.92405 5.15517e-18
9990.78551 5.18027e-18
9991.64697 5.18697e-18
9992.50843 5.19363e-18
9993.36990 5.19125e-18
9994.23136 5.18885e-18
9995.09282 5.19332e-18
9995.95428 5.19783e-18
9996.81574 5.20644e-18
9997.67721 5.21507e-18
9998.54869 5.21767e-18
9999.41015 5.22024e-18
