# wavelength flux
3469.89882 3.55346e-18
3471.36130 3.58674e-18
3472.83380 3.37196e-18
3474.30630 3.26025e-18
3475.77880 3.45713e-18
3477.24128 3.17991e-18
3478.71378 3.32114e-18
3480.18628 3.75199e-18
3481.65878 4.05393e-18
3483.12126 3.62194e-18
3484.59376 3.29814e-18
3486.06626 3.54066e-18
3487.53875 3.61590e-18
3489.00124 3.20793e-18
3490.47374 3.05532e-18
3491.94623 3.29297e-18
3493.41873 3.34938e-18
3494.88121 3.21979e-18
3496.35371 3.52830e-18
3497.82621 3.73559e-18
3499.29871 3.39138e-18
3500.76119 3.28297e-18
3502.23369 3.42705e-18
3503.70619 3.78583e-18
3505.17869 3.88310e-18
3506.64117 3.38463e-18
3508.11367 3.19183e-18
3509.58617 3.25523e-18
3511.05867 3.08669e-18
3512.52115 3.24694e-18
3513.99365 3.82344e-18
3515.46615 3.84329e-18
3516.93865 3.46778e-18
3518.40113 3.34379e-18
3519.87363 3.48914e-18
3521.34613 3.53597e-18
3522.81863 3.38590e-18
3524.28111 3.57166e-18
3525.75361 3.48764e-18
3527.22611 3.39153e-18
3528.69861 3.34129e-18
3530.16109 3.64770e-18
3531.63359 3.29540e-18
3533.10609 3.46432e-18
3534.57859 3.55908e-18
3536.04107 3.21197e-18
3537.51357 3.51554e-18
3538.98607 3.63622e-18
3540.45856 3.54117e-18
3541.92105 3.75041e-18
3543.39355 3.36432e-18
3544.86605 2.90476e-18
3546.33854 3.31746e-18
3547.80103 3.67987e-18
3549.27353 3.30410e-18
3550.74602 3.04592e-18
3552.21852 3.16424e-18
3553.68101 3.19610e-18
3555.15350 3.55867e-18
3556.62600 3.50827e-18
3558.08849 3.29082e-18
3559.56098 3.19680e-18
3561.03348 3.19650e-18
3562.50598 3.28290e-18
3563.97848 3.48342e-18
3565.44096 3.43771e-18
3566.91346 3.29432e-18
3568.38596 3.53379e-18
3569.84844 3.51107e-18
3571.32094 3.62478e-18
3572.79344 3.84162e-18
3574.26594 3.63516e-18
3575.72842 3.50569e-18
3577.20092 3.61270e-18
3578.67342 3.77356e-18
3580.14592 3.70859e-18
3581.60840 3.51901e-18
3583.08090 3.89523e-18
3584.55340 3.94192e-18
3586.02590 3.71519e-18
3587.48838 3.78069e-18
3588.96088 4.02626e-18
3590.43338 3.84562e-18
3591.90588 3.69484e-18
3593.36836 3.80106e-18
3594.84086 3.60284e-18
3596.31336 3.60525e-18
3597.78586 4.04169e-18
3599.24834 3.73589e-18
3600.72084 3.44782e-18
3602.19334 3.31162e-18
3603.66584 3.45329e-18
3605.12832 3.68254e-18
3606.60082 3.78377e-18
3608.07332 3.57009e-18
3609.54581 3.43276e-18
3611.00830 3.30099e-18
3612.48079 3.27268e-18
3613.95329 3.55035e-18
3615.42579 3.32761e-18
3616.88828 3.35301e-18
3618.36077 3.60707e-18
3619.83327 3.31789e-18
3621.30577 3.61475e-18
3622.76825 3.89316e-18
3624.24075 3.49373e-18
3625.71325 3.39726e-18
3627.18575 3.34938e-18
3628.64823 3.20715e-18
3630.12073 3.17825e-18
3631.59323 3.51064e-18
3633.06573 3.43609e-18
3634.52821 3.33470e-18
3636.00071 3.34548e-18
3637.47321 3.28961e-18
3638.94571 3.46646e-18
3640.40819 3.71789e-18
3641.88069 3.68586e-18
3643.35319 3.63451e-18
3644.82569 3.42254e-18
3646.28817 3.62122e-18
3647.76067 3.98805e-18
3649.23317 4.12626e-18
3650.70567 3.94438e-18
3652.16815 3.94807e-18
3653.64065 4.18724e-18
3655.11315 4.43078e-18
3656.58565 4.43584e-18
3658.04813 4.39508e-18
3659.52063 4.91076e-18
3660.99313 5.27229e-18
3662.45561 5.05493e-18
3663.92811 5.02560e-18
3665.40061 5.44735e-18
3666.87311 5.69994e-18
3668.33559 5.58957e-18
3669.80809 5.66782e-18
3671.28059 5.97359e-18
3672.75308 5.94725e-18
3674.21557 6.27669e-18
3675.68806 6.58510e-18
3677.16056 6.38589e-18
3678.63306 6.28301e-18
3680.09555 6.50379e-18
3681.56804 6.93578e-18
3683.04054 7.38456e-18
3684.51304 7.50689e-18
3685.97552 7.71234e-18
3687.44802 7.45423e-18
3688.92052 7.16372e-18
3690.39302 7.43716e-18
3691.85550 7.46223e-18
3693.32800 7.79693e-18
3694.80050 8.22916e-18
3696.27300 8.35258e-18
3697.73548 8.38460e-18
3699.20798 8.47170e-18
3700.68048 8.56527e-18
3702.15298 8.73242e-18
3703.61546 8.52702e-18
3705.08796 8.07870e-18
3706.56046 8.42490e-18
3708.03296 8.20480e-18
3709.49544 8.18344e-18
3710.96794 8.46726e-18
3712.44044 8.13604e-18
3713.91294 7.73664e-18
3715.37542 7.57108e-18
3716.84792 7.40557e-18
3718.32042 7.23796e-18
3719.79292 7.07039e-18
3721.25540 6.90284e-18
3722.72790 6.73533e-18
3724.20040 6.56788e-18
3725.67290 6.40044e-18
3727.13538 6.23303e-18
3728.60788 6.06567e-18
3730.08038 5.89833e-18
3731.55287 5.73104e-18
3733.01536 5.56376e-18
3734.48786 5.39648e-18
3735.96035 5.22929e-18
3737.43285 5.06210e-18
3738.89534 4.89497e-18
3740.36783 4.72785e-18
3741.84033 4.56075e-18
3743.31283 4.39372e-18
3744.77531 4.22669e-18
3746.24781 4.05969e-18
3747.72031 3.89272e-18
3749.19281 3.72578e-18
3750.65529 3.55891e-18
3752.12779 3.39203e-18
3753.60029 3.22521e-18
3755.06277 3.26336e-18
3756.53527 3.26849e-18
3758.00777 3.04351e-18
3759.48027 3.09294e-18
3760.94275 3.20450e-18
3762.41525 3.04143e-18
3763.88775 3.00674e-18
3765.36025 3.15101e-18
3766.82273 3.42791e-18
3768.29523 3.31798e-18
3769.76773 3.14281e-18
3771.24023 3.22260e-18
3772.70271 2.95629e-18
3774.17521 2.90536e-18
3775.64771 3.23337e-18
3777.12021 3.27345e-18
3778.58269 2.98116e-18
3780.05519 3.14175e-18
3781.52769 3.25305e-18
3783.00019 3.14032e-18
3784.46267 3.04856e-18
3785.93517 3.21416e-18
3787.40767 3.43218e-18
3788.88017 3.16946e-18
3790.34265 3.33194e-18
3791.81515 3.34930e-18
3793.28764 3.17909e-18
3794.76014 3.32304e-18
3796.22263 3.46158e-18
3797.69513 3.53495e-18
3799.16762 3.53676e-18
3800.64012 3.46786e-18
3802.10261 3.61333e-18
3803.57510 3.56768e-18
3805.04760 3.44948e-18
3806.52010 3.60812e-18
3807.98258 3.76345e-18
3809.45508 3.75481e-18
3810.92758 3.81925e-18
3812.40008 3.86111e-18
3813.86256 3.84931e-18
3815.33506 3.85380e-18
3816.80756 3.99958e-18
3818.28006 3.78208e-18
3819.74254 3.81739e-18
3821.21504 4.18275e-18
3822.68754 4.06407e-18
3824.16004 3.91512e-18
3825.62252 4.09534e-18
3827.09502 4.17644e-18
3828.56752 4.02253e-18
3830.04002 4.31029e-18
3831.50250 4.46751e-18
3832.97500 4.38037e-18
3834.44750 4.42221e-18
3835.92000 4.33745e-18
3837.38248 4.52923e-18
3838.85498 4.79966e-18
3840.32748 4.75723e-18
3841.78996 4.62505e-18
3843.26246 4.76958e-18
3844.73496 5.28343e-18
3846.20746 5.33789e-18
3847.67996 5.29492e-18
3849.14244 5.52395e-18
3850.61494 5.73101e-18
3852.08744 5.67479e-18
3853.54992 5.71133e-18
3855.02242 5.82411e-18
3856.49491 5.94693e-18
3857.96741 6.12261e-18
3859.42990 6.27971e-18
3860.90240 6.48500e-18
3862.37489 6.75042e-18
3863.84739 6.81276e-18
3865.30987 6.80071e-18
3866.78237 7.22068e-18
3868.25487 7.72066e-18
3869.72737 7.86881e-18
3871.18985 7.94016e-18
3872.66235 8.49787e-18
3874.13485 8.66537e-18
3875.60735 8.77389e-18
3877.06983 9.03695e-18
3878.54233 9.18281e-18
3880.01483 9.68153e-18
3881.48733 9.83577e-18
3882.94981 9.84890e-18
3884.42231 1.01874e-17
3885.89481 1.04298e-17
3887.36731 1.06189e-17
3888.82979 1.08636e-17
3890.30229 1.06440e-17
3891.77479 1.13127e-17
3893.24729 1.17706e-17
3894.70977 1.19190e-17
3896.18227 1.23866e-17
3897.65477 1.24284e-17
3899.12727 1.26614e-17
3900.58975 1.26906e-17
3902.06225 1.27117e-17
3903.53475 1.30252e-17
3905.00725 1.33081e-17
3906.46973 1.31943e-17
3907.94223 1.33260e-17
3909.41473 1.37076e-17
3910.88722 1.38890e-17
3912.34971 1.39237e-17
3913.82221 1.39995e-17
3915.29471 1.41908e-17
3916.76720 1.43335e-17
3918.22969 1.41205e-17
3919.70219 1.39970e-17
3921.17468 1.40778e-17
3922.64718 1.45221e-17
3924.10966 1.47415e-17
3925.58216 1.44699e-17
3927.05466 1.43813e-17
3928.52716 1.43158e-17
3929.98964 1.40071e-17
3931.46214 1.36321e-17
3932.93464 1.35774e-17
3934.40714 1.37179e-17
3935.86962 1.39046e-17
3937.34212 1.39016e-17
3938.81462 1.37414e-17
3940.27710 1.36198e-17
3941.74960 1.40042e-17
3943.22210 1.42367e-17
3944.69460 1.46305e-17
3946.15708 1.47110e-17
3947.62958 1.47142e-17
3949.10208 1.47335e-17
3950.57458 1.47514e-17
3952.03706 1.48651e-17
3953.50956 1.48605e-17
3954.98206 1.48576e-17
3956.45456 1.49360e-17
3957.91704 1.49900e-17
3959.38954 1.48685e-17
3960.86204 1.49615e-17
3962.33454 1.49970e-17
3963.79702 1.50621e-17
3965.26952 1.48890e-17
3966.74202 1.49347e-17
3968.21452 1.49962e-17
3969.67700 1.52441e-17
3971.14950 1.56551e-17
3972.62200 1.56510e-17
3974.09449 1.53188e-17
3975.55698 1.55195e-17
3977.02948 1.60575e-17
3978.50198 1.65491e-17
3979.97447 1.66160e-17
3981.43696 1.67693e-17
3982.90946 1.67051e-17
3984.38195 1.70397e-17
3985.85445 1.75631e-17
3987.31694 1.76765e-17
3988.78943 1.75218e-17
3990.26193 1.76254e-17
3991.73443 1.81498e-17
3993.19691 1.80344e-17
3994.66941 1.81725e-17
3996.14191 1.81835e-17
3997.61441 1.84950e-17
3999.07689 1.87405e-17
4000.54939 1.85773e-17
4002.02189 1.89575e-17
4003.49439 1.89264e-17
4004.95687 1.88098e-17
4006.42937 1.90236e-17
4007.90187 1.90126e-17
4009.37437 1.93548e-17
4010.83685 1.94736e-17
4012.30935 1.96617e-17
4013.78185 1.95510e-17
4015.25435 1.94954e-17
4016.71683 1.96121e-17
4018.18933 1.95277e-17
4019.66183 1.96138e-17
4021.13433 1.94652e-17
4022.59681 1.94611e-17
4024.06931 1.94593e-17
4025.54181 1.96107e-17
4027.01431 1.91854e-17
4028.47679 1.90888e-17
4029.94929 1.89793e-17
4031.42179 1.88363e-17
4032.89429 1.83737e-17
4034.35677 1.81475e-17
4035.82927 1.78113e-17
4037.30177 1.79449e-17
4038.76425 1.77812e-17
4040.23675 1.73407e-17
4041.70925 1.67760e-17
4043.18174 1.63456e-17
4044.64423 1.64403e-17
4046.11673 1.65783e-17
4047.58922 1.62951e-17
4049.06172 1.58364e-17
4050.52421 1.54502e-17
4051.99670 1.53779e-17
4053.46920 1.53869e-17
4054.94170 1.51212e-17
4056.40418 1.45492e-17
4057.87668 1.43374e-17
4059.34918 1.40272e-17
4060.82168 1.38775e-17
4062.28416 1.36963e-17
4063.75666 1.33783e-17
4065.22916 1.32552e-17
4066.70166 1.30951e-17
4068.16414 1.28453e-17
4069.63664 1.28013e-17
4071.10914 1.27488e-17
4072.58164 1.24159e-17
4074.04412 1.21362e-17
4075.51662 1.19197e-17
4076.98912 1.17432e-17
4078.46162 1.17303e-17
4079.92410 1.15821e-17
4081.39660 1.15249e-17
4082.86910 1.14120e-17
4084.34160 1.14400e-17
4085.80408 1.13247e-17
4087.27658 1.13468e-17
4088.74908 1.12808e-17
4090.22158 1.09491e-17
4091.68406 1.07682e-17
4093.15656 1.08309e-17
4094.62906 1.09886e-17
4096.10156 1.08121e-17
4097.56404 1.07673e-17
4099.03654 1.04491e-17
4100.50904 1.04092e-17
4101.98153 1.03412e-17
4103.44402 1.00176e-17
4104.91651 1.01621e-17
4106.38901 1.03936e-17
4107.86151 1.03689e-17
4109.32400 1.00328e-17
4110.79649 9.72467e-18
4112.26899 9.50442e-18
4113.74149 9.61675e-18
4115.20397 9.53041e-18
4116.67647 9.31485e-18
4118.14897 8.89733e-18
4119.62147 8.99057e-18
4121.08395 8.88198e-18
4122.55645 8.73563e-18
4124.02895 8.66580e-18
4125.50145 8.49558e-18
4126.96393 8.39347e-18
4128.43643 8.37720e-18
4129.90893 8.23164e-18
4131.38143 8.23474e-18
4132.84391 8.09117e-18
4134.31641 8.06358e-18
4135.78891 8.24363e-18
4137.25139 8.14533e-18
4138.72389 8.03702e-18
4140.19639 8.10590e-18
4141.66889 7.97419e-18
4143.13137 8.04196e-18
4144.60387 8.24742e-18
4146.07637 8.31515e-18
4147.54887 8.40560e-18
4149.01135 8.43572e-18
4150.48385 8.42181e-18
4151.95635 8.41320e-18
4153.42885 8.46152e-18
4154.89133 8.38825e-18
4156.36383 8.35391e-18
4157.83633 8.05459e-18
4159.30883 8.14818e-18
4160.77131 7.98445e-18
4162.24381 7.83712e-18
4163.71630 7.97908e-18
4165.18880 7.77876e-18
4166.65129 7.74474e-18
4168.12379 7.64768e-18
4169.59628 7.68086e-18
4171.06878 7.41703e-18
4172.53126 7.47622e-18
4174.00376 7.40825e-18
4175.47626 7.38566e-18
4176.94876 7.55811e-18
4178.41124 7.41942e-18
4179.88374 7.32868e-18
4181.35624 7.24795e-18
4182.82874 7.30744e-18
4184.29122 7.16321e-18
4185.76372 7.11825e-18
4187.23622 6.97147e-18
4188.70872 6.86363e-18
4190.17120 6.96021e-18
4191.64370 7.17926e-18
4193.11620 7.22393e-18
4194.58870 7.08135e-18
4196.05118 7.16661e-18
4197.52368 7.07676e-18
4198.99618 7.14473e-18
4200.46868 7.30598e-18
4201.93116 7.31992e-18
4203.40366 7.21017e-18
4204.87616 7.32479e-18
4206.34866 7.35895e-18
4207.81114 7.32644e-18
4209.28364 7.20447e-18
4210.75614 7.57663e-18
4212.22864 7.77198e-18
4213.69112 7.74450e-18
4215.16362 7.74787e-18
4216.63612 7.78739e-18
4218.10862 7.80202e-18
4219.57110 7.77552e-18
4221.04360 7.98688e-18
4222.51610 8.01605e-18
4223.97858 8.09267e-18
4225.45108 8.35001e-18
4226.92357 8.30113e-18
4228.39607 8.32383e-18
4229.86857 8.47020e-18
4231.33105 8.69524e-18
4232.80355 8.80580e-18
4234.27605 8.67815e-18
4235.73854 8.55815e-18
4237.21103 8.72401e-18
4238.68353 8.75237e-18
4240.15603 8.70159e-18
4241.61851 8.88199e-18
4243.09101 8.84588e-18
4244.56351 8.79271e-18
4246.03601 8.99390e-18
4247.49849 8.91286e-18
4248.97099 8.82608e-18
4250.44349 8.98489e-18
4251.91599 8.98718e-18
4253.37847 8.98363e-18
4254.85097 8.77308e-18
4256.32347 8.60521e-18
4257.79597 8.67236e-18
4259.25845 8.67946e-18
4260.73095 8.61226e-18
4262.20345 8.37129e-18
4263.67595 8.68994e-18
4265.13843 8.56734e-18
4266.61093 8.24487e-18
4268.08343 8.34644e-18
4269.55593 8.47863e-18
4271.01841 8.36890e-18
4272.49091 8.23642e-18
4273.96341 8.39712e-18
4275.43591 8.47627e-18
4276.89839 8.23703e-18
4278.37089 8.23910e-18
4279.84339 8.30975e-18
4281.31588 8.37121e-18
4282.77837 8.19326e-18
4284.25087 8.17971e-18
4285.72336 8.28057e-18
4287.19586 8.47627e-18
4288.65835 8.45364e-18
4290.13085 8.16082e-18
4291.60334 8.22312e-18
4293.07584 8.38377e-18
4294.53833 8.42736e-18
4296.01082 8.44088e-18
4297.48332 8.43201e-18
4298.95582 8.43977e-18
4300.41830 8.54345e-18
4301.89080 8.41073e-18
4303.36330 8.47158e-18
4304.83580 8.78046e-18
4306.29828 8.68094e-18
4307.77078 8.52713e-18
4309.24328 8.57708e-18
4310.71578 8.65631e-18
4312.17826 8.88597e-18
4313.65076 8.95086e-18
4315.12326 8.87208e-18
4316.59576 8.80412e-18
4318.05824 8.77208e-18
4319.53074 8.97688e-18
4321.00324 8.95039e-18
4322.47574 9.03932e-18
4323.93822 9.05656e-18
4325.41072 9.17795e-18
4326.88322 9.09759e-18
4328.34570 9.13397e-18
4329.81820 9.20227e-18
4331.29070 9.13545e-18
4332.76320 9.19882e-18
4334.22568 9.15240e-18
4335.69818 9.09399e-18
4337.17068 8.97105e-18
4338.64318 8.95877e-18
4340.10566 8.88024e-18
4341.57816 8.92410e-18
4343.05066 8.93812e-18
4344.52315 9.05292e-18
4345.98564 9.20677e-18
4347.45814 9.48805e-18
4348.93064 9.51931e-18
4350.40313 9.43164e-18
4351.86562 9.15673e-18
4353.33811 9.10329e-18
4354.81061 9.04985e-18
4356.28311 8.99641e-18
4357.74560 8.94298e-18
4359.21809 8.88955e-18
4360.69059 8.83616e-18
4362.16309 8.78275e-18
4363.62557 8.72935e-18
4365.09807 8.67595e-18
4366.57057 8.62255e-18
4368.04307 8.56920e-18
4369.50555 8.51582e-18
4370.97805 8.46246e-18
4372.45055 8.40909e-18
4373.92305 8.35575e-18
4375.38553 8.30242e-18
4376.85803 8.24907e-18
4378.33053 8.19575e-18
4379.80303 8.14242e-18
4381.26551 8.08911e-18
4382.73801 8.03581e-18
4384.21051 7.98252e-18
4385.68301 7.92922e-18
4387.14549 7.87594e-18
4388.61799 7.82265e-18
4390.09049 7.76939e-18
4391.56299 7.83747e-18
4393.02547 7.89046e-18
4394.49797 7.89165e-18
4395.97047 7.78632e-18
4397.44297 7.56839e-18
4398.90545 7.46263e-18
4400.37795 7.46516e-18
4401.85045 7.43718e-18
4403.32295 7.49249e-18
4404.78543 7.18847e-18
4406.25793 7.15237e-18
4407.73042 7.02264e-18
4409.20292 6.95640e-18
4410.66541 7.00651e-18
4412.13790 6.99614e-18
4413.61040 6.89613e-18
4415.07289 6.92789e-18
4416.54539 7.01867e-18
4418.01788 6.93884e-18
4419.49038 6.88635e-18
4420.95287 6.87543e-18
4422.42536 6.96960e-18
4423.89786 6.95515e-18
4425.37036 6.92435e-18
4426.83284 6.74107e-18
4428.30534 6.75316e-18
4429.77784 6.85175e-18
4431.25034 6.94070e-18
4432.71282 6.88385e-18
4434.18532 6.94989e-18
4435.65782 6.95725e-18
4437.13032 6.77485e-18
4438.59280 7.03409e-18
4440.06530 7.21010e-18
4441.53780 7.09629e-18
4443.01030 7.12485e-18
4444.47278 7.12311e-18
4445.94528 7.25992e-18
4447.41778 7.41036e-18
4448.89028 7.20419e-18
4450.35276 7.39372e-18
4451.82526 7.43406e-18
4453.29776 7.44328e-18
4454.77026 7.49458e-18
4456.23274 7.59227e-18
4457.70524 7.75810e-18
4459.17774 7.79403e-18
4460.65024 7.79040e-18
4462.11272 7.88908e-18
4463.58522 8.14024e-18
4465.05772 8.30780e-18
4466.53021 8.28687e-18
4467.99270 8.24549e-18
4469.46520 8.38908e-18
4470.93770 8.74247e-18
4472.41019 8.82315e-18
4473.87268 8.78846e-18
4475.34518 8.89503e-18
4476.81767 9.10174e-18
4478.29017 9.40204e-18
4479.75266 9.56451e-18
4481.22515 9.82648e-18
4482.69765 1.00517e-17
4484.17015 1.02855e-17
4485.63263 1.05486e-17
4487.10513 1.06151e-17
4488.57763 1.07213e-17
4490.05013 1.10392e-17
4491.51261 1.13446e-17
4492.98511 1.15601e-17
4494.45761 1.14742e-17
4495.93011 1.15228e-17
4497.39259 1.19468e-17
4498.86509 1.19621e-17
4500.33759 1.20682e-17
4501.81009 1.24189e-17
4503.27257 1.24410e-17
4504.74507 1.24563e-17
4506.21757 1.26324e-17
4507.69007 1.28001e-17
4509.15255 1.30364e-17
4510.62505 1.31904e-17
4512.09755 1.32038e-17
4513.57005 1.33135e-17
4515.03253 1.33893e-17
4516.50503 1.34218e-17
4517.97753 1.34222e-17
4519.44001 1.33559e-17
4520.91251 1.34981e-17
4522.38501 1.36263e-17
4523.85751 1.36110e-17
4525.31999 1.38579e-17
4526.79249 1.39825e-17
4528.26499 1.41673e-17
4529.73749 1.41284e-17
4531.19997 1.41293e-17
4532.67247 1.43085e-17
4534.14497 1.45052e-17
4535.61746 1.45752e-17
4537.07995 1.47713e-17
4538.55245 1.48641e-17
4540.02494 1.49595e-17
4541.49744 1.50074e-17
4542.95993 1.51884e-17
4544.43242 1.52964e-17
4545.90492 1.52083e-17
4547.37742 1.53086e-17
4548.83990 1.53344e-17
4550.31240 1.57719e-17
4551.78490 1.58662e-17
4553.25740 1.61212e-17
4554.71988 1.62625e-17
4556.19238 1.63955e-17
4557.66488 1.63750e-17
4559.13738 1.67877e-17
4560.59986 1.70884e-17
4562.07236 1.72008e-17
4563.54486 1.72573e-17
4565.01736 1.75194e-17
4566.47984 1.74625e-17
4567.95234 1.76350e-17
4569.42484 1.78875e-17
4570.89734 1.82122e-17
4572.35982 1.82572e-17
4573.83232 1.81451e-17
4575.30482 1.86669e-17
4576.77732 1.87569e-17
4578.23980 1.86755e-17
4579.71230 1.88171e-17
4581.18480 1.92704e-17
4582.65730 1.92082e-17
4584.11978 1.92677e-17
4585.59228 1.93024e-17
4587.06478 1.92728e-17
4588.53728 1.95343e-17
4589.99976 1.98541e-17
4591.47226 1.98792e-17
4592.94475 1.98626e-17
4594.41725 1.99966e-17
4595.87974 2.00790e-17
4597.35224 2.01313e-17
4598.82473 2.02692e-17
4600.29723 2.01992e-17
4601.75972 1.76329e-17
4603.23221 1.94034e-17
4604.70471 2.04354e-17
4606.16720 2.04757e-17
4607.63969 2.02224e-17
4609.11219 2.04511e-17
4610.58469 2.07354e-17
4612.04717 2.06572e-17
4613.51967 2.07316e-17
4614.99217 2.07361e-17
4616.46467 2.06428e-17
4617.92715 2.08516e-17
4619.39965 2.06996e-17
4620.87215 2.05453e-17
4622.34465 2.05323e-17
4623.80713 2.02898e-17
4625.27963 2.05186e-17
4626.75213 1.99792e-17
4628.22463 1.99129e-17
4629.68711 1.96468e-17
4631.15961 1.95248e-17
4632.63211 1.95114e-17
4634.10461 1.95768e-17
4635.56709 1.92473e-17
4637.03959 1.89857e-17
4638.51209 1.89847e-17
4639.98459 1.88112e-17
4641.44707 1.88599e-17
4642.91957 1.84293e-17
4644.39207 1.82673e-17
4645.86457 1.81782e-17
4647.32705 1.77414e-17
4648.79955 1.79202e-17
4650.27205 1.76479e-17
4651.74455 1.74349e-17
4653.20703 1.74299e-17
4654.67953 1.73937e-17
4656.15203 1.74967e-17
4657.62452 1.70978e-17
4659.08701 1.68508e-17
4660.55951 1.68079e-17
4662.03200 1.68820e-17
4663.50450 1.67125e-17
4664.96699 1.65494e-17
4666.43948 1.64620e-17
4667.91198 1.63412e-17
4669.38448 1.62321e-17
4670.84696 1.64169e-17
4672.31946 1.63120e-17
4673.79196 1.61088e-17
4675.26446 1.61563e-17
4676.72694 1.61854e-17
4678.19944 1.58335e-17
4679.67194 1.60347e-17
4681.14444 1.57777e-17
4682.60692 1.56534e-17
4684.07942 1.57769e-17
4685.55192 1.57644e-17
4687.02442 1.56554e-17
4688.48690 1.56545e-17
4689.95940 1.56410e-17
4691.43190 1.53714e-17
4692.90440 1.55871e-17
4694.36688 1.53841e-17
4695.83938 1.55285e-17
4697.31188 1.54869e-17
4698.78438 1.52719e-17
4700.24686 1.52689e-17
4701.71936 1.52704e-17
4703.19186 1.51381e-17
4704.65434 1.50666e-17
4706.12684 1.51576e-17
4707.59934 1.52508e-17
4709.07184 1.49732e-17
4710.53432 1.51598e-17
4712.00682 1.49491e-17
4713.47932 1.47456e-17
4714.95182 1.48622e-17
4716.41430 1.48398e-17
4717.88680 1.46544e-17
4719.35930 1.46447e-17
4720.83179 1.45274e-17
4722.29428 1.43090e-17
4723.76678 1.41638e-17
4725.23927 1.41440e-17
4726.71177 1.42068e-17
4728.17425 1.41529e-17
4729.64675 1.38544e-17
4731.11925 1.38899e-17
4732.59175 1.38854e-17
4734.05423 1.38822e-17
4735.52673 1.38571e-17
4736.99923 1.35651e-17
4738.47173 1.34683e-17
4739.93421 1.36390e-17
4741.40671 1.35046e-17
4742.87921 1.33843e-17
4744.35171 1.34272e-17
4745.81419 1.31711e-17
4747.28669 1.32096e-17
4748.75919 1.32215e-17
4750.23169 1.30641e-17
4751.69417 1.31969e-17
4753.16667 1.29925e-17
4754.63917 1.29223e-17
4756.11167 1.29131e-17
4757.57415 1.27864e-17
4759.04665 1.26504e-17
4760.51915 1.24209e-17
4761.99165 1.24384e-17
4763.45413 1.23257e-17
4764.92663 1.23995e-17
4766.39913 1.23962e-17
4767.87163 1.21873e-17
4769.33411 1.20004e-17
4770.80661 1.19742e-17
4772.27911 1.18955e-17
4773.75160 1.17514e-17
4775.21409 1.16450e-17
4776.68659 1.14550e-17
4778.15909 1.12601e-17
4779.63158 1.11111e-17
4781.09407 1.08858e-17
4782.56657 1.08104e-17
4784.03906 1.05982e-17
4785.51156 1.04118e-17
4786.97405 1.05043e-17
4788.44654 9.99593e-18
4789.91904 9.94764e-18
4791.38152 9.84098e-18
4792.85402 9.68606e-18
4794.32652 9.88318e-18
4795.79902 9.59692e-18
4797.26150 9.50102e-18
4798.73400 9.46551e-18
4800.20650 9.41066e-18
4801.67900 9.39252e-18
4803.14148 9.48804e-18
4804.61398 9.32254e-18
4806.08648 9.34518e-18
4807.55898 9.32772e-18
4809.02146 9.78208e-18
4810.49396 9.65324e-18
4811.96646 9.75566e-18
4813.43896 9.98431e-18
4814.90144 1.00553e-17
4816.37394 1.00775e-17
4817.84644 1.04862e-17
4819.31894 1.05254e-17
4820.78142 1.04419e-17
4822.25392 1.07789e-17
4823.72642 1.10630e-17
4825.19892 1.10545e-17
4826.66140 1.12171e-17
4828.13390 1.15417e-17
4829.60640 1.17621e-17
4831.07890 1.19167e-17
4832.54138 1.21550e-17
4834.01388 1.22764e-17
4835.48638 1.26171e-17
4836.95888 1.26314e-17
4838.42136 1.27729e-17
4839.89386 1.28724e-17
4841.36636 1.30775e-17
4842.83885 1.31875e-17
4844.30134 1.33992e-17
4845.77383 1.34987e-17
4847.24633 1.36575e-17
4848.71883 1.37390e-17
4850.18131 1.35499e-17
4851.65381 1.34133e-17
4853.12631 1.32768e-17
4854.59881 1.31402e-17
4856.06129 1.30038e-17
4857.53379 1.28673e-17
4859.00629 1.27309e-17
4860.47879 1.25945e-17
4861.94127 1.24581e-17
4863.41377 1.23217e-17
4864.88627 1.21854e-17
4866.35877 1.20490e-17
4867.82125 1.19127e-17
4869.29375 1.17764e-17
4870.76625 1.16402e-17
4872.23875 1.15040e-17
4873.70123 1.13677e-17
4875.17373 1.12315e-17
4876.64623 1.10953e-17
4878.10871 1.09592e-17
4879.58121 1.08231e-17
4881.05371 1.06870e-17
4882.52621 1.05509e-17
4883.99871 1.04148e-17
4885.46119 1.02788e-17
4886.93369 1.01428e-17
4888.40619 1.00068e-17
4889.87869 9.86334e-18
4891.34117 9.82489e-18
4892.81367 9.95497e-18
4894.28617 9.74077e-18
4895.74865 9.62414e-18
4897.22115 9.87681e-18
4898.69365 9.84122e-18
4900.16615 9.76952e-18
4901.62863 9.81690e-18
4903.10113 1.01653e-17
4904.57362 1.01862e-17
4906.04612 1.03953e-17
4907.50861 1.05461e-17
4908.98110 1.05481e-17
4910.45360 1.06761e-17
4911.92610 1.09600e-17
4913.38859 1.09998e-17
4914.86108 1.13396e-17
4916.33358 1.14664e-17
4917.80608 1.14167e-17
4919.26856 1.16623e-17
4920.74106 1.19230e-17
4922.21356 1.21870e-17
4923.68606 1.22755e-17
4925.14854 1.22873e-17
4926.62104 1.25717e-17
4928.09354 1.28403e-17
4929.56604 1.30861e-17
4931.02852 1.32032e-17
4932.50102 1.31499e-17
4933.97352 1.36912e-17
4935.44602 1.38924e-17
4936.90850 1.42358e-17
4938.38100 1.42778e-17
4939.85350 1.43145e-17
4941.32600 1.46833e-17
4942.78848 1.47875e-17
4944.26098 1.50012e-17
4945.73348 1.50809e-17
4947.20598 1.51070e-17
4948.66846 1.53756e-17
4950.14096 1.54143e-17
4951.61346 1.54530e-17
4953.08596 1.54917e-17
4954.54844 1.55304e-17
4956.02094 1.55690e-17
4957.49344 1.56077e-17
4958.96594 1.56464e-17
4960.42842 1.56850e-17
4961.90092 1.57237e-17
4963.37342 1.57623e-17
4964.84591 1.58009e-17
4966.30840 1.58396e-17
4967.78090 1.58782e-17
4969.25339 1.59168e-17
4970.72589 1.59554e-17
4972.18837 1.59940e-17
4973.66087 1.60326e-17
4975.13337 1.60712e-17
4976.60587 1.61098e-17
4978.06835 1.61484e-17
4979.54085 1.61869e-17
4981.01335 1.62255e-17
4982.47583 1.62641e-17
4983.94833 1.63026e-17
4985.42083 1.63412e-17
4986.89333 1.62125e-17
4988.35581 1.61414e-17
4989.82831 1.61234e-17
4991.30081 1.59776e-17
4992.77331 1.57611e-17
4994.24581 1.55883e-17
4995.70829 1.52445e-17
4997.18079 1.49067e-17
4998.65329 1.46744e-17
5000.11577 1.44421e-17
5001.58827 1.42099e-17
5003.06077 1.39778e-17
5004.53327 1.37456e-17
5005.99575 1.35135e-17
5007.46825 1.32814e-17
5008.94075 1.30494e-17
5010.41325 1.28175e-17
5011.87573 1.25856e-17
5013.34823 1.23536e-17
5014.82073 1.21217e-17
5016.29323 1.18899e-17
5017.75571 1.16581e-17
5019.22821 1.14264e-17
5020.70071 1.11946e-17
5022.17321 1.09629e-17
5023.63569 1.07312e-17
5025.10819 1.04997e-17
5026.58068 1.02681e-17
5028.05318 1.00365e-17
5029.51567 9.80505e-18
5030.98816 9.57354e-18
5032.46066 9.34222e-18
5033.93316 9.11078e-18
5035.39565 8.99525e-18
5036.86814 8.89790e-18
5038.34064 8.74992e-18
5039.81314 8.80666e-18
5041.27562 8.81188e-18
5042.74812 8.87887e-18
5044.22062 8.86250e-18
5045.69312 8.85685e-18
5047.15560 8.90463e-18
5048.62810 9.11311e-18
5050.10060 9.18211e-18
5051.57310 9.18405e-18
5053.03558 9.45103e-18
5054.50808 9.44130e-18
5055.98058 9.43839e-18
5057.45308 9.54762e-18
5058.91556 9.84037e-18
5060.38806 9.93159e-18
5061.86056 9.93747e-18
5063.33306 9.83197e-18
5064.79554 9.92038e-18
5066.26804 1.00731e-17
5067.74054 1.02011e-17
5069.20302 1.02487e-17
5070.67552 1.03060e-17
5072.14802 1.04575e-17
5073.62052 1.06512e-17
5075.09302 1.08209e-17
5076.55550 1.10329e-17
5078.02800 1.09701e-17
5079.50050 1.11361e-17
5080.97300 1.11974e-17
5082.43548 1.11387e-17
5083.90798 1.14752e-17
5085.38047 1.14900e-17
5086.84296 1.15641e-17
5088.31546 1.16768e-17
5089.78795 1.17922e-17
5091.26045 1.19135e-17
5092.72294 1.19750e-17
5094.19544 1.20223e-17
5095.66793 1.20509e-17
5097.14043 1.21036e-17
5098.60292 1.21334e-17
5100.07541 1.22229e-17
5101.54791 1.22153e-17
5103.02041 1.23777e-17
5104.48289 1.23127e-17
5105.95539 1.23523e-17
5107.42789 1.24880e-17
5108.90039 1.24446e-17
5110.36287 1.25798e-17
5111.83537 1.26527e-17
5113.30787 1.25568e-17
5114.78037 1.25683e-17
5116.24285 1.26439e-17
5117.71535 1.27210e-17
5119.18785 1.28153e-17
5120.66035 1.28816e-17
5122.12283 1.29060e-17
5123.59533 1.28881e-17
5125.06783 1.28799e-17
5126.54033 1.29475e-17
5128.00281 1.29685e-17
5129.47531 1.30457e-17
5130.94781 1.29169e-17
5132.42031 1.28774e-17
5133.88279 1.29943e-17
5135.35529 1.30058e-17
5136.82779 1.30954e-17
5138.30029 1.29976e-17
5139.76277 1.29457e-17
5141.23527 1.28315e-17
5142.70777 1.29025e-17
5144.18026 1.29511e-17
5145.64275 1.29326e-17
5147.11525 1.30542e-17
5148.58775 1.29876e-17
5150.06024 1.27642e-17
5151.52273 1.28206e-17
5152.99523 1.28990e-17
5154.46772 1.27830e-17
5155.94022 1.29904e-17
5157.40270 1.28943e-17
5158.87520 1.27532e-17
5160.34770 1.27690e-17
5161.82020 1.29352e-17
5163.28268 1.28854e-17
5164.75518 1.29141e-17
5166.22768 1.27980e-17
5167.70018 1.28090e-17
5169.16266 1.28576e-17
5170.63516 1.28605e-17
5172.10766 1.27934e-17
5173.57014 1.27794e-17
5175.04264 1.27373e-17
5176.51514 1.25851e-17
5177.98764 1.25724e-17
5179.45012 1.28289e-17
5180.92262 1.27762e-17
5182.39512 1.27906e-17
5183.86762 1.26549e-17
5185.34012 1.24644e-17
5186.80260 1.23919e-17
5188.27510 1.25896e-17
5189.74760 1.24833e-17
5191.21008 1.24405e-17
5192.68258 1.25704e-17
5194.15508 1.27559e-17
5195.62758 1.27427e-17
5197.09006 1.27222e-17
5198.56256 1.28936e-17
5200.03506 1.27581e-17
5201.50756 1.28734e-17
5202.97004 1.30323e-17
5204.44254 1.30876e-17
5205.91504 1.31879e-17
5207.38754 1.30593e-17
5208.85002 1.29675e-17
5210.32252 1.31172e-17
5211.79501 1.31728e-17
5213.26751 1.34301e-17
5214.73000 1.33582e-17
5216.20250 1.34144e-17
5217.67499 1.37226e-17
5219.14749 1.38047e-17
5220.60998 1.37781e-17
5222.08247 1.40061e-17
5223.55497 1.41876e-17
5225.02747 1.41633e-17
5226.48995 1.42814e-17
5227.96245 1.44866e-17
5229.43495 1.46332e-17
5230.90745 1.47746e-17
5232.36993 1.49888e-17
5233.84243 1.49384e-17
5235.31493 1.49692e-17
5236.78743 1.49968e-17
5238.24991 1.51160e-17
5239.72241 1.52110e-17
5241.19491 1.52973e-17
5242.66741 1.53593e-17
5244.12989 1.53984e-17
5245.60239 1.54001e-17
5247.07489 1.54570e-17
5248.54739 1.56829e-17
5250.00987 1.56941e-17
5251.48237 1.56672e-17
5252.95487 1.57537e-17
5254.42737 1.58223e-17
5255.88985 1.59427e-17
5257.36235 1.59661e-17
5258.83485 1.61171e-17
5260.30735 1.61995e-17
5261.76983 1.62238e-17
5263.24233 1.62289e-17
5264.71483 1.64285e-17
5266.18732 1.64942e-17
5267.64981 1.64855e-17
5269.12231 1.66383e-17
5270.59480 1.66658e-17
5272.06730 1.67797e-17
5273.52979 1.69388e-17
5275.00229 1.70453e-17
5276.47478 1.71992e-17
5277.93727 1.72113e-17
5279.40977 1.74282e-17
5280.88226 1.76489e-17
5282.35476 1.75303e-17
5283.81725 1.76738e-17
5285.28974 1.77978e-17
5286.76224 1.76924e-17
5288.23474 1.78346e-17
5289.69722 1.79880e-17
5291.16972 1.78536e-17
5292.64222 1.77073e-17
5294.11472 1.77743e-17
5295.57720 1.78833e-17
5297.04970 1.79817e-17
5298.52220 1.78079e-17
5299.99470 1.77497e-17
5301.45718 1.80767e-17
5302.92968 1.80652e-17
5304.40218 1.80546e-17
5305.87468 1.81895e-17
5307.33716 1.82565e-17
5308.80966 1.81528e-17
5310.28216 1.81211e-17
5311.75466 1.82271e-17
5313.21714 1.82194e-17
5314.68964 1.82076e-17
5316.16214 1.81630e-17
5317.63464 1.82320e-17
5319.09712 1.81941e-17
5320.56962 1.83155e-17
5322.04212 1.84428e-17
5323.51462 1.84298e-17
5324.97710 1.85053e-17
5326.44960 1.83512e-17
5327.92210 1.82362e-17
5329.39460 1.83204e-17
5330.85708 1.82964e-17
5332.32958 1.83606e-17
5333.80208 1.84035e-17
5335.27457 1.83760e-17
5336.73706 1.83164e-17
5338.20955 1.84198e-17
5339.68205 1.84146e-17
5341.15455 1.84482e-17
5342.61704 1.84328e-17
5344.08953 1.83051e-17
5345.56203 1.82946e-17
5347.03453 1.85276e-17
5348.49701 1.85323e-17
5349.96951 1.84805e-17
5351.44201 1.85617e-17
5352.91451 1.83543e-17
5354.37699 1.83094e-17
5355.84949 1.84173e-17
5357.32199 1.85665e-17
5358.79449 1.86065e-17
5360.25697 1.83916e-17
5361.72947 1.82684e-17
5363.20197 1.82993e-17
5364.66445 1.82892e-17
5366.13695 1.82378e-17
5367.60945 1.80916e-17
5369.08195 1.79866e-17
5370.55445 1.81097e-17
5372.01693 1.81747e-17
5373.48943 1.79127e-17
5374.96193 1.78133e-17
5376.42441 1.77949e-17
5377.89691 1.76359e-17
5379.36941 1.75940e-17
5380.84191 1.76080e-17
5382.30439 1.74570e-17
5383.77689 1.73143e-17
5385.24939 1.73271e-17
5386.72189 1.73134e-17
5388.18437 1.72175e-17
5389.65687 1.71064e-17
5391.12937 1.70466e-17
5392.60186 1.68607e-17
5394.06435 1.65642e-17
5395.53685 1.66196e-17
5397.00935 1.67022e-17
5398.48184 1.65780e-17
5399.94433 1.62749e-17
5401.41683 1.62063e-17
5402.88932 1.62097e-17
5404.36182 1.63065e-17
5405.82431 1.62452e-17
5407.29680 1.59662e-17
5408.76930 1.60751e-17
5410.24180 1.63152e-17
5411.70428 1.60729e-17
5413.17678 1.59343e-17
5414.64928 1.60939e-17
5416.12178 1.61005e-17
5417.58426 1.60310e-17
5419.05676 1.60512e-17
5420.52926 1.58774e-17
5422.00176 1.59494e-17
5423.46424 1.59706e-17
5424.93674 1.59590e-17
5426.40924 1.58717e-17
5427.88174 1.60133e-17
5429.34422 1.61132e-17
5430.81672 1.60955e-17
5432.28922 1.63032e-17
5433.76172 1.64807e-17
5435.22420 1.63685e-17
5436.69670 1.63033e-17
5438.16920 1.64090e-17
5439.64170 1.63817e-17
5441.10418 1.64571e-17
5442.57668 1.65241e-17
5444.04918 1.67006e-17
5445.52168 1.67777e-17
5446.98416 1.68803e-17
5448.45666 1.69387e-17
5449.92916 1.70199e-17
5451.40165 1.72377e-17
5452.86414 1.73952e-17
5454.33664 1.75012e-17
5455.80914 1.76651e-17
5457.28163 1.78111e-17
5458.74412 1.77907e-17
5460.21662 1.77579e-17
5461.68911 1.78463e-17
5463.15160 1.77765e-17
5464.62410 1.77049e-17
5466.09659 1.78519e-17
5467.56909 1.80316e-17
5469.03157 1.80297e-17
5470.50407 1.80892e-17
5471.97657 1.81669e-17
5473.44907 1.81223e-17
5474.91155 1.81296e-17
5476.38405 1.83138e-17
5477.85655 1.83910e-17
5479.32905 1.85367e-17
5480.79153 1.85015e-17
5482.26403 1.83718e-17
5483.73653 1.85689e-17
5485.20903 1.84910e-17
5486.67151 1.85848e-17
5488.14401 1.86650e-17
5489.61651 1.85939e-17
5491.08901 1.84255e-17
5492.55149 1.84308e-17
5494.02399 1.85683e-17
5495.49649 1.86637e-17
5496.96899 1.84340e-17
5498.43147 1.83247e-17
5499.90397 1.83938e-17
5501.37647 1.83650e-17
5502.84897 1.82044e-17
5504.31145 1.82202e-17
5505.78395 1.78901e-17
5507.25645 1.77783e-17
5508.72895 1.78320e-17
5510.19143 1.76619e-17
5511.66393 1.76753e-17
5513.13643 1.75157e-17
5514.60893 1.74734e-17
5516.07141 1.75348e-17
5517.54391 1.73087e-17
5519.01640 1.71547e-17
5520.48890 1.70979e-17
5521.95139 1.69728e-17
5523.42389 1.69286e-17
5524.89638 1.68556e-17
5526.36888 1.68127e-17
5527.83137 1.67952e-17
5529.30386 1.67109e-17
5530.77636 1.66884e-17
5532.24886 1.65078e-17
5533.71134 1.63307e-17
5535.18384 1.62086e-17
5536.65634 1.62555e-17
5538.12884 1.64066e-17
5539.59132 1.62878e-17
5541.06382 1.62024e-17
5542.53632 1.62913e-17
5544.00882 1.61979e-17
5545.47130 1.59490e-17
5546.94380 1.57839e-17
5548.41630 1.57900e-17
5549.87878 1.58498e-17
5551.35128 1.59074e-17
5552.82378 1.59512e-17
5554.29628 1.58809e-17
5555.76878 1.59084e-17
5557.23126 1.59361e-17
5558.70376 1.58823e-17
5560.17626 1.58500e-17
5561.64876 1.58306e-17
5563.11124 1.58431e-17
5564.58374 1.58168e-17
5566.05624 1.56785e-17
5567.51872 1.55487e-17
5568.99122 1.56457e-17
5570.46372 1.58728e-17
5571.93622 1.59891e-17
5573.39870 1.58559e-17
5574.87120 1.57892e-17
5576.34370 1.59751e-17
5577.81620 1.60681e-17
5579.27868 1.58941e-17
5580.75118 1.57940e-17
5582.22368 1.60257e-17
5583.69617 1.61775e-17
5585.15866 1.60259e-17
5586.63116 1.59273e-17
5588.10365 1.60431e-17
5589.57615 1.60635e-17
5591.03864 1.60958e-17
5592.51113 1.61815e-17
5593.98363 1.61614e-17
5595.45613 1.62659e-17
5596.91861 1.63275e-17
5598.39111 1.62505e-17
5599.86361 1.62389e-17
5601.33611 1.62533e-17
5602.79859 1.62080e-17
5604.27109 1.62574e-17
5605.74359 1.62703e-17
5607.21609 1.61867e-17
5608.67857 1.62253e-17
5610.15107 1.63063e-17
5611.62357 1.63040e-17
5613.09607 1.62044e-17
5614.55855 1.61832e-17
5616.03105 1.62377e-17
5617.50355 1.62834e-17
5618.97605 1.63741e-17
5620.43853 1.62816e-17
5621.91103 1.63449e-17
5623.38353 1.65009e-17
5624.85603 1.65363e-17
5626.31851 1.65818e-17
5627.79101 1.64484e-17
5629.26351 1.63892e-17
5630.73601 1.63179e-17
5632.19849 1.62965e-17
5633.67099 1.63982e-17
5635.14349 1.63911e-17
5636.61599 1.63065e-17
5638.07847 1.61651e-17
5639.55097 1.62717e-17
5641.02347 1.62758e-17
5642.49596 1.62388e-17
5643.95845 1.61520e-17
5645.43095 1.59841e-17
5646.90344 1.60336e-17
5648.37594 1.60906e-17
5649.83842 1.62374e-17
5651.31092 1.61630e-17
5652.78342 1.60646e-17
5654.24590 1.58717e-17
5655.71840 1.58499e-17
5657.19090 1.58324e-17
5658.66340 1.56504e-17
5660.12588 1.55555e-17
5661.59838 1.56211e-17
5663.07088 1.56594e-17
5664.54338 1.54730e-17
5666.01588 1.53797e-17
5667.47836 1.54495e-17
5668.95086 1.53664e-17
5670.42336 1.51169e-17
5671.88584 1.51652e-17
5673.35834 1.53429e-17
5674.83084 1.53480e-17
5676.30334 1.53249e-17
5677.76582 1.51207e-17
5679.23832 1.50038e-17
5680.71082 1.50441e-17
5682.18332 1.49315e-17
5683.64580 1.47220e-17
5685.11830 1.46667e-17
5686.59080 1.46850e-17
5688.06330 1.44875e-17
5689.52578 1.45796e-17
5690.99828 1.48185e-17
5692.47078 1.45732e-17
5693.94328 1.44100e-17
5695.40576 1.43967e-17
5696.87826 1.43427e-17
5698.35076 1.41793e-17
5699.82326 1.40466e-17
5701.28574 1.39499e-17
5702.75824 1.40098e-17
5704.23074 1.40077e-17
5705.70323 1.38784e-17
5707.16572 1.37308e-17
5708.63821 1.36703e-17
5710.11071 1.36216e-17
5711.58321 1.35401e-17
5713.04570 1.35395e-17
5714.51819 1.34802e-17
5715.99069 1.34601e-17
5717.46319 1.35236e-17
5718.92567 1.34080e-17
5720.39817 1.32384e-17
5721.87067 1.31513e-17
5723.34317 1.30449e-17
5724.80565 1.29798e-17
5726.27815 1.30286e-17
5727.75065 1.29484e-17
5729.22315 1.28863e-17
5730.68563 1.28749e-17
5732.15813 1.28836e-17
5733.63063 1.26836e-17
5735.10313 1.24782e-17
5736.56561 1.23780e-17
5738.03811 1.24306e-17
5739.51061 1.24498e-17
5740.97309 1.24425e-17
5742.44559 1.22564e-17
5743.91809 1.21522e-17
5745.39059 1.21484e-17
5746.85307 1.20894e-17
5748.32557 1.20189e-17
5749.79807 1.21351e-17
5751.27057 1.21549e-17
5752.74307 1.20678e-17
5754.20555 1.20087e-17
5755.67805 1.20591e-17
5757.15055 1.20012e-17
5758.61303 1.18746e-17
5760.08553 1.18131e-17
5761.55803 1.19009e-17
5763.03053 1.18909e-17
5764.49301 1.17717e-17
5765.96551 1.16614e-17
5767.43800 1.18079e-17
5768.91050 1.19468e-17
5770.37299 1.18899e-17
5771.84549 1.18967e-17
5773.31798 1.18588e-17
5774.79048 1.17574e-17
5776.25296 1.18324e-17
5777.72546 1.19660e-17
5779.19796 1.19444e-17
5780.67046 1.18214e-17
5782.13294 1.18318e-17
5783.60544 1.19689e-17
5785.07794 1.21532e-17
5786.55044 1.23753e-17
5788.01292 1.23776e-17
5789.48542 1.24000e-17
5790.95792 1.24536e-17
5792.43042 1.23733e-17
5793.89290 1.25139e-17
5795.36540 1.26784e-17
5796.83790 1.26699e-17
5798.31040 1.27971e-17
5799.77288 1.29220e-17
5801.24538 1.29262e-17
5802.71788 1.30339e-17
5804.19038 1.31110e-17
5805.65286 1.31091e-17
5807.12536 1.31469e-17
5808.59786 1.33069e-17
5810.07036 1.35573e-17
5811.53284 1.35905e-17
5813.00534 1.36642e-17
5814.47784 1.38526e-17
5815.95034 1.38074e-17
5817.41282 1.38082e-17
5818.88532 1.39348e-17
5820.35782 1.38922e-17
5821.83032 1.38651e-17
5823.29280 1.40477e-17
5824.76530 1.41061e-17
5826.23780 1.40151e-17
5827.71029 1.40584e-17
5829.17278 1.42886e-17
5830.64527 1.43181e-17
5832.11777 1.41605e-17
5833.59027 1.42861e-17
5835.05275 1.43930e-17
5836.52525 1.43390e-17
5837.99775 1.43152e-17
5839.47025 1.42853e-17
5840.93273 1.43424e-17
5842.40523 1.44433e-17
5843.87773 1.44410e-17
5845.34021 1.43486e-17
5846.81271 1.43611e-17
5848.28521 1.43825e-17
5849.75771 1.42179e-17
5851.22019 1.41594e-17
5852.69269 1.42808e-17
5854.16519 1.43795e-17
5855.63769 1.44742e-17
5857.10017 1.44961e-17
5858.57267 1.43132e-17
5860.04517 1.41621e-17
5861.51767 1.41414e-17
5862.98015 1.40929e-17
5864.45265 1.42326e-17
5865.92515 1.43399e-17
5867.39765 1.42791e-17
5868.86013 1.41925e-17
5870.33263 1.40797e-17
5871.80513 1.40837e-17
5873.27763 1.41166e-17
5874.74011 1.40945e-17
5876.21261 1.40556e-17
5877.68511 1.40436e-17
5879.15761 1.39828e-17
5880.62009 1.39698e-17
5882.09259 1.39477e-17
5883.56509 1.39818e-17
5885.03759 1.39718e-17
5886.50007 1.36872e-17
5887.97257 1.32291e-17
5889.44506 1.28725e-17
5890.91756 1.27878e-17
5892.38005 1.28663e-17
5893.85255 1.31457e-17
5895.32504 1.31017e-17
5896.79754 1.28840e-17
5898.26003 1.28173e-17
5899.73252 1.29881e-17
5901.20502 1.31760e-17
5902.67752 1.33427e-17
5904.14000 1.35680e-17
5905.61250 1.35867e-17
5907.08500 1.36421e-17
5908.55750 1.37849e-17
5910.01998 1.38666e-17
5911.49248 1.39449e-17
5912.96498 1.40186e-17
5914.43748 1.39657e-17
5915.89996 1.39982e-17
5917.37246 1.40251e-17
5918.84496 1.40746e-17
5920.31746 1.41761e-17
5921.77994 1.42239e-17
5923.25244 1.42375e-17
5924.72494 1.41773e-17
5926.19744 1.41231e-17
5927.65992 1.42633e-17
5929.13242 1.43000e-17
5930.60492 1.42726e-17
5932.07742 1.42781e-17
5933.53990 1.41524e-17
5935.01240 1.42186e-17
5936.48490 1.43837e-17
5937.95740 1.42352e-17
5939.41988 1.40850e-17
5940.89238 1.40923e-17
5942.36488 1.40340e-17
5943.82736 1.41776e-17
5945.29986 1.41342e-17
5946.77236 1.40652e-17
5948.24485 1.40733e-17
5949.70734 1.41077e-17
5951.17984 1.42176e-17
5952.65234 1.42297e-17
5954.12483 1.40725e-17
5955.58732 1.40108e-17
5957.05981 1.40825e-17
5958.53231 1.40389e-17
5960.00481 1.39136e-17
5961.46730 1.39093e-17
5962.93979 1.39976e-17
5964.41229 1.40100e-17
5965.88479 1.40086e-17
5967.34727 1.38800e-17
5968.81977 1.36587e-17
5970.29227 1.36606e-17
5971.76477 1.38817e-17
5973.22725 1.38246e-17
5974.69975 1.36341e-17
5976.17225 1.37915e-17
5977.64475 1.38188e-17
5979.10723 1.36428e-17
5980.57973 1.36472e-17
5982.05223 1.37153e-17
5983.52473 1.36803e-17
5984.98721 1.35808e-17
5986.45971 1.35649e-17
5987.93221 1.34744e-17
5989.40471 1.33915e-17
5990.86719 1.33810e-17
5992.33969 1.33887e-17
5993.81219 1.34919e-17
5995.28469 1.34409e-17
5996.74717 1.34193e-17
5998.21967 1.34702e-17
5999.69217 1.33443e-17
6001.16467 1.32944e-17
6002.62715 1.32693e-17
6004.09965 1.31249e-17
6005.57215 1.31213e-17
6007.04465 1.31666e-17
6008.50713 1.31285e-17
6009.97963 1.30485e-17
6011.45212 1.29842e-17
6012.92462 1.29664e-17
6014.38711 1.27504e-17
6015.85960 1.25336e-17
6017.33210 1.26312e-17
6018.80460 1.27391e-17
6020.26709 1.26371e-17
6021.73958 1.24725e-17
6023.21208 1.23978e-17
6024.68458 1.23978e-17
6026.14706 1.23132e-17
6027.61956 1.23265e-17
6029.09206 1.23430e-17
6030.56456 1.21881e-17
6032.02704 1.21751e-17
6033.49954 1.21861e-17
6034.97204 1.20791e-17
6036.43452 1.20204e-17
6037.90702 1.20832e-17
6039.37952 1.21863e-17
6040.85202 1.21675e-17
6042.31450 1.20833e-17
6043.78700 1.20032e-17
6045.25950 1.18829e-17
6046.73200 1.19790e-17
6048.19448 1.21976e-17
6049.66698 1.22619e-17
6051.13948 1.22886e-17
6052.61198 1.22648e-17
6054.07446 1.22126e-17
6055.54696 1.23148e-17
6057.01946 1.24751e-17
6058.49196 1.23784e-17
6059.95444 1.23634e-17
6061.42694 1.25338e-17
6062.89944 1.24359e-17
6064.37194 1.23666e-17
6065.83442 1.25568e-17
6067.30692 1.25490e-17
6068.77942 1.25369e-17
6070.25191 1.25761e-17
6071.71440 1.24958e-17
6073.18690 1.25818e-17
6074.65940 1.27220e-17
6076.13189 1.27319e-17
6077.59438 1.27915e-17
6079.06688 1.28465e-17
6080.53937 1.28710e-17
6082.01187 1.28522e-17
6083.47436 1.27453e-17
6084.94685 1.27119e-17
6086.41935 1.27051e-17
6087.89185 1.28610e-17
6089.35433 1.28705e-17
6090.82683 1.27396e-17
6092.29933 1.27020e-17
6093.77183 1.26258e-17
6095.23431 1.26277e-17
6096.70681 1.26686e-17
6098.17931 1.26546e-17
6099.65181 1.25705e-17
6101.11429 1.24276e-17
6102.58679 1.23627e-17
6104.05929 1.22807e-17
6105.53179 1.22811e-17
6106.99427 1.24148e-17
6108.46677 1.24981e-17
6109.93927 1.24060e-17
6111.41177 1.22618e-17
6112.87425 1.22070e-17
6114.34675 1.22441e-17
6115.81925 1.22749e-17
6117.29175 1.22067e-17
6118.75423 1.22692e-17
6120.22673 1.22713e-17
6121.69923 1.21694e-17
6123.17173 1.20440e-17
6124.63421 1.20550e-17
6126.10671 1.20195e-17
6127.57921 1.19756e-17
6129.05170 1.20771e-17
6130.51419 1.20145e-17
6131.98669 1.19964e-17
6133.45919 1.20108e-17
6134.92167 1.19945e-17
6136.39417 1.20256e-17
6137.86667 1.21304e-17
6139.33916 1.21877e-17
6140.80165 1.22885e-17
6142.27415 1.24244e-17
6143.74664 1.23855e-17
6145.21914 1.25026e-17
6146.68163 1.26842e-17
6148.15412 1.26006e-17
6149.62662 1.24456e-17
6151.09912 1.25888e-17
6152.56160 1.27100e-17
6154.03410 1.27560e-17
6155.50660 1.29050e-17
6156.97910 1.28854e-17
6158.44158 1.28232e-17
6159.91408 1.29346e-17
6161.38658 1.30583e-17
6162.85908 1.30632e-17
6164.32156 1.30061e-17
6165.79406 1.31281e-17
6167.26656 1.32469e-17
6168.73906 1.32045e-17
6170.20154 1.32076e-17
6171.67404 1.32657e-17
6173.14654 1.33994e-17
6174.61904 1.34428e-17
6176.08152 1.34190e-17
6177.55402 1.34692e-17
6179.02652 1.35287e-17
6180.49902 1.35268e-17
6181.96150 1.35249e-17
6183.43400 1.35922e-17
6184.90650 1.36239e-17
6186.37900 1.35871e-17
6187.84148 1.35384e-17
6189.31398 1.35386e-17
6190.78648 1.35054e-17
6192.25898 1.35692e-17
6193.72146 1.35074e-17
6195.19396 1.33207e-17
6196.66645 1.33541e-17
6198.13895 1.33298e-17
6199.60144 1.32634e-17
6201.07394 1.33286e-17
6202.54643 1.32877e-17
6204.01893 1.31903e-17
6205.48142 1.30577e-17
6206.95391 1.29178e-17
6208.42641 1.30234e-17
6209.89891 1.30642e-17
6211.36139 1.29293e-17
6212.83389 1.27753e-17
6214.30639 1.25651e-17
6215.77889 1.24792e-17
6217.24137 1.24824e-17
6218.71387 1.23667e-17
6220.18637 1.22263e-17
6221.64885 1.21520e-17
6223.12135 1.19867e-17
6224.59385 1.17912e-17
6226.06635 1.16588e-17
6227.52883 1.16366e-17
6229.00133 1.15437e-17
6230.47383 1.13793e-17
6231.94633 1.13778e-17
6233.40881 1.13913e-17
6234.88131 1.13314e-17
6236.35381 1.12257e-17
6237.82631 1.12661e-17
6239.28879 1.12255e-17
6240.76129 1.10433e-17
6242.23379 1.11244e-17
6243.70629 1.12370e-17
6245.16877 1.10362e-17
6246.64127 1.08593e-17
6248.11377 1.08648e-17
6249.58627 1.09737e-17
6251.04875 1.12058e-17
6252.52125 1.12658e-17
6253.99375 1.10784e-17
6255.46625 1.09613e-17
6256.92873 1.09055e-17
6258.40123 1.08858e-17
6259.87373 1.09605e-17
6261.34622 1.11064e-17
6262.80871 1.11135e-17
6264.28121 1.10548e-17
6265.75370 1.10519e-17
6267.22620 1.11163e-17
6268.68869 1.10082e-17
6270.16118 1.09318e-17
6271.63368 1.10272e-17
6273.10618 1.11320e-17
6274.56866 1.12339e-17
6276.04116 1.13068e-17
6277.51366 1.13577e-17
6278.98616 1.12731e-17
6280.44864 1.12458e-17
6281.92114 1.12232e-17
6283.39364 1.12891e-17
6284.86614 1.13972e-17
6286.32862 1.14049e-17
6287.80112 1.13732e-17
6289.27362 1.14830e-17
6290.74612 1.16617e-17
6292.20860 1.16531e-17
6293.68110 1.16380e-17
6295.15360 1.16618e-17
6296.62610 1.15455e-17
6298.08858 1.14432e-17
6299.56108 1.15485e-17
6301.03358 1.16317e-17
6302.50608 1.14662e-17
6303.96856 1.12732e-17
6305.44106 1.12788e-17
6306.91356 1.12947e-17
6308.38606 1.12251e-17
6309.84854 1.12580e-17
6311.32104 1.13296e-17
6312.79354 1.13502e-17
6314.26604 1.12853e-17
6315.72852 1.12849e-17
6317.20102 1.11694e-17
6318.67352 1.11687e-17
6320.14601 1.12070e-17
6321.60850 1.12096e-17
6323.08100 1.12462e-17
6324.55349 1.11626e-17
6326.01598 1.12579e-17
6327.48848 1.13014e-17
6328.96097 1.12101e-17
6330.43347 1.12586e-17
6331.89595 1.12344e-17
6333.36845 1.12318e-17
6334.84095 1.11996e-17
6336.31345 1.10644e-17
6337.77593 1.11094e-17
6339.24843 1.12853e-17
6340.72093 1.12995e-17
6342.19343 1.13814e-17
6343.65591 1.13841e-17
6345.12841 1.12245e-17
6346.60091 1.13468e-17
6348.07341 1.14793e-17
6349.53589 1.15329e-17
6351.00839 1.16227e-17
6352.48089 1.17904e-17
6353.95339 1.17366e-17
6355.41587 1.16065e-17
6356.88837 1.16668e-17
6358.36087 1.16820e-17
6359.83337 1.16925e-17
6361.29585 1.17732e-17
6362.76835 1.19073e-17
6364.24085 1.19768e-17
6365.71335 1.20132e-17
6367.17583 1.21149e-17
6368.64833 1.21280e-17
6370.12083 1.20865e-17
6371.59333 1.20610e-17
6373.05581 1.21011e-17
6374.52831 1.22693e-17
6376.00081 1.22728e-17
6377.47330 1.22457e-17
6378.93579 1.23638e-17
6380.40829 1.24358e-17
6381.88079 1.24422e-17
6383.35328 1.23741e-17
6384.81577 1.24303e-17
6386.28827 1.25927e-17
6387.76076 1.25905e-17
6389.23326 1.26078e-17
6390.69575 1.28347e-17
6392.16824 1.29403e-17
6393.64074 1.28525e-17
6395.11324 1.28357e-17
6396.57572 1.28499e-17
6398.04822 1.28413e-17
6399.52072 1.29454e-17
6400.99322 1.29819e-17
6402.45570 1.28767e-17
6403.92820 1.28348e-17
6405.40070 1.28650e-17
6406.87320 1.28770e-17
6408.33568 1.28086e-17
6409.80818 1.28812e-17
6411.28068 1.29855e-17
6412.74316 1.29169e-17
6414.21566 1.29945e-17
6415.68816 1.31310e-17
6417.16066 1.31965e-17
6418.62314 1.32192e-17
6420.09564 1.32536e-17
6421.56814 1.33505e-17
6423.04064 1.32896e-17
6424.50312 1.33052e-17
6425.97562 1.33644e-17
6427.44812 1.32897e-17
6428.92062 1.33271e-17
6430.38310 1.33246e-17
6431.85560 1.32202e-17
6433.32810 1.33099e-17
6434.80060 1.34045e-17
6436.26308 1.32864e-17
6437.73558 1.31739e-17
6439.20808 1.31716e-17
6440.68058 1.31765e-17
6442.14306 1.32708e-17
6443.61556 1.33276e-17
6445.08806 1.32659e-17
6446.56055 1.31598e-17
6448.02304 1.31275e-17
6449.49554 1.31977e-17
6450.96803 1.32079e-17
6452.44053 1.31517e-17
6453.90301 1.32044e-17
6455.37551 1.31823e-17
6456.84801 1.31795e-17
6458.32051 1.30989e-17
6459.78299 1.30847e-17
6461.25549 1.30408e-17
6462.72799 1.30081e-17
6464.20049 1.31287e-17
6465.66297 1.31687e-17
6467.13547 1.31033e-17
6468.60797 1.28959e-17
6470.08047 1.27781e-17
6471.54295 1.28359e-17
6473.01545 1.28321e-17
6474.48795 1.27364e-17
6475.96045 1.28111e-17
6477.42293 1.27820e-17
6478.89543 1.25986e-17
6480.36793 1.26430e-17
6481.84043 1.27022e-17
6483.30291 1.27400e-17
6484.77541 1.26723e-17
6486.24791 1.26548e-17
6487.72041 1.28318e-17
6489.18289 1.29121e-17
6490.65539 1.28391e-17
6492.12789 1.28763e-17
6493.60039 1.29893e-17
6495.06287 1.29284e-17
6496.53537 1.28541e-17
6498.00787 1.28681e-17
6499.48037 1.29375e-17
6500.94285 1.29270e-17
6502.41535 1.28970e-17
6503.88785 1.29264e-17
6505.35033 1.29278e-17
6506.82283 1.29599e-17
6508.29533 1.29166e-17
6509.76782 1.28969e-17
6511.24032 1.29402e-17
6512.70280 1.29462e-17
6514.17530 1.28793e-17
6515.64780 1.27567e-17
6517.11029 1.27884e-17
6518.58278 1.27995e-17
6520.05528 1.29006e-17
6521.52778 1.29425e-17
6522.99026 1.29736e-17
6524.46276 1.30730e-17
6525.93526 1.29736e-17
6527.40776 1.28948e-17
6528.87024 1.29669e-17
6530.34274 1.29775e-17
6531.81524 1.29461e-17
6533.28774 1.28358e-17
6534.75022 1.28418e-17
6536.22272 1.28553e-17
6537.69522 1.28945e-17
6539.16772 1.29267e-17
6540.63020 1.28859e-17
6542.10270 1.27642e-17
6543.57520 1.26790e-17
6545.04770 1.26646e-17
6546.51018 1.26502e-17
6547.98268 1.26359e-17
6549.45518 1.26215e-17
6550.92768 1.26071e-17
6552.39016 1.25928e-17
6553.86266 1.25784e-17
6555.33516 1.25641e-17
6556.80766 1.25497e-17
6558.27014 1.25353e-17
6559.74264 1.25210e-17
6561.21514 1.25066e-17
6562.68764 1.24923e-17
6564.15012 1.24779e-17
6565.62262 1.24636e-17
6567.09512 1.24492e-17
6568.56761 1.24349e-17
6570.03010 1.24205e-17
6571.50260 1.24062e-17
6572.97509 1.23918e-17
6574.44759 1.23775e-17
6575.91007 1.23631e-17
6577.38257 1.23488e-17
6578.85507 1.23344e-17
6580.32757 1.23201e-17
6581.79005 1.23057e-17
6583.26255 1.22914e-17
6584.73505 1.22771e-17
6586.20755 1.22627e-17
6587.67003 1.22484e-17
6589.14253 1.22341e-17
6590.61503 1.22197e-17
6592.08753 1.22054e-17
6593.55001 1.21910e-17
6595.02251 1.21767e-17
6596.49501 1.21624e-17
6597.96751 1.21481e-17
6599.42999 1.21337e-17
6600.90249 1.21194e-17
6602.37499 1.21051e-17
6603.84749 1.20907e-17
6605.30997 1.20764e-17
6606.78247 1.21030e-17
6608.25497 1.21206e-17
6609.71745 1.20909e-17
6611.18995 1.19632e-17
6612.66245 1.19078e-17
6614.13495 1.19222e-17
6615.59743 1.20267e-17
6617.06993 1.20548e-17
6618.54243 1.20324e-17
6620.01493 1.20860e-17
6621.47741 1.19952e-17
6622.94991 1.18421e-17
6624.42241 1.19113e-17
6625.89491 1.20092e-17
6627.35739 1.19719e-17
6628.82989 1.19720e-17
6630.30238 1.20553e-17
6631.77488 1.19075e-17
6633.23737 1.17174e-17
6634.70986 1.17756e-17
6636.18236 1.17559e-17
6637.65486 1.16333e-17
6639.11735 1.15647e-17
6640.58984 1.17088e-17
6642.06234 1.17519e-17
6643.53484 1.16779e-17
6644.99732 1.15239e-17
6646.46982 1.14547e-17
6647.94232 1.14132e-17
6649.41482 1.14304e-17
6650.87730 1.15216e-17
6652.34980 1.14690e-17
6653.82230 1.14180e-17
6655.29480 1.13940e-17
6656.75728 1.14008e-17
6658.22978 1.14596e-17
6659.70228 1.13793e-17
6661.17478 1.12760e-17
6662.63726 1.13758e-17
6664.10976 1.14053e-17
6665.58226 1.13360e-17
6667.05476 1.11084e-17
6668.51724 1.11903e-17
6669.98974 1.13015e-17
6671.46224 1.12946e-17
6672.93474 1.12563e-17
6674.39722 1.12625e-17
6675.86972 1.09798e-17
6677.34222 1.07554e-17
6678.81472 1.09115e-17
6680.27720 1.09881e-17
6681.74970 1.08146e-17
6683.22220 1.07492e-17
6684.69470 1.07748e-17
6686.15718 1.07852e-17
6687.62968 1.09023e-17
6689.10217 1.10003e-17
6690.57467 1.08892e-17
6692.03716 1.07180e-17
6693.50965 1.07564e-17
6694.98215 1.08383e-17
6696.44464 1.07488e-17
6697.91714 1.08596e-17
6699.38963 1.08829e-17
6700.86213 1.07408e-17
6702.32462 1.06125e-17
6703.79711 1.05354e-17
6705.26961 1.07061e-17
6706.74211 1.06226e-17
6708.20459 1.05768e-17
6709.67709 1.06537e-17
6711.14959 1.06520e-17
6712.62209 1.05689e-17
6714.08457 1.05833e-17
6715.55707 1.06192e-17
6717.02957 1.05765e-17
6718.50207 1.05315e-17
6719.96455 1.03998e-17
6721.43705 1.05179e-17
6722.90955 1.05796e-17
6724.38205 1.05276e-17
6725.84453 1.07086e-17
6727.31703 1.10144e-17
6728.78953 1.11263e-17
6730.26203 1.10063e-17
6731.72451 1.08024e-17
6733.19701 1.05994e-17
6734.66951 1.06784e-17
6736.14201 1.06347e-17
6737.60449 1.06269e-17
6739.07699 1.07433e-17
6740.54949 1.09716e-17
6742.02199 1.10903e-17
6743.48447 1.11064e-17
6744.95697 1.10104e-17
6746.42947 1.08770e-17
6747.90197 1.07774e-17
6749.36445 1.07307e-17
6750.83695 1.05493e-17
6752.30945 1.05460e-17
6753.78194 1.05242e-17
6755.24443 1.05433e-17
6756.71693 1.06535e-17
6758.18942 1.06299e-17
6759.66192 1.04934e-17
6761.12440 1.03910e-17
6762.59690 1.05575e-17
6764.06940 1.06263e-17
6765.54190 1.04386e-17
6767.00438 1.04047e-17
6768.47688 1.04245e-17
6769.94938 1.04562e-17
6771.42188 1.04206e-17
6772.88436 1.03970e-17
6774.35686 1.04607e-17
6775.82936 1.04511e-17
6777.30186 1.05835e-17
6778.76434 1.06338e-17
6780.23684 1.05822e-17
6781.70934 1.05445e-17
6783.18184 1.04454e-17
6784.64432 1.04482e-17
6786.11682 1.04621e-17
6787.58932 1.04682e-17
6789.05180 1.03574e-17
6790.52430 1.03734e-17
6791.99680 1.04321e-17
6793.46930 1.04222e-17
6794.94180 1.04772e-17
6796.40428 1.04401e-17
6797.87678 1.03564e-17
6799.34928 1.02461e-17
6800.81176 1.01357e-17
6802.28426 1.01295e-17
6803.75676 1.01571e-17
6805.22926 1.01446e-17
6806.69174 1.01686e-17
6808.16424 1.01299e-17
6809.63674 1.00999e-17
6811.10924 1.01594e-17
6812.57172 1.00646e-17
6814.04422 1.00321e-17
6815.51671 1.00244e-17
6816.98921 1.00406e-17
6818.45170 1.00704e-17
6819.92420 1.01462e-17
6821.39669 1.01970e-17
6822.86919 1.01358e-17
6824.33168 1.01278e-17
6825.80417 1.01448e-17
6827.27667 1.00879e-17
6828.74917 1.01241e-17
6830.21165 1.01730e-17
6831.68415 1.00095e-17
6833.15665 1.00761e-17
6834.62915 1.01539e-17
6836.09163 1.00195e-17
6837.56413 9.98913e-18
6839.03663 9.86462e-18
6840.50913 9.72509e-18
6841.97161 9.71228e-18
6843.44411 9.77661e-18
6844.91661 9.76810e-18
6846.38911 9.75960e-18
6847.85159 9.75109e-18
6849.32409 9.74259e-18
6850.79659 9.73409e-18
6852.26909 9.72559e-18
6853.73157 9.71709e-18
6855.20407 9.70858e-18
6856.67657 9.70009e-18
6858.14907 9.69158e-18
6859.61155 9.68309e-18
6861.08405 9.67459e-18
6862.55655 9.66609e-18
6864.02905 9.65759e-18
6865.49153 9.64909e-18
6866.96403 9.64060e-18
6868.43653 9.63210e-18
6869.90902 9.62361e-18
6871.37151 9.61511e-18
6872.84401 9.60662e-18
6874.31650 9.59812e-18
6875.78900 9.58963e-18
6877.25149 9.58114e-18
6878.72399 9.57265e-18
6880.19648 9.56416e-18
6881.66898 9.55566e-18
6883.13147 9.54717e-18
6884.60396 9.53868e-18
6886.07646 9.53020e-18
6887.53895 9.52170e-18
6889.01144 9.51322e-18
6890.48394 9.50473e-18
6891.95644 9.49624e-18
6893.41892 9.48776e-18
6894.89142 9.47927e-18
6896.36392 9.47079e-18
6897.83642 9.46230e-18
6899.29890 9.45382e-18
6900.77140 9.44533e-18
6902.24390 9.43685e-18
6903.71640 9.42836e-18
6905.17888 9.41988e-18
6906.65138 9.41140e-18
6908.12388 9.40292e-18
6909.59638 9.39444e-18
6911.05886 9.38596e-18
6912.53136 9.37748e-18
6914.00386 9.36900e-18
6915.47636 9.36052e-18
6916.93884 9.35204e-18
6918.41134 9.34356e-18
6919.88384 9.33509e-18
6921.35634 9.32661e-18
6922.81882 9.31814e-18
6924.29132 9.30966e-18
6925.76382 9.30118e-18
6927.23632 9.29271e-18
6928.69880 9.28424e-18
6930.17130 9.27577e-18
6931.64380 9.26729e-18
6933.11630 9.25882e-18
6934.57878 9.25035e-18
6936.05128 9.24188e-18
6937.52378 9.18989e-18
6938.99627 9.20071e-18
6940.45876 9.22334e-18
6941.93125 9.29869e-18
6943.40375 9.25327e-18
6944.87625 9.18476e-18
6946.33874 9.23992e-18
6947.81123 9.26707e-18
6949.28373 9.34654e-18
6950.75623 9.33616e-18
6952.21871 9.18537e-18
6953.69121 9.11703e-18
6955.16371 9.20277e-18
6956.63621 9.35500e-18
6958.09869 9.23630e-18
6959.57119 9.08456e-18
6961.04369 8.98962e-18
6962.51619 8.98533e-18
6963.97867 9.03013e-18
6965.45117 8.93358e-18
6966.92367 9.05570e-18
6968.39617 9.01992e-18
6969.85865 8.98908e-18
6971.33115 9.00144e-18
6972.80365 9.07769e-18
6974.27615 8.95551e-18
6975.73863 9.02363e-18
6977.21113 9.08942e-18
6978.68363 9.05233e-18
6980.15613 9.11773e-18
6981.61861 9.21914e-18
6983.09111 9.30665e-18
6984.56361 9.34623e-18
6986.03611 9.38466e-18
6987.49859 9.43377e-18
6988.97109 9.34292e-18
6990.44359 9.22738e-18
6991.90607 9.34611e-18
6993.37857 9.40137e-18
6994.85107 9.37002e-18
6996.32356 9.31526e-18
6997.78605 9.44265e-18
6999.25855 9.36180e-18
7000.73105 9.29731e-18
7002.20354 9.27855e-18
7003.66603 9.30994e-18
7005.13853 9.34133e-18
7006.61102 9.37271e-18
7008.08352 9.40409e-18
7009.54601 9.43547e-18
7011.01850 9.46685e-18
7012.49100 9.49822e-18
7013.96350 9.52959e-18
7015.42598 9.56096e-18
7016.89848 9.59233e-18
7018.37098 9.62369e-18
7019.84348 9.65505e-18
7021.30596 9.65471e-18
7022.77846 9.68458e-18
7024.25096 9.62229e-18
7025.72346 9.50830e-18
7027.18594 9.46344e-18
7028.65844 9.54302e-18
7030.13094 9.61378e-18
7031.60344 9.53330e-18
7033.06592 9.55195e-18
7034.53842 9.43652e-18
7036.01092 9.41558e-18
7037.48342 9.52329e-18
7038.94590 9.48534e-18
7040.41840 9.49831e-18
7041.89090 9.51820e-18
7043.36340 9.56899e-18
7044.82588 9.61176e-18
7046.29838 9.51900e-18
7047.77088 9.56348e-18
7049.24338 9.55354e-18
7050.70586 9.57363e-18
7052.17836 9.63934e-18
7053.65086 9.59758e-18
7055.12335 9.60780e-18
7056.58584 9.48769e-18
7058.05834 9.48195e-18
7059.53084 9.33671e-18
7061.00333 9.21316e-18
7062.46582 9.46953e-18
7063.93832 9.52740e-18
7065.41081 9.36500e-18
7066.88331 9.23945e-18
7068.34580 9.26084e-18
7069.81829 9.16197e-18
7071.29079 9.22503e-18
7072.76329 9.32406e-18
7074.22577 9.30813e-18
7075.69827 9.30369e-18
7077.17077 9.37901e-18
7078.63325 9.44762e-18
7080.10575 9.42557e-18
7081.57825 9.44430e-18
7083.05075 9.39990e-18
7084.51323 9.47273e-18
7085.98573 9.39813e-18
7087.45823 9.35226e-18
7088.93073 9.39778e-18
7090.39321 9.33427e-18
7091.86571 9.12765e-18
7093.33821 9.02469e-18
7094.81071 9.28023e-18
7096.27319 9.23575e-18
7097.74569 9.10733e-18
7099.21819 9.10187e-18
7100.69069 9.04440e-18
7102.15317 9.09068e-18
7103.62567 9.14875e-18
7105.09817 9.16814e-18
7106.57067 9.28120e-18
7108.03315 9.30115e-18
7109.50565 9.13656e-18
7110.97815 9.26278e-18
7112.45065 9.50912e-18
7113.91313 9.42557e-18
7115.38563 9.33999e-18
7116.85813 9.29305e-18
7118.33063 9.24546e-18
7119.79311 9.23312e-18
7121.26561 9.19504e-18
7122.73810 9.29306e-18
7124.21060 9.25555e-18
7125.67309 9.13529e-18
7127.14559 9.14329e-18
7128.61808 9.20097e-18
7130.09058 9.13820e-18
7131.55307 9.08575e-18
7133.02556 9.11705e-18
7134.49806 9.12674e-18
7135.97056 9.24181e-18
7137.43304 9.34187e-18
7138.90554 9.34556e-18
7140.37804 9.24049e-18
7141.85054 9.26782e-18
7143.31302 9.29662e-18
7144.78552 9.29816e-18
7146.25802 9.36085e-18
7147.73052 9.46634e-18
7149.19300 9.50182e-18
7150.66550 9.33274e-18
7152.13800 9.31270e-18
7153.61050 9.35093e-18
7155.07298 9.27026e-18
7156.54548 9.32289e-18
7158.01798 9.36445e-18
7159.49048 9.22502e-18
7160.95296 9.15341e-18
7162.42546 9.12567e-18
7163.89796 9.19606e-18
7165.37046 9.42161e-18
7166.83294 9.40310e-18
7168.30544 9.25246e-18
7169.77794 9.35037e-18
7171.25044 9.65091e-18
7172.71292 9.72087e-18
7174.18542 9.71945e-18
7175.65792 9.83984e-18
7177.12040 9.66473e-18
7178.59290 9.69209e-18
7180.06540 9.71202e-18
7181.53790 9.86184e-18
7183.00038 9.89617e-18
7184.47288 9.77732e-18
7185.94538 9.90691e-18
7187.41787 1.00020e-17
7188.88036 9.76170e-18
7190.35286 9.52451e-18
7191.82535 9.87970e-18
7193.29785 9.98016e-18
7194.76034 9.78254e-18
7196.23283 9.78368e-18
7197.70533 9.81994e-18
7199.17783 9.83868e-18
7200.64031 9.96929e-18
7202.11281 9.95223e-18
7203.58531 9.80838e-18
7205.05781 9.79449e-18
7206.52029 9.86517e-18
7207.99279 9.81980e-18
7209.46529 9.83922e-18
7210.93779 9.86185e-18
7212.40027 9.77636e-18
7213.87277 9.75215e-18
7215.34527 9.82020e-18
7216.81777 9.94592e-18
7218.28025 1.00499e-17
7219.75275 9.91098e-18
7221.22525 9.92514e-18
7222.69775 9.97758e-18
7224.16023 1.00755e-17
7225.63273 1.00132e-17
7227.10523 9.95464e-18
7228.57773 1.00700e-17
7230.04021 1.01182e-17
7231.51271 1.00146e-17
7232.98521 1.01675e-17
7234.45771 1.01381e-17
7235.92019 1.01289e-17
7237.39269 1.00687e-17
7238.86519 1.02126e-17
7240.33769 1.04230e-17
7241.80017 1.01766e-17
7243.27267 1.00284e-17
7244.74517 1.03385e-17
7246.21766 1.04976e-17
7247.68015 1.03519e-17
7249.15265 1.01963e-17
7250.62514 1.04566e-17
7252.09764 1.06407e-17
7253.56012 1.05538e-17
7255.03262 1.03301e-17
7256.50512 1.03655e-17
7257.97762 1.04599e-17
7259.44010 1.04534e-17
7260.91260 1.03572e-17
7262.38510 1.04139e-17
7263.84758 1.02917e-17
7265.32008 1.01922e-17
7266.79258 9.97841e-18
7268.26508 9.81557e-18
7269.73758 1.01261e-17
7271.20006 1.01644e-17
7272.67256 1.00171e-17
7274.14506 1.02288e-17
7275.60754 1.04537e-17
7277.08004 1.03407e-17
7278.55254 1.02259e-17
7280.02504 1.01977e-17
7281.48752 1.00208e-17
7282.96002 1.00277e-17
7284.43252 1.02137e-17
7285.90502 1.04278e-17
7287.36750 1.03053e-17
7288.84000 1.02682e-17
7290.31250 1.02588e-17
7291.78500 1.00619e-17
7293.24748 1.01645e-17
7294.71998 1.03606e-17
7296.19248 9.99180e-18
7297.66498 1.00611e-17
7299.12746 9.99124e-18
7300.59996 9.92007e-18
7302.07246 9.88818e-18
7303.54496 9.89866e-18
7305.00744 9.83334e-18
7306.47994 9.76616e-18
7307.95244 9.59874e-18
7309.42493 9.60233e-18
7310.88742 9.68338e-18
7312.35992 9.52820e-18
7313.83241 9.53219e-18
7315.30491 9.63188e-18
7316.76740 9.81651e-18
7318.23989 9.81007e-18
7319.71239 9.65059e-18
7321.18489 9.34643e-18
7322.64737 9.27719e-18
7324.11987 9.38693e-18
7325.59237 9.64677e-18
7327.06487 9.54436e-18
7328.52735 9.61391e-18
7329.99985 9.72849e-18
7331.47235 9.72188e-18
7332.94485 9.75879e-18
7334.40733 9.79948e-18
7335.87983 9.75071e-18
7337.35233 9.61648e-18
7338.82483 9.77252e-18
7340.28731 9.64485e-18
7341.75981 9.63952e-18
7343.23231 9.62359e-18
7344.70481 9.64466e-18
7346.16729 9.64438e-18
7347.63979 9.65629e-18
7349.11229 9.73004e-18
7350.57477 9.49969e-18
7352.04727 9.47582e-18
7353.51977 9.48449e-18
7354.99227 9.48387e-18
7356.46477 9.50728e-18
7357.92725 9.49191e-18
7359.39975 9.43971e-18
7360.87225 9.57231e-18
7362.34475 9.67901e-18
7363.80723 9.71395e-18
7365.27973 9.70840e-18
7366.75223 9.64674e-18
7368.21471 9.70266e-18
7369.68721 9.87226e-18
7371.15971 9.71289e-18
7372.63220 9.71575e-18
7374.09469 9.87987e-18
7375.56719 1.00551e-17
7377.03968 9.48416e-18
7378.51218 9.47288e-18
7379.97466 9.71952e-18
7381.44716 9.71546e-18
7382.91966 9.64171e-18
7384.39216 9.76388e-18
7385.85464 9.49813e-18
7387.32714 9.40064e-18
7388.79964 9.55942e-18
7390.27214 9.51351e-18
7391.73462 9.65642e-18
7393.20712 9.75564e-18
7394.67962 9.97290e-18
7396.15212 9.93522e-18
7397.61460 9.71423e-18
7399.08710 9.74585e-18
7400.55960 9.79481e-18
7402.03210 9.88820e-18
7403.49458 9.92990e-18
7404.96708 9.76549e-18
7406.43958 9.66342e-18
7407.91208 9.82915e-18
7409.37456 9.96610e-18
7410.84706 9.88040e-18
7412.31956 9.64411e-18
7412.33959 9.64411e-18
7413.20105 9.64724e-18
7414.06252 9.65045e-18
7414.92398 9.65679e-18
7415.78544 9.66305e-18
7416.64690 9.66977e-18
7417.50836 9.67649e-18
7418.36983 9.68123e-18
7419.23129 9.68604e-18
7420.09275 9.68696e-18
7420.95421 9.68787e-18
7421.82569 9.68596e-18
7422.68715 9.68398e-18
7423.54861 9.68398e-18
7424.41008 9.68398e-18
7425.27154 9.68879e-18
7426.13300 9.69360e-18
7426.99446 9.70208e-18
7427.85592 9.71048e-18
7428.71739 9.72049e-18
7429.57885 9.73049e-18
7430.44031 9.73713e-18
7431.31179 9.74378e-18
7432.17325 9.74347e-18
7433.03471 9.74309e-18
7433.89618 9.73950e-18
7434.75764 9.73591e-18
7435.61910 9.73324e-18
7436.48056 9.73057e-18
7437.34202 9.72980e-18
7438.20349 9.72904e-18
7439.06495 9.73057e-18
7439.92641 9.73209e-18
7440.79789 9.73568e-18
7441.65935 9.73927e-18
7442.52081 9.74393e-18
7443.38227 9.74859e-18
7444.24374 9.75424e-18
7445.10520 9.75982e-18
7445.96666 9.76677e-18
7446.82812 9.77379e-18
7447.68959 9.77807e-18
7448.55105 9.78235e-18
7449.41251 9.77708e-18
7450.28399 9.77181e-18
7451.14545 9.75867e-18
7452.00691 9.74554e-18
7452.86837 9.73339e-18
7453.72984 9.72117e-18
7454.59130 9.71315e-18
7455.45276 9.70521e-18
7456.31422 9.69773e-18
7457.17568 9.69032e-18
7458.03715 9.68169e-18
7458.89861 9.67306e-18
7459.77009 9.66313e-18
7460.63155 9.65320e-18
7461.49301 9.64403e-18
7462.35447 9.63479e-18
7463.21594 9.63510e-18
7464.07740 9.63540e-18
7464.93886 9.65022e-18
7465.80032 9.66511e-18
7466.66178 9.68726e-18
7467.52325 9.70941e-18
7468.38471 9.73072e-18
7469.25619 9.75195e-18
7470.11765 9.76440e-18
7470.97911 9.77677e-18
7471.84057 9.77372e-18
7472.70203 9.77059e-18
7473.56350 9.75982e-18
7474.42496 9.74913e-18
7475.28642 9.74172e-18
7476.14788 9.73439e-18
7477.00934 9.73087e-18
7477.87081 9.72744e-18
7478.73227 9.72507e-18
7479.60375 9.72270e-18
7480.46521 9.71903e-18
7481.32667 9.71537e-18
7482.18813 9.70742e-18
7483.04960 9.69956e-18
7483.91106 9.68864e-18
7484.77252 9.67764e-18
7485.63398 9.66794e-18
7486.49544 9.65816e-18
7487.35690 9.65030e-18
7488.21837 9.64243e-18
7489.08985 9.63334e-18
7489.95131 9.62433e-18
7490.81277 9.61303e-18
7491.67423 9.60172e-18
7492.53569 9.58973e-18
7493.39716 9.57774e-18
7494.25862 9.56598e-18
7495.12008 9.55429e-18
7495.98154 9.54314e-18
7496.84300 9.53199e-18
7497.70447 9.52122e-18
7498.57595 9.51053e-18
7499.43741 9.49839e-18
7500.29887 9.48624e-18
7501.16033 9.47127e-18
7502.02179 9.45630e-18
7502.88325 9.44026e-18
7503.74472 9.42423e-18
7504.60618 9.40857e-18
7505.46764 9.39291e-18
7506.32910 9.37351e-18
7507.19056 9.35404e-18
7508.06204 9.32670e-18
7508.92351 9.29935e-18
7509.78497 9.26475e-18
7510.64643 9.23008e-18
7511.50789 9.18983e-18
7512.36935 9.14966e-18
7513.23082 9.11178e-18
7514.09228 9.07389e-18
7514.95374 9.04877e-18
7515.81520 9.02372e-18
7516.67666 9.00768e-18
7517.54814 8.99164e-18
7518.40960 8.97262e-18
7519.27107 8.95353e-18
7520.13253 8.92664e-18
7520.99399 8.89976e-18
7521.85545 8.86600e-18
7522.71691 8.83232e-18
7523.57838 8.79436e-18
7524.43984 8.75640e-18
7525.30130 8.71982e-18
7526.16276 8.68316e-18
7527.02423 8.65009e-18
7527.89570 8.61694e-18
7528.75717 8.58280e-18
7529.61863 8.54866e-18
7530.48009 8.51040e-18
7531.34155 8.47213e-18
7532.20301 8.43066e-18
7533.06448 8.38927e-18
7533.92594 8.34505e-18
7534.78740 8.30083e-18
7535.64886 8.25072e-18
7536.52034 8.20062e-18
7537.38180 8.14311e-18
7538.24327 8.08560e-18
7539.10473 8.02748e-18
7539.96619 7.96936e-18
7540.82765 7.91765e-18
7541.68911 7.86595e-18
7542.55058 7.82119e-18
7543.41204 7.77643e-18
7544.27350 7.73748e-18
7545.13496 7.69853e-18
7545.99642 7.65935e-18
7546.86790 7.62013e-18
7547.72936 7.57310e-18
7548.59083 7.52605e-18
7549.45229 7.47115e-18
7550.31375 7.41623e-18
7551.17521 7.35723e-18
7552.03667 7.29823e-18
7552.89814 7.23928e-18
7553.75960 7.18034e-18
7554.62106 7.12599e-18
7555.48252 7.07164e-18
7556.35400 7.02288e-18
7557.21546 6.97412e-18
7558.07693 6.92795e-18
7558.93839 6.88179e-18
7559.79985 6.83567e-18
7560.66131 6.78955e-18
7561.52277 6.74219e-18
7562.38424 6.69484e-18
7563.24570 6.64418e-18
7564.10716 6.59351e-18
7564.96862 6.53500e-18
7565.84010 6.47648e-18
7566.70156 6.41007e-18
7567.56302 6.34365e-18
7568.42449 6.28209e-18
7569.28595 6.22054e-18
7570.14741 6.17441e-18
7571.00887 6.12833e-18
7571.87033 6.09921e-18
7572.73180 6.07013e-18
7573.59326 6.05630e-18
7574.45472 6.04251e-18
7575.31618 6.02469e-18
7576.18766 6.00687e-18
7577.04912 5.96391e-18
7577.91059 5.92091e-18
7578.77205 5.86438e-18
7579.63351 5.80783e-18
7580.49497 5.75623e-18
7581.35643 5.70465e-18
7582.21790 5.65505e-18
7583.07936 5.60546e-18
7583.94082 5.54925e-18
7584.81230 5.49303e-18
7585.67376 5.39907e-18
7586.53522 5.30502e-18
7587.39668 5.13008e-18
7588.25815 4.95497e-18
7589.11961 4.70759e-18
7589.98107 4.46008e-18
7590.84253 4.19184e-18
7591.70399 3.92357e-18
7592.56546 3.68359e-18
7593.42692 3.44366e-18
7594.28838 3.27793e-18
7595.15986 3.11235e-18
7596.02132 3.04382e-18
7596.88278 2.97549e-18
7597.74425 2.98197e-18
7598.60571 2.98859e-18
7599.46717 3.05402e-18
7600.32863 3.11956e-18
7601.19009 3.25608e-18
7602.05156 3.39274e-18
7602.91302 3.60070e-18
7603.77448 3.80879e-18
7604.64596 4.06129e-18
7605.50742 4.31388e-18
7606.36888 4.57882e-18
7607.23034 4.84377e-18
7608.09181 5.08850e-18
7608.95327 5.33320e-18
7609.81473 5.52511e-18
7610.67619 5.71691e-18
7611.53765 5.81036e-18
7612.39912 5.90360e-18
7613.26058 5.86188e-18
7614.13206 5.81989e-18
7614.99352 5.64500e-18
7615.85498 5.46985e-18
7616.71644 5.18243e-18
7617.57791 4.89479e-18
7618.43937 4.58067e-18
7619.30083 4.26651e-18
7620.16229 4.04132e-18
7621.02375 3.81632e-18
7621.88522 3.72382e-18
7622.74668 3.63160e-18
7623.61816 3.66262e-18
7624.47962 3.69389e-18
7625.34108 3.80872e-18
7626.20254 3.92372e-18
7627.06400 4.04939e-18
7627.92547 4.17508e-18
7628.78693 4.27104e-18
7629.64839 4.36693e-18
7630.50985 4.44850e-18
7631.37131 4.53003e-18
7632.23278 4.60716e-18
7633.10426 4.68427e-18
7633.96572 4.75657e-18
7634.82718 4.82886e-18
7635.68864 4.89633e-18
7636.55010 4.96379e-18
7637.41157 5.01315e-18
7638.27303 5.06248e-18
7639.13449 5.08701e-18
7639.99595 5.11149e-18
7640.85741 5.13453e-18
7641.71888 5.15756e-18
7642.59035 5.20221e-18
7643.45182 5.24690e-18
7644.31328 5.32304e-18
7645.17474 5.39924e-18
7646.03620 5.51107e-18
7646.89766 5.62297e-18
7647.75913 5.74031e-18
7648.62059 5.85766e-18
7649.48205 5.94245e-18
7650.34351 6.02718e-18
7651.20497 6.07135e-18
7652.06644 6.11543e-18
7652.93792 6.12317e-18
7653.79938 6.13084e-18
7654.66084 6.13135e-18
7655.52230 6.13186e-18
7656.38376 6.17021e-18
7657.24523 6.20864e-18
7658.10669 6.29212e-18
7658.96815 6.37569e-18
7659.82961 6.47955e-18
7660.69107 6.58344e-18
7661.55254 6.68665e-18
7662.42401 6.78984e-18
7663.28548 6.87333e-18
7664.14694 6.95678e-18
7665.00840 7.01940e-18
7665.86986 7.08199e-18
7666.73132 7.15993e-18
7667.59279 7.23789e-18
7668.45425 7.34792e-18
7669.31571 7.45800e-18
7670.17717 7.56582e-18
7671.03863 7.67363e-18
7671.91011 7.75161e-18
7672.77158 7.82951e-18
7673.63304 7.87259e-18
7674.49450 7.91551e-18
7675.35596 7.92559e-18
7676.21742 7.93560e-18
7677.07889 7.95347e-18
7677.94035 7.97127e-18
7678.80181 8.03764e-18
7679.66327 8.10416e-18
7680.52473 8.19505e-18
7681.38620 8.28593e-18
7682.25767 8.36330e-18
7683.11914 8.44074e-18
7683.98060 8.50452e-18
7684.84206 8.56829e-18
7685.70352 8.62916e-18
7686.56498 8.69003e-18
7687.42645 8.75052e-18
7688.28791 8.81093e-18
7689.14937 8.87188e-18
7690.01083 8.93283e-18
7690.88231 8.98843e-18
7691.74377 9.04403e-18
7692.60524 9.08252e-18
7693.46670 9.12109e-18
7694.32816 9.14538e-18
7695.18962 9.16967e-18
7696.05108 9.19770e-18
7696.91255 9.22573e-18
7697.77401 9.26430e-18
7698.63547 9.30279e-18
7699.49693 9.34273e-18
7700.35839 9.38260e-18
7701.22987 9.41628e-18
7702.09133 9.44996e-18
7702.95280 9.47288e-18
7703.81426 9.49564e-18
7704.67572 9.50457e-18
7705.53718 9.51336e-18
7706.39864 9.50893e-18
7707.26011 9.50442e-18
7708.12157 9.49060e-18
7708.98303 9.47677e-18
7709.84449 9.46959e-18
7710.71597 9.46249e-18
7711.57743 9.47631e-18
7712.43890 9.49021e-18
7713.30036 9.52160e-18
7714.16182 9.55307e-18
7715.02328 9.59424e-18
7715.88474 9.63540e-18
7716.74620 9.67367e-18
7717.60767 9.71201e-18
7718.46913 9.73370e-18
7719.33059 9.75546e-18
7720.20207 9.75967e-18
7721.06353 9.76387e-18
7721.92499 9.75554e-18
7722.78646 9.74722e-18
7723.64792 9.73492e-18
7724.50938 9.72262e-18
7725.37084 9.71781e-18
7726.23230 9.71292e-18
7727.09377 9.71926e-18
7727.95523 9.72568e-18
7728.81669 9.73943e-18
7729.67815 9.75325e-18
7730.54963 9.77364e-18
7731.41109 9.79411e-18
7732.27255 9.82542e-18
7733.13402 9.85666e-18
7733.99548 9.89386e-18
7734.85694 9.93097e-18
7735.71840 9.95396e-18
7736.57986 9.97688e-18
7737.44133 9.97420e-18
7738.30279 9.97153e-18
7739.17427 9.95144e-18
7740.03573 9.93136e-18
7740.89719 9.90455e-18
7741.75865 9.87774e-18
7742.62012 9.86018e-18
7743.48158 9.84261e-18
7744.34304 9.84727e-18
7745.20450 9.85193e-18
7746.06596 9.87003e-18
7746.92743 9.88813e-18
7747.78889 9.90753e-18
7748.65035 9.92693e-18
7749.52183 9.94335e-18
7750.38329 9.95969e-18
7751.24475 9.96993e-18
7752.10621 9.98016e-18
7752.96768 9.98428e-18
7753.82914 9.98833e-18
7754.69060 9.98856e-18
7755.55206 9.98871e-18
7756.41352 9.98230e-18
7757.27499 9.97581e-18
7758.13645 9.95732e-18
7759.00793 9.93892e-18
7759.86939 9.91379e-18
7760.73085 9.88859e-18
7761.59231 9.86942e-18
7762.45378 9.85025e-18
7763.31524 9.84009e-18
7764.17670 9.82985e-18
7765.03816 9.82206e-18
7765.89962 9.81427e-18
7766.76109 9.80373e-18
7767.62255 9.79319e-18
7768.49403 9.77609e-18
7769.35549 9.75890e-18
7770.21695 9.73492e-18
7771.07841 9.71086e-18
7771.93988 9.68810e-18
7772.80134 9.66542e-18
7773.66280 9.64999e-18
7774.52426 9.63456e-18
7775.38572 9.62326e-18
7776.24719 9.61203e-18
7777.10865 9.60241e-18
7777.98013 9.59286e-18
7778.84159 9.58637e-18
7779.70305 9.57988e-18
7780.56451 9.57782e-18
7781.42597 9.57575e-18
7782.28744 9.57774e-18
7783.14890 9.57973e-18
7784.01036 9.58492e-18
7784.87182 9.59011e-18
7785.73328 9.59783e-18
7786.59475 9.60554e-18
7787.46623 9.61486e-18
7788.32769 9.62425e-18
7789.18915 9.63258e-18
7790.05061 9.64083e-18
7790.91207 9.64503e-18
7791.77354 9.64915e-18
7792.63500 9.64762e-18
7793.49646 9.64610e-18
7794.35792 9.63838e-18
7795.21938 9.63059e-18
7796.08085 9.62028e-18
7796.94231 9.60997e-18
7797.81379 9.60363e-18
7798.67525 9.59737e-18
7799.53671 9.60004e-18
7800.39817 9.60279e-18
7801.25963 9.61776e-18
7802.12110 9.63281e-18
7802.98256 9.65755e-18
7803.84402 9.68237e-18
7804.70548 9.70437e-18
7805.56694 9.72644e-18
7806.42841 9.73668e-18
7807.29989 9.74691e-18
7808.16135 9.74638e-18
7809.02281 9.74584e-18
7809.88427 9.73629e-18
7810.74573 9.72667e-18
7811.60720 9.71002e-18
7812.46866 9.69330e-18
7813.33012 9.67252e-18
7814.19158 9.65175e-18
7815.05304 9.63067e-18
7815.91450 9.60959e-18
7816.78598 9.59172e-18
7817.64745 9.57384e-18
7818.50891 9.56346e-18
7819.37037 9.55307e-18
7820.23183 9.55353e-18
7821.09329 9.55406e-18
7821.95476 9.55765e-18
7822.81622 9.56132e-18
7823.67768 9.55643e-18
7824.53914 9.55154e-18
7825.40060 9.53673e-18
7826.27208 9.52183e-18
7827.13355 9.50060e-18
7827.99501 9.47945e-18
7828.85647 9.45478e-18
7829.71793 9.43018e-18
7830.57939 9.40513e-18
7831.44085 9.38008e-18
7832.30232 9.35656e-18
7833.16378 9.33303e-18
7834.02524 9.31104e-18
7834.88670 9.28904e-18
7835.75818 9.27064e-18
7836.61964 9.25223e-18
7837.48111 9.24314e-18
7838.34257 9.23405e-18
7839.20403 9.23581e-18
7840.06549 9.23749e-18
7840.92695 9.24360e-18
7841.78842 9.24971e-18
7842.64988 9.25460e-18
7843.51134 9.25949e-18
7844.37280 9.26055e-18
7845.23426 9.26170e-18
7846.10574 9.25750e-18
7846.96720 9.25338e-18
7847.82867 9.24604e-18
7848.69013 9.23871e-18
7849.55159 9.23084e-18
7850.41305 9.22298e-18
7851.27452 9.21626e-18
7852.13598 9.20946e-18
7852.99744 9.20495e-18
7853.85890 9.20045e-18
7854.72036 9.19907e-18
7855.59184 9.19770e-18
7856.45330 9.19991e-18
7857.31477 9.20220e-18
7858.17623 9.20457e-18
7859.03769 9.20694e-18
7859.89915 9.20388e-18
7860.76061 9.20083e-18
7861.62208 9.19273e-18
7862.48354 9.18464e-18
7863.34500 9.17601e-18
7864.20646 9.16738e-18
7865.07794 9.15584e-18
7865.93940 9.14439e-18
7866.80087 9.12239e-18
7867.66233 9.10047e-18
7868.52379 9.06725e-18
7869.38525 9.03410e-18
7870.24671 8.99599e-18
7871.10818 8.95780e-18
7871.96964 8.92359e-18
7872.83110 8.88930e-18
7873.69256 8.87326e-18
7874.56404 8.85737e-18
7875.42550 8.86524e-18
7876.28696 8.87318e-18
7877.14843 8.88876e-18
7878.00989 8.90434e-18
7878.87135 8.91267e-18
7879.73281 8.92107e-18
7880.59427 8.91763e-18
7881.45574 8.91419e-18
7882.31720 8.89655e-18
7883.17866 8.87883e-18
7884.05014 8.85317e-18
7884.91160 8.82751e-18
7885.77306 8.80162e-18
7886.63453 8.77580e-18
7887.49599 8.74915e-18
7888.35745 8.72242e-18
7889.21891 8.69309e-18
7890.08037 8.66376e-18
7890.94184 8.63336e-18
7891.80330 8.60304e-18
7892.66476 8.57348e-18
7893.52622 8.54400e-18
7894.39770 8.52300e-18
7895.25916 8.50200e-18
7896.12062 8.50016e-18
7896.98209 8.49825e-18
7897.84355 8.50948e-18
7898.70501 8.52063e-18
7899.56647 8.52720e-18
7900.42793 8.53377e-18
7901.28940 8.52796e-18
7902.15086 8.52216e-18
7903.01232 8.50589e-18
7903.88380 8.48955e-18
7904.74526 8.46778e-18
7905.60672 8.44609e-18
7906.46819 8.43020e-18
7907.32965 8.41439e-18
7908.19111 8.40890e-18
7909.05257 8.40340e-18
7909.91403 8.39553e-18
7910.77550 8.38766e-18
7911.63696 8.36987e-18
7912.49842 8.35207e-18
7913.36990 8.33344e-18
7914.23136 8.31473e-18
7915.09282 8.30281e-18
7915.95428 8.29090e-18
7916.81575 8.28624e-18
7917.67721 8.28158e-18
7918.53867 8.28318e-18
7919.40013 8.28479e-18
7920.26159 8.28143e-18
7921.12306 8.27814e-18
7921.98452 8.25859e-18
7922.85600 8.23896e-18
7923.71746 8.21009e-18
7924.57892 8.18122e-18
7925.44038 8.15518e-18
7926.30185 8.12906e-18
7927.16331 8.11287e-18
7928.02477 8.09667e-18
7928.88623 8.09507e-18
7929.74769 8.09354e-18
7930.60916 8.10362e-18
7931.47062 8.11371e-18
7932.34210 8.12715e-18
7933.20356 8.14067e-18
7934.06502 8.15037e-18
7934.92648 8.16007e-18
7935.78794 8.16007e-18
7936.64941 8.16014e-18
7937.51087 8.14746e-18
7938.37233 8.13471e-18
7939.23379 8.10996e-18
7940.09525 8.08514e-18
7940.95672 8.05192e-18
7941.81818 8.01870e-18
7942.68966 7.98532e-18
7943.55112 7.95194e-18
7944.41258 7.92491e-18
7945.27404 7.89787e-18
7946.13551 7.87832e-18
7946.99697 7.85877e-18
7947.85843 7.84662e-18
7948.71989 7.83440e-18
7949.58135 7.82738e-18
7950.44282 7.82035e-18
7951.30428 7.81531e-18
7952.17576 7.81027e-18
7953.03722 7.80049e-18
7953.89868 7.79072e-18
7954.76014 7.77040e-18
7955.62160 7.75008e-18
7956.48307 7.72771e-18
7957.34453 7.70525e-18
7958.20599 7.69181e-18
7959.06745 7.67844e-18
7959.92891 7.67478e-18
7960.79038 7.67111e-18
7961.66186 7.67486e-18
7962.52332 7.67852e-18
7963.38478 7.68379e-18
7964.24624 7.68906e-18
7965.10770 7.68746e-18
7965.96917 7.68578e-18
7966.83063 7.68211e-18
7967.69209 7.67837e-18
7968.55355 7.68654e-18
7969.41501 7.69479e-18
7970.27648 7.71808e-18
7971.14795 7.74145e-18
7972.00942 7.77284e-18
7972.87088 7.80423e-18
7973.73234 7.83425e-18
7974.59380 7.86434e-18
7975.45526 7.87931e-18
7976.31673 7.89428e-18
7977.17819 7.88832e-18
7978.03965 7.88237e-18
7978.90111 7.86671e-18
7979.76257 7.85105e-18
7980.63405 7.83547e-18
7981.49552 7.81997e-18
7982.35698 7.80691e-18
7983.21844 7.79385e-18
7984.07990 7.78484e-18
7984.94136 7.77582e-18
7985.80283 7.76757e-18
7986.66429 7.75940e-18
7987.52575 7.74848e-18
7988.38721 7.73748e-18
7989.24867 7.72526e-18
7990.11014 7.71304e-18
7990.98161 7.70136e-18
7991.84308 7.68967e-18
7992.70454 7.68211e-18
7993.56600 7.67455e-18
7994.42746 7.67524e-18
7995.28892 7.67600e-18
7996.15039 7.67676e-18
7997.01185 7.67753e-18
7997.87331 7.66531e-18
7998.73477 7.65309e-18
7999.59623 7.62947e-18
8000.46771 7.60584e-18
8001.32917 7.58070e-18
8002.19064 7.55555e-18
8003.05210 7.53633e-18
8003.91356 7.51713e-18
8004.77502 7.51021e-18
8005.63649 7.50332e-18
8006.49795 7.50705e-18
8007.35941 7.51081e-18
8008.22087 7.51220e-18
8009.08233 7.51358e-18
8009.95381 7.50837e-18
8010.81527 7.50316e-18
8011.67674 7.50380e-18
8012.53820 7.50445e-18
8013.39966 7.51699e-18
8014.26112 7.52954e-18
8015.12258 7.54522e-18
8015.98405 7.56090e-18
8016.84551 7.57137e-18
8017.70697 7.58181e-18
8018.56843 7.57858e-18
8019.43991 7.57532e-18
8020.30137 7.55317e-18
8021.16284 7.53099e-18
8022.02430 7.50397e-18
8022.88576 7.47694e-18
8023.74722 7.46057e-18
8024.60868 7.44423e-18
8025.47015 7.43803e-18
8026.33161 7.43187e-18
8027.19307 7.43173e-18
8028.05453 7.43160e-18
8028.92601 7.43241e-18
8029.78747 7.43322e-18
8030.64893 7.42906e-18
8031.51040 7.42488e-18
8032.37186 7.41633e-18
8033.23332 7.40778e-18
8034.09478 7.39898e-18
8034.95624 7.39019e-18
8035.81771 7.38380e-18
8036.67917 7.37741e-18
8037.54063 7.37501e-18
8038.41211 7.37262e-18
8039.27357 7.37480e-18
8040.13503 7.37698e-18
8040.99650 7.38303e-18
8041.85796 7.38907e-18
8042.71942 7.39698e-18
8043.58088 7.40488e-18
8044.44234 7.41110e-18
8045.30380 7.41731e-18
8046.16527 7.41915e-18
8047.02673 7.42098e-18
8047.88819 7.41720e-18
8048.75967 7.41340e-18
8049.62113 7.40466e-18
8050.48259 7.39590e-18
8051.34406 7.38866e-18
8052.20552 7.38142e-18
8053.06698 7.38051e-18
8053.92844 7.37962e-18
8054.78990 7.38137e-18
8055.65137 7.38313e-18
8056.51283 7.38293e-18
8057.37429 7.38272e-18
8058.24577 7.37506e-18
8059.10723 7.36738e-18
8059.96869 7.34756e-18
8060.83015 7.32773e-18
8061.69162 7.29959e-18
8062.55308 7.27142e-18
8063.41454 7.24143e-18
8064.27600 7.21143e-18
8065.13746 7.18697e-18
8065.99893 7.16252e-18
8066.86039 7.15079e-18
8067.73187 7.13910e-18
8068.59333 7.14054e-18
8069.45479 7.14199e-18
8070.31625 7.15272e-18
8071.17772 7.16346e-18
8072.03918 7.17579e-18
8072.90064 7.18812e-18
8073.76210 7.19106e-18
8074.62356 7.19398e-18
8075.48503 7.18350e-18
8076.34649 7.17298e-18
8077.21797 7.15430e-18
8078.07943 7.13560e-18
8078.94089 7.11200e-18
8079.80235 7.08839e-18
8080.66381 7.05925e-18
8081.52528 7.03010e-18
8082.38674 6.99588e-18
8083.24820 6.96164e-18
8084.10966 6.92378e-18
8084.97113 6.88592e-18
8085.83259 6.84612e-18
8086.70407 6.80632e-18
8087.56553 6.76711e-18
8088.42699 6.72790e-18
8089.28845 6.69165e-18
8090.14991 6.65540e-18
8091.01138 6.62424e-18
8091.87284 6.59309e-18
8092.73430 6.56816e-18
8093.59576 6.54325e-18
8094.45722 6.52407e-18
8095.31869 6.50492e-18
8096.18015 6.48996e-18
8097.05163 6.47502e-18
8097.91309 6.45594e-18
8098.77455 6.43686e-18
8099.63601 6.40380e-18
8100.49748 6.37070e-18
8101.35894 6.32052e-18
8102.22040 6.27029e-18
8103.08186 6.20364e-18
8103.94332 6.13694e-18
8104.80479 6.06188e-18
8105.67626 5.98681e-18
8106.53773 5.91643e-18
8107.39919 5.84608e-18
8108.26065 5.78856e-18
8109.12211 5.73107e-18
8109.98357 5.68918e-18
8110.84504 5.64732e-18
8111.70650 5.61738e-18
8112.56796 5.58746e-18
8113.42942 5.55663e-18
8114.29088 5.52581e-18
8115.15235 5.48372e-18
8116.02383 5.44162e-18
8116.88529 5.38388e-18
8117.74675 5.32610e-18
8118.60821 5.25186e-18
8119.46967 5.17759e-18
8120.33114 5.09756e-18
8121.19260 5.01754e-18
8122.05406 4.94029e-18
8122.91552 4.86306e-18
8123.77698 4.77905e-18
8124.63845 4.69502e-18
8125.49991 4.59537e-18
8126.37139 4.49569e-18
8127.23285 4.38516e-18
8128.09431 4.27461e-18
8128.95577 4.16017e-18
8129.81723 4.04574e-18
8130.67870 3.94081e-18
8131.54016 3.83590e-18
8132.40162 3.75487e-18
8133.26308 3.67392e-18
8134.12454 3.60906e-18
8134.99602 3.54425e-18
8135.85749 3.47823e-18
8136.71895 3.41221e-18
8137.58041 3.33845e-18
8138.44187 3.26468e-18
8139.30333 3.18295e-18
8140.16480 3.10119e-18
8141.02626 3.01355e-18
8141.88772 2.92591e-18
8142.74918 2.83726e-18
8143.61064 2.74860e-18
8144.47210 2.66376e-18
8145.34358 2.57894e-18
8146.20505 2.50179e-18
8147.06651 2.42466e-18
8147.92797 2.35790e-18
8148.78943 2.29118e-18
8149.65089 2.23567e-18
8150.51236 2.18021e-18
8151.37382 2.13459e-18
8152.23528 2.08900e-18
8153.09674 2.04726e-18
8153.95820 2.00553e-18
8154.82968 1.96279e-18
8155.69115 1.92005e-18
8156.55261 1.87679e-18
8157.41407 1.83352e-18
8158.27553 1.79120e-18
8159.13699 1.74889e-18
8159.99845 1.71112e-18
8160.85992 1.67336e-18
8161.72138 1.64368e-18
8162.58284 1.61402e-18
8163.44430 1.59350e-18
8164.31578 1.57300e-18
8165.17724 1.56145e-18
8166.03871 1.54992e-18
8166.90017 1.54184e-18
8167.76163 1.53378e-18
8168.62309 1.52251e-18
8169.48455 1.51123e-18
8170.34602 1.49120e-18
8171.20748 1.47115e-18
8172.06894 1.43708e-18
8172.93040 1.40297e-18
8173.80188 1.36386e-18
8174.66334 1.32474e-18
8175.52481 1.30003e-18
8176.38627 1.27536e-18
8177.24773 1.26938e-18
8178.10919 1.26345e-18
8178.97065 1.26493e-18
8179.83212 1.26643e-18
8180.69358 1.26679e-18
8181.55504 1.26715e-18
8182.41650 1.26098e-18
8183.28798 1.25481e-18
8184.14944 1.24016e-18
8185.01090 1.22550e-18
8185.87237 1.20964e-18
8186.73383 1.19377e-18
8187.59529 1.18189e-18
8188.45675 1.17001e-18
8189.31821 1.15811e-18
8190.17968 1.14619e-18
8191.04114 1.13144e-18
8191.90260 1.11668e-18
8192.77408 1.10251e-18
8193.63554 1.08834e-18
8194.49700 1.07823e-18
8195.35846 1.06813e-18
8196.21993 1.06517e-18
8197.08139 1.06223e-18
8197.94285 1.06878e-18
8198.80431 1.07534e-18
8199.66577 1.08577e-18
8200.52724 1.09621e-18
8201.38870 1.10269e-18
8202.25016 1.10916e-18
8203.12164 1.11015e-18
8203.98310 1.11114e-18
8204.84456 1.10792e-18
8205.70603 1.10470e-18
8206.56749 1.09792e-18
8207.42895 1.09113e-18
8208.29041 1.08134e-18
8209.15187 1.07154e-18
8210.01334 1.06032e-18
8210.87480 1.04910e-18
8211.73626 1.03853e-18
8212.60774 1.02796e-18
8213.46920 1.01890e-18
8214.33066 1.00985e-18
8215.19212 1.00216e-18
8216.05359 9.94472e-19
8216.91505 9.85712e-19
8217.77651 9.76952e-19
8218.63797 9.60355e-19
8219.49943 9.43736e-19
8220.36090 9.16707e-19
8221.22236 8.89655e-19
8222.08382 8.59120e-19
8222.95530 8.28578e-19
8223.81676 8.02267e-19
8224.67822 7.75963e-19
8225.53969 7.63561e-19
8226.40115 7.51194e-19
8227.26261 7.59694e-19
8228.12407 7.68242e-19
8228.98553 7.91131e-19
8229.84700 8.14051e-19
8230.70846 8.42280e-19
8231.57994 8.70523e-19
8232.44140 8.95299e-19
8233.30286 9.20075e-19
8234.16432 9.33235e-19
8235.02578 9.46371e-19
8235.88725 9.50625e-19
8236.74871 9.54849e-19
8237.61017 9.57003e-19
8238.47163 9.59156e-19
8239.33309 9.63960e-19
8240.19456 9.68772e-19
8241.06604 9.80182e-19
8241.92750 9.91608e-19
8242.78896 1.00731e-18
8243.65042 1.02302e-18
8244.51188 1.03588e-18
8245.37335 1.04874e-18
8246.23481 1.05527e-18
8247.09627 1.06177e-18
8247.95773 1.06235e-18
8248.81919 1.06290e-18
8249.68066 1.05896e-18
8250.54212 1.05500e-18
8251.41360 1.04970e-18
8252.27506 1.04439e-18
8253.13652 1.04069e-18
8253.99798 1.03701e-18
8254.85945 1.03671e-18
8255.72091 1.03643e-18
8256.58237 1.04054e-18
8257.44383 1.04467e-18
8258.30529 1.05250e-18
8259.16676 1.06034e-18
8260.02822 1.07037e-18
8260.89970 1.08042e-18
8261.76116 1.08988e-18
8262.62262 1.09935e-18
8263.48408 1.10551e-18
8264.34554 1.11167e-18
8265.20701 1.11207e-18
8266.06847 1.11246e-18
8266.92993 1.10549e-18
8267.79139 1.09850e-18
8268.65285 1.08786e-18
8269.52433 1.07721e-18
8270.38580 1.06805e-18
8271.24726 1.05890e-18
8272.10872 1.05469e-18
8272.97018 1.05049e-18
8273.83164 1.05389e-18
8274.69311 1.05731e-18
8275.55457 1.06567e-18
8276.41603 1.07402e-18
8277.27749 1.08130e-18
8278.13895 1.08856e-18
8279.01043 1.09229e-18
8279.87189 1.09601e-18
8280.73336 1.09677e-18
8281.59482 1.09753e-18
8282.45628 1.09715e-18
8283.31774 1.09677e-18
8284.17920 1.09906e-18
8285.04067 1.10136e-18
8285.90213 1.10777e-18
8286.76359 1.11418e-18
8287.62505 1.12126e-18
8288.48651 1.12834e-18
8289.34798 1.13426e-18
8290.21946 1.14017e-18
8291.08092 1.14768e-18
8291.94238 1.15519e-18
8292.80384 1.16586e-18
8293.66530 1.17653e-18
8294.52677 1.18758e-18
8295.38823 1.19862e-18
8296.24969 1.20747e-18
8297.11115 1.21631e-18
8297.97261 1.22129e-18
8298.83408 1.22626e-18
8299.70555 1.22639e-18
8300.56702 1.22651e-18
8301.42848 1.22765e-18
8302.28994 1.22878e-18
8303.15140 1.23786e-18
8304.01286 1.24696e-18
8304.87433 1.26132e-18
8305.73579 1.27568e-18
8306.59725 1.28953e-18
8307.45871 1.30339e-18
8308.32017 1.31324e-18
8309.18164 1.32308e-18
8310.05312 1.32636e-18
8310.91458 1.32963e-18
8311.77604 1.32908e-18
8312.63750 1.32851e-18
8313.49896 1.33075e-18
8314.36043 1.33299e-18
8315.22189 1.34173e-18
8316.08335 1.35050e-18
8316.94481 1.36650e-18
8317.80627 1.38253e-18
8318.67775 1.40390e-18
8319.53921 1.42528e-18
8320.40068 1.44607e-18
8321.26214 1.46686e-18
8322.12360 1.48281e-18
8322.98506 1.49875e-18
8323.84652 1.50981e-18
8324.70799 1.52086e-18
8325.56945 1.52759e-18
8326.43091 1.53431e-18
8327.29237 1.53835e-18
8328.16385 1.54239e-18
8329.02531 1.54582e-18
8329.88678 1.54924e-18
8330.74824 1.55322e-18
8331.60970 1.55722e-18
8332.47116 1.56294e-18
8333.33262 1.56867e-18
8334.19408 1.57899e-18
8335.05555 1.58933e-18
8335.91701 1.60666e-18
8336.77847 1.62399e-18
8337.64995 1.64645e-18
8338.51141 1.66890e-18
8339.37287 1.69328e-18
8340.23434 1.71767e-18
8341.09580 1.73958e-18
8341.95726 1.76148e-18
8342.81872 1.77617e-18
8343.68018 1.79084e-18
8344.54165 1.79841e-18
8345.40311 1.80596e-18
8346.26457 1.80974e-18
8347.12603 1.81350e-18
8347.99751 1.81621e-18
8348.85897 1.81892e-18
8349.72043 1.82258e-18
8350.58190 1.82623e-18
8351.44336 1.83321e-18
8352.30482 1.84019e-18
8353.16628 1.85296e-18
8354.02775 1.86574e-18
8354.88921 1.88461e-18
8355.75067 1.90349e-18
8356.62215 1.92536e-18
8357.48361 1.94725e-18
8358.34507 1.96906e-18
8359.20653 1.99088e-18
8360.06800 2.00996e-18
8360.92946 2.02902e-18
8361.79092 2.04374e-18
8362.65238 2.05846e-18
8363.51384 2.07162e-18
8364.37531 2.08477e-18
8365.23677 2.09908e-18
8366.10825 2.11341e-18
8366.96971 2.12709e-18
8367.83117 2.14078e-18
8368.69263 2.15196e-18
8369.55410 2.16314e-18
8370.41556 2.17363e-18
8371.27702 2.18414e-18
8372.13848 2.19646e-18
8372.99994 2.20879e-18
8373.86140 2.22431e-18
8374.72287 2.23984e-18
8375.59435 2.25944e-18
8376.45581 2.27906e-18
8377.31727 2.30255e-18
8378.17873 2.32605e-18
8379.04019 2.35253e-18
8379.90166 2.37901e-18
8380.76312 2.40704e-18
8381.62458 2.43506e-18
8382.48604 2.46291e-18
8383.34750 2.49077e-18
8384.20897 2.51705e-18
8385.07043 2.54331e-18
8385.94191 2.56671e-18
8386.80337 2.59012e-18
8387.66483 2.61142e-18
8388.52629 2.63272e-18
8389.38775 2.65606e-18
8390.24922 2.67941e-18
8391.11068 2.70595e-18
8391.97214 2.73249e-18
8392.83360 2.75689e-18
8393.69507 2.78129e-18
8394.55653 2.79973e-18
8395.41799 2.81816e-18
8396.28947 2.83053e-18
8397.15093 2.84289e-18
8398.01239 2.85074e-18
8398.87385 2.85857e-18
8399.73532 2.87058e-18
8400.59678 2.88259e-18
8401.45824 2.90667e-18
8402.31970 2.93077e-18
8403.18116 2.96436e-18
8404.04263 2.99797e-18
8404.90409 3.03623e-18
8405.77557 3.07449e-18
8406.63703 3.11207e-18
8407.49849 3.14964e-18
8408.35995 3.18099e-18
8409.22142 3.21233e-18
8410.08288 3.23749e-18
8410.94434 3.26263e-18
8411.80580 3.28441e-18
8412.66726 3.30619e-18
8413.52873 3.32655e-18
8414.39019 3.34690e-18
8415.26167 3.36742e-18
8416.12313 3.38794e-18
8416.98459 3.41028e-18
8417.84605 3.43264e-18
8418.70751 3.45820e-18
8419.56898 3.48377e-18
8420.43044 3.51307e-18
8421.29190 3.54238e-18
8422.15336 3.57531e-18
8423.01482 3.60825e-18
8423.87629 3.64305e-18
8424.74777 3.67786e-18
8425.60923 3.70972e-18
8426.47069 3.74158e-18
8427.33215 3.76855e-18
8428.19361 3.79551e-18
8429.05508 3.82302e-18
8429.91654 3.85053e-18
8430.77800 3.88302e-18
8431.63946 3.91551e-18
8432.50092 3.95343e-18
8433.36239 3.99137e-18
8434.23386 4.03404e-18
8435.09533 4.07671e-18
8435.95679 4.11703e-18
8436.81825 4.15735e-18
8437.67971 4.18834e-18
8438.54117 4.21932e-18
8439.40264 4.24506e-18
8440.26410 4.27079e-18
8441.12556 4.29792e-18
8441.98702 4.32504e-18
8442.84848 4.35550e-18
8443.70995 4.38598e-18
8444.58143 4.42022e-18
8445.44289 4.45448e-18
8446.30435 4.49288e-18
8447.16581 4.53129e-18
8448.02727 4.57373e-18
8448.88874 4.61617e-18
8449.75020 4.66134e-18
8450.61166 4.70651e-18
8451.47312 4.75248e-18
8452.33458 4.79844e-18
8453.20606 4.84301e-18
8454.06752 4.88757e-18
8454.92899 4.92806e-18
8455.79045 4.96854e-18
8456.65191 5.00554e-18
8457.51337 5.04253e-18
8458.37483 5.08177e-18
8459.23630 5.12102e-18
8460.09776 5.16493e-18
8460.95922 5.20885e-18
8461.82068 5.25250e-18
8462.69216 5.29615e-18
8463.55362 5.33604e-18
8464.41508 5.37593e-18
8465.27655 5.41233e-18
8466.13801 5.44872e-18
8466.99947 5.48310e-18
8467.86093 5.51747e-18
8468.72240 5.55711e-18
8469.58386 5.59677e-18
8470.44532 5.64814e-18
8471.30678 5.69953e-18
8472.16824 5.75863e-18
8473.03972 5.81775e-18
8473.90118 5.87878e-18
8474.76265 5.93981e-18
8475.62411 5.99838e-18
8476.48557 6.05693e-18
8477.34703 6.10880e-18
8478.20849 6.16065e-18
8479.06996 6.21082e-18
8479.93142 6.26098e-18
8480.79288 6.31859e-18
8481.65434 6.37620e-18
8482.51580 6.43919e-18
8483.38728 6.50218e-18
8484.24875 6.56206e-18
8485.11021 6.62193e-18
8485.97167 6.67490e-18
8486.83313 6.72786e-18
8487.69459 6.77383e-18
8488.55605 6.81978e-18
8489.41752 6.86118e-18
8490.27898 6.90257e-18
8491.14044 6.94551e-18
8492.00190 6.98846e-18
8492.87338 7.03696e-18
8493.73484 7.08546e-18
8494.59631 7.13841e-18
8495.45777 7.19136e-18
8496.31923 7.24935e-18
8497.18069 7.30736e-18
8498.04215 7.37687e-18
8498.90362 7.44641e-18
8499.76508 7.52988e-18
8500.62654 7.61339e-18
8501.48800 7.69968e-18
8502.35948 7.78598e-18
8503.22094 7.86419e-18
8504.08240 7.94240e-18
8504.94387 8.01029e-18
8505.80533 8.07812e-18
8506.66679 8.13524e-18
8507.52825 8.19230e-18
8508.38972 8.24263e-18
8509.25118 8.29296e-18
8510.11264 8.34191e-18
8510.98412 8.39095e-18
8511.84558 8.44067e-18
8512.70704 8.49039e-18
8513.56850 8.54194e-18
8514.42997 8.59342e-18
8515.29143 8.64658e-18
8516.15289 8.69973e-18
8517.01435 8.75388e-18
8517.87581 8.80803e-18
8518.73728 8.86317e-18
8519.59874 8.91824e-18
8520.46020 8.97453e-18
8521.33168 9.03074e-18
8522.19314 9.09062e-18
8523.05460 9.15042e-18
8523.91607 9.21847e-18
8524.77753 9.28660e-18
8525.63899 9.36442e-18
8526.50045 9.44225e-18
8527.36191 9.52703e-18
8528.22337 9.61173e-18
8529.08484 9.69895e-18
8529.94630 9.78617e-18
8530.80776 9.86858e-18
8531.67924 9.95099e-18
8532.54070 1.00227e-17
8533.40216 1.00943e-17
8534.26363 1.01531e-17
8535.12509 1.02118e-17
8535.98655 1.02582e-17
8536.84801 1.03046e-17
8537.70947 1.03476e-17
8538.57094 1.03906e-17
8539.43240 1.04397e-17
8540.30388 1.04889e-17
8541.16534 1.05505e-17
8542.02680 1.06120e-17
8542.88826 1.06898e-17
8543.74972 1.07676e-17
8544.61119 1.08564e-17
8545.47265 1.09452e-17
8546.33411 1.10370e-17
8547.19557 1.11286e-17
8548.05703 1.12091e-17
8548.91850 1.12895e-17
8549.78998 1.13432e-17
8550.65144 1.13969e-17
8551.51290 1.14253e-17
8552.37436 1.14535e-17
8553.23582 1.14682e-17
8554.09729 1.14828e-17
8554.95875 1.14997e-17
8555.82021 1.15167e-17
8556.68167 1.15546e-17
8557.54313 1.15925e-17
8558.40460 1.16600e-17
8559.27607 1.17274e-17
8560.13754 1.18191e-17
8560.99900 1.19108e-17
8561.86046 1.20169e-17
8562.72192 1.21229e-17
8563.58338 1.22267e-17
8564.44485 1.23307e-17
8565.30631 1.24174e-17
8566.16777 1.25041e-17
8567.02923 1.25638e-17
8567.89070 1.26233e-17
8568.75216 1.26511e-17
8569.62364 1.26790e-17
8570.48510 1.26828e-17
8571.34656 1.26866e-17
8572.20802 1.26778e-17
8573.06948 1.26689e-17
8573.93095 1.26600e-17
8574.79241 1.26511e-17
8575.65387 1.26541e-17
8576.51533 1.26571e-17
8577.37679 1.26847e-17
8578.23826 1.27123e-17
8579.09972 1.27740e-17
8579.97120 1.28358e-17
8580.83266 1.29197e-17
8581.69412 1.30036e-17
8582.55558 1.30897e-17
8583.41705 1.31758e-17
8584.27851 1.32479e-17
8585.13997 1.33202e-17
8586.00143 1.33654e-17
8586.86289 1.34106e-17
8587.72436 1.34270e-17
8588.58582 1.34435e-17
8589.45730 1.34384e-17
8590.31876 1.34332e-17
8591.18022 1.34180e-17
8592.04168 1.34027e-17
8592.90314 1.33924e-17
8593.76461 1.33822e-17
8594.62607 1.33856e-17
8595.48753 1.33889e-17
8596.34899 1.34024e-17
8597.21045 1.34158e-17
8598.07192 1.34374e-17
8598.94340 1.34590e-17
8599.80486 1.34907e-17
8600.66632 1.35226e-17
8601.52778 1.35637e-17
8602.38924 1.36048e-17
8603.25071 1.36486e-17
8604.11217 1.36925e-17
8604.97363 1.37319e-17
8605.83509 1.37714e-17
8606.69655 1.37968e-17
8607.56803 1.38221e-17
8608.42949 1.38256e-17
8609.29096 1.38291e-17
8610.15242 1.38129e-17
8611.01388 1.37965e-17
8611.87534 1.37661e-17
8612.73680 1.37357e-17
8613.59827 1.36973e-17
8614.45973 1.36589e-17
8615.32119 1.36192e-17
8616.18265 1.35795e-17
8617.04411 1.35508e-17
8617.91559 1.35222e-17
8618.77706 1.35182e-17
8619.63852 1.35143e-17
8620.49998 1.35357e-17
8621.36144 1.35572e-17
8622.22290 1.35967e-17
8623.08437 1.36363e-17
8623.94583 1.36834e-17
8624.80729 1.37305e-17
8625.66875 1.37718e-17
8626.53021 1.38131e-17
8627.40169 1.38407e-17
8628.26315 1.38682e-17
8629.12462 1.38818e-17
8629.98608 1.38954e-17
8630.84754 1.38947e-17
8631.70900 1.38940e-17
8632.57046 1.38772e-17
8633.43193 1.38603e-17
8634.29339 1.38297e-17
8635.15485 1.37991e-17
8636.01631 1.37642e-17
8636.88779 1.37293e-17
8637.74925 1.37003e-17
8638.61072 1.36714e-17
8639.47218 1.36598e-17
8640.33364 1.36482e-17
8641.19510 1.36621e-17
8642.05656 1.36759e-17
8642.91803 1.37083e-17
8643.77949 1.37409e-17
8644.64095 1.37820e-17
8645.50241 1.38230e-17
8646.37389 1.38618e-17
8647.23535 1.39007e-17
8648.09681 1.39268e-17
8648.95828 1.39529e-17
8649.81974 1.39623e-17
8650.68120 1.39717e-17
8651.54266 1.39645e-17
8652.40412 1.39572e-17
8653.26559 1.39323e-17
8654.12705 1.39074e-17
8654.98851 1.38641e-17
8655.85999 1.38207e-17
8656.72145 1.37664e-17
8657.58291 1.37121e-17
8658.44438 1.36599e-17
8659.30584 1.36077e-17
8660.16730 1.35667e-17
8661.02876 1.35256e-17
8661.89022 1.34996e-17
8662.75168 1.34737e-17
8663.61315 1.34648e-17
8664.47461 1.34561e-17
8665.33607 1.34638e-17
8666.20755 1.34715e-17
8667.06901 1.34921e-17
8667.93047 1.35128e-17
8668.79194 1.35399e-17
8669.65340 1.35671e-17
8670.51486 1.35920e-17
8671.37632 1.36169e-17
8672.23778 1.36246e-17
8673.09925 1.36323e-17
8673.96071 1.36116e-17
8674.82217 1.35909e-17
8675.68363 1.35453e-17
8676.55511 1.34997e-17
8677.41657 1.34364e-17
8678.27803 1.33730e-17
8679.13950 1.33045e-17
8680.00096 1.32360e-17
8680.86242 1.31757e-17
8681.72388 1.31155e-17
8682.58535 1.30690e-17
8683.44681 1.30226e-17
8684.30827 1.29917e-17
8685.16973 1.29609e-17
8686.04121 1.29475e-17
8686.90267 1.29342e-17
8687.76413 1.29385e-17
8688.62560 1.29430e-17
8689.48706 1.29617e-17
8690.34852 1.29804e-17
8691.20998 1.30079e-17
8692.07144 1.30355e-17
8692.93291 1.30625e-17
8693.79437 1.30895e-17
8694.66585 1.31041e-17
8695.52731 1.31186e-17
8696.38877 1.31136e-17
8697.25023 1.31085e-17
8698.11170 1.30825e-17
8698.97316 1.30565e-17
8699.83462 1.30124e-17
8700.69608 1.29683e-17
8701.55754 1.29157e-17
8702.41900 1.28631e-17
8703.28047 1.28100e-17
8704.15195 1.27569e-17
8705.01341 1.27035e-17
8705.87487 1.26502e-17
8706.73633 1.25988e-17
8707.59779 1.25474e-17
8708.45926 1.25088e-17
8709.32072 1.24702e-17
8710.18218 1.24527e-17
8711.04364 1.24352e-17
8711.90510 1.24392e-17
8712.76657 1.24433e-17
8713.62803 1.24658e-17
8714.49951 1.24882e-17
8715.36097 1.25128e-17
8716.22243 1.25373e-17
8717.08389 1.25452e-17
8717.94535 1.25532e-17
8718.80682 1.25370e-17
8719.66828 1.25206e-17
8720.52974 1.24775e-17
8721.39120 1.24342e-17
8722.25267 1.23747e-17
8723.11413 1.23151e-17
8723.98561 1.22577e-17
8724.84707 1.22002e-17
8725.70853 1.21517e-17
8726.56999 1.21031e-17
8727.43145 1.20615e-17
8728.29292 1.20201e-17
8729.15438 1.19857e-17
8730.01584 1.19513e-17
8730.87730 1.19251e-17
8731.73876 1.18987e-17
8732.61024 1.18830e-17
8733.47170 1.18672e-17
8734.33317 1.18692e-17
8735.19463 1.18714e-17
8736.05609 1.18891e-17
8736.91755 1.19068e-17
8737.77902 1.19192e-17
8738.64048 1.19317e-17
8739.50194 1.19212e-17
8740.36340 1.19106e-17
8741.22486 1.18674e-17
8742.08633 1.18241e-17
8742.95780 1.17456e-17
8743.81927 1.16671e-17
8744.68073 1.15761e-17
8745.54219 1.14850e-17
8746.40365 1.14059e-17
8747.26511 1.13269e-17
8748.12658 1.12713e-17
8748.98804 1.12158e-17
8749.84950 1.11906e-17
8750.71096 1.11655e-17
8751.57242 1.11636e-17
8752.44390 1.11618e-17
8753.30537 1.11695e-17
8754.16683 1.11774e-17
8755.02829 1.11875e-17
8755.88975 1.11976e-17
8756.75121 1.12051e-17
8757.61268 1.12125e-17
8758.47414 1.12065e-17
8759.33560 1.12004e-17
8760.19706 1.11676e-17
8761.05852 1.11346e-17
8761.91999 1.10729e-17
8762.79146 1.10110e-17
8763.65293 1.09274e-17
8764.51439 1.08437e-17
8765.37585 1.07498e-17
8766.23731 1.06560e-17
8767.09877 1.05686e-17
8767.96024 1.04814e-17
8768.82170 1.04113e-17
8769.68316 1.03413e-17
8770.54462 1.02872e-17
8771.40608 1.02331e-17
8772.26755 1.01926e-17
8773.13903 1.01521e-17
8774.00049 1.01233e-17
8774.86195 1.00944e-17
8775.72341 1.00735e-17
8776.58487 1.00525e-17
8777.44633 1.00360e-17
8778.30780 1.00196e-17
8779.16926 1.00028e-17
8780.03072 9.98596e-18
8780.89218 9.95427e-18
8781.76366 9.92250e-18
8782.62512 9.86277e-18
8783.48659 9.80289e-18
8784.34805 9.72140e-18
8785.20951 9.63991e-18
8786.07097 9.54834e-18
8786.93243 9.45676e-18
8787.79390 9.36389e-18
8788.65536 9.27102e-18
8789.51682 9.18540e-18
8790.37828 9.09978e-18
8791.24976 9.02119e-18
8792.11122 8.94260e-18
8792.97268 8.86493e-18
8793.83415 8.78718e-18
8794.69561 8.71432e-18
8795.55707 8.64153e-18
8796.41853 8.58471e-18
8797.28000 8.52804e-18
8798.14146 8.48504e-18
8799.00292 8.44212e-18
8799.86438 8.39797e-18
8800.72584 8.35383e-18
8801.59732 8.29632e-18
8802.45878 8.23881e-18
8803.32025 8.15968e-18
8804.18171 8.08056e-18
8805.04317 7.97875e-18
8805.90463 7.87694e-18
8806.76609 7.76712e-18
8807.62756 7.65721e-18
8808.48902 7.55271e-18
8809.35048 7.44826e-18
8810.21194 7.35556e-18
8811.08342 7.26290e-18
8811.94488 7.18631e-18
8812.80635 7.10976e-18
8813.66781 7.04759e-18
8814.52927 6.98547e-18
8815.39073 6.93365e-18
8816.25219 6.88185e-18
8817.11365 6.83530e-18
8817.97512 6.78877e-18
8818.83658 6.74180e-18
8819.70806 6.69485e-18
8820.56952 6.64061e-18
8821.43098 6.58634e-18
8822.29244 6.51883e-18
8823.15391 6.45130e-18
8824.01537 6.36978e-18
8824.87683 6.28823e-18
8825.73829 6.19487e-18
8826.59975 6.10147e-18
8827.46122 6.00485e-18
8828.32268 5.90822e-18
8829.19416 5.82073e-18
8830.05562 5.73327e-18
8830.91708 5.66123e-18
8831.77854 5.58924e-18
8832.64000 5.53311e-18
8833.50147 5.47702e-18
8834.36293 5.43477e-18
8835.22439 5.39257e-18
8836.08585 5.35928e-18
8836.94732 5.32601e-18
8837.80878 5.29587e-18
8838.67024 5.26574e-18
8839.54172 5.23282e-18
8840.40318 5.19989e-18
8841.26464 5.15980e-18
8842.12610 5.11970e-18
8842.98757 5.07186e-18
8843.84903 5.02401e-18
8844.71049 4.96934e-18
8845.57195 4.91467e-18
8846.43341 4.85638e-18
8847.29488 4.79808e-18
8848.15634 4.74026e-18
8849.02782 4.68245e-18
8849.88928 4.62730e-18
8850.75074 4.57216e-18
8851.61220 4.52176e-18
8852.47367 4.47139e-18
8853.33513 4.43645e-18
8854.19659 4.40155e-18
8855.05805 4.39273e-18
8855.91951 4.38398e-18
8856.78097 4.39281e-18
8857.64244 4.40169e-18
8858.50390 4.41326e-18
8859.36536 4.42482e-18
8860.23684 4.42679e-18
8861.09830 4.42873e-18
8861.95976 4.40998e-18
8862.82123 4.39117e-18
8863.68269 4.35588e-18
8864.54415 4.32055e-18
8865.40561 4.28496e-18
8866.26707 4.24937e-18
8867.12854 4.22102e-18
8867.99000 4.19269e-18
8868.86148 4.16968e-18
8869.72294 4.14668e-18
8870.58440 4.12817e-18
8871.44586 4.10967e-18
8872.30732 4.09496e-18
8873.16879 4.08025e-18
8874.03025 4.07013e-18
8874.89171 4.06002e-18
8875.75317 4.06074e-18
8876.61463 4.06149e-18
8877.47610 4.07557e-18
8878.34758 4.08968e-18
8879.20904 4.10933e-18
8880.07050 4.12900e-18
8880.93196 4.14606e-18
8881.79342 4.16311e-18
8882.65489 4.17000e-18
8883.51635 4.17685e-18
8884.37781 4.16802e-18
8885.23927 4.15915e-18
8886.10073 4.13971e-18
8886.96220 4.12025e-18
8887.83367 4.09821e-18
8888.69514 4.07616e-18
8889.55660 4.05890e-18
8890.41806 4.04165e-18
8891.27952 4.03587e-18
8892.14099 4.03012e-18
8893.00245 4.03961e-18
8893.86391 4.04914e-18
8894.72537 4.07540e-18
8895.58683 4.10169e-18
8896.44830 4.13854e-18
8897.30976 4.17541e-18
8898.18124 4.21230e-18
8899.04270 4.24918e-18
8899.90416 4.27710e-18
8900.76562 4.30498e-18
8901.62708 4.31641e-18
8902.48855 4.32779e-18
8903.35001 4.32388e-18
8904.21147 4.31994e-18
8905.07293 4.31320e-18
8905.93439 4.30645e-18
8906.80587 4.30506e-18
8907.66734 4.30369e-18
8908.52880 4.30684e-18
8909.39026 4.31001e-18
8910.25172 4.31773e-18
8911.11318 4.32545e-18
8911.97465 4.33925e-18
8912.83611 4.35306e-18
8913.69757 4.37357e-18
8914.55903 4.39409e-18
8915.42049 4.42277e-18
8916.29197 4.45147e-18
8917.15343 4.48797e-18
8918.01490 4.52448e-18
8918.87636 4.55942e-18
8919.73782 4.59434e-18
8920.59928 4.61831e-18
8921.46074 4.64225e-18
8922.32221 4.65258e-18
8923.18367 4.66288e-18
8924.04513 4.65931e-18
8924.90659 4.65569e-18
8925.76805 4.64928e-18
8926.63953 4.64286e-18
8927.50100 4.64871e-18
8928.36246 4.65459e-18
8929.22392 4.67328e-18
8930.08538 4.69201e-18
8930.94684 4.71672e-18
8931.80831 4.74144e-18
8932.66977 4.76722e-18
8933.53123 4.79299e-18
8934.39269 4.81504e-18
8935.25415 4.83707e-18
8936.12563 4.85765e-18
8936.98709 4.87823e-18
8937.84856 4.90814e-18
8938.71002 4.93808e-18
8939.57148 4.97781e-18
8940.43294 5.01756e-18
8941.29440 5.05246e-18
8942.15587 5.08736e-18
8943.01733 5.10669e-18
8943.87879 5.12597e-18
8944.74025 5.12491e-18
8945.61173 5.12379e-18
8946.47319 5.10407e-18
8947.33466 5.08430e-18
8948.19612 5.06853e-18
8949.05758 5.05276e-18
8949.91904 5.05928e-18
8950.78050 5.06587e-18
8951.64197 5.08899e-18
8952.50343 5.11214e-18
8953.36489 5.14262e-18
8954.22635 5.17313e-18
8955.08781 5.18694e-18
8955.95929 5.20070e-18
8956.82075 5.17420e-18
8957.68222 5.14760e-18
8958.54368 5.11019e-18
8959.40514 5.07276e-18
8960.26660 5.06777e-18
8961.12806 5.06287e-18
8961.98953 5.09649e-18
8962.85099 5.13022e-18
8963.71245 5.19425e-18
8964.57391 5.25836e-18
8965.44539 5.33203e-18
8966.30685 5.40574e-18
8967.16832 5.45766e-18
8968.02978 5.50955e-18
8968.89124 5.54317e-18
8969.75270 5.57675e-18
8970.61416 5.62639e-18
8971.47563 5.67608e-18
8972.33709 5.75364e-18
8973.19855 5.83128e-18
8974.06001 5.92205e-18
8974.93149 6.01284e-18
8975.79295 6.09553e-18
8976.65441 6.17819e-18
8977.51588 6.22024e-18
8978.37734 6.26218e-18
8979.23880 6.23822e-18
8980.10026 6.21409e-18
8980.96172 6.10781e-18
8981.82319 6.00132e-18
8982.68465 5.82321e-18
8983.54611 5.64490e-18
8984.41759 5.49075e-18
8985.27905 5.33666e-18
8986.14051 5.29485e-18
8987.00198 5.25333e-18
8987.86344 5.35416e-18
8988.72490 5.45537e-18
8989.58636 5.70341e-18
8990.44782 5.95183e-18
8991.30928 6.22870e-18
8992.17075 6.50564e-18
8993.03221 6.66883e-18
8993.89367 6.83170e-18
8994.76515 6.85985e-18
8995.62661 6.88763e-18
8996.48807 6.80678e-18
8997.34954 6.72564e-18
8998.21100 6.59954e-18
8999.07246 6.47332e-18
8999.93392 6.38894e-18
9000.79538 6.30467e-18
9001.65685 6.29993e-18
9002.51831 6.29541e-18
9003.38979 6.36796e-18
9004.25125 6.44072e-18
9005.11271 6.56528e-18
9005.97417 6.68997e-18
9006.83563 6.81693e-18
9007.69710 6.94390e-18
9008.55856 7.03461e-18
9009.42002 7.12522e-18
9010.28148 7.16174e-18
9011.14295 7.19811e-18
9012.00441 7.18126e-18
9012.87589 7.16425e-18
9013.73735 7.13661e-18
9014.59881 7.10895e-18
9015.46027 7.10214e-18
9016.32173 7.09539e-18
9017.18320 7.09011e-18
9018.04466 7.08484e-18
9018.90612 7.06672e-18
9019.76758 7.04856e-18
9020.62904 7.03421e-18
9021.49051 7.01986e-18
9022.35197 7.02653e-18
9023.22345 7.03325e-18
9024.08491 7.08264e-18
9024.94637 7.13215e-18
9025.80783 7.24160e-18
9026.66930 7.35122e-18
9027.53076 7.49443e-18
9028.39222 7.63774e-18
9029.25368 7.77491e-18
9030.11514 7.91200e-18
9030.97660 8.01549e-18
9031.83807 8.11882e-18
9032.70955 8.16809e-18
9033.57101 8.21719e-18
9034.43247 8.21040e-18
9035.29393 8.20345e-18
9036.15539 8.15105e-18
9037.01686 8.09851e-18
9037.87832 8.02740e-18
9038.73978 7.95622e-18
9039.60124 7.90772e-18
9040.46270 7.85938e-18
9041.32417 7.84456e-18
9042.18563 7.82982e-18
9043.05711 7.81844e-18
9043.91857 7.80698e-18
9044.78003 7.78308e-18
9045.64149 7.75910e-18
9046.50295 7.73221e-18
9047.36442 7.70533e-18
9048.22588 7.68379e-18
9049.08734 7.66225e-18
9049.94880 7.65935e-18
9050.81027 7.65637e-18
9051.67173 7.67562e-18
9052.54321 7.69494e-18
9053.40467 7.69700e-18
9054.26613 7.69891e-18
9055.12759 7.64927e-18
9055.98905 7.59951e-18
9056.85052 7.51658e-18
9057.71198 7.43355e-18
9058.57344 7.34230e-18
9059.43490 7.25104e-18
9060.29636 7.15459e-18
9061.16784 7.05812e-18
9062.02931 6.95769e-18
9062.89077 6.85725e-18
9063.75223 6.74920e-18
9064.61369 6.64112e-18
9065.47515 6.51738e-18
9066.33662 6.39360e-18
9067.19808 6.28570e-18
9068.05954 6.17784e-18
9068.92100 6.13809e-18
9069.78246 6.09852e-18
9070.64393 6.11534e-18
9071.51540 6.13233e-18
9072.37687 6.14716e-18
9073.23833 6.16199e-18
9074.09979 6.15323e-18
9074.96125 6.14440e-18
9075.82271 6.12837e-18
9076.68418 6.11233e-18
9077.54564 6.09929e-18
9078.40710 6.08626e-18
9079.26856 6.08211e-18
9080.13002 6.07799e-18
9080.99149 6.08250e-18
9081.86297 6.08703e-18
9082.72443 6.07990e-18
9083.58589 6.07273e-18
9084.44735 6.04260e-18
9085.30881 6.01241e-18
9086.17028 5.98167e-18
9087.03174 5.95092e-18
9087.89320 5.93680e-18
9088.75466 5.92270e-18
9089.61612 5.90320e-18
9090.48760 5.88367e-18
9091.34906 5.83770e-18
9092.21053 5.79192e-18
9093.07199 5.74124e-18
9093.93345 5.69056e-18
9094.79491 5.66179e-18
9095.65637 5.63309e-18
9096.51784 5.61869e-18
9097.37930 5.60433e-18
9098.24076 5.58842e-18
9099.10222 5.57249e-18
9099.97370 5.55918e-18
9100.83516 5.54588e-18
9101.69663 5.54366e-18
9102.55809 5.54148e-18
9103.41955 5.56664e-18
9104.28101 5.59187e-18
9105.14247 5.66770e-18
9106.00393 5.74368e-18
9106.86540 5.84256e-18
9107.72686 5.94149e-18
9108.58832 5.99253e-18
9109.45980 6.04344e-18
9110.32126 6.01643e-18
9111.18272 5.98921e-18
9112.04419 5.90175e-18
9112.90565 5.81411e-18
9113.76711 5.70232e-18
9114.62857 5.59048e-18
9115.49003 5.52856e-18
9116.35150 5.46677e-18
9117.21296 5.49335e-18
9118.07442 5.52018e-18
9118.93588 5.57805e-18
9119.80736 5.63601e-18
9120.66882 5.66929e-18
9121.53028 5.70250e-18
9122.39175 5.67539e-18
9123.25321 5.64812e-18
9124.11467 5.53914e-18
9124.97613 5.42994e-18
9125.83760 5.28949e-18
9126.69906 5.14896e-18
9127.56052 5.03839e-18
9128.43200 4.92790e-18
9129.29346 4.87891e-18
9130.15492 4.83009e-18
9131.01638 4.86309e-18
9131.87785 4.89632e-18
9132.73931 4.99756e-18
9133.60077 5.09898e-18
9134.46223 5.23733e-18
9135.32369 5.37577e-18
9136.18516 5.51882e-18
9137.04662 5.66188e-18
9137.90808 5.77621e-18
9138.76954 5.89045e-18
9139.64102 5.95454e-18
9140.50248 6.01848e-18
9141.36395 6.02505e-18
9142.22541 6.03148e-18
9143.08687 5.96965e-18
9143.94833 5.90764e-18
9144.80979 5.76174e-18
9145.67125 5.61562e-18
9146.53272 5.40456e-18
9147.39418 5.19332e-18
9148.26566 4.98085e-18
9149.12712 4.76837e-18
9149.98858 4.61233e-18
9150.85004 4.45644e-18
9151.71151 4.40363e-18
9152.57297 4.35110e-18
9153.43443 4.41978e-18
9154.29589 4.48878e-18
9155.15735 4.61893e-18
9156.01882 4.74923e-18
9156.88028 4.87742e-18
9157.75176 5.00560e-18
9158.61322 5.10218e-18
9159.47468 5.19868e-18
9160.33614 5.24075e-18
9161.19760 5.28267e-18
9162.05907 5.27175e-18
9162.92053 5.26068e-18
9163.78199 5.20923e-18
9164.64345 5.15767e-18
9165.50492 5.06396e-18
9166.36638 4.97012e-18
9167.22784 4.83193e-18
9168.09932 4.69362e-18
9168.96078 4.54524e-18
9169.82224 4.39684e-18
9170.68370 4.28468e-18
9171.54517 4.17263e-18
9172.40663 4.11989e-18
9173.26809 4.06732e-18
9174.12955 4.08410e-18
9174.99101 4.10107e-18
9175.85248 4.15884e-18
9176.71394 4.21671e-18
9177.58542 4.25064e-18
9178.44688 4.28450e-18
9179.30834 4.27571e-18
9180.16980 4.26682e-18
9181.03127 4.25787e-18
9181.89273 4.24894e-18
9182.75419 4.26325e-18
9183.61565 4.27763e-18
9184.47711 4.30685e-18
9185.33857 4.33611e-18
9186.20004 4.37016e-18
9187.07152 4.40421e-18
9187.93298 4.41867e-18
9188.79444 4.43308e-18
9189.65590 4.41439e-18
9190.51736 4.39560e-18
9191.37883 4.38151e-18
9192.24029 4.36742e-18
9193.10175 4.39153e-18
9193.96321 4.41573e-18
9194.82467 4.46309e-18
9195.68614 4.51051e-18
9196.55762 4.55981e-18
9197.41908 4.60911e-18
9198.28054 4.64108e-18
9199.14200 4.67300e-18
9200.00346 4.66913e-18
9200.86492 4.66517e-18
9201.72639 4.63910e-18
9202.58785 4.61296e-18
9203.44931 4.59153e-18
9204.31077 4.57012e-18
9205.17224 4.55410e-18
9206.04371 4.53809e-18
9206.90518 4.51571e-18
9207.76664 4.49330e-18
9208.62810 4.46829e-18
9209.48956 4.44327e-18
9210.35102 4.42823e-18
9211.21249 4.41323e-18
9212.07395 4.42083e-18
9212.93541 4.42851e-18
9213.79687 4.47327e-18
9214.65833 4.51812e-18
9215.52981 4.59712e-18
9216.39127 4.67622e-18
9217.25274 4.75946e-18
9218.11420 4.84270e-18
9218.97566 4.91067e-18
9219.83712 4.97859e-18
9220.69859 5.03752e-18
9221.56005 5.09642e-18
9222.42151 5.14980e-18
9223.28297 5.20316e-18
9224.14443 5.24505e-18
9225.00590 5.28691e-18
9225.87737 5.31315e-18
9226.73884 5.33936e-18
9227.60030 5.34560e-18
9228.46176 5.35178e-18
9229.32322 5.33634e-18
9230.18468 5.32085e-18
9231.04615 5.30133e-18
9231.90761 5.28180e-18
9232.76907 5.27853e-18
9233.63053 5.27530e-18
9234.49199 5.28382e-18
9235.35346 5.29236e-18
9236.22494 5.30121e-18
9237.08640 5.31006e-18
9237.94786 5.32447e-18
9238.80932 5.33889e-18
9239.67078 5.36960e-18
9240.53225 5.40034e-18
9241.39371 5.45251e-18
9242.25517 5.50473e-18
9243.11663 5.58045e-18
9243.97809 5.65624e-18
9244.84957 5.74892e-18
9245.71103 5.84164e-18
9246.57250 5.93624e-18
9247.43396 6.03084e-18
9248.29542 6.11875e-18
9249.15688 6.20664e-18
9250.01834 6.28965e-18
9250.87981 6.37264e-18
9251.74127 6.44655e-18
9252.60273 6.52043e-18
9253.46419 6.56752e-18
9254.32565 6.61454e-18
9255.19713 6.63192e-18
9256.05860 6.64921e-18
9256.92006 6.67132e-18
9257.78152 6.69344e-18
9258.64298 6.74617e-18
9259.50444 6.79899e-18
9260.36591 6.87452e-18
9261.22737 6.95012e-18
9262.08883 7.03453e-18
9262.95029 7.11895e-18
9263.81175 7.18176e-18
9264.68323 7.24450e-18
9265.54469 7.25655e-18
9266.40616 7.26846e-18
9267.26762 7.23056e-18
9268.12908 7.19252e-18
9268.99054 7.11669e-18
9269.85200 7.04076e-18
9270.71347 6.95523e-18
9271.57493 6.86967e-18
9272.43639 6.80809e-18
9273.29785 6.74658e-18
9274.16933 6.73551e-18
9275.03079 6.72458e-18
9275.89226 6.78347e-18
9276.75372 6.84255e-18
9277.61518 6.96148e-18
9278.47664 7.08058e-18
9279.33810 7.22681e-18
9280.19957 7.37310e-18
9281.06103 7.51127e-18
9281.92249 7.64942e-18
9282.79397 7.74543e-18
9283.65543 7.84135e-18
9284.51689 7.86808e-18
9285.37835 7.89459e-18
9286.23982 7.83593e-18
9287.10128 7.77704e-18
9287.96274 7.64010e-18
9288.82420 7.50287e-18
9289.68566 7.33103e-18
9290.54713 7.15910e-18
9291.40859 7.00288e-18
9292.27005 6.84670e-18
9293.14153 6.77256e-18
9294.00299 6.69864e-18
9294.86445 6.74999e-18
9295.72592 6.80169e-18
9296.58738 6.93381e-18
9297.44884 7.06616e-18
9298.31030 7.21972e-18
9299.17176 7.37333e-18
9300.03323 7.46744e-18
9300.89469 7.56137e-18
9301.75615 7.51845e-18
9302.62763 7.47514e-18
9303.48909 7.36970e-18
9304.35055 7.26409e-18
9305.21201 7.21797e-18
9306.07348 7.17202e-18
9306.93494 7.15684e-18
9307.79640 7.14173e-18
9308.65786 7.06908e-18
9309.51932 6.99625e-18
9310.38079 6.87022e-18
9311.24225 6.74405e-18
9312.11373 6.61681e-18
9312.97519 6.48957e-18
9313.83665 6.41228e-18
9314.69811 6.33513e-18
9315.55958 6.36593e-18
9316.42104 6.39705e-18
9317.28250 6.52463e-18
9318.14396 6.65249e-18
9319.00542 6.76502e-18
9319.86688 6.87750e-18
9320.72835 6.93108e-18
9321.58981 6.98449e-18
9322.46129 7.08218e-18
9323.32275 7.18001e-18
9324.18421 7.34436e-18
9325.04567 7.50891e-18
9325.90714 7.52918e-18
9326.76860 7.54903e-18
9327.63006 7.29528e-18
9328.49152 7.04074e-18
9329.35298 6.71696e-18
9330.21445 6.39298e-18
9331.07591 6.19667e-18
9331.94739 6.00074e-18
9332.80885 5.89382e-18
9333.67031 5.78717e-18
9334.53177 5.71260e-18
9335.39323 5.63812e-18
9336.25470 5.59717e-18
9337.11616 5.55632e-18
9337.97762 5.53922e-18
9338.83908 5.52220e-18
9339.70055 5.70287e-18
9340.56201 5.88409e-18
9341.43349 6.49807e-18
9342.29495 7.11327e-18
9343.15641 7.85884e-18
9344.01787 8.60472e-18
9344.87933 8.92680e-18
9345.74080 9.24757e-18
9346.60226 8.98056e-18
9347.46372 8.71180e-18
9348.32518 7.95019e-18
9349.18664 7.18721e-18
9350.04811 6.28126e-18
9350.90957 5.37493e-18
9351.78105 4.97057e-18
9352.64251 4.56767e-18
9353.50397 4.87685e-18
9354.36543 5.18804e-18
9355.22689 5.74347e-18
9356.08836 6.29957e-18
9356.94982 6.70836e-18
9357.81128 7.11671e-18
9358.67274 7.14452e-18
9359.53420 7.17125e-18
9360.39567 6.71675e-18
9361.26715 6.26089e-18
9362.12861 5.69222e-18
9362.99007 5.12324e-18
9363.85153 4.78783e-18
9364.71299 4.45310e-18
9365.57446 4.37097e-18
9366.43592 4.28957e-18
9367.29738 4.42723e-18
9368.15884 4.56552e-18
9369.02030 4.75038e-18
9369.89178 4.93536e-18
9370.75324 4.96972e-18
9371.61471 5.00364e-18
9372.47617 4.89963e-18
9373.33763 4.79522e-18
9374.19909 4.62670e-18
9375.06056 4.45800e-18
9375.92202 4.33791e-18
9376.78348 4.21797e-18
9377.64494 4.28429e-18
9378.50640 4.35114e-18
9379.37788 4.55155e-18
9380.23934 4.75234e-18
9381.10081 4.90919e-18
9381.96227 5.06591e-18
9382.82373 5.12260e-18
9383.68519 5.17900e-18
9384.54665 5.18662e-18
9385.40812 5.19409e-18
9386.26958 5.16676e-18
9387.13104 5.13932e-18
9387.99250 5.05313e-18
9388.85396 4.96676e-18
9389.72544 4.82034e-18
9390.58691 4.67374e-18
9391.44837 4.48920e-18
9392.30983 4.30455e-18
9393.17129 4.11214e-18
9394.03275 3.91972e-18
9394.89422 3.77320e-18
9395.75568 3.62681e-18
9396.61714 3.56253e-18
9397.47860 3.49849e-18
9398.34006 3.48950e-18
9399.21154 3.48067e-18
9400.07300 3.49309e-18
9400.93447 3.50557e-18
9401.79593 3.50683e-18
9402.65739 3.50805e-18
9403.51885 3.46965e-18
9404.38031 3.43114e-18
9405.24178 3.38510e-18
9406.10324 3.33904e-18
9406.96470 3.33035e-18
9407.82616 3.32176e-18
9408.69764 3.35090e-18
9409.55910 3.38015e-18
9410.42057 3.43148e-18
9411.28203 3.48287e-18
9412.14349 3.53211e-18
9413.00495 3.58134e-18
9413.86641 3.59968e-18
9414.72788 3.61792e-18
9415.58934 3.58615e-18
9416.45080 3.55424e-18
9417.31226 3.46644e-18
9418.17372 3.37847e-18
9419.04520 3.24077e-18
9419.90666 3.10293e-18
9420.76813 2.92453e-18
9421.62959 2.74602e-18
9422.49105 2.59077e-18
9423.35251 2.43559e-18
9424.21397 2.45587e-18
9425.07544 2.47666e-18
9425.93690 2.72139e-18
9426.79836 2.96676e-18
9427.65982 3.27619e-18
9428.53130 3.58578e-18
9429.39276 3.80588e-18
9430.25423 4.02571e-18
9431.11569 4.01389e-18
9431.97715 4.00141e-18
9432.83861 3.68546e-18
9433.70007 3.36864e-18
9434.56153 2.99908e-18
9435.42300 2.62938e-18
9436.28446 2.46825e-18
9437.14592 2.30774e-18
9438.01740 2.39634e-18
9438.87886 2.48566e-18
9439.74032 2.80701e-18
9440.60179 3.12902e-18
9441.46325 3.51991e-18
9442.32471 3.91100e-18
9443.18617 4.16138e-18
9444.04763 4.41135e-18
9444.90910 4.46113e-18
9445.77056 4.51032e-18
9446.63202 4.37262e-18
9447.49348 4.23437e-18
9448.36496 3.98352e-18
9449.22642 3.73235e-18
9450.08788 3.48795e-18
9450.94935 3.24357e-18
9451.81081 3.08355e-18
9452.67227 2.92378e-18
9453.53373 2.87852e-18
9454.39520 2.83358e-18
9455.25666 2.91065e-18
9456.11812 2.98808e-18
9456.98960 3.16879e-18
9457.85106 3.34980e-18
9458.71252 3.58004e-18
9459.57398 3.81042e-18
9460.43545 3.98102e-18
9461.29691 4.15144e-18
9462.15837 4.19660e-18
9463.01983 4.24140e-18
9463.88129 4.21252e-18
9464.74276 4.18344e-18
9465.60422 4.13426e-18
9466.47570 4.08503e-18
9467.33716 4.04856e-18
9468.19862 4.01213e-18
9469.06008 4.01489e-18
9469.92155 4.01776e-18
9470.78301 4.01908e-18
9471.64447 4.02039e-18
9472.50593 3.97696e-18
9473.36739 3.93340e-18
9474.22885 3.87233e-18
9475.09032 3.81122e-18
9475.96180 3.76940e-18
9476.82326 3.72764e-18
9477.68472 3.78155e-18
9478.54618 3.83574e-18
9479.40764 4.07160e-18
9480.26911 4.30798e-18
9481.13057 4.63216e-18
9481.99203 4.95658e-18
9482.85349 5.18794e-18
9483.71495 5.41901e-18
9484.57642 5.46208e-18
9485.43788 5.50459e-18
9486.30936 5.32594e-18
9487.17082 5.14664e-18
9488.03228 4.81902e-18
9488.89374 4.49097e-18
9489.75520 4.20597e-18
9490.61667 3.92110e-18
9491.47813 3.80123e-18
9492.33959 3.68184e-18
9493.20105 3.72486e-18
9494.06252 3.76835e-18
9494.92398 3.97365e-18
9495.79546 4.17941e-18
9496.65692 4.57313e-18
9497.51838 4.96740e-18
9498.37984 5.50804e-18
9499.24130 6.04910e-18
9500.10277 6.52511e-18
9500.96423 7.00092e-18
9501.82569 7.22931e-18
9502.68715 7.45696e-18
9503.54861 7.40879e-18
9504.41008 7.35982e-18
9505.28155 7.05377e-18
9506.14302 6.74698e-18
9507.00448 6.34203e-18
9507.86594 5.93681e-18
9508.72740 5.62204e-18
9509.58887 5.30754e-18
9510.45033 5.10148e-18
9511.31179 4.89574e-18
9512.17325 4.76102e-18
9513.03471 4.62651e-18
9513.89617 4.59993e-18
9514.75764 4.57365e-18
9515.62912 4.70785e-18
9516.49058 4.84252e-18
9517.35204 5.12214e-18
9518.21350 5.40218e-18
9519.07496 5.77561e-18
9519.93643 6.14930e-18
9520.79789 6.52562e-18
9521.65935 6.90194e-18
9522.52081 7.15595e-18
9523.38227 7.40960e-18
9524.24374 7.49912e-18
9525.11522 7.58817e-18
9525.97668 7.57900e-18
9526.83814 7.56956e-18
9527.69960 7.52236e-18
9528.56106 7.47507e-18
9529.42252 7.43777e-18
9530.28399 7.40052e-18
9531.14545 7.40000e-18
9532.00691 7.39959e-18
9532.86837 7.39328e-18
9533.72984 7.38696e-18
9534.60131 7.33892e-18
9535.46278 7.29075e-18
9536.32424 7.19009e-18
9537.18570 7.08927e-18
9538.04716 6.94177e-18
9538.90862 6.79413e-18
9539.77009 6.73440e-18
9540.63155 6.67492e-18
9541.49301 6.83002e-18
9542.35447 6.98574e-18
9543.21593 7.26464e-18
9544.08741 7.54389e-18
9544.94888 7.81111e-18
9545.81034 8.07827e-18
9546.67180 8.20161e-18
9547.53326 8.32450e-18
9548.39472 8.16839e-18
9549.25619 8.01152e-18
9550.11765 7.73321e-18
9550.97911 7.45455e-18
9551.84057 7.37059e-18
9552.70203 7.28721e-18
9553.57351 7.41911e-18
9554.43497 7.55163e-18
9555.29644 7.71228e-18
9556.15790 7.87297e-18
9557.01936 7.93629e-18
9557.88082 7.99930e-18
9558.74228 7.88130e-18
9559.60375 7.76284e-18
9560.46521 7.51562e-18
9561.32667 7.26807e-18
9562.18813 7.17744e-18
9563.05961 7.08728e-18
9563.92107 7.30066e-18
9564.78254 7.51493e-18
9565.64400 7.88053e-18
9566.50546 8.24660e-18
9567.36692 8.60113e-18
9568.22838 8.95559e-18
9569.08985 9.10414e-18
9569.95131 9.25215e-18
9570.81277 9.06060e-18
9571.67423 8.86806e-18
9572.53569 8.50520e-18
9573.40717 8.14189e-18
9574.26863 7.80828e-18
9575.13010 7.47483e-18
9575.99156 7.30457e-18
9576.85302 7.13481e-18
9577.71448 7.23380e-18
9578.57594 7.33357e-18
9579.43741 7.53536e-18
9580.29887 7.73741e-18
9581.16033 7.79889e-18
9582.02179 7.85999e-18
9582.89327 7.74902e-18
9583.75473 7.63758e-18
9584.61620 7.40186e-18
9585.47766 7.16574e-18
9586.33912 6.97524e-18
9587.20058 6.78488e-18
9588.06204 6.89845e-18
9588.92351 7.01292e-18
9589.78497 7.39816e-18
9590.64643 7.78422e-18
9591.51791 8.14418e-18
9592.37937 8.50414e-18
9593.24083 8.67873e-18
9594.10229 8.85286e-18
9594.96376 8.85745e-18
9595.82522 8.86157e-18
9596.68668 8.72837e-18
9597.54814 8.59479e-18
9598.40960 8.39889e-18
9599.27107 8.20291e-18
9600.13253 8.02725e-18
9600.99399 7.85159e-18
9601.86547 7.76169e-18
9602.72693 7.67203e-18
9603.58839 7.71067e-18
9604.44986 7.74978e-18
9605.31132 7.90986e-18
9606.17278 8.07033e-18
9607.03424 8.31579e-18
9607.89570 8.56142e-18
9608.75717 8.73616e-18
9609.61863 8.91068e-18
9610.48009 8.86424e-18
9611.35157 8.81712e-18
9612.21303 8.61328e-18
9613.07449 8.40905e-18
9613.93595 8.16816e-18
9614.79742 7.92712e-18
9615.65888 7.73282e-18
9616.52034 7.53862e-18
9617.38180 7.46065e-18
9618.24326 7.38303e-18
9619.10473 7.43931e-18
9619.96619 7.49598e-18
9620.82765 7.66714e-18
9621.69913 7.83868e-18
9622.56059 8.06299e-18
9623.42205 8.28746e-18
9624.28352 8.47901e-18
9625.14498 8.67048e-18
9626.00644 8.74739e-18
9626.86790 8.82392e-18
9627.72936 8.70943e-18
9628.59083 8.59441e-18
9629.45229 8.31106e-18
9630.31375 8.02725e-18
9631.17521 7.74275e-18
9632.04669 7.45821e-18
9632.90815 7.30269e-18
9633.76961 7.14756e-18
9634.63108 7.17170e-18
9635.49254 7.19637e-18
9636.35400 7.39481e-18
9637.21546 7.59376e-18
9638.07692 7.77827e-18
9638.93839 7.96271e-18
9639.79985 7.97768e-18
9640.67133 7.99212e-18
9641.53279 7.93468e-18
9642.39425 7.87702e-18
9643.25571 7.86068e-18
9644.11718 7.84448e-18
9644.97864 7.89665e-18
9645.84010 7.94912e-18
9646.70156 8.08094e-18
9647.56302 8.21299e-18
9648.42448 8.33642e-18
9649.28595 8.45976e-18
9650.15743 8.46007e-18
9651.01889 8.45991e-18
9651.88035 8.33665e-18
9652.74181 8.21299e-18
9653.60327 8.01763e-18
9654.46474 7.82195e-18
9655.32620 7.62510e-18
9656.18766 7.42822e-18
9657.04912 7.31145e-18
9657.91058 7.19493e-18
9658.77205 7.20380e-18
9659.64352 7.21305e-18
9660.50499 7.35872e-18
9661.36645 7.50481e-18
9662.22791 7.74115e-18
9663.08937 7.97776e-18
9663.95083 8.18435e-18
9664.81230 8.39087e-18
9665.67376 8.49803e-18
9666.53522 8.60495e-18
9667.39668 8.64955e-18
9668.25815 8.69400e-18
9669.11961 8.69721e-18
9669.99109 8.70027e-18
9670.85255 8.62641e-18
9671.71401 8.55225e-18
9672.57547 8.39156e-18
9673.43693 8.23056e-18
9674.29840 8.04871e-18
9675.15986 7.86671e-18
9676.02132 7.72923e-18
9676.88278 7.59192e-18
9677.74424 7.54460e-18
9678.61572 7.49754e-18
9679.47718 7.57068e-18
9680.33865 7.64415e-18
9681.20011 7.77750e-18
9682.06157 7.91093e-18
9682.92303 8.02053e-18
9683.78449 8.13005e-18
9684.64596 8.19107e-18
9685.50742 8.25187e-18
9686.36888 8.26088e-18
9687.23034 8.26974e-18
9688.10182 8.23545e-18
9688.96328 8.20108e-18
9689.82475 8.14471e-18
9690.68621 8.08827e-18
9691.54767 8.01365e-18
9692.40913 7.93896e-18
9693.27059 7.83486e-18
9694.13206 7.73061e-18
9694.99352 7.61236e-18
9695.85498 7.49406e-18
9696.71644 7.40368e-18
9697.57790 7.31338e-18
9698.44938 7.27174e-18
9699.31084 7.23025e-18
9700.17231 7.22944e-18
9701.03377 7.22875e-18
9701.89523 7.25157e-18
9702.75669 7.27447e-18
9703.61816 7.28272e-18
9704.47962 7.29093e-18
9705.34108 7.25995e-18
9706.20254 7.22885e-18
9707.06400 7.18242e-18
9707.93548 7.13594e-18
9708.79694 7.09874e-18
9709.65841 7.06158e-18
9710.51987 7.04706e-18
9711.38133 7.03261e-18
9712.24279 7.04955e-18
9713.10425 7.06658e-18
9713.96572 7.09156e-18
9714.82718 7.11655e-18
9715.68864 7.12136e-18
9716.55010 7.12612e-18
9717.41156 7.10269e-18
9718.28304 7.07919e-18
9719.14451 7.02429e-18
9720.00597 6.96929e-18
9720.86743 6.91229e-18
9721.72889 6.85527e-18
9722.59035 6.84132e-18
9723.45182 6.82750e-18
9724.31328 6.83677e-18
9725.17474 6.84612e-18
9726.03620 6.81968e-18
9726.89766 6.79314e-18
9727.76914 6.71012e-18
9728.63060 6.62694e-18
9729.49207 6.49831e-18
9730.35353 6.36954e-18
9731.21499 6.22274e-18
9732.07645 6.07587e-18
9732.93791 5.96136e-18
9733.79938 5.84695e-18
9734.66084 5.79617e-18
9735.52230 5.74559e-18
9736.38376 5.75244e-18
9737.25524 5.75946e-18
9738.11670 5.80978e-18
9738.97817 5.86024e-18
9739.83963 5.92618e-18
9740.70109 5.99217e-18
9741.56255 6.04620e-18
9742.42401 6.10020e-18
9743.28548 6.12772e-18
9744.14694 6.15516e-18
9745.00840 6.14751e-18
9745.86986 6.13977e-18
9746.74134 6.10870e-18
9747.60280 6.07757e-18
9748.46426 6.03918e-18
9749.32573 6.00077e-18
9750.18719 5.95890e-18
9751.04865 5.91701e-18
9751.91011 5.87366e-18
9752.77157 5.83030e-18
9753.63304 5.78404e-18
9754.49450 5.73778e-18
9755.35596 5.68564e-18
9756.22744 5.63346e-18
9757.08890 5.58627e-18
9757.95036 5.53909e-18
9758.81183 5.51288e-18
9759.67329 5.48674e-18
9760.53475 5.49393e-18
9761.39621 5.50121e-18
9762.25767 5.55243e-18
9763.11913 5.60378e-18
9763.98060 5.68291e-18
9764.84206 5.76211e-18
9765.71354 5.82373e-18
9766.57500 5.88530e-18
9767.43646 5.90714e-18
9768.29792 5.92886e-18
9769.15939 5.92553e-18
9770.02085 5.92212e-18
9770.88231 5.90605e-18
9771.74377 5.88994e-18
9772.60523 5.86735e-18
9773.46670 5.84474e-18
9774.32816 5.82352e-18
9775.19964 5.80228e-18
9776.06110 5.78866e-18
9776.92256 5.77505e-18
9777.78402 5.77318e-18
9778.64548 5.77134e-18
9779.50695 5.78654e-18
9780.36841 5.80179e-18
9781.22987 5.83553e-18
9782.09133 5.86933e-18
9782.95280 5.89240e-18
9783.81426 5.91543e-18
9784.68574 5.89609e-18
9785.54720 5.87662e-18
9786.40866 5.83025e-18
9787.27012 5.78381e-18
9788.13158 5.73933e-18
9788.99305 5.69487e-18
9789.85451 5.66248e-18
9790.71597 5.63012e-18
9791.57743 5.61405e-18
9792.43889 5.59802e-18
9793.30036 5.58742e-18
9794.16182 5.57683e-18
9795.03330 5.54890e-18
9795.89476 5.52092e-18
9796.75622 5.48231e-18
9797.61768 5.44368e-18
9798.47915 5.42771e-18
9799.34061 5.41181e-18
9800.20207 5.42960e-18
9801.06353 5.44751e-18
9801.92499 5.48328e-18
9802.78645 5.51911e-18
9803.64792 5.55692e-18
9804.51940 5.59473e-18
9805.38086 5.61589e-18
9806.24232 5.63699e-18
9807.10378 5.63243e-18
9807.96524 5.62777e-18
9808.82671 5.61541e-18
9809.68817 5.60302e-18
9810.54963 5.59995e-18
9811.41109 5.59690e-18
9812.27255 5.61391e-18
9813.13402 5.63098e-18
9813.99548 5.67308e-18
9814.86696 5.71526e-18
9815.72842 5.75249e-18
9816.58988 5.78971e-18
9817.45134 5.79025e-18
9818.31280 5.79069e-18
9819.17427 5.75877e-18
9820.03573 5.72676e-18
9820.89719 5.67578e-18
9821.75865 5.62474e-18
9822.62012 5.57434e-18
9823.48158 5.52395e-18
9824.35306 5.49703e-18
9825.21452 5.47018e-18
9826.07598 5.46340e-18
9826.93744 5.45669e-18
9827.79890 5.45152e-18
9828.66037 5.44635e-18
9829.52183 5.43821e-18
9830.38329 5.43006e-18
9831.24475 5.42444e-18
9832.10621 5.41883e-18
9832.97769 5.41446e-18
9833.83915 5.41009e-18
9834.70062 5.39977e-18
9835.56208 5.38944e-18
9836.42354 5.36986e-18
9837.28500 5.35024e-18
9838.14647 5.32334e-18
9839.00793 5.29641e-18
9839.86939 5.26437e-18
9840.73085 5.23231e-18
9841.59231 5.19628e-18
9842.45377 5.16023e-18
9843.32525 5.12431e-18
9844.18672 5.08838e-18
9845.04818 5.06531e-18
9845.90964 5.04227e-18
9846.77110 5.04206e-18
9847.63256 5.04192e-18
9848.49403 5.06148e-18
9849.35549 5.08109e-18
9850.21695 5.11472e-18
9851.07841 5.14839e-18
9851.93987 5.19064e-18
9852.81135 5.23292e-18
9853.67282 5.27737e-18
9854.53428 5.32182e-18
9855.39574 5.36441e-18
9856.25720 5.40698e-18
9857.11866 5.44470e-18
9857.98013 5.48241e-18
9858.84159 5.50720e-18
9859.70305 5.53195e-18
9860.56451 5.53456e-18
9861.42597 5.53711e-18
9862.29745 5.51630e-18
9863.15891 5.49542e-18
9864.02038 5.45514e-18
9864.88184 5.41481e-18
9865.74330 5.36242e-18
9866.60476 5.30999e-18
9867.46622 5.25600e-18
9868.32769 5.20201e-18
9869.18915 5.15245e-18
9870.05061 5.10289e-18
9870.92209 5.05705e-18
9871.78355 5.01123e-18
9872.64501 4.96990e-18
9873.50648 4.92859e-18
9874.36794 4.89532e-18
9875.22940 4.86208e-18
9876.09086 4.83966e-18
9876.95232 4.81728e-18
9877.81379 4.80830e-18
9878.67525 4.79936e-18
9879.53671 4.80499e-18
9880.39817 4.81067e-18
9881.26965 4.82912e-18
9882.13111 4.84761e-18
9882.99257 4.87557e-18
9883.85404 4.90355e-18
9884.71550 4.93498e-18
9885.57696 4.96640e-18
9886.43842 4.99474e-18
9887.29988 5.02307e-18
9888.16135 5.04218e-18
9889.02281 5.06128e-18
9889.88427 5.06605e-18
9890.74573 5.07077e-18
9891.61721 5.06106e-18
9892.47867 5.05132e-18
9893.34014 5.02973e-18
9894.20160 5.00810e-18
9895.06306 4.97740e-18
9895.92452 4.94667e-18
9896.78598 4.90979e-18
9897.64745 4.87289e-18
9898.50891 4.83462e-18
9899.37037 4.79634e-18
9900.23183 4.76302e-18
9901.09329 4.72971e-18
9901.96477 4.70238e-18
9902.82623 4.67507e-18
9903.68770 4.64836e-18
9904.54916 4.62165e-18
9905.41062 4.59678e-18
9906.27208 4.57192e-18
9907.13354 4.56063e-18
9907.99501 4.54937e-18
9908.85647 4.55722e-18
9909.71793 4.56514e-18
9910.57939 4.58680e-18
9911.45087 4.60850e-18
9912.31233 4.63525e-18
9913.17380 4.66202e-18
9914.03526 4.67547e-18
9914.89672 4.68888e-18
9915.75818 4.67441e-18
9916.61964 4.65986e-18
9917.48111 4.62258e-18
9918.34257 4.58523e-18
9919.20403 4.53408e-18
9920.07551 4.48288e-18
9920.93697 4.42800e-18
9921.79843 4.37311e-18
9922.65989 4.32482e-18
9923.52136 4.27655e-18
9924.38282 4.23939e-18
9925.24428 4.20226e-18
9926.10574 4.17799e-18
9926.96720 4.15377e-18
9927.82867 4.13567e-18
9928.69013 4.11759e-18
9929.56161 4.09499e-18
9930.42307 4.07238e-18
9931.28453 4.04179e-18
9932.14599 4.01118e-18
9933.00746 3.97413e-18
9933.86892 3.93706e-18
9934.73038 3.89669e-18
9935.59184 3.85631e-18
9936.45330 3.81716e-18
9937.31477 3.77801e-18
9938.17623 3.74608e-18
9939.03769 3.71418e-18
9939.90917 3.69702e-18
9940.77063 3.67990e-18
9941.63209 3.67958e-18
9942.49355 3.67930e-18
9943.35502 3.68800e-18
9944.21648 3.69672e-18
9945.07794 3.70771e-18
9945.93940 3.71870e-18
9946.80086 3.73027e-18
9947.66233 3.74185e-18
9948.52379 3.75205e-18
9949.39527 3.76224e-18
9950.25673 3.76733e-18
9951.11819 3.77240e-18
9951.97965 3.76997e-18
9952.84112 3.76751e-18
9953.70258 3.76240e-18
9954.56404 3.75727e-18
9955.42550 3.75479e-18
9956.28696 3.75232e-18
9957.14843 3.74892e-18
9958.00989 3.74551e-18
9958.88137 3.73628e-18
9959.74283 3.72703e-18
9960.60429 3.70947e-18
9961.46575 3.69188e-18
9962.32721 3.66436e-18
9963.18868 3.63681e-18
9964.05014 3.60758e-18
9964.91160 3.57834e-18
9965.77306 3.56115e-18
9966.63452 3.54399e-18
9967.49599 3.54207e-18
9968.36747 3.54019e-18
9969.22893 3.54823e-18
9970.09039 3.55630e-18
9970.95185 3.57348e-18
9971.81331 3.59068e-18
9972.67477 3.62094e-18
9973.53624 3.65124e-18
9974.39770 3.69294e-18
9975.25916 3.73467e-18
9976.12062 3.77889e-18
9976.98208 3.82310e-18
9977.85356 3.86272e-18
9978.71503 3.90233e-18
9979.57649 3.93397e-18
9980.43795 3.96558e-18
9981.29941 3.98803e-18
9982.16087 4.01046e-18
9983.02234 4.02851e-18
9983.88380 4.04655e-18
9984.74526 4.06501e-18
9985.60672 4.08348e-18
9986.46818 4.10475e-18
9987.32965 4.12602e-18
9988.20112 4.15134e-18
9989.06259 4.17666e-18
9989.92405 4.19711e-18
9990.78551 4.21754e-18
9991.64697 4.22300e-18
9992.50843 4.22841e-18
9993.36990 4.22648e-18
9994.23136 4.22453e-18
9995.09282 4.22817e-18
9995.95428 4.23184e-18
9996.81574 4.23885e-18
9997.67721 4.24587e-18
9998.54869 4.24799e-18
9999.41015 4.25008e-18
