# wavelength flux
3470.90052 2.82701e-18
3472.36300 2.91164e-18
3473.83550 3.22154e-18
3475.30800 3.31418e-18
3476.78050 3.15080e-18
3478.24298 2.93119e-18
3479.71548 2.60304e-18
3481.18798 2.74786e-18
3482.66048 2.89174e-18
3484.12296 2.84225e-18
3485.59546 2.59769e-18
3487.06796 2.64196e-18
3488.53044 2.91463e-18
3490.00294 3.05285e-18
3491.47544 2.95220e-18
3492.94793 2.96057e-18
3494.42043 3.24194e-18
3495.88292 3.41844e-18
3497.35541 3.06106e-18
3498.82791 2.68590e-18
3500.29039 2.62690e-18
3501.76289 2.59265e-18
3503.23539 2.90828e-18
3504.70789 3.26058e-18
3506.17037 3.10166e-18
3507.64287 2.85914e-18
3509.11537 3.13799e-18
3510.58787 3.31397e-18
3512.05035 3.12490e-18
3513.52285 2.43650e-18
3514.99535 2.97661e-18
3516.46785 3.03980e-18
3517.93033 2.53200e-18
3519.40283 2.84114e-18
3520.87533 2.72348e-18
3522.34783 2.70607e-18
3523.81031 3.03413e-18
3525.28281 2.90752e-18
3526.75531 2.78675e-18
3528.22781 2.96025e-18
3529.69029 3.10185e-18
3531.16279 2.88265e-18
3532.63529 3.05660e-18
3534.10779 2.77228e-18
3535.57027 3.02635e-18
3537.04277 2.80614e-18
3538.51527 2.72861e-18
3539.98777 2.98736e-18
3541.45025 3.18276e-18
3542.92275 2.88905e-18
3544.39525 2.84040e-18
3545.86775 2.88619e-18
3547.33023 2.99394e-18
3548.80273 3.69494e-18
3550.27523 3.33755e-18
3551.74772 3.36068e-18
3553.21021 3.30689e-18
3554.68271 3.52174e-18
3556.15520 3.31644e-18
3557.62770 3.36282e-18
3559.09019 3.47896e-18
3560.56268 3.08114e-18
3562.03518 2.87869e-18
3563.50768 3.32311e-18
3564.97016 3.21511e-18
3566.44266 3.07055e-18
3567.91516 3.03333e-18
3569.38766 3.21404e-18
3570.85014 3.40237e-18
3572.32264 3.25374e-18
3573.79514 3.00679e-18
3575.26764 3.28077e-18
3576.73012 3.31416e-18
3578.20262 3.07822e-18
3579.67512 3.22136e-18
3581.14762 3.34304e-18
3582.61010 3.32481e-18
3584.08260 3.39689e-18
3585.55510 3.16174e-18
3587.02760 3.15567e-18
3588.49008 3.52001e-18
3589.96258 3.67107e-18
3591.43508 3.18920e-18
3592.89756 3.26308e-18
3594.37006 3.52903e-18
3595.84256 3.25815e-18
3597.31506 3.16639e-18
3598.77754 3.29664e-18
3600.25004 3.59728e-18
3601.72254 3.36331e-18
3603.19504 3.42833e-18
3604.65752 3.48147e-18
3606.13002 3.53360e-18
3607.60252 3.32294e-18
3609.07501 3.41870e-18
3610.53750 3.69904e-18
3612.01000 3.50259e-18
3613.48250 3.18558e-18
3614.95499 2.76163e-18
3616.41748 2.85384e-18
3617.88998 2.97780e-18
3619.36247 2.99443e-18
3620.83497 2.92470e-18
3622.29746 2.85529e-18
3623.76995 3.16523e-18
3625.24245 3.23443e-18
3626.71495 3.16307e-18
3628.17743 2.95288e-18
3629.64993 3.22073e-18
3631.12243 3.24256e-18
3632.59493 2.81994e-18
3634.05741 2.66335e-18
3635.52991 2.89279e-18
3637.00241 2.92203e-18
3638.47491 2.93499e-18
3639.93739 3.09084e-18
3641.40989 3.20190e-18
3642.88239 3.49835e-18
3644.35489 3.20384e-18
3645.81737 3.10660e-18
3647.28987 3.06314e-18
3648.76237 3.20740e-18
3650.23487 3.48807e-18
3651.69735 3.15418e-18
3653.16985 3.60881e-18
3654.64235 3.93345e-18
3656.11485 3.67135e-18
3657.57733 4.10653e-18
3659.04983 4.06640e-18
3660.52233 3.64169e-18
3661.99483 3.83871e-18
3663.45731 4.20448e-18
3664.92981 4.76751e-18
3666.40231 4.64698e-18
3667.87481 4.62305e-18
3669.33729 5.06364e-18
3670.80979 5.21577e-18
3672.28229 4.49676e-18
3673.75478 4.85965e-18
3675.21727 5.23298e-18
3676.68977 5.35857e-18
3678.16226 5.37547e-18
3679.63476 5.85050e-18
3681.09724 6.07355e-18
3682.56974 6.14030e-18
3684.04224 6.32254e-18
3685.51474 6.04188e-18
3686.97722 6.17243e-18
3688.44972 6.84924e-18
3689.92222 7.20805e-18
3691.38470 6.62922e-18
3692.85720 6.43135e-18
3694.32970 6.77471e-18
3695.80220 6.92608e-18
3697.26468 6.92208e-18
3698.73718 7.15400e-18
3700.20968 7.08741e-18
3701.68218 7.34069e-18
3703.14466 7.45150e-18
3704.61716 7.11079e-18
3706.08966 7.26355e-18
3707.56216 7.45318e-18
3709.02464 7.47074e-18
3710.49714 7.30729e-18
3711.96964 7.30025e-18
3713.44214 7.06404e-18
3714.90462 6.91041e-18
3716.37712 6.75681e-18
3717.84962 6.60988e-18
3719.32212 6.46295e-18
3720.78460 6.31608e-18
3722.25710 6.16919e-18
3723.72960 6.02235e-18
3725.20210 5.87556e-18
3726.66458 5.72878e-18
3728.13708 5.58205e-18
3729.60958 5.43533e-18
3731.08208 5.28863e-18
3732.54456 5.14199e-18
3734.01706 4.99535e-18
3735.48956 4.84874e-18
3736.96205 4.70215e-18
3738.42454 4.55560e-18
3739.89704 4.40910e-18
3741.36953 4.26260e-18
3742.84203 4.11615e-18
3744.30451 3.96970e-18
3745.77701 3.82328e-18
3747.24951 3.67689e-18
3748.72201 3.53053e-18
3750.18449 3.38419e-18
3751.65699 3.23791e-18
3753.12949 3.09162e-18
3754.60199 2.94539e-18
3756.06447 2.88645e-18
3757.53697 2.79727e-18
3759.00947 3.01899e-18
3760.48197 2.97663e-18
3761.94445 2.86790e-18
3763.41695 2.80333e-18
3764.88945 2.95318e-18
3766.36195 2.68693e-18
3767.82443 2.60481e-18
3769.29693 2.73025e-18
3770.76943 2.87142e-18
3772.24193 2.79060e-18
3773.70441 2.85748e-18
3775.17691 2.76302e-18
3776.64941 2.45657e-18
3778.12191 2.48568e-18
3779.58439 2.62713e-18
3781.05689 2.58607e-18
3782.52939 2.59754e-18
3783.99187 2.66132e-18
3785.46437 2.72973e-18
3786.93687 2.81238e-18
3788.40937 2.73510e-18
3789.87185 2.67635e-18
3791.34435 2.57411e-18
3792.81685 2.61974e-18
3794.28935 2.89327e-18
3795.75183 2.90997e-18
3797.22433 2.78051e-18
3798.69682 2.97159e-18
3800.16932 3.04185e-18
3801.63181 2.97113e-18
3803.10431 3.05189e-18
3804.57680 2.94117e-18
3806.04930 2.86296e-18
3807.51179 3.06648e-18
3808.98428 3.10637e-18
3810.45678 3.15897e-18
3811.92928 3.28030e-18
3813.39176 3.45802e-18
3814.86426 3.28885e-18
3816.33676 3.03879e-18
3817.80926 3.19096e-18
3819.27174 3.30810e-18
3820.74424 3.53395e-18
3822.21674 3.61777e-18
3823.68924 3.35918e-18
3825.15172 3.36382e-18
3826.62422 3.48719e-18
3828.09672 3.63638e-18
3829.56922 3.72777e-18
3831.03170 3.78756e-18
3832.50420 3.77205e-18
3833.97670 3.50928e-18
3835.44920 3.73838e-18
3836.91168 3.95930e-18
3838.38418 4.11446e-18
3839.85668 4.17568e-18
3841.32918 4.08283e-18
3842.79166 4.16936e-18
3844.26416 4.19760e-18
3845.73666 4.06631e-18
3847.20916 4.35488e-18
3848.67164 4.67354e-18
3850.14414 4.66401e-18
3851.61664 4.76625e-18
3853.08914 4.90714e-18
3854.55162 4.94160e-18
3856.02412 5.12233e-18
3857.49662 5.23445e-18
3858.96911 5.61357e-18
3860.43160 5.82361e-18
3861.90409 6.06592e-18
3863.37659 6.06454e-18
3864.84909 6.11309e-18
3866.31158 6.50008e-18
3867.78407 6.66786e-18
3869.25657 6.90494e-18
3870.72907 6.87720e-18
3872.19155 7.11747e-18
3873.66405 7.29500e-18
3875.13655 7.38636e-18
3876.59903 7.74889e-18
3878.07153 8.01968e-18
3879.54403 8.43084e-18
3881.01653 8.40481e-18
3882.48903 8.75841e-18
3883.95151 8.98840e-18
3885.42401 9.14333e-18
3886.89651 9.24869e-18
3888.35899 9.43641e-18
3889.83149 9.71218e-18
3891.30399 1.01334e-17
3892.77649 1.04928e-17
3894.23897 1.07093e-17
3895.71147 1.06561e-17
3897.18397 1.09337e-17
3898.65647 1.11075e-17
3900.11895 1.12293e-17
3901.59145 1.12894e-17
3903.06395 1.13718e-17
3904.53645 1.16896e-17
3905.99893 1.17895e-17
3907.47143 1.21521e-17
3908.94393 1.23397e-17
3910.41643 1.21461e-17
3911.87891 1.22206e-17
3913.35141 1.21872e-17
3914.82391 1.25630e-17
3916.29641 1.29601e-17
3917.75889 1.27844e-17
3919.23139 1.25043e-17
3920.70389 1.26165e-17
3922.17638 1.29164e-17
3923.63887 1.32103e-17
3925.11136 1.31295e-17
3926.58386 1.29799e-17
3928.05636 1.27423e-17
3929.51885 1.26716e-17
3930.99134 1.25026e-17
3932.46384 1.21498e-17
3933.93634 1.20093e-17
3935.39882 1.20886e-17
3936.87132 1.24179e-17
3938.34382 1.23884e-17
3939.81632 1.21772e-17
3941.27880 1.20281e-17
3942.75130 1.24104e-17
3944.22380 1.28073e-17
3945.69630 1.28720e-17
3947.15878 1.30525e-17
3948.63128 1.31632e-17
3950.10378 1.29273e-17
3951.57628 1.29194e-17
3953.03876 1.27632e-17
3954.51126 1.25613e-17
3955.98376 1.27843e-17
3957.45626 1.30242e-17
3958.91874 1.29359e-17
3960.39124 1.29930e-17
3961.86374 1.28726e-17
3963.33624 1.29561e-17
3964.79872 1.26809e-17
3966.27122 1.25573e-17
3967.74372 1.26256e-17
3969.21622 1.25070e-17
3970.67870 1.28303e-17
3972.15120 1.30696e-17
3973.62370 1.29268e-17
3975.08618 1.31519e-17
3976.55868 1.29522e-17
3978.03118 1.33429e-17
3979.50367 1.35172e-17
3980.96616 1.43874e-17
3982.43866 1.45213e-17
3983.91116 1.43750e-17
3985.38365 1.44249e-17
3986.84614 1.47029e-17
3988.31864 1.47120e-17
3989.79113 1.49169e-17
3991.26363 1.51515e-17
3992.72611 1.53144e-17
3994.19861 1.54109e-17
3995.67111 1.58935e-17
3997.14361 1.62740e-17
3998.60609 1.63582e-17
4000.07859 1.64991e-17
4001.55109 1.68924e-17
4003.02359 1.69517e-17
4004.48607 1.70820e-17
4005.95857 1.70926e-17
4007.43107 1.72223e-17
4008.90357 1.75959e-17
4010.36605 1.78262e-17
4011.83855 1.76524e-17
4013.31105 1.80667e-17
4014.78355 1.83646e-17
4016.24603 1.79964e-17
4017.71853 1.82210e-17
4019.19103 1.81374e-17
4020.66353 1.85891e-17
4022.12601 1.85706e-17
4023.59851 1.84738e-17
4025.07101 1.83526e-17
4026.54351 1.80380e-17
4028.00599 1.81467e-17
4029.47849 1.83467e-17
4030.95099 1.78957e-17
4032.42349 1.76558e-17
4033.88597 1.76512e-17
4035.35847 1.74088e-17
4036.83097 1.68129e-17
4038.30346 1.68986e-17
4039.76595 1.66305e-17
4041.23845 1.64842e-17
4042.71095 1.63975e-17
4044.18344 1.59978e-17
4045.64593 1.56492e-17
4047.11843 1.56338e-17
4048.59092 1.53272e-17
4050.06342 1.50429e-17
4051.52591 1.51142e-17
4052.99840 1.47794e-17
4054.47090 1.42471e-17
4055.94340 1.42808e-17
4057.40588 1.42638e-17
4058.87838 1.39283e-17
4060.35088 1.35682e-17
4061.82338 1.30569e-17
4063.28586 1.26979e-17
4064.75836 1.24502e-17
4066.23086 1.22867e-17
4067.69334 1.21700e-17
4069.16584 1.19120e-17
4070.63834 1.17580e-17
4072.11084 1.16607e-17
4073.57332 1.14989e-17
4075.04582 1.16455e-17
4076.51832 1.11014e-17
4077.99082 1.10178e-17
4079.45330 1.10943e-17
4080.92580 1.07227e-17
4082.39830 1.09918e-17
4083.87080 1.07161e-17
4085.33328 1.04834e-17
4086.80578 1.05856e-17
4088.27828 1.02355e-17
4089.75078 1.03516e-17
4091.21326 1.02259e-17
4092.68576 1.02104e-17
4094.15826 9.97461e-18
4095.63076 9.73953e-18
4097.09324 9.83386e-18
4098.56574 9.82946e-18
4100.03824 9.44450e-18
4101.51074 9.49614e-18
4102.97322 9.47458e-18
4104.44572 9.21215e-18
4105.91821 9.10902e-18
4107.39071 9.43651e-18
4108.85320 9.23392e-18
4110.32570 9.12373e-18
4111.79819 8.94322e-18
4113.27069 8.74046e-18
4114.73318 8.64859e-18
4116.20567 8.55507e-18
4117.67817 8.38611e-18
4119.15067 8.46167e-18
4120.61315 8.42468e-18
4122.08565 8.23720e-18
4123.55815 7.94174e-18
4125.03065 7.55001e-18
4126.49313 7.69771e-18
4127.96563 7.58359e-18
4129.43813 7.54574e-18
4130.91063 7.63539e-18
4132.37311 7.48218e-18
4133.84561 7.32574e-18
4135.31811 7.45553e-18
4136.79061 7.48116e-18
4138.25309 7.40396e-18
4139.72559 7.45847e-18
4141.19809 7.23882e-18
4142.67059 7.27548e-18
4144.13307 7.29007e-18
4145.60557 7.43430e-18
4147.07807 7.56341e-18
4148.55057 7.43873e-18
4150.01305 7.52778e-18
4151.48555 7.55122e-18
4152.95805 7.27875e-18
4154.43055 7.51888e-18
4155.89303 7.67705e-18
4157.36553 7.60720e-18
4158.83803 7.65632e-18
4160.31052 7.51262e-18
4161.77301 7.54442e-18
4163.24551 7.56533e-18
4164.71800 7.32003e-18
4166.18049 7.39094e-18
4167.65299 7.27896e-18
4169.12549 7.13775e-18
4170.59798 7.02845e-18
4172.06047 6.82591e-18
4173.53297 6.83825e-18
4175.00546 6.78126e-18
4176.47796 6.70015e-18
4177.94045 6.72974e-18
4179.41294 6.62081e-18
4180.88544 6.48522e-18
4182.35794 6.51979e-18
4183.82042 6.40327e-18
4185.29292 6.47726e-18
4186.76542 6.32141e-18
4188.23792 6.26188e-18
4189.70040 6.27261e-18
4191.17290 6.32000e-18
4192.64540 6.24860e-18
4194.11790 6.39787e-18
4195.58038 6.32513e-18
4197.05288 6.34042e-18
4198.52538 6.32632e-18
4199.99788 6.47965e-18
4201.46036 6.50841e-18
4202.93286 6.44764e-18
4204.40536 6.50382e-18
4205.87786 6.59931e-18
4207.34034 6.63179e-18
4208.81284 6.53598e-18
4210.28534 6.58467e-18
4211.75784 6.54529e-18
4213.22032 6.71704e-18
4214.69282 6.81369e-18
4216.16532 6.87407e-18
4217.63782 7.22264e-18
4219.10030 7.24747e-18
4220.57280 7.19414e-18
4222.04530 7.34529e-18
4223.51780 7.37286e-18
4224.98028 7.34298e-18
4226.45278 7.70061e-18
4227.92528 7.73521e-18
4229.39777 7.66079e-18
4230.86026 7.69554e-18
4232.33275 7.91320e-18
4233.80525 7.72034e-18
4235.27775 7.84132e-18
4236.74024 7.88127e-18
4238.21273 7.85613e-18
4239.68523 7.86041e-18
4241.15773 7.87873e-18
4242.62021 8.11616e-18
4244.09271 8.10456e-18
4245.56521 8.11695e-18
4247.03771 8.08690e-18
4248.50019 8.06905e-18
4249.97269 8.14704e-18
4251.44519 8.22104e-18
4252.91769 7.96521e-18
4254.38017 8.14403e-18
4255.85267 8.20725e-18
4257.32517 8.14242e-18
4258.78765 8.14043e-18
4260.26015 8.03875e-18
4261.73265 8.00039e-18
4263.20515 7.93465e-18
4264.66763 7.97689e-18
4266.14013 7.87696e-18
4267.61263 7.82396e-18
4269.08513 7.80313e-18
4270.54761 7.79220e-18
4272.02011 7.64362e-18
4273.49261 7.78780e-18
4274.96511 7.71069e-18
4276.42759 7.73256e-18
4277.90009 7.77609e-18
4279.37259 8.07226e-18
4280.84509 8.03039e-18
4282.30757 7.78705e-18
4283.78007 7.77246e-18
4285.25257 7.53714e-18
4286.72506 7.44809e-18
4288.18755 7.55049e-18
4289.66005 7.68645e-18
4291.13255 7.49810e-18
4292.60504 7.58791e-18
4294.06753 7.66684e-18
4295.54003 7.89633e-18
4297.01252 7.95773e-18
4298.48502 7.86331e-18
4299.94751 7.97044e-18
4301.42000 8.00545e-18
4302.89250 7.82728e-18
4304.36500 7.85348e-18
4305.82748 7.90870e-18
4307.29998 7.90198e-18
4308.77248 8.12386e-18
4310.24498 8.13655e-18
4311.70746 8.08411e-18
4313.17996 8.15407e-18
4314.65246 8.31855e-18
4316.12496 8.40203e-18
4317.58744 8.33057e-18
4319.05994 8.28938e-18
4320.53244 8.39888e-18
4322.00494 8.42845e-18
4323.46742 8.38405e-18
4324.93992 8.46636e-18
4326.41242 8.44052e-18
4327.88492 8.37845e-18
4329.34740 8.41715e-18
4330.81990 8.48478e-18
4332.29240 8.38366e-18
4333.76490 8.31931e-18
4335.22738 8.43776e-18
4336.69988 8.43038e-18
4338.17238 8.25747e-18
4339.64488 8.30755e-18
4341.10736 8.43838e-18
4342.57986 8.39383e-18
4344.05236 8.35833e-18
4345.52485 8.40749e-18
4346.98734 8.58121e-18
4348.45984 8.55589e-18
4349.93234 8.40228e-18
4351.39482 8.31344e-18
4352.86732 8.28010e-18
4354.33982 8.24677e-18
4355.81231 8.21345e-18
4357.27480 8.18014e-18
4358.74730 8.14683e-18
4360.21979 8.11351e-18
4361.69229 8.08021e-18
4363.15477 8.04690e-18
4364.62727 8.01362e-18
4366.09977 7.98032e-18
4367.57227 7.94702e-18
4369.03475 7.91374e-18
4370.50725 7.88045e-18
4371.97975 7.84718e-18
4373.45225 7.81391e-18
4374.91473 7.78065e-18
4376.38723 7.74738e-18
4377.85973 7.71412e-18
4379.33223 7.68087e-18
4380.79471 7.64762e-18
4382.26721 7.61438e-18
4383.73971 7.58113e-18
4385.21221 7.54790e-18
4386.67469 7.51466e-18
4388.14719 7.48145e-18
4389.61969 7.44822e-18
4391.09219 7.44892e-18
4392.55467 7.40040e-18
4394.02717 7.04094e-18
4395.49967 7.07138e-18
4396.97217 7.27911e-18
4398.43465 7.24450e-18
4399.90715 7.14960e-18
4401.37965 7.09631e-18
4402.85215 7.13224e-18
4404.31463 7.01480e-18
4405.78713 6.88146e-18
4407.25963 6.82073e-18
4408.73213 6.75393e-18
4410.19461 6.71968e-18
4411.66711 6.75480e-18
4413.13960 6.78389e-18
4414.61210 6.51669e-18
4416.07459 6.59138e-18
4417.54709 6.57735e-18
4419.01958 6.34046e-18
4420.49208 6.40613e-18
4421.95457 6.46147e-18
4423.42706 6.36947e-18
4424.89956 6.41463e-18
4426.37206 6.34404e-18
4427.83454 6.41076e-18
4429.30704 6.36429e-18
4430.77954 6.35840e-18
4432.25204 6.33086e-18
4433.71452 6.43470e-18
4435.18702 6.47665e-18
4436.65952 6.32811e-18
4438.13202 6.48819e-18
4439.59450 6.62670e-18
4441.06700 6.67878e-18
4442.53950 6.65685e-18
4444.01200 6.72897e-18
4445.47448 6.60878e-18
4446.94698 6.72024e-18
4448.41948 6.73427e-18
4449.88196 6.88818e-18
4451.35446 6.94099e-18
4452.82696 6.93027e-18
4454.29946 6.94755e-18
4455.76194 7.14848e-18
4457.23444 7.31656e-18
4458.70694 7.23092e-18
4460.17944 7.50334e-18
4461.64192 7.49442e-18
4463.11442 7.47098e-18
4464.58692 7.68700e-18
4466.05942 7.71465e-18
4467.52190 7.78117e-18
4468.99440 7.88020e-18
4470.46690 8.06879e-18
4471.93940 8.33849e-18
4473.40188 8.42074e-18
4474.87438 8.51151e-18
4476.34688 8.57530e-18
4477.81937 8.88703e-18
4479.28186 8.91954e-18
4480.75436 9.11740e-18
4482.22685 9.39158e-18
4483.69935 9.57926e-18
4485.16184 9.58327e-18
4486.63433 9.90528e-18
4488.10683 1.01210e-17
4489.57933 1.03709e-17
4491.04181 1.06252e-17
4492.51431 1.08781e-17
4493.98681 1.08052e-17
4495.45931 1.10751e-17
4496.92179 1.11621e-17
4498.39429 1.11352e-17
4499.86679 1.16232e-17
4501.33929 1.17426e-17
4502.80177 1.18637e-17
4504.27427 1.19607e-17
4505.74677 1.20670e-17
4507.21927 1.25104e-17
4508.68175 1.26710e-17
4510.15425 1.28153e-17
4511.62675 1.29036e-17
4513.09925 1.30130e-17
4514.56173 1.29467e-17
4516.03423 1.30210e-17
4517.50673 1.38202e-17
4518.97923 1.36239e-17
4520.44171 1.36027e-17
4521.91421 1.35109e-17
4523.38671 1.36945e-17
4524.85921 1.36427e-17
4526.32169 1.36992e-17
4527.79419 1.37292e-17
4529.26669 1.38409e-17
4530.73919 1.37943e-17
4532.20167 1.39093e-17
4533.67417 1.41204e-17
4535.14667 1.42389e-17
4536.61916 1.42931e-17
4538.08165 1.44583e-17
4539.55415 1.47741e-17
4541.02664 1.48666e-17
4542.48913 1.51346e-17
4543.96162 1.50736e-17
4545.43412 1.49367e-17
4546.90662 1.50544e-17
4548.36910 1.51047e-17
4549.84160 1.53392e-17
4551.31410 1.54277e-17
4552.78660 1.56589e-17
4554.24908 1.57256e-17
4555.72158 1.56558e-17
4557.19408 1.60223e-17
4558.66658 1.61385e-17
4560.12906 1.61641e-17
4561.60156 1.63166e-17
4563.07406 1.65357e-17
4564.54656 1.69347e-17
4566.00904 1.72277e-17
4567.48154 1.72157e-17
4568.95404 1.72842e-17
4570.42654 1.72991e-17
4571.88902 1.78097e-17
4573.36152 1.78280e-17
4574.83402 1.79329e-17
4576.30652 1.82170e-17
4577.76900 1.82612e-17
4579.24150 1.84861e-17
4580.71400 1.85308e-17
4582.18650 1.85088e-17
4583.64898 1.88411e-17
4585.12148 1.87831e-17
4586.59398 1.87955e-17
4588.06648 1.91854e-17
4589.52896 1.93836e-17
4591.00146 1.93713e-17
4592.47396 1.93581e-17
4593.94646 1.93769e-17
4595.40894 1.94696e-17
4596.88144 1.95624e-17
4598.35394 1.96551e-17
4599.82643 1.97478e-17
4601.28892 1.98405e-17
4602.76141 1.99332e-17
4604.23391 2.00259e-17
4605.70641 2.01186e-17
4607.16890 2.02112e-17
4608.64139 2.03038e-17
4610.11389 2.03964e-17
4611.58639 2.04890e-17
4613.04887 2.05816e-17
4614.52137 2.05800e-17
4615.99387 2.04868e-17
4617.46637 2.04879e-17
4618.92885 2.05620e-17
4620.40135 2.06090e-17
4621.87385 2.07462e-17
4623.34635 2.04136e-17
4624.80883 2.02796e-17
4626.28133 2.04252e-17
4627.75383 2.03156e-17
4629.22633 2.02887e-17
4630.68881 2.00123e-17
4632.16131 1.99322e-17
4633.63381 1.97678e-17
4635.10631 1.96406e-17
4636.56879 1.94561e-17
4638.04129 1.91651e-17
4639.51379 1.90009e-17
4640.97627 1.89097e-17
4642.44877 1.88376e-17
4643.92127 1.85005e-17
4645.39377 1.82393e-17
4646.85625 1.79985e-17
4648.32875 1.78139e-17
4649.80125 1.78948e-17
4651.27375 1.73620e-17
4652.73623 1.72705e-17
4654.20873 1.72742e-17
4655.68123 1.70333e-17
4657.15373 1.68458e-17
4658.61621 1.66778e-17
4660.08871 1.65537e-17
4661.56120 1.64131e-17
4663.03370 1.62183e-17
4664.49619 1.59090e-17
4665.96869 1.58475e-17
4667.44118 1.58026e-17
4668.91368 1.58710e-17
4670.37616 1.58447e-17
4671.84866 1.58234e-17
4673.32116 1.56047e-17
4674.79366 1.55286e-17
4676.25614 1.54758e-17
4677.72864 1.52750e-17
4679.20114 1.54328e-17
4680.67364 1.53939e-17
4682.13612 1.52896e-17
4683.60862 1.52059e-17
4685.08112 1.50475e-17
4686.55362 1.50166e-17
4688.01610 1.52471e-17
4689.48860 1.53076e-17
4690.96110 1.49531e-17
4692.43360 1.50621e-17
4693.89608 1.53991e-17
4695.36858 1.51009e-17
4696.84108 1.49145e-17
4698.31358 1.50695e-17
4699.77606 1.50440e-17
4701.24856 1.49324e-17
4702.72106 1.50045e-17
4704.19356 1.49789e-17
4705.65604 1.48003e-17
4707.12854 1.45711e-17
4708.60104 1.45082e-17
4710.07354 1.44754e-17
4711.53602 1.45310e-17
4713.00852 1.46872e-17
4714.48102 1.46589e-17
4715.95352 1.45336e-17
4717.41600 1.45437e-17
4718.88850 1.44698e-17
4720.36100 1.43509e-17
4721.83349 1.44673e-17
4723.29598 1.43730e-17
4724.76847 1.41768e-17
4726.24097 1.40967e-17
4727.71347 1.41102e-17
4729.17595 1.40471e-17
4730.64845 1.36008e-17
4732.12095 1.34900e-17
4733.59345 1.37374e-17
4735.05593 1.37727e-17
4736.52843 1.36154e-17
4738.00093 1.35375e-17
4739.46341 1.33885e-17
4740.93591 1.33765e-17
4742.40841 1.36911e-17
4743.88091 1.35118e-17
4745.34339 1.31583e-17
4746.81589 1.30277e-17
4748.28839 1.31455e-17
4749.76089 1.32259e-17
4751.22337 1.31200e-17
4752.69587 1.30776e-17
4754.16837 1.30726e-17
4755.64087 1.31054e-17
4757.10335 1.29518e-17
4758.57585 1.25972e-17
4760.04835 1.23586e-17
4761.52085 1.23493e-17
4762.98333 1.24769e-17
4764.45583 1.24327e-17
4765.92833 1.23412e-17
4767.40083 1.22812e-17
4768.86331 1.21302e-17
4770.33581 1.23144e-17
4771.80831 1.21814e-17
4773.28081 1.17662e-17
4774.74329 1.17233e-17
4776.21579 1.16960e-17
4777.68829 1.15412e-17
4779.16079 1.14011e-17
4780.62327 1.12248e-17
4782.09577 1.11300e-17
4783.56826 1.10420e-17
4785.04076 1.07657e-17
4786.50325 1.06624e-17
4787.97575 1.05749e-17
4789.44824 1.03169e-17
4790.92074 1.02728e-17
4792.38323 1.02237e-17
4793.85572 9.96452e-18
4795.32822 9.82138e-18
4796.80072 9.72864e-18
4798.26320 9.60965e-18
4799.73570 9.58392e-18
4801.20820 9.44752e-18
4802.68070 9.31082e-18
4804.14318 9.24485e-18
4805.61568 9.21078e-18
4807.08818 9.23595e-18
4808.56068 9.46259e-18
4810.02316 9.55174e-18
4811.49566 9.58964e-18
4812.96816 9.67627e-18
4814.44066 9.83336e-18
4815.90314 9.78747e-18
4817.37564 9.90257e-18
4818.84814 1.01389e-17
4820.32064 1.01204e-17
4821.78312 1.03018e-17
4823.25562 1.03548e-17
4824.72812 1.04291e-17
4826.19060 1.08123e-17
4827.66310 1.10781e-17
4829.13560 1.11934e-17
4830.60810 1.13980e-17
4832.08060 1.17081e-17
4833.54308 1.19823e-17
4835.01558 1.18881e-17
4836.48808 1.20795e-17
4837.95056 1.24835e-17
4839.42306 1.25642e-17
4840.89556 1.27092e-17
4842.36805 1.30073e-17
4843.83054 1.31415e-17
4845.30304 1.31917e-17
4846.77554 1.32465e-17
4848.24803 1.35060e-17
4849.71052 1.38073e-17
4851.18301 1.37912e-17
4852.65551 1.36537e-17
4854.12801 1.35161e-17
4855.59050 1.33785e-17
4857.06299 1.32410e-17
4858.53549 1.31035e-17
4860.00799 1.29661e-17
4861.47047 1.28286e-17
4862.94297 1.26912e-17
4864.41547 1.25538e-17
4865.88797 1.24164e-17
4867.35045 1.22791e-17
4868.82295 1.21417e-17
4870.29545 1.20044e-17
4871.76795 1.18671e-17
4873.23043 1.17299e-17
4874.70293 1.15926e-17
4876.17543 1.14554e-17
4877.64793 1.13182e-17
4879.11041 1.11810e-17
4880.58291 1.10439e-17
4882.05541 1.09068e-17
4883.52791 1.07697e-17
4884.99039 1.06325e-17
4886.46289 1.04955e-17
4887.93539 1.03584e-17
4889.40789 1.01750e-17
4890.87037 1.00567e-17
4892.34287 1.01616e-17
4893.81537 1.01465e-17
4895.28787 9.96037e-18
4896.75035 9.85851e-18
4898.22285 9.86887e-18
4899.69535 9.79524e-18
4901.16785 9.76118e-18
4902.63033 9.92497e-18
4904.10283 1.00790e-17
4905.57532 1.02877e-17
4907.04782 1.02640e-17
4908.51031 1.02437e-17
4909.98280 1.03447e-17
4911.45530 1.04939e-17
4912.91779 1.05896e-17
4914.39029 1.05711e-17
4915.86278 1.08064e-17
4917.33528 1.10314e-17
4918.80778 1.11672e-17
4920.27026 1.12278e-17
4921.74276 1.14575e-17
4923.21526 1.17021e-17
4924.68776 1.17500e-17
4926.15024 1.19658e-17
4927.62274 1.21019e-17
4929.09524 1.24317e-17
4930.55772 1.27100e-17
4932.03022 1.27946e-17
4933.50272 1.29249e-17
4934.97522 1.30496e-17
4936.43770 1.33166e-17
4937.91020 1.35620e-17
4939.38270 1.37518e-17
4940.85520 1.39987e-17
4942.31768 1.40661e-17
4943.79018 1.41990e-17
4945.26268 1.44589e-17
4946.73518 1.46400e-17
4948.19766 1.48506e-17
4949.67016 1.49225e-17
4951.14266 1.49944e-17
4952.61516 1.50662e-17
4954.07764 1.51381e-17
4955.55014 1.52100e-17
4957.02264 1.52818e-17
4958.49514 1.53536e-17
4959.95762 1.54254e-17
4961.43012 1.54972e-17
4962.90262 1.55690e-17
4964.37511 1.56408e-17
4965.83760 1.57126e-17
4967.31010 1.57843e-17
4968.78260 1.58561e-17
4970.25509 1.59278e-17
4971.71758 1.59995e-17
4973.19008 1.60712e-17
4974.66257 1.61430e-17
4976.13507 1.62146e-17
4977.59755 1.62863e-17
4979.07005 1.63580e-17
4980.54255 1.64296e-17
4982.01505 1.65013e-17
4983.47753 1.65729e-17
4984.95003 1.66445e-17
4986.42253 1.67161e-17
4987.89503 1.65735e-17
4989.35751 1.63343e-17
4990.83001 1.60982e-17
4992.30251 1.61072e-17
4993.77501 1.60442e-17
4995.23749 1.58746e-17
4996.70999 1.56336e-17
4998.18249 1.53673e-17
4999.65499 1.51012e-17
5001.11747 1.48350e-17
5002.58997 1.45688e-17
5004.06247 1.43028e-17
5005.53497 1.40367e-17
5006.99745 1.37708e-17
5008.46995 1.35048e-17
5009.94245 1.32389e-17
5011.41495 1.29730e-17
5012.87743 1.27072e-17
5014.34993 1.24414e-17
5015.82243 1.21756e-17
5017.28491 1.19100e-17
5018.75741 1.16443e-17
5020.22991 1.13787e-17
5021.70241 1.11132e-17
5023.16489 1.08477e-17
5024.63739 1.05821e-17
5026.10989 1.03167e-17
5027.58239 1.00513e-17
5029.04487 9.78596e-18
5030.51737 9.52068e-18
5031.98986 9.25536e-18
5033.46236 8.99016e-18
5034.92485 8.88977e-18
5036.39735 8.85750e-18
5037.86984 8.88684e-18
5039.34234 8.80740e-18
5040.80483 8.60094e-18
5042.27732 8.63331e-18
5043.74982 8.66209e-18
5045.22232 8.64026e-18
5046.68480 8.69341e-18
5048.15730 8.72736e-18
5049.62980 8.84806e-18
5051.10230 8.80227e-18
5052.56478 8.78153e-18
5054.03728 9.03624e-18
5055.50978 9.21588e-18
5056.98228 9.17328e-18
5058.44476 9.06529e-18
5059.91726 9.20794e-18
5061.38976 9.38377e-18
5062.86226 9.52428e-18
5064.32474 9.56056e-18
5065.79724 9.56361e-18
5067.26974 9.58999e-18
5068.74224 9.78798e-18
5070.20472 1.00332e-17
5071.67722 1.01076e-17
5073.14972 1.01674e-17
5074.62222 1.02683e-17
5076.08470 1.03464e-17
5077.55720 1.05381e-17
5079.02970 1.05781e-17
5080.50220 1.05136e-17
5081.96468 1.05265e-17
5083.43718 1.08689e-17
5084.90968 1.10943e-17
5086.38217 1.11185e-17
5087.84466 1.11821e-17
5089.31716 1.11637e-17
5090.78965 1.13889e-17
5092.26215 1.15856e-17
5093.72464 1.15624e-17
5095.19714 1.17195e-17
5096.66963 1.18886e-17
5098.14213 1.18087e-17
5099.60462 1.18538e-17
5101.07711 1.20117e-17
5102.54961 1.20639e-17
5104.01210 1.20574e-17
5105.48459 1.21115e-17
5106.95709 1.21706e-17
5108.42959 1.21518e-17
5109.90209 1.21637e-17
5111.36457 1.23978e-17
5112.83707 1.24691e-17
5114.30957 1.24571e-17
5115.78207 1.26329e-17
5117.24455 1.26575e-17
5118.71705 1.26238e-17
5120.18955 1.26720e-17
5121.65203 1.27622e-17
5123.12453 1.28129e-17
5124.59703 1.27934e-17
5126.06953 1.29310e-17
5127.53201 1.30391e-17
5129.00451 1.29645e-17
5130.47701 1.29145e-17
5131.94951 1.29469e-17
5133.41199 1.29663e-17
5134.88449 1.29545e-17
5136.35699 1.29030e-17
5137.82949 1.28553e-17
5139.29197 1.28064e-17
5140.76447 1.27945e-17
5142.23697 1.28657e-17
5143.70947 1.29649e-17
5145.17195 1.30113e-17
5146.64445 1.28607e-17
5148.11695 1.28136e-17
5149.58945 1.30756e-17
5151.05193 1.31070e-17
5152.52443 1.29506e-17
5153.99693 1.29978e-17
5155.46942 1.29203e-17
5156.93191 1.29514e-17
5158.40441 1.29048e-17
5159.87690 1.30132e-17
5161.34940 1.30348e-17
5162.81189 1.30484e-17
5164.28438 1.30301e-17
5165.75688 1.29357e-17
5167.22938 1.29620e-17
5168.69186 1.28695e-17
5170.16436 1.28242e-17
5171.63686 1.28189e-17
5173.10936 1.27749e-17
5174.57184 1.28301e-17
5176.04434 1.27223e-17
5177.51684 1.26701e-17
5178.98934 1.26206e-17
5180.45182 1.26783e-17
5181.92432 1.26488e-17
5183.39682 1.24931e-17
5184.86932 1.27308e-17
5186.33180 1.27190e-17
5187.80430 1.25633e-17
5189.27680 1.26731e-17
5190.74930 1.27154e-17
5192.21178 1.27841e-17
5193.68428 1.27050e-17
5195.15678 1.25534e-17
5196.62928 1.27147e-17
5198.09176 1.27009e-17
5199.56426 1.26863e-17
5201.03676 1.28251e-17
5202.50926 1.29990e-17
5203.97174 1.28585e-17
5205.44424 1.27750e-17
5206.91674 1.27118e-17
5208.37922 1.27398e-17
5209.85172 1.27416e-17
5211.32422 1.29522e-17
5212.79672 1.30816e-17
5214.25920 1.31933e-17
5215.73170 1.32567e-17
5217.20420 1.32637e-17
5218.67669 1.35624e-17
5220.13918 1.34673e-17
5221.61168 1.34555e-17
5223.08417 1.35877e-17
5224.55667 1.38353e-17
5226.01915 1.40474e-17
5227.49165 1.42744e-17
5228.96415 1.44016e-17
5230.43665 1.44348e-17
5231.89913 1.42968e-17
5233.37163 1.45980e-17
5234.84413 1.47786e-17
5236.31663 1.48023e-17
5237.77911 1.48519e-17
5239.25161 1.49437e-17
5240.72411 1.49911e-17
5242.19661 1.51677e-17
5243.65909 1.53202e-17
5245.13159 1.52814e-17
5246.60409 1.53966e-17
5248.07659 1.54067e-17
5249.53907 1.53710e-17
5251.01157 1.54036e-17
5252.48407 1.53653e-17
5253.95657 1.55380e-17
5255.41905 1.55832e-17
5256.89155 1.56907e-17
5258.36405 1.58524e-17
5259.83655 1.57440e-17
5261.29903 1.57845e-17
5262.77153 1.59291e-17
5264.24403 1.59093e-17
5265.71653 1.58796e-17
5267.17901 1.60281e-17
5268.65151 1.60442e-17
5270.12401 1.61667e-17
5271.59650 1.63714e-17
5273.05899 1.61831e-17
5274.53149 1.63220e-17
5276.00399 1.66375e-17
5277.47648 1.67594e-17
5278.93897 1.67562e-17
5280.41147 1.68131e-17
5281.88396 1.71167e-17
5283.35646 1.72221e-17
5284.81895 1.72252e-17
5286.29144 1.73398e-17
5287.76394 1.73990e-17
5289.23644 1.74666e-17
5290.69892 1.75248e-17
5292.17142 1.75606e-17
5293.64392 1.75496e-17
5295.10640 1.76220e-17
5296.57890 1.75859e-17
5298.05140 1.76995e-17
5299.52390 1.78728e-17
5300.99640 1.78206e-17
5302.45888 1.79421e-17
5303.93138 1.79761e-17
5305.40388 1.79253e-17
5306.86636 1.79857e-17
5308.33886 1.81228e-17
5309.81136 1.81436e-17
5311.28386 1.82715e-17
5312.74634 1.82213e-17
5314.21884 1.81966e-17
5315.69134 1.81533e-17
5317.16384 1.80824e-17
5318.62632 1.82127e-17
5320.09882 1.83543e-17
5321.57132 1.82194e-17
5323.04382 1.81689e-17
5324.50630 1.82250e-17
5325.97880 1.81891e-17
5327.45130 1.80257e-17
5328.92380 1.79572e-17
5330.38628 1.80542e-17
5331.85878 1.80734e-17
5333.33128 1.82374e-17
5334.80378 1.82330e-17
5336.26626 1.81547e-17
5337.73876 1.81927e-17
5339.21126 1.81455e-17
5340.68375 1.83447e-17
5342.14624 1.84202e-17
5343.61874 1.83583e-17
5345.09123 1.84458e-17
5346.56373 1.84799e-17
5348.02621 1.84020e-17
5349.49871 1.84502e-17
5350.97121 1.85098e-17
5352.44371 1.84734e-17
5353.90619 1.84436e-17
5355.37869 1.84340e-17
5356.85119 1.83846e-17
5358.32369 1.84166e-17
5359.78617 1.86353e-17
5361.25867 1.85983e-17
5362.73117 1.84253e-17
5364.20367 1.82702e-17
5365.66615 1.82556e-17
5367.13865 1.82819e-17
5368.61115 1.82301e-17
5370.08365 1.83147e-17
5371.54613 1.84108e-17
5373.01863 1.83163e-17
5374.49113 1.81493e-17
5375.96363 1.80000e-17
5377.42611 1.80543e-17
5378.89861 1.80693e-17
5380.37111 1.79325e-17
5381.84361 1.78258e-17
5383.30609 1.77475e-17
5384.77859 1.77570e-17
5386.25109 1.76744e-17
5387.72359 1.75142e-17
5389.18607 1.73712e-17
5390.65857 1.72092e-17
5392.13107 1.70815e-17
5393.59355 1.70619e-17
5395.06605 1.69685e-17
5396.53855 1.66907e-17
5398.01105 1.64366e-17
5399.47353 1.64521e-17
5400.94603 1.64443e-17
5402.41853 1.62124e-17
5403.89102 1.62028e-17
5405.35351 1.62233e-17
5406.82600 1.61004e-17
5408.29850 1.59371e-17
5409.77100 1.57908e-17
5411.23349 1.58729e-17
5412.70598 1.60309e-17
5414.17848 1.59529e-17
5415.65098 1.57271e-17
5417.11346 1.56407e-17
5418.58596 1.57639e-17
5420.05846 1.58785e-17
5421.53096 1.57782e-17
5422.99344 1.58003e-17
5424.46594 1.57812e-17
5425.93844 1.57451e-17
5427.41094 1.58039e-17
5428.87342 1.59097e-17
5430.34592 1.60922e-17
5431.81842 1.61555e-17
5433.29092 1.61224e-17
5434.75340 1.62012e-17
5436.22590 1.62831e-17
5437.69840 1.62418e-17
5439.17090 1.61744e-17
5440.63338 1.62169e-17
5442.10588 1.63051e-17
5443.57838 1.64322e-17
5445.05088 1.65784e-17
5446.51336 1.67239e-17
5447.98586 1.68428e-17
5449.45836 1.68214e-17
5450.93086 1.68097e-17
5452.39334 1.70638e-17
5453.86584 1.73090e-17
5455.33834 1.74254e-17
5456.81084 1.73988e-17
5458.27332 1.75321e-17
5459.74582 1.75267e-17
5461.21832 1.76173e-17
5462.69081 1.78355e-17
5464.15330 1.79851e-17
5465.62580 1.81747e-17
5467.09829 1.81707e-17
5468.57079 1.81160e-17
5470.03327 1.81986e-17
5471.50577 1.84544e-17
5472.97827 1.85914e-17
5474.45077 1.85862e-17
5475.91325 1.86442e-17
5477.38575 1.87629e-17
5478.85825 1.88169e-17
5480.33075 1.87321e-17
5481.79323 1.88037e-17
5483.26573 1.88690e-17
5484.73823 1.89420e-17
5486.21073 1.90319e-17
5487.67321 1.89650e-17
5489.14571 1.88866e-17
5490.61821 1.89865e-17
5492.09071 1.91304e-17
5493.55319 1.90521e-17
5495.02569 1.87534e-17
5496.49819 1.87921e-17
5497.96067 1.89997e-17
5499.43317 1.89914e-17
5500.90567 1.88969e-17
5502.37817 1.88874e-17
5503.84065 1.87944e-17
5505.31315 1.85427e-17
5506.78565 1.83262e-17
5508.25815 1.83003e-17
5509.72063 1.83234e-17
5511.19313 1.82377e-17
5512.66563 1.81753e-17
5514.13813 1.81201e-17
5515.60061 1.81254e-17
5517.07311 1.79958e-17
5518.54561 1.76754e-17
5520.01811 1.76236e-17
5521.48059 1.75998e-17
5522.95309 1.74017e-17
5524.42558 1.72952e-17
5525.89808 1.71651e-17
5527.36057 1.70451e-17
5528.83306 1.70536e-17
5530.30556 1.68415e-17
5531.77806 1.66792e-17
5533.24055 1.64685e-17
5534.71304 1.64952e-17
5536.18554 1.64793e-17
5537.65804 1.62203e-17
5539.12052 1.61092e-17
5540.59302 1.60984e-17
5542.06552 1.61101e-17
5543.53802 1.61454e-17
5545.00050 1.60974e-17
5546.47300 1.58901e-17
5547.94550 1.58660e-17
5549.41800 1.59861e-17
5550.88048 1.58767e-17
5552.35298 1.58312e-17
5553.82548 1.58162e-17
5555.29798 1.57644e-17
5556.76046 1.58773e-17
5558.23296 1.57712e-17
5559.70546 1.55919e-17
5561.17796 1.56182e-17
5562.64044 1.56346e-17
5564.11294 1.55812e-17
5565.58544 1.55851e-17
5567.05794 1.56580e-17
5568.52042 1.57057e-17
5569.99292 1.58195e-17
5571.46542 1.58616e-17
5572.93792 1.57948e-17
5574.40040 1.58014e-17
5575.87290 1.58579e-17
5577.34540 1.59882e-17
5578.81790 1.60778e-17
5580.28038 1.59631e-17
5581.75288 1.60022e-17
5583.22537 1.59465e-17
5584.68786 1.58449e-17
5586.16036 1.60315e-17
5587.63285 1.61726e-17
5589.10535 1.61746e-17
5590.56784 1.62857e-17
5592.04034 1.64206e-17
5593.51283 1.63196e-17
5594.98533 1.61790e-17
5596.45783 1.61177e-17
5597.92031 1.62808e-17
5599.39281 1.63111e-17
5600.86531 1.62752e-17
5602.32779 1.63917e-17
5603.80029 1.65120e-17
5605.27279 1.65744e-17
5606.74529 1.65589e-17
5608.20777 1.65571e-17
5609.68027 1.66175e-17
5611.15277 1.66290e-17
5612.62527 1.66431e-17
5614.08775 1.66778e-17
5615.56025 1.66176e-17
5617.03275 1.66615e-17
5618.50525 1.67719e-17
5619.96773 1.68173e-17
5621.44023 1.67668e-17
5622.91273 1.66836e-17
5624.38523 1.67184e-17
5625.84771 1.67705e-17
5627.32021 1.66944e-17
5628.79271 1.67056e-17
5630.26521 1.68119e-17
5631.72769 1.69368e-17
5633.20019 1.69598e-17
5634.67269 1.68020e-17
5636.14519 1.66628e-17
5637.60767 1.65113e-17
5639.08017 1.65430e-17
5640.55267 1.67555e-17
5642.02517 1.67688e-17
5643.48765 1.66992e-17
5644.96015 1.66246e-17
5646.43265 1.64655e-17
5647.90514 1.64321e-17
5649.36763 1.64546e-17
5650.84013 1.63750e-17
5652.31262 1.64209e-17
5653.78512 1.65426e-17
5655.24760 1.64400e-17
5656.72010 1.62644e-17
5658.19260 1.62127e-17
5659.66510 1.62833e-17
5661.12758 1.62965e-17
5662.60008 1.61573e-17
5664.07258 1.61200e-17
5665.54508 1.60022e-17
5667.00756 1.58697e-17
5668.48006 1.58916e-17
5669.95256 1.58470e-17
5671.41504 1.57150e-17
5672.88754 1.55440e-17
5674.36004 1.55274e-17
5675.83254 1.55480e-17
5677.30504 1.54410e-17
5678.76752 1.53619e-17
5680.24002 1.53174e-17
5681.71252 1.53586e-17
5683.18502 1.53041e-17
5684.64750 1.50661e-17
5686.12000 1.49340e-17
5687.59250 1.49635e-17
5689.05498 1.49479e-17
5690.52748 1.48744e-17
5691.99998 1.48718e-17
5693.47248 1.47998e-17
5694.93496 1.46303e-17
5696.40746 1.45626e-17
5697.87996 1.45899e-17
5699.35246 1.45545e-17
5700.81494 1.44191e-17
5702.28744 1.43117e-17
5703.75994 1.42360e-17
5705.23244 1.41840e-17
5706.69492 1.40208e-17
5708.16742 1.40070e-17
5709.63991 1.40058e-17
5711.11241 1.38725e-17
5712.57490 1.37823e-17
5714.04740 1.37243e-17
5715.51989 1.36256e-17
5716.99239 1.36061e-17
5718.45488 1.35451e-17
5719.92737 1.33722e-17
5721.39987 1.32752e-17
5722.87237 1.33101e-17
5724.33485 1.32843e-17
5725.80735 1.31426e-17
5727.27985 1.30121e-17
5728.75235 1.28535e-17
5730.21483 1.27725e-17
5731.68733 1.27371e-17
5733.15983 1.26980e-17
5734.63233 1.26589e-17
5736.09481 1.24562e-17
5737.56731 1.23806e-17
5739.03981 1.24529e-17
5740.51231 1.23219e-17
5741.97479 1.22322e-17
5743.44729 1.21831e-17
5744.91979 1.20995e-17
5746.39229 1.20989e-17
5747.85477 1.20217e-17
5749.32727 1.19963e-17
5750.79977 1.19588e-17
5752.27227 1.17700e-17
5753.73475 1.16658e-17
5755.20725 1.16498e-17
5756.67975 1.16945e-17
5758.15225 1.16514e-17
5759.61473 1.15864e-17
5761.08723 1.16175e-17
5762.55973 1.16208e-17
5764.03222 1.15568e-17
5765.49471 1.15638e-17
5766.96721 1.15991e-17
5768.43970 1.15878e-17
5769.91220 1.16915e-17
5771.37469 1.15902e-17
5772.84719 1.14266e-17
5774.31968 1.15871e-17
5775.78217 1.17768e-17
5777.25467 1.17304e-17
5778.72716 1.16408e-17
5780.19966 1.17043e-17
5781.66215 1.17151e-17
5783.13464 1.18146e-17
5784.60714 1.20972e-17
5786.07964 1.21309e-17
5787.55214 1.20703e-17
5789.01462 1.21147e-17
5790.48712 1.21183e-17
5791.95962 1.23092e-17
5793.42210 1.25173e-17
5794.89460 1.24479e-17
5796.36710 1.25170e-17
5797.83960 1.28132e-17
5799.30208 1.29335e-17
5800.77458 1.29141e-17
5802.24708 1.30650e-17
5803.71958 1.31913e-17
5805.18206 1.32292e-17
5806.65456 1.33364e-17
5808.12706 1.33879e-17
5809.59956 1.33784e-17
5811.06204 1.35118e-17
5812.53454 1.36026e-17
5814.00704 1.36609e-17
5815.47954 1.37704e-17
5816.94202 1.38037e-17
5818.41452 1.40492e-17
5819.88702 1.43631e-17
5821.35952 1.43664e-17
5822.82200 1.43156e-17
5824.29450 1.43564e-17
5825.76700 1.44225e-17
5827.23950 1.45456e-17
5828.70198 1.46076e-17
5830.17448 1.46543e-17
5831.64698 1.46752e-17
5833.11947 1.46510e-17
5834.58196 1.46470e-17
5836.05445 1.47058e-17
5837.52695 1.47861e-17
5838.99945 1.48507e-17
5840.46194 1.48911e-17
5841.93443 1.49209e-17
5843.40693 1.50051e-17
5844.87943 1.49555e-17
5846.34191 1.48706e-17
5847.81441 1.48760e-17
5849.28691 1.49170e-17
5850.75941 1.49372e-17
5852.22189 1.49454e-17
5853.69439 1.50063e-17
5855.16689 1.50058e-17
5856.63939 1.49922e-17
5858.10187 1.49873e-17
5859.57437 1.49055e-17
5861.04687 1.47954e-17
5862.51937 1.47643e-17
5863.98185 1.48417e-17
5865.45435 1.47602e-17
5866.92685 1.46068e-17
5868.39935 1.46873e-17
5869.86183 1.47665e-17
5871.33433 1.46437e-17
5872.80683 1.45121e-17
5874.27933 1.45683e-17
5875.74181 1.45307e-17
5877.21431 1.43709e-17
5878.68681 1.44004e-17
5880.14929 1.44506e-17
5881.62179 1.43479e-17
5883.09429 1.42141e-17
5884.56679 1.41671e-17
5886.02927 1.41301e-17
5887.50177 1.38064e-17
5888.97427 1.32278e-17
5890.44676 1.28374e-17
5891.90925 1.29854e-17
5893.38175 1.33189e-17
5894.85425 1.32530e-17
5896.32674 1.30488e-17
5897.78923 1.30470e-17
5899.26173 1.32262e-17
5900.73422 1.32846e-17
5902.20672 1.33304e-17
5903.66921 1.36918e-17
5905.14170 1.40104e-17
5906.61420 1.39170e-17
5908.08670 1.37964e-17
5909.54918 1.40469e-17
5911.02168 1.42879e-17
5912.49418 1.44181e-17
5913.96668 1.44053e-17
5915.42916 1.42906e-17
5916.90166 1.44269e-17
5918.37416 1.46835e-17
5919.84666 1.45624e-17
5921.30914 1.43056e-17
5922.78164 1.43478e-17
5924.25414 1.45063e-17
5925.72664 1.45525e-17
5927.18912 1.45677e-17
5928.66162 1.47660e-17
5930.13412 1.48539e-17
5931.60662 1.47929e-17
5933.06910 1.47042e-17
5934.54160 1.46300e-17
5936.01410 1.46460e-17
5937.48660 1.46393e-17
5938.94908 1.46362e-17
5940.42158 1.46203e-17
5941.89408 1.44171e-17
5943.36658 1.42502e-17
5944.82906 1.43446e-17
5946.30156 1.43763e-17
5947.77406 1.43364e-17
5949.24655 1.43156e-17
5950.70904 1.42884e-17
5952.18154 1.42545e-17
5953.65404 1.43667e-17
5955.12653 1.44759e-17
5956.58902 1.44170e-17
5958.06152 1.43999e-17
5959.53401 1.43274e-17
5961.00651 1.42817e-17
5962.46900 1.43317e-17
5963.94149 1.44192e-17
5965.41399 1.44716e-17
5966.87648 1.43613e-17
5968.34897 1.41664e-17
5969.82147 1.40879e-17
5971.29397 1.41507e-17
5972.75645 1.42753e-17
5974.22895 1.42694e-17
5975.70145 1.42036e-17
5977.17395 1.41463e-17
5978.63643 1.41168e-17
5980.10893 1.41557e-17
5981.58143 1.41378e-17
5983.05393 1.41202e-17
5984.51641 1.40680e-17
5985.98891 1.40572e-17
5987.46141 1.40572e-17
5988.93391 1.38933e-17
5990.39639 1.38977e-17
5991.86889 1.39198e-17
5993.34139 1.38121e-17
5994.81389 1.38119e-17
5996.27637 1.39219e-17
5997.74887 1.38570e-17
5999.22137 1.38265e-17
6000.69387 1.37941e-17
6002.15635 1.37019e-17
6003.62885 1.37215e-17
6005.10135 1.36338e-17
6006.57385 1.34980e-17
6008.03633 1.34983e-17
6009.50883 1.35317e-17
6010.98133 1.34305e-17
6012.45383 1.34726e-17
6013.91631 1.34091e-17
6015.38881 1.32378e-17
6016.86130 1.32240e-17
6018.33380 1.31602e-17
6019.79629 1.30825e-17
6021.26879 1.30459e-17
6022.74128 1.30388e-17
6024.21378 1.29701e-17
6025.67627 1.29147e-17
6027.14876 1.29139e-17
6028.62126 1.28677e-17
6030.09376 1.28724e-17
6031.55624 1.28133e-17
6033.02874 1.27327e-17
6034.50124 1.26104e-17
6035.97374 1.24763e-17
6037.43622 1.25065e-17
6038.90872 1.24831e-17
6040.38122 1.23515e-17
6041.85372 1.23450e-17
6043.31620 1.23554e-17
6044.78870 1.23173e-17
6046.26120 1.23964e-17
6047.73370 1.23834e-17
6049.19618 1.23185e-17
6050.66868 1.23718e-17
6052.14118 1.23399e-17
6053.61368 1.23614e-17
6055.07616 1.24636e-17
6056.54866 1.24252e-17
6058.02116 1.24244e-17
6059.49366 1.24556e-17
6060.95614 1.24365e-17
6062.42864 1.25396e-17
6063.90114 1.26458e-17
6065.36362 1.26536e-17
6066.83612 1.26386e-17
6068.30862 1.26927e-17
6069.78112 1.28146e-17
6071.24360 1.28379e-17
6072.71610 1.28845e-17
6074.18860 1.29537e-17
6075.66110 1.28833e-17
6077.12358 1.28694e-17
6078.59608 1.29484e-17
6080.06858 1.30148e-17
6081.54107 1.30954e-17
6083.00356 1.32198e-17
6084.47606 1.32357e-17
6085.94855 1.32109e-17
6087.42105 1.32333e-17
6088.88354 1.32837e-17
6090.35603 1.32962e-17
6091.82853 1.31167e-17
6093.30103 1.30606e-17
6094.76351 1.30877e-17
6096.23601 1.31401e-17
6097.70851 1.32864e-17
6099.18101 1.31965e-17
6100.64349 1.29491e-17
6102.11599 1.29441e-17
6103.58849 1.30120e-17
6105.06099 1.29328e-17
6106.52347 1.28602e-17
6107.99597 1.28081e-17
6109.46847 1.27330e-17
6110.94097 1.27259e-17
6112.40345 1.26183e-17
6113.87595 1.24253e-17
6115.34845 1.25390e-17
6116.82095 1.25891e-17
6118.28343 1.25329e-17
6119.75593 1.24758e-17
6121.22843 1.24860e-17
6122.70093 1.25876e-17
6124.16341 1.24460e-17
6125.63591 1.22571e-17
6127.10841 1.21914e-17
6128.58091 1.22346e-17
6130.04339 1.21656e-17
6131.51589 1.20937e-17
6132.98839 1.21881e-17
6134.46089 1.23128e-17
6135.92337 1.23308e-17
6137.39587 1.23013e-17
6138.86837 1.22801e-17
6140.34086 1.23060e-17
6141.80335 1.22763e-17
6143.27585 1.23477e-17
6144.74834 1.24034e-17
6146.22084 1.25597e-17
6147.68332 1.26089e-17
6149.15582 1.24951e-17
6150.62832 1.25661e-17
6152.09080 1.25969e-17
6153.56330 1.27197e-17
6155.03580 1.28376e-17
6156.50830 1.27712e-17
6157.98080 1.27570e-17
6159.44328 1.29752e-17
6160.91578 1.31353e-17
6162.38828 1.30792e-17
6163.86078 1.31837e-17
6165.32326 1.33131e-17
6166.79576 1.33793e-17
6168.26826 1.33178e-17
6169.73074 1.33333e-17
6171.20324 1.34483e-17
6172.67574 1.34307e-17
6174.14824 1.35198e-17
6175.61072 1.36095e-17
6177.08322 1.36211e-17
6178.55572 1.37503e-17
6180.02822 1.37764e-17
6181.49070 1.37073e-17
6182.96320 1.37547e-17
6184.43570 1.38978e-17
6185.90820 1.40224e-17
6187.37068 1.40266e-17
6188.84318 1.40159e-17
6190.31568 1.40813e-17
6191.78818 1.41260e-17
6193.25066 1.39940e-17
6194.72316 1.39023e-17
6196.19566 1.39418e-17
6197.66816 1.38948e-17
6199.13064 1.38509e-17
6200.60314 1.38718e-17
6202.07564 1.37590e-17
6203.54813 1.37729e-17
6205.01062 1.38423e-17
6206.48311 1.38229e-17
6207.95561 1.38433e-17
6209.42811 1.38945e-17
6210.89060 1.37952e-17
6212.36309 1.35519e-17
6213.83559 1.34997e-17
6215.30809 1.35065e-17
6216.77057 1.34174e-17
6218.24307 1.32006e-17
6219.71557 1.30832e-17
6221.18807 1.30146e-17
6222.65055 1.28787e-17
6224.12305 1.29028e-17
6225.59555 1.28355e-17
6227.06805 1.26094e-17
6228.53053 1.26406e-17
6230.00303 1.26406e-17
6231.47553 1.24215e-17
6232.94803 1.23339e-17
6234.41051 1.23226e-17
6235.88301 1.23019e-17
6237.35551 1.22316e-17
6238.82801 1.21552e-17
6240.29049 1.20700e-17
6241.76299 1.19339e-17
6243.23549 1.19211e-17
6244.70799 1.19019e-17
6246.17047 1.18607e-17
6247.64297 1.18845e-17
6249.11547 1.18064e-17
6250.58797 1.16934e-17
6252.05045 1.16751e-17
6253.52295 1.16318e-17
6254.99545 1.15582e-17
6256.45793 1.16278e-17
6257.93043 1.16574e-17
6259.40293 1.16828e-17
6260.87543 1.18107e-17
6262.33791 1.16657e-17
6263.81041 1.16037e-17
6265.28291 1.17262e-17
6266.75540 1.16460e-17
6268.21789 1.16206e-17
6269.69039 1.17380e-17
6271.16288 1.17071e-17
6272.63538 1.16184e-17
6274.09786 1.15480e-17
6275.57036 1.15450e-17
6277.04286 1.15892e-17
6278.51536 1.15029e-17
6279.97784 1.15002e-17
6281.45034 1.15873e-17
6282.92284 1.15941e-17
6284.39534 1.15693e-17
6285.85782 1.15892e-17
6287.33032 1.16464e-17
6288.80282 1.16541e-17
6290.27532 1.16661e-17
6291.73780 1.18655e-17
6293.21030 1.19758e-17
6294.68280 1.18390e-17
6296.15530 1.18183e-17
6297.61778 1.18798e-17
6299.09028 1.17958e-17
6300.56278 1.17347e-17
6302.03528 1.17594e-17
6303.49776 1.17974e-17
6304.97026 1.18306e-17
6306.44276 1.17697e-17
6307.91526 1.16080e-17
6309.37774 1.16447e-17
6310.85024 1.16904e-17
6312.32274 1.16485e-17
6313.79524 1.16735e-17
6315.25772 1.15033e-17
6316.73022 1.14001e-17
6318.20272 1.15554e-17
6319.67522 1.15480e-17
6321.13770 1.15142e-17
6322.61020 1.15953e-17
6324.08270 1.15777e-17
6325.55519 1.16024e-17
6327.01768 1.16199e-17
6328.49017 1.14108e-17
6329.96267 1.14277e-17
6331.43517 1.15309e-17
6332.89765 1.14950e-17
6334.37015 1.14539e-17
6335.84265 1.14867e-17
6337.31515 1.15310e-17
6338.77763 1.15048e-17
6340.25013 1.13689e-17
6341.72263 1.13600e-17
6343.18511 1.13800e-17
6344.65761 1.15039e-17
6346.13011 1.16124e-17
6347.60261 1.14945e-17
6349.06509 1.15739e-17
6350.53759 1.17820e-17
6352.01009 1.16960e-17
6353.48259 1.16950e-17
6354.95509 1.17115e-17
6356.41757 1.17746e-17
6357.89007 1.18524e-17
6359.36257 1.20637e-17
6360.82505 1.20261e-17
6362.29755 1.20750e-17
6363.77005 1.20919e-17
6365.24255 1.21414e-17
6366.70503 1.22358e-17
6368.17753 1.23116e-17
6369.65003 1.23491e-17
6371.12253 1.23986e-17
6372.58501 1.24692e-17
6374.05751 1.24802e-17
6375.53001 1.26134e-17
6377.00251 1.25887e-17
6378.46499 1.25558e-17
6379.93749 1.26286e-17
6381.40999 1.27724e-17
6382.88249 1.27406e-17
6384.34497 1.27325e-17
6385.81747 1.28010e-17
6387.28996 1.28689e-17
6388.76246 1.28579e-17
6390.22495 1.30120e-17
6391.69745 1.31042e-17
6393.16994 1.29701e-17
6394.64244 1.30994e-17
6396.10493 1.30661e-17
6397.57742 1.29411e-17
6399.04992 1.30634e-17
6400.52242 1.30976e-17
6401.98490 1.30714e-17
6403.45740 1.30411e-17
6404.92990 1.30047e-17
6406.40240 1.29995e-17
6407.86488 1.30197e-17
6409.33738 1.30795e-17
6410.80988 1.30983e-17
6412.28238 1.30429e-17
6413.74486 1.30494e-17
6415.21736 1.31186e-17
6416.68986 1.31066e-17
6418.16236 1.31556e-17
6419.62484 1.32587e-17
6421.09734 1.32874e-17
6422.56984 1.32260e-17
6424.04234 1.33770e-17
6425.50482 1.34185e-17
6426.97732 1.33709e-17
6428.44982 1.34843e-17
6429.92232 1.34889e-17
6431.38480 1.33294e-17
6432.85730 1.33228e-17
6434.32980 1.34771e-17
6435.80230 1.33207e-17
6437.26478 1.32149e-17
6438.73728 1.33170e-17
6440.20978 1.32882e-17
6441.68228 1.33703e-17
6443.14476 1.33759e-17
6444.61726 1.33026e-17
6446.08975 1.32688e-17
6447.55224 1.31854e-17
6449.02474 1.32160e-17
6450.49724 1.32782e-17
6451.96973 1.33065e-17
6453.43222 1.33690e-17
6454.90471 1.33331e-17
6456.37721 1.33015e-17
6457.84971 1.33140e-17
6459.31220 1.33416e-17
6460.78469 1.33308e-17
6462.25719 1.32499e-17
6463.72969 1.31889e-17
6465.19217 1.32801e-17
6466.66467 1.32664e-17
6468.13717 1.31010e-17
6469.60967 1.29814e-17
6471.07215 1.29551e-17
6472.54465 1.29657e-17
6474.01715 1.28529e-17
6475.48965 1.27769e-17
6476.95213 1.27218e-17
6478.42463 1.26065e-17
6479.89713 1.25870e-17
6481.36963 1.27566e-17
6482.83211 1.28860e-17
6484.30461 1.28809e-17
6485.77711 1.28419e-17
6487.24961 1.29393e-17
6488.71209 1.30421e-17
6490.18459 1.29447e-17
6491.65709 1.29323e-17
6493.12959 1.29178e-17
6494.59207 1.29442e-17
6496.06457 1.30753e-17
6497.53707 1.30608e-17
6499.00957 1.28913e-17
6500.47205 1.29630e-17
6501.94455 1.32327e-17
6503.41705 1.32480e-17
6504.88955 1.30644e-17
6506.35203 1.30144e-17
6507.82453 1.32075e-17
6509.29702 1.32583e-17
6510.76952 1.32012e-17
6512.23201 1.31949e-17
6513.70450 1.29603e-17
6515.17700 1.27554e-17
6516.64950 1.28284e-17
6518.11199 1.27612e-17
6519.58448 1.28504e-17
6521.05698 1.30962e-17
6522.52948 1.31841e-17
6523.99196 1.31179e-17
6525.46446 1.30649e-17
6526.93696 1.32191e-17
6528.40946 1.32913e-17
6529.87194 1.32865e-17
6531.34444 1.31884e-17
6532.81694 1.29685e-17
6534.28944 1.30254e-17
6535.75192 1.30860e-17
6537.22442 1.31471e-17
6538.69692 1.31274e-17
6540.15940 1.30943e-17
6541.63190 1.30716e-17
6543.10440 1.30573e-17
6544.57690 1.30471e-17
6546.04940 1.30368e-17
6547.51188 1.30266e-17
6548.98438 1.30163e-17
6550.45688 1.30061e-17
6551.91936 1.29958e-17
6553.39186 1.29856e-17
6554.86436 1.29753e-17
6556.33686 1.29650e-17
6557.79934 1.29548e-17
6559.27184 1.29445e-17
6560.74434 1.29343e-17
6562.21684 1.29241e-17
6563.67932 1.29138e-17
6565.15182 1.29036e-17
6566.62432 1.28933e-17
6568.09681 1.28831e-17
6569.55930 1.28728e-17
6571.03180 1.28626e-17
6572.50430 1.28523e-17
6573.97679 1.28421e-17
6575.43928 1.28319e-17
6576.91178 1.28216e-17
6578.38427 1.28114e-17
6579.85677 1.28012e-17
6581.31925 1.27909e-17
6582.79175 1.27807e-17
6584.26425 1.27704e-17
6585.73675 1.27602e-17
6587.19923 1.27500e-17
6588.67173 1.27397e-17
6590.14423 1.27295e-17
6591.61673 1.27193e-17
6593.07921 1.27090e-17
6594.55171 1.26988e-17
6596.02421 1.26886e-17
6597.49671 1.26784e-17
6598.95919 1.26681e-17
6600.43169 1.26579e-17
6601.90419 1.26477e-17
6603.37669 1.26375e-17
6604.83917 1.26272e-17
6606.31167 1.27094e-17
6607.78417 1.25807e-17
6609.25667 1.25021e-17
6610.71915 1.24304e-17
6612.19165 1.23818e-17
6613.66415 1.23211e-17
6615.13665 1.23598e-17
6616.59913 1.23918e-17
6618.07163 1.23541e-17
6619.54413 1.22625e-17
6621.01663 1.22593e-17
6622.47911 1.24159e-17
6623.95161 1.25077e-17
6625.42411 1.24595e-17
6626.89660 1.24970e-17
6628.35909 1.25822e-17
6629.83159 1.24927e-17
6631.30409 1.24636e-17
6632.77658 1.23049e-17
6634.23907 1.22145e-17
6635.71156 1.22735e-17
6637.18406 1.23293e-17
6638.64655 1.22824e-17
6640.11905 1.21495e-17
6641.59154 1.21773e-17
6643.06404 1.21047e-17
6644.52653 1.20100e-17
6645.99902 1.19662e-17
6647.47152 1.19991e-17
6648.94402 1.19826e-17
6650.40650 1.19130e-17
6651.87900 1.19927e-17
6653.35150 1.19315e-17
6654.82400 1.18258e-17
6656.28648 1.17886e-17
6657.75898 1.18916e-17
6659.23148 1.19874e-17
6660.70398 1.19976e-17
6662.16646 1.19275e-17
6663.63896 1.18690e-17
6665.11146 1.18642e-17
6666.58396 1.18454e-17
6668.04644 1.17971e-17
6669.51894 1.17960e-17
6670.99144 1.18380e-17
6672.46394 1.17399e-17
6673.92642 1.16531e-17
6675.39892 1.15638e-17
6676.87142 1.14913e-17
6678.34392 1.16244e-17
6679.80640 1.17064e-17
6681.27890 1.15380e-17
6682.75140 1.13354e-17
6684.22390 1.12740e-17
6685.68638 1.13776e-17
6687.15888 1.13357e-17
6688.63138 1.11910e-17
6690.10387 1.13023e-17
6691.56636 1.12650e-17
6693.03886 1.11792e-17
6694.51135 1.11213e-17
6695.98385 1.10061e-17
6697.44634 1.09732e-17
6698.91884 1.09963e-17
6700.39133 1.11336e-17
6701.86383 1.10863e-17
6703.32632 1.10931e-17
6704.79881 1.11850e-17
6706.27131 1.11831e-17
6707.74381 1.11480e-17
6709.20629 1.11874e-17
6710.67879 1.10719e-17
6712.15129 1.09295e-17
6713.62379 1.09623e-17
6715.08627 1.08837e-17
6716.55877 1.08710e-17
6718.03127 1.09364e-17
6719.50377 1.09868e-17
6720.96625 1.08189e-17
6722.43875 1.08059e-17
6723.91125 1.09164e-17
6725.38375 1.10194e-17
6726.84623 1.10836e-17
6728.31873 1.11125e-17
6729.79123 1.11682e-17
6731.25371 1.09981e-17
6732.72621 1.09243e-17
6734.19871 1.10008e-17
6735.67121 1.10863e-17
6737.13369 1.09389e-17
6738.60619 1.09812e-17
6740.07869 1.11651e-17
6741.55119 1.12996e-17
6743.01367 1.14391e-17
6744.48617 1.12386e-17
6745.95867 1.12033e-17
6747.43117 1.11859e-17
6748.89365 1.11838e-17
6750.36615 1.11179e-17
6751.83865 1.11443e-17
6753.31115 1.11058e-17
6754.77363 1.10447e-17
6756.24613 1.08390e-17
6757.71863 1.09081e-17
6759.19112 1.10022e-17
6760.65361 1.09836e-17
6762.12611 1.09863e-17
6763.59860 1.08834e-17
6765.07110 1.08694e-17
6766.53359 1.08564e-17
6768.00608 1.09272e-17
6769.47858 1.10512e-17
6770.95108 1.09460e-17
6772.41356 1.09849e-17
6773.88606 1.09119e-17
6775.35856 1.09156e-17
6776.83106 1.08462e-17
6778.29354 1.09983e-17
6779.76604 1.08140e-17
6781.23854 1.09158e-17
6782.71104 1.10993e-17
6784.17352 1.11880e-17
6785.64602 1.10505e-17
6787.11852 1.09420e-17
6788.59102 1.10612e-17
6790.05350 1.11245e-17
6791.52600 1.10113e-17
6792.99850 1.09859e-17
6794.47100 1.10270e-17
6795.93348 1.09413e-17
6797.40598 1.08144e-17
6798.87848 1.06975e-17
6800.35098 1.06997e-17
6801.81346 1.05779e-17
6803.28596 1.04615e-17
6804.75846 1.05454e-17
6806.23096 1.05723e-17
6807.69344 1.06069e-17
6809.16594 1.05177e-17
6810.63844 1.05925e-17
6812.11094 1.04654e-17
6813.57342 1.04334e-17
6815.04592 1.05434e-17
6816.51842 1.07610e-17
6817.99091 1.06877e-17
6819.45340 1.06416e-17
6820.92590 1.05506e-17
6822.39839 1.05443e-17
6823.86088 1.06830e-17
6825.33338 1.06204e-17
6826.80587 1.04768e-17
6828.27837 1.05388e-17
6829.74086 1.05816e-17
6831.21335 1.04845e-17
6832.68585 1.04724e-17
6834.15835 1.04632e-17
6835.62083 1.04590e-17
6837.09333 1.03815e-17
6838.56583 1.02454e-17
6840.03833 1.03432e-17
6841.50081 1.04836e-17
6842.97331 1.04140e-17
6844.44581 1.02581e-17
6845.91831 1.02454e-17
6847.38079 1.02327e-17
6848.85329 1.02201e-17
6850.32579 1.02074e-17
6851.79829 1.01947e-17
6853.26077 1.01821e-17
6854.73327 1.01694e-17
6856.20577 1.01568e-17
6857.67827 1.01441e-17
6859.14075 1.01314e-17
6860.61325 1.01188e-17
6862.08575 1.01061e-17
6863.55825 1.00935e-17
6865.02073 1.00808e-17
6866.49323 1.00682e-17
6867.96573 1.00555e-17
6869.43823 1.00429e-17
6870.90071 1.00302e-17
6872.37321 1.00176e-17
6873.84571 1.00049e-17
6875.31820 9.99225e-18
6876.78069 9.97960e-18
6878.25319 9.96695e-18
6879.72569 9.95431e-18
6881.19818 9.94166e-18
6882.66067 9.92901e-18
6884.13317 9.91637e-18
6885.60566 9.90373e-18
6887.07816 9.89108e-18
6888.54065 9.87844e-18
6890.01314 9.86580e-18
6891.48564 9.85316e-18
6892.95814 9.84052e-18
6894.42062 9.82788e-18
6895.89312 9.81524e-18
6897.36562 9.80260e-18
6898.83812 9.78997e-18
6900.30060 9.77733e-18
6901.77310 9.76470e-18
6903.24560 9.75206e-18
6904.71810 9.73943e-18
6906.18058 9.72680e-18
6907.65308 9.71417e-18
6909.12558 9.70153e-18
6910.59808 9.68891e-18
6912.06056 9.67627e-18
6913.53306 9.66365e-18
6915.00556 9.65102e-18
6916.47806 9.63839e-18
6917.94054 9.62577e-18
6919.41304 9.61314e-18
6920.88554 9.60052e-18
6922.34802 9.58789e-18
6923.82052 9.57527e-18
6925.29302 9.56265e-18
6926.76552 9.55003e-18
6928.22800 9.53741e-18
6929.70050 9.52479e-18
6931.17300 9.51217e-18
6932.64550 9.49955e-18
6934.10798 9.48694e-18
6935.58048 9.47432e-18
6937.05298 9.35641e-18
6938.52548 9.41870e-18
6939.98796 9.43112e-18
6941.46046 9.27460e-18
6942.93296 9.27447e-18
6944.40545 9.32165e-18
6945.86794 9.32744e-18
6947.34044 9.44760e-18
6948.81293 9.36218e-18
6950.28543 9.22429e-18
6951.74791 9.35549e-18
6953.22041 9.43597e-18
6954.69291 9.40412e-18
6956.16541 9.25461e-18
6957.62789 9.31839e-18
6959.10039 9.15780e-18
6960.57289 9.14085e-18
6962.04539 9.04054e-18
6963.50787 9.06761e-18
6964.98037 9.07564e-18
6966.45287 9.16473e-18
6967.92537 9.14875e-18
6969.38785 9.28863e-18
6970.86035 9.21470e-18
6972.33285 9.16059e-18
6973.80535 9.21812e-18
6975.26783 9.37608e-18
6976.74033 9.33528e-18
6978.21283 9.39549e-18
6979.68533 9.41957e-18
6981.14781 9.44615e-18
6982.62031 9.37909e-18
6984.09281 9.38392e-18
6985.56531 9.50316e-18
6987.02779 9.53274e-18
6988.50029 9.41347e-18
6989.97279 9.46632e-18
6991.44529 9.40188e-18
6992.90777 9.46936e-18
6994.38027 9.43730e-18
6995.85277 9.42190e-18
6997.32527 9.65053e-18
6998.78775 9.62232e-18
7000.26025 9.47735e-18
7001.73275 9.48020e-18
7003.20524 9.49241e-18
7004.66773 9.50463e-18
7006.14023 9.51684e-18
7007.61272 9.52905e-18
7009.08522 9.54126e-18
7010.54770 9.55347e-18
7012.02020 9.56568e-18
7013.49270 9.57789e-18
7014.95519 9.59010e-18
7016.42768 9.60230e-18
7017.90018 9.61451e-18
7019.37268 9.62672e-18
7020.83516 9.63892e-18
7022.30766 9.65112e-18
7023.78016 9.66332e-18
7025.25266 9.67553e-18
7026.71514 9.68773e-18
7028.18764 9.69992e-18
7029.66014 9.69958e-18
7031.13264 9.84991e-18
7032.59512 9.75912e-18
7034.06762 9.85835e-18
7035.54012 9.92901e-18
7037.01262 9.82451e-18
7038.47510 9.73879e-18
7039.94760 9.79542e-18
7041.42010 9.85223e-18
7042.89260 9.78468e-18
7044.35508 9.87895e-18
7045.82758 9.91456e-18
7047.30008 1.00070e-17
7048.77258 9.84413e-18
7050.23506 9.75768e-18
7051.70756 9.79132e-18
7053.18006 9.78828e-18
7054.65256 9.70524e-18
7056.11504 9.77375e-18
7057.58754 9.69594e-18
7059.06004 9.70788e-18
7060.53254 9.88553e-18
7061.99502 9.81046e-18
7063.46752 9.73670e-18
7064.94002 9.65361e-18
7066.41251 9.65151e-18
7067.87500 9.70543e-18
7069.34750 9.64411e-18
7070.81999 9.73813e-18
7072.29249 9.78499e-18
7073.75497 9.75580e-18
7075.22747 9.86570e-18
7076.69997 9.90915e-18
7078.17247 9.77900e-18
7079.63495 9.67662e-18
7081.10745 9.63637e-18
7082.57995 9.69487e-18
7084.05245 9.83028e-18
7085.51493 9.84495e-18
7086.98743 9.81067e-18
7088.45993 9.45505e-18
7089.93243 9.58314e-18
7091.39491 9.67592e-18
7092.86741 9.64099e-18
7094.33991 9.62777e-18
7095.81241 9.63587e-18
7097.27489 9.52867e-18
7098.74739 9.67406e-18
7100.21989 9.60548e-18
7101.69239 9.45077e-18
7103.15487 9.38561e-18
7104.62737 9.49847e-18
7106.09987 9.65368e-18
7107.56235 9.59182e-18
7109.03485 9.67299e-18
7110.50735 9.65715e-18
7111.97985 9.70712e-18
7113.45235 9.78927e-18
7114.91483 9.75273e-18
7116.38733 9.69517e-18
7117.85983 9.70066e-18
7119.32231 9.69172e-18
7120.79481 9.55207e-18
7122.26731 9.53084e-18
7123.73981 9.55556e-18
7125.20229 9.51389e-18
7126.67479 9.65523e-18
7128.14729 9.59710e-18
7129.61978 9.54840e-18
7131.08227 9.63668e-18
7132.55476 9.70274e-18
7134.02726 9.58868e-18
7135.49976 9.55800e-18
7136.96225 9.67292e-18
7138.43474 9.70865e-18
7139.90724 9.74524e-18
7141.37974 9.87471e-18
7142.84222 9.87183e-18
7144.31472 9.85132e-18
7145.78722 9.84660e-18
7147.25972 9.79576e-18
7148.72220 9.73717e-18
7150.19470 9.72588e-18
7151.66720 9.70023e-18
7153.13970 9.49753e-18
7154.60218 9.43603e-18
7156.07468 9.64856e-18
7157.54718 9.73995e-18
7159.01968 9.57111e-18
7160.48216 9.44121e-18
7161.95466 9.58959e-18
7163.42716 9.82455e-18
7164.89966 9.66809e-18
7166.36214 9.45845e-18
7167.83464 9.43990e-18
7169.30714 9.38901e-18
7170.77964 9.30814e-18
7172.24212 9.21270e-18
7173.71462 9.19241e-18
7175.18712 9.31261e-18
7176.65962 9.42835e-18
7178.12210 9.37236e-18
7179.59460 9.30797e-18
7181.06710 9.66243e-18
7182.53960 9.84946e-18
7184.00208 9.60228e-18
7185.47458 9.52729e-18
7186.94708 9.31199e-18
7188.41957 8.88637e-18
7189.88206 9.12511e-18
7191.35455 9.52725e-18
7192.82705 9.38091e-18
7194.28954 9.03594e-18
7195.76204 9.07364e-18
7197.23453 9.39377e-18
7198.70703 9.50630e-18
7200.17953 9.38003e-18
7201.64201 9.13855e-18
7203.11451 9.00286e-18
7204.58701 9.27513e-18
7206.05951 9.45955e-18
7207.52199 9.42055e-18
7208.99449 9.52683e-18
7210.46699 9.65467e-18
7211.92947 9.78293e-18
7213.40197 9.89832e-18
7214.87447 1.01039e-17
7216.34697 1.02166e-17
7217.80945 1.02114e-17
7219.28195 1.01852e-17
7220.75445 1.02075e-17
7222.22695 1.02869e-17
7223.68943 1.02801e-17
7225.16193 9.95742e-18
7226.63443 9.91590e-18
7228.10693 1.02076e-17
7229.56941 1.02007e-17
7231.04191 1.01227e-17
7232.51441 1.02628e-17
7233.98691 1.01398e-17
7235.44939 9.75180e-18
7236.92189 9.82509e-18
7238.39439 1.02573e-17
7239.86689 1.04573e-17
7241.32937 1.01305e-17
7242.80187 9.93919e-18
7244.27437 1.00583e-17
7245.74687 9.92864e-18
7247.20935 1.00130e-17
7248.68185 1.02223e-17
7250.15435 1.02340e-17
7251.62684 1.02434e-17
7253.08933 1.00720e-17
7254.56183 9.91662e-18
7256.03432 1.00339e-17
7257.50682 1.03308e-17
7258.96930 1.02053e-17
7260.44180 9.98207e-18
7261.91430 1.01257e-17
7263.38680 1.01239e-17
7264.84928 9.87351e-18
7266.32178 9.65588e-18
7267.79428 9.76506e-18
7269.26678 1.01328e-17
7270.72926 1.03320e-17
7272.20176 1.01697e-17
7273.67426 1.02118e-17
7275.14676 1.01562e-17
7276.60924 1.00189e-17
7278.08174 9.84515e-18
7279.55424 9.63799e-18
7281.02674 1.00377e-17
7282.48922 1.02538e-17
7283.96172 1.02979e-17
7285.43422 1.05301e-17
7286.90672 1.06168e-17
7288.36920 1.03852e-17
7289.84170 1.01054e-17
7291.31420 1.00194e-17
7292.78670 9.53781e-18
7294.24918 9.65316e-18
7295.72168 9.83288e-18
7297.19418 9.83832e-18
7298.65666 1.00358e-17
7300.12916 1.02389e-17
7301.60166 9.87501e-18
7303.07416 9.72598e-18
7304.53664 9.63685e-18
7306.00914 9.59454e-18
7307.48164 9.86770e-18
7308.95414 1.00371e-17
7310.41662 9.83626e-18
7311.88912 9.62766e-18
7313.36161 9.53095e-18
7314.83411 9.62193e-18
7316.29660 9.73130e-18
7317.76910 9.68464e-18
7319.24159 9.53557e-18
7320.71409 9.57605e-18
7322.17658 9.77988e-18
7323.64907 9.88156e-18
7325.12157 9.96529e-18
7326.59407 9.87975e-18
7328.05655 9.77482e-18
7329.52905 9.74347e-18
7331.00155 9.75747e-18
7332.47405 9.70227e-18
7333.93653 9.62747e-18
7335.40903 9.67033e-18
7336.88153 9.61770e-18
7338.35403 9.87564e-18
7339.81651 9.95057e-18
7341.28901 9.92932e-18
7342.76151 9.91018e-18
7344.23401 9.72925e-18
7345.69649 9.87778e-18
7347.16899 9.88494e-18
7348.64149 9.85446e-18
7350.11399 9.57183e-18
7351.57647 9.50010e-18
7353.04897 9.55377e-18
7354.52147 9.75817e-18
7355.99397 9.69018e-18
7357.45645 9.60074e-18
7358.92895 9.47444e-18
7360.40145 9.66685e-18
7361.87395 9.76148e-18
7363.33643 9.64810e-18
7364.80893 9.82299e-18
7366.28143 9.83529e-18
7367.75392 9.84176e-18
7369.21641 9.81577e-18
7370.68891 9.93721e-18
7372.16140 1.00747e-17
7373.63390 9.95282e-18
7375.09639 9.96255e-18
7376.56889 9.84826e-18
7378.04138 9.95414e-18
7379.51388 9.82853e-18
7380.97637 9.78108e-18
7382.44886 9.73771e-18
7383.92136 9.82068e-18
7385.38385 9.93960e-18
7386.85634 9.97111e-18
7388.32884 1.00042e-17
7389.80134 9.97313e-18
7391.27384 9.94182e-18
7392.73632 9.91940e-18
7394.20882 1.01269e-17
7395.68132 1.01240e-17
7397.15382 1.01331e-17
7398.61630 1.00770e-17
7400.08880 9.96012e-18
7401.56130 9.90357e-18
7403.02378 9.96542e-18
7404.49628 9.97937e-18
7405.96878 9.99204e-18
7407.44128 9.80499e-18
7408.90376 9.80080e-18
7410.37626 9.95243e-18
7411.84876 9.94701e-18
7413.32126 1.00217e-17
7414.06252 1.00217e-17
7414.92398 1.00283e-17
7415.78544 1.00348e-17
7416.64690 1.00418e-17
7417.50836 1.00487e-17
7418.36983 1.00537e-17
7419.23129 1.00587e-17
7420.09275 1.00596e-17
7420.95421 1.00606e-17
7421.82569 1.00586e-17
7422.68715 1.00565e-17
7423.54861 1.00565e-17
7424.41008 1.00565e-17
7425.27154 1.00615e-17
7426.13300 1.00665e-17
7426.99446 1.00753e-17
7427.85592 1.00840e-17
7428.71739 1.00944e-17
7429.57885 1.01048e-17
7430.44031 1.01117e-17
7431.31179 1.01186e-17
7432.17325 1.01183e-17
7433.03471 1.01179e-17
7433.89618 1.01142e-17
7434.75764 1.01105e-17
7435.61910 1.01077e-17
7436.48056 1.01049e-17
7437.34202 1.01041e-17
7438.20349 1.01033e-17
7439.06495 1.01049e-17
7439.92641 1.01065e-17
7440.79789 1.01102e-17
7441.65935 1.01139e-17
7442.52081 1.01188e-17
7443.38227 1.01236e-17
7444.24374 1.01295e-17
7445.10520 1.01353e-17
7445.96666 1.01425e-17
7446.82812 1.01498e-17
7447.68959 1.01542e-17
7448.55105 1.01587e-17
7449.41251 1.01532e-17
7450.28399 1.01477e-17
7451.14545 1.01341e-17
7452.00691 1.01204e-17
7452.86837 1.01078e-17
7453.72984 1.00951e-17
7454.59130 1.00868e-17
7455.45276 1.00786e-17
7456.31422 1.00708e-17
7457.17568 1.00631e-17
7458.03715 1.00541e-17
7458.89861 1.00452e-17
7459.77009 1.00349e-17
7460.63155 1.00246e-17
7461.49301 1.00150e-17
7462.35447 1.00054e-17
7463.21594 1.00058e-17
7464.07740 1.00061e-17
7464.93886 1.00215e-17
7465.80032 1.00369e-17
7466.66178 1.00599e-17
7467.52325 1.00829e-17
7468.38471 1.01051e-17
7469.25619 1.01271e-17
7470.11765 1.01400e-17
7470.97911 1.01529e-17
7471.84057 1.01497e-17
7472.70203 1.01465e-17
7473.56350 1.01353e-17
7474.42496 1.01242e-17
7475.28642 1.01165e-17
7476.14788 1.01089e-17
7477.00934 1.01052e-17
7477.87081 1.01016e-17
7478.73227 1.00992e-17
7479.60375 1.00967e-17
7480.46521 1.00929e-17
7481.32667 1.00891e-17
7482.18813 1.00809e-17
7483.04960 1.00727e-17
7483.91106 1.00614e-17
7484.77252 1.00499e-17
7485.63398 1.00399e-17
7486.49544 1.00297e-17
7487.35690 1.00215e-17
7488.21837 1.00134e-17
7489.08985 1.00039e-17
7489.95131 9.99457e-18
7490.81277 9.98284e-18
7491.67423 9.97110e-18
7492.53569 9.95865e-18
7493.39716 9.94619e-18
7494.25862 9.93398e-18
7495.12008 9.92184e-18
7495.98154 9.91026e-18
7496.84300 9.89869e-18
7497.70447 9.88750e-18
7498.57595 9.87640e-18
7499.43741 9.86379e-18
7500.29887 9.85118e-18
7501.16033 9.83563e-18
7502.02179 9.82009e-18
7502.88325 9.80343e-18
7503.74472 9.78677e-18
7504.60618 9.77052e-18
7505.46764 9.75426e-18
7506.32910 9.73411e-18
7507.19056 9.71389e-18
7508.06204 9.68549e-18
7508.92351 9.65710e-18
7509.78497 9.62117e-18
7510.64643 9.58516e-18
7511.50789 9.54336e-18
7512.36935 9.50164e-18
7513.23082 9.46230e-18
7514.09228 9.42296e-18
7514.95374 9.39687e-18
7515.81520 9.37086e-18
7516.67666 9.35420e-18
7517.54814 9.33754e-18
7518.40960 9.31780e-18
7519.27107 9.29797e-18
7520.13253 9.27005e-18
7520.99399 9.24213e-18
7521.85545 9.20707e-18
7522.71691 9.17210e-18
7523.57838 9.13268e-18
7524.43984 9.09326e-18
7525.30130 9.05527e-18
7526.16276 9.01720e-18
7527.02423 8.98286e-18
7527.89570 8.94843e-18
7528.75717 8.91298e-18
7529.61863 8.87753e-18
7530.48009 8.83779e-18
7531.34155 8.79806e-18
7532.20301 8.75499e-18
7533.06448 8.71200e-18
7533.92594 8.66608e-18
7534.78740 8.62016e-18
7535.64886 8.56813e-18
7536.52034 8.51610e-18
7537.38180 8.45637e-18
7538.24327 8.39665e-18
7539.10473 8.33629e-18
7539.96619 8.27594e-18
7540.82765 8.22224e-18
7541.68911 8.16855e-18
7542.55058 8.12207e-18
7543.41204 8.07559e-18
7544.27350 8.03514e-18
7545.13496 7.99469e-18
7545.99642 7.95400e-18
7546.86790 7.91328e-18
7547.72936 7.86444e-18
7548.59083 7.81558e-18
7549.45229 7.75856e-18
7550.31375 7.70153e-18
7551.17521 7.64026e-18
7552.03667 7.57899e-18
7552.89814 7.51777e-18
7553.75960 7.45657e-18
7554.62106 7.40012e-18
7555.48252 7.34369e-18
7556.35400 7.29305e-18
7557.21546 7.24241e-18
7558.07693 7.19447e-18
7558.93839 7.14653e-18
7559.79985 7.09864e-18
7560.66131 7.05074e-18
7561.52277 7.00156e-18
7562.38424 6.95239e-18
7563.24570 6.89978e-18
7564.10716 6.84716e-18
7564.96862 6.78640e-18
7565.84010 6.72563e-18
7566.70156 6.65666e-18
7567.56302 6.58769e-18
7568.42449 6.52376e-18
7569.28595 6.45984e-18
7570.14741 6.41194e-18
7571.00887 6.36408e-18
7571.87033 6.33385e-18
7572.73180 6.30365e-18
7573.59326 6.28928e-18
7574.45472 6.27496e-18
7575.31618 6.25646e-18
7576.18766 6.23795e-18
7577.04912 6.19334e-18
7577.91059 6.14869e-18
7578.77205 6.08998e-18
7579.63351 6.03125e-18
7580.49497 5.97767e-18
7581.35643 5.92410e-18
7582.21790 5.87260e-18
7583.07936 5.82111e-18
7583.94082 5.76273e-18
7584.81230 5.70435e-18
7585.67376 5.60677e-18
7586.53522 5.50910e-18
7587.39668 5.32743e-18
7588.25815 5.14559e-18
7589.11961 4.88869e-18
7589.98107 4.63165e-18
7590.84253 4.35310e-18
7591.70399 4.07451e-18
7592.56546 3.82529e-18
7593.42692 3.57614e-18
7594.28838 3.40403e-18
7595.15986 3.23208e-18
7596.02132 3.16092e-18
7596.88278 3.08996e-18
7597.74425 3.09668e-18
7598.60571 3.10357e-18
7599.46717 3.17151e-18
7600.32863 3.23956e-18
7601.19009 3.38134e-18
7602.05156 3.52326e-18
7602.91302 3.73922e-18
7603.77448 3.95531e-18
7604.64596 4.21753e-18
7605.50742 4.47983e-18
7606.36888 4.75496e-18
7607.23034 5.03011e-18
7608.09181 5.28426e-18
7608.95327 5.53836e-18
7609.81473 5.73766e-18
7610.67619 5.93684e-18
7611.53765 6.03389e-18
7612.39912 6.13071e-18
7613.26058 6.08738e-18
7614.13206 6.04378e-18
7614.99352 5.86216e-18
7615.85498 5.68027e-18
7616.71644 5.38180e-18
7617.57791 5.08310e-18
7618.43937 4.75689e-18
7619.30083 4.43064e-18
7620.16229 4.19679e-18
7621.02375 3.96313e-18
7621.88522 3.86707e-18
7622.74668 3.77130e-18
7623.61816 3.80352e-18
7624.47962 3.83599e-18
7625.34108 3.95524e-18
7626.20254 4.07466e-18
7627.06400 4.20517e-18
7627.92547 4.33570e-18
7628.78693 4.43535e-18
7629.64839 4.53492e-18
7630.50985 4.61963e-18
7631.37131 4.70430e-18
7632.23278 4.78439e-18
7633.10426 4.86448e-18
7633.96572 4.93956e-18
7634.82718 5.01463e-18
7635.68864 5.08469e-18
7636.55010 5.15475e-18
7637.41157 5.20601e-18
7638.27303 5.25723e-18
7639.13449 5.28270e-18
7639.99595 5.30813e-18
7640.85741 5.33205e-18
7641.71888 5.35597e-18
7642.59035 5.40234e-18
7643.45182 5.44875e-18
7644.31328 5.52782e-18
7645.17474 5.60695e-18
7646.03620 5.72308e-18
7646.89766 5.83928e-18
7647.75913 5.96114e-18
7648.62059 6.08300e-18
7649.48205 6.17106e-18
7650.34351 6.25905e-18
7651.20497 6.30491e-18
7652.06644 6.35069e-18
7652.93792 6.35873e-18
7653.79938 6.36669e-18
7654.66084 6.36722e-18
7655.52230 6.36775e-18
7656.38376 6.40758e-18
7657.24523 6.44749e-18
7658.10669 6.53418e-18
7658.96815 6.62096e-18
7659.82961 6.72881e-18
7660.69107 6.83670e-18
7661.55254 6.94388e-18
7662.42401 7.05105e-18
7663.28548 7.13774e-18
7664.14694 7.22440e-18
7665.00840 7.28944e-18
7665.86986 7.35444e-18
7666.73132 7.43537e-18
7667.59279 7.51633e-18
7668.45425 7.63059e-18
7669.31571 7.74490e-18
7670.17717 7.85688e-18
7671.03863 7.96884e-18
7671.91011 8.04981e-18
7672.77158 8.13071e-18
7673.63304 8.17545e-18
7674.49450 8.22002e-18
7675.35596 8.23049e-18
7676.21742 8.24088e-18
7677.07889 8.25944e-18
7677.94035 8.27792e-18
7678.80181 8.34684e-18
7679.66327 8.41592e-18
7680.52473 8.51031e-18
7681.38620 8.60469e-18
7682.25767 8.68503e-18
7683.11914 8.76546e-18
7683.98060 8.83168e-18
7684.84206 8.89791e-18
7685.70352 8.96112e-18
7686.56498 9.02434e-18
7687.42645 9.08715e-18
7688.28791 9.14989e-18
7689.14937 9.21318e-18
7690.01083 9.27647e-18
7690.88231 9.33421e-18
7691.74377 9.39195e-18
7692.60524 9.43193e-18
7693.46670 9.47198e-18
7694.32816 9.49720e-18
7695.18962 9.52242e-18
7696.05108 9.55153e-18
7696.91255 9.58064e-18
7697.77401 9.62069e-18
7698.63547 9.66067e-18
7699.49693 9.70215e-18
7700.35839 9.74355e-18
7701.22987 9.77853e-18
7702.09133 9.81350e-18
7702.95280 9.83730e-18
7703.81426 9.86093e-18
7704.67572 9.87021e-18
7705.53718 9.87933e-18
7706.39864 9.87473e-18
7707.26011 9.87005e-18
7708.12157 9.85570e-18
7708.98303 9.84134e-18
7709.84449 9.83389e-18
7710.71597 9.82651e-18
7711.57743 9.84087e-18
7712.43890 9.85530e-18
7713.30036 9.88790e-18
7714.16182 9.92058e-18
7715.02328 9.96333e-18
7715.88474 1.00061e-17
7716.74620 1.00458e-17
7717.60767 1.00856e-17
7718.46913 1.01082e-17
7719.33059 1.01308e-17
7720.20207 1.01351e-17
7721.06353 1.01395e-17
7721.92499 1.01308e-17
7722.78646 1.01222e-17
7723.64792 1.01094e-17
7724.50938 1.00967e-17
7725.37084 1.00917e-17
7726.23230 1.00866e-17
7727.09377 1.00932e-17
7727.95523 1.00998e-17
7728.81669 1.01141e-17
7729.67815 1.01285e-17
7730.54963 1.01496e-17
7731.41109 1.01709e-17
7732.27255 1.02034e-17
7733.13402 1.02358e-17
7733.99548 1.02745e-17
7734.85694 1.03130e-17
7735.71840 1.03369e-17
7736.57986 1.03607e-17
7737.44133 1.03579e-17
7738.30279 1.03551e-17
7739.17427 1.03343e-17
7740.03573 1.03134e-17
7740.89719 1.02856e-17
7741.75865 1.02577e-17
7742.62012 1.02395e-17
7743.48158 1.02213e-17
7744.34304 1.02261e-17
7745.20450 1.02309e-17
7746.06596 1.02497e-17
7746.92743 1.02685e-17
7747.78889 1.02887e-17
7748.65035 1.03088e-17
7749.52183 1.03259e-17
7750.38329 1.03428e-17
7751.24475 1.03535e-17
7752.10621 1.03641e-17
7752.96768 1.03684e-17
7753.82914 1.03726e-17
7754.69060 1.03728e-17
7755.55206 1.03730e-17
7756.41352 1.03663e-17
7757.27499 1.03596e-17
7758.13645 1.03404e-17
7759.00793 1.03213e-17
7759.86939 1.02952e-17
7760.73085 1.02690e-17
7761.59231 1.02491e-17
7762.45378 1.02292e-17
7763.31524 1.02186e-17
7764.17670 1.02080e-17
7765.03816 1.01999e-17
7765.89962 1.01918e-17
7766.76109 1.01809e-17
7767.62255 1.01699e-17
7768.49403 1.01522e-17
7769.35549 1.01343e-17
7770.21695 1.01094e-17
7771.07841 1.00844e-17
7771.93988 1.00608e-17
7772.80134 1.00372e-17
7773.66280 1.00212e-17
7774.52426 1.00052e-17
7775.38572 9.99346e-18
7776.24719 9.98181e-18
7777.10865 9.97181e-18
7777.98013 9.96190e-18
7778.84159 9.95516e-18
7779.70305 9.94841e-18
7780.56451 9.94627e-18
7781.42597 9.94413e-18
7782.28744 9.94619e-18
7783.14890 9.94826e-18
7784.01036 9.95365e-18
7784.87182 9.95904e-18
7785.73328 9.96705e-18
7786.59475 9.97506e-18
7787.46623 9.98474e-18
7788.32769 9.99450e-18
7789.18915 1.00031e-17
7790.05061 1.00117e-17
7790.91207 1.00161e-17
7791.77354 1.00204e-17
7792.63500 1.00188e-17
7793.49646 1.00172e-17
7794.35792 1.00092e-17
7795.21938 1.00011e-17
7796.08085 9.99037e-18
7796.94231 9.97966e-18
7797.81379 9.97308e-18
7798.67525 9.96658e-18
7799.53671 9.96935e-18
7800.39817 9.97221e-18
7801.25963 9.98775e-18
7802.12110 1.00034e-17
7802.98256 1.00291e-17
7803.84402 1.00549e-17
7804.70548 1.00777e-17
7805.56694 1.01006e-17
7806.42841 1.01112e-17
7807.29989 1.01219e-17
7808.16135 1.01213e-17
7809.02281 1.01208e-17
7809.88427 1.01108e-17
7810.74573 1.01009e-17
7811.60720 1.00836e-17
7812.46866 1.00662e-17
7813.33012 1.00446e-17
7814.19158 1.00230e-17
7815.05304 1.00012e-17
7815.91450 9.97927e-18
7816.78598 9.96071e-18
7817.64745 9.94215e-18
7818.50891 9.93136e-18
7819.37037 9.92058e-18
7820.23183 9.92105e-18
7821.09329 9.92161e-18
7821.95476 9.92533e-18
7822.81622 9.92914e-18
7823.67768 9.92407e-18
7824.53914 9.91899e-18
7825.40060 9.90360e-18
7826.27208 9.88814e-18
7827.13355 9.86609e-18
7827.99501 9.84412e-18
7828.85647 9.81850e-18
7829.71793 9.79296e-18
7830.57939 9.76695e-18
7831.44085 9.74093e-18
7832.30232 9.71650e-18
7833.16378 9.69207e-18
7834.02524 9.66923e-18
7834.88670 9.64639e-18
7835.75818 9.62728e-18
7836.61964 9.60816e-18
7837.48111 9.59872e-18
7838.34257 9.58928e-18
7839.20403 9.59111e-18
7840.06549 9.59285e-18
7840.92695 9.59920e-18
7841.78842 9.60554e-18
7842.64988 9.61062e-18
7843.51134 9.61570e-18
7844.37280 9.61681e-18
7845.23426 9.61800e-18
7846.10574 9.61363e-18
7846.96720 9.60935e-18
7847.82867 9.60174e-18
7848.69013 9.59412e-18
7849.55159 9.58595e-18
7850.41305 9.57778e-18
7851.27452 9.57080e-18
7852.13598 9.56375e-18
7852.99744 9.55907e-18
7853.85890 9.55439e-18
7854.72036 9.55296e-18
7855.59184 9.55153e-18
7856.45330 9.55383e-18
7857.31477 9.55621e-18
7858.17623 9.55867e-18
7859.03769 9.56113e-18
7859.89915 9.55796e-18
7860.76061 9.55478e-18
7861.62208 9.54638e-18
7862.48354 9.53797e-18
7863.34500 9.52901e-18
7864.20646 9.52004e-18
7865.07794 9.50807e-18
7865.93940 9.49617e-18
7866.80087 9.47333e-18
7867.66233 9.45057e-18
7868.52379 9.41606e-18
7869.38525 9.38164e-18
7870.24671 9.34207e-18
7871.10818 9.30241e-18
7871.96964 9.26688e-18
7872.83110 9.23126e-18
7873.69256 9.21461e-18
7874.56404 9.19811e-18
7875.42550 9.20628e-18
7876.28696 9.21453e-18
7877.14843 9.23071e-18
7878.00989 9.24689e-18
7878.87135 9.25553e-18
7879.73281 9.26426e-18
7880.59427 9.26069e-18
7881.45574 9.25712e-18
7882.31720 9.23880e-18
7883.17866 9.22040e-18
7884.05014 9.19375e-18
7884.91160 9.16710e-18
7885.77306 9.14021e-18
7886.63453 9.11341e-18
7887.49599 9.08572e-18
7888.35745 9.05797e-18
7889.21891 9.02751e-18
7890.08037 8.99705e-18
7890.94184 8.96549e-18
7891.80330 8.93400e-18
7892.66476 8.90330e-18
7893.52622 8.87269e-18
7894.39770 8.85088e-18
7895.25916 8.82907e-18
7896.12062 8.82716e-18
7896.98209 8.82518e-18
7897.84355 8.83684e-18
7898.70501 8.84842e-18
7899.56647 8.85524e-18
7900.42793 8.86206e-18
7901.28940 8.85603e-18
7902.15086 8.85001e-18
7903.01232 8.83311e-18
7903.88380 8.81614e-18
7904.74526 8.79353e-18
7905.60672 8.77101e-18
7906.46819 8.75451e-18
7907.32965 8.73810e-18
7908.19111 8.73238e-18
7909.05257 8.72667e-18
7909.91403 8.71850e-18
7910.77550 8.71034e-18
7911.63696 8.69186e-18
7912.49842 8.67338e-18
7913.36990 8.65402e-18
7914.23136 8.63459e-18
7915.09282 8.62222e-18
7915.95428 8.60985e-18
7916.81575 8.60501e-18
7917.67721 8.60017e-18
7918.53867 8.60183e-18
7919.40013 8.60350e-18
7920.26159 8.60001e-18
7921.12306 8.59660e-18
7921.98452 8.57630e-18
7922.85600 8.55591e-18
7923.71746 8.52593e-18
7924.57892 8.49595e-18
7925.44038 8.46891e-18
7926.30185 8.44178e-18
7927.16331 8.42497e-18
7928.02477 8.40815e-18
7928.88623 8.40649e-18
7929.74769 8.40490e-18
7930.60916 8.41537e-18
7931.47062 8.42584e-18
7932.34210 8.43980e-18
7933.20356 8.45384e-18
7934.06502 8.46391e-18
7934.92648 8.47398e-18
7935.78794 8.47398e-18
7936.64941 8.47406e-18
7937.51087 8.46090e-18
7938.37233 8.44765e-18
7939.23379 8.42195e-18
7940.09525 8.39618e-18
7940.95672 8.36167e-18
7941.81818 8.32717e-18
7942.68966 8.29251e-18
7943.55112 8.25785e-18
7944.41258 8.22978e-18
7945.27404 8.20170e-18
7946.13551 8.18140e-18
7946.99697 8.16109e-18
7947.85843 8.14848e-18
7948.71989 8.13579e-18
7949.58135 8.12849e-18
7950.44282 8.12120e-18
7951.30428 8.11596e-18
7952.17576 8.11073e-18
7953.03722 8.10058e-18
7953.89868 8.09042e-18
7954.76014 8.06933e-18
7955.62160 8.04823e-18
7956.48307 8.02499e-18
7957.34453 8.00167e-18
7958.20599 7.98771e-18
7959.06745 7.97383e-18
7959.92891 7.97003e-18
7960.79038 7.96622e-18
7961.66186 7.97011e-18
7962.52332 7.97391e-18
7963.38478 7.97938e-18
7964.24624 7.98486e-18
7965.10770 7.98319e-18
7965.96917 7.98145e-18
7966.83063 7.97764e-18
7967.69209 7.97375e-18
7968.55355 7.98224e-18
7969.41501 7.99081e-18
7970.27648 8.01500e-18
7971.14795 8.03927e-18
7972.00942 8.07186e-18
7972.87088 8.10446e-18
7973.73234 8.13563e-18
7974.59380 8.16688e-18
7975.45526 8.18243e-18
7976.31673 8.19797e-18
7977.17819 8.19179e-18
7978.03965 8.18560e-18
7978.90111 8.16934e-18
7979.76257 8.15308e-18
7980.63405 8.13690e-18
7981.49552 8.12080e-18
7982.35698 8.10724e-18
7983.21844 8.09368e-18
7984.07990 8.08432e-18
7984.94136 8.07496e-18
7985.80283 8.06639e-18
7986.66429 8.05790e-18
7987.52575 8.04656e-18
7988.38721 8.03514e-18
7989.24867 8.02245e-18
7990.11014 8.00976e-18
7990.98161 7.99763e-18
7991.84308 7.98549e-18
7992.70454 7.97764e-18
7993.56600 7.96979e-18
7994.42746 7.97050e-18
7995.28892 7.97129e-18
7996.15039 7.97209e-18
7997.01185 7.97288e-18
7997.87331 7.96019e-18
7998.73477 7.94750e-18
7999.59623 7.92297e-18
8000.46771 7.89844e-18
8001.32917 7.87233e-18
8002.19064 7.84621e-18
8003.05210 7.82625e-18
8003.91356 7.80632e-18
8004.77502 7.79912e-18
8005.63649 7.79197e-18
8006.49795 7.79585e-18
8007.35941 7.79975e-18
8008.22087 7.80119e-18
8009.08233 7.80263e-18
8009.95381 7.79722e-18
8010.81527 7.79180e-18
8011.67674 7.79247e-18
8012.53820 7.79314e-18
8013.39966 7.80616e-18
8014.26112 7.81920e-18
8015.12258 7.83549e-18
8015.98405 7.85177e-18
8016.84551 7.86264e-18
8017.70697 7.87349e-18
8018.56843 7.87012e-18
8019.43991 7.86674e-18
8020.30137 7.84374e-18
8021.16284 7.82070e-18
8022.02430 7.79265e-18
8022.88576 7.76458e-18
8023.74722 7.74758e-18
8024.60868 7.73060e-18
8025.47015 7.72417e-18
8026.33161 7.71777e-18
8027.19307 7.71763e-18
8028.05453 7.71749e-18
8028.92601 7.71833e-18
8029.78747 7.71917e-18
8030.64893 7.71485e-18
8031.51040 7.71051e-18
8032.37186 7.70164e-18
8033.23332 7.69275e-18
8034.09478 7.68362e-18
8034.95624 7.67449e-18
8035.81771 7.66785e-18
8036.67917 7.66122e-18
8037.54063 7.65873e-18
8038.41211 7.65625e-18
8039.27357 7.65851e-18
8040.13503 7.66077e-18
8040.99650 7.66705e-18
8041.85796 7.67333e-18
8042.71942 7.68154e-18
8043.58088 7.68975e-18
8044.44234 7.69620e-18
8045.30380 7.70265e-18
8046.16527 7.70456e-18
8047.02673 7.70646e-18
8047.88819 7.70253e-18
8048.75967 7.69859e-18
8049.62113 7.68951e-18
8050.48259 7.68042e-18
8051.34406 7.67290e-18
8052.20552 7.66538e-18
8053.06698 7.66444e-18
8053.92844 7.66351e-18
8054.78990 7.66533e-18
8055.65137 7.66715e-18
8056.51283 7.66695e-18
8057.37429 7.66673e-18
8058.24577 7.65878e-18
8059.10723 7.65080e-18
8059.96869 7.63022e-18
8060.83015 7.60963e-18
8061.69162 7.58040e-18
8062.55308 7.55115e-18
8063.41454 7.52000e-18
8064.27600 7.48886e-18
8065.13746 7.46345e-18
8065.99893 7.43806e-18
8066.86039 7.42588e-18
8067.73187 7.41374e-18
8068.59333 7.41523e-18
8069.45479 7.41674e-18
8070.31625 7.42788e-18
8071.17772 7.43904e-18
8072.03918 7.45184e-18
8072.90064 7.46464e-18
8073.76210 7.46770e-18
8074.62356 7.47073e-18
8075.48503 7.45984e-18
8076.34649 7.44892e-18
8077.21797 7.42952e-18
8078.07943 7.41011e-18
8078.94089 7.38560e-18
8079.80235 7.36107e-18
8080.66381 7.33082e-18
8081.52528 7.30054e-18
8082.38674 7.26501e-18
8083.24820 7.22945e-18
8084.10966 7.19014e-18
8084.97113 7.15082e-18
8085.83259 7.10949e-18
8086.70407 7.06816e-18
8087.56553 7.02744e-18
8088.42699 6.98672e-18
8089.28845 6.94907e-18
8090.14991 6.91143e-18
8091.01138 6.87907e-18
8091.87284 6.84673e-18
8092.73430 6.82084e-18
8093.59576 6.79497e-18
8094.45722 6.77505e-18
8095.31869 6.75516e-18
8096.18015 6.73962e-18
8097.05163 6.72411e-18
8097.91309 6.70430e-18
8098.77455 6.68449e-18
8099.63601 6.65015e-18
8100.49748 6.61578e-18
8101.35894 6.56367e-18
8102.22040 6.51151e-18
8103.08186 6.44229e-18
8103.94332 6.37303e-18
8104.80479 6.29508e-18
8105.67626 6.21712e-18
8106.53773 6.14404e-18
8107.39919 6.07097e-18
8108.26065 6.01124e-18
8109.12211 5.95154e-18
8109.98357 5.90804e-18
8110.84504 5.86457e-18
8111.70650 5.83348e-18
8112.56796 5.80240e-18
8113.42942 5.77039e-18
8114.29088 5.73838e-18
8115.15235 5.69468e-18
8116.02383 5.65096e-18
8116.88529 5.59099e-18
8117.74675 5.53099e-18
8118.60821 5.45390e-18
8119.46967 5.37677e-18
8120.33114 5.29367e-18
8121.19260 5.21056e-18
8122.05406 5.13034e-18
8122.91552 5.05014e-18
8123.77698 4.96290e-18
8124.63845 4.87564e-18
8125.49991 4.77216e-18
8126.37139 4.66864e-18
8127.23285 4.55386e-18
8128.09431 4.43905e-18
8128.95577 4.32021e-18
8129.81723 4.20138e-18
8130.67870 4.09241e-18
8131.54016 3.98347e-18
8132.40162 3.89932e-18
8133.26308 3.81525e-18
8134.12454 3.74790e-18
8134.99602 3.68059e-18
8135.85749 3.61203e-18
8136.71895 3.54348e-18
8137.58041 3.46688e-18
8138.44187 3.39027e-18
8139.30333 3.30539e-18
8140.16480 3.22049e-18
8141.02626 3.12949e-18
8141.88772 3.03847e-18
8142.74918 2.94641e-18
8143.61064 2.85434e-18
8144.47210 2.76624e-18
8145.34358 2.67815e-18
8146.20505 2.59803e-18
8147.06651 2.51793e-18
8147.92797 2.44861e-18
8148.78943 2.37932e-18
8149.65089 2.32168e-18
8150.51236 2.26408e-18
8151.37382 2.21671e-18
8152.23528 2.16937e-18
8153.09674 2.12601e-18
8153.95820 2.08268e-18
8154.82968 2.03829e-18
8155.69115 1.99392e-18
8156.55261 1.94899e-18
8157.41407 1.90406e-18
8158.27553 1.86011e-18
8159.13699 1.81617e-18
8159.99845 1.77695e-18
8160.85992 1.73774e-18
8161.72138 1.70692e-18
8162.58284 1.67611e-18
8163.44430 1.65480e-18
8164.31578 1.63351e-18
8165.17724 1.62152e-18
8166.03871 1.60954e-18
8166.90017 1.60116e-18
8167.76163 1.59278e-18
8168.62309 1.58108e-18
8169.48455 1.56937e-18
8170.34602 1.54857e-18
8171.20748 1.52775e-18
8172.06894 1.49237e-18
8172.93040 1.45694e-18
8173.80188 1.41633e-18
8174.66334 1.37570e-18
8175.52481 1.35005e-18
8176.38627 1.32443e-18
8177.24773 1.31822e-18
8178.10919 1.31205e-18
8178.97065 1.31359e-18
8179.83212 1.31515e-18
8180.69358 1.31552e-18
8181.55504 1.31589e-18
8182.41650 1.30949e-18
8183.28798 1.30308e-18
8184.14944 1.28787e-18
8185.01090 1.27264e-18
8185.87237 1.25617e-18
8186.73383 1.23969e-18
8187.59529 1.22736e-18
8188.45675 1.21502e-18
8189.31821 1.20266e-18
8190.17968 1.19029e-18
8191.04114 1.17497e-18
8191.90260 1.15964e-18
8192.77408 1.14493e-18
8193.63554 1.13021e-18
8194.49700 1.11971e-18
8195.35846 1.10922e-18
8196.21993 1.10615e-18
8197.08139 1.10310e-18
8197.94285 1.10989e-18
8198.80431 1.11671e-18
8199.66577 1.12754e-18
8200.52724 1.13838e-18
8201.38870 1.14511e-18
8202.25016 1.15183e-18
8203.12164 1.15286e-18
8203.98310 1.15388e-18
8204.84456 1.15054e-18
8205.70603 1.14719e-18
8206.56749 1.14016e-18
8207.42895 1.13311e-18
8208.29041 1.12294e-18
8209.15187 1.11276e-18
8210.01334 1.10111e-18
8210.87480 1.08946e-18
8211.73626 1.07848e-18
8212.60774 1.06750e-18
8213.46920 1.05809e-18
8214.33066 1.04870e-18
8215.19212 1.04071e-18
8216.05359 1.03273e-18
8216.91505 1.02363e-18
8217.77651 1.01453e-18
8218.63797 9.97300e-19
8219.49943 9.80042e-19
8220.36090 9.51973e-19
8221.22236 9.23880e-19
8222.08382 8.92171e-19
8222.95530 8.60453e-19
8223.81676 8.33130e-19
8224.67822 8.05814e-19
8225.53969 7.92935e-19
8226.40115 7.80092e-19
8227.26261 7.88920e-19
8228.12407 7.97796e-19
8228.98553 8.21566e-19
8229.84700 8.45368e-19
8230.70846 8.74682e-19
8231.57994 9.04012e-19
8232.44140 9.29741e-19
8233.30286 9.55470e-19
8234.16432 9.69136e-19
8235.02578 9.82778e-19
8235.88725 9.87196e-19
8236.74871 9.91582e-19
8237.61017 9.93818e-19
8238.47163 9.96055e-19
8239.33309 1.00104e-18
8240.19456 1.00604e-18
8241.06604 1.01789e-18
8241.92750 1.02976e-18
8242.78896 1.04606e-18
8243.65042 1.06238e-18
8244.51188 1.07573e-18
8245.37335 1.08909e-18
8246.23481 1.09586e-18
8247.09627 1.10262e-18
8247.95773 1.10322e-18
8248.81919 1.10379e-18
8249.68066 1.09969e-18
8250.54212 1.09559e-18
8251.41360 1.09008e-18
8252.27506 1.08457e-18
8253.13652 1.08073e-18
8253.99798 1.07690e-18
8254.85945 1.07659e-18
8255.72091 1.07630e-18
8256.58237 1.08057e-18
8257.44383 1.08486e-18
8258.30529 1.09299e-18
8259.16676 1.10113e-18
8260.02822 1.11155e-18
8260.89970 1.12198e-18
8261.76116 1.13181e-18
8262.62262 1.14164e-18
8263.48408 1.14804e-18
8264.34554 1.15444e-18
8265.20701 1.15486e-18
8266.06847 1.15526e-18
8266.92993 1.14802e-18
8267.79139 1.14076e-18
8268.65285 1.12971e-18
8269.52433 1.11865e-18
8270.38580 1.10914e-18
8271.24726 1.09964e-18
8272.10872 1.09526e-18
8272.97018 1.09090e-18
8273.83164 1.09444e-18
8274.69311 1.09799e-18
8275.55457 1.10667e-18
8276.41603 1.11534e-18
8277.27749 1.12289e-18
8278.13895 1.13044e-18
8279.01043 1.13431e-18
8279.87189 1.13817e-18
8280.73336 1.13896e-18
8281.59482 1.13975e-18
8282.45628 1.13936e-18
8283.31774 1.13896e-18
8284.17920 1.14134e-18
8285.04067 1.14373e-18
8285.90213 1.15038e-18
8286.76359 1.15704e-18
8287.62505 1.16440e-18
8288.48651 1.17175e-18
8289.34798 1.17790e-18
8290.21946 1.18404e-18
8291.08092 1.19183e-18
8291.94238 1.19963e-18
8292.80384 1.21071e-18
8293.66530 1.22179e-18
8294.52677 1.23326e-18
8295.38823 1.24473e-18
8296.24969 1.25392e-18
8297.11115 1.26310e-18
8297.97261 1.26827e-18
8298.83408 1.27344e-18
8299.70555 1.27357e-18
8300.56702 1.27369e-18
8301.42848 1.27487e-18
8302.28994 1.27605e-18
8303.15140 1.28548e-18
8304.01286 1.29493e-18
8304.87433 1.30984e-18
8305.73579 1.32475e-18
8306.59725 1.33914e-18
8307.45871 1.35353e-18
8308.32017 1.36376e-18
8309.18164 1.37397e-18
8310.05312 1.37738e-18
8310.91458 1.38078e-18
8311.77604 1.38021e-18
8312.63750 1.37962e-18
8313.49896 1.38195e-18
8314.36043 1.38427e-18
8315.22189 1.39335e-18
8316.08335 1.40246e-18
8316.94481 1.41907e-18
8317.80627 1.43571e-18
8318.67775 1.45790e-18
8319.53921 1.48011e-18
8320.40068 1.50170e-18
8321.26214 1.52329e-18
8322.12360 1.53986e-18
8322.98506 1.55641e-18
8323.84652 1.56790e-18
8324.70799 1.57937e-18
8325.56945 1.58635e-18
8326.43091 1.59333e-18
8327.29237 1.59753e-18
8328.16385 1.60172e-18
8329.02531 1.60528e-18
8329.88678 1.60884e-18
8330.74824 1.61298e-18
8331.60970 1.61712e-18
8332.47116 1.62307e-18
8333.33262 1.62901e-18
8334.19408 1.63974e-18
8335.05555 1.65048e-18
8335.91701 1.66846e-18
8336.77847 1.68647e-18
8337.64995 1.70979e-18
8338.51141 1.73310e-18
8339.37287 1.75842e-18
8340.23434 1.78375e-18
8341.09580 1.80650e-18
8341.95726 1.82925e-18
8342.81872 1.84450e-18
8343.68018 1.85974e-18
8344.54165 1.86760e-18
8345.40311 1.87543e-18
8346.26457 1.87936e-18
8347.12603 1.88327e-18
8347.99751 1.88608e-18
8348.85897 1.88889e-18
8349.72043 1.89269e-18
8350.58190 1.89649e-18
8351.44336 1.90373e-18
8352.30482 1.91098e-18
8353.16628 1.92424e-18
8354.02775 1.93752e-18
8354.88921 1.95711e-18
8355.75067 1.97672e-18
8356.62215 1.99943e-18
8357.48361 2.02216e-18
8358.34507 2.04481e-18
8359.20653 2.06747e-18
8360.06800 2.08728e-18
8360.92946 2.10707e-18
8361.79092 2.12237e-18
8362.65238 2.13765e-18
8363.51384 2.15132e-18
8364.37531 2.16497e-18
8365.23677 2.17984e-18
8366.10825 2.19471e-18
8366.96971 2.20892e-18
8367.83117 2.22313e-18
8368.69263 2.23474e-18
8369.55410 2.24636e-18
8370.41556 2.25725e-18
8371.27702 2.26816e-18
8372.13848 2.28096e-18
8372.99994 2.29376e-18
8373.86140 2.30988e-18
8374.72287 2.32601e-18
8375.59435 2.34636e-18
8376.45581 2.36673e-18
8377.31727 2.39113e-18
8378.17873 2.41553e-18
8379.04019 2.44303e-18
8379.90166 2.47054e-18
8380.76312 2.49964e-18
8381.62458 2.52874e-18
8382.48604 2.55766e-18
8383.34750 2.58659e-18
8384.20897 2.61388e-18
8385.07043 2.64115e-18
8385.94191 2.66546e-18
8386.80337 2.68976e-18
8387.66483 2.71188e-18
8388.52629 2.73400e-18
8389.38775 2.75824e-18
8390.24922 2.78248e-18
8391.11068 2.81004e-18
8391.97214 2.83760e-18
8392.83360 2.86295e-18
8393.69507 2.88829e-18
8394.55653 2.90743e-18
8395.41799 2.92657e-18
8396.28947 2.93942e-18
8397.15093 2.95225e-18
8398.01239 2.96041e-18
8398.87385 2.96854e-18
8399.73532 2.98101e-18
8400.59678 2.99349e-18
8401.45824 3.01849e-18
8402.31970 3.04352e-18
8403.18116 3.07840e-18
8404.04263 3.11330e-18
8404.90409 3.15303e-18
8405.77557 3.19277e-18
8406.63703 3.23179e-18
8407.49849 3.27081e-18
8408.35995 3.30336e-18
8409.22142 3.33591e-18
8410.08288 3.36203e-18
8410.94434 3.38814e-18
8411.80580 3.41076e-18
8412.66726 3.43337e-18
8413.52873 3.45452e-18
8414.39019 3.47566e-18
8415.26167 3.49696e-18
8416.12313 3.51827e-18
8416.98459 3.54148e-18
8417.84605 3.56469e-18
8418.70751 3.59124e-18
8419.56898 3.61778e-18
8420.43044 3.64822e-18
8421.29190 3.67866e-18
8422.15336 3.71285e-18
8423.01482 3.74706e-18
8423.87629 3.78319e-18
8424.74777 3.81934e-18
8425.60923 3.85243e-18
8426.47069 3.88552e-18
8427.33215 3.91353e-18
8428.19361 3.94153e-18
8429.05508 3.97009e-18
8429.91654 3.99866e-18
8430.77800 4.03239e-18
8431.63946 4.06613e-18
8432.50092 4.10552e-18
8433.36239 4.14492e-18
8434.23386 4.18923e-18
8435.09533 4.23354e-18
8435.95679 4.27541e-18
8436.81825 4.31728e-18
8437.67971 4.34947e-18
8438.54117 4.38163e-18
8439.40264 4.40837e-18
8440.26410 4.43509e-18
8441.12556 4.46326e-18
8441.98702 4.49143e-18
8442.84848 4.52306e-18
8443.70995 4.55470e-18
8444.58143 4.59027e-18
8445.44289 4.62584e-18
8446.30435 4.66572e-18
8447.16581 4.70561e-18
8448.02727 4.74968e-18
8448.88874 4.79375e-18
8449.75020 4.84066e-18
8450.61166 4.88757e-18
8451.47312 4.93530e-18
8452.33458 4.98303e-18
8453.20606 5.02932e-18
8454.06752 5.07559e-18
8454.92899 5.11765e-18
8455.79045 5.15968e-18
8456.65191 5.19810e-18
8457.51337 5.23651e-18
8458.37483 5.27726e-18
8459.23630 5.31802e-18
8460.09776 5.36362e-18
8460.95922 5.40923e-18
8461.82068 5.45456e-18
8462.69216 5.49989e-18
8463.55362 5.54131e-18
8464.41508 5.58274e-18
8465.27655 5.62054e-18
8466.13801 5.65833e-18
8466.99947 5.69403e-18
8467.86093 5.72972e-18
8468.72240 5.77089e-18
8469.58386 5.81207e-18
8470.44532 5.86542e-18
8471.30678 5.91879e-18
8472.16824 5.98016e-18
8473.03972 6.04156e-18
8473.90118 6.10494e-18
8474.76265 6.16832e-18
8475.62411 6.22913e-18
8476.48557 6.28994e-18
8477.34703 6.34380e-18
8478.20849 6.39765e-18
8479.06996 6.44975e-18
8479.93142 6.50184e-18
8480.79288 6.56166e-18
8481.65434 6.62150e-18
8482.51580 6.68690e-18
8483.38728 6.75232e-18
8484.24875 6.81450e-18
8485.11021 6.87667e-18
8485.97167 6.93168e-18
8486.83313 6.98668e-18
8487.69459 7.03442e-18
8488.55605 7.08214e-18
8489.41752 7.12513e-18
8490.27898 7.16811e-18
8491.14044 7.21270e-18
8492.00190 7.25731e-18
8492.87338 7.30767e-18
8493.73484 7.35804e-18
8494.59631 7.41303e-18
8495.45777 7.46801e-18
8496.31923 7.52824e-18
8497.18069 7.58847e-18
8498.04215 7.66066e-18
8498.90362 7.73287e-18
8499.76508 7.81955e-18
8500.62654 7.90627e-18
8501.48800 7.99588e-18
8502.35948 8.08551e-18
8503.22094 8.16672e-18
8504.08240 8.24794e-18
8504.94387 8.31845e-18
8505.80533 8.38888e-18
8506.66679 8.44821e-18
8507.52825 8.50745e-18
8508.38972 8.55972e-18
8509.25118 8.61199e-18
8510.11264 8.66283e-18
8510.98412 8.71375e-18
8511.84558 8.76538e-18
8512.70704 8.81701e-18
8513.56850 8.87055e-18
8514.42997 8.92401e-18
8515.29143 8.97921e-18
8516.15289 9.03441e-18
8517.01435 9.09064e-18
8517.87581 9.14688e-18
8518.73728 9.20414e-18
8519.59874 9.26132e-18
8520.46020 9.31978e-18
8521.33168 9.37815e-18
8522.19314 9.44033e-18
8523.05460 9.50244e-18
8523.91607 9.57310e-18
8524.77753 9.64385e-18
8525.63899 9.72467e-18
8526.50045 9.80549e-18
8527.36191 9.89353e-18
8528.22337 9.98149e-18
8529.08484 1.00721e-17
8529.94630 1.01626e-17
8530.80776 1.02482e-17
8531.67924 1.03338e-17
8532.54070 1.04083e-17
8533.40216 1.04827e-17
8534.26363 1.05437e-17
8535.12509 1.06047e-17
8535.98655 1.06528e-17
8536.84801 1.07010e-17
8537.70947 1.07457e-17
8538.57094 1.07903e-17
8539.43240 1.08413e-17
8540.30388 1.08924e-17
8541.16534 1.09563e-17
8542.02680 1.10203e-17
8542.88826 1.11010e-17
8543.74972 1.11818e-17
8544.61119 1.12741e-17
8545.47265 1.13663e-17
8546.33411 1.14616e-17
8547.19557 1.15567e-17
8548.05703 1.16403e-17
8548.91850 1.17238e-17
8549.78998 1.17796e-17
8550.65144 1.18354e-17
8551.51290 1.18648e-17
8552.37436 1.18941e-17
8553.23582 1.19094e-17
8554.09729 1.19246e-17
8554.95875 1.19421e-17
8555.82021 1.19597e-17
8556.68167 1.19991e-17
8557.54313 1.20385e-17
8558.40460 1.21085e-17
8559.27607 1.21785e-17
8560.13754 1.22738e-17
8560.99900 1.23691e-17
8561.86046 1.24791e-17
8562.72192 1.25892e-17
8563.58338 1.26971e-17
8564.44485 1.28050e-17
8565.30631 1.28951e-17
8566.16777 1.29852e-17
8567.02923 1.30471e-17
8567.89070 1.31090e-17
8568.75216 1.31378e-17
8569.62364 1.31667e-17
8570.48510 1.31707e-17
8571.34656 1.31746e-17
8572.20802 1.31655e-17
8573.06948 1.31563e-17
8573.93095 1.31470e-17
8574.79241 1.31378e-17
8575.65387 1.31409e-17
8576.51533 1.31440e-17
8577.37679 1.31727e-17
8578.23826 1.32014e-17
8579.09972 1.32655e-17
8579.97120 1.33296e-17
8580.83266 1.34167e-17
8581.69412 1.35039e-17
8582.55558 1.35933e-17
8583.41705 1.36826e-17
8584.27851 1.37576e-17
8585.13997 1.38326e-17
8586.00143 1.38796e-17
8586.86289 1.39265e-17
8587.72436 1.39436e-17
8588.58582 1.39606e-17
8589.45730 1.39554e-17
8590.31876 1.39500e-17
8591.18022 1.39341e-17
8592.04168 1.39183e-17
8592.90314 1.39077e-17
8593.76461 1.38970e-17
8594.62607 1.39005e-17
8595.48753 1.39039e-17
8596.34899 1.39180e-17
8597.21045 1.39319e-17
8598.07192 1.39543e-17
8598.94340 1.39767e-17
8599.80486 1.40097e-17
8600.66632 1.40428e-17
8601.52778 1.40855e-17
8602.38924 1.41281e-17
8603.25071 1.41737e-17
8604.11217 1.42193e-17
8604.97363 1.42602e-17
8605.83509 1.43012e-17
8606.69655 1.43275e-17
8607.56803 1.43539e-17
8608.42949 1.43575e-17
8609.29096 1.43611e-17
8610.15242 1.43443e-17
8611.01388 1.43273e-17
8611.87534 1.42957e-17
8612.73680 1.42641e-17
8613.59827 1.42243e-17
8614.45973 1.41844e-17
8615.32119 1.41431e-17
8616.18265 1.41019e-17
8617.04411 1.40721e-17
8617.91559 1.40424e-17
8618.77706 1.40383e-17
8619.63852 1.40342e-17
8620.49998 1.40564e-17
8621.36144 1.40787e-17
8622.22290 1.41197e-17
8623.08437 1.41609e-17
8623.94583 1.42098e-17
8624.80729 1.42587e-17
8625.66875 1.43016e-17
8626.53021 1.43445e-17
8627.40169 1.43731e-17
8628.26315 1.44017e-17
8629.12462 1.44158e-17
8629.98608 1.44299e-17
8630.84754 1.44292e-17
8631.70900 1.44285e-17
8632.57046 1.44111e-17
8633.43193 1.43935e-17
8634.29339 1.43617e-17
8635.15485 1.43299e-17
8636.01631 1.42937e-17
8636.88779 1.42575e-17
8637.74925 1.42274e-17
8638.61072 1.41973e-17
8639.47218 1.41852e-17
8640.33364 1.41733e-17
8641.19510 1.41876e-17
8642.05656 1.42020e-17
8642.91803 1.42357e-17
8643.77949 1.42696e-17
8644.64095 1.43121e-17
8645.50241 1.43547e-17
8646.37389 1.43951e-17
8647.23535 1.44355e-17
8648.09681 1.44626e-17
8648.95828 1.44897e-17
8649.81974 1.44994e-17
8650.68120 1.45092e-17
8651.54266 1.45017e-17
8652.40412 1.44942e-17
8653.26559 1.44683e-17
8654.12705 1.44425e-17
8654.98851 1.43974e-17
8655.85999 1.43524e-17
8656.72145 1.42960e-17
8657.58291 1.42396e-17
8658.44438 1.41854e-17
8659.30584 1.41312e-17
8660.16730 1.40886e-17
8661.02876 1.40460e-17
8661.89022 1.40189e-17
8662.75168 1.39920e-17
8663.61315 1.39828e-17
8664.47461 1.39737e-17
8665.33607 1.39817e-17
8666.20755 1.39897e-17
8667.06901 1.40112e-17
8667.93047 1.40326e-17
8668.79194 1.40608e-17
8669.65340 1.40890e-17
8670.51486 1.41149e-17
8671.37632 1.41408e-17
8672.23778 1.41488e-17
8673.09925 1.41567e-17
8673.96071 1.41353e-17
8674.82217 1.41138e-17
8675.68363 1.40664e-17
8676.55511 1.40190e-17
8677.41657 1.39533e-17
8678.27803 1.38875e-17
8679.13950 1.38164e-17
8680.00096 1.37451e-17
8680.86242 1.36826e-17
8681.72388 1.36201e-17
8682.58535 1.35718e-17
8683.44681 1.35235e-17
8684.30827 1.34915e-17
8685.16973 1.34595e-17
8686.04121 1.34456e-17
8686.90267 1.34318e-17
8687.76413 1.34363e-17
8688.62560 1.34409e-17
8689.48706 1.34603e-17
8690.34852 1.34798e-17
8691.20998 1.35083e-17
8692.07144 1.35369e-17
8692.93291 1.35650e-17
8693.79437 1.35930e-17
8694.66585 1.36082e-17
8695.52731 1.36233e-17
8696.38877 1.36181e-17
8697.25023 1.36128e-17
8698.11170 1.35858e-17
8698.97316 1.35588e-17
8699.83462 1.35130e-17
8700.69608 1.34672e-17
8701.55754 1.34126e-17
8702.41900 1.33579e-17
8703.28047 1.33028e-17
8704.15195 1.32476e-17
8705.01341 1.31922e-17
8705.87487 1.31368e-17
8706.73633 1.30834e-17
8707.59779 1.30301e-17
8708.45926 1.29900e-17
8709.32072 1.29499e-17
8710.18218 1.29318e-17
8711.04364 1.29136e-17
8711.90510 1.29177e-17
8712.76657 1.29220e-17
8713.62803 1.29453e-17
8714.49951 1.29687e-17
8715.36097 1.29941e-17
8716.22243 1.30196e-17
8717.08389 1.30278e-17
8717.94535 1.30361e-17
8718.80682 1.30193e-17
8719.66828 1.30023e-17
8720.52974 1.29575e-17
8721.39120 1.29126e-17
8722.25267 1.28507e-17
8723.11413 1.27889e-17
8723.98561 1.27292e-17
8724.84707 1.26695e-17
8725.70853 1.26191e-17
8726.56999 1.25687e-17
8727.43145 1.25255e-17
8728.29292 1.24825e-17
8729.15438 1.24468e-17
8730.01584 1.24111e-17
8730.87730 1.23838e-17
8731.73876 1.23564e-17
8732.61024 1.23401e-17
8733.47170 1.23237e-17
8734.33317 1.23258e-17
8735.19463 1.23280e-17
8736.05609 1.23464e-17
8736.91755 1.23649e-17
8737.77902 1.23778e-17
8738.64048 1.23907e-17
8739.50194 1.23798e-17
8740.36340 1.23688e-17
8741.22486 1.23239e-17
8742.08633 1.22790e-17
8742.95780 1.21975e-17
8743.81927 1.21160e-17
8744.68073 1.20214e-17
8745.54219 1.19268e-17
8746.40365 1.18447e-17
8747.26511 1.17626e-17
8748.12658 1.17049e-17
8748.98804 1.16473e-17
8749.84950 1.16211e-17
8750.71096 1.15950e-17
8751.57242 1.15931e-17
8752.44390 1.15911e-17
8753.30537 1.15992e-17
8754.16683 1.16074e-17
8755.02829 1.16179e-17
8755.88975 1.16283e-17
8756.75121 1.16361e-17
8757.61268 1.16439e-17
8758.47414 1.16376e-17
8759.33560 1.16313e-17
8760.19706 1.15972e-17
8761.05852 1.15630e-17
8761.91999 1.14988e-17
8762.79146 1.14346e-17
8763.65293 1.13477e-17
8764.51439 1.12608e-17
8765.37585 1.11633e-17
8766.23731 1.10659e-17
8767.09877 1.09752e-17
8767.96024 1.08846e-17
8768.82170 1.08118e-17
8769.68316 1.07392e-17
8770.54462 1.06829e-17
8771.40608 1.06268e-17
8772.26755 1.05847e-17
8773.13903 1.05426e-17
8774.00049 1.05127e-17
8774.86195 1.04827e-17
8775.72341 1.04610e-17
8776.58487 1.04392e-17
8777.44633 1.04221e-17
8778.30780 1.04050e-17
8779.16926 1.03876e-17
8780.03072 1.03701e-17
8780.89218 1.03372e-17
8781.76366 1.03042e-17
8782.62512 1.02422e-17
8783.48659 1.01800e-17
8784.34805 1.00954e-17
8785.20951 1.00108e-17
8786.07097 9.91566e-18
8786.93243 9.82056e-18
8787.79390 9.72412e-18
8788.65536 9.62767e-18
8789.51682 9.53876e-18
8790.37828 9.44985e-18
8791.24976 9.36824e-18
8792.11122 9.28663e-18
8792.97268 9.20596e-18
8793.83415 9.12522e-18
8794.69561 9.04956e-18
8795.55707 8.97397e-18
8796.41853 8.91496e-18
8797.28000 8.85611e-18
8798.14146 8.81146e-18
8799.00292 8.76689e-18
8799.86438 8.72104e-18
8800.72584 8.67520e-18
8801.59732 8.61548e-18
8802.45878 8.55575e-18
8803.32025 8.47359e-18
8804.18171 8.39142e-18
8805.04317 8.28569e-18
8805.90463 8.17997e-18
8806.76609 8.06592e-18
8807.62756 7.95178e-18
8808.48902 7.84326e-18
8809.35048 7.73479e-18
8810.21194 7.63853e-18
8811.08342 7.54230e-18
8811.94488 7.46276e-18
8812.80635 7.38327e-18
8813.66781 7.31871e-18
8814.52927 7.25420e-18
8815.39073 7.20039e-18
8816.25219 7.14660e-18
8817.11365 7.09825e-18
8817.97512 7.04993e-18
8818.83658 7.00116e-18
8819.70806 6.95240e-18
8820.56952 6.89607e-18
8821.43098 6.83972e-18
8822.29244 6.76961e-18
8823.15391 6.69948e-18
8824.01537 6.61482e-18
8824.87683 6.53014e-18
8825.73829 6.43318e-18
8826.59975 6.33619e-18
8827.46122 6.23585e-18
8828.32268 6.13550e-18
8829.19416 6.04465e-18
8830.05562 5.95383e-18
8830.91708 5.87902e-18
8831.77854 5.80426e-18
8832.64000 5.74596e-18
8833.50147 5.68772e-18
8834.36293 5.64385e-18
8835.22439 5.60002e-18
8836.08585 5.56545e-18
8836.94732 5.53090e-18
8837.80878 5.49960e-18
8838.67024 5.46831e-18
8839.54172 5.43412e-18
8840.40318 5.39993e-18
8841.26464 5.35830e-18
8842.12610 5.31665e-18
8842.98757 5.26698e-18
8843.84903 5.21728e-18
8844.71049 5.16051e-18
8845.57195 5.10373e-18
8846.43341 5.04320e-18
8847.29488 4.98266e-18
8848.15634 4.92262e-18
8849.02782 4.86258e-18
8849.88928 4.80531e-18
8850.75074 4.74805e-18
8851.61220 4.69571e-18
8852.47367 4.64340e-18
8853.33513 4.60712e-18
8854.19659 4.57088e-18
8855.05805 4.56172e-18
8855.91951 4.55263e-18
8856.78097 4.56180e-18
8857.64244 4.57103e-18
8858.50390 4.58303e-18
8859.36536 4.59504e-18
8860.23684 4.59709e-18
8861.09830 4.59910e-18
8861.95976 4.57963e-18
8862.82123 4.56010e-18
8863.68269 4.52345e-18
8864.54415 4.48676e-18
8865.40561 4.44980e-18
8866.26707 4.41284e-18
8867.12854 4.38340e-18
8867.99000 4.35399e-18
8868.86148 4.33009e-18
8869.72294 4.30620e-18
8870.58440 4.28698e-18
8871.44586 4.26777e-18
8872.30732 4.25249e-18
8873.16879 4.23722e-18
8874.03025 4.22671e-18
8874.89171 4.21621e-18
8875.75317 4.21696e-18
8876.61463 4.21773e-18
8877.47610 4.23235e-18
8878.34758 4.24701e-18
8879.20904 4.26742e-18
8880.07050 4.28784e-18
8880.93196 4.30556e-18
8881.79342 4.32327e-18
8882.65489 4.33041e-18
8883.51635 4.33753e-18
8884.37781 4.32836e-18
8885.23927 4.31915e-18
8886.10073 4.29897e-18
8886.96220 4.27876e-18
8887.83367 4.25587e-18
8888.69514 4.23297e-18
8889.55660 4.21505e-18
8890.41806 4.19713e-18
8891.27952 4.19112e-18
8892.14099 4.18516e-18
8893.00245 4.19501e-18
8893.86391 4.20491e-18
8894.72537 4.23218e-18
8895.58683 4.25948e-18
8896.44830 4.29774e-18
8897.30976 4.33604e-18
8898.18124 4.37435e-18
8899.04270 4.41265e-18
8899.90416 4.44163e-18
8900.76562 4.47059e-18
8901.62708 4.48246e-18
8902.48855 4.49428e-18
8903.35001 4.49022e-18
8904.21147 4.48613e-18
8905.07293 4.47913e-18
8905.93439 4.47212e-18
8906.80587 4.47068e-18
8907.66734 4.46925e-18
8908.52880 4.47253e-18
8909.39026 4.47582e-18
8910.25172 4.48383e-18
8911.11318 4.49185e-18
8911.97465 4.50618e-18
8912.83611 4.52052e-18
8913.69757 4.54182e-18
8914.55903 4.56313e-18
8915.42049 4.59292e-18
8916.29197 4.62271e-18
8917.15343 4.66062e-18
8918.01490 4.69854e-18
8918.87636 4.73482e-18
8919.73782 4.77109e-18
8920.59928 4.79597e-18
8921.46074 4.82083e-18
8922.32221 4.83156e-18
8923.18367 4.84226e-18
8924.04513 4.83855e-18
8924.90659 4.83480e-18
8925.76805 4.82814e-18
8926.63953 4.82147e-18
8927.50100 4.82754e-18
8928.36246 4.83365e-18
8929.22392 4.85306e-18
8930.08538 4.87251e-18
8930.94684 4.89817e-18
8931.80831 4.92384e-18
8932.66977 4.95061e-18
8933.53123 4.97737e-18
8934.39269 5.00027e-18
8935.25415 5.02315e-18
8936.12563 5.04453e-18
8936.98709 5.06589e-18
8937.84856 5.09695e-18
8938.71002 5.12804e-18
8939.57148 5.16930e-18
8940.43294 5.21058e-18
8941.29440 5.24683e-18
8942.15587 5.28307e-18
8943.01733 5.30314e-18
8943.87879 5.32317e-18
8944.74025 5.32207e-18
8945.61173 5.32090e-18
8946.47319 5.30042e-18
8947.33466 5.27989e-18
8948.19612 5.26351e-18
8949.05758 5.24714e-18
8949.91904 5.25391e-18
8950.78050 5.26075e-18
8951.64197 5.28476e-18
8952.50343 5.30881e-18
8953.36489 5.34046e-18
8954.22635 5.37214e-18
8955.08781 5.38648e-18
8955.95929 5.40077e-18
8956.82075 5.37325e-18
8957.68222 5.34562e-18
8958.54368 5.30678e-18
8959.40514 5.26790e-18
8960.26660 5.26272e-18
8961.12806 5.25764e-18
8961.98953 5.29255e-18
8962.85099 5.32758e-18
8963.71245 5.39407e-18
8964.57391 5.46064e-18
8965.44539 5.53716e-18
8966.30685 5.61369e-18
8967.16832 5.66762e-18
8968.02978 5.72150e-18
8968.89124 5.75641e-18
8969.75270 5.79128e-18
8970.61416 5.84284e-18
8971.47563 5.89444e-18
8972.33709 5.97498e-18
8973.19855 6.05560e-18
8974.06001 6.14987e-18
8974.93149 6.24415e-18
8975.79295 6.33003e-18
8976.65441 6.41587e-18
8977.51588 6.45953e-18
8978.37734 6.50308e-18
8979.23880 6.47821e-18
8980.10026 6.45314e-18
8980.96172 6.34278e-18
8981.82319 6.23219e-18
8982.68465 6.04723e-18
8983.54611 5.86206e-18
8984.41759 5.70198e-18
8985.27905 5.54196e-18
8986.14051 5.49854e-18
8987.00198 5.45542e-18
8987.86344 5.56013e-18
8988.72490 5.66524e-18
8989.58636 5.92282e-18
8990.44782 6.18080e-18
8991.30928 6.46832e-18
8992.17075 6.75591e-18
8993.03221 6.92538e-18
8993.89367 7.09452e-18
8994.76515 7.12375e-18
8995.62661 7.15260e-18
8996.48807 7.06864e-18
8997.34954 6.98438e-18
8998.21100 6.85342e-18
8999.07246 6.72235e-18
8999.93392 6.63472e-18
9000.79538 6.54721e-18
9001.65685 6.54228e-18
9002.51831 6.53759e-18
9003.38979 6.61294e-18
9004.25125 6.68849e-18
9005.11271 6.81784e-18
9005.97417 6.94733e-18
9006.83563 7.07918e-18
9007.69710 7.21103e-18
9008.55856 7.30523e-18
9009.42002 7.39933e-18
9010.28148 7.43726e-18
9011.14295 7.47502e-18
9012.00441 7.45752e-18
9012.87589 7.43986e-18
9013.73735 7.41115e-18
9014.59881 7.38243e-18
9015.46027 7.37536e-18
9016.32173 7.36835e-18
9017.18320 7.36287e-18
9018.04466 7.35739e-18
9018.90612 7.33857e-18
9019.76758 7.31972e-18
9020.62904 7.30482e-18
9021.49051 7.28992e-18
9022.35197 7.29684e-18
9023.22345 7.30382e-18
9024.08491 7.35511e-18
9024.94637 7.40652e-18
9025.80783 7.52019e-18
9026.66930 7.63402e-18
9027.53076 7.78274e-18
9028.39222 7.93156e-18
9029.25368 8.07401e-18
9030.11514 8.21637e-18
9030.97660 8.32384e-18
9031.83807 8.43115e-18
9032.70955 8.48231e-18
9033.57101 8.53331e-18
9034.43247 8.52625e-18
9035.29393 8.51903e-18
9036.15539 8.46462e-18
9037.01686 8.41006e-18
9037.87832 8.33621e-18
9038.73978 8.26230e-18
9039.60124 8.21193e-18
9040.46270 8.16173e-18
9041.32417 8.14634e-18
9042.18563 8.13103e-18
9043.05711 8.11921e-18
9043.91857 8.10732e-18
9044.78003 8.08249e-18
9045.64149 8.05759e-18
9046.50295 8.02967e-18
9047.36442 8.00175e-18
9048.22588 7.97938e-18
9049.08734 7.95702e-18
9049.94880 7.95400e-18
9050.81027 7.95091e-18
9051.67173 7.97090e-18
9052.54321 7.99096e-18
9053.40467 7.99311e-18
9054.26613 7.99509e-18
9055.12759 7.94354e-18
9055.98905 7.89186e-18
9056.85052 7.80574e-18
9057.71198 7.71952e-18
9058.57344 7.62476e-18
9059.43490 7.52999e-18
9060.29636 7.42982e-18
9061.16784 7.32964e-18
9062.02931 7.22535e-18
9062.89077 7.12105e-18
9063.75223 7.00884e-18
9064.61369 6.89660e-18
9065.47515 6.76811e-18
9066.33662 6.63956e-18
9067.19808 6.52751e-18
9068.05954 6.41550e-18
9068.92100 6.37422e-18
9069.78246 6.33313e-18
9070.64393 6.35060e-18
9071.51540 6.36824e-18
9072.37687 6.38364e-18
9073.23833 6.39905e-18
9074.09979 6.38994e-18
9074.96125 6.38077e-18
9075.82271 6.36413e-18
9076.68418 6.34747e-18
9077.54564 6.33393e-18
9078.40710 6.32040e-18
9079.26856 6.31609e-18
9080.13002 6.31181e-18
9080.99149 6.31650e-18
9081.86297 6.32120e-18
9082.72443 6.31379e-18
9083.58589 6.30634e-18
9084.44735 6.27505e-18
9085.30881 6.24371e-18
9086.17028 6.21179e-18
9087.03174 6.17986e-18
9087.89320 6.16518e-18
9088.75466 6.15055e-18
9089.61612 6.13029e-18
9090.48760 6.11001e-18
9091.34906 6.06227e-18
9092.21053 6.01473e-18
9093.07199 5.96211e-18
9093.93345 5.90948e-18
9094.79491 5.87960e-18
9095.65637 5.84979e-18
9096.51784 5.83483e-18
9097.37930 5.81992e-18
9098.24076 5.80340e-18
9099.10222 5.78687e-18
9099.97370 5.77304e-18
9100.83516 5.75923e-18
9101.69663 5.75693e-18
9102.55809 5.75466e-18
9103.41955 5.78078e-18
9104.28101 5.80699e-18
9105.14247 5.88574e-18
9106.00393 5.96464e-18
9106.86540 6.06732e-18
9107.72686 6.17006e-18
9108.58832 6.22307e-18
9109.45980 6.27593e-18
9110.32126 6.24788e-18
9111.18272 6.21962e-18
9112.04419 6.12879e-18
9112.90565 6.03778e-18
9113.76711 5.92169e-18
9114.62857 5.80554e-18
9115.49003 5.74124e-18
9116.35150 5.67707e-18
9117.21296 5.70468e-18
9118.07442 5.73254e-18
9118.93588 5.79264e-18
9119.80736 5.85283e-18
9120.66882 5.88739e-18
9121.53028 5.92187e-18
9122.39175 5.89373e-18
9123.25321 5.86540e-18
9124.11467 5.75223e-18
9124.97613 5.63883e-18
9125.83760 5.49297e-18
9126.69906 5.34703e-18
9127.56052 5.23221e-18
9128.43200 5.11748e-18
9129.29346 5.06660e-18
9130.15492 5.01590e-18
9131.01638 5.05017e-18
9131.87785 5.08468e-18
9132.73931 5.18981e-18
9133.60077 5.29514e-18
9134.46223 5.43881e-18
9135.32369 5.58257e-18
9136.18516 5.73112e-18
9137.04662 5.87969e-18
9137.90808 5.99842e-18
9138.76954 6.11706e-18
9139.64102 6.18361e-18
9140.50248 6.25001e-18
9141.36395 6.25684e-18
9142.22541 6.26351e-18
9143.08687 6.19930e-18
9143.94833 6.13491e-18
9144.80979 5.98340e-18
9145.67125 5.83165e-18
9146.53272 5.61247e-18
9147.39418 5.39311e-18
9148.26566 5.17246e-18
9149.12712 4.95181e-18
9149.98858 4.78976e-18
9150.85004 4.62788e-18
9151.71151 4.57303e-18
9152.57297 4.51849e-18
9153.43443 4.58981e-18
9154.29589 4.66147e-18
9155.15735 4.79662e-18
9156.01882 4.93193e-18
9156.88028 5.06505e-18
9157.75176 5.19816e-18
9158.61322 5.29846e-18
9159.47468 5.39867e-18
9160.33614 5.44236e-18
9161.19760 5.48589e-18
9162.05907 5.47455e-18
9162.92053 5.46306e-18
9163.78199 5.40963e-18
9164.64345 5.35608e-18
9165.50492 5.25877e-18
9166.36638 5.16132e-18
9167.22784 5.01781e-18
9168.09932 4.87419e-18
9168.96078 4.72010e-18
9169.82224 4.56598e-18
9170.68370 4.44951e-18
9171.54517 4.33315e-18
9172.40663 4.27838e-18
9173.26809 4.22379e-18
9174.12955 4.24121e-18
9174.99101 4.25883e-18
9175.85248 4.31883e-18
9176.71394 4.37893e-18
9177.58542 4.41416e-18
9178.44688 4.44932e-18
9179.30834 4.44020e-18
9180.16980 4.43096e-18
9181.03127 4.42167e-18
9181.89273 4.41239e-18
9182.75419 4.42726e-18
9183.61565 4.44219e-18
9184.47711 4.47254e-18
9185.33857 4.50292e-18
9186.20004 4.53828e-18
9187.07152 4.57364e-18
9187.93298 4.58866e-18
9188.79444 4.60362e-18
9189.65590 4.58421e-18
9190.51736 4.56470e-18
9191.37883 4.55006e-18
9192.24029 4.53544e-18
9193.10175 4.56047e-18
9193.96321 4.58560e-18
9194.82467 4.63479e-18
9195.68614 4.68402e-18
9196.55762 4.73522e-18
9197.41908 4.78642e-18
9198.28054 4.81962e-18
9199.14200 4.85277e-18
9200.00346 4.84875e-18
9200.86492 4.84463e-18
9201.72639 4.81756e-18
9202.58785 4.79042e-18
9203.44931 4.76817e-18
9204.31077 4.74593e-18
9205.17224 4.72930e-18
9206.04371 4.71267e-18
9206.90518 4.68943e-18
9207.76664 4.66615e-18
9208.62810 4.64018e-18
9209.48956 4.61420e-18
9210.35102 4.59859e-18
9211.21249 4.58300e-18
9212.07395 4.59090e-18
9212.93541 4.59887e-18
9213.79687 4.64535e-18
9214.65833 4.69193e-18
9215.52981 4.77397e-18
9216.39127 4.85612e-18
9217.25274 4.94255e-18
9218.11420 5.02900e-18
9218.97566 5.09959e-18
9219.83712 5.17012e-18
9220.69859 5.23131e-18
9221.56005 5.29248e-18
9222.42151 5.34791e-18
9223.28297 5.40332e-18
9224.14443 5.44683e-18
9225.00590 5.49030e-18
9225.87737 5.51755e-18
9226.73884 5.54476e-18
9227.60030 5.55124e-18
9228.46176 5.55767e-18
9229.32322 5.54163e-18
9230.18468 5.52555e-18
9231.04615 5.50527e-18
9231.90761 5.48499e-18
9232.76907 5.48160e-18
9233.63053 5.47824e-18
9234.49199 5.48709e-18
9235.35346 5.49595e-18
9236.22494 5.50515e-18
9237.08640 5.51434e-18
9237.94786 5.52930e-18
9238.80932 5.54427e-18
9239.67078 5.57616e-18
9240.53225 5.60809e-18
9241.39371 5.66227e-18
9242.25517 5.71650e-18
9243.11663 5.79513e-18
9243.97809 5.87383e-18
9244.84957 5.97008e-18
9245.71103 6.06637e-18
9246.57250 6.16460e-18
9247.43396 6.26284e-18
9248.29542 6.35414e-18
9249.15688 6.44541e-18
9250.01834 6.53161e-18
9250.87981 6.61780e-18
9251.74127 6.69455e-18
9252.60273 6.77127e-18
9253.46419 6.82017e-18
9254.32565 6.86900e-18
9255.19713 6.88705e-18
9256.05860 6.90501e-18
9256.92006 6.92796e-18
9257.78152 6.95093e-18
9258.64298 7.00570e-18
9259.50444 7.06054e-18
9260.36591 7.13898e-18
9261.22737 7.21749e-18
9262.08883 7.30514e-18
9262.95029 7.39282e-18
9263.81175 7.45804e-18
9264.68323 7.52320e-18
9265.54469 7.53571e-18
9266.40616 7.54807e-18
9267.26762 7.50872e-18
9268.12908 7.46922e-18
9268.99054 7.39047e-18
9269.85200 7.31162e-18
9270.71347 7.22279e-18
9271.57493 7.13395e-18
9272.43639 7.07000e-18
9273.29785 7.00612e-18
9274.16933 6.99462e-18
9275.03079 6.98327e-18
9275.89226 7.04442e-18
9276.75372 7.10578e-18
9277.61518 7.22929e-18
9278.47664 7.35297e-18
9279.33810 7.50482e-18
9280.19957 7.65675e-18
9281.06103 7.80023e-18
9281.92249 7.94369e-18
9282.79397 8.04339e-18
9283.65543 8.14301e-18
9284.51689 8.17077e-18
9285.37835 8.19829e-18
9286.23982 8.13738e-18
9287.10128 8.07623e-18
9287.96274 7.93402e-18
9288.82420 7.79150e-18
9289.68566 7.61305e-18
9290.54713 7.43451e-18
9291.40859 7.27228e-18
9292.27005 7.11009e-18
9293.14153 7.03310e-18
9294.00299 6.95634e-18
9294.86445 7.00966e-18
9295.72592 7.06335e-18
9296.58738 7.20055e-18
9297.44884 7.33799e-18
9298.31030 7.49746e-18
9299.17176 7.65698e-18
9300.03323 7.75471e-18
9300.89469 7.85225e-18
9301.75615 7.80769e-18
9302.62763 7.76271e-18
9303.48909 7.65321e-18
9304.35055 7.54353e-18
9305.21201 7.49565e-18
9306.07348 7.44793e-18
9306.93494 7.43216e-18
9307.79640 7.41648e-18
9308.65786 7.34102e-18
9309.51932 7.26540e-18
9310.38079 7.13452e-18
9311.24225 7.00349e-18
9312.11373 6.87136e-18
9312.97519 6.73923e-18
9313.83665 6.65896e-18
9314.69811 6.57884e-18
9315.55958 6.61083e-18
9316.42104 6.64314e-18
9317.28250 6.77563e-18
9318.14396 6.90841e-18
9319.00542 7.02527e-18
9319.86688 7.14208e-18
9320.72835 7.19771e-18
9321.58981 7.25319e-18
9322.46129 7.35463e-18
9323.32275 7.45622e-18
9324.18421 7.62690e-18
9325.04567 7.79777e-18
9325.90714 7.81882e-18
9326.76860 7.83944e-18
9327.63006 7.57593e-18
9328.49152 7.31160e-18
9329.35298 6.97536e-18
9330.21445 6.63891e-18
9331.07591 6.43505e-18
9331.94739 6.23158e-18
9332.80885 6.12055e-18
9333.67031 6.00980e-18
9334.53177 5.93236e-18
9335.39323 5.85501e-18
9336.25470 5.81249e-18
9337.11616 5.77008e-18
9337.97762 5.75232e-18
9338.83908 5.73464e-18
9339.70055 5.92225e-18
9340.56201 6.11045e-18
9341.43349 6.74805e-18
9342.29495 7.38692e-18
9343.15641 8.16117e-18
9344.01787 8.93574e-18
9344.87933 9.27021e-18
9345.74080 9.60332e-18
9346.60226 9.32604e-18
9347.46372 9.04694e-18
9348.32518 8.25603e-18
9349.18664 7.46370e-18
9350.04811 6.52290e-18
9350.90957 5.58170e-18
9351.78105 5.16179e-18
9352.64251 4.74339e-18
9353.50397 5.06446e-18
9354.36543 5.38763e-18
9355.22689 5.96442e-18
9356.08836 6.54191e-18
9356.94982 6.96643e-18
9357.81128 7.39049e-18
9358.67274 7.41937e-18
9359.53420 7.44712e-18
9360.39567 6.97514e-18
9361.26715 6.50175e-18
9362.12861 5.91120e-18
9362.99007 5.32033e-18
9363.85153 4.97202e-18
9364.71299 4.62441e-18
9365.57446 4.53912e-18
9366.43592 4.45459e-18
9367.29738 4.59755e-18
9368.15884 4.74115e-18
9369.02030 4.93312e-18
9369.89178 5.12522e-18
9370.75324 5.16090e-18
9371.61471 5.19613e-18
9372.47617 5.08812e-18
9373.33763 4.97970e-18
9374.19909 4.80469e-18
9375.06056 4.62950e-18
9375.92202 4.50479e-18
9376.78348 4.38023e-18
9377.64494 4.44911e-18
9378.50640 4.51853e-18
9379.37788 4.72665e-18
9380.23934 4.93516e-18
9381.10081 5.09805e-18
9381.96227 5.26079e-18
9382.82373 5.31966e-18
9383.68519 5.37824e-18
9384.54665 5.38614e-18
9385.40812 5.39390e-18
9386.26958 5.36552e-18
9387.13104 5.33703e-18
9387.99250 5.24752e-18
9388.85396 5.15783e-18
9389.72544 5.00577e-18
9390.58691 4.85354e-18
9391.44837 4.66190e-18
9392.30983 4.47014e-18
9393.17129 4.27033e-18
9394.03275 4.07051e-18
9394.89422 3.91835e-18
9395.75568 3.76633e-18
9396.61714 3.69958e-18
9397.47860 3.63308e-18
9398.34006 3.62374e-18
9399.21154 3.61457e-18
9400.07300 3.62747e-18
9400.93447 3.64043e-18
9401.79593 3.64174e-18
9402.65739 3.64301e-18
9403.51885 3.60313e-18
9404.38031 3.56313e-18
9405.24178 3.51532e-18
9406.10324 3.46749e-18
9406.96470 3.45847e-18
9407.82616 3.44955e-18
9408.69764 3.47980e-18
9409.55910 3.51018e-18
9410.42057 3.56349e-18
9411.28203 3.61686e-18
9412.14349 3.66799e-18
9413.00495 3.71912e-18
9413.86641 3.73816e-18
9414.72788 3.75710e-18
9415.58934 3.72411e-18
9416.45080 3.69097e-18
9417.31226 3.59979e-18
9418.17372 3.50844e-18
9419.04520 3.36544e-18
9419.90666 3.22230e-18
9420.76813 3.03704e-18
9421.62959 2.85166e-18
9422.49105 2.69044e-18
9423.35251 2.52929e-18
9424.21397 2.55035e-18
9425.07544 2.57194e-18
9425.93690 2.82608e-18
9426.79836 3.08089e-18
9427.65982 3.40222e-18
9428.53130 3.72372e-18
9429.39276 3.95229e-18
9430.25423 4.18058e-18
9431.11569 4.16831e-18
9431.97715 4.15535e-18
9432.83861 3.82724e-18
9433.70007 3.49824e-18
9434.56153 3.11446e-18
9435.42300 2.73053e-18
9436.28446 2.56320e-18
9437.14592 2.39652e-18
9438.01740 2.48852e-18
9438.87886 2.58128e-18
9439.74032 2.91499e-18
9440.60179 3.24939e-18
9441.46325 3.65532e-18
9442.32471 4.06146e-18
9443.18617 4.32147e-18
9444.04763 4.58105e-18
9444.90910 4.63275e-18
9445.77056 4.68383e-18
9446.63202 4.54083e-18
9447.49348 4.39727e-18
9448.36496 4.13676e-18
9449.22642 3.87593e-18
9450.08788 3.62213e-18
9450.94935 3.36835e-18
9451.81081 3.20218e-18
9452.67227 3.03626e-18
9453.53373 2.98925e-18
9454.39520 2.94259e-18
9455.25666 3.02263e-18
9456.11812 3.10303e-18
9456.98960 3.29070e-18
9457.85106 3.47866e-18
9458.71252 3.71777e-18
9459.57398 3.95701e-18
9460.43545 4.13417e-18
9461.29691 4.31114e-18
9462.15837 4.35804e-18
9463.01983 4.40456e-18
9463.88129 4.37458e-18
9464.74276 4.34437e-18
9465.60422 4.29330e-18
9466.47570 4.24218e-18
9467.33716 4.20431e-18
9468.19862 4.16647e-18
9469.06008 4.16934e-18
9469.92155 4.17232e-18
9470.78301 4.17369e-18
9471.64447 4.17506e-18
9472.50593 4.12995e-18
9473.36739 4.08472e-18
9474.22885 4.02130e-18
9475.09032 3.95783e-18
9475.96180 3.91441e-18
9476.82326 3.87104e-18
9477.68472 3.92703e-18
9478.54618 3.98330e-18
9479.40764 4.22823e-18
9480.26911 4.47371e-18
9481.13057 4.81035e-18
9481.99203 5.14726e-18
9482.85349 5.38752e-18
9483.71495 5.62748e-18
9484.57642 5.67220e-18
9485.43788 5.71635e-18
9486.30936 5.53083e-18
9487.17082 5.34463e-18
9488.03228 5.00440e-18
9488.89374 4.66374e-18
9489.75520 4.36777e-18
9490.61667 4.07194e-18
9491.47813 3.94746e-18
9492.33959 3.82348e-18
9493.20105 3.86815e-18
9494.06252 3.91332e-18
9494.92398 4.12652e-18
9495.79546 4.34019e-18
9496.65692 4.74906e-18
9497.51838 5.15849e-18
9498.37984 5.71993e-18
9499.24130 6.28181e-18
9500.10277 6.77613e-18
9500.96423 7.27025e-18
9501.82569 7.50742e-18
9502.68715 7.74383e-18
9503.54861 7.69381e-18
9504.41008 7.64295e-18
9505.28155 7.32513e-18
9506.14302 7.00654e-18
9507.00448 6.58601e-18
9507.86594 6.16520e-18
9508.72740 5.83832e-18
9509.58887 5.51172e-18
9510.45033 5.29773e-18
9511.31179 5.08408e-18
9512.17325 4.94418e-18
9513.03471 4.80449e-18
9513.89617 4.77688e-18
9514.75764 4.74960e-18
9515.62912 4.88896e-18
9516.49058 5.02881e-18
9517.35204 5.31919e-18
9518.21350 5.61001e-18
9519.07496 5.99779e-18
9519.93643 6.38586e-18
9520.79789 6.77666e-18
9521.65935 7.16746e-18
9522.52081 7.43124e-18
9523.38227 7.69464e-18
9524.24374 7.78761e-18
9525.11522 7.88008e-18
9525.97668 7.87057e-18
9526.83814 7.86076e-18
9527.69960 7.81175e-18
9528.56106 7.76263e-18
9529.42252 7.72390e-18
9530.28399 7.68521e-18
9531.14545 7.68467e-18
9532.00691 7.68425e-18
9532.86837 7.67770e-18
9533.72984 7.67113e-18
9534.60131 7.62125e-18
9535.46278 7.57122e-18
9536.32424 7.46669e-18
9537.18570 7.36199e-18
9538.04716 7.20882e-18
9538.90862 7.05550e-18
9539.77009 6.99347e-18
9540.63155 6.93170e-18
9541.49301 7.09277e-18
9542.35447 7.25448e-18
9543.21593 7.54411e-18
9544.08741 7.83410e-18
9544.94888 8.11160e-18
9545.81034 8.38904e-18
9546.67180 8.51713e-18
9547.53326 8.64474e-18
9548.39472 8.48263e-18
9549.25619 8.31972e-18
9550.11765 8.03070e-18
9550.97911 7.74133e-18
9551.84057 7.65414e-18
9552.70203 7.56754e-18
9553.57351 7.70452e-18
9554.43497 7.84214e-18
9555.29644 8.00897e-18
9556.15790 8.17584e-18
9557.01936 8.24159e-18
9557.88082 8.30703e-18
9558.74228 8.18449e-18
9559.60375 8.06147e-18
9560.46521 7.80475e-18
9561.32667 7.54768e-18
9562.18813 7.45355e-18
9563.05961 7.35992e-18
9563.92107 7.58151e-18
9564.78254 7.80402e-18
9565.64400 8.18370e-18
9566.50546 8.56384e-18
9567.36692 8.93202e-18
9568.22838 9.30011e-18
9569.08985 9.45437e-18
9569.95131 9.60808e-18
9570.81277 9.40916e-18
9571.67423 9.20922e-18
9572.53569 8.83240e-18
9573.40717 8.45511e-18
9574.26863 8.10867e-18
9575.13010 7.76238e-18
9575.99156 7.58558e-18
9576.85302 7.40929e-18
9577.71448 7.51208e-18
9578.57594 7.61569e-18
9579.43741 7.82525e-18
9580.29887 8.03506e-18
9581.16033 8.09891e-18
9582.02179 8.16236e-18
9582.89327 8.04712e-18
9583.75473 7.93140e-18
9584.61620 7.68661e-18
9585.47766 7.44140e-18
9586.33912 7.24358e-18
9587.20058 7.04589e-18
9588.06204 7.16383e-18
9588.92351 7.28271e-18
9589.78497 7.68277e-18
9590.64643 8.08368e-18
9591.51791 8.45748e-18
9592.37937 8.83129e-18
9593.24083 9.01260e-18
9594.10229 9.19343e-18
9594.96376 9.19819e-18
9595.82522 9.20247e-18
9596.68668 9.06415e-18
9597.54814 8.92543e-18
9598.40960 8.72199e-18
9599.27107 8.51848e-18
9600.13253 8.33606e-18
9600.99399 8.15364e-18
9601.86547 8.06028e-18
9602.72693 7.96717e-18
9603.58839 8.00730e-18
9604.44986 8.04791e-18
9605.31132 8.21415e-18
9606.17278 8.38079e-18
9607.03424 8.63570e-18
9607.89570 8.89077e-18
9608.75717 9.07224e-18
9609.61863 9.25347e-18
9610.48009 9.20525e-18
9611.35157 9.15631e-18
9612.21303 8.94463e-18
9613.07449 8.73254e-18
9613.93595 8.48239e-18
9614.79742 8.23208e-18
9615.65888 8.03030e-18
9616.52034 7.82863e-18
9617.38180 7.74766e-18
9618.24326 7.66705e-18
9619.10473 7.72550e-18
9619.96619 7.78435e-18
9620.82765 7.96209e-18
9621.69913 8.14023e-18
9622.56059 8.37317e-18
9623.42205 8.60628e-18
9624.28352 8.80519e-18
9625.14498 9.00403e-18
9626.00644 9.08390e-18
9626.86790 9.16337e-18
9627.72936 9.04448e-18
9628.59083 8.92504e-18
9629.45229 8.63078e-18
9630.31375 8.33606e-18
9631.17521 8.04061e-18
9632.04669 7.74513e-18
9632.90815 7.58363e-18
9633.76961 7.42253e-18
9634.63108 7.44759e-18
9635.49254 7.47322e-18
9636.35400 7.67929e-18
9637.21546 7.88589e-18
9638.07692 8.07750e-18
9638.93839 8.26904e-18
9639.79985 8.28458e-18
9640.67133 8.29957e-18
9641.53279 8.23993e-18
9642.39425 8.18005e-18
9643.25571 8.16307e-18
9644.11718 8.14626e-18
9644.97864 8.20043e-18
9645.84010 8.25492e-18
9646.70156 8.39181e-18
9647.56302 8.52895e-18
9648.42448 8.65712e-18
9649.28595 8.78521e-18
9650.15743 8.78552e-18
9651.01889 8.78537e-18
9651.88035 8.65735e-18
9652.74181 8.52895e-18
9653.60327 8.32606e-18
9654.46474 8.12286e-18
9655.32620 7.91844e-18
9656.18766 7.71399e-18
9657.04912 7.59273e-18
9657.91058 7.47172e-18
9658.77205 7.48093e-18
9659.64352 7.49054e-18
9660.50499 7.64181e-18
9661.36645 7.79351e-18
9662.22791 8.03895e-18
9663.08937 8.28466e-18
9663.95083 8.49920e-18
9664.81230 8.71367e-18
9665.67376 8.82494e-18
9666.53522 8.93598e-18
9667.39668 8.98230e-18
9668.25815 9.02846e-18
9669.11961 9.03179e-18
9669.99109 9.03496e-18
9670.85255 8.95827e-18
9671.71401 8.88126e-18
9672.57547 8.71438e-18
9673.43693 8.54719e-18
9674.29840 8.35834e-18
9675.15986 8.16934e-18
9676.02132 8.02658e-18
9676.88278 7.88398e-18
9677.74424 7.83484e-18
9678.61572 7.78597e-18
9679.47718 7.86192e-18
9680.33865 7.93822e-18
9681.20011 8.07670e-18
9682.06157 8.21526e-18
9682.92303 8.32908e-18
9683.78449 8.44281e-18
9684.64596 8.50618e-18
9685.50742 8.56932e-18
9686.36888 8.57868e-18
9687.23034 8.58788e-18
9688.10182 8.55226e-18
9688.96328 8.51657e-18
9689.82475 8.45804e-18
9690.68621 8.39943e-18
9691.54767 8.32194e-18
9692.40913 8.24437e-18
9693.27059 8.13627e-18
9694.13206 8.02800e-18
9694.99352 7.90520e-18
9695.85498 7.78235e-18
9696.71644 7.68850e-18
9697.57790 7.59472e-18
9698.44938 7.55148e-18
9699.31084 7.50840e-18
9700.17231 7.50755e-18
9701.03377 7.50684e-18
9701.89523 7.53054e-18
9702.75669 7.55431e-18
9703.61816 7.56289e-18
9704.47962 7.57141e-18
9705.34108 7.53924e-18
9706.20254 7.50694e-18
9707.06400 7.45873e-18
9707.93548 7.41046e-18
9708.79694 7.37183e-18
9709.65841 7.33324e-18
9710.51987 7.31816e-18
9711.38133 7.30315e-18
9712.24279 7.32074e-18
9713.10425 7.33843e-18
9713.96572 7.36437e-18
9714.82718 7.39032e-18
9715.68864 7.39531e-18
9716.55010 7.40026e-18
9717.41156 7.37593e-18
9718.28304 7.35153e-18
9719.14451 7.29452e-18
9720.00597 7.23740e-18
9720.86743 7.17820e-18
9721.72889 7.11900e-18
9722.59035 7.10450e-18
9723.45182 7.09015e-18
9724.31328 7.09978e-18
9725.17474 7.10949e-18
9726.03620 7.08204e-18
9726.89766 7.05447e-18
9727.76914 6.96826e-18
9728.63060 6.88188e-18
9729.49207 6.74830e-18
9730.35353 6.61458e-18
9731.21499 6.46212e-18
9732.07645 6.30961e-18
9732.93791 6.19069e-18
9733.79938 6.07188e-18
9734.66084 6.01915e-18
9735.52230 5.96662e-18
9736.38376 5.97374e-18
9737.25524 5.98103e-18
9738.11670 6.03328e-18
9738.97817 6.08568e-18
9739.83963 6.15416e-18
9740.70109 6.22269e-18
9741.56255 6.27880e-18
9742.42401 6.33487e-18
9743.28548 6.36345e-18
9744.14694 6.39195e-18
9745.00840 6.38401e-18
9745.86986 6.37597e-18
9746.74134 6.34370e-18
9747.60280 6.31137e-18
9748.46426 6.27151e-18
9749.32573 6.23162e-18
9750.18719 6.18814e-18
9751.04865 6.14463e-18
9751.91011 6.09961e-18
9752.77157 6.05459e-18
9753.63304 6.00656e-18
9754.49450 5.95852e-18
9755.35596 5.90436e-18
9756.22744 5.85018e-18
9757.08890 5.80117e-18
9757.95036 5.75217e-18
9758.81183 5.72496e-18
9759.67329 5.69781e-18
9760.53475 5.70528e-18
9761.39621 5.71284e-18
9762.25767 5.76603e-18
9763.11913 5.81936e-18
9763.98060 5.90153e-18
9764.84206 5.98378e-18
9765.71354 6.04777e-18
9766.57500 6.11170e-18
9767.43646 6.13439e-18
9768.29792 6.15694e-18
9769.15939 6.15348e-18
9770.02085 6.14994e-18
9770.88231 6.13325e-18
9771.74377 6.11652e-18
9772.60523 6.09306e-18
9773.46670 6.06959e-18
9774.32816 6.04755e-18
9775.19964 6.02550e-18
9776.06110 6.01135e-18
9776.92256 5.99721e-18
9777.78402 5.99527e-18
9778.64548 5.99337e-18
9779.50695 6.00915e-18
9780.36841 6.02499e-18
9781.22987 6.06002e-18
9782.09133 6.09512e-18
9782.95280 6.11908e-18
9783.81426 6.14300e-18
9784.68574 6.12292e-18
9785.54720 6.10269e-18
9786.40866 6.05454e-18
9787.27012 6.00631e-18
9788.13158 5.96013e-18
9788.99305 5.91395e-18
9789.85451 5.88031e-18
9790.71597 5.84671e-18
9791.57743 5.83002e-18
9792.43889 5.81337e-18
9793.30036 5.80236e-18
9794.16182 5.79137e-18
9795.03330 5.76237e-18
9795.89476 5.73331e-18
9796.75622 5.69321e-18
9797.61768 5.65310e-18
9798.47915 5.63651e-18
9799.34061 5.62000e-18
9800.20207 5.63848e-18
9801.06353 5.65707e-18
9801.92499 5.69422e-18
9802.78645 5.73143e-18
9803.64792 5.77069e-18
9804.51940 5.80996e-18
9805.38086 5.83193e-18
9806.24232 5.85385e-18
9807.10378 5.84910e-18
9807.96524 5.84427e-18
9808.82671 5.83143e-18
9809.68817 5.81857e-18
9810.54963 5.81538e-18
9811.41109 5.81221e-18
9812.27255 5.82988e-18
9813.13402 5.84760e-18
9813.99548 5.89132e-18
9814.86696 5.93513e-18
9815.72842 5.97379e-18
9816.58988 6.01244e-18
9817.45134 6.01300e-18
9818.31280 6.01346e-18
9819.17427 5.98031e-18
9820.03573 5.94707e-18
9820.89719 5.89413e-18
9821.75865 5.84112e-18
9822.62012 5.78879e-18
9823.48158 5.73645e-18
9824.35306 5.70850e-18
9825.21452 5.68062e-18
9826.07598 5.67358e-18
9826.93744 5.66660e-18
9827.79890 5.66123e-18
9828.66037 5.65587e-18
9829.52183 5.64742e-18
9830.38329 5.63896e-18
9831.24475 5.63312e-18
9832.10621 5.62729e-18
9832.97769 5.62275e-18
9833.83915 5.61821e-18
9834.70062 5.60750e-18
9835.56208 5.59677e-18
9836.42354 5.57643e-18
9837.28500 5.55606e-18
9838.14647 5.52812e-18
9839.00793 5.50016e-18
9839.86939 5.46689e-18
9840.73085 5.43360e-18
9841.59231 5.39618e-18
9842.45377 5.35874e-18
9843.32525 5.32144e-18
9844.18672 5.28413e-18
9845.04818 5.26017e-18
9845.90964 5.23624e-18
9846.77110 5.23603e-18
9847.63256 5.23588e-18
9848.49403 5.25619e-18
9849.35549 5.27656e-18
9850.21695 5.31148e-18
9851.07841 5.34645e-18
9851.93987 5.39032e-18
9852.81135 5.43423e-18
9853.67282 5.48039e-18
9854.53428 5.52655e-18
9855.39574 5.57078e-18
9856.25720 5.61499e-18
9857.11866 5.65416e-18
9857.98013 5.69332e-18
9858.84159 5.71906e-18
9859.70305 5.74476e-18
9860.56451 5.74747e-18
9861.42597 5.75012e-18
9862.29745 5.72851e-18
9863.15891 5.70682e-18
9864.02038 5.66500e-18
9864.88184 5.62312e-18
9865.74330 5.56872e-18
9866.60476 5.51427e-18
9867.46622 5.45820e-18
9868.32769 5.40213e-18
9869.18915 5.35066e-18
9870.05061 5.29920e-18
9870.92209 5.25160e-18
9871.78355 5.20401e-18
9872.64501 5.16109e-18
9873.50648 5.11819e-18
9874.36794 5.08364e-18
9875.22940 5.04912e-18
9876.09086 5.02584e-18
9876.95232 5.00260e-18
9877.81379 4.99327e-18
9878.67525 4.98399e-18
9879.53671 4.98984e-18
9880.39817 4.99573e-18
9881.26965 5.01489e-18
9882.13111 5.03410e-18
9882.99257 5.06313e-18
9883.85404 5.09219e-18
9884.71550 5.12482e-18
9885.57696 5.15746e-18
9886.43842 5.18689e-18
9887.29988 5.21630e-18
9888.16135 5.23616e-18
9889.02281 5.25598e-18
9889.88427 5.26094e-18
9890.74573 5.26584e-18
9891.61721 5.25576e-18
9892.47867 5.24564e-18
9893.34014 5.22322e-18
9894.20160 5.20076e-18
9895.06306 5.16888e-18
9895.92452 5.13697e-18
9896.78598 5.09867e-18
9897.64745 5.06035e-18
9898.50891 5.02061e-18
9899.37037 4.98085e-18
9900.23183 4.94625e-18
9901.09329 4.91166e-18
9901.96477 4.88328e-18
9902.82623 4.85492e-18
9903.68770 4.82718e-18
9904.54916 4.79944e-18
9905.41062 4.77362e-18
9906.27208 4.74780e-18
9907.13354 4.73608e-18
9907.99501 4.72439e-18
9908.85647 4.73254e-18
9909.71793 4.74076e-18
9910.57939 4.76325e-18
9911.45087 4.78578e-18
9912.31233 4.81357e-18
9913.17380 4.84137e-18
9914.03526 4.85533e-18
9914.89672 4.86926e-18
9915.75818 4.85423e-18
9916.61964 4.83912e-18
9917.48111 4.80041e-18
9918.34257 4.76162e-18
9919.20403 4.70850e-18
9920.07551 4.65534e-18
9920.93697 4.59834e-18
9921.79843 4.54134e-18
9922.65989 4.49119e-18
9923.52136 4.44107e-18
9924.38282 4.40248e-18
9925.24428 4.36392e-18
9926.10574 4.33872e-18
9926.96720 4.31356e-18
9927.82867 4.29477e-18
9928.69013 4.27600e-18
9929.56161 4.25253e-18
9930.42307 4.22904e-18
9931.28453 4.19728e-18
9932.14599 4.16549e-18
9933.00746 4.12702e-18
9933.86892 4.08852e-18
9934.73038 4.04659e-18
9935.59184 4.00466e-18
9936.45330 3.96400e-18
9937.31477 3.92335e-18
9938.17623 3.89019e-18
9939.03769 3.85706e-18
9939.90917 3.83924e-18
9940.77063 3.82147e-18
9941.63209 3.82113e-18
9942.49355 3.82084e-18
9943.35502 3.82988e-18
9944.21648 3.83893e-18
9945.07794 3.85035e-18
9945.93940 3.86176e-18
9946.80086 3.87378e-18
9947.66233 3.88580e-18
9948.52379 3.89639e-18
9949.39527 3.90698e-18
9950.25673 3.91226e-18
9951.11819 3.91753e-18
9951.97965 3.91500e-18
9952.84112 3.91245e-18
9953.70258 3.90714e-18
9954.56404 3.90181e-18
9955.42550 3.89924e-18
9956.28696 3.89667e-18
9957.14843 3.89314e-18
9958.00989 3.88960e-18
9958.88137 3.88002e-18
9959.74283 3.87041e-18
9960.60429 3.85217e-18
9961.46575 3.83391e-18
9962.32721 3.80533e-18
9963.18868 3.77672e-18
9964.05014 3.74636e-18
9964.91160 3.71600e-18
9965.77306 3.69814e-18
9966.63452 3.68033e-18
9967.49599 3.67833e-18
9968.36747 3.67638e-18
9969.22893 3.68473e-18
9970.09039 3.69311e-18
9970.95185 3.71095e-18
9971.81331 3.72882e-18
9972.67477 3.76024e-18
9973.53624 3.79170e-18
9974.39770 3.83501e-18
9975.25916 3.87834e-18
9976.12062 3.92426e-18
9976.98208 3.97017e-18
9977.85356 4.01132e-18
9978.71503 4.05245e-18
9979.57649 4.08530e-18
9980.43795 4.11813e-18
9981.29941 4.14145e-18
9982.16087 4.16474e-18
9983.02234 4.18349e-18
9983.88380 4.20222e-18
9984.74526 4.22139e-18
9985.60672 4.24057e-18
9986.46818 4.26266e-18
9987.32965 4.28475e-18
9988.20112 4.31104e-18
9989.06259 4.33734e-18
9989.92405 4.35857e-18
9990.78551 4.37979e-18
9991.64697 4.38546e-18
9992.50843 4.39108e-18
9993.36990 4.38907e-18
9994.23136 4.38704e-18
9995.09282 4.39083e-18
9995.95428 4.39463e-18
9996.81574 4.40191e-18
9997.67721 4.40921e-18
9998.54869 4.41141e-18
9999.41015 4.41358e-18
