# wavelength flux
3475.99718 6.49340e-18
3477.46536 1.54715e-17
3478.94359 5.58813e-18
3480.41177 2.13931e-18
3481.87994 9.57076e-18
3483.34812 1.09292e-17
3484.81630 5.44673e-18
3486.29453 -5.48635e-19
3487.76270 1.59771e-18
3489.23088 4.90384e-18
3490.69906 6.88721e-18
3492.16723 6.03178e-18
3493.63541 5.62441e-18
3495.11364 5.41668e-18
3496.58182 4.46718e-18
3498.04999 2.28235e-18
3499.51817 7.46213e-18
3500.98634 9.33854e-18
3502.46458 1.10054e-17
3503.93275 7.95108e-18
3505.40093 1.07050e-17
3506.86910 1.20384e-17
3508.33728 1.25163e-17
3509.80546 6.65390e-18
3511.28369 7.10311e-18
3512.75186 4.89877e-18
3514.22004 1.12140e-18
3515.68822 5.60992e-18
3517.15639 3.41000e-18
3518.63462 1.42688e-18
3520.10280 8.12189e-18
3521.57098 9.23100e-18
3523.03915 4.56444e-18
3524.50733 4.38642e-19
3525.97550 -4.17837e-18
3527.45374 -2.24969e-18
3528.92191 7.63103e-18
3530.39009 7.37850e-18
3531.85826 6.08200e-18
3533.32644 8.21980e-18
3534.80467 -3.66755e-18
3536.27285 1.27085e-18
3537.74102 1.29813e-17
3539.20920 1.10681e-17
3540.67738 9.21344e-18
3542.14555 8.67888e-18
3543.62378 -2.20113e-18
3545.09196 -1.14368e-18
3546.56014 5.75114e-18
3548.02831 6.03336e-18
3549.49649 1.07554e-18
3550.97472 4.33854e-18
3552.44290 7.74786e-18
3553.91107 3.83796e-18
3555.37925 7.62310e-19
3556.84742 -8.56097e-19
3558.31560 8.44944e-18
3559.79383 1.17283e-17
3561.26201 3.98380e-18
3562.73018 4.98509e-18
3564.19836 1.17733e-17
3565.66654 1.12508e-17
3567.14477 1.07738e-17
3568.61294 1.21937e-17
3570.08112 5.50607e-18
3571.54930 1.11658e-17
3573.01747 1.34150e-17
3574.48565 1.06749e-17
3575.96388 5.15034e-18
3577.43206 5.07496e-18
3578.90023 6.24872e-18
3580.36841 5.50727e-18
3581.83658 6.46222e-18
3583.31482 4.89283e-18
3584.78299 1.33640e-18
3586.25117 2.84204e-18
3587.71934 1.08463e-17
3589.18752 1.22089e-17
3590.65570 5.72856e-18
3592.13393 4.23665e-18
3593.60210 5.08285e-18
3595.07028 1.37002e-17
3596.53846 1.25996e-17
3598.00663 7.81470e-18
3599.48486 6.46923e-18
3600.95304 1.88561e-18
3602.42122 8.80565e-18
3603.88939 9.42740e-18
3605.35757 4.44763e-18
3606.82574 9.54075e-19
3608.30398 6.45963e-19
3609.77215 5.85361e-19
3611.24033 7.16807e-18
3612.70850 7.03146e-18
3614.17668 2.83039e-18
3615.65491 8.23387e-18
3617.12309 6.29845e-18
3618.59126 5.87410e-18
3620.05944 8.64592e-18
3621.52762 5.01336e-18
3622.99579 1.04293e-17
3624.47402 1.42509e-17
3625.94220 1.60865e-17
3627.41038 1.39746e-17
3628.87855 1.32056e-17
3630.34673 9.74794e-18
3631.82496 1.81848e-18
3633.29314 1.40832e-18
3634.76131 5.13258e-18
3636.22949 5.24290e-18
3637.69766 1.24394e-17
3639.16584 1.38719e-17
3640.64407 2.35438e-18
3642.11225 -5.02514e-18
3643.58042 5.29738e-18
3645.04860 8.30247e-18
3646.51678 3.42952e-18
3647.99501 -2.53245e-19
3649.46318 3.36672e-18
3650.93136 1.63176e-18
3652.39954 1.60746e-18
3653.86771 8.17064e-18
3655.33589 8.06705e-18
3656.81412 5.44207e-18
3658.28230 6.25228e-18
3659.75047 5.86469e-18
3661.21865 9.53127e-19
3662.68682 -2.41674e-18
3664.15500 4.88303e-18
3665.63323 9.61391e-18
3667.10141 3.46871e-18
3668.56958 2.00417e-18
3670.03776 5.91286e-18
3671.50594 5.39485e-18
3672.98417 2.76644e-18
3674.45234 4.44746e-18
3675.92052 3.57612e-18
3677.38870 1.30488e-19
3678.85687 4.27629e-18
3680.33510 9.18514e-18
3681.80328 1.18295e-17
3683.27146 8.10032e-18
3684.73963 8.28633e-18
3686.20781 1.68204e-18
3687.67598 3.35197e-18
3689.15422 7.17211e-18
3690.62239 6.36719e-18
3692.09057 3.01443e-18
3693.55874 3.63837e-18
3695.02692 8.25154e-18
3696.50515 7.01194e-18
3697.97333 1.14856e-18
3699.44150 5.14775e-18
3700.90968 1.07035e-17
3702.37786 8.26867e-18
3703.84603 6.77799e-18
3705.32426 1.05790e-17
3706.79244 1.23462e-17
3708.26062 8.70200e-18
3709.72879 1.01983e-17
3711.19697 1.24428e-17
3712.66514 9.11350e-18
3714.14338 8.14754e-18
3715.61155 9.46787e-18
3717.07973 1.00771e-17
3718.54790 1.01116e-17
3720.01608 8.46932e-18
3721.49431 7.08264e-18
3722.96249 6.33893e-18
3724.43066 3.98180e-18
3725.89884 4.60711e-18
3727.36702 8.18991e-19
3728.83519 8.49348e-19
3730.31342 8.79706e-19
3731.78160 1.14217e-18
3733.24978 1.40460e-18
3734.71795 1.66704e-18
3736.18613 1.92940e-18
3737.66436 2.19177e-18
3739.13254 2.45407e-18
3740.60071 2.71643e-18
3742.06889 2.97866e-18
3743.53706 3.24091e-18
3745.00524 3.50308e-18
3746.48347 3.76526e-18
3747.95165 4.02736e-18
3749.41982 4.28948e-18
3750.88800 4.55153e-18
3752.35618 4.81363e-18
3753.83441 5.07561e-18
3755.30258 5.33756e-18
3756.77076 5.59953e-18
3758.23894 5.86141e-18
3759.70711 6.12332e-18
3761.17529 6.38514e-18
3762.65352 6.64699e-18
3764.12170 6.90880e-18
3765.58987 7.17058e-18
3767.05805 7.43228e-18
3768.52622 7.69400e-18
3770.00446 1.03435e-17
3771.47263 6.14104e-18
3772.94081 5.99834e-18
3774.40898 4.91659e-18
3775.87716 3.74194e-18
3777.34534 4.72761e-18
3778.82357 8.97581e-18
3780.29174 9.29242e-18
3781.75992 1.27134e-17
3783.22810 8.79034e-18
3784.69627 2.77559e-18
3786.17450 5.46597e-18
3787.64268 8.89143e-18
3789.11086 6.40959e-18
3790.57903 2.13724e-18
3792.04721 3.27905e-19
3793.51538 2.79689e-18
3794.99362 5.18162e-18
3796.46179 5.50149e-18
3797.92997 7.27799e-18
3799.39814 6.63394e-18
3800.86632 5.25460e-18
3802.34455 1.06678e-17
3803.81273 6.14286e-18
3805.28090 2.80511e-18
3806.74908 9.83593e-18
3808.21726 8.70268e-18
3809.68543 2.76025e-18
3811.16366 1.67428e-18
3812.63184 3.94739e-18
3814.10002 5.72209e-18
3815.56819 5.73147e-18
3817.03637 8.64981e-18
3818.51460 8.73383e-18
3819.98278 3.94679e-18
3821.45095 3.41992e-18
3822.91913 3.77072e-18
3824.38730 3.36535e-18
3825.85548 3.77231e-18
3827.33371 5.61119e-18
3828.80189 7.89730e-18
3830.27006 5.64276e-18
3831.73824 5.19749e-18
3833.20642 5.36228e-18
3834.68465 4.99333e-18
3836.15282 7.89531e-18
3837.62100 9.20993e-18
3839.08918 8.60449e-18
3840.55735 6.68955e-18
3842.02553 6.73883e-18
3843.50376 8.83228e-18
3844.97194 9.26088e-18
3846.44011 6.70900e-18
3847.90829 7.47507e-18
3849.37646 8.80589e-18
3850.85470 7.80945e-18
3852.32287 7.33084e-18
3853.79105 6.54500e-18
3855.25922 4.73883e-18
3856.72740 5.17446e-18
3858.19558 8.18894e-18
3859.67381 7.18008e-18
3861.14198 7.54631e-18
3862.61016 7.03181e-18
3864.07834 5.36192e-18
3865.54651 5.83111e-18
3867.02474 5.76367e-18
3868.49292 7.74755e-18
3869.96110 5.98865e-18
3871.42927 7.25250e-18
3872.89745 9.43324e-18
3874.36562 9.23081e-18
3875.84386 9.93074e-18
3877.31203 8.84404e-18
3878.78021 5.21719e-18
3880.24838 7.22706e-18
3881.71656 8.36806e-18
3883.19479 8.33645e-18
3884.66297 8.42551e-18
3886.13114 1.02604e-17
3887.59932 9.40864e-18
3889.06750 7.70101e-18
3890.53567 7.14403e-18
3892.01390 6.61036e-18
3893.48208 8.67350e-18
3894.95026 1.13289e-17
3896.41843 1.16978e-17
3897.88661 6.88342e-18
3899.36484 5.53157e-18
3900.83302 6.43143e-18
3902.30119 5.20578e-18
3903.76937 5.09371e-18
3905.23754 9.60240e-18
3906.70572 8.38632e-18
3908.18395 7.93161e-18
3909.65213 9.99177e-18
3911.12030 1.04784e-17
3912.58848 7.85121e-18
3914.05666 5.83257e-18
3915.53489 6.68209e-18
3917.00306 4.80004e-18
3918.47124 5.50013e-18
3919.93942 4.18123e-18
3921.40759 4.62984e-18
3922.87577 8.63209e-18
3924.35400 5.44513e-18
3925.82218 2.33712e-18
3927.29035 4.52074e-18
3928.75853 7.78504e-18
3930.22670 8.64230e-18
3931.70494 5.55364e-18
3933.17311 5.94456e-18
3934.64129 9.93601e-18
3936.10946 9.91408e-18
3937.57764 6.83526e-18
3939.04582 8.54191e-18
3940.52405 1.32353e-17
3941.99222 1.13725e-17
3943.46040 8.15191e-18
3944.92858 1.07156e-17
3946.39675 1.19702e-17
3947.87498 7.79598e-18
3949.34316 6.14458e-18
3950.81134 6.94245e-18
3952.27951 4.54788e-18
3953.74769 8.10359e-18
3955.21586 8.34983e-18
3956.69410 6.63361e-18
3958.16227 9.87921e-18
3959.63045 7.30429e-18
3961.09862 5.41613e-18
3962.56680 9.37256e-18
3964.04503 1.22751e-17
3965.51321 1.15201e-17
3966.98138 7.23598e-18
3968.44956 3.94949e-18
3969.91774 6.32726e-18
3971.38591 1.00289e-17
3972.86414 1.23142e-17
3974.33232 1.17624e-17
3975.80050 9.06689e-18
3977.26867 6.89908e-18
3978.73685 6.35984e-18
3980.20502 7.57141e-18
3981.68326 1.11616e-17
3983.15143 1.00238e-17
3984.61961 7.12278e-18
3986.08778 7.92951e-18
3987.55596 8.13463e-18
3989.03419 6.19309e-18
3990.50237 6.82425e-18
3991.97054 6.08508e-18
3993.43872 6.65865e-18
3994.90690 5.85361e-18
3996.37507 5.75931e-18
3997.85330 1.00101e-17
3999.32148 9.71006e-18
4000.78966 6.49974e-18
4002.25783 7.87629e-18
4003.72601 9.86977e-18
4005.20424 1.03215e-17
4006.67242 9.22565e-18
4008.14059 8.17215e-18
4009.60877 1.23730e-17
4011.07694 1.02616e-17
4012.55518 8.13299e-18
4014.02335 9.63417e-18
4015.49153 8.10767e-18
4016.95970 7.94376e-18
4018.42788 1.09916e-17
4019.89606 1.06953e-17
4021.37429 9.09894e-18
4022.84246 1.06152e-17
4024.31064 8.58208e-18
4025.77882 8.20254e-18
4027.24699 1.08792e-17
4028.71517 1.12747e-17
4030.19340 8.95019e-18
4031.66158 9.34906e-18
4033.12975 9.08413e-18
4034.59793 1.07243e-17
4036.06610 8.15223e-18
4037.54434 7.56964e-18
4039.01251 1.12667e-17
4040.48069 1.12273e-17
4041.94886 6.14171e-18
4043.41704 7.82097e-18
4044.88522 1.13760e-17
4046.36345 1.22059e-17
4047.83162 1.13135e-17
4049.29980 9.18501e-18
4050.76798 9.11936e-18
4052.23615 9.84155e-18
4053.71438 7.72787e-18
4055.18256 7.29410e-18
4056.65074 5.98309e-18
4058.11891 8.01020e-18
4059.58709 1.18007e-17
4061.05526 1.01281e-17
4062.53350 1.00450e-17
4064.00167 1.14807e-17
4065.46985 8.01282e-18
4066.93802 7.72836e-18
4068.40620 9.60709e-18
4069.88443 8.48573e-18
4071.35261 9.46698e-18
4072.82078 1.10871e-17
4074.28896 9.12203e-18
4075.75714 8.35782e-18
4077.22531 8.78002e-18
4078.70354 8.25851e-18
4080.17172 7.88385e-18
4081.63990 8.81038e-18
4083.10807 9.91345e-18
4084.57625 9.16532e-18
4086.05448 9.09915e-18
4087.52266 9.61544e-18
4088.99083 8.76087e-18
4090.45901 7.88544e-18
4091.92718 9.55380e-18
4093.39536 1.00376e-17
4094.87359 8.03374e-18
4096.34177 6.56357e-18
4097.80994 6.06063e-18
4099.27812 7.22021e-18
4100.74630 9.46883e-18
4102.22453 8.78429e-18
4103.69270 8.63834e-18
4105.16088 9.01562e-18
4106.62906 8.31849e-18
4108.09723 8.27522e-18
4109.56541 8.30235e-18
4111.04364 7.66552e-18
4112.51182 5.65502e-18
4113.97999 7.08528e-18
4115.44817 6.74412e-18
4116.91634 7.02799e-18
4118.39458 5.77584e-18
4119.86275 6.43205e-18
4121.33093 8.97606e-18
4122.79910 6.42691e-18
4124.26728 6.39136e-18
4125.73546 7.83505e-18
4127.21369 6.13605e-18
4128.68186 3.50606e-18
4130.15004 4.27386e-18
4131.61822 6.95837e-18
4133.08639 4.92386e-18
4134.56462 5.47666e-18
4136.03280 6.15011e-18
4137.50098 5.84174e-18
4138.96915 7.53613e-18
4140.43733 6.97776e-18
4141.90550 7.00557e-18
4143.38374 6.71401e-18
4144.85191 4.41309e-18
4146.32009 5.12194e-18
4147.78826 7.30786e-18
4149.25644 5.96831e-18
4150.73467 5.29808e-18
4152.20285 6.87185e-18
4153.67102 6.84397e-18
4155.13920 6.95425e-18
4156.60738 9.01295e-18
4158.07555 1.00709e-17
4159.55378 1.01029e-17
4161.02196 6.92524e-18
4162.49014 6.83409e-18
4163.95831 9.27036e-18
4165.42649 7.14928e-18
4166.90472 6.70478e-18
4168.37290 7.49853e-18
4169.84107 7.37781e-18
4171.30925 6.60525e-18
4172.77742 7.24040e-18
4174.24560 9.45048e-18
4175.72383 9.28603e-18
4177.19201 8.55363e-18
4178.66018 6.26656e-18
4180.12836 4.76834e-18
4181.59654 5.34689e-18
4183.07477 5.98813e-18
4184.54294 8.23430e-18
4186.01112 9.88678e-18
4187.47930 7.63358e-18
4188.94747 6.33190e-18
4190.41565 7.33829e-18
4191.89388 6.59717e-18
4193.36206 7.83498e-18
4194.83023 7.80823e-18
4196.29841 4.89494e-18
4197.76658 6.31301e-18
4199.24482 6.62991e-18
4200.71299 3.32380e-18
4202.18117 5.28788e-18
4203.64934 9.67277e-18
4205.11752 9.98876e-18
4206.58570 8.34074e-18
4208.06393 6.88214e-18
4209.53210 6.46534e-18
4211.00028 7.73471e-18
4212.46846 8.44716e-18
4213.93663 8.25102e-18
4215.41486 8.34718e-18
4216.88304 8.78689e-18
4218.35122 8.23557e-18
4219.81939 9.02604e-18
4221.28757 9.91523e-18
4222.75574 6.91058e-18
4224.23398 5.19586e-18
4225.70215 6.09917e-18
4227.17033 6.76819e-18
4228.63850 6.72695e-18
4230.10668 8.37539e-18
4231.58491 1.04199e-17
4233.05309 8.64916e-18
4234.52126 8.95814e-18
4235.98944 9.63556e-18
4237.45762 9.26828e-18
4238.92579 8.02100e-18
4240.40402 7.50332e-18
4241.87220 7.74686e-18
4243.34038 8.93200e-18
4244.80855 1.14582e-17
4246.27673 1.09311e-17
4247.75496 9.33282e-18
4249.22314 8.02943e-18
4250.69131 8.29248e-18
4252.15949 7.71851e-18
4253.62766 6.82820e-18
4255.09584 4.69096e-18
4256.57407 4.19267e-18
4258.04225 8.11647e-18
4259.51042 7.56294e-18
4260.97860 5.06560e-18
4262.44678 7.50632e-18
4263.91495 9.91439e-18
4265.39318 7.99049e-18
4266.86136 7.05402e-18
4268.32954 1.03719e-17
4269.79771 1.10445e-17
4271.26589 9.91217e-18
4272.74412 8.76359e-18
4274.21230 7.64761e-18
4275.68047 6.91735e-18
4277.14865 7.42019e-18
4278.61682 7.79042e-18
4280.08500 7.36471e-18
4281.56323 6.86568e-18
4283.03141 7.73059e-18
4284.49958 8.71151e-18
4285.96776 8.74065e-18
4287.43594 7.21909e-18
4288.91417 6.46075e-18
4290.38234 6.37622e-18
4291.85052 5.25039e-18
4293.31870 7.27085e-18
4294.78687 1.06828e-17
4296.25505 1.02471e-17
4297.73328 7.15293e-18
4299.20146 7.97237e-18
4300.66963 8.77224e-18
4302.13781 8.44016e-18
4303.60598 9.07511e-18
4305.08422 7.88637e-18
4306.55239 6.49560e-18
4308.02057 8.09277e-18
4309.48874 8.05335e-18
4310.95692 7.70945e-18
4312.43515 7.02187e-18
4313.90333 7.13782e-18
4315.37150 7.71466e-18
4316.83968 6.48252e-18
4318.30786 7.89235e-18
4319.77603 9.73249e-18
4321.25426 7.61596e-18
4322.72244 6.59347e-18
4324.19062 8.31353e-18
4325.65879 9.23544e-18
4327.12697 7.85150e-18
4328.60520 5.68936e-18
4330.07338 7.26335e-18
4331.54155 8.01155e-18
4333.00973 6.68651e-18
4334.47790 7.52407e-18
4335.94608 8.57619e-18
4337.42431 7.37491e-18
4338.89249 7.62953e-18
4340.36066 7.85548e-18
4341.82884 8.32845e-18
4343.29702 7.53674e-18
4344.76519 7.48541e-18
4346.24342 9.09792e-18
4347.71160 7.92567e-18
4349.17978 6.97603e-18
4350.64795 7.10513e-18
4352.11613 8.78654e-18
4353.59436 8.60160e-18
4355.06254 5.83136e-18
4356.53071 3.95016e-18
4357.99889 5.57793e-18
4359.46706 8.45696e-18
4360.93524 8.22043e-18
4362.41347 6.82992e-18
4363.88165 8.34589e-18
4365.34982 9.25292e-18
4366.81800 7.52392e-18
4368.28618 6.76934e-18
4369.76441 6.77402e-18
4371.23258 6.77869e-18
4372.70076 6.78336e-18
4374.16894 6.78803e-18
4375.63711 6.79270e-18
4377.10529 6.79737e-18
4378.58352 6.80204e-18
4380.05170 6.80671e-18
4381.51987 6.81138e-18
4382.98805 6.81605e-18
4384.45622 6.82071e-18
4385.93446 6.82538e-18
4387.40263 6.83004e-18
4388.87081 6.83470e-18
4390.33898 6.83937e-18
4391.80716 6.84403e-18
4393.27534 6.84869e-18
4394.75357 6.85335e-18
4396.22174 6.85801e-18
4397.68992 6.86267e-18
4399.15810 6.86733e-18
4400.62627 6.87198e-18
4402.10450 6.87664e-18
4403.57268 6.88130e-18
4405.04086 6.88595e-18
4406.50903 6.89061e-18
4407.97721 8.15170e-18
4409.45544 6.53689e-18
4410.92362 6.12177e-18
4412.39179 7.15821e-18
4413.85997 6.86790e-18
4415.32814 7.63330e-18
4416.79632 7.42212e-18
4418.27455 4.65302e-18
4419.74273 4.90861e-18
4421.21090 7.00867e-18
4422.67908 6.44600e-18
4424.14726 6.88583e-18
4425.61543 7.79285e-18
4427.09366 7.19922e-18
4428.56184 7.15179e-18
4430.03002 8.60695e-18
4431.49819 9.19511e-18
4432.96637 8.10236e-18
4434.44460 6.39727e-18
4435.91278 6.79059e-18
4437.38095 9.97514e-18
4438.84913 9.49078e-18
4440.31730 6.61015e-18
4441.78548 5.96568e-18
4443.26371 6.63792e-18
4444.73189 6.97107e-18
4446.20006 7.23695e-18
4447.66824 7.81109e-18
4449.13642 6.47620e-18
4450.61465 5.27769e-18
4452.08282 5.89025e-18
4453.55100 6.45720e-18
4455.01918 8.14420e-18
4456.48735 9.49593e-18
4457.95553 1.00745e-17
4459.43376 1.13348e-17
4460.90194 9.89925e-18
4462.37011 8.66128e-18
4463.83829 9.02688e-18
4465.30646 8.26722e-18
4466.78470 8.46798e-18
4468.25287 9.25454e-18
4469.72105 8.41852e-18
4471.18922 7.10677e-18
4472.65740 8.06258e-18
4474.12558 8.14820e-18
4475.60381 6.24806e-18
4477.07198 5.66669e-18
4478.54016 7.29855e-18
4480.00834 1.06915e-17
4481.47651 1.01789e-17
4482.95474 7.15171e-18
4484.42292 6.27633e-18
4485.89110 6.21124e-18
4487.35927 5.80566e-18
4488.82745 5.93896e-18
4490.29562 7.60556e-18
4491.77386 8.84740e-18
4493.24203 9.47850e-18
4494.71021 8.32608e-18
4496.17838 6.73091e-18
4497.64656 6.16266e-18
4499.12479 6.51064e-18
4500.59297 7.59746e-18
4502.06114 8.37781e-18
4503.52932 8.76183e-18
4504.99750 7.76758e-18
4506.46567 6.14586e-18
4507.94390 6.12557e-18
4509.41208 8.16822e-18
4510.88026 8.92136e-18
4512.34843 8.74640e-18
4513.81661 7.48384e-18
4515.29484 5.79547e-18
4516.76302 7.60969e-18
4518.23119 9.97321e-18
4519.69937 9.56933e-18
4521.16754 7.60556e-18
4522.63572 8.11990e-18
4524.11395 8.56584e-18
4525.58213 7.70305e-18
4527.05030 8.56742e-18
4528.51848 8.87714e-18
4529.98666 8.24219e-18
4531.46489 7.97458e-18
4532.93306 7.95829e-18
4534.40124 7.29057e-18
4535.86942 8.16258e-18
4537.33759 1.08805e-17
4538.80577 1.18484e-17
4540.28400 1.05643e-17
4541.75218 9.73891e-18
4543.22035 9.16734e-18
4544.68853 7.49310e-18
4546.15670 7.20807e-18
4547.63494 9.56454e-18
4549.10311 1.09600e-17
4550.57129 8.98784e-18
4552.03946 9.34219e-18
4553.50764 1.06672e-17
4554.97582 9.56700e-18
4556.45405 9.29191e-18
4557.92222 9.38489e-18
4559.39040 1.00679e-17
4560.85858 1.01973e-17
4562.32675 1.00641e-17
4563.79493 9.97807e-18
4565.27316 9.88109e-18
4566.74134 1.12712e-17
4568.20951 1.17993e-17
4569.67769 1.24009e-17
4571.14586 1.04196e-17
4572.62410 6.73371e-18
4574.09227 8.14869e-18
4575.56045 1.06155e-17
4577.02862 1.11891e-17
4578.49680 9.97018e-18
4579.97503 9.23134e-18
4581.44321 9.58647e-18
4582.91138 9.68744e-18
4584.37956 1.13903e-17
4585.84774 1.29165e-17
4587.31591 1.17525e-17
4588.79414 1.00619e-17
4590.26232 1.18207e-17
4591.73050 1.20813e-17
4593.19867 9.95159e-18
4594.66685 9.38209e-18
4596.14508 1.01094e-17
4597.61326 1.03793e-17
4599.08143 9.94283e-18
4600.54961 1.03920e-17
4602.01778 1.00944e-17
4603.48596 1.08088e-17
4604.96419 1.16333e-17
4606.43237 1.01622e-17
4607.90054 9.60746e-18
4609.36872 1.09741e-17
4610.83690 1.27680e-17
4612.30507 1.35580e-17
4613.78330 1.18244e-17
4615.25148 1.16232e-17
4616.71966 1.03995e-17
4618.18783 9.70426e-18
4619.65601 1.13307e-17
4621.13424 1.17228e-17
4622.60242 1.05554e-17
4624.07059 1.04586e-17
4625.53877 8.82357e-18
4627.00694 8.43731e-18
4628.48518 1.04305e-17
4629.95335 1.03628e-17
4631.42153 1.06658e-17
4632.88970 9.92881e-18
4634.35788 1.01753e-17
4635.82606 1.09212e-17
4637.30429 9.65958e-18
4638.77246 1.07707e-17
4640.24064 9.24865e-18
4641.70882 6.86318e-18
4643.17699 8.66175e-18
4644.64517 1.01149e-17
4646.12340 1.04202e-17
4647.59158 9.11564e-18
4649.05975 9.08252e-18
4650.52793 1.12253e-17
4651.99610 1.00325e-17
4653.47434 8.41420e-18
4654.94251 8.51103e-18
4656.41069 8.99467e-18
4657.87886 8.62331e-18
4659.34704 8.19492e-18
4660.81522 8.99715e-18
4662.29345 9.96167e-18
4663.76162 9.86399e-18
4665.22980 1.10423e-17
4666.69798 1.09109e-17
4668.16615 1.04986e-17
4669.64438 1.16995e-17
4671.11256 1.06273e-17
4672.58074 8.24934e-18
4674.04891 8.49751e-18
4675.51709 1.00545e-17
4676.98526 1.17757e-17
4678.46350 1.09583e-17
4679.93167 9.46439e-18
4681.39985 1.11298e-17
4682.86802 1.01949e-17
4684.33620 9.26777e-18
4685.81443 9.25982e-18
4687.28261 9.13074e-18
4688.75078 1.03734e-17
4690.21896 9.05441e-18
4691.68714 9.17289e-18
4693.15531 9.69338e-18
4694.63354 1.01770e-17
4696.10172 1.00330e-17
4697.56990 1.01965e-17
4699.03807 1.07715e-17
4700.50625 9.63124e-18
4701.98448 1.27370e-17
4703.45266 1.19517e-17
4704.92083 9.92011e-18
4706.38901 1.02758e-17
4707.85718 9.43748e-18
4709.32536 9.18390e-18
4710.80359 8.69850e-18
4712.27177 9.46356e-18
4713.73994 1.01101e-17
4715.20812 9.25040e-18
4716.67630 8.47974e-18
4718.15453 9.55037e-18
4719.62270 1.04715e-17
4721.09088 1.06250e-17
4722.55906 1.05555e-17
4724.02723 9.94462e-18
4725.49541 9.07499e-18
4726.97364 1.01802e-17
4728.44182 9.76567e-18
4729.90999 8.90522e-18
4731.37817 9.32064e-18
4732.84634 8.95766e-18
4734.32458 9.57500e-18
4735.79275 1.05592e-17
4737.26093 9.25176e-18
4738.72910 9.01543e-18
4740.19728 1.03221e-17
4741.66546 1.00574e-17
4743.14369 9.76332e-18
4744.61186 1.00651e-17
4746.08004 8.60068e-18
4747.54822 8.58555e-18
4749.01639 9.56232e-18
4750.49462 8.91228e-18
4751.96280 8.67509e-18
4753.43098 8.33806e-18
4754.89915 7.85874e-18
4756.36733 7.82533e-18
4757.83550 7.28716e-18
4759.31374 7.33741e-18
4760.78191 6.60388e-18
4762.25009 6.31895e-18
4763.71826 7.85295e-18
4765.18644 9.49253e-18
4766.66467 8.01487e-18
4768.13285 7.50219e-18
4769.60102 8.68987e-18
4771.06920 8.47948e-18
4772.53738 9.35616e-18
4774.00555 9.04171e-18
4775.48378 7.54960e-18
4776.95196 8.36183e-18
4778.42014 8.65592e-18
4779.88831 8.99529e-18
4781.35649 9.20489e-18
4782.83472 9.34035e-18
4784.30290 9.33358e-18
4785.77107 8.53417e-18
4787.23925 7.17412e-18
4788.70742 7.61432e-18
4790.17560 8.64595e-18
4791.65383 8.68684e-18
4793.12201 9.60741e-18
4794.59018 9.47959e-18
4796.05836 7.43042e-18
4797.52654 7.53007e-18
4799.00477 9.22575e-18
4800.47294 9.01805e-18
4801.94112 7.44736e-18
4803.40930 8.31992e-18
4804.87747 9.88890e-18
4806.34565 9.10112e-18
4807.82388 7.27557e-18
4809.29206 9.63348e-18
4810.76023 1.03257e-17
4812.22841 8.92698e-18
4813.69658 8.26474e-18
4815.17482 8.30194e-18
4816.64299 7.93192e-18
4818.11117 7.34448e-18
4819.57934 8.44368e-18
4821.04752 1.00955e-17
4822.51570 8.65692e-18
4823.99393 6.64802e-18
4825.46210 6.56287e-18
4826.93028 6.53602e-18
4828.39846 6.46861e-18
4829.86663 7.35044e-18
4831.34486 7.40407e-18
4832.81304 7.39324e-18
4834.28122 7.73313e-18
4835.74939 7.30308e-18
4837.21757 6.02155e-18
4838.68574 7.25612e-18
4840.16398 9.42833e-18
4841.63215 8.17810e-18
4843.10033 8.42248e-18
4844.56850 1.00197e-17
4846.03668 1.01277e-17
4847.51491 8.71366e-18
4848.98309 8.38074e-18
4850.45126 8.07649e-18
4851.91944 7.84113e-18
4853.38762 7.16111e-18
4854.85579 6.47970e-18
4856.33402 6.16918e-18
4857.80220 6.85828e-18
4859.27038 6.17924e-18
4860.73855 5.80949e-18
4862.20673 6.38772e-18
4863.68496 7.06700e-18
4865.15314 6.70824e-18
4866.62131 6.12854e-18
4868.08949 7.35937e-18
4869.55766 7.21564e-18
4871.02584 7.21067e-18
4872.50407 7.20570e-18
4873.97225 7.20072e-18
4875.44042 7.19575e-18
4876.90860 7.19078e-18
4878.37678 7.18581e-18
4879.85501 7.18084e-18
4881.32318 7.17587e-18
4882.79136 7.17090e-18
4884.25954 7.16593e-18
4885.72771 7.16096e-18
4887.19589 7.15599e-18
4888.67412 7.15103e-18
4890.14230 7.14606e-18
4891.61047 7.14109e-18
4893.07865 7.13613e-18
4894.54682 7.13116e-18
4896.01500 7.12620e-18
4897.49323 7.12123e-18
4898.96141 7.11627e-18
4900.42958 7.11131e-18
4901.89776 7.10635e-18
4903.36594 7.10138e-18
4904.84417 7.09643e-18
4906.31234 7.09147e-18
4907.78052 7.08651e-18
4909.24870 7.54482e-18
4910.71687 6.81224e-18
4912.18505 7.82456e-18
4913.66328 7.84456e-18
4915.13146 7.69113e-18
4916.59963 6.88860e-18
4918.06781 7.13389e-18
4919.53598 6.86453e-18
4921.01422 6.08321e-18
4922.48239 5.93095e-18
4923.95057 6.83222e-18
4925.41874 7.80712e-18
4926.88692 8.77813e-18
4928.36515 9.42759e-18
4929.83333 7.59413e-18
4931.30150 7.29585e-18
4932.76968 8.97605e-18
4934.23786 1.00982e-17
4935.70603 7.85455e-18
4937.18426 7.04899e-18
4938.65244 7.02065e-18
4940.12062 7.26198e-18
4941.58879 9.20114e-18
4943.05697 9.55673e-18
4944.52514 9.02734e-18
4946.00338 9.72418e-18
4947.47155 9.85741e-18
4948.93973 8.86856e-18
4950.40790 7.98775e-18
4951.87608 8.51841e-18
4953.35431 9.03101e-18
4954.82249 7.76530e-18
4956.29066 7.38893e-18
4957.75884 7.59598e-18
4959.22702 8.63964e-18
4960.70525 9.78525e-18
4962.17342 8.91632e-18
4963.64160 8.51285e-18
4965.10978 9.21463e-18
4966.57795 8.30220e-18
4968.04613 8.47057e-18
4969.52436 8.51056e-18
4970.99254 8.55056e-18
4972.46071 8.59054e-18
4973.92889 8.63053e-18
4975.39706 8.67050e-18
4976.86524 8.71047e-18
4978.34347 8.75044e-18
4979.81165 8.79041e-18
4981.27982 8.83036e-18
4982.74800 8.87032e-18
4984.21618 8.91029e-18
4985.69441 8.95022e-18
4987.16258 8.99017e-18
4988.63076 9.03010e-18
4990.09894 9.07003e-18
4991.56711 9.10997e-18
4993.03529 9.14989e-18
4994.51352 9.18981e-18
4995.98170 9.22973e-18
4997.44987 9.26966e-18
4998.91805 9.30956e-18
5000.38622 9.34946e-18
5001.86446 9.38935e-18
5003.33263 9.42927e-18
5004.80081 9.46915e-18
5006.26898 9.26856e-18
5007.73716 9.59012e-18
5009.20534 9.70578e-18
5010.68357 9.33028e-18
5012.15174 7.69473e-18
5013.61992 7.73348e-18
5015.08810 9.96680e-18
5016.55627 1.05591e-17
5018.03450 1.05268e-17
5019.50268 1.04946e-17
5020.97086 1.04623e-17
5022.43903 1.04301e-17
5023.90721 1.03978e-17
5025.37538 1.03656e-17
5026.85362 1.03333e-17
5028.32179 1.03011e-17
5029.78997 1.02689e-17
5031.25814 1.02367e-17
5032.72632 1.02044e-17
5034.20455 1.01722e-17
5035.67273 1.01400e-17
5037.14090 1.01078e-17
5038.60908 1.00756e-17
5040.07726 1.00434e-17
5041.54543 1.00112e-17
5043.02366 9.97898e-18
5044.49184 9.94678e-18
5045.96002 9.91460e-18
5047.42819 9.88241e-18
5048.89637 9.85023e-18
5050.37460 9.81805e-18
5051.84278 9.78589e-18
5053.31095 9.75370e-18
5054.77913 1.10051e-17
5056.24730 9.95940e-18
5057.71548 9.95593e-18
5059.19371 1.05544e-17
5060.66189 1.00577e-17
5062.13006 1.09050e-17
5063.59824 9.14132e-18
5065.06642 8.57053e-18
5066.54465 1.01221e-17
5068.01282 9.99153e-18
5069.48100 8.02261e-18
5070.94918 8.31959e-18
5072.41735 8.64492e-18
5073.88553 8.81071e-18
5075.36376 9.69092e-18
5076.83194 9.89582e-18
5078.30011 1.02151e-17
5079.76829 9.58905e-18
5081.23646 9.72716e-18
5082.71470 9.85853e-18
5084.18287 1.02872e-17
5085.65105 1.03422e-17
5087.11922 9.34952e-18
5088.58740 9.65186e-18
5090.05558 9.14814e-18
5091.53381 9.50937e-18
5093.00198 8.26373e-18
5094.47016 7.07387e-18
5095.93834 8.54713e-18
5097.40651 9.07976e-18
5098.88474 8.74203e-18
5100.35292 1.01597e-17
5101.82110 9.00181e-18
5103.28927 8.19705e-18
5104.75745 9.46000e-18
5106.22562 9.27586e-18
5107.70386 8.47841e-18
5109.17203 7.78675e-18
5110.64021 7.84843e-18
5112.10838 9.01451e-18
5113.57656 8.42879e-18
5115.04474 7.33003e-18
5116.52297 7.53688e-18
5117.99114 6.92086e-18
5119.45932 6.74667e-18
5120.92750 7.63489e-18
5122.39567 8.09919e-18
5123.87390 8.10881e-18
5125.34208 8.01765e-18
5126.81026 8.31825e-18
5128.27843 8.28244e-18
5129.74661 8.95760e-18
5131.22484 9.29260e-18
5132.69302 8.36417e-18
5134.16119 8.91602e-18
5135.62937 9.72119e-18
5137.09754 9.79558e-18
5138.56572 8.96395e-18
5140.04395 8.76659e-18
5141.51213 8.45423e-18
5142.98030 7.69385e-18
5144.44848 9.01820e-18
5145.91666 1.01667e-17
5147.39489 9.11349e-18
5148.86306 8.53362e-18
5150.33124 7.86175e-18
5151.79942 9.44406e-18
5153.26759 9.66842e-18
5154.73577 8.57537e-18
5156.21400 8.79373e-18
5157.68218 9.43939e-18
5159.15035 8.87478e-18
5160.61853 8.65697e-18
5162.08670 8.40922e-18
5163.56494 8.20022e-18
5165.03311 9.38983e-18
5166.50129 8.21690e-18
5167.96946 8.15654e-18
5169.43764 9.30329e-18
5170.90582 1.04915e-17
5172.38405 1.00060e-17
5173.85222 9.53693e-18
5175.32040 8.71956e-18
5176.78858 9.31698e-18
5178.25675 9.51147e-18
5179.73498 9.42693e-18
5181.20316 8.96558e-18
5182.67134 8.64092e-18
5184.13951 8.24240e-18
5185.60769 7.87734e-18
5187.07586 8.75510e-18
5188.55410 1.04517e-17
5190.02227 9.91594e-18
5191.49045 1.01522e-17
5192.95862 1.01745e-17
5194.42680 9.92643e-18
5195.89498 8.68882e-18
5197.37321 8.17083e-18
5198.84138 9.19196e-18
5200.30956 9.69897e-18
5201.77774 1.04796e-17
5203.24591 1.13266e-17
5204.72414 1.01852e-17
5206.19232 1.01039e-17
5207.66050 9.78552e-18
5209.12867 9.30109e-18
5210.59685 1.00654e-17
5212.06502 1.04622e-17
5213.54326 1.05006e-17
5215.01143 1.07310e-17
5216.47961 1.10767e-17
5217.94778 1.04750e-17
5219.41596 9.56879e-18
5220.89419 9.63034e-18
5222.36237 9.79155e-18
5223.83054 1.07191e-17
5225.29872 1.12016e-17
5226.76690 1.09670e-17
5228.24513 1.02592e-17
5229.71330 8.85601e-18
5231.18148 8.10915e-18
5232.64966 9.34199e-18
5234.11783 9.67739e-18
5235.58601 9.02840e-18
5237.06424 8.94746e-18
5238.53242 9.11303e-18
5240.00059 8.62190e-18
5241.46877 9.15050e-18
5242.93694 8.75335e-18
5244.41518 9.38696e-18
5245.88335 1.07770e-17
5247.35153 1.00033e-17
5248.81970 8.66518e-18
5250.28788 8.92374e-18
5251.75606 9.79758e-18
5253.23429 9.36212e-18
5254.70246 8.90438e-18
5256.17064 1.07288e-17
5257.63882 1.19663e-17
5259.10699 1.02985e-17
5260.58522 9.37537e-18
5262.05340 9.13273e-18
5263.52158 8.90707e-18
5264.98975 9.82777e-18
5266.45793 9.91087e-18
5267.92610 1.07656e-17
5269.40434 1.14379e-17
5270.87251 1.06407e-17
5272.34069 9.96089e-18
5273.80886 9.87940e-18
5275.27704 1.00707e-17
5276.74522 1.01922e-17
5278.22345 1.11667e-17
5279.69162 1.26444e-17
5281.15980 1.11769e-17
5282.62798 9.41289e-18
5284.09615 1.07446e-17
5285.57438 1.11083e-17
5287.04256 1.21962e-17
5288.51074 1.31338e-17
5289.97891 1.16175e-17
5291.44709 1.18979e-17
5292.91526 1.25845e-17
5294.39350 1.20234e-17
5295.86167 1.17628e-17
5297.32985 1.15513e-17
5298.79802 1.19813e-17
5300.26620 1.22202e-17
5301.74443 1.11278e-17
5303.21261 1.05294e-17
5304.68078 1.11507e-17
5306.14896 1.15647e-17
5307.61714 1.12463e-17
5309.08531 1.15623e-17
5310.56354 1.16110e-17
5312.03172 1.09573e-17
5313.49990 1.12612e-17
5314.96807 1.20398e-17
5316.43625 1.14776e-17
5317.91448 1.22112e-17
5319.38266 1.20324e-17
5320.85083 1.12103e-17
5322.31901 1.25185e-17
5323.78718 1.43589e-17
5325.25536 1.47933e-17
5326.73359 1.17156e-17
5328.20177 1.01665e-17
5329.66994 1.11465e-17
5331.13812 1.16142e-17
5332.60630 1.11067e-17
5334.08453 1.05048e-17
5335.55270 1.08560e-17
5337.02088 1.25539e-17
5338.48906 1.33784e-17
5339.95723 1.23563e-17
5341.43546 1.16596e-17
5342.90364 1.23945e-17
5344.37182 1.29211e-17
5345.83999 1.15361e-17
5347.30817 1.22562e-17
5348.77634 1.30030e-17
5350.25458 1.18955e-17
5351.72275 1.37696e-17
5353.19093 1.45723e-17
5354.65910 1.34800e-17
5356.12728 1.43098e-17
5357.59546 1.29635e-17
5359.07369 1.20065e-17
5360.54186 1.29448e-17
5362.01004 1.28696e-17
5363.47822 1.22276e-17
5364.94639 1.19730e-17
5366.42462 1.28374e-17
5367.89280 1.30495e-17
5369.36098 1.13867e-17
5370.82915 1.11333e-17
5372.29733 1.25704e-17
5373.76550 1.20710e-17
5375.24374 1.19235e-17
5376.71191 1.24189e-17
5378.18009 1.25445e-17
5379.64826 1.28214e-17
5381.11644 1.30626e-17
5382.59467 1.44084e-17
5384.06285 1.33192e-17
5385.53102 1.19129e-17
5386.99920 1.37685e-17
5388.46738 1.25587e-17
5389.93555 1.19296e-17
5391.41378 1.26519e-17
5392.88196 1.36667e-17
5394.35014 1.29854e-17
5395.81831 1.15789e-17
5397.28649 1.22379e-17
5398.76472 1.42153e-17
5400.23290 1.27801e-17
5401.70107 1.27429e-17
5403.16925 1.43448e-17
5404.63742 1.45154e-17
5406.10560 1.46409e-17
5407.58383 1.38932e-17
5409.05201 1.26630e-17
5410.52018 1.29743e-17
5411.98836 1.44624e-17
5413.45654 1.38290e-17
5414.93477 1.20972e-17
5416.40294 1.18682e-17
5417.87112 1.32409e-17
5419.33930 1.42308e-17
5420.80747 1.45985e-17
5422.27565 1.57510e-17
5423.75388 1.51416e-17
5425.22206 1.50804e-17
5426.69023 1.50820e-17
5428.15841 1.46029e-17
5429.62658 1.35259e-17
5431.10482 1.41598e-17
5432.57299 1.49604e-17
5434.04117 1.48438e-17
5435.50934 1.40429e-17
5436.97752 1.47191e-17
5438.44570 1.37610e-17
5439.92393 1.35840e-17
5441.39210 1.25631e-17
5442.86028 1.27840e-17
5444.32846 1.44180e-17
5445.79663 1.37334e-17
5447.27486 1.36896e-17
5448.74304 1.32772e-17
5450.21122 1.33977e-17
5451.67939 1.41711e-17
5453.14757 1.47375e-17
5454.61574 1.19136e-17
5456.09398 1.19835e-17
5457.56215 1.26749e-17
5459.03033 1.36123e-17
5460.49850 1.27637e-17
5461.96668 1.26878e-17
5463.44491 1.35975e-17
5464.91309 1.27319e-17
5466.38126 1.39903e-17
5467.84944 1.46089e-17
5469.31762 1.49708e-17
5470.78579 1.48545e-17
5472.26402 1.25277e-17
5473.73220 1.20548e-17
5475.20038 1.20152e-17
5476.66855 1.12824e-17
5478.13673 1.35336e-17
5479.61496 1.50305e-17
5481.08314 1.48906e-17
5482.55131 1.45743e-17
5484.01949 1.35487e-17
5485.48766 1.27104e-17
5486.95584 1.36788e-17
5488.43407 1.47967e-17
5489.90225 1.43137e-17
5491.37042 1.41611e-17
5492.83860 1.47477e-17
5494.30678 1.48292e-17
5495.77495 1.35825e-17
5497.25318 1.29367e-17
5498.72136 1.58973e-17
5500.18954 1.54327e-17
5501.65771 1.48624e-17
5503.12589 1.49945e-17
5504.60412 1.59129e-17
5506.07230 1.58003e-17
5507.54047 1.51607e-17
5509.00865 1.54798e-17
5510.47682 1.56329e-17
5511.95506 1.63977e-17
5513.42323 1.49986e-17
5514.89141 1.49800e-17
5516.35958 1.65734e-17
5517.82776 1.69582e-17
5519.29594 1.55249e-17
5520.77417 1.52318e-17
5522.24234 1.63797e-17
5523.71052 1.66099e-17
5525.17870 1.53019e-17
5526.64687 1.62510e-17
5528.11505 1.67553e-17
5529.59328 1.65085e-17
5531.06146 1.59921e-17
5532.52963 1.61564e-17
5533.99781 1.63257e-17
5535.46598 1.87012e-17
5536.94422 1.64280e-17
5538.41239 1.59554e-17
5539.88057 1.64752e-17
5541.34874 1.62326e-17
5542.81692 1.52980e-17
5544.29515 1.62063e-17
5545.76333 1.58981e-17
5547.23150 1.61277e-17
5548.69968 1.69247e-17
5550.16786 1.72111e-17
5551.63603 1.75105e-17
5553.11426 1.71499e-17
5554.58244 1.61065e-17
5556.05062 1.70883e-17
5557.51879 1.77152e-17
5558.98697 1.60985e-17
5560.46520 1.52737e-17
5561.93338 1.61731e-17
5563.40155 1.61216e-17
5564.86973 1.57400e-17
5566.33790 1.63660e-17
5567.80608 1.58258e-17
5569.28431 1.56925e-17
5570.75249 1.67237e-17
5572.22066 1.53072e-17
5573.68884 1.40592e-17
5575.15702 1.35400e-17
5576.62519 1.38115e-17
5578.10342 1.66218e-17
5579.57160 1.43095e-17
5581.03978 1.28962e-17
5582.50795 1.44346e-17
5583.97613 1.56521e-17
5585.45436 1.50777e-17
5586.92254 1.24103e-17
5588.39071 1.20823e-17
5589.85889 1.37714e-17
5591.32706 1.43293e-17
5592.79524 1.38946e-17
5594.27347 1.35184e-17
5595.74165 1.28835e-17
5597.20982 1.28520e-17
5598.67800 1.24744e-17
5600.14618 1.18123e-17
5601.62441 1.14456e-17
5603.09258 1.17323e-17
5604.56076 1.28755e-17
5606.02894 1.23879e-17
5607.49711 1.14769e-17
5608.96529 1.24250e-17
5610.44352 1.27989e-17
5611.91170 1.17707e-17
5613.37987 1.12432e-17
5614.84805 1.11860e-17
5616.31622 1.05116e-17
5617.79446 1.06012e-17
5619.26263 1.08319e-17
5620.73081 9.86269e-18
5622.19898 9.63899e-18
5623.66716 1.07049e-17
5625.13534 1.17634e-17
5626.61357 1.05160e-17
5628.08174 1.00970e-17
5629.54992 1.07750e-17
5631.01810 1.02476e-17
5632.48627 1.01809e-17
5633.96450 8.83543e-18
5635.43268 7.76590e-18
5636.90086 8.81380e-18
5638.36903 9.05959e-18
5639.83721 9.12165e-18
5641.31544 1.00445e-17
5642.78362 1.02557e-17
5644.25179 1.01168e-17
5645.71997 1.06006e-17
5647.18814 1.02935e-17
5648.65632 1.00545e-17
5650.13455 1.01944e-17
5651.60273 9.75761e-18
5653.07090 1.03830e-17
5654.53908 9.84517e-18
5656.00726 9.78991e-18
5657.47543 1.06344e-17
5658.95366 1.04137e-17
5660.42184 9.27267e-18
5661.89002 8.51957e-18
5663.35819 9.20696e-18
5664.82637 1.02796e-17
5666.30460 1.03290e-17
5667.77278 1.05505e-17
5669.24095 9.89375e-18
5670.70913 9.28025e-18
5672.17730 9.63733e-18
5673.64548 9.36885e-18
5675.12371 8.79947e-18
5676.59189 8.23290e-18
5678.06006 8.77454e-18
5679.52824 8.93761e-18
5680.99642 8.71535e-18
5682.47465 8.53345e-18
5683.94282 8.03944e-18
5685.41100 7.50720e-18
5686.87918 7.84606e-18
5688.34735 8.79118e-18
5689.81553 9.14631e-18
5691.29376 1.03919e-17
5692.76194 9.44251e-18
5694.23011 9.22033e-18
5695.69829 1.06709e-17
5697.16646 1.01996e-17
5698.64470 1.08187e-17
5700.11287 1.00783e-17
5701.58105 8.43844e-18
5703.04922 8.79498e-18
5704.51740 8.34993e-18
5705.98558 9.20679e-18
5707.46381 8.28517e-18
5708.93198 8.31834e-18
5710.40016 9.82389e-18
5711.86834 9.91625e-18
5713.33651 9.24225e-18
5714.81474 8.92346e-18
5716.28292 9.29323e-18
5717.75110 9.18335e-18
5719.21927 7.43439e-18
5720.68745 9.11938e-18
5722.15562 9.12398e-18
5723.63386 9.23593e-18
5725.10203 7.99516e-18
5726.57021 8.29119e-18
5728.03838 9.55725e-18
5729.50656 9.64124e-18
5730.98479 9.64869e-18
5732.45297 9.72953e-18
5733.92114 9.61773e-18
5735.38932 9.17859e-18
5736.85750 8.91796e-18
5738.32567 8.56410e-18
5739.80390 8.43926e-18
5741.27208 9.73931e-18
5742.74026 9.86241e-18
5744.20843 9.25814e-18
5745.67661 8.38859e-18
5747.15484 8.44800e-18
5748.62302 7.76527e-18
5750.09119 8.65506e-18
5751.55937 8.72502e-18
5753.02754 9.34497e-18
5754.49572 8.18656e-18
5755.97395 8.85073e-18
5757.44213 9.10279e-18
5758.91030 8.81045e-18
5760.37848 8.78114e-18
5761.84666 9.46035e-18
5763.32489 8.75464e-18
5764.79306 8.00426e-18
5766.26124 8.91881e-18
5767.72942 8.62165e-18
5769.19759 9.17267e-18
5770.66577 9.82473e-18
5772.14400 8.11020e-18
5773.61218 8.41219e-18
5775.08035 9.06807e-18
5776.54853 8.96952e-18
5778.01670 9.48616e-18
5779.49494 9.47674e-18
5780.96311 1.01244e-17
5782.43129 8.45919e-18
5783.89946 8.53023e-18
5785.36764 8.86190e-18
5786.83582 1.05596e-17
5788.31405 1.05789e-17
5789.78222 9.92296e-18
5791.25040 1.16264e-17
5792.71858 1.15727e-17
5794.18675 1.12239e-17
5795.66498 1.11126e-17
5797.13316 1.06903e-17
5798.60134 1.18815e-17
5800.06951 1.20832e-17
5801.53769 1.40875e-17
5803.00586 1.42549e-17
5804.48410 1.25351e-17
5805.95227 1.32705e-17
5807.42045 1.37665e-17
5808.88862 1.21528e-17
5810.35680 1.19524e-17
5811.83503 1.35153e-17
5813.30321 1.33745e-17
5814.77138 1.40840e-17
5816.23956 1.55218e-17
5817.70774 1.43851e-17
5819.17591 1.46094e-17
5820.65414 1.54787e-17
5822.12232 1.51491e-17
5823.59050 1.54760e-17
5825.05867 1.54189e-17
5826.52685 1.67886e-17
5827.99502 1.65758e-17
5829.47326 1.47944e-17
5830.94143 1.54937e-17
5832.40961 1.57137e-17
5833.87778 1.58543e-17
5835.34596 1.57567e-17
5836.82419 1.60169e-17
5838.29237 1.71151e-17
5839.76054 1.69957e-17
5841.22872 1.59546e-17
5842.69690 1.57092e-17
5844.16507 1.68240e-17
5845.64330 1.87092e-17
5847.11148 1.88199e-17
5848.57966 1.66178e-17
5850.04783 1.66958e-17
5851.51601 1.65887e-17
5852.99424 1.61241e-17
5854.46242 1.67836e-17
5855.93059 1.71180e-17
5857.39877 1.76689e-17
5858.86694 1.87466e-17
5860.34518 1.88014e-17
5861.81335 1.94123e-17
5863.28153 1.98554e-17
5864.74970 1.98411e-17
5866.21788 2.06649e-17
5867.68606 1.95782e-17
5869.16429 1.97386e-17
5870.63246 1.99544e-17
5872.10064 2.18631e-17
5873.56882 2.14149e-17
5875.03699 1.89261e-17
5876.50517 2.00639e-17
5877.98340 2.13541e-17
5879.45158 2.11397e-17
5880.91975 2.07303e-17
5882.38793 2.13451e-17
5883.85610 1.92107e-17
5885.33434 1.92357e-17
5886.80251 2.13532e-17
5888.27069 2.08762e-17
5889.73886 1.94099e-17
5891.20704 2.05988e-17
5892.68527 2.17212e-17
5894.15345 2.06657e-17
5895.62162 1.94234e-17
5897.08980 2.14069e-17
5898.55798 2.16376e-17
5900.02615 2.09204e-17
5901.50438 2.24092e-17
5902.97256 2.26441e-17
5904.44074 2.34702e-17
5905.90891 2.27877e-17
5907.37709 2.16303e-17
5908.84526 2.35129e-17
5910.32350 2.51755e-17
5911.79167 2.50788e-17
5913.25985 2.41324e-17
5914.72802 2.24790e-17
5916.19620 2.39459e-17
5917.67443 2.19378e-17
5919.14261 2.03593e-17
5920.61078 2.14488e-17
5922.07896 2.07300e-17
5923.54714 1.75258e-17
5925.01531 1.66271e-17
5926.49354 1.99772e-17
5927.96172 1.91987e-17
5929.42990 1.79950e-17
5930.89807 2.01600e-17
5932.36625 2.09159e-17
5933.84448 2.15143e-17
5935.31266 2.20919e-17
5936.78083 2.28490e-17
5938.24901 2.35836e-17
5939.71718 2.36129e-17
5941.18536 2.34367e-17
5942.66359 2.19361e-17
5944.13177 2.20873e-17
5945.59994 2.27688e-17
5947.06812 2.37995e-17
5948.53630 2.23932e-17
5950.01453 2.35668e-17
5951.48270 2.35340e-17
5952.95088 2.32852e-17
5954.41906 2.23236e-17
5955.88723 2.05207e-17
5957.35541 2.08639e-17
5958.83364 2.24933e-17
5960.30182 2.37012e-17
5961.76999 2.30579e-17
5963.23817 2.15083e-17
5964.70634 2.14778e-17
5966.18458 2.18354e-17
5967.65275 2.08275e-17
5969.12093 2.09596e-17
5970.58910 2.24626e-17
5972.05728 2.30153e-17
5973.52546 1.98443e-17
5975.00369 1.99125e-17
5976.47186 2.09684e-17
5977.94004 2.09192e-17
5979.40822 2.10179e-17
5980.87639 1.98747e-17
5982.35462 2.06205e-17
5983.82280 2.08386e-17
5985.29098 1.94411e-17
5986.75915 1.94525e-17
5988.22733 1.99214e-17
5989.69550 2.01597e-17
5991.17374 1.93470e-17
5992.64191 1.95744e-17
5994.11009 2.03167e-17
5995.57826 1.98015e-17
5997.04644 1.88793e-17
5998.52467 1.92148e-17
5999.99285 2.08311e-17
6001.46102 2.01029e-17
6002.92920 1.90858e-17
6004.39738 1.94636e-17
6005.86555 2.02829e-17
6007.34378 2.00860e-17
6008.81196 1.82891e-17
6010.28014 1.79384e-17
6011.74831 1.81588e-17
6013.21649 1.87582e-17
6014.69472 1.92195e-17
6016.16290 1.93243e-17
6017.63107 1.95747e-17
6019.09925 1.87470e-17
6020.56742 1.81729e-17
6022.03560 1.81099e-17
6023.51383 1.68299e-17
6024.98201 1.86372e-17
6026.45018 2.03281e-17
6027.91836 1.83382e-17
6029.38654 1.70719e-17
6030.86477 1.84998e-17
6032.33294 1.87389e-17
6033.80112 1.74263e-17
6035.26930 1.76620e-17
6036.73747 1.76832e-17
6038.20565 1.79515e-17
6039.68388 1.84023e-17
6041.15206 1.79816e-17
6042.62023 1.70282e-17
6044.08841 1.59656e-17
6045.55658 1.63873e-17
6047.02476 1.71983e-17
6048.50299 1.67277e-17
6049.97117 1.68119e-17
6051.43934 1.73081e-17
6052.90752 1.63292e-17
6054.37570 1.57009e-17
6055.85393 1.63609e-17
6057.32210 1.70616e-17
6058.79028 1.58637e-17
6060.25846 1.52624e-17
6061.72663 1.65794e-17
6063.20486 1.67822e-17
6064.67304 1.62448e-17
6066.14122 1.53416e-17
6067.60939 1.43521e-17
6069.07757 1.54829e-17
6070.54574 1.61366e-17
6072.02398 1.60461e-17
6073.49215 1.45117e-17
6074.96033 1.43282e-17
6076.42850 1.38119e-17
6077.89668 1.50391e-17
6079.37491 1.57111e-17
6080.84309 1.31670e-17
6082.31126 1.36508e-17
6083.77944 1.31421e-17
6085.24762 1.43974e-17
6086.71579 1.47839e-17
6088.19402 1.47904e-17
6089.66220 1.41479e-17
6091.13038 1.31738e-17
6092.59855 1.37349e-17
6094.06673 1.50720e-17
6095.54496 1.31783e-17
6097.01314 1.29651e-17
6098.48131 1.39547e-17
6099.94949 1.39624e-17
6101.41766 1.36168e-17
6102.88584 1.30724e-17
6104.36407 1.21778e-17
6105.83225 1.27183e-17
6107.30042 1.46324e-17
6108.76860 1.42399e-17
6110.23678 1.37315e-17
6111.71501 1.37149e-17
6113.18318 1.37371e-17
6114.65136 1.55811e-17
6116.11954 1.45666e-17
6117.58771 1.29903e-17
6119.05589 1.28877e-17
6120.53412 1.41523e-17
6122.00230 1.37085e-17
6123.47047 1.50104e-17
6124.93865 1.51331e-17
6126.40682 1.38434e-17
6127.87500 1.38181e-17
6129.35323 1.36924e-17
6130.82141 1.34037e-17
6132.28958 1.41762e-17
6133.75776 1.64215e-17
6135.22594 1.43134e-17
6136.70417 1.39117e-17
6138.17234 1.41127e-17
6139.64052 1.38467e-17
6141.10870 1.54032e-17
6142.57687 1.67326e-17
6144.04505 1.52126e-17
6145.52328 1.46061e-17
6146.99146 1.42359e-17
6148.45963 1.46331e-17
6149.92781 1.49536e-17
6151.39598 1.56755e-17
6152.87422 1.43358e-17
6154.34239 1.38790e-17
6155.81057 1.40557e-17
6157.27874 1.46019e-17
6158.74692 1.41985e-17
6160.22515 1.36420e-17
6161.69333 1.43552e-17
6163.16150 1.42798e-17
6164.62968 1.42737e-17
6166.09786 1.34537e-17
6167.56603 1.42153e-17
6169.04426 1.40586e-17
6170.51244 1.25819e-17
6171.98062 1.32703e-17
6173.44879 1.40956e-17
6174.91697 1.31451e-17
6176.39520 1.27714e-17
6177.86338 1.26835e-17
6179.33155 1.31582e-17
6180.79973 1.28557e-17
6182.26790 1.36120e-17
6183.73608 1.32793e-17
6185.21431 1.34321e-17
6186.68249 1.38041e-17
6188.15066 1.38016e-17
6189.61884 1.37390e-17
6191.08702 1.28039e-17
6192.56525 1.14979e-17
6194.03342 1.27218e-17
6195.50160 1.29933e-17
6196.96978 1.22881e-17
6198.43795 1.30397e-17
6199.90613 1.42877e-17
6201.38436 1.39010e-17
6202.85254 1.45570e-17
6204.32071 1.43599e-17
6205.78889 1.32835e-17
6207.25706 1.27546e-17
6208.72524 1.26510e-17
6210.20347 1.20335e-17
6211.67165 1.28163e-17
6213.13982 1.26937e-17
6214.60800 1.37059e-17
6216.07618 1.37126e-17
6217.55441 1.28166e-17
6219.02258 1.33652e-17
6220.49076 1.41681e-17
6221.95894 1.34801e-17
6223.42711 1.23366e-17
6224.89529 1.34570e-17
6226.37352 1.51284e-17
6227.84170 1.47241e-17
6229.30987 1.50276e-17
6230.77805 1.51940e-17
6232.24622 1.45223e-17
6233.72446 1.51090e-17
6235.19263 1.42982e-17
6236.66081 1.46198e-17
6238.12898 1.47843e-17
6239.59716 1.42225e-17
6241.06534 1.37512e-17
6242.54357 1.36213e-17
6244.01174 1.51065e-17
6245.47992 1.42229e-17
6246.94810 1.37328e-17
6248.41627 1.48909e-17
6249.89450 1.63799e-17
6251.36268 1.59270e-17
6252.83086 1.50738e-17
6254.29903 1.54735e-17
6255.76721 1.59850e-17
6257.24544 1.54947e-17
6258.71362 1.50534e-17
6260.18179 1.51339e-17
6261.64997 1.39130e-17
6263.11814 1.43250e-17
6264.58632 1.55803e-17
6266.06455 1.52283e-17
6267.53273 1.52496e-17
6269.00090 1.35314e-17
6270.46908 1.41142e-17
6271.93726 1.41081e-17
6273.40543 1.32886e-17
6274.88366 1.42191e-17
6276.35184 1.45458e-17
6277.82002 1.32736e-17
6279.28819 1.37690e-17
6280.75637 1.34697e-17
6282.23460 1.36401e-17
6283.70278 1.39308e-17
6285.17095 1.34773e-17
6286.63913 1.34970e-17
6288.10730 1.39021e-17
6289.57548 1.30983e-17
6291.05371 1.37460e-17
6292.52189 1.32305e-17
6293.99006 1.39000e-17
6295.45824 1.44455e-17
6296.92642 1.25175e-17
6298.40465 1.21057e-17
6299.87282 1.67315e-17
6301.34100 1.53599e-17
6302.80918 1.23751e-17
6304.27735 1.47595e-17
6305.74553 1.54377e-17
6307.22376 1.48837e-17
6308.69194 1.40298e-17
6310.16011 1.27904e-17
6311.62829 1.32784e-17
6313.09646 1.49089e-17
6314.57470 1.42888e-17
6316.04287 1.45100e-17
6317.51105 1.40509e-17
6318.97922 1.26235e-17
6320.44740 1.33301e-17
6321.91558 1.37284e-17
6323.39381 1.39738e-17
6324.86198 1.22153e-17
6326.33016 1.33748e-17
6327.79834 1.50022e-17
6329.26651 1.33203e-17
6330.74474 1.38946e-17
6332.21292 1.31217e-17
6333.68110 1.32544e-17
6335.14927 1.42230e-17
6336.61745 1.44455e-17
6338.08562 1.37871e-17
6339.56386 1.43612e-17
6341.03203 1.36599e-17
6342.50021 1.37221e-17
6343.96838 1.24802e-17
6345.43656 1.40580e-17
6346.91479 1.31630e-17
6348.38297 1.42151e-17
6349.85114 1.30344e-17
6351.31932 1.30300e-17
6352.78750 1.31585e-17
6354.25567 1.33786e-17
6355.73390 1.44313e-17
6357.20208 1.40139e-17
6358.67026 1.37228e-17
6360.13843 1.26797e-17
6361.60661 1.42612e-17
6363.08484 1.43113e-17
6364.55302 1.48211e-17
6366.02119 1.26129e-17
6367.48937 1.16758e-17
6368.95754 1.20132e-17
6370.42572 1.11032e-17
6371.90395 1.14941e-17
6373.37213 1.18709e-17
6374.84030 1.27159e-17
6376.30848 1.38145e-17
6377.77666 1.39231e-17
6379.25489 1.26194e-17
6380.72306 1.25600e-17
6382.19124 1.43054e-17
6383.65942 1.31799e-17
6385.12759 1.25353e-17
6386.59577 1.26074e-17
6388.07400 1.25147e-17
6389.54218 1.24497e-17
6391.01035 1.29396e-17
6392.47853 1.36164e-17
6393.94670 1.40658e-17
6395.42494 1.36948e-17
6396.89311 1.36830e-17
6398.36129 1.35593e-17
6399.82946 1.35300e-17
6401.29764 1.32904e-17
6402.76582 1.37463e-17
6404.24405 1.49665e-17
6405.71222 1.33071e-17
6407.18040 1.36327e-17
6408.64858 1.41893e-17
6410.11675 1.32600e-17
6411.59498 1.40107e-17
6413.06316 1.32922e-17
6414.53134 1.23155e-17
6415.99951 1.24338e-17
6417.46769 1.19912e-17
6418.93586 1.28346e-17
6420.41410 1.45161e-17
6421.88227 1.49477e-17
6423.35045 1.39138e-17
6424.81862 1.39383e-17
6426.28680 1.37109e-17
6427.75498 1.26832e-17
6429.23321 1.31424e-17
6430.70138 1.31710e-17
6432.16956 1.30852e-17
6433.63774 1.37090e-17
6435.10591 1.40520e-17
6436.58414 1.39845e-17
6438.05232 1.37911e-17
6439.52050 1.50102e-17
6440.98867 1.62372e-17
6442.45685 1.60682e-17
6443.93508 1.62883e-17
6445.40326 1.49914e-17
6446.87143 1.45052e-17
6448.33961 1.50391e-17
6449.80778 1.48877e-17
6451.27596 1.41218e-17
6452.75419 1.32708e-17
6454.22237 1.51054e-17
6455.69054 1.52899e-17
6457.15872 1.47510e-17
6458.62690 1.44095e-17
6460.09507 1.48184e-17
6461.57330 1.62664e-17
6463.04148 1.52275e-17
6464.50966 1.39786e-17
6465.97783 1.49350e-17
6467.44601 1.53483e-17
6468.92424 1.58785e-17
6470.39242 1.56410e-17
6471.86059 1.52549e-17
6473.32877 1.41965e-17
6474.79694 1.37023e-17
6476.27518 1.43383e-17
6477.74335 1.45929e-17
6479.21153 1.52274e-17
6480.67970 1.43963e-17
6482.14788 1.57170e-17
6483.61606 1.60817e-17
6485.09429 1.60535e-17
6486.56246 1.54545e-17
6488.03064 1.44975e-17
6489.49882 1.54852e-17
6490.96699 1.61064e-17
6492.43517 1.52525e-17
6493.91340 1.49857e-17
6495.38158 1.28822e-17
6496.84975 1.39260e-17
6498.31793 1.45806e-17
6499.78610 1.53488e-17
6501.26434 1.42301e-17
6502.73251 1.54903e-17
6504.20069 1.58105e-17
6505.66886 1.55322e-17
6507.13704 1.55320e-17
6508.60522 1.38439e-17
6510.08345 1.41038e-17
6511.55162 1.58363e-17
6513.01980 1.51614e-17
6514.48798 1.42342e-17
6515.95615 1.48554e-17
6517.43438 1.44267e-17
6518.90256 1.49521e-17
6520.37074 1.52553e-17
6521.83891 1.46078e-17
6523.30709 1.34165e-17
6524.77526 1.53037e-17
6526.25350 1.42163e-17
6527.72167 1.43009e-17
6529.18985 1.33642e-17
6530.65802 1.16514e-17
6532.12620 1.30703e-17
6533.60443 1.34888e-17
6535.07261 1.22429e-17
6536.54078 1.13417e-17
6538.00896 1.20254e-17
6539.47714 1.22306e-17
6540.94531 1.31691e-17
6542.42354 1.33226e-17
6543.89172 1.15015e-17
6545.35990 1.24206e-17
6546.82807 1.15776e-17
6548.29625 1.19795e-17
6549.77448 1.19597e-17
6551.24266 1.11818e-17
6552.71083 1.21171e-17
6554.17901 1.16849e-17
6555.64718 1.02828e-17
6557.11536 9.87407e-18
6558.59359 1.10978e-17
6560.06177 1.17250e-17
6561.52994 1.26865e-17
6562.99812 1.11854e-17
6564.46630 1.19806e-17
6565.94453 1.08654e-17
6567.41270 1.09023e-17
6568.88088 1.17004e-17
6570.34906 1.17986e-17
6571.81723 1.18968e-17
6573.28541 1.19950e-17
6574.76364 1.20932e-17
6576.23182 1.21914e-17
6577.69999 1.22896e-17
6579.16817 1.23878e-17
6580.63634 1.24860e-17
6582.11458 1.25842e-17
6583.58275 1.26823e-17
6585.05093 1.27805e-17
6586.51910 1.28787e-17
6587.98728 1.29769e-17
6589.45546 1.30750e-17
6590.93369 1.31731e-17
6592.40186 1.32713e-17
6593.87004 1.33694e-17
6595.33822 1.34676e-17
6596.80639 1.35657e-17
6598.28462 1.36638e-17
6599.75280 1.37620e-17
6601.22098 1.38601e-17
6602.68915 1.39582e-17
6604.15733 1.40563e-17
6605.62550 1.41544e-17
6607.10374 1.42525e-17
6608.57191 1.43506e-17
6610.04009 1.44487e-17
6611.50826 1.45468e-17
6612.97644 1.46448e-17
6614.45467 1.47429e-17
6615.92285 1.48410e-17
6617.39102 1.49390e-17
6618.85920 1.50371e-17
6620.32738 1.51352e-17
6621.79555 1.52332e-17
6623.27378 1.53313e-17
6624.74196 1.54293e-17
6626.21014 1.55274e-17
6627.67831 1.56254e-17
6629.14649 1.57234e-17
6630.62472 1.58215e-17
6632.09290 1.68843e-17
6633.56107 1.65694e-17
6635.02925 1.68903e-17
6636.49742 1.80047e-17
6637.96560 1.71769e-17
6639.44383 1.68726e-17
6640.91201 1.55198e-17
6642.38018 1.68409e-17
6643.84836 1.77308e-17
6645.31654 1.73951e-17
6646.79477 1.75129e-17
6648.26294 1.64025e-17
6649.73112 1.61708e-17
6651.19930 1.70160e-17
6652.66747 1.72718e-17
6654.13565 1.72342e-17
6655.61388 1.75653e-17
6657.08206 1.73967e-17
6658.55023 1.83237e-17
6660.01841 1.80662e-17
6661.48658 1.79747e-17
6662.96482 1.73577e-17
6664.43299 1.70275e-17
6665.90117 1.77056e-17
6667.36934 1.72724e-17
6668.83752 1.78083e-17
6670.30570 1.75176e-17
6671.78393 1.60794e-17
6673.25210 1.72021e-17
6674.72028 1.82445e-17
6676.18846 1.68242e-17
6677.65663 1.85769e-17
6679.13486 1.84583e-17
6680.60304 1.73037e-17
6682.07122 1.83138e-17
6683.53939 1.85802e-17
6685.00757 1.76737e-17
6686.47574 1.73949e-17
6687.95398 1.80318e-17
6689.42215 1.68844e-17
6690.89033 1.77042e-17
6692.35850 1.83107e-17
6693.82668 1.76640e-17
6695.30491 1.78830e-17
6696.77309 1.79671e-17
6698.24126 1.78953e-17
6699.70944 1.72049e-17
6701.17762 1.82047e-17
6702.64579 1.92142e-17
6704.12402 1.83101e-17
6705.59220 1.76142e-17
6707.06038 1.74535e-17
6708.52855 1.68059e-17
6709.99673 1.68091e-17
6711.47496 1.65721e-17
6712.94314 1.86564e-17
6714.41131 1.84129e-17
6715.87949 1.98015e-17
6717.34766 1.96164e-17
6718.81584 1.80087e-17
6720.29407 1.87510e-17
6721.76225 1.72139e-17
6723.23042 1.89856e-17
6724.69860 1.92801e-17
6726.16678 1.69379e-17
6727.64501 1.69633e-17
6729.11318 1.72263e-17
6730.58136 1.72855e-17
6732.04954 1.67404e-17
6733.51771 1.80510e-17
6734.98589 1.87107e-17
6736.46412 1.83657e-17
6737.93230 1.75056e-17
6739.40047 1.77998e-17
6740.86865 1.84393e-17
6742.33682 1.72857e-17
6743.81506 1.78139e-17
6745.28323 1.75445e-17
6746.75141 1.72635e-17
6748.21958 1.54712e-17
6749.68776 1.84696e-17
6751.15594 1.87958e-17
6752.63417 1.89747e-17
6754.10234 1.92503e-17
6755.57052 2.02853e-17
6757.03870 2.10144e-17
6758.50687 2.04700e-17
6759.97505 1.72372e-17
6761.45328 1.83776e-17
6762.92146 1.73706e-17
6764.38963 1.57093e-17
6765.85781 1.65034e-17
6767.32598 1.76431e-17
6768.80422 2.10269e-17
6770.27239 2.13486e-17
6771.74057 2.08735e-17
6773.20874 1.88391e-17
6774.67692 1.74119e-17
6776.15515 1.74299e-17
6777.62333 1.59329e-17
6779.09150 1.60615e-17
6780.55968 1.65303e-17
6782.02786 1.62017e-17
6783.49603 1.63483e-17
6784.97426 1.63829e-17
6786.44244 1.65119e-17
6787.91062 1.59566e-17
6789.37879 1.63843e-17
6790.84697 1.46072e-17
6792.31514 1.44303e-17
6793.79338 1.56417e-17
6795.26155 1.58458e-17
6796.72973 1.62684e-17
6798.19790 1.65419e-17
6799.66608 1.51020e-17
6801.14431 1.63713e-17
6802.61249 1.59428e-17
6804.08066 1.50681e-17
6805.54884 1.52363e-17
6807.01702 1.55702e-17
6808.49525 1.51927e-17
6809.96342 1.39766e-17
6811.43160 1.46275e-17
6812.89978 1.42838e-17
6814.36795 1.54378e-17
6815.83613 1.53466e-17
6817.31436 1.52293e-17
6818.78254 1.39683e-17
6820.25071 1.36327e-17
6821.71889 1.37588e-17
6823.18706 1.43245e-17
6824.66530 1.43030e-17
6826.13347 1.40648e-17
6827.60165 1.44197e-17
6829.06982 1.58091e-17
6830.53800 1.54874e-17
6832.00618 1.40562e-17
6833.48441 1.40175e-17
6834.95258 1.36984e-17
6836.42076 1.25758e-17
6837.88894 1.24573e-17
6839.35711 1.40271e-17
6840.82529 1.32700e-17
6842.30352 1.32072e-17
6843.77170 1.43085e-17
6845.23987 1.30941e-17
6846.70805 1.25815e-17
6848.17622 1.35221e-17
6849.65446 1.33619e-17
6851.12263 1.39352e-17
6852.59081 1.46071e-17
6854.05898 1.43717e-17
6855.52716 1.45620e-17
6856.99534 1.41922e-17
6858.47357 1.32768e-17
6859.94174 1.26075e-17
6861.40992 1.23873e-17
6862.87810 1.39036e-17
6864.34627 1.42832e-17
6865.82450 1.33562e-17
6867.29268 1.44410e-17
6868.76086 1.35852e-17
6870.22903 1.23827e-17
6871.69721 1.26684e-17
6873.16538 1.35654e-17
6874.64362 1.29984e-17
6876.11179 1.34791e-17
6877.57997 1.45178e-17
6879.04814 1.31944e-17
6880.51632 1.23899e-17
6881.99455 1.25345e-17
6883.46273 1.23704e-17
6884.93090 1.23144e-17
6886.39908 1.26128e-17
6887.86726 1.21823e-17
6889.33543 1.18220e-17
6890.81366 9.64117e-18
6892.28184 1.01104e-17
6893.75002 1.24221e-17
6895.21819 1.30985e-17
6896.68637 1.35635e-17
6898.16460 1.33190e-17
6899.63278 1.21812e-17
6901.10095 1.16286e-17
6902.56913 1.17389e-17
6904.03730 1.14235e-17
6905.50548 1.20349e-17
6906.98371 1.28367e-17
6908.45189 1.20166e-17
6909.92006 1.02901e-17
6911.38824 1.04403e-17
6912.85642 1.17951e-17
6914.33465 1.03537e-17
6915.80282 9.63782e-18
6917.27100 1.10216e-17
6918.73918 1.16129e-17
6920.20735 1.08132e-17
6921.67553 1.01745e-17
6923.15376 1.13839e-17
6924.62194 1.15390e-17
6926.09011 1.16030e-17
6927.55829 1.09890e-17
6929.02646 1.11011e-17
6930.50470 9.63613e-18
6931.97287 9.62717e-18
6933.44105 1.02308e-17
6934.90922 1.12289e-17
6936.37740 1.04003e-17
6937.84558 1.13284e-17
6939.32381 1.16914e-17
6940.79198 1.00407e-17
6942.26016 1.14310e-17
6943.72834 1.25847e-17
6945.19651 1.03284e-17
6946.67474 1.07101e-17
6948.14292 1.09357e-17
6949.61110 1.20812e-17
6951.07927 1.21070e-17
6952.54745 1.17683e-17
6954.01562 1.31705e-17
6955.49386 1.25963e-17
6956.96203 1.34477e-17
6958.43021 1.33557e-17
6959.89838 1.32365e-17
6961.36656 1.33711e-17
6962.84479 1.46541e-17
6964.31297 1.45872e-17
6965.78114 1.48803e-17
6967.24932 1.39129e-17
6968.71750 1.52238e-17
6970.18567 1.40631e-17
6971.66390 1.37531e-17
6973.13208 1.42741e-17
6974.60026 1.50998e-17
6976.06843 1.57179e-17
6977.53661 1.59811e-17
6979.01484 1.66084e-17
6980.48302 1.46277e-17
6981.95119 1.48418e-17
6983.41937 1.50693e-17
6984.88754 1.51428e-17
6986.35572 1.55630e-17
6987.83395 1.67695e-17
6989.30213 1.56466e-17
6990.77030 1.45696e-17
6992.23848 1.50436e-17
6993.70666 1.72943e-17
6995.18489 1.62585e-17
6996.65306 1.74105e-17
6998.12124 1.59697e-17
6999.58942 1.74649e-17
7001.05759 1.67749e-17
7002.52577 1.69326e-17
7004.00400 1.70839e-17
7005.47218 1.70197e-17
7006.94035 1.70188e-17
7008.40853 1.70179e-17
7009.87670 1.70170e-17
7011.35494 1.70161e-17
7012.82311 1.70152e-17
7014.29129 1.70143e-17
7015.75946 1.70134e-17
7017.22764 1.70126e-17
7018.69582 1.70117e-17
7020.17405 1.70113e-17
7021.64222 1.70680e-17
7023.11040 1.77399e-17
7024.57858 1.89768e-17
7026.04675 1.64324e-17
7027.52498 1.70844e-17
7028.99316 1.80834e-17
7030.46134 1.83807e-17
7031.92951 1.76343e-17
7033.39769 1.74264e-17
7034.86586 1.77228e-17
7036.34410 1.63680e-17
7037.81227 1.66175e-17
7039.28045 1.65510e-17
7040.74862 1.72108e-17
7042.21680 1.82583e-17
7043.69503 1.73242e-17
7045.16321 1.68974e-17
7046.63138 1.59931e-17
7048.09956 1.76109e-17
7049.56774 1.84999e-17
7051.03591 1.81641e-17
7052.51414 1.78658e-17
7053.98232 1.71461e-17
7055.45050 1.76401e-17
7056.91867 1.73060e-17
7058.38685 1.66849e-17
7059.85502 1.78476e-17
7061.33326 1.78340e-17
7062.80143 1.85586e-17
7064.26961 1.82298e-17
7065.73778 1.73583e-17
7067.20596 1.89459e-17
7068.68419 1.76438e-17
7070.15237 1.73545e-17
7071.62054 1.84100e-17
7073.08872 1.81075e-17
7074.55690 1.89795e-17
7076.02507 1.92363e-17
7077.50330 2.01881e-17
7078.97148 2.12930e-17
7080.43966 1.93414e-17
7081.90783 1.92755e-17
7083.37601 2.00837e-17
7084.85424 1.85864e-17
7086.32242 1.81831e-17
7087.79059 2.04373e-17
7089.25877 2.26419e-17
7090.72694 2.27274e-17
7092.20518 2.17593e-17
7093.67335 2.05404e-17
7095.14153 2.00448e-17
7096.60970 1.96991e-17
7098.07788 1.82211e-17
7099.54606 1.83581e-17
7101.02429 1.95657e-17
7102.49246 1.96889e-17
7103.96064 1.98406e-17
7105.42882 1.94507e-17
7106.89699 1.92881e-17
7108.37522 2.00046e-17
7109.84340 1.98215e-17
7111.31158 1.90598e-17
7112.77975 1.95495e-17
7114.24793 2.06593e-17
7115.71610 2.04461e-17
7117.19434 1.93421e-17
7118.66251 1.86308e-17
7120.13069 1.96023e-17
7121.59886 2.03917e-17
7123.06704 1.95723e-17
7124.53522 1.86102e-17
7126.01345 1.85737e-17
7127.48162 1.86706e-17
7128.94980 1.82964e-17
7130.41798 1.80209e-17
7131.88615 1.80059e-17
7133.36438 1.82353e-17
7134.83256 1.82830e-17
7136.30074 1.80341e-17
7137.76891 1.70842e-17
7139.23709 1.78240e-17
7140.70526 1.90562e-17
7142.18350 1.77109e-17
7143.65167 1.85835e-17
7145.11985 1.93537e-17
7146.58802 1.81835e-17
7148.05620 1.86244e-17
7149.53443 1.78709e-17
7151.00261 1.82574e-17
7152.47078 1.88230e-17
7153.93896 1.65917e-17
7155.40714 1.66587e-17
7156.87531 1.76536e-17
7158.35354 1.75357e-17
7159.82172 1.87365e-17
7161.28990 1.83901e-17
7162.75807 1.66203e-17
7164.22625 1.64171e-17
7165.70448 1.72614e-17
7167.17266 1.66558e-17
7168.64083 1.57562e-17
7170.10901 1.70819e-17
7171.57718 1.69647e-17
7173.04536 1.73134e-17
7174.52359 1.78949e-17
7175.99177 1.66717e-17
7177.45994 1.66585e-17
7178.92812 1.69054e-17
7180.39630 1.68650e-17
7181.87453 1.74606e-17
7183.34270 1.68165e-17
7184.81088 1.76889e-17
7186.27906 1.89713e-17
7187.74723 1.86855e-17
7189.22546 1.94972e-17
7190.69364 1.85279e-17
7192.16182 1.69364e-17
7193.62999 1.79782e-17
7195.09817 1.77114e-17
7196.56634 1.75136e-17
7198.04458 1.77476e-17
7199.51275 1.66972e-17
7200.98093 1.77013e-17
7202.44910 1.91178e-17
7203.91728 1.89950e-17
7205.38546 1.84559e-17
7206.86369 1.82784e-17
7208.33186 1.79428e-17
7209.80004 1.76119e-17
7211.26822 1.77353e-17
7212.73639 1.77416e-17
7214.21462 1.73098e-17
7215.68280 1.91734e-17
7217.15098 1.89778e-17
7218.61915 1.81097e-17
7220.08733 1.81682e-17
7221.55550 1.81283e-17
7223.03374 1.84697e-17
7224.50191 1.95152e-17
7225.97009 1.84447e-17
7227.43826 1.80334e-17
7228.90644 1.79666e-17
7230.38467 1.79887e-17
7231.85285 1.82295e-17
7233.32102 1.81189e-17
7234.78920 1.84705e-17
7236.25738 1.80923e-17
7237.72555 1.77834e-17
7239.20378 1.79753e-17
7240.67196 1.89119e-17
7242.14014 1.95294e-17
7243.60831 1.95018e-17
7245.07649 1.89366e-17
7246.55472 1.77904e-17
7248.02290 1.87955e-17
7249.49107 1.86208e-17
7250.95925 1.72655e-17
7252.42742 1.85832e-17
7253.89560 1.86456e-17
7255.37383 1.83304e-17
7256.84201 1.85852e-17
7258.31018 1.96713e-17
7259.77836 1.80364e-17
7261.24654 1.72207e-17
7262.72477 1.96030e-17
7264.19294 1.96253e-17
7265.66112 1.88952e-17
7267.12930 1.82511e-17
7268.59747 1.89355e-17
7270.06565 1.83154e-17
7271.54388 1.78058e-17
7273.01206 1.84519e-17
7274.48023 1.95775e-17
7275.94841 1.89345e-17
7277.41658 1.88537e-17
7278.89482 1.90197e-17
7280.36299 1.81138e-17
7281.83117 1.82921e-17
7283.29934 1.77757e-17
7284.76752 1.89419e-17
7286.23570 1.99606e-17
7287.71393 2.00294e-17
7289.18210 1.97076e-17
7290.65028 1.97915e-17
7292.11846 1.87611e-17
7293.58663 1.81416e-17
7295.06486 1.86661e-17
7296.53304 1.90230e-17
7298.00122 2.01133e-17
7299.46939 1.93304e-17
7300.93757 1.87532e-17
7302.40574 1.97932e-17
7303.88398 2.00540e-17
7305.35215 1.84708e-17
7306.82033 1.76410e-17
7308.28850 1.82561e-17
7309.75668 1.85261e-17
7311.23491 1.93708e-17
7312.70309 2.01995e-17
7314.17126 1.89427e-17
7315.63944 1.79024e-17
7317.10762 2.01028e-17
7318.57579 2.03044e-17
7320.05402 1.87113e-17
7321.52220 1.87805e-17
7322.99038 1.93155e-17
7324.45855 1.85398e-17
7325.92673 1.87994e-17
7327.40496 1.85260e-17
7328.87314 1.88524e-17
7330.34131 1.89007e-17
7331.80949 1.63229e-17
7333.27766 1.68172e-17
7334.74584 1.86279e-17
7336.22407 1.92545e-17
7337.69225 1.91143e-17
7339.16042 1.81776e-17
7340.62860 1.67619e-17
7342.09678 1.69804e-17
7343.56495 1.70630e-17
7345.04318 1.74081e-17
7346.51136 1.76767e-17
7347.97954 1.66381e-17
7349.44771 1.42592e-17
7350.91589 1.64492e-17
7352.39412 1.78019e-17
7353.86230 1.71538e-17
7355.33047 1.73182e-17
7356.79865 1.56284e-17
7358.26682 1.62691e-17
7359.74506 1.55053e-17
7361.21323 1.49978e-17
7362.68141 1.64354e-17
7364.14958 1.55306e-17
7365.61776 1.49021e-17
7367.08594 1.42517e-17
7368.56417 1.54132e-17
7370.03234 1.57798e-17
7371.50052 1.49863e-17
7372.96870 1.53759e-17
7374.43687 1.43956e-17
7375.91510 1.38522e-17
7377.38328 1.39048e-17
7378.85146 1.59153e-17
7380.31963 1.58068e-17
7381.78781 1.65905e-17
7383.25598 1.54255e-17
7384.73422 1.45936e-17
7386.20239 1.48102e-17
7387.67057 1.46140e-17
7389.13874 1.50702e-17
7390.60692 1.52562e-17
7392.08515 1.46052e-17
7393.55333 1.36076e-17
7395.02150 1.28837e-17
7396.48968 1.39158e-17
7397.95786 1.44069e-17
7399.42603 1.32160e-17
7400.90426 1.29344e-17
7402.37244 1.40264e-17
7403.84062 1.47427e-17
7405.30879 1.42427e-17
7406.77697 1.28694e-17
7408.25520 1.26795e-17
7409.72338 1.24502e-17
7411.19155 1.25575e-17
7412.65973 1.22781e-17
7414.20678 1.22781e-17
7416.20519 1.21948e-17
7418.20361 1.21424e-17
7420.20202 1.21329e-17
7422.21053 1.21533e-17
7424.20894 1.21561e-17
7426.20735 1.20630e-17
7428.20577 1.19868e-17
7430.20418 1.20442e-17
7432.21269 1.21425e-17
7434.21110 1.21815e-17
7436.20952 1.21474e-17
7438.20793 1.21315e-17
7440.21644 1.22077e-17
7442.21485 1.22773e-17
7444.21327 1.22402e-17
7446.21168 1.21695e-17
7448.21009 1.21154e-17
7450.21860 1.20871e-17
7452.21702 1.20546e-17
7454.21543 1.20061e-17
7456.21384 1.19629e-17
7458.22235 1.19552e-17
7460.22076 1.19527e-17
7462.21918 1.19440e-17
7464.21759 1.19178e-17
7466.21601 1.18644e-17
7468.22451 1.17881e-17
7470.22293 1.17152e-17
7472.22134 1.16835e-17
7474.21976 1.16704e-17
7476.21817 1.16993e-17
7478.22668 1.17045e-17
7480.22509 1.16041e-17
7482.22350 1.14136e-17
7484.22192 1.12450e-17
7486.23043 1.12208e-17
7488.22884 1.12271e-17
7490.22725 1.11724e-17
7492.22567 1.11254e-17
7494.22408 1.11533e-17
7496.23259 1.12406e-17
7498.23100 1.13291e-17
7500.22942 1.13651e-17
7502.22783 1.13810e-17
7504.22624 1.13898e-17
7506.23475 1.13796e-17
7508.23317 1.13369e-17
7510.23158 1.12751e-17
7512.22999 1.12039e-17
7514.23850 1.11441e-17
7516.23691 1.11030e-17
7518.23533 1.11045e-17
7520.23374 1.11353e-17
7522.23216 1.12291e-17
7524.24066 1.13058e-17
7526.23908 1.12766e-17
7528.23749 1.11322e-17
7530.23591 1.09755e-17
7532.23432 1.09137e-17
7534.24283 1.08880e-17
7536.24124 1.08936e-17
7538.23965 1.09115e-17
7540.23807 1.09277e-17
7542.24658 1.09359e-17
7544.24499 1.09490e-17
7546.24340 1.09714e-17
7548.24182 1.09875e-17
7550.24023 1.09877e-17
7552.24874 1.09596e-17
7554.24715 1.08782e-17
7556.24557 1.07679e-17
7558.24398 1.06522e-17
7560.24239 1.05687e-17
7562.25090 1.05244e-17
7564.24932 1.05847e-17
7566.24773 1.06413e-17
7568.24614 1.06022e-17
7570.25465 1.05118e-17
7572.25306 1.04339e-17
7574.25148 1.04023e-17
7576.24989 1.03835e-17
7578.24831 1.03618e-17
7580.25681 1.03241e-17
7582.25523 1.02310e-17
7584.25364 1.01293e-17
7586.25206 1.00857e-17
7588.26056 1.00683e-17
7590.25898 9.97490e-18
7592.25739 9.71341e-18
7594.25580 9.44273e-18
7596.25422 9.31284e-18
7598.26273 9.26770e-18
7600.26114 9.31382e-18
7602.25955 9.38824e-18
7604.25797 9.44851e-18
7606.25638 9.42403e-18
7608.26489 9.32724e-18
7610.26330 9.04087e-18
7612.26172 8.80321e-18
7614.26013 8.81923e-18
7616.26864 8.99882e-18
7618.26705 9.22224e-18
7620.26547 9.36173e-18
7622.26388 9.41272e-18
7624.26229 9.27128e-18
7626.27080 9.08861e-18
7628.26921 8.97783e-18
7630.26763 8.91138e-18
7632.26604 8.84363e-18
7634.27455 8.77482e-18
7636.27296 8.74229e-18
7638.27138 8.77710e-18
7640.26979 8.81118e-18
7642.26821 8.77409e-18
7644.27671 8.69804e-18
7646.27513 8.58475e-18
7648.27354 8.47161e-18
7650.27195 8.39833e-18
7652.27037 8.39345e-18
7654.27888 8.38393e-18
7656.27729 8.25583e-18
7658.27570 8.12055e-18
7660.27412 8.03431e-18
7662.28262 8.00612e-18
7664.28104 8.02056e-18
7666.27945 8.06473e-18
7668.27787 8.12507e-18
7670.27628 8.17418e-18
7672.28479 8.23176e-18
7674.28320 8.33294e-18
7676.28162 8.41688e-18
7678.28003 8.41647e-18
7680.27844 8.32700e-18
7682.28695 8.21899e-18
7684.28536 8.16303e-18
7686.28378 8.12446e-18
7688.28219 8.10259e-18
7690.29070 8.08956e-18
7692.28911 8.06909e-18
7694.28753 8.05763e-18
7696.28594 8.09224e-18
7698.28436 8.19370e-18
7700.29286 8.29081e-18
7702.29128 8.29544e-18
7704.28969 8.25266e-18
7706.28810 8.15270e-18
7708.29661 8.04845e-18
7710.29503 7.98456e-18
7712.29344 8.00069e-18
7714.29185 8.05188e-18
7716.29027 8.10805e-18
7718.29877 8.17255e-18
7720.29719 8.24103e-18
7722.29560 8.30594e-18
7724.29402 8.35921e-18
7726.29243 8.40321e-18
7728.30094 8.44941e-18
7730.29935 8.51106e-18
7732.29777 8.60118e-18
7734.29618 8.75042e-18
7736.30469 8.93001e-18
7738.30310 9.13586e-18
7740.30151 9.32602e-18
7742.29993 9.46990e-18
7744.29834 9.52374e-18
7746.30685 9.53521e-18
7748.30526 9.50650e-18
7750.30368 9.50748e-18
7752.30209 9.61264e-18
7754.30051 9.79523e-18
7756.30901 9.99946e-18
7758.30743 1.01672e-17
7760.30584 1.03047e-17
7762.30425 1.03708e-17
7764.31276 1.04117e-17
7766.31118 1.04503e-17
7768.30959 1.04914e-17
7770.30800 1.05241e-17
7772.30642 1.05568e-17
7774.31492 1.06053e-17
7776.31334 1.06945e-17
7778.31175 1.07969e-17
7780.31017 1.09109e-17
7782.30858 1.10033e-17
7784.31709 1.10386e-17
7786.31550 1.10237e-17
7788.31392 1.09975e-17
7790.31233 1.10014e-17
7792.32084 1.10253e-17
7794.31925 1.11084e-17
7796.31766 1.11777e-17
7798.31608 1.11659e-17
7800.31449 1.10904e-17
7802.32300 1.10048e-17
7804.32141 1.09577e-17
7806.31983 1.09310e-17
7808.31824 1.09704e-17
7810.32675 1.09746e-17
7812.32516 1.08395e-17
7814.32358 1.06361e-17
7816.32199 1.04388e-17
7818.32040 1.03347e-17
7820.32891 1.03244e-17
7822.32733 1.04786e-17
7824.32574 1.06755e-17
7826.32415 1.08438e-17
7828.32257 1.09489e-17
7830.33107 1.09596e-17
7832.32949 1.08907e-17
7834.32790 1.07968e-17
7836.32632 1.07427e-17
7838.33482 1.07202e-17
7840.33324 1.07580e-17
7842.33165 1.08387e-17
7844.33007 1.09798e-17
7846.32848 1.11254e-17
7848.33699 1.12178e-17
7850.33540 1.11987e-17
7852.33381 1.11398e-17
7854.33223 1.10788e-17
7856.33064 1.10496e-17
7858.33915 1.11400e-17
7860.33756 1.12522e-17
7862.33598 1.12596e-17
7864.33439 1.10968e-17
7866.34290 1.08847e-17
7868.34131 1.07208e-17
7870.33973 1.06174e-17
7872.33814 1.06409e-17
7874.33655 1.07496e-17
7876.34506 1.09267e-17
7878.34348 1.11062e-17
7880.34189 1.12455e-17
7882.34030 1.12614e-17
7884.34881 1.12217e-17
7886.34722 1.11320e-17
7888.34564 1.10549e-17
7890.34405 1.10617e-17
7892.34247 1.11272e-17
7894.35097 1.11734e-17
7896.34939 1.11263e-17
7898.34780 1.10306e-17
7900.34622 1.08845e-17
7902.34463 1.07211e-17
7904.35314 1.05538e-17
7906.35155 1.04115e-17
7908.34996 1.02997e-17
7910.34838 1.02426e-17
7912.35689 1.02417e-17
7914.35530 1.03241e-17
7916.35371 1.04505e-17
7918.35213 1.06245e-17
7920.35054 1.07841e-17
7922.35905 1.08819e-17
7924.35746 1.08887e-17
7926.35588 1.08413e-17
7928.35429 1.07611e-17
7930.35270 1.06822e-17
7932.36121 1.06459e-17
7934.35963 1.06549e-17
7936.35804 1.07226e-17
7938.35645 1.08284e-17
7940.36496 1.09446e-17
7942.36337 1.10337e-17
7944.36179 1.11055e-17
7946.36020 1.11740e-17
7948.35862 1.11852e-17
7950.36712 1.10726e-17
7952.36554 1.08802e-17
7954.36395 1.06542e-17
7956.36237 1.04799e-17
7958.37087 1.03943e-17
7960.36929 1.05651e-17
7962.36770 1.07689e-17
7964.36611 1.08873e-17
7966.36453 1.08843e-17
7968.37304 1.07381e-17
7970.37145 1.04975e-17
7972.36986 1.02836e-17
7974.36828 1.02771e-17
7976.36669 1.02967e-17
7978.37520 1.02173e-17
7980.37361 1.00940e-17
7982.37203 9.95652e-18
7984.37044 9.86388e-18
7986.37895 9.86136e-18
7988.37736 1.00062e-17
7990.37578 1.01628e-17
7992.37419 1.01576e-17
7994.37260 1.01241e-17
7996.38111 1.01710e-17
7998.37952 1.02661e-17
8000.37794 1.03083e-17
8002.37635 1.02339e-17
8004.37477 1.01320e-17
8006.38327 1.00933e-17
8008.38169 1.00623e-17
8010.38010 1.00026e-17
8012.37852 9.95489e-18
8014.38702 9.98230e-18
8016.38544 1.00888e-17
8018.38385 1.01917e-17
8020.38226 1.01927e-17
8022.38068 1.01352e-17
8024.38919 9.98637e-18
8026.38760 9.82492e-18
8028.38601 9.71520e-18
8030.38443 9.68755e-18
8032.39293 9.69885e-18
8034.39135 9.72195e-18
8036.38976 9.74554e-18
8038.38818 9.74635e-18
8040.38659 9.72244e-18
8042.39510 9.66762e-18
8044.39351 9.58621e-18
8046.39193 9.46787e-18
8048.39034 9.33480e-18
8050.38875 9.25559e-18
8052.39726 9.39678e-18
8054.39567 9.57197e-18
8056.39409 9.69235e-18
8058.39250 9.71585e-18
8060.40101 9.63883e-18
8062.39942 9.47535e-18
8064.39784 9.29381e-18
8066.39625 9.19808e-18
8068.39467 9.11024e-18
8070.40317 8.97124e-18
8072.40159 8.84062e-18
8074.40000 8.78564e-18
8076.39841 8.81842e-18
8078.39683 8.88292e-18
8080.40534 8.92651e-18
8082.40375 8.94351e-18
8084.40216 8.88479e-18
8086.40058 8.79695e-18
8088.40908 8.69089e-18
8090.40750 8.62062e-18
8092.40591 8.62761e-18
8094.40433 8.75612e-18
8096.40274 8.91813e-18
8098.41125 9.02151e-18
8100.40966 9.10471e-18
8102.40808 9.18727e-18
8104.40649 9.25038e-18
8106.40490 9.27063e-18
8108.41341 9.23062e-18
8110.41182 9.14904e-18
8112.41024 9.02842e-18
8114.40865 8.90073e-18
8116.41716 8.79719e-18
8118.41557 8.71390e-18
8120.41399 8.63452e-18
8122.41240 8.56124e-18
8124.41082 8.50781e-18
8126.41932 8.49048e-18
8128.41774 8.50203e-18
8130.41615 8.55896e-18
8132.41456 8.62224e-18
8134.42307 8.66201e-18
8136.42149 8.66559e-18
8138.41990 8.64347e-18
8140.41831 8.60646e-18
8142.41673 8.58735e-18
8144.42523 8.65900e-18
8146.42365 8.74554e-18
8148.42206 8.80898e-18
8150.42048 8.82273e-18
8152.41889 8.77791e-18
8154.42740 8.67926e-18
8156.42581 8.58003e-18
8158.42423 8.57466e-18
8160.42264 8.57726e-18
8162.43115 8.55774e-18
8164.42956 8.49170e-18
8166.42797 8.34969e-18
8168.42639 8.15466e-18
8170.42480 7.98075e-18
8172.43331 7.93144e-18
8174.43172 7.93105e-18
8176.43014 7.96627e-18
8178.42855 7.99753e-18
8180.43706 7.99109e-18
8182.43547 7.94225e-18
8184.43389 7.88158e-18
8186.43230 7.83808e-18
8188.43071 7.81682e-18
8190.43922 7.83458e-18
8192.43764 7.89750e-18
8194.43605 8.03263e-18
8196.43446 8.20321e-18
8198.43288 8.37426e-18
8200.44138 8.49252e-18
8202.43980 8.55994e-18
8204.43821 8.53481e-18
8206.43663 8.45160e-18
8208.44513 8.30228e-18
8210.44355 8.13571e-18
8212.44196 7.98251e-18
8214.44038 7.88317e-18
8216.43879 7.82173e-18
8218.44730 7.80382e-18
8220.44571 7.83095e-18
8222.44412 7.93991e-18
8224.44254 8.05647e-18
8226.44095 8.12127e-18
8228.44946 8.10150e-18
8230.44787 8.03187e-18
8232.44629 7.93031e-18
8234.44470 7.81423e-18
8236.45321 7.70961e-18
8238.45162 7.61740e-18
8240.45004 7.54147e-18
8242.44845 7.48056e-18
8244.44686 7.42931e-18
8246.45537 7.38278e-18
8248.45378 7.34274e-18
8250.45220 7.29450e-18
8252.45061 7.27329e-18
8254.45912 7.33263e-18
8256.45753 7.41549e-18
8258.45595 7.45533e-18
8260.45436 7.40229e-18
8262.45278 7.30261e-18
8264.46128 7.17014e-18
8266.45970 7.05019e-18
8268.45811 7.02094e-18
8270.45653 7.01245e-18
8272.45494 6.93565e-18
8274.46345 6.78744e-18
8276.46186 6.65693e-18
8278.46027 6.63580e-18
8280.45869 6.67701e-18
8282.46720 6.81674e-18
8284.46561 6.95328e-18
8286.46402 6.99423e-18
8288.46244 6.94061e-18
8290.46085 6.87662e-18
8292.46936 6.86131e-18
8294.46777 6.83040e-18
8296.46619 6.71784e-18
8298.46460 6.58356e-18
8300.46301 6.45163e-18
8302.47152 6.34461e-18
8304.46994 6.26610e-18
8306.46835 6.22501e-18
8308.46676 6.20916e-18
8310.47527 6.22432e-18
8312.47368 6.21780e-18
8314.47210 6.12764e-18
8316.47051 5.99154e-18
8318.46893 5.84721e-18
8320.47743 5.72989e-18
8322.47585 5.63327e-18
8324.47426 5.57237e-18
8326.47268 5.52753e-18
8328.47109 5.49293e-18
8330.47960 5.45193e-18
8332.47801 5.37336e-18
8334.47642 5.28491e-18
8336.47484 5.25134e-18
8338.48335 5.32441e-18
8340.48176 5.38898e-18
8342.48017 5.30196e-18
8344.47859 5.16614e-18
8346.47700 5.04192e-18
8348.48551 4.93135e-18
8350.48392 4.78346e-18
8352.48234 4.59731e-18
8354.48075 4.44378e-18
8356.48926 4.44755e-18
8358.48767 4.48595e-18
8360.48609 4.50996e-18
8362.48450 4.49060e-18
8364.48291 4.41263e-18
8366.49142 4.28396e-18
8368.48983 4.15414e-18
8370.48825 4.08825e-18
8372.48666 4.03411e-18
8374.48508 3.96572e-18
8376.49358 3.88806e-18
8378.49200 3.79985e-18
8380.49041 3.71584e-18
8382.48883 3.65286e-18
8384.49733 3.63306e-18
8386.49575 3.63329e-18
8388.49416 3.64337e-18
8390.49257 3.65363e-18
8392.49099 3.65811e-18
8394.49950 3.64907e-18
8396.49791 3.61393e-18
8398.49632 3.55958e-18
8400.49474 3.53231e-18
8402.50324 3.63604e-18
8404.50166 3.75717e-18
8406.50007 3.82519e-18
8408.49849 3.85997e-18
8410.49690 3.91401e-18
8412.50541 4.00168e-18
8414.50382 4.07858e-18
8416.50224 4.09378e-18
8418.50065 4.10341e-18
8420.49906 4.15747e-18
8422.50757 4.21710e-18
8424.50598 4.24009e-18
8426.50440 4.21856e-18
8428.50281 4.18193e-18
8430.51132 4.15700e-18
8432.50973 4.15224e-18
8434.50815 4.20516e-18
8436.50656 4.27703e-18
8438.50497 4.33501e-18
8440.51348 4.38178e-18
8442.51190 4.44598e-18
8444.51031 4.54508e-18
8446.50872 4.65387e-18
8448.50714 4.75354e-18
8450.51564 4.84193e-18
8452.51406 4.88904e-18
8454.51247 4.94140e-18
8456.51089 5.05854e-18
8458.51939 5.26384e-18
8460.51781 5.48663e-18
8462.51622 5.65544e-18
8464.51464 5.78719e-18
8466.51305 5.87028e-18
8468.52156 5.90549e-18
8470.51997 5.88478e-18
8472.51839 5.82671e-18
8474.51680 5.75188e-18
8476.52531 5.69416e-18
8478.52372 5.67043e-18
8480.52213 5.74939e-18
8482.52055 5.84530e-18
8484.51896 5.89124e-18
8486.52747 5.87008e-18
8488.52588 5.81472e-18
8490.52430 5.75328e-18
8492.52271 5.70937e-18
8494.52113 5.72678e-18
8496.52963 5.79962e-18
8498.52805 5.96502e-18
8500.52646 6.15973e-18
8502.52487 6.31711e-18
8504.53338 6.38060e-18
8506.53180 6.40636e-18
8508.53021 6.41977e-18
8510.52862 6.44596e-18
8512.52704 6.54143e-18
8514.53554 6.65178e-18
8516.53396 6.72707e-18
8518.53237 6.72642e-18
8520.53079 6.66408e-18
8522.52920 6.52828e-18
8524.53771 6.39313e-18
8526.53612 6.32646e-18
8528.53454 6.32883e-18
8530.53295 6.42820e-18
8532.54146 6.57231e-18
8534.53987 6.68004e-18
8536.53828 6.66728e-18
8538.53670 6.64792e-18
8540.53511 6.74039e-18
8542.54362 6.85881e-18
8544.54203 6.94615e-18
8546.54045 7.01246e-18
8548.53886 7.09979e-18
8550.53728 7.23366e-18
8552.54578 7.38749e-18
8554.54420 7.55725e-18
8556.54261 7.70601e-18
8558.54102 7.78985e-18
8560.54953 7.83175e-18
8562.54795 7.85800e-18
8564.54636 7.89562e-18
8566.54477 7.93943e-18
8568.54319 7.99781e-18
8570.55169 8.09063e-18
8572.55011 8.26446e-18
8574.54852 8.46454e-18
8576.54694 8.64030e-18
8578.54535 8.78011e-18
8580.55386 8.92440e-18
8582.55227 9.10243e-18
8584.55069 9.28731e-18
8586.54910 9.48137e-18
8588.55761 9.64379e-18
8590.55602 9.70951e-18
8592.55443 9.73464e-18
8594.55285 9.81801e-18
8596.55126 1.00274e-17
8598.55977 1.02514e-17
8600.55818 1.03530e-17
8602.55660 1.04420e-17
8604.55501 1.05817e-17
8606.55343 1.07385e-17
8608.56193 1.08518e-17
8610.56035 1.09019e-17
8612.55876 1.09424e-17
8614.55717 1.10251e-17
8616.56568 1.11361e-17
8618.56409 1.13020e-17
8620.56251 1.14801e-17
8622.56092 1.16243e-17
8624.55934 1.17328e-17
8626.56784 1.18593e-17
8628.56626 1.20509e-17
8630.56467 1.22361e-17
8632.56309 1.23193e-17
8634.57159 1.24015e-17
8636.57001 1.25741e-17
8638.56842 1.28199e-17
8640.56684 1.30535e-17
8642.56525 1.32155e-17
8644.57376 1.33797e-17
8646.57217 1.36269e-17
8648.57058 1.38866e-17
8650.56900 1.41676e-17
8652.56741 1.43767e-17
8654.57592 1.44119e-17
8656.57433 1.42475e-17
8658.57275 1.40412e-17
8660.57116 1.39760e-17
8662.57967 1.39807e-17
8664.57808 1.40869e-17
8666.57650 1.42321e-17
8668.57491 1.43695e-17
8670.57332 1.44592e-17
8672.58183 1.45310e-17
8674.58025 1.45913e-17
8676.57866 1.45944e-17
8678.57707 1.44556e-17
8680.57549 1.42710e-17
8682.58399 1.41032e-17
8684.58241 1.39946e-17
8686.58082 1.39223e-17
8688.57924 1.38940e-17
8690.58774 1.39177e-17
8692.58616 1.40394e-17
8694.58457 1.41777e-17
8696.58299 1.42777e-17
8698.58140 1.43322e-17
8700.58991 1.43650e-17
8702.58832 1.43907e-17
8704.58673 1.44127e-17
8706.58515 1.44467e-17
8708.59366 1.44801e-17
8710.59207 1.45125e-17
8712.59048 1.45336e-17
8714.58890 1.45083e-17
8716.58731 1.44733e-17
8718.59582 1.45105e-17
8720.59423 1.47375e-17
8722.59265 1.50238e-17
8724.59106 1.53270e-17
8726.58947 1.55643e-17
8728.59798 1.56503e-17
8730.59640 1.56020e-17
8732.59481 1.55242e-17
8734.59322 1.55100e-17
8736.60173 1.54755e-17
8738.60014 1.53503e-17
8740.59856 1.51931e-17
8742.59697 1.50120e-17
8744.59539 1.48643e-17
8746.60389 1.47933e-17
8748.60231 1.48353e-17
8750.60072 1.49251e-17
8752.59914 1.50168e-17
8754.60764 1.50800e-17
8756.60606 1.50686e-17
8758.60447 1.49916e-17
8760.60288 1.48585e-17
8762.60130 1.47008e-17
8764.60981 1.45440e-17
8766.60822 1.44360e-17
8768.60663 1.43718e-17
8770.60505 1.43854e-17
8772.60346 1.44329e-17
8774.61197 1.44859e-17
8776.61038 1.45155e-17
8778.60880 1.45271e-17
8780.60721 1.45102e-17
8782.61572 1.44759e-17
8784.61413 1.44092e-17
8786.61254 1.43622e-17
8788.61096 1.43767e-17
8790.60937 1.44568e-17
8792.61788 1.45834e-17
8794.61629 1.47331e-17
8796.61471 1.48854e-17
8798.61312 1.50206e-17
8800.61154 1.50932e-17
8802.62004 1.50480e-17
8804.61846 1.49071e-17
8806.61687 1.46896e-17
8808.61529 1.44470e-17
8810.62379 1.42193e-17
8812.62221 1.40990e-17
8814.62062 1.39861e-17
8816.61903 1.38063e-17
8818.61745 1.35972e-17
8820.62596 1.33749e-17
8822.62437 1.31956e-17
8824.62278 1.30945e-17
8826.62120 1.31383e-17
8828.62970 1.32796e-17
8830.62812 1.35903e-17
8832.62653 1.38565e-17
8834.62495 1.38715e-17
8836.62336 1.36723e-17
8838.63187 1.34427e-17
8840.63028 1.33366e-17
8842.62870 1.32593e-17
8844.62711 1.31994e-17
8846.62552 1.31219e-17
8848.63403 1.29590e-17
8850.63244 1.27822e-17
8852.63086 1.26992e-17
8854.62927 1.27460e-17
8856.63778 1.27922e-17
8858.63619 1.26845e-17
8860.63461 1.25272e-17
8862.63302 1.23476e-17
8864.63144 1.21675e-17
8866.63994 1.19951e-17
8868.63836 1.18412e-17
8870.63677 1.16955e-17
8872.63518 1.15537e-17
8874.63360 1.14164e-17
8876.64211 1.12675e-17
8878.64052 1.11411e-17
8880.63893 1.10766e-17
8882.63735 1.10594e-17
8884.64585 1.10480e-17
8886.64427 1.10007e-17
8888.64268 1.09386e-17
8890.64110 1.08460e-17
8892.63951 1.07667e-17
8894.64802 1.07382e-17
8896.64643 1.07536e-17
8898.64485 1.08024e-17
8900.64326 1.08507e-17
8902.65177 1.08609e-17
8904.65018 1.07359e-17
8906.64859 1.05908e-17
8908.64701 1.04564e-17
8910.64542 1.04091e-17
8912.65393 1.05464e-17
8914.65234 1.08276e-17
8916.65076 1.10792e-17
8918.64917 1.10819e-17
8920.64759 1.09499e-17
8922.65609 1.06605e-17
8924.65451 1.03124e-17
8926.65292 9.98051e-18
8928.65133 9.69706e-18
8930.65984 9.39166e-18
8932.65826 9.04314e-18
8934.65667 8.76880e-18
8936.65508 8.75750e-18
8938.65350 8.83672e-18
8940.66200 8.92448e-18
8942.66042 8.95660e-18
8944.65883 8.92651e-18
8946.65725 8.82192e-18
8948.66575 8.70805e-18
8950.66417 8.68999e-18
8952.66258 8.66681e-18
8954.66100 8.55774e-18
8956.65941 8.42680e-18
8958.66792 8.37442e-18
8960.66633 8.41216e-18
8962.66474 8.41785e-18
8964.66316 8.24258e-18
8966.66157 8.06307e-18
8968.67008 8.03304e-18
8970.66849 8.05067e-18
8972.66691 8.02195e-18
8974.66532 7.91120e-18
8976.67383 7.76765e-18
8978.67224 7.61890e-18
8980.67066 7.46239e-18
8982.66907 7.28227e-18
8984.66748 7.14168e-18
8986.67599 7.11528e-18
8988.67441 7.16301e-18
8990.67282 7.20284e-18
8992.67123 7.16518e-18
8994.66965 7.10829e-18
8996.67815 7.06320e-18
8998.67657 7.02642e-18
9000.67498 6.98874e-18
9002.67340 6.98398e-18
9004.68190 7.06726e-18
9006.68032 7.22527e-18
9008.67873 7.35781e-18
9010.67714 7.32591e-18
9012.67556 7.22926e-18
9014.68407 7.08581e-18
9016.68248 6.94255e-18
9018.68089 6.84232e-18
9020.67931 6.78559e-18
9022.67772 6.70853e-18
9024.68623 6.55379e-18
9026.68464 6.42017e-18
9028.68306 6.41810e-18
9030.68147 6.46699e-18
9032.68998 6.50870e-18
9034.68839 6.53295e-18
9036.68681 6.57623e-18
9038.68522 6.65459e-18
9040.68363 6.74097e-18
9042.69214 6.80547e-18
9044.69056 6.86642e-18
9046.68897 6.93466e-18
9048.68738 7.00280e-18
9050.68580 7.05621e-18
9052.69430 7.09250e-18
9054.69272 7.13310e-18
9056.69113 7.21582e-18
9058.68955 7.27880e-18
9060.69805 7.24410e-18
9062.69647 7.19063e-18
9064.69488 7.20955e-18
9066.69330 7.31782e-18
9068.69171 7.43165e-18
9070.70022 7.47237e-18
9072.69863 7.48077e-18
9074.69704 7.45023e-18
9076.69546 7.41192e-18
9078.69387 7.37202e-18
9080.70238 7.37059e-18
9082.70079 7.44384e-18
9084.69921 7.62178e-18
9086.69762 7.81010e-18
9088.70613 7.91053e-18
9090.70454 7.94189e-18
9092.70296 7.87465e-18
9094.70137 7.75385e-18
9096.69978 7.61626e-18
9098.70829 7.52103e-18
9100.70671 7.47237e-18
9102.70512 7.52949e-18
9104.70353 7.62548e-18
9106.70195 7.72676e-18
9108.71045 7.82426e-18
9110.70887 7.93467e-18
9112.70728 8.03748e-18
9114.70570 8.10029e-18
9116.71420 8.07161e-18
9118.71262 8.02913e-18
9120.71103 8.05662e-18
9122.70945 8.08710e-18
9124.70786 8.06933e-18
9126.71637 7.97627e-18
9128.71478 7.81449e-18
9130.71319 7.59141e-18
9132.71161 7.38198e-18
9134.72012 7.29780e-18
9136.71853 7.27617e-18
9138.71694 7.31712e-18
9140.71536 7.35447e-18
9142.71377 7.32257e-18
9144.72228 7.18222e-18
9146.72069 7.03972e-18
9148.71911 7.01069e-18
9150.71752 7.05952e-18
9152.71593 7.26168e-18
9154.72444 7.47652e-18
9156.72286 7.55509e-18
9158.72127 7.43725e-18
9160.71968 7.27594e-18
9162.72819 7.21412e-18
9164.72660 7.18091e-18
9166.72502 7.16230e-18
9168.72343 7.16688e-18
9170.72185 7.21372e-18
9172.73035 7.28739e-18
9174.72877 7.36196e-18
9176.72718 7.40284e-18
9178.72559 7.41873e-18
9180.73410 7.38191e-18
9182.73252 7.34155e-18
9184.73093 7.32656e-18
9186.72934 7.35769e-18
9188.72776 7.44218e-18
9190.73626 7.57407e-18
9192.73468 7.69916e-18
9194.73309 7.70474e-18
9196.73151 7.70481e-18
9198.72992 7.78208e-18
9200.73843 7.88839e-18
9202.73684 7.93751e-18
9204.73526 7.90429e-18
9206.73367 7.87746e-18
9208.74218 7.96168e-18
9210.74059 8.05067e-18
9212.73901 8.05554e-18
9214.73742 8.04426e-18
9216.73583 8.09024e-18
9218.74434 8.21143e-18
9220.74275 8.35888e-18
9222.74117 8.49097e-18
9224.73958 8.59085e-18
9226.73800 8.59752e-18
9228.74650 8.56978e-18
9230.74492 8.55693e-18
9232.74333 8.55718e-18
9234.74175 8.52708e-18
9236.75025 8.44306e-18
9238.74867 8.35010e-18
9240.74708 8.28292e-18
9242.74549 8.25283e-18
9244.74391 8.28853e-18
9246.75242 8.37084e-18
9248.75083 8.48349e-18
9250.74924 8.59134e-18
9252.74766 8.67397e-18
9254.75616 8.66348e-18
9256.75458 8.65990e-18
9258.75299 8.76165e-18
9260.75141 8.89601e-18
9262.74982 8.99369e-18
9264.75833 9.00378e-18
9266.75674 8.94758e-18
9268.75516 8.81809e-18
9270.75357 8.66657e-18
9272.75198 8.53188e-18
9274.76049 8.43640e-18
9276.75890 8.39898e-18
9278.75732 8.42379e-18
9280.75573 8.50829e-18
9282.76424 8.63265e-18
9284.76265 8.73229e-18
9286.76107 8.67251e-18
9288.75948 8.58166e-18
9290.75790 8.55124e-18
9292.76640 8.55701e-18
9294.76482 8.51301e-18
9296.76323 8.39378e-18
9298.76164 8.29130e-18
9300.76006 8.30976e-18
9302.76857 8.41134e-18
9304.76698 8.69154e-18
9306.76539 8.95229e-18
9308.76381 8.99711e-18
9310.77231 8.75213e-18
9312.77073 8.38548e-18
9314.76914 8.03127e-18
9316.76756 7.81680e-18
9318.76597 8.08815e-18
9320.77448 8.46551e-18
9322.77289 8.61923e-18
9324.77131 8.47259e-18
9326.76972 8.24900e-18
9328.77823 8.10711e-18
9330.77664 7.98413e-18
9332.77505 7.86051e-18
9334.77347 7.80770e-18
9336.77188 7.93065e-18
9338.78039 8.13945e-18
9340.77880 8.33091e-18
9342.77722 8.36523e-18
9344.77563 8.24469e-18
9346.77405 7.70971e-18
9348.78255 7.27447e-18
9350.78097 7.41268e-18
9352.77938 7.86551e-18
9354.77779 8.28552e-18
9356.78630 8.43818e-18
9358.78471 8.48918e-18
9360.78313 8.48373e-18
9362.78154 8.42127e-18
9364.77996 8.29601e-18
9366.78846 8.16059e-18
9368.78688 7.99485e-18
9370.78529 7.91923e-18
9372.78371 8.08340e-18
9374.79221 8.65388e-18
9376.79063 9.24729e-18
9378.78904 9.49991e-18
9380.78746 9.49560e-18
9382.78587 9.16953e-18
9384.79438 8.69666e-18
9386.79279 8.25803e-18
9388.79120 8.05626e-18
9390.78962 7.94275e-18
9392.78803 7.84055e-18
9394.79654 7.78905e-18
9396.79495 7.82663e-18
9398.79337 7.89133e-18
9400.79178 7.89117e-18
9402.80029 7.82116e-18
9404.79870 7.82687e-18
9406.79712 8.12111e-18
9408.79553 8.42354e-18
9410.79394 8.52529e-18
9412.80245 8.49520e-18
9414.80086 8.42037e-18
9416.79928 8.33741e-18
9418.79769 8.19540e-18
9420.79611 7.97437e-18
9422.80461 7.80084e-18
9424.80303 7.85346e-18
9426.80144 7.99773e-18
9428.79986 8.18402e-18
9430.80836 8.30415e-18
9432.80678 8.28658e-18
9434.80519 8.06574e-18
9436.80361 7.81992e-18
9438.80202 7.75222e-18
9440.81053 7.78089e-18
9442.80894 7.96134e-18
9444.80735 8.15360e-18
9446.80577 8.21289e-18
9448.81428 8.04948e-18
9450.81269 7.81439e-18
9452.81110 7.60288e-18
9454.80952 7.52570e-18
9456.80793 7.88474e-18
9458.81644 8.31464e-18
9460.81485 8.42013e-18
9462.81327 8.10033e-18
9464.81168 7.69986e-18
9466.81009 7.52708e-18
9468.81860 7.51360e-18
9470.81702 7.80221e-18
9472.81543 8.21257e-18
9474.81384 8.68519e-18
9476.82235 9.03249e-18
9478.82076 9.14505e-18
9480.81918 8.87340e-18
9482.81759 8.45779e-18
9484.81601 8.04999e-18
9486.82451 7.75063e-18
9488.82293 7.72528e-18
9490.82134 7.88598e-18
9492.81976 8.11182e-18
9494.81817 8.23697e-18
9496.82668 8.23021e-18
9498.82509 7.86787e-18
9500.82350 7.45272e-18
9502.82192 7.14558e-18
9504.83043 7.00151e-18
9506.82884 7.04291e-18
9508.82725 7.23381e-18
9510.82567 7.47000e-18
9512.82408 7.61440e-18
9514.83259 7.68278e-18
9516.83100 7.55564e-18
9518.82942 7.41128e-18
9520.82783 7.43394e-18
9522.82624 7.60588e-18
9524.83475 7.74923e-18
9526.83317 7.69998e-18
9528.83158 7.56012e-18
9530.82999 7.30183e-18
9532.83850 7.06632e-18
9534.83691 6.99731e-18
9536.83533 7.04521e-18
9538.83374 7.08176e-18
9540.83216 7.00816e-18
9542.84066 6.89692e-18
9544.83908 6.74979e-18
9546.83749 6.64313e-18
9548.83591 6.67097e-18
9550.83432 6.77358e-18
9552.84283 6.89001e-18
9554.84124 6.94879e-18
9556.83965 6.94698e-18
9558.83807 6.82830e-18
9560.84658 6.68027e-18
9562.84499 6.57579e-18
9564.84340 6.48752e-18
9566.84182 6.38386e-18
9568.84023 6.25841e-18
9570.84874 6.12210e-18
9572.84715 5.98686e-18
9574.84557 5.88322e-18
9576.84398 5.84427e-18
9578.84239 5.88219e-18
9580.85090 6.05341e-18
9582.84931 6.27952e-18
9584.84773 6.47218e-18
9586.84614 6.52654e-18
9588.85465 6.49345e-18
9590.85306 6.32628e-18
9592.85148 6.14526e-18
9594.84989 6.01358e-18
9596.84831 5.97913e-18
9598.85681 6.07491e-18
9600.85523 6.28148e-18
9602.85364 6.49663e-18
9604.85206 6.58182e-18
9606.86056 6.59522e-18
9608.85898 6.47524e-18
9610.85739 6.36046e-18
9612.85580 6.39500e-18
9614.85422 6.58872e-18
9616.86273 6.79774e-18
9618.86114 6.87990e-18
9620.85955 6.87334e-18
9622.85797 6.68775e-18
9624.85638 6.47721e-18
9626.86489 6.35096e-18
9628.86330 6.35233e-18
9630.86172 6.45573e-18
9632.86013 6.62302e-18
9634.86864 6.74464e-18
9636.86705 6.54721e-18
9638.86547 6.34613e-18
9640.86388 6.36644e-18
9642.86229 6.54413e-18
9644.87080 6.72878e-18
9646.86921 6.80908e-18
9648.86763 6.83920e-18
9650.86604 6.80875e-18
9652.86446 6.74980e-18
9654.87296 6.66164e-18
9656.87138 6.60054e-18
9658.86979 6.62179e-18
9660.86821 6.72965e-18
9662.87671 6.85885e-18
9664.87513 6.94180e-18
9666.87354 6.99258e-18
9668.87195 6.98772e-18
9670.87037 6.94649e-18
9672.87888 6.86413e-18
9674.87729 6.78055e-18
9676.87570 6.73385e-18
9678.87412 6.76826e-18
9680.88262 6.82629e-18
9682.88104 6.86247e-18
9684.87945 6.88613e-18
9686.87787 6.88471e-18
9688.87628 6.87861e-18
9690.88479 6.90319e-18
9692.88320 6.96458e-18
9694.88162 7.00404e-18
9696.88003 6.93513e-18
9698.87844 6.82821e-18
9700.88695 6.68612e-18
9702.88536 6.56975e-18
9704.88378 6.52377e-18
9706.88219 6.57657e-18
9708.89070 6.69492e-18
9710.88911 6.86426e-18
9712.88753 6.99691e-18
9714.88594 6.93700e-18
9716.88436 6.83171e-18
9718.89286 6.82898e-18
9720.89128 6.92771e-18
9722.88969 6.97858e-18
9724.88810 6.87456e-18
9726.89661 6.80064e-18
9728.89503 6.99654e-18
9730.89344 7.24219e-18
9732.89185 7.40327e-18
9734.89027 7.44989e-18
9736.89877 7.42588e-18
9738.89719 7.37311e-18
9740.89560 7.33975e-18
9742.89402 7.46789e-18
9744.89243 7.58787e-18
9746.90094 7.60173e-18
9748.89935 7.51250e-18
9750.89776 7.32745e-18
9752.89618 7.10779e-18
9754.90469 6.93662e-18
9756.90310 6.96394e-18
9758.90151 7.02268e-18
9760.89993 7.01724e-18
9762.89834 6.94027e-18
9764.90685 6.76101e-18
9766.90526 6.53947e-18
9768.90368 6.37536e-18
9770.90209 6.38810e-18
9772.90051 6.44637e-18
9774.90901 6.44653e-18
9776.90743 6.43811e-18
9778.90584 6.43723e-18
9780.90425 6.47221e-18
9782.91276 6.57375e-18
9784.91118 6.74866e-18
9786.90959 6.91377e-18
9788.90800 6.93844e-18
9790.90642 6.91401e-18
9792.91492 6.87926e-18
9794.91334 6.82756e-18
9796.91175 6.71657e-18
9798.91017 6.56052e-18
9800.91867 6.42513e-18
9802.91709 6.40707e-18
9804.91550 6.43449e-18
9806.91392 6.49254e-18
9808.91233 6.54891e-18
9810.92084 6.57214e-18
9812.91925 6.56601e-18
9814.91766 6.58386e-18
9816.91608 6.67677e-18
9818.91449 6.75009e-18
9820.92300 6.71858e-18
9822.92141 6.60736e-18
9824.91983 6.39782e-18
9826.91824 6.15536e-18
9828.92675 5.94013e-18
9830.92516 5.83442e-18
9832.92358 5.79846e-18
9834.92199 5.83697e-18
9836.92040 5.93457e-18
9838.92891 6.14115e-18
9840.92733 6.33172e-18
9842.92574 6.34924e-18
9844.92415 6.14771e-18
9846.92257 5.95964e-18
9848.93107 6.09109e-18
9850.92949 6.28185e-18
9852.92790 6.42059e-18
9854.92632 6.48502e-18
9856.93482 6.48331e-18
9858.93324 6.41766e-18
9860.93165 6.30702e-18
9862.93007 6.17331e-18
9864.92848 6.02649e-18
9866.93699 5.84984e-18
9868.93540 5.72756e-18
9870.93381 5.75702e-18
9872.93223 5.90262e-18
9874.94074 6.05210e-18
9876.93915 6.09906e-18
9878.93756 6.12350e-18
9880.93598 6.18230e-18
9882.93439 6.22113e-18
9884.94290 6.21175e-18
9886.94131 6.14277e-18
9888.93973 5.99088e-18
9890.93814 5.78971e-18
9892.93655 5.64283e-18
9894.94506 5.76428e-18
9896.94348 5.91411e-18
9898.94189 5.93385e-18
9900.94030 5.87495e-18
9902.94881 5.83237e-18
9904.94722 5.83793e-18
9906.94564 5.82232e-18
9908.94405 5.72030e-18
9910.94247 5.66732e-18
9912.95097 5.82233e-18
9914.94939 6.06194e-18
9916.94780 6.32876e-18
9918.94621 6.50436e-18
9920.95472 6.51719e-18
9922.95314 6.27187e-18
9924.95155 5.99160e-18
9926.94996 5.93331e-18
9928.94838 5.94984e-18
9930.95689 5.96408e-18
9932.95530 5.96318e-18
9934.95371 6.00170e-18
9936.95213 6.07523e-18
9938.95054 6.10374e-18
9940.95905 5.87668e-18
9942.95746 5.70713e-18
9944.95588 5.86171e-18
9946.95429 6.19035e-18
9948.96280 6.54299e-18
9950.96121 6.71162e-18
9952.95963 6.62601e-18
9954.95804 6.01455e-18
9956.95645 5.42719e-18
9958.96496 5.39626e-18
9960.96337 5.65395e-18
9962.96179 5.99106e-18
9964.96020 6.20763e-18
9966.95862 6.28163e-18
9968.96712 6.09929e-18
9970.96554 5.88051e-18
9972.96395 5.86416e-18
9974.96236 5.90805e-18
9976.97087 5.89107e-18
9978.96929 5.85828e-18
9980.96770 5.95968e-18
9982.96611 6.25436e-18
9984.96453 6.51934e-18
9986.97304 6.41824e-18
9988.97145 6.21978e-18
9990.96986 6.03167e-18
9992.96828 5.88119e-18
9994.97678 5.71576e-18
9996.97520 5.56012e-18
9998.97361 5.47494e-18
10000.97203 5.56819e-18
10002.97044 5.71157e-18
