# wavelength flux
3199.90060 2.36712e-17
3201.23286 2.25369e-17
3202.56512 2.14028e-17
3203.89738 2.08617e-17
3205.22964 2.03206e-17
3206.55189 1.97509e-17
3207.88415 1.91812e-17
3209.21641 1.97556e-17
3210.54867 2.03299e-17
3211.87091 2.06629e-17
3213.20318 2.09959e-17
3214.53544 2.11332e-17
3215.86770 2.12705e-17
3217.19996 2.21553e-17
3218.52220 2.30399e-17
3219.85446 2.33275e-17
3221.18672 2.36151e-17
3222.51899 2.26415e-17
3223.85125 2.16680e-17
3225.17349 2.11736e-17
3226.50575 2.06792e-17
3227.83801 2.06056e-17
3229.17027 2.05319e-17
3230.49252 2.04140e-17
3231.82478 2.02961e-17
3233.15704 2.14303e-17
3234.48930 2.25643e-17
3235.82156 2.30970e-17
3237.14381 2.36295e-17
3238.47607 2.30698e-17
3239.80833 2.25102e-17
3241.14059 2.19637e-17
3242.47285 2.14173e-17
3243.79509 2.10682e-17
3245.12735 2.07191e-17
3246.45961 2.06393e-17
3247.79188 2.05596e-17
3249.11412 2.06635e-17
3250.44638 2.07673e-17
3251.77864 2.05712e-17
3253.11090 2.03752e-17
3254.44316 2.04569e-17
3255.76541 2.05385e-17
3257.09767 2.05195e-17
3258.42993 2.05005e-17
3259.76219 1.98994e-17
3261.09445 1.92984e-17
3262.41670 1.92864e-17
3263.74896 1.92744e-17
3265.08122 1.97818e-17
3266.41348 2.02890e-17
3267.74574 2.04139e-17
3269.06798 2.05387e-17
3270.40024 2.10482e-17
3271.73251 2.15577e-17
3273.06477 2.19035e-17
3274.38701 2.22491e-17
3275.71927 2.16769e-17
3277.05153 2.11048e-17
3278.38379 2.09348e-17
3279.71606 2.07647e-17
3281.03830 2.12275e-17
3282.37056 2.16902e-17
3283.70282 2.18067e-17
3285.03508 2.19232e-17
3286.36734 2.16657e-17
3287.68959 2.14083e-17
3289.02185 2.10600e-17
3290.35411 2.07118e-17
3291.68637 2.05471e-17
3293.00861 2.03824e-17
3294.34088 2.07962e-17
3295.67314 2.12099e-17
3297.00540 2.16329e-17
3298.33766 2.20559e-17
3299.65990 2.22019e-17
3300.99216 2.23478e-17
3302.32442 2.25544e-17
3303.65669 2.27610e-17
3304.98895 2.25860e-17
3306.31119 2.24110e-17
3307.64345 2.25674e-17
3308.97571 2.27236e-17
3310.30797 2.29993e-17
3311.64023 2.32749e-17
3312.96248 2.28733e-17
3314.29474 2.24717e-17
3315.62700 2.23888e-17
3316.95926 2.23059e-17
3318.28151 2.27048e-17
3319.61377 2.31036e-17
3320.94603 2.30455e-17
3322.27829 2.29873e-17
3323.61055 2.26340e-17
3324.93279 2.22808e-17
3326.26505 2.21040e-17
3327.59731 2.19273e-17
3328.92958 2.19437e-17
3330.26184 2.19601e-17
3331.58408 2.22912e-17
3332.91634 2.26222e-17
3334.24860 2.27704e-17
3335.58086 2.29186e-17
3336.90311 2.28467e-17
3338.23537 2.27747e-17
3339.56763 2.30949e-17
3340.89989 2.34150e-17
3342.23215 2.35228e-17
3343.55440 2.36306e-17
3344.88666 2.39647e-17
3346.21892 2.42987e-17
3347.55118 2.44418e-17
3348.88344 2.45848e-17
3350.20568 2.41016e-17
3351.53795 2.36186e-17
3352.87021 2.33520e-17
3354.20247 2.30855e-17
3355.52471 2.28979e-17
3356.85697 2.27103e-17
3358.18923 2.26823e-17
3359.52149 2.26544e-17
3360.85376 2.28243e-17
3362.17600 2.29941e-17
3363.50826 2.31191e-17
3364.84052 2.32441e-17
3366.17278 2.34847e-17
3367.50504 2.37252e-17
3368.82729 2.35461e-17
3370.15955 2.33671e-17
3371.49181 2.33661e-17
3372.82407 2.33651e-17
3374.15633 2.36445e-17
3375.47858 2.39238e-17
3376.81084 2.35924e-17
3378.14310 2.32611e-17
3379.47536 2.32578e-17
3380.79760 2.32544e-17
3382.12986 2.36079e-17
3383.46212 2.39614e-17
3384.79439 2.39961e-17
3386.12665 2.40308e-17
3387.44889 2.39368e-17
3388.78115 2.38429e-17
3390.11341 2.38042e-17
3391.44567 2.37656e-17
3392.77793 2.38998e-17
3394.10018 2.40340e-17
3395.43244 2.40118e-17
3396.76470 2.39896e-17
3398.09696 2.39244e-17
3399.41921 2.38593e-17
3400.75147 2.41669e-17
3402.08373 2.44744e-17
3403.41599 2.45357e-17
3404.74825 2.45969e-17
3406.07049 2.42724e-17
3407.40275 2.39481e-17
3408.73501 2.38698e-17
3410.06728 2.37915e-17
3411.39954 2.37878e-17
3412.72178 2.37842e-17
3414.05404 2.38355e-17
3415.38630 2.38867e-17
3416.71856 2.39862e-17
3418.04081 2.40857e-17
3419.37307 2.41009e-17
3420.70533 2.41160e-17
3422.03759 2.39887e-17
3423.36985 2.38614e-17
3424.69210 2.37975e-17
3426.02436 2.37336e-17
3427.35662 2.38413e-17
3428.68888 2.39489e-17
3430.02114 2.39963e-17
3431.34338 2.40437e-17
3432.67564 2.39265e-17
3434.00791 2.38092e-17
3435.34017 2.39259e-17
3436.66241 2.40426e-17
3437.99467 2.42694e-17
3439.32693 2.44960e-17
3440.65919 2.43546e-17
3441.99146 2.42133e-17
3443.31370 2.40818e-17
3444.64596 2.39504e-17
3445.97822 2.41364e-17
3447.31048 2.43223e-17
3448.64274 2.44003e-17
3449.96499 2.44782e-17
3451.29725 2.43568e-17
3452.62951 2.42355e-17
3453.96177 2.40558e-17
3455.29403 2.38762e-17
3456.61628 2.37852e-17
3457.94854 2.36943e-17
3459.28080 2.38110e-17
3460.61306 2.39276e-17
3461.93530 2.39878e-17
3463.26756 2.40479e-17
3464.59982 2.39595e-17
3465.93209 2.38710e-17
3467.26435 2.37326e-17
3468.58659 2.35941e-17
3469.91885 2.35109e-17
3471.25111 2.34278e-17
3472.58337 2.33164e-17
3473.91563 2.32051e-17
3475.23788 2.30984e-17
3476.57014 2.29917e-17
3477.90240 2.27692e-17
3479.23466 2.25469e-17
3480.55691 2.24252e-17
3481.88917 2.23035e-17
3483.22143 2.22774e-17
3484.55369 2.22513e-17
3485.88595 2.20925e-17
3487.20819 2.19337e-17
3488.54045 2.17872e-17
3489.87271 2.16408e-17
3491.20498 2.16464e-17
3492.53724 2.16520e-17
3493.85948 2.17607e-17
3495.19174 2.18695e-17
3496.52400 2.18095e-17
3497.85626 2.17496e-17
3499.18853 2.15792e-17
3500.51077 2.14087e-17
3501.84303 2.15400e-17
3503.17529 2.16713e-17
3504.50755 2.15775e-17
3505.82980 2.14836e-17
3507.16206 2.12237e-17
3508.49432 2.09640e-17
3509.82658 2.11403e-17
3511.15884 2.13167e-17
3512.48108 2.13799e-17
3513.81335 2.14430e-17
3515.14561 2.13550e-17
3516.47787 2.12670e-17
3517.81013 2.12308e-17
3519.13237 2.11946e-17
3520.46463 2.10981e-17
3521.79689 2.10017e-17
3523.12916 2.09805e-17
3524.45140 2.09593e-17
3525.78366 2.10480e-17
3527.11592 2.11367e-17
3528.44818 2.10755e-17
3529.78044 2.10143e-17
3531.10269 2.09677e-17
3532.43495 2.09211e-17
3533.76721 2.08720e-17
3535.09947 2.08230e-17
3536.43173 2.06207e-17
3537.75398 2.04186e-17
3539.08624 2.05185e-17
3540.41850 2.06184e-17
3541.75076 2.07594e-17
3543.07300 2.09003e-17
3544.40526 2.08295e-17
3545.73752 2.07587e-17
3547.06979 2.06865e-17
3548.40205 2.06143e-17
3549.72429 2.04874e-17
3551.05655 2.03605e-17
3552.38881 2.03011e-17
3553.72107 2.02418e-17
3555.05333 2.02515e-17
3556.37558 2.02612e-17
3557.70784 2.02264e-17
3559.04010 2.01916e-17
3560.37236 2.01370e-17
3561.70462 2.00823e-17
3563.02687 2.00746e-17
3564.35913 2.00670e-17
3565.69139 2.02262e-17
3567.02365 2.03854e-17
3568.34589 2.03740e-17
3569.67815 2.03626e-17
3571.01041 2.04114e-17
3572.34268 2.04601e-17
3573.67494 2.04062e-17
3574.99718 2.03523e-17
3576.32944 2.01514e-17
3577.66170 1.99505e-17
3578.99396 1.98427e-17
3580.32623 1.97350e-17
3581.64847 1.95564e-17
3582.98073 1.93779e-17
3584.31299 1.92645e-17
3585.64525 1.91511e-17
3586.96750 1.92522e-17
3588.29976 1.93533e-17
3589.63202 1.95155e-17
3590.96428 1.96776e-17
3592.29654 1.97483e-17
3593.61878 1.98188e-17
3594.95105 1.98360e-17
3596.28331 1.98531e-17
3597.61557 1.96919e-17
3598.94783 1.95307e-17
3600.27007 1.93668e-17
3601.60233 1.92030e-17
3602.93459 1.92747e-17
3604.26686 1.93465e-17
3605.58910 1.93232e-17
3606.92136 1.93000e-17
3608.25362 1.91484e-17
3609.58588 1.89969e-17
3610.91814 1.90527e-17
3612.24039 1.91084e-17
3613.57265 1.93505e-17
3614.90491 1.95924e-17
3616.23717 1.94438e-17
3617.56943 1.92953e-17
3618.89168 1.92064e-17
3620.22394 1.91177e-17
3621.55620 1.92336e-17
3622.88846 1.93496e-17
3624.22072 1.93018e-17
3625.54296 1.92539e-17
3626.87522 1.91820e-17
3628.20749 1.91100e-17
3629.53975 1.91076e-17
3630.86199 1.91051e-17
3632.19425 1.90171e-17
3633.52651 1.89291e-17
3634.85877 1.87381e-17
3636.19103 1.85472e-17
3637.51328 1.84635e-17
3638.84554 1.83799e-17
3640.17780 1.83734e-17
3641.51006 1.83669e-17
3642.84232 1.83525e-17
3644.16457 1.83381e-17
3645.49683 1.82056e-17
3646.82909 1.80731e-17
3648.16135 1.80718e-17
3649.48359 1.80705e-17
3650.81585 1.80151e-17
3652.14811 1.79598e-17
3653.48038 1.77643e-17
3654.81264 1.75689e-17
3656.13488 1.75199e-17
3657.46714 1.74709e-17
3658.79940 1.72916e-17
3660.13166 1.71123e-17
3661.46393 1.69793e-17
3662.78617 1.68463e-17
3664.11843 1.68183e-17
3665.45069 1.67903e-17
3666.78295 1.66251e-17
3668.10520 1.64599e-17
3669.43746 1.64049e-17
3670.76972 1.63499e-17
3672.10198 1.63811e-17
3673.43424 1.64123e-17
3674.75648 1.63631e-17
3676.08875 1.63140e-17
3677.42101 1.61787e-17
3678.75327 1.60433e-17
3680.08553 1.60087e-17
3681.40777 1.59740e-17
3682.74003 1.60153e-17
3684.07229 1.60565e-17
3685.40456 1.59891e-17
3686.73682 1.59217e-17
3688.05906 1.58506e-17
3689.39132 1.57795e-17
3690.72358 1.58234e-17
3692.05584 1.58674e-17
3693.37809 1.57425e-17
3694.71035 1.56177e-17
3696.04261 1.55198e-17
3697.37487 1.54219e-17
3698.70713 1.54681e-17
3700.02938 1.55142e-17
3701.36164 1.54919e-17
3702.69390 1.54696e-17
3704.02616 1.53641e-17
3705.35842 1.52587e-17
3706.68066 1.52536e-17
3708.01292 1.52486e-17
3709.34519 1.52390e-17
3710.67745 1.52295e-17
3711.99969 1.52084e-17
3713.33195 1.51873e-17
3714.66421 1.51617e-17
3715.99647 1.51362e-17
3717.32873 1.51044e-17
3718.65098 1.50727e-17
3719.98324 1.50410e-17
3721.31550 1.50093e-17
3722.64776 1.49776e-17
3723.98002 1.49459e-17
3725.30227 1.49142e-17
3726.63453 1.48825e-17
3727.96679 1.48508e-17
3729.29905 1.48191e-17
3730.62129 1.47875e-17
3731.95355 1.47558e-17
3733.28581 1.47242e-17
3734.61808 1.46926e-17
3735.95034 1.46609e-17
3737.27258 1.46293e-17
3738.60484 1.45977e-17
3739.93710 1.45661e-17
3741.26936 1.45345e-17
3742.60163 1.45029e-17
3743.92387 1.44713e-17
3745.25613 1.44397e-17
3746.58839 1.44082e-17
3747.92065 1.43766e-17
3749.25291 1.43451e-17
3750.57516 1.43135e-17
3751.90742 1.42820e-17
3753.23968 1.42505e-17
3754.57194 1.41958e-17
3755.89418 1.41412e-17
3757.22645 1.40221e-17
3758.55871 1.39029e-17
3759.89097 1.37409e-17
3761.22323 1.35790e-17
3762.54547 1.34804e-17
3763.87773 1.33819e-17
3765.20999 1.33250e-17
3766.54226 1.32681e-17
3767.87452 1.32972e-17
3769.19676 1.33263e-17
3770.52902 1.34300e-17
3771.86128 1.35336e-17
3773.19354 1.34358e-17
3774.51579 1.33381e-17
3775.84805 1.32241e-17
3777.18031 1.31102e-17
3778.51257 1.31009e-17
3779.84483 1.30917e-17
3781.16708 1.30204e-17
3782.49934 1.29492e-17
3783.83160 1.28674e-17
3785.16386 1.27858e-17
3786.49612 1.27326e-17
3787.81836 1.26794e-17
3789.15062 1.26726e-17
3790.48289 1.26659e-17
3791.81515 1.27252e-17
3793.14741 1.27844e-17
3794.46965 1.28510e-17
3795.80191 1.29177e-17
3797.13417 1.29218e-17
3798.46643 1.29258e-17
3799.78868 1.29731e-17
3801.12094 1.30204e-17
3802.45320 1.31517e-17
3803.78546 1.32831e-17
3805.11772 1.34143e-17
3806.43997 1.35455e-17
3807.77223 1.37234e-17
3809.10449 1.39013e-17
3810.43675 1.41047e-17
3811.76901 1.43081e-17
3813.09125 1.45016e-17
3814.42351 1.46951e-17
3815.75578 1.48538e-17
3817.08804 1.50124e-17
3818.41028 1.52155e-17
3819.74254 1.54185e-17
3821.07480 1.55973e-17
3822.40706 1.57760e-17
3823.73933 1.58912e-17
3825.06157 1.60062e-17
3826.39383 1.61444e-17
3827.72609 1.62826e-17
3829.05835 1.64649e-17
3830.39061 1.66472e-17
3831.71286 1.68450e-17
3833.04512 1.70428e-17
3834.37738 1.71836e-17
3835.70964 1.73243e-17
3837.03188 1.75014e-17
3838.36415 1.76784e-17
3839.69641 1.77720e-17
3841.02867 1.78657e-17
3842.36093 1.79282e-17
3843.68317 1.79907e-17
3845.01543 1.82084e-17
3846.34769 1.84261e-17
3847.67996 1.87657e-17
3849.01222 1.91052e-17
3850.33446 1.93076e-17
3851.66672 1.95099e-17
3852.99898 1.95548e-17
3854.33124 1.95997e-17
3855.65349 1.96345e-17
3856.98575 1.96694e-17
3858.31801 1.98639e-17
3859.65027 2.00583e-17
3860.98253 2.02282e-17
3862.30478 2.03981e-17
3863.63704 2.04630e-17
3864.96930 2.05279e-17
3866.30156 2.06141e-17
3867.63382 2.07003e-17
3868.95606 2.07531e-17
3870.28832 2.08060e-17
3871.62059 2.08520e-17
3872.95285 2.08979e-17
3874.28511 2.09326e-17
3875.60735 2.09672e-17
3876.93961 2.10935e-17
3878.27187 2.12197e-17
3879.60413 2.13438e-17
3880.92638 2.14678e-17
3882.25864 2.15472e-17
3883.59090 2.16266e-17
3884.92316 2.17586e-17
3886.25542 2.18906e-17
3887.57767 2.19270e-17
3888.90993 2.19635e-17
3890.24219 2.19501e-17
3891.57445 2.19367e-17
3892.90671 2.20244e-17
3894.22895 2.21122e-17
3895.56122 2.22390e-17
3896.89348 2.23657e-17
3898.22574 2.23992e-17
3899.54798 2.24327e-17
3900.88024 2.24049e-17
3902.21250 2.23771e-17
3903.54476 2.23255e-17
3904.87703 2.22740e-17
3906.19927 2.23671e-17
3907.53153 2.24602e-17
3908.86379 2.25624e-17
3910.19605 2.26646e-17
3911.52831 2.26856e-17
3912.85056 2.27065e-17
3914.18282 2.27803e-17
3915.51508 2.28540e-17
3916.84734 2.29192e-17
3918.16958 2.29844e-17
3919.50185 2.29789e-17
3920.83411 2.29734e-17
3922.16637 2.28060e-17
3923.49863 2.26386e-17
3924.82087 2.24329e-17
3926.15313 2.22274e-17
3927.48539 2.21757e-17
3928.81766 2.21240e-17
3930.14992 2.20887e-17
3931.47216 2.20533e-17
3932.80442 2.20624e-17
3934.13668 2.20714e-17
3935.46894 2.22376e-17
3936.79119 2.24039e-17
3938.12345 2.25842e-17
3939.45571 2.27644e-17
3940.78797 2.28674e-17
3942.12023 2.29703e-17
3943.44248 2.29476e-17
3944.77474 2.29250e-17
3946.10700 2.30345e-17
3947.43926 2.31439e-17
3948.77152 2.31743e-17
3950.09376 2.32046e-17
3951.42602 2.31713e-17
3952.75829 2.31380e-17
3954.09055 2.30335e-17
3955.42281 2.29290e-17
3956.74505 2.27273e-17
3958.07731 2.25256e-17
3959.40957 2.25337e-17
3960.74183 2.25417e-17
3962.06408 2.23898e-17
3963.39634 2.22380e-17
3964.72860 2.20354e-17
3966.06086 2.18329e-17
3967.39312 2.18681e-17
3968.71537 2.19032e-17
3970.04763 2.19171e-17
3971.37989 2.19309e-17
3972.71215 2.19117e-17
3974.04441 2.18924e-17
3975.36665 2.18717e-17
3976.69891 2.18510e-17
3978.03118 2.18949e-17
3979.36344 2.19388e-17
3980.69570 2.18537e-17
3982.01794 2.17687e-17
3983.35020 2.16520e-17
3984.68246 2.15354e-17
3986.01472 2.15253e-17
3987.33697 2.15153e-17
3988.66923 2.14226e-17
3990.00149 2.13300e-17
3991.33375 2.11953e-17
3992.66601 2.10606e-17
3993.98826 2.09767e-17
3995.32052 2.08928e-17
3996.65278 2.08632e-17
3997.98504 2.08335e-17
3999.31730 2.06864e-17
4000.63954 2.05393e-17
4001.97181 2.04159e-17
4003.30407 2.02925e-17
4004.63633 2.02970e-17
4005.95857 2.03016e-17
4007.29083 2.02793e-17
4008.62309 2.02571e-17
4009.95536 2.01339e-17
4011.28762 2.00107e-17
4012.60986 1.98600e-17
4013.94212 1.97093e-17
4015.27438 1.97084e-17
4016.60664 1.97075e-17
4017.93890 1.95784e-17
4019.26115 1.94494e-17
4020.59341 1.93256e-17
4021.92567 1.92018e-17
4023.25793 1.92635e-17
4024.58018 1.93251e-17
4025.91244 1.92418e-17
4027.24470 1.91584e-17
4028.57696 1.90410e-17
4029.90922 1.89236e-17
4031.23146 1.89004e-17
4032.56372 1.88772e-17
4033.89599 1.88314e-17
4035.22825 1.87856e-17
4036.56051 1.88170e-17
4037.88275 1.88484e-17
4039.21501 1.88459e-17
4040.54727 1.88433e-17
4041.87953 1.86987e-17
4043.21180 1.85541e-17
4044.53404 1.84969e-17
4045.86630 1.84396e-17
4047.19856 1.84973e-17
4048.53082 1.85550e-17
4049.85307 1.85066e-17
4051.18533 1.84583e-17
4052.51759 1.84326e-17
4053.84985 1.84070e-17
4055.18211 1.84601e-17
4056.50435 1.85132e-17
4057.83662 1.84813e-17
4059.16888 1.84494e-17
4060.50114 1.83505e-17
4061.83340 1.82515e-17
4063.15564 1.81732e-17
4064.48790 1.80949e-17
4065.82016 1.80772e-17
4067.15243 1.80594e-17
4068.47467 1.80482e-17
4069.80693 1.80371e-17
4071.13919 1.79468e-17
4072.47145 1.78566e-17
4073.80371 1.78166e-17
4075.12596 1.77765e-17
4076.45822 1.77394e-17
4077.79048 1.77023e-17
4079.12274 1.76091e-17
4080.45500 1.75160e-17
4081.77725 1.74485e-17
4083.10951 1.73812e-17
4084.44177 1.74296e-17
4085.77403 1.74780e-17
4087.09627 1.74604e-17
4088.42853 1.74428e-17
4089.76079 1.74325e-17
4091.09306 1.74222e-17
4092.42532 1.74595e-17
4093.74756 1.74968e-17
4095.07982 1.74981e-17
4096.41208 1.74995e-17
4097.74434 1.75273e-17
4099.07660 1.75551e-17
4100.39885 1.75414e-17
4101.73111 1.75276e-17
4103.06337 1.74420e-17
4104.39563 1.73565e-17
4105.71788 1.73134e-17
4107.05014 1.72703e-17
4108.38240 1.72041e-17
4109.71466 1.71379e-17
4111.04692 1.70340e-17
4112.36916 1.69301e-17
4113.70142 1.68773e-17
4115.03369 1.68245e-17
4116.36595 1.68055e-17
4117.69821 1.67866e-17
4119.02045 1.67030e-17
4120.35271 1.66195e-17
4121.68497 1.65453e-17
4123.01723 1.64711e-17
4124.34950 1.63157e-17
4125.67174 1.61603e-17
4127.00400 1.60010e-17
4128.33626 1.58417e-17
4129.66852 1.57702e-17
4130.99077 1.56987e-17
4132.32303 1.57012e-17
4133.65529 1.57036e-17
4134.98755 1.57251e-17
4136.31981 1.57465e-17
4137.64205 1.57558e-17
4138.97432 1.57650e-17
4140.30658 1.58595e-17
4141.63884 1.59540e-17
4142.97110 1.60644e-17
4144.29334 1.61748e-17
4145.62560 1.62441e-17
4146.95786 1.63134e-17
4148.29013 1.63703e-17
4149.61237 1.64272e-17
4150.94463 1.64753e-17
4152.27689 1.65234e-17
4153.60915 1.65990e-17
4154.94141 1.66747e-17
4156.26366 1.67854e-17
4157.59592 1.68961e-17
4158.92818 1.70756e-17
4160.26044 1.72551e-17
4161.59270 1.74474e-17
4162.91495 1.76396e-17
4164.24721 1.76395e-17
4165.57947 1.76394e-17
4166.91173 1.76008e-17
4168.24399 1.75622e-17
4169.56623 1.76244e-17
4170.89849 1.76865e-17
4172.23075 1.76712e-17
4173.56302 1.76558e-17
4174.88526 1.76467e-17
4176.21752 1.76376e-17
4177.54978 1.76412e-17
4178.88204 1.76447e-17
4180.21430 1.76213e-17
4181.53655 1.75980e-17
4182.86881 1.76125e-17
4184.20107 1.76270e-17
4185.53333 1.76410e-17
4186.86559 1.76550e-17
4188.18784 1.76799e-17
4189.52010 1.77047e-17
4190.85236 1.77705e-17
4192.18462 1.78363e-17
4193.51688 1.77954e-17
4194.83912 1.77545e-17
4196.17139 1.76355e-17
4197.50365 1.75166e-17
4198.83591 1.74224e-17
4200.15815 1.73283e-17
4201.49041 1.73043e-17
4202.82267 1.72803e-17
4204.15493 1.72540e-17
4205.48720 1.72277e-17
4206.80944 1.71344e-17
4208.14170 1.70412e-17
4209.47396 1.70058e-17
4210.80622 1.69704e-17
4212.12847 1.69213e-17
4213.46073 1.68721e-17
4214.79299 1.68322e-17
4216.12525 1.67923e-17
4217.45751 1.68639e-17
4218.77975 1.69354e-17
4220.11201 1.69951e-17
4221.44428 1.70548e-17
4222.77654 1.69180e-17
4224.10880 1.67812e-17
4225.43104 1.67093e-17
4226.76330 1.66373e-17
4228.09556 1.66766e-17
4229.42782 1.67159e-17
4230.76009 1.66679e-17
4232.08233 1.66200e-17
4233.41459 1.66118e-17
4234.74685 1.66036e-17
4236.07911 1.66305e-17
4237.40136 1.66573e-17
4238.73362 1.66322e-17
4240.06588 1.66071e-17
4241.39814 1.65817e-17
4242.73040 1.65563e-17
4244.05265 1.65793e-17
4245.38491 1.66022e-17
4246.71717 1.66085e-17
4248.04943 1.66148e-17
4249.38169 1.65506e-17
4250.70393 1.64864e-17
4252.03619 1.64733e-17
4253.36845 1.64602e-17
4254.70072 1.64449e-17
4256.02296 1.64297e-17
4257.35522 1.64036e-17
4258.68748 1.63775e-17
4260.01974 1.64527e-17
4261.35200 1.65279e-17
4262.67425 1.65516e-17
4264.00651 1.65753e-17
4265.33877 1.65535e-17
4266.67103 1.65318e-17
4268.00329 1.65482e-17
4269.32554 1.65646e-17
4270.65780 1.65500e-17
4271.99006 1.65355e-17
4273.32232 1.64830e-17
4274.65458 1.64306e-17
4275.97682 1.64140e-17
4277.30909 1.63974e-17
4278.64135 1.64051e-17
4279.97361 1.64129e-17
4281.29585 1.63753e-17
4282.62811 1.63376e-17
4283.96037 1.62997e-17
4285.29263 1.62618e-17
4286.62490 1.63147e-17
4287.94714 1.63676e-17
4289.27940 1.63454e-17
4290.61166 1.63231e-17
4291.94392 1.62649e-17
4293.27618 1.62067e-17
4294.59843 1.61655e-17
4295.93069 1.61244e-17
4297.26295 1.61015e-17
4298.59521 1.60787e-17
4299.91745 1.60140e-17
4301.24971 1.59493e-17
4302.58198 1.59055e-17
4303.91424 1.58617e-17
4305.24650 1.58559e-17
4306.56874 1.58501e-17
4307.90100 1.58628e-17
4309.23326 1.58754e-17
4310.56552 1.58751e-17
4311.89779 1.58748e-17
4313.22003 1.57795e-17
4314.55229 1.56842e-17
4315.88455 1.56270e-17
4317.21681 1.55699e-17
4318.53906 1.54883e-17
4319.87132 1.54068e-17
4321.20358 1.53102e-17
4322.53584 1.52137e-17
4323.86810 1.51749e-17
4325.19035 1.51361e-17
4326.52261 1.50342e-17
4327.85487 1.49324e-17
4329.18713 1.48517e-17
4330.51939 1.47710e-17
4331.84163 1.47116e-17
4333.17389 1.46521e-17
4334.50616 1.46007e-17
4335.83842 1.45492e-17
4337.17068 1.45274e-17
4338.49292 1.45057e-17
4339.82518 1.44936e-17
4341.15744 1.44814e-17
4342.48970 1.44516e-17
4343.81195 1.44218e-17
4345.14421 1.43606e-17
4346.47647 1.42994e-17
4347.80873 1.42627e-17
4349.14099 1.42259e-17
4350.46324 1.42092e-17
4351.79550 1.41925e-17
4353.12776 1.42036e-17
4354.46002 1.42147e-17
4355.79228 1.42258e-17
4357.11452 1.42368e-17
4358.44679 1.42479e-17
4359.77905 1.42590e-17
4361.11131 1.42700e-17
4362.43355 1.42811e-17
4363.76581 1.42922e-17
4365.09807 1.43032e-17
4366.43033 1.43143e-17
4367.76260 1.43253e-17
4369.08484 1.43364e-17
4370.41710 1.43474e-17
4371.74936 1.43585e-17
4373.08162 1.43695e-17
4374.41388 1.43806e-17
4375.73613 1.43916e-17
4377.06839 1.44027e-17
4378.40065 1.44137e-17
4379.73291 1.44247e-17
4381.05515 1.44358e-17
4382.38742 1.44468e-17
4383.71968 1.44578e-17
4385.05194 1.44689e-17
4386.38420 1.44799e-17
4387.70644 1.44909e-17
4389.03870 1.45019e-17
4390.37096 1.45229e-17
4391.70323 1.45438e-17
4393.03549 1.45961e-17
4394.35773 1.46483e-17
4395.68999 1.46274e-17
4397.02225 1.46065e-17
4398.35451 1.46523e-17
4399.68677 1.46981e-17
4401.00902 1.47706e-17
4402.34128 1.48431e-17
4403.67354 1.48679e-17
4405.00580 1.48926e-17
4406.32805 1.48806e-17
4407.66031 1.48686e-17
4408.99257 1.48881e-17
4410.32483 1.49075e-17
4411.65709 1.49036e-17
4412.97933 1.48998e-17
4414.31159 1.48867e-17
4415.64385 1.48737e-17
4416.97612 1.49101e-17
4418.30838 1.49464e-17
4419.63062 1.49598e-17
4420.96288 1.49733e-17
4422.29514 1.49573e-17
4423.62740 1.49413e-17
4424.94965 1.49924e-17
4426.28191 1.50434e-17
4427.61417 1.51240e-17
4428.94643 1.52046e-17
4430.27869 1.51948e-17
4431.60094 1.51851e-17
4432.93320 1.52111e-17
4434.26546 1.52372e-17
4435.59772 1.53184e-17
4436.92998 1.53996e-17
4438.25222 1.54849e-17
4439.58449 1.55702e-17
4440.91675 1.55955e-17
4442.24901 1.56207e-17
4443.57125 1.56365e-17
4444.90351 1.56523e-17
4446.23577 1.57004e-17
4447.56803 1.57485e-17
4448.90030 1.58063e-17
4450.22254 1.58642e-17
4451.55480 1.59506e-17
4452.88706 1.60369e-17
4454.21932 1.60971e-17
4455.55158 1.61573e-17
4456.87383 1.62467e-17
4458.20609 1.63360e-17
4459.53835 1.63815e-17
4460.87061 1.64270e-17
4462.19285 1.64279e-17
4463.52512 1.64289e-17
4464.85738 1.64449e-17
4466.18964 1.64610e-17
4467.52190 1.64656e-17
4468.84414 1.64702e-17
4470.17640 1.64641e-17
4471.50866 1.64580e-17
4472.84093 1.64824e-17
4474.17319 1.65068e-17
4475.49543 1.65772e-17
4476.82769 1.66475e-17
4478.15995 1.66644e-17
4479.49221 1.66813e-17
4480.82447 1.66617e-17
4482.14672 1.66421e-17
4483.47898 1.67219e-17
4484.81124 1.68018e-17
4486.14350 1.69198e-17
4487.46575 1.70377e-17
4488.79801 1.71192e-17
4490.13027 1.72008e-17
4491.46253 1.72735e-17
4492.79479 1.73463e-17
4494.11703 1.73873e-17
4495.44929 1.74282e-17
4496.78155 1.74898e-17
4498.11382 1.75513e-17
4499.44608 1.76334e-17
4500.76832 1.77155e-17
4502.10058 1.77930e-17
4503.43284 1.78705e-17
4504.76510 1.79070e-17
4506.08735 1.79435e-17
4507.41961 1.79552e-17
4508.75187 1.79668e-17
4510.08413 1.79905e-17
4511.41639 1.80142e-17
4512.73864 1.79871e-17
4514.07090 1.79600e-17
4515.40316 1.79756e-17
4516.73542 1.79911e-17
4518.06768 1.80056e-17
4519.38992 1.80201e-17
4520.72219 1.80724e-17
4522.05445 1.81247e-17
4523.38671 1.81907e-17
4524.70895 1.82568e-17
4526.04121 1.83438e-17
4527.37347 1.84309e-17
4528.70573 1.84891e-17
4530.03800 1.85472e-17
4531.36024 1.85616e-17
4532.69250 1.85760e-17
4534.02476 1.86541e-17
4535.35702 1.87322e-17
4536.68928 1.88264e-17
4538.01153 1.89206e-17
4539.34379 1.89663e-17
4540.67605 1.90120e-17
4542.00831 1.91003e-17
4543.33055 1.91885e-17
4544.66281 1.92386e-17
4545.99508 1.92887e-17
4547.32734 1.92834e-17
4548.65960 1.92781e-17
4549.98184 1.92884e-17
4551.31410 1.92987e-17
4552.64636 1.93864e-17
4553.97862 1.94741e-17
4555.31089 1.95105e-17
4556.63313 1.95469e-17
4557.96539 1.94720e-17
4559.29765 1.93971e-17
4560.62991 1.93759e-17
4561.96217 1.93548e-17
4563.28442 1.93906e-17
4564.61668 1.94264e-17
4565.94894 1.93912e-17
4567.28120 1.93561e-17
4568.60345 1.93180e-17
4569.93571 1.92799e-17
4571.26797 1.92151e-17
4572.60023 1.91504e-17
4573.93249 1.90740e-17
4575.25473 1.89977e-17
4576.58699 1.89953e-17
4577.91925 1.89928e-17
4579.25152 1.89813e-17
4580.58378 1.89699e-17
4581.90602 1.90028e-17
4583.23828 1.90357e-17
4584.57054 1.90481e-17
4585.90280 1.90605e-17
4587.22505 1.90037e-17
4588.55731 1.89469e-17
4589.88957 1.89205e-17
4591.22183 1.88942e-17
4592.55409 1.89010e-17
4593.87634 1.89078e-17
4595.20860 1.89546e-17
4596.54086 1.90013e-17
4597.87312 1.90467e-17
4599.20538 1.90920e-17
4600.52762 1.90443e-17
4601.85989 1.89966e-17
4603.19215 1.89330e-17
4604.52441 1.88694e-17
4605.85667 1.88714e-17
4607.17891 1.88735e-17
4608.51117 1.88778e-17
4609.84343 1.88821e-17
4611.17570 1.88363e-17
4612.49794 1.87906e-17
4613.83020 1.88319e-17
4615.16246 1.88732e-17
4616.49472 1.88626e-17
4617.82698 1.88519e-17
4619.14923 1.88239e-17
4620.48149 1.87959e-17
4621.81375 1.88005e-17
4623.14601 1.88050e-17
4624.47827 1.87755e-17
4625.80051 1.87461e-17
4627.13278 1.87436e-17
4628.46504 1.87411e-17
4629.79730 1.86812e-17
4631.11954 1.86212e-17
4632.45180 1.85334e-17
4633.78406 1.84457e-17
4635.11632 1.83753e-17
4636.44859 1.83049e-17
4637.77083 1.83064e-17
4639.10309 1.83079e-17
4640.43535 1.82673e-17
4641.76761 1.82266e-17
4643.09987 1.81653e-17
4644.42212 1.81041e-17
4645.75438 1.80550e-17
4647.08664 1.80059e-17
4648.41890 1.79255e-17
4649.74115 1.78450e-17
4651.07341 1.77527e-17
4652.40567 1.76604e-17
4653.73793 1.76534e-17
4655.07019 1.76463e-17
4656.39243 1.76188e-17
4657.72469 1.75912e-17
4659.05696 1.74920e-17
4660.38922 1.73927e-17
4661.72148 1.72807e-17
4663.04372 1.71688e-17
4664.37598 1.70827e-17
4665.70824 1.69967e-17
4667.04050 1.68910e-17
4668.37277 1.67853e-17
4669.69501 1.67062e-17
4671.02727 1.66272e-17
4672.35953 1.65544e-17
4673.69179 1.64816e-17
4675.01404 1.63914e-17
4676.34630 1.63011e-17
4677.67856 1.62163e-17
4679.01082 1.61315e-17
4680.34308 1.60435e-17
4681.66532 1.59555e-17
4682.99759 1.58837e-17
4684.32985 1.58119e-17
4685.66211 1.57684e-17
4686.99437 1.57249e-17
4688.31661 1.56649e-17
4689.64887 1.56049e-17
4690.98113 1.55150e-17
4692.31340 1.54251e-17
4693.63564 1.53585e-17
4694.96790 1.52919e-17
4696.30016 1.52195e-17
4697.63242 1.51472e-17
4698.96468 1.51151e-17
4700.28693 1.50830e-17
4701.61919 1.50253e-17
4702.95145 1.49676e-17
4704.28371 1.48892e-17
4705.61597 1.48109e-17
4706.93822 1.47188e-17
4708.27048 1.46267e-17
4709.60274 1.45406e-17
4710.93500 1.44544e-17
4712.26726 1.44162e-17
4713.58950 1.43780e-17
4714.92176 1.43333e-17
4716.25403 1.42886e-17
4717.58629 1.42186e-17
4718.90853 1.41486e-17
4720.24079 1.40723e-17
4721.57305 1.39960e-17
4722.90531 1.39138e-17
4724.23757 1.38316e-17
4725.55982 1.37632e-17
4726.89208 1.36949e-17
4728.22434 1.36255e-17
4729.55660 1.35562e-17
4730.88886 1.34741e-17
4732.21111 1.33921e-17
4733.54337 1.33847e-17
4734.87563 1.33773e-17
4736.20789 1.33077e-17
4737.54015 1.32381e-17
4738.86239 1.31186e-17
4740.19466 1.29991e-17
4741.52692 1.29367e-17
4742.85918 1.28744e-17
4744.18142 1.28478e-17
4745.51368 1.28213e-17
4746.84594 1.27916e-17
4748.17820 1.27619e-17
4749.51047 1.27115e-17
4750.83271 1.26610e-17
4752.16497 1.26189e-17
4753.49723 1.25768e-17
4754.82949 1.25261e-17
4756.15174 1.24754e-17
4757.48400 1.24272e-17
4758.81626 1.23791e-17
4760.14852 1.23784e-17
4761.48078 1.23777e-17
4762.80302 1.23676e-17
4764.13529 1.23575e-17
4765.46755 1.23408e-17
4766.79981 1.23241e-17
4768.13207 1.23456e-17
4769.45431 1.23671e-17
4770.78657 1.24254e-17
4772.11883 1.24836e-17
4773.45110 1.25189e-17
4774.78336 1.25542e-17
4776.10560 1.25464e-17
4777.43786 1.25387e-17
4778.77012 1.25637e-17
4780.10238 1.25887e-17
4781.42463 1.26138e-17
4782.75689 1.26388e-17
4784.08915 1.26463e-17
4785.42141 1.26538e-17
4786.75367 1.26726e-17
4788.07592 1.26914e-17
4789.40818 1.27063e-17
4790.74044 1.27212e-17
4792.07270 1.27172e-17
4793.40496 1.27132e-17
4794.72720 1.26888e-17
4796.05946 1.26644e-17
4797.39173 1.26543e-17
4798.72399 1.26442e-17
4800.04623 1.26139e-17
4801.37849 1.25836e-17
4802.71075 1.25417e-17
4804.04301 1.24998e-17
4805.37527 1.24902e-17
4806.69752 1.24807e-17
4808.02978 1.24775e-17
4809.36204 1.24744e-17
4810.69430 1.24195e-17
4812.02656 1.23646e-17
4813.34881 1.23100e-17
4814.68107 1.22555e-17
4816.01333 1.22328e-17
4817.34559 1.22100e-17
4818.67785 1.21752e-17
4820.00009 1.21404e-17
4821.33235 1.21100e-17
4822.66462 1.20796e-17
4823.99688 1.20608e-17
4825.31912 1.20419e-17
4826.65138 1.20558e-17
4827.98364 1.20698e-17
4829.31590 1.20720e-17
4830.64816 1.20741e-17
4831.97041 1.20644e-17
4833.30267 1.20546e-17
4834.63493 1.20447e-17
4835.96719 1.20348e-17
4837.29945 1.20600e-17
4838.62170 1.20852e-17
4839.95396 1.21285e-17
4841.28622 1.21718e-17
4842.61848 1.21622e-17
4843.94072 1.21526e-17
4845.27299 1.21588e-17
4846.60525 1.21650e-17
4847.93751 1.21693e-17
4849.26977 1.21736e-17
4850.59201 1.22057e-17
4851.92427 1.22405e-17
4853.25653 1.22752e-17
4854.58880 1.23100e-17
4855.92106 1.23447e-17
4857.24330 1.23795e-17
4858.57556 1.24142e-17
4859.90782 1.24490e-17
4861.24008 1.24837e-17
4862.56233 1.25184e-17
4863.89459 1.25532e-17
4865.22685 1.25879e-17
4866.55911 1.26226e-17
4867.89137 1.26573e-17
4869.21361 1.26920e-17
4870.54588 1.27267e-17
4871.87814 1.27614e-17
4873.21040 1.27961e-17
4874.54266 1.28308e-17
4875.86490 1.28654e-17
4877.19716 1.29001e-17
4878.52942 1.29348e-17
4879.86169 1.29695e-17
4881.18393 1.30041e-17
4882.51619 1.30388e-17
4883.84845 1.30734e-17
4885.18071 1.31081e-17
4886.51297 1.31427e-17
4887.83522 1.31773e-17
4889.16748 1.32248e-17
4890.49974 1.32267e-17
4891.83200 1.32286e-17
4893.16426 1.32371e-17
4894.48651 1.32456e-17
4895.81877 1.32292e-17
4897.15103 1.32128e-17
4898.48329 1.31853e-17
4899.81555 1.31577e-17
4901.13779 1.31597e-17
4902.47005 1.31616e-17
4903.80232 1.31896e-17
4905.13458 1.32175e-17
4906.45682 1.32287e-17
4907.78908 1.32400e-17
4909.12134 1.32511e-17
4910.45360 1.32623e-17
4911.78586 1.32442e-17
4913.10811 1.32260e-17
4914.44037 1.32093e-17
4915.77263 1.31925e-17
4917.10489 1.32058e-17
4918.43715 1.32191e-17
4919.75940 1.32088e-17
4921.09166 1.31985e-17
4922.42392 1.31909e-17
4923.75618 1.31834e-17
4925.07842 1.31735e-17
4926.41069 1.31636e-17
4927.74295 1.31336e-17
4929.07521 1.31035e-17
4930.40747 1.30870e-17
4931.72971 1.30705e-17
4933.06197 1.30375e-17
4934.39423 1.30045e-17
4935.72650 1.29452e-17
4937.05876 1.28859e-17
4938.38100 1.28630e-17
4939.71326 1.28400e-17
4941.04552 1.28114e-17
4942.37778 1.27829e-17
4943.70003 1.27053e-17
4945.03229 1.26278e-17
4946.36455 1.25598e-17
4947.69681 1.24918e-17
4949.02907 1.24626e-17
4950.35131 1.24290e-17
4951.68358 1.23954e-17
4953.01584 1.23618e-17
4954.34810 1.23282e-17
4955.68036 1.22946e-17
4957.00260 1.22610e-17
4958.33486 1.22274e-17
4959.66712 1.21939e-17
4960.99939 1.21603e-17
4962.32163 1.21267e-17
4963.65389 1.20932e-17
4964.98615 1.20596e-17
4966.31841 1.20261e-17
4967.65067 1.19925e-17
4968.97292 1.19590e-17
4970.30518 1.19254e-17
4971.63744 1.18919e-17
4972.96970 1.18584e-17
4974.30196 1.18249e-17
4975.62421 1.17914e-17
4976.95647 1.17578e-17
4978.28873 1.17243e-17
4979.62099 1.16908e-17
4980.95325 1.16573e-17
4982.27549 1.16238e-17
4983.60775 1.15904e-17
4984.94002 1.15569e-17
4986.27228 1.15234e-17
4987.59452 1.15330e-17
4988.92678 1.15088e-17
4990.25904 1.14846e-17
4991.59130 1.15070e-17
4992.92357 1.15294e-17
4994.24581 1.15640e-17
4995.57807 1.15985e-17
4996.91033 1.16090e-17
4998.24259 1.16580e-17
4999.57485 1.17071e-17
5000.89710 1.17561e-17
5002.22936 1.18051e-17
5003.56162 1.18541e-17
5004.89388 1.19031e-17
5006.22614 1.19522e-17
5007.54839 1.20012e-17
5008.88065 1.20501e-17
5010.21291 1.20991e-17
5011.54517 1.21481e-17
5012.86741 1.21970e-17
5014.19967 1.22460e-17
5015.53193 1.22949e-17
5016.86420 1.23439e-17
5018.19646 1.23928e-17
5019.51870 1.24417e-17
5020.85096 1.24907e-17
5022.18322 1.25396e-17
5023.51548 1.25885e-17
5024.83773 1.26374e-17
5026.16999 1.26863e-17
5027.50225 1.27352e-17
5028.83451 1.27841e-17
5030.16677 1.28330e-17
5031.48902 1.28818e-17
5032.82128 1.29307e-17
5034.15354 1.29795e-17
5035.48580 1.30131e-17
5036.81806 1.30735e-17
5038.14030 1.31338e-17
5039.47256 1.31559e-17
5040.80483 1.31779e-17
5042.13709 1.31781e-17
5043.46935 1.31784e-17
5044.79159 1.31866e-17
5046.12385 1.31947e-17
5047.45611 1.31921e-17
5048.78837 1.31895e-17
5050.11062 1.31813e-17
5051.44288 1.31730e-17
5052.77514 1.31825e-17
5054.10740 1.31919e-17
5055.43966 1.31662e-17
5056.76191 1.31406e-17
5058.09417 1.31122e-17
5059.42643 1.30839e-17
5060.75869 1.30721e-17
5062.09095 1.30602e-17
5063.41319 1.30596e-17
5064.74546 1.30590e-17
5066.07772 1.30946e-17
5067.40998 1.31301e-17
5068.73222 1.31462e-17
5070.06448 1.31622e-17
5071.39674 1.31616e-17
5072.72900 1.31609e-17
5074.06127 1.31858e-17
5075.38351 1.32106e-17
5076.71577 1.32142e-17
5078.04803 1.32179e-17
5079.38029 1.32034e-17
5080.71255 1.31890e-17
5082.03480 1.31884e-17
5083.36706 1.31878e-17
5084.69932 1.32033e-17
5086.03158 1.32187e-17
5087.36384 1.32308e-17
5088.68609 1.32430e-17
5090.01835 1.32322e-17
5091.35061 1.32214e-17
5092.68287 1.32062e-17
5094.00511 1.31910e-17
5095.33737 1.31770e-17
5096.66963 1.31631e-17
5098.00190 1.31587e-17
5099.33416 1.31544e-17
5100.65640 1.31650e-17
5101.98866 1.31755e-17
5103.32092 1.31736e-17
5104.65318 1.31717e-17
5105.98544 1.31773e-17
5107.30769 1.31828e-17
5108.63995 1.32202e-17
5109.97221 1.32577e-17
5111.30447 1.32870e-17
5112.63673 1.33164e-17
5113.95898 1.33319e-17
5115.29124 1.33475e-17
5116.62350 1.33852e-17
5117.95576 1.34230e-17
5119.27800 1.34377e-17
5120.61026 1.34524e-17
5121.94253 1.34468e-17
5123.27479 1.34413e-17
5124.60705 1.34521e-17
5125.92929 1.34630e-17
5127.26155 1.34697e-17
5128.59381 1.34764e-17
5129.92607 1.35026e-17
5131.24832 1.35288e-17
5132.58058 1.35347e-17
5133.91284 1.35407e-17
5135.24510 1.35445e-17
5136.57736 1.35482e-17
5137.89961 1.35646e-17
5139.23187 1.35810e-17
5140.56413 1.35890e-17
5141.89639 1.35969e-17
5143.22865 1.36395e-17
5144.55089 1.36821e-17
5145.88315 1.37423e-17
5147.21542 1.38025e-17
5148.54768 1.38511e-17
5149.87994 1.38998e-17
5151.20218 1.39330e-17
5152.53444 1.39663e-17
5153.86670 1.40284e-17
5155.19896 1.40904e-17
5156.52121 1.41678e-17
5157.85347 1.42452e-17
5159.18573 1.42606e-17
5160.51799 1.42759e-17
5161.85025 1.42549e-17
5163.17250 1.42339e-17
5164.50476 1.42858e-17
5165.83702 1.43377e-17
5167.16928 1.44108e-17
5168.50154 1.44839e-17
5169.82379 1.45146e-17
5171.15605 1.45453e-17
5172.48831 1.45394e-17
5173.82057 1.45336e-17
5175.14281 1.45601e-17
5176.47507 1.45865e-17
5177.80733 1.45967e-17
5179.13960 1.46070e-17
5180.47186 1.46482e-17
5181.79410 1.46894e-17
5183.12636 1.46975e-17
5184.45862 1.47056e-17
5185.79088 1.46966e-17
5187.12314 1.46877e-17
5188.44539 1.47113e-17
5189.77765 1.47349e-17
5191.10991 1.47757e-17
5192.44217 1.48166e-17
5193.77443 1.48452e-17
5195.09668 1.48737e-17
5196.42894 1.48703e-17
5197.76120 1.48670e-17
5199.09346 1.49045e-17
5200.41570 1.49420e-17
5201.74796 1.49593e-17
5203.08023 1.49765e-17
5204.41249 1.49638e-17
5205.74475 1.49512e-17
5207.06699 1.49632e-17
5208.39925 1.49752e-17
5209.73151 1.50015e-17
5211.06377 1.50277e-17
5212.39604 1.50739e-17
5213.71828 1.51201e-17
5215.05054 1.51431e-17
5216.38280 1.51660e-17
5217.71506 1.51631e-17
5219.03731 1.51603e-17
5220.36957 1.51729e-17
5221.70183 1.51856e-17
5223.03409 1.51964e-17
5224.36635 1.52072e-17
5225.68859 1.51983e-17
5227.02085 1.51895e-17
5228.35312 1.52187e-17
5229.68538 1.52478e-17
5231.01764 1.52542e-17
5232.33988 1.52604e-17
5233.67214 1.52174e-17
5235.00440 1.51744e-17
5236.33666 1.51914e-17
5237.65891 1.52084e-17
5238.99117 1.51903e-17
5240.32343 1.51722e-17
5241.65569 1.51963e-17
5242.98795 1.52203e-17
5244.31020 1.51993e-17
5245.64246 1.51783e-17
5246.97472 1.51496e-17
5248.30698 1.51209e-17
5249.63924 1.51132e-17
5250.96149 1.51054e-17
5252.29375 1.51115e-17
5253.62601 1.51176e-17
5254.95827 1.51138e-17
5256.29053 1.51101e-17
5257.61277 1.51081e-17
5258.94503 1.51062e-17
5260.27730 1.51030e-17
5261.60956 1.50998e-17
5262.93180 1.51159e-17
5264.26406 1.51320e-17
5265.59632 1.51338e-17
5266.92858 1.51355e-17
5268.26084 1.51558e-17
5269.58309 1.51759e-17
5270.91535 1.51586e-17
5272.24761 1.51414e-17
5273.57987 1.51468e-17
5274.91213 1.51523e-17
5276.23438 1.51236e-17
5277.56664 1.50950e-17
5278.89890 1.50669e-17
5280.23116 1.50389e-17
5281.55340 1.50357e-17
5282.88566 1.50324e-17
5284.21792 1.50259e-17
5285.55019 1.50193e-17
5286.88245 1.50136e-17
5288.20469 1.50078e-17
5289.53695 1.49588e-17
5290.86921 1.49098e-17
5292.20147 1.48461e-17
5293.53373 1.47825e-17
5294.85598 1.47366e-17
5296.18824 1.46907e-17
5297.52050 1.46750e-17
5298.85276 1.46593e-17
5300.17501 1.46741e-17
5301.50727 1.46889e-17
5302.83953 1.46789e-17
5304.17179 1.46689e-17
5305.50405 1.46397e-17
5306.82629 1.46104e-17
5308.15855 1.45811e-17
5309.49082 1.45519e-17
5310.82308 1.45407e-17
5312.15534 1.45295e-17
5313.47758 1.45285e-17
5314.80984 1.45275e-17
5316.14210 1.45049e-17
5317.47437 1.44824e-17
5318.80663 1.44428e-17
5320.12887 1.44033e-17
5321.46113 1.43681e-17
5322.79339 1.43330e-17
5324.12565 1.43377e-17
5325.44790 1.43424e-17
5326.78016 1.43430e-17
5328.11242 1.43437e-17
5329.44468 1.43207e-17
5330.77694 1.42978e-17
5332.09919 1.42749e-17
5333.43145 1.42520e-17
5334.76371 1.42562e-17
5336.09597 1.42605e-17
5337.42823 1.42373e-17
5338.75047 1.42141e-17
5340.08273 1.42089e-17
5341.41500 1.42036e-17
5342.74726 1.41997e-17
5344.06950 1.41957e-17
5345.40176 1.41752e-17
5346.73402 1.41548e-17
5348.06628 1.41472e-17
5349.39854 1.41397e-17
5350.72079 1.41151e-17
5352.05305 1.40905e-17
5353.38531 1.40863e-17
5354.71757 1.40821e-17
5356.04983 1.41357e-17
5357.37208 1.41892e-17
5358.70434 1.41571e-17
5360.03660 1.41250e-17
5361.36886 1.41050e-17
5362.69110 1.40850e-17
5364.02336 1.41099e-17
5365.35563 1.41348e-17
5366.68789 1.41200e-17
5368.02015 1.41051e-17
5369.34239 1.41081e-17
5370.67465 1.41111e-17
5372.00691 1.41157e-17
5373.33917 1.41202e-17
5374.67144 1.41382e-17
5375.99368 1.41562e-17
5377.32594 1.41693e-17
5378.65820 1.41825e-17
5379.99046 1.41869e-17
5381.32272 1.41912e-17
5382.64497 1.41794e-17
5383.97723 1.41675e-17
5385.30949 1.41428e-17
5386.64175 1.41180e-17
5387.96399 1.40968e-17
5389.29626 1.40756e-17
5390.62852 1.40864e-17
5391.96078 1.40971e-17
5393.29304 1.41168e-17
5394.61528 1.41366e-17
5395.94754 1.41425e-17
5397.27980 1.41485e-17
5398.61207 1.41295e-17
5399.94433 1.41104e-17
5401.26657 1.40952e-17
5402.59883 1.40800e-17
5403.93109 1.40878e-17
5405.26335 1.40956e-17
5406.58560 1.40892e-17
5407.91786 1.40827e-17
5409.25012 1.40598e-17
5410.58238 1.40369e-17
5411.91464 1.40174e-17
5413.23689 1.39979e-17
5414.56915 1.40081e-17
5415.90141 1.40184e-17
5417.23367 1.40115e-17
5418.56593 1.40045e-17
5419.88817 1.39782e-17
5421.22043 1.39518e-17
5422.55270 1.39355e-17
5423.88496 1.39192e-17
5425.20720 1.39084e-17
5426.53946 1.38977e-17
5427.87172 1.38672e-17
5429.20398 1.38368e-17
5430.53624 1.37933e-17
5431.85849 1.37498e-17
5433.19075 1.37112e-17
5434.52301 1.36727e-17
5435.85527 1.36263e-17
5437.18753 1.35799e-17
5438.50978 1.35876e-17
5439.84204 1.35952e-17
5441.17430 1.35898e-17
5442.50656 1.35844e-17
5443.82880 1.35050e-17
5445.16106 1.34257e-17
5446.49333 1.34261e-17
5447.82559 1.34265e-17
5449.15785 1.34304e-17
5450.48009 1.34343e-17
5451.81235 1.33588e-17
5453.14461 1.32834e-17
5454.47687 1.32416e-17
5455.80914 1.31999e-17
5457.13138 1.31909e-17
5458.46364 1.31819e-17
5459.79590 1.31603e-17
5461.12816 1.31387e-17
5462.46042 1.31067e-17
5463.78267 1.30747e-17
5465.11493 1.30347e-17
5466.44719 1.29948e-17
5467.77945 1.29526e-17
5469.10169 1.29104e-17
5470.43395 1.28632e-17
5471.76622 1.28159e-17
5473.09848 1.27596e-17
5474.43074 1.27033e-17
5475.75298 1.26802e-17
5477.08524 1.26571e-17
5478.41750 1.26243e-17
5479.74976 1.25915e-17
5481.08203 1.25302e-17
5482.40427 1.24689e-17
5483.73653 1.24420e-17
5485.06879 1.24152e-17
5486.40105 1.24116e-17
5487.73331 1.24080e-17
5489.05556 1.23818e-17
5490.38782 1.23556e-17
5491.72008 1.23331e-17
5493.05234 1.23106e-17
5494.37459 1.23106e-17
5495.70685 1.23106e-17
5497.03911 1.22973e-17
5498.37137 1.22841e-17
5499.70363 1.22658e-17
5501.02587 1.22475e-17
5502.35813 1.22346e-17
5503.69040 1.22217e-17
5505.02266 1.22332e-17
5506.34490 1.22448e-17
5507.67716 1.22438e-17
5509.00942 1.22429e-17
5510.34168 1.22470e-17
5511.67394 1.22510e-17
5512.99619 1.22354e-17
5514.32845 1.22198e-17
5515.66071 1.22368e-17
5516.99297 1.22539e-17
5518.32523 1.22608e-17
5519.64748 1.22678e-17
5520.97974 1.22498e-17
5522.31200 1.22318e-17
5523.64426 1.22304e-17
5524.97652 1.22290e-17
5526.29876 1.22345e-17
5527.63103 1.22400e-17
5528.96329 1.22333e-17
5530.29555 1.22266e-17
5531.61779 1.22345e-17
5532.95005 1.22425e-17
5534.28231 1.22544e-17
5535.61457 1.22662e-17
5536.94684 1.22366e-17
5538.26908 1.22070e-17
5539.60134 1.22119e-17
5540.93360 1.22168e-17
5542.26586 1.22414e-17
5543.59812 1.22660e-17
5544.92037 1.22803e-17
5546.25263 1.22946e-17
5547.58489 1.22713e-17
5548.91715 1.22480e-17
5550.23939 1.22407e-17
5551.57165 1.22333e-17
5552.90392 1.22260e-17
5554.23618 1.22188e-17
5555.56844 1.21699e-17
5556.89068 1.21211e-17
5558.22294 1.21160e-17
5559.55520 1.21110e-17
5560.88746 1.21479e-17
5562.21973 1.21847e-17
5563.54197 1.21735e-17
5564.87423 1.21622e-17
5566.20649 1.21366e-17
5567.53875 1.21111e-17
5568.87101 1.21062e-17
5570.19326 1.21013e-17
5571.52552 1.20805e-17
5572.85778 1.20598e-17
5574.19004 1.20538e-17
5575.51229 1.20477e-17
5576.84455 1.20423e-17
5578.17681 1.20368e-17
5579.50907 1.20024e-17
5580.84133 1.19679e-17
5582.16357 1.19568e-17
5583.49583 1.19457e-17
5584.82810 1.19217e-17
5586.16036 1.18976e-17
5587.49262 1.18632e-17
5588.81486 1.18287e-17
5590.14712 1.18189e-17
5591.47938 1.18092e-17
5592.81164 1.17929e-17
5594.14390 1.17767e-17
5595.46615 1.17666e-17
5596.79841 1.17565e-17
5598.13067 1.17427e-17
5599.46293 1.17289e-17
5600.78518 1.16786e-17
5602.11744 1.16284e-17
5603.44970 1.16222e-17
5604.78196 1.16161e-17
5606.11422 1.16289e-17
5607.43646 1.16416e-17
5608.76872 1.15974e-17
5610.10099 1.15532e-17
5611.43325 1.15134e-17
5612.75549 1.14737e-17
5614.08775 1.14475e-17
5615.42001 1.14214e-17
5616.75227 1.14229e-17
5618.08453 1.14245e-17
5619.40678 1.14145e-17
5620.73904 1.14045e-17
5622.07130 1.13552e-17
5623.40356 1.13058e-17
5624.73582 1.12571e-17
5626.05807 1.12084e-17
5627.39033 1.12060e-17
5628.72259 1.12035e-17
5630.05485 1.11644e-17
5631.38711 1.11252e-17
5632.70935 1.10728e-17
5634.04162 1.10203e-17
5635.37388 1.09928e-17
5636.70614 1.09653e-17
5638.02838 1.09356e-17
5639.36064 1.09058e-17
5640.69290 1.08883e-17
5642.02517 1.08708e-17
5643.35743 1.08463e-17
5644.67967 1.08218e-17
5646.01193 1.07779e-17
5647.34419 1.07340e-17
5648.67645 1.07113e-17
5650.00871 1.06886e-17
5651.33096 1.06828e-17
5652.66322 1.06769e-17
5653.99548 1.06436e-17
5655.32774 1.06103e-17
5656.66000 1.05805e-17
5657.98225 1.05507e-17
5659.31451 1.05207e-17
5660.64677 1.04908e-17
5661.97903 1.04386e-17
5663.30127 1.03865e-17
5664.63353 1.03695e-17
5665.96580 1.03525e-17
5667.29806 1.03209e-17
5668.63032 1.02893e-17
5669.95256 1.02542e-17
5671.28482 1.02191e-17
5672.61708 1.01859e-17
5673.94934 1.01527e-17
5675.28161 1.00974e-17
5676.60385 1.00420e-17
5677.93611 9.99573e-18
5679.26837 9.94945e-18
5680.60063 9.90548e-18
5681.92288 9.86153e-18
5683.25514 9.84601e-18
5684.58740 9.83050e-18
5685.91966 9.81143e-18
5687.25192 9.79237e-18
5688.57416 9.76715e-18
5689.90643 9.74193e-18
5691.23869 9.73031e-18
5692.57095 9.71870e-18
5693.90321 9.71528e-18
5695.22545 9.71186e-18
5696.55771 9.69987e-18
5697.88997 9.68789e-18
5699.22224 9.69004e-18
5700.54448 9.69220e-18
5701.87674 9.71328e-18
5703.20900 9.73435e-18
5704.54126 9.74893e-18
5705.87352 9.76351e-18
5707.19577 9.79428e-18
5708.52803 9.82505e-18
5709.86029 9.85763e-18
5711.19255 9.89020e-18
5712.52481 9.91690e-18
5713.84706 9.94359e-18
5715.17932 9.98344e-18
5716.51158 1.00233e-17
5717.84384 1.00682e-17
5719.16608 1.01130e-17
5720.49834 1.01458e-17
5721.83060 1.01785e-17
5723.16287 1.01849e-17
5724.49513 1.01913e-17
5725.81737 1.02251e-17
5727.14963 1.02590e-17
5728.48189 1.02958e-17
5729.81415 1.03326e-17
5731.14641 1.03875e-17
5732.46866 1.04424e-17
5733.80092 1.04845e-17
5735.13318 1.05266e-17
5736.46544 1.05370e-17
5737.79770 1.05473e-17
5739.11995 1.05864e-17
5740.45221 1.06255e-17
5741.78447 1.06589e-17
5743.11673 1.06923e-17
5744.43897 1.07076e-17
5745.77123 1.07230e-17
5747.10350 1.07656e-17
5748.43576 1.08082e-17
5749.76802 1.08479e-17
5751.09026 1.08876e-17
5752.42252 1.09108e-17
5753.75478 1.09339e-17
5755.08704 1.09413e-17
5756.41930 1.09487e-17
5757.74155 1.09748e-17
5759.07381 1.10008e-17
5760.40607 1.09974e-17
5761.73833 1.09939e-17
5763.06058 1.09722e-17
5764.39284 1.09506e-17
5765.72510 1.09381e-17
5767.05736 1.09257e-17
5768.38962 1.09281e-17
5769.71186 1.09305e-17
5771.04413 1.09285e-17
5772.37639 1.09266e-17
5773.70865 1.09251e-17
5775.04091 1.09237e-17
5776.36315 1.09163e-17
5777.69541 1.09089e-17
5779.02767 1.09009e-17
5780.35994 1.08930e-17
5781.68218 1.08996e-17
5783.01444 1.09062e-17
5784.34670 1.09108e-17
5785.67896 1.09154e-17
5787.01122 1.09397e-17
5788.33347 1.09640e-17
5789.66573 1.09762e-17
5790.99799 1.09885e-17
5792.33025 1.09571e-17
5793.66251 1.09257e-17
5794.98475 1.09261e-17
5796.31702 1.09264e-17
5797.64928 1.09457e-17
5798.98154 1.09649e-17
5800.31380 1.09565e-17
5801.63604 1.09481e-17
5802.96830 1.09515e-17
5804.30057 1.09549e-17
5805.63283 1.09664e-17
5806.95507 1.09779e-17
5808.28733 1.09784e-17
5809.61959 1.09788e-17
5810.95185 1.09971e-17
5812.28411 1.10154e-17
5813.60636 1.10116e-17
5814.93862 1.10078e-17
5816.27088 1.09992e-17
5817.60314 1.09906e-17
5818.93540 1.10019e-17
5820.25765 1.10132e-17
5821.58991 1.09893e-17
5822.92217 1.09655e-17
5824.25443 1.09605e-17
5825.57667 1.09555e-17
5826.90893 1.09525e-17
5828.24120 1.09496e-17
5829.57346 1.09409e-17
5830.90572 1.09322e-17
5832.22796 1.09203e-17
5833.56022 1.09083e-17
5834.89248 1.09082e-17
5836.22474 1.09081e-17
5837.55700 1.09290e-17
5838.87925 1.09498e-17
5840.21151 1.09261e-17
5841.54377 1.09023e-17
5842.87603 1.08584e-17
5844.19828 1.08145e-17
5845.53054 1.08160e-17
5846.86280 1.08175e-17
5848.19506 1.08230e-17
5849.52732 1.08286e-17
5850.84956 1.08177e-17
5852.18183 1.08069e-17
5853.51409 1.07947e-17
5854.84635 1.07824e-17
5856.17861 1.07615e-17
5857.50085 1.07405e-17
5858.83311 1.07384e-17
5860.16537 1.07362e-17
5861.49764 1.07258e-17
5862.82990 1.07153e-17
5864.15214 1.06722e-17
5865.48440 1.06290e-17
5866.81666 1.06200e-17
5868.14892 1.06110e-17
5869.47117 1.06200e-17
5870.80343 1.06290e-17
5872.13569 1.06134e-17
5873.46795 1.05976e-17
5874.80021 1.05525e-17
5876.12245 1.05073e-17
5877.45472 1.04845e-17
5878.78698 1.04617e-17
5880.11924 1.03790e-17
5881.45150 1.02962e-17
5882.77374 1.01605e-17
5884.10600 1.00249e-17
5885.43826 9.97400e-18
5886.77053 9.92307e-18
5888.09277 9.86382e-18
5889.42503 9.80457e-18
5890.75729 9.72526e-18
5892.08955 9.64598e-18
5893.42181 9.63940e-18
5894.74406 9.63283e-18
5896.07632 9.67828e-18
5897.40858 9.72373e-18
5898.74084 9.76743e-18
5900.07310 9.81113e-18
5901.39535 9.86250e-18
5902.72761 9.91386e-18
5904.05987 9.93945e-18
5905.39213 9.96504e-18
5906.71437 9.98396e-18
5908.04663 1.00029e-17
5909.37890 1.00214e-17
5910.71116 1.00400e-17
5912.04342 1.00417e-17
5913.36566 1.00434e-17
5914.69792 1.00386e-17
5916.03018 1.00338e-17
5917.36244 9.99831e-18
5918.69470 9.96281e-18
5920.01695 9.95376e-18
5921.34921 9.94472e-18
5922.68147 9.96755e-18
5924.01373 9.99036e-18
5925.34599 9.98084e-18
5926.66824 9.97132e-18
5928.00050 9.95648e-18
5929.33276 9.94164e-18
5930.66502 9.92079e-18
5931.98726 9.89994e-18
5933.31952 9.87371e-18
5934.65179 9.84747e-18
5935.98405 9.81955e-18
5937.31631 9.79163e-18
5938.63855 9.74060e-18
5939.97081 9.68960e-18
5941.30307 9.68342e-18
5942.63533 9.67724e-18
5943.96760 9.68453e-18
5945.28984 9.69181e-18
5946.62210 9.68903e-18
5947.95436 9.68624e-18
5949.28662 9.67847e-18
5950.60887 9.67069e-18
5951.94113 9.65597e-18
5953.27339 9.64125e-18
5954.60565 9.64174e-18
5955.93791 9.64223e-18
5957.26015 9.65874e-18
5958.59242 9.67525e-18
5959.92468 9.68706e-18
5961.25694 9.69887e-18
5962.58920 9.71712e-18
5963.91144 9.73537e-18
5965.24370 9.74771e-18
5966.57596 9.76003e-18
5967.90823 9.73750e-18
5969.23047 9.71496e-18
5970.56273 9.69843e-18
5971.89499 9.68191e-18
5973.22725 9.69303e-18
5974.55951 9.70415e-18
5975.88176 9.72314e-18
5977.21402 9.74213e-18
5978.54628 9.76446e-18
5979.87854 9.78679e-18
5981.21080 9.79580e-18
5982.53305 9.80480e-18
5983.86531 9.79606e-18
5985.19757 9.78732e-18
5986.52983 9.78425e-18
5987.85207 9.78121e-18
5989.18433 9.81306e-18
5990.51660 9.84490e-18
5991.84886 9.84946e-18
5993.18112 9.85401e-18
5994.50336 9.83344e-18
5995.83562 9.81288e-18
5997.16788 9.81589e-18
5998.50014 9.81891e-18
5999.83241 9.82800e-18
6001.15465 9.83709e-18
6002.48691 9.81950e-18
6003.81917 9.80190e-18
6005.15143 9.76496e-18
6006.48369 9.72805e-18
6007.80594 9.74023e-18
6009.13820 9.75241e-18
6010.47046 9.77537e-18
6011.80272 9.79833e-18
6013.12496 9.80173e-18
6014.45723 9.80513e-18
6015.78949 9.78559e-18
6017.12175 9.76607e-18
6018.45401 9.77280e-18
6019.77625 9.77953e-18
6021.10851 9.77552e-18
6022.44077 9.77151e-18
6023.77304 9.74921e-18
6025.10530 9.72692e-18
6026.42754 9.70659e-18
6027.75980 9.68628e-18
6029.09206 9.67445e-18
6030.42432 9.66264e-18
6031.75658 9.67212e-18
6033.07883 9.68160e-18
6034.41109 9.67079e-18
6035.74335 9.65997e-18
6037.07561 9.62220e-18
6038.39786 9.58445e-18
6039.73012 9.58127e-18
6041.06238 9.57812e-18
6042.39464 9.60960e-18
6043.72690 9.64107e-18
6045.04914 9.64717e-18
6046.38140 9.65327e-18
6047.71367 9.63904e-18
6049.04593 9.62483e-18
6050.36817 9.62859e-18
6051.70043 9.63234e-18
6053.03269 9.63682e-18
6054.36495 9.64130e-18
6055.69721 9.67303e-18
6057.01946 9.70474e-18
6058.35172 9.70288e-18
6059.68398 9.70101e-18
6061.01624 9.67980e-18
6062.34850 9.65862e-18
6063.67075 9.68157e-18
6065.00301 9.70451e-18
6066.33527 9.70676e-18
6067.66753 9.70901e-18
6068.99979 9.70092e-18
6070.32203 9.69285e-18
6071.65430 9.70349e-18
6072.98656 9.71412e-18
6074.31882 9.69634e-18
6075.64106 9.67857e-18
6076.97332 9.65737e-18
6078.30558 9.63617e-18
6079.63784 9.61409e-18
6080.97010 9.59202e-18
6082.29235 9.58764e-18
6083.62461 9.58327e-18
6084.95687 9.59547e-18
6086.28913 9.60766e-18
6087.62139 9.61335e-18
6088.94364 9.61904e-18
6090.27590 9.61229e-18
6091.60816 9.60554e-18
6092.94042 9.58493e-18
6094.26266 9.56433e-18
6095.59493 9.55189e-18
6096.92719 9.53945e-18
6098.25945 9.52499e-18
6099.59171 9.51052e-18
6100.91395 9.47424e-18
6102.24621 9.43797e-18
6103.57847 9.39486e-18
6104.91074 9.35175e-18
6106.24300 9.29579e-18
6107.56524 9.23984e-18
6108.89750 9.20383e-18
6110.22976 9.16782e-18
6111.56202 9.13359e-18
6112.89428 9.09935e-18
6114.21653 9.04161e-18
6115.54879 8.98390e-18
6116.88105 8.96920e-18
6118.21331 8.95450e-18
6119.53555 8.93557e-18
6120.86782 8.91664e-18
6122.20008 8.86948e-18
6123.53234 8.82232e-18
6124.86460 8.77139e-18
6126.18684 8.72046e-18
6127.51910 8.66896e-18
6128.85137 8.61747e-18
6130.18363 8.56541e-18
6131.51589 8.51337e-18
6132.83813 8.47625e-18
6134.17039 8.43912e-18
6135.50265 8.38627e-18
6136.83491 8.33342e-18
6138.16718 8.29405e-18
6139.48942 8.25470e-18
6140.82168 8.23258e-18
6142.15394 8.21046e-18
6143.48620 8.17669e-18
6144.80845 8.14292e-18
6146.14071 8.10810e-18
6147.47297 8.07329e-18
6148.80523 8.04452e-18
6150.13749 8.01575e-18
6151.45973 8.00383e-18
6152.79200 7.99191e-18
6154.12426 7.98695e-18
6155.45652 7.98197e-18
6156.77876 7.95718e-18
6158.11102 7.93239e-18
6159.44328 7.90286e-18
6160.77554 7.87334e-18
6162.10780 7.85482e-18
6163.43005 7.83630e-18
6164.76231 7.81262e-18
6166.09457 7.78893e-18
6167.42683 7.76772e-18
6168.75909 7.74653e-18
6170.08134 7.74155e-18
6171.41360 7.73657e-18
6172.74586 7.72932e-18
6174.07812 7.72209e-18
6175.41038 7.74089e-18
6176.73263 7.75969e-18
6178.06489 7.77127e-18
6179.39715 7.78285e-18
6180.72941 7.78050e-18
6182.05165 7.77815e-18
6183.38391 7.76111e-18
6184.71617 7.74408e-18
6186.04844 7.74650e-18
6187.38070 7.74893e-18
6188.70294 7.75335e-18
6190.03520 7.75778e-18
6191.36746 7.75721e-18
6192.69972 7.75666e-18
6194.03198 7.76458e-18
6195.35423 7.77250e-18
6196.68649 7.78110e-18
6198.01875 7.78969e-18
6199.35101 7.78116e-18
6200.67325 7.77264e-18
6202.00552 7.77378e-18
6203.33778 7.77492e-18
6204.67004 7.77908e-18
6206.00230 7.78325e-18
6207.32454 7.79288e-18
6208.65680 7.80252e-18
6209.98906 7.82114e-18
6211.32133 7.83975e-18
6212.65359 7.83457e-18
6213.97583 7.82941e-18
6215.30809 7.84411e-18
6216.64035 7.85882e-18
6217.97261 7.87721e-18
6219.30487 7.89561e-18
6220.62712 7.92340e-18
6221.95938 7.95118e-18
6223.29164 7.95878e-18
6224.62390 7.96639e-18
6225.94615 7.97912e-18
6227.27841 7.99183e-18
6228.61067 7.98214e-18
6229.94293 7.97244e-18
6231.27519 7.96563e-18
6232.59743 7.95883e-18
6233.92970 7.98557e-18
6235.26196 8.01229e-18
6236.59422 8.01283e-18
6237.92648 8.01335e-18
6239.24872 7.99904e-18
6240.58098 7.98473e-18
6241.91324 7.97977e-18
6243.24550 7.97481e-18
6244.56775 7.98463e-18
6245.90001 7.99446e-18
6247.23227 8.01024e-18
6248.56453 8.02603e-18
6249.89679 8.04182e-18
6251.21904 8.05763e-18
6252.55130 8.07737e-18
6253.88356 8.09710e-18
6255.21582 8.10596e-18
6256.54808 8.11482e-18
6257.87032 8.15197e-18
6259.20259 8.18913e-18
6260.53485 8.23294e-18
6261.86711 8.27671e-18
6263.18935 8.27228e-18
6264.52161 8.26784e-18
6265.85387 8.24355e-18
6267.18614 8.21926e-18
6268.51840 8.16935e-18
6269.84064 8.11945e-18
6271.17290 8.08323e-18
6272.50516 8.04701e-18
6273.83742 8.03264e-18
6275.16968 8.01826e-18
6276.49193 8.00054e-18
6277.82419 7.98282e-18
6279.15645 7.95975e-18
6280.48871 7.93671e-18
6281.81095 7.94581e-18
6283.14322 7.95494e-18
6284.47548 8.00692e-18
6285.80774 8.05887e-18
6287.14000 8.07269e-18
6288.46224 8.08649e-18
6289.79450 8.07525e-18
6291.12676 8.06401e-18
6292.45903 8.04776e-18
6293.79129 8.03150e-18
6295.11353 8.01240e-18
6296.44579 7.99330e-18
6297.77805 7.97672e-18
6299.11031 7.96015e-18
6300.44258 7.95391e-18
6301.76482 7.94764e-18
6303.09708 7.91682e-18
6304.42934 7.88601e-18
6305.76160 7.87491e-18
6307.08385 7.86382e-18
6308.41611 7.87107e-18
6309.74837 7.87830e-18
6311.08063 7.87916e-18
6312.41289 7.88002e-18
6313.73513 7.89166e-18
6315.06740 7.90327e-18
6316.39966 7.88558e-18
6317.73192 7.86789e-18
6319.06418 7.84709e-18
6320.38642 7.82631e-18
6321.71868 7.83131e-18
6323.05094 7.83629e-18
6324.38321 7.80669e-18
6325.70545 7.77711e-18
6327.03771 7.75492e-18
6328.36997 7.73274e-18
6329.70223 7.72005e-18
6331.03449 7.70737e-18
6332.35674 7.70038e-18
6333.68900 7.69341e-18
6335.02126 7.70101e-18
6336.35352 7.70861e-18
6337.68578 7.71837e-18
6339.00803 7.72814e-18
6340.34029 7.73535e-18
6341.67255 7.74257e-18
6343.00481 7.75824e-18
6344.32705 7.77390e-18
6345.65931 7.76662e-18
6346.99157 7.75932e-18
6348.32384 7.73158e-18
6349.65610 7.70383e-18
6350.97834 7.66804e-18
6352.31060 7.63226e-18
6353.64286 7.61461e-18
6354.97512 7.59695e-18
6356.30738 7.57479e-18
6357.62963 7.55265e-18
6358.96189 7.54997e-18
6360.29415 7.54730e-18
6361.62641 7.55742e-18
6362.95867 7.56754e-18
6364.28092 7.57729e-18
6365.61318 7.58703e-18
6366.94544 7.59915e-18
6368.27770 7.61127e-18
6369.59994 7.61785e-18
6370.93220 7.62442e-18
6372.26447 7.63002e-18
6373.59673 7.63560e-18
6374.92899 7.62708e-18
6376.25123 7.61858e-18
6377.58349 7.62519e-18
6378.91575 7.63179e-18
6380.24801 7.63408e-18
6381.58028 7.63639e-18
6382.90252 7.66472e-18
6384.23478 7.69304e-18
6385.56704 7.70987e-18
6386.89930 7.72672e-18
6388.22155 7.77676e-18
6389.55381 7.82680e-18
6390.88607 7.89564e-18
6392.21833 7.96447e-18
6393.55059 8.01746e-18
6394.87283 8.07042e-18
6396.20510 8.08993e-18
6397.53736 8.10946e-18
6398.86962 8.14822e-18
6400.20188 8.18697e-18
6401.52412 8.20092e-18
6402.85638 8.21487e-18
6404.18864 8.24109e-18
6405.52091 8.26731e-18
6406.85317 8.29087e-18
6408.17541 8.31443e-18
6409.50767 8.34533e-18
6410.83993 8.37625e-18
6412.17219 8.42028e-18
6413.49444 8.46431e-18
6414.82670 8.51428e-18
6416.15896 8.56424e-18
6417.49122 8.60174e-18
6418.82348 8.63923e-18
6420.14573 8.67016e-18
6421.47799 8.70109e-18
6422.81025 8.73919e-18
6424.14251 8.77725e-18
6425.46475 8.76709e-18
6426.79701 8.75693e-18
6428.12927 8.74629e-18
6429.46154 8.73567e-18
6430.79380 8.76010e-18
6432.11604 8.78452e-18
6433.44830 8.79815e-18
6434.78056 8.81177e-18
6436.11282 8.81956e-18
6437.44508 8.82732e-18
6438.76733 8.80338e-18
6440.09959 8.77946e-18
6441.43185 8.77803e-18
6442.76411 8.77661e-18
6444.09637 8.79934e-18
6445.41862 8.82207e-18
6446.75088 8.85462e-18
6448.08314 8.88715e-18
6449.41540 8.91010e-18
6450.73764 8.93302e-18
6452.06990 8.93277e-18
6453.40217 8.93250e-18
6454.73443 8.90317e-18
6456.06669 8.87384e-18
6457.38893 8.83563e-18
6458.72119 8.79742e-18
6460.05345 8.76763e-18
6461.38571 8.73786e-18
6462.71798 8.72817e-18
6464.04022 8.71849e-18
6465.37248 8.74091e-18
6466.70474 8.76331e-18
6468.03700 8.77704e-18
6469.35925 8.79075e-18
6470.69151 8.76935e-18
6472.02377 8.74796e-18
6473.35603 8.74838e-18
6474.68829 8.74880e-18
6476.01053 8.77200e-18
6477.34280 8.79518e-18
6478.67506 8.80006e-18
6480.00732 8.80494e-18
6481.33958 8.79710e-18
6482.66182 8.78925e-18
6483.99408 8.76154e-18
6485.32634 8.73383e-18
6486.65860 8.71253e-18
6487.99087 8.69123e-18
6489.31311 8.67290e-18
6490.64537 8.65457e-18
6491.97763 8.65727e-18
6493.30989 8.65999e-18
6494.63214 8.69650e-18
6495.96440 8.73302e-18
6497.29666 8.78723e-18
6498.62892 8.84142e-18
6499.96118 8.85831e-18
6501.28343 8.87520e-18
6502.61569 8.90413e-18
6503.94795 8.93306e-18
6505.28021 8.95815e-18
6506.61247 8.98322e-18
6507.93471 8.96128e-18
6509.26697 8.93933e-18
6510.59924 8.90175e-18
6511.93150 8.86416e-18
6513.26376 8.82390e-18
6514.58600 8.78365e-18
6515.91826 8.75496e-18
6517.25052 8.72629e-18
6518.58278 8.72358e-18
6519.90503 8.72088e-18
6521.23729 8.73333e-18
6522.56955 8.74576e-18
6523.90181 8.73970e-18
6525.23407 8.73364e-18
6526.55632 8.72457e-18
6527.88858 8.71552e-18
6529.22084 8.74852e-18
6530.55310 8.78152e-18
6531.87534 8.79996e-18
6533.20760 8.81840e-18
6534.53986 8.81943e-18
6535.87213 8.82047e-18
6537.20439 8.81513e-18
6538.52663 8.80978e-18
6539.85889 8.79815e-18
6541.19115 8.78651e-18
6542.52341 8.75535e-18
6543.85567 8.72420e-18
6545.17792 8.70419e-18
6546.51018 8.68418e-18
6547.84244 8.66416e-18
6549.17470 8.64415e-18
6550.50696 8.62414e-18
6551.82921 8.60414e-18
6553.16147 8.58412e-18
6554.49373 8.56411e-18
6555.82599 8.54411e-18
6557.14823 8.52410e-18
6558.48050 8.50410e-18
6559.81276 8.48411e-18
6561.14502 8.46410e-18
6562.47728 8.44410e-18
6563.79952 8.42411e-18
6565.13178 8.40411e-18
6566.46404 8.38412e-18
6567.79630 8.36413e-18
6569.12857 8.34413e-18
6570.45081 8.32414e-18
6571.78307 8.30415e-18
6573.11533 8.28417e-18
6574.44759 8.26418e-18
6575.77985 8.24418e-18
6577.10210 8.22421e-18
6578.43436 8.20423e-18
6579.76662 8.18424e-18
6581.09888 8.16426e-18
6582.42112 8.14429e-18
6583.75339 8.12430e-18
6585.08565 8.10433e-18
6586.41791 8.08436e-18
6587.75017 8.06439e-18
6589.07241 8.04441e-18
6590.40467 8.02444e-18
6591.73694 8.00447e-18
6593.06920 7.98450e-18
6594.40146 7.96453e-18
6595.72370 7.94457e-18
6597.05596 7.92460e-18
6598.38822 7.90464e-18
6599.72048 7.88468e-18
6601.04273 7.86472e-18
6602.37499 7.84476e-18
6603.70725 7.82480e-18
6605.03951 7.80484e-18
6606.37177 7.81096e-18
6607.69402 7.81710e-18
6609.02628 7.86217e-18
6610.35854 7.90721e-18
6611.69080 7.92473e-18
6613.02306 7.94225e-18
6614.34530 7.95457e-18
6615.67756 7.96691e-18
6617.00983 7.99582e-18
6618.34209 8.02470e-18
6619.67435 8.02075e-18
6620.99659 8.01677e-18
6622.32885 7.97582e-18
6623.66111 7.93487e-18
6624.99338 7.88581e-18
6626.31562 7.83676e-18
6627.64788 7.80328e-18
6628.98014 7.76981e-18
6630.31240 7.74567e-18
6631.64466 7.72156e-18
6632.96691 7.74458e-18
6634.29917 7.76761e-18
6635.63143 7.81367e-18
6636.96369 7.85971e-18
6638.28593 7.89740e-18
6639.61820 7.93508e-18
6640.95046 7.97101e-18
6642.28272 8.00690e-18
6643.61498 7.99249e-18
6644.93722 7.97806e-18
6646.26948 7.92957e-18
6647.60174 7.88107e-18
6648.93401 7.82474e-18
6650.26627 7.76842e-18
6651.58851 7.73537e-18
6652.92077 7.70234e-18
6654.25303 7.69488e-18
6655.58529 7.68744e-18
6656.91755 7.71393e-18
6658.23980 7.74042e-18
6659.57206 7.76422e-18
6660.90432 7.78800e-18
6662.23658 7.76820e-18
6663.55883 7.74839e-18
6664.89109 7.72084e-18
6666.22335 7.69328e-18
6667.55561 7.65164e-18
6668.88787 7.61001e-18
6670.21011 7.58165e-18
6671.54237 7.55333e-18
6672.87464 7.58094e-18
6674.20690 7.60854e-18
6675.53916 7.62616e-18
6676.86140 7.64378e-18
6678.19366 7.65606e-18
6679.52592 7.66832e-18
6680.85818 7.65498e-18
6682.18043 7.64159e-18
6683.51269 7.56843e-18
6684.84495 7.49530e-18
6686.17721 7.45295e-18
6687.50947 7.41063e-18
6688.83172 7.41451e-18
6690.16398 7.41839e-18
6691.49624 7.43089e-18
6692.82850 7.44340e-18
6694.16076 7.49722e-18
6695.48300 7.55100e-18
6696.81527 7.57192e-18
6698.14753 7.59280e-18
6699.47979 7.57225e-18
6700.81205 7.55170e-18
6702.13429 7.51445e-18
6703.46655 7.47719e-18
6704.79881 7.42878e-18
6706.13108 7.38037e-18
6707.45332 7.34798e-18
6708.78558 7.31560e-18
6710.11784 7.29195e-18
6711.45010 7.26832e-18
6712.78236 7.25145e-18
6714.10461 7.23461e-18
6715.43687 7.25037e-18
6716.76913 7.26614e-18
6718.10139 7.31587e-18
6719.43365 7.36560e-18
6720.75590 7.41373e-18
6722.08816 7.46185e-18
6723.42042 7.48042e-18
6724.75268 7.49895e-18
6726.07492 7.47470e-18
6727.40718 7.45043e-18
6728.73944 7.38427e-18
6730.07171 7.31812e-18
6731.40397 7.25532e-18
6732.72621 7.19254e-18
6734.05847 7.14471e-18
6735.39073 7.09689e-18
6736.72299 7.08106e-18
6738.05525 7.06527e-18
6739.37750 7.10523e-18
6740.70976 7.14519e-18
6742.04202 7.17944e-18
6743.37428 7.21368e-18
6744.69653 7.23804e-18
6746.02879 7.26239e-18
6747.36105 7.28276e-18
6748.69331 7.30310e-18
6750.02557 7.28962e-18
6751.34781 7.27612e-18
6752.68007 7.23617e-18
6754.01234 7.19621e-18
6755.34460 7.14575e-18
6756.67686 7.09529e-18
6757.99910 7.03681e-18
6759.33136 6.97834e-18
6760.66362 6.93060e-18
6761.99588 6.88288e-18
6763.31813 6.86574e-18
6764.65039 6.84863e-18
6765.98265 6.86989e-18
6767.31491 6.89117e-18
6768.64717 6.94675e-18
6769.96942 7.00231e-18
6771.30168 7.02527e-18
6772.63394 7.04818e-18
6773.96620 7.00786e-18
6775.29846 6.96755e-18
6776.62070 6.94045e-18
6777.95297 6.91334e-18
6779.28523 6.87983e-18
6780.61749 6.84631e-18
6781.94975 6.80843e-18
6783.27199 6.77054e-18
6784.60425 6.72902e-18
6785.93651 6.68752e-18
6787.26878 6.66686e-18
6788.59102 6.64622e-18
6789.92328 6.67023e-18
6791.25554 6.69425e-18
6792.58780 6.73668e-18
6793.92006 6.77909e-18
6795.24231 6.80007e-18
6796.57457 6.82106e-18
6797.90683 6.84778e-18
6799.23909 6.87449e-18
6800.57135 6.87340e-18
6801.89360 6.87228e-18
6803.22586 6.83497e-18
6804.55812 6.79765e-18
6805.89038 6.75433e-18
6807.21262 6.71099e-18
6808.54488 6.63530e-18
6809.87714 6.55963e-18
6811.20940 6.49570e-18
6812.54167 6.43182e-18
6813.86391 6.42827e-18
6815.19617 6.42473e-18
6816.52843 6.44112e-18
6817.86069 6.45753e-18
6819.19295 6.49624e-18
6820.51520 6.53497e-18
6821.84746 6.58897e-18
6823.17972 6.64293e-18
6824.51198 6.65165e-18
6825.83423 6.66034e-18
6827.16649 6.61790e-18
6828.49875 6.57545e-18
6829.83101 6.51202e-18
6831.16327 6.44858e-18
6832.48551 6.37955e-18
6833.81777 6.31053e-18
6835.15004 6.25515e-18
6836.48230 6.19982e-18
6837.81456 6.19458e-18
6839.13680 6.18937e-18
6840.46906 6.22658e-18
6841.80132 6.26382e-18
6843.13358 6.33279e-18
6844.46585 6.40175e-18
6845.78809 6.39852e-18
6847.12035 6.39530e-18
6848.45261 6.39207e-18
6849.78487 6.38885e-18
6851.10712 6.38562e-18
6852.43938 6.38240e-18
6853.77164 6.37917e-18
6855.10390 6.37595e-18
6856.43616 6.37272e-18
6857.75840 6.36950e-18
6859.09066 6.36628e-18
6860.42293 6.36305e-18
6861.75519 6.35983e-18
6863.08745 6.35661e-18
6864.40969 6.35338e-18
6865.74195 6.35016e-18
6867.07421 6.34694e-18
6868.40648 6.34372e-18
6869.72872 6.34049e-18
6871.06098 6.33727e-18
6872.39324 6.33405e-18
6873.72550 6.33083e-18
6875.05776 6.32761e-18
6876.38001 6.32438e-18
6877.71227 6.32116e-18
6879.04453 6.31794e-18
6880.37679 6.31472e-18
6881.70905 6.31150e-18
6883.03130 6.30828e-18
6884.36356 6.30506e-18
6885.69582 6.30184e-18
6887.02808 6.29862e-18
6888.36034 6.29540e-18
6889.68258 6.29218e-18
6891.01484 6.28896e-18
6892.34710 6.28574e-18
6893.67937 6.28252e-18
6895.00161 6.27930e-18
6896.33387 6.27609e-18
6897.66613 6.27287e-18
6898.99839 6.26965e-18
6900.33065 6.26643e-18
6901.65290 6.26321e-18
6902.98516 6.25999e-18
6904.31742 6.25678e-18
6905.64968 6.25356e-18
6906.97192 6.25034e-18
6908.30419 6.24712e-18
6909.63645 6.24391e-18
6910.96871 6.24069e-18
6912.30097 6.23747e-18
6913.62321 6.23426e-18
6914.95547 6.23104e-18
6916.28774 6.22783e-18
6917.62000 6.22461e-18
6918.95226 6.22139e-18
6920.27450 6.21818e-18
6921.60676 6.21496e-18
6922.93902 6.21175e-18
6924.27128 6.20853e-18
6925.60355 6.20532e-18
6926.92579 6.20210e-18
6928.25805 6.19889e-18
6929.59031 6.19567e-18
6930.92257 6.19246e-18
6932.24482 6.18925e-18
6933.57708 6.18603e-18
6934.90934 6.18282e-18
6936.24160 6.16741e-18
6937.57386 6.15198e-18
6938.89610 6.11112e-18
6940.22836 6.07024e-18
6941.56063 6.00694e-18
6942.89289 5.94364e-18
6944.22515 5.87869e-18
6945.54739 5.81378e-18
6946.87965 5.78060e-18
6948.21191 5.74745e-18
6949.54417 5.73195e-18
6950.87644 5.71648e-18
6952.19868 5.73970e-18
6953.53094 5.76295e-18
6954.86320 5.82555e-18
6956.19546 5.88813e-18
6957.51771 5.93393e-18
6958.84997 5.97972e-18
6960.18223 6.03006e-18
6961.51449 6.08040e-18
6962.84675 6.14483e-18
6964.16900 6.20924e-18
6965.50126 6.22770e-18
6966.83352 6.24614e-18
6968.16578 6.21977e-18
6969.49804 6.19341e-18
6970.82028 6.16174e-18
6972.15254 6.13004e-18
6973.48481 6.05811e-18
6974.81707 5.98619e-18
6976.13931 5.93302e-18
6977.47157 5.87986e-18
6978.80383 5.83917e-18
6980.13609 5.79846e-18
6981.46835 5.73231e-18
6982.79060 5.66617e-18
6984.12286 5.60288e-18
6985.45512 5.53959e-18
6986.78738 5.48355e-18
6988.11964 5.42754e-18
6989.44189 5.40357e-18
6990.77415 5.37962e-18
6992.10641 5.39585e-18
6993.43867 5.41210e-18
6994.77093 5.45875e-18
6996.09317 5.50540e-18
6997.42544 5.55677e-18
6998.75770 5.60812e-18
7000.08996 5.65872e-18
7001.41220 5.70931e-18
7002.74446 5.76565e-18
7004.07672 5.82197e-18
7005.40898 5.84433e-18
7006.74125 5.86668e-18
7008.06349 5.86341e-18
7009.39575 5.86011e-18
7010.72801 5.79907e-18
7012.06027 5.73805e-18
7013.38252 5.69355e-18
7014.71478 5.64905e-18
7016.04704 5.59298e-18
7017.37930 5.53692e-18
7018.71156 5.50323e-18
7020.03380 5.46957e-18
7021.36607 5.47916e-18
7022.69833 5.48881e-18
7024.03059 5.57847e-18
7025.36285 5.66811e-18
7026.68509 5.74580e-18
7028.01735 5.82348e-18
7029.34961 5.88839e-18
7030.68188 5.95330e-18
7032.01414 6.02299e-18
7033.33638 6.09266e-18
7034.66864 6.14934e-18
7036.00090 6.20597e-18
7037.33316 6.19487e-18
7038.65541 6.18373e-18
7039.98767 6.11864e-18
7041.31993 6.05358e-18
7042.65219 6.01766e-18
7043.98445 5.98175e-18
7045.30670 5.94777e-18
7046.63896 5.91378e-18
7047.97122 5.86434e-18
7049.30348 5.81496e-18
7050.63574 5.83799e-18
7051.95798 5.86106e-18
7053.29024 5.94360e-18
7054.62251 6.02612e-18
7055.95477 6.09476e-18
7057.28703 6.16342e-18
7058.60927 6.26337e-18
7059.94153 6.36331e-18
7061.27379 6.45376e-18
7062.60605 6.54415e-18
7063.92830 6.54803e-18
7065.26056 6.55188e-18
7066.59282 6.52586e-18
7067.92508 6.49982e-18
7069.25734 6.45580e-18
7070.57959 6.41176e-18
7071.91185 6.33179e-18
7073.24411 6.25184e-18
7074.57637 6.18077e-18
7075.90863 6.10975e-18
7077.23087 6.09725e-18
7078.56314 6.08480e-18
7079.89540 6.14239e-18
7081.22766 6.19998e-18
7082.54990 6.26394e-18
7083.88216 6.32790e-18
7085.21442 6.39877e-18
7086.54668 6.46965e-18
7087.87895 6.55641e-18
7089.20119 6.64315e-18
7090.53345 6.70332e-18
7091.86571 6.76347e-18
7093.19797 6.78973e-18
7094.53023 6.81593e-18
7095.85248 6.76891e-18
7097.18474 6.72185e-18
7098.51700 6.62459e-18
7099.84926 6.52735e-18
7101.17150 6.44094e-18
7102.50377 6.35456e-18
7103.83603 6.29623e-18
7105.16829 6.23795e-18
7106.50055 6.25316e-18
7107.82279 6.26842e-18
7109.15505 6.34017e-18
7110.48731 6.41193e-18
7111.81958 6.49891e-18
7113.15184 6.58587e-18
7114.47408 6.65304e-18
7115.80634 6.72021e-18
7117.13860 6.78523e-18
7118.47086 6.85023e-18
7119.80312 6.89869e-18
7121.12537 6.94710e-18
7122.45763 6.94592e-18
7123.78989 6.94471e-18
7125.12215 6.88723e-18
7126.44440 6.82975e-18
7127.77666 6.77546e-18
7129.10892 6.72118e-18
7130.44118 6.69553e-18
7131.77344 6.66988e-18
7133.09568 6.63936e-18
7134.42794 6.60890e-18
7135.76020 6.66654e-18
7137.09247 6.72422e-18
7138.42473 6.84213e-18
7139.74697 6.96003e-18
7141.07923 7.06800e-18
7142.41149 7.17591e-18
7143.74375 7.21321e-18
7145.06600 7.25048e-18
7146.39826 7.25132e-18
7147.73052 7.25217e-18
7149.06278 7.26601e-18
7150.39504 7.27978e-18
7151.71729 7.21398e-18
7153.04955 7.14814e-18
7154.38181 7.01131e-18
7155.71407 6.87452e-18
7157.04633 6.78041e-18
7158.36857 6.68630e-18
7159.70084 6.58306e-18
7161.03310 6.47982e-18
7162.36536 6.38144e-18
7163.68760 6.28312e-18
7165.01986 6.25075e-18
7166.35212 6.21838e-18
7167.68438 6.17261e-18
7169.01665 6.12688e-18
7170.33889 6.12815e-18
7171.67115 6.12946e-18
7173.00341 6.17311e-18
7174.33567 6.21678e-18
7175.66793 6.28386e-18
7176.99018 6.35092e-18
7178.32244 6.38623e-18
7179.65470 6.42155e-18
7180.98696 6.47016e-18
7182.30920 6.51875e-18
7183.64146 6.54247e-18
7184.97373 6.56610e-18
7186.30599 6.46282e-18
7187.63825 6.35957e-18
7188.96049 6.28415e-18
7190.29275 6.20876e-18
7191.62501 6.16136e-18
7192.95728 6.11394e-18
7194.28954 6.05146e-18
7195.61178 5.98899e-18
7196.94404 5.95130e-18
7198.27630 5.91362e-18
7199.60856 5.88330e-18
7200.94082 5.85305e-18
7202.26307 5.91780e-18
7203.59533 5.98260e-18
7204.92759 6.10757e-18
7206.25985 6.23254e-18
7207.58210 6.34867e-18
7208.91436 6.46480e-18
7210.24662 6.58418e-18
7211.57888 6.70353e-18
7212.91114 6.78337e-18
7214.23338 6.86315e-18
7215.56564 6.85507e-18
7216.89790 6.84689e-18
7218.23017 6.69383e-18
7219.56243 6.54077e-18
7220.88467 6.38065e-18
7222.21693 6.22056e-18
7223.54919 6.07502e-18
7224.88145 5.92952e-18
7226.20370 5.82086e-18
7227.53596 5.71224e-18
7228.86822 5.66023e-18
7230.20048 5.60830e-18
7231.53274 5.66441e-18
7232.85499 5.72059e-18
7234.18725 5.86124e-18
7235.51951 6.00179e-18
7236.85177 6.03051e-18
7238.18403 6.05922e-18
7239.50627 6.08554e-18
7240.83854 6.11191e-18
7242.17080 6.21797e-18
7243.50306 6.32394e-18
7244.82530 6.30412e-18
7246.15756 6.28431e-18
7247.48982 6.26090e-18
7248.82208 6.23749e-18
7250.15435 6.21313e-18
7251.47659 6.18870e-18
7252.80885 6.05615e-18
7254.14111 5.92360e-18
7255.47337 5.79956e-18
7256.80563 5.67561e-18
7258.12788 5.65468e-18
7259.46014 5.63378e-18
7260.79240 5.66101e-18
7262.12466 5.68818e-18
7263.44690 5.65120e-18
7264.77916 5.61423e-18
7266.11143 5.60140e-18
7267.44369 5.58860e-18
7268.77595 5.62193e-18
7270.09819 5.65527e-18
7271.43045 5.70393e-18
7272.76271 5.75263e-18
7274.09497 5.86666e-18
7275.42724 5.98062e-18
7276.74948 6.02763e-18
7278.08174 6.07458e-18
7279.41400 6.05852e-18
7280.74626 6.04247e-18
7282.07852 6.02870e-18
7283.40077 6.01487e-18
7284.73303 5.92252e-18
7286.06529 5.83015e-18
7287.39755 5.71588e-18
7288.71980 5.60163e-18
7290.05206 5.49198e-18
7291.38432 5.38238e-18
7292.71658 5.32943e-18
7294.04884 5.27653e-18
7295.37108 5.27894e-18
7296.70334 5.28138e-18
7298.03561 5.33661e-18
7299.36787 5.39188e-18
7300.70013 5.49498e-18
7302.02237 5.59807e-18
7303.35463 5.68452e-18
7304.68689 5.77092e-18
7306.01915 5.81101e-18
7307.34140 5.85105e-18
7308.67366 5.84285e-18
7310.00592 5.83459e-18
7311.33818 5.75599e-18
7312.67044 5.67741e-18
7313.99269 5.61696e-18
7315.32495 5.55651e-18
7316.65721 5.49237e-18
7317.98947 5.42820e-18
7319.32173 5.32040e-18
7320.64397 5.21265e-18
7321.97624 5.16670e-18
7323.30850 5.12078e-18
7324.64076 5.11033e-18
7325.97302 5.09992e-18
7327.29526 5.14078e-18
7328.62752 5.18165e-18
7329.95978 5.22421e-18
7331.29205 5.26678e-18
7332.61429 5.33395e-18
7333.94655 5.40112e-18
7335.27881 5.47545e-18
7336.61107 5.54977e-18
7337.94333 5.61416e-18
7339.26558 5.67855e-18
7340.59784 5.74975e-18
7341.93010 5.82092e-18
7343.26236 5.86418e-18
7344.59462 5.90739e-18
7345.91687 5.90001e-18
7347.24913 5.89258e-18
7348.58139 5.82684e-18
7349.91365 5.76104e-18
7351.23589 5.62485e-18
7352.56815 5.48868e-18
7353.90041 5.36134e-18
7355.23268 5.23407e-18
7356.56494 5.18596e-18
7357.88718 5.13786e-18
7359.21944 5.11079e-18
7360.55170 5.08372e-18
7361.88396 5.06262e-18
7363.21622 5.04154e-18
7364.53847 5.04696e-18
7365.87073 5.05240e-18
7367.20299 5.08554e-18
7368.53525 5.11867e-18
7369.85750 5.13638e-18
7371.18976 5.15411e-18
7372.52202 5.18778e-18
7373.85428 5.22148e-18
7375.18654 5.28644e-18
7376.50878 5.35139e-18
7377.84104 5.41749e-18
7379.17331 5.48358e-18
7380.50557 5.53798e-18
7381.83783 5.59233e-18
7383.16007 5.59342e-18
7384.49233 5.59448e-18
7385.82459 5.54513e-18
7387.15685 5.49576e-18
7388.48912 5.40880e-18
7389.81136 5.32181e-18
7391.14362 5.19332e-18
7392.47588 5.06483e-18
7393.80814 4.93998e-18
7395.13039 4.81518e-18
7396.46265 4.74617e-18
7397.79491 4.67719e-18
7399.12717 4.65822e-18
7400.45943 4.63929e-18
7401.78167 4.67568e-18
7403.11394 4.71211e-18
7404.44620 4.79686e-18
7405.77846 4.88159e-18
7407.11072 4.93371e-18
7408.43296 4.98582e-18
7409.76522 5.03243e-18
7411.09748 5.07902e-18
7412.42975 5.10962e-18
7413.75199 5.14015e-18
7415.08425 5.09166e-18
7416.41651 5.04315e-18
7417.74877 4.96232e-18
7419.08103 4.88147e-18
7420.40328 4.76769e-18
7421.73554 4.65392e-18
7423.06780 4.54373e-18
7424.40006 4.43357e-18
7425.73232 4.34895e-18
7427.05457 4.26434e-18
7428.38683 4.19806e-18
7429.71909 4.13181e-18
7431.05135 4.10153e-18
7432.38361 4.07127e-18
7433.70585 4.06460e-18
7435.03811 4.05795e-18
7436.37038 4.07150e-18
7437.70264 4.08507e-18
7439.02488 4.11934e-18
7440.35714 4.15359e-18
7441.68940 4.14735e-18
7443.02166 4.14108e-18
7444.35392 4.10213e-18
7445.67617 4.06321e-18
7447.00843 4.07327e-18
7448.34069 4.08336e-18
7449.67295 4.12981e-18
7450.99520 4.17627e-18
7452.32746 4.22938e-18
7453.65972 4.28246e-18
7454.99198 4.30526e-18
7456.32424 4.32801e-18
7457.64648 4.29773e-18
7458.97874 4.26745e-18
7460.31100 4.23303e-18
7461.64327 4.19860e-18
7462.97553 4.13901e-18
7464.29777 4.07942e-18
7465.63003 4.00527e-18
7466.96229 3.93112e-18
7468.29455 3.84336e-18
7469.62681 3.75560e-18
7470.94906 3.66252e-18
7472.28132 3.56947e-18
7473.61358 3.49989e-18
7474.94584 3.43034e-18
7476.26809 3.39000e-18
7477.60035 3.34970e-18
7478.93261 3.36627e-18
7480.26487 3.38288e-18
7481.59713 3.44387e-18
7482.91937 3.50485e-18
7484.25164 3.57247e-18
7485.58390 3.64009e-18
7486.91616 3.72492e-18
7488.24842 3.80972e-18
7489.57066 3.86668e-18
7490.90292 3.92359e-18
7492.23518 3.92668e-18
7493.56745 3.92974e-18
7494.89971 3.90583e-18
7496.22195 3.88190e-18
7497.55421 3.82862e-18
7498.88647 3.77532e-18
7500.21873 3.69486e-18
7501.54098 3.61442e-18
7502.87324 3.54703e-18
7504.20550 3.47964e-18
7505.53776 3.41516e-18
7506.87002 3.35073e-18
7508.19226 3.34459e-18
7509.52453 3.33844e-18
7510.85679 3.33114e-18
7512.18905 3.32385e-18
7513.52131 3.33935e-18
7514.84355 3.35488e-18
7516.17581 3.41288e-18
7517.50808 3.47088e-18
7518.84034 3.52589e-18
7520.16258 3.58091e-18
7521.49484 3.63828e-18
7522.82710 3.69567e-18
7524.15936 3.77814e-18
7525.49162 3.86059e-18
7526.81387 3.93480e-18
7528.14613 4.00897e-18
7529.47839 4.03350e-18
7530.81065 4.05803e-18
7532.14291 4.07860e-18
7533.46516 4.09918e-18
7534.79742 4.14373e-18
7536.12968 4.18823e-18
7537.46194 4.17096e-18
7538.79420 4.15367e-18
7540.11644 4.10996e-18
7541.44870 4.06628e-18
7542.78097 4.05475e-18
7544.11323 4.04322e-18
7545.43547 4.03432e-18
7546.76773 4.02542e-18
7548.09999 4.01358e-18
7549.43225 4.00172e-18
7550.76451 4.02209e-18
7552.08676 4.04246e-18
7553.41902 4.06283e-18
7554.75128 4.08320e-18
7556.08354 4.10356e-18
7557.40579 4.12392e-18
7558.73805 4.14429e-18
7560.07031 4.16465e-18
7561.40257 4.18501e-18
7562.73483 4.20536e-18
7564.05707 4.22572e-18
7565.38934 4.24608e-18
7566.72160 4.26643e-18
7568.05386 4.28678e-18
7569.38612 4.30713e-18
7570.70836 4.32748e-18
7572.04062 4.34782e-18
7573.37288 4.36818e-18
7574.70515 4.38852e-18
7576.03741 4.40886e-18
7577.35965 4.42920e-18
7578.69191 4.44954e-18
7580.02417 4.46989e-18
7581.35643 4.49022e-18
7582.67868 4.51056e-18
7584.01094 4.53089e-18
7585.34320 4.55122e-18
7586.67546 4.57156e-18
7588.00772 4.59189e-18
7589.32996 4.61221e-18
7590.66223 4.63254e-18
7591.99449 4.65286e-18
7593.32675 4.67319e-18
7594.65901 4.69352e-18
7595.98125 4.71384e-18
7597.31351 4.73415e-18
7598.64577 4.75447e-18
7599.97804 4.77479e-18
7601.31030 4.79511e-18
7602.63254 4.81542e-18
7603.96480 4.83573e-18
7605.29706 4.85604e-18
7606.62932 4.87635e-18
7607.95157 4.89666e-18
7609.28383 4.91697e-18
7610.61609 4.93727e-18
7611.94835 4.95758e-18
7613.28061 4.97788e-18
7614.60286 4.99818e-18
7615.93512 5.01848e-18
7617.26738 5.03878e-18
7618.59964 5.05907e-18
7619.93190 5.07937e-18
7621.25414 5.09966e-18
7622.58641 5.11996e-18
7623.91867 5.14025e-18
7625.25093 5.16054e-18
7626.57317 5.18082e-18
7627.90543 5.20111e-18
7629.23769 5.22140e-18
7630.56995 5.24168e-18
7631.90222 5.26196e-18
7633.22446 5.28224e-18
7634.55672 5.30252e-18
7635.88898 5.32280e-18
7637.22124 5.34308e-18
7638.55350 5.36335e-18
7639.87575 5.38362e-18
7641.20801 5.40389e-18
7642.54027 5.42416e-18
7643.87253 5.44443e-18
7645.19477 5.46470e-18
7646.52704 5.48496e-18
7647.85930 5.50523e-18
7649.19156 5.52549e-18
7650.52382 5.54576e-18
7651.84606 5.56602e-18
7653.17832 5.58627e-18
7654.51058 5.60653e-18
7655.84285 5.62678e-18
7657.17511 5.64704e-18
7658.49735 5.66729e-18
7659.82961 5.68754e-18
7661.16187 5.70779e-18
7662.49413 5.72804e-18
7663.81638 5.74828e-18
7665.14864 5.76854e-18
7666.48090 5.78878e-18
7667.81316 5.80902e-18
7669.14542 5.82926e-18
7670.46767 5.84950e-18
7671.79993 5.86974e-18
7673.13219 5.88998e-18
7674.46445 5.91021e-18
7675.79671 5.93044e-18
7677.11895 5.95067e-18
7678.45121 5.97091e-18
7679.78348 5.99114e-18
7681.11574 5.77981e-18
7682.44800 5.56856e-18
7683.77024 5.41776e-18
7685.10250 5.26702e-18
7686.43476 5.17639e-18
7687.76702 5.08584e-18
7689.08927 5.08001e-18
7690.42153 5.07427e-18
7691.75379 5.16655e-18
7693.08605 5.25891e-18
7694.41831 5.45038e-18
7695.74056 5.64187e-18
7697.07282 5.87424e-18
7698.40508 6.10654e-18
7699.73734 6.26659e-18
7701.06960 6.42658e-18
7702.39184 6.51013e-18
7703.72411 6.59363e-18
7705.05637 6.63008e-18
7706.38863 6.66642e-18
7707.71087 6.56650e-18
7709.04313 6.46650e-18
7710.37539 6.25937e-18
7711.57743 6.25937e-18
7713.70104 6.30336e-18
7715.82464 6.37328e-18
7717.93823 6.44320e-18
7720.06183 6.44753e-18
7722.17542 6.45186e-18
7724.29902 6.43130e-18
7726.41261 6.41073e-18
7728.53621 6.42552e-18
7730.65982 6.44031e-18
7732.77340 6.45732e-18
7734.89701 6.47433e-18
7737.01060 6.47865e-18
7739.13420 6.48297e-18
7741.24779 6.49077e-18
7743.37139 6.49857e-18
7745.49500 6.50686e-18
7747.60858 6.51514e-18
7749.73219 6.52541e-18
7751.84577 6.53567e-18
7753.96938 6.56315e-18
7756.08296 6.59062e-18
7758.20657 6.60060e-18
7760.33017 6.61057e-18
7762.44376 6.59777e-18
7764.56736 6.58497e-18
7766.68095 6.62101e-18
7768.80455 6.65704e-18
7770.91814 6.66265e-18
7773.04175 6.66826e-18
7775.16535 6.63963e-18
7777.27894 6.61100e-18
7779.40254 6.60335e-18
7781.51613 6.59570e-18
7783.63973 6.60400e-18
7785.75332 6.61231e-18
7787.87692 6.61279e-18
7790.00053 6.61328e-18
7792.11411 6.60708e-18
7794.23772 6.60089e-18
7796.35130 6.59657e-18
7798.47491 6.59225e-18
7800.58850 6.60053e-18
7802.71210 6.60881e-18
7804.83570 6.62205e-18
7806.94929 6.63528e-18
7809.07289 6.61983e-18
7811.18648 6.60439e-18
7813.31009 6.59728e-18
7815.42367 6.59017e-18
7817.54728 6.58992e-18
7819.67088 6.58967e-18
7821.78447 6.60858e-18
7823.90807 6.62748e-18
7826.02166 6.62722e-18
7828.14526 6.62698e-18
7830.25885 6.64109e-18
7832.38245 6.65521e-18
7834.50606 6.66932e-18
7836.61964 6.68343e-18
7838.74325 6.68318e-18
7840.85684 6.68292e-18
7842.98044 6.68763e-18
7845.09403 6.69232e-18
7847.21763 6.67275e-18
7849.34123 6.65319e-18
7851.45482 6.63858e-18
7853.57843 6.62396e-18
7855.69201 6.60457e-18
7857.81562 6.58518e-18
7859.92920 6.59641e-18
7862.05281 6.60764e-18
7864.17641 6.58644e-18
7866.29000 6.56525e-18
7868.41360 6.54173e-18
7870.52719 6.51822e-18
7872.65079 6.49387e-18
7874.76438 6.46952e-18
7876.88798 6.44571e-18
7879.01159 6.42191e-18
7881.12518 6.39991e-18
7883.24878 6.37790e-18
7885.36237 6.35941e-18
7887.48597 6.34092e-18
7889.59956 6.32575e-18
7891.72316 6.31059e-18
7893.84677 6.29700e-18
7895.96035 6.28342e-18
7898.08396 6.26992e-18
7900.19754 6.25642e-18
7902.32115 6.24143e-18
7904.43473 6.22645e-18
7906.55834 6.21009e-18
7908.68194 6.19374e-18
7910.79553 6.17572e-18
7912.91913 6.15769e-18
7915.03272 6.13790e-18
7917.15632 6.11811e-18
7919.26991 6.09586e-18
7921.39351 6.07361e-18
7923.51712 6.04835e-18
7925.63071 6.02309e-18
7927.75431 5.99416e-18
7929.86790 5.96523e-18
7931.99150 5.93283e-18
7934.10509 5.90043e-18
7936.22869 5.86536e-18
7938.35230 5.83029e-18
7940.46588 5.79326e-18
7942.58949 5.75624e-18
7944.70307 5.71795e-18
7946.82668 5.67968e-18
7948.94027 5.64020e-18
7951.06387 5.60073e-18
7953.18747 5.56030e-18
7955.30106 5.51988e-18
7957.42466 5.47874e-18
7959.53825 5.43761e-18
7961.66186 5.39564e-18
7963.77544 5.35368e-18
7965.89905 5.31077e-18
7968.02265 5.26786e-18
7970.13624 5.22390e-18
7972.25984 5.17995e-18
7974.37343 5.13496e-18
7976.49703 5.08998e-18
7978.61062 5.04411e-18
7980.73422 4.99824e-18
7982.85783 4.95156e-18
7984.97141 4.90488e-18
7987.09502 4.85770e-18
7989.20860 4.81051e-18
7991.33221 4.76413e-18
7993.44580 4.71775e-18
7995.56940 4.67319e-18
7997.69300 4.62866e-18
7999.80659 4.58708e-18
8001.93020 4.54551e-18
8004.04378 4.50722e-18
8006.16739 4.46895e-18
8008.28097 4.43417e-18
8010.40458 4.39940e-18
8012.52818 4.36856e-18
8014.64177 4.33774e-18
8016.76537 4.31023e-18
8018.87896 4.28272e-18
8021.00256 4.25741e-18
8023.11615 4.23211e-18
8025.23975 4.20782e-18
8027.36336 4.18354e-18
8029.47695 4.15937e-18
8031.60055 4.13520e-18
8033.71414 4.11198e-18
8035.83774 4.08876e-18
8037.95133 4.06684e-18
8040.07493 4.04493e-18
8042.19854 4.02493e-18
8044.31212 4.00492e-18
8046.43573 3.98619e-18
8048.54931 3.96745e-18
8050.67292 3.94944e-18
8052.78650 3.93143e-18
8054.91011 3.91369e-18
8057.03371 3.89595e-18
8059.14730 3.87789e-18
8061.27090 3.85983e-18
8063.38449 3.84088e-18
8065.50809 3.82192e-18
8067.62168 3.80151e-18
8069.74529 3.78109e-18
8071.86889 3.75889e-18
8073.98248 3.73668e-18
8076.10608 3.71300e-18
8078.21967 3.68933e-18
8080.34327 3.66442e-18
8082.46688 3.63952e-18
8084.58046 3.61353e-18
8086.70407 3.58756e-18
8088.81765 3.56175e-18
8090.94126 3.53595e-18
8093.05484 3.51136e-18
8095.17845 3.48677e-18
8097.29204 3.46513e-18
8099.41564 3.44349e-18
8101.53924 3.42412e-18
8103.65283 3.40476e-18
8105.77643 3.38617e-18
8107.89002 3.36759e-18
8110.01363 3.34826e-18
8112.12721 3.32893e-18
8114.25082 3.30808e-18
8116.37442 3.28722e-18
8118.48801 3.26680e-18
8120.61161 3.24640e-18
8122.72520 3.22760e-18
8124.84880 3.20881e-18
8126.96239 3.19317e-18
8129.08599 3.17754e-18
8131.20960 3.16425e-18
8133.32318 3.15097e-18
8135.44679 3.13950e-18
8137.56038 3.12802e-18
8139.68398 3.11777e-18
8141.79757 3.10751e-18
8143.92117 3.09796e-18
8146.04477 3.08841e-18
8148.15836 3.07912e-18
8150.28197 3.06983e-18
8152.39555 3.06015e-18
8154.51916 3.05047e-18
8156.63274 3.04018e-18
8158.75635 3.02989e-18
8160.87995 3.01992e-18
8162.99354 3.00996e-18
8165.11714 3.00097e-18
8167.23073 2.99200e-18
8169.35433 2.98492e-18
8171.46792 2.97785e-18
8173.59152 2.97189e-18
8175.71513 2.96594e-18
8177.82872 2.96059e-18
8179.95232 2.95526e-18
8182.06591 2.94984e-18
8184.18951 2.94444e-18
8186.30310 2.93917e-18
8188.42670 2.93390e-18
8190.55030 2.92923e-18
8192.66389 2.92457e-18
8194.78750 2.92081e-18
8196.90108 2.91706e-18
8199.02469 2.91475e-18
8201.14829 2.91244e-18
8203.26188 2.91256e-18
8205.38548 2.91268e-18
8207.49907 2.91598e-18
8209.62267 2.91928e-18
8211.73626 2.92640e-18
8213.85986 2.93353e-18
8215.97345 2.94443e-18
8218.09706 2.95533e-18
8220.22066 2.96976e-18
8222.33425 2.98419e-18
8224.45785 3.00259e-18
8226.57144 3.02098e-18
8228.69504 3.04081e-18
8230.80863 3.06065e-18
8232.93223 3.07889e-18
8235.05584 3.09714e-18
8237.16942 3.11057e-18
8239.29303 3.12399e-18
8241.40661 3.13122e-18
8243.53022 3.13844e-18
8245.65382 3.14181e-18
8247.76741 3.14518e-18
8249.89101 3.14617e-18
8252.00460 3.14715e-18
8254.12820 3.14754e-18
8256.24179 3.14792e-18
8258.36540 3.14945e-18
8260.48900 3.15097e-18
8262.60259 3.15529e-18
8264.72619 3.15961e-18
8266.83978 3.16904e-18
8268.96338 3.17848e-18
8271.07697 3.19212e-18
8273.20057 3.20576e-18
8275.31416 3.22196e-18
8277.43776 3.23816e-18
8279.56137 3.25536e-18
8281.67495 3.27254e-18
8283.79856 3.28936e-18
8285.91215 3.30619e-18
8288.03575 3.32197e-18
8290.14934 3.33775e-18
8292.27294 3.35157e-18
8294.39654 3.36538e-18
8296.51013 3.37634e-18
8298.63373 3.38730e-18
8300.74732 3.39733e-18
8302.87093 3.40735e-18
8304.99453 3.41792e-18
8307.10812 3.42850e-18
8309.23172 3.44160e-18
8311.34531 3.45468e-18
8313.46891 3.47040e-18
8315.58250 3.48611e-18
8317.70610 3.50416e-18
8319.82971 3.52220e-18
8321.94329 3.54262e-18
8324.06690 3.56303e-18
8326.18048 3.58516e-18
8328.30409 3.60730e-18
8330.41768 3.62971e-18
8332.54128 3.65213e-18
8334.65487 3.67346e-18
8336.77847 3.69480e-18
8338.90207 3.71364e-18
8341.01566 3.73247e-18
8343.13927 3.75024e-18
8345.25285 3.76800e-18
8347.37646 3.78561e-18
8349.50006 3.80321e-18
8351.61365 3.82222e-18
8353.73725 3.84121e-18
8355.85084 3.86097e-18
8357.97444 3.88072e-18
8360.08803 3.90046e-18
8362.21163 3.92020e-18
8364.32522 3.93911e-18
8366.44882 3.95801e-18
8368.57243 3.97609e-18
8370.68602 3.99417e-18
8372.80962 4.01259e-18
8374.92321 4.03101e-18
8377.04681 4.05050e-18
8379.17042 4.06999e-18
8381.28400 4.09131e-18
8383.40761 4.11262e-18
8385.52119 4.13664e-18
8387.64480 4.16065e-18
8389.75838 4.18806e-18
8391.88199 4.21546e-18
8393.99558 4.24761e-18
8396.11918 4.27977e-18
8398.24278 4.31479e-18
8400.35637 4.34981e-18
8402.47997 4.38567e-18
8404.59356 4.42153e-18
8406.71717 4.45556e-18
8408.83075 4.48959e-18
8410.95436 4.52147e-18
8413.07796 4.55334e-18
8415.19155 4.58547e-18
8417.31515 4.61759e-18
8419.42874 4.65150e-18
8421.55234 4.68542e-18
8423.67595 4.72270e-18
8425.78953 4.75998e-18
8427.91314 4.79956e-18
8430.02672 4.83915e-18
8432.15033 4.88040e-18
8434.26392 4.92166e-18
8436.38752 4.96421e-18
8438.51112 5.00676e-18
8440.62471 5.04849e-18
8442.74831 5.09021e-18
8444.86190 5.12902e-18
8446.98551 5.16782e-18
8449.09909 5.20118e-18
8451.22270 5.23454e-18
8453.33628 5.26191e-18
8455.45989 5.28926e-18
8457.58349 5.31205e-18
8459.69708 5.33484e-18
8461.82068 5.35407e-18
8463.93427 5.37330e-18
8466.05787 5.39020e-18
8468.17146 5.40710e-18
8470.29506 5.42253e-18
8472.41867 5.43796e-18
8474.53226 5.45290e-18
8476.65586 5.46784e-18
8478.76945 5.48349e-18
8480.89305 5.49912e-18
8483.01665 5.51532e-18
8485.13024 5.53152e-18
8487.25385 5.54799e-18
8489.36743 5.56447e-18
8491.49104 5.58082e-18
8493.60462 5.59717e-18
8495.72823 5.61307e-18
8497.85183 5.62897e-18
8499.96542 5.64418e-18
8502.08902 5.65938e-18
8504.20261 5.67355e-18
8506.32621 5.68773e-18
8508.43980 5.70055e-18
8510.56340 5.71336e-18
8512.68701 5.72417e-18
8514.80060 5.73499e-18
8516.92420 5.74335e-18
8519.03779 5.75172e-18
8521.16139 5.75716e-18
8523.27498 5.76260e-18
8525.39858 5.76532e-18
8527.51217 5.76804e-18
8529.63577 5.76839e-18
8531.75938 5.76874e-18
8533.87296 5.76682e-18
8535.99657 5.76489e-18
8538.11015 5.76174e-18
8540.23376 5.75858e-18
8542.35736 5.75582e-18
8544.47095 5.75307e-18
8546.59455 5.75221e-18
8548.70814 5.75135e-18
8550.83174 5.75355e-18
8552.94533 5.75573e-18
8555.06893 5.75980e-18
8557.19254 5.76386e-18
8559.30613 5.76904e-18
8561.42973 5.77423e-18
8563.54332 5.77978e-18
8565.66692 5.78534e-18
8567.78051 5.78981e-18
8569.90411 5.79427e-18
8572.02772 5.79635e-18
8574.14130 5.79843e-18
8576.26491 5.79611e-18
8578.37849 5.79379e-18
8580.50210 5.78773e-18
8582.61568 5.78168e-18
8584.73929 5.77418e-18
8586.86289 5.76669e-18
8588.97648 5.75963e-18
8591.10008 5.75257e-18
8593.21367 5.74760e-18
8595.33727 5.74265e-18
8597.45086 5.73954e-18
8599.57447 5.73643e-18
8601.68805 5.73527e-18
8603.81166 5.73412e-18
8605.93526 5.73523e-18
8608.04885 5.73634e-18
8610.17245 5.73732e-18
8612.28604 5.73829e-18
8614.40964 5.73689e-18
8616.53325 5.73550e-18
8618.64683 5.72912e-18
8620.77044 5.72273e-18
8622.88403 5.71064e-18
8625.00763 5.69854e-18
8627.12122 5.68124e-18
8629.24482 5.66394e-18
8631.36842 5.64158e-18
8633.48201 5.61922e-18
8635.60562 5.59260e-18
8637.71920 5.56599e-18
8639.84281 5.53789e-18
8641.95639 5.50979e-18
8644.08000 5.48258e-18
8646.19358 5.45536e-18
8648.31719 5.43171e-18
8650.44079 5.40806e-18
8652.55438 5.38793e-18
8654.67798 5.36780e-18
8656.79157 5.35101e-18
8658.91517 5.33422e-18
8661.02876 5.32087e-18
8663.15237 5.30752e-18
8665.27597 5.29618e-18
8667.38956 5.28485e-18
8669.51316 5.27343e-18
8671.62675 5.26202e-18
8673.75035 5.24840e-18
8675.87395 5.23479e-18
8677.98754 5.21741e-18
8680.11115 5.20002e-18
8682.22473 5.17955e-18
8684.34834 5.15908e-18
8686.46192 5.13579e-18
8688.58553 5.11250e-18
8690.70913 5.08675e-18
8692.82272 5.06101e-18
8694.94632 5.03443e-18
8697.05991 5.00785e-18
8699.18351 4.98197e-18
8701.29710 4.95609e-18
8703.42071 4.93284e-18
8705.53429 4.90958e-18
8707.65790 4.88933e-18
8709.78150 4.86907e-18
8711.89509 4.85145e-18
8714.01869 4.83382e-18
8716.13228 4.81859e-18
8718.25588 4.80338e-18
8720.37949 4.79005e-18
8722.49307 4.77672e-18
8724.61668 4.76432e-18
8726.73026 4.75193e-18
8728.85387 4.73954e-18
8730.96745 4.72714e-18
8733.09106 4.71374e-18
8735.21466 4.70034e-18
8737.32825 4.68554e-18
8739.45185 4.67073e-18
8741.56544 4.65419e-18
8743.68905 4.63766e-18
8745.80263 4.61901e-18
8747.92624 4.60036e-18
8750.04984 4.57994e-18
8752.16343 4.55953e-18
8754.28703 4.53802e-18
8756.40062 4.51651e-18
8758.52422 4.49458e-18
8760.63781 4.47266e-18
8762.76141 4.45108e-18
8764.88502 4.42950e-18
8766.99860 4.40904e-18
8769.12221 4.38857e-18
8771.23580 4.37002e-18
8773.35940 4.35146e-18
8775.47299 4.33567e-18
8777.59659 4.31989e-18
8779.72019 4.30673e-18
8781.83378 4.29358e-18
8783.95738 4.28300e-18
8786.07097 4.27243e-18
8788.19458 4.26403e-18
8790.30816 4.25564e-18
8792.43177 4.24989e-18
8794.54535 4.24414e-18
8796.66896 4.24161e-18
8798.79256 4.23909e-18
8800.90615 4.24021e-18
8803.02975 4.24132e-18
8805.14334 4.24616e-18
8807.26694 4.25100e-18
8809.39055 4.25899e-18
8811.50413 4.26698e-18
8813.62774 4.27765e-18
8815.74133 4.28831e-18
8817.86493 4.30128e-18
8819.97852 4.31425e-18
8822.10212 4.32705e-18
8824.22573 4.33984e-18
8826.33931 4.35046e-18
8828.46292 4.36108e-18
8830.57650 4.36700e-18
8832.70011 4.37293e-18
8834.81369 4.37440e-18
8836.93730 4.37587e-18
8839.05088 4.37398e-18
8841.17449 4.37208e-18
8843.29809 4.36751e-18
8845.41168 4.36293e-18
8847.53528 4.35714e-18
8849.64887 4.35135e-18
8851.77247 4.34708e-18
8853.89608 4.34281e-18
8856.00967 4.34244e-18
8858.13327 4.34207e-18
8860.24686 4.34817e-18
8862.37046 4.35428e-18
8864.48405 4.36393e-18
8866.60765 4.37359e-18
8868.73126 4.38450e-18
8870.84484 4.39541e-18
8872.96845 4.40474e-18
8875.08203 4.41407e-18
8877.20564 4.42038e-18
8879.31923 4.42669e-18
8881.44283 4.42888e-18
8883.56643 4.43107e-18
8885.68002 4.42800e-18
8887.80362 4.42493e-18
8889.91721 4.41600e-18
8892.04082 4.40708e-18
8894.15440 4.39254e-18
8896.27801 4.37799e-18
8898.39159 4.35807e-18
8900.51520 4.33815e-18
8902.63880 4.31311e-18
8904.75239 4.28806e-18
8906.87599 4.26203e-18
8908.98958 4.23601e-18
8911.11318 4.21231e-18
8913.23679 4.18861e-18
8915.35037 4.17171e-18
8917.47398 4.15481e-18
8919.58757 4.14361e-18
8921.71117 4.13241e-18
8923.82476 4.12472e-18
8925.94836 4.11705e-18
8928.07196 4.11113e-18
8930.18555 4.10522e-18
8932.30916 4.09891e-18
8934.42274 4.09261e-18
8936.54635 4.08350e-18
8938.65993 4.07439e-18
8940.78354 4.06010e-18
8942.90714 4.04581e-18
8945.02073 4.02407e-18
8947.14433 4.00232e-18
8949.25792 3.97722e-18
8951.38152 3.95212e-18
8953.49511 3.92686e-18
8955.61871 3.90159e-18
8957.74232 3.87981e-18
8959.85591 3.85803e-18
8961.97951 3.84182e-18
8964.09310 3.82561e-18
8966.21670 3.81654e-18
8968.33029 3.80745e-18
8970.45389 3.80773e-18
8972.57750 3.80800e-18
8974.69108 3.81717e-18
8976.81469 3.82634e-18
8978.92827 3.84052e-18
8981.05188 3.85470e-18
8983.16546 3.87062e-18
8985.28907 3.88654e-18
8987.41267 3.90065e-18
8989.52626 3.91475e-18
8991.64986 3.92650e-18
8993.76345 3.93824e-18
8995.88705 3.94662e-18
8998.00064 3.95499e-18
9000.12425 3.95907e-18
9002.24785 3.96315e-18
9004.36144 3.96310e-18
9006.48504 3.96306e-18
9008.59863 3.95945e-18
9010.72223 3.95583e-18
9012.83582 3.94949e-18
9014.95942 3.94315e-18
9017.08303 3.93501e-18
9019.19661 3.92687e-18
9021.32022 3.91789e-18
9023.43380 3.90892e-18
9025.55741 3.90005e-18
9027.67100 3.89117e-18
9029.79460 3.88329e-18
9031.90819 3.87541e-18
9034.03179 3.87108e-18
9036.15539 3.86675e-18
9038.26898 3.86781e-18
9040.39258 3.86886e-18
9042.50617 3.87776e-18
9044.62978 3.88664e-18
9046.75338 3.90130e-18
9048.86697 3.91595e-18
9050.99057 3.93375e-18
9053.10416 3.95156e-18
9055.22776 3.97028e-18
9057.34135 3.98899e-18
9059.46495 4.00582e-18
9061.58856 4.02266e-18
9063.70214 4.03462e-18
9065.82575 4.04657e-18
9067.93933 4.05055e-18
9070.06294 4.05453e-18
9072.17653 4.04810e-18
9074.30013 4.04167e-18
9076.42373 4.03059e-18
9078.53732 4.01952e-18
9080.66093 4.00796e-18
9082.77451 3.99640e-18
9084.89812 3.99013e-18
9087.01170 3.98386e-18
9089.13531 3.98206e-18
9091.25891 3.98008e-18
9093.37250 3.98167e-18
9095.49610 3.98326e-18
9097.60969 3.98732e-18
9099.73329 3.99139e-18
9101.84688 3.99697e-18
9103.97048 4.00255e-18
9106.09409 4.00878e-18
9108.20767 4.01502e-18
9110.33128 4.02065e-18
9112.44487 4.02627e-18
9114.56847 4.03020e-18
9116.68206 4.03412e-18
9118.80566 4.03795e-18
9120.92927 4.04177e-18
9123.04285 4.04646e-18
9125.16646 4.05114e-18
9127.28004 4.05833e-18
9129.40365 4.06552e-18
9131.51723 4.07369e-18
9133.64084 4.08186e-18
9135.76444 4.08958e-18
9137.87803 4.09729e-18
9140.00163 4.10288e-18
9142.11522 4.10846e-18
9144.23882 4.11151e-18
9146.35241 4.11457e-18
9148.47602 4.11571e-18
9150.59962 4.11686e-18
9152.71321 4.11646e-18
9154.83681 4.11605e-18
9156.95040 4.11462e-18
9159.07400 4.11318e-18
9161.18759 4.11115e-18
9163.31119 4.10912e-18
9165.43480 4.10703e-18
9167.54838 4.10494e-18
9169.67199 4.10326e-18
9171.78557 4.10157e-18
9173.90918 4.10103e-18
9176.02277 4.10049e-18
9178.14637 4.10170e-18
9180.26997 4.10290e-18
9182.38356 4.10665e-18
9184.50716 4.11040e-18
9186.62075 4.11639e-18
9188.74436 4.12238e-18
9190.85794 4.12958e-18
9192.98155 4.13678e-18
9195.10515 4.14419e-18
9197.21874 4.15161e-18
9199.34234 4.15829e-18
9201.45593 4.16497e-18
9203.57953 4.17092e-18
9205.69312 4.17685e-18
9207.81672 4.18175e-18
9209.94033 4.18664e-18
9212.05391 4.19019e-18
9214.17752 4.19374e-18
9216.29111 4.19558e-18
9218.41471 4.19742e-18
9220.52830 4.19716e-18
9222.65190 4.19689e-18
9224.77550 4.19444e-18
9226.88909 4.19200e-18
9229.01270 4.18644e-18
9231.12628 4.18089e-18
9233.24989 4.17094e-18
9235.36347 4.16099e-18
9237.48708 4.14567e-18
9239.61068 4.13035e-18
9241.72427 4.10900e-18
9243.84787 4.08766e-18
9245.96146 4.06058e-18
9248.08506 4.03350e-18
9250.19865 4.00105e-18
9252.32225 3.96859e-18
9254.44586 3.93082e-18
9256.55945 3.89306e-18
9258.68305 3.85355e-18
9260.79664 3.81406e-18
9262.92024 3.77611e-18
9265.03383 3.73815e-18
9267.15743 3.70592e-18
9269.27102 3.67368e-18
9271.39462 3.64791e-18
9273.51823 3.62214e-18
9275.63181 3.60185e-18
9277.75542 3.58156e-18
9279.86900 3.56572e-18
9281.99261 3.54989e-18
9284.11621 3.53762e-18
9286.22980 3.52537e-18
9288.35340 3.51834e-18
9290.46699 3.51133e-18
9292.59059 3.51021e-18
9294.70418 3.50908e-18
9296.82778 3.51565e-18
9298.95139 3.52222e-18
9301.06498 3.53039e-18
9303.18858 3.53856e-18
9305.30217 3.54343e-18
9307.42577 3.54830e-18
9309.53936 3.54286e-18
9311.66296 3.53743e-18
9313.78657 3.52344e-18
9315.90015 3.50945e-18
9318.02376 3.49236e-18
9320.13734 3.47527e-18
9322.26095 3.45957e-18
9324.37453 3.44388e-18
9326.49814 3.43355e-18
9328.62174 3.42323e-18
9330.73533 3.41897e-18
9332.85893 3.41472e-18
9334.97252 3.41812e-18
9337.09613 3.42154e-18
9339.20971 3.43511e-18
9341.33332 3.44869e-18
9343.45692 3.46591e-18
9345.57051 3.48313e-18
9347.69411 3.49880e-18
9349.80770 3.51447e-18
9351.93130 3.51950e-18
9354.04489 3.52454e-18
9356.16849 3.52314e-18
9358.29210 3.52174e-18
9360.40568 3.52229e-18
9362.52929 3.52284e-18
9364.64287 3.53329e-18
9366.76648 3.54375e-18
9368.88007 3.56812e-18
9371.00367 3.59250e-18
9373.12727 3.62205e-18
9375.24086 3.65160e-18
9377.36447 3.68124e-18
9379.47805 3.71086e-18
9381.60166 3.73529e-18
9383.71524 3.75971e-18
9385.83885 3.77336e-18
9387.96245 3.78700e-18
9390.07604 3.78550e-18
9392.19964 3.78399e-18
9394.31323 3.75888e-18
9396.43683 3.73377e-18
9398.55042 3.69405e-18
9400.67402 3.65432e-18
9402.78761 3.61395e-18
9404.91122 3.57359e-18
9407.03482 3.54607e-18
9409.14841 3.51856e-18
9411.27201 3.51280e-18
9413.39561 3.50704e-18
9415.50920 3.51909e-18
9417.63280 3.53114e-18
9419.74639 3.56013e-18
9421.87000 3.58913e-18
9423.98358 3.63426e-18
9426.10719 3.67938e-18
9428.22077 3.72629e-18
9430.34438 3.77320e-18
9432.46798 3.80994e-18
9434.58157 3.84669e-18
9436.70517 3.85550e-18
9438.81876 3.86432e-18
9440.94236 3.85083e-18
9443.05595 3.83734e-18
9445.17956 3.81324e-18
9447.30316 3.78913e-18
9449.41675 3.76556e-18
9451.54035 3.74199e-18
9453.65394 3.72686e-18
9455.77754 3.71172e-18
9457.89113 3.70352e-18
9460.01473 3.69532e-18
9462.13834 3.69558e-18
9464.25192 3.69584e-18
9466.37553 3.70582e-18
9468.48911 3.71581e-18
9470.61272 3.73058e-18
9472.72631 3.74535e-18
9474.84991 3.76076e-18
9476.97351 3.77616e-18
9479.08710 3.78464e-18
9481.21070 3.79312e-18
9483.32429 3.79844e-18
9485.44790 3.80377e-18
9487.56148 3.81150e-18
9489.68509 3.81923e-18
9491.80869 3.83568e-18
9493.92228 3.85213e-18
9496.04588 3.87840e-18
9498.15947 3.90468e-18
9500.28307 3.93158e-18
9502.39666 3.95848e-18
9504.52026 3.97978e-18
9506.64387 4.00108e-18
9508.75745 4.00959e-18
9510.88106 4.01811e-18
9512.99465 4.01727e-18
9515.11825 4.01643e-18
9517.23184 4.00808e-18
9519.35544 3.99973e-18
9521.47904 3.98722e-18
9523.59263 3.97470e-18
9525.71623 3.95782e-18
9527.82982 3.94092e-18
9529.95343 3.91939e-18
9532.06701 3.89786e-18
9534.19062 3.87097e-18
9536.31422 3.84408e-18
9538.42781 3.81381e-18
9540.55141 3.78355e-18
9542.66500 3.75629e-18
9544.78860 3.72902e-18
9546.91221 3.70967e-18
9549.02579 3.69032e-18
9551.14940 3.68390e-18
9553.26298 3.67749e-18
9555.38659 3.67914e-18
9557.50018 3.68080e-18
9559.62378 3.68702e-18
9561.73737 3.69324e-18
9563.86097 3.70040e-18
9565.98458 3.70756e-18
9568.09816 3.71197e-18
9570.22177 3.71637e-18
9572.33535 3.71487e-18
9574.45896 3.71336e-18
9576.57254 3.70089e-18
9578.69615 3.68842e-18
9580.81975 3.66590e-18
9582.93334 3.64339e-18
9585.05694 3.61989e-18
9587.17053 3.59639e-18
9589.29413 3.57898e-18
9591.40772 3.56158e-18
9593.53132 3.55776e-18
9595.65493 3.55394e-18
9597.76852 3.55807e-18
9599.89212 3.56219e-18
9602.00571 3.57091e-18
9604.12931 3.57963e-18
9606.25292 3.58909e-18
9608.36650 3.59854e-18
9610.49011 3.60590e-18
9612.60369 3.61326e-18
9614.72730 3.61610e-18
9616.84088 3.61895e-18
9618.96449 3.61338e-18
9621.07807 3.60782e-18
9623.20168 3.59463e-18
9625.32528 3.58144e-18
9627.43887 3.56696e-18
9629.56247 3.55248e-18
9631.67606 3.54163e-18
9633.79967 3.53078e-18
9635.91325 3.52857e-18
9638.03686 3.52636e-18
9640.16046 3.53179e-18
9642.27405 3.53722e-18
9644.39765 3.55008e-18
9646.51124 3.56294e-18
9648.63484 3.58371e-18
9650.75845 3.60448e-18
9652.87203 3.62842e-18
9654.99564 3.65235e-18
9657.10922 3.67448e-18
9659.23283 3.69661e-18
9661.34642 3.71076e-18
9663.47002 3.72490e-18
9665.58361 3.72948e-18
9667.70721 3.73405e-18
9669.83081 3.73243e-18
9671.94440 3.73080e-18
9674.06800 3.72500e-18
9676.18159 3.71920e-18
9678.30520 3.71161e-18
9680.41878 3.70404e-18
9682.54239 3.69623e-18
9684.66599 3.68844e-18
9686.77958 3.68213e-18
9688.90318 3.67580e-18
9691.01677 3.67416e-18
9693.14037 3.67252e-18
9695.25396 3.67150e-18
9697.37756 3.67047e-18
9699.50117 3.66602e-18
9701.61476 3.66157e-18
9703.73836 3.64826e-18
9705.85195 3.63494e-18
9707.97555 3.61276e-18
9710.08914 3.59057e-18
9712.21274 3.56447e-18
9714.33635 3.53837e-18
9716.44993 3.51203e-18
9718.57354 3.48570e-18
9720.68712 3.46286e-18
9722.81073 3.44001e-18
9724.92431 3.41928e-18
9727.04792 3.39856e-18
9729.17152 3.37974e-18
9731.28511 3.36093e-18
9733.40871 3.34330e-18
9735.52230 3.32568e-18
9737.64590 3.30976e-18
9739.75949 3.29384e-18
9741.88310 3.27994e-18
9744.00670 3.26602e-18
9746.12029 3.25463e-18
9748.24389 3.24324e-18
9750.35748 3.23374e-18
9752.48108 3.22423e-18
9754.59467 3.21520e-18
9756.71827 3.20618e-18
9758.84188 3.19636e-18
9760.95546 3.18655e-18
9763.07907 3.17501e-18
9765.19265 3.16347e-18
9767.31626 3.15200e-18
9769.42985 3.14053e-18
9771.55345 3.13029e-18
9773.67705 3.12003e-18
9775.79064 3.11201e-18
9777.91424 3.10399e-18
9780.02783 3.09950e-18
9782.15143 3.09502e-18
9784.27504 3.09497e-18
9786.38863 3.09492e-18
9788.51223 3.10129e-18
9790.62582 3.10766e-18
9792.74942 3.11816e-18
9794.86301 3.12866e-18
9796.98661 3.13823e-18
9799.10020 3.14781e-18
9801.22380 3.15221e-18
9803.34741 3.15661e-18
9805.46099 3.15218e-18
9807.58460 3.14776e-18
9809.69818 3.13494e-18
9811.82179 3.12211e-18
9813.93538 3.10087e-18
9816.05898 3.07963e-18
9818.18258 3.04950e-18
9820.29617 3.01938e-18
9822.41978 2.98601e-18
9824.53336 2.95264e-18
9826.65697 2.92146e-18
9828.77055 2.89027e-18
9830.89416 2.86809e-18
9833.01776 2.84591e-18
9835.13135 2.83452e-18
9837.25495 2.82312e-18
9839.36854 2.82115e-18
9841.49214 2.81918e-18
9843.61575 2.82577e-18
9845.72933 2.83235e-18
9847.85294 2.84622e-18
9849.96652 2.86009e-18
9852.09013 2.88131e-18
9854.20372 2.90251e-18
9856.32732 2.93009e-18
9858.44091 2.95766e-18
9860.56451 2.99023e-18
9862.68812 3.02280e-18
9864.80170 3.05860e-18
9866.92531 3.09441e-18
9869.03889 3.13129e-18
9871.16250 3.16818e-18
9873.27608 3.20566e-18
9875.39969 3.24314e-18
9877.52329 3.27591e-18
9879.63688 3.30868e-18
9881.76048 3.32969e-18
9883.87407 3.35069e-18
9885.99767 3.35310e-18
9888.11126 3.35550e-18
9890.23487 3.33565e-18
9892.35847 3.31580e-18
9894.47206 3.28302e-18
9896.59566 3.25024e-18
9898.70925 3.21107e-18
9900.83285 3.17190e-18
9902.94644 3.13419e-18
9905.07004 3.09648e-18
9907.19365 3.06330e-18
9909.30723 3.03012e-18
9911.43084 3.00444e-18
9913.54442 2.97875e-18
9915.66803 2.96514e-18
9917.79163 2.95152e-18
9919.90522 2.94747e-18
9922.02882 2.94341e-18
9924.14241 2.94324e-18
9926.26601 2.94307e-18
9928.37960 2.94131e-18
9930.50321 2.93956e-18
9932.61679 2.93180e-18
9934.74040 2.92404e-18
9936.86400 2.91103e-18
9938.97759 2.89801e-18
9941.10119 2.87933e-18
9943.21478 2.86065e-18
9945.33838 2.83594e-18
9947.45197 2.81123e-18
9949.57557 2.78416e-18
9951.69918 2.75709e-18
9953.81276 2.73109e-18
9955.93637 2.70510e-18
9958.04996 2.68433e-18
9960.17356 2.66357e-18
9962.28715 2.64943e-18
9964.41075 2.63530e-18
9966.53435 2.62788e-18
9968.64794 2.62045e-18
9970.77155 2.62042e-18
9972.88513 2.62040e-18
9975.00874 2.62707e-18
9977.13234 2.63375e-18
9979.24593 2.64294e-18
9981.36953 2.65213e-18
9983.48312 2.66035e-18
