# wavelength flux
3476.90070 2.31263e-18
3478.36318 2.38011e-18
3479.83568 2.56078e-18
3481.30818 2.31301e-18
3482.77066 2.92486e-18
3484.24316 2.85176e-18
3485.71566 2.53104e-18
3487.18816 2.39407e-18
3488.66066 2.53265e-18
3490.12314 2.97065e-18
3491.59564 2.31375e-18
3493.06814 2.08846e-18
3494.53062 2.51094e-18
3496.00312 2.79490e-18
3497.47562 2.45859e-18
3498.94812 2.77641e-18
3500.41060 2.77065e-18
3501.88310 2.20372e-18
3503.35560 2.04907e-18
3504.82810 2.42009e-18
3506.29058 2.43284e-18
3507.76308 2.34708e-18
3509.23558 2.38539e-18
3510.70808 2.49460e-18
3512.17056 2.43048e-18
3513.64306 2.14812e-18
3515.11556 1.93541e-18
3516.58805 2.39799e-18
3518.05054 2.47397e-18
3519.52304 2.77472e-18
3520.99553 2.44778e-18
3522.46803 2.03166e-18
3523.93052 2.38286e-18
3525.40301 2.40567e-18
3526.87551 2.30048e-18
3528.34801 2.85646e-18
3529.81049 2.44381e-18
3531.28299 2.23151e-18
3532.75549 2.48184e-18
3534.22799 2.66926e-18
3535.69047 2.22422e-18
3537.16297 2.40492e-18
3538.63547 2.43417e-18
3540.10797 2.59557e-18
3541.57045 2.67922e-18
3543.04295 2.26701e-18
3544.51545 2.40984e-18
3545.98795 2.60558e-18
3547.45043 2.84127e-18
3548.92293 2.74866e-18
3550.39543 2.30013e-18
3551.86793 2.22201e-18
3553.33041 2.52153e-18
3554.80291 2.53204e-18
3556.27541 2.57666e-18
3557.74791 2.49592e-18
3559.21039 2.50514e-18
3560.68289 2.33227e-18
3562.15539 2.19641e-18
3563.62789 2.61092e-18
3565.09037 2.43770e-18
3566.56287 2.71635e-18
3568.03537 3.03150e-18
3569.50787 2.37052e-18
3570.97035 2.17098e-18
3572.44285 2.45145e-18
3573.91534 2.37938e-18
3575.38784 2.35026e-18
3576.85033 2.38877e-18
3578.32283 2.45579e-18
3579.79532 2.21967e-18
3581.26782 2.60555e-18
3582.73031 2.73815e-18
3584.20280 2.81641e-18
3585.67530 2.87118e-18
3587.13779 3.01408e-18
3588.61028 2.93360e-18
3590.08278 2.52315e-18
3591.55528 2.71072e-18
3593.01776 2.76720e-18
3594.49026 2.79016e-18
3595.96276 2.63825e-18
3597.43526 2.56295e-18
3598.89774 2.80891e-18
3600.37024 2.85841e-18
3601.84274 3.00434e-18
3603.31524 3.07605e-18
3604.77772 3.22413e-18
3606.25022 3.33521e-18
3607.72272 2.69129e-18
3609.19522 2.83657e-18
3610.65770 2.87644e-18
3612.13020 2.71064e-18
3613.60270 2.71037e-18
3615.07520 3.16999e-18
3616.53768 3.19533e-18
3618.01018 2.91715e-18
3619.48268 2.49337e-18
3620.95518 2.46484e-18
3622.41766 2.75534e-18
3623.89016 2.59624e-18
3625.36266 2.72118e-18
3626.83516 2.56040e-18
3628.29764 2.65926e-18
3629.77014 2.57331e-18
3631.24264 2.42932e-18
3632.71514 2.57889e-18
3634.17762 2.75565e-18
3635.65012 2.60308e-18
3637.12261 2.55071e-18
3638.59511 2.42170e-18
3640.05760 2.26701e-18
3641.53010 2.39612e-18
3643.00259 2.43393e-18
3644.47509 2.18438e-18
3645.93757 2.22324e-18
3647.41007 1.88055e-18
3648.88257 1.81271e-18
3650.35507 2.63253e-18
3651.81755 2.70616e-18
3653.29005 2.67099e-18
3654.76255 2.49891e-18
3656.23505 2.54708e-18
3657.69753 2.76060e-18
3659.17003 2.72608e-18
3660.64253 2.47562e-18
3662.11503 2.50642e-18
3663.57751 3.08182e-18
3665.05001 3.25324e-18
3666.52251 3.50886e-18
3667.99501 2.96980e-18
3669.45749 2.81560e-18
3670.92999 3.23707e-18
3672.40249 3.22574e-18
3673.87499 3.06933e-18
3675.33747 3.25611e-18
3676.80997 3.46400e-18
3678.28247 3.60205e-18
3679.75497 3.50205e-18
3681.21745 3.94750e-18
3682.68995 4.32960e-18
3684.16245 4.10692e-18
3685.62493 3.98944e-18
3687.09743 3.73125e-18
3688.56993 3.78259e-18
3690.04243 3.72696e-18
3691.50491 4.11802e-18
3692.97741 4.47838e-18
3694.44991 4.34932e-18
3695.92241 4.06555e-18
3697.38489 3.89924e-18
3698.85739 4.43068e-18
3700.32989 4.19393e-18
3701.80238 4.35944e-18
3703.26487 4.33917e-18
3704.73736 3.96159e-18
3706.20986 4.12860e-18
3707.68236 4.42760e-18
3709.14485 4.31075e-18
3710.61734 4.66571e-18
3712.08984 4.25325e-18
3713.56234 4.20351e-18
3715.02482 4.15016e-18
3716.49732 4.09681e-18
3717.96982 4.03722e-18
3719.44232 3.97763e-18
3720.90480 3.91806e-18
3722.37730 3.85850e-18
3723.84980 3.79895e-18
3725.32230 3.73942e-18
3726.78478 3.67990e-18
3728.25728 3.62037e-18
3729.72978 3.56088e-18
3731.20228 3.50139e-18
3732.66476 3.44192e-18
3734.13726 3.38245e-18
3735.60976 3.32299e-18
3737.08226 3.26356e-18
3738.54474 3.20413e-18
3740.01724 3.14472e-18
3741.48974 3.08530e-18
3742.96224 3.02590e-18
3744.42472 2.96652e-18
3745.89722 2.90714e-18
3747.36972 2.84779e-18
3748.84222 2.78844e-18
3750.30470 2.72910e-18
3751.77720 2.66977e-18
3753.24970 2.61045e-18
3754.72219 2.28856e-18
3756.18468 2.10047e-18
3757.65718 2.20984e-18
3759.12968 2.37769e-18
3760.60217 2.23547e-18
3762.06466 2.03660e-18
3763.53716 2.16911e-18
3765.00965 2.22261e-18
3766.48215 1.99129e-18
3767.94464 1.90467e-18
3769.41713 2.09048e-18
3770.88963 2.14239e-18
3772.36213 1.88087e-18
3773.82461 1.89010e-18
3775.29711 1.77984e-18
3776.76961 2.00231e-18
3778.23209 2.14433e-18
3779.70459 1.90606e-18
3781.17709 1.55740e-18
3782.64959 1.82509e-18
3784.11207 2.00642e-18
3785.58457 1.76742e-18
3787.05707 1.94474e-18
3788.52957 1.85810e-18
3789.99205 1.56904e-18
3791.46455 1.74193e-18
3792.93705 1.63856e-18
3794.40955 1.45491e-18
3795.87203 1.85724e-18
3797.34453 1.83067e-18
3798.81703 1.91910e-18
3800.28953 1.70072e-18
3801.75201 1.86773e-18
3803.22451 1.69271e-18
3804.69701 1.50153e-18
3806.16951 1.71760e-18
3807.63199 1.76634e-18
3809.10449 1.98993e-18
3810.57699 1.67158e-18
3812.04949 1.77232e-18
3813.51197 1.73215e-18
3814.98447 1.73171e-18
3816.45697 1.95717e-18
3817.92947 2.03380e-18
3819.39195 1.93145e-18
3820.86445 1.79163e-18
3822.33695 2.08704e-18
3823.80944 1.92300e-18
3825.27193 2.05546e-18
3826.74443 2.16480e-18
3828.21692 2.07166e-18
3829.68942 2.07839e-18
3831.15191 2.05519e-18
3832.62440 2.35429e-18
3834.09690 2.11826e-18
3835.56940 2.23552e-18
3837.03188 2.34798e-18
3838.50438 2.19097e-18
3839.97688 2.41121e-18
3841.44938 2.52619e-18
3842.91186 2.55104e-18
3844.38436 2.43489e-18
3845.85686 2.32473e-18
3847.32936 2.57710e-18
3848.79184 2.75842e-18
3850.26434 2.89011e-18
3851.73684 2.69599e-18
3853.20934 2.58962e-18
3854.67182 3.06657e-18
3856.14432 3.30578e-18
3857.61682 3.33694e-18
3859.08932 3.48904e-18
3860.55180 3.34952e-18
3862.02430 3.45510e-18
3863.49680 3.57732e-18
3864.96930 3.51962e-18
3866.43178 3.95104e-18
3867.90428 4.11639e-18
3869.37678 4.13228e-18
3870.83926 4.13638e-18
3872.31176 4.41950e-18
3873.78426 4.68928e-18
3875.25676 4.77239e-18
3876.71924 5.03781e-18
3878.19174 5.14477e-18
3879.66424 5.08898e-18
3881.13674 5.53462e-18
3882.59922 5.68558e-18
3884.07172 5.59278e-18
3885.54421 5.79233e-18
3887.01671 6.31460e-18
3888.47920 5.98331e-18
3889.95170 6.28683e-18
3891.42419 6.70554e-18
3892.89669 6.96174e-18
3894.35918 7.06969e-18
3895.83167 7.42786e-18
3897.30417 7.33635e-18
3898.77667 7.26121e-18
3900.23915 7.68167e-18
3901.71165 7.41238e-18
3903.18415 7.83735e-18
3904.65665 7.87683e-18
3906.11913 7.83066e-18
3907.59163 8.33965e-18
3909.06413 8.41928e-18
3910.53663 8.23490e-18
3911.99911 8.30772e-18
3913.47161 8.24504e-18
3914.94411 8.59657e-18
3916.41661 8.66623e-18
3917.87909 8.98587e-18
3919.35159 9.15763e-18
3920.82409 9.05770e-18
3922.29659 9.07434e-18
3923.75907 8.97355e-18
3925.23157 9.09682e-18
3926.70407 9.17216e-18
3928.17657 8.94310e-18
3929.63905 8.49404e-18
3931.11155 8.47233e-18
3932.58405 8.56716e-18
3934.05655 8.59831e-18
3935.51903 8.35317e-18
3936.99153 8.16890e-18
3938.46403 8.20594e-18
3939.93653 8.36478e-18
3941.39901 8.04318e-18
3942.87151 8.29776e-18
3944.34401 8.69129e-18
3945.81650 8.67299e-18
3947.27899 8.67979e-18
3948.75149 8.42625e-18
3950.22398 8.54710e-18
3951.69648 8.50071e-18
3953.15897 8.25590e-18
3954.63146 8.34357e-18
3956.10396 8.45051e-18
3957.56644 8.25270e-18
3959.03894 7.94664e-18
3960.51144 7.92228e-18
3961.98394 7.80259e-18
3963.45644 7.64500e-18
3964.91892 7.55529e-18
3966.39142 7.27231e-18
3967.86392 7.13147e-18
3969.32640 7.11561e-18
3970.79890 7.27298e-18
3972.27140 7.19195e-18
3973.74390 7.25439e-18
3975.20638 7.37369e-18
3976.67888 6.96069e-18
3978.15138 7.08991e-18
3979.62388 7.24488e-18
3981.08636 7.07240e-18
3982.55886 7.04622e-18
3984.03136 7.31894e-18
3985.50386 7.35958e-18
3986.96634 7.20818e-18
3988.43884 7.12583e-18
3989.91134 7.18805e-18
3991.38384 7.28834e-18
3992.84632 7.45259e-18
3994.31882 7.24449e-18
3995.79132 7.26860e-18
3997.26382 7.51627e-18
3998.72630 7.71369e-18
4000.19880 8.08172e-18
4001.67130 8.11490e-18
4003.14379 8.09151e-18
4004.60628 8.27590e-18
4006.07878 8.40512e-18
4007.55128 8.21827e-18
4009.02377 8.53936e-18
4010.48626 8.79775e-18
4011.95876 8.76691e-18
4013.43125 9.19450e-18
4014.90375 9.15038e-18
4016.36624 9.20760e-18
4017.83873 9.55219e-18
4019.31123 9.70611e-18
4020.78373 9.81252e-18
4022.24621 1.00034e-17
4023.71871 1.04271e-17
4025.19121 1.02917e-17
4026.66371 1.08788e-17
4028.12619 1.11974e-17
4029.59869 1.10983e-17
4031.07119 1.11568e-17
4032.54369 1.13797e-17
4034.00617 1.11932e-17
4035.47867 1.13591e-17
4036.95117 1.14844e-17
4038.42367 1.17878e-17
4039.88615 1.14597e-17
4041.35865 1.12171e-17
4042.83115 1.11855e-17
4044.30365 1.12794e-17
4045.76613 1.14979e-17
4047.23863 1.15838e-17
4048.71113 1.15391e-17
4050.18363 1.12897e-17
4051.64611 1.11958e-17
4053.11861 1.10142e-17
4054.59111 1.08735e-17
4056.06361 1.09502e-17
4057.52609 1.08588e-17
4058.99859 1.04833e-17
4060.47109 1.02299e-17
4061.93357 1.02670e-17
4063.40607 1.02050e-17
4064.87857 9.99082e-18
4066.35106 9.78378e-18
4067.81355 9.69605e-18
4069.28605 9.49269e-18
4070.75855 9.31147e-18
4072.23104 9.37532e-18
4073.69353 9.24473e-18
4075.16602 8.81839e-18
4076.63852 8.59232e-18
4078.11102 8.56671e-18
4079.57351 8.48085e-18
4081.04600 8.35551e-18
4082.51850 8.09337e-18
4083.99100 7.93609e-18
4085.45348 8.06692e-18
4086.92598 8.00941e-18
4088.39848 7.67470e-18
4089.87098 7.37473e-18
4091.33346 7.33049e-18
4092.80596 7.35896e-18
4094.27846 7.20658e-18
4095.75096 7.06475e-18
4097.21344 7.05869e-18
4098.68594 6.95899e-18
4100.15844 6.64884e-18
4101.63094 6.63514e-18
4103.09342 6.58216e-18
4104.56592 6.33350e-18
4106.03842 6.43179e-18
4107.51092 6.41043e-18
4108.97340 6.37924e-18
4110.44590 6.40272e-18
4111.91840 6.04566e-18
4113.39090 5.88561e-18
4114.85338 5.84308e-18
4116.32588 5.73903e-18
4117.79838 5.48459e-18
4119.27088 5.47500e-18
4120.73336 5.58713e-18
4122.20586 5.57316e-18
4123.67836 5.39237e-18
4125.15085 5.38025e-18
4126.61334 5.39882e-18
4128.08584 5.45252e-18
4129.55834 5.37822e-18
4131.03083 5.23059e-18
4132.49332 5.33538e-18
4133.96581 5.34634e-18
4135.43831 5.26127e-18
4136.91081 4.96255e-18
4138.37330 5.11716e-18
4139.84579 5.11425e-18
4141.31829 4.95466e-18
4142.79079 4.99790e-18
4144.25327 4.96859e-18
4145.72577 5.16613e-18
4147.19827 4.99121e-18
4148.66075 5.11921e-18
4150.13325 5.16974e-18
4151.60575 5.12888e-18
4153.07825 5.07296e-18
4154.55075 5.08579e-18
4156.01323 5.40015e-18
4157.48573 5.21513e-18
4158.95823 5.06643e-18
4160.42071 5.23396e-18
4161.89321 5.25542e-18
4163.36571 5.25306e-18
4164.83821 5.42312e-18
4166.30069 5.39211e-18
4167.77319 5.41250e-18
4169.24569 5.21338e-18
4170.71819 5.21441e-18
4172.18067 5.37914e-18
4173.65317 5.28452e-18
4175.12567 5.37200e-18
4176.59817 5.54051e-18
4178.06065 5.32658e-18
4179.53315 5.37350e-18
4181.00565 5.35361e-18
4182.47815 5.09622e-18
4183.94063 5.12692e-18
4185.41313 5.21096e-18
4186.88563 5.11765e-18
4188.35812 4.84926e-18
4189.82061 5.03338e-18
4191.29311 5.06901e-18
4192.76560 4.79636e-18
4194.23810 4.66494e-18
4195.70059 4.69098e-18
4197.17309 4.82091e-18
4198.64558 4.91035e-18
4200.11808 4.81037e-18
4201.58057 4.74869e-18
4203.05306 4.56641e-18
4204.52556 4.76025e-18
4205.99806 4.73790e-18
4207.46054 4.69305e-18
4208.93304 4.91670e-18
4210.40554 4.84703e-18
4211.87804 4.65257e-18
4213.34052 4.80109e-18
4214.81302 4.83997e-18
4216.28552 4.75010e-18
4217.75802 4.87319e-18
4219.22050 4.76425e-18
4220.69300 4.83164e-18
4222.16550 5.02947e-18
4223.63800 5.07400e-18
4225.10048 5.14908e-18
4226.57298 5.14286e-18
4228.04548 5.20445e-18
4229.51798 5.13113e-18
4230.98046 5.26761e-18
4232.45296 5.38218e-18
4233.92546 5.42929e-18
4235.39796 5.55732e-18
4236.86044 5.47538e-18
4238.33294 5.53382e-18
4239.80544 5.60877e-18
4241.27794 5.59794e-18
4242.74042 5.75559e-18
4244.21292 5.77565e-18
4245.68542 5.64806e-18
4247.14790 5.61016e-18
4248.62040 5.80402e-18
4250.09290 5.79980e-18
4251.56540 5.87235e-18
4253.02788 5.98476e-18
4254.50038 5.94087e-18
4255.97288 5.84569e-18
4257.44537 5.91393e-18
4258.90786 6.06132e-18
4260.38036 6.15175e-18
4261.85285 6.14271e-18
4263.32535 6.04772e-18
4264.78784 6.15475e-18
4266.26033 6.02539e-18
4267.73283 5.94242e-18
4269.20533 6.01552e-18
4270.66781 5.86464e-18
4272.14031 5.75658e-18
4273.61281 5.98919e-18
4275.08531 6.17468e-18
4276.54779 5.95415e-18
4278.02029 5.89709e-18
4279.49279 5.82579e-18
4280.96529 5.70439e-18
4282.42777 5.81700e-18
4283.90027 5.75084e-18
4285.37277 5.53580e-18
4286.84527 5.73226e-18
4288.30775 5.51179e-18
4289.78025 5.59496e-18
4291.25275 5.81588e-18
4292.72525 5.68406e-18
4294.18773 5.61018e-18
4295.66023 5.62059e-18
4297.13273 5.64929e-18
4298.60523 5.77843e-18
4300.06771 5.64535e-18
4301.54021 5.48760e-18
4303.01271 5.52339e-18
4304.48521 5.63002e-18
4305.94769 5.79698e-18
4307.42019 5.64757e-18
4308.89269 5.62291e-18
4310.36519 5.76603e-18
4311.82767 5.88119e-18
4313.30017 5.80107e-18
4314.77267 5.76109e-18
4316.24516 5.76895e-18
4317.70765 5.91713e-18
4319.18015 6.11975e-18
4320.65264 6.01811e-18
4322.12514 6.03714e-18
4323.58763 6.09670e-18
4325.06012 6.01899e-18
4326.53262 6.15933e-18
4328.00512 6.15718e-18
4329.46760 5.86445e-18
4330.94010 5.95485e-18
4332.41260 6.23798e-18
4333.87508 6.16789e-18
4335.34758 6.08306e-18
4336.82008 6.10902e-18
4338.29258 5.92271e-18
4339.76508 6.08188e-18
4341.22756 6.04047e-18
4342.70006 6.05543e-18
4344.17256 6.25828e-18
4345.64506 6.34543e-18
4347.10754 6.64977e-18
4348.58004 6.64882e-18
4350.05254 6.45947e-18
4351.51502 6.30964e-18
4352.98752 6.29749e-18
4354.46002 6.28536e-18
4355.93252 6.27322e-18
4357.39500 6.26108e-18
4358.86750 6.24894e-18
4360.34000 6.23681e-18
4361.81250 6.22468e-18
4363.27498 6.21255e-18
4364.74748 6.20042e-18
4366.21998 6.18829e-18
4367.69248 6.17616e-18
4369.15496 6.16404e-18
4370.62746 6.15191e-18
4372.09996 6.13979e-18
4373.57245 6.12766e-18
4375.03494 6.11554e-18
4376.50744 6.10343e-18
4377.97994 6.09131e-18
4379.45243 6.07919e-18
4380.91492 6.06708e-18
4382.38742 6.05496e-18
4383.85991 6.04285e-18
4385.33241 6.03074e-18
4386.79490 6.01863e-18
4388.26739 6.00652e-18
4389.73989 5.99441e-18
4391.21239 6.07392e-18
4392.67487 5.96584e-18
4394.14737 5.97043e-18
4395.61987 6.01424e-18
4397.09237 5.97980e-18
4398.55485 5.86012e-18
4400.02735 5.87593e-18
4401.49985 5.96528e-18
4402.97235 5.89533e-18
4404.43483 5.76583e-18
4405.90733 5.77386e-18
4407.37983 5.92212e-18
4408.85233 5.69101e-18
4410.31481 5.40953e-18
4411.78731 5.41899e-18
4413.25981 5.66122e-18
4414.73231 5.62858e-18
4416.19479 5.37405e-18
4417.66729 5.43748e-18
4419.13979 5.32385e-18
4420.61229 5.21738e-18
4422.07477 5.28094e-18
4423.54727 5.27024e-18
4425.01977 5.13846e-18
4426.49227 4.93667e-18
4427.95475 4.99336e-18
4429.42725 5.12311e-18
4430.89975 4.99681e-18
4432.37225 4.95797e-18
4433.83473 5.02766e-18
4435.30723 4.93645e-18
4436.77973 4.99618e-18
4438.24221 4.92468e-18
4439.71471 5.00045e-18
4441.18721 4.98770e-18
4442.65970 4.91725e-18
4444.12219 5.04274e-18
4445.59469 5.04571e-18
4447.06718 5.04880e-18
4448.53968 5.13044e-18
4450.01218 5.06800e-18
4451.47466 4.99962e-18
4452.94716 5.05364e-18
4454.41966 5.10542e-18
4455.88214 5.17060e-18
4457.35464 5.16498e-18
4458.82714 5.27079e-18
4460.29964 5.34652e-18
4461.76212 5.28625e-18
4463.23462 5.37202e-18
4464.70712 5.54031e-18
4466.17962 5.51692e-18
4467.64210 5.58270e-18
4469.11460 5.67173e-18
4470.58710 5.62797e-18
4472.05960 5.74635e-18
4473.52208 5.93084e-18
4474.99458 5.92173e-18
4476.46708 6.02943e-18
4477.93958 6.22592e-18
4479.40206 6.25883e-18
4480.87456 6.21212e-18
4482.34706 6.16150e-18
4483.81956 6.54930e-18
4485.28204 6.85002e-18
4486.75454 6.84150e-18
4488.22704 7.03308e-18
4489.69954 7.13001e-18
4491.16202 7.11925e-18
4492.63452 7.30724e-18
4494.10702 7.67766e-18
4495.57952 7.75330e-18
4497.04200 7.77202e-18
4498.51450 7.87782e-18
4499.98700 8.03632e-18
4501.45949 8.21146e-18
4502.92198 8.39877e-18
4504.39448 8.58578e-18
4505.86697 8.79529e-18
4507.33947 9.00060e-18
4508.80195 9.11213e-18
4510.27445 9.32501e-18
4511.74695 9.38929e-18
4513.21945 9.48816e-18
4514.68193 9.72522e-18
4516.15443 9.90896e-18
4517.62693 1.06044e-17
4519.09943 1.08843e-17
4520.56191 1.08783e-17
4522.03441 1.09418e-17
4523.50691 1.09830e-17
4524.96939 1.07906e-17
4526.44189 1.09924e-17
4527.91439 1.10523e-17
4529.38689 1.11830e-17
4530.85939 1.16336e-17
4532.32187 1.18063e-17
4533.79437 1.17121e-17
4535.26687 1.18728e-17
4536.73937 1.21712e-17
4538.20185 1.21770e-17
4539.67435 1.22711e-17
4541.14685 1.24089e-17
4542.60933 1.24295e-17
4544.08183 1.25959e-17
4545.55433 1.25006e-17
4547.02683 1.25135e-17
4548.48931 1.25573e-17
4549.96181 1.25937e-17
4551.43431 1.25300e-17
4552.90681 1.24534e-17
4554.36929 1.24093e-17
4555.84179 1.26502e-17
4557.31429 1.25116e-17
4558.78679 1.25598e-17
4560.24927 1.27603e-17
4561.72177 1.28096e-17
4563.19427 1.27751e-17
4564.66676 1.28102e-17
4566.12925 1.28673e-17
4567.60175 1.30007e-17
4569.07424 1.32842e-17
4570.54674 1.35159e-17
4572.00922 1.35110e-17
4573.48172 1.36575e-17
4574.95422 1.37073e-17
4576.42672 1.38355e-17
4577.88920 1.39705e-17
4579.36170 1.39467e-17
4580.83420 1.40257e-17
4582.30670 1.38738e-17
4583.76918 1.40009e-17
4585.24168 1.43053e-17
4586.71418 1.43678e-17
4588.18668 1.41923e-17
4589.64916 1.42319e-17
4591.12166 1.41097e-17
4592.59416 1.40120e-17
4594.06666 1.40011e-17
4595.52914 1.38869e-17
4597.00164 1.37798e-17
4598.47414 1.41217e-17
4599.94664 1.39911e-17
4601.40912 1.40920e-17
4602.88162 1.44072e-17
4604.35412 1.45485e-17
4605.82662 1.46996e-17
4607.28910 1.48024e-17
4608.76160 1.41706e-17
4610.23410 1.47764e-17
4611.70660 1.54747e-17
4613.16908 1.54273e-17
4614.64158 1.54242e-17
4616.11408 1.55223e-17
4617.58658 1.58762e-17
4619.04906 1.59379e-17
4620.52156 1.58658e-17
4621.99406 1.59741e-17
4623.46655 1.59344e-17
4624.92904 1.60528e-17
4626.40153 1.58895e-17
4627.87403 1.59543e-17
4629.33652 1.59832e-17
4630.80901 1.59037e-17
4632.28151 1.59878e-17
4633.75401 1.61249e-17
4635.21650 1.59513e-17
4636.68899 1.57584e-17
4638.16149 1.57657e-17
4639.63399 1.59314e-17
4641.10649 1.59225e-17
4642.56897 1.57952e-17
4644.04147 1.56144e-17
4645.51397 1.56645e-17
4646.97645 1.55517e-17
4648.44895 1.54024e-17
4649.92145 1.55097e-17
4651.39395 1.53646e-17
4652.85643 1.51577e-17
4654.32893 1.51348e-17
4655.80143 1.50954e-17
4657.27393 1.49178e-17
4658.73641 1.47687e-17
4660.20891 1.47161e-17
4661.68141 1.45228e-17
4663.15391 1.44233e-17
4664.61639 1.40527e-17
4666.08889 1.37532e-17
4667.56139 1.35550e-17
4669.03389 1.35704e-17
4670.49637 1.33111e-17
4671.96887 1.32089e-17
4673.44137 1.32640e-17
4674.91387 1.31425e-17
4676.37635 1.26860e-17
4677.84885 1.25064e-17
4679.32135 1.24715e-17
4680.79385 1.20084e-17
4682.25633 1.20542e-17
4683.72883 1.20443e-17
4685.20132 1.17223e-17
4686.67382 1.14822e-17
4688.13631 1.11773e-17
4689.60880 1.09686e-17
4691.08130 1.07664e-17
4692.55380 1.07913e-17
4694.01629 1.06953e-17
4695.48878 1.04221e-17
4696.96128 1.01944e-17
4698.43378 1.01137e-17
4699.89626 9.90015e-18
4701.36876 9.80716e-18
4702.84126 9.84047e-18
4704.31376 9.87884e-18
4705.77624 1.00230e-17
4707.24874 9.92792e-18
4708.72124 9.87293e-18
4710.19374 1.00689e-17
4711.65622 1.01747e-17
4713.12872 1.01851e-17
4714.60122 1.01926e-17
4716.06370 1.01242e-17
4717.53620 1.00973e-17
4719.00870 1.01962e-17
4720.48120 1.02703e-17
4721.95370 1.03644e-17
4723.41618 1.03499e-17
4724.88868 1.05054e-17
4726.36118 1.06236e-17
4727.83368 1.06596e-17
4729.29616 1.04983e-17
4730.76866 1.02141e-17
4732.24116 1.04622e-17
4733.70364 1.05937e-17
4735.17614 1.05381e-17
4736.64864 1.03960e-17
4738.12114 1.04027e-17
4739.58362 1.05457e-17
4741.05612 1.05029e-17
4742.52862 1.04947e-17
4744.00112 1.05049e-17
4745.46360 1.03670e-17
4746.93610 1.05017e-17
4748.40860 1.05405e-17
4749.88109 1.03371e-17
4751.34358 1.04293e-17
4752.81607 1.03808e-17
4754.28857 1.04105e-17
4755.76107 1.06611e-17
4757.22355 1.05905e-17
4758.69605 1.03746e-17
4760.16855 1.05254e-17
4761.64105 1.05626e-17
4763.10353 1.04526e-17
4764.57603 1.05055e-17
4766.04853 1.05381e-17
4767.52103 1.05043e-17
4768.98351 1.03856e-17
4770.45601 1.02343e-17
4771.92851 1.03632e-17
4773.40101 1.02711e-17
4774.86349 1.00594e-17
4776.33599 9.94742e-18
4777.80849 9.84832e-18
4779.28099 9.88419e-18
4780.74347 9.91411e-18
4782.21597 9.87377e-18
4783.68847 9.71269e-18
4785.16097 9.53132e-18
4786.62345 9.45073e-18
4788.09595 9.38879e-18
4789.56845 9.39879e-18
4791.04095 9.40374e-18
4792.50343 9.19728e-18
4793.97593 8.92799e-18
4795.44843 8.90018e-18
4796.92093 8.80298e-18
4798.38341 8.67163e-18
4799.85591 8.56710e-18
4801.32841 8.44556e-18
4802.80091 8.22745e-18
4804.26339 8.07238e-18
4805.73589 7.92463e-18
4807.20838 7.88543e-18
4808.68088 7.89500e-18
4810.14337 7.81677e-18
4811.61586 7.77464e-18
4813.08836 7.63120e-18
4814.56086 7.52952e-18
4816.02335 7.62974e-18
4817.49584 7.55446e-18
4818.96834 7.37255e-18
4820.43083 7.33775e-18
4821.90332 7.42117e-18
4823.37582 7.30224e-18
4824.84832 7.18243e-18
4826.31080 7.29157e-18
4827.78330 7.34951e-18
4829.25580 7.38995e-18
4830.72830 7.43281e-18
4832.19078 7.52407e-18
4833.66328 7.51526e-18
4835.13578 7.48878e-18
4836.60828 7.73538e-18
4838.07076 7.79412e-18
4839.54326 7.93549e-18
4841.01576 8.08170e-18
4842.48826 8.06933e-18
4843.95074 8.32187e-18
4845.42324 8.55602e-18
4846.89574 8.69533e-18
4848.36824 8.69944e-18
4849.83072 8.79547e-18
4851.30322 9.10960e-18
4852.77572 9.17045e-18
4854.24822 9.23131e-18
4855.71070 9.29214e-18
4857.18320 9.35296e-18
4858.65570 9.41377e-18
4860.12820 9.47459e-18
4861.59068 9.53540e-18
4863.06318 9.59618e-18
4864.53568 9.65695e-18
4866.00817 9.71771e-18
4867.47066 9.77848e-18
4868.94316 9.83922e-18
4870.41565 9.89997e-18
4871.88815 9.96067e-18
4873.35064 1.00214e-17
4874.82314 1.00821e-17
4876.29563 1.01428e-17
4877.76813 1.02035e-17
4879.23062 1.02642e-17
4880.70311 1.03248e-17
4882.17561 1.03855e-17
4883.64811 1.04462e-17
4885.11059 1.05068e-17
4886.58309 1.05674e-17
4888.05559 1.06280e-17
4889.52809 1.03123e-17
4890.99057 1.01075e-17
4892.46307 1.00566e-17
4893.93557 1.00181e-17
4895.40807 9.72426e-18
4896.87055 9.48666e-18
4898.34305 9.29666e-18
4899.81555 9.16458e-18
4901.28805 9.03502e-18
4902.75053 8.93559e-18
4904.22303 8.75764e-18
4905.69553 8.49058e-18
4907.16803 8.38068e-18
4908.63051 8.37524e-18
4910.10301 8.34130e-18
4911.57551 8.26751e-18
4913.04801 8.14428e-18
4914.51049 8.12568e-18
4915.98299 8.22226e-18
4917.45549 8.09164e-18
4918.91797 8.06906e-18
4920.39047 8.11524e-18
4921.86297 8.18884e-18
4923.33547 8.31222e-18
4924.79795 8.29788e-18
4926.27045 8.25154e-18
4927.74295 8.35001e-18
4929.21545 8.42712e-18
4930.67793 8.58475e-18
4932.15043 8.68329e-18
4933.62293 8.68564e-18
4935.09542 8.79531e-18
4936.55791 8.92369e-18
4938.03040 9.17275e-18
4939.50290 9.40749e-18
4940.97540 9.53938e-18
4942.43789 9.63171e-18
4943.91038 9.55464e-18
4945.38288 9.67905e-18
4946.85538 9.82875e-18
4948.31786 9.95242e-18
4949.79036 1.00564e-17
4951.26286 1.01604e-17
4952.73536 1.02644e-17
4954.19784 1.03684e-17
4955.67034 1.04723e-17
4957.14284 1.05763e-17
4958.61534 1.06802e-17
4960.07782 1.07841e-17
4961.55032 1.08880e-17
4963.02282 1.09918e-17
4964.49532 1.10957e-17
4965.95780 1.11995e-17
4967.43030 1.13033e-17
4968.90280 1.14071e-17
4970.37530 1.15109e-17
4971.83778 1.16147e-17
4973.31028 1.17185e-17
4974.78278 1.18222e-17
4976.25528 1.19259e-17
4977.71776 1.20296e-17
4979.19026 1.21333e-17
4980.66276 1.22370e-17
4982.13526 1.23406e-17
4983.59774 1.24442e-17
4985.07024 1.25479e-17
4986.54274 1.26515e-17
4988.01524 1.27107e-17
4989.47772 1.28379e-17
4990.95022 1.28026e-17
4992.42271 1.27489e-17
4993.89521 1.28301e-17
4995.35770 1.30250e-17
4996.83020 1.30970e-17
4998.30269 1.29365e-17
4999.77519 1.27761e-17
5001.23768 1.26156e-17
5002.71017 1.24552e-17
5004.18267 1.22948e-17
5005.64516 1.21345e-17
5007.11765 1.19741e-17
5008.59015 1.18138e-17
5010.06265 1.16535e-17
5011.52513 1.14932e-17
5012.99763 1.13330e-17
5014.47013 1.11728e-17
5015.94263 1.10126e-17
5017.41513 1.08524e-17
5018.87761 1.06924e-17
5020.35011 1.05322e-17
5021.82261 1.03721e-17
5023.28509 1.02121e-17
5024.75759 1.00520e-17
5026.23009 9.89211e-18
5027.70259 9.73210e-18
5029.16507 9.57217e-18
5030.63757 9.41221e-18
5032.11007 9.25233e-18
5033.58257 9.09248e-18
5035.04505 8.84424e-18
5036.51755 8.73085e-18
5037.99005 8.52786e-18
5039.46255 8.35253e-18
5040.92503 8.16401e-18
5042.39753 7.95104e-18
5043.87003 7.74926e-18
5045.34253 7.63030e-18
5046.80501 7.46668e-18
5048.27751 7.35587e-18
5049.75001 7.28557e-18
5051.22250 7.19336e-18
5052.68499 7.11378e-18
5054.15749 6.97845e-18
5055.62999 6.93853e-18
5057.10248 6.98796e-18
5058.56497 6.89498e-18
5060.03747 6.83971e-18
5061.50996 6.88463e-18
5062.98246 6.80391e-18
5064.44495 6.62385e-18
5065.91744 6.56270e-18
5067.38994 6.68145e-18
5068.86244 6.79667e-18
5070.32492 6.94847e-18
5071.79742 7.01761e-18
5073.26992 6.98181e-18
5074.74242 6.94034e-18
5076.20490 7.05344e-18
5077.67740 7.21613e-18
5079.14990 7.28288e-18
5080.62240 7.38455e-18
5082.08488 7.51081e-18
5083.55738 7.68717e-18
5085.02988 7.86920e-18
5086.50238 7.91361e-18
5087.96486 8.03948e-18
5089.43736 8.16664e-18
5090.90986 8.34700e-18
5092.37234 8.43992e-18
5093.84484 8.43100e-18
5095.31734 8.51692e-18
5096.78984 8.58249e-18
5098.26234 8.82743e-18
5099.72482 9.17539e-18
5101.19732 9.14554e-18
5102.66982 9.03878e-18
5104.14232 9.11757e-18
5105.60480 9.30045e-18
5107.07730 9.45903e-18
5108.54980 9.43394e-18
5110.01228 9.62257e-18
5111.48478 9.74884e-18
5112.95728 9.76721e-18
5114.42978 9.99003e-18
5115.89226 1.02252e-17
5117.36476 1.01850e-17
5118.83725 9.98748e-18
5120.30975 1.00903e-17
5121.77224 1.03806e-17
5123.24474 1.05816e-17
5124.71723 1.05826e-17
5126.18973 1.05993e-17
5127.65222 1.07438e-17
5129.12471 1.07757e-17
5130.59721 1.09450e-17
5132.06971 1.11906e-17
5133.53219 1.11695e-17
5135.00469 1.10616e-17
5136.47719 1.11570e-17
5137.94969 1.11692e-17
5139.41217 1.11116e-17
5140.88467 1.12711e-17
5142.35717 1.13262e-17
5143.82967 1.11864e-17
5145.29215 1.11144e-17
5146.76465 1.12350e-17
5148.23715 1.12884e-17
5149.70965 1.11546e-17
5151.17213 1.11647e-17
5152.64463 1.12858e-17
5154.11713 1.13199e-17
5155.58963 1.12647e-17
5157.05211 1.12810e-17
5158.52461 1.13946e-17
5159.99711 1.13787e-17
5161.46961 1.13093e-17
5162.93209 1.13643e-17
5164.40459 1.16248e-17
5165.87709 1.17332e-17
5167.34959 1.17396e-17
5168.81207 1.17673e-17
5170.28457 1.17586e-17
5171.75707 1.17903e-17
5173.22956 1.18242e-17
5174.69205 1.19278e-17
5176.16455 1.19575e-17
5177.63705 1.19106e-17
5179.10954 1.19585e-17
5180.57203 1.19228e-17
5182.04453 1.18739e-17
5183.51702 1.19307e-17
5184.98952 1.18686e-17
5186.45201 1.18716e-17
5187.92450 1.18121e-17
5189.39700 1.17700e-17
5190.86950 1.17689e-17
5192.33198 1.16799e-17
5193.80448 1.16570e-17
5195.27698 1.16884e-17
5196.73946 1.17159e-17
5198.21196 1.17383e-17
5199.68446 1.19699e-17
5201.15696 1.20480e-17
5202.61944 1.17995e-17
5204.09194 1.17161e-17
5205.56444 1.17388e-17
5207.03694 1.18606e-17
5208.50944 1.19126e-17
5209.97192 1.17131e-17
5211.44442 1.16265e-17
5212.91692 1.16661e-17
5214.37940 1.18005e-17
5215.85190 1.18683e-17
5217.32440 1.18762e-17
5218.79690 1.19667e-17
5220.25938 1.20283e-17
5221.73188 1.17875e-17
5223.20438 1.16210e-17
5224.67688 1.17694e-17
5226.13936 1.17653e-17
5227.61186 1.16946e-17
5229.08436 1.17086e-17
5230.55686 1.16741e-17
5232.01934 1.17420e-17
5233.49184 1.18085e-17
5234.96434 1.18635e-17
5236.43684 1.19564e-17
5237.89932 1.20256e-17
5239.37182 1.20691e-17
5240.84432 1.21062e-17
5242.31681 1.23199e-17
5243.77930 1.24841e-17
5245.25180 1.25293e-17
5246.72429 1.26899e-17
5248.19679 1.27160e-17
5249.65927 1.27939e-17
5251.13177 1.28801e-17
5252.60427 1.28602e-17
5254.07677 1.29529e-17
5255.53925 1.29355e-17
5257.01175 1.29908e-17
5258.48425 1.31582e-17
5259.95675 1.32840e-17
5261.41923 1.34412e-17
5262.89173 1.34887e-17
5264.36423 1.35158e-17
5265.83673 1.37345e-17
5267.29921 1.39244e-17
5268.77171 1.40045e-17
5270.24421 1.41047e-17
5271.71671 1.40934e-17
5273.17919 1.41411e-17
5274.65169 1.42328e-17
5276.12419 1.42446e-17
5277.59669 1.42508e-17
5279.05917 1.41608e-17
5280.53167 1.41277e-17
5282.00417 1.41015e-17
5283.47667 1.40077e-17
5284.93915 1.40684e-17
5286.41165 1.40107e-17
5287.88415 1.38757e-17
5289.35665 1.39269e-17
5290.81913 1.39438e-17
5292.29163 1.40828e-17
5293.76413 1.42102e-17
5295.23663 1.40706e-17
5296.69911 1.39930e-17
5298.17161 1.40856e-17
5299.64410 1.40725e-17
5301.10659 1.40200e-17
5302.57909 1.42036e-17
5304.05159 1.43680e-17
5305.52408 1.43272e-17
5306.98657 1.43894e-17
5308.45907 1.46772e-17
5309.93156 1.47857e-17
5311.40406 1.47598e-17
5312.86655 1.49294e-17
5314.33904 1.50370e-17
5315.81154 1.50070e-17
5317.28404 1.49794e-17
5318.74652 1.51171e-17
5320.21902 1.51592e-17
5321.69152 1.50150e-17
5323.16402 1.50553e-17
5324.62650 1.51283e-17
5326.09900 1.51106e-17
5327.57150 1.52203e-17
5329.04400 1.54903e-17
5330.50648 1.56200e-17
5331.97898 1.54744e-17
5333.45148 1.54765e-17
5334.92398 1.54960e-17
5336.38646 1.53501e-17
5337.85896 1.52222e-17
5339.33146 1.52984e-17
5340.80396 1.55751e-17
5342.26644 1.56729e-17
5343.73894 1.55354e-17
5345.21144 1.54435e-17
5346.68394 1.54988e-17
5348.14642 1.56001e-17
5349.61892 1.54987e-17
5351.09142 1.55396e-17
5352.56392 1.56551e-17
5354.02640 1.55564e-17
5355.49890 1.56513e-17
5356.97140 1.57395e-17
5358.44390 1.58272e-17
5359.90638 1.59818e-17
5361.37888 1.59247e-17
5362.85138 1.58762e-17
5364.32387 1.61740e-17
5365.78636 1.62834e-17
5367.25886 1.61206e-17
5368.73135 1.61439e-17
5370.20385 1.62801e-17
5371.66634 1.65172e-17
5373.13883 1.67567e-17
5374.61133 1.68831e-17
5376.08383 1.66999e-17
5377.54631 1.67243e-17
5379.01881 1.68235e-17
5380.49131 1.67437e-17
5381.96381 1.66938e-17
5383.42629 1.66656e-17
5384.89879 1.68970e-17
5386.37129 1.69286e-17
5387.83377 1.65927e-17
5389.30627 1.64759e-17
5390.77877 1.66778e-17
5392.25127 1.64576e-17
5393.71375 1.63304e-17
5395.18625 1.63007e-17
5396.65875 1.61325e-17
5398.13125 1.60648e-17
5399.59373 1.59707e-17
5401.06623 1.59068e-17
5402.53873 1.58681e-17
5404.01123 1.58526e-17
5405.47371 1.56619e-17
5406.94621 1.54150e-17
5408.41871 1.50963e-17
5409.89121 1.51332e-17
5411.35369 1.50408e-17
5412.82619 1.47961e-17
5414.29869 1.47186e-17
5415.77119 1.45849e-17
5417.23367 1.45145e-17
5418.70617 1.43427e-17
5420.17867 1.41553e-17
5421.65117 1.39561e-17
5423.11365 1.38658e-17
5424.58615 1.38667e-17
5426.05865 1.36876e-17
5427.53114 1.33280e-17
5428.99363 1.33089e-17
5430.46612 1.32220e-17
5431.93862 1.32465e-17
5433.41112 1.31892e-17
5434.87360 1.29924e-17
5436.34610 1.28214e-17
5437.81860 1.26540e-17
5439.29110 1.27237e-17
5440.75358 1.27883e-17
5442.22608 1.27383e-17
5443.69858 1.27548e-17
5445.17108 1.27662e-17
5446.63356 1.26570e-17
5448.10606 1.25559e-17
5449.57856 1.27096e-17
5451.05106 1.28401e-17
5452.51354 1.29569e-17
5453.98604 1.30648e-17
5455.45854 1.32829e-17
5456.93104 1.34194e-17
5458.39352 1.35484e-17
5459.86602 1.36666e-17
5461.33852 1.37932e-17
5462.81102 1.38211e-17
5464.27350 1.39913e-17
5465.74600 1.42930e-17
5467.21850 1.46416e-17
5468.69100 1.47955e-17
5470.15348 1.50745e-17
5471.62598 1.52904e-17
5473.09848 1.54655e-17
5474.57098 1.56858e-17
5476.03346 1.57418e-17
5477.50596 1.59129e-17
5478.97846 1.61546e-17
5480.45096 1.64936e-17
5481.91344 1.68437e-17
5483.38594 1.69419e-17
5484.85844 1.71462e-17
5486.33093 1.72384e-17
5487.79342 1.73417e-17
5489.26591 1.75238e-17
5490.73841 1.78820e-17
5492.20090 1.81766e-17
5493.67340 1.83071e-17
5495.14589 1.84100e-17
5496.61839 1.86742e-17
5498.08088 1.84491e-17
5499.55337 1.86553e-17
5501.02587 1.89195e-17
5502.49837 1.91628e-17
5503.96085 1.93026e-17
5505.43335 1.91514e-17
5506.90585 1.90185e-17
5508.37835 1.91465e-17
5509.84083 1.93517e-17
5511.31333 1.92948e-17
5512.78583 1.91455e-17
5514.25833 1.90019e-17
5515.72081 1.88611e-17
5517.19331 1.89330e-17
5518.66581 1.89750e-17
5520.13831 1.89313e-17
5521.60079 1.88000e-17
5523.07329 1.87109e-17
5524.54579 1.86164e-17
5526.01829 1.84187e-17
5527.48077 1.82793e-17
5528.95327 1.81594e-17
5530.42577 1.80289e-17
5531.89827 1.77747e-17
5533.36075 1.76829e-17
5534.83325 1.77276e-17
5536.30575 1.74740e-17
5537.77825 1.72105e-17
5539.24073 1.72852e-17
5540.71323 1.71970e-17
5542.18573 1.67906e-17
5543.65823 1.65730e-17
5545.12071 1.64621e-17
5546.59321 1.61937e-17
5548.06570 1.59978e-17
5549.53820 1.57903e-17
5551.00069 1.55741e-17
5552.47319 1.54434e-17
5553.94568 1.51760e-17
5555.41818 1.47961e-17
5556.88066 1.46345e-17
5558.35316 1.45183e-17
5559.82566 1.41827e-17
5561.29816 1.38755e-17
5562.76064 1.36154e-17
5564.23314 1.35028e-17
5565.70564 1.34757e-17
5567.17814 1.32879e-17
5568.64062 1.30687e-17
5570.11312 1.29651e-17
5571.58562 1.29471e-17
5573.05812 1.28159e-17
5574.52060 1.27178e-17
5575.99310 1.27918e-17
5577.46560 1.26030e-17
5578.93810 1.25336e-17
5580.40058 1.26594e-17
5581.87308 1.24404e-17
5583.34558 1.23465e-17
5584.80806 1.24721e-17
5586.28056 1.25953e-17
5587.75306 1.25670e-17
5589.22556 1.24931e-17
5590.68804 1.25931e-17
5592.16054 1.26758e-17
5593.63304 1.27970e-17
5595.10554 1.28912e-17
5596.56802 1.29939e-17
5598.04052 1.30585e-17
5599.51302 1.30954e-17
5600.98552 1.31959e-17
5602.44800 1.33244e-17
5603.92050 1.35104e-17
5605.39300 1.35739e-17
5606.86550 1.36632e-17
5608.32798 1.38260e-17
5609.80048 1.39148e-17
5611.27297 1.40110e-17
5612.74547 1.41230e-17
5614.20796 1.40332e-17
5615.68045 1.42238e-17
5617.15295 1.45007e-17
5618.62545 1.46490e-17
5620.08794 1.47066e-17
5621.56043 1.46949e-17
5623.03293 1.48424e-17
5624.50543 1.52336e-17
5625.96791 1.53595e-17
5627.44041 1.53810e-17
5628.91291 1.53618e-17
5630.38541 1.52255e-17
5631.84789 1.53581e-17
5633.32039 1.54741e-17
5634.79289 1.54233e-17
5636.26539 1.55254e-17
5637.72787 1.56207e-17
5639.20037 1.56993e-17
5640.67287 1.56715e-17
5642.14537 1.55943e-17
5643.60785 1.56399e-17
5645.08035 1.56491e-17
5646.55285 1.57457e-17
5648.02535 1.57347e-17
5649.48783 1.56397e-17
5650.96033 1.55450e-17
5652.43283 1.55108e-17
5653.90533 1.54536e-17
5655.36781 1.55102e-17
5656.84031 1.53827e-17
5658.31281 1.52711e-17
5659.78531 1.52826e-17
5661.24779 1.52024e-17
5662.72029 1.51605e-17
5664.19279 1.50585e-17
5665.66529 1.48342e-17
5667.12777 1.48213e-17
5668.60027 1.45544e-17
5670.07276 1.44078e-17
5671.54526 1.43355e-17
5673.00775 1.42802e-17
5674.48025 1.40170e-17
5675.95274 1.39164e-17
5677.41523 1.36426e-17
5678.88773 1.35989e-17
5680.36022 1.34739e-17
5681.83272 1.31107e-17
5683.29520 1.29535e-17
5684.76770 1.29041e-17
5686.24020 1.27228e-17
5687.71270 1.23660e-17
5689.17518 1.22007e-17
5690.64768 1.20934e-17
5692.12018 1.17201e-17
5693.59268 1.14847e-17
5695.05516 1.12674e-17
5696.52766 1.11468e-17
5698.00016 1.08565e-17
5699.47266 1.07295e-17
5700.93514 1.06427e-17
5702.40764 1.04214e-17
5703.88014 1.01409e-17
5705.35264 9.79708e-18
5706.81512 9.51633e-18
5708.28762 9.31323e-18
5709.76012 9.16659e-18
5711.23262 9.10022e-18
5712.69510 8.85336e-18
5714.16760 8.61801e-18
5715.64010 8.36939e-18
5717.11260 8.27405e-18
5718.57508 8.15703e-18
5720.04758 8.07757e-18
5721.52008 7.79312e-18
5722.99258 7.66982e-18
5724.45506 7.63622e-18
5725.92756 7.48845e-18
5727.40006 7.35118e-18
5728.87255 7.25133e-18
5730.33504 6.99149e-18
5731.80754 6.90501e-18
5733.28004 6.85182e-18
5734.75253 6.78409e-18
5736.21502 6.68679e-18
5737.68751 6.63080e-18
5739.16001 6.58610e-18
5740.63251 6.56161e-18
5742.09500 6.37803e-18
5743.56749 6.32892e-18
5745.03999 6.26934e-18
5746.51249 6.22953e-18
5747.97497 6.17315e-18
5749.44747 6.10927e-18
5750.91997 6.04826e-18
5752.39247 6.06646e-18
5753.85495 6.14907e-18
5755.32745 6.18065e-18
5756.79995 6.10723e-18
5758.27245 6.13585e-18
5759.73493 6.21625e-18
5761.20743 6.29199e-18
5762.67993 6.33907e-18
5764.14241 6.25614e-18
5765.61491 6.28327e-18
5767.08741 6.35992e-18
5768.55991 6.35567e-18
5770.03241 6.44592e-18
5771.49489 6.54180e-18
5772.96739 6.55715e-18
5774.43989 6.62901e-18
5775.90237 6.72252e-18
5777.37487 6.75670e-18
5778.84737 6.76732e-18
5780.31987 6.82691e-18
5781.78235 6.97879e-18
5783.25485 7.08789e-18
5784.72735 7.26332e-18
5786.19985 7.47309e-18
5787.66233 7.48205e-18
5789.13483 7.51209e-18
5790.60733 7.65939e-18
5792.07982 7.85448e-18
5793.54231 7.98286e-18
5795.01481 8.06412e-18
5796.48730 8.23836e-18
5797.95980 8.47607e-18
5799.42229 8.73549e-18
5800.89479 8.93617e-18
5802.36728 9.06568e-18
5803.83978 9.21449e-18
5805.30227 9.55162e-18
5806.77476 9.82915e-18
5808.24726 9.95386e-18
5809.71976 1.02407e-17
5811.18224 1.06193e-17
5812.65474 1.12028e-17
5814.12724 1.14549e-17
5815.59974 1.14555e-17
5817.06222 1.17805e-17
5818.53472 1.22207e-17
5820.00722 1.26296e-17
5821.47972 1.29573e-17
5822.94220 1.32098e-17
5824.41470 1.33558e-17
5825.88720 1.36562e-17
5827.35970 1.39970e-17
5828.82218 1.41574e-17
5830.29468 1.42125e-17
5831.76718 1.43206e-17
5833.23968 1.45941e-17
5834.70216 1.49471e-17
5836.17466 1.51524e-17
5837.64716 1.52979e-17
5839.11966 1.52710e-17
5840.58214 1.54416e-17
5842.05464 1.56597e-17
5843.52714 1.58054e-17
5844.99964 1.59472e-17
5846.46212 1.60693e-17
5847.93462 1.62039e-17
5849.40712 1.62169e-17
5850.87961 1.63355e-17
5852.34210 1.65217e-17
5853.81460 1.68081e-17
5855.28710 1.69907e-17
5856.75959 1.69044e-17
5858.22208 1.71225e-17
5859.69458 1.70195e-17
5861.16707 1.69548e-17
5862.63957 1.69673e-17
5864.10206 1.73080e-17
5865.57455 1.75958e-17
5867.04705 1.74976e-17
5868.50954 1.72755e-17
5869.98203 1.74306e-17
5871.45453 1.75900e-17
5872.92703 1.75410e-17
5874.38951 1.77230e-17
5875.86201 1.76207e-17
5877.33451 1.75853e-17
5878.80701 1.76969e-17
5880.26949 1.76858e-17
5881.74199 1.77576e-17
5883.21449 1.76056e-17
5884.68699 1.75316e-17
5886.14947 1.74432e-17
5887.62197 1.70776e-17
5889.09447 1.64483e-17
5890.56697 1.61972e-17
5892.02945 1.64909e-17
5893.50195 1.67719e-17
5894.97445 1.67830e-17
5896.44695 1.66510e-17
5897.90943 1.63462e-17
5899.38193 1.66229e-17
5900.85443 1.65600e-17
5902.32693 1.67383e-17
5903.78941 1.70898e-17
5905.26191 1.71035e-17
5906.73441 1.70510e-17
5908.20691 1.70301e-17
5909.66939 1.70519e-17
5911.14189 1.73446e-17
5912.61439 1.73177e-17
5914.08689 1.72066e-17
5915.54937 1.71587e-17
5917.02187 1.70799e-17
5918.49437 1.69339e-17
5919.96686 1.69938e-17
5921.42935 1.69477e-17
5922.90185 1.68416e-17
5924.37434 1.68995e-17
5925.84684 1.69113e-17
5927.30933 1.71264e-17
5928.78182 1.71787e-17
5930.25432 1.70454e-17
5931.72682 1.72346e-17
5933.18930 1.71029e-17
5934.66180 1.71876e-17
5936.13430 1.71235e-17
5937.60680 1.72930e-17
5939.06928 1.71617e-17
5940.54178 1.69411e-17
5942.01428 1.66568e-17
5943.48678 1.65610e-17
5944.94926 1.67257e-17
5946.42176 1.67259e-17
5947.89426 1.66936e-17
5949.36676 1.65504e-17
5950.82924 1.65662e-17
5952.30174 1.67258e-17
5953.77424 1.66810e-17
5955.24674 1.66644e-17
5956.70922 1.66369e-17
5958.18172 1.66441e-17
5959.65422 1.67091e-17
5961.11670 1.67164e-17
5962.58920 1.68330e-17
5964.06170 1.69202e-17
5965.53420 1.68471e-17
5967.00670 1.67435e-17
5968.46918 1.67314e-17
5969.94168 1.66165e-17
5971.41418 1.67673e-17
5972.87666 1.69592e-17
5974.34916 1.67684e-17
5975.82166 1.68713e-17
5977.29415 1.68522e-17
5978.75664 1.69013e-17
5980.22914 1.68518e-17
5981.70164 1.68416e-17
5983.17413 1.67319e-17
5984.63662 1.66952e-17
5986.10912 1.67308e-17
5987.58161 1.67302e-17
5989.05411 1.65838e-17
5990.51660 1.64222e-17
5991.98909 1.64411e-17
5993.46159 1.64989e-17
5994.93409 1.63842e-17
5996.39657 1.63347e-17
5997.86907 1.62668e-17
5999.34157 1.60302e-17
6000.81407 1.58657e-17
6002.27655 1.57856e-17
6003.74905 1.57037e-17
6005.22155 1.56386e-17
6006.69405 1.54789e-17
6008.15653 1.54587e-17
6009.62903 1.52748e-17
6011.10153 1.50106e-17
6012.57403 1.51061e-17
6014.03651 1.51152e-17
6015.50901 1.49531e-17
6016.98151 1.47011e-17
6018.45401 1.46104e-17
6019.91649 1.46772e-17
6021.38899 1.45550e-17
6022.86149 1.44139e-17
6024.33399 1.44594e-17
6025.79647 1.44280e-17
6027.26897 1.42928e-17
6028.74147 1.41890e-17
6030.21397 1.41237e-17
6031.67645 1.41013e-17
6033.14895 1.40021e-17
6034.62145 1.38740e-17
6036.09395 1.38169e-17
6037.55643 1.38741e-17
6039.02893 1.37754e-17
6040.50143 1.36530e-17
6041.97392 1.37421e-17
6043.43641 1.38655e-17
6044.90891 1.36409e-17
6046.38140 1.33980e-17
6047.84389 1.35145e-17
6049.31639 1.35363e-17
6050.78888 1.34992e-17
6052.26138 1.33928e-17
6053.73388 1.31714e-17
6055.19636 1.30816e-17
6056.66886 1.30007e-17
6058.14136 1.31258e-17
6059.60384 1.32005e-17
6061.07634 1.30354e-17
6062.54884 1.30685e-17
6064.02134 1.29537e-17
6065.48382 1.26553e-17
6066.95632 1.27865e-17
6068.42882 1.29086e-17
6069.90132 1.27949e-17
6071.36380 1.27959e-17
6072.83630 1.28064e-17
6074.30880 1.28150e-17
6075.78130 1.28869e-17
6077.24378 1.30486e-17
6078.71628 1.31250e-17
6080.18878 1.33419e-17
6081.66128 1.33231e-17
6083.12376 1.34088e-17
6084.59626 1.36789e-17
6086.06876 1.37359e-17
6087.54126 1.36043e-17
6089.00374 1.37089e-17
6090.47624 1.40727e-17
6091.94874 1.40436e-17
6093.42124 1.39433e-17
6094.88372 1.40192e-17
6096.35622 1.39987e-17
6097.82872 1.40854e-17
6099.30122 1.41345e-17
6100.76370 1.41195e-17
6102.23620 1.41625e-17
6103.70870 1.42075e-17
6105.18119 1.44270e-17
6106.64368 1.43626e-17
6108.11618 1.45179e-17
6109.58867 1.44004e-17
6111.06117 1.43820e-17
6112.52365 1.43112e-17
6113.99615 1.43173e-17
6115.46865 1.45135e-17
6116.94115 1.44498e-17
6118.40363 1.41904e-17
6119.87613 1.42694e-17
6121.34863 1.43706e-17
6122.82113 1.43856e-17
6124.28361 1.42070e-17
6125.75611 1.42575e-17
6127.22861 1.41523e-17
6128.70111 1.40025e-17
6130.16359 1.38658e-17
6131.63609 1.37975e-17
6133.10859 1.40064e-17
6134.58109 1.38234e-17
6136.04357 1.37424e-17
6137.51607 1.37525e-17
6138.98857 1.36071e-17
6140.46107 1.33194e-17
6141.92355 1.33993e-17
6143.39605 1.33956e-17
6144.86855 1.33587e-17
6146.34105 1.31057e-17
6147.80353 1.30339e-17
6149.27603 1.29140e-17
6150.74853 1.29993e-17
6152.21101 1.28278e-17
6153.68351 1.28248e-17
6155.15601 1.29332e-17
6156.62851 1.27980e-17
6158.09099 1.28857e-17
6159.56349 1.29019e-17
6161.03599 1.28149e-17
6162.50849 1.28950e-17
6163.97097 1.30157e-17
6165.44347 1.28920e-17
6166.91597 1.29458e-17
6168.38846 1.31326e-17
6169.85095 1.32435e-17
6171.32345 1.33514e-17
6172.79594 1.35760e-17
6174.26844 1.34873e-17
6175.73092 1.35955e-17
6177.20342 1.38099e-17
6178.67592 1.37807e-17
6180.14842 1.39385e-17
6181.61090 1.38915e-17
6183.08340 1.38640e-17
6184.55590 1.40622e-17
6186.02840 1.43326e-17
6187.49088 1.44298e-17
6188.96338 1.43866e-17
6190.43588 1.43758e-17
6191.90838 1.43522e-17
6193.37086 1.44112e-17
6194.84336 1.44963e-17
6196.31586 1.46567e-17
6197.78836 1.48465e-17
6199.25084 1.48054e-17
6200.72334 1.47464e-17
6202.19584 1.49224e-17
6203.66834 1.49424e-17
6205.13082 1.51546e-17
6206.60332 1.53301e-17
6208.07582 1.54236e-17
6209.54832 1.55543e-17
6211.01080 1.56237e-17
6212.48330 1.56902e-17
6213.95580 1.57576e-17
6215.42830 1.58165e-17
6216.89078 1.58509e-17
6218.36328 1.57773e-17
6219.83578 1.57753e-17
6221.30828 1.58787e-17
6222.77076 1.59136e-17
6224.24326 1.57304e-17
6225.71576 1.57814e-17
6227.18825 1.59155e-17
6228.65074 1.57473e-17
6230.12324 1.57584e-17
6231.59573 1.57324e-17
6233.06823 1.57554e-17
6234.53071 1.58013e-17
6236.00321 1.58785e-17
6237.47571 1.59361e-17
6238.93820 1.58382e-17
6240.41069 1.58971e-17
6241.88319 1.59397e-17
6243.35569 1.59897e-17
6244.81817 1.60197e-17
6246.29067 1.57446e-17
6247.76317 1.56025e-17
6249.23567 1.58300e-17
6250.70817 1.58114e-17
6252.17065 1.56176e-17
6253.64315 1.54909e-17
6255.11565 1.57188e-17
6256.57813 1.55060e-17
6258.05063 1.54410e-17
6259.52313 1.54953e-17
6260.99563 1.53768e-17
6262.45811 1.53891e-17
6263.93061 1.53790e-17
6265.40311 1.51653e-17
6266.87561 1.51315e-17
6268.33809 1.52995e-17
6269.81059 1.54524e-17
6271.28309 1.52133e-17
6272.75559 1.51316e-17
6274.21807 1.51387e-17
6275.69057 1.51353e-17
6277.16307 1.50502e-17
6278.63557 1.50274e-17
6280.09805 1.47587e-17
6281.57055 1.47700e-17
6283.04305 1.46838e-17
6284.51555 1.46476e-17
6285.97803 1.46449e-17
6287.45053 1.46489e-17
6288.92303 1.47679e-17
6290.39552 1.46771e-17
6291.85801 1.46250e-17
6293.33050 1.47556e-17
6294.80300 1.48341e-17
6296.27550 1.48178e-17
6297.73799 1.47767e-17
6299.21048 1.44938e-17
6300.68298 1.45891e-17
6302.15548 1.45869e-17
6303.61796 1.45573e-17
6305.09046 1.44125e-17
6306.56296 1.44453e-17
6308.03546 1.43515e-17
6309.49794 1.44460e-17
6310.97044 1.45655e-17
6312.44294 1.44219e-17
6313.91544 1.43212e-17
6315.37792 1.41699e-17
6316.85042 1.40576e-17
6318.32292 1.40508e-17
6319.79542 1.40555e-17
6321.25790 1.40472e-17
6322.73040 1.38380e-17
6324.20290 1.42036e-17
6325.67540 1.40346e-17
6327.13788 1.37966e-17
6328.61038 1.37710e-17
6330.08288 1.37112e-17
6331.55538 1.35582e-17
6333.01786 1.35682e-17
6334.49036 1.36715e-17
6335.96286 1.32596e-17
6337.43536 1.33912e-17
6338.89784 1.32283e-17
6340.37034 1.32730e-17
6341.84284 1.32962e-17
6343.30532 1.32705e-17
6344.77782 1.30783e-17
6346.25032 1.29812e-17
6347.72282 1.29163e-17
6349.18530 1.27654e-17
6350.65780 1.28006e-17
6352.13030 1.28448e-17
6353.60279 1.26912e-17
6355.06528 1.27399e-17
6356.53777 1.26859e-17
6358.01027 1.25237e-17
6359.48277 1.24969e-17
6360.94525 1.23118e-17
6362.41775 1.22937e-17
6363.89025 1.23883e-17
6365.36275 1.21255e-17
6366.82523 1.21505e-17
6368.29773 1.23554e-17
6369.77023 1.25345e-17
6371.24273 1.22972e-17
6372.70521 1.23447e-17
6374.17771 1.24764e-17
6375.65021 1.23011e-17
6377.12271 1.23218e-17
6378.58519 1.25808e-17
6380.05769 1.26329e-17
6381.53019 1.27045e-17
6383.00269 1.26933e-17
6384.46517 1.28596e-17
6385.93767 1.30043e-17
6387.41017 1.29258e-17
6388.88267 1.29312e-17
6390.34515 1.29182e-17
6391.81765 1.28478e-17
6393.29015 1.29760e-17
6394.76265 1.29601e-17
6396.22513 1.30396e-17
6397.69763 1.29573e-17
6399.17013 1.29993e-17
6400.64263 1.31692e-17
6402.10511 1.31289e-17
6403.57761 1.31727e-17
6405.05011 1.32342e-17
6406.52261 1.30492e-17
6407.98509 1.30388e-17
6409.45759 1.30875e-17
6410.93008 1.31541e-17
6412.40258 1.32836e-17
6413.86507 1.32162e-17
6415.33756 1.32048e-17
6416.81006 1.34043e-17
6418.28256 1.34885e-17
6419.74505 1.34341e-17
6421.21754 1.36544e-17
6422.69004 1.36406e-17
6424.16254 1.36183e-17
6425.62502 1.37401e-17
6427.09752 1.36818e-17
6428.57002 1.36596e-17
6430.03250 1.36755e-17
6431.50500 1.38131e-17
6432.97750 1.39592e-17
6434.45000 1.40463e-17
6435.91248 1.39785e-17
6437.38498 1.40279e-17
6438.85748 1.43484e-17
6440.32998 1.46701e-17
6441.80248 1.46209e-17
6443.26496 1.45166e-17
6444.73746 1.43943e-17
6446.20996 1.46358e-17
6447.67244 1.47978e-17
6449.14494 1.45698e-17
6450.61744 1.47441e-17
6452.08994 1.48124e-17
6453.55242 1.46730e-17
6455.02492 1.48150e-17
6456.49742 1.49389e-17
6457.96992 1.46748e-17
6459.43240 1.47577e-17
6460.90490 1.48919e-17
6462.37740 1.48212e-17
6463.84990 1.47018e-17
6465.31238 1.47660e-17
6466.78488 1.47882e-17
6468.25738 1.47973e-17
6469.72987 1.47366e-17
6471.19236 1.45244e-17
6472.66486 1.44632e-17
6474.13735 1.43549e-17
6475.60985 1.42543e-17
6477.07234 1.41590e-17
6478.54484 1.42052e-17
6480.01733 1.41337e-17
6481.48983 1.40649e-17
6482.95232 1.41126e-17
6484.42481 1.38364e-17
6485.89731 1.37720e-17
6487.36981 1.42374e-17
6488.83229 1.42584e-17
6490.30479 1.41784e-17
6491.77729 1.41277e-17
6493.24979 1.40194e-17
6494.71227 1.39624e-17
6496.18477 1.39362e-17
6497.65727 1.39661e-17
6499.12977 1.40598e-17
6500.59225 1.41769e-17
6502.06475 1.40603e-17
6503.53725 1.41552e-17
6505.00975 1.39882e-17
6506.47223 1.36777e-17
6507.94473 1.37965e-17
6509.41723 1.39408e-17
6510.88973 1.38834e-17
6512.35221 1.36743e-17
6513.82471 1.36553e-17
6515.29721 1.32839e-17
6516.76971 1.31256e-17
6518.23219 1.31263e-17
6519.70469 1.32286e-17
6521.17719 1.34573e-17
6522.64969 1.36897e-17
6524.11217 1.37712e-17
6525.58467 1.39316e-17
6527.05717 1.40911e-17
6528.52967 1.42347e-17
6529.99215 1.41354e-17
6531.46465 1.40798e-17
6532.93715 1.40751e-17
6534.39963 1.42071e-17
6535.87213 1.45556e-17
6537.34463 1.44772e-17
6538.81712 1.46355e-17
6540.27961 1.45135e-17
6541.75210 1.43903e-17
6543.22460 1.43175e-17
6544.69710 1.43017e-17
6546.15959 1.42859e-17
6547.63208 1.42701e-17
6549.10458 1.42543e-17
6550.57708 1.42385e-17
6552.03956 1.42227e-17
6553.51206 1.42069e-17
6554.98456 1.41912e-17
6556.45706 1.41754e-17
6557.91954 1.41596e-17
6559.39204 1.41438e-17
6560.86454 1.41280e-17
6562.33704 1.41123e-17
6563.79952 1.40965e-17
6565.27202 1.40807e-17
6566.74452 1.40649e-17
6568.21702 1.40491e-17
6569.67950 1.40334e-17
6571.15200 1.40176e-17
6572.62450 1.40018e-17
6574.09700 1.39861e-17
6575.55948 1.39703e-17
6577.03198 1.39545e-17
6578.50448 1.39388e-17
6579.97698 1.39230e-17
6581.43946 1.39073e-17
6582.91196 1.38915e-17
6584.38446 1.38757e-17
6585.85696 1.38600e-17
6587.31944 1.38442e-17
6588.79194 1.38285e-17
6590.26444 1.38127e-17
6591.73694 1.37970e-17
6593.19942 1.37812e-17
6594.67192 1.37654e-17
6596.14441 1.37497e-17
6597.61691 1.37339e-17
6599.07940 1.37182e-17
6600.55190 1.37025e-17
6602.02439 1.36867e-17
6603.49689 1.36710e-17
6604.95938 1.36552e-17
6606.43187 1.36948e-17
6607.90437 1.37665e-17
6609.37687 1.38492e-17
6610.83935 1.37163e-17
6612.31185 1.35795e-17
6613.78435 1.36099e-17
6615.25685 1.36124e-17
6616.71933 1.37068e-17
6618.19183 1.35900e-17
6619.66433 1.35154e-17
6621.13683 1.37704e-17
6622.59931 1.38343e-17
6624.07181 1.37683e-17
6625.54431 1.36542e-17
6627.01681 1.35006e-17
6628.47929 1.35611e-17
6629.95179 1.35526e-17
6631.42429 1.34682e-17
6632.88677 1.36364e-17
6634.35927 1.36253e-17
6635.83177 1.34913e-17
6637.30427 1.35431e-17
6638.76675 1.33960e-17
6640.23925 1.33078e-17
6641.71175 1.35786e-17
6643.18425 1.36757e-17
6644.64673 1.35056e-17
6646.11923 1.34565e-17
6647.59173 1.34217e-17
6649.06423 1.33621e-17
6650.52671 1.34388e-17
6651.99921 1.34864e-17
6653.47171 1.33938e-17
6654.94420 1.33940e-17
6656.40669 1.33987e-17
6657.87919 1.33382e-17
6659.35169 1.34726e-17
6660.82418 1.34564e-17
6662.28667 1.34142e-17
6663.75917 1.33827e-17
6665.23166 1.33540e-17
6666.70416 1.33505e-17
6668.16665 1.32919e-17
6669.63914 1.33150e-17
6671.11164 1.32734e-17
6672.58414 1.32399e-17
6674.04662 1.31444e-17
6675.51912 1.31678e-17
6676.99162 1.31995e-17
6678.46412 1.31030e-17
6679.92660 1.31347e-17
6681.39910 1.30691e-17
6682.87160 1.30055e-17
6684.34410 1.28900e-17
6685.80658 1.28506e-17
6687.27908 1.29019e-17
6688.75158 1.28765e-17
6690.22408 1.28029e-17
6691.68656 1.27735e-17
6693.15906 1.26839e-17
6694.63156 1.26128e-17
6696.10406 1.27390e-17
6697.56654 1.27489e-17
6699.03904 1.26216e-17
6700.51154 1.25461e-17
6701.98404 1.25758e-17
6703.44652 1.25264e-17
6704.91902 1.24497e-17
6706.39152 1.25019e-17
6707.86402 1.25199e-17
6709.32650 1.22467e-17
6710.79900 1.21878e-17
6712.27150 1.22186e-17
6713.74400 1.21079e-17
6715.20648 1.19876e-17
6716.67898 1.18938e-17
6718.15148 1.18313e-17
6719.61396 1.17946e-17
6721.08646 1.17822e-17
6722.55895 1.17212e-17
6724.03145 1.18900e-17
6725.49394 1.20988e-17
6726.96644 1.22210e-17
6728.43893 1.19466e-17
6729.91143 1.19472e-17
6731.37392 1.19458e-17
6732.84641 1.18771e-17
6734.31891 1.18149e-17
6735.79141 1.18102e-17
6737.25389 1.16281e-17
6738.72639 1.17896e-17
6740.19889 1.18034e-17
6741.67139 1.21381e-17
6743.13387 1.20619e-17
6744.60637 1.22223e-17
6746.07887 1.21961e-17
6747.55137 1.19960e-17
6749.01385 1.19657e-17
6750.48635 1.19001e-17
6751.95885 1.19927e-17
6753.43135 1.20009e-17
6754.89383 1.18160e-17
6756.36633 1.19904e-17
6757.83883 1.22598e-17
6759.31133 1.21822e-17
6760.77381 1.23008e-17
6762.24631 1.19774e-17
6763.71881 1.19752e-17
6765.19131 1.19531e-17
6766.65379 1.21790e-17
6768.12629 1.21080e-17
6769.59879 1.20452e-17
6771.07129 1.21022e-17
6772.53377 1.19781e-17
6774.00627 1.20761e-17
6775.47877 1.21000e-17
6776.95126 1.21784e-17
6778.41375 1.20895e-17
6779.88625 1.20969e-17
6781.35875 1.21839e-17
6782.83124 1.22181e-17
6784.29373 1.22818e-17
6785.76623 1.23508e-17
6787.23872 1.23916e-17
6788.71122 1.21418e-17
6790.17371 1.22742e-17
6791.64620 1.24848e-17
6793.11870 1.23465e-17
6794.59120 1.21871e-17
6796.05368 1.21736e-17
6797.52618 1.22504e-17
6798.99868 1.22490e-17
6800.47118 1.21734e-17
6801.93366 1.21262e-17
6803.40616 1.21824e-17
6804.87866 1.21785e-17
6806.34114 1.21720e-17
6807.81364 1.20830e-17
6809.28614 1.21617e-17
6810.75864 1.21886e-17
6812.23114 1.21110e-17
6813.69362 1.20740e-17
6815.16612 1.19555e-17
6816.63862 1.19620e-17
6818.11112 1.20553e-17
6819.57360 1.19500e-17
6821.04610 1.18853e-17
6822.51860 1.19700e-17
6823.98108 1.20467e-17
6825.45358 1.20074e-17
6826.92608 1.18934e-17
6828.39858 1.18223e-17
6829.86106 1.19039e-17
6831.33356 1.19607e-17
6832.80606 1.19505e-17
6834.27856 1.17951e-17
6835.74104 1.16550e-17
6837.21354 1.16150e-17
6838.68604 1.16811e-17
6840.15854 1.16683e-17
6841.62102 1.15498e-17
6843.09352 1.14871e-17
6844.56602 1.15604e-17
6846.03851 1.15527e-17
6847.50100 1.15450e-17
6848.97350 1.15373e-17
6850.44599 1.15296e-17
6851.91849 1.15218e-17
6853.38098 1.15141e-17
6854.85347 1.15064e-17
6856.32597 1.14987e-17
6857.79847 1.14910e-17
6859.26095 1.14833e-17
6860.73345 1.14755e-17
6862.20595 1.14678e-17
6863.67845 1.14601e-17
6865.14093 1.14524e-17
6866.61343 1.14447e-17
6868.08593 1.14370e-17
6869.55843 1.14292e-17
6871.02091 1.14215e-17
6872.49341 1.14138e-17
6873.96591 1.14061e-17
6875.43841 1.13984e-17
6876.90089 1.13907e-17
6878.37339 1.13830e-17
6879.84589 1.13753e-17
6881.31839 1.13676e-17
6882.78087 1.13598e-17
6884.25337 1.13521e-17
6885.72587 1.13444e-17
6887.19837 1.13367e-17
6888.66085 1.13290e-17
6890.13335 1.13213e-17
6891.60585 1.13136e-17
6893.07835 1.13059e-17
6894.54083 1.12982e-17
6896.01333 1.12905e-17
6897.48583 1.12828e-17
6898.95833 1.12751e-17
6900.42081 1.12674e-17
6901.89331 1.12597e-17
6903.36580 1.12520e-17
6904.83830 1.12443e-17
6906.30079 1.12366e-17
6907.77329 1.12289e-17
6909.24578 1.12212e-17
6910.70827 1.12135e-17
6912.18077 1.12058e-17
6913.65326 1.11981e-17
6915.12576 1.11904e-17
6916.58825 1.11827e-17
6918.06074 1.11750e-17
6919.53324 1.11673e-17
6921.00574 1.11596e-17
6922.47824 1.11519e-17
6923.94072 1.11442e-17
6925.41322 1.11365e-17
6926.88572 1.11288e-17
6928.34820 1.11211e-17
6929.82070 1.11134e-17
6931.29320 1.11057e-17
6932.76570 1.10980e-17
6934.22818 1.10903e-17
6935.70068 1.10826e-17
6937.17318 1.12044e-17
6938.64568 1.14126e-17
6940.10816 1.14684e-17
6941.58066 1.14130e-17
6943.05316 1.13108e-17
6944.52566 1.14080e-17
6945.98814 1.15113e-17
6947.46064 1.16960e-17
6948.93314 1.16726e-17
6950.40564 1.14435e-17
6951.86812 1.16111e-17
6953.34062 1.18778e-17
6954.81312 1.18706e-17
6956.28562 1.18639e-17
6957.74810 1.17249e-17
6959.22060 1.16451e-17
6960.69310 1.17946e-17
6962.16560 1.17657e-17
6963.62808 1.15876e-17
6965.10058 1.15503e-17
6966.57308 1.16117e-17
6968.04557 1.18071e-17
6969.50806 1.19411e-17
6970.98056 1.17977e-17
6972.45305 1.16774e-17
6973.92555 1.15967e-17
6975.38804 1.16172e-17
6976.86053 1.15709e-17
6978.33303 1.13971e-17
6979.80553 1.14966e-17
6981.26801 1.14524e-17
6982.74051 1.15961e-17
6984.21301 1.15279e-17
6985.68551 1.14412e-17
6987.14799 1.12656e-17
6988.62049 1.10527e-17
6990.09299 1.07811e-17
6991.56549 1.07379e-17
6993.02797 1.06623e-17
6994.50047 1.06693e-17
6995.97297 1.05948e-17
6997.43545 1.05646e-17
6998.90795 1.02473e-17
7000.38045 1.00320e-17
7001.85295 1.01654e-17
7003.32545 1.02562e-17
7004.78793 1.00599e-17
7006.26043 9.99983e-18
7007.73293 1.00336e-17
7009.20543 1.00307e-17
7010.66791 9.98550e-18
7012.14041 1.00767e-17
7013.61291 1.01678e-17
7015.07539 1.02589e-17
7016.54789 1.03501e-17
7018.02039 1.04412e-17
7019.49289 1.05323e-17
7020.95537 1.06235e-17
7022.42787 1.07146e-17
7023.90037 1.07142e-17
7025.37287 1.04969e-17
7026.83535 1.03465e-17
7028.30785 1.05172e-17
7029.78035 1.06592e-17
7031.25284 1.09126e-17
7032.71533 1.10705e-17
7034.18782 1.08872e-17
7035.66032 1.07943e-17
7037.13282 1.07664e-17
7038.59530 1.08413e-17
7040.06780 1.07644e-17
7041.54030 1.10542e-17
7043.01280 1.14082e-17
7044.47528 1.13011e-17
7045.94778 1.11189e-17
7047.42028 1.10878e-17
7048.89278 1.14570e-17
7050.35526 1.15318e-17
7051.82776 1.11933e-17
7053.30026 1.11081e-17
7054.77276 1.12732e-17
7056.23524 1.13023e-17
7057.70774 1.13565e-17
7059.18024 1.14335e-17
7060.65274 1.12000e-17
7062.11522 1.12153e-17
7063.58772 1.14556e-17
7065.06022 1.13657e-17
7066.53272 1.13676e-17
7067.99520 1.15452e-17
7069.46770 1.16627e-17
7070.94020 1.15363e-17
7072.41270 1.13733e-17
7073.87518 1.14187e-17
7075.34768 1.15498e-17
7076.82018 1.14445e-17
7078.29268 1.15532e-17
7079.75516 1.17683e-17
7081.22766 1.14977e-17
7082.70016 1.13009e-17
7084.17266 1.16014e-17
7085.63514 1.16179e-17
7087.10764 1.13562e-17
7088.58014 1.13419e-17
7090.05263 1.14071e-17
7091.51512 1.11880e-17
7092.98762 1.12410e-17
7094.46011 1.12614e-17
7095.93261 1.11117e-17
7097.39510 1.11219e-17
7098.86759 1.12515e-17
7100.34009 1.11473e-17
7101.80258 1.09767e-17
7103.27507 1.10451e-17
7104.74757 1.10977e-17
7106.22007 1.09069e-17
7107.68255 1.08936e-17
7109.15505 1.11297e-17
7110.62755 1.12396e-17
7112.10005 1.12498e-17
7113.56253 1.13277e-17
7115.03503 1.11071e-17
7116.50753 1.08371e-17
7117.98003 1.09159e-17
7119.44251 1.09227e-17
7120.91501 1.08915e-17
7122.38751 1.08637e-17
7123.86001 1.07169e-17
7125.32249 1.08020e-17
7126.79499 1.08700e-17
7128.26749 1.07053e-17
7129.73999 1.06921e-17
7131.20247 1.09846e-17
7132.67497 1.11052e-17
7134.14747 1.09615e-17
7135.61997 1.10330e-17
7137.08245 1.11721e-17
7138.55495 1.12136e-17
7140.02745 1.12879e-17
7141.49995 1.14301e-17
7142.96243 1.16343e-17
7144.43493 1.16075e-17
7145.90743 1.14750e-17
7147.37993 1.14988e-17
7148.84241 1.15969e-17
7150.31491 1.17084e-17
7151.78741 1.16883e-17
7153.25990 1.17155e-17
7154.72239 1.18213e-17
7156.19489 1.18193e-17
7157.66738 1.18514e-17
7159.13988 1.19124e-17
7160.60236 1.17656e-17
7162.07486 1.16260e-17
7163.54736 1.18697e-17
7165.01986 1.19970e-17
7166.48234 1.18120e-17
7167.95484 1.18005e-17
7169.42734 1.18691e-17
7170.89984 1.19560e-17
7172.36232 1.21115e-17
7173.83482 1.21377e-17
7175.30732 1.22013e-17
7176.77982 1.23420e-17
7178.24230 1.21053e-17
7179.71480 1.19667e-17
7181.18730 1.23012e-17
7182.65980 1.24246e-17
7184.12228 1.23271e-17
7185.59478 1.22189e-17
7187.06728 1.19948e-17
7188.52976 1.17834e-17
7190.00226 1.19104e-17
7191.47476 1.21907e-17
7192.94726 1.20369e-17
7194.41976 1.16716e-17
7195.88224 1.16240e-17
7197.35474 1.17678e-17
7198.82724 1.18217e-17
7200.28972 1.17547e-17
7201.76222 1.17388e-17
7203.23472 1.17316e-17
7204.70722 1.16138e-17
7206.16970 1.15869e-17
7207.64220 1.15786e-17
7209.11470 1.16859e-17
7210.58720 1.18730e-17
7212.04968 1.18586e-17
7213.52218 1.17720e-17
7214.99467 1.18931e-17
7216.46717 1.20132e-17
7217.92966 1.16788e-17
7219.40215 1.15556e-17
7220.87465 1.18764e-17
7222.34715 1.20060e-17
7223.80964 1.18684e-17
7225.28213 1.17953e-17
7226.75463 1.18619e-17
7228.22713 1.18778e-17
7229.68961 1.17965e-17
7231.16211 1.18586e-17
7232.63461 1.19805e-17
7234.10711 1.18190e-17
7235.56959 1.17171e-17
7237.04209 1.17624e-17
7238.51459 1.20264e-17
7239.98709 1.21587e-17
7241.44957 1.19852e-17
7242.92207 1.18417e-17
7244.39457 1.18589e-17
7245.86707 1.20456e-17
7247.32955 1.22815e-17
7248.80205 1.21126e-17
7250.27455 1.21986e-17
7251.74705 1.25048e-17
7253.20953 1.24203e-17
7254.68203 1.22139e-17
7256.15453 1.23333e-17
7257.62703 1.25744e-17
7259.08951 1.25303e-17
7260.56201 1.22949e-17
7262.03451 1.20654e-17
7263.50701 1.20438e-17
7264.96949 1.23025e-17
7266.44199 1.24410e-17
7267.91449 1.25133e-17
7269.38699 1.27630e-17
7270.84947 1.27410e-17
7272.32197 1.25611e-17
7273.79446 1.24545e-17
7275.26696 1.24620e-17
7276.72945 1.27848e-17
7278.20195 1.27542e-17
7279.67444 1.25762e-17
7281.14694 1.28385e-17
7282.60943 1.31854e-17
7284.08192 1.31879e-17
7285.55442 1.30275e-17
7287.02692 1.30449e-17
7288.48940 1.29145e-17
7289.96190 1.27768e-17
7291.43440 1.28286e-17
7292.89688 1.28470e-17
7294.36938 1.29592e-17
7295.84188 1.30313e-17
7297.31438 1.30020e-17
7298.78688 1.29714e-17
7300.24936 1.28360e-17
7301.72186 1.28003e-17
7303.19436 1.26866e-17
7304.65684 1.24747e-17
7306.12934 1.24958e-17
7307.60184 1.24232e-17
7309.07434 1.24007e-17
7310.53682 1.25721e-17
7312.00932 1.24572e-17
7313.48182 1.25461e-17
7314.95432 1.27603e-17
7316.41680 1.26368e-17
7317.88930 1.25771e-17
7319.36180 1.24314e-17
7320.83430 1.24252e-17
7322.29678 1.25285e-17
7323.76928 1.26677e-17
7325.24178 1.26885e-17
7326.71428 1.25243e-17
7328.17676 1.23427e-17
7329.64926 1.23978e-17
7331.12176 1.26831e-17
7332.59425 1.26325e-17
7334.05674 1.23894e-17
7335.52924 1.22294e-17
7337.00174 1.22121e-17
7338.47423 1.23263e-17
7339.93672 1.23200e-17
7341.40921 1.21757e-17
7342.88171 1.18814e-17
7344.35421 1.17605e-17
7345.81670 1.18305e-17
7347.28919 1.19819e-17
7348.76169 1.18815e-17
7350.23419 1.15711e-17
7351.69667 1.14525e-17
7353.16917 1.16372e-17
7354.64167 1.16174e-17
7356.11417 1.13619e-17
7357.57665 1.12058e-17
7359.04915 1.12433e-17
7360.52165 1.14112e-17
7361.99415 1.14507e-17
7363.45663 1.15127e-17
7364.92913 1.15421e-17
7366.40163 1.12497e-17
7367.87413 1.12170e-17
7369.33661 1.12713e-17
7370.80911 1.11336e-17
7372.28161 1.12114e-17
7373.75411 1.14708e-17
7375.21659 1.15832e-17
7376.68909 1.15415e-17
7378.16159 1.16441e-17
7379.63409 1.16702e-17
7381.09657 1.16099e-17
7382.56907 1.15560e-17
7384.04157 1.14778e-17
7385.51407 1.15609e-17
7386.97655 1.14604e-17
7388.44905 1.14277e-17
7389.92155 1.16916e-17
7391.38403 1.17314e-17
7392.85653 1.17424e-17
7394.32903 1.19239e-17
7395.80152 1.20205e-17
7397.26401 1.21817e-17
7398.73651 1.21117e-17
7400.20900 1.19865e-17
7401.68150 1.18390e-17
7403.14399 1.16138e-17
7404.61649 1.16092e-17
7406.08898 1.16773e-17
7407.56148 1.17024e-17
7409.02397 1.15721e-17
7410.49646 1.13576e-17
7411.96896 1.12856e-17
7413.44146 1.14133e-17
7414.90394 1.15122e-17
7416.37644 1.14926e-17
7417.84894 1.15498e-17
7419.32144 1.14997e-17
7420.09275 1.14997e-17
7420.95421 1.15008e-17
7421.82569 1.14985e-17
7422.68715 1.14962e-17
7423.54861 1.14962e-17
7424.41008 1.14962e-17
7425.27154 1.15019e-17
7426.13300 1.15076e-17
7426.99446 1.15177e-17
7427.85592 1.15276e-17
7428.71739 1.15395e-17
7429.57885 1.15514e-17
7430.44031 1.15593e-17
7431.31179 1.15672e-17
7432.17325 1.15668e-17
7433.03471 1.15663e-17
7433.89618 1.15621e-17
7434.75764 1.15578e-17
7435.61910 1.15546e-17
7436.48056 1.15515e-17
7437.34202 1.15506e-17
7438.20349 1.15497e-17
7439.06495 1.15515e-17
7439.92641 1.15533e-17
7440.79789 1.15575e-17
7441.65935 1.15618e-17
7442.52081 1.15673e-17
7443.38227 1.15729e-17
7444.24374 1.15796e-17
7445.10520 1.15862e-17
7445.96666 1.15944e-17
7446.82812 1.16028e-17
7447.68959 1.16079e-17
7448.55105 1.16129e-17
7449.41251 1.16067e-17
7450.28399 1.16004e-17
7451.14545 1.15848e-17
7452.00691 1.15692e-17
7452.86837 1.15548e-17
7453.72984 1.15403e-17
7454.59130 1.15308e-17
7455.45276 1.15214e-17
7456.31422 1.15125e-17
7457.17568 1.15037e-17
7458.03715 1.14934e-17
7458.89861 1.14832e-17
7459.77009 1.14714e-17
7460.63155 1.14596e-17
7461.49301 1.14487e-17
7462.35447 1.14378e-17
7463.21594 1.14381e-17
7464.07740 1.14385e-17
7464.93886 1.14561e-17
7465.80032 1.14738e-17
7466.66178 1.15001e-17
7467.52325 1.15264e-17
7468.38471 1.15517e-17
7469.25619 1.15769e-17
7470.11765 1.15916e-17
7470.97911 1.16063e-17
7471.84057 1.16027e-17
7472.70203 1.15990e-17
7473.56350 1.15862e-17
7474.42496 1.15735e-17
7475.28642 1.15647e-17
7476.14788 1.15560e-17
7477.00934 1.15518e-17
7477.87081 1.15478e-17
7478.73227 1.15449e-17
7479.60375 1.15421e-17
7480.46521 1.15378e-17
7481.32667 1.15334e-17
7482.18813 1.15240e-17
7483.04960 1.15147e-17
7483.91106 1.15017e-17
7484.77252 1.14886e-17
7485.63398 1.14771e-17
7486.49544 1.14655e-17
7487.35690 1.14562e-17
7488.21837 1.14468e-17
7489.08985 1.14361e-17
7489.95131 1.14254e-17
7490.81277 1.14119e-17
7491.67423 1.13985e-17
7492.53569 1.13843e-17
7493.39716 1.13700e-17
7494.25862 1.13561e-17
7495.12008 1.13422e-17
7495.98154 1.13290e-17
7496.84300 1.13157e-17
7497.70447 1.13030e-17
7498.57595 1.12903e-17
7499.43741 1.12758e-17
7500.29887 1.12614e-17
7501.16033 1.12437e-17
7502.02179 1.12259e-17
7502.88325 1.12068e-17
7503.74472 1.11878e-17
7504.60618 1.11692e-17
7505.46764 1.11506e-17
7506.32910 1.11276e-17
7507.19056 1.11045e-17
7508.06204 1.10720e-17
7508.92351 1.10396e-17
7509.78497 1.09985e-17
7510.64643 1.09573e-17
7511.50789 1.09095e-17
7512.36935 1.08619e-17
7513.23082 1.08169e-17
7514.09228 1.07719e-17
7514.95374 1.07421e-17
7515.81520 1.07123e-17
7516.67666 1.06933e-17
7517.54814 1.06743e-17
7518.40960 1.06517e-17
7519.27107 1.06290e-17
7520.13253 1.05971e-17
7520.99399 1.05652e-17
7521.85545 1.05251e-17
7522.71691 1.04851e-17
7523.57838 1.04401e-17
7524.43984 1.03950e-17
7525.30130 1.03516e-17
7526.16276 1.03081e-17
7527.02423 1.02688e-17
7527.89570 1.02295e-17
7528.75717 1.01889e-17
7529.61863 1.01484e-17
7530.48009 1.01030e-17
7531.34155 1.00575e-17
7532.20301 1.00083e-17
7533.06448 9.95917e-18
7533.92594 9.90668e-18
7534.78740 9.85418e-18
7535.64886 9.79470e-18
7536.52034 9.73522e-18
7537.38180 9.66695e-18
7538.24327 9.59868e-18
7539.10473 9.52968e-18
7539.96619 9.46068e-18
7540.82765 9.39930e-18
7541.68911 9.33792e-18
7542.55058 9.28479e-18
7543.41204 9.23166e-18
7544.27350 9.18542e-18
7545.13496 9.13918e-18
7545.99642 9.09266e-18
7546.86790 9.04611e-18
7547.72936 8.99027e-18
7548.59083 8.93442e-18
7549.45229 8.86924e-18
7550.31375 8.80404e-18
7551.17521 8.73400e-18
7552.03667 8.66396e-18
7552.89814 8.59398e-18
7553.75960 8.52402e-18
7554.62106 8.45949e-18
7555.48252 8.39498e-18
7556.35400 8.33709e-18
7557.21546 8.27921e-18
7558.07693 8.22440e-18
7558.93839 8.16960e-18
7559.79985 8.11484e-18
7560.66131 8.06009e-18
7561.52277 8.00388e-18
7562.38424 7.94766e-18
7563.24570 7.88752e-18
7564.10716 7.82737e-18
7564.96862 7.75791e-18
7565.84010 7.68844e-18
7566.70156 7.60960e-18
7567.56302 7.53076e-18
7568.42449 7.45767e-18
7569.28595 7.38460e-18
7570.14741 7.32985e-18
7571.00887 7.27514e-18
7571.87033 7.24058e-18
7572.73180 7.20605e-18
7573.59326 7.18963e-18
7574.45472 7.17325e-18
7575.31618 7.15210e-18
7576.18766 7.13095e-18
7577.04912 7.07995e-18
7577.91059 7.02890e-18
7578.77205 6.96179e-18
7579.63351 6.89466e-18
7580.49497 6.83341e-18
7581.35643 6.77217e-18
7582.21790 6.71329e-18
7583.07936 6.65443e-18
7583.94082 6.58770e-18
7584.81230 6.52096e-18
7585.67376 6.40941e-18
7586.53522 6.29776e-18
7587.39668 6.09008e-18
7588.25815 5.88221e-18
7589.11961 5.58853e-18
7589.98107 5.29470e-18
7590.84253 4.97627e-18
7591.70399 4.65780e-18
7592.56546 4.37290e-18
7593.42692 4.08808e-18
7594.28838 3.89133e-18
7595.15986 3.69477e-18
7596.02132 3.61342e-18
7596.88278 3.53230e-18
7597.74425 3.53999e-18
7598.60571 3.54786e-18
7599.46717 3.62552e-18
7600.32863 3.70333e-18
7601.19009 3.86540e-18
7602.05156 4.02763e-18
7602.91302 4.27451e-18
7603.77448 4.52153e-18
7604.64596 4.82129e-18
7605.50742 5.12114e-18
7606.36888 5.43566e-18
7607.23034 5.75019e-18
7608.09181 6.04073e-18
7608.95327 6.33121e-18
7609.81473 6.55904e-18
7610.67619 6.78673e-18
7611.53765 6.89767e-18
7612.39912 7.00836e-18
7613.26058 6.95883e-18
7614.13206 6.90898e-18
7614.99352 6.70136e-18
7615.85498 6.49343e-18
7616.71644 6.15223e-18
7617.57791 5.81077e-18
7618.43937 5.43786e-18
7619.30083 5.06491e-18
7620.16229 4.79758e-18
7621.02375 4.53047e-18
7621.88522 4.42067e-18
7622.74668 4.31119e-18
7623.61816 4.34802e-18
7624.47962 4.38513e-18
7625.34108 4.52145e-18
7626.20254 4.65797e-18
7627.06400 4.80716e-18
7627.92547 4.95637e-18
7628.78693 5.07029e-18
7629.64839 5.18412e-18
7630.50985 5.28095e-18
7631.37131 5.37774e-18
7632.23278 5.46931e-18
7633.10426 5.56085e-18
7633.96572 5.64668e-18
7634.82718 5.73250e-18
7635.68864 5.81259e-18
7636.55010 5.89268e-18
7637.41157 5.95128e-18
7638.27303 6.00983e-18
7639.13449 6.03895e-18
7639.99595 6.06802e-18
7640.85741 6.09537e-18
7641.71888 6.12270e-18
7642.59035 6.17571e-18
7643.45182 6.22876e-18
7644.31328 6.31916e-18
7645.17474 6.40962e-18
7646.03620 6.54237e-18
7646.89766 6.67521e-18
7647.75913 6.81451e-18
7648.62059 6.95381e-18
7649.48205 7.05448e-18
7650.34351 7.15507e-18
7651.20497 7.20749e-18
7652.06644 7.25982e-18
7652.93792 7.26902e-18
7653.79938 7.27812e-18
7654.66084 7.27873e-18
7655.52230 7.27933e-18
7656.38376 7.32486e-18
7657.24523 7.37048e-18
7658.10669 7.46958e-18
7658.96815 7.56879e-18
7659.82961 7.69208e-18
7660.69107 7.81541e-18
7661.55254 7.93793e-18
7662.42401 8.06044e-18
7663.28548 8.15955e-18
7664.14694 8.25861e-18
7665.00840 8.33296e-18
7665.86986 8.40726e-18
7666.73132 8.49978e-18
7667.59279 8.59233e-18
7668.45425 8.72295e-18
7669.31571 8.85363e-18
7670.17717 8.98163e-18
7671.03863 9.10962e-18
7671.91011 9.20219e-18
7672.77158 9.29467e-18
7673.63304 9.34581e-18
7674.49450 9.39676e-18
7675.35596 9.40873e-18
7676.21742 9.42061e-18
7677.07889 9.44182e-18
7677.94035 9.46295e-18
7678.80181 9.54174e-18
7679.66327 9.62071e-18
7680.52473 9.72860e-18
7681.38620 9.83650e-18
7682.25767 9.92834e-18
7683.11914 1.00203e-17
7683.98060 1.00960e-17
7684.84206 1.01717e-17
7685.70352 1.02440e-17
7686.56498 1.03162e-17
7687.42645 1.03880e-17
7688.28791 1.04597e-17
7689.14937 1.05321e-17
7690.01083 1.06045e-17
7690.88231 1.06705e-17
7691.74377 1.07365e-17
7692.60524 1.07822e-17
7693.46670 1.08279e-17
7694.32816 1.08568e-17
7695.18962 1.08856e-17
7696.05108 1.09189e-17
7696.91255 1.09522e-17
7697.77401 1.09979e-17
7698.63547 1.10436e-17
7699.49693 1.10911e-17
7700.35839 1.11384e-17
7701.22987 1.11784e-17
7702.09133 1.12184e-17
7702.95280 1.12456e-17
7703.81426 1.12726e-17
7704.67572 1.12832e-17
7705.53718 1.12936e-17
7706.39864 1.12884e-17
7707.26011 1.12830e-17
7708.12157 1.12666e-17
7708.98303 1.12502e-17
7709.84449 1.12417e-17
7710.71597 1.12332e-17
7711.57743 1.12496e-17
7712.43890 1.12661e-17
7713.30036 1.13034e-17
7714.16182 1.13408e-17
7715.02328 1.13896e-17
7715.88474 1.14385e-17
7716.74620 1.14839e-17
7717.60767 1.15294e-17
7718.46913 1.15552e-17
7719.33059 1.15810e-17
7720.20207 1.15860e-17
7721.06353 1.15910e-17
7721.92499 1.15811e-17
7722.78646 1.15712e-17
7723.64792 1.15566e-17
7724.50938 1.15420e-17
7725.37084 1.15363e-17
7726.23230 1.15305e-17
7727.09377 1.15381e-17
7727.95523 1.15457e-17
7728.81669 1.15620e-17
7729.67815 1.15784e-17
7730.54963 1.16026e-17
7731.41109 1.16269e-17
7732.27255 1.16641e-17
7733.13402 1.17012e-17
7733.99548 1.17453e-17
7734.85694 1.17894e-17
7735.71840 1.18167e-17
7736.57986 1.18439e-17
7737.44133 1.18407e-17
7738.30279 1.18375e-17
7739.17427 1.18137e-17
7740.03573 1.17898e-17
7740.89719 1.17580e-17
7741.75865 1.17262e-17
7742.62012 1.17053e-17
7743.48158 1.16845e-17
7744.34304 1.16900e-17
7745.20450 1.16955e-17
7746.06596 1.17170e-17
7746.92743 1.17385e-17
7747.78889 1.17615e-17
7748.65035 1.17846e-17
7749.52183 1.18041e-17
7750.38329 1.18235e-17
7751.24475 1.18356e-17
7752.10621 1.18478e-17
7752.96768 1.18527e-17
7753.82914 1.18575e-17
7754.69060 1.18577e-17
7755.55206 1.18579e-17
7756.41352 1.18503e-17
7757.27499 1.18426e-17
7758.13645 1.18207e-17
7759.00793 1.17988e-17
7759.86939 1.17690e-17
7760.73085 1.17391e-17
7761.59231 1.17163e-17
7762.45378 1.16935e-17
7763.31524 1.16815e-17
7764.17670 1.16693e-17
7765.03816 1.16601e-17
7765.89962 1.16508e-17
7766.76109 1.16383e-17
7767.62255 1.16258e-17
7768.49403 1.16055e-17
7769.35549 1.15851e-17
7770.21695 1.15566e-17
7771.07841 1.15281e-17
7771.93988 1.15011e-17
7772.80134 1.14741e-17
7773.66280 1.14558e-17
7774.52426 1.14375e-17
7775.38572 1.14241e-17
7776.24719 1.14108e-17
7777.10865 1.13993e-17
7777.98013 1.13880e-17
7778.84159 1.13803e-17
7779.70305 1.13726e-17
7780.56451 1.13701e-17
7781.42597 1.13677e-17
7782.28744 1.13700e-17
7783.14890 1.13724e-17
7784.01036 1.13786e-17
7784.87182 1.13847e-17
7785.73328 1.13939e-17
7786.59475 1.14030e-17
7787.46623 1.14141e-17
7788.32769 1.14253e-17
7789.18915 1.14351e-17
7790.05061 1.14449e-17
7790.91207 1.14499e-17
7791.77354 1.14548e-17
7792.63500 1.14530e-17
7793.49646 1.14512e-17
7794.35792 1.14420e-17
7795.21938 1.14328e-17
7796.08085 1.14205e-17
7796.94231 1.14083e-17
7797.81379 1.14008e-17
7798.67525 1.13933e-17
7799.53671 1.13965e-17
7800.39817 1.13998e-17
7801.25963 1.14176e-17
7802.12110 1.14354e-17
7802.98256 1.14648e-17
7803.84402 1.14943e-17
7804.70548 1.15204e-17
7805.56694 1.15466e-17
7806.42841 1.15587e-17
7807.29989 1.15709e-17
7808.16135 1.15702e-17
7809.02281 1.15696e-17
7809.88427 1.15583e-17
7810.74573 1.15468e-17
7811.60720 1.15271e-17
7812.46866 1.15072e-17
7813.33012 1.14826e-17
7814.19158 1.14579e-17
7815.05304 1.14329e-17
7815.91450 1.14079e-17
7816.78598 1.13866e-17
7817.64745 1.13654e-17
7818.50891 1.13531e-17
7819.37037 1.13408e-17
7820.23183 1.13413e-17
7821.09329 1.13419e-17
7821.95476 1.13462e-17
7822.81622 1.13506e-17
7823.67768 1.13447e-17
7824.53914 1.13389e-17
7825.40060 1.13214e-17
7826.27208 1.13037e-17
7827.13355 1.12785e-17
7827.99501 1.12534e-17
7828.85647 1.12241e-17
7829.71793 1.11949e-17
7830.57939 1.11651e-17
7831.44085 1.11354e-17
7832.30232 1.11075e-17
7833.16378 1.10795e-17
7834.02524 1.10534e-17
7834.88670 1.10273e-17
7835.75818 1.10055e-17
7836.61964 1.09836e-17
7837.48111 1.09728e-17
7838.34257 1.09620e-17
7839.20403 1.09641e-17
7840.06549 1.09661e-17
7840.92695 1.09734e-17
7841.78842 1.09806e-17
7842.64988 1.09864e-17
7843.51134 1.09922e-17
7844.37280 1.09935e-17
7845.23426 1.09949e-17
7846.10574 1.09899e-17
7846.96720 1.09850e-17
7847.82867 1.09763e-17
7848.69013 1.09676e-17
7849.55159 1.09582e-17
7850.41305 1.09489e-17
7851.27452 1.09409e-17
7852.13598 1.09328e-17
7852.99744 1.09275e-17
7853.85890 1.09221e-17
7854.72036 1.09205e-17
7855.59184 1.09189e-17
7856.45330 1.09215e-17
7857.31477 1.09242e-17
7858.17623 1.09270e-17
7859.03769 1.09299e-17
7859.89915 1.09262e-17
7860.76061 1.09226e-17
7861.62208 1.09130e-17
7862.48354 1.09034e-17
7863.34500 1.08931e-17
7864.20646 1.08829e-17
7865.07794 1.08692e-17
7865.93940 1.08556e-17
7866.80087 1.08295e-17
7867.66233 1.08035e-17
7868.52379 1.07640e-17
7869.38525 1.07247e-17
7870.24671 1.06794e-17
7871.10818 1.06341e-17
7871.96964 1.05935e-17
7872.83110 1.05528e-17
7873.69256 1.05337e-17
7874.56404 1.05149e-17
7875.42550 1.05242e-17
7876.28696 1.05336e-17
7877.14843 1.05521e-17
7878.00989 1.05706e-17
7878.87135 1.05805e-17
7879.73281 1.05905e-17
7880.59427 1.05864e-17
7881.45574 1.05823e-17
7882.31720 1.05614e-17
7883.17866 1.05403e-17
7884.05014 1.05099e-17
7884.91160 1.04794e-17
7885.77306 1.04487e-17
7886.63453 1.04180e-17
7887.49599 1.03864e-17
7888.35745 1.03547e-17
7889.21891 1.03198e-17
7890.08037 1.02850e-17
7890.94184 1.02489e-17
7891.80330 1.02129e-17
7892.66476 1.01779e-17
7893.52622 1.01429e-17
7894.39770 1.01179e-17
7895.25916 1.00930e-17
7896.12062 1.00908e-17
7896.98209 1.00886e-17
7897.84355 1.01019e-17
7898.70501 1.01151e-17
7899.56647 1.01229e-17
7900.42793 1.01307e-17
7901.28940 1.01238e-17
7902.15086 1.01169e-17
7903.01232 1.00976e-17
7903.88380 1.00782e-17
7904.74526 1.00524e-17
7905.60672 1.00266e-17
7906.46819 1.00078e-17
7907.32965 9.98900e-18
7908.19111 9.98247e-18
7909.05257 9.97594e-18
7909.91403 9.96661e-18
7910.77550 9.95727e-18
7911.63696 9.93614e-18
7912.49842 9.91502e-18
7913.36990 9.89289e-18
7914.23136 9.87068e-18
7915.09282 9.85654e-18
7915.95428 9.84239e-18
7916.81575 9.83686e-18
7917.67721 9.83133e-18
7918.53867 9.83323e-18
7919.40013 9.83514e-18
7920.26159 9.83115e-18
7921.12306 9.82725e-18
7921.98452 9.80404e-18
7922.85600 9.78074e-18
7923.71746 9.74647e-18
7924.57892 9.71219e-18
7925.44038 9.68128e-18
7926.30185 9.65027e-18
7927.16331 9.63105e-18
7928.02477 9.61182e-18
7928.88623 9.60992e-18
7929.74769 9.60811e-18
7930.60916 9.62008e-18
7931.47062 9.63204e-18
7932.34210 9.64800e-18
7933.20356 9.66405e-18
7934.06502 9.67556e-18
7934.92648 9.68708e-18
7935.78794 9.68708e-18
7936.64941 9.68717e-18
7937.51087 9.67212e-18
7938.37233 9.65698e-18
7939.23379 9.62760e-18
7940.09525 9.59813e-18
7940.95672 9.55869e-18
7941.81818 9.51925e-18
7942.68966 9.47963e-18
7943.55112 9.44001e-18
7944.41258 9.40791e-18
7945.27404 9.37582e-18
7946.13551 9.35261e-18
7946.99697 9.32940e-18
7947.85843 9.31498e-18
7948.71989 9.30047e-18
7949.58135 9.29213e-18
7950.44282 9.28379e-18
7951.30428 9.27781e-18
7952.17576 9.27182e-18
7953.03722 9.26022e-18
7953.89868 9.24861e-18
7954.76014 9.22449e-18
7955.62160 9.20038e-18
7956.48307 9.17381e-18
7957.34453 9.14715e-18
7958.20599 9.13120e-18
7959.06745 9.11533e-18
7959.92891 9.11098e-18
7960.79038 9.10663e-18
7961.66186 9.11107e-18
7962.52332 9.11542e-18
7963.38478 9.12168e-18
7964.24624 9.12793e-18
7965.10770 9.12603e-18
7965.96917 9.12403e-18
7966.83063 9.11968e-18
7967.69209 9.11524e-18
7968.55355 9.12494e-18
7969.41501 9.13473e-18
7970.27648 9.16239e-18
7971.14795 9.19013e-18
7972.00942 9.22740e-18
7972.87088 9.26466e-18
7973.73234 9.30029e-18
7974.59380 9.33601e-18
7975.45526 9.35379e-18
7976.31673 9.37156e-18
7977.17819 9.36448e-18
7978.03965 9.35741e-18
7978.90111 9.33883e-18
7979.76257 9.32024e-18
7980.63405 9.30174e-18
7981.49552 9.28334e-18
7982.35698 9.26783e-18
7983.21844 9.25233e-18
7984.07990 9.24163e-18
7984.94136 9.23093e-18
7985.80283 9.22114e-18
7986.66429 9.21144e-18
7987.52575 9.19847e-18
7988.38721 9.18542e-18
7989.24867 9.17091e-18
7990.11014 9.15640e-18
7990.98161 9.14253e-18
7991.84308 9.12866e-18
7992.70454 9.11968e-18
7993.56600 9.11071e-18
7994.42746 9.11152e-18
7995.28892 9.11243e-18
7996.15039 9.11334e-18
7997.01185 9.11424e-18
7997.87331 9.09974e-18
7998.73477 9.08523e-18
7999.59623 9.05719e-18
8000.46771 9.02914e-18
8001.32917 8.99929e-18
8002.19064 8.96944e-18
8003.05210 8.94663e-18
8003.91356 8.92383e-18
8004.77502 8.91561e-18
8005.63649 8.90743e-18
8006.49795 8.91186e-18
8007.35941 8.91632e-18
8008.22087 8.91798e-18
8009.08233 8.91962e-18
8009.95381 8.91343e-18
8010.81527 8.90724e-18
8011.67674 8.90800e-18
8012.53820 8.90877e-18
8013.39966 8.92366e-18
8014.26112 8.93857e-18
8015.12258 8.95718e-18
8015.98405 8.97579e-18
8016.84551 8.98821e-18
8017.70697 9.00062e-18
8018.56843 8.99677e-18
8019.43991 8.99290e-18
8020.30137 8.96661e-18
8021.16284 8.94028e-18
8022.02430 8.90821e-18
8022.88576 8.87612e-18
8023.74722 8.85668e-18
8024.60868 8.83728e-18
8025.47015 8.82993e-18
8026.33161 8.82261e-18
8027.19307 8.82245e-18
8028.05453 8.82229e-18
8028.92601 8.82325e-18
8029.78747 8.82422e-18
8030.64893 8.81927e-18
8031.51040 8.81432e-18
8032.37186 8.80417e-18
8033.23332 8.79401e-18
8034.09478 8.78357e-18
8034.95624 8.77313e-18
8035.81771 8.76555e-18
8036.67917 8.75797e-18
8037.54063 8.75512e-18
8038.41211 8.75228e-18
8039.27357 8.75486e-18
8040.13503 8.75745e-18
8040.99650 8.76463e-18
8041.85796 8.77181e-18
8042.71942 8.78119e-18
8043.58088 8.79058e-18
8044.44234 8.79796e-18
8045.30380 8.80533e-18
8046.16527 8.80752e-18
8047.02673 8.80968e-18
8047.88819 8.80519e-18
8048.75967 8.80069e-18
8049.62113 8.79031e-18
8050.48259 8.77992e-18
8051.34406 8.77132e-18
8052.20552 8.76273e-18
8053.06698 8.76165e-18
8053.92844 8.76059e-18
8054.78990 8.76266e-18
8055.65137 8.76475e-18
8056.51283 8.76451e-18
8057.37429 8.76427e-18
8058.24577 8.75517e-18
8059.10723 8.74605e-18
8059.96869 8.72253e-18
8060.83015 8.69899e-18
8061.69162 8.66558e-18
8062.55308 8.63214e-18
8063.41454 8.59653e-18
8064.27600 8.56093e-18
8065.13746 8.53189e-18
8065.99893 8.50285e-18
8066.86039 8.48894e-18
8067.73187 8.47506e-18
8068.59333 8.47676e-18
8069.45479 8.47849e-18
8070.31625 8.49122e-18
8071.17772 8.50398e-18
8072.03918 8.51861e-18
8072.90064 8.53325e-18
8073.76210 8.53675e-18
8074.62356 8.54021e-18
8075.48503 8.52776e-18
8076.34649 8.51528e-18
8077.21797 8.49310e-18
8078.07943 8.47090e-18
8078.94089 8.44289e-18
8079.80235 8.41485e-18
8080.66381 8.38026e-18
8081.52528 8.34566e-18
8082.38674 8.30504e-18
8083.24820 8.26439e-18
8084.10966 8.21945e-18
8084.97113 8.17449e-18
8085.83259 8.12726e-18
8086.70407 8.08000e-18
8087.56553 8.03345e-18
8088.42699 7.98691e-18
8089.28845 7.94387e-18
8090.14991 7.90084e-18
8091.01138 7.86385e-18
8091.87284 7.82688e-18
8092.73430 7.79728e-18
8093.59576 7.76771e-18
8094.45722 7.74494e-18
8095.31869 7.72220e-18
8096.18015 7.70444e-18
8097.05163 7.68670e-18
8097.91309 7.66405e-18
8098.77455 7.64141e-18
8099.63601 7.60216e-18
8100.49748 7.56286e-18
8101.35894 7.50329e-18
8102.22040 7.44367e-18
8103.08186 7.36454e-18
8103.94332 7.28536e-18
8104.80479 7.19626e-18
8105.67626 7.10713e-18
8106.53773 7.02359e-18
8107.39919 6.94007e-18
8108.26065 6.87179e-18
8109.12211 6.80354e-18
8109.98357 6.75381e-18
8110.84504 6.70411e-18
8111.70650 6.66857e-18
8112.56796 6.63305e-18
8113.42942 6.59646e-18
8114.29088 6.55986e-18
8115.15235 6.50991e-18
8116.02383 6.45993e-18
8116.88529 6.39138e-18
8117.74675 6.32279e-18
8118.60821 6.23466e-18
8119.46967 6.14648e-18
8120.33114 6.05148e-18
8121.19260 5.95648e-18
8122.05406 5.86478e-18
8122.91552 5.77310e-18
8123.77698 5.67336e-18
8124.63845 5.57361e-18
8125.49991 5.45532e-18
8126.37139 5.33698e-18
8127.23285 5.20576e-18
8128.09431 5.07452e-18
8128.95577 4.93868e-18
8129.81723 4.80283e-18
8130.67870 4.67826e-18
8131.54016 4.55372e-18
8132.40162 4.45753e-18
8133.26308 4.36142e-18
8134.12454 4.28443e-18
8134.99602 4.20749e-18
8135.85749 4.12912e-18
8136.71895 4.05074e-18
8137.58041 3.96319e-18
8138.44187 3.87561e-18
8139.30333 3.77858e-18
8140.16480 3.68152e-18
8141.02626 3.57749e-18
8141.88772 3.47344e-18
8142.74918 3.36820e-18
8143.61064 3.26295e-18
8144.47210 3.16224e-18
8145.34358 3.06155e-18
8146.20505 2.96995e-18
8147.06651 2.87839e-18
8147.92797 2.79914e-18
8148.78943 2.71993e-18
8149.65089 2.65404e-18
8150.51236 2.58820e-18
8151.37382 2.53404e-18
8152.23528 2.47992e-18
8153.09674 2.43036e-18
8153.95820 2.38082e-18
8154.82968 2.33009e-18
8155.69115 2.27936e-18
8156.55261 2.22800e-18
8157.41407 2.17663e-18
8158.27553 2.12639e-18
8159.13699 2.07616e-18
8159.99845 2.03133e-18
8160.85992 1.98650e-18
8161.72138 1.95127e-18
8162.58284 1.91605e-18
8163.44430 1.89169e-18
8164.31578 1.86736e-18
8165.17724 1.85365e-18
8166.03871 1.83996e-18
8166.90017 1.83037e-18
8167.76163 1.82080e-18
8168.62309 1.80742e-18
8169.48455 1.79403e-18
8170.34602 1.77025e-18
8171.20748 1.74645e-18
8172.06894 1.70601e-18
8172.93040 1.66551e-18
8173.80188 1.61908e-18
8174.66334 1.57264e-18
8175.52481 1.54331e-18
8176.38627 1.51403e-18
8177.24773 1.50693e-18
8178.10919 1.49988e-18
8178.97065 1.50164e-18
8179.83212 1.50342e-18
8180.69358 1.50384e-18
8181.55504 1.50427e-18
8182.41650 1.49695e-18
8183.28798 1.48963e-18
8184.14944 1.47224e-18
8185.01090 1.45483e-18
8185.87237 1.43600e-18
8186.73383 1.41716e-18
8187.59529 1.40306e-18
8188.45675 1.38896e-18
8189.31821 1.37482e-18
8190.17968 1.36068e-18
8191.04114 1.34317e-18
8191.90260 1.32565e-18
8192.77408 1.30883e-18
8193.63554 1.29201e-18
8194.49700 1.28001e-18
8195.35846 1.26801e-18
8196.21993 1.26450e-18
8197.08139 1.26101e-18
8197.94285 1.26878e-18
8198.80431 1.27657e-18
8199.66577 1.28895e-18
8200.52724 1.30135e-18
8201.38870 1.30904e-18
8202.25016 1.31672e-18
8203.12164 1.31789e-18
8203.98310 1.31906e-18
8204.84456 1.31525e-18
8205.70603 1.31142e-18
8206.56749 1.30338e-18
8207.42895 1.29532e-18
8208.29041 1.28370e-18
8209.15187 1.27206e-18
8210.01334 1.25874e-18
8210.87480 1.24542e-18
8211.73626 1.23287e-18
8212.60774 1.22032e-18
8213.46920 1.20957e-18
8214.33066 1.19882e-18
8215.19212 1.18969e-18
8216.05359 1.18057e-18
8216.91505 1.17017e-18
8217.77651 1.15977e-18
8218.63797 1.14007e-18
8219.49943 1.12034e-18
8220.36090 1.08825e-18
8221.22236 1.05614e-18
8222.08382 1.01989e-18
8222.95530 9.83632e-19
8223.81676 9.52397e-19
8224.67822 9.21171e-19
8225.53969 9.06448e-19
8226.40115 8.91767e-19
8227.26261 9.01858e-19
8228.12407 9.12005e-19
8228.98553 9.39178e-19
8229.84700 9.66387e-19
8230.70846 9.99897e-19
8231.57994 1.03343e-18
8232.44140 1.06284e-18
8233.30286 1.09225e-18
8234.16432 1.10787e-18
8235.02578 1.12347e-18
8235.88725 1.12852e-18
8236.74871 1.13353e-18
8237.61017 1.13609e-18
8238.47163 1.13865e-18
8239.33309 1.14435e-18
8240.19456 1.15006e-18
8241.06604 1.16361e-18
8241.92750 1.17717e-18
8242.78896 1.19581e-18
8243.65042 1.21446e-18
8244.51188 1.22973e-18
8245.37335 1.24500e-18
8246.23481 1.25274e-18
8247.09627 1.26047e-18
8247.95773 1.26115e-18
8248.81919 1.26181e-18
8249.68066 1.25712e-18
8250.54212 1.25242e-18
8251.41360 1.24613e-18
8252.27506 1.23983e-18
8253.13652 1.23544e-18
8253.99798 1.23106e-18
8254.85945 1.23071e-18
8255.72091 1.23037e-18
8256.58237 1.23526e-18
8257.44383 1.24017e-18
8258.30529 1.24946e-18
8259.16676 1.25876e-18
8260.02822 1.27068e-18
8260.89970 1.28260e-18
8261.76116 1.29383e-18
8262.62262 1.30507e-18
8263.48408 1.31239e-18
8264.34554 1.31970e-18
8265.20701 1.32018e-18
8266.06847 1.32064e-18
8266.92993 1.31236e-18
8267.79139 1.30407e-18
8268.65285 1.29144e-18
8269.52433 1.27879e-18
8270.38580 1.26792e-18
8271.24726 1.25706e-18
8272.10872 1.25205e-18
8272.97018 1.24707e-18
8273.83164 1.25111e-18
8274.69311 1.25517e-18
8275.55457 1.26509e-18
8276.41603 1.27501e-18
8277.27749 1.28364e-18
8278.13895 1.29226e-18
8279.01043 1.29669e-18
8279.87189 1.30110e-18
8280.73336 1.30201e-18
8281.59482 1.30291e-18
8282.45628 1.30246e-18
8283.31774 1.30201e-18
8284.17920 1.30473e-18
8285.04067 1.30746e-18
8285.90213 1.31507e-18
8286.76359 1.32268e-18
8287.62505 1.33109e-18
8288.48651 1.33949e-18
8289.34798 1.34652e-18
8290.21946 1.35354e-18
8291.08092 1.36245e-18
8291.94238 1.37136e-18
8292.80384 1.38403e-18
8293.66530 1.39669e-18
8294.52677 1.40981e-18
8295.38823 1.42292e-18
8296.24969 1.43342e-18
8297.11115 1.44392e-18
8297.97261 1.44983e-18
8298.83408 1.45574e-18
8299.70555 1.45589e-18
8300.56702 1.45603e-18
8301.42848 1.45738e-18
8302.28994 1.45873e-18
8303.15140 1.46951e-18
8304.01286 1.48031e-18
8304.87433 1.49735e-18
8305.73579 1.51440e-18
8306.59725 1.53085e-18
8307.45871 1.54729e-18
8308.32017 1.55899e-18
8309.18164 1.57067e-18
8310.05312 1.57457e-18
8310.91458 1.57845e-18
8311.77604 1.57779e-18
8312.63750 1.57712e-18
8313.49896 1.57978e-18
8314.36043 1.58244e-18
8315.22189 1.59282e-18
8316.08335 1.60323e-18
8316.94481 1.62222e-18
8317.80627 1.64124e-18
8318.67775 1.66661e-18
8319.53921 1.69200e-18
8320.40068 1.71668e-18
8321.26214 1.74136e-18
8322.12360 1.76030e-18
8322.98506 1.77922e-18
8323.84652 1.79235e-18
8324.70799 1.80547e-18
8325.56945 1.81345e-18
8326.43091 1.82143e-18
8327.29237 1.82622e-18
8328.16385 1.83102e-18
8329.02531 1.83509e-18
8329.88678 1.83915e-18
8330.74824 1.84388e-18
8331.60970 1.84863e-18
8332.47116 1.85542e-18
8333.33262 1.86222e-18
8334.19408 1.87447e-18
8335.05555 1.88675e-18
8335.91701 1.90731e-18
8336.77847 1.92790e-18
8337.64995 1.95455e-18
8338.51141 1.98121e-18
8339.37287 2.01015e-18
8340.23434 2.03910e-18
8341.09580 2.06511e-18
8341.95726 2.09112e-18
8342.81872 2.10855e-18
8343.68018 2.12597e-18
8344.54165 2.13495e-18
8345.40311 2.14391e-18
8346.26457 2.14840e-18
8347.12603 2.15287e-18
8347.99751 2.15608e-18
8348.85897 2.15930e-18
8349.72043 2.16364e-18
8350.58190 2.16798e-18
8351.44336 2.17626e-18
8352.30482 2.18455e-18
8353.16628 2.19971e-18
8354.02775 2.21488e-18
8354.88921 2.23728e-18
8355.75067 2.25969e-18
8356.62215 2.28566e-18
8357.48361 2.31165e-18
8358.34507 2.33754e-18
8359.20653 2.36343e-18
8360.06800 2.38608e-18
8360.92946 2.40871e-18
8361.79092 2.42619e-18
8362.65238 2.44367e-18
8363.51384 2.45929e-18
8364.37531 2.47490e-18
8365.23677 2.49189e-18
8366.10825 2.50889e-18
8366.96971 2.52514e-18
8367.83117 2.54139e-18
8368.69263 2.55466e-18
8369.55410 2.56793e-18
8370.41556 2.58039e-18
8371.27702 2.59286e-18
8372.13848 2.60749e-18
8372.99994 2.62213e-18
8373.86140 2.64055e-18
8374.72287 2.65899e-18
8375.59435 2.68226e-18
8376.45581 2.70554e-18
8377.31727 2.73343e-18
8378.17873 2.76133e-18
8379.04019 2.79276e-18
8379.90166 2.82421e-18
8380.76312 2.85747e-18
8381.62458 2.89074e-18
8382.48604 2.92380e-18
8383.34750 2.95687e-18
8384.20897 2.98807e-18
8385.07043 3.01925e-18
8385.94191 3.04703e-18
8386.80337 3.07481e-18
8387.66483 3.10010e-18
8388.52629 3.12538e-18
8389.38775 3.15309e-18
8390.24922 3.18081e-18
8391.11068 3.21232e-18
8391.97214 3.24382e-18
8392.83360 3.27279e-18
8393.69507 3.30176e-18
8394.55653 3.32365e-18
8395.41799 3.34552e-18
8396.28947 3.36021e-18
8397.15093 3.37488e-18
8398.01239 3.38420e-18
8398.87385 3.39351e-18
8399.73532 3.40776e-18
8400.59678 3.42202e-18
8401.45824 3.45060e-18
8402.31970 3.47921e-18
8403.18116 3.51909e-18
8404.04263 3.55898e-18
8404.90409 3.60441e-18
8405.77557 3.64983e-18
8406.63703 3.69444e-18
8407.49849 3.73904e-18
8408.35995 3.77626e-18
8409.22142 3.81346e-18
8410.08288 3.84332e-18
8410.94434 3.87317e-18
8411.80580 3.89903e-18
8412.66726 3.92488e-18
8413.52873 3.94905e-18
8414.39019 3.97321e-18
8415.26167 3.99757e-18
8416.12313 4.02193e-18
8416.98459 4.04846e-18
8417.84605 4.07500e-18
8418.70751 4.10534e-18
8419.56898 4.13569e-18
8420.43044 4.17048e-18
8421.29190 4.20528e-18
8422.15336 4.24436e-18
8423.01482 4.28347e-18
8423.87629 4.32478e-18
8424.74777 4.36610e-18
8425.60923 4.40393e-18
8426.47069 4.44176e-18
8427.33215 4.47377e-18
8428.19361 4.50578e-18
8429.05508 4.53843e-18
8429.91654 4.57109e-18
8430.77800 4.60965e-18
8431.63946 4.64822e-18
8432.50092 4.69325e-18
8433.36239 4.73828e-18
8434.23386 4.78894e-18
8435.09533 4.83960e-18
8435.95679 4.88746e-18
8436.81825 4.93532e-18
8437.67971 4.97211e-18
8438.54117 5.00889e-18
8439.40264 5.03945e-18
8440.26410 5.07000e-18
8441.12556 5.10220e-18
8441.98702 5.13440e-18
8442.84848 5.17056e-18
8443.70995 5.20673e-18
8444.58143 5.24739e-18
8445.44289 5.28805e-18
8446.30435 5.33364e-18
8447.16581 5.37924e-18
8448.02727 5.42962e-18
8448.88874 5.48001e-18
8449.75020 5.53363e-18
8450.61166 5.58725e-18
8451.47312 5.64182e-18
8452.33458 5.69638e-18
8453.20606 5.74930e-18
8454.06752 5.80219e-18
8454.92899 5.85026e-18
8455.79045 5.89832e-18
8456.65191 5.94224e-18
8457.51337 5.98615e-18
8458.37483 6.03273e-18
8459.23630 6.07933e-18
8460.09776 6.13145e-18
8460.95922 6.18359e-18
8461.82068 6.23541e-18
8462.69216 6.28723e-18
8463.55362 6.33458e-18
8464.41508 6.38194e-18
8465.27655 6.42515e-18
8466.13801 6.46835e-18
8466.99947 6.50916e-18
8467.86093 6.54996e-18
8468.72240 6.59703e-18
8469.58386 6.64410e-18
8470.44532 6.70508e-18
8471.30678 6.76609e-18
8472.16824 6.83625e-18
8473.03972 6.90644e-18
8473.90118 6.97889e-18
8474.76265 7.05134e-18
8475.62411 7.12087e-18
8476.48557 7.19038e-18
8477.34703 7.25195e-18
8478.20849 7.31351e-18
8479.06996 7.37307e-18
8479.93142 7.43262e-18
8480.79288 7.50100e-18
8481.65434 7.56940e-18
8482.51580 7.64417e-18
8483.38728 7.71895e-18
8484.24875 7.79004e-18
8485.11021 7.86110e-18
8485.97167 7.92399e-18
8486.83313 7.98686e-18
8487.69459 8.04143e-18
8488.55605 8.09599e-18
8489.41752 8.14513e-18
8490.27898 8.19426e-18
8491.14044 8.24524e-18
8492.00190 8.29623e-18
8492.87338 8.35380e-18
8493.73484 8.41138e-18
8494.59631 8.47424e-18
8495.45777 8.53710e-18
8496.31923 8.60594e-18
8497.18069 8.67481e-18
8498.04215 8.75732e-18
8498.90362 8.83987e-18
8499.76508 8.93896e-18
8500.62654 9.03810e-18
8501.48800 9.14054e-18
8502.35948 9.24299e-18
8503.22094 9.33583e-18
8504.08240 9.42868e-18
8504.94387 9.50928e-18
8505.80533 9.58979e-18
8506.66679 9.65761e-18
8507.52825 9.72534e-18
8508.38972 9.78509e-18
8509.25118 9.84484e-18
8510.11264 9.90296e-18
8510.98412 9.96117e-18
8511.84558 1.00202e-17
8512.70704 1.00792e-17
8513.56850 1.01404e-17
8514.42997 1.02015e-17
8515.29143 1.02646e-17
8516.15289 1.03277e-17
8517.01435 1.03920e-17
8517.87581 1.04563e-17
8518.73728 1.05218e-17
8519.59874 1.05871e-17
8520.46020 1.06540e-17
8521.33168 1.07207e-17
8522.19314 1.07918e-17
8523.05460 1.08628e-17
8523.91607 1.09435e-17
8524.77753 1.10244e-17
8525.63899 1.11168e-17
8526.50045 1.12092e-17
8527.36191 1.13098e-17
8528.22337 1.14104e-17
8529.08484 1.15139e-17
8529.94630 1.16175e-17
8530.80776 1.17153e-17
8531.67924 1.18131e-17
8532.54070 1.18983e-17
8533.40216 1.19833e-17
8534.26363 1.20530e-17
8535.12509 1.21228e-17
8535.98655 1.21778e-17
8536.84801 1.22329e-17
8537.70947 1.22840e-17
8538.57094 1.23350e-17
8539.43240 1.23933e-17
8540.30388 1.24517e-17
8541.16534 1.25248e-17
8542.02680 1.25979e-17
8542.88826 1.26902e-17
8543.74972 1.27826e-17
8544.61119 1.28880e-17
8545.47265 1.29934e-17
8546.33411 1.31023e-17
8547.19557 1.32111e-17
8548.05703 1.33067e-17
8548.91850 1.34022e-17
8549.78998 1.34659e-17
8550.65144 1.35297e-17
8551.51290 1.35633e-17
8552.37436 1.35968e-17
8553.23582 1.36142e-17
8554.09729 1.36317e-17
8554.95875 1.36517e-17
8555.82021 1.36718e-17
8556.68167 1.37168e-17
8557.54313 1.37618e-17
8558.40460 1.38419e-17
8559.27607 1.39220e-17
8560.13754 1.40309e-17
8560.99900 1.41398e-17
8561.86046 1.42656e-17
8562.72192 1.43914e-17
8563.58338 1.45148e-17
8564.44485 1.46381e-17
8565.30631 1.47411e-17
8566.16777 1.48441e-17
8567.02923 1.49149e-17
8567.89070 1.49856e-17
8568.75216 1.50186e-17
8569.62364 1.50516e-17
8570.48510 1.50561e-17
8571.34656 1.50607e-17
8572.20802 1.50502e-17
8573.06948 1.50397e-17
8573.93095 1.50291e-17
8574.79241 1.50185e-17
8575.65387 1.50220e-17
8576.51533 1.50257e-17
8577.37679 1.50584e-17
8578.23826 1.50912e-17
8579.09972 1.51645e-17
8579.97120 1.52378e-17
8580.83266 1.53374e-17
8581.69412 1.54370e-17
8582.55558 1.55392e-17
8583.41705 1.56414e-17
8584.27851 1.57271e-17
8585.13997 1.58128e-17
8586.00143 1.58665e-17
8586.86289 1.59202e-17
8587.72436 1.59397e-17
8588.58582 1.59592e-17
8589.45730 1.59532e-17
8590.31876 1.59470e-17
8591.18022 1.59289e-17
8592.04168 1.59108e-17
8592.90314 1.58986e-17
8593.76461 1.58865e-17
8594.62607 1.58904e-17
8595.48753 1.58943e-17
8596.34899 1.59104e-17
8597.21045 1.59264e-17
8598.07192 1.59519e-17
8598.94340 1.59776e-17
8599.80486 1.60153e-17
8600.66632 1.60531e-17
8601.52778 1.61019e-17
8602.38924 1.61507e-17
8603.25071 1.62027e-17
8604.11217 1.62548e-17
8604.97363 1.63016e-17
8605.83509 1.63485e-17
8606.69655 1.63786e-17
8607.56803 1.64087e-17
8608.42949 1.64129e-17
8609.29096 1.64170e-17
8610.15242 1.63977e-17
8611.01388 1.63783e-17
8611.87534 1.63422e-17
8612.73680 1.63061e-17
8613.59827 1.62606e-17
8614.45973 1.62149e-17
8615.32119 1.61678e-17
8616.18265 1.61207e-17
8617.04411 1.60867e-17
8617.91559 1.60527e-17
8618.77706 1.60479e-17
8619.63852 1.60432e-17
8620.49998 1.60687e-17
8621.36144 1.60942e-17
8622.22290 1.61411e-17
8623.08437 1.61881e-17
8623.94583 1.62440e-17
8624.80729 1.62999e-17
8625.66875 1.63490e-17
8626.53021 1.63980e-17
8627.40169 1.64307e-17
8628.26315 1.64634e-17
8629.12462 1.64795e-17
8629.98608 1.64957e-17
8630.84754 1.64948e-17
8631.70900 1.64940e-17
8632.57046 1.64741e-17
8633.43193 1.64540e-17
8634.29339 1.64177e-17
8635.15485 1.63813e-17
8636.01631 1.63400e-17
8636.88779 1.62985e-17
8637.74925 1.62641e-17
8638.61072 1.62297e-17
8639.47218 1.62159e-17
8640.33364 1.62023e-17
8641.19510 1.62187e-17
8642.05656 1.62351e-17
8642.91803 1.62736e-17
8643.77949 1.63123e-17
8644.64095 1.63610e-17
8645.50241 1.64097e-17
8646.37389 1.64558e-17
8647.23535 1.65020e-17
8648.09681 1.65330e-17
8648.95828 1.65639e-17
8649.81974 1.65751e-17
8650.68120 1.65862e-17
8651.54266 1.65777e-17
8652.40412 1.65691e-17
8653.26559 1.65395e-17
8654.12705 1.65100e-17
8654.98851 1.64585e-17
8655.85999 1.64070e-17
8656.72145 1.63425e-17
8657.58291 1.62780e-17
8658.44438 1.62161e-17
8659.30584 1.61542e-17
8660.16730 1.61054e-17
8661.02876 1.60567e-17
8661.89022 1.60258e-17
8662.75168 1.59951e-17
8663.61315 1.59846e-17
8664.47461 1.59741e-17
8665.33607 1.59833e-17
8666.20755 1.59924e-17
8667.06901 1.60169e-17
8667.93047 1.60415e-17
8668.79194 1.60737e-17
8669.65340 1.61060e-17
8670.51486 1.61355e-17
8671.37632 1.61651e-17
8672.23778 1.61742e-17
8673.09925 1.61833e-17
8673.96071 1.61588e-17
8674.82217 1.61343e-17
8675.68363 1.60801e-17
8676.55511 1.60259e-17
8677.41657 1.59508e-17
8678.27803 1.58756e-17
8679.13950 1.57942e-17
8680.00096 1.57128e-17
8680.86242 1.56413e-17
8681.72388 1.55698e-17
8682.58535 1.55146e-17
8683.44681 1.54595e-17
8684.30827 1.54229e-17
8685.16973 1.53862e-17
8686.04121 1.53704e-17
8686.90267 1.53546e-17
8687.76413 1.53598e-17
8688.62560 1.53650e-17
8689.48706 1.53872e-17
8690.34852 1.54095e-17
8691.20998 1.54421e-17
8692.07144 1.54748e-17
8692.93291 1.55069e-17
8693.79437 1.55389e-17
8694.66585 1.55562e-17
8695.52731 1.55736e-17
8696.38877 1.55676e-17
8697.25023 1.55615e-17
8698.11170 1.55307e-17
8698.97316 1.54998e-17
8699.83462 1.54474e-17
8700.69608 1.53951e-17
8701.55754 1.53327e-17
8702.41900 1.52702e-17
8703.28047 1.52072e-17
8704.15195 1.51441e-17
8705.01341 1.50807e-17
8705.87487 1.50174e-17
8706.73633 1.49564e-17
8707.59779 1.48955e-17
8708.45926 1.48496e-17
8709.32072 1.48038e-17
8710.18218 1.47830e-17
8711.04364 1.47623e-17
8711.90510 1.47670e-17
8712.76657 1.47719e-17
8713.62803 1.47985e-17
8714.49951 1.48252e-17
8715.36097 1.48543e-17
8716.22243 1.48834e-17
8717.08389 1.48928e-17
8717.94535 1.49023e-17
8718.80682 1.48830e-17
8719.66828 1.48636e-17
8720.52974 1.48124e-17
8721.39120 1.47611e-17
8722.25267 1.46904e-17
8723.11413 1.46197e-17
8723.98561 1.45515e-17
8724.84707 1.44832e-17
8725.70853 1.44256e-17
8726.56999 1.43680e-17
8727.43145 1.43186e-17
8728.29292 1.42694e-17
8729.15438 1.42286e-17
8730.01584 1.41878e-17
8730.87730 1.41566e-17
8731.73876 1.41253e-17
8732.61024 1.41067e-17
8733.47170 1.40879e-17
8734.33317 1.40903e-17
8735.19463 1.40929e-17
8736.05609 1.41139e-17
8736.91755 1.41349e-17
8737.77902 1.41497e-17
8738.64048 1.41645e-17
8739.50194 1.41520e-17
8740.36340 1.41395e-17
8741.22486 1.40882e-17
8742.08633 1.40368e-17
8742.95780 1.39436e-17
8743.81927 1.38504e-17
8744.68073 1.37424e-17
8745.54219 1.36342e-17
8746.40365 1.35403e-17
8747.26511 1.34465e-17
8748.12658 1.33805e-17
8748.98804 1.33147e-17
8749.84950 1.32848e-17
8750.71096 1.32549e-17
8751.57242 1.32527e-17
8752.44390 1.32505e-17
8753.30537 1.32597e-17
8754.16683 1.32691e-17
8755.02829 1.32810e-17
8755.88975 1.32930e-17
8756.75121 1.33019e-17
8757.61268 1.33108e-17
8758.47414 1.33036e-17
8759.33560 1.32964e-17
8760.19706 1.32574e-17
8761.05852 1.32183e-17
8761.91999 1.31449e-17
8762.79146 1.30715e-17
8763.65293 1.29722e-17
8764.51439 1.28729e-17
8765.37585 1.27614e-17
8766.23731 1.26501e-17
8767.09877 1.25464e-17
8767.96024 1.24428e-17
8768.82170 1.23596e-17
8769.68316 1.22765e-17
8770.54462 1.22123e-17
8771.40608 1.21481e-17
8772.26755 1.20999e-17
8773.13903 1.20519e-17
8774.00049 1.20177e-17
8774.86195 1.19834e-17
8775.72341 1.19586e-17
8776.58487 1.19336e-17
8777.44633 1.19140e-17
8778.30780 1.18946e-17
8779.16926 1.18746e-17
8780.03072 1.18547e-17
8780.89218 1.18170e-17
8781.76366 1.17793e-17
8782.62512 1.17084e-17
8783.48659 1.16373e-17
8784.34805 1.15406e-17
8785.20951 1.14438e-17
8786.07097 1.13351e-17
8786.93243 1.12264e-17
8787.79390 1.11162e-17
8788.65536 1.10059e-17
8789.51682 1.09043e-17
8790.37828 1.08026e-17
8791.24976 1.07094e-17
8792.11122 1.06161e-17
8792.97268 1.05238e-17
8793.83415 1.04315e-17
8794.69561 1.03451e-17
8795.55707 1.02586e-17
8796.41853 1.01912e-17
8797.28000 1.01239e-17
8798.14146 1.00729e-17
8799.00292 1.00219e-17
8799.86438 9.96951e-18
8800.72584 9.91710e-18
8801.59732 9.84883e-18
8802.45878 9.78056e-18
8803.32025 9.68663e-18
8804.18171 9.59269e-18
8805.04317 9.47183e-18
8805.90463 9.35097e-18
8806.76609 9.22060e-18
8807.62756 9.09013e-18
8808.48902 8.96606e-18
8809.35048 8.84207e-18
8810.21194 8.73203e-18
8811.08342 8.62202e-18
8811.94488 8.53110e-18
8812.80635 8.44023e-18
8813.66781 8.36643e-18
8814.52927 8.29268e-18
8815.39073 8.23116e-18
8816.25219 8.16967e-18
8817.11365 8.11441e-18
8817.97512 8.05917e-18
8818.83658 8.00341e-18
8819.70806 7.94767e-18
8820.56952 7.88328e-18
8821.43098 7.81886e-18
8822.29244 7.73872e-18
8823.15391 7.65854e-18
8824.01537 7.56177e-18
8824.87683 7.46497e-18
8825.73829 7.35413e-18
8826.59975 7.24325e-18
8827.46122 7.12855e-18
8828.32268 7.01383e-18
8829.19416 6.90997e-18
8830.05562 6.80615e-18
8830.91708 6.72063e-18
8831.77854 6.63517e-18
8832.64000 6.56853e-18
8833.50147 6.50194e-18
8834.36293 6.45180e-18
8835.22439 6.40169e-18
8836.08585 6.36217e-18
8836.94732 6.32268e-18
8837.80878 6.28690e-18
8838.67024 6.25113e-18
8839.54172 6.21204e-18
8840.40318 6.17296e-18
8841.26464 6.12537e-18
8842.12610 6.07776e-18
8842.98757 6.02097e-18
8843.84903 5.96416e-18
8844.71049 5.89927e-18
8845.57195 5.83436e-18
8846.43341 5.76516e-18
8847.29488 5.69596e-18
8848.15634 5.62732e-18
8849.02782 5.55869e-18
8849.88928 5.49322e-18
8850.75074 5.42776e-18
8851.61220 5.36793e-18
8852.47367 5.30813e-18
8853.33513 5.26666e-18
8854.19659 5.22522e-18
8855.05805 5.21475e-18
8855.91951 5.20436e-18
8856.78097 5.21485e-18
8857.64244 5.22539e-18
8858.50390 5.23912e-18
8859.36536 5.25285e-18
8860.23684 5.25519e-18
8861.09830 5.25749e-18
8861.95976 5.23523e-18
8862.82123 5.21290e-18
8863.68269 5.17101e-18
8864.54415 5.12907e-18
8865.40561 5.08682e-18
8866.26707 5.04457e-18
8867.12854 5.01091e-18
8867.99000 4.97728e-18
8868.86148 4.94996e-18
8869.72294 4.92266e-18
8870.58440 4.90069e-18
8871.44586 4.87873e-18
8872.30732 4.86126e-18
8873.16879 4.84380e-18
8874.03025 4.83179e-18
8874.89171 4.81978e-18
8875.75317 4.82064e-18
8876.61463 4.82153e-18
8877.47610 4.83824e-18
8878.34758 4.85499e-18
8879.20904 4.87832e-18
8880.07050 4.90167e-18
8880.93196 4.92192e-18
8881.79342 4.94217e-18
8882.65489 4.95034e-18
8883.51635 4.95847e-18
8884.37781 4.94799e-18
8885.23927 4.93746e-18
8886.10073 4.91439e-18
8886.96220 4.89128e-18
8887.83367 4.86512e-18
8888.69514 4.83894e-18
8889.55660 4.81845e-18
8890.41806 4.79797e-18
8891.27952 4.79111e-18
8892.14099 4.78429e-18
8893.00245 4.79555e-18
8893.86391 4.80686e-18
8894.72537 4.83804e-18
8895.58683 4.86925e-18
8896.44830 4.91299e-18
8897.30976 4.95676e-18
8898.18124 5.00056e-18
8899.04270 5.04434e-18
8899.90416 5.07748e-18
8900.76562 5.11058e-18
8901.62708 5.12415e-18
8902.48855 5.13766e-18
8903.35001 5.13302e-18
8904.21147 5.12834e-18
8905.07293 5.12034e-18
8905.93439 5.11232e-18
8906.80587 5.11068e-18
8907.66734 5.10905e-18
8908.52880 5.11279e-18
8909.39026 5.11656e-18
8910.25172 5.12571e-18
8911.11318 5.13488e-18
8911.97465 5.15126e-18
8912.83611 5.16766e-18
8913.69757 5.19200e-18
8914.55903 5.21637e-18
8915.42049 5.25042e-18
8916.29197 5.28448e-18
8917.15343 5.32781e-18
8918.01490 5.37116e-18
8918.87636 5.41263e-18
8919.73782 5.45409e-18
8920.59928 5.48254e-18
8921.46074 5.51096e-18
8922.32221 5.52323e-18
8923.18367 5.53546e-18
8924.04513 5.53121e-18
8924.90659 5.52693e-18
8925.76805 5.51931e-18
8926.63953 5.51169e-18
8927.50100 5.51863e-18
8928.36246 5.52561e-18
8929.22392 5.54781e-18
8930.08538 5.57004e-18
8930.94684 5.59937e-18
8931.80831 5.62872e-18
8932.66977 5.65932e-18
8933.53123 5.68991e-18
8934.39269 5.71609e-18
8935.25415 5.74224e-18
8936.12563 5.76668e-18
8936.98709 5.79110e-18
8937.84856 5.82661e-18
8938.71002 5.86215e-18
8939.57148 5.90932e-18
8940.43294 5.95651e-18
8941.29440 5.99794e-18
8942.15587 6.03937e-18
8943.01733 6.06232e-18
8943.87879 6.08521e-18
8944.74025 6.08395e-18
8945.61173 6.08262e-18
8946.47319 6.05921e-18
8947.33466 6.03573e-18
8948.19612 6.01701e-18
8949.05758 5.99830e-18
8949.91904 6.00604e-18
8950.78050 6.01386e-18
8951.64197 6.04130e-18
8952.50343 6.06879e-18
8953.36489 6.10498e-18
8954.22635 6.14119e-18
8955.08781 6.15758e-18
8955.95929 6.17392e-18
8956.82075 6.14246e-18
8957.68222 6.11088e-18
8958.54368 6.06647e-18
8959.40514 6.02203e-18
8960.26660 6.01611e-18
8961.12806 6.01030e-18
8961.98953 6.05021e-18
8962.85099 6.09025e-18
8963.71245 6.16626e-18
8964.57391 6.24236e-18
8965.44539 6.32983e-18
8966.30685 6.41732e-18
8967.16832 6.47897e-18
8968.02978 6.54056e-18
8968.89124 6.58047e-18
8969.75270 6.62034e-18
8970.61416 6.67927e-18
8971.47563 6.73826e-18
8972.33709 6.83033e-18
8973.19855 6.92250e-18
8974.06001 7.03025e-18
8974.93149 7.13804e-18
8975.79295 7.23620e-18
8976.65441 7.33433e-18
8977.51588 7.38425e-18
8978.37734 7.43403e-18
8979.23880 7.40560e-18
8980.10026 7.37695e-18
8980.96172 7.25078e-18
8981.82319 7.12437e-18
8982.68465 6.91292e-18
8983.54611 6.70125e-18
8984.41759 6.51825e-18
8985.27905 6.33533e-18
8986.14051 6.28568e-18
8987.00198 6.23640e-18
8987.86344 6.35610e-18
8988.72490 6.47625e-18
8989.58636 6.77070e-18
8990.44782 7.06561e-18
8991.30928 7.39429e-18
8992.17075 7.72305e-18
8993.03221 7.91678e-18
8993.89367 8.11014e-18
8994.76515 8.14355e-18
8995.62661 8.17653e-18
8996.48807 8.08055e-18
8997.34954 7.98423e-18
8998.21100 7.83453e-18
8999.07246 7.68469e-18
8999.93392 7.58452e-18
9000.79538 7.48448e-18
9001.65685 7.47885e-18
9002.51831 7.47348e-18
9003.38979 7.55962e-18
9004.25125 7.64598e-18
9005.11271 7.79385e-18
9005.97417 7.94188e-18
9006.83563 8.09260e-18
9007.69710 8.24333e-18
9008.55856 8.35101e-18
9009.42002 8.45858e-18
9010.28148 8.50194e-18
9011.14295 8.54511e-18
9012.00441 8.52510e-18
9012.87589 8.50491e-18
9013.73735 8.47210e-18
9014.59881 8.43926e-18
9015.46027 8.43118e-18
9016.32173 8.42317e-18
9017.18320 8.41690e-18
9018.04466 8.41065e-18
9018.90612 8.38913e-18
9019.76758 8.36758e-18
9020.62904 8.35054e-18
9021.49051 8.33351e-18
9022.35197 8.34142e-18
9023.22345 8.34940e-18
9024.08491 8.40803e-18
9024.94637 8.46681e-18
9025.80783 8.59674e-18
9026.66930 8.72688e-18
9027.53076 8.89688e-18
9028.39222 9.06700e-18
9029.25368 9.22984e-18
9030.11514 9.39259e-18
9030.97660 9.51545e-18
9031.83807 9.63812e-18
9032.70955 9.69660e-18
9033.57101 9.75490e-18
9034.43247 9.74683e-18
9035.29393 9.73858e-18
9036.15539 9.67638e-18
9037.01686 9.61400e-18
9037.87832 9.52959e-18
9038.73978 9.44509e-18
9039.60124 9.38751e-18
9040.46270 9.33012e-18
9041.32417 9.31253e-18
9042.18563 9.29503e-18
9043.05711 9.28152e-18
9043.91857 9.26792e-18
9044.78003 9.23954e-18
9045.64149 9.21108e-18
9046.50295 9.17916e-18
9047.36442 9.14725e-18
9048.22588 9.12168e-18
9049.08734 9.09611e-18
9049.94880 9.09266e-18
9050.81027 9.08913e-18
9051.67173 9.11198e-18
9052.54321 9.13491e-18
9053.40467 9.13736e-18
9054.26613 9.13963e-18
9055.12759 9.08070e-18
9055.98905 9.02163e-18
9056.85052 8.92317e-18
9057.71198 8.82461e-18
9058.57344 8.71629e-18
9059.43490 8.60795e-18
9060.29636 8.49344e-18
9061.16784 8.37892e-18
9062.02931 8.25970e-18
9062.89077 8.14047e-18
9063.75223 8.01219e-18
9064.61369 7.88389e-18
9065.47515 7.73700e-18
9066.33662 7.59005e-18
9067.19808 7.46196e-18
9068.05954 7.33392e-18
9068.92100 7.28672e-18
9069.78246 7.23975e-18
9070.64393 7.25972e-18
9071.51540 7.27989e-18
9072.37687 7.29750e-18
9073.23833 7.31510e-18
9074.09979 7.30469e-18
9074.96125 7.29421e-18
9075.82271 7.27519e-18
9076.68418 7.25614e-18
9077.54564 7.24067e-18
9078.40710 7.22520e-18
9079.26856 7.22027e-18
9080.13002 7.21538e-18
9080.99149 7.22074e-18
9081.86297 7.22611e-18
9082.72443 7.21765e-18
9083.58589 7.20913e-18
9084.44735 7.17336e-18
9085.30881 7.13753e-18
9086.17028 7.10104e-18
9087.03174 7.06454e-18
9087.89320 7.04776e-18
9088.75466 7.03103e-18
9089.61612 7.00788e-18
9090.48760 6.98469e-18
9091.34906 6.93012e-18
9092.21053 6.87578e-18
9093.07199 6.81562e-18
9093.93345 6.75545e-18
9094.79491 6.72130e-18
9095.65637 6.68722e-18
9096.51784 6.67012e-18
9097.37930 6.65308e-18
9098.24076 6.63419e-18
9099.10222 6.61529e-18
9099.97370 6.59948e-18
9100.83516 6.58369e-18
9101.69663 6.58106e-18
9102.55809 6.57847e-18
9103.41955 6.60833e-18
9104.28101 6.63829e-18
9105.14247 6.72831e-18
9106.00393 6.81851e-18
9106.86540 6.93589e-18
9107.72686 7.05334e-18
9108.58832 7.11393e-18
9109.45980 7.17436e-18
9110.32126 7.14230e-18
9111.18272 7.10999e-18
9112.04419 7.00615e-18
9112.90565 6.90212e-18
9113.76711 6.76941e-18
9114.62857 6.63664e-18
9115.49003 6.56313e-18
9116.35150 6.48978e-18
9117.21296 6.52134e-18
9118.07442 6.55319e-18
9118.93588 6.62189e-18
9119.80736 6.69070e-18
9120.66882 6.73020e-18
9121.53028 6.76962e-18
9122.39175 6.73744e-18
9123.25321 6.70507e-18
9124.11467 6.57569e-18
9124.97613 6.44606e-18
9125.83760 6.27932e-18
9126.69906 6.11249e-18
9127.56052 5.98123e-18
9128.43200 5.85007e-18
9129.29346 5.79191e-18
9130.15492 5.73396e-18
9131.01638 5.77313e-18
9131.87785 5.81258e-18
9132.73931 5.93276e-18
9133.60077 6.05317e-18
9134.46223 6.21740e-18
9135.32369 6.38175e-18
9136.18516 6.55157e-18
9137.04662 6.72140e-18
9137.90808 6.85712e-18
9138.76954 6.99274e-18
9139.64102 7.06882e-18
9140.50248 7.14473e-18
9141.36395 7.15254e-18
9142.22541 7.16016e-18
9143.08687 7.08677e-18
9143.94833 7.01315e-18
9144.80979 6.83995e-18
9145.67125 6.66649e-18
9146.53272 6.41593e-18
9147.39418 6.16516e-18
9148.26566 5.91292e-18
9149.12712 5.66069e-18
9149.98858 5.47545e-18
9150.85004 5.29038e-18
9151.71151 5.22769e-18
9152.57297 5.16534e-18
9153.43443 5.24686e-18
9154.29589 5.32878e-18
9155.15735 5.48328e-18
9156.01882 5.63797e-18
9156.88028 5.79014e-18
9157.75176 5.94231e-18
9158.61322 6.05697e-18
9159.47468 6.17152e-18
9160.33614 6.22147e-18
9161.19760 6.27122e-18
9162.05907 6.25827e-18
9162.92053 6.24513e-18
9163.78199 6.18405e-18
9164.64345 6.12284e-18
9165.50492 6.01159e-18
9166.36638 5.90019e-18
9167.22784 5.73614e-18
9168.09932 5.57195e-18
9168.96078 5.39580e-18
9169.82224 5.21963e-18
9170.68370 5.08648e-18
9171.54517 4.95346e-18
9172.40663 4.89086e-18
9173.26809 4.82844e-18
9174.12955 4.84836e-18
9174.99101 4.86851e-18
9175.85248 4.93709e-18
9176.71394 5.00580e-18
9177.58542 5.04607e-18
9178.44688 5.08626e-18
9179.30834 5.07584e-18
9180.16980 5.06528e-18
9181.03127 5.05466e-18
9181.89273 5.04405e-18
9182.75419 5.06104e-18
9183.61565 5.07811e-18
9184.47711 5.11280e-18
9185.33857 5.14754e-18
9186.20004 5.18796e-18
9187.07152 5.22839e-18
9187.93298 5.24555e-18
9188.79444 5.26265e-18
9189.65590 5.24046e-18
9190.51736 5.21816e-18
9191.37883 5.20143e-18
9192.24029 5.18471e-18
9193.10175 5.21333e-18
9193.96321 5.24206e-18
9194.82467 5.29828e-18
9195.68614 5.35457e-18
9196.55762 5.41309e-18
9197.41908 5.47162e-18
9198.28054 5.50957e-18
9199.14200 5.54747e-18
9200.00346 5.54287e-18
9200.86492 5.53817e-18
9201.72639 5.50722e-18
9202.58785 5.47620e-18
9203.44931 5.45076e-18
9204.31077 5.42533e-18
9205.17224 5.40632e-18
9206.04371 5.38732e-18
9206.90518 5.36074e-18
9207.76664 5.33414e-18
9208.62810 5.30445e-18
9209.48956 5.27474e-18
9210.35102 5.25690e-18
9211.21249 5.23908e-18
9212.07395 5.24812e-18
9212.93541 5.25723e-18
9213.79687 5.31036e-18
9214.65833 5.36361e-18
9215.52981 5.45739e-18
9216.39127 5.55130e-18
9217.25274 5.65011e-18
9218.11420 5.74893e-18
9218.97566 5.82962e-18
9219.83712 5.91025e-18
9220.69859 5.98020e-18
9221.56005 6.05012e-18
9222.42151 6.11349e-18
9223.28297 6.17684e-18
9224.14443 6.22657e-18
9225.00590 6.27626e-18
9225.87737 6.30742e-18
9226.73884 6.33853e-18
9227.60030 6.34593e-18
9228.46176 6.35328e-18
9229.32322 6.33494e-18
9230.18468 6.31656e-18
9231.04615 6.29338e-18
9231.90761 6.27020e-18
9232.76907 6.26632e-18
9233.63053 6.26248e-18
9234.49199 6.27259e-18
9235.35346 6.28273e-18
9236.22494 6.29324e-18
9237.08640 6.30375e-18
9237.94786 6.32085e-18
9238.80932 6.33796e-18
9239.67078 6.37442e-18
9240.53225 6.41092e-18
9241.39371 6.47285e-18
9242.25517 6.53485e-18
9243.11663 6.62474e-18
9243.97809 6.71470e-18
9244.84957 6.82473e-18
9245.71103 6.93480e-18
9246.57250 7.04710e-18
9247.43396 7.15940e-18
9248.29542 7.26377e-18
9249.15688 7.36811e-18
9250.01834 7.46664e-18
9250.87981 7.56517e-18
9251.74127 7.65291e-18
9252.60273 7.74061e-18
9253.46419 7.79652e-18
9254.32565 7.85233e-18
9255.19713 7.87297e-18
9256.05860 7.89350e-18
9256.92006 7.91974e-18
9257.78152 7.94599e-18
9258.64298 8.00860e-18
9259.50444 8.07130e-18
9260.36591 8.16097e-18
9261.22737 8.25071e-18
9262.08883 8.35091e-18
9262.95029 8.45114e-18
9263.81175 8.52570e-18
9264.68323 8.60019e-18
9265.54469 8.61448e-18
9266.40616 8.62862e-18
9267.26762 8.58363e-18
9268.12908 8.53848e-18
9268.99054 8.44845e-18
9269.85200 8.35831e-18
9270.71347 8.25677e-18
9271.57493 8.15521e-18
9272.43639 8.08210e-18
9273.29785 8.00908e-18
9274.16933 7.99594e-18
9275.03079 7.98297e-18
9275.89226 8.05287e-18
9276.75372 8.12301e-18
9277.61518 8.26420e-18
9278.47664 8.40559e-18
9279.33810 8.57918e-18
9280.19957 8.75285e-18
9281.06103 8.91688e-18
9281.92249 9.08088e-18
9282.79397 9.19485e-18
9283.65543 9.30872e-18
9284.51689 9.34046e-18
9285.37835 9.37192e-18
9286.23982 9.30229e-18
9287.10128 9.23238e-18
9287.96274 9.06982e-18
9288.82420 8.90690e-18
9289.68566 8.70290e-18
9290.54713 8.49880e-18
9291.40859 8.31334e-18
9292.27005 8.12794e-18
9293.14153 8.03993e-18
9294.00299 7.95218e-18
9294.86445 8.01313e-18
9295.72592 8.07451e-18
9296.58738 8.23135e-18
9297.44884 8.38847e-18
9298.31030 8.57076e-18
9299.17176 8.75311e-18
9300.03323 8.86483e-18
9300.89469 8.97635e-18
9301.75615 8.92540e-18
9302.62763 8.87398e-18
9303.48909 8.74881e-18
9304.35055 8.62343e-18
9305.21201 8.56869e-18
9306.07348 8.51414e-18
9306.93494 8.49612e-18
9307.79640 8.47818e-18
9308.65786 8.39193e-18
9309.51932 8.30548e-18
9310.38079 8.15586e-18
9311.24225 8.00608e-18
9312.11373 7.85503e-18
9312.97519 7.70398e-18
9313.83665 7.61223e-18
9314.69811 7.52064e-18
9315.55958 7.55720e-18
9316.42104 7.59414e-18
9317.28250 7.74560e-18
9318.14396 7.89739e-18
9319.00542 8.03098e-18
9319.86688 8.16450e-18
9320.72835 8.22811e-18
9321.58981 8.29152e-18
9322.46129 8.40749e-18
9323.32275 8.52362e-18
9324.18421 8.71873e-18
9325.04567 8.91407e-18
9325.90714 8.93813e-18
9326.76860 8.96170e-18
9327.63006 8.66046e-18
9328.49152 8.35829e-18
9329.35298 7.97392e-18
9330.21445 7.58931e-18
9331.07591 7.35627e-18
9331.94739 7.12367e-18
9332.80885 6.99674e-18
9333.67031 6.87014e-18
9334.53177 6.78161e-18
9335.39323 6.69319e-18
9336.25470 6.64458e-18
9337.11616 6.59609e-18
9337.97762 6.57579e-18
9338.83908 6.55558e-18
9339.70055 6.77006e-18
9340.56201 6.98519e-18
9341.43349 7.71407e-18
9342.29495 8.44439e-18
9343.15641 9.32949e-18
9344.01787 1.02149e-17
9344.87933 1.05973e-17
9345.74080 1.09781e-17
9346.60226 1.06611e-17
9347.46372 1.03421e-17
9348.32518 9.43792e-18
9349.18664 8.53217e-18
9350.04811 7.45669e-18
9350.90957 6.38075e-18
9351.78105 5.90073e-18
9352.64251 5.42243e-18
9353.50397 5.78946e-18
9354.36543 6.15890e-18
9355.22689 6.81826e-18
9356.08836 7.47842e-18
9356.94982 7.96371e-18
9357.81128 8.44848e-18
9358.67274 8.48149e-18
9359.53420 8.51322e-18
9360.39567 7.97367e-18
9361.26715 7.43251e-18
9362.12861 6.75742e-18
9362.99007 6.08196e-18
9363.85153 5.68379e-18
9364.71299 5.28642e-18
9365.57446 5.18892e-18
9366.43592 5.09229e-18
9367.29738 5.25571e-18
9368.15884 5.41988e-18
9369.02030 5.63933e-18
9369.89178 5.85892e-18
9370.75324 5.89971e-18
9371.61471 5.93999e-18
9372.47617 5.81651e-18
9373.33763 5.69257e-18
9374.19909 5.49251e-18
9375.06056 5.29223e-18
9375.92202 5.14968e-18
9376.78348 5.00728e-18
9377.64494 5.08602e-18
9378.50640 5.16538e-18
9379.37788 5.40329e-18
9380.23934 5.64166e-18
9381.10081 5.82786e-18
9381.96227 6.01390e-18
9382.82373 6.08120e-18
9383.68519 6.14816e-18
9384.54665 6.15720e-18
9385.40812 6.16607e-18
9386.26958 6.13363e-18
9387.13104 6.10106e-18
9387.99250 5.99873e-18
9388.85396 5.89620e-18
9389.72544 5.72238e-18
9390.58691 5.54835e-18
9391.44837 5.32927e-18
9392.30983 5.11007e-18
9393.17129 4.88166e-18
9394.03275 4.65323e-18
9394.89422 4.47928e-18
9395.75568 4.30550e-18
9396.61714 4.22920e-18
9397.47860 4.15317e-18
9398.34006 4.14250e-18
9399.21154 4.13202e-18
9400.07300 4.14676e-18
9400.93447 4.16158e-18
9401.79593 4.16307e-18
9402.65739 4.16452e-18
9403.51885 4.11894e-18
9404.38031 4.07321e-18
9405.24178 4.01856e-18
9406.10324 3.96388e-18
9406.96470 3.95357e-18
9407.82616 3.94337e-18
9408.69764 3.97796e-18
9409.55910 4.01268e-18
9410.42057 4.07362e-18
9411.28203 4.13463e-18
9412.14349 4.19308e-18
9413.00495 4.25153e-18
9413.86641 4.27330e-18
9414.72788 4.29495e-18
9415.58934 4.25724e-18
9416.45080 4.21935e-18
9417.31226 4.11512e-18
9418.17372 4.01069e-18
9419.04520 3.84722e-18
9419.90666 3.68359e-18
9420.76813 3.47181e-18
9421.62959 3.25989e-18
9422.49105 3.07559e-18
9423.35251 2.89137e-18
9424.21397 2.91544e-18
9425.07544 2.94012e-18
9425.93690 3.23065e-18
9426.79836 3.52194e-18
9427.65982 3.88927e-18
9428.53130 4.25679e-18
9429.39276 4.51808e-18
9430.25423 4.77905e-18
9431.11569 4.76502e-18
9431.97715 4.75021e-18
9432.83861 4.37513e-18
9433.70007 3.99903e-18
9434.56153 3.56031e-18
9435.42300 3.12142e-18
9436.28446 2.93014e-18
9437.14592 2.73959e-18
9438.01740 2.84477e-18
9438.87886 2.95080e-18
9439.74032 3.33229e-18
9440.60179 3.71456e-18
9441.46325 4.17860e-18
9442.32471 4.64287e-18
9443.18617 4.94011e-18
9444.04763 5.23685e-18
9444.90910 5.29595e-18
9445.77056 5.35435e-18
9446.63202 5.19088e-18
9447.49348 5.02676e-18
9448.36496 4.72896e-18
9449.22642 4.43079e-18
9450.08788 4.14066e-18
9450.94935 3.85055e-18
9451.81081 3.66058e-18
9452.67227 3.47092e-18
9453.53373 3.41718e-18
9454.39520 3.36384e-18
9455.25666 3.45533e-18
9456.11812 3.54725e-18
9456.98960 3.76178e-18
9457.85106 3.97665e-18
9458.71252 4.24999e-18
9459.57398 4.52347e-18
9460.43545 4.72600e-18
9461.29691 4.92830e-18
9462.15837 4.98192e-18
9463.01983 5.03510e-18
9463.88129 5.00082e-18
9464.74276 4.96629e-18
9465.60422 4.90791e-18
9466.47570 4.84947e-18
9467.33716 4.80618e-18
9468.19862 4.76293e-18
9469.06008 4.76620e-18
9469.92155 4.76961e-18
9470.78301 4.77118e-18
9471.64447 4.77274e-18
9472.50593 4.72117e-18
9473.36739 4.66947e-18
9474.22885 4.59697e-18
9475.09032 4.52442e-18
9475.96180 4.47478e-18
9476.82326 4.42520e-18
9477.68472 4.48920e-18
9478.54618 4.55353e-18
9479.40764 4.83353e-18
9480.26911 5.11415e-18
9481.13057 5.49898e-18
9481.99203 5.88412e-18
9482.85349 6.15877e-18
9483.71495 6.43308e-18
9484.57642 6.48421e-18
9485.43788 6.53468e-18
9486.30936 6.32260e-18
9487.17082 6.10974e-18
9488.03228 5.72081e-18
9488.89374 5.33137e-18
9489.75520 4.99304e-18
9490.61667 4.65486e-18
9491.47813 4.51256e-18
9492.33959 4.37084e-18
9493.20105 4.42190e-18
9494.06252 4.47354e-18
9494.92398 4.71725e-18
9495.79546 4.96152e-18
9496.65692 5.42891e-18
9497.51838 5.89696e-18
9498.37984 6.53877e-18
9499.24130 7.18109e-18
9500.10277 7.74617e-18
9500.96423 8.31102e-18
9501.82569 8.58214e-18
9502.68715 8.85240e-18
9503.54861 8.79522e-18
9504.41008 8.73708e-18
9505.28155 8.37376e-18
9506.14302 8.00956e-18
9507.00448 7.52883e-18
9507.86594 7.04778e-18
9508.72740 6.67410e-18
9509.58887 6.30075e-18
9510.45033 6.05613e-18
9511.31179 5.81189e-18
9512.17325 5.65197e-18
9513.03471 5.49228e-18
9513.89617 5.46072e-18
9514.75764 5.42953e-18
9515.62912 5.58884e-18
9516.49058 5.74871e-18
9517.35204 6.08066e-18
9518.21350 6.41311e-18
9519.07496 6.85641e-18
9519.93643 7.30003e-18
9520.79789 7.74677e-18
9521.65935 8.19352e-18
9522.52081 8.49506e-18
9523.38227 8.79617e-18
9524.24374 8.90245e-18
9525.11522 9.00816e-18
9525.97668 8.99728e-18
9526.83814 8.98607e-18
9527.69960 8.93004e-18
9528.56106 8.87389e-18
9529.42252 8.82962e-18
9530.28399 8.78539e-18
9531.14545 8.78478e-18
9532.00691 8.78430e-18
9532.86837 8.77681e-18
9533.72984 8.76930e-18
9534.60131 8.71227e-18
9535.46278 8.65509e-18
9536.32424 8.53559e-18
9537.18570 8.41590e-18
9538.04716 8.24080e-18
9538.90862 8.06553e-18
9539.77009 7.99462e-18
9540.63155 7.92402e-18
9541.49301 8.10813e-18
9542.35447 8.29300e-18
9543.21593 8.62409e-18
9544.08741 8.95559e-18
9544.94888 9.27282e-18
9545.81034 9.58997e-18
9546.67180 9.73640e-18
9547.53326 9.88229e-18
9548.39472 9.69696e-18
9549.25619 9.51073e-18
9550.11765 9.18034e-18
9550.97911 8.84954e-18
9551.84057 8.74987e-18
9552.70203 8.65088e-18
9553.57351 8.80746e-18
9554.43497 8.96479e-18
9555.29644 9.15550e-18
9556.15790 9.34626e-18
9557.01936 9.42142e-18
9557.88082 9.49622e-18
9558.74228 9.35614e-18
9559.60375 9.21552e-18
9560.46521 8.92204e-18
9561.32667 8.62817e-18
9562.18813 8.52057e-18
9563.05961 8.41354e-18
9563.92107 8.66684e-18
9564.78254 8.92121e-18
9565.64400 9.35524e-18
9566.50546 9.78980e-18
9567.36692 1.02107e-17
9568.22838 1.06315e-17
9569.08985 1.08078e-17
9569.95131 1.09835e-17
9570.81277 1.07561e-17
9571.67423 1.05276e-17
9572.53569 1.00968e-17
9573.40717 9.66550e-18
9574.26863 9.26947e-18
9575.13010 8.87361e-18
9575.99156 8.67150e-18
9576.85302 8.46997e-18
9577.71448 8.58747e-18
9578.57594 8.70592e-18
9579.43741 8.94547e-18
9580.29887 9.18533e-18
9581.16033 9.25831e-18
9582.02179 9.33085e-18
9582.89327 9.19911e-18
9583.75473 9.06682e-18
9584.61620 8.78699e-18
9585.47766 8.50668e-18
9586.33912 8.28054e-18
9587.20058 8.05455e-18
9588.06204 8.18937e-18
9588.92351 8.32526e-18
9589.78497 8.78260e-18
9590.64643 9.24090e-18
9591.51791 9.66822e-18
9592.37937 1.00955e-17
9593.24083 1.03028e-17
9594.10229 1.05095e-17
9594.96376 1.05150e-17
9595.82522 1.05199e-17
9596.68668 1.03617e-17
9597.54814 1.02032e-17
9598.40960 9.97060e-18
9599.27107 9.73794e-18
9600.13253 9.52941e-18
9600.99399 9.32087e-18
9601.86547 9.21416e-18
9602.72693 9.10771e-18
9603.58839 9.15359e-18
9604.44986 9.20001e-18
9605.31132 9.39005e-18
9606.17278 9.58054e-18
9607.03424 9.87195e-18
9607.89570 1.01635e-17
9608.75717 1.03710e-17
9609.61863 1.05782e-17
9610.48009 1.05230e-17
9611.35157 1.04671e-17
9612.21303 1.02251e-17
9613.07449 9.98265e-18
9613.93595 9.69669e-18
9614.79742 9.41054e-18
9615.65888 9.17989e-18
9616.52034 8.94935e-18
9617.38180 8.85677e-18
9618.24326 8.76463e-18
9619.10473 8.83144e-18
9619.96619 8.89873e-18
9620.82765 9.10191e-18
9621.69913 9.30555e-18
9622.56059 9.57184e-18
9623.42205 9.83831e-18
9624.28352 1.00657e-17
9625.14498 1.02930e-17
9626.00644 1.03843e-17
9626.86790 1.04752e-17
9627.72936 1.03392e-17
9628.59083 1.02027e-17
9629.45229 9.86633e-18
9630.31375 9.52941e-18
9631.17521 9.19167e-18
9632.04669 8.85388e-18
9632.90815 8.66927e-18
9633.76961 8.48510e-18
9634.63108 8.51375e-18
9635.49254 8.54305e-18
9636.35400 8.77862e-18
9637.21546 9.01480e-18
9638.07692 9.23383e-18
9638.93839 9.45279e-18
9639.79985 9.47057e-18
9640.67133 9.48770e-18
9641.53279 9.41952e-18
9642.39425 9.35107e-18
9643.25571 9.33166e-18
9644.11718 9.31244e-18
9644.97864 9.37437e-18
9645.84010 9.43666e-18
9646.70156 9.59315e-18
9647.56302 9.74991e-18
9648.42448 9.89643e-18
9649.28595 1.00429e-17
9650.15743 1.00432e-17
9651.01889 1.00430e-17
9651.88035 9.89670e-18
9652.74181 9.74991e-18
9653.60327 9.51798e-18
9654.46474 9.28569e-18
9655.32620 9.05201e-18
9656.18766 8.81829e-18
9657.04912 8.67967e-18
9657.91058 8.54133e-18
9658.77205 8.55186e-18
9659.64352 8.56285e-18
9660.50499 8.73578e-18
9661.36645 8.90920e-18
9662.22791 9.18977e-18
9663.08937 9.47066e-18
9663.95083 9.71591e-18
9664.81230 9.96108e-18
9665.67376 1.00883e-17
9666.53522 1.02152e-17
9667.39668 1.02682e-17
9668.25815 1.03209e-17
9669.11961 1.03247e-17
9669.99109 1.03284e-17
9670.85255 1.02407e-17
9671.71401 1.01527e-17
9672.57547 9.96189e-18
9673.43693 9.77076e-18
9674.29840 9.55489e-18
9675.15986 9.33883e-18
9676.02132 9.17562e-18
9676.88278 9.01261e-18
9677.74424 8.95644e-18
9678.61572 8.90058e-18
9679.47718 8.98740e-18
9680.33865 9.07462e-18
9681.20011 9.23293e-18
9682.06157 9.39132e-18
9682.92303 9.52143e-18
9683.78449 9.65145e-18
9684.64596 9.72389e-18
9685.50742 9.79606e-18
9686.36888 9.80676e-18
9687.23034 9.81728e-18
9688.10182 9.77657e-18
9688.96328 9.73577e-18
9689.82475 9.66885e-18
9690.68621 9.60185e-18
9691.54767 9.51327e-18
9692.40913 9.42460e-18
9693.27059 9.30102e-18
9694.13206 9.17726e-18
9694.99352 9.03688e-18
9695.85498 8.89644e-18
9696.71644 8.78915e-18
9697.57790 8.68195e-18
9698.44938 8.63252e-18
9699.31084 8.58327e-18
9700.17231 8.58230e-18
9701.03377 8.58148e-18
9701.89523 8.60857e-18
9702.75669 8.63575e-18
9703.61816 8.64556e-18
9704.47962 8.65530e-18
9705.34108 8.61852e-18
9706.20254 8.58160e-18
9707.06400 8.52648e-18
9707.93548 8.47131e-18
9708.79694 8.42715e-18
9709.65841 8.38303e-18
9710.51987 8.36579e-18
9711.38133 8.34864e-18
9712.24279 8.36875e-18
9713.10425 8.38897e-18
9713.96572 8.41862e-18
9714.82718 8.44828e-18
9715.68864 8.45399e-18
9716.55010 8.45964e-18
9717.41156 8.43183e-18
9718.28304 8.40394e-18
9719.14451 8.33876e-18
9720.00597 8.27348e-18
9720.86743 8.20580e-18
9721.72889 8.13812e-18
9722.59035 8.12155e-18
9723.45182 8.10514e-18
9724.31328 8.11615e-18
9725.17474 8.12725e-18
9726.03620 8.09587e-18
9726.89766 8.06435e-18
9727.76914 7.96580e-18
9728.63060 7.86706e-18
9729.49207 7.71436e-18
9730.35353 7.56149e-18
9731.21499 7.38721e-18
9732.07645 7.21287e-18
9732.93791 7.07692e-18
9733.79938 6.94110e-18
9734.66084 6.88083e-18
9735.52230 6.82078e-18
9736.38376 6.82891e-18
9737.25524 6.83724e-18
9738.11670 6.89698e-18
9738.97817 6.95688e-18
9739.83963 7.03516e-18
9740.70109 7.11350e-18
9741.56255 7.17764e-18
9742.42401 7.24174e-18
9743.28548 7.27441e-18
9744.14694 7.30699e-18
9745.00840 7.29791e-18
9745.86986 7.28872e-18
9746.74134 7.25184e-18
9747.60280 7.21488e-18
9748.46426 7.16931e-18
9749.32573 7.12371e-18
9750.18719 7.07400e-18
9751.04865 7.02427e-18
9751.91011 6.97281e-18
9752.77157 6.92134e-18
9753.63304 6.86643e-18
9754.49450 6.81151e-18
9755.35596 6.74960e-18
9756.22744 6.68767e-18
9757.08890 6.63164e-18
9757.95036 6.57563e-18
9758.81183 6.54452e-18
9759.67329 6.51349e-18
9760.53475 6.52202e-18
9761.39621 6.53067e-18
9762.25767 6.59147e-18
9763.11913 6.65243e-18
9763.98060 6.74637e-18
9764.84206 6.84039e-18
9765.71354 6.91354e-18
9766.57500 6.98662e-18
9767.43646 7.01256e-18
9768.29792 7.03834e-18
9769.15939 7.03439e-18
9770.02085 7.03034e-18
9770.88231 7.01126e-18
9771.74377 6.99214e-18
9772.60523 6.96532e-18
9773.46670 6.93848e-18
9774.32816 6.91328e-18
9775.19964 6.88808e-18
9776.06110 6.87190e-18
9776.92256 6.85575e-18
9777.78402 6.85353e-18
9778.64548 6.85135e-18
9779.50695 6.86939e-18
9780.36841 6.88750e-18
9781.22987 6.92755e-18
9782.09133 6.96767e-18
9782.95280 6.99506e-18
9783.81426 7.02240e-18
9784.68574 6.99945e-18
9785.54720 6.97633e-18
9786.40866 6.92128e-18
9787.27012 6.86615e-18
9788.13158 6.81335e-18
9788.99305 6.76056e-18
9789.85451 6.72211e-18
9790.71597 6.68370e-18
9791.57743 6.66462e-18
9792.43889 6.64559e-18
9793.30036 6.63300e-18
9794.16182 6.62044e-18
9795.03330 6.58728e-18
9795.89476 6.55406e-18
9796.75622 6.50823e-18
9797.61768 6.46237e-18
9798.47915 6.44341e-18
9799.34061 6.42453e-18
9800.20207 6.44566e-18
9801.06353 6.46691e-18
9801.92499 6.50938e-18
9802.78645 6.55191e-18
9803.64792 6.59680e-18
9804.51940 6.64169e-18
9805.38086 6.66680e-18
9806.24232 6.69186e-18
9807.10378 6.68643e-18
9807.96524 6.68090e-18
9808.82671 6.66623e-18
9809.68817 6.65153e-18
9810.54963 6.64788e-18
9811.41109 6.64427e-18
9812.27255 6.66446e-18
9813.13402 6.68472e-18
9813.99548 6.73470e-18
9814.86696 6.78477e-18
9815.72842 6.82897e-18
9816.58988 6.87315e-18
9817.45134 6.87380e-18
9818.31280 6.87432e-18
9819.17427 6.83643e-18
9820.03573 6.79843e-18
9820.89719 6.73791e-18
9821.75865 6.67731e-18
9822.62012 6.61748e-18
9823.48158 6.55766e-18
9824.35306 6.52570e-18
9825.21452 6.49383e-18
9826.07598 6.48578e-18
9826.93744 6.47781e-18
9827.79890 6.47167e-18
9828.66037 6.46554e-18
9829.52183 6.45588e-18
9830.38329 6.44620e-18
9831.24475 6.43953e-18
9832.10621 6.43287e-18
9832.97769 6.42768e-18
9833.83915 6.42249e-18
9834.70062 6.41024e-18
9835.56208 6.39798e-18
9836.42354 6.37473e-18
9837.28500 6.35145e-18
9838.14647 6.31950e-18
9839.00793 6.28753e-18
9839.86939 6.24950e-18
9840.73085 6.21145e-18
9841.59231 6.16867e-18
9842.45377 6.12587e-18
9843.32525 6.08323e-18
9844.18672 6.04058e-18
9845.04818 6.01319e-18
9845.90964 5.98584e-18
9846.77110 5.98559e-18
9847.63256 5.98542e-18
9848.49403 6.00864e-18
9849.35549 6.03193e-18
9850.21695 6.07185e-18
9851.07841 6.11182e-18
9851.93987 6.16198e-18
9852.81135 6.21217e-18
9853.67282 6.26494e-18
9854.53428 6.31771e-18
9855.39574 6.36826e-18
9856.25720 6.41880e-18
9857.11866 6.46358e-18
9857.98013 6.50835e-18
9858.84159 6.53778e-18
9859.70305 6.56715e-18
9860.56451 6.57025e-18
9861.42597 6.57328e-18
9862.29745 6.54857e-18
9863.15891 6.52379e-18
9864.02038 6.47598e-18
9864.88184 6.42810e-18
9865.74330 6.36591e-18
9866.60476 6.30366e-18
9867.46622 6.23957e-18
9868.32769 6.17548e-18
9869.18915 6.11664e-18
9870.05061 6.05781e-18
9870.92209 6.00339e-18
9871.78355 5.94899e-18
9872.64501 5.89993e-18
9873.50648 5.85089e-18
9874.36794 5.81139e-18
9875.22940 5.77193e-18
9876.09086 5.74532e-18
9876.95232 5.71875e-18
9877.81379 5.70809e-18
9878.67525 5.69748e-18
9879.53671 5.70416e-18
9880.39817 5.71090e-18
9881.26965 5.73280e-18
9882.13111 5.75476e-18
9882.99257 5.78795e-18
9883.85404 5.82117e-18
9884.71550 5.85847e-18
9885.57696 5.89578e-18
9886.43842 5.92942e-18
9887.29988 5.96305e-18
9888.16135 5.98574e-18
9889.02281 6.00841e-18
9889.88427 6.01407e-18
9890.74573 6.01968e-18
9891.61721 6.00815e-18
9892.47867 5.99658e-18
9893.34014 5.97095e-18
9894.20160 5.94527e-18
9895.06306 5.90884e-18
9895.92452 5.87235e-18
9896.78598 5.82857e-18
9897.64745 5.78477e-18
9898.50891 5.73933e-18
9899.37037 5.69389e-18
9900.23183 5.65433e-18
9901.09329 5.61479e-18
9901.96477 5.58235e-18
9902.82623 5.54993e-18
9903.68770 5.51821e-18
9904.54916 5.48651e-18
9905.41062 5.45699e-18
9906.27208 5.42747e-18
9907.13354 5.41407e-18
9907.99501 5.40071e-18
9908.85647 5.41003e-18
9909.71793 5.41942e-18
9910.57939 5.44514e-18
9911.45087 5.47089e-18
9912.31233 5.50265e-18
9913.17380 5.53443e-18
9914.03526 5.55040e-18
9914.89672 5.56632e-18
9915.75818 5.54914e-18
9916.61964 5.53187e-18
9917.48111 5.48761e-18
9918.34257 5.44328e-18
9919.20403 5.38255e-18
9920.07551 5.32177e-18
9920.93697 5.25662e-18
9921.79843 5.19146e-18
9922.65989 5.13413e-18
9923.52136 5.07684e-18
9924.38282 5.03272e-18
9925.24428 4.98864e-18
9926.10574 4.95983e-18
9926.96720 4.93107e-18
9927.82867 4.90959e-18
9928.69013 4.88813e-18
9929.56161 4.86130e-18
9930.42307 4.83445e-18
9931.28453 4.79814e-18
9932.14599 4.76180e-18
9933.00746 4.71782e-18
9933.86892 4.67381e-18
9934.73038 4.62588e-18
9935.59184 4.57795e-18
9936.45330 4.53147e-18
9937.31477 4.48500e-18
9938.17623 4.44710e-18
9939.03769 4.40922e-18
9939.90917 4.38885e-18
9940.77063 4.36853e-18
9941.63209 4.36814e-18
9942.49355 4.36782e-18
9943.35502 4.37814e-18
9944.21648 4.38850e-18
9945.07794 4.40155e-18
9945.93940 4.41459e-18
9946.80086 4.42833e-18
9947.66233 4.44207e-18
9948.52379 4.45418e-18
9949.39527 4.46628e-18
9950.25673 4.47232e-18
9951.11819 4.47834e-18
9951.97965 4.47545e-18
9952.84112 4.47254e-18
9953.70258 4.46646e-18
9954.56404 4.46038e-18
9955.42550 4.45743e-18
9956.28696 4.45449e-18
9957.14843 4.45046e-18
9958.00989 4.44642e-18
9958.88137 4.43546e-18
9959.74283 4.42447e-18
9960.60429 4.40363e-18
9961.46575 4.38275e-18
9962.32721 4.35008e-18
9963.18868 4.31738e-18
9964.05014 4.28267e-18
9964.91160 4.24796e-18
9965.77306 4.22755e-18
9966.63452 4.20719e-18
9967.49599 4.20491e-18
9968.36747 4.20268e-18
9969.22893 4.21222e-18
9970.09039 4.22180e-18
9970.95185 4.24219e-18
9971.81331 4.26262e-18
9972.67477 4.29854e-18
9973.53624 4.33451e-18
9974.39770 4.38401e-18
9975.25916 4.43355e-18
9976.12062 4.48604e-18
9976.98208 4.53853e-18
9977.85356 4.58556e-18
9978.71503 4.63258e-18
9979.57649 4.67014e-18
9980.43795 4.70767e-18
9981.29941 4.73432e-18
9982.16087 4.76095e-18
9983.02234 4.78238e-18
9983.88380 4.80379e-18
9984.74526 4.82571e-18
9985.60672 4.84763e-18
9986.46818 4.87288e-18
9987.32965 4.89813e-18
9988.20112 4.92819e-18
9989.06259 4.95825e-18
9989.92405 4.98252e-18
9990.78551 5.00678e-18
9991.64697 5.01326e-18
9992.50843 5.01969e-18
9993.36990 5.01739e-18
9994.23136 5.01507e-18
9995.09282 5.01940e-18
9995.95428 5.02375e-18
9996.81574 5.03207e-18
9997.67721 5.04041e-18
9998.54869 5.04293e-18
9999.41015 5.04541e-18
