# wavelength flux
3474.89730 2.50245e-18
3476.36980 2.49911e-18
3477.83228 2.40548e-18
3479.30478 2.61255e-18
3480.77728 2.77715e-18
3482.24978 2.56750e-18
3483.71226 2.42411e-18
3485.18476 2.40456e-18
3486.65726 2.54590e-18
3488.12976 2.71512e-18
3489.59224 2.64798e-18
3491.06474 2.88800e-18
3492.53724 2.74966e-18
3494.00974 2.42192e-18
3495.47222 2.31897e-18
3496.94472 2.22331e-18
3498.41722 2.42642e-18
3499.88971 2.26159e-18
3501.35220 2.04676e-18
3502.82470 2.32109e-18
3504.29720 2.64244e-18
3505.76969 2.51788e-18
3507.23218 2.41738e-18
3508.70467 2.24086e-18
3510.17717 2.15402e-18
3511.64967 2.21802e-18
3513.11216 2.68136e-18
3514.58465 2.58570e-18
3516.05715 2.30432e-18
3517.51964 2.49895e-18
3518.99213 2.57067e-18
3520.46463 2.08302e-18
3521.93713 2.12026e-18
3523.40963 2.45654e-18
3524.87211 2.56826e-18
3526.34461 2.59564e-18
3527.81711 2.61683e-18
3529.27959 2.39709e-18
3530.75209 2.74644e-18
3532.22459 2.16760e-18
3533.69709 2.23999e-18
3535.15957 2.43398e-18
3536.63207 2.58908e-18
3538.10457 2.67637e-18
3539.57707 2.52910e-18
3541.03955 2.81711e-18
3542.51205 2.72890e-18
3543.98455 2.42962e-18
3545.45705 2.53879e-18
3546.91953 2.63818e-18
3548.39203 2.68352e-18
3549.86453 2.79964e-18
3551.33703 2.35980e-18
3552.79951 2.48058e-18
3554.27201 2.87132e-18
3555.74451 2.52603e-18
3557.21701 2.55139e-18
3558.67949 2.36452e-18
3560.15199 2.44229e-18
3561.62449 2.67097e-18
3563.09699 2.67748e-18
3564.55947 2.45804e-18
3566.03197 2.54186e-18
3567.50446 2.09454e-18
3568.97696 2.16194e-18
3570.43945 2.47113e-18
3571.91194 2.82334e-18
3573.38444 2.80749e-18
3574.85694 2.41743e-18
3576.31943 2.10643e-18
3577.79192 2.29033e-18
3579.26442 2.60604e-18
3580.73692 2.42385e-18
3582.19940 2.40210e-18
3583.67190 2.85391e-18
3585.14440 2.62108e-18
3586.61690 2.72346e-18
3588.07938 2.92487e-18
3589.55188 3.05311e-18
3591.02438 3.10343e-18
3592.49688 2.93432e-18
3593.95936 3.24925e-18
3595.43186 2.97044e-18
3596.90436 2.86579e-18
3598.37686 3.06352e-18
3599.83934 2.80305e-18
3601.31184 2.95853e-18
3602.78434 2.76983e-18
3604.25684 2.63470e-18
3605.71932 2.75543e-18
3607.19182 2.90089e-18
3608.66432 2.72023e-18
3610.13682 2.61426e-18
3611.59930 2.94765e-18
3613.07180 2.93351e-18
3614.54430 2.65799e-18
3616.01680 2.48232e-18
3617.47928 3.10505e-18
3618.95178 2.85804e-18
3620.42428 2.34619e-18
3621.88676 2.68033e-18
3623.35926 2.73900e-18
3624.83176 2.75310e-18
3626.30426 2.29150e-18
3627.76674 2.63560e-18
3629.23924 2.50847e-18
3630.71174 2.77112e-18
3632.18423 2.42630e-18
3633.64672 2.15744e-18
3635.11922 2.41696e-18
3636.59171 2.64861e-18
3638.06421 2.44354e-18
3639.52670 2.47395e-18
3640.99919 2.54004e-18
3642.47169 2.55360e-18
3643.94419 2.42605e-18
3645.40667 1.71473e-18
3646.87917 1.43357e-18
3648.35167 2.51641e-18
3649.82417 2.57663e-18
3651.28665 2.71044e-18
3652.75915 2.82378e-18
3654.23165 2.70957e-18
3655.70415 2.71246e-18
3657.16663 2.76142e-18
3658.63913 2.81351e-18
3660.11163 2.83445e-18
3661.58413 2.72003e-18
3663.04661 2.87762e-18
3664.51911 2.98722e-18
3665.99161 3.00647e-18
3667.46411 3.40021e-18
3668.92659 3.36149e-18
3670.39909 3.35712e-18
3671.87159 3.31135e-18
3673.34409 3.25930e-18
3674.80657 3.36399e-18
3676.27907 3.83633e-18
3677.75157 3.61373e-18
3679.22407 3.67844e-18
3680.68655 3.90235e-18
3682.15905 4.00729e-18
3683.63155 3.77421e-18
3685.10405 3.87002e-18
3686.56653 4.28434e-18
3688.03903 4.13193e-18
3689.51153 4.33702e-18
3690.98402 4.31390e-18
3692.44651 4.16198e-18
3693.91901 4.31138e-18
3695.39150 4.22815e-18
3696.86400 4.17370e-18
3698.32649 4.38042e-18
3699.79898 4.57526e-18
3701.27148 4.49203e-18
3702.74398 4.67343e-18
3704.20646 4.50161e-18
3705.67896 4.37967e-18
3707.15146 4.68532e-18
3708.62396 4.21020e-18
3710.08644 4.34760e-18
3711.55894 4.62797e-18
3713.03144 4.67181e-18
3714.50394 4.58553e-18
3715.96642 4.49928e-18
3717.43892 4.41450e-18
3718.91142 4.32972e-18
3720.37390 4.24497e-18
3721.84640 4.16022e-18
3723.31890 4.07550e-18
3724.79140 3.99080e-18
3726.25388 3.90609e-18
3727.72638 3.82142e-18
3729.19888 3.73676e-18
3730.67138 3.65212e-18
3732.13386 3.56750e-18
3733.60636 3.48289e-18
3735.07886 3.39831e-18
3736.55136 3.31373e-18
3738.01384 3.22916e-18
3739.48634 3.14461e-18
3740.95884 3.06008e-18
3742.43134 2.97558e-18
3743.89382 2.89108e-18
3745.36632 2.80660e-18
3746.83882 2.72214e-18
3748.31131 2.63769e-18
3749.77380 2.55327e-18
3751.24630 2.46883e-18
3752.71880 2.38443e-18
3754.19129 2.30005e-18
3755.65378 2.26266e-18
3757.12628 2.28864e-18
3758.59877 2.20077e-18
3760.07127 1.99737e-18
3761.53376 2.10499e-18
3763.00625 2.16365e-18
3764.47875 2.17176e-18
3765.95125 2.11429e-18
3767.41373 2.14154e-18
3768.88623 2.29906e-18
3770.35873 2.13985e-18
3771.83123 1.99624e-18
3773.29371 1.94960e-18
3774.76621 1.81728e-18
3776.23871 1.74885e-18
3777.71121 1.88087e-18
3779.17369 1.87102e-18
3780.64619 1.89079e-18
3782.11869 2.02631e-18
3783.59119 1.98505e-18
3785.05367 2.01524e-18
3786.52617 1.93025e-18
3787.99867 1.89871e-18
3789.47117 1.92865e-18
3790.93365 2.00129e-18
3792.40615 1.88200e-18
3793.87865 1.92231e-18
3795.35115 1.84467e-18
3796.81363 1.79389e-18
3798.28613 1.83334e-18
3799.75863 2.18175e-18
3801.23113 1.98945e-18
3802.69361 2.05631e-18
3804.16611 1.96935e-18
3805.63861 2.10066e-18
3807.11111 2.10129e-18
3808.57359 1.90447e-18
3810.04609 1.96206e-18
3811.51859 2.00069e-18
3812.98107 1.97891e-18
3814.45357 2.24223e-18
3815.92607 2.39511e-18
3817.39856 2.25023e-18
3818.86105 2.12769e-18
3820.33354 1.98643e-18
3821.80604 2.12517e-18
3823.27854 2.13054e-18
3824.74103 2.05422e-18
3826.21352 2.19112e-18
3827.68602 2.21687e-18
3829.15852 2.24340e-18
3830.62100 2.39630e-18
3832.09350 2.48266e-18
3833.56600 2.59767e-18
3835.03850 2.75698e-18
3836.50098 2.79342e-18
3837.97348 2.65594e-18
3839.44598 2.74131e-18
3840.91848 2.90482e-18
3842.38096 2.78488e-18
3843.85346 2.86993e-18
3845.32596 2.99609e-18
3846.79846 2.83472e-18
3848.26094 3.05808e-18
3849.73344 3.24998e-18
3851.20594 3.46398e-18
3852.67844 3.34222e-18
3854.14092 3.42415e-18
3855.61342 3.31603e-18
3857.08592 3.38445e-18
3858.55842 3.64899e-18
3860.02090 3.63823e-18
3861.49340 3.95819e-18
3862.96590 4.09540e-18
3864.43840 4.09356e-18
3865.90088 4.20816e-18
3867.37338 4.53476e-18
3868.84588 4.68065e-18
3870.31838 4.57740e-18
3871.78086 4.75497e-18
3873.25336 5.00195e-18
3874.72586 5.04059e-18
3876.19835 5.24705e-18
3877.66084 5.49562e-18
3879.13334 5.88154e-18
3880.60583 5.76695e-18
3882.07833 5.95864e-18
3883.54081 6.28684e-18
3885.01331 6.20085e-18
3886.48581 6.25582e-18
3887.95831 6.66244e-18
3889.42079 6.52920e-18
3890.89329 6.82855e-18
3892.36579 7.23653e-18
3893.83829 7.10574e-18
3895.30077 7.45275e-18
3896.77327 7.53761e-18
3898.24577 7.47308e-18
3899.71827 7.86676e-18
3901.18075 7.91441e-18
3902.65325 7.89285e-18
3904.12575 7.74550e-18
3905.58823 7.77721e-18
3907.06073 8.19070e-18
3908.53323 8.49358e-18
3910.00573 8.84787e-18
3911.46821 8.67071e-18
3912.94071 8.85048e-18
3914.41321 9.09209e-18
3915.88571 8.89276e-18
3917.34819 9.05818e-18
3918.82069 9.33777e-18
3920.29319 9.23553e-18
3921.76569 9.18901e-18
3923.22817 9.25711e-18
3924.70067 9.21087e-18
3926.17317 9.12523e-18
3927.64567 9.10644e-18
3929.10815 9.14301e-18
3930.58065 8.90032e-18
3932.05315 8.73485e-18
3933.52565 8.54165e-18
3934.98813 8.82801e-18
3936.46063 8.85891e-18
3937.93313 8.47075e-18
3939.40562 8.26138e-18
3940.86811 8.38197e-18
3942.34061 8.70660e-18
3943.81310 8.67872e-18
3945.28560 8.65546e-18
3946.74809 8.78369e-18
3948.22058 8.95138e-18
3949.69308 8.87189e-18
3951.16558 8.75937e-18
3952.62806 8.40336e-18
3954.10056 8.41225e-18
3955.57306 8.32021e-18
3957.04556 8.28083e-18
3958.50804 8.15747e-18
3959.98054 8.13318e-18
3961.45304 8.05197e-18
3962.92554 8.17073e-18
3964.38802 7.96215e-18
3965.86052 7.86136e-18
3967.33302 7.53851e-18
3968.80552 7.66375e-18
3970.26800 7.70927e-18
3971.74050 7.59751e-18
3973.21300 7.43428e-18
3974.68550 7.50955e-18
3976.14798 7.77637e-18
3977.62048 7.66984e-18
3979.09298 7.65622e-18
3980.56548 7.63729e-18
3982.02796 7.65475e-18
3983.50046 7.88356e-18
3984.97296 7.82247e-18
3986.44546 7.59631e-18
3987.90794 7.62116e-18
3989.38044 7.81365e-18
3990.85294 7.87412e-18
3992.32544 8.09090e-18
3993.78792 8.11438e-18
3995.26042 8.23121e-18
3996.73292 8.29731e-18
3998.20541 8.58599e-18
3999.66790 8.46477e-18
4001.14039 8.69633e-18
4002.61289 8.97644e-18
4004.07538 9.08954e-18
4005.54788 9.15929e-18
4007.02037 9.38956e-18
4008.49287 9.74495e-18
4009.95536 9.88855e-18
4011.42785 9.88984e-18
4012.90035 1.00795e-17
4014.37285 1.05643e-17
4015.83533 1.06611e-17
4017.30783 1.09125e-17
4018.78033 1.10027e-17
4020.25283 1.13502e-17
4021.71531 1.18813e-17
4023.18781 1.21908e-17
4024.66031 1.21141e-17
4026.13281 1.20297e-17
4027.59529 1.24645e-17
4029.06779 1.28047e-17
4030.54029 1.27606e-17
4032.01279 1.28414e-17
4033.47527 1.29967e-17
4034.94777 1.32190e-17
4036.42027 1.32257e-17
4037.89277 1.31204e-17
4039.35525 1.30309e-17
4040.82775 1.28833e-17
4042.30025 1.27431e-17
4043.77275 1.27805e-17
4045.23523 1.27017e-17
4046.70773 1.25662e-17
4048.18023 1.25235e-17
4049.65273 1.22717e-17
4051.11521 1.20348e-17
4052.58771 1.19591e-17
4054.06021 1.20606e-17
4055.53271 1.19278e-17
4056.99519 1.15429e-17
4058.46769 1.14009e-17
4059.94019 1.13126e-17
4061.41268 1.10328e-17
4062.87517 1.06018e-17
4064.34766 1.05919e-17
4065.82016 1.08317e-17
4067.29266 1.03044e-17
4068.75515 1.00409e-17
4070.22764 9.95346e-18
4071.70014 9.71613e-18
4073.17264 9.50944e-18
4074.63512 9.55187e-18
4076.10762 9.37933e-18
4077.58012 9.37814e-18
4079.05262 9.19694e-18
4080.51510 8.82206e-18
4081.98760 8.61454e-18
4083.46010 8.30338e-18
4084.93260 8.42784e-18
4086.39508 8.45729e-18
4087.86758 8.02173e-18
4089.34008 7.80138e-18
4090.80256 7.66507e-18
4092.27506 7.53720e-18
4093.74756 7.48007e-18
4095.22006 7.35317e-18
4096.68254 7.33257e-18
4098.15504 7.31064e-18
4099.62754 7.07094e-18
4101.10004 6.95952e-18
4102.56252 6.89810e-18
4104.03502 6.71297e-18
4105.50752 6.68694e-18
4106.98002 6.56795e-18
4108.44250 6.49232e-18
4109.91500 6.38557e-18
4111.38750 6.45483e-18
4112.86000 6.38122e-18
4114.32248 6.15813e-18
4115.79498 5.88665e-18
4117.26748 5.87699e-18
4118.73998 5.89708e-18
4120.20246 5.63311e-18
4121.67496 5.63928e-18
4123.14745 5.72930e-18
4124.61995 5.76103e-18
4126.08244 5.59452e-18
4127.55494 5.64249e-18
4129.02743 5.55584e-18
4130.49993 5.51716e-18
4131.96241 5.50157e-18
4133.43491 5.52834e-18
4134.90741 5.40525e-18
4136.37991 5.41597e-18
4137.84239 5.41193e-18
4139.31489 5.32690e-18
4140.78739 5.31196e-18
4142.25989 5.40795e-18
4143.72237 5.33525e-18
4145.19487 5.15822e-18
4146.66737 5.41878e-18
4148.13987 5.55733e-18
4149.60235 5.52439e-18
4151.07485 5.36256e-18
4152.54735 5.49358e-18
4154.01985 5.65351e-18
4155.48233 5.53208e-18
4156.95483 5.60300e-18
4158.42733 5.76443e-18
4159.89983 5.59457e-18
4161.36231 5.56077e-18
4162.83481 5.52234e-18
4164.30731 5.54621e-18
4165.77981 5.65039e-18
4167.24229 5.65628e-18
4168.71479 5.64830e-18
4170.18729 5.74077e-18
4171.65979 5.70812e-18
4173.12227 5.47982e-18
4174.59477 5.31902e-18
4176.06727 5.40045e-18
4177.53976 5.67659e-18
4179.00225 5.59537e-18
4180.47475 5.39661e-18
4181.94725 5.44814e-18
4183.40973 5.33674e-18
4184.88223 5.31331e-18
4186.35473 5.30149e-18
4187.82722 5.22259e-18
4189.29972 5.13979e-18
4190.76220 5.00394e-18
4192.23470 5.07118e-18
4193.70720 5.03322e-18
4195.16969 4.97896e-18
4196.64218 5.07723e-18
4198.11468 5.09330e-18
4199.58718 5.00400e-18
4201.04966 4.79884e-18
4202.52216 4.86600e-18
4203.99466 4.99900e-18
4205.46716 4.98721e-18
4206.92964 5.05519e-18
4208.40214 5.14657e-18
4209.87464 5.08081e-18
4211.34714 5.10463e-18
4212.80962 5.21029e-18
4214.28212 5.14582e-18
4215.75462 5.13658e-18
4217.22712 5.26360e-18
4218.68960 5.26437e-18
4220.16210 5.29750e-18
4221.63460 5.29500e-18
4223.10710 5.35456e-18
4224.56958 5.55453e-18
4226.04208 5.51585e-18
4227.51458 5.45553e-18
4228.98708 5.47552e-18
4230.44956 5.62727e-18
4231.92206 5.78448e-18
4233.39456 5.77580e-18
4234.86706 5.87869e-18
4236.32954 5.81574e-18
4237.80204 5.80266e-18
4239.27454 5.73823e-18
4240.74704 5.86572e-18
4242.20952 5.87989e-18
4243.68202 5.96544e-18
4245.15452 6.12118e-18
4246.62701 6.13186e-18
4248.08950 6.09935e-18
4249.56200 6.21772e-18
4251.03449 6.28824e-18
4252.50699 6.24145e-18
4253.96947 6.38626e-18
4255.44197 6.43420e-18
4256.91447 6.32270e-18
4258.38697 6.32488e-18
4259.84945 6.31298e-18
4261.32195 6.28459e-18
4262.79445 6.11657e-18
4264.26695 6.20643e-18
4265.72943 6.28660e-18
4267.20193 6.27549e-18
4268.67443 6.26611e-18
4270.14693 6.18039e-18
4271.60941 6.04218e-18
4273.08191 6.00329e-18
4274.55441 6.10605e-18
4276.02691 6.16238e-18
4277.48939 6.15534e-18
4278.96189 6.08358e-18
4280.43439 5.99059e-18
4281.89687 5.97652e-18
4283.36937 5.76041e-18
4284.84187 5.95231e-18
4286.31437 6.08456e-18
4287.77685 5.86209e-18
4289.24935 5.92231e-18
4290.72185 5.94114e-18
4292.19435 5.83584e-18
4293.66685 5.80056e-18
4295.12933 5.89570e-18
4296.60183 5.91764e-18
4298.07433 5.99546e-18
4299.53681 6.01393e-18
4301.00931 5.97869e-18
4302.48181 6.00878e-18
4303.95431 5.90670e-18
4305.41679 6.03580e-18
4306.88929 5.97993e-18
4308.36179 6.09288e-18
4309.83428 6.19092e-18
4311.29677 6.19231e-18
4312.76926 6.13454e-18
4314.24176 6.21116e-18
4315.71426 6.11618e-18
4317.17675 6.23183e-18
4318.64924 6.33968e-18
4320.12174 6.21256e-18
4321.59424 6.23171e-18
4323.05672 6.33344e-18
4324.52922 6.50893e-18
4326.00172 6.42830e-18
4327.47422 6.34186e-18
4328.93670 6.37807e-18
4330.40920 6.40572e-18
4331.88170 6.36656e-18
4333.35420 6.51072e-18
4334.81668 6.41786e-18
4336.28918 6.28731e-18
4337.76168 6.36624e-18
4339.23418 6.45182e-18
4340.69666 6.35639e-18
4342.16916 6.37348e-18
4343.64166 6.63747e-18
4345.11416 6.89318e-18
4346.57664 6.84112e-18
4348.04914 6.72293e-18
4349.52164 6.62493e-18
4350.99414 6.67737e-18
4352.45662 6.63525e-18
4353.92912 6.62350e-18
4355.40162 6.61176e-18
4356.87412 6.60001e-18
4358.33660 6.58827e-18
4359.80910 6.57653e-18
4361.28160 6.56480e-18
4362.75410 6.55306e-18
4364.21658 6.54132e-18
4365.68908 6.52959e-18
4367.16158 6.51785e-18
4368.62406 6.50613e-18
4370.09656 6.49439e-18
4371.56905 6.48266e-18
4373.04155 6.47093e-18
4374.51405 6.45920e-18
4375.97654 6.44748e-18
4377.44903 6.43576e-18
4378.92153 6.42404e-18
4380.39403 6.41231e-18
4381.85651 6.40059e-18
4383.32901 6.38887e-18
4384.80151 6.37715e-18
4386.26399 6.36544e-18
4387.73649 6.35372e-18
4389.20899 6.34201e-18
4390.68149 6.37014e-18
4392.14397 6.34486e-18
4393.61647 6.24720e-18
4395.08897 6.21779e-18
4396.56147 6.22151e-18
4398.02395 6.16960e-18
4399.49645 6.27286e-18
4400.96895 6.24778e-18
4402.44145 6.00238e-18
4403.90393 6.02568e-18
4405.37643 6.00585e-18
4406.84893 5.90775e-18
4408.32143 5.91787e-18
4409.78391 5.85404e-18
4411.25641 5.73410e-18
4412.72891 5.73207e-18
4414.20141 5.66177e-18
4415.66389 5.63570e-18
4417.13639 5.72986e-18
4418.60889 5.57773e-18
4420.08139 5.37893e-18
4421.54387 5.32971e-18
4423.01637 5.31606e-18
4424.48887 5.29397e-18
4425.96137 5.24456e-18
4427.42385 5.29267e-18
4428.89635 5.31698e-18
4430.36885 5.31488e-18
4431.84134 5.23549e-18
4433.30383 5.19310e-18
4434.77632 5.12679e-18
4436.24882 5.07564e-18
4437.72132 5.10739e-18
4439.18380 5.20024e-18
4440.65630 5.19455e-18
4442.12880 5.15904e-18
4443.60130 5.27858e-18
4445.06378 5.40446e-18
4446.53628 5.35126e-18
4448.00878 5.41195e-18
4449.48128 5.39820e-18
4450.94376 5.30216e-18
4452.41626 5.27754e-18
4453.88876 5.43912e-18
4455.36126 5.49577e-18
4456.82374 5.53390e-18
4458.29624 5.54236e-18
4459.76874 5.58151e-18
4461.24124 5.64811e-18
4462.70372 5.54608e-18
4464.17622 5.66641e-18
4465.64872 5.86775e-18
4467.12122 6.02428e-18
4468.58370 6.14657e-18
4470.05620 6.16666e-18
4471.52870 6.13083e-18
4472.99118 6.11608e-18
4474.46368 6.30013e-18
4475.93618 6.46674e-18
4477.40868 6.72398e-18
4478.87116 6.75746e-18
4480.34366 6.74586e-18
4481.81616 6.97533e-18
4483.28866 7.09286e-18
4484.76116 7.08644e-18
4486.22364 7.33031e-18
4487.69614 7.57371e-18
4489.16863 7.67586e-18
4490.63112 7.62317e-18
4492.10362 7.83242e-18
4493.57611 8.03890e-18
4495.04861 8.06527e-18
4496.51110 8.45042e-18
4497.98360 8.73801e-18
4499.45609 8.80721e-18
4500.92859 8.90844e-18
4502.39108 8.90298e-18
4503.86357 9.05663e-18
4505.33607 9.26904e-18
4506.80857 9.58712e-18
4508.27105 9.94620e-18
4509.74355 1.00530e-17
4511.21605 9.99529e-18
4512.68855 1.01323e-17
4514.15103 1.05379e-17
4515.62353 1.07373e-17
4517.09603 1.08665e-17
4518.56853 1.10449e-17
4520.03101 1.13031e-17
4521.50351 1.14707e-17
4522.97601 1.14702e-17
4524.44851 1.18753e-17
4525.91099 1.20661e-17
4527.38349 1.21720e-17
4528.85599 1.23759e-17
4530.32849 1.24170e-17
4531.79097 1.26373e-17
4533.26347 1.27645e-17
4534.73597 1.28050e-17
4536.20847 1.28181e-17
4537.67095 1.29591e-17
4539.14345 1.28381e-17
4540.61595 1.28760e-17
4542.08845 1.30238e-17
4543.55093 1.29430e-17
4545.02343 1.29686e-17
4546.49593 1.28815e-17
4547.96843 1.29235e-17
4549.43091 1.29558e-17
4550.90341 1.28042e-17
4552.37590 1.29784e-17
4553.84840 1.31469e-17
4555.31089 1.31349e-17
4556.78339 1.32090e-17
4558.25588 1.31940e-17
4559.71837 1.34377e-17
4561.19086 1.34301e-17
4562.66336 1.34962e-17
4564.13586 1.36130e-17
4565.60836 1.39316e-17
4567.07084 1.41143e-17
4568.54334 1.43008e-17
4570.01584 1.41837e-17
4571.48834 1.42375e-17
4572.95082 1.43375e-17
4574.42332 1.45642e-17
4575.89582 1.47058e-17
4577.35830 1.48134e-17
4578.83080 1.51036e-17
4580.30330 1.51085e-17
4581.77580 1.49182e-17
4583.23828 1.49179e-17
4584.71078 1.49404e-17
4586.18328 1.50411e-17
4587.65578 1.50764e-17
4589.11826 1.51447e-17
4590.59076 1.51473e-17
4592.06326 1.50452e-17
4593.53576 1.49072e-17
4594.99824 1.48945e-17
4596.47074 1.49103e-17
4597.94324 1.52375e-17
4599.41574 1.52683e-17
4600.87822 1.53162e-17
4602.35072 1.55631e-17
4603.82322 1.59023e-17
4605.29572 1.57403e-17
4606.75820 1.40694e-17
4608.23070 1.52090e-17
4609.70320 1.66472e-17
4611.17570 1.65576e-17
4612.63818 1.66447e-17
4614.11068 1.67853e-17
4615.58317 1.67330e-17
4617.05567 1.69995e-17
4618.51816 1.70747e-17
4619.99065 1.70697e-17
4621.46315 1.72251e-17
4622.93565 1.73132e-17
4624.39814 1.72030e-17
4625.87063 1.71567e-17
4627.34313 1.72862e-17
4628.81563 1.73162e-17
4630.27811 1.71783e-17
4631.75061 1.71502e-17
4633.22311 1.71613e-17
4634.69561 1.70998e-17
4636.15809 1.71322e-17
4637.63059 1.72745e-17
4639.10309 1.71428e-17
4640.57559 1.69354e-17
4642.03807 1.69374e-17
4643.51057 1.68483e-17
4644.98307 1.65476e-17
4646.45557 1.66694e-17
4647.91805 1.64021e-17
4649.39055 1.61676e-17
4650.86305 1.63822e-17
4652.33555 1.62082e-17
4653.79803 1.59018e-17
4655.27053 1.57108e-17
4656.74303 1.54755e-17
4658.21553 1.53744e-17
4659.67801 1.52328e-17
4661.15051 1.50334e-17
4662.62301 1.48391e-17
4664.08549 1.47285e-17
4665.55799 1.44048e-17
4667.03049 1.41656e-17
4668.50299 1.40484e-17
4669.96547 1.38302e-17
4671.43797 1.36191e-17
4672.91047 1.35855e-17
4674.38296 1.34297e-17
4675.85546 1.30294e-17
4677.31795 1.28841e-17
4678.79045 1.26364e-17
4680.26294 1.24433e-17
4681.72543 1.24885e-17
4683.19793 1.21940e-17
4684.67042 1.18563e-17
4686.14292 1.15968e-17
4687.60541 1.15054e-17
4689.07790 1.14737e-17
4690.55040 1.13477e-17
4692.02290 1.11495e-17
4693.48538 1.09867e-17
4694.95788 1.08776e-17
4696.43038 1.07392e-17
4697.90288 1.06961e-17
4699.36536 1.07212e-17
4700.83786 1.08239e-17
4702.31036 1.09803e-17
4703.78286 1.10485e-17
4705.24534 1.08930e-17
4706.71784 1.09567e-17
4708.19034 1.09349e-17
4709.66284 1.10087e-17
4711.12532 1.11454e-17
4712.59782 1.11602e-17
4714.07032 1.13711e-17
4715.54282 1.15107e-17
4717.00530 1.14550e-17
4718.47780 1.13591e-17
4719.95030 1.14736e-17
4721.42280 1.16540e-17
4722.88528 1.16136e-17
4724.35778 1.14394e-17
4725.83028 1.12685e-17
4727.30278 1.12598e-17
4728.76526 1.13779e-17
4730.23776 1.14983e-17
4731.71026 1.15021e-17
4733.18275 1.13951e-17
4734.64524 1.13143e-17
4736.11774 1.13711e-17
4737.59024 1.13931e-17
4739.06273 1.13658e-17
4740.52522 1.13642e-17
4741.99772 1.12917e-17
4743.47021 1.12151e-17
4744.94271 1.12736e-17
4746.40520 1.13198e-17
4747.87769 1.12942e-17
4749.35019 1.13244e-17
4750.82269 1.14431e-17
4752.28517 1.14036e-17
4753.75767 1.12480e-17
4755.23017 1.12471e-17
4756.69265 1.13350e-17
4758.16515 1.12899e-17
4759.63765 1.11228e-17
4761.11015 1.10373e-17
4762.58265 1.10707e-17
4764.04513 1.12285e-17
4765.51763 1.10817e-17
4766.99013 1.08381e-17
4768.45261 1.08454e-17
4769.92511 1.08131e-17
4771.39761 1.08364e-17
4772.87011 1.08021e-17
4774.33259 1.07210e-17
4775.80509 1.05571e-17
4777.27759 1.04526e-17
4778.75009 1.04254e-17
4780.21257 1.03338e-17
4781.68507 1.02586e-17
4783.15757 1.01538e-17
4784.63007 1.01300e-17
4786.09255 1.00108e-17
4787.56505 9.86070e-18
4789.03755 9.76691e-18
4790.51005 9.60730e-18
4791.97253 9.50193e-18
4793.44503 9.40903e-18
4794.91753 9.22670e-18
4796.39003 9.10216e-18
4797.85251 8.97960e-18
4799.32501 8.74204e-18
4800.79750 8.50135e-18
4802.27000 8.42192e-18
4803.73249 8.36486e-18
4805.20499 8.27999e-18
4806.67748 8.25436e-18
4808.14998 8.10650e-18
4809.61247 7.94970e-18
4811.08496 7.92844e-18
4812.55746 7.83784e-18
4814.02996 7.79291e-18
4815.49244 7.82395e-18
4816.96494 7.80949e-18
4818.43744 7.75550e-18
4819.90994 7.69600e-18
4821.37242 7.66184e-18
4822.84492 7.70002e-18
4824.31742 7.82118e-18
4825.78992 7.95902e-18
4827.25240 7.99565e-18
4828.72490 7.99517e-18
4830.19740 8.07218e-18
4831.66990 8.19852e-18
4833.13238 8.33277e-18
4834.60488 8.53373e-18
4836.07738 8.67526e-18
4837.54988 8.74374e-18
4839.01236 8.72982e-18
4840.48486 8.80848e-18
4841.95736 9.06244e-18
4843.42986 9.13614e-18
4844.89234 9.23570e-18
4846.36484 9.57477e-18
4847.83734 9.85639e-18
4849.30984 9.95946e-18
4850.77232 1.01163e-17
4852.24482 1.01346e-17
4853.71732 1.01529e-17
4855.17980 1.01712e-17
4856.65230 1.01895e-17
4858.12480 1.02078e-17
4859.59730 1.02261e-17
4861.05978 1.02443e-17
4862.53228 1.02626e-17
4864.00478 1.02809e-17
4865.47727 1.02992e-17
4866.93976 1.03174e-17
4868.41226 1.03357e-17
4869.88475 1.03540e-17
4871.35725 1.03722e-17
4872.81974 1.03905e-17
4874.29223 1.04088e-17
4875.76473 1.04270e-17
4877.23723 1.04453e-17
4878.69971 1.04635e-17
4880.17221 1.04818e-17
4881.64471 1.05000e-17
4883.11721 1.05183e-17
4884.57969 1.05365e-17
4886.05219 1.05547e-17
4887.52469 1.05730e-17
4888.99719 1.05912e-17
4890.45967 1.05291e-17
4891.93217 1.04727e-17
4893.40467 1.01552e-17
4894.87717 9.92381e-18
4896.33965 9.75639e-18
4897.81215 9.47104e-18
4899.28465 9.32614e-18
4900.75715 9.25365e-18
4902.21963 9.14376e-18
4903.69213 9.00993e-18
4905.16463 8.84826e-18
4906.63713 8.79341e-18
4908.09961 8.75962e-18
4909.57211 8.58952e-18
4911.04461 8.59617e-18
4912.51711 8.59861e-18
4913.97959 8.59524e-18
4915.45209 8.77191e-18
4916.92459 8.73566e-18
4918.39709 8.63252e-18
4919.85957 8.72605e-18
4921.33207 8.85360e-18
4922.80457 8.85344e-18
4924.27706 8.82791e-18
4925.73955 8.96374e-18
4927.21205 9.10012e-18
4928.68454 9.15587e-18
4930.15704 9.34420e-18
4931.61953 9.47218e-18
4933.09202 9.49698e-18
4934.56452 9.73093e-18
4936.03702 9.79762e-18
4937.49950 9.78650e-18
4938.97200 9.94602e-18
4940.44450 1.00270e-17
4941.91700 1.00916e-17
4943.37948 1.02529e-17
4944.85198 1.04227e-17
4946.32448 1.04866e-17
4947.79698 1.06271e-17
4949.25946 1.07632e-17
4950.73196 1.08793e-17
4952.20446 1.09954e-17
4953.66694 1.11115e-17
4955.13944 1.12276e-17
4956.61194 1.13437e-17
4958.08444 1.14597e-17
4959.54692 1.15757e-17
4961.01942 1.16917e-17
4962.49192 1.18077e-17
4963.96442 1.19237e-17
4965.42690 1.20396e-17
4966.89940 1.21555e-17
4968.37190 1.22715e-17
4969.84440 1.23874e-17
4971.30688 1.25032e-17
4972.77938 1.26191e-17
4974.25188 1.27349e-17
4975.72438 1.28507e-17
4977.18686 1.29665e-17
4978.65936 1.30823e-17
4980.13186 1.31980e-17
4981.60435 1.33138e-17
4983.06684 1.34296e-17
4984.53934 1.35453e-17
4986.01184 1.36610e-17
4987.48433 1.36568e-17
4988.94682 1.36738e-17
4990.41932 1.37381e-17
4991.89181 1.37576e-17
4993.36431 1.37029e-17
4994.82680 1.37238e-17
4996.29929 1.37579e-17
4997.77179 1.35852e-17
4999.24429 1.34125e-17
5000.70677 1.32398e-17
5002.17927 1.30672e-17
5003.65177 1.28947e-17
5005.12427 1.27221e-17
5006.58675 1.25495e-17
5008.05925 1.23770e-17
5009.53175 1.22045e-17
5011.00425 1.20321e-17
5012.46673 1.18596e-17
5013.93923 1.16872e-17
5015.41173 1.15148e-17
5016.88423 1.13425e-17
5018.34671 1.11702e-17
5019.81921 1.09979e-17
5021.29171 1.08256e-17
5022.76421 1.06534e-17
5024.22669 1.04812e-17
5025.69919 1.03090e-17
5027.17169 1.01369e-17
5028.64419 9.96474e-18
5030.10667 9.79267e-18
5031.57917 9.62057e-18
5033.05167 9.44855e-18
5034.52417 9.27656e-18
5035.98665 8.96286e-18
5037.45915 8.65164e-18
5038.93165 8.39163e-18
5040.39413 8.18530e-18
5041.86663 8.00996e-18
5043.33913 7.95302e-18
5044.81163 7.86955e-18
5046.28412 7.66026e-18
5047.74661 7.59938e-18
5049.21911 7.52803e-18
5050.69160 7.43737e-18
5052.15409 7.42880e-18
5053.62658 7.37497e-18
5055.09908 7.35053e-18
5056.57158 7.35314e-18
5058.03406 7.44526e-18
5059.50656 7.34096e-18
5060.97906 7.24177e-18
5062.45156 7.38802e-18
5063.91404 7.38818e-18
5065.38654 7.33785e-18
5066.85904 7.43155e-18
5068.33154 7.43368e-18
5069.79402 7.35682e-18
5071.26652 7.54730e-18
5072.73902 7.79204e-18
5074.21152 7.72797e-18
5075.67400 7.72734e-18
5077.14650 7.79159e-18
5078.61900 7.86313e-18
5080.09150 8.15718e-18
5081.55398 8.26876e-18
5083.02648 8.24244e-18
5084.49898 8.38856e-18
5085.97148 8.50058e-18
5087.43396 8.53822e-18
5088.90646 8.71752e-18
5090.37896 8.83503e-18
5091.85146 8.94223e-18
5093.31394 9.14926e-18
5094.78644 9.32162e-18
5096.25894 9.42144e-18
5097.73144 9.41813e-18
5099.19392 9.42891e-18
5100.66642 9.50677e-18
5102.13892 9.56559e-18
5103.61142 9.69200e-18
5105.07390 9.88921e-18
5106.54640 9.95599e-18
5108.01890 1.01726e-17
5109.49139 1.03611e-17
5110.95388 1.03175e-17
5112.42638 1.03024e-17
5113.89887 1.04486e-17
5115.37137 1.05324e-17
5116.83385 1.06135e-17
5118.30635 1.07295e-17
5119.77885 1.08814e-17
5121.25135 1.10958e-17
5122.71383 1.11028e-17
5124.18633 1.12742e-17
5125.65883 1.13932e-17
5127.13133 1.14552e-17
5128.59381 1.16248e-17
5130.06631 1.16005e-17
5131.53881 1.15534e-17
5133.01131 1.16298e-17
5134.47379 1.16581e-17
5135.94629 1.15856e-17
5137.41879 1.15766e-17
5138.89129 1.16285e-17
5140.35377 1.16924e-17
5141.82627 1.17040e-17
5143.29877 1.17065e-17
5144.76125 1.17603e-17
5146.23375 1.17173e-17
5147.70625 1.16309e-17
5149.17875 1.15667e-17
5150.64123 1.15764e-17
5152.11373 1.16328e-17
5153.58623 1.16277e-17
5155.05873 1.17861e-17
5156.52121 1.18787e-17
5157.99371 1.18644e-17
5159.46621 1.19365e-17
5160.93871 1.20349e-17
5162.40119 1.19539e-17
5163.87369 1.18946e-17
5165.34619 1.20844e-17
5166.81869 1.21304e-17
5168.28117 1.22343e-17
5169.75367 1.23640e-17
5171.22617 1.23312e-17
5172.69866 1.23096e-17
5174.16115 1.23350e-17
5175.63365 1.23805e-17
5177.10614 1.23289e-17
5178.57864 1.22825e-17
5180.04112 1.22318e-17
5181.51362 1.21527e-17
5182.98612 1.21275e-17
5184.45862 1.21373e-17
5185.92110 1.19802e-17
5187.39360 1.19250e-17
5188.86610 1.20448e-17
5190.33860 1.20734e-17
5191.80108 1.20922e-17
5193.27358 1.20819e-17
5194.74608 1.20328e-17
5196.21858 1.20337e-17
5197.68106 1.21424e-17
5199.15356 1.21366e-17
5200.62606 1.20003e-17
5202.09856 1.18585e-17
5203.56104 1.19583e-17
5205.03354 1.19572e-17
5206.50604 1.19639e-17
5207.97854 1.19637e-17
5209.44102 1.19100e-17
5210.91352 1.20782e-17
5212.38602 1.20554e-17
5213.85852 1.19257e-17
5215.32100 1.19403e-17
5216.79350 1.19979e-17
5218.26600 1.20786e-17
5219.73850 1.20616e-17
5221.20098 1.20493e-17
5222.67348 1.20268e-17
5224.14598 1.20335e-17
5225.61848 1.21409e-17
5227.08096 1.20893e-17
5228.55346 1.20105e-17
5230.02596 1.21102e-17
5231.48844 1.22996e-17
5232.96094 1.23689e-17
5234.43343 1.24570e-17
5235.90593 1.24428e-17
5237.36842 1.25117e-17
5238.84091 1.27779e-17
5240.31341 1.28676e-17
5241.78591 1.28697e-17
5243.24840 1.29638e-17
5244.72089 1.32039e-17
5246.19339 1.33208e-17
5247.66589 1.33619e-17
5249.12837 1.34988e-17
5250.60087 1.34848e-17
5252.07337 1.35135e-17
5253.54587 1.36006e-17
5255.00835 1.38312e-17
5256.48085 1.38513e-17
5257.95335 1.37553e-17
5259.42585 1.38813e-17
5260.88833 1.40621e-17
5262.36083 1.42375e-17
5263.83333 1.42636e-17
5265.30583 1.42243e-17
5266.76831 1.41627e-17
5268.24081 1.43029e-17
5269.71331 1.43441e-17
5271.18581 1.42631e-17
5272.64829 1.42393e-17
5274.12079 1.42620e-17
5275.59329 1.44875e-17
5277.06579 1.45260e-17
5278.52827 1.43592e-17
5280.00077 1.44232e-17
5281.47327 1.45550e-17
5282.94577 1.44774e-17
5284.40825 1.44531e-17
5285.88075 1.45593e-17
5287.35325 1.45092e-17
5288.82575 1.43290e-17
5290.28823 1.43538e-17
5291.76073 1.45073e-17
5293.23322 1.45461e-17
5294.70572 1.45468e-17
5296.16821 1.45982e-17
5297.64070 1.47106e-17
5299.11320 1.48536e-17
5300.58570 1.49125e-17
5302.04819 1.50490e-17
5303.52068 1.51794e-17
5304.99318 1.53148e-17
5306.46568 1.55115e-17
5307.92816 1.55317e-17
5309.40066 1.55113e-17
5310.87316 1.57194e-17
5312.34566 1.57468e-17
5313.80814 1.56551e-17
5315.28064 1.58502e-17
5316.75314 1.60227e-17
5318.22564 1.60506e-17
5319.68812 1.61962e-17
5321.16062 1.64139e-17
5322.63312 1.63223e-17
5324.09560 1.60226e-17
5325.56810 1.60143e-17
5327.04060 1.62324e-17
5328.51310 1.63030e-17
5329.98560 1.62659e-17
5331.44808 1.62281e-17
5332.92058 1.62444e-17
5334.39308 1.63534e-17
5335.85556 1.63783e-17
5337.32806 1.62519e-17
5338.80056 1.61613e-17
5340.27306 1.62872e-17
5341.73554 1.63844e-17
5343.20804 1.62829e-17
5344.68054 1.62685e-17
5346.15304 1.63645e-17
5347.61552 1.63795e-17
5349.08802 1.63615e-17
5350.56052 1.64093e-17
5352.03301 1.65417e-17
5353.49550 1.65742e-17
5354.96800 1.64925e-17
5356.44050 1.65226e-17
5357.91299 1.66678e-17
5359.37548 1.68258e-17
5360.84798 1.68202e-17
5362.32047 1.68182e-17
5363.79297 1.69262e-17
5365.25545 1.69884e-17
5366.72795 1.70656e-17
5368.20045 1.70898e-17
5369.67295 1.71751e-17
5371.13543 1.71529e-17
5372.60793 1.70609e-17
5374.08043 1.72476e-17
5375.55293 1.73832e-17
5377.01541 1.73085e-17
5378.48791 1.73073e-17
5379.96041 1.73602e-17
5381.43291 1.73854e-17
5382.89539 1.74928e-17
5384.36789 1.73856e-17
5385.84039 1.71839e-17
5387.31289 1.72089e-17
5388.77537 1.71977e-17
5390.24787 1.70600e-17
5391.72037 1.69979e-17
5393.19287 1.69528e-17
5394.65535 1.67986e-17
5396.12785 1.65971e-17
5397.60035 1.64755e-17
5399.07285 1.63532e-17
5400.53533 1.62443e-17
5402.00783 1.59903e-17
5403.48033 1.56888e-17
5404.95283 1.56690e-17
5406.41531 1.55468e-17
5407.88781 1.53520e-17
5409.36031 1.52464e-17
5410.83281 1.51844e-17
5412.29529 1.51104e-17
5413.76779 1.48600e-17
5415.24029 1.46790e-17
5416.71278 1.46540e-17
5418.17527 1.46299e-17
5419.64776 1.45759e-17
5421.12026 1.43479e-17
5422.59276 1.41610e-17
5424.05525 1.39218e-17
5425.52774 1.38794e-17
5427.00024 1.39385e-17
5428.46273 1.37234e-17
5429.93522 1.35633e-17
5431.40772 1.35722e-17
5432.88022 1.34832e-17
5434.34270 1.34378e-17
5435.81520 1.34857e-17
5437.28770 1.33559e-17
5438.76020 1.33842e-17
5440.22268 1.35029e-17
5441.69518 1.34526e-17
5443.16768 1.34090e-17
5444.64018 1.36074e-17
5446.10266 1.37350e-17
5447.57516 1.36651e-17
5449.04766 1.37670e-17
5450.52016 1.40065e-17
5451.98264 1.42559e-17
5453.45514 1.44138e-17
5454.92764 1.45076e-17
5456.40014 1.46614e-17
5457.86262 1.49052e-17
5459.33512 1.50261e-17
5460.80762 1.50571e-17
5462.28012 1.51432e-17
5463.74260 1.53010e-17
5465.21510 1.54533e-17
5466.68760 1.56119e-17
5468.16010 1.59440e-17
5469.62258 1.63047e-17
5471.09508 1.64233e-17
5472.56758 1.64794e-17
5474.04007 1.67127e-17
5475.50256 1.69442e-17
5476.97506 1.70724e-17
5478.44755 1.73043e-17
5479.92005 1.75209e-17
5481.38254 1.76363e-17
5482.85504 1.77737e-17
5484.32753 1.78880e-17
5485.80003 1.80222e-17
5487.26252 1.84229e-17
5488.73501 1.85677e-17
5490.20751 1.84853e-17
5491.68001 1.86421e-17
5493.14249 1.88225e-17
5494.61499 1.87941e-17
5496.08749 1.87510e-17
5497.55999 1.89214e-17
5499.02247 1.90820e-17
5500.49497 1.90136e-17
5501.96747 1.90282e-17
5503.43997 1.90929e-17
5504.90245 1.90864e-17
5506.37495 1.90813e-17
5507.84745 1.90681e-17
5509.31995 1.88299e-17
5510.78243 1.89156e-17
5512.25493 1.89024e-17
5513.72743 1.87470e-17
5515.18991 1.87865e-17
5516.66241 1.86450e-17
5518.13491 1.85019e-17
5519.60741 1.84690e-17
5521.07991 1.83664e-17
5522.54239 1.82815e-17
5524.01489 1.81986e-17
5525.48739 1.80348e-17
5526.94987 1.79423e-17
5528.42237 1.76613e-17
5529.89487 1.76073e-17
5531.36737 1.72891e-17
5532.82985 1.71834e-17
5534.30235 1.71748e-17
5535.77485 1.68177e-17
5537.24735 1.67107e-17
5538.70983 1.67121e-17
5540.18233 1.64848e-17
5541.65483 1.61303e-17
5543.12732 1.59237e-17
5544.58981 1.56780e-17
5546.06230 1.55033e-17
5547.53480 1.53622e-17
5549.00730 1.50931e-17
5550.46979 1.48452e-17
5551.94228 1.47266e-17
5553.41478 1.46229e-17
5554.88728 1.43713e-17
5556.34976 1.42120e-17
5557.82226 1.40849e-17
5559.29476 1.38520e-17
5560.76726 1.37415e-17
5562.22974 1.37077e-17
5563.70224 1.35801e-17
5565.17474 1.34905e-17
5566.64724 1.34257e-17
5568.10972 1.33919e-17
5569.58222 1.33094e-17
5571.05472 1.30962e-17
5572.52722 1.30760e-17
5573.98970 1.31750e-17
5575.46220 1.32896e-17
5576.93470 1.33502e-17
5578.40720 1.32959e-17
5579.86968 1.34482e-17
5581.34218 1.33613e-17
5582.81468 1.32505e-17
5584.28718 1.33335e-17
5585.74966 1.34648e-17
5587.22216 1.36388e-17
5588.69466 1.37285e-17
5590.16716 1.37134e-17
5591.62964 1.38108e-17
5593.10214 1.39748e-17
5594.57464 1.40948e-17
5596.04714 1.42244e-17
5597.50962 1.43095e-17
5598.98212 1.44383e-17
5600.45461 1.44785e-17
5601.92711 1.45858e-17
5603.38960 1.48094e-17
5604.86210 1.48863e-17
5606.33459 1.49505e-17
5607.80709 1.51902e-17
5609.26958 1.52820e-17
5610.74207 1.52511e-17
5612.21457 1.54115e-17
5613.68707 1.55127e-17
5615.14955 1.56094e-17
5616.62205 1.58520e-17
5618.09455 1.60949e-17
5619.55703 1.62053e-17
5621.02953 1.60184e-17
5622.50203 1.60336e-17
5623.97453 1.63456e-17
5625.43701 1.64574e-17
5626.90951 1.64820e-17
5628.38201 1.65624e-17
5629.85451 1.66364e-17
5631.31699 1.67118e-17
5632.78949 1.67940e-17
5634.26199 1.69413e-17
5635.73449 1.68774e-17
5637.19697 1.66677e-17
5638.66947 1.67178e-17
5640.14197 1.66857e-17
5641.61447 1.66839e-17
5643.07695 1.69061e-17
5644.54945 1.69346e-17
5646.02195 1.68681e-17
5647.49445 1.69249e-17
5648.95693 1.68728e-17
5650.42943 1.66130e-17
5651.90193 1.66085e-17
5653.37443 1.67338e-17
5654.83691 1.65819e-17
5656.30941 1.65418e-17
5657.78191 1.65930e-17
5659.25440 1.64489e-17
5660.71689 1.63989e-17
5662.18939 1.64797e-17
5663.66189 1.63617e-17
5665.13438 1.60221e-17
5666.59687 1.59010e-17
5668.06937 1.60022e-17
5669.54186 1.59992e-17
5671.01436 1.58275e-17
5672.47685 1.55342e-17
5673.94934 1.54160e-17
5675.42184 1.53817e-17
5676.89434 1.53690e-17
5678.35682 1.51234e-17
5679.82932 1.49639e-17
5681.30182 1.48345e-17
5682.77432 1.48601e-17
5684.23680 1.47540e-17
5685.70930 1.44613e-17
5687.18180 1.42294e-17
5688.65430 1.41271e-17
5690.11678 1.39680e-17
5691.58928 1.38504e-17
5693.06178 1.37382e-17
5694.53428 1.36105e-17
5695.99676 1.33499e-17
5697.46926 1.31847e-17
5698.94176 1.30423e-17
5700.41426 1.28760e-17
5701.87674 1.26882e-17
5703.34924 1.24307e-17
5704.82174 1.22126e-17
5706.28422 1.21455e-17
5707.75672 1.20820e-17
5709.22922 1.19357e-17
5710.70172 1.17913e-17
5712.16420 1.15525e-17
5713.63670 1.12794e-17
5715.10920 1.11925e-17
5716.58170 1.09423e-17
5718.05420 1.08511e-17
5719.51668 1.07867e-17
5720.98918 1.06128e-17
5722.46168 1.06188e-17
5723.92416 1.04973e-17
5725.39666 1.04066e-17
5726.86915 1.02848e-17
5728.34165 1.01568e-17
5729.80414 1.01095e-17
5731.27664 1.00285e-17
5732.74913 9.84408e-18
5734.22163 9.77927e-18
5735.68412 9.60771e-18
5737.15661 9.37191e-18
5738.62911 9.31653e-18
5740.10161 9.24374e-18
5741.56409 9.18744e-18
5743.03659 9.14863e-18
5744.50909 8.99810e-18
5745.98159 8.91585e-18
5747.44407 8.76903e-18
5748.91657 8.77922e-18
5750.38907 8.63217e-18
5751.86157 8.60273e-18
5753.32405 8.64796e-18
5754.79655 8.42700e-18
5756.26905 8.44202e-18
5757.74155 8.50069e-18
5759.20403 8.34463e-18
5760.67653 8.38610e-18
5762.14903 8.28185e-18
5763.62153 8.26417e-18
5765.08401 8.35893e-18
5766.55651 8.29100e-18
5768.02901 8.21826e-18
5769.50151 8.17332e-18
5770.96399 8.14670e-18
5772.43649 8.13820e-18
5773.90899 8.17710e-18
5775.38149 8.29125e-18
5776.84397 8.37919e-18
5778.31647 8.21387e-18
5779.78897 8.11599e-18
5781.26146 8.20636e-18
5782.72395 8.34664e-18
5784.19645 8.49750e-18
5785.66895 8.60079e-18
5787.14144 8.75273e-18
5788.60393 8.89320e-18
5790.07643 8.93708e-18
5791.54892 8.85715e-18
5793.02142 9.04662e-18
5794.48391 9.24278e-18
5795.95640 9.51064e-18
5797.42890 9.64027e-18
5798.90140 9.80333e-18
5800.36388 1.00258e-17
5801.83638 1.02956e-17
5803.30888 1.04973e-17
5804.78138 1.06432e-17
5806.24386 1.08304e-17
5807.71636 1.12859e-17
5809.18886 1.16504e-17
5810.65134 1.18676e-17
5812.12384 1.20423e-17
5813.59634 1.24332e-17
5815.06884 1.27111e-17
5816.53132 1.29954e-17
5818.00382 1.33457e-17
5819.47632 1.34560e-17
5820.94882 1.37282e-17
5822.41130 1.39667e-17
5823.88380 1.42027e-17
5825.35630 1.44161e-17
5826.82880 1.45969e-17
5828.29128 1.49618e-17
5829.76378 1.50142e-17
5831.23628 1.49309e-17
5832.70878 1.52975e-17
5834.17126 1.55888e-17
5835.64376 1.57573e-17
5837.11626 1.57594e-17
5838.58876 1.57978e-17
5840.05124 1.60082e-17
5841.52374 1.63046e-17
5842.99624 1.64152e-17
5844.46874 1.63614e-17
5845.93122 1.64081e-17
5847.40372 1.64417e-17
5848.87622 1.65516e-17
5850.34871 1.67442e-17
5851.81120 1.68138e-17
5853.28370 1.69207e-17
5854.75619 1.69412e-17
5856.22869 1.69107e-17
5857.69117 1.69071e-17
5859.16367 1.69844e-17
5860.63617 1.72264e-17
5862.10867 1.73752e-17
5863.57115 1.72918e-17
5865.04365 1.71869e-17
5866.51615 1.71865e-17
5867.98865 1.71768e-17
5869.45113 1.72178e-17
5870.92363 1.72520e-17
5872.39613 1.72572e-17
5873.86863 1.72568e-17
5875.33111 1.71065e-17
5876.80361 1.70626e-17
5878.27611 1.71581e-17
5879.74861 1.70130e-17
5881.21109 1.69086e-17
5882.68359 1.71163e-17
5884.15609 1.71303e-17
5885.62859 1.67454e-17
5887.09107 1.62075e-17
5888.56357 1.55776e-17
5890.03607 1.54482e-17
5891.50857 1.57555e-17
5892.97105 1.58646e-17
5894.44355 1.55689e-17
5895.91605 1.53320e-17
5897.38855 1.53239e-17
5898.85103 1.52488e-17
5900.32353 1.54370e-17
5901.79603 1.58537e-17
5903.25851 1.59540e-17
5904.73101 1.60855e-17
5906.20351 1.61185e-17
5907.67601 1.60046e-17
5909.13849 1.59816e-17
5910.61099 1.61427e-17
5912.08349 1.62452e-17
5913.55598 1.61166e-17
5915.01847 1.62611e-17
5916.49096 1.61009e-17
5917.96346 1.59393e-17
5919.43596 1.58659e-17
5920.89845 1.59058e-17
5922.37094 1.59545e-17
5923.84344 1.59829e-17
5925.31594 1.61044e-17
5926.77842 1.62158e-17
5928.25092 1.64161e-17
5929.72342 1.63867e-17
5931.19592 1.63719e-17
5932.65840 1.64666e-17
5934.13090 1.64479e-17
5935.60340 1.64968e-17
5937.07590 1.65222e-17
5938.53838 1.63728e-17
5940.01088 1.62445e-17
5941.48338 1.60214e-17
5942.95588 1.60284e-17
5944.41836 1.60708e-17
5945.89086 1.60319e-17
5947.36336 1.61169e-17
5948.83586 1.60697e-17
5950.29834 1.61163e-17
5951.77084 1.62324e-17
5953.24334 1.63697e-17
5954.71584 1.63391e-17
5956.17832 1.62109e-17
5957.65082 1.58994e-17
5959.12332 1.59930e-17
5960.59582 1.62414e-17
5962.05830 1.63213e-17
5963.53080 1.62172e-17
5965.00330 1.61021e-17
5966.47580 1.60252e-17
5967.93828 1.59361e-17
5969.41078 1.59427e-17
5970.88328 1.61689e-17
5972.35577 1.62131e-17
5973.81826 1.61309e-17
5975.29075 1.59906e-17
5976.76325 1.61424e-17
5978.23575 1.61654e-17
5979.69824 1.61192e-17
5981.17073 1.62165e-17
5982.64323 1.61507e-17
5984.11573 1.59683e-17
5985.57821 1.59518e-17
5987.05071 1.58476e-17
5988.52321 1.57189e-17
5989.99571 1.56408e-17
5991.45819 1.55472e-17
5992.93069 1.54388e-17
5994.40319 1.53399e-17
5995.86567 1.54057e-17
5997.33817 1.54231e-17
5998.81067 1.52734e-17
6000.28317 1.52308e-17
6001.74565 1.50933e-17
6003.21815 1.48987e-17
6004.69065 1.49233e-17
6006.16315 1.49320e-17
6007.62563 1.48844e-17
6009.09813 1.47831e-17
6010.57063 1.46943e-17
6012.04313 1.43695e-17
6013.50561 1.43647e-17
6014.97811 1.46254e-17
6016.45061 1.45582e-17
6017.92311 1.44462e-17
6019.38559 1.43893e-17
6020.85809 1.42816e-17
6022.33059 1.42000e-17
6023.80309 1.40921e-17
6025.26557 1.41302e-17
6026.73807 1.40382e-17
6028.21057 1.38706e-17
6029.68307 1.38479e-17
6031.14555 1.39470e-17
6032.61805 1.38813e-17
6034.09055 1.37925e-17
6035.56304 1.38439e-17
6037.02553 1.37739e-17
6038.49802 1.38197e-17
6039.97052 1.38259e-17
6041.44302 1.38343e-17
6042.90550 1.37756e-17
6044.37800 1.35953e-17
6045.85050 1.35739e-17
6047.32300 1.35892e-17
6048.78548 1.36461e-17
6050.25798 1.36132e-17
6051.73048 1.34368e-17
6053.20298 1.32715e-17
6054.66546 1.32831e-17
6056.13796 1.32091e-17
6057.61046 1.30785e-17
6059.08296 1.31435e-17
6060.54544 1.29978e-17
6062.01794 1.29464e-17
6063.49044 1.29357e-17
6064.96294 1.29478e-17
6066.42542 1.30111e-17
6067.89792 1.28632e-17
6069.37042 1.28582e-17
6070.84292 1.29194e-17
6072.30540 1.29889e-17
6073.77790 1.31251e-17
6075.25040 1.33439e-17
6076.72290 1.34605e-17
6078.18538 1.34583e-17
6079.65788 1.35655e-17
6081.13038 1.36525e-17
6082.59286 1.38098e-17
6084.06536 1.39567e-17
6085.53786 1.38105e-17
6087.01036 1.37548e-17
6088.48286 1.39757e-17
6089.94534 1.40912e-17
6091.41784 1.41840e-17
6092.89034 1.41198e-17
6094.36283 1.41008e-17
6095.82532 1.41780e-17
6097.29781 1.42274e-17
6098.77031 1.42940e-17
6100.23280 1.43728e-17
6101.70530 1.42576e-17
6103.17779 1.40963e-17
6104.65029 1.41547e-17
6106.11278 1.43052e-17
6107.58527 1.43290e-17
6109.05777 1.41988e-17
6110.53027 1.41594e-17
6111.99275 1.41988e-17
6113.46525 1.42097e-17
6114.93775 1.41337e-17
6116.41025 1.42705e-17
6117.87273 1.42372e-17
6119.34523 1.40123e-17
6120.81773 1.39918e-17
6122.29023 1.39987e-17
6123.75271 1.40665e-17
6125.22521 1.39264e-17
6126.69771 1.38873e-17
6128.17021 1.37245e-17
6129.63269 1.35786e-17
6131.10519 1.36002e-17
6132.57769 1.35276e-17
6134.05019 1.34685e-17
6135.51267 1.32609e-17
6136.98517 1.31353e-17
6138.45767 1.30285e-17
6139.93017 1.30685e-17
6141.39265 1.30485e-17
6142.86515 1.28140e-17
6144.33765 1.27779e-17
6145.81015 1.28402e-17
6147.27263 1.28736e-17
6148.74513 1.28427e-17
6150.21763 1.26081e-17
6151.69013 1.24407e-17
6153.15261 1.24525e-17
6154.62511 1.26187e-17
6156.09760 1.26272e-17
6157.57010 1.27181e-17
6159.03259 1.27950e-17
6160.50509 1.29220e-17
6161.97758 1.29957e-17
6163.45008 1.30830e-17
6164.91256 1.30906e-17
6166.38506 1.29646e-17
6167.85756 1.31366e-17
6169.32005 1.33263e-17
6170.79254 1.33331e-17
6172.26504 1.34599e-17
6173.73754 1.33968e-17
6175.21004 1.36181e-17
6176.67252 1.37625e-17
6178.14502 1.38140e-17
6179.61752 1.39353e-17
6181.09002 1.38873e-17
6182.55250 1.39782e-17
6184.02500 1.41544e-17
6185.49750 1.42804e-17
6186.95998 1.42389e-17
6188.43248 1.43334e-17
6189.90498 1.44582e-17
6191.37748 1.44799e-17
6192.83996 1.45143e-17
6194.31246 1.47166e-17
6195.78496 1.49108e-17
6197.25746 1.46275e-17
6198.71994 1.46851e-17
6200.19244 1.49894e-17
6201.66494 1.49899e-17
6203.13744 1.49299e-17
6204.59992 1.52508e-17
6206.07242 1.52604e-17
6207.54492 1.53589e-17
6209.01742 1.53920e-17
6210.47990 1.52568e-17
6211.95240 1.53333e-17
6213.42490 1.53389e-17
6214.89740 1.54273e-17
6216.35988 1.54771e-17
6217.83238 1.54223e-17
6219.30487 1.54742e-17
6220.77737 1.56162e-17
6222.23986 1.54017e-17
6223.71235 1.52829e-17
6225.18485 1.53249e-17
6226.65735 1.53367e-17
6228.11984 1.53155e-17
6229.59233 1.53679e-17
6231.06483 1.53496e-17
6232.53733 1.53236e-17
6233.99981 1.54798e-17
6235.47231 1.53310e-17
6236.94481 1.52504e-17
6238.41731 1.53847e-17
6239.87979 1.52432e-17
6241.35229 1.50238e-17
6242.82479 1.51145e-17
6244.29729 1.52139e-17
6245.75977 1.49859e-17
6247.23227 1.47979e-17
6248.70477 1.48411e-17
6250.17727 1.48077e-17
6251.63975 1.46886e-17
6253.11225 1.46943e-17
6254.58475 1.46032e-17
6256.05725 1.44399e-17
6257.51973 1.43817e-17
6258.99223 1.44068e-17
6260.46473 1.43531e-17
6261.93723 1.43749e-17
6263.39971 1.44939e-17
6264.87221 1.44232e-17
6266.34471 1.43446e-17
6267.81721 1.42068e-17
6269.27969 1.42473e-17
6270.75219 1.42141e-17
6272.22469 1.39902e-17
6273.68717 1.40889e-17
6275.15967 1.42189e-17
6276.63217 1.41305e-17
6278.10466 1.40049e-17
6279.56715 1.40373e-17
6281.03965 1.38676e-17
6282.51215 1.36341e-17
6283.98464 1.36435e-17
6285.45714 1.37273e-17
6286.91963 1.37794e-17
6288.39212 1.38121e-17
6289.86462 1.37038e-17
6291.32711 1.37741e-17
6292.79960 1.38252e-17
6294.27210 1.37097e-17
6295.74460 1.38866e-17
6297.20708 1.39643e-17
6298.67958 1.36259e-17
6300.15208 1.36201e-17
6301.62458 1.36944e-17
6303.08706 1.35146e-17
6304.55956 1.35009e-17
6306.03206 1.35821e-17
6307.50456 1.35216e-17
6308.96704 1.37434e-17
6310.43954 1.37474e-17
6311.91204 1.37334e-17
6313.38454 1.38096e-17
6314.84702 1.37191e-17
6316.31952 1.37015e-17
6317.79202 1.35192e-17
6319.26452 1.32999e-17
6320.72700 1.34510e-17
6322.19950 1.36032e-17
6323.67200 1.33196e-17
6325.14450 1.31358e-17
6326.60698 1.32940e-17
6328.07948 1.31660e-17
6329.55198 1.29896e-17
6331.02448 1.30748e-17
6332.48696 1.29650e-17
6333.95946 1.27664e-17
6335.43196 1.28332e-17
6336.90445 1.27082e-17
6338.36694 1.26728e-17
6339.83944 1.25256e-17
6341.31194 1.25910e-17
6342.78443 1.26559e-17
6344.24692 1.25982e-17
6345.71942 1.24470e-17
6347.19191 1.23660e-17
6348.66441 1.22080e-17
6350.12690 1.20009e-17
6351.59939 1.22851e-17
6353.07189 1.23906e-17
6354.54439 1.21646e-17
6356.00687 1.19524e-17
6357.47937 1.20126e-17
6358.95187 1.20313e-17
6360.41435 1.18936e-17
6361.88685 1.16898e-17
6363.35935 1.19193e-17
6364.83185 1.19779e-17
6366.30435 1.20162e-17
6367.76683 1.19987e-17
6369.23933 1.21690e-17
6370.71183 1.22925e-17
6372.18433 1.23209e-17
6373.64681 1.23997e-17
6375.11931 1.25366e-17
6376.59181 1.25125e-17
6378.05429 1.24528e-17
6379.52679 1.26471e-17
6380.99929 1.27888e-17
6382.47179 1.27490e-17
6383.93427 1.28202e-17
6385.40677 1.28912e-17
6386.87927 1.29265e-17
6388.35177 1.30499e-17
6389.81425 1.31886e-17
6391.28675 1.32777e-17
6392.75925 1.32181e-17
6394.23175 1.31243e-17
6395.69423 1.30422e-17
6397.16673 1.31356e-17
6398.63923 1.31472e-17
6400.11173 1.32343e-17
6401.57421 1.32696e-17
6403.04671 1.32497e-17
6404.51920 1.31131e-17
6405.99170 1.33235e-17
6407.45419 1.31769e-17
6408.92669 1.31252e-17
6410.39918 1.33016e-17
6411.87168 1.33537e-17
6413.33417 1.33141e-17
6414.80666 1.33693e-17
6416.27916 1.34108e-17
6417.75166 1.34178e-17
6419.21414 1.34204e-17
6420.68664 1.35310e-17
6422.15914 1.37337e-17
6423.63164 1.37555e-17
6425.09412 1.36087e-17
6426.56662 1.37752e-17
6428.03912 1.38325e-17
6429.51162 1.38757e-17
6430.97410 1.39590e-17
6432.44660 1.40259e-17
6433.91910 1.40331e-17
6435.39160 1.41673e-17
6436.85408 1.41471e-17
6438.32658 1.42235e-17
6439.79908 1.42516e-17
6441.27158 1.43751e-17
6442.73406 1.43222e-17
6444.20656 1.43132e-17
6445.67906 1.44814e-17
6447.15156 1.45286e-17
6448.61404 1.44266e-17
6450.08654 1.43502e-17
6451.55904 1.45221e-17
6453.03154 1.46121e-17
6454.49402 1.44216e-17
6455.96652 1.44224e-17
6457.43902 1.44823e-17
6458.91151 1.43945e-17
6460.37400 1.44275e-17
6461.84650 1.42519e-17
6463.31900 1.42464e-17
6464.78148 1.42112e-17
6466.25398 1.41124e-17
6467.72648 1.40546e-17
6469.19897 1.38438e-17
6470.67147 1.37858e-17
6472.13396 1.37474e-17
6473.60645 1.37584e-17
6475.07895 1.36366e-17
6476.55145 1.36108e-17
6478.01393 1.35412e-17
6479.48643 1.36174e-17
6480.95893 1.35909e-17
6482.42141 1.34171e-17
6483.89391 1.35961e-17
6485.36641 1.35226e-17
6486.83891 1.34495e-17
6488.30139 1.34917e-17
6489.77389 1.35458e-17
6491.24639 1.35365e-17
6492.71889 1.34130e-17
6494.18137 1.35254e-17
6495.65387 1.35071e-17
6497.12637 1.35002e-17
6498.59887 1.34577e-17
6500.06135 1.35101e-17
6501.53385 1.36669e-17
6503.00635 1.34739e-17
6504.47885 1.34156e-17
6505.94133 1.34527e-17
6507.41383 1.34471e-17
6508.88633 1.34292e-17
6510.35883 1.34076e-17
6511.82131 1.34626e-17
6513.29381 1.32868e-17
6514.76631 1.30292e-17
6516.23881 1.30025e-17
6517.70129 1.31815e-17
6519.17379 1.34776e-17
6520.64629 1.36377e-17
6522.11879 1.38290e-17
6523.58127 1.38852e-17
6525.05377 1.40197e-17
6526.52627 1.40902e-17
6527.99876 1.40688e-17
6529.46125 1.41447e-17
6530.93375 1.42142e-17
6532.40624 1.42683e-17
6533.87874 1.40178e-17
6535.34123 1.42318e-17
6536.81372 1.42275e-17
6538.28622 1.40516e-17
6539.75872 1.41868e-17
6541.22120 1.41975e-17
6542.69370 1.41271e-17
6544.16620 1.41170e-17
6545.63870 1.41068e-17
6547.10118 1.40966e-17
6548.57368 1.40864e-17
6550.04618 1.40762e-17
6551.51868 1.40660e-17
6552.98116 1.40558e-17
6554.45366 1.40456e-17
6555.92616 1.40354e-17
6557.39866 1.40252e-17
6558.86114 1.40150e-17
6560.33364 1.40048e-17
6561.80614 1.39947e-17
6563.27864 1.39845e-17
6564.74112 1.39743e-17
6566.21362 1.39641e-17
6567.68612 1.39539e-17
6569.14860 1.39437e-17
6570.62110 1.39335e-17
6572.09360 1.39234e-17
6573.56610 1.39132e-17
6575.02858 1.39030e-17
6576.50108 1.38928e-17
6577.97358 1.38826e-17
6579.44608 1.38725e-17
6580.90856 1.38623e-17
6582.38106 1.38521e-17
6583.85356 1.38419e-17
6585.32605 1.38318e-17
6586.78854 1.38216e-17
6588.26104 1.38114e-17
6589.73354 1.38012e-17
6591.20603 1.37911e-17
6592.66852 1.37809e-17
6594.14102 1.37707e-17
6595.61351 1.37606e-17
6597.08601 1.37504e-17
6598.54850 1.37402e-17
6600.02099 1.37301e-17
6601.49349 1.37199e-17
6602.96599 1.37097e-17
6604.42847 1.36996e-17
6605.90097 1.38345e-17
6607.37347 1.37681e-17
6608.84597 1.35665e-17
6610.30845 1.37017e-17
6611.78095 1.35515e-17
6613.25345 1.34961e-17
6614.72595 1.34198e-17
6616.18843 1.35232e-17
6617.66093 1.34578e-17
6619.13343 1.36084e-17
6620.60593 1.37979e-17
6622.06841 1.37027e-17
6623.54091 1.37168e-17
6625.01341 1.36336e-17
6626.48591 1.36523e-17
6627.94839 1.34630e-17
6629.42089 1.34910e-17
6630.89339 1.35609e-17
6632.36589 1.34999e-17
6633.82837 1.33590e-17
6635.30087 1.34909e-17
6636.77337 1.37242e-17
6638.24587 1.36592e-17
6639.70835 1.36593e-17
6641.18085 1.35919e-17
6642.65335 1.34735e-17
6644.12585 1.35129e-17
6645.58833 1.34536e-17
6647.06083 1.35356e-17
6648.53333 1.34629e-17
6650.00582 1.34263e-17
6651.46831 1.34627e-17
6652.94081 1.34899e-17
6654.41330 1.34593e-17
6655.87579 1.32661e-17
6657.34829 1.32264e-17
6658.82078 1.33980e-17
6660.29328 1.31865e-17
6661.76578 1.31266e-17
6663.22826 1.33666e-17
6664.70076 1.33719e-17
6666.17326 1.33295e-17
6667.63574 1.33532e-17
6669.10824 1.32830e-17
6670.58074 1.32432e-17
6672.05324 1.31478e-17
6673.51572 1.29948e-17
6674.98822 1.29646e-17
6676.46072 1.29883e-17
6677.93322 1.30524e-17
6679.39570 1.29545e-17
6680.86820 1.29390e-17
6682.34070 1.28965e-17
6683.81320 1.28502e-17
6685.27568 1.27755e-17
6686.74818 1.27136e-17
6688.22068 1.28297e-17
6689.69318 1.27163e-17
6691.15566 1.27075e-17
6692.62816 1.26954e-17
6694.10066 1.26351e-17
6695.57316 1.25677e-17
6697.03564 1.25667e-17
6698.50814 1.25069e-17
6699.98064 1.24281e-17
6701.45314 1.23676e-17
6702.91562 1.22253e-17
6704.38812 1.21917e-17
6705.86062 1.21135e-17
6707.33312 1.21544e-17
6708.79560 1.21546e-17
6710.26810 1.20972e-17
6711.74060 1.19844e-17
6713.21309 1.19239e-17
6714.67558 1.18828e-17
6716.14808 1.17335e-17
6717.62057 1.18509e-17
6719.09307 1.18830e-17
6720.55555 1.17749e-17
6722.02805 1.18814e-17
6723.50055 1.18272e-17
6724.97305 1.18004e-17
6726.43553 1.20410e-17
6727.90803 1.21731e-17
6729.38053 1.22762e-17
6730.85303 1.20802e-17
6732.31551 1.18430e-17
6733.78801 1.17530e-17
6735.26051 1.19727e-17
6736.73301 1.18888e-17
6738.19549 1.18203e-17
6739.66799 1.21788e-17
6741.14049 1.21416e-17
6742.61299 1.21238e-17
6744.07547 1.22078e-17
6745.54797 1.20093e-17
6747.02047 1.19460e-17
6748.49297 1.20736e-17
6749.95545 1.21125e-17
6751.42795 1.19354e-17
6752.90045 1.20179e-17
6754.36293 1.20720e-17
6755.83543 1.19989e-17
6757.30793 1.21042e-17
6758.78043 1.21650e-17
6760.24291 1.20901e-17
6761.71541 1.20147e-17
6763.18791 1.20396e-17
6764.66041 1.20356e-17
6766.13290 1.21190e-17
6767.59539 1.20924e-17
6769.06789 1.20826e-17
6770.54039 1.21190e-17
6772.00287 1.21170e-17
6773.47537 1.21579e-17
6774.94787 1.22166e-17
6776.42036 1.20652e-17
6777.88285 1.20974e-17
6779.35535 1.22045e-17
6780.82784 1.22336e-17
6782.30034 1.23255e-17
6783.76282 1.23672e-17
6785.23532 1.23571e-17
6786.70782 1.22755e-17
6788.18032 1.22397e-17
6789.64280 1.21324e-17
6791.11530 1.22429e-17
6792.58780 1.23365e-17
6794.06030 1.23095e-17
6795.52278 1.23041e-17
6796.99528 1.21929e-17
6798.46778 1.21648e-17
6799.94028 1.21240e-17
6801.40276 1.21653e-17
6802.87526 1.20720e-17
6804.34776 1.20833e-17
6805.82026 1.22277e-17
6807.28274 1.21471e-17
6808.75524 1.21659e-17
6810.22774 1.21623e-17
6811.70024 1.20794e-17
6813.16272 1.20898e-17
6814.63522 1.19434e-17
6816.10772 1.21313e-17
6817.58022 1.20322e-17
6819.04270 1.20003e-17
6820.51520 1.21310e-17
6821.98770 1.20384e-17
6823.46020 1.18532e-17
6824.92268 1.18624e-17
6826.39518 1.18745e-17
6827.86768 1.18475e-17
6829.34018 1.19732e-17
6830.80266 1.18505e-17
6832.27516 1.18109e-17
6833.74766 1.18478e-17
6835.22015 1.17678e-17
6836.68264 1.17368e-17
6838.15513 1.17201e-17
6839.62763 1.18889e-17
6841.09012 1.18716e-17
6842.56261 1.18254e-17
6844.03511 1.15103e-17
6845.50761 1.15061e-17
6846.98011 1.15019e-17
6848.44259 1.14977e-17
6849.91509 1.14935e-17
6851.38759 1.14893e-17
6852.86009 1.14852e-17
6854.32257 1.14810e-17
6855.79507 1.14768e-17
6857.26757 1.14726e-17
6858.73005 1.14684e-17
6860.20255 1.14643e-17
6861.67505 1.14601e-17
6863.14755 1.14559e-17
6864.61003 1.14517e-17
6866.08253 1.14475e-17
6867.55503 1.14434e-17
6869.02753 1.14392e-17
6870.49001 1.14350e-17
6871.96251 1.14308e-17
6873.43501 1.14266e-17
6874.90751 1.14225e-17
6876.36999 1.14183e-17
6877.84249 1.14141e-17
6879.31499 1.14099e-17
6880.78749 1.14058e-17
6882.24997 1.14016e-17
6883.72247 1.13974e-17
6885.19497 1.13932e-17
6886.66747 1.13890e-17
6888.12995 1.13849e-17
6889.60245 1.13807e-17
6891.07495 1.13765e-17
6892.54745 1.13723e-17
6894.00993 1.13682e-17
6895.48243 1.13640e-17
6896.95493 1.13598e-17
6898.42742 1.13556e-17
6899.88991 1.13515e-17
6901.36240 1.13473e-17
6902.83490 1.13431e-17
6904.30740 1.13389e-17
6905.76989 1.13348e-17
6907.24238 1.13306e-17
6908.71488 1.13264e-17
6910.18738 1.13223e-17
6911.64986 1.13181e-17
6913.12236 1.13139e-17
6914.59486 1.13097e-17
6916.06736 1.13056e-17
6917.52984 1.13014e-17
6919.00234 1.12972e-17
6920.47484 1.12931e-17
6921.94734 1.12889e-17
6923.40982 1.12847e-17
6924.88232 1.12805e-17
6926.35482 1.12764e-17
6927.82732 1.12722e-17
6929.28980 1.12680e-17
6930.76230 1.12639e-17
6932.23480 1.12597e-17
6933.70730 1.12555e-17
6935.16978 1.12514e-17
6936.64228 1.13325e-17
6938.11478 1.12847e-17
6939.58728 1.12071e-17
6941.04976 1.12550e-17
6942.52226 1.13650e-17
6943.99476 1.13203e-17
6945.45724 1.14477e-17
6946.92974 1.14270e-17
6948.40224 1.14562e-17
6949.87474 1.16175e-17
6951.33722 1.15477e-17
6952.80972 1.15281e-17
6954.28222 1.13231e-17
6955.75472 1.12392e-17
6957.22721 1.13967e-17
6958.68970 1.14229e-17
6960.16220 1.13076e-17
6961.63469 1.11915e-17
6963.09718 1.11260e-17
6964.56968 1.12615e-17
6966.04217 1.11391e-17
6967.51467 1.09194e-17
6968.97715 1.10367e-17
6970.44965 1.10264e-17
6971.92215 1.10874e-17
6973.39465 1.08803e-17
6974.85713 1.07594e-17
6976.32963 1.06056e-17
6977.80213 1.06625e-17
6979.27463 1.05525e-17
6980.73711 1.04666e-17
6982.20961 1.05370e-17
6983.68211 1.05312e-17
6985.15461 1.05849e-17
6986.61709 1.02157e-17
6988.08959 1.00854e-17
6989.56209 1.01757e-17
6991.03459 1.01297e-17
6992.49707 1.02425e-17
6993.96957 1.02400e-17
6995.44207 1.01824e-17
6996.91457 1.01160e-17
6998.37705 1.01260e-17
6999.84955 9.96513e-18
7001.32205 9.88240e-18
7002.79455 1.00152e-17
7004.25703 1.00838e-17
7005.72953 9.99985e-18
7007.20203 1.00640e-17
7008.67453 1.01281e-17
7010.13701 1.01923e-17
7011.60951 1.02565e-17
7013.08201 1.03207e-17
7014.55451 1.03848e-17
7016.01699 1.04490e-17
7017.48949 1.05132e-17
7018.96199 1.05773e-17
7020.43448 1.06415e-17
7021.89697 1.07056e-17
7023.36946 1.07697e-17
7024.84196 1.07694e-17
7026.31446 1.07766e-17
7027.77695 1.09493e-17
7029.24944 1.08424e-17
7030.72194 1.07804e-17
7032.18443 1.10747e-17
7033.65692 1.10866e-17
7035.12942 1.09049e-17
7036.60192 1.09229e-17
7038.06440 1.11598e-17
7039.53690 1.11553e-17
7041.00940 1.12012e-17
7042.48190 1.12976e-17
7043.95440 1.12128e-17
7045.41688 1.12835e-17
7046.88938 1.13385e-17
7048.36188 1.12783e-17
7049.82436 1.13774e-17
7051.29686 1.13780e-17
7052.76936 1.14447e-17
7054.24186 1.15028e-17
7055.70434 1.13692e-17
7057.17684 1.13320e-17
7058.64934 1.12285e-17
7060.12184 1.11767e-17
7061.58432 1.11022e-17
7063.05682 1.11674e-17
7064.52932 1.13615e-17
7066.00182 1.13066e-17
7067.46430 1.13221e-17
7068.93680 1.13339e-17
7070.40930 1.12386e-17
7071.88180 1.12333e-17
7073.34428 1.13617e-17
7074.81678 1.12491e-17
7076.28928 1.13792e-17
7077.76177 1.14411e-17
7079.22426 1.12326e-17
7080.69676 1.11053e-17
7082.16925 1.10834e-17
7083.64175 1.11344e-17
7085.10424 1.12022e-17
7086.57674 1.11324e-17
7088.04923 1.11285e-17
7089.52173 1.11293e-17
7090.98422 1.10491e-17
7092.45671 1.10454e-17
7093.92921 1.10911e-17
7095.40171 1.10259e-17
7096.86419 1.09183e-17
7098.33669 1.09093e-17
7099.80919 1.08523e-17
7101.28169 1.06989e-17
7102.74417 1.08470e-17
7104.21667 1.08369e-17
7105.68917 1.06863e-17
7107.16167 1.08158e-17
7108.62415 1.08430e-17
7110.09665 1.06645e-17
7111.56915 1.08177e-17
7113.04165 1.08992e-17
7114.50413 1.08748e-17
7115.97663 1.07914e-17
7117.44913 1.07816e-17
7118.92163 1.07217e-17
7120.38411 1.07285e-17
7121.85661 1.07874e-17
7123.32911 1.06821e-17
7124.80161 1.06911e-17
7126.26409 1.08440e-17
7127.73659 1.09045e-17
7129.20909 1.08276e-17
7130.68159 1.08695e-17
7132.14407 1.09313e-17
7133.61657 1.09632e-17
7135.08907 1.10239e-17
7136.55155 1.10908e-17
7138.02405 1.11253e-17
7139.49655 1.11634e-17
7140.96905 1.13664e-17
7142.43153 1.13903e-17
7143.90403 1.12606e-17
7145.37653 1.11823e-17
7146.84902 1.12994e-17
7148.31151 1.14425e-17
7149.78400 1.14627e-17
7151.25650 1.16548e-17
7152.72900 1.15700e-17
7154.19149 1.14080e-17
7155.66398 1.15948e-17
7157.13648 1.15125e-17
7158.60898 1.13777e-17
7160.07146 1.14702e-17
7161.54396 1.16049e-17
7163.01646 1.16075e-17
7164.48896 1.17042e-17
7165.95144 1.18030e-17
7167.42394 1.18246e-17
7168.89644 1.18675e-17
7170.36894 1.19547e-17
7171.83142 1.20026e-17
7173.30392 1.20311e-17
7174.77642 1.20753e-17
7176.24892 1.19678e-17
7177.71140 1.19782e-17
7179.18390 1.19749e-17
7180.65640 1.18221e-17
7182.12890 1.19271e-17
7183.59138 1.19194e-17
7185.06388 1.19875e-17
7186.53638 1.19152e-17
7188.00888 1.17134e-17
7189.47136 1.16656e-17
7190.94386 1.15932e-17
7192.41636 1.15888e-17
7193.88886 1.17495e-17
7195.35134 1.19369e-17
7196.82384 1.19016e-17
7198.29634 1.17846e-17
7199.76884 1.14604e-17
7201.23132 1.13669e-17
7202.70382 1.14403e-17
7204.17631 1.12643e-17
7205.64881 1.11740e-17
7207.11130 1.11865e-17
7208.58380 1.10363e-17
7210.05629 1.10628e-17
7211.52879 1.12214e-17
7212.99128 1.12169e-17
7214.46377 1.12237e-17
7215.93627 1.12970e-17
7217.40877 1.13406e-17
7218.87125 1.13050e-17
7220.34375 1.13428e-17
7221.81625 1.13782e-17
7223.28875 1.13240e-17
7224.75123 1.15340e-17
7226.22373 1.16483e-17
7227.69623 1.15030e-17
7229.16873 1.14977e-17
7230.63121 1.15603e-17
7232.10371 1.16595e-17
7233.57621 1.17310e-17
7235.03869 1.17612e-17
7236.51119 1.16369e-17
7237.98369 1.18269e-17
7239.45619 1.19780e-17
7240.91867 1.19907e-17
7242.39117 1.20011e-17
7243.86367 1.20567e-17
7245.33617 1.21342e-17
7246.79865 1.21643e-17
7248.27115 1.22339e-17
7249.74365 1.22052e-17
7251.21615 1.22338e-17
7252.67863 1.23435e-17
7254.15113 1.22989e-17
7255.62363 1.23255e-17
7257.09613 1.23299e-17
7258.55861 1.22989e-17
7260.03111 1.22172e-17
7261.50361 1.23603e-17
7262.97610 1.24119e-17
7264.43859 1.21969e-17
7265.91109 1.22852e-17
7267.38359 1.21308e-17
7268.85608 1.21571e-17
7270.31857 1.22168e-17
7271.79107 1.22828e-17
7273.26356 1.23570e-17
7274.73606 1.26132e-17
7276.19855 1.26945e-17
7277.67104 1.25293e-17
7279.14354 1.24189e-17
7280.61604 1.24898e-17
7282.07852 1.23882e-17
7283.55102 1.23866e-17
7285.02352 1.24066e-17
7286.49602 1.24722e-17
7287.95850 1.24700e-17
7289.43100 1.26027e-17
7290.90350 1.25218e-17
7292.37600 1.23743e-17
7293.83848 1.21461e-17
7295.31098 1.22178e-17
7296.78348 1.23163e-17
7298.25598 1.23783e-17
7299.71846 1.23170e-17
7301.19096 1.22330e-17
7302.66346 1.22444e-17
7304.13596 1.23133e-17
7305.59844 1.23134e-17
7307.07094 1.23697e-17
7308.54344 1.24522e-17
7310.01594 1.23609e-17
7311.47842 1.20273e-17
7312.95092 1.20202e-17
7314.42342 1.20977e-17
7315.89592 1.20411e-17
7317.35840 1.20943e-17
7318.83090 1.19706e-17
7320.30340 1.18631e-17
7321.77590 1.17869e-17
7323.23838 1.17665e-17
7324.71088 1.18594e-17
7326.18338 1.19741e-17
7327.64586 1.18743e-17
7329.11836 1.16086e-17
7330.59085 1.15858e-17
7332.06335 1.17022e-17
7333.52584 1.17469e-17
7334.99834 1.15813e-17
7336.47083 1.13783e-17
7337.94333 1.13299e-17
7339.40582 1.12426e-17
7340.87831 1.12371e-17
7342.35081 1.13474e-17
7343.82331 1.13486e-17
7345.28579 1.11925e-17
7346.75829 1.10804e-17
7348.23079 1.10357e-17
7349.70329 1.10953e-17
7351.16577 1.10188e-17
7352.63827 1.09766e-17
7354.11077 1.09151e-17
7355.58327 1.09262e-17
7357.04575 1.10249e-17
7358.51825 1.10304e-17
7359.99075 1.10258e-17
7361.46325 1.09563e-17
7362.92573 1.08900e-17
7364.39823 1.08533e-17
7365.87073 1.09274e-17
7367.34323 1.09975e-17
7368.80571 1.10843e-17
7370.27821 1.10690e-17
7371.75071 1.09854e-17
7373.22321 1.09127e-17
7374.68569 1.09644e-17
7376.15819 1.08506e-17
7377.63069 1.10406e-17
7379.10319 1.11903e-17
7380.56567 1.12238e-17
7382.03817 1.11757e-17
7383.51067 1.13005e-17
7384.98316 1.13699e-17
7386.44565 1.13242e-17
7387.91815 1.13846e-17
7389.39065 1.13554e-17
7390.86314 1.11714e-17
7392.32563 1.13527e-17
7393.79813 1.15270e-17
7395.27062 1.16143e-17
7396.74312 1.17416e-17
7398.20561 1.16648e-17
7399.67810 1.15765e-17
7401.15060 1.15170e-17
7402.62310 1.14435e-17
7404.08558 1.14550e-17
7405.55808 1.13766e-17
7407.03058 1.14372e-17
7408.50308 1.13726e-17
7409.96556 1.12585e-17
7411.43806 1.11373e-17
7412.91056 1.11783e-17
7414.38306 1.12499e-17
7415.84554 1.11095e-17
7417.31804 1.10956e-17
7417.50836 1.10956e-17
7418.36983 1.11010e-17
7419.23129 1.11065e-17
7420.09275 1.11076e-17
7420.95421 1.11086e-17
7421.82569 1.11065e-17
7422.68715 1.11042e-17
7423.54861 1.11042e-17
7424.41008 1.11042e-17
7425.27154 1.11097e-17
7426.13300 1.11152e-17
7426.99446 1.11249e-17
7427.85592 1.11346e-17
7428.71739 1.11460e-17
7429.57885 1.11575e-17
7430.44031 1.11651e-17
7431.31179 1.11728e-17
7432.17325 1.11724e-17
7433.03471 1.11720e-17
7433.89618 1.11679e-17
7434.75764 1.11637e-17
7435.61910 1.11607e-17
7436.48056 1.11576e-17
7437.34202 1.11567e-17
7438.20349 1.11559e-17
7439.06495 1.11576e-17
7439.92641 1.11594e-17
7440.79789 1.11635e-17
7441.65935 1.11676e-17
7442.52081 1.11729e-17
7443.38227 1.11783e-17
7444.24374 1.11848e-17
7445.10520 1.11911e-17
7445.96666 1.11991e-17
7446.82812 1.12072e-17
7447.68959 1.12121e-17
7448.55105 1.12170e-17
7449.41251 1.12109e-17
7450.28399 1.12049e-17
7451.14545 1.11898e-17
7452.00691 1.11748e-17
7452.86837 1.11608e-17
7453.72984 1.11468e-17
7454.59130 1.11376e-17
7455.45276 1.11285e-17
7456.31422 1.11199e-17
7457.17568 1.11115e-17
7458.03715 1.11016e-17
7458.89861 1.10917e-17
7459.77009 1.10803e-17
7460.63155 1.10689e-17
7461.49301 1.10584e-17
7462.35447 1.10478e-17
7463.21594 1.10481e-17
7464.07740 1.10485e-17
7464.93886 1.10655e-17
7465.80032 1.10826e-17
7466.66178 1.11079e-17
7467.52325 1.11333e-17
7468.38471 1.11578e-17
7469.25619 1.11821e-17
7470.11765 1.11964e-17
7470.97911 1.12106e-17
7471.84057 1.12071e-17
7472.70203 1.12035e-17
7473.56350 1.11911e-17
7474.42496 1.11789e-17
7475.28642 1.11704e-17
7476.14788 1.11620e-17
7477.00934 1.11580e-17
7477.87081 1.11540e-17
7478.73227 1.11513e-17
7479.60375 1.11486e-17
7480.46521 1.11444e-17
7481.32667 1.11402e-17
7482.18813 1.11311e-17
7483.04960 1.11220e-17
7483.91106 1.11095e-17
7484.77252 1.10969e-17
7485.63398 1.10858e-17
7486.49544 1.10746e-17
7487.35690 1.10656e-17
7488.21837 1.10565e-17
7489.08985 1.10461e-17
7489.95131 1.10358e-17
7490.81277 1.10228e-17
7491.67423 1.10099e-17
7492.53569 1.09961e-17
7493.39716 1.09824e-17
7494.25862 1.09689e-17
7495.12008 1.09555e-17
7495.98154 1.09427e-17
7496.84300 1.09299e-17
7497.70447 1.09176e-17
7498.57595 1.09053e-17
7499.43741 1.08914e-17
7500.29887 1.08774e-17
7501.16033 1.08603e-17
7502.02179 1.08431e-17
7502.88325 1.08247e-17
7503.74472 1.08063e-17
7504.60618 1.07884e-17
7505.46764 1.07704e-17
7506.32910 1.07482e-17
7507.19056 1.07259e-17
7508.06204 1.06945e-17
7508.92351 1.06632e-17
7509.78497 1.06235e-17
7510.64643 1.05837e-17
7511.50789 1.05376e-17
7512.36935 1.04915e-17
7513.23082 1.04481e-17
7514.09228 1.04046e-17
7514.95374 1.03758e-17
7515.81520 1.03471e-17
7516.67666 1.03287e-17
7517.54814 1.03103e-17
7518.40960 1.02885e-17
7519.27107 1.02666e-17
7520.13253 1.02358e-17
7520.99399 1.02050e-17
7521.85545 1.01662e-17
7522.71691 1.01276e-17
7523.57838 1.00841e-17
7524.43984 1.00406e-17
7525.30130 9.99862e-18
7526.16276 9.95659e-18
7527.02423 9.91867e-18
7527.89570 9.88066e-18
7528.75717 9.84151e-18
7529.61863 9.80237e-18
7530.48009 9.75849e-18
7531.34155 9.71462e-18
7532.20301 9.66706e-18
7533.06448 9.61960e-18
7533.92594 9.56889e-18
7534.78740 9.51818e-18
7535.64886 9.46073e-18
7536.52034 9.40328e-18
7537.38180 9.33734e-18
7538.24327 9.27139e-18
7539.10473 9.20475e-18
7539.96619 9.13810e-18
7540.82765 9.07882e-18
7541.68911 9.01953e-18
7542.55058 8.96821e-18
7543.41204 8.91689e-18
7544.27350 8.87222e-18
7545.13496 8.82756e-18
7545.99642 8.78263e-18
7546.86790 8.73766e-18
7547.72936 8.68373e-18
7548.59083 8.62979e-18
7549.45229 8.56683e-18
7550.31375 8.50385e-18
7551.17521 8.43620e-18
7552.03667 8.36855e-18
7552.89814 8.30096e-18
7553.75960 8.23338e-18
7554.62106 8.17105e-18
7555.48252 8.10874e-18
7556.35400 8.05282e-18
7557.21546 7.99691e-18
7558.07693 7.94397e-18
7558.93839 7.89104e-18
7559.79985 7.83815e-18
7560.66131 7.78527e-18
7561.52277 7.73097e-18
7562.38424 7.67667e-18
7563.24570 7.61858e-18
7564.10716 7.56049e-18
7564.96862 7.49339e-18
7565.84010 7.42628e-18
7566.70156 7.35014e-18
7567.56302 7.27398e-18
7568.42449 7.20339e-18
7569.28595 7.13281e-18
7570.14741 7.07992e-18
7571.00887 7.02708e-18
7571.87033 6.99370e-18
7572.73180 6.96035e-18
7573.59326 6.94449e-18
7574.45472 6.92867e-18
7575.31618 6.90824e-18
7576.18766 6.88781e-18
7577.04912 6.83855e-18
7577.91059 6.78924e-18
7578.77205 6.72442e-18
7579.63351 6.65958e-18
7580.49497 6.60041e-18
7581.35643 6.54126e-18
7582.21790 6.48439e-18
7583.07936 6.42753e-18
7583.94082 6.36308e-18
7584.81230 6.29861e-18
7585.67376 6.19087e-18
7586.53522 6.08303e-18
7587.39668 5.88243e-18
7588.25815 5.68164e-18
7589.11961 5.39798e-18
7589.98107 5.11417e-18
7590.84253 4.80659e-18
7591.70399 4.49898e-18
7592.56546 4.22380e-18
7593.42692 3.94869e-18
7594.28838 3.75865e-18
7595.15986 3.56879e-18
7596.02132 3.49021e-18
7596.88278 3.41186e-18
7597.74425 3.41929e-18
7598.60571 3.42689e-18
7599.46717 3.50191e-18
7600.32863 3.57705e-18
7601.19009 3.73360e-18
7602.05156 3.89030e-18
7602.91302 4.12876e-18
7603.77448 4.36736e-18
7604.64596 4.65690e-18
7605.50742 4.94653e-18
7606.36888 5.25032e-18
7607.23034 5.55413e-18
7608.09181 5.83476e-18
7608.95327 6.11534e-18
7609.81473 6.33540e-18
7610.67619 6.55533e-18
7611.53765 6.66248e-18
7612.39912 6.76940e-18
7613.26058 6.72155e-18
7614.13206 6.67340e-18
7614.99352 6.47286e-18
7615.85498 6.27203e-18
7616.71644 5.94246e-18
7617.57791 5.61264e-18
7618.43937 5.25245e-18
7619.30083 4.89222e-18
7620.16229 4.63400e-18
7621.02375 4.37600e-18
7621.88522 4.26994e-18
7622.74668 4.16419e-18
7623.61816 4.19976e-18
7624.47962 4.23562e-18
7625.34108 4.36729e-18
7626.20254 4.49915e-18
7627.06400 4.64326e-18
7627.92547 4.78738e-18
7628.78693 4.89741e-18
7629.64839 5.00736e-18
7630.50985 5.10089e-18
7631.37131 5.19438e-18
7632.23278 5.28282e-18
7633.10426 5.37125e-18
7633.96572 5.45415e-18
7634.82718 5.53704e-18
7635.68864 5.61440e-18
7636.55010 5.69176e-18
7637.41157 5.74836e-18
7638.27303 5.80491e-18
7639.13449 5.83304e-18
7639.99595 5.86112e-18
7640.85741 5.88753e-18
7641.71888 5.91394e-18
7642.59035 5.96514e-18
7643.45182 6.01638e-18
7644.31328 6.10370e-18
7645.17474 6.19107e-18
7646.03620 6.31930e-18
7646.89766 6.44761e-18
7647.75913 6.58216e-18
7648.62059 6.71671e-18
7649.48205 6.81395e-18
7650.34351 6.91110e-18
7651.20497 6.96174e-18
7652.06644 7.01229e-18
7652.93792 7.02117e-18
7653.79938 7.02996e-18
7654.66084 7.03055e-18
7655.52230 7.03113e-18
7656.38376 7.07511e-18
7657.24523 7.11917e-18
7658.10669 7.21489e-18
7658.96815 7.31072e-18
7659.82961 7.42981e-18
7660.69107 7.54893e-18
7661.55254 7.66728e-18
7662.42401 7.78561e-18
7663.28548 7.88134e-18
7664.14694 7.97702e-18
7665.00840 8.04884e-18
7665.86986 8.12060e-18
7666.73132 8.20997e-18
7667.59279 8.29936e-18
7668.45425 8.42553e-18
7669.31571 8.55175e-18
7670.17717 8.67539e-18
7671.03863 8.79901e-18
7671.91011 8.88843e-18
7672.77158 8.97775e-18
7673.63304 9.02715e-18
7674.49450 9.07636e-18
7675.35596 9.08792e-18
7676.21742 9.09940e-18
7677.07889 9.11989e-18
7677.94035 9.14029e-18
7678.80181 9.21640e-18
7679.66327 9.29268e-18
7680.52473 9.39689e-18
7681.38620 9.50111e-18
7682.25767 9.58982e-18
7683.11914 9.67862e-18
7683.98060 9.75175e-18
7684.84206 9.82487e-18
7685.70352 9.89467e-18
7686.56498 9.96447e-18
7687.42645 1.00338e-17
7688.28791 1.01031e-17
7689.14937 1.01730e-17
7690.01083 1.02429e-17
7690.88231 1.03066e-17
7691.74377 1.03704e-17
7692.60524 1.04145e-17
7693.46670 1.04587e-17
7694.32816 1.04866e-17
7695.18962 1.05144e-17
7696.05108 1.05466e-17
7696.91255 1.05787e-17
7697.77401 1.06230e-17
7698.63547 1.06671e-17
7699.49693 1.07129e-17
7700.35839 1.07586e-17
7701.22987 1.07972e-17
7702.09133 1.08358e-17
7702.95280 1.08621e-17
7703.81426 1.08882e-17
7704.67572 1.08985e-17
7705.53718 1.09085e-17
7706.39864 1.09035e-17
7707.26011 1.08983e-17
7708.12157 1.08824e-17
7708.98303 1.08666e-17
7709.84449 1.08584e-17
7710.71597 1.08502e-17
7711.57743 1.08661e-17
7712.43890 1.08820e-17
7713.30036 1.09180e-17
7714.16182 1.09541e-17
7715.02328 1.10013e-17
7715.88474 1.10485e-17
7716.74620 1.10924e-17
7717.60767 1.11363e-17
7718.46913 1.11612e-17
7719.33059 1.11862e-17
7720.20207 1.11910e-17
7721.06353 1.11958e-17
7721.92499 1.11862e-17
7722.78646 1.11767e-17
7723.64792 1.11626e-17
7724.50938 1.11485e-17
7725.37084 1.11430e-17
7726.23230 1.11374e-17
7727.09377 1.11446e-17
7727.95523 1.11520e-17
7728.81669 1.11678e-17
7729.67815 1.11836e-17
7730.54963 1.12070e-17
7731.41109 1.12305e-17
7732.27255 1.12664e-17
7733.13402 1.13022e-17
7733.99548 1.13448e-17
7734.85694 1.13874e-17
7735.71840 1.14138e-17
7736.57986 1.14400e-17
7737.44133 1.14370e-17
7738.30279 1.14339e-17
7739.17427 1.14109e-17
7740.03573 1.13878e-17
7740.89719 1.13571e-17
7741.75865 1.13264e-17
7742.62012 1.13062e-17
7743.48158 1.12861e-17
7744.34304 1.12914e-17
7745.20450 1.12968e-17
7746.06596 1.13175e-17
7746.92743 1.13383e-17
7747.78889 1.13605e-17
7748.65035 1.13828e-17
7749.52183 1.14016e-17
7750.38329 1.14203e-17
7751.24475 1.14321e-17
7752.10621 1.14438e-17
7752.96768 1.14485e-17
7753.82914 1.14532e-17
7754.69060 1.14534e-17
7755.55206 1.14536e-17
7756.41352 1.14463e-17
7757.27499 1.14388e-17
7758.13645 1.14176e-17
7759.00793 1.13965e-17
7759.86939 1.13677e-17
7760.73085 1.13388e-17
7761.59231 1.13168e-17
7762.45378 1.12948e-17
7763.31524 1.12832e-17
7764.17670 1.12715e-17
7765.03816 1.12625e-17
7765.89962 1.12536e-17
7766.76109 1.12415e-17
7767.62255 1.12294e-17
7768.49403 1.12098e-17
7769.35549 1.11901e-17
7770.21695 1.11626e-17
7771.07841 1.11350e-17
7771.93988 1.11089e-17
7772.80134 1.10829e-17
7773.66280 1.10652e-17
7774.52426 1.10475e-17
7775.38572 1.10346e-17
7776.24719 1.10217e-17
7777.10865 1.10107e-17
7777.98013 1.09997e-17
7778.84159 1.09923e-17
7779.70305 1.09848e-17
7780.56451 1.09825e-17
7781.42597 1.09801e-17
7782.28744 1.09824e-17
7783.14890 1.09846e-17
7784.01036 1.09906e-17
7784.87182 1.09966e-17
7785.73328 1.10054e-17
7786.59475 1.10142e-17
7787.46623 1.10249e-17
7788.32769 1.10357e-17
7789.18915 1.10452e-17
7790.05061 1.10547e-17
7790.91207 1.10595e-17
7791.77354 1.10642e-17
7792.63500 1.10625e-17
7793.49646 1.10607e-17
7794.35792 1.10519e-17
7795.21938 1.10430e-17
7796.08085 1.10311e-17
7796.94231 1.10193e-17
7797.81379 1.10121e-17
7798.67525 1.10049e-17
7799.53671 1.10079e-17
7800.39817 1.10111e-17
7801.25963 1.10283e-17
7802.12110 1.10455e-17
7802.98256 1.10739e-17
7803.84402 1.11023e-17
7804.70548 1.11276e-17
7805.56694 1.11529e-17
7806.42841 1.11646e-17
7807.29989 1.11763e-17
7808.16135 1.11757e-17
7809.02281 1.11751e-17
7809.88427 1.11642e-17
7810.74573 1.11531e-17
7811.60720 1.11340e-17
7812.46866 1.11149e-17
7813.33012 1.10910e-17
7814.19158 1.10672e-17
7815.05304 1.10431e-17
7815.91450 1.10189e-17
7816.78598 1.09984e-17
7817.64745 1.09779e-17
7818.50891 1.09660e-17
7819.37037 1.09541e-17
7820.23183 1.09546e-17
7821.09329 1.09552e-17
7821.95476 1.09593e-17
7822.81622 1.09635e-17
7823.67768 1.09579e-17
7824.53914 1.09523e-17
7825.40060 1.09353e-17
7826.27208 1.09183e-17
7827.13355 1.08939e-17
7827.99501 1.08697e-17
7828.85647 1.08414e-17
7829.71793 1.08132e-17
7830.57939 1.07844e-17
7831.44085 1.07557e-17
7832.30232 1.07287e-17
7833.16378 1.07018e-17
7834.02524 1.06765e-17
7834.88670 1.06513e-17
7835.75818 1.06302e-17
7836.61964 1.06091e-17
7837.48111 1.05987e-17
7838.34257 1.05883e-17
7839.20403 1.05903e-17
7840.06549 1.05922e-17
7840.92695 1.05992e-17
7841.78842 1.06062e-17
7842.64988 1.06118e-17
7843.51134 1.06174e-17
7844.37280 1.06187e-17
7845.23426 1.06200e-17
7846.10574 1.06152e-17
7846.96720 1.06104e-17
7847.82867 1.06020e-17
7848.69013 1.05936e-17
7849.55159 1.05846e-17
7850.41305 1.05756e-17
7851.27452 1.05679e-17
7852.13598 1.05601e-17
7852.99744 1.05549e-17
7853.85890 1.05497e-17
7854.72036 1.05482e-17
7855.59184 1.05466e-17
7856.45330 1.05491e-17
7857.31477 1.05518e-17
7858.17623 1.05545e-17
7859.03769 1.05572e-17
7859.89915 1.05537e-17
7860.76061 1.05502e-17
7861.62208 1.05409e-17
7862.48354 1.05316e-17
7863.34500 1.05217e-17
7864.20646 1.05118e-17
7865.07794 1.04986e-17
7865.93940 1.04855e-17
7866.80087 1.04602e-17
7867.66233 1.04351e-17
7868.52379 1.03970e-17
7869.38525 1.03590e-17
7870.24671 1.03153e-17
7871.10818 1.02715e-17
7871.96964 1.02323e-17
7872.83110 1.01930e-17
7873.69256 1.01746e-17
7874.56404 1.01563e-17
7875.42550 1.01654e-17
7876.28696 1.01745e-17
7877.14843 1.01923e-17
7878.00989 1.02102e-17
7878.87135 1.02198e-17
7879.73281 1.02294e-17
7880.59427 1.02254e-17
7881.45574 1.02215e-17
7882.31720 1.02013e-17
7883.17866 1.01810e-17
7884.05014 1.01515e-17
7884.91160 1.01221e-17
7885.77306 1.00924e-17
7886.63453 1.00628e-17
7887.49599 1.00323e-17
7888.35745 1.00016e-17
7889.21891 9.96797e-18
7890.08037 9.93434e-18
7890.94184 9.89949e-18
7891.80330 9.86472e-18
7892.66476 9.83083e-18
7893.52622 9.79702e-18
7894.39770 9.77294e-18
7895.25916 9.74886e-18
7896.12062 9.74676e-18
7896.98209 9.74457e-18
7897.84355 9.75744e-18
7898.70501 9.77023e-18
7899.56647 9.77776e-18
7900.42793 9.78529e-18
7901.28940 9.77863e-18
7902.15086 9.77198e-18
7903.01232 9.75332e-18
7903.88380 9.73458e-18
7904.74526 9.70962e-18
7905.60672 9.68475e-18
7906.46819 9.66654e-18
7907.32965 9.64841e-18
7908.19111 9.64210e-18
7909.05257 9.63580e-18
7909.91403 9.62678e-18
7910.77550 9.61776e-18
7911.63696 9.59735e-18
7912.49842 9.57695e-18
7913.36990 9.55558e-18
7914.23136 9.53412e-18
7915.09282 9.52046e-18
7915.95428 9.50680e-18
7916.81575 9.50146e-18
7917.67721 9.49611e-18
7918.53867 9.49795e-18
7919.40013 9.49979e-18
7920.26159 9.49594e-18
7921.12306 9.49217e-18
7921.98452 9.46975e-18
7922.85600 9.44725e-18
7923.71746 9.41414e-18
7924.57892 9.38104e-18
7925.44038 9.35118e-18
7926.30185 9.32123e-18
7927.16331 9.30266e-18
7928.02477 9.28409e-18
7928.88623 9.28225e-18
7929.74769 9.28050e-18
7930.60916 9.29206e-18
7931.47062 9.30362e-18
7932.34210 9.31904e-18
7933.20356 9.33454e-18
7934.06502 9.34566e-18
7934.92648 9.35678e-18
7935.78794 9.35678e-18
7936.64941 9.35687e-18
7937.51087 9.34233e-18
7938.37233 9.32771e-18
7939.23379 9.29933e-18
7940.09525 9.27087e-18
7940.95672 9.23277e-18
7941.81818 9.19468e-18
7942.68966 9.15641e-18
7943.55112 9.11814e-18
7944.41258 9.08713e-18
7945.27404 9.05613e-18
7946.13551 9.03371e-18
7946.99697 9.01129e-18
7947.85843 8.99737e-18
7948.71989 8.98336e-18
7949.58135 8.97530e-18
7950.44282 8.96724e-18
7951.30428 8.96146e-18
7952.17576 8.95568e-18
7953.03722 8.94447e-18
7953.89868 8.93326e-18
7954.76014 8.90997e-18
7955.62160 8.88667e-18
7956.48307 8.86101e-18
7957.34453 8.83527e-18
7958.20599 8.81985e-18
7959.06745 8.80453e-18
7959.92891 8.80032e-18
7960.79038 8.79612e-18
7961.66186 8.80041e-18
7962.52332 8.80462e-18
7963.38478 8.81066e-18
7964.24624 8.81670e-18
7965.10770 8.81486e-18
7965.96917 8.81293e-18
7966.83063 8.80873e-18
7967.69209 8.80444e-18
7968.55355 8.81381e-18
7969.41501 8.82327e-18
7970.27648 8.84998e-18
7971.14795 8.87678e-18
7972.00942 8.91277e-18
7972.87088 8.94877e-18
7973.73234 8.98318e-18
7974.59380 9.01769e-18
7975.45526 9.03485e-18
7976.31673 9.05202e-18
7977.17819 9.04519e-18
7978.03965 9.03836e-18
7978.90111 9.02040e-18
7979.76257 9.00245e-18
7980.63405 8.98458e-18
7981.49552 8.96681e-18
7982.35698 8.95183e-18
7983.21844 8.93685e-18
7984.07990 8.92652e-18
7984.94136 8.91619e-18
7985.80283 8.90673e-18
7986.66429 8.89736e-18
7987.52575 8.88483e-18
7988.38721 8.87222e-18
7989.24867 8.85821e-18
7990.11014 8.84420e-18
7990.98161 8.83080e-18
7991.84308 8.81740e-18
7992.70454 8.80873e-18
7993.56600 8.80006e-18
7994.42746 8.80085e-18
7995.28892 8.80173e-18
7996.15039 8.80260e-18
7997.01185 8.80348e-18
7997.87331 8.78946e-18
7998.73477 8.77545e-18
7999.59623 8.74837e-18
8000.46771 8.72128e-18
8001.32917 8.69245e-18
8002.19064 8.66361e-18
8003.05210 8.64158e-18
8003.91356 8.61956e-18
8004.77502 8.61162e-18
8005.63649 8.60372e-18
8006.49795 8.60800e-18
8007.35941 8.61231e-18
8008.22087 8.61390e-18
8009.08233 8.61549e-18
8009.95381 8.60951e-18
8010.81527 8.60353e-18
8011.67674 8.60427e-18
8012.53820 8.60501e-18
8013.39966 8.61939e-18
8014.26112 8.63379e-18
8015.12258 8.65177e-18
8015.98405 8.66975e-18
8016.84551 8.68175e-18
8017.70697 8.69373e-18
8018.56843 8.69001e-18
8019.43991 8.68627e-18
8020.30137 8.66088e-18
8021.16284 8.63544e-18
8022.02430 8.60447e-18
8022.88576 8.57348e-18
8023.74722 8.55470e-18
8024.60868 8.53596e-18
8025.47015 8.52886e-18
8026.33161 8.52179e-18
8027.19307 8.52163e-18
8028.05453 8.52148e-18
8028.92601 8.52241e-18
8029.78747 8.52334e-18
8030.64893 8.51857e-18
8031.51040 8.51378e-18
8032.37186 8.50398e-18
8033.23332 8.49417e-18
8034.09478 8.48408e-18
8034.95624 8.47400e-18
8035.81771 8.46667e-18
8036.67917 8.45935e-18
8037.54063 8.45660e-18
8038.41211 8.45386e-18
8039.27357 8.45635e-18
8040.13503 8.45885e-18
8040.99650 8.46578e-18
8041.85796 8.47272e-18
8042.71942 8.48178e-18
8043.58088 8.49085e-18
8044.44234 8.49798e-18
8045.30380 8.50510e-18
8046.16527 8.50721e-18
8047.02673 8.50930e-18
8047.88819 8.50497e-18
8048.75967 8.50061e-18
8049.62113 8.49059e-18
8050.48259 8.48055e-18
8051.34406 8.47225e-18
8052.20552 8.46395e-18
8053.06698 8.46290e-18
8053.92844 8.46188e-18
8054.78990 8.46388e-18
8055.65137 8.46590e-18
8056.51283 8.46567e-18
8057.37429 8.46543e-18
8058.24577 8.45665e-18
8059.10723 8.44784e-18
8059.96869 8.42512e-18
8060.83015 8.40238e-18
8061.69162 8.37011e-18
8062.55308 8.33781e-18
8063.41454 8.30342e-18
8064.27600 8.26903e-18
8065.13746 8.24098e-18
8065.99893 8.21294e-18
8066.86039 8.19949e-18
8067.73187 8.18608e-18
8068.59333 8.18773e-18
8069.45479 8.18940e-18
8070.31625 8.20170e-18
8071.17772 8.21402e-18
8072.03918 8.22816e-18
8072.90064 8.24229e-18
8073.76210 8.24567e-18
8074.62356 8.24902e-18
8075.48503 8.23699e-18
8076.34649 8.22493e-18
8077.21797 8.20351e-18
8078.07943 8.18207e-18
8078.94089 8.15501e-18
8079.80235 8.12793e-18
8080.66381 8.09452e-18
8081.52528 8.06110e-18
8082.38674 8.02186e-18
8083.24820 7.98260e-18
8084.10966 7.93919e-18
8084.97113 7.89577e-18
8085.83259 7.85014e-18
8086.70407 7.80450e-18
8087.56553 7.75954e-18
8088.42699 7.71458e-18
8089.28845 7.67301e-18
8090.14991 7.63145e-18
8091.01138 7.59572e-18
8091.87284 7.56000e-18
8092.73430 7.53142e-18
8093.59576 7.50285e-18
8094.45722 7.48086e-18
8095.31869 7.45890e-18
8096.18015 7.44174e-18
8097.05163 7.42461e-18
8097.91309 7.40274e-18
8098.77455 7.38086e-18
8099.63601 7.34295e-18
8100.49748 7.30499e-18
8101.35894 7.24745e-18
8102.22040 7.18987e-18
8103.08186 7.11344e-18
8103.94332 7.03696e-18
8104.80479 6.95089e-18
8105.67626 6.86480e-18
8106.53773 6.78411e-18
8107.39919 6.70343e-18
8108.26065 6.63748e-18
8109.12211 6.57156e-18
8109.98357 6.52353e-18
8110.84504 6.47553e-18
8111.70650 6.44120e-18
8112.56796 6.40688e-18
8113.42942 6.37154e-18
8114.29088 6.33619e-18
8115.15235 6.28794e-18
8116.02383 6.23967e-18
8116.88529 6.17345e-18
8117.74675 6.10720e-18
8118.60821 6.02208e-18
8119.46967 5.93691e-18
8120.33114 5.84515e-18
8121.19260 5.75338e-18
8122.05406 5.66481e-18
8122.91552 5.57625e-18
8123.77698 5.47992e-18
8124.63845 5.38357e-18
8125.49991 5.26931e-18
8126.37139 5.15500e-18
8127.23285 5.02826e-18
8128.09431 4.90150e-18
8128.95577 4.77028e-18
8129.81723 4.63907e-18
8130.67870 4.51875e-18
8131.54016 4.39845e-18
8132.40162 4.30555e-18
8133.26308 4.21271e-18
8134.12454 4.13835e-18
8134.99602 4.06403e-18
8135.85749 3.98833e-18
8136.71895 3.91263e-18
8137.58041 3.82806e-18
8138.44187 3.74347e-18
8139.30333 3.64974e-18
8140.16480 3.55599e-18
8141.02626 3.45551e-18
8141.88772 3.35501e-18
8142.74918 3.25336e-18
8143.61064 3.15170e-18
8144.47210 3.05442e-18
8145.34358 2.95716e-18
8146.20505 2.86869e-18
8147.06651 2.78024e-18
8147.92797 2.70369e-18
8148.78943 2.62719e-18
8149.65089 2.56355e-18
8150.51236 2.49995e-18
8151.37382 2.44764e-18
8152.23528 2.39537e-18
8153.09674 2.34750e-18
8153.95820 2.29965e-18
8154.82968 2.25064e-18
8155.69115 2.20164e-18
8156.55261 2.15203e-18
8157.41407 2.10242e-18
8158.27553 2.05389e-18
8159.13699 2.00537e-18
8159.99845 1.96207e-18
8160.85992 1.91877e-18
8161.72138 1.88474e-18
8162.58284 1.85072e-18
8163.44430 1.82719e-18
8164.31578 1.80369e-18
8165.17724 1.79044e-18
8166.03871 1.77722e-18
8166.90017 1.76796e-18
8167.76163 1.75872e-18
8168.62309 1.74579e-18
8169.48455 1.73286e-18
8170.34602 1.70989e-18
8171.20748 1.68690e-18
8172.06894 1.64784e-18
8172.93040 1.60872e-18
8173.80188 1.56388e-18
8174.66334 1.51902e-18
8175.52481 1.49069e-18
8176.38627 1.46240e-18
8177.24773 1.45555e-18
8178.10919 1.44874e-18
8178.97065 1.45044e-18
8179.83212 1.45216e-18
8180.69358 1.45257e-18
8181.55504 1.45298e-18
8182.41650 1.44591e-18
8183.28798 1.43884e-18
8184.14944 1.42204e-18
8185.01090 1.40522e-18
8185.87237 1.38704e-18
8186.73383 1.36884e-18
8187.59529 1.35522e-18
8188.45675 1.34160e-18
8189.31821 1.32795e-18
8190.17968 1.31429e-18
8191.04114 1.29738e-18
8191.90260 1.28045e-18
8192.77408 1.26420e-18
8193.63554 1.24796e-18
8194.49700 1.23636e-18
8195.35846 1.22477e-18
8196.21993 1.22139e-18
8197.08139 1.21801e-18
8197.94285 1.22552e-18
8198.80431 1.23304e-18
8199.66577 1.24500e-18
8200.52724 1.25698e-18
8201.38870 1.26440e-18
8202.25016 1.27182e-18
8203.12164 1.27296e-18
8203.98310 1.27409e-18
8204.84456 1.27040e-18
8205.70603 1.26671e-18
8206.56749 1.25894e-18
8207.42895 1.25115e-18
8208.29041 1.23993e-18
8209.15187 1.22869e-18
8210.01334 1.21582e-18
8210.87480 1.20296e-18
8211.73626 1.19083e-18
8212.60774 1.17871e-18
8213.46920 1.16832e-18
8214.33066 1.15795e-18
8215.19212 1.14913e-18
8216.05359 1.14032e-18
8216.91505 1.13027e-18
8217.77651 1.12023e-18
8218.63797 1.10120e-18
8219.49943 1.08214e-18
8220.36090 1.05115e-18
8221.22236 1.02013e-18
8222.08382 9.85115e-19
8222.95530 9.50093e-19
8223.81676 9.19923e-19
8224.67822 8.89762e-19
8225.53969 8.75541e-19
8226.40115 8.61360e-19
8227.26261 8.71108e-19
8228.12407 8.80908e-19
8228.98553 9.07155e-19
8229.84700 9.33436e-19
8230.70846 9.65804e-19
8231.57994 9.98190e-19
8232.44140 1.02660e-18
8233.30286 1.05501e-18
8234.16432 1.07010e-18
8235.02578 1.08516e-18
8235.88725 1.09004e-18
8236.74871 1.09488e-18
8237.61017 1.09735e-18
8238.47163 1.09982e-18
8239.33309 1.10533e-18
8240.19456 1.11085e-18
8241.06604 1.12393e-18
8241.92750 1.13703e-18
8242.78896 1.15504e-18
8243.65042 1.17305e-18
8244.51188 1.18780e-18
8245.37335 1.20255e-18
8246.23481 1.21003e-18
8247.09627 1.21749e-18
8247.95773 1.21815e-18
8248.81919 1.21878e-18
8249.68066 1.21426e-18
8250.54212 1.20972e-18
8251.41360 1.20364e-18
8252.27506 1.19756e-18
8253.13652 1.19332e-18
8253.99798 1.18909e-18
8254.85945 1.18875e-18
8255.72091 1.18842e-18
8256.58237 1.19314e-18
8257.44383 1.19788e-18
8258.30529 1.20686e-18
8259.16676 1.21584e-18
8260.02822 1.22735e-18
8260.89970 1.23887e-18
8261.76116 1.24972e-18
8262.62262 1.26058e-18
8263.48408 1.26764e-18
8264.34554 1.27470e-18
8265.20701 1.27517e-18
8266.06847 1.27561e-18
8266.92993 1.26762e-18
8267.79139 1.25960e-18
8268.65285 1.24740e-18
8269.52433 1.23519e-18
8270.38580 1.22469e-18
8271.24726 1.21420e-18
8272.10872 1.20936e-18
8272.97018 1.20454e-18
8273.83164 1.20845e-18
8274.69311 1.21237e-18
8275.55457 1.22195e-18
8276.41603 1.23154e-18
8277.27749 1.23987e-18
8278.13895 1.24820e-18
8279.01043 1.25248e-18
8279.87189 1.25674e-18
8280.73336 1.25762e-18
8281.59482 1.25848e-18
8282.45628 1.25805e-18
8283.31774 1.25762e-18
8284.17920 1.26024e-18
8285.04067 1.26288e-18
8285.90213 1.27023e-18
8286.76359 1.27758e-18
8287.62505 1.28570e-18
8288.48651 1.29382e-18
8289.34798 1.30061e-18
8290.21946 1.30739e-18
8291.08092 1.31599e-18
8291.94238 1.32460e-18
8292.80384 1.33684e-18
8293.66530 1.34907e-18
8294.52677 1.36174e-18
8295.38823 1.37441e-18
8296.24969 1.38455e-18
8297.11115 1.39469e-18
8297.97261 1.40040e-18
8298.83408 1.40610e-18
8299.70555 1.40625e-18
8300.56702 1.40638e-18
8301.42848 1.40769e-18
8302.28994 1.40899e-18
8303.15140 1.41940e-18
8304.01286 1.42983e-18
8304.87433 1.44630e-18
8305.73579 1.46276e-18
8306.59725 1.47865e-18
8307.45871 1.49453e-18
8308.32017 1.50583e-18
8309.18164 1.51711e-18
8310.05312 1.52088e-18
8310.91458 1.52463e-18
8311.77604 1.52400e-18
8312.63750 1.52335e-18
8313.49896 1.52591e-18
8314.36043 1.52848e-18
8315.22189 1.53851e-18
8316.08335 1.54856e-18
8316.94481 1.56691e-18
8317.80627 1.58528e-18
8318.67775 1.60978e-18
8319.53921 1.63431e-18
8320.40068 1.65814e-18
8321.26214 1.68198e-18
8322.12360 1.70028e-18
8322.98506 1.71855e-18
8323.84652 1.73123e-18
8324.70799 1.74391e-18
8325.56945 1.75161e-18
8326.43091 1.75932e-18
8327.29237 1.76395e-18
8328.16385 1.76859e-18
8329.02531 1.77252e-18
8329.88678 1.77644e-18
8330.74824 1.78101e-18
8331.60970 1.78559e-18
8332.47116 1.79215e-18
8333.33262 1.79872e-18
8334.19408 1.81056e-18
8335.05555 1.82242e-18
8335.91701 1.84228e-18
8336.77847 1.86216e-18
8337.64995 1.88791e-18
8338.51141 1.91366e-18
8339.37287 1.94161e-18
8340.23434 1.96957e-18
8341.09580 1.99470e-18
8341.95726 2.01981e-18
8342.81872 2.03666e-18
8343.68018 2.05348e-18
8344.54165 2.06216e-18
8345.40311 2.07081e-18
8346.26457 2.07515e-18
8347.12603 2.07946e-18
8347.99751 2.08256e-18
8348.85897 2.08567e-18
8349.72043 2.08987e-18
8350.58190 2.09406e-18
8351.44336 2.10206e-18
8352.30482 2.11006e-18
8353.16628 2.12470e-18
8354.02775 2.13936e-18
8354.88921 2.16100e-18
8355.75067 2.18264e-18
8356.62215 2.20773e-18
8357.48361 2.23283e-18
8358.34507 2.25784e-18
8359.20653 2.28285e-18
8360.06800 2.30473e-18
8360.92946 2.32658e-18
8361.79092 2.34347e-18
8362.65238 2.36034e-18
8363.51384 2.37543e-18
8364.37531 2.39051e-18
8365.23677 2.40693e-18
8366.10825 2.42335e-18
8366.96971 2.43904e-18
8367.83117 2.45473e-18
8368.69263 2.46756e-18
8369.55410 2.48038e-18
8370.41556 2.49241e-18
8371.27702 2.50445e-18
8372.13848 2.51859e-18
8372.99994 2.53272e-18
8373.86140 2.55052e-18
8374.72287 2.56833e-18
8375.59435 2.59080e-18
8376.45581 2.61329e-18
8377.31727 2.64023e-18
8378.17873 2.66718e-18
8379.04019 2.69754e-18
8379.90166 2.72791e-18
8380.76312 2.76004e-18
8381.62458 2.79217e-18
8382.48604 2.82411e-18
8383.34750 2.85605e-18
8384.20897 2.88619e-18
8385.07043 2.91630e-18
8385.94191 2.94314e-18
8386.80337 2.96997e-18
8387.66483 2.99439e-18
8388.52629 3.01882e-18
8389.38775 3.04558e-18
8390.24922 3.07235e-18
8391.11068 3.10279e-18
8391.97214 3.13322e-18
8392.83360 3.16120e-18
8393.69507 3.18918e-18
8394.55653 3.21032e-18
8395.41799 3.23145e-18
8396.28947 3.24564e-18
8397.15093 3.25981e-18
8398.01239 3.26881e-18
8398.87385 3.27780e-18
8399.73532 3.29157e-18
8400.59678 3.30534e-18
8401.45824 3.33294e-18
8402.31970 3.36058e-18
8403.18116 3.39910e-18
8404.04263 3.43763e-18
8404.90409 3.48151e-18
8405.77557 3.52538e-18
8406.63703 3.56847e-18
8407.49849 3.61155e-18
8408.35995 3.64750e-18
8409.22142 3.68343e-18
8410.08288 3.71228e-18
8410.94434 3.74111e-18
8411.80580 3.76609e-18
8412.66726 3.79105e-18
8413.52873 3.81440e-18
8414.39019 3.83774e-18
8415.26167 3.86126e-18
8416.12313 3.88480e-18
8416.98459 3.91042e-18
8417.84605 3.93605e-18
8418.70751 3.96537e-18
8419.56898 3.99468e-18
8420.43044 4.02828e-18
8421.29190 4.06189e-18
8422.15336 4.09965e-18
8423.01482 4.13742e-18
8423.87629 4.17732e-18
8424.74777 4.21723e-18
8425.60923 4.25377e-18
8426.47069 4.29031e-18
8427.33215 4.32123e-18
8428.19361 4.35214e-18
8429.05508 4.38369e-18
8429.91654 4.41523e-18
8430.77800 4.45248e-18
8431.63946 4.48973e-18
8432.50092 4.53322e-18
8433.36239 4.57672e-18
8434.23386 4.62565e-18
8435.09533 4.67458e-18
8435.95679 4.72081e-18
8436.81825 4.76704e-18
8437.67971 4.80258e-18
8438.54117 4.83810e-18
8439.40264 4.86762e-18
8440.26410 4.89713e-18
8441.12556 4.92824e-18
8441.98702 4.95933e-18
8442.84848 4.99426e-18
8443.70995 5.02920e-18
8444.58143 5.06847e-18
8445.44289 5.10775e-18
8446.30435 5.15178e-18
8447.16581 5.19582e-18
8448.02727 5.24449e-18
8448.88874 5.29316e-18
8449.75020 5.34495e-18
8450.61166 5.39674e-18
8451.47312 5.44945e-18
8452.33458 5.50216e-18
8453.20606 5.55326e-18
8454.06752 5.60436e-18
8454.92899 5.65079e-18
8455.79045 5.69720e-18
8456.65191 5.73963e-18
8457.51337 5.78204e-18
8458.37483 5.82704e-18
8459.23630 5.87204e-18
8460.09776 5.92239e-18
8460.95922 5.97275e-18
8461.82068 6.02280e-18
8462.69216 6.07285e-18
8463.55362 6.11859e-18
8464.41508 6.16433e-18
8465.27655 6.20607e-18
8466.13801 6.24780e-18
8466.99947 6.28722e-18
8467.86093 6.32663e-18
8468.72240 6.37209e-18
8469.58386 6.41756e-18
8470.44532 6.47646e-18
8471.30678 6.53539e-18
8472.16824 6.60316e-18
8473.03972 6.67095e-18
8473.90118 6.74093e-18
8474.76265 6.81092e-18
8475.62411 6.87807e-18
8476.48557 6.94521e-18
8477.34703 7.00469e-18
8478.20849 7.06414e-18
8479.06996 7.12167e-18
8479.93142 7.17919e-18
8480.79288 7.24524e-18
8481.65434 7.31131e-18
8482.51580 7.38353e-18
8483.38728 7.45576e-18
8484.24875 7.52442e-18
8485.11021 7.59306e-18
8485.97167 7.65381e-18
8486.83313 7.71453e-18
8487.69459 7.76724e-18
8488.55605 7.81994e-18
8489.41752 7.86740e-18
8490.27898 7.91486e-18
8491.14044 7.96411e-18
8492.00190 8.01336e-18
8492.87338 8.06896e-18
8493.73484 8.12458e-18
8494.59631 8.18530e-18
8495.45777 8.24601e-18
8496.31923 8.31251e-18
8497.18069 8.37902e-18
8498.04215 8.45873e-18
8498.90362 8.53846e-18
8499.76508 8.63418e-18
8500.62654 8.72993e-18
8501.48800 8.82887e-18
8502.35948 8.92783e-18
8503.22094 9.01751e-18
8504.08240 9.10719e-18
8504.94387 9.18504e-18
8505.80533 9.26281e-18
8506.66679 9.32832e-18
8507.52825 9.39374e-18
8508.38972 9.45145e-18
8509.25118 9.50916e-18
8510.11264 9.56530e-18
8510.98412 9.62152e-18
8511.84558 9.67853e-18
8512.70704 9.73555e-18
8513.56850 9.79466e-18
8514.42997 9.85369e-18
8515.29143 9.91464e-18
8516.15289 9.97559e-18
8517.01435 1.00377e-17
8517.87581 1.00998e-17
8518.73728 1.01630e-17
8519.59874 1.02261e-17
8520.46020 1.02907e-17
8521.33168 1.03551e-17
8522.19314 1.04238e-17
8523.05460 1.04924e-17
8523.91607 1.05704e-17
8524.77753 1.06485e-17
8525.63899 1.07378e-17
8526.50045 1.08270e-17
8527.36191 1.09242e-17
8528.22337 1.10213e-17
8529.08484 1.11213e-17
8529.94630 1.12214e-17
8530.80776 1.13159e-17
8531.67924 1.14103e-17
8532.54070 1.14926e-17
8533.40216 1.15747e-17
8534.26363 1.16421e-17
8535.12509 1.17094e-17
8535.98655 1.17626e-17
8536.84801 1.18158e-17
8537.70947 1.18651e-17
8538.57094 1.19144e-17
8539.43240 1.19707e-17
8540.30388 1.20271e-17
8541.16534 1.20977e-17
8542.02680 1.21683e-17
8542.88826 1.22575e-17
8543.74972 1.23467e-17
8544.61119 1.24486e-17
8545.47265 1.25504e-17
8546.33411 1.26556e-17
8547.19557 1.27607e-17
8548.05703 1.28530e-17
8548.91850 1.29452e-17
8549.78998 1.30068e-17
8550.65144 1.30683e-17
8551.51290 1.31008e-17
8552.37436 1.31332e-17
8553.23582 1.31500e-17
8554.09729 1.31669e-17
8554.95875 1.31862e-17
8555.82021 1.32057e-17
8556.68167 1.32491e-17
8557.54313 1.32926e-17
8558.40460 1.33699e-17
8559.27607 1.34473e-17
8560.13754 1.35525e-17
8560.99900 1.36576e-17
8561.86046 1.37792e-17
8562.72192 1.39007e-17
8563.58338 1.40198e-17
8564.44485 1.41390e-17
8565.30631 1.42385e-17
8566.16777 1.43379e-17
8567.02923 1.44063e-17
8567.89070 1.44746e-17
8568.75216 1.45065e-17
8569.62364 1.45384e-17
8570.48510 1.45428e-17
8571.34656 1.45471e-17
8572.20802 1.45371e-17
8573.06948 1.45269e-17
8573.93095 1.45167e-17
8574.79241 1.45064e-17
8575.65387 1.45098e-17
8576.51533 1.45133e-17
8577.37679 1.45450e-17
8578.23826 1.45767e-17
8579.09972 1.46474e-17
8579.97120 1.47183e-17
8580.83266 1.48144e-17
8581.69412 1.49107e-17
8582.55558 1.50094e-17
8583.41705 1.51081e-17
8584.27851 1.51908e-17
8585.13997 1.52737e-17
8586.00143 1.53255e-17
8586.86289 1.53774e-17
8587.72436 1.53962e-17
8588.58582 1.54150e-17
8589.45730 1.54092e-17
8590.31876 1.54033e-17
8591.18022 1.53858e-17
8592.04168 1.53683e-17
8592.90314 1.53565e-17
8593.76461 1.53448e-17
8594.62607 1.53486e-17
8595.48753 1.53524e-17
8596.34899 1.53679e-17
8597.21045 1.53833e-17
8598.07192 1.54080e-17
8598.94340 1.54328e-17
8599.80486 1.54692e-17
8600.66632 1.55057e-17
8601.52778 1.55529e-17
8602.38924 1.56000e-17
8603.25071 1.56502e-17
8604.11217 1.57006e-17
8604.97363 1.57458e-17
8605.83509 1.57911e-17
8606.69655 1.58201e-17
8607.56803 1.58492e-17
8608.42949 1.58532e-17
8609.29096 1.58572e-17
8610.15242 1.58386e-17
8611.01388 1.58199e-17
8611.87534 1.57850e-17
8612.73680 1.57501e-17
8613.59827 1.57061e-17
8614.45973 1.56621e-17
8615.32119 1.56165e-17
8616.18265 1.55710e-17
8617.04411 1.55381e-17
8617.91559 1.55053e-17
8618.77706 1.55008e-17
8619.63852 1.54962e-17
8620.49998 1.55208e-17
8621.36144 1.55454e-17
8622.22290 1.55907e-17
8623.08437 1.56361e-17
8623.94583 1.56901e-17
8624.80729 1.57441e-17
8625.66875 1.57915e-17
8626.53021 1.58389e-17
8627.40169 1.58705e-17
8628.26315 1.59020e-17
8629.12462 1.59176e-17
8629.98608 1.59332e-17
8630.84754 1.59324e-17
8631.70900 1.59316e-17
8632.57046 1.59124e-17
8633.43193 1.58930e-17
8634.29339 1.58579e-17
8635.15485 1.58228e-17
8636.01631 1.57828e-17
8636.88779 1.57428e-17
8637.74925 1.57095e-17
8638.61072 1.56763e-17
8639.47218 1.56630e-17
8640.33364 1.56498e-17
8641.19510 1.56657e-17
8642.05656 1.56815e-17
8642.91803 1.57187e-17
8643.77949 1.57561e-17
8644.64095 1.58032e-17
8645.50241 1.58502e-17
8646.37389 1.58948e-17
8647.23535 1.59393e-17
8648.09681 1.59693e-17
8648.95828 1.59991e-17
8649.81974 1.60099e-17
8650.68120 1.60207e-17
8651.54266 1.60125e-17
8652.40412 1.60041e-17
8653.26559 1.59756e-17
8654.12705 1.59470e-17
8654.98851 1.58973e-17
8655.85999 1.58476e-17
8656.72145 1.57853e-17
8657.58291 1.57230e-17
8658.44438 1.56632e-17
8659.30584 1.56034e-17
8660.16730 1.55563e-17
8661.02876 1.55092e-17
8661.89022 1.54794e-17
8662.75168 1.54497e-17
8663.61315 1.54395e-17
8664.47461 1.54295e-17
8665.33607 1.54383e-17
8666.20755 1.54472e-17
8667.06901 1.54708e-17
8667.93047 1.54945e-17
8668.79194 1.55256e-17
8669.65340 1.55568e-17
8670.51486 1.55854e-17
8671.37632 1.56139e-17
8672.23778 1.56227e-17
8673.09925 1.56315e-17
8673.96071 1.56079e-17
8674.82217 1.55841e-17
8675.68363 1.55318e-17
8676.55511 1.54795e-17
8677.41657 1.54070e-17
8678.27803 1.53343e-17
8679.13950 1.52557e-17
8680.00096 1.51771e-17
8680.86242 1.51080e-17
8681.72388 1.50390e-17
8682.58535 1.49856e-17
8683.44681 1.49324e-17
8684.30827 1.48970e-17
8685.16973 1.48616e-17
8686.04121 1.48463e-17
8686.90267 1.48311e-17
8687.76413 1.48361e-17
8688.62560 1.48411e-17
8689.48706 1.48626e-17
8690.34852 1.48840e-17
8691.20998 1.49156e-17
8692.07144 1.49472e-17
8692.93291 1.49782e-17
8693.79437 1.50091e-17
8694.66585 1.50258e-17
8695.52731 1.50426e-17
8696.38877 1.50368e-17
8697.25023 1.50309e-17
8698.11170 1.50011e-17
8698.97316 1.49713e-17
8699.83462 1.49207e-17
8700.69608 1.48702e-17
8701.55754 1.48099e-17
8702.41900 1.47495e-17
8703.28047 1.46887e-17
8704.15195 1.46277e-17
8705.01341 1.45665e-17
8705.87487 1.45054e-17
8706.73633 1.44464e-17
8707.59779 1.43876e-17
8708.45926 1.43433e-17
8709.32072 1.42990e-17
8710.18218 1.42790e-17
8711.04364 1.42589e-17
8711.90510 1.42635e-17
8712.76657 1.42682e-17
8713.62803 1.42940e-17
8714.49951 1.43197e-17
8715.36097 1.43478e-17
8716.22243 1.43759e-17
8717.08389 1.43850e-17
8717.94535 1.43941e-17
8718.80682 1.43756e-17
8719.66828 1.43568e-17
8720.52974 1.43074e-17
8721.39120 1.42578e-17
8722.25267 1.41895e-17
8723.11413 1.41212e-17
8723.98561 1.40553e-17
8724.84707 1.39894e-17
8725.70853 1.39338e-17
8726.56999 1.38781e-17
8727.43145 1.38304e-17
8728.29292 1.37829e-17
8729.15438 1.37435e-17
8730.01584 1.37040e-17
8730.87730 1.36739e-17
8731.73876 1.36437e-17
8732.61024 1.36257e-17
8733.47170 1.36075e-17
8734.33317 1.36099e-17
8735.19463 1.36124e-17
8736.05609 1.36327e-17
8736.91755 1.36530e-17
8737.77902 1.36673e-17
8738.64048 1.36815e-17
8739.50194 1.36695e-17
8740.36340 1.36574e-17
8741.22486 1.36078e-17
8742.08633 1.35581e-17
8742.95780 1.34682e-17
8743.81927 1.33782e-17
8744.68073 1.32738e-17
8745.54219 1.31693e-17
8746.40365 1.30787e-17
8747.26511 1.29880e-17
8748.12658 1.29243e-17
8748.98804 1.28607e-17
8749.84950 1.28318e-17
8750.71096 1.28030e-17
8751.57242 1.28008e-17
8752.44390 1.27987e-17
8753.30537 1.28076e-17
8754.16683 1.28166e-17
8755.02829 1.28282e-17
8755.88975 1.28398e-17
8756.75121 1.28483e-17
8757.61268 1.28569e-17
8758.47414 1.28500e-17
8759.33560 1.28430e-17
8760.19706 1.28053e-17
8761.05852 1.27676e-17
8761.91999 1.26967e-17
8762.79146 1.26258e-17
8763.65293 1.25299e-17
8764.51439 1.24339e-17
8765.37585 1.23263e-17
8766.23731 1.22188e-17
8767.09877 1.21186e-17
8767.96024 1.20186e-17
8768.82170 1.19382e-17
8769.68316 1.18579e-17
8770.54462 1.17959e-17
8771.40608 1.17339e-17
8772.26755 1.16874e-17
8773.13903 1.16409e-17
8774.00049 1.16079e-17
8774.86195 1.15748e-17
8775.72341 1.15508e-17
8776.58487 1.15267e-17
8777.44633 1.15078e-17
8778.30780 1.14890e-17
8779.16926 1.14697e-17
8780.03072 1.14505e-17
8780.89218 1.14141e-17
8781.76366 1.13777e-17
8782.62512 1.13092e-17
8783.48659 1.12405e-17
8784.34805 1.11471e-17
8785.20951 1.10537e-17
8786.07097 1.09486e-17
8786.93243 1.08436e-17
8787.79390 1.07372e-17
8788.65536 1.06307e-17
8789.51682 1.05325e-17
8790.37828 1.04343e-17
8791.24976 1.03442e-17
8792.11122 1.02541e-17
8792.97268 1.01650e-17
8793.83415 1.00759e-17
8794.69561 9.99232e-18
8795.55707 9.90886e-18
8796.41853 9.84370e-18
8797.28000 9.77872e-18
8798.14146 9.72942e-18
8799.00292 9.68020e-18
8799.86438 9.62958e-18
8800.72584 9.57896e-18
8801.59732 9.51302e-18
8802.45878 9.44707e-18
8803.32025 9.35634e-18
8804.18171 9.26561e-18
8805.04317 9.14888e-18
8805.90463 9.03214e-18
8806.76609 8.90620e-18
8807.62756 8.78018e-18
8808.48902 8.66035e-18
8809.35048 8.54058e-18
8810.21194 8.43429e-18
8811.08342 8.32804e-18
8811.94488 8.24022e-18
8812.80635 8.15245e-18
8813.66781 8.08116e-18
8814.52927 8.00993e-18
8815.39073 7.95051e-18
8816.25219 7.89111e-18
8817.11365 7.83773e-18
8817.97512 7.78437e-18
8818.83658 7.73052e-18
8819.70806 7.67668e-18
8820.56952 7.61449e-18
8821.43098 7.55226e-18
8822.29244 7.47485e-18
8823.15391 7.39741e-18
8824.01537 7.30394e-18
8824.87683 7.21044e-18
8825.73829 7.10338e-18
8826.59975 6.99628e-18
8827.46122 6.88549e-18
8828.32268 6.77469e-18
8829.19416 6.67437e-18
8830.05562 6.57408e-18
8830.91708 6.49148e-18
8831.77854 6.40893e-18
8832.64000 6.34457e-18
8833.50147 6.28025e-18
8834.36293 6.23181e-18
8835.22439 6.18342e-18
8836.08585 6.14524e-18
8836.94732 6.10709e-18
8837.80878 6.07254e-18
8838.67024 6.03799e-18
8839.54172 6.00023e-18
8840.40318 5.96248e-18
8841.26464 5.91651e-18
8842.12610 5.87053e-18
8842.98757 5.81568e-18
8843.84903 5.76080e-18
8844.71049 5.69812e-18
8845.57195 5.63543e-18
8846.43341 5.56859e-18
8847.29488 5.50174e-18
8848.15634 5.43545e-18
8849.02782 5.36915e-18
8849.88928 5.30592e-18
8850.75074 5.24269e-18
8851.61220 5.18490e-18
8852.47367 5.12714e-18
8853.33513 5.08708e-18
8854.19659 5.04706e-18
8855.05805 5.03694e-18
8855.91951 5.02691e-18
8856.78097 5.03704e-18
8857.64244 5.04723e-18
8858.50390 5.06048e-18
8859.36536 5.07374e-18
8860.23684 5.07600e-18
8861.09830 5.07823e-18
8861.95976 5.05673e-18
8862.82123 5.03516e-18
8863.68269 4.99470e-18
8864.54415 4.95418e-18
8865.40561 4.91337e-18
8866.26707 4.87256e-18
8867.12854 4.84006e-18
8867.99000 4.80757e-18
8868.86148 4.78119e-18
8869.72294 4.75481e-18
8870.58440 4.73359e-18
8871.44586 4.71238e-18
8872.30732 4.69550e-18
8873.16879 4.67864e-18
8874.03025 4.66704e-18
8874.89171 4.65545e-18
8875.75317 4.65627e-18
8876.61463 4.65713e-18
8877.47610 4.67327e-18
8878.34758 4.68945e-18
8879.20904 4.71198e-18
8880.07050 4.73454e-18
8880.93196 4.75410e-18
8881.79342 4.77366e-18
8882.65489 4.78155e-18
8883.51635 4.78940e-18
8884.37781 4.77928e-18
8885.23927 4.76911e-18
8886.10073 4.74682e-18
8886.96220 4.72451e-18
8887.83367 4.69923e-18
8888.69514 4.67395e-18
8889.55660 4.65416e-18
8890.41806 4.63437e-18
8891.27952 4.62775e-18
8892.14099 4.62116e-18
8893.00245 4.63204e-18
8893.86391 4.64297e-18
8894.72537 4.67307e-18
8895.58683 4.70323e-18
8896.44830 4.74547e-18
8897.30976 4.78776e-18
8898.18124 4.83005e-18
8899.04270 4.87234e-18
8899.90416 4.90435e-18
8900.76562 4.93633e-18
8901.62708 4.94943e-18
8902.48855 4.96248e-18
8903.35001 4.95800e-18
8904.21147 4.95348e-18
8905.07293 4.94575e-18
8905.93439 4.93801e-18
8906.80587 4.93642e-18
8907.66734 4.93485e-18
8908.52880 4.93846e-18
8909.39026 4.94210e-18
8910.25172 4.95094e-18
8911.11318 4.95980e-18
8911.97465 4.97562e-18
8912.83611 4.99146e-18
8913.69757 5.01497e-18
8914.55903 5.03851e-18
8915.42049 5.07140e-18
8916.29197 5.10430e-18
8917.15343 5.14615e-18
8918.01490 5.18802e-18
8918.87636 5.22808e-18
8919.73782 5.26813e-18
8920.59928 5.29561e-18
8921.46074 5.32305e-18
8922.32221 5.33490e-18
8923.18367 5.34672e-18
8924.04513 5.34262e-18
8924.90659 5.33848e-18
8925.76805 5.33112e-18
8926.63953 5.32375e-18
8927.50100 5.33046e-18
8928.36246 5.33721e-18
8929.22392 5.35864e-18
8930.08538 5.38012e-18
8930.94684 5.40845e-18
8931.80831 5.43680e-18
8932.66977 5.46635e-18
8933.53123 5.49590e-18
8934.39269 5.52119e-18
8935.25415 5.54645e-18
8936.12563 5.57005e-18
8936.98709 5.59365e-18
8937.84856 5.62794e-18
8938.71002 5.66227e-18
8939.57148 5.70783e-18
8940.43294 5.75341e-18
8941.29440 5.79343e-18
8942.15587 5.83345e-18
8943.01733 5.85561e-18
8943.87879 5.87772e-18
8944.74025 5.87651e-18
8945.61173 5.87522e-18
8946.47319 5.85261e-18
8947.33466 5.82993e-18
8948.19612 5.81185e-18
8949.05758 5.79377e-18
8949.91904 5.80125e-18
8950.78050 5.80880e-18
8951.64197 5.83531e-18
8952.50343 5.86186e-18
8953.36489 5.89682e-18
8954.22635 5.93179e-18
8955.08781 5.94763e-18
8955.95929 5.96341e-18
8956.82075 5.93302e-18
8957.68222 5.90252e-18
8958.54368 5.85962e-18
8959.40514 5.81670e-18
8960.26660 5.81098e-18
8961.12806 5.80537e-18
8961.98953 5.84392e-18
8962.85099 5.88259e-18
8963.71245 5.95601e-18
8964.57391 6.02952e-18
8965.44539 6.11400e-18
8966.30685 6.19851e-18
8967.16832 6.25806e-18
8968.02978 6.31755e-18
8968.89124 6.35610e-18
8969.75270 6.39461e-18
8970.61416 6.45153e-18
8971.47563 6.50851e-18
8972.33709 6.59744e-18
8973.19855 6.68646e-18
8974.06001 6.79055e-18
8974.93149 6.89466e-18
8975.79295 6.98947e-18
8976.65441 7.08426e-18
8977.51588 7.13247e-18
8978.37734 7.18056e-18
8979.23880 7.15309e-18
8980.10026 7.12542e-18
8980.96172 7.00356e-18
8981.82319 6.88145e-18
8982.68465 6.67721e-18
8983.54611 6.47276e-18
8984.41759 6.29600e-18
8985.27905 6.11931e-18
8986.14051 6.07136e-18
8987.00198 6.02376e-18
8987.86344 6.13938e-18
8988.72490 6.25543e-18
8989.58636 6.53984e-18
8990.44782 6.82470e-18
8991.30928 7.14217e-18
8992.17075 7.45972e-18
8993.03221 7.64684e-18
8993.89367 7.83361e-18
8994.76515 7.86588e-18
8995.62661 7.89774e-18
8996.48807 7.80503e-18
8997.34954 7.71199e-18
8998.21100 7.56740e-18
8999.07246 7.42267e-18
8999.93392 7.32591e-18
9000.79538 7.22928e-18
9001.65685 7.22384e-18
9002.51831 7.21866e-18
9003.38979 7.30186e-18
9004.25125 7.38528e-18
9005.11271 7.52811e-18
9005.97417 7.67109e-18
9006.83563 7.81667e-18
9007.69710 7.96226e-18
9008.55856 8.06627e-18
9009.42002 8.17017e-18
9010.28148 8.21205e-18
9011.14295 8.25375e-18
9012.00441 8.23443e-18
9012.87589 8.21492e-18
9013.73735 8.18323e-18
9014.59881 8.15151e-18
9015.46027 8.14371e-18
9016.32173 8.13596e-18
9017.18320 8.12991e-18
9018.04466 8.12387e-18
9018.90612 8.10309e-18
9019.76758 8.08227e-18
9020.62904 8.06582e-18
9021.49051 8.04936e-18
9022.35197 8.05701e-18
9023.22345 8.06471e-18
9024.08491 8.12135e-18
9024.94637 8.17811e-18
9025.80783 8.30362e-18
9026.66930 8.42932e-18
9027.53076 8.59352e-18
9028.39222 8.75785e-18
9029.25368 8.91514e-18
9030.11514 9.07233e-18
9030.97660 9.19100e-18
9031.83807 9.30949e-18
9032.70955 9.36598e-18
9033.57101 9.42229e-18
9034.43247 9.41449e-18
9035.29393 9.40652e-18
9036.15539 9.34645e-18
9037.01686 9.28619e-18
9037.87832 9.20466e-18
9038.73978 9.12304e-18
9039.60124 9.06743e-18
9040.46270 9.01199e-18
9041.32417 8.99501e-18
9042.18563 8.97810e-18
9043.05711 8.96505e-18
9043.91857 8.95192e-18
9044.78003 8.92451e-18
9045.64149 8.89701e-18
9046.50295 8.86618e-18
9047.36442 8.83535e-18
9048.22588 8.81066e-18
9049.08734 8.78596e-18
9049.94880 8.78263e-18
9050.81027 8.77922e-18
9051.67173 8.80129e-18
9052.54321 8.82344e-18
9053.40467 8.82581e-18
9054.26613 8.82800e-18
9055.12759 8.77107e-18
9055.98905 8.71402e-18
9056.85052 8.61892e-18
9057.71198 8.52372e-18
9058.57344 8.41909e-18
9059.43490 8.31444e-18
9060.29636 8.20384e-18
9061.16784 8.09323e-18
9062.02931 7.97807e-18
9062.89077 7.86290e-18
9063.75223 7.73900e-18
9064.61369 7.61507e-18
9065.47515 7.47319e-18
9066.33662 7.33126e-18
9067.19808 7.20753e-18
9068.05954 7.08385e-18
9068.92100 7.03827e-18
9069.78246 6.99290e-18
9070.64393 7.01219e-18
9071.51540 7.03167e-18
9072.37687 7.04868e-18
9073.23833 7.06568e-18
9074.09979 7.05563e-18
9074.96125 7.04551e-18
9075.82271 7.02713e-18
9076.68418 7.00873e-18
9077.54564 6.99378e-18
9078.40710 6.97884e-18
9079.26856 6.97409e-18
9080.13002 6.96936e-18
9080.99149 6.97453e-18
9081.86297 6.97973e-18
9082.72443 6.97155e-18
9083.58589 6.96332e-18
9084.44735 6.92878e-18
9085.30881 6.89417e-18
9086.17028 6.85892e-18
9087.03174 6.82366e-18
9087.89320 6.80746e-18
9088.75466 6.79130e-18
9089.61612 6.76893e-18
9090.48760 6.74654e-18
9091.34906 6.69383e-18
9092.21053 6.64133e-18
9093.07199 6.58323e-18
9093.93345 6.52511e-18
9094.79491 6.49212e-18
9095.65637 6.45921e-18
9096.51784 6.44269e-18
9097.37930 6.42623e-18
9098.24076 6.40799e-18
9099.10222 6.38973e-18
9099.97370 6.37446e-18
9100.83516 6.35921e-18
9101.69663 6.35667e-18
9102.55809 6.35416e-18
9103.41955 6.38301e-18
9104.28101 6.41195e-18
9105.14247 6.49890e-18
9106.00393 6.58602e-18
9106.86540 6.69940e-18
9107.72686 6.81284e-18
9108.58832 6.87137e-18
9109.45980 6.92974e-18
9110.32126 6.89877e-18
9111.18272 6.86756e-18
9112.04419 6.76727e-18
9112.90565 6.66678e-18
9113.76711 6.53860e-18
9114.62857 6.41035e-18
9115.49003 6.33935e-18
9116.35150 6.26850e-18
9117.21296 6.29898e-18
9118.07442 6.32975e-18
9118.93588 6.39610e-18
9119.80736 6.46256e-18
9120.66882 6.50072e-18
9121.53028 6.53880e-18
9122.39175 6.50772e-18
9123.25321 6.47645e-18
9124.11467 6.35148e-18
9124.97613 6.22627e-18
9125.83760 6.06522e-18
9126.69906 5.90408e-18
9127.56052 5.77729e-18
9128.43200 5.65061e-18
9129.29346 5.59443e-18
9130.15492 5.53845e-18
9131.01638 5.57629e-18
9131.87785 5.61439e-18
9132.73931 5.73047e-18
9133.60077 5.84678e-18
9134.46223 6.00541e-18
9135.32369 6.16415e-18
9136.18516 6.32818e-18
9137.04662 6.49223e-18
9137.90808 6.62332e-18
9138.76954 6.75432e-18
9139.64102 6.82780e-18
9140.50248 6.90112e-18
9141.36395 6.90866e-18
9142.22541 6.91602e-18
9143.08687 6.84513e-18
9143.94833 6.77403e-18
9144.80979 6.60673e-18
9145.67125 6.43918e-18
9146.53272 6.19717e-18
9147.39418 5.95495e-18
9148.26566 5.71131e-18
9149.12712 5.46768e-18
9149.98858 5.28875e-18
9150.85004 5.11000e-18
9151.71151 5.04944e-18
9152.57297 4.98921e-18
9153.43443 5.06796e-18
9154.29589 5.14709e-18
9155.15735 5.29632e-18
9156.01882 5.44573e-18
9156.88028 5.59272e-18
9157.75176 5.73970e-18
9158.61322 5.85044e-18
9159.47468 5.96109e-18
9160.33614 6.00933e-18
9161.19760 6.05740e-18
9162.05907 6.04488e-18
9162.92053 6.03219e-18
9163.78199 5.97319e-18
9164.64345 5.91407e-18
9165.50492 5.80661e-18
9166.36638 5.69902e-18
9167.22784 5.54056e-18
9168.09932 5.38197e-18
9168.96078 5.21182e-18
9169.82224 5.04166e-18
9170.68370 4.91305e-18
9171.54517 4.78457e-18
9172.40663 4.72410e-18
9173.26809 4.66381e-18
9174.12955 4.68305e-18
9174.99101 4.70251e-18
9175.85248 4.76875e-18
9176.71394 4.83512e-18
9177.58542 4.87402e-18
9178.44688 4.91284e-18
9179.30834 4.90277e-18
9180.16980 4.89257e-18
9181.03127 4.88231e-18
9181.89273 4.87206e-18
9182.75419 4.88848e-18
9183.61565 4.90497e-18
9184.47711 4.93847e-18
9185.33857 4.97202e-18
9186.20004 5.01107e-18
9187.07152 5.05012e-18
9187.93298 5.06669e-18
9188.79444 5.08321e-18
9189.65590 5.06178e-18
9190.51736 5.04024e-18
9191.37883 5.02408e-18
9192.24029 5.00793e-18
9193.10175 5.03557e-18
9193.96321 5.06332e-18
9194.82467 5.11763e-18
9195.68614 5.17199e-18
9196.55762 5.22852e-18
9197.41908 5.28505e-18
9198.28054 5.32171e-18
9199.14200 5.35832e-18
9200.00346 5.35388e-18
9200.86492 5.34934e-18
9201.72639 5.31945e-18
9202.58785 5.28948e-18
9203.44931 5.26490e-18
9204.31077 5.24035e-18
9205.17224 5.22198e-18
9206.04371 5.20363e-18
9206.90518 5.17796e-18
9207.76664 5.15226e-18
9208.62810 5.12358e-18
9209.48956 5.09489e-18
9210.35102 5.07766e-18
9211.21249 5.06045e-18
9212.07395 5.06917e-18
9212.93541 5.07797e-18
9213.79687 5.12929e-18
9214.65833 5.18073e-18
9215.52981 5.27131e-18
9216.39127 5.36202e-18
9217.25274 5.45746e-18
9218.11420 5.55291e-18
9218.97566 5.63085e-18
9219.83712 5.70873e-18
9220.69859 5.77629e-18
9221.56005 5.84383e-18
9222.42151 5.90504e-18
9223.28297 5.96623e-18
9224.14443 6.01426e-18
9225.00590 6.06226e-18
9225.87737 6.09236e-18
9226.73884 6.12240e-18
9227.60030 6.12956e-18
9228.46176 6.13665e-18
9229.32322 6.11894e-18
9230.18468 6.10118e-18
9231.04615 6.07880e-18
9231.90761 6.05641e-18
9232.76907 6.05266e-18
9233.63053 6.04895e-18
9234.49199 6.05872e-18
9235.35346 6.06851e-18
9236.22494 6.07866e-18
9237.08640 6.08881e-18
9237.94786 6.10533e-18
9238.80932 6.12186e-18
9239.67078 6.15707e-18
9240.53225 6.19233e-18
9241.39371 6.25215e-18
9242.25517 6.31203e-18
9243.11663 6.39885e-18
9243.97809 6.48576e-18
9244.84957 6.59203e-18
9245.71103 6.69835e-18
9246.57250 6.80682e-18
9247.43396 6.91529e-18
9248.29542 7.01610e-18
9249.15688 7.11688e-18
9250.01834 7.21206e-18
9250.87981 7.30723e-18
9251.74127 7.39197e-18
9252.60273 7.47668e-18
9253.46419 7.53068e-18
9254.32565 7.58460e-18
9255.19713 7.60453e-18
9256.05860 7.62436e-18
9256.92006 7.64970e-18
9257.78152 7.67506e-18
9258.64298 7.73553e-18
9259.50444 7.79609e-18
9260.36591 7.88270e-18
9261.22737 7.96939e-18
9262.08883 8.06618e-18
9262.95029 8.16298e-18
9263.81175 8.23500e-18
9264.68323 8.30695e-18
9265.54469 8.32076e-18
9266.40616 8.33441e-18
9267.26762 8.29096e-18
9268.12908 8.24734e-18
9268.99054 8.16039e-18
9269.85200 8.07332e-18
9270.71347 7.97525e-18
9271.57493 7.87714e-18
9272.43639 7.80653e-18
9273.29785 7.73600e-18
9274.16933 7.72331e-18
9275.03079 7.71078e-18
9275.89226 7.77830e-18
9276.75372 7.84604e-18
9277.61518 7.98242e-18
9278.47664 8.11898e-18
9279.33810 8.28666e-18
9280.19957 8.45441e-18
9281.06103 8.61284e-18
9281.92249 8.77125e-18
9282.79397 8.88133e-18
9283.65543 8.99133e-18
9284.51689 9.02198e-18
9285.37835 9.05237e-18
9286.23982 8.98511e-18
9287.10128 8.91759e-18
9287.96274 8.76056e-18
9288.82420 8.60320e-18
9289.68566 8.40616e-18
9290.54713 8.20902e-18
9291.40859 8.02988e-18
9292.27005 7.85080e-18
9293.14153 7.76579e-18
9294.00299 7.68103e-18
9294.86445 7.73991e-18
9295.72592 7.79919e-18
9296.58738 7.95069e-18
9297.44884 8.10245e-18
9298.31030 8.27853e-18
9299.17176 8.45466e-18
9300.03323 8.56257e-18
9300.89469 8.67028e-18
9301.75615 8.62107e-18
9302.62763 8.57141e-18
9303.48909 8.45050e-18
9304.35055 8.32940e-18
9305.21201 8.27652e-18
9306.07348 8.22384e-18
9306.93494 8.20643e-18
9307.79640 8.18911e-18
9308.65786 8.10579e-18
9309.51932 8.02229e-18
9310.38079 7.87777e-18
9311.24225 7.73310e-18
9312.11373 7.58720e-18
9312.97519 7.44130e-18
9313.83665 7.35268e-18
9314.69811 7.26421e-18
9315.55958 7.29953e-18
9316.42104 7.33521e-18
9317.28250 7.48150e-18
9318.14396 7.62811e-18
9319.00542 7.75715e-18
9319.86688 7.88612e-18
9320.72835 7.94755e-18
9321.58981 8.00880e-18
9322.46129 8.12082e-18
9323.32275 8.23299e-18
9324.18421 8.42145e-18
9325.04567 8.61013e-18
9325.90714 8.63337e-18
9326.76860 8.65614e-18
9327.63006 8.36517e-18
9328.49152 8.07330e-18
9329.35298 7.70204e-18
9330.21445 7.33054e-18
9331.07591 7.10544e-18
9331.94739 6.88077e-18
9332.80885 6.75818e-18
9333.67031 6.63589e-18
9334.53177 6.55038e-18
9335.39323 6.46497e-18
9336.25470 6.41802e-18
9337.11616 6.37119e-18
9337.97762 6.35158e-18
9338.83908 6.33206e-18
9339.70055 6.53922e-18
9340.56201 6.74702e-18
9341.43349 7.45104e-18
9342.29495 8.15647e-18
9343.15641 9.01138e-18
9344.01787 9.86665e-18
9344.87933 1.02360e-17
9345.74080 1.06038e-17
9346.60226 1.02976e-17
9347.46372 9.98943e-18
9348.32518 9.11612e-18
9349.18664 8.24125e-18
9350.04811 7.20244e-18
9350.90957 6.16319e-18
9351.78105 5.69953e-18
9352.64251 5.23754e-18
9353.50397 5.59206e-18
9354.36543 5.94890e-18
9355.22689 6.58578e-18
9356.08836 7.22343e-18
9356.94982 7.69217e-18
9357.81128 8.16042e-18
9358.67274 8.19230e-18
9359.53420 8.22295e-18
9360.39567 7.70180e-18
9361.26715 7.17908e-18
9362.12861 6.52701e-18
9362.99007 5.87459e-18
9363.85153 5.48999e-18
9364.71299 5.10617e-18
9365.57446 5.01199e-18
9366.43592 4.91865e-18
9367.29738 5.07651e-18
9368.15884 5.23508e-18
9369.02030 5.44704e-18
9369.89178 5.65915e-18
9370.75324 5.69855e-18
9371.61471 5.73745e-18
9372.47617 5.61818e-18
9373.33763 5.49847e-18
9374.19909 5.30523e-18
9375.06056 5.11179e-18
9375.92202 4.97409e-18
9376.78348 4.83655e-18
9377.64494 4.91260e-18
9378.50640 4.98926e-18
9379.37788 5.21906e-18
9380.23934 5.44929e-18
9381.10081 5.62915e-18
9381.96227 5.80885e-18
9382.82373 5.87385e-18
9383.68519 5.93853e-18
9384.54665 5.94726e-18
9385.40812 5.95582e-18
9386.26958 5.92449e-18
9387.13104 5.89303e-18
9387.99250 5.79419e-18
9388.85396 5.69516e-18
9389.72544 5.52726e-18
9390.58691 5.35917e-18
9391.44837 5.14756e-18
9392.30983 4.93583e-18
9393.17129 4.71521e-18
9394.03275 4.49457e-18
9394.89422 4.32655e-18
9395.75568 4.15870e-18
9396.61714 4.08499e-18
9397.47860 4.01156e-18
9398.34006 4.00125e-18
9399.21154 3.99113e-18
9400.07300 4.00537e-18
9400.93447 4.01968e-18
9401.79593 4.02112e-18
9402.65739 4.02253e-18
9403.51885 3.97849e-18
9404.38031 3.93433e-18
9405.24178 3.88154e-18
9406.10324 3.82873e-18
9406.96470 3.81876e-18
9407.82616 3.80891e-18
9408.69764 3.84232e-18
9409.55910 3.87586e-18
9410.42057 3.93472e-18
9411.28203 3.99365e-18
9412.14349 4.05011e-18
9413.00495 4.10656e-18
9413.86641 4.12759e-18
9414.72788 4.14850e-18
9415.58934 4.11208e-18
9416.45080 4.07548e-18
9417.31226 3.97481e-18
9418.17372 3.87394e-18
9419.04520 3.71605e-18
9419.90666 3.55799e-18
9420.76813 3.35343e-18
9421.62959 3.14874e-18
9422.49105 2.97072e-18
9423.35251 2.79279e-18
9424.21397 2.81604e-18
9425.07544 2.83988e-18
9425.93690 3.12049e-18
9426.79836 3.40185e-18
9427.65982 3.75665e-18
9428.53130 4.11165e-18
9429.39276 4.36403e-18
9430.25423 4.61610e-18
9431.11569 4.60255e-18
9431.97715 4.58824e-18
9432.83861 4.22596e-18
9433.70007 3.86267e-18
9434.56153 3.43891e-18
9435.42300 3.01499e-18
9436.28446 2.83023e-18
9437.14592 2.64618e-18
9438.01740 2.74777e-18
9438.87886 2.85019e-18
9439.74032 3.21867e-18
9440.60179 3.58790e-18
9441.46325 4.03613e-18
9442.32471 4.48457e-18
9443.18617 4.77167e-18
9444.04763 5.05829e-18
9444.90910 5.11538e-18
9445.77056 5.17178e-18
9446.63202 5.01388e-18
9447.49348 4.85536e-18
9448.36496 4.56772e-18
9449.22642 4.27972e-18
9450.08788 3.99948e-18
9450.94935 3.71926e-18
9451.81081 3.53577e-18
9452.67227 3.35257e-18
9453.53373 3.30066e-18
9454.39520 3.24914e-18
9455.25666 3.33752e-18
9456.11812 3.42630e-18
9456.98960 3.63351e-18
9457.85106 3.84106e-18
9458.71252 4.10508e-18
9459.57398 4.36924e-18
9460.43545 4.56486e-18
9461.29691 4.76027e-18
9462.15837 4.81205e-18
9463.01983 4.86342e-18
9463.88129 4.83031e-18
9464.74276 4.79696e-18
9465.60422 4.74057e-18
9466.47570 4.68412e-18
9467.33716 4.64230e-18
9468.19862 4.60053e-18
9469.06008 4.60369e-18
9469.92155 4.60698e-18
9470.78301 4.60850e-18
9471.64447 4.61000e-18
9472.50593 4.56020e-18
9473.36739 4.51025e-18
9474.22885 4.44023e-18
9475.09032 4.37015e-18
9475.96180 4.32220e-18
9476.82326 4.27432e-18
9477.68472 4.33614e-18
9478.54618 4.39827e-18
9479.40764 4.66872e-18
9480.26911 4.93977e-18
9481.13057 5.31149e-18
9481.99203 5.68349e-18
9482.85349 5.94877e-18
9483.71495 6.21374e-18
9484.57642 6.26312e-18
9485.43788 6.31186e-18
9486.30936 6.10702e-18
9487.17082 5.90142e-18
9488.03228 5.52575e-18
9488.89374 5.14959e-18
9489.75520 4.82279e-18
9490.61667 4.49615e-18
9491.47813 4.35869e-18
9492.33959 4.22180e-18
9493.20105 4.27113e-18
9494.06252 4.32100e-18
9494.92398 4.55641e-18
9495.79546 4.79234e-18
9496.65692 5.24381e-18
9497.51838 5.69589e-18
9498.37984 6.31582e-18
9499.24130 6.93624e-18
9500.10277 7.48205e-18
9500.96423 8.02764e-18
9501.82569 8.28952e-18
9502.68715 8.55057e-18
9503.54861 8.49533e-18
9504.41008 8.43917e-18
9505.28155 8.08824e-18
9506.14302 7.73646e-18
9507.00448 7.27213e-18
9507.86594 6.80747e-18
9508.72740 6.44654e-18
9509.58887 6.08592e-18
9510.45033 5.84964e-18
9511.31179 5.61373e-18
9512.17325 5.45925e-18
9513.03471 5.30501e-18
9513.89617 5.27453e-18
9514.75764 5.24440e-18
9515.62912 5.39828e-18
9516.49058 5.55270e-18
9517.35204 5.87333e-18
9518.21350 6.19444e-18
9519.07496 6.62263e-18
9519.93643 7.05113e-18
9520.79789 7.48263e-18
9521.65935 7.91414e-18
9522.52081 8.20540e-18
9523.38227 8.49625e-18
9524.24374 8.59891e-18
9525.11522 8.70101e-18
9525.97668 8.69050e-18
9526.83814 8.67967e-18
9527.69960 8.62556e-18
9528.56106 8.57132e-18
9529.42252 8.52856e-18
9530.28399 8.48584e-18
9531.14545 8.48524e-18
9532.00691 8.48478e-18
9532.86837 8.47755e-18
9533.72984 8.47029e-18
9534.60131 8.41521e-18
9535.46278 8.35998e-18
9536.32424 8.24455e-18
9537.18570 8.12895e-18
9538.04716 7.95981e-18
9538.90862 7.79052e-18
9539.77009 7.72203e-18
9540.63155 7.65383e-18
9541.49301 7.83167e-18
9542.35447 8.01023e-18
9543.21593 8.33003e-18
9544.08741 8.65024e-18
9544.94888 8.95665e-18
9545.81034 9.26299e-18
9546.67180 9.40442e-18
9547.53326 9.54533e-18
9548.39472 9.36633e-18
9549.25619 9.18645e-18
9550.11765 8.86732e-18
9550.97911 8.54780e-18
9551.84057 8.45153e-18
9552.70203 8.35591e-18
9553.57351 8.50716e-18
9554.43497 8.65912e-18
9555.29644 8.84332e-18
9556.15790 9.02758e-18
9557.01936 9.10018e-18
9557.88082 9.17243e-18
9558.74228 9.03713e-18
9559.60375 8.90130e-18
9560.46521 8.61782e-18
9561.32667 8.33397e-18
9562.18813 8.23005e-18
9563.05961 8.12666e-18
9563.92107 8.37133e-18
9564.78254 8.61703e-18
9565.64400 9.03625e-18
9566.50546 9.45600e-18
9567.36692 9.86253e-18
9568.22838 1.02690e-17
9569.08985 1.04393e-17
9569.95131 1.06090e-17
9570.81277 1.03894e-17
9571.67423 1.01686e-17
9572.53569 9.75254e-18
9573.40717 9.33594e-18
9574.26863 8.95341e-18
9575.13010 8.57105e-18
9575.99156 8.37583e-18
9576.85302 8.18117e-18
9577.71448 8.29467e-18
9578.57594 8.40908e-18
9579.43741 8.64046e-18
9580.29887 8.87214e-18
9581.16033 8.94263e-18
9582.02179 9.01270e-18
9582.89327 8.88545e-18
9583.75473 8.75767e-18
9584.61620 8.48738e-18
9585.47766 8.21663e-18
9586.33912 7.99820e-18
9587.20058 7.77992e-18
9588.06204 7.91014e-18
9588.92351 8.04140e-18
9589.78497 8.48314e-18
9590.64643 8.92582e-18
9591.51791 9.33857e-18
9592.37937 9.75131e-18
9593.24083 9.95151e-18
9594.10229 1.01512e-17
9594.96376 1.01564e-17
9595.82522 1.01612e-17
9596.68668 1.00084e-17
9597.54814 9.85526e-18
9598.40960 9.63063e-18
9599.27107 9.40591e-18
9600.13253 9.20449e-18
9600.99399 9.00306e-18
9601.86547 8.89999e-18
9602.72693 8.79717e-18
9603.58839 8.84148e-18
9604.44986 8.88632e-18
9605.31132 9.06988e-18
9606.17278 9.25388e-18
9607.03424 9.53535e-18
9607.89570 9.81699e-18
9608.75717 1.00174e-17
9609.61863 1.02175e-17
9610.48009 1.01642e-17
9611.35157 1.01102e-17
9612.21303 9.87646e-18
9613.07449 9.64228e-18
9613.93595 9.36606e-18
9614.79742 9.08967e-18
9615.65888 8.86688e-18
9616.52034 8.64420e-18
9617.38180 8.55479e-18
9618.24326 8.46578e-18
9619.10473 8.53032e-18
9619.96619 8.59531e-18
9620.82765 8.79157e-18
9621.69913 8.98826e-18
9622.56059 9.24547e-18
9623.42205 9.50286e-18
9624.28352 9.72250e-18
9625.14498 9.94205e-18
9626.00644 1.00302e-17
9626.86790 1.01180e-17
9627.72936 9.98671e-18
9628.59083 9.85483e-18
9629.45229 9.52992e-18
9630.31375 9.20449e-18
9631.17521 8.87827e-18
9632.04669 8.55199e-18
9632.90815 8.37367e-18
9633.76961 8.19579e-18
9634.63108 8.22346e-18
9635.49254 8.25176e-18
9636.35400 8.47930e-18
9637.21546 8.70742e-18
9638.07692 8.91899e-18
9638.93839 9.13049e-18
9639.79985 9.14765e-18
9640.67133 9.16420e-18
9641.53279 9.09834e-18
9642.39425 9.03222e-18
9643.25571 9.01348e-18
9644.11718 8.99492e-18
9644.97864 9.05473e-18
9645.84010 9.11490e-18
9646.70156 9.26605e-18
9647.56302 9.41747e-18
9648.42448 9.55899e-18
9649.28595 9.70043e-18
9650.15743 9.70078e-18
9651.01889 9.70060e-18
9651.88035 9.55926e-18
9652.74181 9.41747e-18
9653.60327 9.19345e-18
9654.46474 8.96908e-18
9655.32620 8.74336e-18
9656.18766 8.51761e-18
9657.04912 8.38372e-18
9657.91058 8.25010e-18
9658.77205 8.26027e-18
9659.64352 8.27088e-18
9660.50499 8.43792e-18
9661.36645 8.60542e-18
9662.22791 8.87643e-18
9663.08937 9.14774e-18
9663.95083 9.38463e-18
9664.81230 9.62144e-18
9665.67376 9.74430e-18
9666.53522 9.86691e-18
9667.39668 9.91805e-18
9668.25815 9.96902e-18
9669.11961 9.97270e-18
9669.99109 9.97621e-18
9670.85255 9.89152e-18
9671.71401 9.80648e-18
9672.57547 9.62222e-18
9673.43693 9.43761e-18
9674.29840 9.22910e-18
9675.15986 9.02040e-18
9676.02132 8.86277e-18
9676.88278 8.70531e-18
9677.74424 8.65105e-18
9678.61572 8.59710e-18
9679.47718 8.68096e-18
9680.33865 8.76521e-18
9681.20011 8.91811e-18
9682.06157 9.07111e-18
9682.92303 9.19678e-18
9683.78449 9.32236e-18
9684.64596 9.39234e-18
9685.50742 9.46205e-18
9686.36888 9.47238e-18
9687.23034 9.48254e-18
9688.10182 9.44322e-18
9688.96328 9.40381e-18
9689.82475 9.33918e-18
9690.68621 9.27446e-18
9691.54767 9.18890e-18
9692.40913 9.10325e-18
9693.27059 8.98388e-18
9694.13206 8.86434e-18
9694.99352 8.72875e-18
9695.85498 8.59310e-18
9696.71644 8.48946e-18
9697.57790 8.38592e-18
9698.44938 8.33818e-18
9699.31084 8.29061e-18
9700.17231 8.28967e-18
9701.03377 8.28888e-18
9701.89523 8.31505e-18
9702.75669 8.34130e-18
9703.61816 8.35077e-18
9704.47962 8.36019e-18
9705.34108 8.32466e-18
9706.20254 8.28899e-18
9707.06400 8.23576e-18
9707.93548 8.18247e-18
9708.79694 8.13981e-18
9709.65841 8.09719e-18
9710.51987 8.08055e-18
9711.38133 8.06398e-18
9712.24279 8.08340e-18
9713.10425 8.10293e-18
9713.96572 8.13157e-18
9714.82718 8.16022e-18
9715.68864 8.16574e-18
9716.55010 8.17120e-18
9717.41156 8.14434e-18
9718.28304 8.11739e-18
9719.14451 8.05444e-18
9720.00597 7.99138e-18
9720.86743 7.92601e-18
9721.72889 7.86063e-18
9722.59035 7.84463e-18
9723.45182 7.82878e-18
9724.31328 7.83942e-18
9725.17474 7.85013e-18
9726.03620 7.81982e-18
9726.89766 7.78938e-18
9727.76914 7.69420e-18
9728.63060 7.59882e-18
9729.49207 7.45132e-18
9730.35353 7.30367e-18
9731.21499 7.13533e-18
9732.07645 6.96693e-18
9732.93791 6.83562e-18
9733.79938 6.70443e-18
9734.66084 6.64621e-18
9735.52230 6.58821e-18
9736.38376 6.59607e-18
9737.25524 6.60411e-18
9738.11670 6.66182e-18
9738.97817 6.71967e-18
9739.83963 6.79528e-18
9740.70109 6.87096e-18
9741.56255 6.93291e-18
9742.42401 6.99482e-18
9743.28548 7.02638e-18
9744.14694 7.05784e-18
9745.00840 7.04908e-18
9745.86986 7.04020e-18
9746.74134 7.00457e-18
9747.60280 6.96888e-18
9748.46426 6.92486e-18
9749.32573 6.88082e-18
9750.18719 6.83280e-18
9751.04865 6.78477e-18
9751.91011 6.73506e-18
9752.77157 6.68534e-18
9753.63304 6.63230e-18
9754.49450 6.57926e-18
9755.35596 6.51946e-18
9756.22744 6.45964e-18
9757.08890 6.40553e-18
9757.95036 6.35142e-18
9758.81183 6.32138e-18
9759.67329 6.29140e-18
9760.53475 6.29964e-18
9761.39621 6.30799e-18
9762.25767 6.36672e-18
9763.11913 6.42561e-18
9763.98060 6.51634e-18
9764.84206 6.60715e-18
9765.71354 6.67781e-18
9766.57500 6.74840e-18
9767.43646 6.77345e-18
9768.29792 6.79836e-18
9769.15939 6.79454e-18
9770.02085 6.79062e-18
9770.88231 6.77220e-18
9771.74377 6.75373e-18
9772.60523 6.72782e-18
9773.46670 6.70190e-18
9774.32816 6.67756e-18
9775.19964 6.65322e-18
9776.06110 6.63759e-18
9776.92256 6.62199e-18
9777.78402 6.61984e-18
9778.64548 6.61774e-18
9779.50695 6.63517e-18
9780.36841 6.65266e-18
9781.22987 6.69134e-18
9782.09133 6.73009e-18
9782.95280 6.75655e-18
9783.81426 6.78296e-18
9784.68574 6.76079e-18
9785.54720 6.73846e-18
9786.40866 6.68529e-18
9787.27012 6.63203e-18
9788.13158 6.58104e-18
9788.99305 6.53005e-18
9789.85451 6.49291e-18
9790.71597 6.45580e-18
9791.57743 6.43738e-18
9792.43889 6.41900e-18
9793.30036 6.40684e-18
9794.16182 6.39470e-18
9795.03330 6.36268e-18
9795.89476 6.33059e-18
9796.75622 6.28632e-18
9797.61768 6.24202e-18
9798.47915 6.22371e-18
9799.34061 6.20548e-18
9800.20207 6.22588e-18
9801.06353 6.24641e-18
9801.92499 6.28743e-18
9802.78645 6.32851e-18
9803.64792 6.37187e-18
9804.51940 6.41523e-18
9805.38086 6.43949e-18
9806.24232 6.46369e-18
9807.10378 6.45845e-18
9807.96524 6.45311e-18
9808.82671 6.43894e-18
9809.68817 6.42473e-18
9810.54963 6.42121e-18
9811.41109 6.41772e-18
9812.27255 6.43722e-18
9813.13402 6.45679e-18
9813.99548 6.50507e-18
9814.86696 6.55343e-18
9815.72842 6.59613e-18
9816.58988 6.63880e-18
9817.45134 6.63942e-18
9818.31280 6.63992e-18
9819.17427 6.60333e-18
9820.03573 6.56662e-18
9820.89719 6.50817e-18
9821.75865 6.44964e-18
9822.62012 6.39185e-18
9823.48158 6.33406e-18
9824.35306 6.30319e-18
9825.21452 6.27241e-18
9826.07598 6.26463e-18
9826.93744 6.25694e-18
9827.79890 6.25101e-18
9828.66037 6.24509e-18
9829.52183 6.23575e-18
9830.38329 6.22641e-18
9831.24475 6.21996e-18
9832.10621 6.21353e-18
9832.97769 6.20852e-18
9833.83915 6.20351e-18
9834.70062 6.19168e-18
9835.56208 6.17983e-18
9836.42354 6.15737e-18
9837.28500 6.13488e-18
9838.14647 6.10403e-18
9839.00793 6.07315e-18
9839.86939 6.03641e-18
9840.73085 5.99966e-18
9841.59231 5.95834e-18
9842.45377 5.91700e-18
9843.32525 5.87582e-18
9844.18672 5.83462e-18
9845.04818 5.80816e-18
9845.90964 5.78174e-18
9846.77110 5.78150e-18
9847.63256 5.78134e-18
9848.49403 5.80377e-18
9849.35549 5.82626e-18
9850.21695 5.86482e-18
9851.07841 5.90343e-18
9851.93987 5.95188e-18
9852.81135 6.00036e-18
9853.67282 6.05133e-18
9854.53428 6.10230e-18
9855.39574 6.15113e-18
9856.25720 6.19994e-18
9857.11866 6.24320e-18
9857.98013 6.28643e-18
9858.84159 6.31486e-18
9859.70305 6.34323e-18
9860.56451 6.34623e-18
9861.42597 6.34915e-18
9862.29745 6.32529e-18
9863.15891 6.30135e-18
9864.02038 6.25517e-18
9864.88184 6.20892e-18
9865.74330 6.14885e-18
9866.60476 6.08873e-18
9867.46622 6.02682e-18
9868.32769 5.96492e-18
9869.18915 5.90808e-18
9870.05061 5.85126e-18
9870.92209 5.79870e-18
9871.78355 5.74615e-18
9872.64501 5.69876e-18
9873.50648 5.65139e-18
9874.36794 5.61325e-18
9875.22940 5.57512e-18
9876.09086 5.54942e-18
9876.95232 5.52376e-18
9877.81379 5.51346e-18
9878.67525 5.50322e-18
9879.53671 5.50967e-18
9880.39817 5.51618e-18
9881.26965 5.53733e-18
9882.13111 5.55854e-18
9882.99257 5.59060e-18
9883.85404 5.62269e-18
9884.71550 5.65871e-18
9885.57696 5.69475e-18
9886.43842 5.72724e-18
9887.29988 5.75972e-18
9888.16135 5.78165e-18
9889.02281 5.80354e-18
9889.88427 5.80901e-18
9890.74573 5.81442e-18
9891.61721 5.80329e-18
9892.47867 5.79212e-18
9893.34014 5.76736e-18
9894.20160 5.74256e-18
9895.06306 5.70736e-18
9895.92452 5.67212e-18
9896.78598 5.62983e-18
9897.64745 5.58752e-18
9898.50891 5.54364e-18
9899.37037 5.49975e-18
9900.23183 5.46154e-18
9901.09329 5.42335e-18
9901.96477 5.39201e-18
9902.82623 5.36069e-18
9903.68770 5.33006e-18
9904.54916 5.29943e-18
9905.41062 5.27092e-18
9906.27208 5.24241e-18
9907.13354 5.22947e-18
9907.99501 5.21656e-18
9908.85647 5.22556e-18
9909.71793 5.23464e-18
9910.57939 5.25947e-18
9911.45087 5.28435e-18
9912.31233 5.31503e-18
9913.17380 5.34573e-18
9914.03526 5.36115e-18
9914.89672 5.37653e-18
9915.75818 5.35993e-18
9916.61964 5.34325e-18
9917.48111 5.30050e-18
9918.34257 5.25768e-18
9919.20403 5.19902e-18
9920.07551 5.14032e-18
9920.93697 5.07739e-18
9921.79843 5.01445e-18
9922.65989 4.95907e-18
9923.52136 4.90373e-18
9924.38282 4.86112e-18
9925.24428 4.81855e-18
9926.10574 4.79072e-18
9926.96720 4.76294e-18
9927.82867 4.74219e-18
9928.69013 4.72146e-18
9929.56161 4.69555e-18
9930.42307 4.66962e-18
9931.28453 4.63454e-18
9932.14599 4.59944e-18
9933.00746 4.55696e-18
9933.86892 4.51445e-18
9934.73038 4.46816e-18
9935.59184 4.42185e-18
9936.45330 4.37696e-18
9937.31477 4.33207e-18
9938.17623 4.29547e-18
9939.03769 4.25888e-18
9939.90917 4.23921e-18
9940.77063 4.21958e-18
9941.63209 4.21920e-18
9942.49355 4.21889e-18
9943.35502 4.22886e-18
9944.21648 4.23886e-18
9945.07794 4.25147e-18
9945.93940 4.26407e-18
9946.80086 4.27734e-18
9947.66233 4.29061e-18
9948.52379 4.30230e-18
9949.39527 4.31400e-18
9950.25673 4.31983e-18
9951.11819 4.32564e-18
9951.97965 4.32285e-18
9952.84112 4.32004e-18
9953.70258 4.31417e-18
9954.56404 4.30829e-18
9955.42550 4.30545e-18
9956.28696 4.30261e-18
9957.14843 4.29871e-18
9958.00989 4.29481e-18
9958.88137 4.28423e-18
9959.74283 4.27361e-18
9960.60429 4.25348e-18
9961.46575 4.23331e-18
9962.32721 4.20176e-18
9963.18868 4.17017e-18
9964.05014 4.13665e-18
9964.91160 4.10312e-18
9965.77306 4.08341e-18
9966.63452 4.06374e-18
9967.49599 4.06153e-18
9968.36747 4.05938e-18
9969.22893 4.06860e-18
9970.09039 4.07785e-18
9970.95185 4.09754e-18
9971.81331 4.11727e-18
9972.67477 4.15197e-18
9973.53624 4.18671e-18
9974.39770 4.23453e-18
9975.25916 4.28238e-18
9976.12062 4.33308e-18
9976.98208 4.38378e-18
9977.85356 4.42921e-18
9978.71503 4.47463e-18
9979.57649 4.51090e-18
9980.43795 4.54715e-18
9981.29941 4.57290e-18
9982.16087 4.59862e-18
9983.02234 4.61931e-18
9983.88380 4.64000e-18
9984.74526 4.66116e-18
9985.60672 4.68234e-18
9986.46818 4.70673e-18
9987.32965 4.73112e-18
9988.20112 4.76015e-18
9989.06259 4.78919e-18
9989.92405 4.81264e-18
9990.78551 4.83606e-18
9991.64697 4.84232e-18
9992.50843 4.84853e-18
9993.36990 4.84632e-18
9994.23136 4.84408e-18
9995.09282 4.84825e-18
9995.95428 4.85246e-18
9996.81574 4.86050e-18
9997.67721 4.86855e-18
9998.54869 4.87098e-18
9999.41015 4.87338e-18
