# wavelength flux
3200.03082 8.75998e-18
3201.53337 7.21614e-18
3203.04594 5.67256e-18
3204.54849 5.42166e-18
3206.06105 5.17080e-18
3207.56360 6.57554e-18
3209.06615 7.98004e-18
3210.57872 6.11491e-18
3212.08127 4.25011e-18
3213.58382 5.41189e-18
3215.09639 6.57347e-18
3216.59894 6.15111e-18
3218.11151 5.72881e-18
3219.61406 5.04529e-18
3221.11661 4.36190e-18
3222.62917 6.34637e-18
3224.13172 8.33048e-18
3225.64429 7.18344e-18
3227.14684 6.03660e-18
3228.64939 6.55311e-18
3230.16196 7.06953e-18
3231.66451 7.49954e-18
3233.16706 7.92946e-18
3234.67962 7.82875e-18
3236.18217 7.72803e-18
3237.69474 8.40320e-18
3239.19729 9.07824e-18
3240.69984 9.20341e-18
3242.21241 9.32855e-18
3243.71496 8.21055e-18
3245.22752 7.09277e-18
3246.73007 8.53866e-18
3248.23262 9.98427e-18
3249.74519 8.89284e-18
3251.24774 7.80161e-18
3252.75029 8.88012e-18
3254.26286 9.95842e-18
3255.76541 1.01677e-17
3257.27797 1.03770e-17
3258.78053 1.01714e-17
3260.28308 9.96594e-18
3261.79564 1.01425e-17
3263.29819 1.03190e-17
3264.81076 1.00695e-17
3266.31331 9.82001e-18
3267.81586 9.59826e-18
3269.32843 9.37655e-18
3270.83098 1.06014e-17
3272.33353 1.18259e-17
3273.84609 1.06185e-17
3275.34864 9.41125e-18
3276.86121 9.13251e-18
3278.36376 8.85385e-18
3279.86631 9.71348e-18
3281.37888 1.05729e-17
3282.88143 1.04702e-17
3284.39399 1.03675e-17
3285.89654 1.03898e-17
3287.39909 1.04121e-17
3288.91166 1.14237e-17
3290.41421 1.24352e-17
3291.91676 1.25627e-17
3293.42933 1.26902e-17
3294.93188 1.17363e-17
3296.44445 1.07826e-17
3297.94700 1.21812e-17
3299.44954 1.35796e-17
3300.96211 1.38004e-17
3302.46466 1.40210e-17
3303.97723 1.31717e-17
3305.47978 1.23225e-17
3306.98233 1.25059e-17
3308.49490 1.26893e-17
3309.99745 1.20649e-17
3311.51001 1.14406e-17
3313.01256 1.26795e-17
3314.51511 1.39182e-17
3316.02768 1.39116e-17
3317.53023 1.39050e-17
3319.03278 1.37572e-17
3320.54535 1.36096e-17
3322.04790 1.34532e-17
3323.56046 1.32970e-17
3325.06301 1.37519e-17
3326.56556 1.42068e-17
3328.07813 1.49275e-17
3329.58068 1.56480e-17
3331.09325 1.50288e-17
3332.59580 1.44097e-17
3334.09835 1.47007e-17
3335.61091 1.49915e-17
3337.11346 1.49751e-17
3338.61602 1.49587e-17
3340.12858 1.52899e-17
3341.63113 1.56210e-17
3343.14370 1.56077e-17
3344.64625 1.55943e-17
3346.14880 1.54181e-17
3347.66137 1.52419e-17
3349.16392 1.48483e-17
3350.67648 1.44547e-17
3352.17903 1.47054e-17
3353.68158 1.49561e-17
3355.19415 1.48714e-17
3356.69670 1.47867e-17
3358.19925 1.59879e-17
3359.71182 1.71889e-17
3361.21437 1.69383e-17
3362.72693 1.66877e-17
3364.22948 1.68631e-17
3365.73203 1.70384e-17
3367.24460 1.63194e-17
3368.74715 1.56006e-17
3370.25972 1.64640e-17
3371.76227 1.73271e-17
3373.26482 1.68505e-17
3374.77739 1.63740e-17
3376.27994 1.65577e-17
3377.78249 1.67414e-17
3379.29505 1.67334e-17
3380.79760 1.67254e-17
3382.31017 1.67389e-17
3383.81272 1.67524e-17
3385.31527 1.67973e-17
3386.82784 1.68421e-17
3388.33039 1.72003e-17
3389.84295 1.75583e-17
3391.34550 1.73253e-17
3392.84805 1.70924e-17
3394.36062 1.74385e-17
3395.86317 1.77846e-17
3397.36572 1.78784e-17
3398.87829 1.79721e-17
3400.38084 1.79359e-17
3401.89340 1.78996e-17
3403.39595 1.79580e-17
3404.89850 1.80164e-17
3406.41107 1.78156e-17
3407.91362 1.76150e-17
3409.42619 1.80380e-17
3410.92874 1.84609e-17
3412.43129 1.81488e-17
3413.94385 1.78367e-17
3415.44641 1.79386e-17
3416.95897 1.80403e-17
3418.46152 1.79608e-17
3419.96407 1.78812e-17
3421.47664 1.74967e-17
3422.97919 1.71122e-17
3424.48174 1.70485e-17
3425.99431 1.69848e-17
3427.49686 1.73040e-17
3429.00942 1.76232e-17
3430.51197 1.79165e-17
3432.01452 1.82097e-17
3433.52709 1.78519e-17
3435.02964 1.74942e-17
3436.54221 1.83401e-17
3438.04476 1.91858e-17
3439.54731 1.92473e-17
3441.05987 1.93086e-17
3442.56242 1.89210e-17
3444.06497 1.85334e-17
3445.57754 1.85286e-17
3447.08009 1.85238e-17
3448.59266 1.86901e-17
3450.09521 1.88564e-17
3451.59776 1.88158e-17
3453.11033 1.87751e-17
3454.61288 1.85556e-17
3456.12544 1.83361e-17
3457.62799 1.79680e-17
3459.13054 1.75999e-17
3460.64311 1.76750e-17
3462.14566 1.77501e-17
3463.64821 1.71024e-17
3465.16078 1.64550e-17
3466.66333 1.71757e-17
3468.17589 1.78963e-17
3469.67844 1.79077e-17
3471.18099 1.79191e-17
3472.69356 1.78284e-17
3474.19611 1.77377e-17
3475.70868 1.82392e-17
3477.21123 1.87407e-17
3478.71378 1.79833e-17
3480.22634 1.72261e-17
3481.72889 1.72559e-17
3483.23144 1.72858e-17
3484.74401 1.74361e-17
3486.24656 1.75864e-17
3487.75913 1.80969e-17
3489.26168 1.86073e-17
3490.76423 1.81362e-17
3492.27680 1.76652e-17
3493.77934 1.73287e-17
3495.29191 1.69923e-17
3496.79446 1.71644e-17
3498.29701 1.73365e-17
3499.80958 1.70600e-17
3501.31213 1.67835e-17
3502.82470 1.70780e-17
3504.32725 1.73723e-17
3505.82980 1.74477e-17
3507.34236 1.75231e-17
3508.84491 1.71532e-17
3510.34746 1.67834e-17
3511.86003 1.66788e-17
3513.36258 1.65741e-17
3514.87515 1.70301e-17
3516.37770 1.74859e-17
3517.88025 1.74681e-17
3519.39281 1.74503e-17
3520.89536 1.73050e-17
3522.40793 1.71598e-17
3523.91048 1.73416e-17
3525.41303 1.75234e-17
3526.92560 1.72803e-17
3528.42815 1.70373e-17
3529.93070 1.72374e-17
3531.44326 1.74374e-17
3532.94582 1.73826e-17
3534.45838 1.73278e-17
3535.96093 1.72529e-17
3537.46348 1.71781e-17
3538.97605 1.72127e-17
3540.47860 1.72473e-17
3541.99117 1.72608e-17
3543.49372 1.72743e-17
3544.99627 1.72534e-17
3546.50883 1.72324e-17
3548.01138 1.71866e-17
3549.51393 1.71408e-17
3551.02650 1.69586e-17
3552.52905 1.67764e-17
3554.04162 1.68798e-17
3555.54417 1.69833e-17
3557.04672 1.63651e-17
3558.55928 1.57470e-17
3560.06183 1.55745e-17
3561.57440 1.54022e-17
3563.07695 1.55544e-17
3564.57950 1.57067e-17
3566.09207 1.57407e-17
3567.59462 1.57746e-17
3569.09717 1.61290e-17
3570.60974 1.64833e-17
3572.11229 1.63859e-17
3573.62485 1.62884e-17
3575.12740 1.59780e-17
3576.62995 1.56677e-17
3578.14252 1.57089e-17
3579.64507 1.57502e-17
3581.15764 1.58302e-17
3582.66019 1.59103e-17
3584.16274 1.57577e-17
3585.67530 1.56051e-17
3587.17785 1.55735e-17
3588.69042 1.55420e-17
3590.19297 1.54926e-17
3591.69552 1.54431e-17
3593.20809 1.55310e-17
3594.71064 1.56189e-17
3596.21319 1.54313e-17
3597.72575 1.52438e-17
3599.22830 1.53424e-17
3600.74087 1.54411e-17
3602.24342 1.53124e-17
3603.74597 1.51838e-17
3605.25854 1.53114e-17
3606.76109 1.54390e-17
3608.27366 1.52791e-17
3609.77621 1.51193e-17
3611.27876 1.50394e-17
3612.79132 1.49596e-17
3614.29387 1.50208e-17
3615.79642 1.50820e-17
3617.30899 1.50740e-17
3618.81154 1.50660e-17
3620.32411 1.50887e-17
3621.82666 1.51113e-17
3623.32921 1.50825e-17
3624.84177 1.50536e-17
3626.34432 1.50979e-17
3627.85689 1.51422e-17
3629.35944 1.51870e-17
3630.86199 1.52318e-17
3632.37456 1.52136e-17
3633.87711 1.51953e-17
3635.37966 1.51229e-17
3636.89222 1.50504e-17
3638.39477 1.49275e-17
3639.90734 1.48046e-17
3641.40989 1.50497e-17
3642.91244 1.52948e-17
3644.42501 1.55151e-17
3645.92756 1.57354e-17
3647.44013 1.55537e-17
3648.94268 1.53721e-17
3650.44522 1.53301e-17
3651.95779 1.52881e-17
3653.46034 1.54012e-17
3654.96289 1.55143e-17
3656.47546 1.53583e-17
3657.97801 1.52024e-17
3659.49058 1.53499e-17
3660.99313 1.54974e-17
3662.49568 1.55500e-17
3664.00824 1.56025e-17
3665.51079 1.51501e-17
3667.02336 1.46977e-17
3668.52591 1.46021e-17
3670.02846 1.45066e-17
3671.54103 1.43227e-17
3673.04358 1.41389e-17
3674.55614 1.41080e-17
3676.05869 1.40772e-17
3677.56124 1.41857e-17
3679.07381 1.42942e-17
3680.57636 1.39416e-17
3682.07891 1.35890e-17
3683.59148 1.32190e-17
3685.09403 1.28492e-17
3686.60660 1.27850e-17
3688.10914 1.27209e-17
3689.61170 1.27172e-17
3691.12426 1.27136e-17
3692.62681 1.24086e-17
3694.13938 1.21036e-17
3695.64193 1.19643e-17
3697.14448 1.18252e-17
3698.65705 1.19166e-17
3700.15960 1.20080e-17
3701.66215 1.19124e-17
3703.17471 1.18168e-17
3704.67726 1.18058e-17
3706.18983 1.17947e-17
3707.69238 1.18956e-17
3709.19493 1.19964e-17
3710.70750 1.19404e-17
3712.21005 1.18844e-17
3713.72261 1.17061e-17
3715.22516 1.16885e-17
3716.72771 1.16710e-17
3718.24028 1.16524e-17
3719.74283 1.16338e-17
3721.24538 1.16153e-17
3722.75795 1.15967e-17
3724.26050 1.15782e-17
3725.77306 1.15596e-17
3727.27562 1.15411e-17
3728.77817 1.15226e-17
3730.29073 1.15041e-17
3731.79328 1.14855e-17
3733.30585 1.14670e-17
3734.80840 1.14485e-17
3736.31095 1.14300e-17
3737.82352 1.14115e-17
3739.32607 1.13931e-17
3740.82862 1.13746e-17
3742.34118 1.13561e-17
3743.84373 1.13376e-17
3745.35630 1.13192e-17
3746.85885 1.13007e-17
3748.36140 1.12823e-17
3749.87397 1.12638e-17
3751.37652 1.12454e-17
3752.88908 1.12269e-17
3754.39163 1.12085e-17
3755.89418 1.11832e-17
3757.40675 1.11579e-17
3758.90930 1.11249e-17
3760.41185 1.10918e-17
3761.92442 1.08798e-17
3763.42697 1.06678e-17
3764.93954 1.06911e-17
3766.44209 1.07143e-17
3767.94464 1.08461e-17
3769.45720 1.09778e-17
3770.95975 1.09685e-17
3772.47232 1.09591e-17
3773.97487 1.08691e-17
3775.47742 1.07790e-17
3776.98999 1.08554e-17
3778.49254 1.09318e-17
3780.00510 1.09520e-17
3781.50765 1.09721e-17
3783.01020 1.09761e-17
3784.52277 1.09800e-17
3786.02532 1.11300e-17
3787.52787 1.12799e-17
3789.04044 1.12447e-17
3790.54299 1.12095e-17
3792.05555 1.09914e-17
3793.55810 1.07732e-17
3795.06065 1.07635e-17
3796.57322 1.07538e-17
3798.07577 1.08932e-17
3799.58834 1.10326e-17
3801.09089 1.10007e-17
3802.59344 1.09689e-17
3804.10601 1.11020e-17
3805.60856 1.12351e-17
3807.11111 1.13784e-17
3808.62367 1.15216e-17
3810.12622 1.16627e-17
3811.63879 1.18037e-17
3813.14134 1.15841e-17
3814.64389 1.13646e-17
3816.15646 1.15161e-17
3817.65901 1.16677e-17
3819.17157 1.17005e-17
3820.67412 1.17333e-17
3822.17667 1.16540e-17
3823.68924 1.15747e-17
3825.19179 1.16716e-17
3826.69434 1.17686e-17
3828.20691 1.19884e-17
3829.70946 1.22082e-17
3831.22202 1.23926e-17
3832.72457 1.25770e-17
3834.22712 1.28263e-17
3835.73969 1.30755e-17
3837.24224 1.32983e-17
3838.75481 1.35211e-17
3840.25736 1.36390e-17
3841.75991 1.37567e-17
3843.27248 1.41202e-17
3844.77502 1.44836e-17
3846.27758 1.49072e-17
3847.79014 1.53308e-17
3849.29269 1.55715e-17
3850.80526 1.58121e-17
3852.30781 1.60422e-17
3853.81036 1.62722e-17
3855.32293 1.63634e-17
3856.82548 1.64547e-17
3858.33804 1.68682e-17
3859.84059 1.72818e-17
3861.34314 1.76051e-17
3862.85571 1.79285e-17
3864.35826 1.87536e-17
3865.86081 1.95787e-17
3867.37338 1.93948e-17
3868.87593 1.92109e-17
3870.38849 1.95141e-17
3871.89104 1.98173e-17
3873.39359 2.02494e-17
3874.90616 2.06815e-17
3876.40871 2.10262e-17
3877.92128 2.13707e-17
3879.42383 2.15725e-17
3880.92638 2.17743e-17
3882.43894 2.19857e-17
3883.94150 2.21970e-17
3885.45406 2.25198e-17
3886.95661 2.28424e-17
3888.45916 2.31107e-17
3889.97173 2.33789e-17
3891.47428 2.34861e-17
3892.97683 2.35933e-17
3894.48940 2.39108e-17
3895.99195 2.42283e-17
3897.50451 2.45481e-17
3899.00706 2.48678e-17
3900.50961 2.49607e-17
3902.02218 2.50535e-17
3903.52473 2.54783e-17
3905.03730 2.59030e-17
3906.53985 2.60569e-17
3908.04240 2.62108e-17
3909.55496 2.62160e-17
3911.05751 2.62212e-17
3912.56006 2.64172e-17
3914.07263 2.66132e-17
3915.57518 2.67023e-17
3917.08775 2.67913e-17
3918.59030 2.69242e-17
3920.09285 2.70571e-17
3921.60541 2.69897e-17
3923.10797 2.69222e-17
3924.62053 2.66183e-17
3926.12308 2.63144e-17
3927.62563 2.64727e-17
3929.13820 2.66309e-17
3930.64075 2.67914e-17
3932.14330 2.69518e-17
3933.65587 2.67174e-17
3935.15842 2.64829e-17
3936.67098 2.65011e-17
3938.17353 2.65193e-17
3939.67608 2.67829e-17
3941.18865 2.70465e-17
3942.69120 2.71902e-17
3944.20377 2.73338e-17
3945.70632 2.75451e-17
3947.20887 2.77564e-17
3948.72143 2.80782e-17
3950.22398 2.84000e-17
3951.73655 2.85272e-17
3953.23910 2.86544e-17
3954.74165 2.87506e-17
3956.25422 2.88469e-17
3957.75677 2.91525e-17
3959.25932 2.94582e-17
3960.77189 2.92115e-17
3962.27444 2.89649e-17
3963.78700 2.89794e-17
3965.28955 2.89939e-17
3966.79210 2.86481e-17
3968.30467 2.83023e-17
3969.80722 2.79629e-17
3971.31979 2.76237e-17
3972.82234 2.76416e-17
3974.32489 2.76595e-17
3975.83745 2.78737e-17
3977.34000 2.80879e-17
3978.84255 2.82983e-17
3980.35512 2.85086e-17
3981.85767 2.86442e-17
3983.37024 2.87798e-17
3984.87279 2.86803e-17
3986.37534 2.85808e-17
3987.88790 2.86246e-17
3989.39045 2.86685e-17
3990.90302 2.80995e-17
3992.40557 2.75304e-17
3993.90812 2.75019e-17
3995.42069 2.74734e-17
3996.92324 2.78440e-17
3998.42579 2.82146e-17
3999.93836 2.81849e-17
4001.44091 2.81551e-17
4002.95347 2.79220e-17
4004.45602 2.76890e-17
4005.95857 2.75361e-17
4007.47114 2.73833e-17
4008.97369 2.70579e-17
4010.48626 2.67325e-17
4011.98881 2.63889e-17
4013.49136 2.60454e-17
4015.00392 2.59364e-17
4016.50647 2.58275e-17
4018.00902 2.60351e-17
4019.52159 2.62426e-17
4021.02414 2.61649e-17
4022.53671 2.60872e-17
4024.03926 2.58334e-17
4025.54181 2.55796e-17
4027.05437 2.52157e-17
4028.55692 2.48518e-17
4030.06949 2.47711e-17
4031.57204 2.46905e-17
4033.07459 2.45088e-17
4034.58716 2.43271e-17
4036.08971 2.44356e-17
4037.59226 2.45443e-17
4039.10483 2.44863e-17
4040.60738 2.44284e-17
4042.11994 2.43520e-17
4043.62249 2.42755e-17
4045.12504 2.41591e-17
4046.63761 2.40427e-17
4048.14016 2.39258e-17
4049.65273 2.38088e-17
4051.15528 2.37765e-17
4052.65783 2.37443e-17
4054.17039 2.38501e-17
4055.67294 2.39560e-17
4057.18551 2.35963e-17
4058.68806 2.32365e-17
4060.19061 2.29871e-17
4061.70318 2.27377e-17
4063.20573 2.30760e-17
4064.70828 2.34142e-17
4066.22084 2.34374e-17
4067.72339 2.34605e-17
4069.23596 2.30963e-17
4070.73851 2.27322e-17
4072.24106 2.26633e-17
4073.75363 2.25945e-17
4075.25618 2.27187e-17
4076.76874 2.28429e-17
4078.27130 2.25383e-17
4079.77385 2.22336e-17
4081.28641 2.22748e-17
4082.78896 2.23161e-17
4084.29151 2.26092e-17
4085.80408 2.29023e-17
4087.30663 2.22971e-17
4088.81920 2.16919e-17
4090.32175 2.17745e-17
4091.82430 2.18571e-17
4093.33686 2.18736e-17
4094.83941 2.18901e-17
4096.35198 2.17664e-17
4097.85453 2.16427e-17
4099.35708 2.18032e-17
4100.86965 2.19637e-17
4102.37220 2.18997e-17
4103.88476 2.18357e-17
4105.38731 2.18063e-17
4106.88986 2.17769e-17
4108.40243 2.17774e-17
4109.90498 2.17779e-17
4111.40753 2.15963e-17
4112.92010 2.14147e-17
4114.42265 2.15304e-17
4115.93521 2.16462e-17
4117.43776 2.17234e-17
4118.94031 2.18006e-17
4120.45288 2.17317e-17
4121.95543 2.16627e-17
4123.45798 2.16300e-17
4124.97055 2.15974e-17
4126.47310 2.16868e-17
4127.98567 2.17762e-17
4129.48822 2.17730e-17
4130.99077 2.17697e-17
4132.50333 2.16266e-17
4134.00588 2.14835e-17
4135.51845 2.16847e-17
4137.02100 2.18860e-17
4138.52355 2.18553e-17
4140.03612 2.18246e-17
4141.53867 2.16122e-17
4143.04122 2.13998e-17
4144.55378 2.11443e-17
4146.05633 2.08888e-17
4147.56890 2.07457e-17
4149.07145 2.06025e-17
4150.57400 2.06362e-17
4152.08657 2.06700e-17
4153.58912 2.04050e-17
4155.10169 2.01400e-17
4156.60424 2.00164e-17
4158.10678 1.98928e-17
4159.61935 1.97344e-17
4161.12190 1.95759e-17
4162.62445 1.96278e-17
4164.13702 1.96797e-17
4165.63957 1.96855e-17
4167.15214 1.96913e-17
4168.65469 1.95455e-17
4170.15724 1.93997e-17
4171.66980 1.99012e-17
4173.17235 2.04027e-17
4174.68492 2.05016e-17
4176.18747 2.06005e-17
4177.69002 2.05618e-17
4179.20259 2.05232e-17
4180.70514 2.06825e-17
4182.21770 2.08417e-17
4183.72025 2.09085e-17
4185.22280 2.09753e-17
4186.73537 2.10844e-17
4188.23792 2.11934e-17
4189.74047 2.12211e-17
4191.25304 2.12488e-17
4192.75559 2.13547e-17
4194.26815 2.14606e-17
4195.77070 2.16719e-17
4197.27326 2.18831e-17
4198.78582 2.18195e-17
4200.28837 2.17559e-17
4201.80094 2.17828e-17
4203.30349 2.18098e-17
4204.80604 2.16569e-17
4206.31861 2.15040e-17
4207.82116 2.14651e-17
4209.33372 2.14263e-17
4210.83627 2.17141e-17
4212.33882 2.20019e-17
4213.85139 2.18000e-17
4215.35394 2.15980e-17
4216.85649 2.16351e-17
4218.36906 2.16722e-17
4219.87161 2.18757e-17
4221.38417 2.20792e-17
4222.88672 2.20987e-17
4224.38927 2.21181e-17
4225.90184 2.19034e-17
4227.40439 2.16886e-17
4228.91696 2.17397e-17
4230.41951 2.17908e-17
4231.92206 2.16078e-17
4233.43462 2.14248e-17
4234.93718 2.14888e-17
4236.43973 2.15528e-17
4237.95229 2.14313e-17
4239.45484 2.13098e-17
4240.96741 2.14118e-17
4242.46996 2.15138e-17
4243.97251 2.14758e-17
4245.48508 2.14378e-17
4246.98763 2.14454e-17
4248.50019 2.14529e-17
4250.00274 2.14572e-17
4251.50529 2.14615e-17
4253.01786 2.14346e-17
4254.52041 2.14077e-17
4256.02296 2.13245e-17
4257.53553 2.12414e-17
4259.03808 2.11836e-17
4260.55064 2.11259e-17
4262.05319 2.12471e-17
4263.55574 2.13683e-17
4265.06831 2.13667e-17
4266.57086 2.13651e-17
4268.08343 2.14012e-17
4269.58598 2.14374e-17
4271.08853 2.16312e-17
4272.60110 2.18250e-17
4274.10365 2.16498e-17
4275.60620 2.14745e-17
4277.11876 2.12451e-17
4278.62131 2.10158e-17
4280.13388 2.13213e-17
4281.63643 2.16268e-17
4283.13898 2.16854e-17
4284.65155 2.17439e-17
4286.15410 2.18880e-17
4287.66666 2.20320e-17
4289.16921 2.19555e-17
4290.67176 2.18790e-17
4292.18433 2.17924e-17
4293.68688 2.17058e-17
4295.18943 2.15411e-17
4296.70200 2.13764e-17
4298.20455 2.13984e-17
4299.71711 2.14205e-17
4301.21966 2.13498e-17
4302.72221 2.12791e-17
4304.23478 2.09986e-17
4305.73733 2.07182e-17
4307.24990 2.07165e-17
4308.75245 2.07148e-17
4310.25500 2.07828e-17
4311.76757 2.08508e-17
4313.27012 2.06281e-17
4314.78268 2.04053e-17
4316.28523 2.03299e-17
4317.78778 2.02546e-17
4319.30035 2.01458e-17
4320.80290 2.00371e-17
4322.30545 2.00561e-17
4323.81802 2.00751e-17
4325.32057 1.98888e-17
4326.83313 1.97025e-17
4328.33568 1.96113e-17
4329.83823 1.95202e-17
4331.35080 1.94183e-17
4332.85335 1.93164e-17
4334.36592 1.92155e-17
4335.86847 1.91147e-17
4337.37102 1.90715e-17
4338.88358 1.90283e-17
4340.38613 1.89735e-17
4341.88868 1.89188e-17
4343.40125 1.88283e-17
4344.90380 1.87377e-17
4346.41637 1.84624e-17
4347.91892 1.81871e-17
4349.42147 1.81711e-17
4350.93404 1.81551e-17
4352.43659 1.81257e-17
4353.94915 1.80659e-17
4355.45170 1.80060e-17
4356.95425 1.79462e-17
4358.46682 1.78863e-17
4359.96937 1.78265e-17
4361.47192 1.77666e-17
4362.98449 1.77068e-17
4364.48704 1.76470e-17
4365.99960 1.75872e-17
4367.50215 1.75274e-17
4369.00470 1.74676e-17
4370.51727 1.74079e-17
4372.01982 1.73481e-17
4373.53239 1.72883e-17
4375.03494 1.72286e-17
4376.53749 1.71688e-17
4378.05005 1.71091e-17
4379.55260 1.70493e-17
4381.05515 1.69896e-17
4382.56772 1.69299e-17
4384.07027 1.68702e-17
4385.58284 1.68105e-17
4387.08539 1.67508e-17
4388.58794 1.66911e-17
4390.10050 1.66314e-17
4391.60305 1.66923e-17
4393.11562 1.67531e-17
4394.61817 1.68809e-17
4396.12072 1.70086e-17
4397.63329 1.69871e-17
4399.13584 1.69656e-17
4400.63839 1.69805e-17
4402.15096 1.69954e-17
4403.65351 1.70150e-17
4405.16607 1.70345e-17
4406.66862 1.70163e-17
4408.17117 1.69981e-17
4409.68374 1.70684e-17
4411.18629 1.71387e-17
4412.69886 1.71792e-17
4414.20141 1.72198e-17
4415.70396 1.72616e-17
4417.21652 1.73033e-17
4418.71907 1.72927e-17
4420.23164 1.72820e-17
4421.73419 1.73716e-17
4423.23674 1.74613e-17
4424.74931 1.74724e-17
4426.25186 1.74835e-17
4427.75441 1.76389e-17
4429.26698 1.77943e-17
4430.76952 1.79334e-17
4432.28209 1.80724e-17
4433.78464 1.81583e-17
4435.28719 1.82441e-17
4436.79976 1.81260e-17
4438.30231 1.80079e-17
4439.81488 1.80595e-17
4441.31743 1.81112e-17
4442.81998 1.82555e-17
4444.33254 1.83998e-17
4445.83509 1.84681e-17
4447.33764 1.85364e-17
4448.85021 1.85974e-17
4450.35276 1.86584e-17
4451.86533 1.88234e-17
4453.36788 1.89885e-17
4454.87043 1.90208e-17
4456.38299 1.90531e-17
4457.88554 1.93462e-17
4459.39811 1.96393e-17
4460.90066 1.97195e-17
4462.40321 1.97997e-17
4463.91578 1.98972e-17
4465.41833 1.99948e-17
4466.92088 2.02594e-17
4468.43345 2.05240e-17
4469.93600 2.05099e-17
4471.44856 2.04958e-17
4472.95111 2.04506e-17
4474.45366 2.04055e-17
4475.96623 2.05133e-17
4477.46878 2.06211e-17
4478.98135 2.09305e-17
4480.48390 2.12399e-17
4481.98645 2.13598e-17
4483.49901 2.14797e-17
4485.00156 2.16437e-17
4486.50411 2.18076e-17
4488.01668 2.17966e-17
4489.51923 2.17856e-17
4491.03180 2.20140e-17
4492.53435 2.22423e-17
4494.03690 2.25277e-17
4495.54946 2.28131e-17
4497.05201 2.29017e-17
4498.56458 2.29902e-17
4500.06713 2.28673e-17
4501.56968 2.27443e-17
4503.08225 2.27810e-17
4504.58480 2.28177e-17
4506.08735 2.31012e-17
4507.59991 2.33848e-17
4509.10246 2.36895e-17
4510.61503 2.39942e-17
4512.11758 2.38766e-17
4513.62013 2.37589e-17
4515.13270 2.37929e-17
4516.63525 2.38270e-17
4518.14782 2.41743e-17
4519.65037 2.45216e-17
4521.15292 2.46330e-17
4522.66548 2.47444e-17
4524.16803 2.47042e-17
4525.68060 2.46639e-17
4527.18315 2.47316e-17
4528.68570 2.47993e-17
4530.19827 2.52014e-17
4531.70082 2.56036e-17
4533.20337 2.57900e-17
4534.71593 2.59763e-17
4536.21848 2.59066e-17
4537.73105 2.58368e-17
4539.23360 2.60658e-17
4540.73615 2.62949e-17
4542.24872 2.62250e-17
4543.75127 2.61550e-17
4545.26384 2.59684e-17
4546.76638 2.57818e-17
4548.26894 2.59613e-17
4549.78150 2.61408e-17
4551.28405 2.63462e-17
4552.78660 2.65516e-17
4554.29917 2.68814e-17
4555.80172 2.72112e-17
4557.31429 2.72612e-17
4558.81684 2.73110e-17
4560.31939 2.72677e-17
4561.83195 2.72244e-17
4563.33450 2.70842e-17
4564.84707 2.69439e-17
4566.34962 2.71273e-17
4567.85217 2.73107e-17
4569.36474 2.76652e-17
4570.86729 2.80197e-17
4572.36984 2.77135e-17
4573.88240 2.74072e-17
4575.38495 2.74735e-17
4576.89752 2.75399e-17
4578.40007 2.75914e-17
4579.90262 2.76430e-17
4581.41519 2.77296e-17
4582.91774 2.78161e-17
4584.43030 2.78424e-17
4585.93286 2.78686e-17
4587.43541 2.78853e-17
4588.94797 2.79021e-17
4590.45052 2.77406e-17
4591.95307 2.75791e-17
4593.46564 2.74733e-17
4594.96819 2.73675e-17
4596.48076 2.73434e-17
4597.98331 2.73194e-17
4599.48586 2.74981e-17
4600.99842 2.76768e-17
4602.50097 2.75037e-17
4604.01354 2.73307e-17
4605.51609 2.72920e-17
4607.01864 2.72533e-17
4608.53121 2.72663e-17
4610.03376 2.72793e-17
4611.53631 2.70681e-17
4613.04887 2.68569e-17
4614.55142 2.67850e-17
4616.06399 2.67131e-17
4617.56654 2.67850e-17
4619.06909 2.68569e-17
4620.58166 2.68257e-17
4622.08421 2.67944e-17
4623.59677 2.69200e-17
4625.09933 2.70456e-17
4626.60188 2.68751e-17
4628.11444 2.67045e-17
4629.61699 2.65670e-17
4631.12956 2.64296e-17
4632.63211 2.63828e-17
4634.13466 2.63360e-17
4635.64723 2.64156e-17
4637.14978 2.64953e-17
4638.65233 2.66216e-17
4640.16489 2.67480e-17
4641.66744 2.66305e-17
4643.18001 2.65129e-17
4644.68256 2.62630e-17
4646.18511 2.60131e-17
4647.69768 2.58490e-17
4649.20023 2.56851e-17
4650.71279 2.57869e-17
4652.21534 2.58887e-17
4653.71789 2.58175e-17
4655.23046 2.57463e-17
4656.73301 2.55567e-17
4658.23556 2.53672e-17
4659.74813 2.52746e-17
4661.25068 2.51820e-17
4662.76325 2.49229e-17
4664.26580 2.46638e-17
4665.76835 2.45159e-17
4667.28091 2.43680e-17
4668.78346 2.42847e-17
4670.29603 2.42013e-17
4671.79858 2.40060e-17
4673.30113 2.38107e-17
4674.81370 2.37475e-17
4676.31625 2.36844e-17
4677.81880 2.33915e-17
4679.33136 2.30987e-17
4680.83391 2.29484e-17
4682.34648 2.27983e-17
4683.84903 2.26868e-17
4685.35158 2.25754e-17
4686.86415 2.24046e-17
4688.36670 2.22338e-17
4689.87926 2.22075e-17
4691.38181 2.21811e-17
4692.88436 2.21659e-17
4694.39693 2.21508e-17
4695.89948 2.19253e-17
4697.40203 2.16999e-17
4698.91460 2.13809e-17
4700.41715 2.10619e-17
4701.92972 2.09395e-17
4703.43227 2.08173e-17
4704.93481 2.07574e-17
4706.44738 2.06975e-17
4707.94993 2.05328e-17
4709.46250 2.03681e-17
4710.96505 2.01635e-17
4712.46760 1.99589e-17
4713.98017 1.98371e-17
4715.48272 1.97154e-17
4716.98527 1.95886e-17
4718.49783 1.94618e-17
4720.00038 1.93635e-17
4721.51295 1.92652e-17
4723.01550 1.91935e-17
4724.51805 1.91219e-17
4726.03062 1.88022e-17
4727.53317 1.84826e-17
4729.04573 1.84347e-17
4730.54828 1.83869e-17
4732.05083 1.83303e-17
4733.56340 1.82738e-17
4735.06595 1.80961e-17
4736.57852 1.79183e-17
4738.08107 1.78287e-17
4739.58362 1.77391e-17
4741.09619 1.75605e-17
4742.59874 1.73820e-17
4744.10129 1.73546e-17
4745.61385 1.73272e-17
4747.11640 1.72736e-17
4748.62897 1.72199e-17
4750.13152 1.70420e-17
4751.63407 1.68642e-17
4753.14664 1.67505e-17
4754.64919 1.66369e-17
4756.16175 1.65034e-17
4757.66430 1.63698e-17
4759.16685 1.62314e-17
4760.67942 1.60929e-17
4762.18197 1.59950e-17
4763.68452 1.58970e-17
4765.19709 1.58583e-17
4766.69964 1.58195e-17
4768.21220 1.56999e-17
4769.71475 1.55802e-17
4771.21730 1.55851e-17
4772.72987 1.55900e-17
4774.23242 1.56598e-17
4775.74499 1.57296e-17
4777.24754 1.57967e-17
4778.75009 1.58637e-17
4780.26265 1.58905e-17
4781.76520 1.59173e-17
4783.26775 1.59247e-17
4784.78032 1.59320e-17
4786.28287 1.60185e-17
4787.79544 1.61050e-17
4789.29799 1.61387e-17
4790.80054 1.61723e-17
4792.31311 1.61537e-17
4793.81566 1.61352e-17
4795.32822 1.61016e-17
4796.83077 1.60681e-17
4798.33332 1.60094e-17
4799.84589 1.59507e-17
4801.34844 1.60192e-17
4802.86101 1.60878e-17
4804.36356 1.61254e-17
4805.86611 1.61630e-17
4807.37867 1.61674e-17
4808.88122 1.61718e-17
4810.38377 1.61735e-17
4811.89634 1.61752e-17
4813.39889 1.61357e-17
4814.91146 1.60961e-17
4816.41401 1.61731e-17
4817.91656 1.62502e-17
4819.42913 1.62278e-17
4820.93167 1.62054e-17
4822.43422 1.62235e-17
4823.94679 1.62417e-17
4825.44934 1.62116e-17
4826.96191 1.61815e-17
4828.46446 1.61221e-17
4829.96701 1.60627e-17
4831.47958 1.59038e-17
4832.98213 1.57449e-17
4834.49469 1.58650e-17
4835.99724 1.59852e-17
4837.49979 1.60570e-17
4839.01236 1.61288e-17
4840.51491 1.59208e-17
4842.02748 1.57127e-17
4843.53003 1.55945e-17
4845.03258 1.54764e-17
4846.54514 1.55292e-17
4848.04769 1.55821e-17
4849.55024 1.56385e-17
4851.06281 1.56949e-17
4852.56536 1.57578e-17
4854.07793 1.58206e-17
4855.58048 1.58834e-17
4857.08303 1.59463e-17
4858.59560 1.60091e-17
4860.09815 1.60719e-17
4861.61071 1.61347e-17
4863.11326 1.61975e-17
4864.61581 1.62603e-17
4866.12838 1.63230e-17
4867.63093 1.63858e-17
4869.13348 1.64485e-17
4870.64605 1.65113e-17
4872.14860 1.65740e-17
4873.66116 1.66367e-17
4875.16371 1.66994e-17
4876.66626 1.67621e-17
4878.17883 1.68247e-17
4879.68138 1.68874e-17
4881.19395 1.69500e-17
4882.69650 1.70127e-17
4884.19905 1.70754e-17
4885.71161 1.71380e-17
4887.21416 1.72006e-17
4888.71671 1.72632e-17
4890.22928 1.73537e-17
4891.73183 1.73326e-17
4893.24440 1.73114e-17
4894.74695 1.74055e-17
4896.24950 1.74997e-17
4897.76206 1.75676e-17
4899.26462 1.76354e-17
4900.77718 1.76717e-17
4902.27973 1.77080e-17
4903.78228 1.76839e-17
4905.29485 1.76598e-17
4906.79740 1.77317e-17
4908.30997 1.78036e-17
4909.81252 1.77804e-17
4911.31507 1.77572e-17
4912.82763 1.78247e-17
4914.33018 1.78923e-17
4915.83273 1.78615e-17
4917.34530 1.78306e-17
4918.84785 1.78383e-17
4920.36042 1.78459e-17
4921.86297 1.78473e-17
4923.36552 1.78486e-17
4924.87808 1.78265e-17
4926.38063 1.78045e-17
4927.88318 1.77531e-17
4929.39575 1.77018e-17
4930.89830 1.75421e-17
4932.41087 1.73824e-17
4933.91342 1.75484e-17
4935.41597 1.77146e-17
4936.92854 1.76861e-17
4938.43109 1.76575e-17
4939.94365 1.75936e-17
4941.44620 1.75296e-17
4942.94875 1.75691e-17
4944.46132 1.76087e-17
4945.96387 1.74414e-17
4947.47644 1.72740e-17
4948.97899 1.71663e-17
4950.48154 1.71007e-17
4951.99410 1.70351e-17
4953.49665 1.69694e-17
4954.99920 1.69038e-17
4956.51177 1.68382e-17
4958.01432 1.67726e-17
4959.52689 1.67070e-17
4961.02944 1.66414e-17
4962.53199 1.65758e-17
4964.04455 1.65103e-17
4965.54710 1.64447e-17
4967.05967 1.63792e-17
4968.56222 1.63137e-17
4970.06477 1.62482e-17
4971.57734 1.61827e-17
4973.07989 1.61172e-17
4974.58244 1.60517e-17
4976.09501 1.59862e-17
4977.59755 1.59208e-17
4979.11012 1.58553e-17
4980.61267 1.57899e-17
4982.11522 1.57245e-17
4983.62779 1.56590e-17
4985.13034 1.55936e-17
4986.64291 1.55283e-17
4988.14546 1.54043e-17
4989.64801 1.52804e-17
4991.16057 1.52348e-17
4992.66312 1.51893e-17
4994.16567 1.52165e-17
4995.67824 1.52437e-17
4997.18079 1.52030e-17
4998.69336 1.52310e-17
5000.19591 1.52589e-17
5001.69846 1.52869e-17
5003.21102 1.53148e-17
5004.71357 1.53428e-17
5006.22614 1.53707e-17
5007.72869 1.53986e-17
5009.23124 1.54266e-17
5010.74381 1.54545e-17
5012.24636 1.54824e-17
5013.75893 1.55103e-17
5015.26148 1.55382e-17
5016.76403 1.55661e-17
5018.27659 1.55940e-17
5019.77914 1.56219e-17
5021.28169 1.56498e-17
5022.79426 1.56777e-17
5024.29681 1.57056e-17
5025.80938 1.57335e-17
5027.31193 1.57614e-17
5028.81448 1.57892e-17
5030.32704 1.58171e-17
5031.82959 1.58450e-17
5033.33214 1.58728e-17
5034.84471 1.59007e-17
5036.34726 1.59749e-17
5037.85983 1.60490e-17
5039.36238 1.61109e-17
5040.86493 1.61728e-17
5042.37749 1.62298e-17
5043.88004 1.62868e-17
5045.39261 1.63701e-17
5046.89516 1.64533e-17
5048.39771 1.64804e-17
5049.91028 1.65075e-17
5051.41283 1.65817e-17
5052.92540 1.66558e-17
5054.42795 1.67357e-17
5055.93050 1.68156e-17
5057.44306 1.68443e-17
5058.94561 1.68731e-17
5060.44816 1.67861e-17
5061.96073 1.66991e-17
5063.46328 1.66532e-17
5064.97585 1.66074e-17
5066.47840 1.67186e-17
5067.98095 1.68298e-17
5069.49351 1.69586e-17
5070.99606 1.70874e-17
5072.50863 1.70490e-17
5074.01118 1.70105e-17
5075.51373 1.70442e-17
5077.02630 1.70780e-17
5078.52885 1.71821e-17
5080.04141 1.72863e-17
5081.54396 1.73192e-17
5083.04651 1.73521e-17
5084.55908 1.73607e-17
5086.06163 1.73693e-17
5087.56418 1.74611e-17
5089.07675 1.75529e-17
5090.57930 1.76331e-17
5092.09187 1.77133e-17
5093.59441 1.76344e-17
5095.09696 1.75555e-17
5096.60953 1.74380e-17
5098.11208 1.73206e-17
5099.62465 1.73997e-17
5101.12720 1.74790e-17
5102.62975 1.75351e-17
5104.14232 1.75912e-17
5105.64487 1.75048e-17
5107.14742 1.74184e-17
5108.65998 1.74977e-17
5110.16253 1.75770e-17
5111.67510 1.77169e-17
5113.17765 1.78568e-17
5114.68020 1.79506e-17
5116.19277 1.80444e-17
5117.69532 1.80273e-17
5119.20788 1.80102e-17
5120.71043 1.78812e-17
5122.21298 1.77521e-17
5123.72555 1.77918e-17
5125.22810 1.78316e-17
5126.73065 1.78363e-17
5128.24322 1.78409e-17
5129.74577 1.79281e-17
5131.25834 1.80153e-17
5132.76089 1.80338e-17
5134.26344 1.80523e-17
5135.77600 1.79944e-17
5137.27855 1.79365e-17
5138.79112 1.79796e-17
5140.29367 1.80228e-17
5141.79622 1.79764e-17
5143.30879 1.79299e-17
5144.81134 1.79006e-17
5146.31389 1.78714e-17
5147.82645 1.79107e-17
5149.32900 1.79499e-17
5150.84157 1.80297e-17
5152.34412 1.81095e-17
5153.84667 1.81708e-17
5155.35924 1.82321e-17
5156.86179 1.82289e-17
5158.37435 1.82258e-17
5159.87690 1.83554e-17
5161.37945 1.84850e-17
5162.89202 1.85390e-17
5164.39457 1.85929e-17
5165.89712 1.86204e-17
5167.40969 1.86479e-17
5168.91224 1.86538e-17
5170.42480 1.86598e-17
5171.92735 1.88872e-17
5173.42990 1.91147e-17
5174.94247 1.92495e-17
5176.44502 1.93843e-17
5177.95759 1.94683e-17
5179.46014 1.95523e-17
5180.96269 1.94865e-17
5182.47526 1.94207e-17
5183.97781 1.94754e-17
5185.49037 1.95302e-17
5186.99292 1.96620e-17
5188.49547 1.97939e-17
5190.00804 1.99102e-17
5191.51059 2.00265e-17
5193.01314 2.01045e-17
5194.52571 2.01825e-17
5196.02826 2.02023e-17
5197.54082 2.02221e-17
5199.04337 2.01557e-17
5200.54592 2.00892e-17
5202.05849 2.01469e-17
5203.56104 2.02047e-17
5205.07361 2.01720e-17
5206.57616 2.01394e-17
5208.07871 2.01473e-17
5209.59127 2.01552e-17
5211.09382 2.03208e-17
5212.59638 2.04864e-17
5214.10894 2.04863e-17
5215.61149 2.04861e-17
5217.12406 2.06623e-17
5218.62661 2.08384e-17
5220.12916 2.09299e-17
5221.64173 2.10214e-17
5223.14428 2.10135e-17
5224.65684 2.10056e-17
5226.15939 2.10397e-17
5227.66194 2.10738e-17
5229.17451 2.10326e-17
5230.67706 2.09915e-17
5232.17961 2.10535e-17
5233.69218 2.11155e-17
5235.19473 2.13369e-17
5236.70729 2.15583e-17
5238.20984 2.16222e-17
5239.71239 2.16861e-17
5241.22496 2.16912e-17
5242.72751 2.16964e-17
5244.24008 2.16553e-17
5245.74263 2.16142e-17
5247.24518 2.16093e-17
5248.75775 2.16044e-17
5250.26030 2.16482e-17
5251.76285 2.16920e-17
5253.27541 2.16303e-17
5254.77796 2.15685e-17
5256.29053 2.16360e-17
5257.79308 2.17035e-17
5259.29563 2.17073e-17
5260.80820 2.17111e-17
5262.31075 2.17116e-17
5263.82331 2.17121e-17
5265.32586 2.19303e-17
5266.82841 2.21485e-17
5268.34098 2.20624e-17
5269.84353 2.19761e-17
5271.34608 2.20397e-17
5272.85865 2.21035e-17
5274.36120 2.20411e-17
5275.87376 2.19786e-17
5277.37631 2.19698e-17
5278.87886 2.19609e-17
5280.39143 2.19266e-17
5281.89398 2.18923e-17
5283.40655 2.19104e-17
5284.90910 2.19285e-17
5286.41165 2.19018e-17
5287.92422 2.18750e-17
5289.42677 2.17880e-17
5290.93933 2.17009e-17
5292.44188 2.17082e-17
5293.94443 2.17155e-17
5295.45700 2.16426e-17
5296.95955 2.15696e-17
5298.46210 2.16034e-17
5299.97467 2.16373e-17
5301.47722 2.15810e-17
5302.98978 2.15247e-17
5304.49233 2.14564e-17
5305.99488 2.13881e-17
5307.50745 2.14699e-17
5309.01000 2.15517e-17
5310.52257 2.14793e-17
5312.02512 2.14068e-17
5313.52767 2.13559e-17
5315.04023 2.13051e-17
5316.54278 2.12544e-17
5318.04533 2.12037e-17
5319.55790 2.11456e-17
5321.06045 2.10875e-17
5322.57302 2.10329e-17
5324.07557 2.09783e-17
5325.57812 2.09614e-17
5327.09069 2.09445e-17
5328.59324 2.09161e-17
5330.10580 2.08878e-17
5331.60835 2.07695e-17
5333.11090 2.06511e-17
5334.62347 2.05827e-17
5336.12602 2.05143e-17
5337.62857 2.05346e-17
5339.14114 2.05550e-17
5340.64369 2.05382e-17
5342.15625 2.05215e-17
5343.65880 2.03741e-17
5345.16135 2.02267e-17
5346.67392 2.01866e-17
5348.17647 2.01466e-17
5349.68904 2.01601e-17
5351.19159 2.01736e-17
5352.69414 2.01576e-17
5354.20670 2.01416e-17
5355.70925 2.01769e-17
5357.21180 2.02121e-17
5358.72437 2.02077e-17
5360.22692 2.02032e-17
5361.73949 2.01789e-17
5363.24204 2.01546e-17
5364.74459 2.00939e-17
5366.25716 2.00333e-17
5367.75970 2.00564e-17
5369.27227 2.00796e-17
5370.77482 1.99330e-17
5372.27737 1.97863e-17
5373.78994 1.98347e-17
5375.29249 1.98832e-17
5376.79504 1.99198e-17
5378.30761 1.99563e-17
5379.81016 2.00014e-17
5381.32272 2.00466e-17
5382.82527 2.00012e-17
5384.32782 1.99558e-17
5385.84039 1.99198e-17
5387.34294 1.98838e-17
5388.85551 1.99222e-17
5390.35806 1.99606e-17
5391.86061 1.99196e-17
5393.37317 1.98787e-17
5394.87572 1.98917e-17
5396.38829 1.99048e-17
5397.89084 1.98629e-17
5399.39339 1.98209e-17
5400.90596 1.99100e-17
5402.40851 1.99990e-17
5403.91106 1.99768e-17
5405.42363 1.99545e-17
5406.92618 1.99416e-17
5408.43874 1.99286e-17
5409.94129 1.98727e-17
5411.44384 1.98167e-17
5412.95641 1.97990e-17
5414.45896 1.97812e-17
5415.97153 1.97997e-17
5417.47408 1.98182e-17
5418.97663 1.97834e-17
5420.48919 1.97486e-17
5421.99174 1.97352e-17
5423.49429 1.97219e-17
5425.00686 1.97308e-17
5426.50941 1.97397e-17
5428.02198 1.97686e-17
5429.52453 1.97975e-17
5431.02708 1.96987e-17
5432.53964 1.95998e-17
5434.04219 1.96151e-17
5435.55476 1.96305e-17
5437.05731 1.95370e-17
5438.55986 1.94435e-17
5440.07243 1.93766e-17
5441.57498 1.93097e-17
5443.07753 1.93717e-17
5444.59010 1.94337e-17
5446.09265 1.93375e-17
5447.60521 1.92413e-17
5449.10776 1.91227e-17
5450.61031 1.90042e-17
5452.12288 1.91253e-17
5453.62543 1.92464e-17
5455.13800 1.92869e-17
5456.64055 1.93275e-17
5458.14310 1.91905e-17
5459.65566 1.90536e-17
5461.15821 1.90321e-17
5462.67078 1.90107e-17
5464.17333 1.90608e-17
5465.67588 1.91110e-17
5467.18845 1.90564e-17
5468.69100 1.90018e-17
5470.19355 1.88317e-17
5471.70611 1.86616e-17
5473.20866 1.86417e-17
5474.72123 1.86218e-17
5476.22378 1.86501e-17
5477.72633 1.86784e-17
5479.23890 1.85610e-17
5480.74145 1.84436e-17
5482.25402 1.84113e-17
5483.75656 1.83790e-17
5485.25911 1.83438e-17
5486.77168 1.83085e-17
5488.27423 1.82065e-17
5489.77678 1.81045e-17
5491.28935 1.80941e-17
5492.79190 1.80838e-17
5494.30447 1.81072e-17
5495.80702 1.81306e-17
5497.30957 1.80504e-17
5498.82213 1.79701e-17
5500.32468 1.79931e-17
5501.83725 1.80161e-17
5503.33980 1.78732e-17
5504.84235 1.77303e-17
5506.35492 1.75961e-17
5507.85747 1.74619e-17
5509.36002 1.74268e-17
5510.87258 1.73918e-17
5512.37513 1.74272e-17
5513.88770 1.74626e-17
5515.39025 1.73797e-17
5516.89280 1.72968e-17
5518.40537 1.72221e-17
5519.90792 1.71475e-17
5521.42049 1.71497e-17
5522.92304 1.71520e-17
5524.42558 1.70839e-17
5525.93815 1.70158e-17
5527.44070 1.69742e-17
5528.94325 1.69327e-17
5530.45582 1.68472e-17
5531.95837 1.67616e-17
5533.47094 1.67767e-17
5534.97349 1.67917e-17
5536.47604 1.68614e-17
5537.98860 1.69311e-17
5539.49115 1.69738e-17
5541.00372 1.70165e-17
5542.50627 1.70011e-17
5544.00882 1.69857e-17
5545.52139 1.68677e-17
5547.02394 1.67498e-17
5548.52649 1.67869e-17
5550.03905 1.68241e-17
5551.54160 1.67364e-17
5553.05417 1.66486e-17
5554.55672 1.65947e-17
5556.05927 1.65408e-17
5557.57184 1.65657e-17
5559.07439 1.65907e-17
5560.58695 1.65647e-17
5562.08950 1.65387e-17
5563.59206 1.64987e-17
5565.10462 1.64586e-17
5566.60717 1.64832e-17
5568.11974 1.65079e-17
5569.62229 1.65198e-17
5571.12484 1.65317e-17
5572.63741 1.64561e-17
5574.13996 1.63805e-17
5575.64251 1.63973e-17
5577.15507 1.64142e-17
5578.65762 1.64416e-17
5580.17019 1.64691e-17
5581.67274 1.63607e-17
5583.17529 1.62524e-17
5584.68786 1.62508e-17
5586.19041 1.62493e-17
5587.70297 1.63573e-17
5589.20552 1.64652e-17
5590.70807 1.64295e-17
5592.22064 1.63938e-17
5593.72319 1.62903e-17
5595.22574 1.61869e-17
5596.73831 1.61477e-17
5598.24086 1.61086e-17
5599.75342 1.60752e-17
5601.25598 1.60418e-17
5602.75853 1.59943e-17
5604.27109 1.59467e-17
5605.77364 1.59427e-17
5607.28621 1.59386e-17
5608.78876 1.60050e-17
5610.29131 1.60713e-17
5611.80388 1.59520e-17
5613.30643 1.58326e-17
5614.80898 1.57305e-17
5616.32154 1.56284e-17
5617.82409 1.56346e-17
5619.33666 1.56408e-17
5620.83921 1.55916e-17
5622.34176 1.55424e-17
5623.85433 1.55111e-17
5625.35688 1.54797e-17
5626.86944 1.55335e-17
5628.37199 1.55873e-17
5629.87454 1.55608e-17
5631.38711 1.55342e-17
5632.88966 1.54482e-17
5634.39221 1.53622e-17
5635.90478 1.53290e-17
5637.40733 1.52959e-17
5638.91990 1.52925e-17
5640.42245 1.52891e-17
5641.92500 1.51377e-17
5643.43756 1.49862e-17
5644.94011 1.50422e-17
5646.45268 1.50984e-17
5647.95523 1.50655e-17
5649.45778 1.50325e-17
5650.97035 1.48813e-17
5652.47290 1.47300e-17
5653.97545 1.47533e-17
5655.48801 1.47767e-17
5656.99056 1.47047e-17
5658.50313 1.46327e-17
5660.00568 1.45758e-17
5661.50823 1.45190e-17
5663.02080 1.45647e-17
5664.52335 1.46104e-17
5666.03591 1.45422e-17
5667.53846 1.44739e-17
5669.04101 1.44226e-17
5670.55358 1.43712e-17
5672.05613 1.44027e-17
5673.56870 1.44342e-17
5675.07125 1.43128e-17
5676.57380 1.41915e-17
5678.08637 1.40846e-17
5679.58892 1.39778e-17
5681.09147 1.39610e-17
5682.60403 1.39442e-17
5684.10658 1.38884e-17
5685.61915 1.38325e-17
5687.12170 1.38272e-17
5688.62425 1.38218e-17
5690.13682 1.37408e-17
5691.63937 1.36596e-17
5693.15193 1.36028e-17
5694.65448 1.35460e-17
5696.15703 1.35833e-17
5697.66960 1.36206e-17
5699.17215 1.35363e-17
5700.67470 1.34519e-17
5702.18727 1.33840e-17
5703.68982 1.33161e-17
5705.20238 1.32794e-17
5706.70493 1.32427e-17
5708.20748 1.31493e-17
5709.72005 1.30558e-17
5711.22260 1.31328e-17
5712.73517 1.32100e-17
5714.23772 1.31792e-17
5715.74027 1.31483e-17
5717.25284 1.30603e-17
5718.75539 1.29722e-17
5720.25794 1.28860e-17
5721.77050 1.27998e-17
5723.27305 1.27956e-17
5724.78562 1.27915e-17
5726.28817 1.27361e-17
5727.79072 1.26807e-17
5729.30329 1.26844e-17
5730.80584 1.26881e-17
5732.31840 1.27470e-17
5733.82095 1.28058e-17
5735.32350 1.28866e-17
5736.83607 1.29673e-17
5738.33862 1.29168e-17
5739.84117 1.28662e-17
5741.35374 1.29615e-17
5742.85629 1.30569e-17
5744.36885 1.31609e-17
5745.87140 1.32648e-17
5747.37395 1.32946e-17
5748.88652 1.33243e-17
5750.38907 1.32750e-17
5751.90164 1.32258e-17
5753.40419 1.33185e-17
5754.90674 1.34112e-17
5756.41930 1.34563e-17
5757.92185 1.35013e-17
5759.42440 1.34904e-17
5760.93697 1.34795e-17
5762.43952 1.35957e-17
5763.95209 1.37120e-17
5765.45464 1.38194e-17
5766.95719 1.39268e-17
5768.46976 1.39507e-17
5769.97231 1.39746e-17
5771.48487 1.39428e-17
5772.98742 1.39111e-17
5774.48997 1.39959e-17
5776.00254 1.40807e-17
5777.50509 1.40937e-17
5779.01766 1.41066e-17
5780.52021 1.40118e-17
5782.02276 1.39169e-17
5783.53532 1.40908e-17
5785.03787 1.42648e-17
5786.54042 1.42238e-17
5788.05299 1.41828e-17
5789.55554 1.41758e-17
5791.06811 1.41688e-17
5792.57066 1.42684e-17
5794.07321 1.43680e-17
5795.58578 1.43772e-17
5797.08833 1.43864e-17
5798.60089 1.43655e-17
5800.10344 1.43446e-17
5801.60599 1.42548e-17
5803.11856 1.41651e-17
5804.62111 1.42070e-17
5806.12366 1.42489e-17
5807.63623 1.42366e-17
5809.13878 1.42243e-17
5810.65134 1.42128e-17
5812.15389 1.42014e-17
5813.65644 1.42740e-17
5815.16901 1.43465e-17
5816.67156 1.44126e-17
5818.18413 1.44787e-17
5819.68668 1.44601e-17
5821.18923 1.44414e-17
5822.70179 1.44551e-17
5824.20434 1.44688e-17
5825.70689 1.43715e-17
5827.21946 1.42741e-17
5828.72201 1.42506e-17
5830.23458 1.42271e-17
5831.73713 1.42030e-17
5833.23968 1.41789e-17
5834.75225 1.42273e-17
5836.25480 1.42758e-17
5837.76736 1.42814e-17
5839.26991 1.42870e-17
5840.77246 1.42334e-17
5842.28503 1.41798e-17
5843.78758 1.41754e-17
5845.29013 1.41709e-17
5846.80270 1.41826e-17
5848.30525 1.41942e-17
5849.81781 1.42824e-17
5851.32036 1.43707e-17
5852.82291 1.43853e-17
5854.33548 1.43999e-17
5855.83803 1.43432e-17
5857.35060 1.42865e-17
5858.85315 1.42440e-17
5860.35570 1.42015e-17
5861.86826 1.42034e-17
5863.37081 1.42054e-17
5864.87336 1.41407e-17
5866.38593 1.40760e-17
5867.88848 1.40252e-17
5869.40105 1.39743e-17
5870.90360 1.40722e-17
5872.40615 1.41702e-17
5873.91871 1.40374e-17
5875.42126 1.39046e-17
5876.93383 1.39023e-17
5878.43638 1.39001e-17
5879.93893 1.38203e-17
5881.45150 1.37405e-17
5882.95405 1.35889e-17
5884.46662 1.34373e-17
5885.96917 1.33052e-17
5887.47172 1.31731e-17
5888.98428 1.31552e-17
5890.48683 1.31374e-17
5891.98938 1.30609e-17
5893.50195 1.29845e-17
5895.00450 1.29808e-17
5896.51707 1.29771e-17
5898.01962 1.30896e-17
5899.52217 1.32021e-17
5901.03473 1.31935e-17
5902.53728 1.31849e-17
5904.04985 1.32371e-17
5905.55240 1.32892e-17
5907.05495 1.34425e-17
5908.56752 1.35959e-17
5910.07007 1.36639e-17
5911.57262 1.37319e-17
5913.08519 1.37165e-17
5914.58774 1.37012e-17
5916.10030 1.36932e-17
5917.60285 1.36852e-17
5919.10540 1.36892e-17
5920.61797 1.36932e-17
5922.12052 1.36594e-17
5923.63309 1.36256e-17
5925.13564 1.36199e-17
5926.63819 1.36142e-17
5928.15075 1.36372e-17
5929.65330 1.36602e-17
5931.16587 1.36105e-17
5932.66842 1.35608e-17
5934.17097 1.35061e-17
5935.68354 1.34515e-17
5937.18609 1.33591e-17
5938.68864 1.32667e-17
5940.20120 1.32243e-17
5941.70375 1.31819e-17
5943.21632 1.31727e-17
5944.71887 1.31634e-17
5946.22142 1.31279e-17
5947.73399 1.30923e-17
5949.23654 1.31234e-17
5950.74910 1.31546e-17
5952.25166 1.30779e-17
5953.75421 1.30011e-17
5955.26677 1.29219e-17
5956.76932 1.28426e-17
5958.27187 1.28490e-17
5959.78444 1.28555e-17
5961.28699 1.28059e-17
5962.79956 1.27562e-17
5964.30211 1.27407e-17
5965.80466 1.27252e-17
5967.31722 1.27323e-17
5968.81977 1.27393e-17
5970.33234 1.27483e-17
5971.83489 1.27573e-17
5973.33744 1.26636e-17
5974.85001 1.25698e-17
5976.35256 1.25816e-17
5977.85511 1.25934e-17
5979.36767 1.26594e-17
5980.87022 1.27254e-17
5982.38279 1.26246e-17
5983.88534 1.25237e-17
5985.38789 1.25271e-17
5986.90046 1.25305e-17
5988.40301 1.26120e-17
5989.91557 1.26935e-17
5991.41813 1.26399e-17
5992.92068 1.25862e-17
5994.43324 1.25803e-17
5995.93579 1.25745e-17
5997.43834 1.26080e-17
5998.95091 1.26415e-17
6000.45346 1.25961e-17
6001.96603 1.25506e-17
6003.46858 1.25537e-17
6004.97113 1.25568e-17
6006.48369 1.26641e-17
6007.98624 1.27714e-17
6009.49881 1.27471e-17
6011.00136 1.27228e-17
6012.50391 1.27051e-17
6014.01648 1.26874e-17
6015.51903 1.26799e-17
6017.02158 1.26723e-17
6018.53414 1.26927e-17
6020.03669 1.27130e-17
6021.54926 1.26995e-17
6023.05181 1.26860e-17
6024.55436 1.26956e-17
6026.06693 1.27052e-17
6027.56948 1.27226e-17
6029.08205 1.27401e-17
6030.58460 1.26666e-17
6032.08715 1.25932e-17
6033.59971 1.26523e-17
6035.10226 1.27116e-17
6036.61483 1.27376e-17
6038.11738 1.27636e-17
6039.61993 1.27502e-17
6041.13250 1.27368e-17
6042.63505 1.26998e-17
6044.13760 1.26628e-17
6045.65016 1.26797e-17
6047.15271 1.26966e-17
6048.66528 1.27881e-17
6050.16783 1.28795e-17
6051.67038 1.29018e-17
6053.18295 1.29239e-17
6054.68550 1.29310e-17
6056.19806 1.29380e-17
6057.70061 1.29515e-17
6059.20316 1.29649e-17
6060.71573 1.29325e-17
6062.21828 1.29001e-17
6063.72083 1.29181e-17
6065.23340 1.29360e-17
6066.73595 1.29245e-17
6068.24852 1.29130e-17
6069.75107 1.28694e-17
6071.25361 1.28257e-17
6072.76618 1.28613e-17
6074.26873 1.28969e-17
6075.78130 1.28773e-17
6077.28385 1.28576e-17
6078.78640 1.28605e-17
6080.29897 1.28634e-17
6081.80152 1.29652e-17
6083.30407 1.30671e-17
6084.81663 1.29216e-17
6086.31918 1.27760e-17
6087.83175 1.28553e-17
6089.33430 1.29348e-17
6090.83685 1.29711e-17
6092.34942 1.30074e-17
6093.85197 1.29866e-17
6095.36453 1.29659e-17
6096.86708 1.30341e-17
6098.36963 1.31024e-17
6099.88220 1.31013e-17
6101.38475 1.31002e-17
6102.88730 1.30527e-17
6104.39987 1.30052e-17
6105.90242 1.29385e-17
6107.41499 1.28717e-17
6108.91754 1.28715e-17
6110.42009 1.28713e-17
6111.93265 1.28910e-17
6113.43520 1.29107e-17
6114.94777 1.28589e-17
6116.45032 1.28071e-17
6117.95287 1.27710e-17
6119.46544 1.27350e-17
6120.96799 1.27382e-17
6122.47054 1.27415e-17
6123.98310 1.26970e-17
6125.48565 1.26524e-17
6126.99822 1.25878e-17
6128.50077 1.25232e-17
6130.00332 1.24785e-17
6131.51589 1.24339e-17
6133.01844 1.23462e-17
6134.53100 1.22586e-17
6136.03355 1.21888e-17
6137.53610 1.21190e-17
6139.04867 1.20864e-17
6140.55122 1.20538e-17
6142.06379 1.18974e-17
6143.56634 1.17410e-17
6145.06889 1.15753e-17
6146.58145 1.14096e-17
6148.08400 1.13843e-17
6149.58655 1.13591e-17
6151.09912 1.12894e-17
6152.60167 1.12198e-17
6154.11424 1.11090e-17
6155.61679 1.09983e-17
6157.11934 1.09131e-17
6158.63191 1.08280e-17
6160.13446 1.06896e-17
6161.64702 1.05512e-17
6163.14957 1.05569e-17
6164.65212 1.05626e-17
6166.16469 1.04616e-17
6167.66724 1.03604e-17
6169.16979 1.02992e-17
6170.68236 1.02381e-17
6172.18491 1.02277e-17
6173.69747 1.02174e-17
6175.20002 1.02087e-17
6176.70257 1.02000e-17
6178.21514 1.01348e-17
6179.71769 1.00695e-17
6181.23026 9.96213e-18
6182.73281 9.85473e-18
6184.23536 9.82798e-18
6185.74793 9.80126e-18
6187.25047 9.77931e-18
6188.75302 9.75736e-18
6190.26559 9.72830e-18
6191.76814 9.69924e-18
6193.28071 9.70360e-18
6194.78326 9.70798e-18
6196.28581 9.70791e-18
6197.79838 9.70784e-18
6199.30093 9.71197e-18
6200.81349 9.71611e-18
6202.31604 9.68519e-18
6203.81859 9.65427e-18
6205.33116 9.71780e-18
6206.83371 9.78137e-18
6208.33626 9.76938e-18
6209.84883 9.75734e-18
6211.35138 9.81656e-18
6212.86394 9.87581e-18
6214.36649 9.86786e-18
6215.86904 9.85988e-18
6217.38161 9.89961e-18
6218.88416 9.93937e-18
6220.39673 9.94861e-18
6221.89928 9.95784e-18
6223.40183 9.98770e-18
6224.91440 1.00176e-17
6226.41695 1.00680e-17
6227.91950 1.01184e-17
6229.43206 1.01480e-17
6230.93461 1.01776e-17
6232.44718 1.02195e-17
6233.94973 1.02613e-17
6235.45228 1.02513e-17
6236.96485 1.02413e-17
6238.46740 1.02969e-17
6239.97996 1.03525e-17
6241.48251 1.04735e-17
6242.98506 1.05947e-17
6244.49763 1.06384e-17
6246.00018 1.06821e-17
6247.51275 1.06441e-17
6249.01530 1.06060e-17
6250.51785 1.05650e-17
6252.03041 1.05240e-17
6253.53296 1.05838e-17
6255.03551 1.06436e-17
6256.54808 1.07562e-17
6258.05063 1.08689e-17
6259.56320 1.10298e-17
6261.06575 1.11908e-17
6262.56830 1.11375e-17
6264.08086 1.10841e-17
6265.58342 1.11325e-17
6267.09598 1.11809e-17
6268.59853 1.11905e-17
6270.10108 1.12001e-17
6271.61365 1.11873e-17
6273.11620 1.11745e-17
6274.61875 1.10968e-17
6276.13132 1.10191e-17
6277.63387 1.11024e-17
6279.14643 1.11857e-17
6280.64898 1.12222e-17
6282.15153 1.12587e-17
6283.66410 1.13724e-17
6285.16665 1.14862e-17
6286.67922 1.16152e-17
6288.18177 1.17442e-17
6289.68432 1.17335e-17
6291.19688 1.17228e-17
6292.69943 1.17391e-17
6294.20198 1.17554e-17
6295.71455 1.17692e-17
6297.21710 1.17831e-17
6298.72967 1.18585e-17
6300.23222 1.19339e-17
6301.73477 1.20439e-17
6303.24734 1.21538e-17
6304.74989 1.21883e-17
6306.26245 1.22228e-17
6307.76500 1.22782e-17
6309.26755 1.23337e-17
6310.78012 1.22985e-17
6312.28267 1.22633e-17
6313.78522 1.22838e-17
6315.29779 1.23043e-17
6316.80034 1.23944e-17
6318.31290 1.24846e-17
6319.81545 1.24659e-17
6321.31800 1.24471e-17
6322.83057 1.25595e-17
6324.33312 1.26720e-17
6325.84569 1.26498e-17
6327.34824 1.26275e-17
6328.85079 1.26238e-17
6330.36335 1.26201e-17
6331.86590 1.26561e-17
6333.36845 1.26922e-17
6334.88102 1.27083e-17
6336.38357 1.27243e-17
6337.89614 1.27600e-17
6339.39869 1.27956e-17
6340.90124 1.28091e-17
6342.41381 1.28225e-17
6343.91636 1.27902e-17
6345.42892 1.27579e-17
6346.93147 1.27716e-17
6348.43402 1.27854e-17
6349.94659 1.26987e-17
6351.44914 1.26119e-17
6352.96171 1.25712e-17
6354.46426 1.25305e-17
6355.96681 1.25167e-17
6357.47937 1.25029e-17
6358.98192 1.23892e-17
6360.48447 1.22755e-17
6361.99704 1.22542e-17
6363.49959 1.22330e-17
6365.01216 1.22348e-17
6366.51471 1.22366e-17
6368.01726 1.21441e-17
6369.52982 1.20515e-17
6371.03237 1.19693e-17
6372.54494 1.18872e-17
6374.04749 1.19108e-17
6375.55004 1.19344e-17
6377.06261 1.18313e-17
6378.56516 1.17281e-17
6380.06771 1.16602e-17
6381.58028 1.15923e-17
6383.08283 1.15439e-17
6384.59539 1.14956e-17
6386.09794 1.14396e-17
6387.60049 1.13835e-17
6389.11306 1.13906e-17
6390.61561 1.13977e-17
6392.12818 1.14054e-17
6393.63073 1.14132e-17
6395.13328 1.13868e-17
6396.64584 1.13604e-17
6398.14839 1.13161e-17
6399.65094 1.12719e-17
6401.16351 1.12400e-17
6402.66606 1.12081e-17
6404.17863 1.11994e-17
6405.68118 1.11906e-17
6407.18373 1.11505e-17
6408.69629 1.11104e-17
6410.19884 1.11829e-17
6411.71141 1.12554e-17
6413.21396 1.13963e-17
6414.71651 1.15373e-17
6416.22908 1.15908e-17
6417.73163 1.16442e-17
6419.23418 1.16681e-17
6420.74675 1.16920e-17
6422.24930 1.16616e-17
6423.76186 1.16311e-17
6425.26441 1.17017e-17
6426.76696 1.17724e-17
6428.27953 1.18761e-17
6429.78208 1.19798e-17
6431.29465 1.20104e-17
6432.79720 1.20409e-17
6434.29975 1.20497e-17
6435.81231 1.20584e-17
6437.31486 1.20902e-17
6438.82743 1.21219e-17
6440.32998 1.21827e-17
6441.83253 1.22435e-17
6443.34510 1.23247e-17
6444.84765 1.24060e-17
6446.35020 1.24480e-17
6447.86276 1.24900e-17
6449.36531 1.25128e-17
6450.87788 1.25356e-17
6452.38043 1.25257e-17
6453.88298 1.25158e-17
6455.39555 1.23909e-17
6456.89810 1.22659e-17
6458.41067 1.22771e-17
6459.91322 1.22884e-17
6461.41576 1.23448e-17
6462.92833 1.24012e-17
6464.43088 1.24122e-17
6465.93343 1.24232e-17
6467.44600 1.24558e-17
6468.94855 1.24885e-17
6470.46112 1.24983e-17
6471.96367 1.25081e-17
6473.46622 1.25695e-17
6474.97878 1.26309e-17
6476.48133 1.26008e-17
6477.99390 1.25707e-17
6479.49645 1.25028e-17
6480.99900 1.24349e-17
6482.51157 1.25030e-17
6484.01412 1.25712e-17
6485.51667 1.25443e-17
6487.02923 1.25173e-17
6488.53178 1.24651e-17
6490.04435 1.24129e-17
6491.54690 1.24090e-17
6493.04945 1.24052e-17
6494.56202 1.23964e-17
6496.06457 1.23876e-17
6497.57714 1.24412e-17
6499.07969 1.24949e-17
6500.58224 1.24636e-17
6502.09480 1.24323e-17
6503.59735 1.23684e-17
6505.09990 1.23045e-17
6506.61247 1.22776e-17
6508.11502 1.22507e-17
6509.62759 1.21992e-17
6511.13014 1.21477e-17
6512.63269 1.21282e-17
6514.14525 1.21087e-17
6515.64780 1.20956e-17
6517.16037 1.20825e-17
6518.66292 1.20776e-17
6520.16547 1.20728e-17
6521.67804 1.21090e-17
6523.18059 1.21452e-17
6524.68314 1.21509e-17
6526.19570 1.21565e-17
6527.69825 1.21525e-17
6529.21082 1.21485e-17
6530.71337 1.21229e-17
6532.21592 1.20973e-17
6533.72849 1.21102e-17
6535.23104 1.21232e-17
6536.74360 1.21121e-17
6538.24615 1.21011e-17
6539.74870 1.21078e-17
6541.26127 1.21145e-17
6542.76382 1.20740e-17
6544.27639 1.20585e-17
6545.77894 1.20430e-17
6547.28149 1.20275e-17
6548.79406 1.20120e-17
6550.29661 1.19966e-17
6551.79916 1.19811e-17
6553.31172 1.19656e-17
6554.81427 1.19501e-17
6556.32684 1.19346e-17
6557.82939 1.19191e-17
6559.33194 1.19037e-17
6560.84451 1.18882e-17
6562.34706 1.18727e-17
6563.85962 1.18572e-17
6565.36217 1.18418e-17
6566.86472 1.18263e-17
6568.37729 1.18108e-17
6569.87984 1.17953e-17
6571.38239 1.17799e-17
6572.89496 1.17644e-17
6574.39751 1.17489e-17
6575.91007 1.17335e-17
6577.41262 1.17180e-17
6578.91518 1.17025e-17
6580.42774 1.16871e-17
6581.93029 1.16716e-17
6583.44286 1.16562e-17
6584.94541 1.16407e-17
6586.44796 1.16253e-17
6587.96053 1.16098e-17
6589.46308 1.15943e-17
6590.96563 1.15789e-17
6592.47819 1.15634e-17
6593.98074 1.15480e-17
6595.49331 1.15325e-17
6596.99586 1.15171e-17
6598.49841 1.15016e-17
6600.01098 1.14862e-17
6601.51353 1.14707e-17
6603.02609 1.14553e-17
6604.52864 1.14399e-17
6606.03119 1.13897e-17
6607.54376 1.13394e-17
6609.04631 1.12586e-17
6610.54886 1.11777e-17
6612.06143 1.11001e-17
6613.56398 1.10225e-17
6615.07655 1.10232e-17
6616.57910 1.10239e-17
6618.08165 1.10636e-17
6619.59421 1.11032e-17
6621.09676 1.10381e-17
6622.60933 1.09729e-17
6624.11188 1.09330e-17
6625.61443 1.08932e-17
6627.12700 1.09295e-17
6628.62955 1.09659e-17
6630.13210 1.09384e-17
6631.64466 1.09108e-17
6633.14721 1.09010e-17
6634.65978 1.08912e-17
6636.16233 1.08040e-17
6637.66488 1.07167e-17
6639.17745 1.07201e-17
6640.68000 1.07236e-17
6642.19256 1.07103e-17
6643.69511 1.06969e-17
6645.19766 1.07489e-17
6646.71023 1.08008e-17
6648.21278 1.07829e-17
6649.72535 1.07649e-17
6651.22790 1.07524e-17
6652.73045 1.07398e-17
6654.24302 1.07309e-17
6655.74557 1.07220e-17
6657.24812 1.06611e-17
6658.76068 1.06002e-17
6660.26323 1.06117e-17
6661.77580 1.06232e-17
6663.27835 1.05860e-17
6664.78090 1.05487e-17
6666.29347 1.04986e-17
6667.79602 1.04485e-17
6669.30858 1.04848e-17
6670.81113 1.05210e-17
6672.31368 1.04917e-17
6673.82625 1.04623e-17
6675.32880 1.04154e-17
6676.83135 1.03684e-17
6678.34392 1.03784e-17
6679.84647 1.03883e-17
6681.35903 1.04407e-17
6682.86158 1.04931e-17
6684.36413 1.04468e-17
6685.87670 1.04004e-17
6687.37925 1.03665e-17
6688.89182 1.03327e-17
6690.39437 1.03545e-17
6691.89692 1.03764e-17
6693.40949 1.03596e-17
6694.91204 1.03427e-17
6696.41459 1.03878e-17
6697.92715 1.04329e-17
6699.42970 1.03803e-17
6700.94227 1.03276e-17
6702.44482 1.02868e-17
6703.94737 1.02461e-17
6705.45994 1.02709e-17
6706.96249 1.02957e-17
6708.47505 1.02929e-17
6709.97760 1.02901e-17
6711.48015 1.02871e-17
6712.99272 1.02842e-17
6714.49527 1.02694e-17
6715.99782 1.02545e-17
6717.51039 1.02146e-17
6719.01294 1.01746e-17
6720.52550 1.01726e-17
6722.02805 1.01706e-17
6723.53060 1.01766e-17
6725.04317 1.01826e-17
6726.54572 1.01998e-17
6728.05829 1.02169e-17
6729.56084 1.01853e-17
6731.06339 1.01536e-17
6732.57596 1.00046e-17
6734.07850 9.85558e-18
6735.59107 9.96370e-18
6737.09362 1.00720e-17
6738.59617 1.00278e-17
6740.10874 9.98345e-18
6741.61129 9.90426e-18
6743.11384 9.82506e-18
6744.62641 9.86094e-18
6746.12896 9.89689e-18
6747.64152 9.88022e-18
6749.14407 9.86352e-18
6750.64662 9.83218e-18
6752.15919 9.80084e-18
6753.66174 9.76441e-18
6755.17431 9.72798e-18
6756.67686 9.75513e-18
6758.17941 9.78232e-18
6759.69197 9.83081e-18
6761.19452 9.87932e-18
6762.70709 9.81250e-18
6764.20964 9.74561e-18
6765.71219 9.70909e-18
6767.22476 9.67260e-18
6768.72731 9.70882e-18
6770.22986 9.74509e-18
6771.74243 9.68563e-18
6773.24498 9.62611e-18
6774.75754 9.61691e-18
6776.26009 9.60774e-18
6777.76264 9.60494e-18
6779.27521 9.60215e-18
6780.77776 9.56890e-18
6782.28031 9.53563e-18
6783.79288 9.55153e-18
6785.29543 9.56746e-18
6786.80799 9.60812e-18
6788.31054 9.64879e-18
6789.81309 9.59544e-18
6791.32566 9.54204e-18
6792.82821 9.46387e-18
6794.34078 9.38568e-18
6795.84333 9.36973e-18
6797.34588 9.35381e-18
6798.85844 9.39725e-18
6800.36099 9.44072e-18
6801.87356 9.43259e-18
6803.37611 9.42443e-18
6804.87866 9.43292e-18
6806.39123 9.44141e-18
6807.89378 9.48112e-18
6809.39633 9.52085e-18
6810.90890 9.49901e-18
6812.41145 9.47713e-18
6813.92401 9.41708e-18
6815.42656 9.35701e-18
6816.92911 9.31577e-18
6818.44168 9.27455e-18
6819.94423 9.26720e-18
6821.45680 9.25986e-18
6822.95935 9.21120e-18
6824.46190 9.16251e-18
6825.97446 9.16400e-18
6827.47701 9.16553e-18
6828.97956 9.16691e-18
6830.49213 9.16828e-18
6831.99468 9.16452e-18
6833.50725 9.16075e-18
6835.00980 9.08634e-18
6836.51235 9.01189e-18
6838.02491 9.02531e-18
6839.52746 9.03879e-18
6841.04003 9.07341e-18
6842.54258 9.10805e-18
6844.04513 9.12186e-18
6845.55770 9.11233e-18
6847.06025 9.10281e-18
6848.56280 9.09328e-18
6850.07536 9.08375e-18
6851.57791 9.07423e-18
6853.09048 9.06470e-18
6854.59303 9.05518e-18
6856.09558 9.04566e-18
6857.60815 9.03614e-18
6859.11070 9.02661e-18
6860.62327 9.01709e-18
6862.12582 9.00757e-18
6863.62837 8.99805e-18
6865.14093 8.98853e-18
6866.64348 8.97902e-18
6868.15605 8.96950e-18
6869.65860 8.95998e-18
6871.16115 8.95047e-18
6872.67372 8.94095e-18
6874.17627 8.93143e-18
6875.67882 8.92192e-18
6877.19138 8.91240e-18
6878.69393 8.90289e-18
6880.20650 8.89338e-18
6881.70905 8.88387e-18
6883.21160 8.87436e-18
6884.72417 8.86485e-18
6886.22672 8.85534e-18
6887.72927 8.84582e-18
6889.24184 8.83632e-18
6890.74439 8.82681e-18
6892.25695 8.81730e-18
6893.75950 8.80779e-18
6895.26205 8.79829e-18
6896.77462 8.78878e-18
6898.27717 8.77928e-18
6899.78974 8.76977e-18
6901.29229 8.76027e-18
6902.79484 8.75077e-18
6904.30740 8.74126e-18
6905.80995 8.73176e-18
6907.32252 8.72226e-18
6908.82507 8.71276e-18
6910.32762 8.70326e-18
6911.84019 8.69376e-18
6913.34274 8.68426e-18
6914.84529 8.67476e-18
6916.35785 8.66527e-18
6917.86040 8.65577e-18
6919.37297 8.64627e-18
6920.87552 8.63678e-18
6922.37807 8.62728e-18
6923.89064 8.61779e-18
6925.39319 8.60829e-18
6926.90575 8.59880e-18
6928.40830 8.58931e-18
6929.91086 8.57982e-18
6931.42342 8.57033e-18
6932.92597 8.56083e-18
6934.42852 8.55134e-18
6935.94109 8.54185e-18
6937.44364 8.56073e-18
6938.95621 8.57959e-18
6940.45876 8.56588e-18
6941.96131 8.55214e-18
6943.47387 8.53964e-18
6944.97642 8.52713e-18
6946.48899 8.55637e-18
6947.99154 8.58563e-18
6949.49409 8.66937e-18
6951.00666 8.75313e-18
6952.50921 8.73352e-18
6954.01176 8.71384e-18
6955.52432 8.77242e-18
6957.02687 8.83105e-18
6958.53944 8.86469e-18
6960.04199 8.89831e-18
6961.54454 8.90396e-18
6963.05711 8.90959e-18
6964.55966 8.90307e-18
6966.07222 8.89654e-18
6967.57478 8.96206e-18
6969.07733 9.02763e-18
6970.58989 9.03627e-18
6972.09244 9.04487e-18
6973.60501 8.99137e-18
6975.10756 8.93784e-18
6976.61011 8.92946e-18
6978.12268 8.92111e-18
6979.62523 8.87050e-18
6981.12778 8.81986e-18
6982.64034 8.85424e-18
6984.14289 8.88868e-18
6985.65546 8.89854e-18
6987.15801 8.90840e-18
6988.66056 8.88619e-18
6990.17313 8.86397e-18
6991.67568 8.94255e-18
6993.17823 9.02118e-18
6994.69079 8.98416e-18
6996.19334 8.94706e-18
6997.70591 8.88442e-18
6999.20846 8.82177e-18
7000.71101 8.79292e-18
7002.22358 8.76409e-18
7003.72613 8.71726e-18
7005.23870 8.67043e-18
7006.74125 8.67395e-18
7008.24380 8.67750e-18
7009.75636 8.69484e-18
7011.25891 8.71218e-18
7012.77148 8.66944e-18
7014.27403 8.62666e-18
7015.77658 8.61472e-18
7017.28915 8.60279e-18
7018.79170 8.55827e-18
7020.29425 8.51372e-18
7021.80681 8.45362e-18
7023.30936 8.39351e-18
7024.82193 8.45388e-18
7026.32448 8.51433e-18
7027.82703 8.54460e-18
7029.33960 8.57485e-18
7030.84215 8.51321e-18
7032.35471 8.45152e-18
7033.85726 8.40444e-18
7035.35981 8.35737e-18
7036.87238 8.31491e-18
7038.37493 8.27245e-18
7039.87748 8.27383e-18
7041.39005 8.27523e-18
7042.89260 8.24658e-18
7044.40517 8.21790e-18
7045.90772 8.15546e-18
7047.41027 8.09301e-18
7048.92283 8.08787e-18
7050.42538 8.08278e-18
7051.93795 8.11447e-18
7053.44050 8.14618e-18
7054.94305 8.19052e-18
7056.45562 8.23486e-18
7057.95817 8.20784e-18
7059.46072 8.18077e-18
7060.97328 8.17658e-18
7062.47583 8.17241e-18
7063.98840 8.28117e-18
7065.49095 8.39000e-18
7066.99350 8.44980e-18
7068.50607 8.50956e-18
7070.00862 8.52815e-18
7071.52118 8.54671e-18
7073.02373 8.58928e-18
7074.52628 8.63187e-18
7076.03885 8.68393e-18
7077.54140 8.73600e-18
7079.05397 8.78959e-18
7080.55652 8.84317e-18
7082.05907 8.82429e-18
7083.57164 8.80537e-18
7085.07419 8.78935e-18
7086.57674 8.77334e-18
7088.08930 8.77989e-18
7089.59185 8.78646e-18
7091.10442 8.79009e-18
7092.60697 8.79372e-18
7094.10952 8.81007e-18
7095.62209 8.82642e-18
7097.12464 8.88151e-18
7098.62719 8.93662e-18
7100.13975 8.91809e-18
7101.64230 8.89952e-18
7103.15487 8.94828e-18
7104.65742 8.99708e-18
7106.15997 9.03853e-18
7107.67254 9.07997e-18
7109.17509 9.08523e-18
7110.68765 9.09046e-18
7112.19020 9.06872e-18
7113.69275 9.04697e-18
7115.20532 9.06298e-18
7116.70787 9.07902e-18
7118.22044 9.10416e-18
7119.72299 9.12931e-18
7121.22554 9.08855e-18
7122.73810 9.04776e-18
7124.24065 9.06137e-18
7125.74320 9.07502e-18
7127.25577 9.02115e-18
7128.75832 8.96724e-18
7130.27089 9.03848e-18
7131.77344 9.10980e-18
7133.27599 9.18538e-18
7134.78856 9.26095e-18
7136.29111 9.29445e-18
7137.80367 9.32791e-18
7139.30622 9.36168e-18
7140.80877 9.39544e-18
7142.32134 9.47911e-18
7143.82389 9.56280e-18
7145.32644 9.50642e-18
7146.83901 9.44996e-18
7148.34156 9.46901e-18
7149.85412 9.48812e-18
7151.35667 9.52782e-18
7152.85922 9.56754e-18
7154.37179 9.51748e-18
7155.87434 9.46737e-18
7157.38691 9.43948e-18
7158.88946 9.41161e-18
7160.39201 9.37300e-18
7161.90458 9.33438e-18
7163.40713 9.43611e-18
7164.90967 9.53794e-18
7166.42224 9.57479e-18
7167.92479 9.61160e-18
7169.43736 9.46987e-18
7170.93991 9.32803e-18
7172.44246 9.27019e-18
7173.95503 9.21242e-18
7175.45758 9.16565e-18
7176.97014 9.11890e-18
7178.47269 8.99435e-18
7179.97524 8.86977e-18
7181.48781 8.93540e-18
7182.99036 9.00115e-18
7184.50293 9.10603e-18
7186.00548 9.21093e-18
7187.50803 9.21062e-18
7189.02059 9.21023e-18
7190.52314 9.19600e-18
7192.02569 9.18177e-18
7193.53826 9.21853e-18
7195.04081 9.25532e-18
7196.55338 9.19015e-18
7198.05593 9.12493e-18
7199.55848 9.15020e-18
7201.07105 9.17554e-18
7202.57360 9.40668e-18
7204.07615 9.63795e-18
7205.58871 9.71237e-18
7207.09126 9.78667e-18
7208.60383 9.80344e-18
7210.10638 9.82016e-18
7211.60893 9.67788e-18
7213.12150 9.53551e-18
7214.62405 9.47726e-18
7216.13661 9.41908e-18
7217.63916 9.48859e-18
7219.14171 9.55818e-18
7220.65428 9.54077e-18
7222.15683 9.52330e-18
7223.66940 9.33351e-18
7225.17195 9.14363e-18
7226.67450 9.14972e-18
7228.18706 9.15596e-18
7229.68961 9.02156e-18
7231.19216 8.88708e-18
7232.70473 8.78850e-18
7234.20728 8.68995e-18
7235.71985 8.88667e-18
7237.22240 9.08358e-18
7238.72495 9.23739e-18
7240.23751 9.39117e-18
7241.74006 9.50394e-18
7243.25263 9.61668e-18
7244.75518 9.60139e-18
7246.25773 9.58600e-18
7247.77030 9.31399e-18
7249.27285 9.04182e-18
7250.77540 9.08504e-18
7252.28797 9.12847e-18
7253.79052 9.17263e-18
7255.30308 9.21679e-18
7256.80563 9.07085e-18
7258.30818 8.92478e-18
7259.82075 8.85801e-18
7261.32330 8.79130e-18
7262.83587 8.98635e-18
7264.33842 9.18157e-18
7265.84097 9.34626e-18
7267.35353 9.51092e-18
7268.85608 9.39141e-18
7270.35863 9.27170e-18
7271.87120 9.13820e-18
7273.37375 9.00469e-18
7274.88632 9.05203e-18
7276.38887 9.09950e-18
7277.89142 9.16806e-18
7279.40399 9.23663e-18
7280.90654 9.22976e-18
7282.41910 9.22283e-18
7283.92165 9.14678e-18
7285.42420 9.07068e-18
7286.93677 8.91939e-18
7288.43932 8.76807e-18
7289.95189 8.67706e-18
7291.45444 8.58609e-18
7292.95699 8.65064e-18
7294.46955 8.71529e-18
7295.97210 8.79153e-18
7297.47465 8.86777e-18
7298.98722 8.93341e-18
7300.48977 8.99903e-18
7302.00234 8.92474e-18
7303.50489 8.85037e-18
7305.00744 8.67995e-18
7306.52000 8.50947e-18
7308.02255 8.51893e-18
7309.53512 8.52851e-18
7311.03767 8.55216e-18
7312.54022 8.57582e-18
7314.05279 8.60720e-18
7315.55534 8.63858e-18
7317.05789 8.71696e-18
7318.57046 8.79537e-18
7320.07301 8.78482e-18
7321.58557 8.77421e-18
7323.08812 8.68494e-18
7324.59067 8.59563e-18
7326.10324 8.60368e-18
7327.60579 8.61179e-18
7329.11836 8.71995e-18
7330.62091 8.82818e-18
7332.12346 8.76952e-18
7333.63602 8.71076e-18
7335.13857 8.70836e-18
7336.64112 8.70601e-18
7338.15369 8.70016e-18
7339.65624 8.69432e-18
7341.16881 8.73513e-18
7342.67136 8.77597e-18
7344.17391 8.70896e-18
7345.68647 8.64188e-18
7347.18902 8.63784e-18
7348.70159 8.63384e-18
7350.20414 8.62716e-18
7351.70669 8.62047e-18
7353.21926 8.61950e-18
7354.72181 8.61852e-18
7356.22436 8.65471e-18
7357.73693 8.69092e-18
7359.23948 8.63941e-18
7360.75204 8.58784e-18
7362.25459 8.55715e-18
7363.75714 8.52647e-18
7365.26971 8.61827e-18
7366.77226 8.71015e-18
7368.28483 8.71425e-18
7369.78738 8.71829e-18
7371.28993 8.66671e-18
7372.80249 8.61510e-18
7374.30504 8.62789e-18
7375.80759 8.64072e-18
7377.32016 8.65470e-18
7378.82271 8.66869e-18
7380.33528 8.63349e-18
7381.83783 8.59826e-18
7383.34038 8.56696e-18
7384.85294 8.53566e-18
7386.35549 8.58168e-18
7387.86806 8.62775e-18
7389.37061 8.54722e-18
7390.87316 8.46659e-18
7392.38573 8.42744e-18
7393.88828 8.38832e-18
7395.40085 8.45749e-18
7396.90340 8.52674e-18
7398.40595 8.46723e-18
7399.91851 8.40763e-18
7401.42106 8.28460e-18
7402.92361 8.16155e-18
7404.43618 8.12831e-18
7405.93873 8.09514e-18
7407.45130 8.12355e-18
7408.95385 8.15201e-18
7410.45640 8.14319e-18
7411.96896 8.13435e-18
7413.47151 8.09264e-18
7414.98408 8.05090e-18
7416.48663 8.02204e-18
7417.98918 7.99319e-18
7419.50175 7.94340e-18
7421.00430 7.89360e-18
7422.50685 7.79460e-18
7424.01941 7.69556e-18
7425.52196 7.69123e-18
7427.03453 7.68696e-18
7428.53708 7.71761e-18
7430.03963 7.74829e-18
7431.55220 7.67777e-18
7433.05475 7.60718e-18
7434.56732 7.58157e-18
7436.06987 7.55599e-18
7437.57241 7.55087e-18
7439.08498 7.54578e-18
7440.58753 7.43996e-18
7442.09008 7.33408e-18
7443.60265 7.27311e-18
7445.10520 7.21218e-18
7446.61777 7.12072e-18
7448.12032 7.02925e-18
7449.62287 7.03680e-18
7451.13543 7.04442e-18
7452.63798 6.96270e-18
7454.15055 6.88092e-18
7455.65310 6.77114e-18
7457.15565 6.66134e-18
7458.66822 6.58556e-18
7460.17077 6.50981e-18
7461.67332 6.47683e-18
7463.18588 6.44389e-18
7464.68843 6.39317e-18
7466.20100 6.34243e-18
7467.70355 6.28259e-18
7469.20610 6.22276e-18
7470.71867 6.20532e-18
7472.22122 6.18792e-18
7473.73379 6.13011e-18
7475.23634 6.07226e-18
7476.73889 5.96478e-18
7478.25145 5.85726e-18
7479.75400 5.80775e-18
7481.25655 5.75829e-18
7482.76912 5.70164e-18
7484.27167 5.64499e-18
7485.78424 5.56296e-18
7487.28679 5.48092e-18
7488.78934 5.41554e-18
7490.30190 5.35018e-18
7491.80445 5.33269e-18
7493.31702 5.31524e-18
7494.81957 5.29502e-18
7496.32212 5.27480e-18
7497.83469 5.19351e-18
7499.33724 5.11218e-18
7500.84980 5.01841e-18
7502.35235 4.92464e-18
7503.85490 4.93586e-18
7505.36747 4.94716e-18
7506.87002 4.92021e-18
7508.37257 4.89323e-18
7509.88514 4.83575e-18
7511.38769 4.77825e-18
7512.90025 4.78258e-18
7514.40280 4.78695e-18
7515.90535 4.77112e-18
7517.41792 4.75528e-18
7518.92047 4.76368e-18
7520.43304 4.77209e-18
7521.93559 4.80054e-18
7523.43814 4.82899e-18
7524.95071 4.81752e-18
7526.45326 4.80602e-18
7527.95581 4.82888e-18
7529.46837 4.85177e-18
7530.97092 4.78434e-18
7532.48349 4.71685e-18
7533.98604 4.72290e-18
7535.48859 4.72900e-18
7537.00116 4.78692e-18
7538.50371 4.84487e-18
7540.01627 4.77194e-18
7541.51882 4.69892e-18
7543.02137 4.68454e-18
7544.53394 4.67020e-18
7546.03649 4.76557e-18
7547.53904 4.86100e-18
7549.05161 4.82711e-18
7550.55416 4.86024e-18
7552.06673 4.89336e-18
7553.56927 4.92649e-18
7555.07182 4.95962e-18
7556.58439 4.99274e-18
7558.08694 5.02586e-18
7559.59951 5.05897e-18
7561.10206 5.09209e-18
7562.60461 5.12520e-18
7564.11718 5.15831e-18
7565.61973 5.19141e-18
7567.12228 5.22451e-18
7568.63484 5.25762e-18
7570.13739 5.29071e-18
7571.64996 5.32381e-18
7573.15251 5.35690e-18
7574.65506 5.38999e-18
7576.16763 5.42308e-18
7577.67018 5.45616e-18
7579.18274 5.48924e-18
7580.68529 5.52233e-18
7582.18784 5.55540e-18
7583.70041 5.58847e-18
7585.20296 5.62154e-18
7586.70551 5.65461e-18
7588.21808 5.68768e-18
7589.72063 5.72074e-18
7591.23320 5.75380e-18
7592.73575 5.78685e-18
7594.23830 5.81992e-18
7595.75086 5.85297e-18
7597.25341 5.88601e-18
7598.76598 5.91906e-18
7600.26853 5.95211e-18
7601.77108 5.98515e-18
7603.28365 6.01819e-18
7604.78620 6.05122e-18
7606.29876 6.08425e-18
7607.80131 6.11729e-18
7609.30386 6.15031e-18
7610.81643 6.18334e-18
7612.31898 6.21636e-18
7613.82153 6.24939e-18
7615.33410 6.28240e-18
7616.83665 6.31541e-18
7618.34921 6.34842e-18
7619.85176 6.38144e-18
7621.35431 6.41444e-18
7622.86688 6.44745e-18
7624.36943 6.48045e-18
7625.88200 6.51344e-18
7627.38455 6.54644e-18
7628.88710 6.57944e-18
7630.39966 6.61242e-18
7631.90222 6.64541e-18
7633.41478 6.67840e-18
7634.91733 6.71138e-18
7636.41988 6.74436e-18
7637.93245 6.77733e-18
7639.43500 6.81032e-18
7640.93755 6.84329e-18
7642.45012 6.87625e-18
7643.95267 6.90922e-18
7645.46523 6.94218e-18
7646.96778 6.97515e-18
7648.47033 7.00810e-18
7649.98290 7.04106e-18
7651.48545 7.07401e-18
7652.99802 7.10697e-18
7654.50057 7.13991e-18
7656.00312 7.17285e-18
7657.51568 7.20579e-18
7659.01823 7.23873e-18
7660.52078 7.27167e-18
7662.03335 7.30461e-18
7663.53590 7.33753e-18
7665.04847 7.37046e-18
7666.55102 7.40340e-18
7668.05357 7.43632e-18
7669.56614 7.46923e-18
7671.06869 7.50215e-18
7672.58125 7.53507e-18
7674.08380 7.56798e-18
7675.58635 7.60089e-18
7677.09892 7.63380e-18
7678.60147 7.66670e-18
7680.10402 7.69961e-18
7681.61659 7.71018e-18
7683.11914 7.72086e-18
7684.63170 7.89885e-18
7686.13425 8.07695e-18
7687.63680 7.91805e-18
7689.14937 7.75889e-18
7690.65192 7.64174e-18
7692.16449 7.52463e-18
7693.66704 7.58690e-18
7695.16959 7.64930e-18
7696.68215 7.71457e-18
7698.18470 7.77983e-18
7699.68725 7.85735e-18
7701.19982 7.93488e-18
7702.70237 8.02975e-18
7704.21494 8.12464e-18
7705.71749 8.20588e-18
7707.22004 8.28711e-18
7708.73261 8.24711e-18
7710.23516 8.20703e-18
7711.74772 8.18010e-18
7713.25027 8.15319e-18
7714.75282 8.13053e-18
7716.26539 8.10786e-18
7717.76794 8.29110e-18
7719.27049 8.47447e-18
7720.78306 8.51146e-18
7722.28561 8.54833e-18
7723.79817 8.44018e-18
7725.30072 8.33191e-18
7726.80327 8.34909e-18
7728.31584 8.36636e-18
7729.81839 8.48101e-18
7731.33096 8.59572e-18
7732.83351 8.73933e-18
7734.33606 8.88296e-18
7735.84862 8.94902e-18
7737.35117 9.01502e-18
7738.86374 8.92517e-18
7740.36629 8.83521e-18
7741.86884 8.80760e-18
7743.38141 8.78003e-18
7744.88396 8.70973e-18
7746.38651 8.63940e-18
7747.89908 8.61478e-18
7749.40163 8.59020e-18
7750.91419 8.58427e-18
7752.41674 8.57837e-18
7753.91929 8.57650e-18
7755.43186 8.57464e-18
7756.93441 8.55985e-18
7758.44698 8.54506e-18
7759.94953 8.55932e-18
7761.45208 8.57361e-18
7762.96464 8.62916e-18
7764.46719 8.68474e-18
7765.96974 8.70300e-18
7767.48231 8.72123e-18
7768.98486 8.74379e-18
7770.49743 8.76634e-18
7771.99998 8.77834e-18
7773.50253 8.79032e-18
7775.01509 8.75882e-18
7776.51764 8.72730e-18
7778.03021 8.81440e-18
7779.53276 8.90159e-18
7781.03531 8.87285e-18
7782.54788 8.84401e-18
7784.05043 8.83776e-18
7785.55298 8.83153e-18
7787.06555 8.87058e-18
7788.56810 8.90967e-18
7790.08066 8.90869e-18
7791.58321 8.90767e-18
7793.08576 8.80800e-18
7794.59833 8.70826e-18
7796.10088 8.71333e-18
7797.61345 8.71848e-18
7799.11600 8.70461e-18
7800.61855 8.69072e-18
7802.13111 8.68225e-18
7803.63366 8.67378e-18
7805.14623 8.68972e-18
7806.64878 8.70569e-18
7808.15133 8.66315e-18
7809.66390 8.62058e-18
7811.16645 8.64094e-18
7812.66900 8.66136e-18
7814.18156 8.62406e-18
7815.68411 8.58673e-18
7817.19668 8.65140e-18
7818.69923 8.71615e-18
7820.20178 8.73157e-18
7821.71435 8.74694e-18
7823.21690 8.66989e-18
7824.71945 8.59277e-18
7826.23202 8.61757e-18
7827.73456 8.64245e-18
7829.24713 8.70430e-18
7830.74968 8.76617e-18
7832.25223 8.69875e-18
7833.76480 8.63124e-18
7835.26735 8.56142e-18
7836.77992 8.49161e-18
7838.28247 8.51328e-18
7839.78502 8.53502e-18
7841.29758 8.59882e-18
7842.80013 8.66264e-18
7844.31270 8.67506e-18
7845.81525 8.68743e-18
7847.31780 8.57904e-18
7848.83037 8.47056e-18
7850.33292 8.43333e-18
7851.83547 8.39617e-18
7853.34803 8.40949e-18
7854.85058 8.42285e-18
7856.36315 8.44766e-18
7857.86570 8.47248e-18
7859.36825 8.53213e-18
7860.88082 8.59181e-18
7862.38337 8.67250e-18
7863.89594 8.75320e-18
7865.39849 8.71187e-18
7866.90104 8.67043e-18
7868.41360 8.62122e-18
7869.91615 8.57201e-18
7871.41870 8.52580e-18
7872.93127 8.47961e-18
7874.43382 8.45761e-18
7875.94639 8.43564e-18
7877.44894 8.44838e-18
7878.95149 8.46115e-18
7880.46405 8.38938e-18
7881.96660 8.31756e-18
7883.47917 8.26245e-18
7884.98172 8.20735e-18
7886.48427 8.17404e-18
7887.99684 8.14076e-18
7889.49939 8.13541e-18
7891.00194 8.13009e-18
7892.51450 8.14510e-18
7894.01705 8.16012e-18
7895.52962 8.20055e-18
7897.03217 8.24100e-18
7898.53472 8.19163e-18
7900.04729 8.14219e-18
7901.54984 8.14759e-18
7903.06240 8.15303e-18
7904.56495 8.09674e-18
7906.06750 8.04039e-18
7907.58007 8.03525e-18
7909.08262 8.03014e-18
7910.59519 8.09278e-18
7912.09774 8.15547e-18
7913.60029 8.09648e-18
7915.11286 8.03739e-18
7916.61541 8.05390e-18
7918.11796 8.07047e-18
7919.63052 8.08136e-18
7921.13307 8.09224e-18
7922.64564 7.98569e-18
7924.14819 7.87906e-18
7925.65074 7.91328e-18
7927.16331 7.94762e-18
7928.66586 7.89038e-18
7930.16841 7.83308e-18
7931.68097 7.82032e-18
7933.18352 7.80760e-18
7934.69609 7.70980e-18
7936.19864 7.61195e-18
7937.70119 7.61428e-18
7939.21376 7.61670e-18
7940.71631 7.66322e-18
7942.22888 7.70977e-18
7943.73142 7.66064e-18
7945.23398 7.61142e-18
7946.74654 7.58731e-18
7948.24909 7.56322e-18
7949.76166 7.54867e-18
7951.26421 7.53413e-18
7952.76676 7.47377e-18
7954.27933 7.41339e-18
7955.78188 7.38674e-18
7957.28443 7.36013e-18
7958.79699 7.35277e-18
7960.29954 7.34544e-18
7961.81211 7.27866e-18
7963.31466 7.21184e-18
7964.81721 7.22277e-18
7966.32978 7.23376e-18
7967.83233 7.29796e-18
7969.34489 7.36220e-18
7970.84744 7.35181e-18
7972.34999 7.34135e-18
7973.86256 7.25628e-18
7975.36511 7.17116e-18
7976.86766 7.13263e-18
7978.38023 7.09414e-18
7979.88278 7.02638e-18
7981.39535 6.95861e-18
7982.89790 6.86299e-18
7984.40045 6.76735e-18
7985.91301 6.78743e-18
7987.41556 6.80759e-18
7988.92813 6.74656e-18
7990.43068 6.68547e-18
7991.93323 6.60070e-18
7993.44580 6.51592e-18
7994.94835 6.45727e-18
7996.45090 6.39865e-18
7997.96346 6.35000e-18
7999.46601 6.30137e-18
8000.97858 6.22609e-18
8002.48113 6.15080e-18
8003.98368 6.14529e-18
8005.49625 6.13983e-18
8006.99880 6.00763e-18
8008.51136 5.87533e-18
8010.01391 5.77205e-18
8011.51646 5.66879e-18
8013.02903 5.73380e-18
8014.53158 5.79894e-18
8016.04415 5.85887e-18
8017.54670 5.91879e-18
8019.04925 5.90458e-18
8020.56182 5.89031e-18
8022.06437 5.80715e-18
8023.56692 5.72394e-18
8025.07948 5.71749e-18
8026.58203 5.71109e-18
8028.09460 5.60040e-18
8029.59715 5.48962e-18
8031.09970 5.38723e-18
8032.61227 5.28484e-18
8034.11482 5.17346e-18
8035.61737 5.06208e-18
8037.12993 5.01538e-18
8038.63248 4.96874e-18
8040.14505 4.91952e-18
8041.64760 4.87030e-18
8043.15015 4.84791e-18
8044.66272 4.82554e-18
8046.16527 4.80715e-18
8047.67783 4.78877e-18
8049.18038 4.73111e-18
8050.68293 4.67343e-18
8052.19550 4.65426e-18
8053.69805 4.63512e-18
8055.21062 4.62438e-18
8056.71317 4.61365e-18
8058.21572 4.58745e-18
8059.72829 4.56124e-18
8061.23084 4.54750e-18
8062.73339 4.53378e-18
8064.24595 4.50306e-18
8065.74850 4.47233e-18
8067.26107 4.55651e-18
8068.76362 4.64078e-18
8070.26617 4.63654e-18
8071.77874 4.63223e-18
8073.28129 4.66382e-18
8074.79385 4.69545e-18
8076.29640 4.74131e-18
8077.79895 4.78718e-18
8079.31152 4.73703e-18
8080.81407 4.68680e-18
8082.31662 4.63932e-18
8083.82919 4.59185e-18
8085.33174 4.57557e-18
8086.84430 4.55933e-18
8088.34685 4.46227e-18
8089.84940 4.36515e-18
8091.36197 4.28655e-18
8092.86452 4.20798e-18
8094.37709 4.27087e-18
8095.87964 4.33387e-18
8097.38219 4.26705e-18
8098.89476 4.20013e-18
8100.39730 4.12117e-18
8101.89985 4.04221e-18
8103.41242 3.96169e-18
8104.91497 3.88118e-18
8106.42754 3.81153e-18
8107.93009 3.74188e-18
8109.43264 3.73070e-18
8110.94521 3.71957e-18
8112.44776 3.70807e-18
8113.96032 3.69657e-18
8115.46287 3.68399e-18
8116.96542 3.67141e-18
8118.47799 3.69311e-18
8119.98054 3.71484e-18
8121.49311 3.78704e-18
8122.99566 3.85928e-18
8124.49821 3.95003e-18
8126.01077 4.04080e-18
8127.51332 3.96018e-18
8129.01587 3.87942e-18
8130.52844 3.89856e-18
8132.03099 3.91779e-18
8133.54356 3.95762e-18
8135.04611 3.99747e-18
8136.54866 3.95238e-18
8138.06123 3.90723e-18
8139.56378 3.85998e-18
8141.06633 3.81274e-18
8142.57889 3.76923e-18
8144.08144 3.72572e-18
8145.59401 3.65103e-18
8147.09656 3.57632e-18
8148.59911 3.51562e-18
8150.11168 3.45494e-18
8151.61423 3.40825e-18
8153.12679 3.36157e-18
8154.62934 3.28138e-18
8156.13189 3.20117e-18
8157.64446 3.13670e-18
8159.14701 3.07224e-18
8160.65958 3.03230e-18
8162.16213 2.99239e-18
8163.66468 2.94497e-18
8165.17724 2.89756e-18
8166.67979 2.92569e-18
8168.18234 2.95389e-18
8169.69491 2.94466e-18
8171.19746 2.93540e-18
8172.71003 2.80737e-18
8174.21258 2.67925e-18
8175.71513 2.69334e-18
8177.22770 2.70756e-18
8178.73025 2.75683e-18
8180.24281 2.80612e-18
8181.74536 2.81319e-18
8183.24791 2.82022e-18
8184.76048 2.93291e-18
8186.26303 3.04568e-18
8187.76558 3.12124e-18
8189.27815 3.19677e-18
8190.78070 3.18006e-18
8192.29326 3.16328e-18
8193.79581 3.26518e-18
8195.29836 3.36718e-18
8196.81093 3.46332e-18
8198.31348 3.55945e-18
8199.82605 3.55269e-18
8201.32860 3.54584e-18
8202.83115 3.52758e-18
8204.34371 3.50932e-18
8205.84626 3.52577e-18
8207.34881 3.54224e-18
8208.86138 3.51293e-18
8210.36393 3.48359e-18
8211.87650 3.44051e-18
8213.37905 3.39743e-18
8214.88160 3.38299e-18
8216.39417 3.36857e-18
8217.89672 3.28601e-18
8219.40928 3.20340e-18
8220.91183 3.06263e-18
8222.41438 2.92183e-18
8223.92695 2.87420e-18
8225.42950 2.82665e-18
8226.94207 2.79975e-18
8228.44462 2.77287e-18
8229.94717 2.72543e-18
8231.45973 2.67797e-18
8232.96228 2.68630e-18
8234.47485 2.69468e-18
8235.97740 2.78253e-18
8237.47995 2.87043e-18
8238.99252 2.90955e-18
8240.49507 2.94861e-18
8241.99762 3.03238e-18
8243.51018 3.11618e-18
8245.01273 3.17684e-18
8246.52530 3.23747e-18
8248.02785 3.26744e-18
8249.53040 3.29738e-18
8251.04297 3.33141e-18
8252.54552 3.36545e-18
8254.04807 3.39602e-18
8255.56063 3.42659e-18
8257.06318 3.54506e-18
8258.57575 3.66360e-18
8260.07830 3.63065e-18
8261.58085 3.59758e-18
8263.09342 3.66698e-18
8264.59597 3.73648e-18
8266.10854 3.71529e-18
8267.61109 3.69403e-18
8269.11364 3.60354e-18
8270.62620 3.51300e-18
8272.12875 3.50993e-18
8273.63130 3.50693e-18
8275.14387 3.45860e-18
8276.64642 3.41024e-18
8278.15899 3.30257e-18
8279.66154 3.19487e-18
8281.16409 3.20249e-18
8282.67665 3.21020e-18
8284.17920 3.27746e-18
8285.69177 3.34476e-18
8287.19432 3.34382e-18
8288.69687 3.34282e-18
8290.20944 3.34809e-18
8291.71199 3.35337e-18
8293.22456 3.35516e-18
8294.72710 3.35696e-18
8296.22965 3.43846e-18
8297.74222 3.52002e-18
8299.24477 3.53204e-18
8300.74732 3.54400e-18
8302.25989 3.58870e-18
8303.76244 3.63342e-18
8305.27501 3.73708e-18
8306.77756 3.84079e-18
8308.28011 3.94193e-18
8309.79267 4.04307e-18
8311.29522 4.05048e-18
8312.80779 4.05781e-18
8314.31034 4.08622e-18
8315.81289 4.11465e-18
8317.32546 4.20141e-18
8318.82801 4.28821e-18
8320.33056 4.24702e-18
8321.84312 4.20572e-18
8323.34567 4.15226e-18
8324.85824 4.09879e-18
8326.36079 4.14509e-18
8327.86334 4.19148e-18
8329.37591 4.19188e-18
8330.87846 4.19223e-18
8332.39103 4.07753e-18
8333.89358 3.96274e-18
8335.39613 3.89940e-18
8336.90869 3.83611e-18
8338.41124 3.82575e-18
8339.91379 3.81544e-18
8341.42636 3.85107e-18
8342.92891 3.88675e-18
8344.44148 3.98403e-18
8345.94403 4.08135e-18
8347.44658 4.15105e-18
8348.95914 4.22072e-18
8350.46169 4.22827e-18
8351.97426 4.23576e-18
8353.47681 4.30887e-18
8354.97936 4.38203e-18
8356.49193 4.50339e-18
8357.99448 4.62478e-18
8359.49703 4.61438e-18
8361.00959 4.60387e-18
8362.51214 4.65297e-18
8364.02471 4.70212e-18
8365.52726 4.75475e-18
8367.02981 4.80738e-18
8368.54238 4.80602e-18
8370.04493 4.80461e-18
8371.55750 4.81864e-18
8373.06005 4.83268e-18
8374.56260 4.78338e-18
8376.07516 4.73403e-18
8377.57771 4.64043e-18
8379.09028 4.54680e-18
8380.59283 4.52317e-18
8382.09538 4.49960e-18
8383.60795 4.55920e-18
8385.11050 4.61886e-18
8386.61305 4.67857e-18
8388.12561 4.73827e-18
8389.62816 4.71425e-18
8391.14073 4.69015e-18
8392.64328 4.77819e-18
8394.14583 4.86633e-18
8395.65840 4.98130e-18
8397.16095 5.09629e-18
8398.67351 5.17896e-18
8400.17606 5.26161e-18
8401.67861 5.31990e-18
8403.19118 5.37817e-18
8404.69373 5.45611e-18
8406.19628 5.53406e-18
8407.70885 5.51399e-18
8409.21140 5.49384e-18
8410.72397 5.49998e-18
8412.22652 5.50615e-18
8413.72907 5.56693e-18
8415.24163 5.62776e-18
8416.74418 5.60817e-18
8418.25675 5.58852e-18
8419.75930 5.59069e-18
8421.26185 5.59287e-18
8422.77442 5.49779e-18
8424.27697 5.40263e-18
8425.77952 5.53391e-18
8427.29208 5.66539e-18
8428.79463 5.79032e-18
8430.30720 5.91524e-18
8431.80975 5.88561e-18
8433.31230 5.85584e-18
8434.82487 5.85922e-18
8436.32742 5.86263e-18
8437.83998 5.88593e-18
8439.34253 5.90926e-18
8440.84508 5.89646e-18
8442.35765 5.88363e-18
8443.86020 5.87515e-18
8445.37277 5.86668e-18
8446.87532 5.92692e-18
8448.37787 5.98723e-18
8449.89043 6.08729e-18
8451.39299 6.18738e-18
8452.89553 6.24288e-18
8454.40810 6.29834e-18
8455.91065 6.41116e-18
8457.42322 6.52401e-18
8458.92577 6.57041e-18
8460.42832 6.61675e-18
8461.94089 6.69816e-18
8463.44344 6.77960e-18
8464.94599 6.76953e-18
8466.45855 6.75938e-18
8467.96110 6.71572e-18
8469.47367 6.67203e-18
8470.97622 6.70376e-18
8472.47877 6.73555e-18
8473.99134 6.69252e-18
8475.49389 6.64944e-18
8477.00645 6.60408e-18
8478.50900 6.55872e-18
8480.01155 6.64713e-18
8481.52412 6.73565e-18
8483.02667 6.75860e-18
8484.52922 6.78150e-18
8486.04179 6.78267e-18
8487.54434 6.78381e-18
8489.05690 6.84857e-18
8490.55946 6.91338e-18
8492.06200 6.96026e-18
8493.57457 7.00711e-18
8495.07712 7.04303e-18
8496.58969 7.07893e-18
8498.09224 7.15836e-18
8499.59479 7.23783e-18
8501.10736 7.34587e-18
8502.60991 7.45392e-18
8504.12247 7.46907e-18
8505.62502 7.48413e-18
8507.12757 7.51336e-18
8508.64014 7.54260e-18
8510.14269 7.63255e-18
8511.64524 7.72254e-18
8513.15781 7.70653e-18
8514.66036 7.69043e-18
8516.17292 7.62961e-18
8517.67547 7.56876e-18
8519.17802 7.52263e-18
8520.69059 7.47652e-18
8522.19314 7.42134e-18
8523.70571 7.36616e-18
8525.20826 7.33725e-18
8526.71081 7.30837e-18
8528.22337 7.39441e-18
8529.72593 7.48055e-18
8531.22847 7.54248e-18
8532.74104 7.60438e-18
8534.24359 7.56528e-18
8535.75616 7.52609e-18
8537.25871 7.56494e-18
8538.76126 7.60386e-18
8540.27383 7.71243e-18
8541.77638 7.82105e-18
8543.28894 7.82738e-18
8544.79149 7.83362e-18
8546.29404 7.86224e-18
8547.80661 7.89089e-18
8549.30916 8.02684e-18
8550.81171 8.16288e-18
8552.32428 8.17087e-18
8553.82683 8.17874e-18
8555.33939 8.24469e-18
8556.84194 8.31068e-18
8558.34449 8.34811e-18
8559.85706 8.38551e-18
8561.35961 8.26717e-18
8562.87218 8.14869e-18
8564.37473 8.05804e-18
8565.87728 7.96741e-18
8567.38985 7.96750e-18
8568.89240 7.96767e-18
8570.39495 7.90316e-18
8571.90751 7.83860e-18
8573.41006 7.81447e-18
8574.92263 7.79038e-18
8576.42518 7.88719e-18
8577.92773 7.98411e-18
8579.44030 7.95760e-18
8580.94285 7.93099e-18
8582.45541 7.88661e-18
8583.95796 7.84222e-18
8585.46051 7.87030e-18
8586.97308 7.89845e-18
8588.47563 7.87750e-18
8589.98820 7.85651e-18
8591.49075 7.96113e-18
8592.99330 8.06587e-18
8594.50586 8.21054e-18
8596.00841 8.35523e-18
8597.51096 8.36066e-18
8599.02353 8.36595e-18
8600.52608 8.33431e-18
8602.03865 8.30265e-18
8603.54120 8.41895e-18
8605.04375 8.53538e-18
8606.55632 8.60701e-18
8608.05887 8.67859e-18
8609.57143 8.58092e-18
8611.07398 8.48310e-18
8612.57653 8.47837e-18
8614.08910 8.47372e-18
8615.59165 8.35972e-18
8617.09420 8.24562e-18
8618.60677 8.28135e-18
8620.10932 8.31722e-18
8621.62188 8.20037e-18
8623.12443 8.08339e-18
8624.62698 8.07079e-18
8626.13955 8.05830e-18
8627.64210 8.20937e-18
8629.15467 8.36058e-18
8630.65722 8.36426e-18
8632.15977 8.36780e-18
8633.67233 8.29578e-18
8635.17488 8.22368e-18
8636.67743 8.14553e-18
8638.19000 8.06738e-18
8639.69255 8.01910e-18
8641.20512 7.97086e-18
8642.70767 8.10365e-18
8644.21022 8.23660e-18
8645.72278 8.17560e-18
8647.22533 8.11442e-18
8648.73790 8.21740e-18
8650.24045 8.32052e-18
8651.74300 8.29998e-18
8653.25557 8.27932e-18
8654.75812 8.31338e-18
8656.27069 8.34748e-18
8657.77324 8.40606e-18
8659.27579 8.46466e-18
8660.78835 8.67584e-18
8662.29090 8.88714e-18
8663.79345 8.88474e-18
8665.30602 8.88214e-18
8666.80857 8.62148e-18
8668.32114 8.36060e-18
8669.82369 8.28196e-18
8671.32624 8.20350e-18
8672.83880 8.19919e-18
8674.34135 8.19495e-18
8675.84390 8.12523e-18
8677.35647 8.05547e-18
8678.85902 7.88034e-18
8680.37159 7.70513e-18
8681.87414 7.67058e-18
8683.37669 7.63618e-18
8684.88926 7.57188e-18
8686.39180 7.50757e-18
8687.90437 7.54636e-18
8689.40692 7.58525e-18
8690.90947 7.59057e-18
8692.42204 7.59586e-18
8693.92459 7.48932e-18
8695.42714 7.38268e-18
8696.93971 7.34282e-18
8698.44226 7.30302e-18
8699.95482 7.32059e-18
8701.45737 7.33822e-18
8702.95992 7.31226e-18
8704.47249 7.28627e-18
8705.97504 7.32138e-18
8707.48761 7.35654e-18
8708.99016 7.43941e-18
8710.49271 7.52231e-18
8712.00527 7.57869e-18
8713.50782 7.63504e-18
8715.02039 7.66586e-18
8716.52294 7.69665e-18
8718.02549 7.72700e-18
8719.53806 7.75735e-18
8721.04061 7.66541e-18
8722.54316 7.57335e-18
8724.05573 7.54132e-18
8725.55827 7.50934e-18
8727.07084 7.61074e-18
8728.57339 7.71227e-18
8730.07594 7.66583e-18
8731.58851 7.61926e-18
8733.09106 7.41111e-18
8734.60363 7.20281e-18
8736.10618 7.07931e-18
8737.60873 6.95589e-18
8739.12129 6.85822e-18
8740.62384 6.76057e-18
8742.12639 6.76870e-18
8743.63896 6.77694e-18
8745.14151 6.67208e-18
8746.65408 6.56712e-18
8748.15663 6.42718e-18
8749.65918 6.28721e-18
8751.17174 6.28604e-18
8752.67429 6.28500e-18
8754.18686 6.32789e-18
8755.68941 6.37082e-18
8757.19196 6.35328e-18
8758.70453 6.33569e-18
8760.20708 6.35823e-18
8761.70963 6.38082e-18
8763.22220 6.44073e-18
8764.72475 6.50067e-18
8766.23731 6.53133e-18
8767.73986 6.56195e-18
8769.24241 6.70880e-18
8770.75498 6.85575e-18
8772.25753 6.96556e-18
8773.77010 7.07532e-18
8775.27265 7.17700e-18
8776.77520 7.27866e-18
8778.28776 7.32942e-18
8779.79031 7.38012e-18
8781.29286 7.26450e-18
8782.80543 7.14873e-18
8784.30798 7.20925e-18
8785.82055 7.26993e-18
8787.32310 7.27833e-18
8788.82565 7.28668e-18
8790.33821 7.07014e-18
8791.84076 6.85340e-18
8793.35333 6.65144e-18
8794.85588 6.44951e-18
8796.35843 6.33839e-18
8797.87100 6.22737e-18
8799.37355 6.21481e-18
8800.88612 6.20235e-18
8802.38867 6.11536e-18
8803.89122 6.02831e-18
8805.40378 5.95021e-18
8806.90633 5.87211e-18
8808.40888 5.74568e-18
8809.92145 5.61921e-18
8811.42400 5.61309e-18
8812.93657 5.60707e-18
8814.43912 5.67578e-18
8815.94167 5.74455e-18
8817.45423 5.85662e-18
8818.95678 5.96873e-18
8820.46935 6.09613e-18
8821.97190 6.22353e-18
8823.47445 6.30011e-18
8824.98702 6.37663e-18
8826.48957 6.52576e-18
8827.99212 6.67495e-18
8829.50468 6.95380e-18
8831.00723 7.23276e-18
8832.51980 7.35696e-18
8834.02235 7.48101e-18
8835.52490 7.50287e-18
8837.03747 7.52463e-18
8838.54002 7.38596e-18
8840.05258 7.24715e-18
8841.55513 7.17511e-18
8843.05768 7.10314e-18
8844.57025 7.11069e-18
8846.07280 7.11832e-18
8847.57535 7.03411e-18
8849.08792 6.94982e-18
8850.59047 6.86198e-18
8852.10304 6.77414e-18
8853.60559 6.73335e-18
8855.10814 6.69259e-18
8856.62070 6.54857e-18
8858.12325 6.40445e-18
8859.63582 6.29896e-18
8861.13837 6.19351e-18
8862.64092 6.25940e-18
8864.15349 6.32545e-18
8865.65604 6.22335e-18
8867.16860 6.12109e-18
8868.67115 6.20202e-18
8870.17370 6.28313e-18
8871.68627 6.43173e-18
8873.18882 6.58038e-18
8874.69137 6.69463e-18
8876.20394 6.80884e-18
8877.70649 6.99252e-18
8879.21905 7.17627e-18
8880.72161 7.34355e-18
8882.22415 7.51080e-18
8883.73672 7.70838e-18
8885.23927 7.90598e-18
8886.75184 8.04553e-18
8888.25439 8.18502e-18
8889.75694 8.08986e-18
8891.26951 7.99447e-18
8892.77206 8.07476e-18
8894.27461 8.15521e-18
8895.78717 8.14056e-18
8897.28972 8.12581e-18
8898.80229 7.94529e-18
8900.30484 7.76463e-18
8901.80739 7.69469e-18
8903.31996 7.62486e-18
8904.82251 7.60893e-18
8906.32506 7.59305e-18
8907.83762 7.52024e-18
8909.34017 7.44737e-18
8910.85274 7.34424e-18
8912.35529 7.24110e-18
8913.85784 7.08784e-18
8915.37041 6.93454e-18
8916.87296 6.81336e-18
8918.38552 6.69223e-18
8919.88808 6.67587e-18
8921.39062 6.65961e-18
8922.90319 6.59430e-18
8924.40574 6.52895e-18
8925.91831 6.57809e-18
8927.42086 6.62734e-18
8928.92341 6.68764e-18
8930.43598 6.74794e-18
8931.93853 6.77469e-18
8933.44108 6.80141e-18
8934.95364 6.89495e-18
8936.45619 6.98856e-18
8937.96876 7.05574e-18
8939.47131 7.12290e-18
8940.97386 7.36578e-18
8942.48643 7.60883e-18
8943.98898 7.70495e-18
8945.50154 7.80092e-18
8947.00409 7.76787e-18
8948.50664 7.73470e-18
8950.01921 7.97047e-18
8951.52176 8.20650e-18
8953.02431 8.12003e-18
8954.53688 8.03325e-18
8956.03943 8.05993e-18
8957.55199 8.08671e-18
8959.05455 7.78364e-18
8960.55710 7.48026e-18
8962.06966 7.52686e-18
8963.57221 7.57381e-18
8965.08478 7.54104e-18
8966.58733 7.50820e-18
8968.08988 7.10558e-18
8969.60245 6.70262e-18
8971.10500 6.53822e-18
8972.60755 6.37406e-18
8974.12011 6.38030e-18
8975.62266 6.38671e-18
8977.13523 6.11720e-18
8978.63778 5.84743e-18
8980.14033 5.66550e-18
8981.65290 5.48367e-18
8983.15545 5.56484e-18
8984.66801 5.64626e-18
8986.17056 5.62856e-18
8987.67311 5.61077e-18
8989.18568 5.67864e-18
8990.68823 5.74658e-18
8992.19078 5.94010e-18
8993.70335 6.13373e-18
8995.20590 6.50349e-18
8996.71847 6.87341e-18
8998.22102 7.02465e-18
8999.72357 7.17567e-18
9001.23613 7.38918e-18
9002.73868 7.60274e-18
9004.25125 7.76386e-18
9005.75380 7.92491e-18
9007.25635 7.86832e-18
9008.76892 7.81152e-18
9010.27147 7.93235e-18
9011.78403 8.05336e-18
9013.28658 8.05231e-18
9014.78913 8.05114e-18
9016.30170 7.87134e-18
9017.80425 7.69138e-18
9019.30680 7.69973e-18
9020.81937 7.70828e-18
9022.32192 7.74826e-18
9023.83448 7.78828e-18
9025.33703 7.67591e-18
9026.83958 7.56338e-18
9028.35215 7.45205e-18
9029.85470 7.34072e-18
9031.36727 7.33915e-18
9032.86982 7.33769e-18
9034.37237 7.29249e-18
9035.88494 7.24725e-18
9037.38748 7.20985e-18
9038.89004 7.17246e-18
9040.40260 7.17327e-18
9041.90515 7.17413e-18
9043.41772 7.06030e-18
9044.92027 6.94636e-18
9046.42282 7.06688e-18
9047.93539 7.18763e-18
9049.43794 7.09996e-18
9050.95050 7.01209e-18
9052.45305 7.05869e-18
9053.95560 7.10543e-18
9055.46817 7.22974e-18
9056.97072 7.35412e-18
9058.47327 7.33638e-18
9059.98584 7.31850e-18
9061.48839 7.48077e-18
9063.00095 7.64322e-18
9064.50350 7.89460e-18
9066.00605 8.14606e-18
9067.51862 8.25527e-18
9069.02117 8.36434e-18
9070.53374 8.49037e-18
9072.03629 8.61641e-18
9073.53884 8.72012e-18
9075.05141 8.82380e-18
9076.55395 8.98801e-18
9078.06652 9.15229e-18
9079.56907 9.17760e-18
9081.07162 9.20276e-18
9082.58419 9.30341e-18
9084.08674 9.40413e-18
9085.58929 9.21361e-18
9087.10186 9.02280e-18
9088.60441 8.64970e-18
9090.11697 8.27644e-18
9091.61952 8.20534e-18
9093.12207 8.13492e-18
9094.63464 8.09017e-18
9096.13719 8.04546e-18
9097.64976 7.84199e-18
9099.15231 7.63837e-18
9100.65486 7.63621e-18
9102.16742 7.63424e-18
9103.66997 7.72787e-18
9105.17252 7.82159e-18
9106.68509 7.97425e-18
9108.18764 8.12696e-18
9109.99753 8.12696e-18
9112.00457 7.61492e-18
9114.00142 7.56907e-18
9115.99826 8.11668e-18
9117.99511 8.57254e-18
9120.00215 8.74085e-18
9121.99900 8.80745e-18
9123.99584 8.93492e-18
9126.00288 9.08993e-18
9127.99973 9.15566e-18
9129.99658 9.07895e-18
9132.00361 9.11514e-18
9134.00046 9.43193e-18
9135.99731 9.70942e-18
9138.00434 9.44119e-18
9140.00119 8.68730e-18
9141.99804 8.30536e-18
9143.99489 7.82729e-18
9146.00192 7.84494e-18
9147.99877 8.58827e-18
9149.99562 9.41934e-18
9152.00266 9.77182e-18
9153.99950 9.91025e-18
9155.99635 9.80642e-18
9158.00339 9.27433e-18
9160.00024 8.93241e-18
9161.99708 8.65194e-18
9164.00412 8.46765e-18
9166.00097 8.41126e-18
9167.99782 8.46595e-18
9170.00485 8.67104e-18
9172.00170 9.11632e-18
9173.99855 9.46010e-18
9175.99540 9.92922e-18
9178.00243 1.01560e-17
9179.99928 9.93598e-18
9181.99613 9.46246e-18
9184.00316 9.16061e-18
9186.00001 8.75610e-18
9187.99686 8.67318e-18
9190.00390 9.04415e-18
9192.00074 9.13995e-18
9193.99759 8.70862e-18
9196.00463 8.13846e-18
9198.00148 8.00134e-18
9199.99832 8.14567e-18
9201.99517 8.19602e-18
9204.00221 8.23019e-18
9205.99906 8.36505e-18
9207.99590 8.62296e-18
9210.00294 8.94189e-18
9211.99979 9.32400e-18
9213.99664 9.87443e-18
9216.00367 9.75728e-18
9218.00052 8.65230e-18
9219.99737 8.40237e-18
9222.00440 9.14074e-18
9224.00125 9.89660e-18
9225.99810 9.96202e-18
9227.99495 9.66675e-18
9230.00198 9.80074e-18
9231.99883 1.02671e-17
9233.99568 1.05026e-17
9236.00272 1.06968e-17
9237.99956 1.06931e-17
9239.99641 1.03009e-17
9242.00345 9.68849e-18
9244.00030 9.54371e-18
9245.99714 9.89851e-18
9248.00418 9.80336e-18
9250.00103 9.44579e-18
9251.99788 9.07263e-18
9254.00491 8.67372e-18
9256.00176 8.29842e-18
9257.99861 8.20797e-18
9259.99546 8.48195e-18
9262.00249 8.35241e-18
9263.99934 7.84181e-18
9265.99619 7.56898e-18
9268.00322 7.62782e-18
9270.00007 7.80804e-18
9271.99692 7.92836e-18
9274.00396 8.11079e-18
9276.00080 8.07317e-18
9277.99765 7.65437e-18
9279.99450 7.62154e-18
9282.00154 8.05376e-18
9283.99838 8.57169e-18
9285.99523 8.86849e-18
9288.00227 9.07164e-18
9289.99912 9.42174e-18
9291.99596 1.02166e-17
9294.00300 1.02491e-17
9295.99985 8.99048e-18
9297.99670 8.34134e-18
9300.00373 9.67192e-18
9302.00058 1.21388e-17
9303.99743 1.30612e-17
9306.00446 1.41673e-17
9308.00131 1.28651e-17
9309.99816 7.76652e-18
9312.00520 4.42278e-18
9314.00204 5.16209e-18
9315.99889 7.75690e-18
9317.99574 8.51044e-18
9320.00278 8.38526e-18
9321.99962 9.01380e-18
9323.99647 1.00285e-17
9326.00351 1.10742e-17
9328.00036 1.24398e-17
9329.99720 1.35880e-17
9332.00424 1.33471e-17
9334.00109 1.17897e-17
9335.99794 1.10030e-17
9337.99478 1.01529e-17
9340.00182 9.77083e-18
9341.99867 1.02152e-17
9343.99552 1.06311e-17
9346.00255 9.99694e-18
9347.99940 8.57311e-18
9349.99625 8.13921e-18
9352.00328 8.28770e-18
9354.00013 8.46193e-18
9355.99698 8.73230e-18
9358.00402 9.15206e-18
9360.00086 9.81253e-18
9361.99771 1.06757e-17
9364.00475 1.11315e-17
9366.00160 1.13545e-17
9367.99844 1.14632e-17
9369.99529 1.11475e-17
9372.00233 1.11376e-17
9373.99918 1.19869e-17
9375.99602 1.31952e-17
9378.00306 1.32331e-17
9379.99991 1.25077e-17
9381.99676 1.15500e-17
9384.00379 9.41067e-18
9386.00064 8.28362e-18
9387.99749 9.08219e-18
9390.00452 1.05405e-17
9392.00137 1.05349e-17
9393.99822 9.58169e-18
9395.99507 9.10427e-18
9398.00210 8.47884e-18
9399.99895 8.24431e-18
9401.99580 8.69894e-18
9404.00284 9.20017e-18
9405.99968 8.89959e-18
9407.99653 8.00885e-18
9410.00357 7.56647e-18
9412.00042 7.22597e-18
9413.99726 7.02254e-18
9416.00430 6.89138e-18
9418.00115 6.96986e-18
9419.99800 7.46385e-18
9421.99484 8.32285e-18
9424.00188 8.67750e-18
9425.99873 8.63306e-18
9427.99558 8.79643e-18
9430.00261 8.89501e-18
9431.99946 9.29145e-18
9433.99631 1.01415e-17
9436.00334 1.13630e-17
9438.00019 1.31317e-17
9439.99704 1.70169e-17
9442.00408 1.75583e-17
9444.00092 1.52558e-17
9445.99777 1.28552e-17
9448.00481 1.07084e-17
9450.00166 8.74263e-18
9451.99850 8.40490e-18
9453.99535 1.00990e-17
9456.00239 1.00263e-17
9457.99924 8.96764e-18
9459.99608 7.99347e-18
9462.00312 7.08670e-18
9463.99997 6.28512e-18
9465.99682 5.84916e-18
9468.00385 5.51480e-18
9470.00070 6.15100e-18
9471.99755 8.14418e-18
9474.00458 9.49824e-18
9476.00143 1.04855e-17
9477.99828 1.09303e-17
9479.99513 1.02849e-17
9482.00216 8.58696e-18
9483.99901 8.06405e-18
9485.99586 8.36433e-18
9488.00290 8.26700e-18
9489.99974 7.82071e-18
9491.99659 7.44084e-18
9494.00363 7.27602e-18
9496.00048 7.24834e-18
9497.99732 7.82684e-18
9500.00436 9.18685e-18
9502.00121 1.02126e-17
9503.99806 1.15501e-17
9505.99490 1.22404e-17
9508.00194 1.18101e-17
9509.99879 1.06670e-17
9511.99564 9.55586e-18
9514.00267 7.66249e-18
9515.99952 6.92456e-18
9517.99637 6.95089e-18
9520.00340 7.21518e-18
9522.00025 7.71572e-18
9523.99710 8.41225e-18
9526.00414 9.10695e-18
9528.00098 1.02272e-17
9529.99783 1.01210e-17
9532.00487 8.55596e-18
9534.00172 7.73946e-18
9535.99856 8.07472e-18
9537.99541 8.47021e-18
9540.00245 7.59459e-18
9541.99930 5.51778e-18
9543.99614 6.11158e-18
9546.00318 9.44123e-18
9548.00003 1.14013e-17
9549.99688 1.26041e-17
9552.00391 1.30311e-17
9554.00076 1.23358e-17
9555.99761 1.06442e-17
9557.99446 9.13318e-18
9560.00149 6.16637e-18
9561.99834 5.73929e-18
9563.99519 7.98818e-18
9566.00222 1.02929e-17
9567.99907 1.17761e-17
9569.99592 1.28910e-17
9572.00296 1.24713e-17
9573.99980 1.00149e-17
9575.99665 8.63136e-18
9578.00369 7.40215e-18
9580.00054 6.38628e-18
9581.99738 5.43174e-18
9584.00442 4.78390e-18
9586.00127 5.19023e-18
9587.99812 6.89958e-18
9590.00515 7.67142e-18
9592.00200 8.10185e-18
9593.99885 8.44989e-18
9595.99570 8.69215e-18
9598.00273 8.86608e-18
9599.99958 9.07891e-18
9601.99643 9.28710e-18
9604.00346 9.48159e-18
9606.00031 9.91361e-18
9607.99716 9.82789e-18
9610.00420 9.21838e-18
9612.00104 8.28638e-18
9613.99789 6.87405e-18
9615.99474 4.81685e-18
9618.00178 5.10841e-18
9619.99862 8.51089e-18
9621.99547 9.41639e-18
9624.00251 8.15341e-18
9625.99936 6.58428e-18
9627.99620 5.35549e-18
9630.00324 4.14532e-18
9632.00009 4.56377e-18
9633.99694 7.09396e-18
9636.00397 8.25453e-18
9638.00082 9.05536e-18
9639.99767 9.24483e-18
9642.00470 8.36106e-18
9644.00155 6.97192e-18
9645.99840 6.89471e-18
9647.99525 7.91076e-18
9650.00228 8.28720e-18
9651.99913 8.70102e-18
9653.99598 8.71286e-18
9656.00302 8.12810e-18
9657.99986 7.27230e-18
9659.99671 6.59236e-18
9662.00375 5.68255e-18
9664.00060 5.67807e-18
9665.99744 6.71095e-18
9668.00448 7.32582e-18
9670.00133 7.53142e-18
9671.99818 7.53652e-18
9673.99502 7.39483e-18
9676.00206 7.05189e-18
9677.99891 6.76790e-18
9679.99576 6.10106e-18
9682.00279 6.16500e-18
9683.99964 7.36949e-18
9685.99649 8.31780e-18
9688.00352 7.91618e-18
9690.00037 6.69071e-18
9691.99722 6.18216e-18
9694.00426 5.88013e-18
9696.00110 5.71804e-18
9697.99795 5.77177e-18
9699.99480 5.88593e-18
9702.00184 5.96379e-18
9703.99868 6.08403e-18
9705.99553 6.44726e-18
9708.00257 7.19552e-18
9709.99942 7.59224e-18
9711.99626 7.83038e-18
9714.00330 7.97926e-18
9716.00015 7.97570e-18
9717.99700 7.93071e-18
9720.00403 8.16720e-18
9722.00088 8.76265e-18
9723.99773 8.82311e-18
9726.00476 8.68163e-18
9728.00161 8.17035e-18
9729.99846 6.97639e-18
9731.99531 5.73365e-18
9734.00234 5.28869e-18
9735.99919 5.26439e-18
9737.99604 5.76421e-18
9740.00308 7.15839e-18
9741.99992 8.20955e-18
9743.99677 9.19206e-18
9746.00381 9.83994e-18
9748.00066 9.78849e-18
9749.99750 9.17339e-18
9751.99435 8.62205e-18
9754.00139 7.65930e-18
9755.99824 7.12955e-18
9757.99508 6.76463e-18
9760.00212 6.79900e-18
9761.99897 7.64457e-18
9763.99582 8.99136e-18
9766.00285 9.02683e-18
9767.99970 7.92285e-18
9769.99655 7.25840e-18
9772.00358 6.16059e-18
9774.00043 5.81360e-18
9775.99728 7.00354e-18
9778.00432 8.80518e-18
9780.00116 9.02254e-18
9781.99801 7.91687e-18
9784.00505 7.72474e-18
9786.00190 8.20693e-18
9787.99874 8.11060e-18
9789.99559 7.02961e-18
9792.00263 5.69362e-18
9793.99948 5.00341e-18
9795.99632 4.36114e-18
9798.00336 4.99944e-18
9800.00021 7.81749e-18
9801.99706 8.93995e-18
9804.00409 8.02093e-18
9806.00094 6.56430e-18
9807.99779 5.64606e-18
9809.99464 4.64219e-18
9812.00167 4.87201e-18
9813.99852 6.97027e-18
9815.99537 7.56596e-18
9818.00240 6.83075e-18
9819.99925 5.77418e-18
9821.99610 4.66890e-18
9824.00314 3.36436e-18
9825.99998 3.70701e-18
9827.99683 6.21721e-18
9830.00387 7.07896e-18
9832.00072 6.95575e-18
9833.99756 6.58009e-18
9836.00460 5.98034e-18
9838.00145 5.24614e-18
9839.99830 5.41870e-18
9841.99514 6.55892e-18
9844.00218 7.08691e-18
9845.99903 7.44293e-18
9847.99588 7.71277e-18
9850.00291 7.96104e-18
9851.99976 8.08612e-18
9853.99661 7.86219e-18
9856.00364 7.15942e-18
9858.00049 6.99541e-18
9859.99734 7.22932e-18
9862.00438 7.34534e-18
9864.00122 7.44815e-18
9865.99807 7.37723e-18
9868.00511 6.79358e-18
9870.00196 5.71786e-18
9871.99880 5.06920e-18
9873.99565 4.23611e-18
9876.00269 4.18749e-18
9877.99954 5.30651e-18
9879.99638 6.38876e-18
9882.00342 6.46989e-18
9884.00027 5.98830e-18
9885.99712 5.74742e-18
9888.00415 5.18893e-18
9890.00100 5.23259e-18
9891.99785 6.33614e-18
9893.99470 6.83005e-18
9896.00173 5.53870e-18
9897.99858 3.32450e-18
9899.99543 2.87642e-18
9902.00246 3.71105e-18
9903.99931 4.20385e-18
9905.99616 5.05388e-18
9908.00320 5.61748e-18
9910.00004 5.62569e-18
9911.99689 5.38817e-18
9914.00393 5.41858e-18
9916.00078 5.40286e-18
9917.99762 5.81930e-18
9920.00466 7.06472e-18
9922.00151 7.57376e-18
9923.99836 7.00477e-18
9925.99520 6.03721e-18
9928.00224 5.32634e-18
9929.99909 4.29831e-18
9931.99594 4.70567e-18
9934.00297 6.78690e-18
9935.99982 8.12694e-18
9937.99667 9.05509e-18
9940.00370 9.40983e-18
9942.00055 8.51479e-18
9943.99740 6.37735e-18
9946.00444 6.58426e-18
9948.00128 9.38017e-18
9949.99813 1.01970e-17
9951.99498 9.24681e-18
9954.00202 8.12002e-18
9955.99886 7.62979e-18
9957.99571 7.32923e-18
9960.00275 6.96696e-18
9961.99960 5.99343e-18
9963.99644 6.51686e-18
9966.00348 9.73450e-18
9968.00033 1.10358e-17
9969.99718 7.90076e-18
9972.00421 2.78925e-18
9974.00106 1.20473e-18
9975.99791 1.81540e-18
9978.00494 1.95592e-18
9980.00179 2.55836e-18
9981.99864 3.25124e-18
9983.99549 4.03545e-18
9986.00252 4.88617e-18
9987.99937 5.65807e-18
9989.99622 6.48178e-18
9992.00326 7.00196e-18
9994.00010 7.34646e-18
9995.99695 7.46559e-18
9998.00399 7.20983e-18
10000.00084 6.89958e-18
