# wavelength flux
3200.99245 1.47877e-17
3202.31470 1.46746e-17
3203.63694 1.45614e-17
3204.94917 1.55675e-17
3206.27141 1.65734e-17
3207.59366 1.65552e-17
3208.90588 1.65370e-17
3210.22813 1.63583e-17
3211.54035 1.61797e-17
3212.86260 1.65659e-17
3214.18484 1.69521e-17
3215.49707 1.70374e-17
3216.81931 1.71228e-17
3218.13154 1.68717e-17
3219.45378 1.66207e-17
3220.77603 1.62314e-17
3222.08825 1.58422e-17
3223.41050 1.59368e-17
3224.72273 1.60315e-17
3226.04497 1.60406e-17
3227.36721 1.60497e-17
3228.67944 1.55985e-17
3230.00168 1.51473e-17
3231.31391 1.53308e-17
3232.63616 1.55143e-17
3233.95840 1.58725e-17
3235.27063 1.62306e-17
3236.59287 1.57634e-17
3237.90510 1.52964e-17
3239.22734 1.55792e-17
3240.54959 1.58621e-17
3241.86181 1.59309e-17
3243.18406 1.59998e-17
3244.49628 1.56843e-17
3245.81853 1.53689e-17
3247.14077 1.51586e-17
3248.45300 1.49484e-17
3249.77524 1.50189e-17
3251.08747 1.50894e-17
3252.40971 1.51373e-17
3253.73196 1.51851e-17
3255.04418 1.48485e-17
3256.36643 1.45120e-17
3257.67866 1.39804e-17
3259.00090 1.34490e-17
3260.32314 1.33213e-17
3261.63537 1.31936e-17
3262.95761 1.34671e-17
3264.26984 1.37404e-17
3265.59209 1.36504e-17
3266.91433 1.35603e-17
3268.22656 1.35327e-17
3269.54880 1.35051e-17
3270.86103 1.37942e-17
3272.18327 1.40832e-17
3273.50551 1.41179e-17
3274.81774 1.41526e-17
3276.13999 1.41905e-17
3277.46223 1.42283e-17
3278.77446 1.40026e-17
3280.09670 1.37768e-17
3281.40893 1.31204e-17
3282.73117 1.24641e-17
3284.05342 1.23757e-17
3285.36564 1.22872e-17
3286.68789 1.29055e-17
3288.00011 1.35236e-17
3289.32236 1.39594e-17
3290.64460 1.43952e-17
3291.95683 1.43504e-17
3293.27907 1.43057e-17
3294.59130 1.40678e-17
3295.91354 1.38300e-17
3297.23579 1.38821e-17
3298.54801 1.39342e-17
3299.87026 1.42884e-17
3301.18249 1.46426e-17
3302.50473 1.47283e-17
3303.82697 1.48139e-17
3305.13920 1.46969e-17
3306.46144 1.45799e-17
3307.77367 1.42930e-17
3309.09592 1.40061e-17
3310.41816 1.38856e-17
3311.73039 1.37652e-17
3313.05263 1.41433e-17
3314.36486 1.45212e-17
3315.68710 1.48763e-17
3317.00935 1.52313e-17
3318.32157 1.50217e-17
3319.64382 1.48121e-17
3320.95604 1.47743e-17
3322.27829 1.47366e-17
3323.60053 1.51143e-17
3324.91276 1.54920e-17
3326.23500 1.55407e-17
3327.54723 1.55894e-17
3328.86947 1.55055e-17
3330.19172 1.54216e-17
3331.50394 1.55068e-17
3332.82619 1.55920e-17
3334.13842 1.56401e-17
3335.46066 1.56882e-17
3336.78290 1.56619e-17
3338.09513 1.56356e-17
3339.41737 1.59344e-17
3340.72960 1.62331e-17
3342.05185 1.60945e-17
3343.37409 1.59560e-17
3344.68632 1.58369e-17
3346.00856 1.57179e-17
3347.33081 1.58410e-17
3348.64303 1.59641e-17
3349.96528 1.58593e-17
3351.27750 1.57546e-17
3352.59975 1.57865e-17
3353.92199 1.58185e-17
3355.23422 1.56073e-17
3356.55646 1.53962e-17
3357.86869 1.54854e-17
3359.19093 1.55745e-17
3360.51318 1.59633e-17
3361.82540 1.63520e-17
3363.14765 1.62495e-17
3364.45988 1.61469e-17
3365.78212 1.61227e-17
3367.10436 1.60985e-17
3368.41659 1.65302e-17
3369.73883 1.69617e-17
3371.05106 1.70788e-17
3372.37331 1.71958e-17
3373.69555 1.69686e-17
3375.00778 1.67416e-17
3376.33002 1.66786e-17
3377.64225 1.66156e-17
3378.96449 1.68140e-17
3380.28674 1.70124e-17
3381.59896 1.72348e-17
3382.92121 1.74571e-17
3384.23343 1.72349e-17
3385.55568 1.70128e-17
3386.87792 1.70560e-17
3388.19015 1.70993e-17
3389.51239 1.72879e-17
3390.82462 1.74764e-17
3392.14686 1.74535e-17
3393.46911 1.74306e-17
3394.78133 1.75705e-17
3396.10358 1.77103e-17
3397.41581 1.79020e-17
3398.73805 1.80936e-17
3400.06029 1.80997e-17
3401.37252 1.81059e-17
3402.69476 1.80611e-17
3404.00699 1.80163e-17
3405.32924 1.81415e-17
3406.65148 1.82665e-17
3407.96371 1.83184e-17
3409.28595 1.83703e-17
3410.59818 1.83048e-17
3411.92042 1.82392e-17
3413.24266 1.82182e-17
3414.55489 1.81971e-17
3415.87714 1.82923e-17
3417.19938 1.83874e-17
3418.51161 1.84664e-17
3419.83385 1.85453e-17
3421.14608 1.84807e-17
3422.46832 1.84162e-17
3423.79057 1.83874e-17
3425.10279 1.83585e-17
3426.42504 1.85007e-17
3427.73726 1.86428e-17
3429.05951 1.88463e-17
3430.38175 1.90497e-17
3431.69398 1.88744e-17
3433.01622 1.86991e-17
3434.32845 1.86658e-17
3435.65069 1.86325e-17
3436.97294 1.89420e-17
3438.28516 1.92514e-17
3439.60741 1.93520e-17
3440.91964 1.94527e-17
3442.24188 1.93768e-17
3443.56412 1.93011e-17
3444.87635 1.92780e-17
3446.19859 1.92550e-17
3447.51082 1.94123e-17
3448.83307 1.95695e-17
3450.15531 1.96941e-17
3451.46754 1.98187e-17
3452.78978 1.96625e-17
3454.10201 1.95064e-17
3455.42425 1.95563e-17
3456.74650 1.96062e-17
3458.05872 1.97628e-17
3459.38097 1.99193e-17
3460.69319 1.97650e-17
3462.01544 1.96107e-17
3463.33768 1.94009e-17
3464.64991 1.91911e-17
3465.97215 1.93868e-17
3467.28438 1.95824e-17
3468.60662 1.96928e-17
3469.92887 1.98032e-17
3471.24109 1.97189e-17
3472.56334 1.96347e-17
3473.87557 1.96911e-17
3475.19781 1.97474e-17
3476.52005 1.97775e-17
3477.83228 1.98076e-17
3479.15452 1.97476e-17
3480.46675 1.96877e-17
3481.78900 1.96093e-17
3483.11124 1.95310e-17
3484.42347 1.94554e-17
3485.74571 1.93799e-17
3487.06796 1.93003e-17
3488.38018 1.92208e-17
3489.70243 1.93464e-17
3491.01465 1.94720e-17
3492.33690 1.96076e-17
3493.65914 1.97432e-17
3494.97137 1.95841e-17
3496.29361 1.94251e-17
3497.60584 1.91863e-17
3498.92808 1.89476e-17
3500.25033 1.87478e-17
3501.56255 1.85480e-17
3502.88480 1.84769e-17
3504.19702 1.84057e-17
3505.51927 1.84514e-17
3506.84151 1.84972e-17
3508.15374 1.85866e-17
3509.47598 1.86760e-17
3510.78821 1.86622e-17
3512.11046 1.86483e-17
3513.43270 1.85846e-17
3514.74493 1.85209e-17
3516.06717 1.85541e-17
3517.37940 1.85872e-17
3518.70164 1.86719e-17
3520.02389 1.87565e-17
3521.33611 1.87004e-17
3522.65836 1.86443e-17
3523.97058 1.84992e-17
3525.29283 1.83542e-17
3526.61507 1.83671e-17
3527.92730 1.83801e-17
3529.24954 1.84486e-17
3530.56177 1.85171e-17
3531.88401 1.83973e-17
3533.20626 1.82776e-17
3534.51848 1.81136e-17
3535.84073 1.79497e-17
3537.15296 1.80335e-17
3538.47520 1.81173e-17
3539.79744 1.82045e-17
3541.10967 1.82917e-17
3542.43191 1.83481e-17
3543.74414 1.84045e-17
3545.06639 1.83883e-17
3546.38863 1.83721e-17
3547.70086 1.84041e-17
3549.02310 1.84360e-17
3550.33533 1.84841e-17
3551.65757 1.85322e-17
3552.97982 1.85923e-17
3554.29204 1.86525e-17
3555.61429 1.85828e-17
3556.93653 1.85131e-17
3558.24876 1.85644e-17
3559.57100 1.86158e-17
3560.88323 1.87688e-17
3562.20547 1.89218e-17
3563.52772 1.90133e-17
3564.83994 1.91047e-17
3566.16219 1.90485e-17
3567.47441 1.89924e-17
3568.79666 1.90252e-17
3570.11890 1.90580e-17
3571.43113 1.90966e-17
3572.75337 1.91352e-17
3574.06560 1.90633e-17
3575.38784 1.89914e-17
3576.71009 1.89375e-17
3578.02232 1.88837e-17
3579.34456 1.87950e-17
3580.65679 1.87063e-17
3581.97903 1.87004e-17
3583.30127 1.86945e-17
3584.61350 1.86840e-17
3585.93575 1.86736e-17
3587.24797 1.86427e-17
3588.57022 1.86117e-17
3589.89246 1.86016e-17
3591.20469 1.85915e-17
3592.52693 1.86051e-17
3593.83916 1.86187e-17
3595.16140 1.87137e-17
3596.48365 1.88086e-17
3597.79587 1.88265e-17
3599.11812 1.88443e-17
3600.43034 1.88824e-17
3601.75259 1.89206e-17
3603.07483 1.89808e-17
3604.38706 1.90409e-17
3605.70930 1.87703e-17
3607.02153 1.84997e-17
3608.34377 1.84136e-17
3609.66602 1.83275e-17
3610.97825 1.85036e-17
3612.30049 1.86797e-17
3613.61272 1.87531e-17
3614.93496 1.88265e-17
3616.25720 1.87728e-17
3617.56943 1.87192e-17
3618.89168 1.88130e-17
3620.20390 1.89068e-17
3621.52615 1.90174e-17
3622.84839 1.91280e-17
3624.16062 1.91176e-17
3625.48286 1.91072e-17
3626.80511 1.91291e-17
3628.11733 1.91510e-17
3629.43958 1.92367e-17
3630.75180 1.93223e-17
3632.07405 1.93300e-17
3633.39629 1.93376e-17
3634.70852 1.93422e-17
3636.03076 1.93468e-17
3637.34299 1.94695e-17
3638.66523 1.95923e-17
3639.98748 1.96627e-17
3641.29970 1.97331e-17
3642.62195 1.97761e-17
3643.93418 1.98191e-17
3645.25642 1.97966e-17
3646.57866 1.97741e-17
3647.89089 1.97101e-17
3649.21313 1.96461e-17
3650.52536 1.96452e-17
3651.84761 1.96442e-17
3653.16985 1.97051e-17
3654.48208 1.97659e-17
3655.80432 1.97728e-17
3657.11655 1.97797e-17
3658.43879 1.96712e-17
3659.76104 1.95628e-17
3661.07326 1.93398e-17
3662.39551 1.91168e-17
3663.70773 1.89188e-17
3665.02998 1.87208e-17
3666.35222 1.86550e-17
3667.66445 1.85891e-17
3668.98669 1.85129e-17
3670.29892 1.84367e-17
3671.62116 1.82721e-17
3672.94341 1.81076e-17
3674.25563 1.79471e-17
3675.57788 1.77867e-17
3676.89011 1.76443e-17
3678.21235 1.75019e-17
3679.53459 1.73689e-17
3680.84682 1.72359e-17
3682.16906 1.71302e-17
3683.48129 1.70244e-17
3684.80354 1.68650e-17
3686.12578 1.67057e-17
3687.43801 1.65368e-17
3688.76025 1.63680e-17
3690.08249 1.62749e-17
3691.39472 1.61818e-17
3692.71697 1.60327e-17
3694.02919 1.58836e-17
3695.35144 1.57080e-17
3696.67368 1.55324e-17
3697.98591 1.54978e-17
3699.30815 1.54633e-17
3700.62038 1.55633e-17
3701.94262 1.56634e-17
3703.26487 1.56953e-17
3704.57709 1.57273e-17
3705.89934 1.55942e-17
3707.21156 1.54612e-17
3708.53381 1.53773e-17
3709.85605 1.52934e-17
3711.16828 1.52822e-17
3712.49052 1.52709e-17
3713.80275 1.52774e-17
3715.12499 1.52515e-17
3716.44724 1.52257e-17
3717.75947 1.51968e-17
3719.08171 1.51680e-17
3720.39394 1.51392e-17
3721.71618 1.51104e-17
3723.03842 1.50815e-17
3724.35065 1.50527e-17
3725.67290 1.50239e-17
3726.98512 1.49951e-17
3728.30737 1.49664e-17
3729.62961 1.49376e-17
3730.94184 1.49088e-17
3732.26408 1.48800e-17
3733.57631 1.48513e-17
3734.89855 1.48225e-17
3736.22080 1.47938e-17
3737.53302 1.47651e-17
3738.85527 1.47363e-17
3740.16749 1.47076e-17
3741.48974 1.46789e-17
3742.81198 1.46502e-17
3744.12421 1.46215e-17
3745.44645 1.45928e-17
3746.75868 1.45641e-17
3748.08092 1.45355e-17
3749.40317 1.45068e-17
3750.71540 1.44781e-17
3752.03764 1.44495e-17
3753.34987 1.44208e-17
3754.67211 1.44100e-17
3755.99435 1.43605e-17
3757.30658 1.43110e-17
3758.62883 1.42015e-17
3759.94105 1.40921e-17
3761.26330 1.41188e-17
3762.58554 1.41454e-17
3763.89777 1.42112e-17
3765.22001 1.42770e-17
3766.54226 1.42519e-17
3767.85448 1.42269e-17
3769.17673 1.41344e-17
3770.48895 1.40419e-17
3771.81120 1.40328e-17
3773.13344 1.40237e-17
3774.44567 1.40974e-17
3775.76791 1.41710e-17
3777.08014 1.41726e-17
3778.40238 1.41742e-17
3779.72463 1.41843e-17
3781.03685 1.41943e-17
3782.35910 1.41542e-17
3783.67133 1.41140e-17
3784.99357 1.40941e-17
3786.31581 1.40741e-17
3787.62804 1.40841e-17
3788.95028 1.40941e-17
3790.26251 1.40952e-17
3791.58476 1.40964e-17
3792.90700 1.41039e-17
3794.21923 1.41115e-17
3795.54147 1.41133e-17
3796.85370 1.41151e-17
3798.17594 1.40742e-17
3799.49819 1.40333e-17
3800.81041 1.40068e-17
3802.13266 1.39804e-17
3803.44488 1.40572e-17
3804.76713 1.41340e-17
3806.08937 1.41576e-17
3807.40160 1.41813e-17
3808.72384 1.42124e-17
3810.03607 1.42435e-17
3811.35831 1.42491e-17
3812.68056 1.42547e-17
3813.99278 1.42948e-17
3815.31503 1.43349e-17
3816.62726 1.44207e-17
3817.94950 1.45065e-17
3819.27174 1.46008e-17
3820.58397 1.46951e-17
3821.90621 1.48764e-17
3823.21844 1.50578e-17
3824.54069 1.52657e-17
3825.86293 1.54737e-17
3827.17516 1.56264e-17
3828.49740 1.57790e-17
3829.80963 1.58710e-17
3831.13187 1.59629e-17
3832.45412 1.60660e-17
3833.76634 1.61690e-17
3835.08859 1.62213e-17
3836.41083 1.62736e-17
3837.72306 1.64583e-17
3839.04530 1.66430e-17
3840.35753 1.69459e-17
3841.67977 1.72487e-17
3843.00202 1.74345e-17
3844.31424 1.76203e-17
3845.63649 1.77864e-17
3846.94871 1.79524e-17
3848.27096 1.82005e-17
3849.59320 1.84486e-17
3850.90543 1.86779e-17
3852.22767 1.89073e-17
3853.53990 1.90935e-17
3854.86214 1.92797e-17
3856.18439 1.95474e-17
3857.49662 1.98152e-17
3858.81886 2.00648e-17
3860.13109 2.03143e-17
3861.45333 2.04834e-17
3862.77557 2.06525e-17
3864.08780 2.08682e-17
3865.41005 2.10840e-17
3866.72227 2.13050e-17
3868.04452 2.15261e-17
3869.36676 2.17995e-17
3870.67899 2.20729e-17
3872.00123 2.23122e-17
3873.31346 2.25513e-17
3874.63570 2.27203e-17
3875.95795 2.28893e-17
3877.27017 2.30667e-17
3878.59242 2.32440e-17
3879.90464 2.34851e-17
3881.22689 2.37263e-17
3882.54913 2.39911e-17
3883.86136 2.42559e-17
3885.18360 2.44084e-17
3886.49583 2.45608e-17
3887.81807 2.47181e-17
3889.14032 2.48753e-17
3890.45255 2.51602e-17
3891.77479 2.54450e-17
3893.09703 2.56955e-17
3894.40926 2.59460e-17
3895.73150 2.60708e-17
3897.04373 2.61956e-17
3898.36598 2.63005e-17
3899.68822 2.64054e-17
3901.00045 2.64904e-17
3902.32269 2.65754e-17
3903.63492 2.66673e-17
3904.95716 2.67591e-17
3906.27941 2.69654e-17
3907.59163 2.71717e-17
3908.91388 2.73589e-17
3910.22610 2.75462e-17
3911.54835 2.75693e-17
3912.87059 2.75924e-17
3914.18282 2.77596e-17
3915.50506 2.79268e-17
3916.81729 2.80431e-17
3918.13953 2.81594e-17
3919.46178 2.80269e-17
3920.77400 2.78945e-17
3922.09625 2.77677e-17
3923.40848 2.76409e-17
3924.73072 2.77674e-17
3926.05296 2.78938e-17
3927.36519 2.78323e-17
3928.68743 2.77707e-17
3929.99966 2.76377e-17
3931.32191 2.75048e-17
3932.64415 2.75164e-17
3933.95638 2.75281e-17
3935.27862 2.76234e-17
3936.59085 2.77188e-17
3937.91309 2.77621e-17
3939.23534 2.78053e-17
3940.54756 2.76999e-17
3941.86981 2.75945e-17
3943.18203 2.76289e-17
3944.50428 2.76634e-17
3945.82652 2.78689e-17
3947.13875 2.80744e-17
3948.46099 2.82151e-17
3949.77322 2.83558e-17
3951.09546 2.84238e-17
3952.41771 2.84918e-17
3953.72993 2.86032e-17
3955.05218 2.87145e-17
3956.36441 2.87998e-17
3957.68665 2.88850e-17
3959.00889 2.88169e-17
3960.32112 2.87488e-17
3961.64336 2.86006e-17
3962.95559 2.84523e-17
3964.27784 2.82661e-17
3965.60008 2.80798e-17
3966.91231 2.79484e-17
3968.23455 2.78170e-17
3969.55679 2.77170e-17
3970.86902 2.76170e-17
3972.19126 2.75802e-17
3973.50349 2.75434e-17
3974.82574 2.75827e-17
3976.14798 2.76220e-17
3977.46021 2.76561e-17
3978.78245 2.76902e-17
3980.09468 2.76775e-17
3981.41692 2.76648e-17
3982.73917 2.76114e-17
3984.05139 2.75581e-17
3985.37364 2.75953e-17
3986.68586 2.76326e-17
3988.00811 2.75383e-17
3989.33035 2.74440e-17
3990.64258 2.72725e-17
3991.96482 2.71011e-17
3993.27705 2.70689e-17
3994.59929 2.70368e-17
3995.92154 2.70501e-17
3997.23376 2.70635e-17
3998.55601 2.69891e-17
3999.86824 2.69147e-17
4001.19048 2.68872e-17
4002.51272 2.68597e-17
4003.82495 2.68578e-17
4005.14720 2.68560e-17
4006.45942 2.67565e-17
4007.78167 2.66571e-17
4009.10391 2.64255e-17
4010.41614 2.61939e-17
4011.73838 2.60060e-17
4013.05061 2.58181e-17
4014.37285 2.57574e-17
4015.69510 2.56968e-17
4017.00732 2.56418e-17
4018.32957 2.55868e-17
4019.64179 2.55656e-17
4020.96404 2.55443e-17
4022.28628 2.52915e-17
4023.59851 2.50388e-17
4024.92075 2.47865e-17
4026.23298 2.45342e-17
4027.55522 2.44112e-17
4028.87747 2.42881e-17
4030.18970 2.41967e-17
4031.51194 2.41053e-17
4032.82417 2.40380e-17
4034.14641 2.39707e-17
4035.46865 2.38963e-17
4036.78088 2.38219e-17
4038.10313 2.37885e-17
4039.41535 2.37551e-17
4040.73760 2.36778e-17
4042.05984 2.36005e-17
4043.37207 2.35174e-17
4044.69431 2.34345e-17
4046.01656 2.33872e-17
4047.32878 2.33400e-17
4048.65103 2.32268e-17
4049.96325 2.31136e-17
4051.28550 2.31049e-17
4052.60774 2.30963e-17
4053.91997 2.30302e-17
4055.24221 2.29641e-17
4056.55444 2.29460e-17
4057.87668 2.29279e-17
4059.19893 2.30461e-17
4060.51115 2.31642e-17
4061.83340 2.31436e-17
4063.14563 2.31229e-17
4064.46787 2.30401e-17
4065.79011 2.29573e-17
4067.10234 2.28544e-17
4068.42458 2.27516e-17
4069.73681 2.26688e-17
4071.05906 2.25860e-17
4072.38130 2.25368e-17
4073.69353 2.24875e-17
4075.01577 2.23119e-17
4076.32800 2.21362e-17
4077.65024 2.20392e-17
4078.97249 2.19423e-17
4080.28471 2.19783e-17
4081.60696 2.20143e-17
4082.91918 2.19950e-17
4084.24143 2.19756e-17
4085.56367 2.18861e-17
4086.87590 2.17966e-17
4088.19814 2.17093e-17
4089.51037 2.16219e-17
4090.83261 2.15866e-17
4092.15486 2.15513e-17
4093.46708 2.14779e-17
4094.78933 2.14046e-17
4096.11157 2.14044e-17
4097.42380 2.14042e-17
4098.74604 2.14907e-17
4100.05827 2.15771e-17
4101.38051 2.15512e-17
4102.69274 2.15252e-17
4104.01499 2.15026e-17
4105.33723 2.14800e-17
4106.64946 2.14902e-17
4107.97170 2.15003e-17
4109.29394 2.14027e-17
4110.60617 2.13052e-17
4111.92842 2.12783e-17
4113.24064 2.12515e-17
4114.56289 2.13119e-17
4115.88513 2.13723e-17
4117.19736 2.13583e-17
4118.51960 2.13443e-17
4119.83183 2.14154e-17
4121.15407 2.14865e-17
4122.47632 2.15118e-17
4123.78854 2.15371e-17
4125.11079 2.14061e-17
4126.42301 2.12752e-17
4127.74526 2.11989e-17
4129.06750 2.11226e-17
4130.37973 2.11511e-17
4131.70197 2.11795e-17
4133.01420 2.10801e-17
4134.33644 2.09806e-17
4135.65869 2.08011e-17
4136.97091 2.06215e-17
4138.29316 2.05371e-17
4139.60539 2.04527e-17
4140.92763 2.03809e-17
4142.24987 2.03092e-17
4143.56210 2.03082e-17
4144.88435 2.03073e-17
4146.19657 2.02404e-17
4147.51882 2.01734e-17
4148.84106 2.00031e-17
4150.15329 1.98329e-17
4151.47553 1.97505e-17
4152.78776 1.96682e-17
4154.11000 1.96274e-17
4155.43225 1.95867e-17
4156.74447 1.95086e-17
4158.06672 1.94306e-17
4159.37894 1.94429e-17
4160.70119 1.94552e-17
4162.02343 1.94709e-17
4163.33566 1.94866e-17
4164.65790 1.95210e-17
4165.97013 1.95554e-17
4167.29237 1.96577e-17
4168.61462 1.97600e-17
4169.92685 1.98571e-17
4171.24909 1.99542e-17
4172.57133 2.00164e-17
4173.88356 2.00785e-17
4175.20580 2.01931e-17
4176.51803 2.03077e-17
4177.84028 2.04059e-17
4179.16252 2.05040e-17
4180.47475 2.05045e-17
4181.79699 2.05050e-17
4183.10922 2.05800e-17
4184.43146 2.06550e-17
4185.75371 2.07830e-17
4187.06593 2.09110e-17
4188.38818 2.09362e-17
4189.70040 2.09614e-17
4191.02265 2.10219e-17
4192.34489 2.10824e-17
4193.65712 2.11799e-17
4194.97936 2.12774e-17
4196.29159 2.13423e-17
4197.61383 2.14072e-17
4198.93608 2.14503e-17
4200.24830 2.14934e-17
4201.57055 2.14875e-17
4202.88278 2.14816e-17
4204.20502 2.14859e-17
4205.52726 2.14902e-17
4206.83949 2.14514e-17
4208.16173 2.14126e-17
4209.47396 2.13942e-17
4210.79620 2.13758e-17
4212.11845 2.13599e-17
4213.43068 2.13441e-17
4214.75292 2.13131e-17
4216.06515 2.12821e-17
4217.38739 2.12887e-17
4218.70964 2.12953e-17
4220.02186 2.12870e-17
4221.34411 2.12788e-17
4222.65633 2.12525e-17
4223.97858 2.12262e-17
4225.30082 2.12140e-17
4226.61305 2.12018e-17
4227.93529 2.11306e-17
4229.24752 2.10595e-17
4230.56976 2.09685e-17
4231.89201 2.08775e-17
4233.20423 2.08965e-17
4234.52648 2.09155e-17
4235.83871 2.09755e-17
4237.16095 2.10354e-17
4238.48319 2.10321e-17
4239.79542 2.10289e-17
4241.11766 2.09521e-17
4242.43991 2.08753e-17
4243.75214 2.07873e-17
4245.07438 2.06992e-17
4246.38661 2.06124e-17
4247.70885 2.05256e-17
4249.02108 2.04683e-17
4250.34332 2.04110e-17
4251.66557 2.04534e-17
4252.97779 2.04958e-17
4254.30004 2.05133e-17
4255.62228 2.05309e-17
4256.93451 2.05361e-17
4258.25675 2.05413e-17
4259.56898 2.05598e-17
4260.89122 2.05781e-17
4262.21347 2.05382e-17
4263.52569 2.04982e-17
4264.84794 2.04857e-17
4266.16016 2.04733e-17
4267.48241 2.05450e-17
4268.80465 2.06168e-17
4270.11688 2.06629e-17
4271.43912 2.07090e-17
4272.75135 2.06484e-17
4274.07359 2.05877e-17
4275.39584 2.05583e-17
4276.70806 2.05290e-17
4278.03031 2.06205e-17
4279.34254 2.07120e-17
4280.66478 2.07616e-17
4281.98702 2.08111e-17
4283.29925 2.07894e-17
4284.62150 2.07677e-17
4285.93372 2.07637e-17
4287.25597 2.07598e-17
4288.57821 2.07758e-17
4289.89044 2.07917e-17
4291.21268 2.07720e-17
4292.52491 2.07523e-17
4293.84715 2.06917e-17
4295.16940 2.06311e-17
4296.48162 2.06136e-17
4297.80387 2.05961e-17
4299.11609 2.05898e-17
4300.43834 2.05835e-17
4301.76058 2.04791e-17
4303.07281 2.03747e-17
4304.39505 2.02217e-17
4305.70728 2.00688e-17
4307.02952 2.00172e-17
4308.35177 1.99656e-17
4309.66400 1.99621e-17
4310.98624 1.99586e-17
4312.30848 1.99555e-17
4313.62071 1.99524e-17
4314.94295 1.99100e-17
4316.25518 1.98675e-17
4317.57743 1.98004e-17
4318.88965 1.97333e-17
4320.21190 1.97060e-17
4321.53414 1.96786e-17
4322.84637 1.96487e-17
4324.16861 1.96187e-17
4325.49086 1.95187e-17
4326.80308 1.94186e-17
4328.12533 1.91915e-17
4329.43755 1.89644e-17
4330.75980 1.88250e-17
4332.08204 1.86858e-17
4333.39427 1.86872e-17
4334.71651 1.86885e-17
4336.02874 1.86397e-17
4337.35098 1.85908e-17
4338.67323 1.85182e-17
4339.98545 1.84456e-17
4341.30770 1.84601e-17
4342.61992 1.84746e-17
4343.94217 1.83910e-17
4345.26441 1.83073e-17
4346.57664 1.81204e-17
4347.89888 1.79335e-17
4349.21111 1.78648e-17
4350.53335 1.77962e-17
4351.85560 1.77675e-17
4353.16783 1.77508e-17
4354.49007 1.77341e-17
4355.80230 1.77174e-17
4357.12454 1.77007e-17
4358.44679 1.76840e-17
4359.75901 1.76673e-17
4361.08126 1.76506e-17
4362.39348 1.76339e-17
4363.71573 1.76172e-17
4365.03797 1.76005e-17
4366.35020 1.75838e-17
4367.67244 1.75671e-17
4368.98467 1.75504e-17
4370.30691 1.75337e-17
4371.62916 1.75170e-17
4372.94138 1.75003e-17
4374.26363 1.74837e-17
4375.58587 1.74670e-17
4376.89810 1.74503e-17
4378.22034 1.74336e-17
4379.53257 1.74169e-17
4380.85481 1.74002e-17
4382.16704 1.73836e-17
4383.48929 1.73669e-17
4384.81153 1.73502e-17
4386.12376 1.73335e-17
4387.44600 1.73169e-17
4388.76824 1.73002e-17
4390.08047 1.73636e-17
4391.40272 1.72895e-17
4392.71494 1.72153e-17
4394.03719 1.71916e-17
4395.35943 1.71680e-17
4396.67166 1.72881e-17
4397.99390 1.74082e-17
4399.30613 1.75165e-17
4400.62837 1.76247e-17
4401.95062 1.76140e-17
4403.26284 1.76034e-17
4404.58509 1.75323e-17
4405.89731 1.74612e-17
4407.21956 1.75010e-17
4408.54180 1.75408e-17
4409.85403 1.75703e-17
4411.17627 1.75998e-17
4412.48850 1.76202e-17
4413.81074 1.76407e-17
4415.13299 1.77216e-17
4416.44521 1.78024e-17
4417.76746 1.78664e-17
4419.07969 1.79305e-17
4420.40193 1.79303e-17
4421.72417 1.79302e-17
4423.03640 1.79300e-17
4424.35865 1.79298e-17
4425.67087 1.79955e-17
4426.99312 1.80613e-17
4428.31536 1.81545e-17
4429.62759 1.82477e-17
4430.94983 1.82981e-17
4432.26206 1.83485e-17
4433.58430 1.84069e-17
4434.90655 1.84653e-17
4436.21877 1.85356e-17
4437.54102 1.86058e-17
4438.85324 1.87028e-17
4440.17549 1.87998e-17
4441.49773 1.88838e-17
4442.80996 1.89678e-17
4444.13220 1.89913e-17
4445.45445 1.90148e-17
4446.76667 1.90938e-17
4448.08892 1.91728e-17
4449.40115 1.93306e-17
4450.72339 1.94884e-17
4452.03562 1.95711e-17
4453.35786 1.96538e-17
4454.68010 1.96890e-17
4455.99233 1.97241e-17
4457.31458 1.98492e-17
4458.63682 1.99742e-17
4459.94905 2.00706e-17
4461.27129 2.01671e-17
4462.58352 2.02140e-17
4463.90576 2.02609e-17
4465.22800 2.03512e-17
4466.54023 2.04415e-17
4467.86248 2.05632e-17
4469.17470 2.06850e-17
4470.49695 2.07581e-17
4471.81919 2.08312e-17
4473.13142 2.08543e-17
4474.45366 2.08774e-17
4475.76589 2.09403e-17
4477.08813 2.10033e-17
4478.41038 2.10705e-17
4479.72260 2.11378e-17
4481.04485 2.11518e-17
4482.35707 2.11659e-17
4483.67932 2.12075e-17
4485.00156 2.12491e-17
4486.31379 2.13262e-17
4487.63603 2.14034e-17
4488.94826 2.15238e-17
4490.27050 2.16442e-17
4491.59275 2.17858e-17
4492.90498 2.19273e-17
4494.22722 2.20205e-17
4495.53945 2.21137e-17
4496.86169 2.22379e-17
4498.18394 2.23621e-17
4499.49616 2.24955e-17
4500.81841 2.26289e-17
4502.13063 2.26375e-17
4503.45288 2.26460e-17
4504.77512 2.26281e-17
4506.08735 2.26103e-17
4507.40959 2.27613e-17
4508.72182 2.29123e-17
4510.04406 2.30778e-17
4511.36631 2.32431e-17
4512.67853 2.33125e-17
4514.00078 2.33819e-17
4515.32302 2.34334e-17
4516.63525 2.34849e-17
4517.95749 2.35926e-17
4519.26972 2.37002e-17
4520.59196 2.37940e-17
4521.90419 2.38878e-17
4523.22644 2.39792e-17
4524.54868 2.40706e-17
4525.86091 2.41831e-17
4527.18315 2.42956e-17
4528.50539 2.43961e-17
4529.81762 2.44965e-17
4531.13987 2.45805e-17
4532.45209 2.46644e-17
4533.77434 2.46740e-17
4535.09658 2.46837e-17
4536.40881 2.47529e-17
4537.73105 2.48221e-17
4539.04328 2.49129e-17
4540.36552 2.50037e-17
4541.68777 2.50337e-17
4542.99999 2.50637e-17
4544.32224 2.50827e-17
4545.63446 2.51019e-17
4546.95671 2.52728e-17
4548.27895 2.54436e-17
4549.59118 2.55261e-17
4550.91342 2.56085e-17
4552.22565 2.56248e-17
4553.54789 2.56412e-17
4554.87014 2.57260e-17
4556.18236 2.58108e-17
4557.50461 2.59015e-17
4558.81684 2.59921e-17
4560.13908 2.61139e-17
4561.46132 2.62355e-17
4562.77355 2.62295e-17
4564.09580 2.62233e-17
4565.40802 2.61023e-17
4566.73027 2.59814e-17
4568.05251 2.61414e-17
4569.36474 2.63013e-17
4570.68698 2.64110e-17
4571.99921 2.65206e-17
4573.32145 2.63693e-17
4574.64370 2.62180e-17
4575.95592 2.61169e-17
4577.27817 2.60160e-17
4578.60041 2.61497e-17
4579.91264 2.62833e-17
4581.23488 2.63771e-17
4582.54711 2.64708e-17
4583.86935 2.65139e-17
4585.18158 2.65571e-17
4586.50382 2.65223e-17
4587.82607 2.64874e-17
4589.13830 2.63184e-17
4590.46054 2.61493e-17
4591.78278 2.60636e-17
4593.09501 2.59780e-17
4594.41725 2.59910e-17
4595.72948 2.60039e-17
4597.05173 2.59316e-17
4598.37397 2.58593e-17
4599.68620 2.58636e-17
4601.00844 2.58679e-17
4602.32067 2.59634e-17
4603.64291 2.60589e-17
4604.96515 2.60234e-17
4606.27738 2.59879e-17
4607.59963 2.58076e-17
4608.91185 2.56273e-17
4610.23410 2.55728e-17
4611.55634 2.55182e-17
4612.86857 2.55490e-17
4614.19081 2.55798e-17
4615.50304 2.55591e-17
4616.82528 2.55385e-17
4618.14753 2.55038e-17
4619.45975 2.54690e-17
4620.78200 2.54749e-17
4622.09422 2.54808e-17
4623.41647 2.55135e-17
4624.73871 2.55461e-17
4626.05094 2.54736e-17
4627.37318 2.54010e-17
4628.68541 2.53919e-17
4630.00765 2.53827e-17
4631.32990 2.54677e-17
4632.64213 2.55526e-17
4633.96437 2.55045e-17
4635.27660 2.54564e-17
4636.59884 2.53433e-17
4637.92108 2.52301e-17
4639.23331 2.51961e-17
4640.55556 2.51621e-17
4641.86778 2.51434e-17
4643.19003 2.51246e-17
4644.51227 2.49011e-17
4645.82450 2.46778e-17
4647.14674 2.45710e-17
4648.46899 2.44644e-17
4649.78121 2.45367e-17
4651.10346 2.46089e-17
4652.41568 2.45560e-17
4653.73793 2.45032e-17
4655.05015 2.43550e-17
4656.37240 2.42070e-17
4657.69464 2.41362e-17
4659.00687 2.40655e-17
4660.32911 2.40245e-17
4661.65136 2.39835e-17
4662.96359 2.38494e-17
4664.28583 2.37153e-17
4665.59806 2.35837e-17
4666.92030 2.34521e-17
4668.24254 2.33461e-17
4669.55477 2.32400e-17
4670.87702 2.31039e-17
4672.18924 2.29678e-17
4673.51149 2.28808e-17
4674.83373 2.27938e-17
4676.14596 2.26792e-17
4677.46820 2.25647e-17
4678.78043 2.24163e-17
4680.10267 2.22680e-17
4681.42492 2.21879e-17
4682.73714 2.21078e-17
4684.05939 2.20068e-17
4685.37161 2.19058e-17
4686.69386 2.17596e-17
4688.01610 2.16135e-17
4689.32833 2.14983e-17
4690.65057 2.13831e-17
4691.96280 2.12889e-17
4693.28504 2.11947e-17
4694.60729 2.10674e-17
4695.91951 2.09402e-17
4697.24176 2.07408e-17
4698.55399 2.05414e-17
4699.87623 2.03596e-17
4701.19847 2.01778e-17
4702.51070 2.01290e-17
4703.83295 2.00803e-17
4705.14517 2.00650e-17
4706.46742 2.00498e-17
4707.78966 1.99663e-17
4709.10189 1.98828e-17
4710.42413 1.97365e-17
4711.73636 1.95901e-17
4713.05860 1.94896e-17
4714.38085 1.93891e-17
4715.69307 1.93223e-17
4717.01532 1.92555e-17
4718.32754 1.91056e-17
4719.64979 1.89558e-17
4720.97203 1.88330e-17
4722.28426 1.87101e-17
4723.60650 1.86528e-17
4724.91873 1.85955e-17
4726.24097 1.86098e-17
4727.56322 1.86241e-17
4728.87545 1.85410e-17
4730.19769 1.84578e-17
4731.51993 1.82748e-17
4732.83216 1.80919e-17
4734.15440 1.79676e-17
4735.46663 1.78433e-17
4736.78888 1.77321e-17
4738.11112 1.76209e-17
4739.42335 1.75377e-17
4740.74559 1.74544e-17
4742.05782 1.73685e-17
4743.38006 1.72826e-17
4744.70230 1.71428e-17
4746.01453 1.70031e-17
4747.33678 1.68483e-17
4748.64900 1.66935e-17
4749.97125 1.66571e-17
4751.29349 1.66207e-17
4752.60572 1.65671e-17
4753.92796 1.65135e-17
4755.24019 1.63898e-17
4756.56243 1.62661e-17
4757.88468 1.62240e-17
4759.19690 1.61819e-17
4760.51915 1.61125e-17
4761.83137 1.60431e-17
4763.15362 1.59772e-17
4764.47586 1.59113e-17
4765.78809 1.59265e-17
4767.11033 1.59417e-17
4768.42256 1.59388e-17
4769.74480 1.59360e-17
4771.06705 1.59238e-17
4772.37928 1.59116e-17
4773.70152 1.59580e-17
4775.01375 1.60044e-17
4776.33599 1.60710e-17
4777.65824 1.61376e-17
4778.97046 1.61632e-17
4780.29271 1.61888e-17
4781.61495 1.62493e-17
4782.92718 1.63097e-17
4784.24942 1.63269e-17
4785.56165 1.63441e-17
4786.88389 1.63532e-17
4788.19612 1.63623e-17
4789.51836 1.63627e-17
4790.84061 1.63630e-17
4792.15283 1.63586e-17
4793.47508 1.63541e-17
4794.79732 1.63914e-17
4796.10955 1.64287e-17
4797.43179 1.64587e-17
4798.74402 1.64887e-17
4800.06626 1.64916e-17
4801.38851 1.64945e-17
4802.70074 1.64562e-17
4804.02298 1.64179e-17
4805.33521 1.64567e-17
4806.65745 1.64955e-17
4807.97969 1.65257e-17
4809.29192 1.65559e-17
4810.61416 1.65092e-17
4811.92639 1.64625e-17
4813.24864 1.64108e-17
4814.57088 1.63590e-17
4815.88311 1.63128e-17
4817.20535 1.62666e-17
4818.51758 1.62214e-17
4819.83982 1.61761e-17
4821.16207 1.62309e-17
4822.47429 1.62857e-17
4823.79654 1.63342e-17
4825.10876 1.63826e-17
4826.43101 1.63325e-17
4827.75325 1.62823e-17
4829.06548 1.61895e-17
4830.38772 1.60967e-17
4831.69995 1.60646e-17
4833.02219 1.60325e-17
4834.34444 1.60505e-17
4835.65667 1.60685e-17
4836.97891 1.60552e-17
4838.29114 1.60418e-17
4839.61338 1.59734e-17
4840.93562 1.59051e-17
4842.24785 1.59023e-17
4843.57010 1.58995e-17
4844.88232 1.59048e-17
4846.20457 1.59101e-17
4847.52681 1.59200e-17
4848.83904 1.59299e-17
4850.16128 1.59655e-17
4851.48353 1.60011e-17
4852.79575 1.60551e-17
4854.11800 1.61091e-17
4855.43022 1.61631e-17
4856.75247 1.62170e-17
4858.06469 1.62710e-17
4859.38694 1.63249e-17
4860.70918 1.63789e-17
4862.02141 1.64328e-17
4863.34365 1.64867e-17
4864.66590 1.65407e-17
4865.97812 1.65946e-17
4867.30037 1.66485e-17
4868.61260 1.67024e-17
4869.93484 1.67562e-17
4871.25708 1.68101e-17
4872.56931 1.68640e-17
4873.89155 1.69178e-17
4875.20378 1.69717e-17
4876.52603 1.70255e-17
4877.84827 1.70794e-17
4879.16050 1.71332e-17
4880.48274 1.71870e-17
4881.79497 1.72408e-17
4883.11721 1.72947e-17
4884.43945 1.73484e-17
4885.75168 1.74022e-17
4887.07393 1.74560e-17
4888.38615 1.75098e-17
4889.70840 1.75607e-17
4891.03064 1.76116e-17
4892.34287 1.76615e-17
4893.66511 1.77113e-17
4894.97734 1.77348e-17
4896.29958 1.77583e-17
4897.62183 1.77612e-17
4898.93405 1.77641e-17
4900.25630 1.77281e-17
4901.56853 1.76921e-17
4902.89077 1.76558e-17
4904.21301 1.76196e-17
4905.52524 1.76184e-17
4906.84748 1.76172e-17
4908.15971 1.76192e-17
4909.48196 1.76213e-17
4910.80420 1.76318e-17
4912.11643 1.76424e-17
4913.43867 1.76978e-17
4914.75090 1.77531e-17
4916.07314 1.77849e-17
4917.39539 1.78167e-17
4918.70761 1.78239e-17
4920.02986 1.78312e-17
4921.34208 1.78192e-17
4922.66433 1.78072e-17
4923.98657 1.77559e-17
4925.29880 1.77047e-17
4926.62104 1.77174e-17
4927.93327 1.77301e-17
4929.25551 1.77411e-17
4930.57776 1.77522e-17
4931.88998 1.77098e-17
4933.21223 1.76673e-17
4934.53447 1.76848e-17
4935.84670 1.77022e-17
4937.16894 1.77412e-17
4938.48117 1.77801e-17
4939.80341 1.77445e-17
4941.12566 1.77089e-17
4942.43789 1.76770e-17
4943.76013 1.76451e-17
4945.07236 1.76365e-17
4946.39460 1.76280e-17
4947.71684 1.76028e-17
4949.02907 1.75775e-17
4950.35131 1.75157e-17
4951.66354 1.74539e-17
4952.98579 1.73921e-17
4954.30803 1.73304e-17
4955.62026 1.72686e-17
4956.94250 1.72069e-17
4958.25473 1.71451e-17
4959.57697 1.70834e-17
4960.89922 1.70216e-17
4962.21144 1.69599e-17
4963.53369 1.68982e-17
4964.84591 1.68365e-17
4966.16816 1.67748e-17
4967.49040 1.67132e-17
4968.80263 1.66515e-17
4970.12487 1.65898e-17
4971.43710 1.65282e-17
4972.75934 1.64665e-17
4974.08159 1.64049e-17
4975.39382 1.63433e-17
4976.71606 1.62817e-17
4978.02829 1.62201e-17
4979.35053 1.61585e-17
4980.67277 1.60969e-17
4981.98500 1.60353e-17
4983.30725 1.59737e-17
4984.62949 1.59122e-17
4985.94172 1.58506e-17
4987.26396 1.58397e-17
4988.57619 1.58287e-17
4989.89843 1.57787e-17
4991.21066 1.57286e-17
4992.53290 1.56954e-17
4993.85515 1.56622e-17
4995.16737 1.56608e-17
4996.48962 1.56594e-17
4997.81186 1.56894e-17
4999.12409 1.57194e-17
5000.44633 1.57494e-17
5001.75856 1.57794e-17
5003.08080 1.58093e-17
5004.40305 1.58393e-17
5005.71527 1.58693e-17
5007.03752 1.58993e-17
5008.34975 1.59292e-17
5009.67199 1.59592e-17
5010.99423 1.59891e-17
5012.30646 1.60191e-17
5013.62870 1.60490e-17
5014.94093 1.60790e-17
5016.26318 1.61089e-17
5017.58542 1.61388e-17
5018.89765 1.61688e-17
5020.21989 1.61987e-17
5021.53212 1.62286e-17
5022.85436 1.62585e-17
5024.17660 1.62884e-17
5025.48883 1.63184e-17
5026.81108 1.63483e-17
5028.12330 1.63782e-17
5029.44555 1.64081e-17
5030.76779 1.64379e-17
5032.08002 1.64678e-17
5033.40226 1.64977e-17
5034.71449 1.65370e-17
5036.03673 1.65762e-17
5037.35898 1.66196e-17
5038.67120 1.66630e-17
5039.99345 1.67128e-17
5041.30568 1.67627e-17
5042.62792 1.68063e-17
5043.95016 1.68499e-17
5045.26239 1.69235e-17
5046.58463 1.69971e-17
5047.89686 1.70657e-17
5049.21911 1.71342e-17
5050.54135 1.71594e-17
5051.85358 1.71846e-17
5053.17582 1.72233e-17
5054.48805 1.72620e-17
5055.81029 1.72958e-17
5057.13254 1.73295e-17
5058.44476 1.73528e-17
5059.76701 1.73761e-17
5061.07923 1.74056e-17
5062.40148 1.74350e-17
5063.72372 1.74227e-17
5065.03595 1.74103e-17
5066.35819 1.74143e-17
5067.68044 1.74183e-17
5068.99266 1.74912e-17
5070.31491 1.75640e-17
5071.62713 1.75859e-17
5072.94938 1.76079e-17
5074.27162 1.76038e-17
5075.58385 1.75998e-17
5076.90609 1.76535e-17
5078.21832 1.77071e-17
5079.54056 1.77569e-17
5080.86281 1.78068e-17
5082.17504 1.78054e-17
5083.49728 1.78040e-17
5084.80951 1.78001e-17
5086.13175 1.77963e-17
5087.45399 1.78269e-17
5088.76622 1.78576e-17
5090.08846 1.78808e-17
5091.40069 1.79039e-17
5092.72294 1.79099e-17
5094.04518 1.79159e-17
5095.35741 1.79066e-17
5096.67965 1.78974e-17
5097.99188 1.78923e-17
5099.31412 1.78872e-17
5100.63637 1.79055e-17
5101.94859 1.79238e-17
5103.27084 1.79368e-17
5104.58306 1.79498e-17
5105.90531 1.79437e-17
5107.22755 1.79375e-17
5108.53978 1.79187e-17
5109.86202 1.79000e-17
5111.17425 1.79007e-17
5112.49649 1.79014e-17
5113.81874 1.79363e-17
5115.13097 1.79712e-17
5116.45321 1.80267e-17
5117.76544 1.80822e-17
5119.08768 1.81182e-17
5120.40992 1.81542e-17
5121.72215 1.81629e-17
5123.04440 1.81717e-17
5124.35662 1.81588e-17
5125.67887 1.81460e-17
5127.00111 1.81544e-17
5128.31334 1.81629e-17
5129.63558 1.81825e-17
5130.94781 1.82022e-17
5132.27005 1.82340e-17
5133.59230 1.82658e-17
5134.90452 1.82653e-17
5136.22677 1.82648e-17
5137.54901 1.82607e-17
5138.86124 1.82565e-17
5140.18348 1.82907e-17
5141.49571 1.83248e-17
5142.81795 1.83529e-17
5144.14020 1.83810e-17
5145.45242 1.83806e-17
5146.77467 1.83803e-17
5148.08690 1.84065e-17
5149.40914 1.84327e-17
5150.73138 1.84818e-17
5152.04361 1.85309e-17
5153.36585 1.85718e-17
5154.67808 1.86127e-17
5156.00032 1.86362e-17
5157.32257 1.86598e-17
5158.63480 1.87140e-17
5159.95704 1.87683e-17
5161.26927 1.88482e-17
5162.59151 1.89280e-17
5163.91375 1.89714e-17
5165.22598 1.90148e-17
5166.54823 1.90474e-17
5167.86045 1.90800e-17
5169.18270 1.91662e-17
5170.50494 1.92523e-17
5171.81717 1.93241e-17
5173.13941 1.93957e-17
5174.45164 1.94233e-17
5175.77388 1.94509e-17
5177.09613 1.95331e-17
5178.40835 1.96153e-17
5179.73060 1.97141e-17
5181.04283 1.98129e-17
5182.36507 1.98660e-17
5183.68731 1.99191e-17
5184.99954 1.99383e-17
5186.32178 1.99575e-17
5187.63401 1.99854e-17
5188.95626 2.00132e-17
5190.27850 2.00252e-17
5191.59073 2.00371e-17
5192.91297 2.00004e-17
5194.22520 1.99637e-17
5195.54744 1.99860e-17
5196.86969 2.00084e-17
5198.18191 2.00834e-17
5199.50416 2.01585e-17
5200.82640 2.02151e-17
5202.13863 2.02718e-17
5203.46087 2.03253e-17
5204.77310 2.03788e-17
5206.09534 2.04091e-17
5207.41759 2.04394e-17
5208.72981 2.04695e-17
5210.05206 2.04997e-17
5211.36428 2.05440e-17
5212.68653 2.05884e-17
5214.00877 2.06348e-17
5215.32100 2.06812e-17
5216.64324 2.07413e-17
5217.95547 2.08014e-17
5219.27771 2.08757e-17
5220.59996 2.09500e-17
5221.91219 2.09667e-17
5223.23443 2.09833e-17
5224.54666 2.10004e-17
5225.86890 2.10176e-17
5227.19114 2.10631e-17
5228.50337 2.11086e-17
5229.82561 2.11446e-17
5231.13784 2.11806e-17
5232.46009 2.12211e-17
5233.78233 2.12616e-17
5235.09456 2.13252e-17
5236.41680 2.13887e-17
5237.72903 2.13693e-17
5239.05127 2.13499e-17
5240.37352 2.13614e-17
5241.68574 2.13730e-17
5243.00799 2.14000e-17
5244.32021 2.14269e-17
5245.64246 2.14251e-17
5246.96470 2.14234e-17
5248.27693 2.14229e-17
5249.59917 2.14226e-17
5250.91140 2.14409e-17
5252.23364 2.14593e-17
5253.55589 2.14871e-17
5254.86812 2.15150e-17
5256.19036 2.15230e-17
5257.50259 2.15311e-17
5258.82483 2.15343e-17
5260.14707 2.15376e-17
5261.45930 2.15595e-17
5262.78155 2.15815e-17
5264.09377 2.16013e-17
5265.41602 2.16210e-17
5266.73826 2.16160e-17
5268.05049 2.16110e-17
5269.37273 2.15717e-17
5270.69498 2.15323e-17
5272.00720 2.14749e-17
5273.32945 2.14175e-17
5274.64167 2.14200e-17
5275.96392 2.14225e-17
5277.27614 2.14633e-17
5278.59839 2.15041e-17
5279.92063 2.14971e-17
5281.23286 2.14900e-17
5282.55510 2.14574e-17
5283.87735 2.14247e-17
5285.18957 2.14044e-17
5286.51182 2.13841e-17
5287.82405 2.14125e-17
5289.14629 2.14409e-17
5290.46853 2.14703e-17
5291.78076 2.14997e-17
5293.10300 2.14553e-17
5294.41523 2.14109e-17
5295.73747 2.13500e-17
5297.05972 2.12892e-17
5298.37195 2.12485e-17
5299.69419 2.12079e-17
5301.00642 2.11988e-17
5302.32866 2.11897e-17
5303.65090 2.11764e-17
5304.96313 2.11630e-17
5306.28538 2.10954e-17
5307.59760 2.10278e-17
5308.91985 2.09709e-17
5310.24209 2.09140e-17
5311.55432 2.08813e-17
5312.87656 2.08487e-17
5314.18879 2.07868e-17
5315.51103 2.07248e-17
5316.83328 2.06761e-17
5318.14550 2.06274e-17
5319.46775 2.06096e-17
5320.77998 2.05919e-17
5322.10222 2.05424e-17
5323.42446 2.04929e-17
5324.73669 2.04384e-17
5326.05893 2.03840e-17
5327.37116 2.03651e-17
5328.69340 2.03461e-17
5330.01565 2.03252e-17
5331.32788 2.03042e-17
5332.65012 2.02581e-17
5333.97236 2.02120e-17
5335.28459 2.01832e-17
5336.60684 2.01545e-17
5337.91906 2.01430e-17
5339.24131 2.01315e-17
5340.56355 2.01043e-17
5341.87578 2.00771e-17
5343.19802 2.00353e-17
5344.51025 1.99935e-17
5345.83249 1.99770e-17
5347.15474 1.99604e-17
5348.46696 1.99441e-17
5349.78921 1.99278e-17
5351.10143 1.98983e-17
5352.42368 1.98688e-17
5353.74592 1.98572e-17
5355.05815 1.98455e-17
5356.38039 1.98424e-17
5357.69262 1.98393e-17
5359.01486 1.98161e-17
5360.33711 1.97930e-17
5361.64934 1.97750e-17
5362.97158 1.97570e-17
5364.28381 1.97248e-17
5365.60605 1.96925e-17
5366.92829 1.96835e-17
5368.24052 1.96744e-17
5369.56276 1.96429e-17
5370.87499 1.96115e-17
5372.19724 1.96433e-17
5373.51948 1.96751e-17
5374.83171 1.96813e-17
5376.15395 1.96874e-17
5377.46618 1.96478e-17
5378.78842 1.96082e-17
5380.11067 1.96333e-17
5381.42289 1.96583e-17
5382.74514 1.96212e-17
5384.05736 1.95841e-17
5385.37961 1.95507e-17
5386.70185 1.95173e-17
5388.01408 1.95130e-17
5389.33632 1.95087e-17
5390.64855 1.95088e-17
5391.97079 1.95090e-17
5393.29304 1.95282e-17
5394.60527 1.95475e-17
5395.92751 1.95454e-17
5397.23974 1.95433e-17
5398.56198 1.95189e-17
5399.88422 1.94944e-17
5401.19645 1.94744e-17
5402.51870 1.94543e-17
5403.84094 1.94516e-17
5405.15317 1.94489e-17
5406.47541 1.94487e-17
5407.78764 1.94484e-17
5409.10988 1.94491e-17
5410.43213 1.94499e-17
5411.74435 1.94710e-17
5413.06660 1.94920e-17
5414.37882 1.95258e-17
5415.70107 1.95595e-17
5417.02331 1.95509e-17
5418.33554 1.95422e-17
5419.65778 1.94892e-17
5420.97001 1.94361e-17
5422.29225 1.94021e-17
5423.61450 1.93681e-17
5424.92672 1.93615e-17
5426.24897 1.93549e-17
5427.56120 1.93329e-17
5428.88344 1.93109e-17
5430.20568 1.92608e-17
5431.51791 1.92106e-17
5432.84015 1.91760e-17
5434.15238 1.91414e-17
5435.47462 1.91175e-17
5436.79687 1.90935e-17
5438.10910 1.90325e-17
5439.43134 1.89715e-17
5440.74357 1.89211e-17
5442.06581 1.88707e-17
5443.38805 1.88852e-17
5444.70028 1.88996e-17
5446.02253 1.88850e-17
5447.33475 1.88704e-17
5448.65700 1.88478e-17
5449.97924 1.88252e-17
5451.29147 1.88451e-17
5452.61371 1.88650e-17
5453.92594 1.88244e-17
5455.24818 1.87838e-17
5456.57043 1.87387e-17
5457.88265 1.86935e-17
5459.20490 1.86645e-17
5460.51713 1.86356e-17
5461.83937 1.85836e-17
5463.16161 1.85316e-17
5464.47384 1.85131e-17
5465.79608 1.84945e-17
5467.10831 1.84863e-17
5468.43055 1.84781e-17
5469.75280 1.83966e-17
5471.06503 1.83151e-17
5472.38727 1.82496e-17
5473.70951 1.81842e-17
5475.02174 1.81699e-17
5476.34399 1.81557e-17
5477.65621 1.81358e-17
5478.97846 1.81159e-17
5480.29068 1.80863e-17
5481.61293 1.80567e-17
5482.93517 1.79850e-17
5484.24740 1.79133e-17
5485.56964 1.78624e-17
5486.89189 1.78116e-17
5488.20411 1.77707e-17
5489.52636 1.77298e-17
5490.83858 1.76674e-17
5492.16083 1.76050e-17
5493.48307 1.75922e-17
5494.79530 1.75793e-17
5496.11754 1.75400e-17
5497.42977 1.75007e-17
5498.75201 1.74392e-17
5500.07426 1.73777e-17
5501.38648 1.73528e-17
5502.70873 1.73279e-17
5504.02096 1.72680e-17
5505.34320 1.72082e-17
5506.66544 1.71270e-17
5507.97767 1.70459e-17
5509.29991 1.70218e-17
5510.61214 1.69976e-17
5511.93439 1.69923e-17
5513.25663 1.69869e-17
5514.56886 1.69269e-17
5515.89110 1.68668e-17
5517.20333 1.68000e-17
5518.52557 1.67332e-17
5519.84782 1.67287e-17
5521.16004 1.67243e-17
5522.48229 1.67373e-17
5523.79451 1.67504e-17
5525.11676 1.67516e-17
5526.43900 1.67529e-17
5527.75123 1.67271e-17
5529.07347 1.67014e-17
5530.38570 1.66404e-17
5531.70794 1.65794e-17
5533.03019 1.65657e-17
5534.34242 1.65520e-17
5535.66466 1.65625e-17
5536.97689 1.65730e-17
5538.29913 1.65473e-17
5539.62137 1.65216e-17
5540.93360 1.65253e-17
5542.25585 1.65290e-17
5543.57809 1.65405e-17
5544.89032 1.65520e-17
5546.21256 1.65334e-17
5547.52479 1.65148e-17
5548.84703 1.65085e-17
5550.16928 1.65023e-17
5551.48150 1.64853e-17
5552.80375 1.64683e-17
5554.11597 1.64652e-17
5555.43822 1.64620e-17
5556.76046 1.64805e-17
5558.07269 1.64990e-17
5559.39493 1.64666e-17
5560.70716 1.64341e-17
5562.02940 1.63852e-17
5563.35165 1.63364e-17
5564.66387 1.63096e-17
5565.98612 1.62828e-17
5567.29835 1.62742e-17
5568.62059 1.62656e-17
5569.94283 1.62541e-17
5571.25506 1.62427e-17
5572.57730 1.62288e-17
5573.88953 1.62150e-17
5575.21177 1.62271e-17
5576.53402 1.62391e-17
5577.84625 1.61962e-17
5579.16849 1.61533e-17
5580.48072 1.61089e-17
5581.80296 1.60646e-17
5583.12521 1.60396e-17
5584.43743 1.60147e-17
5585.75968 1.59962e-17
5587.07190 1.59778e-17
5588.39415 1.59642e-17
5589.71639 1.59506e-17
5591.02862 1.59461e-17
5592.35086 1.59416e-17
5593.66309 1.59234e-17
5594.98533 1.59053e-17
5596.30758 1.58775e-17
5597.61980 1.58498e-17
5598.94205 1.58303e-17
5600.25428 1.58109e-17
5601.57652 1.57725e-17
5602.89876 1.57342e-17
5604.21099 1.56951e-17
5605.53323 1.56559e-17
5606.84546 1.56358e-17
5608.16770 1.56157e-17
5609.48995 1.56030e-17
5610.80218 1.55903e-17
5612.12442 1.55659e-17
5613.44666 1.55415e-17
5614.75889 1.55047e-17
5616.08114 1.54680e-17
5617.39336 1.54346e-17
5618.71561 1.54012e-17
5620.03785 1.53618e-17
5621.35008 1.53223e-17
5622.67232 1.52955e-17
5623.98455 1.52687e-17
5625.30679 1.52621e-17
5626.62904 1.52555e-17
5627.94126 1.52187e-17
5629.26351 1.51820e-17
5630.57573 1.51224e-17
5631.89798 1.50628e-17
5633.22022 1.50228e-17
5634.53245 1.49829e-17
5635.85469 1.49578e-17
5637.16692 1.49327e-17
5638.48916 1.48969e-17
5639.81141 1.48612e-17
5641.12364 1.48404e-17
5642.44588 1.48196e-17
5643.75811 1.47813e-17
5645.08035 1.47429e-17
5646.40259 1.46848e-17
5647.71482 1.46267e-17
5649.03707 1.45899e-17
5650.34929 1.45530e-17
5651.67154 1.45184e-17
5652.99378 1.44838e-17
5654.30601 1.44277e-17
5655.62825 1.43717e-17
5656.94048 1.43469e-17
5658.26272 1.43221e-17
5659.58497 1.43028e-17
5660.89719 1.42834e-17
5662.21944 1.42341e-17
5663.53166 1.41847e-17
5664.85391 1.41263e-17
5666.17615 1.40679e-17
5667.48838 1.40175e-17
5668.81062 1.39671e-17
5670.12285 1.39372e-17
5671.44509 1.39073e-17
5672.76734 1.38817e-17
5674.07957 1.38560e-17
5675.40181 1.38018e-17
5676.71404 1.37475e-17
5678.03628 1.36748e-17
5679.35852 1.36022e-17
5680.67075 1.35841e-17
5681.99300 1.35659e-17
5683.30522 1.35786e-17
5684.62747 1.35913e-17
5685.94971 1.35396e-17
5687.26194 1.34879e-17
5688.58418 1.34175e-17
5689.90643 1.33472e-17
5691.21865 1.33216e-17
5692.54090 1.32961e-17
5693.85312 1.32582e-17
5695.17537 1.32203e-17
5696.49761 1.31624e-17
5697.80984 1.31045e-17
5699.13208 1.30846e-17
5700.44431 1.30648e-17
5701.76655 1.30459e-17
5703.08880 1.30270e-17
5704.40102 1.29755e-17
5705.72327 1.29241e-17
5707.03550 1.28772e-17
5708.35774 1.28304e-17
5709.67998 1.28006e-17
5710.99221 1.27709e-17
5712.31445 1.27583e-17
5713.62668 1.27457e-17
5714.94893 1.27425e-17
5716.27117 1.27394e-17
5717.58340 1.27322e-17
5718.90564 1.27251e-17
5720.21787 1.27073e-17
5721.54011 1.26894e-17
5722.86236 1.26524e-17
5724.17458 1.26155e-17
5725.49683 1.26024e-17
5726.80905 1.25893e-17
5728.13130 1.26236e-17
5729.45354 1.26580e-17
5730.76577 1.26914e-17
5732.08801 1.27248e-17
5733.40024 1.27596e-17
5734.72248 1.27944e-17
5736.04473 1.28128e-17
5737.35695 1.28312e-17
5738.67920 1.28547e-17
5739.99143 1.28782e-17
5741.31367 1.29403e-17
5742.63591 1.30024e-17
5743.94814 1.30642e-17
5745.27038 1.31260e-17
5746.58261 1.31573e-17
5747.90485 1.31886e-17
5749.22710 1.32196e-17
5750.53933 1.32506e-17
5751.86157 1.32925e-17
5753.18381 1.33344e-17
5754.49604 1.33987e-17
5755.81829 1.34630e-17
5757.13051 1.34998e-17
5758.45276 1.35367e-17
5759.77500 1.35555e-17
5761.08723 1.35743e-17
5762.40947 1.35945e-17
5763.72170 1.36148e-17
5765.04394 1.36436e-17
5766.36619 1.36724e-17
5767.67841 1.36986e-17
5769.00066 1.37248e-17
5770.31288 1.37363e-17
5771.63513 1.37478e-17
5772.95737 1.37488e-17
5774.26960 1.37498e-17
5775.59184 1.37701e-17
5776.90407 1.37903e-17
5778.22631 1.38280e-17
5779.54856 1.38657e-17
5780.86079 1.38906e-17
5782.18303 1.39156e-17
5783.49526 1.39432e-17
5784.81750 1.39709e-17
5786.13974 1.39903e-17
5787.45197 1.40097e-17
5788.77422 1.40022e-17
5790.08644 1.39947e-17
5791.40869 1.39932e-17
5792.73093 1.39917e-17
5794.04316 1.39947e-17
5795.36540 1.39976e-17
5796.67763 1.40118e-17
5797.99987 1.40260e-17
5799.32212 1.40410e-17
5800.63434 1.40561e-17
5801.95659 1.40486e-17
5803.26881 1.40411e-17
5804.59106 1.40368e-17
5805.91330 1.40325e-17
5807.22553 1.40322e-17
5808.54777 1.40319e-17
5809.86000 1.40160e-17
5811.18224 1.40001e-17
5812.50449 1.39958e-17
5813.81671 1.39916e-17
5815.13896 1.39946e-17
5816.45119 1.39977e-17
5817.77343 1.39948e-17
5819.09567 1.39919e-17
5820.40790 1.39687e-17
5821.73015 1.39454e-17
5823.05239 1.39195e-17
5824.36462 1.38936e-17
5825.68686 1.39110e-17
5826.99909 1.39285e-17
5828.32133 1.39355e-17
5829.64358 1.39424e-17
5830.95580 1.39285e-17
5832.27805 1.39146e-17
5833.59027 1.39161e-17
5834.91252 1.39175e-17
5836.23476 1.39079e-17
5837.54699 1.38984e-17
5838.86923 1.38900e-17
5840.18146 1.38817e-17
5841.50370 1.38898e-17
5842.82595 1.38979e-17
5844.13817 1.38924e-17
5845.46042 1.38869e-17
5846.77265 1.38725e-17
5848.09489 1.38580e-17
5849.41713 1.38533e-17
5850.72936 1.38486e-17
5852.05160 1.38352e-17
5853.36383 1.38219e-17
5854.68608 1.38170e-17
5856.00832 1.38122e-17
5857.32055 1.38337e-17
5858.64279 1.38551e-17
5859.95502 1.38522e-17
5861.27726 1.38492e-17
5862.59951 1.38207e-17
5863.91173 1.37923e-17
5865.23398 1.37908e-17
5866.54620 1.37894e-17
5867.86845 1.37962e-17
5869.19069 1.38030e-17
5870.50292 1.37799e-17
5871.82516 1.37567e-17
5873.13739 1.37129e-17
5874.45963 1.36692e-17
5875.78188 1.36181e-17
5877.09410 1.35670e-17
5878.41635 1.34946e-17
5879.72858 1.34223e-17
5881.05082 1.33315e-17
5882.37306 1.32407e-17
5883.68529 1.31711e-17
5885.00753 1.31015e-17
5886.31976 1.30331e-17
5887.64200 1.29647e-17
5888.96425 1.29193e-17
5890.27648 1.28739e-17
5891.59872 1.28899e-17
5892.92096 1.29058e-17
5894.23319 1.29205e-17
5895.55544 1.29352e-17
5896.86766 1.29581e-17
5898.18991 1.29811e-17
5899.51215 1.30268e-17
5900.82438 1.30724e-17
5902.14662 1.31154e-17
5903.45885 1.31584e-17
5904.78109 1.31908e-17
5906.10334 1.32232e-17
5907.41556 1.32333e-17
5908.73781 1.32435e-17
5910.05003 1.32552e-17
5911.37228 1.32669e-17
5912.69452 1.32827e-17
5914.00675 1.32984e-17
5915.32899 1.33118e-17
5916.64122 1.33251e-17
5917.96346 1.33209e-17
5919.28571 1.33166e-17
5920.59794 1.32883e-17
5921.92018 1.32600e-17
5923.23241 1.32281e-17
5924.55465 1.31962e-17
5925.87689 1.31822e-17
5927.18912 1.31681e-17
5928.51137 1.31696e-17
5929.82359 1.31710e-17
5931.14584 1.31434e-17
5932.46808 1.31157e-17
5933.78031 1.30709e-17
5935.10255 1.30261e-17
5936.41478 1.30010e-17
5937.73702 1.29759e-17
5939.05927 1.29334e-17
5940.37149 1.28909e-17
5941.69374 1.28283e-17
5943.00596 1.27656e-17
5944.32821 1.27172e-17
5945.65045 1.26688e-17
5946.96268 1.26525e-17
5948.28492 1.26362e-17
5949.59715 1.26420e-17
5950.91939 1.26477e-17
5952.24164 1.26323e-17
5953.55386 1.26169e-17
5954.87611 1.26071e-17
5956.18834 1.25972e-17
5957.51058 1.25924e-17
5958.83282 1.25875e-17
5960.14505 1.25735e-17
5961.46730 1.25594e-17
5962.78954 1.25381e-17
5964.10177 1.25167e-17
5965.42401 1.24990e-17
5966.73624 1.24813e-17
5968.05848 1.24812e-17
5969.38072 1.24812e-17
5970.69295 1.24602e-17
5972.01520 1.24392e-17
5973.32742 1.24317e-17
5974.64967 1.24242e-17
5975.97191 1.24321e-17
5977.28414 1.24400e-17
5978.60638 1.24572e-17
5979.91861 1.24744e-17
5981.24085 1.24713e-17
5982.56310 1.24683e-17
5983.87532 1.24431e-17
5985.19757 1.24180e-17
5986.50980 1.23973e-17
5987.83204 1.23766e-17
5989.15428 1.23685e-17
5990.46651 1.23605e-17
5991.78875 1.23537e-17
5993.10098 1.23469e-17
5994.42323 1.23443e-17
5995.74547 1.23417e-17
5997.05770 1.23489e-17
5998.37994 1.23561e-17
5999.69217 1.23708e-17
6001.01441 1.23856e-17
6002.33666 1.23874e-17
6003.64888 1.23891e-17
6004.97113 1.23822e-17
6006.28335 1.23753e-17
6007.60560 1.23944e-17
6008.92784 1.24135e-17
6010.24007 1.24161e-17
6011.56231 1.24186e-17
6012.87454 1.23962e-17
6014.19678 1.23738e-17
6015.51903 1.23811e-17
6016.83125 1.23884e-17
6018.15350 1.24034e-17
6019.46573 1.24184e-17
6020.78797 1.24275e-17
6022.11021 1.24366e-17
6023.42244 1.24496e-17
6024.74468 1.24627e-17
6026.05691 1.24563e-17
6027.37915 1.24499e-17
6028.70140 1.24341e-17
6030.01363 1.24184e-17
6031.33587 1.24466e-17
6032.65811 1.24747e-17
6033.97034 1.24618e-17
6035.29259 1.24489e-17
6036.60481 1.24149e-17
6037.92706 1.23809e-17
6039.24930 1.23976e-17
6040.56153 1.24143e-17
6041.88377 1.24293e-17
6043.19600 1.24442e-17
6044.51824 1.24228e-17
6045.84049 1.24014e-17
6047.15271 1.23925e-17
6048.47496 1.23837e-17
6049.78718 1.23731e-17
6051.10943 1.23626e-17
6052.43167 1.23667e-17
6053.74390 1.23709e-17
6055.06614 1.23862e-17
6056.37837 1.24016e-17
6057.70061 1.23979e-17
6059.02286 1.23943e-17
6060.33509 1.24062e-17
6061.65733 1.24181e-17
6062.96956 1.24359e-17
6064.29180 1.24537e-17
6065.61404 1.24402e-17
6066.92627 1.24267e-17
6068.24852 1.24194e-17
6069.56074 1.24120e-17
6070.88299 1.24258e-17
6072.20523 1.24396e-17
6073.51746 1.24273e-17
6074.83970 1.24150e-17
6076.15193 1.23928e-17
6077.47417 1.23707e-17
6078.79642 1.23969e-17
6080.10864 1.24231e-17
6081.43089 1.24625e-17
6082.74311 1.25019e-17
6084.06536 1.25075e-17
6085.38760 1.25130e-17
6086.69983 1.25257e-17
6088.02207 1.25384e-17
6089.33430 1.25353e-17
6090.65654 1.25322e-17
6091.97879 1.25025e-17
6093.29101 1.24728e-17
6094.61326 1.24716e-17
6095.92549 1.24705e-17
6097.24773 1.24658e-17
6098.56997 1.24612e-17
6099.88220 1.24484e-17
6101.20445 1.24357e-17
6102.52669 1.24177e-17
6103.83892 1.23997e-17
6105.16116 1.23768e-17
6106.47339 1.23538e-17
6107.79563 1.23376e-17
6109.11787 1.23215e-17
6110.43010 1.22866e-17
6111.75235 1.22517e-17
6113.06457 1.22402e-17
6114.38682 1.22287e-17
6115.70906 1.22163e-17
6117.02129 1.22039e-17
6118.34353 1.20874e-17
6119.65576 1.19710e-17
6120.97800 1.19469e-17
6122.30025 1.19229e-17
6123.61247 1.18809e-17
6124.93472 1.18390e-17
6126.24695 1.17834e-17
6127.56919 1.17277e-17
6128.89143 1.16682e-17
6130.20366 1.16088e-17
6131.52590 1.15562e-17
6132.83813 1.15036e-17
6134.16038 1.14595e-17
6135.48262 1.14154e-17
6136.79485 1.13589e-17
6138.11709 1.13024e-17
6139.42932 1.12306e-17
6140.75156 1.11589e-17
6142.07380 1.10712e-17
6143.38603 1.09835e-17
6144.70828 1.08959e-17
6146.02050 1.08083e-17
6147.34275 1.07490e-17
6148.66499 1.06898e-17
6149.97722 1.06317e-17
6151.29946 1.05735e-17
6152.61169 1.05012e-17
6153.93393 1.04289e-17
6155.25618 1.03685e-17
6156.56840 1.03082e-17
6157.89065 1.02675e-17
6159.20287 1.02269e-17
6160.52512 1.01983e-17
6161.84736 1.01698e-17
6163.15959 1.01380e-17
6164.48183 1.01062e-17
6165.79406 1.00597e-17
6167.11630 1.00133e-17
6168.43855 9.96862e-18
6169.75078 9.92397e-18
6171.07302 9.89531e-18
6172.39526 9.86667e-18
6173.70749 9.84385e-18
6175.02974 9.82104e-18
6176.34196 9.80829e-18
6177.66421 9.79553e-18
6178.98645 9.77583e-18
6180.29868 9.75614e-18
6181.62092 9.73517e-18
6182.93315 9.71421e-18
6184.25539 9.70021e-18
6185.57764 9.68620e-18
6186.88986 9.66057e-18
6188.21211 9.63495e-18
6189.52433 9.61658e-18
6190.84658 9.59824e-18
6192.16882 9.60092e-18
6193.48105 9.60360e-18
6194.80329 9.61676e-18
6196.11552 9.62992e-18
6197.43776 9.64209e-18
6198.76001 9.65425e-18
6200.07224 9.64787e-18
6201.39448 9.64150e-18
6202.70671 9.64383e-18
6204.02895 9.64617e-18
6205.35119 9.66271e-18
6206.66342 9.67924e-18
6207.98567 9.68910e-18
6209.29789 9.69894e-18
6210.62014 9.69370e-18
6211.94238 9.68847e-18
6213.25461 9.69764e-18
6214.57685 9.70682e-18
6215.88908 9.72434e-18
6217.21132 9.74184e-18
6218.53357 9.74455e-18
6219.84579 9.74728e-18
6221.16804 9.76392e-18
6222.48026 9.78057e-18
6223.80251 9.82077e-18
6225.12475 9.86095e-18
6226.43698 9.88160e-18
6227.75922 9.90225e-18
6229.07145 9.92563e-18
6230.39369 9.94901e-18
6231.71594 9.98790e-18
6233.02816 1.00268e-17
6234.35041 1.00480e-17
6235.66264 1.00692e-17
6236.98488 1.00643e-17
6238.30712 1.00595e-17
6239.61935 1.00823e-17
6240.94160 1.01052e-17
6242.26384 1.01409e-17
6243.57607 1.01765e-17
6244.89831 1.02016e-17
6246.21054 1.02266e-17
6247.53278 1.02572e-17
6248.85502 1.02877e-17
6250.16725 1.03131e-17
6251.48950 1.03384e-17
6252.80172 1.03667e-17
6254.12397 1.03950e-17
6255.44621 1.04434e-17
6256.75844 1.04918e-17
6258.08068 1.05283e-17
6259.39291 1.05648e-17
6260.71515 1.05812e-17
6262.03740 1.05976e-17
6263.34962 1.06222e-17
6264.67187 1.06468e-17
6265.98410 1.06666e-17
6267.30634 1.06864e-17
6268.62858 1.06960e-17
6269.94081 1.07055e-17
6271.26305 1.07147e-17
6272.57528 1.07239e-17
6273.89753 1.07469e-17
6275.21977 1.07700e-17
6276.53200 1.08042e-17
6277.85424 1.08384e-17
6279.16647 1.08711e-17
6280.48871 1.09039e-17
6281.81095 1.09554e-17
6283.12318 1.10069e-17
6284.44543 1.10534e-17
6285.75765 1.10999e-17
6287.07990 1.11335e-17
6288.40214 1.11671e-17
6289.71437 1.12143e-17
6291.03661 1.12615e-17
6292.34884 1.12945e-17
6293.67108 1.13274e-17
6294.99333 1.13357e-17
6296.30555 1.13440e-17
6297.62780 1.13676e-17
6298.94002 1.13914e-17
6300.26227 1.14476e-17
6301.58451 1.15038e-17
6302.89674 1.15396e-17
6304.21898 1.15753e-17
6305.54123 1.15963e-17
6306.85345 1.16172e-17
6308.17570 1.16513e-17
6309.48793 1.16854e-17
6310.81017 1.17062e-17
6312.13241 1.17271e-17
6313.44464 1.17436e-17
6314.76689 1.17601e-17
6316.07911 1.17994e-17
6317.40136 1.18387e-17
6318.72360 1.18705e-17
6320.03583 1.19022e-17
6321.35807 1.18993e-17
6322.67030 1.18964e-17
6323.99254 1.19027e-17
6325.31479 1.19089e-17
6326.62701 1.19422e-17
6327.94926 1.19754e-17
6329.26148 1.19788e-17
6330.58373 1.19822e-17
6331.90597 1.19620e-17
6333.21820 1.19418e-17
6334.54044 1.19312e-17
6335.85267 1.19206e-17
6337.17491 1.19083e-17
6338.49716 1.18960e-17
6339.80939 1.18782e-17
6341.13163 1.18604e-17
6342.44386 1.18220e-17
6343.76610 1.17835e-17
6345.08834 1.17442e-17
6346.40057 1.17049e-17
6347.72282 1.16794e-17
6349.03504 1.16539e-17
6350.35729 1.16388e-17
6351.67953 1.16237e-17
6352.99176 1.15992e-17
6354.31400 1.15746e-17
6355.62623 1.15252e-17
6356.94847 1.14757e-17
6358.27072 1.14171e-17
6359.58294 1.13586e-17
6360.90519 1.13420e-17
6362.21741 1.13254e-17
6363.53966 1.13160e-17
6364.86190 1.13066e-17
6366.17413 1.12611e-17
6367.49637 1.12156e-17
6368.80860 1.11758e-17
6370.13084 1.11360e-17
6371.45309 1.11003e-17
6372.76531 1.10645e-17
6374.08756 1.10189e-17
6375.39979 1.09733e-17
6376.72203 1.09426e-17
6378.04427 1.09119e-17
6379.35650 1.08911e-17
6380.67875 1.08703e-17
6382.00099 1.08373e-17
6383.31322 1.08043e-17
6384.63546 1.07800e-17
6385.94769 1.07556e-17
6387.26993 1.07355e-17
6388.59217 1.07154e-17
6389.90440 1.06874e-17
6391.22665 1.06594e-17
6392.53887 1.06379e-17
6393.86112 1.06165e-17
6395.18336 1.06235e-17
6396.49559 1.06306e-17
6397.81783 1.06556e-17
6399.13006 1.06806e-17
6400.45230 1.07066e-17
6401.77455 1.07327e-17
6403.08677 1.07597e-17
6404.40902 1.07866e-17
6405.72125 1.08138e-17
6407.04349 1.08409e-17
6408.36573 1.08775e-17
6409.67796 1.09141e-17
6411.00020 1.09736e-17
6412.31243 1.10331e-17
6413.63468 1.10909e-17
6414.95692 1.11486e-17
6416.26915 1.11827e-17
6417.59139 1.12168e-17
6418.90362 1.12489e-17
6420.22586 1.12810e-17
6421.54810 1.13332e-17
6422.86033 1.13853e-17
6424.18258 1.14322e-17
6425.49480 1.14790e-17
6426.81705 1.15216e-17
6428.13929 1.15642e-17
6429.45152 1.16108e-17
6430.77376 1.16574e-17
6432.08599 1.16962e-17
6433.40823 1.17351e-17
6434.73048 1.17653e-17
6436.04270 1.17955e-17
6437.36495 1.18261e-17
6438.67717 1.18567e-17
6439.99942 1.18762e-17
6441.32166 1.18957e-17
6442.63389 1.19020e-17
6443.95613 1.19083e-17
6445.26836 1.19231e-17
6446.59060 1.19380e-17
6447.91285 1.19520e-17
6449.22508 1.19661e-17
6450.54732 1.19705e-17
6451.86956 1.19749e-17
6453.18179 1.19921e-17
6454.50404 1.20094e-17
6455.81626 1.20377e-17
6457.13851 1.20660e-17
6458.46075 1.20854e-17
6459.77298 1.21048e-17
6461.09522 1.21117e-17
6462.40745 1.21186e-17
6463.72969 1.21074e-17
6465.05194 1.20961e-17
6466.36416 1.20939e-17
6467.68641 1.20916e-17
6468.99863 1.20957e-17
6470.32088 1.20998e-17
6471.64312 1.20884e-17
6472.95535 1.20770e-17
6474.27759 1.20509e-17
6475.58982 1.20248e-17
6476.91206 1.20097e-17
6478.23431 1.19946e-17
6479.54654 1.20030e-17
6480.86878 1.20113e-17
6482.18101 1.20084e-17
6483.50325 1.20055e-17
6484.82549 1.20006e-17
6486.13772 1.19957e-17
6487.45997 1.20020e-17
6488.77219 1.20083e-17
6490.09444 1.20026e-17
6491.41668 1.19970e-17
6492.72891 1.19709e-17
6494.05115 1.19448e-17
6495.36338 1.19258e-17
6496.68562 1.19069e-17
6498.00787 1.19058e-17
6499.32009 1.19047e-17
6500.64234 1.19048e-17
6501.95456 1.19050e-17
6503.27681 1.18936e-17
6504.59905 1.18823e-17
6505.91128 1.18508e-17
6507.23352 1.18193e-17
6508.55577 1.18043e-17
6509.86799 1.17893e-17
6511.19024 1.17807e-17
6512.50247 1.17722e-17
6513.82471 1.17432e-17
6515.13694 1.17142e-17
6516.45918 1.16907e-17
6517.78142 1.16672e-17
6519.09365 1.16613e-17
6520.41590 1.16555e-17
6521.73814 1.16579e-17
6523.05037 1.16602e-17
6524.37261 1.16622e-17
6525.68484 1.16642e-17
6527.00708 1.16579e-17
6528.32933 1.16516e-17
6529.64155 1.16322e-17
6530.96380 1.16128e-17
6532.27602 1.16063e-17
6533.59827 1.15998e-17
6534.92051 1.15958e-17
6536.23274 1.15918e-17
6537.55498 1.15935e-17
6538.86721 1.15953e-17
6540.18945 1.15995e-17
6541.51170 1.16037e-17
6542.82392 1.16085e-17
6544.14617 1.15924e-17
6545.45840 1.15763e-17
6546.78064 1.15602e-17
6548.10288 1.15441e-17
6549.41511 1.15280e-17
6550.73735 1.15119e-17
6552.04958 1.14958e-17
6553.37183 1.14797e-17
6554.69407 1.14636e-17
6556.00630 1.14475e-17
6557.32854 1.14315e-17
6558.64077 1.14154e-17
6559.96301 1.13993e-17
6561.28525 1.13832e-17
6562.59748 1.13671e-17
6563.91973 1.13510e-17
6565.23195 1.13350e-17
6566.55420 1.13189e-17
6567.87644 1.13028e-17
6569.18867 1.12867e-17
6570.51091 1.12707e-17
6571.82314 1.12546e-17
6573.14538 1.12385e-17
6574.46763 1.12224e-17
6575.77985 1.12064e-17
6577.10210 1.11903e-17
6578.41433 1.11742e-17
6579.73657 1.11582e-17
6581.05881 1.11421e-17
6582.37104 1.11260e-17
6583.69328 1.11100e-17
6585.00551 1.10939e-17
6586.32776 1.10778e-17
6587.65000 1.10618e-17
6588.96223 1.10457e-17
6590.28447 1.10297e-17
6591.60671 1.10136e-17
6592.91894 1.09975e-17
6594.24119 1.09815e-17
6595.55341 1.09654e-17
6596.87566 1.09494e-17
6598.19790 1.09333e-17
6599.51013 1.09173e-17
6600.83237 1.09012e-17
6602.14460 1.08852e-17
6603.46684 1.08691e-17
6604.78909 1.08531e-17
6606.10131 1.08251e-17
6607.42356 1.07971e-17
6608.73578 1.07615e-17
6610.05803 1.07259e-17
6611.38027 1.06784e-17
6612.69250 1.06310e-17
6614.01474 1.05852e-17
6615.32697 1.05394e-17
6616.64921 1.05270e-17
6617.97146 1.05146e-17
6619.28369 1.04934e-17
6620.60593 1.04721e-17
6621.91816 1.04455e-17
6623.24040 1.04188e-17
6624.56264 1.04114e-17
6625.87487 1.04039e-17
6627.19711 1.04035e-17
6628.50934 1.04031e-17
6629.83159 1.04191e-17
6631.15383 1.04351e-17
6632.46606 1.04492e-17
6633.78830 1.04633e-17
6635.10053 1.04413e-17
6636.42277 1.04192e-17
6637.74502 1.03780e-17
6639.05724 1.03368e-17
6640.37949 1.03212e-17
6641.69171 1.03056e-17
6643.01396 1.02970e-17
6644.33620 1.02884e-17
6645.64843 1.02720e-17
6646.97067 1.02556e-17
6648.28290 1.02406e-17
6649.60514 1.02256e-17
6650.92739 1.02074e-17
6652.23962 1.01892e-17
6653.56186 1.01900e-17
6654.87409 1.01907e-17
6656.19633 1.01943e-17
6657.51857 1.01978e-17
6658.83080 1.01787e-17
6660.15305 1.01596e-17
6661.47529 1.01546e-17
6662.78752 1.01495e-17
6664.10976 1.01637e-17
6665.42199 1.01779e-17
6666.74423 1.01726e-17
6668.06648 1.01674e-17
6669.37870 1.01541e-17
6670.70095 1.01408e-17
6672.01317 1.01359e-17
6673.33542 1.01309e-17
6674.65766 1.01173e-17
6675.96989 1.01036e-17
6677.29213 1.00739e-17
6678.60436 1.00441e-17
6679.92660 1.00088e-17
6681.24885 9.97342e-18
6682.56107 9.95608e-18
6683.88332 9.93875e-18
6685.19555 9.94035e-18
6686.51779 9.94195e-18
6687.84003 9.93621e-18
6689.15226 9.93046e-18
6690.47450 9.91697e-18
6691.78673 9.90350e-18
6693.10898 9.90889e-18
6694.43122 9.91427e-18
6695.74345 9.92304e-18
6697.06569 9.93179e-18
6698.37792 9.92351e-18
6699.70016 9.91522e-18
6701.02240 9.89279e-18
6702.33463 9.87035e-18
6703.65688 9.83877e-18
6704.96910 9.80719e-18
6706.29135 9.77309e-18
6707.61359 9.73900e-18
6708.92582 9.71112e-18
6710.24806 9.68326e-18
6711.56029 9.68406e-18
6712.88253 9.68488e-18
6714.20478 9.69983e-18
6715.51700 9.71475e-18
6716.83925 9.69947e-18
6718.15148 9.68420e-18
6719.47372 9.66711e-18
6720.79596 9.65006e-18
6722.10819 9.65907e-18
6723.43043 9.66807e-18
6724.75268 9.67112e-18
6726.06491 9.67416e-18
6727.38715 9.67209e-18
6728.69938 9.67002e-18
6730.02162 9.66049e-18
6731.34386 9.65095e-18
6732.65609 9.62588e-18
6733.97834 9.60080e-18
6735.29056 9.57115e-18
6736.61281 9.54150e-18
6737.93505 9.52448e-18
6739.24728 9.50747e-18
6740.56952 9.50024e-18
6741.88175 9.49302e-18
6743.20399 9.50116e-18
6744.52624 9.50930e-18
6745.83846 9.50743e-18
6747.16071 9.50554e-18
6748.47293 9.48076e-18
6749.79518 9.45599e-18
6751.11742 9.44810e-18
6752.42965 9.44022e-18
6753.75189 9.44565e-18
6755.06412 9.45106e-18
6756.38636 9.42725e-18
6757.70861 9.40342e-18
6759.02084 9.35484e-18
6760.34308 9.30629e-18
6761.65531 9.28005e-18
6762.97755 9.25384e-18
6764.29979 9.25312e-18
6765.61202 9.25239e-18
6766.93426 9.23570e-18
6768.24649 9.21901e-18
6769.56874 9.19251e-18
6770.89098 9.16603e-18
6772.20321 9.15554e-18
6773.52545 9.14505e-18
6774.83768 9.14296e-18
6776.15992 9.14088e-18
6777.48217 9.14620e-18
6778.79439 9.15152e-18
6780.11664 9.15598e-18
6781.42886 9.16043e-18
6782.75111 9.15127e-18
6784.07335 9.14211e-18
6785.38558 9.12969e-18
6786.70782 9.11726e-18
6788.02005 9.10183e-18
6789.34229 9.08639e-18
6790.66454 9.06577e-18
6791.97677 9.04515e-18
6793.29901 9.02250e-18
6794.62125 8.99984e-18
6795.93348 8.97707e-18
6797.25572 8.95431e-18
6798.56795 8.93979e-18
6799.89020 8.92528e-18
6801.21244 8.91094e-18
6802.52467 8.89661e-18
6803.84691 8.88110e-18
6805.15914 8.86559e-18
6806.48138 8.84950e-18
6807.80363 8.83341e-18
6809.11585 8.82221e-18
6810.43810 8.81101e-18
6811.75032 8.81206e-18
6813.07257 8.81311e-18
6814.39481 8.81094e-18
6815.70704 8.80876e-18
6817.02928 8.80077e-18
6818.34151 8.79278e-18
6819.66375 8.77768e-18
6820.98600 8.76259e-18
6822.29822 8.75157e-18
6823.62047 8.74056e-18
6824.93270 8.73359e-18
6826.25494 8.72662e-18
6827.57718 8.71394e-18
6828.88941 8.70126e-18
6830.21165 8.69040e-18
6831.52388 8.67954e-18
6832.84613 8.67113e-18
6834.16837 8.66270e-18
6835.48060 8.64162e-18
6836.80284 8.62051e-18
6838.11507 8.58249e-18
6839.43731 8.54448e-18
6840.75955 8.52051e-18
6842.07178 8.49655e-18
6843.39403 8.48192e-18
6844.70625 8.46729e-18
6846.02850 8.46281e-18
6847.35074 8.45832e-18
6848.66297 8.45384e-18
6849.98521 8.44935e-18
6851.29744 8.44487e-18
6852.61968 8.44038e-18
6853.94193 8.43590e-18
6855.25415 8.43141e-18
6856.57640 8.42693e-18
6857.88863 8.42245e-18
6859.21087 8.41796e-18
6860.53311 8.41348e-18
6861.84534 8.40900e-18
6863.16758 8.40452e-18
6864.48983 8.40003e-18
6865.80206 8.39555e-18
6867.12430 8.39107e-18
6868.43653 8.38659e-18
6869.75877 8.38211e-18
6871.08101 8.37763e-18
6872.39324 8.37315e-18
6873.71549 8.36867e-18
6875.02771 8.36419e-18
6876.34996 8.35971e-18
6877.67220 8.35523e-18
6878.98443 8.35075e-18
6880.30667 8.34627e-18
6881.61890 8.34179e-18
6882.94114 8.33731e-18
6884.26339 8.33283e-18
6885.57561 8.32835e-18
6886.89786 8.32388e-18
6888.21008 8.31940e-18
6889.53233 8.31492e-18
6890.85457 8.31044e-18
6892.16680 8.30597e-18
6893.48904 8.30149e-18
6894.80127 8.29701e-18
6896.12351 8.29254e-18
6897.44576 8.28806e-18
6898.75799 8.28358e-18
6900.08023 8.27911e-18
6901.39246 8.27463e-18
6902.71470 8.27016e-18
6904.03694 8.26568e-18
6905.34917 8.26121e-18
6906.67141 8.25673e-18
6907.98364 8.25226e-18
6909.30589 8.24779e-18
6910.62813 8.24331e-18
6911.94036 8.23884e-18
6913.26260 8.23437e-18
6914.57483 8.22989e-18
6915.89707 8.22542e-18
6917.21932 8.22095e-18
6918.53154 8.21648e-18
6919.85379 8.21201e-18
6921.16601 8.20754e-18
6922.48826 8.20306e-18
6923.81050 8.19859e-18
6925.12273 8.19412e-18
6926.44497 8.18965e-18
6927.76722 8.18518e-18
6929.07944 8.18071e-18
6930.40169 8.17624e-18
6931.71392 8.17177e-18
6933.03616 8.16730e-18
6934.34839 8.16283e-18
6935.67063 8.15836e-18
6936.99287 8.13097e-18
6938.30510 8.11681e-18
6939.62735 8.10266e-18
6940.94959 8.09538e-18
6942.26182 8.08811e-18
6943.58406 8.09575e-18
6944.89629 8.10339e-18
6946.21853 8.12001e-18
6947.54078 8.13662e-18
6948.85300 8.13900e-18
6950.17525 8.14137e-18
6951.48747 8.12192e-18
6952.80972 8.10249e-18
6954.13196 8.10490e-18
6955.44419 8.10734e-18
6956.76643 8.14273e-18
6958.07866 8.17809e-18
6959.40090 8.19137e-18
6960.72315 8.20463e-18
6962.03537 8.20070e-18
6963.35762 8.19678e-18
6964.66985 8.20888e-18
6965.99209 8.22100e-18
6967.31433 8.24340e-18
6968.62656 8.26580e-18
6969.94880 8.27952e-18
6971.26103 8.29323e-18
6972.58327 8.30595e-18
6973.90552 8.31868e-18
6975.21775 8.33765e-18
6976.53999 8.35661e-18
6977.85222 8.36495e-18
6979.17446 8.37327e-18
6980.49670 8.35334e-18
6981.80893 8.33342e-18
6983.13118 8.31849e-18
6984.44340 8.30357e-18
6985.76565 8.30239e-18
6987.08789 8.30121e-18
6988.40012 8.28937e-18
6989.72236 8.27751e-18
6991.03459 8.24172e-18
6992.35683 8.20592e-18
6993.67908 8.16420e-18
6994.99130 8.12248e-18
6996.31355 8.09231e-18
6997.63579 8.06215e-18
6998.94802 8.05131e-18
7000.27026 8.04046e-18
7001.58249 8.03245e-18
7002.90473 8.02442e-18
7004.21696 8.00281e-18
7005.53921 7.98121e-18
7006.86145 7.97086e-18
7008.17368 7.96054e-18
7009.49592 7.96735e-18
7010.81816 7.97416e-18
7012.13039 7.97324e-18
7013.45264 7.97229e-18
7014.76486 7.94580e-18
7016.08711 7.91929e-18
7017.40935 7.88324e-18
7018.72158 7.84720e-18
7020.04382 7.82818e-18
7021.35605 7.80915e-18
7022.67829 7.77931e-18
7024.00054 7.74947e-18
7025.31276 7.72426e-18
7026.63501 7.69907e-18
7027.94723 7.69360e-18
7029.26948 7.68814e-18
7030.59172 7.69210e-18
7031.90395 7.69607e-18
7033.22619 7.70267e-18
7034.53842 7.70925e-18
7035.86066 7.70706e-18
7037.18291 7.70485e-18
7038.49514 7.68474e-18
7039.81738 7.66462e-18
7041.12961 7.63262e-18
7042.45185 7.60064e-18
7043.77409 7.58758e-18
7045.08632 7.57454e-18
7046.40856 7.58069e-18
7047.72079 7.58684e-18
7049.04304 7.60333e-18
7050.36528 7.61984e-18
7051.67751 7.65643e-18
7052.99975 7.69302e-18
7054.31198 7.73906e-18
7055.63422 7.78508e-18
7056.95647 7.81606e-18
7058.26869 7.84704e-18
7059.59094 7.87274e-18
7060.90316 7.89843e-18
7062.22541 7.91973e-18
7063.54765 7.94102e-18
7064.85988 7.95598e-18
7066.18212 7.97093e-18
7067.50437 7.98067e-18
7068.81659 7.99039e-18
7070.13884 7.99663e-18
7071.45107 8.00287e-18
7072.77331 8.00475e-18
7074.09555 8.00662e-18
7075.40778 8.00164e-18
7076.73002 7.99668e-18
7078.04225 8.01754e-18
7079.36450 8.03842e-18
7080.68674 8.07166e-18
7081.99897 8.10488e-18
7083.32121 8.12805e-18
7084.63344 8.15122e-18
7085.95568 8.17132e-18
7087.27793 8.19141e-18
7088.59015 8.20224e-18
7089.91240 8.21306e-18
7091.22462 8.22257e-18
7092.54687 8.23208e-18
7093.86911 8.25192e-18
7095.18134 8.27177e-18
7096.50358 8.29309e-18
7097.81581 8.31441e-18
7099.13805 8.33528e-18
7100.46030 8.35615e-18
7101.77252 8.38288e-18
7103.09477 8.40959e-18
7104.40700 8.42935e-18
7105.72924 8.44909e-18
7107.05148 8.45557e-18
7108.36371 8.46205e-18
7109.68595 8.47560e-18
7110.99818 8.48915e-18
7112.32042 8.50071e-18
7113.64267 8.51225e-18
7114.95490 8.49812e-18
7116.27714 8.48398e-18
7117.58937 8.46751e-18
7118.91161 8.45103e-18
7120.23385 8.43589e-18
7121.54608 8.42077e-18
7122.86833 8.41295e-18
7124.18055 8.40519e-18
7125.50280 8.44389e-18
7126.82504 8.48264e-18
7128.13727 8.57003e-18
7129.45951 8.65742e-18
7130.78176 8.74806e-18
7132.09398 8.83868e-18
7133.41623 8.91621e-18
7134.72845 8.99374e-18
7136.05070 9.06952e-18
7137.36293 9.14525e-18
7138.68517 9.18033e-18
7140.00741 9.21540e-18
7141.31964 9.24573e-18
7142.64188 9.27606e-18
7143.96413 9.30493e-18
7145.27635 9.33373e-18
7146.59860 9.30732e-18
7147.91083 9.28090e-18
7149.23307 9.24752e-18
7150.55531 9.21415e-18
7151.86754 9.17658e-18
7153.18979 9.13899e-18
7154.50201 9.06625e-18
7155.82426 8.99354e-18
7157.14650 8.94835e-18
7158.45873 8.90321e-18
7159.78097 8.91874e-18
7161.09320 8.93424e-18
7162.41544 8.92127e-18
7163.73769 8.90831e-18
7165.04991 8.89947e-18
7166.37216 8.89066e-18
7167.68438 8.90651e-18
7169.00663 8.92234e-18
7170.32887 8.92138e-18
7171.64110 8.92042e-18
7172.96334 8.90627e-18
7174.27557 8.89212e-18
7175.59781 8.86268e-18
7176.92006 8.83324e-18
7178.23229 8.79314e-18
7179.55453 8.75309e-18
7180.86676 8.75379e-18
7182.18900 8.75449e-18
7183.51124 8.75833e-18
7184.82347 8.76211e-18
7186.14571 8.71658e-18
7187.45794 8.67109e-18
7188.78019 8.65710e-18
7190.10243 8.64319e-18
7191.41466 8.69194e-18
7192.73690 8.74069e-18
7194.04913 8.79581e-18
7195.37137 8.85095e-18
7196.69362 8.92181e-18
7198.00584 8.99268e-18
7199.32809 9.07189e-18
7200.65033 9.15107e-18
7201.96256 9.20341e-18
7203.28480 9.25573e-18
7204.59703 9.29499e-18
7205.91927 9.33420e-18
7207.23150 9.32893e-18
7208.55374 9.32361e-18
7209.87599 9.26720e-18
7211.18822 9.21079e-18
7212.51046 9.14596e-18
7213.83270 9.08111e-18
7215.14493 9.00384e-18
7216.46717 8.92651e-18
7217.77940 8.78686e-18
7219.10165 8.64724e-18
7220.42389 8.52681e-18
7221.73612 8.40648e-18
7223.05836 8.37515e-18
7224.37059 8.34385e-18
7225.69283 8.35176e-18
7227.01508 8.35965e-18
7228.32730 8.35439e-18
7229.64955 8.34917e-18
7230.96177 8.37365e-18
7232.28402 8.39813e-18
7233.60626 8.42985e-18
7234.91849 8.46152e-18
7236.24073 8.45033e-18
7237.55296 8.43913e-18
7238.87520 8.41414e-18
7240.19745 8.38917e-18
7241.50967 8.39236e-18
7242.83192 8.39557e-18
7244.14415 8.40720e-18
7245.46639 8.41884e-18
7246.78863 8.42870e-18
7248.10086 8.43854e-18
7249.42310 8.41793e-18
7250.73533 8.39731e-18
7252.05757 8.36631e-18
7253.37982 8.33534e-18
7254.69205 8.33410e-18
7256.01429 8.33287e-18
7257.32652 8.34770e-18
7258.64876 8.36255e-18
7259.97101 8.38882e-18
7261.28323 8.41508e-18
7262.60548 8.42440e-18
7263.91770 8.43367e-18
7265.23995 8.40532e-18
7266.56219 8.37698e-18
7267.87442 8.35019e-18
7269.19666 8.32342e-18
7270.51891 8.30380e-18
7271.83113 8.28417e-18
7273.15338 8.25083e-18
7274.46560 8.21747e-18
7275.78785 8.16212e-18
7277.11009 8.10679e-18
7278.42232 8.06195e-18
7279.74456 8.01713e-18
7281.05679 7.98437e-18
7282.37903 7.95160e-18
7283.70128 7.91195e-18
7285.01350 7.87235e-18
7286.33575 7.87649e-18
7287.64798 7.88067e-18
7288.97022 7.92739e-18
7290.29246 7.97408e-18
7291.60469 7.99964e-18
7292.92694 8.02519e-18
7294.23916 8.03923e-18
7295.56141 8.05329e-18
7296.88365 8.09388e-18
7298.19588 8.13448e-18
7299.51812 8.17421e-18
7300.83035 8.21389e-18
7302.15259 8.19985e-18
7303.47484 8.18576e-18
7304.78706 8.12611e-18
7306.10931 8.06644e-18
7307.42153 7.98371e-18
7308.74378 7.90098e-18
7310.06602 7.82005e-18
7311.37825 7.73917e-18
7312.70049 7.69207e-18
7314.01272 7.64505e-18
7315.33496 7.66334e-18
7316.65721 7.68167e-18
7317.96944 7.73083e-18
7319.29168 7.77998e-18
7320.60391 7.83631e-18
7321.92615 7.89261e-18
7323.24839 7.93105e-18
7324.56062 7.96946e-18
7325.88287 7.97533e-18
7327.19509 7.98118e-18
7328.51734 7.97421e-18
7329.83958 7.96724e-18
7331.15181 7.95451e-18
7332.47405 7.94176e-18
7333.79630 7.89775e-18
7335.10852 7.85375e-18
7336.43077 7.82024e-18
7337.74299 7.78675e-18
7339.06524 7.76642e-18
7340.37746 7.74609e-18
7341.69971 7.72210e-18
7343.02195 7.69811e-18
7344.33418 7.66798e-18
7345.65642 7.63786e-18
7346.97867 7.61863e-18
7348.29089 7.59942e-18
7349.61314 7.60989e-18
7350.92537 7.62036e-18
7352.24761 7.63543e-18
7353.56985 7.65049e-18
7354.88208 7.65207e-18
7356.20432 7.65364e-18
7357.51655 7.65056e-18
7358.83880 7.64746e-18
7360.16104 7.63798e-18
7361.47327 7.62849e-18
7362.79551 7.61193e-18
7364.10774 7.59538e-18
7365.42998 7.59608e-18
7366.75223 7.59680e-18
7368.06445 7.61504e-18
7369.38670 7.63327e-18
7370.69892 7.63704e-18
7372.02117 7.64079e-18
7373.34341 7.63083e-18
7374.65564 7.62089e-18
7375.97788 7.62639e-18
7377.29011 7.63187e-18
7378.61235 7.62748e-18
7379.93460 7.62307e-18
7381.24682 7.59694e-18
7382.56907 7.57083e-18
7383.88130 7.55846e-18
7385.20354 7.54609e-18
7386.52578 7.52554e-18
7387.83801 7.50500e-18
7389.16025 7.48993e-18
7390.47248 7.47487e-18
7391.79473 7.45872e-18
7393.11697 7.44254e-18
7394.42920 7.40155e-18
7395.75144 7.36056e-18
7397.06367 7.31563e-18
7398.38591 7.27073e-18
7399.70816 7.24488e-18
7401.02038 7.21904e-18
7402.34263 7.20038e-18
7403.66487 7.18170e-18
7404.97710 7.13923e-18
7406.29934 7.09676e-18
7407.61157 7.05101e-18
7408.93381 7.00530e-18
7410.24604 6.97987e-18
7411.56828 6.95445e-18
7412.89053 6.92880e-18
7414.20275 6.90315e-18
7415.52500 6.87915e-18
7416.84724 6.85518e-18
7418.15947 6.84389e-18
7419.48171 6.83261e-18
7420.79394 6.82847e-18
7422.11618 6.82433e-18
7423.43843 6.81694e-18
7424.75065 6.80952e-18
7426.07290 6.78779e-18
7427.38513 6.76606e-18
7428.70737 6.74707e-18
7430.02961 6.72806e-18
7431.34184 6.69912e-18
7432.66409 6.67016e-18
7433.97631 6.62751e-18
7435.29856 6.58487e-18
7436.62080 6.54477e-18
7437.93303 6.50468e-18
7439.25527 6.46215e-18
7440.56750 6.41961e-18
7441.88974 6.35899e-18
7443.21199 6.29836e-18
7444.52421 6.22188e-18
7445.84646 6.14542e-18
7447.15868 6.08262e-18
7448.48093 6.01985e-18
7449.80317 5.98238e-18
7451.11540 5.94494e-18
7452.43764 5.92838e-18
7453.74987 5.91183e-18
7455.07211 5.89958e-18
7456.39436 5.88732e-18
7457.70659 5.87208e-18
7459.02883 5.85684e-18
7460.34106 5.83204e-18
7461.66330 5.80723e-18
7462.98554 5.76912e-18
7464.29777 5.73100e-18
7465.62002 5.68673e-18
7466.93224 5.64246e-18
7468.25449 5.59221e-18
7469.57673 5.54196e-18
7470.88896 5.49353e-18
7472.21120 5.44511e-18
7473.52343 5.40097e-18
7474.84567 5.35683e-18
7476.16792 5.31000e-18
7477.48014 5.26316e-18
7478.80239 5.21241e-18
7480.12463 5.16166e-18
7481.43686 5.11081e-18
7482.75910 5.05996e-18
7484.07133 5.01032e-18
7485.39357 4.96068e-18
7486.71582 4.91473e-18
7488.02804 4.86879e-18
7489.35029 4.82945e-18
7490.66251 4.79012e-18
7491.98476 4.75343e-18
7493.30700 4.71676e-18
7494.61923 4.68791e-18
7495.94147 4.65907e-18
7497.25370 4.63710e-18
7498.57595 4.61512e-18
7499.89819 4.59091e-18
7501.21042 4.56670e-18
7502.53266 4.53650e-18
7503.84489 4.50630e-18
7505.16713 4.48095e-18
7506.48938 4.45561e-18
7507.80160 4.44481e-18
7509.12385 4.43402e-18
7510.43607 4.42523e-18
7511.75832 4.41643e-18
7513.08056 4.40770e-18
7514.39279 4.39899e-18
7515.71503 4.40453e-18
7517.02726 4.41007e-18
7518.34950 4.41420e-18
7519.67175 4.41832e-18
7520.98397 4.41418e-18
7522.30622 4.41004e-18
7523.61845 4.40599e-18
7524.94069 4.40195e-18
7526.26293 4.40608e-18
7527.57516 4.41020e-18
7528.89740 4.40751e-18
7530.20963 4.40481e-18
7531.53188 4.39787e-18
7532.85412 4.39093e-18
7534.16635 4.38264e-18
7535.48859 4.37436e-18
7536.81083 4.37496e-18
7538.12306 4.37560e-18
7539.44531 4.40266e-18
7540.75753 4.42973e-18
7542.07978 4.46651e-18
7543.39200 4.50325e-18
7544.71425 4.51774e-18
7546.03649 4.53221e-18
7547.34872 4.53236e-18
7548.67096 4.53254e-18
7549.99321 4.55574e-18
7551.30543 4.57893e-18
7552.62768 4.60212e-18
7553.93990 4.62530e-18
7555.26215 4.64849e-18
7556.58439 4.67167e-18
7557.89662 4.69486e-18
7559.21886 4.71804e-18
7560.53109 4.74122e-18
7561.85333 4.76440e-18
7563.17558 4.78757e-18
7564.48780 4.81075e-18
7565.81005 4.83392e-18
7567.12228 4.85710e-18
7568.44452 4.88026e-18
7569.76676 4.90343e-18
7571.07899 4.92659e-18
7572.40124 4.94976e-18
7573.71346 4.97293e-18
7575.03571 4.99609e-18
7576.35795 5.01925e-18
7577.67018 5.04241e-18
7578.99242 5.06556e-18
7580.30465 5.08872e-18
7581.62689 5.11187e-18
7582.94914 5.13502e-18
7584.26136 5.15817e-18
7585.58361 5.18132e-18
7586.89583 5.20447e-18
7588.21808 5.22761e-18
7589.54032 5.25076e-18
7590.85255 5.27390e-18
7592.17479 5.29704e-18
7593.48702 5.32018e-18
7594.80926 5.34332e-18
7596.13151 5.36645e-18
7597.44374 5.38958e-18
7598.76598 5.41271e-18
7600.07821 5.43584e-18
7601.40045 5.45897e-18
7602.72269 5.48210e-18
7604.03492 5.50523e-18
7605.35717 5.52835e-18
7606.67941 5.55148e-18
7607.99164 5.57460e-18
7609.31388 5.59772e-18
7610.62611 5.62083e-18
7611.94835 5.64394e-18
7613.26058 5.66706e-18
7614.58282 5.69017e-18
7615.90507 5.71328e-18
7617.21729 5.73639e-18
7618.53954 5.75950e-18
7619.86178 5.78261e-18
7621.17401 5.80571e-18
7622.49625 5.82881e-18
7623.80848 5.85192e-18
7625.13072 5.87502e-18
7626.45297 5.89810e-18
7627.76519 5.92120e-18
7629.08744 5.94430e-18
7630.39966 5.96739e-18
7631.72191 5.99048e-18
7633.04415 6.01357e-18
7634.35638 6.03666e-18
7635.67862 6.05975e-18
7636.99085 6.08283e-18
7638.31310 6.10592e-18
7639.63534 6.12900e-18
7640.94757 6.15207e-18
7642.26981 6.17515e-18
7643.58204 6.19822e-18
7644.90428 6.22130e-18
7646.22653 6.24437e-18
7647.53875 6.26744e-18
7648.86100 6.29051e-18
7650.17322 6.31358e-18
7651.49547 6.33665e-18
7652.81771 6.35972e-18
7654.12994 6.38278e-18
7655.45218 6.40583e-18
7656.76441 6.42889e-18
7658.08665 6.45195e-18
7659.40890 6.47501e-18
7660.72112 6.49806e-18
7662.04337 6.52112e-18
7663.35560 6.54417e-18
7664.67784 6.56722e-18
7666.00008 6.59027e-18
7667.31231 6.61332e-18
7668.63455 6.63636e-18
7669.94678 6.65940e-18
7671.26903 6.68244e-18
7672.59127 6.70548e-18
7673.90350 6.72852e-18
7675.22574 6.75155e-18
7676.53797 6.77459e-18
7677.86021 6.79762e-18
7679.18246 6.82066e-18
7680.49468 6.84369e-18
7681.81693 6.83192e-18
7683.13917 6.82019e-18
7684.45140 6.84320e-18
7685.77364 6.86621e-18
7687.08587 6.88456e-18
7688.40811 6.90292e-18
7689.73036 6.92123e-18
7691.04258 6.93952e-18
7692.36483 6.94790e-18
7693.67705 6.95631e-18
7694.99930 6.99434e-18
7696.32154 7.03242e-18
7697.63377 7.10967e-18
7698.95601 7.18690e-18
7700.26824 7.25872e-18
7701.59048 7.33053e-18
7702.91273 7.38788e-18
7704.22495 7.44523e-18
7705.54720 7.50409e-18
7706.85943 7.56295e-18
7708.18167 7.62105e-18
7709.50391 7.67914e-18
7710.81614 7.73160e-18
7712.13839 7.78403e-18
7713.45061 7.81546e-18
7714.77286 7.84686e-18
7716.09510 7.85327e-18
7717.40733 7.85969e-18
7718.72957 7.86733e-18
7720.04180 7.87498e-18
7721.36404 7.88530e-18
7722.68629 7.89562e-18
7723.99851 7.89908e-18
7725.32076 7.90253e-18
7726.63298 7.89289e-18
7727.95523 7.88321e-18
7729.27747 7.84490e-18
7730.58970 7.80658e-18
7731.91194 7.75941e-18
7733.22417 7.71226e-18
7734.54641 7.67600e-18
7735.86866 7.63974e-18
7737.18089 7.61042e-18
7738.50313 7.58113e-18
7739.82537 7.57458e-18
7741.13760 7.56805e-18
7742.45984 7.57590e-18
7743.77207 7.58375e-18
7745.09432 7.59364e-18
7746.40654 7.60354e-18
7747.72879 7.61957e-18
7749.05103 7.63562e-18
7750.36326 7.66402e-18
7751.68550 7.69240e-18
7753.00775 7.71775e-18
7754.31997 7.74312e-18
7755.64222 7.78674e-18
7756.95444 7.83034e-18
7758.27669 7.85723e-18
7759.59893 7.88414e-18
7760.91116 7.93107e-18
7762.23340 7.97801e-18
7763.54563 8.04717e-18
7764.86787 8.11628e-18
7766.19012 8.16173e-18
7767.50234 8.20713e-18
7768.82459 8.22012e-18
7770.13681 8.23310e-18
7771.45906 8.23598e-18
7772.78130 8.23887e-18
7774.09353 8.25878e-18
7775.41577 8.27868e-18
7776.72800 8.30221e-18
7778.05025 8.32573e-18
7779.37249 8.34107e-18
7780.68472 8.35641e-18
7782.00696 8.36630e-18
7783.31919 8.37616e-18
7784.64143 8.36712e-18
7785.96367 8.35805e-18
7787.27590 8.33446e-18
7788.59815 8.31088e-18
7789.91037 8.29091e-18
7791.23262 8.27096e-18
7792.55486 8.26019e-18
7793.86709 8.24941e-18
7795.18933 8.23132e-18
7796.50156 8.21322e-18
7797.82380 8.17273e-18
7799.14605 8.13222e-18
7800.45827 8.07562e-18
7801.78052 8.01904e-18
7803.09275 7.97582e-18
7804.41499 7.93263e-18
7805.73723 7.90579e-18
7807.04946 7.87896e-18
7808.37170 7.85801e-18
7809.68393 7.83710e-18
7811.00618 7.84192e-18
7812.32842 7.84674e-18
7813.64065 7.85855e-18
7814.96289 7.87035e-18
7816.27512 7.86747e-18
7817.59736 7.86461e-18
7818.91961 7.87575e-18
7820.23183 7.88690e-18
7821.55408 7.91062e-18
7822.87632 7.93434e-18
7824.18855 7.96407e-18
7825.51079 7.99382e-18
7826.82302 8.03447e-18
7828.14526 8.07509e-18
7829.46751 8.09005e-18
7830.77973 8.10499e-18
7832.10198 8.09550e-18
7833.41420 8.08604e-18
7834.73645 8.10712e-18
7836.05869 8.12825e-18
7837.37092 8.18673e-18
7838.69316 8.24520e-18
7840.00539 8.29461e-18
7841.32763 8.34396e-18
7842.64988 8.34797e-18
7843.96210 8.35196e-18
7845.28435 8.34008e-18
7846.59658 8.32821e-18
7847.91882 8.32373e-18
7849.24106 8.31922e-18
7850.55329 8.29541e-18
7851.87554 8.27157e-18
7853.18776 8.22761e-18
7854.51001 8.18368e-18
7855.83225 8.15693e-18
7857.14448 8.13016e-18
7858.46672 8.08984e-18
7859.77895 8.04950e-18
7861.10119 7.99169e-18
7862.42344 7.93389e-18
7863.73566 7.88767e-18
7865.05791 7.84147e-18
7866.37013 7.80985e-18
7867.69238 7.77823e-18
7869.01462 7.74291e-18
7870.32685 7.70758e-18
7871.64909 7.66756e-18
7872.96132 7.62757e-18
7874.28356 7.60579e-18
7875.60581 7.58406e-18
7876.91804 7.61305e-18
7878.24028 7.64207e-18
7879.55251 7.70318e-18
7880.87475 7.76426e-18
7882.19699 7.80937e-18
7883.50922 7.85446e-18
7884.83147 7.89973e-18
7886.15371 7.94497e-18
7887.46594 7.97499e-18
7888.78818 8.00496e-18
7890.10041 7.98862e-18
7891.42265 7.97224e-18
7892.74490 7.93395e-18
7894.05712 7.89566e-18
7895.37937 7.85504e-18
7896.69159 7.81439e-18
7898.01384 7.75439e-18
7899.33608 7.69438e-18
7900.64831 7.62671e-18
7901.97055 7.55904e-18
7903.28278 7.48581e-18
7904.60502 7.41260e-18
7905.92727 7.34859e-18
7907.23949 7.28464e-18
7908.56174 7.25969e-18
7909.87396 7.23476e-18
7911.19621 7.23101e-18
7912.51845 7.22729e-18
7913.83068 7.24119e-18
7915.15292 7.25511e-18
7916.46515 7.29177e-18
7917.78740 7.32838e-18
7919.10964 7.33158e-18
7920.42187 7.33475e-18
7921.74411 7.30964e-18
7923.05634 7.28456e-18
7924.37858 7.29216e-18
7925.70082 7.29979e-18
7927.01305 7.33101e-18
7928.33530 7.36224e-18
7929.64752 7.39828e-18
7930.96977 7.43429e-18
7932.29201 7.45339e-18
7933.60424 7.47248e-18
7934.92648 7.47980e-18
7936.23871 7.48711e-18
7937.56095 7.48588e-18
7938.88320 7.48463e-18
7940.19542 7.46249e-18
7941.51767 7.44031e-18
7942.82990 7.39372e-18
7944.15214 7.34714e-18
7945.47438 7.30754e-18
7946.78661 7.26794e-18
7948.10885 7.23098e-18
7949.42108 7.19400e-18
7950.74333 7.13271e-18
7952.06557 7.07141e-18
7953.37780 6.99203e-18
7954.70004 6.91269e-18
7956.02228 6.85699e-18
7957.33451 6.80131e-18
7958.65675 6.76669e-18
7959.96898 6.73205e-18
7961.29123 6.68532e-18
7962.61347 6.63860e-18
7963.92570 6.59827e-18
7965.24794 6.55794e-18
7966.56017 6.51615e-18
7967.88241 6.47435e-18
7969.20466 6.43345e-18
7970.51688 6.39259e-18
7971.83913 6.39237e-18
7973.15135 6.39217e-18
7974.47360 6.41472e-18
7975.79584 6.43727e-18
7977.10807 6.45355e-18
7978.43031 6.46985e-18
7979.74254 6.49437e-18
7981.06478 6.51883e-18
7982.38703 6.49970e-18
7983.69925 6.48049e-18
7985.02150 6.39479e-18
7986.33373 6.30910e-18
7987.65597 6.22414e-18
7988.97821 6.13919e-18
7990.29044 6.05144e-18
7991.61269 5.96370e-18
7992.92491 5.88788e-18
7994.24716 5.81208e-18
7995.56940 5.74876e-18
7996.88163 5.68545e-18
7998.20387 5.63153e-18
7999.51610 5.57764e-18
8000.83834 5.54982e-18
8002.16059 5.52199e-18
8003.47281 5.49070e-18
8004.79506 5.45941e-18
8006.10728 5.42138e-18
8007.42953 5.38336e-18
8008.75177 5.35084e-18
8010.06400 5.31836e-18
8011.38624 5.30756e-18
8012.69847 5.29678e-18
8014.02071 5.29329e-18
8015.34296 5.28977e-18
8016.65519 5.26169e-18
8017.97743 5.23363e-18
8019.28966 5.21393e-18
8020.61190 5.19424e-18
8021.93414 5.18720e-18
8023.24637 5.18015e-18
8024.56862 5.16875e-18
8025.89086 5.15734e-18
8027.20309 5.13192e-18
8028.52533 5.10651e-18
8029.83756 5.08392e-18
8031.15980 5.06134e-18
8032.47203 5.04405e-18
8033.79427 5.02679e-18
8035.11652 5.02514e-18
8036.42874 5.02348e-18
8037.75099 5.01465e-18
8039.07323 5.00578e-18
8040.38546 4.96609e-18
8041.70770 4.92641e-18
8043.01993 4.88985e-18
8044.34217 4.85329e-18
8045.66442 4.81060e-18
8046.97664 4.76792e-18
8048.29889 4.72126e-18
8049.61111 4.67461e-18
8050.93336 4.62872e-18
8052.25560 4.58281e-18
8053.56783 4.52756e-18
8054.89007 4.47231e-18
8056.20230 4.41847e-18
8057.52455 4.36465e-18
8058.84679 4.32608e-18
8060.15902 4.28753e-18
8061.48126 4.26398e-18
8062.79349 4.24046e-18
8064.11573 4.23869e-18
8065.43798 4.23693e-18
8066.75020 4.24841e-18
8068.07245 4.25988e-18
8069.38467 4.25959e-18
8070.70692 4.25931e-18
8072.02916 4.25814e-18
8073.34139 4.25698e-18
8074.66363 4.26229e-18
8075.97586 4.26759e-18
8077.29810 4.27729e-18
8078.62035 4.28699e-18
8079.93257 4.29132e-18
8081.25482 4.29563e-18
8082.56705 4.28641e-18
8083.88929 4.27719e-18
8085.21153 4.26613e-18
8086.52376 4.25506e-18
8087.84600 4.24001e-18
8089.16825 4.22496e-18
8090.48048 4.20147e-18
8091.80272 4.17798e-18
8093.11495 4.15200e-18
8094.43719 4.12603e-18
8095.75943 4.10575e-18
8097.07166 4.08547e-18
8098.39390 4.06341e-18
8099.70613 4.04131e-18
8101.02838 3.99207e-18
8102.35062 3.94284e-18
8103.66285 3.89144e-18
8104.98509 3.84008e-18
8106.29732 3.81579e-18
8107.61956 3.79149e-18
8108.94181 3.75545e-18
8110.25403 3.71940e-18
8111.57628 3.68066e-18
8112.88850 3.64196e-18
8114.21075 3.63393e-18
8115.53299 3.62593e-18
8116.84522 3.63819e-18
8118.16746 3.65040e-18
8119.47969 3.63626e-18
8120.80193 3.62210e-18
8122.12418 3.60323e-18
8123.43640 3.58440e-18
8124.75865 3.59438e-18
8126.07088 3.60436e-18
8127.39312 3.61373e-18
8128.71536 3.62307e-18
8130.02759 3.61137e-18
8131.34984 3.59965e-18
8132.66206 3.57549e-18
8133.98431 3.55135e-18
8135.30655 3.53563e-18
8136.61878 3.51994e-18
8137.94102 3.52593e-18
8139.25325 3.53192e-18
8140.57549 3.53695e-18
8141.89774 3.54196e-18
8143.20996 3.53160e-18
8144.53221 3.52123e-18
8145.84443 3.50758e-18
8147.16668 3.49392e-18
8148.48892 3.47677e-18
8149.80115 3.45960e-18
8151.12339 3.43511e-18
8152.43562 3.41062e-18
8153.75786 3.39111e-18
8155.08011 3.37160e-18
8156.39234 3.35529e-18
8157.71458 3.33897e-18
8159.03682 3.32111e-18
8160.34905 3.30326e-18
8161.67129 3.29331e-18
8162.98352 3.28336e-18
8164.30577 3.27505e-18
8165.62801 3.26673e-18
8166.94024 3.25169e-18
8168.26248 3.23664e-18
8169.57471 3.21817e-18
8170.89695 3.19968e-18
8172.21920 3.17109e-18
8173.53142 3.14250e-18
8174.85367 3.10797e-18
8176.16589 3.07345e-18
8177.48814 3.04870e-18
8178.81038 3.02397e-18
8180.12261 3.01559e-18
8181.44485 3.00724e-18
8182.75708 3.03194e-18
8184.07932 3.05664e-18
8185.40157 3.08862e-18
8186.71379 3.12059e-18
8188.03604 3.14554e-18
8189.34827 3.17048e-18
8190.67051 3.19060e-18
8191.99275 3.21071e-18
8193.30498 3.22916e-18
8194.62722 3.24762e-18
8195.93945 3.26569e-18
8197.26170 3.28376e-18
8198.58394 3.29586e-18
8199.89617 3.30793e-18
8201.21841 3.30258e-18
8202.53064 3.29721e-18
8203.85288 3.27524e-18
8205.17512 3.25326e-18
8206.48735 3.22874e-18
8207.80960 3.20420e-18
8209.12182 3.17258e-18
8210.44407 3.14095e-18
8211.76631 3.10452e-18
8213.07854 3.06811e-18
8214.40078 3.03727e-18
8215.71301 3.00646e-18
8217.03525 2.98753e-18
8218.35750 2.96862e-18
8219.66972 2.96265e-18
8220.99197 2.95671e-18
8222.30420 2.96600e-18
8223.62644 2.97529e-18
8224.94868 2.99276e-18
8226.26091 3.01025e-18
8227.58315 3.03899e-18
8228.89538 3.06774e-18
8230.21763 3.11113e-18
8231.53987 3.15451e-18
8232.85210 3.20075e-18
8234.17434 3.24696e-18
8235.49658 3.27687e-18
8236.80881 3.30674e-18
8238.13105 3.31163e-18
8239.44328 3.31649e-18
8240.76553 3.30929e-18
8242.08777 3.30208e-18
8243.40000 3.28708e-18
8244.72224 3.27208e-18
8246.03447 3.25244e-18
8247.35671 3.23281e-18
8248.66894 3.21618e-18
8249.99118 3.19957e-18
8251.31343 3.20045e-18
8252.62565 3.20137e-18
8253.94790 3.22923e-18
8255.27014 3.25710e-18
8256.58237 3.29125e-18
8257.90461 3.32538e-18
8259.21684 3.34038e-18
8260.53908 3.35537e-18
8261.86133 3.36859e-18
8263.17355 3.38183e-18
8264.49580 3.41192e-18
8265.80803 3.44201e-18
8267.13027 3.46954e-18
8268.45251 3.49707e-18
8269.76474 3.51998e-18
8271.08698 3.54288e-18
8272.39921 3.56278e-18
8273.72146 3.58269e-18
8275.04370 3.60949e-18
8276.35593 3.63630e-18
8277.67817 3.66044e-18
8278.99040 3.68457e-18
8280.31264 3.70374e-18
8281.63489 3.72290e-18
8282.94711 3.73717e-18
8284.26936 3.75142e-18
8285.58158 3.75381e-18
8286.90383 3.75617e-18
8288.22607 3.73884e-18
8289.53830 3.72153e-18
8290.86054 3.70788e-18
8292.17277 3.69426e-18
8293.49501 3.70031e-18
8294.81726 3.70636e-18
8296.12948 3.71128e-18
8297.45173 3.71619e-18
8298.77397 3.71772e-18
8300.08620 3.71926e-18
8301.40844 3.72794e-18
8302.72067 3.73662e-18
8304.04292 3.73919e-18
8305.35514 3.74175e-18
8306.67739 3.74433e-18
8307.99963 3.74692e-18
8309.31186 3.75658e-18
8310.63410 3.76624e-18
8311.94633 3.76690e-18
8313.26857 3.76757e-18
8314.59082 3.76686e-18
8315.90304 3.76617e-18
8317.22529 3.77465e-18
8318.54753 3.78316e-18
8319.85976 3.81707e-18
8321.18200 3.85097e-18
8322.49423 3.89123e-18
8323.81647 3.93149e-18
8325.13872 3.97521e-18
8326.45094 4.01896e-18
8327.77319 4.08258e-18
8329.08542 4.14617e-18
8330.40766 4.19187e-18
8331.72990 4.23753e-18
8333.04213 4.25992e-18
8334.36437 4.28230e-18
8335.67660 4.30181e-18
8336.99885 4.32131e-18
8338.32109 4.34101e-18
8339.63332 4.36070e-18
8340.95556 4.38206e-18
8342.26779 4.40339e-18
8343.59003 4.40762e-18
8344.91228 4.41183e-18
8346.22450 4.40523e-18
8347.54675 4.39864e-18
8348.85897 4.39699e-18
8350.18122 4.39535e-18
8351.50346 4.39796e-18
8352.81569 4.40056e-18
8354.13793 4.40075e-18
8355.46018 4.40095e-18
8356.77240 4.40272e-18
8358.09465 4.40450e-18
8359.40687 4.41176e-18
8360.72912 4.41899e-18
8362.04135 4.40293e-18
8363.36359 4.38685e-18
8364.68583 4.35884e-18
8365.99806 4.33087e-18
8367.32030 4.34006e-18
8368.63253 4.34929e-18
8369.95478 4.38351e-18
8371.27702 4.41773e-18
8372.58925 4.45156e-18
8373.91149 4.48538e-18
8375.23373 4.51941e-18
8376.54596 4.55344e-18
8377.86821 4.59186e-18
8379.18043 4.63030e-18
8380.50268 4.68441e-18
8381.82492 4.73852e-18
8383.13715 4.79753e-18
8384.45939 4.85653e-18
8385.77162 4.91739e-18
8387.09386 4.97824e-18
8388.40609 5.03669e-18
8389.72833 5.09511e-18
8391.05058 5.13574e-18
8392.36280 5.17636e-18
8393.68505 5.20243e-18
8395.00729 5.22849e-18
8396.31952 5.24200e-18
8397.64176 5.25547e-18
8398.95399 5.24961e-18
8400.27623 5.24373e-18
8401.59848 5.22350e-18
8402.91071 5.20328e-18
8404.23295 5.18404e-18
8405.54518 5.16480e-18
8406.86742 5.13520e-18
8408.18966 5.10563e-18
8409.50189 5.09195e-18
8410.82413 5.07833e-18
8412.13636 5.11375e-18
8413.45861 5.14912e-18
8414.78085 5.15983e-18
8416.09308 5.17053e-18
8417.41532 5.17071e-18
8418.72755 5.17096e-18
8420.04979 5.22849e-18
8421.37204 5.28601e-18
8422.68426 5.33812e-18
8424.00651 5.39020e-18
8425.31873 5.42259e-18
8426.64098 5.45503e-18
8427.96322 5.52000e-18
8429.27545 5.58498e-18
8430.59769 5.65880e-18
8431.90992 5.73260e-18
8433.23216 5.80071e-18
8434.55441 5.86880e-18
8435.86664 5.92550e-18
8437.18888 5.98218e-18
8438.51112 6.03295e-18
8439.82335 6.08373e-18
8441.14559 6.14399e-18
8442.45782 6.20421e-18
8443.78007 6.24499e-18
8445.10231 6.28577e-18
8446.41454 6.32777e-18
8447.73678 6.36976e-18
8449.04901 6.40732e-18
8450.37125 6.44488e-18
8451.68348 6.47254e-18
8453.00572 6.50018e-18
8454.32797 6.51057e-18
8455.64019 6.52095e-18
8456.96244 6.52189e-18
8458.28468 6.52287e-18
8459.59691 6.54372e-18
8460.91915 6.56459e-18
8462.23138 6.59079e-18
8463.55362 6.61699e-18
8464.87587 6.64622e-18
8466.18809 6.67546e-18
8467.51034 6.72016e-18
8468.82257 6.76484e-18
8470.14481 6.79824e-18
8471.46705 6.83162e-18
8472.77928 6.85050e-18
8474.10152 6.86937e-18
8475.41375 6.88074e-18
8476.73600 6.89213e-18
8478.05824 6.92188e-18
8479.37047 6.95160e-18
8480.69271 6.96010e-18
8482.00494 6.96855e-18
8483.32718 6.94462e-18
8484.64942 6.92069e-18
8485.96165 6.89648e-18
8487.28390 6.87230e-18
8488.59612 6.86254e-18
8489.91837 6.85276e-18
8491.24061 6.82844e-18
8492.55284 6.80411e-18
8493.87508 6.77667e-18
8495.18731 6.74927e-18
8496.50955 6.74476e-18
8497.83180 6.74026e-18
8499.14402 6.74597e-18
8500.46627 6.75171e-18
8501.78851 6.77613e-18
8503.10074 6.80057e-18
8504.42298 6.84437e-18
8505.73521 6.88820e-18
8507.05745 6.95658e-18
8508.36968 7.02494e-18
8509.69193 7.08687e-18
8511.01417 7.14879e-18
8512.32640 7.20692e-18
8513.64864 7.26507e-18
8514.96087 7.34135e-18
8516.28311 7.41759e-18
8517.60535 7.47222e-18
8518.91758 7.52684e-18
8520.23983 7.57683e-18
8521.56207 7.62679e-18
8522.87430 7.65071e-18
8524.19654 7.67461e-18
8525.50877 7.69092e-18
8526.83101 7.70723e-18
8528.15326 7.71984e-18
8529.46548 7.73245e-18
8530.78773 7.73539e-18
8532.09995 7.73832e-18
8533.42220 7.73147e-18
8534.74444 7.72462e-18
8536.05667 7.71171e-18
8537.37891 7.69881e-18
8538.69114 7.70047e-18
8540.01338 7.70212e-18
8541.33563 7.70803e-18
8542.64785 7.71393e-18
8543.97010 7.71622e-18
8545.28233 7.71854e-18
8546.60457 7.73842e-18
8547.92681 7.75830e-18
8549.23904 7.77451e-18
8550.56128 7.79071e-18
8551.87351 7.80082e-18
8553.19576 7.81089e-18
8554.51800 7.79723e-18
8555.83023 7.78354e-18
8557.15247 7.75818e-18
8558.47472 7.73291e-18
8559.78694 7.76472e-18
8561.10919 7.79654e-18
8562.42141 7.83897e-18
8563.74366 7.88134e-18
8565.05588 7.87782e-18
8566.37813 7.87429e-18
8567.70037 7.86565e-18
8569.01260 7.85701e-18
8570.33484 7.85031e-18
8571.64707 7.84358e-18
8572.96931 7.81999e-18
8574.29156 7.79638e-18
8575.60378 7.76016e-18
8576.92603 7.72390e-18
8578.24827 7.66399e-18
8579.56050 7.60406e-18
8580.88274 7.52475e-18
8582.19497 7.44546e-18
8583.51722 7.37096e-18
8584.83946 7.29652e-18
8586.15169 7.25409e-18
8587.47393 7.21174e-18
8588.78616 7.22454e-18
8590.10840 7.23732e-18
8591.42063 7.23799e-18
8592.74287 7.23866e-18
8594.06512 7.24128e-18
8595.37734 7.24398e-18
8596.69959 7.29650e-18
8598.02183 7.34902e-18
8599.33406 7.41526e-18
8600.65630 7.48147e-18
8601.96853 7.52529e-18
8603.29077 7.56910e-18
8604.61302 7.61260e-18
8605.92524 7.65609e-18
8607.24749 7.69749e-18
8608.55972 7.73888e-18
8609.88196 7.77667e-18
8611.20420 7.81444e-18
8612.51643 7.84960e-18
8613.83867 7.88474e-18
8615.15090 7.90140e-18
8616.47314 7.91803e-18
8617.79539 7.91775e-18
8619.10762 7.91744e-18
8620.42986 7.89644e-18
8621.74209 7.87544e-18
8623.06433 7.84520e-18
8624.38658 7.81500e-18
8625.69880 7.80552e-18
8627.02105 7.79604e-18
8628.33327 7.78853e-18
8629.65552 7.78099e-18
8630.97776 7.75510e-18
8632.28999 7.72922e-18
8633.61223 7.70633e-18
8634.92446 7.68343e-18
8636.24670 7.64775e-18
8637.56895 7.61208e-18
8638.88117 7.58383e-18
8640.20342 7.55559e-18
8641.52566 7.54282e-18
8642.83789 7.53003e-18
8644.16013 7.51030e-18
8645.47236 7.49058e-18
8646.79460 7.46967e-18
8648.11685 7.44877e-18
8649.42908 7.43440e-18
8650.75132 7.42000e-18
8652.06355 7.38175e-18
8653.38579 7.34348e-18
8654.69802 7.28802e-18
8656.02026 7.23261e-18
8657.34251 7.20115e-18
8658.65473 7.16970e-18
8659.97698 7.14411e-18
8661.29922 7.11854e-18
8662.61145 7.10123e-18
8663.93369 7.08394e-18
8665.24592 7.07489e-18
8666.56816 7.06584e-18
8667.89041 7.05216e-18
8669.20263 7.03849e-18
8670.52488 7.02746e-18
8671.83710 7.01644e-18
8673.15935 7.00755e-18
8674.48159 6.99864e-18
8675.79382 6.97267e-18
8677.11606 6.94670e-18
8678.42829 6.90986e-18
8679.75053 6.87306e-18
8681.07278 6.85664e-18
8682.38501 6.84021e-18
8683.70725 6.81304e-18
8685.01948 6.78584e-18
8686.34172 6.73232e-18
8687.66396 6.67882e-18
8688.97619 6.63545e-18
8690.29843 6.59210e-18
8691.61066 6.55589e-18
8692.93291 6.51969e-18
8694.25515 6.48433e-18
8695.56738 6.44895e-18
8696.88962 6.40264e-18
8698.20185 6.35638e-18
8699.52409 6.33562e-18
8700.84634 6.31495e-18
8702.15856 6.35868e-18
8703.48081 6.40240e-18
8704.80305 6.43939e-18
8706.11528 6.47634e-18
8707.43752 6.48304e-18
8708.74975 6.48977e-18
8710.07199 6.50856e-18
8711.38422 6.52740e-18
8712.70646 6.57235e-18
8714.02871 6.61726e-18
8715.34094 6.63079e-18
8716.66318 6.64432e-18
8717.97541 6.65296e-18
8719.29765 6.66158e-18
8720.61989 6.65898e-18
8721.93212 6.65632e-18
8723.25437 6.61382e-18
8724.57661 6.57134e-18
8725.88884 6.53942e-18
8727.21108 6.50750e-18
8728.52331 6.48075e-18
8729.84555 6.45398e-18
8731.16780 6.42111e-18
8732.48002 6.38826e-18
8733.80227 6.37443e-18
8735.11449 6.36059e-18
8736.43674 6.34303e-18
8737.74896 6.32545e-18
8739.07121 6.29407e-18
8740.39345 6.26270e-18
8741.70568 6.22512e-18
8743.02792 6.18752e-18
8744.35017 6.13598e-18
8745.66239 6.08440e-18
8746.98464 6.01142e-18
8748.29687 5.93842e-18
8749.61911 5.85118e-18
8750.94135 5.76399e-18
8752.25358 5.71054e-18
8753.57582 5.65712e-18
8754.88805 5.62313e-18
8756.21030 5.58914e-18
8757.53254 5.55417e-18
8758.84477 5.51922e-18
8760.16701 5.49336e-18
8761.48925 5.46755e-18
8762.80148 5.47857e-18
8764.12372 5.48959e-18
8765.43595 5.50165e-18
8766.75820 5.51366e-18
8768.07042 5.49348e-18
8769.39267 5.47334e-18
8770.71491 5.47750e-18
8772.02714 5.48171e-18
8773.34938 5.51221e-18
8774.66161 5.54267e-18
8775.98385 5.55319e-18
8777.30610 5.56369e-18
8778.61832 5.56252e-18
8779.94057 5.56139e-18
8781.26281 5.58775e-18
8782.57504 5.61411e-18
8783.89728 5.64618e-18
8785.20951 5.67820e-18
8786.53175 5.67522e-18
8787.85400 5.67222e-18
8789.16623 5.65101e-18
8790.48847 5.62982e-18
8791.80070 5.61469e-18
8793.12294 5.59956e-18
8794.43517 5.58511e-18
8795.75741 5.57065e-18
8797.07965 5.55425e-18
8798.39188 5.53786e-18
8799.71413 5.53659e-18
8801.03637 5.53529e-18
8802.34860 5.51728e-18
8803.67084 5.49923e-18
8804.98307 5.45663e-18
8806.30531 5.41404e-18
8807.62756 5.38591e-18
8808.93978 5.35776e-18
8810.26203 5.31835e-18
8811.57425 5.27892e-18
8812.89650 5.22491e-18
8814.21874 5.17093e-18
8815.53097 5.13604e-18
8816.85321 5.10121e-18
8818.16544 5.09579e-18
8819.48768 5.09036e-18
8820.80993 5.07057e-18
8822.12215 5.05079e-18
8823.44440 5.03719e-18
8824.75663 5.02363e-18
8826.07887 5.03783e-18
8827.40111 5.05202e-18
8828.71334 5.06309e-18
8830.03558 5.07420e-18
8831.34781 5.11106e-18
8832.67006 5.14796e-18
8833.99230 5.20982e-18
8835.30453 5.27165e-18
8836.62677 5.31178e-18
8837.93900 5.35191e-18
8839.26124 5.39752e-18
8840.58349 5.44313e-18
8841.89571 5.49434e-18
8843.21796 5.54552e-18
8844.54020 5.57539e-18
8845.85243 5.60526e-18
8847.17467 5.63287e-18
8848.48690 5.66043e-18
8849.80914 5.65508e-18
8851.13139 5.64970e-18
8852.44361 5.63035e-18
8853.76586 5.61104e-18
8855.07808 5.61959e-18
8856.40033 5.62814e-18
8857.71256 5.63756e-18
8859.03480 5.64695e-18
8860.35704 5.64126e-18
8861.66927 5.63559e-18
8862.99152 5.63721e-18
8864.31376 5.63882e-18
8865.62599 5.63247e-18
8866.94823 5.62610e-18
8868.26046 5.60827e-18
8869.58270 5.59043e-18
8870.90495 5.56806e-18
8872.21717 5.54568e-18
8873.53942 5.51875e-18
8874.85164 5.49181e-18
8876.17389 5.45215e-18
8877.49613 5.41251e-18
8878.80836 5.38357e-18
8880.13060 5.35465e-18
8881.44283 5.33415e-18
8882.76507 5.31367e-18
8884.08732 5.30336e-18
8885.39954 5.29306e-18
8886.72179 5.28889e-18
8888.03402 5.28472e-18
8889.35626 5.28652e-18
8890.67850 5.28838e-18
8891.99073 5.32352e-18
8893.31297 5.35868e-18
8894.62520 5.40298e-18
8895.94744 5.44724e-18
8897.26969 5.46581e-18
8898.58192 5.48439e-18
8899.90416 5.51382e-18
8901.21639 5.54331e-18
8902.53863 5.61011e-18
8903.86088 5.67689e-18
8905.17310 5.73676e-18
8906.49535 5.79656e-18
8907.81759 5.81605e-18
8909.12982 5.83548e-18
8910.45206 5.80767e-18
8911.76429 5.77988e-18
8913.08653 5.75663e-18
8914.39876 5.73343e-18
8915.72100 5.73443e-18
8917.04325 5.73540e-18
8918.35547 5.72059e-18
8919.67772 5.70576e-18
8920.98995 5.67356e-18
8922.31219 5.64135e-18
8923.63443 5.60586e-18
8924.94666 5.57038e-18
8926.26890 5.54469e-18
8927.59115 5.51901e-18
8928.90337 5.49279e-18
8930.22562 5.46656e-18
8931.53785 5.43573e-18
8932.86009 5.40489e-18
8934.18233 5.36400e-18
8935.49456 5.32312e-18
8936.81681 5.28561e-18
8938.12903 5.24810e-18
8939.45128 5.20229e-18
8940.76350 5.15647e-18
8942.08575 5.10446e-18
8943.40799 5.05251e-18
8944.72022 5.02895e-18
8946.04246 5.00539e-18
8947.36471 4.98644e-18
8948.67693 4.96746e-18
8949.99918 4.92344e-18
8951.31140 4.87943e-18
8952.63365 4.84367e-18
8953.95589 4.80796e-18
8955.26812 4.80434e-18
8956.59036 4.80071e-18
8957.90259 4.78803e-18
8959.22483 4.77535e-18
8960.54708 4.76111e-18
8961.85930 4.74690e-18
8963.18155 4.75561e-18
8964.49378 4.76434e-18
8965.81602 4.79170e-18
8967.13826 4.81906e-18
8968.45049 4.84621e-18
8969.77274 4.87334e-18
8971.08496 4.88835e-18
8972.40721 4.90334e-18
8973.72945 4.91027e-18
8975.04168 4.91719e-18
8976.36392 4.92306e-18
8977.67615 4.92890e-18
8978.99839 4.92604e-18
8980.32064 4.92318e-18
8981.63286 4.91809e-18
8982.95511 4.91299e-18
8984.27735 4.89445e-18
8985.58958 4.87591e-18
8986.91182 4.85101e-18
8988.22405 4.82613e-18
8989.54629 4.81159e-18
8990.86854 4.79705e-18
8992.18076 4.78284e-18
8993.50301 4.76863e-18
8994.81524 4.75439e-18
8996.13748 4.74016e-18
8997.44971 4.72847e-18
8998.77195 4.71677e-18
9000.09419 4.70737e-18
9001.40642 4.69798e-18
9002.72867 4.69639e-18
9004.05091 4.69479e-18
9005.36314 4.69274e-18
9006.68538 4.69066e-18
9007.99761 4.67468e-18
9009.31985 4.65869e-18
9010.64210 4.63308e-18
9011.95432 4.60749e-18
9013.27657 4.59120e-18
9014.58879 4.57491e-18
9015.91104 4.55533e-18
9017.23328 4.53579e-18
9018.54551 4.53843e-18
9019.86775 4.54110e-18
9021.17998 4.57003e-18
9022.50222 4.59900e-18
9023.82447 4.65884e-18
9025.13669 4.71869e-18
9026.45894 4.79021e-18
9027.77117 4.86175e-18
9029.09341 4.95122e-18
9030.41565 5.04069e-18
9031.72788 5.12869e-18
9033.05012 5.21661e-18
9034.36235 5.25704e-18
9035.68460 5.29741e-18
9037.00684 5.30124e-18
9038.31907 5.30505e-18
9039.64131 5.30275e-18
9040.95354 5.30045e-18
9042.27578 5.29058e-18
9043.59803 5.28069e-18
9044.91025 5.25770e-18
9046.23250 5.23473e-18
9047.55474 5.22237e-18
9048.86697 5.21002e-18
9050.18921 5.20191e-18
9051.50144 5.19376e-18
9052.82368 5.15349e-18
9054.14593 5.11320e-18
9055.45815 5.05654e-18
9056.78040 4.99988e-18
9058.09262 4.94968e-18
9059.41487 4.89949e-18
9060.72710 4.85635e-18
9062.04934 4.81325e-18
9063.37158 4.78659e-18
9064.68381 4.75996e-18
9066.00605 4.75027e-18
9067.32830 4.74058e-18
9068.64053 4.72680e-18
9069.96277 4.71303e-18
9071.27500 4.71015e-18
9072.59724 4.70735e-18
9073.91948 4.75373e-18
9075.23171 4.80014e-18
9076.55395 4.87450e-18
9077.86618 4.94882e-18
9079.18843 5.00229e-18
9080.51067 5.05574e-18
9081.82290 5.10077e-18
9083.14514 5.14579e-18
9084.45737 5.17942e-18
9085.77961 5.21299e-18
9087.10186 5.19717e-18
9088.41408 5.18132e-18
9089.73633 5.13815e-18
9091.04855 5.09476e-18
9092.37080 5.04760e-18
9093.69304 5.00043e-18
9095.00527 4.94924e-18
9096.32751 4.89808e-18
9097.63974 4.86875e-18
9098.96198 4.83948e-18
9100.28423 4.84208e-18
9101.59646 4.84472e-18
9102.91870 4.86776e-18
9104.23093 4.89084e-18
9105.55317 4.94254e-18
9106.87541 4.99426e-18
9108.18764 5.06938e-18
9109.50988 5.14449e-18
9110.83213 5.22052e-18
9112.14436 5.29653e-18
9113.46660 5.35596e-18
9114.77883 5.41536e-18
9116.10107 5.45019e-18
9117.41330 5.48496e-18
9118.73554 5.48851e-18
9120.05779 5.49201e-18
9121.37001 5.46618e-18
9122.69226 5.44032e-18
9124.00448 5.39721e-18
9125.32673 5.35412e-18
9126.64897 5.31564e-18
9127.96120 5.27718e-18
9129.28344 5.24960e-18
9130.60569 5.22204e-18
9131.91791 5.20861e-18
9133.24016 5.19517e-18
9134.55238 5.17401e-18
9135.87463 5.15288e-18
9137.19687 5.15060e-18
9138.50910 5.14835e-18
9139.83134 5.15932e-18
9141.14357 5.17027e-18
9142.46582 5.16595e-18
9143.77804 5.16165e-18
9145.10029 5.17137e-18
9146.42253 5.18115e-18
9147.73476 5.21845e-18
9149.05700 5.25578e-18
9150.37925 5.31644e-18
9151.69147 5.37712e-18
9153.01372 5.44966e-18
9154.32594 5.52220e-18
9155.64819 5.59549e-18
9156.97043 5.66877e-18
9158.28266 5.73354e-18
9159.60490 5.79827e-18
9160.91713 5.83498e-18
9162.23937 5.87168e-18
9163.56162 5.90356e-18
9164.87384 5.93544e-18
9166.19609 5.96884e-18
9167.50832 6.00216e-18
9168.83056 5.98780e-18
9170.15280 5.97340e-18
9171.46503 5.93788e-18
9172.78727 5.90240e-18
9174.09950 5.89353e-18
9175.42175 5.88471e-18
9176.74399 5.90620e-18
9178.05622 5.92767e-18
9179.37846 5.93834e-18
9180.69069 5.94897e-18
9182.01293 5.92634e-18
9183.33518 5.90371e-18
9184.64740 5.88083e-18
9185.96965 5.85795e-18
9187.28187 5.83249e-18
9188.60412 5.80702e-18
9189.92636 5.77518e-18
9191.23859 5.74335e-18
9192.56083 5.71680e-18
9193.88308 5.69027e-18
9195.19530 5.67302e-18
9196.51755 5.65584e-18
9197.82977 5.68509e-18
9199.15202 5.71443e-18
9200.46425 5.80651e-18
9201.78649 5.89859e-18
9203.10873 6.00042e-18
9204.42096 6.10219e-18
9205.74320 6.17014e-18
9207.06545 6.23803e-18
9208.37767 6.27736e-18
9209.69992 6.31661e-18
9211.01215 6.30826e-18
9212.33439 6.29986e-18
9213.65663 6.25491e-18
9214.96886 6.21001e-18
9216.29111 6.19376e-18
9217.60333 6.17751e-18
9218.92558 6.16406e-18
9220.24782 6.15060e-18
9221.56005 6.13024e-18
9222.88229 6.10992e-18
9224.19452 6.10535e-18
9225.51676 6.10072e-18
9226.83901 6.05549e-18
9228.15123 6.01024e-18
9229.47348 5.95502e-18
9230.78570 5.89982e-18
9232.10795 5.86215e-18
9233.43019 5.82444e-18
9234.74242 5.75941e-18
9236.06466 5.69437e-18
9237.37689 5.61639e-18
9238.69913 5.53848e-18
9240.02138 5.49788e-18
9241.33360 5.45731e-18
9242.65585 5.43594e-18
9243.96808 5.41456e-18
9245.29032 5.38723e-18
9246.61256 5.35994e-18
9247.92479 5.35517e-18
9249.24704 5.35047e-18
9250.56928 5.38788e-18
9251.88151 5.42535e-18
9253.20375 5.50508e-18
9254.51598 5.58479e-18
9255.83822 5.66106e-18
9257.16047 5.73731e-18
9258.47269 5.80588e-18
9259.79494 5.87441e-18
9261.10716 5.92284e-18
9262.42941 5.97118e-18
9263.74163 5.96288e-18
9265.06388 5.95452e-18
9266.38612 5.91313e-18
9267.69835 5.87173e-18
9269.02059 5.82206e-18
9270.34284 5.77249e-18
9271.65506 5.77672e-18
9272.97731 5.78099e-18
9274.28953 5.80404e-18
9275.61178 5.82699e-18
9276.93402 5.79071e-18
9278.24625 5.75455e-18
9279.56849 5.78952e-18
9280.88072 5.82453e-18
9282.20297 5.88225e-18
9283.52521 5.93995e-18
9284.83744 5.99045e-18
9286.15968 6.04098e-18
9287.47191 6.11653e-18
9288.79415 6.19184e-18
9290.11640 6.11772e-18
9291.42862 6.04386e-18
9292.75087 6.12468e-18
9294.06309 6.20566e-18
9295.38534 6.38487e-18
9296.70758 6.56400e-18
9298.01981 6.69224e-18
9299.34205 6.82048e-18
9300.65428 6.95844e-18
9301.97652 7.09628e-18
9303.29877 7.16976e-18
9304.61099 7.24319e-18
9305.93324 7.28535e-18
9307.24547 7.32771e-18
9308.56771 7.48791e-18
9309.88995 7.64804e-18
9311.20218 7.76188e-18
9312.52442 7.87554e-18
9313.84667 7.87800e-18
9315.15890 7.88053e-18
9316.48114 7.92110e-18
9317.79337 7.96146e-18
9319.11561 7.86707e-18
9320.42784 7.77257e-18
9321.75008 7.60413e-18
9323.07233 7.43577e-18
9324.38455 7.31176e-18
9325.70680 7.18771e-18
9327.01902 7.03417e-18
9328.34127 6.88062e-18
9329.66351 6.71584e-18
9330.97574 6.55110e-18
9332.29798 6.41283e-18
9333.62023 6.27479e-18
9334.93245 6.27195e-18
9336.25470 6.26919e-18
9337.56692 6.31944e-18
9338.88917 6.36976e-18
9340.21141 6.46562e-18
9341.52364 6.56176e-18
9342.84588 6.82565e-18
9344.15811 7.08956e-18
9345.48035 7.36445e-18
9346.79258 7.63889e-18
9348.11483 7.63772e-18
9349.43707 7.63612e-18
9350.74930 7.37438e-18
9352.07154 7.11277e-18
9353.39378 6.92601e-18
9354.70601 6.73965e-18
9356.02825 6.79309e-18
9357.34048 6.84671e-18
9358.66273 7.00516e-18
9359.98497 7.16351e-18
9361.29720 7.26378e-18
9362.61944 7.36398e-18
9363.93167 7.42119e-18
9365.25391 7.47843e-18
9366.57616 7.55219e-18
9367.88838 7.62630e-18
9369.21063 7.91849e-18
9370.52285 8.21073e-18
9371.84510 8.53237e-18
9373.16734 8.85370e-18
9374.47957 9.00024e-18
9375.80181 9.14650e-18
9377.11404 9.13315e-18
9378.43628 9.11945e-18
9379.75853 8.89916e-18
9381.07076 8.67880e-18
9382.39300 8.41238e-18
9383.70523 8.14628e-18
9385.02747 8.07210e-18
9386.34971 7.99793e-18
9387.66194 7.92583e-18
9388.98418 7.85344e-18
9390.29641 7.60325e-18
9391.61866 7.35318e-18
9392.94090 7.16750e-18
9394.25313 6.98207e-18
9395.57537 6.94026e-18
9396.89762 6.89856e-18
9398.20984 6.92062e-18
9399.53209 6.94292e-18
9400.84431 7.11752e-18
9402.16656 7.29246e-18
9403.47878 7.67579e-18
9404.91122 7.67579e-18
9407.03482 7.61668e-18
9409.14841 7.55759e-18
9411.27201 7.54522e-18
9413.39561 7.53285e-18
9415.50920 7.55874e-18
9417.63280 7.58462e-18
9419.74639 7.64689e-18
9421.87000 7.70918e-18
9423.98358 7.80611e-18
9426.10719 7.90304e-18
9428.22077 8.00379e-18
9430.34438 8.10454e-18
9432.46798 8.18347e-18
9434.58157 8.26239e-18
9436.70517 8.28133e-18
9438.81876 8.30026e-18
9440.94236 8.27129e-18
9443.05595 8.24231e-18
9445.17956 8.19055e-18
9447.30316 8.13877e-18
9449.41675 8.08814e-18
9451.54035 8.03751e-18
9453.65394 8.00501e-18
9455.77754 7.97250e-18
9457.89113 7.95488e-18
9460.01473 7.93726e-18
9462.13834 7.93782e-18
9464.25192 7.93839e-18
9466.37553 7.95983e-18
9468.48911 7.98128e-18
9470.61272 8.01301e-18
9472.72631 8.04473e-18
9474.84991 8.07782e-18
9476.97351 8.11090e-18
9479.08710 8.12911e-18
9481.21070 8.14733e-18
9483.32429 8.15876e-18
9485.44790 8.17021e-18
9487.56148 8.18681e-18
9489.68509 8.20343e-18
9491.80869 8.23876e-18
9493.92228 8.27409e-18
9496.04588 8.33052e-18
9498.15947 8.38696e-18
9500.28307 8.44474e-18
9502.39666 8.50251e-18
9504.52026 8.54826e-18
9506.64387 8.59401e-18
9508.75745 8.61230e-18
9510.88106 8.63059e-18
9512.99465 8.62879e-18
9515.11825 8.62699e-18
9517.23184 8.60906e-18
9519.35544 8.59113e-18
9521.47904 8.56425e-18
9523.59263 8.53736e-18
9525.71623 8.50109e-18
9527.82982 8.46480e-18
9529.95343 8.41855e-18
9532.06701 8.37230e-18
9534.19062 8.31454e-18
9536.31422 8.25678e-18
9538.42781 8.19177e-18
9540.55141 8.12678e-18
9542.66500 8.06822e-18
9544.78860 8.00966e-18
9546.91221 7.96810e-18
9549.02579 7.92653e-18
9551.14940 7.91275e-18
9553.26298 7.89897e-18
9555.38659 7.90252e-18
9557.50018 7.90608e-18
9559.62378 7.91944e-18
9561.73737 7.93280e-18
9563.86097 7.94817e-18
9565.98458 7.96355e-18
9568.09816 7.97303e-18
9570.22177 7.98249e-18
9572.33535 7.97926e-18
9574.45896 7.97602e-18
9576.57254 7.94922e-18
9578.69615 7.92244e-18
9580.81975 7.87408e-18
9582.93334 7.82572e-18
9585.05694 7.77524e-18
9587.17053 7.72476e-18
9589.29413 7.68738e-18
9591.40772 7.65001e-18
9593.53132 7.64180e-18
9595.65493 7.63360e-18
9597.76852 7.64246e-18
9599.89212 7.65131e-18
9602.00571 7.67004e-18
9604.12931 7.68877e-18
9606.25292 7.70909e-18
9608.36650 7.72940e-18
9610.49011 7.74520e-18
9612.60369 7.76100e-18
9614.72730 7.76711e-18
9616.84088 7.77324e-18
9618.96449 7.76127e-18
9621.07807 7.74932e-18
9623.20168 7.72099e-18
9625.32528 7.69266e-18
9627.43887 7.66155e-18
9629.56247 7.63045e-18
9631.67606 7.60715e-18
9633.79967 7.58386e-18
9635.91325 7.57910e-18
9638.03686 7.57435e-18
9640.16046 7.58602e-18
9642.27405 7.59769e-18
9644.39765 7.62530e-18
9646.51124 7.65292e-18
9648.63484 7.69753e-18
9650.75845 7.74215e-18
9652.87203 7.79356e-18
9654.99564 7.84498e-18
9657.10922 7.89250e-18
9659.23283 7.94003e-18
9661.34642 7.97043e-18
9663.47002 8.00081e-18
9665.58361 8.01063e-18
9667.70721 8.02045e-18
9669.83081 8.01698e-18
9671.94440 8.01348e-18
9674.06800 8.00102e-18
9676.18159 7.98855e-18
9678.30520 7.97226e-18
9680.41878 7.95599e-18
9682.54239 7.93923e-18
9684.66599 7.92249e-18
9686.77958 7.90893e-18
9688.90318 7.89535e-18
9691.01677 7.89182e-18
9693.14037 7.88830e-18
9695.25396 7.88611e-18
9697.37756 7.88390e-18
9699.50117 7.87433e-18
9701.61476 7.86478e-18
9703.73836 7.83618e-18
9705.85195 7.80758e-18
9707.97555 7.75994e-18
9710.08914 7.71228e-18
9712.21274 7.65621e-18
9714.33635 7.60015e-18
9716.44993 7.54358e-18
9718.57354 7.48702e-18
9720.68712 7.43795e-18
9722.81073 7.38889e-18
9724.92431 7.34436e-18
9727.04792 7.29985e-18
9729.17152 7.25943e-18
9731.28511 7.21902e-18
9733.40871 7.18115e-18
9735.52230 7.14330e-18
9737.64590 7.10911e-18
9739.75949 7.07492e-18
9741.88310 7.04505e-18
9744.00670 7.01517e-18
9746.12029 6.99071e-18
9748.24389 6.96623e-18
9750.35748 6.94582e-18
9752.48108 6.92540e-18
9754.59467 6.90601e-18
9756.71827 6.88662e-18
9758.84188 6.86554e-18
9760.95546 6.84448e-18
9763.07907 6.81969e-18
9765.19265 6.79489e-18
9767.31626 6.77026e-18
9769.42985 6.74562e-18
9771.55345 6.72362e-18
9773.67705 6.70160e-18
9775.79064 6.68437e-18
9777.91424 6.66713e-18
9780.02783 6.65750e-18
9782.15143 6.64786e-18
9784.27504 6.64775e-18
9786.38863 6.64764e-18
9788.51223 6.66133e-18
9790.62582 6.67502e-18
9792.74942 6.69757e-18
9794.86301 6.72013e-18
9796.98661 6.74069e-18
9799.10020 6.76125e-18
9801.22380 6.77071e-18
9803.34741 6.78016e-18
9805.46099 6.77065e-18
9807.58460 6.76116e-18
9809.69818 6.73361e-18
9811.82179 6.70605e-18
9813.93538 6.66042e-18
9816.05898 6.61480e-18
9818.18258 6.55009e-18
9820.29617 6.48539e-18
9822.41978 6.41372e-18
9824.53336 6.34204e-18
9826.65697 6.27507e-18
9828.77055 6.20809e-18
9830.89416 6.16045e-18
9833.01776 6.11280e-18
9835.13135 6.08833e-18
9837.25495 6.06385e-18
9839.36854 6.05962e-18
9841.49214 6.05539e-18
9843.61575 6.06953e-18
9845.72933 6.08367e-18
9847.85294 6.11346e-18
9849.96652 6.14327e-18
9852.09013 6.18883e-18
9854.20372 6.23437e-18
9856.32732 6.29360e-18
9858.44091 6.35283e-18
9860.56451 6.42279e-18
9862.68812 6.49274e-18
9864.80170 6.56965e-18
9866.92531 6.64656e-18
9869.03889 6.72578e-18
9871.16250 6.80501e-18
9873.27608 6.88551e-18
9875.39969 6.96601e-18
9877.52329 7.03641e-18
9879.63688 7.10679e-18
9881.76048 7.15191e-18
9883.87407 7.19703e-18
9885.99767 7.20220e-18
9888.11126 7.20735e-18
9890.23487 7.16472e-18
9892.35847 7.12209e-18
9894.47206 7.05168e-18
9896.59566 6.98127e-18
9898.70925 6.89713e-18
9900.83285 6.81300e-18
9902.94644 6.73200e-18
9905.07004 6.65100e-18
9907.19365 6.57974e-18
9909.30723 6.50848e-18
9911.43084 6.45330e-18
9913.54442 6.39813e-18
9915.66803 6.36889e-18
9917.79163 6.33965e-18
9919.90522 6.33094e-18
9922.02882 6.32223e-18
9924.14241 6.32185e-18
9926.26601 6.32149e-18
9928.37960 6.31772e-18
9930.50321 6.31396e-18
9932.61679 6.29728e-18
9934.74040 6.28062e-18
9936.86400 6.25266e-18
9938.97759 6.22471e-18
9941.10119 6.18458e-18
9943.21478 6.14446e-18
9945.33838 6.09138e-18
9947.45197 6.03832e-18
9949.57557 5.98017e-18
9951.69918 5.92202e-18
9953.81276 5.86617e-18
9955.93637 5.81035e-18
9958.04996 5.76573e-18
9960.17356 5.72114e-18
9962.28715 5.69077e-18
9964.41075 5.66042e-18
9966.53435 5.64448e-18
9968.64794 5.62852e-18
9970.77155 5.62847e-18
9972.88513 5.62843e-18
9975.00874 5.64276e-18
9977.13234 5.65710e-18
9979.24593 5.67684e-18
9981.36953 5.69657e-18
9983.48312 5.71422e-18
