# wavelength flux
3473.89560 6.07591e-18
3475.36810 6.20224e-18
3476.84060 6.34391e-18
3478.30308 5.31337e-18
3479.77558 5.74926e-18
3481.24808 6.01326e-18
3482.72058 5.63814e-18
3484.18306 5.83449e-18
3485.65556 6.13652e-18
3487.12806 6.26526e-18
3488.60056 6.04972e-18
3490.06304 5.55609e-18
3491.53554 5.68742e-18
3493.00804 6.02529e-18
3494.47052 6.15575e-18
3495.94302 5.33747e-18
3497.41552 4.59688e-18
3498.88801 5.29501e-18
3500.35050 6.03896e-18
3501.82300 5.70671e-18
3503.29549 4.34174e-18
3504.76799 5.14881e-18
3506.23048 5.65205e-18
3507.70298 5.01312e-18
3509.17547 5.66870e-18
3510.64797 5.16309e-18
3512.11046 5.12488e-18
3513.58295 5.39857e-18
3515.05545 5.70510e-18
3516.52795 5.42935e-18
3517.99043 5.25890e-18
3519.46293 4.91839e-18
3520.93543 5.11451e-18
3522.40793 5.58385e-18
3523.87041 5.60150e-18
3525.34291 4.99777e-18
3526.81541 4.43371e-18
3528.28791 5.32198e-18
3529.75039 5.61372e-18
3531.22289 5.37261e-18
3532.69539 4.96973e-18
3534.16789 4.86213e-18
3535.63037 5.25312e-18
3537.10287 5.49557e-18
3538.57537 4.15335e-18
3540.04787 4.60295e-18
3541.51035 4.93408e-18
3542.98285 5.47630e-18
3544.45535 5.87248e-18
3545.92785 5.56553e-18
3547.39033 5.32726e-18
3548.86283 5.04424e-18
3550.33533 5.11098e-18
3551.80783 4.38718e-18
3553.27031 4.23307e-18
3554.74281 4.70157e-18
3556.21531 4.75869e-18
3557.68781 3.83381e-18
3559.15029 4.64682e-18
3560.62279 6.02685e-18
3562.09529 5.71375e-18
3563.56778 5.14584e-18
3565.03027 5.01040e-18
3566.50276 5.40784e-18
3567.97526 5.37151e-18
3569.44776 5.27986e-18
3570.91025 5.09466e-18
3572.38274 4.84046e-18
3573.85524 4.82431e-18
3575.32774 5.18998e-18
3576.79022 5.74356e-18
3578.26272 5.54711e-18
3579.73522 5.22415e-18
3581.20772 5.42305e-18
3582.67020 4.62327e-18
3584.14270 4.47277e-18
3585.61520 4.31803e-18
3587.07768 5.11885e-18
3588.55018 4.93622e-18
3590.02268 4.31157e-18
3591.49518 4.68868e-18
3592.95766 5.31427e-18
3594.43016 5.02971e-18
3595.90266 5.07381e-18
3597.37516 4.80812e-18
3598.83764 5.66682e-18
3600.31014 6.61461e-18
3601.78264 4.56579e-18
3603.25514 4.71729e-18
3604.71762 5.25945e-18
3606.19012 5.59935e-18
3607.66262 6.24573e-18
3609.13512 6.85044e-18
3610.59760 5.71788e-18
3612.07010 5.60992e-18
3613.54260 6.08916e-18
3615.01510 6.00554e-18
3616.47758 5.63371e-18
3617.95008 5.61454e-18
3619.42258 6.73229e-18
3620.89507 6.23033e-18
3622.35756 6.31287e-18
3623.83006 6.39590e-18
3625.30256 6.41156e-18
3626.77505 6.53435e-18
3628.23754 6.13623e-18
3629.71004 6.62436e-18
3631.18253 5.65080e-18
3632.65503 5.73674e-18
3634.11751 6.03495e-18
3635.59001 5.32334e-18
3637.06251 5.81142e-18
3638.53501 5.91243e-18
3639.99749 5.87177e-18
3641.46999 5.46215e-18
3642.94249 5.17786e-18
3644.41499 3.94893e-18
3645.87747 4.26489e-18
3647.34997 5.66821e-18
3648.82247 4.91057e-18
3650.29497 4.77479e-18
3651.75745 5.04259e-18
3653.22995 4.72296e-18
3654.70245 5.35355e-18
3656.17495 5.31692e-18
3657.63743 4.45223e-18
3659.10993 4.54153e-18
3660.58243 4.80856e-18
3662.05493 4.81847e-18
3663.51741 5.17836e-18
3664.98991 4.68254e-18
3666.46241 5.30915e-18
3667.93491 5.06186e-18
3669.39739 5.09032e-18
3670.86989 5.28602e-18
3672.34239 5.46024e-18
3673.81489 4.97325e-18
3675.27737 4.80945e-18
3676.74987 5.57588e-18
3678.22237 5.28649e-18
3679.69486 5.41326e-18
3681.15735 5.91935e-18
3682.62985 6.09603e-18
3684.10235 5.87617e-18
3685.56483 6.37941e-18
3687.03733 6.27624e-18
3688.50983 6.26190e-18
3689.98232 6.58416e-18
3691.44481 6.54581e-18
3692.91731 6.89668e-18
3694.38980 7.62702e-18
3695.86230 7.81228e-18
3697.32479 6.83736e-18
3698.79728 7.74418e-18
3700.26978 7.97497e-18
3701.74228 7.27530e-18
3703.20476 7.76503e-18
3704.67726 8.42950e-18
3706.14976 7.98783e-18
3707.62226 8.27138e-18
3709.08474 9.30650e-18
3710.55724 8.67725e-18
3712.02974 8.15546e-18
3713.50224 9.38010e-18
3714.96472 9.29298e-18
3716.43722 9.20590e-18
3717.90972 9.12811e-18
3719.38222 9.05034e-18
3720.84470 8.97259e-18
3722.31720 8.89485e-18
3723.78970 8.81713e-18
3725.26220 8.73941e-18
3726.72468 8.66173e-18
3728.19718 8.58406e-18
3729.66968 8.50640e-18
3731.14218 8.42877e-18
3732.60466 8.35114e-18
3734.07716 8.27354e-18
3735.54966 8.19595e-18
3737.02216 8.11837e-18
3738.48464 8.04081e-18
3739.95714 7.96326e-18
3741.42964 7.88574e-18
3742.90214 7.80823e-18
3744.36462 7.73073e-18
3745.83712 7.65325e-18
3747.30962 7.57579e-18
3748.78211 7.49835e-18
3750.24460 7.42090e-18
3751.71709 7.34347e-18
3753.18959 7.26608e-18
3754.66209 7.13836e-18
3756.12458 7.29746e-18
3757.59707 6.72143e-18
3759.06957 6.26988e-18
3760.54207 6.95820e-18
3762.00455 7.23222e-18
3763.47705 7.13690e-18
3764.94955 6.71124e-18
3766.42205 5.85608e-18
3767.88453 5.66960e-18
3769.35703 5.60752e-18
3770.82953 5.61061e-18
3772.30203 4.87708e-18
3773.76451 5.41766e-18
3775.23701 5.43249e-18
3776.70951 4.91853e-18
3778.18201 4.61548e-18
3779.64449 4.92727e-18
3781.11699 4.43187e-18
3782.58949 4.50311e-18
3784.05197 4.47657e-18
3785.52447 3.85220e-18
3786.99697 3.83733e-18
3788.46947 4.12884e-18
3789.93195 4.25083e-18
3791.40445 4.27866e-18
3792.87695 4.06852e-18
3794.34945 3.46071e-18
3795.81193 3.42526e-18
3797.28443 3.56321e-18
3798.75693 3.50246e-18
3800.22943 3.42879e-18
3801.69191 3.34308e-18
3803.16441 3.69365e-18
3804.63691 3.56122e-18
3806.10941 3.49188e-18
3807.57189 3.86446e-18
3809.04439 2.93139e-18
3810.51689 2.58573e-18
3811.98938 3.10853e-18
3813.45187 3.45186e-18
3814.92436 3.37676e-18
3816.39686 3.24313e-18
3817.86936 3.12682e-18
3819.33185 3.33286e-18
3820.80434 3.30769e-18
3822.27684 2.93938e-18
3823.74934 3.17692e-18
3825.21182 3.20433e-18
3826.68432 2.83588e-18
3828.15682 3.21005e-18
3829.62932 3.04806e-18
3831.09180 3.23819e-18
3832.56430 3.25223e-18
3834.03680 3.13248e-18
3835.50930 3.16135e-18
3836.97178 3.07128e-18
3838.44428 3.24043e-18
3839.91678 3.30560e-18
3841.38928 3.25059e-18
3842.85176 3.06118e-18
3844.32426 2.78920e-18
3845.79676 3.24933e-18
3847.26926 3.50304e-18
3848.73174 3.45728e-18
3850.20424 3.62069e-18
3851.67674 3.76893e-18
3853.14924 3.75723e-18
3854.61172 4.07319e-18
3856.08422 4.01480e-18
3857.55672 3.82238e-18
3859.02922 3.92506e-18
3860.49170 4.25210e-18
3861.96420 4.33148e-18
3863.43670 4.69628e-18
3864.90920 4.83407e-18
3866.37168 4.92746e-18
3867.84418 5.11833e-18
3869.31668 5.44898e-18
3870.77916 5.44296e-18
3872.25166 5.28518e-18
3873.72416 5.92001e-18
3875.19665 6.65922e-18
3876.65914 6.86303e-18
3878.13164 6.51203e-18
3879.60413 7.01754e-18
3881.07663 7.15808e-18
3882.53912 6.83471e-18
3884.01161 7.58029e-18
3885.48411 8.10597e-18
3886.95661 8.05257e-18
3888.41909 8.35692e-18
3889.89159 9.00202e-18
3891.36409 8.84745e-18
3892.83659 8.78325e-18
3894.29907 9.76607e-18
3895.77157 1.00146e-17
3897.24407 1.03538e-17
3898.71657 1.11891e-17
3900.17905 1.08645e-17
3901.65155 1.11394e-17
3903.12405 1.24276e-17
3904.59655 1.23529e-17
3906.05903 1.20966e-17
3907.53153 1.23522e-17
3909.00403 1.31087e-17
3910.47653 1.32875e-17
3911.93901 1.33339e-17
3913.41151 1.33516e-17
3914.88401 1.35278e-17
3916.35651 1.38305e-17
3917.81899 1.41923e-17
3919.29149 1.45217e-17
3920.76399 1.46165e-17
3922.23649 1.43962e-17
3923.69897 1.40208e-17
3925.17147 1.39128e-17
3926.64397 1.40208e-17
3928.11647 1.47500e-17
3929.57895 1.43675e-17
3931.05145 1.31444e-17
3932.52394 1.30960e-17
3933.99644 1.38591e-17
3935.45893 1.34849e-17
3936.93143 1.32599e-17
3938.40392 1.32133e-17
3939.87642 1.35111e-17
3941.33891 1.28987e-17
3942.81140 1.32655e-17
3944.28390 1.39049e-17
3945.75640 1.41204e-17
3947.21888 1.39140e-17
3948.69138 1.36221e-17
3950.16388 1.37848e-17
3951.63638 1.41455e-17
3953.09886 1.39013e-17
3954.57136 1.33328e-17
3956.04386 1.30509e-17
3957.51636 1.38780e-17
3958.97884 1.34896e-17
3960.45134 1.36285e-17
3961.92384 1.31279e-17
3963.39634 1.32344e-17
3964.85882 1.30382e-17
3966.33132 1.28941e-17
3967.80382 1.31360e-17
3969.26630 1.31631e-17
3970.73880 1.29819e-17
3972.21130 1.27883e-17
3973.68380 1.24968e-17
3975.14628 1.27877e-17
3976.61878 1.28466e-17
3978.09128 1.28717e-17
3979.56378 1.37816e-17
3981.02626 1.32864e-17
3982.49876 1.29441e-17
3983.97126 1.27025e-17
3985.44376 1.24546e-17
3986.90624 1.24484e-17
3988.37874 1.25414e-17
3989.85124 1.24305e-17
3991.32374 1.28243e-17
3992.78622 1.28527e-17
3994.25872 1.22068e-17
3995.73121 1.21655e-17
3997.20371 1.22053e-17
3998.66620 1.20458e-17
4000.13870 1.16291e-17
4001.61119 1.19307e-17
4003.08369 1.14916e-17
4004.54617 1.16134e-17
4006.01867 1.17411e-17
4007.49117 1.12777e-17
4008.96367 1.18683e-17
4010.42615 1.16887e-17
4011.89865 1.16232e-17
4013.37115 1.17456e-17
4014.84365 1.18287e-17
4016.30613 1.20242e-17
4017.77863 1.20095e-17
4019.25113 1.24686e-17
4020.72363 1.29123e-17
4022.18611 1.29197e-17
4023.65861 1.27789e-17
4025.13111 1.29892e-17
4026.60361 1.34400e-17
4028.06609 1.36165e-17
4029.53859 1.35016e-17
4031.01109 1.41310e-17
4032.48359 1.40612e-17
4033.94607 1.35195e-17
4035.41857 1.38113e-17
4036.89107 1.45325e-17
4038.36357 1.47186e-17
4039.82605 1.41269e-17
4041.29855 1.41797e-17
4042.77105 1.50402e-17
4044.24355 1.48960e-17
4045.70603 1.43734e-17
4047.17853 1.42795e-17
4048.65103 1.48711e-17
4050.12352 1.47920e-17
4051.58601 1.48494e-17
4053.05851 1.49180e-17
4054.53101 1.44887e-17
4056.00350 1.42659e-17
4057.46599 1.39994e-17
4058.93849 1.37639e-17
4060.41098 1.40215e-17
4061.88348 1.37878e-17
4063.34596 1.39846e-17
4064.81846 1.35697e-17
4066.29096 1.30546e-17
4067.75344 1.33180e-17
4069.22594 1.36696e-17
4070.69844 1.33690e-17
4072.17094 1.28635e-17
4073.63342 1.28426e-17
4075.10592 1.20430e-17
4076.57842 1.22628e-17
4078.05092 1.20420e-17
4079.51340 1.20338e-17
4080.98590 1.23140e-17
4082.45840 1.20168e-17
4083.93090 1.14106e-17
4085.39338 1.12540e-17
4086.86588 1.10777e-17
4088.33838 1.10149e-17
4089.81088 1.14365e-17
4091.27336 1.13357e-17
4092.74586 1.05994e-17
4094.21836 1.04880e-17
4095.69086 1.09746e-17
4097.15334 1.07904e-17
4098.62584 1.08025e-17
4100.09834 1.02806e-17
4101.57084 1.10204e-17
4103.03332 1.08356e-17
4104.50582 1.03417e-17
4105.97832 1.09158e-17
4107.45082 1.11662e-17
4108.91330 1.07884e-17
4110.38580 1.04602e-17
4111.85830 1.01871e-17
4113.33080 1.03354e-17
4114.79328 1.02071e-17
4116.26578 1.00346e-17
4117.73827 9.92527e-18
4119.21077 1.00936e-17
4120.67326 9.46233e-18
4122.14575 9.60948e-18
4123.61825 9.79649e-18
4125.09075 9.62848e-18
4126.55324 9.58213e-18
4128.02573 9.48059e-18
4129.49823 9.26785e-18
4130.97073 8.89129e-18
4132.43321 8.95886e-18
4133.90571 8.92688e-18
4135.37821 8.76011e-18
4136.85071 8.82903e-18
4138.31319 8.59780e-18
4139.78569 8.56672e-18
4141.25819 8.65460e-18
4142.73069 8.45384e-18
4144.19317 8.56281e-18
4145.66567 8.51099e-18
4147.13817 8.18816e-18
4148.61067 7.95384e-18
4150.07315 7.86982e-18
4151.54565 7.92307e-18
4153.01815 7.47720e-18
4154.49065 7.67271e-18
4155.95313 7.85200e-18
4157.42563 7.76577e-18
4158.89813 7.55556e-18
4160.37063 7.98391e-18
4161.83311 7.93990e-18
4163.30561 7.61870e-18
4164.77811 7.93337e-18
4166.24059 7.74564e-18
4167.71309 7.87680e-18
4169.18559 7.61574e-18
4170.65809 7.75106e-18
4172.12057 8.20033e-18
4173.59307 8.13821e-18
4175.06557 7.95192e-18
4176.53806 7.95701e-18
4178.00055 8.04116e-18
4179.47305 7.78313e-18
4180.94555 8.03676e-18
4182.41804 8.03744e-18
4183.88053 8.14315e-18
4185.35303 8.26688e-18
4186.82552 8.43587e-18
4188.29802 8.41931e-18
4189.76051 8.02415e-18
4191.23300 7.76734e-18
4192.70550 7.59926e-18
4194.17800 7.67266e-18
4195.64048 8.03394e-18
4197.11298 7.96534e-18
4198.58548 7.85825e-18
4200.05798 7.23387e-18
4201.52046 7.52889e-18
4202.99296 7.75009e-18
4204.46546 7.45221e-18
4205.93796 7.29275e-18
4207.40044 7.54576e-18
4208.87294 7.57982e-18
4210.34544 7.12788e-18
4211.81794 7.31650e-18
4213.28042 6.96788e-18
4214.75292 6.90201e-18
4216.22542 7.16869e-18
4217.69792 7.31413e-18
4219.16040 7.19215e-18
4220.63290 6.89043e-18
4222.10540 7.18018e-18
4223.57790 6.85737e-18
4225.04038 6.88606e-18
4226.51288 7.13315e-18
4227.98538 7.31662e-18
4229.45788 7.33014e-18
4230.92036 7.11292e-18
4232.39286 7.56456e-18
4233.86536 7.59213e-18
4235.33785 7.43649e-18
4236.80034 7.51348e-18
4238.27284 7.54732e-18
4239.74534 7.32662e-18
4241.21783 7.93107e-18
4242.68032 7.89216e-18
4244.15282 7.66681e-18
4245.62531 7.87484e-18
4247.09781 8.41218e-18
4248.56030 8.51923e-18
4250.03279 8.13959e-18
4251.50529 8.17013e-18
4252.96778 8.70807e-18
4254.44027 8.55461e-18
4255.91277 8.91035e-18
4257.38527 8.91050e-18
4258.84775 8.98291e-18
4260.32025 9.03707e-18
4261.79275 9.22988e-18
4263.26525 9.13296e-18
4264.72773 9.38444e-18
4266.20023 9.33854e-18
4267.67273 9.17876e-18
4269.14523 9.04237e-18
4270.60771 9.50617e-18
4272.08021 9.52692e-18
4273.55271 9.66189e-18
4275.02521 9.24203e-18
4276.48769 9.30256e-18
4277.96019 9.12695e-18
4279.43269 9.03268e-18
4280.90519 9.17098e-18
4282.36767 9.43448e-18
4283.84017 9.56627e-18
4285.31267 9.11706e-18
4286.78517 9.28971e-18
4288.24765 8.99504e-18
4289.72015 8.84746e-18
4291.19265 9.25598e-18
4292.66515 9.17063e-18
4294.12763 8.79133e-18
4295.60013 8.66169e-18
4297.07263 8.74280e-18
4298.54513 8.93012e-18
4300.00761 8.77437e-18
4301.48011 8.43589e-18
4302.95260 8.54528e-18
4304.42510 8.55838e-18
4305.88759 8.72260e-18
4307.36009 8.48085e-18
4308.83258 8.52291e-18
4310.30508 8.66237e-18
4311.76757 8.71069e-18
4313.24006 8.68199e-18
4314.71256 8.51336e-18
4316.18506 8.49791e-18
4317.64754 8.46987e-18
4319.12004 8.68025e-18
4320.59254 9.05278e-18
4322.06504 8.69461e-18
4323.52752 8.56636e-18
4325.00002 8.80297e-18
4326.47252 8.72601e-18
4327.94502 8.86467e-18
4329.40750 8.89882e-18
4330.88000 8.72352e-18
4332.35250 9.09612e-18
4333.82500 8.83977e-18
4335.28748 8.78310e-18
4336.75998 9.27968e-18
4338.23248 9.03373e-18
4339.70498 8.89464e-18
4341.16746 8.88616e-18
4342.63996 8.98822e-18
4344.11246 9.70057e-18
4345.58496 1.02495e-17
4347.04744 1.02714e-17
4348.51994 1.01121e-17
4349.99244 9.99927e-18
4351.45492 9.41859e-18
4352.92742 9.38552e-18
4354.39992 9.35247e-18
4355.87242 9.31942e-18
4357.33490 9.28637e-18
4358.80740 9.25333e-18
4360.27990 9.22029e-18
4361.75240 9.18726e-18
4363.21488 9.15423e-18
4364.68738 9.12121e-18
4366.15988 9.08818e-18
4367.63237 9.05516e-18
4369.09486 9.02215e-18
4370.56736 8.98914e-18
4372.03985 8.95614e-18
4373.51235 8.92313e-18
4374.97483 8.89014e-18
4376.44733 8.85714e-18
4377.91983 8.82417e-18
4379.39233 8.79118e-18
4380.85481 8.75819e-18
4382.32731 8.72522e-18
4383.79981 8.69224e-18
4385.27231 8.65929e-18
4386.73479 8.62632e-18
4388.20729 8.59337e-18
4389.67979 8.56040e-18
4391.15229 8.64628e-18
4392.61477 9.01312e-18
4394.08727 8.91749e-18
4395.55977 9.03772e-18
4397.03227 8.82322e-18
4398.49475 8.73373e-18
4399.96725 8.61577e-18
4401.43975 8.69399e-18
4402.91225 8.65239e-18
4404.37473 8.61902e-18
4405.84723 8.83398e-18
4407.31973 8.80068e-18
4408.79223 8.69069e-18
4410.25471 8.79641e-18
4411.72721 8.85841e-18
4413.19971 8.77193e-18
4414.67221 8.49271e-18
4416.13469 8.21804e-18
4417.60719 8.28797e-18
4419.07969 7.91965e-18
4420.55219 7.94370e-18
4422.01467 8.11457e-18
4423.48717 8.12011e-18
4424.95967 8.13186e-18
4426.43216 8.08307e-18
4427.89465 8.11826e-18
4429.36715 7.71483e-18
4430.83964 7.77841e-18
4432.31214 7.80712e-18
4433.77463 7.68123e-18
4435.24712 7.27830e-18
4436.71962 7.39579e-18
4438.18210 7.67710e-18
4439.65460 7.35394e-18
4441.12710 7.42288e-18
4442.59960 7.54288e-18
4444.07210 7.71077e-18
4445.53458 7.62746e-18
4447.00708 7.26392e-18
4448.47958 7.26018e-18
4449.95208 7.27584e-18
4451.41456 7.17958e-18
4452.88706 7.11871e-18
4454.35956 7.29072e-18
4455.82204 7.42669e-18
4457.29454 7.24140e-18
4458.76704 7.03285e-18
4460.23954 7.19483e-18
4461.70202 7.37333e-18
4463.17452 7.32887e-18
4464.64702 7.25063e-18
4466.11952 7.28091e-18
4467.58200 7.39557e-18
4469.05450 7.33702e-18
4470.52700 7.30149e-18
4471.99950 7.66991e-18
4473.46198 7.85722e-18
4474.93448 7.69375e-18
4476.40698 7.80715e-18
4477.87948 7.61483e-18
4479.34196 7.86638e-18
4480.81446 7.99777e-18
4482.28696 8.38191e-18
4483.75945 8.47409e-18
4485.22194 8.73582e-18
4486.69444 8.13140e-18
4488.16694 8.27114e-18
4489.63943 8.61280e-18
4491.10192 8.95298e-18
4492.57442 9.13634e-18
4494.04691 9.48864e-18
4495.51941 9.55271e-18
4496.98190 9.50319e-18
4498.45439 9.43874e-18
4499.92689 9.65531e-18
4501.39939 1.01735e-17
4502.86187 1.01705e-17
4504.33437 1.02083e-17
4505.80687 1.07985e-17
4507.27937 1.10220e-17
4508.74185 1.08345e-17
4510.21435 1.08152e-17
4511.68685 1.13871e-17
4513.15935 1.16531e-17
4514.62183 1.14788e-17
4516.09433 1.17824e-17
4517.56683 1.22345e-17
4519.03933 1.25667e-17
4520.50181 1.29602e-17
4521.97431 1.27588e-17
4523.44681 1.29066e-17
4524.91931 1.31505e-17
4526.38179 1.33693e-17
4527.85429 1.36601e-17
4529.32679 1.38892e-17
4530.79929 1.41088e-17
4532.26177 1.45371e-17
4533.73427 1.43452e-17
4535.20677 1.43774e-17
4536.67927 1.46423e-17
4538.14175 1.48594e-17
4539.61425 1.48574e-17
4541.08675 1.55381e-17
4542.54923 1.54335e-17
4544.02173 1.52519e-17
4545.49423 1.53240e-17
4546.96673 1.54390e-17
4548.42921 1.54399e-17
4549.90171 1.55293e-17
4551.37421 1.60501e-17
4552.84670 1.60332e-17
4554.30919 1.57569e-17
4555.78168 1.57671e-17
4557.25418 1.58965e-17
4558.72668 1.57727e-17
4560.18916 1.59716e-17
4561.66166 1.56833e-17
4563.13416 1.61325e-17
4564.60666 1.59910e-17
4566.06914 1.59454e-17
4567.54164 1.62029e-17
4569.01414 1.61685e-17
4570.48664 1.64279e-17
4571.94912 1.64651e-17
4573.42162 1.66600e-17
4574.89412 1.67478e-17
4576.36662 1.68941e-17
4577.82910 1.67777e-17
4579.30160 1.68075e-17
4580.77410 1.72170e-17
4582.24660 1.74596e-17
4583.70908 1.70355e-17
4585.18158 1.70485e-17
4586.65408 1.69254e-17
4588.12658 1.69194e-17
4589.58906 1.75612e-17
4591.06156 1.74509e-17
4592.53406 1.70883e-17
4594.00656 1.65551e-17
4595.46904 1.69117e-17
4596.94154 1.72359e-17
4598.41404 1.73418e-17
4599.88654 1.71711e-17
4601.34902 1.68552e-17
4602.82152 1.68857e-17
4604.29402 1.68152e-17
4605.76652 1.70555e-17
4607.22900 1.71310e-17
4608.70150 1.72057e-17
4610.17400 1.74977e-17
4611.64649 1.75389e-17
4613.10898 1.75430e-17
4614.58147 1.71042e-17
4616.05397 1.70646e-17
4617.52647 1.72671e-17
4618.98895 1.71960e-17
4620.46145 1.73609e-17
4621.93395 1.75240e-17
4623.40645 1.75851e-17
4624.86893 1.74306e-17
4626.34143 1.74722e-17
4627.81393 1.80605e-17
4629.27641 1.81206e-17
4630.74891 1.77155e-17
4632.22141 1.75720e-17
4633.69391 1.77422e-17
4635.15639 1.74395e-17
4636.62889 1.76303e-17
4638.10139 1.74200e-17
4639.57389 1.73310e-17
4641.04639 1.70741e-17
4642.50887 1.71557e-17
4643.98137 1.73438e-17
4645.45387 1.68925e-17
4646.91635 1.66424e-17
4648.38885 1.69639e-17
4649.86135 1.71983e-17
4651.33385 1.68344e-17
4652.79633 1.66019e-17
4654.26883 1.68470e-17
4655.74133 1.66300e-17
4657.21383 1.61318e-17
4658.67631 1.61280e-17
4660.14881 1.62431e-17
4661.62131 1.61918e-17
4663.09381 1.62040e-17
4664.55629 1.60006e-17
4666.02879 1.58434e-17
4667.50129 1.57467e-17
4668.97379 1.58488e-17
4670.43627 1.54126e-17
4671.90877 1.53752e-17
4673.38126 1.53209e-17
4674.85376 1.57023e-17
4676.31625 1.53176e-17
4677.78875 1.52410e-17
4679.26124 1.53697e-17
4680.73374 1.48033e-17
4682.19623 1.48651e-17
4683.66872 1.50324e-17
4685.14122 1.49314e-17
4686.61372 1.46931e-17
4688.07620 1.49539e-17
4689.54870 1.48449e-17
4691.02120 1.45843e-17
4692.49370 1.43549e-17
4693.95618 1.44252e-17
4695.42868 1.40994e-17
4696.90118 1.35559e-17
4698.37368 1.33766e-17
4699.83616 1.31208e-17
4701.30866 1.27315e-17
4702.78116 1.28136e-17
4704.25366 1.26868e-17
4705.71614 1.23720e-17
4707.18864 1.23256e-17
4708.66114 1.24195e-17
4710.13364 1.23516e-17
4711.59612 1.21023e-17
4713.06862 1.23830e-17
4714.54112 1.23454e-17
4716.01362 1.19667e-17
4717.47610 1.19362e-17
4718.94860 1.19025e-17
4720.42110 1.18554e-17
4721.89360 1.18816e-17
4723.35608 1.20838e-17
4724.82858 1.20334e-17
4726.30108 1.21029e-17
4727.77358 1.19593e-17
4729.23606 1.15916e-17
4730.70856 1.18897e-17
4732.18106 1.22031e-17
4733.64354 1.20850e-17
4735.11604 1.19730e-17
4736.58854 1.18889e-17
4738.06103 1.19646e-17
4739.52352 1.21823e-17
4740.99601 1.17924e-17
4742.46851 1.17730e-17
4743.94101 1.22182e-17
4745.40350 1.23043e-17
4746.87599 1.20888e-17
4748.34849 1.21923e-17
4749.82099 1.23496e-17
4751.28347 1.24307e-17
4752.75597 1.22260e-17
4754.22847 1.21196e-17
4755.70097 1.21647e-17
4757.16345 1.21418e-17
4758.63595 1.20399e-17
4760.10845 1.22938e-17
4761.58095 1.25525e-17
4763.04343 1.21469e-17
4764.51593 1.21680e-17
4765.98843 1.21670e-17
4767.46093 1.19863e-17
4768.92341 1.19328e-17
4770.39591 1.19194e-17
4771.86841 1.19321e-17
4773.34091 1.19236e-17
4774.80339 1.19040e-17
4776.27589 1.17501e-17
4777.74839 1.16854e-17
4779.22089 1.15961e-17
4780.68337 1.16681e-17
4782.15587 1.17970e-17
4783.62837 1.16051e-17
4785.10087 1.13625e-17
4786.56335 1.11316e-17
4788.03585 1.11699e-17
4789.50835 1.13529e-17
4790.98085 1.16330e-17
4792.44333 1.14391e-17
4793.91583 1.13287e-17
4795.38832 1.10150e-17
4796.86082 1.05845e-17
4798.32331 1.06371e-17
4799.79580 1.06271e-17
4801.26830 1.05883e-17
4802.74080 1.04420e-17
4804.20329 1.02907e-17
4805.67578 1.02020e-17
4807.14828 1.01390e-17
4808.62078 9.93490e-18
4810.08326 9.78671e-18
4811.55576 9.74146e-18
4813.02826 9.68416e-18
4814.50076 9.45226e-18
4815.96324 9.15658e-18
4817.43574 9.19298e-18
4818.90824 9.08236e-18
4820.38074 9.09258e-18
4821.84322 9.05655e-18
4823.31572 8.72153e-18
4824.78822 8.93186e-18
4826.25070 8.97118e-18
4827.72320 8.64885e-18
4829.19570 8.61673e-18
4830.66820 8.67579e-18
4832.13068 8.72820e-18
4833.60318 8.74637e-18
4835.07568 8.67596e-18
4836.54818 8.86446e-18
4838.01066 8.86582e-18
4839.48316 8.92969e-18
4840.95566 9.12490e-18
4842.42816 9.22170e-18
4843.89064 9.37526e-18
4845.36314 9.80560e-18
4846.83564 9.99433e-18
4848.30814 1.01887e-17
4849.77062 1.04081e-17
4851.24312 1.04500e-17
4852.71562 1.05542e-17
4854.18811 1.06583e-17
4855.65060 1.07623e-17
4857.12310 1.08664e-17
4858.59560 1.09705e-17
4860.06809 1.10745e-17
4861.53058 1.11785e-17
4863.00308 1.12825e-17
4864.47557 1.13865e-17
4865.94807 1.14904e-17
4867.41055 1.15944e-17
4868.88305 1.16983e-17
4870.35555 1.18022e-17
4871.82805 1.19061e-17
4873.29053 1.20100e-17
4874.76303 1.21139e-17
4876.23553 1.22177e-17
4877.70803 1.23215e-17
4879.17051 1.24253e-17
4880.64301 1.25291e-17
4882.11551 1.26329e-17
4883.58801 1.27366e-17
4885.05049 1.28404e-17
4886.52299 1.29441e-17
4887.99549 1.30478e-17
4889.46799 1.27379e-17
4890.93047 1.25374e-17
4892.40297 1.25413e-17
4893.87547 1.26007e-17
4895.34797 1.26706e-17
4896.81045 1.24257e-17
4898.28295 1.20969e-17
4899.75545 1.18768e-17
4901.22795 1.15495e-17
4902.69043 1.12607e-17
4904.16293 1.12077e-17
4905.63543 1.09841e-17
4907.10793 1.09973e-17
4908.57041 1.11008e-17
4910.04291 1.05758e-17
4911.51541 1.01706e-17
4912.98790 1.01521e-17
4914.45039 1.01486e-17
4915.92289 1.01539e-17
4917.39539 9.88667e-18
4918.85787 9.77516e-18
4920.33037 9.80291e-18
4921.80286 9.56900e-18
4923.27536 9.36321e-18
4924.73785 9.35396e-18
4926.21035 9.39260e-18
4927.68284 9.33169e-18
4929.15534 9.43505e-18
4930.61783 9.50812e-18
4932.09032 9.46656e-18
4933.56282 9.38938e-18
4935.03532 9.60544e-18
4936.49780 9.64641e-18
4937.97030 9.80536e-18
4939.44280 1.03154e-17
4940.91530 1.03649e-17
4942.37778 1.03557e-17
4943.85028 1.05997e-17
4945.32278 1.10104e-17
4946.79528 1.13269e-17
4948.25776 1.14960e-17
4949.73026 1.16460e-17
4951.20276 1.17960e-17
4952.67526 1.19459e-17
4954.13774 1.20959e-17
4955.61024 1.22458e-17
4957.08274 1.23957e-17
4958.55524 1.25456e-17
4960.01772 1.26954e-17
4961.49022 1.28452e-17
4962.96272 1.29950e-17
4964.43522 1.31448e-17
4965.89770 1.32945e-17
4967.37020 1.34442e-17
4968.84270 1.35939e-17
4970.31520 1.37436e-17
4971.77768 1.38932e-17
4973.25018 1.40429e-17
4974.72268 1.41925e-17
4976.19517 1.43420e-17
4977.65766 1.44916e-17
4979.13016 1.46411e-17
4980.60265 1.47906e-17
4982.07515 1.49401e-17
4983.53764 1.50895e-17
4985.01014 1.52390e-17
4986.48263 1.53884e-17
4987.95513 1.55341e-17
4989.41762 1.54440e-17
4990.89011 1.53447e-17
4992.36261 1.54584e-17
4993.83511 1.57683e-17
4995.29759 1.59239e-17
4996.77009 1.58494e-17
4998.24259 1.56541e-17
4999.71509 1.54588e-17
5001.17757 1.52636e-17
5002.65007 1.50684e-17
5004.12257 1.48731e-17
5005.59507 1.46780e-17
5007.05755 1.44829e-17
5008.53005 1.42878e-17
5010.00255 1.40927e-17
5011.47505 1.38977e-17
5012.93753 1.37028e-17
5014.41003 1.35078e-17
5015.88253 1.33129e-17
5017.34501 1.31179e-17
5018.81751 1.29230e-17
5020.29001 1.27283e-17
5021.76251 1.25334e-17
5023.22499 1.23387e-17
5024.69749 1.21439e-17
5026.16999 1.19492e-17
5027.64249 1.17545e-17
5029.10497 1.15599e-17
5030.57747 1.13652e-17
5032.04997 1.11706e-17
5033.52247 1.09761e-17
5034.98495 1.10320e-17
5036.45745 1.06434e-17
5037.92995 1.02724e-17
5039.40245 1.02292e-17
5040.86493 1.00536e-17
5042.33743 9.91240e-18
5043.80993 9.69581e-18
5045.28242 9.56619e-18
5046.74491 9.26444e-18
5048.21740 9.01694e-18
5049.68990 8.88546e-18
5051.16240 8.78482e-18
5052.62489 8.47735e-18
5054.09738 8.39988e-18
5055.56988 8.19368e-18
5057.04238 8.16476e-18
5058.50486 8.04684e-18
5059.97736 7.85530e-18
5061.44986 7.82987e-18
5062.92236 7.51265e-18
5064.38484 7.25613e-18
5065.85734 7.24856e-18
5067.32984 7.37212e-18
5068.80234 7.49238e-18
5070.26482 7.47282e-18
5071.73732 7.45262e-18
5073.20982 7.57590e-18
5074.68232 7.48291e-18
5076.14480 7.67943e-18
5077.61730 7.77834e-18
5079.08980 7.64265e-18
5080.56230 7.89584e-18
5082.02478 8.03135e-18
5083.49728 8.11659e-18
5084.96978 8.06862e-18
5086.44228 8.40008e-18
5087.90476 8.61772e-18
5089.37726 8.73623e-18
5090.84976 8.80509e-18
5092.32226 9.00665e-18
5093.78474 9.31510e-18
5095.25724 9.66475e-18
5096.72974 9.77405e-18
5098.20224 9.88672e-18
5099.66472 9.99856e-18
5101.13722 1.01267e-17
5102.60971 1.03868e-17
5104.08221 1.06795e-17
5105.54470 1.06756e-17
5107.01720 1.07479e-17
5108.48969 1.10460e-17
5109.95218 1.13577e-17
5111.42468 1.14820e-17
5112.89717 1.15403e-17
5114.36967 1.17268e-17
5115.84217 1.18232e-17
5117.30465 1.18746e-17
5118.77715 1.20724e-17
5120.24965 1.23048e-17
5121.71213 1.23768e-17
5123.18463 1.22853e-17
5124.65713 1.26205e-17
5126.12963 1.27697e-17
5127.59211 1.30162e-17
5129.06461 1.30292e-17
5130.53711 1.30438e-17
5132.00961 1.31358e-17
5133.47209 1.33257e-17
5134.94459 1.33262e-17
5136.41709 1.33914e-17
5137.88959 1.29517e-17
5139.35207 1.30310e-17
5140.82457 1.35540e-17
5142.29707 1.37130e-17
5143.76957 1.35207e-17
5145.23205 1.35605e-17
5146.70455 1.33688e-17
5148.17705 1.33877e-17
5149.64955 1.37386e-17
5151.11203 1.40016e-17
5152.58453 1.36874e-17
5154.05703 1.35371e-17
5155.52953 1.36972e-17
5156.99201 1.40179e-17
5158.46451 1.39383e-17
5159.93701 1.38573e-17
5161.40950 1.39461e-17
5162.87199 1.38165e-17
5164.34449 1.37599e-17
5165.81699 1.39065e-17
5167.28948 1.38152e-17
5168.75197 1.37881e-17
5170.22447 1.37416e-17
5171.69696 1.40377e-17
5173.16946 1.42921e-17
5174.63195 1.44375e-17
5176.10444 1.41707e-17
5177.57694 1.42258e-17
5179.04944 1.45204e-17
5180.51192 1.43527e-17
5181.98442 1.42259e-17
5183.45692 1.40238e-17
5184.92942 1.41884e-17
5186.39190 1.45366e-17
5187.86440 1.45863e-17
5189.33690 1.42908e-17
5190.80940 1.42836e-17
5192.27188 1.43496e-17
5193.74438 1.43720e-17
5195.21688 1.42704e-17
5196.68938 1.39065e-17
5198.15186 1.43958e-17
5199.62436 1.44894e-17
5201.09686 1.40246e-17
5202.56936 1.41786e-17
5204.03184 1.45422e-17
5205.50434 1.45568e-17
5206.97684 1.46128e-17
5208.43932 1.44455e-17
5209.91182 1.45125e-17
5211.38432 1.46226e-17
5212.85682 1.43848e-17
5214.31930 1.44397e-17
5215.79180 1.47007e-17
5217.26430 1.46601e-17
5218.73680 1.46546e-17
5220.19928 1.47087e-17
5221.67178 1.48129e-17
5223.14428 1.45786e-17
5224.61678 1.43299e-17
5226.07926 1.43910e-17
5227.55176 1.45424e-17
5229.02426 1.45464e-17
5230.49675 1.44558e-17
5231.95924 1.43127e-17
5233.43174 1.46614e-17
5234.90423 1.44584e-17
5236.37673 1.43700e-17
5237.83921 1.44395e-17
5239.31171 1.45273e-17
5240.78421 1.44654e-17
5242.25671 1.44274e-17
5243.71919 1.44725e-17
5245.19169 1.44715e-17
5246.66419 1.47015e-17
5248.13669 1.49116e-17
5249.59917 1.48472e-17
5251.07167 1.48769e-17
5252.54417 1.51541e-17
5254.01667 1.53250e-17
5255.47915 1.52047e-17
5256.95165 1.53350e-17
5258.42415 1.52373e-17
5259.89665 1.51205e-17
5261.35913 1.53405e-17
5262.83163 1.53371e-17
5264.30413 1.52717e-17
5265.77663 1.55885e-17
5267.23911 1.58537e-17
5268.71161 1.56349e-17
5270.18411 1.55175e-17
5271.65661 1.58726e-17
5273.11909 1.64388e-17
5274.59159 1.64816e-17
5276.06409 1.60640e-17
5277.53659 1.61442e-17
5278.99907 1.68732e-17
5280.47157 1.69316e-17
5281.94407 1.68027e-17
5283.41657 1.67788e-17
5284.87905 1.66847e-17
5286.35155 1.63978e-17
5287.82405 1.65410e-17
5289.29654 1.69665e-17
5290.75903 1.67890e-17
5292.23153 1.65871e-17
5293.70402 1.66344e-17
5295.17652 1.65145e-17
5296.63900 1.64122e-17
5298.11150 1.63833e-17
5299.58400 1.66224e-17
5301.04649 1.67656e-17
5302.51898 1.65202e-17
5303.99148 1.65004e-17
5305.46398 1.65773e-17
5306.92646 1.64009e-17
5308.39896 1.65546e-17
5309.87146 1.67179e-17
5311.34396 1.64318e-17
5312.80644 1.66001e-17
5314.27894 1.68919e-17
5315.75144 1.66387e-17
5317.22394 1.66031e-17
5318.68642 1.66417e-17
5320.15892 1.65670e-17
5321.63142 1.67150e-17
5323.10392 1.65115e-17
5324.56640 1.64791e-17
5326.03890 1.68584e-17
5327.51140 1.68862e-17
5328.98390 1.68924e-17
5330.44638 1.69225e-17
5331.91888 1.68675e-17
5333.39138 1.70534e-17
5334.86388 1.72273e-17
5336.32636 1.69669e-17
5337.79886 1.67134e-17
5339.27136 1.67122e-17
5340.74386 1.65954e-17
5342.20634 1.65790e-17
5343.67884 1.66963e-17
5345.15134 1.67817e-17
5346.62384 1.65351e-17
5348.08632 1.64833e-17
5349.55882 1.67600e-17
5351.03132 1.67287e-17
5352.50381 1.64841e-17
5353.96630 1.64706e-17
5355.43880 1.64838e-17
5356.91129 1.65162e-17
5358.38379 1.63936e-17
5359.84627 1.62880e-17
5361.31877 1.65616e-17
5362.79127 1.66500e-17
5364.26377 1.68210e-17
5365.72625 1.68799e-17
5367.19875 1.68683e-17
5368.67125 1.69231e-17
5370.14375 1.68155e-17
5371.60623 1.68967e-17
5373.07873 1.70285e-17
5374.55123 1.68952e-17
5376.02373 1.69594e-17
5377.48621 1.72630e-17
5378.95871 1.73855e-17
5380.43121 1.74705e-17
5381.90371 1.73051e-17
5383.36619 1.73273e-17
5384.83869 1.75440e-17
5386.31119 1.72957e-17
5387.78369 1.71972e-17
5389.24617 1.75540e-17
5390.71867 1.75980e-17
5392.19117 1.75349e-17
5393.65365 1.75448e-17
5395.12615 1.73582e-17
5396.59865 1.72263e-17
5398.07115 1.72767e-17
5399.54365 1.73728e-17
5401.00613 1.72374e-17
5402.47863 1.71931e-17
5403.95113 1.70981e-17
5405.41361 1.67248e-17
5406.88611 1.66855e-17
5408.35861 1.67803e-17
5409.83111 1.66032e-17
5411.29359 1.61337e-17
5412.76609 1.58233e-17
5414.23859 1.59084e-17
5415.71108 1.59809e-17
5417.17357 1.57484e-17
5418.64606 1.56418e-17
5420.11856 1.54476e-17
5421.59106 1.50727e-17
5423.05355 1.49703e-17
5424.52604 1.49052e-17
5425.99854 1.50043e-17
5427.47104 1.49983e-17
5428.93352 1.46894e-17
5430.40602 1.45984e-17
5431.87852 1.44922e-17
5433.35102 1.44147e-17
5434.81350 1.41829e-17
5436.28600 1.39381e-17
5437.75850 1.38953e-17
5439.23100 1.39362e-17
5440.69348 1.39026e-17
5442.16598 1.36159e-17
5443.63848 1.32187e-17
5445.11098 1.32314e-17
5446.57346 1.32671e-17
5448.04596 1.33539e-17
5449.51846 1.33833e-17
5450.99096 1.32951e-17
5452.45344 1.32782e-17
5453.92594 1.31183e-17
5455.39844 1.31848e-17
5456.87094 1.33821e-17
5458.33342 1.35640e-17
5459.80592 1.37463e-17
5461.27842 1.37423e-17
5462.75092 1.40470e-17
5464.21340 1.37809e-17
5465.68590 1.39006e-17
5467.15840 1.45347e-17
5468.63090 1.46727e-17
5470.09338 1.45988e-17
5471.56588 1.47016e-17
5473.03838 1.50519e-17
5474.51087 1.52773e-17
5475.97336 1.53568e-17
5477.44585 1.54261e-17
5478.91835 1.57530e-17
5480.38084 1.64310e-17
5481.85334 1.66457e-17
5483.32583 1.65700e-17
5484.79833 1.70381e-17
5486.27083 1.74401e-17
5487.73331 1.73511e-17
5489.20581 1.75350e-17
5490.67831 1.78498e-17
5492.15081 1.79304e-17
5493.61329 1.79792e-17
5495.08579 1.87814e-17
5496.55829 1.94986e-17
5498.02077 1.95710e-17
5499.49327 1.98502e-17
5500.96577 2.01115e-17
5502.43827 2.05274e-17
5503.90075 2.06017e-17
5505.37325 2.10667e-17
5506.84575 2.16002e-17
5508.31825 2.16056e-17
5509.78073 2.16039e-17
5511.25323 2.15030e-17
5512.72573 2.14151e-17
5514.19823 2.15596e-17
5515.66071 2.14738e-17
5517.13321 2.16980e-17
5518.60571 2.18284e-17
5520.07821 2.16389e-17
5521.54069 2.15049e-17
5523.01319 2.14757e-17
5524.48569 2.14574e-17
5525.95819 2.13759e-17
5527.42067 2.12721e-17
5528.89317 2.08426e-17
5530.36567 2.05762e-17
5531.83817 2.07023e-17
5533.30065 2.07103e-17
5534.77315 2.03471e-17
5536.24565 2.00884e-17
5537.71814 2.00137e-17
5539.18063 1.98973e-17
5540.65312 1.97407e-17
5542.12562 1.98520e-17
5543.59812 1.98215e-17
5545.06060 1.95936e-17
5546.53310 1.95908e-17
5548.00560 1.96773e-17
5549.47810 1.92134e-17
5550.94058 1.89501e-17
5552.41308 1.88471e-17
5553.88558 1.83493e-17
5555.35808 1.80803e-17
5556.82056 1.77828e-17
5558.29306 1.73062e-17
5559.76556 1.70513e-17
5561.23806 1.67652e-17
5562.70054 1.62765e-17
5564.17304 1.59923e-17
5565.64554 1.58889e-17
5567.11804 1.56302e-17
5568.58052 1.51795e-17
5570.05302 1.47845e-17
5571.52552 1.46180e-17
5572.99802 1.42790e-17
5574.46050 1.40455e-17
5575.93300 1.39982e-17
5577.40550 1.38715e-17
5578.87800 1.37925e-17
5580.34048 1.34580e-17
5581.81298 1.31944e-17
5583.28548 1.29750e-17
5584.74796 1.26952e-17
5586.22046 1.27347e-17
5587.69296 1.28213e-17
5589.16546 1.26602e-17
5590.62794 1.25035e-17
5592.10044 1.24830e-17
5593.57294 1.24650e-17
5595.04543 1.24828e-17
5596.50792 1.26018e-17
5597.98042 1.28136e-17
5599.45291 1.28921e-17
5600.92541 1.27970e-17
5602.38790 1.25369e-17
5603.86040 1.24396e-17
5605.33289 1.28007e-17
5606.80539 1.29652e-17
5608.26788 1.27136e-17
5609.74037 1.27462e-17
5611.21287 1.30404e-17
5612.68537 1.31863e-17
5614.14785 1.30913e-17
5615.62035 1.28749e-17
5617.09285 1.29434e-17
5618.56535 1.32651e-17
5620.02783 1.34760e-17
5621.50033 1.34047e-17
5622.97283 1.34324e-17
5624.44533 1.36199e-17
5625.90781 1.36226e-17
5627.38031 1.35955e-17
5628.85281 1.38371e-17
5630.32531 1.39216e-17
5631.78779 1.37487e-17
5633.26029 1.38077e-17
5634.73279 1.39452e-17
5636.20529 1.40019e-17
5637.66777 1.39269e-17
5639.14027 1.38306e-17
5640.61277 1.37357e-17
5642.08527 1.37501e-17
5643.54775 1.37773e-17
5645.02025 1.36249e-17
5646.49275 1.36589e-17
5647.96525 1.38253e-17
5649.42773 1.37361e-17
5650.90023 1.35404e-17
5652.37273 1.35550e-17
5653.84523 1.34254e-17
5655.30771 1.31461e-17
5656.78021 1.29316e-17
5658.25270 1.28728e-17
5659.72520 1.27609e-17
5661.18769 1.25642e-17
5662.66019 1.24250e-17
5664.13268 1.23631e-17
5665.60518 1.22149e-17
5667.06766 1.21452e-17
5668.54016 1.19349e-17
5670.01266 1.16420e-17
5671.47515 1.15591e-17
5672.94764 1.14267e-17
5674.42014 1.09262e-17
5675.89264 1.05688e-17
5677.35512 1.03881e-17
5678.82762 1.00923e-17
5680.30012 9.88803e-18
5681.77262 9.71218e-18
5683.24512 9.43485e-18
5684.70760 9.12561e-18
5686.18010 9.17904e-18
5687.65260 8.89663e-18
5689.11508 8.52128e-18
5690.58758 8.23408e-18
5692.06008 7.97126e-18
5693.53258 7.75597e-18
5694.99506 7.38559e-18
5696.46756 7.00557e-18
5697.94006 6.93874e-18
5699.41256 6.88955e-18
5700.87504 6.63093e-18
5702.34754 6.24352e-18
5703.82004 5.93952e-18
5705.29254 5.68209e-18
5706.75502 5.59874e-18
5708.22752 5.59308e-18
5709.70002 5.41982e-18
5711.17252 5.29369e-18
5712.63500 5.16162e-18
5714.10750 4.97381e-18
5715.58000 4.65369e-18
5717.05250 4.43848e-18
5718.51498 4.43487e-18
5719.98748 4.46322e-18
5721.45997 4.37904e-18
5722.93247 4.13093e-18
5724.39496 3.95317e-18
5725.86745 3.89573e-18
5727.33995 3.94696e-18
5728.81245 3.95961e-18
5730.27494 3.86101e-18
5731.74743 3.78353e-18
5733.21993 3.80538e-18
5734.69243 3.80389e-18
5736.15491 3.71835e-18
5737.62741 3.69452e-18
5739.09991 3.75210e-18
5740.57241 3.78681e-18
5742.03489 3.66777e-18
5743.50739 3.65943e-18
5744.97989 3.78564e-18
5746.45239 3.92948e-18
5747.91487 3.87363e-18
5749.38737 3.84009e-18
5750.85987 3.81804e-18
5752.33237 3.95544e-18
5753.79485 4.20215e-18
5755.26735 4.17380e-18
5756.73985 4.14071e-18
5758.21235 4.21721e-18
5759.67483 4.24082e-18
5761.14733 4.20695e-18
5762.61983 4.23887e-18
5764.09233 4.32591e-18
5765.55481 4.43706e-18
5767.02731 4.60051e-18
5768.49981 4.72746e-18
5769.97231 4.74290e-18
5771.43479 4.71725e-18
5772.90729 4.87039e-18
5774.37979 4.97196e-18
5775.84227 4.88082e-18
5777.31477 4.98225e-18
5778.78727 5.12601e-18
5780.25976 5.28281e-18
5781.72225 5.33008e-18
5783.19475 5.33458e-18
5784.66725 5.44615e-18
5786.13974 5.64278e-18
5787.60223 5.74034e-18
5789.07473 5.75319e-18
5790.54722 5.96578e-18
5792.01972 6.16149e-18
5793.48221 6.27691e-18
5794.95470 6.41171e-18
5796.42720 6.52045e-18
5797.89970 6.71963e-18
5799.36218 6.82375e-18
5800.83468 6.95224e-18
5802.30718 7.15620e-18
5803.77968 7.19254e-18
5805.24216 7.36373e-18
5806.71466 7.59007e-18
5808.18716 7.81339e-18
5809.65966 7.97060e-18
5811.12214 8.07641e-18
5812.59464 8.35601e-18
5814.06714 8.80309e-18
5815.53964 9.14726e-18
5817.00212 9.20274e-18
5818.47462 9.31276e-18
5819.94712 9.61783e-18
5821.41962 9.92774e-18
5822.88210 1.02873e-17
5824.35460 1.06629e-17
5825.82710 1.08126e-17
5827.29960 1.10272e-17
5828.76208 1.13392e-17
5830.23458 1.15220e-17
5831.70708 1.14207e-17
5833.17958 1.14672e-17
5834.64206 1.18392e-17
5836.11456 1.20588e-17
5837.58706 1.23766e-17
5839.05955 1.26163e-17
5840.52204 1.26310e-17
5841.99454 1.27487e-17
5843.46704 1.29196e-17
5844.93953 1.31059e-17
5846.40202 1.32714e-17
5847.87452 1.35183e-17
5849.34701 1.38064e-17
5850.81951 1.38654e-17
5852.28200 1.39468e-17
5853.75449 1.42443e-17
5855.22699 1.45605e-17
5856.69949 1.46392e-17
5858.16197 1.44669e-17
5859.63447 1.44780e-17
5861.10697 1.46757e-17
5862.56945 1.47770e-17
5864.04195 1.49399e-17
5865.51445 1.51104e-17
5866.98695 1.50009e-17
5868.45945 1.49979e-17
5869.92193 1.53700e-17
5871.39443 1.55645e-17
5872.86693 1.56263e-17
5874.32941 1.58700e-17
5875.80191 1.58674e-17
5877.27441 1.58255e-17
5878.74691 1.58522e-17
5880.20939 1.58401e-17
5881.68189 1.59204e-17
5883.15439 1.61548e-17
5884.62689 1.64233e-17
5886.08937 1.60627e-17
5887.56187 1.54360e-17
5889.03437 1.52125e-17
5890.50687 1.51824e-17
5891.96935 1.53405e-17
5893.44185 1.54036e-17
5894.91435 1.52847e-17
5896.38685 1.53739e-17
5897.84933 1.58611e-17
5899.32183 1.59787e-17
5900.79433 1.56715e-17
5902.26683 1.57974e-17
5903.72931 1.60449e-17
5905.20181 1.61441e-17
5906.67430 1.59556e-17
5908.14680 1.59574e-17
5909.60929 1.61834e-17
5911.08179 1.62538e-17
5912.55428 1.62000e-17
5914.02678 1.61865e-17
5915.48927 1.62468e-17
5916.96176 1.61168e-17
5918.43426 1.60346e-17
5919.90676 1.61202e-17
5921.36924 1.61877e-17
5922.84174 1.60901e-17
5924.31424 1.58138e-17
5925.78674 1.58398e-17
5927.24922 1.59516e-17
5928.72172 1.59223e-17
5930.19422 1.59669e-17
5931.66672 1.59741e-17
5933.12920 1.59402e-17
5934.60170 1.58567e-17
5936.07420 1.57164e-17
5937.54670 1.57154e-17
5939.00918 1.57974e-17
5940.48168 1.58284e-17
5941.95418 1.57777e-17
5943.42668 1.55223e-17
5944.88916 1.53349e-17
5946.36166 1.54314e-17
5947.83416 1.54245e-17
5949.30666 1.53402e-17
5950.76914 1.54033e-17
5952.24164 1.55092e-17
5953.71414 1.56117e-17
5955.18664 1.54715e-17
5956.64912 1.53112e-17
5958.12162 1.53113e-17
5959.59412 1.55059e-17
5961.06661 1.57578e-17
5962.52910 1.55484e-17
5964.00160 1.54716e-17
5965.47410 1.54478e-17
5966.93658 1.51393e-17
5968.40908 1.51440e-17
5969.88158 1.54093e-17
5971.35407 1.54207e-17
5972.81656 1.53407e-17
5974.28906 1.54328e-17
5975.76155 1.53581e-17
5977.23405 1.51326e-17
5978.69654 1.49929e-17
5980.16903 1.50359e-17
5981.64153 1.52785e-17
5983.11403 1.52690e-17
5984.57651 1.51198e-17
5986.04901 1.51295e-17
5987.52151 1.50845e-17
5988.99401 1.51304e-17
5990.45649 1.50015e-17
5991.92899 1.47956e-17
5993.40149 1.50327e-17
5994.87399 1.51227e-17
5996.33647 1.50066e-17
5997.80897 1.49843e-17
5999.28147 1.47030e-17
6000.75397 1.45179e-17
6002.21645 1.46887e-17
6003.68895 1.46248e-17
6005.16145 1.45814e-17
6006.63395 1.44687e-17
6008.09643 1.42461e-17
6009.56893 1.41894e-17
6011.04143 1.42150e-17
6012.51393 1.41172e-17
6013.97641 1.39482e-17
6015.44891 1.39831e-17
6016.92141 1.38749e-17
6018.39391 1.37198e-17
6019.85639 1.36347e-17
6021.32889 1.35740e-17
6022.80139 1.35394e-17
6024.27389 1.35884e-17
6025.73637 1.37050e-17
6027.20887 1.35760e-17
6028.68137 1.33721e-17
6030.15386 1.32696e-17
6031.61635 1.31239e-17
6033.08885 1.33089e-17
6034.56134 1.34334e-17
6036.03384 1.31901e-17
6037.49633 1.31090e-17
6038.96882 1.30132e-17
6040.44132 1.29847e-17
6041.91382 1.30172e-17
6043.37630 1.28582e-17
6044.84880 1.28300e-17
6046.32130 1.28678e-17
6047.79380 1.28278e-17
6049.25628 1.29278e-17
6050.72878 1.28626e-17
6052.20128 1.25836e-17
6053.67378 1.24391e-17
6055.13626 1.23930e-17
6056.60876 1.23553e-17
6058.08126 1.22119e-17
6059.55376 1.21248e-17
6061.01624 1.21626e-17
6062.48874 1.19702e-17
6063.96124 1.17652e-17
6065.42372 1.20227e-17
6066.89622 1.21719e-17
6068.36872 1.19431e-17
6069.84122 1.17903e-17
6071.30370 1.15895e-17
6072.77620 1.14897e-17
6074.24870 1.15577e-17
6075.72120 1.15866e-17
6077.18368 1.15602e-17
6078.65618 1.14050e-17
6080.12868 1.13479e-17
6081.60118 1.14507e-17
6083.06366 1.15303e-17
6084.53616 1.15573e-17
6086.00866 1.15792e-17
6087.48115 1.16925e-17
6088.94364 1.18970e-17
6090.41614 1.18971e-17
6091.88864 1.17010e-17
6093.36113 1.17101e-17
6094.82362 1.18770e-17
6096.29612 1.18795e-17
6097.76861 1.18905e-17
6099.24111 1.21835e-17
6100.70360 1.23434e-17
6102.17609 1.21532e-17
6103.64859 1.21323e-17
6105.12109 1.23634e-17
6106.58357 1.27061e-17
6108.05607 1.27039e-17
6109.52857 1.25906e-17
6111.00107 1.26920e-17
6112.46355 1.27358e-17
6113.93605 1.29152e-17
6115.40855 1.28861e-17
6116.88105 1.28804e-17
6118.34353 1.29146e-17
6119.81603 1.28016e-17
6121.28853 1.27662e-17
6122.76103 1.26834e-17
6124.22351 1.25429e-17
6125.69601 1.26727e-17
6127.16851 1.28446e-17
6128.64101 1.26803e-17
6130.10349 1.25765e-17
6131.57599 1.26017e-17
6133.04849 1.28443e-17
6134.52099 1.27957e-17
6135.98347 1.24279e-17
6137.45597 1.25499e-17
6138.92847 1.25740e-17
6140.40097 1.25046e-17
6141.86345 1.26683e-17
6143.33595 1.24247e-17
6144.80845 1.22123e-17
6146.28095 1.23003e-17
6147.74343 1.22494e-17
6149.21593 1.23138e-17
6150.68843 1.23711e-17
6152.15091 1.22794e-17
6153.62341 1.20827e-17
6155.09591 1.21352e-17
6156.56840 1.22415e-17
6158.03089 1.21197e-17
6159.50338 1.18784e-17
6160.97588 1.19783e-17
6162.44838 1.21920e-17
6163.92088 1.22273e-17
6165.38336 1.23736e-17
6166.85586 1.23438e-17
6168.32836 1.25974e-17
6169.79084 1.29304e-17
6171.26334 1.26196e-17
6172.73584 1.24664e-17
6174.20834 1.28027e-17
6175.67082 1.30233e-17
6177.14332 1.30886e-17
6178.61582 1.33164e-17
6180.08832 1.34760e-17
6181.55080 1.35424e-17
6183.02330 1.39465e-17
6184.49580 1.40887e-17
6185.96830 1.41121e-17
6187.43078 1.44472e-17
6188.90328 1.45646e-17
6190.37578 1.45326e-17
6191.84828 1.45616e-17
6193.31076 1.48553e-17
6194.78326 1.52364e-17
6196.25576 1.53400e-17
6197.72826 1.57145e-17
6199.19074 1.58454e-17
6200.66324 1.59705e-17
6202.13574 1.63587e-17
6203.60824 1.66729e-17
6205.07072 1.68336e-17
6206.54322 1.70230e-17
6208.01572 1.74667e-17
6209.48822 1.76498e-17
6210.95070 1.79318e-17
6212.42320 1.84454e-17
6213.89570 1.85864e-17
6215.36819 1.86989e-17
6216.83068 1.90014e-17
6218.30318 1.93490e-17
6219.77567 1.95505e-17
6221.24817 1.96295e-17
6222.71065 1.97228e-17
6224.18315 1.96501e-17
6225.65565 1.94554e-17
6227.12815 1.96409e-17
6228.59063 1.99503e-17
6230.06313 1.99742e-17
6231.53563 2.00567e-17
6233.00813 2.00460e-17
6234.47061 2.02329e-17
6235.94311 2.04228e-17
6237.41561 2.03169e-17
6238.87809 2.02159e-17
6240.35059 2.03393e-17
6241.82309 2.02947e-17
6243.29559 2.02969e-17
6244.76809 2.06674e-17
6246.23057 2.06201e-17
6247.70307 2.05380e-17
6249.17557 2.06473e-17
6250.64807 2.08630e-17
6252.11055 2.11466e-17
6253.58305 2.10875e-17
6255.05555 2.09328e-17
6256.51803 2.09055e-17
6257.99053 2.10525e-17
6259.46303 2.12901e-17
6260.93553 2.13416e-17
6262.39801 2.15291e-17
6263.87051 2.18782e-17
6265.34301 2.20591e-17
6266.81551 2.22674e-17
6268.27799 2.21855e-17
6269.75049 2.17774e-17
6271.22299 2.17775e-17
6272.69549 2.19810e-17
6274.15797 2.19782e-17
6275.63047 2.18187e-17
6277.10297 2.14775e-17
6278.57546 2.13718e-17
6280.03795 2.14660e-17
6281.51045 2.12171e-17
6282.98294 2.09070e-17
6284.45544 2.08590e-17
6285.91793 2.10306e-17
6287.39042 2.11886e-17
6288.86292 2.10425e-17
6290.33542 2.08704e-17
6291.79790 2.07159e-17
6293.27040 2.06514e-17
6294.74290 2.06524e-17
6296.21540 2.04583e-17
6297.67788 2.02704e-17
6299.15038 2.01902e-17
6300.62288 2.02779e-17
6302.09538 2.04381e-17
6303.55786 2.01969e-17
6305.03036 1.98112e-17
6306.50286 1.99407e-17
6307.97536 2.00815e-17
6309.43784 2.00202e-17
6310.91034 1.99622e-17
6312.38284 1.99824e-17
6313.85534 1.97712e-17
6315.31782 1.94882e-17
6316.79032 1.95990e-17
6318.26282 1.95797e-17
6319.73532 1.93760e-17
6321.19780 1.92588e-17
6322.67030 1.91260e-17
6324.14280 1.92701e-17
6325.61530 1.93532e-17
6327.07778 1.90780e-17
6328.55028 1.90126e-17
6330.02278 1.89207e-17
6331.49528 1.89476e-17
6332.95776 1.88787e-17
6334.43026 1.86862e-17
6335.90276 1.83634e-17
6337.37525 1.80938e-17
6338.83774 1.81307e-17
6340.31024 1.79925e-17
6341.78273 1.76731e-17
6343.24522 1.74386e-17
6344.71771 1.73951e-17
6346.19021 1.72649e-17
6347.66271 1.69995e-17
6349.12520 1.70439e-17
6350.59769 1.70937e-17
6352.07019 1.67361e-17
6353.54269 1.64420e-17
6355.01519 1.63982e-17
6356.47767 1.62719e-17
6357.95017 1.61637e-17
6359.42267 1.61811e-17
6360.88515 1.60851e-17
6362.35765 1.58526e-17
6363.83015 1.57721e-17
6365.30265 1.55869e-17
6366.76513 1.53758e-17
6368.23763 1.54800e-17
6369.71013 1.55716e-17
6371.18263 1.54305e-17
6372.64511 1.55322e-17
6374.11761 1.54736e-17
6375.59011 1.53920e-17
6377.06261 1.52041e-17
6378.52509 1.50211e-17
6379.99759 1.49294e-17
6381.47009 1.48041e-17
6382.94259 1.49168e-17
6384.40507 1.48491e-17
6385.87757 1.48708e-17
6387.35007 1.49136e-17
6388.82257 1.49337e-17
6390.28505 1.49854e-17
6391.75755 1.50728e-17
6393.23005 1.49902e-17
6394.70255 1.48952e-17
6396.16503 1.49615e-17
6397.63753 1.49969e-17
6399.11002 1.49349e-17
6400.58252 1.50560e-17
6402.04501 1.50177e-17
6403.51750 1.46416e-17
6404.99000 1.46502e-17
6406.46250 1.47568e-17
6407.92499 1.45117e-17
6409.39748 1.44236e-17
6410.86998 1.44642e-17
6412.34248 1.44568e-17
6413.80496 1.45720e-17
6415.27746 1.47049e-17
6416.74996 1.47984e-17
6418.22246 1.45448e-17
6419.68494 1.41875e-17
6421.15744 1.43945e-17
6422.62994 1.45157e-17
6424.10244 1.44822e-17
6425.56492 1.48414e-17
6427.03742 1.48794e-17
6428.50992 1.45658e-17
6429.97240 1.45830e-17
6431.44490 1.46008e-17
6432.91740 1.44876e-17
6434.38990 1.46933e-17
6435.86240 1.47687e-17
6437.32488 1.46184e-17
6438.79738 1.45548e-17
6440.26988 1.47387e-17
6441.74238 1.51396e-17
6443.20486 1.50521e-17
6444.67736 1.48389e-17
6446.14986 1.49892e-17
6447.61234 1.51208e-17
6449.08484 1.50220e-17
6450.55734 1.49554e-17
6452.02984 1.52338e-17
6453.49232 1.53858e-17
6454.96482 1.52710e-17
6456.43732 1.53409e-17
6457.90981 1.53213e-17
6459.37230 1.51763e-17
6460.84480 1.52618e-17
6462.31730 1.54001e-17
6463.78979 1.54250e-17
6465.25228 1.53091e-17
6466.72478 1.53506e-17
6468.19727 1.56090e-17
6469.66977 1.57127e-17
6471.13225 1.56899e-17
6472.60475 1.54888e-17
6474.07725 1.52768e-17
6475.54975 1.54557e-17
6477.01223 1.55798e-17
6478.48473 1.51563e-17
6479.95723 1.50184e-17
6481.42973 1.53691e-17
6482.89221 1.53587e-17
6484.36471 1.51922e-17
6485.83721 1.53034e-17
6487.30971 1.55021e-17
6488.77219 1.53674e-17
6490.24469 1.50845e-17
6491.71719 1.49002e-17
6493.18969 1.48255e-17
6494.65217 1.49205e-17
6496.12467 1.50131e-17
6497.59717 1.48748e-17
6499.06967 1.48066e-17
6500.53215 1.50286e-17
6502.00465 1.49798e-17
6503.47715 1.46133e-17
6504.94965 1.45268e-17
6506.41213 1.45606e-17
6507.88463 1.43804e-17
6509.35713 1.43786e-17
6510.82963 1.43864e-17
6512.29211 1.41842e-17
6513.76461 1.42733e-17
6515.23711 1.41983e-17
6516.70961 1.40913e-17
6518.17209 1.38522e-17
6519.64459 1.36621e-17
6521.11709 1.37706e-17
6522.58958 1.36932e-17
6524.05207 1.37063e-17
6525.52456 1.37019e-17
6526.99706 1.37839e-17
6528.46956 1.40146e-17
6529.93205 1.35818e-17
6531.40454 1.32439e-17
6532.87704 1.35271e-17
6534.33953 1.35493e-17
6535.81202 1.34375e-17
6537.28452 1.34878e-17
6538.75702 1.34718e-17
6540.21950 1.33678e-17
6541.69200 1.34362e-17
6543.16450 1.35651e-17
6544.63700 1.35297e-17
6546.09948 1.34942e-17
6547.57198 1.34587e-17
6549.04448 1.34233e-17
6550.51698 1.33878e-17
6551.97946 1.33524e-17
6553.45196 1.33169e-17
6554.92446 1.32815e-17
6556.39696 1.32460e-17
6557.85944 1.32106e-17
6559.33194 1.31752e-17
6560.80444 1.31397e-17
6562.27694 1.31043e-17
6563.73942 1.30689e-17
6565.21192 1.30334e-17
6566.68442 1.29980e-17
6568.15692 1.29626e-17
6569.61940 1.29272e-17
6571.09190 1.28917e-17
6572.56440 1.28563e-17
6574.03690 1.28209e-17
6575.49938 1.27855e-17
6576.97188 1.27501e-17
6578.44438 1.27147e-17
6579.91687 1.26793e-17
6581.37936 1.26439e-17
6582.85186 1.26085e-17
6584.32435 1.25731e-17
6585.79685 1.25377e-17
6587.25934 1.25023e-17
6588.73184 1.24669e-17
6590.20433 1.24315e-17
6591.67683 1.23961e-17
6593.13932 1.23608e-17
6594.61181 1.23254e-17
6596.08431 1.22900e-17
6597.55681 1.22546e-17
6599.01929 1.22193e-17
6600.49179 1.21839e-17
6601.96429 1.21485e-17
6603.43679 1.21132e-17
6604.89927 1.20778e-17
6606.37177 1.20527e-17
6607.84427 1.20829e-17
6609.31677 1.19811e-17
6610.77925 1.19127e-17
6612.25175 1.19390e-17
6613.72425 1.19304e-17
6615.19675 1.20669e-17
6616.65923 1.19778e-17
6618.13173 1.19608e-17
6619.60423 1.18348e-17
6621.07673 1.16526e-17
6622.53921 1.15537e-17
6624.01171 1.15325e-17
6625.48421 1.14627e-17
6626.95671 1.12389e-17
6628.41919 1.10586e-17
6629.89169 1.12906e-17
6631.36419 1.12538e-17
6632.82667 1.08021e-17
6634.29917 1.07053e-17
6635.77167 1.07270e-17
6637.24417 1.06624e-17
6638.70665 1.08416e-17
6640.17915 1.09814e-17
6641.65165 1.08501e-17
6643.12415 1.06759e-17
6644.58663 1.07596e-17
6646.05913 1.08664e-17
6647.53163 1.07900e-17
6649.00412 1.06095e-17
6650.46661 1.04827e-17
6651.93910 1.05536e-17
6653.41160 1.06133e-17
6654.88410 1.05010e-17
6656.34659 1.04321e-17
6657.81908 1.04806e-17
6659.29158 1.04270e-17
6660.76408 1.02384e-17
6662.22656 1.02041e-17
6663.69906 1.02843e-17
6665.17156 1.02034e-17
6666.64406 1.00525e-17
6668.10654 1.00058e-17
6669.57904 1.00266e-17
6671.05154 1.00515e-17
6672.52404 9.83554e-18
6673.98652 9.70518e-18
6675.45902 9.89874e-18
6676.93152 9.85514e-18
6678.40402 9.95028e-18
6679.86650 1.00647e-17
6681.33900 9.85544e-18
6682.81150 9.89456e-18
6684.28400 1.00273e-17
6685.74648 9.96246e-18
6687.21898 9.86704e-18
6688.69148 9.84723e-18
6690.16398 9.74475e-18
6691.62646 9.72247e-18
6693.09896 9.73884e-18
6694.57146 9.77787e-18
6696.04396 9.71494e-18
6697.50644 9.55372e-18
6698.97894 9.63738e-18
6700.45144 9.40269e-18
6701.92394 9.19781e-18
6703.38642 9.34038e-18
6704.85892 9.23606e-18
6706.33141 9.00560e-18
6707.80391 9.13389e-18
6709.26640 9.14691e-18
6710.73890 8.89627e-18
6712.21139 8.86658e-18
6713.68389 8.91647e-18
6715.14638 8.87055e-18
6716.61887 8.84511e-18
6718.09137 8.73904e-18
6719.55386 8.74691e-18
6721.02635 8.76948e-18
6722.49885 8.81059e-18
6723.97135 8.87093e-18
6725.43383 9.11547e-18
6726.90633 9.51051e-18
6728.37883 9.49557e-18
6729.85133 9.15208e-18
6731.32383 8.86782e-18
6732.78631 8.68716e-18
6734.25881 8.66521e-18
6735.73131 8.37118e-18
6737.19379 8.23506e-18
6738.66629 8.37502e-18
6740.13879 8.75213e-18
6741.61129 8.83267e-18
6743.07377 8.55654e-18
6744.54627 8.71416e-18
6746.01877 8.58783e-18
6747.49127 8.37565e-18
6748.95375 8.26972e-18
6750.42625 8.17607e-18
6751.89875 8.14147e-18
6753.37125 8.16560e-18
6754.83373 8.19257e-18
6756.30623 8.00489e-18
6757.77873 7.97838e-18
6759.25123 8.16151e-18
6760.71371 8.29697e-18
6762.18621 8.25245e-18
6763.65871 8.17333e-18
6765.13120 8.17867e-18
6766.59369 8.30262e-18
6768.06619 8.21977e-18
6769.53869 8.17143e-18
6771.01118 8.16933e-18
6772.47367 8.25639e-18
6773.94617 8.25929e-18
6775.41866 8.24883e-18
6776.89116 8.25460e-18
6778.35365 8.24254e-18
6779.82614 8.36788e-18
6781.29864 8.28445e-18
6782.77114 8.24059e-18
6784.23362 8.33233e-18
6785.70612 8.29366e-18
6787.17862 8.40231e-18
6788.65112 8.49108e-18
6790.11360 8.25611e-18
6791.58610 8.05666e-18
6793.05860 8.18963e-18
6794.53110 8.15277e-18
6795.99358 8.31408e-18
6797.46608 8.31064e-18
6798.93858 8.28875e-18
6800.41108 8.23060e-18
6801.87356 8.33530e-18
6803.34606 8.30116e-18
6804.81856 8.39243e-18
6806.29106 8.61111e-18
6807.75354 8.50841e-18
6809.22604 8.37848e-18
6810.69854 8.49075e-18
6812.17104 8.38996e-18
6813.63352 8.19919e-18
6815.10602 8.33643e-18
6816.57852 8.32601e-18
6818.05102 8.26289e-18
6819.51350 8.15466e-18
6820.98600 8.23965e-18
6822.45850 8.33697e-18
6823.92098 8.12567e-18
6825.39348 7.92519e-18
6826.86598 8.02461e-18
6828.33848 7.77183e-18
6829.80096 7.92785e-18
6831.27346 7.93588e-18
6832.74596 7.99528e-18
6834.21845 8.03626e-18
6835.68094 7.92259e-18
6837.15344 7.85183e-18
6838.62593 7.85769e-18
6840.09843 7.73207e-18
6841.56092 7.87751e-18
6843.03341 8.01800e-18
6844.50591 7.85452e-18
6845.97841 7.85277e-18
6847.44089 7.85103e-18
6848.91339 7.84928e-18
6850.38589 7.84754e-18
6851.85839 7.84579e-18
6853.32087 7.84405e-18
6854.79337 7.84230e-18
6856.26587 7.84056e-18
6857.73837 7.83882e-18
6859.20085 7.83707e-18
6860.67335 7.83533e-18
6862.14585 7.83358e-18
6863.61835 7.83184e-18
6865.08083 7.83009e-18
6866.55333 7.82835e-18
6868.02583 7.82661e-18
6869.49833 7.82486e-18
6870.96081 7.82312e-18
6872.43331 7.82138e-18
6873.90581 7.81963e-18
6875.37831 7.81789e-18
6876.84079 7.81615e-18
6878.31329 7.81440e-18
6879.78579 7.81266e-18
6881.25829 7.81092e-18
6882.72077 7.80917e-18
6884.19327 7.80743e-18
6885.66577 7.80569e-18
6887.13827 7.80395e-18
6888.60075 7.80220e-18
6890.07325 7.80046e-18
6891.54575 7.79872e-18
6893.01824 7.79698e-18
6894.48073 7.79524e-18
6895.95323 7.79349e-18
6897.42572 7.79175e-18
6898.89822 7.79001e-18
6900.36071 7.78827e-18
6901.83320 7.78652e-18
6903.30570 7.78478e-18
6904.77820 7.78304e-18
6906.24068 7.78130e-18
6907.71318 7.77956e-18
6909.18568 7.77782e-18
6910.64816 7.77608e-18
6912.12066 7.77433e-18
6913.59316 7.77259e-18
6915.06566 7.77085e-18
6916.53816 7.76911e-18
6918.00064 7.76737e-18
6919.47314 7.76563e-18
6920.94564 7.76389e-18
6922.41814 7.76215e-18
6923.88062 7.76041e-18
6925.35312 7.75866e-18
6926.82562 7.75692e-18
6928.28810 7.75518e-18
6929.76060 7.75344e-18
6931.23310 7.75170e-18
6932.70560 7.74996e-18
6934.16808 7.74822e-18
6935.64058 7.74648e-18
6937.11308 7.76741e-18
6938.58558 7.80181e-18
6940.04806 7.97938e-18
6941.52056 8.14441e-18
6942.99306 8.20474e-18
6944.46556 8.17376e-18
6945.92804 8.20120e-18
6947.40054 8.38442e-18
6948.87304 8.31480e-18
6950.34554 8.26586e-18
6951.80802 8.38072e-18
6953.28052 8.34621e-18
6954.75302 8.50181e-18
6956.22551 8.55920e-18
6957.68800 8.56366e-18
6959.16050 8.66930e-18
6960.63299 8.80536e-18
6962.10549 8.94122e-18
6963.56797 8.92392e-18
6965.04047 8.87330e-18
6966.51297 9.06199e-18
6967.98547 9.14001e-18
6969.44795 9.12606e-18
6970.92045 9.06606e-18
6972.39295 9.04494e-18
6973.86545 9.10599e-18
6975.32793 9.34804e-18
6976.80043 9.47111e-18
6978.27293 9.22055e-18
6979.74543 9.37832e-18
6981.20791 9.41992e-18
6982.68041 9.25781e-18
6984.15291 9.21214e-18
6985.62541 9.33433e-18
6987.08789 9.34345e-18
6988.56039 9.30570e-18
6990.03289 9.15261e-18
6991.50539 9.28492e-18
6992.96787 9.50202e-18
6994.44037 9.33509e-18
6995.91287 9.10960e-18
6997.38537 9.11376e-18
6998.84785 9.17872e-18
7000.32035 9.11755e-18
7001.79285 9.37033e-18
7003.26535 9.13114e-18
7004.72783 9.12510e-18
7006.20033 9.11907e-18
7007.67283 9.11303e-18
7009.14533 9.10699e-18
7010.60781 9.10095e-18
7012.08031 9.09492e-18
7013.55281 9.08888e-18
7015.01529 9.08284e-18
7016.48779 9.07681e-18
7017.96029 9.07077e-18
7019.43278 9.07045e-18
7020.89527 9.05401e-18
7022.36776 8.95711e-18
7023.84026 8.85140e-18
7025.31276 8.90207e-18
7026.77525 8.94123e-18
7028.24774 8.88899e-18
7029.72024 8.98921e-18
7031.19274 9.00303e-18
7032.65522 8.98716e-18
7034.12772 8.90708e-18
7035.60022 8.83815e-18
7037.07272 8.88481e-18
7038.53520 9.03461e-18
7040.00770 8.91371e-18
7041.48020 8.83738e-18
7042.95270 9.07975e-18
7044.41518 8.89354e-18
7045.88768 8.92081e-18
7047.36018 8.75014e-18
7048.83268 8.73720e-18
7050.29516 9.11861e-18
7051.76766 9.11118e-18
7053.24016 8.96017e-18
7054.71266 8.88261e-18
7056.17514 8.74053e-18
7057.64764 8.91459e-18
7059.12014 9.08890e-18
7060.59264 8.66574e-18
7062.05512 8.95824e-18
7063.52762 8.90670e-18
7065.00012 9.13706e-18
7066.47262 9.06062e-18
7067.93510 9.01909e-18
7069.40760 9.07008e-18
7070.88010 8.99355e-18
7072.35260 9.15837e-18
7073.81508 9.06653e-18
7075.28758 9.14323e-18
7076.76008 9.03936e-18
7078.23257 9.00447e-18
7079.69506 8.99789e-18
7081.16755 9.29199e-18
7082.64005 9.25919e-18
7084.11255 9.20064e-18
7085.57504 9.34396e-18
7087.04753 9.02420e-18
7088.52003 8.96477e-18
7089.99253 9.25360e-18
7091.45501 9.08039e-18
7092.92751 8.98909e-18
7094.40001 9.08866e-18
7095.87251 9.04110e-18
7097.33499 9.09019e-18
7098.80749 9.34832e-18
7100.27999 9.29921e-18
7101.74247 9.34936e-18
7103.21497 9.23789e-18
7104.68747 8.97979e-18
7106.15997 9.08564e-18
7107.62245 9.06664e-18
7109.09495 9.08425e-18
7110.56745 9.01511e-18
7112.03995 8.95628e-18
7113.51245 8.94371e-18
7114.97493 8.86146e-18
7116.44743 8.87686e-18
7117.91993 8.94345e-18
7119.38241 8.77823e-18
7120.85491 8.67597e-18
7122.32741 8.65318e-18
7123.79991 8.51035e-18
7125.26239 8.51097e-18
7126.73489 8.63506e-18
7128.20739 8.83430e-18
7129.67989 8.94296e-18
7131.14237 8.85449e-18
7132.61487 8.77668e-18
7134.08737 8.81119e-18
7135.55987 8.97531e-18
7137.02235 8.96206e-18
7138.49485 9.03040e-18
7139.96735 8.98285e-18
7141.43984 9.08949e-18
7142.90233 9.30715e-18
7144.37482 9.19598e-18
7145.84732 9.22990e-18
7147.31982 9.47199e-18
7148.78230 9.65325e-18
7150.25480 9.66830e-18
7151.72730 9.68032e-18
7153.19980 9.71207e-18
7154.66228 9.85508e-18
7156.13478 9.81752e-18
7157.60728 9.82635e-18
7159.07978 1.00575e-17
7160.54226 1.00747e-17
7162.01476 1.02959e-17
7163.48726 1.03712e-17
7164.95976 1.03405e-17
7166.42224 1.05292e-17
7167.89474 1.07798e-17
7169.36724 1.06978e-17
7170.83974 1.05754e-17
7172.30222 1.09126e-17
7173.77472 1.11400e-17
7175.24722 1.10720e-17
7176.71972 1.10711e-17
7178.18220 1.10028e-17
7179.65470 1.11075e-17
7181.12720 1.11849e-17
7182.59970 1.12205e-17
7184.06218 1.14478e-17
7185.53468 1.16194e-17
7187.00718 1.15044e-17
7188.47968 1.15066e-17
7189.94216 1.18024e-17
7191.41466 1.19716e-17
7192.88716 1.20107e-17
7194.35966 1.19959e-17
7195.82214 1.20949e-17
7197.29464 1.20578e-17
7198.76714 1.20735e-17
7200.23963 1.23308e-17
7201.70212 1.22141e-17
7203.17461 1.21037e-17
7204.64711 1.21909e-17
7206.10960 1.21773e-17
7207.58210 1.23034e-17
7209.05459 1.21458e-17
7210.52709 1.19901e-17
7211.98958 1.22116e-17
7213.46207 1.21761e-17
7214.93457 1.21883e-17
7216.40707 1.20913e-17
7217.86955 1.17739e-17
7219.34205 1.18123e-17
7220.81455 1.23103e-17
7222.28705 1.25602e-17
7223.74953 1.25160e-17
7225.22203 1.24462e-17
7226.69453 1.23404e-17
7228.16703 1.24922e-17
7229.62951 1.24538e-17
7231.10201 1.25248e-17
7232.57451 1.28232e-17
7234.04701 1.31514e-17
7235.50949 1.29113e-17
7236.98199 1.30256e-17
7238.45449 1.33573e-17
7239.92699 1.35073e-17
7241.38947 1.35142e-17
7242.86197 1.33736e-17
7244.33447 1.34248e-17
7245.80697 1.32708e-17
7247.26945 1.32543e-17
7248.74195 1.35700e-17
7250.21445 1.36946e-17
7251.68695 1.37482e-17
7253.14943 1.37255e-17
7254.62193 1.35573e-17
7256.09443 1.36992e-17
7257.56693 1.40371e-17
7259.02941 1.43234e-17
7260.50191 1.39818e-17
7261.97440 1.36980e-17
7263.44690 1.39270e-17
7264.90939 1.41311e-17
7266.38189 1.42943e-17
7267.85438 1.45738e-17
7269.32688 1.45251e-17
7270.78936 1.47339e-17
7272.26186 1.50074e-17
7273.73436 1.49774e-17
7275.20686 1.50025e-17
7276.66934 1.50717e-17
7278.14184 1.52143e-17
7279.61434 1.49943e-17
7281.08684 1.50825e-17
7282.54932 1.52780e-17
7284.02182 1.53805e-17
7285.49432 1.53990e-17
7286.96682 1.54360e-17
7288.42930 1.56748e-17
7289.90180 1.55058e-17
7291.37430 1.53304e-17
7292.84680 1.52073e-17
7294.30928 1.51020e-17
7295.78178 1.51425e-17
7297.25428 1.53325e-17
7298.71676 1.54360e-17
7300.18926 1.53991e-17
7301.66176 1.56581e-17
7303.13426 1.59192e-17
7304.59674 1.59199e-17
7306.06924 1.58225e-17
7307.54174 1.57153e-17
7309.01424 1.59635e-17
7310.47672 1.59033e-17
7311.94922 1.59210e-17
7313.42172 1.58654e-17
7314.89422 1.58363e-17
7316.35670 1.56871e-17
7317.82920 1.53841e-17
7319.30170 1.53613e-17
7320.77420 1.53703e-17
7322.23668 1.52937e-17
7323.70918 1.54844e-17
7325.18167 1.54436e-17
7326.65417 1.53791e-17
7328.11666 1.51203e-17
7329.58915 1.49631e-17
7331.06165 1.50309e-17
7332.53415 1.47417e-17
7333.99664 1.45097e-17
7335.46913 1.48140e-17
7336.94163 1.46906e-17
7338.41413 1.42540e-17
7339.87661 1.45461e-17
7341.34911 1.44023e-17
7342.82161 1.41593e-17
7344.29411 1.41283e-17
7345.75659 1.42202e-17
7347.22909 1.38945e-17
7348.70159 1.38692e-17
7350.17409 1.41715e-17
7351.63657 1.39883e-17
7353.10907 1.37837e-17
7354.58157 1.36477e-17
7356.05407 1.34530e-17
7357.51655 1.35567e-17
7358.98905 1.33508e-17
7360.46155 1.27212e-17
7361.93405 1.28019e-17
7363.39653 1.29034e-17
7364.86903 1.27591e-17
7366.34153 1.25053e-17
7367.81403 1.26401e-17
7369.27651 1.23810e-17
7370.74901 1.22858e-17
7372.22151 1.22135e-17
7373.69401 1.22675e-17
7375.15649 1.23161e-17
7376.62899 1.21300e-17
7378.10149 1.19865e-17
7379.57398 1.21370e-17
7381.03647 1.22505e-17
7382.50897 1.20074e-17
7383.98146 1.18228e-17
7385.45396 1.19686e-17
7386.91645 1.18987e-17
7388.38895 1.19227e-17
7389.86144 1.23612e-17
7391.32393 1.20893e-17
7392.79643 1.19032e-17
7394.26892 1.19121e-17
7395.74142 1.19800e-17
7397.20391 1.18514e-17
7398.67640 1.18076e-17
7400.14890 1.18289e-17
7401.62140 1.18184e-17
7403.08388 1.18779e-17
7404.55638 1.18923e-17
7406.02888 1.16810e-17
7407.50138 1.17218e-17
7408.96386 1.18591e-17
7410.43636 1.13276e-17
7411.90886 1.13010e-17
7413.38136 1.13056e-17
7414.84384 1.14077e-17
7416.31634 1.12875e-17
7416.64690 1.12875e-17
7417.50836 1.12953e-17
7418.36983 1.13009e-17
7419.23129 1.13065e-17
7420.09275 1.13076e-17
7420.95421 1.13086e-17
7421.82569 1.13064e-17
7422.68715 1.13041e-17
7423.54861 1.13041e-17
7424.41008 1.13041e-17
7425.27154 1.13097e-17
7426.13300 1.13153e-17
7426.99446 1.13252e-17
7427.85592 1.13350e-17
7428.71739 1.13467e-17
7429.57885 1.13584e-17
7430.44031 1.13661e-17
7431.31179 1.13739e-17
7432.17325 1.13735e-17
7433.03471 1.13731e-17
7433.89618 1.13689e-17
7434.75764 1.13647e-17
7435.61910 1.13616e-17
7436.48056 1.13585e-17
7437.34202 1.13576e-17
7438.20349 1.13567e-17
7439.06495 1.13585e-17
7439.92641 1.13602e-17
7440.79789 1.13644e-17
7441.65935 1.13686e-17
7442.52081 1.13741e-17
7443.38227 1.13795e-17
7444.24374 1.13861e-17
7445.10520 1.13926e-17
7445.96666 1.14007e-17
7446.82812 1.14089e-17
7447.68959 1.14139e-17
7448.55105 1.14189e-17
7449.41251 1.14128e-17
7450.28399 1.14066e-17
7451.14545 1.13913e-17
7452.00691 1.13759e-17
7452.86837 1.13618e-17
7453.72984 1.13475e-17
7454.59130 1.13381e-17
7455.45276 1.13289e-17
7456.31422 1.13201e-17
7457.17568 1.13115e-17
7458.03715 1.13014e-17
7458.89861 1.12913e-17
7459.77009 1.12797e-17
7460.63155 1.12682e-17
7461.49301 1.12575e-17
7462.35447 1.12467e-17
7463.21594 1.12470e-17
7464.07740 1.12474e-17
7464.93886 1.12647e-17
7465.80032 1.12821e-17
7466.66178 1.13079e-17
7467.52325 1.13338e-17
7468.38471 1.13586e-17
7469.25619 1.13834e-17
7470.11765 1.13980e-17
7470.97911 1.14124e-17
7471.84057 1.14088e-17
7472.70203 1.14052e-17
7473.56350 1.13926e-17
7474.42496 1.13801e-17
7475.28642 1.13715e-17
7476.14788 1.13629e-17
7477.00934 1.13588e-17
7477.87081 1.13548e-17
7478.73227 1.13520e-17
7479.60375 1.13493e-17
7480.46521 1.13450e-17
7481.32667 1.13407e-17
7482.18813 1.13315e-17
7483.04960 1.13223e-17
7483.91106 1.13095e-17
7484.77252 1.12967e-17
7485.63398 1.12854e-17
7486.49544 1.12739e-17
7487.35690 1.12648e-17
7488.21837 1.12556e-17
7489.08985 1.12450e-17
7489.95131 1.12345e-17
7490.81277 1.12213e-17
7491.67423 1.12081e-17
7492.53569 1.11941e-17
7493.39716 1.11801e-17
7494.25862 1.11663e-17
7495.12008 1.11527e-17
7495.98154 1.11397e-17
7496.84300 1.11267e-17
7497.70447 1.11141e-17
7498.57595 1.11016e-17
7499.43741 1.10874e-17
7500.29887 1.10733e-17
7501.16033 1.10558e-17
7502.02179 1.10383e-17
7502.88325 1.10196e-17
7503.74472 1.10009e-17
7504.60618 1.09826e-17
7505.46764 1.09643e-17
7506.32910 1.09417e-17
7507.19056 1.09189e-17
7508.06204 1.08870e-17
7508.92351 1.08551e-17
7509.78497 1.08147e-17
7510.64643 1.07742e-17
7511.50789 1.07273e-17
7512.36935 1.06804e-17
7513.23082 1.06362e-17
7514.09228 1.05919e-17
7514.95374 1.05626e-17
7515.81520 1.05334e-17
7516.67666 1.05146e-17
7517.54814 1.04959e-17
7518.40960 1.04737e-17
7519.27107 1.04514e-17
7520.13253 1.04200e-17
7520.99399 1.03887e-17
7521.85545 1.03493e-17
7522.71691 1.03099e-17
7523.57838 1.02656e-17
7524.43984 1.02213e-17
7525.30130 1.01786e-17
7526.16276 1.01358e-17
7527.02423 1.00972e-17
7527.89570 1.00585e-17
7528.75717 1.00187e-17
7529.61863 9.97883e-18
7530.48009 9.93417e-18
7531.34155 9.88950e-18
7532.20301 9.84109e-18
7533.06448 9.79277e-18
7533.92594 9.74115e-18
7534.78740 9.68953e-18
7535.64886 9.63105e-18
7536.52034 9.57256e-18
7537.38180 9.50543e-18
7538.24327 9.43830e-18
7539.10473 9.37046e-18
7539.96619 9.30261e-18
7540.82765 9.24225e-18
7541.68911 9.18190e-18
7542.55058 9.12965e-18
7543.41204 9.07741e-18
7544.27350 9.03194e-18
7545.13496 8.98648e-18
7545.99642 8.94074e-18
7546.86790 8.89496e-18
7547.72936 8.84006e-18
7548.59083 8.78514e-18
7549.45229 8.72105e-18
7550.31375 8.65694e-18
7551.17521 8.58807e-18
7552.03667 8.51920e-18
7552.89814 8.45039e-18
7553.75960 8.38159e-18
7554.62106 8.31814e-18
7555.48252 8.25471e-18
7556.35400 8.19779e-18
7557.21546 8.14087e-18
7558.07693 8.08698e-18
7558.93839 8.03310e-18
7559.79985 7.97926e-18
7560.66131 7.92542e-18
7561.52277 7.87014e-18
7562.38424 7.81487e-18
7563.24570 7.75574e-18
7564.10716 7.69659e-18
7564.96862 7.62829e-18
7565.84010 7.55997e-18
7566.70156 7.48246e-18
7567.56302 7.40493e-18
7568.42449 7.33306e-18
7569.28595 7.26122e-18
7570.14741 7.20738e-18
7571.00887 7.15358e-18
7571.87033 7.11960e-18
7572.73180 7.08565e-18
7573.59326 7.06950e-18
7574.45472 7.05340e-18
7575.31618 7.03260e-18
7576.18766 7.01180e-18
7577.04912 6.96165e-18
7577.91059 6.91146e-18
7578.77205 6.84547e-18
7579.63351 6.77946e-18
7580.49497 6.71923e-18
7581.35643 6.65902e-18
7582.21790 6.60112e-18
7583.07936 6.54324e-18
7583.94082 6.47763e-18
7584.81230 6.41200e-18
7585.67376 6.30232e-18
7586.53522 6.19254e-18
7587.39668 5.98832e-18
7588.25815 5.78392e-18
7589.11961 5.49516e-18
7589.98107 5.20623e-18
7590.84253 4.89312e-18
7591.70399 4.57997e-18
7592.56546 4.29984e-18
7593.42692 4.01978e-18
7594.28838 3.82632e-18
7595.15986 3.63303e-18
7596.02132 3.55305e-18
7596.88278 3.47328e-18
7597.74425 3.48084e-18
7598.60571 3.48858e-18
7599.46717 3.56495e-18
7600.32863 3.64145e-18
7601.19009 3.80082e-18
7602.05156 3.96034e-18
7602.91302 4.20309e-18
7603.77448 4.44599e-18
7604.64596 4.74073e-18
7605.50742 5.03558e-18
7606.36888 5.34484e-18
7607.23034 5.65412e-18
7608.09181 5.93980e-18
7608.95327 6.22543e-18
7609.81473 6.44945e-18
7610.67619 6.67334e-18
7611.53765 6.78242e-18
7612.39912 6.89126e-18
7613.26058 6.84256e-18
7614.13206 6.79354e-18
7614.99352 6.58939e-18
7615.85498 6.38494e-18
7616.71644 6.04944e-18
7617.57791 5.71368e-18
7618.43937 5.34701e-18
7619.30083 4.98029e-18
7620.16229 4.71742e-18
7621.02375 4.45478e-18
7621.88522 4.34681e-18
7622.74668 4.23915e-18
7623.61816 4.27537e-18
7624.47962 4.31187e-18
7625.34108 4.44591e-18
7626.20254 4.58014e-18
7627.06400 4.72684e-18
7627.92547 4.87356e-18
7628.78693 4.98557e-18
7629.64839 5.09750e-18
7630.50985 5.19272e-18
7631.37131 5.28789e-18
7632.23278 5.37792e-18
7633.10426 5.46794e-18
7633.96572 5.55233e-18
7634.82718 5.63672e-18
7635.68864 5.71547e-18
7636.55010 5.79422e-18
7637.41157 5.85184e-18
7638.27303 5.90942e-18
7639.13449 5.93805e-18
7639.99595 5.96663e-18
7640.85741 5.99352e-18
7641.71888 6.02040e-18
7642.59035 6.07253e-18
7643.45182 6.12469e-18
7644.31328 6.21358e-18
7645.17474 6.30252e-18
7646.03620 6.43306e-18
7646.89766 6.56368e-18
7647.75913 6.70065e-18
7648.62059 6.83763e-18
7649.48205 6.93661e-18
7650.34351 7.03552e-18
7651.20497 7.08707e-18
7652.06644 7.13852e-18
7652.93792 7.14756e-18
7653.79938 7.15652e-18
7654.66084 7.15711e-18
7655.52230 7.15770e-18
7656.38376 7.20247e-18
7657.24523 7.24733e-18
7658.10669 7.34478e-18
7658.96815 7.44233e-18
7659.82961 7.56356e-18
7660.69107 7.68483e-18
7661.55254 7.80530e-18
7662.42401 7.92577e-18
7663.28548 8.02322e-18
7664.14694 8.12063e-18
7665.00840 8.19373e-18
7665.86986 8.26679e-18
7666.73132 8.35776e-18
7667.59279 8.44877e-18
7668.45425 8.57720e-18
7669.31571 8.70570e-18
7670.17717 8.83156e-18
7671.03863 8.95741e-18
7671.91011 9.04844e-18
7672.77158 9.13937e-18
7673.63304 9.18965e-18
7674.49450 9.23976e-18
7675.35596 9.25153e-18
7676.21742 9.26320e-18
7677.07889 9.28407e-18
7677.94035 9.30484e-18
7678.80181 9.38231e-18
7679.66327 9.45996e-18
7680.52473 9.56606e-18
7681.38620 9.67215e-18
7682.25767 9.76246e-18
7683.11914 9.85286e-18
7683.98060 9.92730e-18
7684.84206 1.00017e-17
7685.70352 1.00728e-17
7686.56498 1.01439e-17
7687.42645 1.02145e-17
7688.28791 1.02850e-17
7689.14937 1.03561e-17
7690.01083 1.04273e-17
7690.88231 1.04922e-17
7691.74377 1.05571e-17
7692.60524 1.06020e-17
7693.46670 1.06470e-17
7694.32816 1.06754e-17
7695.18962 1.07037e-17
7696.05108 1.07364e-17
7696.91255 1.07692e-17
7697.77401 1.08142e-17
7698.63547 1.08591e-17
7699.49693 1.09057e-17
7700.35839 1.09523e-17
7701.22987 1.09916e-17
7702.09133 1.10309e-17
7702.95280 1.10577e-17
7703.81426 1.10842e-17
7704.67572 1.10947e-17
7705.53718 1.11049e-17
7706.39864 1.10997e-17
7707.26011 1.10945e-17
7708.12157 1.10783e-17
7708.98303 1.10622e-17
7709.84449 1.10538e-17
7710.71597 1.10455e-17
7711.57743 1.10617e-17
7712.43890 1.10779e-17
7713.30036 1.11145e-17
7714.16182 1.11513e-17
7715.02328 1.11993e-17
7715.88474 1.12474e-17
7716.74620 1.12920e-17
7717.60767 1.13368e-17
7718.46913 1.13621e-17
7719.33059 1.13875e-17
7720.20207 1.13924e-17
7721.06353 1.13973e-17
7721.92499 1.13876e-17
7722.78646 1.13779e-17
7723.64792 1.13635e-17
7724.50938 1.13492e-17
7725.37084 1.13436e-17
7726.23230 1.13379e-17
7727.09377 1.13453e-17
7727.95523 1.13528e-17
7728.81669 1.13688e-17
7729.67815 1.13849e-17
7730.54963 1.14087e-17
7731.41109 1.14326e-17
7732.27255 1.14692e-17
7733.13402 1.15057e-17
7733.99548 1.15491e-17
7734.85694 1.15924e-17
7735.71840 1.16192e-17
7736.57986 1.16460e-17
7737.44133 1.16429e-17
7738.30279 1.16397e-17
7739.17427 1.16163e-17
7740.03573 1.15928e-17
7740.89719 1.15616e-17
7741.75865 1.15303e-17
7742.62012 1.15098e-17
7743.48158 1.14893e-17
7744.34304 1.14947e-17
7745.20450 1.15001e-17
7746.06596 1.15213e-17
7746.92743 1.15424e-17
7747.78889 1.15650e-17
7748.65035 1.15877e-17
7749.52183 1.16068e-17
7750.38329 1.16259e-17
7751.24475 1.16379e-17
7752.10621 1.16498e-17
7752.96768 1.16546e-17
7753.82914 1.16594e-17
7754.69060 1.16596e-17
7755.55206 1.16598e-17
7756.41352 1.16523e-17
7757.27499 1.16447e-17
7758.13645 1.16232e-17
7759.00793 1.16017e-17
7759.86939 1.15723e-17
7760.73085 1.15429e-17
7761.59231 1.15205e-17
7762.45378 1.14982e-17
7763.31524 1.14863e-17
7764.17670 1.14744e-17
7765.03816 1.14653e-17
7765.89962 1.14562e-17
7766.76109 1.14439e-17
7767.62255 1.14316e-17
7768.49403 1.14116e-17
7769.35549 1.13915e-17
7770.21695 1.13635e-17
7771.07841 1.13355e-17
7771.93988 1.13089e-17
7772.80134 1.12824e-17
7773.66280 1.12644e-17
7774.52426 1.12464e-17
7775.38572 1.12332e-17
7776.24719 1.12201e-17
7777.10865 1.12089e-17
7777.98013 1.11977e-17
7778.84159 1.11901e-17
7779.70305 1.11826e-17
7780.56451 1.11802e-17
7781.42597 1.11778e-17
7782.28744 1.11801e-17
7783.14890 1.11824e-17
7784.01036 1.11885e-17
7784.87182 1.11945e-17
7785.73328 1.12035e-17
7786.59475 1.12125e-17
7787.46623 1.12234e-17
7788.32769 1.12344e-17
7789.18915 1.12441e-17
7790.05061 1.12537e-17
7790.91207 1.12586e-17
7791.77354 1.12634e-17
7792.63500 1.12616e-17
7793.49646 1.12599e-17
7794.35792 1.12509e-17
7795.21938 1.12418e-17
7796.08085 1.12297e-17
7796.94231 1.12177e-17
7797.81379 1.12103e-17
7798.67525 1.12030e-17
7799.53671 1.12061e-17
7800.39817 1.12093e-17
7801.25963 1.12268e-17
7802.12110 1.12444e-17
7802.98256 1.12732e-17
7803.84402 1.13022e-17
7804.70548 1.13279e-17
7805.56694 1.13537e-17
7806.42841 1.13656e-17
7807.29989 1.13775e-17
7808.16135 1.13769e-17
7809.02281 1.13763e-17
7809.88427 1.13652e-17
7810.74573 1.13539e-17
7811.60720 1.13345e-17
7812.46866 1.13150e-17
7813.33012 1.12907e-17
7814.19158 1.12665e-17
7815.05304 1.12419e-17
7815.91450 1.12172e-17
7816.78598 1.11964e-17
7817.64745 1.11755e-17
7818.50891 1.11634e-17
7819.37037 1.11513e-17
7820.23183 1.11518e-17
7821.09329 1.11524e-17
7821.95476 1.11566e-17
7822.81622 1.11609e-17
7823.67768 1.11552e-17
7824.53914 1.11495e-17
7825.40060 1.11322e-17
7826.27208 1.11148e-17
7827.13355 1.10900e-17
7827.99501 1.10653e-17
7828.85647 1.10365e-17
7829.71793 1.10078e-17
7830.57939 1.09786e-17
7831.44085 1.09493e-17
7832.30232 1.09219e-17
7833.16378 1.08944e-17
7834.02524 1.08688e-17
7834.88670 1.08431e-17
7835.75818 1.08216e-17
7836.61964 1.08001e-17
7837.48111 1.07895e-17
7838.34257 1.07789e-17
7839.20403 1.07809e-17
7840.06549 1.07829e-17
7840.92695 1.07900e-17
7841.78842 1.07972e-17
7842.64988 1.08029e-17
7843.51134 1.08086e-17
7844.37280 1.08098e-17
7845.23426 1.08112e-17
7846.10574 1.08063e-17
7846.96720 1.08014e-17
7847.82867 1.07929e-17
7848.69013 1.07843e-17
7849.55159 1.07751e-17
7850.41305 1.07660e-17
7851.27452 1.07581e-17
7852.13598 1.07502e-17
7852.99744 1.07449e-17
7853.85890 1.07397e-17
7854.72036 1.07381e-17
7855.59184 1.07364e-17
7856.45330 1.07390e-17
7857.31477 1.07417e-17
7858.17623 1.07445e-17
7859.03769 1.07472e-17
7859.89915 1.07437e-17
7860.76061 1.07401e-17
7861.62208 1.07307e-17
7862.48354 1.07212e-17
7863.34500 1.07111e-17
7864.20646 1.07011e-17
7865.07794 1.06876e-17
7865.93940 1.06742e-17
7866.80087 1.06485e-17
7867.66233 1.06230e-17
7868.52379 1.05842e-17
7869.38525 1.05455e-17
7870.24671 1.05010e-17
7871.10818 1.04564e-17
7871.96964 1.04165e-17
7872.83110 1.03765e-17
7873.69256 1.03577e-17
7874.56404 1.03392e-17
7875.42550 1.03484e-17
7876.28696 1.03576e-17
7877.14843 1.03758e-17
7878.00989 1.03940e-17
7878.87135 1.04037e-17
7879.73281 1.04135e-17
7880.59427 1.04095e-17
7881.45574 1.04055e-17
7882.31720 1.03849e-17
7883.17866 1.03642e-17
7884.05014 1.03343e-17
7884.91160 1.03043e-17
7885.77306 1.02741e-17
7886.63453 1.02440e-17
7887.49599 1.02129e-17
7888.35745 1.01817e-17
7889.21891 1.01474e-17
7890.08037 1.01132e-17
7890.94184 1.00777e-17
7891.80330 1.00423e-17
7892.66476 1.00078e-17
7893.52622 9.97339e-18
7894.39770 9.94888e-18
7895.25916 9.92436e-18
7896.12062 9.92222e-18
7896.98209 9.91999e-18
7897.84355 9.93310e-18
7898.70501 9.94611e-18
7899.56647 9.95378e-18
7900.42793 9.96145e-18
7901.28940 9.95467e-18
7902.15086 9.94790e-18
7903.01232 9.92891e-18
7903.88380 9.90983e-18
7904.74526 9.88442e-18
7905.60672 9.85910e-18
7906.46819 9.84056e-18
7907.32965 9.82210e-18
7908.19111 9.81568e-18
7909.05257 9.80926e-18
7909.91403 9.80008e-18
7910.77550 9.79090e-18
7911.63696 9.77013e-18
7912.49842 9.74935e-18
7913.36990 9.72760e-18
7914.23136 9.70576e-18
7915.09282 9.69185e-18
7915.95428 9.67794e-18
7916.81575 9.67250e-18
7917.67721 9.66707e-18
7918.53867 9.66894e-18
7919.40013 9.67081e-18
7920.26159 9.66689e-18
7921.12306 9.66305e-18
7921.98452 9.64023e-18
7922.85600 9.61732e-18
7923.71746 9.58362e-18
7924.57892 9.54992e-18
7925.44038 9.51952e-18
7926.30185 9.48903e-18
7927.16331 9.47013e-18
7928.02477 9.45123e-18
7928.88623 9.44936e-18
7929.74769 9.44757e-18
7930.60916 9.45934e-18
7931.47062 9.47111e-18
7932.34210 9.48680e-18
7933.20356 9.50258e-18
7934.06502 9.51390e-18
7934.92648 9.52522e-18
7935.78794 9.52522e-18
7936.64941 9.52531e-18
7937.51087 9.51051e-18
7938.37233 9.49563e-18
7939.23379 9.46674e-18
7940.09525 9.43777e-18
7940.95672 9.39898e-18
7941.81818 9.36020e-18
7942.68966 9.32124e-18
7943.55112 9.28228e-18
7944.41258 9.25072e-18
7945.27404 9.21916e-18
7946.13551 9.19634e-18
7946.99697 9.17352e-18
7947.85843 9.15934e-18
7948.71989 9.14508e-18
7949.58135 9.13688e-18
7950.44282 9.12867e-18
7951.30428 9.12279e-18
7952.17576 9.11691e-18
7953.03722 9.10549e-18
7953.89868 9.09408e-18
7954.76014 9.07037e-18
7955.62160 9.04665e-18
7956.48307 9.02053e-18
7957.34453 8.99432e-18
7958.20599 8.97863e-18
7959.06745 8.96303e-18
7959.92891 8.95875e-18
7960.79038 8.95447e-18
7961.66186 8.95884e-18
7962.52332 8.96312e-18
7963.38478 8.96927e-18
7964.24624 8.97542e-18
7965.10770 8.97355e-18
7965.96917 8.97159e-18
7966.83063 8.96731e-18
7967.69209 8.96294e-18
7968.55355 8.97248e-18
7969.41501 8.98211e-18
7970.27648 9.00930e-18
7971.14795 9.03658e-18
7972.00942 9.07322e-18
7972.87088 9.10986e-18
7973.73234 9.14490e-18
7974.59380 9.18003e-18
7975.45526 9.19750e-18
7976.31673 9.21497e-18
7977.17819 9.20802e-18
7978.03965 9.20107e-18
7978.90111 9.18279e-18
7979.76257 9.16451e-18
7980.63405 9.14633e-18
7981.49552 9.12823e-18
7982.35698 9.11298e-18
7983.21844 9.09774e-18
7984.07990 9.08722e-18
7984.94136 9.07670e-18
7985.80283 9.06707e-18
7986.66429 9.05753e-18
7987.52575 9.04478e-18
7988.38721 9.03194e-18
7989.24867 9.01768e-18
7990.11014 9.00341e-18
7990.98161 8.98977e-18
7991.84308 8.97613e-18
7992.70454 8.96731e-18
7993.56600 8.95848e-18
7994.42746 8.95928e-18
7995.28892 8.96018e-18
7996.15039 8.96107e-18
7997.01185 8.96196e-18
7997.87331 8.94769e-18
7998.73477 8.93343e-18
7999.59623 8.90586e-18
8000.46771 8.87828e-18
8001.32917 8.84893e-18
8002.19064 8.81957e-18
8003.05210 8.79714e-18
8003.91356 8.77473e-18
8004.77502 8.76664e-18
8005.63649 8.75860e-18
8006.49795 8.76296e-18
8007.35941 8.76735e-18
8008.22087 8.76897e-18
8009.08233 8.77058e-18
8009.95381 8.76450e-18
8010.81527 8.75841e-18
8011.67674 8.75916e-18
8012.53820 8.75992e-18
8013.39966 8.77456e-18
8014.26112 8.78922e-18
8015.12258 8.80752e-18
8015.98405 8.82582e-18
8016.84551 8.83804e-18
8017.70697 8.85023e-18
8018.56843 8.84645e-18
8019.43991 8.84265e-18
8020.30137 8.81679e-18
8021.16284 8.79090e-18
8022.02430 8.75937e-18
8022.88576 8.72782e-18
8023.74722 8.70870e-18
8024.60868 8.68962e-18
8025.47015 8.68239e-18
8026.33161 8.67520e-18
8027.19307 8.67504e-18
8028.05453 8.67489e-18
8028.92601 8.67583e-18
8029.78747 8.67678e-18
8030.64893 8.67192e-18
8031.51040 8.66704e-18
8032.37186 8.65707e-18
8033.23332 8.64708e-18
8034.09478 8.63681e-18
8034.95624 8.62655e-18
8035.81771 8.61909e-18
8036.67917 8.61163e-18
8037.54063 8.60884e-18
8038.41211 8.60604e-18
8039.27357 8.60859e-18
8040.13503 8.61113e-18
8040.99650 8.61819e-18
8041.85796 8.62525e-18
8042.71942 8.63448e-18
8043.58088 8.64370e-18
8044.44234 8.65096e-18
8045.30380 8.65821e-18
8046.16527 8.66036e-18
8047.02673 8.66249e-18
8047.88819 8.65807e-18
8048.75967 8.65364e-18
8049.62113 8.64344e-18
8050.48259 8.63322e-18
8051.34406 8.62477e-18
8052.20552 8.61631e-18
8053.06698 8.61525e-18
8053.92844 8.61421e-18
8054.78990 8.61625e-18
8055.65137 8.61830e-18
8056.51283 8.61807e-18
8057.37429 8.61783e-18
8058.24577 8.60889e-18
8059.10723 8.59992e-18
8059.96869 8.57679e-18
8060.83015 8.55364e-18
8061.69162 8.52079e-18
8062.55308 8.48791e-18
8063.41454 8.45290e-18
8064.27600 8.41789e-18
8065.13746 8.38933e-18
8065.99893 8.36079e-18
8066.86039 8.34710e-18
8067.73187 8.33345e-18
8068.59333 8.33513e-18
8069.45479 8.33683e-18
8070.31625 8.34935e-18
8071.17772 8.36189e-18
8072.03918 8.37628e-18
8072.90064 8.39067e-18
8073.76210 8.39411e-18
8074.62356 8.39752e-18
8075.48503 8.38528e-18
8076.34649 8.37300e-18
8077.21797 8.35119e-18
8078.07943 8.32937e-18
8078.94089 8.30182e-18
8079.80235 8.27425e-18
8080.66381 8.24024e-18
8081.52528 8.20621e-18
8082.38674 8.16627e-18
8083.24820 8.12631e-18
8084.10966 8.08211e-18
8084.97113 8.03791e-18
8085.83259 7.99146e-18
8086.70407 7.94500e-18
8087.56553 7.89923e-18
8088.42699 7.85346e-18
8089.28845 7.81114e-18
8090.14991 7.76883e-18
8091.01138 7.73246e-18
8091.87284 7.69610e-18
8092.73430 7.66700e-18
8093.59576 7.63792e-18
8094.45722 7.61553e-18
8095.31869 7.59317e-18
8096.18015 7.57571e-18
8097.05163 7.55827e-18
8097.91309 7.53600e-18
8098.77455 7.51373e-18
8099.63601 7.47514e-18
8100.49748 7.43650e-18
8101.35894 7.37793e-18
8102.22040 7.31930e-18
8103.08186 7.24150e-18
8103.94332 7.16364e-18
8104.80479 7.07602e-18
8105.67626 6.98838e-18
8106.53773 6.90624e-18
8107.39919 6.82411e-18
8108.26065 6.75697e-18
8109.12211 6.68986e-18
8109.98357 6.64096e-18
8110.84504 6.59210e-18
8111.70650 6.55715e-18
8112.56796 6.52222e-18
8113.42942 6.48624e-18
8114.29088 6.45026e-18
8115.15235 6.40114e-18
8116.02383 6.35199e-18
8116.88529 6.28459e-18
8117.74675 6.21714e-18
8118.60821 6.13049e-18
8119.46967 6.04379e-18
8120.33114 5.95037e-18
8121.19260 5.85696e-18
8122.05406 5.76679e-18
8122.91552 5.67664e-18
8123.77698 5.57857e-18
8124.63845 5.48049e-18
8125.49991 5.36417e-18
8126.37139 5.24781e-18
8127.23285 5.11878e-18
8128.09431 4.98974e-18
8128.95577 4.85616e-18
8129.81723 4.72258e-18
8130.67870 4.60010e-18
8131.54016 4.47764e-18
8132.40162 4.38305e-18
8133.26308 4.28855e-18
8134.12454 4.21284e-18
8134.99602 4.13719e-18
8135.85749 4.06013e-18
8136.71895 3.98306e-18
8137.58041 3.89697e-18
8138.44187 3.81086e-18
8139.30333 3.71545e-18
8140.16480 3.62001e-18
8141.02626 3.51771e-18
8141.88772 3.41540e-18
8142.74918 3.31192e-18
8143.61064 3.20844e-18
8144.47210 3.10940e-18
8145.34358 3.01039e-18
8146.20505 2.92033e-18
8147.06651 2.83030e-18
8147.92797 2.75237e-18
8148.78943 2.67448e-18
8149.65089 2.60970e-18
8150.51236 2.54495e-18
8151.37382 2.49170e-18
8152.23528 2.43849e-18
8153.09674 2.38976e-18
8153.95820 2.34104e-18
8154.82968 2.29116e-18
8155.69115 2.24127e-18
8156.55261 2.19077e-18
8157.41407 2.14026e-18
8158.27553 2.09087e-18
8159.13699 2.04147e-18
8159.99845 1.99739e-18
8160.85992 1.95331e-18
8161.72138 1.91867e-18
8162.58284 1.88404e-18
8163.44430 1.86009e-18
8164.31578 1.83616e-18
8165.17724 1.82268e-18
8166.03871 1.80921e-18
8166.90017 1.79979e-18
8167.76163 1.79038e-18
8168.62309 1.77722e-18
8169.48455 1.76406e-18
8170.34602 1.74067e-18
8171.20748 1.71727e-18
8172.06894 1.67750e-18
8172.93040 1.63769e-18
8173.80188 1.59203e-18
8174.66334 1.54637e-18
8175.52481 1.51753e-18
8176.38627 1.48873e-18
8177.24773 1.48175e-18
8178.10919 1.47482e-18
8178.97065 1.47655e-18
8179.83212 1.47830e-18
8180.69358 1.47872e-18
8181.55504 1.47914e-18
8182.41650 1.47194e-18
8183.28798 1.46474e-18
8184.14944 1.44764e-18
8185.01090 1.43052e-18
8185.87237 1.41201e-18
8186.73383 1.39348e-18
8187.59529 1.37962e-18
8188.45675 1.36575e-18
8189.31821 1.35185e-18
8190.17968 1.33795e-18
8191.04114 1.32073e-18
8191.90260 1.30350e-18
8192.77408 1.28696e-18
8193.63554 1.27042e-18
8194.49700 1.25862e-18
8195.35846 1.24682e-18
8196.21993 1.24337e-18
8197.08139 1.23994e-18
8197.94285 1.24758e-18
8198.80431 1.25524e-18
8199.66577 1.26742e-18
8200.52724 1.27960e-18
8201.38870 1.28716e-18
8202.25016 1.29472e-18
8203.12164 1.29588e-18
8203.98310 1.29703e-18
8204.84456 1.29327e-18
8205.70603 1.28951e-18
8206.56749 1.28160e-18
8207.42895 1.27368e-18
8208.29041 1.26225e-18
8209.15187 1.25081e-18
8210.01334 1.23771e-18
8210.87480 1.22462e-18
8211.73626 1.21227e-18
8212.60774 1.19993e-18
8213.46920 1.18936e-18
8214.33066 1.17879e-18
8215.19212 1.16981e-18
8216.05359 1.16084e-18
8216.91505 1.15062e-18
8217.77651 1.14039e-18
8218.63797 1.12102e-18
8219.49943 1.10162e-18
8220.36090 1.07007e-18
8221.22236 1.03849e-18
8222.08382 1.00285e-18
8222.95530 9.67197e-19
8223.81676 9.36484e-19
8224.67822 9.05780e-19
8225.53969 8.91302e-19
8226.40115 8.76867e-19
8227.26261 8.86789e-19
8228.12407 8.96766e-19
8228.98553 9.23485e-19
8229.84700 9.50240e-19
8230.70846 9.83191e-19
8231.57994 1.01616e-18
8232.44140 1.04508e-18
8233.30286 1.07400e-18
8234.16432 1.08936e-18
8235.02578 1.10470e-18
8235.88725 1.10966e-18
8236.74871 1.11459e-18
8237.61017 1.11711e-18
8238.47163 1.11962e-18
8239.33309 1.12523e-18
8240.19456 1.13085e-18
8241.06604 1.14416e-18
8241.92750 1.15750e-18
8242.78896 1.17583e-18
8243.65042 1.19417e-18
8244.51188 1.20918e-18
8245.37335 1.22420e-18
8246.23481 1.23181e-18
8247.09627 1.23941e-18
8247.95773 1.24007e-18
8248.81919 1.24073e-18
8249.68066 1.23612e-18
8250.54212 1.23150e-18
8251.41360 1.22531e-18
8252.27506 1.21911e-18
8253.13652 1.21480e-18
8253.99798 1.21049e-18
8254.85945 1.21015e-18
8255.72091 1.20982e-18
8256.58237 1.21462e-18
8257.44383 1.21944e-18
8258.30529 1.22858e-18
8259.16676 1.23773e-18
8260.02822 1.24944e-18
8260.89970 1.26117e-18
8261.76116 1.27221e-18
8262.62262 1.28327e-18
8263.48408 1.29046e-18
8264.34554 1.29765e-18
8265.20701 1.29812e-18
8266.06847 1.29858e-18
8266.92993 1.29044e-18
8267.79139 1.28228e-18
8268.65285 1.26986e-18
8269.52433 1.25742e-18
8270.38580 1.24673e-18
8271.24726 1.23605e-18
8272.10872 1.23113e-18
8272.97018 1.22623e-18
8273.83164 1.23021e-18
8274.69311 1.23420e-18
8275.55457 1.24395e-18
8276.41603 1.25371e-18
8277.27749 1.26219e-18
8278.13895 1.27067e-18
8279.01043 1.27502e-18
8279.87189 1.27936e-18
8280.73336 1.28026e-18
8281.59482 1.28114e-18
8282.45628 1.28070e-18
8283.31774 1.28026e-18
8284.17920 1.28293e-18
8285.04067 1.28561e-18
8285.90213 1.29309e-18
8286.76359 1.30058e-18
8287.62505 1.30885e-18
8288.48651 1.31711e-18
8289.34798 1.32402e-18
8290.21946 1.33092e-18
8291.08092 1.33968e-18
8291.94238 1.34845e-18
8292.80384 1.36090e-18
8293.66530 1.37336e-18
8294.52677 1.38626e-18
8295.38823 1.39915e-18
8296.24969 1.40947e-18
8297.11115 1.41980e-18
8297.97261 1.42561e-18
8298.83408 1.43141e-18
8299.70555 1.43157e-18
8300.56702 1.43170e-18
8301.42848 1.43303e-18
8302.28994 1.43436e-18
8303.15140 1.44496e-18
8304.01286 1.45557e-18
8304.87433 1.47233e-18
8305.73579 1.48910e-18
8306.59725 1.50527e-18
8307.45871 1.52144e-18
8308.32017 1.53294e-18
8309.18164 1.54442e-18
8310.05312 1.54826e-18
8310.91458 1.55207e-18
8311.77604 1.55143e-18
8312.63750 1.55077e-18
8313.49896 1.55338e-18
8314.36043 1.55600e-18
8315.22189 1.56620e-18
8316.08335 1.57644e-18
8316.94481 1.59512e-18
8317.80627 1.61382e-18
8318.67775 1.63876e-18
8319.53921 1.66373e-18
8320.40068 1.68799e-18
8321.26214 1.71226e-18
8322.12360 1.73089e-18
8322.98506 1.74949e-18
8323.84652 1.76240e-18
8324.70799 1.77530e-18
8325.56945 1.78315e-18
8326.43091 1.79099e-18
8327.29237 1.79571e-18
8328.16385 1.80042e-18
8329.02531 1.80443e-18
8329.88678 1.80842e-18
8330.74824 1.81308e-18
8331.60970 1.81774e-18
8332.47116 1.82442e-18
8333.33262 1.83110e-18
8334.19408 1.84316e-18
8335.05555 1.85523e-18
8335.91701 1.87545e-18
8336.77847 1.89568e-18
8337.64995 1.92189e-18
8338.51141 1.94811e-18
8339.37287 1.97656e-18
8340.23434 2.00503e-18
8341.09580 2.03061e-18
8341.95726 2.05618e-18
8342.81872 2.07332e-18
8343.68018 2.09045e-18
8344.54165 2.09928e-18
8345.40311 2.10809e-18
8346.26457 2.11250e-18
8347.12603 2.11690e-18
8347.99751 2.12005e-18
8348.85897 2.12322e-18
8349.72043 2.12749e-18
8350.58190 2.13176e-18
8351.44336 2.13990e-18
8352.30482 2.14805e-18
8353.16628 2.16295e-18
8354.02775 2.17788e-18
8354.88921 2.19990e-18
8355.75067 2.22194e-18
8356.62215 2.24747e-18
8357.48361 2.27302e-18
8358.34507 2.29848e-18
8359.20653 2.32395e-18
8360.06800 2.34622e-18
8360.92946 2.36847e-18
8361.79092 2.38566e-18
8362.65238 2.40284e-18
8363.51384 2.41820e-18
8364.37531 2.43355e-18
8365.23677 2.45026e-18
8366.10825 2.46697e-18
8366.96971 2.48295e-18
8367.83117 2.49892e-18
8368.69263 2.51198e-18
8369.55410 2.52503e-18
8370.41556 2.53728e-18
8371.27702 2.54954e-18
8372.13848 2.56393e-18
8372.99994 2.57832e-18
8373.86140 2.59643e-18
8374.72287 2.61456e-18
8375.59435 2.63744e-18
8376.45581 2.66034e-18
8377.31727 2.68776e-18
8378.17873 2.71519e-18
8379.04019 2.74610e-18
8379.90166 2.77702e-18
8380.76312 2.80973e-18
8381.62458 2.84244e-18
8382.48604 2.87495e-18
8383.34750 2.90747e-18
8384.20897 2.93814e-18
8385.07043 2.96880e-18
8385.94191 2.99612e-18
8386.80337 3.02344e-18
8387.66483 3.04830e-18
8388.52629 3.07316e-18
8389.38775 3.10041e-18
8390.24922 3.12766e-18
8391.11068 3.15864e-18
8391.97214 3.18962e-18
8392.83360 3.21811e-18
8393.69507 3.24659e-18
8394.55653 3.26811e-18
8395.41799 3.28963e-18
8396.28947 3.30407e-18
8397.15093 3.31849e-18
8398.01239 3.32766e-18
8398.87385 3.33681e-18
8399.73532 3.35082e-18
8400.59678 3.36484e-18
8401.45824 3.39295e-18
8402.31970 3.42108e-18
8403.18116 3.46029e-18
8404.04263 3.49952e-18
8404.90409 3.54418e-18
8405.77557 3.58885e-18
8406.63703 3.63271e-18
8407.49849 3.67657e-18
8408.35995 3.71316e-18
8409.22142 3.74974e-18
8410.08288 3.77911e-18
8410.94434 3.80846e-18
8411.80580 3.83388e-18
8412.66726 3.85930e-18
8413.52873 3.88307e-18
8414.39019 3.90683e-18
8415.26167 3.93078e-18
8416.12313 3.95473e-18
8416.98459 3.98082e-18
8417.84605 4.00691e-18
8418.70751 4.03675e-18
8419.56898 4.06659e-18
8420.43044 4.10080e-18
8421.29190 4.13501e-18
8422.15336 4.17345e-18
8423.01482 4.21190e-18
8423.87629 4.25252e-18
8424.74777 4.29315e-18
8425.60923 4.33035e-18
8426.47069 4.36754e-18
8427.33215 4.39902e-18
8428.19361 4.43049e-18
8429.05508 4.46261e-18
8429.91654 4.49472e-18
8430.77800 4.53263e-18
8431.63946 4.57056e-18
8432.50092 4.61483e-18
8433.36239 4.65911e-18
8434.23386 4.70892e-18
8435.09533 4.75873e-18
8435.95679 4.80580e-18
8436.81825 4.85286e-18
8437.67971 4.88904e-18
8438.54117 4.92520e-18
8439.40264 4.95525e-18
8440.26410 4.98529e-18
8441.12556 5.01695e-18
8441.98702 5.04861e-18
8442.84848 5.08417e-18
8443.70995 5.11974e-18
8444.58143 5.15971e-18
8445.44289 5.19970e-18
8446.30435 5.24453e-18
8447.16581 5.28936e-18
8448.02727 5.33890e-18
8448.88874 5.38844e-18
8449.75020 5.44117e-18
8450.61166 5.49389e-18
8451.47312 5.54755e-18
8452.33458 5.60121e-18
8453.20606 5.65324e-18
8454.06752 5.70525e-18
8454.92899 5.75252e-18
8455.79045 5.79977e-18
8456.65191 5.84295e-18
8457.51337 5.88613e-18
8458.37483 5.93194e-18
8459.23630 5.97775e-18
8460.09776 6.02900e-18
8460.95922 6.08028e-18
8461.82068 6.13123e-18
8462.69216 6.18218e-18
8463.55362 6.22874e-18
8464.41508 6.27531e-18
8465.27655 6.31780e-18
8466.13801 6.36028e-18
8466.99947 6.40040e-18
8467.86093 6.44052e-18
8468.72240 6.48680e-18
8469.58386 6.53309e-18
8470.44532 6.59305e-18
8471.30678 6.65304e-18
8472.16824 6.72203e-18
8473.03972 6.79104e-18
8473.90118 6.86229e-18
8474.76265 6.93353e-18
8475.62411 7.00189e-18
8476.48557 7.07024e-18
8477.34703 7.13079e-18
8478.20849 7.19131e-18
8479.06996 7.24988e-18
8479.93142 7.30843e-18
8480.79288 7.37567e-18
8481.65434 7.44293e-18
8482.51580 7.51645e-18
8483.38728 7.58998e-18
8484.24875 7.65988e-18
8485.11021 7.72976e-18
8485.97167 7.79159e-18
8486.83313 7.85341e-18
8487.69459 7.90707e-18
8488.55605 7.96071e-18
8489.41752 8.00904e-18
8490.27898 8.05735e-18
8491.14044 8.10748e-18
8492.00190 8.15762e-18
8492.87338 8.21422e-18
8493.73484 8.27084e-18
8494.59631 8.33265e-18
8495.45777 8.39446e-18
8496.31923 8.46215e-18
8497.18069 8.52986e-18
8498.04215 8.61100e-18
8498.90362 8.69217e-18
8499.76508 8.78961e-18
8500.62654 8.88709e-18
8501.48800 8.98781e-18
8502.35948 9.08856e-18
8503.22094 9.17985e-18
8504.08240 9.27114e-18
8504.94387 9.35040e-18
8505.80533 9.42956e-18
8506.66679 9.49625e-18
8507.52825 9.56285e-18
8508.38972 9.62160e-18
8509.25118 9.68035e-18
8510.11264 9.73750e-18
8510.98412 9.79473e-18
8511.84558 9.85277e-18
8512.70704 9.91081e-18
8513.56850 9.97099e-18
8514.42997 1.00311e-17
8515.29143 1.00931e-17
8516.15289 1.01552e-17
8517.01435 1.02184e-17
8517.87581 1.02816e-17
8518.73728 1.03460e-17
8519.59874 1.04102e-17
8520.46020 1.04759e-17
8521.33168 1.05416e-17
8522.19314 1.06115e-17
8523.05460 1.06813e-17
8523.91607 1.07607e-17
8524.77753 1.08402e-17
8525.63899 1.09311e-17
8526.50045 1.10219e-17
8527.36191 1.11209e-17
8528.22337 1.12197e-17
8529.08484 1.13216e-17
8529.94630 1.14234e-17
8530.80776 1.15196e-17
8531.67924 1.16158e-17
8532.54070 1.16995e-17
8533.40216 1.17831e-17
8534.26363 1.18517e-17
8535.12509 1.19202e-17
8535.98655 1.19743e-17
8536.84801 1.20285e-17
8537.70947 1.20787e-17
8538.57094 1.21289e-17
8539.43240 1.21862e-17
8540.30388 1.22437e-17
8541.16534 1.23155e-17
8542.02680 1.23874e-17
8542.88826 1.24781e-17
8543.74972 1.25690e-17
8544.61119 1.26727e-17
8545.47265 1.27763e-17
8546.33411 1.28834e-17
8547.19557 1.29904e-17
8548.05703 1.30844e-17
8548.91850 1.31782e-17
8549.78998 1.32409e-17
8550.65144 1.33036e-17
8551.51290 1.33367e-17
8552.37436 1.33697e-17
8553.23582 1.33868e-17
8554.09729 1.34039e-17
8554.95875 1.34236e-17
8555.82021 1.34434e-17
8556.68167 1.34876e-17
8557.54313 1.35319e-17
8558.40460 1.36106e-17
8559.27607 1.36894e-17
8560.13754 1.37964e-17
8560.99900 1.39035e-17
8561.86046 1.40272e-17
8562.72192 1.41510e-17
8563.58338 1.42722e-17
8564.44485 1.43936e-17
8565.30631 1.44948e-17
8566.16777 1.45960e-17
8567.02923 1.46657e-17
8567.89070 1.47352e-17
8568.75216 1.47677e-17
8569.62364 1.48001e-17
8570.48510 1.48046e-17
8571.34656 1.48090e-17
8572.20802 1.47988e-17
8573.06948 1.47884e-17
8573.93095 1.47780e-17
8574.79241 1.47676e-17
8575.65387 1.47710e-17
8576.51533 1.47746e-17
8577.37679 1.48068e-17
8578.23826 1.48391e-17
8579.09972 1.49111e-17
8579.97120 1.49832e-17
8580.83266 1.50811e-17
8581.69412 1.51791e-17
8582.55558 1.52796e-17
8583.41705 1.53800e-17
8584.27851 1.54643e-17
8585.13997 1.55486e-17
8586.00143 1.56014e-17
8586.86289 1.56542e-17
8587.72436 1.56734e-17
8588.58582 1.56925e-17
8589.45730 1.56866e-17
8590.31876 1.56806e-17
8591.18022 1.56627e-17
8592.04168 1.56449e-17
8592.90314 1.56330e-17
8593.76461 1.56210e-17
8594.62607 1.56249e-17
8595.48753 1.56288e-17
8596.34899 1.56446e-17
8597.21045 1.56602e-17
8598.07192 1.56854e-17
8598.94340 1.57106e-17
8599.80486 1.57477e-17
8600.66632 1.57849e-17
8601.52778 1.58328e-17
8602.38924 1.58808e-17
8603.25071 1.59320e-17
8604.11217 1.59832e-17
8604.97363 1.60293e-17
8605.83509 1.60753e-17
8606.69655 1.61049e-17
8607.56803 1.61345e-17
8608.42949 1.61386e-17
8609.29096 1.61427e-17
8610.15242 1.61238e-17
8611.01388 1.61047e-17
8611.87534 1.60692e-17
8612.73680 1.60336e-17
8613.59827 1.59889e-17
8614.45973 1.59440e-17
8615.32119 1.58977e-17
8616.18265 1.58513e-17
8617.04411 1.58179e-17
8617.91559 1.57844e-17
8618.77706 1.57798e-17
8619.63852 1.57752e-17
8620.49998 1.58002e-17
8621.36144 1.58253e-17
8622.22290 1.58714e-17
8623.08437 1.59176e-17
8623.94583 1.59725e-17
8624.80729 1.60276e-17
8625.66875 1.60758e-17
8626.53021 1.61240e-17
8627.40169 1.61562e-17
8628.26315 1.61883e-17
8629.12462 1.62042e-17
8629.98608 1.62200e-17
8630.84754 1.62192e-17
8631.70900 1.62184e-17
8632.57046 1.61988e-17
8633.43193 1.61791e-17
8634.29339 1.61434e-17
8635.15485 1.61076e-17
8636.01631 1.60670e-17
8636.88779 1.60262e-17
8637.74925 1.59923e-17
8638.61072 1.59586e-17
8639.47218 1.59450e-17
8640.33364 1.59315e-17
8641.19510 1.59477e-17
8642.05656 1.59638e-17
8642.91803 1.60017e-17
8643.77949 1.60398e-17
8644.64095 1.60876e-17
8645.50241 1.61355e-17
8646.37389 1.61809e-17
8647.23535 1.62263e-17
8648.09681 1.62568e-17
8648.95828 1.62872e-17
8649.81974 1.62981e-17
8650.68120 1.63091e-17
8651.54266 1.63007e-17
8652.40412 1.62922e-17
8653.26559 1.62632e-17
8654.12705 1.62341e-17
8654.98851 1.61835e-17
8655.85999 1.61328e-17
8656.72145 1.60695e-17
8657.58291 1.60061e-17
8658.44438 1.59452e-17
8659.30584 1.58843e-17
8660.16730 1.58363e-17
8661.02876 1.57884e-17
8661.89022 1.57580e-17
8662.75168 1.57278e-17
8663.61315 1.57175e-17
8664.47461 1.57072e-17
8665.33607 1.57162e-17
8666.20755 1.57252e-17
8667.06901 1.57493e-17
8667.93047 1.57735e-17
8668.79194 1.58051e-17
8669.65340 1.58369e-17
8670.51486 1.58659e-17
8671.37632 1.58950e-17
8672.23778 1.59040e-17
8673.09925 1.59129e-17
8673.96071 1.58888e-17
8674.82217 1.58647e-17
8675.68363 1.58115e-17
8676.55511 1.57581e-17
8677.41657 1.56843e-17
8678.27803 1.56103e-17
8679.13950 1.55304e-17
8680.00096 1.54503e-17
8680.86242 1.53800e-17
8681.72388 1.53097e-17
8682.58535 1.52554e-17
8683.44681 1.52012e-17
8684.30827 1.51652e-17
8685.16973 1.51292e-17
8686.04121 1.51136e-17
8686.90267 1.50981e-17
8687.76413 1.51031e-17
8688.62560 1.51083e-17
8689.48706 1.51301e-17
8690.34852 1.51520e-17
8691.20998 1.51841e-17
8692.07144 1.52163e-17
8692.93291 1.52478e-17
8693.79437 1.52793e-17
8694.66585 1.52963e-17
8695.52731 1.53134e-17
8696.38877 1.53075e-17
8697.25023 1.53015e-17
8698.11170 1.52712e-17
8698.97316 1.52408e-17
8699.83462 1.51893e-17
8700.69608 1.51379e-17
8701.55754 1.50765e-17
8702.41900 1.50151e-17
8703.28047 1.49531e-17
8704.15195 1.48910e-17
8705.01341 1.48287e-17
8705.87487 1.47665e-17
8706.73633 1.47065e-17
8707.59779 1.46466e-17
8708.45926 1.46015e-17
8709.32072 1.45565e-17
8710.18218 1.45360e-17
8711.04364 1.45156e-17
8711.90510 1.45203e-17
8712.76657 1.45251e-17
8713.62803 1.45513e-17
8714.49951 1.45775e-17
8715.36097 1.46061e-17
8716.22243 1.46347e-17
8717.08389 1.46440e-17
8717.94535 1.46533e-17
8718.80682 1.46344e-17
8719.66828 1.46153e-17
8720.52974 1.45649e-17
8721.39120 1.45145e-17
8722.25267 1.44449e-17
8723.11413 1.43754e-17
8723.98561 1.43083e-17
8724.84707 1.42412e-17
8725.70853 1.41846e-17
8726.56999 1.41279e-17
8727.43145 1.40794e-17
8728.29292 1.40310e-17
8729.15438 1.39909e-17
8730.01584 1.39508e-17
8730.87730 1.39201e-17
8731.73876 1.38893e-17
8732.61024 1.38710e-17
8733.47170 1.38525e-17
8734.33317 1.38549e-17
8735.19463 1.38574e-17
8736.05609 1.38781e-17
8736.91755 1.38988e-17
8737.77902 1.39133e-17
8738.64048 1.39278e-17
8739.50194 1.39155e-17
8740.36340 1.39032e-17
8741.22486 1.38528e-17
8742.08633 1.38022e-17
8742.95780 1.37107e-17
8743.81927 1.36190e-17
8744.68073 1.35127e-17
8745.54219 1.34064e-17
8746.40365 1.33141e-17
8747.26511 1.32218e-17
8748.12658 1.31569e-17
8748.98804 1.30922e-17
8749.84950 1.30628e-17
8750.71096 1.30335e-17
8751.57242 1.30312e-17
8752.44390 1.30291e-17
8753.30537 1.30382e-17
8754.16683 1.30474e-17
8755.02829 1.30591e-17
8755.88975 1.30709e-17
8756.75121 1.30796e-17
8757.61268 1.30884e-17
8758.47414 1.30813e-17
8759.33560 1.30742e-17
8760.19706 1.30359e-17
8761.05852 1.29974e-17
8761.91999 1.29253e-17
8762.79146 1.28531e-17
8763.65293 1.27555e-17
8764.51439 1.26578e-17
8765.37585 1.25482e-17
8766.23731 1.24387e-17
8767.09877 1.23367e-17
8767.96024 1.22349e-17
8768.82170 1.21531e-17
8769.68316 1.20714e-17
8770.54462 1.20082e-17
8771.40608 1.19451e-17
8772.26755 1.18977e-17
8773.13903 1.18505e-17
8774.00049 1.18169e-17
8774.86195 1.17832e-17
8775.72341 1.17588e-17
8776.58487 1.17342e-17
8777.44633 1.17150e-17
8778.30780 1.16958e-17
8779.16926 1.16762e-17
8780.03072 1.16566e-17
8780.89218 1.16196e-17
8781.76366 1.15825e-17
8782.62512 1.15128e-17
8783.48659 1.14429e-17
8784.34805 1.13478e-17
8785.20951 1.12526e-17
8786.07097 1.11457e-17
8786.93243 1.10389e-17
8787.79390 1.09304e-17
8788.65536 1.08220e-17
8789.51682 1.07221e-17
8790.37828 1.06222e-17
8791.24976 1.05304e-17
8792.11122 1.04387e-17
8792.97268 1.03480e-17
8793.83415 1.02573e-17
8794.69561 1.01722e-17
8795.55707 1.00872e-17
8796.41853 1.00209e-17
8797.28000 9.95476e-18
8798.14146 9.90457e-18
8799.00292 9.85446e-18
8799.86438 9.80293e-18
8800.72584 9.75140e-18
8801.59732 9.68427e-18
8802.45878 9.61714e-18
8803.32025 9.52478e-18
8804.18171 9.43242e-18
8805.04317 9.31358e-18
8805.90463 9.19474e-18
8806.76609 9.06653e-18
8807.62756 8.93824e-18
8808.48902 8.81626e-18
8809.35048 8.69433e-18
8810.21194 8.58613e-18
8811.08342 8.47796e-18
8811.94488 8.38856e-18
8812.80635 8.29921e-18
8813.66781 8.22664e-18
8814.52927 8.15412e-18
8815.39073 8.09363e-18
8816.25219 8.03317e-18
8817.11365 7.97883e-18
8817.97512 7.92451e-18
8818.83658 7.86969e-18
8819.70806 7.81488e-18
8820.56952 7.75156e-18
8821.43098 7.68822e-18
8822.29244 7.60942e-18
8823.15391 7.53058e-18
8824.01537 7.43543e-18
8824.87683 7.34024e-18
8825.73829 7.23125e-18
8826.59975 7.12223e-18
8827.46122 7.00944e-18
8828.32268 6.89664e-18
8829.19416 6.79452e-18
8830.05562 6.69243e-18
8830.91708 6.60834e-18
8831.77854 6.52431e-18
8832.64000 6.45878e-18
8833.50147 6.39331e-18
8834.36293 6.34400e-18
8835.22439 6.29473e-18
8836.08585 6.25587e-18
8836.94732 6.21704e-18
8837.80878 6.18186e-18
8838.67024 6.14669e-18
8839.54172 6.10825e-18
8840.40318 6.06982e-18
8841.26464 6.02302e-18
8842.12610 5.97621e-18
8842.98757 5.92037e-18
8843.84903 5.86451e-18
8844.71049 5.80070e-18
8845.57195 5.73688e-18
8846.43341 5.66884e-18
8847.29488 5.60079e-18
8848.15634 5.53330e-18
8849.02782 5.46581e-18
8849.88928 5.40143e-18
8850.75074 5.33707e-18
8851.61220 5.27824e-18
8852.47367 5.21944e-18
8853.33513 5.17866e-18
8854.19659 5.13792e-18
8855.05805 5.12762e-18
8855.91951 5.11740e-18
8856.78097 5.12772e-18
8857.64244 5.13809e-18
8858.50390 5.15158e-18
8859.36536 5.16508e-18
8860.23684 5.16738e-18
8861.09830 5.16965e-18
8861.95976 5.14776e-18
8862.82123 5.12580e-18
8863.68269 5.08461e-18
8864.54415 5.04337e-18
8865.40561 5.00183e-18
8866.26707 4.96028e-18
8867.12854 4.92719e-18
8867.99000 4.89412e-18
8868.86148 4.86726e-18
8869.72294 4.84041e-18
8870.58440 4.81880e-18
8871.44586 4.79721e-18
8872.30732 4.78003e-18
8873.16879 4.76287e-18
8874.03025 4.75106e-18
8874.89171 4.73925e-18
8875.75317 4.74009e-18
8876.61463 4.74097e-18
8877.47610 4.75740e-18
8878.34758 4.77387e-18
8879.20904 4.79681e-18
8880.07050 4.81977e-18
8880.93196 4.83968e-18
8881.79342 4.85959e-18
8882.65489 4.86762e-18
8883.51635 4.87562e-18
8884.37781 4.86532e-18
8885.23927 4.85496e-18
8886.10073 4.83228e-18
8886.96220 4.80956e-18
8887.83367 4.78383e-18
8888.69514 4.75809e-18
8889.55660 4.73794e-18
8890.41806 4.71780e-18
8891.27952 4.71106e-18
8892.14099 4.70435e-18
8893.00245 4.71542e-18
8893.86391 4.72655e-18
8894.72537 4.75720e-18
8895.58683 4.78790e-18
8896.44830 4.83090e-18
8897.30976 4.87395e-18
8898.18124 4.91701e-18
8899.04270 4.96006e-18
8899.90416 4.99264e-18
8900.76562 5.02519e-18
8901.62708 5.03853e-18
8902.48855 5.05181e-18
8903.35001 5.04726e-18
8904.21147 5.04266e-18
8905.07293 5.03479e-18
8905.93439 5.02690e-18
8906.80587 5.02529e-18
8907.66734 5.02369e-18
8908.52880 5.02737e-18
8909.39026 5.03107e-18
8910.25172 5.04007e-18
8911.11318 5.04909e-18
8911.97465 5.06520e-18
8912.83611 5.08131e-18
8913.69757 5.10525e-18
8914.55903 5.12922e-18
8915.42049 5.16269e-18
8916.29197 5.19619e-18
8917.15343 5.23879e-18
8918.01490 5.28142e-18
8918.87636 5.32220e-18
8919.73782 5.36296e-18
8920.59928 5.39094e-18
8921.46074 5.41888e-18
8922.32221 5.43094e-18
8923.18367 5.44297e-18
8924.04513 5.43880e-18
8924.90659 5.43458e-18
8925.76805 5.42709e-18
8926.63953 5.41959e-18
8927.50100 5.42642e-18
8928.36246 5.43329e-18
8929.22392 5.45511e-18
8930.08538 5.47697e-18
8930.94684 5.50581e-18
8931.80831 5.53467e-18
8932.66977 5.56476e-18
8933.53123 5.59484e-18
8934.39269 5.62058e-18
8935.25415 5.64630e-18
8936.12563 5.67033e-18
8936.98709 5.69434e-18
8937.84856 5.72926e-18
8938.71002 5.76420e-18
8939.57148 5.81058e-18
8940.43294 5.85698e-18
8941.29440 5.89773e-18
8942.15587 5.93846e-18
8943.01733 5.96103e-18
8943.87879 5.98354e-18
8944.74025 5.98230e-18
8945.61173 5.98099e-18
8946.47319 5.95797e-18
8947.33466 5.93489e-18
8948.19612 5.91648e-18
8949.05758 5.89808e-18
8949.91904 5.90569e-18
8950.78050 5.91337e-18
8951.64197 5.94036e-18
8952.50343 5.96739e-18
8953.36489 6.00297e-18
8954.22635 6.03858e-18
8955.08781 6.05470e-18
8955.95929 6.07076e-18
8956.82075 6.03983e-18
8957.68222 6.00878e-18
8958.54368 5.96511e-18
8959.40514 5.92142e-18
8960.26660 5.91559e-18
8961.12806 5.90988e-18
8961.98953 5.94912e-18
8962.85099 5.98849e-18
8963.71245 6.06323e-18
8964.57391 6.13806e-18
8965.44539 6.22407e-18
8966.30685 6.31010e-18
8967.16832 6.37072e-18
8968.02978 6.43128e-18
8968.89124 6.47052e-18
8969.75270 6.50972e-18
8970.61416 6.56767e-18
8971.47563 6.62567e-18
8972.33709 6.71621e-18
8973.19855 6.80683e-18
8974.06001 6.91279e-18
8974.93149 7.01877e-18
8975.79295 7.11530e-18
8976.65441 7.21179e-18
8977.51588 7.26087e-18
8978.37734 7.30982e-18
8979.23880 7.28186e-18
8980.10026 7.25369e-18
8980.96172 7.12964e-18
8981.82319 7.00533e-18
8982.68465 6.79742e-18
8983.54611 6.58928e-18
8984.41759 6.40934e-18
8985.27905 6.22947e-18
8986.14051 6.18066e-18
8987.00198 6.13220e-18
8987.86344 6.24990e-18
8988.72490 6.36804e-18
8989.58636 6.65757e-18
8990.44782 6.94756e-18
8991.30928 7.27075e-18
8992.17075 7.59401e-18
8993.03221 7.78450e-18
8993.89367 7.97463e-18
8994.76515 8.00748e-18
8995.62661 8.03992e-18
8996.48807 7.94554e-18
8997.34954 7.85083e-18
8998.21100 7.70363e-18
8999.07246 7.55629e-18
8999.93392 7.45780e-18
9000.79538 7.35943e-18
9001.65685 7.35389e-18
9002.51831 7.34861e-18
9003.38979 7.43331e-18
9004.25125 7.51823e-18
9005.11271 7.66363e-18
9005.97417 7.80918e-18
9006.83563 7.95739e-18
9007.69710 8.10560e-18
9008.55856 8.21148e-18
9009.42002 8.31725e-18
9010.28148 8.35989e-18
9011.14295 8.40234e-18
9012.00441 8.38266e-18
9012.87589 8.36281e-18
9013.73735 8.33055e-18
9014.59881 8.29825e-18
9015.46027 8.29031e-18
9016.32173 8.28243e-18
9017.18320 8.27627e-18
9018.04466 8.27012e-18
9018.90612 8.24896e-18
9019.76758 8.22777e-18
9020.62904 8.21102e-18
9021.49051 8.19427e-18
9022.35197 8.20205e-18
9023.22345 8.20990e-18
9024.08491 8.26755e-18
9024.94637 8.32534e-18
9025.80783 8.45310e-18
9026.66930 8.58106e-18
9027.53076 8.74822e-18
9028.39222 8.91551e-18
9029.25368 9.07563e-18
9030.11514 9.23566e-18
9030.97660 9.35646e-18
9031.83807 9.47708e-18
9032.70955 9.53458e-18
9033.57101 9.59191e-18
9034.43247 9.58398e-18
9035.29393 9.57586e-18
9036.15539 9.51470e-18
9037.01686 9.45337e-18
9037.87832 9.37037e-18
9038.73978 9.28728e-18
9039.60124 9.23066e-18
9040.46270 9.17423e-18
9041.32417 9.15694e-18
9042.18563 9.13973e-18
9043.05711 9.12645e-18
9043.91857 9.11307e-18
9044.78003 9.08517e-18
9045.64149 9.05717e-18
9046.50295 9.02579e-18
9047.36442 8.99441e-18
9048.22588 8.96927e-18
9049.08734 8.94413e-18
9049.94880 8.94074e-18
9050.81027 8.93726e-18
9051.67173 8.95973e-18
9052.54321 8.98229e-18
9053.40467 8.98469e-18
9054.26613 8.98692e-18
9055.12759 8.92897e-18
9055.98905 8.87089e-18
9056.85052 8.77408e-18
9057.71198 8.67716e-18
9058.57344 8.57065e-18
9059.43490 8.46412e-18
9060.29636 8.35153e-18
9061.16784 8.23892e-18
9062.02931 8.12170e-18
9062.89077 8.00445e-18
9063.75223 7.87832e-18
9064.61369 7.75216e-18
9065.47515 7.60772e-18
9066.33662 7.46324e-18
9067.19808 7.33728e-18
9068.05954 7.21138e-18
9068.92100 7.16498e-18
9069.78246 7.11879e-18
9070.64393 7.13843e-18
9071.51540 7.15825e-18
9072.37687 7.17557e-18
9073.23833 7.19288e-18
9074.09979 7.18265e-18
9074.96125 7.17234e-18
9075.82271 7.15364e-18
9076.68418 7.13490e-18
9077.54564 7.11969e-18
9078.40710 7.10448e-18
9079.26856 7.09964e-18
9080.13002 7.09482e-18
9080.99149 7.10009e-18
9081.86297 7.10538e-18
9082.72443 7.09705e-18
9083.58589 7.08868e-18
9084.44735 7.05351e-18
9085.30881 7.01828e-18
9086.17028 6.98239e-18
9087.03174 6.94650e-18
9087.89320 6.93001e-18
9088.75466 6.91356e-18
9089.61612 6.89079e-18
9090.48760 6.86799e-18
9091.34906 6.81433e-18
9092.21053 6.76089e-18
9093.07199 6.70174e-18
9093.93345 6.64258e-18
9094.79491 6.60899e-18
9095.65637 6.57549e-18
9096.51784 6.55868e-18
9097.37930 6.54192e-18
9098.24076 6.52335e-18
9099.10222 6.50476e-18
9099.97370 6.48922e-18
9100.83516 6.47369e-18
9101.69663 6.47110e-18
9102.55809 6.46855e-18
9103.41955 6.49792e-18
9104.28101 6.52738e-18
9105.14247 6.61589e-18
9106.00393 6.70458e-18
9106.86540 6.82000e-18
9107.72686 6.93549e-18
9108.58832 6.99507e-18
9109.45980 7.05449e-18
9110.32126 7.02296e-18
9111.18272 6.99119e-18
9112.04419 6.88909e-18
9112.90565 6.78680e-18
9113.76711 6.65631e-18
9114.62857 6.52575e-18
9115.49003 6.45347e-18
9116.35150 6.38134e-18
9117.21296 6.41238e-18
9118.07442 6.44370e-18
9118.93588 6.51125e-18
9119.80736 6.57891e-18
9120.66882 6.61775e-18
9121.53028 6.65651e-18
9122.39175 6.62487e-18
9123.25321 6.59304e-18
9124.11467 6.46582e-18
9124.97613 6.33835e-18
9125.83760 6.17440e-18
9126.69906 6.01036e-18
9127.56052 5.88130e-18
9128.43200 5.75233e-18
9129.29346 5.69514e-18
9130.15492 5.63815e-18
9131.01638 5.67667e-18
9131.87785 5.71546e-18
9132.73931 5.83364e-18
9133.60077 5.95203e-18
9134.46223 6.11352e-18
9135.32369 6.27512e-18
9136.18516 6.44210e-18
9137.04662 6.60910e-18
9137.90808 6.74255e-18
9138.76954 6.87591e-18
9139.64102 6.95072e-18
9140.50248 7.02535e-18
9141.36395 7.03303e-18
9142.22541 7.04053e-18
9143.08687 6.96836e-18
9143.94833 6.89598e-18
9144.80979 6.72567e-18
9145.67125 6.55510e-18
9146.53272 6.30873e-18
9147.39418 6.06215e-18
9148.26566 5.81413e-18
9149.12712 5.56611e-18
9149.98858 5.38396e-18
9150.85004 5.20199e-18
9151.71151 5.14034e-18
9152.57297 5.07903e-18
9153.43443 5.15920e-18
9154.29589 5.23975e-18
9155.15735 5.39166e-18
9156.01882 5.54377e-18
9156.88028 5.69340e-18
9157.75176 5.84302e-18
9158.61322 5.95577e-18
9159.47468 6.06840e-18
9160.33614 6.11751e-18
9161.19760 6.16644e-18
9162.05907 6.15370e-18
9162.92053 6.14078e-18
9163.78199 6.08072e-18
9164.64345 6.02053e-18
9165.50492 5.91114e-18
9166.36638 5.80161e-18
9167.22784 5.64030e-18
9168.09932 5.47885e-18
9168.96078 5.30565e-18
9169.82224 5.13242e-18
9170.68370 5.00150e-18
9171.54517 4.87070e-18
9172.40663 4.80914e-18
9173.26809 4.74777e-18
9174.12955 4.76735e-18
9174.99101 4.78716e-18
9175.85248 4.85460e-18
9176.71394 4.92216e-18
9177.58542 4.96176e-18
9178.44688 5.00128e-18
9179.30834 4.99103e-18
9180.16980 4.98064e-18
9181.03127 4.97020e-18
9181.89273 4.95977e-18
9182.75419 4.97648e-18
9183.61565 4.99327e-18
9184.47711 5.02738e-18
9185.33857 5.06153e-18
9186.20004 5.10128e-18
9187.07152 5.14103e-18
9187.93298 5.15790e-18
9188.79444 5.17472e-18
9189.65590 5.15290e-18
9190.51736 5.13097e-18
9191.37883 5.11452e-18
9192.24029 5.09808e-18
9193.10175 5.12622e-18
9193.96321 5.15447e-18
9194.82467 5.20976e-18
9195.68614 5.26510e-18
9196.55762 5.32265e-18
9197.41908 5.38020e-18
9198.28054 5.41752e-18
9199.14200 5.45478e-18
9200.00346 5.45026e-18
9200.86492 5.44564e-18
9201.72639 5.41521e-18
9202.58785 5.38470e-18
9203.44931 5.35968e-18
9204.31077 5.33469e-18
9205.17224 5.31599e-18
9206.04371 5.29730e-18
9206.90518 5.27117e-18
9207.76664 5.24502e-18
9208.62810 5.21582e-18
9209.48956 5.18661e-18
9210.35102 5.16907e-18
9211.21249 5.15155e-18
9212.07395 5.16043e-18
9212.93541 5.16939e-18
9213.79687 5.22163e-18
9214.65833 5.27399e-18
9215.52981 5.36621e-18
9216.39127 5.45854e-18
9217.25274 5.55570e-18
9218.11420 5.65287e-18
9218.97566 5.73222e-18
9219.83712 5.81150e-18
9220.69859 5.88028e-18
9221.56005 5.94903e-18
9222.42151 6.01134e-18
9223.28297 6.07363e-18
9224.14443 6.12253e-18
9225.00590 6.17140e-18
9225.87737 6.20203e-18
9226.73884 6.23262e-18
9227.60030 6.23990e-18
9228.46176 6.24712e-18
9229.32322 6.22910e-18
9230.18468 6.21102e-18
9231.04615 6.18823e-18
9231.90761 6.16543e-18
9232.76907 6.16162e-18
9233.63053 6.15785e-18
9234.49199 6.16779e-18
9235.35346 6.17776e-18
9236.22494 6.18809e-18
9237.08640 6.19842e-18
9237.94786 6.21523e-18
9238.80932 6.23207e-18
9239.67078 6.26792e-18
9240.53225 6.30381e-18
9241.39371 6.36470e-18
9242.25517 6.42566e-18
9243.11663 6.51405e-18
9243.97809 6.60251e-18
9244.84957 6.71070e-18
9245.71103 6.81893e-18
9246.57250 6.92935e-18
9247.43396 7.03978e-18
9248.29542 7.14240e-18
9249.15688 7.24500e-18
9250.01834 7.34189e-18
9250.87981 7.43877e-18
9251.74127 7.52504e-18
9252.60273 7.61128e-18
9253.46419 7.66625e-18
9254.32565 7.72114e-18
9255.19713 7.74143e-18
9256.05860 7.76161e-18
9256.92006 7.78741e-18
9257.78152 7.81323e-18
9258.64298 7.87479e-18
9259.50444 7.93644e-18
9260.36591 8.02461e-18
9261.22737 8.11285e-18
9262.08883 8.21138e-18
9262.95029 8.30993e-18
9263.81175 8.38325e-18
9264.68323 8.45649e-18
9265.54469 8.47055e-18
9266.40616 8.48445e-18
9267.26762 8.44021e-18
9268.12908 8.39581e-18
9268.99054 8.30729e-18
9269.85200 8.21866e-18
9270.71347 8.11882e-18
9271.57493 8.01895e-18
9272.43639 7.94707e-18
9273.29785 7.87526e-18
9274.16933 7.86234e-18
9275.03079 7.84959e-18
9275.89226 7.91832e-18
9276.75372 7.98729e-18
9277.61518 8.12612e-18
9278.47664 8.26514e-18
9279.33810 8.43583e-18
9280.19957 8.60661e-18
9281.06103 8.76789e-18
9281.92249 8.92915e-18
9282.79397 9.04122e-18
9283.65543 9.15319e-18
9284.51689 9.18439e-18
9285.37835 9.21533e-18
9286.23982 9.14686e-18
9287.10128 9.07812e-18
9287.96274 8.91827e-18
9288.82420 8.75808e-18
9289.68566 8.55749e-18
9290.54713 8.35680e-18
9291.40859 8.17444e-18
9292.27005 7.99213e-18
9293.14153 7.90559e-18
9294.00299 7.81931e-18
9294.86445 7.87925e-18
9295.72592 7.93959e-18
9296.58738 8.09382e-18
9297.44884 8.24831e-18
9298.31030 8.42756e-18
9299.17176 8.60686e-18
9300.03323 8.71672e-18
9300.89469 8.82637e-18
9301.75615 8.77627e-18
9302.62763 8.72571e-18
9303.48909 8.60263e-18
9304.35055 8.47935e-18
9305.21201 8.42552e-18
9306.07348 8.37189e-18
9306.93494 8.35416e-18
9307.79640 8.33653e-18
9308.65786 8.25172e-18
9309.51932 8.16671e-18
9310.38079 8.01959e-18
9311.24225 7.87231e-18
9312.11373 7.72378e-18
9312.97519 7.57526e-18
9313.83665 7.48504e-18
9314.69811 7.39498e-18
9315.55958 7.43094e-18
9316.42104 7.46726e-18
9317.28250 7.61619e-18
9318.14396 7.76544e-18
9319.00542 7.89679e-18
9319.86688 8.02809e-18
9320.72835 8.09063e-18
9321.58981 8.15298e-18
9322.46129 8.26702e-18
9323.32275 8.38120e-18
9324.18421 8.57306e-18
9325.04567 8.76513e-18
9325.90714 8.78879e-18
9326.76860 8.81197e-18
9327.63006 8.51576e-18
9328.49152 8.21864e-18
9329.35298 7.84069e-18
9330.21445 7.46250e-18
9331.07591 7.23336e-18
9331.94739 7.00464e-18
9332.80885 6.87984e-18
9333.67031 6.75535e-18
9334.53177 6.66830e-18
9335.39323 6.58136e-18
9336.25470 6.53356e-18
9337.11616 6.48588e-18
9337.97762 6.46592e-18
9338.83908 6.44605e-18
9339.70055 6.65694e-18
9340.56201 6.86848e-18
9341.43349 7.58518e-18
9342.29495 8.30330e-18
9343.15641 9.17361e-18
9344.01787 1.00443e-17
9344.87933 1.04202e-17
9345.74080 1.07947e-17
9346.60226 1.04830e-17
9347.46372 1.01693e-17
9348.32518 9.28023e-18
9349.18664 8.38961e-18
9350.04811 7.33210e-18
9350.90957 6.27414e-18
9351.78105 5.80214e-18
9352.64251 5.33183e-18
9353.50397 5.69273e-18
9354.36543 6.05599e-18
9355.22689 6.70433e-18
9356.08836 7.35347e-18
9356.94982 7.83065e-18
9357.81128 8.30732e-18
9358.67274 8.33978e-18
9359.53420 8.37098e-18
9360.39567 7.84045e-18
9361.26715 7.30832e-18
9362.12861 6.64451e-18
9362.99007 5.98034e-18
9363.85153 5.58882e-18
9364.71299 5.19809e-18
9365.57446 5.10222e-18
9366.43592 5.00720e-18
9367.29738 5.16790e-18
9368.15884 5.32932e-18
9369.02030 5.54510e-18
9369.89178 5.76103e-18
9370.75324 5.80114e-18
9371.61471 5.84074e-18
9372.47617 5.71932e-18
9373.33763 5.59745e-18
9374.19909 5.40074e-18
9375.06056 5.20381e-18
9375.92202 5.06364e-18
9376.78348 4.92362e-18
9377.64494 5.00104e-18
9378.50640 5.07908e-18
9379.37788 5.31301e-18
9380.23934 5.54739e-18
9381.10081 5.73049e-18
9381.96227 5.91342e-18
9382.82373 5.97960e-18
9383.68519 6.04544e-18
9384.54665 6.05432e-18
9385.40812 6.06304e-18
9386.26958 6.03114e-18
9387.13104 5.99912e-18
9387.99250 5.89850e-18
9388.85396 5.79768e-18
9389.72544 5.62677e-18
9390.58691 5.45565e-18
9391.44837 5.24023e-18
9392.30983 5.02468e-18
9393.17129 4.80009e-18
9394.03275 4.57548e-18
9394.89422 4.40444e-18
9395.75568 4.23356e-18
9396.61714 4.15853e-18
9397.47860 4.08378e-18
9398.34006 4.07329e-18
9399.21154 4.06298e-18
9400.07300 4.07748e-18
9400.93447 4.09204e-18
9401.79593 4.09351e-18
9402.65739 4.09494e-18
9403.51885 4.05011e-18
9404.38031 4.00516e-18
9405.24178 3.95141e-18
9406.10324 3.89766e-18
9406.96470 3.88751e-18
9407.82616 3.87748e-18
9408.69764 3.91149e-18
9409.55910 3.94564e-18
9410.42057 4.00556e-18
9411.28203 4.06555e-18
9412.14349 4.12302e-18
9413.00495 4.18049e-18
9413.86641 4.20190e-18
9414.72788 4.22319e-18
9415.58934 4.18611e-18
9416.45080 4.14885e-18
9417.31226 4.04636e-18
9418.17372 3.94368e-18
9419.04520 3.78294e-18
9419.90666 3.62204e-18
9420.76813 3.41380e-18
9421.62959 3.20542e-18
9422.49105 3.02420e-18
9423.35251 2.84306e-18
9424.21397 2.86673e-18
9425.07544 2.89100e-18
9425.93690 3.17667e-18
9426.79836 3.46309e-18
9427.65982 3.82428e-18
9428.53130 4.18567e-18
9429.39276 4.44259e-18
9430.25423 4.69920e-18
9431.11569 4.68541e-18
9431.97715 4.67084e-18
9432.83861 4.30203e-18
9433.70007 3.93221e-18
9434.56153 3.50082e-18
9435.42300 3.06927e-18
9436.28446 2.88118e-18
9437.14592 2.69382e-18
9438.01740 2.79724e-18
9438.87886 2.90150e-18
9439.74032 3.27661e-18
9440.60179 3.65249e-18
9441.46325 4.10879e-18
9442.32471 4.56530e-18
9443.18617 4.85757e-18
9444.04763 5.14936e-18
9444.90910 5.20746e-18
9445.77056 5.26489e-18
9446.63202 5.10415e-18
9447.49348 4.94277e-18
9448.36496 4.64995e-18
9449.22642 4.35676e-18
9450.08788 4.07148e-18
9450.94935 3.78621e-18
9451.81081 3.59942e-18
9452.67227 3.41292e-18
9453.53373 3.36008e-18
9454.39520 3.30764e-18
9455.25666 3.39760e-18
9456.11812 3.48798e-18
9456.98960 3.69893e-18
9457.85106 3.91021e-18
9458.71252 4.17898e-18
9459.57398 4.44789e-18
9460.43545 4.64703e-18
9461.29691 4.84596e-18
9462.15837 4.89868e-18
9463.01983 4.95097e-18
9463.88129 4.91726e-18
9464.74276 4.88332e-18
9465.60422 4.82591e-18
9466.47570 4.76844e-18
9467.33716 4.72587e-18
9468.19862 4.68335e-18
9469.06008 4.68656e-18
9469.92155 4.68992e-18
9470.78301 4.69146e-18
9471.64447 4.69299e-18
9472.50593 4.64229e-18
9473.36739 4.59145e-18
9474.22885 4.52016e-18
9475.09032 4.44882e-18
9475.96180 4.40001e-18
9476.82326 4.35126e-18
9477.68472 4.41420e-18
9478.54618 4.47745e-18
9479.40764 4.75277e-18
9480.26911 5.02870e-18
9481.13057 5.40710e-18
9481.99203 5.78581e-18
9482.85349 6.05587e-18
9483.71495 6.32560e-18
9484.57642 6.37587e-18
9485.43788 6.42549e-18
9486.30936 6.21696e-18
9487.17082 6.00766e-18
9488.03228 5.62522e-18
9488.89374 5.24230e-18
9489.75520 4.90962e-18
9490.61667 4.57709e-18
9491.47813 4.43716e-18
9492.33959 4.29781e-18
9493.20105 4.34802e-18
9494.06252 4.39879e-18
9494.92398 4.63843e-18
9495.79546 4.87862e-18
9496.65692 5.33821e-18
9497.51838 5.79843e-18
9498.37984 6.42952e-18
9499.24130 7.06110e-18
9500.10277 7.61675e-18
9500.96423 8.17216e-18
9501.82569 8.43875e-18
9502.68715 8.70450e-18
9503.54861 8.64827e-18
9504.41008 8.59109e-18
9505.28155 8.23385e-18
9506.14302 7.87573e-18
9507.00448 7.40304e-18
9507.86594 6.93002e-18
9508.72740 6.56259e-18
9509.58887 6.19548e-18
9510.45033 5.95495e-18
9511.31179 5.71479e-18
9512.17325 5.55753e-18
9513.03471 5.40052e-18
9513.89617 5.36948e-18
9514.75764 5.33881e-18
9515.62912 5.49546e-18
9516.49058 5.65266e-18
9517.35204 5.97906e-18
9518.21350 6.30596e-18
9519.07496 6.74185e-18
9519.93643 7.17806e-18
9520.79789 7.61734e-18
9521.65935 8.05662e-18
9522.52081 8.35312e-18
9523.38227 8.64920e-18
9524.24374 8.75371e-18
9525.11522 8.85765e-18
9525.97668 8.84695e-18
9526.83814 8.83592e-18
9527.69960 8.78084e-18
9528.56106 8.72562e-18
9529.42252 8.68209e-18
9530.28399 8.63860e-18
9531.14545 8.63800e-18
9532.00691 8.63752e-18
9532.86837 8.63016e-18
9533.72984 8.62278e-18
9534.60131 8.56670e-18
9535.46278 8.51047e-18
9536.32424 8.39297e-18
9537.18570 8.27529e-18
9538.04716 8.10311e-18
9538.90862 7.93077e-18
9539.77009 7.86104e-18
9540.63155 7.79162e-18
9541.49301 7.97266e-18
9542.35447 8.15443e-18
9543.21593 8.47999e-18
9544.08741 8.80596e-18
9544.94888 9.11789e-18
9545.81034 9.42974e-18
9546.67180 9.57372e-18
9547.53326 9.71717e-18
9548.39472 9.53494e-18
9549.25619 9.35182e-18
9550.11765 9.02695e-18
9550.97911 8.70168e-18
9551.84057 8.60367e-18
9552.70203 8.50634e-18
9553.57351 8.66030e-18
9554.43497 8.81500e-18
9555.29644 9.00252e-18
9556.15790 9.19010e-18
9557.01936 9.26401e-18
9557.88082 9.33756e-18
9558.74228 9.19982e-18
9559.60375 9.06154e-18
9560.46521 8.77296e-18
9561.32667 8.48400e-18
9562.18813 8.37821e-18
9563.05961 8.27296e-18
9563.92107 8.52204e-18
9564.78254 8.77215e-18
9565.64400 9.19893e-18
9566.50546 9.62623e-18
9567.36692 1.00401e-17
9568.22838 1.04538e-17
9569.08985 1.06272e-17
9569.95131 1.08000e-17
9570.81277 1.05764e-17
9571.67423 1.03517e-17
9572.53569 9.92810e-18
9573.40717 9.50401e-18
9574.26863 9.11459e-18
9575.13010 8.72535e-18
9575.99156 8.52661e-18
9576.85302 8.32845e-18
9577.71448 8.44399e-18
9578.57594 8.56046e-18
9579.43741 8.79601e-18
9580.29887 9.03185e-18
9581.16033 9.10362e-18
9582.02179 9.17494e-18
9582.89327 9.04541e-18
9583.75473 8.91533e-18
9584.61620 8.64017e-18
9585.47766 8.36455e-18
9586.33912 8.14218e-18
9587.20058 7.91997e-18
9588.06204 8.05254e-18
9588.92351 8.18616e-18
9589.78497 8.63586e-18
9590.64643 9.08650e-18
9591.51791 9.50668e-18
9592.37937 9.92686e-18
9593.24083 1.01307e-17
9594.10229 1.03339e-17
9594.96376 1.03393e-17
9595.82522 1.03441e-17
9596.68668 1.01886e-17
9597.54814 1.00327e-17
9598.40960 9.80400e-18
9599.27107 9.57524e-18
9600.13253 9.37019e-18
9600.99399 9.16514e-18
9601.86547 9.06020e-18
9602.72693 8.95554e-18
9603.58839 9.00065e-18
9604.44986 9.04630e-18
9605.31132 9.23316e-18
9606.17278 9.42047e-18
9607.03424 9.70701e-18
9607.89570 9.99372e-18
9608.75717 1.01977e-17
9609.61863 1.04014e-17
9610.48009 1.03472e-17
9611.35157 1.02922e-17
9612.21303 1.00543e-17
9613.07449 9.81586e-18
9613.93595 9.53467e-18
9614.79742 9.25331e-18
9615.65888 9.02651e-18
9616.52034 8.79982e-18
9617.38180 8.70879e-18
9618.24326 8.61819e-18
9619.10473 8.68388e-18
9619.96619 8.75004e-18
9620.82765 8.94983e-18
9621.69913 9.15007e-18
9622.56059 9.41191e-18
9623.42205 9.67393e-18
9624.28352 9.89752e-18
9625.14498 1.01210e-17
9626.00644 1.02108e-17
9626.86790 1.03001e-17
9627.72936 1.01665e-17
9628.59083 1.00322e-17
9629.45229 9.70148e-18
9630.31375 9.37019e-18
9631.17521 9.03810e-18
9632.04669 8.70595e-18
9632.90815 8.52442e-18
9633.76961 8.34333e-18
9634.63108 8.37150e-18
9635.49254 8.40031e-18
9636.35400 8.63194e-18
9637.21546 8.86418e-18
9638.07692 9.07955e-18
9638.93839 9.29485e-18
9639.79985 9.31233e-18
9640.67133 9.32918e-18
9641.53279 9.26214e-18
9642.39425 9.19483e-18
9643.25571 9.17575e-18
9644.11718 9.15685e-18
9644.97864 9.21774e-18
9645.84010 9.27898e-18
9646.70156 9.43286e-18
9647.56302 9.58701e-18
9648.42448 9.73108e-18
9649.28595 9.87506e-18
9650.15743 9.87541e-18
9651.01889 9.87524e-18
9651.88035 9.73134e-18
9652.74181 9.58701e-18
9653.60327 9.35895e-18
9654.46474 9.13055e-18
9655.32620 8.90076e-18
9656.18766 8.67095e-18
9657.04912 8.53464e-18
9657.91058 8.39862e-18
9658.77205 8.40897e-18
9659.64352 8.41978e-18
9660.50499 8.58982e-18
9661.36645 8.76034e-18
9662.22791 9.03622e-18
9663.08937 9.31242e-18
9663.95083 9.55357e-18
9664.81230 9.79464e-18
9665.67376 9.91972e-18
9666.53522 1.00445e-17
9667.39668 1.00966e-17
9668.25815 1.01485e-17
9669.11961 1.01522e-17
9669.99109 1.01558e-17
9670.85255 1.00696e-17
9671.71401 9.98302e-18
9672.57547 9.79544e-18
9673.43693 9.60751e-18
9674.29840 9.39524e-18
9675.15986 9.18279e-18
9676.02132 9.02232e-18
9676.88278 8.86203e-18
9677.74424 8.80679e-18
9678.61572 8.75186e-18
9679.47718 8.83723e-18
9680.33865 8.92300e-18
9681.20011 9.07866e-18
9682.06157 9.23441e-18
9682.92303 9.36234e-18
9683.78449 9.49019e-18
9684.64596 9.56142e-18
9685.50742 9.63239e-18
9686.36888 9.64291e-18
9687.23034 9.65325e-18
9688.10182 9.61322e-18
9688.96328 9.57310e-18
9689.82475 9.50730e-18
9690.68621 9.44142e-18
9691.54767 9.35432e-18
9692.40913 9.26713e-18
9693.27059 9.14561e-18
9694.13206 9.02392e-18
9694.99352 8.88589e-18
9695.85498 8.74780e-18
9696.71644 8.64229e-18
9697.57790 8.53689e-18
9698.44938 8.48828e-18
9699.31084 8.43986e-18
9700.17231 8.43890e-18
9701.03377 8.43810e-18
9701.89523 8.46474e-18
9702.75669 8.49147e-18
9703.61816 8.50110e-18
9704.47962 8.51069e-18
9705.34108 8.47452e-18
9706.20254 8.43822e-18
9707.06400 8.38402e-18
9707.93548 8.32977e-18
9708.79694 8.28634e-18
9709.65841 8.24296e-18
9710.51987 8.22601e-18
9711.38133 8.20915e-18
9712.24279 8.22892e-18
9713.10425 8.24880e-18
9713.96572 8.27795e-18
9714.82718 8.30713e-18
9715.68864 8.31274e-18
9716.55010 8.31830e-18
9717.41156 8.29095e-18
9718.28304 8.26352e-18
9719.14451 8.19944e-18
9720.00597 8.13524e-18
9720.86743 8.06870e-18
9721.72889 8.00214e-18
9722.59035 7.98586e-18
9723.45182 7.96972e-18
9724.31328 7.98054e-18
9725.17474 7.99145e-18
9726.03620 7.96060e-18
9726.89766 7.92961e-18
9727.76914 7.83271e-18
9728.63060 7.73561e-18
9729.49207 7.58546e-18
9730.35353 7.43515e-18
9731.21499 7.26378e-18
9732.07645 7.09235e-18
9732.93791 6.95868e-18
9733.79938 6.82513e-18
9734.66084 6.76586e-18
9735.52230 6.70681e-18
9736.38376 6.71481e-18
9737.25524 6.72300e-18
9738.11670 6.78175e-18
9738.97817 6.84064e-18
9739.83963 6.91761e-18
9740.70109 6.99465e-18
9741.56255 7.05772e-18
9742.42401 7.12075e-18
9743.28548 7.15287e-18
9744.14694 7.18490e-18
9745.00840 7.17598e-18
9745.86986 7.16694e-18
9746.74134 7.13067e-18
9747.60280 7.09433e-18
9748.46426 7.04952e-18
9749.32573 7.00469e-18
9750.18719 6.95581e-18
9751.04865 6.90691e-18
9751.91011 6.85630e-18
9752.77157 6.80569e-18
9753.63304 6.75170e-18
9754.49450 6.69770e-18
9755.35596 6.63683e-18
9756.22744 6.57593e-18
9757.08890 6.52084e-18
9757.95036 6.46576e-18
9758.81183 6.43517e-18
9759.67329 6.40466e-18
9760.53475 6.41305e-18
9761.39621 6.42155e-18
9762.25767 6.48134e-18
9763.11913 6.54128e-18
9763.98060 6.63365e-18
9764.84206 6.72610e-18
9765.71354 6.79802e-18
9766.57500 6.86989e-18
9767.43646 6.89539e-18
9768.29792 6.92074e-18
9769.15939 6.91686e-18
9770.02085 6.91287e-18
9770.88231 6.89411e-18
9771.74377 6.87531e-18
9772.60523 6.84894e-18
9773.46670 6.82255e-18
9774.32816 6.79777e-18
9775.19964 6.77299e-18
9776.06110 6.75709e-18
9776.92256 6.74120e-18
9777.78402 6.73901e-18
9778.64548 6.73687e-18
9779.50695 6.75462e-18
9780.36841 6.77242e-18
9781.22987 6.81180e-18
9782.09133 6.85125e-18
9782.95280 6.87818e-18
9783.81426 6.90507e-18
9784.68574 6.88250e-18
9785.54720 6.85976e-18
9786.40866 6.80564e-18
9787.27012 6.75142e-18
9788.13158 6.69951e-18
9788.99305 6.64761e-18
9789.85451 6.60980e-18
9790.71597 6.57202e-18
9791.57743 6.55327e-18
9792.43889 6.53455e-18
9793.30036 6.52218e-18
9794.16182 6.50982e-18
9795.03330 6.47722e-18
9795.89476 6.44455e-18
9796.75622 6.39949e-18
9797.61768 6.35439e-18
9798.47915 6.33575e-18
9799.34061 6.31719e-18
9800.20207 6.33796e-18
9801.06353 6.35886e-18
9801.92499 6.40062e-18
9802.78645 6.44244e-18
9803.64792 6.48658e-18
9804.51940 6.53072e-18
9805.38086 6.55541e-18
9806.24232 6.58005e-18
9807.10378 6.57472e-18
9807.96524 6.56928e-18
9808.82671 6.55485e-18
9809.68817 6.54039e-18
9810.54963 6.53681e-18
9811.41109 6.53325e-18
9812.27255 6.55310e-18
9813.13402 6.57303e-18
9813.99548 6.62217e-18
9814.86696 6.67141e-18
9815.72842 6.71487e-18
9816.58988 6.75832e-18
9817.45134 6.75895e-18
9818.31280 6.75946e-18
9819.17427 6.72220e-18
9820.03573 6.68484e-18
9820.89719 6.62533e-18
9821.75865 6.56575e-18
9822.62012 6.50691e-18
9823.48158 6.44809e-18
9824.35306 6.41667e-18
9825.21452 6.38533e-18
9826.07598 6.37741e-18
9826.93744 6.36958e-18
9827.79890 6.36354e-18
9828.66037 6.35751e-18
9829.52183 6.34801e-18
9830.38329 6.33850e-18
9831.24475 6.33194e-18
9832.10621 6.32538e-18
9832.97769 6.32028e-18
9833.83915 6.31518e-18
9834.70062 6.30314e-18
9835.56208 6.29108e-18
9836.42354 6.26822e-18
9837.28500 6.24532e-18
9838.14647 6.21392e-18
9839.00793 6.18248e-18
9839.86939 6.14508e-18
9840.73085 6.10766e-18
9841.59231 6.06560e-18
9842.45377 6.02352e-18
9843.32525 5.98159e-18
9844.18672 5.93966e-18
9845.04818 5.91272e-18
9845.90964 5.88583e-18
9846.77110 5.88558e-18
9847.63256 5.88542e-18
9848.49403 5.90825e-18
9849.35549 5.93114e-18
9850.21695 5.97040e-18
9851.07841 6.00970e-18
9851.93987 6.05902e-18
9852.81135 6.10838e-18
9853.67282 6.16026e-18
9854.53428 6.21215e-18
9855.39574 6.26186e-18
9856.25720 6.31156e-18
9857.11866 6.35559e-18
9857.98013 6.39960e-18
9858.84159 6.42854e-18
9859.70305 6.45743e-18
9860.56451 6.46048e-18
9861.42597 6.46345e-18
9862.29745 6.43916e-18
9863.15891 6.41478e-18
9864.02038 6.36777e-18
9864.88184 6.32069e-18
9865.74330 6.25954e-18
9866.60476 6.19834e-18
9867.46622 6.13532e-18
9868.32769 6.07230e-18
9869.18915 6.01444e-18
9870.05061 5.95659e-18
9870.92209 5.90309e-18
9871.78355 5.84959e-18
9872.64501 5.80135e-18
9873.50648 5.75313e-18
9874.36794 5.71430e-18
9875.22940 5.67549e-18
9876.09086 5.64932e-18
9876.95232 5.62320e-18
9877.81379 5.61272e-18
9878.67525 5.60229e-18
9879.53671 5.60886e-18
9880.39817 5.61548e-18
9881.26965 5.63702e-18
9882.13111 5.65860e-18
9882.99257 5.69124e-18
9883.85404 5.72391e-18
9884.71550 5.76058e-18
9885.57696 5.79727e-18
9886.43842 5.83035e-18
9887.29988 5.86341e-18
9888.16135 5.88573e-18
9889.02281 5.90802e-18
9889.88427 5.91359e-18
9890.74573 5.91910e-18
9891.61721 5.90777e-18
9892.47867 5.89639e-18
9893.34014 5.87119e-18
9894.20160 5.84594e-18
9895.06306 5.81011e-18
9895.92452 5.77423e-18
9896.78598 5.73118e-18
9897.64745 5.68811e-18
9898.50891 5.64344e-18
9899.37037 5.59875e-18
9900.23183 5.55986e-18
9901.09329 5.52098e-18
9901.96477 5.48908e-18
9902.82623 5.45720e-18
9903.68770 5.42601e-18
9904.54916 5.39484e-18
9905.41062 5.36581e-18
9906.27208 5.33679e-18
9907.13354 5.32361e-18
9907.99501 5.31047e-18
9908.85647 5.31964e-18
9909.71793 5.32887e-18
9910.57939 5.35416e-18
9911.45087 5.37948e-18
9912.31233 5.41071e-18
9913.17380 5.44196e-18
9914.03526 5.45766e-18
9914.89672 5.47332e-18
9915.75818 5.45642e-18
9916.61964 5.43944e-18
9917.48111 5.39592e-18
9918.34257 5.35233e-18
9919.20403 5.29261e-18
9920.07551 5.23286e-18
9920.93697 5.16879e-18
9921.79843 5.10472e-18
9922.65989 5.04835e-18
9923.52136 4.99201e-18
9924.38282 4.94863e-18
9925.24428 4.90529e-18
9926.10574 4.87696e-18
9926.96720 4.84868e-18
9927.82867 4.82756e-18
9928.69013 4.80646e-18
9929.56161 4.78008e-18
9930.42307 4.75368e-18
9931.28453 4.71797e-18
9932.14599 4.68224e-18
9933.00746 4.63899e-18
9933.86892 4.59572e-18
9934.73038 4.54859e-18
9935.59184 4.50146e-18
9936.45330 4.45576e-18
9937.31477 4.41006e-18
9938.17623 4.37279e-18
9939.03769 4.33555e-18
9939.90917 4.31552e-18
9940.77063 4.29554e-18
9941.63209 4.29516e-18
9942.49355 4.29484e-18
9943.35502 4.30499e-18
9944.21648 4.31517e-18
9945.07794 4.32800e-18
9945.93940 4.34083e-18
9946.80086 4.35434e-18
9947.66233 4.36785e-18
9948.52379 4.37976e-18
9949.39527 4.39166e-18
9950.25673 4.39760e-18
9951.11819 4.40351e-18
9951.97965 4.40067e-18
9952.84112 4.39781e-18
9953.70258 4.39184e-18
9954.56404 4.38585e-18
9955.42550 4.38296e-18
9956.28696 4.38007e-18
9957.14843 4.37610e-18
9958.00989 4.37212e-18
9958.88137 4.36135e-18
9959.74283 4.35055e-18
9960.60429 4.33005e-18
9961.46575 4.30952e-18
9962.32721 4.27740e-18
9963.18868 4.24524e-18
9964.05014 4.21112e-18
9964.91160 4.17699e-18
9965.77306 4.15692e-18
9966.63452 4.13690e-18
9967.49599 4.13465e-18
9968.36747 4.13246e-18
9969.22893 4.14184e-18
9970.09039 4.15126e-18
9970.95185 4.17131e-18
9971.81331 4.19139e-18
9972.67477 4.22672e-18
9973.53624 4.26208e-18
9974.39770 4.31076e-18
9975.25916 4.35947e-18
9976.12062 4.41108e-18
9976.98208 4.46269e-18
9977.85356 4.50895e-18
9978.71503 4.55518e-18
9979.57649 4.59211e-18
9980.43795 4.62901e-18
9981.29941 4.65522e-18
9982.16087 4.68140e-18
9983.02234 4.70247e-18
9983.88380 4.72353e-18
9984.74526 4.74508e-18
9985.60672 4.76663e-18
9986.46818 4.79146e-18
9987.32965 4.81629e-18
9988.20112 4.84584e-18
9989.06259 4.87541e-18
9989.92405 4.89927e-18
9990.78551 4.92312e-18
9991.64697 4.92950e-18
9992.50843 4.93582e-18
9993.36990 4.93356e-18
9994.23136 4.93128e-18
9995.09282 4.93553e-18
9995.95428 4.93981e-18
9996.81574 4.94800e-18
9997.67721 4.95620e-18
9998.54869 4.95867e-18
9999.41015 4.96111e-18
