# wavelength flux
3474.99998 1.00488e-17
3476.47277 9.26239e-18
3477.93555 9.08399e-18
3479.40834 8.97091e-18
3480.88113 8.45234e-18
3482.35392 9.05176e-18
3483.81670 9.19485e-18
3485.28949 9.08815e-18
3486.76229 1.00712e-17
3488.22506 9.86183e-18
3489.69785 9.64565e-18
3491.17065 9.49099e-18
3492.64344 9.54739e-18
3494.10621 9.52046e-18
3495.57901 9.14154e-18
3497.05180 8.60843e-18
3498.52459 8.57011e-18
3499.98736 9.20224e-18
3501.46016 8.97562e-18
3502.93295 8.78878e-18
3504.39572 9.30100e-18
3505.86852 8.97469e-18
3507.34131 8.52556e-18
3508.81410 9.37741e-18
3510.27688 9.78081e-18
3511.74967 8.88141e-18
3513.22246 8.40275e-18
3514.68524 8.83835e-18
3516.15803 9.26963e-18
3517.63082 9.26476e-18
3519.10362 9.04731e-18
3520.56639 8.57405e-18
3522.03918 9.18522e-18
3523.51198 9.33754e-18
3524.98477 8.64297e-18
3526.44754 9.05277e-18
3527.92034 9.18823e-18
3529.39313 9.02909e-18
3530.85590 8.74524e-18
3532.32870 8.44609e-18
3533.80149 9.27577e-18
3535.27428 9.60313e-18
3536.73706 9.07286e-18
3538.20985 8.71652e-18
3539.68264 8.96551e-18
3541.14542 9.16917e-18
3542.61821 8.93633e-18
3544.09100 8.40517e-18
3545.56380 8.62358e-18
3547.02657 8.60470e-18
3548.49936 8.20850e-18
3549.97216 8.25257e-18
3551.44495 8.34246e-18
3552.90772 7.83971e-18
3554.38052 7.88555e-18
3555.85331 8.26227e-18
3557.31608 8.45630e-18
3558.78888 8.59942e-18
3560.26167 8.00688e-18
3561.73446 7.91220e-18
3563.19724 8.55583e-18
3564.67003 8.59304e-18
3566.14282 8.41699e-18
3567.60560 8.40988e-18
3569.07839 7.94287e-18
3570.55118 7.66312e-18
3572.02398 7.86670e-18
3573.48675 7.75230e-18
3574.95954 7.69199e-18
3576.43233 8.16782e-18
3577.89511 8.34564e-18
3579.36790 8.29534e-18
3580.84070 8.13616e-18
3582.31349 7.85843e-18
3583.77626 8.07771e-18
3585.24905 8.40934e-18
3586.72185 8.19879e-18
3588.19464 7.93746e-18
3589.65742 7.99530e-18
3591.13021 8.14278e-18
3592.60300 8.04038e-18
3594.06578 8.11797e-18
3595.53857 8.68219e-18
3597.01136 8.65138e-18
3598.48415 8.57729e-18
3599.94693 8.96576e-18
3601.41972 8.70209e-18
3602.89251 7.92459e-18
3604.35529 8.12166e-18
3605.82808 8.92685e-18
3607.30087 9.34409e-18
3608.77367 9.20014e-18
3610.23644 8.89051e-18
3611.70923 8.97882e-18
3613.18203 8.92722e-18
3614.65482 8.41591e-18
3616.11759 8.69137e-18
3617.59039 8.99694e-18
3619.06318 9.22431e-18
3620.52595 8.76321e-18
3621.99875 8.20375e-18
3623.47154 8.77105e-18
3624.94433 8.61205e-18
3626.40711 8.61400e-18
3627.87990 8.89602e-18
3629.35269 8.60514e-18
3630.81547 8.67548e-18
3632.28826 8.69959e-18
3633.76105 9.38983e-18
3635.23385 9.57017e-18
3636.69662 8.77685e-18
3638.16941 8.58084e-18
3639.64221 8.93737e-18
3641.11500 8.98542e-18
3642.57777 8.95938e-18
3644.05057 8.56028e-18
3645.52336 8.13100e-18
3646.98613 8.43314e-18
3648.45893 9.26039e-18
3649.93172 9.22848e-18
3651.40451 8.51724e-18
3652.86729 8.82549e-18
3654.34008 8.86997e-18
3655.81287 8.40146e-18
3657.27565 8.83442e-18
3658.74844 8.91405e-18
3660.22123 8.41241e-18
3661.69403 8.43489e-18
3663.15680 8.29303e-18
3664.62959 7.79363e-18
3666.10239 7.78597e-18
3667.56516 7.75508e-18
3669.03795 7.72357e-18
3670.51075 7.71101e-18
3671.98354 7.36005e-18
3673.44631 7.13048e-18
3674.91910 7.24125e-18
3676.39190 7.31697e-18
3677.86469 7.06837e-18
3679.32746 6.98206e-18
3680.80026 6.98355e-18
3682.27305 6.58263e-18
3683.73583 6.10410e-18
3685.20862 6.10629e-18
3686.68141 6.17318e-18
3688.15420 6.01864e-18
3689.61698 5.93683e-18
3691.08977 5.93089e-18
3692.56256 5.97362e-18
3694.02534 5.68782e-18
3695.49813 5.32759e-18
3696.97092 5.15867e-18
3698.44372 4.79793e-18
3699.90649 4.46477e-18
3701.37928 4.81251e-18
3702.85208 5.07830e-18
3704.32487 4.89869e-18
3705.78764 4.67691e-18
3707.26044 4.59668e-18
3708.73323 4.21539e-18
3710.19600 3.94275e-18
3711.66880 4.24368e-18
3713.14159 3.97169e-18
3714.61438 3.66982e-18
3716.07716 3.67145e-18
3717.54995 3.67308e-18
3719.02274 3.67559e-18
3720.48552 3.67810e-18
3721.95831 3.68061e-18
3723.43110 3.68312e-18
3724.90390 3.68563e-18
3726.36667 3.68814e-18
3727.83946 3.69065e-18
3729.31226 3.69316e-18
3730.78505 3.69567e-18
3732.24782 3.69818e-18
3733.72062 3.70070e-18
3735.19341 3.70321e-18
3736.65618 3.70572e-18
3738.12898 3.70823e-18
3739.60177 3.71074e-18
3741.07456 3.71326e-18
3742.53734 3.71577e-18
3744.01013 3.71828e-18
3745.48292 3.72079e-18
3746.94570 3.72331e-18
3748.41849 3.72582e-18
3749.89128 3.72833e-18
3751.36407 3.73084e-18
3752.82685 3.73336e-18
3754.29964 3.73587e-18
3755.77244 3.77637e-18
3757.23521 3.62395e-18
3758.70800 3.69001e-18
3760.18080 3.91675e-18
3761.65359 3.93797e-18
3763.11636 3.99559e-18
3764.58915 4.11172e-18
3766.06195 4.08469e-18
3767.53474 3.86911e-18
3768.99752 3.99492e-18
3770.47031 4.25094e-18
3771.94310 4.22264e-18
3773.40587 4.66018e-18
3774.87867 4.79745e-18
3776.35146 4.66046e-18
3777.82425 5.01821e-18
3779.28703 4.85628e-18
3780.75982 4.54389e-18
3782.23261 4.52605e-18
3783.69539 4.58503e-18
3785.16818 4.92442e-18
3786.64097 5.11397e-18
3788.11377 4.99226e-18
3789.57654 5.20330e-18
3791.04933 5.42614e-18
3792.52213 5.61698e-18
3793.99492 5.35867e-18
3795.45769 5.15539e-18
3796.93049 5.47160e-18
3798.40328 5.42856e-18
3799.86605 5.47014e-18
3801.33885 6.10682e-18
3802.81164 6.47855e-18
3804.28443 6.19350e-18
3805.74721 6.61159e-18
3807.22000 6.63454e-18
3808.69279 6.43877e-18
3810.15557 6.96407e-18
3811.62836 7.03831e-18
3813.10115 7.25884e-18
3814.57395 7.42987e-18
3816.03672 7.39267e-18
3817.50951 7.76598e-18
3818.98231 7.77926e-18
3820.45510 7.59446e-18
3821.91787 7.88505e-18
3823.39067 8.17453e-18
3824.86346 8.40551e-18
3826.32623 8.42607e-18
3827.79903 8.38766e-18
3829.27182 8.83093e-18
3830.74461 9.27659e-18
3832.20739 9.42446e-18
3833.68018 9.68780e-18
3835.15297 1.00846e-17
3836.61575 1.00798e-17
3838.08854 9.88129e-18
3839.56133 9.92898e-18
3841.03413 1.03723e-17
3842.49690 1.08410e-17
3843.96969 1.06680e-17
3845.44249 1.04141e-17
3846.90526 1.04995e-17
3848.37805 1.05641e-17
3849.85085 1.06905e-17
3851.32364 1.05456e-17
3852.78641 1.06872e-17
3854.25920 1.11908e-17
3855.73200 1.10841e-17
3857.20479 1.10424e-17
3858.66756 1.12460e-17
3860.14036 1.15437e-17
3861.61315 1.19277e-17
3863.07593 1.22204e-17
3864.54872 1.24540e-17
3866.02151 1.24630e-17
3867.49430 1.24884e-17
3868.95708 1.27438e-17
3870.42987 1.28910e-17
3871.90266 1.26141e-17
3873.36544 1.24867e-17
3874.83823 1.28154e-17
3876.31102 1.31204e-17
3877.78382 1.29598e-17
3879.24659 1.28831e-17
3880.71938 1.29528e-17
3882.19218 1.28121e-17
3883.66497 1.31799e-17
3885.12774 1.35019e-17
3886.60054 1.33857e-17
3888.07333 1.34523e-17
3889.53610 1.37078e-17
3891.00890 1.38723e-17
3892.48169 1.34505e-17
3893.95448 1.35475e-17
3895.41726 1.40404e-17
3896.89005 1.40244e-17
3898.36284 1.39532e-17
3899.82562 1.44823e-17
3901.29841 1.47915e-17
3902.77120 1.46611e-17
3904.24400 1.46415e-17
3905.70677 1.45646e-17
3907.17956 1.45543e-17
3908.65236 1.41991e-17
3910.12515 1.42438e-17
3911.58792 1.44159e-17
3913.06072 1.44315e-17
3914.53351 1.42300e-17
3915.99628 1.46074e-17
3917.46908 1.51234e-17
3918.94187 1.48265e-17
3920.41466 1.46555e-17
3921.87744 1.47645e-17
3923.35023 1.48019e-17
3924.82302 1.48508e-17
3926.28580 1.48727e-17
3927.75859 1.51466e-17
3929.23138 1.52206e-17
3930.70417 1.48208e-17
3932.16695 1.44683e-17
3933.63974 1.45764e-17
3935.11254 1.49560e-17
3936.57531 1.55342e-17
3938.04810 1.56222e-17
3939.52090 1.48535e-17
3940.99369 1.35588e-17
3942.45646 1.34301e-17
3943.92926 1.46087e-17
3945.40205 1.56373e-17
3946.87484 1.61977e-17
3948.33761 1.64955e-17
3949.81041 1.67592e-17
3951.28320 1.68289e-17
3952.74598 1.67267e-17
3954.21877 1.66605e-17
3955.69156 1.70982e-17
3957.16435 1.74297e-17
3958.62713 1.75047e-17
3960.09992 1.75453e-17
3961.57271 1.75421e-17
3963.03549 1.77315e-17
3964.50828 1.76082e-17
3965.98107 1.72008e-17
3967.45387 1.69618e-17
3968.91664 1.70109e-17
3970.38943 1.75852e-17
3971.86223 1.80967e-17
3973.33502 1.77028e-17
3974.79779 1.64761e-17
3976.27059 1.54509e-17
3977.74338 1.58793e-17
3979.20615 1.70665e-17
3980.67895 1.75410e-17
3982.15174 1.73999e-17
3983.62453 1.72712e-17
3985.08731 1.72810e-17
3986.56010 1.72888e-17
3988.03289 1.71859e-17
3989.49567 1.70773e-17
3990.96846 1.70342e-17
3992.44125 1.67658e-17
3993.91405 1.67110e-17
3995.37682 1.72116e-17
3996.84961 1.74469e-17
3998.32241 1.69769e-17
3999.79520 1.63658e-17
4001.25797 1.64000e-17
4002.73077 1.64911e-17
4004.20356 1.63478e-17
4005.66633 1.63214e-17
4007.13913 1.63834e-17
4008.61192 1.61792e-17
4010.08471 1.60503e-17
4011.54749 1.59803e-17
4013.02028 1.59420e-17
4014.49307 1.59217e-17
4015.95585 1.59341e-17
4017.42864 1.60090e-17
4018.90143 1.61075e-17
4020.37423 1.58209e-17
4021.83700 1.49889e-17
4023.30979 1.53382e-17
4024.78258 1.58890e-17
4026.24536 1.56213e-17
4027.71815 1.52591e-17
4029.19095 1.49082e-17
4030.66374 1.48521e-17
4032.12651 1.47846e-17
4033.59930 1.50048e-17
4035.07210 1.51969e-17
4036.54489 1.47751e-17
4038.00767 1.44587e-17
4039.48046 1.43669e-17
4040.95325 1.44552e-17
4042.41602 1.44718e-17
4043.88882 1.40301e-17
4045.36161 1.37810e-17
4046.83440 1.36908e-17
4048.29718 1.37657e-17
4049.76997 1.40032e-17
4051.24276 1.40309e-17
4052.70554 1.37687e-17
4054.17833 1.32904e-17
4055.65112 1.33641e-17
4057.12392 1.35010e-17
4058.58669 1.35319e-17
4060.05948 1.36986e-17
4061.53228 1.35381e-17
4063.00507 1.30542e-17
4064.46784 1.28132e-17
4065.94064 1.29670e-17
4067.41343 1.33068e-17
4068.87620 1.33356e-17
4070.34900 1.30199e-17
4071.82179 1.30307e-17
4073.29458 1.29830e-17
4074.75736 1.26047e-17
4076.23015 1.25663e-17
4077.70294 1.25795e-17
4079.16572 1.25582e-17
4080.63851 1.24299e-17
4082.11130 1.21794e-17
4083.58410 1.22481e-17
4085.04687 1.23936e-17
4086.51966 1.23059e-17
4087.99246 1.19677e-17
4089.45523 1.17754e-17
4090.92802 1.19241e-17
4092.40082 1.22178e-17
4093.87361 1.21283e-17
4095.33638 1.17286e-17
4096.80918 1.18213e-17
4098.28197 1.20108e-17
4099.75476 1.17721e-17
4101.21754 1.14453e-17
4102.69033 1.15043e-17
4104.16312 1.17068e-17
4105.62590 1.18312e-17
4107.09869 1.17202e-17
4108.57148 1.14726e-17
4110.04428 1.13426e-17
4111.50705 1.13911e-17
4112.97984 1.15388e-17
4114.45263 1.15876e-17
4115.91541 1.13632e-17
4117.38820 1.10502e-17
4118.86100 1.11164e-17
4120.33379 1.14150e-17
4121.79656 1.13882e-17
4123.26935 1.10627e-17
4124.74215 1.07450e-17
4126.21494 1.05120e-17
4127.67772 1.07210e-17
4129.15051 1.08352e-17
4130.62330 1.07640e-17
4132.08608 1.08669e-17
4133.55887 1.08429e-17
4135.03166 1.04894e-17
4136.50445 1.04446e-17
4137.96723 1.03166e-17
4139.44002 1.02448e-17
4140.91281 1.03173e-17
4142.37559 1.05272e-17
4143.84838 1.05588e-17
4145.32117 1.03759e-17
4146.79397 1.02839e-17
4148.25674 1.01263e-17
4149.72953 9.83219e-18
4151.20233 9.74117e-18
4152.66510 9.94042e-18
4154.13789 9.98684e-18
4155.61069 1.01436e-17
4157.08348 1.01491e-17
4158.54625 9.89000e-18
4160.01905 9.93159e-18
4161.49184 9.83741e-18
4162.96463 9.84499e-18
4164.42741 1.02571e-17
4165.90020 1.01609e-17
4167.37299 1.01806e-17
4168.83577 1.01673e-17
4170.30856 9.73568e-18
4171.78135 9.80149e-18
4173.25415 9.87586e-18
4174.71692 1.00830e-17
4176.18971 1.02347e-17
4177.66251 1.01847e-17
4179.12528 1.01446e-17
4180.59807 1.02007e-17
4182.07087 1.00951e-17
4183.54366 9.99633e-18
4185.00643 1.03036e-17
4186.47923 1.05036e-17
4187.95202 1.03240e-17
4189.42481 1.01175e-17
4190.88759 1.02607e-17
4192.36038 1.05370e-17
4193.83317 1.05439e-17
4195.29595 1.06920e-17
4196.76874 1.09094e-17
4198.24153 1.07780e-17
4199.71432 1.08318e-17
4201.17710 1.08898e-17
4202.64989 1.08103e-17
4204.12268 1.10311e-17
4205.58546 1.10505e-17
4207.05825 1.09674e-17
4208.53105 1.10912e-17
4210.00384 1.11355e-17
4211.46661 1.11088e-17
4212.93941 1.11336e-17
4214.41220 1.10813e-17
4215.88499 1.11188e-17
4217.34777 1.12994e-17
4218.82056 1.09848e-17
4220.29335 1.08890e-17
4221.75612 1.12763e-17
4223.22892 1.11568e-17
4224.70171 1.09994e-17
4226.17450 1.10840e-17
4227.63728 1.11995e-17
4229.11007 1.13350e-17
4230.58286 1.13743e-17
4232.04564 1.14997e-17
4233.51843 1.13616e-17
4234.99122 1.12646e-17
4236.46402 1.15347e-17
4237.92679 1.12710e-17
4239.39958 1.07971e-17
4240.87238 1.09736e-17
4242.33515 1.12396e-17
4243.80794 1.12016e-17
4245.28074 1.11867e-17
4246.75353 1.13935e-17
4248.21630 1.14004e-17
4249.68910 1.13650e-17
4251.16189 1.14265e-17
4252.63468 1.13487e-17
4254.09746 1.11598e-17
4255.57025 1.11962e-17
4257.04304 1.14169e-17
4258.50582 1.15164e-17
4259.97861 1.16092e-17
4261.45140 1.15481e-17
4262.92420 1.16158e-17
4264.38697 1.15232e-17
4265.85976 1.11868e-17
4267.33256 1.13941e-17
4268.79533 1.14896e-17
4270.26812 1.17162e-17
4271.74092 1.19174e-17
4273.21371 1.14106e-17
4274.67648 1.16527e-17
4276.14928 1.20179e-17
4277.62207 1.18752e-17
4279.09486 1.16563e-17
4280.55764 1.15259e-17
4282.03043 1.15831e-17
4283.50322 1.15396e-17
4284.96600 1.15487e-17
4286.43879 1.14325e-17
4287.91158 1.15893e-17
4289.38437 1.16650e-17
4290.84715 1.13733e-17
4292.31994 1.11769e-17
4293.79273 1.12361e-17
4295.25551 1.12286e-17
4296.72830 1.13165e-17
4298.20110 1.15188e-17
4299.67389 1.12628e-17
4301.13666 1.12214e-17
4302.60945 1.12177e-17
4304.08225 1.10126e-17
4305.54502 1.12359e-17
4307.01782 1.13585e-17
4308.49061 1.11132e-17
4309.96340 1.11742e-17
4311.42617 1.11021e-17
4312.89897 1.06952e-17
4314.37176 1.06417e-17
4315.84455 1.10070e-17
4317.30733 1.09144e-17
4318.78012 1.07418e-17
4320.25291 1.08847e-17
4321.71569 1.08106e-17
4323.18848 1.06728e-17
4324.66127 1.06125e-17
4326.13407 1.07429e-17
4327.59684 1.06568e-17
4329.06963 1.04465e-17
4330.54243 1.02550e-17
4332.00520 1.04155e-17
4333.47799 1.05382e-17
4334.95079 1.03140e-17
4336.42358 9.85650e-18
4337.88635 9.97449e-18
4339.35915 1.03259e-17
4340.83194 1.03265e-17
4342.30473 1.01383e-17
4343.76751 1.00260e-17
4345.24030 1.00744e-17
4346.71309 9.86691e-18
4348.17587 9.83310e-18
4349.64866 9.92287e-18
4351.12145 9.84377e-18
4352.59425 9.69469e-18
4354.05702 9.70003e-18
4355.52981 9.70536e-18
4357.00261 9.71069e-18
4358.47540 9.71603e-18
4359.93817 9.72136e-18
4361.41097 9.72669e-18
4362.88376 9.73202e-18
4364.34653 9.73735e-18
4365.81933 9.74268e-18
4367.29212 9.74801e-18
4368.76491 9.75334e-18
4370.22769 9.75867e-18
4371.70048 9.76400e-18
4373.17327 9.76933e-18
4374.63605 9.77466e-18
4376.10884 9.77999e-18
4377.58163 9.78532e-18
4379.05443 9.79064e-18
4380.51720 9.79597e-18
4381.98999 9.80129e-18
4383.46278 9.80662e-18
4384.92556 9.81194e-18
4386.39835 9.81727e-18
4387.87115 9.82259e-18
4389.34394 9.82791e-18
4390.80671 9.83324e-18
4392.27950 9.66175e-18
4393.75230 9.85929e-18
4395.22509 9.98923e-18
4396.68787 9.90995e-18
4398.16066 9.97893e-18
4399.63345 1.01152e-17
4401.09623 1.02329e-17
4402.56902 1.02665e-17
4404.04181 1.04787e-17
4405.51460 1.04844e-17
4406.97738 1.03686e-17
4408.45017 1.04886e-17
4409.92296 1.06705e-17
4411.38574 1.08092e-17
4412.85853 1.08239e-17
4414.33132 1.05736e-17
4415.80412 1.05483e-17
4417.26689 1.05796e-17
4418.73968 1.05251e-17
4420.21248 1.07024e-17
4421.67525 1.09117e-17
4423.14804 1.09663e-17
4424.62084 1.09831e-17
4426.09363 1.09426e-17
4427.55640 1.09044e-17
4429.02920 1.09160e-17
4430.50199 1.11090e-17
4431.97478 1.11433e-17
4433.43756 1.12380e-17
4434.91035 1.14921e-17
4436.38314 1.12102e-17
4437.84592 1.09113e-17
4439.31871 1.11319e-17
4440.79150 1.13699e-17
4442.26430 1.14693e-17
4443.72707 1.16745e-17
4445.19986 1.15827e-17
4446.67266 1.14662e-17
4448.14545 1.15383e-17
4449.60822 1.15455e-17
4451.08102 1.14260e-17
4452.55381 1.15682e-17
4454.01658 1.18481e-17
4455.48938 1.20014e-17
4456.96217 1.22142e-17
4458.43496 1.20191e-17
4459.89774 1.20653e-17
4461.37053 1.24203e-17
4462.84332 1.25136e-17
4464.30610 1.24745e-17
4465.77889 1.24023e-17
4467.25168 1.23785e-17
4468.72447 1.24818e-17
4470.18725 1.27051e-17
4471.66004 1.25454e-17
4473.13283 1.23716e-17
4474.59561 1.26839e-17
4476.06840 1.29119e-17
4477.54119 1.26924e-17
4479.01399 1.27000e-17
4480.47676 1.28315e-17
4481.94956 1.30296e-17
4483.42235 1.32933e-17
4484.89514 1.33225e-17
4486.35792 1.34364e-17
4487.83071 1.34517e-17
4489.30350 1.32612e-17
4490.76627 1.31891e-17
4492.23907 1.31761e-17
4493.71186 1.33396e-17
4495.18465 1.36183e-17
4496.64743 1.38732e-17
4498.12022 1.36080e-17
4499.59301 1.34704e-17
4501.05579 1.36428e-17
4502.52858 1.36790e-17
4504.00137 1.37944e-17
4505.47417 1.38317e-17
4506.93694 1.39948e-17
4508.40973 1.41800e-17
4509.88253 1.41544e-17
4511.34530 1.40882e-17
4512.81809 1.41966e-17
4514.29089 1.41809e-17
4515.76368 1.42039e-17
4517.22645 1.43397e-17
4518.69925 1.44132e-17
4520.17204 1.43586e-17
4521.64483 1.43205e-17
4523.10761 1.43913e-17
4524.58040 1.43705e-17
4526.05319 1.43919e-17
4527.51597 1.44730e-17
4528.98876 1.43803e-17
4530.46155 1.44174e-17
4531.93435 1.46509e-17
4533.39712 1.45244e-17
4534.86991 1.43299e-17
4536.34271 1.43938e-17
4537.80548 1.47135e-17
4539.27827 1.50264e-17
4540.75107 1.50031e-17
4542.22386 1.47913e-17
4543.68663 1.47097e-17
4545.15943 1.49121e-17
4546.63222 1.49923e-17
4548.10501 1.48986e-17
4549.56779 1.50586e-17
4551.04058 1.51601e-17
4552.51337 1.49111e-17
4553.97615 1.47283e-17
4555.44894 1.47293e-17
4556.92173 1.48338e-17
4558.39452 1.48025e-17
4559.85730 1.48461e-17
4561.33009 1.50577e-17
4562.80289 1.50991e-17
4564.26566 1.49514e-17
4565.73845 1.47419e-17
4567.21125 1.46559e-17
4568.68404 1.45777e-17
4570.14681 1.45734e-17
4571.61960 1.46076e-17
4573.09240 1.46554e-17
4574.56519 1.46708e-17
4576.02797 1.46582e-17
4577.50076 1.46171e-17
4578.97355 1.44651e-17
4580.43632 1.43817e-17
4581.90912 1.43477e-17
4583.38191 1.42708e-17
4584.85470 1.42039e-17
4586.31748 1.40833e-17
4587.79027 1.41065e-17
4589.26306 1.40289e-17
4590.72584 1.39950e-17
4592.19863 1.39951e-17
4593.67142 1.39220e-17
4595.14422 1.38268e-17
4596.60699 1.38318e-17
4598.07978 1.36140e-17
4599.55258 1.35174e-17
4601.01535 1.35396e-17
4602.48814 1.32666e-17
4603.96094 1.31455e-17
4605.43373 1.32324e-17
4606.89650 1.30905e-17
4608.36930 1.28823e-17
4609.84209 1.29322e-17
4611.31488 1.28721e-17
4612.77766 1.29450e-17
4614.25045 1.28577e-17
4615.72324 1.27470e-17
4617.18602 1.26238e-17
4618.65881 1.23331e-17
4620.13160 1.20427e-17
4621.60440 1.19949e-17
4623.06717 1.20928e-17
4624.53996 1.19225e-17
4626.01276 1.19299e-17
4627.47553 1.17597e-17
4628.94832 1.15508e-17
4630.42112 1.13118e-17
4631.89391 1.11964e-17
4633.35668 1.11374e-17
4634.82948 1.09846e-17
4636.30227 1.08306e-17
4637.77506 1.07551e-17
4639.23784 1.07638e-17
4640.71063 1.06049e-17
4642.18342 1.03971e-17
4643.64620 1.03725e-17
4645.11899 1.02975e-17
4646.59178 1.02946e-17
4648.06458 1.00983e-17
4649.52735 9.99006e-18
4651.00014 1.00011e-17
4652.47293 1.00519e-17
4653.93571 1.00885e-17
4655.40850 1.00049e-17
4656.88130 1.00627e-17
4658.35409 9.94823e-18
4659.81686 9.87053e-18
4661.28965 9.73668e-18
4662.76245 9.61802e-18
4664.22522 9.77028e-18
4665.69802 9.95725e-18
4667.17081 1.00186e-17
4668.64360 1.02104e-17
4670.10638 1.02860e-17
4671.57917 1.02845e-17
4673.05196 1.02670e-17
4674.52475 1.00373e-17
4675.98753 1.00780e-17
4677.46032 1.00530e-17
4678.93311 9.90440e-18
4680.39589 9.90037e-18
4681.86868 1.00387e-17
4683.34147 1.00520e-17
4684.81427 1.00977e-17
4686.27704 1.02458e-17
4687.74983 1.02385e-17
4689.22263 1.02142e-17
4690.68540 1.04309e-17
4692.15819 1.04302e-17
4693.63099 1.02965e-17
4695.10378 1.03725e-17
4696.56655 1.03962e-17
4698.03935 1.03805e-17
4699.51214 1.05018e-17
4700.98493 1.06890e-17
4702.44771 1.07461e-17
4703.92050 1.07660e-17
4705.39329 1.06157e-17
4706.85607 1.05482e-17
4708.32886 1.05933e-17
4709.80165 1.07197e-17
4711.27445 1.04967e-17
4712.73722 1.04600e-17
4714.21001 1.04609e-17
4715.68281 1.04130e-17
4717.14558 1.05746e-17
4718.61837 1.06114e-17
4720.09117 1.06545e-17
4721.56396 1.05438e-17
4723.02673 1.04229e-17
4724.49953 1.04516e-17
4725.97232 1.02574e-17
4727.44511 1.01272e-17
4728.90789 1.01637e-17
4730.38068 1.01410e-17
4731.85347 1.01035e-17
4733.31625 1.03247e-17
4734.78904 1.01643e-17
4736.26183 1.00448e-17
4737.73463 1.01401e-17
4739.19740 1.00704e-17
4740.67019 1.01868e-17
4742.14298 1.00910e-17
4743.60576 1.00296e-17
4745.07855 9.93687e-18
4746.55134 9.93657e-18
4748.02414 9.84617e-18
4749.48691 9.74275e-18
4750.95971 9.83772e-18
4752.43250 9.83415e-18
4753.89527 9.74791e-18
4755.36807 9.78160e-18
4756.84086 9.82218e-18
4758.31365 9.86303e-18
4759.77643 9.87119e-18
4761.24922 9.76603e-18
4762.72201 9.65872e-18
4764.19480 9.52904e-18
4765.65758 9.56068e-18
4767.13037 9.57195e-18
4768.60316 9.66368e-18
4770.06594 9.71158e-18
4771.53873 9.68973e-18
4773.01152 9.66510e-18
4774.48432 9.66091e-18
4775.94709 9.59368e-18
4777.41988 9.63292e-18
4778.89268 9.72127e-18
4780.35545 9.72818e-18
4781.82824 9.62522e-18
4783.30104 9.55188e-18
4784.77383 9.47002e-18
4786.23660 9.57230e-18
4787.70940 9.57552e-18
4789.18219 9.53017e-18
4790.64496 9.71007e-18
4792.11776 9.80544e-18
4793.59055 9.77377e-18
4795.06334 9.83982e-18
4796.52612 9.74733e-18
4797.99891 9.79633e-18
4799.47170 9.91712e-18
4800.94450 9.79657e-18
4802.40727 9.76645e-18
4803.88006 9.85322e-18
4805.35286 9.78492e-18
4806.81563 9.86782e-18
4808.28842 9.91970e-18
4809.76122 9.78406e-18
4811.23401 9.71057e-18
4812.69678 9.67257e-18
4814.16958 9.51064e-18
4815.64237 9.39641e-18
4817.11516 9.39327e-18
4818.57794 9.57264e-18
4820.05073 9.63673e-18
4821.52352 9.70038e-18
4822.98630 9.80918e-18
4824.45909 9.86761e-18
4825.93188 9.85824e-18
4827.40467 9.69048e-18
4828.86745 9.64478e-18
4830.34024 9.58599e-18
4831.81304 9.65113e-18
4833.27581 9.86094e-18
4834.74860 9.97550e-18
4836.22140 9.96254e-18
4837.69419 1.00996e-17
4839.15696 1.01080e-17
4840.62975 1.01695e-17
4842.10255 1.02489e-17
4843.56532 1.02991e-17
4845.03812 1.01561e-17
4846.51091 1.00792e-17
4847.98370 1.01478e-17
4849.44647 1.03505e-17
4850.91927 1.03104e-17
4852.39206 1.01737e-17
4853.86485 1.02248e-17
4855.32763 1.02760e-17
4856.80042 1.03272e-17
4858.27321 1.03784e-17
4859.73599 1.04295e-17
4861.20878 1.04807e-17
4862.68157 1.05319e-17
4864.15437 1.05830e-17
4865.61714 1.06342e-17
4867.08993 1.06853e-17
4868.56273 1.07365e-17
4870.02550 1.07876e-17
4871.49829 1.08388e-17
4872.97109 1.08899e-17
4874.44388 1.09410e-17
4875.90665 1.09922e-17
4877.37945 1.10433e-17
4878.85224 1.10944e-17
4880.31501 1.11456e-17
4881.78781 1.11967e-17
4883.26060 1.12478e-17
4884.73339 1.12989e-17
4886.19617 1.13500e-17
4887.66896 1.14012e-17
4889.14175 1.14523e-17
4890.61455 1.14149e-17
4892.07732 1.13689e-17
4893.55011 1.13390e-17
4895.02291 1.13422e-17
4896.48568 1.14155e-17
4897.95847 1.14464e-17
4899.43127 1.16219e-17
4900.90406 1.17306e-17
4902.36683 1.16633e-17
4903.83963 1.17580e-17
4905.31242 1.17619e-17
4906.77519 1.17317e-17
4908.24799 1.16775e-17
4909.72078 1.18210e-17
4911.19357 1.18607e-17
4912.65635 1.18482e-17
4914.12914 1.19427e-17
4915.60193 1.19659e-17
4917.07473 1.19662e-17
4918.53750 1.20345e-17
4920.01029 1.19423e-17
4921.48308 1.20246e-17
4922.94586 1.20367e-17
4924.41865 1.18297e-17
4925.89145 1.16766e-17
4927.36424 1.17530e-17
4928.82701 1.16998e-17
4930.29980 1.16553e-17
4931.77260 1.16511e-17
4933.24539 1.14873e-17
4934.70817 1.13832e-17
4936.18096 1.14518e-17
4937.65375 1.14564e-17
4939.11653 1.14912e-17
4940.58932 1.13497e-17
4942.06211 1.12747e-17
4943.53490 1.12669e-17
4944.99768 1.13986e-17
4946.47047 1.12747e-17
4947.94326 1.11351e-17
4949.40604 1.11880e-17
4950.87883 1.11614e-17
4952.35162 1.11347e-17
4953.82442 1.11081e-17
4955.28719 1.10814e-17
4956.75998 1.10548e-17
4958.23278 1.10281e-17
4959.69555 1.10015e-17
4961.16834 1.09749e-17
4962.64114 1.09482e-17
4964.11393 1.09216e-17
4965.57670 1.08949e-17
4967.04950 1.08683e-17
4968.52229 1.08417e-17
4969.99508 1.08150e-17
4971.45786 1.07884e-17
4972.93065 1.07618e-17
4974.40344 1.07352e-17
4975.86622 1.07085e-17
4977.33901 1.06819e-17
4978.81180 1.06553e-17
4980.28460 1.06287e-17
4981.74737 1.06021e-17
4983.22016 1.05754e-17
4984.69296 1.05488e-17
4986.15573 1.05222e-17
4987.62852 1.04956e-17
4989.10132 1.04783e-17
4990.57411 1.04224e-17
4992.03688 1.05332e-17
4993.50968 1.04604e-17
4994.98247 1.05487e-17
4996.45526 1.06598e-17
4997.91804 1.05845e-17
4999.39083 1.06054e-17
5000.86362 1.06264e-17
5002.32640 1.06473e-17
5003.79919 1.06682e-17
5005.27198 1.06891e-17
5006.74478 1.07100e-17
5008.20755 1.07309e-17
5009.68034 1.07519e-17
5011.15313 1.07728e-17
5012.61591 1.07937e-17
5014.08870 1.08146e-17
5015.56149 1.08355e-17
5017.03429 1.08564e-17
5018.49706 1.08773e-17
5019.96986 1.08982e-17
5021.44265 1.09191e-17
5022.90542 1.09401e-17
5024.37822 1.09610e-17
5025.85101 1.09819e-17
5027.32380 1.10028e-17
5028.78658 1.10237e-17
5030.25937 1.10446e-17
5031.73216 1.10655e-17
5033.20495 1.10864e-17
5034.66773 1.11073e-17
5036.14052 1.12116e-17
5037.61331 1.13691e-17
5039.07609 1.13553e-17
5040.54888 1.12296e-17
5042.02167 1.12320e-17
5043.49447 1.12408e-17
5044.95724 1.12577e-17
5046.43003 1.12422e-17
5047.90283 1.13708e-17
5049.36560 1.14624e-17
5050.83839 1.15352e-17
5052.31119 1.15992e-17
5053.78398 1.16525e-17
5055.24675 1.17238e-17
5056.71955 1.17724e-17
5058.19234 1.18013e-17
5059.66513 1.17153e-17
5061.12791 1.17922e-17
5062.60070 1.17956e-17
5064.07349 1.18460e-17
5065.53627 1.19144e-17
5067.00906 1.19663e-17
5068.48185 1.19904e-17
5069.95465 1.21388e-17
5071.41742 1.19526e-17
5072.89021 1.20113e-17
5074.36301 1.21074e-17
5075.82578 1.20605e-17
5077.29857 1.20239e-17
5078.77137 1.19719e-17
5080.24416 1.19343e-17
5081.70693 1.20243e-17
5083.17973 1.21048e-17
5084.65252 1.19933e-17
5086.12531 1.19431e-17
5087.58809 1.20901e-17
5089.06088 1.21096e-17
5090.53367 1.22258e-17
5091.99645 1.22158e-17
5093.46924 1.23013e-17
5094.94203 1.23273e-17
5096.41482 1.22590e-17
5097.87760 1.21692e-17
5099.35039 1.21811e-17
5100.82318 1.23357e-17
5102.28596 1.23693e-17
5103.75875 1.23774e-17
5105.23155 1.23732e-17
5106.70434 1.24211e-17
5108.16711 1.24727e-17
5109.63990 1.24950e-17
5111.11270 1.23308e-17
5112.57547 1.24222e-17
5114.04827 1.24394e-17
5115.52106 1.26449e-17
5116.99385 1.27496e-17
5118.45662 1.26106e-17
5119.92942 1.24816e-17
5121.40221 1.25347e-17
5122.87500 1.25694e-17
5124.33778 1.26071e-17
5125.81057 1.25856e-17
5127.28336 1.26810e-17
5128.74614 1.27189e-17
5130.21893 1.26720e-17
5131.69172 1.26969e-17
5133.16452 1.27529e-17
5134.62729 1.28006e-17
5136.10008 1.28982e-17
5137.57288 1.28164e-17
5139.03565 1.26126e-17
5140.50844 1.27585e-17
5141.98124 1.30303e-17
5143.45403 1.31450e-17
5144.91680 1.31201e-17
5146.38960 1.31064e-17
5147.86239 1.30251e-17
5149.32516 1.31065e-17
5150.79796 1.30855e-17
5152.27075 1.29147e-17
5153.74354 1.29478e-17
5155.20632 1.31354e-17
5156.67911 1.32712e-17
5158.15190 1.32392e-17
5159.62470 1.31699e-17
5161.08747 1.32111e-17
5162.56026 1.31597e-17
5164.03306 1.31813e-17
5165.49583 1.31807e-17
5166.96862 1.30844e-17
5168.44142 1.31344e-17
5169.91421 1.32816e-17
5171.37698 1.33650e-17
5172.84978 1.33367e-17
5174.32257 1.32833e-17
5175.79536 1.35287e-17
5177.25814 1.36272e-17
5178.73093 1.34882e-17
5180.20372 1.35211e-17
5181.66650 1.36680e-17
5183.13929 1.37356e-17
5184.61208 1.36549e-17
5186.08488 1.36511e-17
5187.54765 1.36273e-17
5189.02044 1.38045e-17
5190.49323 1.38084e-17
5191.95601 1.37501e-17
5193.42880 1.39293e-17
5194.90160 1.40218e-17
5196.37439 1.39935e-17
5197.83716 1.40087e-17
5199.30995 1.39987e-17
5200.78275 1.40156e-17
5202.24552 1.41607e-17
5203.71832 1.41180e-17
5205.19111 1.39898e-17
5206.66390 1.39863e-17
5208.12668 1.39506e-17
5209.59947 1.40986e-17
5211.07226 1.43316e-17
5212.54505 1.44872e-17
5214.00783 1.43925e-17
5215.48062 1.42921e-17
5216.95341 1.42988e-17
5218.41619 1.42182e-17
5219.88898 1.40713e-17
5221.36177 1.41373e-17
5222.83457 1.41319e-17
5224.29734 1.41941e-17
5225.77013 1.42614e-17
5227.24293 1.42538e-17
5228.70570 1.41691e-17
5230.17849 1.42358e-17
5231.65129 1.42659e-17
5233.12408 1.43387e-17
5234.58685 1.43557e-17
5236.05965 1.42534e-17
5237.53244 1.44112e-17
5238.99521 1.45335e-17
5240.46801 1.44764e-17
5241.94080 1.44221e-17
5243.41359 1.44876e-17
5244.87637 1.44525e-17
5246.34916 1.44612e-17
5247.82195 1.45594e-17
5249.29475 1.45629e-17
5250.75752 1.44816e-17
5252.23031 1.46348e-17
5253.70311 1.47004e-17
5255.16588 1.47145e-17
5256.63867 1.47061e-17
5258.11147 1.45226e-17
5259.58426 1.45865e-17
5261.04703 1.47745e-17
5262.51983 1.46781e-17
5263.99262 1.47178e-17
5265.45539 1.46590e-17
5266.92819 1.46685e-17
5268.40098 1.48336e-17
5269.87377 1.48296e-17
5271.33655 1.48265e-17
5272.80934 1.47757e-17
5274.28213 1.47896e-17
5275.75493 1.48196e-17
5277.21770 1.48637e-17
5278.69049 1.48082e-17
5280.16328 1.47090e-17
5281.62606 1.47390e-17
5283.09885 1.48900e-17
5284.57164 1.49473e-17
5286.04444 1.47737e-17
5287.50721 1.46487e-17
5288.98000 1.46064e-17
5290.45280 1.46165e-17
5291.91557 1.46960e-17
5293.38837 1.46486e-17
5294.86116 1.46454e-17
5296.33395 1.46509e-17
5297.79673 1.45488e-17
5299.26952 1.45025e-17
5300.74231 1.45224e-17
5302.21510 1.45729e-17
5303.67788 1.46074e-17
5305.15067 1.45977e-17
5306.62346 1.44046e-17
5308.08624 1.43538e-17
5309.55903 1.43429e-17
5311.03182 1.42991e-17
5312.50462 1.43007e-17
5313.96739 1.42424e-17
5315.44018 1.42901e-17
5316.91298 1.43551e-17
5318.37575 1.43270e-17
5319.84854 1.41392e-17
5321.32134 1.40353e-17
5322.79413 1.42552e-17
5324.25690 1.41741e-17
5325.72970 1.39515e-17
5327.20249 1.39734e-17
5328.66526 1.39800e-17
5330.13806 1.40934e-17
5331.61085 1.41577e-17
5333.08364 1.41670e-17
5334.54642 1.39985e-17
5336.01921 1.39730e-17
5337.49200 1.39605e-17
5338.96480 1.38480e-17
5340.42757 1.38446e-17
5341.90036 1.38122e-17
5343.37316 1.39202e-17
5344.83593 1.40240e-17
5346.30872 1.39501e-17
5347.78152 1.38507e-17
5349.25431 1.37895e-17
5350.71708 1.39007e-17
5352.18988 1.39312e-17
5353.66267 1.39749e-17
5355.12544 1.39338e-17
5356.59824 1.38951e-17
5358.07103 1.38610e-17
5359.54382 1.38040e-17
5361.00660 1.38088e-17
5362.47939 1.38222e-17
5363.95218 1.36745e-17
5365.42497 1.37093e-17
5366.88775 1.38083e-17
5368.36054 1.38880e-17
5369.83333 1.38816e-17
5371.29611 1.37270e-17
5372.76890 1.37144e-17
5374.24170 1.36980e-17
5375.71449 1.38740e-17
5377.17726 1.37228e-17
5378.65006 1.36853e-17
5380.12285 1.38128e-17
5381.58562 1.36959e-17
5383.05842 1.34842e-17
5384.53121 1.35538e-17
5386.00400 1.36674e-17
5387.46677 1.35545e-17
5388.93957 1.37282e-17
5390.41236 1.36732e-17
5391.87513 1.35590e-17
5393.34793 1.35700e-17
5394.82072 1.35530e-17
5396.29351 1.35408e-17
5397.75629 1.37704e-17
5399.22908 1.36651e-17
5400.70187 1.35514e-17
5402.17467 1.34559e-17
5403.63744 1.35570e-17
5405.11023 1.35646e-17
5406.58303 1.34225e-17
5408.04580 1.34020e-17
5409.51859 1.34714e-17
5410.99139 1.35852e-17
5412.46418 1.34976e-17
5413.92695 1.34643e-17
5415.39975 1.33268e-17
5416.87254 1.34324e-17
5418.33531 1.34412e-17
5419.80811 1.35169e-17
5421.28090 1.35476e-17
5422.75369 1.33933e-17
5424.21647 1.33570e-17
5425.68926 1.35354e-17
5427.16205 1.35058e-17
5428.63485 1.35539e-17
5430.09762 1.33226e-17
5431.57041 1.32528e-17
5433.04321 1.32042e-17
5434.50598 1.33999e-17
5435.97877 1.35119e-17
5437.45157 1.35143e-17
5438.92436 1.32424e-17
5440.38713 1.33064e-17
5441.85993 1.32298e-17
5443.33272 1.32563e-17
5444.79549 1.31619e-17
5446.26829 1.30755e-17
5447.74108 1.30207e-17
5449.21387 1.30479e-17
5450.67665 1.29564e-17
5452.14944 1.30471e-17
5453.62223 1.30576e-17
5455.09502 1.27375e-17
5456.55780 1.25925e-17
5458.03059 1.27037e-17
5459.50338 1.27791e-17
5460.96616 1.27566e-17
5462.43895 1.26839e-17
5463.91175 1.28103e-17
5465.38454 1.27910e-17
5466.84731 1.26801e-17
5468.32010 1.26254e-17
5469.79290 1.24947e-17
5471.25567 1.25323e-17
5472.72847 1.26862e-17
5474.20126 1.27233e-17
5475.67405 1.26348e-17
5477.13683 1.25880e-17
5478.60962 1.24775e-17
5480.08241 1.24220e-17
5481.54518 1.24620e-17
5483.01798 1.24546e-17
5484.49077 1.22589e-17
5485.96356 1.24038e-17
5487.42634 1.22848e-17
5488.89913 1.23382e-17
5490.37192 1.23082e-17
5491.84472 1.21940e-17
5493.30749 1.20931e-17
5494.78028 1.22046e-17
5496.25308 1.22782e-17
5497.71585 1.22577e-17
5499.18864 1.23036e-17
5500.66144 1.22235e-17
5502.13423 1.23213e-17
5503.59700 1.22805e-17
5505.06980 1.22863e-17
5506.54259 1.22593e-17
5508.00536 1.21690e-17
5509.47816 1.21309e-17
5510.95095 1.20812e-17
5512.42374 1.20747e-17
5513.88652 1.19036e-17
5515.35931 1.19037e-17
5516.83210 1.18879e-17
5518.29488 1.18301e-17
5519.76767 1.17876e-17
5521.24046 1.18657e-17
5522.71326 1.18654e-17
5524.17603 1.17757e-17
5525.64882 1.17357e-17
5527.12162 1.17014e-17
5528.59441 1.17379e-17
5530.05718 1.17794e-17
5531.52998 1.17898e-17
5533.00277 1.17206e-17
5534.47556 1.17980e-17
5535.93834 1.17785e-17
5537.41113 1.17049e-17
5538.88392 1.16430e-17
5540.34670 1.16871e-17
5541.81949 1.17849e-17
5543.29228 1.17727e-17
5544.76508 1.16904e-17
5546.22785 1.16214e-17
5547.70064 1.16171e-17
5549.17343 1.16204e-17
5550.63621 1.16000e-17
5552.10900 1.15748e-17
5553.58180 1.16042e-17
5555.05459 1.15515e-17
5556.51736 1.15091e-17
5557.99015 1.15097e-17
5559.46295 1.16443e-17
5560.92572 1.15805e-17
5562.39852 1.14626e-17
5563.87131 1.16650e-17
5565.34410 1.18164e-17
5566.80688 1.18111e-17
5568.27967 1.17632e-17
5569.75246 1.18005e-17
5571.22525 1.18345e-17
5572.68803 1.17942e-17
5574.16082 1.17994e-17
5575.63361 1.17078e-17
5577.09639 1.15329e-17
5578.56918 1.14901e-17
5580.04197 1.15702e-17
5581.51477 1.16413e-17
5582.97754 1.15726e-17
5584.45033 1.14943e-17
5585.92313 1.15316e-17
5587.38590 1.14908e-17
5588.85869 1.13267e-17
5590.33149 1.11824e-17
5591.80428 1.12081e-17
5593.26705 1.12970e-17
5594.73985 1.13477e-17
5596.21264 1.13436e-17
5597.67541 1.14208e-17
5599.14821 1.15347e-17
5600.62100 1.14736e-17
5602.09379 1.14094e-17
5603.55657 1.13284e-17
5605.02936 1.13160e-17
5606.50215 1.13660e-17
5607.97495 1.13480e-17
5609.43772 1.13184e-17
5610.91051 1.12655e-17
5612.38331 1.11073e-17
5613.84608 1.10952e-17
5615.31887 1.10349e-17
5616.79167 1.10077e-17
5618.26446 1.09961e-17
5619.72723 1.11197e-17
5621.20003 1.10896e-17
5622.67282 1.09397e-17
5624.13559 1.09382e-17
5625.60839 1.08403e-17
5627.08118 1.07881e-17
5628.55397 1.08907e-17
5630.01675 1.08064e-17
5631.48954 1.08139e-17
5632.96233 1.06909e-17
5634.43512 1.05907e-17
5635.89790 1.05468e-17
5637.37069 1.03709e-17
5638.84348 1.01865e-17
5640.30626 1.02017e-17
5641.77905 1.01348e-17
5643.25185 1.01429e-17
5644.72464 1.01601e-17
5646.18741 1.01110e-17
5647.66021 1.00258e-17
5649.13300 9.97072e-18
5650.59577 9.89815e-18
5652.06857 9.66629e-18
5653.54136 9.57819e-18
5655.01415 9.51014e-18
5656.47692 9.38182e-18
5657.94972 9.30652e-18
5659.42251 9.44695e-18
5660.89530 9.52022e-18
5662.35808 9.36611e-18
5663.83087 9.21934e-18
5665.30366 9.21185e-18
5666.76644 9.11975e-18
5668.23923 9.00144e-18
5669.71202 8.98374e-18
5671.18482 9.10042e-18
5672.64759 9.02963e-18
5674.12038 8.91557e-18
5675.59318 8.88097e-18
5677.05595 8.88971e-18
5678.52874 8.79147e-18
5680.00154 8.76717e-18
5681.47433 8.69721e-18
5682.93710 8.80520e-18
5684.40990 9.00171e-18
5685.88269 8.97820e-18
5687.34546 8.82568e-18
5688.81826 8.81636e-18
5690.29105 8.94994e-18
5691.76384 8.88550e-18
5693.22662 8.88321e-18
5694.69941 8.85532e-18
5696.17220 8.75550e-18
5697.64500 8.86989e-18
5699.10777 9.05686e-18
5700.58056 9.16289e-18
5702.05336 9.11342e-18
5703.51613 9.10944e-18
5704.98892 9.22064e-18
5706.46172 9.28984e-18
5707.93451 9.28533e-18
5709.39728 9.34143e-18
5710.87008 9.39278e-18
5712.34287 9.76980e-18
5713.80564 9.86749e-18
5715.27844 9.68140e-18
5716.75123 9.74868e-18
5718.22402 9.83030e-18
5719.68680 1.00124e-17
5721.15959 1.00059e-17
5722.63238 1.00217e-17
5724.10517 1.00377e-17
5725.56795 1.02019e-17
5727.04074 1.03520e-17
5728.51354 1.03227e-17
5729.97631 1.05514e-17
5731.44910 1.06445e-17
5732.92190 1.05545e-17
5734.39469 1.04932e-17
5735.85746 1.06023e-17
5737.33025 1.06631e-17
5738.80305 1.07400e-17
5740.26582 1.09019e-17
5741.73862 1.11178e-17
5743.21141 1.10649e-17
5744.68420 1.11308e-17
5746.14697 1.13440e-17
5747.61977 1.14662e-17
5749.09256 1.15573e-17
5750.55534 1.17356e-17
5752.02813 1.19449e-17
5753.50092 1.20301e-17
5754.97371 1.21564e-17
5756.43649 1.23581e-17
5757.90928 1.24600e-17
5759.38207 1.25631e-17
5760.85487 1.25840e-17
5762.31764 1.25791e-17
5763.79043 1.26771e-17
5765.26323 1.28026e-17
5766.72600 1.28190e-17
5768.19879 1.28104e-17
5769.67159 1.28283e-17
5771.14438 1.29413e-17
5772.60715 1.30204e-17
5774.07995 1.29635e-17
5775.55274 1.29672e-17
5777.01551 1.30318e-17
5778.48831 1.31134e-17
5779.96110 1.30491e-17
5781.43389 1.30502e-17
5782.89667 1.29999e-17
5784.36946 1.28959e-17
5785.84225 1.29623e-17
5787.31505 1.29571e-17
5788.77782 1.28504e-17
5790.25061 1.27557e-17
5791.72341 1.26905e-17
5793.18618 1.26037e-17
5794.65897 1.25976e-17
5796.13177 1.27967e-17
5797.60456 1.29381e-17
5799.06733 1.29319e-17
5800.54013 1.29911e-17
5802.01292 1.28499e-17
5803.47569 1.27076e-17
5804.94849 1.28097e-17
5806.42128 1.28658e-17
5807.89407 1.28373e-17
5809.35685 1.27375e-17
5810.82964 1.27304e-17
5812.30243 1.28205e-17
5813.77523 1.28614e-17
5815.23800 1.29187e-17
5816.71079 1.29681e-17
5818.18358 1.29707e-17
5819.64636 1.30655e-17
5821.11915 1.30503e-17
5822.59195 1.29800e-17
5824.06474 1.30126e-17
5825.52751 1.31142e-17
5827.00030 1.31660e-17
5828.47310 1.31005e-17
5829.93587 1.30939e-17
5831.40867 1.29615e-17
5832.88146 1.30291e-17
5834.35425 1.30660e-17
5835.81703 1.30624e-17
5837.28982 1.31455e-17
5838.76261 1.31280e-17
5840.22538 1.29991e-17
5841.69818 1.29316e-17
5843.17097 1.28716e-17
5844.64376 1.28823e-17
5846.10654 1.30176e-17
5847.57933 1.29994e-17
5849.05212 1.30287e-17
5850.52492 1.30397e-17
5851.98769 1.29617e-17
5853.46048 1.29708e-17
5854.93328 1.30469e-17
5856.39605 1.30017e-17
5857.86884 1.30227e-17
5859.34164 1.28809e-17
5860.81443 1.28603e-17
5862.27720 1.29506e-17
5863.75000 1.29906e-17
5865.22279 1.28960e-17
5866.68556 1.28311e-17
5868.15836 1.28869e-17
5869.63115 1.28316e-17
5871.10394 1.28420e-17
5872.56672 1.26540e-17
5874.03951 1.25661e-17
5875.51230 1.25500e-17
5876.97508 1.24439e-17
5878.44787 1.24036e-17
5879.92066 1.24033e-17
5881.39346 1.24312e-17
5882.85623 1.22997e-17
5884.32902 1.23154e-17
5885.80182 1.23315e-17
5887.27461 1.21392e-17
5888.73738 1.18086e-17
5890.21018 1.17726e-17
5891.68297 1.16839e-17
5893.14574 1.15428e-17
5894.61854 1.13181e-17
5896.09133 1.11913e-17
5897.56412 1.11434e-17
5899.02690 1.08422e-17
5900.49969 1.02900e-17
5901.97248 1.00198e-17
5903.44528 1.02661e-17
5904.90805 1.07917e-17
5906.38084 1.06875e-17
5907.85363 1.04496e-17
5909.31641 1.07486e-17
5910.78920 1.12995e-17
5912.26199 1.15763e-17
5913.73479 1.16124e-17
5915.19756 1.17026e-17
5916.67036 1.15397e-17
5918.14315 1.14998e-17
5919.60592 1.15261e-17
5921.07872 1.14283e-17
5922.55151 1.13967e-17
5924.02430 1.13667e-17
5925.48708 1.13877e-17
5926.95987 1.15168e-17
5928.43266 1.14156e-17
5929.89543 1.13703e-17
5931.36823 1.13676e-17
5932.84102 1.11500e-17
5934.31381 1.10821e-17
5935.77659 1.11108e-17
5937.24938 1.12255e-17
5938.72217 1.12507e-17
5940.19497 1.12588e-17
5941.65774 1.12810e-17
5943.13053 1.11923e-17
5944.60333 1.11149e-17
5946.06610 1.12123e-17
5947.53889 1.12614e-17
5949.01169 1.11734e-17
5950.48448 1.09787e-17
5951.94725 1.10725e-17
5953.42005 1.11126e-17
5954.89284 1.09812e-17
5956.35561 1.10395e-17
5957.82841 1.09649e-17
5959.30120 1.09647e-17
5960.77399 1.08104e-17
5962.23677 1.09123e-17
5963.70956 1.09553e-17
5965.18235 1.10015e-17
5966.64513 1.09349e-17
5968.11792 1.08958e-17
5969.59071 1.08900e-17
5971.06351 1.09042e-17
5972.52628 1.08687e-17
5973.99907 1.08411e-17
5975.47187 1.08827e-17
5976.94466 1.09203e-17
5978.40743 1.09260e-17
5979.88023 1.08676e-17
5981.35302 1.07193e-17
5982.81579 1.06540e-17
5984.28859 1.08221e-17
5985.76138 1.08855e-17
5987.23417 1.07944e-17
5988.69695 1.07560e-17
5990.16974 1.07282e-17
5991.64253 1.07787e-17
5993.10531 1.08239e-17
5994.57810 1.07679e-17
5996.05089 1.07137e-17
5997.52369 1.06157e-17
5998.98646 1.04971e-17
6000.45925 1.04072e-17
6001.93205 1.05497e-17
6003.40484 1.06225e-17
6004.86761 1.05313e-17
6006.34040 1.04859e-17
6007.81320 1.04906e-17
6009.27597 1.04354e-17
6010.74877 1.03752e-17
6012.22156 1.03591e-17
6013.69435 1.03366e-17
6015.15712 1.02584e-17
6016.62992 1.02056e-17
6018.10271 1.02514e-17
6019.56549 1.02802e-17
6021.03828 1.03130e-17
6022.51107 1.02745e-17
6023.98386 1.02423e-17
6025.44664 1.03139e-17
6026.91943 1.03272e-17
6028.39222 1.02620e-17
6029.86502 1.01334e-17
6031.32779 1.00740e-17
6032.80058 1.00384e-17
6034.27338 1.00207e-17
6035.73615 1.01153e-17
6037.20894 1.00667e-17
6038.68174 1.00449e-17
6040.15453 1.00168e-17
6041.61730 1.00081e-17
6043.09010 1.00506e-17
6044.56289 9.97005e-18
6046.02566 9.92481e-18
6047.49846 9.94931e-18
6048.97125 1.00632e-17
6050.44404 1.00785e-17
6051.90682 1.00391e-17
6053.37961 1.00540e-17
6054.85240 1.01468e-17
6056.31518 1.00887e-17
6057.78797 1.00154e-17
6059.26076 1.00261e-17
6060.73356 1.00002e-17
6062.19633 1.00728e-17
6063.66912 9.97057e-18
6065.14192 9.94441e-18
6066.61471 9.91529e-18
6068.07748 9.88271e-18
6069.55028 9.85474e-18
6071.02307 9.83895e-18
6072.48584 9.86529e-18
6073.95864 9.80976e-18
6075.43143 9.80753e-18
6076.90422 9.89427e-18
6078.36700 9.81442e-18
6079.83979 9.81643e-18
6081.31258 9.71036e-18
6082.77536 9.60320e-18
6084.24815 9.54313e-18
6085.72094 9.67839e-18
6087.19373 9.68275e-18
6088.65651 9.65687e-18
6090.12930 9.50890e-18
6091.60210 9.47735e-18
6093.07489 9.42113e-18
6094.53766 9.34558e-18
6096.01045 9.25626e-18
6097.48325 9.18247e-18
6098.94602 9.17943e-18
6100.41881 9.16722e-18
6101.89161 9.10784e-18
6103.36440 9.04453e-18
6104.82718 8.97555e-18
6106.29997 8.86991e-18
6107.77276 8.82775e-18
6109.23553 8.82018e-18
6110.70833 8.79305e-18
6112.18112 8.86996e-18
6113.65391 8.71469e-18
6115.11669 8.56982e-18
6116.58948 8.56423e-18
6118.06227 8.61659e-18
6119.52505 8.41886e-18
6120.99784 8.36678e-18
6122.47063 8.34830e-18
6123.94343 8.15439e-18
6125.40620 7.94601e-18
6126.87899 7.91668e-18
6128.35179 7.82898e-18
6129.82458 7.74868e-18
6131.28735 7.72097e-18
6132.76015 7.73037e-18
6134.23294 7.62723e-18
6135.69571 7.52841e-18
6137.16851 7.43510e-18
6138.64130 7.49251e-18
6140.11409 7.36567e-18
6141.57687 7.22459e-18
6143.04966 7.33031e-18
6144.52245 7.30753e-18
6145.99525 7.22294e-18
6147.45802 7.01687e-18
6148.93081 6.89902e-18
6150.40361 6.93068e-18
6151.86638 6.90166e-18
6153.33917 6.80030e-18
6154.81197 6.72641e-18
6156.28476 6.56773e-18
6157.74753 6.59599e-18
6159.22033 6.56729e-18
6160.69312 6.49751e-18
6162.15589 6.38620e-18
6163.62869 6.40391e-18
6165.10148 6.30507e-18
6166.57427 6.21859e-18
6168.03705 6.12932e-18
6169.50984 6.01391e-18
6170.98263 6.00216e-18
6172.45543 6.02444e-18
6173.91820 5.99337e-18
6175.39099 5.87427e-18
6176.86378 5.87969e-18
6178.32656 5.85483e-18
6179.79935 5.76683e-18
6181.27214 5.76498e-18
6182.74494 5.74326e-18
6184.20771 5.65333e-18
6185.68051 5.43405e-18
6187.15330 5.33534e-18
6188.61607 5.36381e-18
6190.08887 5.30077e-18
6191.56166 5.25294e-18
6193.03445 5.21311e-18
6194.49723 5.15355e-18
6195.97002 5.08575e-18
6197.44281 5.06154e-18
6198.90558 5.09106e-18
6200.37838 5.08282e-18
6201.85117 5.00751e-18
6203.32396 4.94203e-18
6204.78674 4.89685e-18
6206.25953 4.85723e-18
6207.73232 4.79540e-18
6209.20512 4.74089e-18
6210.66789 4.72186e-18
6212.14068 4.70952e-18
6213.61348 4.70878e-18
6215.07625 4.65681e-18
6216.54904 4.56457e-18
6218.02184 4.42736e-18
6219.49463 4.38738e-18
6220.95740 4.42201e-18
6222.43020 4.35946e-18
6223.90299 4.33059e-18
6225.36576 4.29947e-18
6226.83856 4.28017e-18
6228.31135 4.27106e-18
6229.78414 4.28420e-18
6231.24692 4.34053e-18
6232.71971 4.31604e-18
6234.19250 4.24020e-18
6235.65528 4.12462e-18
6237.12807 4.09282e-18
6238.60086 4.13124e-18
6240.07366 4.16457e-18
6241.53643 4.26004e-18
6243.00922 4.21722e-18
6244.48202 4.10422e-18
6245.95481 4.05055e-18
6247.41758 4.11015e-18
6248.89038 4.14019e-18
6250.36317 4.23994e-18
6251.82594 4.26864e-18
6253.29874 4.19403e-18
6254.77153 4.06627e-18
6256.24432 4.04899e-18
6257.70710 4.04833e-18
6259.17989 4.03073e-18
6260.65268 4.09274e-18
6262.12547 4.10933e-18
6263.58825 4.18438e-18
6265.06104 4.24355e-18
6266.53383 4.26534e-18
6267.99661 4.30148e-18
6269.46940 4.26767e-18
6270.94220 4.25046e-18
6272.41499 4.28471e-18
6273.87776 4.30069e-18
6275.35055 4.36524e-18
6276.82335 4.39019e-18
6278.28612 4.45797e-18
6279.75892 4.43418e-18
6281.23171 4.50607e-18
6282.70450 4.68343e-18
6284.16727 4.71079e-18
6285.64007 4.67935e-18
6287.11286 4.77451e-18
6288.57564 4.88753e-18
6290.04843 4.95485e-18
6291.52122 5.06072e-18
6292.99401 5.18335e-18
6294.45679 5.32782e-18
6295.92958 5.44489e-18
6297.40237 5.62313e-18
6298.87517 5.83645e-18
6300.33794 6.00665e-18
6301.81073 6.05941e-18
6303.28353 6.04490e-18
6304.74630 6.09057e-18
6306.21909 6.24894e-18
6307.69189 6.42952e-18
6309.16468 6.62223e-18
6310.62745 6.74658e-18
6312.10025 6.82242e-18
6313.57304 6.86636e-18
6315.03581 6.94340e-18
6316.50861 7.13469e-18
6317.98140 7.24288e-18
6319.45419 7.41169e-18
6320.91697 7.54631e-18
6322.38976 7.56669e-18
6323.86255 7.74355e-18
6325.32533 7.87961e-18
6326.79812 7.88617e-18
6328.27091 7.94704e-18
6329.74371 7.94941e-18
6331.20648 7.93177e-18
6332.67927 8.09593e-18
6334.15207 8.42233e-18
6335.62486 8.69776e-18
6337.08763 8.80919e-18
6338.56043 8.87347e-18
6340.03322 9.00592e-18
6341.49599 9.18541e-18
6342.96879 9.36220e-18
6344.44158 9.45830e-18
6345.91437 9.61337e-18
6347.37715 9.79908e-18
6348.84994 9.86564e-18
6350.32273 9.94788e-18
6351.78551 9.92604e-18
6353.25830 9.98691e-18
6354.73109 1.02377e-17
6356.20388 1.03502e-17
6357.66666 1.05342e-17
6359.13945 1.07363e-17
6360.61225 1.07453e-17
6362.08504 1.08638e-17
6363.54781 1.09643e-17
6365.02060 1.10017e-17
6366.49340 1.10819e-17
6367.95617 1.11541e-17
6369.42897 1.11248e-17
6370.90176 1.11507e-17
6372.37455 1.14413e-17
6373.83733 1.15795e-17
6375.31012 1.16014e-17
6376.78291 1.16379e-17
6378.24568 1.16102e-17
6379.71848 1.17430e-17
6381.19127 1.18612e-17
6382.66406 1.18916e-17
6384.12684 1.20307e-17
6385.59963 1.19363e-17
6387.07242 1.20314e-17
6388.54522 1.21104e-17
6390.00799 1.20619e-17
6391.48078 1.21432e-17
6392.95358 1.22088e-17
6394.41635 1.22220e-17
6395.88914 1.21661e-17
6397.36194 1.22466e-17
6398.83473 1.23092e-17
6400.29750 1.22588e-17
6401.77030 1.22741e-17
6403.24309 1.23089e-17
6404.70586 1.24152e-17
6406.17866 1.25493e-17
6407.65145 1.24343e-17
6409.12424 1.23380e-17
6410.58702 1.23364e-17
6412.05981 1.23793e-17
6413.53260 1.23698e-17
6414.99538 1.23584e-17
6416.46817 1.25581e-17
6417.94096 1.24753e-17
6419.41376 1.23923e-17
6420.87653 1.24440e-17
6422.34932 1.24590e-17
6423.82212 1.24934e-17
6425.29491 1.23775e-17
6426.75768 1.22768e-17
6428.23048 1.23888e-17
6429.70327 1.24689e-17
6431.16604 1.24290e-17
6432.63884 1.24093e-17
6434.11163 1.23719e-17
6435.58442 1.23701e-17
6437.04720 1.22456e-17
6438.51999 1.22612e-17
6439.99278 1.22466e-17
6441.45556 1.22602e-17
6442.92835 1.23136e-17
6444.40114 1.22293e-17
6445.87393 1.22315e-17
6447.33671 1.22337e-17
6448.80950 1.22168e-17
6450.28229 1.20613e-17
6451.75509 1.20953e-17
6453.21786 1.20874e-17
6454.69066 1.20219e-17
6456.16345 1.20453e-17
6457.62622 1.21169e-17
6459.09902 1.20651e-17
6460.57181 1.20536e-17
6462.04460 1.20777e-17
6463.50738 1.21346e-17
6464.98017 1.21439e-17
6466.45296 1.20669e-17
6467.91573 1.19792e-17
6469.38853 1.20169e-17
6470.86132 1.19214e-17
6472.33411 1.18519e-17
6473.79689 1.19170e-17
6475.26968 1.19327e-17
6476.74247 1.19473e-17
6478.20525 1.20762e-17
6479.67804 1.21909e-17
6481.15083 1.21899e-17
6482.62363 1.21747e-17
6484.08640 1.22026e-17
6485.55919 1.21945e-17
6487.03199 1.22901e-17
6488.50478 1.22194e-17
6489.96755 1.22481e-17
6491.44035 1.23951e-17
6492.91314 1.22964e-17
6494.37591 1.22682e-17
6495.84871 1.23408e-17
6497.32150 1.24342e-17
6498.79429 1.23872e-17
6500.25707 1.24519e-17
6501.72986 1.23559e-17
6503.20265 1.23360e-17
6504.66543 1.23959e-17
6506.13822 1.24304e-17
6507.61101 1.23487e-17
6509.08381 1.22860e-17
6510.54658 1.23232e-17
6512.01937 1.23414e-17
6513.49217 1.22537e-17
6514.96496 1.22100e-17
6516.42773 1.22417e-17
6517.90053 1.22726e-17
6519.37332 1.24162e-17
6520.83609 1.24477e-17
6522.30889 1.23511e-17
6523.78168 1.24169e-17
6525.25447 1.24908e-17
6526.71725 1.24447e-17
6528.19004 1.24164e-17
6529.66283 1.24801e-17
6531.12561 1.24761e-17
6532.59840 1.24966e-17
6534.07119 1.25245e-17
6535.54398 1.24982e-17
6537.00676 1.26107e-17
6538.47955 1.26706e-17
6539.95235 1.26555e-17
6541.42514 1.27098e-17
6542.88791 1.28657e-17
6544.36071 1.28764e-17
6545.83350 1.28800e-17
6547.29627 1.28837e-17
6548.76907 1.28873e-17
6550.24186 1.28910e-17
6551.71465 1.28946e-17
6553.17742 1.28983e-17
6554.65022 1.29020e-17
6556.12301 1.29056e-17
6557.58578 1.29093e-17
6559.05858 1.29129e-17
6560.53137 1.29166e-17
6562.00416 1.29203e-17
6563.46694 1.29239e-17
6564.93973 1.29276e-17
6566.41252 1.29312e-17
6567.87530 1.29349e-17
6569.34809 1.29385e-17
6570.82088 1.29422e-17
6572.29368 1.29459e-17
6573.75645 1.29495e-17
6575.22924 1.29532e-17
6576.70204 1.29568e-17
6578.17483 1.29605e-17
6579.63760 1.29641e-17
6581.11040 1.29678e-17
6582.58319 1.29715e-17
6584.04596 1.29751e-17
6585.51876 1.29788e-17
6586.99155 1.29824e-17
6588.46434 1.29861e-17
6589.92712 1.29897e-17
6591.39991 1.29934e-17
6592.87270 1.29970e-17
6594.33548 1.30007e-17
6595.80827 1.30044e-17
6597.28106 1.30080e-17
6598.75386 1.30117e-17
6600.21663 1.30153e-17
6601.68942 1.30190e-17
6603.16222 1.30226e-17
6604.62499 1.30263e-17
6606.09778 1.30299e-17
6607.57058 1.30010e-17
6609.04337 1.28045e-17
6610.50614 1.25951e-17
6611.97894 1.26230e-17
6613.45173 1.27766e-17
6614.92452 1.29525e-17
6616.38730 1.28804e-17
6617.86009 1.27834e-17
6619.33288 1.28445e-17
6620.79566 1.29370e-17
6622.26845 1.29663e-17
6623.74124 1.29184e-17
6625.21403 1.28546e-17
6626.67681 1.28567e-17
6628.14960 1.27673e-17
6629.62240 1.26883e-17
6631.09519 1.27987e-17
6632.55796 1.28412e-17
6634.03075 1.28531e-17
6635.50355 1.28690e-17
6636.96632 1.28678e-17
6638.43912 1.28908e-17
6639.91191 1.29141e-17
6641.38470 1.27472e-17
6642.84748 1.26971e-17
6644.32027 1.27802e-17
6645.79306 1.27206e-17
6647.25583 1.25575e-17
6648.72863 1.26239e-17
6650.20142 1.27658e-17
6651.67421 1.27016e-17
6653.13699 1.26779e-17
6654.60978 1.27047e-17
6656.08257 1.26980e-17
6657.54535 1.27901e-17
6659.01814 1.27345e-17
6660.49093 1.25981e-17
6661.96373 1.24584e-17
6663.42650 1.24593e-17
6664.89929 1.25541e-17
6666.37209 1.25189e-17
6667.84488 1.24209e-17
6669.30765 1.23899e-17
6670.78045 1.24969e-17
6672.25324 1.24921e-17
6673.71601 1.24013e-17
6675.18881 1.23354e-17
6676.66160 1.23245e-17
6678.13439 1.24658e-17
6679.59717 1.24891e-17
6681.06996 1.24078e-17
6682.54275 1.22403e-17
6684.00553 1.21485e-17
6685.47832 1.21750e-17
6686.95111 1.21753e-17
6688.42391 1.21975e-17
6689.88668 1.22795e-17
6691.35947 1.21997e-17
6692.83227 1.20606e-17
6694.29504 1.20922e-17
6695.76783 1.21823e-17
6697.24063 1.20903e-17
6698.71342 1.22099e-17
6700.17619 1.22655e-17
6701.64899 1.22101e-17
6703.12178 1.20766e-17
6704.59457 1.19895e-17
6706.05735 1.19323e-17
6707.53014 1.18725e-17
6709.00293 1.19109e-17
6710.46571 1.18940e-17
6711.93850 1.18592e-17
6713.41129 1.17819e-17
6714.88408 1.16316e-17
6716.34686 1.15596e-17
6717.81965 1.15606e-17
6719.29245 1.14660e-17
6720.75522 1.14210e-17
6722.22801 1.13413e-17
6723.70080 1.14109e-17
6725.17360 1.14140e-17
6726.63637 1.13997e-17
6728.10917 1.13824e-17
6729.58196 1.14656e-17
6731.05475 1.15063e-17
6732.51753 1.15153e-17
6733.99032 1.16016e-17
6735.46311 1.15952e-17
6736.92588 1.14917e-17
6738.39868 1.13668e-17
6739.87147 1.12901e-17
6741.34426 1.12820e-17
6742.80704 1.13170e-17
6744.27983 1.11712e-17
6745.75262 1.11901e-17
6747.22542 1.11987e-17
6748.68819 1.10894e-17
6750.16098 1.10986e-17
6751.63378 1.10458e-17
6753.09655 1.09201e-17
6754.56934 1.08663e-17
6756.04214 1.09402e-17
6757.51493 1.08795e-17
6758.97770 1.07436e-17
6760.45050 1.07617e-17
6761.92329 1.06936e-17
6763.38606 1.06341e-17
6764.85886 1.05931e-17
6766.33165 1.07014e-17
6767.80444 1.06610e-17
6769.26722 1.05832e-17
6770.74001 1.06321e-17
6772.21280 1.07442e-17
6773.67558 1.07046e-17
6775.14837 1.05410e-17
6776.62116 1.05231e-17
6778.09396 1.04399e-17
6779.55673 1.03889e-17
6781.02952 1.05024e-17
6782.50232 1.05524e-17
6783.97511 1.03891e-17
6785.43788 1.02227e-17
6786.91068 1.02024e-17
6788.38347 1.02530e-17
6789.84624 1.03419e-17
6791.31904 1.01968e-17
6792.79183 1.00297e-17
6794.26462 1.01526e-17
6795.72740 1.01784e-17
6797.20019 1.00895e-17
6798.67298 1.02003e-17
6801.23785 1.02026e-17
6804.41387 1.00785e-17
6807.57987 1.03506e-17
6810.75590 1.02849e-17
6813.93192 9.95633e-18
6817.09792 1.00042e-17
6820.27395 1.01359e-17
6823.43995 9.93213e-18
6826.61597 9.79292e-18
6829.78198 9.72356e-18
6832.95800 9.61560e-18
6836.13402 9.58741e-18
6839.30003 9.61739e-18
6842.47605 9.69938e-18
6845.64205 9.72515e-18
6848.81808 9.75091e-18
6851.99410 9.77668e-18
6855.16010 9.80243e-18
6858.33613 9.82820e-18
6861.50213 9.85396e-18
6864.67815 9.87972e-18
6867.84416 9.90547e-18
6871.02018 9.93122e-18
6874.19620 9.95698e-18
6877.36221 9.98273e-18
6880.53823 1.00085e-17
6883.70424 1.00342e-17
6886.88026 1.00600e-17
6890.04626 1.00857e-17
6893.22228 1.01115e-17
6896.39831 1.01372e-17
6899.56431 1.01630e-17
6902.74033 1.01887e-17
6905.90634 1.02144e-17
6909.08236 1.02402e-17
6912.24837 1.02659e-17
6915.42439 1.02916e-17
6918.60041 1.03174e-17
6921.76642 1.03431e-17
6924.94244 1.03688e-17
6928.10844 1.03946e-17
6931.28447 1.04203e-17
6934.45047 1.04460e-17
6937.62649 1.04717e-17
6940.80252 1.04149e-17
6943.96852 1.03386e-17
6947.14454 1.03412e-17
6950.31055 1.03081e-17
6953.48657 1.02739e-17
6956.65257 1.03351e-17
6959.82860 1.03216e-17
6963.00462 1.04278e-17
6966.17062 1.05263e-17
6969.34665 1.05129e-17
6972.51265 1.04008e-17
6975.68867 1.02389e-17
6978.85468 1.02780e-17
6982.03070 1.01460e-17
6985.20672 9.89970e-18
6988.37273 9.97561e-18
6991.54875 1.01157e-17
6994.71475 1.00526e-17
6997.89078 9.91625e-18
7001.06680 1.00166e-17
7004.23280 9.83276e-18
7007.40883 9.88336e-18
7010.57483 9.77335e-18
7013.75086 9.72043e-18
7016.91686 9.84187e-18
7020.09288 9.85253e-18
7023.26890 9.89704e-18
7026.43491 9.95863e-18
7029.61093 1.00262e-17
7032.77694 9.71710e-18
7035.95296 9.60653e-18
7039.11896 9.56659e-18
7042.29499 9.49261e-18
7045.46099 9.74866e-18
7048.63701 9.60839e-18
7051.81304 9.66602e-18
7054.97904 9.75497e-18
7058.15506 9.71405e-18
7061.32107 9.73682e-18
7064.49709 9.65594e-18
7067.67311 9.39816e-18
7070.83912 9.31009e-18
7074.01514 9.23369e-18
7077.18114 9.17569e-18
7080.35717 9.07602e-18
7083.52317 9.08817e-18
7086.69919 9.10052e-18
7089.87522 9.19747e-18
7093.04122 9.33581e-18
7096.21724 9.41946e-18
7099.38325 9.45635e-18
7102.55927 9.25579e-18
7105.72527 9.09404e-18
7108.90130 9.13741e-18
7112.07732 9.13694e-18
7115.24333 9.02198e-18
7118.41935 8.97004e-18
7121.58535 9.03631e-18
7124.76138 9.04610e-18
7127.92738 9.40874e-18
7131.10340 9.35392e-18
7134.27942 9.66978e-18
7137.44543 9.47123e-18
7140.62145 9.26745e-18
7143.78746 9.38295e-18
7146.96348 9.42966e-18
7150.12948 9.42820e-18
7153.30551 9.37077e-18
7156.48153 9.11582e-18
7159.64753 8.83813e-18
7162.82356 8.65560e-18
7165.98956 8.61036e-18
7169.16558 8.45011e-18
7172.33159 8.60245e-18
7175.50761 8.79744e-18
7178.68363 8.86775e-18
7181.84964 8.87664e-18
7185.02566 8.71450e-18
7188.19166 8.83519e-18
7191.36769 8.75445e-18
7194.54371 8.62481e-18
7197.70971 8.58282e-18
7200.88574 8.56448e-18
7204.05174 8.85099e-18
7207.22776 8.71894e-18
7210.39377 8.57031e-18
7213.56979 8.70245e-18
7216.74581 8.91551e-18
7219.91182 8.98915e-18
7223.08784 8.96655e-18
7226.25385 8.97168e-18
7229.42987 8.68997e-18
7232.59587 8.33983e-18
7235.77189 8.43015e-18
7238.94792 8.44977e-18
7242.11392 8.19026e-18
7245.28995 8.29954e-18
7248.45595 8.36326e-18
7251.63197 8.31021e-18
7254.79798 8.56548e-18
7257.97400 8.62745e-18
7261.15002 8.64773e-18
7264.31603 8.64931e-18
7267.49205 8.69470e-18
7270.65805 8.73510e-18
7273.83408 8.76292e-18
7277.00008 8.58179e-18
7280.17610 8.32662e-18
7283.35213 8.36079e-18
7286.51813 8.53178e-18
7289.69415 8.42672e-18
7292.86016 8.41421e-18
7296.03618 8.58209e-18
7299.20218 8.15957e-18
7302.37821 7.93783e-18
7305.55423 8.08454e-18
7308.72023 8.02016e-18
7311.89626 8.24896e-18
7315.06226 8.47319e-18
7318.23828 8.43182e-18
7321.40429 8.46548e-18
7324.58031 8.61013e-18
7327.75633 8.65222e-18
7330.92234 8.66726e-18
7334.09836 8.23008e-18
7337.26437 8.11468e-18
7340.44039 8.04048e-18
7343.60639 8.08843e-18
7346.78242 8.18753e-18
7349.95844 8.23133e-18
7353.12444 8.22986e-18
7356.30047 8.31554e-18
7359.46647 8.25961e-18
7362.64249 8.27189e-18
7365.80850 8.63922e-18
7368.98452 8.80954e-18
7372.16054 8.42643e-18
7375.32655 8.25530e-18
7378.50257 8.13622e-18
7381.66857 8.30055e-18
7384.84460 8.34962e-18
7388.01060 7.98295e-18
7391.18662 8.07992e-18
7394.36265 7.90956e-18
7397.52865 7.81336e-18
7400.70467 7.89925e-18
7403.87068 7.87625e-18
7407.04670 7.88814e-18
7410.22272 7.88169e-18
7413.38873 7.62939e-18
7416.56475 7.93470e-18
7419.73075 7.63073e-18
7422.90678 7.69600e-18
7426.07278 7.81224e-18
7429.24880 7.91518e-18
7432.42483 8.04401e-18
7435.59083 8.07623e-18
7438.76685 8.22556e-18
7441.93286 8.13678e-18
7445.10888 7.80147e-18
7448.27488 7.94183e-18
7451.45091 8.09135e-18
7454.62693 7.91707e-18
7457.79293 7.82262e-18
7460.96896 7.76103e-18
7464.13496 7.51783e-18
7467.31099 7.50772e-18
7470.47699 7.32171e-18
7473.65301 7.22388e-18
7476.82903 7.36047e-18
7479.99504 7.57631e-18
7483.17106 7.62084e-18
7486.33707 7.57047e-18
7489.51309 7.78815e-18
7492.67909 7.85411e-18
7495.85512 7.84866e-18
7499.03114 7.57775e-18
7502.19714 7.28492e-18
7505.37317 7.30642e-18
7508.53917 7.36719e-18
7511.71519 7.12986e-18
7514.88120 6.90401e-18
7518.05722 6.95859e-18
7521.23324 7.08740e-18
7524.39925 6.86560e-18
7527.57527 6.47291e-18
7530.74127 6.82672e-18
7533.91730 7.00667e-18
7537.08330 7.03808e-18
7540.25932 6.91766e-18
7543.43535 7.26564e-18
7546.60135 7.47587e-18
7549.77737 7.45658e-18
7552.94338 7.44063e-18
7556.11940 7.42469e-18
7559.29542 7.40874e-18
7562.46143 7.39281e-18
7565.63745 7.37686e-18
7568.80346 7.36092e-18
7571.97948 7.34498e-18
7575.14548 7.32905e-18
7578.32150 7.31311e-18
7581.48751 7.29717e-18
7584.66353 7.28124e-18
7587.83955 7.26530e-18
7591.00556 7.24937e-18
7594.18158 7.23343e-18
7597.34759 7.21750e-18
7600.52361 7.20157e-18
7603.68961 7.18564e-18
7606.86564 7.16971e-18
7610.04166 7.15378e-18
7613.20766 7.13785e-18
7616.38369 7.12193e-18
7619.54969 7.10600e-18
7622.72571 7.09007e-18
7625.90174 7.07415e-18
7629.06774 7.05823e-18
7632.24376 7.04230e-18
7635.40977 7.02638e-18
7638.58579 7.01046e-18
7641.75179 6.99454e-18
7644.92782 6.97862e-18
7648.10384 6.96270e-18
7651.26984 6.94679e-18
7654.44587 6.93087e-18
7657.61187 6.91495e-18
7660.78789 6.89904e-18
7663.95390 6.88312e-18
7667.12992 6.86721e-18
7670.30594 6.85130e-18
7673.47195 6.83538e-18
7676.64797 6.81948e-18
7679.81398 6.80357e-18
7682.99000 6.78766e-18
7686.15600 6.91606e-18
7689.33202 6.89567e-18
7692.50805 6.92363e-18
7695.67405 6.93968e-18
7698.85008 6.84548e-18
7702.01608 6.66258e-18
7705.19210 6.38274e-18
7708.35811 6.20816e-18
7711.53413 6.25085e-18
7714.71015 6.04510e-18
7717.87616 6.36880e-18
7721.05218 6.41764e-18
7724.21818 6.94718e-18
7727.39421 7.33063e-18
7730.56021 7.04162e-18
7733.73623 7.22162e-18
7736.91226 7.15447e-18
7740.07826 6.68766e-18
7743.25428 6.50241e-18
7746.42029 6.52495e-18
7749.59631 6.67608e-18
7752.76231 6.49138e-18
7755.93834 6.27674e-18
7759.11436 6.41785e-18
7762.28036 6.53804e-18
7765.45639 6.46415e-18
7768.62239 6.74264e-18
7771.79841 7.01210e-18
7774.96442 7.07176e-18
7778.14044 7.11512e-18
7781.31646 7.07190e-18
7784.48247 6.88445e-18
7787.65849 6.87917e-18
7790.82449 6.64647e-18
7794.00052 6.39659e-18
7797.17654 6.45682e-18
7800.34255 6.82156e-18
7803.51857 7.10210e-18
7806.68457 7.13148e-18
7809.86060 7.16706e-18
7813.02660 7.10345e-18
7816.20262 6.73725e-18
7819.37865 6.66869e-18
7822.54465 6.93578e-18
7825.72067 6.76995e-18
7828.88668 6.93429e-18
7832.06270 7.64378e-18
7835.22870 7.53467e-18
7838.40473 6.96968e-18
7841.58075 6.58854e-18
7844.74675 6.40682e-18
7847.92278 6.29729e-18
7851.08878 6.32832e-18
7854.26480 6.41684e-18
7857.43081 6.27438e-18
7860.60683 6.39072e-18
7863.78285 6.23106e-18
7866.94886 6.09882e-18
7870.12488 6.16218e-18
7873.29088 6.48142e-18
7876.46691 6.63418e-18
7879.63291 6.89120e-18
7882.80893 7.19638e-18
7885.98496 7.00706e-18
7889.15096 6.74793e-18
7892.32698 6.52504e-18
7895.49299 6.28091e-18
7898.66901 6.00856e-18
7901.83502 5.99064e-18
7905.01104 5.99299e-18
7908.18706 6.06811e-18
7911.35307 6.00085e-18
7914.52909 5.97229e-18
7917.69509 6.18017e-18
7920.87112 6.42210e-18
7924.03712 6.63146e-18
7927.21314 6.60736e-18
7930.38917 6.47406e-18
7933.55517 6.55585e-18
7936.73119 6.60077e-18
7939.89720 6.46895e-18
7943.07322 6.32286e-18
7946.23922 6.14321e-18
7949.41525 5.80293e-18
7952.59127 5.39550e-18
7955.75727 5.23740e-18
7958.93330 5.30663e-18
7962.09930 5.13849e-18
7965.27532 5.39276e-18
7968.44133 5.60259e-18
7971.61735 5.78806e-18
7974.79337 5.67747e-18
7977.95938 5.58967e-18
7981.13540 5.72188e-18
7984.30140 5.95066e-18
7987.47743 6.11139e-18
7990.64343 6.14579e-18
7993.81945 6.03116e-18
7996.99548 5.77164e-18
8000.16148 5.92409e-18
8003.33750 5.65558e-18
8006.50351 5.61286e-18
8009.67953 5.44808e-18
8012.85555 5.32947e-18
8016.02156 5.26819e-18
8019.19758 5.28062e-18
8022.36359 5.50111e-18
8025.53961 5.47218e-18
8028.70561 5.13865e-18
8031.88163 5.12895e-18
8035.05766 5.00230e-18
8038.22366 5.00267e-18
8041.39968 5.39462e-18
8044.56569 5.60294e-18
8047.74171 5.34692e-18
8050.90772 5.38952e-18
8054.08374 5.78771e-18
8057.25976 5.49790e-18
8060.42577 5.32122e-18
8063.60179 5.48617e-18
8066.76779 5.40493e-18
8069.94382 5.34109e-18
8073.10982 5.25394e-18
8076.28584 4.85437e-18
8079.46187 4.39993e-18
8082.62787 4.37281e-18
8085.80389 4.56033e-18
8088.96990 4.51354e-18
8092.14592 4.53927e-18
8095.31192 4.41734e-18
8098.48795 4.53565e-18
8101.66397 4.72878e-18
8104.82997 4.54902e-18
8108.00600 4.32923e-18
8111.17200 4.58794e-18
8114.34802 4.93499e-18
8117.51403 4.70971e-18
8120.69005 4.06477e-18
8123.86607 3.74514e-18
8127.03208 3.68378e-18
8130.20810 3.88023e-18
8133.37410 4.02818e-18
8136.55013 3.89928e-18
8139.71613 4.14327e-18
8142.89215 4.20737e-18
8146.06818 4.11562e-18
8149.23418 3.96541e-18
8152.41021 3.98979e-18
8155.57621 4.40438e-18
8158.75223 4.42633e-18
8161.91824 4.09876e-18
8165.09426 4.10123e-18
8168.27028 3.79824e-18
8171.43629 3.83893e-18
8174.61231 3.31090e-18
8177.77831 3.31746e-18
8180.95434 3.59693e-18
8184.12034 3.52504e-18
8187.29636 3.50791e-18
8190.47239 3.51348e-18
8193.63839 3.66332e-18
8196.81441 3.86494e-18
8199.98042 3.87119e-18
8203.15644 3.96731e-18
8206.33246 3.91598e-18
8209.49847 3.74915e-18
8212.67449 3.82007e-18
8215.84049 4.08547e-18
8219.01652 4.18782e-18
8222.18252 4.13482e-18
8225.35854 4.14303e-18
8228.52455 4.12167e-18
8231.70057 4.37362e-18
8234.87659 4.20092e-18
8235.99549 4.20092e-18
8237.99849 4.21351e-18
8240.00149 4.28424e-18
8242.00449 4.21807e-18
8243.99748 4.21192e-18
8246.00048 4.21715e-18
8248.00347 4.24763e-18
8249.99646 4.28822e-18
8251.99946 4.31089e-18
8254.00246 4.30987e-18
8255.99545 4.29133e-18
8257.99844 4.26372e-18
8260.00144 4.28910e-18
8261.99443 4.26438e-18
8263.99743 4.28171e-18
8266.00043 4.30518e-18
8268.00343 4.31301e-18
8269.99642 4.31171e-18
8271.99942 4.41549e-18
8274.00242 4.25869e-18
8275.99540 4.37386e-18
8277.99840 4.36956e-18
8280.00140 4.31371e-18
8282.00440 4.39811e-18
8283.99739 4.46990e-18
8286.00039 4.29521e-18
8288.00338 4.23670e-18
8289.99637 4.33771e-18
8291.99937 4.32307e-18
8294.00237 4.38574e-18
8295.99536 4.39940e-18
8297.99835 4.33036e-18
8300.00136 4.46098e-18
8302.00436 4.46324e-18
8303.99734 4.32822e-18
8306.00034 4.43745e-18
8308.00334 4.44248e-18
8309.99633 4.38640e-18
8311.99932 4.42888e-18
8314.00232 4.44517e-18
8315.99531 4.44370e-18
8317.99831 4.41045e-18
8320.00131 4.46858e-18
8322.00431 4.55805e-18
8323.99730 4.44271e-18
8326.00030 4.46851e-18
8328.00330 4.49437e-18
8329.99628 4.54549e-18
8331.99928 4.43646e-18
8334.00228 4.43178e-18
8335.99527 4.49375e-18
8337.99827 4.45407e-18
8340.00127 4.54254e-18
8342.00427 4.54279e-18
8343.99725 4.61505e-18
8346.00025 4.63801e-18
8348.00325 4.44992e-18
8349.99624 4.60444e-18
8351.99924 4.53685e-18
8354.00223 4.62379e-18
8355.99522 4.58314e-18
8357.99822 4.60378e-18
8360.00122 4.54946e-18
8362.00422 4.52497e-18
8363.99720 4.53179e-18
8366.00021 4.64754e-18
8368.00320 4.63895e-18
8369.99619 4.63191e-18
8371.99919 4.54628e-18
8374.00219 4.60366e-18
8376.00519 4.59212e-18
8377.99818 4.51552e-18
8380.00118 4.66323e-18
8382.00418 4.62758e-18
8383.99716 4.63978e-18
8386.00016 4.62850e-18
8388.00316 4.63118e-18
8389.99615 4.60006e-18
8391.99915 4.58766e-18
8394.00215 4.59436e-18
8395.99513 4.72433e-18
8397.99813 4.65885e-18
8400.00113 4.64784e-18
8402.00413 4.75609e-18
8403.99712 4.64799e-18
8406.00012 4.67433e-18
8408.00311 4.58159e-18
8409.99610 4.60517e-18
8411.99910 4.67574e-18
8414.00210 4.66084e-18
8415.99509 4.73674e-18
8417.99808 4.70124e-18
8420.00108 4.63232e-18
8422.00409 4.71006e-18
8423.99707 4.73826e-18
8426.00007 4.80651e-18
8428.00307 4.60326e-18
8429.99606 4.62448e-18
8431.99906 4.67029e-18
8434.00206 4.62009e-18
8436.00506 4.76535e-18
8437.99804 4.69210e-18
8440.00104 4.71877e-18
8442.00404 4.68611e-18
8443.99703 4.73528e-18
8446.00003 4.65809e-18
8448.00302 4.72926e-18
8449.99601 4.69095e-18
8451.99901 4.74469e-18
8454.00201 4.73966e-18
8455.99500 4.70006e-18
8457.99799 4.63327e-18
8460.00100 4.70929e-18
8462.00400 4.81795e-18
8463.99698 4.65129e-18
8465.99998 4.65809e-18
8468.00298 4.78284e-18
8469.99597 4.63573e-18
8471.99897 4.62884e-18
8474.00196 4.65192e-18
8475.99495 4.64645e-18
8477.99795 4.68623e-18
8480.00095 4.70248e-18
8482.00395 4.73219e-18
8483.99694 4.76355e-18
8485.99994 4.63058e-18
8488.00294 4.65133e-18
8489.99592 4.71282e-18
8491.99892 4.70107e-18
8494.00192 4.72767e-18
8496.00492 4.77730e-18
8497.99791 4.67256e-18
8500.00091 4.76752e-18
8502.00391 4.71546e-18
8503.99689 4.64269e-18
8505.99989 4.64421e-18
8508.00289 4.68008e-18
8509.99588 4.65053e-18
8511.99888 4.75975e-18
8514.00187 4.72634e-18
8516.00488 4.73497e-18
8517.99786 4.67274e-18
8520.00086 4.70124e-18
8522.00386 4.66265e-18
8523.99684 4.68657e-18
8525.99985 4.77024e-18
8528.00285 4.68258e-18
8529.99583 4.69488e-18
8531.99883 4.71218e-18
8534.00183 4.66893e-18
8535.99482 4.70009e-18
8537.99781 4.78387e-18
8540.00081 4.70878e-18
8542.00382 4.58364e-18
8543.99680 4.71335e-18
8545.99980 4.62552e-18
8548.00280 4.75944e-18
8549.99579 4.67072e-18
8551.99879 4.65829e-18
8554.00179 4.65319e-18
8556.00479 4.61241e-18
8557.99777 4.62738e-18
8560.00077 4.65284e-18
8562.00377 4.74269e-18
8563.99676 4.65574e-18
8565.99976 4.67518e-18
8568.00276 4.63504e-18
8569.99574 4.61801e-18
8571.99874 4.59373e-18
8574.00174 4.60011e-18
8576.00474 4.70880e-18
8577.99772 4.57282e-18
8580.00072 4.59806e-18
8582.00373 4.62508e-18
8583.99671 4.54009e-18
8585.99971 4.63837e-18
8588.00271 4.59086e-18
8589.99569 4.62564e-18
8591.99870 4.65312e-18
8594.00169 4.51159e-18
8595.99468 4.61193e-18
8597.99768 4.61640e-18
8600.00068 4.55143e-18
8602.00368 4.55924e-18
8603.99667 4.52416e-18
8605.99967 4.46509e-18
8608.00267 4.52744e-18
8609.99565 4.57404e-18
8611.99865 4.58584e-18
8614.00165 4.57855e-18
8616.00465 4.53258e-18
8617.99764 4.57582e-18
8620.00064 4.54319e-18
8622.00364 4.49925e-18
8623.99662 4.51713e-18
8625.99962 4.54572e-18
8628.00262 4.47149e-18
8629.99561 4.55395e-18
8631.99861 4.48514e-18
8634.00160 4.46285e-18
8636.00461 4.51460e-18
8637.99759 4.55664e-18
8640.00059 4.46602e-18
8642.00359 4.53325e-18
8643.99657 4.53473e-18
8645.99957 4.54430e-18
8648.00258 4.41751e-18
8649.99556 4.39295e-18
8651.99856 4.54190e-18
8654.00156 4.48788e-18
8656.00456 4.44751e-18
8657.99755 4.56344e-18
8660.00055 4.43626e-18
8662.00355 4.48552e-18
8663.99653 4.41130e-18
8665.99953 4.52891e-18
8668.00253 4.41868e-18
8669.99552 4.37904e-18
8671.99852 4.49354e-18
8674.00151 4.48795e-18
8676.00452 4.38094e-18
8677.99750 4.38776e-18
8680.00050 4.44540e-18
8682.00350 4.45077e-18
8683.99648 4.44183e-18
8685.99949 4.47091e-18
8688.00249 4.37867e-18
8689.99547 4.40711e-18
8691.99847 4.36462e-18
8694.00147 4.42912e-18
8696.00447 4.48916e-18
8697.99746 4.47269e-18
8700.00045 4.38014e-18
8702.00346 4.32983e-18
8703.99644 4.39892e-18
8705.99944 4.38226e-18
8708.00244 4.26656e-18
8709.99543 4.34716e-18
8711.99843 4.36526e-18
8714.00143 4.32938e-18
8716.00443 4.41584e-18
8717.99741 4.43700e-18
8720.00041 4.35407e-18
8722.00341 4.38309e-18
8723.99640 4.42719e-18
8725.99940 4.47053e-18
8728.00240 4.30963e-18
8729.99538 4.29890e-18
8731.99838 4.27016e-18
8734.00138 4.27499e-18
8736.00438 4.31941e-18
8737.99737 4.23742e-18
8740.00036 4.31480e-18
8742.00337 4.33875e-18
8743.99635 4.29577e-18
8745.99935 4.30150e-18
8748.00235 4.26640e-18
8749.99533 4.34625e-18
8751.99834 4.34696e-18
8754.00133 4.29059e-18
8756.00433 4.20317e-18
8757.99732 4.17331e-18
8760.00032 4.26703e-18
8762.00332 4.25364e-18
8763.99631 4.24873e-18
8765.99931 4.18785e-18
8768.00231 4.24433e-18
8769.99529 4.20530e-18
8771.99829 4.27817e-18
8774.00129 4.23891e-18
8776.00429 4.14824e-18
8777.99728 4.14795e-18
8780.00028 4.27764e-18
8782.00328 4.13840e-18
8783.99626 4.10797e-18
8785.99926 4.19478e-18
8788.00226 4.12021e-18
8789.99525 4.02746e-18
8791.99825 4.16613e-18
8794.00125 4.11348e-18
8796.00425 4.14184e-18
8797.99723 4.12350e-18
8800.00023 4.06592e-18
8802.00323 4.09815e-18
8803.99621 4.13457e-18
8805.99921 4.25057e-18
8808.00222 4.12901e-18
8809.99520 4.12924e-18
8811.99820 4.07872e-18
8814.00120 4.10619e-18
8816.00420 4.09503e-18
8817.99719 4.18867e-18
8820.00019 4.14163e-18
8822.00319 4.08512e-18
8823.99617 4.13860e-18
8825.99917 4.13583e-18
8828.00217 4.08207e-18
8829.99516 4.11301e-18
8831.99816 4.06389e-18
8834.00116 4.12525e-18
8836.00416 4.11286e-18
8837.99714 4.06019e-18
8840.00014 4.01878e-18
8842.00314 4.02347e-18
8843.99612 4.10521e-18
8845.99913 4.07360e-18
8848.00213 4.13748e-18
8850.00512 4.06165e-18
8851.99811 4.08184e-18
8854.00111 4.11670e-18
8856.00411 4.15839e-18
8857.99710 4.15953e-18
8860.00009 4.22668e-18
8862.00310 4.22365e-18
8863.99608 4.33510e-18
8865.99908 4.24619e-18
8868.00208 4.20363e-18
8869.99506 4.16250e-18
8871.99806 4.15508e-18
8874.00107 4.15256e-18
8876.00406 4.08597e-18
8877.99705 4.08775e-18
8880.00005 4.05440e-18
8882.00305 4.03921e-18
8883.99604 4.05817e-18
8885.99904 4.06248e-18
8888.00204 4.03933e-18
8889.99502 3.99380e-18
8891.99802 3.93698e-18
8894.00102 4.04025e-18
8896.00402 4.04317e-18
8897.99701 4.00572e-18
8900.00000 4.04859e-18
8902.00301 3.94314e-18
8903.99599 4.02486e-18
8905.99899 3.94311e-18
8908.00199 3.98064e-18
8910.00499 4.01754e-18
8911.99798 4.01341e-18
8914.00098 3.97080e-18
8916.00397 4.06065e-18
8917.99696 4.13607e-18
8919.99996 3.95651e-18
8922.00296 3.94856e-18
8923.99595 3.95534e-18
8925.99894 3.96068e-18
8928.00194 4.00908e-18
8929.99493 3.98288e-18
8931.99793 3.92932e-18
8934.00093 3.90107e-18
8936.00393 3.90024e-18
8937.99692 3.86992e-18
8939.99992 3.90498e-18
8942.00292 3.85284e-18
8943.99590 3.95811e-18
8945.99890 3.95200e-18
8948.00190 3.86994e-18
8949.99489 3.84802e-18
8951.99789 3.83308e-18
8954.00089 3.91750e-18
8956.00389 3.94426e-18
8957.99687 3.91587e-18
8959.99987 3.83947e-18
8962.00287 3.85540e-18
8963.99586 3.90583e-18
8965.99885 3.95193e-18
8968.00186 3.85543e-18
8970.00486 3.90513e-18
8971.99784 3.94813e-18
8974.00084 3.95661e-18
8976.00384 3.93631e-18
8977.99683 3.82353e-18
8979.99982 3.90466e-18
8982.00282 4.03915e-18
8983.99581 3.86661e-18
8985.99881 3.83707e-18
8988.00181 4.06932e-18
8990.00481 3.83124e-18
8991.99780 3.98422e-18
8994.00080 3.88809e-18
8996.00380 3.91765e-18
8997.99678 3.85689e-18
8999.99978 3.87399e-18
9002.00278 3.98265e-18
9003.99577 4.10143e-18
9005.99877 4.04504e-18
9008.00177 4.01373e-18
9009.99475 3.98321e-18
9011.99775 4.22118e-18
9014.00075 4.16312e-18
9016.00375 4.16976e-18
9017.99674 4.35465e-18
9019.99973 3.95657e-18
9022.00274 3.96041e-18
9023.99572 3.98110e-18
9025.99872 4.02011e-18
9028.00172 3.86654e-18
9030.00472 3.84291e-18
9031.99770 3.82568e-18
9034.00071 3.89797e-18
9036.00370 3.88494e-18
9037.99669 3.73895e-18
9039.99969 3.72451e-18
9042.00269 3.83569e-18
9043.99568 3.86025e-18
9045.99868 3.73069e-18
9048.00168 3.84681e-18
9050.00468 3.78206e-18
9051.99766 3.75717e-18
9054.00066 3.87730e-18
9056.00366 3.77884e-18
9057.99665 3.77180e-18
9059.99965 3.82113e-18
9062.00265 3.82516e-18
9063.99563 3.93865e-18
9065.99863 3.83566e-18
9068.00163 3.80605e-18
9070.00463 3.74989e-18
9071.99762 3.68559e-18
9074.00062 3.83578e-18
9076.00361 3.86968e-18
9077.99660 3.72845e-18
9079.99960 3.77473e-18
9082.00260 3.82891e-18
9083.99559 3.72779e-18
9085.99858 3.60829e-18
9088.00158 3.77115e-18
9090.00459 3.76828e-18
9091.99757 3.69236e-18
9094.00057 3.75425e-18
9096.00357 3.77120e-18
9097.99656 3.63375e-18
9099.99956 3.73986e-18
9102.00256 3.83416e-18
9103.99554 3.72605e-18
9105.99854 3.73952e-18
9108.00154 3.75458e-18
9110.00454 3.74453e-18
9111.99753 3.72457e-18
9114.00053 3.74998e-18
9116.00353 3.61403e-18
9117.99651 3.70537e-18
9119.99951 3.74673e-18
9122.00251 3.73072e-18
9123.99550 3.73047e-18
9125.99849 3.75612e-18
9128.00150 3.67209e-18
9130.00450 3.73431e-18
9131.99748 3.78174e-18
9134.00048 3.60165e-18
9136.00348 3.83846e-18
9137.99647 3.77338e-18
9139.99947 3.71975e-18
9142.00246 3.68612e-18
9143.99545 3.66176e-18
9145.99845 3.65577e-18
9148.00145 3.74969e-18
9150.00445 3.68124e-18
9151.99744 3.76629e-18
9154.00044 3.69980e-18
9156.00344 3.75035e-18
9157.99642 3.68065e-18
9159.99942 3.62355e-18
9162.00242 3.72337e-18
9163.99541 3.68591e-18
9165.99841 3.68336e-18
9168.00141 3.69565e-18
9170.00441 3.71587e-18
9171.99739 3.65759e-18
9174.00039 3.68318e-18
9176.00339 3.75980e-18
9177.99638 3.67212e-18
9179.99938 3.70139e-18
9182.00238 3.63218e-18
9183.99536 3.66431e-18
9185.99836 3.68261e-18
9188.00136 3.58956e-18
9190.00436 3.65919e-18
9191.99734 3.71925e-18
9194.00035 3.58860e-18
9196.00335 3.66266e-18
9197.99633 3.67913e-18
9199.99933 3.62908e-18
9202.00233 3.65586e-18
9203.99532 3.58650e-18
9205.99831 3.62182e-18
9208.00131 3.74255e-18
9210.00432 3.68689e-18
9211.99730 3.69785e-18
9214.00030 3.74091e-18
9216.00330 3.78065e-18
9217.99629 3.72034e-18
9219.99929 3.80929e-18
9222.00229 3.74658e-18
9223.99527 3.77297e-18
9225.99827 3.96794e-18
9228.00127 4.08351e-18
9230.00427 4.12989e-18
9231.99726 3.99004e-18
9234.00026 3.90779e-18
9236.00326 3.76284e-18
9237.99624 3.74782e-18
9239.99924 3.70462e-18
9242.00224 3.61582e-18
9243.99523 3.60865e-18
9245.99822 3.60827e-18
9248.00122 3.57453e-18
9250.00423 3.55025e-18
9251.99721 3.67113e-18
9254.00021 3.57406e-18
9256.00321 3.56428e-18
9257.99619 3.55267e-18
9259.99920 3.58117e-18
9262.00219 3.60204e-18
9263.99518 3.67250e-18
9265.99818 3.62317e-18
9268.00118 3.56094e-18
9270.00418 3.63310e-18
9271.99717 3.52034e-18
9274.00017 3.63311e-18
9276.00317 3.56036e-18
9277.99615 3.54016e-18
9279.99915 3.67221e-18
9282.00215 3.59091e-18
9283.99514 3.50609e-18
9285.99813 3.62730e-18
9288.00114 3.64238e-18
9290.00414 3.58661e-18
9291.99712 3.56122e-18
9294.00012 3.62524e-18
9296.00312 3.61262e-18
9297.99611 3.57175e-18
9299.99911 3.58126e-18
9302.00210 3.55703e-18
9303.99509 3.64041e-18
9305.99809 3.43383e-18
9308.00109 3.41055e-18
9310.00409 3.84255e-18
9311.99707 3.61071e-18
9314.00007 3.33099e-18
9316.00308 3.55263e-18
9317.99606 3.68864e-18
9319.99906 3.63723e-18
9322.00206 3.41816e-18
9324.00506 3.65995e-18
9325.99805 3.65902e-18
9328.00105 3.61119e-18
9330.00405 3.40098e-18
9331.99703 3.46231e-18
9334.00003 3.62789e-18
9336.00303 3.60253e-18
9337.99602 3.64123e-18
9339.99902 3.61670e-18
9342.00202 3.22840e-18
9343.99500 3.74501e-18
9345.99800 3.85452e-18
9348.00100 3.54533e-18
9350.00400 3.43353e-18
9351.99698 3.24856e-18
9353.99999 3.71369e-18
9356.00299 3.47385e-18
9357.99597 3.58073e-18
9359.99897 3.82342e-18
9362.00197 3.53528e-18
9363.99496 3.27193e-18
9365.99796 3.48028e-18
9368.00095 3.39674e-18
9370.00396 3.41883e-18
9371.99694 3.76560e-18
9373.99994 3.45993e-18
9376.00294 3.45418e-18
9377.99593 3.45459e-18
9379.99893 3.42400e-18
9382.00193 3.69557e-18
9384.00493 3.53589e-18
9385.99791 3.38229e-18
9388.00091 3.56531e-18
9390.00391 3.38316e-18
9391.99690 3.33279e-18
9393.99990 3.46199e-18
9396.00290 3.37369e-18
9397.99588 3.32798e-18
9399.99888 3.42132e-18
9402.00188 3.45272e-18
9404.00488 3.42986e-18
9405.99787 3.40157e-18
9408.00086 3.34306e-18
9410.00387 3.47549e-18
9411.99685 3.56848e-18
9413.99985 3.46701e-18
9416.00285 3.32339e-18
9417.99583 3.46347e-18
9419.99884 3.34689e-18
9422.00183 3.41847e-18
9423.99482 3.20156e-18
9425.99782 3.16265e-18
9428.00082 3.55417e-18
9430.00382 3.72338e-18
9431.99681 3.47021e-18
9433.99981 3.30601e-18
9436.00281 3.22581e-18
9437.99579 3.29662e-18
9439.99879 3.37196e-18
9442.00179 3.58185e-18
9444.00479 3.44646e-18
9445.99778 3.42245e-18
9448.00078 3.27792e-18
9450.00378 3.46616e-18
9451.99676 3.33097e-18
9453.99976 3.18846e-18
9456.00276 3.62299e-18
9457.99575 3.19770e-18
9459.99875 3.17649e-18
9462.00174 3.52189e-18
9464.00475 3.36615e-18
9465.99773 3.29670e-18
9468.00073 3.16954e-18
9470.00373 3.43964e-18
9471.99671 3.28683e-18
9473.99971 3.22575e-18
9476.00272 3.50761e-18
9477.99570 3.25676e-18
9479.99870 3.17877e-18
9482.00170 3.58514e-18
9483.99469 3.44542e-18
9485.99769 3.23896e-18
9488.00069 3.32295e-18
9490.00369 3.31648e-18
9491.99667 3.17276e-18
9493.99967 3.37917e-18
9496.00267 3.39615e-18
9497.99566 3.25378e-18
9499.99866 3.24273e-18
9502.00166 3.59043e-18
9504.00466 3.34148e-18
9505.99764 3.32384e-18
9508.00064 3.30415e-18
9510.00364 3.37499e-18
9511.99662 3.25101e-18
9513.99963 3.21702e-18
9516.00263 3.16112e-18
9517.99561 3.30374e-18
9519.99861 3.25320e-18
9522.00161 3.29057e-18
9524.00461 3.29181e-18
9525.99760 3.17536e-18
9528.00059 3.27722e-18
9530.00360 3.36087e-18
9531.99658 3.26045e-18
9533.99958 3.20269e-18
9536.00258 3.35141e-18
9537.99556 3.37973e-18
9539.99856 3.25818e-18
9542.00157 3.28259e-18
9544.00456 3.54450e-18
9545.99755 3.75953e-18
9548.00055 3.54470e-18
9550.00355 3.38157e-18
9551.99654 3.27399e-18
9553.99954 3.39591e-18
9556.00254 3.45595e-18
9557.99552 3.43522e-18
9559.99852 3.29631e-18
9562.00152 3.13120e-18
9564.00452 3.25636e-18
9565.99751 3.25157e-18
9568.00050 3.19646e-18
9570.00351 3.18759e-18
9571.99649 3.12468e-18
9573.99949 3.11216e-18
9576.00249 3.13240e-18
9577.99547 3.07211e-18
9579.99848 3.17608e-18
9582.00148 3.40009e-18
9584.00447 3.19730e-18
9585.99746 3.10051e-18
9588.00046 3.03404e-18
9590.00346 3.14981e-18
9591.99644 3.24123e-18
9593.99944 3.21304e-18
9596.00245 3.07970e-18
9597.99543 3.17112e-18
9599.99843 3.22380e-18
9602.00143 3.16127e-18
9604.00443 3.10002e-18
9605.99742 3.15222e-18
9608.00042 3.22967e-18
9610.00342 3.24212e-18
9611.99640 3.18188e-18
9613.99940 3.11453e-18
9616.00240 3.08400e-18
9617.99539 3.08191e-18
9619.99839 3.04570e-18
9622.00139 3.12449e-18
9624.00439 3.06490e-18
9625.99737 3.13521e-18
9628.00037 3.22746e-18
9630.00337 3.19009e-18
9631.99636 3.01316e-18
9633.99935 3.05042e-18
9636.00236 3.11322e-18
9637.99534 3.23247e-18
9639.99834 3.13575e-18
9642.00134 3.04765e-18
9644.00434 3.05213e-18
9645.99733 3.19995e-18
9648.00032 3.09260e-18
9650.00332 3.04328e-18
9651.99631 3.13487e-18
9653.99931 3.10078e-18
9656.00231 3.12083e-18
9657.99530 3.05349e-18
9659.99830 3.05180e-18
9662.00130 3.15858e-18
9664.00430 3.16688e-18
9665.99728 3.05210e-18
9668.00028 3.02216e-18
9670.00328 3.12667e-18
9671.99627 3.17737e-18
9673.99927 3.16881e-18
9676.00227 3.19448e-18
9677.99525 3.02933e-18
9679.99825 3.03231e-18
9682.00125 3.06562e-18
9684.00425 3.07679e-18
9685.99724 3.04955e-18
9688.00023 3.12745e-18
9690.00324 3.04681e-18
9691.99622 3.10885e-18
9693.99922 3.09422e-18
9696.00222 3.02459e-18
9697.99520 3.01533e-18
9699.99820 3.00670e-18
9702.00121 3.03054e-18
9704.00420 3.01470e-18
9705.99719 2.94510e-18
9708.00019 3.04541e-18
9710.00319 3.03976e-18
9711.99618 2.95327e-18
9713.99918 3.03980e-18
9716.00218 3.15270e-18
9717.99516 3.00370e-18
9719.99816 3.07976e-18
9722.00116 3.06443e-18
9724.00416 3.16679e-18
9725.99715 3.05467e-18
9728.00014 3.16685e-18
9730.00315 3.00449e-18
9731.99613 3.00467e-18
9733.99913 3.00050e-18
9736.00213 3.04426e-18
9738.00513 3.13191e-18
9739.99812 3.05278e-18
9742.00112 2.95379e-18
9744.00411 3.08529e-18
9745.99710 3.07467e-18
9748.00010 3.07201e-18
9750.00310 3.03004e-18
9751.99609 2.97819e-18
9753.99908 2.95059e-18
9756.00209 3.06775e-18
9757.99507 3.09764e-18
9759.99807 3.02306e-18
9762.00107 3.05934e-18
9764.00407 3.09801e-18
9765.99706 2.99699e-18
9768.00006 2.98688e-18
9770.00306 3.03235e-18
9771.99604 2.96697e-18
9773.99904 2.99850e-18
9776.00204 2.98244e-18
9777.99503 3.03347e-18
9779.99803 2.98670e-18
9782.00103 3.06194e-18
9784.00403 3.01820e-18
9785.99701 3.06054e-18
9788.00001 2.99340e-18
9790.00301 2.97599e-18
9791.99600 3.01260e-18
9793.99899 3.19249e-18
9796.00200 3.00683e-18
9798.00500 2.96809e-18
9799.99798 3.06563e-18
9802.00098 2.99461e-18
9804.00398 3.00813e-18
9805.99697 3.12366e-18
9807.99997 3.01245e-18
9810.00296 3.00947e-18
9811.99595 3.01606e-18
9813.99895 2.96731e-18
9816.00195 2.90848e-18
9817.99494 2.92945e-18
9819.99794 3.01923e-18
9822.00094 2.99505e-18
9824.00394 2.96497e-18
9825.99692 3.06455e-18
9827.99992 2.99792e-18
9830.00292 3.02991e-18
9831.99591 3.07930e-18
9833.99891 3.05708e-18
9836.00191 3.06574e-18
9837.99489 3.04688e-18
9839.99789 3.04339e-18
9842.00089 2.96599e-18
9844.00389 2.96427e-18
9845.99688 2.97714e-18
9847.99988 2.93990e-18
9850.00288 2.96456e-18
9851.99586 2.98457e-18
9853.99886 3.02411e-18
9856.00186 2.94847e-18
9858.00486 2.97840e-18
9859.99784 3.01110e-18
9862.00085 2.98390e-18
9864.00384 3.02475e-18
9865.99683 2.99804e-18
9867.99983 2.98975e-18
9870.00283 3.02550e-18
9871.99582 2.95894e-18
9873.99881 3.06853e-18
9876.00181 2.98047e-18
9878.00482 3.00275e-18
9879.99780 2.98297e-18
9882.00080 3.03781e-18
9884.00380 2.99649e-18
9885.99679 3.01312e-18
9887.99979 2.93397e-18
9890.00279 2.90514e-18
9891.99577 2.94986e-18
9893.99877 2.94152e-18
9896.00177 3.01094e-18
9897.99476 2.95262e-18
9899.99776 2.96547e-18
9902.00076 2.95015e-18
9904.00375 2.91575e-18
9905.99674 2.94644e-18
9907.99974 2.86526e-18
9910.00274 2.95630e-18
9911.99573 2.94868e-18
9913.99872 3.14020e-18
9916.00173 2.97599e-18
9918.00473 2.99233e-18
9919.99771 2.97095e-18
9922.00071 2.88799e-18
9924.00371 2.82504e-18
9925.99669 2.95900e-18
9927.99970 2.92681e-18
9930.00269 2.92776e-18
9931.99568 2.94727e-18
9933.99868 3.02156e-18
9936.00168 2.95074e-18
9938.00468 2.94329e-18
9939.99767 2.93052e-18
9942.00067 2.85535e-18
9944.00367 2.88074e-18
9945.99665 2.90608e-18
9947.99965 3.05309e-18
9950.00265 2.92005e-18
9951.99564 2.87979e-18
9953.99863 2.97162e-18
9956.00164 2.88835e-18
9957.99462 2.89476e-18
9959.99762 2.85340e-18
9962.00062 2.98409e-18
9964.00362 2.93573e-18
9965.99661 2.92433e-18
9967.99961 2.92405e-18
9970.00260 2.93525e-18
9971.99559 2.94680e-18
9973.99859 2.84797e-18
9976.00159 2.88274e-18
9978.00459 2.91215e-18
9979.99757 2.95780e-18
9982.00058 2.90031e-18
9984.00358 2.88763e-18
9985.99656 2.87883e-18
9987.99956 2.80684e-18
9990.00256 2.92626e-18
9991.99555 2.93324e-18
9993.99855 2.84889e-18
9996.00155 2.93510e-18
9998.00455 2.82905e-18
9999.99753 2.85336e-18
