# wavelength flux
3475.09905 -3.95235e-18
3476.57640 3.34691e-18
3478.04370 8.69742e-18
3479.51100 1.36319e-17
3480.98835 2.75192e-17
3482.45565 2.53682e-17
3483.92295 1.93978e-17
3485.39025 1.46030e-17
3486.86760 2.92388e-17
3488.33490 2.46295e-17
3489.80220 -8.98572e-20
3491.26950 9.55148e-18
3492.74685 1.86311e-17
3494.21415 2.42812e-17
3495.68145 1.15992e-17
3497.15880 9.22863e-18
3498.62610 1.83322e-17
3500.09340 8.62068e-18
3501.56070 1.16645e-17
3503.03805 9.27472e-19
3504.50535 6.66386e-18
3505.97265 2.15515e-17
3507.43995 1.93124e-17
3508.91730 1.83072e-17
3510.38460 1.11045e-17
3511.85190 5.12138e-19
3513.32925 2.57575e-18
3514.79655 1.77660e-17
3516.26385 1.32586e-17
3517.73115 1.46448e-17
3519.20850 2.84586e-17
3520.67580 6.81196e-18
3522.14310 7.93712e-18
3523.61040 2.76871e-17
3525.08775 1.78976e-17
3526.55505 1.42901e-17
3528.02235 2.05934e-17
3529.49970 3.73656e-17
3530.96700 3.06437e-17
3532.43430 -1.79873e-18
3533.90160 -1.98835e-18
3535.37895 -7.92039e-18
3536.84625 -6.63079e-18
3538.31355 1.55809e-17
3539.78085 3.81131e-17
3541.25820 2.65023e-17
3542.72550 4.06197e-17
3544.19280 5.03353e-17
3545.67015 3.13457e-17
3547.13745 8.71263e-18
3548.60475 7.54014e-18
3550.07205 2.22250e-18
3551.54940 3.68257e-18
3553.01670 2.48387e-17
3554.48400 3.55031e-17
3555.96135 7.92982e-18
3557.42865 1.07231e-17
3558.89595 4.54426e-17
3560.36325 2.85938e-17
3561.84060 2.05520e-17
3563.30790 2.93399e-17
3564.77520 6.52879e-18
3566.24250 -1.01259e-17
3567.71985 -4.18268e-18
3569.18715 -1.22776e-17
3570.65445 -1.63765e-17
3572.12175 1.42437e-17
3573.59910 4.95875e-17
3575.06640 4.23199e-17
3576.53370 3.30094e-17
3578.01105 2.64013e-17
3579.47835 2.39070e-18
3580.94565 -9.89811e-19
3582.41295 2.07764e-17
3583.89030 3.15461e-17
3585.35760 1.53028e-17
3586.82490 2.44107e-17
3588.30225 3.20957e-17
3589.76955 1.70682e-17
3591.23685 3.70947e-17
3592.70415 4.81032e-17
3594.18150 1.42180e-17
3595.64880 9.23387e-18
3597.11610 5.54674e-18
3598.58340 -7.35655e-18
3600.06075 8.33895e-18
3601.52805 4.54516e-17
3602.99535 3.41414e-17
3604.47270 -2.90454e-18
3605.94000 8.63717e-18
3607.40730 1.85844e-17
3608.87460 1.32080e-17
3610.35195 1.87729e-17
3611.81925 1.96914e-17
3613.28655 8.85578e-18
3614.75385 4.55749e-18
3616.23120 8.77718e-18
3617.69850 1.10453e-17
3619.16580 2.85725e-17
3620.64315 1.52093e-17
3622.11045 -6.81942e-18
3623.57775 5.02153e-18
3625.04505 1.38979e-17
3626.52240 -1.58485e-17
3627.98970 4.89935e-18
3629.45700 9.99624e-18
3630.92430 8.87521e-18
3632.40165 3.39134e-17
3633.86895 4.32089e-17
3635.33625 2.39064e-17
3636.81360 2.25000e-18
3638.28090 2.56211e-18
3639.74820 -2.90849e-19
3641.21550 2.23565e-17
3642.69285 1.22777e-17
3644.16015 -8.15116e-18
3645.62745 -6.67600e-19
3647.09475 2.01826e-17
3648.57210 3.62191e-17
3650.03940 2.98827e-17
3651.50670 2.63711e-17
3652.98405 3.68544e-17
3654.45135 3.79859e-17
3655.91865 2.38422e-17
3657.38595 1.50095e-17
3658.86330 5.32122e-18
3660.33060 1.14399e-17
3661.79790 2.02339e-17
3663.26520 2.95101e-17
3664.74255 2.72037e-17
3666.20985 1.11088e-17
3667.67715 4.88550e-18
3669.15450 -6.60424e-18
3670.62180 1.99026e-18
3672.08910 1.78424e-17
3673.55640 2.38431e-17
3675.03375 4.55459e-17
3676.50105 3.49722e-17
3677.96835 6.03143e-18
3679.43565 3.27468e-18
3680.91300 2.25492e-17
3682.38030 1.04679e-17
3683.84760 1.22310e-17
3685.32495 2.41161e-17
3686.79225 2.80008e-17
3688.25955 3.24430e-17
3689.72685 2.72053e-17
3691.20420 1.36934e-18
3692.67150 4.57401e-18
3694.13880 1.01107e-17
3695.60610 -5.33785e-18
3697.08345 -1.06148e-17
3698.55075 -8.87859e-19
3700.01805 -7.31795e-18
3701.49540 -1.09334e-17
3702.96270 -6.11912e-18
3704.43000 1.64860e-17
3705.89730 1.96691e-17
3707.37465 2.17317e-17
3708.84195 1.36837e-17
3710.30925 3.09153e-18
3711.77655 1.43306e-17
3713.25390 -2.62962e-18
3714.72120 -8.16364e-18
3716.18850 5.22995e-18
3717.66585 1.54865e-17
3719.13315 3.33733e-17
3720.60045 3.54302e-17
3722.06775 1.15056e-17
3723.54510 1.90343e-18
3725.01240 6.76806e-18
3726.47970 2.32409e-17
3727.94700 1.86737e-17
3729.42435 1.93861e-18
3730.89165 2.04356e-17
3732.35895 2.62430e-17
3733.83630 1.09441e-17
3735.30360 1.80786e-17
3736.77090 3.22341e-17
3738.23820 3.89289e-17
3739.71555 2.52653e-17
3741.18285 2.61816e-17
3742.65015 2.49294e-17
3744.11745 2.36773e-17
3745.59480 2.24255e-17
3747.06210 2.11739e-17
3748.52940 1.99225e-17
3750.00675 1.86713e-17
3751.47405 1.74204e-17
3752.94135 1.61696e-17
3754.40865 1.49191e-17
3755.88600 1.36688e-17
3757.35330 1.24187e-17
3758.82060 1.24177e-17
3760.28790 7.69770e-18
3761.76525 2.67447e-17
3763.23255 2.34986e-17
3764.69985 8.60888e-18
3766.17720 1.30280e-17
3767.64450 1.27858e-17
3769.11180 -5.14634e-19
3770.57910 2.90983e-18
3772.05645 2.06921e-17
3773.52375 2.94670e-17
3774.99105 2.58507e-17
3776.45835 2.72467e-17
3777.93570 1.67411e-17
3779.40300 1.74113e-17
3780.87030 1.83791e-17
3782.34765 2.16505e-17
3783.81495 1.51218e-17
3785.28225 2.65124e-17
3786.74955 3.39318e-17
3788.22690 2.16575e-17
3789.69420 1.19352e-17
3791.16150 -1.48832e-19
3792.62880 1.12540e-17
3794.10615 3.30679e-17
3795.57345 3.28548e-17
3797.04075 4.67007e-18
3798.51810 9.49388e-18
3799.98540 2.85012e-17
3801.45270 1.66183e-17
3802.92000 9.11352e-18
3804.39735 2.09903e-17
3805.86465 2.41962e-17
3807.33195 1.56315e-17
3808.79925 1.19894e-17
3810.27660 1.41173e-17
3811.74390 9.69893e-18
3813.21120 7.16855e-18
3814.68855 2.41036e-17
3816.15585 4.06861e-17
3817.62315 3.48720e-17
3819.09045 1.85664e-17
3820.56780 1.48793e-17
3822.03510 1.11525e-17
3823.50240 7.20991e-18
3824.96970 1.66931e-17
3826.44705 2.59299e-17
3827.91435 1.82805e-17
3829.38165 8.87557e-18
3830.85900 8.34870e-18
3832.32630 1.44509e-17
3833.79360 2.12072e-17
3835.26090 2.33566e-17
3836.73825 1.04727e-17
3838.20555 2.99329e-18
3839.67285 9.82877e-18
3841.14015 1.02883e-17
3842.61750 9.60408e-18
3844.08480 1.27428e-17
3845.55210 6.26283e-18
3847.02945 -1.53835e-19
3848.49675 5.51280e-18
3849.96405 1.25998e-17
3851.43135 1.09041e-17
3852.90870 6.89222e-18
3854.37600 2.41925e-17
3855.84330 2.49208e-17
3857.31060 1.34879e-17
3858.78795 2.20603e-17
3860.25525 1.42378e-17
3861.72255 8.72989e-18
3863.19990 1.22368e-17
3864.66720 1.85582e-17
3866.13450 2.26172e-17
3867.60180 2.49555e-17
3869.07915 3.57023e-17
3870.54645 1.61102e-17
3872.01375 8.54028e-18
3873.48105 2.86501e-18
3874.95840 9.92978e-18
3876.42570 3.58227e-17
3877.89300 2.91054e-17
3879.37035 1.61968e-17
3880.83765 9.47549e-18
3882.30495 1.49190e-17
3883.77225 7.85920e-18
3885.24960 6.68063e-18
3886.71690 1.26135e-17
3888.18420 3.07652e-18
3889.65150 8.26639e-18
3891.12885 1.02074e-17
3892.59615 1.40806e-17
3894.06345 1.01047e-17
3895.54080 2.40185e-18
3897.00810 9.98521e-18
3898.47540 7.83461e-18
3899.94270 4.06616e-18
3901.42005 1.48834e-17
3902.88735 1.86003e-17
3904.35465 1.62038e-17
3905.82195 8.61135e-18
3907.29930 1.31631e-17
3908.76660 1.14908e-17
3910.23390 8.21471e-18
3911.71125 1.01084e-17
3913.17855 1.12165e-17
3914.64585 1.60964e-17
3916.11315 2.02792e-17
3917.59050 1.39677e-17
3919.05780 1.03738e-17
3920.52510 8.01562e-18
3921.99240 1.94198e-17
3923.46975 2.76821e-17
3924.93705 1.72375e-17
3926.40435 8.54158e-18
3927.88170 1.07715e-17
3929.34900 1.48829e-17
3930.81630 1.20484e-17
3932.28360 1.35969e-17
3933.76095 1.62321e-17
3935.22825 1.54704e-17
3936.69555 1.12344e-17
3938.16285 3.69902e-18
3939.64020 9.59727e-18
3941.10750 1.39139e-17
3942.57480 1.55875e-17
3944.05215 1.49666e-17
3945.51945 1.75978e-17
3946.98675 1.52079e-17
3948.45405 7.94540e-18
3949.93140 1.35345e-17
3951.39870 1.22462e-17
3952.86600 1.48828e-17
3954.33330 2.15244e-17
3955.81065 1.27860e-17
3957.27795 1.64552e-17
3958.74525 1.79018e-17
3960.22260 1.18324e-17
3961.68990 1.54225e-17
3963.15720 1.95486e-17
3964.62450 1.49226e-17
3966.10185 8.88695e-18
3967.56915 8.31865e-18
3969.03645 1.27717e-17
3970.50375 1.15038e-17
3971.98110 8.94491e-18
3973.44840 1.41252e-17
3974.91570 1.52902e-17
3976.39305 1.54085e-17
3977.86035 1.89981e-17
3979.32765 1.70831e-17
3980.79495 1.44666e-17
3982.27230 1.35518e-17
3983.73960 1.34729e-17
3985.20690 9.66100e-18
3986.67420 1.14987e-17
3988.15155 1.39964e-17
3989.61885 1.56321e-17
3991.08615 8.61105e-18
3992.56350 2.88931e-19
3994.03080 7.89106e-18
3995.49810 1.27790e-17
3996.96540 1.10841e-17
3998.44275 1.41569e-17
3999.91005 1.45746e-17
4001.37735 1.43835e-17
4002.85470 1.13091e-17
4004.32200 9.45114e-18
4005.78930 1.41519e-17
4007.25660 2.21281e-17
4008.73395 1.95368e-17
4010.20125 1.25835e-17
4011.66855 1.80576e-17
4013.13585 1.52790e-17
4014.61320 1.13197e-17
4016.08050 2.11498e-17
4017.54780 1.77102e-17
4019.01510 8.14783e-18
4020.49245 1.37318e-17
4021.95975 1.22419e-17
4023.42705 1.48837e-17
4024.90440 1.54623e-17
4026.37170 1.28212e-17
4027.83900 1.08719e-17
4029.30630 1.51204e-17
4030.78365 1.81987e-17
4032.25095 1.74661e-17
4033.71825 1.55235e-17
4035.19560 1.37902e-17
4036.66290 1.59268e-17
4038.13020 6.42818e-18
4039.59750 1.24376e-17
4041.07485 1.65831e-17
4042.54215 1.03854e-17
4044.00945 1.44003e-17
4045.47675 1.74668e-17
4046.95410 1.08526e-17
4048.42140 1.42462e-17
4049.88870 1.68102e-17
4051.36605 1.59806e-17
4052.83335 2.21199e-17
4054.30065 2.15482e-17
4055.76795 1.34187e-17
4057.24530 1.20879e-17
4058.71260 1.88769e-17
4060.17990 1.93775e-17
4061.64720 1.50638e-17
4063.12455 1.17752e-17
4064.59185 1.06055e-17
4066.05915 1.43180e-17
4067.52645 1.42448e-17
4069.00380 1.89475e-17
4070.47110 2.34051e-17
4071.93840 1.99555e-17
4073.41575 1.60222e-17
4074.88305 1.87245e-17
4076.35035 1.89210e-17
4077.81765 2.10407e-17
4079.29500 1.63528e-17
4080.76230 6.50339e-18
4082.22960 1.17838e-17
4083.70695 1.91287e-17
4085.17425 1.70130e-17
4086.64155 1.04812e-17
4088.10885 9.98071e-18
4089.58620 1.00765e-17
4091.05350 8.77483e-18
4092.52080 9.43673e-18
4093.98810 8.78344e-18
4095.46545 1.14510e-17
4096.93275 1.28685e-17
4098.40005 1.32639e-17
4099.87740 1.05177e-17
4101.34470 1.27034e-17
4102.81200 1.31506e-17
4104.27930 1.34388e-17
4105.75665 2.01379e-17
4107.22395 1.75267e-17
4108.69125 1.35219e-17
4110.15855 1.80701e-17
4111.63590 1.78263e-17
4113.10320 1.44807e-17
4114.57050 1.48328e-17
4116.04785 1.70516e-17
4117.51515 1.52932e-17
4118.98245 1.06127e-17
4120.44975 7.59547e-18
4121.92710 6.12866e-18
4123.39440 1.29548e-17
4124.86170 1.37649e-17
4126.32900 1.75136e-17
4127.80635 1.33273e-17
4129.27365 8.72973e-18
4130.74095 1.35333e-17
4132.21830 1.39066e-17
4133.68560 1.18102e-17
4135.15290 1.79561e-17
4136.62020 1.49453e-17
4138.09755 1.76631e-17
4139.56485 1.52110e-17
4141.03215 1.32949e-17
4142.49945 8.14154e-18
4143.97680 1.52632e-17
4145.44410 8.10659e-18
4146.91140 6.84758e-18
4148.38875 1.26829e-17
4149.85605 1.68646e-17
4151.32335 1.33465e-17
4152.79065 1.39448e-17
4154.26800 1.66561e-17
4155.73530 1.10721e-17
4157.20260 1.29353e-17
4158.66990 1.67915e-17
4160.14725 1.92165e-17
4161.61455 1.87234e-17
4163.08185 2.38980e-17
4164.55920 1.65340e-17
4166.02650 6.74029e-18
4167.49380 7.49393e-18
4168.96110 1.93709e-17
4170.43845 1.77258e-17
4171.90575 1.02054e-17
4173.37305 1.13789e-17
4174.84035 1.80814e-17
4176.31770 2.04613e-17
4177.78500 1.59727e-17
4179.25230 9.02752e-18
4180.72965 7.55972e-18
4182.19695 7.02247e-18
4183.66425 9.89401e-18
4185.13155 1.38873e-17
4186.60890 1.64167e-17
4188.07620 1.20009e-17
4189.54350 1.29221e-17
4191.01080 1.32426e-17
4192.48815 9.16801e-18
4193.95545 1.02241e-17
4195.42275 1.77891e-17
4196.90010 1.92792e-17
4198.36740 1.37204e-17
4199.83470 1.07330e-17
4201.30200 1.92266e-17
4202.77935 1.65203e-17
4204.24665 9.74766e-18
4205.71395 1.02876e-17
4207.18125 1.26730e-17
4208.65860 1.54507e-17
4210.12590 1.23934e-17
4211.59320 1.26724e-17
4213.07055 1.34476e-17
4214.53785 1.07715e-17
4216.00515 1.01150e-17
4217.47245 1.17844e-17
4218.94980 1.28750e-17
4220.41710 1.52197e-17
4221.88440 1.53971e-17
4223.35170 1.39604e-17
4224.82905 1.41193e-17
4226.29635 1.23538e-17
4227.76365 1.23778e-17
4229.24100 9.81086e-18
4230.70830 9.76144e-18
4232.17560 9.12420e-18
4233.64290 1.18595e-17
4235.12025 1.37210e-17
4236.58755 1.45820e-17
4238.05485 1.53216e-17
4239.52215 1.23346e-17
4240.99950 1.20475e-17
4242.46680 9.69226e-18
4243.93410 1.26319e-17
4245.41145 1.21274e-17
4246.87875 9.03659e-18
4248.34605 1.25910e-17
4249.81335 1.59269e-17
4251.29070 1.11050e-17
4252.75800 1.23881e-17
4254.22530 1.19931e-17
4255.69260 1.33570e-17
4257.16995 1.23547e-17
4258.63725 6.60337e-18
4260.10455 8.57386e-18
4261.58190 9.56900e-18
4263.04920 1.17364e-17
4264.51650 1.07215e-17
4265.98380 1.40131e-17
4267.46115 1.52904e-17
4268.92845 1.54104e-17
4270.39575 1.64686e-17
4271.86305 1.57977e-17
4273.34040 1.25217e-17
4274.80770 1.41289e-17
4276.27500 1.93134e-17
4277.75235 1.97258e-17
4279.21965 1.70482e-17
4280.68695 6.24712e-18
4282.15425 7.04563e-18
4283.63160 7.68948e-18
4285.09890 8.90279e-18
4286.56620 1.35905e-17
4288.03350 1.16216e-17
4289.51085 1.21709e-17
4290.97815 1.28669e-17
4292.44545 1.54963e-17
4293.92280 1.11847e-17
4295.39010 1.04156e-17
4296.85740 1.38744e-17
4298.32470 1.34882e-17
4299.80205 1.05856e-17
4301.26935 9.93834e-18
4302.73665 1.38528e-17
4304.20395 1.36994e-17
4305.68130 1.20026e-17
4307.14860 9.98588e-18
4308.61590 1.02685e-17
4310.09325 1.05814e-17
4311.56055 1.02703e-17
4313.02785 1.18933e-17
4314.49515 1.49496e-17
4315.97250 1.28421e-17
4317.43980 7.39734e-18
4318.90710 1.33109e-17
4320.37440 1.28884e-17
4321.85175 1.03707e-17
4323.31905 1.25395e-17
4324.78635 1.25224e-17
4326.26370 1.24689e-17
4327.73100 1.30006e-17
4329.19830 1.38419e-17
4330.66560 1.49571e-17
4332.14295 1.06275e-17
4333.61025 6.42781e-18
4335.07755 1.34013e-17
4336.54485 1.30673e-17
4338.02220 1.05262e-17
4339.48950 1.14758e-17
4340.95680 1.43481e-17
4342.43415 1.57075e-17
4343.90145 1.21658e-17
4345.36875 1.02317e-17
4346.83605 1.09197e-17
4348.31340 1.28919e-17
4349.78070 1.49490e-17
4351.24800 1.10052e-17
4352.71530 7.86115e-18
4354.19265 8.07624e-18
4355.65995 8.94780e-18
4357.12725 1.68460e-17
4358.60460 1.76337e-17
4360.07190 1.48459e-17
4361.53920 1.49513e-17
4363.00650 8.76882e-18
4364.48385 6.11393e-18
4365.95115 8.79800e-18
4367.41845 1.05306e-17
4368.88575 6.48700e-18
4370.36310 6.14073e-18
4371.83040 7.45707e-18
4373.29770 1.02662e-17
4374.77505 1.15848e-17
4376.24235 1.25569e-17
4377.70965 1.20551e-17
4379.17695 5.79658e-18
4380.65430 1.25421e-17
4382.12160 1.36236e-17
4383.58890 1.45345e-17
4385.06625 1.49685e-17
4386.53355 1.19890e-17
4388.00085 1.12543e-17
4389.46815 1.44230e-17
4390.94550 1.55103e-17
4392.41280 1.31055e-17
4393.88010 1.16671e-17
4395.34740 1.48176e-17
4396.82475 1.49206e-17
4398.29205 1.14555e-17
4399.75935 1.01126e-17
4401.22665 1.05190e-17
4402.70400 9.50854e-18
4404.17130 8.53009e-18
4405.63860 9.21065e-18
4407.11595 9.69453e-18
4408.58325 5.83885e-18
4410.05055 3.79551e-18
4411.51785 7.12673e-18
4412.99520 6.70392e-18
4414.46250 1.07324e-17
4415.92980 1.14514e-17
4417.39710 7.46399e-18
4418.87445 1.07819e-17
4420.34175 1.20887e-17
4421.80905 8.33578e-18
4423.28640 1.07700e-17
4424.75370 1.20658e-17
4426.22100 6.83536e-18
4427.68830 8.55247e-18
4429.16565 1.32370e-17
4430.63295 1.33589e-17
4432.10025 1.48830e-17
4433.57760 1.37052e-17
4435.04490 1.09197e-17
4436.51220 1.39465e-17
4437.97950 1.19530e-17
4439.45685 8.45356e-18
4440.92415 8.73107e-18
4442.39145 1.20419e-17
4443.85875 1.71164e-17
4445.33610 1.37575e-17
4446.80340 1.30490e-17
4448.27070 1.75247e-17
4449.73800 1.58873e-17
4451.21535 1.47853e-17
4452.68265 1.85741e-17
4454.14995 1.75393e-17
4455.62730 1.11652e-17
4457.09460 8.31521e-18
4458.56190 1.07597e-17
4460.02920 1.20742e-17
4461.50655 1.16761e-17
4462.97385 1.27232e-17
4464.44115 1.10234e-17
4465.90845 1.20437e-17
4467.38580 8.53388e-18
4468.85310 1.11042e-17
4470.32040 2.24580e-17
4471.79775 1.52071e-17
4473.26505 6.22621e-18
4474.73235 7.11329e-18
4476.19965 1.00845e-17
4477.67700 1.42661e-17
4479.14430 1.49424e-17
4480.61160 9.86970e-18
4482.08895 1.29164e-17
4483.55625 1.26956e-17
4485.02355 1.04863e-17
4486.49085 1.00466e-17
4487.96820 9.92637e-18
4489.43550 1.34824e-17
4490.90280 1.14033e-17
4492.37010 1.08372e-17
4493.84745 9.06545e-18
4495.31475 9.87709e-18
4496.78205 1.44447e-17
4498.25940 9.60629e-18
4499.72670 7.62563e-18
4501.19400 1.15321e-17
4502.66130 1.50134e-17
4504.13865 1.04298e-17
4505.60595 1.12226e-17
4507.07325 1.26115e-17
4508.54055 1.22914e-17
4510.01790 1.11833e-17
4511.48520 1.28375e-17
4512.95250 6.68720e-18
4514.42985 8.93415e-18
4515.89715 1.45183e-17
4517.36445 1.38522e-17
4518.83175 1.06648e-17
4520.30910 1.15258e-17
4521.77640 1.17439e-17
4523.24370 1.20911e-17
4524.71100 1.47792e-17
4526.18835 9.66365e-18
4527.65565 8.09485e-18
4529.12295 9.31304e-18
4530.60030 1.07216e-17
4532.06760 1.43998e-17
4533.53490 1.02309e-17
4535.00220 8.03440e-18
4536.47955 1.16371e-17
4537.94685 1.22102e-17
4539.41415 1.34410e-17
4540.88145 1.46066e-17
4542.35880 1.49771e-17
4543.82610 1.46453e-17
4545.29340 1.24600e-17
4546.77075 1.78771e-17
4548.23805 1.39073e-17
4549.70535 1.05592e-17
4551.17265 1.39305e-17
4552.65000 1.12532e-17
4554.11730 1.15692e-17
4555.58460 9.10997e-18
4557.05190 7.82154e-18
4558.52925 1.03349e-17
4559.99655 1.31366e-17
4561.46385 1.26746e-17
4562.93115 1.27394e-17
4564.40850 1.14114e-17
4565.87580 1.68844e-17
4567.34310 1.62494e-17
4568.82045 1.29468e-17
4570.28775 1.47192e-17
4571.75505 1.42437e-17
4573.22235 1.80061e-17
4574.69970 1.44752e-17
4576.16700 8.90939e-18
4577.63430 1.39961e-17
4579.11165 1.31655e-17
4580.57895 1.53878e-17
4582.04625 1.36708e-17
4583.51355 1.34720e-17
4584.99090 1.27616e-17
4586.45820 1.48832e-17
4587.92550 1.02324e-17
4589.39280 6.62998e-18
4590.87015 1.14781e-17
4592.33745 1.63576e-17
4593.80475 1.33527e-17
4595.28210 1.13526e-17
4596.74940 1.20958e-17
4598.21670 1.54407e-17
4599.68400 1.53993e-17
4601.16135 1.96536e-17
4602.62865 1.67073e-17
4604.09595 1.21524e-17
4605.56325 1.33859e-17
4607.04060 1.75462e-17
4608.50790 2.11528e-17
4609.97520 2.12360e-17
4611.45255 1.30788e-17
4612.91985 1.59695e-17
4614.38715 1.57470e-17
4615.85445 1.32986e-17
4617.33180 1.28730e-17
4618.79910 1.53846e-17
4620.26640 1.44077e-17
4621.73370 1.03061e-17
4623.21105 1.16303e-17
4624.67835 1.41829e-17
4626.14565 1.53145e-17
4627.62300 1.49746e-17
4629.09030 1.54038e-17
4630.55760 1.09127e-17
4632.02490 1.40689e-17
4633.50225 1.01386e-17
4634.96955 6.79179e-18
4636.43685 1.07932e-17
4637.90415 1.12003e-17
4639.38150 1.46093e-17
4640.84880 1.57225e-17
4642.31610 1.25457e-17
4643.79345 1.36852e-17
4645.26075 1.55554e-17
4646.72805 1.61148e-17
4648.19535 1.70210e-17
4649.67270 1.24780e-17
4651.14000 6.52281e-18
4652.60730 8.53240e-18
4654.07460 1.19795e-17
4655.55195 1.32583e-17
4657.01925 1.44675e-17
4658.48655 1.28825e-17
4659.96390 1.79631e-17
4661.43120 1.69677e-17
4662.89850 1.47187e-17
4664.36580 1.17191e-17
4665.84315 1.07762e-17
4667.31045 1.04209e-17
4668.77775 1.04092e-17
4670.24505 7.04987e-18
4671.72240 1.06623e-17
4673.18970 1.33058e-17
4674.65700 1.28186e-17
4676.13435 1.47419e-17
4677.60165 1.31799e-17
4679.06895 7.76959e-18
4680.53625 1.09808e-17
4682.01360 1.16467e-17
4683.48090 9.66456e-18
4684.94820 1.10650e-17
4686.41550 1.55472e-17
4687.89285 1.59626e-17
4689.36015 1.37077e-17
4690.82745 1.40435e-17
4692.30480 1.11616e-17
4693.77210 9.38387e-18
4695.23940 1.16475e-17
4696.70670 1.82444e-17
4698.18405 1.55327e-17
4699.65135 1.42976e-17
4701.11865 1.71651e-17
4702.58595 1.40712e-17
4704.06330 1.63096e-17
4705.53060 1.75753e-17
4706.99790 1.06112e-17
4708.47525 1.45669e-17
4709.94255 1.37318e-17
4711.40985 1.25264e-17
4712.87715 1.16814e-17
4714.35450 8.90157e-18
4715.82180 1.09960e-17
4717.28910 1.83968e-17
4718.75640 1.32080e-17
4720.23375 1.08192e-17
4721.70105 9.70564e-18
4723.16835 1.30411e-17
4724.64570 1.49024e-17
4726.11300 1.57233e-17
4727.58030 1.31199e-17
4729.04760 1.43503e-17
4730.52495 1.59423e-17
4731.99225 1.11103e-17
4733.45955 1.36027e-17
4734.92685 1.58513e-17
4736.40420 1.24698e-17
4737.87150 7.84340e-18
4739.33880 1.26791e-17
4740.81615 1.36818e-17
4742.28345 1.18878e-17
4743.75075 9.76177e-18
4745.21805 7.15436e-18
4746.69540 1.14010e-17
4748.16270 1.44975e-17
4749.63000 1.28554e-17
4751.09730 1.42819e-17
4752.57465 1.26720e-17
4754.04195 1.29063e-17
4755.50925 1.20404e-17
4756.98660 1.23885e-17
4758.45390 1.48038e-17
4759.92120 1.43338e-17
4761.38850 1.42499e-17
4762.86585 1.47047e-17
4764.33315 1.02696e-17
4765.80045 9.34756e-18
4767.26775 1.46325e-17
4768.74510 1.35039e-17
4770.21240 1.05674e-17
4771.67970 1.52491e-17
4773.15705 1.42537e-17
4774.62435 1.00413e-17
4776.09165 8.02611e-18
4777.55895 1.09009e-17
4779.03630 1.05004e-17
4780.50360 9.72708e-18
4781.97090 1.17474e-17
4783.43820 1.26124e-17
4784.91555 1.00300e-17
4786.38285 9.80796e-18
4787.85015 5.66024e-18
4789.32750 1.24877e-17
4790.79480 1.45908e-17
4792.26210 1.21866e-17
4793.72940 1.49018e-17
4795.20675 1.14794e-17
4796.67405 7.51315e-18
4798.14135 1.08114e-17
4799.60865 1.52139e-17
4801.08600 8.24413e-18
4802.55330 9.43425e-18
4804.02060 9.63635e-18
4805.49795 1.15884e-17
4806.96525 8.13828e-18
4808.43255 1.65917e-17
4809.89985 1.25971e-17
4811.37720 1.18382e-17
4812.84450 1.50574e-17
4814.31180 1.48309e-17
4815.78915 1.21192e-17
4817.25645 1.10676e-17
4818.72375 1.20921e-17
4820.19105 1.49755e-17
4821.66840 1.36585e-17
4823.13570 1.38511e-17
4824.60300 1.13710e-17
4826.07030 1.75936e-17
4827.54765 1.37250e-17
4829.01495 7.10448e-18
4830.48225 1.43601e-17
4831.95960 1.19034e-17
4833.42690 7.76538e-18
4834.89420 1.43365e-17
4836.36150 1.29796e-17
4837.83885 7.62179e-18
4839.30615 1.06256e-17
4840.77345 7.93605e-18
4842.24075 9.38308e-18
4843.71810 1.42956e-17
4845.18540 1.46143e-17
4846.65270 1.05654e-17
4848.12000 1.04085e-17
4849.59735 1.09162e-17
4851.06465 1.32636e-17
4852.53195 1.13368e-17
4854.00930 9.03128e-18
4855.47660 1.10505e-17
4856.94390 1.00350e-17
4858.41120 1.13088e-17
4859.88855 1.05762e-17
4861.35585 9.98840e-18
4862.82315 9.66832e-18
4864.29045 1.15853e-17
4865.76780 9.94234e-18
4867.23510 7.04771e-18
4868.70240 6.77922e-18
4870.17975 1.03389e-17
4871.64705 8.20640e-18
4873.11435 9.39554e-18
4874.58165 9.23610e-18
4876.05900 9.74125e-18
4877.52630 1.02149e-17
4878.99360 9.58615e-18
4880.46090 9.09964e-18
4881.93825 7.61553e-18
4883.40555 1.24418e-17
4884.87285 1.53475e-17
4886.35020 1.25195e-17
4887.81750 1.10426e-17
4889.28480 1.27493e-17
4890.75210 9.40963e-18
4892.22945 9.01405e-18
4893.69675 1.15364e-17
4895.16405 1.16973e-17
4896.64140 1.05921e-17
4898.10870 8.28828e-18
4899.57600 9.92480e-18
4901.04330 8.49951e-18
4902.52065 7.02741e-18
4903.98795 1.22370e-17
4905.45525 1.18740e-17
4906.92255 1.08452e-17
4908.39990 1.12516e-17
4909.86720 8.22773e-18
4911.33450 1.09176e-17
4912.81185 9.15311e-18
4914.27915 1.35002e-17
4915.74645 1.23640e-17
4917.21375 8.88390e-18
4918.69110 1.19011e-17
4920.15840 9.43743e-18
4921.62570 8.73848e-18
4923.09300 7.39998e-18
4924.57035 7.59483e-18
4926.03765 8.88943e-18
4927.50495 1.19919e-17
4928.98230 8.95359e-18
4930.44960 8.76403e-18
4931.91690 8.18960e-18
4933.38420 9.67643e-18
4934.86155 1.03022e-17
4936.32885 1.06914e-17
4937.79615 1.09061e-17
4939.26345 1.40607e-17
4940.74080 1.38373e-17
4942.20810 1.30186e-17
4943.67540 1.31011e-17
4945.14270 8.28091e-18
4946.62005 6.22484e-18
4948.08735 9.54971e-18
4949.55465 1.23636e-17
4951.03200 1.40426e-17
4952.49930 7.04669e-18
4953.96660 1.16572e-17
4955.43390 1.12119e-17
4956.91125 7.88049e-18
4958.37855 1.06144e-17
4959.84585 9.35870e-18
4961.32320 7.68735e-18
4962.79050 7.33727e-18
4964.25780 1.63608e-17
4965.72510 1.25863e-17
4967.20245 5.52264e-18
4968.66975 1.27830e-17
4970.13705 8.37422e-18
4971.60435 8.62700e-18
4973.08170 1.31206e-17
4974.54900 9.99196e-18
4976.01630 8.55996e-18
4977.49365 7.23143e-18
4978.96095 7.02619e-18
4980.42825 1.24497e-17
4981.89555 1.72495e-17
4983.37290 1.75663e-17
4984.84020 1.65102e-17
4986.30750 1.18991e-17
4987.77480 1.43749e-17
4989.25215 1.52662e-17
4990.71945 1.30385e-17
4992.18675 1.44853e-17
4993.65405 1.31288e-17
4995.13140 1.27090e-17
4996.59870 1.63152e-17
4998.06600 1.66481e-17
4999.54335 1.43472e-17
5001.01065 1.39128e-17
5002.47795 1.71354e-17
5003.94525 1.00610e-17
5005.42260 1.00601e-17
5006.88990 1.26180e-17
5008.35720 1.47865e-17
5009.83455 1.44983e-17
5011.30185 1.40255e-17
5012.76915 1.33262e-17
5014.23645 1.57608e-17
5015.71380 1.68859e-17
5017.18110 1.69426e-17
5018.64840 1.46016e-17
5020.11570 1.52065e-17
5021.59305 1.58520e-17
5023.06035 1.13368e-17
5024.52765 1.19193e-17
5026.00500 1.61230e-17
5027.47230 1.81186e-17
5028.93960 1.76373e-17
5030.40690 1.60076e-17
5031.88425 1.50272e-17
5033.35155 1.67410e-17
5034.81885 1.60303e-17
5036.28615 1.53917e-17
5037.76350 1.75690e-17
5039.23080 1.59966e-17
5040.69810 1.47128e-17
5042.17545 1.23497e-17
5043.64275 1.25852e-17
5045.11005 1.13261e-17
5046.57735 1.44549e-17
5048.05470 1.57178e-17
5049.52200 1.40400e-17
5050.98930 9.87115e-18
5052.45660 1.16167e-17
5053.93395 1.09010e-17
5055.40125 1.27511e-17
5056.86855 1.50327e-17
5058.34590 1.29992e-17
5059.81320 1.13077e-17
5061.28050 1.38675e-17
5062.74780 1.52119e-17
5064.22515 1.48222e-17
5065.69245 1.23159e-17
5067.15975 1.14640e-17
5068.62705 1.67568e-17
5070.10440 1.51713e-17
5071.57170 1.31257e-17
5073.03900 1.33695e-17
5074.51635 1.39842e-17
5075.98365 1.10095e-17
5077.45095 9.88197e-18
5078.91825 1.12408e-17
5080.39560 1.49478e-17
5081.86290 1.34785e-17
5083.33020 1.17358e-17
5084.79750 1.15104e-17
5086.27485 1.26243e-17
5087.74215 1.52997e-17
5089.20945 1.08468e-17
5090.67675 9.96879e-18
5092.15410 8.67307e-18
5093.62140 7.15868e-18
5095.08870 1.12870e-17
5096.56605 1.01558e-17
5098.03335 1.16392e-17
5099.50065 8.04961e-18
5100.96795 1.01506e-17
5102.44530 1.26161e-17
5103.91260 1.15183e-17
5105.37990 1.12466e-17
5106.85725 1.24274e-17
5108.32455 8.11946e-18
5109.79185 9.24586e-18
5111.25915 8.98913e-18
5112.73650 9.38647e-18
5114.20380 1.03159e-17
5115.67110 1.14873e-17
5117.13840 9.77549e-18
5118.61575 1.28297e-17
5120.08305 1.30496e-17
5121.55035 7.39907e-18
5123.02770 1.00072e-17
5124.49500 1.36716e-17
5125.96230 1.15936e-17
5127.42960 1.12145e-17
5128.90695 1.10328e-17
5130.37425 1.07747e-17
5131.84155 1.00863e-17
5133.30885 9.50241e-18
5134.78620 1.28511e-17
5136.25350 1.13863e-17
5137.72080 1.08097e-17
5139.19815 8.06454e-18
5140.66545 1.09436e-17
5142.13275 1.49213e-17
5143.60005 1.28902e-17
5145.07740 1.16010e-17
5146.54470 1.08401e-17
5148.01200 1.47915e-17
5149.47930 1.15004e-17
5150.95665 8.47640e-18
5152.42395 1.02381e-17
5153.89125 1.51183e-17
5155.36860 1.37531e-17
5156.83590 1.27857e-17
5158.30320 1.00864e-17
5159.77050 1.05427e-17
5161.24785 1.09906e-17
5162.71515 1.33899e-17
5164.18245 1.30981e-17
5165.64975 1.37242e-17
5167.12710 1.61993e-17
5168.59440 1.43870e-17
5170.06170 1.08362e-17
5171.53905 1.19301e-17
5173.00635 1.30686e-17
5174.47365 1.35202e-17
5175.94095 1.16137e-17
5177.41830 8.69107e-18
5178.88560 1.08132e-17
5180.35290 1.43437e-17
5181.82020 1.13610e-17
5183.29755 9.48108e-18
5184.76485 1.10259e-17
5186.23215 8.96100e-18
5187.70950 1.05061e-17
5189.17680 1.14327e-17
5190.64410 1.14690e-17
5192.11140 1.10312e-17
5193.58875 1.14519e-17
5195.05605 1.20008e-17
5196.52335 1.07000e-17
5197.99065 9.91371e-18
5199.46800 1.26084e-17
5200.93530 1.02570e-17
5202.40260 9.79339e-18
5203.87995 1.08321e-17
5205.34725 8.63332e-18
5206.81455 7.62339e-18
5208.28185 9.55263e-18
5209.75920 9.43038e-18
5211.22650 9.06037e-18
5212.69380 9.33169e-18
5214.16110 1.26454e-17
5215.63845 1.08863e-17
5217.10575 1.10580e-17
5218.57305 1.08393e-17
5220.05040 1.53332e-17
5221.51770 1.15928e-17
5222.98500 1.03905e-17
5224.45230 1.41931e-17
5225.92965 1.11920e-17
5227.39695 1.07351e-17
5228.86425 1.23126e-17
5230.33155 8.70648e-18
5231.80890 9.45679e-18
5233.27620 1.04147e-17
5234.74350 9.56605e-18
5236.22085 1.09126e-17
5237.68815 1.14193e-17
5239.15545 1.29370e-17
5240.62275 1.25571e-17
5242.10010 1.03471e-17
5243.56740 1.35051e-17
5245.03470 1.38801e-17
5246.50200 1.03243e-17
5247.97935 1.03622e-17
5249.44665 1.01441e-17
5250.91395 1.19649e-17
5252.39130 1.30485e-17
5253.85860 1.17266e-17
5255.32590 8.93357e-18
5256.79320 1.21131e-17
5258.27055 1.51194e-17
5259.73785 1.32658e-17
5261.20515 1.12324e-17
5262.68250 1.21465e-17
5264.14980 1.34668e-17
5265.61710 1.30567e-17
5267.08440 1.25196e-17
5268.56175 1.16619e-17
5270.02905 9.73312e-18
5271.49635 1.16263e-17
5272.96365 1.36083e-17
5274.44100 1.33123e-17
5275.90830 1.47604e-17
5277.37560 1.33027e-17
5278.84290 1.22013e-17
5280.32025 1.30307e-17
5281.78755 9.06218e-18
5283.25485 9.07389e-18
5284.73220 1.13835e-17
5286.19950 1.10016e-17
5287.66680 1.57231e-17
5289.13410 1.49955e-17
5290.61145 9.70451e-18
5292.07875 9.35006e-18
5293.54605 1.10583e-17
5295.01335 1.38713e-17
5296.49070 1.14842e-17
5297.95800 1.18116e-17
5299.42530 1.52789e-17
5300.90265 1.19243e-17
5302.36995 1.03351e-17
5303.83725 1.25458e-17
5305.30455 1.35056e-17
5306.78190 1.14449e-17
5308.24920 1.20228e-17
5309.71650 1.44265e-17
5311.18380 1.54287e-17
5312.66115 1.42434e-17
5314.12845 1.44256e-17
5315.59575 1.52511e-17
5317.07310 1.15852e-17
5318.54040 1.17143e-17
5320.00770 1.41591e-17
5321.47500 1.19278e-17
5322.95235 1.06290e-17
5324.41965 1.20001e-17
5325.88695 1.12975e-17
5327.35425 1.21815e-17
5328.83160 1.43054e-17
5330.29890 1.38785e-17
5331.76620 1.46983e-17
5333.24355 1.40870e-17
5334.71085 1.31465e-17
5336.17815 1.08672e-17
5337.64545 1.04734e-17
5339.12280 1.43862e-17
5340.59010 1.60214e-17
5342.05740 1.47503e-17
5343.53475 1.34038e-17
5345.00205 1.31372e-17
5346.46935 1.31809e-17
5347.93665 1.53204e-17
5349.41400 1.23039e-17
5350.88130 1.17003e-17
5352.34860 1.10399e-17
5353.81590 1.31597e-17
5355.29325 1.62639e-17
5356.76055 1.35533e-17
5358.22785 1.28742e-17
5359.70520 1.35127e-17
5361.17250 1.38532e-17
5362.63980 1.33921e-17
5364.10710 1.36852e-17
5365.58445 1.34093e-17
5367.05175 1.18128e-17
5368.51905 1.00792e-17
5369.98635 1.23478e-17
5371.46370 1.44880e-17
5372.93100 1.28422e-17
5374.39830 1.44221e-17
5375.86560 1.29771e-17
5377.34295 1.03366e-17
5378.81025 9.15101e-18
5380.27755 1.18058e-17
5381.75490 1.55444e-17
5383.22220 1.36909e-17
5384.68950 1.44441e-17
5386.15680 1.43951e-17
5387.63415 8.64165e-18
5389.10145 8.86214e-18
5390.56875 1.36408e-17
5392.03605 1.08085e-17
5393.51340 1.27565e-17
5394.98070 1.13554e-17
5396.44800 9.70747e-18
5397.92535 1.17037e-17
5399.39265 1.41929e-17
5400.85995 1.19230e-17
5402.32725 1.20814e-17
5403.80460 1.16305e-17
5405.27190 1.09179e-17
5406.73920 1.15973e-17
5408.21655 1.12342e-17
5409.68385 1.12728e-17
5411.15115 1.22666e-17
5412.61845 1.24443e-17
5414.09580 1.35688e-17
5415.56310 1.22573e-17
5417.03040 1.30994e-17
5418.49770 1.12626e-17
5419.97505 1.12357e-17
5421.44235 1.35226e-17
5422.90965 1.44586e-17
5424.38700 1.20236e-17
5425.85430 1.25573e-17
5427.32160 1.45109e-17
5428.78890 1.28935e-17
5430.26625 1.47482e-17
5431.73355 1.27025e-17
5433.20085 1.02191e-17
5434.66815 1.26607e-17
5436.14550 1.48029e-17
5437.61280 1.17874e-17
5439.08010 1.50491e-17
5440.55745 1.45231e-17
5442.02475 1.21601e-17
5443.49205 1.25037e-17
5444.95935 1.33665e-17
5446.43670 1.23244e-17
5447.90400 1.40058e-17
5449.37130 1.36602e-17
5450.83860 1.36486e-17
5452.31595 9.75192e-18
5453.78325 1.53532e-17
5455.25055 1.34098e-17
5456.72790 1.08273e-17
5458.19520 1.26163e-17
5459.66250 1.83033e-17
5461.12980 1.16756e-17
5462.60715 1.57381e-17
5464.07445 1.42326e-17
5465.54175 1.24094e-17
5467.00905 9.99491e-18
5468.48640 1.25640e-17
5469.95370 1.25013e-17
5471.42100 1.04178e-17
5472.89835 1.33525e-17
5474.36565 1.34499e-17
5475.83295 9.16203e-18
5477.30025 8.46239e-18
5478.77760 1.27531e-17
5480.24490 1.22508e-17
5481.71220 1.32869e-17
5483.17950 1.29821e-17
5484.65685 1.24036e-17
5486.12415 1.02675e-17
5487.59145 9.93864e-18
5489.06880 1.31768e-17
5490.53610 1.73589e-17
5492.00340 1.20978e-17
5493.47070 1.39501e-17
5494.94805 1.40989e-17
5496.41535 1.13162e-17
5497.88265 1.00715e-17
5499.34995 1.12015e-17
5500.82730 1.15502e-17
5502.29460 1.09187e-17
5503.76190 1.36822e-17
5505.23925 1.40523e-17
5506.70655 1.22805e-17
5508.17385 1.29285e-17
5509.64115 1.19823e-17
5511.11850 1.30255e-17
5512.58580 1.26546e-17
5514.05310 1.35585e-17
5515.52040 1.11626e-17
5516.99775 1.15262e-17
5518.46505 1.32591e-17
5519.93235 1.07294e-17
5521.40970 1.35725e-17
5522.87700 1.26590e-17
5524.34430 1.14945e-17
5525.81160 1.26639e-17
5527.28895 1.62053e-17
5528.75625 1.39716e-17
5530.22355 1.12315e-17
5531.69085 1.32077e-17
5533.16820 1.43662e-17
5534.63550 1.46429e-17
5536.10280 1.64916e-17
5537.58015 1.69089e-17
5539.04745 1.40382e-17
5540.51475 1.28967e-17
5541.98205 1.40715e-17
5543.45940 1.25622e-17
5544.92670 1.35369e-17
5546.39400 1.40500e-17
5547.86130 1.40046e-17
5549.33865 1.58786e-17
5550.80595 1.62032e-17
5552.27325 1.48328e-17
5553.75060 1.57078e-17
5555.21790 1.45872e-17
5556.68520 1.35104e-17
5558.15250 1.32047e-17
5559.62985 1.43075e-17
5561.09715 1.20495e-17
5562.56445 1.43830e-17
5564.03175 1.61288e-17
5565.50910 1.24776e-17
5566.97640 1.35030e-17
5568.44370 1.46527e-17
5569.92105 1.51961e-17
5571.38835 1.60345e-17
5572.85565 1.38511e-17
5574.32295 1.57874e-17
5575.80030 1.75560e-17
5577.26760 1.93126e-17
5578.73490 1.59474e-17
5580.20220 1.19123e-17
5581.67955 1.10886e-17
5583.14685 1.12260e-17
5584.61415 1.19206e-17
5586.09150 1.09126e-17
5587.55880 1.10141e-17
5589.02610 1.40163e-17
5590.49340 1.49111e-17
5591.97075 1.29531e-17
5593.43805 1.25266e-17
5594.90535 1.37043e-17
5596.37265 1.41254e-17
5597.85000 1.04675e-17
5599.31730 1.20417e-17
5600.78460 1.08462e-17
5602.26195 9.61008e-18
5603.72925 1.37711e-17
5605.19655 1.10031e-17
5606.66385 9.81563e-18
5608.14120 1.35579e-17
5609.60850 1.34467e-17
5611.07580 1.07420e-17
5612.54310 1.05275e-17
5614.02045 1.18659e-17
5615.48775 1.13992e-17
5616.95505 9.91844e-18
5618.43240 1.17576e-17
5619.89970 1.11764e-17
5621.36700 8.95327e-18
5622.83430 1.03276e-17
5624.31165 1.04877e-17
5625.77895 1.00224e-17
5627.24625 1.11673e-17
5628.71355 1.08805e-17
5630.19090 8.69894e-18
5631.65820 9.02719e-18
5633.12550 1.08770e-17
5634.60285 1.15819e-17
5636.07015 1.19182e-17
5637.53745 1.13927e-17
5639.00475 9.28057e-18
5640.48210 1.00071e-17
5641.94940 1.09843e-17
5643.41670 1.10269e-17
5644.89405 1.20569e-17
5646.36135 1.23494e-17
5647.82865 1.05076e-17
5649.29595 1.32088e-17
5650.77330 1.22131e-17
5652.24060 1.08389e-17
5653.70790 1.15183e-17
5655.17520 1.26614e-17
5656.65255 1.15820e-17
5658.11985 1.18351e-17
5659.58715 1.30603e-17
5661.06450 9.34779e-18
5662.53180 9.52813e-18
5663.99910 1.42395e-17
5665.46640 1.49578e-17
5666.94375 1.11493e-17
5668.41105 1.31727e-17
5669.87835 1.42954e-17
5671.34565 1.37436e-17
5672.82300 1.01536e-17
5674.29030 1.21097e-17
5675.75760 1.14794e-17
5677.22490 1.15247e-17
5678.70225 1.16381e-17
5680.16955 1.17915e-17
5681.63685 6.54000e-18
5683.11420 8.72976e-18
5684.58150 1.37936e-17
5686.04880 1.45961e-17
5687.51610 9.59572e-18
5688.99345 4.79905e-18
5690.46075 6.21577e-18
5691.92805 1.20500e-17
5693.39535 9.10406e-18
5694.87270 7.50052e-18
5696.34000 1.16364e-17
5697.80730 1.43695e-17
5699.28465 9.05684e-18
5700.75195 9.67468e-18
5702.21925 1.34410e-17
5703.68655 1.18602e-17
5705.16390 1.21724e-17
5706.63120 1.14056e-17
5708.09850 8.44735e-18
5709.56580 8.62075e-18
5711.04315 1.21632e-17
5712.51045 1.30716e-17
5713.97775 1.31817e-17
5715.45510 1.21337e-17
5716.92240 7.92636e-18
5718.38970 9.03144e-18
5719.85700 9.06527e-18
5721.33435 8.83001e-18
5722.80165 1.09049e-17
5724.26895 8.96142e-18
5725.73625 1.09063e-17
5727.21360 9.66407e-18
5728.68090 1.06342e-17
5730.14820 9.91331e-18
5731.62555 8.18824e-18
5733.09285 6.08022e-18
5734.56015 8.40014e-18
5736.02745 9.99131e-18
5737.50480 7.63025e-18
5738.97210 4.27605e-18
5740.43940 7.53576e-18
5741.91675 9.83909e-18
5743.38405 5.59471e-18
5744.85135 6.27720e-18
5746.31865 7.37121e-18
5747.79600 8.19347e-18
5749.26330 5.56741e-18
5750.73060 7.80170e-18
5752.19790 7.34894e-18
5753.67525 6.75676e-18
5755.14255 9.03134e-18
5756.60985 9.23103e-18
5758.08720 6.32559e-18
5759.55450 8.09825e-18
5761.02180 9.78642e-18
5762.48910 4.60543e-18
5763.96645 8.28089e-18
5765.43375 9.49742e-18
5766.90105 5.94019e-18
5768.36835 9.31680e-18
5769.84570 1.13499e-17
5771.31300 8.32468e-18
5772.78030 6.52415e-18
5774.24760 1.00710e-17
5775.72495 9.41455e-18
5777.19225 8.16492e-18
5778.65955 5.99688e-18
5780.13690 5.27604e-18
5781.60420 5.61697e-18
5783.07150 4.44060e-18
5784.53880 7.27207e-18
5786.01615 7.69056e-18
5787.48345 5.46858e-18
5788.95075 5.09035e-18
5790.42810 5.80995e-18
5791.89540 6.74453e-18
5793.36270 9.58659e-18
5794.83000 1.01933e-17
5796.30735 1.11253e-17
5797.77465 1.09629e-17
5799.24195 9.18348e-18
5800.70925 9.17301e-18
5802.18660 7.55191e-18
5803.65390 8.59588e-18
5805.12120 9.12386e-18
5806.59855 6.85285e-18
5808.06585 6.85819e-18
5809.53315 9.05412e-18
5811.00045 8.80462e-18
5812.47780 1.27175e-17
5813.94510 1.24472e-17
5815.41240 7.56657e-18
5816.87970 7.06021e-18
5818.35705 8.13674e-18
5819.82435 1.28168e-17
5821.29165 1.30716e-17
5822.75895 9.32231e-18
5824.23630 8.82721e-18
5825.70360 8.54348e-18
5827.17090 1.08871e-17
5828.64825 1.49018e-17
5830.11555 1.43396e-17
5831.58285 1.00160e-17
5833.05015 1.05975e-17
5834.52750 1.29972e-17
5835.99480 1.43410e-17
5837.46210 1.62739e-17
5838.92940 1.41053e-17
5840.40675 1.16134e-17
5841.87405 1.28267e-17
5843.34135 1.17120e-17
5844.81870 1.31439e-17
5846.28600 1.44835e-17
5847.75330 1.34662e-17
5849.22060 1.72985e-17
5850.69795 1.86142e-17
5852.16525 1.67168e-17
5853.63255 1.29004e-17
5855.10990 1.49114e-17
5856.57720 1.42118e-17
5858.04450 1.48265e-17
5859.51180 1.56363e-17
5860.98915 1.44432e-17
5862.45645 1.53427e-17
5863.92375 1.75095e-17
5865.39105 1.41016e-17
5866.86840 1.73071e-17
5868.33570 1.98590e-17
5869.80300 1.67288e-17
5871.28035 1.69742e-17
5872.74765 1.82395e-17
5874.21495 1.88295e-17
5875.68225 1.85584e-17
5877.15960 1.95105e-17
5878.62690 1.62972e-17
5880.09420 1.85885e-17
5881.56150 1.81240e-17
5883.03885 1.68684e-17
5884.50615 1.62880e-17
5885.97345 1.75852e-17
5887.45080 1.55119e-17
5888.91810 1.96926e-17
5890.38540 2.12658e-17
5891.85270 1.78921e-17
5893.33005 1.97990e-17
5894.79735 1.90445e-17
5896.26465 1.78244e-17
5897.73195 2.21380e-17
5899.20930 2.18551e-17
5900.67660 1.94956e-17
5902.14390 2.03770e-17
5903.62125 1.74854e-17
5905.08855 1.97534e-17
5906.55585 1.91544e-17
5908.02315 1.77790e-17
5909.50050 1.60572e-17
5910.96780 1.44127e-17
5912.43510 1.52793e-17
5913.90240 1.83310e-17
5915.37975 1.46409e-17
5916.84705 1.53588e-17
5918.31435 1.57479e-17
5919.78165 1.66644e-17
5921.25900 1.56547e-17
5922.72630 1.41784e-17
5924.19360 1.35382e-17
5925.67095 1.52066e-17
5927.13825 1.58204e-17
5928.60555 1.66402e-17
5930.07285 1.20465e-17
5931.55020 1.70901e-17
5933.01750 1.89834e-17
5934.48480 1.75972e-17
5935.96215 1.50559e-17
5937.42945 1.24004e-17
5938.89675 1.79565e-17
5940.36405 1.78239e-17
5941.84140 1.55273e-17
5943.30870 1.39305e-17
5944.77600 1.63348e-17
5946.24330 1.52286e-17
5947.72065 1.32389e-17
5949.18795 1.46546e-17
5950.65525 1.38726e-17
5952.13260 1.12489e-17
5953.59990 1.60631e-17
5955.06720 1.59839e-17
5956.53450 1.42780e-17
5958.01185 1.66371e-17
5959.47915 1.34341e-17
5960.94645 1.38731e-17
5962.41375 1.11824e-17
5963.89110 1.21767e-17
5965.35840 1.32583e-17
5966.82570 1.37029e-17
5968.30305 1.76514e-17
5969.77035 1.98385e-17
5971.23765 1.36623e-17
5972.70495 1.57729e-17
5974.18230 1.50295e-17
5975.64960 1.50163e-17
5977.11690 1.50352e-17
5978.58420 1.60726e-17
5980.06155 1.44040e-17
5981.52885 1.18622e-17
5982.99615 1.13878e-17
5984.47350 1.31403e-17
5985.94080 1.41267e-17
5987.40810 1.28983e-17
5988.87540 1.50926e-17
5990.35275 1.55242e-17
5991.82005 1.62906e-17
5993.28735 9.61420e-18
5994.75465 1.12383e-17
5996.23200 1.45644e-17
5997.69930 1.14386e-17
5999.16660 1.27917e-17
6000.64395 1.36228e-17
6002.11125 1.07507e-17
6003.57855 1.14364e-17
6005.04585 1.42973e-17
6006.52320 1.47589e-17
6007.99050 1.43009e-17
6009.45780 1.27933e-17
6010.92510 1.11266e-17
6012.40245 1.36485e-17
6013.86975 1.31907e-17
6015.33705 1.04285e-17
6016.81440 1.20280e-17
6018.28170 1.29506e-17
6019.74900 1.32096e-17
6021.21630 1.33747e-17
6022.69365 1.45652e-17
6024.16095 1.47175e-17
6025.62825 1.38544e-17
6027.09555 1.40856e-17
6028.57290 1.31035e-17
6030.04020 1.27507e-17
6031.50750 1.17324e-17
6032.98485 1.15408e-17
6034.45215 1.23036e-17
6035.91945 1.30282e-17
6037.38675 1.47180e-17
6038.86410 1.42793e-17
6040.33140 1.24643e-17
6041.79870 1.32786e-17
6043.26600 1.32912e-17
6044.74335 1.24228e-17
6046.21065 1.19608e-17
6047.67795 1.14985e-17
6049.15530 1.19977e-17
6050.62260 1.09022e-17
6052.08990 1.27239e-17
6053.55720 1.41665e-17
6055.03455 1.34201e-17
6056.50185 1.32480e-17
6057.96915 1.38481e-17
6059.43645 1.22463e-17
6060.91380 1.23025e-17
6062.38110 1.32098e-17
6063.84840 1.25858e-17
6065.32575 1.47871e-17
6066.79305 1.69938e-17
6068.26035 1.50347e-17
6069.72765 1.24643e-17
6071.20500 1.37376e-17
6072.67230 1.16043e-17
6074.13960 1.25455e-17
6075.60690 1.45274e-17
6077.08425 1.25193e-17
6078.55155 9.07362e-18
6080.01885 1.19809e-17
6081.49620 1.29404e-17
6082.96350 1.28805e-17
6084.43080 1.34998e-17
6085.89810 1.15292e-17
6087.37545 1.12808e-17
6088.84275 1.24587e-17
6090.31005 1.29870e-17
6091.77735 1.30147e-17
6093.25470 1.02509e-17
6094.72200 1.26033e-17
6096.18930 1.16073e-17
6097.66665 9.35724e-18
6099.13395 6.03097e-18
6100.60125 7.24561e-18
6102.06855 7.40373e-18
6103.54590 7.87355e-18
6105.01320 8.74442e-18
6106.48050 8.77877e-18
6107.94780 9.72153e-18
6109.42515 1.34254e-17
6110.89245 1.20462e-17
6112.35975 1.11482e-17
6113.83710 9.62630e-18
6115.30440 1.33280e-17
6116.77170 1.08241e-17
6118.23900 9.20896e-18
6119.71635 1.21746e-17
6121.18365 1.26466e-17
6122.65095 1.04741e-17
6124.11825 6.76184e-18
6125.59560 7.71490e-18
6127.06290 1.16364e-17
6128.53020 1.28804e-17
6130.00755 1.19727e-17
6131.47485 1.21491e-17
6132.94215 1.12678e-17
6134.40945 1.07479e-17
6135.88680 1.16604e-17
6137.35410 1.20068e-17
6138.82140 1.07830e-17
6140.28870 1.53519e-17
6141.76605 1.45883e-17
6143.23335 1.32268e-17
6144.70065 1.17157e-17
6146.17800 1.17701e-17
6147.64530 1.23657e-17
6149.11260 1.33132e-17
6150.57990 1.12241e-17
6152.05725 1.31805e-17
6153.52455 1.51647e-17
6154.99185 1.64183e-17
6156.45915 1.53113e-17
6157.93650 1.17970e-17
6159.40380 1.12884e-17
6160.87110 1.06851e-17
6162.34845 1.09346e-17
6163.81575 1.00547e-17
6165.28305 9.95853e-18
6166.75035 8.95697e-18
6168.22770 9.17377e-18
6169.69500 1.38975e-17
6171.16230 1.30163e-17
6172.63965 1.28372e-17
6174.10695 1.42506e-17
6175.57425 1.08980e-17
6177.04155 9.73027e-18
6178.51890 9.17338e-18
6179.98620 1.04201e-17
6181.45350 9.49506e-18
6182.92080 1.11925e-17
6184.39815 1.12311e-17
6185.86545 1.07916e-17
6187.33275 1.15000e-17
6188.81010 1.08357e-17
6190.27740 1.01175e-17
6191.74470 9.36564e-18
6193.21200 1.05390e-17
6194.68935 1.16904e-17
6196.15665 1.06568e-17
6197.62395 1.11989e-17
6199.09125 1.30461e-17
6200.56860 1.06947e-17
6202.03590 1.06849e-17
6203.50320 1.00590e-17
6204.97050 1.09056e-17
6206.44785 1.10295e-17
6207.91515 1.01382e-17
6209.38245 1.21207e-17
6210.85980 1.22464e-17
6212.32710 1.36355e-17
6213.79440 1.41143e-17
6215.26170 1.13087e-17
6216.73905 1.09929e-17
6218.20635 1.22032e-17
6219.67365 1.18240e-17
6221.14095 1.14478e-17
6222.61830 1.14873e-17
6224.08560 1.04397e-17
6225.55290 8.81504e-18
6227.03025 1.01217e-17
6228.49755 1.21461e-17
6229.96485 1.07648e-17
6231.43215 9.17817e-18
6232.90950 1.17117e-17
6234.37680 1.33182e-17
6235.84410 1.06171e-17
6237.32145 1.11228e-17
6238.78875 1.40809e-17
6240.25605 1.25738e-17
6241.72335 1.04941e-17
6243.20070 1.08923e-17
6244.66800 1.06186e-17
6246.13530 1.11633e-17
6247.60260 1.28047e-17
6249.07995 1.27295e-17
6250.54725 9.58634e-18
6252.01455 9.27313e-18
6253.49190 1.25736e-17
6254.95920 1.48473e-17
6256.42650 1.35529e-17
6257.89380 1.18036e-17
6259.37115 1.11824e-17
6260.83845 1.08545e-17
6262.30575 1.08605e-17
6263.77305 1.08902e-17
6265.25040 1.08811e-17
6266.71770 1.12679e-17
6268.18500 1.02754e-17
6269.66235 1.16462e-17
6271.12965 1.15268e-17
6272.59695 1.18190e-17
6274.06425 1.20040e-17
6275.54160 1.29641e-17
6277.00890 1.29184e-17
6278.47620 1.38571e-17
6279.94350 1.10276e-17
6281.42085 9.11848e-18
6282.88815 1.10570e-17
6284.35545 1.06919e-17
6285.83280 8.99613e-18
6287.30010 7.07005e-18
6288.76740 6.90320e-18
6290.23470 1.11910e-17
6291.71205 1.17487e-17
6293.17935 1.25179e-17
6294.64665 1.24398e-17
6296.11395 1.12351e-17
6297.59130 1.33814e-17
6299.05860 1.10255e-17
6300.52590 1.16631e-17
6302.00325 1.43260e-17
6303.47055 1.21399e-17
6304.93785 1.23759e-17
6306.40515 9.71602e-18
6307.88250 1.19698e-17
6309.34980 1.42813e-17
6310.81710 9.59139e-18
6312.28440 1.11146e-17
6313.76175 1.12658e-17
6315.22905 1.27359e-17
6316.69635 1.22189e-17
6318.17370 9.81308e-18
6319.64100 1.24581e-17
6321.10830 1.09050e-17
6322.57560 8.22652e-18
6324.05295 6.34306e-18
6325.52025 7.84334e-18
6326.98755 1.05678e-17
6328.45485 9.17310e-18
6329.93220 1.17763e-17
6331.39950 1.15524e-17
6332.86680 9.50193e-18
6334.34415 9.88663e-18
6335.81145 1.12355e-17
6337.27875 1.17138e-17
6338.74605 8.86201e-18
6340.22340 1.10460e-17
6341.69070 1.12313e-17
6343.15800 1.08724e-17
6344.62530 1.13789e-17
6346.10265 1.07073e-17
6347.56995 8.95774e-18
6349.03725 6.88908e-18
6350.51460 8.97473e-18
6351.98190 9.15079e-18
6353.44920 7.40133e-18
6354.91650 7.43185e-18
6356.39385 1.05438e-17
6357.86115 8.32146e-18
6359.32845 4.93935e-18
6360.79575 5.47919e-18
6362.27310 7.69154e-18
6363.74040 8.25822e-18
6365.20770 4.91931e-18
6366.68505 6.38952e-18
6368.15235 7.79877e-18
6369.61965 6.80272e-18
6371.08695 6.61813e-18
6372.56430 6.69348e-18
6374.03160 9.15634e-18
6375.49890 7.71036e-18
6376.96620 7.24239e-18
6378.44355 6.11855e-18
6379.91085 6.42095e-18
6381.37815 6.17865e-18
6382.85550 7.14391e-18
6384.32280 9.51286e-18
6385.79010 8.49061e-18
6387.25740 5.78325e-18
6388.73475 6.55137e-18
6390.20205 5.47668e-18
6391.66935 6.38387e-18
6393.13665 4.68269e-18
6394.61400 6.37577e-18
6396.08130 8.03590e-18
6397.54860 7.32419e-18
6399.02595 9.36166e-18
6400.49325 1.01826e-17
6401.96055 1.00818e-17
6403.42785 9.18281e-18
6404.90520 9.23069e-18
6406.37250 1.06679e-17
6407.83980 9.42109e-18
6409.30710 9.68358e-18
6410.78445 9.15954e-18
6412.25175 8.09561e-18
6413.71905 9.25380e-18
6415.19640 9.67328e-18
6416.66370 1.02311e-17
6418.13100 1.17646e-17
6419.59830 1.26494e-17
6421.07565 1.04257e-17
6422.54295 9.73073e-18
6424.01025 1.11002e-17
6425.47755 1.07969e-17
6426.95490 1.19183e-17
6428.42220 1.26975e-17
6429.88950 1.18709e-17
6431.36685 1.17560e-17
6432.83415 1.13123e-17
6434.30145 1.22116e-17
6435.76875 1.30789e-17
6437.24610 1.09392e-17
6438.71340 9.97521e-18
6440.18070 1.13854e-17
6441.64800 1.20370e-17
6443.12535 1.24531e-17
6444.59265 1.22670e-17
6446.05995 1.07962e-17
6447.53730 1.16936e-17
6449.00460 1.21646e-17
6450.47190 1.22096e-17
6451.93920 1.16346e-17
6453.41655 1.03625e-17
6454.88385 8.18625e-18
6456.35115 9.21395e-18
6457.81845 1.09333e-17
6459.29580 1.08680e-17
6460.76310 1.04400e-17
6462.23040 1.01813e-17
6463.70775 1.18132e-17
6465.17505 1.25782e-17
6466.64235 1.27562e-17
6468.10965 1.22003e-17
6469.58700 1.31497e-17
6471.05430 1.32230e-17
6472.52160 1.44467e-17
6473.98890 1.35654e-17
6475.46625 1.15666e-17
6476.93355 1.18485e-17
6478.40085 1.37431e-17
6479.87820 1.17892e-17
6481.34550 1.15037e-17
6482.81280 1.17081e-17
6484.28010 1.24722e-17
6485.75745 1.26227e-17
6487.22475 9.72748e-18
6488.69205 1.15974e-17
6490.16940 1.42010e-17
6491.63670 1.26004e-17
6493.10400 1.07393e-17
6494.57130 1.25526e-17
6496.04865 1.37716e-17
6497.51595 1.25274e-17
6498.98325 1.23090e-17
6500.45055 1.33832e-17
6501.92790 1.44387e-17
6503.39520 1.26865e-17
6504.86250 1.45362e-17
6506.32980 1.62002e-17
6507.80715 1.42237e-17
6509.27445 1.13744e-17
6510.74175 9.98743e-18
6512.21910 1.14568e-17
6513.68640 1.05706e-17
6515.15370 1.19756e-17
6516.62100 1.21385e-17
6518.09835 1.20784e-17
6519.56565 1.12788e-17
6521.03295 1.23408e-17
6522.50025 1.19988e-17
6523.97760 1.00155e-17
6525.44490 8.60493e-18
6526.91220 9.44020e-18
6528.38955 1.22273e-17
6529.85685 1.04600e-17
6531.32415 1.03351e-17
6532.79145 1.05526e-17
6534.26880 9.95434e-18
6535.73610 9.88736e-18
6537.20340 1.13771e-17
6538.67070 1.16585e-17
6540.14805 1.18156e-17
6541.61535 1.28884e-17
6543.08265 1.14216e-17
6544.56000 9.98737e-18
6546.02730 1.22820e-17
6547.49460 1.18599e-17
6548.96190 1.11608e-17
6550.43925 1.29837e-17
6551.90655 1.42250e-17
6553.37385 1.33230e-17
6554.84115 1.22910e-17
6556.31850 9.33013e-18
6557.78580 8.74130e-18
6559.25310 9.97462e-18
6560.73045 9.91956e-18
6562.19775 1.02549e-17
6563.66505 1.17978e-17
6565.13235 1.02088e-17
6566.60970 8.94362e-18
6568.07700 7.31882e-18
6569.54430 8.59807e-18
6571.01160 7.46794e-18
6572.48895 7.82924e-18
6573.95625 7.59369e-18
6575.42355 6.53373e-18
6576.90090 6.62861e-18
6578.36820 7.42756e-18
6579.83550 9.15228e-18
6581.30280 1.06530e-17
6582.78015 1.26372e-17
6584.24745 1.29353e-17
6585.71475 1.15019e-17
6587.19210 7.10856e-18
6588.65940 4.66284e-18
6590.12670 7.42572e-18
6591.59400 9.70379e-18
6593.07135 8.64675e-18
6594.53865 1.29901e-17
6596.00595 1.80871e-17
6597.47325 1.92676e-17
6598.95060 2.33441e-17
6600.41790 2.07436e-17
6601.88520 1.14101e-17
6603.35250 7.07529e-18
6604.82985 7.93404e-18
6606.29715 8.69509e-18
6607.76445 1.09338e-17
6609.24180 1.10587e-17
6610.70910 9.83692e-18
6612.17640 1.03266e-17
6613.64370 9.00858e-18
6615.12105 9.26249e-18
6616.58835 1.29223e-17
6618.05565 1.47722e-17
6619.53300 1.50297e-17
6621.00030 1.33416e-17
6622.46760 1.05310e-17
6623.93490 1.01013e-17
6625.41225 1.04464e-17
6626.87955 1.11480e-17
6628.34685 1.31853e-17
6629.81415 1.34939e-17
6631.29150 1.26985e-17
6632.75880 1.27486e-17
6634.22610 1.20489e-17
6635.70345 1.30032e-17
6637.17075 1.19964e-17
6638.63805 1.04088e-17
6640.10535 1.26953e-17
6641.58270 1.30193e-17
6643.05000 1.13558e-17
6644.51730 1.25032e-17
6645.98460 1.43263e-17
6647.46195 1.17222e-17
6648.92925 1.16723e-17
6650.39655 1.30401e-17
6651.86385 1.18187e-17
6653.34120 1.18799e-17
6654.80850 1.30692e-17
6656.27580 1.43831e-17
6657.75315 1.48221e-17
6659.22045 1.32967e-17
6660.68775 1.31285e-17
6662.15505 1.49206e-17
6663.63240 1.59363e-17
6665.09970 1.47139e-17
6666.56700 1.29103e-17
6668.03430 1.23717e-17
6669.51165 1.16477e-17
6670.97895 1.12700e-17
6672.44625 1.28881e-17
6673.92360 1.31146e-17
6675.39090 1.44030e-17
6676.85820 1.21973e-17
6678.32550 1.21161e-17
6679.80285 1.30187e-17
6681.27015 1.50470e-17
6682.73745 1.38830e-17
6684.20475 1.36050e-17
6685.68210 1.40316e-17
6687.14940 1.28253e-17
6688.61670 1.15917e-17
6690.09405 1.03386e-17
6691.56135 1.06328e-17
6693.02865 1.29889e-17
6694.49595 1.45737e-17
6695.97330 1.50837e-17
6697.44060 1.27749e-17
6698.90790 1.18735e-17
6700.38525 1.24571e-17
6701.85255 1.27314e-17
6703.31985 1.18994e-17
6704.78715 1.12522e-17
6706.26450 1.24913e-17
6707.73180 1.26809e-17
6709.19910 1.22238e-17
6710.66640 1.20667e-17
6712.14375 1.17299e-17
6713.61105 1.32796e-17
6715.07835 1.45323e-17
6716.55570 1.31483e-17
6718.02300 1.44480e-17
6719.49030 1.39199e-17
6720.95760 1.13647e-17
6722.43495 1.02840e-17
6723.90225 9.46386e-18
6725.36955 1.15899e-17
6726.83685 1.24554e-17
6728.31420 1.01580e-17
6729.78150 9.81915e-18
6731.24880 1.07195e-17
6732.72615 1.21184e-17
6734.19345 1.11394e-17
6735.66075 1.05278e-17
6737.12805 1.06664e-17
6738.60540 1.10524e-17
6740.07270 1.05793e-17
6741.54000 1.22000e-17
6743.00730 1.19436e-17
6744.48465 1.23706e-17
6745.95195 1.22341e-17
6747.41925 1.01715e-17
6748.88655 1.06495e-17
6750.36390 1.35205e-17
6751.83120 1.28072e-17
6753.29850 1.18737e-17
6754.77585 1.18377e-17
6756.24315 1.34489e-17
6757.71045 1.25768e-17
6759.17775 1.28531e-17
6760.65510 1.20658e-17
6762.12240 1.03266e-17
6763.58970 1.10262e-17
6765.06705 1.24513e-17
6766.53435 1.31428e-17
6768.00165 1.31105e-17
6769.46895 1.20182e-17
6770.94630 1.27816e-17
6772.41360 1.31514e-17
6773.88090 1.01077e-17
6775.34820 9.08584e-18
6776.82555 9.95283e-18
6778.29285 9.88409e-18
6779.76015 9.32030e-18
6781.23750 9.18064e-18
6782.70480 1.09043e-17
6784.17210 1.11851e-17
6785.63940 1.19204e-17
6787.11675 1.22626e-17
6788.58405 1.10467e-17
6790.05135 9.59132e-18
6791.51865 8.68507e-18
6792.99600 1.08598e-17
6794.46330 1.31668e-17
6795.93060 1.00633e-17
6797.40795 7.79046e-18
6798.87525 9.28502e-18
6800.34255 1.04863e-17
6801.80985 1.10571e-17
6803.28720 1.07851e-17
6804.75450 9.95983e-18
6806.22180 1.07924e-17
6807.68910 8.84173e-18
6809.16645 7.31891e-18
6810.63375 9.42079e-18
6812.10105 1.12588e-17
6813.57840 8.97898e-18
6815.04570 8.43654e-18
6816.51300 1.02766e-17
6817.98030 1.04105e-17
6819.45765 9.41480e-18
6820.92495 8.97576e-18
6822.39225 9.26724e-18
6823.85955 1.08462e-17
6825.33690 1.07822e-17
6826.80420 7.96720e-18
6828.27150 8.88655e-18
6829.74885 9.85186e-18
6831.21615 8.90538e-18
6832.68345 1.07439e-17
6834.15075 8.97599e-18
6835.62810 6.08074e-18
6837.09540 9.11045e-18
6838.56270 1.08905e-17
6840.03000 1.05953e-17
6841.50735 1.17266e-17
6842.97465 1.14915e-17
6844.44195 1.00529e-17
6845.91930 9.50239e-18
6847.38660 8.83753e-18
6848.85390 8.28610e-18
6850.32120 7.79447e-18
6851.79855 7.61965e-18
6853.26585 8.45557e-18
6854.73315 8.95647e-18
6856.20045 1.03871e-17
6857.67780 1.04455e-17
6859.14510 8.36019e-18
6860.61240 8.78792e-18
6862.08975 1.06656e-17
6863.55705 1.08451e-17
6865.02435 9.81036e-18
6866.49165 8.12226e-18
6867.96900 8.80104e-18
6869.43630 9.97900e-18
6870.90360 8.54176e-18
6872.37090 1.03263e-17
6873.84825 1.05358e-17
6875.31555 8.48507e-18
6876.78285 1.02762e-17
6878.26020 1.17278e-17
6879.72750 1.07264e-17
6881.19480 1.01286e-17
6882.66210 8.98776e-18
6884.13945 7.76966e-18
6885.60675 8.54185e-18
6887.07405 9.86651e-18
6888.54135 8.05716e-18
6890.01870 7.66509e-18
6891.48600 8.39502e-18
6892.95330 4.57627e-18
6894.43065 4.89990e-18
6895.89795 9.76372e-18
6897.36525 1.04355e-17
6898.83255 1.00549e-17
6900.30990 1.02011e-17
6901.77720 1.18379e-17
6903.24450 1.08418e-17
6904.71180 9.70638e-18
6906.18915 8.36242e-18
6907.65645 6.95802e-18
6909.12375 5.47378e-18
6910.60110 5.81137e-18
6912.06840 7.88258e-18
6913.53570 7.54326e-18
6915.00300 6.11365e-18
6916.48035 6.64912e-18
6917.94765 7.28523e-18
6919.41495 7.40160e-18
6920.88225 8.60320e-18
6922.35960 8.91757e-18
6923.82690 8.84740e-18
6925.29420 6.90405e-18
6926.77155 8.61297e-18
6928.23885 8.89528e-18
6929.70615 7.64219e-18
6931.17345 9.67032e-18
6932.65080 1.11950e-17
6934.11810 8.46310e-18
6935.58540 9.32653e-18
6937.05270 9.75168e-18
6938.53005 7.28022e-18
6939.99735 4.48474e-18
6941.46465 5.89453e-18
6942.94200 7.02159e-18
6944.40930 5.48752e-18
6945.87660 6.58383e-18
6947.34390 8.98547e-18
6948.82125 8.76698e-18
6950.28855 7.42932e-18
6951.75585 1.10193e-17
6953.22315 9.30415e-18
6954.70050 8.21134e-18
6956.16780 9.26401e-18
6957.63510 7.86328e-18
6959.11245 6.86143e-18
6960.57975 8.45778e-18
6962.04705 8.79108e-18
6963.51435 7.08255e-18
6964.99170 7.75826e-18
6966.45900 7.39166e-18
6967.92630 6.21295e-18
6969.39360 6.90962e-18
6970.87095 8.35779e-18
6972.33825 6.28632e-18
6973.80555 5.14965e-18
6975.28290 5.76883e-18
6976.75020 1.04444e-17
6978.21750 1.27834e-17
6979.68480 9.28942e-18
6981.16215 7.39126e-18
6982.62945 1.05111e-17
6984.09675 1.15201e-17
6985.56405 1.06780e-17
6987.04140 9.93020e-18
6988.50870 1.02089e-17
6989.97600 1.03232e-17
6991.45335 1.05058e-17
6992.92065 1.08116e-17
6994.38795 9.80198e-18
6995.85525 1.21873e-17
6997.33260 1.34999e-17
6998.79990 1.06868e-17
7000.26720 8.98276e-18
7001.73450 1.05150e-17
7003.21185 1.23761e-17
7004.67915 1.24430e-17
7006.14645 1.04658e-17
7007.62380 1.14413e-17
7009.09110 1.23336e-17
7010.55840 1.15382e-17
7012.02570 1.23383e-17
7013.50305 1.30404e-17
7014.97035 1.31806e-17
7016.43765 1.39216e-17
7017.91500 1.32455e-17
7019.38230 1.83484e-17
7020.84960 2.08498e-17
7022.31690 1.78680e-17
7023.79425 1.35494e-17
7025.26155 1.08440e-17
7026.72885 1.45672e-17
7028.19615 1.44143e-17
7029.67350 1.18704e-17
7031.14080 1.30577e-17
7032.60810 1.47397e-17
7034.07540 1.60881e-17
7035.55275 1.45405e-17
7037.02005 1.43247e-17
7038.48735 1.48950e-17
7039.96470 1.30072e-17
7041.43200 1.24817e-17
7042.89930 1.38134e-17
7044.36660 1.41467e-17
7045.84395 1.42318e-17
7047.31125 1.66924e-17
7048.77855 1.70678e-17
7050.24585 1.42117e-17
7051.72320 1.33692e-17
7053.19050 1.32793e-17
7054.65780 1.31780e-17
7056.13515 1.25262e-17
7057.60245 1.09569e-17
7059.06975 1.23693e-17
7060.53705 1.48522e-17
7062.01440 1.44383e-17
7063.48170 1.41599e-17
7064.94900 1.52935e-17
7066.42635 1.47556e-17
7067.89365 1.33001e-17
7069.36095 1.30531e-17
7070.82825 1.40695e-17
7072.30560 1.31693e-17
7073.77290 1.30885e-17
7075.24020 1.29384e-17
7076.70750 1.28780e-17
7078.18485 1.52090e-17
7079.65215 1.38689e-17
7081.11945 1.14703e-17
7082.58675 1.24766e-17
7084.06410 1.34409e-17
7085.53140 1.30605e-17
7086.99870 1.29968e-17
7088.47605 1.23596e-17
7089.94335 1.17239e-17
7091.41065 1.16203e-17
7092.87795 1.02461e-17
7094.35530 1.15393e-17
7095.82260 1.36309e-17
7097.28990 1.26746e-17
7098.75720 1.25647e-17
7100.23455 1.19969e-17
7101.70185 1.05900e-17
7103.16915 1.10946e-17
7104.64650 1.13261e-17
7106.11380 1.13580e-17
7107.58110 1.24241e-17
7109.04840 1.18438e-17
7110.52575 1.15116e-17
7111.99305 1.27896e-17
7113.46035 1.32143e-17
7114.93770 1.34207e-17
7116.40500 1.46018e-17
7117.87230 1.30827e-17
7119.33960 1.21244e-17
7120.81695 1.17900e-17
7122.28425 1.12405e-17
7123.75155 1.13752e-17
7125.21885 1.02370e-17
7126.69620 1.02644e-17
7128.16350 1.02884e-17
7129.63080 9.40930e-18
7131.09810 1.00588e-17
7132.57545 9.58997e-18
7134.04275 8.09001e-18
7135.51005 8.35138e-18
7136.98740 9.53329e-18
7138.45470 1.13728e-17
7139.92200 1.20697e-17
7141.38930 1.20554e-17
7142.86665 1.10078e-17
7144.33395 7.98713e-18
7145.80125 8.25036e-18
7147.27860 1.14613e-17
7148.74590 1.12645e-17
7150.21320 1.08080e-17
7151.68050 1.26180e-17
7153.15785 1.25412e-17
7154.62515 1.15219e-17
7156.09245 1.14146e-17
7157.55975 1.17039e-17
7159.03710 1.01642e-17
7160.50440 8.16029e-18
7161.97170 8.18131e-18
7163.44905 9.86568e-18
7164.91635 1.28013e-17
7166.38365 1.07143e-17
7167.85095 6.47806e-18
7169.32830 9.42253e-18
7170.79560 1.14188e-17
7172.26290 9.61227e-18
7173.73020 9.27173e-18
7175.20755 7.99350e-18
7176.67485 8.79786e-18
7178.14215 1.18680e-17
7179.61950 9.21168e-18
7181.08680 7.34945e-18
7182.55410 9.89070e-18
7184.02140 1.00741e-17
7185.49875 6.82146e-18
7186.96605 4.08879e-18
7188.43335 5.85532e-18
7189.90065 7.14744e-18
7191.37800 7.31852e-18
7192.84530 9.01287e-18
7194.31260 1.01904e-17
7195.77990 7.11033e-18
7197.25725 5.83454e-18
7198.72455 9.01671e-18
7200.19185 9.13154e-18
7201.66920 8.06606e-18
7203.13650 9.82956e-18
7204.60380 9.41746e-18
7206.07110 8.72591e-18
7207.54845 1.02116e-17
7209.01575 1.04135e-17
7210.48305 8.30452e-18
7211.96040 7.17259e-18
7213.42770 7.86886e-18
7214.89500 8.65392e-18
7216.36230 1.04382e-17
7217.83965 1.14888e-17
7219.30695 9.38275e-18
7220.77425 8.44636e-18
7222.24155 1.02865e-17
7223.71890 1.11945e-17
7225.18620 1.13255e-17
7226.65350 9.42751e-18
7228.13085 6.83453e-18
7229.59815 7.74654e-18
7231.06545 9.99368e-18
7232.53275 1.12447e-17
7234.01010 9.77430e-18
7235.47740 7.62984e-18
7236.94470 1.13031e-17
7238.41200 1.55495e-17
7239.88935 1.59320e-17
7241.35665 1.24713e-17
7242.82395 1.21294e-17
7244.30130 1.14782e-17
7245.76860 9.48699e-18
7247.23590 1.28141e-17
7248.70320 1.08229e-17
7250.18055 9.79098e-18
7251.64785 1.17120e-17
7253.11515 9.08851e-18
7254.58245 8.92960e-18
7256.05980 8.66312e-18
7257.52710 8.82674e-18
7258.99440 1.03672e-17
7260.47175 1.17525e-17
7261.93905 1.08435e-17
7263.40635 1.00674e-17
7264.87365 1.22732e-17
7266.35100 1.30853e-17
7267.81830 1.15303e-17
7269.28560 1.00782e-17
7270.75290 9.72526e-18
7272.23025 1.07592e-17
7273.69755 1.19623e-17
7275.16485 1.58202e-17
7276.64220 1.77277e-17
7278.10950 1.18952e-17
7279.57680 1.14359e-17
7281.04410 1.22694e-17
7282.52145 1.37264e-17
7283.98875 1.53764e-17
7285.45605 1.21961e-17
7286.92335 1.03587e-17
7288.40070 1.14341e-17
7289.86800 9.59469e-18
7291.33530 8.14381e-18
7292.81265 8.81983e-18
7294.27995 1.00685e-17
7295.74725 1.22285e-17
7297.21455 1.35285e-17
7298.69190 1.17714e-17
7300.15920 1.05052e-17
7301.62650 1.26964e-17
7303.09380 1.38677e-17
7304.57115 9.86814e-18
7306.03845 7.68920e-18
7307.50575 1.26211e-17
7308.98310 1.44923e-17
7310.45040 1.24510e-17
7311.91770 1.21376e-17
7313.38500 1.08552e-17
7314.86235 1.11040e-17
7316.32965 1.35614e-17
7317.79695 1.14704e-17
7319.26425 9.87671e-18
7320.74160 1.13335e-17
7322.20890 1.23215e-17
7323.67620 1.17369e-17
7325.15355 9.47824e-18
7326.62085 9.75234e-18
7328.08815 1.01793e-17
7329.55545 1.03458e-17
7331.03280 1.20134e-17
7332.50010 1.28385e-17
7333.96740 1.25742e-17
7335.43470 1.02366e-17
7336.91205 1.07084e-17
7338.37935 1.48435e-17
7339.84665 1.63317e-17
7341.32400 1.37621e-17
7342.79130 1.16112e-17
7344.25860 1.19045e-17
7345.72590 1.28254e-17
7347.20325 1.06126e-17
7348.67055 9.23290e-18
7350.13785 1.04999e-17
7351.60515 1.12337e-17
7353.08250 1.07008e-17
7354.54980 8.99770e-18
7356.01710 8.51415e-18
7357.49445 1.20839e-17
7358.96175 1.35688e-17
7360.42905 9.10118e-18
7361.89635 9.58853e-18
7363.37370 1.05710e-17
7364.84100 1.15400e-17
7366.30830 1.46234e-17
7367.77560 1.16888e-17
7369.25295 9.68790e-18
7370.72025 8.70251e-18
7372.18755 9.53740e-18
7373.66490 1.19783e-17
7375.13220 1.08339e-17
7376.59950 1.27957e-17
7378.06680 1.36727e-17
7379.54415 9.97917e-18
7381.01145 6.15677e-18
7382.47875 7.54294e-18
7383.94605 9.09742e-18
7385.42340 9.94620e-18
7386.89070 1.00892e-17
7388.35800 1.04759e-17
7389.83535 9.62276e-18
7391.30265 7.45086e-18
7392.76995 8.84457e-18
7394.23725 1.00538e-17
7395.71460 1.02938e-17
7397.18190 1.02893e-17
7398.64920 1.14244e-17
7400.11650 1.21197e-17
7401.59385 1.31389e-17
7403.06115 1.06803e-17
7404.52845 7.38041e-18
7406.00580 8.01373e-18
7407.47310 8.53866e-18
7408.94040 8.20662e-18
7410.40770 4.57242e-18
7411.88505 3.37584e-18
7413.35235 9.10889e-18
7414.81965 1.08810e-17
7416.28695 8.02844e-18
7417.76430 8.79984e-18
7418.34660 8.79984e-18
7419.61973 8.83751e-18
7420.88267 8.83384e-18
7422.15579 8.51637e-18
7423.42891 8.41646e-18
7424.69186 9.26492e-18
7425.96498 9.86580e-18
7427.22792 9.19253e-18
7428.50104 8.35081e-18
7429.76399 8.44273e-18
7431.03711 8.59485e-18
7432.30005 8.13436e-18
7433.57317 7.72202e-18
7434.83612 8.02449e-18
7436.10924 9.04931e-18
7437.37218 9.08338e-18
7438.64530 8.53681e-18
7439.91843 8.72555e-18
7441.18137 9.56438e-18
7442.45449 9.65007e-18
7443.71743 9.37780e-18
7444.99056 9.27664e-18
7446.25350 8.75837e-18
7447.52662 8.57893e-18
7448.78956 9.05790e-18
7450.06269 9.04800e-18
7451.32563 8.74750e-18
7452.59875 8.59151e-18
7453.87188 8.66469e-18
7455.13482 8.80364e-18
7456.40794 8.87262e-18
7457.67088 8.81484e-18
7458.94401 8.28962e-18
7460.20695 7.65081e-18
7461.48007 7.74233e-18
7462.74301 8.48747e-18
7464.01614 8.68041e-18
7465.27908 8.57185e-18
7466.55220 8.96310e-18
7467.81514 8.63835e-18
7469.08827 7.81367e-18
7470.36139 8.04271e-18
7471.62433 8.47686e-18
7472.89746 8.30220e-18
7474.16040 8.08824e-18
7475.43352 7.89137e-18
7476.69646 8.13200e-18
7477.96959 8.48649e-18
7479.23253 8.16856e-18
7480.50565 7.89176e-18
7481.76859 8.41967e-18
7483.04172 8.95504e-18
7484.30466 8.56294e-18
7485.57778 7.66509e-18
7486.85091 7.77581e-18
7488.11385 8.28478e-18
7489.38698 8.22012e-18
7490.64991 7.93657e-18
7491.92304 8.33430e-18
7493.18598 8.38613e-18
7494.45910 7.62093e-18
7495.72204 7.49089e-18
7496.99517 7.64373e-18
7498.25811 7.54271e-18
7499.53124 7.81433e-18
7500.79417 8.23328e-18
7502.06730 8.21258e-18
7503.34043 7.66090e-18
7504.60336 7.11996e-18
7505.87649 7.17210e-18
7507.13943 7.61864e-18
7508.41255 8.08706e-18
7509.67550 8.61562e-18
7510.94862 8.47843e-18
7512.21156 8.13908e-18
7513.48469 8.42294e-18
7514.74762 8.76512e-18
7516.02075 7.80666e-18
7517.28369 6.84401e-18
7518.55681 7.02214e-18
7519.82994 7.90591e-18
7521.09288 9.05541e-18
7522.36600 9.29957e-18
7523.62895 8.83017e-18
7524.90207 8.81248e-18
7526.16501 8.39189e-18
7527.43813 7.57599e-18
7528.70107 7.07501e-18
7529.97420 6.91162e-18
7531.23714 7.15586e-18
7532.51026 7.50701e-18
7533.78339 7.54127e-18
7535.04633 7.91738e-18
7536.31945 8.80678e-18
7537.58239 8.81170e-18
7538.85552 7.78799e-18
7540.11846 7.66201e-18
7541.39158 8.26290e-18
7542.65452 8.13246e-18
7543.92765 7.96114e-18
7545.19059 7.37035e-18
7546.46371 6.87330e-18
7547.72665 7.43409e-18
7548.99978 7.48080e-18
7550.26272 7.47215e-18
7551.53584 7.46357e-18
7552.80897 7.45492e-18
7554.07191 7.44634e-18
7555.34503 7.43769e-18
7556.60797 7.42911e-18
7557.88110 7.42046e-18
7559.14404 7.41188e-18
7560.41716 7.40330e-18
7561.68010 7.39465e-18
7562.95323 7.38607e-18
7564.21617 7.37742e-18
7565.48929 7.36884e-18
7566.76242 7.36026e-18
7568.02536 7.35161e-18
7569.29849 7.34303e-18
7570.56142 7.33438e-18
7571.83455 7.32580e-18
7573.09749 7.31721e-18
7574.37061 7.30857e-18
7575.63355 7.29998e-18
7576.90668 7.29140e-18
7578.16962 7.28282e-18
7579.44275 7.27417e-18
7580.70568 7.26559e-18
7581.97881 7.25701e-18
7583.25194 7.24843e-18
7584.51487 7.23978e-18
7585.78800 7.23120e-18
7587.05094 7.22261e-18
7588.32406 7.21403e-18
7589.58700 7.20538e-18
7590.86013 7.19680e-18
7592.12307 7.18822e-18
7593.39620 7.17964e-18
7594.65913 7.17106e-18
7595.93226 7.16247e-18
7597.19520 7.15383e-18
7598.46832 7.14524e-18
7599.74145 7.13666e-18
7601.00439 7.12808e-18
7602.27751 7.11950e-18
7603.54046 7.11091e-18
7604.81358 7.10233e-18
7606.07652 7.09375e-18
7607.34965 7.08517e-18
7608.61258 7.07659e-18
7609.88571 7.06800e-18
7611.14865 7.05942e-18
7612.42177 7.05077e-18
7613.69490 7.04219e-18
7614.95784 7.03367e-18
7616.23096 7.02509e-18
7617.49391 7.01651e-18
7618.76703 7.00793e-18
7620.02997 6.99935e-18
7621.30309 6.99076e-18
7622.56603 6.98218e-18
7623.83916 6.97360e-18
7625.10210 6.96502e-18
7626.37522 6.95643e-18
7627.63817 6.94785e-18
7628.91129 6.93927e-18
7630.17423 6.93069e-18
7631.44735 6.92211e-18
7632.72048 6.91359e-18
7633.98342 6.90501e-18
7635.25654 6.89642e-18
7636.51948 6.88784e-18
7637.79261 6.87926e-18
7639.05555 6.87068e-18
7640.32867 6.86216e-18
7641.59161 6.85358e-18
7642.86474 6.84500e-18
7644.12768 6.83641e-18
7645.40080 6.82790e-18
7646.67393 6.81932e-18
7647.93687 6.81073e-18
7649.21000 6.80215e-18
7650.47293 6.79363e-18
7651.74606 6.78505e-18
7653.00900 6.77647e-18
7654.28212 6.76795e-18
7655.54506 6.75937e-18
7656.81819 6.75079e-18
7658.08113 6.74227e-18
7659.35425 6.73369e-18
7660.61719 6.72511e-18
7661.89032 6.71659e-18
7663.16345 6.70801e-18
7664.42638 6.69943e-18
7665.69951 6.69091e-18
7666.96245 6.68233e-18
7668.23557 6.67381e-18
7669.49851 6.66523e-18
7670.77164 6.65671e-18
7672.03458 6.64813e-18
7673.30771 6.63961e-18
7674.57064 6.63103e-18
7675.84377 6.62251e-18
7677.10671 6.61393e-18
7678.37983 6.60542e-18
7679.65296 6.59683e-18
7680.91590 6.58832e-18
7682.18902 6.51014e-18
7683.45197 6.50678e-18
7684.72509 6.58065e-18
7685.98803 7.21017e-18
7687.26116 7.56702e-18
7688.52409 7.27922e-18
7689.79722 7.12002e-18
7691.06016 7.18501e-18
7692.33328 7.27535e-18
7693.59623 7.27496e-18
7694.86935 7.62074e-18
7696.14247 7.94037e-18
7697.40542 7.46658e-18
7698.67854 7.65552e-18
7699.94148 7.83994e-18
7701.21460 6.82934e-18
7702.47754 6.19578e-18
7703.75067 6.94517e-18
7705.01361 7.49600e-18
7706.28673 7.22746e-18
7707.54968 6.74424e-18
7708.82280 7.04914e-18
7710.08574 7.58523e-18
7711.35886 7.64871e-18
7712.63199 7.46383e-18
7713.89493 7.31951e-18
7715.16805 7.70296e-18
7716.43099 7.49613e-18
7717.70412 6.65154e-18
7718.96706 6.45894e-18
7720.24018 6.51197e-18
7721.50312 6.80405e-18
7722.77625 6.33469e-18
7724.03919 5.77995e-18
7725.31231 6.20318e-18
7726.57525 6.80444e-18
7727.84838 6.24901e-18
7729.12150 6.16805e-18
7730.38444 6.58720e-18
7731.65757 6.82495e-18
7732.92051 6.67741e-18
7734.19363 6.20579e-18
7735.45657 5.93488e-18
7736.72970 6.02261e-18
7737.99264 6.74764e-18
7739.26576 7.45184e-18
7740.52870 6.93658e-18
7741.80183 6.26096e-18
7743.07496 6.51105e-18
7744.33789 7.01782e-18
7745.61102 6.58196e-18
7746.87396 5.44458e-18
7748.14708 5.83253e-18
7749.41002 6.25393e-18
7750.68315 5.36018e-18
7751.94609 5.98824e-18
7753.21922 7.23539e-18
7754.48215 7.50366e-18
7755.75528 6.80071e-18
7757.01822 5.90688e-18
7758.29134 5.53852e-18
7759.56447 5.69373e-18
7760.82741 5.97411e-18
7762.10053 6.25010e-18
7763.36348 6.33894e-18
7764.63660 6.17229e-18
7765.89954 5.88406e-18
7767.17267 5.63870e-18
7768.43560 5.60613e-18
7769.70873 5.62655e-18
7770.97167 5.75055e-18
7772.24479 5.48412e-18
7773.50774 4.81250e-18
7774.78086 4.76675e-18
7776.05399 5.25005e-18
7777.31693 5.59404e-18
7778.59005 6.03939e-18
7779.85299 6.64616e-18
7781.12612 6.73664e-18
7782.38905 6.24580e-18
7783.66218 5.77565e-18
7784.92512 5.44282e-18
7786.19825 5.13908e-18
7787.46119 5.08393e-18
7788.73431 5.54779e-18
7789.99725 5.88644e-18
7791.27038 5.70328e-18
7792.54350 5.84661e-18
7793.80644 5.64375e-18
7795.07956 5.37547e-18
7796.34250 5.78554e-18
7797.61563 5.58795e-18
7798.87857 5.68451e-18
7800.15169 6.00602e-18
7801.41464 6.15263e-18
7802.68776 6.47915e-18
7803.95070 7.00911e-18
7805.22382 7.38037e-18
7806.48676 7.27647e-18
7807.75989 6.87592e-18
7809.03301 6.78394e-18
7810.29595 6.89295e-18
7811.56908 6.18754e-18
7812.83202 5.36567e-18
7814.10514 5.33380e-18
7815.36808 5.26668e-18
7816.64121 5.66844e-18
7817.90415 5.85873e-18
7819.17727 5.25120e-18
7820.44021 5.56545e-18
7821.71334 6.61839e-18
7822.98646 7.16798e-18
7824.24940 7.97582e-18
7825.52253 8.73144e-18
7826.78547 8.43559e-18
7828.05859 7.05765e-18
7829.32153 5.69119e-18
7830.59466 5.56211e-18
7831.85760 6.17655e-18
7833.13072 6.12794e-18
7834.39366 6.02913e-18
7835.66679 6.31695e-18
7836.92973 6.46882e-18
7838.20285 7.05949e-18
7839.47598 7.05968e-18
7840.73892 6.42206e-18
7842.01204 6.34279e-18
7843.27499 7.31112e-18
7844.54811 7.78799e-18
7845.81105 7.37768e-18
7847.08417 7.62834e-18
7848.34711 8.53995e-18
7849.62024 8.44338e-18
7850.88318 7.79710e-18
7852.15630 7.90991e-18
7853.41925 8.93925e-18
7854.69237 9.08404e-18
7855.96550 8.13613e-18
7857.22843 7.94090e-18
7858.50156 8.00628e-18
7859.76450 8.20426e-18
7861.03762 7.38057e-18
7862.30056 6.65409e-18
7863.57369 6.39114e-18
7864.83663 6.40455e-18
7866.10975 7.37840e-18
7867.37270 8.29945e-18
7868.64582 8.64818e-18
7869.90876 7.73656e-18
7871.18188 6.10222e-18
7872.45501 6.05056e-18
7873.71795 7.10430e-18
7874.99107 7.47045e-18
7876.25401 7.47884e-18
7877.52714 7.51670e-18
7878.79008 7.34447e-18
7880.06321 7.63115e-18
7881.32614 8.53818e-18
7882.59927 8.45963e-18
7883.86221 7.59106e-18
7885.13533 7.52109e-18
7886.39827 8.31511e-18
7887.67140 9.14595e-18
7888.94452 9.91572e-18
7890.20747 1.01855e-17
7891.48059 9.14005e-18
7892.74353 8.47038e-18
7894.01665 8.87335e-18
7895.27959 8.64588e-18
7896.55272 7.79644e-18
7897.81566 7.43199e-18
7899.08878 7.52299e-18
7900.35173 7.41129e-18
7901.62485 7.96317e-18
7902.89797 8.50523e-18
7904.16091 8.33136e-18
7905.43404 8.22850e-18
7906.69698 8.16666e-18
7907.97010 7.48984e-18
7909.23304 7.62336e-18
7910.50617 7.83392e-18
7911.76911 7.61740e-18
7913.04223 7.89170e-18
7914.30517 8.18533e-18
7915.57830 8.11634e-18
7916.84124 7.90998e-18
7918.11436 7.96881e-18
7919.37730 8.53543e-18
7920.65043 8.75044e-18
7921.92355 7.59918e-18
7923.18649 7.36131e-18
7924.45962 7.95007e-18
7925.72256 7.97765e-18
7926.99568 7.85337e-18
7928.25862 8.29257e-18
7929.53175 8.66187e-18
7930.79469 8.09977e-18
7932.06781 7.04625e-18
7933.33075 6.50513e-18
7934.60388 7.02424e-18
7935.87700 7.58333e-18
7937.13994 7.69293e-18
7938.41307 8.18952e-18
7939.67601 7.95656e-18
7940.94913 7.21246e-18
7942.21207 7.14505e-18
7943.48520 8.05791e-18
7944.74814 8.40912e-18
7946.02126 7.56492e-18
7947.28420 7.36550e-18
7948.55733 7.66096e-18
7949.82027 7.84079e-18
7951.09339 8.36215e-18
7952.36652 8.40755e-18
7953.62946 7.68861e-18
7954.90258 7.19038e-18
7956.16552 7.18586e-18
7957.43865 7.32350e-18
7958.70159 7.89976e-18
7959.97472 8.94895e-18
7961.23765 9.31346e-18
7962.51078 8.71598e-18
7963.77372 8.22824e-18
7965.04684 8.26774e-18
7966.30978 8.84000e-18
7967.58291 9.50391e-18
7968.85603 8.88501e-18
7970.11898 7.90008e-18
7971.39210 8.27639e-18
7972.65504 8.58443e-18
7973.92817 8.31039e-18
7975.19110 8.29696e-18
7976.46423 8.09178e-18
7977.72717 7.36779e-18
7979.00029 7.01297e-18
7980.26324 8.35946e-18
7981.53636 8.98767e-18
7982.79930 7.77947e-18
7984.07243 7.18016e-18
7985.34555 7.56944e-18
7986.60849 8.05745e-18
7987.88161 8.31583e-18
7989.14455 7.51546e-18
7990.41768 6.76867e-18
7991.68062 7.78635e-18
7992.95374 8.69685e-18
7994.21669 7.89458e-18
7995.48981 6.91660e-18
7996.75275 6.56172e-18
7998.02587 6.73854e-18
7999.28881 7.34309e-18
8000.56194 7.84355e-18
8001.83506 7.46488e-18
8003.09800 7.18095e-18
8004.37113 7.50294e-18
8005.63407 7.51087e-18
8006.90719 7.32377e-18
8008.17013 7.49672e-18
8009.44326 7.78557e-18
8010.70620 7.62054e-18
8011.97932 7.02286e-18
8013.24226 6.83045e-18
8014.51539 7.40756e-18
8015.78851 7.72955e-18
8017.05145 7.32403e-18
8018.32458 6.88797e-18
8019.58752 7.03774e-18
8020.86064 7.41260e-18
8022.12358 7.69070e-18
8023.39671 7.82435e-18
8024.65965 8.10069e-18
8025.93277 9.05501e-18
8027.19571 9.48674e-18
8028.46884 8.79670e-18
8029.73178 8.13259e-18
8031.00490 7.35620e-18
8032.27803 6.84762e-18
8033.54097 6.89164e-18
8034.81409 7.28144e-18
8036.07703 7.71226e-18
8037.35016 7.35161e-18
8038.61310 7.08530e-18
8039.88623 7.01127e-18
8041.14916 6.78682e-18
8042.42229 6.84932e-18
8043.68523 6.73847e-18
8044.95835 7.16719e-18
8046.22129 7.51434e-18
8047.49442 7.56977e-18
8048.76754 7.49934e-18
8050.03049 7.09499e-18
8051.30361 6.71246e-18
8052.56655 6.81558e-18
8053.83968 7.24450e-18
8055.10261 7.46724e-18
8056.37574 8.01362e-18
8057.63868 8.92353e-18
8058.91180 8.63298e-18
8060.17475 7.56177e-18
8061.44787 7.31577e-18
8062.71081 7.79408e-18
8063.98394 7.98853e-18
8065.25706 7.37775e-18
8066.52000 7.09113e-18
8067.79312 7.48663e-18
8069.05606 7.83149e-18
8070.32919 7.96258e-18
8071.59213 7.54048e-18
8072.86525 7.08825e-18
8074.12820 7.31518e-18
8075.40132 7.28393e-18
8076.66426 7.01323e-18
8077.93739 6.97347e-18
8079.20032 6.94844e-18
8080.47345 6.75118e-18
8081.74657 6.43210e-18
8083.00951 6.76153e-18
8084.28264 7.09467e-18
8085.54558 7.29415e-18
8086.81870 7.49213e-18
8088.08165 6.71875e-18
8089.35477 5.90352e-18
8090.61771 6.43561e-18
8091.89083 7.06794e-18
8093.15377 6.91280e-18
8094.42690 6.71286e-18
8095.70002 6.59100e-18
8096.96296 6.09869e-18
8098.23609 6.36507e-18
8099.49903 7.70033e-18
8100.77215 8.81596e-18
8102.03509 8.49684e-18
8103.30822 7.38522e-18
8104.57116 6.59028e-18
8105.84428 6.11472e-18
8107.10722 6.60830e-18
8108.38035 7.24666e-18
8109.64329 6.17482e-18
8110.91641 5.46027e-18
8112.17935 6.00921e-18
8113.45248 6.42269e-18
8114.72560 6.57751e-18
8115.98854 6.23049e-18
8117.26167 5.84131e-18
8118.52461 6.26046e-18
8119.79774 6.60725e-18
8121.06067 6.40632e-18
8122.33380 6.55118e-18
8123.59674 6.32520e-18
8124.86986 5.85740e-18
8126.13280 5.99216e-18
8127.40593 5.66948e-18
8128.67905 5.37304e-18
8129.94200 5.49811e-18
8131.21512 6.08025e-18
8132.47806 6.27069e-18
8133.75119 6.65953e-18
8135.01412 7.00767e-18
8136.28725 6.43192e-18
8137.55019 5.71728e-18
8138.82331 5.39684e-18
8140.08625 6.15348e-18
8141.35938 7.28708e-18
8142.62232 7.14793e-18
8143.89545 6.33474e-18
8145.16857 6.32199e-18
8146.43151 6.72072e-18
8147.70464 6.61826e-18
8148.96757 6.47990e-18
8150.24070 6.48625e-18
8151.50364 6.56820e-18
8152.77676 6.85181e-18
8154.03971 6.68200e-18
8155.31283 6.27865e-18
8156.57577 6.30078e-18
8157.84890 6.72963e-18
8159.11183 6.77857e-18
8160.38496 6.13140e-18
8161.65808 6.24274e-18
8162.92102 6.22458e-18
8164.19415 5.75750e-18
8165.45709 6.09471e-18
8166.73021 6.68724e-18
8167.99316 6.57214e-18
8169.26628 6.51931e-18
8170.52922 7.04029e-18
8171.80234 6.96803e-18
8173.06528 6.81466e-18
8174.33841 6.93075e-18
8175.60135 6.48934e-18
8176.87447 5.99827e-18
8178.14760 6.16240e-18
8179.41054 6.67584e-18
8180.68366 6.60430e-18
8181.94660 6.14316e-18
8183.21973 6.42841e-18
8184.48267 6.65933e-18
8185.75579 6.24808e-18
8187.01873 6.32121e-18
8188.29186 6.62461e-18
8189.55480 6.41157e-18
8190.82792 5.99714e-18
8192.09087 5.67724e-18
8193.36399 6.06563e-18
8194.63711 6.33796e-18
8195.90006 6.13799e-18
8197.17318 6.26322e-18
8198.43612 6.49075e-18
8199.70925 6.48865e-18
8200.97219 6.25531e-18
8202.24531 6.88116e-18
8203.50825 6.90370e-18
8204.78138 6.01957e-18
8206.04431 5.91060e-18
8207.31744 6.53864e-18
8208.59056 7.29055e-18
8209.85350 7.23899e-18
8211.12663 5.98270e-18
8212.38957 5.26234e-18
8213.66269 5.67669e-18
8214.92563 6.44151e-18
8216.19876 6.61904e-18
8217.46170 6.23052e-18
8218.73482 6.16979e-18
8219.99777 6.07598e-18
8221.27089 5.93815e-18
8222.53383 6.33997e-18
8223.80696 6.45375e-18
8225.08008 5.83948e-18
8226.34302 5.41747e-18
8227.61614 5.22729e-18
8228.87908 5.10026e-18
8230.15221 5.53318e-18
8231.41515 6.17006e-18
8232.68827 6.20518e-18
8233.95121 5.78878e-18
8235.22434 5.84309e-18
8236.48728 6.84225e-18
8237.76040 7.19530e-18
8239.02334 6.81499e-18
8240.29647 6.81892e-18
8241.56959 6.60542e-18
8242.83253 6.33388e-18
8244.10566 6.09556e-18
8245.36860 6.29099e-18
8246.64172 6.59140e-18
8247.90467 7.01907e-18
8249.17779 6.43143e-18
8250.44073 5.35889e-18
8251.71385 5.50153e-18
8252.97679 5.61349e-18
8254.24992 5.34310e-18
8255.51286 5.32184e-18
8256.78599 5.15905e-18
8258.05911 5.57480e-18
8259.32205 6.13555e-18
8260.59518 6.13602e-18
8261.85811 5.74729e-18
8263.13124 5.52779e-18
8264.39418 6.02903e-18
8265.66730 6.59330e-18
8266.93024 6.40614e-18
8268.20337 6.55035e-18
8269.46631 6.72917e-18
8270.73943 5.90618e-18
8272.00238 5.56922e-18
8273.27550 6.20833e-18
8274.54862 6.70958e-18
8275.81156 6.21719e-18
8277.08469 5.85514e-18
8278.34763 5.99208e-18
8279.62075 5.95678e-18
8280.88370 6.13108e-18
8282.15682 6.98952e-18
8283.41976 7.98335e-18
8284.69289 8.03923e-18
8285.95582 6.99587e-18
8287.22895 5.07609e-18
8288.49189 4.76316e-18
8289.76501 5.91886e-18
8291.03814 6.81034e-18
8292.30108 6.69799e-18
8293.57421 5.95289e-18
8294.83714 6.00019e-18
8296.11027 5.53318e-18
8297.37321 4.94585e-18
8298.64633 5.56949e-18
8299.90927 6.17731e-18
8301.18240 7.02110e-18
8302.44534 6.86269e-18
8303.71846 6.01577e-18
8304.98141 6.10787e-18
8306.25453 6.61813e-18
8307.52765 7.20938e-18
8308.79060 7.40802e-18
8310.06372 7.29409e-18
8311.32666 6.36549e-18
8312.59978 5.07600e-18
8313.86273 5.58525e-18
8315.13585 6.81918e-18
8316.39879 6.66857e-18
8317.67191 5.82810e-18
8318.93485 5.38978e-18
8320.20798 5.42177e-18
8321.48110 5.79406e-18
8322.74404 6.12608e-18
8324.01717 5.97548e-18
8325.28011 5.93649e-18
8326.55323 6.04037e-18
8327.81617 5.50927e-18
8329.08930 5.72000e-18
8330.35224 6.39610e-18
8331.62536 6.22520e-18
8332.88830 5.88188e-18
8334.16143 5.14943e-18
8335.42437 4.75501e-18
8336.69750 5.72128e-18
8337.97062 8.05922e-18
8339.23356 1.00407e-17
8340.50669 9.42870e-18
8341.76962 7.70748e-18
8343.04275 6.14855e-18
8344.30569 5.28811e-18
8345.57881 6.27429e-18
8346.84175 8.22523e-18
8348.11488 9.22685e-18
8349.37782 7.95682e-18
8350.65094 6.90560e-18
8351.91388 7.17092e-18
8353.18701 7.41601e-18
8354.46013 6.64151e-18
8355.72307 6.16799e-18
8356.99620 6.68272e-18
8358.25914 6.73356e-18
8359.53226 6.17948e-18
8360.79521 5.96849e-18
8362.06833 6.02019e-18
8363.33127 6.16550e-18
8364.60440 7.36759e-18
8365.86733 7.83614e-18
8367.14046 6.36365e-18
8368.41359 5.44261e-18
8369.67652 6.20409e-18
8370.94965 7.03905e-18
8372.21259 6.60764e-18
8373.48571 5.94330e-18
8374.74865 6.00037e-18
8376.02178 5.56107e-18
8377.28472 5.67698e-18
8378.55785 6.44532e-18
8379.82078 6.30421e-18
8381.09391 5.63939e-18
8382.35685 5.80574e-18
8383.62997 6.41788e-18
8384.89292 5.68703e-18
8386.16604 4.33967e-18
8387.43916 4.39898e-18
8388.70211 5.00586e-18
8389.97523 5.15674e-18
8391.23817 4.97389e-18
8392.51130 4.54787e-18
8393.77423 4.86440e-18
8395.04736 4.85096e-18
8396.31030 3.46564e-18
8397.58342 3.91910e-18
8398.84637 4.31368e-18
8400.11949 2.78089e-18
8401.39262 4.48125e-18
8402.65556 7.39570e-18
8403.92868 6.30092e-18
8405.19162 4.45177e-18
8406.46474 4.16190e-18
8407.72768 4.06406e-18
8409.00081 4.67179e-18
8410.26375 5.58654e-18
8411.53687 5.92531e-18
8412.79982 5.94548e-18
8414.07294 6.74745e-18
8415.33588 6.29724e-18
8416.60900 4.43080e-18
8417.87194 3.78376e-18
8419.14507 4.33016e-18
8420.41819 4.71093e-18
8421.68113 4.22904e-18
8422.95426 4.13801e-18
8424.21720 5.33345e-18
8425.49033 6.22679e-18
8426.75326 5.33620e-18
8428.02639 5.08335e-18
8429.28933 5.57057e-18
8430.56245 4.80271e-18
8431.82539 4.51959e-18
8433.09852 4.47994e-18
8434.37164 3.65348e-18
8435.63458 3.48971e-18
8436.90771 3.77550e-18
8438.17065 3.28545e-18
8439.44377 3.53026e-18
8440.70671 4.82910e-18
8441.97984 5.20962e-18
8443.24278 4.47299e-18
8444.51590 3.77738e-18
8445.77885 3.93759e-18
8447.05197 4.88973e-18
8448.31491 5.82837e-18
8449.58804 5.02807e-18
8450.86116 3.38426e-18
8452.12410 2.72804e-18
8453.39723 2.83555e-18
8454.66016 2.61503e-18
8455.93329 2.33615e-18
8457.19623 2.86115e-18
8458.46935 3.30939e-18
8459.73229 4.31731e-18
8461.00542 4.85189e-18
8462.26836 3.15595e-18
8463.54148 2.36501e-18
8464.80442 4.09775e-18
8466.07755 5.28124e-18
8467.35067 5.68501e-18
8468.61362 5.47676e-18
8469.88674 3.92437e-18
8471.14968 2.46195e-18
8472.42281 2.37890e-18
8473.68575 3.08614e-18
8474.95887 3.15048e-18
8476.22181 2.72426e-18
8477.49494 3.30390e-18
8478.75787 4.46765e-18
8480.03100 4.59525e-18
8481.30413 3.63928e-18
8482.56706 3.32754e-18
8483.84019 3.75403e-18
8485.10313 3.21631e-18
8486.37625 2.73774e-18
8487.63919 3.29324e-18
8488.91232 3.40320e-18
8490.17526 3.28691e-18
8491.44838 3.39490e-18
8492.71133 3.33064e-18
8493.98445 3.71086e-18
8495.24739 4.94562e-18
8496.52052 4.84194e-18
8497.79364 3.69319e-18
8499.05658 3.81358e-18
8500.32971 4.33475e-18
8501.59265 4.21965e-18
8502.86577 3.00939e-18
8504.12871 2.15747e-18
8505.40183 3.42497e-18
8506.66477 4.27230e-18
8507.93790 4.07778e-18
8509.20084 3.84991e-18
8510.47396 3.28729e-18
8511.73690 3.13400e-18
8513.01003 3.10521e-18
8514.27297 3.32188e-18
8515.54609 3.84217e-18
8516.81922 3.96159e-18
8518.08216 3.80154e-18
8519.35528 4.00702e-18
8520.61823 4.10825e-18
8521.89135 3.51549e-18
8523.15429 3.42121e-18
8524.42742 3.98130e-18
8525.69035 3.53614e-18
8526.96348 2.69198e-18
8528.23661 2.34732e-18
8529.49954 2.23322e-18
8530.77267 2.18122e-18
8532.03561 2.51030e-18
8533.30873 3.11943e-18
8534.57167 3.32503e-18
8535.84480 3.49018e-18
8537.10774 3.94597e-18
8538.38087 3.79719e-18
8539.64380 3.10097e-18
8540.91693 2.73569e-18
8542.17987 3.39007e-18
8543.45299 4.41218e-18
8544.71594 4.36635e-18
8545.98906 3.65618e-18
8547.26218 3.39329e-18
8548.52513 3.82455e-18
8549.79825 4.48611e-18
8551.06119 5.01958e-18
8552.33432 4.83806e-18
8553.59725 4.19634e-18
8554.87038 3.98702e-18
8556.13332 4.13366e-18
8557.40644 4.29634e-18
8558.66938 4.26916e-18
8559.94251 4.30020e-18
8561.21563 4.26135e-18
8562.47858 3.96343e-18
8563.75170 3.55486e-18
8565.01464 3.35353e-18
8566.28777 3.66705e-18
8567.55070 4.35807e-18
8568.82383 4.86020e-18
8570.08677 4.44561e-18
8571.35989 3.87779e-18
8572.62284 4.48190e-18
8573.89596 4.84864e-18
8575.15890 4.20095e-18
8576.43203 3.90766e-18
8577.69496 3.92874e-18
8578.96809 3.66564e-18
8580.24121 2.87637e-18
8581.50415 2.84323e-18
8582.77728 3.67307e-18
8584.04022 3.91853e-18
8585.31335 3.60090e-18
8586.57629 3.80957e-18
8587.84941 4.22494e-18
8589.11235 3.90828e-18
8590.38547 3.36928e-18
8591.64841 3.35742e-18
8592.92154 3.39521e-18
8594.19466 3.52753e-18
8595.45760 4.25955e-18
8596.73073 4.82583e-18
8597.99367 5.40573e-18
8599.26679 5.88123e-18
8600.52973 5.08686e-18
8601.80286 4.83385e-18
8603.06580 5.40680e-18
8604.33892 5.08228e-18
8605.60187 4.85163e-18
8606.87499 5.64136e-18
8608.13793 5.71738e-18
8609.41106 5.28371e-18
8610.68418 5.62783e-18
8611.94712 5.72363e-18
8613.22025 4.75553e-18
8614.48318 3.59796e-18
8615.75631 3.67382e-18
8617.01925 4.82203e-18
8618.29237 4.46696e-18
8619.55531 3.66739e-18
8620.82844 4.69665e-18
8622.09138 4.10936e-18
8623.36450 2.60992e-18
8624.62744 3.93081e-18
8625.90057 5.31016e-18
8627.17369 4.50951e-18
8628.43663 2.93633e-18
8629.70976 1.76973e-18
8630.97270 3.66327e-18
8632.24582 5.40676e-18
8633.50877 3.70417e-18
8634.78189 3.21385e-18
8636.04483 5.22914e-18
8637.31796 5.80179e-18
8638.58089 5.16187e-18
8639.85402 4.64848e-18
8641.12715 4.47216e-18
8642.39008 4.36837e-18
8643.66321 4.58927e-18
8644.92615 4.82197e-18
8646.19927 4.38082e-18
8647.46221 4.42145e-18
8648.73534 5.50347e-18
8649.99828 6.11973e-18
8651.27140 6.40993e-18
8652.53435 6.50843e-18
8653.80747 6.02920e-18
8655.07041 5.92527e-18
8656.34353 5.86762e-18
8657.61666 6.05847e-18
8658.87960 5.97785e-18
8660.15272 5.18696e-18
8661.41567 5.99646e-18
8662.68879 6.37715e-18
8663.95173 6.85699e-18
8665.22486 8.44148e-18
8666.48779 8.76007e-18
8667.76092 7.30831e-18
8669.02386 5.66257e-18
8670.29698 4.87631e-18
8671.55992 5.49517e-18
8672.83305 6.35758e-18
8674.09599 5.81162e-18
8675.36912 5.13109e-18
8676.64224 5.26938e-18
8677.90518 5.96712e-18
8679.17830 6.89086e-18
8680.44124 6.50782e-18
8681.71437 5.36812e-18
8682.97731 4.94528e-18
8684.25043 5.56185e-18
8685.51338 6.07903e-18
8686.78650 6.79422e-18
8688.05962 7.29697e-18
8689.32256 6.41701e-18
8690.59569 6.00046e-18
8691.85863 6.37995e-18
8693.13175 6.70224e-18
8694.39469 6.00784e-18
8695.66782 4.43836e-18
8696.93076 4.45136e-18
8698.20388 5.96994e-18
8699.46682 6.44441e-18
8700.73995 6.39220e-18
8702.00289 6.62232e-18
8703.27601 6.52103e-18
8704.53895 5.89362e-18
8705.81208 6.43798e-18
8707.07502 7.28282e-18
8708.34814 6.50081e-18
8709.62127 6.23187e-18
8710.88421 7.00636e-18
8712.15733 7.22491e-18
8713.42027 6.85122e-18
8714.69340 6.98166e-18
8715.95634 7.20787e-18
8717.22946 7.37677e-18
8718.49240 7.99252e-18
8719.76553 8.32140e-18
8721.02847 8.01794e-18
8722.30160 7.37952e-18
8723.57472 7.40762e-18
8724.83766 8.06609e-18
8726.11079 8.43552e-18
8727.37372 8.98157e-18
8728.64685 9.56405e-18
8729.90979 8.95687e-18
8731.18291 7.73106e-18
8732.44585 7.41568e-18
8733.71898 8.30875e-18
8734.98192 9.35087e-18
8736.25504 9.35618e-18
8737.51798 8.39543e-18
8738.79111 7.83555e-18
8740.06423 8.29722e-18
8741.32717 8.62859e-18
8742.60030 8.39956e-18
8743.86324 8.71205e-18
8745.13637 9.30750e-18
8746.39931 9.87465e-18
8747.67243 1.08102e-17
8748.93537 1.04037e-17
8750.20850 9.02553e-18
8751.47143 9.19842e-18
8752.74456 9.74002e-18
8754.00750 8.99730e-18
8755.28062 8.22830e-18
8756.55375 7.86464e-18
8757.81669 7.91941e-18
8759.08981 8.75994e-18
8760.35275 9.51531e-18
8761.62588 8.57146e-18
8762.88882 9.04008e-18
8764.16194 1.23757e-17
8765.42488 1.42102e-17
8766.69801 1.39138e-17
8767.96095 1.36008e-17
8769.23408 1.34192e-17
8770.50720 1.17334e-17
8771.77014 1.10234e-17
8773.04327 1.42223e-17
8774.30621 1.64345e-17
8775.57933 1.47796e-17
8776.84227 1.41588e-17
8778.11539 1.49554e-17
8779.37833 1.35458e-17
8780.65146 1.08790e-17
8781.91440 9.38441e-18
8783.18752 9.47403e-18
8784.45046 1.04951e-17
8785.72359 1.09009e-17
8786.99671 1.11072e-17
8788.25965 1.15560e-17
8789.53278 1.19895e-17
8790.79572 1.21219e-17
8792.06884 1.16215e-17
8793.33179 9.98910e-18
8794.60491 8.98465e-18
8795.86785 1.03119e-17
8797.14098 1.07147e-17
8798.40391 9.55717e-18
8799.67704 9.42981e-18
8800.93998 1.06114e-17
8802.21310 1.10137e-17
8803.48623 9.92974e-18
8804.74917 1.01815e-17
8806.02229 1.10551e-17
8807.28523 9.67804e-18
8808.55836 8.17642e-18
8809.82130 8.40611e-18
8811.09442 9.10028e-18
8812.35736 9.85499e-18
8813.63049 9.80625e-18
8814.89343 9.61869e-18
8816.16655 9.71525e-18
8817.43968 9.85146e-18
8818.70262 1.01940e-17
8819.96556 1.07323e-17
8821.23869 1.22282e-17
8822.51181 1.47881e-17
8823.77475 1.54750e-17
8825.04788 1.38154e-17
8826.31081 1.40663e-17
8827.58394 1.58163e-17
8828.84688 1.62928e-17
8830.12000 1.55398e-17
8831.38294 1.28875e-17
8832.65607 1.12504e-17
8833.91901 1.20722e-17
8835.19213 1.26850e-17
8836.46526 1.20547e-17
8837.72820 1.19857e-17
8839.00133 1.23324e-17
8840.26426 1.18703e-17
8841.53739 1.09793e-17
8842.80033 9.77002e-18
8844.07345 9.70942e-18
8845.33640 1.13983e-17
8846.60952 1.18453e-17
8847.87246 1.05933e-17
8849.14559 1.00181e-17
8850.41871 1.02524e-17
8851.68165 1.06378e-17
8852.95478 1.09437e-17
8854.21771 1.06345e-17
8855.49084 9.83226e-18
8856.75378 9.55973e-18
8858.02690 9.93158e-18
8859.28985 1.00619e-17
8860.56297 9.62688e-18
8861.82591 8.49527e-18
8863.09904 7.47228e-18
8864.36197 8.02233e-18
8865.63510 8.56943e-18
8866.89804 8.20655e-18
8868.17116 8.84262e-18
8869.44429 8.79853e-18
8870.70723 7.38017e-18
8871.98035 7.68317e-18
8873.24330 9.60034e-18
8874.51642 1.04023e-17
8875.77936 9.74349e-18
8877.05248 9.39660e-18
8878.31542 9.75626e-18
8879.58855 1.01401e-17
8880.85149 1.14552e-17
8882.12462 1.28890e-17
8883.39774 1.26928e-17
8884.66068 1.22408e-17
8885.93381 1.26297e-17
8887.19674 1.39129e-17
8888.46987 1.32166e-17
8889.73281 1.02933e-17
8891.00593 8.71873e-18
8892.26887 7.93146e-18
8893.54200 7.31086e-18
8894.80494 8.16037e-18
8896.07806 9.50397e-18
8897.34100 8.37912e-18
8898.61413 5.95207e-18
8899.88725 6.17348e-18
8901.15019 9.36496e-18
8902.42332 1.17923e-17
8903.68626 1.07395e-17
8904.95938 9.64856e-18
8906.22233 1.05011e-17
8907.49545 1.08964e-17
8908.75839 1.01600e-17
8910.03152 9.29813e-18
8911.29445 8.86856e-18
8912.56758 7.52699e-18
8913.83052 7.03354e-18
8915.10364 8.50641e-18
8916.37677 9.46408e-18
8917.63971 9.43204e-18
8918.91283 9.68748e-18
8920.17577 1.03930e-17
8921.44890 1.03211e-17
8922.71184 1.20989e-17
8923.98496 1.37534e-17
8925.24790 1.05887e-17
8926.52103 7.70407e-18
8927.78397 7.88095e-18
8929.05710 8.30043e-18
8930.33022 8.51027e-18
8931.59316 9.23157e-18
8932.86629 9.06006e-18
8934.12923 8.40368e-18
8935.40235 8.72109e-18
8936.66529 8.97489e-18
8937.93842 8.26748e-18
8939.20135 7.81210e-18
8940.47448 7.94738e-18
8941.73742 8.61339e-18
8943.01054 9.79282e-18
8944.27348 9.38232e-18
8945.54661 8.11091e-18
8946.80955 8.88265e-18
8948.08267 9.28280e-18
8949.35580 8.33129e-18
8950.61874 1.04039e-17
8951.89187 1.32370e-17
8953.15481 1.27129e-17
8954.42793 1.14137e-17
8955.69087 1.15605e-17
8956.96400 1.24163e-17
8958.22694 1.21112e-17
8959.50006 1.15718e-17
8960.76300 1.19253e-17
8962.03613 9.47161e-18
8963.30925 7.49502e-18
8964.57219 8.47116e-18
8965.84531 9.40354e-18
8967.10825 9.16717e-18
8968.38138 9.20831e-18
8969.64432 1.10150e-17
8970.91744 1.10648e-17
8972.18038 9.66330e-18
8973.45351 9.49100e-18
8974.71645 9.61043e-18
8975.98957 9.95687e-18
8977.26270 1.07952e-17
8978.52564 1.07758e-17
8979.78858 9.64450e-18
8981.06171 9.68145e-18
8982.33483 9.87668e-18
8983.59777 9.14726e-18
8984.87090 9.65623e-18
8986.13383 1.09929e-17
8987.40696 1.17030e-17
8988.66990 1.00806e-17
8989.94302 9.32755e-18
8991.20596 1.02752e-17
8992.47909 1.00271e-17
8993.74203 9.66245e-18
8995.01515 8.21402e-18
8996.28828 8.01919e-18
8997.55122 9.72541e-18
8998.82435 1.08590e-17
9000.08728 9.70202e-18
