# wavelength flux
3491.65808 1.14232e-17
3493.65724 5.77256e-18
3495.64634 6.40537e-18
3497.64550 7.95473e-18
3499.63461 4.51301e-18
3501.63376 3.46400e-18
3503.63291 4.93197e-18
3505.62202 2.17451e-18
3507.62118 2.58718e-18
3509.62033 5.13778e-18
3511.60944 5.85968e-18
3513.60859 5.27418e-18
3515.59770 4.97438e-18
3517.59685 2.04519e-18
3519.59601 1.35651e-18
3521.58512 1.57143e-18
3523.58427 2.85718e-18
3525.57338 8.38703e-19
3527.57253 4.76157e-18
3529.57169 7.69340e-18
3531.56079 5.06041e-18
3533.55995 5.67406e-18
3535.54906 9.54630e-19
3537.54821 3.46442e-18
3539.54736 4.69214e-19
3541.53647 2.91680e-18
3543.53563 6.93126e-18
3545.52473 3.59030e-18
3547.52389 2.65720e-18
3549.52304 3.73007e-18
3551.51215 6.67537e-18
3553.51130 2.28726e-18
3555.51046 6.37357e-18
3557.49957 6.98287e-18
3559.49872 4.90299e-18
3561.48783 2.11204e-18
3563.48698 5.07611e-18
3565.48614 4.03937e-18
3567.47524 3.71920e-18
3569.47440 1.84861e-18
3571.46351 8.89981e-19
3573.46266 -6.36158e-19
3575.46181 3.81401e-18
3577.45092 4.78132e-18
3579.45008 6.96300e-18
3581.43918 5.20115e-18
3583.43834 5.19520e-18
3585.43749 4.87139e-18
3587.42660 4.12118e-18
3589.42575 6.90352e-18
3591.42491 3.21429e-18
3593.41402 7.99099e-18
3595.41317 2.75410e-18
3597.40228 1.22130e-18
3599.40143 4.46824e-18
3601.40059 5.49643e-18
3603.38969 8.79873e-18
3605.38885 6.96315e-18
3607.37796 5.48451e-18
3609.37711 7.59968e-18
3611.37626 6.22271e-18
3613.36537 6.45426e-18
3615.36453 5.49445e-19
3617.35363 2.62203e-18
3619.35279 4.24481e-18
3621.35194 6.73724e-18
3623.34105 3.96370e-18
3625.34020 3.26596e-18
3627.33936 4.59568e-18
3629.32847 6.04348e-18
3631.32762 6.84819e-18
3633.31673 1.59106e-18
3635.31588 5.95030e-18
3637.31504 6.25227e-18
3639.30414 3.64674e-18
3641.30330 4.10351e-18
3643.29241 3.64991e-18
3645.29156 2.48464e-18
3647.29071 4.32734e-18
3649.27982 3.21355e-18
3651.27898 4.17902e-18
3653.26808 4.46495e-18
3655.26724 4.08352e-18
3657.26639 5.68444e-18
3659.25550 3.12070e-18
3661.25465 7.39487e-18
3663.24376 7.04945e-18
3665.24292 4.86947e-18
3667.24207 5.48794e-18
3669.23118 4.81195e-18
3671.23033 3.98995e-18
3673.22949 3.93571e-18
3675.21859 5.42508e-18
3677.21775 3.90959e-18
3679.20686 4.66287e-18
3681.20601 6.65653e-18
3683.20516 6.04632e-18
3685.19427 7.62900e-18
3687.19343 5.67028e-18
3689.18253 5.17463e-18
3691.18169 6.30708e-18
3693.18084 4.23428e-18
3695.16995 5.42855e-18
3697.16910 7.06636e-18
3699.15821 4.55385e-18
3701.15737 7.54273e-18
3703.15652 6.00391e-18
3705.14563 5.15005e-18
3707.14478 6.16358e-18
3709.14394 5.59030e-18
3711.13304 7.88156e-18
3713.13220 7.56445e-18
3715.12131 5.18272e-18
3717.12046 6.07475e-18
3719.11961 4.81768e-18
3721.10872 5.17716e-18
3723.10788 6.91358e-18
3725.09698 6.87376e-18
3727.09614 6.83394e-18
3729.09529 6.77498e-18
3731.08440 6.71604e-18
3733.08355 6.65710e-18
3735.07266 6.59816e-18
3737.07182 6.53924e-18
3739.07097 6.48031e-18
3741.06008 6.42140e-18
3743.05923 6.36249e-18
3745.04834 6.30359e-18
3747.04749 6.24469e-18
3749.04665 6.18580e-18
3751.03576 6.12691e-18
3753.03491 6.06803e-18
3755.03406 6.00916e-18
3757.02317 5.95029e-18
3759.02233 5.89143e-18
3761.01143 5.83258e-18
3763.01059 5.77373e-18
3765.00974 5.71488e-18
3766.99885 6.05210e-18
3768.99800 7.67519e-18
3770.98711 8.16084e-18
3772.98627 7.67867e-18
3774.98542 7.35504e-18
3776.97453 4.91398e-18
3778.97368 7.46604e-18
3780.96279 7.99746e-18
3782.96194 5.55252e-18
3784.96110 7.49791e-18
3786.95021 9.81981e-18
3788.94936 6.89482e-18
3790.93847 7.54317e-18
3792.93762 8.80592e-18
3794.93678 7.88110e-18
3796.92588 7.37131e-18
3798.92504 6.81383e-18
3800.92419 6.18990e-18
3802.91330 5.55020e-18
3804.91245 5.44310e-18
3806.90156 6.03112e-18
3808.90072 6.93785e-18
3810.89987 6.91576e-18
3812.88898 7.21901e-18
3814.88813 7.62533e-18
3816.87724 8.96618e-18
3818.87639 8.04019e-18
3820.87555 5.51025e-18
3822.86466 7.40316e-18
3824.86381 7.82702e-18
3826.85292 7.01801e-18
3828.85207 7.18385e-18
3830.85123 8.78261e-18
3832.84033 8.21991e-18
3834.83949 8.73884e-18
3836.83864 5.76324e-18
3838.82775 6.05780e-18
3840.82690 8.09440e-18
3842.81601 6.66543e-18
3844.81517 7.36868e-18
3846.81432 7.90654e-18
3848.80343 8.25479e-18
3850.80258 7.03194e-18
3852.79169 7.38840e-18
3854.79084 8.98232e-18
3856.79000 9.57333e-18
3858.77911 7.62015e-18
3860.77826 6.38650e-18
3862.76737 9.33560e-18
3864.76652 8.89503e-18
3866.76568 9.30602e-18
3868.75478 9.06266e-18
3870.75394 7.52357e-18
3872.74305 7.16301e-18
3874.74220 7.57197e-18
3876.74135 7.23813e-18
3878.73046 8.02172e-18
3880.72962 9.16585e-18
3882.72877 9.12854e-18
3884.71788 8.37047e-18
3886.71703 5.33700e-18
3888.70614 6.73463e-18
3890.70529 7.30666e-18
3892.70445 8.30342e-18
3894.69356 8.55812e-18
3896.69271 8.09357e-18
3898.68182 8.29235e-18
3900.68097 9.13894e-18
3902.68013 7.09612e-18
3904.66923 7.17814e-18
3906.66839 7.19971e-18
3908.65750 8.35302e-18
3910.65665 9.95949e-18
3912.65580 8.03019e-18
3914.64491 8.89811e-18
3916.64407 9.62092e-18
3918.64322 8.13776e-18
3920.63233 6.60924e-18
3922.63148 7.50770e-18
3924.62059 8.77275e-18
3926.61974 8.35255e-18
3928.61890 7.85175e-18
3930.60801 8.02108e-18
3932.60716 6.64370e-18
3934.59627 7.39047e-18
3936.59542 7.33340e-18
3938.59458 7.65660e-18
3940.58368 8.42258e-18
3942.58284 8.80072e-18
3944.57195 7.20370e-18
3946.57110 7.88585e-18
3948.57025 8.29607e-18
3950.55936 6.46956e-18
3952.55852 5.51808e-18
3954.55767 6.92662e-18
3956.54678 7.59183e-18
3958.54593 8.13962e-18
3960.53504 7.87077e-18
3962.53419 8.17748e-18
3964.53335 8.34926e-18
3966.52246 7.72737e-18
3968.52161 8.33652e-18
3970.51072 7.61774e-18
3972.50987 8.97039e-18
3974.50903 8.00325e-18
3976.49813 7.26130e-18
3978.49729 8.35498e-18
3980.48640 7.14721e-18
3982.48555 6.08778e-18
3984.48470 6.00511e-18
3986.47381 6.72788e-18
3988.47297 7.42447e-18
3990.46207 8.89873e-18
3992.46123 9.48614e-18
3994.46038 7.14715e-18
3996.44949 7.54969e-18
3998.44864 6.74450e-18
4000.44780 6.86529e-18
4002.43691 7.99491e-18
4004.43606 6.57099e-18
4006.42517 6.21689e-18
4008.42432 6.78398e-18
4010.42348 6.59275e-18
4012.41258 6.92673e-18
4014.41174 8.51329e-18
4016.40085 7.91870e-18
4018.40000 6.48797e-18
4020.39915 5.83697e-18
4022.38826 4.87777e-18
4024.38742 7.60318e-18
4026.37652 9.01743e-18
4028.37568 8.11139e-18
4030.37483 7.84816e-18
4032.36394 7.24569e-18
4034.36309 7.42929e-18
4036.36225 8.16966e-18
4038.35136 8.90998e-18
4040.35051 8.90969e-18
4042.33962 7.80693e-18
4044.33877 7.44338e-18
4046.33793 8.10035e-18
4048.32703 8.61300e-18
4050.32619 7.69139e-18
4052.31530 7.81181e-18
4054.31445 7.49589e-18
4056.31360 7.65915e-18
4058.30271 6.12579e-18
4060.30187 5.83805e-18
4062.29097 6.43996e-18
4064.29013 7.46137e-18
4066.28928 6.69387e-18
4068.27839 6.53866e-18
4070.27754 5.57191e-18
4072.26665 7.91171e-18
4074.26581 7.06497e-18
4076.26496 7.42970e-18
4078.25407 6.15043e-18
4080.25322 6.49571e-18
4082.25238 6.89980e-18
4084.24148 6.81824e-18
4086.24064 7.57346e-18
4088.22975 7.60258e-18
4090.22890 6.43736e-18
4092.22805 8.06256e-18
4094.21716 7.39822e-18
4096.21632 7.64996e-18
4098.20542 8.10205e-18
4100.20458 7.24845e-18
4102.20373 6.91683e-18
4104.19284 6.98345e-18
4106.19199 6.88711e-18
4108.18110 7.74799e-18
4110.18026 6.88832e-18
4112.17941 7.40973e-18
4114.16852 7.63343e-18
4116.16767 7.21350e-18
4118.16683 7.23983e-18
4120.15593 7.72563e-18
4122.15509 7.51490e-18
4124.14420 7.34302e-18
4126.14335 7.45712e-18
4128.14250 7.40660e-18
4130.13161 7.07772e-18
4132.13077 8.07146e-18
4134.11987 7.39758e-18
4136.11903 6.20269e-18
4138.11818 5.88814e-18
4140.10729 6.31083e-18
4142.10644 8.04745e-18
4144.09555 8.44292e-18
4146.09471 7.02755e-18
4148.09386 6.66293e-18
4150.08297 6.52761e-18
4152.08212 7.02578e-18
4154.07123 6.22446e-18
4156.07038 7.39919e-18
4158.06954 8.16521e-18
4160.05865 6.74036e-18
4162.05780 6.31909e-18
4164.05695 7.12921e-18
4166.04606 7.56474e-18
4168.04522 6.96707e-18
4170.03432 7.31552e-18
4172.03348 8.26392e-18
4174.03263 8.08150e-18
4176.02174 8.17466e-18
4178.02089 7.41430e-18
4180.01000 7.16893e-18
4182.00916 8.02091e-18
4184.00831 7.35535e-18
4185.99742 8.24325e-18
4187.99657 9.35663e-18
4189.98568 8.29828e-18
4191.98483 8.65443e-18
4193.98399 8.47159e-18
4195.97310 7.09207e-18
4197.97225 7.53604e-18
4199.96136 8.04511e-18
4201.96051 8.03042e-18
4203.95967 9.19336e-18
4205.94877 9.45222e-18
4207.94793 7.92898e-18
4209.94708 7.59759e-18
4211.93619 7.65425e-18
4213.93534 7.67403e-18
4215.92445 6.93027e-18
4217.92361 7.45797e-18
4219.92276 8.41419e-18
4221.91187 7.27754e-18
4223.91102 6.88827e-18
4225.90013 7.38992e-18
4227.89928 8.01681e-18
4229.89844 8.19306e-18
4231.88755 8.73279e-18
4233.88670 8.80392e-18
4235.87581 7.85967e-18
4237.87496 7.90750e-18
4239.87412 8.66104e-18
4241.86322 9.85566e-18
4243.86238 9.05486e-18
4245.86153 8.02201e-18
4247.85064 7.82099e-18
4249.84979 8.28303e-18
4251.83890 8.13789e-18
4253.83806 9.14140e-18
4255.83721 8.22363e-18
4257.82632 8.33533e-18
4259.82547 8.06282e-18
4261.81458 8.36153e-18
4263.81373 9.21962e-18
4265.81289 7.90427e-18
4267.80200 8.88322e-18
4269.80115 9.15734e-18
4271.79026 9.27441e-18
4273.78941 7.70768e-18
4275.78857 7.96893e-18
4277.77767 8.39842e-18
4279.77683 9.48092e-18
4281.77598 9.68575e-18
4283.76509 9.06894e-18
4285.76424 8.92464e-18
4287.75335 8.89969e-18
4289.75251 8.51478e-18
4291.75166 7.26145e-18
4293.74077 7.90199e-18
4295.73992 9.41101e-18
4297.72903 9.54982e-18
4299.72818 7.48925e-18
4301.72734 6.92974e-18
4303.71645 7.74261e-18
4305.71560 8.56582e-18
4307.70471 9.57264e-18
4309.70386 9.56939e-18
4311.70302 7.89260e-18
4313.69212 7.50268e-18
4315.69128 9.30564e-18
4317.68039 8.86782e-18
4319.67954 8.71840e-18
4321.67869 8.77871e-18
4323.66780 8.72883e-18
4325.66696 9.43044e-18
4327.66611 1.00020e-17
4329.65522 1.05394e-17
4331.65437 8.84856e-18
4333.64348 7.73738e-18
4335.64263 8.72902e-18
4337.64179 8.66530e-18
4339.63090 9.81287e-18
4341.63005 9.15164e-18
4343.61916 9.82503e-18
4345.61831 1.03990e-17
4347.61747 1.09466e-17
4349.60657 1.25266e-17
4351.60573 1.20566e-17
4353.59484 1.18015e-17
4355.59399 1.21588e-17
4357.59314 1.19169e-17
4359.58225 1.20296e-17
4361.58141 9.29124e-18
4363.57051 1.06933e-17
4365.56967 1.07280e-17
4367.56882 1.07627e-17
4369.55793 1.07974e-17
4371.55708 1.08321e-17
4373.55624 1.08667e-17
4375.54535 1.09014e-17
4377.54450 1.09361e-17
4379.53361 1.09707e-17
4381.53276 1.10054e-17
4383.53192 1.10401e-17
4385.52102 1.10747e-17
4387.52018 1.11094e-17
4389.50929 1.11440e-17
4391.50844 1.11787e-17
4393.50759 1.12133e-17
4395.49670 1.12480e-17
4397.49586 1.12826e-17
4399.48496 1.13172e-17
4401.48412 1.13519e-17
4403.48327 1.11460e-17
4405.47238 9.89180e-18
4407.47153 1.06136e-17
4409.47069 1.03849e-17
4411.45980 1.06717e-17
4413.45895 1.09913e-17
4415.44806 9.99255e-18
4417.44721 1.12807e-17
4419.44637 1.16554e-17
4421.43547 1.13723e-17
4423.43463 1.04246e-17
4425.42374 9.42252e-18
4427.42289 1.01001e-17
4429.42204 1.09798e-17
4431.41115 1.06777e-17
4433.41031 1.01723e-17
4435.39941 1.05868e-17
4437.39857 1.09007e-17
4439.39772 1.09105e-17
4441.38683 9.74805e-18
4443.38598 1.08889e-17
4445.37509 1.04744e-17
4447.37425 1.02797e-17
4449.37340 1.03753e-17
4451.36251 1.00070e-17
4453.36166 9.79388e-18
4455.36082 9.78622e-18
4457.34992 9.70730e-18
4459.34908 9.53781e-18
4461.33819 9.14008e-18
4463.33734 1.00507e-17
4465.33649 1.04795e-17
4467.32560 9.86136e-18
4469.32476 1.11921e-17
4471.31386 1.19072e-17
4473.31302 1.17665e-17
4475.31217 1.18378e-17
4477.30128 1.16295e-17
4479.30043 1.08403e-17
4481.28954 1.08157e-17
4483.28870 1.13995e-17
4485.28785 1.12588e-17
4487.27696 1.11715e-17
4489.27611 1.12996e-17
4491.27527 1.15772e-17
4493.26437 1.15224e-17
4495.26353 1.12787e-17
4497.25264 1.12403e-17
4499.25179 9.87420e-18
4501.25094 1.05235e-17
4503.24005 1.08767e-17
4505.23921 1.19089e-17
4507.22831 1.24980e-17
4509.22747 1.07373e-17
4511.22662 1.01148e-17
4513.21573 9.48919e-18
4515.21488 9.76473e-18
4517.20399 1.00181e-17
4519.20315 1.13733e-17
4521.20230 1.15821e-17
4523.19141 1.04566e-17
4525.19056 1.03491e-17
4527.18972 1.13697e-17
4529.17882 1.16672e-17
4531.17798 1.06654e-17
4533.16709 1.11570e-17
4535.16624 1.03913e-17
4537.16539 1.01915e-17
4539.15450 1.10286e-17
4541.15366 1.10220e-17
4543.14276 1.05604e-17
4545.14192 1.01660e-17
4547.14107 1.09615e-17
4549.13018 1.09460e-17
4551.12933 1.03991e-17
4553.11844 1.07144e-17
4555.11760 9.83388e-18
4557.11675 1.01173e-17
4559.10586 1.01863e-17
4561.10501 1.06599e-17
4563.09412 1.13507e-17
4565.09327 1.16707e-17
4567.09243 1.20603e-17
4569.08154 1.09361e-17
4571.08069 9.84988e-18
4573.07984 1.00391e-17
4575.06895 1.06391e-17
4577.06811 1.10653e-17
4579.05721 1.09920e-17
4581.05637 1.10386e-17
4583.05552 1.27668e-17
4585.04463 1.29041e-17
4587.04378 1.20113e-17
4589.03289 1.24339e-17
4591.03205 1.24819e-17
4593.03120 1.13147e-17
4595.02031 1.04862e-17
4597.01946 1.17621e-17
4599.00857 1.09014e-17
4601.00772 1.00136e-17
4603.00688 1.15017e-17
4604.99599 1.13109e-17
4606.99514 1.09526e-17
4608.98425 1.14712e-17
4610.98340 1.07228e-17
4612.98256 1.07761e-17
4614.97166 1.09153e-17
4616.97082 1.06864e-17
4618.96997 1.15733e-17
4620.95908 1.12724e-17
4622.95823 1.10708e-17
4624.94734 1.12756e-17
4626.94650 1.06745e-17
4628.94565 9.76919e-18
4630.93476 1.17589e-17
4632.93391 1.07237e-17
4634.92302 9.83178e-18
4636.92217 9.83401e-18
4638.92133 1.13287e-17
4640.91044 1.18395e-17
4642.90959 1.02529e-17
4644.89870 1.03287e-17
4646.89785 1.04371e-17
4648.89701 9.25503e-18
4650.88611 1.02533e-17
4652.88527 1.05147e-17
4654.87438 1.02114e-17
4656.87353 1.06195e-17
4658.87268 9.72020e-18
4660.86179 9.55875e-18
4662.86095 1.13927e-17
4664.86010 1.07696e-17
4666.84921 1.20360e-17
4668.84836 1.12562e-17
4670.83747 1.12554e-17
4672.83662 1.05626e-17
4674.83578 9.21048e-18
4676.82489 1.05138e-17
4678.82404 1.02986e-17
4680.81315 1.02436e-17
4682.81230 1.04967e-17
4684.81146 1.04208e-17
4686.80056 1.04361e-17
4688.79972 9.88462e-18
4690.78883 9.02566e-18
4692.78798 1.00706e-17
4694.78713 1.05573e-17
4696.77624 9.92392e-18
4698.77540 9.84631e-18
4700.77455 1.07694e-17
4702.76366 1.00144e-17
4704.76281 1.04481e-17
4706.75192 1.06731e-17
4708.75107 1.03477e-17
4710.75023 1.10796e-17
4712.73934 1.05222e-17
4714.73849 1.07000e-17
4716.72760 1.11814e-17
4718.72675 1.08168e-17
4720.72591 9.50447e-18
4722.71501 1.00384e-17
4724.71417 1.02447e-17
4726.70328 9.62127e-18
4728.70243 1.05737e-17
4730.70158 1.09905e-17
4732.69069 9.37914e-18
4734.68985 9.22118e-18
4736.68900 9.69297e-18
4738.67811 1.00032e-17
4740.67726 1.10291e-17
4742.66637 9.37540e-18
4744.66552 8.41170e-18
4746.66468 8.86303e-18
4748.65379 8.89943e-18
4750.65294 1.00430e-17
4752.64205 8.52333e-18
4754.64120 7.98741e-18
4756.64036 8.44135e-18
4758.62946 1.00317e-17
4760.62862 9.23194e-18
4762.61773 9.33738e-18
4764.61688 1.05528e-17
4766.61603 9.77739e-18
4768.60514 1.00454e-17
4770.60430 1.10050e-17
4772.60345 8.98542e-18
4774.59256 8.83229e-18
4776.59171 8.44664e-18
4778.58082 8.17475e-18
4780.57997 9.91389e-18
4782.57913 1.04725e-17
4784.56824 9.47564e-18
4786.56739 8.76434e-18
4788.55650 8.02215e-18
4790.55565 7.84774e-18
4792.55481 9.20981e-18
4794.54391 8.98267e-18
4796.54307 8.67578e-18
4798.53218 9.20280e-18
4800.53133 9.73715e-18
4802.53048 9.70714e-18
4804.51959 8.95173e-18
4806.51875 9.53043e-18
4808.50785 9.99557e-18
4810.50701 9.03244e-18
4812.50616 9.14456e-18
4814.49527 9.74777e-18
4816.49442 9.99892e-18
4818.49358 1.05340e-17
4820.48269 9.87496e-18
4822.48184 9.68086e-18
4824.47095 9.63545e-18
4826.47010 9.80114e-18
4828.46926 1.00448e-17
4830.45836 9.55098e-18
4832.45752 8.50287e-18
4834.44663 9.73768e-18
4836.44578 9.62782e-18
4838.44493 1.00531e-17
4840.43404 9.58901e-18
4842.43320 9.02073e-18
4844.42230 9.65677e-18
4846.42146 9.41742e-18
4848.42061 9.13333e-18
4850.40972 9.96395e-18
4852.40887 9.71720e-18
4854.39798 1.04078e-17
4856.39714 9.73196e-18
4858.39629 9.98557e-18
4860.38540 1.04303e-17
4862.38455 1.00884e-17
4864.38371 1.02614e-17
4866.37281 1.02061e-17
4868.37197 1.01509e-17
4870.36108 1.00956e-17
4872.36023 1.00404e-17
4874.35938 9.98515e-18
4876.34849 9.92992e-18
4878.34765 9.87468e-18
4880.33675 9.81946e-18
4882.33591 9.76424e-18
4884.33506 9.70903e-18
4886.32417 9.65381e-18
4888.32332 9.59861e-18
4890.31243 9.54340e-18
4892.31159 9.48821e-18
4894.31074 9.43301e-18
4896.29985 9.37783e-18
4898.29900 9.32264e-18
4900.28811 9.26747e-18
4902.28726 9.21229e-18
4904.28642 9.44812e-18
4906.27553 9.19661e-18
4908.27468 9.48790e-18
4910.27383 9.38894e-18
4912.26294 9.19385e-18
4914.26210 9.72349e-18
4916.25120 1.10937e-17
4918.25036 9.87405e-18
4920.24951 9.90657e-18
4922.23862 9.68591e-18
4924.23777 9.25823e-18
4926.22688 8.85245e-18
4928.22604 9.09250e-18
4930.22519 9.41008e-18
4932.21430 1.00051e-17
4934.21345 1.02963e-17
4936.20256 1.02506e-17
4938.20171 1.07274e-17
4940.20087 1.05909e-17
4942.18998 1.09303e-17
4944.18913 1.20187e-17
4946.18828 1.19076e-17
4948.17739 1.00532e-17
4950.17655 9.40580e-18
4952.16565 1.05933e-17
4954.16481 1.06455e-17
4956.16396 9.08489e-18
4958.15307 1.11981e-17
4960.15222 1.15627e-17
4962.14133 1.23344e-17
4964.14049 1.23119e-17
4966.13964 1.22894e-17
4968.12875 1.22668e-17
4970.12790 1.22443e-17
4972.11701 1.22218e-17
4974.11616 1.21993e-17
4976.11532 1.21767e-17
4978.10443 1.21542e-17
4980.10358 1.21317e-17
4982.10273 1.21092e-17
4984.09184 1.20867e-17
4986.09100 1.20642e-17
4988.08010 1.20417e-17
4990.07926 1.20192e-17
4992.07841 1.19967e-17
4994.06752 1.19742e-17
4996.06667 1.19517e-17
4998.05578 1.19292e-17
5000.05494 1.19067e-17
5002.05409 1.23751e-17
5004.04320 1.23053e-17
5006.04235 1.19729e-17
5008.03146 1.20556e-17
5010.03061 1.18162e-17
5012.02977 1.18061e-17
5014.01888 1.17960e-17
5016.01803 1.17859e-17
5018.00714 1.17758e-17
5020.00629 1.17657e-17
5022.00545 1.17557e-17
5023.99455 1.17456e-17
5025.99371 1.17355e-17
5027.99286 1.17254e-17
5029.98197 1.17153e-17
5031.98112 1.17052e-17
5033.97023 1.16951e-17
5035.96939 1.16851e-17
5037.96854 1.16750e-17
5039.95765 1.16649e-17
5041.95680 1.16548e-17
5043.94591 1.16447e-17
5045.94506 1.16347e-17
5047.94422 1.16246e-17
5049.93333 1.16313e-17
5051.93248 1.16308e-17
5053.92159 1.26425e-17
5055.92074 1.20685e-17
5057.91990 1.27072e-17
5059.90900 1.31196e-17
5061.90816 1.27308e-17
5063.90731 1.31724e-17
5065.89642 1.36621e-17
5067.89557 1.24971e-17
5069.88468 1.17894e-17
5071.88384 1.31416e-17
5073.88299 1.43009e-17
5075.87210 1.28814e-17
5077.87125 1.23870e-17
5079.86036 1.29834e-17
5081.85951 1.29197e-17
5083.85867 1.14845e-17
5085.84778 1.37388e-17
5087.84693 1.50006e-17
5089.83604 1.29772e-17
5091.83519 1.21614e-17
5093.83435 1.27609e-17
5095.82345 1.31762e-17
5097.82261 1.29586e-17
5099.81172 1.23803e-17
5101.81087 1.22752e-17
5103.81002 1.34248e-17
5105.79913 1.30020e-17
5107.79829 1.25219e-17
5109.79744 1.30634e-17
5111.78655 1.32139e-17
5113.78570 1.29213e-17
5115.77481 1.26893e-17
5117.77396 1.26677e-17
5119.77312 1.26631e-17
5121.76223 1.29105e-17
5123.76138 1.27460e-17
5125.75049 1.35930e-17
5127.74964 1.43598e-17
5129.74880 1.44577e-17
5131.73790 1.33300e-17
5133.73706 1.25026e-17
5135.72617 1.35349e-17
5137.72532 1.43939e-17
5139.72447 1.39372e-17
5141.71358 1.35892e-17
5143.71274 1.50265e-17
5145.71189 1.41665e-17
5147.70100 1.22572e-17
5149.70015 1.40459e-17
5151.68926 1.53407e-17
5153.68841 1.43630e-17
5155.68757 1.39194e-17
5157.67668 1.34594e-17
5159.67583 1.37772e-17
5161.66494 1.43087e-17
5163.66409 1.47869e-17
5165.66325 1.41700e-17
5167.65235 1.44547e-17
5169.65151 1.53777e-17
5171.64062 1.50835e-17
5173.63977 1.39645e-17
5175.63892 1.45915e-17
5177.62803 1.53315e-17
5179.62719 1.43954e-17
5181.62634 1.28748e-17
5183.61545 1.40090e-17
5185.61460 1.49620e-17
5187.60371 1.43349e-17
5189.60286 1.44715e-17
5191.60202 1.41232e-17
5193.59113 1.43362e-17
5195.59028 1.47639e-17
5197.57939 1.49342e-17
5199.57854 1.38612e-17
5201.57770 1.33376e-17
5203.56680 1.53948e-17
5205.56596 1.44437e-17
5207.55507 1.40826e-17
5209.55422 1.33820e-17
5211.55337 1.29315e-17
5213.54248 1.34316e-17
5215.54164 1.45560e-17
5217.53074 1.43951e-17
5219.52990 1.45320e-17
5221.52905 1.44477e-17
5223.51816 1.41073e-17
5225.51731 1.39711e-17
5227.51647 1.39441e-17
5229.50558 1.41729e-17
5231.50473 1.31437e-17
5233.49384 1.31436e-17
5235.49299 1.37529e-17
5237.49215 1.40966e-17
5239.48125 1.36939e-17
5241.48041 1.40363e-17
5243.46952 1.41255e-17
5245.46867 1.48546e-17
5247.46782 1.56944e-17
5249.45693 1.54307e-17
5251.45609 1.51604e-17
5253.44519 1.39728e-17
5255.44435 1.34179e-17
5257.44350 1.43577e-17
5259.43261 1.42041e-17
5261.43176 1.39453e-17
5263.42087 1.35089e-17
5265.42003 1.38333e-17
5267.41918 1.42451e-17
5269.40829 1.46021e-17
5271.40744 1.42267e-17
5273.40660 1.44994e-17
5275.39570 1.46238e-17
5277.39486 1.46686e-17
5279.38397 1.46717e-17
5281.38312 1.51383e-17
5283.38227 1.52569e-17
5285.37138 1.46901e-17
5287.37054 1.37138e-17
5289.35964 1.34768e-17
5291.35880 1.34451e-17
5293.35795 1.38771e-17
5295.34706 1.38805e-17
5297.34621 1.42839e-17
5299.33532 1.44167e-17
5301.33448 1.47076e-17
5303.33363 1.44669e-17
5305.32274 1.38961e-17
5307.32189 1.32518e-17
5309.31100 1.28856e-17
5311.31015 1.35133e-17
5313.30931 1.34565e-17
5315.29842 1.33191e-17
5317.29757 1.40805e-17
5319.29672 1.41449e-17
5321.28583 1.40138e-17
5323.28499 1.43726e-17
5325.27409 1.45387e-17
5327.27325 1.43094e-17
5329.27240 1.38696e-17
5331.26151 1.31758e-17
5333.26066 1.34818e-17
5335.24977 1.33598e-17
5337.24893 1.28286e-17
5339.24808 1.27887e-17
5341.23719 1.30052e-17
5343.23634 1.37552e-17
5345.22545 1.43169e-17
5347.22460 1.37927e-17
5349.22376 1.40506e-17
5351.21287 1.38984e-17
5353.21202 1.37901e-17
5355.21117 1.39479e-17
5357.20028 1.36479e-17
5359.19944 1.35474e-17
5361.18854 1.30333e-17
5363.18770 1.38332e-17
5365.18685 1.42169e-17
5367.17596 1.32936e-17
5369.17511 1.42049e-17
5371.16422 1.39343e-17
5373.16338 1.35388e-17
5375.16253 1.33436e-17
5377.15164 1.33222e-17
5379.15079 1.33782e-17
5381.13990 1.32808e-17
5383.13905 1.30282e-17
5385.13821 1.28488e-17
5387.12732 1.24782e-17
5389.12647 1.25272e-17
5391.12562 1.32314e-17
5393.11473 1.38717e-17
5395.11389 1.37650e-17
5397.10299 1.31869e-17
5399.10215 1.29089e-17
5401.10130 1.25562e-17
5403.09041 1.24534e-17
5405.08956 1.27426e-17
5407.07867 1.31180e-17
5409.07783 1.32654e-17
5411.07698 1.33167e-17
5413.06609 1.31459e-17
5415.06524 1.24536e-17
5417.05435 1.22939e-17
5419.05350 1.28007e-17
5421.05266 1.33701e-17
5423.04177 1.34558e-17
5425.04092 1.32463e-17
5427.04007 1.29577e-17
5429.02918 1.22560e-17
5431.02834 1.20003e-17
5433.01744 1.22241e-17
5435.01660 1.23741e-17
5437.01575 1.21040e-17
5439.00486 1.15893e-17
5441.00401 1.16738e-17
5442.99312 1.24170e-17
5444.99228 1.27092e-17
5446.99143 1.27151e-17
5448.98054 1.25748e-17
5450.97969 1.21648e-17
5452.96880 1.14703e-17
5454.96795 1.14172e-17
5456.96711 1.20504e-17
5458.95622 1.21996e-17
5460.95537 1.21927e-17
5462.94448 1.19709e-17
5464.94363 1.12107e-17
5466.94279 1.00186e-17
5468.93189 9.92314e-18
5470.93105 1.08908e-17
5472.93020 1.13465e-17
5474.91931 1.15709e-17
5476.91846 1.16698e-17
5478.90757 1.16737e-17
5480.90673 1.15539e-17
5482.90588 1.15366e-17
5484.89499 1.15959e-17
5486.89414 1.15814e-17
5488.88325 1.14658e-17
5490.88240 1.13550e-17
5492.88156 1.12826e-17
5494.87067 1.11772e-17
5496.86982 1.11532e-17
5498.85893 1.12037e-17
5500.85808 1.12569e-17
5502.85724 1.12927e-17
5504.84634 1.13605e-17
5506.84550 1.15053e-17
5508.83461 1.17165e-17
5510.83376 1.16893e-17
5512.83291 1.15058e-17
5514.82202 1.12181e-17
5516.82118 1.07043e-17
5518.82033 1.03346e-17
5520.80944 1.02796e-17
5522.80859 1.04605e-17
5524.79770 1.05446e-17
5526.79685 1.07117e-17
5528.79601 1.06838e-17
5530.78512 1.04402e-17
5532.78427 1.03872e-17
5534.77338 1.06884e-17
5536.77253 1.12271e-17
5538.77169 1.13940e-17
5540.76079 1.13272e-17
5542.75995 1.12273e-17
5544.74906 1.10867e-17
5546.74821 1.09051e-17
5548.74736 1.05787e-17
5550.73647 1.02295e-17
5552.73563 1.02579e-17
5554.72473 1.06739e-17
5556.72389 1.08542e-17
5558.72304 1.10521e-17
5560.71215 1.11487e-17
5562.71130 1.09874e-17
5564.71046 1.06243e-17
5566.69957 1.03517e-17
5568.69872 9.87799e-18
5570.68783 9.86705e-18
5572.68698 1.03624e-17
5574.68614 1.08128e-17
5576.67524 1.09723e-17
5578.67440 1.09703e-17
5580.66351 1.09977e-17
5582.66266 1.09836e-17
5584.66181 1.09995e-17
5586.65092 1.10802e-17
5588.65008 1.10378e-17
5590.63918 1.07810e-17
5592.63834 1.04290e-17
5594.63749 1.02947e-17
5596.62660 1.02328e-17
5598.62575 1.04087e-17
5600.62491 1.09571e-17
5602.61402 1.13108e-17
5604.61317 1.14204e-17
5606.60228 1.14433e-17
5608.60143 1.15199e-17
5610.60059 1.16994e-17
5612.58969 1.15919e-17
5614.58885 1.11603e-17
5616.57796 1.08173e-17
5618.57711 1.05790e-17
5620.57626 1.04076e-17
5622.56537 1.04744e-17
5624.56453 1.08927e-17
5626.55363 1.09645e-17
5628.55279 1.07182e-17
5630.55194 1.06574e-17
5632.54105 1.09732e-17
5634.54020 1.13777e-17
5636.53936 1.13335e-17
5638.52847 1.08650e-17
5640.52762 1.07192e-17
5642.51673 1.07194e-17
5644.51588 1.07227e-17
5646.51504 1.07034e-17
5648.50414 1.07190e-17
5650.50330 1.08520e-17
5652.49241 1.11768e-17
5654.49156 1.13287e-17
5656.49071 1.14871e-17
5658.47982 1.14349e-17
5660.47898 1.11055e-17
5662.46808 1.06698e-17
5664.46724 1.04509e-17
5666.46639 1.04774e-17
5668.45550 1.04721e-17
5670.45465 1.05581e-17
5672.44376 1.05284e-17
5674.44292 1.05117e-17
5676.44207 1.04753e-17
5678.43118 1.04299e-17
5680.43033 1.04047e-17
5682.42949 1.03777e-17
5684.41859 1.03169e-17
5686.41775 1.03379e-17
5688.40686 1.03855e-17
5690.40601 1.04481e-17
5692.40516 1.07302e-17
5694.39427 1.14121e-17
5696.39343 1.14166e-17
5698.38253 1.07178e-17
5700.38169 1.03661e-17
5702.38084 1.04711e-17
5704.36995 1.07066e-17
5706.36910 1.08057e-17
5708.35821 1.08602e-17
5710.35737 1.10126e-17
5712.35652 1.13131e-17
5714.34563 1.14736e-17
5716.34478 1.14468e-17
5718.34394 1.14044e-17
5720.33304 1.14955e-17
5722.33220 1.16928e-17
5724.32131 1.16745e-17
5726.32046 1.14084e-17
5728.31961 1.13034e-17
5730.30872 1.14088e-17
5732.30788 1.15678e-17
5734.29698 1.15537e-17
5736.29614 1.14040e-17
5738.29529 1.13775e-17
5740.28440 1.13498e-17
5742.28355 1.14459e-17
5744.27266 1.17621e-17
5746.27182 1.20844e-17
5748.27097 1.21818e-17
5750.26008 1.21521e-17
5752.25923 1.21832e-17
5754.24834 1.22381e-17
5756.24749 1.22176e-17
5758.24665 1.21062e-17
5760.23576 1.20382e-17
5762.23491 1.21243e-17
5764.23406 1.23609e-17
5766.22317 1.25742e-17
5768.22233 1.30249e-17
5770.21143 1.30654e-17
5772.21059 1.26258e-17
5774.20974 1.21048e-17
5776.19885 1.18187e-17
5778.19800 1.15663e-17
5780.18711 1.15594e-17
5782.18627 1.19682e-17
5784.18542 1.20728e-17
5786.17453 1.17640e-17
5788.17368 1.15221e-17
5790.16279 1.17209e-17
5792.16194 1.21954e-17
5794.16110 1.22724e-17
5796.15021 1.20906e-17
5798.14936 1.19633e-17
5800.13847 1.17603e-17
5802.13762 1.15358e-17
5804.13678 1.14220e-17
5806.12588 1.13752e-17
5808.12504 1.13509e-17
5810.12419 1.13378e-17
5812.11330 1.14196e-17
5814.11245 1.16638e-17
5816.10156 1.18536e-17
5818.10072 1.18145e-17
5820.09987 1.16314e-17
5822.08898 1.16444e-17
5824.08813 1.17442e-17
5826.07724 1.18847e-17
5828.07639 1.22818e-17
5830.07555 1.25623e-17
5832.06466 1.22015e-17
5834.06381 1.13382e-17
5836.05292 1.14483e-17
5838.05207 1.26527e-17
5840.05123 1.29722e-17
5842.04033 1.24465e-17
5844.03949 1.19960e-17
5846.03864 1.22579e-17
5848.02775 1.29823e-17
5850.02690 1.28734e-17
5852.01601 1.19716e-17
5854.01517 1.15371e-17
5856.01432 1.14967e-17
5858.00343 1.14431e-17
5860.00258 1.10754e-17
5861.99169 1.05033e-17
5863.99084 1.04582e-17
5865.99000 1.10579e-17
5867.97911 1.11399e-17
5869.97826 1.07763e-17
5871.96737 1.03711e-17
5873.96652 1.00805e-17
5875.96568 9.76299e-18
5877.95478 9.82174e-18
5879.95394 1.03096e-17
5881.95309 1.06562e-17
5883.94220 1.10109e-17
5885.94135 1.12293e-17
5887.93046 1.10735e-17
5889.92962 1.05642e-17
5891.92877 1.05613e-17
5893.91788 1.09489e-17
5895.91703 1.11788e-17
5897.90614 1.14706e-17
5899.90529 1.16123e-17
5901.90445 1.13167e-17
5903.89356 1.07074e-17
5905.89271 1.04752e-17
5907.88182 1.05107e-17
5909.88097 1.03851e-17
5911.88013 1.01600e-17
5913.86923 9.97307e-18
5915.86839 9.78407e-18
5917.85750 9.58677e-18
5919.85665 9.73628e-18
5921.85580 1.05111e-17
5923.84491 1.05730e-17
5925.84407 9.87022e-18
5927.84322 9.40444e-18
5929.83233 9.67926e-18
5931.83148 1.03198e-17
5933.82059 1.04823e-17
5935.81974 1.03480e-17
5937.81890 1.03576e-17
5939.80801 1.04146e-17
5941.80716 1.04471e-17
5943.79627 1.04143e-17
5945.79542 1.03520e-17
5947.79458 1.03928e-17
5949.78368 1.05007e-17
5951.78284 1.06308e-17
5953.77195 1.08851e-17
5955.77110 1.10423e-17
5957.77025 1.09126e-17
5959.75936 1.06265e-17
5961.75852 1.07494e-17
5963.74762 1.12429e-17
5965.74678 1.14857e-17
5967.74593 1.16775e-17
5969.73504 1.18039e-17
5971.73419 1.17578e-17
5973.73335 1.15299e-17
5975.72246 1.12463e-17
5977.72161 1.07899e-17
5979.71072 1.05251e-17
5981.70987 1.02564e-17
5983.70903 1.01770e-17
5985.69813 1.04848e-17
5987.69729 1.09832e-17
5989.68640 1.10946e-17
5991.68555 1.09644e-17
5993.68470 1.08773e-17
5995.67381 1.07122e-17
5997.67297 1.05624e-17
5999.66207 1.04438e-17
6001.66123 1.03609e-17
6003.66038 1.04221e-17
6005.64949 1.07008e-17
6007.64864 1.06957e-17
6009.64780 1.04015e-17
6011.63691 1.02888e-17
6013.63606 1.04090e-17
6015.62517 1.05735e-17
6017.62432 1.06431e-17
6019.62348 1.06922e-17
6021.61258 1.07895e-17
6023.61174 1.09724e-17
6025.60085 1.10461e-17
6027.60000 1.09798e-17
6029.59915 1.08327e-17
6031.58826 1.07311e-17
6033.58742 1.05789e-17
6035.57652 1.06170e-17
6037.57568 1.09481e-17
6039.57483 1.10791e-17
6041.56394 1.08443e-17
6043.56309 1.04526e-17
6045.56225 1.02953e-17
6047.55136 1.02158e-17
6049.55051 1.02341e-17
6051.53962 1.04328e-17
6053.53877 1.05623e-17
6055.53793 1.06218e-17
6057.52703 1.06271e-17
6059.52619 1.04344e-17
6061.51530 9.93321e-18
6063.51445 9.73628e-18
6065.51360 9.74146e-18
6067.50271 9.72020e-18
6069.50187 9.55493e-18
6071.49097 9.40553e-18
6073.49013 9.56723e-18
6075.48928 1.00553e-17
6077.47839 1.02133e-17
6079.47754 1.01639e-17
6081.46665 1.01512e-17
6083.46581 1.02027e-17
6085.46496 1.02793e-17
6087.45407 1.02406e-17
6089.45322 1.00387e-17
6091.45238 9.95723e-18
6093.44148 9.91182e-18
6095.44064 9.91157e-18
6097.42975 9.93962e-18
6099.42890 1.00286e-17
6101.42805 1.01781e-17
6103.41716 1.04466e-17
6105.41632 1.04284e-17
6107.40542 1.01019e-17
6109.40458 9.90692e-18
6111.40373 9.90346e-18
6113.39284 9.98538e-18
6115.39199 9.95327e-18
6117.38110 9.85848e-18
6119.38026 9.74198e-18
6121.37941 9.45221e-18
6123.36852 9.39725e-18
6125.36767 9.70385e-18
6127.36683 1.01052e-17
6129.35593 1.02638e-17
6131.35509 1.03183e-17
6133.34420 1.03073e-17
6135.34335 1.01328e-17
6137.34250 1.00429e-17
6139.33161 1.01096e-17
6141.33077 1.01743e-17
6143.31987 9.99392e-18
6145.31903 9.57646e-18
6147.31818 9.51811e-18
6149.30729 9.69240e-18
6151.30644 9.89141e-18
6153.29555 1.02419e-17
6155.29471 1.05434e-17
6157.29386 1.06027e-17
6159.28297 1.05487e-17
6161.28212 1.04566e-17
6163.27123 1.02380e-17
6165.27038 1.00631e-17
6167.26954 9.89724e-18
6169.25865 9.76421e-18
6171.25780 9.72814e-18
6173.25695 9.75060e-18
6175.24606 9.83915e-18
6177.24522 1.00530e-17
6179.23432 1.02073e-17
6181.23348 1.03678e-17
6183.23263 1.04579e-17
6185.22174 1.03329e-17
6187.22089 1.00152e-17
6189.21000 9.96093e-18
6191.20916 1.00783e-17
6193.20831 1.01749e-17
6195.19742 1.03182e-17
6197.19657 1.04417e-17
6199.18568 1.04687e-17
6201.18483 1.04206e-17
6203.18399 1.05195e-17
6205.17310 1.08559e-17
6207.17225 1.09174e-17
6209.16136 1.06065e-17
6211.16051 1.03224e-17
6213.15967 1.04491e-17
6215.14877 1.09328e-17
6217.14793 1.10154e-17
6219.14708 1.07837e-17
6221.13619 1.07078e-17
6223.13534 1.08448e-17
6225.12445 1.09552e-17
6227.12361 1.09067e-17
6229.12276 1.08003e-17
6231.11187 1.07993e-17
6233.11102 1.08568e-17
6235.10013 1.09227e-17
6237.09928 1.10428e-17
6239.09844 1.11311e-17
6241.08755 1.11637e-17
6243.08670 1.11634e-17
6245.07581 1.12528e-17
6247.07496 1.15676e-17
6249.07412 1.15490e-17
6251.06322 1.11171e-17
6253.06238 1.07005e-17
6255.06153 1.05465e-17
6257.05064 1.05058e-17
6259.04979 1.05207e-17
6261.03890 1.07152e-17
6263.03806 1.07611e-17
6265.03721 1.06263e-17
6267.02632 1.05978e-17
6269.02547 1.08299e-17
6271.01458 1.11868e-17
6273.01373 1.13483e-17
6275.01289 1.14679e-17
6277.00200 1.14583e-17
6279.00115 1.11034e-17
6280.99026 1.08540e-17
6282.98941 1.10863e-17
6284.98857 1.16176e-17
6286.97767 1.16245e-17
6288.97683 1.15609e-17
6290.97598 1.14761e-17
6292.96509 1.13020e-17
6294.96424 1.11820e-17
6296.95335 1.11859e-17
6298.95251 1.12414e-17
6300.95166 1.12138e-17
6302.94077 1.08858e-17
6304.93992 1.07391e-17
6306.92903 1.07494e-17
6308.92818 1.07947e-17
6310.92734 1.08074e-17
6312.91645 1.08491e-17
6314.91560 1.08560e-17
6316.90471 1.07690e-17
6318.90386 1.08031e-17
6320.90302 1.10267e-17
6322.89212 1.12429e-17
6324.89128 1.13267e-17
6326.88039 1.13318e-17
6328.87954 1.12254e-17
6330.87869 1.09207e-17
6332.86780 1.07504e-17
6334.86696 1.05763e-17
6336.86611 1.05554e-17
6338.85522 1.08028e-17
6340.85437 1.11817e-17
6342.84348 1.12655e-17
6344.84263 1.11026e-17
6346.84179 1.10841e-17
6348.83090 1.11070e-17
6350.83005 1.11822e-17
6352.81916 1.12667e-17
6354.81831 1.13409e-17
6356.81747 1.14944e-17
6358.80657 1.18127e-17
6360.80573 1.18973e-17
6362.79484 1.18133e-17
6364.79399 1.16802e-17
6366.79314 1.14600e-17
6368.78225 1.12014e-17
6370.78141 1.11654e-17
6372.78056 1.13243e-17
6374.76967 1.14196e-17
6376.76882 1.15575e-17
6378.75793 1.16586e-17
6380.75708 1.16778e-17
6382.75624 1.15901e-17
6384.74535 1.15129e-17
6386.74450 1.14338e-17
6388.73361 1.13787e-17
6390.73276 1.13036e-17
6392.73192 1.12686e-17
6394.72102 1.13005e-17
6396.72018 1.13008e-17
6398.70929 1.12626e-17
6400.70844 1.11566e-17
6402.70759 1.12796e-17
6404.69670 1.16177e-17
6406.69586 1.19271e-17
6408.68496 1.22324e-17
6410.68412 1.24743e-17
6412.68327 1.24457e-17
6414.67238 1.20723e-17
6416.67153 1.19276e-17
6418.67069 1.18184e-17
6420.65980 1.18285e-17
6422.65895 1.19914e-17
6424.64806 1.22220e-17
6426.64721 1.22382e-17
6428.64637 1.19696e-17
6430.63547 1.19051e-17
6432.63463 1.19579e-17
6434.62374 1.20114e-17
6436.62289 1.19483e-17
6438.62204 1.18346e-17
6440.61115 1.18508e-17
6442.61031 1.20148e-17
6444.59941 1.20640e-17
6446.59857 1.20953e-17
6448.59772 1.20564e-17
6450.58683 1.18548e-17
6452.58598 1.16177e-17
6454.57509 1.17104e-17
6456.57425 1.21807e-17
6458.57340 1.22731e-17
6460.56251 1.21244e-17
6462.56166 1.20159e-17
6464.56082 1.19197e-17
6466.54992 1.18184e-17
6468.54908 1.18619e-17
6470.53819 1.20971e-17
6472.53734 1.20390e-17
6474.53649 1.16938e-17
6476.52560 1.14982e-17
6478.52476 1.14510e-17
6480.51386 1.14603e-17
6482.51302 1.14985e-17
6484.51217 1.15971e-17
6486.50128 1.17498e-17
6488.50043 1.20136e-17
6490.48954 1.22126e-17
6492.48870 1.23665e-17
6494.48785 1.24875e-17
6496.47696 1.25534e-17
6498.47611 1.25807e-17
6500.47527 1.25897e-17
6502.46437 1.25955e-17
6504.46353 1.25187e-17
6506.45264 1.23057e-17
6508.45179 1.21087e-17
6510.45094 1.21605e-17
6512.44005 1.24296e-17
6514.43921 1.26311e-17
6516.42831 1.29930e-17
6518.42747 1.31020e-17
6520.42662 1.28530e-17
6522.41573 1.25160e-17
6524.41488 1.24306e-17
6526.40399 1.24495e-17
6528.40315 1.24549e-17
6530.40230 1.25200e-17
6532.39141 1.25651e-17
6534.39056 1.25358e-17
6536.38972 1.25138e-17
6538.37882 1.25181e-17
6540.37798 1.24792e-17
6542.36709 1.25445e-17
6544.36624 1.27734e-17
6546.36539 1.28578e-17
6548.35450 1.27721e-17
6550.35366 1.26627e-17
6552.34276 1.26054e-17
6554.34192 1.25492e-17
6556.34107 1.25963e-17
6558.33018 1.28348e-17
6560.32933 1.28791e-17
6562.31844 1.27303e-17
6564.31760 1.27083e-17
6566.31675 1.26863e-17
6568.30586 1.26643e-17
6570.30501 1.26423e-17
6572.29412 1.26203e-17
6574.29327 1.25984e-17
6576.29243 1.25764e-17
6578.28154 1.25544e-17
6580.28069 1.25324e-17
6582.27984 1.25104e-17
6584.26895 1.24884e-17
6586.26811 1.24665e-17
6588.25721 1.24445e-17
6590.25637 1.24225e-17
6592.25552 1.24005e-17
6594.24463 1.23786e-17
6596.24378 1.23566e-17
6598.23289 1.23346e-17
6600.23205 1.23126e-17
6602.23120 1.22907e-17
6604.22031 1.22687e-17
6606.21946 1.22467e-17
6608.20857 1.22247e-17
6610.20772 1.22028e-17
6612.20688 1.21808e-17
6614.19599 1.21588e-17
6616.19514 1.21369e-17
6618.18425 1.21149e-17
6620.18340 1.20929e-17
6622.18256 1.20710e-17
6624.17166 1.20490e-17
6626.17082 1.20568e-17
6628.16997 1.20007e-17
6630.15908 1.20500e-17
6632.15823 1.21965e-17
6634.14734 1.23137e-17
6636.14650 1.23327e-17
6638.14565 1.22773e-17
6640.13476 1.22459e-17
6642.13391 1.21617e-17
6644.12302 1.21807e-17
6646.12217 1.22945e-17
6648.12133 1.23827e-17
6650.11044 1.23989e-17
6652.10959 1.23564e-17
6654.09870 1.22523e-17
6656.09785 1.19495e-17
6658.09701 1.19030e-17
6660.08611 1.21214e-17
6662.08527 1.23127e-17
6664.08442 1.23091e-17
6666.07353 1.22330e-17
6668.07268 1.22548e-17
6670.06179 1.23315e-17
6672.06095 1.23748e-17
6674.06010 1.24643e-17
6676.04921 1.25683e-17
6678.04836 1.25950e-17
6680.03747 1.25275e-17
6682.03662 1.24374e-17
6684.03578 1.22603e-17
6686.02489 1.21522e-17
6688.02404 1.20750e-17
6690.01315 1.20403e-17
6692.01230 1.19953e-17
6694.01146 1.19177e-17
6696.00056 1.18458e-17
6697.99972 1.16622e-17
6699.98883 1.17290e-17
6701.98798 1.21271e-17
6703.98713 1.24396e-17
6705.97624 1.24213e-17
6707.97540 1.22007e-17
6709.97455 1.20681e-17
6711.96366 1.18093e-17
6713.96281 1.18137e-17
6715.95192 1.21511e-17
6717.95107 1.23635e-17
6719.95023 1.22751e-17
6721.93934 1.20686e-17
6723.93849 1.18923e-17
6725.92760 1.15365e-17
6727.92675 1.14734e-17
6729.92591 1.17642e-17
6731.91501 1.19825e-17
6733.91417 1.19294e-17
6735.90328 1.17445e-17
6737.90243 1.17431e-17
6739.90158 1.19195e-17
6741.89069 1.19244e-17
6743.88985 1.18204e-17
6745.88900 1.16540e-17
6747.87811 1.14160e-17
6749.87726 1.11373e-17
6751.86637 1.10296e-17
6753.86552 1.10201e-17
6755.86468 1.11298e-17
6757.85379 1.15042e-17
6759.85294 1.16969e-17
6761.84205 1.15424e-17
6763.84120 1.12334e-17
6765.84036 1.12164e-17
6767.82946 1.14487e-17
6769.82862 1.15222e-17
6771.81773 1.15156e-17
6773.81688 1.14831e-17
6775.81603 1.14666e-17
6777.80514 1.14743e-17
6779.80430 1.15535e-17
6781.80345 1.17785e-17
6783.79256 1.18051e-17
6785.79171 1.16929e-17
6787.78082 1.15451e-17
6789.77997 1.13467e-17
6791.77913 1.11266e-17
6793.76824 1.10540e-17
6795.76739 1.10840e-17
6797.75650 1.11104e-17
6799.75565 1.11722e-17
6801.75481 1.12655e-17
6803.74391 1.13726e-17
6805.74307 1.14900e-17
6807.73218 1.16027e-17
6809.73133 1.17939e-17
6811.73048 1.17870e-17
6813.71959 1.15633e-17
6815.71875 1.13977e-17
6817.70785 1.13323e-17
6819.70701 1.13321e-17
6821.70616 1.14317e-17
6823.69527 1.17111e-17
6825.69442 1.17543e-17
6827.69358 1.16330e-17
6829.68269 1.16425e-17
6831.68184 1.16520e-17
6833.67095 1.16615e-17
6835.67010 1.16710e-17
6837.66926 1.16805e-17
6839.65836 1.16900e-17
6841.65752 1.16994e-17
6843.64663 1.17089e-17
6845.64578 1.17184e-17
6847.64493 1.17279e-17
6849.63404 1.17374e-17
6851.63320 1.17469e-17
6853.62230 1.17564e-17
6855.62146 1.17658e-17
6857.62061 1.17753e-17
6859.60972 1.17848e-17
6861.60887 1.17943e-17
6863.59798 1.18038e-17
6865.59714 1.18133e-17
6867.59629 1.18227e-17
6869.58540 1.18322e-17
6871.58455 1.18417e-17
6873.58371 1.18512e-17
6875.57281 1.18607e-17
6877.57197 1.18701e-17
6879.56108 1.18796e-17
6881.56023 1.18891e-17
6883.55938 1.18986e-17
6885.54849 1.19081e-17
6887.54765 1.19175e-17
6889.53675 1.19270e-17
6891.53591 1.19365e-17
6893.53506 1.19460e-17
6895.52417 1.19554e-17
6897.52332 1.19649e-17
6899.51243 1.19744e-17
6901.51159 1.19839e-17
6903.51074 1.19934e-17
6905.49985 1.20028e-17
6907.49900 1.20123e-17
6909.48811 1.20218e-17
6911.48726 1.20312e-17
6913.48642 1.20407e-17
6915.47553 1.20502e-17
6917.47468 1.20597e-17
6919.47383 1.20691e-17
6921.46294 1.20486e-17
6923.46210 1.20058e-17
6925.45120 1.19393e-17
6927.45036 1.19167e-17
6929.44951 1.19625e-17
6931.43862 1.19738e-17
6933.43777 1.18120e-17
6935.42688 1.15036e-17
6937.42604 1.13491e-17
6939.42519 1.12017e-17
6941.41430 1.11967e-17
6943.41345 1.14315e-17
6945.40256 1.16975e-17
6947.40171 1.17801e-17
6949.40087 1.17983e-17
6951.38998 1.18292e-17
6953.38913 1.18101e-17
6955.38828 1.18292e-17
6957.37739 1.19696e-17
6959.37655 1.20614e-17
6961.36565 1.19418e-17
6963.36481 1.16243e-17
6965.36396 1.15965e-17
6967.35307 1.18022e-17
6969.35222 1.19285e-17
6971.34133 1.20235e-17
6973.34049 1.20797e-17
6975.33964 1.19740e-17
6977.32875 1.16526e-17
6979.32790 1.15167e-17
6981.31701 1.14284e-17
6983.31616 1.14433e-17
6985.31532 1.15839e-17
6987.30443 1.17327e-17
6989.30358 1.17577e-17
6991.30273 1.17190e-17
6993.29184 1.17428e-17
6995.29100 1.17530e-17
6997.28010 1.18454e-17
6999.27926 1.21301e-17
7001.27841 1.23221e-17
7003.26752 1.22046e-17
7005.26667 1.18752e-17
7007.25578 1.17672e-17
7009.25494 1.17281e-17
7011.25409 1.17763e-17
7013.24320 1.20015e-17
7015.24235 1.21357e-17
7017.23146 1.19910e-17
7019.23061 1.16545e-17
7021.22977 1.15813e-17
7023.21888 1.17819e-17
7025.21803 1.17237e-17
7027.21718 1.13682e-17
7029.20629 1.10897e-17
7031.20545 1.10879e-17
7033.19455 1.12174e-17
7035.19371 1.13719e-17
7037.19286 1.16987e-17
7039.18197 1.18817e-17
7041.18112 1.18908e-17
7043.17023 1.18729e-17
7045.16939 1.19720e-17
7047.16854 1.21189e-17
7049.15765 1.20068e-17
7051.15680 1.15378e-17
7053.14591 1.13660e-17
7055.14506 1.14025e-17
7057.14422 1.15433e-17
7059.13333 1.17070e-17
7061.13248 1.18637e-17
7063.12159 1.19788e-17
7065.12074 1.21130e-17
7067.11990 1.21637e-17
7069.10900 1.20400e-17
7071.10816 1.19226e-17
7073.10731 1.19503e-17
7075.09642 1.20506e-17
7077.09557 1.20443e-17
7079.08468 1.19143e-17
7081.08384 1.19253e-17
7083.08299 1.20843e-17
7085.07210 1.21993e-17
7087.07125 1.21784e-17
7089.06036 1.20881e-17
7091.05951 1.20145e-17
7093.05867 1.18653e-17
7095.04778 1.18360e-17
7097.04693 1.19958e-17
7099.03604 1.20640e-17
7101.03519 1.18471e-17
7103.03435 1.14685e-17
7105.02345 1.13927e-17
7107.02261 1.15762e-17
7109.01172 1.16139e-17
7111.01087 1.15958e-17
7113.01002 1.15450e-17
7114.99913 1.14142e-17
7116.99829 1.12349e-17
7118.99744 1.13152e-17
7120.98655 1.17498e-17
7122.98570 1.18330e-17
7124.97481 1.16509e-17
7126.97396 1.14671e-17
7128.97312 1.13186e-17
7130.96223 1.11769e-17
7132.96138 1.12074e-17
7134.95049 1.14986e-17
7136.94964 1.15546e-17
7138.94880 1.14597e-17
7140.93790 1.13115e-17
7142.93706 1.11458e-17
7144.92617 1.09549e-17
7146.92532 1.08344e-17
7148.92447 1.07474e-17
7150.91358 1.07040e-17
7152.91274 1.06983e-17
7154.91189 1.07451e-17
7156.90100 1.08339e-17
7158.90015 1.09390e-17
7160.88926 1.10555e-17
7162.88841 1.13283e-17
7164.88757 1.12430e-17
7166.87668 1.07743e-17
7168.87583 1.03966e-17
7170.86494 1.01755e-17
7172.86409 1.00094e-17
7174.86325 9.99141e-18
7176.85235 1.01957e-17
7178.85151 1.02559e-17
7180.84062 1.02517e-17
7182.83977 1.02644e-17
7184.83892 1.02407e-17
7186.82803 1.01799e-17
7188.82719 1.02774e-17
7190.82634 1.05140e-17
7192.81545 1.07160e-17
7194.81460 1.10348e-17
7196.80371 1.12067e-17
7198.80286 1.10865e-17
7200.80202 1.08175e-17
7202.79113 1.07101e-17
7204.79028 1.07040e-17
7206.77939 1.05861e-17
7208.77854 1.03740e-17
7210.77770 1.02012e-17
7212.76680 1.00498e-17
7214.76596 9.93119e-18
7216.75507 9.97481e-18
7218.75422 1.02303e-17
7220.75337 1.03329e-17
7222.74248 1.03790e-17
7224.74164 1.04086e-17
7226.73074 1.04428e-17
7228.72990 1.04412e-17
7230.72905 1.03572e-17
7232.71816 1.01589e-17
7234.71731 1.00614e-17
7236.71647 9.99470e-18
7238.70558 9.97355e-18
7240.70473 1.00201e-17
7242.69384 1.00863e-17
7244.69299 1.00283e-17
7246.69215 9.84954e-18
7248.68125 9.80461e-18
7250.68041 9.88984e-18
7252.66952 9.86792e-18
7254.66867 9.74150e-18
7256.66782 9.58850e-18
7258.65693 9.48276e-18
7260.65609 9.39974e-18
7262.64519 9.43023e-18
7264.64435 9.58759e-18
7266.64350 9.72338e-18
7268.63261 9.90530e-18
7270.63176 1.00769e-17
7272.62087 1.00830e-17
7274.62003 9.93298e-18
7276.61918 9.94084e-18
7278.60829 1.00489e-17
7280.60744 1.01176e-17
7282.60660 1.02073e-17
7284.59570 1.02628e-17
7286.59486 1.01956e-17
7288.58397 1.00547e-17
7290.58312 9.98604e-18
7292.58227 9.97517e-18
7294.57138 9.89093e-18
7296.57054 9.70563e-18
7298.55964 9.57236e-18
7300.55880 9.70136e-18
7302.55795 1.01475e-17
7304.54706 1.01896e-17
7306.54621 9.91286e-18
7308.53532 9.72562e-18
7310.53448 9.68874e-18
7312.53363 9.65788e-18
7314.52274 9.51602e-18
7316.52189 9.26942e-18
7318.52105 9.30685e-18
7320.51015 9.69100e-18
7322.50931 9.85211e-18
7324.49842 9.75157e-18
7326.49757 9.59054e-18
7328.49672 9.49795e-18
7330.48583 9.37314e-18
7332.48499 9.39585e-18
7334.47409 9.61836e-18
7336.47325 9.70380e-18
7338.47240 9.64707e-18
7340.46151 9.58051e-18
7342.46066 9.60298e-18
7344.44977 9.72255e-18
7346.44893 9.86547e-18
7348.44808 1.01616e-17
7350.43719 1.02350e-17
7352.43634 1.01262e-17
7354.42545 1.00062e-17
7356.42460 9.95372e-18
7358.42376 9.95039e-18
7360.41287 9.94088e-18
7362.41202 9.97691e-18
7364.41117 9.92476e-18
7366.40028 9.82354e-18
7368.39944 9.72260e-18
7370.38854 9.63385e-18
7372.38770 9.53756e-18
7374.38685 9.51546e-18
7376.37596 9.56482e-18
7378.37511 9.61505e-18
7380.36422 9.70036e-18
7382.36338 9.74753e-18
7384.36253 9.68490e-18
7386.35164 9.54522e-18
7388.35079 9.44356e-18
7390.33990 9.32381e-18
7392.33905 9.23312e-18
7394.33821 9.14205e-18
7396.32732 9.10684e-18
7398.32647 9.25078e-18
7400.32562 9.56880e-18
7402.31473 9.54931e-18
7404.31389 9.12953e-18
7406.30299 9.04263e-18
7408.30215 9.25972e-18
7410.30130 9.54609e-18
7412.29041 9.73888e-18
7414.28956 9.84693e-18
7416.27867 9.86481e-18
7418.27783 9.79598e-18
7420.27698 9.68801e-18
7422.26609 9.41547e-18
7424.26524 9.18641e-18
7426.25435 9.11851e-18
7428.25350 9.12886e-18
7430.25266 9.06428e-18
7432.24177 8.90785e-18
7434.24092 8.89613e-18
7436.24007 9.03082e-18
7438.22918 9.15844e-18
7440.22834 9.22156e-18
7442.21744 9.29639e-18
7444.21660 9.40203e-18
7446.21575 9.58989e-18
7448.20486 9.64725e-18
7450.20401 9.58000e-18
7452.19312 9.51974e-18
7454.19228 9.56467e-18
7456.19143 9.67534e-18
7458.18054 9.64516e-18
7460.17969 9.47184e-18
7462.16880 9.38643e-18
7464.16795 9.30185e-18
7466.16711 9.31549e-18
7468.15622 9.54999e-18
7470.15537 9.92660e-18
7472.14448 9.94900e-18
7474.14363 9.59132e-18
7476.14279 9.51690e-18
7478.13189 9.67790e-18
7480.13105 9.78297e-18
7482.13020 9.69799e-18
7484.11931 9.51311e-18
7486.11846 9.38267e-18
7488.10757 9.16817e-18
7490.10673 9.15716e-18
7492.10588 9.33558e-18
7494.09499 9.52684e-18
7496.09414 9.71518e-18
7498.08325 9.91404e-18
7500.08240 9.95723e-18
7502.08156 9.81130e-18
7504.07067 9.79641e-18
7506.06982 9.90222e-18
7508.05893 9.94652e-18
7510.05808 9.79789e-18
7512.05724 9.51616e-18
7514.04634 9.45243e-18
7516.04550 9.59753e-18
7518.03461 9.61337e-18
7520.03376 9.51748e-18
7522.03291 9.42882e-18
7524.02202 9.44123e-18
7526.02118 9.49817e-18
7528.02033 9.47073e-18
7530.00944 9.32640e-18
7532.00859 9.32287e-18
7533.99770 9.32191e-18
7535.99685 9.32094e-18
7537.99601 9.31998e-18
7539.98512 9.31901e-18
7541.98427 9.31805e-18
7543.97338 9.31708e-18
7545.97253 9.31611e-18
7547.97169 9.31515e-18
7549.96079 9.31418e-18
7551.95995 9.31322e-18
7553.94906 9.31225e-18
7555.94821 9.31129e-18
7557.94736 9.31032e-18
7559.93647 9.30936e-18
7561.93563 9.30839e-18
7563.92473 9.30742e-18
7565.92389 9.30646e-18
7567.92304 9.30549e-18
7569.91215 9.30453e-18
7571.91130 9.30356e-18
7573.91046 9.30260e-18
7575.89957 9.30163e-18
7577.89872 9.30066e-18
7579.88783 9.29970e-18
7581.88698 9.29873e-18
7583.88614 9.29777e-18
7585.87524 9.29680e-18
7587.87440 9.29584e-18
7589.86351 9.29487e-18
7591.86266 9.29390e-18
7593.86181 9.29294e-18
7595.85092 9.29197e-18
7597.85008 9.29101e-18
7599.83918 9.29004e-18
7601.83834 9.28908e-18
7603.83749 9.28811e-18
7605.82660 9.28714e-18
7607.82575 9.28618e-18
7609.82491 9.28521e-18
7611.81402 9.28425e-18
7613.81317 9.28328e-18
7615.80228 9.28232e-18
7617.80143 9.28135e-18
7619.80059 9.28038e-18
7621.78969 9.27942e-18
7623.78885 9.27845e-18
7625.77796 9.27749e-18
7627.77711 9.27652e-18
7629.77626 9.27555e-18
7631.76537 9.27459e-18
7633.76453 9.27362e-18
7635.75363 9.27266e-18
7637.75279 9.27169e-18
7639.75194 9.27073e-18
7641.74105 9.26976e-18
7643.74020 9.26879e-18
7645.73936 9.26783e-18
7647.72847 9.26686e-18
7649.72762 9.26590e-18
7651.71673 9.26493e-18
7653.71588 9.26397e-18
7655.71504 9.26300e-18
7657.70414 9.26203e-18
7659.70330 9.26107e-18
7661.69241 9.26010e-18
7663.69156 9.18885e-18
7665.69071 8.99926e-18
7667.67982 8.94883e-18
7669.67898 8.96646e-18
7671.66808 9.00484e-18
7673.66724 9.07511e-18
7675.66639 9.17017e-18
7677.65550 9.36298e-18
7679.65465 9.54262e-18
7681.65381 9.53850e-18
7683.64292 9.35068e-18
7685.64207 9.29310e-18
7687.63118 9.28122e-18
7689.63033 9.30787e-18
7691.62949 9.32821e-18
7693.61859 9.25652e-18
7695.61775 9.15911e-18
7697.60686 9.07926e-18
7699.60601 8.81544e-18
7701.60516 8.21470e-18
7703.59427 7.91807e-18
7705.59343 7.93173e-18
7707.58253 8.13711e-18
7709.58169 8.42102e-18
7711.58084 8.81964e-18
7713.56995 8.94141e-18
7715.56910 8.78748e-18
7717.55821 8.80657e-18
7719.55737 8.93013e-18
7721.55652 9.02849e-18
7723.54563 9.03234e-18
7725.54478 8.92433e-18
7727.54394 9.01833e-18
7729.53304 9.43386e-18
7731.53220 9.50693e-18
7733.52131 9.09624e-18
7735.52046 8.67367e-18
7737.51961 8.69688e-18
7739.50872 9.06741e-18
7741.50788 9.09309e-18
7743.49698 8.86058e-18
7745.49614 8.77595e-18
7747.49529 8.85074e-18
7749.48440 8.98376e-18
7751.48355 9.16508e-18
7753.47266 9.44652e-18
7755.47182 9.45056e-18
7757.47097 9.22489e-18
7759.46008 9.01021e-18
7761.45923 8.70829e-18
7763.44834 8.45616e-18
7765.44749 8.33411e-18
7767.44665 8.24077e-18
7769.43576 8.38010e-18
7771.43491 8.94668e-18
7773.43406 9.15499e-18
7775.42317 8.96670e-18
7777.42233 8.72010e-18
7779.41143 8.64872e-18
7781.41059 8.63517e-18
7783.40974 8.58594e-18
7785.39885 8.59334e-18
7787.39800 8.48447e-18
7789.38711 8.11724e-18
7791.38627 7.81585e-18
7793.38542 7.92991e-18
7795.37453 8.37828e-18
7797.37368 8.63240e-18
7799.36279 8.93226e-18
7801.36194 9.05032e-18
7803.36110 8.99118e-18
7805.35021 8.89816e-18
7807.34936 8.91093e-18
7809.33847 9.01898e-18
7811.33762 8.89227e-18
7813.33678 8.47484e-18
7815.32588 8.26850e-18
7817.32504 8.28228e-18
7819.32419 8.31095e-18
7821.31330 8.19721e-18
7823.31245 7.99821e-18
7825.30156 8.00548e-18
7827.30072 8.19020e-18
7829.29987 8.32826e-18
7831.28898 8.50207e-18
7833.28813 8.64754e-18
7835.27724 8.65639e-18
7837.27639 8.56343e-18
7839.27555 8.55460e-18
7841.26466 8.63224e-18
7843.26381 8.57445e-18
7845.25292 8.32256e-18
7847.25207 8.21316e-18
7849.25123 8.45391e-18
7851.24033 8.88770e-18
7853.23949 8.91885e-18
7855.23864 8.57229e-18
7857.22775 8.46417e-18
7859.22690 8.47774e-18
7861.21601 8.54426e-18
7863.21517 8.55688e-18
7865.21432 8.52867e-18
7867.20343 8.67819e-18
7869.20258 9.21515e-18
7871.19169 9.20262e-18
7873.19084 8.62450e-18
7875.19000 8.12503e-18
7877.17911 7.98246e-18
7879.17826 8.06999e-18
7881.16737 8.15008e-18
7883.16652 8.41818e-18
7885.16568 8.44678e-18
7887.15478 8.27827e-18
7889.15394 8.12701e-18
7891.15309 8.08934e-18
7893.14220 8.13010e-18
7895.14135 8.16050e-18
7897.13046 8.24285e-18
7899.12962 8.23863e-18
7901.12877 8.15021e-18
7903.11788 8.07817e-18
7905.11703 8.11378e-18
7907.10614 8.24698e-18
7909.10529 8.22727e-18
7911.10445 8.03589e-18
7913.09356 7.96229e-18
7915.09271 7.99114e-18
7917.08182 8.03507e-18
7919.08097 8.00411e-18
7921.08013 7.96537e-18
7923.06923 8.07398e-18
7925.06839 8.40078e-18
7927.05750 8.45885e-18
7929.05665 8.32334e-18
7931.05580 8.18102e-18
7933.04491 8.02296e-18
7935.04407 7.81980e-18
7937.04322 7.72897e-18
7939.03233 7.79129e-18
7941.03148 7.73028e-18
7943.02059 7.54132e-18
7945.01974 7.39401e-18
7947.01890 7.35814e-18
7949.00801 7.39758e-18
7951.00716 7.62661e-18
7952.99627 8.22154e-18
7954.99542 8.47031e-18
7956.99458 8.46842e-18
7958.98368 8.47361e-18
7960.98284 8.57294e-18
7962.97195 8.66669e-18
7964.97110 8.62364e-18
7966.97025 8.36571e-18
7968.95936 8.33521e-18
7970.95852 8.48453e-18
7972.95767 8.60153e-18
7974.94678 8.64959e-18
7976.94593 8.67826e-18
7978.93504 8.64691e-18
7980.93419 8.56224e-18
7982.93335 8.43253e-18
7984.92246 8.14116e-18
7986.92161 8.01222e-18
7988.91072 8.18890e-18
7990.90987 8.43273e-18
7992.90903 8.33656e-18
7994.89813 7.91509e-18
7996.89729 7.81894e-18
7998.88640 7.88182e-18
8000.88555 8.00413e-18
8002.88470 8.24158e-18
8004.87381 8.47621e-18
8006.87297 8.49956e-18
8008.86207 8.35591e-18
8010.86123 8.28932e-18
8012.86038 8.17213e-18
8014.84949 8.15388e-18
8016.84864 8.29022e-18
8018.84780 8.43285e-18
8020.83691 8.39686e-18
8022.83606 8.15107e-18
8024.82517 8.20870e-18
8026.82432 8.53657e-18
8028.82348 8.77565e-18
8030.81258 8.88739e-18
8032.81174 8.92615e-18
8034.80085 8.92315e-18
8036.80000 8.87088e-18
8038.79915 8.72681e-18
8040.78826 8.33537e-18
8042.78742 8.19663e-18
8044.77652 8.43497e-18
8046.77568 8.74543e-18
8048.77483 8.72650e-18
8050.76394 8.44894e-18
8052.76309 8.35528e-18
8054.76225 8.30046e-18
8056.75136 8.31135e-18
8058.75051 8.40144e-18
8060.73962 8.50786e-18
8062.73877 8.56191e-18
8064.73793 8.62036e-18
8066.72703 8.68635e-18
8068.72619 8.79331e-18
8070.71530 8.81587e-18
8072.71445 8.72605e-18
8074.71360 8.63881e-18
8076.70271 8.73003e-18
8078.70187 9.00108e-18
8080.69097 9.10169e-18
8082.69013 9.08375e-18
8084.68928 9.10723e-18
8086.67839 9.21062e-18
8088.67754 9.34445e-18
8090.66665 9.43349e-18
8092.66581 9.53256e-18
8094.66496 9.61043e-18
8096.65407 9.71105e-18
8098.65322 9.69978e-18
8100.65238 9.58790e-18
8102.64148 9.49434e-18
8104.64064 9.50001e-18
8106.62975 9.58307e-18
8108.62890 9.51528e-18
8110.62805 9.21737e-18
8112.61716 9.16162e-18
8114.61632 9.42444e-18
8116.60542 9.71606e-18
8118.60458 9.74196e-18
8120.60373 9.58234e-18
8122.59284 9.54814e-18
8124.59199 9.60507e-18
8126.58110 9.55762e-18
8128.58026 9.35398e-18
8130.57941 9.14892e-18
8132.56852 9.04591e-18
8134.56767 8.95539e-18
8136.56683 9.07143e-18
8138.55593 9.50805e-18
8140.55509 9.73564e-18
8142.54420 9.74526e-18
8144.54335 9.66061e-18
8146.54250 9.65957e-18
8148.53161 9.76932e-18
8150.53077 9.71281e-18
8152.51987 9.43353e-18
8154.51903 9.32907e-18
8156.51818 9.47449e-18
8158.50729 9.69327e-18
8160.50644 9.80067e-18
8162.49555 9.86432e-18
8164.49471 9.88431e-18
8166.49386 9.87709e-18
8168.48297 9.77982e-18
8170.48212 9.51827e-18
8172.47123 9.39498e-18
8174.47038 9.58368e-18
8176.46954 9.96821e-18
8178.45865 1.01016e-17
8180.45780 1.00611e-17
8182.45695 1.01006e-17
8184.44606 1.01900e-17
8186.44522 1.03331e-17
8188.43432 1.04407e-17
8190.43348 1.04486e-17
8192.43263 1.03703e-17
8194.42174 1.00402e-17
8196.42089 1.00285e-17
8198.41000 1.03613e-17
8200.40916 1.06527e-17
8202.40831 1.05587e-17
8204.39742 1.01923e-17
8206.39657 1.01392e-17
8208.38568 1.02335e-17
8210.38483 1.03780e-17
8212.38399 1.07707e-17
8214.37310 1.10048e-17
8216.37225 1.06580e-17
8218.36136 9.86885e-18
8220.36051 9.80602e-18
8222.35967 1.03466e-17
8224.34877 1.06320e-17
8226.34793 1.07672e-17
8228.34708 1.08488e-17
8230.33619 1.09897e-17
8232.33534 1.11576e-17
8234.32445 1.11069e-17
8236.32361 1.07865e-17
8238.32276 1.06319e-17
8240.31187 1.04877e-17
8242.31102 1.04941e-17
8244.30013 1.07718e-17
8246.29928 1.11800e-17
8248.29844 1.13034e-17
8250.28755 1.11691e-17
8252.28670 1.12088e-17
8254.27581 1.13916e-17
8256.27496 1.15196e-17
8258.27412 1.14236e-17
8260.26322 1.11654e-17
8262.26238 1.10023e-17
8264.26153 1.08408e-17
8266.25064 1.07048e-17
8268.24979 1.05359e-17
8270.23890 1.04869e-17
8272.23806 1.06292e-17
8274.23721 1.08318e-17
8276.22632 1.07533e-17
8278.22547 1.02947e-17
8280.21458 1.02450e-17
8282.21373 1.05520e-17
8284.21289 1.08267e-17
8286.20200 1.08773e-17
8288.20115 1.08352e-17
8290.19026 1.09235e-17
8292.18941 1.12123e-17
8294.18857 1.11823e-17
8296.17767 1.07978e-17
8298.17683 1.04957e-17
8300.17598 1.04834e-17
8302.16509 1.06091e-17
8304.16424 1.06064e-17
8306.15335 1.04939e-17
8308.15251 1.05685e-17
8310.15166 1.08245e-17
8312.14077 1.10493e-17
8314.13992 1.11773e-17
8316.12903 1.12540e-17
8318.12818 1.13285e-17
8320.12734 1.14184e-17
8322.11645 1.14171e-17
8324.11560 1.12650e-17
8326.10471 1.11800e-17
8328.10386 1.12802e-17
8330.10302 1.14532e-17
8332.09212 1.15273e-17
8334.09128 1.16284e-17
8336.09043 1.16196e-17
8338.07954 1.14123e-17
8340.07869 1.13019e-17
8342.06780 1.14501e-17
8344.06696 1.17005e-17
8346.06611 1.17472e-17
8348.05522 1.16576e-17
8350.05437 1.15813e-17
8352.04348 1.14375e-17
8354.04263 1.13506e-17
8356.04179 1.13133e-17
8358.03090 1.13167e-17
8360.03005 1.13678e-17
8362.01916 1.15173e-17
8364.01831 1.15157e-17
8366.01747 1.14031e-17
8368.00657 1.12889e-17
8370.00573 1.11214e-17
8372.00488 1.09615e-17
8373.99399 1.10599e-17
8375.99314 1.14733e-17
8377.98225 1.16800e-17
8379.98141 1.17933e-17
8381.97051 1.19173e-17
8383.96967 1.21605e-17
8385.96882 1.23809e-17
8387.95793 1.23116e-17
8389.95708 1.18708e-17
8391.95624 1.18694e-17
8393.94535 1.22029e-17
8395.94450 1.24610e-17
8397.93361 1.26197e-17
8399.93276 1.26920e-17
8401.93192 1.25729e-17
8403.92102 1.21307e-17
8405.92018 1.20937e-17
8407.90929 1.24293e-17
8409.90844 1.25765e-17
8411.90759 1.24768e-17
8413.89670 1.23327e-17
8415.89586 1.21986e-17
8417.88496 1.19501e-17
8419.88412 1.18511e-17
8421.88327 1.19142e-17
8423.87238 1.18756e-17
8425.87153 1.16231e-17
8427.87069 1.14112e-17
8429.85980 1.15940e-17
8431.85895 1.22038e-17
8433.84806 1.23734e-17
8435.84721 1.22235e-17
8437.84637 1.21765e-17
8439.83547 1.23330e-17
8441.83463 1.25636e-17
8443.82374 1.26554e-17
8445.82289 1.26842e-17
8447.82204 1.25765e-17
8449.81115 1.22491e-17
8451.81031 1.20349e-17
8453.79941 1.19289e-17
8455.79857 1.18329e-17
8457.79772 1.17360e-17
8459.78683 1.16803e-17
8461.78598 1.16373e-17
8463.78514 1.15653e-17
8465.77425 1.16066e-17
8467.77340 1.18053e-17
8469.76251 1.20060e-17
8471.76166 1.21107e-17
8473.76082 1.21879e-17
8475.74992 1.23520e-17
8477.74908 1.26619e-17
8479.73819 1.28031e-17
8481.73734 1.28041e-17
8483.73649 1.27055e-17
8485.72560 1.25308e-17
8487.72476 1.22697e-17
8489.71386 1.21248e-17
8491.71302 1.20192e-17
8493.71217 1.19684e-17
8495.70128 1.20204e-17
8497.70043 1.20682e-17
8499.68954 1.20646e-17
8501.68870 1.20668e-17
8503.68785 1.19985e-17
8505.67696 1.18321e-17
8507.67611 1.17262e-17
8509.67527 1.16124e-17
8511.66437 1.15349e-17
8513.66353 1.16747e-17
8515.65264 1.20176e-17
8517.65179 1.21339e-17
8519.65094 1.21836e-17
8521.64005 1.21315e-17
8523.63921 1.18224e-17
8525.62831 1.14804e-17
8527.62747 1.14350e-17
8529.62662 1.15800e-17
8531.61573 1.15632e-17
8533.61488 1.14920e-17
8535.60399 1.14214e-17
8537.60315 1.12420e-17
8539.60230 1.10601e-17
8541.59141 1.10430e-17
8543.59056 1.11178e-17
8545.58972 1.11777e-17
8547.57882 1.12674e-17
8549.57798 1.13752e-17
8551.56709 1.15005e-17
8553.56624 1.16012e-17
8555.56539 1.16514e-17
8557.55450 1.16634e-17
8559.55366 1.16626e-17
8561.54276 1.16398e-17
8563.54192 1.15975e-17
8565.54107 1.14992e-17
8567.53018 1.14345e-17
8569.52933 1.14561e-17
8571.51844 1.15211e-17
8573.51760 1.15342e-17
8575.51675 1.15805e-17
8577.50586 1.15089e-17
8579.50501 1.12623e-17
8581.50417 1.10072e-17
8583.49327 1.09130e-17
8585.49243 1.09167e-17
8587.48154 1.08186e-17
8589.48069 1.06609e-17
8591.47984 1.05387e-17
8593.46895 1.03744e-17
8595.46811 1.02268e-17
8597.45721 1.01898e-17
8599.45637 1.02562e-17
8601.45552 1.02612e-17
8603.44463 1.01717e-17
8605.44378 1.02503e-17
8607.43289 1.05422e-17
8609.43205 1.08381e-17
8611.43120 1.10791e-17
8613.42031 1.13253e-17
8615.41946 1.13362e-17
8617.40857 1.10029e-17
8619.40772 1.09353e-17
8621.40688 1.10521e-17
8623.39599 1.12087e-17
8625.39514 1.14006e-17
8627.38425 1.16612e-17
8629.38340 1.16316e-17
8631.38256 1.12474e-17
8633.37166 1.11102e-17
8635.37082 1.11466e-17
8637.36997 1.11700e-17
8639.35908 1.11763e-17
8641.35823 1.12174e-17
8643.34734 1.11147e-17
8645.34650 1.08449e-17
8647.34565 1.06675e-17
8649.33476 1.05354e-17
8651.33391 1.04254e-17
8653.32302 1.03252e-17
8655.32217 1.02369e-17
8657.32133 1.02502e-17
8659.31044 1.04045e-17
8661.30959 1.04800e-17
8663.29870 1.04741e-17
8665.29785 1.05088e-17
8667.29701 1.06429e-17
8669.28611 1.07932e-17
8671.28527 1.08623e-17
8673.28442 1.08743e-17
8675.27353 1.09086e-17
8677.27268 1.08699e-17
8679.26179 1.09283e-17
8681.26095 1.11792e-17
8683.26010 1.15092e-17
8685.24921 1.16557e-17
8687.24836 1.16525e-17
8689.23747 1.16919e-17
8691.23662 1.17441e-17
8693.23578 1.18250e-17
8695.22489 1.18595e-17
8697.22404 1.18592e-17
8699.21315 1.17958e-17
8701.21230 1.15977e-17
8703.21146 1.15177e-17
8705.20056 1.15764e-17
8707.19972 1.15839e-17
8709.19887 1.14297e-17
8711.18798 1.11759e-17
8713.18713 1.09752e-17
8715.17624 1.07227e-17
8717.17540 1.06197e-17
8719.17455 1.06601e-17
8721.16366 1.06920e-17
8723.16281 1.06892e-17
8725.15192 1.07227e-17
8727.15107 1.07940e-17
8729.15023 1.09316e-17
8731.13934 1.09921e-17
8733.13849 1.10855e-17
8735.12760 1.10112e-17
8737.12675 1.06976e-17
8739.12591 1.03006e-17
8741.11501 1.01265e-17
8743.11417 1.00717e-17
8745.10328 1.00887e-17
8747.10243 1.02706e-17
8749.10158 1.03704e-17
8751.09069 1.03484e-17
8753.08985 1.03641e-17
8755.08900 1.05462e-17
8757.07811 1.10198e-17
8759.07726 1.10213e-17
8761.06637 1.05503e-17
8763.06552 1.02333e-17
8765.06468 1.02079e-17
8767.05379 1.03838e-17
8769.05294 1.06819e-17
8771.04205 1.12438e-17
8773.04120 1.14096e-17
8775.04036 1.12982e-17
8777.02946 1.11949e-17
8779.02862 1.10344e-17
8781.01773 1.08322e-17
8783.01688 1.07045e-17
8785.01603 1.06124e-17
8787.00514 1.04794e-17
8789.00430 1.02485e-17
8791.00345 1.01588e-17
8792.99256 1.02875e-17
8794.99171 1.04940e-17
8796.98082 1.05256e-17
8798.97997 1.04858e-17
8800.97913 1.03363e-17
8802.96824 9.90000e-18
8804.96739 9.70879e-18
8806.95650 9.92692e-18
8808.95565 1.03222e-17
8810.95481 1.04492e-17
8812.94391 1.04334e-17
8814.94307 1.04344e-17
8816.93218 1.04089e-17
8818.93133 1.03205e-17
8820.93048 1.01633e-17
8822.91959 1.00720e-17
8824.91875 1.01541e-17
8826.91790 1.03923e-17
8828.90701 1.06519e-17
8830.90616 1.12095e-17
8832.89527 1.13619e-17
8834.89442 1.09502e-17
8836.88353 1.04148e-17
8838.88269 1.03075e-17
8840.88184 1.04738e-17
8842.87095 1.04916e-17
8844.87010 1.05221e-17
8846.86926 1.04785e-17
8848.85836 1.02884e-17
8850.85752 1.01287e-17
8852.84663 1.02630e-17
8854.84578 1.06854e-17
8856.84493 1.09751e-17
8858.83404 1.12858e-17
8860.83320 1.15363e-17
8862.82230 1.18683e-17
8864.82146 1.20292e-17
8866.82061 1.17031e-17
8868.80972 1.09338e-17
8870.80887 1.05384e-17
8872.79798 1.02192e-17
8874.79714 1.00586e-17
8876.79629 1.01414e-17
8878.78540 1.02587e-17
8880.78455 1.02875e-17
8882.78371 1.03882e-17
8884.77281 1.02860e-17
8886.77197 9.89768e-18
8888.76108 9.70636e-18
8890.76023 9.75768e-18
8892.75938 9.87536e-18
8894.74849 9.92803e-18
8896.74765 9.93764e-18
8898.73675 1.01341e-17
8900.73591 1.07091e-17
8902.73506 1.08625e-17
8904.72417 1.03991e-17
8906.72332 9.94762e-18
8908.71243 1.00789e-17
8910.71159 1.05525e-17
8912.71074 1.07470e-17
8914.69985 1.08638e-17
8916.69900 1.09553e-17
8918.69816 1.09461e-17
8920.68726 1.08975e-17
8922.68642 1.09030e-17
8924.67553 1.09665e-17
8926.67468 1.09520e-17
8928.67383 1.08441e-17
8930.66294 1.07945e-17
8932.66210 1.08934e-17
8934.65120 1.09979e-17
8936.65036 1.08910e-17
8938.64951 1.06011e-17
8940.63862 1.05924e-17
8942.63777 1.08700e-17
8944.62688 1.09519e-17
8946.62604 1.07696e-17
8948.62519 1.06424e-17
8950.61430 1.08709e-17
8952.61345 1.13436e-17
8954.61261 1.13323e-17
8956.60171 1.08992e-17
8958.60087 1.06481e-17
8960.58998 1.03918e-17
8962.58913 1.02128e-17
8964.58828 1.02815e-17
8966.57739 1.05378e-17
8968.57655 1.07153e-17
8970.56565 1.10123e-17
8972.56481 1.11032e-17
8974.56396 1.08632e-17
8976.55307 1.06654e-17
8978.55222 1.08331e-17
8979.28678 1.08331e-17
8980.98437 1.10711e-17
8982.68196 1.10364e-17
8984.37955 9.83925e-18
8986.07714 7.51081e-18
8987.77472 6.57734e-18
8989.47231 8.60793e-18
8991.16990 1.15730e-17
8992.86749 1.33896e-17
8994.56508 1.44024e-17
8996.26266 1.52981e-17
8997.96025 1.56452e-17
8999.65784 1.49417e-17
9001.35543 1.34556e-17
9003.05302 1.17313e-17
9004.75061 1.02609e-17
9006.44819 9.36996e-18
9008.14578 8.72400e-18
9009.84337 7.70903e-18
9011.54096 6.37202e-18
9013.23855 5.22903e-18
9014.93613 4.82503e-18
9016.63372 5.64679e-18
9018.33131 7.55184e-18
9020.02890 9.77905e-18
9021.72649 1.16606e-17
9023.43412 1.27122e-17
9025.13171 1.24077e-17
9026.82930 1.02008e-17
9028.52688 7.00759e-18
9030.22447 5.65751e-18
9031.92206 7.06419e-18
9033.61965 9.04673e-18
9035.31724 1.02014e-17
9037.01482 1.08557e-17
9038.71241 1.12723e-17
9040.41000 1.14227e-17
9042.10759 1.12787e-17
9043.80518 1.06985e-17
9045.50276 9.68806e-18
9047.20035 8.74460e-18
9048.89794 8.16984e-18
9050.59553 7.30313e-18
9052.29312 5.71687e-18
9053.99070 4.49310e-18
9055.68829 4.71435e-18
9057.38588 6.00725e-18
9059.08347 7.44413e-18
9060.78106 8.20085e-18
9062.47865 7.73489e-18
9064.17623 6.20838e-18
9065.87382 4.34127e-18
9067.57141 3.75221e-18
9069.26900 6.06668e-18
9070.96659 9.52736e-18
9072.66417 1.02811e-17
9074.36176 8.23240e-18
9076.05935 6.38919e-18
9077.75694 6.00288e-18
9079.45453 6.66705e-18
9081.15211 7.94111e-18
9082.84970 9.21140e-18
9084.54729 9.64077e-18
9086.24488 8.21440e-18
9087.94247 5.45738e-18
9089.64005 4.09809e-18
9091.33764 5.42563e-18
9093.03523 8.23361e-18
9094.73282 1.11012e-17
9096.43041 1.25135e-17
9098.12800 1.19479e-17
9099.82558 1.10424e-17
9101.52317 1.11659e-17
9103.22076 1.22911e-17
9104.92839 1.39087e-17
9106.62598 1.48902e-17
9108.32357 1.44507e-17
9110.01111 1.33256e-17
9111.71875 1.24618e-17
9113.41633 1.19633e-17
9115.11392 1.16138e-17
9116.81151 1.10003e-17
9118.50910 9.82078e-18
9120.20669 8.72060e-18
9121.90427 8.60436e-18
9123.60186 9.37378e-18
9125.29945 1.03296e-17
9126.99704 1.07047e-17
9128.69463 9.86087e-18
9130.39221 8.64019e-18
9132.08980 8.91757e-18
9133.78739 1.03924e-17
9135.48498 1.08544e-17
9137.18257 1.01902e-17
9138.88015 1.04063e-17
9140.57774 1.17695e-17
9142.27533 1.25381e-17
9143.97292 1.21579e-17
9145.67051 1.16335e-17
9147.36810 1.16736e-17
9149.06568 1.25864e-17
9150.76327 1.39699e-17
9152.46086 1.40952e-17
9154.15845 1.22080e-17
9155.85604 9.86334e-18
9157.55362 8.12662e-18
9159.25121 5.99201e-18
9160.94880 3.13378e-18
9162.64639 1.86656e-18
9164.34398 3.73396e-18
9166.04156 7.00582e-18
9167.73915 9.40774e-18
9169.43674 9.42340e-18
9171.13433 6.67712e-18
9172.83192 3.86606e-18
9174.52950 3.97769e-18
9176.22709 6.19984e-18
9177.92468 8.17441e-18
9179.62227 8.89295e-18
9181.31986 8.29559e-18
9183.01745 7.63454e-18
9184.71503 8.77250e-18
9186.42267 1.12070e-17
9188.11021 1.27626e-17
9189.81784 1.26979e-17
9191.50539 1.15254e-17
9193.21302 1.04545e-17
9194.91061 1.13745e-17
9196.60820 1.38599e-17
9198.30578 1.48167e-17
9200.00337 1.33850e-17
9201.70096 1.16277e-17
9203.39855 1.08635e-17
9205.09614 1.13334e-17
9206.79372 1.25144e-17
9208.49131 1.24982e-17
9210.18890 1.06202e-17
9211.88649 8.90421e-18
9213.58408 8.69187e-18
9215.28166 9.08721e-18
9216.97925 9.43675e-18
9218.67684 1.07064e-17
9220.37443 1.31761e-17
9222.07202 1.45493e-17
9223.76960 1.30370e-17
9225.46719 9.84358e-18
9227.16478 6.91341e-18
9228.86237 5.72020e-18
9230.55996 6.94446e-18
9232.25755 8.94225e-18
9233.95513 9.58049e-18
9235.65272 9.27899e-18
9237.35031 9.61063e-18
9239.04790 1.11407e-17
9240.74549 1.37065e-17
9242.44307 1.64118e-17
9244.14066 1.78787e-17
9245.83825 1.75743e-17
9247.53584 1.57951e-17
9249.23343 1.31472e-17
9250.93101 1.05390e-17
9252.62860 8.66665e-18
9254.32619 7.85742e-18
9256.02378 8.25179e-18
9257.72137 9.79666e-18
9259.41895 1.16564e-17
9261.11654 1.19710e-17
9262.81413 1.02884e-17
9264.51172 8.43222e-18
9266.20931 7.66450e-18
9267.91694 8.02099e-18
9269.60448 9.00855e-18
9271.31212 9.14348e-18
9272.99966 7.79087e-18
9274.70729 6.66189e-18
9276.40488 7.05783e-18
9278.10247 8.27839e-18
9279.80006 9.31341e-18
9281.49764 9.34884e-18
9283.19523 8.13503e-18
9284.89282 7.20896e-18
9286.59041 8.05144e-18
9288.28800 9.55458e-18
9289.98559 1.00614e-17
9291.68317 1.03412e-17
9293.38076 1.17916e-17
9295.07835 1.29861e-17
9296.77594 1.16473e-17
9298.47353 9.70050e-18
9300.17111 1.10896e-17
9301.86870 1.45307e-17
9303.56629 1.52366e-17
9305.26388 1.28639e-17
9306.96147 1.07435e-17
9308.65905 1.01219e-17
9310.35664 1.03522e-17
9312.05423 1.05466e-17
9313.75182 9.28684e-18
9315.44941 7.47050e-18
9317.14700 9.19745e-18
9318.84458 1.49509e-17
9320.54217 1.98326e-17
9322.23976 2.03764e-17
9323.93735 1.57518e-17
9325.63494 7.35066e-18
9327.33252 5.24952e-19
9329.03011 -1.61338e-18
9330.72770 -2.13311e-18
9332.42529 -3.58868e-18
9334.12288 -4.87995e-18
9335.82046 -4.55989e-18
9337.51805 -1.78812e-18
9339.21564 3.49647e-18
9340.91323 9.57634e-18
9342.61082 1.44224e-17
9344.30840 1.70508e-17
9346.00599 1.71911e-17
9347.70358 1.50915e-17
9349.41121 1.15862e-17
9351.09876 8.55376e-18
9352.80639 7.88438e-18
9354.49393 9.31886e-18
9356.20157 1.11920e-17
9357.89915 1.21315e-17
9359.59674 1.11799e-17
9361.29433 8.81003e-18
9362.99192 6.72913e-18
9364.68951 5.25034e-18
9366.38709 3.37394e-18
9368.08468 1.40382e-18
9369.78227 8.85582e-19
9371.47986 2.54062e-18
9373.17745 6.23133e-18
9374.87504 1.02758e-17
9376.57262 1.07315e-17
9378.27021 7.02014e-18
9379.96780 4.14919e-18
9381.66539 5.03549e-18
9383.36298 8.18311e-18
9385.06056 1.16464e-17
9386.75815 1.31927e-17
9388.45574 1.20896e-17
9390.15333 1.15913e-17
9391.85092 1.38664e-17
9393.54850 1.61365e-17
9395.24609 1.58894e-17
9396.94368 1.45833e-17
9398.64127 1.41380e-17
9400.33886 1.46975e-17
9402.03644 1.56079e-17
9403.73403 1.52210e-17
9405.43162 1.22072e-17
9407.12921 8.02607e-18
9408.82680 5.30043e-18
9410.52439 5.56321e-18
9412.22197 9.15908e-18
9413.91956 1.41408e-17
9415.61715 1.71963e-17
9417.31474 1.68263e-17
9419.01233 1.33061e-17
9420.70991 8.74344e-18
9422.40750 6.75706e-18
9424.10509 7.38668e-18
9425.80268 6.88936e-18
9427.50027 4.81921e-18
9429.19785 4.60287e-18
9430.89544 6.81545e-18
9432.59303 8.25974e-18
9434.29062 7.97412e-18
9435.98821 8.48556e-18
9437.69584 1.08870e-17
9439.39343 1.37161e-17
9441.09102 1.55021e-17
9442.78860 1.49070e-17
9444.48619 1.18722e-17
9446.18378 9.08748e-18
9447.88137 8.58200e-18
9449.57896 9.72297e-18
9451.27654 1.12717e-17
9452.97413 1.19449e-17
9454.67172 1.09895e-17
9456.36931 9.16301e-18
9458.06690 7.73279e-18
9459.76449 8.06709e-18
9461.46207 1.08389e-17
9463.15966 1.40709e-17
9464.85725 1.51563e-17
9466.55484 1.43275e-17
9468.25243 1.32268e-17
9469.95001 1.23942e-17
9471.64760 1.16889e-17
9473.34519 1.06886e-17
9475.04278 8.80443e-18
9476.74037 6.21200e-18
9478.43795 3.78050e-18
9480.13554 3.23963e-18
9481.83313 6.93762e-18
9483.53072 1.34064e-17
9485.22831 1.70356e-17
9486.92589 1.61084e-17
9488.62348 1.39512e-17
9490.32107 1.25160e-17
9492.01866 1.16804e-17
9493.71625 1.11399e-17
9495.41384 1.00668e-17
9497.11142 8.48622e-18
9498.80901 8.35533e-18
9500.50660 1.04213e-17
9502.20419 1.24609e-17
9503.90178 1.29279e-17
9505.59936 1.30006e-17
9507.29695 1.35732e-17
9508.99454 1.33854e-17
9510.69213 1.14386e-17
9512.38972 8.83799e-18
9514.08730 6.89119e-18
9515.78489 5.22697e-18
9517.48248 3.42180e-18
9519.19011 3.48583e-18
9520.88770 7.25693e-18
9522.58529 1.18571e-17
9524.28288 1.30352e-17
9525.98047 1.12611e-17
9527.67805 9.61363e-18
9529.37564 9.58649e-18
9531.07323 1.14537e-17
9532.77082 1.41213e-17
9534.46841 1.53743e-17
9536.16599 1.46751e-17
9537.86358 1.31231e-17
9539.56117 1.16649e-17
9541.25876 1.11046e-17
9542.95635 1.13504e-17
9544.65394 1.11586e-17
9546.35152 9.91857e-18
9548.04911 7.94319e-18
9549.74670 5.81608e-18
9551.44429 4.38178e-18
9553.14188 4.45413e-18
9554.83946 7.03636e-18
9556.53705 1.13926e-17
9558.23464 1.30955e-17
9559.93223 1.02469e-17
9561.62982 7.75448e-18
9563.32740 9.12782e-18
9565.02499 1.15590e-17
9566.72258 1.20553e-17
9568.42017 1.06367e-17
9570.11776 8.32254e-18
9571.81534 6.76470e-18
9573.51293 7.41666e-18
9575.21052 1.02838e-17
9576.90811 1.44668e-17
9578.60570 1.84348e-17
9580.30329 2.05955e-17
9582.00087 2.03730e-17
9583.69846 1.80523e-17
9585.39605 1.44881e-17
9587.09364 1.09145e-17
9588.79123 8.44430e-18
9590.48881 7.84469e-18
9592.18640 8.49933e-18
9593.88399 8.65460e-18
9595.58158 8.57386e-18
9597.27917 1.04644e-17
9598.97675 1.38015e-17
9600.67434 1.51011e-17
9602.38198 1.36115e-17
9604.07956 1.20504e-17
9605.76711 1.17721e-17
9607.47474 1.20843e-17
9609.17233 1.22935e-17
9610.86992 1.17230e-17
9612.56750 1.02179e-17
9614.26509 8.62576e-18
9615.96268 7.75076e-18
9617.66027 8.12891e-18
9619.35786 9.66315e-18
9621.05544 1.10125e-17
9622.75303 1.10074e-17
9624.45062 9.34441e-18
9626.14821 6.55103e-18
9627.84580 4.80365e-18
9629.54339 5.93196e-18
9631.24097 9.21429e-18
9632.93856 1.29401e-17
9634.63615 1.56192e-17
9636.33374 1.62094e-17
9638.03133 1.49583e-17
9639.72891 1.29141e-17
9641.42650 1.10564e-17
9643.12409 1.01512e-17
9644.82168 1.00577e-17
9646.51927 9.99907e-18
9648.21685 9.97186e-18
9649.91444 1.05312e-17
9651.61203 1.20479e-17
9653.30962 1.47376e-17
9655.00721 1.68328e-17
9656.70479 1.45750e-17
9658.40238 8.95467e-18
9660.09997 6.60326e-18
9661.79756 1.02385e-17
9663.49515 1.71628e-17
9665.19274 2.40110e-17
9666.89032 2.65946e-17
9668.58791 2.36096e-17
9670.28550 1.90946e-17
9671.98309 1.62595e-17
9673.68068 1.54490e-17
9675.37826 1.60467e-17
9677.07585 1.62025e-17
9678.77344 1.44210e-17
9680.47103 1.05909e-17
9682.16862 5.60445e-18
9683.86620 2.11669e-18
9685.56379 2.14463e-18
9687.26138 4.47072e-18
9688.96901 6.87970e-18
9690.66660 7.65311e-18
9692.36419 5.96937e-18
9694.06178 3.72963e-18
9695.75937 3.56414e-18
9697.45695 4.90932e-18
9699.15454 5.60200e-18
9700.85213 5.04295e-18
9702.54972 3.69607e-18
9704.24731 2.57526e-18
9705.94489 3.04634e-18
9707.64248 4.88149e-18
9709.34007 6.44380e-18
9711.03766 6.97279e-18
9712.73525 6.59687e-18
9714.43283 5.95119e-18
9716.13042 6.30020e-18
9717.82801 7.74096e-18
9719.52560 8.80954e-18
9721.22319 8.63097e-18
9722.92078 7.18923e-18
9724.61836 5.20767e-18
9726.31595 4.64729e-18
9728.01354 6.28620e-18
9729.71113 8.49043e-18
9731.40872 9.86427e-18
9733.10630 1.00847e-17
9734.80389 9.39576e-18
9736.50148 9.04013e-18
9738.19907 9.85315e-18
9739.89666 1.11331e-17
9741.59424 1.18389e-17
9743.29183 1.07991e-17
9744.98942 7.66358e-18
9746.68701 5.11347e-18
9748.38460 5.76992e-18
9750.08219 7.74681e-18
9751.77977 7.82937e-18
9753.47736 5.67062e-18
9755.17495 2.64505e-18
9756.87254 1.31876e-18
9758.57013 4.30742e-18
9760.26771 9.67793e-18
9761.96530 1.25221e-17
9763.66289 1.12049e-17
9765.36048 7.00049e-18
9767.05807 2.67980e-18
9768.75565 2.37016e-18
9770.45324 6.13292e-18
9772.16088 9.45205e-18
9773.85846 1.05946e-17
9775.55605 1.13243e-17
9777.25364 1.26654e-17
9778.95123 1.47182e-17
9780.64882 1.71174e-17
9782.34640 1.87172e-17
9784.04399 1.86329e-17
9785.74158 1.64649e-17
9787.43917 1.26880e-17
9789.13676 9.41405e-18
9790.83434 7.93010e-18
9792.53193 7.12643e-18
9794.22952 5.88373e-18
9795.92711 4.06013e-18
9797.62470 2.05277e-18
9799.32228 1.47641e-18
9801.01987 3.33447e-18
9802.71746 5.38337e-18
9804.41505 5.27731e-18
9806.11264 4.44138e-18
9807.81023 5.20551e-18
9809.50781 7.37407e-18
9811.20540 9.51866e-18
9812.90299 9.96654e-18
9814.60058 7.40759e-18
9816.29817 3.59713e-18
9817.99575 2.04423e-18
9819.69334 3.08283e-18
9821.39093 4.59899e-18
9823.08852 5.91683e-18
9824.78611 7.49727e-18
9826.48369 8.77521e-18
9828.18128 8.38602e-18
9829.87887 6.81068e-18
9831.57646 6.54367e-18
9833.27405 8.53781e-18
9834.97163 1.17311e-17
9836.66922 1.46674e-17
9838.36681 1.53448e-17
9840.06440 1.32698e-17
9841.76199 1.06095e-17
9843.45958 8.97925e-18
9845.15716 8.40343e-18
9846.85475 8.56195e-18
9848.55234 8.77481e-18
9850.24993 8.55734e-18
9851.94752 8.29504e-18
9853.65515 8.24769e-18
9855.34269 7.64769e-18
9857.05033 6.00352e-18
9858.74791 4.54025e-18
9860.44550 4.42501e-18
9862.14309 4.43460e-18
9863.84068 3.22167e-18
9865.53827 2.95618e-18
9867.23585 6.27546e-18
9868.93344 1.04233e-17
9870.63103 1.09326e-17
9872.32862 1.02534e-17
9874.02621 1.40095e-17
9875.72379 2.04238e-17
9877.42138 2.29551e-17
9879.11897 1.87062e-17
9880.81656 8.10502e-18
9882.51415 -3.82730e-18
9884.21173 -7.88092e-18
9885.90932 -2.98338e-18
9887.60691 2.80959e-18
9889.30450 4.89650e-18
9891.00209 3.02036e-18
9892.69968 -7.22167e-19
9894.39726 -5.17051e-19
9896.09485 5.15928e-18
9897.79244 1.04473e-17
9899.49003 1.12453e-17
9901.18762 7.33968e-18
9902.88520 4.95297e-19
9904.58279 -4.15579e-18
9906.28038 -3.57326e-18
9907.97797 -8.43441e-19
9909.67556 9.05482e-19
9911.37314 1.66870e-18
9913.07073 2.15754e-18
9914.76832 3.15829e-18
9916.46591 5.20016e-18
9918.16350 7.75166e-18
9919.86108 9.88618e-18
9921.55867 1.07634e-17
9923.25626 9.92482e-18
9924.95385 8.00583e-18
9926.65144 6.18173e-18
9928.34903 5.49154e-18
9930.04661 6.51547e-18
9931.74420 7.79341e-18
9933.44179 6.81273e-18
9935.14942 4.23624e-18
9936.83697 3.05973e-18
9938.54460 3.73409e-18
9940.23214 4.51216e-18
9941.93978 4.45032e-18
9943.63736 3.30510e-18
9945.33495 1.67997e-18
9947.03254 1.35184e-18
9948.73013 2.10928e-18
9950.42772 9.15346e-19
9952.12530 -2.74404e-18
9953.82289 -5.44741e-18
9955.52048 -5.11131e-18
9957.21807 -2.30873e-18
9958.91566 2.07629e-18
9960.61324 7.02114e-18
9962.31083 1.16684e-17
9964.00842 1.60761e-17
9965.70601 1.97953e-17
9967.40360 2.05538e-17
9969.10118 1.70682e-17
9970.79877 1.11032e-17
9972.49636 5.28712e-18
9974.19395 2.27967e-18
9975.89154 3.59023e-18
9977.58913 7.35358e-18
9979.28671 1.05616e-17
9980.98430 1.17360e-17
9982.68189 1.04608e-17
9984.37948 7.06853e-18
9986.07707 2.64490e-18
9987.77465 -1.18310e-18
9989.47224 -2.76271e-18
9991.16983 -1.35505e-18
9992.86742 2.73422e-18
9994.56501 6.78903e-18
9996.26259 6.47268e-18
9997.96018 2.92275e-18
9999.65777 2.48475e-18
