# wavelength flux
3488.00464 4.07807e-18
3489.46742 6.92711e-18
3490.94021 6.67064e-18
3492.41300 2.81550e-18
3493.87577 8.23626e-21
3495.34857 -1.22621e-18
3496.82136 8.95306e-19
3498.29415 1.10988e-18
3499.75693 -4.86652e-19
3501.22972 5.97098e-19
3502.70251 4.38214e-19
3504.16529 1.95801e-18
3505.63808 4.97815e-18
3507.11087 3.92681e-18
3508.58367 2.24540e-18
3510.04644 2.23832e-18
3511.51923 1.95263e-18
3512.99203 9.88530e-19
3514.46482 2.27654e-18
3515.92759 2.34079e-18
3517.40039 1.71245e-18
3518.87318 2.63241e-18
3520.33595 1.39357e-18
3521.80875 8.58270e-20
3523.28154 -4.60169e-19
3524.75433 6.73981e-19
3526.21711 1.92542e-18
3527.68990 1.25794e-18
3529.16269 2.30351e-18
3530.62547 1.52010e-18
3532.09826 -6.39287e-19
3533.57105 1.67354e-19
3535.04385 1.22707e-18
3536.50662 1.94579e-18
3537.97941 3.66860e-18
3539.45221 3.20858e-18
3540.92500 8.58363e-19
3542.38777 2.24174e-18
3543.86057 3.61184e-18
3545.33336 1.79717e-18
3546.79613 1.57248e-18
3548.26893 1.66710e-18
3549.74172 1.28702e-18
3551.21451 1.15915e-18
3552.67729 1.52420e-18
3554.15008 2.28396e-18
3555.62287 1.99288e-18
3557.08565 1.96162e-18
3558.55844 2.04423e-18
3560.03123 2.06161e-18
3561.50403 2.66302e-18
3562.96680 1.52105e-18
3564.43959 1.31350e-18
3565.91239 1.28778e-18
3567.37516 7.73055e-19
3568.84795 1.15291e-18
3570.32075 7.63261e-19
3571.79354 1.46654e-18
3573.25631 1.89363e-18
3574.72910 2.22676e-18
3576.20190 3.88020e-18
3577.67469 4.40292e-18
3579.13746 2.38756e-18
3580.61026 2.00498e-18
3582.08305 2.39422e-18
3583.54583 1.44074e-18
3585.01862 3.01055e-18
3586.49141 3.19407e-18
3587.96420 1.53588e-18
3589.42698 6.93184e-19
3590.89977 1.44586e-18
3592.37256 3.14721e-18
3593.83534 3.46679e-18
3595.30813 2.36713e-18
3596.78092 3.96205e-19
3598.25372 6.84292e-20
3599.71649 1.65993e-18
3601.18928 1.95994e-18
3602.66208 9.09020e-19
3604.13487 1.24069e-18
3605.59764 1.54354e-18
3607.07044 1.51413e-18
3608.54323 1.32626e-18
3610.00600 1.13046e-18
3611.47880 -1.00735e-19
3612.95159 -1.26786e-18
3614.42438 7.93995e-19
3615.88716 3.37194e-18
3617.35995 3.66059e-18
3618.83274 2.83805e-18
3620.29552 1.67115e-18
3621.76831 1.80761e-18
3623.24110 1.45835e-18
3624.71390 -1.63367e-19
3626.17667 1.77262e-19
3627.64946 1.74391e-18
3629.12226 1.82717e-18
3630.59505 7.78504e-19
3632.05782 5.39782e-19
3633.53062 1.06622e-18
3635.00341 5.16002e-19
3636.46618 4.59626e-19
3637.93898 5.92305e-19
3639.41177 4.58657e-19
3640.88456 2.47428e-19
3642.34734 1.05940e-18
3643.82013 1.65031e-18
3645.29292 6.99350e-19
3646.75570 1.71957e-19
3648.22849 3.36217e-19
3649.70128 3.62291e-19
3651.17407 -5.03090e-19
3652.63685 8.31152e-19
3654.10964 1.35156e-18
3655.58244 1.48253e-18
3657.04521 1.11579e-18
3658.51800 2.99806e-19
3659.99080 3.08865e-19
3661.46359 1.16110e-18
3662.92636 5.20513e-19
3664.39916 -6.18793e-19
3665.87195 2.03556e-19
3667.34474 8.69825e-19
3668.80751 -1.27940e-19
3670.28031 -2.69665e-20
3671.75310 1.69723e-19
3673.21587 -1.28119e-19
3674.68867 7.43121e-19
3676.16146 8.21240e-19
3677.63425 -1.84899e-19
3679.09703 6.62641e-19
3680.56982 7.08373e-19
3682.04261 -1.18329e-18
3683.50539 -1.81300e-19
3684.97818 1.31654e-18
3686.45097 1.09821e-18
3687.92377 8.76987e-19
3689.38654 1.99173e-19
3690.85933 -7.48521e-19
3692.33213 5.62376e-19
3693.80492 1.91443e-18
3695.26769 1.46811e-18
3696.74049 4.60956e-19
3698.21328 5.97014e-19
3699.67605 -1.33944e-19
3701.14885 -1.11106e-18
3702.62164 -4.98385e-19
3704.09443 7.60697e-19
3705.55721 -4.88081e-19
3707.03000 -1.01013e-18
3708.50279 -7.58469e-20
3709.96557 1.77451e-20
3711.43836 8.85786e-19
3712.91115 1.73309e-18
3714.38395 8.48107e-19
3715.84672 8.74707e-19
3717.31951 9.01306e-19
3718.79231 9.08773e-19
3720.26510 9.16241e-19
3721.72787 9.23709e-19
3723.20067 9.31174e-19
3724.67346 9.38641e-19
3726.13623 9.46106e-19
3727.60903 9.53573e-19
3729.08182 9.61037e-19
3730.55461 9.68502e-19
3732.01739 9.75967e-19
3733.49018 9.83430e-19
3734.96297 9.90894e-19
3736.42575 9.98356e-19
3737.89854 1.00582e-18
3739.37133 1.01328e-18
3740.84413 1.02074e-18
3742.30690 1.02821e-18
3743.77969 1.03567e-18
3745.25248 1.04313e-18
3746.71526 1.05059e-18
3748.18805 1.05805e-18
3749.66085 1.06551e-18
3751.13364 1.07296e-18
3752.59641 1.08042e-18
3754.06920 1.08788e-18
3755.54200 1.06413e-18
3757.01479 1.19416e-18
3758.47757 2.26077e-18
3759.95036 1.36725e-18
3761.42315 8.41268e-19
3762.88593 1.65112e-18
3764.35872 1.26857e-18
3765.83151 1.08380e-18
3767.30430 1.74196e-18
3768.76708 1.97824e-18
3770.23987 1.25332e-18
3771.71266 1.17527e-18
3773.17544 2.57915e-18
3774.64823 1.83557e-18
3776.12102 1.58295e-18
3777.59382 1.79170e-18
3779.05659 2.14948e-18
3780.52938 2.15230e-18
3782.00218 1.88930e-18
3783.47497 1.11170e-18
3784.93774 1.95071e-18
3786.41054 1.79019e-18
3787.88333 2.29012e-18
3789.34610 2.85753e-18
3790.81890 2.39554e-18
3792.29169 2.75004e-18
3793.76448 2.51409e-18
3795.22726 1.02762e-18
3796.70005 2.63007e-18
3798.17284 3.25617e-18
3799.63562 2.29417e-18
3801.10841 2.83581e-18
3802.58120 3.03594e-18
3804.05400 2.17917e-18
3805.51677 3.33154e-18
3806.98956 3.12421e-18
3808.46236 3.41957e-18
3809.92513 3.60764e-18
3811.39792 4.04511e-18
3812.87072 3.83057e-18
3814.34351 3.91045e-18
3815.80628 4.44850e-18
3817.27908 3.33763e-18
3818.75187 2.77637e-18
3820.22466 2.83825e-18
3821.68744 3.53513e-18
3823.16023 2.90375e-18
3824.63302 2.98314e-18
3826.09580 3.81853e-18
3827.56859 4.03873e-18
3829.04138 3.53314e-18
3830.51418 4.12566e-18
3831.97695 4.80270e-18
3833.44974 4.05226e-18
3834.92254 4.03243e-18
3836.38531 3.90244e-18
3837.85810 3.67960e-18
3839.33090 5.58775e-18
3840.80369 5.58937e-18
3842.26646 5.04779e-18
3843.73925 5.12630e-18
3845.21205 3.95134e-18
3846.68484 4.09714e-18
3848.14761 4.75707e-18
3849.62041 4.67923e-18
3851.09320 3.98918e-18
3852.55598 3.80618e-18
3854.02877 3.88587e-18
3855.50156 4.34104e-18
3856.97435 3.61169e-18
3858.43713 3.50853e-18
3859.90992 4.33266e-18
3861.38271 3.44739e-18
3862.84549 4.25149e-18
3864.31828 4.89996e-18
3865.79107 3.86910e-18
3867.26387 4.13200e-18
3868.72664 4.43021e-18
3870.19943 3.54831e-18
3871.67223 3.76348e-18
3873.14502 3.72063e-18
3874.60779 3.26198e-18
3876.08059 3.33301e-18
3877.55338 3.62691e-18
3879.01615 4.59649e-18
3880.48895 4.59492e-18
3881.96174 4.31300e-18
3883.43453 4.40945e-18
3884.89731 3.92533e-18
3886.37010 3.79541e-18
3887.84289 3.81174e-18
3889.30567 4.29403e-18
3890.77846 4.75415e-18
3892.25125 3.94358e-18
3893.72405 3.98693e-18
3895.18682 4.02561e-18
3896.65961 3.86378e-18
3898.13241 4.43299e-18
3899.60520 4.63483e-18
3901.06797 5.18478e-18
3902.54077 3.87904e-18
3904.01356 4.87011e-18
3905.47633 5.06791e-18
3906.94913 4.28272e-18
3908.42192 4.88251e-18
3909.89471 5.11171e-18
3911.35749 4.39076e-18
3912.83028 3.81122e-18
3914.30307 4.29698e-18
3915.76585 4.70758e-18
3917.23864 3.75663e-18
3918.71143 4.46465e-18
3920.18422 3.66294e-18
3921.64700 4.40147e-18
3923.11979 5.20544e-18
3924.59259 5.33357e-18
3926.05536 6.21309e-18
3927.52815 5.08284e-18
3929.00095 4.44979e-18
3930.47374 4.94893e-18
3931.93651 4.91579e-18
3933.40930 5.07546e-18
3934.88210 5.60242e-18
3936.35489 5.13193e-18
3937.81767 5.30224e-18
3939.29046 4.80500e-18
3940.76325 4.90033e-18
3942.22602 5.97001e-18
3943.69882 6.39256e-18
3945.17161 5.68950e-18
3946.64440 5.02853e-18
3948.10718 5.63679e-18
3949.57997 5.60464e-18
3951.05276 4.90438e-18
3952.51554 4.74076e-18
3953.98833 5.56529e-18
3955.46112 6.09424e-18
3956.93392 5.43690e-18
3958.39669 5.83285e-18
3959.86948 5.47624e-18
3961.34228 5.45334e-18
3962.81507 5.91333e-18
3964.27784 6.89152e-18
3965.75064 5.99350e-18
3967.22343 5.16522e-18
3968.68620 5.81383e-18
3970.15900 6.88636e-18
3971.63179 6.88620e-18
3973.10458 6.85506e-18
3974.56736 6.82391e-18
3976.04015 6.79278e-18
3977.51294 6.76164e-18
3978.97572 6.73050e-18
3980.44851 6.69937e-18
3981.92130 6.66823e-18
3983.39410 6.63710e-18
3984.85687 6.60597e-18
3986.32966 6.57484e-18
3987.80246 6.54372e-18
3989.26523 6.51259e-18
3990.73802 6.48147e-18
3992.21082 6.45035e-18
3993.68361 6.41923e-18
3995.14638 6.38811e-18
3996.61918 6.35699e-18
3998.09197 6.32587e-18
3999.56476 6.29476e-18
4001.02754 6.26365e-18
4002.50033 6.23254e-18
4003.97312 6.20143e-18
4005.43590 6.17032e-18
4006.90869 6.13921e-18
4008.38148 6.10811e-18
4009.85428 6.07701e-18
4011.31705 6.04591e-18
4012.78984 6.37576e-18
4014.26264 5.37732e-18
4015.72541 5.53151e-18
4017.19820 5.50941e-18
4018.67100 5.62858e-18
4020.14379 4.86037e-18
4021.60656 5.11004e-18
4023.07935 5.45957e-18
4024.55215 4.87027e-18
4026.02494 4.29098e-18
4027.48771 4.75368e-18
4028.96051 6.22225e-18
4030.43330 4.92239e-18
4031.89608 4.64432e-18
4033.36887 5.69750e-18
4034.84166 4.40936e-18
4036.31445 4.48108e-18
4037.77723 4.47530e-18
4039.25002 4.60792e-18
4040.72281 4.76653e-18
4042.18559 4.35471e-18
4043.65838 3.80586e-18
4045.13117 3.71233e-18
4046.60397 3.71418e-18
4048.06674 4.07167e-18
4049.53953 3.93832e-18
4051.01233 3.88935e-18
4052.47510 3.66114e-18
4053.94789 3.73470e-18
4055.42069 3.82774e-18
4056.89348 3.48108e-18
4058.35625 3.81511e-18
4059.82905 3.69704e-18
4061.30184 3.13309e-18
4062.77463 3.12714e-18
4064.23741 2.89169e-18
4065.71020 3.06062e-18
4067.18299 3.73597e-18
4068.64577 3.77904e-18
4070.11856 3.05188e-18
4071.59135 3.21140e-18
4073.06415 3.22406e-18
4074.52692 2.64624e-18
4075.99971 2.71269e-18
4077.47251 3.35689e-18
4078.93528 3.57202e-18
4080.40807 3.30304e-18
4081.88087 2.49008e-18
4083.35366 2.86836e-18
4084.81643 2.10265e-18
4086.28923 2.37594e-18
4087.76202 3.16315e-18
4089.23481 2.59924e-18
4090.69759 2.85026e-18
4092.17038 3.01629e-18
4093.64317 3.23617e-18
4095.10595 3.14661e-18
4096.57874 2.50961e-18
4098.05153 2.93444e-18
4099.52433 3.56359e-18
4100.98710 3.46827e-18
4102.45989 2.93027e-18
4103.93268 3.06772e-18
4105.39546 4.21431e-18
4106.86825 3.90243e-18
4108.34105 3.57828e-18
4109.81384 3.34190e-18
4111.27661 3.64698e-18
4112.74940 3.50306e-18
4114.22220 2.70018e-18
4115.69499 3.46558e-18
4117.15777 3.23784e-18
4118.63056 3.67550e-18
4120.10335 3.70030e-18
4121.56613 2.62515e-18
4123.03892 2.85186e-18
4124.51171 3.80535e-18
4125.98450 3.42900e-18
4127.44728 3.60009e-18
4128.92007 3.88334e-18
4130.39286 3.46137e-18
4131.85564 3.87048e-18
4133.32843 3.83780e-18
4134.80122 2.60394e-18
4136.27402 3.57528e-18
4137.73679 3.70494e-18
4139.20958 2.99532e-18
4140.68238 3.73116e-18
4142.14515 4.42655e-18
4143.61794 4.07534e-18
4145.09074 3.94868e-18
4146.56353 4.62546e-18
4148.02630 4.36846e-18
4149.49910 4.57449e-18
4150.97189 4.02412e-18
4152.44468 4.61049e-18
4153.90746 4.23753e-18
4155.38025 4.06342e-18
4156.85304 4.98225e-18
4158.31582 4.44592e-18
4159.78861 3.94269e-18
4161.26140 4.01989e-18
4162.73420 4.91814e-18
4164.19697 4.79839e-18
4165.66976 4.97233e-18
4167.14256 5.14423e-18
4168.60533 4.41518e-18
4170.07812 4.63154e-18
4171.55092 4.74534e-18
4173.02371 5.17680e-18
4174.48648 4.63567e-18
4175.95928 5.06913e-18
4177.43207 5.27780e-18
4178.90486 5.90463e-18
4180.36764 4.74275e-18
4181.84043 5.44871e-18
4183.31322 5.53895e-18
4184.77600 5.78511e-18
4186.24879 6.22717e-18
4187.72158 5.90106e-18
4189.19438 6.36784e-18
4190.65715 6.07473e-18
4192.12994 5.55022e-18
4193.60273 6.23813e-18
4195.06551 6.36331e-18
4196.53830 6.33327e-18
4198.01109 6.50561e-18
4199.48389 6.19347e-18
4200.94666 5.98799e-18
4202.41946 6.91368e-18
4203.89225 7.51383e-18
4205.35502 6.80580e-18
4206.82782 7.53848e-18
4208.30061 7.68111e-18
4209.77340 6.20136e-18
4211.23618 6.78226e-18
4212.70897 7.53285e-18
4214.18176 6.98912e-18
4215.65455 7.01106e-18
4217.11733 7.74174e-18
4218.59012 7.63657e-18
4220.06291 7.69427e-18
4221.52569 7.77358e-18
4222.99848 7.30852e-18
4224.47127 6.88848e-18
4225.94407 7.24603e-18
4227.40684 7.84175e-18
4228.87963 7.45903e-18
4230.35243 8.23348e-18
4231.81520 7.90937e-18
4233.28799 6.82435e-18
4234.76079 7.52873e-18
4236.23358 7.28788e-18
4237.69635 6.91756e-18
4239.16915 7.25510e-18
4240.64194 7.55800e-18
4242.11473 7.28238e-18
4243.57751 7.76428e-18
4245.05030 8.04798e-18
4246.52309 7.56779e-18
4247.98587 7.07225e-18
4249.45866 7.05796e-18
4250.93145 8.54187e-18
4252.40425 7.51745e-18
4253.86702 6.62161e-18
4255.33981 7.34793e-18
4256.81261 7.34968e-18
4258.27538 7.76391e-18
4259.74817 7.34296e-18
4261.22097 6.75549e-18
4262.69376 7.10026e-18
4264.15653 7.14569e-18
4265.62933 6.90790e-18
4267.10212 7.43464e-18
4268.57491 7.14310e-18
4270.03769 7.33793e-18
4271.51048 7.52244e-18
4272.98327 7.55739e-18
4274.44605 6.64042e-18
4275.91884 7.62013e-18
4277.39163 8.08377e-18
4278.86442 7.41855e-18
4280.32720 8.24496e-18
4281.79999 7.63140e-18
4283.27279 7.34709e-18
4284.73556 7.48560e-18
4286.20835 6.72087e-18
4287.68115 6.81687e-18
4289.15394 7.14262e-18
4290.61671 6.64770e-18
4292.08950 7.03475e-18
4293.56230 7.23777e-18
4295.02507 8.14259e-18
4296.49787 6.78072e-18
4297.97066 7.29207e-18
4299.44345 7.42855e-18
4300.90622 7.21264e-18
4302.37902 6.56838e-18
4303.85181 6.36255e-18
4305.32460 6.90074e-18
4306.78738 6.92394e-18
4308.26017 7.11554e-18
4309.73296 7.58381e-18
4311.19574 7.55593e-18
4312.66853 7.16261e-18
4314.14132 6.14743e-18
4315.61412 7.40651e-18
4317.07689 6.79256e-18
4318.54968 6.53171e-18
4320.02248 6.95327e-18
4321.48525 7.58850e-18
4322.95804 7.06277e-18
4324.43084 5.99831e-18
4325.90363 6.64745e-18
4327.36640 6.55563e-18
4328.83920 6.35125e-18
4330.31199 6.90323e-18
4331.78478 6.96121e-18
4333.24756 7.22217e-18
4334.72035 7.22744e-18
4336.19314 7.75103e-18
4337.65592 6.76206e-18
4339.12871 6.63287e-18
4340.60150 6.67762e-18
4342.07430 7.68007e-18
4343.53707 7.26751e-18
4345.00986 7.20586e-18
4346.48266 7.81137e-18
4347.95545 8.64105e-18
4349.41822 7.98079e-18
4350.89102 6.78818e-18
4352.36381 7.95385e-18
4353.82658 7.98266e-18
4355.29938 8.01146e-18
4356.77217 8.04027e-18
4358.24496 8.06909e-18
4359.70774 8.09789e-18
4361.18053 8.12669e-18
4362.65332 8.15550e-18
4364.11610 8.18430e-18
4365.58889 8.21309e-18
4367.06168 8.24189e-18
4368.53448 8.27069e-18
4369.99725 8.29949e-18
4371.47004 8.32828e-18
4372.94283 8.35707e-18
4374.40561 8.38586e-18
4375.87840 8.41464e-18
4377.35120 8.44344e-18
4378.82399 8.47222e-18
4380.28676 8.50100e-18
4381.75955 8.52978e-18
4383.23235 8.55857e-18
4384.70514 8.58735e-18
4386.16791 8.61612e-18
4387.64071 8.64490e-18
4389.11350 8.67367e-18
4390.57628 8.70244e-18
4392.04907 8.01971e-18
4393.52186 7.78808e-18
4394.99465 7.83059e-18
4396.45743 8.09161e-18
4397.93022 7.78475e-18
4399.40301 8.30612e-18
4400.86579 8.64279e-18
4402.33858 7.89077e-18
4403.81137 7.95998e-18
4405.28417 7.67709e-18
4406.74694 7.64865e-18
4408.21973 8.55532e-18
4409.69253 8.50150e-18
4411.15530 8.01199e-18
4412.62809 8.71544e-18
4414.10089 8.66040e-18
4415.57368 7.92692e-18
4417.03645 7.99577e-18
4418.50925 8.95219e-18
4419.98204 9.06640e-18
4421.45483 8.03227e-18
4422.91761 8.24924e-18
4424.39040 8.28318e-18
4425.86319 7.48743e-18
4427.32597 7.91369e-18
4428.79876 7.38756e-18
4430.27155 7.49680e-18
4431.74435 8.06941e-18
4433.20712 8.31606e-18
4434.67991 7.49066e-18
4436.15271 6.96717e-18
4437.61548 8.03788e-18
4439.08827 8.55002e-18
4440.56107 7.83630e-18
4442.03386 7.82902e-18
4443.49663 7.81165e-18
4444.96943 8.37783e-18
4446.44222 7.98138e-18
4447.91501 7.17044e-18
4449.37779 7.97967e-18
4450.85058 8.00333e-18
4452.32337 7.85713e-18
4453.78615 8.33862e-18
4455.25894 8.59928e-18
4456.73173 8.51970e-18
4458.20453 8.27658e-18
4459.66730 7.76722e-18
4461.14009 7.31467e-18
4462.61288 6.85422e-18
4464.07566 6.76237e-18
4465.54845 7.13999e-18
4467.02124 7.39347e-18
4468.49404 6.84221e-18
4469.95681 6.35865e-18
4471.42961 7.55247e-18
4472.90240 7.61897e-18
4474.37519 7.04112e-18
4475.83797 6.26049e-18
4477.31076 6.32752e-18
4478.78355 6.90983e-18
4480.24633 7.30076e-18
4481.71912 6.64677e-18
4483.19191 6.02167e-18
4484.66470 6.11792e-18
4486.12748 5.97716e-18
4487.60027 6.18274e-18
4489.07306 5.58089e-18
4490.53584 5.91710e-18
4492.00863 5.98822e-18
4493.48142 4.96868e-18
4494.95422 5.27222e-18
4496.41699 5.41385e-18
4497.88978 5.35858e-18
4499.36258 4.84564e-18
4500.82535 4.66432e-18
4502.29814 5.39820e-18
4503.77094 4.85898e-18
4505.24373 4.40421e-18
4506.70650 4.48563e-18
4508.17930 4.82356e-18
4509.65209 5.01010e-18
4511.12488 4.58813e-18
4512.58766 3.84101e-18
4514.06045 3.93829e-18
4515.53324 4.32333e-18
4516.99602 4.36893e-18
4518.46881 4.09358e-18
4519.94160 3.83263e-18
4521.41440 3.64076e-18
4522.87717 3.69015e-18
4524.34996 4.14042e-18
4525.82276 4.30196e-18
4527.28553 3.67540e-18
4528.75832 3.39875e-18
4530.23112 3.77249e-18
4531.70391 3.72990e-18
4533.16668 3.03767e-18
4534.63948 3.32089e-18
4536.11227 3.17201e-18
4537.58506 3.06280e-18
4539.04784 3.31512e-18
4540.52063 3.44802e-18
4541.99342 3.52941e-18
4543.45620 3.32918e-18
4544.92899 3.04840e-18
4546.40178 2.71776e-18
4547.87457 3.18765e-18
4549.33735 2.85365e-18
4550.81014 2.70020e-18
4552.28293 3.38826e-18
4553.74571 3.17739e-18
4555.21850 2.93686e-18
4556.69130 3.10782e-18
4558.16409 3.69759e-18
4559.62686 3.12347e-18
4561.09965 2.97077e-18
4562.57245 3.17497e-18
4564.03522 3.26343e-18
4565.50802 3.00841e-18
4566.98081 3.20203e-18
4568.45360 3.31489e-18
4569.91637 3.81997e-18
4571.38917 3.60341e-18
4572.86196 3.10361e-18
4574.33475 2.63964e-18
4575.79753 2.54446e-18
4577.27032 3.31241e-18
4578.74311 3.09220e-18
4580.20589 2.77105e-18
4581.67868 2.90670e-18
4583.15147 3.26527e-18
4584.62427 3.22617e-18
4586.08704 3.81927e-18
4587.55983 3.30452e-18
4589.03263 3.37157e-18
4590.49540 3.81785e-18
4591.96819 3.62704e-18
4593.44099 3.02366e-18
4594.91378 3.21567e-18
4596.37655 3.75098e-18
4597.84935 3.28797e-18
4599.32214 3.32964e-18
4600.79493 3.67626e-18
4602.25771 3.48463e-18
4603.73050 3.75982e-18
4605.20329 3.74937e-18
4606.66607 3.99789e-18
4608.13886 4.35255e-18
4609.61165 4.24404e-18
4611.08445 4.17818e-18
4612.54722 4.91442e-18
4614.02001 4.12519e-18
4615.49281 3.17671e-18
4616.95558 3.43091e-18
4618.42837 4.59389e-18
4619.90117 4.99432e-18
4621.37396 4.56072e-18
4622.83673 4.76592e-18
4624.30953 4.90162e-18
4625.78232 4.31358e-18
4627.25511 5.03865e-18
4628.71789 5.16489e-18
4630.19068 5.74614e-18
4631.66347 5.12469e-18
4633.12625 5.41875e-18
4634.59904 6.04499e-18
4636.07183 6.27275e-18
4637.54463 5.51478e-18
4639.00740 5.65622e-18
4640.48019 6.47954e-18
4641.95298 6.78534e-18
4643.41576 6.64080e-18
4644.88855 6.56083e-18
4646.36135 6.45127e-18
4647.83414 6.48142e-18
4649.29691 6.65987e-18
4650.76970 6.73608e-18
4652.24250 6.94343e-18
4653.70527 7.12301e-18
4655.17807 7.06817e-18
4656.65086 7.42525e-18
4658.12365 7.29663e-18
4659.58643 7.89048e-18
4661.05922 7.51604e-18
4662.53201 6.82609e-18
4664.00480 6.70020e-18
4665.46758 7.26850e-18
4666.94037 7.97495e-18
4668.41316 8.15904e-18
4669.87594 8.08532e-18
4671.34873 8.24065e-18
4672.82152 8.46789e-18
4674.29432 7.79558e-18
4675.75709 7.89595e-18
4677.22988 8.30771e-18
4678.70268 8.76866e-18
4680.16545 8.77667e-18
4681.63824 9.05366e-18
4683.11104 8.60614e-18
4684.58383 8.48877e-18
4686.04660 9.43364e-18
4687.51940 8.82069e-18
4688.99219 8.24632e-18
4690.45496 8.99363e-18
4691.92776 9.22870e-18
4693.40055 8.88692e-18
4694.87334 9.07152e-18
4696.33612 9.55989e-18
4697.80891 9.49115e-18
4699.28170 9.40748e-18
4700.75450 9.19189e-18
4702.21727 9.30181e-18
4703.69006 9.30695e-18
4705.16286 9.65854e-18
4706.62563 9.35032e-18
4708.09842 9.47750e-18
4709.57122 9.43406e-18
4711.04401 9.61167e-18
4712.50678 1.03803e-17
4713.97958 1.04343e-17
4715.45237 1.02659e-17
4716.92516 1.04276e-17
4718.38794 1.04301e-17
4719.86073 1.03852e-17
4721.33352 1.03287e-17
4722.79630 1.04552e-17
4724.26909 1.07031e-17
4725.74188 1.08446e-17
4727.21468 1.08449e-17
4728.67745 1.05843e-17
4730.15024 1.10233e-17
4731.62303 1.07617e-17
4733.08581 1.04409e-17
4734.55860 1.03358e-17
4736.03139 1.03511e-17
4737.50419 1.02785e-17
4738.96696 1.06912e-17
4740.43976 1.13146e-17
4741.91255 1.16362e-17
4743.37532 1.17902e-17
4744.84812 1.16545e-17
4746.32091 1.20025e-17
4747.79370 1.13985e-17
4749.25648 1.08442e-17
4750.72927 1.11196e-17
4752.20206 1.10026e-17
4753.67485 1.10281e-17
4755.13763 1.07159e-17
4756.61042 1.02912e-17
4758.08321 1.02423e-17
4759.54599 1.11265e-17
4761.01878 1.13044e-17
4762.49157 1.10461e-17
4763.96437 1.12996e-17
4765.42714 1.08419e-17
4766.89993 1.06973e-17
4768.37273 1.11461e-17
4769.83550 1.11780e-17
4771.30829 1.19002e-17
4772.78109 1.13217e-17
4774.25388 1.04263e-17
4775.71665 1.10391e-17
4777.18945 1.16802e-17
4778.66224 1.15644e-17
4780.12501 1.19313e-17
4781.59781 1.16661e-17
4783.07060 1.09700e-17
4784.54339 1.10285e-17
4786.00617 1.09766e-17
4787.47896 1.13227e-17
4788.95175 1.13916e-17
4790.42455 1.13964e-17
4791.88732 1.10337e-17
4793.36011 1.06754e-17
4794.83291 1.13406e-17
4796.29568 1.16904e-17
4797.76847 1.15741e-17
4799.24127 1.13767e-17
4800.71406 1.10416e-17
4802.17683 1.09277e-17
4803.64963 1.08640e-17
4805.12242 1.15414e-17
4806.58519 1.19541e-17
4808.05799 1.12424e-17
4809.53078 1.11025e-17
4811.00357 1.20273e-17
4812.46635 1.21927e-17
4813.93914 1.13778e-17
4815.41193 1.14841e-17
4816.88472 1.22811e-17
4818.34750 1.23716e-17
4819.82029 1.20877e-17
4821.29308 1.28052e-17
4822.75586 1.28494e-17
4824.22865 1.19050e-17
4825.70145 1.15124e-17
4827.17424 1.19786e-17
4828.63701 1.27856e-17
4830.10981 1.26691e-17
4831.58260 1.20109e-17
4833.04537 1.19733e-17
4834.51817 1.18329e-17
4835.99096 1.19748e-17
4837.46375 1.22094e-17
4838.92652 1.28413e-17
4840.39932 1.34106e-17
4841.87211 1.28389e-17
4843.34490 1.26349e-17
4844.80768 1.25039e-17
4846.28047 1.24259e-17
4847.75326 1.24329e-17
4849.21604 1.26327e-17
4850.68883 1.24590e-17
4852.16162 1.21636e-17
4853.63442 1.21360e-17
4855.09719 1.21085e-17
4856.56998 1.20809e-17
4858.04278 1.20534e-17
4859.50555 1.20258e-17
4860.97834 1.19983e-17
4862.45114 1.19707e-17
4863.92393 1.19432e-17
4865.38670 1.19157e-17
4866.85950 1.18881e-17
4868.33229 1.18606e-17
4869.79506 1.18331e-17
4871.26786 1.18055e-17
4872.74065 1.17780e-17
4874.21344 1.17505e-17
4875.67622 1.17229e-17
4877.14901 1.16954e-17
4878.62180 1.16679e-17
4880.09460 1.16404e-17
4881.55737 1.16128e-17
4883.03016 1.15853e-17
4884.50296 1.15578e-17
4885.96573 1.15303e-17
4887.43852 1.15028e-17
4888.91132 1.14753e-17
4890.38411 1.18024e-17
4891.84688 1.19778e-17
4893.31968 1.14689e-17
4894.79247 1.14080e-17
4896.25524 1.19755e-17
4897.72804 1.19981e-17
4899.20083 1.15098e-17
4900.67362 1.14626e-17
4902.13640 1.19900e-17
4903.60919 1.20503e-17
4905.08198 1.15983e-17
4906.55477 1.12215e-17
4908.01755 1.18496e-17
4909.49034 1.22941e-17
4910.96313 1.20953e-17
4912.42591 1.19038e-17
4913.89870 1.13426e-17
4915.37150 1.08910e-17
4916.84429 1.12561e-17
4918.30706 1.12061e-17
4919.77985 1.10339e-17
4921.25265 1.15834e-17
4922.71542 1.14237e-17
4924.18822 1.11554e-17
4925.66101 1.09290e-17
4927.13380 1.12635e-17
4928.59658 1.19258e-17
4930.06937 1.14685e-17
4931.54216 1.11847e-17
4933.01495 1.15139e-17
4934.47773 1.16705e-17
4935.95052 1.13123e-17
4937.42331 1.09174e-17
4938.88609 1.11639e-17
4940.35888 1.16143e-17
4941.83167 1.12778e-17
4943.30447 1.07619e-17
4944.76724 1.10720e-17
4946.24003 1.14385e-17
4947.71283 1.19428e-17
4949.17560 1.22085e-17
4950.64839 1.21858e-17
4952.12119 1.21632e-17
4953.59398 1.21405e-17
4955.05675 1.21179e-17
4956.52955 1.20952e-17
4958.00234 1.20726e-17
4959.47513 1.20499e-17
4960.93791 1.20272e-17
4962.41070 1.20046e-17
4963.88349 1.19819e-17
4965.34627 1.19593e-17
4966.81906 1.19367e-17
4968.29185 1.19140e-17
4969.76465 1.18914e-17
4971.22742 1.18687e-17
4972.70021 1.18461e-17
4974.17301 1.18234e-17
4975.63578 1.18008e-17
4977.10857 1.17782e-17
4978.58137 1.17555e-17
4980.05416 1.17329e-17
4981.51693 1.17103e-17
4982.98973 1.16876e-17
4984.46252 1.16650e-17
4985.93531 1.16424e-17
4987.39809 1.16198e-17
4988.87088 1.17578e-17
4990.34367 1.19199e-17
4991.80645 1.13666e-17
4993.27924 1.11405e-17
4994.75203 1.16560e-17
4996.22483 1.21588e-17
4997.68760 1.21503e-17
4999.16039 1.21397e-17
5000.63318 1.21291e-17
5002.09596 1.21184e-17
5003.56875 1.21078e-17
5005.04155 1.20971e-17
5006.51434 1.20865e-17
5007.97711 1.20759e-17
5009.44990 1.20652e-17
5010.92270 1.20546e-17
5012.38547 1.20440e-17
5013.85827 1.20333e-17
5015.33106 1.20227e-17
5016.80385 1.20121e-17
5018.26663 1.20014e-17
5019.73942 1.19908e-17
5021.21221 1.19802e-17
5022.68500 1.19695e-17
5024.14778 1.19589e-17
5025.62057 1.19483e-17
5027.09336 1.19377e-17
5028.55614 1.19270e-17
5030.02893 1.19164e-17
5031.50172 1.19058e-17
5032.97452 1.18952e-17
5034.43729 1.18845e-17
5035.91008 1.18303e-17
5037.38288 1.17511e-17
5038.84565 1.17498e-17
5040.31844 1.18156e-17
5041.79124 1.20733e-17
5043.26403 1.22014e-17
5044.72680 1.24858e-17
5046.19960 1.25530e-17
5047.67239 1.18981e-17
5049.13516 1.18963e-17
5050.60796 1.21557e-17
5052.08075 1.18956e-17
5053.55354 1.18641e-17
5055.01632 1.19915e-17
5056.48911 1.11800e-17
5057.96190 1.20047e-17
5059.43470 1.24924e-17
5060.89747 1.16534e-17
5062.37026 1.15250e-17
5063.84306 1.18055e-17
5065.30583 1.22478e-17
5066.77862 1.23884e-17
5068.25142 1.23397e-17
5069.72421 1.20212e-17
5071.18698 1.16827e-17
5072.65978 1.22147e-17
5074.13257 1.23646e-17
5075.60536 1.23738e-17
5077.06814 1.25535e-17
5078.54093 1.19516e-17
5080.01372 1.14767e-17
5081.47650 1.13579e-17
5082.94929 1.15713e-17
5084.42208 1.22866e-17
5085.89487 1.30920e-17
5087.35765 1.25660e-17
5088.83044 1.21450e-17
5090.30323 1.24509e-17
5091.76601 1.22218e-17
5093.23880 1.18017e-17
5094.71160 1.19311e-17
5096.18439 1.22946e-17
5097.64716 1.21877e-17
5099.11996 1.23237e-17
5100.59275 1.19641e-17
5102.05552 1.21005e-17
5103.52832 1.25158e-17
5105.00111 1.29107e-17
5106.47390 1.28006e-17
5107.93667 1.25453e-17
5109.40947 1.22397e-17
5110.88226 1.25027e-17
5112.35505 1.28704e-17
5113.81783 1.21879e-17
5115.29062 1.22063e-17
5116.76341 1.27102e-17
5118.22619 1.30107e-17
5119.69898 1.28141e-17
5121.17177 1.22239e-17
5122.64457 1.23289e-17
5124.10734 1.22674e-17
5125.58013 1.25783e-17
5127.05293 1.31753e-17
5128.51570 1.28432e-17
5129.98849 1.25558e-17
5131.46129 1.26124e-17
5132.93408 1.23321e-17
5134.39685 1.26242e-17
5135.86965 1.24544e-17
5137.34244 1.26968e-17
5138.80521 1.32089e-17
5140.27801 1.25114e-17
5141.75080 1.24050e-17
5143.22359 1.20494e-17
5144.68637 1.24600e-17
5146.15916 1.32647e-17
5147.63195 1.28138e-17
5149.10475 1.27432e-17
5150.56752 1.28451e-17
5152.04031 1.31888e-17
5153.51311 1.28689e-17
5154.97588 1.28039e-17
5156.44867 1.28804e-17
5157.92147 1.25188e-17
5159.39426 1.26921e-17
5160.85703 1.28587e-17
5162.32983 1.33069e-17
5163.80262 1.33066e-17
5165.26539 1.30063e-17
5166.73819 1.33105e-17
5168.21098 1.34663e-17
5169.68377 1.31723e-17
5171.14655 1.28476e-17
5172.61934 1.26038e-17
5174.09213 1.26472e-17
5175.56492 1.33026e-17
5177.02770 1.33731e-17
5178.50049 1.30192e-17
5179.97329 1.23279e-17
5181.43606 1.31377e-17
5182.90885 1.31565e-17
5184.38165 1.26266e-17
5185.85444 1.26583e-17
5187.31721 1.28516e-17
5188.79000 1.28289e-17
5190.26280 1.30494e-17
5191.72557 1.32216e-17
5193.19837 1.37223e-17
5194.67116 1.35242e-17
5196.14395 1.28688e-17
5197.60672 1.28592e-17
5199.07952 1.32348e-17
5200.55231 1.33313e-17
5202.02510 1.31199e-17
5203.48788 1.32920e-17
5204.96067 1.29457e-17
5206.43346 1.30267e-17
5207.89624 1.24722e-17
5209.36903 1.24474e-17
5210.84182 1.27281e-17
5212.31462 1.26926e-17
5213.77739 1.33330e-17
5215.25018 1.33883e-17
5216.72298 1.31682e-17
5218.18575 1.31559e-17
5219.65854 1.33886e-17
5221.13134 1.33385e-17
5222.60413 1.29296e-17
5224.06690 1.35428e-17
5225.53970 1.39191e-17
5227.01249 1.34714e-17
5228.47526 1.29866e-17
5229.94806 1.33134e-17
5231.42085 1.31344e-17
5232.89364 1.30128e-17
5234.35642 1.31588e-17
5235.82921 1.37684e-17
5237.30200 1.35225e-17
5238.77480 1.31928e-17
5240.23757 1.33194e-17
5241.71036 1.34125e-17
5243.18316 1.37471e-17
5244.64593 1.34197e-17
5246.11872 1.29606e-17
5247.59152 1.24843e-17
5249.06431 1.30702e-17
5250.52708 1.35065e-17
5251.99988 1.33248e-17
5253.47267 1.30913e-17
5254.93544 1.26378e-17
5256.40824 1.28130e-17
5257.88103 1.31444e-17
5259.35382 1.24345e-17
5260.81660 1.27372e-17
5262.28939 1.32699e-17
5263.76218 1.29431e-17
5265.23498 1.28979e-17
5266.69775 1.29820e-17
5268.17054 1.30422e-17
5269.64333 1.31334e-17
5271.10611 1.32755e-17
5272.57890 1.28092e-17
5274.05170 1.26390e-17
5275.52449 1.23840e-17
5276.98726 1.22858e-17
5278.46005 1.32268e-17
5279.93285 1.36218e-17
5281.39562 1.30103e-17
5282.86842 1.29512e-17
5284.34121 1.30944e-17
5285.81400 1.25736e-17
5287.27678 1.22713e-17
5288.74957 1.24089e-17
5290.22236 1.27721e-17
5291.68513 1.26293e-17
5293.15793 1.24583e-17
5294.63072 1.30269e-17
5296.10351 1.28489e-17
5297.56629 1.30114e-17
5299.03908 1.31874e-17
5300.51187 1.27341e-17
5301.98467 1.29512e-17
5303.44744 1.28725e-17
5304.92023 1.23599e-17
5306.39303 1.19902e-17
5307.85580 1.25089e-17
5309.32859 1.30390e-17
5310.80139 1.23638e-17
5312.27418 1.21541e-17
5313.73695 1.26562e-17
5315.20975 1.29147e-17
5316.68254 1.28891e-17
5318.14531 1.27900e-17
5319.61811 1.27288e-17
5321.09090 1.25464e-17
5322.56369 1.26664e-17
5324.02647 1.27079e-17
5325.49926 1.25842e-17
5326.97205 1.25955e-17
5328.44485 1.27597e-17
5329.90762 1.29638e-17
5331.38041 1.29946e-17
5332.85321 1.30741e-17
5334.31598 1.24623e-17
5335.78877 1.23929e-17
5337.26157 1.31479e-17
5338.73436 1.30601e-17
5340.19713 1.25370e-17
5341.66993 1.27804e-17
5343.14272 1.30339e-17
5344.60549 1.26401e-17
5346.07829 1.26401e-17
5347.55108 1.28649e-17
5349.02387 1.28774e-17
5350.48665 1.24100e-17
5351.95944 1.24950e-17
5353.43223 1.30544e-17
5354.90503 1.30524e-17
5356.36780 1.26756e-17
5357.84059 1.28752e-17
5359.31338 1.26567e-17
5360.77616 1.27483e-17
5362.24895 1.26768e-17
5363.72174 1.23135e-17
5365.19454 1.24437e-17
5366.65731 1.27285e-17
5368.13011 1.34928e-17
5369.60290 1.29242e-17
5371.06567 1.25400e-17
5372.53847 1.27040e-17
5374.01126 1.27799e-17
5375.48405 1.23275e-17
5376.94682 1.26524e-17
5378.41962 1.34011e-17
5379.89241 1.26927e-17
5381.35518 1.22546e-17
5382.82798 1.22105e-17
5384.30077 1.28242e-17
5385.77356 1.32236e-17
5387.23634 1.30354e-17
5388.70913 1.30272e-17
5390.18192 1.28146e-17
5391.65472 1.25006e-17
5393.11749 1.30888e-17
5394.59028 1.29703e-17
5396.06308 1.25755e-17
5397.52585 1.26716e-17
5398.99864 1.26643e-17
5400.47144 1.25816e-17
5401.94423 1.30249e-17
5403.40700 1.27475e-17
5404.87980 1.33767e-17
5406.35259 1.35359e-17
5407.81536 1.34183e-17
5409.28816 1.27856e-17
5410.76095 1.22998e-17
5412.23374 1.20842e-17
5413.69652 1.25996e-17
5415.16931 1.22036e-17
5416.64210 1.24157e-17
5418.11490 1.27559e-17
5419.57767 1.29616e-17
5421.05046 1.25403e-17
5422.52326 1.19544e-17
5423.98603 1.26194e-17
5425.45882 1.25544e-17
5426.93162 1.25266e-17
5428.40441 1.24596e-17
5429.86718 1.27546e-17
5431.33998 1.22181e-17
5432.81277 1.23038e-17
5434.27554 1.23682e-17
5435.74834 1.27019e-17
5437.22113 1.26784e-17
5438.69392 1.29563e-17
5440.15670 1.27620e-17
5441.62949 1.25504e-17
5443.10228 1.24409e-17
5444.57507 1.19570e-17
5446.03785 1.25798e-17
5447.51064 1.25852e-17
5448.98344 1.29682e-17
5450.44621 1.27644e-17
5451.91900 1.21693e-17
5453.39180 1.18625e-17
5454.86459 1.21750e-17
5456.32736 1.20218e-17
5457.80015 1.19364e-17
5459.27295 1.20587e-17
5460.73572 1.22070e-17
5462.20852 1.23408e-17
5463.68131 1.25525e-17
5465.15410 1.25303e-17
5466.61687 1.21733e-17
5468.08967 1.24265e-17
5469.56246 1.19097e-17
5471.02524 1.25102e-17
5472.49803 1.21577e-17
5473.97082 1.17943e-17
5475.44361 1.21421e-17
5476.90639 1.24191e-17
5478.37918 1.26172e-17
5479.85197 1.25446e-17
5481.32477 1.27904e-17
5482.78754 1.18247e-17
5484.26033 1.17186e-17
5485.73313 1.23040e-17
5487.19590 1.21536e-17
5488.66869 1.12684e-17
5490.14149 1.15182e-17
5491.61428 1.13560e-17
5493.07705 1.18794e-17
5494.54985 1.19252e-17
5496.02264 1.22828e-17
5497.48541 1.13524e-17
5498.95821 1.20189e-17
5500.43100 1.19005e-17
5501.90379 1.10958e-17
5503.36657 1.11229e-17
5504.83936 1.19232e-17
5506.31215 1.13067e-17
5507.77493 1.14920e-17
5509.24772 1.22416e-17
5510.72051 1.17763e-17
5512.19331 1.16233e-17
5513.65608 1.22917e-17
5515.12887 1.15220e-17
5516.60167 1.16483e-17
5518.07446 1.15353e-17
5519.53723 1.17672e-17
5521.01003 1.22850e-17
5522.48282 1.17753e-17
5523.94559 1.19794e-17
5525.41839 1.14014e-17
5526.89118 1.15212e-17
5528.36397 1.20525e-17
5529.82675 1.20565e-17
5531.29954 1.22574e-17
5532.77233 1.20284e-17
5534.24513 1.16586e-17
5535.70790 1.18063e-17
5537.18069 1.21255e-17
5538.65348 1.16778e-17
5540.11626 1.18156e-17
5541.58905 1.15857e-17
5543.06185 1.16879e-17
5544.53464 1.20652e-17
5545.99741 1.15544e-17
5547.47020 1.12251e-17
5548.94300 1.14297e-17
5550.40577 1.21593e-17
5551.87857 1.22516e-17
5553.35136 1.19468e-17
5554.82415 1.20504e-17
5556.28693 1.19304e-17
5557.75972 1.18708e-17
5559.23251 1.20192e-17
5560.70530 1.20005e-17
5562.16808 1.13183e-17
5563.64087 1.13366e-17
5565.11366 1.22237e-17
5566.57644 1.17296e-17
5568.04923 1.21147e-17
5569.52202 1.22032e-17
5570.99482 1.19001e-17
5572.45759 1.19198e-17
5573.93038 1.19396e-17
5575.40318 1.19593e-17
5576.86595 1.19791e-17
5578.33874 1.19989e-17
5579.81154 1.19986e-17
5581.28433 1.21166e-17
5582.74710 1.20101e-17
5584.21990 1.14555e-17
5585.69269 1.19491e-17
5587.15546 1.20788e-17
5588.62826 1.16863e-17
5590.10105 1.16667e-17
5591.57384 1.16368e-17
5593.03662 1.15134e-17
5594.50941 1.18126e-17
5595.98220 1.13079e-17
5597.45500 1.11206e-17
5598.91777 1.20279e-17
5600.39056 1.17370e-17
5601.86336 1.10231e-17
5603.32613 1.14146e-17
5604.79892 1.14018e-17
5606.27172 1.14455e-17
5607.74451 1.14071e-17
5609.20728 1.08493e-17
5610.68008 1.11411e-17
5612.15287 1.12860e-17
5613.61564 1.12028e-17
5615.08844 1.12221e-17
5616.56123 1.10585e-17
5618.03402 1.13708e-17
5619.49680 1.11159e-17
5620.96959 1.08797e-17
5622.44238 1.10828e-17
5623.91518 1.09193e-17
5625.37795 1.11321e-17
5626.85074 1.11455e-17
5628.32353 1.10333e-17
5629.78631 1.09717e-17
5631.25910 1.05759e-17
5632.73189 1.12347e-17
5634.20469 1.15220e-17
5635.66746 1.10414e-17
5637.14026 1.05444e-17
5638.61305 1.02536e-17
5640.07582 1.01443e-17
5641.54862 1.05089e-17
5643.02141 1.06461e-17
5644.49420 1.05510e-17
5645.95698 1.08722e-17
5647.42977 1.04971e-17
5648.90256 1.09524e-17
5650.36533 1.05757e-17
5651.83813 1.05041e-17
5653.31092 1.08966e-17
5654.78371 1.12336e-17
5656.24649 1.13674e-17
5657.71928 1.10553e-17
5659.19207 1.09787e-17
5660.66487 1.06160e-17
5662.12764 1.05971e-17
5663.60043 1.11749e-17
5665.07323 1.13796e-17
5666.53600 1.10419e-17
5668.00879 1.11617e-17
5669.48159 1.08228e-17
5670.95438 1.09176e-17
5672.41715 1.11225e-17
5673.88995 1.13713e-17
5675.36274 1.10367e-17
5676.82551 1.17275e-17
5678.29831 1.13215e-17
5679.77110 1.17389e-17
5681.24389 1.10401e-17
5682.70667 1.10260e-17
5684.17946 1.17885e-17
5685.65225 1.14579e-17
5687.12505 1.11053e-17
5688.58782 1.13119e-17
5690.06061 1.22129e-17
5691.53341 1.18685e-17
5692.99618 1.18832e-17
5694.46897 1.11549e-17
5695.94177 1.08556e-17
5697.41456 1.11030e-17
5698.87733 1.17577e-17
5700.35013 1.16682e-17
5701.82292 1.14542e-17
5703.28569 1.15108e-17
5704.75849 1.12245e-17
5706.23128 1.14708e-17
5707.70407 1.16056e-17
5709.16685 1.14904e-17
5710.63964 1.14014e-17
5712.11243 1.18060e-17
5713.58522 1.32377e-17
5715.04800 1.19129e-17
5716.52079 1.17299e-17
5717.99358 1.25076e-17
5719.45636 1.23744e-17
5720.92915 1.20380e-17
5722.40195 1.17300e-17
5723.87474 1.22617e-17
5725.33751 1.19551e-17
5726.81030 1.28570e-17
5728.28310 1.27846e-17
5729.74587 1.28394e-17
5731.21867 1.24061e-17
5732.69146 1.18809e-17
5734.16425 1.23592e-17
5735.62702 1.29279e-17
5737.09982 1.24826e-17
5738.57261 1.18637e-17
5740.03539 1.21679e-17
5741.50818 1.24808e-17
5742.98097 1.27027e-17
5744.45376 1.23796e-17
5745.91654 1.22255e-17
5747.38933 1.24802e-17
5748.86212 1.25421e-17
5750.33492 1.22270e-17
5751.79769 1.27974e-17
5753.27048 1.28631e-17
5754.74328 1.29712e-17
5756.20605 1.31549e-17
5757.67884 1.28283e-17
5759.15164 1.25721e-17
5760.62443 1.30421e-17
5762.08720 1.27994e-17
5763.56000 1.28444e-17
5765.03279 1.27064e-17
5766.49556 1.27283e-17
5767.96836 1.21742e-17
5769.44115 1.17514e-17
5770.91394 1.24942e-17
5772.37672 1.26075e-17
5773.84951 1.24265e-17
5775.32230 1.25686e-17
5776.78508 1.23554e-17
5778.25787 1.25076e-17
5779.73066 1.29262e-17
5781.20346 1.25891e-17
5782.66623 1.23422e-17
5784.13902 1.24582e-17
5785.61182 1.28169e-17
5787.08461 1.29879e-17
5788.54738 1.24713e-17
5790.02018 1.17713e-17
5791.49297 1.16776e-17
5792.95574 1.18185e-17
5794.42854 1.17584e-17
5795.90133 1.25426e-17
5797.37412 1.26415e-17
5798.83690 1.24407e-17
5800.30969 1.25717e-17
5801.78248 1.27098e-17
5803.25528 1.26164e-17
5804.71805 1.21486e-17
5806.19084 1.20460e-17
5807.66363 1.23653e-17
5809.12641 1.24325e-17
5810.59920 1.21009e-17
5812.07200 1.18380e-17
5813.54479 1.19481e-17
5815.00756 1.20466e-17
5816.48035 1.22692e-17
5817.95315 1.25478e-17
5819.41592 1.22283e-17
5820.88872 1.20006e-17
5822.36151 1.25562e-17
5823.83430 1.25898e-17
5825.29708 1.19880e-17
5826.76987 1.18065e-17
5828.24266 1.18268e-17
5829.70543 1.22341e-17
5831.17823 1.25842e-17
5832.65102 1.21401e-17
5834.12381 1.18319e-17
5835.58659 1.22899e-17
5837.05938 1.19959e-17
5838.53217 1.17686e-17
5840.00497 1.22295e-17
5841.46774 1.22763e-17
5842.94053 1.20923e-17
5844.41333 1.22197e-17
5845.87610 1.25522e-17
5847.34889 1.22954e-17
5848.82169 1.23421e-17
5850.29448 1.21119e-17
5851.75725 1.16138e-17
5853.23005 1.22543e-17
5854.70284 1.24732e-17
5856.16561 1.19148e-17
5857.63841 1.19660e-17
5859.11120 1.21778e-17
5860.58399 1.17889e-17
5862.04677 1.20998e-17
5863.51956 1.27319e-17
5864.99235 1.26007e-17
5866.45513 1.23026e-17
5867.92792 1.22263e-17
5869.40071 1.21436e-17
5870.87351 1.22143e-17
5872.33628 1.23487e-17
5873.80907 1.20650e-17
5875.28187 1.17773e-17
5876.75466 1.12397e-17
5878.21743 1.17348e-17
5879.69023 1.21301e-17
5881.16302 1.20423e-17
5882.62579 1.21045e-17
5884.09859 1.23768e-17
5885.57138 1.20391e-17
5887.04417 1.11396e-17
5888.50695 1.16308e-17
5889.97974 1.22893e-17
5891.45253 1.16272e-17
5892.91531 1.15681e-17
5894.38810 1.15758e-17
5895.86089 1.16237e-17
5897.33368 1.13825e-17
5898.79646 1.08722e-17
5900.26925 1.02589e-17
5901.74204 1.00758e-17
5903.21484 1.01974e-17
5904.67761 1.00093e-17
5906.15041 9.25336e-18
5907.62320 9.27813e-18
5909.08597 9.43717e-18
5910.55877 1.06903e-17
5912.03156 1.12325e-17
5913.50435 1.17162e-17
5914.96713 1.20753e-17
5916.43992 1.17621e-17
5917.91271 1.19280e-17
5919.37548 1.08890e-17
5920.84828 1.09953e-17
5922.32107 1.11413e-17
5923.79386 1.10825e-17
5925.25664 1.05880e-17
5926.72943 1.05480e-17
5928.20222 1.10749e-17
5929.67502 1.03380e-17
5931.13779 1.00120e-17
5932.61058 9.74904e-18
5934.08338 1.00382e-17
5935.54615 9.83502e-18
5937.01894 9.42514e-18
5938.49174 9.84598e-18
5939.96453 9.08200e-18
5941.42730 8.83721e-18
5942.90010 8.92104e-18
5944.37289 9.16409e-18
5945.83566 8.84333e-18
5947.30846 8.47826e-18
5948.78125 8.38070e-18
5950.25404 7.84050e-18
5951.71682 8.16440e-18
5953.18961 8.10434e-18
5954.66240 8.33709e-18
5956.12518 8.01563e-18
5957.59797 8.02381e-18
5959.07076 8.35710e-18
5960.54356 7.82642e-18
5962.00633 7.61601e-18
5963.47912 7.68434e-18
5964.95192 7.69650e-18
5966.42471 7.29591e-18
5967.88748 7.12595e-18
5969.36028 7.62951e-18
5970.83307 7.72569e-18
5972.29584 7.13005e-18
5973.76864 6.95887e-18
5975.24143 7.06149e-18
5976.71422 6.92538e-18
5978.17700 6.65579e-18
5979.64979 6.69637e-18
5981.12258 6.42044e-18
5982.58536 6.07292e-18
5984.05815 6.24956e-18
5985.53094 6.29427e-18
5987.00373 6.45165e-18
5988.46651 6.50692e-18
5989.93930 6.00628e-18
5991.41210 5.95245e-18
5992.88489 6.41755e-18
5994.34766 6.09322e-18
5995.82046 6.01776e-18
5997.29325 5.87624e-18
5998.75602 5.65254e-18
6000.22882 5.48380e-18
6001.70161 5.50980e-18
6003.17440 5.74720e-18
6004.63717 5.54891e-18
6006.10997 5.29807e-18
6007.58276 5.09782e-18
6009.04553 4.94682e-18
6010.51833 4.88668e-18
6011.99112 4.58808e-18
6013.46391 4.42347e-18
6014.92669 4.91718e-18
6016.39948 5.19337e-18
6017.87227 4.42738e-18
6019.33505 4.09146e-18
6020.80784 4.42144e-18
6022.28063 4.38477e-18
6023.75343 4.22807e-18
6025.21620 3.98164e-18
6026.68899 4.22143e-18
6028.16179 4.50429e-18
6029.63458 4.60158e-18
6031.09735 4.66980e-18
6032.57015 4.03017e-18
6034.04294 4.07773e-18
6035.50571 4.46635e-18
6036.97851 4.17029e-18
6038.45130 4.14939e-18
6039.92409 4.13562e-18
6041.38687 4.00999e-18
6042.85966 3.94784e-18
6044.33245 3.81743e-18
6045.79523 3.64684e-18
6047.26802 3.24853e-18
6048.74081 3.37848e-18
6050.21361 3.56162e-18
6051.67638 3.32267e-18
6053.14917 3.24561e-18
6054.62197 3.48171e-18
6056.09476 3.61705e-18
6057.55753 3.54873e-18
6059.03033 3.64972e-18
6060.50312 3.47004e-18
6061.96589 3.27762e-18
6063.43869 3.40005e-18
6064.91148 3.55061e-18
6066.38427 3.55706e-18
6067.84705 3.24512e-18
6069.31984 3.30898e-18
6070.79263 3.50201e-18
6072.25541 3.23544e-18
6073.72820 3.09471e-18
6075.20099 3.15071e-18
6076.67378 3.28205e-18
6078.13656 3.42880e-18
6079.60935 3.52809e-18
6081.08215 3.15834e-18
6082.55494 3.33874e-18
6084.01771 3.29796e-18
6085.49050 3.26716e-18
6086.96330 3.11940e-18
6088.42607 3.07436e-18
6089.89887 3.51939e-18
6091.37166 3.98595e-18
6092.84445 3.74688e-18
6094.30723 3.36376e-18
6095.78002 3.35229e-18
6097.25281 3.42055e-18
6098.71558 3.67335e-18
6100.18838 3.74830e-18
6101.66117 3.80590e-18
6103.13396 3.98996e-18
6104.59674 4.05900e-18
6106.06953 3.64420e-18
6107.54232 3.66487e-18
6109.00510 3.69325e-18
6110.47789 3.78768e-18
6111.95068 3.72638e-18
6113.42348 3.42550e-18
6114.88625 3.75088e-18
6116.35904 4.09366e-18
6117.83184 4.40998e-18
6119.30463 4.25760e-18
6120.76740 4.18458e-18
6122.24020 4.53580e-18
6123.71299 4.04080e-18
6125.17576 3.71108e-18
6126.64856 3.99622e-18
6128.12135 4.35785e-18
6129.59414 4.31036e-18
6131.05692 4.31129e-18
6132.52971 4.55274e-18
6134.00250 4.75399e-18
6135.46528 4.56241e-18
6136.93807 4.71595e-18
6138.41086 4.67039e-18
6139.88366 4.64152e-18
6141.34643 4.77767e-18
6142.81922 4.91411e-18
6144.29202 4.81028e-18
6145.76481 4.94331e-18
6147.22758 5.18226e-18
6148.70038 5.08263e-18
6150.17317 4.79284e-18
6151.63594 4.63553e-18
6153.10874 5.10238e-18
6154.58153 5.37987e-18
6156.05432 5.64308e-18
6157.51710 6.09515e-18
6158.98989 6.36280e-18
6160.46268 5.99239e-18
6161.93548 5.66207e-18
6163.39825 5.58754e-18
6164.87104 5.66415e-18
6166.34383 5.87292e-18
6167.80661 5.91079e-18
6169.27940 6.14800e-18
6170.75220 5.85518e-18
6172.22499 5.75173e-18
6173.68776 6.36201e-18
6175.16055 6.45407e-18
6176.63335 6.10395e-18
6178.09612 6.34720e-18
6179.56892 6.38591e-18
6181.04171 6.55919e-18
6182.51450 6.80803e-18
6183.97728 6.48796e-18
6185.45007 6.58955e-18
6186.92286 6.76911e-18
6188.38563 6.78885e-18
6189.85843 6.89074e-18
6191.33122 6.77399e-18
6192.80401 7.02390e-18
6194.26679 7.72519e-18
6195.73958 8.05614e-18
6197.21237 7.73597e-18
6198.68517 7.50383e-18
6200.14794 7.46960e-18
6201.62073 7.68837e-18
6203.09353 7.70047e-18
6204.55630 7.73555e-18
6206.02909 8.40923e-18
6207.50189 8.32190e-18
6208.97468 8.08428e-18
6210.43745 8.18751e-18
6211.91025 8.11728e-18
6213.38304 8.45520e-18
6214.84581 8.55058e-18
6216.31861 8.17058e-18
6217.79140 7.91652e-18
6219.26419 8.57347e-18
6220.72697 9.42848e-18
6222.19976 9.09217e-18
6223.67255 8.63852e-18
6225.13533 8.84226e-18
6226.60812 9.57698e-18
6228.08091 9.78367e-18
6229.55371 9.32835e-18
6231.01648 9.51079e-18
6232.48927 9.93519e-18
6233.96207 1.01560e-17
6235.43486 1.00871e-17
6236.89763 1.01360e-17
6238.37043 1.02160e-17
6239.84322 1.01031e-17
6241.30599 1.04873e-17
6242.77879 1.06404e-17
6244.25158 1.02830e-17
6245.72437 1.07343e-17
6247.18715 1.13545e-17
6248.65994 1.11675e-17
6250.13273 1.11744e-17
6251.59551 1.14335e-17
6253.06830 1.15677e-17
6254.54109 1.16322e-17
6256.01388 1.16277e-17
6257.47666 1.18935e-17
6258.94945 1.22340e-17
6260.42225 1.22464e-17
6261.89504 1.24335e-17
6263.35781 1.24865e-17
6264.83061 1.26118e-17
6266.30340 1.32595e-17
6267.76617 1.31821e-17
6269.23897 1.25410e-17
6270.71176 1.27821e-17
6272.18455 1.30062e-17
6273.64732 1.29024e-17
6275.12012 1.33177e-17
6276.59291 1.37192e-17
6278.05568 1.36030e-17
6279.52848 1.37689e-17
6281.00127 1.37423e-17
6282.47406 1.33404e-17
6283.93684 1.35608e-17
6285.40963 1.38069e-17
6286.88242 1.35885e-17
6288.35522 1.34256e-17
6289.81799 1.32035e-17
6291.29078 1.38906e-17
6292.76358 1.46865e-17
6294.22635 1.41951e-17
6295.69914 1.40434e-17
6297.17194 1.41779e-17
6298.64473 1.41266e-17
6300.10750 1.48311e-17
6301.58030 1.55303e-17
6303.05309 1.51180e-17
6304.51586 1.48580e-17
6305.98866 1.54020e-17
6307.46145 1.57933e-17
6308.93424 1.56878e-17
6310.39702 1.56567e-17
6311.86981 1.58867e-17
6313.34260 1.58321e-17
6314.80538 1.57525e-17
6316.27817 1.58225e-17
6317.75096 1.60394e-17
6319.22376 1.61845e-17
6320.68653 1.63391e-17
6322.15932 1.61624e-17
6323.63212 1.60286e-17
6325.10491 1.64340e-17
6326.56768 1.67821e-17
6328.04048 1.69624e-17
6329.51327 1.64015e-17
6330.97604 1.59713e-17
6332.44884 1.65856e-17
6333.92163 1.70394e-17
6335.39442 1.71328e-17
6336.85720 1.72942e-17
6338.32999 1.71896e-17
6339.80278 1.71867e-17
6341.26556 1.66501e-17
6342.73835 1.69589e-17
6344.21114 1.79408e-17
6345.68394 1.74717e-17
6347.14671 1.73142e-17
6348.61950 1.77649e-17
6350.09230 1.82966e-17
6351.56509 1.90074e-17
6353.02786 1.87081e-17
6354.50065 1.81828e-17
6355.97345 1.79570e-17
6357.43622 1.78734e-17
6358.90902 1.81022e-17
6360.38181 1.80381e-17
6361.85460 1.83572e-17
6363.31737 1.83590e-17
6364.79017 1.84182e-17
6366.26296 1.86294e-17
6367.72573 1.83178e-17
6369.19853 1.80652e-17
6370.67132 1.82719e-17
6372.14411 1.86329e-17
6373.60689 1.85581e-17
6375.07968 1.83651e-17
6376.55247 1.83035e-17
6378.01525 1.86136e-17
6379.48804 1.90880e-17
6380.96083 1.90713e-17
6382.43363 1.87635e-17
6383.89640 1.87633e-17
6385.36919 1.87458e-17
6386.84199 1.87284e-17
6388.31478 1.87110e-17
6389.77755 1.86935e-17
6391.25035 1.86761e-17
6392.72314 1.86587e-17
6394.18591 1.87751e-17
6395.65871 1.86410e-17
6397.13150 1.84536e-17
6398.60429 1.81651e-17
6400.06707 1.80202e-17
6401.53986 1.86373e-17
6403.01265 1.89123e-17
6404.47543 1.87786e-17
6405.94822 1.88244e-17
6407.42101 1.86909e-17
6408.89381 1.88090e-17
6410.35658 1.88532e-17
6411.82937 1.86535e-17
6413.30217 1.86288e-17
6414.77496 1.89452e-17
6416.23773 1.95458e-17
6417.71053 1.95257e-17
6419.18332 1.90215e-17
6420.64609 1.89474e-17
6422.11889 1.86040e-17
6423.59168 1.79814e-17
6425.06447 1.83776e-17
6426.52725 1.91077e-17
6428.00004 1.87636e-17
6429.47283 1.85431e-17
6430.93561 1.88813e-17
6432.40840 1.87061e-17
6433.88119 1.84431e-17
6435.35398 1.89031e-17
6436.81676 1.94242e-17
6438.28955 1.87549e-17
6439.76235 1.88019e-17
6441.23514 1.94332e-17
6442.69791 1.91540e-17
6444.17070 1.89886e-17
6445.64350 1.95125e-17
6447.10627 1.95431e-17
6448.57907 1.94290e-17
6450.05186 1.92848e-17
6451.52465 1.91238e-17
6452.98743 1.90214e-17
6454.46022 1.89980e-17
6455.93301 1.87425e-17
6457.39578 1.80927e-17
6458.86858 1.80179e-17
6460.34137 1.88916e-17
6461.81416 1.92896e-17
6463.27694 1.86571e-17
6464.74973 1.84932e-17
6466.22252 1.90470e-17
6467.68530 1.90675e-17
6469.15809 1.89268e-17
6470.63088 1.88901e-17
6472.10368 1.92553e-17
6473.56645 1.94141e-17
6475.03924 1.90426e-17
6476.51204 1.87703e-17
6477.98483 1.92043e-17
6479.44760 1.92099e-17
6480.92040 1.94961e-17
6482.39319 2.02761e-17
6483.85596 1.91894e-17
6485.32876 1.87372e-17
6486.80155 1.90713e-17
6488.27434 1.90231e-17
6489.73712 1.92633e-17
6491.20991 1.92531e-17
6492.68270 1.91319e-17
6494.14548 1.93371e-17
6495.61827 1.91862e-17
6497.09106 1.93922e-17
6498.56386 1.90808e-17
6500.02663 1.87876e-17
6501.49942 1.91504e-17
6502.97222 1.95250e-17
6504.43499 1.91861e-17
6505.90778 1.85620e-17
6507.38058 1.89483e-17
6508.85337 1.92139e-17
6510.31614 1.96910e-17
6511.78894 1.99374e-17
6513.26173 1.97050e-17
6514.73452 1.94827e-17
6516.19730 1.98315e-17
6517.67009 1.96095e-17
6519.14288 1.90948e-17
6520.60566 1.91782e-17
6522.07845 1.89833e-17
6523.55124 1.90976e-17
6525.02403 1.91724e-17
6526.48681 1.92912e-17
6527.95960 1.89954e-17
6529.43239 1.90092e-17
6530.90519 1.87833e-17
6532.36796 1.93953e-17
6533.84076 1.91897e-17
6535.31355 1.82314e-17
6536.77632 1.85901e-17
6538.24912 1.96595e-17
6539.72191 1.93078e-17
6541.19470 1.88890e-17
6542.65747 1.94361e-17
6544.13027 1.92545e-17
6545.60306 1.92497e-17
6547.06583 1.92450e-17
6548.53863 1.92402e-17
6550.01142 1.92355e-17
6551.48421 1.92308e-17
6552.94699 1.92260e-17
6554.41978 1.92213e-17
6555.89257 1.92165e-17
6557.35535 1.92118e-17
6558.82814 1.92071e-17
6560.30093 1.92023e-17
6561.77373 1.91976e-17
6563.23650 1.91929e-17
6564.70929 1.91881e-17
6566.18209 1.91834e-17
6567.65488 1.91786e-17
6569.11765 1.91739e-17
6570.59045 1.91692e-17
6572.06324 1.91644e-17
6573.52601 1.91597e-17
6574.99881 1.91550e-17
6576.47160 1.91502e-17
6577.94439 1.91455e-17
6579.40717 1.91408e-17
6580.87996 1.91360e-17
6582.35275 1.91313e-17
6583.81553 1.91266e-17
6585.28832 1.91218e-17
6586.76111 1.91171e-17
6588.23391 1.91124e-17
6589.69668 1.91076e-17
6591.16947 1.91029e-17
6592.64227 1.90982e-17
6594.10504 1.90934e-17
6595.57783 1.90887e-17
6597.05063 1.90840e-17
6598.52342 1.90792e-17
6599.98619 1.90745e-17
6601.45899 1.90698e-17
6602.93178 1.90650e-17
6604.40457 1.90603e-17
6605.86735 1.90556e-17
6607.34014 1.84980e-17
6608.81293 1.78327e-17
6610.27571 1.76736e-17
6611.74850 1.80563e-17
6613.22129 1.82693e-17
6614.69409 1.80244e-17
6616.15686 1.80834e-17
6617.62965 1.83423e-17
6619.10245 1.87452e-17
6620.56522 1.84352e-17
6622.03801 1.75899e-17
6623.51080 1.71088e-17
6624.98360 1.75436e-17
6626.44637 1.80933e-17
6627.91917 1.76224e-17
6629.39196 1.68285e-17
6630.86475 1.76327e-17
6632.32752 1.77034e-17
6633.80032 1.68897e-17
6635.27311 1.69133e-17
6636.73589 1.69618e-17
6638.20868 1.74191e-17
6639.68147 1.75494e-17
6641.15426 1.71869e-17
6642.61704 1.70801e-17
6644.08983 1.71560e-17
6645.56262 1.71172e-17
6647.02540 1.70521e-17
6648.49819 1.72228e-17
6649.97098 1.78417e-17
6651.44378 1.82560e-17
6652.90655 1.73930e-17
6654.37934 1.72498e-17
6655.85214 1.74307e-17
6657.32493 1.69181e-17
6658.78770 1.69916e-17
6660.26050 1.66003e-17
6661.73329 1.68605e-17
6663.19606 1.67174e-17
6664.66886 1.64880e-17
6666.14165 1.65874e-17
6667.61444 1.64732e-17
6669.07722 1.65317e-17
6670.55001 1.61391e-17
6672.02280 1.61509e-17
6673.48558 1.71634e-17
6674.95837 1.66856e-17
6676.43116 1.67777e-17
6677.90396 1.67393e-17
6679.36673 1.62911e-17
6680.83952 1.63976e-17
6682.31232 1.63163e-17
6683.77509 1.72604e-17
6685.24788 1.74423e-17
6686.72068 1.69938e-17
6688.19347 1.68564e-17
6689.65624 1.69532e-17
6691.12904 1.67116e-17
6692.60183 1.65155e-17
6694.07462 1.59163e-17
6695.53740 1.55892e-17
6697.01019 1.56269e-17
6698.48298 1.56387e-17
6699.94576 1.57179e-17
6701.41855 1.59299e-17
6702.89134 1.58242e-17
6704.36413 1.55705e-17
6705.82691 1.51348e-17
6707.29970 1.50198e-17
6708.77250 1.56369e-17
6710.24529 1.57826e-17
6711.70806 1.62595e-17
6713.18085 1.58085e-17
6714.65365 1.50741e-17
6716.11642 1.57543e-17
6717.58922 1.59550e-17
6719.06201 1.58811e-17
6720.53480 1.59811e-17
6721.99758 1.60885e-17
6723.47037 1.61194e-17
6724.94316 1.65970e-17
6726.40593 1.57071e-17
6727.87873 1.50233e-17
6729.35152 1.46811e-17
6730.82431 1.46747e-17
6732.28709 1.51270e-17
6733.75988 1.56128e-17
6735.23267 1.59229e-17
6736.69545 1.57633e-17
6738.16824 1.48892e-17
6739.64103 1.42755e-17
6741.11383 1.44340e-17
6742.57660 1.41528e-17
6744.04939 1.39559e-17
6745.52219 1.37751e-17
6746.99498 1.39785e-17
6748.45775 1.49582e-17
6749.93055 1.51036e-17
6751.40334 1.53522e-17
6752.86611 1.53591e-17
6754.33891 1.50484e-17
6755.81170 1.46790e-17
6757.28449 1.50151e-17
6758.74727 1.54621e-17
6760.22006 1.56580e-17
6761.69285 1.52758e-17
6763.15563 1.48548e-17
6764.62842 1.53163e-17
6766.10121 1.56629e-17
6767.57401 1.51656e-17
6769.03678 1.51447e-17
6770.50957 1.42851e-17
6771.98237 1.43109e-17
6773.45516 1.49835e-17
6774.91793 1.48324e-17
6776.39073 1.37151e-17
6777.86352 1.37597e-17
6779.32629 1.40112e-17
6780.79909 1.41163e-17
6782.27188 1.39654e-17
6783.74467 1.35766e-17
6785.20745 1.35550e-17
6786.68024 1.36220e-17
6788.15303 1.39114e-17
6789.61581 1.33738e-17
6791.08860 1.36556e-17
6792.56139 1.37282e-17
6794.03418 1.34744e-17
6795.49696 1.39051e-17
6796.96975 1.41306e-17
6798.44254 1.40742e-17
6799.91534 1.40127e-17
6801.37811 1.32568e-17
6802.85091 1.30833e-17
6804.32370 1.34879e-17
6805.78647 1.39583e-17
6807.25927 1.42344e-17
6808.73206 1.38832e-17
6810.20485 1.39831e-17
6811.66763 1.46627e-17
6813.14042 1.41756e-17
6814.61321 1.34340e-17
6816.07598 1.35178e-17
6817.54878 1.39168e-17
6819.02157 1.40785e-17
6820.49436 1.34500e-17
6821.95714 1.30105e-17
6823.42993 1.34041e-17
6824.90272 1.30965e-17
6826.36550 1.29620e-17
6827.83829 1.29982e-17
6829.31108 1.30635e-17
6830.78388 1.32133e-17
6832.24665 1.27225e-17
6833.71944 1.28708e-17
6835.19224 1.25981e-17
6836.66503 1.24365e-17
6838.12780 1.26607e-17
6839.60060 1.25184e-17
6841.07339 1.24575e-17
6842.53616 1.25388e-17
6844.00896 1.27200e-17
6845.48175 1.29001e-17
6846.95454 1.34731e-17
6848.41732 1.33422e-17
6849.89011 1.28251e-17
6851.36290 1.29772e-17
6852.82568 1.30939e-17
6854.29847 1.27709e-17
6855.77126 1.27463e-17
6857.24406 1.28364e-17
6858.70683 1.34764e-17
6860.17962 1.33893e-17
6861.65242 1.29535e-17
6863.11519 1.25377e-17
6864.58798 1.22454e-17
6866.06078 1.27895e-17
6867.53357 1.26753e-17
6868.99634 1.24246e-17
6870.46914 1.26853e-17
6871.94193 1.22255e-17
6873.41472 1.23312e-17
6874.87750 1.29104e-17
6876.35029 1.23269e-17
6877.82308 1.21607e-17
6879.28586 1.25976e-17
6880.75865 1.25803e-17
6882.23144 1.24042e-17
6883.70424 1.23660e-17
6885.16701 1.21056e-17
6886.63980 1.20727e-17
6888.11260 1.28165e-17
6889.58539 1.22660e-17
6891.04816 1.18460e-17
6892.52095 1.21591e-17
6893.99375 1.26244e-17
6895.45652 1.27301e-17
6896.92932 1.25014e-17
6898.40211 1.27075e-17
6899.87490 1.27244e-17
6901.33767 1.26623e-17
6902.81047 1.32625e-17
6904.28326 1.24726e-17
6905.74604 1.30956e-17
6907.21883 1.27666e-17
6908.69162 1.23763e-17
6910.16441 1.31407e-17
6911.62719 1.26583e-17
6913.09998 1.30411e-17
6914.57277 1.24434e-17
6916.03555 1.26545e-17
6917.50834 1.20189e-17
6918.98113 1.14051e-17
6920.45393 1.24885e-17
6921.91670 1.30593e-17
6923.38949 1.22664e-17
6924.86229 1.25804e-17
6926.33508 1.22549e-17
6927.79785 1.23193e-17
6929.27065 1.20076e-17
6930.74344 1.20313e-17
6932.20621 1.20254e-17
6933.67901 1.22947e-17
6935.15180 1.19863e-17
6936.62459 1.27020e-17
6938.08737 1.20450e-17
6939.56016 1.16129e-17
6941.03295 1.19396e-17
6942.49573 1.19325e-17
6943.96852 1.20504e-17
6945.44131 1.16751e-17
6946.91411 1.10761e-17
6948.37688 1.17198e-17
6949.84967 1.17858e-17
6951.32247 1.15594e-17
6952.78524 1.14555e-17
6954.25803 1.13837e-17
6955.73083 1.14810e-17
6957.20362 1.14526e-17
6958.66639 1.20185e-17
6960.13919 1.17820e-17
6961.61198 1.13235e-17
6963.08477 1.15066e-17
6964.54755 1.14451e-17
6966.02034 1.22241e-17
6967.49313 1.26099e-17
6968.95591 1.17342e-17
6970.42870 1.18065e-17
6971.90149 1.17905e-17
6973.37428 1.16374e-17
6974.83706 1.16627e-17
6976.30985 1.10685e-17
6977.78265 1.17762e-17
6979.24542 1.17842e-17
6980.71821 1.14210e-17
6982.19100 1.12799e-17
6983.66380 1.11512e-17
6985.12657 1.07581e-17
6986.59937 1.08071e-17
6988.07216 1.14027e-17
6989.54495 1.12971e-17
6991.00773 1.07622e-17
6992.48052 1.15769e-17
6993.95331 1.18715e-17
6995.41608 1.17861e-17
6996.88888 1.14248e-17
6998.36167 1.18843e-17
6999.83446 1.10192e-17
7001.29724 1.12821e-17
7002.77003 1.15668e-17
7004.24282 1.15255e-17
7005.70560 1.08904e-17
7007.17839 1.15216e-17
7008.65118 1.12691e-17
7010.12398 1.18104e-17
7011.58675 1.10801e-17
7013.05954 1.05434e-17
7014.53234 1.12398e-17
7016.00513 1.18871e-17
7017.46790 1.05126e-17
7018.94070 1.03828e-17
7020.41349 1.07451e-17
7021.87626 1.05183e-17
7023.34906 1.06125e-17
7024.82185 1.02078e-17
7026.29464 1.05462e-17
7027.75742 1.07992e-17
7029.23021 1.04602e-17
7030.70300 1.07000e-17
7032.16578 1.05581e-17
7033.63857 1.06169e-17
7035.11136 1.05569e-17
7036.58416 1.09369e-17
7038.04693 1.08858e-17
7039.51972 1.07144e-17
7040.99252 1.04406e-17
7042.45529 1.05066e-17
7043.92808 1.10841e-17
7045.40088 1.05806e-17
7046.87367 1.02695e-17
7048.33644 1.01946e-17
7049.80924 9.97231e-18
7051.28203 1.05647e-17
7052.75482 1.09168e-17
7054.21760 1.04860e-17
7055.69039 1.00232e-17
7057.16318 1.00192e-17
7058.62596 1.03581e-17
7060.09875 1.04248e-17
7061.57154 1.00189e-17
7063.04433 1.05115e-17
7064.50711 1.05626e-17
7065.97990 1.01221e-17
7067.45269 1.07114e-17
7068.91547 1.06690e-17
7070.38826 9.78840e-18
7071.86106 1.01806e-17
7073.33385 1.05875e-17
7074.79662 1.04974e-17
7076.26942 1.06050e-17
7077.74221 1.03937e-17
7079.21500 1.01219e-17
7080.67778 9.94725e-18
7082.15057 9.98421e-18
7083.62336 9.77602e-18
7085.08613 1.00796e-17
7086.55893 1.01509e-17
7088.03172 9.63052e-18
7089.50451 9.65543e-18
7090.96729 1.00030e-17
7092.44008 1.00818e-17
7093.91287 9.85015e-18
7095.37565 1.01625e-17
7096.84844 1.01365e-17
7098.32123 9.85654e-18
7099.79403 1.04091e-17
7101.25680 1.03499e-17
7102.72959 1.00353e-17
7104.20239 1.00599e-17
7105.66516 1.03927e-17
7107.13795 1.01995e-17
7108.61075 9.85286e-18
7110.08354 9.94737e-18
7111.54631 9.93245e-18
7113.01911 9.79466e-18
7114.49190 9.74948e-18
7115.96469 9.91855e-18
7117.42747 9.58801e-18
7118.90026 9.85276e-18
7120.37305 1.02379e-17
7121.83583 1.00000e-17
7123.30862 9.91820e-18
7124.78141 1.00460e-17
7126.25421 9.84112e-18
7127.71698 9.50838e-18
7129.18977 9.39253e-18
7130.66257 9.73930e-18
7132.12534 1.04396e-17
7133.59813 1.02587e-17
7135.07093 1.00462e-17
7136.54372 1.01015e-17
7138.00649 9.95054e-18
7139.47929 1.00031e-17
7140.95208 9.91783e-18
7142.42487 9.69453e-18
7143.88765 1.04307e-17
7145.36044 1.05098e-17
7146.83323 1.01064e-17
7148.29601 1.06101e-17
7149.76880 9.64418e-18
7151.24159 9.21750e-18
7152.71438 1.00488e-17
7154.17716 9.81998e-18
7155.64995 9.56764e-18
7157.12275 9.81395e-18
7158.58552 9.83233e-18
7160.05831 9.83945e-18
7161.53111 9.63017e-18
7163.00390 9.48294e-18
7164.46667 9.75182e-18
7165.93947 9.85191e-18
7167.41226 9.71162e-18
7168.88505 9.97319e-18
7170.34782 1.01147e-17
7171.82062 9.99665e-18
7173.29341 9.67364e-18
7174.75618 9.85429e-18
7176.22898 9.91781e-18
7177.70177 9.41467e-18
7179.17456 9.62784e-18
7180.63734 9.80773e-18
7182.11013 9.29345e-18
7183.58292 9.37772e-18
7185.04570 9.70084e-18
7186.51849 9.69600e-18
7187.99128 1.00589e-17
7189.46408 9.97701e-18
7190.92685 9.24077e-18
7192.39964 8.94232e-18
7193.87244 9.95820e-18
7195.33521 9.91023e-18
7196.80800 9.05831e-18
7198.28080 9.65336e-18
7199.75359 1.04609e-17
7201.21636 1.00829e-17
7202.68916 9.77051e-18
7204.16195 1.01353e-17
7205.63474 9.98117e-18
7207.09752 9.27791e-18
7208.57031 8.91522e-18
7210.04310 9.02033e-18
7211.50588 9.63171e-18
7212.97867 9.60265e-18
7214.45146 9.25151e-18
7215.92426 9.46470e-18
7217.38703 9.46197e-18
7218.85982 9.63510e-18
7220.33262 9.49548e-18
7221.79539 9.59839e-18
7223.26818 9.56236e-18
7224.74098 9.02227e-18
7226.21377 9.04785e-18
7227.67654 9.17366e-18
7229.14934 9.34231e-18
7230.62213 8.56676e-18
7232.09492 9.14297e-18
7233.55770 9.97535e-18
7235.03049 9.88586e-18
7236.50328 9.38205e-18
7237.96606 9.34430e-18
7239.43885 9.62505e-18
7240.91164 9.88234e-18
7242.38443 1.02669e-17
7243.84721 9.77830e-18
7245.32000 9.16561e-18
7246.79280 9.58160e-18
7248.25557 9.57861e-18
7249.72836 9.04180e-18
7251.20115 9.11475e-18
7252.67395 9.41050e-18
7254.13672 9.30535e-18
7255.60952 9.03550e-18
7257.08231 9.26196e-18
7258.55510 9.59834e-18
7260.01788 9.61183e-18
7261.49067 9.48173e-18
7262.96346 8.99747e-18
7264.42623 8.89426e-18
7265.89903 8.82932e-18
7267.37182 9.16104e-18
7268.84461 9.68592e-18
7270.30739 8.94241e-18
7271.78018 9.45029e-18
7273.25297 9.79418e-18
7274.71575 9.70563e-18
7276.18854 9.77650e-18
7277.66133 9.78502e-18
7279.13413 9.75046e-18
7280.59690 9.88342e-18
7282.06969 9.56940e-18
7283.54249 9.06526e-18
7285.00526 8.94172e-18
7286.47805 9.27998e-18
7287.95085 9.28592e-18
7289.42364 9.22470e-18
7290.88641 9.47000e-18
7292.35921 9.32423e-18
7293.83200 8.77488e-18
7295.30479 8.29198e-18
7296.76757 8.15942e-18
7298.24036 8.67802e-18
7299.71315 9.10995e-18
7301.17593 8.94543e-18
7302.64872 8.32008e-18
7304.12151 8.62298e-18
7305.59431 8.69104e-18
7307.05708 9.25212e-18
7308.52987 9.86814e-18
7310.00267 9.00692e-18
7311.46544 9.09532e-18
7312.93823 9.25092e-18
7314.41103 9.07917e-18
7315.88382 8.64497e-18
7317.34659 9.11775e-18
7318.81939 9.32087e-18
7320.29218 9.56736e-18
7321.76497 9.30539e-18
7323.22775 9.51638e-18
7324.70054 9.43572e-18
7326.17333 9.32131e-18
7327.63611 8.69383e-18
7329.10890 8.45973e-18
7330.58169 9.00280e-18
7332.05448 9.00781e-18
7333.51726 8.52274e-18
7334.99005 8.39698e-18
7336.46285 8.67447e-18
7337.92562 8.61279e-18
7339.39841 7.87176e-18
7340.87120 8.18793e-18
7342.34400 8.34920e-18
7343.80677 7.58626e-18
7345.27957 8.10035e-18
7346.75236 9.25079e-18
7348.22515 9.12935e-18
7349.68793 8.49069e-18
7351.16072 8.98205e-18
7352.63351 9.38206e-18
7354.09628 9.41709e-18
7355.56908 9.21037e-18
7357.04187 9.20205e-18
7358.51466 9.35968e-18
7359.97744 9.16094e-18
7361.45023 8.99060e-18
7362.92302 9.20339e-18
7364.38580 9.49254e-18
7365.85859 9.09550e-18
7367.33138 8.80038e-18
7368.80418 8.98942e-18
7370.26695 8.60747e-18
7371.73974 8.33735e-18
7373.21254 8.81506e-18
7374.68533 8.38555e-18
7376.14810 7.76206e-18
7377.62090 8.77820e-18
7379.09369 8.51637e-18
7380.55646 8.63688e-18
7382.02926 8.48060e-18
7383.50205 8.08172e-18
7384.97484 8.95692e-18
7386.43762 9.14877e-18
7387.91041 9.08680e-18
7389.38320 8.57533e-18
7390.84598 9.10130e-18
7392.31877 9.02690e-18
7393.79156 9.10354e-18
7395.26436 9.46216e-18
7396.72713 9.32590e-18
7398.19992 8.99825e-18
7399.67272 8.98828e-18
7401.13549 8.95663e-18
7402.60828 8.77381e-18
7404.08108 8.50305e-18
7405.55387 8.87223e-18
7407.01664 8.77019e-18
7408.48944 8.79902e-18
7409.96223 8.52764e-18
7411.43502 8.36932e-18
7412.89780 8.13046e-18
7414.37059 8.76255e-18
7415.84338 8.62093e-18
7417.30616 8.22625e-18
7418.77895 8.49536e-18
7420.25174 9.02993e-18
7421.72453 8.78592e-18
7423.18731 8.95914e-18
7424.66010 9.73645e-18
7426.13290 8.84044e-18
7427.59567 8.64314e-18
7429.06846 8.67421e-18
7430.54126 8.72994e-18
7432.01405 8.36754e-18
7434.00431 8.36754e-18
7435.99729 8.53205e-18
7438.00029 8.35648e-18
7440.00329 8.25216e-18
7441.99628 8.20206e-18
7443.99928 8.13816e-18
7446.00228 8.28533e-18
7447.99526 8.33109e-18
7449.99826 8.24747e-18
7452.00126 8.29792e-18
7454.00426 8.25119e-18
7455.99725 8.12340e-18
7458.00025 8.29540e-18
7460.00325 8.41262e-18
7461.99623 8.32430e-18
7463.99923 8.27303e-18
7466.00223 8.32136e-18
7467.99522 8.44503e-18
7469.99822 8.29875e-18
7472.00122 8.30934e-18
7474.00422 8.18685e-18
7475.99720 8.18224e-18
7478.00020 8.27046e-18
7480.00320 8.20706e-18
7481.99618 8.37363e-18
7483.99919 8.15991e-18
7486.00219 8.35270e-18
7487.99517 8.20234e-18
7489.99817 8.26484e-18
7492.00117 8.25117e-18
7494.00417 8.30394e-18
7495.99716 8.31472e-18
7498.00016 8.41455e-18
7500.00316 8.26090e-18
7501.99614 8.26185e-18
7503.99914 8.20878e-18
7506.00214 8.35597e-18
7507.99513 8.34248e-18
7509.99813 8.23271e-18
7512.00113 8.27670e-18
7514.00413 8.28149e-18
7515.99711 8.21960e-18
7518.00011 8.17239e-18
7520.00311 8.42570e-18
7521.99610 8.35251e-18
7523.99910 8.35862e-18
7526.00209 8.42435e-18
7527.99508 8.36363e-18
7529.99808 8.06865e-18
7532.00108 8.26260e-18
7534.00408 8.17783e-18
7535.99707 8.16752e-18
7538.00007 8.18476e-18
7540.00307 8.27021e-18
7541.99605 8.23605e-18
7543.99905 8.06617e-18
7546.00205 8.26635e-18
7547.99503 8.17963e-18
7549.99803 8.08641e-18
7552.00104 8.10623e-18
7554.00403 8.21734e-18
7555.99702 8.19248e-18
7558.00002 8.06909e-18
7560.00302 8.09500e-18
7561.99601 8.11673e-18
7563.99901 8.01385e-18
7566.00201 8.08611e-18
7568.00501 8.23608e-18
7569.99799 8.27372e-18
7572.00099 8.03313e-18
7574.00399 8.01952e-18
7575.99698 8.14947e-18
7577.99997 7.93989e-18
7580.00298 8.06696e-18
7581.99596 8.27502e-18
7583.99896 8.13578e-18
7586.00196 8.13879e-18
7587.99495 8.24137e-18
7589.99795 8.30431e-18
7592.00095 8.14656e-18
7594.00395 8.13349e-18
7595.99693 8.38975e-18
7597.99993 8.46905e-18
7600.00293 8.32606e-18
7601.99592 8.25827e-18
7603.99892 8.29607e-18
7606.00191 7.99421e-18
7607.99490 7.89026e-18
7609.99790 8.02438e-18
7612.00090 7.99935e-18
7614.00390 7.69357e-18
7615.99689 8.08658e-18
7617.99989 8.08838e-18
7620.00289 7.98043e-18
7621.99587 8.12315e-18
7623.99887 8.22520e-18
7626.00187 8.02974e-18
7628.00487 8.10188e-18
7629.99786 8.08986e-18
7632.00086 8.22954e-18
7634.00385 7.99598e-18
7635.99684 7.98541e-18
7637.99984 7.85418e-18
7640.00284 8.12540e-18
7641.99583 7.95099e-18
7643.99883 8.12237e-18
7646.00183 7.98953e-18
7647.99481 7.73536e-18
7649.99781 8.13075e-18
7652.00081 7.87674e-18
7654.00381 7.99729e-18
7655.99680 8.12249e-18
7657.99980 7.73872e-18
7660.00280 8.03079e-18
7661.99578 8.11121e-18
7663.99878 7.72806e-18
7666.00178 7.94814e-18
7668.00478 8.00265e-18
7669.99777 7.88818e-18
7672.00077 8.11121e-18
7674.00377 7.81488e-18
7675.99675 7.85040e-18
7677.99975 8.04085e-18
7680.00275 7.79594e-18
7681.99574 7.97988e-18
7683.99874 8.01564e-18
7686.00173 7.87730e-18
7688.00474 7.94019e-18
7689.99772 7.93574e-18
7692.00072 7.87738e-18
7694.00372 7.91685e-18
7695.99671 7.90843e-18
7697.99971 7.94187e-18
7700.00271 7.69017e-18
7701.99569 7.84428e-18
7703.99869 7.81460e-18
7706.00169 7.76433e-18
7708.00469 7.95393e-18
7709.99768 7.96797e-18
7712.00068 8.03543e-18
7714.00367 7.81549e-18
7715.99666 7.83355e-18
7717.99966 7.73952e-18
7720.00266 7.90440e-18
7721.99565 7.95383e-18
7723.99865 7.88967e-18
7726.00165 7.98625e-18
7728.00465 7.72519e-18
7729.99763 7.73822e-18
7732.00063 7.84518e-18
7734.00363 7.81015e-18
7735.99662 7.76091e-18
7737.99962 7.85877e-18
7740.00262 7.95791e-18
7741.99560 7.72480e-18
7743.99860 7.72704e-18
7746.00160 7.81721e-18
7748.00460 7.91281e-18
7749.99759 7.72995e-18
7752.00059 7.92063e-18
7754.00359 7.80754e-18
7755.99657 7.67576e-18
7757.99957 7.76609e-18
7760.00257 7.78552e-18
7761.99556 7.83866e-18
7763.99856 7.79511e-18
7766.00156 7.80958e-18
7768.00456 7.58338e-18
7769.99754 7.53498e-18
7772.00054 7.85205e-18
7774.00354 7.77714e-18
7775.99653 7.57714e-18
7777.99953 7.79862e-18
7780.00253 7.86210e-18
7781.99551 7.85689e-18
7783.99851 7.49407e-18
7786.00151 7.69752e-18
7788.00451 7.68793e-18
7789.99750 7.70955e-18
7792.00050 7.75121e-18
7794.00349 7.64254e-18
7795.99648 7.65725e-18
7797.99948 7.74700e-18
7800.00248 7.60614e-18
7801.99547 7.60041e-18
7803.99847 7.53104e-18
7806.00147 7.55219e-18
7808.00447 7.58525e-18
7809.99745 7.44938e-18
7812.00045 7.79025e-18
7814.00345 7.60201e-18
7815.99644 7.63034e-18
7817.99944 7.55703e-18
7820.00244 7.57024e-18
7821.99542 7.59767e-18
7823.99842 7.47423e-18
7826.00142 7.51225e-18
7828.00442 7.58036e-18
7829.99741 7.51460e-18
7832.00041 7.50478e-18
7834.00341 7.48113e-18
7835.99639 7.54952e-18
7837.99939 7.47660e-18
7840.00239 7.46097e-18
7841.99538 7.39140e-18
7843.99838 7.46185e-18
7846.00138 7.50128e-18
7848.00438 7.39282e-18
7849.99736 7.56227e-18
7852.00036 7.50740e-18
7854.00336 7.34807e-18
7855.99634 7.43670e-18
7857.99935 7.69890e-18
7860.00234 7.54131e-18
7861.99533 7.59084e-18
7863.99833 7.54317e-18
7866.00133 7.64766e-18
7868.00433 7.43870e-18
7869.99732 7.42208e-18
7872.00032 7.43099e-18
7874.00332 7.43309e-18
7875.99630 7.42533e-18
7877.99930 7.47124e-18
7880.00230 7.48149e-18
7881.99528 7.68116e-18
7883.99828 7.55431e-18
7886.00129 7.53840e-18
7888.00428 7.63132e-18
7889.99727 7.43238e-18
7892.00027 7.33482e-18
7894.00327 7.49487e-18
7895.99626 7.41411e-18
7897.99926 7.50869e-18
7900.00226 7.43747e-18
7901.99524 7.44692e-18
7903.99824 7.45283e-18
7906.00124 7.47017e-18
7908.00424 7.60579e-18
7909.99723 7.31156e-18
7912.00022 7.46476e-18
7914.00323 7.42809e-18
7915.99621 7.45901e-18
7917.99921 7.36747e-18
7920.00221 7.49746e-18
7921.99520 7.37244e-18
7923.99820 7.55966e-18
7926.00120 7.39742e-18
7928.00420 7.38651e-18
7929.99718 7.45771e-18
7932.00018 7.39439e-18
7934.00318 7.44010e-18
7935.99617 7.32798e-18
7937.99917 7.49278e-18
7940.00216 7.37052e-18
7941.99515 7.33148e-18
7943.99815 7.35949e-18
7946.00115 7.33446e-18
7948.00415 7.36993e-18
7949.99714 7.38451e-18
7952.00014 7.49786e-18
7954.00314 7.26714e-18
7955.99612 7.31751e-18
7957.99912 7.39840e-18
7960.00212 7.23477e-18
7961.99510 7.37599e-18
7963.99811 7.43488e-18
7966.00111 7.32808e-18
7968.00410 7.19836e-18
7969.99709 7.10405e-18
7972.00009 7.36819e-18
7974.00309 7.33093e-18
7975.99608 7.24658e-18
7977.99908 7.26577e-18
7980.00208 7.39277e-18
7981.99506 7.38475e-18
7983.99806 7.32266e-18
7986.00106 7.47482e-18
7988.00406 7.42873e-18
7989.99705 7.51528e-18
7992.00004 7.59582e-18
7994.00305 7.12976e-18
7995.99603 7.18796e-18
7997.99903 7.08941e-18
8000.00203 7.09709e-18
8002.00503 7.21298e-18
8003.99802 7.03914e-18
8006.00102 7.02604e-18
8008.00402 7.14206e-18
8009.99700 7.10408e-18
8012.00000 7.02700e-18
8014.00300 6.96605e-18
8015.99599 6.98352e-18
8017.99899 7.10405e-18
8020.00198 7.07434e-18
8021.99497 6.97341e-18
8023.99797 7.05294e-18
8026.00097 7.11505e-18
8028.00397 7.17412e-18
8029.99696 7.07554e-18
8031.99996 6.97908e-18
8034.00296 6.97184e-18
8035.99594 7.08871e-18
8037.99894 6.95581e-18
8040.00194 6.92265e-18
8042.00494 6.88503e-18
8043.99793 6.76864e-18
8046.00093 6.74671e-18
8048.00392 6.78058e-18
8049.99691 6.79159e-18
8051.99991 6.80668e-18
8054.00291 6.79715e-18
8055.99590 6.72456e-18
8057.99890 6.70516e-18
8060.00190 6.74938e-18
8061.99488 6.80554e-18
8063.99788 6.70435e-18
8066.00088 6.77556e-18
8068.00388 6.82107e-18
8069.99687 6.76222e-18
8071.99987 6.67263e-18
8074.00287 6.66350e-18
8075.99585 6.56917e-18
8077.99885 6.68594e-18
8080.00185 6.56697e-18
8082.00485 6.75887e-18
8083.99784 6.64389e-18
8086.00084 6.59196e-18
8088.00384 6.59243e-18
8089.99682 6.41538e-18
8091.99982 6.65757e-18
8094.00282 6.54365e-18
8095.99581 6.44518e-18
8097.99881 6.47538e-18
8100.00181 6.60565e-18
8102.00481 6.49735e-18
8103.99779 6.39491e-18
8106.00079 6.61050e-18
8108.00379 6.53194e-18
8109.99678 6.47385e-18
8111.99978 6.44370e-18
8114.00278 6.64317e-18
8115.99576 6.44562e-18
8117.99876 6.48712e-18
8120.00176 6.32540e-18
8121.99474 6.37558e-18
8123.99775 6.44593e-18
8126.00075 6.41070e-18
8128.00374 6.40400e-18
8129.99673 6.36117e-18
8131.99973 6.39435e-18
8134.00273 6.67863e-18
8135.99572 6.52725e-18
8137.99872 6.41475e-18
8140.00172 6.61196e-18
8142.00472 6.41895e-18
8143.99770 6.45607e-18
8146.00070 6.39569e-18
8148.00370 6.39678e-18
8149.99669 6.45163e-18
8151.99969 6.29364e-18
8154.00269 6.22901e-18
8155.99567 6.36221e-18
8157.99867 6.56183e-18
8160.00167 6.26136e-18
8162.00467 6.27569e-18
8163.99766 6.41424e-18
8166.00066 6.33382e-18
8168.00366 6.38938e-18
8169.99664 6.33121e-18
8171.99964 6.46660e-18
8174.00264 6.54700e-18
8175.99563 6.29396e-18
8177.99863 6.32052e-18
8180.00163 6.34614e-18
8182.00463 6.26773e-18
8183.99761 6.28010e-18
8186.00061 6.29694e-18
8188.00361 6.31985e-18
8189.99659 6.40484e-18
8191.99960 6.49134e-18
8194.00259 6.35760e-18
8195.99558 6.30500e-18
8197.99858 6.36950e-18
8200.00158 6.39613e-18
8202.00458 6.26853e-18
8203.99756 6.24249e-18
8206.00057 6.32434e-18
8208.00356 6.26963e-18
8209.99655 6.24747e-18
8211.99955 6.31755e-18
8214.00255 6.40237e-18
8215.99554 6.25417e-18
8217.99854 6.33566e-18
8220.00154 6.26090e-18
8222.00454 6.33352e-18
8223.99752 6.35078e-18
8226.00052 6.26688e-18
8228.00352 6.47493e-18
8229.99651 6.46122e-18
8231.99950 6.29575e-18
8234.00251 6.33016e-18
8235.99549 6.24944e-18
8237.99849 6.26817e-18
8240.00149 6.37338e-18
8242.00449 6.27495e-18
8243.99748 6.26581e-18
8246.00048 6.27358e-18
8248.00347 6.31893e-18
8249.99646 6.37931e-18
8251.99946 6.41304e-18
8254.00246 6.41151e-18
8255.99545 6.38394e-18
8257.99844 6.34286e-18
8260.00144 6.38063e-18
8261.99443 6.34385e-18
8263.99743 6.36963e-18
8266.00043 6.40454e-18
8268.00343 6.41619e-18
8269.99642 6.41425e-18
8271.99942 6.56864e-18
8274.00242 6.33539e-18
8275.99540 6.50672e-18
8277.99840 6.50031e-18
8280.00140 6.41723e-18
8282.00440 6.54279e-18
8283.99739 6.64959e-18
8286.00039 6.38971e-18
8288.00338 6.30267e-18
8289.99637 6.45293e-18
8291.99937 6.43116e-18
8294.00237 6.52439e-18
8295.99536 6.54470e-18
8297.99835 6.44199e-18
8300.00136 6.63632e-18
8302.00436 6.63968e-18
8303.99734 6.43882e-18
8306.00034 6.60131e-18
8308.00334 6.60879e-18
8309.99633 6.52537e-18
8311.99932 6.58856e-18
8314.00232 6.61279e-18
8315.99531 6.61061e-18
8317.99831 6.56115e-18
8320.00131 6.64762e-18
8322.00431 6.78072e-18
8323.99730 6.60913e-18
8326.00030 6.64751e-18
8328.00330 6.68599e-18
8329.99628 6.76204e-18
8331.99928 6.59984e-18
8334.00228 6.59288e-18
8335.99527 6.68507e-18
8337.99827 6.62604e-18
8340.00127 6.75764e-18
8342.00427 6.75802e-18
8343.99725 6.86552e-18
8346.00025 6.89967e-18
8348.00325 6.61987e-18
8349.99624 6.84973e-18
8351.99924 6.74918e-18
8354.00223 6.87852e-18
8355.99522 6.81805e-18
8357.99822 6.84874e-18
8360.00122 6.76794e-18
8362.00422 6.73150e-18
8363.99720 6.74166e-18
8366.00021 6.91385e-18
8368.00320 6.90107e-18
8369.99619 6.89060e-18
8371.99919 6.76321e-18
8374.00219 6.84857e-18
8376.00519 6.83141e-18
8377.99818 6.71746e-18
8380.00118 6.93719e-18
8382.00418 6.88416e-18
8383.99716 6.90231e-18
8386.00016 6.88552e-18
8388.00316 6.88952e-18
8389.99615 6.84322e-18
8391.99915 6.82477e-18
8394.00215 6.83474e-18
8395.99513 7.02809e-18
8397.99813 6.93067e-18
8400.00113 6.91430e-18
8402.00413 7.07533e-18
8403.99712 6.91452e-18
8406.00012 6.95370e-18
8408.00311 6.81574e-18
8409.99610 6.85081e-18
8411.99910 6.95580e-18
8414.00210 6.93363e-18
8415.99509 7.04654e-18
8417.99808 6.99373e-18
8420.00108 6.89120e-18
8422.00409 7.00685e-18
8423.99707 7.04881e-18
8426.00007 7.15033e-18
8428.00307 6.84798e-18
8429.99606 6.87954e-18
8431.99906 6.94769e-18
8434.00206 6.87301e-18
8436.00506 7.08911e-18
8437.99804 6.98013e-18
8440.00104 7.01981e-18
8442.00404 6.97123e-18
8443.99703 7.04437e-18
8446.00003 6.92954e-18
8448.00302 7.03542e-18
8449.99601 6.97843e-18
8451.99901 7.05837e-18
8454.00201 7.05089e-18
8455.99500 6.99198e-18
8457.99799 6.89262e-18
8460.00100 7.00571e-18
8462.00400 7.16735e-18
8463.99698 6.91943e-18
8465.99998 6.92954e-18
8468.00298 7.11513e-18
8469.99597 6.89628e-18
8471.99897 6.88603e-18
8474.00196 6.92036e-18
8475.99495 6.91224e-18
8477.99795 6.97141e-18
8480.00095 6.99558e-18
8482.00395 7.03978e-18
8483.99694 7.08643e-18
8485.99994 6.88862e-18
8488.00294 6.91949e-18
8489.99592 7.01096e-18
8491.99892 6.99348e-18
8494.00192 7.03305e-18
8496.00492 7.10689e-18
8497.99791 6.95107e-18
8500.00091 7.09233e-18
8502.00391 7.01490e-18
8503.99689 6.90664e-18
8505.99989 6.90890e-18
8508.00289 6.96226e-18
8509.99588 6.91829e-18
8511.99888 7.08078e-18
8514.00187 7.03107e-18
8516.00488 7.04391e-18
8517.99786 6.95134e-18
8520.00086 6.99373e-18
8522.00386 6.93633e-18
8523.99684 6.97192e-18
8525.99985 7.09638e-18
8528.00285 6.96597e-18
8529.99583 6.98428e-18
8531.99883 7.01000e-18
8534.00183 6.94568e-18
8535.99482 6.99202e-18
8537.99781 7.11665e-18
8540.00081 7.00495e-18
8542.00382 6.81880e-18
8543.99680 7.01174e-18
8545.99980 6.88109e-18
8548.00280 7.08031e-18
8549.99579 6.94833e-18
8551.99879 6.92984e-18
8554.00179 6.92225e-18
8556.00479 6.86158e-18
8557.99777 6.88386e-18
8560.00077 6.92174e-18
8562.00377 7.05540e-18
8563.99676 6.92605e-18
8565.99976 6.95497e-18
8568.00276 6.89525e-18
8569.99574 6.86992e-18
8571.99874 6.83380e-18
8574.00174 6.84329e-18
8576.00474 7.00499e-18
8577.99772 6.80269e-18
8580.00072 6.84025e-18
8582.00373 6.88043e-18
8583.99671 6.75400e-18
8585.99971 6.90021e-18
8588.00271 6.82953e-18
8589.99569 6.88127e-18
8591.99870 6.92216e-18
8594.00169 6.71161e-18
8595.99468 6.86087e-18
8597.99768 6.86753e-18
8600.00068 6.77088e-18
8602.00368 6.78249e-18
8603.99667 6.73030e-18
8605.99967 6.64244e-18
8608.00267 6.73519e-18
8609.99565 6.80451e-18
8611.99865 6.82206e-18
8614.00165 6.81122e-18
8616.00465 6.74284e-18
8617.99764 6.80715e-18
8620.00064 6.75862e-18
8622.00364 6.69325e-18
8623.99662 6.71984e-18
8625.99962 6.76238e-18
8628.00262 6.65195e-18
8629.99561 6.77462e-18
8631.99861 6.67226e-18
8634.00160 6.63909e-18
8636.00461 6.71608e-18
8637.99759 6.77863e-18
8640.00059 6.64382e-18
8642.00359 6.74383e-18
8643.99657 6.74603e-18
8645.99957 6.76027e-18
8648.00258 6.57166e-18
8649.99556 6.53511e-18
8651.99856 6.75669e-18
8654.00156 6.67633e-18
8656.00456 6.61627e-18
8657.99755 6.78874e-18
8660.00055 6.59954e-18
8662.00355 6.67283e-18
8663.99653 6.56241e-18
8665.99953 6.73737e-18
8668.00253 6.57338e-18
8669.99552 6.51443e-18
8671.99852 6.68475e-18
8674.00151 6.67644e-18
8676.00452 6.51724e-18
8677.99750 6.52739e-18
8680.00050 6.61314e-18
8682.00350 6.62113e-18
8683.99648 6.60783e-18
8685.99949 6.65109e-18
8688.00249 6.51387e-18
8689.99547 6.55618e-18
8691.99847 6.49296e-18
8694.00147 6.58892e-18
8696.00447 6.67824e-18
8697.99746 6.65374e-18
8700.00045 6.51605e-18
8702.00346 6.44121e-18
8703.99644 6.54399e-18
8705.99944 6.51921e-18
8708.00244 6.34709e-18
8709.99543 6.46699e-18
8711.99843 6.49391e-18
8714.00143 6.44055e-18
8716.00443 6.56917e-18
8717.99741 6.60064e-18
8720.00041 6.47728e-18
8722.00341 6.52044e-18
8723.99640 6.58604e-18
8725.99940 6.65053e-18
8728.00240 6.41116e-18
8729.99538 6.39520e-18
8731.99838 6.35244e-18
8734.00138 6.35963e-18
8736.00438 6.42571e-18
8737.99737 6.30373e-18
8740.00036 6.41886e-18
8742.00337 6.45448e-18
8743.99635 6.39055e-18
8745.99935 6.39906e-18
8748.00235 6.34685e-18
8749.99533 6.46564e-18
8751.99834 6.46670e-18
8754.00133 6.38283e-18
8756.00433 6.25279e-18
8757.99732 6.20836e-18
8760.00032 6.34779e-18
8762.00332 6.32787e-18
8763.99631 6.32057e-18
8765.99931 6.22999e-18
8768.00231 6.31402e-18
8769.99529 6.25595e-18
8771.99829 6.36435e-18
8774.00129 6.30596e-18
8776.00429 6.17107e-18
8777.99728 6.17064e-18
8780.00028 6.36357e-18
8782.00328 6.15643e-18
8783.99626 6.11117e-18
8785.99926 6.24031e-18
8788.00226 6.12938e-18
8789.99525 5.99140e-18
8791.99825 6.19768e-18
8794.00125 6.11936e-18
8796.00425 6.16155e-18
8797.99723 6.13427e-18
8800.00023 6.04862e-18
8802.00323 6.09656e-18
8803.99621 6.15073e-18
8805.99921 6.32331e-18
8808.00222 6.14246e-18
8809.99520 6.14280e-18
8811.99820 6.06765e-18
8814.00120 6.10852e-18
8816.00420 6.09192e-18
8817.99719 6.23122e-18
8820.00019 6.16125e-18
8822.00319 6.07717e-18
8823.99617 6.15674e-18
8825.99917 6.15261e-18
8828.00217 6.07263e-18
8829.99516 6.11866e-18
8831.99816 6.04560e-18
8834.00116 6.13688e-18
8836.00416 6.11845e-18
8837.99714 6.04008e-18
8840.00014 5.97849e-18
8842.00314 5.98546e-18
8843.99612 6.10705e-18
8845.99913 6.06004e-18
8848.00213 6.15506e-18
8850.00512 6.04225e-18
8851.99811 6.07229e-18
8854.00111 6.12415e-18
8856.00411 6.18616e-18
8857.99710 6.18787e-18
8860.00009 6.28776e-18
8862.00310 6.28326e-18
8863.99608 6.44905e-18
8865.99908 6.31679e-18
8868.00208 6.25348e-18
8869.99506 6.19229e-18
8871.99806 6.18125e-18
8874.00107 6.17750e-18
8876.00406 6.07844e-18
8877.99705 6.08108e-18
8880.00005 6.03147e-18
8882.00305 6.00888e-18
8883.99604 6.03709e-18
8885.99904 6.04350e-18
8888.00204 6.00906e-18
8889.99502 5.94132e-18
8891.99802 5.85680e-18
8894.00102 6.01043e-18
8896.00402 6.01477e-18
8897.99701 5.95905e-18
8900.00000 6.02284e-18
8902.00301 5.86596e-18
8903.99599 5.98753e-18
8905.99899 5.86592e-18
8908.00199 5.92175e-18
8910.00499 5.97664e-18
8911.99798 5.97050e-18
8914.00098 5.90710e-18
8916.00397 6.04077e-18
8917.99696 6.15297e-18
8919.99996 5.88584e-18
8922.00296 5.87402e-18
8923.99595 5.88410e-18
8925.99894 5.89206e-18
8928.00194 5.96405e-18
8929.99493 5.92508e-18
8931.99793 5.84539e-18
8934.00093 5.80337e-18
8936.00393 5.80213e-18
8937.99692 5.75703e-18
8939.99992 5.80918e-18
8942.00292 5.73162e-18
8943.99590 5.88823e-18
8945.99890 5.87914e-18
8948.00190 5.75706e-18
8949.99489 5.72446e-18
8951.99789 5.70223e-18
8954.00089 5.82782e-18
8956.00389 5.86762e-18
8957.99687 5.82539e-18
8959.99987 5.71173e-18
8962.00287 5.73543e-18
8963.99586 5.81045e-18
8965.99885 5.87904e-18
8968.00186 5.73548e-18
8970.00486 5.80941e-18
8971.99784 5.87339e-18
8974.00084 5.88600e-18
8976.00384 5.85579e-18
8977.99683 5.68802e-18
8979.99982 5.80872e-18
8982.00282 6.00879e-18
8983.99581 5.75211e-18
8985.99881 5.70816e-18
8988.00181 6.05367e-18
8990.00481 5.69949e-18
8991.99780 5.92707e-18
8994.00080 5.78406e-18
8996.00380 5.82803e-18
8997.99678 5.73766e-18
8999.99978 5.76309e-18
9002.00278 5.92473e-18
9003.99577 6.10144e-18
9005.99877 6.01755e-18
9008.00177 5.97096e-18
9009.99475 5.92557e-18
9011.99775 6.27958e-18
9014.00075 6.19321e-18
9016.00375 6.20308e-18
9017.99674 6.47814e-18
9019.99973 5.88593e-18
9022.00274 5.89165e-18
9023.99572 5.92242e-18
9025.99872 5.98047e-18
9028.00172 5.75201e-18
9030.00472 5.71685e-18
9031.99770 5.69122e-18
9034.00071 5.79876e-18
9036.00370 5.77938e-18
9037.99669 5.56220e-18
9039.99969 5.54072e-18
9042.00269 5.70611e-18
9043.99568 5.74265e-18
9045.99868 5.54991e-18
9048.00168 5.72266e-18
9050.00468 5.62633e-18
9051.99766 5.58930e-18
9054.00066 5.76801e-18
9056.00366 5.62154e-18
9057.99665 5.61107e-18
9059.99965 5.68445e-18
9062.00265 5.69045e-18
9063.99563 5.85928e-18
9065.99863 5.70607e-18
9068.00163 5.66202e-18
9070.00463 5.57847e-18
9071.99762 5.48281e-18
9074.00062 5.70625e-18
9076.00361 5.75668e-18
9077.99660 5.54657e-18
9079.99960 5.61543e-18
9082.00260 5.69602e-18
9083.99559 5.54559e-18
9085.99858 5.36783e-18
9088.00158 5.61010e-18
9090.00459 5.60583e-18
9091.99757 5.49289e-18
9094.00057 5.58495e-18
9096.00357 5.61018e-18
9097.99656 5.40570e-18
9099.99956 5.56356e-18
9102.00256 5.70383e-18
9103.99554 5.54301e-18
9105.99854 5.56304e-18
9108.00154 5.58545e-18
9110.00454 5.57050e-18
9111.99753 5.54081e-18
9114.00053 5.57860e-18
9116.00353 5.37636e-18
9117.99651 5.51225e-18
9119.99951 5.57378e-18
9122.00251 5.54995e-18
9123.99550 5.54958e-18
9125.99849 5.58774e-18
9128.00150 5.46274e-18
9130.00450 5.55530e-18
9131.99748 5.62585e-18
9134.00048 5.35795e-18
9136.00348 5.71024e-18
9137.99647 5.61342e-18
9139.99947 5.53363e-18
9142.00246 5.48361e-18
9143.99545 5.44737e-18
9145.99845 5.43846e-18
9148.00145 5.57817e-18
9150.00445 5.47635e-18
9151.99744 5.60288e-18
9154.00044 5.50396e-18
9156.00344 5.57915e-18
9157.99642 5.47546e-18
9159.99942 5.39052e-18
9162.00242 5.53902e-18
9163.99541 5.48330e-18
9165.99841 5.47950e-18
9168.00141 5.49778e-18
9170.00441 5.52787e-18
9171.99739 5.44116e-18
9174.00039 5.47923e-18
9176.00339 5.59321e-18
9177.99638 5.46278e-18
9179.99938 5.50632e-18
9182.00238 5.40336e-18
9183.99536 5.45117e-18
9185.99836 5.47839e-18
9188.00136 5.33996e-18
9190.00436 5.44354e-18
9191.99734 5.53290e-18
9194.00035 5.33853e-18
9196.00335 5.44870e-18
9197.99633 5.47320e-18
9199.99933 5.39875e-18
9202.00233 5.43859e-18
9203.99532 5.33541e-18
9205.99831 5.38795e-18
9208.00131 5.56755e-18
9210.00432 5.48475e-18
9211.99730 5.50106e-18
9214.00030 5.56511e-18
9216.00330 5.62424e-18
9217.99629 5.53451e-18
9219.99929 5.66683e-18
9222.00229 5.57355e-18
9223.99527 5.61281e-18
9225.99827 5.90285e-18
9228.00127 6.07478e-18
9230.00427 6.14377e-18
9231.99726 5.93573e-18
9234.00026 5.81337e-18
9236.00326 5.59773e-18
9237.99624 5.57539e-18
9239.99924 5.51112e-18
9242.00224 5.37903e-18
9243.99523 5.36836e-18
9245.99822 5.36780e-18
9248.00122 5.31760e-18
9250.00423 5.28149e-18
9251.99721 5.46130e-18
9254.00021 5.31691e-18
9256.00321 5.30235e-18
9257.99619 5.28508e-18
9259.99920 5.32747e-18
9262.00219 5.35853e-18
9263.99518 5.46335e-18
9265.99818 5.38996e-18
9268.00118 5.29738e-18
9270.00418 5.40473e-18
9271.99717 5.23698e-18
9274.00017 5.40474e-18
9276.00317 5.29652e-18
9277.99615 5.26647e-18
9279.99915 5.46292e-18
9282.00215 5.34196e-18
9283.99514 5.21578e-18
9285.99813 5.39611e-18
9288.00114 5.41854e-18
9290.00414 5.33558e-18
9291.99712 5.29781e-18
9294.00012 5.39304e-18
9296.00312 5.37427e-18
9297.99611 5.31346e-18
9299.99911 5.32761e-18
9302.00210 5.29157e-18
9303.99509 5.41560e-18
9305.99809 5.10829e-18
9308.00109 5.07365e-18
9310.00409 5.71632e-18
9311.99707 5.37142e-18
9314.00007 4.95529e-18
9316.00308 5.28502e-18
9317.99606 5.48735e-18
9319.99906 5.41088e-18
9322.00206 5.08498e-18
9324.00506 5.44468e-18
9325.99805 5.44329e-18
9328.00105 5.37214e-18
9330.00405 5.05941e-18
9331.99703 5.15066e-18
9334.00003 5.39698e-18
9336.00303 5.35925e-18
9337.99602 5.41683e-18
9339.99902 5.38033e-18
9342.00202 4.80268e-18
9343.99500 5.57121e-18
9345.99800 5.73413e-18
9348.00100 5.27416e-18
9350.00400 5.10784e-18
9351.99698 4.83267e-18
9353.99999 5.52463e-18
9356.00299 5.16783e-18
9357.99597 5.32682e-18
9359.99897 5.68786e-18
9362.00197 5.25921e-18
9363.99496 4.86745e-18
9365.99796 5.17739e-18
9368.00095 5.05311e-18
9370.00396 5.08597e-18
9371.99694 5.60184e-18
9373.99994 5.14711e-18
9376.00294 5.13856e-18
9377.99593 5.13918e-18
9379.99893 5.09367e-18
9382.00193 5.49766e-18
9384.00493 5.26012e-18
9385.99791 5.03162e-18
9388.00091 5.30389e-18
9390.00391 5.03291e-18
9391.99690 4.95797e-18
9393.99990 5.15019e-18
9396.00290 5.01882e-18
9397.99588 4.95082e-18
9399.99888 5.08968e-18
9402.00188 5.13639e-18
9404.00488 5.10238e-18
9405.99787 5.06030e-18
9408.00086 4.97325e-18
9410.00387 5.17026e-18
9411.99685 5.30860e-18
9413.99985 5.15766e-18
9416.00285 4.94399e-18
9417.99583 5.15239e-18
9419.99884 4.97896e-18
9422.00183 5.08544e-18
9423.99482 4.76276e-18
9425.99782 4.70487e-18
9428.00082 5.28731e-18
9430.00382 5.53903e-18
9431.99681 5.16240e-18
9433.99981 4.91814e-18
9436.00281 4.79884e-18
9437.99579 4.90418e-18
9439.99879 5.01625e-18
9442.00179 5.32849e-18
9444.00479 5.12708e-18
9445.99778 5.09136e-18
9448.00078 4.87635e-18
9450.00378 5.15639e-18
9451.99676 4.95527e-18
9453.99976 4.74327e-18
9456.00276 5.38969e-18
9457.99575 4.75701e-18
9459.99875 4.72547e-18
9462.00174 5.23929e-18
9464.00475 5.00761e-18
9465.99773 4.90429e-18
9468.00073 4.71512e-18
9470.00373 5.11693e-18
9471.99671 4.88961e-18
9473.99971 4.79874e-18
9476.00272 5.21805e-18
9477.99570 4.84488e-18
9479.99870 4.72885e-18
9482.00170 5.33338e-18
9483.99469 5.12554e-18
9485.99769 4.81840e-18
9488.00069 4.94334e-18
9490.00369 4.93372e-18
9491.99667 4.71991e-18
9493.99967 5.02698e-18
9496.00267 5.05224e-18
9497.99566 4.84044e-18
9499.99866 4.82401e-18
9502.00166 5.34126e-18
9504.00466 4.97091e-18
9505.99764 4.94466e-18
9508.00064 4.91538e-18
9510.00364 5.02075e-18
9511.99662 4.83632e-18
9513.99963 4.78576e-18
9516.00263 4.70260e-18
9517.99561 4.91477e-18
9519.99861 4.83958e-18
9522.00161 4.89517e-18
9524.00461 4.89701e-18
9525.99760 4.72377e-18
9528.00059 4.87531e-18
9530.00360 4.99975e-18
9531.99658 4.85036e-18
9533.99958 4.76444e-18
9536.00258 4.98568e-18
9537.99556 5.02782e-18
9539.99856 4.84698e-18
9542.00157 4.88330e-18
9544.00456 5.27292e-18
9545.99755 5.59281e-18
9548.00055 5.27323e-18
9550.00355 5.03054e-18
9551.99654 4.87051e-18
9553.99954 5.05188e-18
9556.00254 5.14119e-18
9557.99552 5.11036e-18
9559.99852 4.90371e-18
9562.00152 4.65809e-18
9564.00452 4.84428e-18
9565.99751 4.83715e-18
9568.00050 4.75517e-18
9570.00351 4.74197e-18
9571.99649 4.64839e-18
9573.99949 4.62976e-18
9576.00249 4.65988e-18
9577.99547 4.57019e-18
9579.99848 4.72485e-18
9582.00148 5.05810e-18
9584.00447 4.75642e-18
9585.99746 4.61243e-18
9588.00046 4.51355e-18
9590.00346 4.68577e-18
9591.99644 4.82177e-18
9593.99944 4.77984e-18
9596.00245 4.58147e-18
9597.99543 4.71748e-18
9599.99843 4.79584e-18
9602.00143 4.70282e-18
9604.00443 4.61171e-18
9605.99742 4.68936e-18
9608.00042 4.80457e-18
9610.00342 4.82309e-18
9611.99640 4.73348e-18
9613.99940 4.63329e-18
9616.00240 4.58787e-18
9617.99539 4.58477e-18
9619.99839 4.53089e-18
9622.00139 4.64810e-18
9624.00439 4.55946e-18
9625.99737 4.66405e-18
9628.00037 4.80129e-18
9630.00337 4.74570e-18
9631.99636 4.48249e-18
9633.99935 4.53792e-18
9636.00236 4.63134e-18
9637.99534 4.80874e-18
9639.99834 4.66486e-18
9642.00134 4.53380e-18
9644.00434 4.54047e-18
9645.99733 4.76036e-18
9648.00032 4.60067e-18
9650.00332 4.52729e-18
9651.99631 4.66355e-18
9653.99931 4.61283e-18
9656.00231 4.64266e-18
9657.99530 4.54249e-18
9659.99830 4.53997e-18
9662.00130 4.69882e-18
9664.00430 4.71117e-18
9665.99728 4.54042e-18
9668.00028 4.49588e-18
9670.00328 4.65134e-18
9671.99627 4.72677e-18
9673.99927 4.71404e-18
9676.00227 4.75222e-18
9677.99525 4.50654e-18
9679.99825 4.51097e-18
9682.00125 4.56053e-18
9684.00425 4.57714e-18
9685.99724 4.53662e-18
9688.00023 4.65251e-18
9690.00324 4.53254e-18
9691.99622 4.62484e-18
9693.99922 4.60307e-18
9696.00222 4.49950e-18
9697.99520 4.48571e-18
9699.99820 4.47288e-18
9702.00121 4.50834e-18
9704.00420 4.48477e-18
9705.99719 4.38124e-18
9708.00019 4.53046e-18
9710.00319 4.52206e-18
9711.99618 4.39339e-18
9713.99918 4.52212e-18
9716.00218 4.69007e-18
9717.99516 4.46842e-18
9719.99816 4.58156e-18
9722.00116 4.55875e-18
9724.00416 4.71104e-18
9725.99715 4.54424e-18
9728.00014 4.71113e-18
9730.00315 4.46959e-18
9731.99613 4.46985e-18
9733.99913 4.46365e-18
9736.00213 4.52875e-18
9738.00513 4.65914e-18
9739.99812 4.54143e-18
9742.00112 4.39417e-18
9744.00411 4.58978e-18
9745.99710 4.57400e-18
9748.00010 4.57003e-18
9750.00310 4.50760e-18
9751.99609 4.43047e-18
9753.99908 4.38940e-18
9756.00209 4.56370e-18
9757.99507 4.60816e-18
9759.99807 4.49721e-18
9762.00107 4.55119e-18
9764.00407 4.60871e-18
9765.99706 4.45843e-18
9768.00006 4.44340e-18
9770.00306 4.51104e-18
9771.99604 4.41378e-18
9773.99904 4.46068e-18
9776.00204 4.43679e-18
9777.99503 4.51270e-18
9779.99803 4.44313e-18
9782.00103 4.55506e-18
9784.00403 4.48998e-18
9785.99701 4.55298e-18
9788.00001 4.45309e-18
9790.00301 4.42719e-18
9791.99600 4.48165e-18
9793.99899 4.74927e-18
9796.00200 4.47306e-18
9798.00500 4.41544e-18
9799.99798 4.56055e-18
9802.00098 4.45489e-18
9804.00398 4.47501e-18
9805.99697 4.64687e-18
9807.99997 4.48143e-18
9810.00296 4.47700e-18
9811.99595 4.48679e-18
9813.99895 4.41427e-18
9816.00195 4.32677e-18
9817.99494 4.35796e-18
9819.99794 4.49152e-18
9822.00094 4.45555e-18
9824.00394 4.41079e-18
9825.99692 4.55893e-18
9827.99992 4.45982e-18
9830.00292 4.50740e-18
9831.99591 4.58088e-18
9833.99891 4.54782e-18
9836.00191 4.56071e-18
9837.99489 4.53266e-18
9839.99789 4.52746e-18
9842.00089 4.41232e-18
9844.00389 4.40975e-18
9845.99688 4.42891e-18
9847.99988 4.37350e-18
9850.00288 4.41019e-18
9851.99586 4.43995e-18
9853.99886 4.49877e-18
9856.00186 4.38625e-18
9858.00486 4.43077e-18
9859.99784 4.47941e-18
9862.00085 4.43896e-18
9864.00384 4.49973e-18
9865.99683 4.46000e-18
9867.99983 4.44766e-18
9870.00283 4.50084e-18
9871.99582 4.40183e-18
9873.99881 4.56485e-18
9876.00181 4.43386e-18
9878.00482 4.46701e-18
9879.99780 4.43758e-18
9882.00080 4.51915e-18
9884.00380 4.45769e-18
9885.99679 4.48242e-18
9887.99979 4.36468e-18
9890.00279 4.32179e-18
9891.99577 4.38831e-18
9893.99877 4.37592e-18
9896.00177 4.47918e-18
9897.99476 4.39243e-18
9899.99776 4.41154e-18
9902.00076 4.38874e-18
9904.00375 4.33758e-18
9905.99674 4.38323e-18
9907.99974 4.26246e-18
9910.00274 4.39790e-18
9911.99573 4.38656e-18
9913.99872 4.67148e-18
9916.00173 4.42719e-18
9918.00473 4.45150e-18
9919.99771 4.41969e-18
9922.00071 4.29628e-18
9924.00371 4.20263e-18
9925.99669 4.40192e-18
9927.99970 4.35403e-18
9930.00269 4.35545e-18
9931.99568 4.38447e-18
9933.99868 4.49499e-18
9936.00168 4.38963e-18
9938.00468 4.37854e-18
9939.99767 4.35954e-18
9942.00067 4.24772e-18
9944.00367 4.28549e-18
9945.99665 4.32320e-18
9947.99965 4.54189e-18
9950.00265 4.34398e-18
9951.99564 4.28408e-18
9953.99863 4.42069e-18
9956.00164 4.29682e-18
9957.99462 4.30636e-18
9959.99762 4.24482e-18
9962.00062 4.43924e-18
9964.00362 4.36729e-18
9965.99661 4.35034e-18
9967.99961 4.34992e-18
9970.00260 4.36658e-18
9971.99559 4.38376e-18
9973.99859 4.23674e-18
9976.00159 4.28847e-18
9978.00459 4.33223e-18
9979.99757 4.40014e-18
9982.00058 4.31461e-18
9984.00358 4.29574e-18
9985.99656 4.28265e-18
9987.99956 4.17555e-18
9990.00256 4.35321e-18
9991.99555 4.36360e-18
9993.99855 4.23811e-18
9996.00155 4.36637e-18
9998.00455 4.20860e-18
9999.99753 4.24476e-18
