# wavelength flux
3499.99738 6.44648e-18
3504.24544 5.02975e-18
3508.48348 3.77097e-18
3512.73153 2.19471e-18
3516.96957 2.81754e-18
3521.20761 3.92782e-18
3525.45566 4.12326e-18
3529.69370 5.24501e-18
3533.94176 5.28741e-18
3538.17979 4.44633e-18
3542.41783 4.08467e-18
3546.66589 3.06343e-18
3550.90392 1.61248e-18
3555.15198 2.69385e-18
3559.39002 4.27703e-18
3563.63807 3.74553e-18
3567.87611 2.77343e-18
3572.11415 3.39988e-18
3576.36220 4.15586e-18
3580.60024 4.35273e-18
3584.84830 4.28731e-18
3589.08633 3.83826e-18
3593.33439 3.41034e-18
3597.57242 3.07273e-18
3601.81046 3.56468e-18
3606.05852 3.52926e-18
3610.29655 3.42535e-18
3614.54461 3.71412e-18
3618.78265 3.98617e-18
3623.02068 3.99260e-18
3627.26874 3.93752e-18
3631.50678 4.07396e-18
3635.75483 3.30517e-18
3639.99287 2.52596e-18
3644.24093 3.27395e-18
3648.47896 3.58975e-18
3652.71700 3.53558e-18
3656.96506 2.87599e-18
3661.20309 3.19553e-18
3665.45115 3.27566e-18
3669.68919 3.11590e-18
3673.92722 3.62456e-18
3678.17528 4.04069e-18
3682.41332 3.56395e-18
3686.66137 3.21776e-18
3690.89941 3.12801e-18
3695.14747 2.66496e-18
3699.38550 3.21792e-18
3703.62354 3.94172e-18
3707.87160 3.84984e-18
3712.10963 3.48828e-18
3716.35769 3.29848e-18
3720.59573 3.10871e-18
3724.83376 2.91899e-18
3729.08182 2.72929e-18
3733.31986 2.53963e-18
3737.56791 2.35001e-18
3741.80595 2.16043e-18
3746.05400 1.97089e-18
3750.29204 1.78138e-18
3754.53008 1.59191e-18
3758.77814 1.18705e-18
3763.01617 1.02708e-18
3767.26423 9.40777e-19
3771.50227 7.44753e-19
3775.75032 8.28732e-19
3779.98836 7.67660e-19
3784.22640 7.19542e-19
3788.47445 9.56233e-19
3792.71249 6.17546e-19
3796.96054 1.89447e-19
3801.19858 6.98794e-20
3805.43662 3.00785e-19
3809.68467 2.94228e-19
3813.92271 3.42938e-19
3818.17077 6.04697e-19
3822.40880 5.47335e-19
3826.65686 6.65776e-19
3830.89490 7.67027e-19
3835.13293 6.41156e-19
3839.38099 5.72745e-19
3843.61903 6.23464e-19
3847.86708 7.63949e-19
3852.10512 9.27423e-19
3856.35318 8.20031e-19
3860.59121 5.27345e-19
3864.82925 6.45222e-19
3869.07731 9.42169e-19
3873.31534 1.09832e-18
3877.56340 1.28161e-18
3881.80144 1.17303e-18
3886.03947 1.25236e-18
3890.28753 1.47682e-18
3894.52557 1.71635e-18
3898.77362 2.09621e-18
3903.01166 2.54231e-18
3907.25972 2.89772e-18
3911.49775 3.39171e-18
3915.73579 3.42470e-18
3919.98385 3.57073e-18
3924.22188 3.95284e-18
3928.46994 4.14954e-18
3932.70798 4.12024e-18
3936.94601 4.03080e-18
3941.19407 4.08368e-18
3945.43210 4.09427e-18
3949.68016 3.77622e-18
3953.91820 3.70166e-18
3958.16625 3.94763e-18
3962.40429 4.19776e-18
3966.64233 4.30047e-18
3970.89038 4.09661e-18
3975.12842 4.19095e-18
3979.37648 4.52115e-18
3983.61451 4.76749e-18
3987.86257 4.76809e-18
3992.10061 4.66435e-18
3996.33864 4.87394e-18
4000.58670 5.21470e-18
4004.82474 5.48746e-18
4009.07279 5.82024e-18
4013.31083 6.30731e-18
4017.54887 6.38239e-18
4021.79692 6.46265e-18
4026.03496 6.68247e-18
4030.28302 6.62369e-18
4034.52105 6.74009e-18
4038.76911 6.72621e-18
4043.00715 6.49783e-18
4047.24518 6.51157e-18
4051.49324 6.59158e-18
4055.73128 6.38527e-18
4059.97933 6.05864e-18
4064.21737 5.83625e-18
4068.45541 5.70019e-18
4072.70346 5.49944e-18
4076.94150 5.36756e-18
4081.18955 5.28665e-18
4085.42759 5.41954e-18
4089.67565 5.55947e-18
4093.91368 5.34155e-18
4098.15172 5.49429e-18
4102.39978 5.62687e-18
4106.63782 5.21258e-18
4110.88587 5.13283e-18
4115.12391 5.21663e-18
4119.37196 5.07451e-18
4123.61000 5.03832e-18
4127.84804 5.15992e-18
4132.09609 5.27729e-18
4136.33413 5.54825e-18
4140.58219 5.67815e-18
4144.82022 5.51760e-18
4149.05826 5.50116e-18
4153.30632 5.78546e-18
4157.54435 5.73769e-18
4161.79241 5.62459e-18
4166.03045 5.55252e-18
4170.27850 5.69421e-18
4174.51654 5.79909e-18
4178.75458 5.83767e-18
4183.00263 5.75298e-18
4187.24067 5.61325e-18
4191.48873 5.41266e-18
4195.72676 5.20057e-18
4199.96480 5.29425e-18
4204.21286 5.43677e-18
4208.45089 5.42598e-18
4212.69895 5.47553e-18
4216.93699 5.59521e-18
4221.18504 5.59952e-18
4225.42308 5.54135e-18
4229.66112 5.56686e-18
4233.90917 5.59818e-18
4238.14721 5.47368e-18
4242.39527 5.40546e-18
4246.63330 5.48360e-18
4250.88136 5.46861e-18
4255.11940 5.17182e-18
4259.35743 4.97872e-18
4263.60549 5.17987e-18
4267.84353 5.32982e-18
4272.09158 5.28594e-18
4276.32962 5.02294e-18
4280.56765 5.04476e-18
4284.81571 5.33388e-18
4289.05375 5.62704e-18
4293.30180 5.50256e-18
4297.53984 5.33356e-18
4301.78790 5.28764e-18
4306.02593 5.23169e-18
4310.26397 5.10167e-18
4314.51203 4.97559e-18
4318.75006 5.05680e-18
4322.99812 4.97257e-18
4327.23616 4.82606e-18
4331.48421 4.85980e-18
4335.72225 4.96732e-18
4339.96029 4.93503e-18
4344.20834 4.71855e-18
4348.44638 4.58678e-18
4352.69444 4.61274e-18
4356.93247 4.43506e-18
4361.17051 4.25745e-18
4365.41857 4.07985e-18
4369.65660 3.90229e-18
4373.90466 3.72473e-18
4378.14270 3.54722e-18
4382.39075 3.36971e-18
4386.62879 3.19224e-18
4390.86683 3.01480e-18
4395.11488 3.16900e-18
4399.35292 3.39357e-18
4403.60098 3.52251e-18
4407.83901 3.81490e-18
4412.07705 4.10403e-18
4416.32510 4.33653e-18
4420.56314 4.55747e-18
4424.81120 4.76513e-18
4429.04923 4.91186e-18
4433.29729 5.19342e-18
4437.53533 5.36452e-18
4441.77337 5.55048e-18
4446.02142 5.92144e-18
4450.25946 6.11049e-18
4454.50751 6.10601e-18
4458.74555 6.30209e-18
4462.98359 6.50605e-18
4467.23164 6.62344e-18
4471.46968 6.68158e-18
4475.71774 6.68516e-18
4479.95577 6.68993e-18
4484.20383 6.52008e-18
4488.44187 6.31499e-18
4492.67990 6.27706e-18
4496.92796 6.21916e-18
4501.16600 6.15883e-18
4505.41405 6.36158e-18
4509.65209 6.41585e-18
4513.89013 6.35021e-18
4518.13818 6.29820e-18
4522.37622 6.32246e-18
4526.62428 6.66119e-18
4530.86231 6.92143e-18
4535.11037 7.21845e-18
4539.34841 7.48686e-18
4543.58644 7.63551e-18
4547.83450 7.69504e-18
4552.07254 7.71936e-18
4556.32059 7.80748e-18
4560.55863 8.01816e-18
4564.80668 8.21263e-18
4569.04472 8.52618e-18
4573.28276 8.74342e-18
4577.53082 8.79326e-18
4581.76885 8.75991e-18
4586.01691 8.79101e-18
4590.25495 8.82726e-18
4594.50300 8.76563e-18
4598.74104 8.67264e-18
4602.97908 8.78105e-18
4607.22713 8.79540e-18
4611.46517 8.47631e-18
4615.71322 8.28154e-18
4619.95126 8.29906e-18
4624.18930 8.26457e-18
4628.43735 8.06075e-18
4632.67539 7.75413e-18
4636.92345 7.69401e-18
4641.16148 7.83358e-18
4645.40954 7.81594e-18
4649.64758 7.93918e-18
4653.88561 8.13142e-18
4658.13367 8.05094e-18
4662.37171 8.02645e-18
4666.61976 8.12813e-18
4670.85780 8.30601e-18
4675.09584 8.44739e-18
4679.34389 8.71240e-18
4683.58193 8.90387e-18
4687.82999 9.16423e-18
4692.06802 9.55407e-18
4696.31608 9.83060e-18
4700.55412 9.92653e-18
4704.79215 9.93402e-18
4709.04021 1.00120e-17
4713.27825 1.01632e-17
4717.52630 1.02833e-17
4721.76434 1.02711e-17
4726.00238 1.02746e-17
4730.25043 1.01012e-17
4734.48847 9.86838e-18
4738.73653 9.77903e-18
4742.97456 9.62026e-18
4747.22262 9.55732e-18
4751.46065 9.43815e-18
4755.69869 9.35276e-18
4759.94675 9.22595e-18
4764.18478 9.11664e-18
4768.43284 9.07434e-18
4772.67088 9.12493e-18
4776.91893 9.17424e-18
4781.15697 9.13155e-18
4785.39501 9.17355e-18
4789.64306 9.09279e-18
4793.88110 8.86772e-18
4798.12916 8.62083e-18
4802.36719 8.35659e-18
4806.60523 8.26685e-18
4810.85329 8.13476e-18
4815.09132 7.78662e-18
4819.33938 7.37111e-18
4823.57742 7.05421e-18
4827.82547 6.78679e-18
4832.06351 6.50823e-18
4836.30155 6.19074e-18
4840.54960 5.90010e-18
4844.78764 5.67040e-18
4849.03570 5.50975e-18
4853.27373 5.29286e-18
4857.52179 5.07598e-18
4861.75983 4.85916e-18
4865.99786 4.64235e-18
4870.24592 4.42560e-18
4874.48396 4.20884e-18
4878.73201 3.99217e-18
4882.97005 3.77550e-18
4887.20809 3.55890e-18
4891.45614 3.34231e-18
4895.69418 3.42036e-18
4899.94223 3.52920e-18
4904.18027 3.75302e-18
4908.42833 3.90956e-18
4912.66637 4.13795e-18
4916.90440 4.46138e-18
4921.15246 4.73315e-18
4925.39050 5.09253e-18
4929.63855 5.53104e-18
4933.87659 6.03200e-18
4938.11463 6.51292e-18
4942.36268 6.85003e-18
4946.60072 7.27371e-18
4950.84877 7.86126e-18
4955.08681 8.44885e-18
4959.33487 9.03621e-18
4963.57290 9.62354e-18
4967.81094 1.02107e-17
4972.05900 1.07979e-17
4976.29703 1.13848e-17
4980.54509 1.19718e-17
4984.78313 1.25586e-17
4989.02116 1.31453e-17
4993.26922 1.33629e-17
4997.50726 1.36588e-17
5001.75531 1.36958e-17
5005.99335 1.37329e-17
5010.24141 1.37699e-17
5014.47944 1.38069e-17
5018.71748 1.38440e-17
5022.96554 1.38810e-17
5027.20357 1.39180e-17
5031.45163 1.39550e-17
5035.68967 1.39920e-17
5039.93772 1.38050e-17
5044.17576 1.34884e-17
5048.41380 1.31583e-17
5052.66185 1.27939e-17
5056.89989 1.25516e-17
5061.14795 1.24938e-17
5065.38598 1.21511e-17
5069.62402 1.17901e-17
5073.87208 1.14892e-17
5078.11011 1.11859e-17
5082.35817 1.09173e-17
5086.59620 1.06710e-17
5090.84426 1.06204e-17
5095.08230 1.05885e-17
5099.32033 1.03588e-17
5103.56839 1.01943e-17
5107.80643 1.02267e-17
5112.05448 1.01963e-17
5116.29252 9.99425e-18
5120.54058 9.94784e-18
5124.77861 9.92214e-18
5129.01665 9.96385e-18
5133.26471 1.01790e-17
5137.50274 1.03318e-17
5141.75080 1.05926e-17
5145.98884 1.08275e-17
5150.22687 1.09242e-17
5154.47493 1.09850e-17
5158.71297 1.10764e-17
5162.96102 1.12665e-17
5167.19906 1.14357e-17
5171.44712 1.14796e-17
5175.68515 1.15815e-17
5179.92319 1.16167e-17
5184.17125 1.15407e-17
5188.40928 1.14943e-17
5192.65734 1.13986e-17
5196.89538 1.12431e-17
5201.13341 1.12270e-17
5205.38147 1.12927e-17
5209.61951 1.13375e-17
5213.86756 1.13800e-17
5218.10560 1.14049e-17
5222.35365 1.15285e-17
5226.59169 1.14940e-17
5230.82973 1.13631e-17
5235.07778 1.12617e-17
5239.31582 1.10484e-17
5243.56388 1.09800e-17
5247.80192 1.09736e-17
5252.03995 1.09618e-17
5256.28801 1.09884e-17
5260.52605 1.12370e-17
5264.77410 1.14757e-17
5269.01214 1.15868e-17
5273.26019 1.15438e-17
5277.49823 1.16788e-17
5281.73627 1.17276e-17
5285.98432 1.16491e-17
5290.22236 1.16593e-17
5294.47042 1.16655e-17
5298.70845 1.17256e-17
5302.95651 1.17982e-17
5307.19455 1.19609e-17
5311.43258 1.22140e-17
5315.68064 1.24171e-17
5319.91868 1.25967e-17
5324.16673 1.26785e-17
5328.40477 1.27012e-17
5332.64281 1.26471e-17
5336.89086 1.24314e-17
5341.12890 1.22934e-17
5345.37696 1.23793e-17
5349.61499 1.23605e-17
5353.86305 1.23304e-17
5358.10109 1.25847e-17
5362.33912 1.27839e-17
5366.58718 1.29757e-17
5370.82522 1.31389e-17
5375.07327 1.32504e-17
5379.31131 1.34889e-17
5383.55937 1.37998e-17
5387.79740 1.39152e-17
5392.03544 1.38550e-17
5396.28350 1.40055e-17
5400.52153 1.41041e-17
5404.76959 1.40304e-17
5409.00763 1.38992e-17
5413.24566 1.38598e-17
5417.49372 1.39073e-17
5421.73175 1.40112e-17
5425.97981 1.38380e-17
5430.21785 1.36146e-17
5434.46590 1.35691e-17
5438.70394 1.34015e-17
5442.94198 1.31586e-17
5447.19003 1.29270e-17
5451.42807 1.27260e-17
5455.67613 1.28247e-17
5459.91416 1.30515e-17
5464.15220 1.31275e-17
5468.40026 1.33355e-17
5472.63829 1.36705e-17
5476.88635 1.41465e-17
5481.12439 1.43598e-17
5485.37244 1.46848e-17
5489.61048 1.52775e-17
5493.84852 1.57482e-17
5498.09657 1.61420e-17
5502.33461 1.63094e-17
5506.58267 1.65547e-17
5510.82070 1.69751e-17
5515.06876 1.72530e-17
5519.30680 1.75000e-17
5523.54483 1.77471e-17
5527.79289 1.78903e-17
5532.03093 1.80072e-17
5536.27898 1.80533e-17
5540.51702 1.80358e-17
5544.75506 1.80210e-17
5549.00311 1.79014e-17
5553.24115 1.76161e-17
5557.48920 1.72204e-17
5561.72724 1.67487e-17
5565.97530 1.61867e-17
5570.21333 1.56167e-17
5574.45137 1.52201e-17
5578.69943 1.49373e-17
5582.93747 1.45628e-17
5587.18552 1.42541e-17
5591.42356 1.40995e-17
5595.67161 1.39032e-17
5599.90965 1.36703e-17
5604.14769 1.35311e-17
5608.39574 1.34672e-17
5612.63378 1.34903e-17
5616.88184 1.35647e-17
5621.11987 1.35139e-17
5625.35791 1.34987e-17
5629.60597 1.35586e-17
5633.84400 1.35418e-17
5638.09206 1.35993e-17
5642.33010 1.35941e-17
5646.57815 1.36005e-17
5650.81619 1.36034e-17
5655.05423 1.36478e-17
5659.30228 1.35383e-17
5663.54032 1.32697e-17
5667.78838 1.30366e-17
5672.02641 1.27307e-17
5676.26445 1.24517e-17
5680.51251 1.21356e-17
5684.75054 1.14767e-17
5688.99860 1.09491e-17
5693.23664 1.04401e-17
5697.48469 9.66033e-18
5701.72273 8.97271e-18
5705.96077 8.23513e-18
5710.20882 7.40122e-18
5714.44686 6.60734e-18
5718.69492 5.87366e-18
5722.93295 5.28402e-18
5727.17099 4.81907e-18
5731.41905 4.39775e-18
5735.65708 4.14138e-18
5739.90514 4.13176e-18
5744.14318 4.10690e-18
5748.39123 3.95508e-18
5752.62927 3.95897e-18
5756.86730 4.17152e-18
5761.11536 4.49355e-18
5765.35340 4.89556e-18
5769.60145 5.21324e-18
5773.83949 5.63666e-18
5778.07753 6.20467e-18
5782.32558 6.73836e-18
5786.56362 7.39242e-18
5790.81168 8.22353e-18
5795.04971 9.07916e-18
5799.29777 9.79747e-18
5803.53581 1.05512e-17
5807.77384 1.14204e-17
5812.02190 1.23053e-17
5816.25994 1.30818e-17
5820.50799 1.37393e-17
5824.74603 1.45390e-17
5828.99409 1.53111e-17
5833.23212 1.59698e-17
5837.47016 1.66353e-17
5841.71822 1.74395e-17
5845.95625 1.80367e-17
5850.20431 1.84150e-17
5854.44235 1.89280e-17
5858.68038 1.95116e-17
5862.92844 2.00233e-17
5867.16648 2.03789e-17
5871.41453 2.06889e-17
5875.65257 2.10061e-17
5879.90063 2.12021e-17
5884.13866 2.11022e-17
5888.37670 2.06298e-17
5892.62475 2.01351e-17
5896.86279 1.96569e-17
5901.11085 1.91722e-17
5905.34888 1.88386e-17
5909.59694 1.87961e-17
5913.83498 1.89854e-17
5918.07302 1.91571e-17
5922.32107 1.93195e-17
5926.55911 1.92682e-17
5930.80716 1.90591e-17
5935.04520 1.86861e-17
5939.28324 1.82667e-17
5943.53129 1.80841e-17
5947.76933 1.80609e-17
5952.01739 1.78247e-17
5956.25542 1.73684e-17
5960.50348 1.69685e-17
5964.74152 1.67088e-17
5968.97955 1.64817e-17
5973.22761 1.63096e-17
5977.46565 1.60493e-17
5981.71370 1.56398e-17
5985.95174 1.53572e-17
5990.19980 1.50873e-17
5994.43783 1.49555e-17
5998.67587 1.46237e-17
6002.92393 1.42225e-17
6007.16196 1.40460e-17
6011.41002 1.38878e-17
6015.64806 1.38280e-17
6019.88609 1.37151e-17
6024.13415 1.34385e-17
6028.37219 1.33026e-17
6032.62024 1.32167e-17
6036.85828 1.31672e-17
6041.10633 1.29967e-17
6045.34437 1.27294e-17
6049.58241 1.25329e-17
6053.83047 1.22789e-17
6058.06850 1.20002e-17
6062.31656 1.18851e-17
6066.55460 1.18140e-17
6070.80265 1.16360e-17
6075.04069 1.15489e-17
6079.27873 1.16308e-17
6083.52678 1.17679e-17
6087.76482 1.19342e-17
6092.01287 1.20134e-17
6096.25091 1.20783e-17
6100.48895 1.21715e-17
6104.73700 1.24077e-17
6108.97504 1.24105e-17
6113.22310 1.22752e-17
6117.46113 1.23019e-17
6121.70919 1.22408e-17
6125.94723 1.22854e-17
6130.18526 1.24966e-17
6134.43332 1.25539e-17
6138.67136 1.25311e-17
6142.91941 1.24165e-17
6147.15745 1.22289e-17
6151.39549 1.20511e-17
6155.64354 1.18008e-17
6159.88158 1.15312e-17
6164.12964 1.14696e-17
6168.36767 1.15061e-17
6172.61573 1.15331e-17
6176.85377 1.16017e-17
6181.09180 1.16583e-17
6185.33986 1.17767e-17
6189.57790 1.18757e-17
6193.82595 1.20139e-17
6198.06399 1.20706e-17
6202.30203 1.21458e-17
6206.55008 1.22137e-17
6210.78812 1.24227e-17
6215.03618 1.27052e-17
6219.27421 1.28451e-17
6223.52227 1.29414e-17
6227.76030 1.31763e-17
6231.99834 1.33472e-17
6236.24640 1.33734e-17
6240.48443 1.33123e-17
6244.73249 1.33066e-17
6248.97053 1.33096e-17
6253.20857 1.33305e-17
6257.45662 1.34639e-17
6261.69466 1.34665e-17
6265.94271 1.32945e-17
6270.18075 1.31310e-17
6274.42881 1.29173e-17
6278.66684 1.26999e-17
6282.90488 1.24824e-17
6287.15294 1.22780e-17
6291.39097 1.22425e-17
6295.63903 1.23681e-17
6299.87707 1.24903e-17
6304.12512 1.24773e-17
6308.36316 1.24692e-17
6312.60120 1.25349e-17
6316.84925 1.25559e-17
6321.08729 1.25761e-17
6325.33535 1.26050e-17
6329.57338 1.26918e-17
6333.81142 1.27621e-17
6338.05948 1.27628e-17
6342.29751 1.27670e-17
6346.54557 1.28176e-17
6350.78361 1.28361e-17
6355.03166 1.28328e-17
6359.26970 1.28187e-17
6363.50774 1.26859e-17
6367.75579 1.26399e-17
6371.99383 1.26347e-17
6376.24188 1.25744e-17
6380.47992 1.27383e-17
6384.71796 1.28256e-17
6388.96602 1.28434e-17
6393.20405 1.28189e-17
6397.45211 1.29225e-17
6401.69015 1.29436e-17
6405.93820 1.28313e-17
6410.17624 1.28326e-17
6414.41428 1.27887e-17
6418.66233 1.27354e-17
6422.90037 1.26938e-17
6427.14842 1.26486e-17
6431.38646 1.26819e-17
6435.63452 1.27610e-17
6439.87255 1.28979e-17
6444.11059 1.30424e-17
6448.35865 1.31372e-17
6452.59668 1.32261e-17
6456.84474 1.32041e-17
6461.08278 1.30823e-17
6465.32081 1.30198e-17
6469.56887 1.31188e-17
6473.80691 1.30805e-17
6478.05496 1.29170e-17
6482.29300 1.28118e-17
6486.54106 1.27775e-17
6490.77909 1.22461e-17
6495.01713 1.20848e-17
6499.26519 1.17693e-17
6503.50322 1.13510e-17
6507.75128 1.08085e-17
6511.98932 1.02136e-17
6516.23737 9.64744e-18
6520.47541 9.08140e-18
6524.71345 8.56693e-18
6528.96150 8.13510e-18
6533.19954 7.74573e-18
6537.44760 7.44380e-18
6541.68563 7.26902e-18
6545.92367 7.59548e-18
6550.17173 7.92191e-18
6554.40976 8.24828e-18
6558.65782 8.57466e-18
6562.89585 8.90098e-18
6567.14391 9.22731e-18
6571.38195 9.55363e-18
6575.61998 9.87988e-18
6579.86804 1.02061e-17
6584.10608 1.05324e-17
6588.35413 1.08586e-17
6592.59217 1.11848e-17
6596.84023 1.15109e-17
6601.07826 1.18371e-17
6605.31630 1.21632e-17
6609.56436 1.24893e-17
6613.80239 1.27745e-17
6618.05045 1.30480e-17
6622.28849 1.33101e-17
6626.52652 1.35612e-17
6630.77458 1.37992e-17
6635.01262 1.40205e-17
6639.26067 1.42222e-17
6643.49871 1.43999e-17
6647.74677 1.45467e-17
6651.98480 1.46567e-17
6656.22284 1.47238e-17
6660.47090 1.47500e-17
6664.70893 1.47372e-17
6668.95699 1.46881e-17
6673.19503 1.46065e-17
6677.43306 1.44971e-17
6681.68112 1.43654e-17
6685.91916 1.42163e-17
6690.16721 1.40522e-17
6694.40525 1.38763e-17
6698.65330 1.36909e-17
6702.89134 1.35024e-17
6707.12938 1.33159e-17
6711.37743 1.31369e-17
6715.61547 1.29659e-17
6719.86353 1.28016e-17
6724.10157 1.26439e-17
6728.33960 1.24894e-17
6732.58766 1.23311e-17
6736.82570 1.21629e-17
6741.07375 1.19786e-17
6745.31179 1.17835e-17
6749.55984 1.15818e-17
6753.79788 1.13777e-17
6758.03592 1.11774e-17
6762.28397 1.09868e-17
6766.52201 1.08135e-17
6770.77007 1.06601e-17
6775.00810 1.05227e-17
6779.25616 1.03986e-17
6783.49420 1.02841e-17
6787.73223 1.01807e-17
6791.98029 1.00883e-17
6796.21833 1.00081e-17
6800.46638 9.93536e-18
6804.70442 9.86532e-18
6808.94246 9.79217e-18
6813.19051 9.71520e-18
6817.42855 9.63907e-18
6821.67661 9.56683e-18
6825.91464 9.50148e-18
6830.16270 9.44321e-18
6834.40074 9.39218e-18
6838.63877 9.34936e-18
6842.88683 9.30832e-18
6847.12487 9.26209e-18
6851.37292 9.20365e-18
6855.61096 9.12717e-18
6859.84900 9.02839e-18
6864.09705 8.90379e-18
6868.33509 8.75150e-18
6872.58315 8.57202e-18
6876.82118 8.36768e-18
6881.06924 8.14072e-18
6885.30728 7.90582e-18
6889.54531 7.67865e-18
6893.79337 7.47620e-18
6898.03140 7.31281e-18
6902.27946 7.20055e-18
6906.51750 7.15083e-18
6910.76555 7.17345e-18
6915.00359 7.27820e-18
6919.24163 7.47155e-18
6923.48968 7.75994e-18
6927.72772 8.13031e-18
6931.97578 8.56833e-18
6936.21381 9.05848e-18
6940.45185 9.58471e-18
6944.69991 1.01314e-17
6948.93794 1.06815e-17
6953.18600 1.12224e-17
6957.42404 1.17582e-17
6961.67209 1.22900e-17
6965.91013 1.28215e-17
6970.14817 1.33500e-17
6974.39622 1.38735e-17
6978.63426 1.43913e-17
6982.88232 1.49008e-17
6987.12035 1.53985e-17
6991.35839 1.58808e-17
6995.60645 1.63442e-17
6999.84448 1.67878e-17
7004.09254 1.72093e-17
7008.33058 1.76070e-17
7012.57863 1.79740e-17
7016.81667 1.83036e-17
7021.05471 1.85899e-17
7025.30276 1.88269e-17
7029.54080 1.90094e-17
7033.78885 1.91322e-17
7038.02689 1.91934e-17
7042.27495 1.91986e-17
7046.51298 1.91524e-17
7050.75102 1.90608e-17
7054.99908 1.89271e-17
7059.23712 1.87552e-17
7063.48517 1.85498e-17
7067.72321 1.83150e-17
7071.96125 1.80546e-17
7076.20930 1.77717e-17
7080.44734 1.74708e-17
7084.69539 1.71578e-17
7088.93343 1.68385e-17
7093.18149 1.65187e-17
7097.41952 1.61944e-17
7101.65756 1.58634e-17
7105.90562 1.55214e-17
7110.14365 1.51752e-17
7114.39171 1.48335e-17
7118.62975 1.45042e-17
7122.87780 1.41951e-17
7127.11584 1.39131e-17
7131.35388 1.36652e-17
7135.60193 1.34575e-17
7139.83997 1.32873e-17
7144.08803 1.31521e-17
7148.32606 1.30482e-17
7152.56410 1.29751e-17
7156.81216 1.29324e-17
7161.05019 1.29189e-17
7165.29825 1.29332e-17
7169.53629 1.29739e-17
7173.78434 1.30397e-17
7178.02238 1.31290e-17
7182.26042 1.32370e-17
7186.50847 1.33600e-17
7190.74651 1.34939e-17
7194.99457 1.36384e-17
7199.23260 1.37940e-17
7203.47064 1.39597e-17
7207.71870 1.41400e-17
7211.95673 1.43440e-17
7216.20479 1.45789e-17
7220.44283 1.48506e-17
7224.69088 1.51540e-17
7228.92892 1.54853e-17
7233.16695 1.58402e-17
7237.41501 1.62056e-17
7241.65305 1.65679e-17
7245.90110 1.69122e-17
7250.13914 1.72292e-17
7254.37718 1.75140e-17
7258.62523 1.77609e-17
7262.86327 1.79666e-17
7267.11133 1.81348e-17
7271.34936 1.82686e-17
7275.59742 1.83728e-17
7279.83546 1.84474e-17
7284.07349 1.84926e-17
7288.32155 1.85099e-17
7292.55959 1.84973e-17
7296.80764 1.84509e-17
7301.04568 1.83670e-17
7305.29374 1.82435e-17
7309.53177 1.80852e-17
7313.76981 1.78958e-17
7318.01787 1.76806e-17
7322.25590 1.74394e-17
7326.50396 1.71734e-17
7330.74200 1.68836e-17
7334.98003 1.65750e-17
7339.22809 1.62545e-17
7343.46613 1.59280e-17
7347.71418 1.56027e-17
7351.95222 1.52900e-17
7356.20028 1.49997e-17
7360.43831 1.47418e-17
7364.67635 1.45125e-17
7368.92440 1.43082e-17
7373.16244 1.41245e-17
7377.41050 1.39571e-17
7381.64853 1.38023e-17
7385.89659 1.36549e-17
7390.13463 1.35120e-17
7394.37267 1.33763e-17
7398.62072 1.32492e-17
7402.85876 1.31331e-17
7407.10681 1.30274e-17
7411.34485 1.29321e-17
7415.58289 1.28470e-17
7419.83094 1.27728e-17
7424.06898 1.27098e-17
7428.31704 1.26580e-17
7432.55507 1.26172e-17
7436.80313 1.25874e-17
7441.04117 1.25686e-17
7445.27920 1.25604e-17
7449.52726 1.25553e-17
7453.76530 1.25472e-17
7458.01335 1.25288e-17
7462.25139 1.24990e-17
7466.48943 1.24585e-17
7470.73748 1.24070e-17
7474.97552 1.23466e-17
7479.22358 1.22822e-17
7483.46161 1.22184e-17
7487.70967 1.21596e-17
7491.94771 1.21012e-17
7496.18574 1.20399e-17
7500.43380 1.19720e-17
7504.67184 1.18946e-17
7508.91989 1.18046e-17
7513.15793 1.16990e-17
7517.40598 1.15769e-17
7521.64402 1.14400e-17
7525.88206 1.12897e-17
7530.13012 1.11283e-17
7534.36815 1.09622e-17
7538.61621 1.07973e-17
7542.85425 1.06400e-17
7547.09228 1.04923e-17
7551.34034 1.03555e-17
7555.57838 1.02327e-17
7559.82643 1.01215e-17
7564.06447 1.00153e-17
7568.31252 9.90800e-18
7572.55056 9.79477e-18
7576.78860 9.68753e-18
7581.03665 9.59412e-18
7585.27469 9.52481e-18
7589.52275 9.47710e-18
7593.76078 9.44821e-18
7597.99882 9.43626e-18
7602.24688 9.43658e-18
7606.48491 9.44315e-18
7610.73297 9.44960e-18
7614.97101 9.45142e-18
7619.21906 9.45446e-18
7623.45710 9.46265e-18
7627.69514 9.48159e-18
7631.94319 9.51200e-18
7636.18123 9.55529e-18
7640.42929 9.61149e-18
7644.66732 9.68435e-18
7648.91538 9.77873e-18
7653.15342 9.89868e-18
7657.39145 1.00455e-17
7661.63951 1.02114e-17
7665.87755 1.03900e-17
7670.12560 1.05751e-17
7674.36364 1.07556e-17
7678.60168 1.09218e-17
7682.84973 1.10618e-17
7687.08777 1.11755e-17
7691.33583 1.12682e-17
7695.57386 1.13441e-17
7699.82192 1.14097e-17
7704.05995 1.14756e-17
7708.29799 1.15514e-17
7712.54605 1.16475e-17
7716.78408 1.17606e-17
7721.03214 1.18875e-17
7725.27018 1.20260e-17
7729.50822 1.21671e-17
7733.75627 1.23000e-17
7737.99431 1.24134e-17
7742.24236 1.25004e-17
7746.48040 1.25654e-17
7750.72846 1.26106e-17
7754.96649 1.26383e-17
7759.20453 1.26562e-17
7763.45259 1.26708e-17
7767.69062 1.26917e-17
7771.93868 1.27140e-17
7776.17672 1.27291e-17
7780.42477 1.27296e-17
7784.66281 1.27081e-17
7788.90085 1.26590e-17
7793.14890 1.25764e-17
7797.38694 1.24550e-17
7801.63500 1.23039e-17
7805.87303 1.21308e-17
7810.11107 1.19449e-17
7814.35913 1.17529e-17
7818.59716 1.15609e-17
7822.84522 1.13767e-17
7827.08326 1.12029e-17
7831.33131 1.10357e-17
7835.56935 1.08724e-17
7839.80739 1.07096e-17
7844.05544 1.05492e-17
7848.29348 1.03922e-17
7852.54153 1.02387e-17
7856.77957 1.00918e-17
7861.02763 9.95444e-18
7865.26567 9.83037e-18
7869.50370 9.72025e-18
7873.75176 9.62155e-18
7877.98980 9.53242e-18
7882.23785 9.45066e-18
7886.47589 9.37511e-18
7890.71393 9.30431e-18
7894.96198 9.23663e-18
7899.20002 9.17181e-18
7903.44807 9.10986e-18
7907.68611 9.05066e-18
7911.93417 8.99457e-18
7916.17220 8.94219e-18
7920.41024 8.89414e-18
7924.65830 8.85083e-18
7928.89633 8.81104e-18
7933.14439 8.77380e-18
7937.38243 8.73798e-18
7941.62046 8.70260e-18
7945.86852 8.66665e-18
7950.10656 8.62938e-18
7954.35461 8.58962e-18
7958.59265 8.54610e-18
7962.84071 8.49781e-18
7967.07874 8.44438e-18
7971.31678 8.38775e-18
7975.56484 8.32955e-18
7979.80287 8.27092e-18
7984.05093 8.21657e-18
7988.28897 8.17046e-18
7992.53702 8.13785e-18
7996.77506 8.11745e-18
8001.01310 8.10453e-18
8005.26115 8.09523e-18
8009.49919 8.08525e-18
8013.74725 8.07004e-18
8017.98528 8.04531e-18
8022.22332 8.00579e-18
8026.47138 7.95685e-18
8030.70941 7.90322e-18
8034.95747 7.85105e-18
8039.19550 7.80190e-18
8043.44356 7.75539e-18
8047.68160 7.71209e-18
8051.91963 7.67160e-18
8056.16769 7.63132e-18
8060.40573 7.58900e-18
8064.65378 7.54178e-18
8068.89182 7.49175e-18
8073.12986 7.44046e-18
8077.37791 7.38955e-18
8081.61595 7.33987e-18
8085.86401 7.29189e-18
8090.10204 7.24636e-18
8094.35010 7.20273e-18
8098.58814 7.15779e-18
8102.82617 7.10909e-18
8107.07423 7.05452e-18
8111.31227 6.99043e-18
8115.56032 6.91435e-18
8119.79836 6.82273e-18
8124.03640 6.72006e-18
8128.28445 6.61315e-18
8132.52249 6.50816e-18
8136.77055 6.41242e-18
8141.00858 6.33437e-18
8145.25664 6.28181e-18
8149.49468 6.26200e-18
8153.73271 6.27152e-18
8157.98077 6.30735e-18
8162.21881 6.36553e-18
8166.46686 6.44044e-18
8170.70490 6.52585e-18
8174.95295 6.61458e-18
8179.19099 6.70133e-18
8183.42903 6.78368e-18
8187.67708 6.85911e-18
8191.91512 6.92606e-18
8196.16318 6.98161e-18
8200.40121 7.02436e-18
8204.63925 7.05109e-18
8208.88731 7.06970e-18
8213.12534 7.08874e-18
8217.37340 7.11727e-18
8221.61144 7.15917e-18
8225.84948 7.21208e-18
8230.09753 7.27551e-18
8234.33557 7.34754e-18
8238.58362 7.41358e-18
8242.82166 7.46216e-18
8247.06972 7.47827e-18
8251.30775 7.46735e-18
8255.55581 7.43654e-18
8259.79385 7.39220e-18
8264.03188 7.34299e-18
8268.27994 7.29859e-18
8272.51798 7.26954e-18
8276.76603 7.26413e-18
8281.00407 7.27166e-18
8285.24211 7.28518e-18
8289.49016 7.29491e-18
8293.72820 7.30191e-18
8297.97626 7.30728e-18
8302.21429 7.30958e-18
8306.46235 7.31312e-18
8310.70039 7.32521e-18
8314.93842 7.35338e-18
8319.18648 7.40192e-18
8323.42452 7.45503e-18
8327.67257 7.50203e-18
8331.91061 7.53080e-18
8336.14865 7.53977e-18
8340.39670 7.52872e-18
8344.63474 7.49400e-18
8348.88279 7.44729e-18
8353.12083 7.40768e-18
8357.36889 7.39396e-18
8361.60693 7.42093e-18
8365.84496 7.48406e-18
8370.09302 7.58314e-18
8374.33106 7.71720e-18
8378.57911 7.88076e-18
8382.81715 8.06897e-18
8387.05518 8.27270e-18
8391.30324 8.49810e-18
8395.54128 8.75721e-18
8399.78933 9.06025e-18
8404.02737 9.41582e-18
8408.27543 9.82617e-18
8412.51346 1.02941e-17
8416.75150 1.08215e-17
8420.99956 1.13991e-17
8425.23759 1.20168e-17
8429.48565 1.26636e-17
8433.72369 1.33285e-17
8437.97174 1.40011e-17
8442.20978 1.46699e-17
8446.44782 1.53260e-17
8450.69587 1.59657e-17
8454.93391 1.65845e-17
8459.18197 1.71780e-17
8463.42000 1.77483e-17
8467.65804 1.82964e-17
8471.90610 1.88266e-17
8476.14413 1.93299e-17
8480.39219 1.97946e-17
8484.63023 2.02101e-17
8488.87828 2.05675e-17
8493.11632 2.08619e-17
8497.35436 2.10887e-17
8501.60241 2.12450e-17
8505.84045 2.13353e-17
8510.08851 2.13654e-17
8514.32654 2.13417e-17
8518.57460 2.12782e-17
8522.81264 2.11911e-17
8527.05067 2.10963e-17
8531.29873 2.10091e-17
8535.53677 2.09437e-17
8539.78482 2.09136e-17
8544.02286 2.09315e-17
8548.26089 2.09884e-17
8552.50895 2.10782e-17
8556.74699 2.11911e-17
8560.99504 2.13300e-17
8565.23308 2.14991e-17
8569.48114 2.17004e-17
8573.71917 2.19391e-17
8577.95721 2.22232e-17
8582.20527 2.25590e-17
8586.44330 2.29514e-17
8590.69136 2.33978e-17
8594.92940 2.38945e-17
8599.17745 2.44384e-17
8603.41549 2.50116e-17
8607.65353 2.55947e-17
8611.90158 2.61685e-17
8616.13962 2.67141e-17
8620.38768 2.72145e-17
8624.62571 2.76527e-17
8628.86375 2.80156e-17
8633.11181 2.83145e-17
8637.34984 2.85569e-17
8641.59790 2.87523e-17
8645.83594 2.89062e-17
8650.08399 2.90228e-17
8654.32203 2.91135e-17
8658.56007 2.91663e-17
8662.80812 2.91548e-17
8667.04616 2.90571e-17
8671.29421 2.88558e-17
8675.53225 2.85598e-17
8679.77029 2.81749e-17
8684.01834 2.77057e-17
8688.25638 2.71856e-17
8692.50444 2.66463e-17
8696.74248 2.61254e-17
8700.99053 2.56378e-17
8705.22857 2.51849e-17
8709.46661 2.47711e-17
8713.71466 2.43943e-17
8717.95270 2.40386e-17
8722.20075 2.36893e-17
8726.43879 2.33293e-17
8730.67683 2.29539e-17
8734.92488 2.25595e-17
8739.16292 2.21393e-17
8743.41098 2.17019e-17
8747.64901 2.12618e-17
8751.89707 2.08340e-17
8756.13511 2.04309e-17
8760.37314 2.00550e-17
8764.62120 1.97108e-17
8768.85924 1.94020e-17
8773.10729 1.91247e-17
8777.34533 1.88747e-17
8781.58337 1.86449e-17
8785.83142 1.84315e-17
8790.06946 1.82303e-17
8794.31752 1.80378e-17
8798.55555 1.78475e-17
8802.80361 1.76467e-17
8807.04165 1.74254e-17
8811.28970 1.71738e-17
8815.52774 1.68947e-17
8819.76578 1.65908e-17
8824.01383 1.62648e-17
8828.25187 1.59272e-17
8832.49993 1.55908e-17
8836.73796 1.52691e-17
8840.97600 1.49713e-17
8845.22406 1.46983e-17
8849.46209 1.44519e-17
8853.71015 1.42324e-17
8857.94818 1.40373e-17
8862.18622 1.38626e-17
8866.43428 1.37052e-17
8870.67231 1.35568e-17
8874.92037 1.34092e-17
8879.15841 1.32529e-17
8883.40646 1.30843e-17
8887.64450 1.29075e-17
8891.88254 1.27247e-17
8896.13059 1.25387e-17
8900.36863 1.23572e-17
8904.61669 1.21861e-17
8908.85472 1.20349e-17
8913.10278 1.18950e-17
8917.34082 1.17561e-17
8921.57885 1.16081e-17
8925.82691 1.14434e-17
8930.06495 1.12586e-17
8934.31300 1.10492e-17
8938.55104 1.08130e-17
8942.78908 1.05617e-17
8947.03713 1.03052e-17
8951.27517 1.00556e-17
8955.52323 9.82085e-18
8959.76126 9.60879e-18
8964.00932 9.42775e-18
8968.24736 9.28183e-18
8972.48539 9.17113e-18
8976.73345 9.09538e-18
8980.97149 9.05278e-18
8985.21954 9.03988e-18
8989.45758 9.05245e-18
8993.69562 9.08679e-18
8997.94367 9.13435e-18
9002.18171 9.18732e-18
9006.42977 9.23504e-18
9010.66780 9.27755e-18
9014.91586 9.32197e-18
9019.15389 9.37349e-18
9023.39193 9.43632e-18
9027.63999 9.50625e-18
9031.87802 9.58082e-18
9036.12608 9.66036e-18
9040.36412 9.72779e-18
9044.61217 9.76862e-18
9048.85021 9.76262e-18
9053.08825 9.71455e-18
9057.33630 9.64242e-18
9061.57434 9.56139e-18
9065.82240 9.48563e-18
9070.06043 9.41854e-18
9074.29847 9.36620e-18
9078.54653 9.33642e-18
9082.78456 9.31690e-18
9087.03262 9.29715e-18
9091.27066 9.26124e-18
9095.51871 9.21240e-18
9099.75675 9.16097e-18
9103.99479 9.11507e-18
9108.24284 9.08207e-18
9112.48088 9.06416e-18
9116.72894 9.06495e-18
9120.96697 9.08903e-18
9125.21503 9.12679e-18
9129.45307 9.17041e-18
9133.69110 9.20945e-18
9137.93916 9.24465e-18
9142.17720 9.28066e-18
9146.42525 9.32056e-18
9150.66329 9.36972e-18
9154.90133 9.43745e-18
9159.14938 9.53248e-18
9163.38742 9.66496e-18
9167.63548 9.82744e-18
9171.87351 1.00150e-17
9176.11155 1.02191e-17
9180.35961 1.04439e-17
9184.59764 1.06957e-17
9188.84570 1.09778e-17
9193.08374 1.12942e-17
9197.33179 1.16504e-17
9201.56983 1.20498e-17
9205.81788 1.24949e-17
9210.05592 1.29591e-17
9214.29396 1.34187e-17
9218.54201 1.38475e-17
9222.78005 1.42284e-17
9227.02811 1.45473e-17
9231.26614 1.47890e-17
9235.50418 1.49459e-17
9239.75224 1.50202e-17
9243.99027 1.50143e-17
9248.23833 1.49330e-17
9252.47637 1.47848e-17
9256.72442 1.45788e-17
9260.96246 1.43266e-17
9265.20050 1.40320e-17
9269.44855 1.36975e-17
9273.68659 1.33264e-17
9277.93465 1.29214e-17
9282.17268 1.24853e-17
9286.41072 1.20211e-17
9290.65878 1.15323e-17
9294.89681 1.10203e-17
9299.14487 1.04885e-17
9303.38291 9.94055e-18
9307.63096 9.38731e-18
9311.86900 8.84184e-18
9316.10704 8.31249e-18
9320.35509 7.82113e-18
9324.59313 7.39961e-18
9328.84118 7.07666e-18
9333.07922 6.87534e-18
9337.31726 6.77501e-18
9341.56531 6.76161e-18
9345.80335 6.81507e-18
9350.05141 6.92634e-18
9354.28944 7.08509e-18
9358.53750 7.27342e-18
9362.77554 7.48802e-18
9367.01358 7.73386e-18
9371.26163 8.01540e-18
9375.49967 8.33041e-18
9379.74772 8.63104e-18
9383.98576 8.88206e-18
9388.22380 9.04517e-18
9392.47185 9.11185e-18
9396.70989 9.07766e-18
9400.95795 8.93377e-18
9405.19598 8.70199e-18
9409.44404 8.42056e-18
9413.68208 8.12723e-18
9417.92011 7.85620e-18
9422.16817 7.61772e-18
9426.40621 7.42604e-18
9430.65426 7.29408e-18
9434.89230 7.21311e-18
9439.14036 7.17279e-18
9443.37839 7.16026e-18
9447.61643 7.16365e-18
9451.86449 7.17209e-18
9456.10252 7.17185e-18
9460.35058 7.15535e-18
9464.58862 7.13379e-18
9468.83667 7.11434e-18
