# wavelength flux
4752.41246 1.01966e-17
4753.59470 9.56498e-18
4754.77694 1.06371e-17
4755.95919 9.85765e-18
4757.14143 9.96700e-18
4758.31365 9.72338e-18
4759.49589 9.83326e-18
4760.67814 1.00805e-17
4761.86038 1.00168e-17
4763.04262 1.00137e-17
4764.22486 1.00527e-17
4765.40710 1.00131e-17
4766.58935 1.01313e-17
4767.77159 9.22989e-18
4768.95383 1.00929e-17
4770.13607 9.82139e-18
4771.31831 9.67924e-18
4772.50055 9.66524e-18
4773.67278 1.01502e-17
4774.85502 9.40494e-18
4776.03726 9.57313e-18
4777.21950 9.74392e-18
4778.40175 1.02232e-17
4779.58399 1.01641e-17
4780.76623 9.58523e-18
4781.94847 9.41107e-18
4783.13071 1.04454e-17
4784.31296 9.66145e-18
4785.49520 1.00065e-17
4786.67744 1.01193e-17
4787.84966 9.08697e-18
4789.03190 8.81318e-18
4790.21415 9.71553e-18
4791.39639 9.94949e-18
4792.57863 8.98340e-18
4793.76087 9.50452e-18
4794.94312 9.87539e-18
4796.12536 9.71228e-18
4797.30760 9.46777e-18
4798.48984 9.23852e-18
4799.67208 9.49848e-18
4800.85433 9.60377e-18
4802.03657 9.72249e-18
4803.21881 9.82617e-18
4804.39103 9.98192e-18
4805.57327 9.72844e-18
4806.75552 9.56215e-18
4807.93776 1.00754e-17
4809.12000 9.83826e-18
4810.30224 9.29567e-18
4811.48448 9.98607e-18
4812.66673 9.11918e-18
4813.84897 9.51445e-18
4815.03121 9.90579e-18
4816.21345 1.00035e-17
4817.39569 9.97055e-18
4818.57794 9.33606e-18
4819.75016 9.74098e-18
4820.93240 9.51564e-18
4822.11464 9.47497e-18
4823.29688 9.34510e-18
4824.47913 9.30409e-18
4825.66137 8.93857e-18
4826.84361 8.58530e-18
4828.02585 9.72565e-18
4829.20809 1.00879e-17
4830.39034 9.03384e-18
4831.57258 8.35434e-18
4832.75482 8.44991e-18
4833.92704 8.85332e-18
4835.10929 8.64860e-18
4836.29153 9.25872e-18
4837.47377 9.41815e-18
4838.65601 9.23610e-18
4839.83825 9.18750e-18
4841.02050 8.89081e-18
4842.20274 9.06527e-18
4843.38498 1.02501e-17
4844.56722 9.63179e-18
4845.74946 9.30104e-18
4846.93171 1.04795e-17
4848.11395 9.48378e-18
4849.29619 9.46842e-18
4850.46841 8.62513e-18
4851.65065 9.00021e-18
4852.83290 9.05116e-18
4854.01514 9.10207e-18
4855.19738 9.15302e-18
4856.37962 9.20394e-18
4857.56187 9.25486e-18
4858.74411 9.30578e-18
4859.92635 9.35670e-18
4861.10859 9.40761e-18
4862.29083 9.45852e-18
4863.47307 9.50943e-18
4864.64530 9.56034e-18
4865.82754 9.61124e-18
4867.00978 9.66214e-18
4868.19202 9.71304e-18
4869.37427 9.76396e-18
4870.55651 9.81484e-18
4871.73875 9.86573e-18
4872.92099 9.91664e-18
4874.10323 9.96751e-18
4875.28548 1.00184e-17
4876.46772 1.00693e-17
4877.64996 1.01202e-17
4878.83220 1.01711e-17
4880.00443 1.02219e-17
4881.18667 1.02728e-17
4882.36891 1.03237e-17
4883.55115 1.03745e-17
4884.73339 1.04254e-17
4885.91563 1.04763e-17
4887.09788 1.05271e-17
4888.28012 1.05780e-17
4889.46236 1.06289e-17
4890.64460 1.03001e-17
4891.82685 1.02478e-17
4893.00909 1.04899e-17
4894.19133 1.09348e-17
4895.36355 1.11269e-17
4896.54579 1.06880e-17
4897.72804 1.08560e-17
4898.91028 9.84541e-18
4900.09252 1.04515e-17
4901.27476 1.10603e-17
4902.45700 1.12451e-17
4903.63925 1.12750e-17
4904.82149 1.08553e-17
4906.00373 1.11858e-17
4907.18597 1.16372e-17
4908.36821 1.16196e-17
4909.55046 1.17120e-17
4910.72268 1.20160e-17
4911.90492 1.21283e-17
4913.08716 1.14889e-17
4914.26941 1.15002e-17
4915.45165 1.16808e-17
4916.63389 1.20578e-17
4917.81613 1.19660e-17
4918.99837 1.21476e-17
4920.18062 1.16183e-17
4921.36286 1.12244e-17
4922.54510 1.11954e-17
4923.72734 1.20590e-17
4924.90958 1.23545e-17
4926.08181 1.21480e-17
4927.26405 1.21456e-17
4928.44629 1.21074e-17
4929.62853 1.27188e-17
4930.81077 1.22390e-17
4931.99302 1.25123e-17
4933.17526 1.37839e-17
4934.35750 1.30715e-17
4935.53974 1.31800e-17
4936.72198 1.25811e-17
4937.90423 1.26811e-17
4939.08647 1.34550e-17
4940.26871 1.35651e-17
4941.44093 1.25186e-17
4942.62317 1.24020e-17
4943.80542 1.25461e-17
4944.98766 1.22362e-17
4946.16990 1.24485e-17
4947.35214 1.23563e-17
4948.53438 1.22784e-17
4949.71663 1.28035e-17
4950.89887 1.27355e-17
4952.08111 1.26675e-17
4953.26335 1.25995e-17
4954.44560 1.25315e-17
4955.62784 1.24635e-17
4956.80006 1.23955e-17
4957.98230 1.23275e-17
4959.16454 1.22595e-17
4960.34679 1.21916e-17
4961.52903 1.21236e-17
4962.71127 1.20556e-17
4963.89351 1.19876e-17
4965.07575 1.19197e-17
4966.25800 1.18517e-17
4967.44024 1.17837e-17
4968.62248 1.17158e-17
4969.80472 1.16478e-17
4970.98696 1.15799e-17
4972.15919 1.15119e-17
4973.34143 1.14440e-17
4974.52367 1.13760e-17
4975.70591 1.13081e-17
4976.88815 1.12402e-17
4978.07040 1.11722e-17
4979.25264 1.11043e-17
4980.43488 1.10364e-17
4981.61712 1.09684e-17
4982.79937 1.09005e-17
4983.98161 1.08326e-17
4985.16385 1.07647e-17
4986.33607 1.06968e-17
4987.51831 1.06289e-17
4988.70056 1.04250e-17
4989.88280 1.08077e-17
4991.06504 1.11554e-17
4992.24728 1.04972e-17
4993.42952 1.02003e-17
4994.61177 1.05377e-17
4995.79401 1.03322e-17
4996.97625 1.07239e-17
4998.15849 1.05701e-17
4999.34073 1.05700e-17
5000.52298 1.05698e-17
5001.70522 1.05696e-17
5002.87744 1.05695e-17
5004.05968 1.05693e-17
5005.24193 1.05692e-17
5006.42417 1.05690e-17
5007.60641 1.05689e-17
5008.78865 1.05687e-17
5009.97089 1.05686e-17
5011.15313 1.05684e-17
5012.33538 1.05683e-17
5013.51762 1.05681e-17
5014.69986 1.05680e-17
5015.88210 1.05678e-17
5017.05433 1.05677e-17
5018.23657 1.05675e-17
5019.41881 1.05674e-17
5020.60105 1.05672e-17
5021.78329 1.05671e-17
5022.96554 1.05669e-17
5024.14778 1.05668e-17
5025.33002 1.05666e-17
5026.51226 1.05665e-17
5027.69450 1.05663e-17
5028.87675 1.05662e-17
5030.05899 1.05660e-17
5031.24123 1.05659e-17
5032.41345 1.05657e-17
5033.59569 1.05656e-17
5034.77794 1.05654e-17
5035.96018 9.96292e-18
5037.14242 9.99419e-18
5038.32466 1.02422e-17
5039.50691 1.09358e-17
5040.68915 1.08229e-17
5041.87139 1.09616e-17
5043.05363 1.08434e-17
5044.23587 1.10111e-17
5045.41812 1.17023e-17
5046.60036 1.10479e-17
5047.78260 1.13900e-17
5048.95482 1.09569e-17
5050.13706 1.10633e-17
5051.31931 1.15674e-17
5052.50155 1.11352e-17
5053.68379 1.22657e-17
5054.86603 1.16377e-17
5056.04827 1.10558e-17
5057.23052 1.11020e-17
5058.41276 1.12580e-17
5059.59500 1.18304e-17
5060.77724 1.16392e-17
5061.95948 1.10995e-17
5063.13171 1.14027e-17
5064.31395 1.18624e-17
5065.49619 1.14899e-17
5066.67843 1.15789e-17
5067.86067 1.15943e-17
5069.04292 1.27176e-17
5070.22516 1.24682e-17
5071.40740 1.23783e-17
5072.58964 1.17061e-17
5073.77189 1.13745e-17
5074.95413 1.23591e-17
5076.13637 1.22717e-17
5077.31861 1.23838e-17
5078.49083 1.28181e-17
5079.67308 1.24772e-17
5080.85532 1.20530e-17
5082.03756 1.21710e-17
5083.21980 1.25131e-17
5084.40204 1.19438e-17
5085.58429 1.18793e-17
5086.76653 1.28824e-17
5087.94877 1.28730e-17
5089.13101 1.25312e-17
5090.31325 1.26609e-17
5091.49550 1.29427e-17
5092.67774 1.26328e-17
5093.84996 1.27865e-17
5095.03220 1.24787e-17
5096.21445 1.26346e-17
5097.39669 1.25139e-17
5098.57893 1.26917e-17
5099.76117 1.29452e-17
5100.94341 1.26761e-17
5102.12565 1.30781e-17
5103.30790 1.28746e-17
5104.49014 1.26781e-17
5105.67238 1.31206e-17
5106.85462 1.35481e-17
5108.03687 1.38410e-17
5109.20909 1.33221e-17
5110.39133 1.31980e-17
5111.57357 1.28049e-17
5112.75581 1.26702e-17
5113.93806 1.26105e-17
5115.12030 1.27737e-17
5116.30254 1.28174e-17
5117.48478 1.32055e-17
5118.66702 1.29723e-17
5119.84927 1.32226e-17
5121.03151 1.30786e-17
5122.21375 1.26021e-17
5123.39599 1.32076e-17
5124.56822 1.32592e-17
5125.75046 1.27953e-17
5126.93270 1.31605e-17
5128.11494 1.31366e-17
5129.29718 1.30262e-17
5130.47943 1.30844e-17
5131.66167 1.34206e-17
5132.84391 1.34011e-17
5134.02615 1.34088e-17
5135.20839 1.30233e-17
5136.39063 1.32253e-17
5137.57288 1.34541e-17
5138.74510 1.32727e-17
5139.92734 1.35699e-17
5141.10958 1.33892e-17
5142.29183 1.32011e-17
5143.47407 1.36458e-17
5144.65631 1.36603e-17
5145.83855 1.35085e-17
5147.02079 1.34289e-17
5148.20304 1.34102e-17
5149.38528 1.37257e-17
5150.56752 1.34271e-17
5151.74976 1.32772e-17
5152.93200 1.37833e-17
5154.11425 1.42403e-17
5155.28647 1.34554e-17
5156.46871 1.31662e-17
5157.65095 1.38828e-17
5158.83320 1.42205e-17
5160.01544 1.37818e-17
5161.19768 1.37121e-17
5162.37992 1.37428e-17
5163.56216 1.34354e-17
5164.74440 1.32700e-17
5165.92665 1.35131e-17
5167.10889 1.32894e-17
5168.29113 1.34277e-17
5169.47337 1.35090e-17
5170.64560 1.39339e-17
5171.82784 1.41823e-17
5173.01008 1.37793e-17
5174.19232 1.38481e-17
5175.37456 1.41238e-17
5176.55681 1.39012e-17
5177.73905 1.37701e-17
5178.92129 1.35694e-17
5180.10353 1.42016e-17
5181.28577 1.42694e-17
5182.46802 1.40203e-17
5183.65026 1.39883e-17
5184.83250 1.42834e-17
5186.00472 1.41800e-17
5187.18697 1.35006e-17
5188.36921 1.33037e-17
5189.55145 1.38287e-17
5190.73369 1.37266e-17
5191.91593 1.36442e-17
5193.09818 1.42901e-17
5194.28042 1.45035e-17
5195.46266 1.40331e-17
5196.64490 1.38570e-17
5197.82714 1.40338e-17
5199.00938 1.43029e-17
5200.19163 1.38280e-17
5201.36385 1.40176e-17
5202.54609 1.42847e-17
5203.72833 1.43692e-17
5204.91058 1.43180e-17
5206.09282 1.45316e-17
5207.27506 1.45620e-17
5208.45730 1.47660e-17
5209.63954 1.47808e-17
5210.82179 1.45733e-17
5212.00403 1.41422e-17
5213.18627 1.41755e-17
5214.36851 1.42158e-17
5215.54073 1.44966e-17
5216.72298 1.47658e-17
5217.90522 1.45840e-17
5219.08746 1.47961e-17
5220.26970 1.49023e-17
5221.45194 1.43543e-17
5222.63419 1.46600e-17
5223.81643 1.43116e-17
5224.99867 1.42692e-17
5226.18091 1.44034e-17
5227.36316 1.41286e-17
5228.54540 1.43774e-17
5229.72764 1.47204e-17
5230.90988 1.48356e-17
5232.08210 1.46921e-17
5233.26435 1.42478e-17
5234.44659 1.40327e-17
5235.62883 1.43449e-17
5236.81107 1.46539e-17
5237.99331 1.47583e-17
5239.17556 1.44626e-17
5240.35780 1.47914e-17
5241.54004 1.49526e-17
5242.72228 1.48872e-17
5243.90452 1.49125e-17
5245.08677 1.46264e-17
5246.25899 1.52014e-17
5247.44123 1.51926e-17
5248.62347 1.47554e-17
5249.80572 1.51069e-17
5250.98796 1.44724e-17
5252.17020 1.49393e-17
5253.35244 1.52016e-17
5254.53468 1.46622e-17
5255.71692 1.48271e-17
5256.89917 1.55058e-17
5258.08141 1.50639e-17
5259.26365 1.52388e-17
5260.44589 1.48614e-17
5261.61812 1.46757e-17
5262.80036 1.45272e-17
5263.98260 1.49838e-17
5265.16484 1.49707e-17
5266.34708 1.44844e-17
5267.52933 1.48725e-17
5268.71157 1.47089e-17
5269.89381 1.50059e-17
5271.07605 1.46115e-17
5272.25829 1.45821e-17
5273.44054 1.44783e-17
5274.62278 1.47283e-17
5275.80502 1.44911e-17
5276.98726 1.48179e-17
5278.15949 1.44682e-17
5279.34173 1.46623e-17
5280.52397 1.46927e-17
5281.70621 1.46101e-17
5282.88845 1.41587e-17
5284.07070 1.47072e-17
5285.25294 1.52096e-17
5286.43518 1.49291e-17
5287.61742 1.50826e-17
5288.79966 1.46477e-17
5289.98190 1.52723e-17
5291.16415 1.45517e-17
5292.33637 1.44502e-17
5293.51861 1.47003e-17
5294.70085 1.46379e-17
5295.88310 1.47836e-17
5297.06534 1.49952e-17
5298.24758 1.45999e-17
5299.42982 1.47009e-17
5300.61206 1.46355e-17
5301.79431 1.46593e-17
5302.97655 1.48364e-17
5304.15879 1.48500e-17
5305.34103 1.46127e-17
5306.52327 1.48988e-17
5307.69550 1.48283e-17
5308.87774 1.42202e-17
5310.05998 1.41067e-17
5311.24222 1.47498e-17
5312.42447 1.46699e-17
5313.60671 1.34442e-17
5314.78895 1.40495e-17
5315.97119 1.45179e-17
5317.15343 1.44796e-17
5318.33568 1.42197e-17
5319.51792 1.44841e-17
5320.70016 1.41645e-17
5321.88240 1.45276e-17
5323.05462 1.43813e-17
5324.23687 1.38889e-17
5325.41911 1.41329e-17
5326.60135 1.41047e-17
5327.78359 1.45928e-17
5328.96583 1.37183e-17
5330.14808 1.37555e-17
5331.33032 1.37711e-17
5332.51256 1.38705e-17
5333.69480 1.33032e-17
5334.87704 1.32003e-17
5336.05929 1.37674e-17
5337.24153 1.37026e-17
5338.41375 1.35757e-17
5339.59599 1.38208e-17
5340.77823 1.41400e-17
5341.96048 1.38149e-17
5343.14272 1.38662e-17
5344.32496 1.37047e-17
5345.50720 1.35720e-17
5346.68944 1.39484e-17
5347.87169 1.36900e-17
5349.05393 1.32376e-17
5350.23617 1.36795e-17
5351.41841 1.39533e-17
5352.60066 1.39510e-17
5353.77288 1.36409e-17
5354.95512 1.35408e-17
5356.13736 1.34124e-17
5357.31960 1.34700e-17
5358.50185 1.39829e-17
5359.68409 1.35830e-17
5360.86633 1.32603e-17
5362.04857 1.33224e-17
5363.23081 1.32692e-17
5364.41306 1.34076e-17
5365.59530 1.30319e-17
5366.77754 1.30959e-17
5367.94976 1.35121e-17
5369.13200 1.37007e-17
5370.31425 1.37233e-17
5371.49649 1.33385e-17
5372.67873 1.35676e-17
5373.86097 1.33057e-17
5375.04322 1.28266e-17
5376.22546 1.31129e-17
5377.40770 1.36069e-17
5378.58994 1.32642e-17
5379.77218 1.38640e-17
5380.95442 1.41291e-17
5382.13667 1.30444e-17
5383.31891 1.27370e-17
5384.49113 1.27959e-17
5385.67337 1.29760e-17
5386.85562 1.31077e-17
5388.03786 1.29850e-17
5389.22010 1.30344e-17
5390.40234 1.28205e-17
5391.58458 1.22596e-17
5392.76683 1.23980e-17
5393.94907 1.23915e-17
5395.13131 1.33047e-17
5396.31355 1.34484e-17
5397.49579 1.28183e-17
5398.67804 1.25285e-17
5399.85026 1.27228e-17
5401.03250 1.25148e-17
5402.21474 1.29848e-17
5403.39698 1.35132e-17
5404.57923 1.30672e-17
5405.76147 1.27181e-17
5406.94371 1.25594e-17
5408.12595 1.25366e-17
5409.30820 1.21116e-17
5410.49044 1.22346e-17
5411.67268 1.27998e-17
5412.85492 1.31623e-17
5414.02714 1.27289e-17
5415.20939 1.23658e-17
5416.39163 1.23542e-17
5417.57387 1.28334e-17
5418.75611 1.30325e-17
5419.93835 1.28635e-17
5421.12060 1.29612e-17
5422.30284 1.22157e-17
5423.48508 1.24816e-17
5424.66732 1.31221e-17
5425.84956 1.30846e-17
5427.03181 1.29431e-17
5428.21405 1.30651e-17
5429.39629 1.26345e-17
5430.56851 1.20642e-17
5431.75076 1.18164e-17
5432.93300 1.23906e-17
5434.11524 1.18059e-17
5435.29748 1.25580e-17
5436.47972 1.28323e-17
5437.66197 1.26924e-17
5438.84421 1.24292e-17
5440.02645 1.21317e-17
5441.20869 1.26106e-17
5442.39093 1.24474e-17
5443.57318 1.26793e-17
5444.74540 1.28867e-17
5445.92764 1.22880e-17
5447.10988 1.17976e-17
5448.29212 1.20012e-17
5449.47437 1.23911e-17
5450.65661 1.28188e-17
5451.83885 1.21879e-17
5453.02109 1.24181e-17
5454.20333 1.25663e-17
5455.38558 1.22611e-17
5456.56782 1.21612e-17
5457.75006 1.23387e-17
5458.93230 1.27437e-17
5460.10452 1.24698e-17
5461.28677 1.30497e-17
5462.46901 1.26822e-17
5463.65125 1.23135e-17
5464.83349 1.18008e-17
5466.01573 1.20266e-17
5467.19798 1.23827e-17
5468.38022 1.26942e-17
5469.56246 1.20235e-17
5470.74470 1.22767e-17
5471.92695 1.22584e-17
5473.10919 1.17985e-17
5474.29143 1.23748e-17
5475.46365 1.18930e-17
5476.64589 1.23055e-17
5477.82814 1.20011e-17
5479.01038 1.23378e-17
5480.19262 1.23833e-17
5481.37486 1.18130e-17
5482.55710 1.19146e-17
5483.73935 1.17923e-17
5484.92159 1.16132e-17
5486.10383 1.15705e-17
5487.28607 1.22724e-17
5488.46831 1.25339e-17
5489.65056 1.23924e-17
5490.82278 1.20037e-17
5492.00502 1.18706e-17
5493.18726 1.20636e-17
5494.36950 1.22600e-17
5495.55175 1.19811e-17
5496.73399 1.24771e-17
5497.91623 1.21962e-17
5499.09847 1.26280e-17
5500.28072 1.27806e-17
5501.46296 1.24074e-17
5502.64520 1.18576e-17
5503.82744 1.14802e-17
5505.00968 1.18097e-17
5506.18191 1.21399e-17
5507.36415 1.16339e-17
5508.54639 1.15949e-17
5509.72863 1.17970e-17
5510.91087 1.17121e-17
5512.09312 1.15865e-17
5513.27536 1.17698e-17
5514.45760 1.22534e-17
5515.63984 1.17109e-17
5516.82208 1.16106e-17
5518.00433 1.17504e-17
5519.18657 1.18681e-17
5520.36881 1.19118e-17
5521.54103 1.15802e-17
5522.72328 1.18211e-17
5523.90552 1.13088e-17
5525.08776 1.12010e-17
5526.27000 1.15825e-17
5527.45224 1.16441e-17
5528.63448 1.17802e-17
5529.81673 1.17471e-17
5530.99897 1.14184e-17
5532.18121 1.12768e-17
5533.36345 1.12710e-17
5534.54570 1.16770e-17
5535.72794 1.15223e-17
5536.90016 1.15153e-17
5538.08240 1.17940e-17
5539.26464 1.16090e-17
5540.44689 1.14605e-17
5541.62913 1.13131e-17
5542.81137 1.15234e-17
5543.99361 1.15767e-17
5545.17585 1.12513e-17
5546.35810 1.14649e-17
5547.54034 1.15475e-17
5548.72258 1.13590e-17
5549.90482 1.14638e-17
5551.08706 1.20366e-17
5552.25929 1.16736e-17
5553.44153 1.14430e-17
5554.62377 1.08130e-17
5555.80601 1.07555e-17
5556.98826 1.10873e-17
5558.17050 1.11978e-17
5559.35274 1.13839e-17
5560.53498 1.09389e-17
5561.71722 1.08698e-17
5562.89947 1.09271e-17
5564.08171 1.10939e-17
5565.26395 1.16021e-17
5566.43617 1.10157e-17
5567.61841 1.10334e-17
5568.80066 1.10350e-17
5569.98290 1.12304e-17
5571.16514 1.15387e-17
5572.34738 1.13648e-17
5573.52962 1.12150e-17
5574.71187 1.08824e-17
5575.89411 1.12831e-17
5577.07635 1.09480e-17
5578.25859 1.07743e-17
5579.44083 1.16316e-17
5580.62308 1.15162e-17
5581.80532 1.12808e-17
5582.97754 1.09622e-17
5584.15978 1.07551e-17
5585.34202 1.10799e-17
5586.52427 1.12651e-17
5587.70651 1.09693e-17
5588.88875 1.10350e-17
5590.07099 1.06173e-17
5591.25324 1.06305e-17
5592.43548 1.04814e-17
5593.61772 1.11349e-17
5594.79996 1.10657e-17
5595.98220 1.11885e-17
5597.15443 1.12294e-17
5598.33667 1.05558e-17
5599.51891 1.08986e-17
5600.70115 1.05602e-17
5601.88339 1.09379e-17
5603.06564 1.07280e-17
5604.24788 1.13136e-17
5605.43012 1.04757e-17
5606.61236 1.09348e-17
5607.79460 1.10378e-17
5608.97685 1.05350e-17
5610.15909 1.06696e-17
5611.34133 1.02649e-17
5612.51355 1.05674e-17
5613.69580 1.10301e-17
5614.87804 1.08085e-17
5616.06028 1.10730e-17
5617.24252 1.10486e-17
5618.42476 1.06221e-17
5619.60700 1.04662e-17
5620.78925 1.09946e-17
5621.97149 1.06702e-17
5623.15373 1.02937e-17
5624.33597 1.05036e-17
5625.51822 1.05541e-17
5626.70046 1.08311e-17
5627.88270 1.11182e-17
5629.05492 1.06191e-17
5630.23716 1.07291e-17
5631.41941 1.09812e-17
5632.60165 1.06865e-17
5633.78389 1.08537e-17
5634.96613 1.04005e-17
5636.14837 1.03096e-17
5637.33062 1.07139e-17
5638.51286 1.04107e-17
5639.69510 9.91222e-18
5640.87734 1.01706e-17
5642.05958 1.01952e-17
5643.23181 1.08848e-17
5644.41405 1.10355e-17
5645.59629 1.02732e-17
5646.77853 1.04846e-17
5647.96078 1.01817e-17
5649.14302 1.01947e-17
5650.32526 1.04296e-17
5651.50750 1.01373e-17
5652.68974 1.01521e-17
5653.87198 9.75980e-18
5655.05423 9.43006e-18
5656.23647 9.90728e-18
5657.41871 9.78148e-18
5658.59093 9.66170e-18
5659.77318 9.84489e-18
5660.95542 1.00466e-17
5662.13766 9.94361e-18
5663.31990 9.76343e-18
5664.50214 9.55922e-18
5665.68439 9.20972e-18
5666.86663 9.41476e-18
5668.04887 9.73485e-18
5669.23111 9.86426e-18
5670.41335 9.95245e-18
5671.59560 9.39993e-18
5672.77784 9.46299e-18
5673.95006 9.14193e-18
5675.13230 8.62136e-18
5676.31455 9.00984e-18
5677.49679 9.12101e-18
5678.67903 9.50229e-18
5679.86127 9.62221e-18
5681.04351 8.96229e-18
5682.22575 8.25803e-18
5683.40800 8.58167e-18
5684.59024 8.73259e-18
5685.77248 8.06699e-18
5686.95472 8.18941e-18
5688.13697 9.10871e-18
5689.30919 8.47409e-18
5690.49143 8.08799e-18
5691.67367 8.34833e-18
5692.85591 8.63250e-18
5694.03816 8.66008e-18
5695.22040 8.85393e-18
5696.40264 8.53275e-18
5697.58488 8.26434e-18
5698.76712 8.53456e-18
5699.94937 8.64243e-18
5701.13161 8.54028e-18
5702.31385 8.00709e-18
5703.49609 7.83763e-18
5704.66832 8.15818e-18
5705.85056 8.17136e-18
5707.03280 7.88488e-18
5708.21504 7.60106e-18
5709.39728 7.77094e-18
5710.57953 8.13454e-18
5711.76177 7.82192e-18
5712.94401 7.95679e-18
5714.12625 8.47435e-18
5715.30849 7.97606e-18
5716.49073 7.66784e-18
5717.67298 7.72884e-18
5718.85522 7.86108e-18
5720.02744 7.88779e-18
5721.20968 8.08621e-18
5722.39193 8.16855e-18
5723.57417 7.86881e-18
5724.75641 7.74993e-18
5725.93865 8.83232e-18
5727.12089 8.85941e-18
5728.30314 8.15799e-18
5729.48538 8.01324e-18
5730.66762 8.15584e-18
5731.84986 8.26871e-18
5733.03210 8.59578e-18
5734.21435 8.37364e-18
5735.38657 8.75758e-18
5736.56881 8.63357e-18
5737.75105 8.83399e-18
5738.93329 8.71893e-18
5740.11554 8.31245e-18
5741.29778 8.54901e-18
5742.48002 8.71698e-18
5743.66226 9.41773e-18
5744.84451 9.44458e-18
5746.02675 9.12769e-18
5747.20899 9.15630e-18
5748.39123 9.46519e-18
5749.57347 9.33293e-18
5750.74570 9.87956e-18
5751.92794 1.01889e-17
5753.11018 1.02753e-17
5754.29242 1.05315e-17
5755.47466 1.02599e-17
5756.65691 1.03243e-17
5757.83915 1.05862e-17
5759.02139 1.08318e-17
5760.20363 1.12261e-17
5761.38587 1.12260e-17
5762.56812 1.14205e-17
5763.75036 1.11169e-17
5764.93260 1.17329e-17
5766.10482 1.14922e-17
5767.28707 1.15612e-17
5768.46931 1.19933e-17
5769.65155 1.23712e-17
5770.83379 1.23590e-17
5772.01603 1.19848e-17
5773.19827 1.25951e-17
5774.38052 1.24113e-17
5775.56276 1.27431e-17
5776.74500 1.27367e-17
5777.92724 1.25824e-17
5779.10948 1.26716e-17
5780.29173 1.26063e-17
5781.46395 1.27699e-17
5782.64619 1.31958e-17
5783.82843 1.29528e-17
5785.01068 1.27142e-17
5786.19292 1.29884e-17
5787.37516 1.29093e-17
5788.55740 1.29342e-17
5789.73964 1.30305e-17
5790.92189 1.32836e-17
5792.10413 1.30896e-17
5793.28637 1.25115e-17
5794.46861 1.30314e-17
5795.64084 1.25767e-17
5796.82308 1.25311e-17
5798.00532 1.32675e-17
5799.18756 1.33085e-17
5800.36980 1.34566e-17
5801.55205 1.32982e-17
5802.73429 1.31277e-17
5803.91653 1.32459e-17
5805.09877 1.35840e-17
5806.28101 1.30380e-17
5807.46325 1.28945e-17
5808.64550 1.29996e-17
5809.82774 1.31759e-17
5810.99996 1.32045e-17
5812.18220 1.31939e-17
5813.36445 1.33326e-17
5814.54669 1.38051e-17
5815.72893 1.38463e-17
5816.91117 1.38397e-17
5818.09341 1.29576e-17
5819.27566 1.33512e-17
5820.45790 1.34445e-17
5821.64014 1.33786e-17
5822.82238 1.37742e-17
5824.00462 1.35434e-17
5825.18687 1.40374e-17
5826.35909 1.40173e-17
5827.54133 1.40736e-17
5828.72357 1.41157e-17
5829.90582 1.42388e-17
5831.08806 1.44799e-17
5832.27030 1.44308e-17
5833.45254 1.45309e-17
5834.63478 1.41082e-17
5835.81703 1.41842e-17
5836.99927 1.46185e-17
5838.18151 1.39007e-17
5839.36375 1.39483e-17
5840.54599 1.47012e-17
5841.71822 1.44277e-17
5842.90046 1.43497e-17
5844.08270 1.44206e-17
5845.26494 1.50071e-17
5846.44718 1.47622e-17
5847.62943 1.42354e-17
5848.81167 1.47985e-17
5849.99391 1.45650e-17
5851.17615 1.47257e-17
5852.35839 1.45230e-17
5853.54064 1.49832e-17
5854.72288 1.48022e-17
5855.90512 1.41699e-17
5857.08736 1.43329e-17
5858.25958 1.47094e-17
5859.44183 1.45793e-17
5860.62407 1.45179e-17
5861.80631 1.41371e-17
5862.98855 1.41898e-17
5864.17079 1.47981e-17
5865.35304 1.45831e-17
5866.53528 1.49427e-17
5867.71752 1.43404e-17
5868.89976 1.38894e-17
5870.08201 1.37479e-17
5871.26425 1.36684e-17
5872.43647 1.41788e-17
5873.61871 1.38893e-17
5874.80095 1.40759e-17
5875.98320 1.39063e-17
5877.16544 1.35880e-17
5878.34768 1.40914e-17
5879.52992 1.42885e-17
5880.71216 1.40863e-17
5881.89441 1.34084e-17
5883.07665 1.34141e-17
5884.25889 1.41459e-17
5885.44113 1.39244e-17
5886.62337 1.37975e-17
5887.79560 1.33173e-17
5888.97784 1.33211e-17
5890.16008 1.37096e-17
5891.34232 1.35618e-17
5892.52457 1.36862e-17
5893.70681 1.38180e-17
5894.88905 1.29495e-17
5896.07129 1.29073e-17
5897.25353 1.30475e-17
5898.43577 1.26172e-17
5899.61802 1.22012e-17
5900.80026 1.15260e-17
5901.98250 1.13408e-17
5903.15472 1.05724e-17
5904.33697 1.11699e-17
5905.51921 1.10704e-17
5906.70145 1.12468e-17
5907.88369 1.13642e-17
5909.06593 1.14430e-17
5910.24818 1.10714e-17
5911.43042 1.15201e-17
5912.61266 1.26939e-17
5913.79490 1.26165e-17
5914.97714 1.32782e-17
5916.15939 1.29923e-17
5917.34163 1.27826e-17
5918.51385 1.28170e-17
5919.69609 1.29386e-17
5920.87833 1.27250e-17
5922.06058 1.20124e-17
5923.24282 1.26487e-17
5924.42506 1.24564e-17
5925.60730 1.24375e-17
5926.78955 1.21801e-17
5927.97179 1.25156e-17
5929.15403 1.21768e-17
5930.33627 1.21909e-17
5931.51851 1.25120e-17
5932.70075 1.25387e-17
5933.87298 1.28895e-17
5935.05522 1.25216e-17
5936.23746 1.26305e-17
5937.41970 1.22563e-17
5938.60195 1.18826e-17
5939.78419 1.25019e-17
5940.96643 1.19925e-17
5942.14867 1.17215e-17
5943.33091 1.21287e-17
5944.51316 1.22426e-17
5945.69540 1.18789e-17
5946.87764 1.19912e-17
5948.04986 1.22022e-17
5949.23211 1.25594e-17
5950.41435 1.19533e-17
5951.59659 1.15608e-17
5952.77883 1.15048e-17
5953.96107 1.20316e-17
5955.14332 1.18720e-17
5956.32556 1.15590e-17
5957.50780 1.16999e-17
5958.69004 1.16639e-17
5959.87228 1.22992e-17
5961.05453 1.20579e-17
5962.23677 1.22680e-17
5963.40899 1.17056e-17
5964.59123 1.18688e-17
5965.77347 1.20122e-17
5966.95572 1.13963e-17
5968.13796 1.16039e-17
5969.32020 1.17012e-17
5970.50244 1.21477e-17
5971.68468 1.17545e-17
5972.86693 1.15334e-17
5974.04917 1.19574e-17
5975.23141 1.15259e-17
5976.41365 1.15330e-17
5977.59589 1.22478e-17
5978.77814 1.18070e-17
5979.95036 1.14994e-17
5981.13260 1.13531e-17
5982.31484 1.14511e-17
5983.49708 1.12667e-17
5984.67933 1.10945e-17
5985.86157 1.21167e-17
5987.04381 1.18297e-17
5988.22605 1.10992e-17
5989.40830 1.16103e-17
5990.59054 1.13697e-17
5991.77278 1.11256e-17
5992.95502 1.14337e-17
5994.12724 1.11299e-17
5995.30949 1.11085e-17
5996.49173 1.10281e-17
5997.67397 1.13566e-17
5998.85621 1.11685e-17
6000.03845 1.08197e-17
6001.22070 1.14505e-17
6002.40294 1.09712e-17
6003.58518 1.13687e-17
6004.76742 1.09147e-17
6005.94966 1.07855e-17
6007.13191 1.08415e-17
6008.31415 1.12735e-17
6009.49639 1.09025e-17
6010.66861 1.05969e-17
6011.85085 1.09571e-17
6013.03310 1.07459e-17
6014.21534 1.09075e-17
6015.39758 1.09229e-17
6016.57982 1.08353e-17
6017.76207 1.05825e-17
6018.94431 1.05212e-17
6020.12655 1.10916e-17
6021.30879 1.12158e-17
6022.49103 1.10958e-17
6023.67328 1.05354e-17
6024.84550 1.07952e-17
6026.02774 1.07569e-17
6027.20998 1.06238e-17
6028.39222 1.07350e-17
6029.57447 1.01813e-17
6030.75671 1.02591e-17
6031.93895 1.04638e-17
6033.12119 1.05037e-17
6034.30343 1.06884e-17
6035.48568 1.09123e-17
6036.66792 1.07606e-17
6037.85016 1.08370e-17
6039.03240 1.03457e-17
6040.20463 1.06726e-17
6041.38687 1.05141e-17
6042.56911 1.11109e-17
6043.75135 1.06954e-17
6044.93359 1.05407e-17
6046.11583 1.07465e-17
6047.29808 1.09127e-17
6048.48032 1.08211e-17
6049.66256 1.02861e-17
6050.84480 1.02154e-17
6052.02704 1.05737e-17
6053.20929 1.03436e-17
6054.39153 1.01971e-17
6055.56375 1.04679e-17
6056.74599 1.06844e-17
6057.92824 1.08394e-17
6059.11048 1.07181e-17
6060.29272 1.07451e-17
6061.47496 1.07510e-17
6062.65720 1.06775e-17
6063.83945 1.06228e-17
6065.02169 1.04321e-17
6066.20393 1.05235e-17
6067.38617 1.02709e-17
6068.56841 1.03613e-17
6069.75066 1.03688e-17
6070.92288 1.05070e-17
6072.10512 1.05652e-17
6073.28736 1.04464e-17
6074.46961 1.03909e-17
6075.65185 1.02352e-17
6076.83409 1.00765e-17
6078.01633 1.04583e-17
6079.19857 1.08195e-17
6080.38082 1.06867e-17
6081.56306 1.03611e-17
6082.74530 1.05610e-17
6083.92754 1.01935e-17
6085.10978 1.00795e-17
6086.28201 1.04470e-17
6087.46425 1.01291e-17
6088.64649 1.02527e-17
6089.82873 1.02321e-17
6091.01097 1.04602e-17
6092.19322 1.07625e-17
6093.37546 1.04569e-17
6094.55770 1.05328e-17
6095.73994 1.07045e-17
6096.92218 1.06021e-17
6098.10443 1.02805e-17
6099.28667 1.05798e-17
6100.46891 1.04684e-17
6101.64113 9.79649e-18
6102.82337 1.03963e-17
6104.00562 1.05720e-17
6105.18786 9.88085e-18
6106.37010 9.99377e-18
6107.55234 1.01620e-17
6108.73459 1.03528e-17
6109.91683 1.00764e-17
6111.09907 1.00595e-17
6112.28131 1.01345e-17
6113.46355 9.73025e-18
6114.64580 1.01954e-17
6115.82804 1.01432e-17
6117.00026 9.60061e-18
6118.18250 9.85366e-18
6119.36474 9.99217e-18
6120.54699 9.99192e-18
6121.72923 1.00795e-17
6122.91147 1.00930e-17
6124.09371 1.01423e-17
6125.27595 9.89057e-18
6126.45820 1.00339e-17
6127.64044 1.00114e-17
6128.82268 9.98673e-18
6130.00492 9.48707e-18
6131.18716 9.31922e-18
6132.35939 9.80301e-18
6133.54163 9.67297e-18
6134.72387 9.37802e-18
6135.90611 9.45588e-18
6137.08835 9.35717e-18
6138.27060 9.50371e-18
6139.45284 9.47829e-18
6140.63508 8.94180e-18
6141.81732 9.24424e-18
6142.99957 9.37395e-18
6144.18181 9.42304e-18
6145.36405 9.26826e-18
6146.53627 9.19221e-18
6147.71851 8.87761e-18
6148.90076 9.17408e-18
6150.08300 9.16489e-18
6151.26524 9.03331e-18
6152.44748 9.09906e-18
6153.62972 8.80668e-18
6154.81197 8.61055e-18
6155.99421 8.36131e-18
6157.17645 8.94596e-18
6158.35869 9.03151e-18
6159.54093 9.02819e-18
6160.72318 9.38172e-18
6161.90542 9.18107e-18
6163.07764 8.90843e-18
6164.25988 8.99956e-18
6165.44213 9.45788e-18
6166.62437 9.62377e-18
6167.80661 9.20104e-18
6168.98885 8.87617e-18
6170.17109 9.20631e-18
6171.35333 8.90174e-18
6172.53558 8.69783e-18
6173.71782 8.78308e-18
6174.90006 8.82019e-18
6176.08230 8.72450e-18
6177.25453 9.14683e-18
6178.43677 8.86950e-18
6179.61901 8.49508e-18
6180.80125 8.29171e-18
6181.98349 8.64684e-18
6183.16574 8.34281e-18
6184.34798 8.28232e-18
6185.53022 8.24312e-18
6186.71246 8.23325e-18
6187.89470 8.38036e-18
6189.07695 8.51093e-18
6190.25919 8.29069e-18
6191.44143 8.47916e-18
6192.62367 8.52137e-18
6193.79590 7.90452e-18
6194.97814 7.94119e-18
6196.16038 8.54506e-18
6197.34262 8.63913e-18
6198.52486 8.13201e-18
6199.70710 7.80746e-18
6200.88935 8.20052e-18
6202.07159 8.37022e-18
6203.25383 8.15062e-18
6204.43607 7.97521e-18
6205.61832 8.21740e-18
6206.80056 7.72412e-18
6207.98280 7.71542e-18
6209.15502 7.94090e-18
6210.33726 7.89187e-18
6211.51951 7.99047e-18
6212.70175 8.04962e-18
6213.88399 7.52599e-18
6215.06623 7.55710e-18
6216.24847 7.88890e-18
6217.43072 7.88994e-18
6218.61296 7.30169e-18
6219.79520 7.38973e-18
6220.97744 7.43741e-18
6222.15968 7.55718e-18
6223.33191 7.49407e-18
6224.51415 7.47296e-18
6225.69639 7.83453e-18
6226.87863 7.76106e-18
6228.06088 7.58097e-18
6229.24312 7.88580e-18
6230.42536 7.60290e-18
6231.60760 7.32123e-18
6232.78984 7.70830e-18
6233.97208 7.16260e-18
6235.15433 7.53531e-18
6236.33657 7.54314e-18
6237.51881 6.82473e-18
6238.69103 6.62968e-18
6239.87328 7.43487e-18
6241.05552 7.20186e-18
6242.23776 7.19758e-18
6243.42000 7.33113e-18
6244.60224 7.22126e-18
6245.78449 7.14736e-18
6246.96673 7.07203e-18
6248.14897 7.09344e-18
6249.33121 6.74009e-18
6250.51345 6.51730e-18
6251.69570 6.26935e-18
6252.87794 6.73128e-18
6254.05016 6.46501e-18
6255.23240 6.48320e-18
6256.41464 6.80242e-18
6257.59689 7.00044e-18
6258.77913 7.06520e-18
6259.96137 6.82744e-18
6261.14361 6.76656e-18
6262.32586 6.58590e-18
6263.50810 6.61008e-18
6264.69034 6.18347e-18
6265.87258 6.07121e-18
6267.05482 6.34176e-18
6268.23707 6.82771e-18
6269.40929 7.09435e-18
6270.59153 6.57447e-18
6271.77377 6.79372e-18
6272.95601 6.35587e-18
6274.13826 6.16074e-18
6275.32050 6.19041e-18
6276.50274 6.22006e-18
6277.68498 6.24577e-18
6278.86722 6.16425e-18
6280.04947 5.95383e-18
6281.23171 5.71751e-18
6282.41395 5.60819e-18
6283.59619 5.98218e-18
6284.76842 6.16024e-18
6285.95066 6.13080e-18
6287.13290 6.60532e-18
6288.31514 6.79474e-18
6289.49738 6.36723e-18
6290.67962 6.14049e-18
6291.86187 6.07883e-18
6293.04411 6.05102e-18
6294.22635 6.36991e-18
6295.40859 5.83928e-18
6296.59083 6.12682e-18
6297.77308 6.18588e-18
6298.95532 6.26779e-18
6300.12754 6.15573e-18
6301.30978 6.26642e-18
6302.49203 6.24326e-18
6303.67427 5.89230e-18
6304.85651 6.01416e-18
6306.03875 6.57413e-18
6307.22099 6.77070e-18
6308.40324 6.51883e-18
6309.58548 6.72388e-18
6310.76772 6.48928e-18
6311.94996 6.69238e-18
6313.13220 6.99004e-18
6314.31445 6.65326e-18
6315.48667 6.74945e-18
6316.66891 7.04248e-18
6317.85115 6.99511e-18
6319.03340 6.82607e-18
6320.21564 6.75577e-18
6321.39788 6.83839e-18
6322.58012 7.62675e-18
6323.76236 7.85151e-18
6324.94460 7.52353e-18
6326.12685 6.81730e-18
6327.30909 7.55712e-18
6328.49133 7.53580e-18
6329.67357 7.61252e-18
6330.84580 7.53843e-18
6332.02804 7.31304e-18
6333.21028 7.36645e-18
6334.39252 7.34319e-18
6335.57476 7.68022e-18
6336.75701 7.59505e-18
6337.93925 7.67289e-18
6339.12149 8.09633e-18
6340.30373 8.09297e-18
6341.48597 8.35134e-18
6342.66822 8.59995e-18
6343.85046 8.43357e-18
6345.03270 8.18016e-18
6346.20492 8.47984e-18
6347.38717 8.40511e-18
6348.56941 8.87588e-18
6349.75165 9.02991e-18
6350.93389 8.77541e-18
6352.11613 9.02572e-18
6353.29838 9.20730e-18
6354.48062 8.18404e-18
6355.66286 8.13768e-18
6356.84510 8.89385e-18
6358.02734 9.50290e-18
6359.20958 8.90257e-18
6360.39183 9.23821e-18
6361.56405 9.26953e-18
6362.74629 9.12325e-18
6363.92853 9.51840e-18
6365.11078 9.49702e-18
6366.29302 9.83078e-18
6367.47526 9.67515e-18
6368.65750 9.75598e-18
6369.83974 9.66307e-18
6371.02199 9.59594e-18
6372.20423 9.72773e-18
6373.38647 9.68554e-18
6374.56871 9.80968e-18
6375.74093 1.01200e-17
6376.92318 1.01434e-17
6378.10542 1.02196e-17
6379.28766 1.02234e-17
6380.46990 9.93668e-18
6381.65215 9.75786e-18
6382.83439 1.01640e-17
6384.01663 1.01678e-17
6385.19887 1.03269e-17
6386.38111 1.03430e-17
6387.56336 1.07744e-17
6388.74560 1.04235e-17
6389.92784 1.06236e-17
6391.10006 1.07572e-17
6392.28230 1.06217e-17
6393.46455 1.07690e-17
6394.64679 1.06073e-17
6395.82903 1.04449e-17
6397.01127 1.02227e-17
6398.19351 1.08927e-17
6399.37576 1.06581e-17
6400.55800 1.07331e-17
6401.74024 1.05101e-17
6402.92248 1.07827e-17
6404.10472 1.07614e-17
6405.28697 1.06282e-17
6406.45919 1.05549e-17
6407.64143 1.12019e-17
6408.82367 1.09958e-17
6410.00592 1.07329e-17
6411.18816 1.06643e-17
6412.37040 1.16503e-17
6413.55264 1.09403e-17
6414.73488 1.10290e-17
6415.91712 1.12488e-17
6417.09937 1.07260e-17
6418.28161 1.08403e-17
6419.46385 1.05767e-17
6420.64609 1.06082e-17
6421.81832 1.08772e-17
6423.00056 1.14236e-17
6424.18280 1.06834e-17
6425.36504 1.04517e-17
6426.54728 1.06977e-17
6427.72953 1.10422e-17
6428.91177 1.09604e-17
6430.09401 1.03122e-17
6431.27625 1.03276e-17
6432.45849 1.11137e-17
6433.64074 1.07983e-17
6434.82298 1.06822e-17
6436.00522 1.10906e-17
6437.17744 1.10672e-17
6438.35968 1.08623e-17
6439.54193 1.04871e-17
6440.72417 1.06389e-17
6441.90641 1.06102e-17
6443.08865 1.06853e-17
6444.27090 1.09104e-17
6445.45314 1.08803e-17
6446.63538 1.09512e-17
6447.81762 1.11868e-17
6448.99986 1.11823e-17
6450.18210 1.02976e-17
6451.36435 1.03214e-17
6452.53657 1.03472e-17
6453.71881 1.04524e-17
6454.90105 1.01213e-17
6456.08330 1.03585e-17
6457.26554 1.01585e-17
6458.44778 1.04631e-17
6459.63002 1.04563e-17
6460.81226 1.04184e-17
6461.99451 1.00169e-17
6463.17675 1.02866e-17
6464.35899 1.02225e-17
6465.54123 1.01847e-17
6466.72347 1.00631e-17
6467.89570 1.04065e-17
6469.07794 1.01387e-17
6470.26018 9.92214e-18
6471.44242 1.00184e-17
6472.62467 1.00249e-17
6473.80691 9.88930e-18
6474.98915 1.00276e-17
6476.17139 1.02070e-17
6477.35363 9.87863e-18
6478.53588 9.95992e-18
6479.71812 9.86981e-18
6480.90036 1.00339e-17
6482.08260 1.02502e-17
6483.25482 1.01782e-17
6484.43707 9.88304e-18
6485.61931 9.56710e-18
6486.80155 9.46469e-18
6487.98379 9.60875e-18
6489.16603 9.52445e-18
6490.34828 9.81017e-18
6491.53052 1.00093e-17
6492.71276 9.77427e-18
6493.89500 9.59004e-18
6495.07724 9.64838e-18
6496.25949 9.41946e-18
6497.44173 9.46423e-18
6498.61395 9.25653e-18
6499.79619 9.92977e-18
6500.97843 9.70985e-18
6502.16068 8.89032e-18
6503.34292 9.56263e-18
6504.52516 9.78125e-18
6505.70740 9.19990e-18
6506.88965 8.93690e-18
6508.07189 9.16759e-18
6509.25413 9.78708e-18
6510.43637 9.53966e-18
6511.61861 9.36622e-18
6512.80085 9.51698e-18
6513.97308 9.35692e-18
6515.15532 9.28952e-18
6516.33756 9.32012e-18
6517.51980 9.36358e-18
6518.70205 9.47914e-18
6519.88429 9.23981e-18
6521.06653 8.76825e-18
6522.24877 9.15770e-18
6523.43101 9.47897e-18
6524.61326 9.35210e-18
6525.79550 9.40701e-18
6526.97774 9.49204e-18
6528.14996 9.38108e-18
6529.33220 9.42607e-18
6530.51445 9.56258e-18
6531.69669 9.54452e-18
6532.87893 9.67610e-18
6534.06117 1.01631e-17
6535.24342 9.67047e-18
6536.42566 9.41279e-18
6537.60790 9.73880e-18
6538.79014 9.80242e-18
6539.97238 9.82838e-18
6541.15463 9.59354e-18
6542.33687 9.76637e-18
6543.50909 9.53734e-18
6544.69133 9.71020e-18
6545.87357 9.73993e-18
6547.05582 9.76964e-18
6548.23806 9.79937e-18
6549.42030 9.82910e-18
6550.60254 9.85881e-18
6551.78478 9.88854e-18
6552.96703 9.91827e-18
6554.14927 9.94797e-18
6555.33151 9.97771e-18
6556.51375 1.00074e-17
6557.69599 1.00371e-17
6558.87824 1.00669e-17
6560.05046 1.00966e-17
6561.23270 1.01263e-17
6562.41494 1.01560e-17
6563.59718 1.01857e-17
6564.77943 1.02154e-17
6565.96167 1.02452e-17
6567.14391 1.02749e-17
6568.32615 1.03046e-17
6569.50839 1.03343e-17
6570.69064 1.03640e-17
6571.87288 1.03937e-17
6573.05512 1.04234e-17
6574.22734 1.04531e-17
6575.40959 1.04829e-17
6576.59183 1.05126e-17
6577.77407 1.05423e-17
6578.95631 1.05720e-17
6580.13855 1.06017e-17
6581.32080 1.06314e-17
6582.50304 1.06611e-17
6583.68528 1.06908e-17
6584.86752 1.07205e-17
6586.04976 1.07502e-17
6587.23201 1.07799e-17
6588.41425 1.08096e-17
6589.58647 1.08393e-17
6590.76871 1.08690e-17
6591.95096 1.08988e-17
6593.13320 1.09284e-17
6594.31544 1.09581e-17
6595.49768 1.09879e-17
6596.67992 1.10175e-17
6597.86217 1.10473e-17
6599.04441 1.10770e-17
6600.22665 1.11066e-17
6601.40889 1.11364e-17
6602.59113 1.11661e-17
6603.77337 1.11957e-17
6604.94560 1.12254e-17
6606.12784 1.12551e-17
6607.31008 1.11152e-17
6608.49232 1.13617e-17
6609.67457 1.12772e-17
6610.85681 1.15424e-17
6612.03905 1.10732e-17
6613.22129 1.13036e-17
6614.40353 1.07099e-17
6615.58578 1.14257e-17
6616.76802 1.11605e-17
6617.95026 1.11635e-17
6619.13250 1.14347e-17
6620.30472 1.19141e-17
6621.48697 1.20862e-17
6622.66921 1.18153e-17
6623.85145 1.19133e-17
6625.03369 1.17869e-17
6626.21594 1.14697e-17
6627.39818 1.14078e-17
6628.58042 1.11738e-17
6629.76266 1.12566e-17
6630.94490 1.14212e-17
6632.12715 1.17825e-17
6633.30939 1.14394e-17
6634.49163 1.15275e-17
6635.66385 1.16191e-17
6636.84609 1.13869e-17
6638.02834 1.15797e-17
6639.21058 1.17834e-17
6640.39282 1.13762e-17
6641.57506 1.16546e-17
6642.75730 1.16014e-17
6643.93955 1.18801e-17
6645.12179 1.17759e-17
6646.30403 1.18092e-17
6647.48627 1.19276e-17
6648.66851 1.20484e-17
6649.85076 1.18004e-17
6651.02298 1.17804e-17
6652.20522 1.17413e-17
6653.38746 1.14171e-17
6654.56970 1.20095e-17
6655.75195 1.19319e-17
6656.93419 1.18104e-17
6658.11643 1.14997e-17
6659.29867 1.19488e-17
6660.48092 1.19005e-17
6661.66316 1.18088e-17
6662.84540 1.16185e-17
6664.02764 1.17703e-17
6665.20988 1.20063e-17
6666.38211 1.15705e-17
6667.56435 1.14033e-17
6668.74659 1.17642e-17
6669.92883 1.17235e-17
6671.11107 1.19859e-17
6672.29332 1.16906e-17
6673.47556 1.12009e-17
6674.65780 1.17648e-17
6675.84004 1.15324e-17
6677.02228 1.19980e-17
6678.20453 1.18986e-17
6679.38677 1.17975e-17
6680.56901 1.16523e-17
6681.74123 1.11514e-17
6682.92348 1.15118e-17
6684.10572 1.15411e-17
6685.28796 1.12531e-17
6686.47020 1.12133e-17
6687.65244 1.12508e-17
6688.83468 1.12676e-17
6690.01693 1.12946e-17
6691.19917 1.14887e-17
6692.38141 1.12100e-17
6693.56365 1.14296e-17
6694.74590 1.10728e-17
6695.92814 1.08423e-17
6697.10036 1.09036e-17
6698.28260 1.11864e-17
6699.46484 1.13940e-17
6700.64709 1.10812e-17
6701.82933 1.10589e-17
6703.01157 1.07833e-17
6704.19381 1.16134e-17
6705.37605 1.15623e-17
6706.55830 1.11071e-17
6707.74054 1.06641e-17
6708.92278 1.08740e-17
6710.10502 1.07608e-17
6711.28726 1.06911e-17
6712.45949 1.07043e-17
6713.64173 1.04969e-17
6714.82397 1.05246e-17
6716.00621 1.03843e-17
6717.18845 1.05049e-17
6718.37070 1.06105e-17
6719.55294 1.08020e-17
6720.73518 1.07387e-17
6721.91742 1.05749e-17
6723.09967 1.05383e-17
6724.28191 1.03573e-17
6725.46415 1.04697e-17
6726.64639 1.04863e-17
6727.81861 1.03638e-17
6729.00086 1.03634e-17
6730.18310 1.04947e-17
6731.36534 1.05131e-17
6732.54758 1.03980e-17
6733.72982 1.01390e-17
6734.91207 9.99223e-18
6736.09431 1.02953e-17
6737.27655 1.02795e-17
6738.45879 9.99101e-18
6739.64103 1.02573e-17
6740.82328 1.04951e-17
6741.99550 1.05692e-17
6743.17774 1.06742e-17
6744.35998 1.05561e-17
6745.54223 1.04440e-17
6746.72447 1.01360e-17
6747.90671 9.95213e-18
6749.08895 9.91921e-18
6750.27119 9.84657e-18
6751.45343 9.82021e-18
6752.63568 9.86319e-18
6753.81792 1.02783e-17
6755.00016 1.02000e-17
6756.18240 9.83393e-18
6757.35463 9.99254e-18
6758.53687 1.01189e-17
6759.71911 1.01777e-17
6760.90135 9.85563e-18
6762.08359 9.84657e-18
6763.26584 9.59340e-18
6764.44808 9.97617e-18
6765.63032 1.00418e-17
6766.81256 9.89675e-18
6767.99480 9.83877e-18
6769.17705 1.00971e-17
6770.35929 9.74907e-18
6771.54153 9.88739e-18
6772.72377 9.91909e-18
6773.89599 9.47344e-18
6775.07824 9.70619e-18
6776.26048 9.91061e-18
6777.44272 9.46506e-18
6778.62496 9.53598e-18
6779.80721 9.64308e-18
6780.98945 9.77784e-18
6782.17169 9.70376e-18
6783.35393 9.73376e-18
6784.53617 9.80165e-18
6785.71842 9.68613e-18
6786.90066 9.67750e-18
6788.08290 9.41370e-18
6789.25512 9.38705e-18
6790.43736 9.36135e-18
6791.61961 9.46126e-18
6792.80185 9.40543e-18
6793.98409 8.99147e-18
6795.16633 9.58195e-18
6796.34857 9.54005e-18
6797.53082 9.08678e-18
6798.71306 9.19728e-18
6799.89530 9.52959e-18
6801.07754 9.39969e-18
6802.25978 9.38715e-18
6803.43201 9.10088e-18
6804.61425 9.26454e-18
6805.79649 8.71808e-18
6806.97873 8.78556e-18
6808.16097 8.98143e-18
6809.34322 9.02193e-18
6810.52546 9.36431e-18
6811.70770 9.01734e-18
6812.88994 9.03620e-18
6814.07218 9.18096e-18
6815.25443 9.18894e-18
6816.43667 9.11978e-18
6817.61891 8.49499e-18
6818.79113 8.31838e-18
6819.97338 8.53420e-18
6821.15562 8.92272e-18
6822.33786 8.81588e-18
6823.52010 9.12286e-18
6824.70234 8.52549e-18
6825.88459 8.64722e-18
6827.06683 8.83946e-18
6828.24907 8.70169e-18
6829.43131 8.79579e-18
6830.61355 8.44760e-18
6831.79580 8.67584e-18
6832.97804 8.69373e-18
6834.15026 8.66726e-18
6835.33250 8.65854e-18
6836.51475 8.82867e-18
6837.69699 8.66649e-18
6838.87923 8.38347e-18
6840.06147 8.30728e-18
6841.24371 8.44042e-18
6842.42595 8.74600e-18
6843.60820 8.62658e-18
6844.79044 8.50600e-18
6845.97268 8.59557e-18
6847.15492 9.02927e-18
6848.33717 8.75819e-18
6849.50939 8.51909e-18
6850.69163 8.96993e-18
6851.87387 8.50545e-18
6853.05611 8.24791e-18
6854.23836 8.60917e-18
6855.42060 8.47134e-18
6856.60284 8.39028e-18
6857.78508 8.48416e-18
6858.96732 8.42706e-18
6860.14957 8.52290e-18
6861.33181 8.51040e-18
6862.51405 8.22242e-18
6863.69629 8.31929e-18
6864.86852 8.48053e-18
6866.05076 8.04396e-18
6867.23300 7.78767e-18
6868.41524 7.84855e-18
6869.59748 8.25399e-18
6870.77973 8.50713e-18
6871.96197 8.50794e-18
6873.14421 8.08328e-18
6874.32645 8.27115e-18
6875.50869 8.63948e-18
6876.69093 7.94252e-18
6877.87318 7.83261e-18
6879.05542 7.95017e-18
6880.22764 8.47540e-18
6881.40988 8.19414e-18
6882.59213 7.59737e-18
6883.77437 8.00445e-18
6884.95661 8.15373e-18
6886.13885 7.89697e-18
6887.32109 8.08901e-18
6888.50334 8.01178e-18
6889.68558 8.37355e-18
6890.86782 8.24507e-18
6892.05006 8.15333e-18
6893.23230 8.29165e-18
6894.40453 8.18248e-18
6895.58677 7.94586e-18
6896.76901 7.92473e-18
6897.95125 8.34464e-18
6899.13350 8.56523e-18
6900.31574 8.27861e-18
6901.49798 8.32101e-18
6902.68022 7.81478e-18
6903.86246 7.96391e-18
6905.04471 7.67317e-18
6906.22695 7.80078e-18
6907.40919 8.02405e-18
6908.59143 8.37945e-18
6909.77367 8.27213e-18
6910.94590 8.68626e-18
6912.12814 8.62821e-18
6913.31038 8.46348e-18
6914.49262 7.88908e-18
6915.67486 8.06104e-18
6916.85711 8.32257e-18
6918.03935 8.44282e-18
6919.22159 8.30510e-18
6920.40383 8.46011e-18
6921.58607 8.38810e-18
6922.76832 8.42054e-18
6923.95056 8.50927e-18
6925.13280 8.27124e-18
6926.30502 8.18221e-18
6927.48727 8.82845e-18
6928.66951 8.94450e-18
6929.85175 8.67950e-18
6931.03399 8.76674e-18
6932.21623 9.04600e-18
6933.39847 8.88494e-18
6934.58072 8.89085e-18
6935.76296 9.21120e-18
6936.94520 9.40918e-18
6938.12744 8.82566e-18
6939.30969 8.83142e-18
6940.49193 9.37133e-18
6941.66415 9.36537e-18
6942.84639 9.42792e-18
6944.02863 9.19650e-18
6945.21088 9.33604e-18
6946.39312 9.38103e-18
6947.57536 8.96264e-18
6948.75760 9.12571e-18
6949.93984 9.33797e-18
6951.12209 9.40804e-18
6952.30433 9.41813e-18
6953.48657 9.40545e-18
6954.66881 9.47327e-18
6955.84103 9.49498e-18
6957.02328 9.17356e-18
6958.20552 9.24312e-18
6959.38776 9.08843e-18
6960.57000 9.50679e-18
6961.75225 9.61612e-18
6962.93449 9.30013e-18
6964.11673 9.67445e-18
6965.29897 9.39294e-18
6966.48121 9.73104e-18
6967.66345 9.92521e-18
6968.84570 9.67706e-18
6970.02794 9.76727e-18
6971.20016 9.92886e-18
6972.38240 9.66762e-18
6973.56465 9.45052e-18
6974.74689 9.73386e-18
6975.92913 9.91179e-18
6977.11137 9.71079e-18
6978.29361 9.54325e-18
6979.47586 9.83371e-18
6980.65810 1.01852e-17
6981.84034 1.01718e-17
6983.02258 1.01147e-17
6984.20482 9.87877e-18
6985.38707 1.00968e-17
6986.55929 9.68095e-18
6987.74153 9.07089e-18
6988.92377 9.57520e-18
6990.10602 9.82369e-18
6991.28826 9.83397e-18
6992.47050 9.84580e-18
6993.65274 9.83373e-18
6994.83498 9.58408e-18
6996.01723 9.69546e-18
6997.19947 9.77180e-18
6998.38171 9.89605e-18
6999.56395 9.84076e-18
7000.74619 9.65119e-18
7001.91842 9.24945e-18
7003.10066 9.33726e-18
7004.28290 9.59441e-18
7005.46514 9.59159e-18
7006.64738 9.41632e-18
7007.82963 9.38552e-18
7009.01187 9.27636e-18
7010.19411 9.82075e-18
7011.37635 9.96513e-18
7012.55859 9.56239e-18
7013.74084 9.78290e-18
7014.92308 9.64962e-18
7016.10532 9.69317e-18
7017.27754 9.94524e-18
7018.45979 9.69093e-18
7019.64203 9.81154e-18
7020.82427 9.79200e-18
7022.00651 9.50247e-18
7023.18875 9.67951e-18
7024.37100 9.78044e-18
7025.55324 9.84822e-18
7026.73548 9.97061e-18
7027.91772 9.62664e-18
7029.09996 9.44280e-18
7030.28220 9.44487e-18
7031.46445 9.41924e-18
7032.63667 9.57696e-18
7033.81891 9.69631e-18
7035.00115 9.93023e-18
7036.18340 1.03492e-17
7037.36564 1.00684e-17
7038.54788 9.81477e-18
7039.73012 9.98363e-18
7040.91236 1.03733e-17
7042.09461 1.00586e-17
7043.27685 9.89930e-18
7044.45909 9.68919e-18
7045.64133 9.38553e-18
7046.82357 9.74257e-18
7047.99580 9.67474e-18
7049.17804 9.92066e-18
7050.36028 1.00481e-17
7051.54252 9.82389e-18
7052.72477 9.79156e-18
7053.90701 9.78334e-18
7055.08925 9.46170e-18
7056.27149 9.54338e-18
7057.45373 9.48250e-18
7058.63598 9.16754e-18
7059.81822 9.33770e-18
7061.00046 9.46434e-18
7062.18270 9.42086e-18
7063.35492 9.68727e-18
7064.53717 9.65028e-18
7065.71941 9.46952e-18
7066.90165 9.05699e-18
7068.08389 9.28598e-18
7069.26613 9.52016e-18
7070.44838 9.55374e-18
7071.63062 9.60024e-18
7072.81286 9.55914e-18
7073.99510 9.84204e-18
7075.17734 9.63008e-18
7076.35959 9.36262e-18
7077.54183 9.49728e-18
7078.71405 9.45313e-18
7079.89629 9.35725e-18
7081.07853 9.29826e-18
7082.26078 9.14832e-18
7083.44302 9.23090e-18
7084.62526 9.31137e-18
7085.80750 9.16039e-18
7086.98974 8.72639e-18
7088.17199 8.66344e-18
7089.35423 9.06659e-18
7090.53647 9.15252e-18
7091.71871 9.36643e-18
7092.90096 9.22534e-18
7094.07318 9.11912e-18
7095.25542 9.18537e-18
7096.43766 9.07813e-18
7097.61990 8.82258e-18
7098.80215 8.60425e-18
7099.98439 9.22555e-18
7101.16663 8.97586e-18
7102.34887 8.78284e-18
7103.53111 8.92825e-18
7104.71336 9.18480e-18
7105.89560 8.66609e-18
7107.07784 8.67353e-18
7108.25006 8.87271e-18
7109.43231 8.72202e-18
7110.61455 8.88069e-18
7111.79679 8.91799e-18
7112.97903 8.63970e-18
7114.16127 8.81119e-18
7115.34352 9.05410e-18
7116.52576 8.71974e-18
7117.70800 8.95098e-18
7118.89024 8.79096e-18
7120.07248 9.28500e-18
7121.25472 8.78067e-18
7122.43697 8.65426e-18
7123.60919 8.52065e-18
7124.79143 8.81927e-18
7125.97367 8.78594e-18
7127.15592 8.90789e-18
7128.33816 8.72939e-18
7129.52040 9.21307e-18
7130.70264 8.88554e-18
7131.88488 8.63545e-18
7133.06713 8.75996e-18
7134.24937 8.84495e-18
7135.43161 8.54766e-18
7136.61385 8.39255e-18
7137.79609 8.67303e-18
7138.97834 8.94401e-18
7140.15056 8.86092e-18
7141.33280 9.12407e-18
7142.51504 9.04661e-18
7143.69728 8.71174e-18
7144.87953 8.84124e-18
7146.06177 8.68449e-18
7147.24401 8.72943e-18
7148.42625 9.01881e-18
7149.60850 9.03027e-18
7150.79074 8.74086e-18
7151.97298 8.43042e-18
7153.15522 8.49343e-18
7154.32744 8.48264e-18
7155.50969 8.67727e-18
7156.69193 8.87107e-18
7157.87417 8.60969e-18
7159.05641 8.27799e-18
7160.23865 8.46552e-18
7161.42090 8.73071e-18
7162.60314 8.48691e-18
7163.78538 8.60333e-18
7164.96762 8.55066e-18
7166.14986 8.19225e-18
7167.33211 8.34955e-18
7168.51435 8.64575e-18
7169.68657 8.44786e-18
7170.86881 8.47553e-18
7175.02695 8.47553e-18
7179.31483 8.45510e-18
7183.59253 8.54773e-18
7187.88042 8.56499e-18
7192.16830 8.42652e-18
7196.44600 8.34063e-18
7200.73389 8.38074e-18
7205.02177 8.49973e-18
7209.29947 8.51348e-18
7213.58736 8.47560e-18
7217.87525 8.47809e-18
7222.16313 8.38668e-18
7226.44083 8.29263e-18
7230.72872 8.26809e-18
7235.01660 8.26108e-18
7239.29430 8.35573e-18
7243.58219 8.44378e-18
7247.87007 8.36800e-18
7252.15795 8.26338e-18
7256.43566 8.18356e-18
7260.72354 8.13104e-18
7265.01142 8.17264e-18
7269.28912 8.17486e-18
7273.57701 8.01954e-18
7277.86489 7.95111e-18
7282.15278 7.98617e-18
7286.43048 7.99129e-18
7290.71836 7.95387e-18
7295.00625 7.90277e-18
7299.28395 7.94700e-18
7303.57183 8.04151e-18
7307.85972 7.95320e-18
7312.13742 7.80010e-18
7316.42530 7.81230e-18
7320.71319 7.97686e-18
7325.00107 8.04846e-18
7329.27877 7.98023e-18
7333.56666 7.96675e-18
7337.85454 8.02452e-18
7342.13224 8.10859e-18
7346.42013 8.18571e-18
7350.70801 8.21147e-18
7354.99590 8.16839e-18
7359.27360 8.13974e-18
7363.56149 8.14176e-18
7367.84937 8.13805e-18
7372.12707 8.14378e-18
7376.41496 8.10522e-18
7380.70284 8.09322e-18
7384.98054 8.15646e-18
7389.26843 8.23243e-18
7393.55631 8.24565e-18
7397.84419 8.16077e-18
7402.12190 8.16111e-18
7406.40978 8.17041e-18
7410.69766 8.07852e-18
7414.97536 8.03019e-18
7419.26325 8.04583e-18
7423.55113 8.04057e-18
7427.83902 7.97646e-18
7432.11672 7.90426e-18
7436.40460 7.80833e-18
7440.69249 7.73970e-18
7444.97019 7.72554e-18
7449.25807 7.78008e-18
7453.54596 7.87217e-18
7457.82366 7.95441e-18
7462.11154 7.92017e-18
7466.39943 7.74765e-18
7470.68731 7.62671e-18
7474.96501 7.59543e-18
7479.25290 7.58269e-18
7483.54078 7.64141e-18
7487.81848 7.55781e-18
7492.10637 7.42811e-18
7496.39425 7.47496e-18
7500.68214 7.55579e-18
7504.95984 7.58774e-18
7509.24773 7.58478e-18
7513.53561 7.61370e-18
7517.81331 7.61154e-18
7522.10120 7.59267e-18
7526.38908 7.62806e-18
7530.66678 7.62152e-18
7534.95467 7.57756e-18
7539.24255 7.57790e-18
7543.53043 7.56125e-18
7547.80813 7.54676e-18
7552.09602 7.51736e-18
7556.38390 7.48804e-18
7560.66160 7.45864e-18
7564.94949 7.42932e-18
7569.23737 7.39993e-18
7573.52526 7.37060e-18
7577.80296 7.34128e-18
7582.09084 7.31195e-18
7586.37873 7.28262e-18
7590.65643 7.25330e-18
7594.94431 7.22397e-18
7599.23220 7.19472e-18
7603.50990 7.16539e-18
7607.79778 7.13613e-18
7612.08567 7.10681e-18
7616.37355 7.07755e-18
7620.65125 7.04829e-18
7624.93914 7.01903e-18
7629.22702 6.98977e-18
7633.50472 6.96058e-18
7637.79261 6.93133e-18
7642.08050 6.90213e-18
7646.36838 6.87288e-18
7650.64608 6.84369e-18
7654.93397 6.81450e-18
7659.22185 6.78530e-18
7663.49955 6.75611e-18
7667.78744 6.72693e-18
7672.07532 6.69776e-18
7676.35302 6.66860e-18
7680.64091 6.63945e-18
7684.92879 6.46543e-18
7689.21667 6.47429e-18
7693.49437 6.53883e-18
7697.78226 6.58607e-18
7702.07014 6.65391e-18
7706.34784 6.60133e-18
7710.63573 6.52109e-18
7714.92361 6.56815e-18
7719.21150 6.63305e-18
7723.48920 6.67252e-18
7727.77708 6.60610e-18
7732.06497 6.47388e-18
7736.34267 6.44227e-18
7740.63055 6.35433e-18
7744.91844 6.16145e-18
7749.20632 6.05768e-18
7753.48402 6.10435e-18
7757.77191 6.23735e-18
7762.05979 6.33828e-18
7766.33749 6.32495e-18
7770.62538 6.31451e-18
7774.91326 6.24643e-18
7779.19096 6.17452e-18
7783.47885 6.21668e-18
7787.76674 6.22652e-18
7792.05462 6.21329e-18
7796.33232 6.29419e-18
7800.62021 6.35559e-18
7804.90809 6.37145e-18
7809.18579 6.49866e-18
7813.47368 6.66026e-18
7817.76156 6.71348e-18
7822.03926 6.68877e-18
7826.32715 6.65826e-18
7830.61503 6.73004e-18
7834.90291 6.88980e-18
7839.18061 6.98195e-18
7843.46850 6.91622e-18
7847.75638 6.79764e-18
7852.03408 6.78551e-18
7856.32197 6.94986e-18
7860.60985 6.98013e-18
7864.89774 6.86903e-18
7869.17544 6.81685e-18
7873.46332 6.83667e-18
7877.75121 6.90315e-18
7882.02891 6.89209e-18
7886.31679 6.84780e-18
7890.60468 6.90227e-18
7894.88238 6.96631e-18
7899.17026 6.99679e-18
7903.45815 6.97649e-18
7907.74603 6.83735e-18
7912.02373 6.66200e-18
7916.31162 6.69487e-18
7920.59950 6.76704e-18
7924.87720 6.76495e-18
7929.16509 6.85811e-18
7933.45298 6.86094e-18
7937.74086 6.80863e-18
7942.01856 6.85205e-18
7946.30645 6.85393e-18
7950.59433 6.89843e-18
7954.87203 6.95297e-18
7959.15992 6.84085e-18
7963.44780 6.76771e-18
7967.73568 6.82885e-18
7972.01338 6.84355e-18
7976.30127 6.92148e-18
7980.58915 6.96537e-18
7984.86685 6.82690e-18
7989.15474 6.80216e-18
7993.44262 6.82899e-18
7997.72032 6.75308e-18
8002.00821 6.76097e-18
8006.29609 6.77088e-18
8010.58398 6.60573e-18
8014.86168 6.59374e-18
8019.14956 6.60347e-18
8023.43745 6.58040e-18
8027.71515 6.61356e-18
8032.00303 6.57009e-18
8036.29092 6.50101e-18
8040.57880 6.39820e-18
8044.85650 6.34994e-18
8049.14439 6.33503e-18
8053.43227 6.38198e-18
8057.70997 6.56632e-18
8061.99786 6.56083e-18
8066.28575 6.41017e-18
8070.56344 6.50261e-18
8074.85133 6.64637e-18
8079.13922 6.57041e-18
8083.42710 6.37548e-18
8087.70480 6.34815e-18
8091.99269 6.29556e-18
8096.28057 6.19230e-18
8100.55827 6.22762e-18
8104.84616 6.22485e-18
8109.13404 6.22393e-18
8113.42192 6.24135e-18
8117.69962 6.21491e-18
8121.98751 6.14838e-18
8126.27539 6.10969e-18
8130.55309 6.05983e-18
8134.84098 5.99930e-18
8139.12886 6.11271e-18
8143.40656 6.19500e-18
8147.69445 6.08402e-18
8151.98233 6.06511e-18
8156.27022 6.16902e-18
8160.54792 6.19234e-18
8164.83580 6.16640e-18
8169.12369 6.09347e-18
8173.40139 6.00116e-18
8177.68927 5.90485e-18
8181.97716 5.88554e-18
8186.26504 6.06637e-18
8190.54274 6.20302e-18
8194.83063 6.19984e-18
8199.11852 6.09496e-18
8203.39622 6.01661e-18
8207.68410 6.04125e-18
8211.97199 6.02159e-18
8216.25987 5.99794e-18
8220.53757 5.99523e-18
8224.82546 5.92246e-18
8229.11334 5.87936e-18
8233.39104 5.92411e-18
8237.67893 5.90856e-18
8241.96681 5.94358e-18
8246.24451 6.03006e-18
8250.53240 5.99787e-18
8254.82028 5.92990e-18
8259.10816 5.86566e-18
8263.38587 5.84530e-18
8267.67375 5.89597e-18
8271.96163 5.87999e-18
8276.23934 5.80369e-18
8280.52722 5.75117e-18
8284.81510 5.66664e-18
8289.10299 5.59322e-18
8293.38069 5.67455e-18
8297.66857 5.80261e-18
8301.95646 5.73127e-18
8306.23416 5.66659e-18
8310.52204 5.71884e-18
8314.80993 5.69755e-18
8319.08763 5.59623e-18
8323.37551 5.52755e-18
8327.66340 5.54437e-18
8331.94110 5.58032e-18
8336.22898 5.56539e-18
8340.51687 5.60163e-18
8344.80475 5.49610e-18
8349.08245 5.20513e-18
8353.37034 5.23715e-18
8357.65822 5.35451e-18
8361.93592 5.22172e-18
8366.22381 5.07140e-18
8370.51169 5.00342e-18
8374.79958 4.96357e-18
8379.07728 4.98645e-18
8383.36516 4.94144e-18
8387.65305 4.77731e-18
8391.93075 4.67832e-18
8396.21863 4.57767e-18
8400.50652 4.44861e-18
8404.79440 4.28225e-18
8409.07210 4.20301e-18
8413.35999 4.15721e-18
8417.64788 4.05186e-18
8421.92558 3.99187e-18
8426.21346 3.97750e-18
8430.50135 4.04670e-18
8434.78923 4.06457e-18
8439.06693 3.96939e-18
8443.35481 3.98356e-18
8447.64270 4.08825e-18
8451.92040 4.13759e-18
8456.20829 4.07585e-18
8460.49617 4.00332e-18
8464.77387 3.86255e-18
8469.06175 3.85140e-18
8473.34964 3.95998e-18
8477.63753 3.94543e-18
8481.91523 3.92897e-18
8486.20311 3.93595e-18
8490.49100 3.95822e-18
8494.76869 3.98649e-18
8499.05658 4.07311e-18
8503.34446 4.21088e-18
8507.63235 4.19929e-18
8511.91005 4.09077e-18
8516.19794 4.11551e-18
8520.48582 4.08663e-18
8524.76352 4.04281e-18
8529.05140 4.07914e-18
8533.33929 4.15893e-18
8537.61699 4.15777e-18
8541.90488 4.05135e-18
8546.19276 4.06165e-18
8550.48064 4.16519e-18
8554.75835 4.28214e-18
8559.04623 4.33033e-18
8563.33411 4.22866e-18
8567.61182 4.14786e-18
8571.89970 4.17273e-18
8576.18758 4.27333e-18
8580.47547 4.37791e-18
8584.75317 4.35694e-18
8589.04105 4.30344e-18
8593.32894 4.32174e-18
8597.60664 4.37218e-18
8601.89452 4.44267e-18
8606.18241 4.48924e-18
8610.46011 4.52401e-18
8614.74799 4.49537e-18
8619.03588 4.36992e-18
8623.32377 4.35050e-18
8627.60146 4.43368e-18
8631.88935 4.57330e-18
8636.17723 4.68456e-18
8640.45493 4.55669e-18
8644.74282 4.53127e-18
8649.03070 4.74870e-18
8653.31859 4.76399e-18
8657.59629 4.71063e-18
8661.88417 4.84066e-18
8666.17206 4.89695e-18
8670.44976 4.79560e-18
8674.73764 4.84182e-18
8679.02553 5.08944e-18
8683.30323 5.22556e-18
8687.59112 5.41944e-18
8691.87900 5.53899e-18
8696.16688 5.41839e-18
8700.44458 5.52252e-18
8704.73247 5.58384e-18
8709.02035 5.48785e-18
8713.29806 5.51831e-18
8717.58594 5.69944e-18
8721.87383 5.80335e-18
8726.16171 5.81839e-18
8730.43941 5.76145e-18
8734.72729 5.92614e-18
8739.01518 6.16377e-18
8743.29288 6.09850e-18
8747.58077 5.97227e-18
8751.86865 6.02856e-18
8756.15654 6.17721e-18
8760.43423 6.13232e-18
8764.72212 6.09892e-18
8769.01001 6.06070e-18
8773.28771 6.01982e-18
8777.57559 6.07421e-18
8781.86348 6.00717e-18
8786.14117 5.94420e-18
8790.42906 6.04673e-18
8794.71694 6.12924e-18
8798.99464 6.09082e-18
8803.28253 6.06703e-18
8807.57042 6.09259e-18
8811.85830 6.04950e-18
8816.13600 6.00984e-18
8820.42388 5.97999e-18
8824.71177 5.91085e-18
8828.98947 5.97945e-18
8833.27736 6.04119e-18
8837.56524 5.94009e-18
8841.85312 5.92268e-18
8846.13083 5.94133e-18
8850.41871 5.78435e-18
8854.70659 5.62601e-18
8858.98430 5.71892e-18
8863.27218 5.81068e-18
8867.56006 5.79570e-18
8871.84795 5.80068e-18
8876.12565 5.62791e-18
8880.41353 5.51451e-18
8884.70142 5.51787e-18
8888.97912 5.49049e-18
8893.26700 5.80871e-18
8897.55489 6.17654e-18
8901.84277 6.11453e-18
8906.12047 5.80296e-18
8910.40836 5.73404e-18
8914.69625 5.82789e-18
8918.97394 5.89634e-18
8923.26183 5.74641e-18
8927.54971 5.47710e-18
8931.82741 5.50761e-18
8936.11530 5.65146e-18
8940.40318 5.56050e-18
8944.69107 5.56756e-18
8948.96877 5.51604e-18
8953.25665 5.23004e-18
8957.54454 5.17143e-18
8961.82224 5.32711e-18
8966.11012 5.37108e-18
8970.39801 5.30183e-18
8974.68590 5.27658e-18
8978.96360 5.41235e-18
8983.25148 5.60536e-18
8987.53937 5.54559e-18
8991.81706 5.36129e-18
8996.10495 5.25181e-18
9000.39283 5.17404e-18
9004.68072 5.21738e-18
9008.95842 5.31352e-18
9013.24631 5.28841e-18
9017.53419 5.18616e-18
9021.81189 5.01519e-18
9026.09977 4.84339e-18
9030.38766 4.87479e-18
9034.66536 4.93792e-18
9038.95325 4.88123e-18
9043.24113 4.77612e-18
9047.51883 4.67204e-18
9051.80671 4.73737e-18
9056.09460 4.70711e-18
9060.38248 4.63122e-18
9064.66019 4.68202e-18
9068.94807 4.73016e-18
9073.23596 4.60075e-18
9077.51365 4.39850e-18
9081.80154 4.34264e-18
9086.08942 4.34316e-18
9090.37731 4.30293e-18
9094.65501 4.33498e-18
9098.94290 4.47565e-18
9103.23078 4.50669e-18
9107.50848 4.47044e-18
9111.79637 4.45545e-18
9116.08425 4.39337e-18
9120.37213 4.37262e-18
9124.64984 4.39859e-18
9128.93772 4.33585e-18
9133.22560 4.22271e-18
9137.50331 4.17613e-18
9141.79119 4.27062e-18
9146.07907 4.43948e-18
9150.36696 4.52821e-18
9154.64466 4.47896e-18
9158.93254 4.32116e-18
9163.22043 4.23525e-18
9167.49813 4.40868e-18
9171.78601 4.57770e-18
9176.07390 4.41930e-18
9180.35160 4.18439e-18
9184.63948 4.20396e-18
9188.92737 4.30763e-18
9193.21525 4.31120e-18
9197.49295 4.32323e-18
9201.78084 4.31428e-18
9206.06872 4.28115e-18
9210.34642 4.22663e-18
9214.63431 4.07068e-18
9218.92219 3.98123e-18
9223.19989 4.18980e-18
9227.48778 4.40727e-18
9231.77566 4.44750e-18
9236.06355 4.32664e-18
9240.34125 4.28331e-18
9244.62913 4.28851e-18
9248.91702 4.14655e-18
9253.19472 4.15073e-18
9257.48260 4.18322e-18
9261.77049 4.27401e-18
9266.05838 4.45008e-18
9270.33608 4.25011e-18
9274.62396 4.02720e-18
9278.91185 4.08721e-18
9283.18954 4.20288e-18
9287.47743 4.21191e-18
9291.76531 4.30271e-18
9296.04301 4.33106e-18
9300.33090 4.19012e-18
9304.61879 4.27292e-18
9308.90667 4.38712e-18
9313.18437 4.34291e-18
9317.47225 4.44542e-18
9321.76014 4.52552e-18
9326.03784 4.46540e-18
9330.32573 4.61094e-18
9334.61361 4.69358e-18
9338.90150 4.38891e-18
9343.17919 4.26015e-18
9347.46708 4.37252e-18
9351.75496 4.24793e-18
9356.03267 4.06556e-18
9360.32055 4.14912e-18
9364.60844 4.44544e-18
9368.88613 4.46545e-18
9373.17402 4.25147e-18
9377.46190 3.91176e-18
9381.74979 3.87482e-18
9386.02749 4.06599e-18
9390.31538 4.01743e-18
9394.60326 3.89975e-18
9398.89114 3.85577e-18
9403.16885 3.91297e-18
9407.45673 4.05310e-18
9411.74462 3.95362e-18
9416.02232 3.73374e-18
9420.31020 3.77010e-18
9424.59808 4.11587e-18
9428.87579 4.20971e-18
9433.16367 3.94720e-18
9437.45155 3.77991e-18
9441.73944 3.67977e-18
9446.01714 3.65764e-18
9450.30502 3.86000e-18
9454.59291 3.92164e-18
9458.87061 3.71150e-18
9463.15849 3.67615e-18
9467.44638 4.03393e-18
9471.72408 4.20027e-18
9476.01196 3.93778e-18
9480.29985 3.67038e-18
9484.58773 3.58231e-18
9488.86543 3.78843e-18
9493.15332 3.86909e-18
9497.44120 3.65353e-18
9501.71890 3.61168e-18
9506.00679 3.80876e-18
9510.29467 4.19457e-18
9514.57237 4.10666e-18
9518.86026 3.69929e-18
9523.14814 3.78649e-18
9527.43603 4.16293e-18
9531.71373 4.21197e-18
9536.00162 4.13427e-18
9540.28950 4.02859e-18
9544.56720 3.91574e-18
9548.85508 3.75885e-18
9553.14297 3.67761e-18
9557.43085 3.80272e-18
9561.70856 3.68245e-18
9565.99644 3.74905e-18
9570.28433 3.83984e-18
9574.56202 3.78189e-18
9578.84991 3.81833e-18
9583.13779 3.81741e-18
9587.42568 3.71613e-18
9591.70338 3.63518e-18
9595.99127 3.67292e-18
9600.27915 3.75890e-18
9604.55685 3.91264e-18
9608.84473 4.01203e-18
9613.13262 4.09580e-18
9617.41032 4.19473e-18
9621.69821 4.08237e-18
9625.98609 3.94518e-18
9630.27398 3.90233e-18
9634.55167 3.89620e-18
9638.83956 3.78012e-18
9643.12744 3.61712e-18
9647.40514 3.55212e-18
9651.69303 3.33211e-18
9655.98092 3.23617e-18
9660.26880 3.41431e-18
9664.54650 3.58472e-18
9668.83438 3.63858e-18
9673.12227 3.81503e-18
9677.39997 3.89875e-18
9681.68786 3.76950e-18
9685.97574 3.57772e-18
9690.26362 3.61128e-18
9694.54133 3.97410e-18
9698.82921 4.28576e-18
9703.11709 4.26578e-18
9707.39480 3.80556e-18
9711.68268 3.43504e-18
9715.97056 3.40865e-18
9720.24827 3.31789e-18
9724.53615 3.22683e-18
9728.82403 3.10604e-18
9733.11192 2.89952e-18
9737.38962 2.93747e-18
9741.67750 3.30881e-18
9745.96539 3.64534e-18
9750.24309 3.61238e-18
9754.53097 3.41458e-18
9758.81886 3.39773e-18
9763.09656 3.52344e-18
9767.38444 3.53875e-18
9771.67233 3.51972e-18
9775.96021 3.60759e-18
9780.23791 3.50122e-18
9784.52580 3.21189e-18
9788.81368 3.22924e-18
9793.09138 3.21662e-18
9797.37927 3.11949e-18
9801.66715 3.21083e-18
9805.94485 3.38030e-18
9810.23274 3.47901e-18
9814.52062 3.34519e-18
9818.80851 3.12073e-18
9823.08621 3.08657e-18
9827.37410 2.96232e-18
9831.66198 2.90067e-18
9835.94987 3.16877e-18
9840.22756 3.24325e-18
9844.51545 3.16274e-18
9848.80333 3.33226e-18
9853.08104 3.21433e-18
9857.36892 2.75090e-18
9861.65681 2.57130e-18
9865.93450 2.66391e-18
9870.22239 2.68062e-18
9874.51027 2.56947e-18
9878.79816 2.57954e-18
9883.07586 2.77490e-18
9887.36375 2.94320e-18
9891.65163 3.04277e-18
9895.92933 2.99282e-18
9900.21721 2.76346e-18
9904.50510 2.56605e-18
9908.79298 2.47456e-18
9913.07069 2.87836e-18
9917.35857 2.99210e-18
9921.64646 2.64492e-18
9925.92415 2.49204e-18
9930.21204 2.37728e-18
9934.49992 2.20281e-18
9938.77762 2.14646e-18
9943.06551 2.35218e-18
9947.35340 2.48333e-18
9951.64128 2.46204e-18
9955.91898 2.20800e-18
9960.20687 2.02659e-18
9964.49475 2.21248e-18
9968.77245 2.62141e-18
9973.06034 2.91033e-18
9977.34822 2.86807e-18
9981.63610 2.90145e-18
9985.91381 3.09871e-18
9990.20169 3.23294e-18
9994.48957 3.24824e-18
9998.76728 3.28955e-18
