# wavelength flux
3473.99808 2.52027e-18
3475.47087 2.92270e-18
3476.94366 7.21812e-18
3478.40644 1.10516e-17
3479.87923 2.06616e-18
3481.35203 2.44550e-18
3482.82482 3.99676e-18
3484.28759 5.12058e-18
3485.76039 7.63620e-18
3487.23318 6.90611e-18
3488.69595 2.16936e-18
3490.16875 1.35781e-18
3491.64154 5.24560e-18
3493.11433 4.14826e-18
3494.57710 8.05918e-19
3496.04990 6.30832e-18
3497.52269 5.30854e-18
3498.98546 6.21753e-18
3500.45826 5.76720e-18
3501.93105 4.52430e-18
3503.40384 3.49842e-18
3504.86662 1.01606e-18
3506.33941 4.03314e-18
3507.81220 6.76307e-18
3509.28500 6.75821e-18
3510.74777 5.91415e-18
3512.22056 7.47315e-18
3513.69336 9.77059e-18
3515.15613 3.31706e-18
3516.62892 2.07940e-18
3518.10172 3.14820e-18
3519.57451 2.42909e-18
3521.03728 3.22429e-18
3522.51008 7.80685e-18
3523.98287 4.43919e-18
3525.44564 2.54692e-18
3526.91844 3.01114e-18
3528.39123 3.81749e-18
3529.86402 4.61931e-18
3531.32680 3.84270e-18
3532.79959 3.58974e-18
3534.27238 2.88991e-18
3535.73516 5.85105e-18
3537.20795 7.23603e-18
3538.68074 1.90176e-18
3540.15354 3.70235e-18
3541.61631 2.61822e-19
3543.08910 -1.56751e-18
3544.56190 4.47136e-18
3546.03469 3.76555e-18
3547.49746 7.60331e-18
3548.97026 1.04516e-17
3550.44305 6.33591e-18
3551.90582 7.75895e-18
3553.37862 5.59001e-19
3554.85141 2.06167e-18
3556.32420 8.13311e-18
3557.78698 9.13760e-18
3559.25977 2.11529e-18
3560.73256 5.72690e-18
3562.19534 7.64783e-18
3563.66813 7.12130e-18
3565.14092 8.64600e-18
3566.61371 7.49902e-18
3568.07649 5.22187e-18
3569.54928 6.34729e-18
3571.02207 8.58558e-18
3572.49487 9.58381e-18
3573.95764 8.50855e-18
3575.43044 4.68942e-18
3576.90323 2.56173e-18
3578.36600 2.19011e-18
3579.83880 5.00064e-18
3581.31159 5.22374e-18
3582.78438 8.10930e-18
3584.24716 5.87659e-18
3585.71995 -7.96824e-20
3587.19274 3.43199e-18
3588.65551 1.36708e-18
3590.12831 2.00660e-18
3591.60110 6.01827e-18
3593.07389 5.17758e-18
3594.53667 5.88917e-18
3596.00946 5.02851e-18
3597.48225 3.78446e-18
3598.94503 7.98901e-20
3600.41782 1.44890e-18
3601.89061 -8.15314e-19
3603.36341 -1.11558e-18
3604.82618 2.83241e-18
3606.29897 5.41297e-18
3607.77177 7.01077e-19
3609.24456 2.00541e-18
3610.70733 3.51817e-18
3612.18013 3.34707e-18
3613.65292 2.48789e-18
3615.11569 1.51425e-18
3616.58849 4.08179e-18
3618.06128 5.94456e-18
3619.53407 1.81089e-18
3620.99685 3.10718e-19
3622.46964 8.17921e-21
3623.94243 1.60113e-18
3625.40521 -8.39507e-19
3626.87800 4.06502e-18
3628.35079 3.37214e-18
3629.82359 3.13304e-18
3631.28636 5.42868e-18
3632.75915 2.10476e-18
3634.23195 1.77044e-18
3635.70474 1.20750e-18
3637.16751 1.58069e-18
3638.64031 -9.84590e-19
3640.11310 2.18190e-18
3641.57587 2.75402e-18
3643.04867 4.59224e-18
3644.52146 1.62071e-18
3645.99425 -1.05084e-18
3647.45703 2.96980e-18
3648.92982 1.39373e-18
3650.40261 3.54356e-18
3651.86539 3.00506e-18
3653.33818 6.85538e-19
3654.81097 -1.76694e-19
3656.28377 2.74898e-18
3657.74654 4.37836e-18
3659.21933 2.21651e-18
3660.69213 -1.12067e-18
3662.16492 3.45224e-18
3663.62769 3.29575e-18
3665.10048 -6.97608e-19
3666.57328 -3.58857e-18
3668.03605 -4.24511e-19
3669.50885 2.04957e-18
3670.98164 3.63008e-19
3672.45443 3.65686e-19
3673.91720 1.11894e-18
3675.39000 4.18669e-18
3676.86279 3.25868e-18
3678.32557 -4.95165e-19
3679.79836 -9.01079e-19
3681.27115 -2.35843e-18
3682.74394 6.87480e-19
3684.20672 2.73285e-19
3685.67951 1.16699e-18
3687.15230 2.33808e-18
3688.62510 1.32601e-18
3690.08787 1.32425e-18
3691.56066 2.13001e-18
3693.03346 2.01762e-18
3694.49623 9.25495e-19
3695.96902 1.71177e-19
3697.44182 1.36795e-18
3698.91461 1.23975e-18
3700.37738 3.39358e-18
3701.85018 1.64017e-18
3703.32297 1.03672e-18
3704.78574 2.01494e-18
3706.25854 1.50582e-18
3707.73133 5.99614e-18
3709.20412 3.79565e-18
3710.66690 7.60227e-19
3712.13969 2.48016e-18
3713.61248 2.98196e-18
3715.07526 3.08688e-18
3716.54805 3.19181e-18
3718.02084 3.17863e-18
3719.49364 3.16545e-18
3720.95641 3.15228e-18
3722.42920 3.13910e-18
3723.90200 3.12593e-18
3725.37479 3.11275e-18
3726.83756 3.09958e-18
3728.31036 3.08641e-18
3729.78315 3.07324e-18
3731.24592 3.06007e-18
3732.71872 3.04690e-18
3734.19151 3.03373e-18
3735.66430 3.02057e-18
3737.12708 3.00740e-18
3738.59987 2.99424e-18
3740.07266 2.98108e-18
3741.53544 2.96791e-18
3743.00823 2.95475e-18
3744.48102 2.94159e-18
3745.95381 2.92844e-18
3747.41659 2.91528e-18
3748.88938 2.90212e-18
3750.36218 2.88897e-18
3751.83497 2.87581e-18
3753.29774 2.86266e-18
3754.77054 2.84951e-18
3756.24333 2.82580e-18
3757.70610 3.36965e-18
3759.17890 2.36859e-18
3760.65169 5.49100e-18
3762.12448 6.81247e-18
3763.58725 4.70866e-18
3765.06005 5.28649e-18
3766.53284 6.72990e-18
3767.99561 5.47597e-18
3769.46841 1.86301e-18
3770.94120 4.08055e-18
3772.41399 8.35022e-18
3773.87677 7.10584e-18
3775.34956 5.54696e-18
3776.82235 3.01452e-18
3778.28513 4.56879e-18
3779.75792 3.79145e-18
3781.23071 5.26987e-18
3782.70351 5.75719e-18
3784.16628 6.47447e-18
3785.63907 2.59340e-18
3787.11187 4.97104e-18
3788.58466 4.01824e-18
3790.04743 5.06936e-18
3791.52023 5.82746e-18
3792.99302 8.02924e-18
3794.45579 5.46040e-18
3795.92859 5.89042e-18
3797.40138 8.51985e-18
3798.87417 6.47226e-18
3800.33695 4.23204e-18
3801.80974 6.58336e-18
3803.28253 6.93800e-18
3804.74531 8.54075e-18
3806.21810 8.51803e-18
3807.69089 5.47677e-18
3809.16369 5.85536e-18
3810.62646 5.66645e-18
3812.09925 6.91823e-18
3813.57205 7.22097e-18
3815.04484 8.82498e-18
3816.50761 7.13003e-18
3817.98041 6.62575e-18
3819.45320 7.00388e-18
3820.91597 7.14343e-18
3822.38877 4.93582e-18
3823.86156 4.57309e-18
3825.33435 4.41080e-18
3826.79713 4.33333e-18
3828.26992 4.89870e-18
3829.74271 4.00500e-18
3831.20549 5.33568e-18
3832.67828 5.18022e-18
3834.15107 3.68550e-18
3835.62387 4.47690e-18
3837.08664 6.05891e-18
3838.55943 7.95937e-18
3840.03222 6.68819e-18
3841.50502 6.22733e-18
3842.96779 6.84693e-18
3844.44059 7.58663e-18
3845.91338 8.78127e-18
3847.37615 8.72280e-18
3848.84895 6.03072e-18
3850.32174 6.21529e-18
3851.79453 5.35928e-18
3853.25731 5.68387e-18
3854.73010 4.87541e-18
3856.20289 5.53696e-18
3857.66566 6.20527e-18
3859.13846 3.52824e-18
3860.61125 4.42205e-18
3862.08404 6.67922e-18
3863.54682 7.08216e-18
3865.01961 5.61942e-18
3866.49240 7.52910e-18
3867.95518 6.94289e-18
3869.42797 5.39543e-18
3870.90076 6.65890e-18
3872.37356 4.76574e-18
3873.83633 4.21039e-18
3875.30912 6.34639e-18
3876.78192 5.45604e-18
3878.25471 4.59205e-18
3879.71748 5.97123e-18
3881.19028 8.89916e-18
3882.66307 5.16704e-18
3884.12584 5.56037e-18
3885.59864 6.56799e-18
3887.07143 7.60404e-18
3888.54422 7.60777e-18
3890.00700 8.29123e-18
3891.47979 7.19160e-18
3892.95258 6.67050e-18
3894.41536 7.33697e-18
3895.88815 6.27127e-18
3897.36094 8.04480e-18
3898.83374 8.19935e-18
3900.29651 8.03249e-18
3901.76930 8.67174e-18
3903.24210 6.82575e-18
3904.71489 6.15091e-18
3906.17766 5.97820e-18
3907.65046 6.65927e-18
3909.12325 6.92975e-18
3910.58602 8.36789e-18
3912.05882 8.11381e-18
3913.53161 5.31354e-18
3915.00440 7.45499e-18
3916.46718 9.07505e-18
3917.93997 8.73946e-18
3919.41276 5.99368e-18
3920.87554 6.84126e-18
3922.34833 8.47779e-18
3923.82112 8.06681e-18
3925.29391 5.71542e-18
3926.75669 5.21679e-18
3928.22948 4.59142e-18
3929.70228 5.28529e-18
3931.17507 7.38935e-18
3932.63784 7.87348e-18
3934.11064 8.72764e-18
3935.58343 8.96451e-18
3937.04620 7.04118e-18
3938.51900 6.86115e-18
3939.99179 6.65715e-18
3941.46458 6.50995e-18
3942.92735 9.74751e-18
3944.40015 8.62677e-18
3945.87294 7.02567e-18
3947.33572 7.73277e-18
3948.80851 7.09930e-18
3950.28130 7.63900e-18
3951.75409 6.39281e-18
3953.21687 6.12414e-18
3954.68966 8.72874e-18
3956.16245 7.45798e-18
3957.62523 7.25307e-18
3959.09802 8.03977e-18
3960.57081 6.74552e-18
3962.04361 8.03697e-18
3963.50638 7.29208e-18
3964.97917 7.24828e-18
3966.45197 8.49438e-18
3967.92476 7.13682e-18
3969.38753 8.67255e-18
3970.86033 8.87375e-18
3972.33312 7.70749e-18
3973.79589 6.61047e-18
3975.26869 6.94600e-18
3976.74148 8.16737e-18
3978.21427 8.66275e-18
3979.67705 7.21367e-18
3981.14984 6.74663e-18
3982.62263 7.79247e-18
3984.08541 7.31497e-18
3985.55820 8.19959e-18
3987.03099 7.75222e-18
3988.50379 7.07528e-18
3989.96656 7.28809e-18
3991.43935 8.54479e-18
3992.91215 5.88412e-18
3994.38494 6.30042e-18
3995.84771 6.76315e-18
3997.32051 5.96527e-18
3998.79330 5.43996e-18
4000.25607 5.06185e-18
4001.72887 6.16664e-18
4003.20166 6.58247e-18
4004.67445 5.20855e-18
4006.13723 7.22158e-18
4007.61002 7.04300e-18
4009.08281 5.47241e-18
4010.54559 6.29785e-18
4012.01838 6.34638e-18
4013.49117 5.78849e-18
4014.96396 4.46825e-18
4016.42674 5.25797e-18
4017.89953 3.91526e-18
4019.37233 5.86283e-18
4020.84512 6.41316e-18
4022.30789 3.37387e-18
4023.78069 3.36006e-18
4025.25348 3.96693e-18
4026.71625 4.55904e-18
4028.18905 3.82170e-18
4029.66184 4.78783e-18
4031.13463 6.36518e-18
4032.59740 5.05997e-18
4034.07020 4.89634e-18
4035.54299 5.98716e-18
4037.00576 6.18096e-18
4038.47856 4.62398e-18
4039.95135 3.45922e-18
4041.42414 2.77874e-18
4042.88692 3.93990e-18
4044.35971 5.08554e-18
4045.83250 4.04363e-18
4047.29528 4.66324e-18
4048.76807 4.18591e-18
4050.24086 4.28758e-18
4051.71366 3.85351e-18
4053.17643 3.11478e-18
4054.64922 4.26238e-18
4056.12202 4.00370e-18
4057.59481 4.36123e-18
4059.05758 4.17396e-18
4060.53038 5.14083e-18
4062.00317 4.50335e-18
4063.46594 4.36861e-18
4064.93874 6.05641e-18
4066.41153 5.00829e-18
4067.88432 4.95999e-18
4069.34710 4.52074e-18
4070.81989 3.22908e-18
4072.29268 4.83827e-18
4073.75546 4.79021e-18
4075.22825 4.29405e-18
4076.70104 3.48198e-18
4078.17384 4.10198e-18
4079.63661 4.21728e-18
4081.10940 2.82727e-18
4082.58220 4.26115e-18
4084.05499 3.97960e-18
4085.51776 4.25356e-18
4086.99056 5.18842e-18
4088.46335 4.05262e-18
4089.92612 4.84498e-18
4091.39892 6.86443e-18
4092.87171 5.94979e-18
4094.34450 3.74472e-18
4095.80728 5.07962e-18
4097.28007 3.79761e-18
4098.75286 4.43980e-18
4100.21564 4.38610e-18
4101.68843 4.72278e-18
4103.16122 4.99492e-18
4104.63402 4.74696e-18
4106.09679 5.53081e-18
4107.56958 6.76678e-18
4109.04237 6.93918e-18
4110.50515 6.89449e-18
4111.97794 6.45475e-18
4113.45073 7.50940e-18
4114.92353 8.48266e-18
4116.38630 7.50195e-18
4117.85909 4.48662e-18
4119.33189 6.78138e-18
4120.80468 7.31960e-18
4122.26746 5.78433e-18
4123.74025 3.97931e-18
4125.21304 6.54325e-18
4126.67582 6.14868e-18
4128.14861 5.87606e-18
4129.62140 5.31979e-18
4131.09419 5.42884e-18
4132.55697 6.25695e-18
4134.02976 5.72286e-18
4135.50255 4.87150e-18
4136.96533 5.89507e-18
4138.43812 6.17000e-18
4139.91091 6.59294e-18
4141.38371 7.92792e-18
4142.84648 6.82072e-18
4144.31927 7.45716e-18
4145.79207 7.07427e-18
4147.26486 6.27769e-18
4148.72763 7.40229e-18
4150.20043 8.68078e-18
4151.67322 6.75902e-18
4153.13599 6.86196e-18
4154.60879 8.71620e-18
4156.08158 5.86806e-18
4157.55437 4.11406e-18
4159.01715 6.35256e-18
4160.48994 8.11646e-18
4161.96273 9.41939e-18
4163.42551 6.74913e-18
4164.89830 8.08925e-18
4166.37109 7.52049e-18
4167.84389 7.05025e-18
4169.30666 8.73219e-18
4170.77945 7.84112e-18
4172.25225 7.70264e-18
4173.72504 8.03417e-18
4175.18781 8.57567e-18
4176.66061 7.76006e-18
4178.13340 7.08927e-18
4179.59617 8.05893e-18
4181.06897 7.62470e-18
4182.54176 8.23955e-18
4184.01455 7.88978e-18
4185.47733 8.16509e-18
4186.95012 7.69612e-18
4188.42291 7.56168e-18
4189.88569 8.30007e-18
4191.35848 8.76579e-18
4192.83127 6.98256e-18
4194.30407 7.02823e-18
4195.76684 9.52794e-18
4197.23963 9.31228e-18
4198.71242 8.43469e-18
4200.18522 7.18653e-18
4201.64799 7.67699e-18
4203.12079 7.53231e-18
4204.59358 8.36178e-18
4206.05635 8.47450e-18
4207.52915 9.03108e-18
4209.00194 1.04716e-17
4210.47473 1.03978e-17
4211.93750 1.03386e-17
4213.41030 8.65655e-18
4214.88309 8.31373e-18
4216.34587 8.76716e-18
4217.81866 7.54586e-18
4219.29145 7.81230e-18
4220.76424 7.93030e-18
4222.22702 7.55380e-18
4223.69981 8.20737e-18
4225.17260 9.01690e-18
4226.63538 9.91515e-18
4228.10817 1.08834e-17
4229.58096 1.01839e-17
4231.05376 8.44469e-18
4232.51653 8.13305e-18
4233.98932 8.26704e-18
4235.46212 7.92322e-18
4236.93491 7.50095e-18
4238.39768 8.81637e-18
4239.87048 8.66280e-18
4241.34327 8.36193e-18
4242.80604 7.39094e-18
4244.27884 6.48903e-18
4245.75163 9.44314e-18
4247.22442 9.42317e-18
4248.68720 9.36988e-18
4250.15999 9.13191e-18
4251.63278 7.99787e-18
4253.09556 6.51157e-18
4254.56835 7.68988e-18
4256.04114 7.69066e-18
4257.51394 7.84842e-18
4258.97671 7.45635e-18
4260.44950 8.52381e-18
4261.92230 9.12218e-18
4263.39509 7.01521e-18
4264.85786 8.04992e-18
4266.33066 7.79174e-18
4267.80345 7.49643e-18
4269.26622 8.28623e-18
4270.73902 7.26596e-18
4272.21181 8.35000e-18
4273.68460 9.54816e-18
4275.14738 8.73084e-18
4276.62017 7.86143e-18
4278.09296 8.44491e-18
4279.55574 8.70787e-18
4281.02853 7.64671e-18
4282.50132 7.50426e-18
4283.97411 8.11793e-18
4285.43689 8.94286e-18
4286.90968 8.31031e-18
4288.38248 7.53307e-18
4289.84525 8.18396e-18
4291.31804 7.96662e-18
4292.79083 9.79081e-18
4294.26363 8.25537e-18
4295.72640 8.55197e-18
4297.19920 7.38264e-18
4298.67199 8.36041e-18
4300.14478 8.41583e-18
4301.60755 8.62828e-18
4303.08035 7.98329e-18
4304.55314 8.52456e-18
4306.01592 8.68461e-18
4307.48871 8.54743e-18
4308.96150 8.58637e-18
4310.43429 8.48790e-18
4311.89707 8.73901e-18
4313.36986 8.68900e-18
4314.84265 9.73813e-18
4316.30543 9.16224e-18
4317.77822 8.61675e-18
4319.25101 1.04060e-17
4320.72381 8.55794e-18
4322.18658 9.66765e-18
4323.65937 1.01802e-17
4325.13217 8.76818e-18
4326.60496 7.58240e-18
4328.06773 9.49059e-18
4329.54053 1.01112e-17
4331.01332 1.02450e-17
4332.47609 1.04629e-17
4333.94889 9.95506e-18
4335.42168 9.99061e-18
4336.89447 1.16578e-17
4338.35725 1.08804e-17
4339.83004 9.19125e-18
4341.30283 1.13000e-17
4342.76561 1.06893e-17
4344.23840 9.24762e-18
4345.71119 1.07756e-17
4347.18399 1.11407e-17
4348.64676 1.13329e-17
4350.11955 1.21629e-17
4351.59235 1.15118e-17
4353.06514 1.15983e-17
4354.52791 1.15606e-17
4356.00071 1.15229e-17
4357.47350 1.14851e-17
4358.93627 1.14474e-17
4360.40907 1.14097e-17
4361.88186 1.13720e-17
4363.35465 1.13343e-17
4364.81743 1.12966e-17
4366.29022 1.12589e-17
4367.76301 1.12213e-17
4369.22579 1.11836e-17
4370.69858 1.11459e-17
4372.17137 1.11082e-17
4373.64417 1.10705e-17
4375.10694 1.10328e-17
4376.57973 1.09951e-17
4378.05253 1.09574e-17
4379.51530 1.09198e-17
4380.98809 1.08821e-17
4382.46088 1.08444e-17
4383.93368 1.08067e-17
4385.39645 1.07691e-17
4386.86924 1.07314e-17
4388.34204 1.06937e-17
4389.81483 1.06560e-17
4391.27761 1.02168e-17
4392.75040 1.12996e-17
4394.22319 1.03253e-17
4395.68597 1.02641e-17
4397.15876 1.16849e-17
4398.63155 1.12144e-17
4400.10434 1.01104e-17
4401.56712 1.02295e-17
4403.03991 1.01334e-17
4404.51270 1.03255e-17
4405.97548 9.52660e-18
4407.44827 9.73133e-18
4408.92106 9.73261e-18
4410.39386 9.41722e-18
4411.85663 9.81867e-18
4413.32942 9.32725e-18
4414.80222 8.63850e-18
4416.27501 9.56259e-18
4417.73778 8.78748e-18
4419.21058 9.28348e-18
4420.68337 9.86150e-18
4422.14614 8.41736e-18
4423.61894 9.06080e-18
4425.09173 9.69745e-18
4426.56452 9.71198e-18
4428.02730 1.08950e-17
4429.50009 9.37258e-18
4430.97288 8.23115e-18
4432.43566 7.74373e-18
4433.90845 7.18075e-18
4435.38124 6.98412e-18
4436.85404 7.47117e-18
4438.31681 8.46827e-18
4439.78960 8.29765e-18
4441.26240 7.42023e-18
4442.73519 7.55214e-18
4444.19796 7.90103e-18
4445.67076 7.83978e-18
4447.14355 8.55963e-18
4448.60632 9.12519e-18
4450.07912 6.09774e-18
4451.55191 6.91052e-18
4453.02470 7.35395e-18
4454.48748 7.88568e-18
4455.96027 8.99003e-18
4457.43306 6.81468e-18
4458.89584 5.60873e-18
4460.36863 6.80613e-18
4461.84142 6.62358e-18
4463.31422 5.87211e-18
4464.77699 5.88904e-18
4466.24978 6.44386e-18
4467.72257 6.99282e-18
4469.18535 6.59582e-18
4470.65814 5.71753e-18
4472.13094 5.75254e-18
4473.60373 5.35055e-18
4475.06650 6.58032e-18
4476.53930 5.64314e-18
4478.01209 4.48584e-18
4479.48488 5.26360e-18
4480.94765 5.57936e-18
4482.42045 6.55458e-18
4483.89324 5.68159e-18
4485.35602 5.11272e-18
4486.82881 5.32477e-18
4488.30160 5.37761e-18
4489.77439 4.04984e-18
4491.23717 5.06703e-18
4492.70996 4.79900e-18
4494.18275 4.78332e-18
4495.64553 4.34429e-18
4497.11832 3.11137e-18
4498.59111 3.33239e-18
4500.06391 4.21367e-18
4501.52668 5.72999e-18
4502.99947 4.67476e-18
4504.47227 4.33822e-18
4505.94506 4.06954e-18
4507.40783 3.91088e-18
4508.88063 3.40102e-18
4510.35342 2.16170e-18
4511.81619 2.90183e-18
4513.28899 3.53880e-18
4514.76178 3.95530e-18
4516.23457 3.44615e-18
4517.69735 3.51221e-18
4519.17014 3.85487e-18
4520.64293 3.58955e-18
4522.10571 2.99805e-18
4523.57850 3.18869e-18
4525.05129 2.94170e-18
4526.52409 3.29928e-18
4527.98686 3.91120e-18
4529.45965 2.98114e-18
4530.93245 3.94524e-18
4532.39522 4.30777e-18
4533.86801 3.08242e-18
4535.34081 2.33800e-18
4536.81360 4.62354e-18
4538.27637 3.49227e-18
4539.74917 3.61921e-18
4541.22196 3.94978e-18
4542.69475 3.44691e-18
4544.15753 3.89266e-18
4545.63032 4.19047e-18
4547.10311 4.20123e-18
4548.56589 4.87381e-18
4550.03868 4.61215e-18
4551.51147 2.68104e-18
4552.98427 3.50083e-18
4554.44704 3.55841e-18
4555.91983 4.50324e-18
4557.39263 4.38282e-18
4558.85540 3.16878e-18
4560.32819 4.74423e-18
4561.80098 5.35603e-18
4563.27378 5.18715e-18
4564.73655 4.65188e-18
4566.20935 4.44758e-18
4567.68214 4.59579e-18
4569.15493 4.69455e-18
4570.61770 4.26108e-18
4572.09050 3.44313e-18
4573.56329 4.41284e-18
4575.02607 5.64310e-18
4576.49886 5.90246e-18
4577.97165 4.73387e-18
4579.44444 5.12671e-18
4580.90722 4.45819e-18
4582.38001 4.77908e-18
4583.85280 5.53480e-18
4585.31558 5.18202e-18
4586.78837 5.84123e-18
4588.26116 5.61774e-18
4589.73396 3.88305e-18
4591.19673 4.59308e-18
4592.66952 6.23191e-18
4594.14232 5.57216e-18
4595.61511 6.10160e-18
4597.07788 6.55900e-18
4598.55068 6.22766e-18
4600.02347 6.03736e-18
4601.48624 5.86736e-18
4602.95904 5.92739e-18
4604.43183 6.75337e-18
4605.90462 6.41446e-18
4607.36740 5.45014e-18
4608.84019 6.98510e-18
4610.31298 7.82019e-18
4611.77576 7.61601e-18
4613.24855 6.02763e-18
4614.72134 6.43142e-18
4616.19414 6.23151e-18
4617.65691 7.23653e-18
4619.12970 7.59691e-18
4620.60250 7.23393e-18
4622.06527 7.38583e-18
4623.53806 8.17486e-18
4625.01086 7.00286e-18
4626.48365 7.62855e-18
4627.94642 7.52261e-18
4629.41922 7.10418e-18
4630.89201 7.25286e-18
4632.36480 7.87179e-18
4633.82758 7.86350e-18
4635.30037 7.51192e-18
4636.77316 8.31883e-18
4638.23594 7.90264e-18
4639.70873 8.62488e-18
4641.18152 6.78344e-18
4642.65432 8.00424e-18
4644.11709 8.69227e-18
4645.58988 9.22876e-18
4647.06268 9.14316e-18
4648.52545 9.52962e-18
4649.99824 8.73766e-18
4651.47103 9.79008e-18
4652.94383 9.22708e-18
4654.40660 9.96203e-18
4655.87939 9.75198e-18
4657.35219 8.98638e-18
4658.81496 1.02050e-17
4660.28776 9.52980e-18
4661.76055 9.33475e-18
4663.23334 9.89104e-18
4664.69612 9.15708e-18
4666.16891 9.69484e-18
4667.64170 9.58196e-18
4669.11449 9.22214e-18
4670.57727 9.48561e-18
4672.05006 8.75954e-18
4673.52285 8.36049e-18
4674.98563 1.01113e-17
4676.45842 9.62130e-18
4677.93121 1.04547e-17
4679.40401 1.17982e-17
4680.86678 9.68045e-18
4682.33957 1.01035e-17
4683.81237 1.08773e-17
4685.28516 1.07991e-17
4686.74793 1.13976e-17
4688.22073 1.08385e-17
4689.69352 1.14288e-17
4691.15629 1.02043e-17
4692.62909 1.03591e-17
4694.10188 1.09938e-17
4695.57467 1.13926e-17
4697.03745 1.10331e-17
4698.51024 1.04736e-17
4699.98303 1.15202e-17
4701.44581 1.06795e-17
4702.91860 1.06967e-17
4704.39139 1.22359e-17
4705.86419 1.13303e-17
4707.32696 1.12284e-17
4708.79975 1.17497e-17
4710.27255 1.12239e-17
4711.74534 1.19608e-17
4713.20811 1.21533e-17
4714.68091 1.20994e-17
4716.15370 1.13313e-17
4717.61647 1.18582e-17
4719.08927 1.12029e-17
4720.56206 1.06333e-17
4722.03485 1.22586e-17
4723.49763 1.16050e-17
4724.97042 1.11279e-17
4726.44321 1.17777e-17
4727.90599 1.18878e-17
4729.37878 1.19795e-17
4730.85157 1.05082e-17
4732.32437 1.25330e-17
4733.78714 1.20079e-17
4735.25993 1.04021e-17
4736.73272 1.18292e-17
4738.19550 1.19686e-17
4739.66829 1.25535e-17
4741.14108 1.37788e-17
4742.61388 1.20295e-17
4744.07665 1.24135e-17
4745.54945 1.23371e-17
4747.02224 1.37138e-17
4748.49503 1.30327e-17
4749.95781 1.21153e-17
4751.43060 1.10272e-17
4752.90339 1.15880e-17
4754.36617 1.22723e-17
4755.83896 1.23449e-17
4757.31175 1.31825e-17
4758.78454 1.27084e-17
4760.24732 1.26403e-17
4761.72011 1.28383e-17
4763.19290 1.18616e-17
4764.65568 1.24766e-17
4766.12847 1.15560e-17
4767.60126 1.29714e-17
4769.07406 1.34811e-17
4770.53683 1.20195e-17
4772.00962 1.26562e-17
4773.48242 1.27520e-17
4774.95521 1.09384e-17
4776.41798 1.15442e-17
4777.89078 1.30875e-17
4779.36357 1.32417e-17
4780.82634 1.27620e-17
4782.29914 1.31740e-17
4783.77193 1.40812e-17
4785.24472 1.39915e-17
4786.70750 1.25353e-17
4788.18029 1.26701e-17
4789.65308 1.29680e-17
4791.11586 1.31259e-17
4792.58865 1.31646e-17
4794.06144 1.33688e-17
4795.53424 1.34870e-17
4796.99701 1.29039e-17
4798.46980 1.29201e-17
4799.94260 1.26926e-17
4801.41539 1.25218e-17
4802.87816 1.35302e-17
4804.35096 1.30072e-17
4805.82375 1.26643e-17
4807.28652 1.31065e-17
4808.75932 1.23016e-17
4810.23211 1.37612e-17
4811.70490 1.28330e-17
4813.16768 1.14072e-17
4814.64047 1.16161e-17
4816.11326 1.24530e-17
4817.57604 1.28921e-17
4819.04883 1.37421e-17
4820.52162 1.37562e-17
4821.99442 1.39838e-17
4823.45719 1.46237e-17
4824.92998 1.30164e-17
4826.40278 1.22628e-17
4827.86555 1.26105e-17
4829.33834 1.28050e-17
4830.81113 1.41948e-17
4832.28393 1.27455e-17
4833.74670 1.22426e-17
4835.21950 1.26001e-17
4836.69229 1.28420e-17
4838.16508 1.25132e-17
4839.62785 1.22008e-17
4841.10065 1.13761e-17
4842.57344 1.25880e-17
4844.03622 1.23596e-17
4845.50901 1.15744e-17
4846.98180 1.17709e-17
4848.45459 1.23400e-17
4849.91737 1.32788e-17
4851.39016 1.26207e-17
4852.86295 1.25760e-17
4854.32573 1.25313e-17
4855.79852 1.24866e-17
4857.27131 1.24419e-17
4858.74411 1.23972e-17
4860.20688 1.23526e-17
4861.67967 1.23079e-17
4863.15247 1.22632e-17
4864.62526 1.22185e-17
4866.08803 1.21738e-17
4867.56083 1.21292e-17
4869.03362 1.20845e-17
4870.49639 1.20398e-17
4871.96919 1.19951e-17
4873.44198 1.19505e-17
4874.91477 1.19058e-17
4876.37755 1.18612e-17
4877.85034 1.18165e-17
4879.32313 1.17719e-17
4880.78591 1.17272e-17
4882.25870 1.16825e-17
4883.73149 1.16379e-17
4885.20429 1.15933e-17
4886.66706 1.15486e-17
4888.13985 1.15040e-17
4889.61265 1.14593e-17
4891.07542 1.11033e-17
4892.54821 1.19509e-17
4894.02101 1.26115e-17
4895.49380 1.20014e-17
4896.95657 1.36020e-17
4898.42937 1.22879e-17
4899.90216 1.17595e-17
4901.37495 1.20522e-17
4902.83773 1.27679e-17
4904.31052 1.26252e-17
4905.78331 1.26439e-17
4907.24609 1.20865e-17
4908.71888 1.24439e-17
4910.19167 1.22294e-17
4911.66447 1.25193e-17
4913.12724 1.31050e-17
4914.60003 1.28973e-17
4916.07283 1.26974e-17
4917.53560 1.28232e-17
4919.00839 1.34194e-17
4920.48118 1.42309e-17
4921.95398 1.32677e-17
4923.41675 1.28416e-17
4924.88954 1.31679e-17
4926.36234 1.23202e-17
4927.83513 1.14531e-17
4929.29790 1.21653e-17
4930.77070 1.22620e-17
4932.24349 1.26610e-17
4933.70627 1.32916e-17
4935.17906 1.25351e-17
4936.65185 1.19271e-17
4938.12464 1.18677e-17
4939.58742 1.31581e-17
4941.06021 1.30829e-17
4942.53300 1.33199e-17
4943.99578 1.30918e-17
4945.46857 1.27318e-17
4946.94136 1.27004e-17
4948.41416 1.20259e-17
4949.87693 1.29067e-17
4951.34972 1.28971e-17
4952.82252 1.28876e-17
4954.29531 1.28780e-17
4955.75808 1.28684e-17
4957.23088 1.28589e-17
4958.70367 1.28493e-17
4960.16644 1.28397e-17
4961.63924 1.28302e-17
4963.11203 1.28206e-17
4964.58482 1.28111e-17
4966.04760 1.28015e-17
4967.52039 1.27919e-17
4968.99318 1.27824e-17
4970.45596 1.27728e-17
4971.92875 1.27633e-17
4973.40154 1.27537e-17
4974.87434 1.27441e-17
4976.33711 1.27346e-17
4977.80990 1.27250e-17
4979.28270 1.27155e-17
4980.74547 1.27059e-17
4982.21826 1.26964e-17
4983.69106 1.26868e-17
4985.16385 1.26773e-17
4986.62662 1.26677e-17
4988.09942 1.22725e-17
4989.57221 1.25832e-17
4991.04500 1.27324e-17
4992.50778 1.34501e-17
4993.98057 1.25014e-17
4995.45336 1.21732e-17
4996.91614 1.30826e-17
4998.38893 1.30921e-17
4999.86172 1.31015e-17
5001.33452 1.31110e-17
5002.79729 1.31205e-17
5004.27008 1.31300e-17
5005.74287 1.31394e-17
5007.20565 1.31489e-17
5008.67844 1.31584e-17
5010.15123 1.31679e-17
5011.62403 1.31773e-17
5013.08680 1.31868e-17
5014.55960 1.31963e-17
5016.03239 1.32057e-17
5017.49516 1.32152e-17
5018.96796 1.32247e-17
5020.44075 1.32342e-17
5021.91354 1.32436e-17
5023.37632 1.32531e-17
5024.84911 1.32626e-17
5026.32190 1.32720e-17
5027.79469 1.32815e-17
5029.25747 1.32910e-17
5030.73026 1.33004e-17
5032.20305 1.33099e-17
5033.66583 1.33194e-17
5035.13862 1.33288e-17
5036.61141 1.21162e-17
5038.08421 1.26748e-17
5039.54698 1.28767e-17
5041.01977 1.30463e-17
5042.49257 1.19942e-17
5043.96536 1.27554e-17
5045.42813 1.20329e-17
5046.90093 1.24917e-17
5048.37372 1.28856e-17
5049.83649 1.31817e-17
5051.30929 1.34403e-17
5052.78208 1.32742e-17
5054.25487 1.39907e-17
5055.71765 1.38349e-17
5057.19044 1.36825e-17
5058.66323 1.24991e-17
5060.12601 1.38506e-17
5061.59880 1.30226e-17
5063.07159 1.17691e-17
5064.54439 1.28221e-17
5066.00716 1.39927e-17
5067.47995 1.37511e-17
5068.95275 1.27431e-17
5070.41552 1.21871e-17
5071.88831 1.47759e-17
5073.36111 1.39906e-17
5074.83390 1.30587e-17
5076.29667 1.26785e-17
5077.76947 1.29257e-17
5079.24226 1.33482e-17
5080.71505 1.32839e-17
5082.17783 1.32636e-17
5083.65062 1.33018e-17
5085.12341 1.30353e-17
5086.58619 1.30368e-17
5088.05898 1.38705e-17
5089.53177 1.43472e-17
5091.00457 1.35837e-17
5092.46734 1.43489e-17
5093.94013 1.46499e-17
5095.41292 1.45651e-17
5096.87570 1.44579e-17
5098.34849 1.43329e-17
5099.82128 1.37099e-17
5101.29408 1.34630e-17
5102.75685 1.34000e-17
5104.22965 1.37551e-17
5105.70244 1.38038e-17
5107.16521 1.35357e-17
5108.63800 1.28587e-17
5110.11080 1.27064e-17
5111.58359 1.33219e-17
5113.04637 1.39217e-17
5114.51916 1.33541e-17
5115.99195 1.47340e-17
5117.46474 1.44637e-17
5118.92752 1.29594e-17
5120.40031 1.35247e-17
5121.87310 1.37028e-17
5123.33588 1.33467e-17
5124.80867 1.40712e-17
5126.28146 1.34756e-17
5127.75426 1.36771e-17
5129.21703 1.37294e-17
5130.68982 1.41835e-17
5132.16262 1.33563e-17
5133.62539 1.34696e-17
5135.09818 1.32282e-17
5136.57098 1.37347e-17
5138.04377 1.32604e-17
5139.50654 1.33759e-17
5140.97934 1.37524e-17
5142.45213 1.41559e-17
5143.92492 1.43858e-17
5145.38770 1.33236e-17
5146.86049 1.33719e-17
5148.33328 1.38067e-17
5149.79606 1.39137e-17
5151.26885 1.29646e-17
5152.74164 1.40890e-17
5154.21444 1.34481e-17
5155.67721 1.34196e-17
5157.15000 1.43083e-17
5158.62280 1.32852e-17
5160.08557 1.28067e-17
5161.55836 1.32894e-17
5163.03116 1.19705e-17
5164.50395 1.28691e-17
5165.96672 1.42384e-17
5167.43952 1.38779e-17
5168.91231 1.31395e-17
5170.38510 1.28120e-17
5171.84788 1.29318e-17
5173.32067 1.15504e-17
5174.79346 1.27819e-17
5176.25624 1.41884e-17
5177.72903 1.35871e-17
5179.20182 1.36471e-17
5180.67462 1.37541e-17
5182.13739 1.37839e-17
5183.61018 1.46479e-17
5185.08298 1.40354e-17
5186.54575 1.31785e-17
5188.01854 1.43953e-17
5189.49133 1.44023e-17
5190.96413 1.38194e-17
5192.42690 1.33535e-17
5193.89970 1.25881e-17
5195.37249 1.17220e-17
5196.83526 1.21928e-17
5198.30805 1.31600e-17
5199.78085 1.39578e-17
5201.25364 1.30724e-17
5202.71642 1.27904e-17
5204.18921 1.25499e-17
5205.66200 1.33560e-17
5207.13479 1.35470e-17
5208.59757 1.31614e-17
5210.07036 1.27759e-17
5211.54315 1.30202e-17
5213.00593 1.30252e-17
5214.47872 1.36388e-17
5215.95151 1.45145e-17
5217.42431 1.30261e-17
5218.88708 1.46138e-17
5220.35987 1.32638e-17
5221.83267 1.29218e-17
5223.29544 1.42270e-17
5224.76823 1.31370e-17
5226.24103 1.32003e-17
5227.71382 1.37829e-17
5229.17659 1.25531e-17
5230.64939 1.35027e-17
5232.12218 1.39566e-17
5233.59497 1.34170e-17
5235.05775 1.23507e-17
5236.53054 1.27847e-17
5238.00333 1.31137e-17
5239.46611 1.27962e-17
5240.93890 1.28504e-17
5242.41169 1.31551e-17
5243.88449 1.30004e-17
5245.34726 1.22869e-17
5246.82005 1.21495e-17
5248.29285 1.33822e-17
5249.75562 1.22980e-17
5251.22841 1.23382e-17
5252.70121 1.26856e-17
5254.17400 1.31426e-17
5255.63677 1.24934e-17
5257.10957 1.37361e-17
5258.58236 1.30890e-17
5260.04513 1.25800e-17
5261.51793 1.33903e-17
5262.99072 1.28498e-17
5264.46351 1.30818e-17
5265.92629 1.27406e-17
5267.39908 1.22840e-17
5268.87187 1.27139e-17
5270.34467 1.19232e-17
5271.80744 1.17756e-17
5273.28023 1.32853e-17
5274.75302 1.27928e-17
5276.21580 1.18582e-17
5277.68859 1.22039e-17
5279.16138 1.23106e-17
5280.63418 1.24633e-17
5282.09695 1.29176e-17
5283.56975 1.19891e-17
5285.04254 1.13193e-17
5286.50531 1.18244e-17
5287.97811 1.27771e-17
5289.45090 1.34900e-17
5290.92369 1.25551e-17
5292.38647 1.25157e-17
5293.85926 1.17881e-17
5295.33205 1.19652e-17
5296.80484 1.17262e-17
5298.26762 1.14993e-17
5299.74041 1.24159e-17
5301.21320 1.25036e-17
5302.67598 1.30351e-17
5304.14877 1.22585e-17
5305.62156 1.11305e-17
5307.09436 1.22256e-17
5308.55713 1.26127e-17
5310.02992 1.09675e-17
5311.50272 1.17582e-17
5312.97551 1.26127e-17
5314.43828 1.15751e-17
5315.91108 1.18090e-17
5317.38387 1.24644e-17
5318.84664 1.17499e-17
5320.31944 1.15904e-17
5321.79223 1.20311e-17
5323.26502 1.21091e-17
5324.72780 1.25352e-17
5326.20059 1.23782e-17
5327.67338 1.18558e-17
5329.13616 1.18948e-17
5330.60895 1.24358e-17
5332.08174 1.23413e-17
5333.55454 1.17760e-17
5335.01731 1.19769e-17
5336.49010 1.30452e-17
5337.96290 1.27834e-17
5339.42567 1.21524e-17
5340.89846 1.17268e-17
5342.37126 1.17593e-17
5343.84405 1.20892e-17
5345.30682 1.20123e-17
5346.77962 1.25907e-17
5348.25241 1.30450e-17
5349.72520 1.28720e-17
5351.18798 1.29264e-17
5352.66077 1.27569e-17
5354.13356 1.11374e-17
5355.59634 1.10088e-17
5357.06913 1.25344e-17
5358.54192 1.25871e-17
5360.01472 1.15934e-17
5361.47749 1.17496e-17
5362.95028 1.21712e-17
5364.42307 1.20942e-17
5365.88585 1.13183e-17
5367.35864 1.10506e-17
5368.83144 1.17058e-17
5370.30423 1.26799e-17
5371.76700 1.18201e-17
5373.23980 1.12397e-17
5374.71259 1.18123e-17
5376.17536 1.15333e-17
5377.64815 1.18774e-17
5379.12095 1.22547e-17
5380.59374 1.16934e-17
5382.05652 1.15177e-17
5383.52931 1.24633e-17
5385.00210 1.24316e-17
5386.47489 1.14111e-17
5387.93767 1.07983e-17
5389.41046 1.21515e-17
5390.88325 1.28664e-17
5392.34603 1.27424e-17
5393.81882 1.29117e-17
5395.29161 1.22249e-17
5396.76441 1.20816e-17
5398.22718 1.16699e-17
5399.69997 1.14857e-17
5401.17277 1.14214e-17
5402.64556 1.18521e-17
5404.10833 1.25339e-17
5405.58113 1.19345e-17
5407.05392 1.18820e-17
5408.51669 1.19472e-17
5409.98949 1.24443e-17
5411.46228 1.17921e-17
5412.93507 1.15132e-17
5414.39785 9.92185e-18
5415.87064 1.06480e-17
5417.34343 1.19726e-17
5418.80621 1.20887e-17
5420.27900 1.23054e-17
5421.75179 1.18451e-17
5423.22459 1.15906e-17
5424.68736 1.11131e-17
5426.16015 1.11796e-17
5427.63295 1.01720e-17
5429.09572 9.84937e-18
5430.56851 1.08849e-17
5432.04131 1.15754e-17
5433.51410 1.12798e-17
5434.97687 1.14732e-17
5436.44967 1.13523e-17
5437.92246 1.17973e-17
5439.39525 1.16775e-17
5440.85803 1.27270e-17
5442.33082 1.22502e-17
5443.80361 1.17213e-17
5445.26639 1.05680e-17
5446.73918 1.11194e-17
5448.21197 1.17563e-17
5449.68477 1.09989e-17
5451.14754 1.13380e-17
5452.62033 1.07527e-17
5454.09313 1.05651e-17
5455.55590 1.14732e-17
5457.02869 1.16314e-17
5458.50148 1.15830e-17
5459.97428 1.20246e-17
5461.43705 1.22416e-17
5462.90985 1.07753e-17
5464.38264 1.11374e-17
5465.84541 1.19638e-17
5467.31820 1.17219e-17
5468.79100 1.14485e-17
5470.26379 1.16820e-17
5471.72657 1.07639e-17
5473.19936 1.10672e-17
5474.67215 1.06399e-17
5476.14494 1.06113e-17
5477.60772 1.12243e-17
5479.08051 1.12456e-17
5480.55330 1.22535e-17
5482.01608 1.24912e-17
5483.48887 1.14595e-17
5484.96166 1.06749e-17
5486.43446 1.10901e-17
5487.89723 1.14169e-17
5489.37002 1.07333e-17
5490.84282 1.08129e-17
5492.30559 1.10491e-17
5493.77838 1.19000e-17
5495.25118 1.13102e-17
5496.72397 1.03785e-17
5498.18674 1.12951e-17
5499.65954 1.21394e-17
5501.13233 1.20206e-17
5502.60512 1.10323e-17
5504.06790 1.12028e-17
5505.54069 1.12241e-17
5507.01348 1.03719e-17
5508.47626 1.10617e-17
5509.94905 1.06595e-17
5511.42184 1.08381e-17
5512.89464 1.18750e-17
5514.35741 1.15414e-17
5515.83020 1.03105e-17
5517.30300 1.05790e-17
5518.76577 1.12406e-17
5520.23856 1.13174e-17
5521.71136 1.00655e-17
5523.18415 1.04097e-17
5524.64692 1.12923e-17
5526.11972 1.09906e-17
5527.59251 1.04265e-17
5529.06530 1.08324e-17
5530.52808 1.12371e-17
5532.00087 1.11854e-17
5533.47366 1.07897e-17
5534.93644 9.70344e-18
5536.40923 1.01015e-17
5537.88202 9.84170e-18
5539.35482 1.03101e-17
5540.81759 1.08668e-17
5542.29038 1.11256e-17
5543.76318 1.03364e-17
5545.22595 1.03392e-17
5546.69874 1.04699e-17
5548.17153 1.07573e-17
5549.64433 1.03690e-17
5551.10710 9.70810e-18
5552.57989 1.02062e-17
5554.05269 1.05008e-17
5555.51546 9.94048e-18
5556.98826 9.89208e-18
5558.46105 1.06186e-17
5559.93384 1.09447e-17
5561.39662 1.06974e-17
5562.86941 1.10781e-17
5564.34220 1.17427e-17
5565.81499 1.04567e-17
5567.27777 9.74331e-18
5568.75056 1.08661e-17
5570.22335 1.05467e-17
5571.68613 1.00807e-17
5573.15892 1.09494e-17
5574.63171 9.83678e-18
5576.10451 9.32274e-18
5577.56728 1.15918e-17
5579.04007 1.19253e-17
5580.51287 1.04164e-17
5581.97564 1.00435e-17
5583.44843 9.97204e-18
5584.92123 1.00980e-17
5586.39402 9.91935e-18
5587.85679 1.00741e-17
5589.32959 1.00818e-17
5590.80238 1.00896e-17
5592.27517 1.00973e-17
5593.73795 1.01050e-17
5595.21074 1.01128e-17
5596.68353 1.01205e-17
5598.14631 1.01283e-17
5599.61910 1.01360e-17
5601.09189 1.01438e-17
5602.56469 1.01515e-17
5604.02746 1.01592e-17
5605.50025 1.01590e-17
5606.97305 9.93913e-18
5608.43582 1.00238e-17
5609.90861 9.72320e-18
5611.38141 1.04154e-17
5612.85420 1.12427e-17
5614.31697 1.08326e-17
5615.78977 1.04033e-17
5617.26256 9.83192e-18
5618.72533 9.48323e-18
5620.19813 1.00078e-17
5621.67092 9.81571e-18
5623.14371 1.05252e-17
5624.60649 1.12478e-17
5626.07928 9.94149e-18
5627.55207 9.03851e-18
5629.02487 1.00547e-17
5630.48764 1.11092e-17
5631.96043 1.10215e-17
5633.43322 1.07639e-17
5634.89600 1.06719e-17
5636.36879 1.04911e-17
5637.84159 1.07146e-17
5639.31438 1.04645e-17
5640.77715 1.03287e-17
5642.24995 1.17411e-17
5643.72274 1.17639e-17
5645.18551 1.05607e-17
5646.65830 9.90685e-18
5648.13110 1.07745e-17
5649.60389 1.07823e-17
5651.06667 9.88312e-18
5652.53946 1.08502e-17
5654.01225 1.14504e-17
5655.48504 1.05913e-17
5656.94782 1.10308e-17
5658.42061 1.11147e-17
5659.89340 1.11260e-17
5661.35618 1.05618e-17
5662.82897 1.02936e-17
5664.30176 1.03693e-17
5665.77456 9.90487e-18
5667.23733 1.01077e-17
5668.71012 1.09599e-17
5670.18292 1.10663e-17
5671.64569 1.07824e-17
5673.11848 1.15770e-17
5674.59128 1.18956e-17
5676.06407 1.07671e-17
5677.52684 1.03857e-17
5678.99964 1.11741e-17
5680.47243 1.20425e-17
5681.94522 1.14420e-17
5683.40800 1.10554e-17
5684.88079 1.11598e-17
5686.35358 1.09838e-17
5687.81636 1.12045e-17
5689.28915 1.16045e-17
5690.76194 1.12400e-17
5692.23474 1.12548e-17
5693.69751 1.10393e-17
5695.17030 1.13971e-17
5696.64310 1.15074e-17
5698.10587 1.15406e-17
5699.57866 1.19430e-17
5701.05146 1.10012e-17
5702.52425 1.03629e-17
5703.98702 1.13875e-17
5705.45982 1.20025e-17
5706.93261 1.15880e-17
5708.39538 1.16896e-17
5709.86818 1.17934e-17
5711.34097 1.23984e-17
5712.81376 1.25022e-17
5714.27654 1.15967e-17
5715.74933 1.20687e-17
5717.22212 1.11700e-17
5718.69492 1.14701e-17
5720.15769 1.32569e-17
5721.63048 1.22762e-17
5723.10328 1.09580e-17
5724.56605 1.11310e-17
5726.03884 1.14220e-17
5727.51163 1.17646e-17
5728.98443 1.12516e-17
5730.44720 1.10760e-17
5731.92000 1.13703e-17
5733.39279 1.16389e-17
5734.85556 1.24701e-17
5736.32835 1.18206e-17
5737.80115 1.11922e-17
5739.27394 1.10422e-17
5740.73672 1.16103e-17
5742.20951 1.15656e-17
5743.68230 1.18701e-17
5745.14508 1.22631e-17
5746.61787 1.16523e-17
5748.09066 1.16639e-17
5749.56345 1.11977e-17
5751.02623 1.12544e-17
5752.49902 1.20086e-17
5753.97181 1.22755e-17
5755.44461 1.18169e-17
5756.90738 1.18136e-17
5758.38017 1.10547e-17
5759.85297 1.16180e-17
5761.31574 1.15921e-17
5762.78853 1.05407e-17
5764.26133 1.11774e-17
5765.73412 1.18733e-17
5767.19689 1.15834e-17
5768.66969 1.15156e-17
5770.14248 1.18524e-17
5771.61527 1.17548e-17
5773.07805 1.16968e-17
5774.55084 1.18348e-17
5776.02363 1.12433e-17
5777.48641 1.04891e-17
5778.95920 1.11063e-17
5780.43199 1.16671e-17
5781.90479 1.10921e-17
5783.36756 1.18193e-17
5784.84035 1.16939e-17
5786.31315 1.20864e-17
5787.77592 1.21436e-17
5789.24871 1.17064e-17
5790.72151 1.24800e-17
5792.19430 1.18135e-17
5793.65707 1.09624e-17
5795.12987 1.16050e-17
5796.60266 1.19499e-17
5798.06543 1.14020e-17
5799.53823 1.11571e-17
5801.01102 1.10728e-17
5802.48381 1.13605e-17
5803.94659 1.09745e-17
5805.41938 1.11235e-17
5806.89217 1.16519e-17
5808.36497 1.15092e-17
5809.82774 1.20310e-17
5811.30053 1.20932e-17
5812.77333 1.14502e-17
5814.23610 1.11031e-17
5815.70889 1.01086e-17
5817.18168 1.07602e-17
5818.65448 1.13123e-17
5820.11725 1.14146e-17
5821.59004 1.22080e-17
5823.06284 1.14743e-17
5824.52561 1.08336e-17
5825.99841 1.08015e-17
5827.47120 1.14562e-17
5828.94399 1.22758e-17
5830.40677 1.16865e-17
5831.87956 1.10322e-17
5833.35235 1.15373e-17
5834.81513 1.22203e-17
5836.28792 1.10763e-17
5837.76071 1.01983e-17
5839.23350 1.02975e-17
5840.69628 1.09365e-17
5842.16907 1.16307e-17
5843.64186 1.08536e-17
5845.11466 1.09687e-17
5846.57743 1.14074e-17
5848.05022 1.10340e-17
5849.52302 1.10515e-17
5850.98579 1.13065e-17
5852.45858 1.10814e-17
5853.93138 1.05971e-17
5855.40417 1.06704e-17
5856.86694 1.10834e-17
5858.33974 1.15432e-17
5859.81253 1.18136e-17
5861.27530 1.14802e-17
5862.74810 1.08514e-17
5864.22089 1.11790e-17
5865.69368 1.11553e-17
5867.15646 1.12271e-17
5868.62925 1.19115e-17
5870.10204 1.16853e-17
5871.57484 1.05879e-17
5873.03761 1.03934e-17
5874.51040 1.06998e-17
5875.98320 1.12155e-17
5877.44597 1.10607e-17
5878.91876 1.10265e-17
5880.39156 1.09791e-17
5881.86435 1.10903e-17
5883.32712 1.16781e-17
5884.79992 1.09123e-17
5886.27271 1.06217e-17
5887.74550 1.08807e-17
5889.20828 1.06192e-17
5890.68107 1.08268e-17
5892.15386 1.12156e-17
5893.61664 1.12354e-17
5895.08943 1.13309e-17
5896.56222 1.10352e-17
5898.03502 1.05312e-17
5899.49779 9.00494e-18
5900.97058 8.33489e-18
5902.44337 9.78225e-18
5903.90615 9.20117e-18
5905.37894 8.84928e-18
5906.85173 8.91250e-18
5908.32453 7.96495e-18
5909.78730 8.31358e-18
5911.26010 8.39398e-18
5912.73289 7.93410e-18
5914.19566 9.33572e-18
5915.66845 9.83389e-18
5917.14125 8.97105e-18
5918.61404 9.42665e-18
5920.07682 8.43313e-18
5921.54961 8.29483e-18
5923.02240 8.92827e-18
5924.49519 8.83600e-18
5925.95797 7.63628e-18
5927.43076 7.53565e-18
5928.90355 8.58612e-18
5930.36633 8.42617e-18
5931.83912 7.58976e-18
5933.31191 7.71401e-18
5934.78471 7.14140e-18
5936.24748 7.49283e-18
5937.72027 7.41299e-18
5939.19307 7.33335e-18
5940.65584 7.44867e-18
5942.12863 7.31237e-18
5943.60143 6.92715e-18
5945.07422 6.68437e-18
5946.53699 7.16138e-18
5948.00979 7.27797e-18
5949.48258 6.38795e-18
5950.95537 6.73975e-18
5952.41815 6.92998e-18
5953.89094 7.56474e-18
5955.36373 7.65266e-18
5956.82651 6.70816e-18
5958.29930 6.69057e-18
5959.77209 6.07859e-18
5961.24489 6.01734e-18
5962.70766 5.77797e-18
5964.18045 6.27882e-18
5965.65325 6.40264e-18
5967.11602 6.23984e-18
5968.58881 6.76914e-18
5970.06161 6.36839e-18
5971.53440 5.23705e-18
5972.99717 5.83260e-18
5974.46997 5.88364e-18
5975.94276 5.24880e-18
5977.40553 4.75839e-18
5978.87833 5.48009e-18
5980.35112 5.72437e-18
5981.82391 5.65141e-18
5983.28669 4.77508e-18
5984.75948 5.49286e-18
5986.23227 5.68690e-18
5987.70507 4.77750e-18
5989.16784 4.81137e-18
5990.64063 4.70150e-18
5992.11343 5.08133e-18
5993.57620 4.82687e-18
5995.04899 4.38007e-18
5996.52178 4.10099e-18
5997.99458 4.06294e-18
5999.45735 4.42116e-18
6000.93015 4.43763e-18
6002.40294 4.92112e-18
6003.86571 5.08385e-18
6005.33850 4.75056e-18
6006.81130 4.30780e-18
6008.28409 4.53836e-18
6009.74687 4.48199e-18
6011.21966 4.31690e-18
6012.69245 4.02465e-18
6014.16524 3.82097e-18
6015.62802 3.81566e-18
6017.10081 4.09101e-18
6018.57360 4.28141e-18
6020.03638 4.24269e-18
6021.50917 4.79194e-18
6022.98196 4.51131e-18
6024.45476 3.76331e-18
6025.91753 4.13968e-18
6027.39032 4.30009e-18
6028.86312 3.69210e-18
6030.32589 3.57805e-18
6031.79868 3.82206e-18
6033.27148 3.93057e-18
6034.74427 4.51619e-18
6036.20704 4.43038e-18
6037.67984 3.88434e-18
6039.15263 4.30220e-18
6040.62542 4.43106e-18
6042.08820 3.98276e-18
6043.56099 4.06968e-18
6045.03378 4.40394e-18
6046.49656 3.96363e-18
6047.96935 3.29625e-18
6049.44214 3.77010e-18
6050.91494 3.90717e-18
6052.37771 3.65218e-18
6053.85050 3.69977e-18
6055.32330 3.71451e-18
6056.78607 4.49616e-18
6058.25886 4.42658e-18
6059.73166 3.58265e-18
6061.20445 3.83033e-18
6062.66722 4.21209e-18
6064.14002 3.82803e-18
6065.61281 4.10878e-18
6067.07558 4.38997e-18
6068.54838 4.55893e-18
6070.02117 4.65576e-18
6071.49396 3.99300e-18
6072.95674 3.77333e-18
6074.42953 3.75129e-18
6075.90232 3.90403e-18
6077.37512 4.36851e-18
6078.83789 4.89665e-18
6080.31068 4.87587e-18
6081.78348 5.10265e-18
6083.24625 5.12219e-18
6084.71904 4.87669e-18
6086.19183 4.38010e-18
6087.66463 4.52146e-18
6089.12740 4.93436e-18
6090.60019 4.92079e-18
6092.07299 4.82159e-18
6093.53576 4.82793e-18
6095.00856 4.20979e-18
6096.48135 4.43841e-18
6097.95414 4.65893e-18
6099.41692 4.81253e-18
6100.88971 5.28355e-18
6102.36250 4.91185e-18
6103.82528 5.25813e-18
6105.29807 5.70732e-18
6106.77086 5.36465e-18
6108.24365 5.50866e-18
6109.70643 5.63290e-18
6111.17922 5.86730e-18
6112.65201 6.10415e-18
6114.12481 6.06232e-18
6115.58758 6.05995e-18
6117.06037 6.24507e-18
6118.53317 5.98135e-18
6119.99594 6.46256e-18
6121.46873 6.43240e-18
6122.94153 6.24220e-18
6124.41432 6.86351e-18
6125.87709 7.04919e-18
6127.34989 6.72389e-18
6128.82268 6.75070e-18
6130.29547 7.16514e-18
6131.75825 6.60813e-18
6133.23104 5.85348e-18
6134.70383 6.63865e-18
6136.16661 7.53610e-18
6137.63940 7.26856e-18
6139.11219 7.53314e-18
6140.58499 7.57644e-18
6142.04776 7.58724e-18
6143.52055 7.04475e-18
6144.99335 6.86413e-18
6146.45612 8.03092e-18
6147.92891 8.42096e-18
6149.40171 8.24156e-18
6150.87450 7.65317e-18
6152.33727 7.45192e-18
6153.81007 7.91495e-18
6155.28286 7.95015e-18
6156.74563 8.14194e-18
6158.21843 8.43313e-18
6159.69122 8.21910e-18
6161.16401 8.81847e-18
6162.62679 9.27322e-18
6164.09958 8.97671e-18
6165.57237 8.72298e-18
6167.04517 8.39609e-18
6168.50794 8.57154e-18
6169.98073 8.61848e-18
6171.45352 9.21083e-18
6172.91630 9.40625e-18
6174.38909 9.55811e-18
6175.86188 9.49213e-18
6177.33468 9.48831e-18
6178.79745 1.01647e-17
6180.27025 9.65989e-18
6181.74304 9.92758e-18
6183.20581 1.08724e-17
6184.67861 1.05713e-17
6186.15140 9.97717e-18
6187.62419 1.01022e-17
6189.08697 1.10735e-17
6190.55976 1.05829e-17
6192.03255 1.11358e-17
6193.49532 1.09949e-17
6194.96812 1.08155e-17
6196.44091 1.11208e-17
6197.91370 1.10313e-17
6199.37648 1.08921e-17
6200.84927 1.15124e-17
6202.32206 1.16904e-17
6203.79486 1.14111e-17
6205.25763 1.19338e-17
6206.73042 1.22433e-17
6208.20322 1.20620e-17
6209.66599 1.20156e-17
6211.13878 1.20172e-17
6212.61158 1.13724e-17
6214.08437 1.17358e-17
6215.54714 1.24370e-17
6217.01994 1.28047e-17
6218.49273 1.26999e-17
6219.95550 1.29630e-17
6221.42830 1.25432e-17
6222.90109 1.29455e-17
6224.37388 1.39693e-17
6225.83666 1.36886e-17
6227.30945 1.34097e-17
6228.78224 1.32455e-17
6230.25504 1.35029e-17
6231.71781 1.37228e-17
6233.19060 1.35451e-17
6234.66340 1.35699e-17
6236.12617 1.36286e-17
6237.59896 1.37404e-17
6239.07176 1.40881e-17
6240.54455 1.43492e-17
6242.00732 1.46284e-17
6243.48012 1.45987e-17
6244.95291 1.44847e-17
6246.41568 1.44901e-17
6247.88848 1.45070e-17
6249.36127 1.48346e-17
6250.83406 1.49937e-17
6252.29684 1.52950e-17
6253.76963 1.57148e-17
6255.24242 1.53533e-17
6256.71522 1.44402e-17
6258.17799 1.51406e-17
6259.65078 1.57618e-17
6261.12358 1.52308e-17
6262.58635 1.46069e-17
6264.05914 1.47689e-17
6265.53193 1.53633e-17
6267.00473 1.55557e-17
6268.46750 1.58757e-17
6269.94030 1.58606e-17
6271.41309 1.64085e-17
6272.87586 1.67288e-17
6274.34865 1.63525e-17
6275.82145 1.63603e-17
6277.29424 1.59147e-17
6278.75702 1.58748e-17
6280.22981 1.55553e-17
6281.70260 1.55475e-17
6283.16538 1.70328e-17
6284.63817 1.73362e-17
6286.11096 1.64665e-17
6287.58375 1.68379e-17
6289.04653 1.66044e-17
6290.51932 1.63759e-17
6291.99211 1.66274e-17
6293.46491 1.64370e-17
6294.92768 1.61622e-17
6296.40047 1.62639e-17
6297.87327 1.62068e-17
6299.33604 1.68326e-17
6300.80883 1.86896e-17
6302.28163 1.85306e-17
6303.75442 1.74738e-17
6305.21719 1.74132e-17
6306.68999 1.80491e-17
6308.16278 1.88829e-17
6309.62555 1.80213e-17
6311.09835 1.71607e-17
6312.57114 1.68932e-17
6314.04393 1.68822e-17
6315.50671 1.72556e-17
6316.97950 1.82474e-17
6318.45229 1.80282e-17
6319.92509 1.70641e-17
6321.38786 1.75172e-17
6322.86065 1.84516e-17
6324.33345 1.80979e-17
6325.79622 1.83603e-17
6327.26901 1.82907e-17
6328.74181 1.74089e-17
6330.21460 1.69872e-17
6331.67737 1.68069e-17
6333.15017 1.79434e-17
6334.62296 1.85741e-17
6336.08573 1.87475e-17
6337.55853 1.91338e-17
6339.03132 1.87151e-17
6340.50411 1.78698e-17
6341.96689 1.75301e-17
6343.43968 1.82788e-17
6344.91247 1.97202e-17
6346.37525 1.95254e-17
6347.84804 1.83631e-17
6349.32083 1.74390e-17
6350.79363 1.77933e-17
6352.25640 1.88677e-17
6353.72919 1.87228e-17
6355.20198 1.91453e-17
6356.67478 1.88093e-17
6358.13755 1.84820e-17
6359.61035 1.80261e-17
6361.08314 1.77234e-17
6362.54591 1.83070e-17
6364.01870 1.86726e-17
6365.49150 1.89062e-17
6366.96429 1.88699e-17
6368.42707 1.81886e-17
6369.89986 1.88684e-17
6371.37265 1.87885e-17
6372.83543 1.81980e-17
6374.30822 1.89089e-17
6375.78101 1.98727e-17
6377.25380 2.02099e-17
6378.71658 1.98356e-17
6380.18937 1.97168e-17
6381.66216 1.99135e-17
6383.13496 1.97594e-17
6384.59773 1.90757e-17
6386.07052 1.86296e-17
6387.54332 1.90905e-17
6389.00609 1.95236e-17
6390.47888 1.99476e-17
6391.95168 1.99563e-17
6393.42447 1.96334e-17
6394.88724 1.90882e-17
6396.36004 1.83801e-17
6397.83283 1.76256e-17
6399.29560 1.84517e-17
6400.76840 1.99790e-17
6402.24119 2.02520e-17
6403.71398 1.94550e-17
6405.17676 1.88836e-17
6406.64955 1.87581e-17
6408.12234 1.90876e-17
6409.59514 1.96000e-17
6411.05791 1.87557e-17
6412.53070 1.82825e-17
6414.00350 1.97896e-17
6415.46627 2.07624e-17
6416.93906 2.04601e-17
6418.41186 1.91675e-17
6419.88465 1.88198e-17
6421.34742 1.96104e-17
6422.82022 1.94590e-17
6424.29301 1.88016e-17
6425.75578 1.88568e-17
6427.22858 1.96719e-17
6428.70137 2.00812e-17
6430.17416 1.94438e-17
6431.63694 1.93469e-17
6433.10973 1.98688e-17
6434.58252 1.98356e-17
6436.04530 1.92649e-17
6437.51809 1.89282e-17
6438.99088 1.88261e-17
6440.46367 1.91485e-17
6441.92645 2.02653e-17
6443.39924 2.05517e-17
6444.87203 1.97814e-17
6446.34483 1.95414e-17
6447.80760 2.01911e-17
6449.28040 2.03093e-17
6450.75319 2.02249e-17
6452.21596 2.01297e-17
6453.68876 2.01360e-17
6455.16155 2.02690e-17
6456.63434 2.02160e-17
6458.09712 1.94008e-17
6459.56991 1.81546e-17
6461.04270 1.86562e-17
6462.50547 1.93559e-17
6463.97827 1.97449e-17
6465.45106 1.94560e-17
6466.92385 1.91195e-17
6468.38663 1.91160e-17
6469.85942 1.93206e-17
6471.33221 1.92481e-17
6472.79499 1.90957e-17
6474.26778 1.95211e-17
6475.74057 1.97793e-17
6477.21337 1.93564e-17
6478.67614 1.95057e-17
6480.14893 1.97750e-17
6481.62173 1.90107e-17
6483.09452 1.92679e-17
6484.55729 2.05998e-17
6486.03009 1.99091e-17
6487.50288 1.98441e-17
6488.97567 2.00142e-17
6490.43845 1.90161e-17
6491.91124 1.86142e-17
6493.38403 1.87687e-17
6494.84681 1.85147e-17
6496.31960 1.84992e-17
6497.79239 1.96242e-17
6499.26519 1.99134e-17
6500.72796 1.93845e-17
6502.20075 1.88683e-17
6503.67355 1.96113e-17
6505.13632 1.95158e-17
6506.60911 1.91247e-17
6508.08191 1.89225e-17
6509.55470 1.96506e-17
6511.01747 1.95053e-17
6512.49027 1.85634e-17
6513.96306 1.83064e-17
6515.42583 1.91812e-17
6516.89863 1.90827e-17
6518.37142 1.83714e-17
6519.84421 1.87767e-17
6521.30699 1.97162e-17
6522.77978 2.04274e-17
6524.25257 1.95520e-17
6525.72537 1.93450e-17
6527.18814 1.95178e-17
6528.66093 1.87572e-17
6530.13372 1.86877e-17
6531.59650 1.91569e-17
6533.06929 1.97275e-17
6534.54209 1.95225e-17
6536.01488 1.93263e-17
6537.47765 1.95856e-17
6538.95045 1.99746e-17
6540.42324 1.95423e-17
6541.88601 1.85605e-17
6543.35880 1.84847e-17
6544.83160 1.87137e-17
6546.30439 1.87245e-17
6547.76717 1.87353e-17
6549.23996 1.87461e-17
6550.71275 1.87569e-17
6552.17552 1.87676e-17
6553.64832 1.87784e-17
6555.12111 1.87892e-17
6556.59390 1.88000e-17
6558.05668 1.88108e-17
6559.52947 1.88215e-17
6561.00226 1.88323e-17
6562.47506 1.88431e-17
6563.93783 1.88539e-17
6565.41062 1.88647e-17
6566.88342 1.88754e-17
6568.34619 1.88862e-17
6569.81898 1.88970e-17
6571.29178 1.89078e-17
6572.76457 1.89185e-17
6574.22734 1.89293e-17
6575.70014 1.89401e-17
6577.17293 1.89509e-17
6578.63570 1.89616e-17
6580.10850 1.89724e-17
6581.58129 1.89832e-17
6583.05408 1.89940e-17
6584.51686 1.90047e-17
6585.98965 1.90155e-17
6587.46244 1.90263e-17
6588.93524 1.90371e-17
6590.39801 1.90478e-17
6591.87080 1.90586e-17
6593.34360 1.90694e-17
6594.80637 1.90802e-17
6596.27916 1.90909e-17
6597.75196 1.91017e-17
6599.22475 1.91125e-17
6600.68752 1.91233e-17
6602.16032 1.91340e-17
6603.63311 1.91448e-17
6605.09588 1.91556e-17
6606.56868 1.91664e-17
6608.04147 1.89503e-17
6609.51426 1.75497e-17
6610.97704 1.75597e-17
6612.44983 1.83138e-17
6613.92262 1.81316e-17
6615.39542 1.82063e-17
6616.85819 1.91414e-17
6618.33098 1.93869e-17
6619.80378 1.79306e-17
6621.26655 1.70621e-17
6622.73934 1.78380e-17
6624.21213 1.78159e-17
6625.68493 1.75742e-17
6627.14770 1.78271e-17
6628.62050 1.73283e-17
6630.09329 1.74205e-17
6631.55606 1.83361e-17
6633.02885 1.88513e-17
6634.50165 1.85359e-17
6635.97444 1.77227e-17
6637.43722 1.80225e-17
6638.91001 1.80765e-17
6640.38280 1.70271e-17
6641.84558 1.70215e-17
6643.31837 1.72781e-17
6644.79116 1.74450e-17
6646.26395 1.75788e-17
6647.72673 1.73789e-17
6649.19952 1.77797e-17
6650.67231 1.74402e-17
6652.14511 1.67214e-17
6653.60788 1.68841e-17
6655.08067 1.71894e-17
6656.55347 1.75552e-17
6658.01624 1.77215e-17
6659.48903 1.69025e-17
6660.96183 1.61981e-17
6662.43462 1.68233e-17
6663.89739 1.68236e-17
6665.37019 1.64510e-17
6666.84298 1.64260e-17
6668.30575 1.67422e-17
6669.77855 1.67671e-17
6671.25134 1.64399e-17
6672.72413 1.65303e-17
6674.18691 1.68454e-17
6675.65970 1.63370e-17
6677.13249 1.61677e-17
6678.60529 1.62273e-17
6680.06806 1.64126e-17
6681.54085 1.65154e-17
6683.01365 1.63326e-17
6684.47642 1.66655e-17
6685.94921 1.62226e-17
6687.42201 1.67835e-17
6688.89480 1.63198e-17
6690.35757 1.54061e-17
6691.83037 1.60388e-17
6693.30316 1.61289e-17
6694.76593 1.65097e-17
6696.23873 1.68678e-17
6697.71152 1.63633e-17
6699.18431 1.57352e-17
6700.64709 1.58277e-17
6702.11988 1.60065e-17
6703.59267 1.54869e-17
6705.05545 1.61887e-17
6706.52824 1.65331e-17
6708.00103 1.59574e-17
6709.47383 1.52317e-17
6710.93660 1.49952e-17
6712.40939 1.49424e-17
6713.88218 1.53971e-17
6715.35498 1.54729e-17
6716.81775 1.56093e-17
6718.29054 1.55401e-17
6719.76334 1.52646e-17
6721.22611 1.58800e-17
6722.69891 1.60259e-17
6724.17170 1.49466e-17
6725.64449 1.51144e-17
6727.10727 1.51470e-17
6728.58006 1.46511e-17
6730.05285 1.56842e-17
6731.51562 1.55215e-17
6732.98842 1.57156e-17
6734.46121 1.61833e-17
6735.93400 1.57514e-17
6737.39678 1.57154e-17
6738.86957 1.53080e-17
6740.34236 1.45835e-17
6741.81516 1.46040e-17
6743.27793 1.46479e-17
6744.75072 1.45682e-17
6746.22352 1.41876e-17
6747.68629 1.48121e-17
6749.15908 1.60967e-17
6750.63188 1.57832e-17
6752.10467 1.52887e-17
6753.56744 1.53444e-17
6755.04024 1.47679e-17
6756.51303 1.41739e-17
6757.97580 1.43302e-17
6759.44860 1.41994e-17
6760.92139 1.44956e-17
6762.39418 1.52787e-17
6763.85696 1.50857e-17
6765.32975 1.40806e-17
6766.80254 1.41007e-17
6768.27534 1.47899e-17
6769.73811 1.48099e-17
6771.21090 1.36202e-17
6772.68370 1.32324e-17
6774.14647 1.46661e-17
6775.61926 1.48143e-17
6777.09206 1.37560e-17
6778.56485 1.37509e-17
6780.02762 1.38173e-17
6781.50042 1.38614e-17
6782.97321 1.37623e-17
6784.43598 1.42304e-17
6785.90878 1.41823e-17
6787.38157 1.36384e-17
6788.85436 1.36323e-17
6790.31714 1.36596e-17
6791.78993 1.34834e-17
6793.26272 1.43165e-17
6794.72550 1.40733e-17
6796.19829 1.32235e-17
6797.67108 1.42189e-17
6799.14387 1.46425e-17
6800.60665 1.39683e-17
6802.07944 1.38453e-17
6803.55224 1.36348e-17
6805.02503 1.38061e-17
6806.48780 1.41098e-17
6807.96060 1.33924e-17
6809.43339 1.35686e-17
6810.89616 1.45630e-17
6812.36895 1.45638e-17
6813.84175 1.36987e-17
6815.31454 1.35449e-17
6816.77732 1.42269e-17
6818.25011 1.47126e-17
6819.72290 1.42491e-17
6821.18567 1.31322e-17
6822.65847 1.30448e-17
6824.13126 1.35037e-17
6825.60405 1.27692e-17
6827.06683 1.31189e-17
6828.53962 1.43446e-17
6830.01241 1.40441e-17
6831.47519 1.33821e-17
6832.94798 1.24820e-17
6834.42077 1.21394e-17
6835.89357 1.28142e-17
6837.35634 1.29442e-17
6838.82913 1.33415e-17
6840.30193 1.33312e-17
6841.77472 1.24514e-17
6843.23749 1.24559e-17
6844.71029 1.30696e-17
6846.18308 1.24848e-17
6847.64585 1.24593e-17
6849.11865 1.30235e-17
6850.59144 1.26610e-17
6852.06423 1.27954e-17
6853.52701 1.35965e-17
6854.99980 1.36313e-17
6856.47259 1.29549e-17
6857.94539 1.29320e-17
6859.40816 1.32871e-17
6860.88095 1.32136e-17
6862.35375 1.33376e-17
6863.81652 1.31549e-17
6865.28931 1.23574e-17
6866.76211 1.24165e-17
6868.23490 1.29998e-17
6869.69767 1.28941e-17
6871.17047 1.29963e-17
6872.64326 1.31893e-17
6874.10603 1.25494e-17
6875.57883 1.20797e-17
6877.05162 1.23864e-17
6878.52441 1.28965e-17
6879.98719 1.25005e-17
6881.45998 1.21457e-17
6882.93277 1.24185e-17
6884.39555 1.25827e-17
6885.86834 1.27058e-17
6887.34113 1.21678e-17
6888.81393 1.21133e-17
6890.27670 1.27192e-17
6891.74949 1.27011e-17
6893.22228 1.18617e-17
6894.69508 1.19681e-17
6896.15785 1.21854e-17
6897.63065 1.23645e-17
6899.10344 1.29386e-17
6900.56621 1.25607e-17
6902.03900 1.21015e-17
6903.51180 1.28661e-17
6904.98459 1.36472e-17
6906.44737 1.29256e-17
6907.92016 1.14574e-17
6909.39295 1.18944e-17
6910.85573 1.20505e-17
6912.32852 1.15575e-17
6913.80131 1.14710e-17
6915.27410 1.17244e-17
6916.73688 1.16713e-17
6918.20967 1.14298e-17
6919.68246 1.14589e-17
6921.14524 1.17058e-17
6922.61803 1.16477e-17
6924.09082 1.11082e-17
6925.56362 1.08264e-17
6927.02639 1.11636e-17
6928.49918 1.12100e-17
6929.97198 1.10163e-17
6931.44477 1.13338e-17
6932.90754 1.21433e-17
6934.38034 1.22091e-17
6935.85313 1.20451e-17
6937.31590 1.13476e-17
6938.78870 1.08262e-17
6940.26149 1.09460e-17
6941.73428 1.13957e-17
6943.19706 1.18783e-17
6944.66985 1.16203e-17
6946.14264 1.11199e-17
6947.60542 1.07075e-17
6949.07821 1.02301e-17
6950.55100 1.13981e-17
6952.02380 1.20776e-17
6953.48657 1.12547e-17
6954.95936 1.07126e-17
6956.43216 1.08255e-17
6957.90495 1.11542e-17
6959.36772 1.15321e-17
6960.84052 1.13749e-17
6962.31331 1.12306e-17
6963.77608 1.16406e-17
6965.24888 1.17696e-17
6966.72167 1.16409e-17
6968.19446 1.15565e-17
6969.65724 1.16299e-17
6971.13003 1.13113e-17
6972.60282 1.07782e-17
6974.06560 1.08251e-17
6975.53839 1.12610e-17
6977.01118 1.13352e-17
6978.48398 1.14101e-17
6979.94675 1.14383e-17
6981.41954 1.13344e-17
6982.89233 1.09938e-17
6984.36513 1.06398e-17
6985.82790 1.04719e-17
6987.30069 1.00861e-17
6988.77349 1.02482e-17
6990.23626 1.02930e-17
6991.70906 1.06677e-17
6993.18185 1.08334e-17
6994.65464 1.03760e-17
6996.11742 1.06210e-17
6997.59021 1.09202e-17
6999.06300 1.10630e-17
7000.52578 1.15308e-17
7001.99857 1.15796e-17
7003.47136 1.09672e-17
7004.94415 1.06023e-17
7006.40693 1.04960e-17
7007.87972 1.03057e-17
7009.35251 1.05927e-17
7010.81529 1.03774e-17
7012.28808 1.05470e-17
7013.76087 1.12573e-17
7015.23367 1.05637e-17
7016.69644 1.03154e-17
7018.16923 1.12584e-17
7019.64203 1.15254e-17
7021.11482 1.11768e-17
7022.57759 1.10208e-17
7024.05039 1.08568e-17
7025.52318 1.03038e-17
7026.98595 1.02765e-17
7028.45875 1.09315e-17
7029.93154 1.09727e-17
7031.40433 1.09945e-17
7032.86711 1.08756e-17
7034.33990 1.12253e-17
7035.81269 1.07932e-17
7037.27547 1.07689e-17
7038.74826 1.12809e-17
7040.22105 1.09263e-17
7041.69385 1.05861e-17
7043.15662 1.05601e-17
7044.62941 1.06798e-17
7046.10221 1.05529e-17
7047.57500 9.89358e-18
7049.03777 9.96871e-18
7050.51057 1.04051e-17
7051.98336 1.06505e-17
7053.44613 1.05840e-17
7054.91893 1.10034e-17
7056.39172 1.07034e-17
7057.86451 9.51792e-18
7059.32729 9.33338e-18
7060.80008 1.02636e-17
7062.27287 1.08191e-17
7063.73565 1.02566e-17
7065.20844 1.00502e-17
7066.68123 1.03801e-17
7068.15402 1.04079e-17
7069.61680 1.03518e-17
7071.08959 1.07676e-17
7072.56239 1.06206e-17
7074.02516 1.04178e-17
7075.49795 9.89643e-18
7076.97075 9.62150e-18
7078.44354 1.03899e-17
7079.90631 1.01248e-17
7081.37910 9.94473e-18
7082.85190 1.02167e-17
7084.32469 1.02083e-17
7085.78747 1.06426e-17
7087.26026 1.02318e-17
7088.73305 9.78545e-18
7090.19582 1.01696e-17
7091.66862 1.03391e-17
7093.14141 1.04412e-17
7094.61420 1.00978e-17
7096.07698 9.89877e-18
7097.54977 1.00736e-17
7099.02256 1.00253e-17
7100.49536 1.01356e-17
7101.95813 1.06666e-17
7103.43092 1.09262e-17
7104.90372 1.06977e-17
7106.36649 1.04626e-17
7107.83928 1.00143e-17
7109.31208 9.87417e-18
7110.78487 1.02265e-17
7112.24764 9.93631e-18
7113.72044 9.44347e-18
7115.19323 9.64398e-18
7116.65600 9.98264e-18
7118.12880 9.76398e-18
7119.60159 9.74506e-18
7121.07438 1.00741e-17
7122.53716 1.03410e-17
7124.00995 1.05765e-17
7125.48274 1.06178e-17
7126.95554 1.07695e-17
7128.41831 1.10431e-17
7129.89110 1.08030e-17
7131.36390 1.01232e-17
7132.82667 1.00212e-17
7134.29946 1.00481e-17
7135.77226 1.01063e-17
7137.24505 1.02683e-17
7138.70782 9.59164e-18
7140.18062 9.28617e-18
7141.65341 9.19025e-18
7143.11618 8.91358e-18
7144.58898 9.59443e-18
7146.06177 1.01918e-17
7147.53456 1.01174e-17
7148.99734 1.00603e-17
7150.47013 9.72758e-18
7151.94292 9.89081e-18
7153.40570 1.01178e-17
7154.87849 9.47627e-18
7156.35128 9.56630e-18
7157.82408 1.02521e-17
7159.28685 1.08282e-17
7160.75964 1.06806e-17
7162.23243 9.74933e-18
7163.70523 9.89114e-18
7165.16800 1.00916e-17
7166.64080 9.38889e-18
7168.11359 9.57895e-18
7169.57636 9.99807e-18
7171.04915 9.93211e-18
7172.52195 9.64980e-18
7173.99474 9.09665e-18
7175.45752 8.78366e-18
7176.93031 8.85056e-18
7178.40310 9.10629e-18
7179.86588 9.14140e-18
7181.33867 9.07122e-18
7182.81146 9.02476e-18
7184.28425 9.26519e-18
7185.74703 9.59418e-18
7187.21982 9.56747e-18
7188.69261 9.39806e-18
7190.15539 9.58112e-18
7191.62818 1.04010e-17
7193.10097 1.02871e-17
7194.57377 9.25863e-18
7196.03654 9.19437e-18
7197.50933 9.60276e-18
7198.98213 9.65300e-18
7200.45492 9.35620e-18
7201.91769 9.33072e-18
7203.39049 9.16966e-18
7204.86328 8.70506e-18
7206.32605 9.20344e-18
7207.79885 9.93892e-18
7209.27164 1.03488e-17
7210.74443 1.01880e-17
7212.20721 9.27636e-18
7213.68000 9.02106e-18
7215.15279 8.94350e-18
7216.62559 9.56343e-18
7218.08836 1.08626e-17
7219.56115 1.03920e-17
7221.03395 9.05257e-18
7222.49672 8.81551e-18
7223.96951 9.08728e-18
7225.44231 8.74479e-18
7226.91510 8.82585e-18
7228.37787 9.14560e-18
7229.85067 9.15031e-18
7231.32346 9.05970e-18
7232.78623 8.66480e-18
7234.25903 8.60506e-18
7235.73182 9.22440e-18
7237.20461 9.59636e-18
7238.66739 1.00114e-17
7240.14018 1.00913e-17
7241.61297 9.95915e-18
7243.07575 9.22906e-18
7244.54854 8.24102e-18
7246.02133 8.81122e-18
7247.49413 8.94026e-18
7248.95690 8.27302e-18
7250.42969 8.52333e-18
7251.90248 8.68889e-18
7253.37528 8.26689e-18
7254.83805 8.69724e-18
7256.31084 9.39661e-18
7257.78364 9.37502e-18
7259.24641 9.09724e-18
7260.71921 8.84756e-18
7262.19200 8.52470e-18
7263.66479 8.70934e-18
7265.12757 9.20392e-18
7266.60036 9.42450e-18
7268.07315 9.49955e-18
7269.53593 8.90356e-18
7271.00872 8.71178e-18
7272.48151 9.59917e-18
7273.95430 9.84267e-18
7275.41708 9.54894e-18
7276.88987 9.51018e-18
7278.36266 9.15231e-18
7279.82544 9.39511e-18
7281.29823 1.00206e-17
7282.77102 9.68020e-18
7284.24382 8.87251e-18
7285.70659 8.41811e-18
7287.17938 8.38967e-18
7288.65218 8.17962e-18
7290.12497 8.61635e-18
7291.58774 8.92746e-18
7293.06054 8.58734e-18
7294.53333 8.55483e-18
7295.99610 8.12918e-18
7297.46890 8.16057e-18
7298.94169 9.02039e-18
7300.41448 9.05282e-18
7301.87726 8.49243e-18
7303.35005 8.42547e-18
7304.82284 8.82206e-18
7306.28562 9.20129e-18
7307.75841 9.50365e-18
7309.23120 9.36979e-18
7310.70400 9.30804e-18
7312.16677 9.35448e-18
7313.63956 8.64416e-18
7315.11236 8.68635e-18
7316.58515 9.20553e-18
7318.04792 8.73172e-18
7319.52072 8.62032e-18
7320.99351 8.80513e-18
7322.45628 8.94001e-18
7323.92908 9.18646e-18
7325.40187 8.76074e-18
7326.87466 7.83081e-18
7328.33744 8.15167e-18
7329.81023 9.63118e-18
7331.28302 9.66995e-18
7332.74580 9.04324e-18
7334.21859 8.48084e-18
7335.69138 8.62949e-18
7337.16417 9.27801e-18
7338.62695 8.58494e-18
7340.09974 7.93078e-18
7341.57253 8.06105e-18
7343.04533 8.08168e-18
7344.50810 8.13936e-18
7345.98090 8.18898e-18
7347.45369 8.38471e-18
7348.91646 8.40507e-18
7350.38926 8.40553e-18
7351.86205 8.78264e-18
7353.33484 8.95422e-18
7354.79762 8.65140e-18
7356.27041 8.33067e-18
7357.74320 7.98570e-18
7359.20597 7.90616e-18
7360.67877 8.49161e-18
7362.15156 8.94726e-18
7363.62435 8.98678e-18
7365.08713 8.18181e-18
7366.55992 7.99584e-18
7368.03271 8.13557e-18
7369.49549 7.54203e-18
7370.96828 7.47261e-18
7372.44107 7.96569e-18
7373.91387 8.02681e-18
7375.37664 8.40808e-18
7376.84943 9.09846e-18
7378.32223 9.26621e-18
7379.79502 9.01648e-18
7381.25779 8.57559e-18
7382.73059 8.49954e-18
7384.20338 8.13756e-18
7385.66615 8.00932e-18
7387.13895 8.00686e-18
7388.61174 8.11769e-18
7390.08453 8.49441e-18
7391.54731 7.72363e-18
7393.02010 7.71967e-18
7394.49289 8.45942e-18
7395.95567 8.29628e-18
7397.42846 8.19508e-18
7398.90125 8.38809e-18
7400.37405 8.37060e-18
7401.83682 8.55383e-18
7403.30961 8.79437e-18
7404.78241 8.41286e-18
7406.25520 8.18201e-18
7407.71797 8.50685e-18
7409.19077 8.60862e-18
7410.66356 8.21846e-18
7412.12633 8.20498e-18
7413.59913 8.51143e-18
7415.07192 8.49452e-18
7416.54471 8.47635e-18
7418.00034 8.47635e-18
7420.00334 8.48896e-18
7421.99632 8.43982e-18
7423.99932 8.34761e-18
7426.00232 8.31494e-18
7427.99531 8.40330e-18
7429.99831 8.36595e-18
7432.00131 8.56485e-18
7434.00431 8.55547e-18
7435.99729 8.72368e-18
7438.00029 8.54416e-18
7440.00329 8.43750e-18
7441.99628 8.38628e-18
7443.99928 8.32093e-18
7446.00228 8.47142e-18
7447.99526 8.51820e-18
7449.99826 8.43271e-18
7452.00126 8.48429e-18
7454.00426 8.43651e-18
7455.99725 8.30584e-18
7458.00025 8.48171e-18
7460.00325 8.60156e-18
7461.99623 8.51126e-18
7463.99923 8.45883e-18
7466.00223 8.50825e-18
7467.99522 8.63470e-18
7469.99822 8.48513e-18
7472.00122 8.49596e-18
7474.00422 8.37072e-18
7475.99720 8.36601e-18
7478.00020 8.45621e-18
7480.00320 8.39138e-18
7481.99618 8.56170e-18
7483.99919 8.34318e-18
7486.00219 8.54030e-18
7487.99517 8.38655e-18
7489.99817 8.45047e-18
7492.00117 8.43648e-18
7494.00417 8.49044e-18
7495.99716 8.50146e-18
7498.00016 8.60354e-18
7500.00316 8.44643e-18
7501.99614 8.44740e-18
7503.99914 8.39314e-18
7506.00214 8.54364e-18
7507.99513 8.52985e-18
7509.99813 8.41761e-18
7512.00113 8.46259e-18
7514.00413 8.46749e-18
7515.99711 8.40421e-18
7518.00011 8.35593e-18
7520.00311 8.61493e-18
7521.99610 8.54010e-18
7523.99910 8.54635e-18
7526.00209 8.61356e-18
7527.99508 8.55147e-18
7529.99808 8.24987e-18
7532.00108 8.44817e-18
7534.00408 8.36150e-18
7535.99707 8.35095e-18
7538.00007 8.36859e-18
7540.00307 8.45596e-18
7541.99605 8.42102e-18
7543.99905 8.24733e-18
7546.00205 8.45200e-18
7547.99503 8.36334e-18
7549.99803 8.26802e-18
7552.00104 8.28829e-18
7554.00403 8.40190e-18
7555.99702 8.37648e-18
7558.00002 8.25032e-18
7560.00302 8.27680e-18
7561.99601 8.29902e-18
7563.99901 8.19384e-18
7566.00201 8.26772e-18
7568.00501 8.42106e-18
7569.99799 8.45954e-18
7572.00099 8.21355e-18
7574.00399 8.19964e-18
7575.99698 8.33250e-18
7577.99997 8.11822e-18
7580.00298 8.24813e-18
7581.99596 8.46087e-18
7583.99896 8.31851e-18
7586.00196 8.32158e-18
7587.99495 8.42647e-18
7589.99795 8.49082e-18
7592.00095 8.32953e-18
7594.00395 8.31616e-18
7595.99693 8.57817e-18
7597.99993 8.65926e-18
7600.00293 8.51306e-18
7601.99592 8.44374e-18
7603.99892 8.48239e-18
7606.00191 8.17375e-18
7607.99490 8.06747e-18
7609.99790 8.20461e-18
7612.00090 8.17901e-18
7614.00390 7.86636e-18
7615.99689 8.26819e-18
7617.99989 8.27004e-18
7620.00289 8.15967e-18
7621.99587 8.30559e-18
7623.99887 8.40993e-18
7626.00187 8.21008e-18
7628.00487 8.28384e-18
7629.99786 8.27156e-18
7632.00086 8.41437e-18
7634.00385 8.17557e-18
7635.99684 8.16475e-18
7637.99984 8.03058e-18
7640.00284 8.30789e-18
7641.99583 8.12957e-18
7643.99883 8.30479e-18
7646.00183 8.16897e-18
7647.99481 7.90909e-18
7649.99781 8.31336e-18
7652.00081 8.05365e-18
7654.00381 8.17691e-18
7655.99680 8.30492e-18
7657.99980 7.91252e-18
7660.00280 8.21116e-18
7661.99578 8.29338e-18
7663.99878 7.90163e-18
7666.00178 8.12665e-18
7668.00478 8.18238e-18
7669.99777 8.06534e-18
7672.00077 8.29338e-18
7674.00377 7.99039e-18
7675.99675 8.02671e-18
7677.99975 8.22144e-18
7680.00275 7.97103e-18
7681.99574 8.15910e-18
7683.99874 8.19566e-18
7686.00173 8.05421e-18
7688.00474 8.11852e-18
7689.99772 8.11397e-18
7692.00072 8.05430e-18
7694.00372 8.09466e-18
7695.99671 8.08605e-18
7697.99971 8.12024e-18
7700.00271 7.86288e-18
7701.99569 8.02046e-18
7703.99869 7.99011e-18
7706.00169 7.93871e-18
7708.00469 8.13257e-18
7709.99768 8.14692e-18
7712.00068 8.21590e-18
7714.00367 7.99102e-18
7715.99666 8.00948e-18
7717.99966 7.91334e-18
7720.00266 8.08192e-18
7721.99565 8.13247e-18
7723.99865 8.06687e-18
7726.00165 8.16562e-18
7728.00465 7.89869e-18
7729.99763 7.91202e-18
7732.00063 8.02137e-18
7734.00363 7.98556e-18
7735.99662 7.93522e-18
7737.99962 8.03528e-18
7740.00262 8.13664e-18
7741.99560 7.89829e-18
7743.99860 7.90059e-18
7746.00160 7.99278e-18
7748.00460 8.09052e-18
7749.99759 7.90356e-18
7752.00059 8.09852e-18
7754.00359 7.98290e-18
7755.99657 7.84815e-18
7757.99957 7.94051e-18
7760.00257 7.96037e-18
7761.99556 8.01471e-18
7763.99856 7.97018e-18
7766.00156 7.98498e-18
7768.00456 7.75370e-18
7769.99754 7.70421e-18
7772.00054 8.02840e-18
7774.00354 7.95181e-18
7775.99653 7.74732e-18
7777.99953 7.97377e-18
7780.00253 8.03867e-18
7781.99551 8.03335e-18
7783.99851 7.66238e-18
7786.00151 7.87041e-18
7788.00451 7.86059e-18
7789.99750 7.88270e-18
7792.00050 7.92529e-18
7794.00349 7.81419e-18
7795.99648 7.82922e-18
7797.99948 7.92099e-18
7800.00248 7.77697e-18
7801.99547 7.77111e-18
7803.99847 7.70019e-18
7806.00147 7.72181e-18
7808.00447 7.75560e-18
7809.99745 7.61669e-18
7812.00045 7.96522e-18
7814.00345 7.77274e-18
7815.99644 7.80171e-18
7817.99944 7.72675e-18
7820.00244 7.74026e-18
7821.99542 7.76830e-18
7823.99842 7.64210e-18
7826.00142 7.68097e-18
7828.00442 7.75061e-18
7829.99741 7.68337e-18
7832.00041 7.67333e-18
7834.00341 7.64915e-18
7835.99639 7.71908e-18
7837.99939 7.64452e-18
7840.00239 7.62854e-18
7841.99538 7.55741e-18
7843.99838 7.62943e-18
7846.00138 7.66975e-18
7848.00438 7.55885e-18
7849.99736 7.73211e-18
7852.00036 7.67601e-18
7854.00336 7.51311e-18
7855.99634 7.60372e-18
7857.99935 7.87182e-18
7860.00234 7.71068e-18
7861.99533 7.76132e-18
7863.99833 7.71258e-18
7866.00133 7.81942e-18
7868.00433 7.60577e-18
7869.99732 7.58877e-18
7872.00032 7.59789e-18
7874.00332 7.60004e-18
7875.99630 7.59210e-18
7877.99930 7.63903e-18
7880.00230 7.64952e-18
7881.99528 7.85367e-18
7883.99828 7.72398e-18
7886.00129 7.70771e-18
7888.00428 7.80271e-18
7889.99727 7.59931e-18
7892.00027 7.49955e-18
7894.00327 7.66320e-18
7895.99626 7.58062e-18
7897.99926 7.67733e-18
7900.00226 7.60451e-18
7901.99524 7.61417e-18
7903.99824 7.62021e-18
7906.00124 7.63795e-18
7908.00424 7.77661e-18
7909.99723 7.47577e-18
7912.00022 7.63241e-18
7914.00323 7.59492e-18
7915.99621 7.62653e-18
7917.99921 7.53293e-18
7920.00221 7.66584e-18
7921.99520 7.53802e-18
7923.99820 7.72944e-18
7926.00120 7.56356e-18
7928.00420 7.55241e-18
7929.99718 7.62520e-18
7932.00018 7.56046e-18
7934.00318 7.60720e-18
7935.99617 7.49256e-18
7937.99917 7.66106e-18
7940.00216 7.53605e-18
7941.99515 7.49614e-18
7943.99815 7.52478e-18
7946.00115 7.49918e-18
7948.00415 7.53545e-18
7949.99714 7.55036e-18
7952.00014 7.66626e-18
7954.00314 7.43036e-18
7955.99612 7.48186e-18
7957.99912 7.56456e-18
7960.00212 7.39725e-18
7961.99510 7.54165e-18
7963.99811 7.60186e-18
7966.00111 7.49266e-18
7968.00410 7.36003e-18
7969.99709 7.26361e-18
7972.00009 7.53367e-18
7974.00309 7.49558e-18
7975.99608 7.40933e-18
7977.99908 7.42895e-18
7980.00208 7.55881e-18
7981.99506 7.55060e-18
7983.99806 7.48712e-18
7986.00106 7.64270e-18
7988.00406 7.59558e-18
7989.99705 7.68407e-18
7992.00004 7.76642e-18
7994.00305 7.28989e-18
7995.99603 7.34939e-18
7997.99903 7.24863e-18
8000.00203 7.25649e-18
8002.00503 7.37497e-18
8003.99802 7.19723e-18
8006.00102 7.18384e-18
8008.00402 7.30247e-18
8009.99700 7.26363e-18
8012.00000 7.18482e-18
8014.00300 7.12250e-18
8015.99599 7.14037e-18
8017.99899 7.26361e-18
8020.00198 7.23323e-18
8021.99497 7.13003e-18
8023.99797 7.21134e-18
8026.00097 7.27485e-18
8028.00397 7.33525e-18
8029.99696 7.23445e-18
8031.99996 7.13583e-18
8034.00296 7.12842e-18
8035.99594 7.24791e-18
8037.99894 7.11204e-18
8040.00194 7.07813e-18
8042.00494 7.03967e-18
8043.99793 6.92066e-18
8046.00093 6.89824e-18
8048.00392 6.93287e-18
8049.99691 6.94413e-18
8051.99991 6.95955e-18
8054.00291 6.94981e-18
8055.99590 6.87559e-18
8057.99890 6.85575e-18
8060.00190 6.90097e-18
8061.99488 6.95839e-18
8063.99788 6.85492e-18
8066.00088 6.92773e-18
8068.00388 6.97426e-18
8069.99687 6.91409e-18
8071.99987 6.82250e-18
8074.00287 6.81316e-18
8075.99585 6.71671e-18
8077.99885 6.83610e-18
8080.00185 6.71445e-18
8082.00485 6.91067e-18
8083.99784 6.79311e-18
8086.00084 6.74002e-18
8088.00384 6.74049e-18
8089.99682 6.55946e-18
8091.99982 6.80709e-18
8094.00282 6.69062e-18
8095.99581 6.58994e-18
8097.99881 6.62081e-18
8100.00181 6.75401e-18
8102.00481 6.64327e-18
8103.99779 6.53854e-18
8106.00079 6.75897e-18
8108.00379 6.67865e-18
8109.99678 6.61925e-18
8111.99978 6.58842e-18
8114.00278 6.79237e-18
8115.99576 6.59039e-18
8117.99876 6.63282e-18
8120.00176 6.46746e-18
8121.99474 6.51877e-18
8123.99775 6.59070e-18
8126.00075 6.55468e-18
8128.00374 6.54783e-18
8129.99673 6.50403e-18
8131.99973 6.53796e-18
8134.00273 6.82863e-18
8135.99572 6.67385e-18
8137.99872 6.55882e-18
8140.00172 6.76046e-18
8142.00472 6.56312e-18
8143.99770 6.60106e-18
8146.00070 6.53934e-18
8148.00370 6.54044e-18
8149.99669 6.59653e-18
8151.99969 6.43499e-18
8154.00269 6.36891e-18
8155.99567 6.50510e-18
8157.99867 6.70921e-18
8160.00167 6.40199e-18
8162.00467 6.41664e-18
8163.99766 6.55830e-18
8166.00066 6.47607e-18
8168.00366 6.53288e-18
8169.99664 6.47340e-18
8171.99964 6.61183e-18
8174.00264 6.69404e-18
8175.99563 6.43532e-18
8177.99863 6.46247e-18
8180.00163 6.48867e-18
8182.00463 6.40850e-18
8183.99761 6.42115e-18
8186.00061 6.43837e-18
8188.00361 6.46179e-18
8189.99659 6.54868e-18
8191.99960 6.63713e-18
8194.00259 6.50038e-18
8195.99558 6.44660e-18
8197.99858 6.51255e-18
8200.00158 6.53979e-18
8202.00458 6.40932e-18
8203.99756 6.38269e-18
8206.00057 6.46638e-18
8208.00356 6.41044e-18
8209.99655 6.38779e-18
8211.99955 6.45944e-18
8214.00255 6.54616e-18
8215.99554 6.39463e-18
8217.99854 6.47795e-18
8220.00154 6.40152e-18
8222.00454 6.47577e-18
8223.99752 6.49341e-18
8226.00052 6.40763e-18
8228.00352 6.62035e-18
8229.99651 6.60633e-18
8231.99950 6.43715e-18
8234.00251 6.47233e-18
8235.99549 6.38980e-18
8237.99849 6.40895e-18
8240.00149 6.51653e-18
8242.00449 6.41588e-18
8243.99748 6.40653e-18
8246.00048 6.41448e-18
8248.00347 6.46085e-18
8249.99646 6.52258e-18
8251.99946 6.55707e-18
8254.00246 6.55551e-18
8255.99545 6.52732e-18
8257.99844 6.48531e-18
8260.00144 6.52393e-18
8261.99443 6.48633e-18
8263.99743 6.51269e-18
8266.00043 6.54838e-18
8268.00343 6.56030e-18
8269.99642 6.55831e-18
8271.99942 6.71617e-18
8274.00242 6.47768e-18
8275.99540 6.65285e-18
8277.99840 6.64630e-18
8280.00140 6.56136e-18
8282.00440 6.68974e-18
8283.99739 6.79894e-18
8286.00039 6.53322e-18
8288.00338 6.44422e-18
8289.99637 6.59786e-18
8291.99937 6.57560e-18
8294.00237 6.67093e-18
8295.99536 6.69169e-18
8297.99835 6.58668e-18
8300.00136 6.78537e-18
8302.00436 6.78880e-18
8303.99734 6.58343e-18
8306.00034 6.74957e-18
8308.00334 6.75722e-18
8309.99633 6.67192e-18
8311.99932 6.73654e-18
8314.00232 6.76131e-18
8315.99531 6.75908e-18
8317.99831 6.70850e-18
8320.00131 6.79692e-18
8322.00431 6.93301e-18
8323.99730 6.75757e-18
8326.00030 6.79681e-18
8328.00330 6.83615e-18
8329.99628 6.91391e-18
8331.99928 6.74807e-18
8334.00228 6.74095e-18
8335.99527 6.83521e-18
8337.99827 6.77485e-18
8340.00127 6.90941e-18
8342.00427 6.90980e-18
8343.99725 7.01971e-18
8346.00025 7.05463e-18
8348.00325 6.76854e-18
8349.99624 7.00357e-18
8351.99924 6.90076e-18
8354.00223 7.03301e-18
8355.99522 6.97118e-18
8357.99822 7.00256e-18
8360.00122 6.91994e-18
8362.00422 6.88269e-18
8363.99720 6.89308e-18
8366.00021 7.06913e-18
8368.00320 7.05606e-18
8369.99619 7.04536e-18
8371.99919 6.91511e-18
8374.00219 7.00239e-18
8376.00519 6.98484e-18
8377.99818 6.86832e-18
8380.00118 7.09299e-18
8382.00418 7.03878e-18
8383.99716 7.05733e-18
8386.00016 7.04016e-18
8388.00316 7.04425e-18
8389.99615 6.99691e-18
8391.99915 6.97805e-18
8394.00215 6.98824e-18
8395.99513 7.18593e-18
8397.99813 7.08633e-18
8400.00113 7.06959e-18
8402.00413 7.23423e-18
8403.99712 7.06981e-18
8406.00012 7.10987e-18
8408.00311 6.96882e-18
8409.99610 7.00468e-18
8411.99910 7.11202e-18
8414.00210 7.08935e-18
8415.99509 7.20480e-18
8417.99808 7.15080e-18
8420.00108 7.04597e-18
8422.00409 7.16422e-18
8423.99707 7.20712e-18
8426.00007 7.31092e-18
8428.00307 7.00178e-18
8429.99606 7.03405e-18
8431.99906 7.10373e-18
8434.00206 7.02737e-18
8436.00506 7.24833e-18
8437.99804 7.13690e-18
8440.00104 7.17747e-18
8442.00404 7.12780e-18
8443.99703 7.20258e-18
8446.00003 7.08517e-18
8448.00302 7.19343e-18
8449.99601 7.13516e-18
8451.99901 7.21690e-18
8454.00201 7.20925e-18
8455.99500 7.14901e-18
8457.99799 7.04742e-18
8460.00100 7.16305e-18
8462.00400 7.32833e-18
8463.99698 7.07484e-18
8465.99998 7.08517e-18
8468.00298 7.27493e-18
8469.99597 7.05116e-18
8471.99897 7.04068e-18
8474.00196 7.07579e-18
8475.99495 7.06748e-18
8477.99795 7.12798e-18
8480.00095 7.15270e-18
8482.00395 7.19789e-18
8483.99694 7.24559e-18
8485.99994 7.04333e-18
8488.00294 7.07490e-18
8489.99592 7.16843e-18
8491.99892 7.15055e-18
8494.00192 7.19100e-18
8496.00492 7.26651e-18
8497.99791 7.10718e-18
8500.00091 7.25162e-18
8502.00391 7.17245e-18
8503.99689 7.06176e-18
8505.99989 7.06407e-18
8508.00289 7.11862e-18
8509.99588 7.07367e-18
8511.99888 7.23981e-18
8514.00187 7.18898e-18
8516.00488 7.20211e-18
8517.99786 7.10746e-18
8520.00086 7.15080e-18
8522.00386 7.09211e-18
8523.99684 7.12850e-18
8525.99985 7.25576e-18
8528.00285 7.12242e-18
8529.99583 7.14114e-18
8531.99883 7.16744e-18
8534.00183 7.10167e-18
8535.99482 7.14906e-18
8537.99781 7.27649e-18
8540.00081 7.16228e-18
8542.00382 6.97194e-18
8543.99680 7.16922e-18
8545.99980 7.03563e-18
8548.00280 7.23933e-18
8549.99579 7.10439e-18
8551.99879 7.08548e-18
8554.00179 7.07772e-18
8556.00479 7.01569e-18
8557.99777 7.03846e-18
8560.00077 7.07720e-18
8562.00377 7.21386e-18
8563.99676 7.08160e-18
8565.99976 7.11117e-18
8568.00276 7.05011e-18
8569.99574 7.02422e-18
8571.99874 6.98729e-18
8574.00174 6.99698e-18
8576.00474 7.16231e-18
8577.99772 6.95547e-18
8580.00072 6.99387e-18
8582.00373 7.03496e-18
8583.99671 6.90569e-18
8585.99971 7.05518e-18
8588.00271 6.98292e-18
8589.99569 7.03582e-18
8591.99870 7.07762e-18
8594.00169 6.86235e-18
8595.99468 7.01496e-18
8597.99768 7.02177e-18
8600.00068 6.92295e-18
8602.00368 6.93482e-18
8603.99667 6.88146e-18
8605.99967 6.79162e-18
8608.00267 6.88645e-18
8609.99565 6.95733e-18
8611.99865 6.97528e-18
8614.00165 6.96420e-18
8616.00465 6.89428e-18
8617.99764 6.96004e-18
8620.00064 6.91041e-18
8622.00364 6.84357e-18
8623.99662 6.87076e-18
8625.99962 6.91426e-18
8628.00262 6.80135e-18
8629.99561 6.92677e-18
8631.99861 6.82211e-18
8634.00160 6.78820e-18
8636.00461 6.86691e-18
8637.99759 6.93087e-18
8640.00059 6.79303e-18
8642.00359 6.89529e-18
8643.99657 6.89754e-18
8645.99957 6.91210e-18
8648.00258 6.71925e-18
8649.99556 6.68188e-18
8651.99856 6.90844e-18
8654.00156 6.82627e-18
8656.00456 6.76487e-18
8657.99755 6.94121e-18
8660.00055 6.74776e-18
8662.00355 6.82269e-18
8663.99653 6.70980e-18
8665.99953 6.88868e-18
8668.00253 6.72102e-18
8669.99552 6.66073e-18
8671.99852 6.83488e-18
8674.00151 6.82639e-18
8676.00452 6.66361e-18
8677.99750 6.67399e-18
8680.00050 6.76167e-18
8682.00350 6.76984e-18
8683.99648 6.75624e-18
8685.99949 6.80047e-18
8688.00249 6.66017e-18
8689.99547 6.70343e-18
8691.99847 6.63879e-18
8694.00147 6.73691e-18
8696.00447 6.82823e-18
8697.99746 6.80318e-18
8700.00045 6.66240e-18
8702.00346 6.58588e-18
8703.99644 6.69096e-18
8705.99944 6.66562e-18
8708.00244 6.48964e-18
8709.99543 6.61224e-18
8711.99843 6.63976e-18
8714.00143 6.58520e-18
8716.00443 6.71671e-18
8717.99741 6.74889e-18
8720.00041 6.62275e-18
8722.00341 6.66688e-18
8723.99640 6.73396e-18
8725.99940 6.79989e-18
8728.00240 6.55515e-18
8729.99538 6.53883e-18
8731.99838 6.49511e-18
8734.00138 6.50246e-18
8736.00438 6.57003e-18
8737.99737 6.44531e-18
8740.00036 6.56302e-18
8742.00337 6.59945e-18
8743.99635 6.53408e-18
8745.99935 6.54278e-18
8748.00235 6.48939e-18
8749.99533 6.61085e-18
8751.99834 6.61194e-18
8754.00133 6.52619e-18
8756.00433 6.39322e-18
8757.99732 6.34780e-18
8760.00032 6.49035e-18
8762.00332 6.46999e-18
8763.99631 6.46253e-18
8765.99931 6.36991e-18
8768.00231 6.45583e-18
8769.99529 6.39645e-18
8771.99829 6.50729e-18
8774.00129 6.44759e-18
8776.00429 6.30966e-18
8777.99728 6.30922e-18
8780.00028 6.50650e-18
8782.00328 6.29470e-18
8783.99626 6.24842e-18
8785.99926 6.38046e-18
8788.00226 6.26704e-18
8789.99525 6.12596e-18
8791.99825 6.33688e-18
8794.00125 6.25680e-18
8796.00425 6.29993e-18
8797.99723 6.27204e-18
8800.00023 6.18446e-18
8802.00323 6.23348e-18
8803.99621 6.28888e-18
8805.99921 6.46532e-18
8808.00222 6.28042e-18
8809.99520 6.28076e-18
8811.99820 6.20392e-18
8814.00120 6.24572e-18
8816.00420 6.22874e-18
8817.99719 6.37117e-18
8820.00019 6.29962e-18
8822.00319 6.21366e-18
8823.99617 6.29501e-18
8825.99917 6.29079e-18
8828.00217 6.20902e-18
8829.99516 6.25608e-18
8831.99816 6.18138e-18
8834.00116 6.27471e-18
8836.00416 6.25586e-18
8837.99714 6.17574e-18
8840.00014 6.11276e-18
8842.00314 6.11989e-18
8843.99612 6.24421e-18
8845.99913 6.19615e-18
8848.00213 6.29330e-18
8850.00512 6.17796e-18
8851.99811 6.20867e-18
8854.00111 6.26170e-18
8856.00411 6.32510e-18
8857.99710 6.32685e-18
8860.00009 6.42898e-18
8862.00310 6.42437e-18
8863.99608 6.59389e-18
8865.99908 6.45866e-18
8868.00208 6.39392e-18
8869.99506 6.33136e-18
8871.99806 6.32007e-18
8874.00107 6.31624e-18
8876.00406 6.21496e-18
8877.99705 6.21766e-18
8880.00005 6.16693e-18
8882.00305 6.14383e-18
8883.99604 6.17268e-18
8885.99904 6.17923e-18
8888.00204 6.14402e-18
8889.99502 6.07476e-18
8891.99802 5.98834e-18
8894.00102 6.14542e-18
8896.00402 6.14985e-18
8897.99701 6.09289e-18
8900.00000 6.15811e-18
8902.00301 5.99771e-18
8903.99599 6.12201e-18
8905.99899 5.99766e-18
8908.00199 6.05474e-18
8910.00499 6.11087e-18
8911.99798 6.10459e-18
8914.00098 6.03977e-18
8916.00397 6.17644e-18
8917.99696 6.29116e-18
8919.99996 6.01803e-18
8922.00296 6.00595e-18
8923.99595 6.01625e-18
8925.99894 6.02439e-18
8928.00194 6.09799e-18
8929.99493 6.05815e-18
8931.99793 5.97668e-18
8934.00093 5.93371e-18
8936.00393 5.93244e-18
8937.99692 5.88633e-18
8939.99992 5.93965e-18
8942.00292 5.86035e-18
8943.99590 6.02047e-18
8945.99890 6.01118e-18
8948.00190 5.88636e-18
8949.99489 5.85302e-18
8951.99789 5.83029e-18
8954.00089 5.95871e-18
8956.00389 5.99941e-18
8957.99687 5.95622e-18
8959.99987 5.84001e-18
8962.00287 5.86424e-18
8963.99586 5.94095e-18
8965.99885 6.01108e-18
8968.00186 5.86429e-18
8970.00486 5.93988e-18
8971.99784 6.00530e-18
8974.00084 6.01819e-18
8976.00384 5.98731e-18
8977.99683 5.81577e-18
8979.99982 5.93918e-18
8982.00282 6.14374e-18
8983.99581 5.88130e-18
8985.99881 5.83636e-18
8988.00181 6.18963e-18
8990.00481 5.82750e-18
8991.99780 6.06019e-18
8994.00080 5.91397e-18
8996.00380 5.95893e-18
8997.99678 5.86652e-18
8999.99978 5.89252e-18
9002.00278 6.05779e-18
9003.99577 6.23847e-18
9005.99877 6.15270e-18
9008.00177 6.10507e-18
9009.99475 6.05865e-18
9011.99775 6.42062e-18
9014.00075 6.33230e-18
9016.00375 6.34240e-18
9017.99674 6.62363e-18
9019.99973 6.01813e-18
9022.00274 6.02397e-18
9023.99572 6.05544e-18
9025.99872 6.11478e-18
9028.00172 5.88120e-18
9030.00472 5.84525e-18
9031.99770 5.81904e-18
9034.00071 5.92900e-18
9036.00370 5.90918e-18
9037.99669 5.68713e-18
9039.99969 5.66516e-18
9042.00269 5.83427e-18
9043.99568 5.87163e-18
9045.99868 5.67455e-18
9048.00168 5.85119e-18
9050.00468 5.75269e-18
9051.99766 5.71484e-18
9054.00066 5.89756e-18
9056.00366 5.74779e-18
9057.99665 5.73709e-18
9059.99965 5.81212e-18
9062.00265 5.81825e-18
9063.99563 5.99088e-18
9065.99863 5.83422e-18
9068.00163 5.78918e-18
9070.00463 5.70375e-18
9071.99762 5.60595e-18
9074.00062 5.83441e-18
9076.00361 5.88597e-18
9077.99660 5.67114e-18
9079.99960 5.74155e-18
9082.00260 5.82395e-18
9083.99559 5.67014e-18
9085.99858 5.48839e-18
9088.00158 5.73610e-18
9090.00459 5.73173e-18
9091.99757 5.61626e-18
9094.00057 5.71039e-18
9096.00357 5.73618e-18
9097.99656 5.52711e-18
9099.99956 5.68851e-18
9102.00256 5.83194e-18
9103.99554 5.66750e-18
9105.99854 5.68798e-18
9108.00154 5.71089e-18
9110.00454 5.69561e-18
9111.99753 5.66525e-18
9114.00053 5.70389e-18
9116.00353 5.49711e-18
9117.99651 5.63605e-18
9119.99951 5.69896e-18
9122.00251 5.67460e-18
9123.99550 5.67422e-18
9125.99849 5.71324e-18
9128.00150 5.58543e-18
9130.00450 5.68007e-18
9131.99748 5.75220e-18
9134.00048 5.47829e-18
9136.00348 5.83849e-18
9137.99647 5.73949e-18
9139.99947 5.65791e-18
9142.00246 5.60677e-18
9143.99545 5.56971e-18
9145.99845 5.56061e-18
9148.00145 5.70345e-18
9150.00445 5.59934e-18
9151.99744 5.72871e-18
9154.00044 5.62757e-18
9156.00344 5.70446e-18
9157.99642 5.59844e-18
9159.99942 5.51159e-18
9162.00242 5.66343e-18
9163.99541 5.60645e-18
9165.99841 5.60256e-18
9168.00141 5.62126e-18
9170.00441 5.65202e-18
9171.99739 5.56337e-18
9174.00039 5.60229e-18
9176.00339 5.71883e-18
9177.99638 5.58547e-18
9179.99938 5.62999e-18
9182.00238 5.52472e-18
9183.99536 5.57360e-18
9185.99836 5.60143e-18
9188.00136 5.45989e-18
9190.00436 5.56580e-18
9191.99734 5.65716e-18
9194.00035 5.45842e-18
9196.00335 5.57108e-18
9197.99633 5.59613e-18
9199.99933 5.52000e-18
9202.00233 5.56073e-18
9203.99532 5.45524e-18
9205.99831 5.50896e-18
9208.00131 5.69259e-18
9210.00432 5.60794e-18
9211.99730 5.62461e-18
9214.00030 5.69010e-18
9216.00330 5.75055e-18
9217.99629 5.65882e-18
9219.99929 5.79410e-18
9222.00229 5.69873e-18
9223.99527 5.73887e-18
9225.99827 6.03542e-18
9228.00127 6.21121e-18
9230.00427 6.28176e-18
9231.99726 6.06904e-18
9234.00026 5.94393e-18
9236.00326 5.72346e-18
9237.99624 5.70061e-18
9239.99924 5.63490e-18
9242.00224 5.49984e-18
9243.99523 5.48893e-18
9245.99822 5.48835e-18
9248.00122 5.43702e-18
9250.00423 5.40011e-18
9251.99721 5.58396e-18
9254.00021 5.43632e-18
9256.00321 5.42144e-18
9257.99619 5.40378e-18
9259.99920 5.44712e-18
9262.00219 5.47888e-18
9263.99518 5.58605e-18
9265.99818 5.51101e-18
9268.00118 5.41635e-18
9270.00418 5.52612e-18
9271.99717 5.35460e-18
9274.00017 5.52613e-18
9276.00317 5.41547e-18
9277.99615 5.38475e-18
9279.99915 5.58561e-18
9282.00215 5.46194e-18
9283.99514 5.33292e-18
9285.99813 5.51730e-18
9288.00114 5.54024e-18
9290.00414 5.45541e-18
9291.99712 5.41679e-18
9294.00012 5.51417e-18
9296.00312 5.49497e-18
9297.99611 5.43280e-18
9299.99911 5.44726e-18
9302.00210 5.41041e-18
9303.99509 5.53723e-18
9305.99809 5.22302e-18
9308.00109 5.18760e-18
9310.00409 5.84470e-18
9311.99707 5.49206e-18
9314.00007 5.06659e-18
9316.00308 5.40372e-18
9317.99606 5.61060e-18
9319.99906 5.53240e-18
9322.00206 5.19918e-18
9324.00506 5.56696e-18
9325.99805 5.56554e-18
9328.00105 5.49279e-18
9330.00405 5.17305e-18
9331.99703 5.26634e-18
9334.00003 5.51819e-18
9336.00303 5.47962e-18
9337.99602 5.53849e-18
9339.99902 5.50117e-18
9342.00202 4.91054e-18
9343.99500 5.69634e-18
9345.99800 5.86292e-18
9348.00100 5.39262e-18
9350.00400 5.22256e-18
9351.99698 4.94121e-18
9353.99999 5.64870e-18
9356.00299 5.28389e-18
9357.99597 5.44645e-18
9359.99897 5.81561e-18
9362.00197 5.37733e-18
9363.99496 4.97677e-18
9365.99796 5.29367e-18
9368.00095 5.16660e-18
9370.00396 5.20020e-18
9371.99694 5.72765e-18
9373.99994 5.26271e-18
9376.00294 5.25397e-18
9377.99593 5.25460e-18
9379.99893 5.20807e-18
9382.00193 5.62113e-18
9384.00493 5.37825e-18
9385.99791 5.14463e-18
9388.00091 5.42301e-18
9390.00391 5.14595e-18
9391.99690 5.06933e-18
9393.99990 5.26586e-18
9396.00290 5.13154e-18
9397.99588 5.06201e-18
9399.99888 5.20399e-18
9402.00188 5.25175e-18
9404.00488 5.21698e-18
9405.99787 5.17395e-18
9408.00086 5.08495e-18
9410.00387 5.28638e-18
9411.99685 5.42783e-18
9413.99985 5.27349e-18
9416.00285 5.05503e-18
9417.99583 5.26811e-18
9419.99884 5.09078e-18
9422.00183 5.19966e-18
9423.99482 4.86973e-18
9425.99782 4.81053e-18
9428.00082 5.40606e-18
9430.00382 5.66344e-18
9431.99681 5.27835e-18
9433.99981 5.02859e-18
9436.00281 4.90662e-18
9437.99579 5.01432e-18
9439.99879 5.12892e-18
9442.00179 5.44816e-18
9444.00479 5.24223e-18
9445.99778 5.20571e-18
9448.00078 4.98587e-18
9450.00378 5.27220e-18
9451.99676 5.06656e-18
9453.99976 4.84980e-18
9456.00276 5.51074e-18
9457.99575 4.86385e-18
9459.99875 4.83160e-18
9462.00174 5.35696e-18
9464.00475 5.12008e-18
9465.99773 5.01444e-18
9468.00073 4.82101e-18
9470.00373 5.23185e-18
9471.99671 4.99943e-18
9473.99971 4.90651e-18
9476.00272 5.33525e-18
9477.99570 4.95369e-18
9479.99870 4.83505e-18
9482.00170 5.45317e-18
9483.99469 5.24065e-18
9485.99769 4.92662e-18
9488.00069 5.05436e-18
9490.00369 5.04453e-18
9491.99667 4.82591e-18
9493.99967 5.13988e-18
9496.00267 5.16571e-18
9497.99566 4.94915e-18
9499.99866 4.93235e-18
9502.00166 5.46122e-18
9504.00466 5.08256e-18
9505.99764 5.05571e-18
9508.00064 5.02577e-18
9510.00364 5.13351e-18
9511.99662 4.94494e-18
9513.99963 4.89325e-18
9516.00263 4.80821e-18
9517.99561 5.02515e-18
9519.99861 4.94827e-18
9522.00161 5.00511e-18
9524.00461 5.00700e-18
9525.99760 4.82987e-18
9528.00059 4.98481e-18
9530.00360 5.11204e-18
9531.99658 4.95930e-18
9533.99958 4.87144e-18
9536.00258 5.09766e-18
9537.99556 5.14074e-18
9539.99856 4.95584e-18
9542.00157 4.99298e-18
9544.00456 5.39135e-18
9545.99755 5.71842e-18
9548.00055 5.39166e-18
9550.00355 5.14352e-18
9551.99654 4.97990e-18
9553.99954 5.16534e-18
9556.00254 5.25666e-18
9557.99552 5.22514e-18
9559.99852 5.01385e-18
9562.00152 4.76271e-18
9564.00452 4.95308e-18
9565.99751 4.94579e-18
9568.00050 4.86197e-18
9570.00351 4.84847e-18
9571.99649 4.75279e-18
9573.99949 4.73374e-18
9576.00249 4.76453e-18
9577.99547 4.67283e-18
9579.99848 4.83096e-18
9582.00148 5.17170e-18
9584.00447 4.86325e-18
9585.99746 4.71602e-18
9588.00046 4.61492e-18
9590.00346 4.79101e-18
9591.99644 4.93006e-18
9593.99944 4.88719e-18
9596.00245 4.68436e-18
9597.99543 4.82343e-18
9599.99843 4.90355e-18
9602.00143 4.80844e-18
9604.00443 4.71528e-18
9605.99742 4.79468e-18
9608.00042 4.91247e-18
9610.00342 4.93141e-18
9611.99640 4.83979e-18
9613.99940 4.73736e-18
9616.00240 4.69091e-18
9617.99539 4.68774e-18
9619.99839 4.63265e-18
9622.00139 4.75249e-18
9624.00439 4.66186e-18
9625.99737 4.76880e-18
9628.00037 4.90912e-18
9630.00337 4.85228e-18
9631.99636 4.58316e-18
9633.99935 4.63984e-18
9636.00236 4.73536e-18
9637.99534 4.91674e-18
9639.99834 4.76963e-18
9642.00134 4.63562e-18
9644.00434 4.64244e-18
9645.99733 4.86727e-18
9648.00032 4.70400e-18
9650.00332 4.62897e-18
9651.99631 4.76829e-18
9653.99931 4.71643e-18
9656.00231 4.74693e-18
9657.99530 4.64451e-18
9659.99830 4.64193e-18
9662.00130 4.80435e-18
9664.00430 4.81698e-18
9665.99728 4.64239e-18
9668.00028 4.59686e-18
9670.00328 4.75581e-18
9671.99627 4.83293e-18
9673.99927 4.81992e-18
9676.00227 4.85895e-18
9677.99525 4.60775e-18
9679.99825 4.61228e-18
9682.00125 4.66295e-18
9684.00425 4.67994e-18
9685.99724 4.63851e-18
9688.00023 4.75700e-18
9690.00324 4.63434e-18
9691.99622 4.72871e-18
9693.99922 4.70646e-18
9696.00222 4.60055e-18
9697.99520 4.58646e-18
9699.99820 4.57334e-18
9702.00121 4.60959e-18
9704.00420 4.58550e-18
9705.99719 4.47964e-18
9708.00019 4.63221e-18
9710.00319 4.62362e-18
9711.99618 4.49206e-18
9713.99918 4.62369e-18
9716.00218 4.79541e-18
9717.99516 4.56878e-18
9719.99816 4.68446e-18
9722.00116 4.66114e-18
9724.00416 4.81684e-18
9725.99715 4.64630e-18
9728.00014 4.81694e-18
9730.00315 4.56998e-18
9731.99613 4.57024e-18
9733.99913 4.56390e-18
9736.00213 4.63046e-18
9738.00513 4.76378e-18
9739.99812 4.64342e-18
9742.00112 4.49286e-18
9744.00411 4.69287e-18
9745.99710 4.67672e-18
9748.00010 4.67267e-18
9750.00310 4.60884e-18
9751.99609 4.52997e-18
9753.99908 4.48798e-18
9756.00209 4.66620e-18
9757.99507 4.71166e-18
9759.99807 4.59822e-18
9762.00107 4.65341e-18
9764.00407 4.71222e-18
9765.99706 4.55856e-18
9768.00006 4.54319e-18
9770.00306 4.61235e-18
9771.99604 4.51291e-18
9773.99904 4.56086e-18
9776.00204 4.53643e-18
9777.99503 4.61405e-18
9779.99803 4.54292e-18
9782.00103 4.65736e-18
9784.00403 4.59082e-18
9785.99701 4.65523e-18
9788.00001 4.55311e-18
9790.00301 4.52662e-18
9791.99600 4.58231e-18
9793.99899 4.85593e-18
9796.00200 4.57353e-18
9798.00500 4.51460e-18
9799.99798 4.66297e-18
9802.00098 4.55494e-18
9804.00398 4.57551e-18
9805.99697 4.75123e-18
9807.99997 4.58208e-18
9810.00296 4.57755e-18
9811.99595 4.58756e-18
9813.99895 4.51341e-18
9816.00195 4.42394e-18
9817.99494 4.45584e-18
9819.99794 4.59239e-18
9822.00094 4.55561e-18
9824.00394 4.50986e-18
9825.99692 4.66132e-18
9827.99992 4.55998e-18
9830.00292 4.60863e-18
9831.99591 4.68376e-18
9833.99891 4.64996e-18
9836.00191 4.66314e-18
9837.99489 4.63446e-18
9839.99789 4.62914e-18
9842.00089 4.51142e-18
9844.00389 4.50879e-18
9845.99688 4.52838e-18
9847.99988 4.47172e-18
9850.00288 4.50924e-18
9851.99586 4.53967e-18
9853.99886 4.59981e-18
9856.00186 4.48476e-18
9858.00486 4.53029e-18
9859.99784 4.58002e-18
9862.00085 4.53865e-18
9864.00384 4.60080e-18
9865.99683 4.56017e-18
9867.99983 4.54755e-18
9870.00283 4.60193e-18
9871.99582 4.50069e-18
9873.99881 4.66738e-18
9876.00181 4.53344e-18
9878.00482 4.56733e-18
9879.99780 4.53724e-18
9882.00080 4.62065e-18
9884.00380 4.55781e-18
9885.99679 4.58309e-18
9887.99979 4.46271e-18
9890.00279 4.41886e-18
9891.99577 4.48687e-18
9893.99877 4.47420e-18
9896.00177 4.57978e-18
9897.99476 4.49108e-18
9899.99776 4.51062e-18
9902.00076 4.48731e-18
9904.00375 4.43500e-18
9905.99674 4.48167e-18
9907.99974 4.35819e-18
9910.00274 4.49667e-18
9911.99573 4.48508e-18
9913.99872 4.77640e-18
9916.00173 4.52662e-18
9918.00473 4.55148e-18
9919.99771 4.51895e-18
9922.00071 4.39277e-18
9924.00371 4.29702e-18
9925.99669 4.50078e-18
9927.99970 4.45181e-18
9930.00269 4.45327e-18
9931.99568 4.48294e-18
9933.99868 4.59594e-18
9936.00168 4.48821e-18
9938.00468 4.47688e-18
9939.99767 4.45745e-18
9942.00067 4.34313e-18
9944.00367 4.38174e-18
9945.99665 4.42029e-18
9947.99965 4.64390e-18
9950.00265 4.44154e-18
9951.99564 4.38030e-18
9953.99863 4.51998e-18
9956.00164 4.39332e-18
9957.99462 4.40307e-18
9959.99762 4.34016e-18
9962.00062 4.53894e-18
9964.00362 4.46538e-18
9965.99661 4.44805e-18
9967.99961 4.44762e-18
9970.00260 4.46465e-18
9971.99559 4.48222e-18
9973.99859 4.33189e-18
9976.00159 4.38478e-18
9978.00459 4.42952e-18
9979.99757 4.49896e-18
9982.00058 4.41151e-18
9984.00358 4.39222e-18
9985.99656 4.37883e-18
9987.99956 4.26933e-18
9990.00256 4.45098e-18
9991.99555 4.46160e-18
9993.99855 4.33329e-18
9996.00155 4.46443e-18
9998.00455 4.30312e-18
9999.99753 4.34010e-18
