# wavelength flux
3493.12480 8.87851e-18
3494.61161 8.12798e-18
3496.09841 7.37732e-18
3497.58522 3.51859e-18
3499.07203 -3.39238e-19
3500.55884 3.78218e-18
3502.04565 7.90277e-18
3503.53245 5.31149e-18
3505.01926 2.72081e-18
3506.50607 5.32547e-18
3507.99288 7.92978e-18
3509.46964 8.85707e-18
3510.95645 9.78420e-18
3512.44326 9.49244e-18
3513.93006 9.20074e-18
3515.41687 9.56211e-18
3516.90368 9.92323e-18
3518.39049 7.08886e-18
3519.87730 4.25499e-18
3521.36410 4.91195e-18
3522.85091 5.56877e-18
3524.33772 5.11788e-18
3525.82453 4.66689e-18
3527.31134 2.27611e-18
3528.79814 -1.14233e-19
3530.28495 5.17852e-19
3531.77176 1.14988e-18
3533.25857 1.85780e-18
3534.74538 2.56554e-18
3536.23218 1.78236e-18
3537.71899 9.99116e-19
3539.20580 -1.60779e-18
3540.69261 -4.21425e-18
3542.17942 -3.79695e-18
3543.66622 -3.37982e-18
3545.15303 -4.76632e-18
3546.63984 -6.15257e-18
3548.12665 -5.75137e-18
3549.61346 -5.34990e-18
3551.10026 -7.74021e-19
3552.57703 3.80139e-18
3554.06383 7.66265e-18
3555.55064 1.15231e-17
3557.03745 8.64893e-18
3558.52426 5.77517e-18
3560.01107 4.46099e-18
3561.49787 3.14676e-18
3562.98468 -1.88284e-19
3564.47149 -3.52272e-18
3565.95830 -2.68355e-18
3567.44511 -1.84432e-18
3568.93191 6.88192e-19
3570.41872 3.22006e-18
3571.90553 2.79858e-19
3573.39234 -2.65983e-18
3574.87915 -2.14934e-18
3576.36595 -1.63858e-18
3577.85276 2.86468e-18
3579.33957 7.36707e-18
3580.82638 5.55355e-18
3582.31319 3.74024e-18
3583.79999 2.52587e-18
3585.28680 1.31186e-18
3586.77361 3.44760e-18
3588.26042 5.58282e-18
3589.74723 3.49319e-18
3591.23403 1.40406e-18
3592.72084 3.27313e-18
3594.19760 5.14173e-18
3595.68441 3.14097e-18
3597.17122 1.14049e-18
3598.65803 4.05387e-19
3600.14484 -3.29386e-19
3601.63164 2.18604e-18
3603.11845 4.70089e-18
3604.60526 2.78217e-18
3606.09207 8.63741e-19
3607.57888 6.84490e-19
3609.06568 5.05356e-19
3610.55249 1.58333e-18
3612.03930 2.66099e-18
3613.52611 8.82570e-19
3615.01292 -8.95451e-19
3616.49972 3.59403e-19
3617.98653 1.61404e-18
3619.47334 1.52641e-18
3620.96015 1.43888e-18
3622.44696 2.50014e-18
3623.93376 3.56117e-18
3625.42057 2.78873e-18
3626.90738 2.01629e-18
3628.39419 4.20877e-19
3629.88100 -1.17426e-18
3631.36780 -9.72327e-19
3632.85461 -7.70416e-19
3634.34142 -6.41687e-19
3635.82823 -5.13018e-19
3637.31504 -9.48871e-19
3638.79180 -1.38466e-18
3640.27861 -1.41619e-18
3641.76541 -1.44763e-18
3643.25222 -4.41193e-19
3644.73903 5.65135e-19
3646.22584 1.25934e-18
3647.71265 1.95352e-18
3649.19945 3.11531e-18
3650.68626 4.27688e-18
3652.17307 3.92373e-18
3653.65988 3.57060e-18
3655.14669 3.20759e-18
3656.63349 2.84461e-18
3658.12030 2.48584e-18
3659.60711 2.12717e-18
3661.09392 2.56100e-18
3662.58073 2.99485e-18
3664.06753 3.89679e-18
3665.55434 4.79852e-18
3667.04115 4.19938e-18
3668.52796 3.60034e-18
3670.01477 3.68793e-18
3671.50157 3.77524e-18
3672.98838 9.18525e-19
3674.47519 -1.93759e-18
3675.96200 -5.18892e-19
3677.44881 8.99681e-19
3678.93561 2.06492e-18
3680.42242 3.22983e-18
3681.89918 1.75950e-18
3683.38599 2.89365e-19
3684.87280 -3.37820e-19
3686.35961 -9.64848e-19
3687.84642 -3.91562e-19
3689.33322 1.81756e-19
3690.82003 1.54739e-18
3692.30684 2.91267e-18
3693.79365 1.52350e-18
3695.28046 1.34775e-19
3696.76726 2.28191e-18
3698.25407 4.42856e-18
3699.74088 3.07825e-18
3701.22769 1.72807e-18
3702.71450 7.54937e-19
3704.20130 -2.18158e-19
3705.68811 -1.50419e-18
3707.17492 -2.78983e-18
3708.66173 -9.64757e-19
3710.14854 8.60254e-19
3711.63534 3.41311e-18
3713.12215 5.96537e-18
3714.60896 4.23912e-18
3716.09577 2.51307e-18
3717.58258 1.67079e-18
3719.06938 8.28712e-19
3720.55619 1.44816e-18
3722.04300 2.06755e-18
3723.52981 2.43713e-18
3725.00657 2.80676e-18
3726.49338 2.75460e-18
3727.98019 2.72393e-18
3729.46699 2.69326e-18
3730.95380 2.66260e-18
3732.44061 2.63193e-18
3733.92742 2.60127e-18
3735.41423 2.57061e-18
3736.90103 2.53995e-18
3738.38784 2.50929e-18
3739.87465 2.47863e-18
3741.36146 2.44798e-18
3742.84827 2.41733e-18
3744.33507 2.38669e-18
3745.82188 2.35604e-18
3747.30869 2.32540e-18
3748.79550 2.29476e-18
3750.28231 2.26412e-18
3751.76911 2.23349e-18
3753.25592 2.20285e-18
3754.74273 2.17221e-18
3756.22954 2.14158e-18
3757.71635 2.11095e-18
3759.20315 2.08033e-18
3760.68996 2.04970e-18
3762.17677 2.01909e-18
3763.66358 1.98847e-18
3765.15039 1.95785e-18
3766.63719 2.91219e-18
3768.11396 2.45234e-18
3769.60076 1.99259e-18
3771.08757 2.25502e-18
3772.57438 2.51733e-18
3774.06119 1.80831e-18
3775.54800 1.09930e-18
3777.03480 8.15097e-20
3778.52161 -9.36169e-19
3780.00842 -1.50714e-18
3781.49523 -2.07796e-18
3782.98204 -1.44191e-18
3784.46884 -8.05876e-19
3785.95565 -2.46440e-20
3787.44246 7.56497e-19
3788.92927 1.13687e-18
3790.41608 1.51709e-18
3791.90288 7.51878e-19
3793.38969 -1.32716e-20
3794.87650 -5.96117e-19
3796.36331 -1.17883e-18
3797.85012 -8.47707e-19
3799.33692 -5.16619e-19
3800.82373 -3.07123e-19
3802.31054 -9.76007e-20
3803.79735 4.69689e-19
3805.28416 1.03683e-18
3806.77096 5.60822e-19
3808.25777 8.48100e-20
3809.74458 -6.73010e-19
3811.22134 -1.43067e-18
3812.70815 -1.16516e-18
3814.19496 -8.99681e-19
3815.68177 -8.03895e-19
3817.16857 -7.07949e-19
3818.65538 8.89798e-19
3820.14219 2.48724e-18
3821.62900 2.17160e-18
3823.11581 1.85600e-18
3824.60261 1.65786e-18
3826.08942 1.45986e-18
3827.57623 2.45084e-18
3829.06304 3.44157e-18
3830.54985 2.70108e-18
3832.03665 1.96060e-18
3833.52346 9.36734e-19
3835.01027 -8.68644e-20
3836.49708 7.44522e-19
3837.98389 1.57567e-18
3839.47069 6.88239e-19
3840.95750 -1.98943e-19
3842.44431 6.23303e-19
3843.93112 1.44557e-18
3845.41793 2.86053e-18
3846.90473 4.27509e-18
3848.39154 2.90472e-18
3849.87835 1.53456e-18
3851.36516 1.32506e-18
3852.85197 1.11582e-18
3854.32873 3.13106e-18
3855.81554 5.14574e-18
3857.30234 3.44094e-18
3858.78915 1.73644e-18
3860.27596 1.90366e-18
3861.76277 2.07090e-18
3863.24958 2.50122e-18
3864.73638 2.93144e-18
3866.22319 2.67987e-18
3867.71000 2.42831e-18
3869.19681 2.16260e-18
3870.68362 1.89686e-18
3872.17042 1.22821e-18
3873.65723 5.59758e-19
3875.14404 1.30565e-18
3876.63085 2.05145e-18
3878.11766 2.39888e-18
3879.60446 2.74617e-18
3881.09127 2.10485e-18
3882.57808 1.46363e-18
3884.06489 1.43720e-18
3885.55170 1.41090e-18
3887.03850 2.53764e-18
3888.52531 3.66411e-18
3890.01212 3.05149e-18
3891.49893 2.43903e-18
3892.98574 2.97637e-18
3894.47254 3.51359e-18
3895.94931 3.35110e-18
3897.43611 3.18860e-18
3898.92292 2.83649e-18
3900.40973 2.48443e-18
3901.89654 2.39916e-18
3903.38335 2.31390e-18
3904.87015 2.33556e-18
3906.35696 2.35728e-18
3907.84377 2.91172e-18
3909.33058 3.46606e-18
3910.81739 3.40023e-18
3912.30419 3.33438e-18
3913.79100 3.03042e-18
3915.27781 2.72639e-18
3916.76462 1.74953e-18
3918.25143 7.72909e-19
3919.73823 1.34990e-18
3921.22504 1.92691e-18
3922.71185 2.85515e-18
3924.19866 3.78325e-18
3925.68547 3.91373e-18
3927.17227 4.04411e-18
3928.65908 3.46726e-18
3930.14589 2.89050e-18
3931.63270 2.79624e-18
3933.11951 2.70207e-18
3934.60631 3.28649e-18
3936.09312 3.87091e-18
3937.57993 4.71811e-18
3939.06674 5.56517e-18
3940.54350 5.72777e-18
3942.03031 5.89027e-18
3943.51712 5.22630e-18
3945.00392 4.56231e-18
3946.49073 3.39389e-18
3947.97754 2.22559e-18
3949.46435 1.56996e-18
3950.95116 9.14666e-19
3952.43796 2.58472e-18
3953.92477 4.25442e-18
3955.41158 3.79770e-18
3956.89839 3.34092e-18
3958.38520 2.20620e-18
3959.87200 1.07187e-18
3961.35881 2.47117e-18
3962.84562 3.87027e-18
3964.33243 4.23884e-18
3965.81924 4.60734e-18
3967.30604 4.60709e-18
3968.79285 4.60690e-18
3970.27966 5.08696e-18
3971.76647 5.56694e-18
3973.25328 5.72187e-18
3974.74008 5.87664e-18
3976.22689 4.89954e-18
3977.71370 3.92269e-18
3979.20051 4.51844e-18
3980.68732 5.11407e-18
3982.17412 4.97352e-18
3983.65089 4.83306e-18
3985.13769 5.21396e-18
3986.62450 5.59481e-18
3988.11131 5.76583e-18
3989.59812 5.93686e-18
3991.08493 6.19464e-18
3992.57173 6.45227e-18
3994.05854 5.74757e-18
3995.54535 5.04295e-18
3997.03216 4.67051e-18
3998.51897 4.29816e-18
4000.00577 4.43826e-18
4001.49258 4.57835e-18
4002.97939 4.76023e-18
4004.46620 4.94202e-18
4005.95301 4.55238e-18
4007.43981 4.16281e-18
4008.92662 4.18758e-18
4010.41343 4.21242e-18
4011.90024 4.75235e-18
4013.38705 5.29218e-18
4014.87385 5.25763e-18
4016.36066 5.22306e-18
4017.84747 4.99695e-18
4019.33428 4.77089e-18
4020.82109 4.78917e-18
4022.30789 4.80756e-18
4023.79470 5.69028e-18
4025.27146 6.57284e-18
4026.75827 6.59714e-18
4028.24508 6.62131e-18
4029.73189 5.76069e-18
4031.21870 4.90024e-18
4032.70550 5.04744e-18
4034.19231 5.19466e-18
4035.67912 5.49117e-18
4037.16593 5.78762e-18
4038.65274 5.71059e-18
4040.13954 5.63338e-18
4041.62635 4.26150e-18
4043.11316 2.88991e-18
4044.59997 3.10284e-18
4046.08678 3.31586e-18
4047.57358 4.29374e-18
4049.06039 5.27152e-18
4050.54720 5.88796e-18
4052.03401 6.50420e-18
4053.52082 5.94839e-18
4055.00762 5.39273e-18
4056.49443 5.61629e-18
4057.98124 5.83992e-18
4059.46805 6.63721e-18
4060.95486 7.43426e-18
4062.44166 6.83363e-18
4063.92847 6.23292e-18
4065.41528 4.86748e-18
4066.90209 3.50229e-18
4068.38890 3.45984e-18
4069.86566 3.41758e-18
4071.35247 4.76824e-18
4072.83927 6.11869e-18
4074.32608 6.46627e-18
4075.81289 6.81369e-18
4077.29970 6.21358e-18
4078.78651 5.61357e-18
4080.27331 5.58632e-18
4081.76012 5.55907e-18
4083.24693 5.51056e-18
4084.73374 5.46201e-18
4086.22055 5.06950e-18
4087.70735 4.67704e-18
4089.19416 4.54520e-18
4090.68097 4.41341e-18
4092.16778 4.55964e-18
4093.65459 4.70576e-18
4095.14139 4.14373e-18
4096.62820 3.58186e-18
4098.11501 3.93033e-18
4099.60182 4.27877e-18
4101.08863 4.60619e-18
4102.57543 4.93355e-18
4104.06224 4.94578e-18
4105.54905 4.95803e-18
4107.03586 5.11485e-18
4108.52267 5.27166e-18
4110.00947 5.46504e-18
4111.49628 5.65840e-18
4112.97304 5.80022e-18
4114.45985 5.94203e-18
4115.94666 6.05483e-18
4117.43347 6.16757e-18
4118.92028 5.98037e-18
4120.40708 5.79314e-18
4121.89389 5.33823e-18
4123.38070 4.88346e-18
4124.86751 5.20773e-18
4126.35432 5.53188e-18
4127.84112 5.19517e-18
4129.32793 4.85848e-18
4130.81474 4.53452e-18
4132.30155 4.21068e-18
4133.78836 4.64498e-18
4135.27516 5.07925e-18
4136.76197 5.53251e-18
4138.24878 5.98562e-18
4139.73559 5.54417e-18
4141.22240 5.10275e-18
4142.70920 4.73754e-18
4144.19601 4.37239e-18
4145.68282 4.22726e-18
4147.16963 4.08216e-18
4148.65644 4.04441e-18
4150.14324 4.00673e-18
4151.63005 4.32917e-18
4153.11686 4.65168e-18
4154.60367 5.49131e-18
4156.08043 6.33076e-18
4157.56724 6.29052e-18
4159.05405 6.25015e-18
4160.54085 5.38392e-18
4162.02766 4.51787e-18
4163.51447 4.51770e-18
4165.00128 4.51751e-18
4166.48809 4.36991e-18
4167.97489 4.22222e-18
4169.46170 3.42413e-18
4170.94851 2.62633e-18
4172.43532 3.35945e-18
4173.92213 4.09247e-18
4175.40893 4.41312e-18
4176.89574 4.73364e-18
4178.38255 4.28113e-18
4179.86936 3.82877e-18
4181.35617 4.18099e-18
4182.84297 4.53324e-18
4184.32978 5.18583e-18
4185.81659 5.83823e-18
4187.30340 5.56889e-18
4188.79021 5.29951e-18
4190.27701 4.78493e-18
4191.76382 4.27051e-18
4193.25063 4.54011e-18
4194.73744 4.80962e-18
4196.22425 4.66162e-18
4197.70101 4.51360e-18
4199.18782 4.21026e-18
4200.67462 3.90698e-18
4202.16143 3.87427e-18
4203.64824 3.84158e-18
4205.13505 3.91770e-18
4206.62186 3.99388e-18
4208.10866 4.49652e-18
4209.59547 4.99907e-18
4211.08228 5.08463e-18
4212.56909 5.17013e-18
4214.05590 4.89551e-18
4215.54270 4.62092e-18
4217.02951 4.45625e-18
4218.51632 4.29165e-18
4220.00313 4.51496e-18
4221.48994 4.73825e-18
4222.97674 4.90290e-18
4224.46355 5.06748e-18
4225.95036 4.84384e-18
4227.43717 4.62017e-18
4228.92398 4.16990e-18
4230.41078 3.71966e-18
4231.89759 3.33226e-18
4233.38440 2.94501e-18
4234.87121 3.38052e-18
4236.35802 3.81602e-18
4237.84482 4.36903e-18
4239.33163 4.92186e-18
4240.81844 4.54216e-18
4242.30525 4.16254e-18
4243.78201 4.13523e-18
4245.26882 4.10784e-18
4246.75563 3.64059e-18
4248.24243 3.17343e-18
4249.72924 3.16366e-18
4251.21605 3.15398e-18
4252.70286 3.70403e-18
4254.18967 4.25401e-18
4255.67647 4.52094e-18
4257.16328 4.78769e-18
4258.65009 4.09616e-18
4260.13690 3.40481e-18
4261.62371 3.59110e-18
4263.11051 3.77736e-18
4264.59732 3.87972e-18
4266.08413 3.98213e-18
4267.57094 4.37644e-18
4269.05775 4.77067e-18
4270.54455 4.78487e-18
4272.03136 4.79897e-18
4273.51817 4.21743e-18
4275.00498 3.63608e-18
4276.49179 3.94707e-18
4277.97859 4.25811e-18
4279.46540 4.93658e-18
4280.95221 5.61486e-18
4282.43902 5.43353e-18
4283.92583 5.25218e-18
4285.40259 4.94706e-18
4286.88940 4.64192e-18
4288.37620 4.10698e-18
4289.86301 3.57207e-18
4291.34982 3.04330e-18
4292.83663 2.51468e-18
4294.32344 2.70017e-18
4295.81024 2.88573e-18
4297.29705 3.50132e-18
4298.78386 4.11676e-18
4300.27067 4.08667e-18
4301.75748 4.05651e-18
4303.24428 3.68418e-18
4304.73109 3.31194e-18
4306.21790 3.31535e-18
4307.70471 3.31875e-18
4309.19152 3.30867e-18
4310.67832 3.29860e-18
4312.16513 3.43060e-18
4313.65194 3.56266e-18
4315.13875 4.09632e-18
4316.62556 4.62981e-18
4318.11236 4.36260e-18
4319.59917 4.09536e-18
4321.08598 3.59343e-18
4322.57279 3.09162e-18
4324.05960 3.14612e-18
4325.54640 3.20060e-18
4327.03321 3.21249e-18
4328.50997 3.22441e-18
4329.99678 3.43292e-18
4331.48359 3.64136e-18
4332.97040 3.50752e-18
4334.45721 3.37371e-18
4335.94401 3.35560e-18
4337.43082 3.33758e-18
4338.91763 3.76444e-18
4340.40444 4.19124e-18
4341.89125 4.41407e-18
4343.37805 4.63679e-18
4344.86486 4.36707e-18
4346.35167 4.09735e-18
4347.83848 3.71791e-18
4349.32529 3.33858e-18
4350.81209 3.46479e-18
4352.29890 3.59099e-18
4353.78571 3.68975e-18
4355.27252 3.78848e-18
4356.75933 3.69276e-18
4358.24613 3.59712e-18
4359.73294 3.92989e-18
4361.21975 4.26265e-18
4362.70656 4.69506e-18
4364.19337 5.12728e-18
4365.68017 5.10338e-18
4367.16698 5.07949e-18
4368.65379 5.05558e-18
4370.14060 5.03168e-18
4371.61736 5.00779e-18
4373.10417 4.98390e-18
4374.59098 4.96000e-18
4376.07778 4.93611e-18
4377.56459 4.91222e-18
4379.05140 4.88832e-18
4380.53821 4.86444e-18
4382.02502 4.84055e-18
4383.51182 4.81667e-18
4384.99863 4.79278e-18
4386.48544 4.76889e-18
4387.97225 4.74501e-18
4389.45906 4.72113e-18
4390.94586 4.69725e-18
4392.43267 4.67336e-18
4393.91948 4.64950e-18
4395.40629 4.62562e-18
4396.89310 4.60174e-18
4398.37990 4.57786e-18
4399.86671 4.55399e-18
4401.35352 4.53012e-18
4402.84033 4.50625e-18
4404.32714 4.31815e-18
4405.81394 4.13008e-18
4407.30075 4.00520e-18
4408.78756 3.88036e-18
4410.27437 3.91391e-18
4411.76118 3.94740e-18
4413.24798 3.61181e-18
4414.73479 3.27630e-18
4416.21155 3.23778e-18
4417.69836 3.19931e-18
4419.18517 3.45371e-18
4420.67198 3.70811e-18
4422.15879 4.00850e-18
4423.64559 4.30891e-18
4425.13240 4.85429e-18
4426.61921 5.39953e-18
4428.10602 5.39446e-18
4429.59283 5.38934e-18
4431.07963 5.19689e-18
4432.56644 5.00455e-18
4434.05325 5.27239e-18
4435.54006 5.54007e-18
4437.02687 5.03512e-18
4438.51367 4.53019e-18
4440.00048 3.96629e-18
4441.48729 3.40250e-18
4442.97410 3.26100e-18
4444.46091 3.11961e-18
4445.94771 3.45610e-18
4447.43452 3.79257e-18
4448.92133 4.13142e-18
4450.40814 4.47026e-18
4451.89495 4.80901e-18
4453.38175 5.14753e-18
4454.86856 4.36834e-18
4456.35537 3.58936e-18
4457.83213 3.64617e-18
4459.31894 3.70308e-18
4460.80575 4.32645e-18
4462.29256 4.94965e-18
4463.77936 4.87761e-18
4465.26617 4.80553e-18
4466.75298 4.51481e-18
4468.23979 4.22418e-18
4469.72660 4.32977e-18
4471.21340 4.43534e-18
4472.70021 4.44235e-18
4474.18702 4.44935e-18
4475.67383 4.34139e-18
4477.16064 4.23344e-18
4478.64744 4.13851e-18
4480.13425 4.04365e-18
4481.62106 4.25412e-18
4483.10787 4.46449e-18
4484.59468 4.22814e-18
4486.08148 3.99195e-18
4487.56829 4.47117e-18
4489.05510 4.95043e-18
4490.54191 5.72866e-18
4492.02872 6.50668e-18
4493.51552 6.42942e-18
4495.00233 6.35202e-18
4496.48914 5.51909e-18
4497.97595 4.68639e-18
4499.45271 4.71625e-18
4500.93952 4.74612e-18
4502.42633 4.82238e-18
4503.91313 4.89867e-18
4505.39994 5.14964e-18
4506.88675 5.40058e-18
4508.37356 5.58382e-18
4509.86037 5.76707e-18
4511.34717 6.01545e-18
4512.83398 6.26370e-18
4514.32079 5.98297e-18
4515.80760 5.70230e-18
4517.29441 5.65272e-18
4518.78121 5.60319e-18
4520.26802 5.76737e-18
4521.75483 5.93138e-18
4523.24164 5.28379e-18
4524.72845 4.63642e-18
4526.21525 4.83482e-18
4527.70206 5.03324e-18
4529.18887 5.41143e-18
4530.67568 5.78950e-18
4532.16249 5.63242e-18
4533.64929 5.47545e-18
4535.13610 5.81747e-18
4536.62291 6.15953e-18
4538.10972 6.74418e-18
4539.59653 7.32862e-18
4541.08333 7.10810e-18
4542.57014 6.88763e-18
4544.05695 6.84584e-18
4545.53371 6.80405e-18
4547.02052 6.74614e-18
4548.50733 6.68821e-18
4549.99414 6.57345e-18
4551.48094 6.45878e-18
4552.96775 6.70475e-18
4554.45456 6.95059e-18
4555.94137 6.66341e-18
4557.42818 6.37632e-18
4558.91498 6.45492e-18
4560.40179 6.53350e-18
4561.88860 6.57526e-18
4563.37541 6.61692e-18
4564.86222 6.22242e-18
4566.34902 5.82801e-18
4567.83583 5.78060e-18
4569.32264 5.73338e-18
4570.80945 6.54112e-18
4572.29626 7.34870e-18
4573.78306 7.58409e-18
4575.26987 7.81940e-18
4576.75668 7.71629e-18
4578.24349 7.61317e-18
4579.73030 7.46391e-18
4581.21710 7.31466e-18
4582.70391 7.21384e-18
4584.19072 7.11304e-18
4585.67753 7.03454e-18
4587.15429 6.95608e-18
4588.64110 7.10082e-18
4590.12791 7.24553e-18
4591.61471 7.25137e-18
4593.10152 7.25722e-18
4594.58833 7.29605e-18
4596.07514 7.33494e-18
4597.56195 7.65536e-18
4599.04875 7.97586e-18
4600.53556 8.79793e-18
4602.02237 9.61975e-18
4603.50918 9.57198e-18
4604.99599 9.52404e-18
4606.48279 8.70787e-18
4607.96960 7.89190e-18
4609.45641 7.81886e-18
4610.94322 7.74593e-18
4612.43003 8.16691e-18
4613.91683 8.58779e-18
4615.40364 8.61828e-18
4616.89045 8.64877e-18
4618.37726 8.65309e-18
4619.86407 8.65734e-18
4621.35087 8.35965e-18
4622.83768 8.06200e-18
4624.32449 7.85937e-18
4625.81130 7.65680e-18
4627.29811 7.69330e-18
4628.78491 7.72987e-18
4630.26168 8.09730e-18
4631.74848 8.46462e-18
4633.23529 8.45592e-18
4634.72210 8.44718e-18
4636.20891 8.26984e-18
4637.69572 8.09252e-18
4639.18252 7.92502e-18
4640.66933 7.75759e-18
4642.15614 7.84586e-18
4643.64295 7.93420e-18
4645.12976 8.41608e-18
4646.61656 8.89784e-18
4648.10337 8.93406e-18
4649.59018 8.97016e-18
4651.07699 8.42958e-18
4652.56380 7.88920e-18
4654.05060 8.03668e-18
4655.53741 8.18413e-18
4657.02422 8.21803e-18
4658.51103 8.25189e-18
4659.99784 8.10108e-18
4661.48464 7.95032e-18
4662.97145 7.95338e-18
4664.45826 7.95660e-18
4665.94507 8.68878e-18
4667.43188 9.42073e-18
4668.91868 9.35417e-18
4670.40549 9.28747e-18
4671.89230 8.53206e-18
4673.37911 7.77681e-18
4674.85587 7.59415e-18
4676.34268 7.41160e-18
4677.82949 7.67488e-18
4679.31629 7.93796e-18
4680.80310 7.40904e-18
4682.28991 6.88039e-18
4683.77672 7.38629e-18
4685.26353 7.89221e-18
4686.75033 8.59787e-18
4688.23714 9.30334e-18
4689.72395 9.29374e-18
4691.21076 9.28397e-18
4692.69757 8.48926e-18
4694.18437 7.69480e-18
4695.67118 7.82292e-18
4697.15799 7.95105e-18
4698.64480 8.18299e-18
4700.13161 8.41480e-18
4701.61841 8.17196e-18
4703.10522 7.92919e-18
4704.59203 7.94912e-18
4706.07884 7.96913e-18
4707.56565 8.29248e-18
4709.05245 8.61573e-18
4710.53926 8.59589e-18
4712.02607 8.57600e-18
4713.51288 8.36119e-18
4714.99969 8.14637e-18
4716.47645 7.85285e-18
4717.96326 7.55944e-18
4719.45006 7.66973e-18
4720.93687 7.77999e-18
4722.42368 7.78243e-18
4723.91049 7.78487e-18
4725.39730 7.78784e-18
4726.88410 7.79071e-18
4728.37091 7.36537e-18
4729.85772 6.94011e-18
4731.34453 6.80005e-18
4732.83134 6.66021e-18
4734.31814 7.39784e-18
4735.80495 8.13541e-18
4737.29176 8.80190e-18
4738.77857 9.46808e-18
4740.26538 8.94621e-18
4741.75218 8.42440e-18
4743.23899 8.02127e-18
4744.72580 7.61826e-18
4746.21261 7.62414e-18
4747.69942 7.62997e-18
4749.18622 7.40856e-18
4750.67303 7.18718e-18
4752.15984 7.04907e-18
4753.64665 6.91100e-18
4755.13346 6.91422e-18
4756.62026 6.91744e-18
4758.09703 6.91547e-18
4759.58383 6.91347e-18
4761.07064 6.85651e-18
4762.55745 6.79953e-18
4764.04426 6.69085e-18
4765.53107 6.58224e-18
4767.01787 6.68644e-18
4768.50468 6.79079e-18
4769.99149 7.51058e-18
4771.47830 8.23001e-18
4772.96511 7.58420e-18
4774.45191 6.93848e-18
4775.93872 6.51155e-18
4777.42553 6.08484e-18
4778.91234 6.49490e-18
4780.39915 6.90480e-18
4781.88595 6.77655e-18
4783.37276 6.64824e-18
4784.85957 6.26558e-18
4786.34638 5.88307e-18
4787.83319 6.03527e-18
4789.31999 6.18756e-18
4790.80680 6.77132e-18
4792.29361 7.35488e-18
4793.78042 7.21651e-18
4795.26723 7.07818e-18
4796.75403 7.07499e-18
4798.24084 7.07176e-18
4799.72765 6.86373e-18
4801.21446 6.65567e-18
4802.70127 6.29389e-18
4804.17803 5.93214e-18
4805.66484 5.65982e-18
4807.15164 5.38761e-18
4808.63845 5.49777e-18
4810.12526 5.60796e-18
4811.61207 5.88085e-18
4813.09888 6.15356e-18
4814.58568 5.77274e-18
4816.07249 5.39203e-18
4817.55930 5.39608e-18
4819.04611 5.40019e-18
4820.53292 5.70896e-18
4822.01972 6.01752e-18
4823.50653 5.58055e-18
4824.99334 5.14371e-18
4826.48015 5.14720e-18
4827.96696 5.15078e-18
4829.45376 5.56066e-18
4830.94057 5.97040e-18
4832.42738 5.94425e-18
4833.91419 5.91804e-18
4835.40100 5.66435e-18
4836.88780 5.41070e-18
4838.37461 5.20573e-18
4839.86142 5.00076e-18
4841.34823 4.78602e-18
4842.83504 4.57141e-18
4844.32184 4.88474e-18
4845.79861 5.19803e-18
4847.28541 5.42336e-18
4848.77222 5.64859e-18
4850.25903 5.55606e-18
4851.74584 5.46350e-18
4853.23265 5.26094e-18
4854.71945 5.05844e-18
4856.20626 4.99637e-18
4857.69307 4.93434e-18
4859.17988 4.93450e-18
4860.66669 4.93462e-18
4862.15349 4.76236e-18
4863.64030 4.59010e-18
4865.12711 4.41696e-18
4866.61392 4.42692e-18
4868.10073 4.43689e-18
4869.58753 4.44685e-18
4871.07434 4.45681e-18
4872.56115 4.46678e-18
4874.04796 4.47674e-18
4875.53477 4.48670e-18
4877.02157 4.49666e-18
4878.50838 4.50662e-18
4879.99519 4.51658e-18
4881.48200 4.52654e-18
4882.96881 4.53650e-18
4884.45561 4.54645e-18
4885.94242 4.55641e-18
4887.42923 4.56637e-18
4888.90599 4.57632e-18
4890.39280 4.58628e-18
4891.87961 4.59623e-18
4893.36642 4.60619e-18
4894.85322 4.61614e-18
4896.34003 4.62610e-18
4897.82684 4.63605e-18
4899.31365 4.64600e-18
4900.80046 4.65595e-18
4902.28726 4.66590e-18
4903.77407 4.94722e-18
4905.26088 5.22839e-18
4906.74769 5.03737e-18
4908.23450 4.84640e-18
4909.72130 4.80339e-18
4911.20811 4.76033e-18
4912.69492 4.47569e-18
4914.18173 4.19119e-18
4915.66854 4.39257e-18
4917.15534 4.59393e-18
4918.64215 4.79284e-18
4920.12896 4.99168e-18
4921.61577 4.98562e-18
4923.10258 4.97966e-18
4924.58938 5.34692e-18
4926.07619 5.71409e-18
4927.56300 5.79551e-18
4929.04981 5.87682e-18
4930.53662 5.60265e-18
4932.02342 5.32865e-18
4933.50019 5.66567e-18
4934.98699 6.00275e-18
4936.47380 6.59397e-18
4937.96061 7.18506e-18
4939.44742 7.40131e-18
4940.93423 7.61744e-18
4942.42103 7.47548e-18
4943.90784 7.33354e-18
4945.39465 7.22438e-18
4946.88146 7.11536e-18
4948.36827 7.46612e-18
4949.85507 7.81680e-18
4951.34188 7.92677e-18
4952.82869 8.03678e-18
4954.31550 8.31741e-18
4955.80231 8.59799e-18
4957.28911 8.77931e-18
4958.77592 8.96060e-18
4960.26273 9.08096e-18
4961.74954 9.20133e-18
4963.23635 9.41843e-18
4964.72315 9.48678e-18
4966.20996 9.55515e-18
4967.69677 9.62349e-18
4969.18358 9.69183e-18
4970.67039 9.76016e-18
4972.15719 9.82852e-18
4973.64400 9.89684e-18
4975.12076 9.96517e-18
4976.60757 1.00335e-17
4978.09438 1.01018e-17
4979.58119 1.01702e-17
4981.06800 1.02385e-17
4982.55480 1.03068e-17
4984.04161 1.03751e-17
4985.52842 1.04434e-17
4987.01523 1.05117e-17
4988.50204 1.05800e-17
4989.98884 1.06483e-17
4991.47565 1.07165e-17
4992.96246 1.07848e-17
4994.44927 1.08531e-17
4995.93608 1.09214e-17
4997.42288 1.09896e-17
4998.90969 1.10579e-17
5000.39650 1.11262e-17
5001.88331 1.11435e-17
5003.37012 1.11609e-17
5004.85692 1.12490e-17
5006.34373 1.13370e-17
5007.83054 1.11704e-17
5009.31735 1.10039e-17
5010.80416 1.10116e-17
5012.29096 1.09150e-17
5013.77777 1.08185e-17
5015.26458 1.07220e-17
5016.75139 1.06254e-17
5018.22815 1.05289e-17
5019.71496 1.04324e-17
5021.20177 1.03359e-17
5022.68857 1.02394e-17
5024.17538 1.01429e-17
5025.66219 1.00464e-17
5027.14900 9.94993e-18
5028.63581 9.85343e-18
5030.12261 9.75697e-18
5031.60942 9.66051e-18
5033.09623 9.56406e-18
5034.58304 9.46758e-18
5036.06985 9.37114e-18
5037.55665 9.27467e-18
5039.04346 9.17825e-18
5040.53027 9.08182e-18
5042.01708 8.98537e-18
5043.50389 8.88896e-18
5044.99069 8.79252e-18
5046.47750 8.69615e-18
5047.96431 8.59973e-18
5049.45112 8.20019e-18
5050.93793 7.80079e-18
5052.42473 7.79204e-18
5053.91154 7.78338e-18
5055.39835 8.06781e-18
5056.88516 8.35211e-18
5058.37197 8.24703e-18
5059.85877 8.14192e-18
5061.34558 7.95994e-18
5062.82234 7.77794e-18
5064.30915 7.47042e-18
5065.79596 7.16293e-18
5067.28277 6.91596e-18
5068.76958 6.66919e-18
5070.25638 7.10483e-18
5071.74319 7.54039e-18
5073.23000 7.77390e-18
5074.71681 8.00725e-18
5076.20362 7.69214e-18
5077.69042 7.37702e-18
5079.17723 6.99421e-18
5080.66404 6.61158e-18
5082.15085 6.78640e-18
5083.63766 6.96116e-18
5085.12446 6.93983e-18
5086.61127 6.91847e-18
5088.09808 6.84259e-18
5089.58489 6.76681e-18
5091.07170 7.04049e-18
5092.55850 7.31420e-18
5094.04531 7.70965e-18
5095.53212 8.10489e-18
5097.01893 7.79284e-18
5098.50574 7.48080e-18
5099.99254 7.09556e-18
5101.47935 6.71059e-18
5102.96616 7.18362e-18
5104.45297 7.65647e-18
5105.92973 7.61918e-18
5107.41654 7.58197e-18
5108.90335 7.78570e-18
5110.39015 7.98941e-18
5111.87696 8.13597e-18
5113.36377 8.28247e-18
5114.85058 8.30153e-18
5116.33739 8.32057e-18
5117.82419 8.29311e-18
5119.31100 8.26561e-18
5120.79781 8.12086e-18
5122.28462 7.97622e-18
5123.77143 8.14767e-18
5125.25823 8.31906e-18
5126.74504 8.28971e-18
5128.23185 8.26034e-18
5129.71866 8.17639e-18
5131.20547 8.09256e-18
5132.69227 8.42627e-18
5134.17908 8.75989e-18
5135.66589 8.82934e-18
5137.15270 8.89869e-18
5138.63951 8.65956e-18
5140.12631 8.42056e-18
5141.61312 8.59787e-18
5143.09993 8.77515e-18
5144.58674 8.90885e-18
5146.07355 9.04251e-18
5147.55031 9.05610e-18
5149.03712 9.06970e-18
5150.52392 9.09223e-18
5152.01073 9.11473e-18
5153.49754 9.02025e-18
5154.98435 8.92580e-18
5156.47116 8.90831e-18
5157.95796 8.89085e-18
5159.44477 8.94360e-18
5160.93158 8.99633e-18
5162.41839 9.00176e-18
5163.90520 9.00721e-18
5165.39200 9.05178e-18
5166.87881 9.09628e-18
5168.36562 8.93778e-18
5169.85243 8.77940e-18
5171.33924 8.96282e-18
5172.82604 9.14624e-18
5174.31285 9.38589e-18
5175.79966 9.62544e-18
5177.28647 9.57247e-18
5178.77328 9.51957e-18
5180.26008 9.68928e-18
5181.74689 9.85896e-18
5183.23370 9.94251e-18
5184.72051 1.00260e-17
5186.20732 9.88234e-18
5187.69412 9.73868e-18
5189.18093 9.56287e-18
5190.66774 9.38716e-18
5192.15455 9.48768e-18
5193.63131 9.58820e-18
5195.11812 9.72546e-18
5196.60493 9.86262e-18
5198.09173 9.70083e-18
5199.57854 9.53908e-18
5201.06535 9.47488e-18
5202.55216 9.41070e-18
5204.03897 9.41806e-18
5205.52577 9.42541e-18
5207.01258 9.43182e-18
5208.49939 9.43820e-18
5209.98620 9.34645e-18
5211.47301 9.25475e-18
5212.95981 9.26926e-18
5214.44662 9.28372e-18
5215.93343 9.12846e-18
5217.42024 8.97323e-18
5218.90705 8.89665e-18
5220.39385 8.82027e-18
5221.88066 9.34404e-18
5223.36747 9.86760e-18
5224.85428 9.79170e-18
5226.34109 9.71582e-18
5227.82789 9.68642e-18
5229.31470 9.65702e-18
5230.80151 9.64654e-18
5232.28832 9.63609e-18
5233.77513 9.69275e-18
5235.25189 9.74936e-18
5236.73870 9.61497e-18
5238.22550 9.48059e-18
5239.71231 9.33693e-18
5241.19912 9.19341e-18
5242.68593 9.49013e-18
5244.17274 9.78678e-18
5245.65954 9.90949e-18
5247.14635 1.00321e-17
5248.63316 9.82111e-18
5250.11997 9.61013e-18
5251.60678 9.31998e-18
5253.09358 9.03001e-18
5254.58039 9.27262e-18
5256.06720 9.51527e-18
5257.55401 9.93377e-18
5259.04082 1.03520e-17
5260.52762 1.00097e-17
5262.01443 9.66757e-18
5263.50124 9.99078e-18
5264.98805 1.03140e-17
5266.47486 1.05873e-17
5267.96166 1.08605e-17
5269.44847 1.07694e-17
5270.93528 1.06783e-17
5272.42209 1.04079e-17
5273.90890 1.01377e-17
5275.39570 1.04311e-17
5276.87247 1.07244e-17
5278.35927 1.10164e-17
5279.84608 1.13081e-17
5281.33289 1.08969e-17
5282.81970 1.04858e-17
5284.30651 1.05606e-17
5285.79331 1.06354e-17
5287.28012 1.06402e-17
5288.76693 1.06449e-17
5290.25374 1.07503e-17
5291.74055 1.08558e-17
5293.22735 1.09652e-17
5294.71416 1.10746e-17
5296.20097 1.10191e-17
5297.68778 1.09637e-17
5299.17459 1.08287e-17
5300.66139 1.06939e-17
5302.14820 1.07960e-17
5303.63501 1.08982e-17
5305.12182 1.09282e-17
5306.60863 1.09582e-17
5308.09543 1.09931e-17
5309.58224 1.10281e-17
5311.06905 1.13086e-17
5312.55586 1.15890e-17
5314.04267 1.16528e-17
5315.52947 1.17167e-17
5317.01628 1.20342e-17
5318.50309 1.23516e-17
5319.97985 1.26281e-17
5321.46666 1.29044e-17
5322.95347 1.26232e-17
5324.44028 1.23419e-17
5325.92708 1.19709e-17
5327.41389 1.16002e-17
5328.90070 1.19291e-17
5330.38751 1.22579e-17
5331.87432 1.23392e-17
5333.36112 1.24203e-17
5334.84793 1.22073e-17
5336.33474 1.19943e-17
5337.82155 1.19918e-17
5339.30836 1.19895e-17
5340.79516 1.24978e-17
5342.28197 1.30060e-17
5343.76878 1.33329e-17
5345.25559 1.36596e-17
5346.74240 1.35481e-17
5348.22920 1.34366e-17
5349.71601 1.29824e-17
5351.20282 1.25284e-17
5352.68963 1.26491e-17
5354.17644 1.27698e-17
5355.66324 1.29541e-17
5357.15005 1.31384e-17
5358.63686 1.30114e-17
5360.12367 1.28845e-17
5361.61048 1.29728e-17
5363.09728 1.30611e-17
5364.57405 1.30547e-17
5366.06085 1.30483e-17
5367.54766 1.27148e-17
5369.03447 1.23814e-17
5370.52128 1.24208e-17
5372.00809 1.24603e-17
5373.49489 1.29567e-17
5374.98170 1.34530e-17
5376.46851 1.36488e-17
5377.95532 1.38444e-17
5379.44213 1.34583e-17
5380.92893 1.30724e-17
5382.41574 1.31848e-17
5383.90255 1.32971e-17
5385.38936 1.33683e-17
5386.87617 1.34395e-17
5388.36297 1.34800e-17
5389.84978 1.35205e-17
5391.33659 1.37454e-17
5392.82340 1.39701e-17
5394.31021 1.37446e-17
5395.79701 1.35193e-17
5397.28382 1.34619e-17
5398.77063 1.34045e-17
5400.25744 1.32255e-17
5401.74425 1.30465e-17
5403.23105 1.31352e-17
5404.71786 1.32238e-17
5406.20467 1.32738e-17
5407.68143 1.33239e-17
5409.16824 1.33889e-17
5410.65505 1.34537e-17
5412.14186 1.29846e-17
5413.62866 1.25157e-17
5415.11547 1.24464e-17
5416.60228 1.23772e-17
5418.08909 1.27070e-17
5419.57590 1.30366e-17
5421.06270 1.30632e-17
5422.54951 1.30899e-17
5424.03632 1.30695e-17
5425.52313 1.30492e-17
5427.00994 1.30361e-17
5428.49674 1.30229e-17
5429.98355 1.31127e-17
5431.47036 1.32023e-17
5432.95717 1.26559e-17
5434.44398 1.21098e-17
5435.93078 1.19706e-17
5437.41759 1.18317e-17
5438.90440 1.21536e-17
5440.39121 1.24755e-17
5441.87802 1.28500e-17
5443.36482 1.32244e-17
5444.85163 1.36566e-17
5446.33844 1.40887e-17
5447.82525 1.42801e-17
5449.30201 1.44713e-17
5450.78882 1.43891e-17
5452.27563 1.43068e-17
5453.76243 1.40775e-17
5455.24924 1.38482e-17
5456.73605 1.36096e-17
5458.22286 1.33711e-17
5459.70967 1.36241e-17
5461.19647 1.38771e-17
5462.68328 1.41668e-17
5464.17009 1.44564e-17
5465.65690 1.44257e-17
5467.14371 1.43951e-17
5468.63051 1.46680e-17
5470.11732 1.49406e-17
5471.60413 1.47953e-17
5473.09094 1.46498e-17
5474.57775 1.43053e-17
5476.06455 1.39609e-17
5477.55136 1.41987e-17
5479.03817 1.44364e-17
5480.52498 1.47955e-17
5482.01179 1.51544e-17
5483.49859 1.50107e-17
5484.98540 1.48672e-17
5486.47221 1.49857e-17
5487.95902 1.51044e-17
5489.44583 1.54780e-17
5490.93263 1.58512e-17
5492.41944 1.54038e-17
5493.89620 1.49565e-17
5495.38301 1.47728e-17
5496.86982 1.45894e-17
5498.35663 1.51392e-17
5499.84344 1.56890e-17
5501.33024 1.65233e-17
5502.81705 1.73572e-17
5504.30386 1.71139e-17
5505.79067 1.68707e-17
5507.27748 1.68747e-17
5508.76428 1.68786e-17
5510.25109 1.69892e-17
5511.73790 1.70997e-17
5513.22471 1.67646e-17
5514.71152 1.64297e-17
5516.19832 1.63011e-17
5517.68513 1.61726e-17
5519.17194 1.64581e-17
5520.65875 1.67435e-17
5522.14556 1.67290e-17
5523.63236 1.67145e-17
5525.11917 1.66499e-17
5526.60598 1.65853e-17
5528.09279 1.65176e-17
5529.57960 1.64500e-17
5531.06640 1.65007e-17
5532.55321 1.65514e-17
5534.04002 1.63750e-17
5535.51678 1.61985e-17
5537.00359 1.60823e-17
5538.49040 1.59662e-17
5539.97721 1.61753e-17
5541.46401 1.63843e-17
5542.95082 1.63870e-17
5544.43763 1.63896e-17
5545.92444 1.63719e-17
5547.41125 1.63543e-17
5548.89805 1.64157e-17
5550.38486 1.64769e-17
5551.87167 1.62806e-17
5553.35848 1.60845e-17
5554.84529 1.61686e-17
5556.33209 1.62527e-17
5557.81890 1.63356e-17
5559.30571 1.64181e-17
5560.79252 1.56483e-17
5562.27933 1.48788e-17
5563.76613 1.50309e-17
5565.25294 1.51830e-17
5566.73975 1.53736e-17
5568.22656 1.55639e-17
5569.71337 1.47781e-17
5571.20017 1.39927e-17
5572.68698 1.43287e-17
5574.17379 1.46645e-17
5575.66060 1.46133e-17
5577.14741 1.45621e-17
5578.62417 1.47902e-17
5580.11098 1.50182e-17
5581.59778 1.51520e-17
5583.08459 1.52857e-17
5584.57140 1.52206e-17
5586.05821 1.51554e-17
5587.54502 1.47968e-17
5589.03182 1.44382e-17
5590.51863 1.40888e-17
5592.00544 1.37397e-17
5593.49225 1.41373e-17
5594.97906 1.45349e-17
5596.46586 1.48704e-17
5597.95267 1.52057e-17
5599.43948 1.50269e-17
5600.92629 1.48483e-17
5602.41310 1.49301e-17
5603.89990 1.50120e-17
5605.38671 1.52054e-17
5606.87352 1.53986e-17
5608.36033 1.52612e-17
5609.84714 1.51237e-17
5611.33394 1.45969e-17
5612.82075 1.40703e-17
5614.30756 1.40540e-17
5615.79437 1.40378e-17
5617.28118 1.43823e-17
5618.76798 1.47267e-17
5620.25479 1.47265e-17
5621.74160 1.47262e-17
5623.21836 1.46715e-17
5624.70517 1.46169e-17
5626.19198 1.47778e-17
5627.67879 1.49387e-17
5629.16559 1.50652e-17
5630.65240 1.51916e-17
5632.13921 1.49776e-17
5633.62602 1.47636e-17
5635.11283 1.45030e-17
5636.59963 1.42425e-17
5638.08644 1.41774e-17
5639.57325 1.41124e-17
5641.06006 1.44945e-17
5642.54687 1.48765e-17
5644.03367 1.49269e-17
5645.52048 1.49774e-17
5647.00729 1.50315e-17
5648.49410 1.50856e-17
5649.98091 1.50627e-17
5651.46771 1.50397e-17
5652.95452 1.45414e-17
5654.44133 1.40434e-17
5655.92814 1.41517e-17
5657.41495 1.42597e-17
5658.90175 1.37599e-17
5660.38856 1.32602e-17
5661.87537 1.28631e-17
5663.36218 1.24662e-17
5664.84899 1.25767e-17
5666.32575 1.26871e-17
5667.81256 1.27672e-17
5669.29936 1.28473e-17
5670.78617 1.28254e-17
5672.27298 1.28035e-17
5673.75979 1.26024e-17
5675.24660 1.24013e-17
5676.73340 1.20164e-17
5678.22021 1.16316e-17
5679.70702 1.13804e-17
5681.19383 1.11291e-17
5682.68064 1.10278e-17
5684.16744 1.09262e-17
5685.65425 1.04125e-17
5687.14106 9.89898e-18
5688.62787 9.88798e-18
5690.11468 9.87698e-18
5691.60148 9.82930e-18
5693.08829 9.78138e-18
5694.57510 9.07044e-18
5696.06191 8.35960e-18
5697.54872 7.82293e-18
5699.03552 7.28649e-18
5700.52233 7.29164e-18
5702.00914 7.29680e-18
5703.49595 7.32318e-18
5704.98276 7.34952e-18
5706.46956 7.26280e-18
5707.95637 7.17603e-18
5709.43313 6.94389e-18
5710.91994 6.71169e-18
5712.40675 6.29948e-18
5713.89356 5.88740e-18
5715.38037 5.79518e-18
5716.86717 5.70313e-18
5718.35398 6.09334e-18
5719.84079 6.48335e-18
5721.32760 6.39046e-18
5722.81441 6.29751e-18
5724.30121 6.06442e-18
5725.78802 5.83144e-18
5727.27483 5.88841e-18
5728.76164 5.94536e-18
5730.24845 5.93507e-18
5731.73525 5.92478e-18
5733.22206 5.92997e-18
5734.70887 5.93517e-18
5736.19568 5.93628e-18
5737.68249 5.93753e-18
5739.16929 6.28200e-18
5740.65610 6.62645e-18
5742.14291 6.94108e-18
5743.62972 7.25561e-18
5745.11653 7.31592e-18
5746.60333 7.37614e-18
5748.09014 7.19178e-18
5749.57695 7.00753e-18
5751.06376 7.08941e-18
5752.54052 7.17134e-18
5754.02733 7.37382e-18
5755.51414 7.57628e-18
5757.00094 7.75043e-18
5758.48775 7.92461e-18
5759.97456 8.18820e-18
5761.46137 8.45173e-18
5762.94818 8.58435e-18
5764.43498 8.71699e-18
5765.92179 8.91997e-18
5767.40860 9.12303e-18
5768.89541 9.54895e-18
5770.38222 9.97472e-18
5771.86902 1.00519e-17
5773.35583 1.01289e-17
5774.84264 9.98718e-18
5776.32945 9.84552e-18
5777.81626 9.90015e-18
5779.30306 9.95478e-18
5780.78987 1.00056e-17
5782.27668 1.00565e-17
5783.76349 1.02650e-17
5785.25030 1.04739e-17
5786.73710 1.13819e-17
5788.22391 1.22896e-17
5789.71072 1.27066e-17
5791.19753 1.31233e-17
5792.68434 1.30241e-17
5794.17114 1.29250e-17
5795.64791 1.32875e-17
5797.13471 1.36499e-17
5798.62152 1.37540e-17
5800.10833 1.38579e-17
5801.59514 1.35262e-17
5803.08195 1.31947e-17
5804.56875 1.36595e-17
5806.05556 1.41242e-17
5807.54237 1.46166e-17
5809.02918 1.51089e-17
5810.51599 1.52627e-17
5812.00279 1.54164e-17
5813.48960 1.52609e-17
5814.97641 1.51056e-17
5816.46322 1.54087e-17
5817.95003 1.57119e-17
5819.43683 1.62775e-17
5820.92364 1.68429e-17
5822.41045 1.68873e-17
5823.89726 1.69316e-17
5825.38407 1.67910e-17
5826.87087 1.66505e-17
5828.35768 1.69860e-17
5829.84449 1.73214e-17
5831.33130 1.74666e-17
5832.81811 1.76117e-17
5834.30491 1.73124e-17
5835.79172 1.70134e-17
5837.26848 1.72695e-17
5838.75529 1.75258e-17
5840.24210 1.82443e-17
5841.72891 1.89625e-17
5843.21572 1.91011e-17
5844.70252 1.92395e-17
5846.18933 1.91088e-17
5847.67614 1.89783e-17
5849.16295 1.92753e-17
5850.64976 1.95722e-17
5852.13656 1.95325e-17
5853.62337 1.94929e-17
5855.11018 1.97355e-17
5856.59699 1.99782e-17
5858.08380 2.01417e-17
5859.57060 2.03052e-17
5861.05741 2.04413e-17
5862.54422 2.05772e-17
5864.03103 2.05149e-17
5865.51784 2.04525e-17
5867.00464 2.01147e-17
5868.49145 1.97768e-17
5869.97826 1.93095e-17
5871.46507 1.88424e-17
5872.95188 1.88269e-17
5874.43868 1.88118e-17
5875.92549 1.98785e-17
5877.41230 2.09448e-17
5878.89911 2.09728e-17
5880.38592 2.10005e-17
5881.86268 2.02585e-17
5883.34949 1.95167e-17
5884.83629 1.93460e-17
5886.32310 1.91755e-17
5887.80991 1.92909e-17
5889.29672 1.94064e-17
5890.78353 1.98200e-17
5892.27033 2.02335e-17
5893.75714 2.07172e-17
5895.24395 2.12007e-17
5896.73076 2.13002e-17
5898.21757 2.13997e-17
5899.70437 2.14393e-17
5901.19118 2.14789e-17
5902.67799 2.15355e-17
5904.16480 2.15919e-17
5905.65161 2.12805e-17
5907.13841 2.09693e-17
5908.62522 2.09261e-17
5910.11203 2.08830e-17
5911.59884 2.10279e-17
5913.08565 2.11725e-17
5914.57245 2.08845e-17
5916.05926 2.05967e-17
5917.54607 2.06050e-17
5919.03288 2.06131e-17
5920.51969 2.00483e-17
5922.00649 1.94837e-17
5923.49330 1.90885e-17
5924.97006 1.86936e-17
5926.45687 1.89446e-17
5927.94368 1.91957e-17
5929.43049 1.97366e-17
5930.91730 2.02774e-17
5932.40410 2.07515e-17
5933.89091 2.12255e-17
5935.37772 2.12901e-17
5936.86453 2.13547e-17
5938.35134 2.13587e-17
5939.83814 2.13627e-17
5941.32495 2.14706e-17
5942.81176 2.15783e-17
5944.29857 2.11185e-17
5945.78538 2.06587e-17
5947.27218 2.01243e-17
5948.75899 1.95901e-17
5950.24580 1.96735e-17
5951.73261 1.97569e-17
5953.21942 1.99495e-17
5954.70622 2.01421e-17
5956.19303 2.03418e-17
5957.67984 2.05414e-17
5959.16665 2.05597e-17
5960.65346 2.05779e-17
5962.14026 2.02677e-17
5963.62707 1.99576e-17
5965.11388 1.99231e-17
5966.60069 1.98887e-17
5968.07745 1.98962e-17
5969.56426 1.99034e-17
5971.05107 1.93997e-17
5972.53787 1.88962e-17
5974.02468 1.88054e-17
5975.51149 1.87147e-17
5976.99830 1.89598e-17
5978.48511 1.92047e-17
5979.97191 1.92175e-17
5981.45872 1.92303e-17
5982.94553 1.92268e-17
5984.43234 1.92233e-17
5985.91915 1.89799e-17
5987.40595 1.87367e-17
5988.89276 1.90592e-17
5990.37957 1.93816e-17
5991.86638 1.93704e-17
5993.35319 1.93589e-17
5994.83999 1.88423e-17
5996.32680 1.83257e-17
5997.81361 1.80020e-17
5999.30042 1.76783e-17
6000.78723 1.74623e-17
6002.27403 1.72464e-17
6003.76084 1.72465e-17
6005.24765 1.72467e-17
6006.73446 1.75538e-17
6008.22127 1.78608e-17
6009.70807 1.80811e-17
6011.19488 1.83012e-17
6012.67164 1.80034e-17
6014.15845 1.77056e-17
6015.64526 1.74895e-17
6017.13207 1.72735e-17
6018.61888 1.73494e-17
6020.10568 1.74252e-17
6021.59249 1.73090e-17
6023.07930 1.71928e-17
6024.56611 1.69874e-17
6026.05292 1.67821e-17
6027.53972 1.67917e-17
6029.02653 1.68013e-17
6030.51334 1.67549e-17
6032.00015 1.67083e-17
6033.48696 1.65322e-17
6034.97376 1.63561e-17
6036.46057 1.62208e-17
6037.94738 1.60856e-17
6039.43419 1.61601e-17
6040.92100 1.62346e-17
6042.40780 1.61446e-17
6043.89461 1.60545e-17
6045.38142 1.58617e-17
6046.86823 1.56690e-17
6048.35504 1.56091e-17
6049.84184 1.55491e-17
6051.32865 1.53611e-17
6052.81546 1.51733e-17
6054.29222 1.52092e-17
6055.77903 1.52451e-17
6057.26584 1.52161e-17
6058.75265 1.51870e-17
6060.23945 1.51730e-17
6061.72626 1.51591e-17
6063.21307 1.53612e-17
6064.69988 1.55632e-17
6066.18669 1.53592e-17
6067.67349 1.51552e-17
6069.16030 1.50546e-17
6070.64711 1.49542e-17
6072.13392 1.50353e-17
6073.62073 1.51164e-17
6075.10753 1.51274e-17
6076.59434 1.51384e-17
6078.08115 1.50649e-17
6079.56796 1.49914e-17
6081.05477 1.47112e-17
6082.54157 1.44311e-17
6084.02838 1.44526e-17
6085.51519 1.44742e-17
6087.00200 1.46511e-17
6088.48881 1.48280e-17
6089.97561 1.50562e-17
6091.46242 1.52844e-17
6092.94923 1.53038e-17
6094.43604 1.53230e-17
6095.91280 1.49285e-17
6097.39961 1.45342e-17
6098.88642 1.44347e-17
6100.37322 1.43356e-17
6101.86003 1.48513e-17
6103.34684 1.53669e-17
6104.83365 1.56742e-17
6106.32046 1.59813e-17
6107.80726 1.56199e-17
6109.29407 1.52585e-17
6110.78088 1.48926e-17
6112.26769 1.45269e-17
6113.75450 1.46558e-17
6115.24130 1.47845e-17
6116.72811 1.46583e-17
6118.21492 1.45321e-17
6119.70173 1.42423e-17
6121.18854 1.39528e-17
6122.67534 1.41451e-17
6124.16215 1.43373e-17
6125.64896 1.44986e-17
6127.13577 1.46598e-17
6128.62258 1.44782e-17
6130.10938 1.42966e-17
6131.59619 1.41507e-17
6133.08300 1.40048e-17
6134.56981 1.41587e-17
6136.05662 1.43127e-17
6137.54342 1.44257e-17
6139.03023 1.45386e-17
6140.51704 1.42178e-17
6141.99380 1.38973e-17
6143.48061 1.40686e-17
6144.96742 1.42400e-17
6146.45423 1.44415e-17
6147.94103 1.46429e-17
6149.42784 1.44546e-17
6150.91465 1.42663e-17
6152.40146 1.39942e-17
6153.88827 1.37222e-17
6155.37507 1.36809e-17
6156.86188 1.36398e-17
6158.34869 1.40203e-17
6159.83550 1.44007e-17
6161.32231 1.44531e-17
6162.80911 1.45055e-17
6164.29592 1.42699e-17
6165.78273 1.40345e-17
6167.26954 1.42994e-17
6168.75635 1.45642e-17
6170.24315 1.46575e-17
6171.72996 1.47508e-17
6173.21677 1.49096e-17
6174.70358 1.50682e-17
6176.19039 1.48428e-17
6177.67719 1.46173e-17
6179.16400 1.42470e-17
6180.65081 1.38768e-17
6182.13762 1.38643e-17
6183.61438 1.38517e-17
6185.10119 1.36442e-17
6186.58800 1.34369e-17
6188.07480 1.33252e-17
6189.56161 1.32138e-17
6191.04842 1.33974e-17
6192.53523 1.35810e-17
6194.02204 1.37870e-17
6195.50884 1.39929e-17
6196.99565 1.43390e-17
6198.48246 1.46848e-17
6199.96927 1.45671e-17
6201.45608 1.44492e-17
6202.94288 1.41160e-17
6204.42969 1.37832e-17
6205.91650 1.42695e-17
6207.40331 1.47557e-17
6208.89012 1.51584e-17
6210.37692 1.55608e-17
6211.86373 1.50623e-17
6213.35054 1.45640e-17
6214.83735 1.43102e-17
6216.32416 1.40565e-17
6217.81096 1.42061e-17
6219.29777 1.43556e-17
6220.78458 1.41771e-17
6222.27139 1.39988e-17
6223.75820 1.41923e-17
6225.24500 1.43857e-17
6226.72177 1.47343e-17
6228.20857 1.50825e-17
6229.69538 1.47362e-17
6231.18219 1.43901e-17
6232.66900 1.45018e-17
6234.15581 1.46136e-17
6235.64261 1.47431e-17
6237.12942 1.48724e-17
6238.61623 1.44113e-17
6240.10304 1.39503e-17
6241.58985 1.38451e-17
6243.07665 1.37401e-17
6244.56346 1.40745e-17
6246.05027 1.44088e-17
6247.53708 1.44057e-17
6249.02389 1.44025e-17
6250.51069 1.41463e-17
6251.99750 1.38902e-17
6253.48431 1.40827e-17
6254.97112 1.42751e-17
6256.45793 1.39982e-17
6257.94473 1.37214e-17
6259.43154 1.37471e-17
6260.91835 1.37731e-17
6262.40516 1.42994e-17
6263.89197 1.48252e-17
6265.37877 1.44014e-17
6266.86558 1.39776e-17
6268.35239 1.36533e-17
6269.82915 1.33292e-17
6271.31596 1.35591e-17
6272.80277 1.37889e-17
6274.28958 1.37612e-17
6275.77638 1.37333e-17
6277.26319 1.35952e-17
6278.75000 1.34573e-17
6280.23681 1.38244e-17
6281.72362 1.41915e-17
6283.21042 1.45651e-17
6284.69723 1.49383e-17
6286.18404 1.45585e-17
6287.67085 1.41785e-17
6289.15766 1.36236e-17
6290.64446 1.30689e-17
6292.13127 1.29417e-17
6293.61808 1.28146e-17
6295.10489 1.29067e-17
6296.59170 1.29988e-17
6298.07850 1.31807e-17
6299.56531 1.33626e-17
6301.05212 1.33977e-17
6302.53893 1.34329e-17
6304.02574 1.34009e-17
6305.51254 1.33689e-17
6306.99935 1.32900e-17
6308.48616 1.32110e-17
6309.97297 1.30089e-17
6311.45978 1.28068e-17
6312.93654 1.29716e-17
6314.42335 1.31362e-17
6315.91015 1.31393e-17
6317.39696 1.31424e-17
6318.88377 1.30433e-17
6320.37058 1.29443e-17
6321.85739 1.28848e-17
6323.34419 1.28254e-17
6324.83100 1.28916e-17
6326.31781 1.29577e-17
6327.80462 1.29024e-17
6329.29143 1.28472e-17
6330.77823 1.31265e-17
6332.26504 1.34058e-17
6333.75185 1.36622e-17
6335.23866 1.39184e-17
6336.72547 1.36600e-17
6338.21227 1.34018e-17
6339.69908 1.34635e-17
6341.18589 1.35250e-17
6342.67270 1.33020e-17
6344.15951 1.30790e-17
6345.64631 1.28265e-17
6347.13312 1.25742e-17
6348.61993 1.25778e-17
6350.10674 1.25815e-17
6351.59355 1.26484e-17
6353.08035 1.27152e-17
6354.56716 1.28655e-17
6356.04392 1.30155e-17
6357.53073 1.27372e-17
6359.01754 1.24591e-17
6360.50435 1.26760e-17
6361.99116 1.28926e-17
6363.47796 1.26546e-17
6364.96477 1.24166e-17
6366.45158 1.21410e-17
6367.93839 1.18656e-17
6369.42520 1.21442e-17
6370.91200 1.24228e-17
6372.39881 1.26578e-17
6373.88562 1.28928e-17
6375.37243 1.28537e-17
6376.85924 1.28146e-17
6378.34604 1.26558e-17
6379.83285 1.24971e-17
6381.31966 1.25679e-17
6382.80647 1.26387e-17
6384.29328 1.25489e-17
6385.78008 1.24592e-17
6387.26689 1.25634e-17
6388.75370 1.26676e-17
6390.24051 1.27308e-17
6391.72732 1.27938e-17
6393.21412 1.25930e-17
6394.70093 1.23925e-17
6396.18774 1.26994e-17
6397.67455 1.30062e-17
6399.15131 1.32693e-17
6400.63812 1.35322e-17
6402.12493 1.33018e-17
6403.61173 1.30715e-17
6405.09854 1.31640e-17
6406.58535 1.32565e-17
6408.07216 1.33812e-17
6409.55897 1.35058e-17
6411.04577 1.33440e-17
6412.53258 1.31824e-17
6414.01939 1.30979e-17
6415.50620 1.30134e-17
6416.99301 1.27901e-17
6418.47981 1.25667e-17
6419.96662 1.21316e-17
6421.45343 1.16969e-17
6422.94024 1.19110e-17
6424.42705 1.21253e-17
6425.91385 1.27200e-17
6427.40066 1.33145e-17
6428.88747 1.34914e-17
6430.37428 1.36681e-17
6431.86109 1.34390e-17
6433.34789 1.32099e-17
6434.83470 1.31597e-17
6436.32151 1.31094e-17
6437.80832 1.30609e-17
6439.29513 1.30123e-17
6440.78193 1.28899e-17
6442.26874 1.27675e-17
6443.74550 1.27783e-17
6445.23231 1.27893e-17
6446.71912 1.30831e-17
6448.20593 1.33766e-17
6449.69274 1.31551e-17
6451.17954 1.29336e-17
6452.66635 1.27687e-17
6454.15316 1.26039e-17
6455.63997 1.28827e-17
6457.12678 1.31614e-17
6458.61358 1.31462e-17
6460.10039 1.31309e-17
6461.58720 1.30427e-17
6463.07401 1.29546e-17
6464.56082 1.33419e-17
6466.04762 1.37290e-17
6467.53443 1.36057e-17
6469.02124 1.34823e-17
6470.50805 1.31550e-17
6471.99486 1.28278e-17
6473.48166 1.25725e-17
6474.96847 1.23171e-17
6476.45528 1.17824e-17
6477.94209 1.12479e-17
6479.42890 1.12375e-17
6480.91570 1.12270e-17
6482.40251 1.11179e-17
6483.88932 1.10087e-17
6485.36608 1.08646e-17
6486.85289 1.07203e-17
6488.33970 1.03256e-17
6489.82651 9.93109e-18
6491.31331 9.83486e-18
6492.80012 9.73873e-18
6494.28693 9.82857e-18
6495.77374 9.91829e-18
6497.26055 9.78832e-18
6498.74735 9.65830e-18
6500.23416 9.40937e-18
6501.72097 9.16046e-18
6503.20778 8.90131e-18
6504.69459 8.64244e-18
6506.18139 8.95642e-18
6507.66820 9.27031e-18
6509.15501 9.42787e-18
6510.64182 9.58525e-18
6512.12863 9.40893e-18
6513.61543 9.23253e-18
6515.10224 8.87284e-18
6516.58905 8.51332e-18
6518.07586 8.44990e-18
6519.56267 8.38666e-18
6521.04947 8.68122e-18
6522.53628 8.97566e-18
6524.02309 9.04964e-18
6525.50990 9.12365e-18
6526.99671 9.24456e-18
6528.47347 9.36541e-18
6529.96028 9.37666e-18
6531.44708 9.38783e-18
6532.93389 9.22814e-18
6534.42070 9.06865e-18
6535.90751 9.35028e-18
6537.39432 9.63198e-18
6538.88112 1.00605e-17
6540.36793 1.04887e-17
6541.85474 1.01643e-17
6543.34155 9.84001e-18
6544.82836 9.77046e-18
6546.31516 9.70108e-18
6547.80197 9.98114e-18
6549.28878 1.02611e-17
6550.77559 1.04215e-17
6552.26240 1.05818e-17
6553.74920 1.07225e-17
6555.23601 1.08632e-17
6556.72282 1.08319e-17
6558.20963 1.08006e-17
6559.69644 1.07701e-17
6561.18324 1.07397e-17
6562.67005 1.10459e-17
6564.15686 1.11854e-17
6565.64367 1.13248e-17
6567.13048 1.14642e-17
6568.61728 1.16037e-17
6570.10409 1.17432e-17
6571.59090 1.18826e-17
6573.06766 1.20220e-17
6574.55447 1.21614e-17
6576.04128 1.23009e-17
6577.52809 1.24403e-17
6579.01489 1.25797e-17
6580.50170 1.27191e-17
6581.98851 1.28585e-17
6583.47532 1.29979e-17
6584.96213 1.31373e-17
6586.44893 1.32767e-17
6587.93574 1.34161e-17
6589.42255 1.35555e-17
6590.90936 1.36949e-17
6592.39617 1.38343e-17
6593.88297 1.39736e-17
6595.36978 1.41130e-17
6596.85659 1.42524e-17
6598.34340 1.43918e-17
6599.83021 1.45312e-17
6601.31701 1.46705e-17
6602.80382 1.48099e-17
6604.29063 1.49492e-17
6605.77744 1.50886e-17
6607.26425 1.52279e-17
6608.75105 1.53672e-17
6610.23786 1.55066e-17
6611.72467 1.56459e-17
6613.21148 1.57853e-17
6614.68824 1.59246e-17
6616.17505 1.60639e-17
6617.66186 1.62032e-17
6619.14866 1.63426e-17
6620.63547 1.64819e-17
6622.12228 1.66212e-17
6623.60909 1.67605e-17
6625.09590 1.62048e-17
6626.58270 1.56495e-17
6628.06951 1.57892e-17
6629.55632 1.59290e-17
6631.04313 1.62047e-17
6632.52994 1.64802e-17
6634.01674 1.63904e-17
6635.50355 1.63006e-17
6636.99036 1.62314e-17
6638.47717 1.61622e-17
6639.96398 1.61089e-17
6641.45078 1.60556e-17
6642.93759 1.61704e-17
6644.42440 1.62850e-17
6645.91121 1.61409e-17
6647.39802 1.59969e-17
6648.88482 1.59972e-17
6650.37163 1.59976e-17
6651.85844 1.62968e-17
6653.34525 1.65959e-17
6654.83206 1.65429e-17
6656.30882 1.64898e-17
6657.79563 1.62157e-17
6659.28243 1.59418e-17
6660.76924 1.58980e-17
6662.25605 1.58543e-17
6663.74286 1.59782e-17
6665.22967 1.61022e-17
6666.71647 1.62669e-17
6668.20328 1.64313e-17
6669.69009 1.62821e-17
6671.17690 1.61330e-17
6672.66371 1.61879e-17
6674.15051 1.62427e-17
6675.63732 1.63388e-17
6677.12413 1.64348e-17
6678.61094 1.64604e-17
6680.09775 1.64860e-17
6681.58455 1.65464e-17
6683.07136 1.66066e-17
6684.55817 1.63538e-17
6686.04498 1.61010e-17
6687.53179 1.59953e-17
6689.01859 1.58897e-17
6690.50540 1.59247e-17
6691.99221 1.59596e-17
6693.47902 1.59635e-17
6694.96583 1.59672e-17
6696.45263 1.57272e-17
6697.93944 1.54872e-17
6699.42625 1.51254e-17
6700.91306 1.47639e-17
6702.38982 1.50000e-17
6703.87663 1.52361e-17
6705.36344 1.53621e-17
6706.85024 1.54880e-17
6708.33705 1.55654e-17
6709.82386 1.56427e-17
6711.31067 1.53566e-17
6712.79748 1.50708e-17
6714.28428 1.51032e-17
6715.77109 1.51359e-17
6717.25790 1.54737e-17
6718.74471 1.58115e-17
6720.23152 1.59325e-17
6721.71832 1.60532e-17
6723.20513 1.57451e-17
6724.69194 1.54371e-17
6726.17875 1.52778e-17
6727.66556 1.51188e-17
6729.15236 1.53557e-17
6730.63917 1.55924e-17
6732.12598 1.55153e-17
6733.61279 1.54382e-17
6735.09960 1.51529e-17
6736.58640 1.48678e-17
6738.07321 1.49036e-17
6739.56002 1.49395e-17
6741.04683 1.49340e-17
6742.53364 1.49285e-17
6744.02044 1.50745e-17
6745.49721 1.52205e-17
6746.98401 1.55018e-17
6748.47082 1.57830e-17
6749.95763 1.57217e-17
6751.44444 1.56605e-17
6752.93125 1.55567e-17
6754.41805 1.54528e-17
6755.90486 1.50673e-17
6757.39167 1.46818e-17
6758.87848 1.43902e-17
6760.36529 1.40989e-17
6761.85209 1.43163e-17
6763.33890 1.45335e-17
6764.82571 1.43595e-17
6766.31252 1.41857e-17
6767.79933 1.42164e-17
6769.28613 1.42471e-17
6770.77294 1.43772e-17
6772.25975 1.45070e-17
6773.74656 1.41764e-17
6775.23337 1.38462e-17
6776.72017 1.41568e-17
6778.20698 1.44674e-17
6779.69379 1.48363e-17
6781.18060 1.52049e-17
6782.66741 1.49788e-17
6784.15421 1.47528e-17
6785.64102 1.46031e-17
6787.11778 1.44537e-17
6788.60459 1.45679e-17
6790.09140 1.46819e-17
6791.57821 1.42698e-17
6793.06502 1.38576e-17
6794.55182 1.34541e-17
6796.03863 1.30509e-17
6797.52544 1.32376e-17
6799.01225 1.34243e-17
6800.49906 1.37129e-17
6801.98586 1.40014e-17
6803.47267 1.41891e-17
6804.95948 1.43767e-17
6806.44629 1.41838e-17
6807.93310 1.39911e-17
6809.41990 1.40605e-17
6810.90671 1.41300e-17
6812.39352 1.44381e-17
6813.88033 1.47457e-17
6815.36714 1.41605e-17
6816.85394 1.35751e-17
6818.34075 1.28529e-17
6819.82756 1.21311e-17
6821.31437 1.24124e-17
6822.80118 1.26938e-17
6824.28798 1.31401e-17
6825.77479 1.35861e-17
6827.26160 1.35164e-17
6828.74841 1.34354e-17
6830.23522 1.33544e-17
6831.71198 1.32733e-17
6833.19879 1.31923e-17
6834.68559 1.31113e-17
6836.17240 1.30303e-17
6837.65921 1.29492e-17
6839.14602 1.28682e-17
6840.63283 1.27872e-17
6842.11963 1.27062e-17
6843.60644 1.26252e-17
6845.09325 1.25442e-17
6846.58006 1.24632e-17
6848.06687 1.23821e-17
6849.55367 1.23012e-17
6851.04048 1.22201e-17
6852.52729 1.21392e-17
6854.01410 1.20581e-17
6855.50091 1.19771e-17
6856.98771 1.18962e-17
6858.47452 1.18152e-17
6859.96133 1.17342e-17
6861.44814 1.16532e-17
6862.93495 1.15722e-17
6864.42175 1.14912e-17
6865.90856 1.14102e-17
6867.39537 1.13293e-17
6868.88218 1.12483e-17
6870.36899 1.11673e-17
6871.85579 1.10863e-17
6873.33256 1.10054e-17
6874.81936 1.09244e-17
6876.30617 1.08434e-17
6877.79298 1.07625e-17
6879.27979 1.06815e-17
6880.76660 1.06005e-17
6882.25340 1.05196e-17
6883.74021 1.04386e-17
6885.22702 1.03577e-17
6886.71383 1.02767e-17
6888.20064 1.01958e-17
6889.68744 1.01148e-17
6891.17425 1.00339e-17
6892.66106 9.95293e-18
6894.14787 9.87198e-18
6895.63468 9.79105e-18
6897.12148 9.71010e-18
6898.60829 9.62918e-18
6900.09510 9.54824e-18
6901.58191 9.46732e-18
6903.06872 9.38638e-18
6904.55552 9.30544e-18
6906.04233 9.22453e-18
6907.52914 9.14359e-18
6909.01595 9.06268e-18
6910.50276 8.98175e-18
6911.98956 8.90085e-18
6913.47637 8.81992e-18
6914.96318 8.73903e-18
6916.43994 8.65810e-18
6917.92675 8.57721e-18
6919.41356 8.49629e-18
6920.90037 8.64060e-18
6922.38717 8.46506e-18
6923.87398 8.28983e-18
6925.36079 8.68389e-18
6926.84760 9.07797e-18
6928.33441 9.52774e-18
6929.82121 9.97723e-18
6931.30802 9.91948e-18
6932.79483 9.86191e-18
6934.28164 1.01189e-17
6935.76845 1.03759e-17
6937.25525 1.06505e-17
6938.74206 1.09249e-17
6940.22887 1.09562e-17
6941.71568 1.09875e-17
6943.20249 1.11048e-17
6944.68929 1.12220e-17
6946.17610 1.12186e-17
6947.66291 1.12153e-17
6949.14972 1.12271e-17
6950.63653 1.12391e-17
6952.12333 1.15311e-17
6953.61014 1.18231e-17
6955.09695 1.20745e-17
6956.58376 1.23258e-17
6958.07057 1.23256e-17
6959.55737 1.23254e-17
6961.03414 1.22734e-17
6962.52094 1.22214e-17
6964.00775 1.23432e-17
6965.49456 1.24652e-17
6966.98137 1.28410e-17
6968.46818 1.32166e-17
6969.95498 1.33705e-17
6971.44179 1.35244e-17
6972.92860 1.36382e-17
6974.41541 1.37520e-17
6975.90222 1.39638e-17
6977.38902 1.41754e-17
6978.87583 1.39987e-17
6980.36264 1.38222e-17
6981.84945 1.39023e-17
6983.33626 1.39826e-17
6984.82306 1.42461e-17
6986.30987 1.45095e-17
6987.79668 1.45708e-17
6989.28349 1.46321e-17
6990.77030 1.48315e-17
6992.25710 1.50308e-17
6993.74391 1.50911e-17
6995.23072 1.51515e-17
6996.71753 1.52857e-17
6998.20434 1.54200e-17
6999.69114 1.57084e-17
7001.17795 1.59967e-17
7002.66476 1.61965e-17
7004.14152 1.63961e-17
7005.62833 1.63537e-17
7007.11514 1.63112e-17
7008.60195 1.62316e-17
7010.08875 1.61520e-17
7011.57556 1.61266e-17
7013.06237 1.61012e-17
7014.54918 1.59627e-17
7016.03599 1.58242e-17
7017.52279 1.56067e-17
7019.00960 1.53893e-17
7020.49641 1.55252e-17
7021.98322 1.56609e-17
7023.47003 1.56812e-17
7024.95683 1.57014e-17
7026.44364 1.57614e-17
7027.93045 1.58212e-17
7029.41726 1.56600e-17
7030.90407 1.54990e-17
7032.39087 1.56433e-17
7033.87768 1.57876e-17
7035.36449 1.59499e-17
7036.85130 1.61121e-17
7038.33811 1.59492e-17
7039.82491 1.57863e-17
7041.31172 1.57078e-17
7042.79853 1.56294e-17
7044.28534 1.56831e-17
7045.76210 1.57367e-17
7047.24891 1.57688e-17
7048.73572 1.58008e-17
7050.22252 1.58072e-17
7051.70933 1.58135e-17
7053.19614 1.56412e-17
7054.68295 1.54688e-17
7056.16976 1.49665e-17
7057.65656 1.44645e-17
7059.14337 1.43979e-17
7060.63018 1.43316e-17
7062.11699 1.47535e-17
7063.60380 1.51752e-17
7065.09060 1.51746e-17
7066.57741 1.51739e-17
7068.06422 1.49742e-17
7069.55103 1.47747e-17
7071.03784 1.48675e-17
7072.52464 1.49604e-17
7074.01145 1.51515e-17
7075.49826 1.53426e-17
7076.98507 1.53890e-17
7078.47188 1.54353e-17
7079.95868 1.51882e-17
7081.44549 1.49411e-17
7082.93230 1.46741e-17
7084.41911 1.44073e-17
7085.90592 1.45258e-17
7087.39272 1.46441e-17
7088.87953 1.43599e-17
7090.35629 1.40759e-17
7091.84310 1.39812e-17
7093.32991 1.38867e-17
7094.81672 1.41216e-17
7096.30353 1.43563e-17
7097.79033 1.43113e-17
7099.27714 1.42663e-17
7100.76395 1.43062e-17
7102.25076 1.43461e-17
7103.73757 1.41722e-17
7105.22437 1.39986e-17
7106.71118 1.41704e-17
7108.19799 1.43423e-17
7109.68480 1.45690e-17
7111.17161 1.47954e-17
7112.65841 1.43801e-17
7114.14522 1.39652e-17
7115.63203 1.40126e-17
7117.11884 1.40599e-17
7118.60565 1.39820e-17
7120.09245 1.39040e-17
7121.57926 1.36951e-17
7123.06607 1.34865e-17
7124.55288 1.37698e-17
7126.03969 1.40530e-17
7127.52649 1.42434e-17
7129.01330 1.44335e-17
7130.50011 1.40528e-17
7131.98692 1.36723e-17
7133.46368 1.37386e-17
7134.95049 1.38051e-17
7136.43730 1.41300e-17
7137.92410 1.44548e-17
7139.41091 1.45048e-17
7140.89772 1.45549e-17
7142.38453 1.45635e-17
7143.87134 1.45721e-17
7145.35814 1.45720e-17
7146.84495 1.45716e-17
7148.33176 1.42616e-17
7149.81857 1.39517e-17
7151.30538 1.38907e-17
7152.79218 1.38297e-17
7154.27899 1.39423e-17
7155.76580 1.40545e-17
7157.25261 1.36238e-17
7158.73942 1.31932e-17
7160.22622 1.28183e-17
7161.71303 1.24438e-17
7163.19984 1.26584e-17
7164.68665 1.28732e-17
7166.17346 1.32106e-17
7167.66026 1.35478e-17
7169.14707 1.35446e-17
7170.63388 1.35415e-17
7172.12069 1.35952e-17
7173.60750 1.36490e-17
7175.08426 1.38561e-17
7176.57107 1.40631e-17
7178.05787 1.41373e-17
7179.54468 1.42115e-17
7181.03149 1.42463e-17
7182.51830 1.42811e-17
7184.00511 1.43113e-17
7185.49191 1.43414e-17
7186.97872 1.42158e-17
7188.46553 1.40903e-17
7189.95234 1.38243e-17
7191.43915 1.35584e-17
7192.92595 1.34093e-17
7194.41276 1.32603e-17
7195.89957 1.30757e-17
7197.38638 1.28910e-17
7198.87319 1.25924e-17
7200.35999 1.22941e-17
7201.84680 1.25389e-17
7203.33361 1.27838e-17
7204.82042 1.30886e-17
7206.30723 1.33933e-17
7207.79403 1.35188e-17
7209.28084 1.36444e-17
7210.76765 1.40403e-17
7212.25446 1.44364e-17
7213.74127 1.50420e-17
7215.22807 1.56474e-17
7216.71488 1.56655e-17
7218.20169 1.56831e-17
7219.67845 1.48366e-17
7221.16526 1.39903e-17
7222.65207 1.34631e-17
7224.13888 1.29363e-17
7225.62568 1.30945e-17
7227.11249 1.32528e-17
7228.59930 1.34842e-17
7230.08611 1.37153e-17
7231.57292 1.33925e-17
7233.05972 1.30697e-17
7234.54653 1.26622e-17
7236.03334 1.22549e-17
7237.52015 1.22438e-17
7239.00696 1.22328e-17
7240.49376 1.25489e-17
7241.98057 1.28651e-17
7243.46738 1.34996e-17
7244.95419 1.41340e-17
7246.44100 1.46335e-17
7247.92780 1.51328e-17
7249.41461 1.52581e-17
7250.90142 1.53833e-17
7252.38823 1.54536e-17
7253.87504 1.55239e-17
7255.36184 1.55231e-17
7256.84865 1.55223e-17
7258.33546 1.55485e-17
7259.82227 1.55746e-17
7261.30908 1.55543e-17
7262.78584 1.55339e-17
7264.27265 1.52941e-17
7265.75945 1.50542e-17
7267.24626 1.47395e-17
7268.73307 1.44248e-17
7270.21988 1.42007e-17
7271.70669 1.39768e-17
7273.19349 1.40340e-17
7274.68030 1.40912e-17
7276.16711 1.42158e-17
7277.65392 1.43404e-17
7279.14073 1.44699e-17
7280.62753 1.45994e-17
7282.11434 1.47081e-17
7283.60115 1.48168e-17
7285.08796 1.49786e-17
7286.57477 1.51404e-17
7288.06157 1.53448e-17
7289.54838 1.55492e-17
7291.03519 1.57848e-17
7292.52200 1.60202e-17
7294.00881 1.59277e-17
7295.49561 1.58349e-17
7296.98242 1.53503e-17
7298.46923 1.48659e-17
7299.95604 1.47516e-17
7301.44285 1.46374e-17
7302.92965 1.44666e-17
7304.41646 1.42959e-17
7305.89322 1.40611e-17
7307.38003 1.38264e-17
7308.86684 1.36282e-17
7310.35365 1.34300e-17
7311.84046 1.33115e-17
7313.32726 1.31932e-17
7314.81407 1.34039e-17
7316.30088 1.36148e-17
7317.78769 1.40271e-17
7319.27450 1.44394e-17
7320.76130 1.49685e-17
7322.24811 1.54976e-17
7323.73492 1.60700e-17
7325.22173 1.66423e-17
7326.70854 1.68813e-17
7328.19534 1.71201e-17
7329.68215 1.69500e-17
7331.16896 1.67799e-17
7332.65577 1.64291e-17
7334.14258 1.60784e-17
7335.62938 1.60198e-17
7337.11619 1.59612e-17
7338.60300 1.57201e-17
7340.08981 1.54786e-17
7341.57662 1.45743e-17
7343.06342 1.36702e-17
7344.55023 1.31086e-17
7346.03704 1.25473e-17
7347.52385 1.26867e-17
7349.00061 1.28262e-17
7350.48742 1.30962e-17
7351.97423 1.33660e-17
7353.46103 1.34188e-17
7354.94784 1.34715e-17
7356.43465 1.33805e-17
7357.92146 1.32898e-17
7359.40827 1.37383e-17
7360.89507 1.41869e-17
7362.38188 1.47804e-17
7363.86869 1.53735e-17
7365.35550 1.54955e-17
7366.84231 1.56174e-17
7368.32911 1.56334e-17
7369.81592 1.56492e-17
7371.30273 1.53652e-17
7372.78954 1.50811e-17
7374.27635 1.46378e-17
7375.76315 1.41944e-17
7377.24996 1.37314e-17
7378.73677 1.32683e-17
7380.22358 1.27363e-17
7381.71039 1.22044e-17
7383.19719 1.19802e-17
7384.68400 1.17562e-17
7386.17081 1.19214e-17
7387.65762 1.20865e-17
7389.14443 1.20218e-17
7390.63123 1.19574e-17
7392.10800 1.22041e-17
7393.59480 1.24510e-17
7395.08161 1.31092e-17
7396.56842 1.37671e-17
7398.05523 1.40799e-17
7399.54204 1.43926e-17
7401.02884 1.44334e-17
7402.51565 1.44743e-17
7404.00246 1.46671e-17
7405.48927 1.48597e-17
7406.97608 1.49089e-17
7408.46288 1.49582e-17
7409.94969 1.50244e-17
7411.43650 1.50903e-17
7412.92331 1.47497e-17
7414.41012 1.44091e-17
7415.89692 1.41172e-17
7417.38373 1.38255e-17
7418.87054 1.36880e-17
7420.35735 1.35502e-17
7421.84416 1.30104e-17
7423.33096 1.24710e-17
7424.81777 1.23281e-17
7426.30458 1.21852e-17
7427.79139 1.19697e-17
7429.27820 1.17542e-17
7430.76500 1.15543e-17
7432.25181 1.13549e-17
7433.72857 1.18363e-17
7435.21538 1.23175e-17
7436.70219 1.23609e-17
7438.18900 1.24044e-17
7439.67581 1.26110e-17
7441.16261 1.28178e-17
7442.64942 1.32106e-17
7444.13623 1.36032e-17
7445.62304 1.37989e-17
7447.10985 1.39948e-17
7448.59665 1.43118e-17
7450.08346 1.46286e-17
7451.57027 1.46891e-17
7453.05708 1.47494e-17
7454.54389 1.44710e-17
7456.03069 1.41925e-17
7457.51750 1.37281e-17
7459.00431 1.32635e-17
7460.49112 1.26274e-17
7461.97793 1.19916e-17
7463.46473 1.18520e-17
7464.95154 1.17124e-17
7466.43835 1.14448e-17
7467.92516 1.11773e-17
7469.41197 1.09306e-17
7470.89877 1.06838e-17
7472.38558 1.03941e-17
7473.87239 1.01047e-17
7475.34915 1.04390e-17
7476.83596 1.07735e-17
7478.32277 1.14718e-17
7479.80958 1.21698e-17
7481.29638 1.24937e-17
7482.78319 1.28176e-17
7484.27000 1.29906e-17
7485.75681 1.31636e-17
7487.24362 1.35095e-17
7488.73042 1.38552e-17
7490.21723 1.40297e-17
7491.70404 1.42041e-17
7493.19085 1.40739e-17
7494.67766 1.39437e-17
7496.16446 1.40335e-17
7497.65127 1.41228e-17
7499.13808 1.33515e-17
7500.62489 1.25802e-17
7502.11170 1.17015e-17
7503.59850 1.08232e-17
7505.08531 1.05590e-17
7506.57212 1.02949e-17
7508.05893 1.03220e-17
7509.54574 1.03490e-17
7511.03254 1.00691e-17
7512.51935 9.78938e-18
7514.00616 9.69621e-18
7515.49297 9.60335e-18
7516.97978 1.00128e-17
7518.46658 1.04223e-17
7519.95339 1.09932e-17
7521.43015 1.15641e-17
7522.91696 1.22077e-17
7524.40377 1.28512e-17
7525.89058 1.31185e-17
7527.37739 1.33855e-17
7528.86419 1.30311e-17
7530.35100 1.26768e-17
7531.83781 1.25521e-17
7533.32462 1.25148e-17
7534.81143 1.24775e-17
7536.29823 1.24402e-17
7537.78504 1.24030e-17
7539.27185 1.23657e-17
7540.75866 1.23284e-17
7542.24547 1.22912e-17
7543.73227 1.22539e-17
7545.21908 1.22166e-17
7546.70589 1.21794e-17
7548.19270 1.21421e-17
7549.67951 1.21048e-17
7551.16631 1.20676e-17
7552.65312 1.20303e-17
7554.13993 1.19931e-17
7555.62674 1.19558e-17
7557.11355 1.19186e-17
7558.60035 1.18813e-17
7560.08716 1.18440e-17
7561.57397 1.18068e-17
7563.06078 1.17695e-17
7564.53754 1.17323e-17
7566.02435 1.16950e-17
7567.51116 1.16578e-17
7568.99796 1.16205e-17
7570.48477 1.15833e-17
7571.97158 1.15461e-17
7573.45839 1.15088e-17
7574.94520 1.14716e-17
7576.43200 1.14343e-17
7577.91881 1.13971e-17
7579.40562 1.13598e-17
7580.89243 1.13226e-17
7582.37924 1.12854e-17
7583.86604 1.12481e-17
7585.35285 1.12109e-17
7586.83966 1.11737e-17
7588.32647 1.11364e-17
7589.81328 1.10992e-17
7591.30008 1.10620e-17
7592.78689 1.10247e-17
7594.27370 1.09875e-17
7595.76051 1.09503e-17
7597.24732 1.09130e-17
7598.73412 1.08758e-17
7600.22093 1.08386e-17
7601.70774 1.08014e-17
7603.19455 1.07641e-17
7604.68136 1.07269e-17
7606.16816 1.06897e-17
7607.64493 1.06525e-17
7609.13173 1.06152e-17
7610.61854 1.05780e-17
7612.10535 1.05408e-17
7613.59216 1.05036e-17
7615.07897 1.04664e-17
7616.56577 1.04292e-17
7618.05258 1.03920e-17
7619.53939 1.03547e-17
7621.02620 1.03175e-17
7622.51301 1.02803e-17
7623.99981 1.02431e-17
7625.48662 1.02059e-17
7626.97343 1.01687e-17
7628.46024 1.01315e-17
7629.94705 1.00943e-17
7631.43385 1.00571e-17
7632.92066 1.00199e-17
7634.40747 9.98267e-18
7635.89428 9.94548e-18
7637.38109 9.90827e-18
7638.86789 9.87107e-18
7640.35470 9.83388e-18
7641.84151 9.79668e-18
7643.32832 9.75949e-18
7644.81513 9.72229e-18
7646.30193 9.68510e-18
7647.78874 9.64790e-18
7649.27555 9.61072e-18
7650.75231 9.57352e-18
7652.23912 9.53633e-18
7653.72593 9.49915e-18
7655.21274 9.46195e-18
7656.69954 9.42477e-18
7658.18635 9.38758e-18
7659.67316 9.35041e-18
7661.15997 9.31322e-18
7662.64678 9.27604e-18
7664.13358 9.49146e-18
7665.62039 9.59910e-18
7667.10720 9.70685e-18
7668.59401 9.99150e-18
7670.08082 1.02760e-17
7671.56762 1.03130e-17
7673.05443 1.03500e-17
7674.54124 1.02230e-17
7676.02805 1.00960e-17
7677.51486 9.84323e-18
7679.00166 9.59051e-18
7680.48847 9.43372e-18
7681.97528 9.27700e-18
7683.46209 9.21755e-18
7684.94890 9.15808e-18
7686.43570 9.06060e-18
7687.92251 8.96329e-18
7689.40932 9.13819e-18
7690.89613 9.31297e-18
7692.38294 9.29692e-18
7693.85970 9.28070e-18
7695.34651 9.00345e-18
7696.83331 8.72659e-18
7698.32012 9.04674e-18
7699.80693 9.36693e-18
7701.29374 9.75616e-18
7702.78055 1.01451e-17
7704.26735 1.01909e-17
7705.75416 1.02366e-17
7707.24097 1.02856e-17
7708.72778 1.03346e-17
7710.21459 1.05136e-17
7711.70139 1.06924e-17
7713.18820 1.07561e-17
7714.67501 1.08199e-17
7716.16182 1.09146e-17
7717.64863 1.10094e-17
7719.13543 1.14289e-17
7720.62224 1.18483e-17
7722.10905 1.22572e-17
7723.59586 1.26660e-17
7725.08267 1.28795e-17
7726.56947 1.30929e-17
7728.05628 1.33080e-17
7729.54309 1.35227e-17
7731.02990 1.32803e-17
7732.51671 1.30377e-17
7734.00351 1.25728e-17
7735.48028 1.21082e-17
7736.96708 1.20907e-17
7738.45389 1.20734e-17
7739.94070 1.23193e-17
7741.42751 1.25651e-17
7742.91432 1.26401e-17
7744.40112 1.27150e-17
7745.88793 1.26567e-17
7747.37474 1.25984e-17
7748.86155 1.24231e-17
7750.34836 1.22477e-17
7751.83516 1.19518e-17
7753.32197 1.16561e-17
7754.80878 1.15266e-17
7756.29559 1.13970e-17
7757.78240 1.12554e-17
7759.26920 1.11138e-17
7760.75601 1.09162e-17
7762.24282 1.07187e-17
7763.72963 1.06814e-17
7765.21644 1.06444e-17
7766.70324 1.09339e-17
7768.19005 1.12236e-17
7769.67686 1.16724e-17
7771.16367 1.21210e-17
7772.65048 1.20594e-17
7774.13728 1.19979e-17
7775.62409 1.21398e-17
7777.11090 1.22822e-17
7778.59771 1.31552e-17
7780.08452 1.40278e-17
7781.56128 1.43447e-17
7783.04809 1.46611e-17
7784.53489 1.43034e-17
7786.02170 1.39460e-17
7787.50851 1.39176e-17
7788.99532 1.38892e-17
7790.48213 1.37407e-17
7791.96893 1.35919e-17
7793.45574 1.30177e-17
7794.94255 1.24436e-17
7796.42936 1.20043e-17
7797.91617 1.15649e-17
7799.40297 1.10628e-17
7800.88978 1.05607e-17
7802.37659 1.01171e-17
7803.86340 9.67393e-18
7805.35021 9.67903e-18
7806.83701 9.68422e-18
7808.32382 9.82560e-18
7809.81063 9.96704e-18
7811.29744 1.01921e-17
7812.78425 1.04171e-17
7814.27105 1.06706e-17
7815.75786 1.09241e-17
7817.24467 1.10577e-17
7818.73148 1.11915e-17
7820.21829 1.16905e-17
7821.70509 1.21895e-17
7823.18186 1.26509e-17
7824.66866 1.31121e-17
7826.15547 1.32613e-17
7827.64228 1.34111e-17
7829.12909 1.44420e-17
7830.61590 1.54723e-17
7832.10270 1.55633e-17
7833.58951 1.56538e-17
7835.07632 1.50317e-17
7836.56313 1.44102e-17
7838.04994 1.47123e-17
7839.53674 1.50140e-17
7841.02355 1.47001e-17
7842.51036 1.43858e-17
7843.99717 1.34763e-17
7845.48398 1.25671e-17
7846.97078 1.20751e-17
7848.45759 1.15833e-17
7849.94440 1.13448e-17
7851.43121 1.11063e-17
7852.91802 1.07123e-17
7854.40482 1.03186e-17
7855.89163 1.02182e-17
7857.37844 1.01180e-17
7858.86525 1.03067e-17
7860.35206 1.04954e-17
7861.83886 1.07308e-17
7863.32567 1.09662e-17
7864.81248 1.13461e-17
7866.28924 1.17260e-17
7867.77605 1.23727e-17
7869.26286 1.30193e-17
7870.74967 1.36114e-17
7872.23647 1.42034e-17
7873.72328 1.47181e-17
7875.21009 1.52325e-17
7876.69690 1.52801e-17
7878.18371 1.53272e-17
7879.67051 1.47501e-17
7881.15732 1.41731e-17
7882.64413 1.37544e-17
7884.13094 1.33357e-17
7885.61775 1.29588e-17
7887.10455 1.25819e-17
7888.59136 1.19836e-17
7890.07817 1.13855e-17
7891.56498 1.09922e-17
7893.05179 1.05989e-17
7894.53859 1.00938e-17
7896.02540 9.58881e-18
7897.51221 9.16268e-18
7898.99902 8.73694e-18
7900.48583 8.88351e-18
7901.97263 9.03014e-18
7903.45944 9.27603e-18
7904.94625 9.52181e-18
7906.43306 9.59279e-18
7907.91987 9.66400e-18
7909.40667 1.00825e-17
7910.88344 1.05011e-17
7912.37024 1.11047e-17
7913.85705 1.17083e-17
7915.34386 1.23160e-17
7916.83067 1.29234e-17
7918.31748 1.30473e-17
7919.80428 1.31712e-17
7921.29109 1.31389e-17
7922.77790 1.31071e-17
7924.26471 1.37970e-17
7925.75152 1.44865e-17
7927.23832 1.46989e-17
7928.72513 1.49108e-17
7930.21194 1.43327e-17
7931.69875 1.37548e-17
7933.18556 1.36293e-17
7934.67236 1.35037e-17
7936.15917 1.34339e-17
7937.64598 1.33634e-17
7939.13279 1.24765e-17
7940.61960 1.15897e-17
7942.10640 1.08047e-17
7943.59321 1.00200e-17
7945.08002 9.73052e-18
7946.56683 9.44073e-18
7948.05364 8.71228e-18
7949.54044 7.98407e-18
7951.02725 7.58106e-18
7952.50401 7.17873e-18
7953.99082 7.76670e-18
7955.47763 8.35473e-18
7956.96444 9.04789e-18
7958.45125 9.74104e-18
7959.93805 1.04602e-17
7961.42486 1.11789e-17
7962.91167 1.14541e-17
7964.39848 1.17290e-17
7965.88529 1.16883e-17
7967.37209 1.16478e-17
7968.85890 1.19533e-17
7970.34571 1.22587e-17
7971.83252 1.23543e-17
7973.31933 1.24499e-17
7974.80613 1.26518e-17
7976.29294 1.28538e-17
7977.77975 1.31521e-17
7979.26656 1.34498e-17
7980.75337 1.28858e-17
7982.24017 1.23218e-17
7983.72698 1.17113e-17
7985.21379 1.11009e-17
7986.70060 1.07776e-17
7988.18741 1.04543e-17
7989.67421 1.01301e-17
7991.16102 9.80603e-18
7992.64783 9.58827e-18
7994.12459 9.37044e-18
7995.61140 9.02479e-18
7997.09821 8.67930e-18
7998.58502 8.56359e-18
8000.07182 8.44768e-18
8001.55863 8.04030e-18
8003.04544 7.63310e-18
8004.53225 7.48443e-18
8006.01906 7.33602e-18
8007.50586 7.54165e-18
8008.99267 7.74704e-18
8010.47948 7.61819e-18
8011.96629 7.48955e-18
8013.45310 7.67469e-18
8014.93990 7.86000e-18
8016.42671 8.30198e-18
8017.91352 8.74394e-18
8019.40033 9.16252e-18
8020.88714 9.58124e-18
8022.37394 1.02432e-17
8023.86075 1.09051e-17
8025.34756 1.15234e-17
8026.83437 1.21415e-17
8028.32118 1.23576e-17
8029.80798 1.25736e-17
8031.29479 1.24771e-17
8032.78160 1.23808e-17
8034.26841 1.25683e-17
8035.75522 1.27555e-17
8037.24202 1.26428e-17
8038.72883 1.25298e-17
8040.20559 1.20625e-17
8041.69240 1.15953e-17
8043.17921 1.13411e-17
8044.66602 1.10868e-17
8046.15283 1.06299e-17
8047.63963 1.01730e-17
8049.12644 9.65557e-18
8050.61325 9.13840e-18
8052.10006 8.98640e-18
8053.58687 8.83432e-18
8055.07367 8.55253e-18
8056.56048 8.27088e-18
8058.04729 8.17520e-18
8059.53410 8.07936e-18
8061.02091 7.74798e-18
8062.50771 7.41701e-18
8063.99452 7.64328e-18
8065.48133 7.86955e-18
8066.96814 8.09366e-18
8068.45495 8.31778e-18
8069.94175 8.56790e-18
8071.42856 8.81809e-18
8072.91537 9.18611e-18
8074.40218 9.55380e-18
8075.88899 9.45656e-18
8077.37579 9.35957e-18
8078.86260 9.61370e-18
8080.34941 9.86808e-18
8081.82617 1.05072e-17
8083.31298 1.11460e-17
8084.79979 1.13950e-17
8086.28660 1.16440e-17
8087.77340 1.18288e-17
8089.26021 1.20134e-17
8090.74702 1.17014e-17
8092.23383 1.13894e-17
8093.72064 1.09822e-17
8095.20744 1.05751e-17
8096.69425 1.04055e-17
8098.18106 1.02359e-17
8099.66787 1.01866e-17
8101.15468 1.01372e-17
8102.64148 9.94510e-18
8104.12829 9.75283e-18
8105.61510 9.25409e-18
8107.10191 8.75549e-18
8108.58872 8.42332e-18
8110.07552 8.09122e-18
8111.56233 7.83629e-18
8113.04914 7.58126e-18
8114.53595 7.15454e-18
8116.02276 6.72799e-18
8117.50956 6.52584e-18
8118.99637 6.32382e-18
8120.48318 6.29320e-18
8121.96999 6.26276e-18
8123.45680 6.47233e-18
8124.93356 6.68205e-18
8126.42037 7.12654e-18
8127.90717 7.57085e-18
8129.39398 7.76896e-18
8130.88079 7.96701e-18
8132.36760 8.07892e-18
8133.85441 8.19090e-18
8135.34121 8.41492e-18
8136.82802 8.63901e-18
8138.31483 8.96002e-18
8139.80164 9.28098e-18
8141.28845 9.53718e-18
8142.77525 9.79331e-18
8144.26206 9.95823e-18
8145.74887 1.01232e-17
8147.23568 1.03904e-17
8148.72249 1.06572e-17
8150.20929 1.04366e-17
8151.69610 1.02160e-17
8153.18291 1.01271e-17
8154.66972 1.00380e-17
8156.15653 9.59548e-18
8157.64333 9.15299e-18
8159.13014 8.73102e-18
8160.61695 8.30911e-18
8162.10376 7.94255e-18
8163.59057 7.57618e-18
8165.07737 7.47451e-18
8166.56418 7.37293e-18
8168.05099 7.41280e-18
8169.52775 7.45250e-18
8171.01456 7.27346e-18
8172.50137 7.09472e-18
8173.98818 7.33558e-18
8175.47498 7.57629e-18
8176.96179 7.59829e-18
8178.44860 7.62006e-18
8179.93541 7.30372e-18
8181.42222 6.98774e-18
8182.90902 7.17494e-18
8184.39583 7.36249e-18
8185.88264 8.05299e-18
8187.36945 8.74321e-18
8188.85626 9.06088e-18
8190.34306 9.37839e-18
8191.82987 9.49272e-18
8193.31668 9.60695e-18
8194.80349 9.59580e-18
8196.29030 9.58462e-18
8197.77710 9.51978e-18
8199.26391 9.45512e-18
8200.75072 9.66980e-18
8202.23753 9.88446e-18
8203.72434 1.00796e-17
8205.21114 1.02744e-17
8206.69795 1.00777e-17
8208.18476 9.88091e-18
8209.67157 9.66070e-18
8211.14833 9.44050e-18
8212.63514 9.22884e-18
8214.12195 9.01731e-18
8215.60875 8.98452e-18
8217.09556 8.95176e-18
8218.58237 8.97049e-18
8220.06918 8.98914e-18
8221.55599 8.88967e-18
8223.04279 8.79039e-18
8224.52960 8.95567e-18
8226.01641 9.12085e-18
8227.50322 9.14939e-18
8228.99003 9.17761e-18
8230.47683 8.74222e-18
8231.96364 8.30712e-18
8233.45045 8.25950e-18
8234.93726 8.21175e-18
8236.42407 7.99040e-18
8237.91087 7.76902e-18
8239.39768 7.49787e-18
8240.88449 7.22687e-18
8242.37130 7.15858e-18
8243.85811 7.09040e-18
8245.34491 7.16321e-18
8246.83172 7.23590e-18
8248.31853 7.13526e-18
8249.80534 7.03484e-18
8251.29215 7.25850e-18
8252.77895 7.48233e-18
8254.25572 7.95048e-18
8255.74252 8.41821e-18
8257.22933 8.32745e-18
8258.71614 8.23678e-18
8260.20295 8.27297e-18
8261.68976 8.30935e-18
8263.17656 8.60765e-18
8264.66337 8.90607e-18
8266.15018 9.37878e-18
8267.63699 9.85113e-18
8269.12380 9.84353e-18
8270.61060 9.83525e-18
8272.09741 8.88692e-18
8273.58422 7.93941e-18
8275.07103 8.09237e-18
8276.55784 8.24549e-18
8278.04464 8.61848e-18
8279.53145 8.99074e-18
8281.01826 8.37429e-18
8282.50507 7.75775e-18
8283.99188 6.97899e-18
8285.47868 6.20069e-18
8286.96549 6.04649e-18
8288.45230 5.89247e-18
8289.93911 5.99540e-18
8291.42592 6.09792e-18
8292.91272 5.63069e-18
8294.39953 5.16359e-18
8295.88634 4.87351e-18
8297.37315 4.58365e-18
8298.84991 4.57871e-18
8300.33672 4.57370e-18
8301.82353 4.47129e-18
8303.31033 4.36894e-18
8304.79714 4.35131e-18
8306.28395 4.33373e-18
8307.77076 4.37029e-18
8309.25757 4.40681e-18
8310.74437 4.38924e-18
8312.23118 4.37180e-18
8313.71799 4.51979e-18
8315.20480 4.66792e-18
8316.69161 5.01349e-18
8318.17841 5.35903e-18
8319.66522 5.67180e-18
8321.15203 5.98424e-18
8322.63884 5.84214e-18
8324.12565 5.69985e-18
8325.61245 5.28105e-18
8327.09926 4.86280e-18
8328.58607 5.17646e-18
8330.07288 5.49012e-18
8331.55969 5.80384e-18
8333.04649 6.11726e-18
8334.53330 6.03592e-18
8336.02011 5.95412e-18
8337.50692 5.24086e-18
8338.99373 4.52766e-18
8340.47049 3.87601e-18
8341.95730 3.22472e-18
8343.44410 3.05828e-18
8344.93091 2.89200e-18
8346.41772 2.91986e-18
8347.90453 2.94802e-18
8349.39134 3.38293e-18
8350.87814 3.81756e-18
8352.36495 3.88978e-18
8353.85176 3.96182e-18
8355.33857 3.78898e-18
8356.82538 3.61623e-18
8358.31218 3.55507e-18
8359.79899 3.49391e-18
8361.28580 3.42959e-18
8362.77261 3.36533e-18
8364.25942 3.37486e-18
8365.74622 3.38492e-18
8367.23303 4.12457e-18
8368.71984 4.86406e-18
8370.20665 5.40296e-18
8371.69346 5.94181e-18
8373.18026 6.42999e-18
8374.66707 6.91844e-18
8376.15388 7.77084e-18
8377.64069 8.62284e-18
8379.12750 8.95802e-18
8380.61430 9.29304e-18
8382.10111 9.42572e-18
8383.58792 9.55795e-18
8385.06468 9.08887e-18
8386.55149 8.61940e-18
8388.03830 7.60448e-18
8389.52511 6.58999e-18
8391.01191 6.11611e-18
8392.49872 5.64275e-18
8393.98553 5.87927e-18
8395.47234 6.11566e-18
8396.95915 6.18015e-18
8398.44595 6.24444e-18
8399.93276 6.04665e-18
8401.41957 5.84919e-18
8402.90638 6.11521e-18
8404.39319 6.38132e-18
8405.87999 6.77998e-18
8407.36680 7.17846e-18
8408.85361 7.35628e-18
8410.34042 7.53387e-18
8411.82723 7.41351e-18
8413.31403 7.29310e-18
8414.80084 7.07908e-18
8416.28765 6.86586e-18
8417.77446 7.72776e-18
8419.26127 8.58931e-18
8420.74807 9.02059e-18
8422.23488 9.45159e-18
8423.72169 9.51479e-18
8425.19845 9.57817e-18
8426.68526 9.88783e-18
8428.17207 1.01975e-17
8429.65888 1.04955e-17
8431.14568 1.07932e-17
8432.63249 1.06995e-17
8434.11930 1.06056e-17
8435.60611 1.02238e-17
8437.09292 9.84232e-18
8438.57972 9.86401e-18
8440.06653 9.88534e-18
8441.55334 9.42307e-18
8443.04015 8.96051e-18
8444.52696 8.09035e-18
8446.01376 7.22065e-18
8447.50057 6.93824e-18
8448.98738 6.65592e-18
8450.47419 6.49138e-18
8451.96100 6.32673e-18
8453.44780 6.00397e-18
8454.93461 5.68170e-18
8456.42142 6.01097e-18
8457.90823 6.34031e-18
8459.39504 6.77576e-18
8460.88184 7.21098e-18
8462.36865 7.32933e-18
8463.85546 7.44779e-18
8465.34227 7.71129e-18
8466.82908 7.97478e-18
8468.31588 8.22589e-18
8469.80269 8.47704e-18
8471.27945 8.76802e-18
8472.76626 9.05884e-18
8474.25307 9.14067e-18
8475.73988 9.22262e-18
8477.22669 9.45354e-18
8478.71349 9.68459e-18
8480.20030 1.00926e-17
8481.68711 1.05002e-17
8483.17392 1.03661e-17
8484.66073 1.02319e-17
8486.14753 9.86936e-18
8487.63434 9.50705e-18
8489.12115 9.38936e-18
8490.60796 9.27168e-18
8492.09477 9.15601e-18
8493.58157 9.04022e-18
8495.06838 8.74977e-18
8496.55519 8.45922e-18
8498.04200 8.02457e-18
8499.52881 7.59007e-18
8501.01561 7.34043e-18
8502.50242 7.09123e-18
8503.98923 7.40808e-18
8505.47604 7.72507e-18
8506.96285 8.23637e-18
8508.44965 8.74765e-18
8509.92642 9.23201e-18
8511.42327 9.71629e-18
8512.90003 1.00885e-17
8514.39689 1.04609e-17
8515.87365 1.11841e-17
8517.36046 1.19073e-17
8518.84726 1.27219e-17
8520.33407 1.35363e-17
8521.82088 1.41146e-17
8523.30769 1.46927e-17
8524.79450 1.50025e-17
8526.28130 1.53120e-17
8527.76811 1.52149e-17
8529.25492 1.51176e-17
8530.74173 1.47234e-17
8532.22854 1.43290e-17
8533.71534 1.38463e-17
8535.20215 1.33636e-17
8536.68896 1.28514e-17
8538.17577 1.23391e-17
8539.66258 1.16312e-17
8541.14938 1.09234e-17
8542.63619 1.03803e-17
8544.12300 9.83765e-18
8545.60981 9.88080e-18
8547.09662 9.92405e-18
8548.58342 1.00962e-17
8550.07023 1.02684e-17
8551.55704 1.05339e-17
8553.04385 1.07995e-17
8554.53066 1.11997e-17
8556.00742 1.16000e-17
8557.49423 1.21657e-17
8558.98103 1.27315e-17
8560.46784 1.34323e-17
8561.95465 1.41333e-17
8563.44146 1.50327e-17
8564.92827 1.59323e-17
8566.41507 1.70165e-17
8567.90188 1.81004e-17
8569.38869 1.89416e-17
8570.87550 1.97826e-17
8572.36231 2.03869e-17
8573.84911 2.09908e-17
8575.33592 2.12570e-17
8576.82273 2.15225e-17
8578.30954 2.08986e-17
8579.79635 2.02740e-17
8581.28315 1.88743e-17
8582.76996 1.74749e-17
8584.25677 1.64808e-17
8585.74358 1.54871e-17
8587.23039 1.50544e-17
8588.71719 1.46215e-17
8590.20400 1.40937e-17
8591.69081 1.35660e-17
8593.17762 1.31426e-17
8594.66443 1.27195e-17
8596.15123 1.28150e-17
8597.63804 1.29105e-17
8599.12485 1.31684e-17
8600.60161 1.34263e-17
8602.08842 1.36006e-17
8603.57523 1.37753e-17
8605.06204 1.45378e-17
8606.54884 1.53006e-17
8608.03565 1.64887e-17
8609.52246 1.76764e-17
8611.00927 1.82919e-17
8612.49608 1.89075e-17
8613.98288 1.95939e-17
8615.46969 2.02808e-17
8616.95650 2.15390e-17
8618.44331 2.27969e-17
8619.93012 2.38256e-17
8621.41692 2.48537e-17
8622.90373 2.50727e-17
8624.39054 2.52909e-17
8625.87735 2.45088e-17
8627.36416 2.37261e-17
8628.85096 2.22354e-17
8630.33777 2.07450e-17
8631.82458 1.95328e-17
8633.31139 1.83206e-17
8634.79820 1.69788e-17
8636.28500 1.56374e-17
8637.77181 1.46801e-17
8639.25862 1.37236e-17
8640.74543 1.39168e-17
8642.22219 1.41100e-17
8643.70900 1.43010e-17
8645.19581 1.44921e-17
8646.68261 1.46531e-17
8648.16942 1.48143e-17
8649.65623 1.52693e-17
8651.14304 1.57242e-17
8652.62985 1.60260e-17
8654.11665 1.63277e-17
8655.60346 1.66342e-17
8657.09027 1.69408e-17
8658.57708 1.74622e-17
8660.06389 1.79836e-17
8661.55069 1.85019e-17
8663.03750 1.90206e-17
8664.52431 2.00478e-17
8666.01112 2.10752e-17
8667.49793 2.24708e-17
8668.98473 2.38658e-17
8670.47154 2.44040e-17
8671.95835 2.49419e-17
8673.44516 2.49890e-17
8674.93197 2.50361e-17
8676.41877 2.50618e-17
8677.90558 2.50872e-17
8679.39239 2.46813e-17
8680.87920 2.42752e-17
8682.36601 2.36314e-17
8683.84277 2.29875e-17
8685.33962 2.20869e-17
8686.81638 2.11863e-17
8688.30319 2.03211e-17
8689.79000 1.94559e-17
8691.27681 1.86882e-17
8692.76362 1.79204e-17
8694.25042 1.71953e-17
8695.73723 1.64703e-17
8697.22404 1.57491e-17
8698.71085 1.50284e-17
8700.19766 1.48515e-17
8701.68446 1.46750e-17
8703.17127 1.49835e-17
8704.65808 1.52917e-17
8706.14489 1.52346e-17
8707.63170 1.51775e-17
8709.11850 1.52575e-17
8710.60531 1.53378e-17
8712.09212 1.59015e-17
8713.57893 1.64654e-17
8715.06574 1.73627e-17
8716.55254 1.82600e-17
8718.03935 1.91154e-17
8719.52616 1.99705e-17
8721.01297 2.05985e-17
8722.49978 2.12265e-17
8723.98658 2.18391e-17
8725.47339 2.24517e-17
8726.96020 2.30382e-17
8728.43696 2.36243e-17
8729.93382 2.38320e-17
8731.41058 2.40392e-17
8732.89739 2.37947e-17
8734.38419 2.35499e-17
8735.87100 2.30869e-17
8737.35781 2.26238e-17
8738.84462 2.19578e-17
8740.33143 2.12916e-17
8741.81823 2.03166e-17
8743.30504 1.93415e-17
8744.79185 1.80391e-17
8746.27866 1.67377e-17
8747.76547 1.66203e-17
8749.25227 1.65029e-17
8750.73908 1.64673e-17
8752.22589 1.64311e-17
8753.71270 1.56730e-17
8755.19951 1.49152e-17
8756.68631 1.43977e-17
8758.17312 1.38804e-17
8759.65993 1.34577e-17
8761.14674 1.30355e-17
8762.63355 1.31549e-17
8764.12035 1.32741e-17
8765.60716 1.31404e-17
8767.09397 1.30065e-17
8768.58078 1.26456e-17
8770.06759 1.22855e-17
8771.55439 1.28992e-17
8773.03116 1.35132e-17
8774.51796 1.44252e-17
8776.00477 1.53370e-17
8777.49158 1.58985e-17
8778.97839 1.64601e-17
8780.46520 1.72117e-17
8781.95200 1.79632e-17
8783.43881 1.85719e-17
8784.92562 1.91808e-17
8786.41243 1.99587e-17
8787.89924 2.07364e-17
8789.38604 2.13197e-17
8790.87285 2.19018e-17
8792.35966 2.08676e-17
8793.84647 1.98333e-17
8795.33328 1.85584e-17
8796.82008 1.72847e-17
8798.30689 1.73968e-17
8799.79370 1.75088e-17
8801.28051 1.74289e-17
8802.76732 1.73481e-17
8804.25412 1.61197e-17
8805.74093 1.48916e-17
8807.22774 1.40448e-17
8808.71455 1.31985e-17
8810.20136 1.29134e-17
8811.67812 1.26285e-17
8813.17497 1.25723e-17
8814.65173 1.25158e-17
8816.14859 1.20849e-17
8817.62535 1.16540e-17
8819.11216 1.11773e-17
8820.59897 1.07010e-17
8822.08577 1.06598e-17
8823.57258 1.06188e-17
8825.05939 1.08032e-17
8826.54620 1.09879e-17
8828.03301 1.13697e-17
8829.51981 1.17513e-17
8831.00662 1.20347e-17
8832.49343 1.23184e-17
8833.98024 1.29889e-17
8835.46705 1.36596e-17
8836.95385 1.47784e-17
8838.44066 1.58966e-17
8839.92747 1.64391e-17
8841.41428 1.69818e-17
8842.90109 1.77581e-17
8844.38789 1.85342e-17
8845.87470 1.90582e-17
8847.36151 1.95811e-17
8848.84832 1.87414e-17
8850.33513 1.79017e-17
8851.82193 1.70636e-17
8853.30874 1.62261e-17
8854.79555 1.61702e-17
8856.28236 1.61142e-17
8857.76917 1.59028e-17
8859.24593 1.56905e-17
8860.73274 1.44019e-17
8862.21954 1.31133e-17
8863.70635 1.18515e-17
8865.19316 1.05906e-17
8866.67997 1.04613e-17
8868.16678 1.03317e-17
8869.65358 9.77309e-18
8871.14039 9.21441e-18
8872.62720 8.56027e-18
8874.11401 7.90694e-18
8875.60082 8.26353e-18
8877.08762 8.62015e-18
8878.57443 9.02748e-18
8880.06124 9.43441e-18
8881.54805 9.35755e-18
8883.03486 9.28125e-18
8884.52166 9.91047e-18
8886.00847 1.05401e-17
8887.49528 1.17285e-17
8888.98209 1.29167e-17
8890.46890 1.38364e-17
8891.95570 1.47559e-17
8893.44251 1.55103e-17
8894.92932 1.62640e-17
8896.41613 1.61350e-17
8897.90294 1.60054e-17
8899.38974 1.52572e-17
8900.87655 1.45094e-17
8902.35331 1.43814e-17
8903.84012 1.42538e-17
8905.32693 1.44515e-17
8906.81374 1.46490e-17
8908.30055 1.45308e-17
8909.78735 1.44125e-17
8911.27416 1.41847e-17
8912.76097 1.39573e-17
8914.24778 1.40538e-17
8915.73459 1.41505e-17
8917.22139 1.43896e-17
8918.70820 1.46279e-17
8920.19501 1.40698e-17
8921.68182 1.35109e-17
8923.16863 1.20236e-17
8924.65543 1.05369e-17
8926.14224 9.63863e-18
8927.62905 8.74072e-18
8929.11586 8.20374e-18
8930.60267 7.66655e-18
8932.08947 6.86565e-18
8933.57628 6.06487e-18
8935.06309 5.39584e-18
8936.54990 4.72741e-18
8938.03671 4.79575e-18
8939.52351 4.86449e-18
8941.01032 5.43397e-18
8942.48708 6.00347e-18
8943.97389 6.61473e-18
8945.46070 7.22549e-18
8946.94751 7.23136e-18
8948.43432 7.23723e-18
8949.92112 7.24295e-18
8951.40793 7.24937e-18
8952.89474 8.12103e-18
8954.38155 8.99262e-18
8955.86836 9.78518e-18
8957.35516 1.05778e-17
8958.84197 1.14229e-17
8960.32878 1.22680e-17
8961.81559 1.29715e-17
8963.30240 1.36740e-17
8964.78920 1.32283e-17
8966.27601 1.27824e-17
8967.76282 1.21389e-17
8969.24963 1.14960e-17
8970.73644 1.15278e-17
8972.22324 1.15591e-17
8973.71005 1.09828e-17
8975.19686 1.04066e-17
8976.68367 9.87156e-18
8978.17048 9.33688e-18
8978.67224 9.33688e-18
8980.67066 9.14508e-18
8982.66907 8.92435e-18
8984.66748 8.75206e-18
8986.67599 8.71970e-18
8988.67441 8.77819e-18
8990.67282 8.82701e-18
8992.67123 8.78085e-18
8994.66965 8.71114e-18
8996.67815 8.65588e-18
8998.67657 8.61081e-18
9000.67498 8.56463e-18
9002.67340 8.55880e-18
9004.68190 8.66086e-18
9006.68032 8.85449e-18
9008.67873 9.01692e-18
9010.67714 8.97783e-18
9012.67556 8.85938e-18
9014.68407 8.68359e-18
9016.68248 8.50803e-18
9018.68089 8.38519e-18
9020.67931 8.31567e-18
9022.67772 8.22124e-18
9024.68623 8.03161e-18
9026.68464 7.86785e-18
9028.68306 7.86531e-18
9030.68147 7.92524e-18
9032.68998 7.97635e-18
9034.68839 8.00606e-18
9036.68681 8.05910e-18
9038.68522 8.15513e-18
9040.68363 8.26100e-18
9042.69214 8.34004e-18
9044.69056 8.41473e-18
9046.68897 8.49836e-18
9048.68738 8.58186e-18
9050.68580 8.64732e-18
9052.69430 8.69178e-18
9054.69272 8.74154e-18
9056.69113 8.84291e-18
9058.68955 8.92010e-18
9060.69805 8.87757e-18
9062.69647 8.81205e-18
9064.69488 8.83523e-18
9066.69330 8.96791e-18
9068.69171 9.10741e-18
9070.70022 9.15731e-18
9072.69863 9.16760e-18
9074.69704 9.13019e-18
9076.69546 9.08323e-18
9078.69387 9.03433e-18
9080.70238 9.03259e-18
9082.70079 9.12235e-18
9084.69921 9.34042e-18
9086.69762 9.57120e-18
9088.70613 9.69427e-18
9090.70454 9.73270e-18
9092.70296 9.65030e-18
9094.70137 9.50227e-18
9096.69978 9.33365e-18
9098.70829 9.21694e-18
9100.70671 9.15732e-18
9102.70512 9.22732e-18
9104.70353 9.34495e-18
9106.70195 9.46907e-18
9108.71045 9.58856e-18
9110.70887 9.72386e-18
9112.70728 9.84985e-18
9114.70570 9.92683e-18
9116.71420 9.89168e-18
9118.71262 9.83962e-18
9120.71103 9.87331e-18
9122.70945 9.91066e-18
9124.70786 9.88888e-18
9126.71637 9.77483e-18
9128.71478 9.57657e-18
9130.71319 9.30319e-18
9132.71161 9.04654e-18
9134.72012 8.94338e-18
9136.71853 8.91688e-18
9138.71694 8.96706e-18
9140.71536 9.01283e-18
9142.71377 8.97373e-18
9144.72228 8.80173e-18
9146.72069 8.62711e-18
9148.71911 8.59153e-18
9150.71752 8.65137e-18
9152.71593 8.89911e-18
9154.72444 9.16240e-18
9156.72286 9.25869e-18
9158.72127 9.11428e-18
9160.71968 8.91659e-18
9162.72819 8.84083e-18
9164.72660 8.80013e-18
9166.72502 8.77732e-18
9168.72343 8.78294e-18
9170.72185 8.84034e-18
9172.73035 8.93062e-18
9174.72877 9.02201e-18
9176.72718 9.07211e-18
9178.72559 9.09157e-18
9180.73410 9.04646e-18
9182.73252 8.99699e-18
9184.73093 8.97862e-18
9186.72934 9.01677e-18
9188.72776 9.12032e-18
9190.73626 9.28195e-18
9192.73468 9.43525e-18
9194.73309 9.44209e-18
9196.73151 9.44216e-18
9198.72992 9.53686e-18
9200.73843 9.66714e-18
9202.73684 9.72734e-18
9204.73526 9.68662e-18
9206.73367 9.65374e-18
9208.74218 9.75696e-18
9210.74059 9.86602e-18
9212.73901 9.87199e-18
9214.73742 9.85816e-18
9216.73583 9.91451e-18
9218.74434 1.00630e-17
9220.74275 1.02437e-17
9222.74117 1.04056e-17
9224.73958 1.05280e-17
9226.73800 1.05362e-17
9228.74650 1.05022e-17
9230.74492 1.04864e-17
9232.74333 1.04867e-17
9234.74175 1.04499e-17
9236.75025 1.03469e-17
9238.74867 1.02330e-17
9240.74708 1.01506e-17
9242.74549 1.01138e-17
9244.74391 1.01575e-17
9246.75242 1.02584e-17
9248.75083 1.03964e-17
9250.74924 1.05286e-17
9252.74766 1.06299e-17
9254.75616 1.06170e-17
9256.75458 1.06126e-17
9258.75299 1.07373e-17
9260.75141 1.09020e-17
9262.74982 1.10217e-17
9264.75833 1.10340e-17
9266.75674 1.09652e-17
9268.75516 1.08065e-17
9270.75357 1.06208e-17
9272.75198 1.04557e-17
9274.76049 1.03387e-17
9276.75890 1.02929e-17
9278.75732 1.03233e-17
9280.75573 1.04268e-17
9282.76424 1.05792e-17
9284.76265 1.07013e-17
9286.76107 1.06281e-17
9288.75948 1.05167e-17
9290.75790 1.04795e-17
9292.76640 1.04865e-17
9294.76482 1.04326e-17
9296.76323 1.02865e-17
9298.76164 1.01609e-17
9300.76006 1.01835e-17
9302.76857 1.03080e-17
9304.76698 1.06514e-17
9306.76539 1.09709e-17
9308.76381 1.10259e-17
9310.77231 1.07256e-17
9312.77073 1.02763e-17
9314.76914 9.84224e-18
9316.76756 9.57942e-18
9318.76597 9.91195e-18
9320.77448 1.03744e-17
9322.77289 1.05628e-17
9324.77131 1.03831e-17
9326.76972 1.01091e-17
9328.77823 9.93518e-18
9330.77664 9.78447e-18
9332.77505 9.63298e-18
9334.77347 9.56826e-18
9336.77188 9.71893e-18
9338.78039 9.97481e-18
9340.77880 1.02094e-17
9342.77722 1.02515e-17
9344.77563 1.01038e-17
9346.77405 9.44818e-18
9348.78255 8.91478e-18
9350.78097 9.08417e-18
9352.77938 9.63910e-18
9354.77779 1.01538e-17
9356.78630 1.03409e-17
9358.78471 1.04034e-17
9360.78313 1.03967e-17
9362.78154 1.03202e-17
9364.77996 1.01667e-17
9366.78846 1.00007e-17
9368.78688 9.79761e-18
9370.78529 9.70493e-18
9372.78371 9.90612e-18
9374.79221 1.06052e-17
9376.79063 1.13325e-17
9378.78904 1.16420e-17
9380.78746 1.16368e-17
9382.78587 1.12372e-17
9384.79438 1.06577e-17
9386.79279 1.01201e-17
9388.79120 9.87286e-18
9390.78962 9.73376e-18
9392.78803 9.60851e-18
9394.79654 9.54540e-18
9396.79495 9.59146e-18
9398.79337 9.67075e-18
9400.79178 9.67055e-18
9402.80029 9.58475e-18
9404.79870 9.59174e-18
9406.79712 9.95233e-18
9408.79553 1.03230e-17
9410.79394 1.04477e-17
9412.80245 1.04108e-17
9414.80086 1.03191e-17
9416.79928 1.02174e-17
9418.79769 1.00434e-17
9420.79611 9.77251e-18
9422.80461 9.55985e-18
9424.80303 9.62434e-18
9426.80144 9.80114e-18
9428.79986 1.00294e-17
9430.80836 1.01766e-17
9432.80678 1.01551e-17
9434.80519 9.88449e-18
9436.80361 9.58323e-18
9438.80202 9.50026e-18
9440.81053 9.53540e-18
9442.80894 9.75654e-18
9444.80735 9.99215e-18
9446.80577 1.00648e-17
9448.81428 9.86455e-18
9450.81269 9.57645e-18
9452.81110 9.31725e-18
9454.80952 9.22267e-18
9456.80793 9.66267e-18
9458.81644 1.01895e-17
9460.81485 1.03188e-17
9462.81327 9.92688e-18
9464.81168 9.43609e-18
9466.81009 9.22436e-18
9468.81860 9.20784e-18
9470.81702 9.56153e-18
9472.81543 1.00644e-17
9474.81384 1.06436e-17
9476.82235 1.10692e-17
9478.82076 1.12072e-17
9480.81918 1.08743e-17
9482.81759 1.03649e-17
9484.81601 9.86518e-18
9486.82451 9.49832e-18
9488.82293 9.46725e-18
9490.82134 9.66419e-18
9492.81976 9.94095e-18
9494.81817 1.00943e-17
9496.82668 1.00860e-17
9498.82509 9.64200e-18
9500.82350 9.13324e-18
9502.82192 8.75684e-18
9504.83043 8.58028e-18
9506.82884 8.63101e-18
9508.82725 8.86496e-18
9510.82567 9.15441e-18
9512.82408 9.33137e-18
9514.83259 9.41516e-18
9516.83100 9.25936e-18
9518.82942 9.08245e-18
9520.82783 9.11022e-18
9522.82624 9.32093e-18
9524.83475 9.49661e-18
9526.83317 9.43624e-18
9528.83158 9.26486e-18
9530.82999 8.94832e-18
9532.83850 8.65970e-18
9534.83691 8.57514e-18
9536.83533 8.63383e-18
9538.83374 8.67863e-18
9540.83216 8.58842e-18
9542.84066 8.45211e-18
9544.83908 8.27180e-18
9546.83749 8.14109e-18
9548.83591 8.17521e-18
9550.83432 8.30096e-18
9552.84283 8.44364e-18
9554.84124 8.51567e-18
9556.83965 8.51346e-18
9558.83807 8.36802e-18
9560.84658 8.18660e-18
9562.84499 8.05857e-18
9564.84340 7.95039e-18
9566.84182 7.82335e-18
9568.84023 7.66962e-18
9570.84874 7.50257e-18
9572.84715 7.33683e-18
9574.84557 7.20983e-18
9576.84398 7.16210e-18
9578.84239 7.20857e-18
9580.85090 7.41840e-18
9582.84931 7.69549e-18
9584.84773 7.93160e-18
9586.84614 7.99821e-18
9588.85465 7.95766e-18
9590.85306 7.75279e-18
9592.85148 7.53095e-18
9594.84989 7.36959e-18
9596.84831 7.32737e-18
9598.85681 7.44474e-18
9600.85523 7.69789e-18
9602.85364 7.96156e-18
9604.85206 8.06596e-18
9606.86056 8.08237e-18
9608.85898 7.93534e-18
9610.85739 7.79467e-18
9612.85580 7.83701e-18
9614.85422 8.07441e-18
9616.86273 8.33056e-18
9618.86114 8.43125e-18
9620.85955 8.42320e-18
9622.85797 8.19577e-18
9624.85638 7.93776e-18
9626.86489 7.78303e-18
9628.86330 7.78472e-18
9630.86172 7.91143e-18
9632.86013 8.11645e-18
9634.86864 8.26549e-18
9636.86705 8.02353e-18
9638.86547 7.77712e-18
9640.86388 7.80201e-18
9642.86229 8.01977e-18
9644.87080 8.24605e-18
9646.86921 8.34445e-18
9648.86763 8.38137e-18
9650.86604 8.34405e-18
9652.86446 8.27181e-18
9654.87296 8.16377e-18
9656.87138 8.08890e-18
9658.86979 8.11493e-18
9660.86821 8.24712e-18
9662.87671 8.40545e-18
9664.87513 8.50711e-18
9666.87354 8.56934e-18
9668.87195 8.56338e-18
9670.87037 8.51285e-18
9672.87888 8.41192e-18
9674.87729 8.30950e-18
9676.87570 8.25226e-18
9678.87412 8.29444e-18
9680.88262 8.36554e-18
9682.88104 8.40989e-18
9684.87945 8.43888e-18
9686.87787 8.43714e-18
9688.87628 8.42966e-18
9690.88479 8.45979e-18
9692.88320 8.53502e-18
9694.88162 8.58338e-18
9696.88003 8.49893e-18
9698.87844 8.36791e-18
9700.88695 8.19377e-18
9702.88536 8.05116e-18
9704.88378 7.99481e-18
9706.88219 8.05952e-18
9708.89070 8.20456e-18
9710.88911 8.41208e-18
9712.88753 8.57464e-18
9714.88594 8.50123e-18
9716.88436 8.37219e-18
9718.89286 8.36884e-18
9720.89128 8.48984e-18
9722.88969 8.55218e-18
9724.88810 8.42470e-18
9726.89661 8.33412e-18
9728.89503 8.57419e-18
9730.89344 8.87523e-18
9732.89185 9.07264e-18
9734.89027 9.12977e-18
9736.89877 9.10035e-18
9738.89719 9.03567e-18
9740.89560 8.99479e-18
9742.89402 9.15183e-18
9744.89243 9.29885e-18
9746.90094 9.31584e-18
9748.89935 9.20649e-18
9750.89776 8.97971e-18
9752.89618 8.71052e-18
9754.90469 8.50076e-18
9756.90310 8.53424e-18
9758.90151 8.60622e-18
9760.89993 8.59956e-18
9762.89834 8.50523e-18
9764.90685 8.28555e-18
9766.90526 8.01406e-18
9768.90368 7.81294e-18
9770.90209 7.82855e-18
9772.90051 7.89996e-18
9774.90901 7.90016e-18
9776.90743 7.88984e-18
9778.90584 7.88876e-18
9780.90425 7.93163e-18
9782.91276 8.05607e-18
9784.91118 8.27042e-18
9786.90959 8.47275e-18
9788.90800 8.50299e-18
9790.90642 8.47305e-18
9792.91492 8.43046e-18
9794.91334 8.36711e-18
9796.91175 8.23108e-18
9798.91017 8.03985e-18
9800.91867 7.87393e-18
9802.91709 7.85180e-18
9804.91550 7.88541e-18
9806.91392 7.95654e-18
9808.91233 8.02563e-18
9810.92084 8.05409e-18
9812.91925 8.04658e-18
9814.91766 8.06846e-18
9816.91608 8.18231e-18
9818.91449 8.27217e-18
9820.92300 8.23356e-18
9822.92141 8.09725e-18
9824.91983 7.84046e-18
9826.91824 7.54333e-18
9828.92675 7.27957e-18
9830.92516 7.15002e-18
9832.92358 7.10595e-18
9834.92199 7.15315e-18
9836.92040 7.27275e-18
9838.92891 7.52592e-18
9840.92733 7.75946e-18
9842.92574 7.78093e-18
9844.92415 7.53396e-18
9846.92257 7.30347e-18
9848.93107 7.46457e-18
9850.92949 7.69834e-18
9852.92790 7.86836e-18
9854.92632 7.94732e-18
9856.93482 7.94523e-18
9858.93324 7.86477e-18
9860.93165 7.72919e-18
9862.93007 7.56533e-18
9864.92848 7.38541e-18
9866.93699 7.16893e-18
9868.93540 7.01907e-18
9870.93381 7.05517e-18
9872.93223 7.23360e-18
9874.94074 7.41679e-18
9876.93915 7.47433e-18
9878.93756 7.50429e-18
9880.93598 7.57634e-18
9882.93439 7.62393e-18
9884.94290 7.61243e-18
9886.94131 7.52790e-18
9888.93973 7.34176e-18
9890.93814 7.09523e-18
9892.93655 6.91523e-18
9894.94506 7.06407e-18
9896.94348 7.24769e-18
9898.94189 7.27188e-18
9900.94030 7.19969e-18
9902.94881 7.14751e-18
9904.94722 7.15432e-18
9906.94564 7.13520e-18
9908.94405 7.01017e-18
9910.94247 6.94524e-18
9912.95097 7.13521e-18
9914.94939 7.42884e-18
9916.94780 7.75583e-18
9918.94621 7.97103e-18
9920.95472 7.98674e-18
9922.95314 7.68611e-18
9924.95155 7.34265e-18
9926.94996 7.27121e-18
9928.94838 7.29146e-18
9930.95689 7.30892e-18
9932.95530 7.30782e-18
9934.95371 7.35503e-18
9936.95213 7.44513e-18
9938.95054 7.48008e-18
9940.95905 7.20181e-18
9942.95746 6.99403e-18
9944.95588 7.18347e-18
9946.95429 7.58621e-18
9948.96280 8.01837e-18
9950.96121 8.22502e-18
9952.95963 8.12011e-18
9954.95804 7.37077e-18
9956.95645 6.65096e-18
9958.96496 6.61306e-18
9960.96337 6.92886e-18
9962.96179 7.34198e-18
9964.96020 7.60739e-18
9966.95862 7.69807e-18
9968.96712 7.47462e-18
9970.96554 7.20650e-18
9972.96395 7.18647e-18
9974.96236 7.24025e-18
9976.97087 7.21945e-18
9978.96929 7.17926e-18
9980.96770 7.30352e-18
9982.96611 7.66465e-18
9984.96453 7.98939e-18
9986.97304 7.86548e-18
9988.97145 7.62228e-18
9990.96986 7.39175e-18
9992.96828 7.20734e-18
9994.97678 7.00460e-18
9996.97520 6.81387e-18
9998.97361 6.70948e-18
10000.97203 6.82377e-18
10002.97044 6.99947e-18
