# wavelength flux
3492.35126 1.69938e-17
3493.82802 1.77783e-17
3495.30478 1.68613e-17
3496.78154 1.59444e-17
3498.25830 1.45156e-17
3499.73507 1.30869e-17
3501.22187 9.47372e-18
3502.69864 5.86073e-18
3504.17540 6.24882e-18
3505.65216 6.63718e-18
3507.12892 1.02461e-17
3508.60568 1.38549e-17
3510.08245 1.29248e-17
3511.55921 1.19944e-17
3513.04602 1.29472e-17
3514.52278 1.39001e-17
3515.99954 1.29565e-17
3517.47630 1.20128e-17
3518.95306 9.11294e-18
3520.42983 6.21318e-18
3521.90659 5.84733e-18
3523.38335 5.48172e-18
3524.87016 7.96737e-18
3526.34692 1.04530e-17
3527.82368 9.19171e-18
3529.30044 7.93018e-18
3530.77721 7.19276e-18
3532.25397 6.45545e-18
3533.73073 6.52042e-18
3535.20749 6.58545e-18
3536.69430 7.82507e-18
3538.17106 9.06469e-18
3539.64782 9.09397e-18
3541.12459 9.12315e-18
3542.60135 8.58574e-18
3544.07811 8.04833e-18
3545.55487 8.81638e-18
3547.03163 9.58447e-18
3548.50840 1.00653e-17
3549.99520 1.05461e-17
3551.47197 7.82451e-18
3552.94873 5.10289e-18
3554.42549 7.06916e-18
3555.90225 9.03567e-18
3557.37901 8.38841e-18
3558.85578 7.74099e-18
3560.33254 7.67572e-18
3561.81935 7.61050e-18
3563.29611 8.67481e-18
3564.77287 9.73912e-18
3566.24963 8.37092e-18
3567.72639 7.00262e-18
3569.20316 8.59234e-18
3570.67992 1.01822e-17
3572.15668 8.84564e-18
3573.64349 7.50896e-18
3575.12025 6.05939e-18
3576.59701 4.60993e-18
3578.07377 4.94565e-18
3579.55054 5.28151e-18
3581.02730 4.68409e-18
3582.50406 4.08663e-18
3583.98082 5.83264e-18
3585.46763 7.57872e-18
3586.94439 9.39289e-18
3588.42115 1.12069e-17
3589.89792 9.68507e-18
3591.37468 8.16305e-18
3592.85144 9.16400e-18
3594.32820 1.01651e-17
3595.80496 1.04082e-17
3597.28173 1.06511e-17
3598.76853 9.61926e-18
3600.24530 8.58735e-18
3601.72206 8.92662e-18
3603.19882 9.26600e-18
3604.67558 9.31291e-18
3606.15234 9.35980e-18
3607.62911 7.71430e-18
3609.10587 6.06878e-18
3610.59268 6.45002e-18
3612.06944 6.83142e-18
3613.54620 6.58693e-18
3615.02296 6.34240e-18
3616.49972 7.07670e-18
3617.97649 7.81103e-18
3619.45325 8.03954e-18
3620.93001 8.26799e-18
3622.41682 7.11812e-18
3623.89358 5.96820e-18
3625.37034 6.80138e-18
3626.84710 7.63468e-18
3628.32387 7.46194e-18
3629.80063 7.28911e-18
3631.27739 7.30378e-18
3632.75415 7.31847e-18
3634.24096 7.11693e-18
3635.71772 6.91539e-18
3637.19448 6.97028e-18
3638.67125 7.02519e-18
3640.14801 7.34528e-18
3641.62477 7.66538e-18
3643.10153 6.71171e-18
3644.57829 5.75800e-18
3646.05506 5.16392e-18
3647.54186 4.56992e-18
3649.01863 5.04546e-18
3650.49539 5.52106e-18
3651.97215 5.00392e-18
3653.44891 4.48672e-18
3654.92567 4.94253e-18
3656.40244 5.39840e-18
3657.88924 5.32874e-18
3659.36601 5.25903e-18
3660.84277 5.19855e-18
3662.31953 5.13808e-18
3663.79629 4.66129e-18
3665.27305 4.18448e-18
3666.74982 4.80673e-18
3668.22658 5.42904e-18
3669.70334 6.00515e-18
3671.19015 6.58121e-18
3672.66691 6.18318e-18
3674.14367 5.78509e-18
3675.62043 5.68110e-18
3677.09720 5.57714e-18
3678.57396 5.20210e-18
3680.05072 4.82705e-18
3681.52748 5.26780e-18
3683.01429 5.70861e-18
3684.49105 6.36057e-18
3685.96781 7.01250e-18
3687.44458 6.03867e-18
3688.92134 5.06475e-18
3690.39810 4.85374e-18
3691.87486 4.64281e-18
3693.35162 5.38196e-18
3694.83843 6.12115e-18
3696.31519 5.93061e-18
3697.79196 5.73999e-18
3699.26872 5.30076e-18
3700.74548 4.86154e-18
3702.22224 4.95803e-18
3703.69900 5.05457e-18
3705.17577 5.40686e-18
3706.66257 5.75916e-18
3708.13934 5.96831e-18
3709.61610 6.17744e-18
3711.09286 6.28904e-18
3712.56962 6.40062e-18
3714.04638 5.92471e-18
3715.52315 5.44877e-18
3716.99991 5.65207e-18
3718.47667 5.85542e-18
3719.96348 6.25218e-18
3721.44024 6.64894e-18
3722.91700 5.81585e-18
3724.39376 4.98268e-18
3725.87053 4.89858e-18
3727.34729 4.81445e-18
3728.82405 4.72162e-18
3730.30081 4.62879e-18
3731.78762 4.53597e-18
3733.26438 4.44314e-18
3734.74114 4.35035e-18
3736.21791 4.25756e-18
3737.69467 4.16475e-18
3739.17143 4.07196e-18
3740.64819 3.97918e-18
3742.12495 3.88642e-18
3743.61176 3.79364e-18
3745.08852 3.70088e-18
3746.56529 3.60813e-18
3748.04205 3.51537e-18
3749.51881 3.42262e-18
3750.99557 3.32990e-18
3752.47233 3.23718e-18
3753.94910 3.14444e-18
3755.43590 3.05172e-18
3756.91267 2.95901e-18
3758.38943 2.86631e-18
3759.86619 2.77361e-18
3761.34295 2.68092e-18
3762.81971 2.58822e-18
3764.29648 2.49554e-18
3765.77324 2.05155e-18
3767.25000 2.10324e-18
3768.73681 2.15498e-18
3770.21357 2.33086e-18
3771.69033 2.50674e-18
3773.16709 2.83495e-18
3774.64386 3.16314e-18
3776.12062 3.29992e-18
3777.59738 3.43667e-18
3779.07414 2.89271e-18
3780.56095 2.34871e-18
3782.03771 1.95487e-18
3783.51447 1.56108e-18
3784.99124 1.72384e-18
3786.46800 1.88666e-18
3787.94476 2.46494e-18
3789.42152 3.04322e-18
3790.89828 2.98435e-18
3792.38509 2.92540e-18
3793.86185 3.05507e-18
3795.33862 3.18475e-18
3796.81538 3.33564e-18
3798.29214 3.48653e-18
3799.76890 3.32274e-18
3801.24566 3.15892e-18
3802.72243 2.84694e-18
3804.20923 2.53496e-18
3805.68600 2.68930e-18
3807.16276 2.84369e-18
3808.63952 2.58247e-18
3810.11628 2.32122e-18
3811.59304 2.54733e-18
3813.06981 2.77348e-18
3814.54657 3.29484e-18
3816.03338 3.81621e-18
3817.51014 3.71596e-18
3818.98690 3.61566e-18
3820.46366 3.26164e-18
3821.94042 2.90762e-18
3823.41719 3.08704e-18
3824.89395 3.26651e-18
3826.37071 3.43051e-18
3827.84747 3.59450e-18
3829.33428 4.08310e-18
3830.81104 4.57172e-18
3832.28780 4.39258e-18
3833.76457 4.21338e-18
3835.24133 4.16687e-18
3836.71809 4.12038e-18
3838.19485 4.29903e-18
3839.67161 4.47770e-18
3841.15842 4.54358e-18
3842.63518 4.60945e-18
3844.11195 4.40084e-18
3845.58871 4.19221e-18
3847.06547 4.06328e-18
3848.54223 3.93438e-18
3850.01899 4.31717e-18
3851.49576 4.70001e-18
3852.98256 4.86431e-18
3854.45933 5.02859e-18
3855.93609 4.87827e-18
3857.41285 4.72792e-18
3858.88961 5.14806e-18
3860.36637 5.56825e-18
3861.84314 5.73564e-18
3863.31990 5.90299e-18
3864.80671 5.77054e-18
3866.28347 5.63806e-18
3867.76023 5.94696e-18
3869.23699 6.25589e-18
3870.71375 6.08218e-18
3872.19052 5.90841e-18
3873.66728 5.74925e-18
3875.14404 5.59011e-18
3876.63085 5.84497e-18
3878.10761 6.09987e-18
3879.58437 6.36778e-18
3881.06113 6.63568e-18
3882.53790 6.63304e-18
3884.01466 6.63037e-18
3885.49142 6.40641e-18
3886.96818 6.18243e-18
3888.45499 6.26044e-18
3889.93175 6.33848e-18
3891.40851 6.71592e-18
3892.88528 7.09338e-18
3894.36204 7.26548e-18
3895.83880 7.43755e-18
3897.31556 7.51163e-18
3898.79232 7.58570e-18
3900.26909 7.87845e-18
3901.75589 8.17122e-18
3903.23266 8.24731e-18
3904.70942 8.32338e-18
3906.18618 7.84362e-18
3907.66294 7.36381e-18
3909.13970 7.56275e-18
3910.61647 7.76176e-18
3912.09323 7.62470e-18
3913.58004 7.48760e-18
3915.05680 7.61788e-18
3916.53356 7.74820e-18
3918.01032 8.03247e-18
3919.48708 8.31675e-18
3920.96385 8.44767e-18
3922.44061 8.57857e-18
3923.91737 8.51709e-18
3925.40418 8.45560e-18
3926.88094 8.38571e-18
3928.35770 8.31583e-18
3929.83446 8.56077e-18
3931.31123 8.80574e-18
3932.78799 8.65598e-18
3934.26475 8.50619e-18
3935.74151 8.44024e-18
3937.22832 8.37431e-18
3938.70508 9.02347e-18
3940.18184 9.67269e-18
3941.65861 9.66628e-18
3943.13537 9.65978e-18
3944.61213 9.33186e-18
3946.08889 9.00392e-18
3947.56565 8.65102e-18
3949.05246 8.29814e-18
3950.52922 8.40574e-18
3952.00599 8.51341e-18
3953.48275 8.57406e-18
3954.95951 8.63470e-18
3956.43627 8.68926e-18
3957.91303 8.74381e-18
3959.38980 9.05941e-18
3960.86656 9.37503e-18
3962.35337 9.48647e-18
3963.83013 9.59788e-18
3965.30689 9.47101e-18
3966.78365 9.34411e-18
3968.26041 9.30762e-18
3969.73718 9.27114e-18
3971.21394 9.60340e-18
3972.69070 9.93571e-18
3974.17751 1.02582e-17
3975.65427 1.05806e-17
3977.13103 1.05207e-17
3978.60779 1.04608e-17
3980.08456 1.02321e-17
3981.56132 1.00033e-17
3983.03808 9.90707e-18
3984.51484 9.81086e-18
3986.00165 9.99670e-18
3987.47841 1.01826e-17
3988.95517 1.02824e-17
3990.43194 1.03821e-17
3991.90870 1.03042e-17
3993.38546 1.02261e-17
3994.86222 1.00326e-17
3996.33898 9.83904e-18
3997.82579 9.61105e-18
3999.30255 9.38306e-18
4000.77932 9.41829e-18
4002.25608 9.45356e-18
4003.73284 9.55868e-18
4005.20960 9.66380e-18
4006.68636 9.95572e-18
4008.16313 1.02477e-17
4009.63989 1.02565e-17
4011.12670 1.02652e-17
4012.60346 1.01630e-17
4014.08022 1.00609e-17
4015.55698 1.02261e-17
4017.03374 1.03913e-17
4018.51051 1.03791e-17
4019.98727 1.03669e-17
4021.46403 1.01124e-17
4022.95084 9.85791e-18
4024.42760 9.78888e-18
4025.90436 9.71988e-18
4027.38112 9.61442e-18
4028.85789 9.50897e-18
4030.33465 9.34510e-18
4031.81141 9.18124e-18
4033.28817 9.20410e-18
4034.77498 9.22698e-18
4036.25174 9.45731e-18
4037.72850 9.68765e-18
4039.20527 9.68058e-18
4040.68203 9.67349e-18
4042.15879 9.65085e-18
4043.63555 9.62820e-18
4045.11231 9.52910e-18
4046.59912 9.42999e-18
4048.07588 9.48538e-18
4049.55265 9.54079e-18
4051.02941 9.22536e-18
4052.50617 8.90989e-18
4053.98293 8.71335e-18
4055.45969 8.51683e-18
4056.93646 8.56256e-18
4058.41322 8.60833e-18
4059.90003 8.35595e-18
4061.37679 8.10355e-18
4062.85355 8.19187e-18
4064.33031 8.28025e-18
4065.80707 8.49155e-18
4067.28384 8.70286e-18
4068.76060 8.56158e-18
4070.23736 8.42026e-18
4071.72417 8.35244e-18
4073.20093 8.28463e-18
4074.67769 8.03461e-18
4076.15445 7.78458e-18
4077.63122 7.93434e-18
4079.10798 8.08415e-18
4080.58474 7.97457e-18
4082.06150 7.86495e-18
4083.54831 7.62971e-18
4085.02507 7.39445e-18
4086.50183 7.51845e-18
4087.97860 7.64250e-18
4089.45536 7.85968e-18
4090.93212 8.07687e-18
4092.40888 8.02799e-18
4093.88564 7.97906e-18
4095.37245 7.84749e-18
4096.84921 7.71591e-18
4098.32598 7.79876e-18
4099.80274 7.88164e-18
4101.27950 7.88831e-18
4102.75626 7.89498e-18
4104.23302 7.92327e-18
4105.70979 7.95156e-18
4107.19659 7.93600e-18
4108.67336 7.92043e-18
4110.15012 7.62677e-18
4111.62688 7.33307e-18
4113.10364 7.41469e-18
4114.58040 7.49638e-18
4116.05717 7.39027e-18
4117.53393 7.28414e-18
4119.01069 7.22448e-18
4120.49750 7.16482e-18
4121.97426 7.06187e-18
4123.45102 6.95892e-18
4124.92778 6.98898e-18
4126.40455 7.01906e-18
4127.88131 7.17142e-18
4129.35807 7.32378e-18
4130.83483 7.17926e-18
4132.32164 7.03470e-18
4133.79840 6.96463e-18
4135.27516 6.89458e-18
4136.75193 7.02696e-18
4138.22869 7.15938e-18
4139.70545 7.18892e-18
4141.18221 7.21845e-18
4142.65897 7.26320e-18
4144.14578 7.30795e-18
4145.62254 7.20988e-18
4147.09931 7.11179e-18
4148.57607 7.09920e-18
4150.05283 7.08662e-18
4151.52959 7.16639e-18
4153.00635 7.24617e-18
4154.48312 7.16600e-18
4155.96992 7.08580e-18
4157.44669 7.16964e-18
4158.92345 7.25350e-18
4160.40021 7.41321e-18
4161.87697 7.57292e-18
4163.35373 7.54676e-18
4164.83050 7.52058e-18
4166.30726 7.49040e-18
4167.79407 7.46021e-18
4169.27083 7.33325e-18
4170.74759 7.20627e-18
4172.22435 6.98946e-18
4173.70111 6.77264e-18
4175.17788 6.78243e-18
4176.65464 6.79225e-18
4178.13140 6.88755e-18
4179.61821 6.98285e-18
4181.09497 6.89833e-18
4182.57173 6.81378e-18
4184.04849 6.57797e-18
4185.52526 6.34214e-18
4187.00202 6.59745e-18
4188.47878 6.85283e-18
4189.95554 6.97252e-18
4191.43230 7.09217e-18
4192.91911 7.07132e-18
4194.39587 7.05045e-18
4195.87264 6.93456e-18
4197.34940 6.81866e-18
4198.82616 6.87001e-18
4200.30292 6.92138e-18
4201.77968 6.81578e-18
4203.25645 6.71016e-18
4204.74325 6.65043e-18
4206.22002 6.59071e-18
4207.69678 6.51321e-18
4209.17354 6.43571e-18
4210.65030 6.44986e-18
4212.12706 6.46402e-18
4213.60383 6.64914e-18
4215.08059 6.83427e-18
4216.56740 6.73787e-18
4218.04416 6.64142e-18
4219.52092 6.80224e-18
4220.99768 6.96310e-18
4222.47444 7.10881e-18
4223.95121 7.25450e-18
4225.42797 7.29856e-18
4226.90473 7.34259e-18
4228.39154 7.26067e-18
4229.86830 7.17874e-18
4231.34506 7.25000e-18
4232.82182 7.32129e-18
4234.29859 7.39639e-18
4235.77535 7.47148e-18
4237.25211 7.31407e-18
4238.72887 7.15662e-18
4240.20563 7.08112e-18
4241.69244 7.00564e-18
4243.16920 6.96538e-18
4244.64597 6.92512e-18
4246.12273 6.82281e-18
4247.59949 6.72049e-18
4249.07625 6.70153e-18
4250.55301 6.68259e-18
4252.02978 6.72611e-18
4253.51658 6.76963e-18
4254.99335 6.76851e-18
4256.47011 6.76737e-18
4257.94687 6.94547e-18
4259.42363 7.12359e-18
4260.90039 7.03742e-18
4262.37716 6.95120e-18
4263.85392 6.64933e-18
4265.34073 6.34743e-18
4266.81749 6.61001e-18
4268.29425 6.87267e-18
4269.77101 6.90843e-18
4271.24777 6.94415e-18
4272.72454 6.96919e-18
4274.20130 6.99423e-18
4275.67806 6.80536e-18
4277.16487 6.61647e-18
4278.64163 6.65548e-18
4280.11839 6.69453e-18
4281.59515 6.73408e-18
4283.07192 6.77363e-18
4284.54868 6.85057e-18
4286.02544 6.92752e-18
4287.50220 6.79543e-18
4288.98901 6.66330e-18
4290.46577 6.64391e-18
4291.94253 6.62454e-18
4293.41930 6.69661e-18
4294.89606 6.76869e-18
4296.37282 6.81061e-18
4297.84958 6.85253e-18
4299.32634 6.89783e-18
4300.80311 6.94314e-18
4302.28991 6.96466e-18
4303.76668 6.98618e-18
4305.24344 6.89867e-18
4306.72020 6.81115e-18
4308.19696 6.53340e-18
4309.67372 6.25563e-18
4311.15049 6.26193e-18
4312.62725 6.26829e-18
4314.11406 6.50189e-18
4315.59082 6.73551e-18
4317.06758 6.83076e-18
4318.54434 6.92597e-18
4320.02110 6.84377e-18
4321.49787 6.76153e-18
4322.97463 6.73083e-18
4324.45139 6.70014e-18
4325.93820 6.86204e-18
4327.41496 7.02396e-18
4328.89172 6.87990e-18
4330.36848 6.73579e-18
4331.84525 6.56718e-18
4333.32201 6.39857e-18
4334.79877 6.55328e-18
4336.27553 6.70803e-18
4337.76234 6.67346e-18
4339.23910 6.63885e-18
4340.71586 6.50981e-18
4342.19263 6.38075e-18
4343.66939 6.16483e-18
4345.14615 5.94889e-18
4346.62291 6.02902e-18
4348.09967 6.10920e-18
4349.58648 6.37028e-18
4351.06324 6.63138e-18
4352.54001 6.64289e-18
4354.01677 6.65435e-18
4355.49353 6.54339e-18
4356.97029 6.43240e-18
4358.44705 6.39655e-18
4359.92382 6.36071e-18
4361.40058 6.56262e-18
4362.88739 6.76456e-18
4364.36415 7.08924e-18
4365.84091 7.05892e-18
4367.31767 7.02860e-18
4368.79443 6.99828e-18
4370.27120 6.96796e-18
4371.74796 6.93765e-18
4373.22472 6.90733e-18
4374.71153 6.87701e-18
4376.18829 6.84670e-18
4377.66505 6.81640e-18
4379.14181 6.78609e-18
4380.61858 6.75578e-18
4382.09534 6.72547e-18
4383.57210 6.69517e-18
4385.04886 6.66486e-18
4386.53567 6.63456e-18
4388.01243 6.60426e-18
4389.48919 6.57396e-18
4390.96596 6.54366e-18
4392.44272 6.51337e-18
4393.91948 6.48308e-18
4395.39624 6.45278e-18
4396.87300 6.42249e-18
4398.35981 6.39220e-18
4399.83657 6.36191e-18
4401.31334 6.33162e-18
4402.79010 6.30134e-18
4404.26686 6.19105e-18
4405.74362 6.12666e-18
4407.22038 6.06228e-18
4408.69715 6.10146e-18
4410.17391 6.14066e-18
4411.66072 6.20182e-18
4413.13748 6.26299e-18
4414.61424 6.37474e-18
4416.09100 6.48648e-18
4417.56776 6.41872e-18
4419.04453 6.35093e-18
4420.52129 6.28262e-18
4421.99805 6.21431e-18
4423.48486 6.40956e-18
4424.96162 6.60485e-18
4426.43838 6.62778e-18
4427.91514 6.65068e-18
4429.39191 6.53397e-18
4430.86867 6.41723e-18
4432.34543 6.38757e-18
4433.82219 6.35792e-18
4435.30900 6.38435e-18
4436.78576 6.41079e-18
4438.26252 6.42365e-18
4439.73929 6.43650e-18
4441.21605 6.45762e-18
4442.69281 6.47874e-18
4444.16957 6.52110e-18
4445.64633 6.56346e-18
4447.13314 6.56981e-18
4448.60990 6.57615e-18
4450.08667 6.61848e-18
4451.56343 6.66082e-18
4453.04019 6.70379e-18
4454.51695 6.74675e-18
4455.99371 6.77154e-18
4457.47048 6.79631e-18
4458.95728 6.89588e-18
4460.43405 6.99544e-18
4461.91081 7.14576e-18
4463.38757 7.29607e-18
4464.86433 7.37382e-18
4466.34109 7.45155e-18
4467.81786 7.26255e-18
4469.29462 7.07351e-18
4470.78143 7.07029e-18
4472.25819 7.06711e-18
4473.73495 7.36989e-18
4475.21171 7.67271e-18
4476.68847 7.58623e-18
4478.16524 7.49967e-18
4479.64200 7.55341e-18
4481.11876 7.60718e-18
4482.59552 7.87456e-18
4484.08233 8.14197e-18
4485.55909 8.14400e-18
4487.03585 8.14599e-18
4488.51262 8.23415e-18
4489.98938 8.32233e-18
4491.46614 8.37932e-18
4492.94290 8.43629e-18
4494.41966 8.56380e-18
4495.90647 8.69131e-18
4497.38323 8.94681e-18
4498.86000 9.20232e-18
4500.33676 9.13051e-18
4501.81352 9.05865e-18
4503.29028 8.88002e-18
4504.76704 8.70138e-18
4506.24381 8.74503e-18
4507.73061 8.78871e-18
4509.20738 9.13396e-18
4510.68414 9.47925e-18
4512.16090 9.74250e-18
4513.63766 1.00057e-17
4515.11442 1.00577e-17
4516.59119 1.01097e-17
4518.06795 9.77356e-18
4519.55476 9.43741e-18
4521.03152 9.51277e-18
4522.50828 9.58820e-18
4523.98504 9.88382e-18
4525.46180 1.01795e-17
4526.93857 1.02260e-17
4528.41533 1.02726e-17
4529.89209 1.01954e-17
4531.36885 1.01182e-17
4532.85566 1.01671e-17
4534.33242 1.02161e-17
4535.80918 1.03714e-17
4537.28595 1.05268e-17
4538.76271 1.06572e-17
4540.23947 1.07875e-17
4541.71623 1.08406e-17
4543.19299 1.08937e-17
4544.67980 1.10433e-17
4546.15656 1.11929e-17
4547.63333 1.13037e-17
4549.11009 1.14146e-17
4550.58685 1.12358e-17
4552.06361 1.10570e-17
4553.54037 1.12006e-17
4555.01714 1.13442e-17
4556.50394 1.15136e-17
4557.98071 1.16831e-17
4559.45747 1.17224e-17
4560.93423 1.17616e-17
4562.41099 1.18713e-17
4563.88775 1.19809e-17
4565.36452 1.19351e-17
4566.84128 1.18892e-17
4568.32809 1.20496e-17
4569.80485 1.22100e-17
4571.28161 1.23452e-17
4572.75837 1.24805e-17
4574.23513 1.23705e-17
4575.71190 1.22605e-17
4577.18866 1.21597e-17
4578.66542 1.20589e-17
4580.15223 1.21931e-17
4581.62899 1.23273e-17
4583.10575 1.25024e-17
4584.58251 1.26774e-17
4586.05928 1.28127e-17
4587.53604 1.29480e-17
4589.01280 1.30372e-17
4590.48956 1.31264e-17
4591.96632 1.30976e-17
4593.45313 1.30688e-17
4594.92989 1.28776e-17
4596.40666 1.26864e-17
4597.88342 1.26803e-17
4599.36018 1.26743e-17
4600.83694 1.25903e-17
4602.31370 1.25064e-17
4603.79047 1.26050e-17
4605.27727 1.27036e-17
4606.75404 1.27804e-17
4608.23080 1.28571e-17
4609.70756 1.28132e-17
4611.18432 1.27691e-17
4612.66108 1.27843e-17
4614.13785 1.27994e-17
4615.61461 1.27766e-17
4617.10142 1.27538e-17
4618.57818 1.29114e-17
4620.05494 1.30689e-17
4621.53170 1.30913e-17
4623.00846 1.31136e-17
4624.48523 1.30898e-17
4625.96199 1.30660e-17
4627.43875 1.31473e-17
4628.92556 1.32286e-17
4630.40232 1.31086e-17
4631.87908 1.29884e-17
4633.35584 1.29803e-17
4634.83261 1.29723e-17
4636.30937 1.29317e-17
4637.78613 1.28912e-17
4639.26289 1.28073e-17
4640.74970 1.27233e-17
4642.22646 1.26389e-17
4643.70322 1.25545e-17
4645.17999 1.26662e-17
4646.65675 1.27780e-17
4648.13351 1.27714e-17
4649.61027 1.27647e-17
4651.08703 1.28162e-17
4652.56380 1.28676e-17
4654.05060 1.29580e-17
4655.52737 1.30483e-17
4657.00413 1.29320e-17
4658.48089 1.28156e-17
4659.95765 1.26063e-17
4661.43441 1.23969e-17
4662.91118 1.23787e-17
4664.38794 1.23604e-17
4665.87475 1.24382e-17
4667.35151 1.25161e-17
4668.82827 1.25283e-17
4670.30503 1.25405e-17
4671.78179 1.24800e-17
4673.25856 1.24195e-17
4674.73532 1.23524e-17
4676.21208 1.22853e-17
4677.69889 1.24001e-17
4679.17565 1.25149e-17
4680.65241 1.24965e-17
4682.12917 1.24782e-17
4683.60594 1.24067e-17
4685.08270 1.23352e-17
4686.55946 1.22808e-17
4688.03622 1.22263e-17
4689.52303 1.22353e-17
4690.99979 1.22442e-17
4692.47655 1.21610e-17
4693.95332 1.20779e-17
4695.43008 1.19836e-17
4696.90684 1.18893e-17
4698.38360 1.16685e-17
4699.86036 1.14478e-17
4701.33713 1.14548e-17
4702.82393 1.14619e-17
4704.30070 1.18426e-17
4705.77746 1.22233e-17
4707.25422 1.21460e-17
4708.73098 1.20685e-17
4710.20774 1.17555e-17
4711.68451 1.14424e-17
4713.16127 1.11682e-17
4714.64808 1.08940e-17
4716.12484 1.08342e-17
4717.60160 1.07744e-17
4719.07836 1.09404e-17
4720.55512 1.11065e-17
4722.03189 1.12425e-17
4723.50865 1.13786e-17
4724.98541 1.12872e-17
4726.47222 1.11958e-17
4727.94898 1.08516e-17
4729.42574 1.05073e-17
4730.90250 1.04907e-17
4732.37927 1.04743e-17
4733.85603 1.07794e-17
4735.33279 1.10845e-17
4736.80955 1.09993e-17
4738.29636 1.09141e-17
4739.77312 1.07781e-17
4741.24988 1.06422e-17
4742.72665 1.05436e-17
4744.20341 1.04451e-17
4745.68017 1.03049e-17
4747.15693 1.01648e-17
4748.63369 1.00611e-17
4750.12050 9.95750e-18
4751.59726 9.99128e-18
4753.07403 1.00251e-17
4754.55079 1.01877e-17
4756.02755 1.03504e-17
4757.50431 1.02433e-17
4758.98107 1.01361e-17
4760.45784 9.97545e-18
4761.94464 9.81482e-18
4763.42141 9.82256e-18
4764.89817 9.83034e-18
4766.37493 9.63858e-18
4767.85169 9.44678e-18
4769.32845 9.41985e-18
4770.80522 9.39296e-18
4772.28198 9.46304e-18
4773.75874 9.53313e-18
4775.24555 9.27972e-18
4776.72231 9.02625e-18
4778.19907 8.87507e-18
4779.67583 8.72392e-18
4781.15260 8.87495e-18
4782.62936 9.02605e-18
4784.10612 8.85498e-18
4785.58288 8.68385e-18
4787.06969 8.47528e-18
4788.54645 8.26672e-18
4790.02321 8.14324e-18
4791.49998 8.01978e-18
4792.97674 8.13789e-18
4794.45350 8.25605e-18
4795.93026 8.40032e-18
4797.40702 8.54459e-18
4798.89383 8.34462e-18
4800.37059 8.14457e-18
4801.84736 8.01605e-18
4803.32412 7.88755e-18
4804.80088 7.90921e-18
4806.27764 7.93090e-18
4807.75440 8.09036e-18
4809.23117 8.24985e-18
4810.71797 8.36865e-18
4812.19474 8.48743e-18
4813.67150 8.51817e-18
4815.14826 8.54888e-18
4816.62502 8.54633e-18
4818.10178 8.54377e-18
4819.57855 8.63427e-18
4821.05531 8.72478e-18
4822.54212 8.71402e-18
4824.01888 8.70324e-18
4825.49564 8.54778e-18
4826.97240 8.39230e-18
4828.44916 8.38410e-18
4829.92593 8.37593e-18
4831.40269 8.57490e-18
4832.87945 8.77390e-18
4834.35621 8.78846e-18
4835.84302 8.80298e-18
4837.31978 8.72831e-18
4838.79654 8.65363e-18
4840.27331 8.69440e-18
4841.75007 8.73519e-18
4843.22683 8.71972e-18
4844.70359 8.70424e-18
4846.18035 8.65534e-18
4847.66716 8.60643e-18
4849.14392 8.46760e-18
4850.62069 8.32875e-18
4852.09745 8.49006e-18
4853.57421 8.65145e-18
4855.05097 8.80689e-18
4856.52773 8.96232e-18
4858.00450 8.57780e-18
4859.49130 8.19317e-18
4860.96807 8.04604e-18
4862.44483 7.89898e-18
4863.92159 8.03437e-18
4865.39835 8.16981e-18
4866.87511 8.15757e-18
4868.35188 8.14533e-18
4869.82864 8.13309e-18
4871.31545 8.12085e-18
4872.79221 8.10862e-18
4874.26897 8.09638e-18
4875.74573 8.08414e-18
4877.22249 8.07191e-18
4878.69926 8.05967e-18
4880.17602 8.04744e-18
4881.65278 8.03521e-18
4883.12954 8.02298e-18
4884.61635 8.01075e-18
4886.09311 7.99851e-18
4887.56987 7.98628e-18
4889.04664 7.97405e-18
4890.52340 7.96183e-18
4892.00016 7.94960e-18
4893.47692 7.93737e-18
4894.95368 7.92515e-18
4896.44049 7.91292e-18
4897.91725 7.90070e-18
4899.39402 7.88847e-18
4900.87078 7.87625e-18
4902.34754 7.86403e-18
4903.82430 7.94562e-18
4905.30106 8.17232e-18
4906.77783 8.39904e-18
4908.26463 8.52640e-18
4909.74140 8.65372e-18
4911.21816 8.69284e-18
4912.69492 8.73193e-18
4914.17168 8.87545e-18
4915.64844 9.01898e-18
4917.12521 9.15396e-18
4918.60197 9.28892e-18
4920.08878 9.47555e-18
4921.56554 9.66219e-18
4923.04230 9.75265e-18
4924.51906 9.84307e-18
4925.99582 9.98952e-18
4927.47259 1.01360e-17
4928.94935 1.03149e-17
4930.42611 1.04937e-17
4931.91292 1.05800e-17
4933.38968 1.06663e-17
4934.86644 1.05863e-17
4936.34320 1.05063e-17
4937.81997 1.06101e-17
4939.29673 1.07139e-17
4940.77349 1.09883e-17
4942.25025 1.12627e-17
4943.72701 1.12609e-17
4945.21382 1.12590e-17
4946.69058 1.12419e-17
4948.16735 1.12248e-17
4949.64411 1.13584e-17
4951.12087 1.14922e-17
4952.59763 1.16503e-17
4954.07439 1.18085e-17
4955.55116 1.18836e-17
4957.03796 1.19586e-17
4958.51473 1.19723e-17
4959.99149 1.19860e-17
4961.46825 1.20343e-17
4962.94501 1.20826e-17
4964.42177 1.20474e-17
4965.89854 1.20121e-17
4967.37530 1.19769e-17
4968.86211 1.19416e-17
4970.33887 1.19064e-17
4971.81563 1.18712e-17
4973.29239 1.18359e-17
4974.76915 1.18007e-17
4976.24592 1.17655e-17
4977.72268 1.17303e-17
4979.19944 1.16950e-17
4980.68625 1.16598e-17
4982.16301 1.16246e-17
4983.63977 1.15894e-17
4985.11653 1.15541e-17
4986.59330 1.15189e-17
4988.07006 1.14837e-17
4989.54682 1.14485e-17
4991.02358 1.14133e-17
4992.51039 1.13781e-17
4993.98715 1.13429e-17
4995.46391 1.13077e-17
4996.94068 1.12725e-17
4998.41744 1.12373e-17
4999.89420 1.12021e-17
5001.37096 1.10986e-17
5002.84772 1.10056e-17
5004.33453 1.09126e-17
5005.81129 1.08557e-17
5007.28806 1.07988e-17
5008.76482 1.07434e-17
5010.24158 1.06880e-17
5011.71834 1.05584e-17
5013.19510 1.04778e-17
5014.67187 1.03971e-17
5016.14863 1.03164e-17
5017.63544 1.02358e-17
5019.11220 1.01551e-17
5020.58896 1.00745e-17
5022.06572 9.99383e-18
5023.54248 9.91320e-18
5025.01925 9.83260e-18
5026.49601 9.75198e-18
5027.97277 9.67136e-18
5029.45958 9.59072e-18
5030.93634 9.51011e-18
5032.41310 9.42950e-18
5033.88986 9.34890e-18
5035.36663 9.26831e-18
5036.84339 9.18772e-18
5038.32015 9.10714e-18
5039.79691 9.02653e-18
5041.28372 8.94598e-18
5042.76048 8.86541e-18
5044.23724 8.78484e-18
5045.71401 8.70428e-18
5047.19077 8.62373e-18
5048.66753 8.54315e-18
5050.14429 8.54127e-18
5051.62105 8.53944e-18
5053.10786 8.70495e-18
5054.58462 8.87049e-18
5056.06139 8.83191e-18
5057.53815 8.79329e-18
5059.01491 8.95112e-18
5060.49167 9.10900e-18
5061.96843 9.23572e-18
5063.44520 9.36242e-18
5064.92196 9.30954e-18
5066.40877 9.25662e-18
5067.88553 9.25066e-18
5069.36229 9.24471e-18
5070.83905 9.39180e-18
5072.31581 9.53892e-18
5073.79258 9.60268e-18
5075.26934 9.66640e-18
5076.74610 9.61711e-18
5078.23291 9.56779e-18
5079.70967 9.66125e-18
5081.18643 9.75474e-18
5082.66319 9.92298e-18
5084.13996 1.00912e-17
5085.61672 1.02495e-17
5087.09348 1.04077e-17
5088.57024 1.03902e-17
5090.05705 1.03726e-17
5091.53381 1.02053e-17
5093.01057 1.00380e-17
5094.48734 1.01824e-17
5095.96410 1.03268e-17
5097.44086 1.05224e-17
5098.91762 1.07180e-17
5100.39438 1.06315e-17
5101.88119 1.05448e-17
5103.35795 1.06137e-17
5104.83472 1.06825e-17
5106.31148 1.07779e-17
5107.78824 1.08733e-17
5109.26500 1.07731e-17
5110.74176 1.06729e-17
5112.21853 1.07040e-17
5113.70533 1.07352e-17
5115.18210 1.08239e-17
5116.65886 1.09126e-17
5118.13562 1.08381e-17
5119.61238 1.07635e-17
5121.08914 1.09087e-17
5122.56591 1.10540e-17
5124.04267 1.12155e-17
5125.51943 1.13770e-17
5127.00624 1.12278e-17
5128.48300 1.10786e-17
5129.95976 1.10360e-17
5131.43652 1.09934e-17
5132.91329 1.10538e-17
5134.39005 1.11141e-17
5135.86681 1.12829e-17
5137.34357 1.14518e-17
5138.83038 1.14567e-17
5140.30714 1.14616e-17
5141.78390 1.14096e-17
5143.26067 1.13575e-17
5144.73743 1.14576e-17
5146.21419 1.15578e-17
5147.69095 1.15368e-17
5149.16771 1.15158e-17
5150.65452 1.14317e-17
5152.13128 1.13476e-17
5153.60805 1.15099e-17
5155.08481 1.16722e-17
5156.56157 1.17775e-17
5158.03833 1.18828e-17
5159.51509 1.17922e-17
5160.99186 1.17016e-17
5162.47866 1.17752e-17
5163.95543 1.18488e-17
5165.43219 1.18849e-17
5166.90895 1.19210e-17
5168.38571 1.17191e-17
5169.86247 1.15171e-17
5171.33924 1.14073e-17
5172.81600 1.12976e-17
5174.29276 1.14301e-17
5175.77957 1.15627e-17
5177.25633 1.17428e-17
5178.73309 1.19230e-17
5180.20985 1.19183e-17
5181.68662 1.19136e-17
5183.16338 1.18259e-17
5184.64014 1.17383e-17
5186.12695 1.15805e-17
5187.60371 1.14226e-17
5189.08047 1.14275e-17
5190.55723 1.14325e-17
5192.03400 1.16867e-17
5193.51076 1.19410e-17
5194.98752 1.20657e-17
5196.46428 1.21902e-17
5197.94104 1.20131e-17
5199.42785 1.18358e-17
5200.90461 1.18759e-17
5202.38138 1.19161e-17
5203.85814 1.20433e-17
5205.33490 1.21706e-17
5206.81166 1.22037e-17
5208.28842 1.22367e-17
5209.76519 1.24305e-17
5211.25199 1.26243e-17
5212.72876 1.26415e-17
5214.20552 1.26587e-17
5215.68228 1.25497e-17
5217.15904 1.24407e-17
5218.63580 1.25750e-17
5220.11257 1.27094e-17
5221.58933 1.29928e-17
5223.07614 1.32762e-17
5224.55290 1.32967e-17
5226.02966 1.33172e-17
5227.50642 1.33186e-17
5228.98318 1.33199e-17
5230.45995 1.33068e-17
5231.93671 1.32936e-17
5233.41347 1.33113e-17
5234.90028 1.33290e-17
5236.37704 1.34831e-17
5237.85380 1.36372e-17
5239.33056 1.38067e-17
5240.80733 1.39761e-17
5242.28409 1.39387e-17
5243.76085 1.39011e-17
5245.23761 1.41022e-17
5246.71437 1.43033e-17
5248.20118 1.44418e-17
5249.67794 1.45803e-17
5251.15471 1.45612e-17
5252.63147 1.45420e-17
5254.10823 1.44750e-17
5255.58499 1.44079e-17
5257.06175 1.43624e-17
5258.53852 1.43170e-17
5260.02532 1.45257e-17
5261.50209 1.47346e-17
5262.97885 1.49160e-17
5264.45561 1.50974e-17
5265.93237 1.50242e-17
5267.40913 1.49508e-17
5268.88590 1.50716e-17
5270.36266 1.51924e-17
5271.84947 1.52744e-17
5273.32623 1.53563e-17
5274.80299 1.51051e-17
5276.27975 1.48538e-17
5277.75651 1.49889e-17
5279.23328 1.51240e-17
5280.71004 1.52898e-17
5282.18680 1.54556e-17
5283.67361 1.55641e-17
5285.15037 1.56726e-17
5286.62713 1.57147e-17
5288.10389 1.57568e-17
5289.58066 1.56047e-17
5291.05742 1.54525e-17
5292.53418 1.54308e-17
5294.01094 1.54092e-17
5295.49775 1.56502e-17
5296.97451 1.58913e-17
5298.45127 1.59375e-17
5299.92804 1.59837e-17
5301.40480 1.59501e-17
5302.88156 1.59166e-17
5304.35832 1.58045e-17
5305.83508 1.56925e-17
5307.31185 1.56608e-17
5308.79865 1.56291e-17
5310.27542 1.59208e-17
5311.75218 1.62126e-17
5313.22894 1.63507e-17
5314.70570 1.64887e-17
5316.18246 1.64195e-17
5317.65923 1.63501e-17
5319.13599 1.63480e-17
5320.62280 1.63458e-17
5322.09956 1.63625e-17
5323.57632 1.63792e-17
5325.05308 1.64551e-17
5326.52984 1.65311e-17
5328.00661 1.66384e-17
5329.48337 1.67458e-17
5330.96013 1.67607e-17
5332.44694 1.67755e-17
5333.92370 1.65776e-17
5335.40046 1.63797e-17
5336.87722 1.64424e-17
5338.35399 1.65052e-17
5339.83075 1.65358e-17
5341.30751 1.65664e-17
5342.78427 1.66984e-17
5344.27108 1.68305e-17
5345.74784 1.67585e-17
5347.22460 1.66865e-17
5348.70137 1.67733e-17
5350.17813 1.68601e-17
5351.65489 1.67375e-17
5353.13165 1.66149e-17
5354.60841 1.63146e-17
5356.08518 1.60143e-17
5357.57198 1.61898e-17
5359.04875 1.63653e-17
5360.52551 1.64219e-17
5362.00227 1.64785e-17
5363.47903 1.63011e-17
5364.95579 1.61236e-17
5366.43256 1.60684e-17
5367.90932 1.60133e-17
5369.39613 1.61371e-17
5370.87289 1.62609e-17
5372.34965 1.61558e-17
5373.82641 1.60505e-17
5375.30317 1.58863e-17
5376.77994 1.57221e-17
5378.25670 1.55630e-17
5379.73346 1.54039e-17
5381.22027 1.54570e-17
5382.69703 1.55101e-17
5384.17379 1.58183e-17
5385.65055 1.61266e-17
5387.12732 1.61724e-17
5388.60408 1.62181e-17
5390.08084 1.59588e-17
5391.55760 1.56994e-17
5393.04441 1.56295e-17
5394.52117 1.55597e-17
5395.99793 1.55508e-17
5397.47470 1.55419e-17
5398.95146 1.56052e-17
5400.42822 1.56684e-17
5401.90498 1.56437e-17
5403.38174 1.56189e-17
5404.86855 1.55385e-17
5406.34531 1.54581e-17
5407.82208 1.55480e-17
5409.29884 1.56379e-17
5410.77560 1.57493e-17
5412.25236 1.58607e-17
5413.72912 1.59464e-17
5415.20589 1.60321e-17
5416.68265 1.59372e-17
5418.16946 1.58423e-17
5419.64622 1.59171e-17
5421.12298 1.59920e-17
5422.59974 1.60818e-17
5424.07650 1.61716e-17
5425.55327 1.63174e-17
5427.03003 1.64633e-17
5428.50679 1.66326e-17
5429.99360 1.68019e-17
5431.47036 1.68665e-17
5432.94712 1.69310e-17
5434.42388 1.69687e-17
5435.90065 1.70064e-17
5437.37741 1.71522e-17
5438.85417 1.72981e-17
5440.33093 1.74373e-17
5441.81774 1.75765e-17
5443.29450 1.76809e-17
5444.77126 1.77852e-17
5446.24803 1.78755e-17
5447.72479 1.79658e-17
5449.20155 1.77389e-17
5450.67831 1.75119e-17
5452.15507 1.73607e-17
5453.64188 1.72094e-17
5455.11864 1.72819e-17
5456.59541 1.73545e-17
5458.07217 1.72883e-17
5459.54893 1.72220e-17
5461.02569 1.70533e-17
5462.50245 1.68845e-17
5463.97922 1.72415e-17
5465.46602 1.75987e-17
5466.94279 1.76952e-17
5468.41955 1.77916e-17
5469.89631 1.78474e-17
5471.37307 1.79033e-17
5472.84983 1.78496e-17
5474.32660 1.77960e-17
5475.80336 1.78757e-17
5477.29017 1.79555e-17
5478.76693 1.79305e-17
5480.24369 1.79054e-17
5481.72045 1.78066e-17
5483.19721 1.77079e-17
5484.67398 1.76238e-17
5486.15074 1.75398e-17
5487.62750 1.74833e-17
5489.10426 1.74268e-17
5490.59107 1.74784e-17
5492.06783 1.75301e-17
5493.54459 1.75118e-17
5495.02136 1.74935e-17
5496.49812 1.73930e-17
5497.97488 1.72925e-17
5499.45164 1.72236e-17
5500.92840 1.71546e-17
5502.41521 1.71479e-17
5503.89197 1.71413e-17
5505.36874 1.70962e-17
5506.84550 1.70511e-17
5508.32226 1.69422e-17
5509.79902 1.68333e-17
5511.27578 1.68125e-17
5512.75255 1.67918e-17
5514.23935 1.68446e-17
5515.71612 1.68974e-17
5517.19288 1.69194e-17
5518.66964 1.69413e-17
5520.14640 1.68845e-17
5521.62316 1.68276e-17
5523.09993 1.67521e-17
5524.57669 1.66767e-17
5526.06350 1.66818e-17
5527.54026 1.66870e-17
5529.01702 1.67519e-17
5530.49378 1.68169e-17
5531.97054 1.66674e-17
5533.44731 1.65180e-17
5534.92407 1.63198e-17
5536.40083 1.61217e-17
5537.87759 1.60751e-17
5539.36440 1.60286e-17
5540.84116 1.62192e-17
5542.31792 1.64098e-17
5543.79469 1.63478e-17
5545.27145 1.62858e-17
5546.74821 1.63166e-17
5548.22497 1.63474e-17
5549.70173 1.64945e-17
5551.18854 1.66416e-17
5552.66530 1.65806e-17
5554.14207 1.65195e-17
5555.61883 1.63871e-17
5557.09559 1.62547e-17
5558.57235 1.62983e-17
5560.04911 1.63418e-17
5561.52588 1.61648e-17
5563.01268 1.59876e-17
5564.48945 1.58616e-17
5565.96621 1.57356e-17
5567.44297 1.59979e-17
5568.91973 1.62604e-17
5570.39649 1.63641e-17
5571.87326 1.64677e-17
5573.35002 1.63420e-17
5574.83683 1.62162e-17
5576.31359 1.60925e-17
5577.79035 1.59689e-17
5579.26711 1.61034e-17
5580.74387 1.62380e-17
5582.22064 1.63909e-17
5583.69740 1.65438e-17
5585.17416 1.64181e-17
5586.66097 1.62923e-17
5588.13773 1.61778e-17
5589.61449 1.60634e-17
5591.09125 1.59939e-17
5592.56802 1.59245e-17
5594.04478 1.59436e-17
5595.52154 1.59628e-17
5596.99830 1.60682e-17
5598.47506 1.61735e-17
5599.96187 1.60647e-17
5601.43863 1.59558e-17
5602.91540 1.58313e-17
5604.39216 1.57069e-17
5605.86892 1.57298e-17
5607.34568 1.57528e-17
5608.82244 1.58900e-17
5610.29921 1.60272e-17
5611.78601 1.58586e-17
5613.26278 1.56898e-17
5614.73954 1.56738e-17
5616.21630 1.56579e-17
5617.69306 1.56420e-17
5619.16982 1.56262e-17
5620.64659 1.54913e-17
5622.12335 1.53564e-17
5623.61016 1.51075e-17
5625.08692 1.48585e-17
5626.56368 1.49179e-17
5628.04044 1.49774e-17
5629.51720 1.50173e-17
5630.99397 1.50572e-17
5632.47073 1.48234e-17
5633.94749 1.45895e-17
5635.43430 1.42829e-17
5636.91106 1.39763e-17
5638.38782 1.38820e-17
5639.86458 1.37877e-17
5641.34135 1.38412e-17
5642.81811 1.38947e-17
5644.29487 1.37801e-17
5645.77163 1.36655e-17
5647.25844 1.33822e-17
5648.73520 1.30988e-17
5650.21196 1.28608e-17
5651.68873 1.26228e-17
5653.16549 1.24386e-17
5654.64225 1.22544e-17
5656.11901 1.20787e-17
5657.59577 1.19031e-17
5659.07254 1.18400e-17
5660.55934 1.17769e-17
5662.03611 1.16994e-17
5663.51287 1.16219e-17
5664.98963 1.13197e-17
5666.46639 1.10175e-17
5667.94315 1.07180e-17
5669.41992 1.04185e-17
5670.89668 1.02829e-17
5672.38349 1.01473e-17
5673.86025 1.00916e-17
5675.33701 1.00358e-17
5676.81377 9.95915e-18
5678.29053 9.88246e-18
5679.76730 9.57383e-18
5681.24406 9.26514e-18
5682.72082 9.30000e-18
5684.20763 9.33498e-18
5685.68439 9.31815e-18
5687.16115 9.30130e-18
5688.63791 9.15721e-18
5690.11468 9.01308e-18
5691.59144 8.89639e-18
5693.06820 8.77970e-18
5694.54496 8.79832e-18
5696.03177 8.81698e-18
5697.50853 8.90796e-18
5698.98529 8.99897e-18
5700.46206 8.97578e-18
5701.93882 8.95256e-18
5703.41558 8.82134e-18
5704.89234 8.69009e-18
5706.36910 8.61672e-18
5707.84587 8.54338e-18
5709.33267 8.66309e-18
5710.80944 8.78286e-18
5712.28620 8.89272e-18
5713.76296 9.00257e-18
5715.23972 8.97856e-18
5716.71648 8.95451e-18
5718.19325 8.99487e-18
5719.67001 9.03525e-18
5721.15682 9.26391e-18
5722.63358 9.49263e-18
5724.11034 9.80446e-18
5725.58710 1.01163e-17
5727.06386 1.00833e-17
5728.54063 1.00503e-17
5730.01739 9.95957e-18
5731.49415 9.86885e-18
5732.98096 1.00303e-17
5734.45772 1.01918e-17
5735.93448 1.04736e-17
5737.41124 1.07554e-17
5738.88801 1.10669e-17
5740.36477 1.13784e-17
5741.84153 1.15306e-17
5743.31829 1.16826e-17
5744.80510 1.16713e-17
5746.28186 1.16598e-17
5747.75862 1.17363e-17
5749.23539 1.18128e-17
5750.71215 1.20503e-17
5752.18891 1.22877e-17
5753.66567 1.23237e-17
5755.14243 1.23597e-17
5756.62924 1.24010e-17
5758.10600 1.24422e-17
5759.58277 1.25147e-17
5761.05953 1.25872e-17
5762.53629 1.27862e-17
5764.01305 1.29852e-17
5765.48981 1.33159e-17
5766.96658 1.36467e-17
5768.45338 1.37057e-17
5769.93015 1.37646e-17
5771.40691 1.37973e-17
5772.88367 1.38300e-17
5774.36043 1.40293e-17
5775.83719 1.42286e-17
5777.31396 1.44388e-17
5778.79072 1.46489e-17
5780.26748 1.46357e-17
5781.75429 1.46224e-17
5783.23105 1.47298e-17
5784.70781 1.48372e-17
5786.18457 1.50996e-17
5787.66134 1.53620e-17
5789.13810 1.54843e-17
5790.61486 1.56065e-17
5792.09162 1.56002e-17
5793.57843 1.55939e-17
5795.05519 1.56815e-17
5796.53195 1.57692e-17
5798.00872 1.59871e-17
5799.48548 1.62050e-17
5800.96224 1.63572e-17
5802.43900 1.65093e-17
5803.91576 1.65323e-17
5805.40257 1.65552e-17
5806.87933 1.65608e-17
5808.35610 1.65664e-17
5809.83286 1.65824e-17
5811.30962 1.65985e-17
5812.78638 1.67131e-17
5814.26314 1.68277e-17
5815.73991 1.70313e-17
5817.22671 1.72350e-17
5818.70348 1.73040e-17
5820.18024 1.73728e-17
5821.65700 1.75947e-17
5823.13376 1.78165e-17
5824.61052 1.79890e-17
5826.08729 1.81614e-17
5827.56405 1.81286e-17
5829.04081 1.80957e-17
5830.52762 1.80835e-17
5832.00438 1.80713e-17
5833.48114 1.80918e-17
5834.95790 1.81122e-17
5836.43467 1.81766e-17
5837.91143 1.82411e-17
5839.38819 1.82898e-17
5840.86495 1.83385e-17
5842.35176 1.83813e-17
5843.82852 1.84241e-17
5845.30528 1.85688e-17
5846.78205 1.87136e-17
5848.25881 1.85759e-17
5849.73557 1.84381e-17
5851.21233 1.83034e-17
5852.68909 1.81687e-17
5854.17590 1.83134e-17
5855.65266 1.84582e-17
5857.12943 1.86122e-17
5858.60619 1.87662e-17
5860.08295 1.88877e-17
5861.55971 1.90092e-17
5863.03647 1.89194e-17
5864.51324 1.88296e-17
5866.00004 1.87138e-17
5867.47681 1.85980e-17
5868.95357 1.85306e-17
5870.43033 1.84633e-17
5871.90709 1.84573e-17
5873.38385 1.84514e-17
5874.86062 1.84396e-17
5876.33738 1.84278e-17
5877.82419 1.83966e-17
5879.30095 1.83655e-17
5880.77771 1.82490e-17
5882.25447 1.81325e-17
5883.73123 1.80060e-17
5885.20800 1.78795e-17
5886.68476 1.80476e-17
5888.16152 1.82158e-17
5889.63828 1.84060e-17
5891.12509 1.85963e-17
5892.60185 1.87649e-17
5894.07861 1.89335e-17
5895.55538 1.88509e-17
5897.03214 1.87682e-17
5898.50890 1.85339e-17
5899.98566 1.82995e-17
5901.46242 1.83990e-17
5902.94923 1.84987e-17
5904.42599 1.85381e-17
5905.90276 1.85775e-17
5907.37952 1.84762e-17
5908.85628 1.83747e-17
5910.33304 1.82235e-17
5911.80980 1.80722e-17
5913.28657 1.79460e-17
5914.77337 1.78199e-17
5916.25014 1.77703e-17
5917.72690 1.77208e-17
5919.20366 1.74559e-17
5920.68042 1.71908e-17
5922.15718 1.69037e-17
5923.63395 1.66166e-17
5925.11071 1.67251e-17
5926.59752 1.68337e-17
5928.07428 1.70539e-17
5929.55104 1.72741e-17
5931.02780 1.76560e-17
5932.50456 1.80379e-17
5933.98133 1.82168e-17
5935.45809 1.83956e-17
5936.93485 1.81720e-17
5938.42166 1.79483e-17
5939.89842 1.78221e-17
5941.37518 1.76959e-17
5942.85194 1.77778e-17
5944.32871 1.78597e-17
5945.80547 1.79847e-17
5947.28223 1.81098e-17
5948.75899 1.80768e-17
5950.23575 1.80437e-17
5951.72256 1.79546e-17
5953.19932 1.78656e-17
5954.67609 1.77588e-17
5956.15285 1.76520e-17
5957.62961 1.76131e-17
5959.10637 1.75743e-17
5960.58313 1.75477e-17
5962.05990 1.75210e-17
5963.54670 1.74438e-17
5965.02347 1.73665e-17
5966.50023 1.74202e-17
5967.97699 1.74740e-17
5969.45375 1.73877e-17
5970.93051 1.73014e-17
5972.40728 1.72637e-17
5973.88404 1.72262e-17
5975.37085 1.71796e-17
5976.84761 1.71330e-17
5978.32437 1.70873e-17
5979.80113 1.70416e-17
5981.27789 1.67731e-17
5982.75466 1.65046e-17
5984.23142 1.64637e-17
5985.70818 1.64229e-17
5987.19499 1.63830e-17
5988.67175 1.63430e-17
5990.14851 1.63721e-17
5991.62527 1.64011e-17
5993.10204 1.63151e-17
5994.57880 1.62290e-17
5996.05556 1.60871e-17
5997.53232 1.59451e-17
5999.00908 1.59047e-17
6000.49589 1.58643e-17
6001.97265 1.59125e-17
6003.44942 1.59607e-17
6004.92618 1.59374e-17
6006.40294 1.59141e-17
6007.87970 1.57209e-17
6009.35646 1.55275e-17
6010.83323 1.54097e-17
6012.32003 1.52920e-17
6013.79680 1.53775e-17
6015.27356 1.54630e-17
6016.75032 1.55743e-17
6018.22708 1.56856e-17
6019.70384 1.55736e-17
6021.18061 1.54615e-17
6022.65737 1.53857e-17
6024.14418 1.53099e-17
6025.62094 1.53216e-17
6027.09770 1.53334e-17
6028.57446 1.51515e-17
6030.05122 1.49696e-17
6031.52799 1.49171e-17
6033.00475 1.48647e-17
6034.48151 1.48067e-17
6035.96832 1.47487e-17
6037.44508 1.47440e-17
6038.92184 1.47394e-17
6040.39860 1.48270e-17
6041.87537 1.49147e-17
6043.35213 1.49259e-17
6044.82889 1.49371e-17
6046.30565 1.50816e-17
6047.79246 1.52261e-17
6049.26922 1.52693e-17
6050.74598 1.53124e-17
6052.22275 1.51742e-17
6053.69951 1.50361e-17
6055.17627 1.50183e-17
6056.65303 1.50005e-17
6058.12979 1.49934e-17
6059.61660 1.49863e-17
6061.09336 1.50619e-17
6062.57013 1.51374e-17
6064.04689 1.53581e-17
6065.52365 1.55788e-17
6067.00041 1.55110e-17
6068.47717 1.54432e-17
6069.95394 1.53862e-17
6071.43070 1.53291e-17
6072.91751 1.52450e-17
6074.39427 1.51608e-17
6075.87103 1.52141e-17
6077.34779 1.52673e-17
6078.82455 1.51889e-17
6080.30132 1.51103e-17
6081.77808 1.50142e-17
6083.25484 1.49181e-17
6084.74165 1.47811e-17
6086.21841 1.46440e-17
6087.69517 1.47091e-17
6089.17193 1.47742e-17
6090.64870 1.47186e-17
6092.12546 1.46629e-17
6093.60222 1.44726e-17
6095.07898 1.42822e-17
6096.56579 1.44487e-17
6098.04255 1.46153e-17
6099.51931 1.45536e-17
6100.99608 1.44918e-17
6102.47284 1.42733e-17
6103.94960 1.40547e-17
6105.42636 1.41029e-17
6106.90312 1.41512e-17
6108.38993 1.42321e-17
6109.86669 1.43130e-17
6111.34346 1.43088e-17
6112.82022 1.43046e-17
6114.29698 1.42953e-17
6115.77374 1.42861e-17
6117.25050 1.42044e-17
6118.72727 1.41228e-17
6120.21407 1.43017e-17
6121.69084 1.44807e-17
6123.16760 1.45003e-17
6124.64436 1.45199e-17
6126.12112 1.45688e-17
6127.59788 1.46176e-17
6129.07465 1.46589e-17
6130.55141 1.47001e-17
6132.02817 1.46849e-17
6133.51498 1.46696e-17
6134.99174 1.46315e-17
6136.46850 1.45933e-17
6137.94526 1.46197e-17
6139.42203 1.46462e-17
6140.89879 1.46775e-17
6142.37555 1.47088e-17
6143.85231 1.48375e-17
6145.33912 1.49663e-17
6146.81588 1.49300e-17
6148.29264 1.48936e-17
6149.76941 1.48832e-17
6151.24617 1.48728e-17
6152.72293 1.49718e-17
6154.19969 1.50708e-17
6155.67645 1.50257e-17
6157.16326 1.49805e-17
6158.64002 1.49098e-17
6160.11679 1.48390e-17
6161.59355 1.48977e-17
6163.07031 1.49564e-17
6164.54707 1.50811e-17
6166.02383 1.52059e-17
6167.50060 1.49725e-17
6168.98740 1.47390e-17
6170.46417 1.47942e-17
6171.94093 1.48495e-17
6173.41769 1.47900e-17
6174.89445 1.47305e-17
6176.37121 1.45744e-17
6177.84798 1.44183e-17
6179.32474 1.43197e-17
6180.80150 1.42211e-17
6182.28831 1.42483e-17
6183.76507 1.42755e-17
6185.24183 1.42118e-17
6186.71859 1.41481e-17
6188.19536 1.38989e-17
6189.67212 1.36497e-17
6191.14888 1.34632e-17
6192.62564 1.32767e-17
6194.11245 1.31939e-17
6195.58921 1.31111e-17
6197.06597 1.29892e-17
6198.54274 1.28673e-17
6200.01950 1.28051e-17
6201.49626 1.27430e-17
6202.97302 1.25909e-17
6204.44978 1.24389e-17
6205.93659 1.21837e-17
6207.41335 1.19285e-17
6208.89012 1.19981e-17
6210.36688 1.20678e-17
6211.84364 1.20960e-17
6213.32040 1.21242e-17
6214.79716 1.18827e-17
6216.27393 1.16411e-17
6217.76073 1.15489e-17
6219.23750 1.14567e-17
6220.71426 1.13714e-17
6222.19102 1.12861e-17
6223.66778 1.11255e-17
6225.14454 1.09649e-17
6226.62131 1.10458e-17
6228.09807 1.11269e-17
6229.58488 1.10189e-17
6231.06164 1.09108e-17
6232.53840 1.08196e-17
6234.01516 1.07285e-17
6235.49192 1.07703e-17
6236.96869 1.08122e-17
6238.44545 1.08637e-17
6239.92221 1.09152e-17
6241.39897 1.09280e-17
6242.88578 1.09408e-17
6244.36254 1.09047e-17
6245.83930 1.08687e-17
6247.31607 1.09691e-17
6248.79283 1.10696e-17
6250.26959 1.11329e-17
6251.74635 1.11961e-17
6253.22311 1.10076e-17
6254.70992 1.08190e-17
6256.18668 1.09362e-17
6257.66345 1.10536e-17
6259.14021 1.11073e-17
6260.61697 1.11610e-17
6262.09373 1.10820e-17
6263.57049 1.10029e-17
6265.04726 1.09689e-17
6266.53406 1.09349e-17
6268.01083 1.08481e-17
6269.48759 1.07611e-17
6270.96435 1.07870e-17
6272.44111 1.08128e-17
6273.91787 1.08256e-17
6275.39464 1.08384e-17
6276.87140 1.10082e-17
6278.35821 1.11781e-17
6279.83497 1.12185e-17
6281.31173 1.12589e-17
6282.78849 1.12410e-17
6284.26525 1.12230e-17
6285.74202 1.12840e-17
6287.21878 1.13450e-17
6288.69554 1.13940e-17
6290.18235 1.14430e-17
6291.65911 1.14266e-17
6293.13587 1.14102e-17
6294.61263 1.13916e-17
6296.08940 1.13730e-17
6297.56616 1.13664e-17
6299.04292 1.13598e-17
6300.51968 1.13369e-17
6302.00649 1.13139e-17
6303.48325 1.13617e-17
6304.96001 1.14095e-17
6306.43678 1.13086e-17
6307.91354 1.12077e-17
6309.39030 1.12294e-17
6310.86706 1.12513e-17
6312.34382 1.10558e-17
6313.82059 1.08603e-17
6315.30739 1.07980e-17
6316.78416 1.07358e-17
6318.26092 1.09492e-17
6319.73768 1.11627e-17
6321.21444 1.12544e-17
6322.69120 1.13460e-17
6324.16797 1.13924e-17
6325.64473 1.14386e-17
6327.13154 1.15937e-17
6328.60830 1.17489e-17
6330.08506 1.18333e-17
6331.56182 1.19177e-17
6333.03858 1.20244e-17
6334.51535 1.21311e-17
6335.99211 1.22414e-17
6337.46887 1.23517e-17
6338.95568 1.22412e-17
6340.43244 1.21305e-17
6341.90920 1.20032e-17
6343.38596 1.18759e-17
6344.86273 1.19923e-17
6346.33949 1.21089e-17
6347.81625 1.23731e-17
6349.29301 1.26374e-17
6350.77982 1.26433e-17
6352.25658 1.26491e-17
6353.73334 1.25473e-17
6355.21011 1.24455e-17
6356.68687 1.25008e-17
6358.16363 1.25562e-17
6359.64039 1.25684e-17
6361.11715 1.25805e-17
6362.59392 1.26272e-17
6364.08072 1.26739e-17
6365.55749 1.28303e-17
6367.03425 1.29867e-17
6368.51101 1.29780e-17
6369.98777 1.29692e-17
6371.46453 1.28730e-17
6372.94130 1.27769e-17
6374.41806 1.28183e-17
6375.90487 1.28599e-17
6377.38163 1.28023e-17
6378.85839 1.27447e-17
6380.33515 1.26477e-17
6381.81191 1.25507e-17
6383.28868 1.26577e-17
6384.76544 1.27648e-17
6386.24220 1.28588e-17
6387.72901 1.29527e-17
6389.20577 1.30466e-17
6390.68253 1.31405e-17
6392.15929 1.31252e-17
6393.63606 1.31099e-17
6395.11282 1.29063e-17
6396.58958 1.27026e-17
6398.06634 1.27528e-17
6399.55315 1.28031e-17
6401.02991 1.29093e-17
6402.50667 1.30155e-17
6403.98344 1.31503e-17
6405.46020 1.32852e-17
6406.93696 1.33671e-17
6408.41372 1.34491e-17
6409.89048 1.34580e-17
6411.37729 1.34669e-17
6412.85405 1.33620e-17
6414.33082 1.32571e-17
6415.80758 1.31693e-17
6417.28434 1.30814e-17
6418.76110 1.29630e-17
6420.23786 1.28446e-17
6421.71463 1.27378e-17
6423.19139 1.26311e-17
6424.67820 1.27447e-17
6426.15496 1.28585e-17
6427.63172 1.28558e-17
6429.10848 1.28530e-17
6430.58524 1.27971e-17
6432.06201 1.27412e-17
6433.53877 1.26328e-17
6435.01553 1.25244e-17
6436.50234 1.24065e-17
6437.97910 1.22885e-17
6439.45586 1.23709e-17
6440.93262 1.24533e-17
6442.40939 1.23459e-17
6443.88615 1.22385e-17
6445.36291 1.21018e-17
6446.83967 1.19651e-17
6448.32648 1.19815e-17
6449.80324 1.19979e-17
6451.28000 1.20270e-17
6452.75677 1.20560e-17
6454.23353 1.19345e-17
6455.71029 1.18129e-17
6457.18705 1.16738e-17
6458.66381 1.15347e-17
6460.15062 1.15279e-17
6461.62738 1.15211e-17
6463.10415 1.13612e-17
6464.58091 1.12013e-17
6466.05767 1.10250e-17
6467.53443 1.08488e-17
6469.01119 1.08848e-17
6470.48796 1.09208e-17
6471.96472 1.08981e-17
6473.45153 1.08754e-17
6474.92829 1.07702e-17
6476.40505 1.06650e-17
6477.88181 1.06539e-17
6479.35857 1.06428e-17
6480.83534 1.05770e-17
6482.31210 1.05112e-17
6483.78886 1.03755e-17
6485.27567 1.02397e-17
6486.75243 1.02395e-17
6488.22919 1.02393e-17
6489.70595 1.02956e-17
6491.18272 1.03519e-17
6492.65948 1.04235e-17
6494.13624 1.04952e-17
6495.61300 1.05612e-17
6497.09981 1.06272e-17
6498.57657 1.06805e-17
6500.05333 1.07339e-17
6501.53010 1.07443e-17
6503.00686 1.07546e-17
6504.48362 1.07100e-17
6505.96038 1.06653e-17
6507.43714 1.07538e-17
6508.92395 1.08423e-17
6510.40071 1.08782e-17
6511.87748 1.09141e-17
6513.35424 1.08127e-17
6514.83100 1.07112e-17
6516.30776 1.08413e-17
6517.78452 1.09714e-17
6519.26129 1.10390e-17
6520.74809 1.11065e-17
6522.22486 1.10250e-17
6523.70162 1.09435e-17
6525.17838 1.09804e-17
6526.65514 1.10174e-17
6528.13190 1.11270e-17
6529.60867 1.12366e-17
6531.08543 1.12867e-17
6532.56219 1.13368e-17
6534.04900 1.14352e-17
6535.52576 1.15336e-17
6537.00252 1.16638e-17
6538.47928 1.17939e-17
6539.95605 1.17895e-17
6541.43281 1.17851e-17
6542.90957 1.18054e-17
6544.38633 1.18257e-17
6545.87314 1.19805e-17
6547.34990 1.21354e-17
6548.82666 1.21611e-17
6550.30343 1.21867e-17
6551.78019 1.21977e-17
6553.25695 1.22087e-17
6554.73371 1.23503e-17
6556.21047 1.24919e-17
6557.69728 1.25424e-17
6559.17404 1.25929e-17
6560.65081 1.25645e-17
6562.12757 1.25360e-17
6563.60433 1.25939e-17
6565.08109 1.26519e-17
6566.55785 1.27098e-17
6568.03462 1.27678e-17
6569.52142 1.28258e-17
6570.99819 1.28837e-17
6572.47495 1.29417e-17
6573.95171 1.29996e-17
6575.42847 1.30576e-17
6576.90523 1.31155e-17
6578.38200 1.31735e-17
6579.85876 1.32314e-17
6581.34557 1.32894e-17
6582.82233 1.33473e-17
6584.29909 1.34053e-17
6585.77585 1.34632e-17
6587.25261 1.35211e-17
6588.72938 1.35791e-17
6590.20614 1.36370e-17
6591.68290 1.36950e-17
6593.16971 1.37529e-17
6594.64647 1.38108e-17
6596.12323 1.38688e-17
6597.59999 1.39267e-17
6599.07676 1.39846e-17
6600.55352 1.40426e-17
6602.03028 1.41005e-17
6603.50704 1.41584e-17
6604.98380 1.42163e-17
6606.47061 1.42742e-17
6607.94737 1.43322e-17
6609.42414 1.43901e-17
6610.90090 1.44480e-17
6612.37766 1.45059e-17
6613.85442 1.45638e-17
6615.33118 1.46217e-17
6616.80795 1.46796e-17
6618.29475 1.47376e-17
6619.77152 1.47955e-17
6621.24828 1.48534e-17
6622.72504 1.49113e-17
6624.20180 1.49692e-17
6625.67856 1.47605e-17
6627.15533 1.45518e-17
6628.63209 1.45142e-17
6630.11890 1.44766e-17
6631.59566 1.45203e-17
6633.07242 1.45641e-17
6634.54918 1.45533e-17
6636.02594 1.45425e-17
6637.50271 1.46168e-17
6638.97947 1.46911e-17
6640.45623 1.47276e-17
6641.94304 1.47641e-17
6643.41980 1.46649e-17
6644.89656 1.45656e-17
6646.37332 1.44548e-17
6647.85009 1.43440e-17
6649.32685 1.42189e-17
6650.80361 1.40937e-17
6652.28037 1.40734e-17
6653.75713 1.40531e-17
6655.24394 1.41504e-17
6656.72070 1.42478e-17
6658.19747 1.42366e-17
6659.67423 1.42253e-17
6661.15099 1.40433e-17
6662.62775 1.38612e-17
6664.10451 1.36517e-17
6665.58128 1.34422e-17
6667.06808 1.35004e-17
6668.54485 1.35587e-17
6670.02161 1.37725e-17
6671.49837 1.39864e-17
6672.97513 1.39121e-17
6674.45189 1.38376e-17
6675.92866 1.38748e-17
6677.40542 1.39121e-17
6678.89223 1.40257e-17
6680.36899 1.41394e-17
6681.84575 1.41349e-17
6683.32251 1.41304e-17
6684.79927 1.41290e-17
6686.27604 1.41276e-17
6687.75280 1.39519e-17
6689.22956 1.37760e-17
6690.71637 1.37184e-17
6692.19313 1.36608e-17
6693.66989 1.36207e-17
6695.14665 1.35806e-17
6696.62342 1.35103e-17
6698.10018 1.34400e-17
6699.57694 1.33778e-17
6701.05370 1.33156e-17
6702.54051 1.35265e-17
6704.01727 1.37375e-17
6705.49403 1.38380e-17
6706.97080 1.39384e-17
6708.44756 1.39935e-17
6709.92432 1.40486e-17
6711.40108 1.41256e-17
6712.87784 1.42026e-17
6714.35461 1.41909e-17
6715.84141 1.41792e-17
6717.31818 1.40853e-17
6718.79494 1.39915e-17
6720.27170 1.38600e-17
6721.74846 1.37285e-17
6723.22522 1.36347e-17
6724.70199 1.35408e-17
6726.17875 1.34967e-17
6727.66556 1.34527e-17
6729.14232 1.35665e-17
6730.61908 1.36803e-17
6732.09584 1.37275e-17
6733.57260 1.37746e-17
6735.04937 1.36460e-17
6736.52613 1.35173e-17
6738.00289 1.35445e-17
6739.48970 1.35719e-17
6740.96646 1.36821e-17
6742.44322 1.37924e-17
6743.91998 1.37103e-17
6745.39675 1.36280e-17
6746.87351 1.35886e-17
6748.35027 1.35492e-17
6749.82703 1.35628e-17
6751.31384 1.35764e-17
6752.79060 1.35484e-17
6754.26736 1.35204e-17
6755.74413 1.33779e-17
6757.22089 1.32352e-17
6758.69765 1.30672e-17
6760.17441 1.28992e-17
6761.65117 1.30894e-17
6763.13798 1.32798e-17
6764.61474 1.33727e-17
6766.09151 1.34655e-17
6767.56827 1.33056e-17
6769.04503 1.31456e-17
6770.52179 1.30793e-17
6771.99855 1.30130e-17
6773.47532 1.28770e-17
6774.95208 1.27409e-17
6776.43889 1.26571e-17
6777.91565 1.25734e-17
6779.39241 1.25870e-17
6780.86917 1.26006e-17
6782.34593 1.24867e-17
6783.82270 1.23727e-17
6785.29946 1.22075e-17
6786.77622 1.20423e-17
6788.26303 1.20107e-17
6789.73979 1.19793e-17
6791.21655 1.19158e-17
6792.69331 1.18524e-17
6794.17008 1.19010e-17
6795.64684 1.19496e-17
6797.12360 1.20209e-17
6798.60036 1.20922e-17
6800.08717 1.20884e-17
6801.56393 1.20845e-17
6803.04069 1.21741e-17
6804.51746 1.22637e-17
6805.99422 1.21433e-17
6807.47098 1.20228e-17
6808.94774 1.19155e-17
6810.42450 1.18082e-17
6811.91131 1.16021e-17
6813.38807 1.13959e-17
6814.86484 1.11642e-17
6816.34160 1.09325e-17
6817.81836 1.08370e-17
6819.29512 1.07415e-17
6820.77188 1.06588e-17
6822.24865 1.05762e-17
6823.72541 1.05595e-17
6825.21222 1.05428e-17
6826.68898 1.07400e-17
6828.16574 1.09373e-17
6829.64250 1.09393e-17
6831.11926 1.09413e-17
6832.59603 1.09433e-17
6834.07279 1.09453e-17
6835.54955 1.09473e-17
6837.03636 1.09493e-17
6838.51312 1.09513e-17
6839.98988 1.09533e-17
6841.46664 1.09553e-17
6842.94341 1.09573e-17
6844.42017 1.09593e-17
6845.89693 1.09613e-17
6847.37369 1.09633e-17
6848.86050 1.09653e-17
6850.33726 1.09673e-17
6851.81402 1.09693e-17
6853.29079 1.09713e-17
6854.76755 1.09733e-17
6856.24431 1.09753e-17
6857.72107 1.09773e-17
6859.19783 1.09793e-17
6860.68464 1.09813e-17
6862.16140 1.09833e-17
6863.63817 1.09853e-17
6865.11493 1.09873e-17
6866.59169 1.09893e-17
6868.06845 1.09913e-17
6869.54521 1.09933e-17
6871.02198 1.09953e-17
6872.50878 1.09973e-17
6873.98555 1.09993e-17
6875.46231 1.10013e-17
6876.93907 1.10033e-17
6878.41583 1.10053e-17
6879.89259 1.10073e-17
6881.36936 1.10093e-17
6882.84612 1.10113e-17
6884.33293 1.10133e-17
6885.80969 1.10153e-17
6887.28645 1.10173e-17
6888.76321 1.10193e-17
6890.23997 1.10213e-17
6891.71674 1.10233e-17
6893.19350 1.10253e-17
6894.67026 1.10273e-17
6896.14702 1.10293e-17
6897.63383 1.10312e-17
6899.11059 1.10332e-17
6900.58735 1.10352e-17
6902.06412 1.10372e-17
6903.54088 1.10392e-17
6905.01764 1.10412e-17
6906.49440 1.10432e-17
6907.97116 1.10452e-17
6909.45797 1.10472e-17
6910.93473 1.10492e-17
6912.41150 1.10512e-17
6913.88826 1.10532e-17
6915.36502 1.10552e-17
6916.84178 1.10572e-17
6918.31854 1.10592e-17
6919.79531 1.10612e-17
6921.28211 1.11149e-17
6922.75888 1.11685e-17
6924.23564 1.11708e-17
6925.71240 1.11731e-17
6927.18916 1.11168e-17
6928.66592 1.10604e-17
6930.14269 1.10471e-17
6931.61945 1.10339e-17
6933.10626 1.11150e-17
6934.58302 1.11962e-17
6936.05978 1.11637e-17
6937.53654 1.11312e-17
6939.01330 1.10611e-17
6940.49007 1.09909e-17
6941.96683 1.10375e-17
6943.44359 1.10841e-17
6944.92035 1.11880e-17
6946.40716 1.12920e-17
6947.88392 1.14077e-17
6949.36068 1.15234e-17
6950.83745 1.16194e-17
6952.31421 1.17155e-17
6953.79097 1.19638e-17
6955.26773 1.22122e-17
6956.74449 1.23171e-17
6958.23130 1.24220e-17
6959.70806 1.22831e-17
6961.18483 1.21440e-17
6962.66159 1.20692e-17
6964.13835 1.19943e-17
6965.61511 1.19649e-17
6967.09187 1.19354e-17
6968.56864 1.17677e-17
6970.05544 1.15998e-17
6971.53221 1.15639e-17
6973.00897 1.15281e-17
6974.48573 1.15930e-17
6975.96249 1.16579e-17
6977.43925 1.17503e-17
6978.91602 1.18428e-17
6980.39278 1.20395e-17
6981.87959 1.22363e-17
6983.35635 1.23435e-17
6984.83311 1.24508e-17
6986.30987 1.25437e-17
6987.78663 1.26366e-17
6989.26340 1.27884e-17
6990.74016 1.29402e-17
6992.21692 1.29350e-17
6993.70373 1.29297e-17
6995.18049 1.27363e-17
6996.65725 1.25429e-17
6998.13401 1.23583e-17
6999.61078 1.21736e-17
7001.08754 1.20585e-17
7002.56430 1.19434e-17
7004.04106 1.20191e-17
7005.51782 1.20949e-17
7007.00463 1.21405e-17
7008.48139 1.21860e-17
7009.95816 1.22428e-17
7011.43492 1.22995e-17
7012.91168 1.25932e-17
7014.38844 1.28871e-17
7015.86520 1.30571e-17
7017.34197 1.32271e-17
7018.82877 1.31082e-17
7020.30554 1.29891e-17
7021.78230 1.29432e-17
7023.25906 1.28973e-17
7024.73582 1.29310e-17
7026.21258 1.29646e-17
7027.68935 1.28634e-17
7029.16611 1.27622e-17
7030.65292 1.26707e-17
7032.12968 1.25793e-17
7033.60644 1.25108e-17
7035.08320 1.24423e-17
7036.55996 1.23136e-17
7038.03673 1.21847e-17
7039.51349 1.21177e-17
7040.99025 1.20508e-17
7042.47706 1.20285e-17
7043.95382 1.20062e-17
7045.43058 1.19310e-17
7046.90734 1.18558e-17
7048.38411 1.18577e-17
7049.86087 1.18597e-17
7051.33763 1.20232e-17
7052.81439 1.21867e-17
7054.30120 1.22556e-17
7055.77796 1.23244e-17
7057.25472 1.22300e-17
7058.73149 1.21355e-17
7060.20825 1.21432e-17
7061.68501 1.21509e-17
7063.16177 1.21141e-17
7064.63853 1.20773e-17
7066.11530 1.19199e-17
7067.60210 1.17625e-17
7069.07887 1.16431e-17
7070.55563 1.15238e-17
7072.03239 1.15150e-17
7073.50915 1.15062e-17
7074.98591 1.14879e-17
7076.46268 1.14695e-17
7077.93944 1.15184e-17
7079.42625 1.15673e-17
7080.90301 1.16213e-17
7082.37977 1.16753e-17
7083.85653 1.16537e-17
7085.33329 1.16321e-17
7086.81006 1.16746e-17
7088.28682 1.17172e-17
7089.76358 1.18317e-17
7091.25039 1.19462e-17
7092.72715 1.19210e-17
7094.20391 1.18958e-17
7095.68067 1.17430e-17
7097.15744 1.15902e-17
7098.63420 1.15387e-17
7100.11096 1.14872e-17
7101.58772 1.14104e-17
7103.07453 1.13335e-17
7104.55129 1.11637e-17
7106.02805 1.09939e-17
7107.50482 1.09376e-17
7108.98158 1.08813e-17
7110.45834 1.10230e-17
7111.93510 1.11647e-17
7113.41186 1.13224e-17
7114.88863 1.14801e-17
7116.37543 1.15632e-17
7117.85220 1.16463e-17
7119.32896 1.16923e-17
7120.80572 1.17383e-17
7122.28248 1.17386e-17
7123.75924 1.17389e-17
7125.23601 1.17582e-17
7126.71277 1.17775e-17
7128.19958 1.17545e-17
7129.67634 1.17314e-17
7131.15310 1.16223e-17
7132.62986 1.15131e-17
7134.10662 1.13468e-17
7135.58339 1.11805e-17
7137.06015 1.10356e-17
7138.53691 1.08907e-17
7140.02372 1.08649e-17
7141.50048 1.08391e-17
7142.97724 1.07503e-17
7144.45400 1.06614e-17
7145.93077 1.05499e-17
7147.40753 1.04385e-17
7148.88429 1.05239e-17
7150.36105 1.06094e-17
7151.84786 1.09196e-17
7153.32462 1.12300e-17
7154.80138 1.14280e-17
7156.27815 1.16260e-17
7157.75491 1.14823e-17
7159.23167 1.13383e-17
7160.70843 1.11561e-17
7162.18519 1.09738e-17
7163.67200 1.08304e-17
7165.14876 1.06870e-17
7166.62553 1.04697e-17
7168.10229 1.02523e-17
7169.57905 1.01117e-17
7171.05581 9.97121e-18
7172.53257 1.00121e-17
7174.00934 1.00531e-17
7175.49614 1.00647e-17
7176.97291 1.00762e-17
7178.44967 1.00927e-17
7179.92643 1.01092e-17
7181.40319 1.02905e-17
7182.87995 1.04719e-17
7184.35672 1.06752e-17
7185.83348 1.08785e-17
7187.31024 1.10787e-17
7188.79705 1.12790e-17
7190.27381 1.12841e-17
7191.75057 1.12891e-17
7193.22733 1.12064e-17
7194.70410 1.11237e-17
7196.18086 1.11194e-17
7197.65762 1.11150e-17
7199.13438 1.11244e-17
7200.62119 1.11338e-17
7202.09795 1.10908e-17
7203.57471 1.10477e-17
7205.05148 1.07994e-17
7206.52824 1.05510e-17
7208.00500 1.05720e-17
7209.48176 1.05931e-17
7210.95852 1.07995e-17
7212.44533 1.10059e-17
7213.92209 1.09756e-17
7215.39886 1.09452e-17
7216.87562 1.10413e-17
7218.35238 1.11374e-17
7219.82914 1.13590e-17
7221.30590 1.15807e-17
7222.78267 1.17289e-17
7224.26947 1.18771e-17
7225.74624 1.18721e-17
7227.22300 1.18669e-17
7228.69976 1.17529e-17
7230.17652 1.16389e-17
7231.65328 1.15792e-17
7233.13005 1.15195e-17
7234.60681 1.14678e-17
7236.09362 1.14162e-17
7237.57038 1.12952e-17
7239.04714 1.11742e-17
7240.52390 1.10129e-17
7242.00066 1.08516e-17
7243.47743 1.08048e-17
7244.95419 1.07581e-17
7246.43095 1.07953e-17
7247.90771 1.08325e-17
7249.39452 1.07947e-17
7250.87128 1.07568e-17
7252.34804 1.07057e-17
7253.82481 1.06546e-17
7255.30157 1.07536e-17
7256.77833 1.08526e-17
7258.25509 1.09650e-17
7259.73185 1.10775e-17
7261.21866 1.09844e-17
7262.69542 1.08913e-17
7264.17219 1.08952e-17
7265.64895 1.08992e-17
7267.12571 1.10540e-17
7268.60247 1.12088e-17
7270.07923 1.13542e-17
7271.55600 1.14996e-17
7273.04280 1.14754e-17
7274.51957 1.14512e-17
7275.99633 1.12355e-17
7277.47309 1.10197e-17
7278.94985 1.09454e-17
7280.42661 1.08713e-17
7281.90338 1.08695e-17
7283.38014 1.08678e-17
7284.86695 1.08012e-17
7286.34371 1.07347e-17
7287.82047 1.06269e-17
7289.29723 1.05192e-17
7290.77399 1.05820e-17
7292.25076 1.06449e-17
7293.72752 1.04975e-17
7295.20428 1.03500e-17
7296.68104 1.02661e-17
7298.16785 1.01823e-17
7299.64461 1.02625e-17
7301.12137 1.03428e-17
7302.59814 1.04669e-17
7304.07490 1.05911e-17
7305.55166 1.06610e-17
7307.02842 1.07309e-17
7308.50518 1.08077e-17
7309.99199 1.08846e-17
7311.46875 1.09467e-17
7312.94552 1.10088e-17
7314.42228 1.11189e-17
7315.89904 1.12290e-17
7317.37580 1.14449e-17
7318.85256 1.16607e-17
7320.32933 1.15961e-17
7321.81613 1.15313e-17
7323.29290 1.14332e-17
7324.76966 1.13350e-17
7326.24642 1.13075e-17
7327.72318 1.12800e-17
7329.19994 1.11294e-17
7330.67671 1.09788e-17
7332.15347 1.07974e-17
7333.64028 1.06161e-17
7335.11704 1.04953e-17
7336.59380 1.03746e-17
7338.07056 1.03816e-17
7339.54732 1.03887e-17
7341.02409 1.03431e-17
7342.50085 1.02974e-17
7343.97761 1.02269e-17
7345.46442 1.01564e-17
7346.94118 1.02981e-17
7348.41794 1.04399e-17
7349.89470 1.06563e-17
7351.37147 1.08728e-17
7352.84823 1.09958e-17
7354.32499 1.11188e-17
7355.80175 1.11614e-17
7357.27851 1.12040e-17
7358.76532 1.13044e-17
7360.24208 1.14047e-17
7361.71885 1.13977e-17
7363.19561 1.13906e-17
7364.67237 1.11513e-17
7366.14913 1.09117e-17
7367.62589 1.08485e-17
7369.10266 1.07853e-17
7370.58946 1.06528e-17
7372.06623 1.05202e-17
7373.54299 1.02186e-17
7375.01975 9.91689e-18
7376.49651 9.81827e-18
7377.97327 9.71976e-18
7379.45004 9.78029e-18
7380.92680 9.84091e-18
7382.41361 9.88665e-18
7383.89037 9.93238e-18
7385.36713 1.01231e-17
7386.84389 1.03140e-17
7388.32065 1.04993e-17
7389.79742 1.06845e-17
7391.27418 1.07464e-17
7392.75094 1.08081e-17
7394.23775 1.08707e-17
7395.71451 1.09333e-17
7397.19127 1.09303e-17
7398.66803 1.09272e-17
7400.14480 1.09935e-17
7401.62156 1.10600e-17
7403.09832 1.09880e-17
7404.57508 1.09159e-17
7406.06189 1.07833e-17
7407.53865 1.06508e-17
7409.01541 1.05040e-17
7410.49218 1.03572e-17
7411.96894 1.00267e-17
7413.44570 9.69615e-18
7414.92246 9.74464e-18
7416.39922 9.79334e-18
7417.88603 1.00174e-17
7419.36279 1.02415e-17
7420.83956 1.02024e-17
7422.31632 1.01632e-17
7423.79308 1.02410e-17
7425.26984 1.03190e-17
7426.74660 1.05321e-17
7428.22337 1.07454e-17
7429.70013 1.09254e-17
7431.18694 1.11055e-17
7432.66370 1.11820e-17
7434.14046 1.12586e-17
7435.61722 1.12487e-17
7437.09398 1.12388e-17
7438.57075 1.11724e-17
7440.04751 1.11059e-17
7441.52427 1.10284e-17
7443.01108 1.09510e-17
7444.48784 1.07509e-17
7445.96460 1.05507e-17
7447.44136 1.01383e-17
7448.91813 9.72569e-18
7450.39489 9.63078e-18
7451.87165 9.53606e-18
7453.34841 9.52642e-18
7454.83522 9.51683e-18
7456.31198 9.53622e-18
7457.78874 9.55563e-18
7459.26551 9.68424e-18
7460.74227 9.81291e-18
7462.21903 1.00071e-17
7463.69579 1.02014e-17
7465.17255 1.02115e-17
7466.65936 1.02216e-17
7468.13612 1.03367e-17
7469.61289 1.04518e-17
7471.08965 1.06997e-17
7472.56641 1.09476e-17
7474.04317 1.10247e-17
7475.51993 1.11017e-17
7476.99670 1.11196e-17
7478.47346 1.11375e-17
7479.96027 1.10529e-17
7481.43703 1.09682e-17
7482.91379 1.07476e-17
7484.39055 1.05269e-17
7485.86731 1.03404e-17
7487.34408 1.01539e-17
7488.82084 9.99862e-18
7490.29760 9.84335e-18
7491.78441 9.75265e-18
7493.26117 9.66200e-18
7494.73793 9.40826e-18
7496.21469 9.15444e-18
7497.69146 9.02623e-18
7499.16822 8.89809e-18
7500.64498 8.90811e-18
7502.12174 8.91822e-18
7503.60855 8.99741e-18
7505.08531 9.07666e-18
7506.56207 9.30370e-18
7508.03884 9.53081e-18
7509.51560 9.72916e-18
7510.99236 9.92748e-18
7512.46912 1.00991e-17
7513.94588 1.02707e-17
7515.43269 1.02166e-17
7516.90945 1.01624e-17
7518.38622 1.01163e-17
7519.86298 1.00701e-17
7521.33974 1.01252e-17
7522.81650 1.01803e-17
7524.29326 9.96918e-18
7525.77003 9.75792e-18
7527.25683 9.46757e-18
7528.73360 9.17719e-18
7530.21036 8.95770e-18
7531.68712 8.73826e-18
7533.16388 8.73449e-18
7534.64064 8.73072e-18
7536.11741 8.72695e-18
7537.59417 8.72318e-18
7539.07093 8.71941e-18
7540.55774 8.71564e-18
7542.03450 8.71187e-18
7543.51126 8.70810e-18
7544.98802 8.70433e-18
7546.46479 8.70056e-18
7547.94155 8.69679e-18
7549.41831 8.69302e-18
7550.89507 8.68926e-18
7552.38188 8.68549e-18
7553.85864 8.68172e-18
7555.33540 8.67795e-18
7556.81217 8.67418e-18
7558.28893 8.67041e-18
7559.76569 8.66664e-18
7561.24245 8.66287e-18
7562.71921 8.65910e-18
7564.20602 8.65534e-18
7565.68278 8.65157e-18
7567.15955 8.64780e-18
7568.63631 8.64403e-18
7570.11307 8.64026e-18
7571.58983 8.63649e-18
7573.06659 8.63273e-18
7574.54336 8.62896e-18
7576.03016 8.62519e-18
7577.50693 8.62142e-18
7578.98369 8.61765e-18
7580.46045 8.61389e-18
7581.93721 8.61012e-18
7583.41397 8.60635e-18
7584.89074 8.60258e-18
7586.36750 8.59881e-18
7587.84426 8.59505e-18
7589.33107 8.59128e-18
7590.80783 8.58751e-18
7592.28459 8.58375e-18
7593.76135 8.57998e-18
7595.23812 8.57621e-18
7596.71488 8.57245e-18
7598.19164 8.56868e-18
7599.66840 8.56491e-18
7601.15521 8.56115e-18
7602.63197 8.55738e-18
7604.10873 8.55361e-18
7605.58550 8.54985e-18
7607.06226 8.54608e-18
7608.53902 8.54231e-18
7610.01578 8.53855e-18
7611.49254 8.53478e-18
7612.97935 8.53102e-18
7614.45611 8.52725e-18
7615.93288 8.52348e-18
7617.40964 8.51972e-18
7618.88640 8.51596e-18
7620.36316 8.51219e-18
7621.83992 8.50842e-18
7623.31669 8.50466e-18
7624.80349 8.50089e-18
7626.28026 8.49713e-18
7627.75702 8.49336e-18
7629.23378 8.48960e-18
7630.71054 8.48583e-18
7632.18730 8.48207e-18
7633.66407 8.47831e-18
7635.14083 8.47454e-18
7636.62764 8.47078e-18
7638.10440 8.46701e-18
7639.58116 8.46325e-18
7641.05792 8.45948e-18
7642.53468 8.45572e-18
7644.01145 8.45196e-18
7645.48821 8.44819e-18
7646.96497 8.44443e-18
7648.44173 8.44067e-18
7649.92854 8.43690e-18
7651.40530 8.43314e-18
7652.88206 8.42937e-18
7654.35883 8.42561e-18
7655.83559 8.42185e-18
7657.31235 8.41808e-18
7658.78911 8.41432e-18
7660.26587 8.41056e-18
7661.75268 8.40680e-18
7663.22944 8.62957e-18
7664.70621 8.85239e-18
7666.18297 8.96027e-18
7667.65973 9.06807e-18
7669.13649 9.05386e-18
7670.61325 9.03957e-18
7672.09002 9.00640e-18
7673.57682 8.97322e-18
7675.05359 9.00030e-18
7676.53035 9.02742e-18
7678.00711 9.01322e-18
7679.48387 8.99899e-18
7680.96063 8.97835e-18
7682.43740 8.95771e-18
7683.91416 8.93535e-18
7685.40097 8.91298e-18
7686.87773 8.94002e-18
7688.35449 8.96708e-18
7689.83125 8.85005e-18
7691.30801 8.73294e-18
7692.78478 8.52506e-18
7694.26154 8.31714e-18
7695.73830 8.33660e-18
7697.22511 8.35620e-18
7698.70187 8.56277e-18
7700.17863 8.76945e-18
7701.65539 9.00365e-18
7703.13216 9.23785e-18
7704.60892 9.16635e-18
7706.08568 9.09467e-18
7707.56244 9.14925e-18
7709.04925 9.20391e-18
7710.52601 9.39146e-18
7712.00277 9.57908e-18
7713.47954 9.57924e-18
7714.95630 9.57929e-18
7716.43306 9.58325e-18
7717.90982 9.58720e-18
7719.38658 9.60902e-18
7720.86335 9.63085e-18
7722.35015 9.42452e-18
7723.82692 9.21805e-18
7725.30368 9.06893e-18
7726.78044 8.91985e-18
7728.25720 8.85840e-18
7729.73396 8.79700e-18
7731.21073 8.57267e-18
7732.68749 8.34825e-18
7734.17430 8.24130e-18
7735.65106 8.13442e-18
7737.12782 8.32205e-18
7738.60458 8.50985e-18
7740.08134 8.58547e-18
7741.55811 8.66101e-18
7743.03487 8.82470e-18
7744.51163 8.98845e-18
7745.98839 9.41423e-18
7747.47520 9.84015e-18
7748.95196 1.01175e-17
7750.42872 1.03948e-17
7751.90549 1.04450e-17
7753.38225 1.04951e-17
7754.85901 1.05798e-17
7756.33577 1.06645e-17
7757.82258 1.07653e-17
7759.29934 1.08661e-17
7760.77610 1.07660e-17
7762.25287 1.06658e-17
7763.72963 1.05814e-17
7765.20639 1.04971e-17
7766.68315 1.03080e-17
7768.15991 1.01189e-17
7769.63668 1.00032e-17
7771.12348 9.88750e-18
7772.60025 9.80045e-18
7774.07701 9.71342e-18
7775.55377 9.47989e-18
7777.03053 9.24628e-18
7778.50729 9.14881e-18
7779.98406 9.05143e-18
7781.46082 8.89517e-18
7782.94763 8.73888e-18
7784.42439 8.50485e-18
7785.90115 8.27077e-18
7787.37791 8.50289e-18
7788.85467 8.73528e-18
7790.33144 8.99803e-18
7791.80820 9.26079e-18
7793.28496 9.33068e-18
7794.77177 9.40045e-18
7796.24853 9.54233e-18
7797.72529 9.68426e-18
7799.20205 9.96518e-18
7800.67882 1.02462e-17
7802.15558 1.06144e-17
7803.63234 1.09827e-17
7805.10910 1.11480e-17
7806.59591 1.13132e-17
7808.07267 1.13749e-17
7809.54943 1.14366e-17
7811.02620 1.15936e-17
7812.50296 1.17507e-17
7813.97972 1.18217e-17
7815.45648 1.18927e-17
7816.93324 1.17994e-17
7818.42005 1.17060e-17
7819.89681 1.14609e-17
7821.37358 1.12157e-17
7822.85034 1.09819e-17
7824.32710 1.07481e-17
7825.80386 1.04401e-17
7827.28062 1.01321e-17
7828.75739 9.65059e-18
7830.23415 9.16898e-18
7831.72096 8.93953e-18
7833.19772 8.71025e-18
7834.67448 8.79483e-18
7836.15124 8.87960e-18
7837.62800 8.47584e-18
7839.10477 8.07179e-18
7840.58153 7.96341e-18
7842.05829 7.85521e-18
7843.54510 8.80623e-18
7845.02186 9.75787e-18
7846.49862 1.03312e-17
7847.97538 1.09042e-17
7849.45215 1.10575e-17
7850.92891 1.12105e-17
7852.40567 1.14303e-17
7853.88243 1.16502e-17
7855.36924 1.18052e-17
7856.84600 1.19602e-17
7858.32276 1.19819e-17
7859.79953 1.20036e-17
7861.27629 1.19882e-17
7862.75305 1.19728e-17
7864.22981 1.17880e-17
7865.70657 1.16031e-17
7867.19338 1.10934e-17
7868.67014 1.05836e-17
7870.14691 1.01173e-17
7871.62367 9.65109e-18
7873.10043 9.47675e-18
7874.57719 9.30259e-18
7876.05395 9.05387e-18
7877.53072 8.80511e-18
7879.01752 8.72071e-18
7880.49429 8.63641e-18
7881.97105 8.83129e-18
7883.44781 9.02635e-18
7884.92457 9.14135e-18
7886.40133 9.25630e-18
7887.87810 9.36535e-18
7889.35486 9.47440e-18
7890.83162 1.00097e-17
7892.31843 1.05453e-17
7893.79519 1.10177e-17
7895.27195 1.14900e-17
7896.74871 1.15300e-17
7898.22548 1.15698e-17
7899.70224 1.15475e-17
7901.17900 1.15253e-17
7902.65576 1.13371e-17
7904.14257 1.11488e-17
7905.61933 1.08807e-17
7907.09609 1.06126e-17
7908.57286 1.03692e-17
7910.04962 1.01258e-17
7911.52638 9.65572e-18
7913.00314 9.18553e-18
7914.47990 8.99128e-18
7915.96671 8.79721e-18
7917.44347 8.69334e-18
7918.92024 8.58952e-18
7920.39700 8.50505e-18
7921.87376 8.42059e-18
7923.35052 8.58085e-18
7924.82728 8.74126e-18
7926.30405 8.86843e-18
7927.79085 8.99557e-18
7929.26762 9.13347e-18
7930.74438 9.27137e-18
7932.22114 9.45633e-18
7933.69790 9.64131e-18
7935.17466 9.71025e-18
7936.65143 9.77911e-18
7938.12819 9.78679e-18
7939.60495 9.79444e-18
7941.09176 9.96202e-18
7942.56852 1.01297e-17
7944.04528 1.02658e-17
7945.52204 1.04018e-17
7946.99881 1.02854e-17
7948.47557 1.01687e-17
7949.95233 9.96144e-18
7951.42909 9.75411e-18
7952.91590 9.52563e-18
7954.39266 9.29715e-18
7955.86942 9.00527e-18
7957.34619 8.71336e-18
7958.82295 8.47270e-18
7960.29971 8.23208e-18
7961.77647 8.00006e-18
7963.25323 7.76806e-18
7964.74004 7.67324e-18
7966.21680 7.57852e-18
7967.69357 7.64731e-18
7969.17033 7.71621e-18
7970.64709 7.71916e-18
7972.12385 7.72206e-18
7973.60061 7.74799e-18
7975.07738 7.77392e-18
7976.56418 7.97282e-18
7978.04095 8.17183e-18
7979.51771 8.36487e-18
7980.99447 8.55791e-18
7982.47123 8.77725e-18
7983.94799 8.99660e-18
7985.42476 9.21984e-18
7986.90152 9.44308e-18
7988.38833 9.53884e-18
7989.86509 9.63451e-18
7991.34185 9.73093e-18
7992.81861 9.82735e-18
7994.29537 9.60021e-18
7995.77214 9.37287e-18
7997.24890 9.21286e-18
7998.72566 9.05290e-18
8000.21247 8.86505e-18
8001.68923 8.67718e-18
8003.16599 8.35782e-18
8004.64275 8.03840e-18
8006.11952 7.84995e-18
8007.59628 7.66159e-18
8009.07304 7.46239e-18
8010.54980 7.26319e-18
8012.02656 7.06982e-18
8013.51337 6.87646e-18
8014.99013 6.81108e-18
8016.46690 6.74577e-18
8017.94366 6.83873e-18
8019.42042 6.93179e-18
8020.89718 7.21681e-18
8022.37394 7.50194e-18
8023.85071 7.70944e-18
8025.33751 7.91687e-18
8026.81428 8.14334e-18
8028.29104 8.36981e-18
8029.76780 8.73194e-18
8031.24456 9.09414e-18
8032.72132 9.32529e-18
8034.19809 9.55635e-18
8035.67485 9.49878e-18
8037.15161 9.44102e-18
8038.63842 9.11563e-18
8040.11518 8.79007e-18
8041.59194 8.47758e-18
8043.06870 8.16511e-18
8044.54547 7.88552e-18
8046.02223 7.60596e-18
8047.49899 7.18137e-18
8048.98580 6.75669e-18
8050.46256 6.59930e-18
8051.93932 6.44209e-18
8053.41608 6.53107e-18
8054.89285 6.62021e-18
8056.36961 6.70789e-18
8057.84637 6.79556e-18
8059.32313 6.80397e-18
8060.80994 6.81234e-18
8062.28670 6.90637e-18
8063.76346 7.00045e-18
8065.24023 7.35163e-18
8066.71699 7.70297e-18
8068.19375 7.98606e-18
8069.67051 8.26909e-18
8071.14727 8.40272e-18
8072.62404 8.53625e-18
8074.11084 8.74115e-18
8075.58761 8.94610e-18
8077.06437 8.97222e-18
8078.54113 8.99822e-18
8080.01789 8.76046e-18
8081.49465 8.52254e-18
8082.97142 8.17532e-18
8084.44818 7.82805e-18
8085.93499 7.50073e-18
8087.41175 7.17343e-18
8088.88851 7.02758e-18
8090.36527 6.88186e-18
8091.84203 6.74677e-18
8093.31880 6.61169e-18
8094.79556 6.51586e-18
8096.27232 6.42006e-18
8097.75913 6.60947e-18
8099.23589 6.79906e-18
8100.71265 7.12581e-18
8102.18941 7.45263e-18
8103.66618 7.59294e-18
8105.14294 7.73313e-18
8106.61970 7.71746e-18
8108.09646 7.70169e-18
8109.58327 7.74177e-18
8111.06003 7.78188e-18
8112.53679 7.63149e-18
8114.01356 7.48097e-18
8115.49032 7.36694e-18
8116.96708 7.25294e-18
8118.44384 7.22271e-18
8119.92060 7.19255e-18
8121.39737 7.14548e-18
8122.88417 7.09841e-18
8124.36094 7.07760e-18
8125.83770 7.05680e-18
8127.31446 7.01389e-18
8128.79122 6.97096e-18
8130.26798 6.99820e-18
8131.74475 7.02549e-18
8133.22151 7.17120e-18
8134.70832 7.31698e-18
8136.18508 7.32835e-18
8137.66184 7.33964e-18
8139.13860 7.38156e-18
8140.61536 7.42350e-18
8142.09213 7.51215e-18
8143.56889 7.60083e-18
8145.04565 7.53062e-18
8146.53246 7.46031e-18
8148.00922 7.44094e-18
8149.48598 7.42159e-18
8150.96274 7.48729e-18
8152.43951 7.55304e-18
8153.91627 7.44260e-18
8155.39303 7.33205e-18
8156.86979 7.23335e-18
8158.35660 7.13466e-18
8159.83336 7.11968e-18
8161.31012 7.10476e-18
8162.78689 6.95200e-18
8164.26365 6.79916e-18
8165.74041 6.77718e-18
8167.21717 6.75529e-18
8168.69393 6.73989e-18
8170.18074 6.72448e-18
8171.65750 6.79014e-18
8173.13427 6.85585e-18
8174.61103 7.00712e-18
8176.08779 7.15845e-18
8177.56455 7.15763e-18
8179.04131 7.15671e-18
8180.51808 7.19117e-18
8181.99484 7.22566e-18
8183.48165 7.42387e-18
8184.95841 7.62219e-18
8186.43517 7.73070e-18
8187.91193 7.83916e-18
8189.38869 7.78888e-18
8190.86546 7.73850e-18
8192.34222 7.67097e-18
8193.81898 7.60342e-18
8195.30579 7.44489e-18
8196.78255 7.28631e-18
8198.25931 7.10074e-18
8199.73607 6.91516e-18
8201.21284 6.73228e-18
8202.68960 6.54941e-18
8204.16636 6.26017e-18
8205.64312 5.97087e-18
8207.12993 5.58858e-18
8208.60669 5.20625e-18
8210.08345 5.08769e-18
8211.56022 4.96931e-18
8213.03698 5.06273e-18
8214.51374 5.15628e-18
8215.99050 5.27723e-18
8217.46726 5.39820e-18
8218.94403 5.69704e-18
8220.43083 5.99599e-18
8221.90760 6.31193e-18
8223.38436 6.62786e-18
8224.86112 6.78576e-18
8226.33788 6.94354e-18
8227.81464 6.96756e-18
8229.29141 6.99148e-18
8230.76817 6.91189e-18
8232.25498 6.83223e-18
8233.73174 6.73414e-18
8235.20850 6.63603e-18
8236.68526 6.35591e-18
8238.16202 6.07567e-18
8239.63879 5.68583e-18
8241.11555 5.29593e-18
8242.59231 5.08962e-18
8244.07912 4.88345e-18
8245.55588 4.69933e-18
8247.03264 4.51522e-18
8248.50940 4.25954e-18
8249.98617 4.00382e-18
8251.46293 3.99611e-18
8252.93969 3.98857e-18
8254.41645 3.94946e-18
8255.90326 3.91034e-18
8257.38002 4.08946e-18
8258.85678 4.26872e-18
8260.33355 4.65289e-18
8261.81031 5.03718e-18
8263.28707 5.32010e-18
8264.76383 5.60295e-18
8266.24059 5.63918e-18
8267.72740 5.67525e-18
8269.20416 5.72642e-18
8270.68093 5.77760e-18
8272.15769 5.87924e-18
8273.63445 5.98091e-18
8275.11121 5.79588e-18
8276.58797 5.61067e-18
8278.06474 5.28145e-18
8279.54150 4.95214e-18
8281.02831 4.70437e-18
8282.50507 4.45667e-18
8283.98183 4.31596e-18
8285.45859 4.17532e-18
8286.93535 3.91003e-18
8288.41212 3.64465e-18
8289.88888 3.46607e-18
8291.37569 3.28756e-18
8292.85245 3.40171e-18
8294.32921 3.51606e-18
8295.80597 3.54200e-18
8297.28273 3.56788e-18
8298.75950 3.59600e-18
8300.23626 3.62412e-18
8301.71302 3.88034e-18
8303.18978 4.13670e-18
8304.67659 4.31360e-18
8306.15335 4.49044e-18
8307.63011 4.75805e-18
8309.10688 5.02572e-18
8310.58364 5.41036e-18
8312.06040 5.79506e-18
8313.53716 5.85163e-18
8315.01392 5.90797e-18
8316.50073 5.81506e-18
8317.97749 5.72204e-18
8319.45426 5.72068e-18
8320.93102 5.71937e-18
8322.40778 5.60379e-18
8323.88454 5.48815e-18
8325.36130 5.20584e-18
8326.83807 4.92343e-18
8328.32487 4.84963e-18
8329.80164 4.77597e-18
8331.27840 4.85791e-18
8332.75516 4.93995e-18
8334.23192 4.69652e-18
8335.70868 4.45288e-18
8337.18545 4.26581e-18
8338.66221 4.07879e-18
8340.14902 4.06450e-18
8341.62578 4.05033e-18
8343.10254 4.22948e-18
8344.57930 4.40875e-18
8346.05606 4.59320e-18
8347.53283 4.77765e-18
8349.00959 4.91400e-18
8350.48635 5.05031e-18
8351.96311 5.22235e-18
8353.44992 5.39442e-18
8354.92668 5.66033e-18
8356.40344 5.92629e-18
8357.88021 6.28158e-18
8359.35697 6.63692e-18
8360.83373 6.76627e-18
8362.31049 6.89545e-18
8363.78725 6.86802e-18
8365.27406 6.84048e-18
8366.75082 6.75025e-18
8368.22759 6.65997e-18
8369.70435 6.52136e-18
8371.18111 6.38272e-18
8372.65787 6.28645e-18
8374.13463 6.19021e-18
8375.61140 5.90052e-18
8377.09820 5.61070e-18
8378.57497 5.36335e-18
8380.05173 5.11604e-18
8381.52849 5.02975e-18
8383.00525 4.94358e-18
8384.48201 4.87643e-18
8385.95878 4.80929e-18
8387.43554 4.93424e-18
8388.92235 5.05931e-18
8390.39911 5.14007e-18
8391.87587 5.22080e-18
8393.35263 5.49164e-18
8394.82939 5.76259e-18
8396.30616 6.06084e-18
8397.78292 6.35910e-18
8399.25968 6.41850e-18
8400.73644 6.47774e-18
8402.22325 6.54677e-18
8403.70001 6.61581e-18
8405.17677 6.82977e-18
8406.65354 7.04382e-18
8408.13030 7.13760e-18
8409.60706 7.23129e-18
8411.08382 7.14738e-18
8412.56058 7.06334e-18
8414.04739 7.08890e-18
8415.52415 7.11453e-18
8417.00092 7.08670e-18
8418.47768 7.05884e-18
8419.95444 6.92416e-18
8421.43120 6.78941e-18
8422.90796 6.58741e-18
8424.38473 6.38537e-18
8425.87153 6.30215e-18
8427.34830 6.21901e-18
8428.82506 6.12645e-18
8430.30182 6.03390e-18
8431.77858 5.97383e-18
8433.25534 5.91379e-18
8434.73211 5.91271e-18
8436.20887 5.91167e-18
8437.69568 5.90444e-18
8439.17244 5.89720e-18
8440.64920 6.09339e-18
8442.12596 6.28972e-18
8443.60272 6.52868e-18
8445.07949 6.76767e-18
8446.55625 6.83694e-18
8448.03301 6.90609e-18
8449.51982 7.24328e-18
8450.99658 7.58065e-18
8452.47334 8.00534e-18
8453.95010 8.43008e-18
8455.42687 8.62022e-18
8456.90363 8.81019e-18
8458.38039 8.86845e-18
8459.85715 8.92661e-18
8461.33391 9.00565e-18
8462.82072 9.08471e-18
8464.29748 9.20076e-18
8465.77425 9.31684e-18
8467.25101 9.25349e-18
8468.72777 9.19001e-18
8470.20453 8.89614e-18
8471.68129 8.60212e-18
8473.16810 8.23786e-18
8474.64486 7.87357e-18
8476.12163 7.55780e-18
8477.59839 7.24207e-18
8479.07515 7.17887e-18
8480.55191 7.11585e-18
8482.02867 7.05122e-18
8483.50544 6.98658e-18
8484.98220 6.76485e-18
8486.46901 6.54301e-18
8487.94577 6.65835e-18
8489.42253 6.77392e-18
8490.89929 7.19609e-18
8492.37605 7.61847e-18
8493.85282 7.95475e-18
8495.32958 8.29097e-18
8496.80634 8.64996e-18
8498.29315 9.00896e-18
8499.76991 9.70897e-18
8501.24667 1.04092e-17
8502.72343 1.10478e-17
8504.20020 1.16863e-17
8505.67696 1.20457e-17
8507.15372 1.24049e-17
8508.63048 1.28957e-17
8510.11729 1.33866e-17
8511.59405 1.35089e-17
8513.07081 1.36310e-17
8514.54758 1.32819e-17
8516.02434 1.29324e-17
8517.50110 1.27239e-17
8518.97786 1.25155e-17
8520.45462 1.22280e-17
8521.94143 1.19404e-17
8523.41819 1.14425e-17
8524.89496 1.09445e-17
8526.37172 1.04402e-17
8527.84848 9.93600e-18
8529.32524 9.63885e-18
8530.80200 9.34185e-18
8532.27877 9.11280e-18
8533.75553 8.88381e-18
8535.24234 8.69203e-18
8536.71910 8.50029e-18
8538.19586 8.67190e-18
8539.67262 8.84376e-18
8541.14938 8.90868e-18
8542.62615 8.97352e-18
8544.10291 9.28075e-18
8545.57967 9.58814e-18
8547.06648 1.02755e-17
8548.54324 1.09631e-17
8550.02000 1.14927e-17
8551.49676 1.20222e-17
8552.97353 1.26234e-17
8554.45029 1.32245e-17
8555.92705 1.38619e-17
8557.40381 1.44993e-17
8558.89062 1.47503e-17
8560.36738 1.50011e-17
8561.84414 1.52418e-17
8563.32091 1.54825e-17
8564.79767 1.54684e-17
8566.27443 1.54541e-17
8567.75119 1.50573e-17
8569.22795 1.46601e-17
8570.71476 1.42836e-17
8572.19152 1.39070e-17
8573.66829 1.31691e-17
8575.14505 1.24310e-17
8576.62181 1.17059e-17
8578.09857 1.09808e-17
8579.57533 1.06425e-17
8581.05210 1.03044e-17
8582.52886 9.91588e-18
8584.01567 9.52729e-18
8585.49243 9.14993e-18
8586.96919 8.77259e-18
8588.44595 8.82311e-18
8589.92271 8.87394e-18
8591.39948 9.01997e-18
8592.87624 9.16606e-18
8594.35300 9.42569e-18
8595.83981 9.68538e-18
8597.31657 9.95001e-18
8598.79333 1.02146e-17
8600.27009 1.05472e-17
8601.74686 1.08797e-17
8603.22362 1.15668e-17
8604.70038 1.22541e-17
8606.17714 1.30028e-17
8607.66395 1.37515e-17
8609.14071 1.43158e-17
8610.61747 1.48800e-17
8612.09424 1.52829e-17
8613.57100 1.56856e-17
8615.04776 1.60257e-17
8616.52452 1.63657e-17
8618.00128 1.64013e-17
8619.48809 1.64366e-17
8620.96485 1.63335e-17
8622.44162 1.62302e-17
8623.91838 1.57742e-17
8625.39514 1.53179e-17
8626.87190 1.46281e-17
8628.34866 1.39382e-17
8629.82543 1.33696e-17
8631.31223 1.28010e-17
8632.78900 1.22933e-17
8634.26576 1.17856e-17
8635.74252 1.12338e-17
8637.21928 1.06820e-17
8638.69604 1.03852e-17
8640.17281 1.00887e-17
8641.64957 1.00801e-17
8643.12633 1.00717e-17
8644.61314 9.90912e-18
8646.08990 9.74647e-18
8647.56666 9.63186e-18
8649.04342 9.51729e-18
8650.52019 9.59313e-18
8651.99695 9.66911e-18
8653.47371 9.85874e-18
8654.96052 1.00485e-17
8656.43728 1.02734e-17
8657.91404 1.04984e-17
8659.39080 1.07397e-17
8660.86757 1.09811e-17
8662.34433 1.11275e-17
8663.82109 1.12738e-17
8665.29785 1.17504e-17
8666.77461 1.22272e-17
8668.26142 1.28390e-17
8669.73818 1.34508e-17
8671.21495 1.39927e-17
8672.69171 1.45345e-17
8674.16847 1.47743e-17
8675.64523 1.50139e-17
8677.12199 1.50740e-17
8678.59876 1.51340e-17
8680.07552 1.52959e-17
8681.56233 1.54578e-17
8683.03909 1.53337e-17
8684.51585 1.52095e-17
8685.99261 1.50089e-17
8687.46937 1.48082e-17
8688.94614 1.48385e-17
8690.42290 1.48690e-17
8691.90971 1.48361e-17
8693.38647 1.48031e-17
8694.86323 1.46656e-17
8696.33999 1.45280e-17
8697.81675 1.42990e-17
8699.29352 1.40700e-17
8700.77028 1.39278e-17
8702.24704 1.37857e-17
8703.73385 1.36527e-17
8705.21061 1.35196e-17
8706.68737 1.33231e-17
8708.16413 1.31266e-17
8709.64090 1.28543e-17
8711.11766 1.25820e-17
8712.59442 1.22922e-17
8714.07118 1.20025e-17
8715.54794 1.15749e-17
8717.03475 1.11471e-17
8718.51151 1.06986e-17
8719.98828 1.02500e-17
8721.46504 1.01682e-17
8722.94180 1.00868e-17
8724.41856 1.00624e-17
8725.89532 1.00380e-17
8727.37209 9.89984e-18
8728.85889 9.76158e-18
8730.33566 9.85326e-18
8731.81242 9.94510e-18
8733.28918 1.02718e-17
8734.76594 1.05986e-17
8736.24270 1.09776e-17
8737.71947 1.13566e-17
8739.19623 1.18405e-17
8740.68304 1.23244e-17
8742.15980 1.27012e-17
8743.63656 1.30779e-17
8745.11332 1.33258e-17
8746.59008 1.35735e-17
8748.06685 1.39475e-17
8749.54361 1.43215e-17
8751.02037 1.43748e-17
8752.50718 1.44278e-17
8753.98394 1.45907e-17
8755.46070 1.47537e-17
8756.93746 1.44768e-17
8758.41423 1.41996e-17
8759.89099 1.36006e-17
8761.36775 1.30013e-17
8762.84451 1.23933e-17
8764.32127 1.17853e-17
8765.80808 1.11814e-17
8767.28484 1.05776e-17
8768.76161 1.01095e-17
8770.23837 9.64153e-18
8771.71513 9.23028e-18
8773.19189 8.81907e-18
8774.66865 8.77901e-18
8776.14542 8.73921e-18
8777.63222 8.98095e-18
8779.10899 9.22288e-18
8780.58575 9.38841e-18
8782.06251 9.55388e-18
8783.53927 9.95593e-18
8785.01603 1.03581e-17
8786.49280 1.08719e-17
8787.96956 1.13856e-17
8789.45637 1.18592e-17
8790.93313 1.23327e-17
8792.40989 1.28196e-17
8793.88665 1.33065e-17
8795.36341 1.36257e-17
8796.84018 1.39447e-17
8798.31694 1.38623e-17
8799.79370 1.37795e-17
8801.28051 1.37356e-17
8802.75727 1.36918e-17
8804.23403 1.37519e-17
8805.71079 1.38122e-17
8807.18756 1.35150e-17
8808.66432 1.32176e-17
8810.14108 1.27840e-17
8811.61784 1.23503e-17
8813.10465 1.15536e-17
8814.58141 1.07566e-17
8816.05817 9.91593e-18
8817.53494 9.07527e-18
8819.01170 8.49887e-18
8820.48846 7.92268e-18
8821.96522 7.66326e-18
8823.44198 7.40407e-18
8824.91875 7.54899e-18
8826.40555 7.69421e-18
8827.88232 7.78414e-18
8829.35908 7.87403e-18
8830.83584 8.21169e-18
8832.31260 8.54952e-18
8833.78936 8.98080e-18
8835.26613 9.41215e-18
8836.75293 9.99097e-18
8838.22970 1.05699e-17
8839.70646 1.12236e-17
8841.18322 1.18774e-17
8842.65998 1.24162e-17
8844.13674 1.29549e-17
8845.61351 1.34064e-17
8847.09027 1.38579e-17
8848.56703 1.41061e-17
8850.05384 1.43541e-17
8851.53060 1.41019e-17
8853.00736 1.38492e-17
8854.48412 1.32583e-17
8855.96089 1.26670e-17
8857.43765 1.18085e-17
8858.91441 1.09498e-17
8860.39117 1.00364e-17
8861.86793 9.12293e-18
8863.35474 8.70949e-18
8864.83150 8.29643e-18
8866.30827 8.15678e-18
8867.78503 8.01734e-18
8869.26179 7.73004e-18
8870.73855 7.44263e-18
8872.21531 7.06713e-18
8873.70212 6.69156e-18
8875.17888 6.50510e-18
8876.65565 6.31877e-18
8878.13241 6.49597e-18
8879.60917 6.67343e-18
8881.08593 7.07238e-18
8882.56269 7.47149e-18
8884.03946 7.77830e-18
8885.51622 8.08504e-18
8887.00303 8.40459e-18
8888.47979 8.72416e-18
8889.95655 8.96378e-18
8891.43331 9.20335e-18
8892.91007 9.55389e-18
8894.38684 9.90452e-18
8895.86360 1.03431e-17
8897.34036 1.07817e-17
8898.82717 1.12168e-17
8900.30393 1.16518e-17
8901.78069 1.20407e-17
8903.25745 1.24296e-17
8904.73422 1.23423e-17
8906.21098 1.22547e-17
8907.68774 1.20498e-17
8909.16450 1.18449e-17
8910.65131 1.12814e-17
8912.12807 1.07175e-17
8913.60483 1.01242e-17
8915.08160 9.53085e-18
8916.55836 8.99231e-18
8918.03512 8.45382e-18
8919.51188 8.03561e-18
8920.98864 7.61750e-18
8922.47545 7.54163e-18
8923.95221 7.46602e-18
8925.42898 7.58984e-18
8926.90574 7.71382e-18
8928.38250 7.86218e-18
8929.85926 8.01056e-18
8931.33602 8.01713e-18
8932.81279 8.02360e-18
8934.28955 8.09213e-18
8935.77636 8.16071e-18
8937.25312 8.26855e-18
8938.72988 8.37643e-18
8940.20664 8.80904e-18
8941.68340 9.24189e-18
8943.16017 9.63282e-18
8944.63693 1.00237e-17
8946.11369 9.99873e-18
8947.60050 9.97345e-18
8949.07726 9.86258e-18
8950.55402 9.75165e-18
8952.03078 9.84038e-18
8953.50755 9.92926e-18
8954.98431 1.01158e-17
8956.46107 1.03025e-17
8957.93783 1.02947e-17
8959.42464 1.02868e-17
8960.90140 9.98710e-18
8962.37816 9.68719e-18
8963.85493 9.45377e-18
8965.33169 9.22041e-18
8966.80845 8.69744e-18
8968.28521 8.17426e-18
8969.76197 7.62849e-18
8971.24878 7.08271e-18
8972.72554 6.87263e-18
8974.20231 6.66282e-18
8975.67907 6.48291e-18
8977.15583 6.30303e-18
8977.57776 6.30303e-18
8979.23535 6.14518e-18
8980.89294 5.98746e-18
8982.56058 6.12832e-18
8984.21817 6.26917e-18
8985.87576 6.44791e-18
8987.53335 6.62647e-18
8989.20098 6.33576e-18
8990.85857 6.04513e-18
8992.51616 5.94851e-18
8994.18380 5.85196e-18
8995.84139 5.97331e-18
8997.49898 6.09465e-18
8999.15657 6.20760e-18
9000.82421 6.32059e-18
9002.48180 6.52095e-18
9004.13939 6.72120e-18
9005.79698 6.63896e-18
9007.46461 6.55673e-18
9009.12220 6.51496e-18
9010.77979 6.47328e-18
9012.44743 6.65851e-18
9014.10502 6.84355e-18
9015.76261 6.50091e-18
9017.42020 6.15847e-18
9019.08783 6.22192e-18
9020.74542 6.28526e-18
9022.40301 6.10835e-18
9024.07065 5.93151e-18
9025.72824 5.98350e-18
9027.38583 6.03551e-18
9029.04342 6.16204e-18
9030.71106 6.28862e-18
9032.36865 6.56139e-18
9034.02624 6.83391e-18
9035.68383 6.47405e-18
9037.35146 6.11430e-18
9039.00905 6.00312e-18
9040.66664 5.89206e-18
9042.33428 6.09894e-18
9043.99187 6.30562e-18
9045.64946 6.02556e-18
9047.30705 5.74550e-18
9048.97468 5.45026e-18
9050.63227 5.15533e-18
9052.28986 5.60962e-18
9053.95750 6.06376e-18
9055.61509 6.13043e-18
9057.27268 6.19693e-18
9058.93027 5.86484e-18
9060.59791 5.53286e-18
9062.25550 5.46166e-18
9063.91309 5.39053e-18
9065.57068 5.46149e-18
9067.23831 5.53235e-18
9068.89590 5.29654e-18
9070.55349 5.06094e-18
9072.21108 5.32359e-18
9073.87872 5.58612e-18
9075.53631 5.59034e-18
9077.19390 5.59458e-18
9078.86153 5.64742e-18
9080.51912 5.70005e-18
9082.17671 5.24863e-18
9083.83430 4.79755e-18
9085.50194 5.13023e-18
9087.15953 5.46286e-18
9088.81712 5.67581e-18
9090.48476 5.88856e-18
9092.14235 5.68812e-18
9093.79994 5.48801e-18
9095.45753 5.88160e-18
9097.12516 6.27485e-18
9098.78275 5.84368e-18
9100.44034 5.41281e-18
9102.09793 5.68126e-18
9103.76557 5.94983e-18
9105.42316 6.47779e-18
9107.08075 7.00541e-18
9108.74838 6.72511e-18
9110.40597 6.44479e-18
9112.06356 6.06643e-18
9113.72115 5.68821e-18
9115.38879 5.57645e-18
9117.04638 5.46480e-18
9118.70397 5.59478e-18
9120.36156 5.72469e-18
9122.02920 5.65783e-18
9123.68679 5.59104e-18
9125.34438 5.71975e-18
9127.01201 5.84845e-18
9128.66960 6.01666e-18
9130.32719 6.18482e-18
9131.98478 6.27080e-18
9133.65242 6.35675e-18
9135.31001 6.34526e-18
9136.96760 6.33380e-18
9138.63523 6.44318e-18
9140.29282 6.55244e-18
9141.95041 6.34272e-18
9143.60800 6.13310e-18
9145.27564 6.18005e-18
9146.93323 6.22693e-18
9148.59082 6.13744e-18
9150.24841 6.04789e-18
9151.91605 5.79848e-18
9153.57364 5.54935e-18
9155.23123 5.99501e-18
9156.89886 6.44049e-18
9158.55645 6.48891e-18
9160.21404 6.53724e-18
9161.87163 6.42145e-18
9163.53927 6.30555e-18
9165.19686 5.95163e-18
9166.85445 5.59796e-18
9168.51204 5.85021e-18
9170.17967 6.10238e-18
9171.83726 6.11245e-18
9173.49485 6.12250e-18
9175.15244 6.05417e-18
9176.82008 5.98599e-18
9178.47767 6.30288e-18
9180.13526 6.61968e-18
9181.80290 6.71254e-18
9183.46049 6.80531e-18
9185.11808 6.68386e-18
9186.77567 6.56249e-18
9188.44330 6.64007e-18
9190.10089 6.71756e-18
9191.75848 6.62410e-18
9193.42612 6.53057e-18
9195.08371 6.26279e-18
9196.74130 5.99527e-18
9198.39889 6.38138e-18
9200.06652 6.76734e-18
9201.72411 6.78164e-18
9203.38170 6.79579e-18
9205.03929 6.47786e-18
9206.70693 6.16005e-18
9208.36452 6.15166e-18
9210.02211 6.14339e-18
9211.68975 6.41184e-18
9213.34734 6.68014e-18
9215.00493 6.60630e-18
9216.66252 6.53244e-18
9218.33015 6.41165e-18
9219.98774 6.29087e-18
9221.64533 6.16293e-18
9223.31297 6.03508e-18
9224.97056 6.13261e-18
9226.62815 6.22996e-18
9228.28574 5.88052e-18
9229.95337 5.53144e-18
9231.61096 6.09662e-18
9233.26855 6.66165e-18
9234.92614 6.93502e-18
9236.59378 7.20810e-18
9238.25137 6.79583e-18
9239.90896 6.38366e-18
9241.56655 6.17122e-18
9243.23419 5.95903e-18
9244.89178 6.37697e-18
9246.54937 6.79461e-18
9248.21700 6.48290e-18
9249.87459 6.17135e-18
9251.53218 6.19365e-18
9253.18977 6.21590e-18
9254.85741 6.14530e-18
9256.51500 6.07477e-18
9258.17259 6.15960e-18
9259.84022 6.24446e-18
9261.49781 6.39955e-18
9263.15540 6.55453e-18
9264.81299 6.44052e-18
9266.48063 6.32639e-18
9268.13822 5.92577e-18
9269.79581 5.52550e-18
9271.45340 5.98484e-18
9273.12104 6.44388e-18
9274.77863 6.22555e-18
9276.43622 6.00743e-18
9278.10385 6.33797e-18
9279.76144 6.66822e-18
9281.41903 6.34435e-18
9283.07662 6.02064e-18
9284.74426 6.02920e-18
9286.40185 6.03781e-18
9288.05944 6.19029e-18
9289.71703 6.34251e-18
9291.38466 5.84037e-18
9293.04225 5.33849e-18
9294.69984 5.48808e-18
9296.36748 5.63770e-18
9298.02507 5.85568e-18
9299.68266 6.07357e-18
9301.34025 6.08506e-18
9303.00789 6.09652e-18
9304.66548 6.06117e-18
9306.32307 6.02573e-18
9307.99070 5.78529e-18
9309.64829 5.54490e-18
9311.30588 5.43199e-18
9312.96347 5.31918e-18
9314.63111 5.42626e-18
9316.28870 5.53317e-18
9317.94629 5.19174e-18
9319.60388 4.85028e-18
9321.27151 4.39257e-18
9322.92910 3.93528e-18
9324.58669 4.42344e-18
9326.25433 4.91142e-18
9327.91192 4.97874e-18
9329.56951 5.04610e-18
9331.22710 5.20454e-18
9332.89474 5.36280e-18
9334.55233 5.09538e-18
9336.20992 4.82811e-18
9337.87755 4.92187e-18
9339.53514 5.01560e-18
9341.19273 5.06874e-18
9342.85032 5.12200e-18
9344.51796 5.40614e-18
9346.17555 5.69020e-18
9347.83314 5.75817e-18
9349.49073 5.82582e-18
9351.15836 5.10783e-18
9352.81595 4.39012e-18
9354.47354 4.26376e-18
9356.13113 4.13774e-18
9357.79877 4.81414e-18
9359.45636 5.49022e-18
9361.11395 5.42691e-18
9362.78159 5.36376e-18
9364.43918 5.66361e-18
9366.09677 5.96333e-18
9367.75436 5.96306e-18
9369.42199 5.96277e-18
9371.07958 5.91772e-18
9372.73717 5.87236e-18
9374.40481 5.00876e-18
9376.06240 4.14556e-18
9377.71999 4.16784e-18
9379.37758 4.19026e-18
9381.04521 4.55028e-18
9382.70280 4.91015e-18
9384.36039 4.92780e-18
9386.01798 4.94544e-18
9387.68562 4.94844e-18
9389.34321 4.95140e-18
9391.00080 4.93192e-18
9392.66844 4.91255e-18
9394.32603 5.13953e-18
9395.98362 5.36632e-18
9397.64121 5.13378e-18
9399.30884 4.90135e-18
9400.96643 4.91538e-18
9402.62402 4.92943e-18
9404.28161 4.99483e-18
9405.94925 5.06015e-18
9407.60684 4.92911e-18
9409.26443 4.79824e-18
9410.93206 5.05823e-18
9412.58965 5.31812e-18
9414.24724 5.36705e-18
9415.90483 5.41589e-18
9417.57247 5.21011e-18
9419.23006 5.00442e-18
9420.88765 4.94525e-18
9422.54524 4.88600e-18
9424.21288 4.67326e-18
9425.87047 4.46087e-18
9427.52806 5.03862e-18
9429.19569 5.61597e-18
9430.85328 5.26565e-18
9432.51087 4.91542e-18
9434.16846 4.80376e-18
9435.83610 4.69187e-18
9437.49369 4.07628e-18
9439.15128 3.46085e-18
9440.80887 3.23324e-18
9442.47650 3.00616e-18
9444.13409 4.01611e-18
9445.79168 5.02562e-18
9447.45932 5.00718e-18
9449.11691 4.98880e-18
9450.77450 5.11358e-18
9452.43209 5.23817e-18
9454.09973 4.93646e-18
9455.75732 4.63476e-18
9457.41491 4.26453e-18
9459.07250 3.89452e-18
9460.74013 3.99440e-18
9462.39772 4.09438e-18
9464.05531 4.44855e-18
9465.72295 4.80237e-18
9467.38054 4.32892e-18
9469.03813 3.85583e-18
9470.69572 4.20048e-18
9472.36335 4.54515e-18
9474.02094 4.93367e-18
9475.67853 5.32211e-18
9477.34617 5.52158e-18
9479.00376 5.72085e-18
9480.66135 5.50494e-18
9482.31894 5.28913e-18
9483.98658 5.29419e-18
9485.64417 5.29911e-18
9487.30176 4.94116e-18
9488.95935 4.58335e-18
9490.62698 4.54589e-18
9492.28457 4.50842e-18
9493.94216 4.39173e-18
9495.60980 4.27535e-18
9497.26739 4.84463e-18
9498.92498 5.41357e-18
9500.58257 5.16215e-18
9502.25020 4.91087e-18
9503.90779 4.98550e-18
9505.56538 5.06017e-18
9507.23302 5.17790e-18
9508.89061 5.29541e-18
9510.54820 4.91782e-18
9512.20579 4.54032e-18
9513.87343 4.37778e-18
9515.53102 4.21527e-18
9517.18861 4.13364e-18
9518.84620 4.05227e-18
9520.51383 4.56965e-18
9522.17142 5.08665e-18
9523.82901 4.77230e-18
9525.49665 4.45816e-18
9527.15424 4.57665e-18
9528.81183 4.69501e-18
9530.46942 4.51740e-18
9532.13705 4.33996e-18
9533.79464 4.54754e-18
9535.45223 4.75503e-18
9537.10982 4.80355e-18
9538.77746 4.85209e-18
9540.43505 4.96739e-18
9542.09264 5.08262e-18
9543.76028 5.02828e-18
9545.41787 4.97379e-18
9547.07546 4.57502e-18
9548.73305 4.17633e-18
9550.40068 3.97284e-18
9552.05827 3.76986e-18
9553.71586 4.75400e-18
9555.37345 5.73751e-18
9557.04109 5.28850e-18
9558.69868 4.83964e-18
9560.35627 4.77537e-18
9562.02390 4.71122e-18
9563.68149 4.90290e-18
9565.33908 5.09437e-18
9566.99667 4.82988e-18
9568.66431 4.56553e-18
9570.32190 4.60368e-18
9571.97949 4.64188e-18
9573.64713 4.75949e-18
9575.30472 4.87688e-18
9576.96231 4.50720e-18
9578.61990 4.13769e-18
9580.28753 4.13710e-18
9581.94512 4.13659e-18
9583.60271 4.26799e-18
9585.27035 4.39928e-18
9586.92794 4.23479e-18
9588.58553 4.07035e-18
9590.24312 4.01102e-18
9591.91075 3.95188e-18
9593.56834 4.32444e-18
9595.22593 4.69676e-18
9596.88352 4.52385e-18
9598.55116 4.35115e-18
9600.20875 4.65711e-18
9601.86634 4.96293e-18
9603.52393 4.95489e-18
9605.19157 4.94693e-18
9606.84916 5.15867e-18
9608.50675 5.37007e-18
9610.17438 4.81287e-18
9611.83197 4.25590e-18
9613.48956 4.23508e-18
9615.14715 4.21424e-18
9616.81479 4.16851e-18
9618.47238 4.12283e-18
9620.12997 4.19926e-18
9621.79760 4.27571e-18
9623.45519 4.37326e-18
9625.11278 4.47080e-18
9626.77037 4.56385e-18
9628.43801 4.65690e-18
9630.09560 4.77944e-18
9631.75319 4.90190e-18
9633.41078 4.88967e-18
9635.07842 4.87755e-18
9636.73601 5.13785e-18
9638.39360 5.39788e-18
9640.06123 5.08303e-18
9641.71882 4.76837e-18
9643.37641 4.87732e-18
9645.03400 4.98602e-18
9646.70164 4.54996e-18
9648.35923 4.11422e-18
9650.01682 4.39850e-18
9651.67441 4.68263e-18
9653.34204 4.64411e-18
9654.99963 4.60546e-18
9656.65722 4.28521e-18
9658.31481 3.96519e-18
9659.98245 4.09808e-18
9661.64004 4.23113e-18
9663.29763 4.68344e-18
9664.96527 5.13528e-18
9666.62286 4.52250e-18
9668.28045 3.91015e-18
9669.93804 4.23170e-18
9671.60567 4.55325e-18
9673.26326 4.88213e-18
9674.92085 5.21088e-18
9676.58849 5.29651e-18
9678.24608 5.38198e-18
9679.90367 5.14368e-18
9681.56126 4.90575e-18
9683.22889 5.41758e-18
9684.88648 5.92903e-18
9686.54407 5.52870e-18
9688.20166 5.12828e-18
9689.86930 4.56666e-18
9691.52689 4.00556e-18
9693.18448 4.54100e-18
9694.85212 5.07624e-18
9696.50971 5.14574e-18
9698.16730 5.21538e-18
9699.82489 5.59344e-18
9701.49252 5.97084e-18
9703.15011 4.89055e-18
9704.80770 3.81085e-18
9706.46529 4.04700e-18
9708.13293 4.28310e-18
9709.79052 4.38221e-18
9711.44811 4.48107e-18
9713.11574 4.00817e-18
9714.77333 3.53570e-18
9716.43092 4.01659e-18
9718.08851 4.49747e-18
9719.75615 4.93513e-18
9721.41374 5.37239e-18
9723.07133 4.94964e-18
9724.73897 4.52715e-18
9726.39656 4.61716e-18
9728.05415 4.70719e-18
9729.71174 4.84681e-18
9731.37937 4.98622e-18
9733.03696 4.70640e-18
9734.69455 4.42675e-18
9736.35214 4.54852e-18
9738.01978 4.67030e-18
9739.67737 4.87250e-18
9741.33496 5.07461e-18
9743.00259 5.07123e-18
9744.66018 5.06775e-18
9746.31777 4.80739e-18
9747.97536 4.54706e-18
9749.64300 4.32525e-18
9751.30059 4.10374e-18
9752.95818 4.55660e-18
9754.62582 5.00905e-18
9756.28341 4.64637e-18
9757.94100 4.28393e-18
9759.59859 4.45451e-18
9761.26622 4.62505e-18
9762.92381 4.75126e-18
9764.58140 4.87738e-18
9766.23899 4.79678e-18
9767.90663 4.71633e-18
9769.56422 4.93218e-18
9771.22181 5.14785e-18
9772.87940 4.97670e-18
9774.54703 4.80554e-18
9776.20462 4.54064e-18
9777.86221 4.27576e-18
9779.52985 4.05237e-18
9781.18744 3.82927e-18
9782.84503 4.22985e-18
9784.50262 4.63021e-18
9786.17026 4.53713e-18
9787.82785 4.44461e-18
9789.48544 5.54501e-18
9791.15307 6.64463e-18
9792.81066 6.08919e-18
9794.46825 5.53391e-18
9796.12584 5.25182e-18
9797.79348 4.96995e-18
9799.45107 5.13857e-18
9801.10866 5.30666e-18
9802.76625 4.35549e-18
9804.43388 3.40462e-18
9806.09147 3.09254e-18
9807.74906 2.78095e-18
9809.41670 3.50810e-18
9811.07429 4.23498e-18
9812.73188 4.38615e-18
9814.38947 4.53732e-18
9816.05711 4.69215e-18
9817.71470 4.84684e-18
9819.37229 4.72760e-18
9821.03992 4.60826e-18
9822.69751 4.24396e-18
9824.35510 3.88010e-18
9826.01269 4.41900e-18
9827.68033 4.95753e-18
9829.33792 4.66057e-18
9830.99551 4.36384e-18
9832.65310 4.52865e-18
9834.32073 4.69332e-18
9835.97832 4.56004e-18
9837.63591 4.42670e-18
9839.30355 4.14431e-18
9840.96114 3.86231e-18
9842.61873 4.39823e-18
9844.27632 4.93417e-18
9845.94396 5.49753e-18
9847.60155 6.06050e-18
9849.25914 5.80153e-18
9850.91673 5.54255e-18
9852.58436 5.27994e-18
9854.24195 5.01732e-18
9855.89954 4.78465e-18
9857.56718 4.55208e-18
9859.22477 4.51365e-18
9860.88236 4.47523e-18
9862.53995 4.46385e-18
9864.20758 4.45289e-18
9865.86517 5.32637e-18
9867.52276 6.19935e-18
9869.18035 5.97415e-18
9870.84799 5.74917e-18
9872.50558 5.95431e-18
9874.16317 6.15960e-18
9875.83081 6.71957e-18
9877.48840 7.27882e-18
9879.14599 6.32835e-18
9880.80358 5.37791e-18
9882.47121 4.46557e-18
9884.12880 3.55402e-18
9885.78639 4.29261e-18
9887.44398 5.03104e-18
9889.11162 5.42453e-18
9890.76921 5.81788e-18
9892.42680 5.93781e-18
9894.09443 6.05777e-18
9895.75202 6.24029e-18
9897.40961 6.42275e-18
9899.06720 6.52002e-18
9900.73484 6.61671e-18
9902.39243 5.46552e-18
9904.05002 4.31484e-18
9905.70761 4.20355e-18
9907.37525 4.09223e-18
9909.03284 3.91804e-18
9910.69043 3.74393e-18
9912.35806 3.78898e-18
9914.01565 3.83433e-18
9915.67324 4.48051e-18
9917.33083 5.12625e-18
9918.99847 4.90283e-18
9920.65606 4.67958e-18
9922.31365 4.78057e-18
9923.98128 4.88159e-18
9925.63887 5.01008e-18
9927.29646 5.13864e-18
9928.95405 5.38290e-18
9930.62169 5.62655e-18
9932.27928 4.50164e-18
9933.93687 3.37713e-18
9935.59446 3.06089e-18
9937.26210 2.74533e-18
9938.91969 3.80684e-18
9940.57728 4.86804e-18
9942.23487 5.30297e-18
9943.90250 5.73769e-18
9945.56009 5.74082e-18
9947.21768 5.74358e-18
9948.88532 4.94953e-18
9950.54291 4.15630e-18
9952.20050 5.07229e-18
9953.85809 5.98784e-18
9955.52572 5.97369e-18
9957.18331 5.95925e-18
9958.84090 5.31874e-18
9960.50854 4.67843e-18
9962.16613 4.39916e-18
9963.82372 4.11997e-18
9965.48131 3.96020e-18
9967.14895 3.80034e-18
9968.80654 3.41479e-18
9970.46413 3.02937e-18
9972.12172 2.84520e-18
9973.78935 2.66114e-18
9975.44694 2.68594e-18
9977.10453 2.71111e-18
9978.77217 3.46755e-18
9980.42976 4.22360e-18
9982.08735 4.18482e-18
9983.74494 4.14620e-18
9985.41257 4.43171e-18
9987.07016 4.71728e-18
9988.72775 5.16313e-18
9990.39539 5.60869e-18
9992.05298 5.46077e-18
9993.71057 5.31265e-18
9995.36816 4.78192e-18
9997.03580 4.25101e-18
9998.69339 3.28854e-18
