# wavelength flux
5200.00127 8.33753e-18
5202.65630 7.91998e-18
5205.32136 6.35610e-18
5207.97639 6.87683e-18
5210.64144 6.66799e-18
5213.29648 4.97548e-18
5215.95151 5.39101e-18
5218.61657 3.65647e-18
5221.27160 2.72040e-18
5223.93666 2.94738e-18
5226.59169 5.11974e-18
5229.24673 4.89957e-18
5231.91178 7.06073e-18
5234.56682 7.44752e-18
5237.23187 5.27562e-18
5239.88691 4.59668e-18
5242.55196 5.51857e-18
5245.20699 6.38079e-18
5247.86203 6.27362e-18
5250.52708 5.00995e-18
5253.18212 6.31393e-18
5255.84717 5.94198e-18
5258.50221 6.87796e-18
5261.16726 8.30584e-18
5263.82230 8.04818e-18
5266.47733 4.35005e-18
5269.14239 5.82107e-18
5271.79742 7.63787e-18
5274.46247 5.53644e-18
5277.11751 5.34279e-18
5279.78256 4.74991e-18
5282.43760 5.28074e-18
5285.09263 4.65319e-18
5287.75769 6.64943e-18
5290.41272 8.65152e-18
5293.07778 8.06989e-18
5295.73281 7.30498e-18
5298.38785 6.40410e-18
5301.05290 7.85367e-18
5303.70793 8.48050e-18
5306.37299 7.39371e-18
5309.02802 7.46450e-18
5311.69308 8.03540e-18
5314.34811 6.75718e-18
5317.00315 7.09347e-18
5319.66820 8.30737e-18
5322.32324 7.94209e-18
5324.98829 8.34502e-18
5327.64333 8.95294e-18
5330.30838 8.04524e-18
5332.96342 8.49420e-18
5335.61845 9.18357e-18
5338.28350 8.58514e-18
5340.93854 7.74999e-18
5343.60359 6.90862e-18
5346.25863 8.22193e-18
5348.91366 9.76907e-18
5351.57872 1.02892e-17
5354.23375 1.03283e-17
5356.89881 9.36304e-18
5359.55384 9.28108e-18
5362.21889 6.92799e-18
5364.87393 6.88646e-18
5367.52897 8.30227e-18
5370.19402 9.46804e-18
5372.84905 9.64919e-18
5375.51411 7.57617e-18
5378.16914 8.97541e-18
5380.82418 1.02383e-17
5383.48923 9.49178e-18
5386.14427 8.87995e-18
5388.80932 9.20149e-18
5391.46436 9.59379e-18
5394.12941 9.85633e-18
5396.78445 9.91210e-18
5399.43948 9.01220e-18
5402.10453 8.79920e-18
5404.75957 9.03370e-18
5407.42462 1.00952e-17
5410.07966 1.05005e-17
5412.74471 1.03560e-17
5415.39975 1.06915e-17
5418.05478 1.02639e-17
5420.71984 9.58910e-18
5423.37487 1.05290e-17
5426.03993 1.05141e-17
5428.69496 9.90834e-18
5431.35000 9.36645e-18
5434.01505 9.45627e-18
5436.67008 9.39967e-18
5439.33514 9.53653e-18
5441.99017 8.74815e-18
5444.65523 7.77636e-18
5447.31026 8.43334e-18
5449.96530 8.85546e-18
5452.63035 7.45044e-18
5455.28539 8.70987e-18
5457.95044 9.55537e-18
5460.60548 1.11238e-17
5463.26051 9.92773e-18
5465.92556 9.40333e-18
5468.58060 9.92928e-18
5471.24565 1.03406e-17
5473.90069 1.15287e-17
5476.56574 1.20690e-17
5479.22078 1.20399e-17
5481.87581 1.11703e-17
5484.54087 1.05452e-17
5487.19590 1.05155e-17
5489.86096 1.08028e-17
5492.51599 1.18944e-17
5495.18104 1.23547e-17
5497.83608 1.23194e-17
5500.49111 1.13598e-17
5503.15617 1.17359e-17
5505.81120 1.24771e-17
5508.47626 1.18595e-17
5511.13129 1.23056e-17
5513.78633 1.17833e-17
5516.45138 1.20414e-17
5519.10642 1.25683e-17
5521.77147 1.20603e-17
5524.42650 1.15137e-17
5527.09156 1.17869e-17
5529.74659 1.14737e-17
5532.40163 1.14688e-17
5535.06668 1.08302e-17
5537.72172 1.05578e-17
5540.38677 1.19750e-17
5543.04181 1.16691e-17
5545.70686 1.07502e-17
5548.36190 1.02577e-17
5551.01693 9.95503e-18
5553.68198 1.01881e-17
5556.33702 1.10248e-17
5559.00207 1.12808e-17
5561.65711 1.13013e-17
5564.31214 1.09339e-17
5566.97720 9.66418e-18
5569.63223 1.04795e-17
5572.29729 1.05970e-17
5574.95232 1.04040e-17
5577.61738 1.07726e-17
5580.27241 1.05796e-17
5582.92745 9.66025e-18
5585.59250 7.71656e-18
5588.24753 9.61113e-18
5590.91259 9.99214e-18
5593.56762 9.16588e-18
5596.23268 1.03152e-17
5598.88771 9.76114e-18
5601.54275 8.96434e-18
5604.20780 8.74370e-18
5606.86284 9.32230e-18
5609.52789 9.60543e-18
5612.18293 9.65713e-18
5614.83796 9.35108e-18
5617.50302 1.00924e-17
5620.15805 9.94023e-18
5622.82310 9.43944e-18
5625.47814 9.00443e-18
5628.14319 9.51863e-18
5630.79823 1.02469e-17
5633.45326 9.70136e-18
5636.11832 9.06448e-18
5638.77335 9.48292e-18
5641.43841 9.75566e-18
5644.09344 9.21226e-18
5646.75850 9.13170e-18
5649.41353 9.87037e-18
5652.06857 9.17296e-18
5654.73362 9.55724e-18
5657.38865 9.13712e-18
5660.05371 8.41640e-18
5662.70874 7.63806e-18
5665.36378 8.25711e-18
5668.02883 7.28727e-18
5670.68387 7.21846e-18
5673.34892 7.57728e-18
5676.00396 6.42254e-18
5678.66901 6.02055e-18
5681.32405 5.95189e-18
5683.97908 4.82532e-18
5686.64413 4.34784e-18
5689.29917 4.71011e-18
5691.96422 4.19745e-18
5694.61926 3.95810e-18
5697.27429 2.93815e-18
5699.93935 2.87516e-18
5702.59438 3.41870e-18
5705.25944 2.95176e-18
5707.91447 2.71659e-18
5710.57953 2.93051e-18
5713.23456 2.73163e-18
5715.88960 2.01250e-18
5718.55465 1.87588e-18
5721.20968 1.83695e-18
5723.87474 2.05010e-18
5726.52977 2.86596e-18
5729.19483 2.68575e-18
5731.84986 2.44929e-18
5734.50490 2.87888e-18
5737.16995 2.75176e-18
5739.82499 2.59547e-18
5742.49004 6.34318e-18
5745.14508 7.39106e-18
5747.80011 3.79367e-18
5750.46516 2.77251e-18
5753.12020 3.27894e-18
5755.78525 4.27994e-18
5758.44029 4.91001e-18
5761.10534 4.68401e-18
5763.76038 4.72827e-18
5766.41541 5.43260e-18
5769.08047 5.15056e-18
5771.73550 5.45907e-18
5774.40056 6.06096e-18
5777.05559 6.97463e-18
5779.71062 7.16484e-18
5782.37568 6.81452e-18
5785.03071 7.49831e-18
5787.69577 8.70720e-18
5790.35080 8.76510e-18
5793.01586 9.32038e-18
5795.67089 9.25112e-18
5798.32593 9.04415e-18
5800.99098 1.00383e-17
5803.64602 1.11450e-17
5806.31107 1.10317e-17
5808.96610 1.08131e-17
5811.63116 1.07668e-17
5814.28619 1.11198e-17
5816.94123 1.22064e-17
5819.60628 1.25959e-17
5822.26132 1.29525e-17
5824.92637 1.27668e-17
5827.58141 1.24867e-17
5830.24646 1.31780e-17
5832.90150 1.38841e-17
5835.55653 1.44922e-17
5838.22158 1.52778e-17
5840.87662 1.58985e-17
5843.54167 1.56577e-17
5846.19671 1.61022e-17
5848.85174 1.67906e-17
5851.51680 1.65850e-17
5854.17183 1.66326e-17
5856.83689 1.73912e-17
5859.49192 1.72469e-17
5862.15698 1.74831e-17
5864.81201 1.82363e-17
5867.46705 1.85061e-17
5870.13210 1.85754e-17
5872.78713 1.85116e-17
5875.45219 1.78813e-17
5878.10722 1.81123e-17
5880.77228 1.86125e-17
5883.42731 1.80292e-17
5886.08235 1.79397e-17
5888.74740 1.78645e-17
5891.40244 1.70928e-17
5894.06749 1.63390e-17
5896.72253 1.49575e-17
5899.37756 1.49820e-17
5902.04262 1.56599e-17
5904.69765 1.56498e-17
5907.36270 1.61206e-17
5910.01774 1.63257e-17
5912.68279 1.67237e-17
5915.33783 1.70817e-17
5917.99286 1.66417e-17
5920.65792 1.66733e-17
5923.31295 1.66067e-17
5925.97801 1.70097e-17
5928.63304 1.71908e-17
5931.28808 1.70655e-17
5933.95313 1.64678e-17
5936.60817 1.61685e-17
5939.27322 1.62089e-17
5941.92825 1.59090e-17
5944.59331 1.57239e-17
5947.24834 1.55799e-17
5949.90338 1.57722e-17
5952.56843 1.64917e-17
5955.22347 1.56715e-17
5957.88852 1.49989e-17
5960.54356 1.51783e-17
5963.20861 1.51093e-17
5965.86365 1.49430e-17
5968.51868 1.50155e-17
5971.18373 1.44722e-17
5973.83877 1.47035e-17
5976.50382 1.48565e-17
5979.15886 1.47110e-17
5981.81389 1.40969e-17
5984.47895 1.42470e-17
5987.13398 1.41583e-17
5989.79904 1.37140e-17
5992.45407 1.32903e-17
5995.11913 1.36656e-17
5997.77416 1.37140e-17
6000.42920 1.30507e-17
6003.09425 1.25611e-17
6005.74928 1.21809e-17
6008.41434 1.21623e-17
6011.06937 1.25727e-17
6013.72441 1.25993e-17
6016.38946 1.25521e-17
6019.04450 1.26015e-17
6021.70955 1.25080e-17
6024.36459 1.25828e-17
6027.02964 1.21324e-17
6029.68468 1.19965e-17
6032.33971 1.23620e-17
6035.00476 1.22597e-17
6037.65980 1.23188e-17
6040.32485 1.18509e-17
6042.97989 1.10992e-17
6045.64494 1.13504e-17
6048.29998 1.15852e-17
6050.95501 1.13637e-17
6053.62007 1.14369e-17
6056.27510 1.12553e-17
6058.94016 1.09799e-17
6061.59519 1.10701e-17
6064.25022 1.06439e-17
6066.91528 1.04316e-17
6069.57031 1.02656e-17
6072.23537 1.06936e-17
6074.89040 1.08491e-17
6077.55546 1.08875e-17
6080.21049 1.03622e-17
6082.86553 1.06901e-17
6085.53058 1.09986e-17
6088.18562 1.03442e-17
6090.85067 1.13472e-17
6093.50570 1.12583e-17
6096.16074 1.10693e-17
6098.82579 1.13335e-17
6101.48083 1.15206e-17
6104.14588 1.07419e-17
6106.80092 1.05126e-17
6109.46597 1.10750e-17
6112.12101 1.07983e-17
6114.77604 1.09548e-17
6117.44110 1.11260e-17
6120.09613 1.14474e-17
6122.76118 1.15948e-17
6125.41622 1.12560e-17
6128.08127 1.12245e-17
6130.73631 1.18361e-17
6133.39134 1.06159e-17
6136.05640 1.05361e-17
6138.71143 1.13827e-17
6141.37649 1.09006e-17
6144.03152 1.02782e-17
6146.69658 1.04123e-17
6149.35161 1.04040e-17
6152.00665 1.02185e-17
6154.67170 1.03482e-17
6157.32673 1.04372e-17
6159.99179 1.06721e-17
6162.64682 1.03990e-17
6165.30186 1.04178e-17
6167.96691 1.04292e-17
6170.62195 1.01082e-17
6173.28700 1.00836e-17
6175.94204 9.98595e-18
6178.60709 1.00142e-17
6181.26213 1.05441e-17
6183.91716 1.05407e-17
6186.58222 1.04519e-17
6189.23725 1.03363e-17
6191.90230 9.73392e-18
6194.55734 9.57263e-18
6197.22239 9.90010e-18
6199.87743 1.01194e-17
6202.53246 1.01620e-17
6205.19752 1.02316e-17
6207.85255 1.05651e-17
6210.51761 1.03639e-17
6213.17264 9.50111e-18
6215.82768 9.50894e-18
6218.49273 9.58580e-18
6221.14777 9.97250e-18
6223.81282 9.83382e-18
6226.46785 9.85649e-18
6229.13291 9.39030e-18
6231.78794 9.23249e-18
6234.44298 1.00148e-17
6237.10803 1.00010e-17
6239.76307 9.62090e-18
6242.42812 9.76722e-18
6245.08316 9.50402e-18
6247.73819 9.08661e-18
6250.40325 8.37623e-18
6253.05828 8.34110e-18
6255.72333 8.58329e-18
6258.37837 9.13517e-18
6261.04342 8.68811e-18
6263.69846 8.03357e-18
6266.35349 8.11976e-18
6269.01855 8.08288e-18
6271.67358 7.77047e-18
6274.33864 7.55048e-18
6276.99367 7.21420e-18
6279.65873 7.19231e-18
6282.31376 7.32214e-18
6284.96880 6.95910e-18
6287.63385 7.06954e-18
6290.28888 7.02716e-18
6292.95394 7.01679e-18
6295.60897 7.52278e-18
6298.26401 7.78084e-18
6300.92906 7.54675e-18
6303.58410 7.69634e-18
6306.24915 8.18446e-18
6308.90419 7.99466e-18
6311.56924 7.10361e-18
6314.22428 7.25307e-18
6316.87931 7.66442e-18
6319.54436 8.06675e-18
6322.19940 8.03479e-18
6324.86445 8.05891e-18
6327.51949 8.00664e-18
6330.17452 7.92610e-18
6332.83958 8.19177e-18
6335.49461 8.29657e-18
6338.15967 8.78182e-18
6340.81470 9.40235e-18
6343.47976 9.21706e-18
6346.13479 8.80816e-18
6348.78982 8.48913e-18
6351.45488 8.52124e-18
6354.10991 9.69504e-18
6356.77497 9.72608e-18
6359.43000 9.55046e-18
6362.09506 9.36293e-18
6364.75009 9.31016e-18
6367.40513 9.68318e-18
6370.07018 9.29958e-18
6372.72522 9.96270e-18
6375.39027 1.07997e-17
6378.04530 1.04349e-17
6380.70034 9.85574e-18
6383.36539 1.03435e-17
6386.02043 1.03896e-17
6388.68548 9.85744e-18
6391.34052 1.08616e-17
6394.00557 1.16476e-17
6396.66061 1.13019e-17
6399.31564 1.07491e-17
6401.98070 1.09828e-17
6404.63573 1.00694e-17
6407.30078 9.99427e-18
6409.95582 1.03295e-17
6412.62087 1.05023e-17
6415.27591 1.07633e-17
6417.93094 1.01044e-17
6420.59600 1.04100e-17
6423.25103 9.95547e-18
6425.91609 9.85281e-18
6428.57112 1.02557e-17
6431.22616 1.05564e-17
6433.89121 1.08391e-17
6436.54625 1.06593e-17
6439.21130 1.06634e-17
6441.86633 1.08754e-17
6444.53139 1.09547e-17
6447.18642 1.06136e-17
6449.84146 1.07382e-17
6452.50651 1.12480e-17
6455.16155 1.12290e-17
6457.82660 1.15654e-17
6460.48164 1.09488e-17
6463.14669 1.08294e-17
6465.80173 1.12526e-17
6468.45676 1.06957e-17
6471.12182 1.02431e-17
6473.77685 9.45576e-18
6476.44190 9.43341e-18
6479.09694 9.32988e-18
6481.75197 9.28888e-18
6484.41703 8.90013e-18
6487.07206 8.66369e-18
6489.73712 8.05405e-18
6492.39215 7.51583e-18
6495.05721 7.16159e-18
6497.71224 7.91450e-18
6500.36728 7.70411e-18
6503.03233 6.86445e-18
6505.68737 6.51742e-18
6508.35242 6.02599e-18
6511.00745 5.76460e-18
6513.67251 5.31607e-18
6516.32754 5.03804e-18
6518.98258 5.32581e-18
6521.64763 5.17040e-18
6524.30267 4.20666e-18
6526.96772 3.99541e-18
6529.62276 4.68149e-18
6532.27779 4.79243e-18
6534.94285 4.19223e-18
6537.59788 4.16522e-18
6540.26293 4.35668e-18
6542.91797 4.78676e-18
6545.58302 5.03830e-18
6548.23806 5.28978e-18
6550.89309 5.54134e-18
6553.55815 5.79284e-18
6556.21318 6.04429e-18
6558.87824 6.29577e-18
6561.53327 6.54724e-18
6564.18831 6.79865e-18
6566.85336 7.05010e-18
6569.50839 7.30158e-18
6572.17345 7.55296e-18
6574.82848 7.80437e-18
6577.49354 8.05577e-18
6580.14857 8.30712e-18
6582.80361 8.55850e-18
6585.46866 8.80987e-18
6588.12370 9.06118e-18
6590.78875 9.31257e-18
6593.44379 9.56391e-18
6596.10884 9.81519e-18
6598.76387 1.00665e-17
6601.41891 1.03178e-17
6604.08396 1.05691e-17
6606.73900 1.08203e-17
6609.40405 1.16781e-17
6612.05909 1.17332e-17
6614.71412 1.16274e-17
6617.37918 1.13864e-17
6620.03421 1.13544e-17
6622.69927 1.19781e-17
6625.35430 1.28602e-17
6628.01935 1.30125e-17
6630.67439 1.28627e-17
6633.32942 1.24513e-17
6635.99448 1.29387e-17
6638.64951 1.35973e-17
6641.31457 1.34422e-17
6643.96960 1.37731e-17
6646.62464 1.49068e-17
6649.28969 1.44596e-17
6651.94473 1.53867e-17
6654.60978 1.52369e-17
6657.26482 1.44195e-17
6659.92987 1.50062e-17
6662.58490 1.47695e-17
6665.23994 1.43817e-17
6667.90499 1.49380e-17
6670.56003 1.47997e-17
6673.22508 1.40874e-17
6675.88012 1.41651e-17
6678.54517 1.49731e-17
6681.20021 1.53161e-17
6683.85524 1.49129e-17
6686.52030 1.49066e-17
6689.17533 1.45944e-17
6691.84038 1.42387e-17
6694.49542 1.41422e-17
6697.16047 1.42739e-17
6699.81551 1.48139e-17
6702.47054 1.43699e-17
6705.13560 1.37286e-17
6707.79063 1.40352e-17
6710.45569 1.44270e-17
6713.11072 1.40217e-17
6715.76576 1.31523e-17
6718.43081 1.28350e-17
6721.08585 1.32176e-17
6723.75090 1.35321e-17
6726.40593 1.31715e-17
6729.07099 1.33281e-17
6731.72602 1.27487e-17
6734.38106 1.18415e-17
6737.04611 1.27148e-17
6739.70115 1.32072e-17
6742.36620 1.27929e-17
6745.02124 1.25932e-17
6747.68629 1.16985e-17
6750.34133 1.16415e-17
6752.99636 1.27376e-17
6755.66142 1.34539e-17
6758.31645 1.22588e-17
6760.98150 1.20743e-17
6763.63654 1.21110e-17
6766.29157 1.18937e-17
6768.95663 1.15039e-17
6771.61166 1.14354e-17
6774.27672 1.17069e-17
6776.93175 1.15172e-17
6779.59681 1.14610e-17
6782.25184 1.12659e-17
6784.90688 1.10791e-17
6787.57193 1.11859e-17
6790.22697 1.05534e-17
6792.89202 1.04939e-17
6795.54705 9.64612e-18
6798.20209 1.00292e-17
6800.86714 1.14107e-17
6803.52218 1.12540e-17
6806.18723 1.01811e-17
6808.84227 1.06725e-17
6811.50732 1.03212e-17
6814.16236 1.00754e-17
6816.81739 1.06124e-17
6819.48245 9.99032e-18
6822.13748 9.08700e-18
6824.80253 9.08791e-18
6827.45757 9.01167e-18
6830.12262 9.10015e-18
6832.77766 9.65553e-18
6835.43269 9.68457e-18
6838.09775 9.08127e-18
6840.75278 9.06808e-18
6843.41784 9.33957e-18
6846.07287 9.13955e-18
6848.72791 8.44284e-18
6851.39296 8.54133e-18
6854.04799 8.85406e-18
6856.71305 8.76626e-18
6859.36808 7.99051e-18
6862.03314 7.70518e-18
6864.68817 7.63556e-18
6867.34321 7.67464e-18
6870.00826 8.19470e-18
6872.66330 8.57656e-18
6875.32835 7.08809e-18
6877.98339 6.27474e-18
6880.63842 5.96158e-18
6883.30347 6.14323e-18
6885.95851 6.59443e-18
6888.62356 5.82994e-18
6891.27860 5.36314e-18
6893.94365 5.36134e-18
6896.59869 5.28000e-18
6899.25372 5.24239e-18
6901.91878 4.88534e-18
6904.57381 4.97062e-18
6907.23887 5.14577e-18
6909.89390 4.67379e-18
6912.55895 4.57891e-18
6915.21399 4.83356e-18
6917.86902 5.14044e-18
6920.53408 5.44219e-18
6923.18911 5.67390e-18
6925.85417 5.50371e-18
6928.50920 5.90821e-18
6931.16424 6.64763e-18
6933.82929 6.16516e-18
6936.48433 6.57334e-18
6939.14938 7.42350e-18
6941.80442 7.55935e-18
6944.46947 7.73920e-18
6947.12450 7.91302e-18
6949.77954 8.73479e-18
6952.44459 9.26175e-18
6955.09963 9.06556e-18
6957.76468 9.30399e-18
6960.41972 1.04329e-17
6963.08477 1.06998e-17
6965.73981 1.09396e-17
6968.39484 1.15540e-17
6971.05990 1.15905e-17
6973.71493 1.15628e-17
6976.37998 1.18643e-17
6979.03502 1.20924e-17
6981.69006 1.23551e-17
6984.35511 1.24222e-17
6987.01014 1.28588e-17
6989.67520 1.37014e-17
6992.33023 1.42640e-17
6994.99529 1.38086e-17
6997.65032 1.36131e-17
7000.30536 1.46501e-17
7002.97041 1.43377e-17
7005.62545 1.36520e-17
7008.29050 1.38466e-17
7010.94553 1.42797e-17
7013.61059 1.47690e-17
7016.26562 1.49782e-17
7018.92066 1.54812e-17
7021.58571 1.59293e-17
7024.24075 1.57795e-17
7026.90580 1.64699e-17
7029.56084 1.71468e-17
7032.21587 1.67496e-17
7034.88093 1.72254e-17
7037.53596 1.69206e-17
7040.20102 1.68941e-17
7042.85605 1.80281e-17
7045.52110 1.82940e-17
7048.17614 1.74931e-17
7050.83117 1.71228e-17
7053.49623 1.80602e-17
7056.15126 1.81980e-17
7058.81632 1.78186e-17
7061.47135 1.79527e-17
7064.13641 1.68664e-17
7066.79144 1.66031e-17
7069.44648 1.71261e-17
7072.11153 1.65353e-17
7074.76657 1.58810e-17
7077.43162 1.57976e-17
7080.08665 1.69562e-17
7082.74169 1.64510e-17
7085.40674 1.61579e-17
7088.06178 1.63374e-17
7090.72683 1.67894e-17
7093.38187 1.56062e-17
7096.04692 1.54402e-17
7098.70196 1.61151e-17
7101.35699 1.53833e-17
7104.02205 1.45517e-17
7106.67708 1.43874e-17
7109.34213 1.45508e-17
7111.99717 1.35850e-17
7114.66222 1.32741e-17
7117.31726 1.32455e-17
7119.97229 1.28809e-17
7122.63735 1.19322e-17
7125.29238 1.20678e-17
7127.95744 1.19424e-17
7130.61247 1.17104e-17
7133.26751 1.18723e-17
7135.93256 1.20365e-17
7138.58759 1.16039e-17
7141.25265 1.15319e-17
7143.90768 1.15908e-17
7146.57274 1.15588e-17
7149.22777 1.12279e-17
7151.88281 1.07907e-17
7154.54786 1.07968e-17
7157.20290 1.14847e-17
7159.86795 1.16290e-17
7162.52299 1.16219e-17
7165.17802 1.11102e-17
7167.84307 1.13971e-17
7170.49811 1.16099e-17
7173.16316 1.12903e-17
7175.81820 1.16257e-17
7178.48325 1.15555e-17
7181.13829 1.12262e-17
7183.79332 1.08958e-17
7186.45838 1.13946e-17
7189.11341 1.13912e-17
7191.77847 1.15924e-17
7194.43350 1.16703e-17
7197.08854 1.17733e-17
7199.75359 1.19978e-17
7202.40863 1.24470e-17
7205.07368 1.22519e-17
7207.72871 1.20255e-17
7210.39377 1.20217e-17
7213.04880 1.19658e-17
7215.70384 1.24179e-17
7218.36889 1.26414e-17
7221.02393 1.32868e-17
7223.68898 1.39507e-17
7226.34402 1.31045e-17
7229.00907 1.27465e-17
7231.66410 1.25702e-17
7234.31914 1.35874e-17
7236.98419 1.37061e-17
7239.63923 1.33003e-17
7242.30428 1.30737e-17
7244.95932 1.31402e-17
7247.62437 1.32936e-17
7250.27941 1.37640e-17
7252.93444 1.42405e-17
7255.59950 1.32901e-17
7258.25453 1.31712e-17
7260.91958 1.36740e-17
7263.57462 1.44488e-17
7266.22966 1.44736e-17
7268.89471 1.40827e-17
7271.54974 1.39155e-17
7274.21480 1.45757e-17
7276.86983 1.45480e-17
7279.53489 1.33725e-17
7282.18992 1.38536e-17
7284.84496 1.51127e-17
7287.51001 1.50690e-17
7290.16505 1.44860e-17
7292.83010 1.36054e-17
7295.48513 1.36125e-17
7298.15019 1.39489e-17
7300.80522 1.39475e-17
7303.46026 1.41542e-17
7306.12531 1.42570e-17
7308.78035 1.38917e-17
7311.44540 1.36445e-17
7314.10044 1.38232e-17
7316.75547 1.41690e-17
7319.42053 1.40331e-17
7322.07556 1.35212e-17
7324.74062 1.33445e-17
7327.39565 1.32396e-17
7330.06070 1.40358e-17
7332.71574 1.41912e-17
7335.37077 1.36892e-17
7338.03583 1.36973e-17
7340.69086 1.38961e-17
7343.35592 1.34725e-17
7346.01095 1.38398e-17
7348.66599 1.41188e-17
7351.33104 1.31675e-17
7353.98608 1.27201e-17
7356.65113 1.28081e-17
7359.30617 1.28708e-17
7361.97122 1.25735e-17
7364.62625 1.23723e-17
7367.28129 1.18944e-17
7369.94634 1.14718e-17
7372.60138 1.15994e-17
7375.26643 1.20380e-17
7377.92147 1.16758e-17
7380.58652 1.11876e-17
7383.24156 1.14110e-17
7385.89659 1.22298e-17
7388.56165 1.17007e-17
7391.21668 1.19451e-17
7393.88173 1.21152e-17
7396.53677 1.20809e-17
7399.19180 1.16601e-17
7401.85686 1.09752e-17
7404.51189 1.14422e-17
7407.17695 1.23006e-17
7409.83198 1.21910e-17
7412.49704 1.16926e-17
7415.15207 1.14994e-17
7417.80711 1.13752e-17
7420.47216 1.12943e-17
7423.12720 1.13589e-17
7425.79225 1.08800e-17
7428.44728 1.12039e-17
7431.11234 1.11470e-17
7433.76737 1.05051e-17
7436.42241 1.12768e-17
7439.08746 1.17380e-17
7441.74250 1.09215e-17
7444.40755 1.07327e-17
7447.06259 1.06270e-17
7449.71762 1.07193e-17
7452.38267 1.16797e-17
7455.03771 1.17029e-17
7457.70276 1.11263e-17
7460.35780 1.11567e-17
7463.02285 1.10211e-17
7465.67789 1.10651e-17
7468.33292 1.12854e-17
7470.99798 1.15681e-17
7473.65301 1.15300e-17
7476.31807 1.12018e-17
7478.97310 1.13194e-17
7481.62814 1.13121e-17
7484.29319 1.08992e-17
7486.94823 1.03117e-17
7489.61328 1.09000e-17
7492.26831 1.15979e-17
7494.93337 1.17087e-17
7497.58840 1.14432e-17
7500.24344 1.09894e-17
7502.90849 1.08836e-17
7505.56353 1.00881e-17
7508.22858 1.03063e-17
7510.88362 1.06886e-17
7513.53865 1.09584e-17
7516.20370 1.12768e-17
7518.85874 1.08578e-17
7521.52379 1.05223e-17
7524.17883 1.09089e-17
7526.84388 1.09568e-17
7529.49892 1.03977e-17
7532.15395 1.05132e-17
7534.81901 9.88058e-18
7537.47404 9.91653e-18
7540.13910 1.09694e-17
7542.79413 1.10885e-17
7545.45918 1.13006e-17
7548.11422 1.05805e-17
7550.76926 9.75674e-18
7553.43431 9.82890e-18
7556.08934 9.90482e-18
7558.75440 1.06624e-17
7561.40943 1.06819e-17
7564.07449 1.04416e-17
7566.72952 9.48970e-18
7569.38456 9.94932e-18
7572.04961 9.18616e-18
7574.70465 8.78520e-18
7577.36970 9.70897e-18
7580.02473 9.96239e-18
7582.67977 9.79807e-18
7585.34482 1.07426e-17
7587.99986 1.07017e-17
7590.66491 1.04727e-17
7593.31995 1.02429e-17
7595.98500 8.74146e-18
7598.64004 9.37456e-18
7601.29507 1.05832e-17
7603.96013 9.22857e-18
7606.61516 7.99922e-18
7609.28022 7.97214e-18
7611.93525 9.06754e-18
7614.60030 1.02036e-17
7617.25534 9.64582e-18
7619.91037 9.18896e-18
7622.57543 9.72679e-18
7625.23046 9.33412e-18
7627.89552 8.68107e-18
7630.55055 8.84901e-18
7633.20559 9.16163e-18
7635.87064 9.37920e-18
7638.52568 1.00907e-17
7641.19073 1.10066e-17
7643.84577 1.10903e-17
7646.51082 1.06015e-17
7649.16585 1.00470e-17
7651.82089 9.91351e-18
7654.48594 9.91407e-18
7657.14098 9.75604e-18
7659.80603 9.89793e-18
7662.46107 9.81517e-18
7665.11610 9.39821e-18
7667.78116 9.84227e-18
7670.43619 1.02809e-17
7673.10124 1.02223e-17
7675.75628 1.05666e-17
7678.42133 1.09680e-17
7681.07637 1.07342e-17
7683.73140 1.00708e-17
7686.39646 1.01626e-17
7689.05149 1.05235e-17
7691.71655 1.03183e-17
7694.37158 1.06176e-17
7697.03664 1.10814e-17
7699.69167 1.08610e-17
7702.34671 1.06983e-17
7705.01176 1.09651e-17
7707.66680 1.12481e-17
7710.33185 1.06742e-17
7712.98688 1.01568e-17
7715.64192 1.03845e-17
7718.30697 1.04753e-17
7720.96201 1.07844e-17
7723.62706 1.03256e-17
7726.28210 1.04399e-17
7728.94715 1.07521e-17
7731.60219 1.04666e-17
7734.25722 9.96083e-18
7736.92227 1.05051e-17
7739.57731 1.09548e-17
7742.24236 1.06227e-17
7744.89740 1.11193e-17
7747.56245 1.10971e-17
7750.21749 1.11330e-17
7752.87252 1.14924e-17
7755.53758 1.23207e-17
7758.19261 1.20255e-17
7760.85767 1.14199e-17
7763.51270 1.19260e-17
7766.16774 1.23664e-17
7768.83279 1.26544e-17
7771.48783 1.21760e-17
7774.15288 1.20147e-17
7776.80791 1.18847e-17
7779.47297 1.21154e-17
7782.12800 1.19763e-17
7784.78304 1.15485e-17
7787.44809 1.17077e-17
7790.10313 1.19228e-17
7792.76818 1.17457e-17
7795.42322 1.13470e-17
7798.07825 1.18994e-17
7800.74330 1.22363e-17
7803.39834 1.17065e-17
7806.06339 1.19604e-17
7808.71843 1.20556e-17
7811.38348 1.24011e-17
7814.03852 1.26627e-17
7816.69355 1.19542e-17
7819.35861 1.15701e-17
7822.01364 1.12392e-17
7824.67870 1.12267e-17
7827.33373 1.17501e-17
7829.99878 1.15934e-17
7832.65382 1.14177e-17
7835.30886 1.13335e-17
7837.97391 1.07493e-17
7840.62894 1.02515e-17
7843.29400 1.04727e-17
7845.94903 1.08220e-17
7848.60407 1.09122e-17
7851.26912 1.11551e-17
7853.92416 1.09476e-17
7856.58921 1.04743e-17
7859.24425 1.08197e-17
7861.90930 1.11736e-17
7864.56434 1.09756e-17
7867.21937 1.11172e-17
7869.88442 1.07241e-17
7872.53946 1.04136e-17
7875.20451 1.07229e-17
7877.85955 1.08092e-17
7880.52460 1.04197e-17
7883.17964 1.04132e-17
7885.83467 1.06778e-17
7888.49973 1.10134e-17
7891.15476 1.14891e-17
7893.81982 1.12936e-17
7896.47485 1.02385e-17
7899.12988 9.34954e-18
7901.79494 9.43420e-18
7904.44997 1.02265e-17
7907.11503 1.06232e-17
7909.77006 1.07949e-17
7912.43512 1.03171e-17
7915.09015 1.01622e-17
7917.74519 1.04801e-17
7920.41024 1.08016e-17
7923.06528 1.04437e-17
7925.73033 1.01341e-17
7928.38537 9.54969e-18
7931.05042 9.95104e-18
7933.70545 1.06014e-17
7936.36049 1.09011e-17
7939.02554 1.07122e-17
7941.68058 1.06247e-17
7944.34563 1.03818e-17
7947.00067 1.02276e-17
7949.65570 9.66174e-18
7952.32076 9.10301e-18
7954.97579 9.47016e-18
7957.64084 9.74163e-18
7960.29588 9.89149e-18
7962.96093 9.80036e-18
7965.61597 9.18108e-18
7968.27100 9.51798e-18
7970.93606 1.00986e-17
7973.59109 9.63006e-18
7976.25615 9.48616e-18
7978.91118 9.95867e-18
7981.57624 9.95038e-18
7984.23127 9.75708e-18
7986.88631 9.59569e-18
7989.55136 9.04553e-18
7992.20640 9.23388e-18
7994.87145 1.00150e-17
7997.52648 1.03184e-17
8000.18152 9.87285e-18
8002.84657 9.33122e-18
8005.50161 9.69216e-18
8008.16666 1.00300e-17
8010.82170 1.00750e-17
8013.48675 9.76663e-18
8016.14179 9.56955e-18
8018.79682 9.36070e-18
8021.46187 9.22953e-18
8024.11691 9.42170e-18
8026.78196 9.84246e-18
8029.43700 9.79315e-18
8032.09203 1.01645e-17
8034.75709 9.83558e-18
8037.41212 9.55298e-18
8040.07718 9.56414e-18
8042.73221 9.05255e-18
8045.39727 9.32244e-18
8048.05230 1.03452e-17
8050.70734 1.07428e-17
8053.37239 1.07828e-17
8056.02743 1.01614e-17
8058.69248 9.52101e-18
8061.34751 9.02845e-18
8064.01257 8.91989e-18
8066.66760 9.10403e-18
8069.32264 8.48505e-18
8071.98769 8.94713e-18
8074.64273 1.04297e-17
8077.30778 1.07156e-17
8079.96282 1.02220e-17
8082.61785 9.56446e-18
8085.28291 8.90650e-18
8087.93794 8.59058e-18
8090.60299 8.90451e-18
8093.25803 9.49330e-18
8095.92308 9.51526e-18
8098.57812 9.10560e-18
8101.23315 8.76032e-18
8103.89821 8.50475e-18
8106.55324 8.82425e-18
8109.21830 9.62170e-18
8111.87333 9.39397e-18
8114.53838 8.74516e-18
8117.19342 8.70961e-18
8119.84846 8.66760e-18
8122.51351 8.95597e-18
8125.16854 9.36511e-18
8127.83360 9.81763e-18
8130.48863 1.03413e-17
8133.14367 9.75153e-18
8135.80872 8.60879e-18
8138.46376 8.34184e-18
8141.12881 8.47404e-18
8143.78385 8.12003e-18
8146.44890 7.74929e-18
8149.10394 8.25986e-18
8151.75897 8.93667e-18
8154.42402 8.81226e-18
8157.07906 8.24214e-18
8159.74411 7.64968e-18
8162.39915 7.32521e-18
8165.06420 7.84866e-18
8167.71924 8.14146e-18
8170.37427 8.20471e-18
8173.03933 8.69560e-18
8175.69436 8.29402e-18
8178.35942 7.62794e-18
8181.01445 7.31882e-18
8183.66948 7.52270e-18
8186.33454 8.61377e-18
8188.98957 9.29853e-18
8191.65463 9.30702e-18
8194.30966 8.75087e-18
8196.97472 8.20214e-18
8199.62975 7.99250e-18
8202.28479 8.50975e-18
8204.94984 9.34719e-18
8207.60488 1.03265e-17
8210.26993 1.05461e-17
8212.92497 9.76182e-18
8215.58000 8.97546e-18
8218.24505 7.96817e-18
8220.90009 8.28341e-18
8223.56514 8.68847e-18
8226.22018 8.63162e-18
8228.88523 8.77146e-18
8231.54027 8.82084e-18
8234.19530 8.34308e-18
8236.86036 8.11959e-18
8239.51539 8.76141e-18
8242.18044 9.64841e-18
8244.83548 9.80070e-18
8247.49052 9.79671e-18
8250.15557 1.04119e-17
8252.81060 1.07584e-17
8255.47566 1.00387e-17
8258.13069 9.31528e-18
8260.79575 8.92823e-18
8263.45078 8.82175e-18
8266.10582 8.96722e-18
8268.77087 9.42489e-18
8271.42591 9.61367e-18
8274.09096 9.31615e-18
8276.74599 8.66283e-18
8279.41105 7.53969e-18
8282.06608 7.17638e-18
8284.72112 7.58315e-18
8287.38617 8.49772e-18
8290.04121 9.45465e-18
8292.70626 9.26695e-18
8295.36130 7.98392e-18
8298.02635 7.01985e-18
8300.68139 7.14171e-18
8303.33642 7.67640e-18
8306.00148 8.56933e-18
8308.65651 9.50576e-18
8311.32156 1.01070e-17
8313.97660 9.72266e-18
8316.63163 8.74998e-18
8319.29669 8.28774e-18
8321.95172 7.77056e-18
8324.61678 7.10874e-18
8327.27181 6.76055e-18
8329.92685 6.85197e-18
8332.59190 6.88809e-18
8335.24694 7.40474e-18
8337.91199 7.47064e-18
8340.56703 7.16314e-18
8343.23208 7.04088e-18
8345.88711 5.98323e-18
8348.54215 5.33223e-18
8351.20720 6.00050e-18
8353.86224 6.33135e-18
8356.52729 5.91221e-18
8359.18233 5.03694e-18
8361.84738 4.01315e-18
8364.50242 3.83222e-18
8367.15745 4.98210e-18
8369.82251 6.70766e-18
8372.47754 7.74157e-18
8375.14259 7.32261e-18
8377.79763 5.48700e-18
8380.46268 3.33066e-18
8383.11772 2.73396e-18
8385.77275 3.11509e-18
8388.43781 4.11630e-18
8391.09284 5.99827e-18
8393.75790 6.67018e-18
8396.41293 6.90385e-18
8399.06797 6.46243e-18
8401.73302 6.03071e-18
8404.38806 5.58554e-18
8407.05311 5.16384e-18
8409.70814 5.64626e-18
8412.37320 6.26062e-18
8415.02823 6.23601e-18
8417.68327 6.50141e-18
8420.34832 8.21133e-18
8423.00336 9.69446e-18
8425.66841 9.78501e-18
8428.32345 9.69578e-18
8430.98850 9.17115e-18
8433.64353 8.50262e-18
8436.29857 8.63109e-18
8438.96362 9.28582e-18
8441.61866 1.05246e-17
8444.28371 1.11507e-17
8446.93875 1.09981e-17
8449.59378 1.11391e-17
8452.25884 1.07868e-17
8454.91387 1.05047e-17
8457.57893 1.09352e-17
8460.23396 1.16092e-17
8462.89902 1.22175e-17
8465.55405 1.23094e-17
8468.20909 1.12234e-17
8470.87414 1.04590e-17
8473.52917 1.10501e-17
8476.19423 1.18651e-17
8478.84926 1.25174e-17
8481.50430 1.32357e-17
8484.16935 1.33273e-17
8486.82439 1.26136e-17
8489.48944 1.17262e-17
8492.14448 1.07684e-17
8494.80953 9.17361e-18
8497.46457 8.23760e-18
8500.11960 9.64545e-18
8502.78465 1.19889e-17
8505.43969 1.37684e-17
8508.10474 1.40097e-17
8510.75978 1.22387e-17
8513.42483 9.64249e-18
8516.07987 7.63464e-18
8518.73490 7.00036e-18
8521.39996 7.82507e-18
8524.05499 9.22733e-18
8526.72005 1.03357e-17
8529.37508 1.12101e-17
8532.04013 1.21839e-17
8534.69517 1.34445e-17
8537.35020 1.38118e-17
8540.01526 1.34527e-17
8542.67029 1.30017e-17
8545.33535 1.19879e-17
8547.99038 1.10225e-17
8550.64542 1.12617e-17
8553.31047 1.20246e-17
8555.96551 1.39615e-17
8558.63056 1.60117e-17
8561.28559 1.61119e-17
8563.95065 1.53129e-17
8566.60568 1.37249e-17
8569.26072 1.28066e-17
8571.92577 1.31535e-17
8574.58081 1.41375e-17
8577.24586 1.54378e-17
8579.90090 1.63255e-17
8582.56595 1.59054e-17
8585.22099 1.47831e-17
8587.87602 1.42740e-17
8590.54108 1.47990e-17
8593.19611 1.59521e-17
8595.86116 1.70567e-17
8598.51620 1.79518e-17
8601.17123 1.81532e-17
8603.83629 1.74410e-17
8606.49132 1.67723e-17
8609.15638 1.64782e-17
8611.81141 1.58810e-17
8614.47647 1.58538e-17
8617.13150 1.64768e-17
8619.78654 1.72294e-17
8622.45159 1.90666e-17
8625.10663 2.10414e-17
8627.77168 2.13368e-17
8630.42671 2.01024e-17
8633.08175 1.73705e-17
8635.74680 1.59311e-17
8638.40184 1.69991e-17
8641.06689 1.81833e-17
8643.72193 1.96585e-17
8646.38698 2.19360e-17
8649.04202 2.24873e-17
8651.69705 1.98581e-17
8654.36211 1.73731e-17
8657.01714 1.71976e-17
8659.68219 1.78160e-17
8662.33723 1.95671e-17
8665.00228 2.14345e-17
8667.65732 2.14129e-17
8670.31235 2.03576e-17
8672.97741 1.84885e-17
8675.63244 1.67005e-17
8678.29750 1.65106e-17
8680.95253 1.75842e-17
8683.60757 1.90129e-17
8686.27262 2.06583e-17
8688.92766 2.14547e-17
8691.59271 2.03088e-17
8694.24774 1.72437e-17
8696.91280 1.56772e-17
8699.56783 1.57721e-17
8702.22287 1.62663e-17
8704.88792 1.77105e-17
8707.54296 1.89970e-17
8710.20801 1.93240e-17
8712.86305 1.88547e-17
8715.52810 1.81599e-17
8718.18313 1.74755e-17
8720.83817 1.66072e-17
8723.50322 1.58274e-17
8726.15826 1.54416e-17
8728.82331 1.57444e-17
8731.47835 1.63714e-17
8734.13338 1.71313e-17
8736.79844 1.86139e-17
8739.45347 1.94127e-17
8742.11853 1.88236e-17
8744.77356 1.74975e-17
8747.43862 1.50691e-17
8750.09365 1.32801e-17
8752.74869 1.30620e-17
8755.41374 1.39599e-17
8758.06877 1.60348e-17
8760.73383 1.74767e-17
8763.38886 1.61997e-17
8766.04390 1.34073e-17
8768.70895 1.20229e-17
8771.36399 1.29801e-17
8774.02904 1.49438e-17
8776.68408 1.72522e-17
8779.34913 1.90608e-17
8782.00417 1.90164e-17
8784.65920 1.76667e-17
8787.32425 1.58322e-17
8789.97929 1.43356e-17
8792.64434 1.39615e-17
8795.29938 1.33976e-17
8797.96443 1.22257e-17
8800.61947 1.13630e-17
8803.27450 1.13049e-17
8805.93956 1.23272e-17
8808.59459 1.37311e-17
8811.25965 1.49462e-17
8813.91468 1.54221e-17
8816.56971 1.44795e-17
8819.23477 1.29964e-17
8821.88980 1.18790e-17
8824.55486 1.13004e-17
8827.20989 1.19996e-17
8829.87495 1.31336e-17
8832.52998 1.37050e-17
8835.18502 1.34036e-17
8837.85007 1.26513e-17
8840.50511 1.11053e-17
8843.17016 9.37322e-18
8845.82519 9.23964e-18
8848.49025 1.04122e-17
8851.14528 1.12852e-17
8853.80032 1.21282e-17
8856.46537 1.31344e-17
8859.12041 1.37064e-17
8861.78546 1.39127e-17
8864.44050 1.39219e-17
8867.09553 1.38101e-17
8869.76059 1.22972e-17
8872.41562 1.01550e-17
8875.08067 8.68314e-18
8877.73571 8.08001e-18
8880.39074 8.69019e-18
8883.05580 1.01407e-17
8885.71083 1.27227e-17
8888.37589 1.52082e-17
8891.03092 1.51863e-17
8893.69598 1.24550e-17
8896.35101 9.52999e-18
8899.00605 8.33711e-18
8901.67110 8.86035e-18
8904.32614 1.02692e-17
8906.99119 1.18145e-17
8909.64623 1.29605e-17
8912.31128 1.27189e-17
8914.96631 1.06429e-17
8917.62135 8.60599e-18
8920.28640 8.86659e-18
8922.94144 1.07709e-17
8925.60649 1.30040e-17
8928.26153 1.46228e-17
8930.92658 1.46639e-17
8933.58162 1.33872e-17
8936.23665 1.08968e-17
8938.90171 8.89592e-18
8941.55674 7.50944e-18
8944.22179 7.33811e-18
8946.87683 8.82162e-18
8949.53186 9.61992e-18
8952.19692 9.66274e-18
8954.85195 9.66174e-18
8957.51701 9.45232e-18
8960.17204 9.85472e-18
8962.83710 1.12238e-17
8965.49213 1.17693e-17
8968.14717 1.05488e-17
8970.81222 8.51559e-18
8973.46726 6.90983e-18
8976.13231 6.37852e-18
8978.78734 6.78993e-18
8981.45240 7.83578e-18
8984.10743 8.98446e-18
8986.76247 9.57951e-18
8989.42752 9.27593e-18
8992.08256 8.37075e-18
8994.74761 7.36398e-18
8997.40265 6.50139e-18
9000.05768 5.95297e-18
9002.72273 5.42393e-18
9005.37777 4.38975e-18
9008.04282 4.25812e-18
9010.69786 5.28003e-18
9013.36291 6.62405e-18
9016.01795 8.84580e-18
9018.67298 1.00265e-17
9021.33804 8.53565e-18
9023.99307 7.08708e-18
9026.65813 7.44350e-18
9029.31316 8.35831e-18
9031.96820 9.38131e-18
9034.63325 1.01708e-17
9037.28829 1.02935e-17
9039.95334 1.01428e-17
9042.60837 9.45608e-18
9045.27343 8.56040e-18
9047.92846 7.77058e-18
9050.58350 7.22987e-18
9053.24855 7.18039e-18
9055.90359 7.81919e-18
9058.56864 9.68666e-18
9061.22368 1.13373e-17
9063.88873 1.18763e-17
9066.54377 1.12648e-17
9069.19880 9.44199e-18
9071.86385 7.82746e-18
9074.51889 6.92148e-18
9077.18394 6.85918e-18
9079.83898 7.84189e-18
9082.50403 9.09453e-18
9085.15907 1.02486e-17
9087.81410 1.04335e-17
9090.47916 8.92924e-18
9093.13419 7.31517e-18
9095.79925 6.48730e-18
9098.45428 6.93226e-18
9101.10931 8.62171e-18
9103.77437 9.88892e-18
9106.42940 1.08207e-17
9109.09446 1.18033e-17
9111.74949 1.17140e-17
9114.40453 9.81441e-18
9117.06958 7.71619e-18
9119.72462 6.60120e-18
9122.38967 6.51592e-18
9125.04471 7.02939e-18
9127.70976 7.83977e-18
9130.36479 9.54437e-18
9133.02985 1.06243e-17
9135.68488 1.03248e-17
9138.33992 9.70272e-18
9141.00497 8.82668e-18
9143.66001 7.97053e-18
9146.32506 7.13979e-18
9148.98010 6.57626e-18
9151.63513 6.41494e-18
9154.30019 7.28064e-18
9156.95522 9.04908e-18
9159.62027 1.02909e-17
9162.27531 1.11180e-17
9164.94036 9.71754e-18
9167.59540 7.35515e-18
9170.25043 6.24791e-18
9172.91549 6.40014e-18
9175.57052 7.66440e-18
9178.23558 9.53988e-18
9180.89061 1.14771e-17
9183.54565 1.26988e-17
9186.21070 1.18403e-17
9188.86574 9.25162e-18
9191.53079 7.12766e-18
9194.18583 6.86513e-18
9196.85088 8.19459e-18
9199.50591 1.02961e-17
9202.16095 1.22778e-17
9204.82600 1.42111e-17
9207.48104 1.49208e-17
9210.14609 1.32586e-17
9212.80113 1.05844e-17
9215.46618 8.52817e-18
9218.12122 8.31672e-18
9220.77625 9.52357e-18
9223.44131 1.17225e-17
9226.09634 1.37450e-17
9228.76139 1.54656e-17
9231.41643 1.55966e-17
9234.07146 1.37884e-17
9236.73652 1.16367e-17
9239.39155 1.01846e-17
9242.05661 9.79183e-18
9244.71164 1.05340e-17
9247.37670 1.19899e-17
9250.03173 1.38429e-17
9252.68677 1.59029e-17
9255.35182 1.67191e-17
9258.00686 1.52181e-17
9260.67191 1.29379e-17
9263.32694 1.11055e-17
9265.99200 9.95075e-18
9268.64703 1.07889e-17
9271.30207 1.31064e-17
9273.96712 1.50977e-17
9276.62216 1.65946e-17
9279.28721 1.62339e-17
9281.94225 1.30928e-17
9284.60730 9.53889e-18
9287.26233 8.30855e-18
9289.91737 9.05959e-18
9292.58242 1.06014e-17
9295.23746 1.21454e-17
9297.90251 1.32353e-17
9300.55755 1.33455e-17
9303.21258 1.18308e-17
9305.87764 9.37097e-18
9308.53267 7.61881e-18
9311.19773 6.76093e-18
9313.85276 6.18391e-18
9316.50780 6.30901e-18
9319.17285 6.89129e-18
9321.82789 6.88768e-18
9324.49294 6.87430e-18
9327.14797 7.14075e-18
9329.81303 7.67284e-18
9332.46806 8.31835e-18
9335.12310 7.82026e-18
9337.78815 6.56714e-18
9340.44319 4.92412e-18
9343.10824 4.38905e-18
9345.76328 4.95892e-18
9348.42833 5.98144e-18
9351.08337 7.25431e-18
9353.73840 8.16061e-18
9356.40345 8.04194e-18
9359.05849 6.45531e-18
9361.72354 6.09348e-18
9364.37858 7.15044e-18
9367.03361 7.64159e-18
9369.69867 7.61718e-18
9372.35370 7.08244e-18
9375.01876 6.90028e-18
9377.67379 7.18703e-18
9380.33885 6.77469e-18
9382.99388 5.61719e-18
9385.64891 6.23263e-18
9388.31397 9.06099e-18
9390.96900 1.24801e-17
9393.63406 1.42815e-17
9396.28909 1.49838e-17
9398.94413 1.51335e-17
9401.60918 1.38470e-17
9404.26422 1.14767e-17
9406.92927 9.73179e-18
9409.58431 8.77901e-18
9412.24936 8.00101e-18
9414.90439 7.80934e-18
9417.55943 7.83908e-18
9420.22448 8.21230e-18
9422.87952 8.64331e-18
9425.54457 9.47594e-18
9428.19961 1.04599e-17
9430.86466 1.09395e-17
9433.51970 1.11315e-17
9436.17473 1.07595e-17
9438.83979 9.62978e-18
9441.49482 7.70231e-18
9444.15987 6.61650e-18
9446.81491 8.15982e-18
9449.46994 1.09604e-17
9452.13500 1.31767e-17
9454.79003 1.47334e-17
9457.45509 1.45621e-17
9460.11012 1.27118e-17
9462.77518 1.01788e-17
9465.43021 9.08260e-18
9468.08525 1.03513e-17
9470.75030 1.14365e-17
9473.40534 1.31868e-17
9476.07039 1.57087e-17
9478.72543 1.65855e-17
9481.39048 1.62237e-17
9484.04551 1.71192e-17
9486.70055 1.91199e-17
9489.36560 2.00761e-17
9492.02064 1.83601e-17
9494.68569 1.47443e-17
