# wavelength flux
4730.41074 1.11569e-17
4731.59298 1.16850e-17
4732.77522 1.15274e-17
4733.95746 1.09996e-17
4735.13970 1.12774e-17
4736.32195 1.16835e-17
4737.50419 1.14857e-17
4738.67641 1.11094e-17
4739.85865 1.07983e-17
4741.04090 1.07255e-17
4742.22314 1.08868e-17
4743.40538 1.02117e-17
4744.58762 1.06879e-17
4745.76986 1.11665e-17
4746.95211 1.07451e-17
4748.13435 1.09743e-17
4749.31659 1.02142e-17
4750.49883 1.05208e-17
4751.68107 1.07004e-17
4752.86332 1.02588e-17
4754.03554 9.94170e-18
4755.21778 9.99980e-18
4756.40002 9.71450e-18
4757.58226 1.01939e-17
4758.76451 1.01605e-17
4759.94675 9.55226e-18
4761.12899 9.13251e-18
4762.31123 8.54526e-18
4763.49347 9.08062e-18
4764.67572 9.13874e-18
4765.85796 8.93521e-18
4767.04020 8.71759e-18
4768.22244 8.95733e-18
4769.39467 9.18004e-18
4770.57691 8.39216e-18
4771.75915 9.06377e-18
4772.94139 8.72809e-18
4774.12363 9.11300e-18
4775.30588 9.00228e-18
4776.48812 8.79378e-18
4777.67036 8.39685e-18
4778.85260 8.32781e-18
4780.03484 8.20894e-18
4781.21708 7.99892e-18
4782.39933 8.01844e-18
4783.58157 7.53007e-18
4784.75379 8.05899e-18
4785.93603 8.26142e-18
4787.11828 7.80478e-18
4788.30052 7.77373e-18
4789.48276 7.61063e-18
4790.66500 7.48466e-18
4791.84724 7.46440e-18
4793.02949 7.87853e-18
4794.21173 8.23066e-18
4795.39397 7.58012e-18
4796.57621 7.48916e-18
4797.75845 7.74638e-18
4798.93068 8.08937e-18
4800.11292 7.60612e-18
4801.29516 7.45470e-18
4802.47740 7.33315e-18
4803.65965 8.24521e-18
4804.84189 8.04972e-18
4806.02413 7.43017e-18
4807.20637 7.50461e-18
4808.38861 7.81605e-18
4809.57085 7.80791e-18
4810.75310 7.72990e-18
4811.93534 7.65119e-18
4813.11758 6.86345e-18
4814.29982 7.66574e-18
4815.47205 8.12707e-18
4816.65429 8.09286e-18
4817.83653 8.22149e-18
4819.01877 8.16232e-18
4820.20101 8.00252e-18
4821.38326 8.21558e-18
4822.56550 7.83403e-18
4823.74774 7.73723e-18
4824.92998 7.35851e-18
4826.11222 7.78740e-18
4827.29447 8.57879e-18
4828.47671 8.24105e-18
4829.65895 7.61657e-18
4830.83117 7.98959e-18
4832.01342 8.17761e-18
4833.19566 7.78674e-18
4834.37790 8.14675e-18
4835.56014 8.28453e-18
4836.74238 8.22280e-18
4837.92462 8.49426e-18
4839.10687 8.20708e-18
4840.28911 8.01249e-18
4841.47135 8.45981e-18
4842.65359 8.17694e-18
4843.83583 8.09803e-18
4845.00806 7.62494e-18
4846.19030 8.32444e-18
4847.37254 8.29943e-18
4848.55478 8.06524e-18
4849.73703 8.35700e-18
4850.91927 7.90369e-18
4852.10151 7.93820e-18
4853.28375 7.92871e-18
4854.46599 7.91922e-18
4855.64824 7.90973e-18
4856.83048 7.90024e-18
4858.01272 7.89075e-18
4859.19496 7.88127e-18
4860.37720 7.87177e-18
4861.54943 7.86229e-18
4862.73167 7.85280e-18
4863.91391 7.84331e-18
4865.09615 7.83383e-18
4866.27840 7.82434e-18
4867.46064 7.81486e-18
4868.64288 7.80537e-18
4869.82512 7.79589e-18
4871.00736 7.78640e-18
4872.18960 7.77692e-18
4873.37185 7.76744e-18
4874.55409 7.75795e-18
4875.72631 7.74847e-18
4876.90855 7.73899e-18
4878.09080 7.72951e-18
4879.27304 7.72003e-18
4880.45528 7.71055e-18
4881.63752 7.70107e-18
4882.81976 7.69159e-18
4884.00201 7.68211e-18
4885.18425 7.67263e-18
4886.36649 7.66315e-18
4887.54873 7.65367e-18
4888.73097 7.64420e-18
4889.91322 7.38260e-18
4891.08544 7.17834e-18
4892.26768 7.45234e-18
4893.44992 7.61038e-18
4894.63216 7.75455e-18
4895.81441 7.78887e-18
4896.99665 7.65355e-18
4898.17889 7.78150e-18
4899.36113 7.66488e-18
4900.54338 7.75801e-18
4901.72562 8.05449e-18
4902.90786 7.82819e-18
4904.09010 8.33841e-18
4905.27234 8.56930e-18
4906.45458 8.34268e-18
4907.62681 8.95102e-18
4908.80905 9.05785e-18
4909.99129 8.76829e-18
4911.17353 9.12895e-18
4912.35578 9.18318e-18
4913.53802 8.93071e-18
4914.72026 8.95242e-18
4915.90250 9.68158e-18
4917.08474 9.28687e-18
4918.26699 9.47947e-18
4919.44923 9.87538e-18
4920.63147 9.64881e-18
4921.80369 9.99032e-18
4922.98593 9.94188e-18
4924.16818 1.00134e-17
4925.35042 1.02411e-17
4926.53266 1.07681e-17
4927.71490 1.08443e-17
4928.89714 1.07897e-17
4930.07939 1.10471e-17
4931.26163 1.13587e-17
4932.44387 1.13331e-17
4933.62611 1.10508e-17
4934.80836 1.12820e-17
4935.99060 1.15750e-17
4937.16282 1.18169e-17
4938.34506 1.18200e-17
4939.52730 1.13802e-17
4940.70955 1.17755e-17
4941.89179 1.19394e-17
4943.07403 1.21077e-17
4944.25627 1.27489e-17
4945.43851 1.27400e-17
4946.62076 1.23782e-17
4947.80300 1.21177e-17
4948.98524 1.23696e-17
4950.16748 1.22686e-17
4951.34972 1.22282e-17
4952.52195 1.21878e-17
4953.70419 1.21475e-17
4954.88643 1.21071e-17
4956.06867 1.20668e-17
4957.25092 1.20264e-17
4958.43316 1.19861e-17
4959.61540 1.19458e-17
4960.79764 1.19054e-17
4961.97988 1.18651e-17
4963.16212 1.18247e-17
4964.34437 1.17844e-17
4965.52661 1.17441e-17
4966.70885 1.17037e-17
4967.88107 1.16634e-17
4969.06332 1.16231e-17
4970.24556 1.15827e-17
4971.42780 1.15424e-17
4972.61004 1.15021e-17
4973.79228 1.14618e-17
4974.97453 1.14214e-17
4976.15677 1.13811e-17
4977.33901 1.13408e-17
4978.52125 1.13005e-17
4979.70349 1.12602e-17
4980.88574 1.12199e-17
4982.06798 1.11796e-17
4983.24020 1.11393e-17
4984.42244 1.10990e-17
4985.60468 1.10587e-17
4986.78693 1.10183e-17
4987.96917 1.12271e-17
4989.15141 1.13080e-17
4990.33365 1.10656e-17
4991.51590 1.05075e-17
4992.69814 1.04896e-17
4993.88038 1.08644e-17
4995.06262 1.06669e-17
4996.24486 1.06414e-17
4997.41709 1.04259e-17
4998.59933 1.03424e-17
4999.78157 1.02590e-17
5000.96381 1.01756e-17
5002.14605 1.00921e-17
5003.32830 1.00087e-17
5004.51054 9.92529e-18
5005.69278 9.84187e-18
5006.87502 9.75842e-18
5008.05726 9.67504e-18
5009.23951 9.59163e-18
5010.42175 9.50822e-18
5011.60399 9.42482e-18
5012.78623 9.34139e-18
5013.95845 9.25803e-18
5015.14070 9.17461e-18
5016.32294 9.09122e-18
5017.50518 9.00788e-18
5018.68742 8.92447e-18
5019.86967 8.84109e-18
5021.05191 8.75772e-18
5022.23415 8.67435e-18
5023.41639 8.59099e-18
5024.59863 8.50763e-18
5025.78088 8.42428e-18
5026.96312 8.34093e-18
5028.13534 8.25758e-18
5029.31758 8.17423e-18
5030.49982 8.09090e-18
5031.68207 8.00756e-18
5032.86431 7.92419e-18
5034.04655 7.84090e-18
5035.22879 7.75754e-18
5036.41103 7.72250e-18
5037.59328 7.84030e-18
5038.77552 7.77966e-18
5039.95776 7.91435e-18
5041.14000 7.89684e-18
5042.32224 7.56240e-18
5043.49447 7.49612e-18
5044.67671 7.74361e-18
5045.85895 7.99269e-18
5047.04119 8.06548e-18
5048.22343 8.08846e-18
5049.40568 7.86036e-18
5050.58792 7.55093e-18
5051.77016 7.73108e-18
5052.95240 8.19060e-18
5054.13465 8.05495e-18
5055.31689 8.17799e-18
5056.49913 8.26943e-18
5057.68137 8.34873e-18
5058.86361 8.20790e-18
5060.03584 8.42381e-18
5061.21808 9.04246e-18
5062.40032 8.49648e-18
5063.58256 8.47087e-18
5064.76480 9.02768e-18
5065.94705 8.52035e-18
5067.12929 8.47703e-18
5068.31153 8.90666e-18
5069.49377 8.78435e-18
5070.67601 8.79114e-18
5071.85826 9.07353e-18
5073.04050 9.46617e-18
5074.21272 9.99415e-18
5075.39496 1.00767e-17
5076.57720 9.66531e-18
5077.75945 9.56774e-18
5078.94169 9.77190e-18
5080.12393 9.75448e-18
5081.30617 9.49992e-18
5082.48842 9.85376e-18
5083.67066 9.91900e-18
5084.85290 1.01765e-17
5086.03514 1.07940e-17
5087.21738 1.03502e-17
5088.39963 1.03377e-17
5089.57185 1.03729e-17
5090.75409 1.11907e-17
5091.93633 1.06394e-17
5093.11857 1.08967e-17
5094.30082 1.08007e-17
5095.48306 1.12841e-17
5096.66530 1.11799e-17
5097.84754 1.07650e-17
5099.02978 1.10452e-17
5100.21203 1.11186e-17
5101.39427 1.11982e-17
5102.57651 1.09659e-17
5103.75875 1.08836e-17
5104.93098 1.12937e-17
5106.11322 1.14995e-17
5107.29546 1.12076e-17
5108.47770 1.12648e-17
5109.65994 1.12741e-17
5110.84218 1.07793e-17
5112.02443 1.11494e-17
5113.20667 1.12390e-17
5114.38891 1.11358e-17
5115.57115 1.16522e-17
5116.75340 1.13507e-17
5117.93564 1.14461e-17
5119.11788 1.16030e-17
5120.29010 1.09163e-17
5121.47234 1.10407e-17
5122.65459 1.15467e-17
5123.83683 1.14318e-17
5125.01907 1.13724e-17
5126.20131 1.13619e-17
5127.38355 1.17197e-17
5128.56580 1.18189e-17
5129.74804 1.16990e-17
5130.93028 1.18936e-17
5132.11252 1.18786e-17
5133.29476 1.14077e-17
5134.47701 1.15887e-17
5135.64923 1.18107e-17
5136.83147 1.15679e-17
5138.01371 1.22793e-17
5139.19596 1.26405e-17
5140.37820 1.21322e-17
5141.56044 1.21106e-17
5142.74268 1.20549e-17
5143.92492 1.22228e-17
5145.10717 1.22576e-17
5146.28941 1.24300e-17
5147.47165 1.21524e-17
5148.65389 1.20445e-17
5149.82611 1.20733e-17
5151.00836 1.18441e-17
5152.19060 1.20781e-17
5153.37284 1.25906e-17
5154.55508 1.28079e-17
5155.73732 1.24712e-17
5156.91957 1.19865e-17
5158.10181 1.23156e-17
5159.28405 1.20354e-17
5160.46629 1.21042e-17
5161.64853 1.21504e-17
5162.83078 1.21966e-17
5164.01302 1.22428e-17
5165.19526 1.22890e-17
5166.36748 1.23351e-17
5167.54972 1.19658e-17
5168.73197 1.26209e-17
5169.91421 1.25171e-17
5171.09645 1.22706e-17
5172.27869 1.23513e-17
5173.46094 1.20158e-17
5174.64318 1.22067e-17
5175.82542 1.21880e-17
5177.00766 1.23732e-17
5178.18990 1.27133e-17
5179.37215 1.26759e-17
5180.55439 1.22013e-17
5181.72661 1.22569e-17
5182.90885 1.25130e-17
5184.09109 1.23555e-17
5185.27334 1.26336e-17
5186.45558 1.31083e-17
5187.63782 1.25312e-17
5188.82006 1.21056e-17
5190.00230 1.25160e-17
5191.18455 1.30388e-17
5192.36679 1.30538e-17
5193.54903 1.28395e-17
5194.73127 1.29504e-17
5195.90350 1.26502e-17
5197.08574 1.23970e-17
5198.26798 1.26344e-17
5199.45022 1.30101e-17
5200.63246 1.30717e-17
5201.81470 1.33950e-17
5202.99695 1.32371e-17
5204.17919 1.28961e-17
5205.36143 1.31325e-17
5206.54367 1.31735e-17
5207.72591 1.28752e-17
5208.90816 1.29534e-17
5210.09040 1.30047e-17
5211.27264 1.29059e-17
5212.44486 1.32398e-17
5213.62711 1.33148e-17
5214.80935 1.35515e-17
5215.99159 1.36278e-17
5217.17383 1.34428e-17
5218.35607 1.34922e-17
5219.53832 1.36125e-17
5220.72056 1.35417e-17
5221.90280 1.32820e-17
5223.08504 1.38444e-17
5224.26728 1.35894e-17
5225.44953 1.33043e-17
5226.62175 1.36158e-17
5227.80399 1.41308e-17
5228.98623 1.40930e-17
5230.16848 1.41990e-17
5231.35072 1.36072e-17
5232.53296 1.36587e-17
5233.71520 1.43793e-17
5234.89744 1.43036e-17
5236.07968 1.41358e-17
5237.26193 1.41740e-17
5238.44417 1.42744e-17
5239.62641 1.43815e-17
5240.80865 1.44238e-17
5241.99089 1.42412e-17
5243.16312 1.45113e-17
5244.34536 1.41360e-17
5245.52760 1.44650e-17
5246.70984 1.44157e-17
5247.89209 1.44085e-17
5249.07433 1.46839e-17
5250.25657 1.48678e-17
5251.43881 1.47543e-17
5252.62105 1.45458e-17
5253.80330 1.50582e-17
5254.98554 1.47332e-17
5256.16778 1.46702e-17
5257.35002 1.48254e-17
5258.52225 1.42467e-17
5259.70449 1.45034e-17
5260.88673 1.48537e-17
5262.06897 1.50424e-17
5263.25121 1.50399e-17
5264.43346 1.44109e-17
5265.61570 1.49648e-17
5266.79794 1.46546e-17
5267.98018 1.47401e-17
5269.16242 1.49151e-17
5270.34467 1.53069e-17
5271.52691 1.51240e-17
5272.69913 1.50948e-17
5273.88137 1.49002e-17
5275.06361 1.52616e-17
5276.24586 1.46797e-17
5277.42810 1.51765e-17
5278.61034 1.48895e-17
5279.79258 1.50159e-17
5280.97482 1.51428e-17
5282.15707 1.51183e-17
5283.33931 1.49932e-17
5284.52155 1.51499e-17
5285.70379 1.50324e-17
5286.88603 1.46493e-17
5288.06828 1.49041e-17
5289.24050 1.54318e-17
5290.42274 1.51287e-17
5291.60498 1.48866e-17
5292.78723 1.47017e-17
5293.96947 1.44508e-17
5295.15171 1.52558e-17
5296.33395 1.49793e-17
5297.51619 1.44636e-17
5298.69843 1.50671e-17
5299.88068 1.53591e-17
5301.06292 1.51915e-17
5302.24516 1.47224e-17
5303.41738 1.51946e-17
5304.59963 1.51163e-17
5305.78187 1.51214e-17
5306.96411 1.55313e-17
5308.14635 1.49739e-17
5309.32859 1.50157e-17
5310.51084 1.51943e-17
5311.69308 1.51753e-17
5312.87532 1.49745e-17
5314.05756 1.51728e-17
5315.23980 1.55172e-17
5316.42205 1.54282e-17
5317.60429 1.50288e-17
5318.77651 1.49474e-17
5319.95875 1.48264e-17
5321.14100 1.49369e-17
5322.32324 1.49592e-17
5323.50548 1.51929e-17
5324.68772 1.52588e-17
5325.86996 1.50262e-17
5327.05220 1.49100e-17
5328.23445 1.46216e-17
5329.41669 1.44708e-17
5330.59893 1.50862e-17
5331.78117 1.55408e-17
5332.96342 1.49431e-17
5334.13564 1.46972e-17
5335.31788 1.46320e-17
5336.50012 1.42824e-17
5337.68236 1.47942e-17
5338.86461 1.47374e-17
5340.04685 1.47869e-17
5341.22909 1.47543e-17
5342.41133 1.46051e-17
5343.59357 1.46512e-17
5344.77582 1.46241e-17
5345.95806 1.44829e-17
5347.14030 1.43292e-17
5348.32254 1.44726e-17
5349.49477 1.46879e-17
5350.67701 1.48107e-17
5351.85925 1.45548e-17
5353.04149 1.45499e-17
5354.22373 1.45609e-17
5355.40597 1.41904e-17
5356.58822 1.45755e-17
5357.77046 1.43075e-17
5358.95270 1.43714e-17
5360.13494 1.44004e-17
5361.31718 1.40263e-17
5362.49943 1.41182e-17
5363.68167 1.39828e-17
5364.85389 1.36783e-17
5366.03613 1.37059e-17
5367.21838 1.41065e-17
5368.40062 1.42452e-17
5369.58286 1.37623e-17
5370.76510 1.38179e-17
5371.94734 1.43127e-17
5373.12959 1.43472e-17
5374.31183 1.39806e-17
5375.49407 1.38074e-17
5376.67631 1.35360e-17
5377.85855 1.40259e-17
5379.03078 1.38212e-17
5380.21302 1.37572e-17
5381.39526 1.38694e-17
5382.57750 1.39732e-17
5383.75975 1.35525e-17
5384.94199 1.38210e-17
5386.12423 1.39378e-17
5387.30647 1.33731e-17
5388.48871 1.33805e-17
5389.67095 1.31356e-17
5390.85320 1.32675e-17
5392.03544 1.39028e-17
5393.21768 1.34592e-17
5394.39992 1.34304e-17
5395.57215 1.33866e-17
5396.75439 1.38063e-17
5397.93663 1.37568e-17
5399.11887 1.33277e-17
5400.30111 1.31333e-17
5401.48336 1.29288e-17
5402.66560 1.34202e-17
5403.84784 1.34458e-17
5405.03008 1.32959e-17
5406.21232 1.31999e-17
5407.39457 1.35269e-17
5408.57681 1.31586e-17
5409.75905 1.26775e-17
5410.93127 1.31337e-17
5412.11352 1.33144e-17
5413.29576 1.35378e-17
5414.47800 1.32454e-17
5415.66024 1.27172e-17
5416.84248 1.29939e-17
5418.02473 1.26899e-17
5419.20697 1.29713e-17
5420.38921 1.28668e-17
5421.57145 1.26718e-17
5422.75369 1.31287e-17
5423.93593 1.30812e-17
5425.10816 1.26267e-17
5426.29040 1.23468e-17
5427.47264 1.29132e-17
5428.65488 1.31238e-17
5429.83713 1.28717e-17
5431.01937 1.31995e-17
5432.20161 1.30269e-17
5433.38385 1.28775e-17
5434.56609 1.25661e-17
5435.74834 1.28583e-17
5436.93058 1.29927e-17
5438.11282 1.30420e-17
5439.29506 1.26463e-17
5440.47730 1.27758e-17
5441.64953 1.29481e-17
5442.83177 1.30259e-17
5444.01401 1.26385e-17
5445.19625 1.32139e-17
5446.37849 1.30718e-17
5447.56074 1.30791e-17
5448.74298 1.31546e-17
5449.92522 1.24748e-17
5451.10746 1.28051e-17
5452.28971 1.24757e-17
5453.47195 1.25206e-17
5454.65419 1.27255e-17
5455.82641 1.25541e-17
5457.00865 1.25364e-17
5458.19090 1.19181e-17
5459.37314 1.31064e-17
5460.55538 1.31432e-17
5461.73762 1.23363e-17
5462.91986 1.28113e-17
5464.10211 1.23151e-17
5465.28435 1.28820e-17
5466.46659 1.27524e-17
5467.64883 1.22947e-17
5468.83107 1.27650e-17
5470.01332 1.25958e-17
5471.18554 1.24315e-17
5472.36778 1.29650e-17
5473.55002 1.31284e-17
5474.73227 1.31185e-17
5475.91451 1.29972e-17
5477.09675 1.25682e-17
5478.27899 1.21150e-17
5479.46123 1.24349e-17
5480.64347 1.24971e-17
5481.82572 1.26236e-17
5483.00796 1.31991e-17
5484.19020 1.30078e-17
5485.37244 1.29871e-17
5486.55469 1.29524e-17
5487.72691 1.24020e-17
5488.90915 1.24798e-17
5490.09139 1.25439e-17
5491.27363 1.25440e-17
5492.45588 1.24541e-17
5493.63812 1.23987e-17
5494.82036 1.26671e-17
5496.00260 1.25593e-17
5497.18484 1.23922e-17
5498.36709 1.26460e-17
5499.54933 1.26419e-17
5500.73157 1.24585e-17
5501.90379 1.23350e-17
5503.08603 1.22099e-17
5504.26828 1.24274e-17
5505.45052 1.25148e-17
5506.63276 1.24193e-17
5507.81500 1.23367e-17
5508.99725 1.21547e-17
5510.17949 1.21075e-17
5511.36173 1.22304e-17
5512.54397 1.24687e-17
5513.72621 1.23968e-17
5514.90845 1.24053e-17
5516.09070 1.26572e-17
5517.26292 1.23741e-17
5518.44516 1.24378e-17
5519.62740 1.25529e-17
5520.80965 1.24494e-17
5521.99189 1.24566e-17
5523.17413 1.24156e-17
5524.35637 1.24256e-17
5525.53861 1.28034e-17
5526.72086 1.25473e-17
5527.90310 1.25334e-17
5529.08534 1.24186e-17
5530.26758 1.24113e-17
5531.44982 1.20124e-17
5532.62205 1.21903e-17
5533.80429 1.25415e-17
5534.98653 1.25781e-17
5536.16877 1.27448e-17
5537.35102 1.27415e-17
5538.53326 1.21796e-17
5539.71550 1.21218e-17
5540.89774 1.21640e-17
5542.07998 1.20630e-17
5543.26223 1.20561e-17
5544.44447 1.24179e-17
5545.62671 1.20506e-17
5546.80895 1.20816e-17
5547.98117 1.23383e-17
5549.16342 1.23686e-17
5550.34566 1.23836e-17
5551.52790 1.23575e-17
5552.71014 1.20529e-17
5553.89238 1.23149e-17
5555.07463 1.16815e-17
5556.25687 1.18500e-17
5557.43911 1.19358e-17
5558.62135 1.21154e-17
5559.80359 1.20930e-17
5560.98584 1.17118e-17
5562.16808 1.14149e-17
5563.34030 1.19189e-17
5564.52254 1.19400e-17
5565.70478 1.18121e-17
5566.88703 1.19267e-17
5568.06927 1.16870e-17
5569.25151 1.14375e-17
5570.43375 1.19892e-17
5571.61600 1.18995e-17
5572.79824 1.19539e-17
5573.98048 1.21935e-17
5575.16272 1.19981e-17
5576.34496 1.14961e-17
5577.51719 1.17533e-17
5578.69943 1.21259e-17
5579.88167 1.17967e-17
5581.06391 1.14407e-17
5582.24615 1.18301e-17
5583.42840 1.18498e-17
5584.61064 1.16295e-17
5585.79288 1.14335e-17
5586.97512 1.13003e-17
5588.15736 1.15318e-17
5589.33961 1.14593e-17
5590.52185 1.12935e-17
5591.70409 1.13540e-17
5592.88633 1.14501e-17
5594.05855 1.16461e-17
5595.24080 1.16409e-17
5596.42304 1.18019e-17
5597.60528 1.19529e-17
5598.78752 1.17678e-17
5599.96977 1.15081e-17
5601.15201 1.16361e-17
5602.33425 1.16566e-17
5603.51649 1.15003e-17
5604.69873 1.16189e-17
5605.88098 1.15574e-17
5607.06322 1.16958e-17
5608.23544 1.13367e-17
5609.41768 1.14355e-17
5610.59992 1.10761e-17
5611.78217 1.12997e-17
5612.96441 1.14080e-17
5614.14665 1.10472e-17
5615.32889 1.06638e-17
5616.51113 1.11950e-17
5617.69338 1.15526e-17
5618.87562 1.14092e-17
5620.05786 1.13105e-17
5621.24010 1.11940e-17
5622.42234 1.11938e-17
5623.59457 1.10523e-17
5624.77681 1.14378e-17
5625.95905 1.14470e-17
5627.14129 1.14612e-17
5628.32353 1.12871e-17
5629.50578 1.10559e-17
5630.68802 1.04262e-17
5631.87026 1.08432e-17
5633.05250 1.11581e-17
5634.23475 1.09250e-17
5635.41699 1.10997e-17
5636.59923 1.11012e-17
5637.78147 1.07085e-17
5638.96371 1.07773e-17
5640.13594 1.08240e-17
5641.31818 1.05271e-17
5642.50042 1.05492e-17
5643.68266 1.06328e-17
5644.86490 1.08021e-17
5646.04715 1.05469e-17
5647.22939 1.02164e-17
5648.41163 1.03428e-17
5649.59387 1.05310e-17
5650.77611 1.03038e-17
5651.95836 1.00696e-17
5653.14060 9.92637e-18
5654.31282 9.98873e-18
5655.49506 9.99660e-18
5656.67731 9.97762e-18
5657.85955 1.00665e-17
5659.04179 9.79524e-18
5660.22403 9.57085e-18
5661.40627 9.41848e-18
5662.58852 9.80266e-18
5663.77076 9.67467e-18
5664.95300 8.82413e-18
5666.13524 8.97243e-18
5667.31748 8.99801e-18
5668.49972 8.71963e-18
5669.67195 8.87792e-18
5670.85419 9.00733e-18
5672.03643 8.90482e-18
5673.21867 8.66668e-18
5674.40092 8.22743e-18
5675.58316 8.41040e-18
5676.76540 8.55352e-18
5677.94764 8.44668e-18
5679.12988 8.73782e-18
5680.31213 8.62978e-18
5681.49437 8.72168e-18
5682.67661 8.35292e-18
5683.85885 8.26057e-18
5685.03107 8.01412e-18
5686.21332 7.97495e-18
5687.39556 7.52959e-18
5688.57780 7.31722e-18
5689.76004 7.82639e-18
5690.94229 7.38663e-18
5692.12453 7.70170e-18
5693.30677 7.47456e-18
5694.48901 7.59447e-18
5695.67125 7.65143e-18
5696.85350 7.72866e-18
5698.03574 7.28778e-18
5699.21798 7.34335e-18
5700.39020 7.36398e-18
5701.57244 7.44737e-18
5702.75469 7.50556e-18
5703.93693 7.28677e-18
5705.11917 6.99144e-18
5706.30141 6.85241e-18
5707.48365 7.05627e-18
5708.66590 7.11078e-18
5709.84814 7.28289e-18
5711.03038 7.21780e-18
5712.21262 7.37888e-18
5713.39486 7.22283e-18
5714.57711 6.63797e-18
5715.75935 6.85972e-18
5716.93157 6.71579e-18
5718.11381 6.93976e-18
5719.29605 6.69153e-18
5720.47830 6.74110e-18
5721.66054 6.89466e-18
5722.84278 7.22302e-18
5724.02502 6.62394e-18
5725.20727 6.77217e-18
5726.38951 6.73347e-18
5727.57175 6.71669e-18
5728.75399 6.90532e-18
5729.92621 7.22586e-18
5731.10846 7.11272e-18
5732.29070 6.94358e-18
5733.47294 7.41992e-18
5734.65518 7.42326e-18
5735.83742 7.55117e-18
5737.01967 7.46247e-18
5738.20191 7.71245e-18
5739.38415 7.64248e-18
5740.56639 7.92996e-18
5741.74863 7.28389e-18
5742.93088 7.87962e-18
5744.11312 8.15146e-18
5745.29536 8.29097e-18
5746.46758 8.49416e-18
5747.64983 8.51918e-18
5748.83207 8.42101e-18
5750.01431 8.16550e-18
5751.19655 8.70368e-18
5752.37879 8.85444e-18
5753.56103 9.16244e-18
5754.74328 9.35421e-18
5755.92552 9.70826e-18
5757.10776 9.30531e-18
5758.29000 9.67267e-18
5759.47224 9.61316e-18
5760.65449 9.88755e-18
5761.82671 1.02353e-17
5763.00895 1.00738e-17
5764.19119 1.05904e-17
5765.37344 1.06016e-17
5766.55568 1.02855e-17
5767.73792 1.06962e-17
5768.92016 1.08099e-17
5770.10240 1.12127e-17
5771.28465 1.12783e-17
5772.46689 1.11080e-17
5773.64913 1.14970e-17
5774.83137 1.17565e-17
5776.01361 1.13161e-17
5777.18584 1.15030e-17
5778.36808 1.18119e-17
5779.55032 1.19215e-17
5780.73256 1.17061e-17
5781.91481 1.17775e-17
5783.09705 1.20143e-17
5784.27929 1.19760e-17
5785.46153 1.21341e-17
5786.64377 1.23981e-17
5787.82602 1.22062e-17
5789.00826 1.25771e-17
5790.19050 1.22643e-17
5791.37274 1.21091e-17
5792.54496 1.21321e-17
5793.72721 1.22923e-17
5794.90945 1.22211e-17
5796.09169 1.26582e-17
5797.27393 1.28803e-17
5798.45617 1.31166e-17
5799.63842 1.29991e-17
5800.82066 1.31890e-17
5802.00290 1.32253e-17
5803.18514 1.30761e-17
5804.36738 1.28566e-17
5805.54963 1.30068e-17
5806.72185 1.28495e-17
5807.90409 1.27071e-17
5809.08633 1.29338e-17
5810.26858 1.28339e-17
5811.45082 1.25937e-17
5812.63306 1.27167e-17
5813.81530 1.27396e-17
5814.99754 1.28347e-17
5816.17978 1.26154e-17
5817.36203 1.29510e-17
5818.54427 1.32251e-17
5819.72651 1.32556e-17
5820.90875 1.30412e-17
5822.08098 1.34737e-17
5823.26322 1.39217e-17
5824.44546 1.37364e-17
5825.62770 1.32592e-17
5826.80994 1.31499e-17
5827.99219 1.34229e-17
5829.17443 1.36539e-17
5830.35667 1.38914e-17
5831.53891 1.41389e-17
5832.72115 1.38865e-17
5833.90340 1.37986e-17
5835.08564 1.41964e-17
5836.26788 1.43920e-17
5837.45012 1.42927e-17
5838.62235 1.43610e-17
5839.80459 1.48034e-17
5840.98683 1.49172e-17
5842.16907 1.47198e-17
5843.35131 1.43398e-17
5844.53355 1.45450e-17
5845.71580 1.52211e-17
5846.89804 1.50440e-17
5848.08028 1.46793e-17
5849.26252 1.49728e-17
5850.44477 1.55380e-17
5851.62701 1.55058e-17
5852.79923 1.49065e-17
5853.98147 1.49887e-17
5855.16371 1.50256e-17
5856.34596 1.47723e-17
5857.52820 1.49055e-17
5858.71044 1.45895e-17
5859.89268 1.48698e-17
5861.07492 1.53094e-17
5862.25717 1.48667e-17
5863.43941 1.54784e-17
5864.62165 1.52162e-17
5865.80389 1.50310e-17
5866.98613 1.53489e-17
5868.16838 1.48016e-17
5869.34060 1.51241e-17
5870.52284 1.51331e-17
5871.70508 1.49385e-17
5872.88732 1.51249e-17
5874.06957 1.52397e-17
5875.25181 1.52545e-17
5876.43405 1.54767e-17
5877.61629 1.50871e-17
5878.79853 1.53673e-17
5879.98078 1.49256e-17
5881.16302 1.47851e-17
5882.34526 1.49948e-17
5883.51748 1.49175e-17
5884.69973 1.47008e-17
5885.88197 1.42850e-17
5887.06421 1.45438e-17
5888.24645 1.41804e-17
5889.42869 1.42986e-17
5890.61094 1.41175e-17
5891.79318 1.38050e-17
5892.97542 1.38675e-17
5894.15766 1.39230e-17
5895.33990 1.42391e-17
5896.52215 1.40959e-17
5897.70439 1.38743e-17
5898.87661 1.34559e-17
5900.05885 1.25922e-17
5901.24110 1.17587e-17
5902.42334 1.16285e-17
5903.60558 1.15241e-17
5904.78782 1.17047e-17
5905.97006 1.17580e-17
5907.15230 1.21118e-17
5908.33455 1.17109e-17
5909.51679 1.17610e-17
5910.69903 1.21324e-17
5911.88127 1.30166e-17
5913.06352 1.36308e-17
5914.23574 1.38366e-17
5915.41798 1.39284e-17
5916.60022 1.38094e-17
5917.78246 1.32557e-17
5918.96471 1.35172e-17
5920.14695 1.38364e-17
5921.32919 1.35649e-17
5922.51143 1.34817e-17
5923.69367 1.29669e-17
5924.87592 1.34373e-17
5926.05816 1.32105e-17
5927.24040 1.33796e-17
5928.42264 1.38323e-17
5929.59487 1.32712e-17
5930.77711 1.32504e-17
5931.95935 1.32468e-17
5933.14159 1.30986e-17
5934.32383 1.28322e-17
5935.50608 1.32020e-17
5936.68832 1.34695e-17
5937.87056 1.32200e-17
5939.05280 1.28509e-17
5940.23504 1.30927e-17
5941.41728 1.29050e-17
5942.59953 1.29620e-17
5943.78177 1.28656e-17
5944.95399 1.26003e-17
5946.13623 1.29832e-17
5947.31848 1.26712e-17
5948.50072 1.24863e-17
5949.68296 1.27129e-17
5950.86520 1.27019e-17
5952.04744 1.25968e-17
5953.22969 1.25406e-17
5954.41193 1.29912e-17
5955.59417 1.26445e-17
5956.77641 1.25985e-17
5957.95865 1.22967e-17
5959.13088 1.26440e-17
5960.31312 1.24103e-17
5961.49536 1.25941e-17
5962.67760 1.24389e-17
5963.85984 1.23915e-17
5965.04209 1.21137e-17
5966.22433 1.21255e-17
5967.40657 1.26219e-17
5968.58881 1.28019e-17
5969.77106 1.23563e-17
5970.95330 1.17660e-17
5972.13554 1.20538e-17
5973.31778 1.24396e-17
5974.50002 1.19755e-17
5975.67225 1.19984e-17
5976.85449 1.22692e-17
5978.03673 1.21399e-17
5979.21897 1.18481e-17
5980.40121 1.17890e-17
5981.58346 1.15132e-17
5982.76570 1.14995e-17
5983.94794 1.20899e-17
5985.13018 1.17559e-17
5986.31242 1.17267e-17
5987.49467 1.15480e-17
5988.67691 1.16907e-17
5989.85915 1.17362e-17
5991.03137 1.16475e-17
5992.21362 1.13816e-17
5993.39586 1.16010e-17
5994.57810 1.16481e-17
5995.76034 1.14792e-17
5996.94258 1.12221e-17
5998.12482 1.19359e-17
5999.30707 1.14482e-17
6000.48931 1.16057e-17
6001.67155 1.16142e-17
6002.85379 1.11699e-17
6004.03604 1.13143e-17
6005.20826 1.17691e-17
6006.39050 1.11729e-17
6007.57274 1.09985e-17
6008.75498 1.12959e-17
6009.93723 1.11547e-17
6011.11947 1.08324e-17
6012.30171 1.09257e-17
6013.48395 1.11606e-17
6014.66619 1.10793e-17
6015.84844 1.12699e-17
6017.03068 1.11324e-17
6018.21292 1.12674e-17
6019.39516 1.16227e-17
6020.57740 1.12673e-17
6021.74963 1.09269e-17
6022.93187 1.09427e-17
6024.11411 1.09061e-17
6025.29635 1.10316e-17
6026.47860 1.09896e-17
6027.66084 1.09026e-17
6028.84308 1.05649e-17
6030.02532 1.09868e-17
6031.20756 1.09650e-17
6032.38980 1.05561e-17
6033.57205 1.04518e-17
6034.75429 1.08094e-17
6035.92651 1.06350e-17
6037.10875 1.03536e-17
6038.29100 1.05592e-17
6039.47324 1.07056e-17
6040.65548 1.03889e-17
6041.83772 1.04659e-17
6043.01996 1.06561e-17
6044.20221 1.06591e-17
6045.38445 1.06110e-17
6046.56669 1.08413e-17
6047.74893 1.07725e-17
6048.93117 1.05055e-17
6050.11342 1.04025e-17
6051.28564 1.04094e-17
6052.46788 1.06327e-17
6053.65012 1.08390e-17
6054.83237 1.04943e-17
6056.01461 9.86758e-18
6057.19685 1.01737e-17
6058.37909 1.01890e-17
6059.56133 1.01303e-17
6060.74358 1.03868e-17
6061.92582 1.07140e-17
6063.10806 1.09720e-17
6064.29030 1.06647e-17
6065.47254 1.05415e-17
6066.65478 1.03358e-17
6067.82701 1.01516e-17
6069.00925 1.04835e-17
6070.19149 1.03074e-17
6071.37373 1.03495e-17
6072.55598 1.04117e-17
6073.73822 1.04959e-17
6074.92046 1.04345e-17
6076.10270 1.04545e-17
6077.28494 1.08256e-17
6078.46719 1.04468e-17
6079.64943 1.00325e-17
6080.83167 1.02750e-17
6082.00389 1.03802e-17
6083.18613 1.04777e-17
6084.36838 1.03347e-17
6085.55062 1.05180e-17
6086.73286 1.04229e-17
6087.91510 1.04607e-17
6089.09735 1.06962e-17
6090.27959 1.03856e-17
6091.46183 1.00290e-17
6092.64407 1.00841e-17
6093.82631 1.03089e-17
6095.00856 1.04989e-17
6096.19080 1.02808e-17
6097.36302 1.04544e-17
6098.54526 1.05780e-17
6099.72750 1.03098e-17
6100.90975 1.02320e-17
6102.09199 1.03152e-17
6103.27423 1.02698e-17
6104.45647 1.00957e-17
6105.63871 1.02505e-17
6106.82096 1.07196e-17
6108.00320 1.05841e-17
6109.18544 1.03961e-17
6110.36768 1.04901e-17
6111.54992 1.03946e-17
6112.72215 1.02724e-17
6113.90439 1.02021e-17
6115.08663 1.03399e-17
6116.26887 1.02128e-17
6117.45112 1.05443e-17
6118.63336 1.06413e-17
6119.81560 1.04082e-17
6120.99784 1.01974e-17
6122.18008 1.04305e-17
6123.36233 1.04254e-17
6124.54457 1.04910e-17
6125.72681 1.06892e-17
6126.90905 1.06627e-17
6128.08127 1.02414e-17
6129.26352 1.02164e-17
6130.44576 9.76344e-18
6131.62800 1.01073e-17
6132.81024 1.04283e-17
6133.99248 1.02685e-17
6135.17473 1.02692e-17
6136.35697 1.03999e-17
6137.53921 1.07067e-17
6138.72145 1.06032e-17
6139.90369 1.01512e-17
6141.08594 1.00717e-17
6142.26818 1.01201e-17
6143.44040 9.96418e-18
6144.62264 1.01946e-17
6145.80488 1.03878e-17
6146.98713 1.04266e-17
6148.16937 1.02082e-17
6149.35161 1.04225e-17
6150.53385 1.07713e-17
6151.71610 1.00250e-17
6152.89834 9.80877e-18
6154.08058 1.02422e-17
6155.26282 9.86083e-18
6156.44506 9.83568e-18
6157.61729 1.02538e-17
6158.79953 1.02271e-17
6159.98177 1.01990e-17
6161.16401 1.00694e-17
6162.34625 1.00403e-17
6163.52850 1.00184e-17
6164.71074 9.95076e-18
6165.89298 9.64350e-18
6167.07522 9.87595e-18
6168.25746 9.93632e-18
6169.43971 9.74693e-18
6170.62195 9.91571e-18
6171.80419 9.69276e-18
6172.98643 9.80318e-18
6174.15866 9.82598e-18
6175.34090 9.45538e-18
6176.52314 9.11995e-18
6177.70538 9.19972e-18
6178.88762 9.40324e-18
6180.06987 9.64565e-18
6181.25211 9.44403e-18
6182.43435 9.34794e-18
6183.61659 9.22473e-18
6184.79883 9.06495e-18
6185.98107 9.25267e-18
6187.16332 8.85288e-18
6188.33554 8.81784e-18
6189.51778 8.86595e-18
6190.70002 8.75969e-18
6191.88227 8.74571e-18
6193.06451 8.68243e-18
6194.24675 8.69465e-18
6195.42899 8.59608e-18
6196.61123 8.63419e-18
6197.79348 8.61226e-18
6198.97572 8.51460e-18
6200.15796 8.29347e-18
6201.34020 8.24360e-18
6202.52244 8.43383e-18
6203.69467 8.11071e-18
6204.87691 8.14908e-18
6206.05915 8.40320e-18
6207.24139 8.28990e-18
6208.42364 8.06530e-18
6209.60588 7.86072e-18
6210.78812 7.87153e-18
6211.97036 7.54126e-18
6213.15260 7.47389e-18
6214.33485 7.64646e-18
6215.51709 7.52075e-18
6216.69933 7.44686e-18
6217.88157 7.53157e-18
6219.06381 7.62761e-18
6220.23604 7.32376e-18
6221.41828 7.09976e-18
6222.60052 7.25538e-18
6223.78276 7.42690e-18
6224.96500 7.60920e-18
6226.14725 7.49736e-18
6227.32949 7.08466e-18
6228.51173 6.72085e-18
6229.69397 6.77660e-18
6230.87621 6.90462e-18
6232.05846 7.08265e-18
6233.24070 7.01531e-18
6234.41292 6.92877e-18
6235.59516 7.07831e-18
6236.77740 6.79537e-18
6237.95965 7.26164e-18
6239.14189 6.97916e-18
6240.32413 6.84495e-18
6241.50637 6.72230e-18
6242.68862 6.91029e-18
6243.87086 6.89035e-18
6245.05310 7.00692e-18
6246.23534 6.78851e-18
6247.41758 6.77739e-18
6248.59983 6.58215e-18
6249.77205 6.47045e-18
6250.95429 6.49816e-18
6252.13653 6.49017e-18
6253.31877 6.66038e-18
6254.50102 6.76578e-18
6255.68326 6.65258e-18
6256.86550 6.78133e-18
6258.04774 6.48213e-18
6259.22998 6.35182e-18
6260.41223 6.42363e-18
6261.59447 6.48026e-18
6262.77671 6.72353e-18
6263.95895 6.34003e-18
6265.13118 6.29209e-18
6266.31342 6.22090e-18
6267.49566 6.09849e-18
6268.67790 6.08638e-18
6269.86014 6.13152e-18
6271.04238 6.31617e-18
6272.22463 5.82243e-18
6273.40687 5.89414e-18
6274.58911 5.78495e-18
6275.77135 6.13019e-18
6276.95359 5.78375e-18
6278.13584 5.77226e-18
6279.31808 6.05676e-18
6280.49030 5.80924e-18
6281.67254 5.79695e-18
6282.85479 6.04497e-18
6284.03703 6.38114e-18
6285.21927 5.97529e-18
6286.40151 5.85493e-18
6287.58375 6.45364e-18
6288.76600 6.03129e-18
6289.94824 5.69126e-18
6291.13048 5.91084e-18
6292.31272 5.95555e-18
6293.49496 5.78154e-18
6294.67721 5.91727e-18
6295.84943 5.72382e-18
6297.03167 5.77649e-18
6298.21391 5.73502e-18
6299.39615 6.04474e-18
6300.57840 6.42785e-18
6301.76064 6.32030e-18
6302.94288 6.33978e-18
6304.12512 6.42460e-18
6305.30737 6.39375e-18
6306.48961 6.54848e-18
6307.67185 6.68458e-18
6308.85409 6.63097e-18
6310.03633 6.83327e-18
6311.20856 6.89573e-18
6312.39080 6.74860e-18
6313.57304 6.57797e-18
6314.75528 6.76957e-18
6315.93752 6.94125e-18
6317.11977 7.10685e-18
6318.30201 7.14895e-18
6319.48425 6.91193e-18
6320.66649 7.00461e-18
6321.84873 7.19772e-18
6323.03098 7.13987e-18
6324.21322 6.92580e-18
6325.39546 7.22376e-18
6326.56768 7.30860e-18
6327.74993 7.24199e-18
6328.93217 7.21299e-18
6330.11441 7.20452e-18
6331.29665 7.35711e-18
6332.47889 7.70304e-18
6333.66113 7.57203e-18
6334.84338 7.88833e-18
6336.02562 7.98309e-18
6337.20786 7.89262e-18
6338.39010 8.05947e-18
6339.57235 8.21890e-18
6340.75459 8.26795e-18
6341.92681 8.46157e-18
6343.10905 8.28605e-18
6344.29129 8.44672e-18
6345.47354 8.52218e-18
6346.65578 9.03715e-18
6347.83802 8.72237e-18
6349.02026 8.86691e-18
6350.20250 9.11771e-18
6351.38475 9.11795e-18
6352.56699 9.33818e-18
6353.74923 9.07410e-18
6354.93147 9.05731e-18
6356.11371 9.54680e-18
6357.28594 9.41608e-18
6358.46818 9.43175e-18
6359.65042 9.16333e-18
6360.83266 9.67841e-18
6362.01490 9.96958e-18
6363.19715 9.58010e-18
6364.37939 1.01024e-17
6365.56163 1.02353e-17
6366.74387 1.01759e-17
6367.92612 1.03928e-17
6369.10836 1.03535e-17
6370.29060 1.03385e-17
6371.47284 1.00814e-17
6372.64506 1.03488e-17
6373.82731 1.05806e-17
6375.00955 1.06538e-17
6376.19179 1.07939e-17
6377.37403 1.07083e-17
6378.55627 1.06696e-17
6379.73852 1.05477e-17
6380.92076 1.09734e-17
6382.10300 1.07282e-17
6383.28524 1.10781e-17
6384.46748 1.12887e-17
6385.64973 1.12238e-17
6386.82195 1.11230e-17
6388.00419 1.10914e-17
6389.18643 1.09916e-17
6390.36867 1.10589e-17
6391.55092 1.12534e-17
6392.73316 1.08375e-17
6393.91540 1.11120e-17
6395.09764 1.12049e-17
6396.27988 1.10551e-17
6397.46213 1.11096e-17
6398.64437 1.14998e-17
6399.82661 1.13476e-17
6401.00885 1.15544e-17
6402.18108 1.13367e-17
6403.36332 1.15271e-17
6404.54556 1.15575e-17
6405.72780 1.12512e-17
6406.91004 1.14296e-17
6408.09229 1.14175e-17
6409.27453 1.17871e-17
6410.45677 1.14403e-17
6411.63901 1.14066e-17
6412.82125 1.15037e-17
6414.00350 1.15283e-17
6415.18574 1.15366e-17
6416.36798 1.15589e-17
6417.55022 1.13923e-17
6418.72245 1.14069e-17
6419.90469 1.15167e-17
6421.08693 1.17692e-17
6422.26917 1.15304e-17
6423.45141 1.12829e-17
6424.63365 1.12971e-17
6425.81590 1.13111e-17
6426.99814 1.14072e-17
6428.18038 1.12764e-17
6429.36262 1.12487e-17
6430.54487 1.14259e-17
6431.72711 1.16247e-17
6432.89933 1.13339e-17
6434.08157 1.13521e-17
6435.26381 1.12063e-17
6436.44606 1.10255e-17
6437.62830 1.11412e-17
6438.81054 1.15363e-17
6439.99278 1.15573e-17
6441.17502 1.14517e-17
6442.35727 1.12724e-17
6443.53951 1.13535e-17
6444.72175 1.11190e-17
6445.90399 1.09917e-17
6447.08623 1.09729e-17
6448.25846 1.10869e-17
6449.44070 1.14305e-17
6450.62294 1.11772e-17
6451.80518 1.10661e-17
6452.98743 1.09979e-17
6454.16967 1.10676e-17
6455.35191 1.06950e-17
6456.53415 1.08877e-17
6457.71639 1.09474e-17
6458.89863 1.08729e-17
6460.08088 1.05895e-17
6461.26312 1.05604e-17
6462.44536 1.07372e-17
6463.61758 1.06247e-17
6464.79983 1.04978e-17
6465.98207 1.06549e-17
6467.16431 1.04771e-17
6468.34655 1.03386e-17
6469.52879 1.03911e-17
6470.71104 1.03344e-17
6471.89328 1.01227e-17
6473.07552 1.03374e-17
6474.25776 1.04920e-17
6475.44000 1.04085e-17
6476.62225 1.02868e-17
6477.80449 1.01849e-17
6478.97671 9.72299e-18
6480.15895 9.82947e-18
6481.34119 1.02023e-17
6482.52344 1.03185e-17
6483.70568 9.79260e-18
6484.88792 9.61557e-18
6486.07016 9.76918e-18
6487.25241 9.76854e-18
6488.43465 9.85810e-18
6489.61689 9.62236e-18
6490.79913 9.69065e-18
6491.98137 9.90614e-18
6493.16362 9.68028e-18
6494.33584 9.50057e-18
6495.51808 9.31324e-18
6496.70032 9.07297e-18
6497.88256 9.12721e-18
6499.06481 9.21518e-18
6500.24705 9.03581e-18
6501.42929 9.35959e-18
6502.61153 9.08716e-18
6503.79377 8.94414e-18
6504.97602 9.17402e-18
6506.15826 8.93072e-18
6507.34050 8.67436e-18
6508.52274 8.68923e-18
6509.69497 8.87094e-18
6510.87721 8.99296e-18
6512.05945 8.83588e-18
6513.24169 8.81349e-18
6514.42393 8.68517e-18
6515.60617 8.48399e-18
6516.78842 8.48270e-18
6517.97066 8.60842e-18
6519.15290 8.73761e-18
6520.33514 8.66098e-18
6521.51739 8.51047e-18
6522.69963 8.73661e-18
6523.88187 8.61943e-18
6525.05409 8.66995e-18
6526.23633 8.86527e-18
6527.41858 8.78697e-18
6528.60082 8.91589e-18
6529.78306 9.10850e-18
6530.96530 9.13940e-18
6532.14754 8.83989e-18
6533.32979 8.75236e-18
6534.51203 8.87178e-18
6535.69427 9.02749e-18
6536.87651 9.11598e-18
6538.05875 9.16231e-18
6539.23098 9.30646e-18
6540.41322 8.99818e-18
6541.59546 8.98528e-18
6542.77770 9.39527e-18
6543.95995 9.55553e-18
6545.14219 9.58555e-18
6546.32443 9.62837e-18
6547.50667 9.67118e-18
6548.68891 9.71399e-18
6549.87115 9.75679e-18
6551.05340 9.79958e-18
6552.23564 9.84240e-18
6553.41788 9.88520e-18
6554.60012 9.92801e-18
6555.77235 9.97081e-18
6556.95459 1.00136e-17
6558.13683 1.00564e-17
6559.31907 1.00992e-17
6560.50131 1.01420e-17
6561.68356 1.01848e-17
6562.86580 1.02276e-17
6564.04804 1.02704e-17
6565.23028 1.03132e-17
6566.41252 1.03560e-17
6567.59477 1.03988e-17
6568.77701 1.04416e-17
6569.95925 1.04844e-17
6571.13147 1.05271e-17
6572.31372 1.05700e-17
6573.49596 1.06127e-17
6574.67820 1.06555e-17
6575.86044 1.06983e-17
6577.04268 1.07411e-17
6578.22493 1.07839e-17
6579.40717 1.08267e-17
6580.58941 1.08695e-17
6581.77165 1.09122e-17
6582.95389 1.09550e-17
6584.13613 1.09978e-17
6585.30836 1.10406e-17
6586.49060 1.10834e-17
6587.67284 1.11261e-17
6588.85508 1.11689e-17
6590.03733 1.12117e-17
6591.21957 1.12545e-17
6592.40181 1.12973e-17
6593.58405 1.13400e-17
6594.76629 1.13828e-17
6595.94854 1.14256e-17
6597.13078 1.14684e-17
6598.31302 1.15111e-17
6599.49526 1.15539e-17
6600.66748 1.15967e-17
6601.84973 1.16394e-17
6603.03197 1.16822e-17
6604.21421 1.17250e-17
6605.39645 1.17677e-17
6606.57870 1.16438e-17
6607.76094 1.15187e-17
6608.94318 1.15649e-17
6610.12542 1.13158e-17
6611.30766 1.14656e-17
6612.48990 1.12919e-17
6613.67215 1.14564e-17
6614.85439 1.13321e-17
6616.02661 1.15256e-17
6617.20885 1.12299e-17
6618.39110 1.15164e-17
6619.57334 1.15177e-17
6620.75558 1.15841e-17
6621.93782 1.14151e-17
6623.12006 1.13711e-17
6624.30231 1.14519e-17
6625.48455 1.14710e-17
6626.66679 1.13872e-17
6627.84903 1.11670e-17
6629.03127 1.11082e-17
6630.21352 1.11020e-17
6631.38574 1.14210e-17
6632.56798 1.16625e-17
6633.75022 1.17858e-17
6634.93247 1.20951e-17
6636.11471 1.17477e-17
6637.29695 1.15291e-17
6638.47919 1.17642e-17
6639.66143 1.19595e-17
6640.84368 1.17868e-17
6642.02592 1.22333e-17
6643.20816 1.19391e-17
6644.39040 1.18394e-17
6645.57264 1.20786e-17
6646.75488 1.22180e-17
6647.92711 1.21285e-17
6649.10935 1.23054e-17
6650.29159 1.21059e-17
6651.47383 1.18776e-17
6652.65608 1.22195e-17
6653.83832 1.21550e-17
6655.02056 1.20861e-17
6656.20280 1.21371e-17
6657.38504 1.19471e-17
6658.56729 1.21670e-17
6659.74953 1.23347e-17
6660.93177 1.22953e-17
6662.10399 1.20860e-17
6663.28623 1.21105e-17
6664.46848 1.21305e-17
6665.65072 1.20506e-17
6666.83296 1.20098e-17
6668.01520 1.20586e-17
6669.19745 1.21559e-17
6670.37969 1.19351e-17
6671.56193 1.19289e-17
6672.74417 1.18583e-17
6673.92641 1.18168e-17
6675.10865 1.18867e-17
6676.29090 1.19842e-17
6677.46312 1.20502e-17
6678.64536 1.17564e-17
6679.82760 1.17024e-17
6681.00985 1.16678e-17
6682.19209 1.16701e-17
6683.37433 1.17253e-17
6684.55657 1.18870e-17
6685.73881 1.19457e-17
6686.92106 1.20285e-17
6688.10330 1.19120e-17
6689.28554 1.18773e-17
6690.46778 1.17272e-17
6691.65002 1.19437e-17
6692.82225 1.20794e-17
6694.00449 1.16520e-17
6695.18673 1.11391e-17
6696.36897 1.11084e-17
6697.55122 1.13938e-17
6698.73346 1.16859e-17
6699.91570 1.17793e-17
6701.09794 1.13882e-17
6702.28018 1.13520e-17
6703.46242 1.15667e-17
6704.64467 1.15310e-17
6705.82691 1.14424e-17
6707.00915 1.14312e-17
6708.18137 1.10868e-17
6709.36362 1.08599e-17
6710.54586 1.13194e-17
6711.72810 1.13707e-17
6712.91034 1.13177e-17
6714.09258 1.13074e-17
6715.27483 1.13996e-17
6716.45707 1.11202e-17
6717.63931 1.06540e-17
6718.82155 1.11156e-17
6720.00379 1.14579e-17
6721.18604 1.11666e-17
6722.36828 1.10094e-17
6723.54050 1.11119e-17
6724.72274 1.11017e-17
6725.90499 1.11725e-17
6727.08723 1.07494e-17
6728.26947 1.08534e-17
6729.45171 1.09312e-17
6730.63395 1.05095e-17
6731.81620 1.07030e-17
6732.99844 1.03606e-17
6734.18068 1.04630e-17
6735.36292 1.05238e-17
6736.54516 1.02538e-17
6737.71739 1.04444e-17
6738.89963 1.06923e-17
6740.08187 1.04938e-17
6741.26411 1.07801e-17
6742.44635 1.07662e-17
6743.62860 1.03473e-17
6744.81084 1.05936e-17
6745.99308 1.05017e-17
6747.17532 1.03426e-17
6748.35756 1.02987e-17
6749.53981 1.02163e-17
6750.72205 1.04317e-17
6751.90429 1.02853e-17
6753.07651 1.02395e-17
6754.25875 1.02710e-17
6755.44100 1.08208e-17
6756.62324 1.07547e-17
6757.80548 1.05664e-17
6758.98772 1.01710e-17
6760.16997 1.04115e-17
6761.35221 1.03919e-17
6762.53445 1.05166e-17
6763.71669 1.06674e-17
6764.89893 1.03557e-17
6766.08118 1.05198e-17
6767.26342 1.05638e-17
6768.43564 1.04385e-17
6769.61788 1.05452e-17
6770.80012 1.02153e-17
6771.98237 1.03347e-17
6773.16461 1.01137e-17
6774.34685 9.91880e-18
6775.52909 1.01756e-17
6776.71133 1.02922e-17
6777.89358 1.01380e-17
6779.07582 9.84751e-18
6780.25806 9.79468e-18
6781.44030 9.90308e-18
6782.62254 1.01747e-17
6783.80479 1.00338e-17
6784.97701 9.94952e-18
6786.15925 9.92577e-18
6787.34149 9.77144e-18
6788.52373 9.77395e-18
6789.70598 9.62282e-18
6790.88822 9.84816e-18
6792.07046 9.74043e-18
6793.25270 1.00992e-17
6794.43494 9.90085e-18
6795.61719 9.70456e-18
6796.79943 9.51998e-18
6797.98167 9.57653e-18
6799.16391 9.51899e-18
6800.33614 9.97480e-18
6801.51838 9.81855e-18
6802.70062 9.70660e-18
6803.88286 9.64972e-18
6805.06510 9.52355e-18
6806.24735 9.55909e-18
6807.42959 9.32028e-18
6808.61183 9.34317e-18
6809.79407 9.42370e-18
6810.97631 9.68084e-18
6812.15856 9.67688e-18
6813.34080 9.55290e-18
6814.51302 9.53873e-18
6815.69526 9.39543e-18
6816.87750 9.33109e-18
6818.05975 9.29932e-18
6819.24199 9.36428e-18
6820.42423 9.28514e-18
6821.60647 9.16300e-18
6822.78872 9.29172e-18
6823.97096 9.42105e-18
6825.15320 9.09204e-18
6826.33544 8.86202e-18
6827.51768 9.21818e-18
6828.69992 9.18919e-18
6829.87215 9.11801e-18
6831.05439 9.19514e-18
6832.23663 8.88660e-18
6833.41887 8.92491e-18
6834.60112 8.86318e-18
6835.78336 8.60293e-18
6836.96560 8.68937e-18
6838.14784 8.84322e-18
6839.33008 8.86485e-18
6840.51233 8.62578e-18
6841.69457 8.65849e-18
6842.87681 8.76793e-18
6844.05905 8.76095e-18
6845.23128 8.79697e-18
6846.41352 8.85455e-18
6847.59576 8.47127e-18
6848.77800 8.40836e-18
6849.96024 8.92516e-18
6851.14248 8.83678e-18
6852.32473 8.77093e-18
6853.50697 8.68858e-18
6854.68921 8.76772e-18
6855.87145 8.84613e-18
6857.05370 8.93894e-18
6858.23594 8.46903e-18
6859.41818 8.44942e-18
6860.59040 8.36429e-18
6861.77264 8.57809e-18
6862.95489 8.77832e-18
6864.13713 8.52835e-18
6865.31937 8.25251e-18
6866.50161 8.57280e-18
6867.68385 8.19443e-18
6868.86610 7.95033e-18
6870.04834 8.36358e-18
6871.23058 8.38554e-18
6872.41282 8.17846e-18
6873.59506 8.28157e-18
6874.77731 8.39582e-18
6875.94953 8.41346e-18
6877.13177 8.13441e-18
6878.31401 8.32737e-18
6879.49626 8.00240e-18
6880.67850 8.20793e-18
6881.86074 8.17870e-18
6883.04298 8.27044e-18
6884.22522 7.92974e-18
6885.40747 8.05089e-18
6886.58971 8.12769e-18
6887.77195 7.79528e-18
6888.95419 8.05721e-18
6890.13643 7.62786e-18
6891.30866 7.70391e-18
6892.49090 7.93982e-18
6893.67314 7.95837e-18
6894.85538 8.06541e-18
6896.03762 7.95891e-18
6897.21987 7.82973e-18
6898.40211 8.17535e-18
6899.58435 8.19971e-18
6900.76659 7.96472e-18
6901.94883 7.83595e-18
6903.13108 7.92838e-18
6904.31332 7.81165e-18
6905.49556 7.81454e-18
6906.66778 8.28363e-18
6907.85002 8.10994e-18
6909.03227 7.88520e-18
6910.21451 8.03191e-18
6911.39675 8.56690e-18
6912.57899 9.14917e-18
6913.76123 9.31167e-18
6914.94348 8.88879e-18
6916.12572 8.50847e-18
6917.30796 8.33690e-18
6918.49020 8.14151e-18
6919.67245 8.30085e-18
6920.85469 8.62584e-18
6922.02691 8.67446e-18
6923.20915 8.65202e-18
6924.39139 8.57218e-18
6925.57364 8.65555e-18
6926.75588 9.01072e-18
6927.93812 8.89994e-18
6929.12036 8.61359e-18
6930.30260 8.41622e-18
6931.48485 8.35569e-18
6932.66709 8.73953e-18
6933.84933 8.96284e-18
6935.03157 8.92825e-18
6936.21381 8.92057e-18
6937.38604 9.26557e-18
6938.56828 9.24779e-18
6939.75052 9.01366e-18
6940.93276 9.11098e-18
6942.11500 9.36922e-18
6943.29725 9.57745e-18
6944.47949 9.56278e-18
6945.66173 9.45432e-18
6946.84397 9.41369e-18
6948.02622 9.25901e-18
6949.20846 9.24170e-18
6950.39070 9.67210e-18
6951.57294 9.60192e-18
6952.74516 9.52779e-18
6953.92741 9.81498e-18
6955.10965 9.48974e-18
6956.29189 9.61840e-18
6957.47413 9.76097e-18
6958.65637 9.65149e-18
6959.83862 1.01101e-17
6961.02086 9.42189e-18
6962.20310 9.46130e-18
6963.38534 9.46630e-18
6964.56758 9.83545e-18
6965.74983 9.53635e-18
6966.92205 9.62519e-18
6968.10429 9.71647e-18
6969.28653 9.90212e-18
6970.46878 9.87161e-18
6971.65102 9.75639e-18
6972.83326 9.82108e-18
6974.01550 1.02967e-17
6975.19774 1.00291e-17
6976.37998 1.02238e-17
6977.56223 1.01049e-17
6978.74447 9.85486e-18
6979.92671 9.92371e-18
6981.10895 1.02863e-17
6982.28118 1.00658e-17
6983.46342 1.01917e-17
6984.64566 1.02904e-17
6985.82790 9.98115e-18
6987.01014 1.01324e-17
6988.19239 9.88839e-18
6989.37463 9.80722e-18
6990.55687 1.00413e-17
6991.73911 9.82781e-18
6992.92135 9.80186e-18
6994.10360 9.89938e-18
6995.28584 9.88050e-18
6996.46808 9.86242e-18
6997.65032 9.82394e-18
6998.82254 9.87015e-18
7000.00479 9.86663e-18
7001.18703 9.79608e-18
7002.36927 9.76270e-18
7003.55151 9.99927e-18
7004.73376 1.01633e-17
7005.91600 9.87978e-18
7007.09824 9.90947e-18
7008.28048 9.99363e-18
7009.46272 1.00016e-17
7010.64497 1.01091e-17
7011.82721 1.01316e-17
7012.99943 1.02898e-17
7014.18167 1.02569e-17
7015.36391 1.01109e-17
7016.54616 1.02974e-17
7017.72840 1.00312e-17
7018.91064 1.01837e-17
7020.09288 9.88609e-18
7021.27512 1.01522e-17
7022.45737 1.00869e-17
7023.63961 1.01936e-17
7024.82185 1.04123e-17
7026.00409 1.02035e-17
7027.18633 1.04535e-17
7028.35856 1.00239e-17
7029.54080 1.03191e-17
7030.72304 1.03582e-17
7031.90528 1.01726e-17
7033.08752 1.04666e-17
7034.26977 1.04347e-17
7035.45201 1.03777e-17
7036.63425 1.03058e-17
7037.81649 1.06102e-17
7038.99874 1.07026e-17
7040.18098 1.06916e-17
7041.36322 1.07014e-17
7042.54546 1.07077e-17
7043.71768 1.06915e-17
7044.89993 1.07061e-17
7046.08217 1.08071e-17
7047.26441 1.06708e-17
7048.44665 1.03001e-17
7049.62889 1.02930e-17
7050.81114 1.01475e-17
7051.99338 1.02494e-17
7053.17562 1.02247e-17
7054.35786 1.02397e-17
7055.54010 1.03106e-17
7056.72235 1.05754e-17
7057.90459 1.08070e-17
7059.07681 1.02019e-17
7060.25905 1.02115e-17
7061.44130 1.05277e-17
7062.62354 1.02412e-17
7063.80578 1.01495e-17
7064.98802 1.01983e-17
7066.17026 1.04187e-17
7067.35250 1.03751e-17
7068.53475 1.00491e-17
7069.71699 1.00748e-17
7070.89923 9.96137e-18
7072.08147 9.93535e-18
7073.26372 1.00914e-17
7074.43594 9.83685e-18
7075.61818 9.86515e-18
7076.80042 9.87514e-18
7077.98266 9.88668e-18
7079.16491 9.78829e-18
7080.34715 9.90797e-18
7081.52939 9.62587e-18
7082.71163 9.85363e-18
7083.89387 9.73235e-18
7085.07612 9.65369e-18
7086.25836 9.75505e-18
7087.44060 9.41167e-18
7088.62284 9.36044e-18
7089.79507 9.42135e-18
7090.97731 9.44258e-18
7092.15955 9.43359e-18
7093.34179 9.94579e-18
7094.52403 9.90924e-18
7095.70628 9.34622e-18
7096.88852 9.28750e-18
7098.07076 9.60133e-18
7099.25300 9.44056e-18
7100.43524 9.48426e-18
7101.61748 9.19117e-18
7102.79973 9.42467e-18
7103.98197 9.41252e-18
7105.15419 9.33337e-18
7106.33643 9.45566e-18
7107.51868 9.29579e-18
7108.70092 9.36297e-18
7109.88316 9.46753e-18
7111.06540 9.15501e-18
7112.24764 9.15051e-18
7113.42989 9.43068e-18
7114.61213 9.27072e-18
7115.79437 9.08450e-18
7116.97661 9.22555e-18
7118.15885 9.15718e-18
7119.33108 9.10226e-18
7120.51332 9.26174e-18
7121.69556 9.01685e-18
7122.87780 8.99880e-18
7124.06005 9.26219e-18
7125.24229 9.18008e-18
7126.42453 9.01654e-18
7127.60677 8.92350e-18
7128.78901 9.21732e-18
7129.97125 9.17849e-18
7131.15350 8.79899e-18
7132.33574 8.79110e-18
7133.51798 8.81760e-18
7134.70022 8.99911e-18
7135.87245 9.07282e-18
7137.05469 9.22270e-18
7138.23693 9.16454e-18
7139.41917 9.25253e-18
7140.60141 8.85727e-18
7141.78366 9.09981e-18
7142.96590 9.10244e-18
7144.14814 9.14261e-18
7145.33038 8.95424e-18
7146.51262 8.84728e-18
7147.69487 8.66968e-18
7148.87711 9.01474e-18
7149.32001 9.01474e-18
7153.59771 8.81561e-18
7157.88559 8.81139e-18
7162.17348 8.90737e-18
7166.45118 8.88078e-18
7170.73906 8.71983e-18
7175.02695 8.57054e-18
7179.31483 8.54988e-18
7183.59253 8.64355e-18
7187.88042 8.66100e-18
7192.16830 8.52098e-18
7196.44600 8.43413e-18
7200.73389 8.47469e-18
7205.02177 8.59501e-18
7209.29947 8.60892e-18
7213.58736 8.57061e-18
7217.87525 8.57313e-18
7222.16313 8.48069e-18
7226.44083 8.38559e-18
7230.72872 8.36078e-18
7235.01660 8.35369e-18
7239.29430 8.44940e-18
7243.58219 8.53843e-18
7247.87007 8.46181e-18
7252.15795 8.35601e-18
7256.43566 8.27529e-18
7260.72354 8.22219e-18
7265.01142 8.26425e-18
7269.28912 8.26650e-18
7273.57701 8.10943e-18
7277.86489 8.04024e-18
7282.15278 8.07569e-18
7286.43048 8.08087e-18
7290.71836 8.04304e-18
7295.00625 7.99136e-18
7299.28395 8.03608e-18
7303.57183 8.13166e-18
7307.85972 8.04235e-18
7312.13742 7.88754e-18
7316.42530 7.89988e-18
7320.71319 8.06628e-18
7325.00107 8.13868e-18
7329.27877 8.06969e-18
7333.56666 8.05606e-18
7337.85454 8.11448e-18
7342.13224 8.19949e-18
7346.42013 8.27748e-18
7350.70801 8.30352e-18
7354.99590 8.25996e-18
7359.27360 8.23098e-18
7363.56149 8.23303e-18
7367.84937 8.22928e-18
7372.12707 8.23507e-18
7376.41496 8.19608e-18
7380.70284 8.18395e-18
7384.98054 8.24789e-18
7389.26843 8.32472e-18
7393.55631 8.33808e-18
7397.84419 8.25225e-18
7402.12190 8.25259e-18
7406.40978 8.26200e-18
7410.69766 8.16908e-18
7414.97536 8.12021e-18
7419.26325 8.13602e-18
7423.55113 8.13070e-18
7427.83902 8.06587e-18
7432.11672 7.99286e-18
7436.40460 7.89586e-18
7440.69249 7.82646e-18
7444.97019 7.81214e-18
7449.25807 7.86729e-18
7453.54596 7.96041e-18
7457.82366 8.04358e-18
7462.11154 8.00895e-18
7466.39943 7.83450e-18
7470.68731 7.71220e-18
7474.96501 7.68057e-18
7479.25290 7.66769e-18
7483.54078 7.72707e-18
7487.81848 7.64253e-18
7492.10637 7.51137e-18
7496.39425 7.55875e-18
7500.68214 7.64049e-18
7504.95984 7.67280e-18
7509.24773 7.66980e-18
7513.53561 7.69905e-18
7517.81331 7.69687e-18
7522.10120 7.67778e-18
7526.38908 7.71357e-18
7530.66678 7.70696e-18
7534.95467 7.66251e-18
7539.24255 7.66285e-18
7543.53043 7.64601e-18
7547.80813 7.63135e-18
7552.09602 7.60163e-18
7556.38390 7.57198e-18
7560.66160 7.54226e-18
7564.94949 7.51260e-18
7569.23737 7.48288e-18
7573.52526 7.45322e-18
7577.80296 7.42357e-18
7582.09084 7.39392e-18
7586.37873 7.36426e-18
7590.65643 7.33461e-18
7594.94431 7.30495e-18
7599.23220 7.27537e-18
7603.50990 7.24571e-18
7607.79778 7.21613e-18
7612.08567 7.18647e-18
7616.37355 7.15689e-18
7620.65125 7.12730e-18
7624.93914 7.09772e-18
7629.22702 7.06813e-18
7633.50472 7.03861e-18
7637.79261 7.00903e-18
7642.08050 6.97951e-18
7646.36838 6.94992e-18
7650.64608 6.92040e-18
7654.93397 6.89089e-18
7659.22185 6.86137e-18
7663.49955 6.83185e-18
7667.78744 6.80234e-18
7672.07532 6.77284e-18
7676.35302 6.74336e-18
7680.64091 6.71387e-18
7684.92879 6.53791e-18
7689.21667 6.54686e-18
7693.49437 6.61213e-18
7697.78226 6.65990e-18
7702.07014 6.72850e-18
7706.34784 6.67533e-18
7710.63573 6.59419e-18
7714.92361 6.64178e-18
7719.21150 6.70740e-18
7723.48920 6.74732e-18
7727.77708 6.68015e-18
7732.06497 6.54645e-18
7736.34267 6.51449e-18
7740.63055 6.42556e-18
7744.91844 6.23052e-18
7749.20632 6.12559e-18
7753.48402 6.17278e-18
7757.77191 6.30727e-18
7762.05979 6.40933e-18
7766.33749 6.39585e-18
7770.62538 6.38529e-18
7774.91326 6.31645e-18
7779.19096 6.24374e-18
7783.47885 6.28637e-18
7787.76674 6.29632e-18
7792.05462 6.28294e-18
7796.33232 6.36475e-18
7800.62021 6.42684e-18
7804.90809 6.44287e-18
7809.18579 6.57151e-18
7813.47368 6.73493e-18
7817.76156 6.78874e-18
7822.03926 6.76375e-18
7826.32715 6.73290e-18
7830.61503 6.80548e-18
7834.90291 6.96703e-18
7839.18061 7.06022e-18
7843.46850 6.99376e-18
7847.75638 6.87384e-18
7852.03408 6.86157e-18
7856.32197 7.02777e-18
7860.60985 7.05838e-18
7864.89774 6.94604e-18
7869.17544 6.89327e-18
7873.46332 6.91331e-18
7877.75121 6.98053e-18
7882.02891 6.96935e-18
7886.31679 6.92456e-18
7890.60468 6.97964e-18
7894.88238 7.04441e-18
7899.17026 7.07522e-18
7903.45815 7.05470e-18
7907.74603 6.91400e-18
7912.02373 6.73668e-18
7916.31162 6.76992e-18
7920.59950 6.84289e-18
7924.87720 6.84078e-18
7929.16509 6.93499e-18
7933.45298 6.93786e-18
7937.74086 6.88496e-18
7942.01856 6.92886e-18
7946.30645 6.93077e-18
7950.59433 6.97576e-18
7954.87203 7.03091e-18
7959.15992 6.91754e-18
7963.44780 6.84358e-18
7967.73568 6.90541e-18
7972.01338 6.92027e-18
7976.30127 6.99907e-18
7980.58915 7.04345e-18
7984.86685 6.90343e-18
7989.15474 6.87841e-18
7993.44262 6.90554e-18
7997.72032 6.82878e-18
8002.00821 6.83676e-18
8006.29609 6.84678e-18
8010.58398 6.67978e-18
8014.86168 6.66765e-18
8019.14956 6.67749e-18
8023.43745 6.65417e-18
8027.71515 6.68770e-18
8032.00303 6.64374e-18
8036.29092 6.57389e-18
8040.57880 6.46992e-18
8044.85650 6.42112e-18
8049.14439 6.40605e-18
8053.43227 6.45352e-18
8057.70997 6.63993e-18
8061.99786 6.63438e-18
8066.28575 6.48203e-18
8070.56344 6.57550e-18
8074.85133 6.72088e-18
8079.13922 6.64407e-18
8083.42710 6.44695e-18
8087.70480 6.41932e-18
8091.99269 6.36613e-18
8096.28057 6.26172e-18
8100.55827 6.29743e-18
8104.84616 6.29463e-18
8109.13404 6.29370e-18
8113.42192 6.31131e-18
8117.69962 6.28458e-18
8121.98751 6.21730e-18
8126.27539 6.17818e-18
8130.55309 6.12776e-18
8134.84098 6.06655e-18
8139.12886 6.18124e-18
8143.40656 6.26445e-18
8147.69445 6.15222e-18
8151.98233 6.13310e-18
8156.27022 6.23817e-18
8160.54792 6.26175e-18
8164.83580 6.23552e-18
8169.12369 6.16178e-18
8173.40139 6.06844e-18
8177.68927 5.97104e-18
8181.97716 5.95152e-18
8186.26504 6.13438e-18
8190.54274 6.27255e-18
8194.83063 6.26934e-18
8199.11852 6.16329e-18
8203.39622 6.08405e-18
8207.68410 6.10898e-18
8211.97199 6.08909e-18
8216.25987 6.06518e-18
8220.53757 6.06244e-18
8224.82546 5.98885e-18
8229.11334 5.94526e-18
8233.39104 5.99052e-18
8237.67893 5.97480e-18
8241.96681 6.01020e-18
8246.24451 6.09765e-18
8250.53240 6.06510e-18
8254.82028 5.99638e-18
8259.10816 5.93141e-18
8263.38587 5.91082e-18
8267.67375 5.96206e-18
8271.96163 5.94591e-18
8276.23934 5.86875e-18
8280.52722 5.81564e-18
8284.81510 5.73016e-18
8289.10299 5.65592e-18
8293.38069 5.73816e-18
8297.66857 5.86766e-18
8301.95646 5.79551e-18
8306.23416 5.73011e-18
8310.52204 5.78294e-18
8314.80993 5.76142e-18
8319.08763 5.65896e-18
8323.37551 5.58952e-18
8327.66340 5.60653e-18
8331.94110 5.64287e-18
8336.22898 5.62778e-18
8340.51687 5.66442e-18
8344.80475 5.55771e-18
8349.08245 5.26348e-18
8353.37034 5.29586e-18
8357.65822 5.41453e-18
8361.93592 5.28025e-18
8366.22381 5.12825e-18
8370.51169 5.05950e-18
8374.79958 5.01922e-18
8379.07728 5.04235e-18
8383.36516 4.99683e-18
8387.65305 4.83087e-18
8391.93075 4.73076e-18
8396.21863 4.62899e-18
8400.50652 4.49848e-18
8404.79440 4.33025e-18
8409.07210 4.25012e-18
8413.35999 4.20381e-18
8417.64788 4.09728e-18
8421.92558 4.03662e-18
8426.21346 4.02209e-18
8430.50135 4.09207e-18
8434.78923 4.11013e-18
8439.06693 4.01388e-18
8443.35481 4.02822e-18
8447.64270 4.13408e-18
8451.92040 4.18397e-18
8456.20829 4.12154e-18
8460.49617 4.04819e-18
8464.77387 3.90585e-18
8469.06175 3.89457e-18
8473.34964 4.00437e-18
8477.63753 3.98966e-18
8481.91523 3.97301e-18
8486.20311 3.98007e-18
8490.49100 4.00259e-18
8494.76869 4.03118e-18
8499.05658 4.11877e-18
8503.34446 4.25808e-18
8507.63235 4.24637e-18
8511.91005 4.13663e-18
8516.19794 4.16165e-18
8520.48582 4.13245e-18
8524.76352 4.08813e-18
8529.05140 4.12486e-18
8533.33929 4.20555e-18
8537.61699 4.20438e-18
8541.90488 4.09677e-18
8546.19276 4.10718e-18
8550.48064 4.21188e-18
8554.75835 4.33015e-18
8559.04623 4.37888e-18
8563.33411 4.27607e-18
8567.61182 4.19436e-18
8571.89970 4.21951e-18
8576.18758 4.32123e-18
8580.47547 4.42698e-18
8584.75317 4.40578e-18
8589.04105 4.35168e-18
8593.32894 4.37018e-18
8597.60664 4.42120e-18
8601.89452 4.49247e-18
8606.18241 4.53957e-18
8610.46011 4.57472e-18
8614.74799 4.54576e-18
8619.03588 4.41891e-18
8623.32377 4.39927e-18
8627.60146 4.48338e-18
8631.88935 4.62456e-18
8636.17723 4.73708e-18
8640.45493 4.60777e-18
8644.74282 4.58206e-18
8649.03070 4.80193e-18
8653.31859 4.81739e-18
8657.59629 4.76344e-18
8661.88417 4.89493e-18
8666.17206 4.95184e-18
8670.44976 4.84936e-18
8674.73764 4.89609e-18
8679.02553 5.14650e-18
8683.30323 5.28414e-18
8687.59112 5.48019e-18
8691.87900 5.60108e-18
8696.16688 5.47913e-18
8700.44458 5.58443e-18
8704.73247 5.64643e-18
8709.02035 5.54936e-18
8713.29806 5.58017e-18
8717.58594 5.76333e-18
8721.87383 5.86840e-18
8726.16171 5.88362e-18
8730.43941 5.82603e-18
8734.72729 5.99257e-18
8739.01518 6.23286e-18
8743.29288 6.16687e-18
8747.58077 6.03922e-18
8751.86865 6.09614e-18
8756.15654 6.24646e-18
8760.43423 6.20106e-18
8764.72212 6.16729e-18
8769.01001 6.12864e-18
8773.28771 6.08730e-18
8777.57559 6.14230e-18
8781.86348 6.07451e-18
8786.14117 6.01084e-18
8790.42906 6.11451e-18
8794.71694 6.19795e-18
8798.99464 6.15910e-18
8803.28253 6.13504e-18
8807.57042 6.16089e-18
8811.85830 6.11731e-18
8816.13600 6.07721e-18
8820.42388 6.04702e-18
8824.71177 5.97711e-18
8828.98947 6.04648e-18
8833.27736 6.10891e-18
8837.56524 6.00668e-18
8841.85312 5.98907e-18
8846.13083 6.00793e-18
8850.41871 5.84919e-18
8854.70659 5.68908e-18
8858.98430 5.78303e-18
8863.27218 5.87582e-18
8867.56006 5.86067e-18
8871.84795 5.86570e-18
8876.12565 5.69100e-18
8880.41353 5.57633e-18
8884.70142 5.57973e-18
8888.97912 5.55204e-18
8893.26700 5.87382e-18
8897.55489 6.24578e-18
8901.84277 6.18307e-18
8906.12047 5.86801e-18
8910.40836 5.79832e-18
8914.69625 5.89322e-18
8918.97394 5.96244e-18
8923.26183 5.81083e-18
8927.54971 5.53850e-18
8931.82741 5.56935e-18
8936.11530 5.71481e-18
8940.40318 5.62283e-18
8944.69107 5.62997e-18
8948.96877 5.57788e-18
8953.25665 5.28867e-18
8957.54454 5.22941e-18
8961.82224 5.38682e-18
8966.11012 5.43129e-18
8970.39801 5.36127e-18
8974.68590 5.33573e-18
8978.96360 5.47303e-18
8983.25148 5.66819e-18
8987.53937 5.60776e-18
8991.81706 5.42139e-18
8996.10495 5.31069e-18
9000.39283 5.23204e-18
9004.68072 5.27587e-18
9008.95842 5.37309e-18
9013.24631 5.34769e-18
9017.53419 5.24429e-18
9021.81189 5.07141e-18
9026.09977 4.89769e-18
9030.38766 4.92944e-18
9034.66536 4.99328e-18
9038.95325 4.93595e-18
9043.24113 4.82966e-18
9047.51883 4.72441e-18
9051.80671 4.79048e-18
9056.09460 4.75988e-18
9060.38248 4.68313e-18
9064.66019 4.73450e-18
9068.94807 4.78318e-18
9073.23596 4.65233e-18
9077.51365 4.44780e-18
9081.80154 4.39132e-18
9086.08942 4.39185e-18
9090.37731 4.35117e-18
9094.65501 4.38358e-18
9098.94290 4.52582e-18
9103.23078 4.55721e-18
9107.50848 4.52055e-18
9111.79637 4.50539e-18
9116.08425 4.44261e-18
9120.37213 4.42164e-18
9124.64984 4.44790e-18
9128.93772 4.38446e-18
9133.22560 4.27005e-18
9137.50331 4.22294e-18
9141.79119 4.31850e-18
9146.07907 4.48925e-18
9150.36696 4.57897e-18
9154.64466 4.52916e-18
9158.93254 4.36960e-18
9163.22043 4.28273e-18
9167.49813 4.45810e-18
9171.78601 4.62902e-18
9176.07390 4.46884e-18
9180.35160 4.23129e-18
9184.63948 4.25109e-18
9188.92737 4.35592e-18
9193.21525 4.35953e-18
9197.49295 4.37169e-18
9201.78084 4.36264e-18
9206.06872 4.32914e-18
9210.34642 4.27402e-18
9214.63431 4.11631e-18
9218.92219 4.02586e-18
9223.19989 4.23677e-18
9227.48778 4.45668e-18
9231.77566 4.49736e-18
9236.06355 4.37515e-18
9240.34125 4.33133e-18
9244.62913 4.33659e-18
9248.91702 4.19304e-18
9253.19472 4.19726e-18
9257.48260 4.23011e-18
9261.77049 4.32193e-18
9266.05838 4.49997e-18
9270.33608 4.29775e-18
9274.62396 4.07235e-18
9278.91185 4.13302e-18
9283.18954 4.24999e-18
9287.47743 4.25913e-18
9291.76531 4.35095e-18
9296.04301 4.37961e-18
9300.33090 4.23709e-18
9304.61879 4.32081e-18
9308.90667 4.43630e-18
9313.18437 4.39160e-18
9317.47225 4.49525e-18
9321.76014 4.57625e-18
9326.03784 4.51546e-18
9330.32573 4.66263e-18
9334.61361 4.74620e-18
9338.90150 4.43811e-18
9343.17919 4.30790e-18
9347.46708 4.42154e-18
9351.75496 4.29555e-18
9356.03267 4.11114e-18
9360.32055 4.19563e-18
9364.60844 4.49528e-18
9368.88613 4.51550e-18
9373.17402 4.29913e-18
9377.46190 3.95561e-18
9381.74979 3.91825e-18
9386.02749 4.11157e-18
9390.31538 4.06246e-18
9394.60326 3.94347e-18
9398.89114 3.89900e-18
9403.16885 3.95683e-18
9407.45673 4.09854e-18
9411.74462 3.99794e-18
9416.02232 3.77560e-18
9420.31020 3.81236e-18
9424.59808 4.16201e-18
9428.87579 4.25690e-18
9433.16367 3.99145e-18
9437.45155 3.82228e-18
9441.73944 3.72102e-18
9446.01714 3.69864e-18
9450.30502 3.90327e-18
9454.59291 3.96560e-18
9458.87061 3.75310e-18
9463.15849 3.71736e-18
9467.44638 4.07915e-18
9471.72408 4.24735e-18
9476.01196 3.98192e-18
9480.29985 3.71153e-18
9484.58773 3.62247e-18
9488.86543 3.83090e-18
9493.15332 3.91246e-18
9497.44120 3.69449e-18
9501.71890 3.65216e-18
9506.00679 3.85146e-18
9510.29467 4.24159e-18
9514.57237 4.15269e-18
9518.86026 3.74076e-18
9523.14814 3.82894e-18
9527.43603 4.20960e-18
9531.71373 4.25918e-18
9536.00162 4.18061e-18
9540.28950 4.07375e-18
9544.56720 3.95963e-18
9548.85508 3.80099e-18
9553.14297 3.71883e-18
9557.43085 3.84535e-18
9561.70856 3.72373e-18
9565.99644 3.79108e-18
9570.28433 3.88289e-18
9574.56202 3.82429e-18
9578.84991 3.86113e-18
9583.13779 3.86020e-18
9587.42568 3.75779e-18
9591.70338 3.67593e-18
9595.99127 3.71410e-18
9600.27915 3.80103e-18
9604.55685 3.95650e-18
9608.84473 4.05700e-18
9613.13262 4.14171e-18
9617.41032 4.24175e-18
9621.69821 4.12814e-18
9625.98609 3.98940e-18
9630.27398 3.94607e-18
9634.55167 3.93988e-18
9638.83956 3.82249e-18
9643.12744 3.65767e-18
9647.40514 3.59193e-18
9651.69303 3.36946e-18
9655.98092 3.27245e-18
9660.26880 3.45259e-18
9664.54650 3.62490e-18
9668.83438 3.67936e-18
9673.12227 3.85780e-18
9677.39997 3.94245e-18
9681.68786 3.81176e-18
9685.97574 3.61783e-18
9690.26362 3.65176e-18
9694.54133 4.01865e-18
9698.82921 4.33380e-18
9703.11709 4.31360e-18
9707.39480 3.84822e-18
9711.68268 3.47355e-18
9715.97056 3.44686e-18
9720.24827 3.35508e-18
9724.53615 3.26300e-18
9728.82403 3.14086e-18
9733.11192 2.93202e-18
9737.38962 2.97040e-18
9741.67750 3.34590e-18
9745.96539 3.68621e-18
9750.24309 3.65288e-18
9754.53097 3.45286e-18
9758.81886 3.43582e-18
9763.09656 3.56294e-18
9767.38444 3.57842e-18
9771.67233 3.55917e-18
9775.96021 3.64803e-18
9780.23791 3.54047e-18
9784.52580 3.24789e-18
9788.81368 3.26544e-18
9793.09138 3.25268e-18
9797.37927 3.15446e-18
9801.66715 3.24682e-18
9805.94485 3.41820e-18
9810.23274 3.51801e-18
9814.52062 3.38269e-18
9818.80851 3.15571e-18
9823.08621 3.12117e-18
9827.37410 2.99553e-18
9831.66198 2.93318e-18
9835.94987 3.20429e-18
9840.22756 3.27960e-18
9844.51545 3.19820e-18
9848.80333 3.36962e-18
9853.08104 3.25036e-18
9857.36892 2.78173e-18
9861.65681 2.60013e-18
9865.93450 2.69377e-18
9870.22239 2.71067e-18
9874.51027 2.59827e-18
9878.79816 2.60846e-18
9883.07586 2.80601e-18
9887.36375 2.97620e-18
9891.65163 3.07688e-18
9895.92933 3.02637e-18
9900.21721 2.79443e-18
9904.50510 2.59481e-18
9908.79298 2.50230e-18
9913.07069 2.91062e-18
9917.35857 3.02564e-18
9921.64646 2.67457e-18
9925.92415 2.51997e-18
9930.21204 2.40393e-18
9934.49992 2.22750e-18
9938.77762 2.17052e-18
9943.06551 2.37855e-18
9947.35340 2.51117e-18
9951.64128 2.48964e-18
9955.91898 2.23276e-18
9960.20687 2.04931e-18
9964.49475 2.23728e-18
9968.77245 2.65080e-18
9973.06034 2.94296e-18
9977.34822 2.90022e-18
9981.63610 2.93398e-18
9985.91381 3.13345e-18
9990.20169 3.26918e-18
9994.48957 3.28465e-18
9998.76728 3.32642e-18
