# wavelength flux
3492.12020 1.41995e-18
3493.58691 2.65281e-18
3495.05363 2.70238e-18
3496.52035 3.02802e-18
3497.98706 7.41419e-18
3499.45378 9.00543e-18
3500.92049 2.31494e-18
3502.38721 -5.21445e-19
3503.85393 3.54532e-18
3505.32064 5.08023e-18
3506.77731 -1.40358e-19
3508.24403 -1.50967e-18
3509.71074 -7.85427e-19
3511.17746 -9.70151e-20
3512.64418 -7.08865e-19
3514.11089 5.60434e-18
3515.57761 7.00065e-18
3517.04432 2.52211e-18
3518.51104 3.21299e-18
3519.97776 5.89656e-18
3521.44447 1.68332e-18
3522.91119 -2.41343e-18
3524.37790 3.64753e-19
3525.84462 2.34435e-18
3527.31134 2.53865e-18
3528.77805 4.84375e-18
3530.24477 4.08249e-18
3531.71148 2.57935e-18
3533.17820 3.66490e-18
3534.64492 -1.33291e-18
3536.11163 4.97012e-18
3537.57835 1.04401e-17
3539.04506 1.19604e-18
3540.51178 4.38758e-18
3541.97850 5.31932e-18
3543.44521 8.97342e-19
3544.91193 -3.01265e-19
3546.37864 1.02975e-18
3547.84536 6.03214e-18
3549.31208 2.38694e-18
3550.77879 2.35045e-18
3552.24551 4.17640e-18
3553.71222 2.38594e-18
3555.17894 7.73400e-18
3556.64566 9.34045e-18
3558.11237 5.10374e-18
3559.57909 6.32462e-18
3561.04580 3.89459e-18
3562.51252 2.24390e-18
3563.97924 2.15458e-18
3565.44595 2.78419e-18
3566.91267 4.82631e-18
3568.37938 2.50963e-18
3569.84610 7.29558e-19
3571.31282 3.61022e-18
3572.77953 2.79787e-18
3574.24625 -3.50518e-18
3575.70292 3.95820e-19
3577.16963 2.56025e-18
3578.63635 3.75935e-20
3580.10307 1.18724e-18
3581.56978 1.61230e-18
3583.03650 2.00143e-18
3584.50321 1.37310e-18
3585.96993 5.30612e-19
3587.43665 2.10010e-18
3588.90336 3.18205e-18
3590.37008 3.19306e-18
3591.83679 2.08357e-18
3593.30351 2.10631e-18
3594.77023 2.00826e-18
3596.23694 2.47527e-18
3597.70366 1.75530e-18
3599.17037 1.52175e-18
3600.63709 2.51051e-18
3602.10381 7.43225e-19
3603.57052 3.42940e-18
3605.03724 7.75265e-18
3606.50395 7.53111e-18
3607.97067 3.18884e-18
3609.43739 4.60250e-18
3610.90410 8.13546e-19
3612.37082 -5.36923e-18
3613.83753 -1.10632e-18
3615.30425 1.22873e-18
3616.77097 3.14875e-18
3618.23768 2.71250e-18
3619.70440 1.93043e-18
3621.17111 3.73659e-18
3622.63783 4.02167e-18
3624.10455 3.11988e-18
3625.57126 4.17681e-18
3627.03798 2.60050e-18
3628.50469 2.00561e-18
3629.97141 6.56556e-18
3631.43813 7.47821e-18
3632.90484 4.46334e-18
3634.37156 1.42642e-18
3635.83827 1.18999e-18
3637.30499 -4.91943e-20
3638.77171 -9.65267e-19
3640.23842 1.22302e-18
3641.69509 5.32415e-18
3643.16181 5.52177e-18
3644.62852 7.50837e-20
3646.09524 -2.30776e-18
3647.56196 -2.35197e-19
3649.02867 2.43549e-18
3650.49539 4.81856e-18
3651.96210 5.53270e-18
3653.42882 5.93687e-18
3654.89554 2.60313e-18
3656.36225 1.82795e-18
3657.82897 2.45839e-18
3659.29568 1.78612e-18
3660.76240 -8.16437e-19
3662.22912 -2.06373e-18
3663.69583 2.63648e-18
3665.16255 2.73879e-18
3666.62926 2.93762e-18
3668.09598 5.21582e-18
3669.56270 4.31560e-18
3671.02941 9.46663e-19
3672.49613 4.13907e-18
3673.96284 3.86018e-18
3675.42956 2.87551e-18
3676.89628 4.96386e-18
3678.36299 4.62325e-18
3679.82971 3.87471e-18
3681.29642 1.44508e-18
3682.76314 5.67481e-19
3684.22986 1.33136e-18
3685.69657 7.20656e-19
3687.16329 1.88595e-18
3688.63000 4.05571e-18
3690.09672 2.73101e-18
3691.56344 -1.59863e-18
3693.03015 1.04654e-18
3694.49687 3.24188e-18
3695.96358 1.62221e-18
3697.43030 2.19872e-18
3698.89702 3.63020e-18
3700.36373 2.10974e-18
3701.83045 1.26342e-18
3703.29716 3.41546e-18
3704.76388 3.28390e-18
3706.23060 -1.39750e-19
3707.69731 4.87390e-19
3709.15398 3.66826e-18
3710.62070 1.60940e-18
3712.08741 -1.57463e-19
3713.55413 1.93137e-18
3715.02085 3.20305e-18
3716.48756 2.83546e-18
3717.95428 4.55124e-19
3719.42099 -1.69066e-18
3720.88771 1.08540e-18
3722.35443 2.26213e-18
3723.82114 3.62685e-19
3725.28786 4.28161e-19
3726.75457 4.93633e-19
3728.22129 4.53111e-19
3729.68801 4.12586e-19
3731.15472 3.72063e-19
3732.62144 3.31550e-19
3734.08815 2.91039e-19
3735.55487 2.50531e-19
3737.02159 2.10026e-19
3738.48830 1.69523e-19
3739.95502 1.29023e-19
3741.42173 8.85123e-20
3742.88845 4.80177e-20
3744.35517 7.52568e-21
3745.82188 -3.29637e-20
3747.28860 -7.34504e-20
3748.75531 -1.13935e-19
3750.22203 -1.54416e-19
3751.68875 -1.94902e-19
3753.15546 -2.35385e-19
3754.62218 -2.75859e-19
3756.08889 -3.16330e-19
3757.55561 -3.56799e-19
3759.02233 -3.97265e-19
3760.48904 -4.37735e-19
3761.95576 -4.78196e-19
3763.42247 -5.18655e-19
3764.88919 -5.59111e-19
3766.35591 1.25633e-18
3767.82262 3.29210e-18
3769.28934 2.14127e-18
3770.75605 1.72960e-18
3772.22277 2.02189e-18
3773.68949 1.10192e-18
3775.14616 1.79383e-18
3776.61287 2.94077e-18
3778.07959 1.00231e-18
3779.54630 1.25546e-18
3781.01302 1.08717e-18
3782.47974 -1.21150e-20
3783.94645 2.37111e-18
3785.41317 3.20885e-18
3786.87988 7.24443e-20
3788.34660 -5.96925e-20
3789.81332 8.57787e-19
3791.28003 6.85415e-19
3792.74675 8.78921e-20
3794.21346 -7.98277e-19
3795.68018 1.38103e-18
3797.14690 3.03721e-18
3798.61361 2.46389e-18
3800.08033 1.88472e-18
3801.54704 2.46265e-18
3803.01376 2.78374e-18
3804.48048 1.46825e-18
3805.94719 2.56148e-18
3807.41391 2.86419e-18
3808.88062 1.04930e-18
3810.34734 9.16263e-20
3811.81406 8.26976e-19
3813.28077 2.87527e-18
3814.74749 3.75808e-18
3816.21420 1.33174e-18
3817.68092 8.27250e-19
3819.14764 8.83218e-19
3820.61435 5.39904e-19
3822.08107 2.07585e-18
3823.54778 1.58032e-18
3825.01450 6.07979e-19
3826.48122 2.37281e-18
3827.94793 2.73207e-18
3829.41465 2.48793e-18
3830.88136 2.40604e-18
3832.34808 3.68541e-18
3833.81480 3.08820e-18
3835.28151 2.37654e-18
3836.74823 2.08823e-18
3838.21494 7.42246e-19
3839.68166 2.27525e-18
3841.14838 1.48727e-18
3842.61509 1.66378e-18
3844.07176 1.97263e-18
3845.53848 2.36596e-18
3847.00519 2.60135e-18
3848.47191 8.06825e-19
3849.93863 -8.58956e-19
3851.40534 1.49130e-18
3852.87206 2.43603e-18
3854.33877 1.01385e-18
3855.80549 3.03860e-18
3857.27221 3.92081e-18
3858.73892 1.62155e-18
3860.20564 1.83436e-18
3861.67235 3.82690e-18
3863.13907 4.43256e-18
3864.60579 3.91410e-18
3866.07250 2.64396e-18
3867.53922 2.16621e-18
3869.00593 2.98176e-18
3870.47265 2.17436e-18
3871.93937 1.88149e-18
3873.40608 3.15510e-18
3874.87280 3.85112e-18
3876.33951 3.17623e-18
3877.80623 3.80721e-18
3879.27295 3.84456e-18
3880.73966 3.27087e-18
3882.20638 1.97184e-18
3883.67309 1.21387e-18
3885.13981 3.15163e-18
3886.60653 4.30256e-18
3888.07324 3.92427e-18
3889.53996 3.88615e-18
3891.00667 3.74248e-18
3892.47339 3.95386e-18
3893.94011 4.77701e-18
3895.40682 4.96311e-18
3896.87354 5.61720e-18
3898.34025 5.08192e-18
3899.80697 3.07759e-18
3901.27369 2.81027e-18
3902.74040 4.04504e-18
3904.20712 5.97831e-18
3905.67383 6.60990e-18
3907.14055 4.79025e-18
3908.60727 3.97167e-18
3910.06394 4.44492e-18
3911.53065 4.18730e-18
3912.99737 4.80316e-18
3914.46408 5.49698e-18
3915.93080 5.45781e-18
3917.39752 5.20259e-18
3918.86423 4.98847e-18
3920.33095 3.84563e-18
3921.79766 3.73410e-18
3923.26438 4.26088e-18
3924.73110 3.85664e-18
3926.19781 5.27078e-18
3927.66453 4.41715e-18
3929.13124 4.12043e-18
3930.59796 5.65444e-18
3932.06468 5.89873e-18
3933.53139 5.75483e-18
3934.99811 6.44798e-18
3936.46482 5.66943e-18
3937.93154 6.19217e-18
3939.39826 5.45634e-18
3940.86497 5.02793e-18
3942.33169 6.06720e-18
3943.79840 5.51067e-18
3945.26512 5.65823e-18
3946.73184 5.40543e-18
3948.19855 4.53475e-18
3949.66527 4.84567e-18
3951.13198 5.33592e-18
3952.59870 5.24213e-18
3954.06542 5.94545e-18
3955.53213 5.66430e-18
3956.99885 4.11494e-18
3958.46556 4.84901e-18
3959.93228 6.26455e-18
3961.39900 6.21546e-18
3962.86571 6.33537e-18
3964.33243 5.45210e-18
3965.79914 6.74745e-18
3967.26586 6.85089e-18
3968.73258 5.61237e-18
3970.19929 6.07295e-18
3971.66601 6.24533e-18
3973.13272 6.36729e-18
3974.59944 7.05411e-18
3976.06616 5.68124e-18
3977.52283 4.83562e-18
3978.98954 5.93188e-18
3980.45626 5.43344e-18
3981.92297 5.07056e-18
3983.38969 4.61440e-18
3984.85641 4.66629e-18
3986.32312 5.34350e-18
3987.78984 6.07977e-18
3989.25655 5.71234e-18
3990.72327 5.01330e-18
3992.18999 5.72962e-18
3993.65670 6.84507e-18
3995.12342 6.52463e-18
3996.59013 5.21530e-18
3998.05685 5.42927e-18
3999.52357 6.37727e-18
4000.99028 6.64173e-18
4002.45700 7.46590e-18
4003.92371 8.05136e-18
4005.39043 6.56504e-18
4006.85715 5.93921e-18
4008.32386 7.20486e-18
4009.79058 6.68781e-18
4011.25729 6.23057e-18
4012.72401 6.26724e-18
4014.19073 6.74174e-18
4015.65744 6.99765e-18
4017.12416 6.42827e-18
4018.59087 6.66145e-18
4020.05759 7.54995e-18
4021.52431 8.13151e-18
4022.99102 7.93027e-18
4024.45774 6.67516e-18
4025.92445 6.78021e-18
4027.39117 7.52933e-18
4028.85789 7.92025e-18
4030.32460 7.81138e-18
4031.79132 5.57967e-18
4033.25803 5.31003e-18
4034.72475 7.23255e-18
4036.19147 6.58347e-18
4037.65818 7.83327e-18
4039.12490 7.07578e-18
4040.59161 5.29668e-18
4042.05833 6.98864e-18
4043.52505 5.88436e-18
4044.98172 3.82240e-18
4046.44843 4.80994e-18
4047.91515 6.19241e-18
4049.38186 6.10566e-18
4050.84858 7.02041e-18
4052.31530 6.04216e-18
4053.78201 5.08852e-18
4055.24873 4.98268e-18
4056.71544 5.36303e-18
4058.18216 5.44946e-18
4059.64888 6.39944e-18
4061.11559 6.06779e-18
4062.58231 5.45420e-18
4064.04902 5.03685e-18
4065.51574 5.70381e-18
4066.98246 4.77341e-18
4068.44917 4.76955e-18
4069.91589 5.10594e-18
4071.38260 3.80462e-18
4072.84932 5.41076e-18
4074.31604 5.62754e-18
4075.78275 5.24468e-18
4077.24947 4.82525e-18
4078.71618 4.69618e-18
4080.18290 4.99712e-18
4081.64962 4.56541e-18
4083.11633 4.92766e-18
4084.58305 6.25841e-18
4086.04976 7.04032e-18
4087.51648 6.30794e-18
4088.98320 5.76306e-18
4090.44991 5.75268e-18
4091.91663 5.74900e-18
4093.38334 6.17663e-18
4094.85006 5.53046e-18
4096.31678 5.21711e-18
4097.78349 5.38481e-18
4099.25021 5.22042e-18
4100.71692 4.68600e-18
4102.18364 5.14971e-18
4103.65036 6.43628e-18
4105.11707 6.63453e-18
4106.58379 5.59213e-18
4108.05050 5.98038e-18
4109.51722 5.90248e-18
4110.97389 4.56866e-18
4112.44061 5.67205e-18
4113.90732 5.81201e-18
4115.37404 4.61413e-18
4116.84075 5.11961e-18
4118.30747 5.39529e-18
4119.77419 5.14081e-18
4121.24090 5.06010e-18
4122.70762 5.22686e-18
4124.17433 4.76385e-18
4125.64105 3.98690e-18
4127.10777 4.33845e-18
4128.57448 6.20222e-18
4130.04120 6.55473e-18
4131.50791 5.28401e-18
4132.97463 3.81945e-18
4134.44135 3.07879e-18
4135.90806 3.88403e-18
4137.37478 4.81995e-18
4138.84149 4.83973e-18
4140.30821 5.67497e-18
4141.77493 6.40200e-18
4143.24164 5.49256e-18
4144.70836 5.62840e-18
4146.17507 4.88998e-18
4147.64179 3.88553e-18
4149.10851 4.87808e-18
4150.57522 5.92234e-18
4152.04194 5.29265e-18
4153.50865 4.36726e-18
4154.97537 5.26642e-18
4156.44209 5.17573e-18
4157.90880 4.54370e-18
4159.37552 5.27321e-18
4160.84223 5.64108e-18
4162.30895 5.70413e-18
4163.77567 4.17524e-18
4165.24238 4.43130e-18
4166.70910 5.17033e-18
4168.17581 4.36098e-18
4169.64253 4.13666e-18
4171.10925 5.35485e-18
4172.57596 4.09277e-18
4174.04268 3.12752e-18
4175.50939 4.25274e-18
4176.97611 4.33460e-18
4178.43278 5.39607e-18
4179.90954 6.38802e-18
4181.36621 5.36148e-18
4182.83293 5.13652e-18
4184.29964 5.16973e-18
4185.76636 3.61782e-18
4187.23308 4.37408e-18
4188.69979 5.91127e-18
4190.16651 5.11368e-18
4191.63322 4.77848e-18
4193.09994 4.39827e-18
4194.56666 4.37196e-18
4196.03337 5.35839e-18
4197.50009 5.44041e-18
4198.96680 4.82502e-18
4200.43352 3.95908e-18
4201.90024 5.10699e-18
4203.36695 4.65615e-18
4204.83367 5.43663e-18
4206.30038 5.46173e-18
4207.76710 4.21110e-18
4209.23382 3.26314e-18
4210.70053 4.34019e-18
4212.16725 5.80711e-18
4213.63396 4.80548e-18
4215.10068 3.75729e-18
4216.56740 4.33010e-18
4218.03411 5.21534e-18
4219.50083 5.00341e-18
4220.96754 5.92746e-18
4222.43426 7.00343e-18
4223.90098 6.23872e-18
4225.36769 4.75981e-18
4226.83441 4.83327e-18
4228.30112 5.00416e-18
4229.76784 5.15844e-18
4231.23456 5.45487e-18
4232.70127 5.32160e-18
4234.16799 5.31964e-18
4235.63470 5.56799e-18
4237.10142 5.68043e-18
4238.56814 6.02302e-18
4240.03485 4.93788e-18
4241.50157 5.82573e-18
4242.96828 5.54270e-18
4244.43500 5.28932e-18
4245.90172 5.78552e-18
4247.35839 6.65736e-18
4248.82510 5.79826e-18
4250.29182 5.35959e-18
4251.75853 5.26492e-18
4253.22525 4.07852e-18
4254.69197 4.36615e-18
4256.15868 5.41214e-18
4257.62540 4.70596e-18
4259.09211 4.82071e-18
4260.55883 5.23117e-18
4262.02555 4.53719e-18
4263.49226 4.28396e-18
4264.95898 4.53904e-18
4266.42569 4.84046e-18
4267.89241 5.88007e-18
4269.35913 6.15073e-18
4270.82584 4.97666e-18
4272.29256 3.57982e-18
4273.75927 3.86359e-18
4275.22599 5.08369e-18
4276.69271 5.09664e-18
4278.15942 4.45354e-18
4279.62614 3.72806e-18
4281.09285 4.03315e-18
4282.55957 4.87856e-18
4284.02629 5.03147e-18
4285.49300 5.32750e-18
4286.95972 5.22570e-18
4288.42643 4.40666e-18
4289.89315 5.67214e-18
4291.35987 4.79564e-18
4292.82658 3.64086e-18
4294.29330 4.69596e-18
4295.76001 5.13714e-18
4297.22673 5.40336e-18
4298.69345 5.21615e-18
4300.16016 5.37066e-18
4301.62688 4.80029e-18
4303.09359 4.69184e-18
4304.56031 5.66042e-18
4306.02703 4.51194e-18
4307.49374 4.00740e-18
4308.96046 5.64176e-18
4310.42717 5.56678e-18
4311.89389 5.74981e-18
4313.35056 5.84994e-18
4314.81728 4.39497e-18
4316.28399 4.46795e-18
4317.75071 5.03531e-18
4319.21742 4.45759e-18
4320.68414 4.33211e-18
4322.15086 5.06953e-18
4323.61757 5.02970e-18
4325.08429 4.81326e-18
4326.55100 4.25080e-18
4328.01772 3.69184e-18
4329.48444 3.80262e-18
4330.95115 3.56019e-18
4332.41787 3.77183e-18
4333.88458 4.66675e-18
4335.35130 6.24807e-18
4336.81802 5.43304e-18
4338.28473 4.59670e-18
4339.75145 6.13476e-18
4341.21816 5.32741e-18
4342.68488 4.22791e-18
4344.15160 4.23410e-18
4345.61831 3.88411e-18
4347.08503 3.55302e-18
4348.55174 4.31786e-18
4350.01846 5.38477e-18
4351.48518 4.91108e-18
4352.95189 4.33120e-18
4354.41861 5.30431e-18
4355.88532 4.91886e-18
4357.35204 3.41263e-18
4358.81876 3.61166e-18
4360.28547 3.96459e-18
4361.75219 4.89953e-18
4363.21890 5.18218e-18
4364.68562 5.11440e-18
4366.15234 5.11027e-18
4367.61905 5.10613e-18
4369.08577 5.10200e-18
4370.55248 5.09786e-18
4372.01920 5.09373e-18
4373.48592 5.08960e-18
4374.95263 5.08546e-18
4376.41935 5.08133e-18
4377.87602 5.07720e-18
4379.34273 5.07306e-18
4380.80945 5.06893e-18
4382.27617 5.06480e-18
4383.74288 5.06066e-18
4385.20960 5.05653e-18
4386.67631 5.05240e-18
4388.14303 5.04827e-18
4389.60975 5.04413e-18
4391.07646 5.04000e-18
4392.54318 5.03587e-18
4394.00989 5.03174e-18
4395.47661 5.02760e-18
4396.94333 5.02347e-18
4398.41004 5.01934e-18
4399.87676 5.01521e-18
4401.34347 5.01108e-18
4402.81019 5.00694e-18
4404.27691 4.25947e-18
4405.74362 4.84572e-18
4407.21034 5.25051e-18
4408.67705 4.97337e-18
4410.14377 4.48004e-18
4411.61049 4.87943e-18
4413.07720 5.52539e-18
4414.54392 5.43851e-18
4416.01063 5.18374e-18
4417.47735 4.93933e-18
4418.94407 4.35266e-18
4420.41078 4.73394e-18
4421.87750 5.81909e-18
4423.34421 4.90538e-18
4424.81093 4.39792e-18
4426.27765 4.58479e-18
4427.74436 5.41663e-18
4429.21108 5.17868e-18
4430.67779 3.72215e-18
4432.14451 3.91546e-18
4433.61123 5.54790e-18
4435.07794 5.56055e-18
4436.54466 4.86938e-18
4438.01137 5.78263e-18
4439.47809 6.08484e-18
4440.94481 5.59686e-18
4442.41152 5.14020e-18
4443.87824 5.07990e-18
4445.34495 5.13876e-18
4446.81167 5.53530e-18
4448.26834 6.33724e-18
4449.73506 5.38582e-18
4451.20177 4.21779e-18
4452.66849 4.09518e-18
4454.13520 4.80118e-18
4455.60192 5.07887e-18
4457.06864 4.10335e-18
4458.53535 3.81531e-18
4460.00207 4.56962e-18
4461.46878 4.96592e-18
4462.93550 4.33345e-18
4464.40222 4.93555e-18
4465.86893 5.81339e-18
4467.33565 4.88248e-18
4468.80236 4.85452e-18
4470.26908 4.44004e-18
4471.73580 5.22479e-18
4473.20251 5.39170e-18
4474.66923 4.66408e-18
4476.13594 3.60996e-18
4477.60266 3.71553e-18
4479.06938 4.50506e-18
4480.53609 5.47262e-18
4482.00281 5.25363e-18
4483.46952 5.60268e-18
4484.93624 6.28817e-18
4486.40296 5.88595e-18
4487.86967 5.41848e-18
4489.33639 5.84568e-18
4490.80310 6.21463e-18
4492.26982 6.43458e-18
4493.73654 6.08220e-18
4495.20325 6.69390e-18
4496.66997 6.89996e-18
4498.13668 6.75164e-18
4499.60340 7.61243e-18
4501.07012 6.41585e-18
4502.53683 6.84622e-18
4504.00355 6.32173e-18
4505.47026 6.61107e-18
4506.93698 7.13605e-18
4508.40370 7.18923e-18
4509.87041 7.16272e-18
4511.33713 8.22084e-18
4512.80384 7.57513e-18
4514.26051 6.04597e-18
4515.72723 6.83484e-18
4517.19395 7.98896e-18
4518.66066 7.83843e-18
4520.12738 7.55641e-18
4521.59409 8.53155e-18
4523.06081 8.40090e-18
4524.52753 7.21278e-18
4525.99424 7.26333e-18
4527.46096 8.97488e-18
4528.92767 9.90426e-18
4530.39439 8.35155e-18
4531.86111 7.29993e-18
4533.32782 7.36468e-18
4534.79454 7.07450e-18
4536.26125 7.52416e-18
4537.72797 7.79808e-18
4539.19469 8.28680e-18
4540.66140 8.06733e-18
4542.12812 8.06895e-18
4543.59483 7.87565e-18
4545.06155 8.14493e-18
4546.52827 8.41672e-18
4547.99498 7.87121e-18
4549.46170 9.10707e-18
4550.92841 9.45552e-18
4552.39513 8.08006e-18
4553.86185 7.10250e-18
4555.32856 7.66101e-18
4556.79528 8.22220e-18
4558.26199 8.22709e-18
4559.72871 7.94410e-18
4561.19543 8.05937e-18
4562.66214 8.05994e-18
4564.12886 8.56435e-18
4565.59557 9.19583e-18
4567.06229 8.58413e-18
4568.52901 7.60894e-18
4569.99572 8.47458e-18
4571.46244 9.59613e-18
4572.92915 9.29219e-18
4574.39587 9.10478e-18
4575.86259 9.19819e-18
4577.32930 9.08576e-18
4578.79602 8.43109e-18
4580.26273 9.01991e-18
4581.71940 9.82134e-18
4583.19617 9.13321e-18
4584.65284 8.74238e-18
4586.11955 8.95541e-18
4587.58627 9.20424e-18
4589.05298 8.75898e-18
4590.51970 8.19865e-18
4591.98642 9.72917e-18
4593.45313 9.00154e-18
4594.91985 8.62859e-18
4596.38656 9.29114e-18
4597.85328 9.29233e-18
4599.32000 1.02718e-17
4600.78671 1.06797e-17
4602.25343 9.90021e-18
4603.72014 8.95934e-18
4605.18686 9.49448e-18
4606.65358 9.33767e-18
4608.12029 8.67981e-18
4609.58701 8.99362e-18
4611.05372 9.73518e-18
4612.52044 9.19659e-18
4613.98716 8.46385e-18
4615.45387 9.84315e-18
4616.92059 1.10639e-17
4618.38730 1.05507e-17
4619.85402 1.03494e-17
4621.32074 9.41791e-18
4622.78745 9.48902e-18
4624.25417 9.71240e-18
4625.72088 9.64454e-18
4627.18760 9.96581e-18
4628.65432 9.89957e-18
4630.12103 1.03119e-17
4631.58775 1.21273e-17
4633.05446 1.13394e-17
4634.52118 9.73681e-18
4635.98790 1.00747e-17
4637.45461 1.00310e-17
4638.92133 9.07044e-18
4640.38804 8.69805e-18
4641.85476 9.11384e-18
4643.32148 9.24685e-18
4644.78819 9.71311e-18
4646.25491 9.94453e-18
4647.72162 8.59080e-18
4649.18834 8.01535e-18
4650.64501 9.03080e-18
4652.11173 9.53848e-18
4653.57844 8.88826e-18
4655.04516 8.33663e-18
4656.51187 9.16933e-18
4657.97859 8.93416e-18
4659.44531 8.67855e-18
4660.91202 9.57717e-18
4662.37874 9.97854e-18
4663.84545 9.55249e-18
4665.31217 9.51062e-18
4666.77889 9.54720e-18
4668.24560 8.93526e-18
4669.71232 8.29032e-18
4671.17903 9.97402e-18
4672.64575 1.02417e-17
4674.11247 8.82067e-18
4675.57918 8.62800e-18
4677.04590 8.83056e-18
4678.51261 9.11761e-18
4679.97933 9.38324e-18
4681.44605 9.28692e-18
4682.91276 8.82723e-18
4684.37948 9.02454e-18
4685.84619 9.62918e-18
4687.31291 9.85151e-18
4688.77963 8.61581e-18
4690.24634 8.01586e-18
4691.71306 9.15457e-18
4693.17977 8.93479e-18
4694.64649 9.10275e-18
4696.11321 9.67070e-18
4697.57992 9.17910e-18
4699.04664 9.59804e-18
4700.51335 8.59243e-18
4701.98007 8.34817e-18
4703.44679 9.03229e-18
4704.91350 8.79165e-18
4706.38022 8.93830e-18
4707.84693 8.46777e-18
4709.31365 8.13916e-18
4710.78037 9.38474e-18
4712.24708 9.56824e-18
4713.71380 9.41865e-18
4715.17047 9.70505e-18
4716.63718 9.53581e-18
4718.10390 9.22815e-18
4719.57062 8.64901e-18
4721.03733 8.51080e-18
4722.50405 9.79197e-18
4723.97076 9.35133e-18
4725.43748 8.10051e-18
4726.90420 8.43493e-18
4728.37091 8.23762e-18
4729.83763 8.07830e-18
4731.30434 8.30463e-18
4732.77106 7.31210e-18
4734.23778 7.38429e-18
4735.70449 8.48030e-18
4737.17121 8.62357e-18
4738.63792 8.12396e-18
4740.10464 8.28738e-18
4741.57136 7.73246e-18
4743.03807 7.08363e-18
4744.50479 7.01873e-18
4745.97150 7.47512e-18
4747.43822 8.35318e-18
4748.90494 8.29530e-18
4750.37165 7.81040e-18
4751.83837 7.46911e-18
4753.30508 8.51159e-18
4754.77180 9.02243e-18
4756.23852 7.69428e-18
4757.70523 7.41568e-18
4759.17195 7.42530e-18
4760.63866 6.90912e-18
4762.10538 7.10562e-18
4763.57210 7.08103e-18
4765.03881 6.83573e-18
4766.50553 6.94884e-18
4767.97224 6.92956e-18
4769.43896 6.89092e-18
4770.90568 6.29282e-18
4772.37239 6.32692e-18
4773.83911 6.87847e-18
4775.30582 6.92884e-18
4776.77254 6.97499e-18
4778.23926 6.72516e-18
4779.70597 6.89320e-18
4781.16264 6.90597e-18
4782.62936 6.71516e-18
4784.09607 7.22234e-18
4785.56279 7.12172e-18
4787.02951 6.07455e-18
4788.49622 5.67370e-18
4789.96294 6.18370e-18
4791.42965 6.97422e-18
4792.89637 7.28867e-18
4794.36309 7.01734e-18
4795.82980 7.09598e-18
4797.29652 6.79318e-18
4798.76323 5.90168e-18
4800.22995 5.72872e-18
4801.69667 5.87399e-18
4803.16338 6.17596e-18
4804.63010 6.55975e-18
4806.09681 5.95844e-18
4807.56353 5.99942e-18
4809.03025 6.14245e-18
4810.49696 6.03421e-18
4811.96368 6.42866e-18
4813.43039 6.25223e-18
4814.89711 5.81665e-18
4816.36383 5.76930e-18
4817.83054 5.67040e-18
4819.29726 5.56533e-18
4820.76397 5.88172e-18
4822.23069 6.72399e-18
4823.69741 6.35259e-18
4825.16412 5.99109e-18
4826.63084 6.47647e-18
4828.09755 6.91879e-18
4829.56427 6.49555e-18
4831.03099 5.29806e-18
4832.49770 5.44303e-18
4833.96442 6.28606e-18
4835.43113 6.03260e-18
4836.89785 5.61502e-18
4838.36457 6.41535e-18
4839.83128 6.53093e-18
4841.29800 6.24875e-18
4842.76471 5.82161e-18
4844.23143 6.41576e-18
4845.69815 6.55261e-18
4847.16486 6.02005e-18
4848.63158 6.09192e-18
4850.09829 5.57030e-18
4851.55496 5.98952e-18
4853.02168 5.56515e-18
4854.48840 5.14327e-18
4855.95511 6.26307e-18
4857.42183 6.48363e-18
4858.88854 6.12651e-18
4860.35526 5.32139e-18
4861.82198 4.82396e-18
4863.28869 5.71877e-18
4864.75541 6.42921e-18
4866.22212 6.42746e-18
4867.68884 6.42571e-18
4869.15556 6.42396e-18
4870.62227 6.42220e-18
4872.08899 6.42045e-18
4873.55570 6.41870e-18
4875.02242 6.41695e-18
4876.48914 6.41519e-18
4877.95585 6.41344e-18
4879.42257 6.41169e-18
4880.88928 6.40994e-18
4882.35600 6.40819e-18
4883.82272 6.40643e-18
4885.28943 6.40468e-18
4886.75615 6.40293e-18
4888.22286 6.40118e-18
4889.68958 6.39943e-18
4891.15630 6.39768e-18
4892.62301 6.39593e-18
4894.08973 6.39418e-18
4895.55644 6.39243e-18
4897.02316 6.39068e-18
4898.48988 6.38893e-18
4899.95659 6.38718e-18
4901.42331 6.38543e-18
4902.89002 6.38368e-18
4904.35674 6.45155e-18
4905.82346 6.63375e-18
4907.29017 6.39045e-18
4908.75689 6.81542e-18
4910.22360 7.14351e-18
4911.69032 7.24441e-18
4913.15704 7.15622e-18
4914.62375 6.93482e-18
4916.09047 7.13129e-18
4917.54714 7.31324e-18
4919.01385 7.60550e-18
4920.48057 7.54494e-18
4921.94729 7.16995e-18
4923.41400 7.96802e-18
4924.88072 8.38909e-18
4926.34743 7.71739e-18
4927.81415 7.66371e-18
4929.28087 8.02813e-18
4930.74758 8.23369e-18
4932.21430 7.57609e-18
4933.68101 7.49927e-18
4935.14773 8.17125e-18
4936.61445 8.59954e-18
4938.08116 8.19176e-18
4939.54788 8.54658e-18
4941.01459 9.21430e-18
4942.48131 8.84270e-18
4943.94803 9.09365e-18
4945.41474 8.89216e-18
4946.88146 8.34945e-18
4948.34817 8.53641e-18
4949.81489 9.07109e-18
4951.28161 9.35030e-18
4952.74832 8.86547e-18
4954.21504 9.28428e-18
4955.68175 9.85318e-18
4957.14847 9.09605e-18
4958.61519 9.60241e-18
4960.08190 9.76759e-18
4961.54862 9.75536e-18
4963.01533 9.84775e-18
4964.48205 9.82136e-18
4965.94877 9.79496e-18
4967.41548 9.76857e-18
4968.88220 9.74217e-18
4970.34891 9.71578e-18
4971.81563 9.68940e-18
4973.28235 9.66301e-18
4974.74906 9.63663e-18
4976.21578 9.61025e-18
4977.68249 9.58387e-18
4979.14921 9.55749e-18
4980.61593 9.53112e-18
4982.08264 9.50474e-18
4983.54936 9.47836e-18
4985.00603 9.45200e-18
4986.47274 9.42562e-18
4987.93946 9.39925e-18
4989.40618 9.37288e-18
4990.87289 9.34652e-18
4992.33961 9.32015e-18
4993.80632 9.29379e-18
4995.27304 9.26743e-18
4996.73976 9.24107e-18
4998.20647 9.21472e-18
4999.67319 9.18836e-18
5001.13990 9.16201e-18
5002.60662 8.96134e-18
5004.07334 8.57535e-18
5005.54005 8.65627e-18
5007.00677 8.66789e-18
5008.47348 8.38889e-18
5009.94020 8.67002e-18
5011.40692 8.04527e-18
5012.87363 7.99708e-18
5014.34035 7.94890e-18
5015.80706 7.90071e-18
5017.27378 7.85253e-18
5018.74050 7.80435e-18
5020.20721 7.75616e-18
5021.67393 7.70800e-18
5023.14064 7.65982e-18
5024.60736 7.61167e-18
5026.07408 7.56349e-18
5027.54079 7.51533e-18
5029.00751 7.46716e-18
5030.47422 7.41900e-18
5031.94094 7.37085e-18
5033.40766 7.32270e-18
5034.87437 7.27456e-18
5036.34109 7.22641e-18
5037.80780 7.17827e-18
5039.27452 7.13013e-18
5040.74124 7.08200e-18
5042.20795 7.03386e-18
5043.67467 6.98572e-18
5045.14138 6.93761e-18
5046.60810 6.88948e-18
5048.07482 6.84135e-18
5049.54153 6.07946e-18
5051.00825 6.08561e-18
5052.46492 5.60056e-18
5053.93163 5.91275e-18
5055.39835 6.40991e-18
5056.86507 6.59465e-18
5058.33178 6.41587e-18
5059.79850 7.43217e-18
5061.26521 7.36040e-18
5062.73193 6.62928e-18
5064.19865 6.69962e-18
5065.66536 6.92950e-18
5067.13208 6.70213e-18
5068.59879 7.39391e-18
5070.06551 7.70864e-18
5071.53223 7.35013e-18
5072.99894 7.94116e-18
5074.46566 7.13668e-18
5075.93237 6.74650e-18
5077.39909 7.33177e-18
5078.86581 7.75353e-18
5080.33252 7.27135e-18
5081.79924 7.25496e-18
5083.26595 7.85804e-18
5084.73267 7.78112e-18
5086.19939 7.55134e-18
5087.66610 7.66627e-18
5089.13282 7.97299e-18
5090.59953 8.11942e-18
5092.06625 7.71872e-18
5093.53297 7.39268e-18
5094.99968 7.76069e-18
5096.46640 8.03133e-18
5097.93311 8.33515e-18
5099.39983 8.23269e-18
5100.86655 8.80732e-18
5102.33326 8.72387e-18
5103.79998 8.33513e-18
5105.26669 8.76731e-18
5106.73341 8.87506e-18
5108.20013 7.96164e-18
5109.66684 8.24356e-18
5111.13356 8.35695e-18
5112.60027 8.28546e-18
5114.06699 8.42145e-18
5115.53371 8.45872e-18
5117.00042 7.98542e-18
5118.45709 7.97864e-18
5119.92381 8.54651e-18
5121.39052 9.35681e-18
5122.85724 9.33085e-18
5124.32396 8.80255e-18
5125.79067 8.42581e-18
5127.25739 8.04182e-18
5128.72410 8.09818e-18
5130.19082 8.47071e-18
5131.65754 8.87258e-18
5133.12425 9.28871e-18
5134.59097 8.85152e-18
5136.05768 8.27399e-18
5137.52440 8.54498e-18
5138.99112 9.02083e-18
5140.45783 9.85691e-18
5141.92455 9.15647e-18
5143.39126 8.56338e-18
5144.85798 8.42747e-18
5146.32470 8.92087e-18
5147.79141 8.67035e-18
5149.25813 8.07897e-18
5150.72484 8.34929e-18
5152.19156 8.42236e-18
5153.65828 8.44589e-18
5155.12499 8.84029e-18
5156.59171 9.36556e-18
5158.05842 9.12225e-18
5159.52514 9.03785e-18
5160.99186 9.11977e-18
5162.45857 9.06494e-18
5163.92529 8.74341e-18
5165.39200 8.99641e-18
5166.85872 9.34121e-18
5168.32544 9.19732e-18
5169.79215 8.53600e-18
5171.25887 7.72601e-18
5172.72558 7.99844e-18
5174.19230 8.21719e-18
5175.65902 8.85159e-18
5177.12573 9.21166e-18
5178.59245 8.28144e-18
5180.05916 8.63848e-18
5181.52588 8.84294e-18
5182.99260 8.05193e-18
5184.44927 9.20483e-18
5185.91598 9.12724e-18
5187.38270 7.76284e-18
5188.84941 8.45506e-18
5190.31613 8.74944e-18
5191.78285 8.99962e-18
5193.24956 9.02090e-18
5194.71628 9.56240e-18
5196.18299 9.64140e-18
5197.64971 9.42401e-18
5199.11643 8.73898e-18
5200.58314 8.75638e-18
5202.04986 9.09551e-18
5203.51657 8.98379e-18
5204.98329 8.89155e-18
5206.45001 8.89519e-18
5207.91672 9.31648e-18
5209.38344 9.10562e-18
5210.85015 9.06647e-18
5212.31687 9.30052e-18
5213.78359 9.11148e-18
5215.25030 9.94647e-18
5216.71702 9.37588e-18
5218.18373 9.01506e-18
5219.65045 9.05057e-18
5221.11717 9.89719e-18
5222.58388 9.38831e-18
5224.05060 8.65680e-18
5225.51731 9.22684e-18
5226.98403 1.05858e-17
5228.45075 1.08483e-17
5229.91746 1.01110e-17
5231.38418 9.84220e-18
5232.85089 1.00824e-17
5234.31761 9.85075e-18
5235.78433 9.79242e-18
5237.25104 1.01112e-17
5238.71776 1.05159e-17
5240.18447 1.00310e-17
5241.65119 1.03634e-17
5243.11791 1.10348e-17
5244.58462 1.06979e-17
5246.05134 9.96210e-18
5247.51805 9.59788e-18
5248.98477 9.24459e-18
5250.45149 9.26218e-18
5251.91820 1.04954e-17
5253.38492 1.08668e-17
5254.84159 1.06139e-17
5256.30830 9.98244e-18
5257.77502 1.02088e-17
5259.24174 1.07032e-17
5260.70845 1.11398e-17
5262.17517 1.07297e-17
5263.64188 1.12510e-17
5265.10860 1.11992e-17
5266.57532 1.01146e-17
5268.04203 1.11608e-17
5269.50875 1.09600e-17
5270.97546 1.03028e-17
5272.44218 1.05156e-17
5273.90890 1.16053e-17
5275.37561 1.19539e-17
5276.84233 1.12955e-17
5278.30904 1.13542e-17
5279.77576 1.12431e-17
5281.24248 1.08251e-17
5282.70919 1.12090e-17
5284.17591 1.14398e-17
5285.64262 1.14473e-17
5287.10934 1.12553e-17
5288.57606 1.09970e-17
5290.04277 1.14634e-17
5291.50949 1.27639e-17
5292.97620 1.25064e-17
5294.44292 1.19095e-17
5295.90964 1.14190e-17
5297.37635 1.10903e-17
5298.84307 1.18695e-17
5300.30978 1.26151e-17
5301.77650 1.21864e-17
5303.24322 1.16193e-17
5304.70993 1.18203e-17
5306.17665 1.22932e-17
5307.64336 1.30400e-17
5309.11008 1.25706e-17
5310.57680 1.19870e-17
5312.04351 1.20238e-17
5313.51023 1.23131e-17
5314.97694 1.25767e-17
5316.44366 1.22193e-17
5317.91038 1.23578e-17
5319.37709 1.26552e-17
5320.83376 1.26167e-17
5322.30048 1.25872e-17
5323.76719 1.32076e-17
5325.23391 1.29005e-17
5326.70063 1.21618e-17
5328.16734 1.28478e-17
5329.63406 1.24413e-17
5331.10077 1.18657e-17
5332.56749 1.21461e-17
5334.03421 1.25537e-17
5335.50092 1.28585e-17
5336.96764 1.35261e-17
5338.43435 1.42243e-17
5339.90107 1.37909e-17
5341.36779 1.21625e-17
5342.83450 1.19131e-17
5344.30122 1.31707e-17
5345.76793 1.33240e-17
5347.23465 1.27647e-17
5348.70137 1.22122e-17
5350.16808 1.25618e-17
5351.63480 1.35641e-17
5353.10151 1.34525e-17
5354.56823 1.35436e-17
5356.03495 1.42165e-17
5357.50166 1.37309e-17
5358.96838 1.32374e-17
5360.43509 1.30755e-17
5361.90181 1.35456e-17
5363.36853 1.31688e-17
5364.83524 1.21562e-17
5366.30196 1.24027e-17
5367.76867 1.26946e-17
5369.23539 1.26541e-17
5370.70211 1.25896e-17
5372.16882 1.35948e-17
5373.63554 1.40961e-17
5375.10225 1.31352e-17
5376.56897 1.21099e-17
5378.03569 1.20325e-17
5379.50240 1.23196e-17
5380.96912 1.27628e-17
5382.43583 1.24628e-17
5383.90255 1.19692e-17
5385.36927 1.21659e-17
5386.83598 1.19505e-17
5388.29265 1.21941e-17
5389.75937 1.22999e-17
5391.22608 1.20355e-17
5392.69280 1.15150e-17
5394.15952 1.13554e-17
5395.62623 1.18311e-17
5397.09295 1.24858e-17
5398.55966 1.17165e-17
5400.02638 1.11174e-17
5401.49310 1.17340e-17
5402.95981 1.19110e-17
5404.42653 1.13500e-17
5405.89324 1.21069e-17
5407.35996 1.34025e-17
5408.82668 1.29637e-17
5410.29339 1.23358e-17
5411.76011 1.22675e-17
5413.22682 1.20511e-17
5414.69354 1.16323e-17
5416.16026 1.21123e-17
5417.62697 1.26083e-17
5419.09369 1.25126e-17
5420.56040 1.22936e-17
5422.02712 1.28589e-17
5423.49384 1.37663e-17
5424.96055 1.28502e-17
5426.42727 1.26408e-17
5427.89398 1.22699e-17
5429.36070 1.18323e-17
5430.82742 1.25425e-17
5432.29413 1.28819e-17
5433.76085 1.37871e-17
5435.22756 1.32558e-17
5436.69428 1.32866e-17
5438.16100 1.35959e-17
5439.62771 1.35259e-17
5441.09443 1.37813e-17
5442.56114 1.41071e-17
5444.02786 1.39034e-17
5445.49458 1.30272e-17
5446.96129 1.35553e-17
5448.42801 1.39705e-17
5449.89472 1.35574e-17
5451.36144 1.43307e-17
5452.82816 1.40438e-17
5454.28483 1.37429e-17
5455.75154 1.41984e-17
5457.21826 1.41074e-17
5458.68497 1.44753e-17
5460.15169 1.43498e-17
5461.61841 1.38234e-17
5463.08512 1.36323e-17
5464.55184 1.36313e-17
5466.01855 1.41975e-17
5467.48527 1.48628e-17
5468.95199 1.43140e-17
5470.41870 1.41375e-17
5471.88542 1.43984e-17
5473.35213 1.46331e-17
5474.81885 1.38027e-17
5476.28557 1.34840e-17
5477.75228 1.46755e-17
5479.21900 1.43466e-17
5480.68571 1.35375e-17
5482.15243 1.34290e-17
5483.61915 1.40702e-17
5485.08586 1.42177e-17
5486.55258 1.41029e-17
5488.01929 1.42980e-17
5489.48601 1.45507e-17
5490.95273 1.41398e-17
5492.41944 1.44626e-17
5493.88616 1.32102e-17
5495.35287 1.40380e-17
5496.81959 1.49717e-17
5498.28631 1.43222e-17
5499.75302 1.41924e-17
5501.21974 1.40606e-17
5502.68645 1.38986e-17
5504.15317 1.36520e-17
5505.61989 1.34451e-17
5507.08660 1.36485e-17
5508.55332 1.34564e-17
5510.02003 1.40978e-17
5511.48675 1.41976e-17
5512.95347 1.38847e-17
5514.42018 1.37182e-17
5515.88690 1.34892e-17
5517.35361 1.32901e-17
5518.82033 1.25915e-17
5520.28705 1.31557e-17
5521.74372 1.39843e-17
5523.21043 1.32372e-17
5524.67715 1.40213e-17
5526.14386 1.43900e-17
5527.61058 1.32078e-17
5529.07730 1.30402e-17
5530.54401 1.37857e-17
5532.01073 1.26089e-17
5533.47744 1.27176e-17
5534.94416 1.25258e-17
5536.41088 1.28472e-17
5537.87759 1.43193e-17
5539.34431 1.43325e-17
5540.81102 1.27840e-17
5542.27774 1.31134e-17
5543.74446 1.28574e-17
5545.21117 1.28836e-17
5546.67789 1.20709e-17
5548.14460 1.26669e-17
5549.61132 1.36948e-17
5551.07804 1.34324e-17
5552.54475 1.30334e-17
5554.01147 1.33941e-17
5555.47818 1.38886e-17
5556.94490 1.40988e-17
5558.41162 1.33017e-17
5559.87833 1.35854e-17
5561.34505 1.44062e-17
5562.81176 1.39704e-17
5564.27848 1.53610e-17
5565.74520 1.50564e-17
5567.21191 1.23023e-17
5568.67863 1.29268e-17
5570.14534 1.38798e-17
5571.61206 1.34477e-17
5573.07878 1.26795e-17
5574.54549 1.26999e-17
5576.01221 1.32013e-17
5577.47892 1.27974e-17
5578.94564 1.26117e-17
5580.41236 1.35827e-17
5581.87907 1.34306e-17
5583.34579 1.26545e-17
5584.81250 1.24669e-17
5586.27922 1.27970e-17
5587.73589 1.31186e-17
5589.20261 1.31822e-17
5590.66932 1.34687e-17
5592.13604 1.36591e-17
5593.60275 1.30789e-17
5595.06947 1.23849e-17
5596.53619 1.25660e-17
5598.00290 1.24503e-17
5599.46962 1.25984e-17
5600.93633 1.28431e-17
5602.40305 1.28489e-17
5603.86977 1.24190e-17
5605.33648 1.27088e-17
5606.80320 1.27236e-17
5608.26991 1.21315e-17
5609.73663 1.17424e-17
5611.20335 1.16503e-17
5612.67006 1.18544e-17
5614.13678 1.20122e-17
5615.60349 1.22811e-17
5617.07021 1.25803e-17
5618.53693 1.28383e-17
5620.00364 1.23519e-17
5621.47036 1.15058e-17
5622.93707 1.19399e-17
5624.40379 1.23895e-17
5625.87051 1.22358e-17
5627.33722 1.24872e-17
5628.80394 1.20115e-17
5630.27065 1.12426e-17
5631.73737 1.16406e-17
5633.20409 1.24075e-17
5634.67080 1.16229e-17
5636.13752 1.04534e-17
5637.60423 1.07346e-17
5639.07095 1.17188e-17
5640.53767 1.15140e-17
5642.00438 1.11589e-17
5643.47110 1.14706e-17
5644.93781 1.06123e-17
5646.40453 9.08691e-18
5647.87125 9.68395e-18
5649.33796 1.02982e-17
5650.80468 1.01893e-17
5652.27139 9.87732e-18
5653.73811 9.87329e-18
5655.20483 9.56682e-18
5656.67154 8.78487e-18
5658.12821 9.40416e-18
5659.59493 9.28815e-18
5661.06164 8.54456e-18
5662.52836 8.23494e-18
5663.99508 8.63811e-18
5665.46179 9.14410e-18
5666.92851 8.24689e-18
5668.39522 7.62887e-18
5669.86194 7.41615e-18
5671.32866 7.49372e-18
5672.79537 8.04916e-18
5674.26209 7.57474e-18
5675.72880 7.11278e-18
5677.19552 6.84603e-18
5678.66224 6.58690e-18
5680.12895 6.99741e-18
5681.59567 7.41541e-18
5683.06238 6.73594e-18
5684.52910 6.13977e-18
5685.99582 6.65290e-18
5687.46253 7.07767e-18
5688.92925 6.36261e-18
5690.39596 6.11833e-18
5691.86268 6.90560e-18
5693.32940 7.22040e-18
5694.79611 6.66646e-18
5696.26283 6.59716e-18
5697.72954 7.03033e-18
5699.19626 6.25167e-18
5700.66298 6.03383e-18
5702.12969 5.93753e-18
5703.59641 5.60082e-18
5705.06312 6.25284e-18
5706.52984 6.35353e-18
5707.99656 6.24068e-18
5709.46327 6.30204e-18
5710.92999 6.56724e-18
5712.39670 6.36575e-18
5713.86342 7.33282e-18
5715.33014 7.56719e-18
5716.79685 7.39397e-18
5718.26357 6.93444e-18
5719.73028 7.58892e-18
5721.19700 7.66448e-18
5722.66372 7.45025e-18
5724.12039 7.01082e-18
5725.58710 7.46512e-18
5727.05382 8.07842e-18
5728.52053 7.64465e-18
5729.98725 7.12421e-18
5731.45397 7.56984e-18
5732.92068 8.14786e-18
5734.38740 8.19074e-18
5735.85411 8.06039e-18
5737.32083 8.51182e-18
5738.78755 9.14300e-18
5740.25426 8.68640e-18
5741.72098 7.84904e-18
5743.18769 8.24612e-18
5744.65441 9.74498e-18
5746.12113 1.04488e-17
5747.58784 9.91946e-18
5749.05456 9.04746e-18
5750.52127 9.01475e-18
5751.98799 9.67329e-18
5753.45471 1.01677e-17
5754.92142 1.01165e-17
5756.38814 9.69716e-18
5757.85485 9.70615e-18
5759.32157 1.03176e-17
5760.78829 1.03897e-17
5762.25500 9.94502e-18
5763.72172 1.07340e-17
5765.18843 1.07477e-17
5766.65515 1.18063e-17
5768.12187 1.20096e-17
5769.58858 1.16082e-17
5771.05530 1.14731e-17
5772.52201 1.09522e-17
5773.98873 1.12661e-17
5775.45545 1.09321e-17
5776.92216 1.16002e-17
5778.38888 1.27641e-17
5779.85559 1.19719e-17
5781.32231 1.12370e-17
5782.78903 1.19849e-17
5784.25574 1.15549e-17
5785.72246 1.14705e-17
5787.18917 1.23894e-17
5788.65589 1.24873e-17
5790.11256 1.23492e-17
5791.57928 1.30739e-17
5793.04599 1.42413e-17
5794.51271 1.33834e-17
5795.97942 1.24785e-17
5797.44614 1.29840e-17
5798.91286 1.32308e-17
5800.37957 1.38162e-17
5801.84629 1.37427e-17
5803.31300 1.35999e-17
5804.77972 1.26144e-17
5806.24644 1.24892e-17
5807.71315 1.28169e-17
5809.17987 1.28557e-17
5810.64658 1.38051e-17
5812.11330 1.39631e-17
5813.58002 1.36620e-17
5815.04673 1.43772e-17
5816.51345 1.42367e-17
5817.98016 1.36217e-17
5819.44688 1.32765e-17
5820.91360 1.41491e-17
5822.38031 1.46576e-17
5823.84703 1.40463e-17
5825.31374 1.40588e-17
5826.78046 1.41450e-17
5828.24718 1.49946e-17
5829.71389 1.62397e-17
5831.18061 1.60797e-17
5832.64732 1.56728e-17
5834.11404 1.54318e-17
5835.58076 1.50826e-17
5837.04747 1.52425e-17
5838.51419 1.54706e-17
5839.98090 1.56107e-17
5841.44762 1.45775e-17
5842.91434 1.40672e-17
5844.38105 1.52932e-17
5845.84777 1.63935e-17
5847.31448 1.61383e-17
5848.78120 1.50832e-17
5850.24792 1.51965e-17
5851.71463 1.52716e-17
5853.18135 1.52271e-17
5854.64806 1.54197e-17
5856.11478 1.52289e-17
5857.57145 1.58111e-17
5859.03817 1.61940e-17
5860.50488 1.55806e-17
5861.97160 1.56834e-17
5863.43831 1.61326e-17
5864.90503 1.55719e-17
5866.37175 1.48842e-17
5867.83846 1.50224e-17
5869.30518 1.55248e-17
5870.77189 1.49650e-17
5872.23861 1.41457e-17
5873.70533 1.47335e-17
5875.17204 1.57367e-17
5876.63876 1.58427e-17
5878.10547 1.51674e-17
5879.57219 1.46287e-17
5881.03891 1.53655e-17
5882.50562 1.50202e-17
5883.97234 1.35277e-17
5885.43905 1.39591e-17
5886.90577 1.47057e-17
5888.37249 1.59549e-17
5889.83920 1.62715e-17
5891.30592 1.51610e-17
5892.77263 1.43220e-17
5894.23935 1.49617e-17
5895.70607 1.52914e-17
5897.17278 1.50860e-17
5898.63950 1.56374e-17
5900.10621 1.55162e-17
5901.57293 1.43774e-17
5903.03965 1.48434e-17
5904.50636 1.57750e-17
5905.97308 1.60079e-17
5907.43979 1.51882e-17
5908.90651 1.53607e-17
5910.37323 1.66376e-17
5911.83994 1.56444e-17
5913.30666 1.49688e-17
5914.77337 1.39251e-17
5916.24009 1.33079e-17
5917.70681 1.40667e-17
5919.17352 1.43443e-17
5920.64024 1.43048e-17
5922.10695 1.47628e-17
5923.57367 1.34012e-17
5925.03034 1.39346e-17
5926.49706 1.48763e-17
5927.96377 1.51999e-17
5929.43049 1.62768e-17
5930.89720 1.58818e-17
5932.36392 1.54507e-17
5933.83064 1.54432e-17
5935.29735 1.51963e-17
5936.76407 1.48285e-17
5938.23078 1.50896e-17
5939.69750 1.48755e-17
5941.16422 1.47641e-17
5942.63093 1.51524e-17
5944.09765 1.49441e-17
5945.56436 1.43675e-17
5947.03108 1.45229e-17
5948.49780 1.46310e-17
5949.96451 1.44086e-17
5951.43123 1.42523e-17
5952.89794 1.43811e-17
5954.36466 1.56251e-17
5955.83138 1.57628e-17
5957.29809 1.48899e-17
5958.76481 1.40404e-17
5960.23152 1.45387e-17
5961.69824 1.42998e-17
5963.16496 1.42873e-17
5964.63167 1.42920e-17
5966.09839 1.53902e-17
5967.56510 1.49555e-17
5969.03182 1.37558e-17
5970.49854 1.43792e-17
5971.96525 1.53445e-17
5973.43197 1.56489e-17
5974.89868 1.45739e-17
5976.36540 1.42161e-17
5977.83212 1.50132e-17
5979.29883 1.49266e-17
5980.76555 1.48966e-17
5982.23226 1.43591e-17
5983.69898 1.40906e-17
5985.16570 1.43425e-17
5986.63241 1.41514e-17
5988.09913 1.46809e-17
5989.56584 1.44947e-17
5991.02251 1.47582e-17
5992.48923 1.48667e-17
5993.95595 1.43720e-17
5995.42266 1.38098e-17
5996.88938 1.35183e-17
5998.35609 1.38267e-17
5999.82281 1.36176e-17
6001.28953 1.33097e-17
6002.75624 1.28008e-17
6004.22296 1.29880e-17
6005.68967 1.36013e-17
6007.15639 1.37673e-17
6008.62311 1.33844e-17
6010.08982 1.24051e-17
6011.55654 1.25128e-17
6013.02325 1.29428e-17
6014.48997 1.29515e-17
6015.95669 1.36459e-17
6017.42340 1.36159e-17
6018.89012 1.39656e-17
6020.35683 1.32475e-17
6021.82355 1.29869e-17
6023.29027 1.27665e-17
6024.75698 1.23572e-17
6026.22370 1.27820e-17
6027.69041 1.32604e-17
6029.15713 1.33901e-17
6030.62385 1.34892e-17
6032.09056 1.27048e-17
6033.55728 1.26661e-17
6035.02399 1.31189e-17
6036.49071 1.28968e-17
6037.95743 1.26722e-17
6039.42414 1.31819e-17
6040.89086 1.38305e-17
6042.35757 1.31963e-17
6043.82429 1.37696e-17
6045.29101 1.40598e-17
6046.75772 1.31463e-17
6048.22444 1.37430e-17
6049.69115 1.38427e-17
6051.15787 1.29408e-17
6052.62459 1.29435e-17
6054.09130 1.30391e-17
6055.55802 1.33787e-17
6057.02473 1.42789e-17
6058.49145 1.40164e-17
6059.95817 1.31057e-17
6061.41484 1.33369e-17
6062.88155 1.34898e-17
6064.34827 1.34729e-17
6065.81498 1.37453e-17
6067.28170 1.38287e-17
6068.74842 1.38763e-17
6070.21513 1.33058e-17
6071.68185 1.39118e-17
6073.14856 1.42074e-17
6074.61528 1.27940e-17
6076.08200 1.31066e-17
6077.54871 1.38027e-17
6079.01543 1.38685e-17
6080.48214 1.38919e-17
6081.94886 1.37643e-17
6083.41558 1.43359e-17
6084.88229 1.30603e-17
6086.34901 1.36021e-17
6087.81572 1.42621e-17
6089.28244 1.34708e-17
6090.74916 1.27938e-17
6092.21587 1.29047e-17
6093.68259 1.32248e-17
6095.14930 1.28155e-17
6096.61602 1.25525e-17
6098.08274 1.33149e-17
6099.54945 1.37980e-17
6101.01617 1.33775e-17
6102.48288 1.28530e-17
6103.94960 1.24488e-17
6105.41632 1.26536e-17
6106.88303 1.32142e-17
6108.34975 1.22095e-17
6109.81646 1.26429e-17
6111.28318 1.30150e-17
6112.74990 1.22567e-17
6114.21661 1.25303e-17
6115.68333 1.33444e-17
6117.15004 1.30052e-17
6118.61676 1.27805e-17
6120.08348 1.27633e-17
6121.55019 1.23515e-17
6123.01691 1.23231e-17
6124.48362 1.34380e-17
6125.95034 1.34617e-17
6127.40701 1.27516e-17
6128.87373 1.16494e-17
6130.34044 1.26416e-17
6131.80716 1.30782e-17
6133.27387 1.33322e-17
6134.74059 1.38826e-17
6136.20731 1.39053e-17
6137.67402 1.41628e-17
6139.14074 1.29525e-17
6140.60745 1.30703e-17
6142.07417 1.35729e-17
6143.54089 1.39196e-17
6145.00760 1.31379e-17
6146.47432 1.31806e-17
6147.94103 1.40554e-17
6149.40775 1.41672e-17
6150.87447 1.38666e-17
6152.34118 1.36689e-17
6153.80790 1.43666e-17
6155.27461 1.38623e-17
6156.74133 1.39225e-17
6158.20805 1.43913e-17
6159.67476 1.43075e-17
6161.14148 1.36591e-17
6162.60819 1.30181e-17
6164.07491 1.36484e-17
6165.54163 1.39242e-17
6167.00834 1.36492e-17
6168.47506 1.31021e-17
6169.94177 1.41401e-17
6171.40849 1.97702e-17
6172.87521 2.48659e-17
6174.34192 1.47973e-17
6175.80864 1.38403e-17
6177.27535 1.38167e-17
6178.74207 1.45625e-17
6180.20879 1.35913e-17
6181.67550 1.30520e-17
6183.14222 1.36947e-17
6184.60893 1.42004e-17
6186.07565 1.36682e-17
6187.54237 1.33949e-17
6189.00908 1.37551e-17
6190.46575 1.28974e-17
6191.93247 1.28581e-17
6193.39918 1.26864e-17
6194.86590 1.26474e-17
6196.33262 1.23604e-17
6197.79933 1.17258e-17
6199.26605 1.23595e-17
6200.73276 1.22866e-17
6202.19948 1.25560e-17
6203.66620 1.20138e-17
6205.13291 1.19773e-17
6206.59963 1.18891e-17
6208.06634 1.13044e-17
6209.53306 1.20235e-17
6210.99978 1.14661e-17
6212.46649 1.07344e-17
6213.93321 1.07874e-17
6215.39992 1.14400e-17
6216.86664 1.16178e-17
6218.33336 1.20279e-17
6219.80007 1.18474e-17
6221.26679 1.12384e-17
6222.73350 1.06651e-17
6224.20022 1.11849e-17
6225.66694 1.19267e-17
6227.13365 1.16369e-17
6228.60037 1.16568e-17
6230.06708 1.15741e-17
6231.53380 1.02326e-17
6233.00052 9.60833e-18
6234.46723 1.03639e-17
6235.93395 1.12481e-17
6237.40066 1.10897e-17
6238.86738 1.12791e-17
6240.33410 1.13310e-17
6241.80081 1.09820e-17
6243.26753 1.04618e-17
6244.73424 9.66530e-18
6246.20096 9.68376e-18
6247.66768 1.01145e-17
6249.13439 1.08268e-17
6250.60111 1.13184e-17
6252.06782 1.14018e-17
6253.53454 1.12446e-17
6255.00126 1.06512e-17
6256.46797 1.11756e-17
6257.93469 1.21461e-17
6259.40140 1.19908e-17
6260.85807 1.07636e-17
6262.32479 1.11143e-17
6263.79151 1.24512e-17
6265.25822 1.12816e-17
6266.72494 1.04955e-17
6268.19165 1.13312e-17
6269.65837 1.14820e-17
6271.12509 1.12570e-17
6272.59180 1.05871e-17
6274.05852 1.01855e-17
6275.52523 1.12000e-17
6276.99195 1.15109e-17
6278.45867 1.06446e-17
6279.92538 1.01450e-17
6281.39210 1.01647e-17
6282.85881 1.00796e-17
6284.32553 1.04713e-17
6285.79225 1.14143e-17
6287.25896 1.19120e-17
6288.72568 1.18447e-17
6290.19239 1.14821e-17
6291.65911 1.08718e-17
6293.12583 1.14195e-17
6294.59254 1.13865e-17
6296.05926 1.05933e-17
6297.52597 1.08809e-17
6298.99269 1.12944e-17
6300.45941 1.07896e-17
6301.92612 1.07744e-17
6303.39284 1.08171e-17
6304.85955 1.09920e-17
6306.32627 1.14846e-17
6307.79299 1.07999e-17
6309.25970 1.10024e-17
6310.72642 1.05751e-17
6312.19313 1.01880e-17
6313.65985 1.05501e-17
6315.12657 1.10718e-17
6316.59328 1.03021e-17
6318.06000 1.10263e-17
6319.52671 1.19056e-17
6320.99343 1.12139e-17
6322.46015 1.13683e-17
6323.92686 1.20958e-17
6325.39358 1.19243e-17
6326.86029 1.12350e-17
6328.31696 1.05130e-17
6329.78368 1.09647e-17
6331.25040 1.16949e-17
6332.71711 1.17555e-17
6334.18383 1.21626e-17
6335.65054 1.18002e-17
6337.11726 1.13635e-17
6338.58398 1.21857e-17
6340.05069 1.19561e-17
6341.51741 1.14053e-17
6342.98412 1.19354e-17
6344.45084 1.15631e-17
6345.91756 1.22925e-17
6347.38427 1.21935e-17
6348.85099 1.18397e-17
6350.31770 1.21415e-17
6351.78442 1.26147e-17
6353.25114 1.26818e-17
6354.71785 1.27743e-17
6356.18457 1.22826e-17
6357.65128 1.24103e-17
6359.11800 1.21512e-17
6360.58472 1.26739e-17
6362.05143 1.27554e-17
6363.51815 1.31843e-17
6364.98486 1.30046e-17
6366.45158 1.21172e-17
6367.91830 1.21810e-17
6369.38501 1.18593e-17
6370.85173 1.21670e-17
6372.31844 1.26322e-17
6373.78516 1.26696e-17
6375.25188 1.24220e-17
6376.71859 1.32655e-17
6378.18531 1.39193e-17
6379.65202 1.30573e-17
6381.11874 1.23359e-17
6382.58546 1.19978e-17
6384.05217 1.20107e-17
6385.51889 1.28407e-17
6386.98560 1.25242e-17
6388.45232 1.14257e-17
6389.91904 1.17392e-17
6391.38575 1.22678e-17
6392.85247 1.18913e-17
6394.30914 1.30258e-17
6395.77585 1.33180e-17
6397.24257 1.27398e-17
6398.70929 1.30570e-17
6400.17600 1.32808e-17
6401.64272 1.30075e-17
6403.10943 1.28357e-17
6404.57615 1.29055e-17
6406.04287 1.25388e-17
6407.50958 1.26711e-17
6408.97630 1.34389e-17
6410.44301 1.30553e-17
6411.90973 1.20697e-17
6413.37645 1.25259e-17
6414.84316 1.23448e-17
6416.30988 1.29796e-17
6417.77659 1.35010e-17
6419.24331 1.28305e-17
6420.71003 1.22782e-17
6422.17674 1.24744e-17
6423.64346 1.25121e-17
6425.11017 1.29779e-17
6426.57689 1.27618e-17
6428.04361 1.25777e-17
6429.51032 1.22705e-17
6430.97704 1.21805e-17
6432.44375 1.25375e-17
6433.91047 1.25105e-17
6435.37719 1.22336e-17
6436.84390 1.18383e-17
6438.31062 1.22581e-17
6439.77733 1.27598e-17
6441.24405 1.15907e-17
6442.71077 1.10134e-17
6444.17748 1.16188e-17
6445.64420 1.17946e-17
6447.11091 1.17996e-17
6448.57763 1.18241e-17
6450.04435 1.20265e-17
6451.51106 1.17852e-17
6452.97778 1.13596e-17
6454.44449 1.12165e-17
6455.91121 1.08669e-17
6457.37793 1.02048e-17
6458.84464 1.07328e-17
6460.31136 1.12244e-17
6461.77807 1.03436e-17
6463.24479 1.04993e-17
6464.70146 1.06989e-17
6466.16818 1.08064e-17
6467.63489 1.13723e-17
6469.10161 1.08544e-17
6470.56832 1.01994e-17
6472.03504 1.00387e-17
6473.50176 9.86362e-18
6474.96847 1.04108e-17
6476.43519 1.10221e-17
6477.90190 1.08231e-17
6479.36862 1.02720e-17
6480.83534 1.02647e-17
6482.30205 1.05638e-17
6483.76877 1.05378e-17
6485.23548 1.04542e-17
6486.70220 9.84824e-18
6488.16892 9.94555e-18
6489.63563 1.04947e-17
6491.10235 1.05281e-17
6492.56906 9.67230e-18
6494.03578 1.01697e-17
6495.50250 1.02013e-17
6496.96921 1.00571e-17
6498.43593 1.05576e-17
6499.90264 1.11787e-17
6501.36936 1.05994e-17
6502.83608 1.05812e-17
6504.30279 1.11076e-17
6505.76951 1.08014e-17
6507.23622 1.07192e-17
6508.70294 1.12222e-17
6510.16966 1.10988e-17
6511.63637 1.04448e-17
6513.10309 1.01420e-17
6514.56980 1.05432e-17
6516.03652 1.05275e-17
6517.50324 1.09564e-17
6518.96995 1.12291e-17
6520.43667 1.04996e-17
6521.90338 1.06604e-17
6523.37010 1.13758e-17
6524.83682 1.21079e-17
6526.30353 1.18657e-17
6527.77025 1.10126e-17
6529.22692 1.13923e-17
6530.69363 1.26433e-17
6532.16035 1.18038e-17
6533.62707 1.21663e-17
6535.09378 1.19225e-17
6536.56050 1.20667e-17
6538.02721 1.28342e-17
6539.49393 1.31111e-17
6540.96065 1.20230e-17
6542.42736 1.17661e-17
6543.89408 1.22200e-17
6545.36079 1.23029e-17
6546.82751 1.10507e-17
6548.29423 1.18718e-17
6549.76094 1.20363e-17
6551.22766 1.24901e-17
6552.69437 1.25839e-17
6554.16109 1.31122e-17
6555.62781 1.34408e-17
6557.09452 1.27571e-17
6558.56124 1.31042e-17
6560.02795 1.28171e-17
6561.49467 1.30157e-17
6562.96139 1.30795e-17
6564.42810 1.31433e-17
6565.89482 1.32071e-17
6567.36153 1.32708e-17
6568.82825 1.33346e-17
6570.29497 1.33984e-17
6571.76168 1.34622e-17
6573.22840 1.35260e-17
6574.69511 1.35897e-17
6576.16183 1.36535e-17
6577.62855 1.37173e-17
6579.09526 1.37810e-17
6580.56198 1.38448e-17
6582.02869 1.39086e-17
6583.49541 1.39724e-17
6584.96213 1.40361e-17
6586.42884 1.40999e-17
6587.89556 1.41636e-17
6589.36227 1.42274e-17
6590.82899 1.42912e-17
6592.29571 1.43549e-17
6593.75238 1.44187e-17
6595.21909 1.44824e-17
6596.68581 1.45462e-17
6598.15252 1.46099e-17
6599.61924 1.46737e-17
6601.08596 1.47374e-17
6602.55267 1.48012e-17
6604.01939 1.48649e-17
6605.48610 1.49287e-17
6606.95282 1.49924e-17
6608.41954 1.50561e-17
6609.88625 1.51199e-17
6611.35297 1.51836e-17
6612.81968 1.52474e-17
6614.28640 1.53111e-17
6615.75312 1.53748e-17
6617.21983 1.54385e-17
6618.68655 1.55023e-17
6620.15326 1.55660e-17
6621.61998 1.56297e-17
6623.08670 1.56935e-17
6624.55341 1.57572e-17
6626.02013 1.60876e-17
6627.48684 1.57261e-17
6628.95356 1.54134e-17
6630.42028 1.57460e-17
6631.88699 1.55100e-17
6633.35371 1.62109e-17
6634.82042 1.62757e-17
6636.28714 1.56558e-17
6637.75386 1.58198e-17
6639.22057 1.57692e-17
6640.68729 1.60106e-17
6642.15400 1.53108e-17
6643.62072 1.50772e-17
6645.08744 1.58673e-17
6646.55415 1.64221e-17
6648.02087 1.63064e-17
6649.48758 1.53854e-17
6650.95430 1.54397e-17
6652.42102 1.51633e-17
6653.88773 1.53218e-17
6655.35445 1.55935e-17
6656.82116 1.58008e-17
6658.28788 1.59527e-17
6659.75460 1.54656e-17
6661.21127 1.51780e-17
6662.68803 1.58774e-17
6664.14470 1.58665e-17
6665.61141 1.55401e-17
6667.07813 1.50419e-17
6668.54485 1.48208e-17
6670.01156 1.54002e-17
6671.47828 1.57767e-17
6672.94499 1.59610e-17
6674.41171 1.59570e-17
6675.87843 1.55315e-17
6677.34514 1.49120e-17
6678.81186 1.52208e-17
6680.27857 1.47091e-17
6681.74529 1.48331e-17
6683.21201 1.54905e-17
6684.67872 1.44835e-17
6686.14544 1.44018e-17
6687.61215 1.54240e-17
6689.07887 1.55980e-17
6690.54559 1.46513e-17
6692.01230 1.49148e-17
6693.47902 1.55733e-17
6694.94573 1.48678e-17
6696.41245 1.46868e-17
6697.87917 1.50501e-17
6699.34588 1.50424e-17
6700.81260 1.47473e-17
6702.27931 1.48658e-17
6703.74603 1.47765e-17
6705.21275 1.42921e-17
6706.67946 1.54757e-17
6708.14618 1.59742e-17
6709.61289 1.59359e-17
6711.07961 1.59607e-17
6712.54633 1.52952e-17
6714.01304 1.51546e-17
6715.47976 1.49999e-17
6716.94647 1.50017e-17
6718.41319 1.48816e-17
6719.87991 1.56634e-17
6721.34662 1.65258e-17
6722.81334 1.59229e-17
6724.28005 1.65179e-17
6725.74677 1.69881e-17
6727.21349 1.59522e-17
6728.68020 1.49239e-17
6730.14692 1.43832e-17
6731.60359 1.46042e-17
6733.07030 1.48284e-17
6734.53702 1.45510e-17
6736.00374 1.44565e-17
6737.47045 1.44868e-17
6738.93717 1.49811e-17
6740.40388 1.49092e-17
6741.87060 1.44160e-17
6743.33732 1.42802e-17
6744.80403 1.42892e-17
6746.27075 1.51159e-17
6747.73746 1.59747e-17
6749.20418 1.57018e-17
6750.67090 1.51543e-17
6752.13761 1.49597e-17
6753.60433 1.51210e-17
6755.07104 1.48423e-17
6756.53776 1.44147e-17
6758.00448 1.39060e-17
6759.47119 1.48499e-17
6760.93791 1.54655e-17
6762.40462 1.53037e-17
6763.87134 1.48475e-17
6765.33806 1.38171e-17
6766.80477 1.39045e-17
6768.27149 1.45176e-17
6769.73820 1.41803e-17
6771.20492 1.54188e-17
6772.67164 1.46459e-17
6774.13835 1.33517e-17
6775.60507 1.36323e-17
6777.07178 1.38254e-17
6778.53850 1.40396e-17
6780.00522 1.39854e-17
6781.47193 1.38714e-17
6782.93865 1.32411e-17
6784.40536 1.34642e-17
6785.87208 1.37925e-17
6787.33880 1.42939e-17
6788.80551 1.32799e-17
6790.27223 1.28842e-17
6791.73894 1.39214e-17
6793.20566 1.46560e-17
6794.67238 1.38162e-17
6796.13909 1.34793e-17
6797.59576 1.32447e-17
6799.06248 1.31039e-17
6800.52919 1.31804e-17
6801.99591 1.41239e-17
6803.46263 1.33140e-17
6804.92934 1.37835e-17
6806.39606 1.39232e-17
6807.86277 1.33653e-17
6809.32949 1.31701e-17
6810.79621 1.31707e-17
6812.26292 1.14675e-17
6813.72964 1.22834e-17
6815.19635 1.29374e-17
6816.66307 1.28006e-17
6818.12979 1.20540e-17
6819.59650 1.19300e-17
6821.06322 1.22238e-17
6822.52993 1.22920e-17
6823.99665 1.16049e-17
6825.46337 1.16984e-17
6826.93008 1.15571e-17
6828.39680 1.15552e-17
6829.86351 1.15468e-17
6831.33023 1.17190e-17
6832.79695 1.22138e-17
6834.26366 1.17172e-17
6835.73038 1.16727e-17
6837.19709 1.10332e-17
6838.66381 1.12722e-17
6840.13053 1.17999e-17
6841.59724 1.20001e-17
6843.06396 1.11191e-17
6844.53067 1.08946e-17
6845.99739 1.07493e-17
6847.46411 1.05971e-17
6848.93082 1.09643e-17
6850.39754 1.07912e-17
6851.86425 9.85529e-18
6853.33097 1.03850e-17
6854.79769 1.04059e-17
6856.26440 1.04598e-17
6857.73112 1.04407e-17
6859.19783 1.01339e-17
6860.66455 1.02278e-17
6862.13127 1.08101e-17
6863.59798 1.05097e-17
6865.05465 1.07052e-17
6866.52137 1.04391e-17
6867.98808 1.04865e-17
6869.45480 1.02101e-17
6870.92152 1.05788e-17
6872.38823 1.07368e-17
6873.85495 1.10417e-17
6875.32166 1.05620e-17
6876.78838 1.05081e-17
6878.25510 1.09518e-17
6879.72181 1.11385e-17
6881.18853 1.10347e-17
6882.65524 1.05196e-17
6884.12196 1.09059e-17
6885.58868 1.18143e-17
6887.05539 1.14752e-17
6888.52211 1.05793e-17
6889.98882 1.13701e-17
6891.45554 1.19132e-17
6892.92226 1.17142e-17
6894.38897 1.19155e-17
6895.85569 1.18350e-17
6897.32240 1.13986e-17
6898.78912 1.23830e-17
6900.25584 1.26894e-17
6901.72255 1.16596e-17
6903.18927 1.22487e-17
6904.65598 1.30330e-17
6906.12270 1.26096e-17
6907.58942 1.20382e-17
6909.05613 1.18871e-17
6910.52285 1.22063e-17
6911.98956 1.22969e-17
6913.45628 1.27797e-17
6914.92300 1.36775e-17
6916.38971 1.34643e-17
6917.85643 1.29500e-17
6919.32314 1.20794e-17
6920.78986 1.21100e-17
6922.25658 1.28542e-17
6923.72329 1.29824e-17
6925.19001 1.33628e-17
6926.65672 1.33704e-17
6928.12344 1.36222e-17
6929.59016 1.39185e-17
6931.04683 1.31714e-17
6932.51354 1.30821e-17
6933.98026 1.32456e-17
6935.44697 1.30400e-17
6936.91369 1.38459e-17
6938.38041 1.37902e-17
6939.84712 1.37641e-17
6941.31384 1.40324e-17
6942.78055 1.34352e-17
6944.24727 1.38946e-17
6945.71399 1.39874e-17
6947.18070 1.38753e-17
6948.64742 1.41116e-17
6950.11413 1.39942e-17
6951.58085 1.44203e-17
6953.04757 1.46019e-17
6954.51428 1.44989e-17
6955.98100 1.40998e-17
6957.44771 1.39384e-17
6958.91443 1.31921e-17
6960.38115 1.36013e-17
6961.84786 1.44717e-17
6963.31458 1.39887e-17
6964.78129 1.40604e-17
6966.24801 1.41959e-17
6967.71473 1.43459e-17
6969.18144 1.46995e-17
6970.64816 1.42473e-17
6972.11487 1.47347e-17
6973.58159 1.53115e-17
6975.04831 1.44273e-17
6976.51502 1.48858e-17
6977.98174 1.55924e-17
6979.44845 1.49866e-17
6980.91517 1.51487e-17
6982.38189 1.50842e-17
6983.84860 1.53818e-17
6985.31532 1.60247e-17
6986.78203 1.58375e-17
6988.24875 1.57732e-17
6989.71547 1.55186e-17
6991.18218 1.51841e-17
6992.64890 1.63642e-17
6994.11561 1.69969e-17
6995.58233 1.78471e-17
6997.03900 1.58579e-17
6998.50572 1.47061e-17
6999.97243 1.47126e-17
7001.43915 1.52682e-17
7002.90586 1.52587e-17
7004.37258 1.62874e-17
7005.83930 1.59229e-17
7007.30601 1.57808e-17
7008.77273 1.66895e-17
7010.23944 1.60927e-17
7011.70616 1.57451e-17
7013.17288 1.58043e-17
7014.63959 1.63940e-17
7016.10631 1.57100e-17
7017.57302 1.52396e-17
7019.03974 1.57042e-17
7020.50646 1.61104e-17
7021.97317 1.50056e-17
7023.43989 1.56428e-17
7024.90660 1.44284e-17
7026.37332 1.42940e-17
7027.84004 1.46576e-17
7029.30675 1.51129e-17
7030.77347 1.55356e-17
7032.24018 1.51644e-17
7033.70690 1.44714e-17
7035.17362 1.45490e-17
7036.64033 1.53451e-17
7038.10705 1.52885e-17
7039.57376 1.53223e-17
7041.04048 1.55628e-17
7042.50720 1.54040e-17
7043.97391 1.52679e-17
7045.44063 1.48861e-17
7046.90734 1.55518e-17
7048.37406 1.46760e-17
7049.84078 1.46210e-17
7051.30749 1.44246e-17
7052.77421 1.44947e-17
7054.24092 1.45625e-17
7055.70764 1.47735e-17
7057.17436 1.51718e-17
7058.64107 1.38181e-17
7060.10779 1.39036e-17
7061.57450 1.42736e-17
7063.04122 1.36111e-17
7064.49789 1.40543e-17
7065.97465 1.45134e-17
7067.43132 1.44805e-17
7068.89804 1.47273e-17
7070.36475 1.40851e-17
7071.83147 1.43500e-17
7073.29819 1.52411e-17
7074.76490 1.60124e-17
7076.23162 1.48091e-17
7077.69833 1.40708e-17
7079.16505 1.48476e-17
7080.63177 1.46008e-17
7082.09848 1.39579e-17
7083.56520 1.47412e-17
7085.03191 1.54698e-17
7086.49863 1.50644e-17
7087.96535 1.33271e-17
7089.43206 1.38142e-17
7090.89878 1.53936e-17
7092.36549 1.42654e-17
7093.83221 1.45228e-17
7095.29893 1.40232e-17
7096.76564 1.34531e-17
7098.23236 1.41683e-17
7099.69907 1.45428e-17
7101.16579 1.45043e-17
7102.63251 1.43653e-17
7104.09922 1.42437e-17
7105.56594 1.41135e-17
7107.03265 1.47336e-17
7108.49937 1.54588e-17
7109.96609 1.43835e-17
7111.43280 1.38770e-17
7112.89952 1.45069e-17
7114.36623 1.44642e-17
7115.83295 1.48981e-17
7117.29967 1.50386e-17
7118.76638 1.53816e-17
7120.23310 1.46235e-17
7121.69981 1.41118e-17
7123.16653 1.40705e-17
7124.63325 1.43649e-17
7126.09996 1.41529e-17
7127.56668 1.47551e-17
7129.03339 1.47234e-17
7130.50011 1.42104e-17
7131.96683 1.44063e-17
7133.43354 1.41370e-17
7134.89021 1.39902e-17
7136.35693 1.50395e-17
7137.82364 1.42070e-17
7139.29036 1.37946e-17
7140.75708 1.39577e-17
7142.22379 1.41941e-17
7143.69051 1.44815e-17
7145.15722 1.41166e-17
7146.62394 1.40667e-17
7148.09066 1.45361e-17
7149.55737 1.42334e-17
7151.02409 1.37562e-17
7152.49080 1.30724e-17
7153.95752 1.36475e-17
7155.42424 1.43077e-17
7156.89095 1.38080e-17
7158.35767 1.38456e-17
7159.82438 1.41971e-17
7161.29110 1.51085e-17
7162.75782 1.58709e-17
7164.22453 1.46329e-17
7165.69125 1.36819e-17
7167.15796 1.40108e-17
7168.62468 1.48015e-17
7170.09140 1.44797e-17
7171.55811 1.44225e-17
7173.02483 1.52728e-17
7174.49154 1.52358e-17
7175.95826 1.49719e-17
7177.42498 1.46339e-17
7178.89169 1.40505e-17
7180.35841 1.39040e-17
7181.82512 1.47186e-17
7183.29184 1.51003e-17
7184.75856 1.46826e-17
7186.22527 1.47464e-17
7187.69199 1.49401e-17
7189.15870 1.48815e-17
7190.62542 1.44456e-17
7192.09214 1.46239e-17
7193.55885 1.44175e-17
7195.02557 1.41454e-17
7196.49228 1.37382e-17
7197.95900 1.36445e-17
7199.42572 1.41511e-17
7200.88239 1.46189e-17
7202.34910 1.42544e-17
7203.81582 1.48802e-17
7205.28253 1.56895e-17
7206.74925 1.49451e-17
7208.21597 1.49370e-17
7209.68268 1.47617e-17
7211.14940 1.49411e-17
7212.61611 1.60688e-17
7214.08283 1.55913e-17
7215.54955 1.54707e-17
7217.01626 1.58005e-17
7218.48298 1.50195e-17
7219.94969 1.40580e-17
7221.41641 1.40751e-17
7222.88313 1.52896e-17
7224.34984 1.51252e-17
7225.81656 1.51940e-17
7227.28327 1.55404e-17
7228.74999 1.49638e-17
7230.21671 1.50667e-17
7231.68342 1.44678e-17
7233.15014 1.48391e-17
7234.61685 1.57519e-17
7236.08357 1.45078e-17
7237.55029 1.44206e-17
7239.01700 1.48759e-17
7240.48372 1.59640e-17
7241.95043 1.65266e-17
7243.41715 1.62002e-17
7244.88387 1.57677e-17
7246.35058 1.58631e-17
7247.81730 1.65523e-17
7249.28401 1.61735e-17
7250.75073 1.58356e-17
7252.21745 1.54977e-17
7253.68416 1.56340e-17
7255.15088 1.48466e-17
7256.61759 1.54944e-17
7258.08431 1.67205e-17
7259.55103 1.63634e-17
7261.01774 1.61995e-17
7262.48446 1.59121e-17
7263.95117 1.61029e-17
7265.41789 1.48394e-17
7266.87456 1.47680e-17
7268.34128 1.38996e-17
7269.80799 1.45571e-17
7271.27471 1.56468e-17
7272.74142 1.50407e-17
7274.20814 1.45207e-17
7275.67486 1.40039e-17
7277.14157 1.52090e-17
7278.60829 1.57233e-17
7280.07500 1.57465e-17
7281.54172 1.54137e-17
7283.00844 1.58667e-17
7284.47515 1.54754e-17
7285.94187 1.54842e-17
7287.40858 1.60022e-17
7288.87530 1.55083e-17
7290.34202 1.55247e-17
7291.80873 1.62940e-17
7293.27545 1.56440e-17
7294.74216 1.41386e-17
7296.20888 1.38846e-17
7297.67560 1.39744e-17
7299.14231 1.52330e-17
7300.60903 1.55302e-17
7302.07574 1.44357e-17
7303.54246 1.45607e-17
7305.00918 1.47409e-17
7306.47589 1.44242e-17
7307.94261 1.42300e-17
7309.40932 1.41518e-17
7310.87604 1.36393e-17
7312.34276 1.38570e-17
7313.80947 1.31344e-17
7315.27619 1.43060e-17
7316.74290 1.45016e-17
7318.20962 1.49452e-17
7319.67634 1.64274e-17
7321.14305 1.61576e-17
7322.60977 1.57644e-17
7324.07648 1.55593e-17
7325.54320 1.44848e-17
7327.00992 1.37587e-17
7328.47663 1.50328e-17
7329.94335 1.50099e-17
7331.41006 1.44580e-17
7332.87678 1.50303e-17
7334.33345 1.52543e-17
7335.80017 1.47778e-17
7337.26688 1.49111e-17
7338.73360 1.51861e-17
7340.20031 1.48673e-17
7341.66703 1.45677e-17
7343.13375 1.40899e-17
7344.60046 1.38989e-17
7346.06718 1.42457e-17
7347.53389 1.40272e-17
7349.00061 1.42109e-17
7350.46733 1.53758e-17
7351.93404 1.46644e-17
7353.40076 1.49450e-17
7354.86747 1.56668e-17
7356.33419 1.56736e-17
7357.80091 1.49012e-17
7359.26762 1.53345e-17
7360.73434 1.51876e-17
7362.20105 1.46145e-17
7363.66777 1.45286e-17
7365.13449 1.46393e-17
7366.60120 1.56134e-17
7368.06792 1.49672e-17
7369.53463 1.47563e-17
7371.00135 1.38003e-17
7372.46807 1.31972e-17
7373.93478 1.38070e-17
7375.40150 1.42614e-17
7376.86821 1.31277e-17
7378.33493 1.33357e-17
7379.80165 1.43687e-17
7381.26836 1.50450e-17
7382.73508 1.44708e-17
7384.20179 1.46866e-17
7385.66851 1.41661e-17
7387.13523 1.36797e-17
7388.60194 1.53966e-17
7390.06866 1.43917e-17
7391.53537 1.40488e-17
7393.00209 1.43360e-17
7394.46881 1.30258e-17
7395.93552 1.29709e-17
7397.40224 1.30358e-17
7398.19928 1.30358e-17
7400.19769 1.29955e-17
7402.19611 1.29922e-17
7404.20461 1.30104e-17
7406.20303 1.30319e-17
7408.20144 1.30297e-17
7410.19986 1.30014e-17
7412.20836 1.29071e-17
7414.20678 1.28031e-17
7416.20519 1.27162e-17
7418.20361 1.26615e-17
7420.20202 1.26517e-17
7422.21053 1.26730e-17
7424.20894 1.26759e-17
7426.20735 1.25788e-17
7428.20577 1.24994e-17
7430.20418 1.25592e-17
7432.21269 1.26617e-17
7434.21110 1.27023e-17
7436.20952 1.26668e-17
7438.20793 1.26502e-17
7440.21644 1.27296e-17
7442.21485 1.28022e-17
7444.21327 1.27636e-17
7446.21168 1.26899e-17
7448.21009 1.26334e-17
7450.21860 1.26039e-17
7452.21702 1.25700e-17
7454.21543 1.25195e-17
7456.21384 1.24744e-17
7458.22235 1.24664e-17
7460.22076 1.24637e-17
7462.21918 1.24547e-17
7464.21759 1.24274e-17
7466.21601 1.23717e-17
7468.22451 1.22921e-17
7470.22293 1.22161e-17
7472.22134 1.21830e-17
7474.21976 1.21694e-17
7476.21817 1.21996e-17
7478.22668 1.22049e-17
7480.22509 1.21002e-17
7482.22350 1.19016e-17
7484.22192 1.17258e-17
7486.23043 1.17006e-17
7488.22884 1.17071e-17
7490.22725 1.16501e-17
7492.22567 1.16011e-17
7494.22408 1.16301e-17
7496.23259 1.17212e-17
7498.23100 1.18135e-17
7500.22942 1.18511e-17
7502.22783 1.18676e-17
7504.22624 1.18768e-17
7506.23475 1.18662e-17
7508.23317 1.18216e-17
7510.23158 1.17572e-17
7512.22999 1.16830e-17
7514.23850 1.16206e-17
7516.23691 1.15777e-17
7518.23533 1.15793e-17
7520.23374 1.16114e-17
7522.23216 1.17093e-17
7524.24066 1.17892e-17
7526.23908 1.17588e-17
7528.23749 1.16082e-17
7530.23591 1.14447e-17
7532.23432 1.13804e-17
7534.24283 1.13536e-17
7536.24124 1.13594e-17
7538.23965 1.13781e-17
7540.23807 1.13950e-17
7542.24658 1.14035e-17
7544.24499 1.14172e-17
7546.24340 1.14405e-17
7548.24182 1.14573e-17
7550.24023 1.14575e-17
7552.24874 1.14282e-17
7554.24715 1.13433e-17
7556.24557 1.12283e-17
7558.24398 1.11076e-17
7560.24239 1.10206e-17
7562.25090 1.09744e-17
7564.24932 1.10373e-17
7566.24773 1.10963e-17
7568.24614 1.10555e-17
7570.25465 1.09612e-17
7572.25306 1.08800e-17
7574.25148 1.08471e-17
7576.24989 1.08275e-17
7578.24831 1.08048e-17
7580.25681 1.07656e-17
7582.25523 1.06685e-17
7584.25364 1.05624e-17
7586.25206 1.05169e-17
7588.26056 1.04988e-17
7590.25898 1.04014e-17
7592.25739 1.01287e-17
7594.25580 9.84648e-18
7596.25422 9.71104e-18
7598.26273 9.66397e-18
7600.26114 9.71205e-18
7602.25955 9.78966e-18
7604.25797 9.85250e-18
7606.25638 9.82697e-18
7608.26489 9.72605e-18
7610.26330 9.42743e-18
7612.26172 9.17961e-18
7614.26013 9.19632e-18
7616.26864 9.38358e-18
7618.26705 9.61656e-18
7620.26547 9.76201e-18
7622.26388 9.81518e-18
7624.26229 9.66770e-18
7626.27080 9.47721e-18
7628.26921 9.36170e-18
7630.26763 9.29241e-18
7632.26604 9.22176e-18
7634.27455 9.15001e-18
7636.27296 9.11609e-18
7638.27138 9.15239e-18
7640.26979 9.18792e-18
7642.26821 9.14925e-18
7644.27671 9.06995e-18
7646.27513 8.95181e-18
7648.27354 8.83384e-18
7650.27195 8.75742e-18
7652.27037 8.75233e-18
7654.27888 8.74241e-18
7656.27729 8.60883e-18
7658.27570 8.46777e-18
7660.27412 8.37783e-18
7662.28262 8.34844e-18
7664.28104 8.36350e-18
7666.27945 8.40955e-18
7668.27787 8.47247e-18
7670.27628 8.52368e-18
7672.28479 8.58373e-18
7674.28320 8.68923e-18
7676.28162 8.77676e-18
7678.28003 8.77633e-18
7680.27844 8.68304e-18
7682.28695 8.57041e-18
7684.28536 8.51206e-18
7686.28378 8.47185e-18
7688.28219 8.44904e-18
7690.29070 8.43544e-18
7692.28911 8.41411e-18
7694.28753 8.40216e-18
7696.28594 8.43824e-18
7698.28436 8.54404e-18
7700.29286 8.64530e-18
7702.29128 8.65013e-18
7704.28969 8.60552e-18
7706.28810 8.50129e-18
7708.29661 8.39258e-18
7710.29503 8.32596e-18
7712.29344 8.34278e-18
7714.29185 8.39616e-18
7716.29027 8.45473e-18
7718.29877 8.52199e-18
7720.29719 8.59340e-18
7722.29560 8.66108e-18
7724.29402 8.71663e-18
7726.29243 8.76251e-18
7728.30094 8.81068e-18
7730.29935 8.87497e-18
7732.29777 8.96894e-18
7734.29618 9.12457e-18
7736.30469 9.31183e-18
7738.30310 9.52649e-18
7740.30151 9.72478e-18
7742.29993 9.87481e-18
7744.29834 9.93095e-18
7746.30685 9.94291e-18
7748.30526 9.91297e-18
7750.30368 9.91399e-18
7752.30209 1.00237e-17
7754.30051 1.02141e-17
7756.30901 1.04270e-17
7758.30743 1.06019e-17
7760.30584 1.07453e-17
7762.30425 1.08143e-17
7764.31276 1.08568e-17
7766.31118 1.08971e-17
7768.30959 1.09400e-17
7770.30800 1.09740e-17
7772.30642 1.10082e-17
7774.31492 1.10588e-17
7776.31334 1.11518e-17
7778.31175 1.12586e-17
7780.31017 1.13774e-17
7782.30858 1.14737e-17
7784.31709 1.15106e-17
7786.31550 1.14950e-17
7788.31392 1.14677e-17
7790.31233 1.14718e-17
7792.32084 1.14967e-17
7794.31925 1.15834e-17
7796.31766 1.16557e-17
7798.31608 1.16433e-17
7800.31449 1.15646e-17
7802.32300 1.14754e-17
7804.32141 1.14262e-17
7806.31983 1.13984e-17
7808.31824 1.14395e-17
7810.32675 1.14439e-17
7812.32516 1.13029e-17
7814.32358 1.10908e-17
7816.32199 1.08852e-17
7818.32040 1.07766e-17
7820.32891 1.07658e-17
7822.32733 1.09266e-17
7824.32574 1.11320e-17
7826.32415 1.13074e-17
7828.32257 1.14170e-17
7830.33107 1.14282e-17
7832.32949 1.13564e-17
7834.32790 1.12584e-17
7836.32632 1.12020e-17
7838.33482 1.11786e-17
7840.33324 1.12180e-17
7842.33165 1.13022e-17
7844.33007 1.14492e-17
7846.32848 1.16011e-17
7848.33699 1.16975e-17
7850.33540 1.16776e-17
7852.33381 1.16161e-17
7854.33223 1.15525e-17
7856.33064 1.15221e-17
7858.33915 1.16163e-17
7860.33756 1.17334e-17
7862.33598 1.17410e-17
7864.33439 1.15713e-17
7866.34290 1.13501e-17
7868.34131 1.11792e-17
7870.33973 1.10713e-17
7872.33814 1.10958e-17
7874.33655 1.12092e-17
7876.34506 1.13939e-17
7878.34348 1.15811e-17
7880.34189 1.17263e-17
7882.34030 1.17429e-17
7884.34881 1.17016e-17
7886.34722 1.16080e-17
7888.34564 1.15276e-17
7890.34405 1.15346e-17
7892.34247 1.16029e-17
7894.35097 1.16512e-17
7896.34939 1.16021e-17
7898.34780 1.15022e-17
7900.34622 1.13499e-17
7902.34463 1.11795e-17
7904.35314 1.10051e-17
7906.35155 1.08567e-17
7908.34996 1.07401e-17
7910.34838 1.06805e-17
7912.35689 1.06796e-17
7914.35530 1.07655e-17
7916.35371 1.08973e-17
7918.35213 1.10788e-17
7920.35054 1.12452e-17
7922.35905 1.13472e-17
7924.35746 1.13543e-17
7926.35588 1.13048e-17
7928.35429 1.12213e-17
7930.35270 1.11389e-17
7932.36121 1.11011e-17
7934.35963 1.11105e-17
7936.35804 1.11811e-17
7938.35645 1.12914e-17
7940.36496 1.14126e-17
7942.36337 1.15055e-17
7944.36179 1.15804e-17
7946.36020 1.16518e-17
7948.35862 1.16635e-17
7950.36712 1.15460e-17
7952.36554 1.13454e-17
7954.36395 1.11097e-17
7956.36237 1.09280e-17
7958.37087 1.08388e-17
7960.36929 1.10169e-17
7962.36770 1.12293e-17
7964.36611 1.13528e-17
7966.36453 1.13497e-17
7968.37304 1.11973e-17
7970.37145 1.09463e-17
7972.36986 1.07233e-17
7974.36828 1.07165e-17
7976.36669 1.07369e-17
7978.37520 1.06541e-17
7980.37361 1.05256e-17
7982.37203 1.03822e-17
7984.37044 1.02856e-17
7986.37895 1.02830e-17
7988.37736 1.04341e-17
7990.37578 1.05973e-17
7992.37419 1.05919e-17
7994.37260 1.05569e-17
7996.38111 1.06059e-17
7998.37952 1.07050e-17
8000.37794 1.07490e-17
8002.37635 1.06715e-17
8004.37477 1.05652e-17
8006.38327 1.05249e-17
8008.38169 1.04925e-17
8010.38010 1.04303e-17
8012.37852 1.03805e-17
8014.38702 1.04091e-17
8016.38544 1.05202e-17
8018.38385 1.06275e-17
8020.38226 1.06285e-17
8022.38068 1.05686e-17
8024.38919 1.04134e-17
8026.38760 1.02450e-17
8028.38601 1.01306e-17
8030.38443 1.01018e-17
8032.39293 1.01135e-17
8034.39135 1.01376e-17
8036.38976 1.01622e-17
8038.38818 1.01631e-17
8040.38659 1.01381e-17
8042.39510 1.00810e-17
8044.39351 9.99609e-18
8046.39193 9.87269e-18
8048.39034 9.73394e-18
8050.38875 9.65133e-18
8052.39726 9.79856e-18
8054.39567 9.98124e-18
8056.39409 1.01068e-17
8058.39250 1.01313e-17
8060.40101 1.00510e-17
8062.39942 9.88049e-18
8064.39784 9.69119e-18
8066.39625 9.59137e-18
8068.39467 9.49977e-18
8070.40317 9.35483e-18
8072.40159 9.21862e-18
8074.40000 9.16129e-18
8076.39841 9.19547e-18
8078.39683 9.26273e-18
8080.40534 9.30818e-18
8082.40375 9.32591e-18
8084.40216 9.26468e-18
8086.40058 9.17308e-18
8088.40908 9.06249e-18
8090.40750 8.98921e-18
8092.40591 8.99650e-18
8094.40433 9.13050e-18
8096.40274 9.29945e-18
8098.41125 9.40724e-18
8100.40966 9.49401e-18
8102.40808 9.58009e-18
8104.40649 9.64590e-18
8106.40490 9.66702e-18
8108.41341 9.62529e-18
8110.41182 9.54023e-18
8112.41024 9.41445e-18
8114.40865 9.28130e-18
8116.41716 9.17333e-18
8118.41557 9.08649e-18
8120.41399 9.00371e-18
8122.41240 8.92730e-18
8124.41082 8.87158e-18
8126.41932 8.85351e-18
8128.41774 8.86556e-18
8130.41615 8.92492e-18
8132.41456 8.99091e-18
8134.42307 9.03238e-18
8136.42149 9.03611e-18
8138.41990 9.01304e-18
8140.41831 8.97445e-18
8142.41673 8.95452e-18
8144.42523 9.02924e-18
8146.42365 9.11948e-18
8148.42206 9.18563e-18
8150.42048 9.19997e-18
8152.41889 9.15323e-18
8154.42740 9.05036e-18
8156.42581 8.94689e-18
8158.42423 8.94129e-18
8160.42264 8.94401e-18
8162.43115 8.92365e-18
8164.42956 8.85478e-18
8166.42797 8.70670e-18
8168.42639 8.50333e-18
8170.42480 8.32198e-18
8172.43331 8.27056e-18
8174.43172 8.27016e-18
8176.43014 8.30689e-18
8178.42855 8.33948e-18
8180.43706 8.33277e-18
8182.43547 8.28183e-18
8184.43389 8.21857e-18
8186.43230 8.17322e-18
8188.43071 8.15105e-18
8190.43922 8.16956e-18
8192.43764 8.23517e-18
8194.43605 8.37609e-18
8196.43446 8.55396e-18
8198.43288 8.73232e-18
8200.44138 8.85563e-18
8202.43980 8.92594e-18
8204.43821 8.89973e-18
8206.43663 8.81297e-18
8208.44513 8.65726e-18
8210.44355 8.48357e-18
8212.44196 8.32382e-18
8214.44038 8.22024e-18
8216.43879 8.15616e-18
8218.44730 8.13749e-18
8220.44571 8.16578e-18
8222.44412 8.27940e-18
8224.44254 8.40094e-18
8226.44095 8.46851e-18
8228.44946 8.44789e-18
8230.44787 8.37529e-18
8232.44629 8.26938e-18
8234.44470 8.14834e-18
8236.45321 8.03925e-18
8238.45162 7.94310e-18
8240.45004 7.86392e-18
8242.44845 7.80041e-18
8244.44686 7.74696e-18
8246.45537 7.69844e-18
8248.45378 7.65670e-18
8250.45220 7.60639e-18
8252.45061 7.58428e-18
8254.45912 7.64616e-18
8256.45753 7.73256e-18
8258.45595 7.77410e-18
8260.45436 7.71879e-18
8262.45278 7.61485e-18
8264.46128 7.47671e-18
8266.45970 7.35164e-18
8268.45811 7.32114e-18
8270.45653 7.31228e-18
8272.45494 7.23220e-18
8274.46345 7.07765e-18
8276.46186 6.94157e-18
8278.46027 6.91953e-18
8280.45869 6.96250e-18
8282.46720 7.10821e-18
8284.46561 7.25058e-18
8286.46402 7.29329e-18
8288.46244 7.23737e-18
8290.46085 7.17065e-18
8292.46936 7.15468e-18
8294.46777 7.12245e-18
8296.46619 7.00507e-18
8298.46460 6.86506e-18
8300.46301 6.72749e-18
8302.47152 6.61589e-18
8304.46994 6.53402e-18
8306.46835 6.49118e-18
8308.46676 6.47465e-18
8310.47527 6.49046e-18
8312.47368 6.48365e-18
8314.47210 6.38964e-18
8316.47051 6.24773e-18
8318.46893 6.09722e-18
8320.47743 5.97488e-18
8322.47585 5.87413e-18
8324.47426 5.81063e-18
8326.47268 5.76387e-18
8328.47109 5.72779e-18
8330.47960 5.68504e-18
8332.47801 5.60311e-18
8334.47642 5.51088e-18
8336.47484 5.47588e-18
8338.48335 5.55207e-18
8340.48176 5.61939e-18
8342.48017 5.52866e-18
8344.47859 5.38703e-18
8346.47700 5.25750e-18
8348.48551 5.14220e-18
8350.48392 4.98798e-18
8352.48234 4.79388e-18
8354.48075 4.63378e-18
8356.48926 4.63772e-18
8358.48767 4.67775e-18
8360.48609 4.70279e-18
8362.48450 4.68261e-18
8364.48291 4.60130e-18
8366.49142 4.46713e-18
8368.48983 4.33176e-18
8370.48825 4.26305e-18
8372.48666 4.20659e-18
8374.48508 4.13529e-18
8376.49358 4.05431e-18
8378.49200 3.96232e-18
8380.49041 3.87472e-18
8382.48883 3.80905e-18
8384.49733 3.78840e-18
8386.49575 3.78864e-18
8388.49416 3.79915e-18
8390.49257 3.80985e-18
8392.49099 3.81452e-18
8394.49950 3.80510e-18
8396.49791 3.76845e-18
8398.49632 3.71177e-18
8400.49474 3.68334e-18
8402.50324 3.79150e-18
8404.50166 3.91781e-18
8406.50007 3.98874e-18
8408.49849 4.02501e-18
8410.49690 4.08136e-18
8412.50541 4.17278e-18
8414.50382 4.25297e-18
8416.50224 4.26882e-18
8418.50065 4.27886e-18
8420.49906 4.33523e-18
8422.50757 4.39741e-18
8424.50598 4.42139e-18
8426.50440 4.39893e-18
8428.50281 4.36074e-18
8430.51132 4.33474e-18
8432.50973 4.32978e-18
8434.50815 4.38496e-18
8436.50656 4.45991e-18
8438.50497 4.52036e-18
8440.51348 4.56913e-18
8442.51190 4.63608e-18
8444.51031 4.73941e-18
8446.50872 4.85286e-18
8448.50714 4.95679e-18
8450.51564 5.04896e-18
8452.51406 5.09809e-18
8454.51247 5.15268e-18
8456.51089 5.27483e-18
8458.51939 5.48891e-18
8460.51781 5.72122e-18
8462.51622 5.89725e-18
8464.51464 6.03464e-18
8466.51305 6.12127e-18
8468.52156 6.15800e-18
8470.51997 6.13639e-18
8472.51839 6.07585e-18
8474.51680 5.99781e-18
8476.52531 5.93763e-18
8478.52372 5.91288e-18
8480.52213 5.99522e-18
8482.52055 6.09523e-18
8484.51896 6.14314e-18
8486.52747 6.12107e-18
8488.52588 6.06335e-18
8490.52430 5.99927e-18
8492.52271 5.95349e-18
8494.52113 5.97164e-18
8496.52963 6.04760e-18
8498.52805 6.22007e-18
8500.52646 6.42311e-18
8502.52487 6.58721e-18
8504.53338 6.65342e-18
8506.53180 6.68028e-18
8508.53021 6.69426e-18
8510.52862 6.72157e-18
8512.52704 6.82113e-18
8514.53554 6.93620e-18
8516.53396 7.01470e-18
8518.53237 7.01403e-18
8520.53079 6.94902e-18
8522.52920 6.80741e-18
8524.53771 6.66648e-18
8526.53612 6.59696e-18
8528.53454 6.59943e-18
8530.53295 6.70305e-18
8532.54146 6.85332e-18
8534.53987 6.96566e-18
8536.53828 6.95235e-18
8538.53670 6.93217e-18
8540.53511 7.02859e-18
8542.54362 7.15207e-18
8544.54203 7.24314e-18
8546.54045 7.31229e-18
8548.53886 7.40336e-18
8550.53728 7.54295e-18
8552.54578 7.70336e-18
8554.54420 7.88037e-18
8556.54261 8.03550e-18
8558.54102 8.12292e-18
8560.54953 8.16662e-18
8562.54795 8.19399e-18
8564.54636 8.23321e-18
8566.54477 8.27890e-18
8568.54319 8.33978e-18
8570.55169 8.43656e-18
8572.55011 8.61782e-18
8574.54852 8.82646e-18
8576.54694 9.00973e-18
8578.54535 9.15552e-18
8580.55386 9.30598e-18
8582.55227 9.49163e-18
8584.55069 9.68441e-18
8586.54910 9.88677e-18
8588.55761 1.00561e-17
8590.55602 1.01247e-17
8592.55443 1.01509e-17
8594.55285 1.02378e-17
8596.55126 1.04561e-17
8598.55977 1.06898e-17
8600.55818 1.07957e-17
8602.55660 1.08885e-17
8604.55501 1.10342e-17
8606.55343 1.11977e-17
8608.56193 1.13158e-17
8610.56035 1.13681e-17
8612.55876 1.14103e-17
8614.55717 1.14965e-17
8616.56568 1.16122e-17
8618.56409 1.17853e-17
8620.56251 1.19709e-17
8622.56092 1.21213e-17
8624.55934 1.22345e-17
8626.56784 1.23664e-17
8628.56626 1.25662e-17
8630.56467 1.27592e-17
8632.56309 1.28461e-17
8634.57159 1.29317e-17
8636.57001 1.31117e-17
8638.56842 1.33681e-17
8640.56684 1.36116e-17
8642.56525 1.37806e-17
8644.57376 1.39518e-17
8646.57217 1.42096e-17
8648.57058 1.44804e-17
8650.56900 1.47734e-17
8652.56741 1.49915e-17
8654.57592 1.50281e-17
8656.57433 1.48567e-17
8658.57275 1.46415e-17
8660.57116 1.45736e-17
8662.57967 1.45784e-17
8664.57808 1.46892e-17
8666.57650 1.48407e-17
8668.57491 1.49839e-17
8670.57332 1.50775e-17
8672.58183 1.51523e-17
8674.58025 1.52152e-17
8676.57866 1.52184e-17
8678.57707 1.50736e-17
8680.57549 1.48812e-17
8682.58399 1.47062e-17
8684.58241 1.45930e-17
8686.58082 1.45176e-17
8688.57924 1.44881e-17
8690.58774 1.45128e-17
8692.58616 1.46397e-17
8694.58457 1.47839e-17
8696.58299 1.48882e-17
8698.58140 1.49450e-17
8700.58991 1.49792e-17
8702.58832 1.50060e-17
8704.58673 1.50289e-17
8706.58515 1.50644e-17
8708.59366 1.50993e-17
8710.59207 1.51330e-17
8712.59048 1.51551e-17
8714.58890 1.51287e-17
8716.58731 1.50921e-17
8718.59582 1.51310e-17
8720.59423 1.53676e-17
8722.59265 1.56662e-17
8724.59106 1.59824e-17
8726.58947 1.62298e-17
8728.59798 1.63195e-17
8730.59640 1.62691e-17
8732.59481 1.61880e-17
8734.59322 1.61732e-17
8736.60173 1.61372e-17
8738.60014 1.60066e-17
8740.59856 1.58427e-17
8742.59697 1.56539e-17
8744.59539 1.54999e-17
8746.60389 1.54258e-17
8748.60231 1.54696e-17
8750.60072 1.55633e-17
8752.59914 1.56589e-17
8754.60764 1.57248e-17
8756.60606 1.57129e-17
8758.60447 1.56326e-17
8760.60288 1.54938e-17
8762.60130 1.53293e-17
8764.60981 1.51658e-17
8766.60822 1.50532e-17
8768.60663 1.49863e-17
8770.60505 1.50004e-17
8772.60346 1.50500e-17
8774.61197 1.51053e-17
8776.61038 1.51361e-17
8778.60880 1.51483e-17
8780.60721 1.51306e-17
8782.61572 1.50948e-17
8784.61413 1.50253e-17
8786.61254 1.49763e-17
8788.61096 1.49915e-17
8790.60937 1.50749e-17
8792.61788 1.52070e-17
8794.61629 1.53630e-17
8796.61471 1.55219e-17
8798.61312 1.56628e-17
8800.61154 1.57386e-17
8802.62004 1.56914e-17
8804.61846 1.55445e-17
8806.61687 1.53176e-17
8808.61529 1.50647e-17
8810.62379 1.48273e-17
8812.62221 1.47018e-17
8814.62062 1.45841e-17
8816.61903 1.43966e-17
8818.61745 1.41785e-17
8820.62596 1.39468e-17
8822.62437 1.37598e-17
8824.62278 1.36544e-17
8826.62120 1.37000e-17
8828.62970 1.38474e-17
8830.62812 1.41714e-17
8832.62653 1.44489e-17
8834.62495 1.44646e-17
8836.62336 1.42569e-17
8838.63187 1.40175e-17
8840.63028 1.39068e-17
8842.62870 1.38262e-17
8844.62711 1.37637e-17
8846.62552 1.36829e-17
8848.63403 1.35131e-17
8850.63244 1.33287e-17
8852.63086 1.32422e-17
8854.62927 1.32910e-17
8856.63778 1.33392e-17
8858.63619 1.32269e-17
8860.63461 1.30629e-17
8862.63302 1.28755e-17
8864.63144 1.26877e-17
8866.63994 1.25080e-17
8868.63836 1.23475e-17
8870.63677 1.21956e-17
8872.63518 1.20477e-17
8874.63360 1.19045e-17
8876.64211 1.17492e-17
8878.64052 1.16175e-17
8880.63893 1.15502e-17
8882.63735 1.15323e-17
8884.64585 1.15204e-17
8886.64427 1.14710e-17
8888.64268 1.14063e-17
8890.64110 1.13097e-17
8892.63951 1.12270e-17
8894.64802 1.11974e-17
8896.64643 1.12134e-17
8898.64485 1.12643e-17
8900.64326 1.13146e-17
8902.65177 1.13252e-17
8904.65018 1.11950e-17
8906.64859 1.10436e-17
8908.64701 1.09035e-17
8910.64542 1.08542e-17
8912.65393 1.09974e-17
8914.65234 1.12906e-17
8916.65076 1.15529e-17
8918.64917 1.15558e-17
8920.64759 1.14181e-17
8922.65609 1.11164e-17
8924.65451 1.07533e-17
8926.65292 1.04073e-17
8928.65133 1.01117e-17
8930.65984 9.79322e-18
8932.65826 9.42980e-18
8934.65667 9.14374e-18
8936.65508 9.13195e-18
8938.65350 9.21455e-18
8940.66200 9.30606e-18
8942.66042 9.33956e-18
8944.65883 9.30818e-18
8946.65725 9.19912e-18
8948.66575 9.08038e-18
8950.66417 9.06155e-18
8952.66258 9.03738e-18
8954.66100 8.92365e-18
8956.65941 8.78710e-18
8958.66792 8.73249e-18
8960.66633 8.77184e-18
8962.66474 8.77778e-18
8964.66316 8.59501e-18
8966.66157 8.40783e-18
8968.67008 8.37651e-18
8970.66849 8.39490e-18
8972.66691 8.36495e-18
8974.66532 8.24946e-18
8976.67383 8.09977e-18
8978.67224 7.94466e-18
8980.67066 7.78146e-18
8982.66907 7.59364e-18
8984.66748 7.44704e-18
8986.67599 7.41951e-18
8988.67441 7.46928e-18
8990.67282 7.51082e-18
8992.67123 7.47154e-18
8994.66965 7.41222e-18
8996.67815 7.36520e-18
8998.67657 7.32685e-18
9000.67498 7.28756e-18
9002.67340 7.28260e-18
9004.68190 7.36944e-18
9006.68032 7.53420e-18
9008.67873 7.67241e-18
9010.67714 7.63914e-18
9012.67556 7.53836e-18
9014.68407 7.38878e-18
9016.68248 7.23940e-18
9018.68089 7.13488e-18
9020.67931 7.07572e-18
9022.67772 6.99537e-18
9024.68623 6.83402e-18
9026.68464 6.69468e-18
9028.68306 6.69252e-18
9030.68147 6.74351e-18
9032.68998 6.78700e-18
9034.68839 6.81228e-18
9036.68681 6.85741e-18
9038.68522 6.93912e-18
9040.68363 7.02920e-18
9042.69214 7.09646e-18
9044.69056 7.16001e-18
9046.68897 7.23117e-18
9048.68738 7.30222e-18
9050.68580 7.35792e-18
9052.69430 7.39575e-18
9054.69272 7.43809e-18
9056.69113 7.52434e-18
9058.68955 7.59002e-18
9060.69805 7.55383e-18
9062.69647 7.49809e-18
9064.69488 7.51781e-18
9066.69330 7.63071e-18
9068.69171 7.74941e-18
9070.70022 7.79186e-18
9072.69863 7.80062e-18
9074.69704 7.76879e-18
9076.69546 7.72883e-18
9078.69387 7.68722e-18
9080.70238 7.68574e-18
9082.70079 7.76212e-18
9084.69921 7.94767e-18
9086.69762 8.14404e-18
9088.70613 8.24876e-18
9090.70454 8.28146e-18
9092.70296 8.21135e-18
9094.70137 8.08539e-18
9096.69978 7.94191e-18
9098.70829 7.84261e-18
9100.70671 7.79187e-18
9102.70512 7.85144e-18
9104.70353 7.95153e-18
9106.70195 8.05714e-18
9108.71045 8.15881e-18
9110.70887 8.27394e-18
9112.70728 8.38114e-18
9114.70570 8.44664e-18
9116.71420 8.41673e-18
9118.71262 8.37244e-18
9120.71103 8.40110e-18
9122.70945 8.43288e-18
9124.70786 8.41435e-18
9126.71637 8.31731e-18
9128.71478 8.14861e-18
9130.71319 7.91599e-18
9132.71161 7.69761e-18
9134.72012 7.60983e-18
9136.71853 7.58728e-18
9138.71694 7.62999e-18
9140.71536 7.66893e-18
9142.71377 7.63566e-18
9144.72228 7.48931e-18
9146.72069 7.34072e-18
9148.71911 7.31045e-18
9150.71752 7.36136e-18
9152.71593 7.57217e-18
9154.72444 7.79620e-18
9156.72286 7.87813e-18
9158.72127 7.75525e-18
9160.71968 7.58704e-18
9162.72819 7.52257e-18
9164.72660 7.48794e-18
9166.72502 7.46854e-18
9168.72343 7.47331e-18
9170.72185 7.52216e-18
9172.73035 7.59898e-18
9174.72877 7.67674e-18
9176.72718 7.71937e-18
9178.72559 7.73593e-18
9180.73410 7.69755e-18
9182.73252 7.65545e-18
9184.73093 7.63982e-18
9186.72934 7.67228e-18
9188.72776 7.76039e-18
9190.73626 7.89792e-18
9192.73468 8.02836e-18
9194.73309 8.03418e-18
9196.73151 8.03425e-18
9198.72992 8.11482e-18
9200.73843 8.22567e-18
9202.73684 8.27690e-18
9204.73526 8.24225e-18
9206.73367 8.21427e-18
9208.74218 8.30210e-18
9210.74059 8.39490e-18
9212.73901 8.39998e-18
9214.73742 8.38821e-18
9216.73583 8.43616e-18
9218.74434 8.56253e-18
9220.74275 8.71629e-18
9222.74117 8.85402e-18
9224.73958 8.95817e-18
9226.73800 8.96512e-18
9228.74650 8.93620e-18
9230.74492 8.92280e-18
9232.74333 8.92306e-18
9234.74175 8.89168e-18
9236.75025 8.80407e-18
9238.74867 8.70713e-18
9240.74708 8.63707e-18
9242.74549 8.60569e-18
9244.74391 8.64293e-18
9246.75242 8.72875e-18
9248.75083 8.84622e-18
9250.74924 8.95868e-18
9252.74766 9.04485e-18
9254.75616 9.03391e-18
9256.75458 9.03017e-18
9258.75299 9.13627e-18
9260.75141 9.27638e-18
9262.74982 9.37824e-18
9264.75833 9.38875e-18
9266.75674 9.33015e-18
9268.75516 9.19513e-18
9270.75357 9.03713e-18
9272.75198 8.89668e-18
9274.76049 8.79711e-18
9276.75890 8.75810e-18
9278.75732 8.78397e-18
9280.75573 8.87209e-18
9282.76424 9.00176e-18
9284.76265 9.10566e-18
9286.76107 9.04332e-18
9288.75948 8.94859e-18
9290.75790 8.91687e-18
9292.76640 8.92289e-18
9294.76482 8.87700e-18
9296.76323 8.75267e-18
9298.76164 8.64581e-18
9300.76006 8.66506e-18
9302.76857 8.77099e-18
9304.76698 9.06316e-18
9306.76539 9.33507e-18
9308.76381 9.38180e-18
9310.77231 9.12635e-18
9312.77073 8.74402e-18
9314.76914 8.37467e-18
9316.76756 8.15103e-18
9318.76597 8.43398e-18
9320.77448 8.82747e-18
9322.77289 8.98777e-18
9324.77131 8.83485e-18
9326.76972 8.60171e-18
9328.77823 8.45375e-18
9330.77664 8.32551e-18
9332.77505 8.19661e-18
9334.77347 8.14154e-18
9336.77188 8.26974e-18
9338.78039 8.48747e-18
9340.77880 8.68711e-18
9342.77722 8.72290e-18
9344.77563 8.59721e-18
9346.77405 8.03936e-18
9348.78255 7.58550e-18
9350.78097 7.72963e-18
9352.77938 8.20182e-18
9354.77779 8.63979e-18
9356.78630 8.79898e-18
9358.78471 8.85215e-18
9360.78313 8.84647e-18
9362.78154 8.78134e-18
9364.77996 8.65073e-18
9366.78846 8.50952e-18
9368.78688 8.33669e-18
9370.78529 8.25783e-18
9372.78371 8.42902e-18
9374.79221 9.02390e-18
9376.79063 9.64268e-18
9378.78904 9.90610e-18
9380.78746 9.90161e-18
9382.78587 9.56160e-18
9384.79438 9.06851e-18
9386.79279 8.61112e-18
9388.79120 8.40072e-18
9390.78962 8.28236e-18
9392.78803 8.17579e-18
9394.79654 8.12208e-18
9396.79495 8.16128e-18
9398.79337 8.22874e-18
9400.79178 8.22857e-18
9402.80029 8.15557e-18
9404.79870 8.16152e-18
9406.79712 8.46834e-18
9408.79553 8.78371e-18
9410.79394 8.88981e-18
9412.80245 8.85843e-18
9414.80086 8.78040e-18
9416.79928 8.69390e-18
9418.79769 8.54582e-18
9420.79611 8.31533e-18
9422.80461 8.13438e-18
9424.80303 8.18925e-18
9426.80144 8.33969e-18
9428.79986 8.53394e-18
9430.80836 8.65921e-18
9432.80678 8.64089e-18
9434.80519 8.41061e-18
9436.80361 8.15428e-18
9438.80202 8.08368e-18
9440.81053 8.11358e-18
9442.80894 8.30175e-18
9444.80735 8.50222e-18
9446.80577 8.56405e-18
9448.81428 8.39365e-18
9450.81269 8.14851e-18
9452.81110 7.92796e-18
9454.80952 7.84748e-18
9456.80793 8.22187e-18
9458.81644 8.67015e-18
9460.81485 8.78015e-18
9462.81327 8.44668e-18
9464.81168 8.02908e-18
9466.81009 7.84892e-18
9468.81860 7.83486e-18
9470.81702 8.13582e-18
9472.81543 8.56371e-18
9474.81384 9.05655e-18
9476.82235 9.41869e-18
9478.82076 9.53607e-18
9480.81918 9.25280e-18
9482.81759 8.81942e-18
9484.81601 8.39418e-18
9486.82451 8.08203e-18
9488.82293 8.05559e-18
9490.82134 8.22316e-18
9492.81976 8.45866e-18
9494.81817 8.58916e-18
9496.82668 8.58212e-18
9498.82509 8.20428e-18
9500.82350 7.77138e-18
9502.82192 7.45111e-18
9504.83043 7.30088e-18
9506.82884 7.34404e-18
9508.82725 7.54310e-18
9510.82567 7.78940e-18
9512.82408 7.93997e-18
9514.83259 8.01127e-18
9516.83100 7.87870e-18
9518.82942 7.72817e-18
9520.82783 7.75180e-18
9522.82624 7.93109e-18
9524.83475 8.08057e-18
9526.83317 8.02921e-18
9528.83158 7.88338e-18
9530.82999 7.61404e-18
9532.83850 7.36845e-18
9534.83691 7.29650e-18
9536.83533 7.34644e-18
9538.83374 7.38456e-18
9540.83216 7.30780e-18
9542.84066 7.19182e-18
9544.83908 7.03839e-18
9546.83749 6.92717e-18
9548.83591 6.95620e-18
9550.83432 7.06320e-18
9552.84283 7.18461e-18
9554.84124 7.24590e-18
9556.83965 7.24402e-18
9558.83807 7.12026e-18
9560.84658 6.96590e-18
9562.84499 6.85696e-18
9564.84340 6.76491e-18
9566.84182 6.65681e-18
9568.84023 6.52601e-18
9570.84874 6.38386e-18
9572.84715 6.24284e-18
9574.84557 6.13477e-18
9576.84398 6.09416e-18
9578.84239 6.13370e-18
9580.85090 6.31224e-18
9582.84931 6.54802e-18
9584.84773 6.74892e-18
9586.84614 6.80560e-18
9588.85465 6.77109e-18
9590.85306 6.59677e-18
9592.85148 6.40801e-18
9594.84989 6.27071e-18
9596.84831 6.23478e-18
9598.85681 6.33466e-18
9600.85523 6.55006e-18
9602.85364 6.77441e-18
9604.85206 6.86324e-18
9606.86056 6.87721e-18
9608.85898 6.75211e-18
9610.85739 6.63241e-18
9612.85580 6.66843e-18
9614.85422 6.87043e-18
9616.86273 7.08839e-18
9618.86114 7.17407e-18
9620.85955 7.16722e-18
9622.85797 6.97370e-18
9624.85638 6.75416e-18
9626.86489 6.62251e-18
9628.86330 6.62394e-18
9630.86172 6.73176e-18
9632.86013 6.90621e-18
9634.86864 7.03303e-18
9636.86705 6.82715e-18
9638.86547 6.61748e-18
9640.86388 6.63865e-18
9642.86229 6.82394e-18
9644.87080 7.01649e-18
9646.86921 7.10021e-18
9648.86763 7.13163e-18
9650.86604 7.09987e-18
9652.86446 7.03840e-18
9654.87296 6.94648e-18
9656.87138 6.88277e-18
9658.86979 6.90492e-18
9660.86821 7.01739e-18
9662.87671 7.15212e-18
9664.87513 7.23862e-18
9666.87354 7.29156e-18
9668.87195 7.28649e-18
9670.87037 7.24350e-18
9672.87888 7.15762e-18
9674.87729 7.07047e-18
9676.87570 7.02177e-18
9678.87412 7.05765e-18
9680.88262 7.11816e-18
9682.88104 7.15589e-18
9684.87945 7.18056e-18
9686.87787 7.17908e-18
9688.87628 7.17272e-18
9690.88479 7.19836e-18
9692.88320 7.26236e-18
9694.88162 7.30351e-18
9696.88003 7.23165e-18
9698.87844 7.12017e-18
9700.88695 6.97200e-18
9702.88536 6.85066e-18
9704.88378 6.80270e-18
9706.88219 6.85776e-18
9708.89070 6.98118e-18
9710.88911 7.15776e-18
9712.88753 7.29608e-18
9714.88594 7.23361e-18
9716.88436 7.12382e-18
9718.89286 7.12097e-18
9720.89128 7.22392e-18
9722.88969 7.27697e-18
9724.88810 7.16849e-18
9726.89661 7.09142e-18
9728.89503 7.29569e-18
9730.89344 7.55185e-18
9732.89185 7.71982e-18
9734.89027 7.76843e-18
9736.89877 7.74339e-18
9738.89719 7.68836e-18
9740.89560 7.65358e-18
9742.89402 7.78720e-18
9744.89243 7.91230e-18
9746.90094 7.92676e-18
9748.89935 7.83371e-18
9750.89776 7.64075e-18
9752.89618 7.41170e-18
9754.90469 7.23321e-18
9756.90310 7.26170e-18
9758.90151 7.32295e-18
9760.89993 7.31728e-18
9762.89834 7.23701e-18
9764.90685 7.05009e-18
9766.90526 6.81908e-18
9768.90368 6.64796e-18
9770.90209 6.66124e-18
9772.90051 6.72200e-18
9774.90901 6.72217e-18
9776.90743 6.71339e-18
9778.90584 6.71247e-18
9780.90425 6.74894e-18
9782.91276 6.85483e-18
9784.91118 7.03722e-18
9786.90959 7.20938e-18
9788.90800 7.23511e-18
9790.90642 7.20964e-18
9792.91492 7.17340e-18
9794.91334 7.11949e-18
9796.91175 7.00375e-18
9798.91017 6.84103e-18
9800.91867 6.69985e-18
9802.91709 6.68102e-18
9804.91550 6.70962e-18
9806.91392 6.77015e-18
9808.91233 6.82893e-18
9810.92084 6.85315e-18
9812.91925 6.84675e-18
9814.91766 6.86537e-18
9816.91608 6.96225e-18
9818.91449 7.03871e-18
9820.92300 7.00585e-18
9822.92141 6.88987e-18
9824.91983 6.67137e-18
9826.91824 6.41854e-18
9828.92675 6.19412e-18
9830.92516 6.08388e-18
9832.92358 6.04638e-18
9834.92199 6.08654e-18
9836.92040 6.18832e-18
9838.92891 6.40373e-18
9840.92733 6.60245e-18
9842.92574 6.62072e-18
9844.92415 6.41057e-18
9846.92257 6.21445e-18
9848.93107 6.35153e-18
9850.92949 6.55044e-18
9852.92790 6.69511e-18
9854.92632 6.76230e-18
9856.93482 6.76052e-18
9858.93324 6.69206e-18
9860.93165 6.57669e-18
9862.93007 6.43726e-18
9864.92848 6.28417e-18
9866.93699 6.09997e-18
9868.93540 5.97245e-18
9870.93381 6.00317e-18
9872.93223 6.15500e-18
9874.94074 6.31088e-18
9876.93915 6.35984e-18
9878.93756 6.38532e-18
9880.93598 6.44663e-18
9882.93439 6.48713e-18
9884.94290 6.47734e-18
9886.94131 6.40542e-18
9888.93973 6.24703e-18
9890.93814 6.03726e-18
9892.93655 5.88410e-18
9894.94506 6.01075e-18
9896.94348 6.16699e-18
9898.94189 6.18757e-18
9900.94030 6.12615e-18
9902.94881 6.08174e-18
9904.94722 6.08754e-18
9906.94564 6.07127e-18
9908.94405 5.96488e-18
9910.94247 5.90964e-18
9912.95097 6.07128e-18
9914.94939 6.32113e-18
9916.94780 6.59936e-18
9918.94621 6.78247e-18
9920.95472 6.79584e-18
9922.95314 6.54004e-18
9924.95155 6.24779e-18
9926.94996 6.18700e-18
9928.94838 6.20423e-18
9930.95689 6.21909e-18
9932.95530 6.21815e-18
9934.95371 6.25832e-18
9936.95213 6.33499e-18
9938.95054 6.36472e-18
9940.95905 6.12795e-18
9942.95746 5.95115e-18
9944.95588 6.11234e-18
9946.95429 6.45503e-18
9948.96280 6.82275e-18
9950.96121 6.99859e-18
9952.95963 6.90932e-18
9954.95804 6.27172e-18
9956.95645 5.65924e-18
9958.96496 5.62699e-18
9960.96337 5.89570e-18
9962.96179 6.24722e-18
9964.96020 6.47305e-18
9966.95862 6.55021e-18
9968.96712 6.36008e-18
9970.96554 6.13194e-18
9972.96395 6.11489e-18
9974.96236 6.16066e-18
9976.97087 6.14296e-18
9978.96929 6.10876e-18
9980.96770 6.21450e-18
9982.96611 6.52178e-18
9984.96453 6.79809e-18
9986.97304 6.69266e-18
9988.97145 6.48572e-18
9990.96986 6.28957e-18
9992.96828 6.13265e-18
9994.97678 5.96015e-18
9996.97520 5.79785e-18
9998.97361 5.70903e-18
10000.97203 5.80628e-18
10002.97044 5.95578e-18
