# wavelength flux
3473.99808 1.08416e-17
3475.47087 1.07419e-17
3476.94366 1.09499e-17
3478.40644 1.18416e-17
3479.87923 1.10178e-17
3481.35203 1.09553e-17
3482.82482 1.13075e-17
3484.28759 1.11787e-17
3485.76039 1.14757e-17
3487.23318 1.20710e-17
3488.69595 1.14384e-17
3490.16875 1.07277e-17
3491.64154 1.05253e-17
3493.11433 1.11148e-17
3494.57710 1.14331e-17
3496.04990 1.13700e-17
3497.52269 1.20030e-17
3498.98546 1.21178e-17
3500.45826 1.20121e-17
3501.93105 1.18586e-17
3503.40384 1.17462e-17
3504.86662 1.18003e-17
3506.33941 1.17341e-17
3507.81220 1.22811e-17
3509.28500 1.24701e-17
3510.74777 1.22176e-17
3512.22056 1.18018e-17
3513.69336 1.16009e-17
3515.15613 1.22018e-17
3516.62892 1.20162e-17
3518.10172 1.16978e-17
3519.57451 1.14984e-17
3521.03728 1.17868e-17
3522.51008 1.19200e-17
3523.98287 1.16611e-17
3525.44564 1.10427e-17
3526.91844 1.06968e-17
3528.39123 1.10295e-17
3529.86402 1.12417e-17
3531.32680 1.17077e-17
3532.79959 1.13651e-17
3534.27238 1.10859e-17
3535.73516 1.13407e-17
3537.20795 1.12509e-17
3538.68074 1.14525e-17
3540.15354 1.18566e-17
3541.61631 1.15123e-17
3543.08910 1.14336e-17
3544.56190 1.18006e-17
3546.03469 1.16633e-17
3547.49746 1.16175e-17
3548.97026 1.12453e-17
3550.44305 1.12192e-17
3551.90582 1.13840e-17
3553.37862 1.14897e-17
3554.85141 1.09398e-17
3556.32420 1.12007e-17
3557.78698 1.15054e-17
3559.25977 1.10322e-17
3560.73256 1.04234e-17
3562.19534 1.08238e-17
3563.66813 1.14057e-17
3565.14092 1.17810e-17
3566.61371 1.12819e-17
3568.07649 1.10706e-17
3569.54928 1.11691e-17
3571.02207 1.14327e-17
3572.49487 1.14064e-17
3573.95764 1.11621e-17
3575.43044 1.09584e-17
3576.90323 1.11205e-17
3578.36600 1.17654e-17
3579.83880 1.16773e-17
3581.31159 1.13290e-17
3582.78438 1.11543e-17
3584.24716 1.10892e-17
3585.71995 1.12319e-17
3587.19274 1.08721e-17
3588.65551 1.05952e-17
3590.12831 1.04691e-17
3591.60110 1.00649e-17
3593.07389 1.01478e-17
3594.53667 1.06942e-17
3596.00946 1.09427e-17
3597.48225 1.09845e-17
3598.94503 1.05935e-17
3600.41782 1.05301e-17
3601.89061 1.03336e-17
3603.36341 9.72105e-18
3604.82618 9.80282e-18
3606.29897 1.03583e-17
3607.77177 9.93475e-18
3609.24456 9.77709e-18
3610.70733 1.01579e-17
3612.18013 1.01415e-17
3613.65292 1.03329e-17
3615.11569 1.04832e-17
3616.58849 1.02050e-17
3618.06128 9.89487e-18
3619.53407 1.03867e-17
3620.99685 1.06028e-17
3622.46964 1.04021e-17
3623.94243 1.02344e-17
3625.40521 1.01836e-17
3626.87800 1.03959e-17
3628.35079 1.08004e-17
3629.82359 1.06981e-17
3631.28636 1.01940e-17
3632.75915 1.05313e-17
3634.23195 1.05309e-17
3635.70474 1.07295e-17
3637.16751 1.03371e-17
3638.64031 1.05214e-17
3640.11310 1.09795e-17
3641.57587 1.05852e-17
3643.04867 1.06439e-17
3644.52146 1.08521e-17
3645.99425 1.08756e-17
3647.45703 1.10035e-17
3648.92982 1.05301e-17
3650.40261 1.08956e-17
3651.86539 1.15811e-17
3653.33818 1.13537e-17
3654.81097 1.13772e-17
3656.28377 1.13385e-17
3657.74654 1.10281e-17
3659.21933 1.07542e-17
3660.69213 1.05926e-17
3662.16492 1.09097e-17
3663.62769 1.10191e-17
3665.10048 1.09393e-17
3666.57328 1.08436e-17
3668.03605 1.07135e-17
3669.50885 1.05717e-17
3670.98164 1.05368e-17
3672.45443 1.08790e-17
3673.91720 1.09463e-17
3675.39000 1.05145e-17
3676.86279 1.05559e-17
3678.32557 1.06842e-17
3679.79836 1.05093e-17
3681.27115 1.00832e-17
3682.74394 9.95314e-18
3684.20672 9.66099e-18
3685.67951 9.61103e-18
3687.15230 9.78233e-18
3688.62510 9.78489e-18
3690.08787 9.60930e-18
3691.56066 9.41964e-18
3693.03346 9.29768e-18
3694.49623 9.05633e-18
3695.96902 8.96110e-18
3697.44182 8.74745e-18
3698.91461 9.06996e-18
3700.37738 8.75316e-18
3701.85018 8.62219e-18
3703.32297 8.52072e-18
3704.78574 8.31341e-18
3706.25854 8.33381e-18
3707.73133 8.19937e-18
3709.20412 8.00067e-18
3710.66690 7.93180e-18
3712.13969 7.84547e-18
3713.61248 7.82140e-18
3715.07526 7.74083e-18
3716.54805 7.66026e-18
3718.02084 7.58878e-18
3719.49364 7.51730e-18
3720.95641 7.44582e-18
3722.42920 7.37436e-18
3723.90200 7.30290e-18
3725.37479 7.23143e-18
3726.83756 7.15998e-18
3728.31036 7.08854e-18
3729.78315 7.01709e-18
3731.24592 6.94565e-18
3732.71872 6.87423e-18
3734.19151 6.80280e-18
3735.66430 6.73139e-18
3737.12708 6.65997e-18
3738.59987 6.58854e-18
3740.07266 6.51714e-18
3741.53544 6.44574e-18
3743.00823 6.37435e-18
3744.48102 6.30295e-18
3745.95381 6.23158e-18
3747.41659 6.16019e-18
3748.88938 6.08881e-18
3750.36218 6.01744e-18
3751.83497 5.94607e-18
3753.29774 5.87471e-18
3754.77054 5.80335e-18
3756.24333 5.71675e-18
3757.70610 5.75864e-18
3759.17890 5.90624e-18
3760.65169 6.03665e-18
3762.12448 5.75809e-18
3763.58725 5.80372e-18
3765.06005 5.68805e-18
3766.53284 5.58334e-18
3767.99561 5.74498e-18
3769.46841 5.94368e-18
3770.94120 6.41260e-18
3772.41399 6.20603e-18
3773.87677 5.82885e-18
3775.34956 5.81710e-18
3776.82235 5.96564e-18
3778.28513 6.38660e-18
3779.75792 6.69440e-18
3781.23071 6.46319e-18
3782.70351 6.19960e-18
3784.16628 6.39077e-18
3785.63907 6.38749e-18
3787.11187 6.34499e-18
3788.58466 6.63833e-18
3790.04743 6.67104e-18
3791.52023 6.57097e-18
3792.99302 6.54261e-18
3794.45579 6.80373e-18
3795.92859 7.00088e-18
3797.40138 7.11267e-18
3798.87417 6.87355e-18
3800.33695 7.02824e-18
3801.80974 7.07148e-18
3803.28253 7.19159e-18
3804.74531 7.62945e-18
3806.21810 7.60017e-18
3807.69089 7.57626e-18
3809.16369 7.99432e-18
3810.62646 8.02069e-18
3812.09925 7.79207e-18
3813.57205 7.76702e-18
3815.04484 8.36763e-18
3816.50761 8.88652e-18
3817.98041 9.04928e-18
3819.45320 9.00597e-18
3820.91597 8.85044e-18
3822.38877 9.05439e-18
3823.86156 9.16046e-18
3825.33435 9.33263e-18
3826.79713 9.48155e-18
3828.26992 9.83115e-18
3829.74271 1.01468e-17
3831.20549 1.00376e-17
3832.67828 9.75630e-18
3834.15107 9.88131e-18
3835.62387 1.02974e-17
3837.08664 1.02890e-17
3838.55943 1.03897e-17
3840.03222 1.10173e-17
3841.50502 1.10933e-17
3842.96779 1.07999e-17
3844.44059 1.10005e-17
3845.91338 1.13524e-17
3847.37615 1.14249e-17
3848.84895 1.12713e-17
3850.32174 1.13084e-17
3851.79453 1.13204e-17
3853.25731 1.11598e-17
3854.73010 1.12610e-17
3856.20289 1.16468e-17
3857.66566 1.20035e-17
3859.13846 1.21824e-17
3860.61125 1.23055e-17
3862.08404 1.23407e-17
3863.54682 1.22816e-17
3865.01961 1.23726e-17
3866.49240 1.29149e-17
3867.95518 1.29009e-17
3869.42797 1.29847e-17
3870.90076 1.32330e-17
3872.37356 1.32820e-17
3873.83633 1.31111e-17
3875.30912 1.31300e-17
3876.78192 1.35550e-17
3878.25471 1.37592e-17
3879.71748 1.39076e-17
3881.19028 1.39351e-17
3882.66307 1.41387e-17
3884.12584 1.41011e-17
3885.59864 1.39674e-17
3887.07143 1.40762e-17
3888.54422 1.43769e-17
3890.00700 1.42962e-17
3891.47979 1.42725e-17
3892.95258 1.45045e-17
3894.41536 1.49741e-17
3895.88815 1.48405e-17
3897.36094 1.45921e-17
3898.83374 1.47109e-17
3900.29651 1.48638e-17
3901.76930 1.50089e-17
3903.24210 1.48807e-17
3904.71489 1.53003e-17
3906.17766 1.52559e-17
3907.65046 1.48139e-17
3909.12325 1.49264e-17
3910.58602 1.53044e-17
3912.05882 1.52405e-17
3913.53161 1.50500e-17
3915.00440 1.50225e-17
3916.46718 1.50297e-17
3917.93997 1.52479e-17
3919.41276 1.52330e-17
3920.87554 1.50147e-17
3922.34833 1.52883e-17
3923.82112 1.55774e-17
3925.29391 1.50595e-17
3926.75669 1.49055e-17
3928.22948 1.51374e-17
3929.70228 1.49205e-17
3931.17507 1.46487e-17
3932.63784 1.49540e-17
3934.11064 1.53681e-17
3935.58343 1.54246e-17
3937.04620 1.51056e-17
3938.51900 1.45791e-17
3939.99179 1.39525e-17
3941.46458 1.36964e-17
3942.92735 1.41402e-17
3944.40015 1.46151e-17
3945.87294 1.55263e-17
3947.33572 1.62413e-17
3948.80851 1.61089e-17
3950.28130 1.62878e-17
3951.75409 1.67639e-17
3953.21687 1.67438e-17
3954.68966 1.65209e-17
3956.16245 1.67343e-17
3957.62523 1.69716e-17
3959.09802 1.70175e-17
3960.57081 1.70116e-17
3962.04361 1.66958e-17
3963.50638 1.66740e-17
3964.97917 1.70745e-17
3966.45197 1.69490e-17
3967.92476 1.69034e-17
3969.38753 1.70018e-17
3970.86033 1.71219e-17
3972.33312 1.70696e-17
3973.79589 1.63793e-17
3975.26869 1.58264e-17
3976.74148 1.58498e-17
3978.21427 1.62510e-17
3979.67705 1.66899e-17
3981.14984 1.69136e-17
3982.62263 1.69387e-17
3984.08541 1.68695e-17
3985.55820 1.68160e-17
3987.03099 1.68327e-17
3988.50379 1.66818e-17
3989.96656 1.65333e-17
3991.43935 1.67167e-17
3992.91215 1.69865e-17
3994.38494 1.66015e-17
3995.84771 1.65523e-17
3997.32051 1.66338e-17
3998.79330 1.60672e-17
4000.25607 1.61200e-17
4001.72887 1.60957e-17
4003.20166 1.59275e-17
4004.67445 1.61817e-17
4006.13723 1.61169e-17
4007.61002 1.58038e-17
4009.08281 1.58330e-17
4010.54559 1.56163e-17
4012.01838 1.54974e-17
4013.49117 1.58889e-17
4014.96396 1.57222e-17
4016.42674 1.55100e-17
4017.89953 1.54044e-17
4019.37233 1.53156e-17
4020.84512 1.52139e-17
4022.30789 1.49716e-17
4023.78069 1.53475e-17
4025.25348 1.55391e-17
4026.71625 1.50028e-17
4028.18905 1.46902e-17
4029.66184 1.46280e-17
4031.13463 1.43951e-17
4032.59740 1.44369e-17
4034.07020 1.44987e-17
4035.54299 1.47466e-17
4037.00576 1.49503e-17
4038.47856 1.44337e-17
4039.95135 1.39954e-17
4041.42414 1.41961e-17
4042.88692 1.43241e-17
4044.35971 1.42314e-17
4045.83250 1.41677e-17
4047.29528 1.41278e-17
4048.76807 1.40306e-17
4050.24086 1.40312e-17
4051.71366 1.40421e-17
4053.17643 1.39061e-17
4054.64922 1.38329e-17
4056.12202 1.39579e-17
4057.59481 1.40306e-17
4059.05758 1.39110e-17
4060.53038 1.39185e-17
4062.00317 1.38934e-17
4063.46594 1.38657e-17
4064.93874 1.38914e-17
4066.41153 1.37491e-17
4067.88432 1.36058e-17
4069.34710 1.36408e-17
4070.81989 1.38752e-17
4072.29268 1.38647e-17
4073.75546 1.35602e-17
4075.22825 1.36710e-17
4076.70104 1.36338e-17
4078.17384 1.31389e-17
4079.63661 1.31043e-17
4081.10940 1.32219e-17
4082.58220 1.31360e-17
4084.05499 1.30360e-17
4085.51776 1.28618e-17
4086.99056 1.28347e-17
4088.46335 1.27580e-17
4089.92612 1.25154e-17
4091.39892 1.27365e-17
4092.87171 1.29729e-17
4094.34450 1.29216e-17
4095.80728 1.29788e-17
4097.28007 1.30378e-17
4098.75286 1.29701e-17
4100.21564 1.29167e-17
4101.68843 1.30005e-17
4103.16122 1.29941e-17
4104.63402 1.28578e-17
4106.09679 1.28649e-17
4107.56958 1.29010e-17
4109.04237 1.26491e-17
4110.50515 1.24909e-17
4111.97794 1.27929e-17
4113.45073 1.26486e-17
4114.92353 1.23975e-17
4116.38630 1.23507e-17
4117.85909 1.21253e-17
4119.33189 1.22794e-17
4120.80468 1.24561e-17
4122.26746 1.25317e-17
4123.74025 1.25322e-17
4125.21304 1.22405e-17
4126.67582 1.20027e-17
4128.14861 1.20035e-17
4129.62140 1.21657e-17
4131.09419 1.24343e-17
4132.55697 1.24979e-17
4134.02976 1.21795e-17
4135.50255 1.21657e-17
4136.96533 1.23118e-17
4138.43812 1.22050e-17
4139.91091 1.20829e-17
4141.38371 1.19704e-17
4142.84648 1.20529e-17
4144.31927 1.20812e-17
4145.79207 1.18385e-17
4147.26486 1.18422e-17
4148.72763 1.21085e-17
4150.20043 1.20903e-17
4151.67322 1.20482e-17
4153.13599 1.19153e-17
4154.60879 1.18994e-17
4156.08158 1.20764e-17
4157.55437 1.20260e-17
4159.01715 1.20413e-17
4160.48994 1.20197e-17
4161.96273 1.20592e-17
4163.42551 1.18900e-17
4164.89830 1.18976e-17
4166.37109 1.21593e-17
4167.84389 1.19185e-17
4169.30666 1.17897e-17
4170.77945 1.18371e-17
4172.25225 1.16873e-17
4173.72504 1.17765e-17
4175.18781 1.17891e-17
4176.66061 1.16941e-17
4178.13340 1.18544e-17
4179.59617 1.17857e-17
4181.06897 1.16954e-17
4182.54176 1.17806e-17
4184.01455 1.15655e-17
4185.47733 1.14700e-17
4186.95012 1.18996e-17
4188.42291 1.22129e-17
4189.88569 1.21890e-17
4191.35848 1.20731e-17
4192.83127 1.18706e-17
4194.30407 1.19240e-17
4195.76684 1.20530e-17
4197.23963 1.20376e-17
4198.71242 1.22171e-17
4200.18522 1.22808e-17
4201.64799 1.21082e-17
4203.12079 1.21891e-17
4204.59358 1.24727e-17
4206.05635 1.24387e-17
4207.52915 1.24087e-17
4209.00194 1.24990e-17
4210.47473 1.24124e-17
4211.93750 1.23192e-17
4213.41030 1.22863e-17
4214.88309 1.22331e-17
4216.34587 1.22739e-17
4217.81866 1.24253e-17
4219.29145 1.22581e-17
4220.76424 1.21559e-17
4222.22702 1.22330e-17
4223.69981 1.22963e-17
4225.17260 1.25149e-17
4226.63538 1.25765e-17
4228.10817 1.24821e-17
4229.58096 1.22479e-17
4231.05376 1.20953e-17
4232.51653 1.21826e-17
4233.98932 1.23038e-17
4235.46212 1.24018e-17
4236.93491 1.23934e-17
4238.39768 1.23354e-17
4239.87048 1.22072e-17
4241.34327 1.21256e-17
4242.80604 1.21267e-17
4244.27884 1.19829e-17
4245.75163 1.20036e-17
4247.22442 1.23044e-17
4248.68720 1.25897e-17
4250.15999 1.24548e-17
4251.63278 1.22720e-17
4253.09556 1.24651e-17
4254.56835 1.23971e-17
4256.04114 1.23091e-17
4257.51394 1.24669e-17
4258.97671 1.22800e-17
4260.44950 1.22651e-17
4261.92230 1.25706e-17
4263.39509 1.27194e-17
4264.85786 1.28609e-17
4266.33066 1.25735e-17
4267.80345 1.19928e-17
4269.26622 1.19839e-17
4270.73902 1.23651e-17
4272.21181 1.24470e-17
4273.68460 1.24540e-17
4275.14738 1.23991e-17
4276.62017 1.23798e-17
4278.09296 1.26188e-17
4279.55574 1.24031e-17
4281.02853 1.22564e-17
4282.50132 1.24515e-17
4283.97411 1.24121e-17
4285.43689 1.23372e-17
4286.90968 1.24304e-17
4288.38248 1.25029e-17
4289.84525 1.21993e-17
4291.31804 1.20227e-17
4292.79083 1.22142e-17
4294.26363 1.23031e-17
4295.72640 1.19445e-17
4297.19920 1.16509e-17
4298.67199 1.19082e-17
4300.14478 1.21198e-17
4301.60755 1.21043e-17
4303.08035 1.19205e-17
4304.55314 1.17748e-17
4306.01592 1.18943e-17
4307.48871 1.20247e-17
4308.96150 1.20247e-17
4310.43429 1.20146e-17
4311.89707 1.21184e-17
4313.36986 1.20407e-17
4314.84265 1.18486e-17
4316.30543 1.17408e-17
4317.77822 1.15192e-17
4319.25101 1.15002e-17
4320.72381 1.15952e-17
4322.18658 1.13530e-17
4323.65937 1.11996e-17
4325.13217 1.11472e-17
4326.60496 1.12218e-17
4328.06773 1.11931e-17
4329.54053 1.09276e-17
4331.01332 1.10350e-17
4332.47609 1.10443e-17
4333.94889 1.10442e-17
4335.42168 1.12014e-17
4336.89447 1.09929e-17
4338.35725 1.08116e-17
4339.83004 1.08283e-17
4341.30283 1.06734e-17
4342.76561 1.05631e-17
4344.23840 1.05485e-17
4345.71119 1.03089e-17
4347.18399 1.02414e-17
4348.64676 1.04212e-17
4350.11955 1.04141e-17
4351.59235 1.01306e-17
4353.06514 9.99308e-18
4354.52791 1.00026e-17
4356.00071 1.00122e-17
4357.47350 1.00217e-17
4358.93627 1.00313e-17
4360.40907 1.00408e-17
4361.88186 1.00504e-17
4363.35465 1.00599e-17
4364.81743 1.00694e-17
4366.29022 1.00790e-17
4367.76301 1.00885e-17
4369.22579 1.00981e-17
4370.69858 1.01076e-17
4372.17137 1.01172e-17
4373.64417 1.01267e-17
4375.10694 1.01362e-17
4376.57973 1.01458e-17
4378.05253 1.01553e-17
4379.51530 1.01649e-17
4380.98809 1.01744e-17
4382.46088 1.01839e-17
4383.93368 1.01935e-17
4385.39645 1.02030e-17
4386.86924 1.02125e-17
4388.34204 1.02221e-17
4389.81483 1.02316e-17
4391.27761 1.02492e-17
4392.75040 1.03217e-17
4394.22319 1.04289e-17
4395.68597 1.05918e-17
4397.15876 1.06807e-17
4398.63155 1.06404e-17
4400.10434 1.05282e-17
4401.56712 1.05731e-17
4403.03991 1.08305e-17
4404.51270 1.08602e-17
4405.97548 1.08892e-17
4407.44827 1.09987e-17
4408.92106 1.08836e-17
4410.39386 1.09046e-17
4411.85663 1.10536e-17
4413.32942 1.09771e-17
4414.80222 1.09403e-17
4416.27501 1.10195e-17
4417.73778 1.11340e-17
4419.21058 1.13138e-17
4420.68337 1.12405e-17
4422.14614 1.11993e-17
4423.61894 1.12757e-17
4425.09173 1.12991e-17
4426.56452 1.12661e-17
4428.02730 1.11047e-17
4429.50009 1.11857e-17
4430.97288 1.11745e-17
4432.43566 1.11998e-17
4433.90845 1.12254e-17
4435.38124 1.10294e-17
4436.85404 1.10484e-17
4438.31681 1.11742e-17
4439.78960 1.14903e-17
4441.26240 1.16610e-17
4442.73519 1.15156e-17
4444.19796 1.16061e-17
4445.67076 1.19141e-17
4447.14355 1.19429e-17
4448.60632 1.17656e-17
4450.07912 1.18096e-17
4451.55191 1.21782e-17
4453.02470 1.24409e-17
4454.48748 1.24995e-17
4455.96027 1.25831e-17
4457.43306 1.26941e-17
4458.89584 1.27365e-17
4460.36863 1.27600e-17
4461.84142 1.27542e-17
4463.31422 1.28428e-17
4464.77699 1.29370e-17
4466.24978 1.29385e-17
4467.72257 1.29592e-17
4469.18535 1.29903e-17
4470.65814 1.30841e-17
4472.13094 1.31272e-17
4473.60373 1.32017e-17
4475.06650 1.33576e-17
4476.53930 1.32932e-17
4478.01209 1.33273e-17
4479.48488 1.34270e-17
4480.94765 1.35014e-17
4482.42045 1.35462e-17
4483.89324 1.34564e-17
4485.35602 1.36048e-17
4486.82881 1.35389e-17
4488.30160 1.34652e-17
4489.77439 1.37223e-17
4491.23717 1.37293e-17
4492.70996 1.36717e-17
4494.18275 1.37003e-17
4495.64553 1.35596e-17
4497.11832 1.35004e-17
4498.59111 1.37553e-17
4500.06391 1.38246e-17
4501.52668 1.38016e-17
4502.99947 1.39503e-17
4504.47227 1.40024e-17
4505.94506 1.40570e-17
4507.40783 1.40754e-17
4508.88063 1.41496e-17
4510.35342 1.42625e-17
4511.81619 1.41970e-17
4513.28899 1.43171e-17
4514.76178 1.42631e-17
4516.23457 1.43162e-17
4517.69735 1.47383e-17
4519.17014 1.46252e-17
4520.64293 1.44250e-17
4522.10571 1.44718e-17
4523.57850 1.45959e-17
4525.05129 1.47435e-17
4526.52409 1.46082e-17
4527.98686 1.45221e-17
4529.45965 1.46452e-17
4530.93245 1.47160e-17
4532.39522 1.46585e-17
4533.86801 1.43991e-17
4535.34081 1.44944e-17
4536.81360 1.48913e-17
4538.27637 1.49632e-17
4539.74917 1.49435e-17
4541.22196 1.49330e-17
4542.69475 1.52634e-17
4544.15753 1.52998e-17
4545.63032 1.50321e-17
4547.10311 1.49649e-17
4548.56589 1.48825e-17
4550.03868 1.50865e-17
4551.51147 1.50556e-17
4552.98427 1.50401e-17
4554.44704 1.52484e-17
4555.91983 1.50459e-17
4557.39263 1.51332e-17
4558.85540 1.53711e-17
4560.32819 1.52424e-17
4561.80098 1.52063e-17
4563.27378 1.54770e-17
4564.73655 1.53995e-17
4566.20935 1.52215e-17
4567.68214 1.52665e-17
4569.15493 1.54305e-17
4570.61770 1.54569e-17
4572.09050 1.51934e-17
4573.56329 1.49554e-17
4575.02607 1.49149e-17
4576.49886 1.50388e-17
4577.97165 1.51968e-17
4579.44444 1.50427e-17
4580.90722 1.48403e-17
4582.38001 1.46537e-17
4583.85280 1.47165e-17
4585.31558 1.48924e-17
4586.78837 1.49889e-17
4588.26116 1.49547e-17
4589.73396 1.48134e-17
4591.19673 1.48491e-17
4592.66952 1.48184e-17
4594.14232 1.48152e-17
4595.61511 1.46030e-17
4597.07788 1.45704e-17
4598.55068 1.46818e-17
4600.02347 1.49906e-17
4601.48624 1.49367e-17
4602.95904 1.47251e-17
4604.43183 1.52626e-17
4605.90462 1.52985e-17
4607.36740 1.44954e-17
4608.84019 1.46221e-17
4610.31298 1.47262e-17
4611.77576 1.46775e-17
4613.24855 1.43214e-17
4614.72134 1.40771e-17
4616.19414 1.39768e-17
4617.65691 1.38982e-17
4619.12970 1.40093e-17
4620.60250 1.38874e-17
4622.06527 1.39807e-17
4623.53806 1.39835e-17
4625.01086 1.38211e-17
4626.48365 1.36889e-17
4627.94642 1.37737e-17
4629.41922 1.36892e-17
4630.89201 1.32464e-17
4632.36480 1.31582e-17
4633.82758 1.34248e-17
4635.30037 1.34369e-17
4636.77316 1.30308e-17
4638.23594 1.27218e-17
4639.70873 1.27739e-17
4641.18152 1.30071e-17
4642.65432 1.25687e-17
4644.11709 1.22326e-17
4645.58988 1.22821e-17
4647.06268 1.23235e-17
4648.52545 1.23129e-17
4649.99824 1.21948e-17
4651.47103 1.19708e-17
4652.94383 1.17164e-17
4654.40660 1.17710e-17
4655.87939 1.18532e-17
4657.35219 1.16901e-17
4658.81496 1.17396e-17
4660.28776 1.18492e-17
4661.76055 1.18168e-17
4663.23334 1.16976e-17
4664.69612 1.15401e-17
4666.16891 1.15237e-17
4667.64170 1.15561e-17
4669.11449 1.13714e-17
4670.57727 1.13235e-17
4672.05006 1.12555e-17
4673.52285 1.12730e-17
4674.98563 1.12581e-17
4676.45842 1.11659e-17
4677.93121 1.09759e-17
4679.40401 1.11249e-17
4680.86678 1.11888e-17
4682.33957 1.08453e-17
4683.81237 1.07721e-17
4685.28516 1.06747e-17
4686.74793 1.07934e-17
4688.22073 1.09371e-17
4689.69352 1.07494e-17
4691.15629 1.08254e-17
4692.62909 1.09708e-17
4694.10188 1.09656e-17
4695.57467 1.10816e-17
4697.03745 1.10318e-17
4698.51024 1.10258e-17
4699.98303 1.11445e-17
4701.44581 1.12874e-17
4702.91860 1.12908e-17
4704.39139 1.11089e-17
4705.86419 1.09854e-17
4707.32696 1.10360e-17
4708.79975 1.10379e-17
4710.27255 1.09351e-17
4711.74534 1.09105e-17
4713.20811 1.07053e-17
4714.68091 1.06270e-17
4716.15370 1.07926e-17
4717.61647 1.08533e-17
4719.08927 1.08115e-17
4720.56206 1.07684e-17
4722.03485 1.07801e-17
4723.49763 1.05653e-17
4724.97042 1.04076e-17
4726.44321 1.04449e-17
4727.90599 1.04506e-17
4729.37878 1.03017e-17
4730.85157 1.00495e-17
4732.32437 9.86745e-18
4733.78714 9.90672e-18
4735.25993 1.00050e-17
4736.73272 9.95696e-18
4738.19550 9.79497e-18
4739.66829 9.75087e-18
4741.14108 9.69538e-18
4742.61388 9.56958e-18
4744.07665 9.44505e-18
4745.54945 9.22780e-18
4747.02224 9.23002e-18
4748.49503 9.38308e-18
4749.95781 9.33798e-18
4751.43060 9.09381e-18
4752.90339 9.09655e-18
4754.36617 9.13969e-18
4755.83896 9.05495e-18
4757.31175 8.91465e-18
4758.78454 8.86112e-18
4760.24732 9.05692e-18
4761.72011 9.10335e-18
4763.19290 8.85103e-18
4764.65568 8.89803e-18
4766.12847 9.00875e-18
4767.60126 9.03028e-18
4769.07406 8.88854e-18
4770.53683 8.86960e-18
4772.00962 8.90813e-18
4773.48242 8.83870e-18
4774.95521 8.84710e-18
4776.41798 8.96063e-18
4777.89078 9.03147e-18
4779.36357 8.96106e-18
4780.82634 9.00455e-18
4782.29914 8.92294e-18
4783.77193 8.83256e-18
4785.24472 9.07405e-18
4786.70750 9.11306e-18
4788.18029 9.12825e-18
4789.65308 9.18439e-18
4791.11586 9.20628e-18
4792.58865 9.22243e-18
4794.06144 9.25087e-18
4795.53424 9.31656e-18
4796.99701 9.11861e-18
4798.46980 9.28507e-18
4799.94260 9.48888e-18
4801.41539 9.39946e-18
4802.87816 9.33978e-18
4804.35096 9.42104e-18
4805.82375 9.49465e-18
4807.28652 9.68650e-18
4808.75932 9.69625e-18
4810.23211 9.41736e-18
4811.70490 9.43883e-18
4813.16768 9.50571e-18
4814.64047 9.47642e-18
4816.11326 9.42253e-18
4817.57604 9.38315e-18
4819.04883 9.44690e-18
4820.52162 9.36264e-18
4821.99442 9.30117e-18
4823.45719 9.23351e-18
4824.92998 9.23249e-18
4826.40278 9.16981e-18
4827.86555 9.24501e-18
4829.33834 9.28200e-18
4830.81113 9.29715e-18
4832.28393 9.37791e-18
4833.74670 9.37632e-18
4835.21950 9.41009e-18
4836.69229 9.33140e-18
4838.16508 9.29842e-18
4839.62785 9.52549e-18
4841.10065 9.57766e-18
4842.57344 9.37934e-18
4844.03622 9.37092e-18
4845.50901 9.48582e-18
4846.98180 9.49375e-18
4848.45459 9.61368e-18
4849.91737 9.63644e-18
4851.39016 9.69803e-18
4852.86295 9.73324e-18
4854.32573 9.76844e-18
4855.79852 9.80364e-18
4857.27131 9.83885e-18
4858.74411 9.87405e-18
4860.20688 9.90924e-18
4861.67967 9.94445e-18
4863.15247 9.97963e-18
4864.62526 1.00148e-17
4866.08803 1.00500e-17
4867.56083 1.00852e-17
4869.03362 1.01204e-17
4870.49639 1.01556e-17
4871.96919 1.01908e-17
4873.44198 1.02259e-17
4874.91477 1.02611e-17
4876.37755 1.02963e-17
4877.85034 1.03315e-17
4879.32313 1.03666e-17
4880.78591 1.04018e-17
4882.25870 1.04370e-17
4883.73149 1.04721e-17
4885.20429 1.05073e-17
4886.66706 1.05424e-17
4888.13985 1.05776e-17
4889.61265 1.06128e-17
4891.07542 1.06566e-17
4892.54821 1.08106e-17
4894.02101 1.08896e-17
4895.49380 1.09334e-17
4896.95657 1.09665e-17
4898.42937 1.09524e-17
4899.90216 1.08843e-17
4901.37495 1.12113e-17
4902.83773 1.11024e-17
4904.31052 1.09442e-17
4905.78331 1.13334e-17
4907.24609 1.15378e-17
4908.71888 1.14863e-17
4910.19167 1.13887e-17
4911.66447 1.17350e-17
4913.12724 1.18109e-17
4914.60003 1.16650e-17
4916.07283 1.16298e-17
4917.53560 1.17100e-17
4919.00839 1.18120e-17
4920.48118 1.19271e-17
4921.95398 1.18761e-17
4923.41675 1.18866e-17
4924.88954 1.18375e-17
4926.36234 1.17758e-17
4927.83513 1.17660e-17
4929.29790 1.19233e-17
4930.77070 1.18889e-17
4932.24349 1.17087e-17
4933.70627 1.19224e-17
4935.17906 1.19542e-17
4936.65185 1.17707e-17
4938.12464 1.19635e-17
4939.58742 1.19298e-17
4941.06021 1.19879e-17
4942.53300 1.20684e-17
4943.99578 1.19420e-17
4945.46857 1.18675e-17
4946.94136 1.18770e-17
4948.41416 1.17897e-17
4949.87693 1.17134e-17
4951.34972 1.16632e-17
4952.82252 1.16131e-17
4954.29531 1.15629e-17
4955.75808 1.15128e-17
4957.23088 1.14627e-17
4958.70367 1.14125e-17
4960.16644 1.13624e-17
4961.63924 1.13123e-17
4963.11203 1.12621e-17
4964.58482 1.12120e-17
4966.04760 1.11619e-17
4967.52039 1.11118e-17
4968.99318 1.10617e-17
4970.45596 1.10116e-17
4971.92875 1.09615e-17
4973.40154 1.09114e-17
4974.87434 1.08613e-17
4976.33711 1.08112e-17
4977.80990 1.07611e-17
4979.28270 1.07110e-17
4980.74547 1.06609e-17
4982.21826 1.06108e-17
4983.69106 1.05607e-17
4985.16385 1.05106e-17
4986.62662 1.04606e-17
4988.09942 1.05515e-17
4989.57221 1.05412e-17
4991.04500 1.04466e-17
4992.50778 1.01830e-17
4993.98057 1.00609e-17
4995.45336 1.01609e-17
4996.91614 1.03300e-17
4998.38893 1.03417e-17
4999.86172 1.03533e-17
5001.33452 1.03649e-17
5002.79729 1.03766e-17
5004.27008 1.03882e-17
5005.74287 1.03998e-17
5007.20565 1.04115e-17
5008.67844 1.04231e-17
5010.15123 1.04347e-17
5011.62403 1.04464e-17
5013.08680 1.04580e-17
5014.55960 1.04696e-17
5016.03239 1.04813e-17
5017.49516 1.04929e-17
5018.96796 1.05045e-17
5020.44075 1.05162e-17
5021.91354 1.05278e-17
5023.37632 1.05394e-17
5024.84911 1.05510e-17
5026.32190 1.05627e-17
5027.79469 1.05743e-17
5029.25747 1.05859e-17
5030.73026 1.05975e-17
5032.20305 1.06092e-17
5033.66583 1.06208e-17
5035.13862 1.06324e-17
5036.61141 1.07980e-17
5038.08421 1.08702e-17
5039.54698 1.07275e-17
5041.01977 1.09962e-17
5042.49257 1.11755e-17
5043.96536 1.12186e-17
5045.42813 1.12001e-17
5046.90093 1.12277e-17
5048.37372 1.13134e-17
5049.83649 1.13761e-17
5051.30929 1.14090e-17
5052.78208 1.14201e-17
5054.25487 1.15048e-17
5055.71765 1.15646e-17
5057.19044 1.15573e-17
5058.66323 1.15723e-17
5060.12601 1.17029e-17
5061.59880 1.16986e-17
5063.07159 1.18379e-17
5064.54439 1.18614e-17
5066.00716 1.18778e-17
5067.47995 1.18560e-17
5068.95275 1.19615e-17
5070.41552 1.19525e-17
5071.88831 1.17852e-17
5073.36111 1.18225e-17
5074.83390 1.19775e-17
5076.29667 1.20981e-17
5077.76947 1.20552e-17
5079.24226 1.20262e-17
5080.71505 1.21837e-17
5082.17783 1.21884e-17
5083.65062 1.21768e-17
5085.12341 1.21068e-17
5086.58619 1.20654e-17
5088.05898 1.22226e-17
5089.53177 1.23393e-17
5091.00457 1.23558e-17
5092.46734 1.23173e-17
5093.94013 1.23642e-17
5095.41292 1.22250e-17
5096.87570 1.22620e-17
5098.34849 1.22845e-17
5099.82128 1.23009e-17
5101.29408 1.24643e-17
5102.75685 1.23953e-17
5104.22965 1.23245e-17
5105.70244 1.22913e-17
5107.16521 1.23640e-17
5108.63800 1.24824e-17
5110.11080 1.25332e-17
5111.58359 1.26168e-17
5113.04637 1.25277e-17
5114.51916 1.24998e-17
5115.99195 1.26181e-17
5117.46474 1.25452e-17
5118.92752 1.25047e-17
5120.40031 1.26427e-17
5121.87310 1.29220e-17
5123.33588 1.27182e-17
5124.80867 1.27540e-17
5126.28146 1.29854e-17
5127.75426 1.29168e-17
5129.21703 1.28876e-17
5130.68982 1.28039e-17
5132.16262 1.28382e-17
5133.62539 1.28072e-17
5135.09818 1.29390e-17
5136.57098 1.29409e-17
5138.04377 1.31372e-17
5139.50654 1.31046e-17
5140.97934 1.29357e-17
5142.45213 1.29207e-17
5143.92492 1.28530e-17
5145.38770 1.31167e-17
5146.86049 1.31443e-17
5148.33328 1.30022e-17
5149.79606 1.32282e-17
5151.26885 1.30999e-17
5152.74164 1.30630e-17
5154.21444 1.31558e-17
5155.67721 1.32713e-17
5157.15000 1.31067e-17
5158.62280 1.31797e-17
5160.08557 1.33445e-17
5161.55836 1.34132e-17
5163.03116 1.34604e-17
5164.50395 1.34843e-17
5165.96672 1.33892e-17
5167.43952 1.34336e-17
5168.91231 1.35264e-17
5170.38510 1.34326e-17
5171.84788 1.33610e-17
5173.32067 1.34094e-17
5174.79346 1.34192e-17
5176.25624 1.36114e-17
5177.72903 1.35522e-17
5179.20182 1.35242e-17
5180.67462 1.35789e-17
5182.13739 1.36830e-17
5183.61018 1.36470e-17
5185.08298 1.36985e-17
5186.54575 1.36453e-17
5188.01854 1.37085e-17
5189.49133 1.38388e-17
5190.96413 1.38080e-17
5192.42690 1.37817e-17
5193.89970 1.37591e-17
5195.37249 1.37064e-17
5196.83526 1.38951e-17
5198.30805 1.38719e-17
5199.78085 1.37084e-17
5201.25364 1.37319e-17
5202.71642 1.37553e-17
5204.18921 1.38186e-17
5205.66200 1.39575e-17
5207.13479 1.39718e-17
5208.59757 1.39713e-17
5210.07036 1.40785e-17
5211.54315 1.41675e-17
5213.00593 1.41619e-17
5214.47872 1.39011e-17
5215.95151 1.38449e-17
5217.42431 1.41090e-17
5218.88708 1.41047e-17
5220.35987 1.39653e-17
5221.83267 1.39682e-17
5223.29544 1.39861e-17
5224.76823 1.38692e-17
5226.24103 1.39219e-17
5227.71382 1.39268e-17
5229.17659 1.39285e-17
5230.64939 1.38906e-17
5232.12218 1.40010e-17
5233.59497 1.40377e-17
5235.05775 1.40546e-17
5236.53054 1.42784e-17
5238.00333 1.43315e-17
5239.46611 1.43394e-17
5240.93890 1.43810e-17
5242.41169 1.43731e-17
5243.88449 1.41664e-17
5245.34726 1.40202e-17
5246.82005 1.40466e-17
5248.29285 1.41767e-17
5249.75562 1.42860e-17
5251.22841 1.44543e-17
5252.70121 1.44806e-17
5254.17400 1.41870e-17
5255.63677 1.39661e-17
5257.10957 1.41221e-17
5258.58236 1.44090e-17
5260.04513 1.45006e-17
5261.51793 1.42599e-17
5262.99072 1.41286e-17
5264.46351 1.42073e-17
5265.92629 1.42861e-17
5267.39908 1.43337e-17
5268.87187 1.43045e-17
5270.34467 1.42628e-17
5271.80744 1.42918e-17
5273.28023 1.41398e-17
5274.75302 1.41094e-17
5276.21580 1.42652e-17
5277.68859 1.42862e-17
5279.16138 1.44323e-17
5280.63418 1.43878e-17
5282.09695 1.42026e-17
5283.56975 1.41923e-17
5285.04254 1.42229e-17
5286.50531 1.43386e-17
5287.97811 1.43254e-17
5289.45090 1.42156e-17
5290.92369 1.42853e-17
5292.38647 1.42016e-17
5293.85926 1.40621e-17
5295.33205 1.39311e-17
5296.80484 1.39650e-17
5298.26762 1.41587e-17
5299.74041 1.39443e-17
5301.21320 1.39381e-17
5302.67598 1.39947e-17
5304.14877 1.38108e-17
5305.62156 1.38079e-17
5307.09436 1.38972e-17
5308.55713 1.38468e-17
5310.02992 1.37246e-17
5311.50272 1.39178e-17
5312.97551 1.39785e-17
5314.43828 1.37755e-17
5315.91108 1.36751e-17
5317.38387 1.36615e-17
5318.84664 1.36291e-17
5320.31944 1.35926e-17
5321.79223 1.35666e-17
5323.26502 1.35983e-17
5324.72780 1.36060e-17
5326.20059 1.33989e-17
5327.67338 1.32266e-17
5329.13616 1.33269e-17
5330.60895 1.35154e-17
5332.08174 1.33550e-17
5333.55454 1.33204e-17
5335.01731 1.34701e-17
5336.49010 1.34014e-17
5337.96290 1.34227e-17
5339.42567 1.33964e-17
5340.89846 1.32759e-17
5342.37126 1.32204e-17
5343.84405 1.33032e-17
5345.30682 1.32029e-17
5346.77962 1.31374e-17
5348.25241 1.31505e-17
5349.72520 1.31638e-17
5351.18798 1.31739e-17
5352.66077 1.31911e-17
5354.13356 1.32429e-17
5355.59634 1.30437e-17
5357.06913 1.29904e-17
5358.54192 1.31543e-17
5360.01472 1.31188e-17
5361.47749 1.29850e-17
5362.95028 1.29544e-17
5364.42307 1.30322e-17
5365.88585 1.30037e-17
5367.35864 1.29811e-17
5368.83144 1.30350e-17
5370.30423 1.29302e-17
5371.76700 1.27720e-17
5373.23980 1.28036e-17
5374.71259 1.27691e-17
5376.17536 1.27246e-17
5377.64815 1.26043e-17
5379.12095 1.26289e-17
5380.59374 1.27943e-17
5382.05652 1.28152e-17
5383.52931 1.26592e-17
5385.00210 1.27140e-17
5386.47489 1.28403e-17
5387.93767 1.27188e-17
5389.41046 1.26781e-17
5390.88325 1.26388e-17
5392.34603 1.25962e-17
5393.81882 1.27873e-17
5395.29161 1.27349e-17
5396.76441 1.25397e-17
5398.22718 1.25146e-17
5399.69997 1.26520e-17
5401.17277 1.26164e-17
5402.64556 1.25779e-17
5404.10833 1.26158e-17
5405.58113 1.24899e-17
5407.05392 1.23586e-17
5408.51669 1.23765e-17
5409.98949 1.26402e-17
5411.46228 1.28143e-17
5412.93507 1.26813e-17
5414.39785 1.23414e-17
5415.87064 1.24881e-17
5417.34343 1.27040e-17
5418.80621 1.26966e-17
5420.27900 1.24761e-17
5421.75179 1.25259e-17
5423.22459 1.23959e-17
5424.68736 1.23827e-17
5426.16015 1.25131e-17
5427.63295 1.25492e-17
5429.09572 1.25395e-17
5430.56851 1.25244e-17
5432.04131 1.24146e-17
5433.51410 1.22753e-17
5434.97687 1.24297e-17
5436.44967 1.23408e-17
5437.92246 1.23439e-17
5439.39525 1.23883e-17
5440.85803 1.23987e-17
5442.33082 1.23433e-17
5443.80361 1.23139e-17
5445.26639 1.23142e-17
5446.73918 1.23395e-17
5448.21197 1.21955e-17
5449.68477 1.21923e-17
5451.14754 1.21821e-17
5452.62033 1.20795e-17
5454.09313 1.19806e-17
5455.55590 1.20138e-17
5457.02869 1.21704e-17
5458.50148 1.21017e-17
5459.97428 1.20578e-17
5461.43705 1.20501e-17
5462.90985 1.19836e-17
5464.38264 1.18174e-17
5465.84541 1.18391e-17
5467.31820 1.17831e-17
5468.79100 1.18796e-17
5470.26379 1.20065e-17
5471.72657 1.19144e-17
5473.19936 1.19337e-17
5474.67215 1.18300e-17
5476.14494 1.18591e-17
5477.60772 1.19504e-17
5479.08051 1.20271e-17
5480.55330 1.17724e-17
5482.01608 1.17233e-17
5483.48887 1.16799e-17
5484.96166 1.15595e-17
5486.43446 1.16111e-17
5487.89723 1.15946e-17
5489.37002 1.14744e-17
5490.84282 1.14553e-17
5492.30559 1.14308e-17
5493.77838 1.14286e-17
5495.25118 1.13570e-17
5496.72397 1.15019e-17
5498.18674 1.14104e-17
5499.65954 1.12512e-17
5501.13233 1.13851e-17
5502.60512 1.14166e-17
5504.06790 1.12410e-17
5505.54069 1.12369e-17
5507.01348 1.12064e-17
5508.47626 1.12996e-17
5509.94905 1.11386e-17
5511.42184 1.12635e-17
5512.89464 1.12856e-17
5514.35741 1.12496e-17
5515.83020 1.12957e-17
5517.30300 1.11969e-17
5518.76577 1.10949e-17
5520.23856 1.10614e-17
5521.71136 1.11207e-17
5523.18415 1.11791e-17
5524.64692 1.11930e-17
5526.11972 1.10622e-17
5527.59251 1.10712e-17
5529.06530 1.10762e-17
5530.52808 1.09229e-17
5532.00087 1.07395e-17
5533.47366 1.07049e-17
5534.93644 1.08182e-17
5536.40923 1.09027e-17
5537.88202 1.08471e-17
5539.35482 1.08812e-17
5540.81759 1.07762e-17
5542.29038 1.07734e-17
5543.76318 1.09665e-17
5545.22595 1.08969e-17
5546.69874 1.07736e-17
5548.17153 1.07921e-17
5549.64433 1.08606e-17
5551.10710 1.07160e-17
5552.57989 1.06292e-17
5554.05269 1.06333e-17
5555.51546 1.07474e-17
5556.98826 1.06191e-17
5558.46105 1.04797e-17
5559.93384 1.04943e-17
5561.39662 1.06062e-17
5562.86941 1.06794e-17
5564.34220 1.07187e-17
5565.81499 1.07128e-17
5567.27777 1.06756e-17
5568.75056 1.08126e-17
5570.22335 1.07239e-17
5571.68613 1.05965e-17
5573.15892 1.06262e-17
5574.63171 1.06827e-17
5576.10451 1.06976e-17
5577.56728 1.07863e-17
5579.04007 1.07205e-17
5580.51287 1.04679e-17
5581.97564 1.04172e-17
5583.44843 1.05289e-17
5584.92123 1.06087e-17
5586.39402 1.04159e-17
5587.85679 1.04107e-17
5589.32959 1.04921e-17
5590.80238 1.03638e-17
5592.27517 1.04279e-17
5593.73795 1.04916e-17
5595.21074 1.05298e-17
5596.68353 1.05132e-17
5598.14631 1.04750e-17
5599.61910 1.03998e-17
5601.09189 1.04507e-17
5602.56469 1.06551e-17
5604.02746 1.06355e-17
5605.50025 1.05551e-17
5606.97305 1.04620e-17
5608.43582 1.03398e-17
5609.90861 1.02822e-17
5611.38141 1.04510e-17
5612.85420 1.04380e-17
5614.31697 1.04551e-17
5615.78977 1.04795e-17
5617.26256 1.03004e-17
5618.72533 1.02616e-17
5620.19813 1.02663e-17
5621.67092 1.02845e-17
5623.14371 1.02647e-17
5624.60649 1.02486e-17
5626.07928 1.00592e-17
5627.55207 9.99352e-18
5629.02487 1.02109e-17
5630.48764 1.02206e-17
5631.96043 1.00742e-17
5633.43322 1.01564e-17
5634.89600 1.00698e-17
5636.36879 9.89663e-18
5637.84159 9.97680e-18
5639.31438 1.01416e-17
5640.77715 9.96131e-18
5642.24995 9.80913e-18
5643.72274 9.76171e-18
5645.18551 9.71979e-18
5646.65830 9.75949e-18
5648.13110 9.72226e-18
5649.60389 9.61730e-18
5651.06667 9.49078e-18
5652.53946 9.32091e-18
5654.01225 9.23079e-18
5655.48504 9.27501e-18
5656.94782 9.00300e-18
5658.42061 9.08457e-18
5659.89340 9.05444e-18
5661.35618 8.86605e-18
5662.82897 8.89159e-18
5664.30176 8.91531e-18
5665.77456 8.73858e-18
5667.23733 8.75363e-18
5668.71012 8.79474e-18
5670.18292 8.64905e-18
5671.64569 8.57420e-18
5673.11848 8.54106e-18
5674.59128 8.34972e-18
5676.06407 8.29635e-18
5677.52684 8.34499e-18
5678.99964 8.32471e-18
5680.47243 8.24340e-18
5681.94522 8.25755e-18
5683.40800 8.19357e-18
5684.88079 8.12749e-18
5686.35358 8.09684e-18
5687.81636 7.95682e-18
5689.28915 8.02843e-18
5690.76194 8.14339e-18
5692.23474 8.14332e-18
5693.69751 8.12050e-18
5695.17030 8.00429e-18
5696.64310 8.18890e-18
5698.10587 8.25142e-18
5699.57866 8.12696e-18
5701.05146 8.16792e-18
5702.52425 8.19403e-18
5703.98702 8.15894e-18
5705.45982 8.19816e-18
5706.93261 8.25160e-18
5708.39538 8.31038e-18
5709.86818 8.35276e-18
5711.34097 8.39161e-18
5712.81376 8.46406e-18
5714.27654 8.59790e-18
5715.74933 8.44401e-18
5717.22212 8.52078e-18
5718.69492 8.65676e-18
5720.15769 8.59099e-18
5721.63048 8.69634e-18
5723.10328 8.78278e-18
5724.56605 8.94030e-18
5726.03884 9.01475e-18
5727.51163 9.07884e-18
5728.98443 9.11454e-18
5730.44720 9.16413e-18
5731.92000 9.22091e-18
5733.39279 9.32892e-18
5734.85556 9.39034e-18
5736.32835 9.16906e-18
5737.80115 9.24584e-18
5739.27394 9.41090e-18
5740.73672 9.52021e-18
5742.20951 9.64682e-18
5743.68230 9.79157e-18
5745.14508 9.94449e-18
5746.61787 1.01592e-17
5748.09066 1.03051e-17
5749.56345 1.03412e-17
5751.02623 1.05473e-17
5752.49902 1.06511e-17
5753.97181 1.08996e-17
5755.44461 1.11811e-17
5756.90738 1.12539e-17
5758.38017 1.13060e-17
5759.85297 1.14161e-17
5761.31574 1.16659e-17
5762.78853 1.17564e-17
5764.26133 1.18959e-17
5765.73412 1.20137e-17
5767.19689 1.20324e-17
5768.66969 1.20308e-17
5770.14248 1.21443e-17
5771.61527 1.21311e-17
5773.07805 1.23640e-17
5774.55084 1.23775e-17
5776.02363 1.23164e-17
5777.48641 1.22847e-17
5778.95920 1.24441e-17
5780.43199 1.25708e-17
5781.90479 1.25136e-17
5783.36756 1.27105e-17
5784.84035 1.27852e-17
5786.31315 1.26774e-17
5787.77592 1.25510e-17
5789.24871 1.25188e-17
5790.72151 1.23766e-17
5792.19430 1.22863e-17
5793.65707 1.24793e-17
5795.12987 1.25920e-17
5796.60266 1.25751e-17
5798.06543 1.27480e-17
5799.53823 1.27146e-17
5801.01102 1.26823e-17
5802.48381 1.28087e-17
5803.94659 1.28066e-17
5805.41938 1.26150e-17
5806.89217 1.24500e-17
5808.36497 1.24411e-17
5809.82774 1.24483e-17
5811.30053 1.24556e-17
5812.77333 1.24582e-17
5814.23610 1.25855e-17
5815.70889 1.26754e-17
5817.18168 1.25408e-17
5818.65448 1.24868e-17
5820.11725 1.26318e-17
5821.59004 1.28935e-17
5823.06284 1.27881e-17
5824.52561 1.27071e-17
5825.99841 1.28931e-17
5827.47120 1.28969e-17
5828.94399 1.30030e-17
5830.40677 1.30092e-17
5831.87956 1.30043e-17
5833.35235 1.30888e-17
5834.81513 1.29278e-17
5836.28792 1.29251e-17
5837.76071 1.30721e-17
5839.23350 1.29040e-17
5840.69628 1.30258e-17
5842.16907 1.31220e-17
5843.64186 1.30703e-17
5845.11466 1.30461e-17
5846.57743 1.31586e-17
5848.05022 1.34440e-17
5849.52302 1.32402e-17
5850.98579 1.29957e-17
5852.45858 1.30563e-17
5853.93138 1.31506e-17
5855.40417 1.31233e-17
5856.86694 1.29813e-17
5858.33974 1.27843e-17
5859.81253 1.28590e-17
5861.27530 1.30072e-17
5862.74810 1.27924e-17
5864.22089 1.27421e-17
5865.69368 1.29755e-17
5867.15646 1.29718e-17
5868.62925 1.28664e-17
5870.10204 1.29519e-17
5871.57484 1.29425e-17
5873.03761 1.28100e-17
5874.51040 1.28944e-17
5875.98320 1.29075e-17
5877.44597 1.27822e-17
5878.91876 1.26768e-17
5880.39156 1.26884e-17
5881.86435 1.26990e-17
5883.32712 1.25449e-17
5884.79992 1.24179e-17
5886.27271 1.22546e-17
5887.74550 1.18766e-17
5889.20828 1.19556e-17
5890.68107 1.21896e-17
5892.15386 1.20581e-17
5893.61664 1.20956e-17
5895.08943 1.20636e-17
5896.56222 1.19940e-17
5898.03502 1.15667e-17
5899.49779 1.07428e-17
5900.97058 1.00763e-17
5902.44337 9.90603e-18
5903.90615 1.02290e-17
5905.37894 1.04075e-17
5906.85173 1.00807e-17
5908.32453 1.00275e-17
5909.78730 1.04318e-17
5911.26010 1.10641e-17
5912.73289 1.16057e-17
5914.19566 1.15838e-17
5915.66845 1.16422e-17
5917.14125 1.15462e-17
5918.61404 1.15142e-17
5920.07682 1.15312e-17
5921.54961 1.14165e-17
5923.02240 1.15503e-17
5924.49519 1.15685e-17
5925.95797 1.15639e-17
5927.43076 1.12835e-17
5928.90355 1.12604e-17
5930.36633 1.13068e-17
5931.83912 1.11876e-17
5933.31191 1.11132e-17
5934.78471 1.11882e-17
5936.24748 1.12508e-17
5937.72027 1.12683e-17
5939.19307 1.11230e-17
5940.65584 1.09512e-17
5942.12863 1.10407e-17
5943.60143 1.09276e-17
5945.07422 1.08884e-17
5946.53699 1.09019e-17
5948.00979 1.08933e-17
5949.48258 1.10008e-17
5950.95537 1.09450e-17
5952.41815 1.08402e-17
5953.89094 1.08025e-17
5955.36373 1.07172e-17
5956.82651 1.07118e-17
5958.29930 1.09427e-17
5959.77209 1.08754e-17
5961.24489 1.08467e-17
5962.70766 1.07072e-17
5964.18045 1.07002e-17
5965.65325 1.06397e-17
5967.11602 1.05573e-17
5968.58881 1.06160e-17
5970.06161 1.07030e-17
5971.53440 1.07588e-17
5972.99717 1.06800e-17
5974.46997 1.06202e-17
5975.94276 1.05083e-17
5977.40553 1.05038e-17
5978.87833 1.05937e-17
5980.35112 1.05921e-17
5981.82391 1.05436e-17
5983.28669 1.05440e-17
5984.75948 1.05548e-17
5986.23227 1.06283e-17
5987.70507 1.04445e-17
5989.16784 1.03799e-17
5990.64063 1.04276e-17
5992.11343 1.03972e-17
5993.57620 1.04995e-17
5995.04899 1.05304e-17
5996.52178 1.04778e-17
5997.99458 1.04412e-17
5999.45735 1.03778e-17
6000.93015 1.04291e-17
6002.40294 1.03940e-17
6003.86571 1.03227e-17
6005.33850 1.01886e-17
6006.81130 1.02654e-17
6008.28409 1.02954e-17
6009.74687 1.02795e-17
6011.21966 1.02123e-17
6012.69245 1.01504e-17
6014.16524 1.00644e-17
6015.62802 1.01199e-17
6017.10081 1.00848e-17
6018.57360 9.88849e-18
6020.03638 1.00041e-17
6021.50917 9.94411e-18
6022.98196 1.00233e-17
6024.45476 1.00942e-17
6025.91753 9.89665e-18
6027.39032 9.94038e-18
6028.86312 9.93360e-18
6030.32589 9.89333e-18
6031.79868 9.97888e-18
6033.27148 9.95201e-18
6034.74427 9.95696e-18
6036.20704 9.92515e-18
6037.67984 9.79694e-18
6039.15263 9.83859e-18
6040.62542 9.80923e-18
6042.08820 9.79875e-18
6043.56099 9.78401e-18
6045.03378 9.80924e-18
6046.49656 9.82510e-18
6047.96935 9.75498e-18
6049.44214 9.69464e-18
6050.91494 9.66887e-18
6052.37771 9.60114e-18
6053.85050 9.63794e-18
6055.32330 9.75882e-18
6056.78607 9.71503e-18
6058.25886 9.71748e-18
6059.73166 9.84780e-18
6061.20445 9.75507e-18
6062.66722 9.67040e-18
6064.14002 9.72697e-18
6065.61281 9.62539e-18
6067.07558 9.61224e-18
6068.54838 9.88561e-18
6070.02117 9.77072e-18
6071.49396 9.58280e-18
6072.95674 9.70360e-18
6074.42953 9.80783e-18
6075.90232 9.74450e-18
6077.37512 9.72372e-18
6078.83789 9.51116e-18
6080.31068 9.52912e-18
6081.78348 9.44004e-18
6083.24625 9.39665e-18
6084.71904 9.44476e-18
6086.19183 9.50259e-18
6087.66463 9.58702e-18
6089.12740 9.44874e-18
6090.60019 9.41156e-18
6092.07299 9.31816e-18
6093.53576 9.38598e-18
6095.00856 9.40069e-18
6096.48135 9.32414e-18
6097.95414 9.19028e-18
6099.41692 9.15406e-18
6100.88971 9.16953e-18
6102.36250 9.17686e-18
6103.82528 9.24487e-18
6105.29807 9.25385e-18
6106.77086 9.14436e-18
6108.24365 9.06630e-18
6109.70643 9.10523e-18
6111.17922 9.05772e-18
6112.65201 9.02875e-18
6114.12481 9.15426e-18
6115.58758 9.03899e-18
6117.06037 8.74570e-18
6118.53317 8.64748e-18
6119.99594 8.83995e-18
6121.46873 8.80857e-18
6122.94153 8.83329e-18
6124.41432 8.54767e-18
6125.87709 8.47709e-18
6127.34989 8.55531e-18
6128.82268 8.49243e-18
6130.29547 8.47472e-18
6131.75825 8.36747e-18
6133.23104 8.29963e-18
6134.70383 8.19649e-18
6136.16661 8.35227e-18
6137.63940 8.26673e-18
6139.11219 8.16013e-18
6140.58499 8.13859e-18
6142.04776 8.08806e-18
6143.52055 8.05916e-18
6144.99335 8.15247e-18
6146.45612 8.03261e-18
6147.92891 7.87468e-18
6149.40171 7.73006e-18
6150.87450 7.86484e-18
6152.33727 7.91230e-18
6153.81007 7.68639e-18
6155.28286 7.51532e-18
6156.74563 7.50698e-18
6158.21843 7.54240e-18
6159.69122 7.40153e-18
6161.16401 7.41629e-18
6162.62679 7.38012e-18
6164.09958 7.29644e-18
6165.57237 7.33563e-18
6167.04517 7.22423e-18
6168.50794 7.19733e-18
6169.98073 7.17599e-18
6171.45352 7.20279e-18
6172.91630 7.18102e-18
6174.38909 7.08685e-18
6175.86188 6.99326e-18
6177.33468 6.85398e-18
6178.79745 6.78472e-18
6180.27025 6.93752e-18
6181.74304 6.92491e-18
6183.20581 6.78044e-18
6184.67861 6.70419e-18
6186.15140 6.63548e-18
6187.62419 6.66712e-18
6189.08697 6.73105e-18
6190.55976 6.76980e-18
6192.03255 6.63174e-18
6193.49532 6.46804e-18
6194.96812 6.60107e-18
6196.44091 6.50087e-18
6197.91370 6.39690e-18
6199.37648 6.32635e-18
6200.84927 6.37443e-18
6202.32206 6.42765e-18
6203.79486 6.29348e-18
6205.25763 6.31093e-18
6206.73042 6.26747e-18
6208.20322 6.21781e-18
6209.66599 6.15013e-18
6211.13878 5.97084e-18
6212.61158 6.02658e-18
6214.08437 6.07156e-18
6215.54714 5.92266e-18
6217.01994 5.83750e-18
6218.49273 5.73156e-18
6219.95550 5.60219e-18
6221.42830 5.62090e-18
6222.90109 5.75711e-18
6224.37388 5.70287e-18
6225.83666 5.62053e-18
6227.30945 5.50120e-18
6228.78224 5.37944e-18
6230.25504 5.49009e-18
6231.71781 5.34214e-18
6233.19060 5.21746e-18
6234.66340 5.21662e-18
6236.12617 5.18353e-18
6237.59896 5.14381e-18
6239.07176 5.10491e-18
6240.54455 5.01353e-18
6242.00732 4.98567e-18
6243.48012 4.89275e-18
6244.95291 4.79770e-18
6246.41568 4.69522e-18
6247.88848 4.69756e-18
6249.36127 4.75438e-18
6250.83406 4.80089e-18
6252.29684 4.54475e-18
6253.76963 4.40910e-18
6255.24242 4.49870e-18
6256.71522 4.49869e-18
6258.17799 4.41293e-18
6259.65078 4.43161e-18
6261.12358 4.50384e-18
6262.58635 4.39409e-18
6264.05914 4.34086e-18
6265.53193 4.23009e-18
6267.00473 4.13366e-18
6268.46750 4.21039e-18
6269.94030 4.30046e-18
6271.41309 4.31457e-18
6272.87586 4.20425e-18
6274.34865 4.07790e-18
6275.82145 4.04741e-18
6277.29424 4.07432e-18
6278.75702 4.13061e-18
6280.22981 4.17936e-18
6281.70260 4.28766e-18
6283.16538 4.25195e-18
6284.63817 4.30676e-18
6286.11096 4.27788e-18
6287.58375 4.37220e-18
6289.04653 4.34314e-18
6290.51932 4.35116e-18
6291.99211 4.31553e-18
6293.46491 4.39434e-18
6294.92768 4.47548e-18
6296.40047 4.63396e-18
6297.87327 4.61375e-18
6299.33604 4.82435e-18
6300.80883 4.91195e-18
6302.28163 4.85652e-18
6303.75442 4.95088e-18
6305.21719 5.29593e-18
6306.68999 5.39889e-18
6308.16278 5.45747e-18
6309.62555 5.52911e-18
6311.09835 5.71674e-18
6312.57114 5.90033e-18
6314.04393 5.96163e-18
6315.50671 5.92660e-18
6316.97950 6.16469e-18
6318.45229 6.15752e-18
6319.92509 6.20400e-18
6321.38786 6.25402e-18
6322.86065 6.30179e-18
6324.33345 6.23220e-18
6325.79622 6.24054e-18
6327.26901 6.39615e-18
6328.74181 6.56206e-18
6330.21460 6.69832e-18
6331.67737 6.55913e-18
6333.15017 6.68364e-18
6334.62296 6.90948e-18
6336.08573 7.03732e-18
6337.55853 7.22856e-18
6339.03132 7.27427e-18
6340.50411 7.52403e-18
6341.96689 7.57030e-18
6343.43968 7.68536e-18
6344.91247 7.94421e-18
6346.37525 8.10116e-18
6347.84804 8.26473e-18
6349.32083 8.41876e-18
6350.79363 8.50168e-18
6352.25640 8.60449e-18
6353.72919 8.81976e-18
6355.20198 8.83519e-18
6356.67478 8.83995e-18
6358.13755 9.05154e-18
6359.61035 9.06475e-18
6361.08314 9.00062e-18
6362.54591 9.18933e-18
6364.01870 9.34800e-18
6365.49150 9.29862e-18
6366.96429 9.29822e-18
6368.42707 9.47413e-18
6369.89986 9.61713e-18
6371.37265 9.80905e-18
6372.83543 9.90811e-18
6374.30822 9.90214e-18
6375.78101 9.90882e-18
6377.25380 9.85847e-18
6378.71658 9.96807e-18
6380.18937 1.01078e-17
6381.66216 1.02363e-17
6383.13496 1.03625e-17
6384.59773 1.04021e-17
6386.07052 1.03061e-17
6387.54332 1.03573e-17
6389.00609 1.04596e-17
6390.47888 1.04381e-17
6391.95168 1.03839e-17
6393.42447 1.03324e-17
6394.88724 1.03162e-17
6396.36004 1.04821e-17
6397.83283 1.04696e-17
6399.29560 1.04319e-17
6400.76840 1.05195e-17
6402.24119 1.05761e-17
6403.71398 1.06674e-17
6405.17676 1.07922e-17
6406.64955 1.07977e-17
6408.12234 1.07690e-17
6409.59514 1.07484e-17
6411.05791 1.07538e-17
6412.53070 1.08481e-17
6414.00350 1.08528e-17
6415.46627 1.07734e-17
6416.93906 1.07882e-17
6418.41186 1.10072e-17
6419.88465 1.09922e-17
6421.34742 1.09332e-17
6422.82022 1.08927e-17
6424.29301 1.07807e-17
6425.75578 1.08514e-17
6427.22858 1.07993e-17
6428.70137 1.06366e-17
6430.17416 1.06213e-17
6431.63694 1.07392e-17
6433.10973 1.07298e-17
6434.58252 1.07152e-17
6436.04530 1.05742e-17
6437.51809 1.05330e-17
6438.99088 1.05650e-17
6440.46367 1.05912e-17
6441.92645 1.06201e-17
6443.39924 1.06118e-17
6444.87203 1.06521e-17
6446.34483 1.06287e-17
6447.80760 1.07404e-17
6449.28040 1.08726e-17
6450.75319 1.06988e-17
6452.21596 1.06117e-17
6453.68876 1.06645e-17
6455.16155 1.05312e-17
6456.63434 1.04871e-17
6458.09712 1.05539e-17
6459.56991 1.04314e-17
6461.04270 1.03587e-17
6462.50547 1.02604e-17
6463.97827 1.02511e-17
6465.45106 1.02857e-17
6466.92385 1.00936e-17
6468.38663 1.01818e-17
6469.85942 1.01182e-17
6471.33221 1.00807e-17
6472.79499 1.01584e-17
6474.26778 1.02415e-17
6475.74057 1.00682e-17
6477.21337 1.02963e-17
6478.67614 1.01375e-17
6480.14893 1.00911e-17
6481.62173 1.03020e-17
6483.09452 1.02996e-17
6484.55729 1.03955e-17
6486.03009 1.03001e-17
6487.50288 1.03028e-17
6488.97567 1.01859e-17
6490.43845 1.01771e-17
6491.91124 1.01422e-17
6493.38403 9.98760e-18
6494.84681 9.90299e-18
6496.31960 1.00150e-17
6497.79239 1.01578e-17
6499.26519 1.02726e-17
6500.72796 1.02709e-17
6502.20075 1.01433e-17
6503.67355 1.00555e-17
6505.13632 1.02036e-17
6506.60911 1.02115e-17
6508.08191 1.02011e-17
6509.55470 1.01802e-17
6511.01747 1.03888e-17
6512.49027 1.02346e-17
6513.96306 1.02474e-17
6515.42583 1.03231e-17
6516.89863 1.03041e-17
6518.37142 1.03201e-17
6519.84421 1.01904e-17
6521.30699 1.03245e-17
6522.77978 1.02438e-17
6524.25257 1.01421e-17
6525.72537 1.02238e-17
6527.18814 1.02814e-17
6528.66093 1.00753e-17
6530.13372 1.01647e-17
6531.59650 1.03342e-17
6533.06929 1.03388e-17
6534.54209 1.02378e-17
6536.01488 1.03456e-17
6537.47765 1.04742e-17
6538.95045 1.05260e-17
6540.42324 1.06576e-17
6541.88601 1.08350e-17
6543.35880 1.08442e-17
6544.83160 1.07347e-17
6546.30439 1.07469e-17
6547.76717 1.07592e-17
6549.23996 1.07715e-17
6550.71275 1.07837e-17
6552.17552 1.07960e-17
6553.64832 1.08082e-17
6555.12111 1.08205e-17
6556.59390 1.08328e-17
6558.05668 1.08450e-17
6559.52947 1.08573e-17
6561.00226 1.08695e-17
6562.47506 1.08818e-17
6563.93783 1.08941e-17
6565.41062 1.09063e-17
6566.88342 1.09186e-17
6568.34619 1.09308e-17
6569.81898 1.09431e-17
6571.29178 1.09553e-17
6572.76457 1.09676e-17
6574.22734 1.09799e-17
6575.70014 1.09921e-17
6577.17293 1.10044e-17
6578.63570 1.10166e-17
6580.10850 1.10289e-17
6581.58129 1.10411e-17
6583.05408 1.10534e-17
6584.51686 1.10656e-17
6585.98965 1.10779e-17
6587.46244 1.10902e-17
6588.93524 1.11024e-17
6590.39801 1.11147e-17
6591.87080 1.11269e-17
6593.34360 1.11392e-17
6594.80637 1.11514e-17
6596.27916 1.11637e-17
6597.75196 1.11759e-17
6599.22475 1.11882e-17
6600.68752 1.12004e-17
6602.16032 1.12127e-17
6603.63311 1.12249e-17
6605.09588 1.12372e-17
6606.56868 1.12494e-17
6608.04147 1.12850e-17
6609.51426 1.12069e-17
6610.97704 1.14234e-17
6612.44983 1.15398e-17
6613.92262 1.12503e-17
6615.39542 1.14028e-17
6616.85819 1.14340e-17
6618.33098 1.14452e-17
6619.80378 1.16482e-17
6621.26655 1.16867e-17
6622.73934 1.16249e-17
6624.21213 1.14471e-17
6625.68493 1.14205e-17
6627.14770 1.15223e-17
6628.62050 1.14524e-17
6630.09329 1.13068e-17
6631.55606 1.14877e-17
6633.02885 1.15996e-17
6634.50165 1.14119e-17
6635.97444 1.14227e-17
6637.43722 1.13806e-17
6638.91001 1.12702e-17
6640.38280 1.14250e-17
6641.84558 1.14144e-17
6643.31837 1.12170e-17
6644.79116 1.13874e-17
6646.26395 1.14096e-17
6647.72673 1.15136e-17
6649.19952 1.14354e-17
6650.67231 1.15184e-17
6652.14511 1.15754e-17
6653.60788 1.15665e-17
6655.08067 1.15891e-17
6656.55347 1.15221e-17
6658.01624 1.15451e-17
6659.48903 1.14101e-17
6660.96183 1.14987e-17
6662.43462 1.16965e-17
6663.89739 1.14556e-17
6665.37019 1.15791e-17
6666.84298 1.15035e-17
6668.30575 1.13134e-17
6669.77855 1.13553e-17
6671.25134 1.12750e-17
6672.72413 1.11801e-17
6674.18691 1.10902e-17
6675.65970 1.09803e-17
6677.13249 1.09309e-17
6678.60529 1.09310e-17
6680.06806 1.08355e-17
6681.54085 1.09940e-17
6683.01365 1.10248e-17
6684.47642 1.09657e-17
6685.94921 1.08677e-17
6687.42201 1.09466e-17
6688.89480 1.11695e-17
6690.35757 1.11733e-17
6691.83037 1.11497e-17
6693.30316 1.12113e-17
6694.76593 1.09445e-17
6696.23873 1.11175e-17
6697.71152 1.10398e-17
6699.18431 1.09938e-17
6700.64709 1.10654e-17
6702.11988 1.10385e-17
6703.59267 1.08028e-17
6705.05545 1.05692e-17
6706.52824 1.05718e-17
6708.00103 1.08743e-17
6709.47383 1.04803e-17
6710.93660 1.04934e-17
6712.40939 1.03762e-17
6713.88218 1.04598e-17
6715.35498 1.04222e-17
6716.81775 1.00757e-17
6718.29054 1.02679e-17
6719.76334 9.94666e-18
6721.22611 1.02666e-17
6722.69891 1.04525e-17
6724.17170 1.03621e-17
6725.64449 1.01604e-17
6727.10727 1.01133e-17
6728.58006 1.03554e-17
6730.05285 1.02817e-17
6731.51562 1.03222e-17
6732.98842 1.02405e-17
6734.46121 1.02174e-17
6735.93400 1.02116e-17
6737.39678 1.02937e-17
6738.86957 1.01876e-17
6740.34236 9.97598e-18
6741.81516 9.91374e-18
6743.27793 9.86619e-18
6744.75072 9.86953e-18
6746.22352 9.77597e-18
6747.68629 9.71858e-18
6749.15908 9.75206e-18
6750.63188 9.64480e-18
6752.10467 9.39712e-18
6753.56744 9.44002e-18
6755.04024 9.57530e-18
6756.51303 9.53111e-18
6757.97580 9.29229e-18
6759.44860 9.30996e-18
6760.92139 9.32097e-18
6762.39418 9.45691e-18
6763.85696 9.36825e-18
6765.32975 9.44049e-18
6766.80254 9.60695e-18
6768.27534 9.53855e-18
6769.73811 9.52938e-18
6771.21090 9.57198e-18
6772.68370 9.51489e-18
6774.14647 9.53164e-18
6775.61926 9.43605e-18
6777.09206 9.58377e-18
6778.56485 9.50790e-18
6780.02762 9.50351e-18
6781.50042 9.33929e-18
6782.97321 9.21584e-18
6784.43598 9.11500e-18
6785.90878 9.18819e-18
6787.38157 9.24682e-18
6788.85436 9.12445e-18
6790.31714 9.01872e-18
6791.78993 9.08773e-18
6793.26272 9.03089e-18
6794.72550 8.79392e-18
6796.19829 8.76646e-18
6797.67108 8.75607e-18
6799.14387 8.78292e-18
6800.60665 8.81610e-18
6802.07944 8.68553e-18
6803.55224 8.67077e-18
6805.02503 8.87226e-18
6806.48780 8.66221e-18
6807.96060 8.62405e-18
6809.43339 8.79043e-18
6810.89616 8.79578e-18
6812.36895 8.74799e-18
6813.84175 8.73970e-18
6815.31454 8.77224e-18
6816.77732 8.85027e-18
6818.25011 8.81475e-18
6819.72290 8.74849e-18
6821.18567 8.80905e-18
6822.65847 8.69335e-18
6824.13126 8.72678e-18
6825.60405 8.82015e-18
6827.06683 8.75919e-18
6828.53962 8.67295e-18
6830.01241 8.48464e-18
6831.47519 8.28005e-18
6832.94798 8.28898e-18
6834.42077 8.43901e-18
6835.89357 8.42729e-18
6837.35634 8.30753e-18
6838.82913 8.11781e-18
6840.30193 8.15700e-18
6841.77472 8.27631e-18
6843.23749 8.06274e-18
6844.71029 7.97968e-18
6846.18308 8.14350e-18
6847.64585 8.13279e-18
6849.11865 8.11575e-18
6850.59144 8.12370e-18
6852.06423 8.06100e-18
6853.52701 8.22211e-18
6854.99980 8.34444e-18
6856.47259 8.35680e-18
6857.94539 8.38356e-18
6859.40816 8.24334e-18
6860.88095 8.17628e-18
6862.35375 8.25084e-18
6863.81652 8.11123e-18
6865.28931 8.10138e-18
6866.76211 8.02413e-18
6868.23490 8.10192e-18
6869.69767 8.20204e-18
6871.17047 8.10483e-18
6872.64326 8.24309e-18
6874.10603 8.20597e-18
6875.57883 8.16525e-18
6877.05162 8.10773e-18
6878.52441 8.11118e-18
6879.98719 8.17037e-18
6881.45998 8.03508e-18
6882.93277 7.99561e-18
6884.39555 8.13986e-18
6885.86834 8.05618e-18
6887.34113 7.86369e-18
6888.81393 7.91801e-18
6890.27670 8.08172e-18
6891.74949 8.11966e-18
6893.22228 8.05421e-18
6894.69508 8.09132e-18
6896.15785 8.25955e-18
6897.63065 8.42680e-18
6899.10344 8.31603e-18
6900.56621 8.36808e-18
6902.03900 8.43518e-18
6903.51180 8.43257e-18
6904.98459 8.45348e-18
6906.44737 8.48061e-18
6907.92016 8.41461e-18
6909.39295 8.61750e-18
6910.85573 8.50764e-18
6912.32852 8.18652e-18
6913.80131 8.37418e-18
6915.27410 8.48119e-18
6916.73688 8.36756e-18
6918.20967 8.39116e-18
6919.68246 8.29074e-18
6921.14524 8.27846e-18
6922.61803 8.43208e-18
6924.09082 8.70601e-18
6925.56362 8.60860e-18
6927.02639 8.46771e-18
6928.49918 8.53432e-18
6929.97198 8.87389e-18
6931.44477 9.01373e-18
6932.90754 9.00131e-18
6934.38034 8.99984e-18
6935.85313 9.14990e-18
6937.31590 9.15542e-18
6938.78870 9.23594e-18
6940.26149 9.40148e-18
6941.73428 9.36906e-18
6943.19706 9.34604e-18
6944.66985 9.45330e-18
6946.14264 9.33528e-18
6947.60542 9.19047e-18
6949.07821 9.31327e-18
6950.55100 9.27886e-18
6952.02380 9.25667e-18
6953.48657 9.23514e-18
6954.95936 9.05282e-18
6956.43216 9.05268e-18
6957.90495 8.98173e-18
6959.36772 8.94872e-18
6960.84052 8.94628e-18
6962.31331 9.00261e-18
6963.77608 9.01739e-18
6965.24888 9.25628e-18
6966.72167 9.30958e-18
6968.19446 9.40997e-18
6969.65724 9.26010e-18
6971.13003 9.39130e-18
6972.60282 9.49393e-18
6974.06560 9.36078e-18
6975.53839 9.55788e-18
6977.01118 9.43956e-18
6978.48398 9.22929e-18
6979.94675 9.15568e-18
6981.41954 8.93561e-18
6982.89233 9.13715e-18
6984.36513 9.14000e-18
6985.82790 8.99491e-18
6987.30069 8.81732e-18
6988.77349 9.03545e-18
6990.23626 8.88437e-18
6991.70906 8.74634e-18
6993.18185 8.83151e-18
6994.65464 9.13125e-18
6996.11742 9.10386e-18
6997.59021 8.97506e-18
6999.06300 8.87339e-18
7000.52578 8.85059e-18
7001.99857 9.06245e-18
7003.47136 9.26810e-18
7004.94415 9.14891e-18
7006.40693 9.19331e-18
7007.87972 9.28189e-18
7009.35251 9.32699e-18
7010.81529 9.29831e-18
7012.28808 9.26963e-18
7013.76087 9.24095e-18
7015.23367 9.21226e-18
7016.69644 9.18358e-18
7018.16923 9.15491e-18
7019.64203 9.15479e-18
7021.11482 9.10746e-18
7022.57759 9.13211e-18
7024.05039 8.97433e-18
7025.52318 8.70467e-18
7026.98595 8.77832e-18
7028.45875 8.80812e-18
7029.93154 8.85531e-18
7031.40433 8.86783e-18
7032.86711 8.90328e-18
7034.33990 9.00778e-18
7035.81269 9.10867e-18
7037.27547 9.26666e-18
7038.74826 9.28828e-18
7040.22105 9.15806e-18
7041.69385 9.24419e-18
7043.15662 9.25335e-18
7044.62941 9.13056e-18
7046.10221 9.05463e-18
7047.57500 8.96167e-18
7049.03777 8.99549e-18
7050.51057 8.69814e-18
7051.98336 8.69233e-18
7053.44613 8.72258e-18
7054.91893 8.61340e-18
7056.39172 8.62672e-18
7057.86451 8.66001e-18
7059.32729 8.67747e-18
7060.80008 8.68130e-18
7062.27287 8.66341e-18
7063.73565 8.68705e-18
7065.20844 8.87334e-18
7066.68123 9.01759e-18
7068.15402 9.09649e-18
7069.61680 8.87408e-18
7071.08959 8.95412e-18
7072.56239 9.02162e-18
7074.02516 8.83984e-18
7075.49795 8.55683e-18
7076.97075 8.50189e-18
7078.44354 8.61897e-18
7079.90631 8.48727e-18
7081.37910 8.31479e-18
7082.85190 8.28535e-18
7084.32469 8.31439e-18
7085.78747 8.37434e-18
7087.26026 8.24369e-18
7088.73305 8.16534e-18
7090.19582 8.12058e-18
7091.66862 8.10092e-18
7093.14141 8.30046e-18
7094.61420 8.45604e-18
7096.07698 8.40664e-18
7097.54977 8.45235e-18
7099.02256 8.51587e-18
7100.49536 8.43598e-18
7101.95813 8.23759e-18
7103.43092 8.29492e-18
7104.90372 8.38898e-18
7106.36649 8.36779e-18
7107.83928 8.52751e-18
7109.31208 8.60184e-18
7110.78487 8.35705e-18
7112.24764 8.37902e-18
7113.72044 8.43269e-18
7115.19323 8.18719e-18
7116.65600 7.96686e-18
7118.12880 7.89073e-18
7119.60159 7.93906e-18
7121.07438 7.93266e-18
7122.53716 7.91059e-18
7124.00995 8.00564e-18
7125.48274 7.95079e-18
7126.95554 7.81141e-18
7128.41831 8.00629e-18
7129.89110 8.16637e-18
7131.36390 8.09892e-18
7132.82667 8.12248e-18
7134.29946 8.27502e-18
7135.77226 8.42427e-18
7137.24505 8.49772e-18
7138.70782 8.50906e-18
7140.18062 8.43776e-18
7141.65341 8.28726e-18
7143.11618 8.24537e-18
7144.58898 8.32929e-18
7146.06177 8.29922e-18
7147.53456 8.17123e-18
7148.99734 8.05617e-18
7150.47013 7.89702e-18
7151.94292 7.87643e-18
7153.40570 8.06837e-18
7154.87849 8.12192e-18
7156.35128 8.05967e-18
7157.82408 8.00316e-18
7159.28685 8.02861e-18
7160.75964 8.19110e-18
7162.23243 8.25623e-18
7163.70523 8.13487e-18
7165.16800 8.22210e-18
7166.64080 8.19500e-18
7168.11359 8.23975e-18
7169.57636 8.49022e-18
7171.04915 8.44071e-18
7172.52195 8.46334e-18
7173.99474 8.19879e-18
7175.45752 8.09031e-18
7176.93031 8.11638e-18
7178.40310 7.92879e-18
7179.86588 7.89378e-18
7181.33867 8.26415e-18
7182.81146 8.07493e-18
7184.28425 7.72974e-18
7185.74703 7.62917e-18
7187.21982 7.68096e-18
7188.69261 7.81608e-18
7190.15539 7.83042e-18
7191.62818 7.70575e-18
7193.10097 7.77190e-18
7194.57377 7.79944e-18
7196.03654 7.85683e-18
7197.50933 8.06709e-18
7198.98213 8.11178e-18
7200.45492 8.18685e-18
7201.91769 8.07693e-18
7203.39049 8.13192e-18
7204.86328 8.29173e-18
7206.32605 8.13178e-18
7207.79885 8.15424e-18
7209.27164 8.40003e-18
7210.74443 8.51365e-18
7212.20721 8.35522e-18
7213.68000 8.20562e-18
7215.15279 8.07141e-18
7216.62559 8.24182e-18
7218.08836 8.22509e-18
7219.56115 7.91544e-18
7221.03395 7.87280e-18
7222.49672 7.82447e-18
7223.96951 7.66217e-18
7225.44231 7.76372e-18
7226.91510 7.71354e-18
7228.37787 7.79690e-18
7229.85067 7.76713e-18
7231.32346 7.74820e-18
7232.78623 7.70722e-18
7234.25903 7.78974e-18
7235.73182 7.99245e-18
7237.20461 8.04508e-18
7238.66739 8.14684e-18
7240.14018 7.93726e-18
7241.61297 8.06094e-18
7243.07575 7.96220e-18
7244.54854 7.87400e-18
7246.02133 8.03920e-18
7247.49413 8.04030e-18
7248.95690 7.87945e-18
7250.42969 7.77617e-18
7251.90248 7.44478e-18
7253.37528 7.43086e-18
7254.83805 7.50036e-18
7256.31084 7.52388e-18
7257.78364 7.46848e-18
7259.24641 7.67277e-18
7260.71921 7.68155e-18
7262.19200 7.76451e-18
7263.66479 7.75406e-18
7265.12757 7.69467e-18
7266.60036 7.76309e-18
7268.07315 7.80438e-18
7269.53593 7.94545e-18
7271.00872 7.83546e-18
7272.48151 8.04570e-18
7273.95430 8.04167e-18
7275.41708 7.94894e-18
7276.88987 8.22424e-18
7278.36266 8.13114e-18
7279.82544 7.97553e-18
7281.29823 8.08266e-18
7282.77102 8.05856e-18
7284.24382 7.94632e-18
7285.70659 7.64777e-18
7287.17938 7.64937e-18
7288.65218 7.57250e-18
7290.12497 7.28048e-18
7291.58774 7.42918e-18
7293.06054 7.50374e-18
7294.53333 7.49108e-18
7295.99610 7.29300e-18
7297.46890 7.25182e-18
7298.94169 7.29867e-18
7300.41448 7.19892e-18
7301.87726 7.21964e-18
7303.35005 7.28556e-18
7304.82284 7.30456e-18
7306.28562 7.27946e-18
7307.75841 7.27610e-18
7309.23120 7.50432e-18
7310.70400 7.56624e-18
7312.16677 7.55469e-18
7313.63956 7.48639e-18
7315.11236 7.70315e-18
7316.58515 7.87340e-18
7318.04792 7.70464e-18
7319.52072 7.53117e-18
7320.99351 7.65920e-18
7322.45628 7.78046e-18
7323.92908 7.81366e-18
7325.40187 7.89799e-18
7326.87466 7.75366e-18
7328.33744 7.57077e-18
7329.81023 7.52903e-18
7331.28302 7.39515e-18
7332.74580 7.52158e-18
7334.21859 7.54874e-18
7335.69138 7.45113e-18
7337.16417 7.13454e-18
7338.62695 7.17816e-18
7340.09974 7.19852e-18
7341.57253 7.23775e-18
7343.04533 7.20155e-18
7344.50810 7.04798e-18
7345.98090 6.87593e-18
7347.45369 7.05317e-18
7348.91646 7.18259e-18
7350.38926 7.25232e-18
7351.86205 7.43090e-18
7353.33484 7.47750e-18
7354.79762 7.39927e-18
7356.27041 7.42833e-18
7357.74320 7.75481e-18
7359.20597 7.93037e-18
7360.67877 7.70968e-18
7362.15156 7.74039e-18
7363.62435 7.67342e-18
7365.08713 7.75563e-18
7366.55992 7.54673e-18
7368.03271 7.47997e-18
7369.49549 7.48361e-18
7370.96828 7.34166e-18
7372.44107 7.20224e-18
7373.91387 7.03638e-18
7375.37664 7.00043e-18
7376.84943 6.84966e-18
7378.32223 6.87329e-18
7379.79502 7.04303e-18
7381.25779 7.03805e-18
7382.73059 7.10277e-18
7384.20338 7.20857e-18
7385.66615 7.48331e-18
7387.13895 7.53092e-18
7388.61174 7.51613e-18
7390.08453 7.58822e-18
7391.54731 7.59318e-18
7393.02010 7.42019e-18
7394.49289 7.21806e-18
7395.95567 7.20632e-18
7397.42846 7.15119e-18
7398.90125 6.85777e-18
7400.37405 6.73585e-18
7401.83682 6.76942e-18
7403.30961 6.84669e-18
7404.78241 6.95849e-18
7406.25520 6.95204e-18
7407.71797 7.12347e-18
7409.19077 7.07538e-18
7410.66356 6.87519e-18
7412.12633 6.85043e-18
7413.59913 6.73051e-18
7415.07192 6.78532e-18
7415.99734 6.78532e-18
7418.00034 6.79953e-18
7420.00334 6.80964e-18
7421.99632 6.77023e-18
7423.99932 6.69626e-18
7426.00232 6.67005e-18
7427.99531 6.74093e-18
7429.99831 6.71097e-18
7432.00131 6.87052e-18
7434.00431 6.86300e-18
7435.99729 6.99793e-18
7438.00029 6.85392e-18
7440.00329 6.76837e-18
7441.99628 6.72728e-18
7443.99928 6.67486e-18
7446.00228 6.79557e-18
7447.99526 6.83310e-18
7449.99826 6.76452e-18
7452.00126 6.80590e-18
7454.00426 6.76757e-18
7455.99725 6.66275e-18
7458.00025 6.80383e-18
7460.00325 6.89997e-18
7461.99623 6.82753e-18
7463.99923 6.78548e-18
7466.00223 6.82512e-18
7467.99522 6.92656e-18
7469.99822 6.80657e-18
7472.00122 6.81526e-18
7474.00422 6.71480e-18
7475.99720 6.71102e-18
7478.00020 6.78337e-18
7480.00320 6.73137e-18
7481.99618 6.86799e-18
7483.99919 6.69270e-18
7486.00219 6.85083e-18
7487.99517 6.72750e-18
7489.99817 6.77877e-18
7492.00117 6.76755e-18
7494.00417 6.81083e-18
7495.99716 6.81967e-18
7498.00016 6.90156e-18
7500.00316 6.77553e-18
7501.99614 6.77631e-18
7503.99914 6.73278e-18
7506.00214 6.85351e-18
7507.99513 6.84245e-18
7509.99813 6.75241e-18
7512.00113 6.78849e-18
7514.00413 6.79242e-18
7515.99711 6.74166e-18
7518.00011 6.70293e-18
7520.00311 6.91070e-18
7521.99610 6.85067e-18
7523.99910 6.85568e-18
7526.00209 6.90959e-18
7527.99508 6.85979e-18
7529.99808 6.61785e-18
7532.00108 6.77692e-18
7534.00408 6.70740e-18
7535.99707 6.69894e-18
7538.00007 6.71308e-18
7540.00307 6.78317e-18
7541.99605 6.75515e-18
7543.99905 6.61581e-18
7546.00205 6.78000e-18
7547.99503 6.70888e-18
7549.99803 6.63241e-18
7552.00104 6.64867e-18
7554.00403 6.73981e-18
7555.99702 6.71942e-18
7558.00002 6.61821e-18
7560.00302 6.63946e-18
7561.99601 6.65728e-18
7563.99901 6.57290e-18
7566.00201 6.63217e-18
7568.00501 6.75518e-18
7569.99799 6.78604e-18
7572.00099 6.58872e-18
7574.00399 6.57756e-18
7575.99698 6.68414e-18
7577.99997 6.51225e-18
7580.00298 6.61646e-18
7581.99596 6.78711e-18
7583.99896 6.67291e-18
7586.00196 6.67538e-18
7587.99495 6.75951e-18
7589.99795 6.81114e-18
7592.00095 6.68175e-18
7594.00395 6.67103e-18
7595.99693 6.88121e-18
7597.99993 6.94625e-18
7600.00293 6.82898e-18
7601.99592 6.77337e-18
7603.99892 6.80438e-18
7606.00191 6.55679e-18
7607.99490 6.47153e-18
7609.99790 6.58154e-18
7612.00090 6.56101e-18
7614.00390 6.31021e-18
7615.99689 6.63255e-18
7617.99989 6.63404e-18
7620.00289 6.54549e-18
7621.99587 6.66255e-18
7623.99887 6.74625e-18
7626.00187 6.58594e-18
7628.00487 6.64510e-18
7629.99786 6.63525e-18
7632.00086 6.74981e-18
7634.00385 6.55825e-18
7635.99684 6.54957e-18
7637.99984 6.44195e-18
7640.00284 6.66439e-18
7641.99583 6.52135e-18
7643.99883 6.66191e-18
7646.00183 6.55296e-18
7647.99481 6.34449e-18
7649.99781 6.66879e-18
7652.00081 6.46045e-18
7654.00381 6.55932e-18
7655.99680 6.66201e-18
7657.99980 6.34724e-18
7660.00280 6.58680e-18
7661.99578 6.65276e-18
7663.99878 6.33850e-18
7666.00178 6.51901e-18
7668.00478 6.56372e-18
7669.99777 6.46983e-18
7672.00077 6.65276e-18
7674.00377 6.40971e-18
7675.99675 6.43884e-18
7677.99975 6.59505e-18
7680.00275 6.39417e-18
7681.99574 6.54504e-18
7683.99874 6.57437e-18
7686.00173 6.46090e-18
7688.00474 6.51249e-18
7689.99772 6.50883e-18
7692.00072 6.46097e-18
7694.00372 6.49335e-18
7695.99671 6.48644e-18
7697.99971 6.51387e-18
7700.00271 6.30742e-18
7701.99569 6.43383e-18
7703.99869 6.40948e-18
7706.00169 6.36825e-18
7708.00469 6.52376e-18
7709.99768 6.53527e-18
7712.00068 6.59060e-18
7714.00367 6.41021e-18
7715.99666 6.42502e-18
7717.99966 6.34790e-18
7720.00266 6.48313e-18
7721.99565 6.52367e-18
7723.99865 6.47105e-18
7726.00165 6.55027e-18
7728.00465 6.33615e-18
7729.99763 6.34683e-18
7732.00063 6.43456e-18
7734.00363 6.40583e-18
7735.99662 6.36545e-18
7737.99962 6.44571e-18
7740.00262 6.52702e-18
7741.99560 6.33582e-18
7743.99860 6.33767e-18
7746.00160 6.41162e-18
7748.00460 6.49003e-18
7749.99759 6.34005e-18
7752.00059 6.49644e-18
7754.00359 6.40369e-18
7755.99657 6.29560e-18
7757.99957 6.36969e-18
7760.00257 6.38563e-18
7761.99556 6.42921e-18
7763.99856 6.39350e-18
7766.00156 6.40536e-18
7768.00456 6.21983e-18
7769.99754 6.18013e-18
7772.00054 6.44019e-18
7774.00354 6.37876e-18
7775.99653 6.21472e-18
7777.99953 6.39637e-18
7780.00253 6.44844e-18
7781.99551 6.44416e-18
7783.99851 6.14658e-18
7786.00151 6.31346e-18
7788.00451 6.30559e-18
7789.99750 6.32332e-18
7792.00050 6.35748e-18
7794.00349 6.26836e-18
7795.99648 6.28042e-18
7797.99948 6.35404e-18
7800.00248 6.23850e-18
7801.99547 6.23380e-18
7803.99847 6.17691e-18
7806.00147 6.19425e-18
7808.00447 6.22136e-18
7809.99745 6.10993e-18
7812.00045 6.38951e-18
7814.00345 6.23511e-18
7815.99644 6.25835e-18
7817.99944 6.19822e-18
7820.00244 6.20905e-18
7821.99542 6.23155e-18
7823.99842 6.13031e-18
7826.00142 6.16149e-18
7828.00442 6.21736e-18
7829.99741 6.16342e-18
7832.00041 6.15537e-18
7834.00341 6.13597e-18
7835.99639 6.19206e-18
7837.99939 6.13226e-18
7840.00239 6.11944e-18
7841.99538 6.06238e-18
7843.99838 6.12015e-18
7846.00138 6.15249e-18
7848.00438 6.06354e-18
7849.99736 6.20252e-18
7852.00036 6.15752e-18
7854.00336 6.02684e-18
7855.99634 6.09953e-18
7857.99935 6.31459e-18
7860.00234 6.18533e-18
7861.99533 6.22595e-18
7863.99833 6.18685e-18
7866.00133 6.27256e-18
7868.00433 6.10117e-18
7869.99732 6.08753e-18
7872.00032 6.09485e-18
7874.00332 6.09657e-18
7875.99630 6.09020e-18
7877.99930 6.12786e-18
7880.00230 6.13626e-18
7881.99528 6.30003e-18
7883.99828 6.19599e-18
7886.00129 6.18294e-18
7888.00428 6.25916e-18
7889.99727 6.09599e-18
7892.00027 6.01597e-18
7894.00327 6.14724e-18
7895.99626 6.08100e-18
7897.99926 6.15857e-18
7900.00226 6.10016e-18
7901.99524 6.10791e-18
7903.99824 6.11276e-18
7906.00124 6.12698e-18
7908.00424 6.23822e-18
7909.99723 5.99689e-18
7912.00022 6.12254e-18
7914.00323 6.09247e-18
7915.99621 6.11783e-18
7917.99921 6.04274e-18
7920.00221 6.14936e-18
7921.99520 6.04682e-18
7923.99820 6.20038e-18
7926.00120 6.06731e-18
7928.00420 6.05836e-18
7929.99718 6.11676e-18
7932.00018 6.06482e-18
7934.00318 6.10232e-18
7935.99617 6.01036e-18
7937.99917 6.14552e-18
7940.00216 6.04525e-18
7941.99515 6.01323e-18
7943.99815 6.03620e-18
7946.00115 6.01567e-18
7948.00415 6.04477e-18
7949.99714 6.05672e-18
7952.00014 6.14969e-18
7954.00314 5.96046e-18
7955.99612 6.00177e-18
7957.99912 6.06811e-18
7960.00212 5.93390e-18
7961.99510 6.04973e-18
7963.99811 6.09804e-18
7966.00111 6.01044e-18
7968.00410 5.90405e-18
7969.99709 5.82669e-18
7972.00009 6.04334e-18
7974.00309 6.01278e-18
7975.99608 5.94359e-18
7977.99908 5.95933e-18
7980.00208 6.06350e-18
7981.99506 6.05692e-18
7983.99806 6.00599e-18
7986.00106 6.13079e-18
7988.00406 6.09299e-18
7989.99705 6.16398e-18
7992.00004 6.23004e-18
7994.00305 5.84778e-18
7995.99603 5.89551e-18
7997.99903 5.81468e-18
8000.00203 5.82098e-18
8002.00503 5.91603e-18
8003.99802 5.77345e-18
8006.00102 5.76271e-18
8008.00402 5.85787e-18
8009.99700 5.82671e-18
8012.00000 5.76350e-18
8014.00300 5.71351e-18
8015.99599 5.72784e-18
8017.99899 5.82669e-18
8020.00198 5.80233e-18
8021.99497 5.71954e-18
8023.99797 5.78477e-18
8026.00097 5.83571e-18
8028.00397 5.88416e-18
8029.99696 5.80331e-18
8031.99996 5.72419e-18
8034.00296 5.71825e-18
8035.99594 5.81411e-18
8037.99894 5.70511e-18
8040.00194 5.67791e-18
8042.00494 5.64705e-18
8043.99793 5.55159e-18
8046.00093 5.53361e-18
8048.00392 5.56139e-18
8049.99691 5.57042e-18
8051.99991 5.58279e-18
8054.00291 5.57498e-18
8055.99590 5.51544e-18
8057.99890 5.49952e-18
8060.00190 5.53580e-18
8061.99488 5.58185e-18
8063.99788 5.49886e-18
8066.00088 5.55726e-18
8068.00388 5.59459e-18
8069.99687 5.54633e-18
8071.99987 5.47285e-18
8074.00287 5.46536e-18
8075.99585 5.38799e-18
8077.99885 5.48376e-18
8080.00185 5.38618e-18
8082.00485 5.54358e-18
8083.99784 5.44928e-18
8086.00084 5.40668e-18
8088.00384 5.40706e-18
8089.99682 5.26185e-18
8091.99982 5.46049e-18
8094.00282 5.36706e-18
8095.99581 5.28629e-18
8097.99881 5.31106e-18
8100.00181 5.41791e-18
8102.00481 5.32908e-18
8103.99779 5.24506e-18
8106.00079 5.42188e-18
8108.00379 5.35745e-18
8109.99678 5.30981e-18
8111.99978 5.28508e-18
8114.00278 5.44868e-18
8115.99576 5.28665e-18
8117.99876 5.32069e-18
8120.00176 5.18805e-18
8121.99474 5.22920e-18
8123.99775 5.28690e-18
8126.00075 5.25801e-18
8128.00374 5.25251e-18
8129.99673 5.21738e-18
8131.99973 5.24460e-18
8134.00273 5.47777e-18
8135.99572 5.35361e-18
8137.99872 5.26133e-18
8140.00172 5.42308e-18
8142.00472 5.26478e-18
8143.99770 5.29522e-18
8146.00070 5.24570e-18
8148.00370 5.24659e-18
8149.99669 5.29159e-18
8151.99969 5.16200e-18
8154.00269 5.10899e-18
8155.99567 5.21824e-18
8157.99867 5.38197e-18
8160.00167 5.13553e-18
8162.00467 5.14728e-18
8163.99766 5.26091e-18
8166.00066 5.19495e-18
8168.00366 5.24052e-18
8169.99664 5.19281e-18
8171.99964 5.30386e-18
8174.00264 5.36980e-18
8175.99563 5.16226e-18
8177.99863 5.18404e-18
8180.00163 5.20506e-18
8182.00463 5.14075e-18
8183.99761 5.15090e-18
8186.00061 5.16471e-18
8188.00361 5.18350e-18
8189.99659 5.25320e-18
8191.99960 5.32415e-18
8194.00259 5.21446e-18
8195.99558 5.17132e-18
8197.99858 5.22422e-18
8200.00158 5.24606e-18
8202.00458 5.14140e-18
8203.99756 5.12005e-18
8206.00057 5.18718e-18
8208.00356 5.14230e-18
8209.99655 5.12413e-18
8211.99955 5.18161e-18
8214.00255 5.25118e-18
8215.99554 5.12962e-18
8217.99854 5.19646e-18
8220.00154 5.13515e-18
8222.00454 5.19471e-18
8223.99752 5.20887e-18
8226.00052 5.14005e-18
8228.00352 5.31069e-18
8229.99651 5.29945e-18
8231.99950 5.16373e-18
8234.00251 5.19195e-18
8235.99549 5.12575e-18
8237.99849 5.14111e-18
8240.00149 5.22740e-18
8242.00449 5.14667e-18
8243.99748 5.13917e-18
8246.00048 5.14555e-18
8248.00347 5.18274e-18
8249.99646 5.23226e-18
8251.99946 5.25993e-18
8254.00246 5.25868e-18
8255.99545 5.23606e-18
8257.99844 5.20237e-18
8260.00144 5.23335e-18
8261.99443 5.20318e-18
8263.99743 5.22433e-18
8266.00043 5.25296e-18
8268.00343 5.26252e-18
8269.99642 5.26092e-18
8271.99942 5.38755e-18
8274.00242 5.19624e-18
8275.99540 5.33676e-18
8277.99840 5.33151e-18
8280.00140 5.26337e-18
8282.00440 5.36635e-18
8283.99739 5.45395e-18
8286.00039 5.24080e-18
8288.00338 5.16941e-18
8289.99637 5.29265e-18
8291.99937 5.27479e-18
8294.00237 5.35126e-18
8295.99536 5.36792e-18
8297.99835 5.28368e-18
8300.00136 5.44306e-18
8302.00436 5.44582e-18
8303.99734 5.28107e-18
8306.00034 5.41435e-18
8308.00334 5.42048e-18
8309.99633 5.35206e-18
8311.99932 5.40389e-18
8314.00232 5.42377e-18
8315.99531 5.42198e-18
8317.99831 5.38141e-18
8320.00131 5.45233e-18
8322.00431 5.56150e-18
8323.99730 5.42076e-18
8326.00030 5.45224e-18
8328.00330 5.48380e-18
8329.99628 5.54618e-18
8331.99928 5.41314e-18
8334.00228 5.40743e-18
8335.99527 5.48304e-18
8337.99827 5.43463e-18
8340.00127 5.54257e-18
8342.00427 5.54288e-18
8343.99725 5.63105e-18
8346.00025 5.65906e-18
8348.00325 5.42957e-18
8349.99624 5.61810e-18
8351.99924 5.53563e-18
8354.00223 5.64172e-18
8355.99522 5.59212e-18
8357.99822 5.61729e-18
8360.00122 5.55102e-18
8362.00422 5.52113e-18
8363.99720 5.52946e-18
8366.00021 5.67069e-18
8368.00320 5.66021e-18
8369.99619 5.65162e-18
8371.99919 5.54714e-18
8374.00219 5.61715e-18
8376.00519 5.60307e-18
8377.99818 5.50961e-18
8380.00118 5.68983e-18
8382.00418 5.64634e-18
8383.99716 5.66123e-18
8386.00016 5.64745e-18
8388.00316 5.65073e-18
8389.99615 5.61276e-18
8391.99915 5.59763e-18
8394.00215 5.60581e-18
8395.99513 5.76439e-18
8397.99813 5.68448e-18
8400.00113 5.67106e-18
8402.00413 5.80313e-18
8403.99712 5.67124e-18
8406.00012 5.70338e-18
8408.00311 5.59022e-18
8409.99610 5.61899e-18
8411.99910 5.70510e-18
8414.00210 5.68691e-18
8415.99509 5.77952e-18
8417.99808 5.73621e-18
8420.00108 5.65212e-18
8422.00409 5.74697e-18
8423.99707 5.78139e-18
8426.00007 5.86465e-18
8428.00307 5.61666e-18
8429.99606 5.64255e-18
8431.99906 5.69844e-18
8434.00206 5.63719e-18
8436.00506 5.81444e-18
8437.99804 5.72506e-18
8440.00104 5.75760e-18
8442.00404 5.71775e-18
8443.99703 5.77774e-18
8446.00003 5.68356e-18
8448.00302 5.77040e-18
8449.99601 5.72366e-18
8451.99901 5.78923e-18
8454.00201 5.78309e-18
8455.99500 5.73477e-18
8457.99799 5.65327e-18
8460.00100 5.74603e-18
8462.00400 5.87861e-18
8463.99698 5.67527e-18
8465.99998 5.68356e-18
8468.00298 5.83578e-18
8469.99597 5.65628e-18
8471.99897 5.64787e-18
8474.00196 5.67603e-18
8475.99495 5.66937e-18
8477.99795 5.71790e-18
8480.00095 5.73773e-18
8482.00395 5.77398e-18
8483.99694 5.81224e-18
8485.99994 5.64999e-18
8488.00294 5.67532e-18
8489.99592 5.75034e-18
8491.99892 5.73600e-18
8494.00192 5.76846e-18
8496.00492 5.82902e-18
8497.99791 5.70122e-18
8500.00091 5.81708e-18
8502.00391 5.75357e-18
8503.99689 5.66478e-18
8505.99989 5.66663e-18
8508.00289 5.71039e-18
8509.99588 5.67433e-18
8511.99888 5.80761e-18
8514.00187 5.76683e-18
8516.00488 5.77736e-18
8517.99786 5.70144e-18
8520.00086 5.73621e-18
8522.00386 5.68913e-18
8523.99684 5.71832e-18
8525.99985 5.82040e-18
8528.00285 5.71344e-18
8529.99583 5.72846e-18
8531.99883 5.74956e-18
8534.00183 5.69679e-18
8535.99482 5.73481e-18
8537.99781 5.83703e-18
8540.00081 5.74541e-18
8542.00382 5.59273e-18
8543.99680 5.75098e-18
8545.99980 5.64382e-18
8548.00280 5.80722e-18
8549.99579 5.69897e-18
8551.99879 5.68381e-18
8554.00179 5.67758e-18
8556.00479 5.62782e-18
8557.99777 5.64609e-18
8560.00077 5.67716e-18
8562.00377 5.78679e-18
8563.99676 5.68069e-18
8565.99976 5.70441e-18
8568.00276 5.65543e-18
8569.99574 5.63466e-18
8571.99874 5.60504e-18
8574.00174 5.61281e-18
8576.00474 5.74544e-18
8577.99772 5.57952e-18
8580.00072 5.61032e-18
8582.00373 5.64328e-18
8583.99671 5.53959e-18
8585.99971 5.65950e-18
8588.00271 5.60153e-18
8589.99569 5.64397e-18
8591.99870 5.67750e-18
8594.00169 5.50482e-18
8595.99468 5.62724e-18
8597.99768 5.63270e-18
8600.00068 5.55343e-18
8602.00368 5.56295e-18
8603.99667 5.52015e-18
8605.99967 5.44808e-18
8608.00267 5.52415e-18
8609.99565 5.58101e-18
8611.99865 5.59541e-18
8614.00165 5.58652e-18
8616.00465 5.53043e-18
8617.99764 5.58318e-18
8620.00064 5.54337e-18
8622.00364 5.48975e-18
8623.99662 5.51157e-18
8625.99962 5.54645e-18
8628.00262 5.45588e-18
8629.99561 5.55649e-18
8631.99861 5.47254e-18
8634.00160 5.44534e-18
8636.00461 5.50848e-18
8637.99759 5.55978e-18
8640.00059 5.44921e-18
8642.00359 5.53124e-18
8643.99657 5.53304e-18
8645.99957 5.54472e-18
8648.00258 5.39003e-18
8649.99556 5.36005e-18
8651.99856 5.54179e-18
8654.00156 5.47588e-18
8656.00456 5.42662e-18
8657.99755 5.56808e-18
8660.00055 5.41289e-18
8662.00355 5.47300e-18
8663.99653 5.38244e-18
8665.99953 5.52594e-18
8668.00253 5.39144e-18
8669.99552 5.34309e-18
8671.99852 5.48278e-18
8674.00151 5.47597e-18
8676.00452 5.34539e-18
8677.99750 5.35372e-18
8680.00050 5.42405e-18
8682.00350 5.43061e-18
8683.99648 5.41970e-18
8685.99949 5.45518e-18
8688.00249 5.34263e-18
8689.99547 5.37734e-18
8691.99847 5.32548e-18
8694.00147 5.40419e-18
8696.00447 5.47744e-18
8697.99746 5.45735e-18
8700.00045 5.34442e-18
8702.00346 5.28304e-18
8703.99644 5.36733e-18
8705.99944 5.34701e-18
8708.00244 5.20583e-18
8709.99543 5.30418e-18
8711.99843 5.32626e-18
8714.00143 5.28249e-18
8716.00443 5.38799e-18
8717.99741 5.41380e-18
8720.00041 5.31262e-18
8722.00341 5.34802e-18
8723.99640 5.40183e-18
8725.99940 5.45472e-18
8728.00240 5.25839e-18
8729.99538 5.24529e-18
8731.99838 5.21023e-18
8734.00138 5.21612e-18
8736.00438 5.27032e-18
8737.99737 5.17028e-18
8740.00036 5.26470e-18
8742.00337 5.29392e-18
8743.99635 5.24148e-18
8745.99935 5.24846e-18
8748.00235 5.20564e-18
8749.99533 5.30307e-18
8751.99834 5.30394e-18
8754.00133 5.23515e-18
8756.00433 5.12849e-18
8757.99732 5.09205e-18
8760.00032 5.20641e-18
8762.00332 5.19008e-18
8763.99631 5.18409e-18
8765.99931 5.10980e-18
8768.00231 5.17871e-18
8769.99529 5.13109e-18
8771.99829 5.22000e-18
8774.00129 5.17210e-18
8776.00429 5.06146e-18
8777.99728 5.06111e-18
8780.00028 5.21936e-18
8782.00328 5.04946e-18
8783.99626 5.01234e-18
8785.99926 5.11826e-18
8788.00226 5.02727e-18
8789.99525 4.91410e-18
8791.99825 5.08329e-18
8794.00125 5.01906e-18
8796.00425 5.05366e-18
8797.99723 5.03128e-18
8800.00023 4.96103e-18
8802.00323 5.00035e-18
8803.99621 5.04479e-18
8805.99921 5.18633e-18
8808.00222 5.03800e-18
8809.99520 5.03828e-18
8811.99820 4.97664e-18
8814.00120 5.01017e-18
8816.00420 4.99655e-18
8817.99719 5.11081e-18
8820.00019 5.05341e-18
8822.00319 4.98446e-18
8823.99617 5.04971e-18
8825.99917 5.04633e-18
8828.00217 4.98073e-18
8829.99516 5.01848e-18
8831.99816 4.95856e-18
8834.00116 5.03342e-18
8836.00416 5.01831e-18
8837.99714 4.95403e-18
8840.00014 4.90352e-18
8842.00314 4.90923e-18
8843.99612 5.00896e-18
8845.99913 4.97040e-18
8848.00213 5.04834e-18
8850.00512 4.95581e-18
8851.99811 4.98045e-18
8854.00111 5.02299e-18
8856.00411 5.07385e-18
8857.99710 5.07525e-18
8860.00009 5.15718e-18
8862.00310 5.15348e-18
8863.99608 5.28946e-18
8865.99908 5.18098e-18
8868.00208 5.12906e-18
8869.99506 5.07887e-18
8871.99806 5.06982e-18
8874.00107 5.06674e-18
8876.00406 4.98549e-18
8877.99705 4.98766e-18
8880.00005 4.94697e-18
8882.00305 4.92844e-18
8883.99604 4.95158e-18
8885.99904 4.95683e-18
8888.00204 4.92859e-18
8889.99502 4.87303e-18
8891.99802 4.80370e-18
8894.00102 4.92971e-18
8896.00402 4.93327e-18
8897.99701 4.88757e-18
8900.00000 4.93989e-18
8902.00301 4.81122e-18
8903.99599 4.91093e-18
8905.99899 4.81118e-18
8908.00199 4.85697e-18
8910.00499 4.90200e-18
8911.99798 4.89696e-18
8914.00098 4.84496e-18
8916.00397 4.95460e-18
8917.99696 5.04662e-18
8919.99996 4.82753e-18
8922.00296 4.81783e-18
8923.99595 4.82610e-18
8925.99894 4.83262e-18
8928.00194 4.89167e-18
8929.99493 4.85971e-18
8931.99793 4.79435e-18
8934.00093 4.75989e-18
8936.00393 4.75887e-18
8937.99692 4.72187e-18
8939.99992 4.76465e-18
8942.00292 4.70104e-18
8943.99590 4.82948e-18
8945.99890 4.82203e-18
8948.00190 4.72190e-18
8949.99489 4.69516e-18
8951.99789 4.67693e-18
8954.00089 4.77994e-18
8956.00389 4.81258e-18
8957.99687 4.77794e-18
8959.99987 4.68472e-18
8962.00287 4.70416e-18
8963.99586 4.76569e-18
8965.99885 4.82195e-18
8968.00186 4.70420e-18
8970.00486 4.76484e-18
8971.99784 4.81731e-18
8974.00084 4.82766e-18
8976.00384 4.80288e-18
8977.99683 4.66527e-18
8979.99982 4.76427e-18
8982.00282 4.92837e-18
8983.99581 4.71784e-18
8985.99881 4.68179e-18
8988.00181 4.96517e-18
8990.00481 4.67468e-18
8991.99780 4.86134e-18
8994.00080 4.74405e-18
8996.00380 4.78011e-18
8997.99678 4.70599e-18
8999.99978 4.72684e-18
9002.00278 4.85942e-18
9003.99577 5.00436e-18
9005.99877 4.93555e-18
9008.00177 4.89734e-18
9009.99475 4.86011e-18
9011.99775 5.15047e-18
9014.00075 5.07962e-18
9016.00375 5.08772e-18
9017.99674 5.31332e-18
9019.99973 4.82760e-18
9022.00274 4.83229e-18
9023.99572 4.85753e-18
9025.99872 4.90514e-18
9028.00172 4.71776e-18
9030.00472 4.68892e-18
9031.99770 4.66790e-18
9034.00071 4.75611e-18
9036.00370 4.74021e-18
9037.99669 4.56208e-18
9039.99969 4.54446e-18
9042.00269 4.68012e-18
9043.99568 4.71008e-18
9045.99868 4.55199e-18
9048.00168 4.69369e-18
9050.00468 4.61467e-18
9051.99766 4.58431e-18
9054.00066 4.73088e-18
9056.00366 4.61074e-18
9057.99665 4.60216e-18
9059.99965 4.66235e-18
9062.00265 4.66727e-18
9063.99563 4.80574e-18
9065.99863 4.68008e-18
9068.00163 4.64395e-18
9070.00463 4.57542e-18
9071.99762 4.49696e-18
9074.00062 4.68023e-18
9076.00361 4.72159e-18
9077.99660 4.54926e-18
9079.99960 4.60574e-18
9082.00260 4.67184e-18
9083.99559 4.54845e-18
9085.99858 4.40266e-18
9088.00158 4.60136e-18
9090.00459 4.59786e-18
9091.99757 4.50523e-18
9094.00057 4.58074e-18
9096.00357 4.60143e-18
9097.99656 4.43372e-18
9099.99956 4.56319e-18
9102.00256 4.67824e-18
9103.99554 4.54634e-18
9105.99854 4.56277e-18
9108.00154 4.58115e-18
9110.00454 4.56888e-18
9111.99753 4.54453e-18
9114.00053 4.57553e-18
9116.00353 4.40965e-18
9117.99651 4.52111e-18
9119.99951 4.57157e-18
9122.00251 4.55203e-18
9123.99550 4.55173e-18
9125.99849 4.58303e-18
9128.00150 4.48050e-18
9130.00450 4.55642e-18
9131.99748 4.61428e-18
9134.00048 4.39455e-18
9136.00348 4.68350e-18
9137.99647 4.60409e-18
9139.99947 4.53865e-18
9142.00246 4.49762e-18
9143.99545 4.46789e-18
9145.99845 4.46059e-18
9148.00145 4.57518e-18
9150.00445 4.49166e-18
9151.99744 4.59544e-18
9154.00044 4.51431e-18
9156.00344 4.57598e-18
9157.99642 4.49094e-18
9159.99942 4.42127e-18
9162.00242 4.54307e-18
9163.99541 4.49736e-18
9165.99841 4.49425e-18
9168.00141 4.50924e-18
9170.00441 4.53392e-18
9171.99739 4.46280e-18
9174.00039 4.49402e-18
9176.00339 4.58751e-18
9177.99638 4.48054e-18
9179.99938 4.51624e-18
9182.00238 4.43180e-18
9183.99536 4.47101e-18
9185.99836 4.49334e-18
9188.00136 4.37980e-18
9190.00436 4.46475e-18
9191.99734 4.53804e-18
9194.00035 4.37862e-18
9196.00335 4.46899e-18
9197.99633 4.48908e-18
9199.99933 4.42802e-18
9202.00233 4.46069e-18
9203.99532 4.37606e-18
9205.99831 4.41916e-18
9208.00131 4.56646e-18
9210.00432 4.49856e-18
9211.99730 4.51193e-18
9214.00030 4.56446e-18
9216.00330 4.61296e-18
9217.99629 4.53937e-18
9219.99929 4.64789e-18
9222.00229 4.57139e-18
9223.99527 4.60359e-18
9225.99827 4.84148e-18
9228.00127 4.98249e-18
9230.00427 5.03908e-18
9231.99726 4.86844e-18
9234.00026 4.76808e-18
9236.00326 4.59122e-18
9237.99624 4.57290e-18
9239.99924 4.52018e-18
9242.00224 4.41184e-18
9243.99523 4.40309e-18
9245.99822 4.40263e-18
9248.00122 4.36145e-18
9250.00423 4.33184e-18
9251.99721 4.47932e-18
9254.00021 4.36089e-18
9256.00321 4.34895e-18
9257.99619 4.33479e-18
9259.99920 4.36956e-18
9262.00219 4.39503e-18
9263.99518 4.48100e-18
9265.99818 4.42081e-18
9268.00118 4.34487e-18
9270.00418 4.43292e-18
9271.99717 4.29534e-18
9274.00017 4.43293e-18
9276.00317 4.34417e-18
9277.99615 4.31952e-18
9279.99915 4.48065e-18
9282.00215 4.38144e-18
9283.99514 4.27795e-18
9285.99813 4.42585e-18
9288.00114 4.44425e-18
9290.00414 4.37620e-18
9291.99712 4.34522e-18
9294.00012 4.42334e-18
9296.00312 4.40794e-18
9297.99611 4.35806e-18
9299.99911 4.36967e-18
9302.00210 4.34011e-18
9303.99509 4.44184e-18
9305.99809 4.18979e-18
9308.00109 4.16138e-18
9310.00409 4.68849e-18
9311.99707 4.40560e-18
9314.00007 4.06430e-18
9316.00308 4.33474e-18
9317.99606 4.50069e-18
9319.99906 4.43796e-18
9322.00206 4.17066e-18
9324.00506 4.46569e-18
9325.99805 4.46455e-18
9328.00105 4.40619e-18
9330.00405 4.14970e-18
9331.99703 4.22454e-18
9334.00003 4.42656e-18
9336.00303 4.39562e-18
9337.99602 4.44285e-18
9339.99902 4.41291e-18
9342.00202 3.93912e-18
9343.99500 4.56947e-18
9345.99800 4.70309e-18
9348.00100 4.32583e-18
9350.00400 4.18941e-18
9351.99698 3.96373e-18
9353.99999 4.53126e-18
9356.00299 4.23862e-18
9357.99597 4.36902e-18
9359.99897 4.66515e-18
9362.00197 4.31357e-18
9363.99496 3.99225e-18
9365.99796 4.24646e-18
9368.00095 4.14452e-18
9370.00396 4.17148e-18
9371.99694 4.59459e-18
9373.99994 4.22163e-18
9376.00294 4.21461e-18
9377.99593 4.21512e-18
9379.99893 4.17779e-18
9382.00193 4.50914e-18
9384.00493 4.31431e-18
9385.99791 4.12690e-18
9388.00091 4.35021e-18
9390.00391 4.12796e-18
9391.99690 4.06649e-18
9393.99990 4.22415e-18
9396.00290 4.11640e-18
9397.99588 4.06063e-18
9399.99888 4.17452e-18
9402.00188 4.21283e-18
9404.00488 4.18494e-18
9405.99787 4.15042e-18
9408.00086 4.07903e-18
9410.00387 4.24061e-18
9411.99685 4.35408e-18
9413.99985 4.23027e-18
9416.00285 4.05503e-18
9417.99583 4.22595e-18
9419.99884 4.08371e-18
9422.00183 4.17104e-18
9423.99482 3.90639e-18
9425.99782 3.85890e-18
9428.00082 4.33661e-18
9430.00382 4.54308e-18
9431.99681 4.23417e-18
9433.99981 4.03382e-18
9436.00281 3.93597e-18
9437.99579 4.02237e-18
9439.99879 4.11430e-18
9442.00179 4.37039e-18
9444.00479 4.20519e-18
9445.99778 4.17590e-18
9448.00078 3.99955e-18
9450.00378 4.22924e-18
9451.99676 4.06428e-18
9453.99976 3.89040e-18
9456.00276 4.42058e-18
9457.99575 3.90167e-18
9459.99875 3.87580e-18
9462.00174 4.29723e-18
9464.00475 4.10721e-18
9465.99773 4.02246e-18
9468.00073 3.86731e-18
9470.00373 4.19687e-18
9471.99671 4.01042e-18
9473.99971 3.93589e-18
9476.00272 4.27981e-18
9477.99570 3.97374e-18
9479.99870 3.87857e-18
9482.00170 4.37440e-18
9483.99469 4.20393e-18
9485.99769 3.95202e-18
9488.00069 4.05449e-18
9490.00369 4.04660e-18
9491.99667 3.87124e-18
9493.99967 4.12309e-18
9496.00267 4.14381e-18
9497.99566 3.97009e-18
9499.99866 3.95662e-18
9502.00166 4.38086e-18
9504.00466 4.07711e-18
9505.99764 4.05558e-18
9508.00064 4.03156e-18
9510.00364 4.11799e-18
9511.99662 3.96672e-18
9513.99963 3.92525e-18
9516.00263 3.85704e-18
9517.99561 4.03106e-18
9519.99861 3.96939e-18
9522.00161 4.01498e-18
9524.00461 4.01650e-18
9525.99760 3.87441e-18
9528.00059 3.99870e-18
9530.00360 4.10076e-18
9531.99658 3.97823e-18
9533.99958 3.90776e-18
9536.00258 4.08922e-18
9537.99556 4.12378e-18
9539.99856 3.97546e-18
9542.00157 4.00525e-18
9544.00456 4.32481e-18
9545.99755 4.58718e-18
9548.00055 4.32506e-18
9550.00355 4.12601e-18
9551.99654 3.99476e-18
9553.99954 4.14351e-18
9556.00254 4.21677e-18
9557.99552 4.19148e-18
9559.99852 4.02199e-18
9562.00152 3.82053e-18
9564.00452 3.97324e-18
9565.99751 3.96740e-18
9568.00050 3.90016e-18
9570.00351 3.88933e-18
9571.99649 3.81258e-18
9573.99949 3.79729e-18
9576.00249 3.82200e-18
9577.99547 3.74844e-18
9579.99848 3.87529e-18
9582.00148 4.14862e-18
9584.00447 3.90118e-18
9585.99746 3.78308e-18
9588.00046 3.70198e-18
9590.00346 3.84323e-18
9591.99644 3.95478e-18
9593.99944 3.92039e-18
9596.00245 3.75769e-18
9597.99543 3.86924e-18
9599.99843 3.93352e-18
9602.00143 3.85722e-18
9604.00443 3.78249e-18
9605.99742 3.84618e-18
9608.00042 3.94067e-18
9610.00342 3.95586e-18
9611.99640 3.88237e-18
9613.99940 3.80020e-18
9616.00240 3.76294e-18
9617.99539 3.76039e-18
9619.99839 3.71621e-18
9622.00139 3.81234e-18
9624.00439 3.73964e-18
9625.99737 3.82542e-18
9628.00037 3.93798e-18
9630.00337 3.89239e-18
9631.99636 3.67651e-18
9633.99935 3.72197e-18
9636.00236 3.79859e-18
9637.99534 3.94409e-18
9639.99834 3.82608e-18
9642.00134 3.71859e-18
9644.00434 3.72406e-18
9645.99733 3.90441e-18
9648.00032 3.77344e-18
9650.00332 3.71325e-18
9651.99631 3.82501e-18
9653.99931 3.78341e-18
9656.00231 3.80788e-18
9657.99530 3.72572e-18
9659.99830 3.72365e-18
9662.00130 3.85394e-18
9664.00430 3.86407e-18
9665.99728 3.72402e-18
9668.00028 3.68749e-18
9670.00328 3.81500e-18
9671.99627 3.87686e-18
9673.99927 3.86642e-18
9676.00227 3.89774e-18
9677.99525 3.69623e-18
9679.99825 3.69986e-18
9682.00125 3.74051e-18
9684.00425 3.75414e-18
9685.99724 3.72091e-18
9688.00023 3.81595e-18
9690.00324 3.71756e-18
9691.99622 3.79326e-18
9693.99922 3.77541e-18
9696.00222 3.69046e-18
9697.99520 3.67915e-18
9699.99820 3.66863e-18
9702.00121 3.69770e-18
9704.00420 3.67838e-18
9705.99719 3.59346e-18
9708.00019 3.71585e-18
9710.00319 3.70896e-18
9711.99618 3.60343e-18
9713.99918 3.70901e-18
9716.00218 3.84676e-18
9717.99516 3.66497e-18
9719.99816 3.75776e-18
9722.00116 3.73906e-18
9724.00416 3.86396e-18
9725.99715 3.72715e-18
9728.00014 3.86403e-18
9730.00315 3.66593e-18
9731.99613 3.66614e-18
9733.99913 3.66105e-18
9736.00213 3.71444e-18
9738.00513 3.82139e-18
9739.99812 3.72485e-18
9742.00112 3.60407e-18
9744.00411 3.76451e-18
9745.99710 3.75156e-18
9748.00010 3.74831e-18
9750.00310 3.69710e-18
9751.99609 3.63384e-18
9753.99908 3.60015e-18
9756.00209 3.74312e-18
9757.99507 3.77958e-18
9759.99807 3.68858e-18
9762.00107 3.73285e-18
9764.00407 3.78003e-18
9765.99706 3.65677e-18
9768.00006 3.64444e-18
9770.00306 3.69992e-18
9771.99604 3.62015e-18
9773.99904 3.65862e-18
9776.00204 3.63902e-18
9777.99503 3.70128e-18
9779.99803 3.64422e-18
9782.00103 3.73602e-18
9784.00403 3.68265e-18
9785.99701 3.73432e-18
9788.00001 3.65240e-18
9790.00301 3.63115e-18
9791.99600 3.67582e-18
9793.99899 3.89532e-18
9796.00200 3.66877e-18
9798.00500 3.62151e-18
9799.99798 3.74053e-18
9802.00098 3.65387e-18
9804.00398 3.67037e-18
9805.99697 3.81133e-18
9807.99997 3.67563e-18
9810.00296 3.67200e-18
9811.99595 3.68004e-18
9813.99895 3.62056e-18
9816.00195 3.54878e-18
9817.99494 3.57437e-18
9819.99794 3.68391e-18
9822.00094 3.65441e-18
9824.00394 3.61770e-18
9825.99692 3.73920e-18
9827.99992 3.65791e-18
9830.00292 3.69694e-18
9831.99591 3.75720e-18
9833.99891 3.73009e-18
9836.00191 3.74066e-18
9837.99489 3.71765e-18
9839.99789 3.71339e-18
9842.00089 3.61895e-18
9844.00389 3.61685e-18
9845.99688 3.63256e-18
9847.99988 3.58711e-18
9850.00288 3.61721e-18
9851.99586 3.64162e-18
9853.99886 3.68986e-18
9856.00186 3.59757e-18
9858.00486 3.63409e-18
9859.99784 3.67398e-18
9862.00085 3.64080e-18
9864.00384 3.69065e-18
9865.99683 3.65806e-18
9867.99983 3.64794e-18
9870.00283 3.69156e-18
9871.99582 3.61035e-18
9873.99881 3.74406e-18
9876.00181 3.63662e-18
9878.00482 3.66381e-18
9879.99780 3.63967e-18
9882.00080 3.70658e-18
9884.00380 3.65617e-18
9885.99679 3.67645e-18
9887.99979 3.57988e-18
9890.00279 3.54470e-18
9891.99577 3.59926e-18
9893.99877 3.58910e-18
9896.00177 3.67379e-18
9897.99476 3.60264e-18
9899.99776 3.61831e-18
9902.00076 3.59962e-18
9904.00375 3.55765e-18
9905.99674 3.59509e-18
9907.99974 3.49604e-18
9910.00274 3.60712e-18
9911.99573 3.59783e-18
9913.99872 3.83152e-18
9916.00173 3.63115e-18
9918.00473 3.65109e-18
9919.99771 3.62500e-18
9922.00071 3.52377e-18
9924.00371 3.44697e-18
9925.99669 3.61042e-18
9927.99970 3.57114e-18
9930.00269 3.57231e-18
9931.99568 3.59611e-18
9933.99868 3.68676e-18
9936.00168 3.60034e-18
9938.00468 3.59125e-18
9939.99767 3.57566e-18
9942.00067 3.48395e-18
9944.00367 3.51493e-18
9945.99665 3.54585e-18
9947.99965 3.72523e-18
9950.00265 3.56290e-18
9951.99564 3.51377e-18
9953.99863 3.62582e-18
9956.00164 3.52422e-18
9957.99462 3.53204e-18
9959.99762 3.48157e-18
9962.00062 3.64103e-18
9964.00362 3.58202e-18
9965.99661 3.56812e-18
9967.99961 3.56778e-18
9970.00260 3.58144e-18
9971.99559 3.59553e-18
9973.99859 3.47494e-18
9976.00159 3.51737e-18
9978.00459 3.55326e-18
9979.99757 3.60896e-18
9982.00058 3.53881e-18
9984.00358 3.52334e-18
9985.99656 3.51260e-18
9987.99956 3.42476e-18
9990.00256 3.57047e-18
9991.99555 3.57899e-18
9993.99855 3.47607e-18
9996.00155 3.58126e-18
9998.00455 3.45186e-18
9999.99753 3.48153e-18
