# wavelength flux
3474.10410 1.20267e-17
3475.57140 1.21002e-17
3477.04875 1.52260e-17
3478.51605 1.56814e-17
3479.98335 4.99737e-18
3481.45065 7.10381e-18
3482.92800 1.36394e-17
3484.39530 6.72973e-18
3485.86260 7.60003e-18
3487.32990 1.34118e-17
3488.80725 9.08810e-18
3490.27455 9.73172e-18
3491.74185 1.69713e-17
3493.21920 1.06270e-17
3494.68650 1.31656e-18
3496.15380 1.16528e-17
3497.62110 1.44010e-17
3499.09845 9.14356e-18
3500.56575 9.40835e-18
3502.03305 9.67307e-18
3503.50035 9.93773e-18
3504.97770 1.02023e-17
3506.44500 1.04669e-17
3507.91230 1.07313e-17
3509.38965 1.09957e-17
3510.85695 1.12601e-17
3512.32425 1.12587e-17
3513.79155 1.44943e-17
3515.26890 2.25785e-17
3516.73620 1.94489e-17
3518.20350 1.31820e-17
3519.67080 1.54067e-17
3521.14815 9.29295e-18
3522.61545 3.35933e-18
3524.08275 2.99297e-18
3525.56010 1.07942e-17
3527.02740 1.86488e-17
3528.49470 1.36003e-17
3529.96200 4.88760e-18
3531.43935 4.29621e-18
3532.90665 1.42105e-18
3534.37395 2.09701e-18
3535.84125 1.41599e-17
3537.31860 1.64352e-17
3538.78590 2.02369e-18
3540.25320 8.03326e-18
3541.73055 8.40649e-18
3543.19785 7.86443e-18
3544.66515 5.38205e-18
3546.13245 1.13486e-17
3547.60980 1.11001e-17
3549.07710 3.34759e-18
3550.54440 4.90333e-18
3552.01170 7.69872e-18
3553.48905 9.56279e-18
3554.95635 9.45724e-18
3556.42365 2.43461e-18
3557.90100 6.77631e-18
3559.36830 1.68131e-17
3560.83560 1.31786e-17
3562.30290 1.13160e-17
3563.78025 9.78085e-18
3565.24755 1.89640e-18
3566.71485 6.03398e-18
3568.18215 4.20875e-18
3569.65950 4.91745e-18
3571.12680 1.22071e-17
3572.59410 1.40300e-17
3574.07145 1.70999e-17
3575.53875 1.22323e-17
3577.00605 6.82133e-18
3578.47335 2.51554e-18
3579.95070 1.80591e-18
3581.41800 8.58807e-18
3582.88530 7.54760e-18
3584.35260 9.85925e-19
3585.82995 1.95510e-18
3587.29725 6.75624e-18
3588.76455 1.55982e-17
3590.24190 1.27000e-17
3591.70920 8.13162e-18
3593.17650 1.21769e-17
3594.64380 1.48027e-17
3596.12115 7.83877e-18
3597.58845 1.04933e-17
3599.05575 1.23378e-17
3600.52305 7.59638e-18
3602.00040 2.09739e-18
3603.46770 1.81856e-18
3604.93500 8.26134e-18
3606.41235 1.01427e-17
3607.87965 8.09578e-18
3609.34695 9.20159e-18
3610.81425 7.62560e-18
3612.29160 6.30487e-18
3613.75890 1.28498e-17
3615.22620 1.08652e-17
3616.69350 8.22119e-18
3618.17085 8.44992e-18
3619.63815 8.50900e-18
3621.10545 7.60858e-18
3622.58280 2.66973e-18
3624.05010 4.37922e-18
3625.51740 8.81519e-18
3626.98470 1.19491e-17
3628.46205 7.32813e-18
3629.92935 4.72786e-18
3631.39665 5.79754e-18
3632.86395 9.69682e-18
3634.34130 1.18036e-17
3635.80860 5.58989e-18
3637.27590 -1.65230e-18
3638.75325 5.61727e-18
3640.22055 1.04822e-17
3641.68785 7.06323e-18
3643.15515 6.51120e-18
3644.63250 1.25284e-18
3646.09980 -1.83343e-18
3647.56710 6.70994e-18
3649.03440 5.47214e-18
3650.51175 3.60683e-18
3651.97905 9.81235e-18
3653.44635 9.74442e-18
3654.92370 1.04220e-17
3656.39100 1.27801e-17
3657.85830 8.16880e-18
3659.32560 2.42858e-18
3660.80295 4.23632e-18
3662.27025 8.16307e-18
3663.73755 3.57017e-18
3665.20485 7.89151e-18
3666.68220 7.46047e-18
3668.14950 4.58288e-18
3669.61680 3.07283e-18
3671.09415 -1.99717e-18
3672.56145 3.25283e-18
3674.02875 5.49324e-18
3675.49605 3.70735e-18
3676.97340 4.30873e-18
3678.44070 3.89472e-18
3679.90800 6.25330e-18
3681.37530 6.75557e-18
3682.85265 3.12714e-18
3684.31995 6.79887e-18
3685.78725 1.03428e-17
3687.26460 6.88060e-18
3688.73190 1.00612e-17
3690.19920 8.48200e-18
3691.66650 4.72431e-18
3693.14385 8.88326e-18
3694.61115 9.48764e-18
3696.07845 7.00020e-18
3697.54575 1.01031e-17
3699.02310 5.43103e-18
3700.49040 3.75193e-18
3701.95770 3.92484e-18
3703.43505 4.33304e-18
3704.90235 6.73040e-18
3706.36965 7.31504e-18
3707.83695 6.90832e-18
3709.31430 5.59512e-18
3710.78160 6.51453e-18
3712.24890 8.95759e-18
3713.71620 5.56444e-18
3715.19355 7.65936e-19
3716.66085 3.27645e-18
3718.12815 7.44156e-18
3719.60550 8.46514e-18
3721.07280 9.60823e-18
3722.54010 1.00286e-17
3724.00740 5.20657e-18
3725.48475 4.67771e-18
3726.95205 3.54436e-18
3728.41935 9.50600e-19
3729.88665 1.69043e-18
3731.36400 6.70887e-18
3732.83130 9.13319e-18
3734.29860 3.16938e-18
3735.77595 3.96640e-18
3737.24325 9.46113e-18
3738.71055 9.97085e-18
3740.17785 6.20385e-18
3741.65520 7.59811e-18
3743.12250 7.88823e-18
3744.58980 9.09813e-18
3746.05710 1.04749e-17
3747.53445 6.23057e-18
3749.00175 7.23563e-18
3750.46905 5.83323e-18
3751.94640 3.18067e-18
3753.41370 4.17170e-18
3754.88100 4.70815e-18
3756.34830 5.48737e-18
3757.82565 6.18049e-18
3759.29295 3.97280e-18
3760.76025 5.10681e-18
3762.23760 3.53146e-18
3763.70490 4.29053e-18
3765.17220 8.84614e-18
3766.63950 6.59912e-18
3768.11685 6.62503e-18
3769.58415 5.50035e-18
3771.05145 6.30735e-18
3772.51875 5.05286e-18
3773.99610 5.02091e-18
3775.46340 3.38094e-18
3776.93070 4.02727e-18
3778.39800 5.87693e-18
3779.87535 6.42332e-18
3781.34265 8.30103e-18
3782.80995 3.72331e-18
3784.28730 6.87289e-18
3785.75460 3.09873e-18
3787.22190 6.01042e-18
3788.68920 2.72419e-18
3790.16655 9.37286e-19
3791.63385 5.87683e-18
3793.10115 5.70756e-18
3794.56845 6.49208e-18
3796.04580 6.10862e-18
3797.51310 6.59041e-18
3798.98040 9.03645e-18
3800.45775 6.81824e-18
3801.92505 5.02767e-18
3803.39235 6.69295e-18
3804.85965 7.31162e-18
3806.33700 5.77398e-18
3807.80430 6.31145e-18
3809.27160 5.44146e-18
3810.73890 4.86480e-18
3812.21625 7.18646e-18
3813.68355 5.18267e-18
3815.15085 6.24732e-18
3816.62820 6.81399e-18
3818.09550 4.65596e-18
3819.56280 6.08343e-18
3821.03010 4.95021e-18
3822.50745 3.48354e-18
3823.97475 5.76187e-18
3825.44205 6.88402e-18
3826.91940 8.73004e-18
3828.38670 9.75481e-18
3829.85400 7.28343e-18
3831.32130 5.69002e-18
3832.79865 7.14214e-18
3834.26595 8.01771e-18
3835.73325 7.16123e-18
3837.20055 7.10567e-18
3838.67790 5.91745e-18
3840.14520 6.65076e-18
3841.61250 7.69000e-18
3843.08985 4.94704e-18
3844.55715 6.52406e-18
3846.02445 6.24571e-18
3847.49175 4.80630e-18
3848.96910 6.25432e-18
3850.43640 4.08698e-18
3851.90370 3.06223e-18
3853.37100 5.96422e-18
3854.84835 6.81148e-18
3856.31565 4.56167e-18
3857.78295 4.21921e-18
3859.25025 5.06022e-18
3860.72760 3.56914e-18
3862.19490 3.09768e-18
3863.66220 4.20625e-18
3865.13955 6.56838e-18
3866.60685 5.31980e-18
3868.07415 3.85630e-18
3869.54145 5.05977e-18
3871.01880 1.02817e-17
3872.48610 6.64655e-18
3873.95340 4.00053e-18
3875.43075 7.69887e-18
3876.89805 5.89187e-18
3878.36535 7.83596e-18
3879.83265 7.63536e-18
3881.31000 6.41465e-18
3882.77730 5.95495e-18
3884.24460 7.21219e-18
3885.71190 9.84441e-18
3887.18925 8.69118e-18
3888.65655 7.23022e-18
3890.12385 1.01086e-17
3891.60120 6.95489e-18
3893.06850 8.23588e-18
3894.53580 9.66103e-18
3896.00310 9.58193e-18
3897.48045 7.25610e-18
3898.94775 3.59945e-18
3900.41505 4.77759e-18
3901.88235 5.54720e-18
3903.35970 4.07855e-18
3904.82700 5.82100e-18
3906.29430 9.45583e-18
3907.77165 1.08361e-17
3909.23895 9.38560e-18
3910.70625 9.21590e-18
3912.17355 7.53006e-18
3913.65090 5.75151e-18
3915.11820 6.46992e-18
3916.58550 9.59718e-18
3918.05280 9.91193e-18
3919.53015 1.12731e-17
3920.99745 1.14880e-17
3922.46475 9.55117e-18
3923.94210 1.18131e-17
3925.40940 1.21771e-17
3926.87670 9.95175e-18
3928.34400 1.09707e-17
3929.82135 1.05701e-17
3931.28865 1.09816e-17
3932.75595 1.19746e-17
3934.22325 1.06490e-17
3935.70060 1.09406e-17
3937.16790 1.13011e-17
3938.63520 1.11912e-17
3940.11255 1.17716e-17
3941.57985 1.06180e-17
3943.04715 1.06221e-17
3944.51445 1.31330e-17
3945.99180 1.49649e-17
3947.45910 1.41764e-17
3948.92640 1.30182e-17
3950.39370 1.20996e-17
3951.87105 1.34698e-17
3953.33835 1.13498e-17
3954.80565 1.12599e-17
3956.28300 1.20455e-17
3957.75030 1.00649e-17
3959.21760 1.26050e-17
3960.68490 1.14531e-17
3962.16225 1.03651e-17
3963.62955 1.02796e-17
3965.09685 1.19510e-17
3966.56415 1.06647e-17
3968.04150 9.06263e-18
3969.50880 1.15776e-17
3970.97610 1.19602e-17
3972.45345 9.78811e-18
3973.92075 8.78836e-18
3975.38805 9.26169e-18
3976.85535 1.04297e-17
3978.33270 1.22367e-17
3979.80000 9.79862e-18
3981.26730 9.70303e-18
3982.73460 1.01152e-17
3984.21195 1.00788e-17
3985.67925 8.61789e-18
3987.14655 7.46842e-18
3988.62390 7.72803e-18
3990.09120 9.90907e-18
3991.55850 9.47780e-18
3993.02580 7.19771e-18
3994.50315 7.07067e-18
3995.97045 8.41844e-18
3997.43775 1.26916e-17
3998.90505 1.33265e-17
4000.38240 8.05553e-18
4001.84970 1.01353e-17
4003.31700 1.26791e-17
4004.79435 1.06119e-17
4006.26165 1.22039e-17
4007.72895 1.31272e-17
4009.19625 1.33154e-17
4010.67360 1.20202e-17
4012.14090 1.37662e-17
4013.60820 1.09655e-17
4015.07550 8.32002e-18
4016.55285 1.02147e-17
4018.02015 1.22245e-17
4019.48745 1.34715e-17
4020.96480 1.37900e-17
4022.43210 1.29177e-17
4023.89940 1.08947e-17
4025.36670 1.18364e-17
4026.84405 1.25356e-17
4028.31135 1.53315e-17
4029.77865 1.48475e-17
4031.24595 1.29413e-17
4032.72330 1.35331e-17
4034.19060 1.35034e-17
4035.65790 1.49509e-17
4037.13525 1.37079e-17
4038.60255 1.13147e-17
4040.06985 1.11582e-17
4041.53715 1.33615e-17
4043.01450 1.24600e-17
4044.48180 1.11187e-17
4045.94910 1.35092e-17
4047.41640 1.36309e-17
4048.89375 1.32829e-17
4050.36105 1.36676e-17
4051.82835 1.26322e-17
4053.30570 1.19569e-17
4054.77300 1.19041e-17
4056.24030 1.42198e-17
4057.70760 1.37316e-17
4059.18495 1.42096e-17
4060.65225 1.36566e-17
4062.11955 1.20916e-17
4063.58685 1.19392e-17
4065.06420 1.34782e-17
4066.53150 1.49997e-17
4067.99880 1.47842e-17
4069.47615 1.45278e-17
4070.94345 1.29490e-17
4072.41075 1.49013e-17
4073.87805 1.54737e-17
4075.35540 1.39746e-17
4076.82270 1.26323e-17
4078.29000 1.23815e-17
4079.75730 1.44911e-17
4081.23465 1.30503e-17
4082.70195 1.55067e-17
4084.16925 1.29490e-17
4085.64660 1.05402e-17
4087.11390 1.21399e-17
4088.58120 1.24443e-17
4090.04850 1.39928e-17
4091.52585 1.41384e-17
4092.99315 1.43170e-17
4094.46045 1.26251e-17
4095.92775 1.15220e-17
4097.40510 1.37707e-17
4098.87240 1.17292e-17
4100.33970 1.29609e-17
4101.81705 1.22952e-17
4103.28435 1.31772e-17
4104.75165 1.14033e-17
4106.21895 1.10524e-17
4107.69630 1.34207e-17
4109.16360 1.04613e-17
4110.63090 1.07903e-17
4112.09820 1.10341e-17
4113.57555 1.03876e-17
4115.04285 9.56170e-18
4116.51015 1.15778e-17
4117.98750 1.08405e-17
4119.45480 9.53613e-18
4120.92210 1.10553e-17
4122.38940 8.95859e-18
4123.86675 6.67024e-18
4125.33405 8.78899e-18
4126.80135 1.12639e-17
4128.26865 9.48494e-18
4129.74600 8.50671e-18
4131.21330 8.98832e-18
4132.68060 9.03386e-18
4134.15795 1.03065e-17
4135.62525 1.04241e-17
4137.09255 1.07867e-17
4138.55985 8.97634e-18
4140.03720 1.13985e-17
4141.50450 1.14120e-17
4142.97180 9.40771e-18
4144.43910 9.88663e-18
4145.91645 1.15368e-17
4147.38375 1.12620e-17
4148.85105 1.17429e-17
4150.32840 1.02711e-17
4151.79570 1.43099e-17
4153.26300 1.39230e-17
4154.73030 1.13932e-17
4156.20765 1.19517e-17
4157.67495 1.12024e-17
4159.14225 1.05586e-17
4160.61960 1.23397e-17
4162.08690 1.21549e-17
4163.55420 1.11902e-17
4165.02150 9.03312e-18
4166.49885 1.14386e-17
4167.96615 1.03893e-17
4169.43345 1.19566e-17
4170.90075 1.15054e-17
4172.37810 9.97420e-18
4173.84540 9.47887e-18
4175.31270 9.55113e-18
4176.78000 1.05145e-17
4178.25735 8.73555e-18
4179.72465 9.12732e-18
4181.19195 1.02687e-17
4182.66930 8.86198e-18
4184.13660 9.18276e-18
4185.60390 8.28340e-18
4187.07120 7.56618e-18
4188.54855 9.20123e-18
4190.01585 1.16352e-17
4191.48315 1.25096e-17
4192.95045 1.30821e-17
4194.42780 1.19246e-17
4195.89510 7.82278e-18
4197.36240 7.20051e-18
4198.83975 8.74219e-18
4200.30705 1.03275e-17
4201.77435 1.11536e-17
4203.24165 9.90551e-18
4204.71900 1.01184e-17
4206.18630 9.82781e-18
4207.65360 9.23161e-18
4209.13095 8.96811e-18
4210.59825 8.46608e-18
4212.06555 9.52744e-18
4213.53285 1.04059e-17
4215.01020 1.20147e-17
4216.47750 1.25381e-17
4217.94480 1.07665e-17
4219.41210 1.09096e-17
4220.88945 1.25667e-17
4222.35675 1.13944e-17
4223.82405 1.09297e-17
4225.29135 9.47102e-18
4226.76870 1.06991e-17
4228.23600 1.09081e-17
4229.70330 1.15554e-17
4231.18065 1.06920e-17
4232.64795 1.12154e-17
4234.11525 1.15800e-17
4235.58255 1.08939e-17
4237.05990 1.14479e-17
4238.52720 1.06462e-17
4239.99450 1.06448e-17
4241.46180 8.79474e-18
4242.93915 8.49040e-18
4244.40645 1.09115e-17
4245.87375 8.92709e-18
4247.35110 9.04632e-18
4248.81840 1.07582e-17
4250.28570 9.45201e-18
4251.75300 8.00337e-18
4253.23035 8.90839e-18
4254.69765 1.05987e-17
4256.16495 1.05615e-17
4257.63225 9.80617e-18
4259.10960 9.70585e-18
4260.57690 8.91285e-18
4262.04420 9.51834e-18
4263.52155 8.64916e-18
4264.98885 8.16123e-18
4266.45615 9.58613e-18
4267.92345 9.22755e-18
4269.40080 8.86402e-18
4270.86810 1.03461e-17
4272.33540 9.86815e-18
4273.81275 8.10233e-18
4275.28005 9.35407e-18
4276.74735 1.09917e-17
4278.21465 1.00352e-17
4279.69200 1.25509e-17
4281.15930 1.21302e-17
4282.62660 1.05501e-17
4284.09390 1.21469e-17
4285.57125 1.12308e-17
4287.03855 9.98720e-18
4288.50585 1.03346e-17
4289.98320 1.25430e-17
4291.45050 1.15375e-17
4292.91780 1.21128e-17
4294.38510 1.11723e-17
4295.86245 8.53205e-18
4297.32975 1.07442e-17
4298.79705 1.24594e-17
4300.26435 8.84489e-18
4301.74170 9.40027e-18
4303.20900 1.12827e-17
4304.67630 9.86475e-18
4306.15365 9.90428e-18
4307.62095 1.14028e-17
4309.08825 9.93110e-18
4310.55555 1.04141e-17
4312.03290 1.26868e-17
4313.50020 1.07391e-17
4314.96750 9.96683e-18
4316.43480 1.30885e-17
4317.91215 1.29142e-17
4319.37945 1.24559e-17
4320.84675 1.19962e-17
4322.31405 9.65172e-18
4323.79140 9.94854e-18
4325.25870 1.01611e-17
4326.72600 9.91752e-18
4328.20335 1.01610e-17
4329.67065 1.20712e-17
4331.13795 1.09967e-17
4332.60525 9.75898e-18
4334.08260 1.12838e-17
4335.54990 1.14135e-17
4337.01720 1.19636e-17
4338.49455 1.21932e-17
4339.96185 1.13359e-17
4341.42915 1.07019e-17
4342.89645 8.63169e-18
4344.37380 8.74272e-18
4345.84110 8.93285e-18
4347.30840 1.07750e-17
4348.77570 1.09446e-17
4350.25305 7.32784e-18
4351.72035 1.03849e-17
4353.18765 9.93336e-18
4354.66500 1.07765e-17
4356.13230 1.11411e-17
4357.59960 8.91112e-18
4359.06690 8.50018e-18
4360.54425 1.17781e-17
4362.01155 1.14375e-17
4363.47885 8.57915e-18
4364.94615 1.03122e-17
4366.42350 1.09763e-17
4367.89080 1.19844e-17
4369.35810 1.05151e-17
4370.83545 8.23685e-18
4372.30275 8.55316e-18
4373.77005 1.01075e-17
4375.23735 1.00578e-17
4376.71470 1.03669e-17
4378.18200 9.65313e-18
4379.64930 1.12696e-17
4381.11660 1.17487e-17
4382.59395 1.19820e-17
4384.06125 1.21701e-17
4385.52855 1.02586e-17
4387.00590 1.09667e-17
4388.47320 9.86072e-18
4389.94050 8.85697e-18
4391.40780 9.21409e-18
4392.88515 9.89917e-18
4394.35245 1.02477e-17
4395.81975 7.79067e-18
4397.28705 9.04721e-18
4398.76440 9.94079e-18
4400.23170 8.19984e-18
4401.69900 7.50022e-18
4403.17635 8.31237e-18
4404.64365 8.21234e-18
4406.11095 8.11121e-18
4407.57825 7.60386e-18
4409.05560 8.29975e-18
4410.52290 8.15113e-18
4411.99020 7.56250e-18
4413.45750 8.62232e-18
4414.93485 8.75658e-18
4416.40215 8.77923e-18
4417.86945 9.66568e-18
4419.34680 8.78159e-18
4420.81410 8.92778e-18
4422.28140 8.04041e-18
4423.74870 6.88321e-18
4425.22605 8.72577e-18
4426.69335 8.18750e-18
4428.16065 8.34422e-18
4429.62795 8.12595e-18
4431.10530 8.64777e-18
4432.57260 8.68696e-18
4434.03990 9.33678e-18
4435.51725 1.01495e-17
4436.98455 9.54854e-18
4438.45185 1.00395e-17
4439.91915 1.07897e-17
4441.39650 9.30841e-18
4442.86380 1.05579e-17
4444.33110 1.21867e-17
4445.79840 1.26671e-17
4447.27575 1.20411e-17
4448.74305 1.06382e-17
4450.21035 8.58870e-18
4451.68770 9.06317e-18
4453.15500 9.05091e-18
4454.62230 9.33449e-18
4456.08960 9.51946e-18
4457.56695 8.58064e-18
4459.03425 9.68283e-18
4460.50155 1.09429e-17
4461.96885 1.02810e-17
4463.44620 1.12559e-17
4464.91350 1.01420e-17
4466.38080 8.48589e-18
4467.85815 6.69778e-18
4469.32545 7.93670e-18
4470.79275 8.83863e-18
4472.26005 9.22599e-18
4473.73740 9.63104e-18
4475.20470 8.23628e-18
4476.67200 7.88830e-18
4478.13930 7.84878e-18
4479.61665 9.35586e-18
4481.08395 8.16640e-18
4482.55125 8.04328e-18
4484.02860 9.16450e-18
4485.49590 8.57470e-18
4486.96320 8.05697e-18
4488.43050 1.05004e-17
4489.90785 8.32017e-18
4491.37515 7.42868e-18
4492.84245 6.79809e-18
4494.30975 8.05367e-18
4495.78710 1.06574e-17
4497.25440 7.74145e-18
4498.72170 6.97318e-18
4500.19905 8.72258e-18
4501.66635 8.60358e-18
4503.13365 8.73294e-18
4504.60095 9.21250e-18
4506.07830 8.72131e-18
4507.54560 8.81465e-18
4509.01290 8.38781e-18
4510.48020 8.45143e-18
4511.95755 9.29141e-18
4513.42485 1.02808e-17
4514.89215 9.11488e-18
4516.36950 9.70367e-18
4517.83680 8.45684e-18
4519.30410 1.02230e-17
4520.77140 1.03848e-17
4522.24875 9.31593e-18
4523.71605 9.58714e-18
4525.18335 1.01573e-17
4526.65065 9.87489e-18
4528.12800 8.58703e-18
4529.59530 9.69628e-18
4531.06260 1.03847e-17
4532.53995 1.07514e-17
4534.00725 1.11902e-17
4535.47455 9.60669e-18
4536.94185 8.73737e-18
4538.41920 9.71164e-18
4539.88650 8.26249e-18
4541.35380 1.06557e-17
4542.82110 1.00438e-17
4544.29845 1.09415e-17
4545.76575 1.12889e-17
4547.23305 9.14638e-18
4548.71040 1.09098e-17
4550.17770 1.09297e-17
4551.64500 1.19309e-17
4553.11230 1.28601e-17
4554.58965 9.94776e-18
4556.05695 1.10594e-17
4557.52425 1.26405e-17
4558.99155 1.37809e-17
4560.46890 1.41128e-17
4561.93620 1.35028e-17
4563.40350 1.37665e-17
4564.88085 1.23545e-17
4566.34815 1.36537e-17
4567.81545 1.29351e-17
4569.28275 1.45923e-17
4570.76010 1.43481e-17
4572.22740 1.52263e-17
4573.69470 1.26712e-17
4575.16200 1.25208e-17
4576.63935 1.25647e-17
4578.10665 1.17179e-17
4579.57395 1.39006e-17
4581.05130 1.20576e-17
4582.51860 1.26741e-17
4583.98590 1.36122e-17
4585.45320 1.26633e-17
4586.93055 1.18619e-17
4588.39785 1.31683e-17
4589.86515 1.28892e-17
4591.34250 1.32181e-17
4592.80980 1.30027e-17
4594.27710 1.40909e-17
4595.74440 1.28096e-17
4597.22175 1.26638e-17
4598.68905 1.23959e-17
4600.15635 1.31571e-17
4601.62365 1.54164e-17
4603.10100 1.48104e-17
4604.56830 1.46335e-17
4606.03560 1.50670e-17
4607.50290 1.45007e-17
4608.98025 1.52167e-17
4610.44755 1.45009e-17
4611.91485 1.60854e-17
4613.39220 1.55535e-17
4614.85950 1.61385e-17
4616.32680 1.61206e-17
4617.79410 1.44431e-17
4619.27145 1.50340e-17
4620.73875 1.60514e-17
4622.20605 1.59708e-17
4623.67335 1.67073e-17
4625.15070 1.57576e-17
4626.61800 1.49659e-17
4628.08530 1.38646e-17
4629.56265 1.49536e-17
4631.02995 1.47181e-17
4632.49725 1.42403e-17
4633.96455 1.53143e-17
4635.44190 1.43459e-17
4636.90920 1.36377e-17
4638.37650 1.42562e-17
4639.84380 1.53107e-17
4641.32115 1.54967e-17
4642.78845 1.44642e-17
4644.25575 1.32856e-17
4645.73310 1.44220e-17
4647.20040 1.36556e-17
4648.66770 1.42294e-17
4650.13500 1.43225e-17
4651.61235 1.32312e-17
4653.07965 1.55601e-17
4654.54695 1.47595e-17
4656.01425 1.45095e-17
4657.49160 1.17829e-17
4658.95890 1.30289e-17
4660.42620 1.52309e-17
4661.90355 1.44777e-17
4663.37085 1.12085e-17
4664.83815 1.20076e-17
4666.30545 1.27574e-17
4667.78280 1.14760e-17
4669.25010 1.25074e-17
4670.71740 1.36906e-17
4672.18470 1.12038e-17
4673.66205 1.12006e-17
4675.12935 1.13930e-17
4676.59665 1.29295e-17
4678.07400 1.34306e-17
4679.54130 1.23659e-17
4681.00860 1.31795e-17
4682.47590 1.41350e-17
4683.95325 1.27539e-17
4685.42055 1.25372e-17
4686.88785 1.25366e-17
4688.36520 1.36353e-17
4689.83250 1.31003e-17
4691.29980 1.33259e-17
4692.76710 1.39670e-17
4694.24445 1.45072e-17
4695.71175 1.37345e-17
4697.17905 1.27080e-17
4698.64635 1.38415e-17
4700.12370 1.46897e-17
4701.59100 1.38828e-17
4703.05830 1.32903e-17
4704.52560 1.37389e-17
4706.00295 1.38759e-17
4707.47025 1.27445e-17
4708.93755 1.24464e-17
4710.41490 1.37502e-17
4711.88220 1.36884e-17
4713.34950 1.27458e-17
4714.81680 1.36790e-17
4716.29415 1.23467e-17
4717.76145 1.17054e-17
4719.22875 1.21317e-17
4720.70610 1.25716e-17
4722.17340 1.24721e-17
4723.64070 1.08940e-17
4725.10800 1.05518e-17
4726.58535 1.10098e-17
4728.05265 9.05012e-18
4729.51995 1.03346e-17
4730.98725 1.11025e-17
4732.46460 1.10569e-17
4733.93190 1.09881e-17
4735.39920 1.00756e-17
4736.87655 1.04499e-17
4738.34385 1.19661e-17
4739.81115 1.14425e-17
4741.27845 1.12443e-17
4742.75580 1.36360e-17
4744.22310 1.30500e-17
4745.69040 1.26265e-17
4747.15770 1.36502e-17
4748.63505 1.43878e-17
4750.10235 1.45057e-17
4751.56965 1.31938e-17
4753.04700 1.36218e-17
4754.51430 1.34980e-17
4755.98160 1.36272e-17
4757.44890 1.35668e-17
4758.92625 1.35610e-17
4760.39355 1.32640e-17
4761.86085 1.26579e-17
4763.32815 1.27259e-17
4764.80550 1.36559e-17
4766.27280 1.32632e-17
4767.74010 1.29935e-17
4769.20740 1.23280e-17
4770.68475 1.27633e-17
4772.15205 1.26080e-17
4773.61935 1.11660e-17
4775.09670 1.30539e-17
4776.56400 1.22895e-17
4778.03130 1.13749e-17
4779.49860 1.16937e-17
4780.97595 1.05911e-17
4782.44325 9.71889e-18
4783.91055 1.18896e-17
4785.38790 1.12327e-17
4786.85520 1.14941e-17
4788.32250 1.22017e-17
4789.78980 1.14714e-17
4791.26715 1.08006e-17
4792.73445 1.16618e-17
4794.20175 1.19438e-17
4795.66905 1.28883e-17
4797.14640 1.22490e-17
4798.61370 1.21987e-17
4800.08100 1.27381e-17
4801.55835 1.23544e-17
4803.02565 1.14020e-17
4804.49295 1.11415e-17
4805.96025 1.18979e-17
4807.43760 1.20362e-17
4808.90490 1.21736e-17
4810.37220 1.26332e-17
4811.83950 1.16224e-17
4813.31685 1.26882e-17
4814.78415 1.35718e-17
4816.25145 1.37694e-17
4817.72880 1.22923e-17
4819.19610 1.20754e-17
4820.66340 1.38508e-17
4822.13070 1.34464e-17
4823.60805 1.29079e-17
4825.07535 1.25942e-17
4826.54265 1.21712e-17
4828.00995 9.87134e-18
4829.48730 9.80385e-18
4830.95460 1.07748e-17
4832.42190 1.07656e-17
4833.89925 1.01648e-17
4835.36655 1.13718e-17
4836.83385 1.16015e-17
4838.30115 1.05675e-17
4839.77850 1.03274e-17
4841.24580 1.02637e-17
4842.71310 1.10662e-17
4844.18040 1.07640e-17
4845.65775 1.01313e-17
4847.12505 9.49264e-18
4848.59235 8.00173e-18
4850.06970 8.81829e-18
4851.53700 9.03579e-18
4853.00430 9.10010e-18
4854.47160 8.47293e-18
4855.94895 9.14012e-18
4857.41625 9.63888e-18
4858.88355 8.05944e-18
4860.35085 7.34535e-18
4861.82820 8.70479e-18
4863.29550 9.62082e-18
4864.76280 8.82780e-18
4866.24015 8.53713e-18
4867.70745 9.45272e-18
4869.17475 9.01570e-18
4870.64205 8.94000e-18
4872.11940 9.61194e-18
4873.58670 9.12215e-18
4875.05400 7.12682e-18
4876.52130 8.05266e-18
4877.99865 9.74844e-18
4879.46595 1.00865e-17
4880.93325 9.80258e-18
4882.41060 1.00852e-17
4883.87790 1.12989e-17
4885.34520 1.14440e-17
4886.81250 1.24327e-17
4888.28985 1.17809e-17
4889.75715 1.24376e-17
4891.22445 1.16444e-17
4892.69175 1.09314e-17
4894.16910 1.11122e-17
4895.63640 1.10692e-17
4897.10370 1.16393e-17
4898.58105 1.16305e-17
4900.04835 1.01129e-17
4901.51565 1.02008e-17
4902.98295 1.03014e-17
4904.46030 9.94411e-18
4905.92760 1.11782e-17
4907.39490 1.04888e-17
4908.86220 9.78323e-18
4910.33955 1.01763e-17
4911.80685 9.67438e-18
4913.27415 9.31364e-18
4914.75150 1.02196e-17
4916.21880 9.16061e-18
4917.68610 8.13984e-18
4919.15340 8.46876e-18
4920.63075 8.03070e-18
4922.09805 8.83382e-18
4923.56535 8.78848e-18
4925.03265 8.77073e-18
4926.51000 9.22260e-18
4927.97730 8.94488e-18
4929.44460 8.60365e-18
4930.92195 8.30617e-18
4932.38925 7.13324e-18
4933.85655 8.17159e-18
4935.32385 8.99907e-18
4936.80120 8.92228e-18
4938.26850 8.16926e-18
4939.73580 8.83611e-18
4941.20310 9.09636e-18
4942.68045 9.25325e-18
4944.14775 9.56598e-18
4945.61505 8.39975e-18
4947.09240 7.48491e-18
4948.55970 7.77059e-18
4950.02700 8.86994e-18
4951.49430 8.56192e-18
4952.97165 9.16119e-18
4954.43895 9.40225e-18
4955.90625 1.03247e-17
4957.37355 1.03840e-17
4958.85090 9.32887e-18
4960.31820 9.70304e-18
4961.78550 9.84387e-18
4963.26285 1.05989e-17
4964.73015 9.89179e-18
4966.19745 1.05956e-17
4967.66475 1.18016e-17
4969.14210 1.12125e-17
4970.60940 1.09920e-17
4972.07670 1.14006e-17
4973.54400 9.87963e-18
4975.02135 1.03801e-17
4976.48865 1.15450e-17
4977.95595 1.31463e-17
4979.43330 1.32267e-17
4980.90060 1.30674e-17
4982.36790 1.47506e-17
4983.83520 1.32383e-17
4985.31255 1.38626e-17
4986.77985 1.50994e-17
4988.24715 1.46763e-17
4989.71445 1.35403e-17
4991.19180 1.42997e-17
4992.65910 1.53715e-17
4994.12640 1.46768e-17
4995.60375 1.46916e-17
4997.07105 1.54475e-17
4998.53835 1.48546e-17
5000.00565 1.51104e-17
5001.48300 1.51512e-17
5002.95030 1.52268e-17
5004.41760 1.56954e-17
5005.88490 1.41821e-17
5007.36225 1.37809e-17
5008.82955 1.54661e-17
5010.29685 1.70938e-17
5011.77420 1.65009e-17
5013.24150 1.75855e-17
5014.70880 1.69146e-17
5016.17610 1.69258e-17
5017.65345 1.77769e-17
5019.12075 1.67605e-17
5020.58805 1.75716e-17
5022.05535 1.80293e-17
5023.53270 1.71670e-17
5025.00000 1.75670e-17
5026.46730 1.64084e-17
5027.94465 1.67812e-17
5029.41195 1.63177e-17
5030.87925 1.65157e-17
5032.34655 1.76927e-17
5033.82390 1.71967e-17
5035.29120 1.71771e-17
5036.75850 1.70246e-17
5038.23585 1.68978e-17
5039.70315 1.59302e-17
5041.17045 1.65911e-17
5042.63775 1.64446e-17
5044.11510 1.52677e-17
5045.58240 1.52115e-17
5047.04970 1.58746e-17
5048.51700 1.68264e-17
5049.99435 1.48659e-17
5051.46165 1.42713e-17
5052.92895 1.52923e-17
5054.39625 1.61457e-17
5055.87360 1.61820e-17
5057.34090 1.53460e-17
5058.80820 1.42462e-17
5060.28555 1.29510e-17
5061.75285 1.42339e-17
5063.22015 1.49660e-17
5064.68745 1.37126e-17
5066.16480 1.37354e-17
5067.63210 1.34305e-17
5069.09940 1.26157e-17
5070.56670 1.27588e-17
5072.04405 1.25247e-17
5073.51135 1.21443e-17
5074.97865 1.20947e-17
5076.45600 1.08139e-17
5077.92330 9.66292e-18
5079.39060 1.00671e-17
5080.85790 1.17933e-17
5082.33525 1.06165e-17
5083.80255 9.90634e-18
5085.26985 1.07493e-17
5086.73715 1.02340e-17
5088.21450 9.50529e-18
5089.68180 9.14971e-18
5091.14910 9.50557e-18
5092.62645 9.37896e-18
5094.09375 8.66318e-18
5095.56105 8.86107e-18
5097.02835 8.19575e-18
5098.50570 9.11933e-18
5099.97300 8.52640e-18
5101.44030 7.83385e-18
5102.90760 8.97895e-18
5104.38495 8.50098e-18
5105.85225 9.58987e-18
5107.31955 9.90552e-18
5108.79690 8.50133e-18
5110.26420 7.80834e-18
5111.73150 8.74375e-18
5113.19880 9.51058e-18
5114.67615 9.49572e-18
5116.14345 9.61455e-18
5117.61075 8.53579e-18
5119.08810 8.92707e-18
5120.55540 9.48715e-18
5122.02270 9.27916e-18
5123.49000 9.12006e-18
5124.96735 9.76049e-18
5126.43465 1.06418e-17
5127.90195 1.06112e-17
5129.36925 1.12137e-17
5130.84660 1.02920e-17
5132.31390 1.05227e-17
5133.78120 1.09211e-17
5135.25855 1.14267e-17
5136.72585 1.06377e-17
5138.19315 1.08753e-17
5139.66045 1.14713e-17
5141.13780 1.18369e-17
5142.60510 1.22373e-17
5144.07240 1.24027e-17
5145.53970 1.24013e-17
5147.01705 1.21453e-17
5148.48435 1.15901e-17
5149.95165 1.13498e-17
5151.41895 1.11543e-17
5152.89630 1.19221e-17
5154.36360 1.20279e-17
5155.83090 1.29876e-17
5157.30825 1.24033e-17
5158.77555 1.14982e-17
5160.24285 1.13690e-17
5161.71015 1.26277e-17
5163.18750 1.28791e-17
5164.65480 1.25165e-17
5166.12210 1.23537e-17
5167.58940 1.19942e-17
5169.06675 1.34678e-17
5170.53405 1.23210e-17
5172.00135 1.18034e-17
5173.47870 1.30381e-17
5174.94600 1.36756e-17
5176.41330 1.22885e-17
5177.88060 1.26975e-17
5179.35795 1.32126e-17
5180.82525 1.31335e-17
5182.29255 1.27975e-17
5183.76990 1.28135e-17
5185.23720 1.14376e-17
5186.70450 1.06390e-17
5188.17180 1.13467e-17
5189.64915 1.23670e-17
5191.11645 1.18929e-17
5192.58375 1.17945e-17
5194.05105 1.19596e-17
5195.52840 1.09036e-17
5196.99570 1.17844e-17
5198.46300 1.18137e-17
5199.93030 1.14825e-17
5201.40765 1.21938e-17
5202.87495 1.32786e-17
5204.34225 1.45116e-17
5205.81960 1.30435e-17
5207.28690 1.27513e-17
5208.75420 1.28177e-17
5210.22150 1.19548e-17
5211.69885 1.20480e-17
5213.16615 1.18421e-17
5214.63345 1.10915e-17
5216.11080 1.07573e-17
5217.57810 1.18138e-17
5219.04540 1.16699e-17
5220.51270 1.09272e-17
5221.99005 1.10856e-17
5223.45735 1.09568e-17
5224.92465 1.12306e-17
5226.39195 1.21355e-17
5227.86930 1.13299e-17
5229.33660 1.04898e-17
5230.80390 1.07225e-17
5232.28125 1.08893e-17
5233.74855 1.06167e-17
5235.21585 1.03445e-17
5236.68315 1.07854e-17
5238.16050 1.09490e-17
5239.62780 1.13545e-17
5241.09510 1.15744e-17
5242.56240 1.05008e-17
5244.03975 1.04946e-17
5245.50705 1.11290e-17
5246.97435 1.15703e-17
5248.45170 1.11080e-17
5249.91900 1.11104e-17
5251.38630 1.14685e-17
5252.85360 1.15739e-17
5254.33095 1.21025e-17
5255.79825 1.18177e-17
5257.26555 1.05012e-17
5258.73285 9.82399e-18
5260.21020 1.00949e-17
5261.67750 1.09689e-17
5263.14480 9.78044e-18
5264.62215 9.20783e-18
5266.08945 1.08990e-17
5267.55675 1.09285e-17
5269.02405 1.06897e-17
5270.50140 1.14059e-17
5271.96870 1.09538e-17
5273.43600 1.10269e-17
5274.90330 1.09517e-17
5276.38065 1.21872e-17
5277.84795 1.20811e-17
5279.31525 1.15046e-17
5280.79260 1.12254e-17
5282.25990 1.13875e-17
5283.72720 1.24940e-17
5285.19450 1.28871e-17
5286.67185 1.23959e-17
5288.13915 1.25892e-17
5289.60645 1.21806e-17
5291.07375 1.23813e-17
5292.55110 1.24481e-17
5294.01840 1.21544e-17
5295.48570 1.31432e-17
5296.95300 1.30549e-17
5298.43035 1.27388e-17
5299.89765 1.24063e-17
5301.36495 1.26319e-17
5302.84230 1.37399e-17
5304.30960 1.39345e-17
5305.77690 1.32729e-17
5307.24420 1.28869e-17
5308.72155 1.28623e-17
5310.18885 1.29268e-17
5311.65615 1.27538e-17
5313.13350 1.21073e-17
5314.60080 1.26057e-17
5316.06810 1.34103e-17
5317.53540 1.35942e-17
5319.01275 1.30622e-17
5320.48005 1.31293e-17
5321.94735 1.32321e-17
5323.41465 1.26413e-17
5324.89200 1.26216e-17
5326.35930 1.27824e-17
5327.82660 1.41271e-17
5329.30395 1.43722e-17
5330.77125 1.40535e-17
5332.23855 1.45992e-17
5333.70585 1.40286e-17
5335.18320 1.35793e-17
5336.65050 1.43691e-17
5338.11780 1.47821e-17
5339.58510 1.46116e-17
5341.06245 1.49248e-17
5342.52975 1.44365e-17
5343.99705 1.40586e-17
5345.47440 1.50716e-17
5346.94170 1.55030e-17
5348.40900 1.49578e-17
5349.87630 1.43674e-17
5351.35365 1.47116e-17
5352.82095 1.46964e-17
5354.28825 1.46296e-17
5355.75555 1.49854e-17
5357.23290 1.43708e-17
5358.70020 1.36524e-17
5360.16750 1.28293e-17
5361.64485 1.34997e-17
5363.11215 1.43640e-17
5364.57945 1.42693e-17
5366.04675 1.35636e-17
5367.52410 1.35756e-17
5368.99140 1.43473e-17
5370.45870 1.42788e-17
5371.92600 1.49492e-17
5373.40335 1.44787e-17
5374.87065 1.35704e-17
5376.33795 1.31488e-17
5377.81530 1.39264e-17
5379.28260 1.47644e-17
5380.74990 1.39951e-17
5382.21720 1.33549e-17
5383.69455 1.39464e-17
5385.16185 1.42002e-17
5386.62915 1.33012e-17
5388.09645 1.26675e-17
5389.57380 1.43950e-17
5391.04110 1.45744e-17
5392.50840 1.32737e-17
5393.98575 1.35881e-17
5395.45305 1.40460e-17
5396.92035 1.47727e-17
5398.38765 1.50106e-17
5399.86500 1.49467e-17
5401.33230 1.37955e-17
5402.79960 1.35136e-17
5404.26690 1.43899e-17
5405.74425 1.46832e-17
5407.21155 1.43942e-17
5408.67885 1.44047e-17
5410.15620 1.46069e-17
5411.62350 1.56729e-17
5413.09080 1.52680e-17
5414.55810 1.45294e-17
5416.03545 1.39346e-17
5417.50275 1.40883e-17
5418.97005 1.46853e-17
5420.43735 1.57144e-17
5421.91470 1.48755e-17
5423.38200 1.44434e-17
5424.84930 1.53571e-17
5426.32665 1.55944e-17
5427.79395 1.48873e-17
5429.26125 1.49649e-17
5430.72855 1.48716e-17
5432.20590 1.49163e-17
5433.67320 1.42037e-17
5435.14050 1.35453e-17
5436.60780 1.40376e-17
5438.08515 1.52099e-17
5439.55245 1.52264e-17
5441.01975 1.41151e-17
5442.49710 1.34302e-17
5443.96440 1.46226e-17
5445.43170 1.39992e-17
5446.89900 1.38994e-17
5448.37635 1.38503e-17
5449.84365 1.40696e-17
5451.31095 1.36208e-17
5452.77825 1.25662e-17
5454.25560 1.29585e-17
5455.72290 1.39916e-17
5457.19020 1.36100e-17
5458.66755 1.32405e-17
5460.13485 1.39000e-17
5461.60215 1.34659e-17
5463.06945 1.21243e-17
5464.54680 1.37304e-17
5466.01410 1.42573e-17
5467.48140 1.28834e-17
5468.94870 1.25031e-17
5470.42605 1.32108e-17
5471.89335 1.27739e-17
5473.36065 1.26025e-17
5474.83800 1.27346e-17
5476.30530 1.29845e-17
5477.77260 1.27344e-17
5479.23990 1.18011e-17
5480.71725 1.28572e-17
5482.18455 1.39663e-17
5483.65185 1.31175e-17
5485.11915 1.21886e-17
5486.59650 1.19610e-17
5488.06380 1.23978e-17
5489.53110 1.28868e-17
5491.00845 1.22852e-17
5492.47575 1.19343e-17
5493.94305 1.20164e-17
5495.41035 1.24175e-17
5496.88770 1.30128e-17
5498.35500 1.27394e-17
5499.82230 1.26234e-17
5501.28960 1.38437e-17
5502.76695 1.34483e-17
5504.23425 1.30168e-17
5505.70155 1.32642e-17
5507.17890 1.38077e-17
5508.64620 1.37351e-17
5510.11350 1.38001e-17
5511.58080 1.49526e-17
5513.05815 1.48274e-17
5514.52545 1.40651e-17
5515.99275 1.38978e-17
5517.46005 1.43615e-17
5518.93740 1.52508e-17
5520.40470 1.48474e-17
5521.87200 1.46678e-17
5523.34935 1.51131e-17
5524.81665 1.56328e-17
5526.28395 1.64442e-17
5527.75125 1.63356e-17
5529.22860 1.65921e-17
5530.69590 1.64774e-17
5532.16320 1.67521e-17
5533.63050 1.57889e-17
5535.10785 1.48679e-17
5536.57515 1.53836e-17
5538.04245 1.58745e-17
5539.51980 1.60261e-17
5540.98710 1.64941e-17
5542.45440 1.68943e-17
5543.92170 1.62258e-17
5545.39905 1.66951e-17
5546.86635 1.75204e-17
5548.33365 1.70110e-17
5549.81100 1.56290e-17
5551.27830 1.54359e-17
5552.74560 1.61791e-17
5554.21290 1.64170e-17
5555.69025 1.62548e-17
5557.15755 1.61801e-17
5558.62485 1.59655e-17
5560.09215 1.57471e-17
5561.56950 1.57770e-17
5563.03680 1.60098e-17
5564.50410 1.58680e-17
5565.98145 1.61685e-17
5567.44875 1.69380e-17
5568.91605 1.64136e-17
5570.38335 1.56254e-17
5571.86070 1.54535e-17
5573.32800 1.64154e-17
5574.79530 1.69205e-17
5576.26260 1.62656e-17
5577.73995 1.65581e-17
5579.20725 1.64334e-17
5580.67455 1.56255e-17
5582.15190 1.49586e-17
5583.61920 1.41845e-17
5585.08650 1.45966e-17
5586.55380 1.52646e-17
5588.03115 1.48476e-17
5589.49845 1.35869e-17
5590.96575 1.34276e-17
5592.43305 1.43532e-17
5593.91040 1.40396e-17
5595.37770 1.38455e-17
5596.84500 1.43276e-17
5598.31230 1.43994e-17
5599.78965 1.42534e-17
5601.25695 1.37984e-17
5602.72425 1.32822e-17
5604.20160 1.27818e-17
5605.66890 1.24721e-17
5607.13620 1.26725e-17
5608.60350 1.27216e-17
5610.08085 1.28769e-17
5611.54815 1.32727e-17
5613.01545 1.32828e-17
5614.48275 1.27084e-17
5615.96010 1.23774e-17
5617.42740 1.25982e-17
5618.89470 1.27333e-17
5620.37205 1.33701e-17
5621.83935 1.32848e-17
5623.30665 1.18051e-17
5624.77395 1.14531e-17
5626.25130 1.19300e-17
5627.71860 1.14503e-17
5629.18590 1.16897e-17
5630.66325 1.26559e-17
5632.13055 1.27792e-17
5633.59785 1.18017e-17
5635.06515 1.11772e-17
5636.54250 1.17206e-17
5638.00980 1.26777e-17
5639.47710 1.25390e-17
5640.94440 1.23155e-17
5642.42175 1.26115e-17
5643.88905 1.21682e-17
5645.35635 1.11660e-17
5646.83370 1.12474e-17
5648.30100 1.22196e-17
5649.76830 1.32633e-17
5651.23560 1.30374e-17
5652.71295 1.20884e-17
5654.18025 1.19083e-17
5655.64755 1.30599e-17
5657.11485 1.38832e-17
5658.59220 1.34697e-17
5660.05950 1.34179e-17
5661.52680 1.38934e-17
5663.00415 1.32819e-17
5664.47145 1.31834e-17
5665.93875 1.38377e-17
5667.40605 1.39249e-17
5668.88340 1.39109e-17
5670.35070 1.35682e-17
5671.81800 1.36523e-17
5673.28530 1.38458e-17
5674.76265 1.33538e-17
5676.22995 1.31630e-17
5677.69725 1.33123e-17
5679.17460 1.38425e-17
5680.64190 1.50727e-17
5682.10920 1.41011e-17
5683.57650 1.27994e-17
5685.05385 1.34915e-17
5686.52115 1.32460e-17
5687.98845 1.27810e-17
5689.45575 1.19108e-17
5690.93310 1.12173e-17
5692.40040 1.22389e-17
5693.86770 1.20832e-17
5695.34505 1.16972e-17
5696.81235 1.23420e-17
5698.27965 1.20642e-17
5699.74695 1.18273e-17
5701.22430 1.23750e-17
5702.69160 1.22846e-17
5704.15890 1.14037e-17
5705.62620 1.09196e-17
5707.10355 1.13777e-17
5708.57085 1.11666e-17
5710.03815 1.08980e-17
5711.51550 1.10352e-17
5712.98280 1.05702e-17
5714.45010 1.03326e-17
5715.91740 1.00641e-17
5717.39475 9.85729e-18
5718.86205 9.56538e-18
5720.32935 9.40199e-18
5721.79665 9.10632e-18
5723.27400 9.80895e-18
5724.74130 9.99358e-18
5726.20860 8.82207e-18
5727.68595 8.38106e-18
5729.15325 8.14845e-18
5730.62055 7.33921e-18
5732.08785 7.36778e-18
5733.56520 6.89379e-18
5735.03250 6.52070e-18
5736.49980 6.71171e-18
5737.96710 6.42988e-18
5739.44445 5.96548e-18
5740.91175 6.03009e-18
5742.37905 5.55114e-18
5743.85640 5.03419e-18
5745.32370 5.18391e-18
5746.79100 4.82599e-18
5748.25830 4.82315e-18
5749.73565 5.04752e-18
5751.20295 5.37074e-18
5752.67025 5.27143e-18
5754.13755 4.18103e-18
5755.61490 4.01424e-18
5757.08220 5.37070e-18
5758.54950 5.39246e-18
5760.02685 4.70798e-18
5761.49415 5.26704e-18
5762.96145 4.98884e-18
5764.42875 4.58986e-18
5765.90610 5.41332e-18
5767.37340 4.44466e-18
5768.84070 4.24711e-18
5770.30800 4.81581e-18
5771.78535 4.82119e-18
5773.25265 5.19972e-18
5774.71995 5.60423e-18
5776.19730 5.93730e-18
5777.66460 5.63000e-18
5779.13190 5.83590e-18
5780.59920 6.01397e-18
5782.07655 5.72693e-18
5783.54385 6.43928e-18
5785.01115 6.19290e-18
5786.47845 5.63462e-18
5787.95580 5.65585e-18
5789.42310 5.29786e-18
5790.89040 5.02767e-18
5792.36775 5.37479e-18
5793.83505 6.36575e-18
5795.30235 6.61403e-18
5796.76965 6.98879e-18
5798.24700 6.78300e-18
5799.71430 6.41590e-18
5801.18160 6.68646e-18
5802.64890 6.58396e-18
5804.12625 6.57486e-18
5805.59355 6.77257e-18
5807.06085 7.35245e-18
5808.53820 7.04037e-18
5810.00550 6.81740e-18
5811.47280 7.88537e-18
5812.94010 7.67898e-18
5814.41745 6.88218e-18
5815.88475 7.28785e-18
5817.35205 8.30660e-18
5818.81935 9.14535e-18
5820.29670 9.94686e-18
5821.76400 9.70533e-18
5823.23130 9.28341e-18
5824.70865 1.01286e-17
5826.17595 1.06711e-17
5827.64325 1.13091e-17
5829.11055 1.16552e-17
5830.58790 1.10518e-17
5832.05520 1.19049e-17
5833.52250 1.28955e-17
5834.98980 1.22541e-17
5836.46715 1.31507e-17
5837.93445 1.43987e-17
5839.40175 1.43226e-17
5840.87910 1.46131e-17
5842.34640 1.54122e-17
5843.81370 1.59231e-17
5845.28100 1.59809e-17
5846.75835 1.61077e-17
5848.22565 1.63504e-17
5849.69295 1.61307e-17
5851.16025 1.66936e-17
5852.63760 1.79986e-17
5854.10490 1.74582e-17
5855.57220 1.74573e-17
5857.04955 1.76903e-17
5858.51685 1.79233e-17
5859.98415 1.81563e-17
5861.45145 1.83892e-17
5862.92880 1.86222e-17
5864.39610 1.88551e-17
5865.86340 1.90880e-17
5867.34075 1.93208e-17
5868.80805 1.95537e-17
5870.27535 1.95489e-17
5871.74265 2.04638e-17
5873.22000 2.05431e-17
5874.68730 2.11550e-17
5876.15460 2.11329e-17
5877.62190 1.99959e-17
5879.09925 1.97435e-17
5880.56655 2.04300e-17
5882.03385 2.16148e-17
5883.50115 2.12053e-17
5884.97850 2.03781e-17
5886.44580 2.00809e-17
5887.91310 1.98721e-17
5889.39045 1.95057e-17
5890.85775 2.05859e-17
5892.32505 2.16122e-17
5893.79235 2.04754e-17
5895.26970 2.10537e-17
5896.73700 2.18356e-17
5898.20430 2.04175e-17
5899.67160 2.01817e-17
5901.14895 2.07401e-17
5902.61625 2.16082e-17
5904.08355 2.18468e-17
5905.56090 2.13037e-17
5907.02820 2.12102e-17
5908.49550 2.13428e-17
5909.96280 2.18146e-17
5911.44015 2.12384e-17
5912.90745 2.10101e-17
5914.37475 2.05074e-17
5915.84205 1.96515e-17
5917.31940 1.98697e-17
5918.78670 1.94965e-17
5920.25400 1.88007e-17
5921.73135 1.80142e-17
5923.19865 1.72172e-17
5924.66595 1.77641e-17
5926.13325 1.91020e-17
5927.61060 1.87687e-17
5929.07790 1.81364e-17
5930.54520 1.86577e-17
5932.01250 1.94243e-17
5933.48985 1.84363e-17
5934.95715 1.78077e-17
5936.42445 1.85558e-17
5937.90180 1.83608e-17
5939.36910 1.91797e-17
5940.83640 1.85285e-17
5942.30370 1.77480e-17
5943.78105 1.84657e-17
5945.24835 1.82835e-17
5946.71565 1.84400e-17
5948.18295 1.85667e-17
5949.66030 1.88688e-17
5951.12760 1.88464e-17
5952.59490 1.88027e-17
5954.07225 1.88196e-17
5955.53955 1.83197e-17
5957.00685 1.80147e-17
5958.47415 1.83194e-17
5959.95150 1.91510e-17
5961.41880 1.80463e-17
5962.88610 1.67654e-17
5964.36345 1.73762e-17
5965.83075 1.75041e-17
5967.29805 1.74732e-17
5968.76535 1.74422e-17
5970.24270 1.65485e-17
5971.71000 1.69168e-17
5973.17730 1.78312e-17
5974.64460 1.74504e-17
5976.12195 1.69813e-17
5977.58925 1.71120e-17
5979.05655 1.75483e-17
5980.52385 1.77768e-17
5982.00120 1.72193e-17
5983.46850 1.72105e-17
5984.93580 1.77347e-17
5986.41315 1.74247e-17
5987.88045 1.70553e-17
5989.34775 1.65561e-17
5990.81505 1.61803e-17
5992.29240 1.64276e-17
5993.75970 1.64067e-17
5995.22700 1.61744e-17
5996.69430 1.59345e-17
5998.17165 1.59834e-17
5999.63895 1.62130e-17
6001.10625 1.61605e-17
6002.58360 1.66085e-17
6004.05090 1.64824e-17
6005.51820 1.56253e-17
6006.98550 1.53238e-17
6008.46285 1.53007e-17
6009.93015 1.50617e-17
6011.39745 1.49765e-17
6012.87480 1.53030e-17
6014.34210 1.58567e-17
6015.80940 1.57901e-17
6017.27670 1.51514e-17
6018.75405 1.53749e-17
6020.22135 1.62497e-17
6021.68865 1.55881e-17
6023.15595 1.45499e-17
6024.63330 1.50724e-17
6026.10060 1.51357e-17
6027.56790 1.50397e-17
6029.03520 1.58887e-17
6030.51255 1.57608e-17
6031.97985 1.46988e-17
6033.44715 1.48208e-17
6034.92450 1.57364e-17
6036.39180 1.54693e-17
6037.85910 1.46714e-17
6039.32640 1.46887e-17
6040.80375 1.43981e-17
6042.27105 1.44517e-17
6043.73835 1.51460e-17
6045.20565 1.48134e-17
6046.68300 1.48451e-17
6048.15030 1.49370e-17
6049.61760 1.40343e-17
6051.09495 1.37778e-17
6052.56225 1.44816e-17
6054.02955 1.41082e-17
6055.49685 1.35926e-17
6056.97420 1.44814e-17
6058.44150 1.51194e-17
6059.90880 1.46105e-17
6061.38615 1.34476e-17
6062.85345 1.28959e-17
6064.32075 1.34575e-17
6065.78805 1.42996e-17
6067.26540 1.42179e-17
6068.73270 1.42137e-17
6070.20000 1.40896e-17
6071.66730 1.34954e-17
6073.14465 1.28591e-17
6074.61195 1.25766e-17
6076.07925 1.22878e-17
6077.55660 1.26992e-17
6079.02390 1.33761e-17
6080.49120 1.36514e-17
6081.95850 1.39546e-17
6083.43585 1.37788e-17
6084.90315 1.33209e-17
6086.37045 1.21780e-17
6087.83775 1.16932e-17
6089.31510 1.23751e-17
6090.78240 1.34107e-17
6092.24970 1.30378e-17
6093.72705 1.16977e-17
6095.19435 1.17627e-17
6096.66165 1.21334e-17
6098.12895 1.20179e-17
6099.60630 1.22697e-17
6101.07360 1.23755e-17
6102.54090 1.22023e-17
6104.00820 1.22760e-17
6105.48555 1.28762e-17
6106.95285 1.22850e-17
6108.42015 1.14331e-17
6109.89750 1.15163e-17
6111.36480 1.16352e-17
6112.83210 1.17096e-17
6114.29940 1.16019e-17
6115.77675 1.12693e-17
6117.24405 1.21085e-17
6118.71135 1.22493e-17
6120.17865 1.17927e-17
6121.65600 1.26233e-17
6123.12330 1.33082e-17
6124.59060 1.37490e-17
6126.05790 1.29186e-17
6127.53525 1.23151e-17
6129.00255 1.25463e-17
6130.46985 1.25060e-17
6131.94720 1.23630e-17
6133.41450 1.26501e-17
6134.88180 1.25107e-17
6136.34910 1.24723e-17
6137.82645 1.32400e-17
6139.29375 1.34591e-17
6140.76105 1.28963e-17
6142.23840 1.30579e-17
6143.70570 1.37364e-17
6145.17300 1.35538e-17
6146.64030 1.31402e-17
6148.11765 1.39561e-17
6149.58495 1.42095e-17
6151.05225 1.37599e-17
6152.51955 1.34251e-17
6153.99690 1.31628e-17
6155.46420 1.42527e-17
6156.93150 1.45998e-17
6158.40885 1.35761e-17
6159.87615 1.30025e-17
6161.34345 1.31088e-17
6162.81075 1.33417e-17
6164.28810 1.38617e-17
6165.75540 1.40240e-17
6167.22270 1.33682e-17
6168.69000 1.25390e-17
6170.16735 1.28374e-17
6171.63465 1.34507e-17
6173.10195 1.27615e-17
6174.57930 1.23082e-17
6176.04660 1.24054e-17
6177.51390 1.21398e-17
6178.98120 1.20622e-17
6180.45855 1.21256e-17
6181.92585 1.22483e-17
6183.39315 1.20372e-17
6184.86045 1.13184e-17
6186.33780 1.10338e-17
6187.80510 1.10713e-17
6189.27240 1.09216e-17
6190.74975 9.86873e-18
6192.21705 9.58903e-18
6193.68435 1.00607e-17
6195.15165 1.03590e-17
6196.62900 1.07695e-17
6198.09630 1.07938e-17
6199.56360 1.04185e-17
6201.03090 1.03557e-17
6202.50825 1.10355e-17
6203.97555 1.08596e-17
6205.44285 1.05576e-17
6206.92020 1.09914e-17
6208.38750 1.10810e-17
6209.85480 1.13639e-17
6211.32210 1.17537e-17
6212.79945 1.21066e-17
6214.26675 1.22842e-17
6215.73405 1.22671e-17
6217.20135 1.24154e-17
6218.67870 1.24957e-17
6220.14600 1.22794e-17
6221.61330 1.23319e-17
6223.09065 1.25701e-17
6224.55795 1.23182e-17
6226.02525 1.21688e-17
6227.49255 1.28018e-17
6228.96990 1.34789e-17
6230.43720 1.40198e-17
6231.90450 1.37767e-17
6233.37180 1.36335e-17
6234.84915 1.34653e-17
6236.31645 1.27444e-17
6237.78375 1.31685e-17
6239.26110 1.36159e-17
6240.72840 1.26145e-17
6242.19570 1.18526e-17
6243.66300 1.30651e-17
6245.14035 1.35969e-17
6246.60765 1.32685e-17
6248.07495 1.38620e-17
6249.54225 1.36650e-17
6251.01960 1.29607e-17
6252.48690 1.31449e-17
6253.95420 1.32766e-17
6255.43155 1.33629e-17
6256.89885 1.35907e-17
6258.36615 1.29772e-17
6259.83345 1.21766e-17
6261.31080 1.28392e-17
6262.77810 1.40424e-17
6264.24540 1.47034e-17
6265.71270 1.39117e-17
6267.19005 1.32679e-17
6268.65735 1.34910e-17
6270.12465 1.32278e-17
6271.60200 1.32655e-17
6273.06930 1.35025e-17
6274.53660 1.34464e-17
6276.00390 1.26299e-17
6277.48125 1.23489e-17
6278.94855 1.28368e-17
6280.41585 1.23092e-17
6281.88315 1.21985e-17
6283.36050 1.30175e-17
6284.82780 1.26291e-17
6286.29510 1.20382e-17
6287.77245 1.19989e-17
6289.23975 1.19863e-17
6290.70705 1.27077e-17
6292.17435 1.29399e-17
6293.65170 1.22483e-17
6295.11900 1.24211e-17
6296.58630 1.30408e-17
6298.05360 1.24072e-17
6299.53095 1.12124e-17
6300.99825 1.10847e-17
6302.46555 1.04770e-17
6303.94290 9.46617e-18
6305.41020 1.06549e-17
6306.87750 1.05886e-17
6308.34480 1.04172e-17
6309.82215 1.10089e-17
6311.28945 1.07825e-17
6312.75675 1.05612e-17
6314.22405 1.07148e-17
6315.70140 1.01413e-17
6317.16870 1.01898e-17
6318.63600 1.00321e-17
6320.11335 1.02073e-17
6321.58065 9.92523e-18
6323.04795 9.68384e-18
6324.51525 9.89114e-18
6325.99260 9.53328e-18
6327.45990 1.02396e-17
6328.92720 1.06837e-17
6330.39450 9.56297e-18
6331.87185 8.21744e-18
6333.33915 8.65137e-18
6334.80645 8.61723e-18
6336.28380 8.25364e-18
6337.75110 8.81815e-18
6339.21840 8.16475e-18
6340.68570 7.68337e-18
6342.16305 7.42799e-18
6343.63035 7.30942e-18
6345.09765 7.35087e-18
6346.56495 7.16439e-18
6348.04230 6.91656e-18
6349.50960 6.81163e-18
6350.97690 6.11845e-18
6352.45425 5.98890e-18
6353.92155 6.27366e-18
6355.38885 6.44501e-18
6356.85615 6.05051e-18
6358.33350 5.80397e-18
6359.80080 5.68859e-18
6361.26810 5.24278e-18
6362.73540 4.76618e-18
6364.21275 4.87906e-18
6365.68005 4.61741e-18
6367.14735 3.93110e-18
6368.62470 3.79786e-18
6370.09200 4.25704e-18
6371.55930 4.98930e-18
6373.02660 4.44206e-18
6374.50395 4.15609e-18
6375.97125 4.32017e-18
6377.43855 3.94112e-18
6378.90585 3.74038e-18
6380.38320 3.71492e-18
6381.85050 4.59139e-18
6383.31780 5.20552e-18
6384.79515 4.99915e-18
6386.26245 4.61597e-18
6387.72975 4.75698e-18
6389.19705 4.75811e-18
6390.67440 4.69768e-18
6392.14170 4.89821e-18
6393.60900 4.88996e-18
6395.08635 5.62356e-18
6396.55365 6.19856e-18
6398.02095 5.80498e-18
6399.48825 6.14806e-18
6400.96560 7.49168e-18
6402.43290 7.89100e-18
6403.90020 7.92555e-18
6405.36750 8.79249e-18
6406.84485 9.53566e-18
6408.31215 9.54825e-18
6409.77945 1.02068e-17
6411.24675 1.08512e-17
6412.72410 1.04177e-17
6414.19140 1.02782e-17
6415.65870 1.06497e-17
6417.13605 1.11551e-17
6418.60335 1.21649e-17
6420.07065 1.29573e-17
6421.53795 1.26063e-17
6423.01530 1.24547e-17
6424.48260 1.25063e-17
6425.94990 1.30222e-17
6427.41720 1.37424e-17
6428.89455 1.34547e-17
6430.36185 1.31160e-17
6431.82915 1.31849e-17
6433.30650 1.35302e-17
6434.77380 1.35665e-17
6436.24110 1.36781e-17
6437.70840 1.40537e-17
6439.18575 1.37914e-17
6440.65305 1.40159e-17
6442.12035 1.41685e-17
6443.58765 1.32004e-17
6445.06500 1.36172e-17
6446.53230 1.40587e-17
6447.99960 1.33321e-17
6449.47695 1.33578e-17
6450.94425 1.41146e-17
6452.41155 1.46028e-17
6453.87885 1.38410e-17
6455.35620 1.29116e-17
6456.82350 1.21649e-17
6458.29080 1.24099e-17
6459.75810 1.37701e-17
6461.23545 1.44571e-17
6462.70275 1.42889e-17
6464.17005 1.43290e-17
6465.64740 1.42324e-17
6467.11470 1.34403e-17
6468.58200 1.36062e-17
6470.04930 1.40667e-17
6471.52665 1.36976e-17
6472.99395 1.40777e-17
6474.46125 1.53876e-17
6475.93860 1.54052e-17
6477.40590 1.43007e-17
6478.87320 1.37380e-17
6480.34050 1.45747e-17
6481.81785 1.48610e-17
6483.28515 1.46265e-17
6484.75245 1.47236e-17
6486.21975 1.54546e-17
6487.69710 1.53199e-17
6489.16440 1.50327e-17
6490.63170 1.50619e-17
6492.10905 1.55812e-17
6493.57635 1.59196e-17
6495.04365 1.59290e-17
6496.51095 1.66486e-17
6497.98830 1.58090e-17
6499.45560 1.61161e-17
6500.92290 1.65115e-17
6502.39020 1.60859e-17
6503.86755 1.58891e-17
6505.33485 1.55971e-17
6506.80215 1.53185e-17
6508.27950 1.48033e-17
6509.74680 1.47399e-17
6511.21410 1.53258e-17
6512.68140 1.55595e-17
6514.15875 1.53990e-17
6515.62605 1.48082e-17
6517.09335 1.40433e-17
6518.56065 1.50368e-17
6520.03800 1.55513e-17
6521.50530 1.49738e-17
6522.97260 1.47783e-17
6524.44995 1.48801e-17
6525.91725 1.50160e-17
6527.38455 1.46463e-17
6528.85185 1.35126e-17
6530.32920 1.43554e-17
6531.79650 1.43638e-17
6533.26380 1.38324e-17
6534.73110 1.46961e-17
6536.20845 1.45310e-17
6537.67575 1.41102e-17
6539.14305 1.37563e-17
6540.62040 1.32240e-17
6542.08770 1.27836e-17
6543.55500 1.31426e-17
6545.02230 1.28819e-17
6546.49965 1.26452e-17
6547.96695 1.34006e-17
6549.43425 1.25331e-17
6550.90155 1.19159e-17
6552.37890 1.15004e-17
6553.84620 1.18860e-17
6555.31350 1.15126e-17
6556.79085 1.24611e-17
6558.25815 1.18283e-17
6559.72545 1.05200e-17
6561.19275 9.66335e-18
6562.67010 1.05413e-17
6564.13740 1.03674e-17
6565.60470 9.33383e-18
6567.07200 9.53969e-18
6568.54935 9.85802e-18
6570.01665 9.34803e-18
6571.48395 9.42346e-18
6572.95125 9.43907e-18
6574.42860 9.17389e-18
6575.89590 9.15754e-18
6577.36320 8.88925e-18
6578.84055 8.88001e-18
6580.30785 8.99108e-18
6581.77515 9.63691e-18
6583.24245 9.75814e-18
6584.71980 9.27375e-18
6586.18710 9.76428e-18
6587.65440 9.26215e-18
6589.13175 9.17765e-18
6590.59905 9.29056e-18
6592.06635 9.05929e-18
6593.53365 9.03212e-18
6595.01100 1.05901e-17
6596.47830 1.22253e-17
6597.94560 1.33480e-17
6599.41290 1.29936e-17
6600.89025 1.20535e-17
6602.35755 1.05024e-17
6603.82485 1.01783e-17
6605.30220 9.80193e-18
6606.76950 9.38537e-18
6608.23680 9.52247e-18
6609.70410 9.79766e-18
6611.18145 1.10927e-17
6612.64875 1.13005e-17
6614.11605 1.09804e-17
6615.58335 1.15767e-17
6617.06070 1.23367e-17
6618.52800 1.33195e-17
6619.99530 1.41332e-17
6621.47265 1.39842e-17
6622.93995 1.37420e-17
6624.40725 1.35127e-17
6625.87455 1.26370e-17
6627.35190 1.28519e-17
6628.81920 1.32020e-17
6630.28650 1.36683e-17
6631.75380 1.43961e-17
6633.23115 1.41949e-17
6634.69845 1.50552e-17
6636.16575 1.56768e-17
6637.64310 1.51886e-17
6639.11040 1.50413e-17
6640.57770 1.55478e-17
6642.04500 1.61506e-17
6643.52235 1.63473e-17
6644.98965 1.66708e-17
6646.45695 1.63960e-17
6647.92425 1.59503e-17
6649.40160 1.58983e-17
6650.86890 1.56834e-17
6652.33620 1.56983e-17
6653.81355 1.60552e-17
6655.28085 1.61082e-17
6656.74815 1.62641e-17
6658.21545 1.68849e-17
6659.69280 1.69971e-17
6661.16010 1.66256e-17
6662.62740 1.68913e-17
6664.09470 1.70870e-17
6665.57205 1.72683e-17
6667.03935 1.67298e-17
6668.50665 1.62570e-17
6669.98400 1.62800e-17
6671.45130 1.72839e-17
6672.91860 1.74434e-17
6674.38590 1.63317e-17
6675.86325 1.62680e-17
6677.33055 1.62135e-17
6678.79785 1.60219e-17
6680.26515 1.64248e-17
6681.74250 1.61458e-17
6683.20980 1.69258e-17
6684.67710 1.66046e-17
6686.15445 1.52535e-17
6687.62175 1.58493e-17
6689.08905 1.63952e-17
6690.55635 1.52702e-17
6692.03370 1.52861e-17
6693.50100 1.62946e-17
6694.96830 1.58146e-17
6696.43560 1.59238e-17
6697.91295 1.62699e-17
6699.38025 1.65020e-17
6700.84755 1.57338e-17
6702.32490 1.58041e-17
6703.79220 1.56491e-17
6705.25950 1.57301e-17
6706.72680 1.57379e-17
6708.20415 1.49556e-17
6709.67145 1.48846e-17
6711.13875 1.58158e-17
6712.60605 1.52962e-17
6714.08340 1.41201e-17
6715.55070 1.50988e-17
6717.01800 1.64832e-17
6718.49535 1.65437e-17
6719.96265 1.51806e-17
6721.42995 1.45031e-17
6722.89725 1.46276e-17
6724.37460 1.51447e-17
6725.84190 1.46481e-17
6727.30920 1.51906e-17
6728.77650 1.52761e-17
6730.25385 1.48326e-17
6731.72115 1.43846e-17
6733.18845 1.50227e-17
6734.66580 1.44531e-17
6736.13310 1.39554e-17
6737.60040 1.46206e-17
6739.06770 1.43544e-17
6740.54505 1.46942e-17
6742.01235 1.49077e-17
6743.47965 1.47144e-17
6744.94695 1.41429e-17
6746.42430 1.37576e-17
6747.89160 1.36912e-17
6749.35890 1.40316e-17
6750.83625 1.46915e-17
6752.30355 1.51785e-17
6753.77085 1.52818e-17
6755.23815 1.42893e-17
6756.71550 1.38371e-17
6758.18280 1.39366e-17
6759.65010 1.34674e-17
6761.11740 1.34791e-17
6762.59475 1.33124e-17
6764.06205 1.33199e-17
6765.52935 1.36420e-17
6767.00670 1.44976e-17
6768.47400 1.44567e-17
6769.94130 1.41890e-17
6771.40860 1.31726e-17
6772.88595 1.32735e-17
6774.35325 1.32527e-17
6775.82055 1.32843e-17
6777.28785 1.31563e-17
6778.76520 1.32430e-17
6780.23250 1.31699e-17
6781.69980 1.27909e-17
6783.17715 1.30988e-17
6784.64445 1.39951e-17
6786.11175 1.33222e-17
6787.57905 1.35561e-17
6789.05640 1.35896e-17
6790.52370 1.33852e-17
6791.99100 1.35530e-17
6793.45830 1.34766e-17
6794.93565 1.28831e-17
6796.40295 1.33245e-17
6797.87025 1.39036e-17
6799.34760 1.39760e-17
6800.81490 1.36084e-17
6802.28220 1.31701e-17
6803.74950 1.30104e-17
6805.22685 1.34120e-17
6806.69415 1.32052e-17
6808.16145 1.27611e-17
6809.62875 1.33148e-17
6811.10610 1.30593e-17
6812.57340 1.27522e-17
6814.04070 1.31924e-17
6815.51805 1.24192e-17
6816.98535 1.25870e-17
6818.45265 1.30028e-17
6819.91995 1.27075e-17
6821.39730 1.29543e-17
6822.86460 1.24135e-17
6824.33190 1.27858e-17
6825.79920 1.28661e-17
6827.27655 1.30220e-17
6828.74385 1.38188e-17
6830.21115 1.39928e-17
6831.68850 1.29450e-17
6833.15580 1.28081e-17
6834.62310 1.26468e-17
6836.09040 1.19844e-17
6837.56775 1.27107e-17
6839.03505 1.29871e-17
6840.50235 1.27254e-17
6841.97970 1.23374e-17
6843.44700 1.23132e-17
6844.91430 1.29091e-17
6846.38160 1.28043e-17
6847.85895 1.24947e-17
6849.32625 1.23108e-17
6850.79355 1.23510e-17
6852.26085 1.26650e-17
6853.73820 1.19063e-17
6855.20550 1.15310e-17
6856.67280 1.19309e-17
6858.14010 1.24280e-17
6859.61745 1.27874e-17
6861.08475 1.28255e-17
6862.55205 1.18442e-17
6864.02940 1.11382e-17
6865.49670 1.16343e-17
6866.96400 1.20072e-17
6868.43130 1.15851e-17
6869.90865 1.05158e-17
6871.37595 1.09648e-17
6872.84325 1.15455e-17
6874.31055 1.17599e-17
6875.78790 1.17852e-17
6877.25520 1.16540e-17
6878.72250 1.18572e-17
6880.19985 1.24554e-17
6881.66715 1.17725e-17
6883.13445 1.10946e-17
6884.60175 1.16813e-17
6886.07910 1.14509e-17
6887.54640 1.16273e-17
6889.01370 1.10958e-17
6890.48100 1.01065e-17
6891.95835 1.11563e-17
6893.42565 1.18643e-17
6894.89295 1.01229e-17
6896.37030 1.01557e-17
6897.83760 1.16697e-17
6899.30490 1.09126e-17
6900.77220 9.84953e-18
6902.24955 1.06615e-17
6903.71685 1.10481e-17
6905.18415 1.07344e-17
6906.66150 1.00174e-17
6908.12880 1.07900e-17
6909.59610 1.01646e-17
6911.06340 9.20922e-18
6912.54075 9.76974e-18
6914.00805 1.01208e-17
6915.47535 9.46949e-18
6916.94265 9.81453e-18
6918.42000 9.08813e-18
6919.88730 8.89504e-18
6921.35460 9.29137e-18
6922.83195 9.75324e-18
6924.29925 8.80086e-18
6925.76655 9.28299e-18
6927.23385 9.12608e-18
6928.71120 8.78862e-18
6930.17850 9.36555e-18
6931.64580 8.73107e-18
6933.11310 8.05333e-18
6934.59045 7.93025e-18
6936.05775 7.86266e-18
6937.52505 7.35619e-18
6939.00240 7.13772e-18
6940.46970 7.04798e-18
6941.93700 7.06864e-18
6943.40430 7.30122e-18
6944.88165 6.73104e-18
6946.34895 7.47159e-18
6947.81625 6.97568e-18
6949.28355 6.55091e-18
6950.76090 7.99611e-18
6952.22820 7.49673e-18
6953.69550 7.18950e-18
6955.16280 7.66370e-18
6956.64015 7.61808e-18
6958.10745 6.27449e-18
6959.57475 6.06600e-18
6961.05210 6.32902e-18
6962.51940 6.83076e-18
6963.98670 7.24039e-18
6965.45400 6.47180e-18
6966.93135 6.32303e-18
6968.39865 7.08224e-18
6969.86595 7.04592e-18
6971.33325 7.45534e-18
6972.81060 7.12505e-18
6974.27790 7.45742e-18
6975.74520 7.56906e-18
6977.22255 8.00649e-18
6978.68985 8.18891e-18
6980.15715 8.58572e-18
6981.62445 8.49956e-18
6983.10180 8.86321e-18
6984.56910 9.15050e-18
6986.03640 8.78623e-18
6987.51375 8.79143e-18
6988.98105 9.24364e-18
6990.44835 9.75288e-18
6991.91565 9.75848e-18
6993.39300 1.01866e-17
6994.86030 1.10923e-17
6996.32760 1.11289e-17
6997.79490 1.11500e-17
6999.27225 1.05594e-17
7000.73955 1.14375e-17
7002.20685 1.17701e-17
7003.68420 1.30033e-17
7005.15150 1.22454e-17
7006.61880 1.17819e-17
7008.08610 1.29143e-17
7009.56345 1.37691e-17
7011.03075 1.37788e-17
7012.49805 1.37682e-17
7013.96535 1.38544e-17
7015.44270 1.39405e-17
7016.91000 1.40267e-17
7018.37730 1.41128e-17
7019.85465 1.41990e-17
7021.32195 1.38731e-17
7022.78925 1.55932e-17
7024.25655 1.52237e-17
7025.73390 1.48982e-17
7027.20120 1.44919e-17
7028.66850 1.48674e-17
7030.13580 1.53279e-17
7031.61315 1.51929e-17
7033.08045 1.55058e-17
7034.54775 1.58470e-17
7036.02510 1.63048e-17
7037.49240 1.62627e-17
7038.95970 1.51375e-17
7040.42700 1.55599e-17
7041.90435 1.42537e-17
7043.37165 1.45458e-17
7044.83895 1.54289e-17
7046.30625 1.57561e-17
7047.78360 1.55562e-17
7049.25090 1.48230e-17
7050.71820 1.48728e-17
7052.19555 1.55122e-17
7053.66285 1.58064e-17
7055.13015 1.48169e-17
7056.59745 1.58424e-17
7058.07480 1.53351e-17
7059.54210 1.47586e-17
7061.00940 1.49885e-17
7062.47670 1.52576e-17
7063.95405 1.48047e-17
7065.42135 1.43828e-17
7066.88865 1.46917e-17
7068.36600 1.48575e-17
7069.83330 1.50026e-17
7071.30060 1.43002e-17
7072.76790 1.35232e-17
7074.24525 1.35504e-17
7075.71255 1.42441e-17
7077.17985 1.37949e-17
7078.64715 1.39795e-17
7080.12450 1.42206e-17
7081.59180 1.45796e-17
7083.05910 1.42536e-17
7084.53645 1.38420e-17
7086.00375 1.49375e-17
7087.47105 1.46267e-17
7088.93835 1.45208e-17
7090.41570 1.45973e-17
7091.88300 1.45700e-17
7093.35030 1.31868e-17
7094.81760 1.21928e-17
7096.29495 1.34317e-17
7097.76225 1.42872e-17
7099.22955 1.29043e-17
7100.70690 1.27758e-17
7102.17420 1.32157e-17
7103.64150 1.29200e-17
7105.10880 1.33505e-17
7106.58615 1.36406e-17
7108.05345 1.34011e-17
7109.52075 1.29324e-17
7110.98805 1.24412e-17
7112.46540 1.31040e-17
7113.93270 1.35508e-17
7115.40000 1.26551e-17
7116.87735 1.26819e-17
7118.34465 1.29203e-17
7119.81195 1.20674e-17
7121.27925 1.20685e-17
7122.75660 1.24406e-17
7124.22390 1.15425e-17
7125.69120 1.11752e-17
7127.15850 1.20577e-17
7128.63585 1.17208e-17
7130.10315 1.06995e-17
7131.57045 1.15185e-17
7133.04780 1.19170e-17
7134.51510 1.17324e-17
7135.98240 1.18275e-17
7137.44970 1.14374e-17
7138.92705 1.11812e-17
7140.39435 1.06720e-17
7141.86165 1.06397e-17
7143.32895 1.09312e-17
7144.80630 1.13947e-17
7146.27360 1.14192e-17
7147.74090 1.12763e-17
7149.21825 1.12179e-17
7150.68555 1.15425e-17
7152.15285 1.19654e-17
7153.62015 1.11205e-17
7155.09750 1.01175e-17
7156.56480 1.03829e-17
7158.03210 1.09051e-17
7159.49940 1.08447e-17
7160.97675 1.02741e-17
7162.44405 9.71030e-18
7163.91135 9.49590e-18
7165.38870 1.09411e-17
7166.85600 1.18416e-17
7168.32330 1.04527e-17
7169.79060 9.73007e-18
7171.26795 9.36345e-18
7172.73525 9.15904e-18
7174.20255 8.83773e-18
7175.66985 9.08111e-18
7177.14720 9.71064e-18
7178.61450 9.13322e-18
7180.08180 9.48470e-18
7181.55915 1.00686e-17
7183.02645 9.64528e-18
7184.49375 1.00149e-17
7185.96105 1.01250e-17
7187.43840 9.67073e-18
7188.90570 9.10178e-18
7190.37300 9.17862e-18
7191.84030 9.89716e-18
7193.31765 1.02677e-17
7194.78495 9.52832e-18
7196.25225 9.01219e-18
7197.72960 1.01007e-17
7199.19690 1.03474e-17
7200.66420 9.72061e-18
7202.13150 1.00634e-17
7203.60885 1.04022e-17
7205.07615 9.57927e-18
7206.54345 9.55881e-18
7208.01075 9.56503e-18
7209.48810 9.95252e-18
7210.95540 1.11424e-17
7212.42270 1.02994e-17
7213.90005 1.01292e-17
7215.36735 1.07134e-17
7216.83465 1.09111e-17
7218.30195 1.05832e-17
7219.77930 1.03667e-17
7221.24660 1.05447e-17
7222.71390 1.09441e-17
7224.19125 1.05489e-17
7225.65855 9.99313e-18
7227.12585 1.01496e-17
7228.59315 1.08337e-17
7230.07050 1.06042e-17
7231.53780 1.16351e-17
7233.00510 1.18913e-17
7234.47240 1.15285e-17
7235.94975 1.20226e-17
7237.41705 1.20643e-17
7238.88435 1.23375e-17
7240.35165 1.32527e-17
7241.82900 1.28539e-17
7243.29630 1.23419e-17
7244.76360 1.24411e-17
7246.24095 1.16675e-17
7247.70825 1.30367e-17
7249.17555 1.26756e-17
7250.64285 1.19016e-17
7252.12020 1.13816e-17
7253.58750 1.12998e-17
7255.05480 1.15046e-17
7256.52210 1.10259e-17
7257.99945 1.13946e-17
7259.46675 1.19176e-17
7260.93405 1.26344e-17
7262.41140 1.22156e-17
7263.87870 1.16587e-17
7265.34600 1.18836e-17
7266.81330 1.22971e-17
7268.29065 1.10964e-17
7269.75795 1.07293e-17
7271.22525 1.13017e-17
7272.69255 1.11095e-17
7274.16990 1.10477e-17
7275.63720 1.20813e-17
7277.10450 1.25314e-17
7278.58185 1.22876e-17
7280.04915 1.27677e-17
7281.51645 1.25241e-17
7282.98375 1.28269e-17
7284.46110 1.32453e-17
7285.92840 1.23802e-17
7287.39570 1.28548e-17
7288.86300 1.29122e-17
7290.34035 1.27508e-17
7291.80765 1.31095e-17
7293.27495 1.20856e-17
7294.75230 1.30099e-17
7296.21960 1.26788e-17
7297.68690 1.39170e-17
7299.15420 1.20317e-17
7300.63155 1.12307e-17
7302.09885 1.08727e-17
7303.56615 1.11711e-17
7305.03345 1.14984e-17
7306.51080 1.22297e-17
7307.97810 1.15477e-17
7309.44540 1.25801e-17
7310.92275 1.30705e-17
7312.39005 1.16134e-17
7313.85735 1.27643e-17
7315.32465 1.21341e-17
7316.80200 1.07785e-17
7318.26930 1.14447e-17
7319.73660 1.04742e-17
7321.21395 1.11354e-17
7322.68125 1.20510e-17
7324.14855 1.25973e-17
7325.61585 1.27965e-17
7327.09320 1.23539e-17
7328.56050 1.32270e-17
7330.02780 1.14190e-17
7331.49510 1.02760e-17
7332.97245 1.17732e-17
7334.43975 1.30014e-17
7335.90705 1.21447e-17
7337.38440 1.23201e-17
7338.85170 1.24822e-17
7340.31900 1.23993e-17
7341.78630 1.19982e-17
7343.26365 1.14535e-17
7344.73095 1.07336e-17
7346.19825 1.13586e-17
7347.66555 1.14419e-17
7349.14290 1.11450e-17
7350.61020 1.08620e-17
7352.07750 1.21935e-17
7353.55485 1.14490e-17
7355.02215 1.22256e-17
7356.48945 1.23288e-17
7357.95675 1.25251e-17
7359.43410 1.22546e-17
7360.90140 1.11072e-17
7362.36870 1.09741e-17
7363.83600 1.03161e-17
7365.31335 1.02249e-17
7366.78065 1.13090e-17
7368.24795 1.28475e-17
7369.72530 1.17694e-17
7371.19260 1.02176e-17
7372.65990 9.70915e-18
7374.12720 1.17128e-17
7375.60455 1.03983e-17
7377.07185 1.02675e-17
7378.53915 1.08685e-17
7380.00645 1.16828e-17
7381.48380 1.14720e-17
7382.95110 1.08983e-17
7384.41840 1.08840e-17
7385.89575 1.03302e-17
7387.36305 1.08517e-17
7388.83035 1.02585e-17
7390.29765 1.00687e-17
7391.77500 1.07030e-17
7393.24230 1.15074e-17
7394.70960 9.69625e-18
7396.17690 9.30747e-18
7397.65425 1.02540e-17
7399.12155 1.04129e-17
7400.58885 9.73955e-18
7402.05615 1.06461e-17
7403.53350 1.09211e-17
7405.00080 9.64241e-18
7406.46810 1.01537e-17
7407.94545 1.03628e-17
7409.41275 9.81005e-18
7410.88005 9.87367e-18
7412.34735 9.54695e-18
7413.82470 9.80810e-18
7415.29200 9.93369e-18
7416.75930 9.74304e-18
7417.08366 9.74304e-18
7418.34660 9.85062e-18
7419.61973 9.89279e-18
7420.88267 9.88869e-18
7422.15579 9.53330e-18
7423.42891 9.42146e-18
7424.69186 1.03712e-17
7425.96498 1.10439e-17
7427.22792 1.02902e-17
7428.50104 9.34798e-18
7429.76399 9.45087e-18
7431.03711 9.62116e-18
7432.30005 9.10568e-18
7433.57317 8.64410e-18
7434.83612 8.98269e-18
7436.10924 1.01299e-17
7437.37218 1.01680e-17
7438.64530 9.55618e-18
7439.91843 9.76746e-18
7441.18137 1.07065e-17
7442.45449 1.08024e-17
7443.71743 1.04976e-17
7444.99056 1.03844e-17
7446.25350 9.80420e-18
7447.52662 9.60334e-18
7448.78956 1.01395e-17
7450.06269 1.01284e-17
7451.32563 9.79203e-18
7452.59875 9.61742e-18
7453.87188 9.69933e-18
7455.13482 9.85488e-18
7456.40794 9.93210e-18
7457.67088 9.86742e-18
7458.94401 9.27948e-18
7460.20695 8.56439e-18
7461.48007 8.66684e-18
7462.74301 9.50096e-18
7464.01614 9.71693e-18
7465.27908 9.59541e-18
7466.55220 1.00334e-17
7467.81514 9.66985e-18
7469.08827 8.74670e-18
7470.36139 9.00308e-18
7471.62433 9.48908e-18
7472.89746 9.29356e-18
7474.16040 9.05405e-18
7475.43352 8.83367e-18
7476.69646 9.10304e-18
7477.96959 9.49986e-18
7479.23253 9.14396e-18
7480.50565 8.83411e-18
7481.76859 9.42506e-18
7483.04172 1.00244e-17
7484.30466 9.58544e-18
7485.57778 8.58037e-18
7486.85091 8.70431e-18
7488.11385 9.27406e-18
7489.38698 9.20167e-18
7490.64991 8.88428e-18
7491.92304 9.32950e-18
7493.18598 9.38751e-18
7494.45910 8.53094e-18
7495.72204 8.38537e-18
7496.99517 8.55647e-18
7498.25811 8.44338e-18
7499.53124 8.74743e-18
7500.79417 9.21641e-18
7502.06730 9.19324e-18
7503.34043 8.57568e-18
7504.60336 7.97014e-18
7505.87649 8.02852e-18
7507.13943 8.52838e-18
7508.41255 9.05273e-18
7509.67550 9.64440e-18
7510.94862 9.49084e-18
7512.21156 9.11096e-18
7513.48469 9.42872e-18
7514.74762 9.81176e-18
7516.02075 8.73885e-18
7517.28369 7.66125e-18
7518.55681 7.86065e-18
7519.82994 8.84996e-18
7521.09288 1.01367e-17
7522.36600 1.04100e-17
7523.62895 9.88458e-18
7524.90207 9.86478e-18
7526.16501 9.39396e-18
7527.43813 8.48064e-18
7528.70107 7.91984e-18
7529.97420 7.73694e-18
7531.23714 8.01033e-18
7532.51026 8.40341e-18
7533.78339 8.44177e-18
7535.04633 8.86279e-18
7536.31945 9.85840e-18
7537.58239 9.86390e-18
7538.85552 8.71795e-18
7540.11846 8.57693e-18
7541.39158 9.24956e-18
7542.65452 9.10355e-18
7543.92765 8.91178e-18
7545.19059 8.25043e-18
7546.46371 7.69404e-18
7547.72665 8.32179e-18
7548.99978 8.37408e-18
7550.26272 8.36440e-18
7551.53584 8.35479e-18
7552.80897 8.34511e-18
7554.07191 8.33550e-18
7555.34503 8.32582e-18
7556.60797 8.31622e-18
7557.88110 8.30654e-18
7559.14404 8.29693e-18
7560.41716 8.28732e-18
7561.68010 8.27764e-18
7562.95323 8.26804e-18
7564.21617 8.25835e-18
7565.48929 8.24875e-18
7566.76242 8.23914e-18
7568.02536 8.22946e-18
7569.29849 8.21985e-18
7570.56142 8.21017e-18
7571.83455 8.20057e-18
7573.09749 8.19096e-18
7574.37061 8.18128e-18
7575.63355 8.17167e-18
7576.90668 8.16206e-18
7578.16962 8.15246e-18
7579.44275 8.14278e-18
7580.70568 8.13317e-18
7581.97881 8.12356e-18
7583.25194 8.11396e-18
7584.51487 8.10428e-18
7585.78800 8.09467e-18
7587.05094 8.08506e-18
7588.32406 8.07546e-18
7589.58700 8.06577e-18
7590.86013 8.05617e-18
7592.12307 8.04656e-18
7593.39620 8.03695e-18
7594.65913 8.02735e-18
7595.93226 8.01774e-18
7597.19520 8.00806e-18
7598.46832 7.99845e-18
7599.74145 7.98885e-18
7601.00439 7.97924e-18
7602.27751 7.96963e-18
7603.54046 7.96002e-18
7604.81358 7.95042e-18
7606.07652 7.94081e-18
7607.34965 7.93120e-18
7608.61258 7.92160e-18
7609.88571 7.91199e-18
7611.14865 7.90238e-18
7612.42177 7.89270e-18
7613.69490 7.88310e-18
7614.95784 7.87356e-18
7616.23096 7.86395e-18
7617.49391 7.85435e-18
7618.76703 7.84474e-18
7620.02997 7.83513e-18
7621.30309 7.82553e-18
7622.56603 7.81592e-18
7623.83916 7.80631e-18
7625.10210 7.79671e-18
7626.37522 7.78710e-18
7627.63817 7.77749e-18
7628.91129 7.76788e-18
7630.17423 7.75828e-18
7631.44735 7.74867e-18
7632.72048 7.73914e-18
7633.98342 7.72953e-18
7635.25654 7.71992e-18
7636.51948 7.71032e-18
7637.79261 7.70071e-18
7639.05555 7.69110e-18
7640.32867 7.68157e-18
7641.59161 7.67196e-18
7642.86474 7.66235e-18
7644.12768 7.65275e-18
7645.40080 7.64321e-18
7646.67393 7.63361e-18
7647.93687 7.62400e-18
7649.21000 7.61439e-18
7650.47293 7.60486e-18
7651.74606 7.59525e-18
7653.00900 7.58564e-18
7654.28212 7.57611e-18
7655.54506 7.56650e-18
7656.81819 7.55690e-18
7658.08113 7.54736e-18
7659.35425 7.53776e-18
7660.61719 7.52815e-18
7661.89032 7.51862e-18
7663.16345 7.50901e-18
7664.42638 7.49940e-18
7665.69951 7.48987e-18
7666.96245 7.48026e-18
7668.23557 7.47073e-18
7669.49851 7.46112e-18
7670.77164 7.45159e-18
7672.03458 7.44198e-18
7673.30771 7.43245e-18
7674.57064 7.42284e-18
7675.84377 7.41331e-18
7677.10671 7.40370e-18
7678.37983 7.39416e-18
7679.65296 7.38456e-18
7680.91590 7.37502e-18
7682.18902 7.28751e-18
7683.45197 7.28375e-18
7684.72509 7.36644e-18
7685.98803 8.07113e-18
7687.26116 8.47059e-18
7688.52409 8.14842e-18
7689.79722 7.97022e-18
7691.06016 8.04297e-18
7692.33328 8.14410e-18
7693.59623 8.14366e-18
7694.86935 8.53072e-18
7696.14247 8.88853e-18
7697.40542 8.35817e-18
7698.67854 8.56967e-18
7699.94148 8.77611e-18
7701.21460 7.64483e-18
7702.47754 6.93561e-18
7703.75067 7.77448e-18
7705.01361 8.39109e-18
7706.28673 8.09049e-18
7707.54968 7.54956e-18
7708.82280 7.89087e-18
7710.08574 8.49098e-18
7711.35886 8.56204e-18
7712.63199 8.35508e-18
7713.89493 8.19353e-18
7715.16805 8.62276e-18
7716.43099 8.39124e-18
7717.70412 7.44579e-18
7718.96706 7.23019e-18
7720.24018 7.28957e-18
7721.50312 7.61652e-18
7722.77625 7.09111e-18
7724.03919 6.47013e-18
7725.31231 6.94390e-18
7726.57525 7.61696e-18
7727.84838 6.99520e-18
7729.12150 6.90457e-18
7730.38444 7.37378e-18
7731.65757 7.63991e-18
7732.92051 7.47476e-18
7734.19363 6.94682e-18
7735.45657 6.64356e-18
7736.72970 6.74176e-18
7737.99264 7.55338e-18
7739.26576 8.34166e-18
7740.52870 7.76488e-18
7741.80183 7.00858e-18
7743.07496 7.28853e-18
7744.33789 7.85581e-18
7745.61102 7.36791e-18
7746.87396 6.09471e-18
7748.14708 6.52898e-18
7749.41002 7.00071e-18
7750.68315 6.00024e-18
7751.94609 6.70330e-18
7753.21922 8.09936e-18
7754.48215 8.39967e-18
7755.75528 7.61278e-18
7757.01822 6.61221e-18
7758.29134 6.19987e-18
7759.56447 6.37362e-18
7760.82741 6.68748e-18
7762.10053 6.99642e-18
7763.36348 7.09586e-18
7764.63660 6.90932e-18
7765.89954 6.58667e-18
7767.17267 6.31201e-18
7768.43560 6.27555e-18
7769.70873 6.29842e-18
7770.97167 6.43722e-18
7772.24479 6.13898e-18
7773.50774 5.38716e-18
7774.78086 5.33595e-18
7776.05399 5.87696e-18
7777.31693 6.26202e-18
7778.59005 6.76055e-18
7779.85299 7.43978e-18
7781.12612 7.54106e-18
7782.38905 6.99161e-18
7783.66218 6.46531e-18
7784.92512 6.09275e-18
7786.19825 5.75273e-18
7787.46119 5.69100e-18
7788.73431 6.21025e-18
7789.99725 6.58933e-18
7791.27038 6.38431e-18
7792.54350 6.54475e-18
7793.80644 6.31767e-18
7795.07956 6.01736e-18
7796.34250 6.47639e-18
7797.61563 6.25521e-18
7798.87857 6.36330e-18
7800.15169 6.72319e-18
7801.41464 6.88731e-18
7802.68776 7.25282e-18
7803.95070 7.84606e-18
7805.22382 8.26165e-18
7806.48676 8.14534e-18
7807.75989 7.69697e-18
7809.03301 7.59401e-18
7810.29595 7.71604e-18
7811.56908 6.92639e-18
7812.83202 6.00638e-18
7814.10514 5.97071e-18
7815.36808 5.89557e-18
7816.64121 6.34530e-18
7817.90415 6.55832e-18
7819.17727 5.87824e-18
7820.44021 6.23002e-18
7821.71334 7.40869e-18
7822.98646 8.02390e-18
7824.24940 8.92820e-18
7825.52253 9.77406e-18
7826.78547 9.44288e-18
7828.05859 7.90040e-18
7829.32153 6.37077e-18
7830.59466 6.22628e-18
7831.85760 6.91409e-18
7833.13072 6.85968e-18
7834.39366 6.74907e-18
7835.66679 7.07125e-18
7836.92973 7.24126e-18
7838.20285 7.90246e-18
7839.47598 7.90268e-18
7840.73892 7.18891e-18
7842.01204 7.10018e-18
7843.27499 8.18414e-18
7844.54811 8.71795e-18
7845.81105 8.25865e-18
7847.08417 8.53923e-18
7848.34711 9.55970e-18
7849.62024 9.45160e-18
7850.88318 8.72814e-18
7852.15630 8.85443e-18
7853.41925 1.00067e-17
7854.69237 1.01688e-17
7855.96550 9.10766e-18
7857.22843 8.88912e-18
7858.50156 8.96231e-18
7859.76450 9.18393e-18
7861.03762 8.26187e-18
7862.30056 7.44865e-18
7863.57369 7.15430e-18
7864.83663 7.16932e-18
7866.10975 8.25945e-18
7867.37270 9.29048e-18
7868.64582 9.68085e-18
7869.90876 8.66038e-18
7871.18188 6.83088e-18
7872.45501 6.77305e-18
7873.71795 7.95262e-18
7874.99107 8.36249e-18
7876.25401 8.37188e-18
7877.52714 8.41427e-18
7878.79008 8.22147e-18
7880.06321 8.54238e-18
7881.32614 9.55772e-18
7882.59927 9.46979e-18
7883.86221 8.49750e-18
7885.13533 8.41918e-18
7886.39827 9.30801e-18
7887.67140 1.02381e-17
7888.94452 1.10998e-17
7890.20747 1.14018e-17
7891.48059 1.02315e-17
7892.74353 9.48182e-18
7894.01665 9.93291e-18
7895.27959 9.67828e-18
7896.55272 8.72741e-18
7897.81566 8.31944e-18
7899.08878 8.42131e-18
7900.35173 8.29627e-18
7901.62485 8.91405e-18
7902.89797 9.52083e-18
7904.16091 9.32620e-18
7905.43404 9.21106e-18
7906.69698 9.14183e-18
7907.97010 8.38420e-18
7909.23304 8.53366e-18
7910.50617 8.76936e-18
7911.76911 8.52698e-18
7913.04223 8.83404e-18
7914.30517 9.16273e-18
7915.57830 9.08551e-18
7916.84124 8.85450e-18
7918.11436 8.92036e-18
7919.37730 9.55464e-18
7920.65043 9.79533e-18
7921.92355 8.50660e-18
7923.18649 8.24031e-18
7924.45962 8.89938e-18
7925.72256 8.93026e-18
7926.99568 8.79114e-18
7928.25862 9.28278e-18
7929.53175 9.69618e-18
7930.79469 9.06696e-18
7932.06781 7.88764e-18
7933.33075 7.28190e-18
7934.60388 7.86300e-18
7935.87700 8.48885e-18
7937.13994 8.61154e-18
7938.41307 9.16743e-18
7939.67601 8.90664e-18
7940.94913 8.07370e-18
7942.21207 7.99823e-18
7943.48520 9.02009e-18
7944.74814 9.41325e-18
7946.02126 8.46824e-18
7947.28420 8.24501e-18
7948.55733 8.57575e-18
7949.82027 8.77706e-18
7951.09339 9.36067e-18
7952.36652 9.41149e-18
7953.62946 8.60670e-18
7954.90258 8.04898e-18
7956.16552 8.04392e-18
7957.43865 8.19800e-18
7958.70159 8.84306e-18
7959.97472 1.00175e-17
7961.23765 1.04256e-17
7962.51078 9.75675e-18
7963.77372 9.21077e-18
7965.04684 9.25499e-18
7966.30978 9.89558e-18
7967.58291 1.06388e-17
7968.85603 9.94596e-18
7970.11898 8.84343e-18
7971.39210 9.26467e-18
7972.65504 9.60950e-18
7973.92817 9.30273e-18
7975.19110 9.28770e-18
7976.46423 9.05801e-18
7977.72717 8.24757e-18
7979.00029 7.85039e-18
7980.26324 9.35766e-18
7981.53636 1.00609e-17
7982.79930 8.70842e-18
7984.07243 8.03754e-18
7985.34555 8.47330e-18
7986.60849 9.01958e-18
7987.88161 9.30882e-18
7989.14455 8.41287e-18
7990.41768 7.57692e-18
7991.68062 8.71612e-18
7992.95374 9.73534e-18
7994.21669 8.83727e-18
7995.48981 7.74251e-18
7996.75275 7.34525e-18
7998.02587 7.54318e-18
7999.28881 8.21993e-18
8000.56194 8.78014e-18
8001.83506 8.35626e-18
8003.09800 8.03842e-18
8004.37113 8.39887e-18
8005.63407 8.40774e-18
8006.90719 8.19829e-18
8008.17013 8.39190e-18
8009.44326 8.71524e-18
8010.70620 8.53050e-18
8011.97932 7.86146e-18
8013.24226 7.64607e-18
8014.51539 8.29209e-18
8015.78851 8.65254e-18
8017.05145 8.19859e-18
8018.32458 7.71046e-18
8019.58752 7.87811e-18
8020.86064 8.29774e-18
8022.12358 8.60905e-18
8023.39671 8.75865e-18
8024.65965 9.06798e-18
8025.93277 1.01363e-17
8027.19571 1.06196e-17
8028.46884 9.84710e-18
8029.73178 9.10370e-18
8031.00490 8.23459e-18
8032.27803 7.66529e-18
8033.54097 7.71457e-18
8034.81409 8.15092e-18
8036.07703 8.63317e-18
8037.35016 8.22946e-18
8038.61310 7.93135e-18
8039.88623 7.84848e-18
8041.14916 7.59723e-18
8042.42229 7.66719e-18
8043.68523 7.54311e-18
8044.95835 8.02302e-18
8046.22129 8.41163e-18
8047.49442 8.47367e-18
8048.76754 8.39483e-18
8050.03049 7.94220e-18
8051.30361 7.51400e-18
8052.56655 7.62943e-18
8053.83968 8.10956e-18
8055.10261 8.35890e-18
8056.37574 8.97052e-18
8057.63868 9.98908e-18
8058.91180 9.66384e-18
8060.17475 8.46472e-18
8061.44787 8.18935e-18
8062.71081 8.72477e-18
8063.98394 8.94243e-18
8065.25706 8.25872e-18
8066.52000 7.93788e-18
8067.79312 8.38061e-18
8069.05606 8.76665e-18
8070.32919 8.91339e-18
8071.59213 8.44089e-18
8072.86525 7.93465e-18
8074.12820 8.18869e-18
8075.40132 8.15370e-18
8076.66426 7.85068e-18
8077.93739 7.80617e-18
8079.20032 7.77815e-18
8080.47345 7.55734e-18
8081.74657 7.20015e-18
8083.00951 7.56892e-18
8084.28264 7.94184e-18
8085.54558 8.16514e-18
8086.81870 8.38677e-18
8088.08165 7.52104e-18
8089.35477 6.60846e-18
8090.61771 7.20409e-18
8091.89083 7.91192e-18
8093.15377 7.73826e-18
8094.42690 7.51444e-18
8095.70002 7.37803e-18
8096.96296 6.82693e-18
8098.23609 7.12512e-18
8099.49903 8.61983e-18
8100.77215 9.86866e-18
8102.03509 9.51145e-18
8103.30822 8.26708e-18
8104.57116 7.37722e-18
8105.84428 6.84488e-18
8107.10722 7.39739e-18
8108.38035 8.11198e-18
8109.64329 6.91215e-18
8110.91641 6.11228e-18
8112.17935 6.72676e-18
8113.45248 7.18962e-18
8114.72560 7.36292e-18
8115.98854 6.97447e-18
8117.26167 6.53882e-18
8118.52461 7.00801e-18
8119.79774 7.39622e-18
8121.06067 7.17129e-18
8122.33380 7.33345e-18
8123.59674 7.08049e-18
8124.86986 6.55683e-18
8126.13280 6.70768e-18
8127.40593 6.34647e-18
8128.67905 6.01463e-18
8129.94200 6.15463e-18
8131.21512 6.80629e-18
8132.47806 7.01947e-18
8133.75119 7.45474e-18
8135.01412 7.84445e-18
8136.28725 7.19996e-18
8137.55019 6.39998e-18
8138.82331 6.04127e-18
8140.08625 6.88826e-18
8141.35938 8.15722e-18
8142.62232 8.00146e-18
8143.89545 7.09117e-18
8145.16857 7.07690e-18
8146.43151 7.52324e-18
8147.70464 7.40854e-18
8148.96757 7.25366e-18
8150.24070 7.26077e-18
8151.50364 7.35251e-18
8152.77676 7.66998e-18
8154.03971 7.47989e-18
8155.31283 7.02838e-18
8156.57577 7.05315e-18
8157.84890 7.53321e-18
8159.11183 7.58799e-18
8160.38496 6.86354e-18
8161.65808 6.98818e-18
8162.92102 6.96785e-18
8164.19415 6.44500e-18
8165.45709 6.82247e-18
8166.73021 7.48576e-18
8167.99316 7.35691e-18
8169.26628 7.29778e-18
8170.52922 7.88097e-18
8171.80234 7.80008e-18
8173.06528 7.62840e-18
8174.33841 7.75835e-18
8175.60135 7.26423e-18
8176.87447 6.71452e-18
8178.14760 6.89825e-18
8179.41054 7.47300e-18
8180.68366 7.39292e-18
8181.94660 6.87671e-18
8183.21973 7.19602e-18
8184.48267 7.45452e-18
8185.75579 6.99416e-18
8187.01873 7.07602e-18
8188.29186 7.41565e-18
8189.55480 7.17717e-18
8190.82792 6.71326e-18
8192.09087 6.35516e-18
8193.36399 6.78993e-18
8194.63711 7.09477e-18
8195.90006 6.87093e-18
8197.17318 7.01111e-18
8198.43612 7.26580e-18
8199.70925 7.26346e-18
8200.97219 7.00225e-18
8202.24531 7.70284e-18
8203.50825 7.72806e-18
8204.78138 6.73837e-18
8206.04431 6.61639e-18
8207.31744 7.31941e-18
8208.59056 8.16111e-18
8209.85350 8.10340e-18
8211.12663 6.69709e-18
8212.38957 5.89071e-18
8213.66269 6.35454e-18
8214.92563 7.21069e-18
8216.19876 7.40942e-18
8217.46170 6.97451e-18
8218.73482 6.90653e-18
8219.99777 6.80151e-18
8221.27089 6.64722e-18
8222.53383 7.09702e-18
8223.80696 7.22439e-18
8225.08008 6.53677e-18
8226.34302 6.06437e-18
8227.61614 5.85148e-18
8228.87908 5.70928e-18
8230.15221 6.19390e-18
8231.41515 6.90682e-18
8232.68827 6.94613e-18
8233.95121 6.48002e-18
8235.22434 6.54081e-18
8236.48728 7.65927e-18
8237.76040 8.05448e-18
8239.02334 7.62877e-18
8240.29647 7.63317e-18
8241.56959 7.39416e-18
8242.83253 7.09020e-18
8244.10566 6.82343e-18
8245.36860 7.04219e-18
8246.64172 7.37847e-18
8247.90467 7.85721e-18
8249.17779 7.19940e-18
8250.44073 5.99880e-18
8251.71385 6.15847e-18
8252.97679 6.28379e-18
8254.24992 5.98111e-18
8255.51286 5.95732e-18
8256.78599 5.77508e-18
8258.05911 6.24049e-18
8259.32205 6.86819e-18
8260.59518 6.86871e-18
8261.85811 6.43357e-18
8263.13124 6.18786e-18
8264.39418 6.74896e-18
8265.66730 7.38060e-18
8266.93024 7.17109e-18
8268.20337 7.33253e-18
8269.46631 7.53270e-18
8270.73943 6.61143e-18
8272.00238 6.23424e-18
8273.27550 6.94967e-18
8274.54862 7.51077e-18
8275.81156 6.95958e-18
8277.08469 6.55430e-18
8278.34763 6.70759e-18
8279.62075 6.66807e-18
8280.88370 6.86319e-18
8282.15682 7.82413e-18
8283.41976 8.93664e-18
8284.69289 8.99919e-18
8285.95582 7.83125e-18
8287.22895 5.68223e-18
8288.49189 5.33192e-18
8289.76501 6.62563e-18
8291.03814 7.62356e-18
8292.30108 7.49779e-18
8293.57421 6.66372e-18
8294.83714 6.71667e-18
8296.11027 6.19390e-18
8297.37321 5.53643e-18
8298.64633 6.23454e-18
8299.90927 6.91494e-18
8301.18240 7.85948e-18
8302.44534 7.68215e-18
8303.71846 6.73410e-18
8304.98141 6.83721e-18
8306.25453 7.40839e-18
8307.52765 8.07025e-18
8308.79060 8.29260e-18
8310.06372 8.16507e-18
8311.32666 7.12559e-18
8312.59978 5.68212e-18
8313.86273 6.25219e-18
8315.13585 7.63346e-18
8316.39879 7.46486e-18
8317.67191 6.52403e-18
8318.93485 6.03337e-18
8320.20798 6.06918e-18
8321.48110 6.48593e-18
8322.74404 6.85759e-18
8324.01717 6.68901e-18
8325.28011 6.64536e-18
8326.55323 6.76165e-18
8327.81617 6.16713e-18
8329.08930 6.40302e-18
8330.35224 7.15985e-18
8331.62536 6.96855e-18
8332.88830 6.58424e-18
8334.16143 5.76432e-18
8335.42437 5.32280e-18
8336.69750 6.40445e-18
8337.97062 9.02156e-18
8339.23356 1.12396e-17
8340.50669 1.05546e-17
8341.76962 8.62782e-18
8343.04275 6.88274e-18
8344.30569 5.91956e-18
8345.57881 7.02350e-18
8346.84175 9.20739e-18
8348.11488 1.03286e-17
8349.37782 8.90694e-18
8350.65094 7.73019e-18
8351.91388 8.02720e-18
8353.18701 8.30155e-18
8354.46013 7.43457e-18
8355.72307 6.90450e-18
8356.99620 7.48070e-18
8358.25914 7.53761e-18
8359.53226 6.91737e-18
8360.79521 6.68118e-18
8362.06833 6.73906e-18
8363.33127 6.90171e-18
8364.60440 8.24735e-18
8365.86733 8.77185e-18
8367.14046 7.12353e-18
8368.41359 6.09251e-18
8369.67652 6.94492e-18
8370.94965 7.87957e-18
8372.21259 7.39666e-18
8373.48571 6.65298e-18
8374.74865 6.71687e-18
8376.02178 6.22511e-18
8377.28472 6.35487e-18
8378.55785 7.21495e-18
8379.82078 7.05699e-18
8381.09391 6.31279e-18
8382.35685 6.49900e-18
8383.62997 7.18424e-18
8384.89292 6.36611e-18
8386.16604 4.85786e-18
8387.43916 4.92426e-18
8388.70211 5.60360e-18
8389.97523 5.77250e-18
8391.23817 5.56781e-18
8392.51130 5.09093e-18
8393.77423 5.44526e-18
8395.04736 5.43021e-18
8396.31030 3.87947e-18
8397.58342 4.38708e-18
8398.84637 4.82877e-18
8400.11949 3.11295e-18
8401.39262 5.01635e-18
8402.65556 8.27882e-18
8403.92868 7.05331e-18
8405.19162 4.98336e-18
8406.46474 4.65888e-18
8407.72768 4.54935e-18
8409.00081 5.22964e-18
8410.26375 6.25363e-18
8411.53687 6.63284e-18
8412.79982 6.65542e-18
8414.07294 7.55316e-18
8415.33588 7.04919e-18
8416.60900 4.95988e-18
8417.87194 4.23558e-18
8419.14507 4.84722e-18
8420.41819 5.27346e-18
8421.68113 4.73402e-18
8422.95426 4.63212e-18
8424.21720 5.97032e-18
8425.49033 6.97033e-18
8426.75326 5.97339e-18
8428.02639 5.69035e-18
8429.28933 6.23575e-18
8430.56245 5.37620e-18
8431.82539 5.05927e-18
8433.09852 5.01488e-18
8434.37164 4.08974e-18
8435.63458 3.90642e-18
8436.90771 4.22633e-18
8438.17065 3.67776e-18
8439.44377 3.95181e-18
8440.70671 5.40574e-18
8441.97984 5.83169e-18
8443.24278 5.00711e-18
8444.51590 4.22844e-18
8445.77885 4.40778e-18
8447.05197 5.47362e-18
8448.31491 6.52434e-18
8449.58804 5.62847e-18
8450.86116 3.78837e-18
8452.12410 3.05379e-18
8453.39723 3.17415e-18
8454.66016 2.92729e-18
8455.93329 2.61511e-18
8457.19623 3.20280e-18
8458.46935 3.70456e-18
8459.73229 4.83284e-18
8461.00542 5.43125e-18
8462.26836 3.53280e-18
8463.54148 2.64742e-18
8464.80442 4.58706e-18
8466.07755 5.91187e-18
8467.35067 6.36385e-18
8468.61362 6.13073e-18
8469.88674 4.39297e-18
8471.14968 2.75593e-18
8472.42281 2.66296e-18
8473.68575 3.45466e-18
8474.95887 3.52667e-18
8476.22181 3.04956e-18
8477.49494 3.69842e-18
8478.75787 5.00113e-18
8480.03100 5.14397e-18
8481.30413 4.07385e-18
8482.56706 3.72488e-18
8483.84019 4.20229e-18
8485.10313 3.60037e-18
8486.37625 3.06465e-18
8487.63919 3.68649e-18
8488.91232 3.80958e-18
8490.17526 3.67939e-18
8491.44838 3.80029e-18
8492.71133 3.72835e-18
8493.98445 4.15397e-18
8495.24739 5.53617e-18
8496.52052 5.42011e-18
8497.79364 4.13419e-18
8499.05658 4.26896e-18
8500.32971 4.85236e-18
8501.59265 4.72352e-18
8502.86577 3.36874e-18
8504.12871 2.41510e-18
8505.40183 3.83394e-18
8506.66477 4.78245e-18
8507.93790 4.56470e-18
8509.20084 4.30963e-18
8510.47396 3.67982e-18
8511.73690 3.50823e-18
8513.01003 3.47600e-18
8514.27297 3.71854e-18
8515.54609 4.30097e-18
8516.81922 4.43464e-18
8518.08216 4.25548e-18
8519.35528 4.48549e-18
8520.61823 4.59881e-18
8521.89135 3.93527e-18
8523.15429 3.82973e-18
8524.42742 4.45671e-18
8525.69035 3.95839e-18
8526.96348 3.01343e-18
8528.23661 2.62761e-18
8529.49954 2.49989e-18
8530.77267 2.44168e-18
8532.03561 2.81005e-18
8533.30873 3.49192e-18
8534.57167 3.72207e-18
8535.84480 3.90694e-18
8537.10774 4.41715e-18
8538.38087 4.25061e-18
8539.64380 3.47126e-18
8540.91693 3.06235e-18
8542.17987 3.79488e-18
8543.45299 4.93903e-18
8544.71594 4.88773e-18
8545.98906 4.09276e-18
8547.26218 3.79848e-18
8548.52513 4.28123e-18
8549.79825 5.02179e-18
8551.06119 5.61897e-18
8552.33432 5.41577e-18
8553.59725 4.69742e-18
8554.87038 4.46311e-18
8556.13332 4.62726e-18
8557.40644 4.80937e-18
8558.66938 4.77894e-18
8559.94251 4.81369e-18
8561.21563 4.77020e-18
8562.47858 4.43670e-18
8563.75170 3.97934e-18
8565.01464 3.75397e-18
8566.28777 4.10493e-18
8567.55070 4.87846e-18
8568.82383 5.44056e-18
8570.08677 4.97646e-18
8571.35989 4.34083e-18
8572.62284 5.01708e-18
8573.89596 5.42761e-18
8575.15890 4.70258e-18
8576.43203 4.37427e-18
8577.69496 4.39787e-18
8578.96809 4.10335e-18
8580.24121 3.21983e-18
8581.50415 3.18274e-18
8582.77728 4.11167e-18
8584.04022 4.38644e-18
8585.31335 4.03088e-18
8586.57629 4.26447e-18
8587.84941 4.72944e-18
8589.11235 4.37497e-18
8590.38547 3.77161e-18
8591.64841 3.75833e-18
8592.92154 3.80063e-18
8594.19466 3.94875e-18
8595.45760 4.76818e-18
8596.73073 5.40208e-18
8597.99367 6.05123e-18
8599.26679 6.58350e-18
8600.52973 5.69428e-18
8601.80286 5.41105e-18
8603.06580 6.05242e-18
8604.33892 5.68915e-18
8605.60187 5.43096e-18
8606.87499 6.31499e-18
8608.13793 6.40009e-18
8609.41106 5.91464e-18
8610.68418 6.29985e-18
8611.94712 6.40709e-18
8613.22025 5.32339e-18
8614.48318 4.02759e-18
8615.75631 4.11251e-18
8617.01925 5.39782e-18
8618.29237 5.00036e-18
8619.55531 4.10531e-18
8620.82844 5.25747e-18
8622.09138 4.60005e-18
8623.36450 2.92157e-18
8624.62744 4.40019e-18
8625.90057 5.94424e-18
8627.17369 5.04799e-18
8628.43663 3.28696e-18
8629.70976 1.98105e-18
8630.97270 4.10070e-18
8632.24582 6.05238e-18
8633.50877 4.14648e-18
8634.78189 3.59762e-18
8636.04483 5.85355e-18
8637.31796 6.49458e-18
8638.58089 5.77824e-18
8639.85402 5.20356e-18
8641.12715 5.00618e-18
8642.39008 4.88999e-18
8643.66321 5.13727e-18
8644.92615 5.39776e-18
8646.19927 4.90393e-18
8647.46221 4.94942e-18
8648.73534 6.16064e-18
8649.99828 6.85048e-18
8651.27140 7.17534e-18
8652.53435 7.28560e-18
8653.80747 6.74914e-18
8655.07041 6.63280e-18
8656.34353 6.56827e-18
8657.61666 6.78191e-18
8658.87960 6.69167e-18
8660.15272 5.80633e-18
8661.41567 6.71249e-18
8662.68879 7.13864e-18
8663.95173 7.67577e-18
8665.22486 9.44948e-18
8666.48779 9.80611e-18
8667.76092 8.18099e-18
8669.02386 6.33874e-18
8670.29698 5.45859e-18
8671.55992 6.15134e-18
8672.83305 7.11674e-18
8674.09599 6.50558e-18
8675.36912 5.74379e-18
8676.64224 5.89859e-18
8677.90518 6.67965e-18
8679.17830 7.71369e-18
8680.44124 7.28492e-18
8681.71437 6.00913e-18
8682.97731 5.53580e-18
8684.25043 6.22599e-18
8685.51338 6.80492e-18
8686.78650 7.60552e-18
8688.05962 8.16830e-18
8689.32256 7.18326e-18
8690.59569 6.71697e-18
8691.85863 7.14178e-18
8693.13175 7.50256e-18
8694.39469 6.72523e-18
8695.66782 4.96835e-18
8696.93076 4.98290e-18
8698.20388 6.68281e-18
8699.46682 7.21393e-18
8700.73995 7.15549e-18
8702.00289 7.41309e-18
8703.27601 7.29970e-18
8704.53895 6.59738e-18
8705.81208 7.20673e-18
8707.07502 8.15246e-18
8708.34814 7.27707e-18
8709.62127 6.97602e-18
8710.88421 7.84298e-18
8712.15733 8.08763e-18
8713.42027 7.66932e-18
8714.69340 7.81533e-18
8715.95634 8.06856e-18
8717.22946 8.25762e-18
8718.49240 8.94691e-18
8719.76553 9.31505e-18
8721.02847 8.97536e-18
8722.30160 8.26070e-18
8723.57472 8.29216e-18
8724.83766 9.02926e-18
8726.11079 9.44280e-18
8727.37372 1.00541e-17
8728.64685 1.07061e-17
8729.90979 1.00264e-17
8731.18291 8.65422e-18
8732.44585 8.30118e-18
8733.71898 9.30090e-18
8734.98192 1.04675e-17
8736.25504 1.04734e-17
8737.51798 9.39792e-18
8738.79111 8.77119e-18
8740.06423 9.28799e-18
8741.32717 9.65892e-18
8742.60030 9.40254e-18
8743.86324 9.75235e-18
8745.13637 1.04189e-17
8746.39931 1.10538e-17
8747.67243 1.21010e-17
8748.93537 1.16460e-17
8750.20850 1.01033e-17
8751.47143 1.02968e-17
8752.74456 1.09031e-17
8754.00750 1.00717e-17
8755.28062 9.21084e-18
8756.55375 8.80375e-18
8757.81669 8.86506e-18
8759.08981 9.80596e-18
8760.35275 1.06515e-17
8761.62588 9.59497e-18
8762.88882 1.01195e-17
8764.16194 1.38535e-17
8765.42488 1.59071e-17
8766.69801 1.55752e-17
8767.96095 1.52248e-17
8769.23408 1.50215e-17
8770.50720 1.31345e-17
8771.77014 1.23396e-17
8773.04327 1.59206e-17
8774.30621 1.83970e-17
8775.57933 1.65444e-17
8776.84227 1.58495e-17
8778.11539 1.67412e-17
8779.37833 1.51633e-17
8780.65146 1.21781e-17
8781.91440 1.05050e-17
8783.18752 1.06053e-17
8784.45046 1.17483e-17
8785.72359 1.22026e-17
8786.99671 1.24335e-17
8788.25965 1.29359e-17
8789.53278 1.34211e-17
8790.79572 1.35693e-17
8792.06884 1.30092e-17
8793.33179 1.11819e-17
8794.60491 1.00575e-17
8795.86785 1.15433e-17
8797.14098 1.19941e-17
8798.40391 1.06984e-17
8799.67704 1.05558e-17
8800.93998 1.18785e-17
8802.21310 1.23289e-17
8803.48623 1.11154e-17
8804.74917 1.13973e-17
8806.02229 1.23752e-17
8807.28523 1.08337e-17
8808.55836 9.15276e-18
8809.82130 9.40988e-18
8811.09442 1.01869e-17
8812.35736 1.10318e-17
8813.63049 1.09772e-17
8814.89343 1.07672e-17
8816.16655 1.08753e-17
8817.43968 1.10278e-17
8818.70262 1.14113e-17
8819.96556 1.20139e-17
8821.23869 1.36884e-17
8822.51181 1.65540e-17
8823.77475 1.73229e-17
8825.04788 1.54651e-17
8826.31081 1.57459e-17
8827.58394 1.77049e-17
8828.84688 1.82383e-17
8830.12000 1.73954e-17
8831.38294 1.44263e-17
8832.65607 1.25938e-17
8833.91901 1.35138e-17
8835.19213 1.41997e-17
8836.46526 1.34941e-17
8837.72820 1.34169e-17
8839.00133 1.38050e-17
8840.26426 1.32877e-17
8841.53739 1.22904e-17
8842.80033 1.09367e-17
8844.07345 1.08688e-17
8845.33640 1.27593e-17
8846.60952 1.32597e-17
8847.87246 1.18582e-17
8849.14559 1.12144e-17
8850.41871 1.14766e-17
8851.68165 1.19081e-17
8852.95478 1.22505e-17
8854.21771 1.19043e-17
8855.49084 1.10063e-17
8856.75378 1.07012e-17
8858.02690 1.11175e-17
8859.28985 1.12634e-17
8860.56297 1.07764e-17
8861.82591 9.50969e-18
8863.09904 8.36455e-18
8864.36197 8.98027e-18
8865.63510 9.59270e-18
8866.89804 9.18649e-18
8868.17116 9.89851e-18
8869.44429 9.84916e-18
8870.70723 8.26143e-18
8871.98035 8.60061e-18
8873.24330 1.07467e-17
8874.51642 1.16444e-17
8875.77936 1.09070e-17
8877.05248 1.05186e-17
8878.31542 1.09213e-17
8879.58855 1.13509e-17
8880.85149 1.28231e-17
8882.12462 1.44280e-17
8883.39774 1.42085e-17
8884.66068 1.37024e-17
8885.93381 1.41378e-17
8887.19674 1.55742e-17
8888.46987 1.47948e-17
8889.73281 1.15225e-17
8891.00593 9.75983e-18
8892.26887 8.87856e-18
8893.54200 8.18385e-18
8894.80494 9.13479e-18
8896.07806 1.06388e-17
8897.34100 9.37966e-18
8898.61413 6.66281e-18
8899.88725 6.91065e-18
8901.15019 1.04832e-17
8902.42332 1.32004e-17
8903.68626 1.20219e-17
8904.95938 1.08007e-17
8906.22233 1.17551e-17
8907.49545 1.21975e-17
8908.75839 1.13732e-17
8910.03152 1.04084e-17
8911.29445 9.92755e-18
8912.56758 8.42578e-18
8913.83052 7.87341e-18
8915.10364 9.52215e-18
8916.37677 1.05942e-17
8917.63971 1.05583e-17
8918.91283 1.08443e-17
8920.17577 1.16340e-17
8921.44890 1.15535e-17
8922.71184 1.35436e-17
8923.98496 1.53957e-17
8925.24790 1.18531e-17
8926.52103 8.62401e-18
8927.78397 8.82201e-18
8929.05710 9.29158e-18
8930.33022 9.52648e-18
8931.59316 1.03339e-17
8932.86629 1.01419e-17
8934.12923 9.40716e-18
8935.40235 9.76247e-18
8936.66529 1.00466e-17
8937.93842 9.25470e-18
8939.20135 8.74494e-18
8940.47448 8.89638e-18
8941.73742 9.64191e-18
8943.01054 1.09622e-17
8944.27348 1.05027e-17
8945.54661 9.07942e-18
8946.80955 9.94332e-18
8948.08267 1.03913e-17
8949.35580 9.32613e-18
8950.61874 1.16463e-17
8951.89187 1.48176e-17
8953.15481 1.42310e-17
8954.42793 1.27767e-17
8955.69087 1.29409e-17
8956.96400 1.38989e-17
8958.22694 1.35574e-17
8959.50006 1.29535e-17
8960.76300 1.33493e-17
8962.03613 1.06026e-17
8963.30925 8.38999e-18
8964.57219 9.48270e-18
8965.84531 1.05264e-17
8967.10825 1.02618e-17
8968.38138 1.03079e-17
8969.64432 1.23303e-17
8970.91744 1.23860e-17
8972.18038 1.08172e-17
8973.45351 1.06243e-17
8974.71645 1.07580e-17
8975.98957 1.11458e-17
8977.26270 1.20843e-17
8978.52564 1.20626e-17
8979.78858 1.07961e-17
8981.06171 1.08375e-17
8982.33483 1.10560e-17
8983.59777 1.02395e-17
8984.87090 1.08093e-17
8986.13383 1.23055e-17
8987.40696 1.31005e-17
8988.66990 1.12843e-17
8989.94302 1.04413e-17
8991.20596 1.15021e-17
8992.47909 1.12244e-17
8993.74203 1.08162e-17
8995.01515 9.19485e-18
8996.28828 8.97675e-18
8997.55122 1.08867e-17
8998.82435 1.21557e-17
9000.08728 1.08605e-17
