# wavelength flux
3492.65264 9.15866e-19
3494.60156 8.56795e-19
3496.55048 6.74857e-19
3498.48936 6.84029e-19
3500.43829 7.91647e-19
3502.38721 7.41335e-19
3504.32609 7.65095e-19
3506.27501 7.33403e-19
3508.22394 7.88093e-19
3510.16281 7.20960e-19
3512.11174 6.16593e-19
3514.05062 7.52965e-19
3515.99954 7.84845e-19
3517.94846 6.34736e-19
3519.88734 6.63775e-19
3521.83627 8.56098e-19
3523.78519 8.46432e-19
3525.72407 8.10127e-19
3527.67299 8.61431e-19
3529.62192 7.82602e-19
3531.56079 6.13098e-19
3533.50972 6.32897e-19
3535.45864 6.88032e-19
3537.39752 7.48401e-19
3539.34644 7.93311e-19
3541.28532 7.10390e-19
3543.23425 7.22816e-19
3545.18317 7.83746e-19
3547.12205 9.01785e-19
3549.07097 8.83932e-19
3551.01990 7.81731e-19
3552.95877 7.70986e-19
3554.90770 7.08521e-19
3556.85662 8.30461e-19
3558.79550 9.53862e-19
3560.74442 1.01173e-18
3562.69335 9.71376e-19
3564.63223 7.93080e-19
3566.58115 7.90046e-19
3568.52003 8.40143e-19
3570.46895 7.35231e-19
3572.41788 6.94549e-19
3574.35675 8.37287e-19
3576.30568 8.61616e-19
3578.25460 8.67608e-19
3580.19348 8.44658e-19
3582.14240 7.42258e-19
3584.09133 6.24878e-19
3586.03021 7.99844e-19
3587.97913 1.02161e-18
3589.92805 8.60129e-19
3591.86693 8.11522e-19
3593.81586 8.81090e-19
3595.76478 8.55467e-19
3597.70366 7.63493e-19
3599.65258 8.29135e-19
3601.59146 1.07327e-18
3603.54038 9.58379e-19
3605.48931 8.53184e-19
3607.42819 7.90383e-19
3609.37711 8.12073e-19
3611.32603 8.13035e-19
3613.26491 6.92351e-19
3615.21384 8.35650e-19
3617.16276 8.71876e-19
3619.10164 8.48153e-19
3621.05056 9.80878e-19
3622.99949 9.04870e-19
3624.93836 7.87531e-19
3626.88729 7.86798e-19
3628.82617 8.55514e-19
3630.77509 7.36016e-19
3632.72401 6.16436e-19
3634.66289 7.14388e-19
3636.61182 7.53388e-19
3638.56074 8.26039e-19
3640.49962 8.58307e-19
3642.44854 7.98511e-19
3644.39747 8.54261e-19
3646.33634 9.28297e-19
3648.28527 8.67861e-19
3650.23419 6.35207e-19
3652.17307 5.71423e-19
3654.12199 7.56699e-19
3656.06087 7.69966e-19
3658.00980 6.29661e-19
3659.95872 6.70903e-19
3661.89760 7.54668e-19
3663.84652 6.65538e-19
3665.79545 6.48516e-19
3667.73432 6.43918e-19
3669.68325 5.21506e-19
3671.63217 5.07167e-19
3673.57105 6.49738e-19
3675.51997 7.46138e-19
3677.46890 6.69658e-19
3679.40778 6.10931e-19
3681.35670 6.93424e-19
3683.30562 7.10219e-19
3685.24450 7.01067e-19
3687.19343 6.38438e-19
3689.13230 5.43437e-19
3691.08123 7.18804e-19
3693.03015 8.44187e-19
3694.96903 7.76687e-19
3696.91795 6.30297e-19
3698.86688 5.34614e-19
3700.80576 7.14434e-19
3702.75468 7.33561e-19
3704.70360 6.19064e-19
3706.64248 7.21427e-19
3708.59141 7.98683e-19
3710.54033 7.83186e-19
3712.47921 7.51160e-19
3714.42813 6.89777e-19
3716.36701 6.05037e-19
3718.31593 5.97315e-19
3720.26486 6.25206e-19
3722.20374 5.11411e-19
3724.15266 4.82880e-19
3726.10158 4.79488e-19
3728.04046 4.82344e-19
3729.98939 4.85200e-19
3731.93831 4.88056e-19
3733.87719 4.90912e-19
3735.82611 4.93768e-19
3737.77504 4.96623e-19
3739.71391 4.99478e-19
3741.66284 5.02333e-19
3743.60172 5.05188e-19
3745.55064 5.08043e-19
3747.49956 5.10897e-19
3749.43844 5.13751e-19
3751.38737 5.16606e-19
3753.33629 5.19460e-19
3755.27517 5.22313e-19
3757.22409 5.25167e-19
3759.17302 5.28020e-19
3761.11189 5.30874e-19
3763.06082 5.33727e-19
3765.00974 5.36580e-19
3766.94862 5.24238e-19
3768.89754 5.42774e-19
3770.84647 4.91179e-19
3772.78535 4.51191e-19
3774.73427 3.98695e-19
3776.67315 5.34460e-19
3778.62207 5.64936e-19
3780.57100 4.75941e-19
3782.50987 5.04855e-19
3784.45880 4.34223e-19
3786.40772 4.04106e-19
3788.34660 4.36802e-19
3790.29552 4.41162e-19
3792.24445 4.28298e-19
3794.18333 4.34876e-19
3796.13225 4.87457e-19
3798.08117 4.38431e-19
3800.02005 3.09645e-19
3801.96898 3.90139e-19
3803.90785 4.79643e-19
3805.85678 3.90256e-19
3807.80570 5.27317e-19
3809.74458 5.85070e-19
3811.69350 4.81209e-19
3813.64243 5.65683e-19
3815.58131 6.33182e-19
3817.53023 5.44763e-19
3819.47915 5.43806e-19
3821.41803 6.45610e-19
3823.36696 6.78685e-19
3825.31588 6.63242e-19
3827.25476 6.20121e-19
3829.20368 7.07931e-19
3831.14256 7.69735e-19
3833.09148 6.12459e-19
3835.04041 5.70316e-19
3836.97929 7.02076e-19
3838.92821 7.07075e-19
3840.87713 6.79425e-19
3842.81601 7.95556e-19
3844.76494 8.77356e-19
3846.71386 8.84576e-19
3848.65274 8.57188e-19
3850.60166 9.22496e-19
3852.55059 1.00760e-18
3854.48946 9.58069e-19
3856.43839 8.94862e-19
3858.38731 9.34710e-19
3860.32619 9.80465e-19
3862.27511 1.02100e-18
3864.21399 1.09471e-18
3866.16292 1.18304e-18
3868.11184 1.16979e-18
3870.05072 1.09938e-18
3871.99964 1.23501e-18
3873.94857 1.43011e-18
3875.88744 1.42574e-18
3877.83637 1.44731e-18
3879.78529 1.49585e-18
3881.72417 1.47203e-18
3883.67309 1.46967e-18
3885.62202 1.54670e-18
3887.56090 1.65601e-18
3889.50982 1.75800e-18
3891.44870 1.66516e-18
3893.39762 1.75245e-18
3895.34655 1.84031e-18
3897.28542 1.79715e-18
3899.23435 1.87249e-18
3901.18327 1.90488e-18
3903.12215 1.90944e-18
3905.07107 1.79336e-18
3907.02000 1.89054e-18
3908.95888 2.15186e-18
3910.90780 2.12565e-18
3912.85672 2.01491e-18
3914.79560 2.13721e-18
3916.74453 2.22788e-18
3918.68340 2.10290e-18
3920.63233 2.12560e-18
3922.58125 2.22609e-18
3924.52013 2.13475e-18
3926.46905 2.25552e-18
3928.41798 2.36224e-18
3930.35686 2.18395e-18
3932.30578 2.18022e-18
3934.25470 2.34059e-18
3936.19358 2.42014e-18
3938.14251 2.50258e-18
3940.09143 2.48839e-18
3942.03031 2.32904e-18
3943.97923 2.27462e-18
3945.92816 2.40298e-18
3947.86703 2.42489e-18
3949.81596 2.43785e-18
3951.75484 2.55518e-18
3953.70376 2.62005e-18
3955.65268 2.75386e-18
3957.59156 2.71060e-18
3959.54049 2.69623e-18
3961.48941 2.65769e-18
3963.42829 2.50256e-18
3965.37721 2.66420e-18
3967.32614 2.91635e-18
3969.26501 2.76879e-18
3971.21394 2.95201e-18
3973.16286 3.09973e-18
3975.10174 3.17728e-18
3977.05066 3.16058e-18
3978.98954 3.18897e-18
3980.93847 3.13502e-18
3982.88739 3.18181e-18
3984.82627 3.24249e-18
3986.77519 3.15626e-18
3988.72412 3.31062e-18
3990.66299 3.46970e-18
3992.61192 3.54014e-18
3994.56084 3.58959e-18
3996.49972 3.50622e-18
3998.44864 3.52524e-18
4000.39757 3.51526e-18
4002.33645 3.67526e-18
4004.28537 3.81520e-18
4006.23429 3.76584e-18
4008.17317 3.86479e-18
4010.12210 3.77038e-18
4012.06097 3.50530e-18
4014.00990 3.67252e-18
4015.95882 3.82121e-18
4017.89770 3.88316e-18
4019.84662 3.87265e-18
4021.79555 3.71607e-18
4023.73443 3.60143e-18
4025.68335 3.70152e-18
4027.63227 3.90540e-18
4029.57115 3.83739e-18
4031.52008 3.71025e-18
4033.46900 3.74971e-18
4035.40788 3.89906e-18
4037.35680 4.04107e-18
4039.29568 3.99970e-18
4041.24460 3.95428e-18
4043.19353 3.75981e-18
4045.13241 3.58672e-18
4047.08133 3.72172e-18
4049.03025 3.88781e-18
4050.96913 3.89757e-18
4052.91806 3.77951e-18
4054.86698 3.78751e-18
4056.80586 3.76664e-18
4058.75478 3.67353e-18
4060.70371 3.73512e-18
4062.64258 3.76656e-18
4064.59151 3.61920e-18
4066.53039 3.60285e-18
4068.47931 3.50691e-18
4070.42823 3.51889e-18
4072.36711 3.56932e-18
4074.31604 3.56457e-18
4076.26496 3.37486e-18
4078.20384 3.29385e-18
4080.15276 3.36526e-18
4082.10169 3.41184e-18
4084.04056 3.34842e-18
4085.98949 3.05292e-18
4087.93841 3.00927e-18
4089.87729 3.07606e-18
4091.82621 3.13284e-18
4093.76509 3.02666e-18
4095.71402 3.12979e-18
4097.66294 2.97687e-18
4099.60182 2.85156e-18
4101.55074 3.17795e-18
4103.49967 3.14390e-18
4105.43854 3.07578e-18
4107.38747 3.21434e-18
4109.33639 3.32730e-18
4111.27527 3.24867e-18
4113.22419 3.23300e-18
4115.17312 3.20987e-18
4117.11200 3.14520e-18
4119.06092 3.22567e-18
4121.00984 3.23651e-18
4122.94872 3.34104e-18
4124.89765 3.11639e-18
4126.83652 3.05726e-18
4128.78545 3.15312e-18
4130.73437 3.22363e-18
4132.67325 3.09266e-18
4134.62217 2.99340e-18
4136.57110 3.01626e-18
4138.50998 2.82969e-18
4140.45890 2.85315e-18
4142.40782 2.88375e-18
4144.34670 2.95928e-18
4146.29563 2.80825e-18
4148.24455 2.99433e-18
4150.18343 2.90952e-18
4152.13235 2.99426e-18
4154.07123 2.99865e-18
4156.02015 2.96412e-18
4157.96908 2.96708e-18
4159.90796 2.77372e-18
4161.85688 2.82727e-18
4163.80580 2.92939e-18
4165.74468 2.95021e-18
4167.69361 2.85467e-18
4169.64253 2.93804e-18
4171.58141 2.82221e-18
4173.53033 2.87303e-18
4175.47926 2.99741e-18
4177.41813 3.03557e-18
4179.36706 2.95404e-18
4181.30594 2.96603e-18
4183.25486 2.88788e-18
4185.20378 2.98521e-18
4187.14266 2.75363e-18
4189.09159 2.76067e-18
4191.04051 2.88708e-18
4192.97939 2.75988e-18
4194.92831 2.72028e-18
4196.87724 2.78270e-18
4198.81611 2.72055e-18
4200.76504 2.57251e-18
4202.71396 2.51769e-18
4204.65284 2.52370e-18
4206.60176 2.45758e-18
4208.55069 2.47242e-18
4210.48957 2.40217e-18
4212.43849 2.43831e-18
4214.37737 2.44439e-18
4216.32629 2.46807e-18
4218.27522 2.47454e-18
4220.21409 2.55705e-18
4222.16302 2.55197e-18
4224.11194 2.59703e-18
4226.05082 2.48581e-18
4227.99974 2.45482e-18
4229.94867 2.73099e-18
4231.88755 2.78955e-18
4233.83647 2.65288e-18
4235.78539 2.66730e-18
4237.72427 2.65129e-18
4239.67320 2.64012e-18
4241.61207 2.73324e-18
4243.56100 2.71170e-18
4245.50992 2.66626e-18
4247.44880 2.67594e-18
4249.39772 2.73455e-18
4251.34665 2.55091e-18
4253.28553 2.51965e-18
4255.23445 2.67306e-18
4257.18337 2.70675e-18
4259.12225 2.77826e-18
4261.07118 2.79694e-18
4263.02010 2.83922e-18
4264.95898 2.89778e-18
4266.90790 2.88984e-18
4268.84678 2.85869e-18
4270.79570 2.78064e-18
4272.74463 2.70263e-18
4274.68351 2.83970e-18
4276.63243 2.91398e-18
4278.58135 2.87235e-18
4280.52023 2.91259e-18
4282.46916 2.89498e-18
4284.41808 2.82290e-18
4286.35696 2.78581e-18
4288.30588 2.82261e-18
4290.25481 2.80904e-18
4292.19368 2.77109e-18
4294.14261 2.76364e-18
4296.09153 2.73896e-18
4298.03041 2.61519e-18
4299.97933 2.51922e-18
4301.91821 2.62690e-18
4303.86714 2.58793e-18
4305.81606 2.52536e-18
4307.75494 2.59774e-18
4309.70386 2.62741e-18
4311.65279 2.54920e-18
4313.59166 2.70022e-18
4315.54059 2.63559e-18
4317.48951 2.48774e-18
4319.42839 2.43868e-18
4321.37731 2.44620e-18
4323.32624 2.51107e-18
4325.26512 2.39152e-18
4327.21404 2.51058e-18
4329.15292 2.50947e-18
4331.10184 2.68698e-18
4333.05077 2.49950e-18
4334.98964 2.61748e-18
4336.93857 2.58157e-18
4338.88749 2.35561e-18
4340.82637 2.47142e-18
4342.77529 2.37781e-18
4344.72422 2.35130e-18
4346.66310 2.40914e-18
4348.61202 2.44469e-18
4350.56094 2.33976e-18
4352.49982 2.26403e-18
4354.44875 2.44077e-18
4356.38762 2.44908e-18
4358.33655 2.67348e-18
4360.28547 2.64382e-18
4362.22435 2.56446e-18
4364.17327 2.53004e-18
4366.12220 2.55293e-18
4368.06108 2.57582e-18
4370.01000 2.59871e-18
4371.95892 2.62159e-18
4373.89780 2.64448e-18
4375.84673 2.66735e-18
4377.79565 2.69024e-18
4379.73453 2.71312e-18
4381.68345 2.73599e-18
4383.63238 2.75887e-18
4385.57125 2.78174e-18
4387.52018 2.80462e-18
4389.45906 2.82749e-18
4391.40798 2.85035e-18
4393.35690 2.87322e-18
4395.29578 2.89608e-18
4397.24471 2.91895e-18
4399.19363 2.94181e-18
4401.13251 2.96467e-18
4403.08143 2.98753e-18
4405.03036 2.92839e-18
4406.96923 2.86945e-18
4408.91816 3.00397e-18
4410.86708 2.94833e-18
4412.80596 2.94032e-18
4414.75488 3.05045e-18
4416.69376 2.89375e-18
4418.64269 2.96303e-18
4420.59161 2.84959e-18
4422.53049 2.81422e-18
4424.47941 2.86479e-18
4426.42834 2.87784e-18
4428.36721 3.03536e-18
4430.31614 2.96550e-18
4432.26506 2.96750e-18
4434.20394 2.99724e-18
4436.15286 2.97600e-18
4438.10179 2.92781e-18
4440.04067 2.93359e-18
4441.98959 2.84719e-18
4443.92847 2.82491e-18
4445.87739 2.77477e-18
4447.82632 2.81035e-18
4449.76519 2.79261e-18
4451.71412 2.92581e-18
4453.66304 2.79357e-18
4455.60192 2.71258e-18
4457.55084 2.83402e-18
4459.49977 3.00454e-18
4461.43865 3.16022e-18
4463.38757 3.12127e-18
4465.33649 2.95690e-18
4467.27537 3.16458e-18
4469.22430 3.37171e-18
4471.17322 3.27056e-18
4473.11210 3.12777e-18
4475.06102 3.06390e-18
4476.99990 3.29303e-18
4478.94882 3.20483e-18
4480.89775 3.28416e-18
4482.83663 3.48109e-18
4484.78555 3.41097e-18
4486.73447 3.59201e-18
4488.67335 3.64579e-18
4490.62228 3.72878e-18
4492.57120 3.83987e-18
4494.51008 3.74540e-18
4496.45900 3.83479e-18
4498.40793 3.97148e-18
4500.34680 4.09626e-18
4502.29573 4.10450e-18
4504.23461 4.21917e-18
4506.18353 4.21451e-18
4508.13245 4.20661e-18
4510.07133 4.15116e-18
4512.02026 4.14806e-18
4513.96918 4.52895e-18
4515.90806 4.56386e-18
4517.85698 4.48505e-18
4519.80591 4.52646e-18
4521.74478 4.54131e-18
4523.69371 4.70107e-18
4525.64263 4.80515e-18
4527.58151 4.96096e-18
4529.53043 4.96971e-18
4531.47936 4.99784e-18
4533.41824 5.02992e-18
4535.36716 5.04592e-18
4537.30604 5.05561e-18
4539.25496 4.92872e-18
4541.20389 4.89573e-18
4543.14276 5.08503e-18
4545.09169 5.32551e-18
4547.04061 5.19885e-18
4548.97949 5.08082e-18
4550.92841 5.03160e-18
4552.87734 5.08973e-18
4554.81622 5.10786e-18
4556.76514 5.21878e-18
4558.71406 5.42387e-18
4560.65294 5.49235e-18
4562.60187 5.59131e-18
4564.55079 5.39755e-18
4566.48967 5.24924e-18
4568.43859 5.36640e-18
4570.37747 5.77012e-18
4572.32639 5.77362e-18
4574.27532 5.78580e-18
4576.21420 5.89887e-18
4578.16312 5.93661e-18
4580.11204 5.93207e-18
4582.05092 5.89190e-18
4583.99985 5.77215e-18
4585.94877 5.88244e-18
4587.88765 5.86276e-18
4589.83657 5.83353e-18
4591.77545 6.13260e-18
4593.72437 6.14722e-18
4595.67330 6.20936e-18
4597.61218 6.12373e-18
4599.56110 6.27659e-18
4601.51002 6.21714e-18
4603.44890 6.41173e-18
4605.39783 6.30385e-18
4607.34675 6.34326e-18
4609.28563 6.33005e-18
4611.23455 6.20820e-18
4613.18348 6.12620e-18
4615.12235 6.30815e-18
4617.07128 6.58791e-18
4619.01016 6.34969e-18
4620.95908 6.42725e-18
4622.90800 6.28813e-18
4624.84688 6.46504e-18
4626.79581 6.71312e-18
4628.74473 6.87063e-18
4630.68361 6.85213e-18
4632.63253 6.78410e-18
4634.58146 6.44096e-18
4636.52033 6.53652e-18
4638.46926 6.46748e-18
4640.41818 6.79629e-18
4642.35706 6.70353e-18
4644.30598 6.54090e-18
4646.25491 6.65341e-18
4648.19379 7.24880e-18
4650.14271 6.94222e-18
4652.08159 6.69949e-18
4654.03051 6.76253e-18
4655.97944 6.75842e-18
4657.91831 6.86169e-18
4659.86724 6.85285e-18
4661.81616 6.56483e-18
4663.75504 6.75921e-18
4665.70396 6.72681e-18
4667.65289 6.77119e-18
4669.59177 6.60355e-18
4671.54069 6.56060e-18
4673.48961 6.98271e-18
4675.42849 6.73481e-18
4677.37742 6.49218e-18
4679.32634 6.35736e-18
4681.26522 6.59811e-18
4683.21414 6.50251e-18
4685.15302 6.57586e-18
4687.10194 6.53448e-18
4689.05087 6.52620e-18
4690.98975 6.57100e-18
4692.93867 6.57802e-18
4694.88759 6.71249e-18
4696.82647 6.46767e-18
4698.77540 6.39557e-18
4700.72432 6.52128e-18
4702.66320 6.47712e-18
4704.61212 6.60183e-18
4706.55100 6.44041e-18
4708.49992 6.53097e-18
4710.44885 6.46922e-18
4712.38773 6.50557e-18
4714.33665 6.60392e-18
4716.28557 6.44789e-18
4718.22445 6.30713e-18
4720.17338 6.23313e-18
4722.12230 6.32654e-18
4724.06118 6.28429e-18
4726.01010 6.19774e-18
4727.95903 6.08422e-18
4729.89790 5.95102e-18
4731.84683 5.98734e-18
4733.79575 5.95378e-18
4735.73463 5.90455e-18
4737.68355 5.92923e-18
4739.62243 5.88714e-18
4741.57136 5.75712e-18
4743.52028 5.76296e-18
4745.45916 5.64231e-18
4747.40808 5.50697e-18
4749.35701 5.49594e-18
4751.29588 5.44544e-18
4753.24481 5.66490e-18
4755.19373 5.60319e-18
4757.13261 5.42481e-18
4759.08153 5.58457e-18
4761.03046 5.49728e-18
4762.96934 5.33042e-18
4764.91826 5.39733e-18
4766.85714 5.16424e-18
4768.80606 4.98844e-18
4770.75499 5.11863e-18
4772.69386 5.20649e-18
4774.64279 5.24624e-18
4776.59171 5.05106e-18
4778.53059 4.93130e-18
4780.47951 4.87540e-18
4782.42844 4.86795e-18
4784.36732 4.95032e-18
4786.31624 4.86634e-18
4788.26516 4.88130e-18
4790.20404 4.85642e-18
4792.15297 4.82556e-18
4794.10189 4.76724e-18
4796.04077 4.65864e-18
4797.98969 4.74459e-18
4799.92857 4.57253e-18
4801.87749 4.48615e-18
4803.82642 4.43611e-18
4805.76530 4.53113e-18
4807.71422 4.67041e-18
4809.66314 4.26757e-18
4811.60202 4.23925e-18
4813.55095 4.36854e-18
4815.49987 4.40337e-18
4817.43875 4.16845e-18
4819.38767 4.13435e-18
4821.33660 4.12196e-18
4823.27547 4.04587e-18
4825.22440 4.30484e-18
4827.16328 4.26296e-18
4829.11220 4.01259e-18
4831.06112 3.92627e-18
4833.00000 3.96347e-18
4834.94893 3.73177e-18
4836.89785 3.78183e-18
4838.83673 3.82713e-18
4840.78565 3.76317e-18
4842.73458 3.85451e-18
4844.67345 3.75538e-18
4846.62238 3.70434e-18
4848.57130 3.74626e-18
4850.51018 3.66725e-18
4852.45910 3.69483e-18
4854.39798 3.82724e-18
4856.34691 3.67055e-18
4858.29583 3.44621e-18
4860.23471 3.66565e-18
4862.18363 3.69997e-18
4864.13256 3.69963e-18
4866.07143 3.73406e-18
4868.02036 3.76848e-18
4869.96928 3.80290e-18
4871.90816 3.83731e-18
4873.85708 3.87173e-18
4875.80601 3.90615e-18
4877.74489 3.94055e-18
4879.69381 3.97496e-18
4881.64273 4.00936e-18
4883.58161 4.04377e-18
4885.53054 4.07817e-18
4887.46941 4.11255e-18
4889.41834 4.14696e-18
4891.36726 4.18134e-18
4893.30614 4.21573e-18
4895.25506 4.25012e-18
4897.20399 4.28450e-18
4899.14287 4.31888e-18
4901.09179 4.35325e-18
4903.04071 4.38763e-18
4904.97959 4.46215e-18
4906.92852 4.35566e-18
4908.87744 4.56650e-18
4910.81632 4.54621e-18
4912.76524 4.64219e-18
4914.71417 4.81552e-18
4916.65304 4.96480e-18
4918.60197 5.03575e-18
4920.54085 5.19518e-18
4922.48977 5.29226e-18
4924.43869 5.39653e-18
4926.37757 5.60644e-18
4928.32650 5.59320e-18
4930.27542 5.57842e-18
4932.21430 5.69829e-18
4934.16322 5.85906e-18
4936.11215 6.01002e-18
4938.05102 6.03814e-18
4939.99995 6.37413e-18
4941.93883 6.41134e-18
4943.88775 6.54744e-18
4945.83667 6.71677e-18
4947.77555 6.96234e-18
4949.72448 6.95298e-18
4951.67340 6.86045e-18
4953.61228 7.11863e-18
4955.56120 7.09945e-18
4957.51013 7.12259e-18
4959.44900 7.24464e-18
4961.39793 7.49906e-18
4963.34685 7.50218e-18
4965.28573 7.53994e-18
4967.23465 7.57770e-18
4969.17353 7.61546e-18
4971.12246 7.65323e-18
4973.07138 7.69099e-18
4975.01026 7.72873e-18
4976.95918 7.76649e-18
4978.90811 7.80424e-18
4980.84698 7.84198e-18
4982.79591 7.87973e-18
4984.74483 7.91746e-18
4986.68371 7.95521e-18
4988.63263 7.99293e-18
4990.58156 8.03067e-18
4992.52044 8.06840e-18
4994.46936 8.10612e-18
4996.41828 8.14385e-18
4998.35716 8.18156e-18
5000.30609 8.21928e-18
5002.24496 8.08995e-18
5004.19389 8.03975e-18
5006.14281 8.05621e-18
5008.08169 7.92585e-18
5010.03061 7.76024e-18
5011.97954 7.65275e-18
5013.91842 7.54533e-18
5015.86734 7.43789e-18
5017.81626 7.33048e-18
5019.75514 7.22303e-18
5021.70407 7.11561e-18
5023.65299 7.00822e-18
5025.59187 6.90083e-18
5027.54079 6.79343e-18
5029.48972 6.68605e-18
5031.42859 6.57867e-18
5033.37752 6.47133e-18
5035.31640 6.36397e-18
5037.26532 6.25662e-18
5039.21424 6.14928e-18
5041.15312 6.04195e-18
5043.10205 5.93465e-18
5045.05097 5.82730e-18
5046.98985 5.72002e-18
5048.93877 5.61272e-18
5050.88770 5.51708e-18
5052.82657 5.52667e-18
5054.77550 5.55440e-18
5056.71438 5.26129e-18
5058.66330 5.40195e-18
5060.61222 5.47149e-18
5062.55110 5.26096e-18
5064.50003 5.23959e-18
5066.44895 5.28914e-18
5068.38783 5.41696e-18
5070.33675 5.43681e-18
5072.28568 5.40435e-18
5074.22455 5.37785e-18
5076.17348 5.46516e-18
5078.12240 5.51033e-18
5080.06128 5.56717e-18
5082.01020 5.63115e-18
5083.95913 5.59400e-18
5085.89801 5.71846e-18
5087.84693 5.78158e-18
5089.78581 5.77653e-18
5091.73473 5.94056e-18
5093.68366 6.07702e-18
5095.62253 5.93763e-18
5097.57146 5.90584e-18
5099.52038 5.97994e-18
5101.45926 6.06672e-18
5103.40818 6.06612e-18
5105.35711 6.04071e-18
5107.29599 6.16652e-18
5109.24491 6.18545e-18
5111.19383 6.13377e-18
5113.13271 6.35659e-18
5115.08164 6.65124e-18
5117.03056 6.62923e-18
5118.96944 6.49404e-18
5120.91836 6.51994e-18
5122.85724 6.61347e-18
5124.80616 6.67972e-18
5126.75509 6.60552e-18
5128.69397 6.43803e-18
5130.64289 6.56150e-18
5132.59181 6.72913e-18
5134.53069 6.55334e-18
5136.47962 6.57072e-18
5138.42854 6.53608e-18
5140.36742 6.52332e-18
5142.31634 6.89104e-18
5144.26527 6.87384e-18
5146.20414 6.82625e-18
5148.15307 6.82968e-18
5150.09195 6.87401e-18
5152.04087 6.83871e-18
5153.98979 6.85851e-18
5155.92867 6.97256e-18
5157.87760 7.09022e-18
5159.82652 7.10600e-18
5161.76540 7.12395e-18
5163.71432 6.98602e-18
5165.66325 6.92382e-18
5167.60212 7.00417e-18
5169.55105 7.21566e-18
5171.49997 7.21431e-18
5173.43885 6.85157e-18
5175.38777 6.92007e-18
5177.32665 7.05448e-18
5179.27558 6.91422e-18
5181.22450 6.93302e-18
5183.16338 7.18881e-18
5185.11230 7.25167e-18
5187.06123 7.14960e-18
5189.00010 7.38049e-18
5190.94903 7.44494e-18
5192.89795 7.18236e-18
5194.83683 7.14278e-18
5196.78575 7.22539e-18
5198.73468 7.27359e-18
5200.67356 7.20609e-18
5202.62248 7.03071e-18
5204.56136 6.96024e-18
5206.51028 7.09188e-18
5208.45921 7.08809e-18
5210.39808 7.22212e-18
5212.34701 7.37256e-18
5214.29593 7.38629e-18
5216.23481 7.21727e-18
5218.18373 7.07437e-18
5220.13266 7.28326e-18
5222.07154 7.45765e-18
5224.02046 7.49732e-18
5225.96938 7.64899e-18
5227.90826 7.52697e-18
5229.85719 7.44866e-18
5231.80611 7.62650e-18
5233.74499 7.63433e-18
5235.69391 7.62799e-18
5237.63279 7.71950e-18
5239.58171 7.95891e-18
5241.53064 7.97760e-18
5243.46952 8.07202e-18
5245.41844 8.12663e-18
5247.36736 8.19027e-18
5249.30624 8.07804e-18
5251.25517 8.14845e-18
5253.20409 8.25467e-18
5255.14297 8.25618e-18
5257.09189 8.36169e-18
5259.04082 8.40760e-18
5260.97969 8.43222e-18
5262.92862 8.58497e-18
5264.87754 8.47149e-18
5266.81642 8.51733e-18
5268.76534 8.70095e-18
5270.70422 8.75406e-18
5272.65315 8.72636e-18
5274.60207 8.62965e-18
5276.54095 8.66570e-18
5278.48987 8.77911e-18
5280.43880 8.89132e-18
5282.37767 8.80837e-18
5284.32660 8.84062e-18
5286.27552 9.06509e-18
5288.21440 9.11246e-18
5290.16332 9.20352e-18
5292.11225 9.18715e-18
5294.05113 9.04733e-18
5296.00005 9.15917e-18
5297.93893 9.38112e-18
5299.88785 9.52206e-18
5301.83678 9.49302e-18
5303.77565 9.58395e-18
5305.72458 9.75148e-18
5307.67350 9.56594e-18
5309.61238 9.47463e-18
5311.56130 9.62206e-18
5313.51023 9.74875e-18
5315.44911 9.95002e-18
5317.39803 9.78518e-18
5319.33691 9.82166e-18
5321.28583 1.00542e-17
5323.23476 1.01151e-17
5325.17363 1.00685e-17
5327.12256 1.00043e-17
5329.07148 1.02721e-17
5331.01036 1.02411e-17
5332.95928 1.01637e-17
5334.90821 1.03359e-17
5336.84709 1.03072e-17
5338.79601 1.04583e-17
5340.74493 1.04711e-17
5342.68381 1.04351e-17
5344.63274 1.03653e-17
5346.58166 1.02330e-17
5348.52054 1.03034e-17
5350.46946 1.05622e-17
5352.40834 1.04523e-17
5354.35726 1.03894e-17
5356.30619 1.04295e-17
5358.24507 1.03063e-17
5360.19399 1.03799e-17
5362.14291 1.04259e-17
5364.08179 1.05118e-17
5366.03072 1.05782e-17
5367.97964 1.05181e-17
5369.91852 1.04422e-17
5371.86744 1.04847e-17
5373.81637 1.04433e-17
5375.75524 1.04615e-17
5377.70417 1.05538e-17
5379.65309 1.04888e-17
5381.59197 1.04404e-17
5383.54089 1.03201e-17
5385.47977 1.03198e-17
5387.42870 1.04846e-17
5389.37762 1.03358e-17
5391.31650 1.02673e-17
5393.26542 1.02805e-17
5395.21435 1.02779e-17
5397.15322 1.03088e-17
5399.10215 1.03723e-17
5401.05107 1.03213e-17
5402.98995 1.00479e-17
5404.93887 9.95170e-18
5406.87775 1.00124e-17
5408.82668 1.01217e-17
5410.77560 1.03881e-17
5412.71448 1.05614e-17
5414.66340 1.06135e-17
5416.61233 1.03949e-17
5418.55120 1.02150e-17
5420.50013 1.00468e-17
5422.44905 9.97264e-18
5424.38793 1.02639e-17
5426.33685 1.04934e-17
5428.28578 1.04873e-17
5430.22466 1.04160e-17
5432.17358 1.04311e-17
5434.12250 1.05516e-17
5436.06138 1.06874e-17
5438.01031 1.09378e-17
5439.94918 1.10368e-17
5441.89811 1.10180e-17
5443.84703 1.11542e-17
5445.78591 1.11784e-17
5447.73483 1.11533e-17
5449.68376 1.12071e-17
5451.62264 1.12938e-17
5453.57156 1.13141e-17
5455.52048 1.13742e-17
5457.45936 1.15763e-17
5459.40829 1.16358e-17
5461.35721 1.16346e-17
5463.29609 1.15790e-17
5465.24501 1.16381e-17
5467.19394 1.18296e-17
5469.13281 1.17486e-17
5471.08174 1.17934e-17
5473.02062 1.21429e-17
5474.96954 1.22421e-17
5476.91846 1.20643e-17
5478.85734 1.20966e-17
5480.80627 1.22116e-17
5482.75519 1.23072e-17
5484.69407 1.25005e-17
5486.64299 1.25970e-17
5488.59192 1.25938e-17
5490.53079 1.24245e-17
5492.47972 1.22991e-17
5494.42864 1.23419e-17
5496.36752 1.25876e-17
5498.31644 1.27021e-17
5500.25532 1.25840e-17
5502.20425 1.25344e-17
5504.15317 1.25238e-17
5506.09205 1.27229e-17
5508.04097 1.26400e-17
5509.98990 1.21515e-17
5511.92877 1.21347e-17
5513.87770 1.23772e-17
5515.82662 1.23316e-17
5517.76550 1.22343e-17
5519.71442 1.21019e-17
5521.66335 1.22895e-17
5523.60223 1.25677e-17
5525.55115 1.21502e-17
5527.50007 1.17547e-17
5529.43895 1.19014e-17
5531.38788 1.18786e-17
5533.32675 1.17636e-17
5535.27568 1.18815e-17
5537.22460 1.20065e-17
5539.16348 1.18472e-17
5541.11240 1.15951e-17
5543.06133 1.17031e-17
5545.00021 1.17150e-17
5546.94913 1.16678e-17
5548.89805 1.17477e-17
5550.83693 1.16076e-17
5552.78586 1.14248e-17
5554.72473 1.15133e-17
5556.67366 1.17277e-17
5558.62258 1.17767e-17
5560.56146 1.15774e-17
5562.51038 1.13363e-17
5564.45931 1.12687e-17
5566.39819 1.14636e-17
5568.34711 1.18278e-17
5570.29603 1.18242e-17
5572.23491 1.16335e-17
5574.18384 1.16917e-17
5576.13276 1.18145e-17
5578.07164 1.17999e-17
5580.02056 1.18794e-17
5581.96949 1.18324e-17
5583.90836 1.17074e-17
5585.85729 1.18086e-17
5587.79617 1.17524e-17
5589.74509 1.16941e-17
5591.69401 1.18643e-17
5593.63289 1.19213e-17
5595.58182 1.18498e-17
5597.53074 1.19491e-17
5599.46962 1.19233e-17
5601.41854 1.17926e-17
5603.36747 1.17719e-17
5605.30634 1.14598e-17
5607.25527 1.12608e-17
5609.20419 1.14225e-17
5611.14307 1.15947e-17
5613.09199 1.14399e-17
5615.04092 1.12460e-17
5616.97980 1.13592e-17
5618.92872 1.12868e-17
5620.86760 1.12337e-17
5622.81652 1.12887e-17
5624.76545 1.11795e-17
5626.70432 1.08415e-17
5628.65325 1.05203e-17
5630.60217 1.07456e-17
5632.54105 1.08235e-17
5634.48997 1.05031e-17
5636.43890 1.03773e-17
5638.37778 1.03963e-17
5640.32670 1.03310e-17
5642.27562 1.01116e-17
5644.21450 9.69207e-18
5646.16343 9.44820e-18
5648.10230 9.33960e-18
5650.05123 9.07182e-18
5652.00015 8.86070e-18
5653.93903 8.84861e-18
5655.88795 8.57754e-18
5657.83688 8.18055e-18
5659.77576 7.90151e-18
5661.72468 7.62088e-18
5663.67360 7.53354e-18
5665.61248 7.37650e-18
5667.56141 6.99651e-18
5669.50028 6.68979e-18
5671.44921 6.50732e-18
5673.39813 6.32108e-18
5675.33701 6.12097e-18
5677.28593 6.03149e-18
5679.23486 5.99670e-18
5681.17374 5.94642e-18
5683.12266 5.75460e-18
5685.07158 5.50759e-18
5687.01046 5.50170e-18
5688.95939 5.44721e-18
5690.90831 5.24009e-18
5692.84719 5.27001e-18
5694.79611 5.24521e-18
5696.74504 5.02949e-18
5698.68391 4.96434e-18
5700.63284 4.78186e-18
5702.58176 4.79218e-18
5704.52064 5.00351e-18
5706.46956 5.19197e-18
5708.40844 5.13899e-18
5710.35737 5.09678e-18
5712.30629 5.30899e-18
5714.24517 5.37728e-18
5716.19409 5.51238e-18
5718.14302 5.51393e-18
5720.08189 5.52237e-18
5722.03082 5.56019e-18
5723.97974 5.71028e-18
5725.91862 6.00596e-18
5727.86754 6.04506e-18
5729.81647 6.15646e-18
5731.75535 6.43777e-18
5733.70427 6.56081e-18
5735.64315 6.39192e-18
5737.59207 6.51218e-18
5739.54100 6.87402e-18
5741.47987 7.02908e-18
5743.42880 7.03249e-18
5745.37772 7.29304e-18
5747.31660 7.67643e-18
5749.26552 7.76648e-18
5751.21445 7.67237e-18
5753.15333 7.88901e-18
5755.10225 8.15804e-18
5757.05117 8.35397e-18
5758.99005 8.43561e-18
5760.93898 8.56808e-18
5762.87785 8.94923e-18
5764.82678 9.10574e-18
5766.77570 9.27319e-18
5768.71458 9.54836e-18
5770.66350 9.57819e-18
5772.61243 9.55924e-18
5774.55131 9.55908e-18
5776.50023 9.90237e-18
5778.44915 1.01455e-17
5780.38803 1.02594e-17
5782.33696 1.05105e-17
5784.28588 1.08546e-17
5786.22476 1.09202e-17
5788.17368 1.12160e-17
5790.11256 1.15891e-17
5792.06148 1.14787e-17
5794.01041 1.14256e-17
5795.94929 1.17297e-17
5797.89821 1.21760e-17
5799.84713 1.24496e-17
5801.78601 1.23113e-17
5803.73494 1.19112e-17
5805.68386 1.17646e-17
5807.62274 1.19497e-17
5809.57166 1.23986e-17
5811.52059 1.28878e-17
5813.45946 1.31153e-17
5815.40839 1.32908e-17
5817.35731 1.33306e-17
5819.29619 1.33723e-17
5821.24511 1.33131e-17
5823.18399 1.34863e-17
5825.13292 1.40133e-17
5827.08184 1.42596e-17
5829.02072 1.41221e-17
5830.96964 1.42224e-17
5832.91857 1.43568e-17
5834.85744 1.41346e-17
5836.80637 1.41936e-17
5838.75529 1.44033e-17
5840.69417 1.46333e-17
5842.64309 1.47087e-17
5844.59202 1.45537e-17
5846.53090 1.46199e-17
5848.47982 1.48046e-17
5850.41870 1.50128e-17
5852.36762 1.50714e-17
5854.31655 1.49890e-17
5856.25542 1.47990e-17
5858.20435 1.49304e-17
5860.15327 1.50185e-17
5862.09215 1.48811e-17
5864.04107 1.48021e-17
5865.99000 1.48008e-17
5867.92888 1.48893e-17
5869.87780 1.49148e-17
5871.82672 1.47460e-17
5873.76560 1.44787e-17
5875.71453 1.43561e-17
5877.66345 1.46552e-17
5879.60233 1.46208e-17
5881.55125 1.47212e-17
5883.49013 1.45358e-17
5885.43905 1.44555e-17
5887.38798 1.47710e-17
5889.32686 1.45812e-17
5891.27578 1.44859e-17
5893.22470 1.43595e-17
5895.16358 1.45638e-17
5897.11251 1.47129e-17
5899.06143 1.49134e-17
5901.00031 1.47956e-17
5902.94923 1.45843e-17
5904.88811 1.46278e-17
5906.83703 1.50839e-17
5908.78596 1.48279e-17
5910.72484 1.44888e-17
5912.67376 1.43740e-17
5914.62268 1.37411e-17
5916.56156 1.26859e-17
5918.51049 1.29005e-17
5920.45941 1.31614e-17
5922.39829 1.31850e-17
5924.34721 1.35226e-17
5926.29614 1.38209e-17
5928.23501 1.43755e-17
5930.18394 1.44354e-17
5932.13286 1.41362e-17
5934.07174 1.45742e-17
5936.02066 1.45173e-17
5937.95954 1.44448e-17
5939.90847 1.47655e-17
5941.85739 1.46201e-17
5943.79627 1.44180e-17
5945.74519 1.45980e-17
5947.69412 1.44524e-17
5949.63299 1.45053e-17
5951.58192 1.45637e-17
5953.53084 1.42536e-17
5955.46972 1.41983e-17
5957.41864 1.40535e-17
5959.36757 1.42895e-17
5961.30645 1.43288e-17
5963.25537 1.42125e-17
5965.20429 1.44037e-17
5967.14317 1.43778e-17
5969.09210 1.42737e-17
5971.03097 1.40176e-17
5972.97990 1.40041e-17
5974.92882 1.39776e-17
5976.86770 1.38330e-17
5978.81662 1.37987e-17
5980.76555 1.37670e-17
5982.70443 1.37824e-17
5984.65335 1.35198e-17
5986.60227 1.34573e-17
5988.54115 1.34490e-17
5990.49008 1.34614e-17
5992.43900 1.34162e-17
5994.37788 1.33982e-17
5996.32680 1.34082e-17
5998.26568 1.34280e-17
6000.21460 1.32293e-17
6002.16353 1.30185e-17
6004.10241 1.28404e-17
6006.05133 1.27741e-17
6008.00025 1.28897e-17
6009.93913 1.26800e-17
6011.88806 1.25417e-17
6013.83698 1.27638e-17
6015.77586 1.26500e-17
6017.72478 1.23495e-17
6019.67371 1.24652e-17
6021.61258 1.24735e-17
6023.56151 1.22234e-17
6025.50039 1.21759e-17
6027.44931 1.20693e-17
6029.39823 1.19229e-17
6031.33711 1.19760e-17
6033.28604 1.22912e-17
6035.23496 1.21720e-17
6037.17384 1.20094e-17
6039.12276 1.20592e-17
6041.07169 1.20878e-17
6043.01056 1.22731e-17
6044.95949 1.20946e-17
6046.90841 1.22987e-17
6048.84729 1.20857e-17
6050.79621 1.19166e-17
6052.74514 1.20671e-17
6054.68402 1.20639e-17
6056.63294 1.18134e-17
6058.57182 1.20323e-17
6060.52074 1.19977e-17
6062.46967 1.18503e-17
6064.40854 1.18440e-17
6066.35747 1.22961e-17
6068.30639 1.23032e-17
6070.24527 1.21410e-17
6072.19419 1.22372e-17
6074.14312 1.21608e-17
6076.08200 1.19874e-17
6078.03092 1.21876e-17
6079.97984 1.20482e-17
6081.91872 1.20248e-17
6083.86765 1.24140e-17
6085.80652 1.23119e-17
6087.75545 1.20303e-17
6089.70437 1.18005e-17
6091.64325 1.21067e-17
6093.59217 1.22606e-17
6095.54110 1.22336e-17
6097.47998 1.17130e-17
6099.42890 1.18753e-17
6101.37782 1.19806e-17
6103.31670 1.18754e-17
6105.26563 1.18284e-17
6107.21455 1.15405e-17
6109.15343 1.12383e-17
6111.10235 1.18299e-17
6113.04123 1.16645e-17
6114.99015 1.13448e-17
6116.93908 1.15919e-17
6118.87796 1.16843e-17
6120.82688 1.15307e-17
6122.77580 1.16190e-17
6124.71468 1.15331e-17
6126.66361 1.15591e-17
6128.61253 1.15903e-17
6130.55141 1.16511e-17
6132.50033 1.15270e-17
6134.44926 1.14607e-17
6136.38813 1.17763e-17
6138.33706 1.20992e-17
6140.28598 1.17856e-17
6142.22486 1.16082e-17
6144.17378 1.19704e-17
6146.11266 1.18118e-17
6148.06159 1.18451e-17
6150.01051 1.22130e-17
6151.94939 1.21069e-17
6153.89831 1.19320e-17
6155.84724 1.23311e-17
6157.78611 1.20867e-17
6159.73504 1.20758e-17
6161.68396 1.25582e-17
6163.62284 1.26222e-17
6165.57176 1.23394e-17
6167.52069 1.21871e-17
6169.45957 1.22081e-17
6171.40849 1.23896e-17
6173.34737 1.26187e-17
6175.29629 1.26551e-17
6177.24522 1.24827e-17
6179.18409 1.24768e-17
6181.13302 1.25334e-17
6183.08194 1.28011e-17
6185.02082 1.28242e-17
6186.96974 1.26784e-17
6188.91867 1.25621e-17
6190.85755 1.28282e-17
6192.80647 1.24794e-17
6194.75539 1.24919e-17
6196.69427 1.21424e-17
6198.64320 1.19118e-17
6200.58207 1.18452e-17
6202.53100 1.22685e-17
6204.47992 1.20261e-17
6206.41880 1.19925e-17
6208.36772 1.22985e-17
6210.31665 1.21624e-17
6212.25553 1.21927e-17
6214.20445 1.19870e-17
6216.15337 1.17888e-17
6218.09225 1.12431e-17
6220.04118 1.15250e-17
6221.99010 1.12823e-17
6223.92898 1.11670e-17
6225.87790 1.14533e-17
6227.82683 1.11734e-17
6229.76570 1.10257e-17
6231.71463 1.09997e-17
6233.65351 1.10201e-17
6235.60243 1.12085e-17
6237.55135 1.13814e-17
6239.49023 1.11281e-17
6241.43916 1.07567e-17
6243.38808 1.08055e-17
6245.32696 1.06110e-17
6247.27588 1.08668e-17
6249.22481 1.07191e-17
6251.16368 1.05666e-17
6253.11261 1.05732e-17
6255.06153 1.04343e-17
6257.00041 1.05599e-17
6258.94933 1.05605e-17
6260.88821 1.05567e-17
6262.83714 1.04383e-17
6264.78606 1.06131e-17
6266.72494 1.04398e-17
6268.67386 1.03607e-17
6270.62279 1.03585e-17
6272.56166 1.03726e-17
6274.51059 1.07042e-17
6276.45951 1.08233e-17
6278.39839 1.03844e-17
6280.34731 1.02882e-17
6282.29624 1.03831e-17
6284.23512 1.04893e-17
6286.18404 1.07376e-17
6288.12292 1.08138e-17
6290.07184 1.04269e-17
6292.02077 1.00065e-17
6293.95964 9.98501e-18
6295.90857 1.00872e-17
6297.85749 1.02674e-17
6299.79637 1.00572e-17
6301.74529 1.02967e-17
6303.69422 1.00735e-17
6305.63310 1.01670e-17
6307.58202 1.02727e-17
6309.53094 9.76225e-18
6311.46982 9.38334e-18
6313.41875 9.30336e-18
6315.36767 9.27312e-18
6317.30655 9.77888e-18
6319.25547 1.00062e-17
6321.19435 1.00480e-17
6323.14327 9.96669e-18
6325.09220 1.00983e-17
6327.03108 1.05482e-17
6328.98000 1.06024e-17
6330.92892 1.01813e-17
6332.86780 1.05894e-17
6334.81673 1.06288e-17
6336.76565 1.05206e-17
6338.70453 1.04128e-17
6340.65345 1.03244e-17
6342.60238 1.03069e-17
6344.54125 1.05047e-17
6346.49018 1.01791e-17
6348.42906 1.04176e-17
6350.37798 1.06400e-17
6352.32690 1.02213e-17
6354.26578 1.05660e-17
6356.21471 1.01139e-17
6358.16363 1.05629e-17
6360.10251 1.06128e-17
6362.05143 1.02555e-17
6364.00036 1.05689e-17
6365.93923 1.09004e-17
6367.88816 1.08826e-17
6369.83708 1.09596e-17
6371.77596 1.08185e-17
6373.72488 1.11412e-17
6375.66376 1.09456e-17
6377.61269 1.08848e-17
6379.56161 1.08044e-17
6381.50049 1.11033e-17
6383.44941 1.04808e-17
6385.39834 1.06683e-17
6387.33721 1.09743e-17
6389.28614 1.10689e-17
6391.23506 1.10691e-17
6393.17394 1.09245e-17
6395.12286 1.11460e-17
6397.07179 1.13694e-17
6399.01067 1.09014e-17
6400.95959 1.09889e-17
6402.90851 1.12310e-17
6404.84739 1.09765e-17
6406.79632 1.08345e-17
6408.73519 1.07234e-17
6410.68412 1.09244e-17
6412.63304 1.12112e-17
6414.57192 1.08927e-17
6416.52084 1.10137e-17
6418.46977 1.13228e-17
6420.40865 1.12424e-17
6422.35757 1.10279e-17
6424.30649 1.09571e-17
6426.24537 1.09614e-17
6428.19430 1.07601e-17
6430.14322 1.04951e-17
6432.08210 1.05376e-17
6434.03102 1.09297e-17
6435.96990 1.06163e-17
6437.91882 1.05949e-17
6439.86775 1.06377e-17
6441.80663 1.05564e-17
6443.75555 1.02898e-17
6445.70447 1.00562e-17
6447.64335 9.84073e-18
6449.59228 9.45217e-18
6451.54120 9.60424e-18
6453.48008 9.42855e-18
6455.42900 9.30753e-18
6457.37793 9.20329e-18
6459.31680 9.16631e-18
6461.26573 9.10393e-18
6463.20461 8.92423e-18
6465.15353 9.08818e-18
6467.10245 8.75387e-18
6469.04133 8.73704e-18
6470.99026 8.70454e-18
6472.93918 8.55884e-18
6474.87806 8.19196e-18
6476.82698 8.28317e-18
6478.77591 8.17540e-18
6480.71478 7.83293e-18
6482.66371 7.58289e-18
6484.61263 7.97999e-18
6486.55151 8.40401e-18
6488.50043 8.22655e-18
6490.44936 8.02446e-18
6492.38824 8.22663e-18
6494.33716 8.10400e-18
6496.27604 8.09635e-18
6498.22496 8.27104e-18
6500.17389 8.53788e-18
6502.11276 8.43580e-18
6504.06169 8.44384e-18
6506.01061 8.34565e-18
6507.94949 8.52885e-18
6509.89841 8.72423e-18
6511.84734 8.64949e-18
6513.78622 8.89631e-18
6515.73514 9.28398e-18
6517.68406 9.21273e-18
6519.62294 9.36923e-18
6521.57187 9.53719e-18
6523.52079 9.53271e-18
6525.45967 9.67614e-18
6527.40859 9.81955e-18
6529.34747 9.96296e-18
6531.29639 1.01064e-17
6533.24532 1.02498e-17
6535.18420 1.03932e-17
6537.13312 1.05366e-17
6539.08204 1.06799e-17
6541.02092 1.08233e-17
6542.96985 1.08231e-17
6544.91877 1.11038e-17
6546.85765 1.09166e-17
6548.80657 1.08817e-17
6550.74545 1.10828e-17
6552.69437 1.10474e-17
6554.64330 1.10979e-17
6556.58218 1.08432e-17
6558.53110 1.05706e-17
6560.48002 1.12466e-17
6562.41890 1.16319e-17
6564.36783 1.17505e-17
6566.31675 1.18690e-17
6568.25563 1.19875e-17
6570.20455 1.21060e-17
6572.15348 1.22245e-17
6574.09235 1.23430e-17
6576.04128 1.24616e-17
6577.99020 1.25801e-17
6579.92908 1.26985e-17
6581.87800 1.28171e-17
6583.81688 1.29355e-17
6585.76581 1.30540e-17
6587.71473 1.31725e-17
6589.65361 1.32910e-17
6591.60253 1.34095e-17
6593.55146 1.35279e-17
6595.49033 1.36464e-17
6597.43926 1.37649e-17
6599.38818 1.38833e-17
6601.32706 1.40018e-17
6603.27598 1.41202e-17
6605.22491 1.42387e-17
6607.16379 1.43571e-17
6609.11271 1.44755e-17
6611.05159 1.45940e-17
6613.00051 1.47124e-17
6614.94944 1.48308e-17
6616.88831 1.49493e-17
6618.83724 1.50677e-17
6620.78616 1.51861e-17
6622.72504 1.53045e-17
6624.67396 1.54229e-17
6626.62289 1.55075e-17
6628.56177 1.57811e-17
6630.51069 1.55363e-17
6632.45961 1.56751e-17
6634.39849 1.55903e-17
6636.34742 1.55721e-17
6638.29634 1.53904e-17
6640.23522 1.49731e-17
6642.18414 1.51245e-17
6644.12302 1.51735e-17
6646.07194 1.53406e-17
6648.02087 1.58771e-17
6649.95975 1.60124e-17
6651.90867 1.58344e-17
6653.85759 1.58638e-17
6655.79647 1.57013e-17
6657.74540 1.55039e-17
6659.69432 1.54763e-17
6661.63320 1.53569e-17
6663.58212 1.53485e-17
6665.53105 1.50404e-17
6667.46992 1.49185e-17
6669.41885 1.49295e-17
6671.35773 1.46947e-17
6673.30665 1.46632e-17
6675.25557 1.48320e-17
6677.19445 1.44026e-17
6679.14338 1.46286e-17
6681.09230 1.48754e-17
6683.03118 1.48496e-17
6684.98010 1.48037e-17
6686.92903 1.50113e-17
6688.86790 1.48462e-17
6690.81683 1.47558e-17
6692.76575 1.43272e-17
6694.70463 1.42258e-17
6696.65355 1.47390e-17
6698.59243 1.46226e-17
6700.54136 1.40160e-17
6702.49028 1.40107e-17
6704.42916 1.40212e-17
6706.37808 1.41207e-17
6708.32701 1.41269e-17
6710.26588 1.42979e-17
6712.21481 1.45983e-17
6714.16373 1.50763e-17
6716.10261 1.52924e-17
6718.05153 1.52952e-17
6720.00046 1.55657e-17
6721.93934 1.52252e-17
6723.88826 1.49477e-17
6725.82714 1.49669e-17
6727.77606 1.50067e-17
6729.72499 1.48478e-17
6731.66386 1.46461e-17
6733.61279 1.44498e-17
6735.56171 1.44739e-17
6737.50059 1.44234e-17
6739.44951 1.44137e-17
6741.39844 1.41479e-17
6743.33732 1.43310e-17
6745.28624 1.44602e-17
6747.23516 1.46325e-17
6749.17404 1.47799e-17
6751.12297 1.47295e-17
6753.07189 1.48576e-17
6755.01077 1.45223e-17
6756.95969 1.47347e-17
6758.89857 1.49596e-17
6760.84749 1.45708e-17
6762.79642 1.47470e-17
6764.73530 1.44907e-17
6766.68422 1.38832e-17
6768.63314 1.39680e-17
6770.57202 1.42580e-17
6772.52095 1.38052e-17
6774.46987 1.32388e-17
6776.40875 1.37520e-17
6778.35767 1.40967e-17
6780.30660 1.41022e-17
6782.24547 1.39795e-17
6784.19440 1.39614e-17
6786.13328 1.40221e-17
6788.08220 1.40405e-17
6790.03112 1.40202e-17
6791.97000 1.38424e-17
6793.91893 1.37899e-17
6795.86785 1.39453e-17
6797.80673 1.39528e-17
6799.75565 1.38215e-17
6801.70458 1.36551e-17
6803.64345 1.32663e-17
6805.59238 1.29484e-17
6807.54130 1.27139e-17
6809.48018 1.25601e-17
6811.42910 1.23527e-17
6813.36798 1.21660e-17
6815.31691 1.19462e-17
6817.26583 1.15649e-17
6819.20471 1.15520e-17
6821.15363 1.17652e-17
6823.10256 1.14360e-17
6825.04143 1.15091e-17
6826.99036 1.15501e-17
6828.93928 1.14012e-17
6830.87816 1.12854e-17
6832.82708 1.09100e-17
6834.77601 1.08491e-17
6836.71489 1.12236e-17
6838.66381 1.06763e-17
6840.61273 1.02194e-17
6842.55161 1.05320e-17
6844.50054 1.03391e-17
6846.43941 1.00398e-17
6848.38834 9.95934e-18
6850.33726 9.39455e-18
6852.27614 9.09093e-18
6854.22506 9.16936e-18
6856.17399 9.11581e-18
6858.11287 9.23008e-18
6860.06179 9.02780e-18
6862.01071 8.94524e-18
6863.94959 9.21814e-18
6865.89852 8.92944e-18
6867.84744 8.92438e-18
6869.78632 9.29425e-18
6871.73524 9.14474e-18
6873.68417 9.09200e-18
6875.62304 9.37951e-18
6877.57197 9.69696e-18
6879.51085 9.60550e-18
6881.45977 9.39825e-18
6883.40869 9.68073e-18
6885.34757 9.87483e-18
6887.29650 9.80806e-18
6889.24542 9.68620e-18
6891.18430 9.95901e-18
6893.13322 9.99675e-18
6895.08215 9.88378e-18
6897.02102 1.02658e-17
6898.96995 1.01723e-17
6900.90883 1.02612e-17
6902.85775 1.03055e-17
6904.80667 1.00350e-17
6906.74555 1.02954e-17
6908.69448 1.04289e-17
6910.64340 1.02098e-17
6912.58228 1.01937e-17
6914.53120 1.06419e-17
6916.48013 1.10207e-17
6918.41900 1.11196e-17
6920.36793 1.09772e-17
6922.31685 1.10192e-17
6924.25573 1.12659e-17
6926.20465 1.15800e-17
6928.15358 1.20267e-17
6930.09246 1.21104e-17
6932.04138 1.21017e-17
6933.98026 1.22708e-17
6935.92918 1.26321e-17
6937.87811 1.32227e-17
6939.81698 1.33383e-17
6941.76591 1.36101e-17
6943.71483 1.36407e-17
6945.65371 1.35261e-17
6947.60263 1.35225e-17
6949.55156 1.39127e-17
6951.49044 1.43050e-17
6953.43936 1.42272e-17
6955.38828 1.43905e-17
6957.32716 1.43749e-17
6959.27609 1.39988e-17
6961.21496 1.39198e-17
6963.16389 1.40504e-17
6965.11281 1.40410e-17
6967.05169 1.39531e-17
6969.00061 1.38891e-17
6970.94954 1.43409e-17
6972.88842 1.42318e-17
6974.83734 1.40830e-17
6976.78626 1.42653e-17
6978.72514 1.40819e-17
6980.67407 1.41139e-17
6982.62299 1.48915e-17
6984.56187 1.52939e-17
6986.51079 1.54594e-17
6988.45972 1.54368e-17
6990.39859 1.54470e-17
6992.34752 1.55575e-17
6994.28640 1.55494e-17
6996.23532 1.56451e-17
6998.18424 1.55288e-17
7000.12312 1.54853e-17
7002.07205 1.56963e-17
7004.02097 1.59301e-17
7005.95985 1.66455e-17
7007.90877 1.67530e-17
7009.85770 1.61740e-17
7011.79657 1.61517e-17
7013.74550 1.70520e-17
7015.69442 1.74599e-17
7017.63330 1.69798e-17
7019.58222 1.68424e-17
7021.52110 1.68718e-17
7023.47003 1.71590e-17
7025.41895 1.71163e-17
7027.35783 1.68227e-17
7029.30675 1.65455e-17
7031.25568 1.63152e-17
7033.19455 1.59386e-17
7035.14348 1.62374e-17
7037.09240 1.65035e-17
7039.03128 1.63014e-17
7040.98020 1.63810e-17
7042.92913 1.65061e-17
7044.86801 1.62137e-17
7046.81693 1.58499e-17
7048.75581 1.52899e-17
7050.70473 1.48808e-17
7052.65366 1.50139e-17
7054.59253 1.47151e-17
7056.54146 1.44134e-17
7058.49038 1.42149e-17
7060.42926 1.42642e-17
7062.37818 1.44245e-17
7064.32711 1.42470e-17
7066.26599 1.41116e-17
7068.21491 1.41980e-17
7070.16383 1.39463e-17
7072.10271 1.43204e-17
7074.05164 1.44682e-17
7075.99051 1.38849e-17
7077.93944 1.39522e-17
7079.88836 1.40637e-17
7081.82724 1.40039e-17
7083.77616 1.39699e-17
7085.72509 1.40382e-17
7087.66397 1.42184e-17
7089.61289 1.44993e-17
7091.56181 1.42142e-17
7093.50069 1.41686e-17
7095.44962 1.40553e-17
7097.39854 1.44701e-17
7099.33742 1.47685e-17
7101.28634 1.45282e-17
7103.23527 1.46081e-17
7105.17414 1.48532e-17
7107.12307 1.49040e-17
7109.06195 1.50658e-17
7111.01087 1.50636e-17
7112.95979 1.50729e-17
7114.89867 1.51389e-17
7116.84760 1.50323e-17
7118.79652 1.50937e-17
7120.73540 1.50204e-17
7122.68432 1.46377e-17
7124.63325 1.48528e-17
7126.57212 1.50697e-17
7128.52105 1.51155e-17
7130.46997 1.50377e-17
7132.40885 1.43259e-17
7134.35777 1.39647e-17
7136.29665 1.39972e-17
7138.24558 1.41086e-17
7140.19450 1.43241e-17
7142.13338 1.42587e-17
7144.08230 1.40277e-17
7146.03123 1.40585e-17
7147.97010 1.43354e-17
7149.91903 1.45043e-17
7151.86795 1.44825e-17
7153.80683 1.41782e-17
7155.75575 1.41755e-17
7157.70468 1.42161e-17
7159.64356 1.42567e-17
7161.59248 1.42974e-17
7163.53136 1.43380e-17
7165.48028 1.43786e-17
7167.42921 1.43784e-17
7169.36808 1.44031e-17
7171.31701 1.44894e-17
7173.26593 1.45692e-17
7175.20481 1.42662e-17
7177.15373 1.40000e-17
7179.10266 1.41489e-17
7181.04154 1.39951e-17
7182.99046 1.37809e-17
7184.93938 1.35274e-17
7186.87826 1.35676e-17
7188.82719 1.36373e-17
7190.77611 1.33392e-17
7192.71499 1.37574e-17
7194.66391 1.44340e-17
7196.60279 1.45208e-17
7198.55171 1.44496e-17
7200.50064 1.48910e-17
7202.43952 1.50304e-17
7204.38844 1.50226e-17
7206.33736 1.48436e-17
7208.27624 1.42067e-17
7210.22517 1.46134e-17
7212.17409 1.50186e-17
7214.11297 1.45141e-17
7216.06189 1.44260e-17
7218.01082 1.46851e-17
7219.94969 1.47438e-17
7221.89862 1.51289e-17
7223.84754 1.52255e-17
7225.78642 1.51121e-17
7227.73534 1.50669e-17
7229.67422 1.47297e-17
7231.62315 1.47361e-17
7233.57207 1.47398e-17
7235.51095 1.49564e-17
7237.45987 1.52404e-17
7239.40880 1.49686e-17
7241.34767 1.50103e-17
7243.29660 1.51512e-17
7245.24552 1.52151e-17
7247.18440 1.51682e-17
7249.13332 1.49424e-17
7251.08225 1.53100e-17
7253.02113 1.56976e-17
7254.97005 1.56582e-17
7256.90893 1.55960e-17
7258.85785 1.54967e-17
7260.80678 1.57784e-17
7262.74565 1.60198e-17
7264.69458 1.61043e-17
7266.64350 1.64012e-17
7268.58238 1.63298e-17
7270.53130 1.59021e-17
7272.48023 1.55651e-17
7274.41911 1.53183e-17
7276.36803 1.54609e-17
7278.31695 1.59912e-17
7280.25583 1.58281e-17
7282.20476 1.49833e-17
7284.14363 1.45916e-17
7286.09256 1.46237e-17
7288.04148 1.48542e-17
7289.98036 1.52974e-17
7291.92928 1.52207e-17
7293.87821 1.49505e-17
7295.81709 1.52734e-17
7297.76601 1.53330e-17
7299.71493 1.50107e-17
7301.65381 1.53465e-17
7303.60274 1.55576e-17
7305.55166 1.54433e-17
7307.49054 1.58125e-17
7309.43946 1.59563e-17
7311.37834 1.58148e-17
7313.32726 1.55233e-17
7315.27619 1.51688e-17
7317.21507 1.49242e-17
7319.16399 1.46259e-17
7321.11291 1.45933e-17
7323.05179 1.46617e-17
7325.00072 1.50296e-17
7326.94964 1.53319e-17
7328.88852 1.50050e-17
7330.83744 1.48133e-17
7332.78637 1.47988e-17
7334.72524 1.48902e-17
7336.67417 1.51649e-17
7338.62309 1.49608e-17
7340.56197 1.48227e-17
7342.51089 1.53102e-17
7344.44977 1.56925e-17
7346.39870 1.56266e-17
7348.34762 1.56329e-17
7350.28650 1.54524e-17
7352.23542 1.50565e-17
7354.18435 1.51080e-17
7356.12322 1.52368e-17
7358.07215 1.51380e-17
7360.02107 1.49564e-17
7361.95995 1.50006e-17
7363.90887 1.49783e-17
7365.85780 1.48366e-17
7367.79668 1.48223e-17
7369.74560 1.49751e-17
7371.68448 1.47291e-17
7373.63340 1.45869e-17
7375.58233 1.47232e-17
7377.52120 1.46863e-17
7379.47013 1.46377e-17
7381.41905 1.43753e-17
7383.35793 1.47337e-17
7385.30685 1.54009e-17
7387.25578 1.49827e-17
7389.19466 1.46036e-17
7391.14358 1.48887e-17
7393.09250 1.49840e-17
7395.03138 1.48430e-17
7396.98031 1.50267e-17
7398.91918 1.49258e-17
7400.86811 1.44563e-17
7402.81703 1.40923e-17
7404.75591 1.41237e-17
7406.70483 1.45668e-17
7408.65376 1.41185e-17
7410.59264 1.37716e-17
7412.54156 1.40318e-17
7414.49048 1.40684e-17
7416.42936 1.41165e-17
7418.37829 1.42106e-17
7420.32721 1.43122e-17
7422.26609 1.43517e-17
7424.21501 1.42123e-17
7426.16394 1.47054e-17
7428.10281 1.50961e-17
7430.05174 1.49556e-17
7431.99062 1.49100e-17
7433.93954 1.50162e-17
7435.88846 1.51944e-17
7437.82734 1.51381e-17
7439.77627 1.49348e-17
7441.72519 1.49324e-17
7443.66407 1.48279e-17
7445.61299 1.45863e-17
7447.56192 1.43025e-17
7449.50079 1.41358e-17
7451.44972 1.44159e-17
7453.39864 1.43242e-17
7455.33752 1.41540e-17
7457.28644 1.40740e-17
7459.22532 1.39703e-17
7461.17425 1.42015e-17
7463.12317 1.43829e-17
7465.06205 1.47328e-17
7467.01097 1.51317e-17
7468.95990 1.51748e-17
7470.89877 1.52855e-17
7472.84770 1.55741e-17
7474.79662 1.52286e-17
7476.73550 1.49902e-17
7478.68442 1.51770e-17
7480.63335 1.50389e-17
7482.57223 1.48999e-17
7484.52115 1.48742e-17
7486.47007 1.47319e-17
7488.40895 1.48768e-17
7490.35788 1.45231e-17
7492.29675 1.43532e-17
7494.24568 1.41299e-17
7496.19460 1.39117e-17
7498.13348 1.44937e-17
7500.08240 1.40992e-17
7502.03133 1.36641e-17
7503.97021 1.38260e-17
7505.91913 1.39507e-17
7507.86805 1.42314e-17
7509.80693 1.43154e-17
7511.75586 1.45146e-17
7513.69473 1.45691e-17
7515.64366 1.47139e-17
7517.59258 1.46493e-17
7519.53146 1.42240e-17
7521.48038 1.43348e-17
7523.42931 1.43023e-17
7525.36819 1.39315e-17
7527.31711 1.35592e-17
7529.26603 1.33096e-17
7531.20491 1.32278e-17
7533.15384 1.32941e-17
7535.10276 1.29905e-17
7537.04164 1.27109e-17
7538.99056 1.27433e-17
7540.93949 1.29226e-17
7542.87836 1.32467e-17
7544.82729 1.33125e-17
7546.76617 1.31623e-17
7548.71509 1.29817e-17
7550.66401 1.27884e-17
7552.60289 1.28757e-17
7554.55182 1.31559e-17
7556.50074 1.30351e-17
7558.43962 1.28286e-17
7560.38854 1.29868e-17
7562.33747 1.31667e-17
7564.27634 1.32119e-17
7566.22527 1.29422e-17
7568.17419 1.25947e-17
7570.11307 1.27188e-17
7572.06199 1.27564e-17
7574.01092 1.21076e-17
7575.94980 1.18609e-17
7577.89872 1.23749e-17
7579.83760 1.14648e-17
7581.78652 1.14100e-17
7583.73545 1.13552e-17
7585.67432 1.13004e-17
7587.62325 1.12456e-17
7589.57217 1.11908e-17
7591.51105 1.11360e-17
7593.45997 1.10812e-17
7595.40890 1.10265e-17
7597.34778 1.09717e-17
7599.29670 1.09169e-17
7601.24562 1.08621e-17
7603.18450 1.08074e-17
7605.13343 1.07526e-17
7607.07230 1.06978e-17
7609.02123 1.06431e-17
7610.97015 1.05883e-17
7612.90903 1.05336e-17
7614.85795 1.04788e-17
7616.80688 1.04786e-17
7618.74576 1.10333e-17
7620.69468 1.10446e-17
7622.64360 1.09619e-17
7624.58248 1.09441e-17
7626.53141 1.11031e-17
7628.48033 1.12789e-17
7630.41921 1.12235e-17
7632.36813 1.14608e-17
7634.30701 1.15688e-17
7636.25593 1.13797e-17
7638.20486 1.18104e-17
7640.14374 1.16521e-17
7642.09266 1.16977e-17
7644.04158 1.16402e-17
7645.98046 1.16260e-17
7647.92939 1.14391e-17
7649.87831 1.11995e-17
7651.81719 1.15506e-17
7653.76611 1.20944e-17
7655.71504 1.23049e-17
7657.65391 1.19426e-17
7659.60284 1.16849e-17
7661.54172 1.19300e-17
7663.49064 1.23383e-17
7665.43956 1.24319e-17
7667.37844 1.24800e-17
7669.32737 1.25499e-17
7671.27629 1.25728e-17
7673.21517 1.29608e-17
7675.16409 1.28634e-17
7677.11302 1.32230e-17
7679.05189 1.31978e-17
7681.00082 1.35096e-17
7682.94974 1.36324e-17
7684.88862 1.29983e-17
7686.83754 1.30489e-17
7688.78647 1.32161e-17
7690.72535 1.34653e-17
7692.67427 1.30947e-17
7694.61315 1.31672e-17
7696.56207 1.33166e-17
7698.51100 1.31880e-17
7700.44987 1.28289e-17
7702.39880 1.28926e-17
7704.34772 1.32858e-17
7706.28660 1.34633e-17
7708.23552 1.37041e-17
7710.18445 1.39570e-17
7712.12333 1.44622e-17
7714.07225 1.47698e-17
7716.02117 1.47906e-17
7717.96005 1.45786e-17
7719.90898 1.44665e-17
7721.84785 1.48434e-17
7723.79678 1.49342e-17
7725.74570 1.49772e-17
7727.68458 1.51909e-17
7729.63350 1.51644e-17
7731.58243 1.47964e-17
7733.52131 1.46640e-17
7735.47023 1.44992e-17
7737.41915 1.40485e-17
7739.35803 1.44513e-17
7741.30696 1.48444e-17
7743.25588 1.39483e-17
7745.19476 1.39121e-17
7747.14368 1.45480e-17
7749.08256 1.50008e-17
7751.03148 1.48279e-17
7752.98041 1.43251e-17
7754.91929 1.46677e-17
7756.86821 1.52417e-17
7758.81713 1.52566e-17
7760.75601 1.50559e-17
7762.70494 1.51679e-17
7764.65386 1.52617e-17
7766.59274 1.52022e-17
7768.54166 1.54992e-17
7770.49059 1.54008e-17
7772.42946 1.52654e-17
7774.37839 1.49493e-17
7776.32731 1.43579e-17
7778.26619 1.47606e-17
7780.21511 1.46384e-17
7782.15399 1.41304e-17
7784.10292 1.45081e-17
7786.05184 1.50308e-17
7787.99072 1.49489e-17
7789.93964 1.50748e-17
7791.88857 1.49660e-17
7793.82744 1.45480e-17
7795.77637 1.47039e-17
7797.72529 1.48938e-17
7799.66417 1.49813e-17
7801.61309 1.52088e-17
7803.56202 1.59545e-17
7805.50090 1.62534e-17
7807.44982 1.57485e-17
7809.38870 1.54672e-17
7811.33762 1.56491e-17
7813.28655 1.61476e-17
7815.22542 1.64897e-17
7817.17435 1.62266e-17
7819.12327 1.57661e-17
7821.06215 1.57213e-17
7823.01107 1.59422e-17
7824.96000 1.56432e-17
7826.89888 1.56636e-17
7828.84780 1.57788e-17
7830.79672 1.53234e-17
7832.73560 1.48455e-17
7834.68453 1.51081e-17
7836.63345 1.58077e-17
7838.57233 1.58316e-17
7840.52125 1.57551e-17
7842.46013 1.62166e-17
7844.40905 1.58097e-17
7846.35798 1.54044e-17
7848.29686 1.52987e-17
7850.24578 1.54157e-17
7852.19470 1.60446e-17
7854.13358 1.61172e-17
7856.08251 1.63160e-17
7858.03143 1.63442e-17
7859.97031 1.63716e-17
7861.91923 1.71564e-17
7863.85811 1.66690e-17
7865.80703 1.64144e-17
7867.75596 1.63746e-17
7869.69484 1.63481e-17
7871.64376 1.65048e-17
7873.59268 1.62431e-17
7875.53156 1.66033e-17
7877.48049 1.63272e-17
7879.42941 1.59982e-17
7881.36829 1.48953e-17
7883.31721 1.55290e-17
7885.26614 1.58738e-17
7887.20501 1.56040e-17
7889.15394 1.59010e-17
7891.10286 1.56584e-17
7893.04174 1.54149e-17
7894.99066 1.58071e-17
7896.92954 1.58773e-17
7898.87847 1.65895e-17
7900.82739 1.61698e-17
7902.76627 1.57554e-17
7904.71519 1.63451e-17
7906.66412 1.71468e-17
7908.60299 1.67002e-17
7910.55192 1.60855e-17
7912.50084 1.62435e-17
7914.43972 1.66069e-17
7916.38864 1.68958e-17
7918.33757 1.62978e-17
7920.27645 1.62451e-17
7922.22537 1.65130e-17
7924.17429 1.61646e-17
7926.11317 1.57800e-17
7928.06210 1.55708e-17
7930.00097 1.49755e-17
7931.94990 1.46611e-17
7933.89882 1.48720e-17
7935.83770 1.46800e-17
7937.78662 1.48697e-17
7939.73555 1.48170e-17
7941.67443 1.52973e-17
7943.62335 1.55430e-17
7945.57227 1.52687e-17
7947.51115 1.50143e-17
7949.46008 1.50376e-17
7951.40900 1.52223e-17
7953.34788 1.47242e-17
7955.29680 1.49542e-17
7957.23568 1.53417e-17
7959.18460 1.51535e-17
7961.13353 1.52230e-17
7963.07241 1.55178e-17
7965.02133 1.53661e-17
7966.97025 1.51600e-17
7968.90913 1.48690e-17
7970.85806 1.46186e-17
7972.80698 1.46780e-17
7974.74586 1.40917e-17
7976.69478 1.41233e-17
7978.64371 1.44513e-17
7980.58258 1.46271e-17
7982.53151 1.42221e-17
7984.47039 1.35284e-17
7986.41931 1.33855e-17
7988.36823 1.34026e-17
7990.30711 1.33734e-17
7992.25604 1.39488e-17
7994.20496 1.43174e-17
7996.14384 1.35505e-17
7998.09276 1.31856e-17
8000.04169 1.36090e-17
8001.98056 1.38022e-17
8003.92949 1.34170e-17
8005.87841 1.32649e-17
8007.81729 1.36946e-17
8009.76621 1.36619e-17
8011.71514 1.36668e-17
8013.65402 1.40068e-17
8015.60294 1.39036e-17
8017.54182 1.38090e-17
8019.49074 1.38038e-17
8021.43967 1.35305e-17
8023.37854 1.31676e-17
8025.32747 1.31088e-17
8027.27639 1.35621e-17
8029.21527 1.33591e-17
8031.16419 1.34540e-17
8033.11312 1.35154e-17
8035.05200 1.29814e-17
8037.00092 1.29494e-17
8038.94984 1.34492e-17
8040.88872 1.33235e-17
8042.83765 1.32157e-17
8044.77652 1.30407e-17
8046.72545 1.31836e-17
8048.67437 1.32681e-17
8050.61325 1.36036e-17
8052.56217 1.35573e-17
8054.51110 1.29249e-17
8056.44998 1.33091e-17
8058.39890 1.37885e-17
8060.34782 1.35544e-17
8062.28670 1.31706e-17
8064.23563 1.29473e-17
8066.18455 1.32283e-17
8068.12343 1.35388e-17
8070.07235 1.34571e-17
8072.01123 1.40269e-17
8073.96015 1.38418e-17
8075.90908 1.30322e-17
8077.84796 1.28129e-17
8079.79688 1.22450e-17
8081.74580 1.27278e-17
8083.68468 1.27869e-17
8085.63361 1.24642e-17
8087.58253 1.23546e-17
8089.52141 1.23264e-17
8091.47033 1.18231e-17
8093.41926 1.20944e-17
8095.35813 1.27728e-17
8097.30706 1.25631e-17
8099.25598 1.23316e-17
8101.19486 1.22967e-17
8103.14378 1.20310e-17
8105.08266 1.14813e-17
8107.03159 1.22887e-17
8108.98051 1.26359e-17
8110.91939 1.21172e-17
8112.86831 1.24974e-17
8114.81724 1.18804e-17
8116.75611 1.15943e-17
8118.70504 1.26964e-17
8120.65396 1.25526e-17
8122.59284 1.26858e-17
8124.54176 1.25738e-17
8126.49069 1.18428e-17
8128.42957 1.17732e-17
8130.37849 1.17356e-17
8132.31737 1.15494e-17
8134.26629 1.19957e-17
8136.21522 1.12660e-17
8138.15409 1.16876e-17
8140.10302 1.23816e-17
8142.05194 1.19434e-17
8143.99082 1.18325e-17
8145.93974 1.20278e-17
8147.88867 1.11931e-17
8149.82755 1.11422e-17
8151.77647 1.22091e-17
8153.72539 1.24542e-17
8155.66427 1.24711e-17
8157.61320 1.20777e-17
8159.55207 1.17519e-17
8161.50100 1.16247e-17
8163.44992 1.22215e-17
8165.38880 1.28206e-17
8167.33772 1.25098e-17
8169.28665 1.22929e-17
8171.22553 1.24436e-17
8173.17445 1.26349e-17
8175.12337 1.20480e-17
8177.06225 1.20998e-17
8179.01118 1.23400e-17
8180.96010 1.22873e-17
8182.89898 1.23449e-17
8184.84790 1.18639e-17
8186.78678 1.21568e-17
8188.73570 1.19915e-17
8190.68463 1.17019e-17
8192.62351 1.20763e-17
8194.57243 1.19527e-17
8196.52135 1.20474e-17
8198.46023 1.17037e-17
8200.40916 1.15130e-17
8202.35808 1.21921e-17
8204.29696 1.16818e-17
8206.24588 1.14451e-17
8208.19481 1.08534e-17
8210.13368 1.17615e-17
8212.08261 1.13733e-17
8214.03153 1.17302e-17
8215.97041 1.20465e-17
8217.91933 1.26103e-17
8219.85821 1.23945e-17
8221.80714 1.15842e-17
8223.75606 1.15199e-17
8225.69494 1.20538e-17
8227.64386 1.17618e-17
8229.59279 1.13909e-17
8231.53166 1.10308e-17
8233.48059 1.10602e-17
8235.42951 1.04509e-17
8237.36839 1.01301e-17
8239.31731 1.00879e-17
8241.26624 9.60267e-18
8243.20512 9.86240e-18
8245.15404 8.71445e-18
8247.09292 8.50434e-18
8249.04184 8.97747e-18
8250.99077 8.35346e-18
8252.92964 8.38350e-18
8254.87857 8.02748e-18
8256.82749 7.89244e-18
8258.76637 8.09334e-18
8260.71529 8.12078e-18
8262.66422 7.61338e-18
8264.60310 7.82132e-18
8266.55202 8.11723e-18
8268.50094 7.09083e-18
8270.43982 8.04809e-18
8272.38875 7.96105e-18
8274.32762 7.47943e-18
8276.27655 6.72078e-18
8278.22547 6.53630e-18
8280.16435 6.75543e-18
8282.11327 6.66863e-18
8284.06220 6.54928e-18
8286.00108 6.46109e-18
8287.95000 6.16011e-18
8289.89892 6.38604e-18
8291.83780 6.54013e-18
8293.78673 6.01860e-18
8295.73565 5.61966e-18
8297.67453 5.95073e-18
8299.62345 5.73002e-18
8301.57238 5.73671e-18
8303.51125 5.75185e-18
8305.46018 6.04743e-18
8307.39906 6.24002e-18
8309.34798 6.37498e-18
8311.29690 6.68438e-18
8313.23578 6.50315e-18
8315.18471 6.38535e-18
8317.13363 6.47169e-18
8319.07251 6.33074e-18
8321.02143 6.82122e-18
8322.97036 7.57335e-18
8324.90923 7.37053e-18
8326.85816 6.82984e-18
8328.80708 6.67881e-18
8330.74596 7.13300e-18
8332.69488 6.97014e-18
8334.63376 6.65776e-18
8336.58269 7.22553e-18
8338.53161 7.04725e-18
8340.47049 7.12218e-18
8342.41941 7.25943e-18
8344.36834 7.53345e-18
8346.30721 7.65432e-18
8348.25614 7.24783e-18
8350.20506 7.51041e-18
8352.14394 7.61920e-18
8354.09286 7.70094e-18
8356.04179 7.81481e-18
8357.98067 8.32238e-18
8359.92959 8.72885e-18
8361.86847 8.58565e-18
8363.81739 8.48222e-18
8365.76632 8.97617e-18
8367.70519 9.25225e-18
8369.65412 8.95103e-18
8371.60304 9.19063e-18
8373.54192 9.56456e-18
8375.49084 9.06588e-18
8377.43977 9.55415e-18
8379.37865 9.63437e-18
8381.32757 8.93351e-18
8383.27649 8.92070e-18
8385.21537 8.57887e-18
8387.16430 8.77786e-18
8389.11322 9.43872e-18
8391.05210 9.10593e-18
8393.00102 9.06137e-18
8394.93990 9.31098e-18
8396.88882 9.49988e-18
8398.83775 9.52837e-18
8400.77663 9.04177e-18
8402.72555 9.18890e-18
8404.67447 9.33884e-18
8406.61335 1.02550e-17
8408.56228 9.60136e-18
8410.51120 9.17557e-18
8412.45008 9.56531e-18
8414.39900 8.97133e-18
8416.34793 8.89539e-18
8418.28680 8.63411e-18
8420.23573 8.62995e-18
8422.18465 9.13891e-18
8424.12353 9.32389e-18
8426.07245 9.23420e-18
8428.01133 9.36956e-18
8429.96026 9.61971e-18
8431.90918 9.99337e-18
8433.84806 9.59839e-18
8435.79698 9.76405e-18
8437.74591 1.01356e-17
8439.68478 1.02323e-17
8441.63371 1.04728e-17
8443.58263 1.06539e-17
8445.52151 1.04826e-17
8447.47043 1.03482e-17
8449.40931 1.02644e-17
8451.35824 1.01432e-17
8453.30716 1.04557e-17
8455.25608 1.09189e-17
8457.19496 1.10933e-17
8459.14389 1.07554e-17
8461.08276 1.08343e-17
8463.03169 1.18653e-17
8464.98061 1.24119e-17
8466.91949 1.22804e-17
8468.86841 1.19389e-17
8470.81734 1.18193e-17
8472.75622 1.22172e-17
8474.70514 1.19992e-17
8476.65406 1.20351e-17
8478.59294 1.21915e-17
8480.54187 1.22703e-17
8482.48074 1.29811e-17
8484.42967 1.33997e-17
8486.37859 1.38436e-17
8488.31747 1.39950e-17
8490.26639 1.46554e-17
8492.21532 1.47999e-17
8494.15420 1.41339e-17
8496.10312 1.43244e-17
8498.05204 1.46022e-17
8499.99092 1.46515e-17
8501.93985 1.40049e-17
8503.88877 1.45956e-17
8505.82765 1.49962e-17
8507.77657 1.53649e-17
8509.71545 1.56008e-17
8511.66437 1.59635e-17
8513.61330 1.56875e-17
8515.55218 1.63505e-17
8517.50110 1.68868e-17
8519.45002 1.60394e-17
8521.38890 1.65921e-17
8523.33783 1.70418e-17
8525.28675 1.74500e-17
8527.22563 1.83357e-17
8529.17455 1.84501e-17
8531.12348 1.86860e-17
8533.06235 1.87789e-17
8535.01128 1.75743e-17
8536.96020 1.79164e-17
8538.89908 1.84974e-17
8540.84800 1.86878e-17
8542.78688 1.82598e-17
8544.73581 1.79372e-17
8546.68473 1.90640e-17
8548.62361 1.96673e-17
8550.57253 1.97890e-17
8552.52146 1.97648e-17
8554.46033 1.91982e-17
8556.40926 1.96971e-17
8558.35818 2.01366e-17
8560.29706 2.06572e-17
8562.24598 2.04767e-17
8564.19491 2.00356e-17
8566.13379 2.05704e-17
8568.08271 2.06011e-17
8570.03163 1.97597e-17
8571.97051 1.96863e-17
8573.91944 2.07469e-17
8575.85831 2.10547e-17
8577.80724 2.18456e-17
8579.75616 2.25089e-17
8581.69504 2.31783e-17
8583.64396 2.29812e-17
8585.59289 2.26790e-17
8587.53177 2.29099e-17
8589.48069 2.33519e-17
8591.42961 2.21843e-17
8593.36849 2.22774e-17
8595.31742 2.36010e-17
8597.25629 2.27851e-17
8599.20522 2.16861e-17
8601.15414 2.26520e-17
8603.10307 2.28132e-17
8605.04194 2.22143e-17
8606.99087 2.24386e-17
8608.92975 2.22405e-17
8610.87867 2.29706e-17
8612.82759 2.32116e-17
8614.76647 2.23173e-17
8616.71540 2.24434e-17
8618.66432 2.31351e-17
8620.56251 2.31351e-17
8622.56092 2.34257e-17
8624.55934 2.36445e-17
8626.56784 2.38994e-17
8628.56626 2.42856e-17
8630.56467 2.46586e-17
8632.56309 2.48265e-17
8634.57159 2.49920e-17
8636.57001 2.53398e-17
8638.56842 2.58353e-17
8640.56684 2.63059e-17
8642.56525 2.66325e-17
8644.57376 2.69633e-17
8646.57217 2.74616e-17
8648.57058 2.79849e-17
8650.56900 2.85512e-17
8652.56741 2.89726e-17
8654.57592 2.90434e-17
8656.57433 2.87122e-17
8658.57275 2.82964e-17
8660.57116 2.81651e-17
8662.57967 2.81744e-17
8664.57808 2.83885e-17
8666.57650 2.86812e-17
8668.57491 2.89580e-17
8670.57332 2.91388e-17
8672.58183 2.92836e-17
8674.58025 2.94050e-17
8676.57866 2.94113e-17
8678.57707 2.91315e-17
8680.57549 2.87596e-17
8682.58399 2.84214e-17
8684.58241 2.82026e-17
8686.58082 2.80569e-17
8688.57924 2.79999e-17
8690.58774 2.80475e-17
8692.58616 2.82928e-17
8694.58457 2.85716e-17
8696.58299 2.87730e-17
8698.58140 2.88828e-17
8700.58991 2.89489e-17
8702.58832 2.90008e-17
8704.58673 2.90451e-17
8706.58515 2.91136e-17
8708.59366 2.91810e-17
8710.59207 2.92462e-17
8712.59048 2.92888e-17
8714.58890 2.92378e-17
8716.58731 2.91672e-17
8718.59582 2.92423e-17
8720.59423 2.96996e-17
8722.59265 3.02767e-17
8724.59106 3.08877e-17
8726.58947 3.13658e-17
8728.59798 3.15393e-17
8730.59640 3.14419e-17
8732.59481 3.12850e-17
8734.59322 3.12565e-17
8736.60173 3.11869e-17
8738.60014 3.09346e-17
8740.59856 3.06178e-17
8742.59697 3.02529e-17
8744.59539 2.99553e-17
8746.60389 2.98120e-17
8748.60231 2.98967e-17
8750.60072 3.00777e-17
8752.59914 3.02626e-17
8754.60764 3.03899e-17
8756.60606 3.03668e-17
8758.60447 3.02118e-17
8760.60288 2.99435e-17
8762.60130 2.96256e-17
8764.60981 2.93096e-17
8766.60822 2.90920e-17
8768.60663 2.89626e-17
8770.60505 2.89900e-17
8772.60346 2.90857e-17
8774.61197 2.91926e-17
8776.61038 2.92523e-17
8778.60880 2.92757e-17
8780.60721 2.92416e-17
8782.61572 2.91724e-17
8784.61413 2.90380e-17
8786.61254 2.89433e-17
8788.61096 2.89726e-17
8790.60937 2.91339e-17
8792.61788 2.93891e-17
8794.61629 2.96907e-17
8796.61471 2.99977e-17
8798.61312 3.02701e-17
8800.61154 3.04165e-17
8802.62004 3.03254e-17
8804.61846 3.00415e-17
8806.61687 2.96030e-17
8808.61529 2.91143e-17
8810.62379 2.86553e-17
8812.62221 2.84129e-17
8814.62062 2.81854e-17
8816.61903 2.78230e-17
8818.61745 2.74016e-17
8820.62596 2.69536e-17
8822.62437 2.65924e-17
8824.62278 2.63886e-17
8826.62120 2.64768e-17
8828.62970 2.67615e-17
8830.62812 2.73878e-17
8832.62653 2.79241e-17
8834.62495 2.79544e-17
8836.62336 2.75530e-17
8838.63187 2.70903e-17
8840.63028 2.68764e-17
8842.62870 2.67207e-17
8844.62711 2.65999e-17
8846.62552 2.64437e-17
8848.63403 2.61156e-17
8850.63244 2.57592e-17
8852.63086 2.55921e-17
8854.62927 2.56863e-17
8856.63778 2.57794e-17
8858.63619 2.55624e-17
8860.63461 2.52454e-17
8862.63302 2.48833e-17
8864.63144 2.45204e-17
8866.63994 2.41731e-17
8868.63836 2.38628e-17
8870.63677 2.35693e-17
8872.63518 2.32834e-17
8874.63360 2.30068e-17
8876.64211 2.27066e-17
8878.64052 2.24521e-17
8880.63893 2.23221e-17
8882.63735 2.22874e-17
8884.64585 2.22644e-17
8886.64427 2.21690e-17
8888.64268 2.20440e-17
8890.64110 2.18573e-17
8892.63951 2.16975e-17
8894.64802 2.16401e-17
8896.64643 2.16711e-17
8898.64485 2.17694e-17
8900.64326 2.18668e-17
8902.65177 2.18873e-17
8904.65018 2.16355e-17
8906.64859 2.13429e-17
8908.64701 2.10722e-17
8910.64542 2.09769e-17
8912.65393 2.12536e-17
8914.65234 2.18202e-17
8916.65076 2.23272e-17
8918.64917 2.23328e-17
8920.64759 2.20668e-17
8922.65609 2.14836e-17
8924.65451 2.07819e-17
8926.65292 2.01132e-17
8928.65133 1.95419e-17
8930.65984 1.89265e-17
8932.65826 1.82241e-17
8934.65667 1.76713e-17
8936.65508 1.76485e-17
8938.65350 1.78081e-17
8940.66200 1.79850e-17
8942.66042 1.80497e-17
8944.65883 1.79891e-17
8946.65725 1.77783e-17
8948.66575 1.75488e-17
8950.66417 1.75124e-17
8952.66258 1.74657e-17
8954.66100 1.72459e-17
8956.65941 1.69820e-17
8958.66792 1.68765e-17
8960.66633 1.69525e-17
8962.66474 1.69640e-17
8964.66316 1.66108e-17
8966.66157 1.62491e-17
8968.67008 1.61885e-17
8970.66849 1.62241e-17
8972.66691 1.61662e-17
8974.66532 1.59430e-17
8976.67383 1.56537e-17
8978.67224 1.53539e-17
8980.67066 1.50385e-17
8982.66907 1.46755e-17
8984.66748 1.43922e-17
8986.67599 1.43390e-17
8988.67441 1.44352e-17
8990.67282 1.45155e-17
8992.67123 1.44396e-17
8994.66965 1.43249e-17
8996.67815 1.42341e-17
8998.67657 1.41599e-17
9000.67498 1.40840e-17
9002.67340 1.40744e-17
9004.68190 1.42422e-17
9006.68032 1.45607e-17
9008.67873 1.48278e-17
9010.67714 1.47635e-17
9012.67556 1.45687e-17
9014.68407 1.42796e-17
9016.68248 1.39909e-17
9018.68089 1.37889e-17
9020.67931 1.36746e-17
9022.67772 1.35193e-17
9024.68623 1.32075e-17
9026.68464 1.29382e-17
9028.68306 1.29340e-17
9030.68147 1.30326e-17
9032.68998 1.31166e-17
9034.68839 1.31655e-17
9036.68681 1.32527e-17
9038.68522 1.34106e-17
9040.68363 1.35847e-17
9042.69214 1.37147e-17
9044.69056 1.38375e-17
9046.68897 1.39750e-17
9048.68738 1.41123e-17
9050.68580 1.42200e-17
9052.69430 1.42931e-17
9054.69272 1.43749e-17
9056.69113 1.45416e-17
9058.68955 1.46685e-17
9060.69805 1.45986e-17
9062.69647 1.44909e-17
9064.69488 1.45290e-17
9066.69330 1.47472e-17
9068.69171 1.49766e-17
9070.70022 1.50586e-17
9072.69863 1.50756e-17
9074.69704 1.50140e-17
9076.69546 1.49368e-17
9078.69387 1.48564e-17
9080.70238 1.48535e-17
9082.70079 1.50011e-17
9084.69921 1.53597e-17
9086.69762 1.57393e-17
9088.70613 1.59416e-17
9090.70454 1.60048e-17
9092.70296 1.58693e-17
9094.70137 1.56259e-17
9096.69978 1.53486e-17
9098.70829 1.51567e-17
9100.70671 1.50586e-17
9102.70512 1.51738e-17
9104.70353 1.53672e-17
9106.70195 1.55713e-17
9108.71045 1.57678e-17
9110.70887 1.59903e-17
9112.70728 1.61975e-17
9114.70570 1.63241e-17
9116.71420 1.62663e-17
9118.71262 1.61807e-17
9120.71103 1.62361e-17
9122.70945 1.62975e-17
9124.70786 1.62617e-17
9126.71637 1.60741e-17
9128.71478 1.57481e-17
9130.71319 1.52985e-17
9132.71161 1.48765e-17
9134.72012 1.47068e-17
9136.71853 1.46633e-17
9138.71694 1.47458e-17
9140.71536 1.48210e-17
9142.71377 1.47567e-17
9144.72228 1.44739e-17
9146.72069 1.41867e-17
9148.71911 1.41282e-17
9150.71752 1.42266e-17
9152.71593 1.46340e-17
9154.72444 1.50670e-17
9156.72286 1.52253e-17
9158.72127 1.49879e-17
9160.71968 1.46628e-17
9162.72819 1.45382e-17
9164.72660 1.44713e-17
9166.72502 1.44338e-17
9168.72343 1.44430e-17
9170.72185 1.45374e-17
9172.73035 1.46859e-17
9174.72877 1.48361e-17
9176.72718 1.49185e-17
9178.72559 1.49505e-17
9180.73410 1.48764e-17
9182.73252 1.47950e-17
9184.73093 1.47648e-17
9186.72934 1.48275e-17
9188.72776 1.49978e-17
9190.73626 1.52636e-17
9192.73468 1.55157e-17
9194.73309 1.55269e-17
9196.73151 1.55271e-17
9198.72992 1.56828e-17
9200.73843 1.58970e-17
9202.73684 1.59960e-17
9204.73526 1.59291e-17
9206.73367 1.58750e-17
9208.74218 1.60447e-17
9210.74059 1.62241e-17
9212.73901 1.62339e-17
9214.73742 1.62111e-17
9216.73583 1.63038e-17
9218.74434 1.65480e-17
9220.74275 1.68452e-17
9222.74117 1.71114e-17
9224.73958 1.73126e-17
9226.73800 1.73261e-17
9228.74650 1.72702e-17
9230.74492 1.72443e-17
9232.74333 1.72448e-17
9234.74175 1.71841e-17
9236.75025 1.70148e-17
9238.74867 1.68275e-17
9240.74708 1.66921e-17
9242.74549 1.66314e-17
9244.74391 1.67034e-17
9246.75242 1.68693e-17
9248.75083 1.70963e-17
9250.74924 1.73136e-17
9252.74766 1.74802e-17
9254.75616 1.74590e-17
9256.75458 1.74518e-17
9258.75299 1.76568e-17
9260.75141 1.79276e-17
9262.74982 1.81245e-17
9264.75833 1.81448e-17
9266.75674 1.80315e-17
9268.75516 1.77706e-17
9270.75357 1.74652e-17
9272.75198 1.71938e-17
9274.76049 1.70014e-17
9276.75890 1.69260e-17
9278.75732 1.69760e-17
9280.75573 1.71463e-17
9282.76424 1.73969e-17
9284.76265 1.75977e-17
9286.76107 1.74772e-17
9288.75948 1.72941e-17
9290.75790 1.72328e-17
9292.76640 1.72445e-17
9294.76482 1.71558e-17
9296.76323 1.69155e-17
9298.76164 1.67090e-17
9300.76006 1.67462e-17
9302.76857 1.69509e-17
9304.76698 1.75156e-17
9306.76539 1.80410e-17
9308.76381 1.81314e-17
9310.77231 1.76377e-17
9312.77073 1.68988e-17
9314.76914 1.61850e-17
9316.76756 1.57528e-17
9318.76597 1.62996e-17
9320.77448 1.70601e-17
9322.77289 1.73698e-17
9324.77131 1.70743e-17
9326.76972 1.66237e-17
9328.77823 1.63378e-17
9330.77664 1.60900e-17
9332.77505 1.58408e-17
9334.77347 1.57344e-17
9336.77188 1.59822e-17
9338.78039 1.64030e-17
9340.77880 1.67888e-17
9342.77722 1.68580e-17
9344.77563 1.66151e-17
9346.77405 1.55369e-17
9348.78255 1.46598e-17
9350.78097 1.49384e-17
9352.77938 1.58509e-17
9354.77779 1.66973e-17
9356.78630 1.70050e-17
9358.78471 1.71078e-17
9360.78313 1.70968e-17
9362.78154 1.69709e-17
9364.77996 1.67185e-17
9366.78846 1.64456e-17
9368.78688 1.61116e-17
9370.78529 1.59592e-17
9372.78371 1.62900e-17
9374.79221 1.74397e-17
9376.79063 1.86355e-17
9378.78904 1.91446e-17
9380.78746 1.91359e-17
9382.78587 1.84788e-17
9384.79438 1.75259e-17
9386.79279 1.66419e-17
9388.79120 1.62353e-17
9390.78962 1.60066e-17
9392.78803 1.58006e-17
9394.79654 1.56968e-17
9396.79495 1.57726e-17
9398.79337 1.59029e-17
9400.79178 1.59026e-17
9402.80029 1.57615e-17
9404.79870 1.57730e-17
9406.79712 1.63660e-17
9408.79553 1.69755e-17
9410.79394 1.71805e-17
9412.80245 1.71199e-17
9414.80086 1.69691e-17
9416.79928 1.68019e-17
9418.79769 1.65157e-17
9420.79611 1.60703e-17
9422.80461 1.57206e-17
9424.80303 1.58266e-17
9426.80144 1.61174e-17
9428.79986 1.64928e-17
9430.80836 1.67349e-17
9432.80678 1.66995e-17
9434.80519 1.62544e-17
9436.80361 1.57590e-17
9438.80202 1.56226e-17
9440.81053 1.56804e-17
9442.80894 1.60440e-17
9444.80735 1.64315e-17
9446.80577 1.65510e-17
9448.81428 1.62216e-17
9450.81269 1.57479e-17
9452.81110 1.53217e-17
9454.80952 1.51661e-17
9456.80793 1.58897e-17
9458.81644 1.67560e-17
9460.81485 1.69686e-17
9462.81327 1.63241e-17
9464.81168 1.55171e-17
9466.81009 1.51689e-17
9468.81860 1.51417e-17
9470.81702 1.57234e-17
9472.81543 1.65503e-17
9474.81384 1.75028e-17
9476.82235 1.82027e-17
9478.82076 1.84295e-17
9480.81918 1.78821e-17
9482.81759 1.70445e-17
9484.81601 1.62227e-17
9486.82451 1.56194e-17
9488.82293 1.55683e-17
9490.82134 1.58922e-17
9492.81976 1.63473e-17
9494.81817 1.65995e-17
9496.82668 1.65859e-17
9498.82509 1.58557e-17
9500.82350 1.50190e-17
9502.82192 1.44001e-17
9504.83043 1.41097e-17
9506.82884 1.41932e-17
9508.82725 1.45779e-17
9510.82567 1.50539e-17
9512.82408 1.53449e-17
9514.83259 1.54827e-17
9516.83100 1.52265e-17
9518.82942 1.49355e-17
9520.82783 1.49812e-17
9522.82624 1.53277e-17
9524.83475 1.56166e-17
9526.83317 1.55173e-17
9528.83158 1.52355e-17
9530.82999 1.47150e-17
9532.83850 1.42403e-17
9534.83691 1.41013e-17
9536.83533 1.41978e-17
9538.83374 1.42715e-17
9540.83216 1.41231e-17
9542.84066 1.38990e-17
9544.83908 1.36025e-17
9546.83749 1.33875e-17
9548.83591 1.34436e-17
9550.83432 1.36504e-17
9552.84283 1.38850e-17
9554.84124 1.40035e-17
9556.83965 1.39999e-17
9558.83807 1.37607e-17
9560.84658 1.34624e-17
9562.84499 1.32518e-17
9564.84340 1.30739e-17
9566.84182 1.28650e-17
9568.84023 1.26122e-17
9570.84874 1.23375e-17
9572.84715 1.20650e-17
9574.84557 1.18561e-17
9576.84398 1.17776e-17
9578.84239 1.18540e-17
9580.85090 1.21991e-17
9582.84931 1.26548e-17
9584.84773 1.30430e-17
9586.84614 1.31526e-17
9588.85465 1.30859e-17
9590.85306 1.27490e-17
9592.85148 1.23842e-17
9594.84989 1.21188e-17
9596.84831 1.20494e-17
9598.85681 1.22424e-17
9600.85523 1.26587e-17
9602.85364 1.30923e-17
9604.85206 1.32640e-17
9606.86056 1.32910e-17
9608.85898 1.30492e-17
9610.85739 1.28179e-17
9612.85580 1.28875e-17
9614.85422 1.32779e-17
9616.86273 1.36991e-17
9618.86114 1.38647e-17
9620.85955 1.38514e-17
9622.85797 1.34774e-17
9624.85638 1.30532e-17
9626.86489 1.27987e-17
9628.86330 1.28015e-17
9630.86172 1.30099e-17
9632.86013 1.33470e-17
9634.86864 1.35921e-17
9636.86705 1.31942e-17
9638.86547 1.27890e-17
9640.86388 1.28299e-17
9642.86229 1.31880e-17
9644.87080 1.35601e-17
9646.86921 1.37219e-17
9648.86763 1.37827e-17
9650.86604 1.37213e-17
9652.86446 1.36025e-17
9654.87296 1.34248e-17
9656.87138 1.33017e-17
9658.86979 1.33445e-17
9660.86821 1.35619e-17
9662.87671 1.38223e-17
9664.87513 1.39894e-17
9666.87354 1.40917e-17
9668.87195 1.40819e-17
9670.87037 1.39989e-17
9672.87888 1.38329e-17
9674.87729 1.36645e-17
9676.87570 1.35703e-17
9678.87412 1.36397e-17
9680.88262 1.37566e-17
9682.88104 1.38295e-17
9684.87945 1.38772e-17
9686.87787 1.38744e-17
9688.87628 1.38621e-17
9690.88479 1.39116e-17
9692.88320 1.40353e-17
9694.88162 1.41148e-17
9696.88003 1.39760e-17
9698.87844 1.37605e-17
9700.88695 1.34741e-17
9702.88536 1.32396e-17
9704.88378 1.31470e-17
9706.88219 1.32534e-17
9708.89070 1.34919e-17
9710.88911 1.38332e-17
9712.88753 1.41005e-17
9714.88594 1.39797e-17
9716.88436 1.37676e-17
9718.89286 1.37620e-17
9720.89128 1.39610e-17
9722.88969 1.40635e-17
9724.88810 1.38539e-17
9726.89661 1.37049e-17
9728.89503 1.40997e-17
9730.89344 1.45948e-17
9732.89185 1.49194e-17
9734.89027 1.50133e-17
9736.89877 1.49650e-17
9738.89719 1.48586e-17
9740.89560 1.47914e-17
9742.89402 1.50496e-17
9744.89243 1.52914e-17
9746.90094 1.53193e-17
9748.89935 1.51395e-17
9750.89776 1.47666e-17
9752.89618 1.43239e-17
9754.90469 1.39790e-17
9756.90310 1.40340e-17
9758.90151 1.41524e-17
9760.89993 1.41414e-17
9762.89834 1.39863e-17
9764.90685 1.36251e-17
9766.90526 1.31786e-17
9768.90368 1.28479e-17
9770.90209 1.28736e-17
9772.90051 1.29910e-17
9774.90901 1.29913e-17
9776.90743 1.29744e-17
9778.90584 1.29726e-17
9780.90425 1.30431e-17
9782.91276 1.32477e-17
9784.91118 1.36002e-17
9786.90959 1.39329e-17
9788.90800 1.39826e-17
9790.90642 1.39334e-17
9792.91492 1.38634e-17
9794.91334 1.37592e-17
9796.91175 1.35355e-17
9798.91017 1.32210e-17
9800.91867 1.29482e-17
9802.91709 1.29118e-17
9804.91550 1.29671e-17
9806.91392 1.30840e-17
9808.91233 1.31977e-17
9810.92084 1.32445e-17
9812.91925 1.32321e-17
9814.91766 1.32681e-17
9816.91608 1.34553e-17
9818.91449 1.36031e-17
9820.92300 1.35396e-17
9822.92141 1.33154e-17
9824.91983 1.28932e-17
9826.91824 1.24045e-17
9828.92675 1.19708e-17
9830.92516 1.17578e-17
9832.92358 1.16853e-17
9834.92199 1.17629e-17
9836.92040 1.19596e-17
9838.92891 1.23759e-17
9840.92733 1.27600e-17
9842.92574 1.27953e-17
9844.92415 1.23891e-17
9846.92257 1.20101e-17
9848.93107 1.22750e-17
9850.92949 1.26594e-17
9852.92790 1.29390e-17
9854.92632 1.30689e-17
9856.93482 1.30654e-17
9858.93324 1.29331e-17
9860.93165 1.27102e-17
9862.93007 1.24407e-17
9864.92848 1.21448e-17
9866.93699 1.17889e-17
9868.93540 1.15424e-17
9870.93381 1.16018e-17
9872.93223 1.18952e-17
9874.94074 1.21965e-17
9876.93915 1.22911e-17
9878.93756 1.23403e-17
9880.93598 1.24588e-17
9882.93439 1.25371e-17
9884.94290 1.25182e-17
9886.94131 1.23792e-17
9888.93973 1.20731e-17
9890.93814 1.16677e-17
9892.93655 1.13717e-17
9894.94506 1.16164e-17
9896.94348 1.19184e-17
9898.94189 1.19582e-17
9900.94030 1.18395e-17
9902.94881 1.17536e-17
9904.94722 1.17648e-17
9906.94564 1.17334e-17
9908.94405 1.15278e-17
9910.94247 1.14210e-17
9912.95097 1.17334e-17
9914.94939 1.22163e-17
9916.94780 1.27540e-17
9918.94621 1.31079e-17
9920.95472 1.31337e-17
9922.95314 1.26393e-17
9924.95155 1.20745e-17
9926.94996 1.19571e-17
9928.94838 1.19904e-17
9930.95689 1.20191e-17
9932.95530 1.20173e-17
9934.95371 1.20949e-17
9936.95213 1.22431e-17
9938.95054 1.23005e-17
9940.95905 1.18429e-17
9942.95746 1.15012e-17
9944.95588 1.18128e-17
9946.95429 1.24751e-17
9948.96280 1.31857e-17
9950.96121 1.35255e-17
9952.95963 1.33530e-17
9954.95804 1.21208e-17
9956.95645 1.09371e-17
9958.96496 1.08748e-17
9960.96337 1.13941e-17
9962.96179 1.20734e-17
9964.96020 1.25099e-17
9966.95862 1.26590e-17
9968.96712 1.22916e-17
9970.96554 1.18506e-17
9972.96395 1.18177e-17
9974.96236 1.19061e-17
9976.97087 1.18719e-17
9978.96929 1.18059e-17
9980.96770 1.20102e-17
9982.96611 1.26040e-17
9984.96453 1.31381e-17
9986.97304 1.29343e-17
9988.97145 1.25344e-17
9990.96986 1.21553e-17
9992.96828 1.18520e-17
9994.97678 1.15186e-17
9996.97520 1.12050e-17
9998.97361 1.10333e-17
10000.97203 1.12213e-17
10002.97044 1.15102e-17
