# wavelength flux
3477.00378 6.87933e-18
3478.46655 8.55250e-18
3479.93935 1.26255e-17
3481.41214 8.71548e-18
3482.88493 1.12171e-17
3484.34771 1.53919e-17
3485.82050 9.01803e-18
3487.29329 7.31565e-18
3488.75607 8.02086e-18
3490.22886 1.07380e-17
3491.70165 1.26284e-17
3493.17445 1.24004e-17
3494.63722 1.17708e-17
3496.11001 1.72814e-17
3497.58281 1.47824e-17
3499.04558 1.54276e-17
3500.51837 1.43773e-17
3501.99116 1.10991e-17
3503.46396 1.00301e-17
3504.92673 1.13081e-17
3506.39953 1.37861e-17
3507.87232 1.34521e-17
3509.34511 9.94040e-18
3510.80789 1.12101e-17
3512.28068 1.15086e-17
3513.75347 7.66914e-18
3515.21625 5.22933e-18
3516.68904 9.55879e-18
3518.16183 1.43987e-17
3519.63462 9.07419e-18
3521.09740 7.24476e-18
3522.57019 1.00676e-17
3524.04298 9.89450e-18
3525.50576 1.04143e-17
3526.97855 7.17912e-18
3528.45134 4.43261e-18
3529.92414 8.32109e-18
3531.38691 1.09226e-17
3532.85970 1.31869e-17
3534.33250 1.21680e-17
3535.79527 1.12415e-17
3537.26806 8.27150e-18
3538.74086 7.73570e-18
3540.21365 8.27438e-18
3541.67642 1.35763e-17
3543.14922 1.03561e-17
3544.62201 1.04806e-17
3546.09480 9.08654e-18
3547.55758 5.61596e-18
3549.03037 6.77882e-18
3550.50316 4.86667e-18
3551.96594 6.31575e-18
3553.43873 8.42780e-18
3554.91152 6.71471e-18
3556.38432 1.05250e-17
3557.84709 9.06880e-18
3559.31988 5.73097e-18
3560.79268 9.20549e-18
3562.25545 1.20499e-17
3563.72824 8.56021e-18
3565.20104 9.62657e-18
3566.67383 8.92853e-18
3568.13660 1.08916e-17
3569.60940 7.32720e-18
3571.08219 9.98146e-18
3572.55498 7.05228e-18
3574.01776 7.61261e-18
3575.49055 1.00901e-17
3576.96334 8.56805e-18
3578.42612 8.55250e-18
3579.89891 7.40865e-18
3581.37170 7.90114e-18
3582.84450 6.15188e-18
3584.30727 4.82526e-18
3585.78006 6.95753e-18
3587.25285 5.60335e-18
3588.71563 7.07641e-18
3590.18842 9.31831e-18
3591.66122 7.24973e-18
3593.13401 7.02668e-18
3594.59678 7.34384e-18
3596.06957 1.07276e-17
3597.54237 9.17941e-18
3599.01516 3.65642e-18
3600.47794 5.30474e-18
3601.95073 5.32097e-18
3603.42352 7.65304e-18
3604.88630 1.19527e-17
3606.35909 1.05390e-17
3607.83188 1.06733e-17
3609.30467 5.52902e-18
3610.76745 4.37388e-18
3612.24024 8.85803e-18
3613.71303 1.39526e-17
3615.17581 1.16614e-17
3616.64860 6.92918e-18
3618.12139 6.10298e-18
3619.59419 7.29174e-18
3621.05696 1.32358e-17
3622.52975 1.11570e-17
3624.00255 1.18073e-17
3625.46532 9.60497e-18
3626.93811 7.32135e-18
3628.41091 9.62421e-18
3629.88370 1.07100e-17
3631.34647 1.35868e-17
3632.81927 1.06565e-17
3634.29206 7.64802e-18
3635.76485 6.58385e-18
3637.22763 8.79052e-18
3638.70042 1.12813e-17
3640.17321 1.19159e-17
3641.63599 9.52739e-18
3643.10878 5.23191e-18
3644.58157 4.43184e-18
3646.05437 9.28890e-18
3647.51714 7.55786e-18
3648.98993 8.04775e-18
3650.46273 8.54993e-18
3651.92550 7.45550e-18
3653.39829 7.04462e-18
3654.87109 5.93231e-18
3656.34388 8.21770e-18
3657.80665 7.39892e-18
3659.27945 5.35025e-18
3660.75224 7.42383e-18
3662.22503 7.23046e-18
3663.68781 8.14615e-18
3665.16060 8.70431e-18
3666.63339 7.39446e-18
3668.09617 8.81928e-18
3669.56896 1.01132e-17
3671.04175 7.18144e-18
3672.51455 6.46987e-18
3673.97732 6.46964e-18
3675.45011 6.86233e-18
3676.92290 7.25499e-18
3678.38568 7.64763e-18
3679.85847 8.04024e-18
3681.33126 8.43283e-18
3682.80406 8.82538e-18
3684.26683 8.84060e-18
3685.73963 9.71121e-18
3687.21242 7.72863e-18
3688.67519 9.26380e-18
3690.14799 1.17845e-17
3691.62078 9.70937e-18
3693.09357 9.35249e-18
3694.55635 8.39843e-18
3696.02914 6.72773e-18
3697.50193 9.40792e-18
3698.97472 9.76499e-18
3700.43750 9.90925e-18
3701.91029 9.87239e-18
3703.38308 7.85290e-18
3704.84586 7.13183e-18
3706.31865 5.83713e-18
3707.79144 8.87944e-18
3709.26424 9.99654e-18
3710.72701 6.59240e-18
3712.19980 7.22492e-18
3713.67260 1.01561e-17
3715.13537 1.00921e-17
3716.60816 1.00282e-17
3718.08096 1.00320e-17
3719.55375 1.00359e-17
3721.01652 1.00398e-17
3722.48932 1.00436e-17
3723.96211 1.00475e-17
3725.43490 1.00513e-17
3726.89768 1.00552e-17
3728.37047 1.00591e-17
3729.84326 1.00629e-17
3731.30604 1.00668e-17
3732.77883 1.00707e-17
3734.25162 1.00745e-17
3735.72442 1.00784e-17
3737.18719 1.00823e-17
3738.65998 1.00861e-17
3740.13278 1.00900e-17
3741.59555 1.00939e-17
3743.06834 1.00978e-17
3744.54114 1.01016e-17
3746.01393 1.01055e-17
3747.47670 1.01094e-17
3748.94950 1.01132e-17
3750.42229 1.01171e-17
3751.88506 1.01210e-17
3753.35786 1.01249e-17
3754.83065 1.01287e-17
3756.30344 1.02715e-17
3757.76622 1.15326e-17
3759.23901 1.08153e-17
3760.71180 9.09880e-18
3762.18460 8.24491e-18
3763.64737 8.21267e-18
3765.12016 8.68029e-18
3766.59296 1.03491e-17
3768.05573 9.76545e-18
3769.52852 1.13981e-17
3771.00131 9.50598e-18
3772.47411 8.04497e-18
3773.93688 8.54663e-18
3775.40967 8.60038e-18
3776.88247 9.54989e-18
3778.35526 8.20546e-18
3779.81804 6.82240e-18
3781.29083 8.34727e-18
3782.76362 9.14891e-18
3784.22640 7.18421e-18
3785.69919 5.77703e-18
3787.17198 8.33855e-18
3788.64477 9.83355e-18
3790.10755 1.14312e-17
3791.58034 7.76755e-18
3793.05313 8.11807e-18
3794.51591 9.25521e-18
3795.98870 7.86820e-18
3797.46149 9.39951e-18
3798.93429 9.51622e-18
3800.39706 9.38422e-18
3801.86985 7.31835e-18
3803.34265 7.55172e-18
3804.80542 8.16570e-18
3806.27821 8.14488e-18
3807.75101 9.66831e-18
3809.22380 1.04847e-17
3810.68657 1.04935e-17
3812.15937 1.06093e-17
3813.63216 7.37950e-18
3815.10495 7.40475e-18
3816.56773 8.94561e-18
3818.04052 6.28349e-18
3819.51331 6.11241e-18
3820.97609 9.80255e-18
3822.44888 8.81795e-18
3823.92167 8.19430e-18
3825.39447 9.87332e-18
3826.85724 9.37133e-18
3828.33003 7.42385e-18
3829.80283 1.19102e-17
3831.26560 1.12334e-17
3832.73839 7.61314e-18
3834.21119 8.25299e-18
3835.68398 8.68873e-18
3837.14675 1.09438e-17
3838.61955 1.13259e-17
3840.09234 8.85548e-18
3841.56513 9.86191e-18
3843.02791 9.60469e-18
3844.50070 9.69504e-18
3845.97349 9.81290e-18
3847.43627 7.54998e-18
3848.90906 6.86322e-18
3850.38185 9.17256e-18
3851.85465 9.41993e-18
3853.31742 8.50199e-18
3854.79021 8.56842e-18
3856.26300 9.48065e-18
3857.72578 8.42419e-18
3859.19857 8.84273e-18
3860.67137 9.19931e-18
3862.14416 9.84926e-18
3863.60693 9.18106e-18
3865.07973 8.31006e-18
3866.55252 1.05653e-17
3868.01529 1.06029e-17
3869.48808 7.01910e-18
3870.96088 8.02578e-18
3872.43367 1.08186e-17
3873.89645 8.55690e-18
3875.36924 7.79200e-18
3876.84203 8.70903e-18
3878.31482 8.08700e-18
3879.77760 1.03106e-17
3881.25039 9.03269e-18
3882.72318 7.77525e-18
3884.18596 1.06580e-17
3885.65875 1.15439e-17
3887.13154 9.80909e-18
3888.60434 1.00554e-17
3890.06711 1.01988e-17
3891.53990 1.11542e-17
3893.01270 1.07569e-17
3894.47547 1.12245e-17
3895.94826 1.09007e-17
3897.42106 9.54688e-18
3898.89385 1.13674e-17
3900.35662 1.00725e-17
3901.82942 1.08412e-17
3903.30221 1.17290e-17
3904.77500 1.06707e-17
3906.23778 1.05340e-17
3907.71057 9.31882e-18
3909.18336 8.44103e-18
3910.64614 8.12472e-18
3912.11893 9.09608e-18
3913.59172 9.55251e-18
3915.06452 1.03399e-17
3916.52729 1.00830e-17
3918.00008 8.58787e-18
3919.47288 8.24097e-18
3920.93565 1.06468e-17
3922.40844 1.07805e-17
3923.88124 8.77729e-18
3925.35403 7.91419e-18
3926.81680 8.84472e-18
3928.28960 1.10300e-17
3929.76239 1.08211e-17
3931.22516 9.87251e-18
3932.69796 9.59686e-18
3934.17075 8.76329e-18
3935.64354 7.82102e-18
3937.10632 6.03345e-18
3938.57911 6.57423e-18
3940.05190 9.14741e-18
3941.52470 9.84713e-18
3942.98747 8.63780e-18
3944.46026 1.03895e-17
3945.93305 1.18998e-17
3947.39583 9.80546e-18
3948.86862 9.15035e-18
3950.34141 1.07053e-17
3951.81421 9.98461e-18
3953.27698 9.05156e-18
3954.74978 1.00732e-17
3956.22257 1.05054e-17
3957.68534 1.00496e-17
3959.15814 1.09272e-17
3960.63093 9.76554e-18
3962.10372 1.03338e-17
3963.56650 1.03385e-17
3965.03929 9.03563e-18
3966.51208 8.84872e-18
3967.98487 9.85809e-18
3969.44765 9.51004e-18
3970.92044 9.34215e-18
3972.39323 1.02161e-17
3973.85601 8.70722e-18
3975.32880 8.68996e-18
3976.80159 9.77140e-18
3978.27439 1.01786e-17
3979.73716 8.40255e-18
3981.20995 9.62011e-18
3982.68275 1.16444e-17
3984.14552 1.01857e-17
3985.61831 8.94661e-18
3987.09111 8.77083e-18
3988.56390 9.36791e-18
3990.02667 1.03805e-17
3991.49947 8.42051e-18
3992.97226 6.73857e-18
3994.43503 9.31501e-18
3995.90783 8.98235e-18
3997.38062 8.34408e-18
3998.85341 8.43824e-18
4000.31619 8.84197e-18
4001.78898 7.90223e-18
4003.26177 9.03126e-18
4004.73457 7.76784e-18
4006.19734 1.02256e-17
4007.67013 9.36968e-18
4009.14293 6.62614e-18
4010.60570 7.04629e-18
4012.07849 8.87330e-18
4013.55129 8.52445e-18
4015.02408 6.71295e-18
4016.48685 8.31091e-18
4017.95965 8.06040e-18
4019.43244 8.35209e-18
4020.89521 7.52801e-18
4022.36801 7.58832e-18
4023.84080 6.82368e-18
4025.31359 8.16194e-18
4026.77637 8.87611e-18
4028.24916 7.15453e-18
4029.72195 6.98297e-18
4031.19475 6.69231e-18
4032.65752 6.44582e-18
4034.13031 6.01074e-18
4035.60310 7.32279e-18
4037.06588 9.12290e-18
4038.53867 8.90542e-18
4040.01147 7.59258e-18
4041.48426 7.53398e-18
4042.94703 8.81285e-18
4044.41982 7.73923e-18
4045.89262 8.96344e-18
4047.35539 8.99096e-18
4048.82819 9.55616e-18
4050.30098 9.29964e-18
4051.77377 7.33531e-18
4053.23655 8.17086e-18
4054.70934 9.11869e-18
4056.18213 8.99237e-18
4057.65492 8.42331e-18
4059.11770 7.03569e-18
4060.59049 8.03985e-18
4062.06328 9.11465e-18
4063.52606 8.44644e-18
4064.99885 9.30785e-18
4066.47164 8.70035e-18
4067.94444 8.42468e-18
4069.40721 1.00496e-17
4070.88000 1.10423e-17
4072.35280 8.94624e-18
4073.81557 6.71983e-18
4075.28836 8.57142e-18
4076.76116 8.25040e-18
4078.23395 8.55238e-18
4079.69672 8.37279e-18
4081.16952 8.49808e-18
4082.64231 9.09958e-18
4084.11510 8.77603e-18
4085.57788 8.98968e-18
4087.05067 8.27956e-18
4088.52346 7.28840e-18
4089.98624 8.87925e-18
4091.45903 1.01618e-17
4092.93182 9.40104e-18
4094.40462 8.24346e-18
4095.86739 9.07692e-18
4097.34018 9.69271e-18
4098.81298 9.88168e-18
4100.27575 9.95828e-18
4101.74854 1.02701e-17
4103.22134 1.05026e-17
4104.69413 1.09550e-17
4106.15690 1.00257e-17
4107.62970 9.28178e-18
4109.10249 9.68627e-18
4110.56526 9.46432e-18
4112.03806 8.55062e-18
4113.51085 9.95011e-18
4114.98364 9.88554e-18
4116.44642 8.98563e-18
4117.91921 1.10739e-17
4119.39200 1.14219e-17
4120.86480 9.57632e-18
4122.32757 8.51719e-18
4123.80036 9.19782e-18
4125.27315 1.06744e-17
4126.73593 1.09709e-17
4128.20872 9.30902e-18
4129.68152 8.45495e-18
4131.15431 9.33023e-18
4132.61708 8.79996e-18
4134.08987 1.01139e-17
4135.56267 1.14490e-17
4137.02544 1.05426e-17
4138.49824 1.09077e-17
4139.97103 1.11195e-17
4141.44382 1.10136e-17
4142.90660 1.12885e-17
4144.37939 9.74074e-18
4145.85218 7.95560e-18
4147.32497 9.24423e-18
4148.78775 1.08651e-17
4150.26054 1.08779e-17
4151.73333 1.04632e-17
4153.19611 1.06278e-17
4154.66890 9.89936e-18
4156.14169 9.42630e-18
4157.61449 1.05430e-17
4159.07726 9.81548e-18
4160.55005 9.72714e-18
4162.02285 9.22693e-18
4163.48562 9.45729e-18
4164.95841 9.72499e-18
4166.43121 8.82741e-18
4167.90400 9.90496e-18
4169.36677 8.43154e-18
4170.83957 9.79373e-18
4172.31236 1.08045e-17
4173.77513 1.01832e-17
4175.24793 1.11298e-17
4176.72072 1.14089e-17
4178.19351 1.02965e-17
4179.65629 9.18847e-18
4181.12908 1.09901e-17
4182.60187 1.00176e-17
4184.07467 9.32848e-18
4185.53744 1.06594e-17
4187.01023 1.05784e-17
4188.48303 1.00807e-17
4189.94580 9.52440e-18
4191.41859 9.40531e-18
4192.89139 9.87361e-18
4194.36418 1.03272e-17
4195.82695 1.10095e-17
4197.29975 1.21100e-17
4198.77254 1.00681e-17
4200.23531 9.53140e-18
4201.70811 1.05069e-17
4203.18090 1.20376e-17
4204.65369 1.07551e-17
4206.11647 7.94011e-18
4207.58926 9.11309e-18
4209.06205 1.12026e-17
4210.52483 1.11745e-17
4211.99762 1.18280e-17
4213.47041 1.24191e-17
4214.94320 1.27437e-17
4216.40598 1.24628e-17
4217.87877 1.16204e-17
4219.35157 1.15649e-17
4220.82436 1.11497e-17
4222.28713 1.02914e-17
4223.75993 1.01914e-17
4225.23272 9.22313e-18
4226.70551 1.06952e-17
4228.16828 1.20232e-17
4229.64108 1.20368e-17
4231.11387 1.05669e-17
4232.57665 1.01149e-17
4234.04944 1.01357e-17
4235.52223 1.06743e-17
4236.99502 1.18535e-17
4238.45780 1.05064e-17
4239.93059 1.02158e-17
4241.40338 1.08467e-17
4242.86616 1.12302e-17
4244.33895 1.19922e-17
4245.81174 1.10472e-17
4247.28454 1.16904e-17
4248.74731 1.24018e-17
4250.22010 1.12446e-17
4251.69290 1.05456e-17
4253.15567 1.11009e-17
4254.62846 1.20577e-17
4256.10126 1.06614e-17
4257.57405 1.09115e-17
4259.03682 1.20545e-17
4260.50962 1.09827e-17
4261.98241 1.03676e-17
4263.45520 1.39155e-17
4264.91798 1.33112e-17
4266.39077 1.19911e-17
4267.86356 1.15465e-17
4269.32634 1.27862e-17
4270.79913 1.25823e-17
4272.27192 1.22529e-17
4273.74472 1.25325e-17
4275.20749 1.21464e-17
4276.68028 1.28372e-17
4278.15308 1.12239e-17
4279.61585 1.06731e-17
4281.08864 1.14407e-17
4282.56144 1.30755e-17
4284.03423 1.31328e-17
4285.49700 1.28747e-17
4286.96980 1.22725e-17
4288.44259 1.25979e-17
4289.90536 1.22956e-17
4291.37816 1.29063e-17
4292.85095 1.20202e-17
4294.32374 1.21582e-17
4295.78652 1.10518e-17
4297.25931 1.00581e-17
4298.73210 1.09693e-17
4300.20489 1.09450e-17
4301.66767 1.10381e-17
4303.14046 1.09993e-17
4304.61326 1.15900e-17
4306.07603 1.24112e-17
4307.54882 1.26794e-17
4309.02162 1.18608e-17
4310.49441 1.11026e-17
4311.95718 1.24561e-17
4313.42998 1.30041e-17
4314.90277 1.17870e-17
4316.36554 1.17504e-17
4317.83833 1.08262e-17
4319.31113 1.17720e-17
4320.78392 1.25585e-17
4322.24669 1.37269e-17
4323.71949 1.26255e-17
4325.19228 1.25502e-17
4326.66507 1.28007e-17
4328.12785 1.21822e-17
4329.60064 1.22572e-17
4331.07343 1.08448e-17
4332.53621 1.08655e-17
4334.00900 1.21539e-17
4335.48179 1.17991e-17
4336.95459 1.32067e-17
4338.41736 1.27824e-17
4339.89015 1.18150e-17
4341.36295 1.22251e-17
4342.82572 1.22139e-17
4344.29851 1.16996e-17
4345.77131 1.19695e-17
4347.24410 1.06586e-17
4348.70687 1.11152e-17
4350.17967 1.02939e-17
4351.65246 9.71565e-18
4353.12525 1.26107e-17
4354.58803 1.25343e-17
4356.06082 1.24579e-17
4357.53361 1.23815e-17
4358.99639 1.23051e-17
4360.46918 1.22287e-17
4361.94197 1.21523e-17
4363.41477 1.20759e-17
4364.87754 1.19996e-17
4366.35033 1.19232e-17
4367.82313 1.18468e-17
4369.28590 1.17704e-17
4370.75869 1.16941e-17
4372.23149 1.16177e-17
4373.70428 1.15413e-17
4375.16705 1.14650e-17
4376.63985 1.13886e-17
4378.11264 1.13123e-17
4379.57541 1.12359e-17
4381.04821 1.11596e-17
4382.52100 1.10833e-17
4383.99379 1.10069e-17
4385.45657 1.09306e-17
4386.92936 1.08543e-17
4388.40215 1.07779e-17
4389.87495 1.07016e-17
4391.33772 1.18547e-17
4392.81051 1.22855e-17
4394.28330 1.13748e-17
4395.74608 1.17366e-17
4397.21887 1.15509e-17
4398.69167 1.02329e-17
4400.16446 1.09015e-17
4401.62723 1.18000e-17
4403.10002 1.16712e-17
4404.57282 1.17506e-17
4406.03559 8.50129e-18
4407.50839 8.99190e-18
4408.98118 1.01785e-17
4410.45397 9.85794e-18
4411.91675 8.98075e-18
4413.38954 8.78867e-18
4414.86233 9.97628e-18
4416.33512 1.07832e-17
4417.79790 9.64969e-18
4419.27069 9.46643e-18
4420.74348 9.31472e-18
4422.20626 9.18785e-18
4423.67905 8.80587e-18
4425.15184 9.38362e-18
4426.62464 9.99173e-18
4428.08741 9.67219e-18
4429.56020 1.00043e-17
4431.03300 1.00534e-17
4432.49577 9.22746e-18
4433.96856 7.82535e-18
4435.44136 8.74448e-18
4436.91415 1.00734e-17
4438.37692 9.72261e-18
4439.84972 9.12477e-18
4441.32251 8.48419e-18
4442.78528 7.74342e-18
4444.25808 8.36672e-18
4445.73087 8.34740e-18
4447.20366 1.00606e-17
4448.66644 8.34015e-18
4450.13923 6.66018e-18
4451.61202 7.04986e-18
4453.08482 8.22867e-18
4454.54759 8.34712e-18
4456.02038 8.49402e-18
4457.49318 9.11316e-18
4458.95595 7.97994e-18
4460.42874 7.73524e-18
4461.90154 8.50000e-18
4463.37433 8.44730e-18
4464.83710 8.98674e-18
4466.30990 7.60165e-18
4467.78269 6.90306e-18
4469.24546 7.51206e-18
4470.71826 7.55376e-18
4472.19105 7.75247e-18
4473.66384 7.74428e-18
4475.12662 8.47682e-18
4476.59941 1.09303e-17
4478.07220 7.81010e-18
4479.54500 5.46659e-18
4481.00777 7.30635e-18
4482.48056 7.42377e-18
4483.95335 7.26291e-18
4485.41613 8.26078e-18
4486.88892 7.99241e-18
4488.36172 7.14959e-18
4489.83451 7.04712e-18
4491.29728 7.27933e-18
4492.77008 8.03176e-18
4494.24287 9.26103e-18
4495.70564 8.31535e-18
4497.17843 7.73609e-18
4498.65123 8.11088e-18
4500.12402 7.31733e-18
4501.58680 6.62456e-18
4503.05959 6.82813e-18
4504.53238 6.78545e-18
4506.00517 7.56394e-18
4507.46795 7.89423e-18
4508.94074 7.16794e-18
4510.41353 6.32478e-18
4511.87631 7.55156e-18
4513.34910 7.78505e-18
4514.82189 5.68405e-18
4516.29469 7.04042e-18
4517.75746 7.59959e-18
4519.23025 8.12891e-18
4520.70305 7.33611e-18
4522.16582 6.84113e-18
4523.63861 7.38297e-18
4525.11141 7.83918e-18
4526.58420 7.27226e-18
4528.04697 7.59059e-18
4529.51977 8.97890e-18
4530.99256 9.49370e-18
4532.45533 8.89617e-18
4533.92813 8.41590e-18
4535.40092 1.06735e-17
4536.87371 1.15089e-17
4538.33649 8.18895e-18
4539.80928 8.62433e-18
4541.28207 8.05515e-18
4542.75487 8.29382e-18
4544.21764 8.92333e-18
4545.69043 8.80065e-18
4547.16323 1.00850e-17
4548.62600 9.44889e-18
4550.09879 7.56697e-18
4551.57159 7.86676e-18
4553.04438 8.81201e-18
4554.50715 8.89068e-18
4555.97995 8.78553e-18
4557.45274 9.45927e-18
4558.91551 1.00816e-17
4560.38831 8.66967e-18
4561.86110 7.32658e-18
4563.33389 7.31871e-18
4564.79667 8.38766e-18
4566.26946 1.02124e-17
4567.74225 9.36871e-18
4569.20503 8.97331e-18
4570.67782 9.38984e-18
4572.15061 1.02146e-17
4573.62341 8.29970e-18
4575.08618 9.23444e-18
4576.55897 9.04753e-18
4578.03177 9.96756e-18
4579.50456 9.53892e-18
4580.96733 9.25868e-18
4582.44013 8.49802e-18
4583.91292 9.07621e-18
4585.37569 8.71072e-18
4586.84848 9.25006e-18
4588.32128 1.07175e-17
4589.79407 1.01169e-17
4591.25684 1.10905e-17
4592.72964 1.08435e-17
4594.20243 1.00531e-17
4595.67522 1.04287e-17
4597.13800 1.00143e-17
4598.61079 8.67245e-18
4600.08358 1.07469e-17
4601.54636 1.19630e-17
4603.01915 1.08912e-17
4604.49194 1.00739e-17
4605.96474 1.08693e-17
4607.42751 1.07708e-17
4608.90030 1.06602e-17
4610.37310 1.02829e-17
4611.83587 1.04741e-17
4613.30866 9.97513e-18
4614.78146 1.12650e-17
4616.25425 1.04666e-17
4617.71702 1.03414e-17
4619.18982 1.04169e-17
4620.66261 1.10551e-17
4622.12538 1.12968e-17
4623.59818 1.19814e-17
4625.07097 1.10370e-17
4626.54376 9.92506e-18
4628.00654 1.03027e-17
4629.47933 1.06840e-17
4630.95212 1.17226e-17
4632.42492 1.15466e-17
4633.88769 1.12416e-17
4635.36048 1.02823e-17
4636.83328 1.01198e-17
4638.29605 1.00593e-17
4639.76884 9.83203e-18
4641.24164 1.11495e-17
4642.71443 1.20340e-17
4644.17720 1.24858e-17
4645.65000 1.13395e-17
4647.12279 1.23588e-17
4648.58556 1.10963e-17
4650.05836 1.11371e-17
4651.53115 1.24020e-17
4653.00394 1.26738e-17
4654.46672 1.19017e-17
4655.93951 1.20559e-17
4657.41230 1.16391e-17
4658.87508 1.21541e-17
4660.34787 1.19895e-17
4661.82066 1.24287e-17
4663.29345 1.15842e-17
4664.75623 1.17690e-17
4666.22902 1.11832e-17
4667.70182 1.15339e-17
4669.17461 1.08025e-17
4670.63738 1.20526e-17
4672.11017 1.30290e-17
4673.58297 1.29950e-17
4675.04574 1.29296e-17
4676.51853 1.34554e-17
4677.99133 1.31998e-17
4679.46412 1.27234e-17
4680.92690 1.24851e-17
4682.39969 1.14880e-17
4683.87248 1.08719e-17
4685.33525 1.17223e-17
4686.80805 1.11352e-17
4688.28084 1.15457e-17
4689.75363 1.12625e-17
4691.21641 1.29083e-17
4692.68920 1.27797e-17
4694.16199 1.19835e-17
4695.63479 1.24074e-17
4697.09756 1.29362e-17
4698.57035 1.24190e-17
4700.04315 1.16146e-17
4701.50592 1.15662e-17
4702.97871 1.21306e-17
4704.45151 1.27302e-17
4705.92430 1.36297e-17
4707.38707 1.40117e-17
4708.85987 1.23583e-17
4710.33266 1.15088e-17
4711.79543 1.28022e-17
4713.26823 1.24011e-17
4714.74102 1.23800e-17
4716.21381 1.31445e-17
4717.67659 1.30723e-17
4719.14938 1.16928e-17
4720.62217 1.24709e-17
4722.09497 1.42618e-17
4723.55774 1.31348e-17
4725.03053 1.30727e-17
4726.50333 1.25138e-17
4727.96610 1.17532e-17
4729.43889 1.25526e-17
4730.91169 1.17541e-17
4732.38448 1.10801e-17
4733.84725 9.94243e-18
4735.32005 1.15419e-17
4736.79284 1.17963e-17
4738.25561 1.14253e-17
4739.72841 1.35054e-17
4741.20120 1.35299e-17
4742.67399 1.41284e-17
4744.13677 1.38301e-17
4745.60956 1.35964e-17
4747.08235 1.30290e-17
4748.54513 1.17329e-17
4750.01792 1.33135e-17
4751.49071 1.32079e-17
4752.96350 1.31045e-17
4754.42628 1.28414e-17
4755.89907 1.26309e-17
4757.37187 1.11942e-17
4758.84466 1.23284e-17
4760.30743 1.34765e-17
4761.78023 1.35315e-17
4763.25302 1.37819e-17
4764.71579 1.31951e-17
4766.18858 1.26553e-17
4767.66138 1.26322e-17
4769.13417 1.23590e-17
4770.59695 1.14592e-17
4772.06974 1.27892e-17
4773.54253 1.24618e-17
4775.00530 1.42175e-17
4776.47810 1.34363e-17
4777.95089 1.29840e-17
4779.42368 1.42323e-17
4780.88646 1.41482e-17
4782.35925 1.39421e-17
4783.83204 1.33009e-17
4785.30484 1.29654e-17
4786.76761 1.41444e-17
4788.24040 1.28902e-17
4789.71320 1.28792e-17
4791.17597 1.31038e-17
4792.64876 1.36367e-17
4794.12156 1.33532e-17
4795.59435 1.38580e-17
4797.05712 1.48590e-17
4798.52992 1.47726e-17
4800.00271 1.41440e-17
4801.46548 1.33029e-17
4802.93828 1.29452e-17
4804.41107 1.31176e-17
4805.88386 1.36336e-17
4807.34664 1.46813e-17
4808.81943 1.48404e-17
4810.29222 1.41752e-17
4811.75500 1.42060e-17
4813.22779 1.35401e-17
4814.70058 1.37536e-17
4816.17338 1.29716e-17
4817.63615 1.35382e-17
4819.10894 1.32488e-17
4820.58174 1.41457e-17
4822.05453 1.33568e-17
4823.51730 1.30367e-17
4824.99010 1.41587e-17
4826.46289 1.34737e-17
4827.92566 1.28971e-17
4829.39846 1.34744e-17
4830.87125 1.40490e-17
4832.34404 1.32810e-17
4833.80682 1.33615e-17
4835.27961 1.48407e-17
4836.75240 1.33040e-17
4838.22519 1.24175e-17
4839.68797 1.37169e-17
4841.16076 1.46923e-17
4842.63355 1.42834e-17
4844.09633 1.42592e-17
4845.56912 1.39421e-17
4847.04192 1.44059e-17
4848.51471 1.37189e-17
4849.97748 1.30857e-17
4851.45028 1.25135e-17
4852.92307 1.25808e-17
4854.38584 1.26481e-17
4855.85863 1.27153e-17
4857.33143 1.27826e-17
4858.80422 1.28498e-17
4860.26699 1.29170e-17
4861.73979 1.29843e-17
4863.21258 1.30515e-17
4864.68537 1.31188e-17
4866.14815 1.31860e-17
4867.62094 1.32532e-17
4869.09373 1.33204e-17
4870.55651 1.33876e-17
4872.02930 1.34548e-17
4873.50209 1.35221e-17
4874.97489 1.35893e-17
4876.43766 1.36564e-17
4877.91045 1.37236e-17
4879.38325 1.37908e-17
4880.84602 1.38580e-17
4882.31881 1.39252e-17
4883.79161 1.39924e-17
4885.26440 1.40596e-17
4886.72717 1.41267e-17
4888.19997 1.41939e-17
4889.67276 1.42611e-17
4891.13553 1.39617e-17
4892.60833 1.36513e-17
4894.08112 1.42302e-17
4895.55391 1.27522e-17
4897.01669 1.24648e-17
4898.48948 1.32577e-17
4899.96227 1.40683e-17
4901.43507 1.44422e-17
4902.89784 1.38999e-17
4904.37063 1.36830e-17
4905.84343 1.39316e-17
4907.30620 1.32486e-17
4908.77899 1.37008e-17
4910.25179 1.29625e-17
4911.72458 1.33187e-17
4913.18735 1.39807e-17
4914.66015 1.26803e-17
4916.13294 1.43369e-17
4917.59571 1.43029e-17
4919.06851 1.34253e-17
4920.54130 1.27129e-17
4922.01409 1.33537e-17
4923.47687 1.43009e-17
4924.94966 1.47081e-17
4926.42245 1.41122e-17
4927.88523 1.36207e-17
4929.35802 1.36943e-17
4930.83081 1.25972e-17
4932.30361 1.25762e-17
4933.76638 1.36419e-17
4935.23917 1.33983e-17
4936.71197 1.39913e-17
4938.18476 1.29368e-17
4939.64753 1.23030e-17
4941.12032 1.44254e-17
4942.59312 1.46887e-17
4944.05589 1.29208e-17
4945.52868 1.19270e-17
4947.00148 1.33492e-17
4948.47427 1.38326e-17
4949.93705 1.36031e-17
4951.40984 1.35455e-17
4952.88263 1.34878e-17
4954.35542 1.34302e-17
4955.81820 1.33725e-17
4957.29099 1.33149e-17
4958.76378 1.32572e-17
4960.22656 1.31996e-17
4961.69935 1.31420e-17
4963.17214 1.30843e-17
4964.64494 1.30267e-17
4966.10771 1.29691e-17
4967.58050 1.29115e-17
4969.05330 1.28538e-17
4970.51607 1.27962e-17
4971.98886 1.27386e-17
4973.46166 1.26810e-17
4974.93445 1.26234e-17
4976.39722 1.25658e-17
4977.87002 1.25082e-17
4979.34281 1.24506e-17
4980.80558 1.23930e-17
4982.27838 1.23354e-17
4983.75117 1.22779e-17
4985.22396 1.22203e-17
4986.68674 1.21627e-17
4988.15953 1.22546e-17
4989.63232 1.32912e-17
4991.10512 1.35572e-17
4992.56789 1.36344e-17
4994.04068 1.38846e-17
4995.51348 1.40005e-17
4996.97625 1.30953e-17
4998.44904 1.30555e-17
4999.92184 1.30158e-17
5001.39463 1.29761e-17
5002.85740 1.29363e-17
5004.33020 1.28966e-17
5005.80299 1.28569e-17
5007.26576 1.28171e-17
5008.73856 1.27774e-17
5010.21135 1.27377e-17
5011.68414 1.26980e-17
5013.14692 1.26583e-17
5014.61971 1.26186e-17
5016.09250 1.25789e-17
5017.55528 1.25391e-17
5019.02807 1.24994e-17
5020.50086 1.24597e-17
5021.97365 1.24200e-17
5023.43643 1.23803e-17
5024.90922 1.23406e-17
5026.38202 1.23009e-17
5027.85481 1.22613e-17
5029.31758 1.22216e-17
5030.79038 1.21819e-17
5032.26317 1.21422e-17
5033.72594 1.21025e-17
5035.19873 1.20628e-17
5036.67153 1.26790e-17
5038.14432 1.30901e-17
5039.60710 1.34683e-17
5041.07989 1.33681e-17
5042.55268 1.23919e-17
5044.01545 1.41385e-17
5045.48825 1.41611e-17
5046.96104 1.30176e-17
5048.43383 1.32803e-17
5049.89661 1.26112e-17
5051.36940 1.27237e-17
5052.84219 1.27555e-17
5054.31499 1.33845e-17
5055.77776 1.17220e-17
5057.25055 1.27078e-17
5058.72335 1.34060e-17
5060.18612 1.33008e-17
5061.65891 1.32857e-17
5063.13171 1.29616e-17
5064.60450 1.11217e-17
5066.06727 1.09930e-17
5067.54007 1.28038e-17
5069.01286 1.32436e-17
5070.47563 1.24925e-17
5071.94843 1.17353e-17
5073.42122 1.19879e-17
5074.89401 1.15203e-17
5076.35679 1.29093e-17
5077.82958 1.29761e-17
5079.30237 1.23397e-17
5080.77517 1.25921e-17
5082.23794 1.15891e-17
5083.71073 1.14646e-17
5085.18353 1.18292e-17
5086.64630 1.26075e-17
5088.11909 1.35553e-17
5089.59189 1.27595e-17
5091.06468 1.25623e-17
5092.52745 1.27335e-17
5094.00025 1.28857e-17
5095.47304 1.24079e-17
5096.93581 1.39696e-17
5098.40861 1.29259e-17
5099.88140 1.15621e-17
5101.35419 1.13220e-17
5102.81697 1.20102e-17
5104.28976 1.22440e-17
5105.76255 1.23861e-17
5107.22533 1.19390e-17
5108.69812 1.21788e-17
5110.17091 1.13550e-17
5111.64370 1.25310e-17
5113.10648 1.20507e-17
5114.57927 1.28885e-17
5116.05207 1.20493e-17
5117.52486 1.25447e-17
5118.98763 1.26918e-17
5120.46043 1.26225e-17
5121.93322 1.29557e-17
5123.39599 1.15589e-17
5124.86878 1.27059e-17
5126.34158 1.18419e-17
5127.81437 1.14956e-17
5129.27715 1.15895e-17
5130.74994 1.24036e-17
5132.22273 1.20943e-17
5133.68550 1.17573e-17
5135.15830 1.16331e-17
5136.63109 1.19045e-17
5138.10388 1.25227e-17
5139.56666 1.11376e-17
5141.03945 1.19995e-17
5142.51224 1.18763e-17
5143.98504 1.21546e-17
5145.44781 1.10527e-17
5146.92060 1.09340e-17
5148.39340 1.28451e-17
5149.85617 1.28994e-17
5151.32896 1.29333e-17
5152.80176 1.29896e-17
5154.27455 1.28429e-17
5155.73732 1.29973e-17
5157.21012 1.28004e-17
5158.68291 1.23659e-17
5160.14568 1.25784e-17
5161.61848 1.27414e-17
5163.09127 1.17336e-17
5164.56406 1.16657e-17
5166.02684 1.13463e-17
5167.49963 1.14586e-17
5168.97242 1.16507e-17
5170.43520 1.21798e-17
5171.90799 1.14560e-17
5173.38078 1.14239e-17
5174.85358 1.11418e-17
5176.31635 1.20574e-17
5177.78914 1.21102e-17
5179.26194 1.20970e-17
5180.73473 1.20824e-17
5182.19750 1.17754e-17
5183.67030 1.27470e-17
5185.14309 1.14838e-17
5186.60586 1.16862e-17
5188.07866 1.18671e-17
5189.55145 1.23035e-17
5191.02424 1.13014e-17
5192.48702 1.14700e-17
5193.95981 1.24912e-17
5195.43260 1.24029e-17
5196.89538 1.11478e-17
5198.36817 1.11136e-17
5199.84096 1.11599e-17
5201.31376 1.15393e-17
5202.77653 1.16333e-17
5204.24932 1.20755e-17
5205.72212 1.22407e-17
5207.19491 1.09333e-17
5208.65768 1.05876e-17
5210.13047 1.13372e-17
5211.60327 1.03409e-17
5213.06604 1.10134e-17
5214.53883 1.16119e-17
5216.01163 1.06579e-17
5217.48442 1.10937e-17
5218.94720 1.12498e-17
5220.41999 1.08160e-17
5221.89278 1.05198e-17
5223.35556 1.13328e-17
5224.82835 1.14006e-17
5226.30114 1.16246e-17
5227.77393 1.22959e-17
5229.23671 1.15185e-17
5230.70950 1.12670e-17
5232.18229 1.17335e-17
5233.65509 1.11101e-17
5235.11786 1.02355e-17
5236.59065 1.10727e-17
5238.06345 1.12242e-17
5239.52622 1.11970e-17
5240.99901 1.05040e-17
5242.47181 1.14197e-17
5243.94460 1.06918e-17
5245.40737 1.07268e-17
5246.88017 1.10559e-17
5248.35296 1.09416e-17
5249.81573 1.12276e-17
5251.28853 1.15650e-17
5252.76132 1.10545e-17
5254.23411 1.09298e-17
5255.69689 1.00426e-17
5257.16968 1.01953e-17
5258.64247 1.10862e-17
5260.10525 1.10276e-17
5261.57804 1.13907e-17
5263.05083 1.15331e-17
5264.52363 1.09924e-17
5265.98640 1.10177e-17
5267.45919 1.11430e-17
5268.93199 1.17684e-17
5270.40478 1.15147e-17
5271.86755 1.07822e-17
5273.34035 1.05167e-17
5274.81314 1.13890e-17
5276.27591 1.10912e-17
5277.74871 1.04429e-17
5279.22150 1.16432e-17
5280.69429 1.10546e-17
5282.15707 1.07525e-17
5283.62986 1.15688e-17
5285.10265 1.09860e-17
5286.56543 1.06065e-17
5288.03822 1.05008e-17
5289.51101 1.09028e-17
5290.98380 1.10652e-17
5292.44658 1.07361e-17
5293.91937 1.07831e-17
5295.39217 1.04785e-17
5296.85494 1.00792e-17
5298.32773 1.02170e-17
5299.80052 1.08113e-17
5301.27332 1.03730e-17
5302.73609 1.07802e-17
5304.20889 1.11968e-17
5305.68168 9.80115e-18
5307.15447 1.02773e-17
5308.61725 1.05840e-17
5310.09004 9.92058e-18
5311.56283 1.00996e-17
5313.02560 1.04241e-17
5314.49840 1.06547e-17
5315.97119 1.02365e-17
5317.44398 1.09344e-17
5318.90676 1.18868e-17
5320.37955 1.09670e-17
5321.85234 1.09034e-17
5323.32514 1.09137e-17
5324.78791 1.00894e-17
5326.26070 1.01707e-17
5327.73350 1.02350e-17
5329.19627 1.05859e-17
5330.66906 1.04643e-17
5332.14186 1.01634e-17
5333.61465 1.00274e-17
5335.07742 1.03354e-17
5336.55022 1.02661e-17
5338.02301 9.42300e-18
5339.48578 9.98582e-18
5340.95858 1.07426e-17
5342.43137 1.05875e-17
5343.90416 9.64083e-18
5345.36694 9.14843e-18
5346.83973 9.57993e-18
5348.31252 9.73130e-18
5349.77530 1.03768e-17
5351.24809 1.13745e-17
5352.72088 9.95371e-18
5354.19368 9.35114e-18
5355.65645 1.00837e-17
5357.12924 9.84584e-18
5358.60204 1.01955e-17
5360.07483 1.05273e-17
5361.53760 9.72472e-18
5363.01040 9.95093e-18
5364.48319 1.05509e-17
5365.94596 9.67720e-18
5367.41876 9.04486e-18
5368.89155 1.00228e-17
5370.36434 9.88345e-18
5371.82712 9.30963e-18
5373.29991 9.38604e-18
5374.77270 1.07787e-17
5376.23548 1.06268e-17
5377.70827 9.14489e-18
5379.18106 9.47581e-18
5380.65385 1.00744e-17
5382.11663 8.97637e-18
5383.58942 9.42900e-18
5385.06222 1.09501e-17
5386.52499 1.00178e-17
5387.99778 1.02041e-17
5389.47058 9.84625e-18
5390.94337 9.53828e-18
5392.40614 9.58798e-18
5393.87893 9.01325e-18
5395.35173 9.71442e-18
5396.82452 9.17054e-18
5398.28730 8.52715e-18
5399.76009 9.57854e-18
5401.23288 9.14194e-18
5402.69565 1.00360e-17
5404.16845 1.04316e-17
5405.64124 1.00068e-17
5407.11403 9.04435e-18
5408.57681 8.05064e-18
5410.04960 8.66558e-18
5411.52239 9.03521e-18
5412.99519 8.82155e-18
5414.45796 8.13267e-18
5415.93075 9.14204e-18
5417.40355 9.34875e-18
5418.86632 9.58588e-18
5420.33911 9.50396e-18
5421.81191 9.14821e-18
5423.28470 8.31618e-18
5424.74747 8.16296e-18
5426.22027 9.11442e-18
5427.69306 9.61600e-18
5429.15583 9.05361e-18
5430.62863 9.42073e-18
5432.10142 9.15174e-18
5433.57421 9.18849e-18
5435.03699 8.63144e-18
5436.50978 9.48480e-18
5437.98257 9.60350e-18
5439.45537 8.91346e-18
5440.91814 8.73464e-18
5442.39093 9.10670e-18
5443.86373 9.20166e-18
5445.32650 8.87064e-18
5446.79929 7.99808e-18
5448.27209 7.51240e-18
5449.74488 8.88975e-18
5451.20765 9.19843e-18
5452.68045 9.31769e-18
5454.15324 8.69012e-18
5455.61601 8.11740e-18
5457.08881 8.32905e-18
5458.56160 8.88385e-18
5460.03439 7.70638e-18
5461.49717 8.38104e-18
5462.96996 7.66654e-18
5464.44275 6.93427e-18
5465.90553 8.60024e-18
5467.37832 8.65297e-18
5468.85111 8.96588e-18
5470.32391 8.87548e-18
5471.78668 9.18439e-18
5473.25947 9.33522e-18
5474.73227 9.26891e-18
5476.20506 9.00387e-18
5477.66783 9.05418e-18
5479.14062 9.35020e-18
5480.61342 9.82072e-18
5482.07619 9.07159e-18
5483.54898 9.02777e-18
5485.02178 9.18738e-18
5486.49457 8.87981e-18
5487.95734 8.95310e-18
5489.43014 8.44998e-18
5490.90293 8.02746e-18
5492.36571 8.83082e-18
5493.83850 9.26550e-18
5495.31129 9.57142e-18
5496.78408 8.74368e-18
5498.24686 9.18286e-18
5499.71965 9.53602e-18
5501.19244 8.64863e-18
5502.66524 9.38261e-18
5504.12801 9.20635e-18
5505.60080 9.68014e-18
5507.07360 8.76351e-18
5508.53637 8.71382e-18
5510.00916 8.91888e-18
5511.48196 7.93149e-18
5512.95475 8.51353e-18
5514.41752 9.13131e-18
5515.89032 9.52713e-18
5517.36311 9.50306e-18
5518.82588 9.17652e-18
5520.29868 9.25570e-18
5521.77147 9.64732e-18
5523.24426 9.23763e-18
5524.70704 9.09842e-18
5526.17983 8.55758e-18
5527.65262 9.69567e-18
5529.11540 1.08813e-17
5530.58819 9.44653e-18
5532.06098 9.88991e-18
5533.53378 9.62279e-18
5534.99655 9.61000e-18
5536.46934 1.02635e-17
5537.94214 1.03565e-17
5539.41493 9.54355e-18
5540.87770 1.00116e-17
5542.35050 1.03162e-17
5543.82329 1.03190e-17
5545.28606 9.93611e-18
5546.75886 1.01578e-17
5548.23165 1.00013e-17
5549.70444 1.00445e-17
5551.16722 1.10159e-17
5552.64001 1.16181e-17
5554.11280 1.07118e-17
5555.57558 9.98508e-18
5557.04837 9.41937e-18
5558.52116 9.64109e-18
5559.99395 1.00616e-17
5561.45673 1.08190e-17
5562.92952 1.12287e-17
5564.40232 1.10561e-17
5565.87511 1.12577e-17
5567.33788 1.01749e-17
5568.81067 1.05017e-17
5570.28347 1.00423e-17
5571.74624 9.78161e-18
5573.21904 1.13707e-17
5574.69183 1.17572e-17
5576.16462 1.08024e-17
5577.62740 9.49017e-18
5579.10019 9.48522e-18
5580.57298 1.07168e-17
5582.03575 1.16223e-17
5583.50855 1.12981e-17
5584.98134 1.16132e-17
5586.45413 1.09963e-17
5587.91691 1.03780e-17
5589.38970 1.03677e-17
5590.86249 1.09057e-17
5592.33529 1.14801e-17
5593.79806 1.06067e-17
5595.27085 1.07113e-17
5596.74365 1.17013e-17
5598.20642 1.13478e-17
5599.67921 1.00420e-17
5601.15201 1.11165e-17
5602.62480 1.18536e-17
5604.08757 1.08014e-17
5605.56037 1.10760e-17
5607.03316 1.13598e-17
5608.49593 1.05748e-17
5609.96873 1.02780e-17
5611.44152 1.15658e-17
5612.91431 1.13849e-17
5614.37709 1.06240e-17
5615.84988 1.15553e-17
5617.32267 1.16288e-17
5618.78545 1.10990e-17
5620.25824 1.11332e-17
5621.73103 1.16165e-17
5623.20383 1.07543e-17
5624.66660 1.02915e-17
5626.13939 1.11375e-17
5627.61219 1.16321e-17
5629.08498 1.17182e-17
5630.54775 1.08906e-17
5632.02055 1.16406e-17
5633.49334 1.14622e-17
5634.95611 1.09367e-17
5636.42891 1.17928e-17
5637.90170 1.19059e-17
5639.37449 1.20158e-17
5640.83727 1.20307e-17
5642.31006 1.10155e-17
5643.78285 1.01891e-17
5645.24563 1.13744e-17
5646.71842 1.04456e-17
5648.19121 1.13192e-17
5649.66400 1.12763e-17
5651.12678 1.11517e-17
5652.59957 1.18843e-17
5654.07236 1.25420e-17
5655.53514 1.24298e-17
5657.00793 1.17540e-17
5658.48073 1.17094e-17
5659.95352 1.17148e-17
5661.41629 1.17760e-17
5662.88908 1.17184e-17
5664.36188 1.19023e-17
5665.83467 1.10889e-17
5667.29745 1.04989e-17
5668.77024 1.09629e-17
5670.24303 1.15496e-17
5671.70580 1.19498e-17
5673.17860 1.12258e-17
5674.65139 1.18506e-17
5676.12418 1.28521e-17
5677.58696 1.29582e-17
5679.05975 1.23684e-17
5680.53254 1.22892e-17
5682.00534 1.19933e-17
5683.46811 1.29400e-17
5684.94090 1.24167e-17
5686.41370 1.24801e-17
5687.87647 1.25895e-17
5689.34926 1.31953e-17
5690.82206 1.27123e-17
5692.29485 1.14653e-17
5693.75762 1.11704e-17
5695.23042 1.18575e-17
5696.70321 1.15019e-17
5698.16598 1.13568e-17
5699.63878 1.23967e-17
5701.11157 1.23288e-17
5702.58436 1.20710e-17
5704.04714 1.31756e-17
5705.51993 1.33549e-17
5706.99272 1.18481e-17
5708.45550 1.18486e-17
5709.92829 1.16828e-17
5711.40108 1.12270e-17
5712.87388 1.24243e-17
5714.33665 1.24592e-17
5715.80944 1.21753e-17
5717.28224 1.16053e-17
5718.75503 1.13113e-17
5720.21780 1.10782e-17
5721.69060 1.14533e-17
5723.16339 1.20455e-17
5724.62616 1.18548e-17
5726.09896 1.31224e-17
5727.57175 1.23559e-17
5729.04454 1.12188e-17
5730.50732 1.21095e-17
5731.98011 1.22272e-17
5733.45290 1.13357e-17
5734.91568 1.19358e-17
5736.38847 1.24950e-17
5737.86126 1.20085e-17
5739.33406 1.23930e-17
5740.79683 1.22059e-17
5742.26962 1.15902e-17
5743.74242 1.19118e-17
5745.20519 1.17663e-17
5746.67798 1.12325e-17
5748.15078 1.17044e-17
5749.62357 1.16779e-17
5751.08634 1.10382e-17
5752.55913 1.24245e-17
5754.03193 1.30360e-17
5755.50472 1.20646e-17
5756.96749 1.16548e-17
5758.44029 1.28334e-17
5759.91308 1.17405e-17
5761.37586 1.15721e-17
5762.84865 1.19732e-17
5764.32144 1.20052e-17
5765.79423 1.20053e-17
5767.25701 1.20528e-17
5768.72980 1.16798e-17
5770.20259 1.09422e-17
5771.66537 1.10890e-17
5773.13816 1.17968e-17
5774.61095 1.21627e-17
5776.08375 1.16191e-17
5777.54652 1.13545e-17
5779.01931 1.16975e-17
5780.49211 1.20117e-17
5781.96490 1.15805e-17
5783.42767 1.13100e-17
5784.90047 1.17679e-17
5786.37326 1.25169e-17
5787.83603 1.24504e-17
5789.30883 1.18460e-17
5790.78162 1.15717e-17
5792.25441 1.09640e-17
5793.71719 1.02503e-17
5795.18998 1.12767e-17
5796.66277 1.20412e-17
5798.12555 1.12673e-17
5799.59834 1.07549e-17
5801.07113 1.18562e-17
5802.54393 1.24032e-17
5804.00670 1.19049e-17
5805.47949 1.05472e-17
5806.95229 1.11337e-17
5808.42508 1.15565e-17
5809.88785 1.07502e-17
5811.36065 1.15484e-17
5812.83344 1.09142e-17
5814.29621 1.05776e-17
5815.76901 1.13332e-17
5817.24180 1.14726e-17
5818.71459 1.14072e-17
5820.17737 1.17961e-17
5821.65016 1.17115e-17
5823.12295 1.09541e-17
5824.58573 1.07807e-17
5826.05852 1.08957e-17
5827.53131 1.10555e-17
5829.00410 1.07482e-17
5830.46688 1.11011e-17
5831.93967 1.15360e-17
5833.41247 1.09524e-17
5834.87524 1.11448e-17
5836.34803 1.19617e-17
5837.82082 1.24253e-17
5839.29362 1.21098e-17
5840.75639 1.08180e-17
5842.22919 1.08694e-17
5843.70198 1.17892e-17
5845.17477 1.16835e-17
5846.63755 1.20353e-17
5848.11034 1.24882e-17
5849.58313 1.19017e-17
5851.04590 1.16498e-17
5852.51870 1.08310e-17
5853.99149 1.13352e-17
5855.46428 1.11875e-17
5856.92706 1.10720e-17
5858.39985 1.17077e-17
5859.87264 1.10162e-17
5861.33542 1.04917e-17
5862.80821 1.12208e-17
5864.28100 1.02980e-17
5865.75380 1.02158e-17
5867.21657 1.16134e-17
5868.68936 1.11963e-17
5870.16216 1.10494e-17
5871.63495 1.18190e-17
5873.09772 1.12892e-17
5874.57052 1.13364e-17
5876.04331 1.00720e-17
5877.50608 9.44137e-18
5878.97888 1.04211e-17
5880.45167 1.02361e-17
5881.92446 9.64649e-18
5883.38724 9.52377e-18
5884.86003 9.73977e-18
5886.33282 9.57377e-18
5887.79560 9.60847e-18
5889.26839 8.13859e-18
5890.74118 7.63367e-18
5892.21398 9.17208e-18
5893.67675 9.15480e-18
5895.14954 7.85025e-18
5896.62234 1.00745e-17
5898.08511 8.99312e-18
5899.55790 7.49929e-18
5901.03070 7.13563e-18
5902.50349 7.79373e-18
5903.96626 7.84457e-18
5905.43906 8.07419e-18
5906.91185 6.96540e-18
5908.38464 8.05487e-18
5909.84742 8.29146e-18
5911.32021 7.85615e-18
5912.79300 7.85549e-18
5914.25578 8.97248e-18
5915.72857 8.43439e-18
5917.20136 7.77699e-18
5918.67415 8.75322e-18
5920.13693 8.23598e-18
5921.60972 7.18745e-18
5923.08252 8.47385e-18
5924.54529 8.30803e-18
5926.01808 8.39485e-18
5927.49088 8.52275e-18
5928.96367 7.80474e-18
5930.42644 7.96063e-18
5931.89923 7.83228e-18
5933.37203 8.32105e-18
5934.84482 8.85954e-18
5936.30760 8.47579e-18
5937.78039 9.07072e-18
5939.25318 8.17847e-18
5940.71595 7.84087e-18
5942.18875 7.26305e-18
5943.66154 7.89273e-18
5945.13433 7.68507e-18
5946.59711 8.33498e-18
5948.06990 7.85520e-18
5949.54269 7.10802e-18
5951.00547 7.67263e-18
5952.47826 7.51937e-18
5953.95105 7.69471e-18
5955.42385 6.69044e-18
5956.88662 7.72706e-18
5958.35941 7.14839e-18
5959.83221 7.33297e-18
5961.30500 6.04584e-18
5962.76777 6.36915e-18
5964.24057 7.50925e-18
5965.71336 7.37261e-18
5967.17613 7.53202e-18
5968.64893 7.33321e-18
5970.12172 7.53083e-18
5971.59451 6.64110e-18
5973.05729 7.19245e-18
5974.53008 7.29879e-18
5976.00287 6.44882e-18
5977.46565 5.31188e-18
5978.93844 7.15063e-18
5980.41123 7.28515e-18
5981.88403 6.77315e-18
5983.34680 6.28639e-18
5984.81959 6.41959e-18
5986.29239 7.32045e-18
5987.75516 6.77484e-18
5989.22795 6.81011e-18
5990.70075 7.02295e-18
5992.17354 6.67964e-18
5993.63631 6.11554e-18
5995.10911 6.79726e-18
5996.58190 7.16577e-18
5998.05469 6.86834e-18
5999.51747 5.96866e-18
6000.99026 5.94124e-18
6002.46305 5.99710e-18
6003.92583 6.26604e-18
6005.39862 6.78124e-18
6006.87141 6.70787e-18
6008.34421 6.36285e-18
6009.80698 6.48797e-18
6011.27977 6.38322e-18
6012.75257 5.38578e-18
6014.21534 5.77971e-18
6015.68813 6.76382e-18
6017.16093 6.89758e-18
6018.63372 7.00928e-18
6020.09649 6.60355e-18
6021.56928 6.30130e-18
6023.04208 6.38789e-18
6024.50485 6.82471e-18
6025.97764 6.90792e-18
6027.45044 6.13693e-18
6028.92323 5.86524e-18
6030.38601 6.24474e-18
6031.85880 6.33574e-18
6033.33159 6.06326e-18
6034.80438 6.40107e-18
6036.26716 6.64133e-18
6037.73995 6.10416e-18
6039.21274 6.30073e-18
6040.68554 7.06299e-18
6042.14831 6.92862e-18
6043.62110 6.79785e-18
6045.09390 7.17115e-18
6046.55667 6.38495e-18
6048.02946 6.93663e-18
6049.50226 7.83465e-18
6050.97505 5.68314e-18
6052.43782 5.59223e-18
6053.91062 6.03436e-18
6055.38341 6.75590e-18
6056.84618 6.35542e-18
6058.31898 6.12283e-18
6059.79177 6.93731e-18
6061.26456 6.55789e-18
6062.72734 6.48333e-18
6064.20013 7.21338e-18
6065.67292 6.61121e-18
6067.13570 6.95721e-18
6068.60849 7.63430e-18
6070.08128 7.78917e-18
6071.55408 6.57128e-18
6073.01685 7.18412e-18
6074.48964 7.29600e-18
6075.96244 7.68811e-18
6077.43523 7.98330e-18
6078.89800 7.96014e-18
6080.37080 7.96170e-18
6081.84359 7.91266e-18
6083.30636 8.14863e-18
6084.77916 8.26583e-18
6086.25195 7.52778e-18
6087.72474 6.10687e-18
6089.18752 7.55213e-18
6090.66031 8.31861e-18
6092.13310 7.18417e-18
6093.59588 8.02951e-18
6095.06867 8.02652e-18
6096.54146 8.40477e-18
6098.01426 8.16502e-18
6099.47703 7.70520e-18
6100.94982 7.50265e-18
6102.42262 7.88631e-18
6103.88539 7.89461e-18
6105.35818 7.43525e-18
6106.83097 8.27674e-18
6108.30377 9.29583e-18
6109.76654 9.72722e-18
6111.23933 8.09722e-18
6112.71213 8.36201e-18
6114.18492 8.60465e-18
6115.64770 8.35061e-18
6117.12049 7.90207e-18
6118.59328 8.82090e-18
6120.05606 8.90354e-18
6121.52885 8.05401e-18
6123.00164 8.71198e-18
6124.47443 9.61666e-18
6125.93721 9.26436e-18
6127.41000 9.59609e-18
6128.88279 9.14413e-18
6130.34557 9.15625e-18
6131.81836 9.41534e-18
6133.29115 9.64965e-18
6134.76395 9.78996e-18
6136.22672 9.66892e-18
6137.69951 8.97929e-18
6139.17231 9.55746e-18
6140.64510 9.63519e-18
6142.10787 9.30404e-18
6143.58067 9.24266e-18
6145.05346 9.71324e-18
6146.51623 8.98294e-18
6147.98903 9.84928e-18
6149.46182 1.00441e-17
6150.93461 9.74722e-18
6152.39739 1.08754e-17
6153.87018 1.04616e-17
6155.34297 9.84461e-18
6156.80575 9.56667e-18
6158.27854 9.99138e-18
6159.75133 9.46817e-18
6161.22413 9.70685e-18
6162.68690 1.01628e-17
6164.15969 1.05818e-17
6165.63249 1.02443e-17
6167.10528 1.04145e-17
6168.56805 1.06365e-17
6170.04085 1.11168e-17
6171.51364 1.07772e-17
6172.97641 1.05588e-17
6174.44921 1.08419e-17
6175.92200 1.08028e-17
6177.39479 1.01466e-17
6178.85757 1.01398e-17
6180.33036 1.16143e-17
6181.80315 1.19698e-17
6183.26593 1.04947e-17
6184.73872 1.06484e-17
6186.21151 1.12556e-17
6187.68430 1.15576e-17
6189.14708 1.13793e-17
6190.61987 1.08286e-17
6192.09267 1.07078e-17
6193.55544 1.07425e-17
6195.02823 1.14350e-17
6196.50103 1.19865e-17
6197.97382 1.08988e-17
6199.43659 1.08931e-17
6200.90938 1.11130e-17
6202.38218 1.06468e-17
6203.85497 1.04096e-17
6205.31775 1.12441e-17
6206.79054 1.13391e-17
6208.26333 1.10142e-17
6209.72610 1.15655e-17
6211.19890 1.13394e-17
6212.67169 1.14881e-17
6214.14448 1.18429e-17
6215.60726 1.04598e-17
6217.08005 1.02479e-17
6218.55284 1.14919e-17
6220.01562 1.12536e-17
6221.48841 1.16710e-17
6222.96120 1.13221e-17
6224.43400 1.18806e-17
6225.89677 1.34109e-17
6227.36956 1.27886e-17
6228.84236 1.24055e-17
6230.31515 1.26575e-17
6231.77792 1.25386e-17
6233.25072 1.11720e-17
6234.72351 1.19849e-17
6236.18628 1.33123e-17
6237.65908 1.26623e-17
6239.13187 1.20564e-17
6240.60466 1.21728e-17
6242.06744 1.24702e-17
6243.54023 1.25907e-17
6245.01302 1.14603e-17
6246.47580 1.19031e-17
6247.94859 1.28137e-17
6249.42138 1.27631e-17
6250.89418 1.30097e-17
6252.35695 1.26556e-17
6253.82974 1.25701e-17
6255.30254 1.28925e-17
6256.76531 1.18108e-17
6258.23810 1.16903e-17
6259.71090 1.34185e-17
6261.18369 1.36984e-17
6262.64646 1.38948e-17
6264.11926 1.32290e-17
6265.59205 1.19723e-17
6267.06484 1.35792e-17
6268.52762 1.34230e-17
6270.00041 1.26536e-17
6271.47320 1.23539e-17
6272.93598 1.23753e-17
6274.40877 1.24862e-17
6275.88156 1.29911e-17
6277.35435 1.22950e-17
6278.81713 1.36380e-17
6280.28992 1.42125e-17
6281.76272 1.38847e-17
6283.22549 1.34852e-17
6284.69828 1.29167e-17
6286.17108 1.26629e-17
6287.64387 1.31483e-17
6289.10664 1.26239e-17
6290.57943 1.32535e-17
6292.05223 1.25789e-17
6293.52502 1.23386e-17
6294.98780 1.33578e-17
6296.46059 1.38712e-17
6297.93338 1.27558e-17
6299.39615 1.15302e-17
6300.86895 1.21927e-17
6302.34174 1.30614e-17
6303.81453 1.45000e-17
6305.27731 1.43344e-17
6306.75010 1.34164e-17
6308.22289 1.36676e-17
6309.68567 1.31635e-17
6311.15846 1.34591e-17
6312.63125 1.26700e-17
6314.10405 1.38993e-17
6315.56682 1.37040e-17
6317.03961 1.31440e-17
6318.51241 1.22634e-17
6319.98520 1.21090e-17
6321.44797 1.39803e-17
6322.92077 1.45661e-17
6324.39356 1.37587e-17
6325.85633 1.29543e-17
6327.32913 1.28296e-17
6328.80192 1.48389e-17
6330.27471 1.40831e-17
6331.73749 1.38424e-17
6333.21028 1.35034e-17
6334.68307 1.35720e-17
6336.14585 1.45276e-17
6337.61864 1.38660e-17
6339.09143 1.41423e-17
6340.56423 1.40482e-17
6342.02700 1.47716e-17
6343.49979 1.45414e-17
6344.97259 1.50227e-17
6346.43536 1.43366e-17
6347.90815 1.29125e-17
6349.38095 1.36427e-17
6350.85374 1.46131e-17
6352.31651 1.52680e-17
6353.78931 1.41505e-17
6355.26210 1.44016e-17
6356.73489 1.52706e-17
6358.19767 1.42822e-17
6359.67046 1.36516e-17
6361.14325 1.38221e-17
6362.60603 1.36908e-17
6364.07882 1.34915e-17
6365.55161 1.48698e-17
6367.02441 1.53787e-17
6368.48718 1.40195e-17
6369.95997 1.39867e-17
6371.43277 1.39860e-17
6372.89554 1.34588e-17
6374.36833 1.43457e-17
6375.84112 1.46168e-17
6377.31392 1.47303e-17
6378.77669 1.51750e-17
6380.24948 1.52893e-17
6381.72228 1.49799e-17
6383.18505 1.44158e-17
6384.65785 1.37461e-17
6386.13064 1.40557e-17
6387.60343 1.53465e-17
6389.06621 1.51184e-17
6390.53900 1.50764e-17
6392.01179 1.53047e-17
6393.48458 1.55989e-17
6394.94736 1.47477e-17
6396.42015 1.49797e-17
6397.89294 1.52940e-17
6399.35572 1.49735e-17
6400.82851 1.56475e-17
6402.30130 1.52179e-17
6403.77410 1.47297e-17
6405.23687 1.38492e-17
6406.70966 1.38818e-17
6408.18246 1.45240e-17
6409.65525 1.40758e-17
6411.11802 1.38974e-17
6412.59082 1.54287e-17
6414.06361 1.51512e-17
6415.52638 1.40393e-17
6416.99918 1.58597e-17
6418.47197 1.62403e-17
6419.94476 1.53409e-17
6421.40754 1.50455e-17
6422.88033 1.46581e-17
6424.35312 1.41638e-17
6425.81590 1.45337e-17
6427.28869 1.45630e-17
6428.76148 1.38190e-17
6430.23428 1.38240e-17
6431.69705 1.42644e-17
6433.16984 1.49052e-17
6434.64264 1.53804e-17
6436.10541 1.53996e-17
6437.57820 1.41382e-17
6439.05100 1.43894e-17
6440.52379 1.50718e-17
6441.98656 1.55043e-17
6443.45936 1.50681e-17
6444.93215 1.50302e-17
6446.40494 1.52978e-17
6447.86772 1.53682e-17
6449.34051 1.50219e-17
6450.81330 1.42639e-17
6452.27608 1.53487e-17
6453.74887 1.51830e-17
6455.22166 1.50195e-17
6456.69445 1.47637e-17
6458.15723 1.48823e-17
6459.63002 1.50498e-17
6461.10282 1.46593e-17
6462.56559 1.40676e-17
6464.03838 1.50957e-17
6465.51117 1.50113e-17
6466.98397 1.47728e-17
6468.44674 1.53652e-17
6469.91953 1.41498e-17
6471.39233 1.34830e-17
6472.85510 1.32870e-17
6474.32790 1.44795e-17
6475.80069 1.48731e-17
6477.27348 1.46785e-17
6478.73625 1.48718e-17
6480.20905 1.52581e-17
6481.68184 1.50296e-17
6483.15463 1.47664e-17
6484.61741 1.41104e-17
6486.09020 1.44798e-17
6487.56299 1.55596e-17
6489.02577 1.47679e-17
6490.49856 1.41143e-17
6491.97135 1.47734e-17
6493.44415 1.47580e-17
6494.90692 1.41896e-17
6496.37971 1.40618e-17
6497.85251 1.48848e-17
6499.31528 1.40789e-17
6500.78807 1.44787e-17
6502.26087 1.44391e-17
6503.73366 1.42745e-17
6505.19643 1.46195e-17
6506.66923 1.51169e-17
6508.14202 1.45706e-17
6509.61481 1.28510e-17
6511.07759 1.39893e-17
6512.55038 1.46641e-17
6514.02317 1.44132e-17
6515.48595 1.50617e-17
6516.95874 1.47809e-17
6518.43153 1.44970e-17
6519.90433 1.43610e-17
6521.36710 1.39418e-17
6522.83989 1.36092e-17
6524.31269 1.24906e-17
6525.77546 1.37369e-17
6527.24825 1.35272e-17
6528.72105 1.48474e-17
6530.19384 1.50451e-17
6531.65661 1.48873e-17
6533.12941 1.43264e-17
6534.60220 1.40870e-17
6536.07499 1.43889e-17
6537.53777 1.35097e-17
6539.01056 1.37110e-17
6540.48335 1.27893e-17
6541.94613 1.28810e-17
6543.41892 1.44598e-17
6544.89171 1.45659e-17
6546.36450 1.45506e-17
6547.82728 1.45353e-17
6549.30007 1.45201e-17
6550.77287 1.45048e-17
6552.23564 1.44895e-17
6553.70843 1.44743e-17
6555.18123 1.44590e-17
6556.65402 1.44437e-17
6558.11679 1.44284e-17
6559.58958 1.44132e-17
6561.06238 1.43979e-17
6562.52515 1.43826e-17
6563.99795 1.43674e-17
6565.47074 1.43521e-17
6566.94353 1.43368e-17
6568.40630 1.43216e-17
6569.87910 1.43063e-17
6571.35189 1.42910e-17
6572.82468 1.42758e-17
6574.28746 1.42605e-17
6575.76025 1.42452e-17
6577.23304 1.42300e-17
6578.69582 1.42147e-17
6580.16861 1.41994e-17
6581.64140 1.41842e-17
6583.11420 1.41689e-17
6584.57697 1.41537e-17
6586.04976 1.41384e-17
6587.52256 1.41231e-17
6588.99535 1.41079e-17
6590.45812 1.40926e-17
6591.93092 1.40773e-17
6593.40371 1.40621e-17
6594.86648 1.40468e-17
6596.33928 1.40316e-17
6597.81207 1.40163e-17
6599.28486 1.40011e-17
6600.74764 1.39858e-17
6602.22043 1.39705e-17
6603.69322 1.39553e-17
6605.15600 1.39400e-17
6606.62879 1.39248e-17
6608.10158 1.36868e-17
6609.57438 1.36207e-17
6611.03715 1.28517e-17
6612.50994 1.28056e-17
6613.98274 1.34608e-17
6615.44551 1.25707e-17
6616.91830 1.29231e-17
6618.39110 1.38057e-17
6619.86389 1.28465e-17
6621.32666 1.28222e-17
6622.79946 1.33649e-17
6624.27225 1.32890e-17
6625.74504 1.30360e-17
6627.20782 1.23327e-17
6628.68061 1.26111e-17
6630.15340 1.31530e-17
6631.61618 1.29789e-17
6633.08897 1.28193e-17
6634.56176 1.26756e-17
6636.03456 1.24306e-17
6637.49733 1.25903e-17
6638.97012 1.36919e-17
6640.44292 1.33580e-17
6641.90569 1.35627e-17
6643.37848 1.37748e-17
6644.85127 1.32485e-17
6646.32407 1.30096e-17
6647.78684 1.32692e-17
6649.25963 1.28122e-17
6650.73243 1.24322e-17
6652.20522 1.19572e-17
6653.66800 1.26126e-17
6655.14079 1.30286e-17
6656.61358 1.21806e-17
6658.07636 1.33486e-17
6659.54915 1.31311e-17
6661.02194 1.36664e-17
6662.49473 1.29829e-17
6663.95751 1.34519e-17
6665.43030 1.25400e-17
6666.90309 1.27625e-17
6668.36587 1.27399e-17
6669.83866 1.30206e-17
6671.31145 1.25289e-17
6672.78425 1.30175e-17
6674.24702 1.34727e-17
6675.71981 1.33602e-17
6677.19261 1.30907e-17
6678.66540 1.29106e-17
6680.12817 1.24869e-17
6681.60097 1.25336e-17
6683.07376 1.23283e-17
6684.53653 1.28891e-17
6686.00933 1.25653e-17
6687.48212 1.28072e-17
6688.95491 1.26948e-17
6690.41769 1.24695e-17
6691.89048 1.28549e-17
6693.36327 1.34575e-17
6694.82605 1.20002e-17
6696.29884 1.30777e-17
6697.77163 1.23539e-17
6699.24443 1.20922e-17
6700.70720 1.17692e-17
6702.17999 1.25850e-17
6703.65279 1.35110e-17
6705.11556 1.21955e-17
6706.58835 1.15300e-17
6708.06115 1.22296e-17
6709.53394 1.28232e-17
6710.99671 1.20038e-17
6712.46951 1.14527e-17
6713.94230 1.23194e-17
6715.41509 1.24127e-17
6716.87787 1.32201e-17
6718.35066 1.36567e-17
6719.82345 1.28471e-17
6721.28623 1.12773e-17
6722.75902 1.22403e-17
6724.23181 1.29911e-17
6725.70460 1.26657e-17
6727.16738 1.26655e-17
6728.64017 1.24616e-17
6730.11297 1.22577e-17
6731.57574 1.20538e-17
6733.04853 1.18500e-17
6734.52132 1.16461e-17
6735.99412 1.14422e-17
6737.45689 1.12383e-17
6738.92969 1.18970e-17
6740.40248 1.20645e-17
6741.86525 1.20998e-17
6743.33805 1.12945e-17
6744.81084 9.97487e-18
6746.28363 9.29786e-18
6747.74640 9.92038e-18
6749.21920 1.08241e-17
6750.69199 1.10083e-17
6752.16478 1.19641e-17
6753.62756 1.18104e-17
6755.10035 1.19088e-17
6756.57314 1.16914e-17
6758.03592 1.11646e-17
6759.50871 1.11403e-17
6760.98150 1.14928e-17
6762.45430 1.19103e-17
6763.91707 1.23213e-17
6765.38986 1.22247e-17
6766.86266 1.20396e-17
6768.33545 1.21555e-17
6769.79822 1.20578e-17
6771.27102 1.31858e-17
6772.74381 1.32035e-17
6774.20658 1.20965e-17
6775.67938 1.15109e-17
6777.15217 1.22031e-17
6778.62496 1.22522e-17
6780.08774 1.19006e-17
6781.56053 1.19111e-17
6783.03332 1.23923e-17
6784.49610 1.22894e-17
6785.96889 1.17705e-17
6787.44168 1.17380e-17
6788.91448 1.12757e-17
6790.37725 1.12958e-17
6791.85004 1.15666e-17
6793.32284 1.09194e-17
6794.78561 1.11274e-17
6796.25840 1.23973e-17
6797.73120 1.13993e-17
6799.20399 1.12304e-17
6800.66676 1.18617e-17
6802.13956 1.12030e-17
6803.61235 1.19960e-17
6805.08514 1.19931e-17
6806.54792 1.20511e-17
6808.02071 1.19079e-17
6809.49350 1.17019e-17
6810.95628 1.16538e-17
6812.42907 1.23431e-17
6813.90186 1.21648e-17
6815.37465 1.13224e-17
6816.83743 1.14586e-17
6818.31022 1.08432e-17
6819.78302 1.06080e-17
6821.24579 1.14409e-17
6822.71858 1.17438e-17
6824.19138 1.14454e-17
6825.66417 1.10999e-17
6827.12694 1.04296e-17
6828.59973 1.07272e-17
6830.07253 1.15535e-17
6831.53530 1.16370e-17
6833.00810 1.10972e-17
6834.48089 1.13556e-17
6835.95368 1.20916e-17
6837.41645 1.15226e-17
6838.88925 1.09757e-17
6840.36204 1.19145e-17
6841.83483 1.21588e-17
6843.29761 1.07972e-17
6844.77040 1.08278e-17
6846.24319 1.07463e-17
6847.70597 1.02088e-17
6849.17876 1.08191e-17
6850.65155 1.13724e-17
6852.12435 1.13595e-17
6853.58712 1.01496e-17
6855.05991 9.93662e-18
6856.53271 1.08447e-17
6857.99548 1.12639e-17
6859.46827 1.06172e-17
6860.94107 1.00129e-17
6862.41386 1.08428e-17
6863.87663 1.10774e-17
6865.34943 1.12191e-17
6866.82222 1.12287e-17
6868.29501 1.09187e-17
6869.75779 1.05706e-17
6871.23058 1.01379e-17
6872.70337 1.15707e-17
6874.16615 1.13660e-17
6875.63894 1.09684e-17
6877.11173 1.15960e-17
6878.58453 1.16404e-17
6880.04730 1.16291e-17
6881.52009 1.10127e-17
6882.99289 1.11007e-17
6884.45566 1.21123e-17
6885.92845 1.20498e-17
6887.40125 1.14772e-17
6888.87404 1.11321e-17
6890.33681 1.08351e-17
6891.80961 9.90390e-18
6893.28240 1.04430e-17
6894.75519 1.14157e-17
6896.21797 1.08777e-17
6897.69076 1.07776e-17
6899.16355 1.03524e-17
6900.62633 1.07508e-17
6902.09912 1.09539e-17
6903.57191 1.15083e-17
6905.04471 1.19962e-17
6906.50748 1.10222e-17
6907.98027 1.01298e-17
6909.45307 1.12528e-17
6910.91584 1.15899e-17
6912.38863 1.08907e-17
6913.86143 1.07436e-17
6915.33422 1.13293e-17
6916.79699 1.07257e-17
6918.26978 1.05759e-17
6919.74258 1.12923e-17
6921.20535 1.01297e-17
6922.67814 1.04266e-17
6924.15094 1.11781e-17
6925.62373 1.08478e-17
6927.08651 1.00797e-17
6928.55930 1.04681e-17
6930.03209 1.05065e-17
6931.50488 1.07227e-17
6932.96766 1.05118e-17
6934.44045 1.10151e-17
6935.91324 1.08987e-17
6937.37602 9.74109e-18
6938.84881 1.05970e-17
6940.32160 1.07822e-17
6941.79440 1.05074e-17
6943.25717 1.03295e-17
6944.72996 1.05691e-17
6946.20276 1.06083e-17
6947.66553 1.07764e-17
6949.13832 1.07204e-17
6950.61112 1.06308e-17
6952.08391 1.11553e-17
6953.54668 1.02752e-17
6955.01948 9.92816e-18
6956.49227 9.99006e-18
6957.96506 9.63150e-18
6959.42784 1.08857e-17
6960.90063 1.04398e-17
6962.37342 9.81616e-18
6963.83620 1.03904e-17
6965.30899 1.02971e-17
6966.78178 1.04205e-17
6968.25458 9.87302e-18
6969.71735 1.10531e-17
6971.19014 1.07977e-17
6972.66294 1.03994e-17
6974.12571 1.00056e-17
6975.59850 1.06697e-17
6977.07130 1.01901e-17
6978.54409 1.02088e-17
6980.00686 9.62419e-18
6981.47966 9.38880e-18
6982.95245 1.04980e-17
6984.41522 1.04495e-17
6985.88802 1.04452e-17
6987.36081 1.10391e-17
6988.83360 9.56431e-18
6990.29638 1.00182e-17
6991.76917 9.49010e-18
6993.24196 9.98434e-18
6994.71475 1.05165e-17
6996.17753 1.03431e-17
6997.65032 9.83694e-18
6999.12312 9.68112e-18
7000.58589 1.00666e-17
7002.05868 9.55397e-18
7003.53147 9.59341e-18
7005.00427 1.01059e-17
7006.46704 1.01366e-17
7007.93984 9.65187e-18
7009.41263 1.01076e-17
7010.87540 1.04441e-17
7012.34820 9.94439e-18
7013.82099 9.39124e-18
7015.29378 1.14151e-17
7016.75655 1.08070e-17
7018.22935 9.83425e-18
7019.70214 9.36533e-18
7021.17493 9.25696e-18
7022.63771 8.88807e-18
7024.11050 9.81290e-18
7025.58329 8.99185e-18
7027.04607 9.35383e-18
7028.51886 9.40182e-18
7029.99165 9.66991e-18
7031.46445 1.01323e-17
7032.92722 1.00600e-17
7034.40001 9.48976e-18
7035.87281 9.79214e-18
7037.33558 9.68169e-18
7038.80837 9.93474e-18
7040.28117 9.58422e-18
7041.75396 1.05430e-17
7043.21673 9.10278e-18
7044.68953 9.26989e-18
7046.16232 9.25596e-18
7047.63511 1.01585e-17
7049.09789 1.02592e-17
7050.57068 9.49839e-18
7052.04347 9.20918e-18
7053.50625 9.41020e-18
7054.97904 9.96229e-18
7056.45183 1.01300e-17
7057.92463 9.61867e-18
7059.38740 1.01234e-17
7060.86019 9.79636e-18
7062.33299 9.03047e-18
7063.79576 8.53495e-18
7065.26855 9.70230e-18
7066.74135 9.92965e-18
7068.21414 9.68593e-18
7069.67691 8.81062e-18
7071.14971 9.25919e-18
7072.62250 9.91943e-18
7074.08527 9.36822e-18
7075.55807 8.88878e-18
7077.03086 9.10896e-18
7078.50365 1.02134e-17
7079.96643 9.56703e-18
7081.43922 9.58190e-18
7082.91201 1.00103e-17
7084.38480 9.63919e-18
7085.84758 9.15561e-18
7087.32037 9.28803e-18
7088.79317 9.33016e-18
7090.25594 9.34174e-18
7091.72873 8.57564e-18
7093.20153 9.07450e-18
7094.67432 9.91917e-18
7096.13709 1.02003e-17
7097.60988 9.31282e-18
7099.08268 8.89082e-18
7100.54545 9.30609e-18
7102.01825 9.21353e-18
7103.49104 9.69167e-18
7104.96383 1.05155e-17
7106.42660 9.62619e-18
7107.89940 8.99155e-18
7109.37219 9.30240e-18
7110.83497 9.62310e-18
7112.30776 9.55033e-18
7113.78055 9.45666e-18
7115.25334 9.38332e-18
7116.71612 9.58524e-18
7118.18891 1.00646e-17
7119.66170 9.92548e-18
7121.13450 8.28005e-18
7122.59727 8.35653e-18
7124.07006 1.00688e-17
7125.54286 9.27426e-18
7127.00563 9.11440e-18
7128.47842 1.00297e-17
7129.95122 9.54406e-18
7131.42401 8.75475e-18
7132.88678 9.27786e-18
7134.35958 9.58658e-18
7135.83237 9.33543e-18
7137.30516 9.73899e-18
7138.76794 9.92087e-18
7140.24073 9.51550e-18
7141.71352 8.21822e-18
7143.17630 8.28439e-18
7144.64909 9.56434e-18
7146.12188 1.00240e-17
7147.59468 9.38675e-18
7149.05745 8.87008e-18
7150.53024 9.16008e-18
7152.00304 8.60103e-18
7153.46581 8.00844e-18
7154.93860 8.61958e-18
7156.41140 9.51131e-18
7157.88419 8.99661e-18
7159.34696 8.44523e-18
7160.81976 8.55625e-18
7162.29255 8.49390e-18
7163.75532 9.21936e-18
7165.22812 9.84901e-18
7166.70091 9.17841e-18
7168.17370 8.90120e-18
7169.63648 9.49667e-18
7171.10927 9.44125e-18
7172.58206 9.14996e-18
7174.05486 8.62010e-18
7175.51763 8.52887e-18
7176.99042 9.96572e-18
7178.46322 9.60460e-18
7179.92599 9.26726e-18
7181.39878 9.62973e-18
7182.87158 8.57063e-18
7184.34437 8.72739e-18
7185.80714 8.75705e-18
7187.27993 7.86957e-18
7188.75273 8.71789e-18
7190.21550 8.58085e-18
7191.68829 8.56380e-18
7193.16109 8.61177e-18
7194.63388 8.81430e-18
7196.09666 8.72573e-18
7197.56945 8.46827e-18
7199.04224 8.53722e-18
7200.50502 8.48301e-18
7201.97781 8.02231e-18
7203.45060 8.37117e-18
7204.92339 9.76598e-18
7206.38617 9.41899e-18
7207.85896 8.48436e-18
7209.33175 8.27329e-18
7210.80455 9.27951e-18
7212.26732 9.53755e-18
7213.74011 8.55313e-18
7215.21291 8.36630e-18
7216.67568 8.71868e-18
7218.14847 9.26692e-18
7219.62127 9.42509e-18
7221.09406 8.56584e-18
7222.55683 8.29288e-18
7224.02963 8.09455e-18
7225.50242 8.62044e-18
7226.97521 8.64345e-18
7228.43799 8.52912e-18
7229.91078 8.75389e-18
7231.38357 8.64453e-18
7232.84635 8.49628e-18
7234.31914 7.96307e-18
7235.79193 8.22552e-18
7237.26473 8.46152e-18
7238.72750 7.57717e-18
7240.20029 8.59860e-18
7241.67309 9.25676e-18
7243.13586 8.45512e-18
7244.60865 8.80468e-18
7246.08145 8.35696e-18
7247.55424 9.43860e-18
7249.01701 8.95734e-18
7250.48981 8.98537e-18
7251.96260 8.73597e-18
7253.43539 8.36764e-18
7254.89817 8.18378e-18
7256.37096 8.99099e-18
7257.84375 9.64173e-18
7259.30653 8.78621e-18
7260.77932 8.02512e-18
7262.25211 8.40948e-18
7263.72491 9.62922e-18
7265.18768 8.94483e-18
7266.66047 8.83093e-18
7268.13327 8.97618e-18
7269.59604 8.67665e-18
7271.06883 8.15158e-18
7272.54162 9.22042e-18
7274.01442 8.95735e-18
7275.47719 8.41904e-18
7276.94998 8.00135e-18
7278.42278 8.35005e-18
7279.88555 8.01063e-18
7281.35835 8.56388e-18
7282.83114 8.29981e-18
7284.30393 9.91167e-18
7285.76671 8.57234e-18
7287.23950 9.24747e-18
7288.71229 9.61997e-18
7290.18508 8.93725e-18
7291.64786 8.49645e-18
7293.12065 8.48507e-18
7294.59344 8.65485e-18
7296.05622 8.54532e-18
7297.52901 8.36058e-18
7299.00180 8.32961e-18
7300.47460 8.72906e-18
7301.93737 8.02292e-18
7303.41016 8.06826e-18
7304.88296 8.18571e-18
7306.34573 8.44246e-18
7307.81852 8.04261e-18
7309.29132 8.25076e-18
7310.76411 8.57359e-18
7312.22688 8.65255e-18
7313.69968 8.65506e-18
7315.17247 8.42161e-18
7316.64526 8.15052e-18
7318.10804 9.08623e-18
7319.58083 7.99497e-18
7321.05362 8.69104e-18
7322.51640 8.31106e-18
7323.98919 8.59821e-18
7325.46198 8.52920e-18
7326.93478 7.91327e-18
7328.39755 8.43705e-18
7329.87034 9.54985e-18
7331.34314 8.43276e-18
7332.80591 7.94053e-18
7334.27870 8.43254e-18
7335.75150 8.44674e-18
7337.22429 8.46095e-18
7338.68706 8.47515e-18
7340.15986 8.48936e-18
7341.63265 8.50356e-18
7343.09542 8.93622e-18
7344.56822 8.51765e-18
7346.04101 7.91329e-18
7347.51380 8.10503e-18
7348.97658 8.53595e-18
7350.44937 7.39549e-18
7351.92216 8.49292e-18
7353.39495 8.26315e-18
7354.85773 8.66136e-18
7356.33052 7.97273e-18
7357.80332 8.10389e-18
7359.26609 8.92142e-18
7360.73888 8.34381e-18
7362.21168 8.75630e-18
7363.68447 7.86505e-18
7365.14724 7.56804e-18
7366.62003 8.57866e-18
7368.09283 7.62892e-18
7369.55560 8.08863e-18
7371.02840 7.79747e-18
7372.50119 7.90510e-18
7373.97398 8.16553e-18
7375.43675 8.41063e-18
7376.90955 8.24597e-18
7378.38234 8.04615e-18
7379.85513 8.09403e-18
7381.31791 7.34329e-18
7382.79070 9.04634e-18
7384.26349 8.77948e-18
7385.72627 7.84217e-18
7387.19906 7.25094e-18
7388.67185 8.06977e-18
7390.14465 7.94861e-18
7391.60742 9.30107e-18
7393.08021 8.21871e-18
7394.55301 8.46504e-18
7396.01578 7.93413e-18
7397.48857 7.23426e-18
7398.96137 8.29528e-18
7400.43416 8.92425e-18
7401.89693 8.26916e-18
7403.36973 8.34275e-18
7404.84252 8.23795e-18
7406.31531 7.30589e-18
7407.77809 8.05430e-18
7409.25088 8.14439e-18
7410.72367 7.46371e-18
7412.18645 7.80884e-18
7413.65924 8.34081e-18
7415.13203 8.62714e-18
7416.60483 8.21195e-18
7418.06760 8.24288e-18
7420.00334 8.24288e-18
7421.99632 8.19517e-18
7423.99932 8.10563e-18
7426.00232 8.07390e-18
7427.99531 8.15970e-18
7429.99831 8.12344e-18
7432.00131 8.31657e-18
7434.00431 8.30746e-18
7435.99729 8.47080e-18
7438.00029 8.29648e-18
7440.00329 8.19292e-18
7441.99628 8.14318e-18
7443.99928 8.07973e-18
7446.00228 8.22585e-18
7447.99526 8.27128e-18
7449.99826 8.18826e-18
7452.00126 8.23835e-18
7454.00426 8.19195e-18
7455.99725 8.06507e-18
7458.00025 8.23584e-18
7460.00325 8.35222e-18
7461.99623 8.26454e-18
7463.99923 8.21363e-18
7466.00223 8.26162e-18
7467.99522 8.38440e-18
7469.99822 8.23917e-18
7472.00122 8.24968e-18
7474.00422 8.12807e-18
7475.99720 8.12350e-18
7478.00020 8.21108e-18
7480.00320 8.14814e-18
7481.99618 8.31351e-18
7483.99919 8.10133e-18
7486.00219 8.29273e-18
7487.99517 8.14345e-18
7489.99817 8.20551e-18
7492.00117 8.19193e-18
7494.00417 8.24432e-18
7495.99716 8.25502e-18
7498.00016 8.35414e-18
7500.00316 8.20159e-18
7501.99614 8.20253e-18
7503.99914 8.14984e-18
7506.00214 8.29597e-18
7507.99513 8.28259e-18
7509.99813 8.17361e-18
7512.00113 8.21728e-18
7514.00413 8.22203e-18
7515.99711 8.16059e-18
7518.00011 8.11371e-18
7520.00311 8.36520e-18
7521.99610 8.29254e-18
7523.99910 8.29861e-18
7526.00209 8.36387e-18
7527.99508 8.30358e-18
7529.99808 8.01072e-18
7532.00108 8.20327e-18
7534.00408 8.11912e-18
7535.99707 8.10888e-18
7538.00007 8.12600e-18
7540.00307 8.21083e-18
7541.99605 8.17692e-18
7543.99905 8.00825e-18
7546.00205 8.20700e-18
7547.99503 8.12090e-18
7549.99803 8.02835e-18
7552.00104 8.04803e-18
7554.00403 8.15835e-18
7555.99702 8.13366e-18
7558.00002 8.01116e-18
7560.00302 8.03688e-18
7561.99601 8.05845e-18
7563.99901 7.95631e-18
7566.00201 8.02806e-18
7568.00501 8.17695e-18
7569.99799 8.21431e-18
7572.00099 7.97546e-18
7574.00399 7.96195e-18
7575.99698 8.09096e-18
7577.99997 7.88289e-18
7580.00298 8.00904e-18
7581.99596 8.21560e-18
7583.99896 8.07737e-18
7586.00196 8.08035e-18
7587.99495 8.18220e-18
7589.99795 8.24469e-18
7592.00095 8.08807e-18
7594.00395 8.07509e-18
7595.99693 8.32951e-18
7597.99993 8.40824e-18
7600.00293 8.26629e-18
7601.99592 8.19898e-18
7603.99892 8.23651e-18
7606.00191 7.93681e-18
7607.99490 7.83361e-18
7609.99790 7.96677e-18
7612.00090 7.94192e-18
7614.00390 7.63833e-18
7615.99689 8.02852e-18
7617.99989 8.03031e-18
7620.00289 7.92314e-18
7621.99587 8.06483e-18
7623.99887 8.16614e-18
7626.00187 7.97209e-18
7628.00487 8.04371e-18
7629.99786 8.03178e-18
7632.00086 8.17045e-18
7634.00385 7.93858e-18
7635.99684 7.92807e-18
7637.99984 7.79779e-18
7640.00284 8.06706e-18
7641.99583 7.89391e-18
7643.99883 8.06405e-18
7646.00183 7.93217e-18
7647.99481 7.67982e-18
7649.99781 8.07238e-18
7652.00081 7.82019e-18
7654.00381 7.93988e-18
7655.99680 8.06417e-18
7657.99980 7.68316e-18
7660.00280 7.97313e-18
7661.99578 8.05298e-18
7663.99878 7.67258e-18
7666.00178 7.89108e-18
7668.00478 7.94520e-18
7669.99777 7.83154e-18
7672.00077 8.05298e-18
7674.00377 7.75877e-18
7675.99675 7.79404e-18
7677.99975 7.98312e-18
7680.00275 7.73997e-18
7681.99574 7.92259e-18
7683.99874 7.95809e-18
7686.00173 7.82074e-18
7688.00474 7.88318e-18
7689.99772 7.87876e-18
7692.00072 7.82082e-18
7694.00372 7.86001e-18
7695.99671 7.85165e-18
7697.99971 7.88485e-18
7700.00271 7.63495e-18
7701.99569 7.78797e-18
7703.99869 7.75849e-18
7706.00169 7.70858e-18
7708.00469 7.89682e-18
7709.99768 7.91076e-18
7712.00068 7.97773e-18
7714.00367 7.75938e-18
7715.99666 7.77731e-18
7717.99966 7.68395e-18
7720.00266 7.84765e-18
7721.99565 7.89672e-18
7723.99865 7.83303e-18
7726.00165 7.92891e-18
7728.00465 7.66973e-18
7729.99763 7.68266e-18
7732.00063 7.78885e-18
7734.00363 7.75408e-18
7735.99662 7.70519e-18
7737.99962 7.80235e-18
7740.00262 7.90077e-18
7741.99560 7.66933e-18
7743.99860 7.67157e-18
7746.00160 7.76108e-18
7748.00460 7.85599e-18
7749.99759 7.67445e-18
7752.00059 7.86376e-18
7754.00359 7.75149e-18
7755.99657 7.62065e-18
7757.99957 7.71033e-18
7760.00257 7.72962e-18
7761.99556 7.78238e-18
7763.99856 7.73915e-18
7766.00156 7.75351e-18
7768.00456 7.52893e-18
7769.99754 7.48088e-18
7772.00054 7.79567e-18
7774.00354 7.72131e-18
7775.99653 7.52274e-18
7777.99953 7.74262e-18
7780.00253 7.80565e-18
7781.99551 7.80048e-18
7783.99851 7.44026e-18
7786.00151 7.64226e-18
7788.00451 7.63273e-18
7789.99750 7.65420e-18
7792.00050 7.69556e-18
7794.00349 7.58767e-18
7795.99648 7.60227e-18
7797.99948 7.69138e-18
7800.00248 7.55153e-18
7801.99547 7.54584e-18
7803.99847 7.47697e-18
7806.00147 7.49797e-18
7808.00447 7.53079e-18
7809.99745 7.39590e-18
7812.00045 7.73432e-18
7814.00345 7.54743e-18
7815.99644 7.57555e-18
7817.99944 7.50277e-18
7820.00244 7.51589e-18
7821.99542 7.54312e-18
7823.99842 7.42057e-18
7826.00142 7.45831e-18
7828.00442 7.52594e-18
7829.99741 7.46065e-18
7832.00041 7.45090e-18
7834.00341 7.42741e-18
7835.99639 7.49532e-18
7837.99939 7.42293e-18
7840.00239 7.40741e-18
7841.99538 7.33834e-18
7843.99838 7.40827e-18
7846.00138 7.44742e-18
7848.00438 7.33974e-18
7849.99736 7.50797e-18
7852.00036 7.45350e-18
7854.00336 7.29532e-18
7855.99634 7.38331e-18
7857.99935 7.64363e-18
7860.00234 7.48716e-18
7861.99533 7.53634e-18
7863.99833 7.48901e-18
7866.00133 7.59276e-18
7868.00433 7.38529e-18
7869.99732 7.36879e-18
7872.00032 7.37764e-18
7874.00332 7.37973e-18
7875.99630 7.37202e-18
7877.99930 7.41760e-18
7880.00230 7.42777e-18
7881.99528 7.62601e-18
7883.99828 7.50008e-18
7886.00129 7.48428e-18
7888.00428 7.57653e-18
7889.99727 7.37902e-18
7892.00027 7.28216e-18
7894.00327 7.44106e-18
7895.99626 7.36088e-18
7897.99926 7.45478e-18
7900.00226 7.38407e-18
7901.99524 7.39345e-18
7903.99824 7.39932e-18
7906.00124 7.41654e-18
7908.00424 7.55118e-18
7909.99723 7.25906e-18
7912.00022 7.41117e-18
7914.00323 7.37476e-18
7915.99621 7.40546e-18
7917.99921 7.31457e-18
7920.00221 7.44363e-18
7921.99520 7.31951e-18
7923.99820 7.50538e-18
7926.00120 7.34430e-18
7928.00420 7.33348e-18
7929.99718 7.40416e-18
7932.00018 7.34130e-18
7934.00318 7.38668e-18
7935.99617 7.27537e-18
7937.99917 7.43898e-18
7940.00216 7.31760e-18
7941.99515 7.27885e-18
7943.99815 7.30665e-18
7946.00115 7.28180e-18
7948.00415 7.31702e-18
7949.99714 7.33149e-18
7952.00014 7.44403e-18
7954.00314 7.21497e-18
7955.99612 7.26498e-18
7957.99912 7.34528e-18
7960.00212 7.18282e-18
7961.99510 7.32303e-18
7963.99811 7.38150e-18
7966.00111 7.27547e-18
7968.00410 7.14668e-18
7969.99709 7.05305e-18
7972.00009 7.31529e-18
7974.00309 7.27830e-18
7975.99608 7.19455e-18
7977.99908 7.21360e-18
7980.00208 7.33969e-18
7981.99506 7.33173e-18
7983.99806 7.27008e-18
7986.00106 7.42115e-18
7988.00406 7.37540e-18
7989.99705 7.46132e-18
7992.00004 7.54129e-18
7994.00305 7.07858e-18
7995.99603 7.13635e-18
7997.99903 7.03851e-18
8000.00203 7.04614e-18
8002.00503 7.16119e-18
8003.99802 6.98860e-18
8006.00102 6.97560e-18
8008.00402 7.09078e-18
8009.99700 7.05307e-18
8012.00000 6.97655e-18
8014.00300 6.91604e-18
8015.99599 6.93338e-18
8017.99899 7.05305e-18
8020.00198 7.02355e-18
8021.99497 6.92334e-18
8023.99797 7.00230e-18
8026.00097 7.06397e-18
8028.00397 7.12261e-18
8029.99696 7.02474e-18
8031.99996 6.92898e-18
8034.00296 6.92178e-18
8035.99594 7.03781e-18
8037.99894 6.90587e-18
8040.00194 6.87295e-18
8042.00494 6.83560e-18
8043.99793 6.72004e-18
8046.00093 6.69828e-18
8048.00392 6.73190e-18
8049.99691 6.74283e-18
8051.99991 6.75781e-18
8054.00291 6.74835e-18
8055.99590 6.67628e-18
8057.99890 6.65702e-18
8060.00190 6.70092e-18
8061.99488 6.75668e-18
8063.99788 6.65621e-18
8066.00088 6.72691e-18
8068.00388 6.77209e-18
8069.99687 6.71367e-18
8071.99987 6.62473e-18
8074.00287 6.61566e-18
8075.99585 6.52201e-18
8077.99885 6.63793e-18
8080.00185 6.51982e-18
8082.00485 6.71035e-18
8083.99784 6.59619e-18
8086.00084 6.54464e-18
8088.00384 6.54510e-18
8089.99682 6.36932e-18
8091.99982 6.60977e-18
8094.00282 6.49667e-18
8095.99581 6.39891e-18
8097.99881 6.42889e-18
8100.00181 6.55822e-18
8102.00481 6.45070e-18
8103.99779 6.34900e-18
8106.00079 6.56304e-18
8108.00379 6.48505e-18
8109.99678 6.42737e-18
8111.99978 6.39744e-18
8114.00278 6.59548e-18
8115.99576 6.39935e-18
8117.99876 6.44055e-18
8120.00176 6.27998e-18
8121.99474 6.32980e-18
8123.99775 6.39965e-18
8126.00075 6.36467e-18
8128.00374 6.35802e-18
8129.99673 6.31550e-18
8131.99973 6.34844e-18
8134.00273 6.63068e-18
8135.99572 6.48039e-18
8137.99872 6.36869e-18
8140.00172 6.56449e-18
8142.00472 6.37287e-18
8143.99770 6.40971e-18
8146.00070 6.34977e-18
8148.00370 6.35085e-18
8149.99669 6.40531e-18
8151.99969 6.24845e-18
8154.00269 6.18429e-18
8155.99567 6.31653e-18
8157.99867 6.51472e-18
8160.00167 6.21641e-18
8162.00467 6.23064e-18
8163.99766 6.36819e-18
8166.00066 6.28834e-18
8168.00366 6.34350e-18
8169.99664 6.28575e-18
8171.99964 6.42017e-18
8174.00264 6.49999e-18
8175.99563 6.24877e-18
8177.99863 6.27514e-18
8180.00163 6.30057e-18
8182.00463 6.22273e-18
8183.99761 6.23501e-18
8186.00061 6.25173e-18
8188.00361 6.27447e-18
8189.99659 6.35885e-18
8191.99960 6.44473e-18
8194.00259 6.31195e-18
8195.99558 6.25973e-18
8197.99858 6.32377e-18
8200.00158 6.35021e-18
8202.00458 6.22352e-18
8203.99756 6.19767e-18
8206.00057 6.27893e-18
8208.00356 6.22461e-18
8209.99655 6.20262e-18
8211.99955 6.27220e-18
8214.00255 6.35641e-18
8215.99554 6.20926e-18
8217.99854 6.29017e-18
8220.00154 6.21595e-18
8222.00454 6.28805e-18
8223.99752 6.30518e-18
8226.00052 6.22189e-18
8228.00352 6.42844e-18
8229.99651 6.41483e-18
8231.99950 6.25055e-18
8234.00251 6.28471e-18
8235.99549 6.20457e-18
8237.99849 6.22316e-18
8240.00149 6.32763e-18
8242.00449 6.22990e-18
8243.99748 6.22082e-18
8246.00048 6.22854e-18
8248.00347 6.27357e-18
8249.99646 6.33350e-18
8251.99946 6.36700e-18
8254.00246 6.36548e-18
8255.99545 6.33810e-18
8257.99844 6.29732e-18
8260.00144 6.33482e-18
8261.99443 6.29831e-18
8263.99743 6.32390e-18
8266.00043 6.35856e-18
8268.00343 6.37013e-18
8269.99642 6.36820e-18
8271.99942 6.52148e-18
8274.00242 6.28990e-18
8275.99540 6.46000e-18
8277.99840 6.45364e-18
8280.00140 6.37116e-18
8282.00440 6.49582e-18
8283.99739 6.60185e-18
8286.00039 6.34384e-18
8288.00338 6.25742e-18
8289.99637 6.40660e-18
8291.99937 6.38498e-18
8294.00237 6.47755e-18
8295.99536 6.49771e-18
8297.99835 6.39574e-18
8300.00136 6.58868e-18
8302.00436 6.59201e-18
8303.99734 6.39259e-18
8306.00034 6.55392e-18
8308.00334 6.56134e-18
8309.99633 6.47852e-18
8311.99932 6.54126e-18
8314.00232 6.56532e-18
8315.99531 6.56315e-18
8317.99831 6.51404e-18
8320.00131 6.59990e-18
8322.00431 6.73204e-18
8323.99730 6.56168e-18
8326.00030 6.59978e-18
8328.00330 6.63799e-18
8329.99628 6.71349e-18
8331.99928 6.55246e-18
8334.00228 6.54555e-18
8335.99527 6.63707e-18
8337.99827 6.57847e-18
8340.00127 6.70913e-18
8342.00427 6.70950e-18
8343.99725 6.81622e-18
8346.00025 6.85013e-18
8348.00325 6.57234e-18
8349.99624 6.80055e-18
8351.99924 6.70072e-18
8354.00223 6.82914e-18
8355.99522 6.76910e-18
8357.99822 6.79957e-18
8360.00122 6.71935e-18
8362.00422 6.68317e-18
8363.99720 6.69326e-18
8366.00021 6.86421e-18
8368.00320 6.85152e-18
8369.99619 6.84113e-18
8371.99919 6.71466e-18
8374.00219 6.79940e-18
8376.00519 6.78236e-18
8377.99818 6.66923e-18
8380.00118 6.88738e-18
8382.00418 6.83474e-18
8383.99716 6.85276e-18
8386.00016 6.83608e-18
8388.00316 6.84005e-18
8389.99615 6.79409e-18
8391.99915 6.77577e-18
8394.00215 6.78567e-18
8395.99513 6.97763e-18
8397.99813 6.88091e-18
8400.00113 6.86466e-18
8402.00413 7.02453e-18
8403.99712 6.86487e-18
8406.00012 6.90377e-18
8408.00311 6.76681e-18
8409.99610 6.80163e-18
8411.99910 6.90586e-18
8414.00210 6.88385e-18
8415.99509 6.99595e-18
8417.99808 6.94352e-18
8420.00108 6.84173e-18
8422.00409 6.95654e-18
8423.99707 6.99820e-18
8426.00007 7.09900e-18
8428.00307 6.79881e-18
8429.99606 6.83015e-18
8431.99906 6.89781e-18
8434.00206 6.82366e-18
8436.00506 7.03822e-18
8437.99804 6.93002e-18
8440.00104 6.96941e-18
8442.00404 6.92118e-18
8443.99703 6.99379e-18
8446.00003 6.87979e-18
8448.00302 6.98491e-18
8449.99601 6.92832e-18
8451.99901 7.00770e-18
8454.00201 7.00027e-18
8455.99500 6.94178e-18
8457.99799 6.84313e-18
8460.00100 6.95541e-18
8462.00400 7.11589e-18
8463.99698 6.86975e-18
8465.99998 6.87979e-18
8468.00298 7.06405e-18
8469.99597 6.84676e-18
8471.99897 6.83659e-18
8474.00196 6.87067e-18
8475.99495 6.86261e-18
8477.99795 6.92136e-18
8480.00095 6.94536e-18
8482.00395 6.98924e-18
8483.99694 7.03556e-18
8485.99994 6.83916e-18
8488.00294 6.86981e-18
8489.99592 6.96063e-18
8491.99892 6.94327e-18
8494.00192 6.98255e-18
8496.00492 7.05587e-18
8497.99791 6.90116e-18
8500.00091 7.04141e-18
8502.00391 6.96453e-18
8503.99689 6.85705e-18
8505.99989 6.85930e-18
8508.00289 6.91227e-18
8509.99588 6.86862e-18
8511.99888 7.02995e-18
8514.00187 6.98059e-18
8516.00488 6.99333e-18
8517.99786 6.90143e-18
8520.00086 6.94352e-18
8522.00386 6.88653e-18
8523.99684 6.92186e-18
8525.99985 7.04543e-18
8528.00285 6.91596e-18
8529.99583 6.93414e-18
8531.99883 6.95967e-18
8534.00183 6.89581e-18
8535.99482 6.94182e-18
8537.99781 7.06556e-18
8540.00081 6.95466e-18
8542.00382 6.76984e-18
8543.99680 6.96140e-18
8545.99980 6.83168e-18
8548.00280 7.02948e-18
8549.99579 6.89845e-18
8551.99879 6.88009e-18
8554.00179 6.87255e-18
8556.00479 6.81232e-18
8557.99777 6.83443e-18
8560.00077 6.87204e-18
8562.00377 7.00475e-18
8563.99676 6.87632e-18
8565.99976 6.90503e-18
8568.00276 6.84574e-18
8569.99574 6.82060e-18
8571.99874 6.78474e-18
8574.00174 6.79415e-18
8576.00474 6.95469e-18
8577.99772 6.75385e-18
8580.00072 6.79113e-18
8582.00373 6.83103e-18
8583.99671 6.70551e-18
8585.99971 6.85067e-18
8588.00271 6.78050e-18
8589.99569 6.83186e-18
8591.99870 6.87246e-18
8594.00169 6.66343e-18
8595.99468 6.81161e-18
8597.99768 6.81822e-18
8600.00068 6.72226e-18
8602.00368 6.73380e-18
8603.99667 6.68198e-18
8605.99967 6.59475e-18
8608.00267 6.68683e-18
8609.99565 6.75566e-18
8611.99865 6.77308e-18
8614.00165 6.76232e-18
8616.00465 6.69443e-18
8617.99764 6.75828e-18
8620.00064 6.71009e-18
8622.00364 6.64519e-18
8623.99662 6.67159e-18
8625.99962 6.71383e-18
8628.00262 6.60419e-18
8629.99561 6.72598e-18
8631.99861 6.62436e-18
8634.00160 6.59142e-18
8636.00461 6.66786e-18
8637.99759 6.72996e-18
8640.00059 6.59611e-18
8642.00359 6.69541e-18
8643.99657 6.69759e-18
8645.99957 6.71173e-18
8648.00258 6.52447e-18
8649.99556 6.48819e-18
8651.99856 6.70818e-18
8654.00156 6.62840e-18
8656.00456 6.56877e-18
8657.99755 6.74000e-18
8660.00055 6.55215e-18
8662.00355 6.62492e-18
8663.99653 6.51530e-18
8665.99953 6.68900e-18
8668.00253 6.52619e-18
8669.99552 6.46765e-18
8671.99852 6.63675e-18
8674.00151 6.62851e-18
8676.00452 6.47045e-18
8677.99750 6.48052e-18
8680.00050 6.56566e-18
8682.00350 6.57360e-18
8683.99648 6.56039e-18
8685.99949 6.60334e-18
8688.00249 6.46710e-18
8689.99547 6.50911e-18
8691.99847 6.44635e-18
8694.00147 6.54162e-18
8696.00447 6.63029e-18
8697.99746 6.60597e-18
8700.00045 6.46927e-18
8702.00346 6.39497e-18
8703.99644 6.49701e-18
8705.99944 6.47240e-18
8708.00244 6.30152e-18
8709.99543 6.42056e-18
8711.99843 6.44729e-18
8714.00143 6.39431e-18
8716.00443 6.52201e-18
8717.99741 6.55325e-18
8720.00041 6.43077e-18
8722.00341 6.47362e-18
8723.99640 6.53876e-18
8725.99940 6.60278e-18
8728.00240 6.36513e-18
8729.99538 6.34928e-18
8731.99838 6.30683e-18
8734.00138 6.31397e-18
8736.00438 6.37958e-18
8737.99737 6.25847e-18
8740.00036 6.37278e-18
8742.00337 6.40814e-18
8743.99635 6.34467e-18
8745.99935 6.35312e-18
8748.00235 6.30128e-18
8749.99533 6.41922e-18
8751.99834 6.42027e-18
8754.00133 6.33701e-18
8756.00433 6.20789e-18
8757.99732 6.16379e-18
8760.00032 6.30221e-18
8762.00332 6.28244e-18
8763.99631 6.27519e-18
8765.99931 6.18526e-18
8768.00231 6.26869e-18
8769.99529 6.21104e-18
8771.99829 6.31866e-18
8774.00129 6.26069e-18
8776.00429 6.12676e-18
8777.99728 6.12633e-18
8780.00028 6.31789e-18
8782.00328 6.11223e-18
8783.99626 6.06729e-18
8785.99926 6.19551e-18
8788.00226 6.08537e-18
8789.99525 5.94838e-18
8791.99825 6.15318e-18
8794.00125 6.07543e-18
8796.00425 6.11731e-18
8797.99723 6.09023e-18
8800.00023 6.00519e-18
8802.00323 6.05278e-18
8803.99621 6.10657e-18
8805.99921 6.27791e-18
8808.00222 6.09836e-18
8809.99520 6.09870e-18
8811.99820 6.02408e-18
8814.00120 6.06467e-18
8816.00420 6.04818e-18
8817.99719 6.18649e-18
8820.00019 6.11701e-18
8822.00319 6.03354e-18
8823.99617 6.11253e-18
8825.99917 6.10844e-18
8828.00217 6.02903e-18
8829.99516 6.07473e-18
8831.99816 6.00219e-18
8834.00116 6.09282e-18
8836.00416 6.07452e-18
8837.99714 5.99672e-18
8840.00014 5.93557e-18
8842.00314 5.94249e-18
8843.99612 6.06321e-18
8845.99913 6.01653e-18
8848.00213 6.11087e-18
8850.00512 5.99887e-18
8851.99811 6.02869e-18
8854.00111 6.08018e-18
8856.00411 6.14175e-18
8857.99710 6.14344e-18
8860.00009 6.24262e-18
8862.00310 6.23814e-18
8863.99608 6.40274e-18
8865.99908 6.27143e-18
8868.00208 6.20858e-18
8869.99506 6.14783e-18
8871.99806 6.13687e-18
8874.00107 6.13314e-18
8876.00406 6.03480e-18
8877.99705 6.03742e-18
8880.00005 5.98817e-18
8882.00305 5.96574e-18
8883.99604 5.99374e-18
8885.99904 6.00011e-18
8888.00204 5.96592e-18
8889.99502 5.89866e-18
8891.99802 5.81475e-18
8894.00102 5.96728e-18
8896.00402 5.97158e-18
8897.99701 5.91627e-18
8900.00000 5.97959e-18
8902.00301 5.82385e-18
8903.99599 5.94454e-18
8905.99899 5.82380e-18
8908.00199 5.87923e-18
8910.00499 5.93373e-18
8911.99798 5.92763e-18
8914.00098 5.86469e-18
8916.00397 5.99740e-18
8917.99696 6.10880e-18
8919.99996 5.84358e-18
8922.00296 5.83185e-18
8923.99595 5.84185e-18
8925.99894 5.84975e-18
8928.00194 5.92123e-18
8929.99493 5.88254e-18
8931.99793 5.80343e-18
8934.00093 5.76171e-18
8936.00393 5.76047e-18
8937.99692 5.71569e-18
8939.99992 5.76748e-18
8942.00292 5.69047e-18
8943.99590 5.84595e-18
8945.99890 5.83693e-18
8948.00190 5.71573e-18
8949.99489 5.68336e-18
8951.99789 5.66129e-18
8954.00089 5.78598e-18
8956.00389 5.82550e-18
8957.99687 5.78357e-18
8959.99987 5.67072e-18
8962.00287 5.69425e-18
8963.99586 5.76873e-18
8965.99885 5.83683e-18
8968.00186 5.69430e-18
8970.00486 5.76770e-18
8971.99784 5.83122e-18
8974.00084 5.84374e-18
8976.00384 5.81375e-18
8977.99683 5.64718e-18
8979.99982 5.76702e-18
8982.00282 5.96565e-18
8983.99581 5.71081e-18
8985.99881 5.66718e-18
8988.00181 6.01020e-18
8990.00481 5.65857e-18
8991.99780 5.88451e-18
8994.00080 5.74253e-18
8996.00380 5.78619e-18
8997.99678 5.69646e-18
8999.99978 5.72171e-18
9002.00278 5.88219e-18
9003.99577 6.05763e-18
9005.99877 5.97434e-18
9008.00177 5.92809e-18
9009.99475 5.88302e-18
9011.99775 6.23450e-18
9014.00075 6.14874e-18
9016.00375 6.15855e-18
9017.99674 6.43163e-18
9019.99973 5.84367e-18
9022.00274 5.84935e-18
9023.99572 5.87990e-18
9025.99872 5.93753e-18
9028.00172 5.71071e-18
9030.00472 5.67581e-18
9031.99770 5.65036e-18
9034.00071 5.75713e-18
9036.00370 5.73789e-18
9037.99669 5.52227e-18
9039.99969 5.50094e-18
9042.00269 5.66515e-18
9043.99568 5.70142e-18
9045.99868 5.51006e-18
9048.00168 5.68157e-18
9050.00468 5.58593e-18
9051.99766 5.54917e-18
9054.00066 5.72660e-18
9056.00366 5.58117e-18
9057.99665 5.57078e-18
9059.99965 5.64364e-18
9062.00265 5.64960e-18
9063.99563 5.81722e-18
9065.99863 5.66510e-18
9068.00163 5.62137e-18
9070.00463 5.53841e-18
9071.99762 5.44345e-18
9074.00062 5.66528e-18
9076.00361 5.71535e-18
9077.99660 5.50675e-18
9079.99960 5.57512e-18
9082.00260 5.65513e-18
9083.99559 5.50577e-18
9085.99858 5.32929e-18
9088.00158 5.56982e-18
9090.00459 5.56558e-18
9091.99757 5.45345e-18
9094.00057 5.54485e-18
9096.00357 5.56990e-18
9097.99656 5.36689e-18
9099.99956 5.52361e-18
9102.00256 5.66288e-18
9103.99554 5.50322e-18
9105.99854 5.52310e-18
9108.00154 5.54535e-18
9110.00454 5.53050e-18
9111.99753 5.50103e-18
9114.00053 5.53855e-18
9116.00353 5.33776e-18
9117.99651 5.47267e-18
9119.99951 5.53376e-18
9122.00251 5.51011e-18
9123.99550 5.50973e-18
9125.99849 5.54763e-18
9128.00150 5.42352e-18
9130.00450 5.51541e-18
9131.99748 5.58546e-18
9134.00048 5.31948e-18
9136.00348 5.66924e-18
9137.99647 5.57312e-18
9139.99947 5.49390e-18
9142.00246 5.44424e-18
9143.99545 5.40826e-18
9145.99845 5.39942e-18
9148.00145 5.53812e-18
9150.00445 5.43703e-18
9151.99744 5.56265e-18
9154.00044 5.46444e-18
9156.00344 5.53910e-18
9157.99642 5.43615e-18
9159.99942 5.35182e-18
9162.00242 5.49926e-18
9163.99541 5.44393e-18
9165.99841 5.44016e-18
9168.00141 5.45831e-18
9170.00441 5.48818e-18
9171.99739 5.40210e-18
9174.00039 5.43989e-18
9176.00339 5.55306e-18
9177.99638 5.42356e-18
9179.99938 5.46678e-18
9182.00238 5.36457e-18
9183.99536 5.41203e-18
9185.99836 5.43906e-18
9188.00136 5.30162e-18
9190.00436 5.40446e-18
9191.99734 5.49317e-18
9194.00035 5.30020e-18
9196.00335 5.40958e-18
9197.99633 5.43391e-18
9199.99933 5.35999e-18
9202.00233 5.39954e-18
9203.99532 5.29710e-18
9205.99831 5.34926e-18
9208.00131 5.52758e-18
9210.00432 5.44538e-18
9211.99730 5.46157e-18
9214.00030 5.52515e-18
9216.00330 5.58386e-18
9217.99629 5.49478e-18
9219.99929 5.62615e-18
9222.00229 5.53353e-18
9223.99527 5.57251e-18
9225.99827 5.86047e-18
9228.00127 6.03116e-18
9230.00427 6.09966e-18
9231.99726 5.89311e-18
9234.00026 5.77163e-18
9236.00326 5.55754e-18
9237.99624 5.53536e-18
9239.99924 5.47155e-18
9242.00224 5.34041e-18
9243.99523 5.32982e-18
9245.99822 5.32926e-18
9248.00122 5.27942e-18
9250.00423 5.24357e-18
9251.99721 5.42209e-18
9254.00021 5.27873e-18
9256.00321 5.26428e-18
9257.99619 5.24714e-18
9259.99920 5.28922e-18
9262.00219 5.32006e-18
9263.99518 5.42412e-18
9265.99818 5.35126e-18
9268.00118 5.25934e-18
9270.00418 5.36592e-18
9271.99717 5.19938e-18
9274.00017 5.36594e-18
9276.00317 5.25849e-18
9277.99615 5.22866e-18
9279.99915 5.42370e-18
9282.00215 5.30361e-18
9283.99514 5.17833e-18
9285.99813 5.35736e-18
9288.00114 5.37964e-18
9290.00414 5.29727e-18
9291.99712 5.25977e-18
9294.00012 5.35432e-18
9296.00312 5.33569e-18
9297.99611 5.27531e-18
9299.99911 5.28936e-18
9302.00210 5.25358e-18
9303.99509 5.37672e-18
9305.99809 5.07162e-18
9308.00109 5.03723e-18
9310.00409 5.67528e-18
9311.99707 5.33286e-18
9314.00007 4.91972e-18
9316.00308 5.24708e-18
9317.99606 5.44796e-18
9319.99906 5.37203e-18
9322.00206 5.04847e-18
9324.00506 5.40559e-18
9325.99805 5.40421e-18
9328.00105 5.33357e-18
9330.00405 5.02309e-18
9331.99703 5.11368e-18
9334.00003 5.35823e-18
9336.00303 5.32077e-18
9337.99602 5.37794e-18
9339.99902 5.34170e-18
9342.00202 4.76820e-18
9343.99500 5.53121e-18
9345.99800 5.69296e-18
9348.00100 5.23630e-18
9350.00400 5.07117e-18
9351.99698 4.79798e-18
9353.99999 5.48496e-18
9356.00299 5.13073e-18
9357.99597 5.28857e-18
9359.99897 5.64703e-18
9362.00197 5.22145e-18
9363.99496 4.83250e-18
9365.99796 5.14022e-18
9368.00095 5.01683e-18
9370.00396 5.04946e-18
9371.99694 5.56162e-18
9373.99994 5.11016e-18
9376.00294 5.10167e-18
9377.99593 5.10228e-18
9379.99893 5.05710e-18
9382.00193 5.45819e-18
9384.00493 5.22235e-18
9385.99791 4.99550e-18
9388.00091 5.26581e-18
9390.00391 4.99678e-18
9391.99690 4.92238e-18
9393.99990 5.11321e-18
9396.00290 4.98279e-18
9397.99588 4.91527e-18
9399.99888 5.05314e-18
9402.00188 5.09951e-18
9404.00488 5.06575e-18
9405.99787 5.02396e-18
9408.00086 4.93755e-18
9410.00387 5.13314e-18
9411.99685 5.27049e-18
9413.99985 5.12063e-18
9416.00285 4.90850e-18
9417.99583 5.11540e-18
9419.99884 4.94321e-18
9422.00183 5.04893e-18
9423.99482 4.72857e-18
9425.99782 4.67109e-18
9428.00082 5.24935e-18
9430.00382 5.49927e-18
9431.99681 5.12534e-18
9433.99981 4.88282e-18
9436.00281 4.76438e-18
9437.99579 4.86897e-18
9439.99879 4.98024e-18
9442.00179 5.29023e-18
9444.00479 5.09027e-18
9445.99778 5.05481e-18
9448.00078 4.84134e-18
9450.00378 5.11937e-18
9451.99676 4.91969e-18
9453.99976 4.70921e-18
9456.00276 5.35099e-18
9457.99575 4.72286e-18
9459.99875 4.69154e-18
9462.00174 5.20167e-18
9464.00475 4.97166e-18
9465.99773 4.86908e-18
9468.00073 4.68126e-18
9470.00373 5.08019e-18
9471.99671 4.85450e-18
9473.99971 4.76428e-18
9476.00272 5.18059e-18
9477.99570 4.81010e-18
9479.99870 4.69490e-18
9482.00170 5.29509e-18
9483.99469 5.08874e-18
9485.99769 4.78381e-18
9488.00069 4.90785e-18
9490.00369 4.89830e-18
9491.99667 4.68602e-18
9493.99967 4.99089e-18
9496.00267 5.01596e-18
9497.99566 4.80569e-18
9499.99866 4.78937e-18
9502.00166 5.30291e-18
9504.00466 4.93522e-18
9505.99764 4.90916e-18
9508.00064 4.88009e-18
9510.00364 4.98470e-18
9511.99662 4.80160e-18
9513.99963 4.75140e-18
9516.00263 4.66883e-18
9517.99561 4.87948e-18
9519.99861 4.80483e-18
9522.00161 4.86003e-18
9524.00461 4.86185e-18
9525.99760 4.68986e-18
9528.00059 4.84031e-18
9530.00360 4.96386e-18
9531.99658 4.81554e-18
9533.99958 4.73023e-18
9536.00258 4.94989e-18
9537.99556 4.99172e-18
9539.99856 4.81218e-18
9542.00157 4.84824e-18
9544.00456 5.23506e-18
9545.99755 5.55265e-18
9548.00055 5.23537e-18
9550.00355 4.99442e-18
9551.99654 4.83554e-18
9553.99954 5.01561e-18
9556.00254 5.10428e-18
9557.99552 5.07367e-18
9559.99852 4.86851e-18
9562.00152 4.62465e-18
9564.00452 4.80950e-18
9565.99751 4.80242e-18
9568.00050 4.72103e-18
9570.00351 4.70792e-18
9571.99649 4.61502e-18
9573.99949 4.59652e-18
9576.00249 4.62642e-18
9577.99547 4.53738e-18
9579.99848 4.69092e-18
9582.00148 5.02179e-18
9584.00447 4.72227e-18
9585.99746 4.57932e-18
9588.00046 4.48114e-18
9590.00346 4.65213e-18
9591.99644 4.78715e-18
9593.99944 4.74552e-18
9596.00245 4.54857e-18
9597.99543 4.68361e-18
9599.99843 4.76141e-18
9602.00143 4.66906e-18
9604.00443 4.57860e-18
9605.99742 4.65569e-18
9608.00042 4.77007e-18
9610.00342 4.78846e-18
9611.99640 4.69950e-18
9613.99940 4.60003e-18
9616.00240 4.55494e-18
9617.99539 4.55185e-18
9619.99839 4.49836e-18
9622.00139 4.61473e-18
9624.00439 4.52673e-18
9625.99737 4.63056e-18
9628.00037 4.76682e-18
9630.00337 4.71163e-18
9631.99636 4.45031e-18
9633.99935 4.50534e-18
9636.00236 4.59809e-18
9637.99534 4.77421e-18
9639.99834 4.63137e-18
9642.00134 4.50125e-18
9644.00434 4.50787e-18
9645.99733 4.72618e-18
9648.00032 4.56764e-18
9650.00332 4.49478e-18
9651.99631 4.63007e-18
9653.99931 4.57971e-18
9656.00231 4.60933e-18
9657.99530 4.50987e-18
9659.99830 4.50737e-18
9662.00130 4.66508e-18
9664.00430 4.67735e-18
9665.99728 4.50782e-18
9668.00028 4.46360e-18
9670.00328 4.61795e-18
9671.99627 4.69283e-18
9673.99927 4.68020e-18
9676.00227 4.71810e-18
9677.99525 4.47418e-18
9679.99825 4.47858e-18
9682.00125 4.52778e-18
9684.00425 4.54428e-18
9685.99724 4.50405e-18
9688.00023 4.61910e-18
9690.00324 4.50000e-18
9691.99622 4.59164e-18
9693.99922 4.57003e-18
9696.00222 4.46719e-18
9697.99520 4.45350e-18
9699.99820 4.44077e-18
9702.00121 4.47597e-18
9704.00420 4.45257e-18
9705.99719 4.34978e-18
9708.00019 4.49794e-18
9710.00319 4.48959e-18
9711.99618 4.36185e-18
9713.99918 4.48966e-18
9716.00218 4.65640e-18
9717.99516 4.43634e-18
9719.99816 4.54866e-18
9722.00116 4.52602e-18
9724.00416 4.67721e-18
9725.99715 4.51161e-18
9728.00014 4.67730e-18
9730.00315 4.43750e-18
9731.99613 4.43776e-18
9733.99913 4.43160e-18
9736.00213 4.49623e-18
9738.00513 4.62569e-18
9739.99812 4.50882e-18
9742.00112 4.36262e-18
9744.00411 4.55683e-18
9745.99710 4.54116e-18
9748.00010 4.53722e-18
9750.00310 4.47524e-18
9751.99609 4.39866e-18
9753.99908 4.35788e-18
9756.00209 4.53093e-18
9757.99507 4.57508e-18
9759.99807 4.46493e-18
9762.00107 4.51851e-18
9764.00407 4.57563e-18
9765.99706 4.42642e-18
9768.00006 4.41150e-18
9770.00306 4.47865e-18
9771.99604 4.38209e-18
9773.99904 4.42865e-18
9776.00204 4.40493e-18
9777.99503 4.48030e-18
9779.99803 4.41123e-18
9782.00103 4.52235e-18
9784.00403 4.45775e-18
9785.99701 4.52029e-18
9788.00001 4.42112e-18
9790.00301 4.39541e-18
9791.99600 4.44948e-18
9793.99899 4.71517e-18
9796.00200 4.44095e-18
9798.00500 4.38374e-18
9799.99798 4.52780e-18
9802.00098 4.42291e-18
9804.00398 4.44288e-18
9805.99697 4.61350e-18
9807.99997 4.44925e-18
9810.00296 4.44485e-18
9811.99595 4.45458e-18
9813.99895 4.38258e-18
9816.00195 4.29570e-18
9817.99494 4.32667e-18
9819.99794 4.45927e-18
9822.00094 4.42356e-18
9824.00394 4.37912e-18
9825.99692 4.52620e-18
9827.99992 4.42780e-18
9830.00292 4.47504e-18
9831.99591 4.54799e-18
9833.99891 4.51517e-18
9836.00191 4.52796e-18
9837.99489 4.50011e-18
9839.99789 4.49495e-18
9842.00089 4.38064e-18
9844.00389 4.37809e-18
9845.99688 4.39711e-18
9847.99988 4.34210e-18
9850.00288 4.37853e-18
9851.99586 4.40807e-18
9853.99886 4.46647e-18
9856.00186 4.35475e-18
9858.00486 4.39896e-18
9859.99784 4.44725e-18
9862.00085 4.40709e-18
9864.00384 4.46743e-18
9865.99683 4.42798e-18
9867.99983 4.41573e-18
9870.00283 4.46853e-18
9871.99582 4.37023e-18
9873.99881 4.53208e-18
9876.00181 4.40203e-18
9878.00482 4.43493e-18
9879.99780 4.40572e-18
9882.00080 4.48670e-18
9884.00380 4.42569e-18
9885.99679 4.45024e-18
9887.99979 4.33335e-18
9890.00279 4.29077e-18
9891.99577 4.35681e-18
9893.99877 4.34450e-18
9896.00177 4.44702e-18
9897.99476 4.36089e-18
9899.99776 4.37987e-18
9902.00076 4.35723e-18
9904.00375 4.30644e-18
9905.99674 4.35176e-18
9907.99974 4.23186e-18
9910.00274 4.36632e-18
9911.99573 4.35507e-18
9913.99872 4.63794e-18
9916.00173 4.39541e-18
9918.00473 4.41954e-18
9919.99771 4.38796e-18
9922.00071 4.26543e-18
9924.00371 4.17246e-18
9925.99669 4.37032e-18
9927.99970 4.32277e-18
9930.00269 4.32418e-18
9931.99568 4.35299e-18
9933.99868 4.46272e-18
9936.00168 4.35811e-18
9938.00468 4.34710e-18
9939.99767 4.32824e-18
9942.00067 4.21723e-18
9944.00367 4.25473e-18
9945.99665 4.29216e-18
9947.99965 4.50928e-18
9950.00265 4.31279e-18
9951.99564 4.25332e-18
9953.99863 4.38895e-18
9956.00164 4.26597e-18
9957.99462 4.27544e-18
9959.99762 4.21434e-18
9962.00062 4.40737e-18
9964.00362 4.33594e-18
9965.99661 4.31911e-18
9967.99961 4.31869e-18
9970.00260 4.33523e-18
9971.99559 4.35229e-18
9973.99859 4.20632e-18
9976.00159 4.25768e-18
9978.00459 4.30112e-18
9979.99757 4.36854e-18
9982.00058 4.28363e-18
9984.00358 4.26490e-18
9985.99656 4.25190e-18
9987.99956 4.14557e-18
9990.00256 4.32196e-18
9991.99555 4.33227e-18
9993.99855 4.20768e-18
9996.00155 4.33502e-18
9998.00455 4.17838e-18
9999.99753 4.21429e-18
