# wavelength flux
4751.61094 9.32518e-18
4752.61284 1.06966e-17
4753.60472 1.00692e-17
4754.60662 9.49237e-18
4755.60852 1.01858e-17
4756.61042 1.07397e-17
4757.61232 1.07149e-17
4758.60420 1.07480e-17
4759.60610 9.84982e-18
4760.60800 9.77907e-18
4761.60990 9.51374e-18
4762.61180 9.42940e-18
4763.61370 1.00834e-17
4764.60558 9.33228e-18
4765.60748 9.19320e-18
4766.60938 9.24495e-18
4767.61128 9.65158e-18
4768.61318 9.79729e-18
4769.60506 9.35521e-18
4770.60696 9.25699e-18
4771.60886 9.46912e-18
4772.61076 9.33330e-18
4773.61266 9.32726e-18
4774.60455 9.78494e-18
4775.60645 1.01004e-17
4776.60835 9.61771e-18
4777.61024 8.75663e-18
4778.61215 8.57869e-18
4779.60403 9.07315e-18
4780.60593 8.94212e-18
4781.60783 8.61882e-18
4782.60973 8.68278e-18
4783.61163 8.47580e-18
4784.61353 8.51594e-18
4785.60541 8.54793e-18
4786.60731 8.84300e-18
4787.60921 9.04177e-18
4788.61111 8.72504e-18
4789.61301 8.60569e-18
4790.60489 9.38492e-18
4791.60679 9.51889e-18
4792.60869 8.59903e-18
4793.61059 7.60994e-18
4794.61249 7.60431e-18
4795.60437 8.50436e-18
4796.60627 9.18310e-18
4797.60817 9.01834e-18
4798.61007 9.20373e-18
4799.61197 9.21848e-18
4800.61387 8.82317e-18
4801.60575 8.85156e-18
4802.60765 9.21954e-18
4803.60955 8.64534e-18
4804.61145 8.02726e-18
4805.61335 8.52446e-18
4806.60523 8.82820e-18
4807.60713 8.77565e-18
4808.60903 9.14698e-18
4809.61093 9.23374e-18
4810.61283 8.62773e-18
4811.60471 9.01389e-18
4812.60661 9.26079e-18
4813.60851 9.14754e-18
4814.61041 9.00941e-18
4815.61231 8.84303e-18
4816.61421 8.93060e-18
4817.60609 8.43647e-18
4818.60799 8.00634e-18
4819.60989 8.16145e-18
4820.61179 8.79044e-18
4821.61369 9.03793e-18
4822.60557 8.43677e-18
4823.60747 8.25533e-18
4824.60937 8.66405e-18
4825.61127 9.22849e-18
4826.61317 8.58636e-18
4827.60505 7.71815e-18
4828.60696 8.16403e-18
4829.60885 8.29229e-18
4830.61075 7.94694e-18
4831.61265 8.43912e-18
4832.60454 9.13160e-18
4833.60644 8.71763e-18
4834.60834 8.20080e-18
4835.61024 9.21012e-18
4836.61214 9.82095e-18
4837.61404 8.50779e-18
4838.60592 8.42583e-18
4839.60782 8.43429e-18
4840.60972 7.47139e-18
4841.61162 7.63686e-18
4842.61352 8.95688e-18
4843.60540 9.20876e-18
4844.60730 8.67291e-18
4845.60920 8.95181e-18
4846.61110 9.01453e-18
4847.61300 8.77237e-18
4848.60488 9.23127e-18
4849.60678 8.15978e-18
4850.60868 8.58939e-18
4851.61058 8.80576e-18
4852.61248 8.80401e-18
4853.60436 8.80225e-18
4854.60626 8.80050e-18
4855.60816 8.79874e-18
4856.61006 8.79699e-18
4857.61196 8.79524e-18
4858.61386 8.79348e-18
4859.60574 8.79173e-18
4860.60764 8.78997e-18
4861.60954 8.78822e-18
4862.61144 8.78647e-18
4863.61334 8.78471e-18
4864.60522 8.78296e-18
4865.60712 8.78121e-18
4866.60902 8.77945e-18
4867.61092 8.77770e-18
4868.61282 8.77595e-18
4869.60470 8.77419e-18
4870.60660 8.77244e-18
4871.60850 8.77069e-18
4872.61040 8.76894e-18
4873.61230 8.76718e-18
4874.60418 8.76543e-18
4875.60608 8.76368e-18
4876.60798 8.76193e-18
4877.60988 8.76017e-18
4878.61178 8.75842e-18
4879.61368 8.75667e-18
4880.60557 8.75492e-18
4881.60747 8.75316e-18
4882.60937 8.75141e-18
4883.61127 8.74966e-18
4884.61317 8.74791e-18
4885.60505 8.74616e-18
4886.60695 8.74441e-18
4887.60885 8.74265e-18
4888.61075 8.74090e-18
4889.61265 8.68578e-18
4890.60453 9.35023e-18
4891.60643 9.72900e-18
4892.60833 9.44693e-18
4893.61023 8.97944e-18
4894.61213 8.78293e-18
4895.61403 9.39135e-18
4896.60591 8.85423e-18
4897.60781 8.99570e-18
4898.60971 1.00016e-17
4899.61161 9.63161e-18
4900.61351 8.34519e-18
4901.60539 9.08703e-18
4902.60729 9.96542e-18
4903.60919 1.03483e-17
4904.61109 1.01063e-17
4905.61299 9.93433e-18
4906.60487 1.01353e-17
4907.60677 1.03908e-17
4908.60867 1.07812e-17
4909.61057 1.03004e-17
4910.61247 1.03943e-17
4911.60435 1.09589e-17
4912.60625 1.11155e-17
4913.60815 1.09184e-17
4914.61005 1.06867e-17
4915.61195 1.04559e-17
4916.61385 1.08789e-17
4917.60573 1.12460e-17
4918.60763 1.15540e-17
4919.60953 1.15758e-17
4920.61143 1.12631e-17
4921.61333 1.17122e-17
4922.60521 1.14590e-17
4923.60711 1.12049e-17
4924.60901 1.14650e-17
4925.61091 1.17203e-17
4926.61281 1.19899e-17
4927.60469 1.26817e-17
4928.60659 1.28301e-17
4929.60849 1.24377e-17
4930.61039 1.27250e-17
4931.61229 1.29561e-17
4932.60418 1.27198e-17
4933.60607 1.28036e-17
4934.60797 1.30917e-17
4935.60988 1.29392e-17
4936.61178 1.21828e-17
4937.61368 1.24423e-17
4938.60556 1.31478e-17
4939.60746 1.33498e-17
4940.60936 1.36364e-17
4941.61126 1.36766e-17
4942.61316 1.31088e-17
4943.60504 1.34327e-17
4944.60694 1.37398e-17
4945.60884 1.34439e-17
4946.61074 1.30251e-17
4947.61264 1.27903e-17
4948.60452 1.34071e-17
4949.60642 1.25337e-17
4950.60832 1.24822e-17
4951.61022 1.24306e-17
4952.61212 1.23791e-17
4953.60400 1.23276e-17
4954.60590 1.22760e-17
4955.60780 1.22245e-17
4956.60970 1.21729e-17
4957.61160 1.21214e-17
4958.61350 1.20699e-17
4959.60538 1.20184e-17
4960.60728 1.19668e-17
4961.60918 1.19153e-17
4962.61108 1.18638e-17
4963.61298 1.18123e-17
4964.60486 1.17608e-17
4965.60676 1.17093e-17
4966.60866 1.16577e-17
4967.61056 1.16062e-17
4968.61246 1.15547e-17
4969.60434 1.15032e-17
4970.60624 1.14517e-17
4971.60814 1.14002e-17
4972.61004 1.13487e-17
4973.61194 1.12972e-17
4974.61384 1.12457e-17
4975.60572 1.11942e-17
4976.60762 1.11428e-17
4977.60952 1.10913e-17
4978.61142 1.10398e-17
4979.61332 1.09883e-17
4980.60520 1.09368e-17
4981.60710 1.08853e-17
4982.60900 1.08339e-17
4983.61090 1.07824e-17
4984.61280 1.07309e-17
4985.60468 1.06794e-17
4986.60658 1.06280e-17
4987.60848 1.00367e-17
4988.61038 1.01880e-17
4989.61228 1.01483e-17
4990.61418 1.00540e-17
4991.60607 1.00001e-17
4992.60797 9.89852e-18
4993.60987 9.71629e-18
4994.61177 9.46720e-18
4995.61367 9.81054e-18
4996.60555 8.17802e-18
4997.60745 8.11186e-18
4998.60935 8.13729e-18
4999.61125 8.16271e-18
5000.61315 8.18814e-18
5001.60503 8.21356e-18
5002.60693 8.23898e-18
5003.60883 8.26440e-18
5004.61073 8.28982e-18
5005.61263 8.31526e-18
5006.60451 8.34068e-18
5007.60641 8.36609e-18
5008.60831 8.39151e-18
5009.61021 8.41693e-18
5010.61211 8.44234e-18
5011.60399 8.46776e-18
5012.60589 8.49317e-18
5013.60779 8.51858e-18
5014.60969 8.54401e-18
5015.61159 8.56941e-18
5016.61349 8.59483e-18
5017.60537 8.62023e-18
5018.60727 8.64564e-18
5019.60917 8.67105e-18
5020.61107 8.69645e-18
5021.61297 8.72186e-18
5022.60485 8.74728e-18
5023.60675 8.77268e-18
5024.60865 8.79808e-18
5025.61055 8.82348e-18
5026.61245 8.84888e-18
5027.60433 8.87428e-18
5028.60623 8.89968e-18
5029.60813 8.92508e-18
5030.61003 8.95047e-18
5031.61193 8.97588e-18
5032.61383 9.00128e-18
5033.60571 9.02667e-18
5034.60761 9.05206e-18
5035.60951 9.51647e-18
5036.61141 8.33567e-18
5037.61331 8.64162e-18
5038.60520 9.82603e-18
5039.60710 9.72241e-18
5040.60900 9.27398e-18
5041.61089 8.94352e-18
5042.61280 9.30641e-18
5043.60468 9.23080e-18
5044.60658 9.16122e-18
5045.60848 9.41925e-18
5046.61038 9.33658e-18
5047.61228 9.10795e-18
5048.61418 9.55563e-18
5049.60606 9.16745e-18
5050.60796 9.79803e-18
5051.60986 9.86578e-18
5052.61176 9.25938e-18
5053.61366 9.81557e-18
5054.60554 1.01292e-17
5055.60744 9.83143e-18
5056.60934 9.77116e-18
5057.61124 9.78916e-18
5058.61314 9.87368e-18
5059.60502 9.63823e-18
5060.60692 9.36344e-18
5061.60882 1.03905e-17
5062.61072 1.03120e-17
5063.61262 9.91953e-18
5064.60450 1.03352e-17
5065.60640 1.02463e-17
5066.60830 9.93526e-18
5067.61020 1.09009e-17
5068.61210 1.06313e-17
5069.61400 1.00791e-17
5070.60588 1.00359e-17
5071.60778 1.11163e-17
5072.60968 1.14426e-17
5073.61158 1.05403e-17
5074.61348 1.09547e-17
5075.60536 1.10392e-17
5076.60726 1.10200e-17
5077.60916 1.14611e-17
5078.61106 1.17301e-17
5079.61296 1.16271e-17
5080.60484 1.16475e-17
5081.60674 1.16088e-17
5082.60864 1.15799e-17
5083.61054 1.18517e-17
5084.61244 1.13522e-17
5085.60432 1.14993e-17
5086.60622 1.23906e-17
5087.60812 1.22396e-17
5088.61002 1.24804e-17
5089.61192 1.23548e-17
5090.61382 1.13991e-17
5091.60570 1.17487e-17
5092.60761 1.28811e-17
5093.60950 1.27796e-17
5094.61140 1.22538e-17
5095.61330 1.24552e-17
5096.60519 1.21940e-17
5097.60709 1.20882e-17
5098.60899 1.17906e-17
5099.61089 1.15175e-17
5100.61279 1.21257e-17
5101.60467 1.28719e-17
5102.60657 1.27434e-17
5103.60847 1.22728e-17
5104.61037 1.26760e-17
5105.61227 1.26409e-17
5106.60415 1.24121e-17
5107.60605 1.29018e-17
5108.60795 1.23823e-17
5109.60985 1.29940e-17
5110.61175 1.25041e-17
5111.61365 1.23326e-17
5112.60553 1.25481e-17
5113.60743 1.24429e-17
5114.60933 1.26775e-17
5115.61123 1.24564e-17
5116.61313 1.24348e-17
5117.60501 1.25317e-17
5118.60691 1.29214e-17
5119.60881 1.29924e-17
5120.61071 1.27169e-17
5121.61261 1.27880e-17
5122.60449 1.22713e-17
5123.60639 1.26957e-17
5124.60829 1.23580e-17
5125.61019 1.27404e-17
5126.61209 1.32395e-17
5127.61399 1.26367e-17
5128.60587 1.32078e-17
5129.60777 1.29763e-17
5130.60967 1.32171e-17
5131.61157 1.35324e-17
5132.61347 1.34652e-17
5133.60535 1.32244e-17
5134.60725 1.31247e-17
5135.60915 1.33833e-17
5136.61105 1.32877e-17
5137.61295 1.31369e-17
5138.60483 1.35373e-17
5139.60673 1.36573e-17
5140.60863 1.31594e-17
5141.61053 1.31299e-17
5142.61243 1.35722e-17
5143.60432 1.35214e-17
5144.60622 1.32926e-17
5145.60811 1.31826e-17
5146.61002 1.30042e-17
5147.61192 1.29165e-17
5148.61382 1.30833e-17
5149.60570 1.28320e-17
5150.60760 1.29557e-17
5151.60950 1.28640e-17
5152.61140 1.28040e-17
5153.61330 1.32367e-17
5154.60518 1.36478e-17
5155.60708 1.36854e-17
5156.60898 1.38448e-17
5157.61088 1.30663e-17
5158.61278 1.36759e-17
5159.60466 1.43758e-17
5160.60656 1.40578e-17
5161.60846 1.38781e-17
5162.61036 1.33216e-17
5163.61226 1.33851e-17
5164.60414 1.34869e-17
5165.60604 1.34366e-17
5166.60794 1.33173e-17
5167.60984 1.34614e-17
5168.61174 1.38652e-17
5169.61364 1.38369e-17
5170.60552 1.40666e-17
5171.60742 1.36312e-17
5172.60932 1.34905e-17
5173.61122 1.36402e-17
5174.61312 1.34985e-17
5175.60500 1.35690e-17
5176.60690 1.36691e-17
5177.60880 1.39957e-17
5178.61070 1.39450e-17
5179.61260 1.37824e-17
5180.60448 1.39916e-17
5181.60638 1.41406e-17
5182.60828 1.38617e-17
5183.61018 1.39546e-17
5184.61208 1.39786e-17
5185.60396 1.43595e-17
5186.60586 1.46729e-17
5187.60776 1.47453e-17
5188.60966 1.48193e-17
5189.61156 1.45352e-17
5190.61346 1.44634e-17
5191.60534 1.44352e-17
5192.60724 1.45189e-17
5193.60914 1.40932e-17
5194.61104 1.37468e-17
5195.61294 1.45286e-17
5196.60483 1.49603e-17
5197.60672 1.41955e-17
5198.60862 1.38523e-17
5199.61053 1.40791e-17
5200.61243 1.45304e-17
5201.60431 1.45590e-17
5202.60621 1.42774e-17
5203.60811 1.51673e-17
5204.61001 1.46415e-17
5205.61191 1.40233e-17
5206.61381 1.40898e-17
5207.60569 1.43802e-17
5208.60759 1.48016e-17
5209.60949 1.52526e-17
5210.61139 1.49787e-17
5211.61329 1.45324e-17
5212.60517 1.42068e-17
5213.60707 1.40241e-17
5214.60897 1.40955e-17
5215.61087 1.43033e-17
5216.61277 1.44806e-17
5217.60465 1.50419e-17
5218.60655 1.48326e-17
5219.60845 1.50826e-17
5220.61035 1.48989e-17
5221.61225 1.43962e-17
5222.61415 1.46973e-17
5223.60603 1.43872e-17
5224.60793 1.43591e-17
5225.60983 1.46496e-17
5226.61173 1.42413e-17
5227.61363 1.43236e-17
5228.60551 1.48802e-17
5229.60741 1.43141e-17
5230.60931 1.41275e-17
5231.61121 1.52262e-17
5232.61311 1.54128e-17
5233.60499 1.51065e-17
5234.60689 1.54896e-17
5235.60879 1.58684e-17
5236.61069 1.55015e-17
5237.61259 1.54065e-17
5238.60447 1.52235e-17
5239.60637 1.58052e-17
5240.60827 1.55973e-17
5241.61017 1.48263e-17
5242.61207 1.52183e-17
5243.61397 1.59754e-17
5244.60585 1.58444e-17
5245.60775 1.57501e-17
5246.60965 1.55159e-17
5247.61155 1.51932e-17
5248.61345 1.53520e-17
5249.60533 1.56819e-17
5250.60723 1.55190e-17
5251.60913 1.57542e-17
5252.61103 1.54161e-17
5253.61294 1.54607e-17
5254.60482 1.57410e-17
5255.60672 1.58449e-17
5256.60862 1.58064e-17
5257.61052 1.52796e-17
5258.61242 1.55069e-17
5259.60430 1.57166e-17
5260.60620 1.55347e-17
5261.60810 1.50878e-17
5262.61000 1.47942e-17
5263.61190 1.51449e-17
5264.61380 1.58884e-17
5265.60568 1.61802e-17
5266.60758 1.53519e-17
5267.60948 1.53817e-17
5268.61138 1.58262e-17
5269.61328 1.55702e-17
5270.60516 1.54923e-17
5271.60706 1.52238e-17
5272.60896 1.51815e-17
5273.61086 1.52642e-17
5274.61276 1.53822e-17
5275.60464 1.55891e-17
5276.60654 1.57157e-17
5277.60844 1.55040e-17
5278.61034 1.51662e-17
5279.61224 1.50830e-17
5280.61414 1.53626e-17
5281.60602 1.53911e-17
5282.60792 1.50063e-17
5283.60982 1.48496e-17
5284.61172 1.50681e-17
5285.61362 1.49610e-17
5286.60550 1.53675e-17
5287.60740 1.57391e-17
5288.60930 1.55143e-17
5289.61120 1.52206e-17
5290.61310 1.52287e-17
5291.60498 1.51883e-17
5292.60688 1.54555e-17
5293.60878 1.55282e-17
5294.61068 1.47999e-17
5295.61258 1.42525e-17
5296.60446 1.48514e-17
5297.60636 1.55965e-17
5298.60826 1.52578e-17
5299.61016 1.51053e-17
5300.61206 1.52504e-17
5301.61396 1.49267e-17
5302.60585 1.47835e-17
5303.60775 1.52557e-17
5304.60965 1.54796e-17
5305.61155 1.53911e-17
5306.61344 1.49112e-17
5307.60533 1.58305e-17
5308.60723 1.56007e-17
5309.60913 1.49229e-17
5310.61103 1.54041e-17
5311.61293 1.50076e-17
5312.60481 1.52005e-17
5313.60671 1.53736e-17
5314.60861 1.50782e-17
5315.61051 1.50223e-17
5316.61241 1.49665e-17
5317.60429 1.47038e-17
5318.60619 1.49534e-17
5319.60809 1.47737e-17
5320.60999 1.54834e-17
5321.61189 1.53062e-17
5322.61379 1.47214e-17
5323.60567 1.47184e-17
5324.60757 1.47343e-17
5325.60947 1.47265e-17
5326.61137 1.45367e-17
5327.61327 1.54911e-17
5328.60515 1.59349e-17
5329.60705 1.50881e-17
5330.60895 1.43135e-17
5331.61085 1.43492e-17
5332.61275 1.43634e-17
5333.60463 1.43558e-17
5334.60653 1.43617e-17
5335.60843 1.42767e-17
5336.61033 1.47960e-17
5337.61223 1.50476e-17
5338.60411 1.42067e-17
5339.60601 1.47702e-17
5340.60791 1.47682e-17
5341.60981 1.46858e-17
5342.61171 1.43881e-17
5343.61361 1.41163e-17
5344.60549 1.42101e-17
5345.60739 1.43266e-17
5346.60929 1.47636e-17
5347.61119 1.41343e-17
5348.61309 1.41780e-17
5349.60497 1.41837e-17
5350.60687 1.38827e-17
5351.60877 1.41324e-17
5352.61067 1.44191e-17
5353.61257 1.48836e-17
5354.60445 1.44954e-17
5355.60635 1.42790e-17
5356.60826 1.39375e-17
5357.61016 1.35666e-17
5358.61205 1.39080e-17
5359.61395 1.41410e-17
5360.60584 1.41174e-17
5361.60774 1.35097e-17
5362.60964 1.36693e-17
5363.61154 1.41065e-17
5364.61344 1.40025e-17
5365.60532 1.38017e-17
5366.60722 1.36723e-17
5367.60912 1.41600e-17
5368.61102 1.42543e-17
5369.61292 1.39429e-17
5370.60480 1.36091e-17
5371.60670 1.39572e-17
5372.60860 1.45669e-17
5373.61050 1.35979e-17
5374.61240 1.37775e-17
5375.61430 1.40663e-17
5376.60618 1.41869e-17
5377.60808 1.39153e-17
5378.60998 1.36511e-17
5379.61188 1.41889e-17
5380.61378 1.39634e-17
5381.60566 1.36951e-17
5382.60756 1.33696e-17
5383.60946 1.38292e-17
5384.61136 1.43043e-17
5385.61326 1.40685e-17
5386.60514 1.41951e-17
5387.60704 1.38273e-17
5388.60894 1.38025e-17
5389.61084 1.37713e-17
5390.61274 1.32698e-17
5391.60462 1.24398e-17
5392.60652 1.24096e-17
5393.60842 1.36741e-17
5394.61032 1.36684e-17
5395.61222 1.35779e-17
5396.61412 1.35451e-17
5397.60600 1.34753e-17
5398.60790 1.35615e-17
5399.60980 1.37989e-17
5400.61170 1.39431e-17
5401.61360 1.36251e-17
5402.60548 1.36428e-17
5403.60738 1.31665e-17
5404.60928 1.29382e-17
5405.61118 1.33798e-17
5406.61308 1.33753e-17
5407.60497 1.33927e-17
5408.60687 1.34806e-17
5409.60877 1.35992e-17
5410.61067 1.38385e-17
5411.61257 1.39720e-17
5412.60445 1.41754e-17
5413.60635 1.49297e-17
5414.60825 1.53433e-17
5415.61015 1.40184e-17
5416.61205 1.34522e-17
5417.60393 1.34441e-17
5418.60583 1.39745e-17
5419.60773 1.46779e-17
5420.60963 1.40208e-17
5421.61153 1.41818e-17
5422.61343 1.38142e-17
5423.60531 1.29865e-17
5424.60721 1.28911e-17
5425.60911 1.31179e-17
5426.61101 1.31347e-17
5427.61291 1.35207e-17
5428.60479 1.29542e-17
5429.60669 1.29771e-17
5430.60859 1.31910e-17
5431.61049 1.27417e-17
5432.61239 1.24350e-17
5433.60427 1.28465e-17
5434.60617 1.29307e-17
5435.60807 1.32488e-17
5436.60997 1.35182e-17
5437.61187 1.36129e-17
5438.61377 1.35716e-17
5439.60565 1.32938e-17
5440.60755 1.32295e-17
5441.60945 1.38343e-17
5442.61135 1.32965e-17
5443.61325 1.34261e-17
5444.60513 1.36760e-17
5445.60703 1.33941e-17
5446.60893 1.27142e-17
5447.61083 1.22797e-17
5448.61273 1.33888e-17
5449.60461 1.32382e-17
5450.60651 1.27395e-17
5451.60841 1.32116e-17
5452.61031 1.33306e-17
5453.61221 1.27598e-17
5454.61411 1.30113e-17
5455.60599 1.29110e-17
5456.60789 1.33833e-17
5457.60979 1.42322e-17
5458.61169 1.42137e-17
5459.61359 1.35884e-17
5460.60548 1.35363e-17
5461.60738 1.38015e-17
5462.60927 1.34983e-17
5463.61118 1.26951e-17
5464.61308 1.23444e-17
5465.60496 1.23881e-17
5466.60686 1.26715e-17
5467.60876 1.28851e-17
5468.61066 1.25093e-17
5469.61256 1.30261e-17
5470.60444 1.24766e-17
5471.60634 1.24490e-17
5472.60824 1.29323e-17
5473.61014 1.26286e-17
5474.61204 1.22993e-17
5475.61394 1.27907e-17
5476.60582 1.28998e-17
5477.60772 1.23649e-17
5478.60962 1.26132e-17
5479.61152 1.31213e-17
5480.61342 1.27682e-17
5481.60530 1.23842e-17
5482.60720 1.26390e-17
5483.60910 1.25942e-17
5484.61100 1.27857e-17
5485.61290 1.28473e-17
5486.60478 1.25609e-17
5487.60668 1.25306e-17
5488.60858 1.30600e-17
5489.61048 1.34932e-17
5490.61238 1.26227e-17
5491.60426 1.22011e-17
5492.60616 1.20922e-17
5493.60806 1.19895e-17
5494.60996 1.25586e-17
5495.61186 1.31165e-17
5496.61376 1.25101e-17
5497.60564 1.22728e-17
5498.60754 1.26590e-17
5499.60944 1.28344e-17
5500.61134 1.24921e-17
5501.61324 1.24960e-17
5502.60512 1.30097e-17
5503.60702 1.20410e-17
5504.60892 1.19304e-17
5505.61082 1.21014e-17
5506.61272 1.22729e-17
5507.60460 1.26202e-17
5508.60650 1.26896e-17
5509.60840 1.25769e-17
5510.61030 1.20786e-17
5511.61220 1.26755e-17
5512.60408 1.26395e-17
5513.60599 1.19441e-17
5514.60788 1.19503e-17
5515.60978 1.20763e-17
5516.61168 1.16713e-17
5517.61359 1.17162e-17
5518.60547 1.20647e-17
5519.60737 1.22616e-17
5520.60927 1.20867e-17
5521.61117 1.20120e-17
5522.61307 1.24154e-17
5523.60495 1.24229e-17
5524.60685 1.24202e-17
5525.60875 1.18950e-17
5526.61065 1.17933e-17
5527.61255 1.21944e-17
5528.60443 1.22213e-17
5529.60633 1.20918e-17
5530.60823 1.18679e-17
5531.61013 1.19000e-17
5532.61203 1.20016e-17
5533.61393 1.17884e-17
5534.60581 1.17440e-17
5535.60771 1.19480e-17
5536.60961 1.16309e-17
5537.61151 1.18641e-17
5538.61341 1.18097e-17
5539.60529 1.15365e-17
5540.60719 1.17434e-17
5541.60909 1.19128e-17
5542.61099 1.15477e-17
5543.61289 1.15429e-17
5544.60477 1.12436e-17
5545.60667 1.21006e-17
5546.60857 1.25719e-17
5547.61047 1.20965e-17
5548.61237 1.16889e-17
5549.60425 1.16557e-17
5550.60615 1.19602e-17
5551.60805 1.18454e-17
5552.60995 1.14418e-17
5553.61185 1.17622e-17
5554.61375 1.22314e-17
5555.60563 1.19362e-17
5556.60753 1.15755e-17
5557.60943 1.17879e-17
5558.61133 1.22518e-17
5559.61323 1.20432e-17
5560.60511 1.14402e-17
5561.60701 1.13342e-17
5562.60891 1.14768e-17
5563.61081 1.12542e-17
5564.61271 1.16118e-17
5565.60460 1.15664e-17
5566.60649 1.07015e-17
5567.60840 1.12622e-17
5568.61030 1.19792e-17
5569.61220 1.11837e-17
5570.60408 1.18710e-17
5571.60598 1.23616e-17
5572.60788 1.19345e-17
5573.60978 1.18731e-17
5574.61168 1.20916e-17
5575.61358 1.17932e-17
5576.60546 1.14383e-17
5577.60736 1.17180e-17
5578.60926 1.19507e-17
5579.61116 1.12500e-17
5580.61306 1.06637e-17
5581.60494 1.13939e-17
5582.60684 1.22068e-17
5583.60874 1.16345e-17
5584.61064 1.12676e-17
5585.61254 1.13930e-17
5586.60442 1.17843e-17
5587.60632 1.19233e-17
5588.60822 1.18030e-17
5589.61012 1.15923e-17
5590.61202 1.14241e-17
5591.61392 1.16703e-17
5592.60580 1.11962e-17
5593.60770 1.10700e-17
5594.60960 1.10248e-17
5595.61150 1.11017e-17
5596.61340 1.15335e-17
5597.60528 1.15581e-17
5598.60718 1.16687e-17
5599.60908 1.11031e-17
5600.61098 1.10157e-17
5601.61288 1.14396e-17
5602.60476 1.15727e-17
5603.60666 1.15087e-17
5604.60856 1.15705e-17
5605.61046 1.13940e-17
5606.61236 1.15333e-17
5607.61426 1.15804e-17
5608.60614 1.15547e-17
5609.60804 1.14040e-17
5610.60994 1.11347e-17
5611.61184 1.14792e-17
5612.61374 1.14595e-17
5613.60562 1.12828e-17
5614.60752 1.14306e-17
5615.60942 1.16116e-17
5616.61132 1.14772e-17
5617.61322 1.13390e-17
5618.60510 1.12656e-17
5619.60700 1.05863e-17
5620.60891 1.12215e-17
5621.61081 1.12677e-17
5622.61270 1.07540e-17
5623.60459 1.10651e-17
5624.60649 1.10738e-17
5625.60839 1.09489e-17
5626.61029 1.07660e-17
5627.61219 1.11293e-17
5628.61409 1.11340e-17
5629.60597 1.09117e-17
5630.60787 1.10380e-17
5631.60977 1.09334e-17
5632.61167 1.14212e-17
5633.61357 1.16660e-17
5634.60545 1.12368e-17
5635.60735 1.12247e-17
5636.60925 1.13543e-17
5637.61115 1.08063e-17
5638.61305 1.07319e-17
5639.60493 1.08462e-17
5640.60683 1.04341e-17
5641.60873 1.03932e-17
5642.61063 1.06272e-17
5643.61253 1.05744e-17
5644.60441 1.05034e-17
5645.60631 1.05774e-17
5646.60821 1.07262e-17
5647.61011 1.04021e-17
5648.61201 1.02216e-17
5649.61391 1.01957e-17
5650.60579 1.02678e-17
5651.60769 1.05827e-17
5652.60959 1.01963e-17
5653.61149 9.99875e-18
5654.61339 9.56967e-18
5655.60527 9.60217e-18
5656.60717 9.98532e-18
5657.60907 9.97074e-18
5658.61097 9.80128e-18
5659.61287 9.61158e-18
5660.60475 1.01507e-17
5661.60665 1.06604e-17
5662.60855 1.04674e-17
5663.61045 9.90059e-18
5664.61235 9.53892e-18
5665.60423 9.21152e-18
5666.60613 8.62565e-18
5667.60803 9.45892e-18
5668.60993 9.80049e-18
5669.61183 9.47611e-18
5670.61373 9.51092e-18
5671.60562 9.53298e-18
5672.60752 9.05517e-18
5673.60942 8.37468e-18
5674.61132 8.94218e-18
5675.61322 9.03042e-18
5676.60510 9.02240e-18
5677.60700 9.28135e-18
5678.60890 8.72116e-18
5679.61080 8.72416e-18
5680.61270 8.71121e-18
5681.60458 7.70210e-18
5682.60648 8.35203e-18
5683.60838 9.35042e-18
5684.61028 8.89170e-18
5685.61218 8.89644e-18
5686.61408 8.46343e-18
5687.60596 7.88940e-18
5688.60786 8.06024e-18
5689.60976 8.33882e-18
5690.61166 8.55289e-18
5691.61356 8.75446e-18
5692.60544 8.27692e-18
5693.60734 7.84240e-18
5694.60924 7.67836e-18
5695.61114 7.87292e-18
5696.61304 7.84524e-18
5697.60492 7.71289e-18
5698.60682 7.76848e-18
5699.60872 7.57868e-18
5700.61062 7.85654e-18
5701.61252 7.81315e-18
5702.60440 7.67997e-18
5703.60630 8.05459e-18
5704.60820 8.24751e-18
5705.61010 7.74992e-18
5706.61200 7.62050e-18
5707.61390 7.32256e-18
5708.60578 7.37193e-18
5709.60768 7.10256e-18
5710.60958 7.13339e-18
5711.61148 7.62361e-18
5712.61338 7.36980e-18
5713.60526 7.19861e-18
5714.60716 7.59229e-18
5715.60906 7.29830e-18
5716.61096 7.30802e-18
5717.61286 7.48697e-18
5718.60474 7.28736e-18
5719.60664 7.39592e-18
5720.60854 6.92694e-18
5721.61044 7.42169e-18
5722.61234 7.71722e-18
5723.60423 7.13433e-18
5724.60613 7.24342e-18
5725.60803 7.94158e-18
5726.60992 7.27516e-18
5727.61182 7.45975e-18
5728.61373 7.68692e-18
5729.60561 7.78532e-18
5730.60751 7.62499e-18
5731.60941 7.27879e-18
5732.61131 7.42838e-18
5733.61321 8.04594e-18
5734.60509 7.94858e-18
5735.60699 8.00096e-18
5736.60889 7.89567e-18
5737.61079 7.68849e-18
5738.61269 7.72441e-18
5739.60457 7.76356e-18
5740.60647 7.84266e-18
5741.60837 8.06816e-18
5742.61027 8.29334e-18
5743.61217 7.95328e-18
5744.60405 7.96358e-18
5745.60595 8.71552e-18
5746.60785 8.94795e-18
5747.60975 8.72434e-18
5748.61165 8.08145e-18
5749.61355 8.51856e-18
5750.60543 9.04494e-18
5751.60733 8.67167e-18
5752.60923 8.12251e-18
5753.61113 8.14667e-18
5754.61303 8.81212e-18
5755.60491 8.79546e-18
5756.60681 8.92946e-18
5757.60871 9.65288e-18
5758.61061 1.03390e-17
5759.61251 1.05647e-17
5760.60439 1.04250e-17
5761.60629 1.02098e-17
5762.60819 1.06296e-17
5763.61009 1.06076e-17
5764.61199 1.00516e-17
5765.61389 1.04234e-17
5766.60577 1.15609e-17
5767.60767 1.15454e-17
5768.60957 1.17267e-17
5769.61147 1.15021e-17
5770.61337 1.10946e-17
5771.60525 1.09392e-17
5772.60715 1.11144e-17
5773.60905 1.12563e-17
5774.61095 1.07134e-17
5775.61285 1.10605e-17
5776.60473 1.12972e-17
5777.60664 1.19025e-17
5778.60853 1.23431e-17
5779.61043 1.18932e-17
5780.61233 1.18115e-17
5781.61424 1.19445e-17
5782.60612 1.25395e-17
5783.60802 1.25048e-17
5784.60992 1.22164e-17
5785.61182 1.22264e-17
5786.61372 1.24147e-17
5787.60560 1.27084e-17
5788.60750 1.20383e-17
5789.60940 1.18529e-17
5790.61130 1.22391e-17
5791.61320 1.22173e-17
5792.60508 1.22038e-17
5793.60698 1.26965e-17
5794.60888 1.25012e-17
5795.61078 1.25393e-17
5796.61268 1.28767e-17
5797.60456 1.29621e-17
5798.60646 1.27787e-17
5799.60836 1.28748e-17
5800.61026 1.33123e-17
5801.61216 1.33796e-17
5802.60404 1.30874e-17
5803.60594 1.27803e-17
5804.60784 1.30223e-17
5805.60974 1.32393e-17
5806.61164 1.30069e-17
5807.61354 1.31231e-17
5808.60542 1.33824e-17
5809.60732 1.31093e-17
5810.60922 1.26196e-17
5811.61112 1.24984e-17
5812.61302 1.28570e-17
5813.60490 1.31386e-17
5814.60680 1.30040e-17
5815.60870 1.32719e-17
5816.61060 1.30949e-17
5817.61250 1.27153e-17
5818.60438 1.27739e-17
5819.60628 1.32647e-17
5820.60818 1.35455e-17
5821.61008 1.33185e-17
5822.61198 1.35442e-17
5823.61388 1.38103e-17
5824.60576 1.36244e-17
5825.60766 1.34984e-17
5826.60956 1.35170e-17
5827.61146 1.32507e-17
5828.61336 1.33882e-17
5829.60525 1.38612e-17
5830.60714 1.42023e-17
5831.60905 1.41406e-17
5832.61095 1.42159e-17
5833.61285 1.44453e-17
5834.60473 1.42055e-17
5835.60663 1.42800e-17
5836.60853 1.45351e-17
5837.61043 1.46162e-17
5838.61233 1.45109e-17
5839.61423 1.47163e-17
5840.60611 1.49400e-17
5841.60801 1.44940e-17
5842.60991 1.49997e-17
5843.61181 1.55130e-17
5844.61371 1.52737e-17
5845.60559 1.46040e-17
5846.60749 1.42170e-17
5847.60939 1.43652e-17
5848.61129 1.46997e-17
5849.61319 1.49346e-17
5850.60507 1.49682e-17
5851.60697 1.48075e-17
5852.60887 1.48399e-17
5853.61077 1.49160e-17
5854.61267 1.46544e-17
5855.60455 1.47672e-17
5856.60645 1.51257e-17
5857.60835 1.54220e-17
5858.61025 1.56423e-17
5859.61215 1.55472e-17
5860.61405 1.50397e-17
5861.60593 1.48005e-17
5862.60783 1.52015e-17
5863.60973 1.47789e-17
5864.61163 1.48771e-17
5865.61353 1.46877e-17
5866.60541 1.42642e-17
5867.60731 1.47354e-17
5868.60921 1.48954e-17
5869.61111 1.49452e-17
5870.61301 1.47428e-17
5871.60489 1.43176e-17
5872.60679 1.41204e-17
5873.60869 1.42719e-17
5874.61059 1.43391e-17
5875.61249 1.43080e-17
5876.60437 1.47833e-17
5877.60627 1.44765e-17
5878.60817 1.44801e-17
5879.61007 1.48098e-17
5880.61197 1.47967e-17
5881.61387 1.49034e-17
5882.60575 1.45621e-17
5883.60765 1.40575e-17
5884.60956 1.38601e-17
5885.61146 1.38556e-17
5886.61335 1.40465e-17
5887.60524 1.41605e-17
5888.60714 1.37036e-17
5889.60904 1.36119e-17
5890.61094 1.37717e-17
5891.61284 1.41147e-17
5892.60472 1.39003e-17
5893.60662 1.35908e-17
5894.60852 1.38104e-17
5895.61042 1.34528e-17
5896.61232 1.32210e-17
5897.60420 1.32656e-17
5898.60610 1.31265e-17
5899.60800 1.22503e-17
5900.60990 1.12776e-17
5901.61180 1.10198e-17
5902.61370 1.08539e-17
5903.60558 1.14406e-17
5904.60748 1.19245e-17
5905.60938 1.20017e-17
5906.61128 1.13789e-17
5907.61318 1.07775e-17
5908.60506 1.13327e-17
5909.60696 1.16351e-17
5910.60886 1.19735e-17
5911.61076 1.28285e-17
5912.61266 1.33771e-17
5913.60454 1.32980e-17
5914.60644 1.33748e-17
5915.60834 1.37341e-17
5916.61024 1.35105e-17
5917.61214 1.34245e-17
5918.61404 1.31257e-17
5919.60592 1.24922e-17
5920.60782 1.25730e-17
5921.60972 1.32707e-17
5922.61162 1.29842e-17
5923.61352 1.31376e-17
5924.60540 1.29707e-17
5925.60730 1.29009e-17
5926.60920 1.32496e-17
5927.61110 1.31465e-17
5928.61300 1.26832e-17
5929.60488 1.32205e-17
5930.60678 1.27959e-17
5931.60868 1.32200e-17
5932.61058 1.31451e-17
5933.61248 1.26972e-17
5934.60437 1.28724e-17
5935.60627 1.25698e-17
5936.60817 1.32209e-17
5937.61007 1.31817e-17
5938.61197 1.22104e-17
5939.61387 1.21147e-17
5940.60575 1.25141e-17
5941.60765 1.21134e-17
5942.60955 1.21556e-17
5943.61145 1.24478e-17
5944.61335 1.21182e-17
5945.60523 1.24742e-17
5946.60713 1.27771e-17
5947.60903 1.24629e-17
5948.61093 1.25636e-17
5949.61283 1.24819e-17
5950.60471 1.26279e-17
5951.60661 1.25242e-17
5952.60851 1.21511e-17
5953.61041 1.20145e-17
5954.61231 1.21372e-17
5955.60419 1.23273e-17
5956.60609 1.28457e-17
5957.60799 1.29982e-17
5958.60989 1.27569e-17
5959.61179 1.22348e-17
5960.61369 1.21089e-17
5961.60557 1.25925e-17
5962.60747 1.26888e-17
5963.60937 1.25809e-17
5964.61127 1.29990e-17
5965.61317 1.20993e-17
5966.60505 1.11116e-17
5967.60695 1.16781e-17
5968.60885 1.23518e-17
5969.61075 1.20583e-17
5970.61265 1.21159e-17
5971.60453 1.19758e-17
5972.60643 1.22709e-17
5973.60833 1.22216e-17
5974.61023 1.15849e-17
5975.61213 1.16931e-17
5976.60401 1.16747e-17
5977.60591 1.15647e-17
5978.60781 1.20093e-17
5979.60971 1.20667e-17
5980.61161 1.18159e-17
5981.61351 1.19288e-17
5982.60539 1.17320e-17
5983.60729 1.14028e-17
5984.60919 1.18502e-17
5985.61109 1.19257e-17
5986.61299 1.18053e-17
5987.60487 1.17927e-17
5988.60678 1.16438e-17
5989.60868 1.19640e-17
5990.61057 1.22456e-17
5991.61247 1.19304e-17
5992.60436 1.16195e-17
5993.60626 1.14149e-17
5994.60816 1.16000e-17
5995.61006 1.22098e-17
5996.61196 1.18116e-17
5997.61386 1.16063e-17
5998.60574 1.13864e-17
5999.60764 1.14414e-17
6000.60954 1.14727e-17
6001.61144 1.06496e-17
6002.61334 9.95762e-18
6003.60522 1.11451e-17
6004.60712 1.10940e-17
6005.60902 1.10345e-17
6006.61092 1.12301e-17
6007.61282 1.10918e-17
6008.60470 1.10031e-17
6009.60660 1.10525e-17
6010.60850 1.12580e-17
6011.61040 1.12633e-17
6012.61230 1.11608e-17
6013.61420 1.09594e-17
6014.60608 1.09654e-17
6015.60798 1.12782e-17
6016.60988 1.10273e-17
6017.61178 1.05747e-17
6018.61368 1.04706e-17
6019.60556 1.09021e-17
6020.60746 1.14932e-17
6021.60936 1.14854e-17
6022.61126 1.07840e-17
6023.61316 1.04866e-17
6024.60504 1.06740e-17
6025.60694 1.06971e-17
6026.60884 1.06491e-17
6027.61074 1.06195e-17
6028.61264 1.06581e-17
6029.60452 1.09838e-17
6030.60642 1.08381e-17
6031.60832 1.07112e-17
6032.61022 1.03268e-17
6033.61212 1.03046e-17
6034.61402 1.07635e-17
6035.60590 1.09138e-17
6036.60780 1.10542e-17
6037.60970 1.10156e-17
6038.61160 1.06405e-17
6039.61350 1.04470e-17
6040.60538 1.06996e-17
6041.60729 1.09861e-17
6042.60918 1.09328e-17
6043.61108 1.06728e-17
6044.61298 9.97173e-18
6045.60487 1.01487e-17
6046.60677 1.04238e-17
6047.60867 1.03444e-17
6048.61057 1.04997e-17
6049.61247 1.06767e-17
6050.60435 1.11565e-17
6051.60625 1.07328e-17
6052.60815 1.06294e-17
6053.61005 1.07604e-17
6054.61195 1.07952e-17
6055.61385 1.10481e-17
6056.60573 1.07109e-17
6057.60763 1.05714e-17
6058.60953 1.08131e-17
6059.61143 1.08092e-17
6060.61333 1.06618e-17
6061.60521 1.08063e-17
6062.60711 1.10354e-17
6063.60901 1.12012e-17
6064.61091 1.12992e-17
6065.61281 1.08964e-17
6066.60469 1.04758e-17
6067.60659 1.04888e-17
6068.60849 1.05617e-17
6069.61039 1.04636e-17
6070.61229 1.06074e-17
6071.60417 1.04454e-17
6072.60607 1.04391e-17
6073.60797 1.03650e-17
6074.60987 1.02883e-17
6075.61177 1.07958e-17
6076.61367 1.10898e-17
6077.60555 1.05242e-17
6078.60745 1.03483e-17
6079.60935 1.08695e-17
6080.61125 1.07599e-17
6081.61315 1.02185e-17
6082.60503 1.06756e-17
6083.60693 1.08154e-17
6084.60883 1.05133e-17
6085.61073 1.07966e-17
6086.61263 1.10553e-17
6087.60451 1.08579e-17
6088.60641 1.06632e-17
6089.60831 1.04692e-17
6090.61021 1.03934e-17
6091.61211 1.00813e-17
6092.61401 1.03421e-17
6093.60590 1.06894e-17
6094.60779 1.07234e-17
6095.60970 1.08376e-17
6096.61160 1.06398e-17
6097.61350 1.08054e-17
6098.60538 1.09246e-17
6099.60728 1.06974e-17
6100.60918 1.04252e-17
6101.61108 1.04350e-17
6102.61298 1.05229e-17
6103.60486 1.03911e-17
6104.60676 1.07641e-17
6105.60866 1.07161e-17
6106.61056 1.08090e-17
6107.61246 1.10041e-17
6108.60434 1.04879e-17
6109.60624 1.00978e-17
6110.60814 1.04867e-17
6111.61004 1.10406e-17
6112.61194 1.06945e-17
6113.61384 1.01513e-17
6114.60572 1.02742e-17
6115.60762 1.04055e-17
6116.60952 1.00751e-17
6117.61142 1.02534e-17
6118.61332 1.04229e-17
6119.60520 1.02911e-17
6120.60710 1.01372e-17
6121.60900 1.02214e-17
6122.61090 1.03650e-17
6123.61280 1.02177e-17
6124.60468 1.02584e-17
6125.60658 1.02021e-17
6126.60848 1.01597e-17
6127.61038 1.05563e-17
6128.61228 1.06473e-17
6129.60416 9.76440e-18
6130.60606 1.02435e-17
6131.60796 1.03780e-17
6132.60986 1.05705e-17
6133.61176 1.02975e-17
6134.61366 9.63885e-18
6135.60554 9.69561e-18
6136.60744 9.27839e-18
6137.60934 9.99603e-18
6138.61124 1.04248e-17
6139.61314 1.02980e-17
6140.60502 9.99767e-18
6141.60692 9.70953e-18
6142.60882 1.00433e-17
6143.61072 1.07576e-17
6144.61262 1.01941e-17
6145.60451 9.88144e-18
6146.60640 1.00025e-17
6147.60830 1.02092e-17
6148.61020 1.05118e-17
6149.61211 9.89802e-18
6150.61400 9.21080e-18
6151.60589 9.18623e-18
6152.60779 9.06732e-18
6153.60969 9.54010e-18
6154.61159 1.01649e-17
6155.61349 9.38431e-18
6156.60537 9.41871e-18
6157.60727 1.00440e-17
6158.60917 9.69756e-18
6159.61107 9.30723e-18
6160.61297 9.25045e-18
6161.60485 9.15305e-18
6162.60675 9.58409e-18
6163.60865 9.49934e-18
6164.61055 9.57327e-18
6165.61245 9.37984e-18
6166.61435 8.93861e-18
6167.60623 8.99098e-18
6168.60813 9.44018e-18
6169.61003 9.36085e-18
6170.61193 9.09144e-18
6171.61383 8.90712e-18
6172.60571 9.34767e-18
6173.60761 9.60663e-18
6174.60951 9.17033e-18
6175.61141 8.96322e-18
6176.61331 8.69921e-18
6177.60519 8.79944e-18
6178.60709 9.19463e-18
6179.60899 9.06604e-18
6180.61089 8.64859e-18
6181.61279 8.69172e-18
6182.60467 8.91084e-18
6183.60657 9.28677e-18
6184.60847 9.02357e-18
6185.61037 8.31262e-18
6186.61227 8.28275e-18
6187.61417 8.62850e-18
6188.60605 8.28924e-18
6189.60795 8.25254e-18
6190.60985 8.42875e-18
6191.61175 8.52089e-18
6192.61365 8.41745e-18
6193.60553 8.12735e-18
6194.60743 8.02056e-18
6195.60933 8.47531e-18
6196.61123 8.74369e-18
6197.61313 8.49471e-18
6198.60502 7.98516e-18
6199.60692 8.17557e-18
6200.60882 8.43944e-18
6201.61072 7.87801e-18
6202.61262 7.91211e-18
6203.60450 7.94696e-18
6204.60640 8.06849e-18
6205.60830 7.97794e-18
6206.61020 8.06646e-18
6207.61210 8.26174e-18
6208.60398 7.85689e-18
6209.60588 7.96269e-18
6210.60778 8.20387e-18
6211.60968 8.01734e-18
6212.61158 7.70860e-18
6213.61348 7.63778e-18
6214.60536 7.60690e-18
6215.60726 7.44739e-18
6216.60916 7.47768e-18
6217.61106 7.84182e-18
6218.61296 7.92566e-18
6219.60484 7.50115e-18
6220.60674 7.47821e-18
6221.60864 7.97791e-18
6222.61054 7.52247e-18
6223.61244 7.73742e-18
6224.60432 7.08234e-18
6225.60622 6.58296e-18
6226.60812 7.31666e-18
6227.61002 8.05767e-18
6228.61192 7.76892e-18
6229.61382 6.98159e-18
6230.60570 7.14316e-18
6231.60760 7.16514e-18
6232.60950 7.31144e-18
6233.61140 7.73629e-18
6234.61330 7.27453e-18
6235.60518 6.63485e-18
6236.60708 7.23801e-18
6237.60898 7.14801e-18
6238.61088 7.10141e-18
6239.61278 7.51347e-18
6240.60466 7.40336e-18
6241.60656 6.98952e-18
6242.60846 6.95212e-18
6243.61036 7.05740e-18
6244.61226 7.17155e-18
6245.61416 7.13157e-18
6246.60604 6.87388e-18
6247.60794 6.74597e-18
6248.60984 7.02236e-18
6249.61174 7.14083e-18
6250.61364 7.37451e-18
6251.60552 7.58774e-18
6252.60743 7.30511e-18
6253.60933 6.73360e-18
6254.61122 6.73171e-18
6255.61312 7.22779e-18
6256.60501 6.72702e-18
6257.60691 6.31015e-18
6258.60881 6.70274e-18
6259.61071 7.10708e-18
6260.61261 7.16346e-18
6261.60449 7.42041e-18
6262.60639 7.19869e-18
6263.60829 7.17905e-18
6264.61019 7.02098e-18
6265.61209 6.82707e-18
6266.61399 6.92761e-18
6267.60587 6.89244e-18
6268.60777 6.47608e-18
6269.60967 6.23158e-18
6270.61157 6.62934e-18
6271.61347 6.76630e-18
6272.60535 6.43441e-18
6273.60725 6.55756e-18
6274.60915 7.04205e-18
6275.61105 6.88795e-18
6276.61295 6.65355e-18
6277.60483 6.88767e-18
6278.60673 6.73153e-18
6279.60863 6.61190e-18
6280.61053 7.19673e-18
6281.61243 6.86573e-18
6282.60431 6.69453e-18
6283.60621 6.82354e-18
6284.60811 6.59883e-18
6285.61001 6.42628e-18
6286.61191 6.80917e-18
6287.61381 6.78340e-18
6288.60569 6.37191e-18
6289.60759 6.00208e-18
6290.60949 6.07535e-18
6291.61139 6.50662e-18
6292.61329 6.89993e-18
6293.60517 6.84564e-18
6294.60707 6.46197e-18
6295.60897 6.42349e-18
6296.61087 6.20386e-18
6297.61277 6.50482e-18
6298.60465 6.81452e-18
6299.60655 6.54609e-18
6300.60845 6.62223e-18
6301.61035 6.65928e-18
6302.61225 6.70677e-18
6303.60413 6.82968e-18
6304.60603 6.90873e-18
6305.60793 7.14696e-18
6306.60983 7.59968e-18
6307.61173 7.80037e-18
6308.61363 7.68336e-18
6309.60552 7.33798e-18
6310.60742 6.98894e-18
6311.60932 7.29590e-18
6312.61122 7.82570e-18
6313.61312 7.52012e-18
6314.60500 7.32967e-18
6315.60690 7.13498e-18
6316.60880 7.05776e-18
6317.61070 7.39305e-18
6318.61260 7.87471e-18
6319.60448 7.89514e-18
6320.60638 7.39345e-18
6321.60828 6.96275e-18
6322.61018 7.21383e-18
6323.61208 7.75391e-18
6324.61398 7.74503e-18
6325.60586 7.50882e-18
6326.60776 7.69066e-18
6327.60966 7.38281e-18
6328.61156 7.40681e-18
6329.61346 7.49532e-18
6330.60534 7.56485e-18
6331.60724 7.80730e-18
6332.60914 8.00144e-18
6333.61104 7.92013e-18
6334.61294 8.02746e-18
6335.60482 8.16222e-18
6336.60672 8.18947e-18
6337.60862 8.43943e-18
6338.61052 8.74459e-18
6339.61242 8.61430e-18
6340.60430 8.63831e-18
6341.60620 8.71810e-18
6342.60810 8.85324e-18
6343.61000 9.06725e-18
6344.61190 9.13318e-18
6345.61380 8.98744e-18
6346.60568 9.03406e-18
6347.60758 9.35731e-18
6348.60948 9.26230e-18
6349.61138 9.17003e-18
6350.61328 9.06706e-18
6351.60516 9.59965e-18
6352.60706 1.07524e-17
6353.60896 9.53860e-18
6354.61086 8.47198e-18
6355.61276 8.54371e-18
6356.60465 8.98462e-18
6357.60655 9.31156e-18
6358.60844 9.67157e-18
6359.61035 1.00240e-17
6360.61225 1.01430e-17
6361.60413 9.77572e-18
6362.60603 9.44574e-18
6363.60793 9.69754e-18
6364.60983 1.02579e-17
6365.61173 1.03409e-17
6366.61363 9.92101e-18
6367.60551 1.01299e-17
6368.60741 1.02096e-17
6369.60931 1.00784e-17
6370.61121 1.01681e-17
6371.61311 1.04036e-17
6372.60499 1.05663e-17
6373.60689 1.04845e-17
6374.60879 1.04279e-17
6375.61069 1.06527e-17
6376.61259 1.09037e-17
6377.60447 1.08768e-17
6378.60637 1.07835e-17
6379.60827 1.08694e-17
6380.61017 1.07229e-17
6381.61207 1.06039e-17
6382.61397 1.08266e-17
6383.60585 1.10469e-17
6384.60775 1.10150e-17
6385.60965 1.10897e-17
6386.61155 1.10848e-17
6387.61345 1.10697e-17
6388.60533 1.12328e-17
6389.60723 1.06538e-17
6390.60913 1.02313e-17
6391.61103 1.13587e-17
6392.61293 1.12727e-17
6393.60481 1.13875e-17
6394.60671 1.11229e-17
6395.60861 1.08265e-17
6396.61051 1.10089e-17
6397.61241 1.12067e-17
6398.61431 1.11863e-17
6399.60619 1.08296e-17
6400.60809 1.10545e-17
6401.60999 1.14254e-17
6402.61189 1.14142e-17
6403.61379 1.12879e-17
6404.60567 1.12656e-17
6405.60757 1.11341e-17
6406.60947 1.11710e-17
6407.61137 1.13164e-17
6408.61327 1.11836e-17
6409.60516 1.08934e-17
6410.60705 1.09190e-17
6411.60895 1.11326e-17
6412.61085 1.10512e-17
6413.61276 1.07693e-17
6414.60464 1.10569e-17
6415.60654 1.16729e-17
6416.60844 1.16915e-17
6417.61034 1.11401e-17
6418.61224 1.08944e-17
6419.61414 1.10168e-17
6420.60602 1.12229e-17
6421.60792 1.11439e-17
6422.60982 1.10182e-17
6423.61172 1.11758e-17
6424.61362 1.12120e-17
6425.60550 1.13326e-17
6426.60740 1.12912e-17
6427.60930 1.12254e-17
6428.61120 1.09330e-17
6429.61310 1.06857e-17
6430.60498 1.12502e-17
6431.60688 1.15474e-17
6432.60878 1.08479e-17
6433.61068 1.03636e-17
6434.61258 1.04371e-17
6435.60446 1.00617e-17
6436.60636 9.48385e-18
6437.60826 1.03375e-17
6438.61016 1.12349e-17
6439.61206 1.15262e-17
6440.61396 1.10869e-17
6441.60584 1.05192e-17
6442.60774 1.05695e-17
6443.60964 1.10697e-17
6444.61154 1.13627e-17
6445.61344 1.08787e-17
6446.60532 1.07061e-17
6447.60722 1.09640e-17
6448.60912 1.09226e-17
6449.61102 1.08402e-17
6450.61292 1.11935e-17
6451.60480 1.08086e-17
6452.60670 1.07544e-17
6453.60860 1.11058e-17
6454.61050 1.10884e-17
6455.61240 1.08091e-17
6456.60428 1.08315e-17
6457.60618 1.08729e-17
6458.60808 1.07470e-17
6459.60998 1.05605e-17
6460.61188 1.04257e-17
6461.61378 1.03041e-17
6462.60567 1.01850e-17
6463.60757 1.02449e-17
6464.60947 1.04328e-17
6465.61137 1.03852e-17
6466.61327 1.03257e-17
6467.60515 1.02664e-17
6468.60705 9.97661e-18
6469.60895 9.93148e-18
6470.61085 1.05044e-17
6471.61275 1.03475e-17
6472.60463 1.00106e-17
6473.60653 1.01510e-17
6474.60843 1.01129e-17
6475.61033 9.76354e-18
6476.61223 1.01757e-17
6477.61413 9.69463e-18
6478.60601 9.66435e-18
6479.60791 9.93795e-18
6480.60981 9.60933e-18
6481.61171 9.47162e-18
6482.61361 9.91521e-18
6483.60549 9.70148e-18
6484.60739 9.89167e-18
6485.60929 9.89021e-18
6486.61119 9.82472e-18
6487.61309 1.00671e-17
6488.60497 9.57062e-18
6489.60687 9.47337e-18
6490.60877 9.74449e-18
6491.61067 9.60788e-18
6492.61257 9.72952e-18
6493.60445 9.93094e-18
6494.60635 9.46799e-18
6495.60825 9.83570e-18
6496.61015 8.85303e-18
6497.61205 8.72375e-18
6498.61395 9.20310e-18
6499.60583 9.14246e-18
6500.60773 9.24727e-18
6501.60963 9.68201e-18
6502.61153 9.41937e-18
6503.61343 9.14741e-18
6504.60531 9.18887e-18
6505.60721 9.22123e-18
6506.60911 9.27849e-18
6507.61101 9.47115e-18
6508.61291 9.15836e-18
6509.60479 9.44206e-18
6510.60669 9.77178e-18
6511.60859 9.17185e-18
6512.61049 8.49573e-18
6513.61239 8.84864e-18
6514.60427 9.12595e-18
6515.60617 8.94101e-18
6516.60808 8.28367e-18
6517.60998 8.03708e-18
6518.61188 8.57637e-18
6519.61377 8.99718e-18
6520.60566 8.77546e-18
6521.60756 8.98068e-18
6522.60946 8.37021e-18
6523.61136 8.54826e-18
6524.61326 9.16911e-18
6525.60514 9.01627e-18
6526.60704 8.79213e-18
6527.60894 8.51778e-18
6528.61084 8.81011e-18
6529.61274 8.58030e-18
6530.60462 8.30581e-18
6531.60652 8.66868e-18
6532.60842 8.99638e-18
6533.61032 8.94576e-18
6534.61222 9.13490e-18
6535.60410 8.83993e-18
6536.60600 8.63902e-18
6537.60790 8.88138e-18
6538.60980 9.07993e-18
6539.61170 9.09385e-18
6540.61360 9.08543e-18
6541.60548 9.48875e-18
6542.60738 9.56439e-18
6543.60928 9.19673e-18
6544.61118 9.17395e-18
6545.61308 9.21148e-18
6546.60496 9.24898e-18
6547.60686 9.28649e-18
6548.60876 9.32399e-18
6549.61066 9.36150e-18
6550.61256 9.39901e-18
6551.60444 9.43651e-18
6552.60634 9.47401e-18
6553.60824 9.51154e-18
6554.61014 9.54904e-18
6555.61204 9.58654e-18
6556.61394 9.62404e-18
6557.60582 9.66154e-18
6558.60772 9.69904e-18
6559.60962 9.73654e-18
6560.61152 9.77404e-18
6561.61342 9.81154e-18
6562.60530 9.84905e-18
6563.60720 9.88655e-18
6564.60910 9.92405e-18
6565.61100 9.96154e-18
6566.61290 9.99904e-18
6567.60478 1.00365e-17
6568.60668 1.00740e-17
6569.60858 1.01115e-17
6570.61049 1.01490e-17
6571.61238 1.01865e-17
6572.61428 1.02240e-17
6573.60617 1.02615e-17
6574.60807 1.02990e-17
6575.60997 1.03365e-17
6576.61187 1.03740e-17
6577.61377 1.04115e-17
6578.60565 1.04490e-17
6579.60755 1.04865e-17
6580.60945 1.05239e-17
6581.61135 1.05614e-17
6582.61325 1.05989e-17
6583.60513 1.06364e-17
6584.60703 1.06739e-17
6585.60893 1.07114e-17
6586.61083 1.07488e-17
6587.61273 1.07863e-17
6588.60461 1.08238e-17
6589.60651 1.08613e-17
6590.60841 1.08988e-17
6591.61031 1.09363e-17
6592.61221 1.09737e-17
6593.60409 1.10112e-17
6594.60599 1.10487e-17
6595.60789 1.10862e-17
6596.60979 1.11237e-17
6597.61169 1.11612e-17
6598.61359 1.11986e-17
6599.60547 1.12361e-17
6600.60737 1.12736e-17
6601.60927 1.13111e-17
6602.61117 1.13485e-17
6603.61307 1.13860e-17
6604.60495 1.14235e-17
6605.60685 1.14610e-17
6606.60875 1.16663e-17
6607.61065 1.15049e-17
6608.61255 1.08591e-17
6609.60443 1.09694e-17
6610.60633 1.17354e-17
6611.60823 1.17760e-17
6612.61013 1.16838e-17
6613.61203 1.15437e-17
6614.61393 1.11047e-17
6615.60581 1.11986e-17
6616.60771 1.16277e-17
6617.60961 1.14822e-17
6618.61151 1.15235e-17
6619.61341 1.14694e-17
6620.60530 1.11448e-17
6621.60720 1.12587e-17
6622.60910 1.12992e-17
6623.61100 1.14733e-17
6624.61290 1.13711e-17
6625.60478 1.13563e-17
6626.60668 1.13085e-17
6627.60858 1.10074e-17
6628.61048 1.12616e-17
6629.61238 1.13052e-17
6630.60426 1.14688e-17
6631.60616 1.16819e-17
6632.60806 1.18713e-17
6633.60996 1.20332e-17
6634.61186 1.20427e-17
6635.61376 1.22461e-17
6636.60564 1.20814e-17
6637.60754 1.19148e-17
6638.60944 1.20107e-17
6639.61134 1.19904e-17
6640.61324 1.18087e-17
6641.60512 1.21105e-17
6642.60702 1.22096e-17
6643.60892 1.23017e-17
6644.61082 1.23159e-17
6645.61272 1.23166e-17
6646.60460 1.24191e-17
6647.60650 1.21325e-17
6648.60840 1.22629e-17
6649.61030 1.22227e-17
6650.61220 1.20953e-17
6651.61410 1.19159e-17
6652.60598 1.15671e-17
6653.60788 1.14262e-17
6654.60978 1.13076e-17
6655.61168 1.17730e-17
6656.61358 1.21236e-17
6657.60546 1.20892e-17
6658.60736 1.20456e-17
6659.60926 1.18894e-17
6660.61116 1.16441e-17
6661.61306 1.19637e-17
6662.60494 1.21178e-17
6663.60684 1.20049e-17
6664.60874 1.17263e-17
6665.61064 1.13729e-17
6666.61254 1.18503e-17
6667.60442 1.18210e-17
6668.60632 1.19831e-17
6669.60822 1.22662e-17
6670.61012 1.22934e-17
6671.61202 1.22964e-17
6672.61392 1.21458e-17
6673.60581 1.17833e-17
6674.60771 1.20836e-17
6675.60960 1.21604e-17
6676.61150 1.19194e-17
6677.61341 1.19260e-17
6678.60529 1.16820e-17
6679.60719 1.17880e-17
6680.60909 1.17942e-17
6681.61099 1.14206e-17
6682.61289 1.14695e-17
6683.60477 1.21191e-17
6684.60667 1.21515e-17
6685.60857 1.14959e-17
6686.61047 1.14922e-17
6687.61237 1.16597e-17
6688.60425 1.14798e-17
6689.60615 1.13759e-17
6690.60805 1.16496e-17
6691.60995 1.18686e-17
6692.61185 1.19014e-17
6693.61375 1.16774e-17
6694.60563 1.13159e-17
6695.60753 1.12312e-17
6696.60943 1.14847e-17
6697.61133 1.15633e-17
6698.61323 1.16368e-17
6699.60511 1.13663e-17
6700.60701 1.12751e-17
6701.60891 1.14227e-17
6702.61081 1.13464e-17
6703.61271 1.12671e-17
6704.60459 1.13825e-17
6705.60649 1.15699e-17
6706.60839 1.13119e-17
6707.61029 1.08877e-17
6708.61219 1.08916e-17
6709.61409 1.12056e-17
6710.60597 1.14718e-17
6711.60787 1.14146e-17
6712.60977 1.10611e-17
6713.61167 1.10611e-17
6714.61357 1.13380e-17
6715.60545 1.11213e-17
6716.60735 1.08046e-17
6717.60925 1.09935e-17
6718.61115 1.11893e-17
6719.61305 1.11042e-17
6720.60493 1.10602e-17
6721.60683 1.12777e-17
6722.60873 1.13670e-17
6723.61063 1.09385e-17
6724.61253 1.08698e-17
6725.60442 1.10123e-17
6726.60632 1.07086e-17
6727.60822 1.02480e-17
6728.61012 1.02609e-17
6729.61202 1.00645e-17
6730.61392 9.88521e-18
6731.60580 1.01926e-17
6732.60770 1.02942e-17
6733.60960 9.88178e-18
6734.61150 1.00828e-17
6735.61340 1.08617e-17
6736.60528 1.13669e-17
6737.60718 1.09738e-17
6738.60908 1.03704e-17
6739.61098 1.03485e-17
6740.61288 1.05480e-17
6741.60476 1.05022e-17
6742.60666 1.07053e-17
6743.60856 1.06593e-17
6744.61046 1.05401e-17
6745.61236 1.04959e-17
6746.60424 1.00799e-17
6747.60614 9.72941e-18
6748.60804 1.00510e-17
6749.60994 1.08298e-17
6750.61184 1.07270e-17
6751.61374 1.00825e-17
6752.60562 1.02548e-17
6753.60752 1.04792e-17
6754.60942 1.01551e-17
6755.61132 1.02433e-17
6756.61322 1.02435e-17
6757.60510 1.02475e-17
6758.60700 1.05111e-17
6759.60890 1.01624e-17
6760.61080 1.06027e-17
6761.61270 1.04868e-17
6762.60458 1.04478e-17
6763.60648 1.05233e-17
6764.60838 1.02795e-17
6765.61028 1.04465e-17
6766.61218 1.03152e-17
6767.60406 1.02544e-17
6768.60596 9.95007e-18
6769.60786 9.67954e-18
6770.60976 9.83057e-18
6771.61166 9.98299e-18
6772.61356 1.00684e-17
6773.60544 1.00945e-17
6774.60734 1.02512e-17
6775.60924 1.01300e-17
6776.61114 9.58166e-18
6777.61304 9.28205e-18
6778.60492 9.64568e-18
6779.60682 1.03282e-17
6780.60873 1.00963e-17
6781.61063 9.69323e-18
6782.61253 9.67392e-18
6783.60441 9.57189e-18
6784.60631 9.89004e-18
6785.60821 9.89280e-18
6786.61011 9.89699e-18
6787.61201 9.87646e-18
6788.61391 9.73120e-18
6789.60579 9.57032e-18
6790.60769 9.36184e-18
6791.60959 9.53540e-18
6792.61149 1.03108e-17
6793.61339 9.96841e-18
6794.60527 9.42325e-18
6795.60717 9.99246e-18
6796.60907 9.80021e-18
6797.61097 9.78583e-18
6798.61287 9.82522e-18
6799.60475 1.00995e-17
6800.60665 1.01408e-17
6801.60855 9.64759e-18
6802.61045 9.44804e-18
6803.61235 9.53109e-18
6804.61425 9.35221e-18
6805.60613 9.33653e-18
6806.60803 9.41807e-18
6807.60993 9.23688e-18
6808.61183 9.15025e-18
6809.61373 9.45531e-18
6810.60561 9.80558e-18
6811.60751 9.70740e-18
6812.60941 9.22724e-18
6813.61131 8.92301e-18
6814.61321 8.96346e-18
6815.60509 8.92691e-18
6816.60699 9.46146e-18
6817.60889 9.16033e-18
6818.61079 8.81698e-18
6819.61269 9.17071e-18
6820.60457 9.28065e-18
6821.60647 9.28712e-18
6822.60837 8.71141e-18
6823.61027 8.94071e-18
6824.61217 9.56101e-18
6825.61407 9.49205e-18
6826.60595 9.20341e-18
6827.60785 9.36536e-18
6828.60975 8.96163e-18
6829.61165 8.78948e-18
6830.61355 9.07265e-18
6831.60543 9.41364e-18
6832.60733 9.41098e-18
6833.60923 8.96903e-18
6834.61114 9.06208e-18
6835.61303 9.00120e-18
6836.60492 8.72709e-18
6837.60682 8.79246e-18
6838.60872 9.05366e-18
6839.61062 8.92242e-18
6840.61252 8.92050e-18
6841.60440 8.94457e-18
6842.60630 9.15207e-18
6843.60820 8.95353e-18
6844.61010 8.42922e-18
6845.61200 8.71105e-18
6846.61390 8.64735e-18
6847.60578 8.45188e-18
6848.60768 8.28600e-18
6849.60958 8.38730e-18
6850.61148 8.69742e-18
6851.61338 8.75246e-18
6852.60526 8.76833e-18
6853.60716 8.97240e-18
6854.60906 9.08759e-18
6855.61096 8.87962e-18
6856.61286 8.48192e-18
6857.60474 8.36656e-18
6858.60664 8.92483e-18
6859.60854 9.09456e-18
6860.61044 8.66923e-18
6861.61234 8.61169e-18
6862.60422 8.69166e-18
6863.60612 8.16818e-18
6864.60802 8.35846e-18
6865.60992 8.50983e-18
6866.61182 8.01659e-18
6867.61372 7.98281e-18
6868.60560 8.52894e-18
6869.60750 8.34411e-18
6870.60940 8.33251e-18
6871.61130 8.25685e-18
6872.61320 8.61057e-18
6873.60508 8.71495e-18
6874.60698 8.41887e-18
6875.60888 8.35313e-18
6876.61078 8.11704e-18
6877.61268 8.26767e-18
6878.60456 8.40627e-18
6879.60646 8.69913e-18
6880.60836 8.74546e-18
6881.61026 8.51493e-18
6882.61216 8.67203e-18
6883.61406 7.97055e-18
6884.60595 7.87781e-18
6885.60785 8.08963e-18
6886.60975 8.06947e-18
6887.61164 8.13881e-18
6888.61355 8.12714e-18
6889.60543 8.58003e-18
6890.60733 8.48267e-18
6891.60923 8.33431e-18
6892.61113 8.54417e-18
6893.61303 8.36689e-18
6894.60491 8.12104e-18
6895.60681 8.28612e-18
6896.60871 8.30685e-18
6897.61061 8.13603e-18
6898.61251 8.09558e-18
6899.60439 8.19195e-18
6900.60629 8.24642e-18
6901.60819 8.46544e-18
6902.61009 8.00229e-18
6903.61199 7.83917e-18
6904.61389 7.97113e-18
6905.60577 7.87988e-18
6906.60767 8.19678e-18
6907.60957 7.98012e-18
6908.61147 8.20900e-18
6909.61337 8.41796e-18
6910.60525 8.31166e-18
6911.60715 8.20249e-18
6912.60905 8.48555e-18
6913.61095 9.23014e-18
6914.61285 9.03032e-18
6915.60473 8.38847e-18
6916.60663 8.12054e-18
6917.60853 8.22484e-18
6918.61043 8.53384e-18
6919.61233 8.45035e-18
6920.60421 8.76633e-18
6921.60611 8.88011e-18
6922.60801 8.98093e-18
6923.60991 9.31401e-18
6924.61181 9.10396e-18
6925.61371 8.88478e-18
6926.60559 8.93920e-18
6927.60749 8.74311e-18
6928.60939 8.66750e-18
6929.61129 8.80529e-18
6930.61319 8.50133e-18
6931.60507 8.63772e-18
6932.60697 9.03894e-18
6933.60887 9.20985e-18
6934.61077 9.36642e-18
6935.61267 9.49365e-18
6936.60455 9.18749e-18
6937.60646 8.96658e-18
6938.60836 8.92040e-18
6939.61025 8.97497e-18
6940.61215 9.04307e-18
6941.61406 9.14994e-18
6942.60594 9.07770e-18
6943.60784 8.47751e-18
6944.60974 8.61688e-18
6945.61164 9.25524e-18
6946.61354 9.56449e-18
6947.60542 9.44817e-18
6948.60732 9.42916e-18
6949.60922 9.67496e-18
6950.61112 9.27950e-18
6951.61302 9.34883e-18
6952.60490 9.58509e-18
6953.60680 9.42794e-18
6954.60870 9.50438e-18
6955.61060 9.57815e-18
6956.61250 9.50809e-18
6957.60438 9.37172e-18
6958.60628 9.59164e-18
6959.60818 9.94066e-18
6960.61008 9.88092e-18
6961.61198 9.93223e-18
6962.61388 9.86253e-18
6963.60576 9.83365e-18
6964.60766 9.57391e-18
6965.60956 9.39128e-18
6966.61146 9.96504e-18
6967.61336 1.02738e-17
6968.60524 9.21300e-18
6969.60714 9.58254e-18
6970.60904 1.02175e-17
6971.61094 9.94604e-18
6972.61284 1.02045e-17
6973.60472 9.90657e-18
6974.60662 9.60259e-18
6975.60852 9.84876e-18
6976.61042 1.00989e-17
6977.61232 1.01610e-17
6978.61422 1.02855e-17
6979.60610 9.90968e-18
6980.60800 9.72807e-18
6981.60990 9.62405e-18
6982.61180 9.82566e-18
6983.61370 1.01600e-17
6984.60558 9.90574e-18
6985.60748 9.40193e-18
6986.60938 9.39673e-18
6987.61128 9.85856e-18
6988.61318 1.01262e-17
6989.60507 1.01331e-17
6990.60697 1.01281e-17
6991.60887 9.75387e-18
6992.61077 9.95355e-18
6993.61267 1.00685e-17
6994.60455 9.92075e-18
6995.60645 9.90249e-18
6996.60835 9.95635e-18
6997.61025 9.78522e-18
6998.61215 9.48447e-18
6999.60403 9.50524e-18
7000.60593 9.59300e-18
7001.60783 9.65479e-18
7002.60973 9.99472e-18
7003.61163 1.01804e-17
7004.61353 9.86011e-18
7005.60541 9.80948e-18
7006.60731 9.92233e-18
7007.60921 9.91440e-18
7008.61111 1.01082e-17
7009.61301 1.02713e-17
7010.60489 9.78818e-18
7011.60679 1.01063e-17
7012.60869 1.04139e-17
7013.61059 9.79544e-18
7014.61249 9.55294e-18
7015.60437 1.01704e-17
7016.60627 1.01523e-17
7017.60817 1.03236e-17
7018.61007 1.03143e-17
7019.61197 1.00085e-17
7020.61387 1.01934e-17
7021.60575 1.00694e-17
7022.60765 1.05865e-17
7023.60955 1.07478e-17
7024.61145 1.02549e-17
7025.61335 9.86993e-18
7026.60523 9.82072e-18
7027.60713 9.75650e-18
7028.60903 1.00889e-17
7029.61093 1.02236e-17
7030.61283 1.03760e-17
7031.60471 1.07806e-17
7032.60661 1.08019e-17
7033.60851 1.04066e-17
7034.61041 1.03283e-17
7035.61231 1.05991e-17
7036.61421 1.03991e-17
7037.60609 1.00727e-17
7038.60799 1.05708e-17
7039.60989 1.07912e-17
7040.61179 1.07813e-17
7041.61369 1.02299e-17
7042.60558 1.01992e-17
7043.60747 1.05733e-17
7044.60938 1.01351e-17
7045.61128 1.04705e-17
7046.61318 1.04761e-17
7047.60506 1.03164e-17
7048.60696 1.03206e-17
7049.60886 1.03399e-17
7050.61076 1.03600e-17
7051.61266 1.03966e-17
7052.60454 1.02629e-17
7053.60644 1.04290e-17
7054.60834 1.06035e-17
7055.61024 1.05040e-17
7056.61214 1.03763e-17
7057.61404 9.70363e-18
7058.60592 9.57312e-18
7059.60782 1.00464e-17
7060.60972 1.00129e-17
7061.61162 9.60731e-18
7062.61352 9.92850e-18
7063.60540 9.87896e-18
7064.60730 9.66923e-18
7065.60920 9.89597e-18
7066.61110 1.01459e-17
7067.61300 1.00328e-17
7068.60488 1.00159e-17
7069.60678 9.89563e-18
7070.60868 9.87419e-18
7071.61058 9.97738e-18
7072.61248 1.00137e-17
7073.60436 9.96811e-18
7074.60626 1.00029e-17
7075.60816 1.00602e-17
7076.61006 1.09202e-17
7077.61196 1.08205e-17
7078.61386 1.00074e-17
7079.60574 9.78106e-18
7080.60764 9.51976e-18
7081.60954 1.00471e-17
7082.61144 9.58737e-18
7083.61334 9.11729e-18
7084.60522 9.41103e-18
7085.60712 9.69624e-18
7086.60902 9.77090e-18
7087.61092 9.58752e-18
7088.61282 9.41755e-18
7089.60470 9.30029e-18
7090.60660 9.42125e-18
7091.60850 9.69865e-18
7092.61040 9.61133e-18
7093.61230 9.66148e-18
7094.60419 9.52512e-18
7095.60608 9.43879e-18
7096.60798 9.40653e-18
7097.60988 9.17958e-18
7098.61179 9.12249e-18
7099.61368 9.25440e-18
7100.60557 9.59560e-18
7101.60747 9.48088e-18
7102.60937 9.21457e-18
7103.61127 9.21943e-18
7104.61317 8.64172e-18
7105.60505 8.99328e-18
7106.60695 9.40371e-18
7107.60885 9.38501e-18
7108.61075 9.26354e-18
7109.61265 9.18085e-18
7110.60453 9.15954e-18
7111.60643 9.21502e-18
7112.60833 9.21747e-18
7113.61023 9.08507e-18
7114.61213 8.91223e-18
7115.61403 8.85658e-18
7116.60591 8.99084e-18
7117.60781 9.18705e-18
7118.60971 9.37948e-18
7119.61161 9.23292e-18
7120.61351 8.91600e-18
7121.60539 8.89568e-18
7122.60729 8.78585e-18
7123.60919 8.82889e-18
7124.61109 8.87218e-18
7125.61299 8.93711e-18
7126.60487 9.06917e-18
7127.60677 9.10338e-18
7128.60867 9.16337e-18
7129.61057 9.03758e-18
7130.61247 9.01480e-18
7131.60435 8.96498e-18
7132.60625 8.77794e-18
7133.60815 8.79338e-18
7134.61005 8.73826e-18
7135.61195 8.60642e-18
7136.61385 8.40166e-18
7137.60573 8.36078e-18
7138.60763 8.53566e-18
7139.60953 8.62365e-18
7140.61143 8.76023e-18
7141.61333 8.86747e-18
7142.60521 8.85992e-18
7143.60711 9.32273e-18
7144.60901 1.01399e-17
7145.61091 9.89242e-18
7146.61281 8.84884e-18
7147.60469 8.71660e-18
7148.60660 8.88112e-18
7149.60850 8.74875e-18
7150.61040 8.60470e-18
7151.61229 8.34504e-18
7152.60418 8.94099e-18
7153.60608 8.88151e-18
7154.60798 8.67081e-18
7155.60988 8.84360e-18
7156.61178 8.74689e-18
7157.61368 8.67494e-18
7158.60556 8.68515e-18
7159.60746 8.89560e-18
7160.60936 8.83534e-18
7161.61126 8.46601e-18
7162.61316 8.37271e-18
7163.60504 8.47928e-18
7164.60694 8.37338e-18
7165.60884 8.57132e-18
7166.61074 8.78835e-18
7167.61264 8.46932e-18
7168.60452 8.04255e-18
7169.60642 8.16519e-18
7170.73906 8.16519e-18
7175.02695 8.02539e-18
7179.31483 8.00605e-18
7183.59253 8.09376e-18
7187.88042 8.11010e-18
7192.16830 7.97898e-18
7196.44600 7.89766e-18
7200.73389 7.93564e-18
7205.02177 8.04831e-18
7209.29947 8.06133e-18
7213.58736 8.02546e-18
7217.87525 8.02782e-18
7222.16313 7.94126e-18
7226.44083 7.85221e-18
7230.72872 7.82897e-18
7235.01660 7.82234e-18
7239.29430 7.91196e-18
7243.58219 7.99533e-18
7247.87007 7.92358e-18
7252.15795 7.82451e-18
7256.43566 7.74893e-18
7260.72354 7.69920e-18
7265.01142 7.73858e-18
7269.28912 7.74069e-18
7273.57701 7.59362e-18
7277.86489 7.52882e-18
7282.15278 7.56202e-18
7286.43048 7.56687e-18
7290.71836 7.53144e-18
7295.00625 7.48306e-18
7299.28395 7.52493e-18
7303.57183 7.61443e-18
7307.85972 7.53080e-18
7312.13742 7.38584e-18
7316.42530 7.39739e-18
7320.71319 7.55321e-18
7325.00107 7.62100e-18
7329.27877 7.55640e-18
7333.56666 7.54363e-18
7337.85454 7.59834e-18
7342.13224 7.67794e-18
7346.42013 7.75097e-18
7350.70801 7.77535e-18
7354.99590 7.73456e-18
7359.27360 7.70743e-18
7363.56149 7.70935e-18
7367.84937 7.70584e-18
7372.12707 7.71126e-18
7376.41496 7.67475e-18
7380.70284 7.66339e-18
7384.98054 7.72326e-18
7389.26843 7.79521e-18
7393.55631 7.80772e-18
7397.84419 7.72735e-18
7402.12190 7.72767e-18
7406.40978 7.73648e-18
7410.69766 7.64947e-18
7414.97536 7.60370e-18
7419.26325 7.61851e-18
7423.55113 7.61353e-18
7427.83902 7.55283e-18
7432.11672 7.48446e-18
7436.40460 7.39362e-18
7440.69249 7.32864e-18
7444.97019 7.31523e-18
7449.25807 7.36688e-18
7453.54596 7.45407e-18
7457.82366 7.53195e-18
7462.11154 7.49952e-18
7466.39943 7.33617e-18
7470.68731 7.22165e-18
7474.96501 7.19203e-18
7479.25290 7.17997e-18
7483.54078 7.23557e-18
7487.81848 7.15641e-18
7492.10637 7.03360e-18
7496.39425 7.07796e-18
7500.68214 7.15450e-18
7504.95984 7.18476e-18
7509.24773 7.18195e-18
7513.53561 7.20933e-18
7517.81331 7.20729e-18
7522.10120 7.18942e-18
7526.38908 7.22293e-18
7530.66678 7.21674e-18
7534.95467 7.17512e-18
7539.24255 7.17544e-18
7543.53043 7.15967e-18
7547.80813 7.14595e-18
7552.09602 7.11811e-18
7556.38390 7.09035e-18
7560.66160 7.06251e-18
7564.94949 7.03475e-18
7569.23737 7.00691e-18
7573.52526 6.97915e-18
7577.80296 6.95138e-18
7582.09084 6.92361e-18
7586.37873 6.89584e-18
7590.65643 6.86807e-18
7594.94431 6.84031e-18
7599.23220 6.81260e-18
7603.50990 6.78483e-18
7607.79778 6.75713e-18
7612.08567 6.72936e-18
7616.37355 6.70166e-18
7620.65125 6.67395e-18
7624.93914 6.64625e-18
7629.22702 6.61855e-18
7633.50472 6.59091e-18
7637.79261 6.56320e-18
7642.08050 6.53556e-18
7646.36838 6.50786e-18
7650.64608 6.48022e-18
7654.93397 6.45258e-18
7659.22185 6.42494e-18
7663.49955 6.39730e-18
7667.78744 6.36966e-18
7672.07532 6.34204e-18
7676.35302 6.31443e-18
7680.64091 6.28682e-18
7684.92879 6.12205e-18
7689.21667 6.13044e-18
7693.49437 6.19155e-18
7697.78226 6.23629e-18
7702.07014 6.30052e-18
7706.34784 6.25073e-18
7710.63573 6.17476e-18
7714.92361 6.21931e-18
7719.21150 6.28077e-18
7723.48920 6.31814e-18
7727.77708 6.25524e-18
7732.06497 6.13005e-18
7736.34267 6.10012e-18
7740.63055 6.01685e-18
7744.91844 5.83422e-18
7749.20632 5.73596e-18
7753.48402 5.78015e-18
7757.77191 5.90608e-18
7762.05979 6.00165e-18
7766.33749 5.98903e-18
7770.62538 5.97914e-18
7774.91326 5.91468e-18
7779.19096 5.84659e-18
7783.47885 5.88651e-18
7787.76674 5.89583e-18
7792.05462 5.88330e-18
7796.33232 5.95990e-18
7800.62021 6.01804e-18
7804.90809 6.03306e-18
7809.18579 6.15352e-18
7813.47368 6.30654e-18
7817.76156 6.35693e-18
7822.03926 6.33353e-18
7826.32715 6.30464e-18
7830.61503 6.37260e-18
7834.90291 6.52388e-18
7839.18061 6.61114e-18
7843.46850 6.54890e-18
7847.75638 6.43662e-18
7852.03408 6.42513e-18
7856.32197 6.58076e-18
7860.60985 6.60942e-18
7864.89774 6.50422e-18
7869.17544 6.45481e-18
7873.46332 6.47358e-18
7877.75121 6.53652e-18
7882.02891 6.52605e-18
7886.31679 6.48411e-18
7890.60468 6.53569e-18
7894.88238 6.59633e-18
7899.17026 6.62518e-18
7903.45815 6.60597e-18
7907.74603 6.47422e-18
7912.02373 6.30818e-18
7916.31162 6.33931e-18
7920.59950 6.40764e-18
7924.87720 6.40566e-18
7929.16509 6.49388e-18
7933.45298 6.49656e-18
7937.74086 6.44702e-18
7942.01856 6.48813e-18
7946.30645 6.48992e-18
7950.59433 6.53205e-18
7954.87203 6.58369e-18
7959.15992 6.47754e-18
7963.44780 6.40827e-18
7967.73568 6.46617e-18
7972.01338 6.48009e-18
7976.30127 6.55388e-18
7980.58915 6.59544e-18
7984.86685 6.46432e-18
7989.15474 6.44089e-18
7993.44262 6.46630e-18
7997.72032 6.39442e-18
8002.00821 6.40189e-18
8006.29609 6.41128e-18
8010.58398 6.25489e-18
8014.86168 6.24354e-18
8019.14956 6.25276e-18
8023.43745 6.23092e-18
8027.71515 6.26231e-18
8032.00303 6.22115e-18
8036.29092 6.15574e-18
8040.57880 6.05839e-18
8044.85650 6.01269e-18
8049.14439 5.99858e-18
8053.43227 6.04303e-18
8057.70997 6.21758e-18
8061.99786 6.21239e-18
8066.28575 6.06972e-18
8070.56344 6.15725e-18
8074.85133 6.29338e-18
8079.13922 6.22146e-18
8083.42710 6.03688e-18
8087.70480 6.01100e-18
8091.99269 5.96120e-18
8096.28057 5.86343e-18
8100.55827 5.89687e-18
8104.84616 5.89425e-18
8109.13404 5.89338e-18
8113.42192 5.90987e-18
8117.69962 5.88483e-18
8121.98751 5.82183e-18
8126.27539 5.78520e-18
8130.55309 5.73799e-18
8134.84098 5.68068e-18
8139.12886 5.78807e-18
8143.40656 5.86598e-18
8147.69445 5.76090e-18
8151.98233 5.74299e-18
8156.27022 5.84138e-18
8160.54792 5.86346e-18
8164.83580 5.83890e-18
8169.12369 5.76985e-18
8173.40139 5.68244e-18
8177.68927 5.59124e-18
8181.97716 5.57296e-18
8186.26504 5.74419e-18
8190.54274 5.87357e-18
8194.83063 5.87057e-18
8199.11852 5.77126e-18
8203.39622 5.69706e-18
8207.68410 5.72040e-18
8211.97199 5.70178e-18
8216.25987 5.67939e-18
8220.53757 5.67682e-18
8224.82546 5.60791e-18
8229.11334 5.56710e-18
8233.39104 5.60948e-18
8237.67893 5.59476e-18
8241.96681 5.62791e-18
8246.24451 5.70980e-18
8250.53240 5.67932e-18
8254.82028 5.61497e-18
8259.10816 5.55413e-18
8263.38587 5.53485e-18
8267.67375 5.58283e-18
8271.96163 5.56770e-18
8276.23934 5.49546e-18
8280.52722 5.44572e-18
8284.81510 5.36568e-18
8289.10299 5.29616e-18
8293.38069 5.37317e-18
8297.66857 5.49443e-18
8301.95646 5.42688e-18
8306.23416 5.36564e-18
8310.52204 5.41511e-18
8314.80993 5.39495e-18
8319.08763 5.29901e-18
8323.37551 5.23398e-18
8327.66340 5.24991e-18
8331.94110 5.28395e-18
8336.22898 5.26981e-18
8340.51687 5.30412e-18
8344.80475 5.20420e-18
8349.08245 4.92868e-18
8353.37034 4.95900e-18
8357.65822 5.07013e-18
8361.93592 4.94439e-18
8366.22381 4.80206e-18
8370.51169 4.73768e-18
8374.79958 4.69996e-18
8379.07728 4.72162e-18
8383.36516 4.67900e-18
8387.65305 4.52359e-18
8391.93075 4.42985e-18
8396.21863 4.33455e-18
8400.50652 4.21234e-18
8404.79440 4.05481e-18
8409.07210 3.97978e-18
8413.35999 3.93642e-18
8417.64788 3.83666e-18
8421.92558 3.77986e-18
8426.21346 3.76626e-18
8430.50135 3.83178e-18
8434.78923 3.84870e-18
8439.06693 3.75857e-18
8443.35481 3.77200e-18
8447.64270 3.87112e-18
8451.92040 3.91784e-18
8456.20829 3.85938e-18
8460.49617 3.79070e-18
8464.77387 3.65741e-18
8469.06175 3.64685e-18
8473.34964 3.74966e-18
8477.63753 3.73589e-18
8481.91523 3.72030e-18
8486.20311 3.72691e-18
8490.49100 3.74799e-18
8494.76869 3.77477e-18
8499.05658 3.85679e-18
8503.34446 3.98724e-18
8507.63235 3.97627e-18
8511.91005 3.87351e-18
8516.19794 3.89694e-18
8520.48582 3.86959e-18
8524.76352 3.82810e-18
8529.05140 3.86249e-18
8533.33929 3.93805e-18
8537.61699 3.93695e-18
8541.90488 3.83618e-18
8546.19276 3.84594e-18
8550.48064 3.94398e-18
8554.75835 4.05472e-18
8559.04623 4.10035e-18
8563.33411 4.00408e-18
8567.61182 3.92757e-18
8571.89970 3.95112e-18
8576.18758 4.04637e-18
8580.47547 4.14540e-18
8584.75317 4.12554e-18
8589.04105 4.07488e-18
8593.32894 4.09221e-18
8597.60664 4.13998e-18
8601.89452 4.20672e-18
8606.18241 4.25082e-18
8610.46011 4.28374e-18
8614.74799 4.25662e-18
8619.03588 4.13783e-18
8623.32377 4.11944e-18
8627.60146 4.19821e-18
8631.88935 4.33041e-18
8636.17723 4.43577e-18
8640.45493 4.31468e-18
8644.74282 4.29061e-18
8649.03070 4.49649e-18
8653.31859 4.51097e-18
8657.59629 4.46045e-18
8661.88417 4.58357e-18
8666.17206 4.63687e-18
8670.44976 4.54091e-18
8674.73764 4.58467e-18
8679.02553 4.81914e-18
8683.30323 4.94803e-18
8687.59112 5.13161e-18
8691.87900 5.24481e-18
8696.16688 5.13062e-18
8700.44458 5.22922e-18
8704.73247 5.28728e-18
8709.02035 5.19638e-18
8713.29806 5.22523e-18
8717.58594 5.39674e-18
8721.87383 5.49513e-18
8726.16171 5.50938e-18
8730.43941 5.45546e-18
8734.72729 5.61140e-18
8739.01518 5.83641e-18
8743.29288 5.77461e-18
8747.58077 5.65508e-18
8751.86865 5.70838e-18
8756.15654 5.84914e-18
8760.43423 5.80663e-18
8764.72212 5.77501e-18
8769.01001 5.73882e-18
8773.28771 5.70011e-18
8777.57559 5.75160e-18
8781.86348 5.68813e-18
8786.14117 5.62851e-18
8790.42906 5.72558e-18
8794.71694 5.80372e-18
8798.99464 5.76733e-18
8803.28253 5.74481e-18
8807.57042 5.76901e-18
8811.85830 5.72821e-18
8816.13600 5.69065e-18
8820.42388 5.66239e-18
8824.71177 5.59693e-18
8828.98947 5.66188e-18
8833.27736 5.72034e-18
8837.56524 5.62461e-18
8841.85312 5.60812e-18
8846.13083 5.62579e-18
8850.41871 5.47714e-18
8854.70659 5.32721e-18
8858.98430 5.41518e-18
8863.27218 5.50207e-18
8867.56006 5.48789e-18
8871.84795 5.49260e-18
8876.12565 5.32901e-18
8880.41353 5.22163e-18
8884.70142 5.22482e-18
8888.97912 5.19889e-18
8893.26700 5.50020e-18
8897.55489 5.84850e-18
8901.84277 5.78978e-18
8906.12047 5.49477e-18
8910.40836 5.42951e-18
8914.69625 5.51837e-18
8918.97394 5.58318e-18
8923.26183 5.44122e-18
8927.54971 5.18621e-18
8931.82741 5.21510e-18
8936.11530 5.35131e-18
8940.40318 5.26518e-18
8944.69107 5.27186e-18
8948.96877 5.22309e-18
8953.25665 4.95228e-18
8957.54454 4.89678e-18
8961.82224 5.04418e-18
8966.11012 5.08582e-18
8970.39801 5.02025e-18
8974.68590 4.99634e-18
8978.96360 5.12490e-18
8983.25148 5.30765e-18
8987.53937 5.25107e-18
8991.81706 5.07655e-18
8996.10495 4.97289e-18
9000.39283 4.89924e-18
9004.68072 4.94029e-18
9008.95842 5.03132e-18
9013.24631 5.00754e-18
9017.53419 4.91072e-18
9021.81189 4.74883e-18
9026.09977 4.58616e-18
9030.38766 4.61589e-18
9034.66536 4.67567e-18
9038.95325 4.62199e-18
9043.24113 4.52246e-18
9047.51883 4.42390e-18
9051.80671 4.48577e-18
9056.09460 4.45712e-18
9060.38248 4.38525e-18
9064.66019 4.43335e-18
9068.94807 4.47894e-18
9073.23596 4.35641e-18
9077.51365 4.16489e-18
9081.80154 4.11200e-18
9086.08942 4.11250e-18
9090.37731 4.07441e-18
9094.65501 4.10475e-18
9098.94290 4.23795e-18
9103.23078 4.26734e-18
9107.50848 4.23301e-18
9111.79637 4.21882e-18
9116.08425 4.16003e-18
9120.37213 4.14039e-18
9124.64984 4.16498e-18
9128.93772 4.10558e-18
9133.22560 3.99844e-18
9137.50331 3.95433e-18
9141.79119 4.04381e-18
9146.07907 4.20370e-18
9150.36696 4.28771e-18
9154.64466 4.24108e-18
9158.93254 4.09166e-18
9163.22043 4.01032e-18
9167.49813 4.17454e-18
9171.78601 4.33458e-18
9176.07390 4.18459e-18
9180.35160 3.96215e-18
9184.63948 3.98069e-18
9188.92737 4.07885e-18
9193.21525 4.08223e-18
9197.49295 4.09362e-18
9201.78084 4.08515e-18
9206.06872 4.05377e-18
9210.34642 4.00216e-18
9214.63431 3.85448e-18
9218.92219 3.76979e-18
9223.19989 3.96728e-18
9227.48778 4.17320e-18
9231.77566 4.21129e-18
9236.06355 4.09686e-18
9240.34125 4.05582e-18
9244.62913 4.06075e-18
9248.91702 3.92633e-18
9253.19472 3.93028e-18
9257.48260 3.96105e-18
9261.77049 4.04702e-18
9266.05838 4.21374e-18
9270.33608 4.02438e-18
9274.62396 3.81332e-18
9278.91185 3.87013e-18
9283.18954 3.97966e-18
9287.47743 3.98822e-18
9291.76531 4.07419e-18
9296.04301 4.10104e-18
9300.33090 3.96758e-18
9304.61879 4.04598e-18
9308.90667 4.15412e-18
9313.18437 4.11226e-18
9317.47225 4.20932e-18
9321.76014 4.28517e-18
9326.03784 4.22825e-18
9330.32573 4.36605e-18
9334.61361 4.44431e-18
9338.90150 4.15581e-18
9343.17919 4.03389e-18
9347.46708 4.14029e-18
9351.75496 4.02232e-18
9356.03267 3.84964e-18
9360.32055 3.92876e-18
9364.60844 4.20934e-18
9368.88613 4.22828e-18
9373.17402 4.02567e-18
9377.46190 3.70401e-18
9381.74979 3.66902e-18
9386.02749 3.85005e-18
9390.31538 3.80406e-18
9394.60326 3.69264e-18
9398.89114 3.65099e-18
9403.16885 3.70515e-18
9407.45673 3.83784e-18
9411.74462 3.74364e-18
9416.02232 3.53544e-18
9420.31020 3.56987e-18
9424.59808 3.89728e-18
9428.87579 3.98613e-18
9433.16367 3.73756e-18
9437.45155 3.57916e-18
9441.73944 3.48433e-18
9446.01714 3.46338e-18
9450.30502 3.65499e-18
9454.59291 3.71336e-18
9458.87061 3.51438e-18
9463.15849 3.48091e-18
9467.44638 3.81969e-18
9471.72408 3.97719e-18
9476.01196 3.72865e-18
9480.29985 3.47545e-18
9484.58773 3.39205e-18
9488.86543 3.58723e-18
9493.15332 3.66360e-18
9497.44120 3.45949e-18
9501.71890 3.41986e-18
9506.00679 3.60648e-18
9510.29467 3.97180e-18
9514.57237 3.88855e-18
9518.86026 3.50282e-18
9523.14814 3.58539e-18
9527.43603 3.94184e-18
9531.71373 3.98827e-18
9536.00162 3.91470e-18
9540.28950 3.81463e-18
9544.56720 3.70777e-18
9548.85508 3.55922e-18
9553.14297 3.48229e-18
9557.43085 3.60075e-18
9561.70856 3.48687e-18
9565.99644 3.54994e-18
9570.28433 3.63591e-18
9574.56202 3.58104e-18
9578.84991 3.61554e-18
9583.13779 3.61466e-18
9587.42568 3.51876e-18
9591.70338 3.44211e-18
9595.99127 3.47785e-18
9600.27915 3.55926e-18
9604.55685 3.70484e-18
9608.84473 3.79895e-18
9613.13262 3.87827e-18
9617.41032 3.97194e-18
9621.69821 3.86556e-18
9625.98609 3.73565e-18
9630.27398 3.69508e-18
9634.55167 3.68927e-18
9638.83956 3.57936e-18
9643.12744 3.42502e-18
9647.40514 3.36346e-18
9651.69303 3.15514e-18
9655.98092 3.06430e-18
9660.26880 3.23298e-18
9664.54650 3.39433e-18
9668.83438 3.44533e-18
9673.12227 3.61242e-18
9677.39997 3.69169e-18
9681.68786 3.56930e-18
9685.97574 3.38771e-18
9690.26362 3.41948e-18
9694.54133 3.76303e-18
9698.82921 4.05814e-18
9703.11709 4.03923e-18
9707.39480 3.60345e-18
9711.68268 3.25261e-18
9715.97056 3.22762e-18
9720.24827 3.14168e-18
9724.53615 3.05545e-18
9728.82403 2.94108e-18
9733.11192 2.74553e-18
9737.38962 2.78146e-18
9741.67750 3.13308e-18
9745.96539 3.45174e-18
9750.24309 3.42053e-18
9754.53097 3.23323e-18
9758.81886 3.21727e-18
9763.09656 3.33631e-18
9767.38444 3.35080e-18
9771.67233 3.33278e-18
9775.96021 3.41599e-18
9780.23791 3.31527e-18
9784.52580 3.04130e-18
9788.81368 3.05773e-18
9793.09138 3.04578e-18
9797.37927 2.95382e-18
9801.66715 3.04030e-18
9805.94485 3.20077e-18
9810.23274 3.29424e-18
9814.52062 3.16752e-18
9818.80851 2.95499e-18
9823.08621 2.92264e-18
9827.37410 2.80499e-18
9831.66198 2.74661e-18
9835.94987 3.00047e-18
9840.22756 3.07100e-18
9844.51545 2.99477e-18
9848.80333 3.15528e-18
9853.08104 3.04361e-18
9857.36892 2.60480e-18
9861.65681 2.43474e-18
9865.93450 2.52243e-18
9870.22239 2.53825e-18
9874.51027 2.43300e-18
9878.79816 2.44254e-18
9883.07586 2.62753e-18
9887.36375 2.78689e-18
9891.65163 2.88117e-18
9895.92933 2.83387e-18
9900.21721 2.61669e-18
9904.50510 2.42976e-18
9908.79298 2.34314e-18
9913.07069 2.72549e-18
9917.35857 2.83319e-18
9921.64646 2.50445e-18
9925.92415 2.35968e-18
9930.21204 2.25103e-18
9934.49992 2.08582e-18
9938.77762 2.03246e-18
9943.06551 2.22725e-18
9947.35340 2.35144e-18
9951.64128 2.33128e-18
9955.91898 2.09074e-18
9960.20687 1.91896e-18
9964.49475 2.09498e-18
9968.77245 2.48219e-18
9973.06034 2.75576e-18
9977.34822 2.71575e-18
9981.63610 2.74736e-18
9985.91381 2.93414e-18
9990.20169 3.06124e-18
9994.48957 3.07572e-18
9998.76728 3.11484e-18
