# wavelength flux
3500.19776 1.61692e-17
3504.44582 1.70499e-17
3508.68386 1.60150e-17
3512.93191 1.29807e-17
3517.17997 1.35929e-17
3521.41801 1.59925e-17
3525.66606 1.48599e-17
3529.90410 1.58463e-17
3534.15215 1.43488e-17
3538.40021 1.26666e-17
3542.63825 1.34210e-17
3546.88630 1.34762e-17
3551.12434 1.41117e-17
3555.37240 1.34747e-17
3559.61043 1.30157e-17
3563.85849 1.20048e-17
3568.10655 1.24438e-17
3572.34458 1.22025e-17
3576.59264 1.19879e-17
3580.83068 1.28758e-17
3585.07873 1.24262e-17
3589.31677 1.23650e-17
3593.56482 1.24820e-17
3597.81288 1.21409e-17
3602.05092 1.18190e-17
3606.29897 1.26119e-17
3610.53701 1.29450e-17
3614.78507 1.22754e-17
3619.03312 1.25363e-17
3623.27116 1.28223e-17
3627.51922 1.25487e-17
3631.75725 1.26390e-17
3636.00531 1.31037e-17
3640.24335 1.30332e-17
3644.49140 1.33296e-17
3648.73946 1.17935e-17
3652.97750 1.10357e-17
3657.22555 1.10917e-17
3661.46359 1.07031e-17
3665.71164 1.01833e-17
3669.95970 1.04899e-17
3674.19774 9.21820e-18
3678.44579 8.77439e-18
3682.68383 8.72735e-18
3686.93189 8.07379e-18
3691.16992 7.70137e-18
3695.41798 7.44970e-18
3699.66604 6.58961e-18
3703.90407 5.68643e-18
3708.15213 5.64314e-18
3712.39016 5.41075e-18
3716.63822 5.37959e-18
3720.88628 5.34843e-18
3725.12431 5.31728e-18
3729.37237 5.28614e-18
3733.61041 5.25501e-18
3737.85846 5.22389e-18
3742.09650 5.19278e-18
3746.34456 5.16168e-18
3750.59261 5.13058e-18
3754.83065 5.09950e-18
3759.07870 5.62946e-18
3763.31674 5.46657e-18
3767.56480 5.49245e-18
3771.81285 5.72137e-18
3776.05089 5.86537e-18
3780.29895 6.27349e-18
3784.53698 6.60336e-18
3788.78504 6.55322e-18
3793.02308 6.72878e-18
3797.27113 7.33958e-18
3801.51919 7.83916e-18
3805.75723 8.45245e-18
3810.00528 8.81169e-18
3814.24332 9.17764e-18
3818.49138 1.00224e-17
3822.72941 1.07902e-17
3826.97747 1.11614e-17
3831.22552 1.15304e-17
3835.46356 1.21615e-17
3839.71162 1.22129e-17
3843.94965 1.29922e-17
3848.19771 1.36927e-17
3852.44577 1.40390e-17
3856.68380 1.44966e-17
3860.93186 1.48991e-17
3865.16990 1.54089e-17
3869.41795 1.57582e-17
3873.65599 1.59164e-17
3877.90405 1.64874e-17
3882.15210 1.68154e-17
3886.39014 1.73016e-17
3890.63819 1.75440e-17
3894.87623 1.78690e-17
3899.12429 1.84547e-17
3903.37234 1.86499e-17
3907.61038 1.89070e-17
3911.85844 1.89620e-17
3916.09647 1.88568e-17
3920.34453 1.89913e-17
3924.58257 1.94377e-17
3928.83062 1.93654e-17
3933.07868 1.90223e-17
3937.31671 1.91873e-17
3941.56477 2.00014e-17
3945.80281 2.07805e-17
3950.05086 2.10779e-17
3954.29892 2.16454e-17
3958.53696 2.25024e-17
3962.78501 2.26236e-17
3967.02305 2.27115e-17
3971.27111 2.27779e-17
3975.50914 2.28298e-17
3979.75720 2.24497e-17
3984.00526 2.21035e-17
3988.24329 2.21823e-17
3992.49135 2.22423e-17
3996.72939 2.15182e-17
4000.97744 2.09790e-17
4005.21548 2.10040e-17
4009.46353 2.06532e-17
4013.71159 1.99197e-17
4017.94963 1.95143e-17
4022.19768 1.94457e-17
4026.43572 1.90934e-17
4030.68378 1.89043e-17
4034.93183 1.80112e-17
4039.16987 1.78659e-17
4043.41793 1.75310e-17
4047.65596 1.73090e-17
4051.90402 1.68571e-17
4056.14205 1.63468e-17
4060.39011 1.61895e-17
4064.63817 1.62079e-17
4068.87620 1.57123e-17
4073.12426 1.52531e-17
4077.36230 1.52262e-17
4081.61035 1.49175e-17
4085.85841 1.47473e-17
4090.09645 1.45243e-17
4094.34450 1.43383e-17
4098.58254 1.43941e-17
4102.83060 1.43273e-17
4107.06863 1.36705e-17
4111.31669 1.35832e-17
4115.56474 1.34578e-17
4119.80278 1.31898e-17
4124.05084 1.30030e-17
4128.28887 1.27341e-17
4132.53693 1.26759e-17
4136.78499 1.25045e-17
4141.02302 1.20752e-17
4145.27108 1.18682e-17
4149.50912 1.16890e-17
4153.75717 1.15856e-17
4157.99521 1.17566e-17
4162.24327 1.17504e-17
4166.49132 1.15810e-17
4170.72936 1.16413e-17
4174.97741 1.17988e-17
4179.21545 1.18745e-17
4183.46351 1.20979e-17
4187.71156 1.20128e-17
4191.94960 1.20175e-17
4196.19766 1.22173e-17
4200.43569 1.27057e-17
4204.68375 1.28096e-17
4208.92179 1.27955e-17
4213.16984 1.28655e-17
4217.41790 1.30369e-17
4221.65593 1.30797e-17
4225.90399 1.31923e-17
4230.14203 1.32893e-17
4234.39008 1.32715e-17
4238.62812 1.33718e-17
4242.87618 1.33020e-17
4247.12423 1.33985e-17
4251.36227 1.34853e-17
4255.61033 1.35958e-17
4259.84836 1.37917e-17
4264.09642 1.37258e-17
4268.34447 1.38411e-17
4272.58251 1.39318e-17
4276.83057 1.40013e-17
4281.06860 1.39162e-17
4285.31666 1.38858e-17
4289.55470 1.39194e-17
4293.80275 1.37261e-17
4298.05081 1.35485e-17
4302.28885 1.37957e-17
4306.53690 1.36292e-17
4310.77494 1.33848e-17
4315.02300 1.30602e-17
4319.27105 1.28987e-17
4323.50909 1.29077e-17
4327.75715 1.29246e-17
4331.99518 1.27352e-17
4336.24324 1.25169e-17
4340.48128 1.22674e-17
4344.72933 1.21568e-17
4348.97739 1.21179e-17
4353.21542 1.23169e-17
4357.46348 1.22644e-17
4361.70152 1.22119e-17
4365.94957 1.21593e-17
4370.18761 1.21068e-17
4374.43567 1.20543e-17
4378.68372 1.20018e-17
4382.92176 1.19493e-17
4387.16982 1.18968e-17
4391.40785 1.18443e-17
4395.65591 1.20932e-17
4399.90396 1.21027e-17
4404.14200 1.22552e-17
4408.39006 1.25381e-17
4412.62809 1.28086e-17
4416.87615 1.30635e-17
4421.11419 1.29437e-17
4425.36224 1.31889e-17
4429.61030 1.33867e-17
4433.84834 1.33599e-17
4438.09639 1.34503e-17
4442.33443 1.37144e-17
4446.58248 1.38630e-17
4450.83054 1.42446e-17
4455.06858 1.48072e-17
4459.31663 1.47432e-17
4463.55467 1.47770e-17
4467.80273 1.50099e-17
4472.04076 1.54661e-17
4476.28882 1.57031e-17
4480.53688 1.57197e-17
4484.77491 1.56718e-17
4489.02297 1.60543e-17
4493.26101 1.62813e-17
4497.50906 1.64474e-17
4501.75712 1.65966e-17
4505.99515 1.67925e-17
4510.24321 1.70517e-17
4514.48125 1.71401e-17
4518.72930 1.73816e-17
4522.96734 1.75943e-17
4527.21540 1.76154e-17
4531.46345 1.76877e-17
4535.70149 1.78362e-17
4539.94955 1.80822e-17
4544.18758 1.81240e-17
4548.43564 1.80686e-17
4552.68370 1.82198e-17
4556.92173 1.81731e-17
4561.16979 1.82177e-17
4565.40783 1.81359e-17
4569.65588 1.80660e-17
4573.89392 1.78099e-17
4578.14197 1.76193e-17
4582.39003 1.73569e-17
4586.62807 1.71317e-17
4590.87612 1.69800e-17
4595.11416 1.67829e-17
4599.36222 1.64577e-17
4603.61027 1.60642e-17
4607.84831 1.56686e-17
4612.09637 1.51295e-17
4616.33440 1.46724e-17
4620.58246 1.41964e-17
4624.82049 1.38960e-17
4629.06855 1.34990e-17
4633.31661 1.29905e-17
4637.55464 1.26338e-17
4641.80270 1.23424e-17
4646.04074 1.18227e-17
4650.28879 1.12883e-17
4654.52683 1.12319e-17
4658.77489 1.12803e-17
4663.02294 1.12346e-17
4667.26098 1.14078e-17
4671.50904 1.15629e-17
4675.74707 1.14926e-17
4679.99513 1.15609e-17
4684.24318 1.16431e-17
4688.48122 1.15124e-17
4692.72928 1.15165e-17
4696.96731 1.18417e-17
4701.21537 1.22301e-17
4705.45341 1.23886e-17
4709.70146 1.23212e-17
4713.94952 1.23215e-17
4718.18756 1.23550e-17
4722.43561 1.23824e-17
4726.67365 1.21707e-17
4730.92170 1.20914e-17
4735.16976 1.20377e-17
4739.40780 1.17634e-17
4743.65585 1.15858e-17
4747.89389 1.17106e-17
4752.14195 1.16862e-17
4756.37998 1.16819e-17
4760.62804 1.16579e-17
4764.87610 1.17251e-17
4769.11413 1.18057e-17
4773.36219 1.17974e-17
4777.60023 1.16513e-17
4781.84828 1.15519e-17
4786.08632 1.15116e-17
4790.33438 1.14552e-17
4794.58243 1.14116e-17
4798.82047 1.13944e-17
4803.06852 1.12591e-17
4807.30656 1.11611e-17
4811.55462 1.11399e-17
4815.80267 1.12001e-17
4820.04071 1.12207e-17
4824.28877 1.11146e-17
4828.52680 1.11963e-17
4832.77486 1.13252e-17
4837.01290 1.13461e-17
4841.26095 1.14652e-17
4845.50901 1.16557e-17
4849.74705 1.18325e-17
4853.99510 1.20266e-17
4858.23314 1.22206e-17
4862.48119 1.24146e-17
4866.72925 1.26086e-17
4870.96729 1.28025e-17
4875.21534 1.29964e-17
4879.45338 1.31903e-17
4883.70144 1.33841e-17
4887.93947 1.35779e-17
4892.18753 1.37717e-17
4896.43558 1.39282e-17
4900.67362 1.38748e-17
4904.92168 1.40202e-17
4909.15972 1.43367e-17
4913.40777 1.42218e-17
4917.65583 1.42115e-17
4921.89386 1.44323e-17
4926.14192 1.44412e-17
4930.37996 1.42836e-17
4934.62801 1.39133e-17
4938.86605 1.35854e-17
4943.11411 1.33150e-17
4947.36216 1.32351e-17
4951.60020 1.31360e-17
4955.84825 1.30368e-17
4960.08629 1.29377e-17
4964.33435 1.28386e-17
4968.57238 1.27396e-17
4972.82044 1.26405e-17
4977.06850 1.25415e-17
4981.30653 1.24425e-17
4985.55459 1.23435e-17
4989.79263 1.22445e-17
4994.04068 1.24326e-17
4998.28874 1.25196e-17
5002.52678 1.26066e-17
5006.77483 1.26935e-17
5011.01287 1.27805e-17
5015.26093 1.28674e-17
5019.49896 1.29543e-17
5023.74702 1.30412e-17
5027.99507 1.31281e-17
5032.23311 1.32150e-17
5036.48117 1.33019e-17
5040.71920 1.32436e-17
5044.96726 1.33910e-17
5049.21532 1.35635e-17
5053.45335 1.36816e-17
5057.70141 1.37971e-17
5061.93945 1.40041e-17
5066.18750 1.39815e-17
5070.42554 1.39969e-17
5074.67360 1.41666e-17
5078.92165 1.42878e-17
5083.15969 1.44717e-17
5087.40774 1.45998e-17
5091.64578 1.45152e-17
5095.89384 1.46036e-17
5100.13187 1.47668e-17
5104.37993 1.47952e-17
5108.62799 1.48369e-17
5112.86602 1.48168e-17
5117.11408 1.48583e-17
5121.35212 1.50078e-17
5125.60017 1.50378e-17
5129.84823 1.51713e-17
5134.08627 1.53298e-17
5138.33432 1.53202e-17
5142.57236 1.54044e-17
5146.82041 1.55520e-17
5151.06847 1.56311e-17
5155.30651 1.56538e-17
5159.55456 1.58597e-17
5163.79260 1.60190e-17
5168.04066 1.59945e-17
5172.27869 1.61588e-17
5176.52675 1.63611e-17
5180.77481 1.64834e-17
5185.01284 1.65716e-17
5189.26090 1.66106e-17
5193.49893 1.67407e-17
5197.74699 1.69422e-17
5201.98503 1.70901e-17
5206.23308 1.71354e-17
5210.48114 1.70612e-17
5214.71918 1.71411e-17
5218.96723 1.72703e-17
5223.20527 1.73080e-17
5227.45333 1.73570e-17
5231.70138 1.73550e-17
5235.93942 1.74332e-17
5240.18747 1.76173e-17
5244.42551 1.78050e-17
5248.67357 1.78531e-17
5252.91161 1.79639e-17
5257.15966 1.80809e-17
5261.40772 1.80659e-17
5265.64575 1.80285e-17
5269.89381 1.81331e-17
5274.13185 1.82252e-17
5278.37990 1.80604e-17
5282.62796 1.80809e-17
5286.86600 1.80393e-17
5291.11405 1.80290e-17
5295.35209 1.81167e-17
5299.60015 1.80060e-17
5303.83818 1.79680e-17
5308.08624 1.77943e-17
5312.33429 1.77181e-17
5316.57233 1.76571e-17
5320.82039 1.74927e-17
5325.05842 1.73432e-17
5329.30648 1.73589e-17
5333.55454 1.73297e-17
5337.79257 1.73324e-17
5342.04063 1.71807e-17
5346.27867 1.70540e-17
5350.52672 1.69986e-17
5354.76476 1.69821e-17
5359.01282 1.71482e-17
5363.26087 1.70419e-17
5367.49891 1.69382e-17
5371.74696 1.69582e-17
5375.98500 1.69583e-17
5380.23306 1.69134e-17
5384.47109 1.68214e-17
5388.71915 1.68655e-17
5392.96721 1.68763e-17
5397.20524 1.67113e-17
5401.45330 1.66596e-17
5405.69134 1.67906e-17
5409.93939 1.67759e-17
5414.18745 1.66790e-17
5418.42548 1.66989e-17
5422.67354 1.66937e-17
5426.91158 1.65110e-17
5431.15963 1.63052e-17
5435.39767 1.62056e-17
5439.64573 1.61381e-17
5443.89378 1.61492e-17
5448.13182 1.61699e-17
5452.37988 1.60934e-17
5456.61791 1.60177e-17
5460.86597 1.59741e-17
5465.11402 1.58732e-17
5469.35206 1.56740e-17
5473.60012 1.56143e-17
5477.83815 1.55093e-17
5482.08621 1.53795e-17
5486.32425 1.53973e-17
5490.57230 1.53935e-17
5494.82036 1.54332e-17
5499.05840 1.52922e-17
5503.30645 1.51207e-17
5507.54449 1.51383e-17
5511.79255 1.50357e-17
5516.04060 1.48947e-17
5520.27864 1.49642e-17
5524.52670 1.48869e-17
5528.76473 1.46843e-17
5533.01279 1.48033e-17
5537.25083 1.47969e-17
5541.49888 1.48206e-17
5545.74694 1.47236e-17
5549.98497 1.46091e-17
5554.23303 1.45605e-17
5558.47107 1.46502e-17
5562.71912 1.45743e-17
5566.95716 1.45119e-17
5571.20522 1.45572e-17
5575.45327 1.44888e-17
5579.69131 1.44366e-17
5583.93937 1.44510e-17
5588.17740 1.42903e-17
5592.42546 1.42427e-17
5596.67351 1.42758e-17
5600.91155 1.41362e-17
5605.15961 1.40759e-17
5609.39764 1.39007e-17
5613.64570 1.38426e-17
5617.88374 1.37719e-17
5622.13179 1.35859e-17
5626.37985 1.34119e-17
5630.61789 1.31410e-17
5634.86594 1.29022e-17
5639.10398 1.27369e-17
5643.35203 1.24329e-17
5647.60009 1.21076e-17
5651.83813 1.19163e-17
5656.08618 1.15334e-17
5660.32422 1.13736e-17
5664.57228 1.11965e-17
5668.81031 1.09991e-17
5673.05837 1.08989e-17
5677.30643 1.07626e-17
5681.54446 1.07499e-17
5685.79252 1.07195e-17
5690.03056 1.07361e-17
5694.27861 1.08142e-17
5698.51665 1.09557e-17
5702.76470 1.11508e-17
5707.01276 1.14016e-17
5711.25080 1.16539e-17
5715.49885 1.18883e-17
5719.73689 1.20660e-17
5723.98495 1.23072e-17
5728.23300 1.26804e-17
5732.47104 1.28771e-17
5736.71910 1.30340e-17
5740.95713 1.32944e-17
5745.20519 1.35635e-17
5749.45325 1.40540e-17
5753.69128 1.45034e-17
5757.93934 1.48110e-17
5762.17738 1.51160e-17
5766.42543 1.53548e-17
5770.66347 1.55794e-17
5774.91152 1.57569e-17
5779.15958 1.58093e-17
5783.39762 1.58511e-17
5787.64567 1.59681e-17
5791.88371 1.58015e-17
5796.13177 1.55823e-17
5800.37982 1.56589e-17
5804.61786 1.58810e-17
5808.86592 1.58816e-17
5813.10395 1.57516e-17
5817.35201 1.57861e-17
5821.59004 1.56282e-17
5825.83810 1.56794e-17
5830.08616 1.58569e-17
5834.32419 1.58972e-17
5838.57225 1.60543e-17
5842.81029 1.60769e-17
5847.05834 1.59508e-17
5851.29638 1.57829e-17
5855.54444 1.57352e-17
5859.79249 1.57791e-17
5864.03053 1.57799e-17
5868.27859 1.58079e-17
5872.51662 1.55331e-17
5876.76468 1.52995e-17
5881.01273 1.50582e-17
5885.25077 1.49719e-17
5889.49883 1.47184e-17
5893.73686 1.40869e-17
5897.98492 1.36291e-17
5902.22296 1.34041e-17
5906.47101 1.31136e-17
5910.71907 1.29624e-17
5914.95711 1.31438e-17
5919.20516 1.35608e-17
5923.44320 1.38256e-17
5927.69125 1.37536e-17
5931.93931 1.36236e-17
5936.17735 1.37209e-17
5940.42540 1.37281e-17
5944.66344 1.35349e-17
5948.91150 1.34662e-17
5953.14953 1.34114e-17
5957.39759 1.32672e-17
5961.64565 1.33127e-17
5965.88368 1.35165e-17
5970.13174 1.33530e-17
5974.36978 1.33500e-17
5978.61783 1.32494e-17
5982.85587 1.31483e-17
5987.10393 1.30505e-17
5991.35198 1.29341e-17
5995.59002 1.29067e-17
5999.83807 1.27569e-17
6004.07611 1.27356e-17
6008.32417 1.27586e-17
6012.57222 1.26486e-17
6016.81026 1.26050e-17
6021.05832 1.25535e-17
6025.29635 1.24753e-17
6029.54441 1.24016e-17
6033.78245 1.23000e-17
6038.03050 1.22272e-17
6042.27856 1.21854e-17
6046.51660 1.20862e-17
6050.76465 1.19881e-17
6055.00269 1.19859e-17
6059.25074 1.19543e-17
6063.49880 1.18598e-17
6067.73684 1.17747e-17
6071.98489 1.18123e-17
6076.22293 1.15915e-17
6080.47099 1.14006e-17
6084.70902 1.13850e-17
6088.95708 1.13070e-17
6093.20514 1.11466e-17
6097.44317 1.08801e-17
6101.69123 1.06060e-17
6105.92927 1.04444e-17
6110.17732 1.01820e-17
6114.42538 9.86815e-18
6118.66341 9.64261e-18
6122.91147 9.41593e-18
6127.14951 9.03814e-18
6131.39756 8.70083e-18
6135.63560 8.52824e-18
6139.88366 8.26896e-18
6144.13171 7.97719e-18
6148.36975 7.73509e-18
6152.61780 7.43972e-18
6156.85584 7.21732e-18
6161.10390 6.91869e-18
6165.34193 6.71568e-18
6169.58999 6.48162e-18
6173.83805 6.33434e-18
6178.07608 6.07192e-18
6182.32414 5.85834e-18
6186.56218 5.55994e-18
6190.81023 5.42148e-18
6195.05829 5.29358e-18
6199.29633 5.02418e-18
6203.54438 4.85178e-18
6207.78242 4.67852e-18
6212.03048 4.56010e-18
6216.26851 4.48932e-18
6220.51657 4.40243e-18
6224.76462 4.38146e-18
6229.00266 4.34161e-18
6233.25072 4.33181e-18
6237.48875 4.35841e-18
6241.73681 4.28289e-18
6245.98487 4.29072e-18
6250.22290 4.33799e-18
6254.47096 4.43373e-18
6258.70900 4.52491e-18
6262.95705 4.51645e-18
6267.19509 4.58187e-18
6271.44315 4.66302e-18
6275.69120 4.78854e-18
6279.92924 4.88222e-18
6284.17729 5.11898e-18
6288.41533 5.44815e-18
6292.66339 5.64841e-18
6296.90142 5.92389e-18
6301.14948 6.40678e-18
6305.39754 6.90811e-18
6309.63557 7.34855e-18
6313.88363 7.88305e-18
6318.12167 8.36707e-18
6322.36972 8.74597e-18
6326.61778 9.22548e-18
6330.85582 9.61536e-18
6335.10387 1.01610e-17
6339.34191 1.05653e-17
6343.58996 1.09183e-17
6347.83802 1.14150e-17
6352.07606 1.19256e-17
6356.32411 1.23259e-17
6360.56215 1.28194e-17
6364.81021 1.33726e-17
6369.04824 1.37080e-17
6373.29630 1.40086e-17
6377.54435 1.42832e-17
6381.78239 1.45272e-17
6386.03045 1.47451e-17
6390.26848 1.50217e-17
6394.51654 1.52420e-17
6398.75458 1.53406e-17
6403.00263 1.54166e-17
6407.25069 1.54980e-17
6411.48873 1.57108e-17
6415.73678 1.57971e-17
6419.97482 1.57057e-17
6424.22288 1.56222e-17
6428.47093 1.56513e-17
6432.70897 1.57126e-17
6436.95702 1.57232e-17
6441.19506 1.56864e-17
6445.44312 1.55623e-17
6449.68116 1.55624e-17
6453.92921 1.56094e-17
6458.17727 1.54779e-17
6462.41530 1.54003e-17
6466.66336 1.53505e-17
6470.90140 1.54277e-17
6475.14945 1.54189e-17
6479.39751 1.52365e-17
6483.63555 1.53972e-17
6487.88360 1.56068e-17
6492.12164 1.56105e-17
6496.36970 1.57409e-17
6500.60773 1.57438e-17
6504.85579 1.58266e-17
6509.10384 1.58670e-17
6513.34188 1.58483e-17
6517.58994 1.57884e-17
6521.82797 1.57507e-17
6526.07603 1.58764e-17
6530.32409 1.59896e-17
6534.56212 1.59779e-17
6538.81018 1.60677e-17
6543.04822 1.62406e-17
6547.29627 1.62611e-17
6551.53431 1.62815e-17
6555.78237 1.63020e-17
6560.03042 1.63225e-17
6564.26846 1.63430e-17
6568.51651 1.63634e-17
6572.75455 1.63839e-17
6577.00261 1.64044e-17
6581.24064 1.64249e-17
6585.48870 1.64453e-17
6589.73676 1.64658e-17
6593.97479 1.64863e-17
6598.22285 1.65067e-17
6602.46089 1.65272e-17
6606.70894 1.65477e-17
6610.95700 1.64982e-17
6615.19503 1.64866e-17
6619.44309 1.63769e-17
6623.68113 1.62970e-17
6627.92918 1.63870e-17
6632.16722 1.63834e-17
6636.41528 1.62002e-17
6640.66333 1.61713e-17
6644.90137 1.62271e-17
6649.14943 1.61583e-17
6653.38746 1.60906e-17
6657.63552 1.59297e-17
6661.88357 1.57877e-17
6666.12161 1.57960e-17
6670.36967 1.56823e-17
6674.60771 1.56401e-17
6678.85576 1.54660e-17
6683.09380 1.54260e-17
6687.34185 1.53320e-17
6691.58991 1.52969e-17
6695.82795 1.52134e-17
6700.07600 1.50844e-17
6704.31404 1.50655e-17
6708.56210 1.48946e-17
6712.81015 1.46939e-17
6717.04819 1.46017e-17
6721.29625 1.44832e-17
6725.53428 1.43381e-17
6729.78234 1.41780e-17
6734.02038 1.40238e-17
6738.26843 1.38741e-17
6742.51649 1.38485e-17
6746.75452 1.39011e-17
6751.00258 1.37778e-17
6755.24062 1.36724e-17
6759.48867 1.34854e-17
6763.72671 1.35374e-17
6767.97477 1.34980e-17
6772.22282 1.33163e-17
6776.46086 1.32135e-17
6780.70892 1.31859e-17
6784.94695 1.30765e-17
6789.19501 1.28717e-17
6793.44306 1.27182e-17
6797.68110 1.27314e-17
6801.92916 1.26321e-17
6806.16719 1.24084e-17
6810.41525 1.23074e-17
6814.65329 1.21700e-17
6818.90134 1.20945e-17
6823.14940 1.20712e-17
6827.38744 1.20009e-17
6831.63549 1.18312e-17
6835.87353 1.17235e-17
6840.12158 1.16950e-17
6844.36964 1.16056e-17
6848.60768 1.15621e-17
6852.85573 1.14950e-17
6857.09377 1.15678e-17
6861.34183 1.16198e-17
6865.57986 1.16375e-17
6869.82792 1.15234e-17
6874.07598 1.12844e-17
6878.31401 1.10495e-17
6882.56207 1.11048e-17
6886.80011 1.15031e-17
6891.04816 1.16277e-17
6895.29622 1.14928e-17
6899.53425 1.15193e-17
6903.78231 1.14740e-17
6908.02035 1.15016e-17
6912.26840 1.16779e-17
6916.50644 1.17741e-17
6920.75450 1.18415e-17
6925.00255 1.20170e-17
6929.24059 1.20710e-17
6933.48865 1.21525e-17
6937.72668 1.22431e-17
6941.97474 1.21290e-17
6946.21278 1.20749e-17
6950.46083 1.21569e-17
6954.70889 1.21598e-17
6958.94693 1.20087e-17
6963.19498 1.18864e-17
6967.43302 1.19419e-17
6971.68107 1.19731e-17
6975.92913 1.18938e-17
6980.16717 1.17908e-17
6984.41522 1.16770e-17
6988.65326 1.15460e-17
6992.90132 1.14214e-17
6997.14937 1.14669e-17
7001.38741 1.14498e-17
7005.63547 1.11981e-17
7009.87350 1.12045e-17
7014.12156 1.12013e-17
7018.35959 1.12396e-17
7022.60765 1.11690e-17
7026.85571 1.11416e-17
7031.09374 1.11819e-17
7035.34180 1.11449e-17
7039.57984 1.11512e-17
7043.82789 1.11552e-17
7048.06593 1.10258e-17
7052.31399 1.08961e-17
7056.56204 1.08427e-17
7060.80008 1.07820e-17
7065.04814 1.07503e-17
7069.28617 1.07861e-17
7073.53423 1.07066e-17
7077.78228 1.05187e-17
7082.02032 1.04965e-17
7086.26838 1.06089e-17
7090.50641 1.06460e-17
7094.75447 1.05956e-17
7098.99251 1.04786e-17
7103.24056 1.03158e-17
7107.48862 1.03493e-17
7111.72666 1.03500e-17
7115.97471 1.04341e-17
7120.21275 1.04860e-17
7124.46080 1.04234e-17
7128.70886 1.04339e-17
7132.94690 1.04733e-17
7137.19495 1.05165e-17
7141.43299 1.03841e-17
7145.68105 1.04100e-17
7149.91908 1.04163e-17
7154.16714 1.05293e-17
7158.41520 1.04946e-17
7162.65323 1.05004e-17
7166.90129 1.05212e-17
7171.13933 1.05119e-17
7175.38738 1.05128e-17
7179.62542 1.04693e-17
7183.87348 1.04502e-17
7188.12153 1.04113e-17
7192.35957 1.03969e-17
7196.60762 1.04476e-17
7200.84566 1.04299e-17
7205.09372 1.03310e-17
7209.34177 1.02499e-17
7213.57981 1.02301e-17
7217.82787 1.03049e-17
7222.06590 1.03952e-17
7226.31396 1.03881e-17
7230.55200 1.04328e-17
7234.80005 1.04585e-17
7239.04811 1.02985e-17
7243.28615 1.02410e-17
7247.53420 1.02432e-17
7251.77224 1.03195e-17
7256.02029 1.03662e-17
7260.26835 1.03922e-17
7264.50639 1.03632e-17
7268.75444 1.03086e-17
7272.99248 1.03170e-17
7277.24054 1.03270e-17
7281.47857 1.02511e-17
7285.72663 1.01784e-17
7289.97469 1.01401e-17
7294.21272 1.01591e-17
7298.46078 1.01956e-17
7302.69882 1.01345e-17
7306.94687 1.00702e-17
7311.19493 1.00288e-17
7315.43296 9.98073e-18
7319.68102 9.94610e-18
7323.91906 1.00017e-17
7328.16711 1.00019e-17
7332.40515 9.99733e-18
7336.65321 9.92597e-18
7340.90126 9.98431e-18
7345.13930 1.00129e-17
7349.38735 9.97512e-18
7353.62539 9.95235e-18
7357.87345 9.91561e-18
7362.11148 9.85322e-18
7366.35954 9.82088e-18
7370.60760 9.75666e-18
7374.84563 9.77458e-18
7379.09369 9.81536e-18
7383.33173 9.78836e-18
7387.57978 9.80079e-18
7391.82784 9.83580e-18
7396.06588 9.90520e-18
7400.31393 9.90065e-18
7404.55197 9.90116e-18
7408.80003 9.82152e-18
7413.03806 9.80959e-18
7417.28612 9.94139e-18
7421.53417 9.81475e-18
7425.77221 9.75467e-18
7430.02027 9.69366e-18
7434.25830 9.68032e-18
7438.50636 9.77927e-18
7442.75442 9.82002e-18
7446.99245 9.75989e-18
7451.24051 9.68723e-18
7455.47855 9.62882e-18
7459.72660 9.61540e-18
7463.96464 9.72070e-18
7468.21270 9.74831e-18
7472.46075 9.61148e-18
7476.69879 9.55343e-18
7480.94684 9.53920e-18
7485.18488 9.42805e-18
7489.43294 9.29649e-18
7493.68099 9.24319e-18
7497.91903 9.25762e-18
7502.16709 9.20680e-18
7506.40512 9.18438e-18
7510.65318 9.09625e-18
7514.89122 9.11794e-18
7519.13927 9.22730e-18
7523.38733 9.22822e-18
7527.62537 9.15165e-18
7531.87342 9.11776e-18
7536.11146 9.10446e-18
7540.35951 9.09513e-18
7544.59755 9.06790e-18
7548.84561 9.08329e-18
7553.09366 9.12013e-18
7557.33170 9.20219e-18
7561.57976 9.21605e-18
7565.81779 9.08100e-18
7570.06585 8.99429e-18
7574.31390 8.96961e-18
7578.55194 8.99448e-18
7582.80000 9.10287e-18
7587.03803 9.08723e-18
7591.28609 9.07161e-18
7595.52413 9.05598e-18
7599.77218 9.04035e-18
7604.02024 8.61774e-18
7608.25828 8.55439e-18
7612.50633 8.65951e-18
7616.74437 8.90183e-18
7620.99243 9.08168e-18
7625.24048 9.00047e-18
7629.47852 8.74965e-18
7633.72657 8.60451e-18
7637.96461 8.63489e-18
7642.21267 8.65238e-18
7646.45071 8.59424e-18
7650.69876 8.61522e-18
7654.94682 8.65531e-18
7659.18485 8.71647e-18
7663.43291 8.79098e-18
7667.67095 8.75243e-18
7671.91900 8.69897e-18
7676.16706 8.58066e-18
7680.40510 8.47843e-18
7684.65315 8.60973e-18
7688.89119 8.67733e-18
7693.13925 8.30215e-18
7697.37728 8.28730e-18
7701.62534 8.29478e-18
7705.87339 8.28485e-18
7710.11143 8.31438e-18
7714.35949 8.36349e-18
7718.59752 8.39886e-18
7722.84558 8.42452e-18
7727.09364 8.45525e-18
7731.33167 8.49196e-18
7735.57973 8.44926e-18
7739.81777 8.44549e-18
7744.06582 8.47219e-18
7748.30386 8.46074e-18
7752.55192 8.46447e-18
7756.79997 8.44177e-18
7761.03801 8.39995e-18
7765.28606 8.40105e-18
7769.52410 8.40247e-18
7773.77216 8.39398e-18
7778.01019 8.39087e-18
7782.25825 8.39329e-18
7786.50631 8.38908e-18
7790.74434 8.35257e-18
7794.99240 8.30846e-18
7799.23044 8.26323e-18
7803.47849 8.30977e-18
7807.72655 8.22149e-18
7811.96458 8.11896e-18
7816.21264 8.04323e-18
7820.45068 7.99681e-18
7824.69873 7.99503e-18
7828.93677 8.14640e-18
7833.18483 8.16376e-18
7837.43288 8.17721e-18
7841.67092 8.18256e-18
7845.91898 8.17454e-18
7850.15701 8.15627e-18
7854.40507 8.13080e-18
7858.65312 8.10203e-18
7862.89116 8.07171e-18
7867.13922 8.04000e-18
7871.37726 8.00801e-18
7875.62531 7.97636e-18
7879.86335 7.94240e-18
7884.11140 7.90429e-18
7888.35946 7.85905e-18
7892.59750 7.80944e-18
7896.84555 7.75819e-18
7901.08359 7.70809e-18
7905.33165 7.66077e-18
7909.57970 7.61661e-18
7913.81774 7.57656e-18
7918.06580 7.54107e-18
7922.30383 7.50598e-18
7926.55189 7.46818e-18
7930.78993 7.42308e-18
7935.03798 7.37305e-18
7939.28604 7.32080e-18
7943.52407 7.26913e-18
7947.77213 7.21973e-18
7952.01017 7.17291e-18
7956.25822 7.12952e-18
7960.50628 7.09018e-18
7964.74432 7.05179e-18
7968.99237 7.01199e-18
7973.23041 6.96739e-18
7977.47847 6.91868e-18
7981.71650 6.86698e-18
7985.96456 6.81351e-18
7990.21261 6.75901e-18
7994.45065 6.70334e-18
7998.69871 6.64682e-18
8002.93674 6.58979e-18
8007.18480 6.53284e-18
8011.42284 6.47652e-18
8015.67089 6.42058e-18
8019.91895 6.36693e-18
8024.15699 6.31738e-18
8028.40504 6.27426e-18
8032.64308 6.23707e-18
8036.89113 6.20024e-18
8041.13919 6.15957e-18
8045.37723 6.11052e-18
8049.62528 6.05215e-18
8053.86332 5.98346e-18
8058.11138 5.90259e-18
8062.34941 5.81242e-18
8066.59747 5.71704e-18
8070.84553 5.62077e-18
8075.08356 5.52645e-18
8079.33162 5.43259e-18
8083.56966 5.33887e-18
8087.81771 5.24483e-18
8092.06577 5.14817e-18
8096.30380 5.04696e-18
8100.55186 4.93811e-18
8104.78990 4.82302e-18
8109.03795 4.70462e-18
8113.27599 4.58577e-18
8117.52405 4.46890e-18
8121.77210 4.35393e-18
8126.01014 4.24158e-18
8130.25820 4.13216e-18
8134.49623 4.02786e-18
8138.74429 3.93048e-18
8142.98233 3.84206e-18
8147.23038 3.76295e-18
8151.47844 3.69265e-18
8155.71648 3.63092e-18
8159.96453 3.57728e-18
8164.20257 3.53089e-18
8168.45062 3.49094e-18
8172.69868 3.45587e-18
8176.93672 3.42838e-18
8181.18477 3.41063e-18
8185.42281 3.40499e-18
8189.67087 3.41142e-18
8193.90890 3.42810e-18
8198.15696 3.45389e-18
8202.40502 3.48665e-18
8206.64305 3.51902e-18
8210.89111 3.54522e-18
8215.12914 3.55842e-18
8219.37720 3.56000e-18
8223.62526 3.55201e-18
8227.86329 3.53588e-18
8232.11135 3.51616e-18
8236.34939 3.49943e-18
8240.59744 3.49209e-18
8244.84550 3.49967e-18
8249.08354 3.51920e-18
8253.33159 3.54903e-18
8257.56963 3.58733e-18
8261.81768 3.62994e-18
8266.05572 3.67279e-18
8270.30378 3.71051e-18
8274.55183 3.74224e-18
8278.78987 3.77169e-18
8283.03793 3.80141e-18
8287.27596 3.83440e-18
8291.52402 3.87241e-18
8295.76206 3.91737e-18
8300.01011 3.97219e-18
8304.25817 4.03466e-18
8308.49621 4.10212e-18
8312.74426 4.17146e-18
8316.98230 4.24136e-18
8321.23036 4.31304e-18
8325.46839 4.38672e-18
8329.71645 4.46259e-18
8333.96450 4.54304e-18
8338.20254 4.62964e-18
8342.45060 4.72570e-18
8346.68863 4.82670e-18
8350.93669 4.92719e-18
8355.17473 5.02151e-18
8359.42278 5.10635e-18
8363.67084 5.18270e-18
8367.90888 5.25052e-18
8372.15693 5.31030e-18
8376.39497 5.36467e-18
8380.64302 5.41625e-18
8384.89108 5.46883e-18
8389.12912 5.52281e-18
8393.37717 5.57799e-18
8397.61521 5.63391e-18
8401.86327 5.69134e-18
8406.11132 5.75413e-18
8410.34936 5.82484e-18
8414.59742 5.90618e-18
8418.83545 5.99643e-18
8423.08351 6.09398e-18
8427.32155 6.19754e-18
8431.56960 6.30371e-18
8435.81766 6.40863e-18
8440.05569 6.50816e-18
8444.30375 6.59979e-18
8448.54179 6.68569e-18
8452.78984 6.76703e-18
8457.03790 6.84536e-18
8461.27594 6.92239e-18
8465.52399 6.99974e-18
8469.76203 7.08056e-18
8474.01009 7.16321e-18
8478.24812 7.24441e-18
8482.49618 7.32068e-18
8486.74424 7.39020e-18
8490.98227 7.45886e-18
8495.23033 7.53021e-18
8499.46837 7.60874e-18
8503.71642 7.69193e-18
8507.96448 7.77734e-18
8512.20251 7.86350e-18
8516.45057 7.94575e-18
8520.68861 8.01820e-18
8524.93666 8.07503e-18
8529.17470 8.11233e-18
8533.42276 8.13536e-18
8537.67081 8.14778e-18
8541.90885 8.15397e-18
8546.15691 8.15807e-18
8550.39494 8.16406e-18
8554.64300 8.17728e-18
8558.89105 8.19840e-18
8563.12909 8.22498e-18
8567.37715 8.25481e-18
8571.61518 8.28555e-18
8575.86324 8.31870e-18
8580.10128 8.35445e-18
8584.34933 8.39358e-18
8588.59739 8.43338e-18
8592.83543 8.47122e-18
8597.08348 8.50441e-18
8601.32152 8.53138e-18
8605.56957 8.55182e-18
8609.80761 8.56551e-18
8614.05567 8.57285e-18
8618.30372 8.57390e-18
8622.54176 8.56952e-18
8626.78982 8.55861e-18
8631.02785 8.54938e-18
8635.27591 8.54980e-18
8639.51395 8.56890e-18
8643.76200 8.60854e-18
8648.01006 8.66218e-18
8652.24810 8.72517e-18
8656.49615 8.79186e-18
8660.73419 8.85380e-18
8664.98224 8.90332e-18
8669.23030 8.93129e-18
8673.46834 8.93765e-18
8677.71639 8.92437e-18
8681.95443 8.89334e-18
8686.20249 8.84879e-18
8690.44052 8.79749e-18
8694.68858 8.74599e-18
8698.93664 8.70088e-18
8703.17467 8.66664e-18
8707.42273 8.64707e-18
8711.66077 8.64717e-18
8715.90882 8.66320e-18
8720.15688 8.68939e-18
8724.39492 8.71938e-18
8728.64297 8.74808e-18
8732.88101 8.77389e-18
8737.12906 8.79418e-18
8741.36710 8.80694e-18
8745.61516 8.81036e-18
8749.86321 8.80346e-18
8754.10125 8.78507e-18
8758.34931 8.75754e-18
8762.58734 8.72443e-18
8766.83540 8.68900e-18
8771.08345 8.65478e-18
8775.32149 8.62551e-18
8779.56955 8.60453e-18
8783.80759 8.59547e-18
8788.05564 8.59401e-18
8792.29368 8.59629e-18
8796.54173 8.59753e-18
8800.78979 8.59476e-18
8805.02783 8.58569e-18
8809.27588 8.56837e-18
8813.51392 8.54101e-18
8817.76198 8.50077e-18
8822.01003 8.44610e-18
8826.24807 8.37410e-18
8830.49612 8.29619e-18
8834.73416 8.22233e-18
8838.98222 8.16388e-18
8843.23027 8.12489e-18
8847.46831 8.10512e-18
8851.71637 8.10564e-18
8855.95440 8.12422e-18
8860.20246 8.14838e-18
8864.44050 8.16766e-18
8868.68855 8.16965e-18
8872.93661 8.15267e-18
8877.17465 8.11540e-18
8881.42270 8.05645e-18
8885.66074 7.97805e-18
8889.90879 7.88493e-18
8894.14683 7.78205e-18
8898.39489 7.67495e-18
8902.64294 7.56909e-18
8906.88098 7.46975e-18
8911.12904 7.38240e-18
8915.36707 7.30791e-18
8919.61513 7.24626e-18
8923.85317 7.19733e-18
8928.10122 7.15848e-18
8932.34928 7.12514e-18
8936.58732 7.09250e-18
8940.83537 7.05560e-18
8945.07341 7.01204e-18
8949.32147 6.95901e-18
8953.55950 6.89530e-18
8957.80756 6.81606e-18
8962.05561 6.71770e-18
8966.29365 6.59580e-18
8970.54171 6.45298e-18
8974.77974 6.29889e-18
8979.02780 6.14194e-18
8983.27586 5.99126e-18
8987.51389 5.85312e-18
8991.76195 5.73413e-18
8995.99999 5.64113e-18
9000.24804 5.57624e-18
9004.49610 5.54019e-18
9008.73414 5.53320e-18
9012.98219 5.55383e-18
9017.22023 5.59906e-18
9021.46828 5.66492e-18
9025.70632 5.74642e-18
9029.95438 5.84251e-18
9034.20243 5.95034e-18
9038.44047 6.06884e-18
9042.68853 6.18784e-18
9046.92656 6.29608e-18
9051.17462 6.38401e-18
9055.42267 6.44289e-18
9059.66071 6.46551e-18
9063.90877 6.44580e-18
9068.14681 6.37804e-18
9072.39486 6.28268e-18
9076.63290 6.17697e-18
9080.88095 6.08207e-18
9085.12901 6.00625e-18
9089.36705 5.95410e-18
9093.61510 5.93111e-18
9097.85314 5.93874e-18
9102.10120 5.97127e-18
9106.34925 6.02292e-18
9110.58729 6.08660e-18
9114.83534 6.15353e-18
9119.07338 6.21497e-18
9123.32144 6.26200e-18
9127.55948 6.28904e-18
9131.80753 6.29284e-18
9136.05559 6.26999e-18
9140.29362 6.22136e-18
9144.54168 6.15730e-18
9148.77972 6.08686e-18
9153.02777 6.02031e-18
9157.27583 5.96491e-18
9161.51387 5.92768e-18
9165.76192 5.91591e-18
9169.99996 5.93192e-18
9174.24802 5.97501e-18
9178.48605 6.04418e-18
9182.73411 6.13600e-18
9186.98216 6.24180e-18
9191.22020 6.35343e-18
9195.46826 6.46252e-18
9199.70629 6.56122e-18
9203.95435 6.64277e-18
9208.19239 6.69877e-18
9212.44044 6.73036e-18
9216.68850 6.74419e-18
9220.92654 6.74641e-18
9225.17459 6.74364e-18
9229.41263 6.73916e-18
9233.66068 6.73724e-18
9237.89872 6.74228e-18
9242.14678 6.75503e-18
9246.39483 6.77566e-18
9250.63287 6.80324e-18
9254.88093 6.83210e-18
9259.11896 6.91948e-18
9263.36702 7.04264e-18
9267.61508 7.16154e-18
9271.85311 7.26037e-18
9276.10117 7.31672e-18
9280.33921 7.32259e-18
9284.58726 7.28934e-18
9288.82530 7.23063e-18
9293.07336 7.15833e-18
9297.32141 7.07831e-18
9301.55945 6.99762e-18
9305.80750 6.92542e-18
9310.04554 6.86250e-18
9314.29360 6.81047e-18
9318.54165 6.76926e-18
9322.77969 6.73984e-18
9327.02775 6.71773e-18
9331.26578 6.69702e-18
9335.51384 6.67260e-18
9339.75188 6.64205e-18
9343.99993 6.60126e-18
9348.24799 6.54577e-18
9352.48603 6.47408e-18
9356.73408 6.38894e-18
9360.97212 6.29483e-18
9365.22017 6.19443e-18
9369.46823 6.08289e-18
9373.70627 5.95609e-18
9377.95432 5.80911e-18
9382.19236 5.65344e-18
9386.44042 5.51230e-18
9390.68847 5.40301e-18
9394.92651 5.34616e-18
9399.17457 5.34749e-18
9403.41260 5.41443e-18
9407.66066 5.54922e-18
9411.89869 5.72733e-18
9416.14675 5.92008e-18
9420.39481 6.09797e-18
9424.63284 6.23547e-18
9428.88090 6.32748e-18
9433.11894 6.36112e-18
9437.36699 6.34059e-18
9441.61505 6.27778e-18
9445.85309 6.18618e-18
9450.10114 6.08317e-18
9454.33918 5.97687e-18
9458.58723 5.87307e-18
9462.82527 5.77943e-18
9467.07333 5.69559e-18
9471.32138 5.62200e-18
9475.55942 5.55681e-18
9479.80748 5.50057e-18
9484.04551 5.45787e-18
9488.29357 5.43215e-18
9492.53161 5.42711e-18
9496.77966 5.44042e-18
9501.02772 5.46747e-18
9505.26576 5.50423e-18
9509.51381 5.54472e-18
9513.75185 5.58485e-18
9517.99991 5.61972e-18
9522.23794 5.64432e-18
9526.48600 5.66074e-18
9530.73405 5.67059e-18
9534.97209 5.67716e-18
9539.22015 5.67752e-18
9543.45818 5.66623e-18
9547.70624 5.63938e-18
9551.94428 5.59564e-18
9556.19233 5.53233e-18
9560.44039 5.44772e-18
9564.67843 5.33935e-18
9568.92648 5.22214e-18
9573.16452 5.11079e-18
9577.41258 5.02015e-18
9581.66063 4.95350e-18
9585.89867 4.90902e-18
9590.14672 4.88645e-18
9594.38476 4.88556e-18
9598.63282 4.89393e-18
9602.88087 4.90006e-18
9607.11891 4.89253e-18
9611.36697 4.88123e-18
9615.60500 4.87683e-18
9619.85306 4.88951e-18
9624.09110 4.91596e-18
9628.33915 4.94762e-18
9632.58721 4.97943e-18
9636.82524 5.00331e-18
9641.07330 5.00942e-18
9645.31134 4.98627e-18
9649.55939 4.92778e-18
9653.80745 4.84584e-18
9658.04549 4.75522e-18
9662.29354 4.67137e-18
9666.53158 4.59714e-18
9670.77964 4.52906e-18
9675.01767 4.46524e-18
9679.26573 4.40628e-18
9683.51378 4.35406e-18
9687.75182 4.30985e-18
9691.99988 4.27269e-18
9696.23791 4.24996e-18
9700.48597 4.25097e-18
9704.73403 4.25309e-18
9708.97206 4.24297e-18
9713.22012 4.22128e-18
9717.45816 4.18568e-18
9721.70621 4.13265e-18
9725.94425 4.06444e-18
9730.19231 3.98319e-18
9734.44036 3.88970e-18
9738.67840 3.79235e-18
9742.92646 3.70032e-18
9747.16449 3.62336e-18
9751.41255 3.56696e-18
9755.66060 3.52882e-18
9759.89864 3.50810e-18
9764.14670 3.50282e-18
9768.38473 3.50815e-18
9772.63279 3.51910e-18
9776.87083 3.52911e-18
9781.11888 3.53603e-18
9785.36694 3.53873e-18
9789.60498 3.53617e-18
9793.85303 3.52704e-18
9798.09107 3.50866e-18
9802.33913 3.47954e-18
9806.57716 3.43867e-18
9810.82522 3.38671e-18
9815.07327 3.32499e-18
9819.31131 3.25345e-18
9823.55937 3.17831e-18
9827.79740 3.10735e-18
9832.04546 3.04831e-18
9836.28350 3.00610e-18
9840.53155 2.97724e-18
9844.77961 2.95989e-18
9849.01765 2.95188e-18
9853.26570 2.94704e-18
9857.50374 2.93978e-18
9861.75180 2.92221e-18
9865.99985 2.89514e-18
9870.23789 2.86319e-18
9874.48594 2.83008e-18
9878.72398 2.79948e-18
9882.97204 2.77294e-18
9887.21007 2.75260e-18
9891.45813 2.74176e-18
9895.70619 2.73511e-18
9899.94422 2.72820e-18
9904.19228 2.71479e-18
9908.43032 2.69536e-18
9912.67837 2.67416e-18
9916.92643 2.65394e-18
9921.16446 2.63780e-18
9925.41252 2.62987e-18
9929.65056 2.63356e-18
9933.89861 2.65442e-18
9938.13665 2.68397e-18
9942.38471 2.71429e-18
9946.63276 2.73536e-18
9950.87080 2.74475e-18
9955.11886 2.74570e-18
9959.35689 2.73985e-18
9963.60495 2.72946e-18
9967.85301 2.71570e-18
9972.09104 2.70030e-18
9976.33910 2.68531e-18
9980.57713 2.67082e-18
9984.82519 2.65662e-18
9989.06323 2.64347e-18
9993.31128 2.62968e-18
9997.55934 2.61161e-18
9998.00455 2.61161e-18
9999.99753 2.63405e-18
