# wavelength flux
3800.64351 7.28902e-18
3802.11410 6.84378e-18
3803.58469 9.74022e-19
3805.04513 -3.53995e-18
3806.51572 1.79010e-18
3807.98631 4.43697e-19
3809.45690 -3.93864e-18
3810.92749 5.31623e-18
3812.39808 7.58872e-18
3813.86867 2.25014e-18
3815.33926 -3.68455e-19
3816.80985 1.24442e-19
3818.28044 1.45932e-18
3819.75103 1.91866e-18
3821.22162 3.84389e-18
3822.69221 -3.66083e-19
3824.16280 1.07905e-18
3825.63339 4.39388e-18
3827.10398 1.79626e-18
3828.57457 3.04803e-18
3830.04516 9.54608e-18
3831.50561 7.02964e-18
3832.97620 1.98438e-18
3834.44679 5.34728e-18
3835.91738 -1.20867e-18
3837.38797 -1.58834e-18
3838.85856 3.17419e-18
3840.32915 1.53306e-18
3841.79974 6.23570e-18
3843.27033 4.56115e-18
3844.74092 1.13599e-17
3846.21151 1.13699e-17
3847.68210 6.54233e-18
3849.15269 3.45996e-18
3850.62328 1.62506e-18
3852.09387 -3.10216e-18
3853.56446 -6.39207e-19
3855.03505 6.45742e-19
3856.49550 1.48647e-18
3857.96609 6.94844e-18
3859.43668 6.48121e-18
3860.90727 5.78202e-18
3862.37786 7.67997e-18
3863.84845 6.87763e-18
3865.31904 3.87150e-18
3866.78963 3.17164e-18
3868.26022 6.83351e-18
3869.73081 8.89066e-18
3871.20140 1.44495e-18
3872.67199 6.91814e-18
3874.14258 5.70767e-18
3875.61317 2.66391e-18
3877.08376 -1.36441e-19
3878.55435 1.66626e-18
3880.02494 1.92772e-18
3881.48539 1.28365e-18
3882.95598 3.46186e-18
3884.42657 6.18279e-18
3885.89716 5.69834e-18
3887.36775 2.26574e-18
3888.83834 4.79727e-18
3890.30893 1.32087e-18
3891.77952 2.40780e-18
3893.25011 5.23313e-18
3894.72070 -1.38295e-18
3896.19129 -1.42231e-18
3897.66188 3.48758e-18
3899.13247 4.32436e-18
3900.60306 4.28288e-18
3902.07365 2.98781e-18
3903.54424 7.15048e-18
3905.01483 5.46836e-18
3906.47528 1.47102e-18
3907.94587 2.77644e-18
3909.41646 1.73480e-18
3910.88705 5.11291e-18
3912.35764 3.41717e-18
3913.82823 4.61235e-18
3915.29882 7.67518e-18
3916.76941 4.23971e-18
3918.24000 1.59031e-18
3919.71059 5.27100e-18
3921.18118 5.17929e-18
3922.65177 2.63531e-18
3924.12236 5.99107e-18
3925.59295 5.37199e-18
3927.06354 3.38536e-18
3928.53413 3.99440e-18
3930.00472 5.82769e-18
3931.46516 6.35558e-18
3932.93575 3.99090e-18
3934.40634 2.39527e-18
3935.87693 5.12113e-18
3937.34752 6.16119e-18
3938.81811 4.30278e-18
3940.28870 5.79675e-18
3941.75929 8.47034e-18
3943.22988 1.01096e-17
3944.70047 8.09377e-18
3946.17106 9.00440e-18
3947.64165 7.70540e-18
3949.11224 6.47097e-18
3950.58283 6.81597e-18
3952.05342 5.22623e-18
3953.52401 6.51460e-18
3954.99460 1.00448e-17
3956.45505 1.06265e-17
3957.92564 9.87191e-18
3959.39623 1.28100e-17
3960.86682 1.08392e-17
3962.33741 7.09633e-18
3963.80800 5.84536e-18
3965.27859 8.98292e-18
3966.74918 1.16059e-17
3968.21977 9.48719e-18
3969.69036 1.09744e-17
3971.16095 2.03778e-17
3972.63154 1.86824e-17
3974.10213 7.74224e-18
3975.57272 1.33845e-17
3977.04331 1.32457e-17
3978.51390 1.03013e-17
3979.98449 9.22496e-18
3981.45508 1.14055e-17
3982.91553 1.13000e-17
3984.38612 1.08501e-17
3985.85671 1.19727e-17
3987.32730 1.18701e-17
3988.79789 1.18678e-17
3990.26848 9.88353e-18
3991.73907 9.99136e-18
3993.20966 1.00131e-17
3994.68025 1.03118e-17
3996.15084 1.08963e-17
3997.62143 1.27545e-17
3999.09202 1.24020e-17
4000.56261 1.02580e-17
4002.03320 1.06422e-17
4003.50379 1.27057e-17
4004.97438 1.09826e-17
4006.44497 9.91259e-18
4007.90542 1.02233e-17
4009.37601 8.84823e-18
4010.84660 1.08529e-17
4012.31719 1.22368e-17
4013.78778 1.26666e-17
4015.25837 1.23445e-17
4016.72896 1.19882e-17
4018.19955 1.22137e-17
4019.67014 1.33113e-17
4021.14073 1.46981e-17
4022.61132 9.83339e-18
4024.08191 1.25089e-17
4025.55250 1.90574e-17
4027.02309 1.60989e-17
4028.49368 1.01427e-17
4029.96427 1.03758e-17
4031.43486 1.55399e-17
4032.89531 1.70458e-17
4034.36590 1.68209e-17
4035.83649 1.83739e-17
4037.30708 1.54878e-17
4038.77767 1.33499e-17
4040.24826 1.50982e-17
4041.71885 1.47661e-17
4043.18944 1.46753e-17
4044.66003 1.30254e-17
4046.13062 1.30850e-17
4047.60121 1.43635e-17
4049.07180 1.55980e-17
4050.54239 1.50185e-17
4052.01298 1.57200e-17
4053.48357 1.87279e-17
4054.95416 1.81737e-17
4056.42475 1.66640e-17
4057.88519 1.63900e-17
4059.35578 1.65432e-17
4060.82637 1.62436e-17
4062.29696 1.60668e-17
4063.76755 1.64372e-17
4065.23814 1.77628e-17
4066.70873 1.81410e-17
4068.17932 1.50606e-17
4069.64991 1.18362e-17
4071.12050 1.49853e-17
4072.59109 1.97726e-17
4074.06168 1.88102e-17
4075.53227 1.68700e-17
4077.00286 1.84415e-17
4078.47345 2.01463e-17
4079.94404 2.02518e-17
4081.41463 1.93378e-17
4082.87508 1.75478e-17
4084.34567 1.75377e-17
4085.81626 1.83118e-17
4087.28685 1.86164e-17
4088.75744 1.62108e-17
4090.22803 1.41304e-17
4091.69862 1.57884e-17
4093.16921 1.79619e-17
4094.63980 1.92301e-17
4096.11039 1.98704e-17
4097.58098 1.76639e-17
4099.05157 1.57426e-17
4100.52216 1.69718e-17
4101.99275 1.81802e-17
4103.46334 1.62728e-17
4104.93393 1.84884e-17
4106.40452 1.99346e-17
4107.87511 1.85115e-17
4109.33556 1.97654e-17
4110.80615 1.85418e-17
4112.27674 1.68944e-17
4113.74733 1.67724e-17
4115.21792 1.72115e-17
4116.68851 1.73189e-17
4118.15910 1.49191e-17
4119.62969 1.42421e-17
4121.10028 1.61746e-17
4122.57087 1.55751e-17
4124.04146 1.62958e-17
4125.51205 1.63134e-17
4126.98264 1.40983e-17
4128.45323 1.43368e-17
4129.92382 1.66854e-17
4131.39441 1.69172e-17
4132.86500 1.60139e-17
4134.32545 1.65627e-17
4135.79604 1.44197e-17
4137.26663 1.36789e-17
4138.73722 1.51133e-17
4140.20781 1.57408e-17
4141.67840 1.35674e-17
4143.14899 1.32589e-17
4144.61958 1.38847e-17
4146.09017 1.48228e-17
4147.56076 1.41261e-17
4149.03135 1.35361e-17
4150.50194 1.25149e-17
4151.97253 1.15790e-17
4153.44312 1.24845e-17
4154.91371 1.46046e-17
4156.38430 1.42428e-17
4157.85489 1.15725e-17
4159.31534 1.02817e-17
4160.78593 1.26445e-17
4162.25652 1.29335e-17
4163.72711 1.38282e-17
4165.19770 1.21912e-17
4166.66829 1.23831e-17
4168.13888 1.30858e-17
4169.60947 1.25430e-17
4171.08006 1.41480e-17
4172.55065 1.46205e-17
4174.02124 1.32306e-17
4175.49183 1.30634e-17
4176.96242 1.37680e-17
4178.43301 1.27501e-17
4179.90360 1.18443e-17
4181.37419 1.24087e-17
4182.84478 1.20583e-17
4184.31537 1.25362e-17
4185.77581 1.22982e-17
4187.24640 1.20559e-17
4188.71699 1.04531e-17
4190.18758 1.21569e-17
4191.65817 1.33728e-17
4193.12876 1.16158e-17
4194.59935 1.29292e-17
4196.06994 1.46058e-17
4197.54053 1.14501e-17
4199.01112 1.16317e-17
4200.48171 1.36201e-17
4201.95230 1.40395e-17
4203.42289 1.38684e-17
4204.89348 1.30275e-17
4206.36407 1.46296e-17
4207.83466 1.33199e-17
4209.29511 1.06119e-17
4210.76570 1.21000e-17
4212.23629 1.29398e-17
4213.70688 1.20407e-17
4215.17747 1.15243e-17
4216.64806 1.05689e-17
4218.11865 1.13496e-17
4219.58924 1.13188e-17
4221.05983 8.83043e-18
4222.53042 1.07088e-17
4224.00101 1.26657e-17
4225.47160 1.06536e-17
4226.94219 1.01880e-17
4228.41278 1.17566e-17
4229.88337 1.10595e-17
4231.35396 1.10239e-17
4232.82455 9.11011e-18
4234.28500 9.45211e-18
4235.75559 1.03202e-17
4237.22618 9.60983e-18
4238.69677 1.10683e-17
4240.16736 1.13538e-17
4241.63795 1.13688e-17
4243.10854 1.13529e-17
4244.57913 1.03097e-17
4246.04972 1.04414e-17
4247.52031 1.10670e-17
4248.99090 1.14715e-17
4250.46149 1.30437e-17
4251.93208 1.19252e-17
4253.40267 9.29799e-18
4254.87326 1.18662e-17
4256.34385 1.11448e-17
4257.81444 9.82840e-18
4259.28503 1.01502e-17
4260.74548 9.74839e-18
4262.21607 1.09777e-17
4263.68666 1.29225e-17
4265.15725 1.15943e-17
4266.62784 1.07461e-17
4268.09843 1.04678e-17
4269.56902 9.32199e-18
4271.03961 8.54089e-18
4272.51020 8.86846e-18
4273.98079 8.26124e-18
4275.45138 9.95568e-18
4276.92197 1.06118e-17
4278.39256 9.33066e-18
4279.86315 9.25904e-18
4281.33374 1.01040e-17
4282.80433 1.01498e-17
4284.27492 1.00821e-17
4285.73537 1.02945e-17
4287.20596 8.82200e-18
4288.67655 8.56302e-18
4290.14714 9.13760e-18
4291.61773 1.00562e-17
4293.08832 1.01383e-17
4294.55891 1.01946e-17
4296.02950 1.06848e-17
4297.50009 9.24568e-18
4298.97068 9.69369e-18
4300.44127 1.03341e-17
4301.91186 8.64172e-18
4303.38245 1.06376e-17
4304.85304 9.32431e-18
4306.32363 9.65983e-18
4307.79422 1.03572e-17
4309.26481 9.19073e-18
4310.73540 9.39101e-18
4312.19584 1.06250e-17
4313.66643 9.69149e-18
4315.13702 1.06685e-17
4316.60761 1.11441e-17
4318.07820 1.06050e-17
4319.54879 9.79067e-18
4321.01938 9.86097e-18
4322.48997 9.09772e-18
4323.96056 8.78277e-18
4325.43115 1.02910e-17
4326.90174 1.04203e-17
4328.37233 1.17628e-17
4329.84292 1.10242e-17
4331.31351 1.14625e-17
4332.78410 1.14178e-17
4334.25469 1.16785e-17
4335.72528 1.03481e-17
4337.18573 9.49217e-18
4338.65632 9.62641e-18
4340.12691 9.83332e-18
4341.59750 9.61744e-18
4343.06809 9.52966e-18
4344.53868 9.04990e-18
4346.00927 8.47837e-18
4347.47986 9.19117e-18
4348.95045 9.11062e-18
4350.42104 9.21128e-18
4351.89163 1.02713e-17
4353.36222 9.75990e-18
4354.83281 1.00166e-17
4356.30340 9.43543e-18
4357.77399 9.24543e-18
4359.24458 8.09384e-18
4360.70503 8.10462e-18
4362.17562 8.93253e-18
4363.64621 8.97743e-18
4365.11680 8.04960e-18
4366.58739 8.07745e-18
4368.05798 9.44005e-18
4369.52857 7.88870e-18
4370.99916 8.40961e-18
4372.46975 8.24619e-18
4373.94034 7.10789e-18
4375.41093 8.34101e-18
4376.88152 8.26925e-18
4378.35211 9.26485e-18
4379.82270 8.58314e-18
4381.29329 7.82168e-18
4382.76388 9.21511e-18
4384.23447 7.65874e-18
4385.70506 7.09140e-18
4387.16551 7.19504e-18
4388.63610 6.16629e-18
4390.10669 7.44052e-18
4391.57728 7.29450e-18
4393.04787 6.67453e-18
4394.51846 7.45944e-18
4395.98905 6.92587e-18
4397.45964 6.77775e-18
4398.93023 6.62853e-18
4400.40082 6.24970e-18
4401.87141 7.69895e-18
4403.34200 7.45312e-18
4404.81259 7.21607e-18
4406.28318 6.99681e-18
4407.75377 7.03984e-18
4409.22436 7.08285e-18
4410.69495 7.12585e-18
4412.15540 7.16885e-18
4413.62599 7.21183e-18
4415.09658 7.25482e-18
4416.56717 7.29778e-18
4418.03776 7.34073e-18
4419.50835 7.38368e-18
4420.97894 7.42663e-18
4422.44953 7.46957e-18
4423.92012 7.51248e-18
4425.39071 7.55540e-18
4426.86130 7.59830e-18
4428.33189 7.64119e-18
4429.80248 7.68407e-18
4431.27307 7.72695e-18
4432.74366 7.76982e-18
4434.21425 7.81267e-18
4435.68484 7.85553e-18
4437.14528 7.89836e-18
4438.61587 7.94118e-18
4440.08646 7.98400e-18
4441.55705 8.02681e-18
4443.02764 8.06961e-18
4444.49823 8.11241e-18
4445.96882 7.14109e-18
4447.43941 5.97426e-18
4448.91000 6.07826e-18
4450.38059 8.23879e-18
4451.85118 7.99648e-18
4453.32177 6.45034e-18
4454.79236 6.69569e-18
4456.26295 8.71162e-18
4457.73354 8.65390e-18
4459.20413 8.35363e-18
4460.67472 8.37261e-18
4462.14531 6.91270e-18
4463.60576 7.56633e-18
4465.07635 8.56940e-18
4466.54694 9.26008e-18
4468.01753 9.45476e-18
4469.48812 9.66055e-18
4470.95871 9.49537e-18
4472.42930 8.48577e-18
4473.89989 9.86744e-18
4475.37048 8.98640e-18
4476.84107 8.27594e-18
4478.31166 8.84184e-18
4479.78225 7.60271e-18
4481.25284 1.05292e-17
4482.72343 1.06546e-17
4484.19402 9.75606e-18
4485.66461 8.28136e-18
4487.12506 7.33706e-18
4488.59565 9.07016e-18
4490.06624 1.03671e-17
4491.53683 1.00291e-17
4493.00742 9.32922e-18
4494.47801 9.57935e-18
4495.94860 9.65024e-18
4497.41919 1.06104e-17
4498.88978 9.83945e-18
4500.36037 9.94763e-18
4501.83096 9.51314e-18
4503.30155 8.77780e-18
4504.77214 1.00012e-17
4506.24273 7.75668e-18
4507.71332 6.54772e-18
4509.18391 8.28713e-18
4510.65450 9.10242e-18
4512.12509 7.70198e-18
4513.58554 7.73010e-18
4515.05613 9.21961e-18
4516.52672 1.03703e-17
4517.99731 8.30399e-18
4519.46790 8.40242e-18
4520.93849 9.95998e-18
4522.40908 8.54705e-18
4523.87967 8.25418e-18
4525.35026 8.28504e-18
4526.82085 8.76500e-18
4528.29144 9.39684e-18
4529.76203 9.65509e-18
4531.23262 8.79963e-18
4532.70321 9.06223e-18
4534.17380 9.94886e-18
4535.64439 9.98734e-18
4537.10484 9.23753e-18
4538.57543 8.11239e-18
4540.04602 8.49977e-18
4541.51661 9.08331e-18
4542.98720 7.49215e-18
4544.45779 8.35120e-18
4545.92838 1.06287e-17
4547.39897 1.05466e-17
4548.86956 9.49097e-18
4550.34015 9.23841e-18
4551.81074 1.00211e-17
4553.28133 1.07687e-17
4554.75192 1.07682e-17
4556.22251 1.14573e-17
4557.69310 1.12778e-17
4559.16369 1.07951e-17
4560.63428 1.13481e-17
4562.10487 1.11465e-17
4563.56531 9.89863e-18
4565.03590 9.72730e-18
4566.50649 9.34832e-18
4567.97708 1.07607e-17
4569.44767 1.23295e-17
4570.91826 1.08616e-17
4572.38885 1.13418e-17
4573.85944 1.18402e-17
4575.33003 1.05735e-17
4576.80062 9.63304e-18
4578.27121 1.09296e-17
4579.74180 1.15948e-17
4581.21239 1.18061e-17
4582.68298 1.19543e-17
4584.15357 1.15606e-17
4585.62416 1.12227e-17
4587.09475 1.19218e-17
4588.55520 1.18001e-17
4590.02579 1.11973e-17
4591.49638 1.23352e-17
4592.96697 1.30321e-17
4594.43756 1.32865e-17
4595.90815 1.33484e-17
4597.37874 1.32241e-17
4598.84933 1.27388e-17
4600.31992 1.21076e-17
4601.79051 1.16418e-17
4603.26110 1.28278e-17
4604.73169 1.34038e-17
4606.20228 1.21108e-17
4607.67287 1.16921e-17
4609.14346 1.32037e-17
4610.61405 1.43776e-17
4612.08464 1.42683e-17
4613.54509 1.42329e-17
4615.01568 1.44120e-17
4616.48627 1.45423e-17
4617.95686 1.39620e-17
4619.42745 1.38329e-17
4620.89804 1.35005e-17
4622.36863 1.32793e-17
4623.83922 1.33418e-17
4625.30981 1.46863e-17
4626.78040 1.64444e-17
4628.25099 1.53607e-17
4629.72158 1.32097e-17
4631.19217 1.36482e-17
4632.66276 1.41860e-17
4634.13335 1.43424e-17
4635.60394 1.46557e-17
4637.07453 1.40419e-17
4638.54512 1.46751e-17
4640.00557 1.60557e-17
4641.47616 1.59612e-17
4642.94675 1.51088e-17
4644.41734 1.46096e-17
4645.88793 1.58943e-17
4647.35852 1.62810e-17
4648.82911 1.52824e-17
4650.29970 1.46149e-17
4651.77029 1.56716e-17
4653.24088 1.71231e-17
4654.71147 1.63713e-17
4656.18206 1.53906e-17
4657.65265 1.51730e-17
4659.12324 1.64904e-17
4660.59383 1.61379e-17
4662.06442 1.56126e-17
4663.52487 1.77944e-17
4664.99546 1.79358e-17
4666.46605 1.64177e-17
4667.93664 1.56867e-17
4669.40723 1.63805e-17
4670.87782 1.79375e-17
4672.34841 1.96771e-17
4673.81900 1.83488e-17
4675.28959 1.63253e-17
4676.76018 1.63993e-17
4678.23077 1.63316e-17
4679.70136 1.65510e-17
4681.17195 1.69292e-17
4682.64254 1.75880e-17
4684.11313 1.66574e-17
4685.58372 1.74937e-17
4687.05431 1.72420e-17
4688.52490 1.69860e-17
4689.98534 1.64375e-17
4691.45593 1.78955e-17
4692.92652 1.76652e-17
4694.39711 1.53984e-17
4695.86770 1.63861e-17
4697.33829 1.81592e-17
4698.80888 1.77802e-17
4700.27947 1.88555e-17
4701.75006 1.84145e-17
4703.22065 1.73237e-17
4704.69124 1.72025e-17
4706.16183 1.81899e-17
4707.63242 1.82433e-17
4709.10301 1.78241e-17
4710.57360 1.76833e-17
4712.04419 1.78978e-17
4713.51478 1.85838e-17
4714.97523 1.87819e-17
4716.44582 1.83237e-17
4717.91641 1.83883e-17
4719.38700 1.82648e-17
4720.85759 1.76171e-17
4722.32818 1.77935e-17
4723.79877 1.90112e-17
4725.26936 1.86499e-17
4726.73995 1.68944e-17
4728.21054 1.80244e-17
4729.68113 1.77692e-17
4731.15172 1.87547e-17
4732.62231 1.92101e-17
4734.09290 1.91955e-17
4735.56349 1.87983e-17
4737.03408 1.77231e-17
4738.50467 1.66069e-17
4739.96512 1.72823e-17
4741.43571 1.81486e-17
4742.90630 1.77116e-17
4744.37689 1.79228e-17
4745.84748 1.80334e-17
4747.31807 1.65689e-17
4748.78866 1.74361e-17
4750.25925 1.71697e-17
4751.72984 1.64626e-17
4753.20043 1.70293e-17
4754.67102 1.69008e-17
4756.14161 1.56465e-17
4757.61220 1.61625e-17
4759.08279 1.66504e-17
4760.55338 1.75191e-17
4762.02397 1.68790e-17
4763.49456 1.73230e-17
4764.96515 1.73682e-17
4766.42560 1.70005e-17
4767.89619 1.72462e-17
4769.36678 1.82312e-17
4770.83737 1.78997e-17
4772.30796 1.60149e-17
4773.77855 1.68446e-17
4775.24914 1.67020e-17
4776.71973 1.66904e-17
4778.19032 1.67525e-17
4779.66091 1.58572e-17
4781.13150 1.64937e-17
4782.60209 1.74344e-17
4784.07268 1.57548e-17
4785.54327 1.46988e-17
4787.01386 1.62234e-17
4788.48445 1.69519e-17
4789.95504 1.74812e-17
4791.41549 1.41952e-17
4792.88608 1.48443e-17
4794.35667 1.53566e-17
4795.82726 1.49658e-17
4797.29785 1.45883e-17
4798.76844 1.40301e-17
4800.23903 1.50285e-17
4801.70962 1.56848e-17
4803.18021 1.51810e-17
4804.65080 1.48405e-17
4806.12139 1.51004e-17
4807.59198 1.44841e-17
4809.06257 1.45347e-17
4810.53316 1.49690e-17
4812.00375 1.37844e-17
4813.47434 1.39672e-17
4814.94493 1.48277e-17
4816.40537 1.51681e-17
4817.87596 1.45774e-17
4819.34655 1.39843e-17
4820.81714 1.28122e-17
4822.28773 1.28249e-17
4823.75832 1.35170e-17
4825.22891 1.39643e-17
4826.69950 1.37587e-17
4828.17009 1.22817e-17
4829.64068 1.12372e-17
4831.11127 1.30534e-17
4832.58186 1.25927e-17
4834.05245 1.28619e-17
4835.52304 1.16519e-17
4836.99363 1.23053e-17
4838.46422 1.29816e-17
4839.93481 1.20893e-17
4841.39526 1.25746e-17
4842.86585 1.12991e-17
4844.33644 1.18868e-17
4845.80703 1.24908e-17
4847.27762 1.17685e-17
4848.74821 9.57982e-18
4850.21880 1.19703e-17
4851.68939 1.28529e-17
4853.15998 1.16118e-17
4854.63057 1.12263e-17
4856.10116 1.09456e-17
4857.57175 1.05506e-17
4859.04234 1.02721e-17
4860.51293 1.09246e-17
4861.98352 1.11312e-17
4863.45411 1.01493e-17
4864.92470 1.00693e-17
4866.38515 1.03037e-17
4867.85574 1.00534e-17
4869.32633 9.40050e-18
4870.79692 1.04143e-17
4872.26751 1.01259e-17
4873.73810 9.28881e-18
4875.20869 1.03385e-17
4876.67928 9.87060e-18
4878.14987 8.91311e-18
4879.62046 7.87943e-18
4881.09105 8.22256e-18
4882.56164 1.04450e-17
4884.03223 9.71435e-18
4885.50282 8.37566e-18
4886.97341 8.14714e-18
4888.44400 8.38674e-18
4889.91459 7.59564e-18
4891.38518 7.97872e-18
4892.84563 8.63481e-18
4894.31622 7.85403e-18
4895.78681 7.74983e-18
4897.25740 8.30479e-18
4898.72799 7.94043e-18
4900.19858 6.78012e-18
4901.66917 7.02432e-18
4903.13976 6.43471e-18
4904.61035 4.92799e-18
4906.08094 5.44498e-18
4907.55153 6.67657e-18
4909.02212 6.79714e-18
4910.49271 6.95251e-18
4911.96330 6.64689e-18
4913.43389 6.64939e-18
4914.90448 6.65190e-18
4916.37507 6.65441e-18
4917.83552 6.65691e-18
4919.30611 6.65941e-18
4920.77670 6.66192e-18
4922.24729 6.66442e-18
4923.71788 6.66692e-18
4925.18847 6.66942e-18
4926.65906 6.67193e-18
4928.12965 6.67443e-18
4929.60024 6.67693e-18
4931.07083 6.67943e-18
4932.54142 6.68193e-18
4934.01201 6.68443e-18
4935.48260 6.68693e-18
4936.95319 6.68943e-18
4938.42378 6.69192e-18
4939.89437 6.69442e-18
4941.36496 6.69692e-18
4942.82540 6.69941e-18
4944.29599 6.70191e-18
4945.76658 6.70441e-18
4947.23717 6.70690e-18
4948.70776 6.70940e-18
4950.17835 6.64273e-18
4951.64894 6.60773e-18
4953.11953 8.45040e-18
4954.59012 8.90416e-18
4956.06071 7.70012e-18
4957.53130 6.63768e-18
4959.00189 7.47674e-18
4960.47248 7.75058e-18
4961.94307 8.53382e-18
4963.41366 7.84522e-18
4964.88425 8.67143e-18
4966.35484 8.75110e-18
4967.81529 7.71451e-18
4969.28588 8.14736e-18
4970.75647 8.09914e-18
4972.22706 8.74664e-18
4973.69765 9.13561e-18
4975.16824 8.32168e-18
4976.63883 7.87668e-18
4978.10942 8.83614e-18
4979.58001 9.12645e-18
4981.05060 8.98387e-18
4982.52119 9.93929e-18
4983.99178 9.31869e-18
4985.46237 8.91003e-18
4986.93296 8.37371e-18
4988.40355 9.75844e-18
4989.87414 1.11247e-17
4991.34473 1.13921e-17
4992.80518 1.03661e-17
4994.27577 1.08945e-17
4995.74636 1.23119e-17
4997.21695 1.11570e-17
4998.68754 1.03364e-17
5000.15813 1.12513e-17
5001.62872 1.15709e-17
5003.09931 1.15213e-17
5004.56990 1.09874e-17
5006.04049 1.14768e-17
5007.51108 1.31406e-17
5008.98167 1.45091e-17
5010.45226 1.35091e-17
5011.92285 1.36651e-17
5013.39344 1.38213e-17
5014.86403 1.39773e-17
5016.33462 1.41334e-17
5017.79507 1.42894e-17
5019.26566 1.44454e-17
5020.73625 1.46013e-17
5022.20684 1.47572e-17
5023.67743 1.49131e-17
5025.14802 1.50690e-17
5026.61861 1.52248e-17
5028.08920 1.53806e-17
5029.55979 1.55363e-17
5031.03038 1.56920e-17
5032.50097 1.58477e-17
5033.97156 1.60034e-17
5035.44215 1.61589e-17
5036.91274 1.63146e-17
5038.38333 1.64701e-17
5039.85392 1.66256e-17
5041.32451 1.67810e-17
5042.79510 1.69365e-17
5044.25555 1.70919e-17
5045.72614 1.72473e-17
5047.19673 1.74027e-17
5048.66732 1.75580e-17
5050.13791 1.71438e-17
5051.60850 1.85107e-17
5053.07909 1.79943e-17
5054.54968 1.74144e-17
5056.02027 1.83299e-17
5057.49086 1.80098e-17
5058.96145 1.87528e-17
5060.43204 1.86926e-17
5061.90263 1.86325e-17
5063.37322 1.85723e-17
5064.84381 1.85121e-17
5066.31440 1.84520e-17
5067.78499 1.83919e-17
5069.24543 1.83318e-17
5070.71602 1.82716e-17
5072.18661 1.82116e-17
5073.65720 1.81515e-17
5075.12779 1.80914e-17
5076.59838 1.80314e-17
5078.06897 1.79713e-17
5079.53956 1.79113e-17
5081.01015 1.78513e-17
5082.48074 1.77913e-17
5083.95133 1.77313e-17
5085.42192 1.76714e-17
5086.89251 1.76114e-17
5088.36310 1.75515e-17
5089.83369 1.74916e-17
5091.30428 1.74317e-17
5092.77487 1.73717e-17
5094.24546 1.73118e-17
5095.70591 1.72520e-17
5097.17650 1.71921e-17
5098.64709 1.70486e-17
5100.11768 1.64234e-17
5101.58827 1.55643e-17
5103.05886 1.66416e-17
5104.52945 1.69873e-17
5106.00004 1.61904e-17
5107.47063 1.56050e-17
5108.94122 1.52404e-17
5110.41181 1.44236e-17
5111.88240 1.45800e-17
5113.35299 1.55285e-17
5114.82358 1.49181e-17
5116.29417 1.33651e-17
5117.75462 1.31980e-17
5119.22521 1.44277e-17
5120.69580 1.41132e-17
5122.16639 1.29371e-17
5123.63698 1.27541e-17
5125.10757 1.27323e-17
5126.57816 1.22102e-17
5128.04875 1.26625e-17
5129.51934 1.30783e-17
5130.98993 1.22138e-17
5132.46052 1.27746e-17
5133.93111 1.26163e-17
5135.40170 1.06942e-17
5136.87229 1.06923e-17
5138.34288 1.08847e-17
5139.81347 1.08859e-17
5141.28406 1.16454e-17
5142.75465 1.16267e-17
5144.22524 1.13398e-17
5145.68569 1.13061e-17
5147.15628 1.04880e-17
5148.62687 1.10317e-17
5150.09746 1.19735e-17
5151.56805 1.21113e-17
5153.03864 1.17590e-17
5154.50923 1.05540e-17
5155.97982 1.08934e-17
5157.45041 1.08795e-17
5158.92100 1.07640e-17
5160.39159 1.02477e-17
5161.86218 1.02912e-17
5163.33277 1.05788e-17
5164.80336 1.04627e-17
5166.27395 1.15067e-17
5167.74454 1.20261e-17
5169.20499 1.14651e-17
5170.67558 1.11596e-17
5172.14617 1.15794e-17
5173.61676 1.08882e-17
5175.08735 1.10862e-17
5176.55794 1.26040e-17
5178.02853 1.26906e-17
5179.49912 1.20711e-17
5180.96971 1.24511e-17
5182.44030 1.19279e-17
5183.91089 1.21218e-17
5185.38148 1.25421e-17
5186.85207 1.24264e-17
5188.32266 1.25653e-17
5189.79325 1.24692e-17
5191.26384 1.22168e-17
5192.73443 1.22393e-17
5194.20502 1.25302e-17
5195.66546 1.33678e-17
5197.13605 1.36301e-17
5198.60664 1.26812e-17
5200.07723 1.29766e-17
5201.54782 1.31490e-17
5203.01841 1.27674e-17
5204.48900 1.30044e-17
5205.95959 1.27729e-17
5207.43018 1.21107e-17
5208.90077 1.23708e-17
5210.37136 1.34010e-17
5211.84195 1.39567e-17
5213.31254 1.33789e-17
5214.78313 1.27615e-17
5216.25372 1.31623e-17
5217.72431 1.25115e-17
5219.19490 1.26089e-17
5220.65535 1.33132e-17
5222.12594 1.37436e-17
5223.59653 1.45148e-17
5225.06712 1.42238e-17
5226.53771 1.42843e-17
5228.00830 1.44392e-17
5229.47889 1.41635e-17
5230.94948 1.33901e-17
5232.42007 1.22539e-17
5233.89066 1.27117e-17
5235.36125 1.28752e-17
5236.83184 1.25940e-17
5238.30243 1.28388e-17
5239.77302 1.27399e-17
5241.24361 1.32126e-17
5242.71420 1.28829e-17
5244.18479 1.28099e-17
5245.64524 1.27086e-17
5247.11583 1.24890e-17
5248.58642 1.29586e-17
5250.05701 1.26957e-17
5251.52760 1.15883e-17
5252.99819 1.28777e-17
5254.46878 1.44920e-17
5255.93937 1.33890e-17
5257.40996 1.17541e-17
5258.88055 1.28238e-17
5260.35114 1.34388e-17
5261.82173 1.35133e-17
5263.29232 1.20023e-17
5264.76291 1.18332e-17
5266.23350 1.24952e-17
5267.70409 1.31092e-17
5269.17468 1.23994e-17
5270.64527 1.23225e-17
5272.10572 1.31477e-17
5273.57631 1.35411e-17
5275.04690 1.31124e-17
5276.51749 1.31380e-17
5277.98808 1.21673e-17
5279.45867 1.28806e-17
5280.92926 1.31825e-17
5282.39985 1.28378e-17
5283.87044 1.22823e-17
5285.34103 1.28503e-17
5286.81162 1.21745e-17
5288.28221 1.14983e-17
5289.75280 1.16347e-17
5291.22339 1.14097e-17
5292.69398 1.21802e-17
5294.16457 1.27770e-17
5295.62502 1.29191e-17
5297.09561 1.26051e-17
5298.56620 1.14689e-17
5300.03679 1.09773e-17
5301.50738 1.29166e-17
5302.97797 1.22857e-17
5304.44856 1.23058e-17
5305.91915 1.33129e-17
5307.38974 1.25090e-17
5308.86033 1.25628e-17
5310.33092 1.28798e-17
5311.80151 1.28343e-17
5313.27210 1.35440e-17
5314.74269 1.36539e-17
5316.21328 1.34547e-17
5317.68387 1.24201e-17
5319.15446 1.20293e-17
5320.62505 1.26584e-17
5322.08549 1.30029e-17
5323.55608 1.35937e-17
5325.02667 1.31986e-17
5326.49726 1.40811e-17
5327.96785 1.36240e-17
5329.43844 1.23698e-17
5330.90903 1.37016e-17
5332.37962 1.45600e-17
5333.85021 1.43657e-17
5335.32080 1.42968e-17
5336.79139 1.40193e-17
5338.26198 1.45163e-17
5339.73257 1.46798e-17
5341.20316 1.44708e-17
5342.67375 1.55963e-17
5344.14434 1.49820e-17
5345.61493 1.43044e-17
5347.07538 1.52969e-17
5348.54597 1.61373e-17
5350.01656 1.49776e-17
5351.48715 1.39173e-17
5352.95774 1.49024e-17
5354.42833 1.57713e-17
5355.89892 1.50625e-17
5357.36951 1.52395e-17
5358.84010 1.56082e-17
5360.31069 1.53280e-17
5361.78128 1.60711e-17
5363.25187 1.66014e-17
5364.72246 1.59140e-17
5366.19305 1.49730e-17
5367.66364 1.52976e-17
5369.13423 1.51135e-17
5370.60482 1.48812e-17
5372.06527 1.48718e-17
5373.53586 1.56652e-17
5375.00645 1.57176e-17
5376.47704 1.48025e-17
5377.94763 1.60643e-17
5379.41822 1.74569e-17
5380.88881 1.64263e-17
5382.35940 1.50228e-17
5383.82999 1.49414e-17
5385.30058 1.65776e-17
5386.77117 1.72576e-17
5388.24176 1.76610e-17
5389.71235 1.64427e-17
5391.18294 1.70616e-17
5392.65353 1.73358e-17
5394.12412 1.71381e-17
5395.59471 1.61151e-17
5397.06530 1.65638e-17
5398.52575 1.68552e-17
5399.99634 1.79477e-17
5401.46693 1.67350e-17
5402.93752 1.79931e-17
5404.40811 1.77230e-17
5405.87870 1.63781e-17
5407.34929 1.71269e-17
5408.81988 1.61452e-17
5410.29047 1.55853e-17
5411.76106 1.64932e-17
5413.23165 1.78821e-17
5414.70224 1.66644e-17
5416.17283 1.61431e-17
5417.64342 1.82514e-17
5419.11401 1.78514e-17
5420.58460 1.80942e-17
5422.04505 1.76272e-17
5423.51564 1.76648e-17
5424.98623 1.80009e-17
5426.45682 1.60913e-17
5427.92741 1.57527e-17
5429.39800 1.62203e-17
5430.86859 1.66655e-17
5432.33918 1.86403e-17
5433.80977 1.66161e-17
5435.28036 1.66607e-17
5436.75095 1.74019e-17
5438.22154 1.62857e-17
5439.69213 1.67183e-17
5441.16272 1.57540e-17
5442.63331 1.66926e-17
5444.10390 1.70772e-17
5445.57449 1.60768e-17
5447.04508 1.64884e-17
5448.50552 1.67566e-17
5449.97611 1.70131e-17
5451.44670 1.69634e-17
5452.91729 1.66164e-17
5454.38788 1.60784e-17
5455.85847 1.63355e-17
5457.32906 1.67235e-17
5458.79965 1.62509e-17
5460.27024 1.70687e-17
5461.74083 1.71568e-17
5463.21142 1.64675e-17
5464.68201 1.67752e-17
5466.15260 1.64407e-17
5467.62319 1.60881e-17
5469.09378 1.69160e-17
5470.56437 1.65418e-17
5472.03496 1.59382e-17
5473.49541 1.70353e-17
5474.96600 1.73891e-17
5476.43659 1.63162e-17
5477.90718 1.61788e-17
5479.37777 1.59290e-17
5480.84836 1.51644e-17
5482.31895 1.66460e-17
5483.78954 1.78414e-17
5485.26013 1.61290e-17
5486.73072 1.48178e-17
5488.20131 1.59499e-17
5489.67190 1.71708e-17
5491.14249 1.65434e-17
5492.61308 1.59669e-17
5494.08367 1.57224e-17
5495.55426 1.51406e-17
5497.02485 1.56543e-17
5498.48530 1.67131e-17
5499.95589 1.63376e-17
5501.42648 1.53237e-17
5502.89707 1.60273e-17
5504.36766 1.54029e-17
5505.83825 1.56033e-17
5507.30884 1.63371e-17
5508.77943 1.54279e-17
5510.25002 1.52429e-17
5511.72061 1.62761e-17
5513.19120 1.56802e-17
5514.66179 1.60018e-17
5516.13238 1.59652e-17
5517.60297 1.57697e-17
5519.07356 1.65749e-17
5520.54415 1.65579e-17
5522.01474 1.60157e-17
5523.48533 1.59048e-17
5524.94578 1.71536e-17
5526.41637 1.76549e-17
5527.88696 1.63037e-17
5529.35755 1.66306e-17
5530.82814 1.63600e-17
5532.29873 1.55667e-17
5533.76932 1.52899e-17
5535.23991 1.64252e-17
5536.71050 1.68665e-17
5538.18109 1.77848e-17
5539.65168 1.69885e-17
5541.12227 1.54850e-17
5542.59286 1.63633e-17
5544.06345 1.64461e-17
5545.53404 1.81750e-17
5547.00463 1.81397e-17
5548.47522 1.75218e-17
5549.93567 1.70663e-17
5551.40626 1.67084e-17
5552.87685 1.67635e-17
5554.34744 1.71399e-17
5555.81803 1.73073e-17
5557.28862 1.77028e-17
5558.75921 1.85932e-17
5560.22980 1.82502e-17
5561.70039 1.86896e-17
5563.17098 1.82671e-17
5564.64157 1.78166e-17
5566.11216 1.69867e-17
5567.58275 1.78337e-17
5569.05334 1.87537e-17
5570.52393 1.85417e-17
5571.99452 1.70432e-17
5573.46511 1.74089e-17
5574.92555 1.69633e-17
5576.39614 1.64409e-17
5577.86673 1.86691e-17
5579.33732 2.00057e-17
5580.80791 1.93702e-17
5582.27850 1.75221e-17
5583.74909 1.80202e-17
5585.21968 1.83015e-17
5586.69027 1.74437e-17
5588.16086 1.69235e-17
5589.63145 1.77762e-17
5591.10204 1.84044e-17
5592.57263 1.82246e-17
5594.04322 1.85696e-17
5595.51381 1.85891e-17
5596.98440 1.87325e-17
5598.45499 1.86109e-17
5599.91544 1.83007e-17
5601.38603 1.81670e-17
5602.85662 1.81908e-17
5604.32721 1.82500e-17
5605.79780 1.82989e-17
5607.26839 1.86026e-17
5608.73898 1.75920e-17
5610.20957 1.67482e-17
5611.68016 1.75586e-17
5613.15075 1.81596e-17
5614.62134 1.77060e-17
5616.09193 1.76294e-17
5617.56252 1.79647e-17
5619.03311 1.71051e-17
5620.50370 1.70846e-17
5621.97429 1.72824e-17
5623.44488 1.65260e-17
5624.90533 1.64657e-17
5626.37592 1.71113e-17
5627.84651 1.65377e-17
5629.31710 1.59708e-17
5630.78769 1.61678e-17
5632.25828 1.59593e-17
5633.72887 1.55574e-17
5635.19946 1.59111e-17
5636.67005 1.56784e-17
5638.14064 1.51067e-17
5639.61123 1.55385e-17
5641.08182 1.58274e-17
5642.55241 1.60804e-17
5644.02300 1.60295e-17
5645.49359 1.50441e-17
5646.96418 1.55107e-17
5648.43477 1.58095e-17
5649.89522 1.50971e-17
5651.36581 1.55182e-17
5652.83640 1.57964e-17
5654.30699 1.54579e-17
5655.77758 1.52029e-17
5657.24817 1.47053e-17
5658.71876 1.48015e-17
5660.18935 1.57649e-17
5661.65994 1.54278e-17
5663.13053 1.55263e-17
5664.60112 1.66278e-17
5666.07171 1.57390e-17
5667.54230 1.48652e-17
5669.01289 1.51109e-17
5670.48348 1.49467e-17
5671.95407 1.44041e-17
5673.42466 1.39771e-17
5674.89525 1.49773e-17
5676.35570 1.55099e-17
5677.82629 1.49124e-17
5679.29688 1.38035e-17
5680.76747 1.32631e-17
5682.23806 1.38044e-17
5683.70865 1.43066e-17
5685.17924 1.39346e-17
5686.64983 1.32996e-17
5688.12042 1.34844e-17
5689.59101 1.35728e-17
5691.06160 1.28581e-17
5692.53219 1.34080e-17
5694.00278 1.37473e-17
5695.47337 1.32255e-17
5696.94396 1.29923e-17
5698.41455 1.23967e-17
5699.88514 1.28484e-17
5701.34558 1.34276e-17
5702.81617 1.29048e-17
5704.28676 1.21719e-17
5705.75735 1.17713e-17
5707.22794 1.23086e-17
5708.69853 1.23639e-17
5710.16912 1.23249e-17
5711.63971 1.18904e-17
5713.11030 1.06225e-17
5714.58089 1.02412e-17
5716.05148 1.07456e-17
5717.52207 1.16140e-17
5718.99266 1.14422e-17
5720.46325 1.04708e-17
5721.93384 9.73551e-18
5723.40443 1.02426e-17
5724.87502 1.07293e-17
5726.33547 9.82965e-18
5727.80606 9.47388e-18
5729.27665 9.20036e-18
5730.74724 8.34066e-18
5732.21783 8.03809e-18
5733.68842 7.90467e-18
5735.15901 8.07905e-18
5736.62960 8.15204e-18
5738.10019 7.90756e-18
5739.57078 7.66497e-18
5741.04137 6.98147e-18
5742.51196 7.16892e-18
5743.98255 7.79875e-18
5745.45314 7.16725e-18
5746.92373 6.50857e-18
5748.39432 6.78036e-18
5749.85477 7.14485e-18
5751.32536 7.11229e-18
5752.79595 7.15991e-18
5754.26654 6.74893e-18
5755.73713 5.69165e-18
5757.20772 5.55570e-18
5758.67831 6.64005e-18
5760.14890 7.72741e-18
5761.61949 7.72401e-18
5763.09008 7.13681e-18
5764.56067 6.65298e-18
5766.03126 6.19021e-18
5767.50185 5.69804e-18
5768.97244 5.07548e-18
5770.44303 4.95130e-18
5771.91362 5.76261e-18
5773.38421 5.29591e-18
5774.85480 5.14046e-18
5776.31525 6.48441e-18
5777.78584 6.74859e-18
5779.25643 6.02240e-18
5780.72702 6.30601e-18
5782.19761 6.37925e-18
5783.66820 5.56404e-18
5785.13879 5.31241e-18
5786.60938 6.32476e-18
5788.07997 7.26004e-18
5789.55056 7.37042e-18
5791.02115 6.75394e-18
5792.49174 6.03302e-18
5793.96233 6.29658e-18
5795.43292 6.90080e-18
5796.90351 7.03822e-18
5798.37410 6.76519e-18
5799.84469 6.93398e-18
5801.30514 6.62844e-18
5802.77573 6.94980e-18
5804.24632 7.58091e-18
5805.71691 6.53340e-18
5807.18750 6.47934e-18
5808.65809 7.34261e-18
5810.12868 7.76955e-18
5811.59927 8.18404e-18
5813.06986 8.01848e-18
5814.54045 7.93461e-18
5816.01104 8.07815e-18
5817.48163 8.13389e-18
5818.95222 8.38181e-18
5820.42281 8.95574e-18
5821.89340 8.70380e-18
5823.36399 7.71458e-18
5824.83458 8.11411e-18
5826.30517 9.12171e-18
5827.76561 9.20274e-18
5829.23620 8.96926e-18
5830.70679 9.08975e-18
5832.17738 9.56103e-18
5833.64797 9.67406e-18
5835.11856 9.62819e-18
5836.58915 9.63747e-18
5838.05974 9.48215e-18
5839.53033 1.00423e-17
5841.00092 1.00094e-17
5842.47151 1.00475e-17
5843.94210 1.03188e-17
5845.41269 1.04467e-17
5846.88328 1.17598e-17
5848.35387 1.21342e-17
5849.82446 1.08109e-17
5851.29505 1.13634e-17
5852.75550 1.25924e-17
5854.22609 1.24562e-17
5855.69668 1.18298e-17
5857.16727 1.17854e-17
5858.63786 1.24620e-17
5860.10845 1.35574e-17
5861.57904 1.40504e-17
5863.04963 1.35816e-17
5864.52022 1.43812e-17
5865.99081 1.45005e-17
5867.46140 1.44601e-17
5868.93199 1.48551e-17
5870.40258 1.47993e-17
5871.87317 1.40027e-17
5873.34376 1.55413e-17
5874.81435 1.60620e-17
5876.27480 1.59052e-17
5877.74539 1.57208e-17
5879.21598 1.55420e-17
5880.68657 1.70336e-17
5882.15716 1.75711e-17
5883.62775 1.68942e-17
5885.09834 1.68024e-17
5886.56893 1.72937e-17
5888.03952 1.64352e-17
5889.51011 1.63220e-17
5890.98070 1.62671e-17
5892.45129 1.65935e-17
5893.92188 1.67156e-17
5895.39247 1.58240e-17
5896.86306 1.69343e-17
5898.33365 1.80684e-17
5899.80424 1.78083e-17
5901.27483 1.82848e-17
5902.74542 1.85551e-17
5904.20587 1.83356e-17
5905.67646 1.92363e-17
5907.14705 1.85764e-17
5908.61764 1.84652e-17
5910.08823 1.78291e-17
5911.55882 1.99746e-17
5913.02941 2.06466e-17
5914.50000 2.02518e-17
5915.97059 1.96708e-17
5917.44118 1.92719e-17
5918.91177 1.98901e-17
5920.38236 1.95606e-17
5921.85295 1.88782e-17
5923.32354 2.08322e-17
5924.79413 2.02518e-17
5926.26472 2.03112e-17
5927.72517 2.12460e-17
5929.19576 2.06509e-17
5930.66635 2.07769e-17
5932.13694 2.04572e-17
5933.60753 1.97721e-17
5935.07812 2.04383e-17
5936.54871 2.16544e-17
5938.01930 2.07686e-17
5939.48989 2.02707e-17
5940.96048 2.11224e-17
5942.43107 2.09126e-17
5943.90166 2.15078e-17
5945.37225 2.17061e-17
5946.84284 2.07425e-17
5948.31343 2.02583e-17
5949.78402 2.03921e-17
5951.25461 1.99869e-17
5952.72520 1.95961e-17
5954.18564 2.08626e-17
5955.65623 2.08248e-17
5957.12682 2.06472e-17
5958.59741 1.99770e-17
5960.06800 2.05114e-17
5961.53859 2.13601e-17
5963.00918 1.97278e-17
5964.47977 1.89867e-17
5965.95036 2.17038e-17
5967.42095 2.04372e-17
5968.89154 1.95174e-17
5970.36213 1.97755e-17
5971.83272 1.90264e-17
5973.30331 2.00114e-17
5974.77390 1.98842e-17
5976.24449 2.04018e-17
5977.71508 2.10202e-17
5979.17553 1.99612e-17
5980.64612 2.07848e-17
5982.11671 2.08031e-17
5983.58730 2.03047e-17
5985.05789 1.96501e-17
5986.52848 2.04629e-17
5987.99907 1.96279e-17
5989.46966 1.93620e-17
5990.94025 1.93864e-17
5992.41084 1.85555e-17
5993.88143 1.84034e-17
5995.35202 1.97167e-17
5996.82261 2.01381e-17
5998.29320 1.98861e-17
5999.76379 1.78261e-17
6001.23438 2.00954e-17
6002.70497 1.90308e-17
6004.16542 1.92623e-17
6005.63601 2.00903e-17
6007.10660 1.93133e-17
6008.57719 1.92181e-17
6010.04778 1.84434e-17
6011.51837 1.91681e-17
6012.98896 1.90690e-17
6014.45955 1.94863e-17
6015.93014 1.98411e-17
6017.40073 1.95605e-17
6018.87132 1.93937e-17
6020.34191 1.86406e-17
6021.81250 1.99259e-17
6023.28309 2.01341e-17
6024.75368 1.97803e-17
6026.22427 1.87004e-17
6027.69486 1.98122e-17
6029.16545 1.91536e-17
6030.62590 1.84547e-17
6032.09649 1.88722e-17
6033.56708 1.85941e-17
6035.03767 1.92583e-17
6036.50826 1.97963e-17
6037.97885 1.88242e-17
6039.44944 1.87804e-17
6040.92003 1.93556e-17
6042.39062 1.85305e-17
6043.86121 1.89295e-17
6045.33180 1.88405e-17
6046.80239 1.87388e-17
6048.27298 1.88205e-17
6049.74357 1.88666e-17
6051.21416 1.83703e-17
6052.68475 1.82253e-17
6054.14520 1.81415e-17
6055.61579 1.82754e-17
6057.08638 1.85420e-17
6058.55697 1.80902e-17
6060.02756 1.77154e-17
6061.49815 1.82024e-17
6062.96874 1.85289e-17
6064.43933 1.78641e-17
6065.90992 1.81246e-17
6067.38051 1.80797e-17
6068.85110 1.83722e-17
6070.32169 1.82669e-17
6071.79228 1.70406e-17
6073.26287 1.66407e-17
6074.73346 1.69981e-17
6076.20405 1.63991e-17
6077.67464 1.65428e-17
6079.14523 1.72431e-17
6080.60567 1.66460e-17
6082.07626 1.66854e-17
6083.54685 1.75542e-17
6085.01744 1.78400e-17
6086.48803 1.69551e-17
6087.95862 1.67188e-17
6089.42921 1.68121e-17
6090.89980 1.65504e-17
6092.37039 1.56467e-17
6093.84098 1.54858e-17
6095.31157 1.54768e-17
6096.78216 1.55580e-17
6098.25275 1.51415e-17
6099.72334 1.51800e-17
6101.19393 1.52598e-17
6102.66452 1.70471e-17
6104.13511 1.68912e-17
6105.59556 1.56700e-17
6107.06615 1.44282e-17
6108.53674 1.46310e-17
6110.00733 1.56541e-17
6111.47792 1.56963e-17
6112.94851 1.52318e-17
6114.41910 1.56165e-17
6115.88969 1.56612e-17
6117.36028 1.47759e-17
6118.83087 1.54734e-17
6120.30146 1.47214e-17
6121.77205 1.34374e-17
6123.24264 1.47052e-17
6124.71323 1.62298e-17
6126.18382 1.54195e-17
6127.65441 1.41596e-17
6129.12500 1.46691e-17
6130.58545 1.42892e-17
6132.05604 1.47127e-17
6133.52663 1.45214e-17
6134.99722 1.45560e-17
6136.46781 1.48241e-17
6137.93840 1.38925e-17
6139.40899 1.42557e-17
6140.87958 1.51721e-17
6142.35017 1.40992e-17
6143.82076 1.35329e-17
6145.29135 1.38198e-17
6146.76194 1.44257e-17
6148.23253 1.40130e-17
6149.70312 1.31886e-17
6151.17371 1.32896e-17
6152.64430 1.48387e-17
6154.11489 1.49264e-17
6155.58548 1.34207e-17
6157.04593 1.35848e-17
6158.51652 1.34451e-17
6159.98711 1.29360e-17
6161.45770 1.31066e-17
6162.92829 1.29368e-17
6164.39888 1.32452e-17
6165.86947 1.45083e-17
6167.34006 1.40836e-17
6168.81065 1.42085e-17
6170.28124 1.42163e-17
6171.75183 1.29349e-17
6173.22242 1.35417e-17
6174.69301 1.43333e-17
6176.16360 1.37388e-17
6177.63419 1.32113e-17
6179.10478 1.39475e-17
6180.56523 1.37457e-17
6182.03582 1.29286e-17
6183.50641 1.34504e-17
6184.97700 1.34796e-17
6186.44759 1.37472e-17
6187.91818 1.43249e-17
6189.38877 1.45347e-17
6190.85936 1.43406e-17
6192.32995 1.32013e-17
6193.80054 1.27024e-17
6195.27113 1.36657e-17
6196.74172 1.43940e-17
6198.21231 1.39796e-17
6199.68290 1.35156e-17
6201.15349 1.39831e-17
6202.62408 1.41068e-17
6204.09467 1.30623e-17
6205.55511 1.34917e-17
6207.02570 1.44728e-17
6208.49629 1.37599e-17
6209.96688 1.29319e-17
6211.43747 1.33381e-17
6212.90806 1.36945e-17
6214.37865 1.32218e-17
6215.84924 1.31524e-17
6217.31983 1.27377e-17
6218.79042 1.28123e-17
6220.26101 1.28875e-17
6221.73160 1.28988e-17
6223.20219 1.31983e-17
6224.67278 1.30806e-17
6226.14337 1.24583e-17
6227.61396 1.27794e-17
6229.08455 1.29918e-17
6230.54500 1.31498e-17
6232.01559 1.35345e-17
6233.48618 1.22493e-17
6234.95677 1.19920e-17
6236.42736 1.30337e-17
6237.89795 1.31639e-17
6239.36854 1.26022e-17
6240.83913 1.26098e-17
6242.30972 1.33735e-17
6243.78031 1.30094e-17
6245.25090 1.27780e-17
6246.72149 1.28063e-17
6248.19208 1.32195e-17
6249.66267 1.34840e-17
6251.13326 1.27842e-17
6252.60385 1.22875e-17
6254.07444 1.25023e-17
6255.54503 1.32345e-17
6257.00548 1.32351e-17
6258.47607 1.28325e-17
6259.94666 1.32283e-17
6261.41725 1.35939e-17
6262.88784 1.31218e-17
6264.35843 1.38757e-17
6265.82902 1.49817e-17
6267.29961 1.40756e-17
6268.77020 1.34717e-17
6270.24079 1.30700e-17
6271.71138 1.29628e-17
6273.18197 1.44108e-17
6274.65256 1.48958e-17
6276.12315 1.39250e-17
6277.59374 1.33678e-17
6279.06433 1.39537e-17
6280.53492 1.37169e-17
6281.99537 1.34001e-17
6283.46596 1.39614e-17
6284.93655 1.42697e-17
6286.40714 1.44982e-17
6287.87773 1.47640e-17
6289.34832 1.44063e-17
6290.81891 1.39724e-17
6292.28950 1.45528e-17
6293.76009 1.47683e-17
6295.23068 1.43701e-17
6296.70127 1.41619e-17
6298.17186 1.43314e-17
6299.64245 1.40478e-17
6301.11304 1.36106e-17
6302.58363 1.41457e-17
6304.05422 1.41388e-17
6305.52481 1.31419e-17
6306.99540 1.28933e-17
6308.45585 1.38213e-17
6309.92644 1.42770e-17
6311.39703 1.46691e-17
6312.86762 1.42830e-17
6314.33821 1.32081e-17
6315.80880 1.41296e-17
6317.27939 1.47737e-17
6318.74998 1.34337e-17
6320.22057 1.34583e-17
6321.69116 1.40454e-17
6323.16175 1.34543e-17
6324.63234 1.30631e-17
6326.10293 1.31511e-17
6327.57352 1.28694e-17
6329.04411 1.19702e-17
6330.51470 1.21082e-17
6331.97514 1.30084e-17
6333.44573 1.31756e-17
6334.91632 1.25964e-17
6336.38691 1.24253e-17
6337.85750 1.25882e-17
6339.32809 1.24333e-17
6340.79868 1.19850e-17
6342.26927 1.25173e-17
6343.73986 1.21822e-17
6345.21045 1.19782e-17
6346.68104 1.19378e-17
6348.15163 1.25343e-17
6349.62222 1.24175e-17
6351.09281 1.11416e-17
6352.56340 1.12107e-17
6354.03399 1.16872e-17
6355.50458 1.25021e-17
6356.97517 1.24193e-17
6358.43562 1.14821e-17
6359.90621 1.16276e-17
6361.37680 1.24432e-17
6362.84739 1.30680e-17
6364.31798 1.21079e-17
6365.78857 1.17045e-17
6367.25916 1.14223e-17
6368.72975 1.09679e-17
6370.20034 1.04875e-17
6371.67093 1.12565e-17
6373.14152 1.25221e-17
6374.61211 1.23339e-17
6376.08270 1.11466e-17
6377.55329 1.13129e-17
6379.02388 1.11894e-17
6380.49447 1.02665e-17
6381.95492 1.15807e-17
6383.42551 1.13460e-17
6384.89610 1.07196e-17
6386.36669 1.12774e-17
6387.83728 1.15276e-17
6389.30787 1.15004e-17
6390.77846 1.17140e-17
6392.24905 1.19192e-17
6393.71964 1.13810e-17
6395.19023 1.06713e-17
6396.66082 1.10155e-17
6398.13141 1.11047e-17
6399.60200 1.18479e-17
6401.07259 1.21413e-17
6402.54318 1.17404e-17
6404.01377 1.15965e-17
6405.48436 1.12404e-17
6406.95495 1.16155e-17
6408.41540 1.14983e-17
6409.88599 1.15599e-17
6411.35658 1.20935e-17
6412.82717 1.16305e-17
6414.29776 1.13668e-17
6415.76835 1.17781e-17
6417.23894 1.15248e-17
6418.70953 1.08571e-17
6420.18012 1.16311e-17
6421.65071 1.19774e-17
6423.12130 1.15083e-17
6424.59189 1.14727e-17
6426.06248 1.17857e-17
6427.53307 1.16751e-17
6429.00366 1.12161e-17
6430.47425 1.14924e-17
6431.94484 1.21260e-17
6433.40529 1.16839e-17
6434.87588 1.07475e-17
6436.34647 1.13311e-17
6437.81706 1.11344e-17
6439.28765 1.11243e-17
6440.75824 1.17636e-17
6442.22883 1.11635e-17
6443.69942 1.20399e-17
6445.17001 1.20667e-17
6446.64060 1.11699e-17
6448.11119 1.16805e-17
6449.58178 1.12991e-17
6451.05237 1.08188e-17
6452.52296 1.15933e-17
6453.99355 1.15180e-17
6455.46414 1.17057e-17
6456.93473 1.23212e-17
6458.39517 1.19011e-17
6459.86576 1.07151e-17
6461.33635 1.02587e-17
6462.80694 1.04047e-17
6464.27753 1.10916e-17
6465.74812 1.11328e-17
6467.21871 1.16725e-17
6468.68930 1.11578e-17
6470.15989 1.16091e-17
6471.63048 1.16514e-17
6473.10107 1.19356e-17
6474.57166 1.14630e-17
6476.04225 1.12782e-17
6477.51284 1.15094e-17
6478.98343 1.14444e-17
6480.45402 1.15102e-17
6481.92461 1.10845e-17
6483.39520 1.08380e-17
6484.85565 1.07003e-17
6486.32624 1.10685e-17
6487.79683 1.11439e-17
6489.26742 1.19837e-17
6490.73801 1.12177e-17
6492.20860 1.11957e-17
6493.67919 1.12239e-17
6495.14978 1.13175e-17
6496.62037 1.14746e-17
6498.09096 1.18421e-17
6499.56155 1.14405e-17
6501.03214 1.20399e-17
6502.50273 1.13458e-17
6503.97332 1.06417e-17
6505.44391 1.16072e-17
6506.91450 1.18882e-17
6508.37495 1.18468e-17
6509.84554 1.07600e-17
6511.31613 1.13886e-17
6512.78672 1.16094e-17
6514.25731 1.12949e-17
6515.72790 9.60616e-18
6517.19849 9.50804e-18
6518.66908 1.06596e-17
6520.13967 1.05033e-17
6521.61026 1.03997e-17
6523.08085 1.01324e-17
6524.55144 9.96273e-18
6526.02203 1.00913e-17
6527.49262 1.05304e-17
6528.96321 9.66752e-18
6530.43380 9.34924e-18
6531.90439 1.01755e-17
6533.37498 1.02307e-17
6534.83543 9.41517e-18
6536.30602 8.67185e-18
6537.77661 9.40532e-18
6539.24720 9.66059e-18
6540.71779 8.80913e-18
6542.18838 8.13392e-18
6543.65897 8.33664e-18
6545.12956 8.93725e-18
6546.60015 9.21975e-18
6548.07074 8.89784e-18
6549.54133 7.75798e-18
6551.01192 7.56339e-18
6552.48251 8.27644e-18
6553.95310 8.04577e-18
6555.42369 7.46929e-18
6556.89428 7.38274e-18
6558.36487 8.71606e-18
6559.82532 9.83208e-18
6561.29591 1.74679e-17
6562.76650 1.45594e-17
6564.23709 6.15660e-18
6565.70768 8.38027e-18
6567.17827 8.68219e-18
6568.64886 8.92431e-18
6570.11945 8.12609e-18
6571.59004 7.42145e-18
6573.06063 7.08710e-18
6574.53122 7.47964e-18
6576.00181 7.39627e-18
6577.47240 7.89490e-18
6578.94299 8.09845e-18
6580.41358 7.51190e-18
6581.88417 7.70318e-18
6583.35476 7.56970e-18
6584.81520 6.49151e-18
6586.28579 7.20076e-18
6587.75638 6.69268e-18
6589.22697 6.69958e-18
6590.69756 7.87473e-18
6592.16815 7.37137e-18
6593.63874 7.24843e-18
6595.10933 7.21131e-18
6596.57992 6.76211e-18
6598.05051 7.13361e-18
6599.52110 7.36658e-18
6600.99169 6.78758e-18
6602.46228 6.81441e-18
6603.93287 7.64821e-18
6605.40346 8.35492e-18
6606.87405 7.89885e-18
6608.34464 8.09120e-18
6609.81523 8.63652e-18
6611.27568 8.01510e-18
6612.74627 8.21740e-18
6614.21686 8.53656e-18
6615.68745 8.67105e-18
6617.15804 8.20083e-18
6618.62863 8.18168e-18
6620.09922 8.28712e-18
6621.56981 9.09616e-18
6623.04040 9.08370e-18
6624.51099 9.54595e-18
6625.98158 9.63831e-18
6627.45217 9.73065e-18
6628.92276 9.82296e-18
6630.39335 9.91528e-18
6631.86394 1.00076e-17
6633.33453 1.00998e-17
6634.79498 1.01921e-17
6636.26557 1.02844e-17
6637.73616 1.03767e-17
6639.20675 1.04689e-17
6640.67734 1.05612e-17
6642.14793 1.06534e-17
6643.61852 1.07456e-17
6645.08911 1.08378e-17
6646.55970 1.09301e-17
6648.03029 1.10223e-17
6649.50088 1.11145e-17
6650.97147 1.12067e-17
6652.44206 1.12988e-17
6653.91265 1.13910e-17
6655.38324 1.14831e-17
6656.85383 1.15753e-17
6658.32442 1.16674e-17
6659.79501 1.17596e-17
6661.25546 1.18517e-17
6662.72605 1.19438e-17
6664.19664 1.20359e-17
6665.66723 1.21280e-17
6667.13782 1.22201e-17
6668.60841 1.23122e-17
6670.07900 1.24043e-17
6671.54959 1.24963e-17
6673.02018 1.25884e-17
6674.49077 1.26804e-17
6675.96136 1.27725e-17
6677.43195 1.28645e-17
6678.90254 1.29565e-17
6680.37313 1.30485e-17
6681.84372 1.31405e-17
6683.31431 1.32325e-17
6684.78490 1.33245e-17
6686.24535 1.34165e-17
6687.71594 1.35085e-17
6689.18653 1.43177e-17
6690.65712 1.44095e-17
6692.12771 1.40571e-17
6693.59830 1.45052e-17
6695.06889 1.44162e-17
6696.53948 1.36780e-17
6698.01007 1.39419e-17
6699.48066 1.38871e-17
6700.95125 1.35658e-17
6702.42184 1.38565e-17
6703.89243 1.44709e-17
6705.36302 1.52667e-17
6706.83361 1.54497e-17
6708.30420 1.48346e-17
6709.77479 1.48847e-17
6711.23523 1.57475e-17
6712.70582 1.57625e-17
6714.17641 1.54941e-17
6715.64700 1.57413e-17
6717.11759 1.55708e-17
6718.58818 1.51855e-17
6720.05877 1.51954e-17
6721.52936 1.48394e-17
6722.99995 1.50349e-17
6724.47054 1.60683e-17
6725.94113 1.62693e-17
6727.41172 1.60955e-17
6728.88231 1.62692e-17
6730.35290 1.62299e-17
6731.82349 1.58532e-17
6733.29408 1.49533e-17
6734.76467 1.55618e-17
6736.23526 1.65009e-17
6737.69571 1.73014e-17
6739.16630 1.70490e-17
6740.63689 1.55687e-17
6742.10748 1.57608e-17
6743.57807 1.60283e-17
6745.04866 1.55536e-17
6746.51925 1.63378e-17
6747.98984 1.58775e-17
6749.46043 1.51292e-17
6750.93102 1.52043e-17
6752.40161 1.58775e-17
6753.87220 1.65336e-17
6755.34279 1.59736e-17
6756.81338 1.53391e-17
6758.28397 1.47501e-17
6759.75456 1.52016e-17
6761.22515 1.60176e-17
6762.68560 1.56432e-17
6764.15619 1.49008e-17
6765.62678 1.48829e-17
6767.09737 1.56668e-17
6768.56796 1.58260e-17
6770.03855 1.54595e-17
6771.50914 1.53416e-17
6772.97973 1.51658e-17
6774.45032 1.47002e-17
6775.92091 1.52094e-17
6777.39150 1.57311e-17
6778.86209 1.60237e-17
6780.33268 1.63445e-17
6781.80327 1.51722e-17
6783.27386 1.42480e-17
6784.74445 1.45487e-17
6786.21504 1.49318e-17
6787.68563 1.50684e-17
6789.14608 1.51426e-17
6790.61667 1.58785e-17
6792.08726 1.69553e-17
6793.55785 1.60700e-17
6795.02844 1.46702e-17
6796.49903 1.47958e-17
6797.96962 1.45082e-17
6799.44021 1.38336e-17
6800.91080 1.38164e-17
6802.38139 1.41008e-17
6803.85198 1.40916e-17
6805.32257 1.37551e-17
6806.79316 1.42856e-17
6808.26375 1.46498e-17
6809.73434 1.47726e-17
6811.20493 1.56314e-17
6812.66538 1.63122e-17
6814.13597 1.59314e-17
6815.60656 1.53365e-17
6817.07715 1.54158e-17
6818.54774 1.57787e-17
6820.01833 1.50899e-17
6821.48892 1.43010e-17
6822.95951 1.43669e-17
6824.43010 1.45639e-17
6825.90069 1.53401e-17
6827.37128 1.61123e-17
6828.84187 1.59849e-17
6830.31246 1.48579e-17
6831.78305 1.42035e-17
6833.25364 1.46360e-17
6834.72423 1.38115e-17
6836.19482 1.25409e-17
6837.65526 1.36703e-17
6839.12585 1.49203e-17
6840.59644 1.39450e-17
6842.06703 1.35778e-17
6843.53762 1.45391e-17
6845.00821 1.43263e-17
6846.47880 1.41987e-17
6847.94939 1.41920e-17
6849.41998 1.34527e-17
6850.89057 1.38573e-17
6852.36116 1.36728e-17
6853.83175 1.33079e-17
6855.30234 1.31792e-17
6856.77293 1.34876e-17
6858.24352 1.40503e-17
6859.71411 1.49386e-17
6861.18470 1.45719e-17
6862.64515 1.29909e-17
6864.11574 1.27270e-17
6865.58633 1.27310e-17
6867.05692 1.22305e-17
6868.52751 1.26826e-17
6869.99810 1.31662e-17
6871.46869 1.18274e-17
6872.93928 1.23580e-17
6874.40987 1.39573e-17
6875.88046 1.37376e-17
6877.35105 1.26970e-17
6878.82164 1.31246e-17
6880.29223 1.37705e-17
6881.76282 1.39023e-17
6883.23341 1.36889e-17
6884.70400 1.25761e-17
6886.17459 1.17412e-17
6887.64518 1.15787e-17
6889.10563 1.10546e-17
6890.57622 1.12976e-17
6892.04681 1.20397e-17
6893.51740 1.17777e-17
6894.98799 1.15953e-17
6896.45858 1.16453e-17
6897.92917 1.18463e-17
6899.39976 1.23238e-17
6900.87035 1.24470e-17
6902.34094 1.14063e-17
6903.81153 1.07308e-17
6905.28212 1.09214e-17
6906.75271 1.13190e-17
6908.22330 1.09613e-17
6909.69389 1.05466e-17
6911.16448 1.03665e-17
6912.63507 1.12571e-17
6914.09552 1.09507e-17
6915.56611 1.04530e-17
6917.03670 1.00106e-17
6918.50729 9.56485e-18
6919.97788 1.01816e-17
6921.44847 1.07618e-17
6922.91906 1.05256e-17
6924.38965 9.14962e-18
6925.86024 9.01482e-18
6927.33083 9.84555e-18
6928.80142 9.32653e-18
6930.27201 7.95895e-18
6931.74260 7.76520e-18
6933.21319 8.33769e-18
6934.68378 9.09919e-18
6936.15437 8.26420e-18
6937.62496 7.73408e-18
6939.08541 7.84465e-18
6940.55600 7.96630e-18
6942.02659 7.74843e-18
6943.49718 7.49563e-18
6944.96777 8.18541e-18
6946.43836 8.47071e-18
6947.90895 8.46640e-18
6949.37954 8.99131e-18
6950.85013 8.46896e-18
6952.32072 8.12423e-18
6953.79131 8.37821e-18
6955.26190 8.09347e-18
6956.73249 7.88924e-18
6958.20308 8.26772e-18
6959.67367 8.14094e-18
6961.14426 7.99685e-18
6962.61485 7.46401e-18
6964.07529 7.31773e-18
6965.54588 7.60967e-18
6967.01647 8.03560e-18
6968.48706 8.43452e-18
6969.95765 8.70523e-18
6971.42824 7.98440e-18
6972.89883 7.60421e-18
6974.36942 8.41297e-18
6975.84001 8.45274e-18
6977.31060 8.42814e-18
6978.78119 9.21698e-18
6980.25178 8.48819e-18
6981.72237 7.76348e-18
6983.19296 8.52535e-18
6984.66355 7.55411e-18
6986.13414 7.16919e-18
6987.60473 7.87371e-18
6989.06518 7.73442e-18
6990.53577 7.82177e-18
6992.00636 7.75077e-18
6993.47695 7.54937e-18
6994.94754 7.49565e-18
6996.41813 8.17892e-18
6997.88872 8.35768e-18
6999.35931 8.02018e-18
7000.82990 8.27069e-18
7002.30049 8.63240e-18
7003.77108 9.15555e-18
7005.24167 8.39328e-18
7006.71226 8.23714e-18
7008.18285 9.12805e-18
7009.65344 9.27102e-18
7011.12403 9.79968e-18
7012.59462 1.21879e-17
7014.05507 9.85492e-18
7015.52566 8.78131e-18
7016.99625 9.28640e-18
7018.46684 1.11089e-17
7019.93743 1.03649e-17
7021.40802 9.70359e-18
7022.87861 9.71291e-18
7024.34920 9.95271e-18
7025.81979 9.51495e-18
7027.29038 9.30600e-18
7028.76097 9.45037e-18
7030.23156 9.29137e-18
7031.70215 9.95906e-18
7033.17274 9.93629e-18
7034.64333 1.08359e-17
7036.11392 1.05193e-17
7037.58451 1.11663e-17
7039.05510 1.08397e-17
7040.51555 1.09949e-17
7041.98614 1.06557e-17
7043.45673 1.12083e-17
7044.92732 1.09844e-17
7046.39791 1.16853e-17
7047.86850 1.23791e-17
7049.33909 1.27399e-17
7050.80968 1.19514e-17
7052.28027 1.15497e-17
7053.75086 1.16041e-17
7055.22145 1.23061e-17
7056.69204 1.25362e-17
7058.16263 1.28036e-17
7059.63322 1.19433e-17
7061.10381 1.17326e-17
7062.57440 1.35080e-17
7064.04499 1.39293e-17
7065.50544 1.30746e-17
7066.97603 1.30247e-17
7068.44662 1.30413e-17
7069.91721 1.29361e-17
7071.38780 1.35281e-17
7072.85839 1.44506e-17
7074.32898 1.39976e-17
7075.79957 1.38707e-17
7077.27016 1.43171e-17
7078.74075 1.34641e-17
7080.21134 1.33790e-17
7081.68193 1.43235e-17
7083.15252 1.40359e-17
7084.62311 1.39971e-17
7086.09370 1.47863e-17
7087.56429 1.46522e-17
7089.03488 1.48054e-17
7090.49532 1.46780e-17
7091.96591 1.50417e-17
7093.43650 1.49152e-17
7094.90709 1.40977e-17
7096.37768 1.46591e-17
7097.84827 1.54648e-17
7099.31886 1.39832e-17
7100.78945 1.40390e-17
7102.26004 1.42750e-17
7103.73063 1.49504e-17
7105.20122 1.58005e-17
7106.67181 1.49487e-17
7108.14240 1.41561e-17
7109.61299 1.45907e-17
7111.08358 1.52382e-17
7112.55417 1.53010e-17
7114.02476 1.56751e-17
7115.49535 1.52620e-17
7116.95580 1.41681e-17
7118.42639 1.45416e-17
7119.89698 1.52683e-17
7121.36757 1.44237e-17
7122.83816 1.37815e-17
7124.30875 1.42465e-17
7125.77934 1.38190e-17
7127.24993 1.35978e-17
7128.72052 1.41970e-17
7130.19111 1.37128e-17
7131.66170 1.31785e-17
7133.13229 1.28380e-17
7134.60288 1.34429e-17
7136.07347 1.51652e-17
7137.54406 1.47165e-17
7139.01465 1.39588e-17
7140.47510 1.42515e-17
7141.94569 1.43163e-17
7143.41628 1.45485e-17
7144.88687 1.44454e-17
7146.35746 1.42335e-17
7147.82805 1.42683e-17
7149.29864 1.33231e-17
7150.76923 1.39602e-17
7152.23982 1.36969e-17
7153.71041 1.26036e-17
7155.18100 1.32456e-17
7156.65159 1.30019e-17
7158.12218 1.33024e-17
7159.59277 1.30711e-17
7161.06336 1.38067e-17
7162.53395 1.43554e-17
7164.00454 1.30039e-17
7165.47513 1.22987e-17
7166.93558 1.22731e-17
7168.40617 1.30642e-17
7169.87676 1.33526e-17
7171.34735 1.19927e-17
7172.81794 1.18877e-17
7174.28853 1.18452e-17
7175.75912 1.13821e-17
7177.22971 1.16349e-17
7178.70030 1.24644e-17
7180.17089 1.21201e-17
7181.64148 1.13332e-17
7183.11207 1.16702e-17
7184.58266 1.15275e-17
7186.05325 1.11124e-17
7187.52384 1.13737e-17
7188.99443 1.08029e-17
7190.46502 1.08445e-17
7191.92547 1.03474e-17
7193.39606 1.07520e-17
7194.86665 1.13811e-17
7196.33724 1.09190e-17
7197.80783 1.05663e-17
7199.27842 1.09325e-17
7200.74901 1.05882e-17
7202.21960 1.08378e-17
7203.69019 1.09913e-17
7205.16078 1.02297e-17
7206.63137 1.04694e-17
7208.10196 1.15087e-17
7209.57255 1.23031e-17
7211.04314 1.21393e-17
7212.51373 1.24419e-17
7213.98432 1.25158e-17
7215.45491 1.22890e-17
7216.91535 1.26575e-17
7218.38594 1.25526e-17
7219.85653 1.24412e-17
7221.32712 1.19768e-17
7222.79771 1.13509e-17
7224.26830 1.09683e-17
7225.73889 1.09312e-17
7227.20948 1.08508e-17
7228.68007 1.13456e-17
7230.15066 1.17837e-17
7231.62125 1.11831e-17
7233.09184 1.04291e-17
7234.56243 9.91878e-18
7236.03302 1.06218e-17
7237.50361 1.14933e-17
7238.97420 1.06568e-17
7240.44479 1.03308e-17
7241.91538 1.03259e-17
7243.37583 9.97596e-18
7244.84642 1.13155e-17
7246.31701 1.27126e-17
7247.78760 1.15551e-17
7249.25819 1.10701e-17
7250.72878 1.21819e-17
7252.19937 1.12122e-17
7253.66996 9.82492e-18
7255.14055 1.07222e-17
7256.61114 1.18970e-17
7258.08173 1.11756e-17
7259.55232 1.02930e-17
7261.02291 1.00344e-17
7262.49350 9.95773e-18
7263.96409 1.06228e-17
7265.43468 1.04574e-17
7266.89513 1.00510e-17
7268.36572 1.09398e-17
7269.83631 1.17032e-17
7271.30690 1.18728e-17
7272.77749 1.12830e-17
7274.24808 1.01943e-17
7275.71867 1.02407e-17
7277.18926 1.10409e-17
7278.65985 1.09414e-17
7280.13044 1.11129e-17
7281.60103 1.13448e-17
7283.07162 1.08949e-17
7284.54221 1.13332e-17
7286.01280 1.21510e-17
7287.48339 1.21589e-17
7288.95398 1.07257e-17
7290.42457 1.00891e-17
7291.89516 1.12336e-17
7293.35561 1.14855e-17
7294.82620 1.17153e-17
7296.29679 1.27495e-17
7297.76738 1.23456e-17
7299.23797 1.19931e-17
7300.70856 1.19907e-17
7302.17915 1.19927e-17
7303.64974 1.19359e-17
7305.12033 1.13379e-17
7306.59092 1.13465e-17
7308.06151 1.11917e-17
7309.53210 1.12109e-17
7311.00269 1.17849e-17
7312.47328 1.12185e-17
7313.94387 1.11442e-17
7315.41446 1.15150e-17
7316.88505 1.17172e-17
7318.34550 1.09407e-17
7319.81609 1.09098e-17
7321.28668 1.18719e-17
7322.75727 1.19051e-17
7324.22786 1.14122e-17
7325.69845 1.20236e-17
7327.16904 1.25649e-17
7328.63963 1.34060e-17
7330.11022 1.32646e-17
7331.58081 1.20666e-17
7333.05140 1.18829e-17
7334.52199 1.31672e-17
7335.99258 1.25310e-17
7337.46317 1.16622e-17
7338.93376 1.24568e-17
7340.40435 1.29664e-17
7341.87494 1.27881e-17
7343.33538 1.16496e-17
7344.80597 1.10540e-17
7346.27656 1.17791e-17
7347.74715 1.26544e-17
7349.21774 1.30321e-17
7350.68833 1.27867e-17
7352.15892 1.18932e-17
7353.62951 1.23659e-17
7355.10010 1.29266e-17
7356.57069 1.21537e-17
7358.04128 1.25734e-17
7359.51187 1.30104e-17
7360.98246 1.18106e-17
7362.45305 1.11502e-17
7363.92364 1.22784e-17
7365.39423 1.33896e-17
7366.86482 1.36385e-17
7368.33541 1.36759e-17
7369.79586 1.34176e-17
7371.26645 1.26196e-17
7372.73704 1.21812e-17
7374.20763 1.22540e-17
7375.67822 1.24224e-17
7377.14881 1.32147e-17
7378.61940 1.34182e-17
7380.08999 1.19453e-17
7381.56058 1.08340e-17
7383.03117 1.11374e-17
7384.50176 1.17207e-17
7385.97235 1.17969e-17
7387.44294 1.20011e-17
7388.91353 1.21327e-17
7390.38412 1.22618e-17
7391.85471 1.26938e-17
7393.31516 1.34463e-17
7394.78575 1.28671e-17
7396.25634 1.32539e-17
7397.72693 1.33983e-17
7399.19752 1.24074e-17
7400.66811 1.28570e-17
7402.13870 1.30118e-17
7403.60929 1.20676e-17
7405.07988 1.10793e-17
7406.55047 1.06365e-17
7408.02106 1.03351e-17
7409.49165 1.07975e-17
7410.96224 1.24436e-17
7412.43283 1.14857e-17
7413.90342 1.15209e-17
7415.37401 1.21878e-17
7416.84460 1.16574e-17
7418.31519 1.14145e-17
7419.77564 1.16867e-17
7420.20202 1.16867e-17
7422.21053 1.17064e-17
7424.20894 1.17090e-17
7426.20735 1.16193e-17
7428.20577 1.15460e-17
7430.20418 1.16012e-17
7432.21269 1.16959e-17
7434.21110 1.17335e-17
7436.20952 1.17006e-17
7438.20793 1.16853e-17
7440.21644 1.17587e-17
7442.21485 1.18258e-17
7444.21327 1.17900e-17
7446.21168 1.17220e-17
7448.21009 1.16698e-17
7450.21860 1.16426e-17
7452.21702 1.16113e-17
7454.21543 1.15646e-17
7456.21384 1.15229e-17
7458.22235 1.15155e-17
7460.22076 1.15131e-17
7462.21918 1.15047e-17
7464.21759 1.14795e-17
7466.21601 1.14281e-17
7468.22451 1.13545e-17
7470.22293 1.12843e-17
7472.22134 1.12538e-17
7474.21976 1.12412e-17
7476.21817 1.12691e-17
7478.22668 1.12740e-17
7480.22509 1.11773e-17
7482.22350 1.09938e-17
7484.22192 1.08314e-17
7486.23043 1.08082e-17
7488.22884 1.08142e-17
7490.22725 1.07615e-17
7492.22567 1.07163e-17
7494.22408 1.07431e-17
7496.23259 1.08272e-17
7498.23100 1.09124e-17
7500.22942 1.09471e-17
7502.22783 1.09624e-17
7504.22624 1.09709e-17
7506.23475 1.09611e-17
7508.23317 1.09200e-17
7510.23158 1.08604e-17
7512.22999 1.07919e-17
7514.23850 1.07343e-17
7516.23691 1.06947e-17
7518.23533 1.06961e-17
7520.23374 1.07258e-17
7522.23216 1.08162e-17
7524.24066 1.08900e-17
7526.23908 1.08619e-17
7528.23749 1.07228e-17
7530.23591 1.05718e-17
7532.23432 1.05124e-17
7534.24283 1.04876e-17
7536.24124 1.04930e-17
7538.23965 1.05102e-17
7540.23807 1.05258e-17
7542.24658 1.05337e-17
7544.24499 1.05464e-17
7546.24340 1.05679e-17
7548.24182 1.05834e-17
7550.24023 1.05836e-17
7552.24874 1.05565e-17
7554.24715 1.04781e-17
7556.24557 1.03719e-17
7558.24398 1.02604e-17
7560.24239 1.01800e-17
7562.25090 1.01373e-17
7564.24932 1.01955e-17
7566.24773 1.02499e-17
7568.24614 1.02123e-17
7570.25465 1.01252e-17
7572.25306 1.00501e-17
7574.25148 1.00197e-17
7576.24989 1.00016e-17
7578.24831 9.98072e-18
7580.25681 9.94445e-18
7582.25523 9.85475e-18
7584.25364 9.75674e-18
7586.25206 9.71475e-18
7588.26056 9.69798e-18
7590.25898 9.60805e-18
7592.25739 9.35618e-18
7594.25580 9.09545e-18
7596.25422 8.97034e-18
7598.26273 8.92686e-18
7600.26114 8.97128e-18
7602.25955 9.04296e-18
7604.25797 9.10102e-18
7606.25638 9.07743e-18
7608.26489 8.98421e-18
7610.26330 8.70836e-18
7612.26172 8.47945e-18
7614.26013 8.49488e-18
7616.26864 8.66786e-18
7618.26705 8.88307e-18
7620.26547 9.01742e-18
7622.26388 9.06654e-18
7624.26229 8.93031e-18
7626.27080 8.75435e-18
7628.26921 8.64765e-18
7630.26763 8.58364e-18
7632.26604 8.51838e-18
7634.27455 8.45211e-18
7636.27296 8.42077e-18
7638.27138 8.45430e-18
7640.26979 8.48713e-18
7642.26821 8.45140e-18
7644.27671 8.37815e-18
7646.27513 8.26902e-18
7648.27354 8.16005e-18
7650.27195 8.08946e-18
7652.27037 8.08476e-18
7654.27888 8.07559e-18
7656.27729 7.95220e-18
7658.27570 7.82190e-18
7660.27412 7.73882e-18
7662.28262 7.71167e-18
7664.28104 7.72558e-18
7666.27945 7.76812e-18
7668.27787 7.82625e-18
7670.27628 7.87355e-18
7672.28479 7.92902e-18
7674.28320 8.02647e-18
7676.28162 8.10732e-18
7678.28003 8.10693e-18
7680.27844 8.02075e-18
7682.28695 7.91672e-18
7684.28536 7.86282e-18
7686.28378 7.82567e-18
7688.28219 7.80460e-18
7690.29070 7.79204e-18
7692.28911 7.77233e-18
7694.28753 7.76129e-18
7696.28594 7.79463e-18
7698.28436 7.89235e-18
7700.29286 7.98589e-18
7702.29128 7.99036e-18
7704.28969 7.94915e-18
7706.28810 7.85287e-18
7708.29661 7.75245e-18
7710.29503 7.69091e-18
7712.29344 7.70645e-18
7714.29185 7.75575e-18
7716.29027 7.80986e-18
7718.29877 7.87198e-18
7720.29719 7.93795e-18
7722.29560 8.00046e-18
7724.29402 8.05178e-18
7726.29243 8.09416e-18
7728.30094 8.13866e-18
7730.29935 8.19804e-18
7732.29777 8.28485e-18
7734.29618 8.42860e-18
7736.30469 8.60158e-18
7738.30310 8.79987e-18
7740.30151 8.98303e-18
7742.29993 9.12162e-18
7744.29834 9.17348e-18
7746.30685 9.18453e-18
7748.30526 9.15687e-18
7750.30368 9.15781e-18
7752.30209 9.25911e-18
7754.30051 9.43499e-18
7756.30901 9.63171e-18
7758.30743 9.79325e-18
7760.30584 9.92572e-18
7762.30425 9.98942e-18
7764.31276 1.00287e-17
7766.31118 1.00660e-17
7768.30959 1.01056e-17
7770.30800 1.01370e-17
7772.30642 1.01686e-17
7774.31492 1.02153e-17
7776.31334 1.03012e-17
7778.31175 1.03999e-17
7780.31017 1.05096e-17
7782.30858 1.05986e-17
7784.31709 1.06326e-17
7786.31550 1.06183e-17
7788.31392 1.05930e-17
7790.31233 1.05968e-17
7792.32084 1.06198e-17
7794.31925 1.06999e-17
7796.31766 1.07666e-17
7798.31608 1.07552e-17
7800.31449 1.06825e-17
7802.32300 1.06001e-17
7804.32141 1.05547e-17
7806.31983 1.05290e-17
7808.31824 1.05670e-17
7810.32675 1.05710e-17
7812.32516 1.04408e-17
7814.32358 1.02449e-17
7816.32199 1.00549e-17
7818.32040 9.95463e-18
7820.32891 9.94468e-18
7822.32733 1.00932e-17
7824.32574 1.02829e-17
7826.32415 1.04450e-17
7828.32257 1.05462e-17
7830.33107 1.05565e-17
7832.32949 1.04902e-17
7834.32790 1.03997e-17
7836.32632 1.03476e-17
7838.33482 1.03260e-17
7840.33324 1.03623e-17
7842.33165 1.04401e-17
7844.33007 1.05760e-17
7846.32848 1.07163e-17
7848.33699 1.08053e-17
7850.33540 1.07869e-17
7852.33381 1.07301e-17
7854.33223 1.06713e-17
7856.33064 1.06433e-17
7858.33915 1.07303e-17
7860.33756 1.08384e-17
7862.33598 1.08455e-17
7864.33439 1.06887e-17
7866.34290 1.04844e-17
7868.34131 1.03265e-17
7870.33973 1.02269e-17
7872.33814 1.02495e-17
7874.33655 1.03543e-17
7876.34506 1.05249e-17
7878.34348 1.06978e-17
7880.34189 1.08319e-17
7882.34030 1.08472e-17
7884.34881 1.08090e-17
7886.34722 1.07226e-17
7888.34564 1.06484e-17
7890.34405 1.06549e-17
7892.34247 1.07179e-17
7894.35097 1.07625e-17
7896.34939 1.07171e-17
7898.34780 1.06249e-17
7900.34622 1.04842e-17
7902.34463 1.03268e-17
7904.35314 1.01657e-17
7906.35155 1.00286e-17
7908.34996 9.92094e-18
7910.34838 9.86587e-18
7912.35689 9.86501e-18
7914.35530 9.94437e-18
7916.35371 1.00661e-17
7918.35213 1.02338e-17
7920.35054 1.03875e-17
7922.35905 1.04817e-17
7924.35746 1.04882e-17
7926.35588 1.04425e-17
7928.35429 1.03654e-17
7930.35270 1.02893e-17
7932.36121 1.02544e-17
7934.35963 1.02631e-17
7936.35804 1.03282e-17
7938.35645 1.04302e-17
7940.36496 1.05421e-17
7942.36337 1.06279e-17
7944.36179 1.06971e-17
7946.36020 1.07630e-17
7948.35862 1.07739e-17
7950.36712 1.06654e-17
7952.36554 1.04801e-17
7954.36395 1.02624e-17
7956.36237 1.00945e-17
7958.37087 1.00121e-17
7960.36929 1.01766e-17
7962.36770 1.03728e-17
7964.36611 1.04869e-17
7966.36453 1.04840e-17
7968.37304 1.03432e-17
7970.37145 1.01114e-17
7972.36986 9.90535e-18
7974.36828 9.89909e-18
7976.36669 9.91797e-18
7978.37520 9.84151e-18
7980.37361 9.72274e-18
7982.37203 9.59034e-18
7984.37044 9.50111e-18
7986.37895 9.49868e-18
7988.37736 9.63821e-18
7990.37578 9.78902e-18
7992.37419 9.78400e-18
7994.37260 9.75173e-18
7996.38111 9.79693e-18
7998.37952 9.88851e-18
8000.37794 9.92917e-18
8002.37635 9.85757e-18
8004.37477 9.75932e-18
8006.38327 9.72211e-18
8008.38169 9.69219e-18
8010.38010 9.63476e-18
8012.37852 9.58877e-18
8014.38702 9.61518e-18
8016.38544 9.71780e-18
8018.38385 9.81691e-18
8020.38226 9.81785e-18
8022.38068 9.76246e-18
8024.38919 9.61909e-18
8026.38760 9.46358e-18
8028.38601 9.35790e-18
8030.38443 9.33126e-18
8032.39293 9.34215e-18
8034.39135 9.36440e-18
8036.38976 9.38712e-18
8038.38818 9.38790e-18
8040.38659 9.36487e-18
8042.39510 9.31207e-18
8044.39351 9.23365e-18
8046.39193 9.11966e-18
8048.39034 8.99149e-18
8050.38875 8.91519e-18
8052.39726 9.05119e-18
8054.39567 9.21994e-18
8056.39409 9.33589e-18
8058.39250 9.35853e-18
8060.40101 9.28434e-18
8062.39942 9.12687e-18
8064.39784 8.95201e-18
8066.39625 8.85980e-18
8068.39467 8.77519e-18
8070.40317 8.64130e-18
8072.40159 8.51549e-18
8074.40000 8.46253e-18
8076.39841 8.49410e-18
8078.39683 8.55622e-18
8080.40534 8.59821e-18
8082.40375 8.61459e-18
8084.40216 8.55803e-18
8086.40058 8.47342e-18
8088.40908 8.37126e-18
8090.40750 8.30357e-18
8092.40591 8.31031e-18
8094.40433 8.43409e-18
8096.40274 8.59015e-18
8098.41125 8.68972e-18
8100.40966 8.76986e-18
8102.40808 8.84938e-18
8104.40649 8.91017e-18
8106.40490 8.92968e-18
8108.41341 8.89114e-18
8110.41182 8.81256e-18
8112.41024 8.69638e-18
8114.40865 8.57338e-18
8116.41716 8.47365e-18
8118.41557 8.39343e-18
8120.41399 8.31697e-18
8122.41240 8.24638e-18
8124.41082 8.19491e-18
8126.41932 8.17822e-18
8128.41774 8.18935e-18
8130.41615 8.24419e-18
8132.41456 8.30514e-18
8134.42307 8.34345e-18
8136.42149 8.34689e-18
8138.41990 8.32558e-18
8140.41831 8.28994e-18
8142.41673 8.27153e-18
8144.42523 8.34055e-18
8146.42365 8.42390e-18
8148.42206 8.48501e-18
8150.42048 8.49825e-18
8152.41889 8.45508e-18
8154.42740 8.36005e-18
8156.42581 8.26448e-18
8158.42423 8.25931e-18
8160.42264 8.26181e-18
8162.43115 8.24301e-18
8164.42956 8.17940e-18
8166.42797 8.04261e-18
8168.42639 7.85475e-18
8170.42480 7.68724e-18
8172.43331 7.63974e-18
8174.43172 7.63937e-18
8176.43014 7.67329e-18
8178.42855 7.70340e-18
8180.43706 7.69720e-18
8182.43547 7.65015e-18
8184.43389 7.59171e-18
8186.43230 7.54982e-18
8188.43071 7.52934e-18
8190.43922 7.54644e-18
8192.43764 7.60704e-18
8194.43605 7.73721e-18
8196.43446 7.90152e-18
8198.43288 8.06627e-18
8200.44138 8.18018e-18
8202.43980 8.24513e-18
8204.43821 8.22092e-18
8206.43663 8.14077e-18
8208.44513 7.99694e-18
8210.44355 7.83649e-18
8212.44196 7.68893e-18
8214.44038 7.59325e-18
8216.43879 7.53406e-18
8218.44730 7.51681e-18
8220.44571 7.54295e-18
8222.44412 7.64790e-18
8224.44254 7.76017e-18
8226.44095 7.82259e-18
8228.44946 7.80354e-18
8230.44787 7.73647e-18
8232.44629 7.63865e-18
8234.44470 7.52684e-18
8236.45321 7.42607e-18
8238.45162 7.33725e-18
8240.45004 7.26411e-18
8242.44845 7.20545e-18
8244.44686 7.15608e-18
8246.45537 7.11126e-18
8248.45378 7.07270e-18
8250.45220 7.02622e-18
8252.45061 7.00580e-18
8254.45912 7.06296e-18
8256.45753 7.14277e-18
8258.45595 7.18115e-18
8260.45436 7.13005e-18
8262.45278 7.03404e-18
8264.46128 6.90644e-18
8266.45970 6.79090e-18
8268.45811 6.76273e-18
8270.45653 6.75455e-18
8272.45494 6.68057e-18
8274.46345 6.53781e-18
8276.46186 6.41211e-18
8278.46027 6.39175e-18
8280.45869 6.43144e-18
8282.46720 6.56604e-18
8284.46561 6.69755e-18
8286.46402 6.73700e-18
8288.46244 6.68535e-18
8290.46085 6.62372e-18
8292.46936 6.60896e-18
8294.46777 6.57919e-18
8296.46619 6.47077e-18
8298.46460 6.34143e-18
8300.46301 6.21436e-18
8302.47152 6.11127e-18
8304.46994 6.03565e-18
8306.46835 5.99607e-18
8308.46676 5.98080e-18
8310.47527 5.99540e-18
8312.47368 5.98912e-18
8314.47210 5.90228e-18
8316.47051 5.77119e-18
8318.46893 5.63216e-18
8320.47743 5.51915e-18
8322.47585 5.42609e-18
8324.47426 5.36743e-18
8326.47268 5.32424e-18
8328.47109 5.29091e-18
8330.47960 5.25142e-18
8332.47801 5.17574e-18
8334.47642 5.09054e-18
8336.47484 5.05821e-18
8338.48335 5.12859e-18
8340.48176 5.19078e-18
8342.48017 5.10696e-18
8344.47859 4.97614e-18
8346.47700 4.85649e-18
8348.48551 4.74998e-18
8350.48392 4.60753e-18
8352.48234 4.42823e-18
8354.48075 4.28034e-18
8356.48926 4.28398e-18
8358.48767 4.32096e-18
8360.48609 4.34409e-18
8362.48450 4.32545e-18
8364.48291 4.25034e-18
8366.49142 4.12641e-18
8368.48983 4.00136e-18
8370.48825 3.93789e-18
8372.48666 3.88574e-18
8374.48508 3.81987e-18
8376.49358 3.74507e-18
8378.49200 3.66010e-18
8380.49041 3.57918e-18
8382.48883 3.51852e-18
8384.49733 3.49944e-18
8386.49575 3.49966e-18
8388.49416 3.50937e-18
8390.49257 3.51926e-18
8392.49099 3.52357e-18
8394.49950 3.51487e-18
8396.49791 3.48102e-18
8398.49632 3.42866e-18
8400.49474 3.40240e-18
8402.50324 3.50231e-18
8404.50166 3.61899e-18
8406.50007 3.68450e-18
8408.49849 3.71801e-18
8410.49690 3.77006e-18
8412.50541 3.85451e-18
8414.50382 3.92858e-18
8416.50224 3.94322e-18
8418.50065 3.95250e-18
8420.49906 4.00456e-18
8422.50757 4.06200e-18
8424.50598 4.08415e-18
8426.50440 4.06341e-18
8428.50281 4.02813e-18
8430.51132 4.00412e-18
8432.50973 3.99953e-18
8434.50815 4.05050e-18
8436.50656 4.11974e-18
8438.50497 4.17558e-18
8440.51348 4.22062e-18
8442.51190 4.28247e-18
8444.51031 4.37792e-18
8446.50872 4.48271e-18
8448.50714 4.57872e-18
8450.51564 4.66385e-18
8452.51406 4.70924e-18
8454.51247 4.75967e-18
8456.51089 4.87250e-18
8458.51939 5.07025e-18
8460.51781 5.28484e-18
8462.51622 5.44745e-18
8464.51464 5.57435e-18
8466.51305 5.65438e-18
8468.52156 5.68830e-18
8470.51997 5.66835e-18
8472.51839 5.61242e-18
8474.51680 5.54034e-18
8476.52531 5.48475e-18
8478.52372 5.46189e-18
8480.52213 5.53794e-18
8482.52055 5.63032e-18
8484.51896 5.67458e-18
8486.52747 5.65419e-18
8488.52588 5.60087e-18
8490.52430 5.54169e-18
8492.52271 5.49940e-18
8494.52113 5.51616e-18
8496.52963 5.58632e-18
8498.52805 5.74564e-18
8500.52646 5.93319e-18
8502.52487 6.08478e-18
8504.53338 6.14594e-18
8506.53180 6.17075e-18
8508.53021 6.18367e-18
8510.52862 6.20889e-18
8512.52704 6.30085e-18
8514.53554 6.40715e-18
8516.53396 6.47966e-18
8518.53237 6.47904e-18
8520.53079 6.41899e-18
8522.52920 6.28818e-18
8524.53771 6.15800e-18
8526.53612 6.09379e-18
8528.53454 6.09607e-18
8530.53295 6.19178e-18
8532.54146 6.33059e-18
8534.53987 6.43436e-18
8536.53828 6.42207e-18
8538.53670 6.40343e-18
8540.53511 6.49249e-18
8542.54362 6.60656e-18
8544.54203 6.69068e-18
8546.54045 6.75456e-18
8548.53886 6.83868e-18
8550.53728 6.96762e-18
8552.54578 7.11580e-18
8554.54420 7.27931e-18
8556.54261 7.42260e-18
8558.54102 7.50336e-18
8560.54953 7.54372e-18
8562.54795 7.56900e-18
8564.54636 7.60524e-18
8566.54477 7.64744e-18
8568.54319 7.70367e-18
8570.55169 7.79308e-18
8572.55011 7.96051e-18
8574.54852 8.15323e-18
8576.54694 8.32253e-18
8578.54535 8.45720e-18
8580.55386 8.59618e-18
8582.55227 8.76767e-18
8584.55069 8.94574e-18
8586.54910 9.13267e-18
8588.55761 9.28911e-18
8590.55602 9.35242e-18
8592.55443 9.37662e-18
8594.55285 9.45692e-18
8596.55126 9.65858e-18
8598.55977 9.87441e-18
8600.55818 9.97226e-18
8602.55660 1.00580e-17
8604.55501 1.01926e-17
8606.55343 1.03436e-17
8608.56193 1.04527e-17
8610.56035 1.05010e-17
8612.55876 1.05400e-17
8614.55717 1.06196e-17
8616.56568 1.07265e-17
8618.56409 1.08864e-17
8620.56251 1.10578e-17
8622.56092 1.11967e-17
8624.55934 1.13013e-17
8626.56784 1.14232e-17
8628.56626 1.16077e-17
8630.56467 1.17860e-17
8632.56309 1.18663e-17
8634.57159 1.19454e-17
8636.57001 1.21116e-17
8638.56842 1.23485e-17
8640.56684 1.25734e-17
8642.56525 1.27295e-17
8644.57376 1.28876e-17
8646.57217 1.31258e-17
8648.57058 1.33759e-17
8650.56900 1.36466e-17
8652.56741 1.38480e-17
8654.57592 1.38818e-17
8656.57433 1.37235e-17
8658.57275 1.35248e-17
8660.57116 1.34620e-17
8662.57967 1.34665e-17
8664.57808 1.35688e-17
8666.57650 1.37087e-17
8668.57491 1.38410e-17
8670.57332 1.39274e-17
8672.58183 1.39966e-17
8674.58025 1.40547e-17
8676.57866 1.40576e-17
8678.57707 1.39239e-17
8680.57549 1.37462e-17
8682.58399 1.35845e-17
8684.58241 1.34800e-17
8686.58082 1.34103e-17
8688.57924 1.33830e-17
8690.58774 1.34058e-17
8692.58616 1.35230e-17
8694.58457 1.36563e-17
8696.58299 1.37526e-17
8698.58140 1.38051e-17
8700.58991 1.38366e-17
8702.58832 1.38615e-17
8704.58673 1.38826e-17
8706.58515 1.39154e-17
8708.59366 1.39476e-17
8710.59207 1.39788e-17
8712.59048 1.39991e-17
8714.58890 1.39748e-17
8716.58731 1.39410e-17
8718.59582 1.39769e-17
8720.59423 1.41955e-17
8722.59265 1.44713e-17
8724.59106 1.47634e-17
8726.58947 1.49919e-17
8728.59798 1.50748e-17
8730.59640 1.50282e-17
8732.59481 1.49533e-17
8734.59322 1.49396e-17
8736.60173 1.49063e-17
8738.60014 1.47858e-17
8740.59856 1.46343e-17
8742.59697 1.44599e-17
8744.59539 1.43177e-17
8746.60389 1.42492e-17
8748.60231 1.42897e-17
8750.60072 1.43762e-17
8752.59914 1.44646e-17
8754.60764 1.45254e-17
8756.60606 1.45144e-17
8758.60447 1.44403e-17
8760.60288 1.43120e-17
8762.60130 1.41601e-17
8764.60981 1.40091e-17
8766.60822 1.39050e-17
8768.60663 1.38432e-17
8770.60505 1.38563e-17
8772.60346 1.39021e-17
8774.61197 1.39531e-17
8776.61038 1.39817e-17
8778.60880 1.39929e-17
8780.60721 1.39766e-17
8782.61572 1.39435e-17
8784.61413 1.38793e-17
8786.61254 1.38340e-17
8788.61096 1.38480e-17
8790.60937 1.39251e-17
8792.61788 1.40471e-17
8794.61629 1.41912e-17
8796.61471 1.43380e-17
8798.61312 1.44682e-17
8800.61154 1.45381e-17
8802.62004 1.44946e-17
8804.61846 1.43589e-17
8806.61687 1.41493e-17
8808.61529 1.39157e-17
8810.62379 1.36963e-17
8812.62221 1.35805e-17
8814.62062 1.34717e-17
8816.61903 1.32985e-17
8818.61745 1.30971e-17
8820.62596 1.28830e-17
8822.62437 1.27103e-17
8824.62278 1.26129e-17
8826.62120 1.26551e-17
8828.62970 1.27912e-17
8830.62812 1.30905e-17
8832.62653 1.33468e-17
8834.62495 1.33613e-17
8836.62336 1.31695e-17
8838.63187 1.29483e-17
8840.63028 1.28461e-17
8842.62870 1.27717e-17
8844.62711 1.27139e-17
8846.62552 1.26393e-17
8848.63403 1.24824e-17
8850.63244 1.23121e-17
8852.63086 1.22322e-17
8854.62927 1.22772e-17
8856.63778 1.23217e-17
8858.63619 1.22180e-17
8860.63461 1.20665e-17
8862.63302 1.18934e-17
8864.63144 1.17200e-17
8866.63994 1.15540e-17
8868.63836 1.14057e-17
8870.63677 1.12654e-17
8872.63518 1.11287e-17
8874.63360 1.09965e-17
8876.64211 1.08531e-17
8878.64052 1.07314e-17
8880.63893 1.06693e-17
8882.63735 1.06527e-17
8884.64585 1.06417e-17
8886.64427 1.05961e-17
8888.64268 1.05363e-17
8890.64110 1.04471e-17
8892.63951 1.03707e-17
8894.64802 1.03433e-17
8896.64643 1.03581e-17
8898.64485 1.04051e-17
8900.64326 1.04516e-17
8902.65177 1.04614e-17
8904.65018 1.03411e-17
8906.64859 1.02013e-17
8908.64701 1.00718e-17
8910.64542 1.00263e-17
8912.65393 1.01586e-17
8914.65234 1.04294e-17
8916.65076 1.06717e-17
8918.64917 1.06744e-17
8920.64759 1.05472e-17
8922.65609 1.02685e-17
8924.65451 9.93309e-18
8926.65292 9.61345e-18
8928.65133 9.34043e-18
8930.65984 9.04625e-18
8932.65826 8.71056e-18
8934.65667 8.44631e-18
8936.65508 8.43542e-18
8938.65350 8.51173e-18
8940.66200 8.59626e-18
8942.66042 8.62720e-18
8944.65883 8.59821e-18
8946.65725 8.49747e-18
8948.66575 8.38779e-18
8950.66417 8.37040e-18
8952.66258 8.34807e-18
8954.66100 8.24301e-18
8956.65941 8.11688e-18
8958.66792 8.06643e-18
8960.66633 8.10278e-18
8962.66474 8.10826e-18
8964.66316 7.93944e-18
8966.66157 7.76653e-18
8968.67008 7.73760e-18
8970.66849 7.75459e-18
8972.66691 7.72692e-18
8974.66532 7.62025e-18
8976.67383 7.48197e-18
8978.67224 7.33869e-18
8980.67066 7.18794e-18
8982.66907 7.01445e-18
8984.66748 6.87903e-18
8986.67599 6.85360e-18
8988.67441 6.89957e-18
8990.67282 6.93794e-18
8992.67123 6.90166e-18
8994.66965 6.84687e-18
8996.67815 6.80343e-18
8998.67657 6.76801e-18
9000.67498 6.73171e-18
9002.67340 6.72713e-18
9004.68190 6.80734e-18
9006.68032 6.95954e-18
9008.67873 7.08721e-18
9010.67714 7.05648e-18
9012.67556 6.96339e-18
9014.68407 6.82521e-18
9016.68248 6.68722e-18
9018.68089 6.59067e-18
9020.67931 6.53603e-18
9022.67772 6.46181e-18
9024.68623 6.31276e-18
9026.68464 6.18405e-18
9028.68306 6.18205e-18
9030.68147 6.22915e-18
9032.68998 6.26933e-18
9034.68839 6.29268e-18
9036.68681 6.33437e-18
9038.68522 6.40985e-18
9040.68363 6.49306e-18
9042.69214 6.55518e-18
9044.69056 6.61389e-18
9046.68897 6.67962e-18
9048.68738 6.74526e-18
9050.68580 6.79670e-18
9052.69430 6.83165e-18
9054.69272 6.87076e-18
9056.69113 6.95044e-18
9058.68955 7.01110e-18
9060.69805 6.97767e-18
9062.69647 6.92618e-18
9064.69488 6.94440e-18
9066.69330 7.04868e-18
9068.69171 7.15833e-18
9070.70022 7.19755e-18
9072.69863 7.20564e-18
9074.69704 7.17623e-18
9076.69546 7.13933e-18
9078.69387 7.10089e-18
9080.70238 7.09952e-18
9082.70079 7.17008e-18
9084.69921 7.34147e-18
9086.69762 7.52287e-18
9088.70613 7.61960e-18
9090.70454 7.64980e-18
9092.70296 7.58504e-18
9094.70137 7.46868e-18
9096.69978 7.33615e-18
9098.70829 7.24442e-18
9100.70671 7.19756e-18
9102.70512 7.25258e-18
9104.70353 7.34504e-18
9106.70195 7.44259e-18
9108.71045 7.53651e-18
9110.70887 7.64286e-18
9112.70728 7.74188e-18
9114.70570 7.80238e-18
9116.71420 7.77476e-18
9118.71262 7.73384e-18
9120.71103 7.76032e-18
9122.70945 7.78968e-18
9124.70786 7.77256e-18
9126.71637 7.68292e-18
9128.71478 7.52709e-18
9130.71319 7.31221e-18
9132.71161 7.11049e-18
9134.72012 7.02940e-18
9136.71853 7.00857e-18
9138.71694 7.04802e-18
9140.71536 7.08399e-18
9142.71377 7.05326e-18
9144.72228 6.91807e-18
9146.72069 6.78082e-18
9148.71911 6.75286e-18
9150.71752 6.79988e-18
9152.71593 6.99461e-18
9154.72444 7.20155e-18
9156.72286 7.27723e-18
9158.72127 7.16373e-18
9160.71968 7.00835e-18
9162.72819 6.94880e-18
9164.72660 6.91681e-18
9166.72502 6.89889e-18
9168.72343 6.90330e-18
9170.72185 6.94841e-18
9172.73035 7.01938e-18
9174.72877 7.09121e-18
9176.72718 7.13058e-18
9178.72559 7.14588e-18
9180.73410 7.11043e-18
9182.73252 7.07154e-18
9184.73093 7.05711e-18
9186.72934 7.08709e-18
9188.72776 7.16848e-18
9190.73626 7.29552e-18
9192.73468 7.41601e-18
9194.73309 7.42138e-18
9196.73151 7.42144e-18
9198.72992 7.49588e-18
9200.73843 7.59827e-18
9202.73684 7.64559e-18
9204.73526 7.61359e-18
9206.73367 7.58774e-18
9208.74218 7.66887e-18
9210.74059 7.75459e-18
9212.73901 7.75928e-18
9214.73742 7.74841e-18
9216.73583 7.79270e-18
9218.74434 7.90943e-18
9220.74275 8.05146e-18
9222.74117 8.17869e-18
9224.73958 8.27490e-18
9226.73800 8.28132e-18
9228.74650 8.25461e-18
9230.74492 8.24223e-18
9232.74333 8.24246e-18
9234.74175 8.21348e-18
9236.75025 8.13255e-18
9238.74867 8.04300e-18
9240.74708 7.97829e-18
9242.74549 7.94931e-18
9244.74391 7.98370e-18
9246.75242 8.06298e-18
9248.75083 8.17148e-18
9250.74924 8.27537e-18
9252.74766 8.35496e-18
9254.75616 8.34486e-18
9256.75458 8.34141e-18
9258.75299 8.43942e-18
9260.75141 8.56884e-18
9262.74982 8.66293e-18
9264.75833 8.67264e-18
9266.75674 8.61851e-18
9268.75516 8.49378e-18
9270.75357 8.34783e-18
9272.75198 8.21810e-18
9274.76049 8.12612e-18
9276.75890 8.09009e-18
9278.75732 8.11398e-18
9280.75573 8.19538e-18
9282.76424 8.31516e-18
9284.76265 8.41113e-18
9286.76107 8.35355e-18
9288.75948 8.26604e-18
9290.75790 8.23674e-18
9292.76640 8.24231e-18
9294.76482 8.19992e-18
9296.76323 8.08507e-18
9298.76164 7.98636e-18
9300.76006 8.00415e-18
9302.76857 8.10200e-18
9304.76698 8.37188e-18
9306.76539 8.62305e-18
9308.76381 8.66622e-18
9310.77231 8.43025e-18
9312.77073 8.07708e-18
9314.76914 7.73590e-18
9316.76756 7.52932e-18
9318.76597 7.79069e-18
9320.77448 8.15417e-18
9322.77289 8.30224e-18
9324.77131 8.16099e-18
9326.76972 7.94562e-18
9328.77823 7.80895e-18
9330.77664 7.69049e-18
9332.77505 7.57142e-18
9334.77347 7.52055e-18
9336.77188 7.63898e-18
9338.78039 7.84010e-18
9340.77880 8.02451e-18
9342.77722 8.05758e-18
9344.77563 7.94147e-18
9346.77405 7.42617e-18
9348.78255 7.00693e-18
9350.78097 7.14006e-18
9352.77938 7.57623e-18
9354.77779 7.98080e-18
9356.78630 8.12785e-18
9358.78471 8.17697e-18
9360.78313 8.17172e-18
9362.78154 8.11155e-18
9364.77996 7.99091e-18
9366.78846 7.86047e-18
9368.78688 7.70082e-18
9370.78529 7.62798e-18
9372.78371 7.78611e-18
9374.79221 8.33561e-18
9376.79063 8.90720e-18
9378.78904 9.15053e-18
9380.78746 9.14638e-18
9382.78587 8.83230e-18
9384.79438 8.37682e-18
9386.79279 7.95432e-18
9388.79120 7.75997e-18
9390.78962 7.65063e-18
9392.78803 7.55219e-18
9394.79654 7.50258e-18
9396.79495 7.53879e-18
9398.79337 7.60111e-18
9400.79178 7.60095e-18
9402.80029 7.53351e-18
9404.79870 7.53901e-18
9406.79712 7.82243e-18
9408.79553 8.11375e-18
9410.79394 8.21175e-18
9412.80245 8.18277e-18
9414.80086 8.11069e-18
9416.79928 8.03078e-18
9418.79769 7.89400e-18
9420.79611 7.68109e-18
9422.80461 7.51394e-18
9424.80303 7.56463e-18
9426.80144 7.70359e-18
9428.79986 7.88303e-18
9430.80836 7.99874e-18
9432.80678 7.98182e-18
9434.80519 7.76910e-18
9436.80361 7.53232e-18
9438.80202 7.46711e-18
9440.81053 7.49473e-18
9442.80894 7.66854e-18
9444.80735 7.85373e-18
9446.80577 7.91084e-18
9448.81428 7.75344e-18
9450.81269 7.52699e-18
9452.81110 7.32327e-18
9454.80952 7.24893e-18
9456.80793 7.59476e-18
9458.81644 8.00885e-18
9460.81485 8.11046e-18
9462.81327 7.80242e-18
9464.81168 7.41667e-18
9466.81009 7.25025e-18
9468.81860 7.23727e-18
9470.81702 7.51527e-18
9472.81543 7.91053e-18
9474.81384 8.36577e-18
9476.82235 8.70029e-18
9478.82076 8.80872e-18
9480.81918 8.54706e-18
9482.81759 8.14673e-18
9484.81601 7.75393e-18
9486.82451 7.46558e-18
9488.82293 7.44116e-18
9490.82134 7.59595e-18
9492.81976 7.81348e-18
9494.81817 7.93403e-18
9496.82668 7.92753e-18
9498.82509 7.57851e-18
9500.82350 7.17863e-18
9502.82192 6.88279e-18
9504.83043 6.74401e-18
9506.82884 6.78389e-18
9508.82725 6.96776e-18
9510.82567 7.19527e-18
9512.82408 7.33436e-18
9514.83259 7.40022e-18
9516.83100 7.27776e-18
9518.82942 7.13872e-18
9520.82783 7.16054e-18
9522.82624 7.32616e-18
9524.83475 7.46423e-18
9526.83317 7.41679e-18
9528.83158 7.28208e-18
9530.82999 7.03329e-18
9532.83850 6.80643e-18
9534.83691 6.73997e-18
9536.83533 6.78610e-18
9538.83374 6.82131e-18
9540.83216 6.75041e-18
9542.84066 6.64327e-18
9544.83908 6.50155e-18
9546.83749 6.39881e-18
9548.83591 6.42563e-18
9550.83432 6.52447e-18
9552.84283 6.63661e-18
9554.84124 6.69323e-18
9556.83965 6.69149e-18
9558.83807 6.57717e-18
9560.84658 6.43458e-18
9562.84499 6.33395e-18
9564.84340 6.24893e-18
9566.84182 6.14907e-18
9568.84023 6.02825e-18
9570.84874 5.89694e-18
9572.84715 5.76668e-18
9574.84557 5.66685e-18
9576.84398 5.62933e-18
9578.84239 5.66586e-18
9580.85090 5.83078e-18
9582.84931 6.04858e-18
9584.84773 6.23415e-18
9586.84614 6.28651e-18
9588.85465 6.25464e-18
9590.85306 6.09361e-18
9592.85148 5.91925e-18
9594.84989 5.79242e-18
9596.84831 5.75923e-18
9598.85681 5.85149e-18
9600.85523 6.05046e-18
9602.85364 6.25770e-18
9604.85206 6.33976e-18
9606.86056 6.35266e-18
9608.85898 6.23710e-18
9610.85739 6.12653e-18
9612.85580 6.15981e-18
9614.85422 6.34640e-18
9616.86273 6.54773e-18
9618.86114 6.62687e-18
9620.85955 6.62055e-18
9622.85797 6.44179e-18
9624.85638 6.23899e-18
9626.86489 6.11738e-18
9628.86330 6.11871e-18
9630.86172 6.21830e-18
9632.86013 6.37945e-18
9634.86864 6.49659e-18
9636.86705 6.30642e-18
9638.86547 6.11274e-18
9640.86388 6.13230e-18
9642.86229 6.30345e-18
9644.87080 6.48131e-18
9646.86921 6.55865e-18
9648.86763 6.58767e-18
9650.86604 6.55834e-18
9652.86446 6.50156e-18
9654.87296 6.41664e-18
9656.87138 6.35779e-18
9658.86979 6.37825e-18
9660.86821 6.48215e-18
9662.87671 6.60660e-18
9664.87513 6.68650e-18
9666.87354 6.73541e-18
9668.87195 6.73072e-18
9670.87037 6.69101e-18
9672.87888 6.61168e-18
9674.87729 6.53118e-18
9676.87570 6.48619e-18
9678.87412 6.51934e-18
9680.88262 6.57523e-18
9682.88104 6.61009e-18
9684.87945 6.63288e-18
9686.87787 6.63150e-18
9688.87628 6.62563e-18
9690.88479 6.64931e-18
9692.88320 6.70844e-18
9694.88162 6.74645e-18
9696.88003 6.68007e-18
9698.87844 6.57709e-18
9700.88695 6.44022e-18
9702.88536 6.32813e-18
9704.88378 6.28384e-18
9706.88219 6.33470e-18
9708.89070 6.44870e-18
9710.88911 6.61181e-18
9712.88753 6.73958e-18
9714.88594 6.68188e-18
9716.88436 6.58046e-18
9718.89286 6.57782e-18
9720.89128 6.67292e-18
9722.88969 6.72193e-18
9724.88810 6.62173e-18
9726.89661 6.55053e-18
9728.89503 6.73922e-18
9730.89344 6.97584e-18
9732.89185 7.13100e-18
9734.89027 7.17590e-18
9736.89877 7.15278e-18
9738.89719 7.10194e-18
9740.89560 7.06981e-18
9742.89402 7.19324e-18
9744.89243 7.30880e-18
9746.90094 7.32215e-18
9748.89935 7.23620e-18
9750.89776 7.05796e-18
9752.89618 6.84638e-18
9754.90469 6.68151e-18
9756.90310 6.70783e-18
9758.90151 6.76440e-18
9760.89993 6.75916e-18
9762.89834 6.68502e-18
9764.90685 6.51235e-18
9766.90526 6.29896e-18
9768.90368 6.14089e-18
9770.90209 6.15316e-18
9772.90051 6.20929e-18
9774.90901 6.20944e-18
9776.90743 6.20133e-18
9778.90584 6.20048e-18
9780.90425 6.23418e-18
9782.91276 6.33199e-18
9784.91118 6.50046e-18
9786.90959 6.65950e-18
9788.90800 6.68326e-18
9790.90642 6.65973e-18
9792.91492 6.62626e-18
9794.91334 6.57646e-18
9796.91175 6.46955e-18
9798.91017 6.31924e-18
9800.91867 6.18883e-18
9802.91709 6.17143e-18
9804.91550 6.19785e-18
9806.91392 6.25376e-18
9808.91233 6.30806e-18
9810.92084 6.33043e-18
9812.91925 6.32453e-18
9814.91766 6.34172e-18
9816.91608 6.43121e-18
9818.91449 6.50184e-18
9820.92300 6.47149e-18
9822.92141 6.36436e-18
9824.91983 6.16252e-18
9826.91824 5.92898e-18
9828.92675 5.72167e-18
9830.92516 5.61984e-18
9832.92358 5.58520e-18
9834.92199 5.62230e-18
9836.92040 5.71631e-18
9838.92891 5.91529e-18
9840.92733 6.09886e-18
9842.92574 6.11573e-18
9844.92415 5.92161e-18
9846.92257 5.74046e-18
9848.93107 5.86707e-18
9850.92949 6.05082e-18
9852.92790 6.18445e-18
9854.92632 6.24651e-18
9856.93482 6.24487e-18
9858.93324 6.18163e-18
9860.93165 6.07506e-18
9862.93007 5.94627e-18
9864.92848 5.80485e-18
9866.93699 5.63470e-18
9868.93540 5.51691e-18
9870.93381 5.54529e-18
9872.93223 5.68554e-18
9874.94074 5.82952e-18
9876.93915 5.87475e-18
9878.93756 5.89829e-18
9880.93598 5.95492e-18
9882.93439 5.99233e-18
9884.94290 5.98329e-18
9886.94131 5.91685e-18
9888.93973 5.77055e-18
9890.93814 5.57677e-18
9892.93655 5.43530e-18
9894.94506 5.55229e-18
9896.94348 5.69661e-18
9898.94189 5.71562e-18
9900.94030 5.65889e-18
9902.94881 5.61787e-18
9904.94722 5.62322e-18
9906.94564 5.60819e-18
9908.94405 5.50992e-18
9910.94247 5.45889e-18
9912.95097 5.60820e-18
9914.94939 5.83899e-18
9916.94780 6.09600e-18
9918.94621 6.26514e-18
9920.95472 6.27750e-18
9922.95314 6.04120e-18
9924.95155 5.77124e-18
9926.94996 5.71510e-18
9928.94838 5.73102e-18
9930.95689 5.74473e-18
9932.95530 5.74387e-18
9934.95371 5.78097e-18
9936.95213 5.85180e-18
9938.95054 5.87926e-18
9940.95905 5.66055e-18
9942.95746 5.49723e-18
9944.95588 5.64613e-18
9946.95429 5.96268e-18
9948.96280 6.30236e-18
9950.96121 6.46478e-18
9952.95963 6.38232e-18
9954.95804 5.79335e-18
9956.95645 5.22759e-18
9958.96496 5.19779e-18
9960.96337 5.44601e-18
9962.96179 5.77072e-18
9964.96020 5.97933e-18
9966.95862 6.05060e-18
9968.96712 5.87498e-18
9970.96554 5.66424e-18
9972.96395 5.64849e-18
9974.96236 5.69076e-18
9976.97087 5.67441e-18
9978.96929 5.64283e-18
9980.96770 5.74049e-18
9982.96611 6.02434e-18
9984.96453 6.27958e-18
9986.97304 6.18219e-18
9988.97145 5.99103e-18
9990.96986 5.80984e-18
9992.96828 5.66489e-18
9994.97678 5.50555e-18
9996.97520 5.35563e-18
9998.97361 5.27358e-18
10000.97203 5.36341e-18
10002.97044 5.50151e-18
