# wavelength flux
3467.00213 3.69457e-17
3468.47272 3.07433e-17
3469.94331 2.04944e-17
3471.41390 2.91970e-17
3472.88449 2.32595e-17
3474.35508 2.06944e-17
3475.81553 2.58699e-17
3477.28612 2.53927e-17
3478.75671 2.89869e-17
3480.22730 2.14540e-17
3481.69789 2.74800e-17
3483.16848 2.42614e-17
3484.63907 2.43477e-17
3486.10966 2.78840e-17
3487.58025 1.62199e-17
3489.05084 2.46388e-17
3490.52143 2.90723e-17
3491.99202 2.73191e-17
3493.46261 2.93815e-17
3494.93320 2.27540e-17
3496.40379 2.22071e-17
3497.87438 2.63452e-17
3499.34497 2.67362e-17
3500.80542 2.66857e-17
3502.27601 3.29177e-17
3503.74660 3.43147e-17
3505.21719 3.14908e-17
3506.68778 2.32943e-17
3508.15837 2.31729e-17
3509.62896 2.61610e-17
3511.09955 2.49569e-17
3512.57014 2.43212e-17
3514.04073 2.46287e-17
3515.51132 2.13570e-17
3516.98191 1.39156e-17
3518.45250 2.64842e-17
3519.92309 3.43945e-17
3521.39368 3.04078e-17
3522.86427 2.46203e-17
3524.33486 2.43891e-17
3525.79531 3.11707e-17
3527.26590 2.41501e-17
3528.73649 2.53363e-17
3530.20708 3.31702e-17
3531.67767 1.89898e-17
3533.14826 1.82158e-17
3534.61885 2.42715e-17
3536.08944 3.45076e-17
3537.56003 3.59988e-17
3539.03062 2.74196e-17
3540.50121 3.27468e-17
3541.97180 2.78066e-17
3543.44239 2.30053e-17
3544.91298 2.57981e-17
3546.38357 3.37318e-17
3547.85416 3.29416e-17
3549.32475 1.91728e-17
3550.78519 2.25166e-17
3552.25578 2.32138e-17
3553.72637 2.79764e-17
3555.19696 2.37518e-17
3556.66755 1.75723e-17
3558.13814 3.05450e-17
3559.60873 2.64739e-17
3561.07932 1.91325e-17
3562.54991 2.45426e-17
3564.02050 3.64113e-17
3565.49109 2.99133e-17
3566.96168 2.83887e-17
3568.43227 2.25875e-17
3569.90286 2.00310e-17
3571.37345 1.74302e-17
3572.84404 2.62050e-17
3574.31463 2.93888e-17
3575.78522 2.76735e-17
3577.24567 2.72705e-17
3578.71626 2.31610e-17
3580.18685 1.91647e-17
3581.65744 2.89859e-17
3583.12803 2.57460e-17
3584.59862 2.18987e-17
3586.06921 2.24776e-17
3587.53980 2.40744e-17
3589.01039 2.86032e-17
3590.48098 2.20184e-17
3591.95157 2.24408e-17
3593.42216 3.16273e-17
3594.89275 2.78418e-17
3596.36334 3.06444e-17
3597.83393 2.96227e-17
3599.30452 2.98536e-17
3600.76497 2.98174e-17
3602.23556 3.17818e-17
3603.70615 3.31546e-17
3605.17674 2.60768e-17
3606.64733 2.22336e-17
3608.11792 2.93069e-17
3609.58851 2.45062e-17
3611.05910 3.18387e-17
3612.52969 2.02374e-17
3614.00028 2.97646e-17
3615.47087 2.56515e-17
3616.94146 2.91302e-17
3618.41205 3.14657e-17
3619.88264 2.51261e-17
3621.35323 1.68895e-17
3622.82382 1.96051e-17
3624.29441 2.21595e-17
3625.76500 2.47671e-17
3627.22545 2.19817e-17
3628.69604 2.32874e-17
3630.16663 2.16675e-17
3631.63722 2.52108e-17
3633.10781 2.89848e-17
3634.57840 2.55705e-17
3636.04899 1.71619e-17
3637.51958 2.25675e-17
3638.99017 1.41252e-17
3640.46076 2.03871e-17
3641.93135 2.38175e-17
3643.40194 2.47065e-17
3644.87253 2.14694e-17
3646.34312 2.57697e-17
3647.81371 2.73074e-17
3649.28430 3.22029e-17
3650.75489 2.91222e-17
3652.21534 2.90097e-17
3653.68593 2.84305e-17
3655.15652 1.97167e-17
3656.62711 2.38032e-17
3658.09770 2.76643e-17
3659.56829 2.86953e-17
3661.03888 2.39919e-17
3662.50947 2.49216e-17
3663.98006 2.23078e-17
3665.45065 2.22220e-17
3666.92124 2.60787e-17
3668.39183 2.26572e-17
3669.86242 2.58779e-17
3671.33301 2.17337e-17
3672.80360 1.80167e-17
3674.27419 2.30251e-17
3675.74478 2.49213e-17
3677.20522 2.58304e-17
3678.67581 2.60359e-17
3680.14640 2.60658e-17
3681.61699 2.78734e-17
3683.08758 2.57779e-17
3684.55817 2.23449e-17
3686.02876 2.21413e-17
3687.49935 1.84962e-17
3688.96994 1.66098e-17
3690.44053 2.84628e-17
3691.91112 2.38573e-17
3693.38171 2.09079e-17
3694.85230 2.35080e-17
3696.32289 2.31179e-17
3697.79348 2.19401e-17
3699.26407 2.48850e-17
3700.73466 2.15857e-17
3702.19511 2.24867e-17
3703.66570 2.51786e-17
3705.13629 2.53815e-17
3706.60688 2.50097e-17
3708.07747 2.51241e-17
3709.54806 2.08505e-17
3711.01865 2.28255e-17
3712.48924 2.38551e-17
3713.95983 2.66801e-17
3715.43042 2.34170e-17
3716.90101 2.21204e-17
3718.37160 2.26369e-17
3719.84219 2.20281e-17
3721.31278 2.49041e-17
3722.78337 2.57279e-17
3724.25396 2.11673e-17
3725.72455 1.83877e-17
3727.18500 1.85436e-17
3728.65559 2.20283e-17
3730.12618 1.77778e-17
3731.59677 1.83319e-17
3733.06736 2.30866e-17
3734.53795 2.22178e-17
3736.00854 1.95874e-17
3737.47913 1.61425e-17
3738.94972 1.57531e-17
3740.42031 1.34843e-17
3741.89090 1.58881e-17
3743.36149 2.05273e-17
3744.83208 1.89730e-17
3746.30267 1.78012e-17
3747.77326 1.76436e-17
3749.24385 1.68535e-17
3750.71444 1.82101e-17
3752.18503 1.37250e-17
3753.64548 1.15499e-17
3755.11607 1.38299e-17
3756.58666 1.76043e-17
3758.05725 2.04643e-17
3759.52784 1.73021e-17
3760.99843 1.71521e-17
3762.46902 1.70021e-17
3763.93961 1.67947e-17
3765.41020 1.65873e-17
3766.88079 1.63800e-17
3768.35138 1.61727e-17
3769.82197 1.59655e-17
3771.29256 1.57584e-17
3772.76315 1.55513e-17
3774.23374 1.53442e-17
3775.70433 1.51372e-17
3777.17492 1.49303e-17
3778.63537 1.47234e-17
3780.10596 1.45166e-17
3781.57655 1.43098e-17
3783.04714 1.41030e-17
3784.51773 1.38963e-17
3785.98832 1.36897e-17
3787.45891 1.34831e-17
3788.92950 1.32766e-17
3790.40009 1.30702e-17
3791.87068 1.28637e-17
3793.34127 1.26573e-17
3794.81186 1.24510e-17
3796.28245 1.22447e-17
3797.75304 1.20385e-17
3799.22363 1.18323e-17
3800.69422 1.16262e-17
3802.16481 1.39553e-17
3803.62525 1.24363e-17
3805.09584 9.80161e-18
3806.56643 1.03398e-17
3808.03702 1.05448e-17
3809.50761 1.02505e-17
3810.97820 1.08966e-17
3812.44879 1.22832e-17
3813.91938 1.26582e-17
3815.38997 1.01528e-17
3816.86056 7.47422e-18
3818.33115 9.82889e-18
3819.80174 7.90106e-18
3821.27233 7.65725e-18
3822.74292 1.10567e-17
3824.21351 1.12945e-17
3825.68410 8.81711e-18
3827.15469 9.60235e-18
3828.61514 1.17256e-17
3830.08573 1.34768e-17
3831.55632 1.29169e-17
3833.02691 1.13422e-17
3834.49750 1.30981e-17
3835.96809 1.06430e-17
3837.43868 1.12429e-17
3838.90927 9.52296e-18
3840.37986 9.73126e-18
3841.85045 1.33612e-17
3843.32104 1.12242e-17
3844.79163 9.40883e-18
3846.26222 9.17132e-18
3847.73281 9.99065e-18
3849.20340 1.02027e-17
3850.67399 7.39149e-18
3852.14458 1.00400e-17
3853.61517 1.28296e-17
3855.07562 9.97034e-18
3856.54621 8.75087e-18
3858.01680 8.32026e-18
3859.48739 1.07707e-17
3860.95798 1.24150e-17
3862.42857 1.02566e-17
3863.89916 1.00084e-17
3865.36975 1.12616e-17
3866.84034 1.08482e-17
3868.31093 9.53323e-18
3869.78152 9.47505e-18
3871.25211 9.63976e-18
3872.72270 1.21332e-17
3874.19329 1.34244e-17
3875.66388 1.05995e-17
3877.13447 1.00714e-17
3878.60506 9.51262e-18
3880.06551 1.19249e-17
3881.53610 1.48432e-17
3883.00669 1.39412e-17
3884.47728 1.46163e-17
3885.94787 1.53493e-17
3887.41846 1.23464e-17
3888.88905 1.29230e-17
3890.35964 1.63172e-17
3891.83023 1.67333e-17
3893.30082 1.68316e-17
3894.77141 1.65582e-17
3896.24200 1.48096e-17
3897.71259 1.34081e-17
3899.18318 1.57608e-17
3900.65377 1.61835e-17
3902.12436 1.26491e-17
3903.59495 1.31683e-17
3905.05540 1.59262e-17
3906.52599 1.75967e-17
3907.99658 1.86478e-17
3909.46717 1.85443e-17
3910.93776 1.81948e-17
3912.40835 1.74300e-17
3913.87894 1.83450e-17
3915.34953 1.94839e-17
3916.82012 1.74732e-17
3918.29071 1.79990e-17
3919.76130 2.14533e-17
3921.23189 2.10423e-17
3922.70248 2.12742e-17
3924.17307 2.17541e-17
3925.64366 1.79623e-17
3927.11425 1.53565e-17
3928.58484 1.82982e-17
3930.04528 2.08290e-17
3931.51587 1.96139e-17
3932.98646 1.80749e-17
3934.45705 1.75759e-17
3935.92764 1.95715e-17
3937.39823 2.09866e-17
3938.86882 2.20267e-17
3940.33941 2.14730e-17
3941.81000 1.91964e-17
3943.28059 2.01049e-17
3944.75118 2.22827e-17
3946.22177 2.22129e-17
3947.69236 2.41748e-17
3949.16295 2.52285e-17
3950.63354 2.31357e-17
3952.10413 2.35496e-17
3953.57472 2.36549e-17
3955.03517 2.38992e-17
3956.50576 2.49293e-17
3957.97635 2.73454e-17
3959.44694 2.89171e-17
3960.91753 2.75618e-17
3962.38812 2.60893e-17
3963.85871 2.69196e-17
3965.32930 2.74838e-17
3966.79989 2.73326e-17
3968.27048 2.82368e-17
3969.74107 2.92868e-17
3971.21166 2.97591e-17
3972.68225 3.01981e-17
3974.15284 2.96933e-17
3975.62343 2.70550e-17
3977.09402 2.54991e-17
3978.56461 2.74485e-17
3980.02506 2.87289e-17
3981.49565 2.76037e-17
3982.96624 2.78546e-17
3984.43683 2.86323e-17
3985.90742 2.82090e-17
3987.37801 2.96172e-17
3988.84860 3.13674e-17
3990.31919 3.12447e-17
3991.78978 3.06657e-17
3993.26037 3.10113e-17
3994.73096 3.08982e-17
3996.20155 3.03493e-17
3997.67214 2.96092e-17
3999.14273 2.90592e-17
4000.61332 2.83722e-17
4002.08391 2.96992e-17
4003.55450 3.11212e-17
4005.02509 3.24534e-17
4006.48554 3.02913e-17
4007.95613 2.66670e-17
4009.42672 2.62797e-17
4010.89731 2.79738e-17
4012.36790 2.81616e-17
4013.83849 2.66463e-17
4015.30908 2.93497e-17
4016.77967 3.23042e-17
4018.25026 3.03398e-17
4019.72085 3.01291e-17
4021.19144 3.02082e-17
4022.66203 2.79481e-17
4024.13262 3.00615e-17
4025.60321 3.07820e-17
4027.07380 3.09785e-17
4028.54439 2.94652e-17
4030.01498 3.05232e-17
4031.47543 3.01709e-17
4032.94602 2.97804e-17
4034.41661 3.15103e-17
4035.88720 3.11584e-17
4037.35779 3.17504e-17
4038.82838 3.17485e-17
4040.29897 3.05019e-17
4041.76956 2.91219e-17
4043.24015 2.74514e-17
4044.71074 2.85956e-17
4046.18133 3.10727e-17
4047.65192 2.76792e-17
4049.12251 2.65600e-17
4050.59310 3.06270e-17
4052.06369 2.84544e-17
4053.53428 2.79991e-17
4055.00487 2.99638e-17
4056.46531 3.09292e-17
4057.93590 3.13488e-17
4059.40649 2.91614e-17
4060.87708 2.72810e-17
4062.34767 2.92897e-17
4063.81826 2.84966e-17
4065.28885 2.80167e-17
4066.75944 2.82576e-17
4068.23003 2.97082e-17
4069.70062 2.92990e-17
4071.17121 3.03527e-17
4072.64180 2.63435e-17
4074.11239 2.35369e-17
4075.58298 2.30753e-17
4077.05357 2.82315e-17
4078.52416 2.79552e-17
4079.99475 2.62077e-17
4081.45520 2.63731e-17
4082.92579 2.52328e-17
4084.39638 2.44130e-17
4085.86697 2.49863e-17
4087.33756 2.23570e-17
4088.80815 2.18940e-17
4090.27874 2.58330e-17
4091.74933 2.44614e-17
4093.21992 2.33875e-17
4094.69051 2.43961e-17
4096.16110 2.34161e-17
4097.63169 2.41581e-17
4099.10228 2.53549e-17
4100.57287 2.40305e-17
4102.04346 2.49623e-17
4103.51405 2.60756e-17
4104.98464 2.69322e-17
4106.45523 2.68517e-17
4107.91568 2.57341e-17
4109.38627 2.26203e-17
4110.85686 2.19437e-17
4112.32745 2.37752e-17
4113.79804 2.33969e-17
4115.26863 2.32393e-17
4116.73922 2.26942e-17
4118.20981 2.33381e-17
4119.68040 2.26757e-17
4121.15099 2.28697e-17
4122.62158 2.40792e-17
4124.09217 2.19196e-17
4125.56276 2.20010e-17
4127.03335 2.39981e-17
4128.50394 2.13385e-17
4129.97453 2.34957e-17
4131.43498 2.43985e-17
4132.90557 2.27292e-17
4134.37616 2.18158e-17
4135.84675 2.15437e-17
4137.31734 1.97408e-17
4138.78793 2.09204e-17
4140.25852 2.14358e-17
4141.72911 2.26097e-17
4143.19970 2.06190e-17
4144.67029 2.05163e-17
4146.14088 2.24062e-17
4147.61147 2.03750e-17
4149.08206 1.87392e-17
4150.55265 2.13050e-17
4152.02324 2.07471e-17
4153.49383 2.00017e-17
4154.96442 1.82561e-17
4156.43501 2.08799e-17
4157.89546 2.00412e-17
4159.36605 1.75396e-17
4160.83664 2.12882e-17
4162.30723 2.09783e-17
4163.77782 2.11211e-17
4165.24841 2.00674e-17
4166.71900 1.86888e-17
4168.18959 2.16516e-17
4169.66018 1.88589e-17
4171.13077 1.96743e-17
4172.60136 2.01375e-17
4174.07195 1.85015e-17
4175.54254 2.01453e-17
4177.01313 1.97347e-17
4178.48372 2.17557e-17
4179.95431 2.05941e-17
4181.42490 2.00142e-17
4182.88534 1.80437e-17
4184.35593 2.17304e-17
4185.82652 2.05452e-17
4187.29711 1.85481e-17
4188.76770 2.00052e-17
4190.23829 2.04427e-17
4191.70888 1.96416e-17
4193.17947 2.03769e-17
4194.65006 1.98542e-17
4196.12065 1.90845e-17
4197.59124 1.92397e-17
4199.06183 2.01583e-17
4200.53242 2.23464e-17
4202.00301 2.24379e-17
4203.47360 2.09835e-17
4204.94419 2.04480e-17
4206.41478 2.10556e-17
4207.87523 2.07107e-17
4209.34582 2.09720e-17
4210.81641 2.20944e-17
4212.28700 2.08443e-17
4213.75759 2.02130e-17
4215.22818 1.92630e-17
4216.69877 1.95567e-17
4218.16936 2.13260e-17
4219.63995 2.03153e-17
4221.11054 2.01275e-17
4222.58113 1.98427e-17
4224.05172 2.20795e-17
4225.52231 2.21739e-17
4226.99290 2.19415e-17
4228.46349 2.08933e-17
4229.93408 2.01341e-17
4231.40467 2.02605e-17
4232.86512 2.13674e-17
4234.33571 2.19332e-17
4235.80630 2.06082e-17
4237.27689 2.15975e-17
4238.74748 2.13086e-17
4240.21807 2.05601e-17
4241.68866 2.05601e-17
4243.15925 2.18245e-17
4244.62984 2.10760e-17
4246.10043 2.12481e-17
4247.57102 2.15082e-17
4249.04161 1.88769e-17
4250.51220 1.96087e-17
4251.98279 2.08977e-17
4253.45338 2.16460e-17
4254.92397 2.20013e-17
4256.39456 2.10575e-17
4257.86515 2.10150e-17
4259.32560 1.98907e-17
4260.79619 2.06412e-17
4262.26678 2.10839e-17
4263.73737 2.04490e-17
4265.20796 1.89251e-17
4266.67855 2.02935e-17
4268.14914 1.94912e-17
4269.61973 1.89838e-17
4271.09032 1.92567e-17
4272.56091 1.97994e-17
4274.03150 2.00583e-17
4275.50209 1.89093e-17
4276.97268 1.88977e-17
4278.44327 1.96773e-17
4279.91386 2.01397e-17
4281.38445 2.09046e-17
4282.85504 2.02241e-17
4284.31549 1.79654e-17
4285.78608 1.91083e-17
4287.25667 1.93839e-17
4288.72726 1.92171e-17
4290.19785 2.04109e-17
4291.66844 2.02014e-17
4293.13903 1.90236e-17
4294.60962 1.84979e-17
4296.08021 1.98248e-17
4297.55080 1.89195e-17
4299.02139 1.86184e-17
4300.49198 1.93159e-17
4301.96257 1.86551e-17
4303.43316 1.86566e-17
4304.90375 1.99500e-17
4306.37434 1.96869e-17
4307.83478 1.88805e-17
4309.30537 1.84706e-17
4310.77596 1.89609e-17
4312.24655 1.92800e-17
4313.71714 1.99110e-17
4315.18773 1.98401e-17
4316.65832 1.90720e-17
4318.12891 1.82337e-17
4319.59950 1.99510e-17
4321.07009 1.96753e-17
4322.54068 1.86021e-17
4324.01127 1.81370e-17
4325.48186 1.95168e-17
4326.95245 2.01221e-17
4328.42304 1.95381e-17
4329.89363 2.03339e-17
4331.36422 2.07369e-17
4332.83481 1.96515e-17
4334.29526 2.01372e-17
4335.76585 1.86507e-17
4337.23644 1.82600e-17
4338.70703 1.84826e-17
4340.17762 1.86769e-17
4341.64821 1.91540e-17
4343.11880 2.03698e-17
4344.58939 1.92777e-17
4346.05998 2.00753e-17
4347.53057 1.88867e-17
4349.00116 1.90019e-17
4350.47175 2.02489e-17
4351.94234 1.96229e-17
4353.41293 1.93672e-17
4354.88352 1.79219e-17
4356.35411 1.94070e-17
4357.82470 1.86859e-17
4359.28515 1.99309e-17
4360.75574 2.02180e-17
4362.22633 1.86601e-17
4363.69692 1.73270e-17
4365.16751 1.93384e-17
4366.63810 1.99071e-17
4368.10869 1.82935e-17
4369.57928 1.75192e-17
4371.04987 1.73597e-17
4372.52046 1.57836e-17
4373.99105 1.66993e-17
4375.46164 1.71846e-17
4376.93223 1.54131e-17
4378.40282 1.64582e-17
4379.87341 1.63468e-17
4381.34400 1.63479e-17
4382.81459 1.77087e-17
4384.28518 1.78201e-17
4385.74563 1.76193e-17
4387.21622 1.79285e-17
4388.68681 1.83536e-17
4390.15740 1.70348e-17
4391.62799 1.58849e-17
4393.09858 1.49575e-17
4394.56917 1.63002e-17
4396.03976 1.71818e-17
4397.51035 1.64674e-17
4398.98094 1.59861e-17
4400.45153 1.49107e-17
4401.92212 1.65340e-17
4403.39271 1.74344e-17
4404.86330 1.60288e-17
4406.33389 1.41968e-17
4407.80448 1.42057e-17
4409.27507 1.42146e-17
4410.73552 1.42235e-17
4412.20611 1.42323e-17
4413.67670 1.42412e-17
4415.14729 1.42501e-17
4416.61788 1.42589e-17
4418.08847 1.42678e-17
4419.55906 1.42767e-17
4421.02965 1.42855e-17
4422.50024 1.42944e-17
4423.97083 1.43032e-17
4425.44142 1.43121e-17
4426.91201 1.43209e-17
4428.38260 1.43298e-17
4429.85319 1.43386e-17
4431.32378 1.43475e-17
4432.79437 1.43563e-17
4434.25481 1.43651e-17
4435.72540 1.43740e-17
4437.19599 1.43828e-17
4438.66658 1.43916e-17
4440.13717 1.44004e-17
4441.60776 1.44093e-17
4443.07835 1.44181e-17
4444.54894 1.44269e-17
4446.01953 1.40474e-17
4447.49012 1.36650e-17
4448.96071 1.35503e-17
4450.43130 1.30222e-17
4451.90189 1.27273e-17
4453.37248 1.30053e-17
4454.84307 1.36654e-17
4456.31366 1.37680e-17
4457.78425 1.38749e-17
4459.25484 1.46750e-17
4460.72543 1.40542e-17
4462.18588 1.33466e-17
4463.65647 1.27459e-17
4465.12706 1.36111e-17
4466.59765 1.49842e-17
4468.06824 1.43767e-17
4469.53883 1.35154e-17
4471.00942 1.36414e-17
4472.48001 1.45137e-17
4473.95060 1.41225e-17
4475.42119 1.43602e-17
4476.89178 1.48067e-17
4478.36237 1.44796e-17
4479.83296 1.53271e-17
4481.30355 1.56505e-17
4482.77414 1.52524e-17
4484.24473 1.53180e-17
4485.70518 1.52187e-17
4487.17577 1.56619e-17
4488.64636 1.60876e-17
4490.11695 1.63478e-17
4491.58754 1.63050e-17
4493.05813 1.57746e-17
4494.52872 1.65576e-17
4495.99931 1.67448e-17
4497.46990 1.62893e-17
4498.94049 1.63037e-17
4500.41108 1.59822e-17
4501.88167 1.73494e-17
4503.35226 1.79033e-17
4504.82285 1.61835e-17
4506.29344 1.65816e-17
4507.76403 1.72780e-17
4509.23462 1.61277e-17
4510.70521 1.59837e-17
4512.16566 1.73647e-17
4513.63625 1.81164e-17
4515.10684 1.86171e-17
4516.57743 1.89449e-17
4518.04802 1.74563e-17
4519.51861 1.66985e-17
4520.98920 1.74771e-17
4522.45979 1.65956e-17
4523.93038 1.61561e-17
4525.40097 1.75295e-17
4526.87156 1.70419e-17
4528.34215 1.66527e-17
4529.81274 1.79169e-17
4531.28333 1.88921e-17
4532.75392 1.89344e-17
4534.22451 1.80847e-17
4535.69510 1.70069e-17
4537.15555 1.74446e-17
4538.62614 1.86278e-17
4540.09673 1.84946e-17
4541.56732 1.88477e-17
4543.03791 1.94604e-17
4544.50850 1.92519e-17
4545.97909 1.94074e-17
4547.44968 1.93959e-17
4548.92027 1.87465e-17
4550.39086 1.93471e-17
4551.86145 1.97699e-17
4553.33204 1.99053e-17
4554.80263 2.07623e-17
4556.27322 2.07097e-17
4557.74381 1.98758e-17
4559.21440 1.97872e-17
4560.68499 2.01800e-17
4562.14543 2.02378e-17
4563.61602 2.06290e-17
4565.08661 2.06422e-17
4566.55720 1.96802e-17
4568.02779 1.97293e-17
4569.49838 1.99729e-17
4570.96897 2.06515e-17
4572.43956 2.13534e-17
4573.91015 2.17525e-17
4575.38074 2.16868e-17
4576.85133 2.08637e-17
4578.32192 2.13786e-17
4579.79251 2.22902e-17
4581.26310 2.21942e-17
4582.73369 2.19334e-17
4584.20428 2.21236e-17
4585.67487 2.24483e-17
4587.14546 2.30552e-17
4588.60591 2.19935e-17
4590.07650 2.10692e-17
4591.54709 2.13163e-17
4593.01768 2.21503e-17
4594.48827 2.25776e-17
4595.95886 2.33673e-17
4597.42945 2.33513e-17
4598.90004 2.25228e-17
4600.37063 2.19830e-17
4601.84122 2.27879e-17
4603.31181 2.29508e-17
4604.78240 2.13489e-17
4606.25299 2.17772e-17
4607.72358 2.18754e-17
4609.19417 2.19133e-17
4610.66476 2.23498e-17
4612.12521 2.34672e-17
4613.59580 2.53132e-17
4615.06639 2.51495e-17
4616.53698 2.44219e-17
4618.00757 2.37223e-17
4619.47816 2.32460e-17
4620.94875 2.32603e-17
4622.41934 2.48413e-17
4623.88993 2.38027e-17
4625.36052 2.35557e-17
4626.83111 2.36926e-17
4628.30170 2.32736e-17
4629.77229 2.49667e-17
4631.24288 2.49686e-17
4632.71347 2.35131e-17
4634.18406 2.40965e-17
4635.65465 2.57973e-17
4637.12524 2.42588e-17
4638.58569 2.35077e-17
4640.05628 2.43343e-17
4641.52687 2.48894e-17
4642.99746 2.43133e-17
4644.46805 2.40076e-17
4645.93864 2.53840e-17
4647.40923 2.50867e-17
4648.87982 2.45907e-17
4650.35041 2.46879e-17
4651.82100 2.33194e-17
4653.29159 2.33176e-17
4654.76218 2.42281e-17
4656.23277 2.35607e-17
4657.70336 2.39419e-17
4659.17395 2.33914e-17
4660.64454 2.36203e-17
4662.10499 2.44792e-17
4663.57558 2.54039e-17
4665.04617 2.56983e-17
4666.51676 2.42802e-17
4667.98735 2.36763e-17
4669.45794 2.32383e-17
4670.92853 2.34489e-17
4672.39912 2.35151e-17
4673.86971 2.27748e-17
4675.34030 2.42887e-17
4676.81089 2.30661e-17
4678.28148 2.15867e-17
4679.75207 2.18574e-17
4681.22266 2.19640e-17
4682.69325 2.17435e-17
4684.16384 2.29281e-17
4685.63443 2.25995e-17
4687.10502 2.20345e-17
4688.56546 2.12420e-17
4690.03605 2.13641e-17
4691.50664 2.10741e-17
4692.97723 2.16952e-17
4694.44782 2.22939e-17
4695.91841 2.20039e-17
4697.38900 2.06622e-17
4698.85959 1.97253e-17
4700.33018 2.03346e-17
4701.80077 2.04262e-17
4703.27136 2.15254e-17
4704.74195 2.14811e-17
4706.21254 2.13396e-17
4707.68313 2.14407e-17
4709.15372 2.06707e-17
4710.62431 2.04904e-17
4712.09490 1.94188e-17
4713.55535 2.11017e-17
4715.02594 2.17443e-17
4716.49653 2.02709e-17
4717.96712 2.14215e-17
4719.43771 2.13352e-17
4720.90830 2.16472e-17
4722.37889 2.12523e-17
4723.84948 2.11788e-17
4725.32007 1.99343e-17
4726.79066 2.03958e-17
4728.26125 1.96079e-17
4729.73184 1.86602e-17
4731.20243 1.93318e-17
4732.67302 1.84971e-17
4734.14361 1.84364e-17
4735.61420 1.85600e-17
4737.08479 1.74477e-17
4738.54524 1.84676e-17
4740.01583 1.86248e-17
4741.48642 2.07564e-17
4742.95701 1.95426e-17
4744.42760 1.99055e-17
4745.89819 1.84340e-17
4747.36878 1.91363e-17
4748.83937 1.96066e-17
4750.30996 2.03277e-17
4751.78055 1.94753e-17
4753.25114 1.87588e-17
4754.72173 1.95765e-17
4756.19232 1.91377e-17
4757.66291 2.02475e-17
4759.13350 1.90077e-17
4760.60409 1.74945e-17
4762.07468 1.70622e-17
4763.54527 1.72937e-17
4765.00572 1.90148e-17
4766.47631 1.91216e-17
4767.94690 1.84114e-17
4769.41749 1.75117e-17
4770.88808 1.72233e-17
4772.35867 1.72531e-17
4773.82926 1.60043e-17
4775.29985 1.64975e-17
4776.77044 1.83323e-17
4778.24103 1.84156e-17
4779.71162 1.76161e-17
4781.18221 1.51995e-17
4782.65280 1.47177e-17
4784.12339 1.60048e-17
4785.59398 1.52322e-17
4787.06457 1.39117e-17
4788.52502 1.45311e-17
4789.99561 1.55406e-17
4791.46620 1.60707e-17
4792.93679 1.53059e-17
4794.40738 1.53924e-17
4795.87797 1.40597e-17
4797.34856 1.33329e-17
4798.81915 1.45097e-17
4800.28974 1.49312e-17
4801.76033 1.41454e-17
4803.23092 1.44169e-17
4804.70151 1.38941e-17
4806.17210 1.37999e-17
4807.64269 1.35401e-17
4809.11328 1.19763e-17
4810.58387 1.11151e-17
4812.05446 1.24566e-17
4813.51490 1.43023e-17
4814.98549 1.36215e-17
4816.45608 1.18215e-17
4817.92667 1.25062e-17
4819.39726 1.32064e-17
4820.86785 1.24560e-17
4822.33844 1.34265e-17
4823.80903 1.30289e-17
4825.27962 1.29593e-17
4826.75021 1.23090e-17
4828.22080 1.34928e-17
4829.69139 1.33695e-17
4831.16198 1.35748e-17
4832.63257 1.26253e-17
4834.10316 1.14957e-17
4835.57375 1.15637e-17
4837.04434 1.30744e-17
4838.51493 1.25926e-17
4839.97538 1.31762e-17
4841.44597 1.38588e-17
4842.91656 1.28394e-17
4844.38715 1.15584e-17
4845.85774 1.22026e-17
4847.32833 1.25348e-17
4848.79892 1.25874e-17
4850.26951 1.34087e-17
4851.74010 1.29582e-17
4853.21069 1.21682e-17
4854.68128 1.14805e-17
4856.15187 1.27850e-17
4857.62246 1.17219e-17
4859.09305 1.22981e-17
4860.56364 1.26515e-17
4862.03423 1.36828e-17
4863.50482 1.19234e-17
4864.96527 1.24373e-17
4866.43586 1.19418e-17
4867.90645 1.22968e-17
4869.37704 1.20317e-17
4870.84763 1.19587e-17
4872.31822 1.24282e-17
4873.78881 1.20837e-17
4875.25940 1.19268e-17
4876.72999 1.15632e-17
4878.20058 1.18943e-17
4879.67117 1.06725e-17
4881.14176 1.11512e-17
4882.61235 1.13416e-17
4884.08294 1.18593e-17
4885.55353 1.10677e-17
4887.02412 1.13661e-17
4888.49471 1.12108e-17
4889.95516 1.03928e-17
4891.42575 1.22334e-17
4892.89634 1.14207e-17
4894.36693 1.15884e-17
4895.83752 1.16184e-17
4897.30811 1.25160e-17
4898.77870 1.27236e-17
4900.24929 1.24143e-17
4901.71988 1.21304e-17
4903.19047 1.16041e-17
4904.66106 1.13493e-17
4906.13165 1.15118e-17
4907.60224 1.16732e-17
4909.07283 1.14285e-17
4910.54342 1.17558e-17
4912.01401 1.17735e-17
4913.48460 1.18844e-17
4914.95519 1.19953e-17
4916.41564 1.21061e-17
4917.88623 1.22170e-17
4919.35682 1.23277e-17
4920.82741 1.24385e-17
4922.29800 1.25492e-17
4923.76859 1.26599e-17
4925.23918 1.27706e-17
4926.70977 1.28813e-17
4928.18036 1.29919e-17
4929.65095 1.31025e-17
4931.12154 1.32131e-17
4932.59213 1.33236e-17
4934.06272 1.34342e-17
4935.53331 1.35447e-17
4937.00390 1.36552e-17
4938.47449 1.37657e-17
4939.93493 1.38761e-17
4941.40552 1.39865e-17
4942.87611 1.40969e-17
4944.34670 1.42073e-17
4945.81729 1.43176e-17
4947.28788 1.44280e-17
4948.75847 1.45382e-17
4950.22906 1.44655e-17
4951.69965 1.40368e-17
4953.17024 1.46788e-17
4954.64083 1.53028e-17
4956.11142 1.52019e-17
4957.58201 1.49085e-17
4959.05260 1.40751e-17
4960.52319 1.37191e-17
4961.99378 1.52551e-17
4963.46437 1.58997e-17
4964.93496 1.51212e-17
4966.39541 1.42564e-17
4967.86600 1.54563e-17
4969.33659 1.54960e-17
4970.80718 1.48403e-17
4972.27777 1.47700e-17
4973.74836 1.56342e-17
4975.21895 1.55344e-17
4976.68954 1.52674e-17
4978.16013 1.45818e-17
4979.63072 1.50637e-17
4981.10131 1.53497e-17
4982.57190 1.60028e-17
4984.04249 1.71500e-17
4985.51308 1.59689e-17
4986.98367 1.46430e-17
4988.45426 1.45902e-17
4989.92485 1.49703e-17
4991.38530 1.56408e-17
4992.85589 1.59108e-17
4994.32648 1.56487e-17
4995.79707 1.46731e-17
4997.26766 1.47288e-17
4998.73825 1.50565e-17
5000.20884 1.47069e-17
5001.67943 1.48726e-17
5003.15002 1.46086e-17
5004.62061 1.37380e-17
5006.09120 1.40834e-17
5007.56179 1.48841e-17
5009.03238 1.44199e-17
5010.50297 1.45020e-17
5011.97356 1.43950e-17
5013.44415 1.42881e-17
5014.91474 1.41812e-17
5016.37519 1.40744e-17
5017.84578 1.39675e-17
5019.31637 1.38607e-17
5020.78696 1.37539e-17
5022.25755 1.36471e-17
5023.72814 1.35403e-17
5025.19873 1.34336e-17
5026.66932 1.33269e-17
5028.13991 1.32202e-17
5029.61050 1.31135e-17
5031.08109 1.30069e-17
5032.55168 1.29003e-17
5034.02227 1.27936e-17
5035.49286 1.26871e-17
5036.96345 1.25806e-17
5038.43404 1.24740e-17
5039.90463 1.23675e-17
5041.37522 1.22610e-17
5042.83567 1.21546e-17
5044.30626 1.20481e-17
5045.77685 1.19418e-17
5047.24744 1.18354e-17
5048.71803 1.17290e-17
5050.18862 1.13021e-17
5051.65921 1.19433e-17
5053.12980 1.19544e-17
5054.60039 1.17492e-17
5056.07098 1.25265e-17
5057.54157 1.28968e-17
5059.01216 1.24980e-17
5060.48275 1.25317e-17
5061.95334 1.25654e-17
5063.42393 1.25991e-17
5064.89452 1.26327e-17
5066.35496 1.26664e-17
5067.82555 1.27001e-17
5069.29614 1.27337e-17
5070.76673 1.27674e-17
5072.23732 1.28010e-17
5073.70791 1.28346e-17
5075.17850 1.28683e-17
5076.64909 1.29019e-17
5078.11968 1.29355e-17
5079.59027 1.29691e-17
5081.06086 1.30027e-17
5082.53145 1.30363e-17
5084.00204 1.30699e-17
5085.47263 1.31035e-17
5086.94322 1.31370e-17
5088.41381 1.31706e-17
5089.88440 1.32042e-17
5091.35499 1.32377e-17
5092.81544 1.32713e-17
5094.28603 1.33048e-17
5095.75662 1.33383e-17
5097.22721 1.33719e-17
5098.69780 1.36415e-17
5100.16839 1.27015e-17
5101.63898 1.20432e-17
5103.10957 1.28405e-17
5104.58016 1.29966e-17
5106.05075 1.30935e-17
5107.52134 1.35547e-17
5108.99193 1.33607e-17
5110.46252 1.27375e-17
5111.93311 1.26964e-17
5113.40370 1.34639e-17
5114.87429 1.42698e-17
5116.34488 1.43701e-17
5117.80533 1.37162e-17
5119.27592 1.30746e-17
5120.74651 1.34242e-17
5122.21710 1.35233e-17
5123.68769 1.32274e-17
5125.15828 1.34167e-17
5126.62887 1.39780e-17
5128.09946 1.42504e-17
5129.57005 1.34778e-17
5131.04064 1.28352e-17
5132.51123 1.32227e-17
5133.98182 1.31115e-17
5135.45241 1.27269e-17
5136.92300 1.26453e-17
5138.39359 1.30271e-17
5139.86418 1.32460e-17
5141.33477 1.32077e-17
5142.79522 1.28456e-17
5144.26581 1.26102e-17
5145.73640 1.37242e-17
5147.20699 1.38516e-17
5148.67758 1.31986e-17
5150.14817 1.36269e-17
5151.61876 1.33404e-17
5153.08935 1.35678e-17
5154.55994 1.34765e-17
5156.03053 1.25903e-17
5157.50112 1.29691e-17
5158.97171 1.40152e-17
5160.44230 1.38177e-17
5161.91289 1.38626e-17
5163.38348 1.38378e-17
5164.85407 1.27493e-17
5166.32466 1.20968e-17
5167.79525 1.28835e-17
5169.25570 1.31257e-17
5170.72629 1.32801e-17
5172.19688 1.31895e-17
5173.66747 1.32937e-17
5175.13806 1.33507e-17
5176.60865 1.32407e-17
5178.07924 1.39598e-17
5179.54983 1.45067e-17
5181.02042 1.40292e-17
5182.49101 1.37898e-17
5183.96160 1.43085e-17
5185.43219 1.40610e-17
5186.90278 1.41500e-17
5188.37337 1.42155e-17
5189.84396 1.36360e-17
5191.31455 1.41821e-17
5192.77499 1.41408e-17
5194.24558 1.41366e-17
5195.71617 1.46032e-17
5197.18676 1.44455e-17
5198.65735 1.49381e-17
5200.12794 1.53705e-17
5201.59853 1.53455e-17
5203.06912 1.50453e-17
5204.53971 1.45338e-17
5206.01030 1.44134e-17
5207.48089 1.45875e-17
5208.95148 1.48981e-17
5210.42207 1.44203e-17
5211.89266 1.42805e-17
5213.36325 1.44347e-17
5214.83384 1.46119e-17
5216.30443 1.52943e-17
5217.77502 1.47774e-17
5219.24561 1.50375e-17
5220.70606 1.47331e-17
5222.17665 1.42227e-17
5223.64724 1.51060e-17
5225.11783 1.53437e-17
5226.58842 1.62590e-17
5228.05901 1.73533e-17
5229.52960 1.55973e-17
5231.00019 1.52480e-17
5232.47078 1.55525e-17
5233.94137 1.49487e-17
5235.41196 1.60666e-17
5236.88255 1.70376e-17
5238.35314 1.61781e-17
5239.82373 1.57044e-17
5241.29432 1.65210e-17
5242.75477 1.65848e-17
5244.22536 1.63479e-17
5245.69595 1.56600e-17
5247.16654 1.49750e-17
5248.63713 1.57323e-17
5250.10772 1.65432e-17
5251.57831 1.71993e-17
5253.04890 1.64251e-17
5254.51949 1.63285e-17
5255.99008 1.75744e-17
5257.46067 1.69450e-17
5258.93126 1.60130e-17
5260.40185 1.62713e-17
5261.87244 1.73575e-17
5263.34303 1.75001e-17
5264.81362 1.74641e-17
5266.28421 1.72044e-17
5267.75480 1.69848e-17
5269.21525 1.72120e-17
5270.68584 1.64898e-17
5272.15643 1.70287e-17
5273.62702 1.77900e-17
5275.09761 1.68225e-17
5276.56820 1.67136e-17
5278.03879 1.67969e-17
5279.50938 1.61120e-17
5280.97997 1.70847e-17
5282.45056 1.81350e-17
5283.92115 1.81642e-17
5285.39174 1.77895e-17
5286.86233 1.80653e-17
5288.33292 1.82658e-17
5289.80351 1.76906e-17
5291.27410 1.74840e-17
5292.74469 1.74096e-17
5294.20514 1.75580e-17
5295.67573 1.84771e-17
5297.14632 1.92311e-17
5298.61691 1.84516e-17
5300.08750 1.76282e-17
5301.55809 1.78896e-17
5303.02868 1.87988e-17
5304.49927 1.76360e-17
5305.96986 1.71673e-17
5307.44045 1.76114e-17
5308.91104 1.75819e-17
5310.38163 1.83998e-17
5311.85222 1.77753e-17
5313.32281 1.75729e-17
5314.79340 1.86576e-17
5316.26399 1.82295e-17
5317.73458 1.81872e-17
5319.20517 1.86812e-17
5320.66561 1.72542e-17
5322.13620 1.79938e-17
5323.60679 1.75233e-17
5325.07738 1.81732e-17
5326.54797 1.74646e-17
5328.01856 1.74416e-17
5329.48915 1.73746e-17
5330.95974 1.83866e-17
5332.43033 1.81992e-17
5333.90092 1.75187e-17
5335.37151 1.73903e-17
5336.84210 1.83248e-17
5338.31269 1.84489e-17
5339.78328 1.78322e-17
5341.25387 1.71773e-17
5342.72446 1.83944e-17
5344.19505 1.94301e-17
5345.65550 1.83008e-17
5347.12609 1.75831e-17
5348.59668 1.76790e-17
5350.06727 1.80777e-17
5351.53786 1.74289e-17
5353.00845 1.74895e-17
5354.47904 1.69438e-17
5355.94963 1.73555e-17
5357.42022 1.82266e-17
5358.89081 1.69694e-17
5360.36140 1.64550e-17
5361.83199 1.72844e-17
5363.30258 1.81422e-17
5364.77317 1.72547e-17
5366.24376 1.76787e-17
5367.71435 1.72863e-17
5369.18494 1.75719e-17
5370.64539 1.84089e-17
5372.11598 1.71603e-17
5373.58657 1.63102e-17
5375.05716 1.75350e-17
5376.52775 1.73503e-17
5377.99834 1.61149e-17
5379.46893 1.70832e-17
5380.93952 1.77612e-17
5382.41011 1.66125e-17
5383.88070 1.72263e-17
5385.35129 1.83664e-17
5386.82188 1.68619e-17
5388.29247 1.64189e-17
5389.76306 1.65429e-17
5391.23365 1.77118e-17
5392.70424 1.76080e-17
5394.17483 1.73828e-17
5395.63528 1.67791e-17
5397.10587 1.75862e-17
5398.57646 1.63152e-17
5400.04705 1.63769e-17
5401.51764 1.62990e-17
5402.98823 1.60505e-17
5404.45882 1.61309e-17
5405.92941 1.64636e-17
5407.40000 1.64509e-17
5408.87059 1.73836e-17
5410.34118 1.69613e-17
5411.81177 1.72330e-17
5413.28236 1.74454e-17
5414.75295 1.76243e-17
5416.22354 1.61508e-17
5417.69413 1.70405e-17
5419.16472 1.70083e-17
5420.62517 1.70096e-17
5422.09576 1.69631e-17
5423.56635 1.68398e-17
5425.03694 1.71358e-17
5426.50753 1.63212e-17
5427.97812 1.66133e-17
5429.44871 1.67156e-17
5430.91930 1.60617e-17
5432.38989 1.76011e-17
5433.86048 1.68234e-17
5435.33107 1.67695e-17
5436.80166 1.68259e-17
5438.27225 1.67706e-17
5439.74284 1.63317e-17
5441.21343 1.68003e-17
5442.68402 1.71275e-17
5444.15461 1.60015e-17
5445.62520 1.69724e-17
5447.08564 1.66113e-17
5448.55623 1.62854e-17
5450.02682 1.65742e-17
5451.49741 1.67378e-17
5452.96800 1.71192e-17
5454.43859 1.76023e-17
5455.90918 1.63240e-17
5457.37977 1.60752e-17
5458.85036 1.57777e-17
5460.32095 1.60857e-17
5461.79154 1.54082e-17
5463.26213 1.58586e-17
5464.73272 1.57557e-17
5466.20331 1.56834e-17
5467.67390 1.60084e-17
5469.14449 1.65697e-17
5470.61508 1.69236e-17
5472.07553 1.72603e-17
5473.54612 1.63843e-17
5475.01671 1.63819e-17
5476.48730 1.67366e-17
5477.95789 1.64935e-17
5479.42848 1.68896e-17
5480.89907 1.69908e-17
5482.36966 1.55900e-17
5483.84025 1.58193e-17
5485.31084 1.66895e-17
5486.78143 1.66862e-17
5488.25202 1.60953e-17
5489.72261 1.47453e-17
5491.19320 1.54331e-17
5492.66379 1.60284e-17
5494.13438 1.64141e-17
5495.60497 1.62833e-17
5497.06542 1.59598e-17
5498.53601 1.57312e-17
5500.00660 1.57439e-17
5501.47719 1.53326e-17
5502.94778 1.53378e-17
5504.41837 1.50400e-17
5505.88896 1.52080e-17
5507.35955 1.53254e-17
5508.83014 1.47549e-17
5510.30073 1.51917e-17
5511.77132 1.63032e-17
5513.24191 1.63321e-17
5514.71250 1.50073e-17
5516.18309 1.48446e-17
5517.65368 1.48107e-17
5519.12427 1.52004e-17
5520.59486 1.50321e-17
5522.05531 1.43544e-17
5523.52590 1.38225e-17
5524.99649 1.43356e-17
5526.46708 1.46505e-17
5527.93767 1.49551e-17
5529.40826 1.51371e-17
5530.87885 1.45207e-17
5532.34944 1.44367e-17
5533.82003 1.40435e-17
5535.29062 1.40574e-17
5536.76121 1.46196e-17
5538.23180 1.45786e-17
5539.70239 1.41299e-17
5541.17298 1.45898e-17
5542.64357 1.51082e-17
5544.11416 1.48672e-17
5545.58475 1.41003e-17
5547.04520 1.39179e-17
5548.51579 1.45675e-17
5549.98638 1.46143e-17
5551.45697 1.43367e-17
5552.92756 1.40439e-17
5554.39815 1.33446e-17
5555.86874 1.28349e-17
5557.33933 1.30572e-17
5558.80992 1.37969e-17
5560.28051 1.34679e-17
5561.75110 1.27483e-17
5563.22169 1.33454e-17
5564.69228 1.45135e-17
5566.16287 1.50716e-17
5567.63346 1.44824e-17
5569.10405 1.33208e-17
5570.57464 1.35622e-17
5572.03508 1.29426e-17
5573.50567 1.20470e-17
5574.97626 1.31403e-17
5576.44685 1.32868e-17
5577.91744 1.49678e-17
5579.38803 1.60306e-17
5580.85862 1.35934e-17
5582.32921 1.21721e-17
5583.79980 1.34637e-17
5585.27039 1.39260e-17
5586.74098 1.33714e-17
5588.21157 1.35999e-17
5589.68216 1.40517e-17
5591.15275 1.46138e-17
5592.62334 1.41055e-17
5594.09393 1.38487e-17
5595.56452 1.35025e-17
5597.03511 1.25716e-17
5598.49556 1.23273e-17
5599.96615 1.23759e-17
5601.43674 1.35094e-17
5602.90733 1.40626e-17
5604.37792 1.32266e-17
5605.84851 1.37441e-17
5607.31910 1.44783e-17
5608.78969 1.38823e-17
5610.26028 1.32624e-17
5611.73087 1.28457e-17
5613.20146 1.25964e-17
5614.67205 1.19973e-17
5616.14264 1.16625e-17
5617.61323 1.21771e-17
5619.08382 1.28103e-17
5620.55441 1.29233e-17
5622.02500 1.25287e-17
5623.48545 1.26180e-17
5624.95604 1.31195e-17
5626.42663 1.29417e-17
5627.89722 1.22623e-17
5629.36781 1.20878e-17
5630.83840 1.28692e-17
5632.30899 1.29085e-17
5633.77958 1.19974e-17
5635.25017 1.19132e-17
5636.72076 1.19030e-17
5638.19135 1.14481e-17
5639.66194 1.14337e-17
5641.13253 1.15755e-17
5642.60312 1.10181e-17
5644.07371 1.07655e-17
5645.54430 1.11530e-17
5647.01489 1.08952e-17
5648.47534 1.05954e-17
5649.94593 1.05114e-17
5651.41652 1.11308e-17
5652.88711 1.15971e-17
5654.35770 1.06493e-17
5655.82829 1.00500e-17
5657.29888 1.06261e-17
5658.76947 1.07052e-17
5660.24006 9.92308e-18
5661.71065 1.04309e-17
5663.18124 1.05258e-17
5664.65183 9.73552e-18
5666.12242 9.83696e-18
5667.59301 9.47596e-18
5669.06360 9.27108e-18
5670.53419 9.58683e-18
5672.00478 9.39638e-18
5673.47537 8.85710e-18
5674.93582 9.06676e-18
5676.40641 9.42051e-18
5677.87700 9.19881e-18
5679.34759 9.27568e-18
5680.81818 9.52997e-18
5682.28877 9.78618e-18
5683.75936 9.31477e-18
5685.22995 8.58716e-18
5686.70054 9.07887e-18
5688.17113 9.81337e-18
5689.64172 9.43073e-18
5691.11231 8.92487e-18
5692.58290 8.93313e-18
5694.05349 9.63399e-18
5695.52408 9.46974e-18
5696.99467 9.36667e-18
5698.45511 9.60280e-18
5699.92570 8.93792e-18
5701.39629 8.55076e-18
5702.86688 8.84804e-18
5704.33747 8.97341e-18
5705.80806 8.95040e-18
5707.27865 8.77375e-18
5708.74924 8.71855e-18
5710.21983 8.99256e-18
5711.69042 8.97562e-18
5713.16101 9.01211e-18
5714.63160 8.45088e-18
5716.10219 8.48920e-18
5717.57278 8.97925e-18
5719.04337 9.37287e-18
5720.51396 9.57170e-18
5721.98455 8.93862e-18
5723.45514 8.91395e-18
5724.91559 8.74674e-18
5726.38618 8.41820e-18
5727.85677 9.03732e-18
5729.32736 9.65810e-18
5730.79795 9.56108e-18
5732.26854 9.24951e-18
5733.73913 9.02124e-18
5735.20972 9.18065e-18
5736.68031 9.04393e-18
5738.15090 8.83668e-18
5739.62149 9.29014e-18
5741.09208 9.32413e-18
5742.56267 9.02263e-18
5744.03326 8.88912e-18
5745.50385 8.70080e-18
5746.97444 9.37736e-18
5748.44503 1.02255e-17
5749.90548 9.75727e-18
5751.37607 9.29323e-18
5752.84666 9.69206e-18
5754.31725 1.00388e-17
5755.78784 9.81942e-18
5757.25843 9.06993e-18
5758.72902 9.70131e-18
5760.19961 1.05888e-17
5761.67020 9.64472e-18
5763.14079 9.38313e-18
5764.61138 9.99644e-18
5766.08197 9.94283e-18
5767.55256 9.62723e-18
5769.02315 1.00396e-17
5770.49374 9.67124e-18
5771.96433 9.31708e-18
5773.43492 9.81894e-18
5774.89537 1.01288e-17
5776.36596 1.08052e-17
5777.83655 1.07049e-17
5779.30714 9.83789e-18
5780.77773 1.00959e-17
5782.24832 1.04724e-17
5783.71891 1.05177e-17
5785.18950 1.01811e-17
5786.66009 9.91266e-18
5788.13068 1.02644e-17
5789.60127 1.05006e-17
5791.07186 1.03562e-17
5792.54245 1.08034e-17
5794.01304 1.07477e-17
5795.48363 1.03442e-17
5796.95422 1.09836e-17
5798.42481 1.16899e-17
5799.89540 1.12849e-17
5801.35585 1.06081e-17
5802.82644 1.08902e-17
5804.29703 1.12962e-17
5805.76762 1.12435e-17
5807.23821 1.08770e-17
5808.70880 1.11775e-17
5810.17939 1.14332e-17
5811.64998 1.07113e-17
5813.12057 1.02397e-17
5814.59116 1.10775e-17
5816.06175 1.10517e-17
5817.53234 1.05117e-17
5819.00293 1.04465e-17
5820.47352 1.06935e-17
5821.94411 1.08934e-17
5823.41470 1.10530e-17
5824.87514 1.12154e-17
5826.34573 1.12265e-17
5827.81632 1.14240e-17
5829.28691 1.13244e-17
5830.75750 1.10054e-17
5832.22809 1.10566e-17
5833.69868 1.10562e-17
5835.16927 1.08343e-17
5836.63986 1.13718e-17
5838.11045 1.16482e-17
5839.58104 1.17747e-17
5841.05163 1.16040e-17
5842.52222 1.15592e-17
5843.99281 1.14579e-17
5845.46340 1.23481e-17
5846.93399 1.23589e-17
5848.40458 1.20003e-17
5849.87517 1.24259e-17
5851.33562 1.24042e-17
5852.80621 1.25925e-17
5854.27680 1.27683e-17
5855.74739 1.26446e-17
5857.21798 1.31872e-17
5858.68857 1.41071e-17
5860.15916 1.39496e-17
5861.62975 1.30708e-17
5863.10034 1.36584e-17
5864.57093 1.33519e-17
5866.04152 1.30980e-17
5867.51211 1.34098e-17
5868.98270 1.35238e-17
5870.45329 1.40608e-17
5871.92388 1.29063e-17
5873.39447 1.39229e-17
5874.85492 1.37975e-17
5876.32551 1.33744e-17
5877.79610 1.42229e-17
5879.26669 1.41268e-17
5880.73728 1.52372e-17
5882.20787 1.44501e-17
5883.67846 1.41340e-17
5885.14905 1.36227e-17
5886.61964 1.15955e-17
5888.09023 1.41783e-17
5889.56082 1.39481e-17
5891.03141 1.22385e-17
5892.50200 1.39094e-17
5893.97259 1.45386e-17
5895.44318 1.36473e-17
5896.91377 1.29661e-17
5898.38436 1.50696e-17
5899.85495 1.39484e-17
5901.31540 1.39829e-17
5902.78599 1.48494e-17
5904.25658 1.51129e-17
5905.72717 1.48269e-17
5907.19776 1.45556e-17
5908.66835 1.40841e-17
5910.13894 1.49219e-17
5911.60953 1.52695e-17
5913.08012 1.46586e-17
5914.55071 1.50012e-17
5916.02130 1.44671e-17
5917.49189 1.41107e-17
5918.96248 1.37620e-17
5920.43307 1.42322e-17
5921.90366 1.34954e-17
5923.37425 1.41216e-17
5924.84484 1.37762e-17
5926.30529 1.36317e-17
5927.77588 1.42426e-17
5929.24647 1.51784e-17
5930.71706 1.41570e-17
5932.18765 1.43912e-17
5933.65824 1.48575e-17
5935.12883 1.44640e-17
5936.59942 1.42612e-17
5938.07001 1.54194e-17
5939.54060 1.51697e-17
5941.01119 1.42619e-17
5942.48178 1.48702e-17
5943.95237 1.47428e-17
5945.42296 1.42198e-17
5946.89355 1.37521e-17
5948.36414 1.36709e-17
5949.83473 1.42338e-17
5951.29517 1.38053e-17
5952.76576 1.38467e-17
5954.23635 1.37064e-17
5955.70694 1.38304e-17
5957.17753 1.39069e-17
5958.64812 1.26974e-17
5960.11871 1.32264e-17
5961.58930 1.36730e-17
5963.05989 1.33259e-17
5964.53048 1.32046e-17
5966.00107 1.34378e-17
5967.47166 1.36278e-17
5968.94225 1.33389e-17
5970.41284 1.24909e-17
5971.88343 1.32238e-17
5973.35402 1.33165e-17
5974.82461 1.32003e-17
5976.29520 1.27628e-17
5977.75565 1.20323e-17
5979.22624 1.31509e-17
5980.69683 1.35880e-17
5982.16742 1.33944e-17
5983.63801 1.29493e-17
5985.10860 1.17604e-17
5986.57919 1.21969e-17
5988.04978 1.29900e-17
5989.52037 1.30055e-17
5990.99096 1.28440e-17
5992.46155 1.28199e-17
5993.93214 1.27524e-17
5995.40273 1.22054e-17
5996.87332 1.17010e-17
5998.34391 1.19593e-17
5999.81450 1.33216e-17
6001.27495 1.32990e-17
6002.74554 1.20707e-17
6004.21613 1.24840e-17
6005.68672 1.31134e-17
6007.15731 1.34285e-17
6008.62790 1.34639e-17
6010.09849 1.27078e-17
6011.56908 1.28600e-17
6013.03967 1.25677e-17
6014.51026 1.21385e-17
6015.98085 1.20772e-17
6017.45144 1.21618e-17
6018.92203 1.34695e-17
6020.39262 1.31109e-17
6021.86321 1.28022e-17
6023.33380 1.22963e-17
6024.80439 1.18499e-17
6026.27498 1.29746e-17
6027.73543 1.24464e-17
6029.20602 1.24230e-17
6030.67661 1.26715e-17
6032.14720 1.23920e-17
6033.61779 1.21475e-17
6035.08838 1.29258e-17
6036.55897 1.24197e-17
6038.02956 1.19395e-17
6039.50015 1.23674e-17
6040.97074 1.21057e-17
6042.44133 1.17144e-17
6043.91192 1.22191e-17
6045.38251 1.24272e-17
6046.85310 1.20545e-17
6048.32369 1.17361e-17
6049.79428 1.21211e-17
6051.26487 1.23868e-17
6052.72532 1.20160e-17
6054.19591 1.20147e-17
6055.66650 1.17012e-17
6057.13709 1.15847e-17
6058.60768 1.22469e-17
6060.07827 1.17246e-17
6061.54886 1.13830e-17
6063.01945 1.17996e-17
6064.49004 1.12032e-17
6065.96063 1.08780e-17
6067.43122 1.14197e-17
6068.90181 1.12598e-17
6070.37240 1.06388e-17
6071.84299 1.11528e-17
6073.31358 1.18195e-17
6074.78417 1.14088e-17
6076.25476 1.14177e-17
6077.71520 1.18687e-17
6079.18579 1.17477e-17
6080.65638 1.12411e-17
6082.12697 1.11869e-17
6083.59756 1.06772e-17
6085.06815 1.04385e-17
6086.53874 1.02984e-17
6088.00933 1.09711e-17
6089.47992 1.15455e-17
6090.95051 1.05428e-17
6092.42110 1.06775e-17
6093.89169 1.16438e-17
6095.36228 1.15229e-17
6096.83287 1.16721e-17
6098.30346 1.14618e-17
6099.77405 1.09207e-17
6101.24464 1.08266e-17
6102.71523 1.13861e-17
6104.17568 1.15881e-17
6105.64627 1.07875e-17
6107.11686 1.05026e-17
6108.58745 1.09549e-17
6110.05804 1.05946e-17
6111.52863 1.12690e-17
6112.99922 1.13992e-17
6114.46981 1.10105e-17
6115.94040 1.14384e-17
6117.41099 1.13376e-17
6118.88158 1.12354e-17
6120.35217 1.08913e-17
6121.82276 1.13671e-17
6123.29335 1.15338e-17
6124.76394 1.07105e-17
6126.23453 1.07429e-17
6127.70512 1.12147e-17
6129.16557 1.13253e-17
6130.63616 1.15914e-17
6132.10675 1.16784e-17
6133.57734 1.12806e-17
6135.04793 1.12190e-17
6136.51852 1.09675e-17
6137.98911 1.10314e-17
6139.45970 1.14463e-17
6140.93029 1.11445e-17
6142.40088 1.08677e-17
6143.87147 1.15206e-17
6145.34206 1.17833e-17
6146.81265 1.14674e-17
6148.28324 1.12906e-17
6149.75383 1.14265e-17
6151.22442 1.15038e-17
6152.69501 1.13534e-17
6154.15546 1.10516e-17
6155.62605 1.10444e-17
6157.09664 1.07455e-17
6158.56723 1.10021e-17
6160.03782 1.16922e-17
6161.50841 1.20125e-17
6162.97900 1.15787e-17
6164.44959 1.06740e-17
6165.92018 1.05654e-17
6167.39077 1.11719e-17
6168.86136 1.10270e-17
6170.33195 1.04175e-17
6171.80254 1.05611e-17
6173.27313 1.08427e-17
6174.74372 1.06794e-17
6176.21431 1.05649e-17
6177.68490 1.06381e-17
6179.14535 1.09078e-17
6180.61594 1.08643e-17
6182.08653 1.01505e-17
6183.55712 9.92765e-18
6185.02771 1.06442e-17
6186.49830 1.11717e-17
6187.96889 1.05081e-17
6189.43948 9.60364e-18
6190.91007 9.71554e-18
6192.38066 9.95138e-18
6193.85125 9.73588e-18
6195.32184 9.42726e-18
6196.79243 9.52513e-18
6198.26302 9.43471e-18
6199.73361 8.70856e-18
6201.20420 8.62335e-18
6202.67479 9.31232e-18
6204.13523 1.00923e-17
6205.60582 9.85820e-18
6207.07641 9.33186e-18
6208.54700 9.44012e-18
6210.01759 9.13046e-18
6211.48818 8.77680e-18
6212.95877 9.33332e-18
6214.42936 1.02214e-17
6215.89995 9.93776e-18
6217.37054 9.09375e-18
6218.84113 8.98533e-18
6220.31172 8.61035e-18
6221.78231 8.34250e-18
6223.25290 8.50935e-18
6224.72349 8.88936e-18
6226.19408 8.84260e-18
6227.66467 8.22069e-18
6229.13526 8.28873e-18
6230.59571 8.48944e-18
6232.06630 8.60305e-18
6233.53689 8.68958e-18
6235.00748 8.59988e-18
6236.47807 8.51986e-18
6237.94866 8.37875e-18
6239.41925 8.33738e-18
6240.88984 8.15138e-18
6242.36043 7.99200e-18
6243.83102 8.66030e-18
6245.30161 8.92083e-18
6246.77220 8.63523e-18
6248.24279 8.67482e-18
6249.71338 8.45413e-18
6251.18397 8.75269e-18
6252.65456 8.90182e-18
6254.12515 8.13090e-18
6255.58560 8.45303e-18
6257.05619 8.92708e-18
6258.52678 8.11057e-18
6259.99737 8.07813e-18
6261.46796 8.57912e-18
6262.93855 8.78306e-18
6264.40914 8.70945e-18
6265.87973 8.31936e-18
6267.35032 8.28026e-18
6268.82091 8.41611e-18
6270.29150 8.61326e-18
6271.76209 8.76293e-18
6273.23268 8.10019e-18
6274.70327 7.90135e-18
6276.17386 7.85716e-18
6277.64445 7.79520e-18
6279.10490 8.13577e-18
6280.57549 7.87732e-18
6282.04608 7.76707e-18
6283.51667 8.18048e-18
6284.98726 8.19198e-18
6286.45785 8.04383e-18
6287.92844 8.01230e-18
6289.39903 8.26769e-18
6290.86962 8.45361e-18
6292.34021 8.38209e-18
6293.81080 8.44699e-18
6295.28139 8.38121e-18
6296.75198 8.79122e-18
6298.22257 8.25706e-18
6299.69316 7.24027e-18
6301.16375 7.18752e-18
6302.63434 7.82882e-18
6304.10493 7.80161e-18
6305.56538 7.36953e-18
6307.03597 7.78612e-18
6308.50656 8.16294e-18
6309.97715 8.28534e-18
6311.44774 8.32273e-18
6312.91833 7.91967e-18
6314.38892 8.42962e-18
6315.85951 8.62709e-18
6317.33010 8.14893e-18
6318.80069 8.39935e-18
6320.27128 8.72268e-18
6321.74187 8.28711e-18
6323.21246 9.02404e-18
6324.68305 9.16715e-18
6326.15364 8.62016e-18
6327.62423 8.42425e-18
6329.09482 8.35603e-18
6330.55526 8.11941e-18
6332.02585 8.09113e-18
6333.49644 8.23817e-18
6334.96703 8.02677e-18
6336.43762 8.73749e-18
6337.90821 9.32529e-18
6339.37880 9.29236e-18
6340.84939 8.93198e-18
6342.31998 8.53596e-18
6343.79057 8.63060e-18
6345.26116 8.20520e-18
6346.73175 8.10163e-18
6348.20234 8.17332e-18
6349.67293 8.82144e-18
6351.14352 9.30005e-18
6352.61411 8.93227e-18
6354.08470 8.99242e-18
6355.54515 9.20740e-18
6357.01574 8.80779e-18
6358.48633 8.89493e-18
6359.95692 9.06579e-18
6361.42751 9.32944e-18
6362.89810 1.00690e-17
6364.36869 1.00356e-17
6365.83928 9.54432e-18
6367.30987 9.89405e-18
6368.78046 9.89410e-18
6370.25105 9.25844e-18
6371.72164 9.17316e-18
6373.19223 9.83094e-18
6374.66282 9.62218e-18
6376.13341 9.34233e-18
6377.60400 9.57446e-18
6379.07459 9.18880e-18
6380.54518 9.47744e-18
6382.00563 1.01449e-17
6383.47622 9.72218e-18
6384.94681 9.50757e-18
6386.41740 1.02444e-17
6387.88799 1.01183e-17
6389.35858 1.00290e-17
6390.82917 1.03056e-17
6392.29976 1.03553e-17
6393.77035 1.04117e-17
6395.24094 1.02211e-17
6396.71153 1.02697e-17
6398.18212 1.03524e-17
6399.65271 1.05738e-17
6401.12330 1.02704e-17
6402.59389 1.04400e-17
6404.06448 1.04886e-17
6405.52493 1.01804e-17
6406.99552 1.03367e-17
6408.46611 1.02219e-17
6409.93670 1.00488e-17
6411.40729 9.55085e-18
6412.87788 9.55260e-18
6414.34847 9.46685e-18
6415.81906 1.00285e-17
6417.28965 1.02069e-17
6418.76024 9.73167e-18
6420.23083 1.05203e-17
6421.70142 9.99015e-18
6423.17201 1.02498e-17
6424.64260 1.10779e-17
6426.11319 1.09356e-17
6427.58378 9.63510e-18
6429.05437 1.01452e-17
6430.52496 9.87481e-18
6431.99555 1.00175e-17
6433.45600 1.00337e-17
6434.92659 1.01367e-17
6436.39718 1.03346e-17
6437.86777 9.78411e-18
6439.33836 9.54890e-18
6440.80895 1.02844e-17
6442.27954 1.00647e-17
6443.75013 9.47604e-18
6445.22072 8.92260e-18
6446.69131 1.01497e-17
6448.16190 9.63592e-18
6449.63249 1.00935e-17
6451.10308 1.00665e-17
6452.57367 1.00874e-17
6454.04426 9.54491e-18
6455.50470 9.98508e-18
6456.97529 9.76811e-18
6458.44588 9.11106e-18
6459.91647 8.96555e-18
6461.38706 9.49451e-18
6462.85765 1.00120e-17
6464.32824 9.40574e-18
6465.79883 9.64308e-18
6467.26942 9.84096e-18
6468.74001 9.28482e-18
6470.21060 9.43666e-18
6471.68119 9.35346e-18
6473.15178 8.88933e-18
6474.62237 8.42115e-18
6476.09296 8.26760e-18
6477.56355 8.76371e-18
6479.03414 9.32730e-18
6480.50473 8.80593e-18
6481.97532 8.47579e-18
6483.43577 8.50505e-18
6484.90636 8.52969e-18
6486.37695 8.33657e-18
6487.84754 9.73074e-18
6489.31813 9.24743e-18
6490.78872 8.67694e-18
6492.25931 8.81975e-18
6493.72990 8.59728e-18
6495.20049 8.68683e-18
6496.67108 9.17325e-18
6498.14167 8.91559e-18
6499.61226 8.57815e-18
6501.08285 8.35039e-18
6502.55344 9.18016e-18
6504.02403 9.41016e-18
6505.49462 9.11483e-18
6506.95507 9.31319e-18
6508.42566 8.44245e-18
6509.89625 8.87194e-18
6511.36684 8.83625e-18
6512.83743 8.89531e-18
6514.30802 9.08069e-18
6515.77861 8.60835e-18
6517.24920 9.44893e-18
6518.71979 9.46370e-18
6520.19038 9.19683e-18
6521.66097 8.39995e-18
6523.13156 8.52227e-18
6524.60215 8.80678e-18
6526.07274 8.68616e-18
6527.54333 9.01849e-18
6529.01392 8.97280e-18
6530.48451 8.37307e-18
6531.95510 7.71846e-18
6533.41555 8.55057e-18
6534.88614 8.99931e-18
6536.35673 8.97489e-18
6537.82732 8.77999e-18
6539.29791 8.67672e-18
6540.76850 8.52781e-18
6542.23909 8.10879e-18
6543.70968 8.07974e-18
6545.18027 8.53467e-18
6546.65086 8.75800e-18
6548.12145 8.71472e-18
6549.59204 8.60466e-18
6551.06263 8.10449e-18
6552.53322 8.82717e-18
6554.00381 9.35799e-18
6555.47440 9.49024e-18
6556.94499 9.69972e-18
6558.40544 9.18194e-18
6559.87603 9.76110e-18
6561.34662 9.43837e-18
6562.81721 8.30705e-18
6564.28780 9.01642e-18
6565.75839 9.44730e-18
6567.22898 9.28092e-18
6568.69957 8.83888e-18
6570.17016 8.84896e-18
6571.64075 9.54180e-18
6573.11134 9.19118e-18
6574.58193 8.94768e-18
6576.05252 9.16792e-18
6577.52311 9.53667e-18
6578.99370 9.84042e-18
6580.46429 9.65242e-18
6581.93488 8.92282e-18
6583.39532 8.32470e-18
6584.86591 9.08396e-18
6586.33650 9.45814e-18
6587.80709 8.99014e-18
6589.27768 8.86505e-18
6590.74827 8.95642e-18
6592.21886 8.88367e-18
6593.68945 9.18550e-18
6595.16004 9.81102e-18
6596.63063 1.00492e-17
6598.10122 1.00143e-17
6599.57181 1.00549e-17
6601.04240 9.62829e-18
6602.51299 9.35804e-18
6603.98358 9.50711e-18
6605.45417 9.56579e-18
6606.92476 9.45450e-18
6608.39535 9.17848e-18
6609.85580 9.94542e-18
6611.32639 9.62265e-18
6612.79698 9.27496e-18
6614.26757 9.72551e-18
6615.73816 9.23765e-18
6617.20875 9.06855e-18
6618.67934 9.06122e-18
6620.14993 9.49469e-18
6621.62052 9.92693e-18
6623.09111 9.31230e-18
6624.56170 8.78631e-18
6626.03229 8.82157e-18
6627.50288 8.85684e-18
6628.97347 8.89209e-18
6630.44406 8.92734e-18
6631.91465 8.96260e-18
6633.37510 8.99785e-18
6634.84569 9.03310e-18
6636.31628 9.06834e-18
6637.78687 9.10359e-18
6639.25746 9.13881e-18
6640.72805 9.17405e-18
6642.19864 9.20928e-18
6643.66923 9.24450e-18
6645.13982 9.27973e-18
6646.61041 9.31495e-18
6648.08100 9.35017e-18
6649.55159 9.38537e-18
6651.02218 9.42058e-18
6652.49277 9.45580e-18
6653.96336 9.49099e-18
6655.43395 9.52620e-18
6656.90454 9.56139e-18
6658.37513 9.59658e-18
6659.83558 9.63177e-18
6661.30617 9.66696e-18
6662.77676 9.70214e-18
6664.24735 9.73732e-18
6665.71794 9.77251e-18
6667.18853 9.80767e-18
6668.65912 9.84284e-18
6670.12971 9.87800e-18
6671.60030 9.91317e-18
6673.07089 9.94833e-18
6674.54148 9.98349e-18
6676.01207 1.00186e-17
6677.48266 1.00538e-17
6678.95325 1.00889e-17
6680.42384 1.01241e-17
6681.89443 1.01592e-17
6683.36502 1.01944e-17
6684.82547 1.02295e-17
6686.29606 1.02646e-17
6687.76665 1.02997e-17
6689.23724 1.02858e-17
6690.70783 9.90273e-18
6692.17842 9.93925e-18
6693.64901 1.02192e-17
6695.11960 1.09911e-17
6696.59019 1.09851e-17
6698.06078 1.05155e-17
6699.53137 1.02797e-17
6701.00196 1.01016e-17
6702.47255 1.00363e-17
6703.94314 1.01004e-17
6705.41373 1.00608e-17
6706.88432 9.63170e-18
6708.35491 9.75550e-18
6709.81535 1.00831e-17
6711.28594 9.95614e-18
6712.75653 1.02603e-17
6714.22712 1.02899e-17
6715.69771 1.01254e-17
6717.16830 1.02655e-17
6718.63889 9.95794e-18
6720.10948 9.97873e-18
6721.58007 9.69635e-18
6723.05066 9.87240e-18
6724.52125 1.00486e-17
6725.99184 1.01616e-17
6727.46243 1.04353e-17
6728.93302 1.02807e-17
6730.40361 1.02545e-17
6731.87420 9.75355e-18
6733.34479 9.43207e-18
6734.81538 9.72286e-18
6736.27583 1.00093e-17
6737.74642 1.01555e-17
6739.21701 1.00377e-17
6740.68760 9.89870e-18
6742.15819 9.87908e-18
6743.62878 1.01601e-17
6745.09937 1.05656e-17
6746.56996 1.03309e-17
6748.04055 9.82487e-18
6749.51114 1.00785e-17
6750.98173 9.99538e-18
6752.45232 9.44543e-18
6753.92291 9.06074e-18
6755.39350 9.14498e-18
6756.86409 9.63902e-18
6758.33468 9.74997e-18
6759.79513 9.62191e-18
6761.26572 9.88044e-18
6762.73631 9.70502e-18
6764.20690 9.26519e-18
6765.67749 9.47770e-18
6767.14808 9.72652e-18
6768.61867 9.79749e-18
6770.08926 9.46933e-18
6771.55985 9.23424e-18
6773.03044 9.51453e-18
6774.50103 9.69166e-18
6775.97162 9.76269e-18
6777.44221 9.76417e-18
6778.91280 9.57248e-18
6780.38339 9.47447e-18
6781.85398 9.31807e-18
6783.32457 9.13125e-18
6784.78502 9.22937e-18
6786.25561 9.34952e-18
6787.72620 9.53174e-18
6789.19679 9.63918e-18
6790.66738 9.26617e-18
6792.13797 8.52536e-18
6793.60856 8.27490e-18
6795.07915 8.61899e-18
6796.54974 9.08505e-18
6798.02033 9.40392e-18
6799.49092 9.21505e-18
6800.96151 9.06559e-18
6802.43210 9.24640e-18
6803.90269 9.42504e-18
6805.37328 8.95368e-18
6806.84387 8.30889e-18
6808.31446 8.40769e-18
6809.78505 8.47027e-18
6811.24550 8.50178e-18
6812.71609 9.32424e-18
6814.18668 9.94699e-18
6815.65727 9.87163e-18
6817.12786 9.54352e-18
6818.59845 8.98308e-18
6820.06904 8.87393e-18
6821.53963 8.44061e-18
6823.01022 7.88558e-18
6824.48081 8.63820e-18
6825.95140 9.02475e-18
6827.42199 9.17114e-18
6828.89258 1.01770e-17
6830.36317 9.58994e-18
6831.83376 8.45486e-18
6833.30435 9.44952e-18
6834.77494 1.02736e-17
6836.23538 9.09754e-18
6837.70597 8.13633e-18
6839.17656 8.39459e-18
6840.64715 8.94083e-18
6842.11774 8.97712e-18
6843.58833 8.54871e-18
6845.05892 8.49342e-18
6846.52951 8.05944e-18
6848.00010 8.08684e-18
6849.47069 8.52270e-18
6850.94128 8.59073e-18
6852.41187 8.50308e-18
6853.88246 8.33039e-18
6855.35305 8.17226e-18
6856.82364 8.17174e-18
6858.29423 8.04024e-18
6859.76482 8.09222e-18
6861.23541 7.85792e-18
6862.69586 7.37439e-18
6864.16645 7.73178e-18
6865.63704 8.09198e-18
6867.10763 8.85776e-18
6868.57822 8.57362e-18
6870.04881 7.25080e-18
6871.51940 7.38735e-18
6872.98999 8.41984e-18
6874.46058 8.37129e-18
6875.93117 7.36137e-18
6877.40176 7.94129e-18
6878.87235 8.48972e-18
6880.34294 8.17166e-18
6881.81353 8.42347e-18
6883.28412 8.13091e-18
6884.75471 7.96462e-18
6886.22530 7.91090e-18
6887.68575 6.82488e-18
6889.15634 6.71780e-18
6890.62693 8.23383e-18
6892.09752 8.17948e-18
6893.56811 7.46557e-18
6895.03870 7.88844e-18
6896.50929 7.41495e-18
6897.97988 7.41628e-18
6899.45047 7.84142e-18
6900.92106 8.38938e-18
6902.39165 8.22906e-18
6903.86224 7.76906e-18
6905.33283 7.49707e-18
6906.80342 7.92473e-18
6908.27401 8.57477e-18
6909.74460 8.52797e-18
6911.20505 8.38260e-18
6912.67564 8.47238e-18
6914.14623 8.53922e-18
6915.61682 8.53417e-18
6917.08741 8.36789e-18
6918.55800 8.25264e-18
6920.02859 7.83334e-18
6921.49918 8.49933e-18
6922.96977 8.34268e-18
6924.44036 8.09250e-18
6925.91095 8.28550e-18
6927.38154 8.42983e-18
6928.85213 7.84558e-18
6930.32272 8.25855e-18
6931.79331 7.44542e-18
6933.26390 7.34685e-18
6934.73449 7.58305e-18
6936.20508 7.79018e-18
6937.66553 7.82401e-18
6939.13612 7.63325e-18
6940.60671 7.28566e-18
6942.07730 7.88949e-18
6943.54789 7.96794e-18
6945.01848 7.63193e-18
6946.48907 7.58523e-18
6947.95966 8.09949e-18
6949.43025 7.92735e-18
6950.90084 7.99169e-18
6952.37143 8.16678e-18
6953.84202 8.06432e-18
6955.31261 8.07655e-18
6956.78320 7.87311e-18
6958.25379 7.28983e-18
6959.72438 7.68946e-18
6961.19497 7.46201e-18
6962.65541 7.69184e-18
6964.12600 7.60582e-18
6965.59659 7.59402e-18
6967.06718 7.44383e-18
6968.53777 7.68475e-18
6970.00836 8.03355e-18
6971.47895 7.66556e-18
6972.94954 7.85100e-18
6974.42013 7.36436e-18
6975.89072 7.63435e-18
6977.36131 7.83325e-18
6978.83190 7.92829e-18
6980.30249 8.33795e-18
6981.77308 8.06389e-18
6983.24367 8.24722e-18
6984.71426 8.24348e-18
6986.18485 8.03240e-18
6987.64530 8.10159e-18
6989.11589 8.62477e-18
6990.58648 8.48310e-18
6992.05707 8.25965e-18
6993.52766 8.13562e-18
6994.99825 7.99799e-18
6996.46884 7.92285e-18
6997.93943 7.44160e-18
6999.41002 6.79377e-18
7000.88061 7.50874e-18
7002.35120 7.98462e-18
7003.82179 7.39542e-18
7005.29238 8.05161e-18
7006.76297 8.45754e-18
7008.23356 7.85579e-18
7009.70415 8.26505e-18
7011.17474 8.78920e-18
7012.64533 9.14877e-18
7014.10578 9.06949e-18
7015.57637 8.63682e-18
7017.04696 7.93179e-18
7018.51755 7.74974e-18
7019.98814 7.77535e-18
7021.45873 7.77392e-18
7022.92932 8.41280e-18
7024.39991 8.41513e-18
7025.87050 7.87103e-18
7027.34109 8.08836e-18
7028.81168 7.82230e-18
7030.28227 7.58396e-18
7031.75286 7.42977e-18
7033.22345 6.85062e-18
7034.69404 7.09492e-18
7036.16463 7.70678e-18
7037.62508 8.03334e-18
7039.09567 7.62254e-18
7040.56626 7.88870e-18
7042.03685 8.39790e-18
7043.50744 8.41904e-18
7044.97803 8.25199e-18
7046.44862 8.62675e-18
7047.91921 8.01244e-18
7049.38980 7.45310e-18
7050.86039 8.22755e-18
7052.33098 8.61836e-18
7053.80157 8.25481e-18
7055.27216 7.91526e-18
7056.74275 8.59579e-18
7058.21334 8.76882e-18
7059.68393 8.54474e-18
7061.15452 8.27251e-18
7062.62511 7.97078e-18
7064.08556 8.86608e-18
7065.55615 8.70471e-18
7067.02674 8.35388e-18
7068.49733 8.15564e-18
7069.96792 8.28041e-18
7071.43851 8.40312e-18
7072.90910 8.37504e-18
7074.37969 8.98229e-18
7075.85028 8.02371e-18
7077.32087 8.24970e-18
7078.79146 9.05425e-18
7080.26205 9.20068e-18
7081.73264 9.04009e-18
7083.20323 8.68813e-18
7084.67382 8.75013e-18
7086.14441 8.42165e-18
7087.61500 7.99753e-18
7089.07544 8.33448e-18
7090.54603 9.03460e-18
7092.01662 7.93903e-18
7093.48721 8.04730e-18
7094.95780 8.75370e-18
7096.42839 8.52341e-18
7097.89898 8.19459e-18
7099.36957 8.16405e-18
7100.84016 8.21316e-18
7102.31075 8.35426e-18
7103.78134 8.53957e-18
7105.25193 8.01669e-18
7106.72252 8.96216e-18
7108.19311 8.85730e-18
7109.66370 7.74126e-18
7111.13429 7.96340e-18
7112.60488 8.63240e-18
7114.06533 8.98818e-18
7115.53592 8.53664e-18
7117.00651 8.92076e-18
7118.47710 8.76227e-18
7119.94769 8.35384e-18
7121.41828 8.10051e-18
7122.88887 8.22133e-18
7124.35946 8.28141e-18
7125.83005 7.72192e-18
7127.30064 7.51797e-18
7128.77123 7.61199e-18
7130.24182 7.68098e-18
7131.71241 8.32694e-18
7133.18300 8.52775e-18
7134.65359 8.67133e-18
7136.12418 8.04840e-18
7137.59477 7.77829e-18
7139.05522 8.77658e-18
7140.52581 8.26827e-18
7141.99640 8.00936e-18
7143.46699 8.48914e-18
7144.93758 8.98905e-18
7146.40817 9.24904e-18
7147.87876 8.42475e-18
7149.34935 8.52991e-18
7150.81994 8.42947e-18
7152.29053 8.23822e-18
7153.76112 8.02188e-18
7155.23171 8.08091e-18
7156.70230 8.92219e-18
7158.17289 8.47933e-18
7159.64348 8.26266e-18
7161.11407 8.45447e-18
7162.58466 8.44144e-18
7164.04511 7.91556e-18
7165.51570 8.19823e-18
7166.98629 8.59623e-18
7168.45688 8.07924e-18
7169.92747 7.72408e-18
7171.39806 7.31033e-18
7172.86865 7.78685e-18
7174.33924 8.29777e-18
7175.80983 7.48171e-18
7177.28042 8.23986e-18
7178.75101 8.06307e-18
7180.22160 7.28067e-18
7181.69219 8.03572e-18
7183.16278 7.49158e-18
7184.63337 7.91220e-18
7186.10396 7.26941e-18
7187.57455 6.84549e-18
7189.04514 7.51397e-18
7190.50559 7.68024e-18
7191.97618 7.53169e-18
7193.44677 7.32237e-18
7194.91736 7.91804e-18
7196.38795 7.78874e-18
7197.85854 7.43627e-18
7199.32913 7.18379e-18
7200.79972 7.21276e-18
7202.27031 7.20182e-18
7203.74090 6.85257e-18
7205.21149 6.60775e-18
7206.68208 7.33099e-18
7208.15267 7.19221e-18
7209.62326 7.68054e-18
7211.09385 7.99414e-18
7212.56444 8.13418e-18
7214.02488 8.24940e-18
7215.49547 8.05369e-18
7216.96606 7.85530e-18
7218.43665 8.24388e-18
7219.90724 8.56418e-18
7221.37783 8.42776e-18
7222.84842 8.46024e-18
7224.31901 7.69636e-18
7225.78960 7.73176e-18
7227.26019 7.89092e-18
7228.73078 7.73284e-18
7230.20137 7.22921e-18
7231.67196 7.58070e-18
7233.14255 7.21368e-18
7234.61314 6.69810e-18
7236.08373 7.11530e-18
7237.55432 8.06913e-18
7239.02491 8.80324e-18
7240.49550 7.97338e-18
7241.95595 6.94325e-18
7243.42654 6.59483e-18
7244.89713 6.71323e-18
7246.36772 7.56274e-18
7247.83831 7.91696e-18
7249.30890 7.90051e-18
7250.77949 7.82263e-18
7252.25008 7.62350e-18
7253.72067 7.01330e-18
7255.19126 7.06171e-18
7256.66185 7.20636e-18
7258.13244 7.37808e-18
7259.60303 7.66386e-18
7261.07362 7.62984e-18
7262.54421 7.26057e-18
7264.01480 7.00503e-18
7265.47525 7.29053e-18
7266.94584 7.54297e-18
7268.41643 7.34429e-18
7269.88702 7.26436e-18
7271.35761 6.95380e-18
7272.82820 7.24942e-18
7274.29879 7.42462e-18
7275.76938 7.20750e-18
7277.23997 6.92429e-18
7278.71056 6.64699e-18
7280.18115 6.86274e-18
7281.65174 8.00023e-18
7283.12233 8.72223e-18
7284.59292 8.37024e-18
7286.06351 8.00237e-18
7287.53410 7.52282e-18
7289.00469 7.07909e-18
7290.47528 7.76045e-18
7291.93573 7.61079e-18
7293.40632 7.11038e-18
7294.87691 8.01026e-18
7296.34750 8.51039e-18
7297.81809 8.05430e-18
7299.28868 7.85471e-18
7300.75927 7.61571e-18
7302.22986 7.47101e-18
7303.70045 7.35186e-18
7305.17104 7.44148e-18
7306.64163 7.73080e-18
7308.11222 7.85374e-18
7309.58281 7.39211e-18
7311.05340 7.48024e-18
7312.52399 8.30955e-18
7313.99458 8.12105e-18
7315.46517 7.68097e-18
7316.92562 7.10586e-18
7318.39621 6.81558e-18
7319.86680 7.17322e-18
7321.33739 7.63712e-18
7322.80798 7.46386e-18
7324.27857 7.23991e-18
7325.74916 7.97602e-18
7327.21975 8.37397e-18
7328.69034 7.94436e-18
7330.16093 7.91239e-18
7331.63152 7.77752e-18
7333.10211 7.66237e-18
7334.57270 7.82939e-18
7336.04329 7.32119e-18
7337.51388 7.25841e-18
7338.98447 7.13010e-18
7340.45506 7.07841e-18
7341.91550 7.70311e-18
7343.38609 7.94952e-18
7344.85668 7.73770e-18
7346.32727 7.71009e-18
7347.79786 7.61108e-18
7349.26845 7.53228e-18
7350.73904 7.60584e-18
7352.20963 7.96097e-18
7353.68022 7.83126e-18
7355.15081 7.50717e-18
7356.62140 7.36654e-18
7358.09199 7.12759e-18
7359.56258 6.84234e-18
7361.03317 6.61078e-18
7362.50376 6.77072e-18
7363.97435 6.60146e-18
7365.44494 7.18939e-18
7366.91553 7.86540e-18
7368.37598 7.56316e-18
7369.84657 7.64851e-18
7371.31716 8.54560e-18
7372.78775 8.70109e-18
7374.25834 8.19341e-18
7375.72893 8.42223e-18
7377.19952 8.76042e-18
7378.67011 8.25218e-18
7380.14070 7.70287e-18
7381.61129 7.65908e-18
7383.08188 7.48637e-18
7384.55247 7.55666e-18
7386.02306 7.27728e-18
7387.49365 7.36917e-18
7388.96424 7.93096e-18
7390.43483 7.72025e-18
7391.89528 7.57865e-18
7393.36587 7.98631e-18
7394.83646 8.31115e-18
7396.30705 7.64528e-18
7397.77764 6.59940e-18
7399.24823 6.10289e-18
7400.71882 6.51709e-18
7402.18941 7.25162e-18
7403.66000 7.01092e-18
7405.13059 6.44680e-18
7406.60118 6.29068e-18
7408.07177 6.59806e-18
7409.54236 7.37068e-18
7411.01295 7.50699e-18
7412.48354 6.78549e-18
7413.95413 6.85782e-18
7415.42472 7.75992e-18
7416.88517 7.75583e-18
7418.35576 7.26867e-18
7419.01247 7.26867e-18
7420.71005 7.02325e-18
7422.40764 6.02414e-18
7424.10523 5.34635e-18
7425.80282 5.54137e-18
7427.50041 6.08683e-18
7429.19800 6.52988e-18
7430.89558 6.73842e-18
7432.59317 6.69897e-18
7434.29076 6.63585e-18
7435.98835 6.74438e-18
7437.68594 7.00666e-18
7439.38352 7.33552e-18
7441.09116 7.62445e-18
7442.78874 7.74298e-18
7444.48633 7.40791e-18
7446.18392 6.50355e-18
7447.88151 5.69903e-18
7449.57910 5.70599e-18
7451.27669 6.27625e-18
7452.97427 6.77810e-18
7454.67186 6.78970e-18
7456.36945 6.11409e-18
7458.06704 5.12950e-18
7459.76463 4.52501e-18
7461.46221 4.47146e-18
7463.15980 4.73444e-18
7464.85739 5.21433e-18
7466.55498 5.89094e-18
7468.25257 6.55982e-18
7469.95015 6.89184e-18
7471.64774 6.79436e-18
7473.34533 6.44085e-18
7475.04292 6.10334e-18
7476.74051 6.17219e-18
7478.43809 6.61094e-18
7480.13568 6.70374e-18
7481.83327 6.22335e-18
7483.53086 5.86285e-18
7485.22845 6.02429e-18
7486.92604 6.42077e-18
7488.62362 6.77864e-18
7490.32121 7.02116e-18
7492.01880 7.06933e-18
7493.71639 6.75065e-18
7495.41398 6.06796e-18
7497.11156 5.53156e-18
7498.80915 5.56038e-18
7500.50674 5.94104e-18
7502.20433 6.33370e-18
7503.90192 6.57976e-18
7505.59950 6.63738e-18
7507.29709 6.78026e-18
7508.99468 7.27602e-18
7510.69227 7.76956e-18
7512.38986 7.70568e-18
7514.08745 6.91019e-18
7515.78503 5.53278e-18
7517.48262 4.33170e-18
7519.18021 4.31221e-18
7520.87780 5.22254e-18
7522.58543 5.85372e-18
7524.28302 5.92079e-18
7525.98061 5.98521e-18
7527.67819 6.20645e-18
7529.37578 6.36561e-18
7531.07337 6.36837e-18
7532.77096 6.22802e-18
7534.46855 6.03080e-18
7536.16614 5.97812e-18
7537.86372 6.13180e-18
7539.56131 6.31204e-18
7541.25890 6.39861e-18
7542.95649 6.41582e-18
7544.65408 6.39102e-18
7546.35166 6.34899e-18
7548.04925 6.28830e-18
7549.74684 6.10667e-18
7551.44443 6.10138e-18
7553.14202 6.09609e-18
7554.83960 6.09079e-18
7556.53719 6.08550e-18
7558.23478 6.08022e-18
7559.93237 6.07492e-18
7561.62996 6.06963e-18
7563.32754 6.06434e-18
7565.02513 6.05905e-18
7566.72272 6.05376e-18
7568.42031 6.04847e-18
7570.11790 6.04318e-18
7571.81549 6.03788e-18
7573.51307 6.03260e-18
7575.21066 6.02731e-18
7576.90825 6.02202e-18
7578.60584 6.01674e-18
7580.30343 6.01145e-18
7582.00101 6.00616e-18
7583.69860 6.00087e-18
7585.39619 5.99559e-18
7587.09378 5.99030e-18
7588.79137 5.98502e-18
7590.48895 5.97973e-18
7592.18654 5.97444e-18
7593.88413 5.96916e-18
7595.58172 5.96387e-18
7597.27931 5.95859e-18
7598.97689 5.95330e-18
7600.67448 5.94802e-18
7602.37207 5.94274e-18
7604.06966 5.93746e-18
7605.76725 5.93217e-18
7607.47488 5.92689e-18
7609.17247 5.92161e-18
7610.87006 5.91633e-18
7612.56764 5.91105e-18
7614.26523 5.90576e-18
7615.96282 5.90048e-18
7617.66041 5.89520e-18
7619.35800 5.88992e-18
7621.05559 5.88464e-18
7622.75317 5.87937e-18
7624.45076 5.87408e-18
7626.14835 5.86881e-18
7627.84594 5.86353e-18
7629.54353 5.85825e-18
7631.24111 5.85298e-18
7632.93870 5.84769e-18
7634.63629 5.84242e-18
7636.33388 5.83714e-18
7638.03147 5.83187e-18
7639.72905 5.82659e-18
7641.42664 5.82132e-18
7643.12423 5.81604e-18
7644.82182 5.81077e-18
7646.51941 5.80549e-18
7648.21699 5.80022e-18
7649.91458 5.79495e-18
7651.61217 5.78967e-18
7653.30976 5.78440e-18
7655.00735 5.77913e-18
7656.70494 5.77385e-18
7658.40252 5.76858e-18
7660.10011 5.76331e-18
7661.79770 5.75804e-18
7663.49529 5.75276e-18
7665.19288 5.74750e-18
7666.89046 5.74223e-18
7668.58805 5.73696e-18
7670.28564 5.73169e-18
7671.98323 5.72642e-18
7673.68082 5.72115e-18
7675.37840 5.71588e-18
7677.07599 5.71061e-18
7678.77358 5.70535e-18
7680.47117 5.70008e-18
7682.16876 5.69983e-18
7683.86634 5.63713e-18
7685.56393 5.53244e-18
7687.26152 5.41563e-18
7688.96915 5.35694e-18
7690.66674 5.42827e-18
7692.36433 5.58219e-18
7694.06192 5.68626e-18
7695.75951 5.67544e-18
7697.45709 5.55646e-18
7699.15468 5.37575e-18
7700.85227 5.21964e-18
7702.54986 5.21581e-18
7704.24745 5.52721e-18
7705.94504 6.06995e-18
7707.64262 6.42636e-18
7709.34021 6.42483e-18
7711.03780 6.31727e-18
7712.73539 6.21915e-18
7714.43298 5.93611e-18
7716.13056 5.44870e-18
7717.82815 5.15035e-18
7719.52574 5.21338e-18
7721.22333 5.15412e-18
7722.92092 4.71838e-18
7724.61850 4.54286e-18
7726.31609 5.09162e-18
7728.01368 5.85233e-18
7729.71127 6.26526e-18
7731.40886 6.42591e-18
7733.10644 6.53512e-18
7734.80403 6.38336e-18
7736.50162 5.79131e-18
7738.19921 5.27286e-18
7739.89680 5.43602e-18
7741.59439 5.98085e-18
7743.29197 6.25040e-18
7744.98956 6.24170e-18
7746.68715 6.30227e-18
7748.38474 6.48131e-18
7750.08233 6.64379e-18
7751.77991 6.69638e-18
7753.47750 6.57827e-18
7755.17509 6.39942e-18
7756.87268 6.42275e-18
7758.57027 6.73170e-18
7760.26785 7.21045e-18
7761.96544 7.55949e-18
7763.66303 7.24513e-18
7765.36062 6.34940e-18
7767.05821 5.88551e-18
7768.75579 6.24563e-18
7770.46343 6.69155e-18
7772.16102 6.73866e-18
7773.85860 6.53409e-18
7775.55619 6.23385e-18
7777.25378 5.89262e-18
7778.95137 5.60430e-18
7780.64896 5.56353e-18
7782.34654 5.84450e-18
7784.04413 6.18245e-18
7785.74172 6.31751e-18
7787.43931 6.21709e-18
7789.13690 5.95684e-18
7790.83448 5.79897e-18
7792.53207 5.96089e-18
7794.22966 6.12263e-18
7795.92725 5.91590e-18
7797.62484 5.84004e-18
7799.32243 6.56923e-18
7801.02001 7.61919e-18
7802.71760 8.00796e-18
7804.41519 7.60158e-18
7806.11278 6.84354e-18
7807.81037 6.20572e-18
7809.50795 6.14125e-18
7811.20554 6.47793e-18
7812.90313 6.47517e-18
7814.60072 6.12216e-18
7816.29831 6.16581e-18
7817.99589 6.65142e-18
7819.69348 6.79787e-18
7821.39107 6.44040e-18
7823.08866 6.27042e-18
7824.78625 6.51451e-18
7826.48384 6.62695e-18
7828.18142 6.35401e-18
7829.87901 6.04234e-18
7831.57660 5.86821e-18
7833.27419 5.53547e-18
7834.97178 4.95855e-18
7836.66936 4.64150e-18
7838.36695 4.93328e-18
7840.06454 5.64461e-18
7841.76213 6.41847e-18
7843.45972 6.67384e-18
7845.15730 6.07499e-18
7846.85489 5.24458e-18
7848.55248 4.92318e-18
7850.25007 5.13945e-18
7851.94766 5.64947e-18
7853.64524 6.30498e-18
7855.35288 6.95444e-18
7857.05047 7.29707e-18
7858.74805 7.07034e-18
7860.44564 6.49712e-18
7862.14323 6.05474e-18
7863.84082 5.79261e-18
7865.53841 5.46245e-18
7867.23599 5.12703e-18
7868.93358 5.06931e-18
7870.63117 5.16184e-18
7872.32876 4.92026e-18
7874.02635 4.41399e-18
7875.72393 4.31212e-18
7877.42152 4.82398e-18
7879.11911 5.58372e-18
7880.81670 6.11128e-18
7882.51429 5.72547e-18
7884.21188 4.53085e-18
7885.90946 4.03865e-18
7887.60705 4.93616e-18
7889.30464 6.09954e-18
7891.00223 6.63650e-18
7892.69982 6.55874e-18
7894.39740 6.07165e-18
7896.09499 5.60998e-18
7897.79258 5.49284e-18
7899.49017 5.46792e-18
7901.18776 5.29576e-18
7902.88534 5.26473e-18
7904.58293 5.63279e-18
7906.28052 6.12093e-18
7907.97811 6.33916e-18
7909.67570 6.07466e-18
7911.37328 5.31512e-18
7913.07087 4.56450e-18
7914.76846 4.44557e-18
7916.46605 4.98046e-18
7918.16364 5.78820e-18
7919.86123 6.24258e-18
7921.55881 5.70143e-18
7923.25640 4.56277e-18
7924.95399 4.00116e-18
7926.65158 4.38514e-18
7928.34917 5.30067e-18
7930.04675 6.22757e-18
7931.74434 6.52934e-18
7933.44193 6.15449e-18
7935.13952 5.83473e-18
7936.84715 5.81767e-18
7938.54474 5.60539e-18
7940.24233 5.11670e-18
7941.93992 4.94976e-18
7943.63750 5.38860e-18
7945.33509 6.15263e-18
7947.03268 6.83463e-18
7948.73027 6.82512e-18
7950.42786 5.91438e-18
7952.12544 4.88117e-18
7953.82303 4.40115e-18
7955.52062 4.41545e-18
7957.21821 4.71053e-18
7958.91580 5.07309e-18
7960.61338 5.33819e-18
7962.31097 5.64270e-18
7964.00856 6.11040e-18
7965.70615 6.38355e-18
7967.40374 6.08211e-18
7969.10133 5.43118e-18
7970.79891 4.87693e-18
7972.49650 4.59705e-18
7974.19409 4.59068e-18
7975.89168 4.70498e-18
7977.58927 4.70247e-18
7979.28685 4.57582e-18
7980.98444 4.48846e-18
7982.68203 4.43201e-18
7984.37962 4.26963e-18
7986.07721 3.98200e-18
7987.77479 3.65764e-18
7989.47238 3.46605e-18
7991.16997 3.66075e-18
7992.86756 4.21898e-18
7994.56515 4.75378e-18
7996.26273 5.00483e-18
7997.96032 4.92986e-18
7999.65791 4.59287e-18
8001.35550 4.23458e-18
8003.05309 3.98136e-18
8004.75068 3.65927e-18
8006.44826 3.19769e-18
8008.14585 2.84517e-18
8009.84344 2.75626e-18
8011.54103 2.73216e-18
8013.23862 2.61902e-18
8014.93620 2.59126e-18
8016.63379 2.80227e-18
8018.34143 3.10815e-18
8020.03901 3.33195e-18
8021.73660 3.49790e-18
8023.43419 3.66478e-18
8025.13178 3.73017e-18
8026.82937 3.57747e-18
8028.52695 3.32171e-18
8030.22454 3.14763e-18
8031.92213 2.96522e-18
8033.61972 2.57332e-18
8035.31731 2.09723e-18
8037.01489 1.85306e-18
8038.71248 1.87383e-18
8040.41007 1.97519e-18
8042.10766 2.13334e-18
8043.80525 2.45516e-18
8045.50283 2.94029e-18
8047.20042 3.48536e-18
8048.89801 3.91560e-18
8050.59560 3.97723e-18
8052.29319 3.59202e-18
8053.99078 2.93759e-18
8055.68836 2.21901e-18
8057.38595 1.61741e-18
8059.08354 1.35105e-18
8060.78113 1.74763e-18
8062.47872 2.75361e-18
8064.17630 3.52363e-18
8065.87389 3.49517e-18
8067.57148 3.01542e-18
8069.26907 2.51940e-18
8070.96666 2.20307e-18
8072.66424 2.18322e-18
8074.36183 2.51381e-18
8076.05942 3.11223e-18
8077.75701 3.55576e-18
8079.45460 3.47042e-18
8081.15218 3.07849e-18
8082.84977 2.76634e-18
8084.54736 2.52992e-18
8086.24495 2.23222e-18
8087.94254 1.95881e-18
8089.64013 1.87853e-18
8091.33771 2.05279e-18
8093.03530 2.45241e-18
8094.73289 2.91889e-18
8096.43048 3.21204e-18
8098.12807 3.24466e-18
8099.82565 3.08301e-18
8101.52324 2.83225e-18
8103.22083 2.63571e-18
8104.92846 2.50944e-18
8106.62605 2.30090e-18
8108.32364 2.05477e-18
8110.02123 2.08743e-18
8111.71882 2.43311e-18
8113.41640 2.71215e-18
8115.11399 2.61494e-18
8116.81158 1.93218e-18
8118.50917 8.55965e-19
8120.20676 4.03609e-19
8121.90434 1.07440e-18
8123.60193 1.96763e-18
8125.29952 2.33740e-18
8126.99711 2.40926e-18
8128.69470 2.48300e-18
8130.39228 2.55739e-18
8132.08987 2.58447e-18
8133.78746 2.52619e-18
8135.48505 2.35653e-18
8137.18264 2.07054e-18
8138.88023 1.71379e-18
8140.57781 1.52770e-18
8142.27540 1.73273e-18
8143.97299 2.10684e-18
8145.67058 2.25699e-18
8147.36817 2.08410e-18
8149.06575 1.70122e-18
8150.76334 1.36078e-18
8152.46093 1.38070e-18
8154.15852 1.74221e-18
8155.85611 2.13710e-18
8157.55369 2.44782e-18
8159.25128 2.74118e-18
8160.94887 2.98586e-18
8162.64646 3.06229e-18
8164.34405 2.99223e-18
8166.04163 2.96648e-18
8167.73922 3.00754e-18
8169.43681 2.89041e-18
8171.13440 2.49851e-18
8172.83199 1.90064e-18
8174.52958 1.22894e-18
8176.22716 6.89858e-19
8177.92475 4.59640e-19
8179.62234 6.63498e-19
8181.31993 1.24046e-18
8183.01752 1.73651e-18
8184.71510 1.80442e-18
8186.41269 1.51972e-18
8188.12032 1.11849e-18
8189.81791 1.07561e-18
8191.51550 1.67304e-18
8193.21309 2.31261e-18
8194.91068 2.30915e-18
8196.60827 1.73314e-18
8198.30585 9.82189e-19
8200.00344 5.50088e-19
8201.70103 8.31342e-19
8203.39862 1.43776e-18
8205.09621 1.64338e-18
8206.79379 1.55857e-18
8208.49138 1.78601e-18
8210.18897 2.35071e-18
8211.88656 2.86209e-18
8213.58415 3.08298e-18
8215.28173 2.91058e-18
8216.97932 2.48631e-18
8218.67691 2.21735e-18
8220.37450 2.18441e-18
8222.07209 2.05722e-18
8223.76967 1.74796e-18
8225.46726 1.51118e-18
8227.16485 1.44235e-18
8228.86244 1.37236e-18
8230.56003 1.27501e-18
8232.25762 1.41076e-18
8233.95520 1.85905e-18
8235.65279 2.29231e-18
8237.35038 2.48962e-18
8239.04797 2.59770e-18
8240.74556 2.72954e-18
8242.44314 2.74704e-18
8244.14073 2.55662e-18
8245.83832 2.30926e-18
8247.53591 2.15700e-18
8249.23350 2.09862e-18
8250.93108 2.06713e-18
8252.62867 1.86276e-18
8254.32626 1.35662e-18
8256.02385 9.52352e-19
8257.72144 1.13119e-18
8259.41903 1.66030e-18
8261.11661 1.99293e-18
8262.81420 1.92960e-18
8264.51179 1.53226e-18
8266.20938 1.13018e-18
8267.91701 1.19948e-18
8269.60455 1.67109e-18
8271.30214 2.01488e-18
8273.00977 2.00926e-18
8274.70736 1.74455e-18
8276.40495 1.38944e-18
8278.10254 1.21581e-18
8279.80013 1.32233e-18
8281.49772 1.55210e-18
8283.19530 1.81274e-18
8284.89289 2.13173e-18
8286.59048 2.46303e-18
8288.28807 2.64221e-18
8289.98566 2.60700e-18
8291.68324 2.49013e-18
8293.38083 2.41244e-18
8295.07842 2.42159e-18
8296.77601 2.51916e-18
8298.47360 2.62238e-18
8300.17118 2.65124e-18
8301.86877 2.58754e-18
8303.56636 2.43873e-18
8305.26395 2.24067e-18
8306.96154 2.02992e-18
8308.65912 1.80385e-18
8310.35671 1.55786e-18
8312.05430 1.29914e-18
8313.75189 1.06369e-18
8315.44948 1.02498e-18
8317.14707 1.35006e-18
8318.84465 1.87771e-18
8320.54224 2.28802e-18
8322.23983 2.47487e-18
8323.93742 2.49637e-18
8325.63501 2.48199e-18
8327.33259 2.60637e-18
8329.03018 2.84037e-18
8330.72777 2.96399e-18
8332.42536 2.86713e-18
8334.12295 2.55986e-18
8335.82053 2.18233e-18
8337.51812 2.04053e-18
8339.21571 2.14521e-18
8340.91330 2.07315e-18
8342.61089 1.71027e-18
8344.30847 1.45216e-18
8346.00606 1.56718e-18
8347.70365 2.07679e-18
8349.40124 2.82664e-18
8351.09883 3.33915e-18
8352.79642 3.32428e-18
8354.50405 3.01578e-18
8356.20164 2.70064e-18
8357.89922 2.54853e-18
8359.59681 2.64027e-18
8361.29440 2.88784e-18
8362.99199 3.13602e-18
8364.68958 3.18542e-18
8366.38717 2.91105e-18
8368.08475 2.48505e-18
8369.78234 2.16127e-18
8371.47993 1.97230e-18
8373.17752 1.87767e-18
8374.87511 2.04768e-18
8376.57269 2.67106e-18
8378.27028 3.50501e-18
8379.96787 4.08223e-18
8381.66546 4.29987e-18
8383.36305 4.32448e-18
8385.06063 4.19080e-18
8386.75822 3.84942e-18
8388.45581 3.24406e-18
8390.15340 2.30351e-18
8391.85099 1.42128e-18
8393.54857 1.49421e-18
8395.24616 2.57331e-18
8396.94375 3.60051e-18
8398.64134 3.95086e-18
8400.33893 3.70347e-18
8402.03652 3.11887e-18
8403.73410 2.74898e-18
8405.43169 2.84301e-18
8407.12928 2.94297e-18
8408.82687 2.75009e-18
8410.52446 2.49689e-18
8412.22204 2.40292e-18
8413.91963 2.49909e-18
8415.61722 2.75139e-18
8417.31481 3.02589e-18
8419.01240 3.20250e-18
8420.70998 3.32036e-18
8422.40757 3.43507e-18
8424.10516 3.43858e-18
8425.80275 3.24568e-18
8427.50034 3.10268e-18
8429.19792 3.28605e-18
8430.89551 3.58592e-18
8432.59310 3.62623e-18
8434.29069 3.44453e-18
8435.99832 3.30006e-18
8437.69591 3.31236e-18
8439.39350 3.48859e-18
8441.09109 3.63077e-18
8442.77863 3.40527e-18
8444.48626 2.91515e-18
8446.18385 2.66050e-18
8447.88144 2.84248e-18
8449.57903 3.33091e-18
8451.27662 3.91185e-18
8452.97420 4.26291e-18
8454.67179 4.26746e-18
8456.36938 4.13841e-18
8458.06697 3.97726e-18
8459.76456 3.66757e-18
8461.46214 3.19092e-18
8463.15973 2.69075e-18
8464.85732 2.33560e-18
8466.55491 2.33863e-18
8468.25250 2.75702e-18
8469.95008 3.31065e-18
8471.64767 3.71386e-18
8473.34526 3.80889e-18
8475.04285 3.58164e-18
8476.74044 3.34314e-18
8478.43802 3.37698e-18
8480.13561 3.57913e-18
8481.83320 3.73744e-18
8483.53079 3.70745e-18
8485.22838 3.43578e-18
8486.92597 3.14787e-18
8488.62355 3.14183e-18
8490.32114 3.37795e-18
8492.01873 3.64778e-18
8493.71632 3.95761e-18
8495.41391 4.41348e-18
8497.11149 4.89208e-18
8498.80908 5.13344e-18
8500.50667 5.04147e-18
8502.20426 4.67874e-18
8503.90185 4.28454e-18
8505.59943 4.25947e-18
8507.29702 4.65388e-18
8508.99461 5.09179e-18
8510.69220 5.36522e-18
8512.38979 5.52095e-18
8514.08737 5.51317e-18
8515.78496 5.15474e-18
8517.49260 4.46950e-18
8519.19018 3.80802e-18
8520.87773 3.47194e-18
8522.58536 3.65436e-18
8524.27290 4.28287e-18
8525.98054 4.72526e-18
8527.67812 4.56938e-18
8529.37571 4.16837e-18
8531.07330 3.92157e-18
8532.77089 3.94116e-18
8534.46848 4.19487e-18
8536.16606 4.37316e-18
8537.86365 4.21143e-18
8539.56124 3.95198e-18
8541.25883 3.92598e-18
8542.95642 4.06150e-18
8544.65401 4.14396e-18
8546.35159 4.10114e-18
8548.04918 3.94619e-18
8549.74677 3.76530e-18
8551.44436 3.68778e-18
8553.14195 3.77133e-18
8554.83953 4.00320e-18
8556.53712 4.33949e-18
8558.23471 4.70421e-18
8559.93230 4.95521e-18
8561.62989 4.91228e-18
8563.32747 4.64820e-18
8565.02506 4.50936e-18
8566.72265 4.61839e-18
8568.42024 4.80209e-18
8570.11783 4.96532e-18
8571.81542 5.13141e-18
8573.51300 5.28874e-18
8575.21059 5.39024e-18
8576.90818 5.37010e-18
8578.60577 5.10263e-18
8580.30336 4.60294e-18
8582.00094 4.19018e-18
8583.69853 4.07863e-18
8585.39612 4.13149e-18
8587.09371 4.20279e-18
8588.79130 4.29378e-18
8590.48888 4.42683e-18
8592.18647 4.65440e-18
8593.88406 4.96670e-18
8595.58165 5.07995e-18
8597.27924 4.75395e-18
8598.97682 4.19833e-18
8600.67441 3.76882e-18
8602.37200 3.67328e-18
8604.07963 3.97409e-18
8605.76718 4.40502e-18
8607.47481 4.57056e-18
8609.17240 4.52506e-18
8610.86999 4.59775e-18
8612.56757 4.78688e-18
8614.26516 4.86541e-18
8615.96275 4.77298e-18
8617.66034 4.59079e-18
8619.35793 4.58584e-18
8621.05551 5.19107e-18
8622.75310 6.36299e-18
8624.45069 7.50701e-18
8626.14828 8.04385e-18
8627.84587 7.43948e-18
8629.54346 5.80508e-18
8631.24104 4.23357e-18
8632.93863 3.45702e-18
8634.63622 3.45391e-18
8636.33381 3.94150e-18
8638.03140 4.22235e-18
8639.72898 3.94097e-18
8641.42657 3.70823e-18
8643.12416 3.99647e-18
8644.82175 4.54810e-18
8646.51934 5.00700e-18
8648.21692 5.11064e-18
8649.91451 4.75528e-18
8651.61210 4.25987e-18
8653.30969 4.00267e-18
8655.00728 4.05729e-18
8656.70486 4.35212e-18
8658.40245 4.76142e-18
8660.10004 5.13193e-18
8661.79763 5.38324e-18
8663.49522 5.48595e-18
8665.19281 5.35943e-18
8666.89039 4.94140e-18
8668.58798 4.42173e-18
8670.28557 4.13868e-18
8671.98316 4.15247e-18
8673.68075 4.28368e-18
8675.37833 4.45786e-18
8677.07592 4.69380e-18
8678.77351 4.98919e-18
8680.47110 5.33439e-18
8682.16869 5.66146e-18
8683.86627 5.83236e-18
8685.56386 5.75642e-18
8687.26145 5.40610e-18
8688.96908 4.88380e-18
8690.66667 4.48820e-18
8692.36426 4.40446e-18
8694.06185 4.58277e-18
8695.75944 4.89667e-18
8697.45702 5.13260e-18
8699.15461 5.14144e-18
8700.85220 4.95569e-18
8702.54979 4.67804e-18
8704.24738 4.46670e-18
8705.94496 4.45131e-18
8707.64255 4.68504e-18
8709.34014 5.11016e-18
8711.03773 5.35336e-18
8712.73532 5.10687e-18
8714.43291 4.74264e-18
8716.13049 4.77230e-18
8717.82808 5.04561e-18
8719.52567 5.15624e-18
8721.22326 5.06082e-18
8722.92085 4.91827e-18
8724.61843 4.90570e-18
8726.31602 5.18343e-18
8728.01361 5.55455e-18
8729.71120 5.57112e-18
8731.40879 5.27053e-18
8733.10637 5.11908e-18
8734.80396 5.24615e-18
8736.50155 5.43424e-18
8738.19914 5.52891e-18
8739.89673 5.43936e-18
8741.59431 5.17243e-18
8743.29190 4.88472e-18
8744.98949 4.68663e-18
8746.68708 4.59801e-18
8748.38467 4.59295e-18
8750.08226 4.57721e-18
8751.77984 4.48818e-18
8753.47743 4.31382e-18
8755.17502 4.15033e-18
8756.87261 4.35052e-18
8758.57020 5.07277e-18
8760.26778 5.91514e-18
8761.96537 6.45323e-18
8763.66296 6.51660e-18
8765.36055 6.11157e-18
8767.05814 5.60417e-18
8768.75572 5.33153e-18
8770.45331 5.02923e-18
8772.16095 4.34266e-18
8773.85853 3.44305e-18
8775.55612 2.72751e-18
8777.25371 2.62623e-18
8778.95130 3.42285e-18
8780.64889 4.53810e-18
8782.34647 4.96394e-18
8784.04406 4.70014e-18
8785.74165 4.47603e-18
8787.43924 4.46478e-18
8789.13683 4.39619e-18
8790.83441 4.24198e-18
8792.53200 4.15723e-18
8794.22959 4.16978e-18
8795.92718 4.19371e-18
8797.62477 4.11605e-18
8799.32236 3.77581e-18
8801.01994 3.26217e-18
8802.71753 3.05127e-18
8804.41512 3.29469e-18
8806.11271 3.55676e-18
8807.81030 3.55776e-18
8809.50788 3.39975e-18
8811.20547 3.20800e-18
8812.90306 3.09187e-18
8814.60065 3.09365e-18
8816.29824 3.06334e-18
8817.99582 2.89810e-18
8819.69341 2.72363e-18
8821.39100 2.68331e-18
8823.08859 2.82351e-18
8824.78618 3.12544e-18
8826.48376 3.46825e-18
8828.18135 3.71399e-18
8829.87894 3.80006e-18
8831.57653 3.72875e-18
8833.27412 3.61519e-18
8834.97171 3.60168e-18
8836.66929 3.64135e-18
8838.36688 3.59232e-18
8840.06447 3.50551e-18
8841.76206 3.53640e-18
8843.45965 3.58765e-18
8845.15723 3.39590e-18
8846.85482 3.00151e-18
8848.55241 2.71473e-18
8850.25000 2.73223e-18
8851.94759 3.12343e-18
8853.65522 3.78093e-18
8855.34276 4.36545e-18
8857.05040 4.76977e-18
8858.74798 5.25814e-18
8860.44557 5.81786e-18
8862.14316 5.96731e-18
8863.84075 5.51731e-18
8865.53834 4.81170e-18
8867.23592 4.20139e-18
8868.93351 3.98281e-18
8870.63110 4.20337e-18
8872.32869 4.31196e-18
8874.02628 3.96185e-18
8875.72386 3.61727e-18
8877.42145 3.74048e-18
8879.11904 4.33890e-18
8880.81663 5.20921e-18
8882.51422 5.86029e-18
8884.21181 5.87474e-18
8885.90939 5.46863e-18
8887.60698 5.06152e-18
8889.30457 4.69715e-18
8891.00216 4.30578e-18
8892.69975 4.17938e-18
8894.39733 4.66724e-18
8896.09492 5.46739e-18
8897.79251 5.91856e-18
8899.49010 5.91650e-18
8901.18769 5.77360e-18
8902.88527 5.38590e-18
8904.58286 4.36140e-18
8906.28045 3.18944e-18
8907.97804 3.15414e-18
8909.67563 4.26703e-18
8911.37321 5.09352e-18
8913.07080 4.88851e-18
8914.76839 3.82905e-18
8916.46598 2.43476e-18
8918.16357 1.77084e-18
8919.86116 2.16468e-18
8921.55874 2.53345e-18
8923.25633 2.26871e-18
8924.95392 1.93085e-18
8926.65151 1.97421e-18
8928.34910 2.40142e-18
8930.04668 3.06140e-18
8931.74427 3.54013e-18
8933.44186 3.55399e-18
8935.14949 3.34528e-18
8936.83704 3.21255e-18
8938.53462 3.18790e-18
8940.24226 3.23256e-18
8941.93985 3.28700e-18
8943.63743 3.32609e-18
8945.33502 3.60948e-18
8947.03261 4.37283e-18
8948.73020 5.18071e-18
8950.42779 5.38781e-18
8952.12537 5.11023e-18
8953.82296 4.87428e-18
8955.52055 4.70242e-18
8957.21814 4.30963e-18
8958.91573 3.73544e-18
8960.61331 3.24770e-18
8962.31090 2.99237e-18
8964.00849 3.00077e-18
8965.70608 3.20972e-18
8967.40367 3.45344e-18
8969.10125 3.53716e-18
8970.79884 3.23694e-18
8972.49643 2.69677e-18
8974.19402 2.59613e-18
8975.89161 3.14559e-18
8977.58920 3.74001e-18
8979.28678 3.99603e-18
8980.98437 4.08381e-18
8982.68196 4.07104e-18
8984.37955 3.62943e-18
8986.07714 2.77053e-18
8987.77472 2.42620e-18
8989.47231 3.17523e-18
8991.16990 4.26895e-18
8992.86749 4.93907e-18
8994.56508 5.31266e-18
8996.26266 5.64305e-18
8997.96025 5.77109e-18
8999.65784 5.51158e-18
9001.35543 4.96339e-18
9003.05302 4.32736e-18
9004.75061 3.78497e-18
9006.44819 3.45632e-18
9008.14578 3.21805e-18
9009.84337 2.84365e-18
9011.54096 2.35047e-18
9013.23855 1.92885e-18
9014.93613 1.77982e-18
9016.63372 2.08295e-18
9018.33131 2.78567e-18
9020.02890 3.60722e-18
9021.72649 4.30127e-18
9023.43412 4.68918e-18
9025.13171 4.57685e-18
9026.82930 3.76280e-18
9028.52688 2.58491e-18
9030.22447 2.08690e-18
9031.92206 2.60579e-18
9033.61965 3.33709e-18
9035.31724 3.76301e-18
9037.01482 4.00437e-18
9038.71241 4.15805e-18
9040.41000 4.21351e-18
9042.10759 4.16040e-18
9043.80518 3.94638e-18
9045.50276 3.57366e-18
9047.20035 3.22564e-18
9048.89794 3.01363e-18
9050.59553 2.69392e-18
9052.29312 2.10880e-18
9053.99070 1.65738e-18
9055.68829 1.73899e-18
9057.38588 2.21591e-18
9059.08347 2.74594e-18
9060.78106 3.02507e-18
9062.47865 2.85319e-18
9064.17623 2.29010e-18
9065.87382 1.60138e-18
9067.57141 1.38409e-18
9069.26900 2.23783e-18
9070.96659 3.51438e-18
9072.66417 3.79241e-18
9074.36176 3.03671e-18
9076.05935 2.35680e-18
9077.75694 2.21430e-18
9079.45453 2.45929e-18
9081.15211 2.92926e-18
9082.84970 3.39783e-18
9084.54729 3.55622e-18
9086.24488 3.03007e-18
9087.94247 2.01308e-18
9089.64005 1.51168e-18
9091.33764 2.00137e-18
9093.03523 3.03715e-18
9094.73282 4.09492e-18
9096.43041 4.61589e-18
9098.12800 4.40726e-18
9099.82558 4.07322e-18
9101.52317 4.11881e-18
9103.22076 4.53386e-18
9104.92839 5.13054e-18
9106.62598 5.49259e-18
9108.32357 5.33047e-18
9110.01111 4.91546e-18
9111.71875 4.59682e-18
9113.41633 4.41293e-18
9115.11392 4.28403e-18
9116.81151 4.05770e-18
9118.50910 3.62262e-18
9120.20669 3.21679e-18
9121.90427 3.17391e-18
9123.60186 3.45773e-18
9125.29945 3.81030e-18
9126.99704 3.94866e-18
9128.69463 3.63740e-18
9130.39221 3.18713e-18
9132.08980 3.28945e-18
9133.78739 3.83348e-18
9135.48498 4.00391e-18
9137.18257 3.75889e-18
9138.88015 3.83860e-18
9140.57774 4.34146e-18
9142.27533 4.62498e-18
9143.97292 4.48473e-18
9145.67051 4.29129e-18
9147.36810 4.30607e-18
9149.06568 4.64278e-18
9150.76327 5.15313e-18
9152.46086 5.19933e-18
9154.15845 4.50319e-18
9155.85604 3.63832e-18
9157.55362 2.99769e-18
9159.25121 2.21029e-18
9160.94880 1.15597e-18
9162.64639 6.88523e-19
9164.34398 1.37736e-18
9166.04156 2.58425e-18
9167.73915 3.47026e-18
9169.43674 3.47603e-18
9171.13433 2.46301e-18
9172.83192 1.42608e-18
9174.52950 1.46726e-18
9176.22709 2.28695e-18
9177.92468 3.01532e-18
9179.62227 3.28037e-18
9181.31986 3.06002e-18
9183.01745 2.81617e-18
9184.71503 3.23594e-18
9186.42267 4.13395e-18
9188.11021 4.70779e-18
9189.81784 4.68390e-18
9191.50539 4.25140e-18
9193.21302 3.85637e-18
9194.91061 4.19574e-18
9196.60820 5.11256e-18
9198.30578 5.46549e-18
9200.00337 4.93736e-18
9201.70096 4.28913e-18
9203.39855 4.00727e-18
9205.09614 4.18056e-18
9206.79372 4.61622e-18
9208.49131 4.61025e-18
9210.18890 3.91750e-18
9211.88649 3.28452e-18
9213.58408 3.20619e-18
9215.28166 3.35202e-18
9216.97925 3.48096e-18
9218.67684 3.94929e-18
9220.37443 4.86029e-18
9222.07202 5.36684e-18
9223.76960 4.80901e-18
9225.46719 3.63103e-18
9227.16478 2.55017e-18
9228.86237 2.11002e-18
9230.55996 2.56162e-18
9232.25755 3.29855e-18
9233.95513 3.53398e-18
9235.65272 3.42277e-18
9237.35031 3.54510e-18
9239.04790 4.10949e-18
9240.74549 5.05594e-18
9242.44307 6.05387e-18
9244.14066 6.59497e-18
9245.83825 6.48267e-18
9247.53584 5.82640e-18
9249.23343 4.84965e-18
9250.93101 3.88755e-18
9252.62860 3.19689e-18
9254.32619 2.89839e-18
9256.02378 3.04386e-18
9257.72137 3.61372e-18
9259.41895 4.29975e-18
9261.11654 4.41576e-18
9262.81413 3.79509e-18
9264.51172 3.11041e-18
9266.20931 2.82722e-18
9267.91694 2.95872e-18
9269.60448 3.32301e-18
9271.31212 3.37278e-18
9272.99966 2.87384e-18
9274.70729 2.45739e-18
9276.40488 2.60344e-18
9278.10247 3.05367e-18
9279.80006 3.43546e-18
9281.49764 3.44853e-18
9283.19523 3.00079e-18
9284.89282 2.65919e-18
9286.59041 2.96996e-18
9288.28800 3.52442e-18
9289.98559 3.71138e-18
9291.68317 3.81457e-18
9293.38076 4.34960e-18
9295.07835 4.79023e-18
9296.77594 4.29637e-18
9298.47353 3.57825e-18
9300.17111 4.09065e-18
9301.86870 5.35998e-18
9303.56629 5.62037e-18
9305.26388 4.74513e-18
9306.96147 3.96299e-18
9308.65905 3.73368e-18
9310.35664 3.81866e-18
9312.05423 3.89035e-18
9313.75182 3.42566e-18
9315.44941 2.75566e-18
9317.14700 3.39269e-18
9318.84458 5.51498e-18
9320.54217 7.31569e-18
9322.23976 7.51632e-18
9323.93735 5.81042e-18
9325.63494 2.71146e-18
9327.33252 1.93640e-19
9329.03011 -5.95132e-19
9330.72770 -7.86846e-19
9332.42529 -1.32377e-18
9334.12288 -1.80008e-18
9335.82046 -1.68202e-18
9337.51805 -6.59590e-19
9339.21564 1.28975e-18
9340.91323 3.53245e-18
9342.61082 5.32002e-18
9344.30840 6.28959e-18
9346.00599 6.34133e-18
9347.70358 5.56683e-18
9349.41121 4.27385e-18
9351.09876 3.15525e-18
9352.80639 2.90833e-18
9354.49393 3.43747e-18
9356.20157 4.12841e-18
9357.89915 4.47498e-18
9359.59674 4.12397e-18
9361.29433 3.24978e-18
9362.99192 2.48219e-18
9364.68951 1.93671e-18
9366.38709 1.24455e-18
9368.08468 5.17832e-19
9369.78227 3.26667e-19
9371.47986 9.37167e-19
9373.17745 2.29857e-18
9374.87504 3.79044e-18
9376.57262 3.95856e-18
9378.27021 2.58954e-18
9379.96780 1.53052e-18
9381.66539 1.85745e-18
9383.36298 3.01853e-18
9385.06056 4.29602e-18
9386.75815 4.86642e-18
9388.45574 4.45954e-18
9390.15333 4.27570e-18
9391.85092 5.11492e-18
9393.54850 5.95233e-18
9395.24609 5.86117e-18
9396.94368 5.37937e-18
9398.64127 5.21513e-18
9400.33886 5.42150e-18
9402.03644 5.75732e-18
9403.73403 5.61461e-18
9405.43162 4.50291e-18
9407.12921 2.96060e-18
9408.82680 1.95518e-18
9410.52439 2.05212e-18
9412.22197 3.37853e-18
9413.91956 5.21616e-18
9415.61715 6.34324e-18
9417.31474 6.20675e-18
9419.01233 4.90827e-18
9420.70991 3.22522e-18
9422.40750 2.49250e-18
9424.10509 2.72475e-18
9425.80268 2.54130e-18
9427.50027 1.77768e-18
9429.19785 1.69787e-18
9430.89544 2.51404e-18
9432.59303 3.04679e-18
9434.29062 2.94143e-18
9435.98821 3.13009e-18
9437.69584 4.01591e-18
9439.39343 5.05950e-18
9441.09102 5.71829e-18
9442.78860 5.49879e-18
9444.48619 4.37931e-18
9446.18378 3.35212e-18
9447.88137 3.16566e-18
9449.57896 3.58654e-18
9451.27654 4.15782e-18
9452.97413 4.40614e-18
9454.67172 4.05371e-18
9456.36931 3.37998e-18
9458.06690 2.85241e-18
9459.76449 2.97573e-18
9461.46207 3.99819e-18
9463.15966 5.19038e-18
9464.85725 5.59074e-18
9466.55484 5.28502e-18
9468.25243 4.87900e-18
9469.95001 4.57187e-18
9471.64760 4.31173e-18
9473.34519 3.94273e-18
9475.04278 3.24772e-18
9476.74037 2.29144e-18
9478.43795 1.39452e-18
9480.13554 1.19501e-18
9481.83313 2.55910e-18
9483.53072 4.94525e-18
9485.22831 6.28397e-18
9486.92589 5.94196e-18
9488.62348 5.14623e-18
9490.32107 4.61679e-18
9492.01866 4.30858e-18
9493.71625 4.10920e-18
9495.41384 3.71338e-18
9497.11142 3.13034e-18
9498.80901 3.08205e-18
9500.50660 3.84414e-18
9502.20419 4.59650e-18
9503.90178 4.76873e-18
9505.59936 4.79556e-18
9507.29695 5.00677e-18
9508.99454 4.93750e-18
9510.69213 4.21940e-18
9512.38972 3.26009e-18
9514.08730 2.54197e-18
9515.78489 1.92809e-18
9517.48248 1.26221e-18
9519.19011 1.28583e-18
9520.88770 2.67688e-18
9522.58529 4.37376e-18
9524.28288 4.80833e-18
9525.98047 4.15390e-18
9527.67805 3.54621e-18
9529.37564 3.53619e-18
9531.07323 4.22495e-18
9532.77082 5.20894e-18
9534.46841 5.67115e-18
9536.16599 5.41325e-18
9537.86358 4.84077e-18
9539.56117 4.30287e-18
9541.25876 4.09618e-18
9542.95635 4.18685e-18
9544.65394 4.11612e-18
9546.35152 3.65869e-18
9548.04911 2.93003e-18
9549.74670 2.14539e-18
9551.44429 1.61632e-18
9553.14188 1.64301e-18
9554.83946 2.59552e-18
9556.53705 4.20244e-18
9558.23464 4.83058e-18
9559.93223 3.77981e-18
9561.62982 2.86041e-18
9563.32740 3.36700e-18
9565.02499 4.26380e-18
9566.72258 4.44688e-18
9568.42017 3.92360e-18
9570.11776 3.06996e-18
9571.81534 2.49531e-18
9573.51293 2.73580e-18
9575.21052 3.79343e-18
9576.90811 5.33642e-18
9578.60570 6.80009e-18
9580.30329 7.59713e-18
9582.00087 7.51503e-18
9583.69846 6.65900e-18
9585.39605 5.34427e-18
9587.09364 4.02607e-18
9588.79123 3.11487e-18
9590.48881 2.89369e-18
9592.18640 3.13517e-18
9593.88399 3.19245e-18
9595.58158 3.16266e-18
9597.27917 3.86002e-18
9598.97675 5.09099e-18
9600.67434 5.57039e-18
9602.38198 5.02093e-18
9604.07956 4.44505e-18
9605.76711 4.34241e-18
9607.47474 4.45757e-18
9609.17233 4.53475e-18
9610.86992 4.32430e-18
9612.56750 3.76909e-18
9614.26509 3.18181e-18
9615.96268 2.85905e-18
9617.66027 2.99853e-18
9619.35786 3.56447e-18
9621.05544 4.06220e-18
9622.75303 4.06032e-18
9624.45062 3.44690e-18
9626.14821 2.41649e-18
9627.84580 1.77194e-18
9629.54339 2.18814e-18
9631.24097 3.39890e-18
9632.93856 4.77326e-18
9634.63615 5.76149e-18
9636.33374 5.97919e-18
9638.03133 5.51770e-18
9639.72891 4.76366e-18
9641.42650 4.07840e-18
9643.12409 3.74449e-18
9644.82168 3.71000e-18
9646.51927 3.68838e-18
9648.21685 3.67835e-18
9649.91444 3.88468e-18
9651.61203 4.44414e-18
9653.30962 5.43629e-18
9655.00721 6.20914e-18
9656.70479 5.37633e-18
9658.40238 3.30313e-18
9660.09997 2.43576e-18
9661.79756 3.77670e-18
9663.49515 6.33088e-18
9665.19274 8.85701e-18
9666.89032 9.81002e-18
9668.58791 8.70894e-18
9670.28550 7.04349e-18
9671.98309 5.99769e-18
9673.68068 5.69872e-18
9675.37826 5.91919e-18
9677.07585 5.97667e-18
9678.77344 5.31950e-18
9680.47103 3.90671e-18
9682.16862 2.06733e-18
9683.86620 7.80788e-19
9685.56379 7.91096e-19
9687.26138 1.64912e-18
9688.96901 2.53773e-18
9690.66660 2.82302e-18
9692.36419 2.20194e-18
9694.06178 1.37576e-18
9695.75937 1.31471e-18
9697.45695 1.81091e-18
9699.15454 2.06643e-18
9700.85213 1.86021e-18
9702.54972 1.36338e-18
9704.24731 9.49943e-19
9705.94489 1.12371e-18
9707.64248 1.80065e-18
9709.34007 2.37694e-18
9711.03766 2.57207e-18
9712.73525 2.43341e-18
9714.43283 2.19523e-18
9716.13042 2.32397e-18
9717.82801 2.85543e-18
9719.52560 3.24960e-18
9721.22319 3.18373e-18
9722.92078 2.65191e-18
9724.61836 1.92097e-18
9726.31595 1.71426e-18
9728.01354 2.31881e-18
9729.71113 3.13189e-18
9731.40872 3.63866e-18
9733.10630 3.71996e-18
9734.80389 3.46584e-18
9736.50148 3.33466e-18
9738.19907 3.63456e-18
9739.89666 4.10669e-18
9741.59424 4.36704e-18
9743.29183 3.98349e-18
9744.98942 2.82689e-18
9746.68701 1.88622e-18
9748.38460 2.12837e-18
9750.08219 2.85759e-18
9751.77977 2.88804e-18
9753.47736 2.09174e-18
9755.17495 9.75686e-19
9756.87254 4.86453e-19
9758.57013 1.58889e-18
9760.26771 3.56992e-18
9761.96530 4.61905e-18
9763.66289 4.13317e-18
9765.36048 2.58229e-18
9767.05807 9.88504e-19
9768.75565 8.74287e-19
9770.45324 2.26227e-18
9772.16088 3.48660e-18
9773.85846 3.90806e-18
9775.55605 4.17723e-18
9777.25364 4.67194e-18
9778.95123 5.42913e-18
9780.64882 6.31413e-18
9782.34640 6.90425e-18
9784.04399 6.87315e-18
9785.74158 6.07344e-18
9787.43917 4.68025e-18
9789.13676 3.47259e-18
9790.83434 2.92520e-18
9792.53193 2.62874e-18
9794.22952 2.17035e-18
9795.92711 1.49767e-18
9797.62470 7.57210e-19
9799.32228 5.44609e-19
9801.01987 1.23000e-18
9802.71746 1.98578e-18
9804.41505 1.94666e-18
9806.11264 1.63830e-18
9807.81023 1.92017e-18
9809.50781 2.72009e-18
9811.20540 3.51117e-18
9812.90299 3.67638e-18
9814.60058 2.73246e-18
9816.29817 1.32688e-18
9817.99575 7.54060e-19
9819.69334 1.13717e-18
9821.39093 1.69644e-18
9823.08852 2.18256e-18
9824.78611 2.76554e-18
9826.48369 3.23694e-18
9828.18128 3.09337e-18
9829.87887 2.51227e-18
9831.57646 2.41378e-18
9833.27405 3.14937e-18
9834.97163 4.32728e-18
9836.66922 5.41042e-18
9838.36681 5.66029e-18
9840.06440 4.89487e-18
9841.76199 3.91354e-18
9843.45958 3.31220e-18
9845.15716 3.09980e-18
9846.85475 3.15827e-18
9848.55234 3.23679e-18
9850.24993 3.15657e-18
9851.94752 3.05981e-18
9853.65515 3.04235e-18
9855.34269 2.82102e-18
9857.05033 2.21453e-18
9858.74791 1.67477e-18
9860.44550 1.63227e-18
9862.14309 1.63580e-18
9863.84068 1.18839e-18
9865.53827 1.09046e-18
9867.23585 2.31485e-18
9868.93344 3.84488e-18
9870.63103 4.03273e-18
9872.32862 3.78221e-18
9874.02621 5.16774e-18
9875.72379 7.53379e-18
9877.42138 8.46750e-18
9879.11897 6.90020e-18
9880.81656 2.98972e-18
9882.51415 -1.41179e-18
9884.21173 -2.90706e-18
9885.90932 -1.10049e-18
9887.60691 1.03638e-18
9889.30450 1.80619e-18
9891.00209 1.11413e-18
9892.69968 -2.66388e-19
9894.39726 -1.90726e-19
9896.09485 1.90312e-18
9897.79244 3.85371e-18
9899.49003 4.14807e-18
9901.18762 2.70741e-18
9902.88520 1.82702e-19
9904.58279 -1.53296e-18
9906.28038 -1.31808e-18
9907.97797 -3.11122e-19
9909.67556 3.34007e-19
9911.37314 6.15539e-19
9913.07073 7.95858e-19
9914.76832 1.16501e-18
9916.46591 1.91820e-18
9918.16350 2.85938e-18
9919.86108 3.64674e-18
9921.55867 3.97032e-18
9923.25626 3.66100e-18
9924.95385 2.95313e-18
9926.65144 2.28027e-18
9928.34903 2.02568e-18
9930.04661 2.40338e-18
9931.74420 2.87478e-18
9933.44179 2.51303e-18
9935.14942 1.56263e-18
9936.83697 1.12865e-18
9938.54460 1.37740e-18
9940.23214 1.66441e-18
9941.93978 1.64160e-18
9943.63736 1.21916e-18
9945.33495 6.19697e-19
9947.03254 4.98656e-19
9948.73013 7.78056e-19
9950.42772 3.37646e-19
9952.12530 -1.01220e-18
9953.82289 -2.00940e-18
9955.52048 -1.88542e-18
9957.21807 -8.51627e-19
9958.91566 7.65886e-19
9960.61324 2.58991e-18
9962.31083 4.30415e-18
9964.00842 5.93004e-18
9965.70601 7.30193e-18
9967.40360 7.58175e-18
9969.10118 6.29600e-18
9970.79877 4.09565e-18
9972.49636 1.95027e-18
9974.19395 8.40908e-19
9975.89154 1.32434e-18
9977.58913 2.71254e-18
9979.28671 3.89590e-18
9980.98430 4.32909e-18
9982.68189 3.85872e-18
9984.37948 2.60739e-18
9986.07707 9.75632e-19
9987.77465 -4.36414e-19
9989.47224 -1.01909e-18
9991.16983 -4.99841e-19
9992.86742 1.00858e-18
9994.56501 2.50429e-18
9996.26259 2.38759e-18
9997.96018 1.07812e-18
9999.65777 9.16558e-19
