# wavelength flux
3401.21098 1.24454e-17
3403.15824 1.23820e-17
3405.10551 1.29857e-17
3407.05277 1.35694e-17
3409.01018 1.30360e-17
3410.95744 1.25927e-17
3412.90470 1.27647e-17
3414.85197 1.37003e-17
3416.80937 1.44281e-17
3418.75664 1.44836e-17
3420.70390 1.41642e-17
3422.66131 1.44222e-17
3424.60857 1.49487e-17
3426.55584 1.52493e-17
3428.50310 1.51961e-17
3430.46051 1.48324e-17
3432.40777 1.48607e-17
3434.35503 1.52960e-17
3436.31244 1.60022e-17
3438.25970 1.63021e-17
3440.20697 1.62226e-17
3442.15423 1.63993e-17
3444.11164 1.64999e-17
3446.05890 1.63073e-17
3448.00617 1.65408e-17
3449.95343 1.73863e-17
3451.91084 1.72674e-17
3453.85810 1.68890e-17
3455.80536 1.70011e-17
3457.76277 1.72900e-17
3459.71003 1.82853e-17
3461.65730 1.86387e-17
3463.60456 1.80903e-17
3465.56197 1.78085e-17
3467.50923 1.85292e-17
3469.45650 1.89779e-17
3471.40376 1.89702e-17
3473.36117 1.86814e-17
3475.30843 1.90167e-17
3477.25569 1.99905e-17
3479.21310 1.97866e-17
3481.16036 1.94493e-17
3483.10763 2.02274e-17
3485.05489 1.96599e-17
3487.01230 1.89138e-17
3488.95956 1.92690e-17
3490.90683 1.96238e-17
3492.86423 1.98304e-17
3494.81150 1.94840e-17
3496.75876 1.97796e-17
3498.70602 2.05861e-17
3500.66343 2.02044e-17
3502.61069 2.02061e-17
3504.55796 2.03781e-17
3506.50522 2.01949e-17
3508.46263 2.06003e-17
3510.40989 2.08388e-17
3512.35716 2.05628e-17
3514.31456 2.05684e-17
3516.26183 2.06506e-17
3518.20909 2.06902e-17
3520.15635 2.05441e-17
3522.11376 2.03222e-17
3524.06102 2.08862e-17
3526.00829 2.12911e-17
3527.95555 2.10763e-17
3529.91296 2.08530e-17
3531.86022 2.08775e-17
3533.80749 2.13655e-17
3535.76489 2.14985e-17
3537.71216 2.12138e-17
3539.65942 2.12231e-17
3541.60668 2.11499e-17
3543.56409 2.12350e-17
3545.51135 2.18878e-17
3547.45862 2.19534e-17
3549.40588 2.17017e-17
3551.36329 2.16755e-17
3553.31055 2.12229e-17
3555.25782 2.05478e-17
3557.21522 1.99704e-17
3559.16249 2.01270e-17
3561.10975 2.06334e-17
3563.05701 2.01086e-17
3565.01442 2.02457e-17
3566.96168 2.05219e-17
3568.90895 2.01567e-17
3570.86635 2.01410e-17
3572.81362 1.96451e-17
3574.76088 1.93300e-17
3576.70815 1.96896e-17
3578.66555 2.01705e-17
3580.61282 2.00969e-17
3582.56008 1.94662e-17
3584.50734 2.01209e-17
3586.46475 2.00319e-17
3588.41201 1.90986e-17
3590.35928 1.92367e-17
3592.31668 1.99517e-17
3594.26395 2.01281e-17
3596.21121 2.02026e-17
3598.15848 1.98842e-17
3600.11588 2.00547e-17
3602.06315 1.99521e-17
3604.01041 2.00577e-17
3605.95767 1.97165e-17
3607.91508 1.94861e-17
3609.86234 1.96308e-17
3611.80961 1.93527e-17
3613.76701 1.93622e-17
3615.71428 1.92351e-17
3617.66154 1.88671e-17
3619.60881 1.92186e-17
3621.56621 1.92421e-17
3623.51348 1.86139e-17
3625.46074 1.86228e-17
3627.40800 1.84388e-17
3629.36541 1.86409e-17
3631.31267 1.87122e-17
3633.25994 1.83157e-17
3635.21734 1.80860e-17
3637.16461 1.79457e-17
3639.11187 1.77752e-17
3641.05914 1.81176e-17
3643.01654 1.81807e-17
3644.96381 1.77938e-17
3646.91107 1.75222e-17
3648.86848 1.76125e-17
3650.81574 1.80413e-17
3652.76300 1.84466e-17
3654.71027 1.82687e-17
3656.66767 1.78184e-17
3658.61494 1.74995e-17
3660.56220 1.80692e-17
3662.50947 1.86535e-17
3664.46687 1.83349e-17
3666.41414 1.78122e-17
3668.36140 1.79436e-17
3670.31881 1.90057e-17
3672.26607 1.92300e-17
3674.21333 1.87771e-17
3676.16060 1.92192e-17
3678.11800 1.93330e-17
3680.06527 1.93632e-17
3682.01253 1.94149e-17
3683.95980 1.92174e-17
3685.91720 1.91846e-17
3687.86447 1.96888e-17
3689.81173 1.98869e-17
3691.76914 1.90149e-17
3693.71640 1.90138e-17
3695.66366 1.95012e-17
3697.61093 1.97792e-17
3699.56833 1.91414e-17
3701.51560 1.85085e-17
3703.46286 1.84560e-17
3705.42027 1.85949e-17
3707.36753 1.85600e-17
3709.31480 1.83905e-17
3711.26206 1.83885e-17
3713.21947 1.81415e-17
3715.16673 1.79971e-17
3717.11399 1.80444e-17
3719.06126 1.84513e-17
3721.01866 1.83747e-17
3722.96593 1.79979e-17
3724.91319 1.76443e-17
3726.87060 1.70931e-17
3728.81786 1.67495e-17
3730.76513 1.68607e-17
3732.71239 1.70970e-17
3734.66980 1.65898e-17
3736.61706 1.58541e-17
3738.56432 1.51623e-17
3740.51159 1.47461e-17
3742.46899 1.47643e-17
3744.41626 1.44866e-17
3746.36352 1.34629e-17
3748.32093 1.31810e-17
3750.26819 1.29717e-17
3752.21546 1.27196e-17
3754.16272 1.25485e-17
3756.12013 1.27150e-17
3758.06739 1.25054e-17
3760.01465 1.23038e-17
3761.96192 1.22562e-17
3763.91932 1.22065e-17
3765.86659 1.21568e-17
3767.81385 1.21071e-17
3769.77126 1.20574e-17
3771.71852 1.20078e-17
3773.66579 1.19582e-17
3775.61305 1.19086e-17
3777.57046 1.18590e-17
3779.51772 1.18094e-17
3781.46498 1.17599e-17
3783.42239 1.17104e-17
3785.36965 1.16609e-17
3787.31692 1.16114e-17
3789.26418 1.15620e-17
3791.22159 1.15125e-17
3793.16885 1.14631e-17
3795.11612 1.14137e-17
3797.06338 1.13643e-17
3799.02079 1.13150e-17
3800.96805 1.12656e-17
3802.91531 1.12885e-17
3804.87272 1.13438e-17
3806.81998 1.12816e-17
3808.76725 1.08522e-17
3810.71451 1.10119e-17
3812.67192 1.08436e-17
3814.61918 1.08858e-17
3816.56645 1.06803e-17
3818.51371 1.06681e-17
3820.47112 1.07575e-17
3822.41838 1.06070e-17
3824.36564 1.09138e-17
3826.32305 1.07816e-17
3828.27031 1.11468e-17
3830.21758 1.14387e-17
3832.16484 1.10377e-17
3834.12225 1.05250e-17
3836.06951 1.08072e-17
3838.01678 1.10790e-17
3839.97418 1.13811e-17
3841.92145 1.14811e-17
3843.86871 1.15387e-17
3845.81597 1.14901e-17
3847.77338 1.14857e-17
3849.72064 1.13169e-17
3851.66791 1.16902e-17
3853.61517 1.22972e-17
3855.57258 1.17964e-17
3857.51984 1.17301e-17
3859.46711 1.21501e-17
3861.42451 1.25312e-17
3863.37178 1.27718e-17
3865.31904 1.28832e-17
3867.26630 1.30521e-17
3869.22371 1.31381e-17
3871.17097 1.32757e-17
3873.11824 1.38218e-17
3875.06550 1.42337e-17
3877.02291 1.48810e-17
3878.97017 1.50153e-17
3880.91744 1.47118e-17
3882.87484 1.47975e-17
3884.82211 1.50132e-17
3886.76937 1.53075e-17
3888.71663 1.56231e-17
3890.67404 1.57861e-17
3892.62130 1.57091e-17
3894.56857 1.59187e-17
3896.51583 1.65599e-17
3898.47324 1.68881e-17
3900.42050 1.72074e-17
3902.36777 1.76941e-17
3904.32517 1.75257e-17
3906.27244 1.76461e-17
3908.21970 1.79702e-17
3910.16696 1.83197e-17
3912.12437 1.90954e-17
3914.07163 1.95206e-17
3916.01890 1.92235e-17
3917.96616 1.94935e-17
3919.92357 2.01321e-17
3921.87083 2.05762e-17
3923.81810 2.10811e-17
3925.77550 2.14342e-17
3927.72277 2.16797e-17
3929.67003 2.17804e-17
3931.61729 2.17989e-17
3933.57470 2.15710e-17
3935.52196 2.20649e-17
3937.46923 2.26905e-17
3939.42663 2.32467e-17
3941.37390 2.36660e-17
3943.32116 2.40884e-17
3945.26843 2.44817e-17
3947.22583 2.47386e-17
3949.17310 2.52732e-17
3951.12036 2.57628e-17
3953.06762 2.58186e-17
3955.02503 2.60824e-17
3956.97229 2.64430e-17
3958.91956 2.67989e-17
3960.87696 2.74131e-17
3962.82423 2.75482e-17
3964.77149 2.74607e-17
3966.71876 2.76131e-17
3968.67616 2.78219e-17
3970.62343 2.83231e-17
3972.57069 2.85621e-17
3974.52810 2.90707e-17
3976.47536 3.00491e-17
3978.42262 3.03637e-17
3980.36989 3.05309e-17
3982.32729 3.03987e-17
3984.27456 3.02414e-17
3986.22182 3.01085e-17
3988.16909 3.00840e-17
3990.12649 3.00307e-17
3992.07376 3.00847e-17
3994.02102 3.03254e-17
3995.97843 3.07428e-17
3997.92569 3.03774e-17
3999.87295 3.05103e-17
4001.82022 3.05138e-17
4003.77762 2.99307e-17
4005.72489 3.01034e-17
4007.67215 3.00831e-17
4009.61942 3.00079e-17
4011.57682 3.00501e-17
4013.52409 3.02665e-17
4015.47135 3.00099e-17
4017.42876 3.02874e-17
4019.37602 2.98281e-17
4021.32328 2.95988e-17
4023.27055 2.92901e-17
4025.22795 2.94466e-17
4027.17522 2.98327e-17
4029.12248 3.00952e-17
4031.06975 2.99165e-17
4033.02715 2.94142e-17
4034.97442 2.89853e-17
4036.92168 2.92298e-17
4038.87909 2.97086e-17
4040.82635 2.97385e-17
4042.77361 2.89520e-17
4044.72088 2.88669e-17
4046.67828 2.91074e-17
4048.62555 2.87673e-17
4050.57281 2.89826e-17
4052.53022 2.92178e-17
4054.47748 2.88002e-17
4056.42475 2.83840e-17
4058.37201 2.81779e-17
4060.32942 2.80456e-17
4062.27668 2.81544e-17
4064.22394 2.80580e-17
4066.17121 2.77946e-17
4068.12861 2.72598e-17
4070.07588 2.73221e-17
4072.02314 2.73788e-17
4073.98055 2.73516e-17
4075.92781 2.73369e-17
4077.87508 2.71611e-17
4079.82234 2.68849e-17
4081.77975 2.69317e-17
4083.72701 2.70393e-17
4085.67427 2.69759e-17
4087.62154 2.67941e-17
4089.57894 2.64343e-17
4091.52621 2.67636e-17
4093.47347 2.69185e-17
4095.43088 2.65343e-17
4097.37814 2.64110e-17
4099.32541 2.63003e-17
4101.27267 2.62717e-17
4103.23008 2.58086e-17
4105.17734 2.52210e-17
4107.12460 2.52196e-17
4109.07187 2.56064e-17
4111.02927 2.54370e-17
4112.97654 2.48465e-17
4114.92380 2.48531e-17
4116.88121 2.45998e-17
4118.82847 2.42967e-17
4120.77574 2.40932e-17
4122.72300 2.39900e-17
4124.68041 2.35431e-17
4126.62767 2.34900e-17
4128.57493 2.36375e-17
4130.53234 2.34909e-17
4132.47960 2.33846e-17
4134.42687 2.30632e-17
4136.37413 2.29578e-17
4138.33154 2.31193e-17
4140.27880 2.29344e-17
4142.22607 2.27831e-17
4144.17333 2.27708e-17
4146.13074 2.28699e-17
4148.07800 2.31872e-17
4150.02526 2.30751e-17
4151.98267 2.25371e-17
4153.92993 2.22867e-17
4155.87720 2.24933e-17
4157.82446 2.27959e-17
4159.78187 2.29039e-17
4161.72913 2.28064e-17
4163.67640 2.25815e-17
4165.62366 2.24572e-17
4167.58107 2.24960e-17
4169.52833 2.25170e-17
4171.47559 2.24914e-17
4173.43300 2.26682e-17
4175.38026 2.26822e-17
4177.32753 2.26261e-17
4179.27479 2.27503e-17
4181.23220 2.28870e-17
4183.17946 2.30067e-17
4185.12673 2.28807e-17
4187.08413 2.28696e-17
4189.03140 2.32464e-17
4190.97866 2.32428e-17
4192.92592 2.33168e-17
4194.88333 2.33087e-17
4196.83059 2.32762e-17
4198.77786 2.34731e-17
4200.72512 2.33883e-17
4202.68253 2.33440e-17
4204.62979 2.36392e-17
4206.57706 2.35440e-17
4208.53446 2.34290e-17
4210.48173 2.37241e-17
4212.42899 2.37225e-17
4214.37625 2.34677e-17
4216.33366 2.33545e-17
4218.28092 2.33688e-17
4220.22819 2.37600e-17
4222.17545 2.39219e-17
4224.13286 2.34767e-17
4226.08012 2.31412e-17
4228.02739 2.30791e-17
4229.98479 2.30506e-17
4231.93206 2.29151e-17
4233.87932 2.28973e-17
4235.82658 2.26899e-17
4237.78399 2.23028e-17
4239.73125 2.24604e-17
4241.67852 2.26303e-17
4243.62578 2.22006e-17
4245.58319 2.18257e-17
4247.53045 2.18574e-17
4249.47772 2.19519e-17
4251.43512 2.18149e-17
4253.38239 2.16696e-17
4255.32965 2.15173e-17
4257.27691 2.16654e-17
4259.23432 2.17811e-17
4261.18158 2.14403e-17
4263.12885 2.10881e-17
4265.08625 2.13465e-17
4267.03352 2.13513e-17
4268.98078 2.09482e-17
4270.92805 2.09162e-17
4272.88545 2.10451e-17
4274.83272 2.13773e-17
4276.77998 2.15996e-17
4278.72724 2.13861e-17
4280.68465 2.10912e-17
4282.63191 2.11211e-17
4284.57918 2.13029e-17
4286.53658 2.14320e-17
4288.48385 2.10215e-17
4290.43111 2.05876e-17
4292.37838 2.08927e-17
4294.33578 2.11818e-17
4296.28305 2.09283e-17
4298.23031 2.08381e-17
4300.17757 2.09907e-17
4302.13498 2.08887e-17
4304.08224 2.07984e-17
4306.02951 2.10078e-17
4307.98691 2.10700e-17
4309.93418 2.08358e-17
4311.88144 2.10312e-17
4313.82871 2.10793e-17
4315.78611 2.08967e-17
4317.73338 2.09943e-17
4319.68064 2.12238e-17
4321.62790 2.13095e-17
4323.58531 2.12763e-17
4325.53257 2.15303e-17
4327.47984 2.15508e-17
4329.43724 2.11617e-17
4331.38451 2.10028e-17
4333.33177 2.16020e-17
4335.27904 2.19934e-17
4337.23644 2.16770e-17
4339.18371 2.16803e-17
4341.13097 2.18713e-17
4343.08838 2.18984e-17
4345.03564 2.15389e-17
4346.98290 2.12843e-17
4348.93017 2.12797e-17
4350.88757 2.14234e-17
4352.83484 2.15580e-17
4354.78210 2.11283e-17
4356.72937 2.07550e-17
4358.68677 2.08651e-17
4360.63404 2.08157e-17
4362.58130 2.04292e-17
4364.53871 2.01856e-17
4366.48597 2.00101e-17
4368.43323 1.99025e-17
4370.38050 1.99351e-17
4372.33790 1.96624e-17
4374.28517 1.95857e-17
4376.23243 1.97279e-17
4378.17970 1.94293e-17
4380.13710 1.91276e-17
4382.08437 1.91910e-17
4384.03163 1.90425e-17
4385.98904 1.88867e-17
4387.93630 1.86658e-17
4389.88356 1.82737e-17
4391.83083 1.80995e-17
4393.78823 1.79695e-17
4395.73550 1.78932e-17
4397.68276 1.77175e-17
4399.64017 1.79344e-17
4401.58743 1.82380e-17
4403.53470 1.82383e-17
4405.48196 1.79790e-17
4407.43937 1.78862e-17
4409.38663 1.77933e-17
4411.33389 1.77006e-17
4413.28116 1.76078e-17
4415.23856 1.75151e-17
4417.18583 1.74224e-17
4419.13309 1.73297e-17
4421.09050 1.72370e-17
4423.03776 1.71444e-17
4424.98503 1.70517e-17
4426.93229 1.69591e-17
4428.88970 1.68665e-17
4430.83696 1.67740e-17
4432.78422 1.66814e-17
4434.74163 1.65889e-17
4436.68889 1.64964e-17
4438.63616 1.64039e-17
4440.58342 1.63115e-17
4442.54083 1.62191e-17
4444.48809 1.61267e-17
4446.43536 1.61654e-17
4448.38262 1.59370e-17
4450.34003 1.57003e-17
4452.28729 1.60040e-17
4454.23455 1.63270e-17
4456.18182 1.63424e-17
4458.13922 1.64312e-17
4460.08649 1.64225e-17
4462.03375 1.65445e-17
4463.99116 1.68293e-17
4465.93842 1.69337e-17
4467.88569 1.69359e-17
4469.83295 1.71846e-17
4471.79036 1.75779e-17
4473.73762 1.75728e-17
4475.68488 1.76708e-17
4477.64229 1.79786e-17
4479.58955 1.79932e-17
4481.53682 1.81949e-17
4483.48408 1.85948e-17
4485.44149 1.86732e-17
4487.38875 1.86550e-17
4489.33602 1.86126e-17
4491.28328 1.89536e-17
4493.24069 1.91669e-17
4495.18795 1.90389e-17
4497.13521 1.91418e-17
4499.09262 1.93776e-17
4501.03988 1.94327e-17
4502.98715 1.93581e-17
4504.93441 1.95632e-17
4506.89182 1.98856e-17
4508.83908 2.01007e-17
4510.78635 2.01156e-17
4512.73361 2.00535e-17
4514.69102 2.03346e-17
4516.63828 2.05021e-17
4518.58554 2.06534e-17
4520.54295 2.08484e-17
4522.49021 2.08158e-17
4524.43748 2.10359e-17
4526.38474 2.12899e-17
4528.34215 2.13152e-17
4530.28941 2.12394e-17
4532.23668 2.13351e-17
4534.19408 2.16816e-17
4536.14135 2.20947e-17
4538.08861 2.22174e-17
4540.03587 2.20101e-17
4541.99328 2.23977e-17
4543.94054 2.25727e-17
4545.88781 2.27891e-17
4547.83507 2.29865e-17
4549.79248 2.32267e-17
4551.73974 2.38645e-17
4553.68701 2.39844e-17
4555.64441 2.40168e-17
4557.59168 2.43738e-17
4559.53894 2.47045e-17
4561.48620 2.48731e-17
4563.44361 2.49959e-17
4565.39087 2.56095e-17
4567.33814 2.56543e-17
4569.28540 2.59562e-17
4571.24281 2.62996e-17
4573.19007 2.61616e-17
4575.13734 2.60455e-17
4577.09474 2.65103e-17
4579.04201 2.67391e-17
4580.98927 2.65204e-17
4582.93653 2.67755e-17
4584.89394 2.66156e-17
4586.84120 2.64224e-17
4588.78847 2.67256e-17
4590.73573 2.66648e-17
4592.69314 2.69543e-17
4594.64040 2.70865e-17
4596.58767 2.67967e-17
4598.54507 2.69949e-17
4600.49234 2.73195e-17
4602.43960 2.75768e-17
4604.38686 2.73999e-17
4606.34427 2.71965e-17
4608.29153 2.72830e-17
4610.23880 2.76152e-17
4612.19620 2.77228e-17
4614.14347 2.72542e-17
4616.09073 2.74357e-17
4618.03800 2.79922e-17
4619.99540 2.81704e-17
4621.94267 2.81985e-17
4623.88993 2.85116e-17
4625.83719 2.84509e-17
4627.79460 2.82023e-17
4629.74186 2.82872e-17
4631.68913 2.83259e-17
4633.64653 2.85365e-17
4635.59380 2.86970e-17
4637.54106 2.81824e-17
4639.48833 2.82887e-17
4641.44573 2.81450e-17
4643.39300 2.84275e-17
4645.34026 2.83288e-17
4647.28752 2.79637e-17
4649.24493 2.77154e-17
4651.19219 2.76965e-17
4653.13946 2.76850e-17
4655.09686 2.75011e-17
4657.04413 2.75166e-17
4658.99139 2.72702e-17
4660.93866 2.72872e-17
4662.89606 2.74047e-17
4664.84333 2.69301e-17
4666.79059 2.67484e-17
4668.74800 2.63754e-17
4670.69526 2.62595e-17
4672.64252 2.60156e-17
4674.58979 2.62547e-17
4676.54719 2.62416e-17
4678.49446 2.57676e-17
4680.44172 2.58204e-17
4682.38899 2.56742e-17
4684.34639 2.54108e-17
4686.29366 2.51769e-17
4688.24092 2.48959e-17
4690.19833 2.48442e-17
4692.14559 2.45537e-17
4694.09285 2.45423e-17
4696.04012 2.42614e-17
4697.99752 2.43711e-17
4699.94479 2.43042e-17
4701.89205 2.41859e-17
4703.83932 2.41328e-17
4705.79672 2.42860e-17
4707.74399 2.43193e-17
4709.69125 2.39443e-17
4711.64866 2.38979e-17
4713.59592 2.39963e-17
4715.54318 2.39662e-17
4717.49045 2.38070e-17
4719.44785 2.40192e-17
4721.39512 2.38457e-17
4723.34238 2.40258e-17
4725.28965 2.39172e-17
4727.24705 2.34958e-17
4729.19432 2.34947e-17
4731.14158 2.36068e-17
4733.09899 2.34413e-17
4735.04625 2.33550e-17
4736.99351 2.33038e-17
4738.94078 2.35089e-17
4740.89818 2.33557e-17
4742.84545 2.29618e-17
4744.79271 2.29328e-17
4746.75012 2.26030e-17
4748.69738 2.24002e-17
4750.64465 2.24107e-17
4752.59191 2.20717e-17
4754.54932 2.19746e-17
4756.49658 2.13201e-17
4758.44384 2.08759e-17
4760.39111 2.07278e-17
4762.34851 2.04343e-17
4764.29578 2.00277e-17
4766.24304 1.97483e-17
4768.20045 1.92766e-17
4770.14771 1.87326e-17
4772.09498 1.84673e-17
4774.04224 1.83022e-17
4775.99965 1.82946e-17
4777.94691 1.80321e-17
4779.89417 1.76056e-17
4781.85158 1.71867e-17
4783.79884 1.69424e-17
4785.74611 1.68642e-17
4787.69337 1.65722e-17
4789.65078 1.61982e-17
4791.59804 1.58960e-17
4793.54531 1.62996e-17
4795.49257 1.63147e-17
4797.44998 1.58296e-17
4799.39724 1.59239e-17
4801.34450 1.59691e-17
4803.29177 1.58593e-17
4805.24917 1.57089e-17
4807.19644 1.55719e-17
4809.14370 1.56019e-17
4811.10111 1.60173e-17
4813.04837 1.65365e-17
4814.99564 1.67770e-17
4816.94290 1.70398e-17
4818.90031 1.73152e-17
4820.84757 1.66538e-17
4822.79483 1.59430e-17
4824.74210 1.59407e-17
4826.69950 1.59737e-17
4828.64677 1.59461e-17
4830.59403 1.60227e-17
4832.55144 1.60280e-17
4834.49870 1.58646e-17
4836.44597 1.59494e-17
4838.39323 1.60272e-17
4840.35064 1.58662e-17
4842.29790 1.59200e-17
4844.24516 1.59159e-17
4846.20257 1.56973e-17
4848.14983 1.55376e-17
4850.09710 1.52617e-17
4852.04436 1.53406e-17
4854.00177 1.52744e-17
4855.94903 1.48450e-17
4857.89630 1.49129e-17
4859.84356 1.50278e-17
4861.80097 1.47598e-17
4863.74823 1.48077e-17
4865.69549 1.47547e-17
4867.65290 1.46779e-17
4869.60016 1.46709e-17
4871.54743 1.43857e-17
4873.49469 1.41851e-17
4875.45210 1.41195e-17
4877.39936 1.40644e-17
4879.34663 1.38377e-17
4881.30403 1.36083e-17
4883.25130 1.36352e-17
4885.19856 1.36465e-17
4887.14582 1.37404e-17
4889.10323 1.38657e-17
4891.05049 1.38970e-17
4892.99776 1.40896e-17
4894.94502 1.41475e-17
4896.90243 1.40332e-17
4898.84969 1.41755e-17
4900.79696 1.42749e-17
4902.75436 1.45625e-17
4904.70163 1.47750e-17
4906.64889 1.47392e-17
4908.59615 1.49010e-17
4910.55356 1.49767e-17
4912.50082 1.50934e-17
4914.44809 1.52101e-17
4916.39535 1.53267e-17
4918.35276 1.54433e-17
4920.30002 1.55599e-17
4922.24729 1.56764e-17
4924.20469 1.57929e-17
4926.15196 1.59094e-17
4928.09922 1.60257e-17
4930.04648 1.61421e-17
4932.00389 1.62585e-17
4933.95115 1.63748e-17
4935.89842 1.64911e-17
4937.84568 1.66073e-17
4939.80309 1.67236e-17
4941.75035 1.68397e-17
4943.69762 1.69559e-17
4945.65502 1.70720e-17
4947.60229 1.71881e-17
4949.54955 1.73041e-17
4951.49681 1.74654e-17
4953.45422 1.79418e-17
4955.40148 1.79448e-17
4957.34875 1.78426e-17
4959.30615 1.80024e-17
4961.25342 1.81060e-17
4963.20068 1.81018e-17
4965.14795 1.81514e-17
4967.10535 1.83530e-17
4969.05262 1.82722e-17
4970.99988 1.82598e-17
4972.94714 1.80695e-17
4974.90455 1.81086e-17
4976.85181 1.81390e-17
4978.79908 1.78172e-17
4980.75648 1.76239e-17
4982.70375 1.76726e-17
4984.65101 1.75406e-17
4986.59828 1.73104e-17
4988.55568 1.73799e-17
4990.50295 1.73142e-17
4992.45021 1.72032e-17
4994.40762 1.71980e-17
4996.35488 1.70475e-17
4998.30214 1.69285e-17
5000.24941 1.67129e-17
5002.20681 1.65313e-17
5004.15408 1.65073e-17
5006.10134 1.64362e-17
5008.04861 1.61556e-17
5010.00601 1.59587e-17
5011.95328 1.58732e-17
5013.90054 1.57877e-17
5015.85795 1.57023e-17
5017.80521 1.56169e-17
5019.75247 1.55315e-17
5021.69974 1.54462e-17
5023.65714 1.53609e-17
5025.60441 1.52755e-17
5027.55167 1.51903e-17
5029.49894 1.51050e-17
5031.45634 1.50198e-17
5033.40361 1.49346e-17
5035.35087 1.48494e-17
5037.30828 1.47643e-17
5039.25554 1.46791e-17
5041.20280 1.45940e-17
5043.15007 1.45089e-17
5045.10747 1.44239e-17
5047.05474 1.43389e-17
5049.00200 1.42539e-17
5050.94927 1.44034e-17
5052.90667 1.46035e-17
5054.85394 1.47026e-17
5056.80120 1.48484e-17
5058.75861 1.47327e-17
5060.70587 1.47833e-17
5062.65313 1.48339e-17
5064.60040 1.48845e-17
5066.55780 1.49350e-17
5068.50507 1.49856e-17
5070.45233 1.50361e-17
5072.39960 1.50866e-17
5074.35700 1.51371e-17
5076.30427 1.51876e-17
5078.25153 1.52381e-17
5080.20894 1.52886e-17
5082.15620 1.53390e-17
5084.10346 1.53895e-17
5086.05073 1.54399e-17
5088.00813 1.54903e-17
5089.95540 1.55407e-17
5091.90266 1.55911e-17
5093.86007 1.56415e-17
5095.80733 1.56918e-17
5097.75460 1.57422e-17
5099.70186 1.58578e-17
5101.65927 1.60761e-17
5103.60653 1.60107e-17
5105.55379 1.60073e-17
5107.50106 1.59860e-17
5109.45846 1.60068e-17
5111.40573 1.60384e-17
5113.35299 1.61944e-17
5115.31040 1.62483e-17
5117.25766 1.63146e-17
5119.20493 1.64911e-17
5121.15219 1.62654e-17
5123.10960 1.61295e-17
5125.05686 1.62777e-17
5127.00412 1.62244e-17
5128.95139 1.60825e-17
5130.90879 1.59313e-17
5132.85606 1.58831e-17
5134.80332 1.59674e-17
5136.76073 1.61423e-17
5138.70799 1.61724e-17
5140.65526 1.62225e-17
5142.60252 1.62373e-17
5144.55993 1.60293e-17
5146.50719 1.61359e-17
5148.45445 1.63377e-17
5150.40172 1.63124e-17
5152.35912 1.61734e-17
5154.30639 1.61753e-17
5156.25365 1.63919e-17
5158.21106 1.65094e-17
5160.15832 1.64497e-17
5162.10559 1.63816e-17
5164.05285 1.64512e-17
5166.01026 1.66096e-17
5167.95752 1.68103e-17
5169.90478 1.68993e-17
5171.86219 1.68726e-17
5173.80945 1.68704e-17
5175.75672 1.70651e-17
5177.70398 1.74038e-17
5179.66139 1.75005e-17
5181.60865 1.74216e-17
5183.55592 1.73522e-17
5185.50318 1.73555e-17
5187.46059 1.73746e-17
5189.40785 1.74180e-17
5191.35511 1.75727e-17
5193.31252 1.76341e-17
5195.25978 1.76186e-17
5197.20705 1.77589e-17
5199.15431 1.79546e-17
5201.11172 1.80743e-17
5203.05898 1.81532e-17
5205.00625 1.83947e-17
5206.96365 1.86249e-17
5208.91092 1.86842e-17
5210.85818 1.86527e-17
5212.80544 1.87744e-17
5214.76285 1.89595e-17
5216.71011 1.88890e-17
5218.65738 1.88498e-17
5220.60464 1.91070e-17
5222.56205 1.93742e-17
5224.50931 1.93909e-17
5226.45658 1.95274e-17
5228.41398 1.97883e-17
5230.36125 1.97903e-17
5232.30851 1.97596e-17
5234.25577 1.97809e-17
5236.21318 1.96766e-17
5238.16044 1.98864e-17
5240.10771 2.00721e-17
5242.05497 1.98997e-17
5244.01238 2.00537e-17
5245.95964 2.02462e-17
5247.90691 1.98611e-17
5249.86431 1.96714e-17
5251.81158 1.97692e-17
5253.75884 1.98319e-17
5255.70610 1.99514e-17
5257.66351 2.01499e-17
5259.61077 2.03811e-17
5261.55804 2.04925e-17
5263.50530 2.02607e-17
5265.46271 2.01546e-17
5267.40997 2.06005e-17
5269.35724 2.08478e-17
5271.31464 2.07044e-17
5273.26191 2.06807e-17
5275.20917 2.05801e-17
5277.15643 2.04852e-17
5279.11384 2.07344e-17
5281.06110 2.10369e-17
5283.00837 2.12272e-17
5284.95563 2.12887e-17
5286.91304 2.12611e-17
5288.86030 2.12593e-17
5290.80757 2.13370e-17
5292.76497 2.12934e-17
5294.71224 2.11949e-17
5296.65950 2.12202e-17
5298.60676 2.12848e-17
5300.56417 2.10964e-17
5302.51143 2.09422e-17
5304.45870 2.10000e-17
5306.41610 2.11078e-17
5308.36337 2.12696e-17
5310.31063 2.13318e-17
5312.25790 2.14343e-17
5314.21530 2.13959e-17
5316.16257 2.13216e-17
5318.10983 2.13234e-17
5320.05709 2.13348e-17
5322.01450 2.11756e-17
5323.96176 2.11862e-17
5325.90903 2.13959e-17
5327.86643 2.12130e-17
5329.81370 2.10085e-17
5331.76096 2.10799e-17
5333.70823 2.11736e-17
5335.66563 2.11491e-17
5337.61290 2.12235e-17
5339.56016 2.11301e-17
5341.51757 2.09836e-17
5343.46483 2.14334e-17
5345.41209 2.14767e-17
5347.35936 2.09573e-17
5349.31676 2.06821e-17
5351.26403 2.06136e-17
5353.21129 2.09000e-17
5355.15856 2.09908e-17
5357.11596 2.06933e-17
5359.06323 2.05668e-17
5361.01049 2.08207e-17
5362.96790 2.08663e-17
5364.91516 2.06732e-17
5366.86242 2.05042e-17
5368.80969 2.04111e-17
5370.76709 2.03834e-17
5372.71436 2.04103e-17
5374.66162 2.06501e-17
5376.60889 2.07567e-17
5378.56629 2.05869e-17
5380.51356 2.04952e-17
5382.46082 2.03354e-17
5384.40808 2.02645e-17
5386.36549 2.06935e-17
5388.31275 2.09899e-17
5390.26002 2.09169e-17
5392.21742 2.04761e-17
5394.16469 2.04089e-17
5396.11195 2.08802e-17
5398.05922 2.07205e-17
5400.01662 2.04890e-17
5401.96389 2.03196e-17
5403.91115 2.00533e-17
5405.86856 1.99626e-17
5407.81582 2.01668e-17
5409.76308 2.04483e-17
5411.71035 2.03301e-17
5413.66775 2.02135e-17
5415.61502 2.02977e-17
5417.56228 2.02178e-17
5419.50955 1.99897e-17
5421.46695 1.97270e-17
5423.41422 1.98325e-17
5425.36148 2.02559e-17
5427.31889 2.02633e-17
5429.26615 1.99799e-17
5431.21341 1.99744e-17
5433.16068 2.00901e-17
5435.11808 2.00822e-17
5437.06535 2.01549e-17
5439.01261 2.00084e-17
5440.97002 1.98988e-17
5442.91728 1.97128e-17
5444.86455 1.96039e-17
5446.81181 1.99323e-17
5448.76922 1.99616e-17
5450.71648 1.97747e-17
5452.66374 1.96740e-17
5454.61101 1.94466e-17
5456.56841 1.93114e-17
5458.51568 1.93210e-17
5460.46294 1.92577e-17
5462.42035 1.91555e-17
5464.36761 1.90210e-17
5466.31488 1.88550e-17
5468.26214 1.89581e-17
5470.21955 1.91351e-17
5472.16681 1.91324e-17
5474.11407 1.89316e-17
5476.06134 1.86818e-17
5478.01874 1.84497e-17
5479.96601 1.85018e-17
5481.91327 1.84808e-17
5483.87068 1.82268e-17
5485.81794 1.82314e-17
5487.76521 1.82357e-17
5489.71247 1.81312e-17
5491.66988 1.80070e-17
5493.61714 1.79641e-17
5495.56440 1.80769e-17
5497.51167 1.77761e-17
5499.46907 1.76339e-17
5501.41634 1.75519e-17
5503.36360 1.73276e-17
5505.32101 1.71750e-17
5507.26827 1.72396e-17
5509.21554 1.74114e-17
5511.16280 1.73518e-17
5513.12021 1.73165e-17
5515.06747 1.75090e-17
5517.01473 1.72559e-17
5518.97214 1.69901e-17
5520.91940 1.70127e-17
5522.86667 1.71113e-17
5524.81393 1.71852e-17
5526.77134 1.71532e-17
5528.71860 1.71014e-17
5530.66587 1.70226e-17
5532.61313 1.71925e-17
5534.57054 1.70380e-17
5536.51780 1.67131e-17
5538.46506 1.65643e-17
5540.42247 1.66184e-17
5542.36973 1.65539e-17
5544.31700 1.65722e-17
5546.26426 1.65673e-17
5548.22167 1.63436e-17
5550.16893 1.63084e-17
5552.11620 1.63392e-17
5554.07360 1.62706e-17
5556.02087 1.62191e-17
5557.96813 1.63209e-17
5559.91539 1.64247e-17
5561.87280 1.61624e-17
5563.82006 1.58417e-17
5565.76733 1.59984e-17
5567.71459 1.60534e-17
5569.67200 1.61198e-17
5571.61926 1.60100e-17
5573.56653 1.57384e-17
5575.52393 1.55033e-17
5577.47120 1.54510e-17
5579.41846 1.57462e-17
5581.36572 1.55800e-17
5583.32313 1.54043e-17
5585.27039 1.53833e-17
5587.21766 1.51320e-17
5589.16492 1.50015e-17
5591.12233 1.51003e-17
5593.06959 1.50648e-17
5595.01686 1.47320e-17
5596.96412 1.45318e-17
5598.92153 1.43982e-17
5600.86879 1.43116e-17
5602.81605 1.42520e-17
5604.77346 1.41719e-17
5606.72072 1.42141e-17
5608.66799 1.42909e-17
5610.61525 1.39009e-17
5612.57266 1.33950e-17
5614.51992 1.33719e-17
5616.46719 1.33843e-17
5618.42459 1.31484e-17
5620.37186 1.32283e-17
5622.31912 1.31714e-17
5624.26638 1.27690e-17
5626.22379 1.28234e-17
5628.17105 1.29491e-17
5630.11832 1.25998e-17
5632.06558 1.23705e-17
5634.02299 1.22524e-17
5635.97025 1.20515e-17
5637.91752 1.19526e-17
5639.87492 1.19913e-17
5641.82219 1.19271e-17
5643.76945 1.16943e-17
5645.71671 1.15093e-17
5647.67412 1.13520e-17
5649.62138 1.13313e-17
5651.56865 1.13495e-17
5653.52605 1.10626e-17
5655.47332 1.09481e-17
5657.42058 1.08024e-17
5659.36785 1.07378e-17
5661.32525 1.05283e-17
5663.27252 1.05469e-17
5665.21978 1.05466e-17
5667.16704 1.05485e-17
5669.12445 1.05954e-17
5671.07171 1.05185e-17
5673.01898 1.04782e-17
5674.97638 1.07719e-17
5676.92365 1.08477e-17
5678.87091 1.09284e-17
5680.81818 1.08963e-17
5682.77558 1.08844e-17
5684.72285 1.08780e-17
5686.67011 1.07676e-17
5688.61737 1.08153e-17
5690.57478 1.07411e-17
5692.52204 1.07498e-17
5694.46931 1.09200e-17
5696.42671 1.10640e-17
5698.37398 1.13723e-17
5700.32124 1.11178e-17
5702.26851 1.09915e-17
5704.22591 1.11507e-17
5706.17318 1.11947e-17
5708.12044 1.12260e-17
5710.06770 1.13452e-17
5712.02511 1.16695e-17
5713.97237 1.18281e-17
5715.91964 1.18892e-17
5717.87704 1.17898e-17
5719.82431 1.17778e-17
5721.77157 1.17319e-17
5723.71884 1.16778e-17
5725.67624 1.16833e-17
5727.62351 1.17761e-17
5729.57077 1.21643e-17
5731.52818 1.23632e-17
5733.47544 1.23707e-17
5735.42270 1.20305e-17
5737.36997 1.21911e-17
5739.32737 1.25005e-17
5741.27464 1.24336e-17
5743.22190 1.24604e-17
5745.16917 1.25117e-17
5747.12657 1.25523e-17
5749.07384 1.26707e-17
5751.02110 1.28355e-17
5752.97851 1.28139e-17
5754.92577 1.27969e-17
5756.87303 1.29549e-17
5758.82030 1.29834e-17
5760.77770 1.29799e-17
5762.72497 1.32150e-17
5764.67223 1.29742e-17
5766.62964 1.28845e-17
5768.57690 1.30902e-17
5770.52417 1.31630e-17
5772.47143 1.32435e-17
5774.42884 1.32694e-17
5776.37610 1.34145e-17
5778.32336 1.37397e-17
5780.27063 1.36155e-17
5782.22803 1.34872e-17
5784.17530 1.37510e-17
5786.12256 1.38648e-17
5788.07997 1.38386e-17
5790.02723 1.38857e-17
5791.97450 1.38611e-17
5793.92176 1.37310e-17
5795.87917 1.37947e-17
5797.82643 1.38983e-17
5799.77369 1.39398e-17
5801.72096 1.38757e-17
5803.67836 1.37662e-17
5805.62563 1.37631e-17
5807.57289 1.36842e-17
5809.53030 1.36169e-17
5811.47756 1.37126e-17
5813.42483 1.39112e-17
5815.37209 1.39250e-17
5817.32950 1.40034e-17
5819.27676 1.41943e-17
5821.22402 1.41990e-17
5823.17129 1.42505e-17
5825.12869 1.43449e-17
5827.07596 1.42276e-17
5829.02322 1.42221e-17
5830.98063 1.43139e-17
5832.92789 1.44027e-17
5834.87516 1.45338e-17
5836.82242 1.44286e-17
5838.77983 1.43423e-17
5840.72709 1.45943e-17
5842.67435 1.49412e-17
5844.62162 1.50308e-17
5846.57902 1.52174e-17
5848.52629 1.55178e-17
5850.47355 1.57169e-17
5852.43096 1.58653e-17
5854.37822 1.60671e-17
5856.32549 1.62978e-17
5858.27275 1.63002e-17
5860.23016 1.62743e-17
5862.17742 1.66757e-17
5864.12468 1.68766e-17
5866.08209 1.70159e-17
5868.02935 1.73417e-17
5869.97662 1.73147e-17
5871.92388 1.72768e-17
5873.88129 1.75199e-17
5875.82855 1.75291e-17
5877.77582 1.72914e-17
5879.72308 1.70741e-17
5881.68049 1.69544e-17
5883.62775 1.70037e-17
5885.57501 1.68833e-17
5887.53242 1.63445e-17
5889.47968 1.61027e-17
5891.42695 1.62167e-17
5893.37421 1.58711e-17
5895.33162 1.59002e-17
5897.27888 1.63975e-17
5899.22615 1.67738e-17
5901.17341 1.69267e-17
5903.13082 1.69439e-17
5905.07808 1.72401e-17
5907.02534 1.72276e-17
5908.98275 1.71901e-17
5910.93001 1.72928e-17
5912.87728 1.71916e-17
5914.82454 1.70632e-17
5916.78195 1.69186e-17
5918.72921 1.67876e-17
5920.67648 1.68629e-17
5922.63388 1.70325e-17
5924.58115 1.69747e-17
5926.52841 1.68703e-17
5928.47567 1.69109e-17
5930.43308 1.69997e-17
5932.38034 1.69889e-17
5934.32761 1.68213e-17
5936.27487 1.67760e-17
5938.23228 1.67631e-17
5940.17954 1.65025e-17
5942.12681 1.63564e-17
5944.08421 1.60814e-17
5946.03148 1.59022e-17
5947.97874 1.59455e-17
5949.92600 1.60188e-17
5951.88341 1.60373e-17
5953.83067 1.60813e-17
5955.77794 1.61746e-17
5957.72520 1.60927e-17
5959.68261 1.59619e-17
5961.62987 1.59295e-17
5963.57714 1.57910e-17
5965.53454 1.58890e-17
5967.48181 1.59022e-17
5969.42907 1.57928e-17
5971.37633 1.57034e-17
5973.33374 1.56401e-17
5975.28100 1.56216e-17
5977.22827 1.54370e-17
5979.17553 1.56376e-17
5981.13294 1.58140e-17
5983.08020 1.56979e-17
5985.02747 1.58130e-17
5986.98487 1.59289e-17
5988.93214 1.57895e-17
5990.87940 1.56167e-17
5992.82666 1.57832e-17
5994.78407 1.59056e-17
5996.73133 1.57983e-17
5998.67860 1.57512e-17
6000.63600 1.57143e-17
6002.58327 1.58583e-17
6004.53053 1.59017e-17
6006.47780 1.55956e-17
6008.43520 1.56090e-17
6010.38247 1.58355e-17
6012.32973 1.58346e-17
6014.27699 1.58310e-17
6016.23440 1.57293e-17
6018.18166 1.56590e-17
6020.12893 1.57165e-17
6022.08633 1.56727e-17
6024.03360 1.54648e-17
6025.98086 1.52585e-17
6027.92813 1.50377e-17
6029.88553 1.48830e-17
6031.83280 1.47475e-17
6033.78006 1.48551e-17
6035.72732 1.47984e-17
6037.68473 1.47140e-17
6039.63199 1.47178e-17
6041.57926 1.46515e-17
6043.53666 1.46570e-17
6045.48393 1.45892e-17
6047.43119 1.43363e-17
6049.37846 1.40849e-17
6051.33586 1.41046e-17
6053.28313 1.40273e-17
6055.23039 1.39656e-17
6057.18780 1.41719e-17
6059.13506 1.42071e-17
6061.08232 1.41680e-17
6063.02959 1.42271e-17
6064.98699 1.40983e-17
6066.93426 1.39998e-17
6068.88152 1.40005e-17
6070.82879 1.39796e-17
6072.78619 1.41242e-17
6074.73346 1.43836e-17
6076.68072 1.43548e-17
6078.63813 1.41173e-17
6080.58539 1.39785e-17
6082.53265 1.38293e-17
6084.47992 1.38961e-17
6086.43732 1.41112e-17
6088.38459 1.41413e-17
6090.33185 1.38503e-17
6092.27912 1.39039e-17
6094.23652 1.40561e-17
6096.18379 1.40256e-17
6098.13105 1.39593e-17
6100.08846 1.38964e-17
6102.03572 1.38472e-17
6103.98298 1.38913e-17
6105.93025 1.38120e-17
6107.88765 1.36796e-17
6109.83492 1.37263e-17
6111.78218 1.39336e-17
6113.73959 1.39829e-17
6115.68685 1.41382e-17
6117.63412 1.40843e-17
6119.58138 1.36997e-17
6121.53879 1.37530e-17
6123.48605 1.37689e-17
6125.43331 1.36410e-17
6127.38058 1.35913e-17
6129.33798 1.34762e-17
6131.28525 1.34387e-17
6133.23251 1.34793e-17
6135.18992 1.34370e-17
6137.13718 1.32117e-17
6139.08445 1.30865e-17
6141.03171 1.32433e-17
6142.98912 1.32381e-17
6144.93638 1.29390e-17
6146.88364 1.29507e-17
6148.83091 1.27873e-17
6150.78831 1.23344e-17
6152.73558 1.24501e-17
6154.68284 1.27277e-17
6156.64025 1.26010e-17
6158.58751 1.24062e-17
6160.53478 1.23429e-17
6162.48204 1.22614e-17
6164.43945 1.22634e-17
6166.38671 1.27364e-17
6168.33397 1.34452e-17
6170.29138 1.29611e-17
6172.23864 1.18805e-17
6174.18591 1.13779e-17
6176.13317 1.14053e-17
6178.09058 1.12437e-17
6180.03784 1.11846e-17
6181.98511 1.12144e-17
6183.93237 1.11246e-17
6185.88978 1.10653e-17
6187.83704 1.11785e-17
6189.78430 1.12524e-17
6191.73157 1.09894e-17
6193.68897 1.07172e-17
6195.63624 1.10053e-17
6197.58350 1.10607e-17
6199.54091 1.08885e-17
6201.48817 1.08960e-17
6203.43544 1.08135e-17
6205.38270 1.06696e-17
6207.34011 1.08134e-17
6209.28737 1.08369e-17
6211.23463 1.06564e-17
6213.19204 1.04471e-17
6215.13930 1.02795e-17
6217.08657 1.02250e-17
6219.03383 1.02256e-17
6220.99124 1.02720e-17
6222.93850 1.03250e-17
6224.88577 1.03060e-17
6226.83303 1.01506e-17
6228.79044 1.00855e-17
6230.73770 1.00255e-17
6232.68496 1.01507e-17
6234.64237 1.02144e-17
6236.58963 9.91335e-18
6238.53690 9.71294e-18
6240.48416 9.69960e-18
6242.44157 9.89442e-18
6244.38883 9.93363e-18
6246.33610 9.79948e-18
6248.28336 9.76197e-18
6250.24077 9.77612e-18
6252.18803 9.76541e-18
6254.13529 9.79871e-18
6256.09270 9.66044e-18
6258.03996 9.72205e-18
6259.98723 9.92470e-18
6261.93449 9.86319e-18
6263.89190 9.69470e-18
6265.83916 9.86503e-18
6267.78643 1.00822e-17
6269.74383 9.82474e-18
6271.69110 9.60219e-18
6273.63836 9.81438e-18
6275.58562 9.83287e-18
6277.54303 9.86299e-18
6279.49029 9.94846e-18
6281.43756 9.95082e-18
6283.38482 9.95573e-18
6285.34223 1.00746e-17
6287.28949 9.97564e-18
6289.23676 9.75988e-18
6291.19416 9.81824e-18
6293.14143 9.78631e-18
6295.08869 9.82732e-18
6297.03595 9.91329e-18
6298.99336 9.91315e-18
6300.94062 9.93346e-18
6302.88789 9.90466e-18
6304.83515 9.90264e-18
6306.79256 9.98037e-18
6308.73982 1.00194e-17
6310.68709 1.01299e-17
6312.64449 1.02489e-17
6314.59176 1.03626e-17
6316.53902 1.03697e-17
6318.48628 1.04672e-17
6320.44369 1.03655e-17
6322.39095 1.01444e-17
6324.33822 1.00396e-17
6326.29562 1.01898e-17
6328.24289 1.04185e-17
6330.19015 1.02816e-17
6332.13742 1.02295e-17
6334.09482 1.05249e-17
6336.04209 1.07515e-17
6337.98935 1.07975e-17
6339.93661 1.07431e-17
6341.89402 1.07392e-17
6343.84128 1.06650e-17
6345.78855 1.05148e-17
6347.74595 1.04842e-17
6349.69322 1.04467e-17
6351.64048 1.03065e-17
6353.58775 1.04743e-17
6355.54515 1.06588e-17
6357.49242 1.09878e-17
6359.43968 1.09745e-17
6361.38694 1.06221e-17
6363.34435 1.07243e-17
6365.29161 1.09232e-17
6367.23888 1.07715e-17
6369.19628 1.06070e-17
6371.14355 1.05614e-17
6373.09081 1.06661e-17
6375.03808 1.05963e-17
6376.99548 1.06808e-17
6378.94275 1.06080e-17
6380.89001 1.02806e-17
6382.83727 1.04861e-17
6384.79468 1.07417e-17
6386.74194 1.06422e-17
6388.68921 1.07254e-17
6390.64661 1.07789e-17
6392.59388 1.08072e-17
6394.54114 1.07550e-17
6396.48841 1.06622e-17
6398.44581 1.05224e-17
6400.39308 1.03967e-17
6402.34034 1.04531e-17
6404.28760 1.05359e-17
6406.24501 1.04522e-17
6408.19227 1.03752e-17
6410.13954 1.03741e-17
6412.09694 1.03321e-17
6414.04421 1.03846e-17
6415.99147 1.04761e-17
6417.93874 1.06699e-17
6419.89614 1.05719e-17
6421.84341 1.02969e-17
6423.79067 1.02874e-17
6425.74808 1.03306e-17
6427.69534 1.02038e-17
6429.64260 1.01459e-17
6431.58987 1.00928e-17
6433.54727 9.92134e-18
6435.49454 9.89752e-18
6437.44180 1.00267e-17
6439.38907 1.01425e-17
6441.34647 1.01870e-17
6443.29374 1.00811e-17
6445.24100 1.01919e-17
6447.19841 1.00612e-17
6449.14567 9.96533e-18
6451.09293 1.00730e-17
6453.04020 1.00119e-17
6454.99760 9.90743e-18
6456.94487 9.95988e-18
6458.89213 9.90728e-18
6460.83940 9.95911e-18
6462.79680 9.78952e-18
6464.74407 9.80189e-18
6466.69133 9.90330e-18
6468.64874 9.87641e-18
6470.59600 9.79663e-18
6472.54326 1.00867e-17
6474.49053 1.01581e-17
6476.44793 9.89005e-18
6478.39520 9.99988e-18
6480.34246 1.01358e-17
6482.29987 1.00798e-17
6484.24713 1.01675e-17
6486.19440 1.01001e-17
6488.14166 1.00699e-17
6490.09907 1.00712e-17
6492.04633 1.00824e-17
6493.99359 1.01471e-17
6495.94086 1.02697e-17
6497.89826 1.03631e-17
6499.84553 1.05640e-17
6501.79279 1.07986e-17
6503.75020 1.06427e-17
6505.69746 1.04325e-17
6507.64473 1.05331e-17
6509.59199 1.07672e-17
6511.54940 1.06233e-17
6513.49666 1.04512e-17
6515.44392 1.05545e-17
6517.40133 1.04011e-17
6519.34859 1.04517e-17
6521.29586 1.05782e-17
6523.24312 1.05785e-17
6525.20053 1.05802e-17
6527.14779 1.04784e-17
6529.09506 1.04337e-17
6531.04232 1.04351e-17
6532.99973 1.03407e-17
6534.94699 1.02848e-17
6536.89425 1.05712e-17
6538.84152 1.07214e-17
6540.79892 1.07703e-17
6542.74619 1.07770e-17
6544.69345 1.05965e-17
6546.65086 1.04242e-17
6548.59812 1.04246e-17
6550.54539 1.04851e-17
6552.49265 1.05879e-17
6554.45006 1.08352e-17
6556.39732 1.09383e-17
6558.34458 1.08421e-17
6560.30199 1.08784e-17
6562.24925 1.09324e-17
6564.19652 1.10351e-17
6566.14378 1.11155e-17
6568.10119 1.09833e-17
6570.04845 1.12899e-17
6571.99572 1.13940e-17
6573.94298 1.09814e-17
6575.90039 1.10373e-17
6577.84765 1.12551e-17
6579.79491 1.11745e-17
6581.75232 1.10615e-17
6583.69958 1.11283e-17
6585.64685 1.12058e-17
6587.59411 1.11619e-17
6589.55152 1.11532e-17
6591.49878 1.08659e-17
6593.44605 1.06038e-17
6595.39331 1.08345e-17
6597.35072 1.11612e-17
6599.29798 1.10462e-17
6601.24524 1.08840e-17
6603.20265 1.09229e-17
6605.14991 1.09698e-17
6607.09718 1.11188e-17
6609.04444 1.12006e-17
6611.00185 1.11455e-17
6612.94911 1.10323e-17
6614.89638 1.08172e-17
6616.85378 1.07439e-17
6618.80105 1.09220e-17
6620.74831 1.09303e-17
6622.69557 1.08566e-17
6624.65298 1.07577e-17
6626.60024 1.07723e-17
6628.54751 1.07869e-17
6630.49477 1.08016e-17
6632.45218 1.08162e-17
6634.39944 1.08308e-17
6636.34671 1.08453e-17
6638.30411 1.08599e-17
6640.25138 1.08745e-17
6642.19864 1.08891e-17
6644.14590 1.09037e-17
6646.10331 1.09183e-17
6648.05057 1.09329e-17
6649.99784 1.09475e-17
6651.94510 1.09621e-17
6653.90251 1.09766e-17
6655.84977 1.09912e-17
6657.79704 1.10058e-17
6659.75444 1.10204e-17
6661.70171 1.10349e-17
6663.64897 1.10495e-17
6665.59623 1.10641e-17
6667.55364 1.10786e-17
6669.50090 1.10932e-17
6671.44817 1.11078e-17
6673.39543 1.11223e-17
6675.35284 1.11369e-17
6677.30010 1.11515e-17
6679.24737 1.11660e-17
6681.20477 1.11806e-17
6683.15204 1.11951e-17
6685.09930 1.12097e-17
6687.04656 1.12242e-17
6689.00397 1.13184e-17
6690.95123 1.12329e-17
6692.89850 1.10173e-17
6694.85590 1.07428e-17
6696.80317 1.07902e-17
6698.75043 1.12589e-17
6700.69770 1.13380e-17
6702.65510 1.10616e-17
6704.60237 1.08477e-17
6706.54963 1.09019e-17
6708.49689 1.09464e-17
6710.45430 1.10650e-17
6712.40156 1.11838e-17
6714.34883 1.10593e-17
6716.30623 1.07929e-17
6718.25350 1.07845e-17
6720.20076 1.10916e-17
6722.14803 1.11274e-17
6724.10543 1.09015e-17
6726.05270 1.06800e-17
6727.99996 1.05995e-17
6729.94722 1.07882e-17
6731.90463 1.10736e-17
6733.85189 1.04626e-17
6735.79916 9.76541e-18
6737.75656 1.05738e-17
6739.70383 1.05991e-17
6741.65109 1.01773e-17
6743.59836 1.02302e-17
6745.55576 1.04310e-17
6747.50303 1.04909e-17
6749.45029 1.04164e-17
6751.40770 1.04359e-17
6753.35496 1.04158e-17
6755.30222 1.03966e-17
6757.24949 1.01897e-17
6759.20689 1.01037e-17
6761.15416 1.01483e-17
6763.10142 1.04005e-17
6765.04869 1.03609e-17
6767.00609 1.02881e-17
6768.95336 1.02989e-17
6770.90062 1.00730e-17
6772.85803 1.01848e-17
6774.80529 1.02341e-17
6776.75255 9.90622e-18
6778.69982 9.83095e-18
6780.65722 9.92835e-18
6782.60449 9.87141e-18
6784.55175 9.71878e-18
6786.49902 9.65062e-18
6788.45642 9.62490e-18
6790.40369 9.68310e-18
6792.35095 9.78213e-18
6794.30836 9.59805e-18
6796.25562 9.39891e-18
6798.20288 9.70086e-18
6800.15015 9.70748e-18
6802.10755 9.54437e-18
6804.05482 9.44439e-18
6806.00208 9.38533e-18
6807.94935 9.35309e-18
6809.90675 9.55250e-18
6811.85402 9.92803e-18
6813.80128 9.90183e-18
6815.75869 9.55621e-18
6817.70595 9.46689e-18
6819.65321 9.35186e-18
6821.60048 9.16321e-18
6823.55788 8.99736e-18
6825.50515 9.32043e-18
6827.45241 9.55641e-18
6829.40982 9.49557e-18
6831.35708 9.20605e-18
6833.30435 9.07415e-18
6835.25161 8.91062e-18
6837.20902 8.66006e-18
6839.15628 8.96644e-18
6841.10354 9.21936e-18
6843.05081 9.41003e-18
6845.00821 9.43933e-18
6846.95548 9.58230e-18
6848.90274 9.41037e-18
6850.86015 9.23917e-18
6852.80741 9.23598e-18
6854.75468 9.16092e-18
6856.70194 8.97724e-18
6858.65935 8.77963e-18
6860.60661 8.93628e-18
6862.55387 9.33703e-18
6864.51128 9.39018e-18
6866.45854 9.47930e-18
6868.40581 9.41178e-18
6870.35307 9.50331e-18
6872.31048 9.45828e-18
6874.25774 8.98446e-18
6876.20501 8.76910e-18
6878.15227 9.10608e-18
6880.10968 9.28953e-18
6882.05694 9.16252e-18
6884.00420 9.11940e-18
6885.96161 9.14755e-18
6887.90887 8.95849e-18
6889.85614 8.63578e-18
6891.80340 8.69356e-18
6893.76081 9.20220e-18
6895.70807 9.35587e-18
6897.65534 9.10363e-18
6899.60260 9.17134e-18
6901.56001 9.50595e-18
6903.50727 9.46636e-18
6905.45453 9.38254e-18
6907.41194 9.52834e-18
6909.35920 9.43442e-18
6911.30647 9.28213e-18
6913.25373 9.26623e-18
6915.21114 9.21942e-18
6917.15840 9.20770e-18
6919.10567 9.40784e-18
6921.05293 9.61913e-18
6923.01034 9.34247e-18
6924.95760 9.22600e-18
6926.90486 9.46173e-18
6928.86227 9.05925e-18
6930.80953 8.46162e-18
6932.75680 9.26343e-18
6934.70406 9.92100e-18
6936.66147 8.31113e-18
6938.60873 8.20495e-18
6940.55600 9.76551e-18
6942.50326 9.85123e-18
6944.46067 9.38648e-18
6946.40793 9.26563e-18
6948.35519 9.38219e-18
6950.31260 9.39600e-18
6952.25986 9.15141e-18
6954.20713 9.09304e-18
6956.15439 9.24668e-18
6958.11180 9.18594e-18
6960.05906 9.08204e-18
6962.00633 9.21339e-18
6963.96373 9.31382e-18
6965.91100 9.21591e-18
6967.85826 9.23385e-18
6969.80552 9.41876e-18
6971.76293 9.45878e-18
6973.71019 9.35693e-18
6975.65746 9.31328e-18
6977.60472 9.34456e-18
6979.56213 9.31962e-18
6981.50939 9.37421e-18
6983.45666 9.34656e-18
6985.41406 9.01435e-18
6987.36133 8.91318e-18
6989.30859 8.93499e-18
6991.25585 8.80319e-18
6993.21326 8.78709e-18
6995.16052 8.85573e-18
6997.10779 8.69937e-18
6999.05505 8.83174e-18
7001.01246 9.19417e-18
7002.95972 9.21621e-18
7004.90699 9.03729e-18
7006.86439 9.06057e-18
7008.81166 9.22245e-18
7010.75892 9.26034e-18
7012.70618 9.29557e-18
7014.66359 9.17753e-18
7016.61085 9.10214e-18
7018.55812 9.05188e-18
7020.50538 8.94748e-18
7022.46279 8.82408e-18
7024.41005 8.87803e-18
7026.35732 8.93050e-18
7028.31472 8.67895e-18
7030.26199 8.60902e-18
7032.20925 8.91943e-18
7034.15651 9.06611e-18
7036.11392 9.04421e-18
7038.06118 9.19955e-18
7040.00845 9.45796e-18
7041.96585 9.63196e-18
7043.91312 9.55920e-18
7045.86038 9.54576e-18
7047.80765 9.74273e-18
7049.76505 1.00266e-17
7051.71232 1.00964e-17
7053.65958 9.92481e-18
7055.60684 9.92221e-18
7057.56425 9.90252e-18
7059.51151 9.71837e-18
7061.45878 9.77898e-18
7063.41618 1.01038e-17
7065.36345 9.98856e-18
7067.31071 9.58778e-18
7069.25798 9.34143e-18
7071.21538 9.11928e-18
7073.16265 8.92623e-18
7075.10991 9.06470e-18
7077.06732 9.47560e-18
7079.01458 9.61735e-18
7080.96184 9.53800e-18
7082.90911 9.69987e-18
7084.86651 9.86639e-18
7086.81378 9.86879e-18
7088.76104 1.00486e-17
7090.70831 1.00369e-17
7092.66571 9.75178e-18
7094.61298 9.81197e-18
7096.56024 9.74142e-18
7098.51765 9.52315e-18
7100.46491 9.89273e-18
7102.41217 1.02684e-17
7104.35944 1.00191e-17
7106.31684 9.63788e-18
7108.26411 9.40072e-18
7110.21137 9.05764e-18
7112.15864 8.95660e-18
7114.11604 9.35977e-18
7116.06331 9.51995e-18
7118.01057 9.27466e-18
7119.96798 9.37182e-18
7121.91524 9.46457e-18
7123.86250 9.32179e-18
7125.80977 9.27223e-18
7127.76717 9.32807e-18
7129.71444 9.64438e-18
7131.66170 1.00009e-17
7133.60897 1.00175e-17
7135.56637 1.00109e-17
7137.51364 1.02799e-17
7139.46090 1.01511e-17
7141.41831 9.91682e-18
7143.36557 1.02497e-17
7145.31283 1.03117e-17
7147.26010 1.00486e-17
7149.21750 9.75362e-18
7151.16477 9.74441e-18
7153.11203 9.65240e-18
7155.05930 9.39318e-18
7157.01670 9.45197e-18
7158.96397 9.54849e-18
7160.91123 9.36147e-18
7162.86864 9.28129e-18
7164.81590 9.39832e-18
7166.76316 9.40334e-18
7168.71043 9.43350e-18
7170.66783 9.66105e-18
7172.61510 9.85289e-18
7174.56236 9.83454e-18
7176.51977 9.59742e-18
7178.46703 9.60226e-18
7180.41430 9.68502e-18
7182.36156 9.74166e-18
7184.31897 9.37199e-18
7186.26623 9.03153e-18
7188.21349 9.50782e-18
7190.16076 9.98394e-18
7192.11816 9.96665e-18
7194.06543 9.77131e-18
7196.01269 9.64824e-18
7197.97010 9.65045e-18
7199.91736 9.62483e-18
7201.86463 9.40956e-18
7203.81189 9.34647e-18
7205.76930 9.52328e-18
7207.71656 9.61193e-18
7209.66382 9.59125e-18
7211.61109 9.37917e-18
7213.56849 9.32986e-18
7215.51576 9.55510e-18
7217.46302 9.44926e-18
7219.42043 9.20182e-18
7221.36769 9.19513e-18
7223.31496 9.27468e-18
7225.26222 9.09021e-18
7227.21963 8.89280e-18
7229.16689 8.83359e-18
7231.11415 8.78612e-18
7233.06142 9.00326e-18
7235.01882 9.04803e-18
7236.96609 8.80150e-18
7238.91335 8.85756e-18
7240.87076 8.97911e-18
7242.81802 9.12380e-18
7244.76529 9.31546e-18
7246.71255 9.16001e-18
7248.66996 9.03112e-18
7250.61722 9.18173e-18
7252.56448 9.25221e-18
7254.52189 9.14506e-18
7256.46915 9.07314e-18
7258.41642 9.33025e-18
7260.36368 9.57534e-18
7262.32109 9.61148e-18
7264.26835 9.61077e-18
7266.21562 9.52669e-18
7268.16288 9.45137e-18
7270.12029 9.69821e-18
7272.06755 9.79194e-18
7274.01481 9.67752e-18
7275.97222 9.88569e-18
7277.91948 9.85727e-18
7279.86675 9.27362e-18
7281.81401 9.38908e-18
7283.77142 9.61750e-18
7285.71868 9.26548e-18
7287.66595 9.39368e-18
7289.62335 9.45650e-18
7291.57062 9.21002e-18
7293.51788 9.16805e-18
7295.46514 9.03875e-18
7297.42255 8.96283e-18
7299.36981 8.92998e-18
7301.31708 9.15159e-18
7303.26434 9.07658e-18
7305.22175 8.83176e-18
7307.16901 8.94536e-18
7309.11628 8.99796e-18
7311.07368 8.59436e-18
7313.02095 8.65797e-18
7314.96821 8.91823e-18
7316.91547 8.89608e-18
7318.87288 8.60034e-18
7320.82014 8.35973e-18
7322.76741 8.51699e-18
7324.71467 8.61132e-18
7326.67208 8.64570e-18
7328.61934 8.84098e-18
7330.56661 8.99491e-18
7332.52401 8.97311e-18
7334.47128 8.96479e-18
7336.41854 8.72757e-18
7338.36580 8.60733e-18
7340.32321 8.86788e-18
7342.27047 8.96231e-18
7344.21774 8.83236e-18
7346.16500 8.70947e-18
7348.12241 8.61794e-18
7350.06967 8.80618e-18
7352.01694 8.88653e-18
7353.97434 8.84136e-18
7355.92161 8.95650e-18
7357.86887 9.08692e-18
7359.81613 8.93984e-18
7361.77354 8.85399e-18
7363.72080 8.97625e-18
7365.66807 9.00287e-18
7367.61533 9.03702e-18
7369.57274 9.02114e-18
7371.52000 8.92101e-18
7373.46727 8.92686e-18
7375.42467 9.12644e-18
7377.37194 8.94466e-18
7379.31920 8.73919e-18
7381.26646 9.02102e-18
7383.22387 9.13115e-18
7385.17113 8.97989e-18
7387.11840 8.76838e-18
7389.07580 8.69277e-18
7391.02307 8.87824e-18
7392.97033 9.03754e-18
7394.91760 8.72714e-18
7396.87500 8.68164e-18
7398.82227 8.72761e-18
7400.76953 8.70455e-18
7402.71679 8.39156e-18
7404.67420 8.33915e-18
7406.62146 8.52141e-18
7408.56873 8.81896e-18
7410.52613 8.42112e-18
7412.47340 8.34392e-18
7414.42066 8.53796e-18
7416.36793 8.43057e-18
7418.32533 8.36934e-18
7420.27260 8.67707e-18
7422.21986 8.58121e-18
7424.17727 8.60966e-18
7426.12453 8.66746e-18
7428.07179 8.87125e-18
7430.01906 8.69923e-18
7431.97646 8.67564e-18
7433.92373 8.86549e-18
7435.87099 8.83428e-18
7437.81826 8.65318e-18
7439.77566 8.71893e-18
7441.72293 8.57737e-18
7443.67019 8.32487e-18
7445.62760 8.26051e-18
7447.57486 8.17522e-18
7449.52212 8.23705e-18
7451.46939 8.19693e-18
7453.42679 8.27437e-18
7455.37406 8.37209e-18
7457.32132 8.29539e-18
7459.26859 8.09410e-18
7461.22599 8.11472e-18
7463.17326 8.29988e-18
7465.12052 8.32701e-18
7467.07793 8.39001e-18
7469.02519 8.70557e-18
7470.97245 8.83099e-18
7472.91972 8.59271e-18
7474.87712 8.32380e-18
7476.82439 8.28710e-18
7478.77165 8.38633e-18
7480.71892 8.50408e-18
7482.67632 8.84552e-18
7484.62359 8.46271e-18
7486.57085 8.16237e-18
7488.52826 8.31628e-18
7490.47552 8.48844e-18
7492.42278 8.35706e-18
7494.37005 7.97544e-18
7496.32745 8.04461e-18
7498.27472 8.24611e-18
7500.22198 8.24887e-18
7502.17939 8.30687e-18
7504.12665 8.53486e-18
7506.07392 8.53350e-18
7508.02118 8.30977e-18
7509.97859 8.06588e-18
7511.92585 8.07806e-18
7513.87311 8.45973e-18
7515.82038 8.61792e-18
7517.77778 8.52911e-18
7519.72505 8.69792e-18
7521.67231 8.72172e-18
7523.62972 8.59854e-18
7525.57698 8.48234e-18
7527.52425 8.56369e-18
7529.47151 8.60341e-18
7531.42892 8.37941e-18
7533.37618 8.24032e-18
7535.32344 8.08965e-18
7537.27071 8.14508e-18
7539.22811 8.17183e-18
7541.17538 7.91051e-18
7543.12264 8.11081e-18
7545.08005 8.17666e-18
7547.02731 8.17972e-18
7548.97458 8.51466e-18
7550.92184 8.42331e-18
7552.87925 8.31353e-18
7554.82651 8.52247e-18
7556.77377 8.58220e-18
7558.72104 8.43562e-18
7560.67844 8.32207e-18
7562.62571 8.16557e-18
7564.57297 8.36648e-18
7566.53038 8.23289e-18
7568.47764 8.02095e-18
7570.42491 7.93961e-18
7572.37217 8.11580e-18
7574.32958 8.17179e-18
7576.27684 8.25159e-18
7578.22410 7.90849e-18
7580.17137 8.03447e-18
7582.12877 7.89666e-18
7584.07604 8.13820e-18
7586.02330 8.14368e-18
7587.98071 7.92015e-18
7589.92797 7.73672e-18
7591.87524 7.42787e-18
7593.82250 7.87737e-18
7595.77991 8.07100e-18
7597.72717 7.90874e-18
7599.67443 7.83545e-18
7601.63184 7.83555e-18
7603.57910 7.26244e-18
7605.52637 6.96381e-18
7607.47363 6.82774e-18
7609.43104 6.82195e-18
7611.37830 6.91193e-18
7613.32557 7.20669e-18
7615.27283 6.90214e-18
7617.23024 6.51304e-18
7619.17750 6.79613e-18
7621.12476 7.08189e-18
7623.08217 6.85336e-18
7625.02943 6.77790e-18
7626.97670 6.90742e-18
7628.92396 6.92259e-18
7630.88137 7.02100e-18
7632.82863 6.92317e-18
7634.77590 6.57040e-18
7636.73330 6.80939e-18
7638.68057 6.91846e-18
7640.62783 6.76387e-18
7642.57509 6.62242e-18
7644.53250 7.17671e-18
7646.47976 7.20695e-18
7648.42703 7.31948e-18
7650.37429 7.34374e-18
7652.33170 7.41038e-18
7654.27896 7.81841e-18
7656.22623 8.03979e-18
7658.18363 7.85692e-18
7660.13090 7.59698e-18
7662.07816 7.43725e-18
7664.02542 7.52528e-18
7665.98283 7.05656e-18
7667.93009 6.94402e-18
7669.87736 7.35366e-18
7671.82462 7.17922e-18
7673.78203 7.16039e-18
7675.72929 7.32247e-18
7677.67656 7.11143e-18
7679.62382 7.19779e-18
7681.58123 7.25114e-18
7683.52849 7.36850e-18
7685.47575 7.67573e-18
7687.43316 7.72748e-18
7689.38042 7.68232e-18
7691.32769 7.70216e-18
7693.27495 7.70842e-18
7695.23236 7.56179e-18
7697.17962 7.51233e-18
7699.12689 7.68399e-18
7701.08429 7.75586e-18
7703.03156 7.66946e-18
7704.97882 7.50778e-18
7706.92608 7.61198e-18
7708.88349 7.57172e-18
7710.83075 7.67451e-18
7712.77802 7.48385e-18
7714.72528 7.01477e-18
7716.68269 7.45726e-18
7718.62995 7.53527e-18
7720.57722 6.98216e-18
7722.53462 7.17531e-18
7724.48189 7.49187e-18
7726.42915 7.47812e-18
7728.37641 7.65517e-18
7730.33382 7.68846e-18
7732.28108 7.76318e-18
7734.22835 7.87007e-18
7736.18575 7.53051e-18
7738.13302 7.31648e-18
7740.08028 7.49878e-18
7742.02755 7.70297e-18
7743.98495 7.83842e-18
7745.93222 7.65726e-18
7747.87948 7.40476e-18
7749.82674 7.41371e-18
7751.78415 7.54510e-18
7753.73141 7.86173e-18
7755.67868 7.84827e-18
7757.63608 7.39631e-18
7759.58335 7.25943e-18
7761.53061 7.61044e-18
7763.47788 7.54898e-18
7765.43528 7.34023e-18
7767.38255 7.49507e-18
7769.32981 7.45866e-18
7771.27707 7.43309e-18
7773.23448 7.74428e-18
7775.18174 7.67479e-18
7777.12901 7.49308e-18
7779.08641 7.59156e-18
7781.03368 7.61637e-18
7782.98094 7.61729e-18
7784.92821 7.47094e-18
7786.88561 7.51846e-18
7788.83288 7.84788e-18
7790.78014 7.90314e-18
7792.72740 7.72538e-18
7794.68481 7.85854e-18
7796.63207 8.00242e-18
7798.57934 8.07286e-18
7800.53674 7.70372e-18
7802.48401 7.50517e-18
7804.43127 7.84917e-18
7806.37854 7.62235e-18
7808.33594 7.63912e-18
7810.28321 7.77911e-18
7812.23047 7.48572e-18
7814.18788 7.40862e-18
7816.13514 7.41620e-18
7818.08240 7.65730e-18
7820.02967 7.90970e-18
7821.98707 7.69745e-18
7823.93434 7.67294e-18
7825.88160 7.73725e-18
7827.82887 7.70348e-18
7829.78627 7.54729e-18
7831.73354 7.47091e-18
7833.68080 7.77152e-18
7835.63821 7.95151e-18
7837.58547 7.82735e-18
7839.53273 7.82280e-18
7841.48000 7.93009e-18
7843.43740 7.82564e-18
7845.38467 7.96433e-18
7847.33193 8.12874e-18
7849.28934 8.00615e-18
7851.23660 7.94939e-18
7853.18387 7.97093e-18
7855.13113 7.98768e-18
7857.08854 7.69145e-18
7859.03580 7.83192e-18
7860.98306 8.16588e-18
7862.93033 7.86350e-18
7864.88773 7.72627e-18
7866.83500 8.02557e-18
7868.78226 7.83581e-18
7870.73967 7.81841e-18
7872.68693 7.82602e-18
7874.63420 7.61723e-18
7876.58146 7.37576e-18
7878.53887 7.55797e-18
7880.48613 7.65683e-18
7882.43339 7.49520e-18
7884.38066 7.56441e-18
7886.33806 7.59051e-18
7888.28533 7.67727e-18
7890.23259 7.86930e-18
7892.19000 7.89287e-18
7894.13726 7.52417e-18
7896.08453 7.36152e-18
7898.03179 7.59633e-18
7899.98920 7.65986e-18
7901.93646 7.62241e-18
7903.88372 7.82267e-18
7905.83099 7.86189e-18
7907.78839 7.74786e-18
7909.73566 7.67435e-18
7911.68292 7.68282e-18
7913.64033 7.47864e-18
7915.58759 7.36914e-18
7917.53486 7.24635e-18
7919.48212 7.12158e-18
7921.43953 7.22764e-18
7923.38679 7.11297e-18
7925.33405 7.23530e-18
7927.28132 7.48700e-18
7929.23872 7.46968e-18
7931.18599 7.69070e-18
7933.13325 7.84865e-18
7935.09066 7.85515e-18
7937.03792 7.87865e-18
7938.98519 8.00419e-18
7940.93245 8.13898e-18
7942.88986 8.03487e-18
7944.83712 7.97044e-18
7946.78438 7.98197e-18
7948.74179 7.82080e-18
7950.68905 7.56782e-18
7952.63632 7.58575e-18
7954.58358 7.60294e-18
7956.54099 7.34314e-18
7958.48825 7.36127e-18
7960.43552 7.68306e-18
7962.38278 7.91459e-18
7964.34019 7.67180e-18
7966.28745 7.33183e-18
7968.23471 7.20458e-18
7970.19212 7.13863e-18
7972.13938 7.50115e-18
7974.08665 7.69333e-18
7976.03391 7.53680e-18
7977.99132 7.71929e-18
7979.93858 7.90535e-18
7981.88585 7.67504e-18
7983.83311 7.49767e-18
7985.79052 7.85235e-18
7987.73778 8.02207e-18
7989.68504 7.63770e-18
7991.64245 7.51886e-18
7993.58971 7.74506e-18
7995.53698 7.97897e-18
7997.48424 8.01262e-18
7999.44165 7.78710e-18
8001.38891 7.58122e-18
8003.33618 7.49822e-18
8005.29358 7.40835e-18
8007.24085 7.20118e-18
8009.18811 7.12470e-18
8011.13537 7.25328e-18
8013.09278 7.28800e-18
8015.04004 7.10912e-18
8016.98731 7.21960e-18
8018.93457 7.38806e-18
8020.89198 7.39218e-18
8022.83924 7.17795e-18
8024.78651 7.22215e-18
8026.74391 7.56364e-18
8028.69118 7.43809e-18
8030.63844 7.37647e-18
8032.58570 7.30148e-18
8034.54311 6.93526e-18
8036.49037 6.99882e-18
8038.43764 7.18793e-18
8040.38490 7.34629e-18
8042.34231 7.48944e-18
8044.28957 7.32377e-18
8046.23684 7.43860e-18
8048.19424 7.43990e-18
8050.14151 7.15343e-18
8052.08877 6.99741e-18
8054.03603 7.18370e-18
8055.99344 7.06117e-18
8057.94070 6.77435e-18
8059.88797 6.35862e-18
8061.84537 6.60504e-18
8063.79264 7.00450e-18
8065.73990 6.95924e-18
8067.68717 6.97917e-18
8069.64457 6.93447e-18
8071.59184 6.96920e-18
8073.53910 6.99383e-18
8075.48636 7.12831e-18
8077.44377 7.21160e-18
8079.39103 7.03288e-18
8081.33830 6.78007e-18
8083.29570 7.04473e-18
8085.24297 7.10870e-18
8087.19023 6.79999e-18
8089.13750 6.81106e-18
8091.09490 6.83910e-18
8093.04217 6.79381e-18
8094.98943 6.49232e-18
8096.93669 6.31125e-18
8098.89410 6.56289e-18
8100.84136 6.54760e-18
8102.78863 6.47518e-18
8104.74603 6.57148e-18
8106.69330 6.44040e-18
8108.64056 6.17357e-18
8110.58783 6.30166e-18
8112.54523 6.50227e-18
8114.49250 6.40611e-18
8116.43976 6.52793e-18
8118.38702 6.65799e-18
8120.34443 6.54102e-18
8122.29169 6.31015e-18
8124.23896 6.29688e-18
8126.19636 6.26593e-18
8128.14363 6.01726e-18
8130.09089 5.78520e-18
8132.03816 5.80300e-18
8133.99556 5.87678e-18
8135.94283 5.70340e-18
8137.89009 5.42010e-18
8139.84750 5.36670e-18
8141.79476 5.39051e-18
8143.74202 5.47647e-18
8145.68929 5.49169e-18
8147.64669 5.20407e-18
8149.59396 5.07277e-18
8151.54122 5.27293e-18
8153.48849 5.47160e-18
8155.44589 5.50026e-18
8157.39316 5.27336e-18
8159.34042 5.61611e-18
8161.29783 6.27504e-18
8163.24509 6.22501e-18
8165.19235 5.76513e-18
8167.13962 5.71430e-18
8169.09702 5.57433e-18
8171.04429 5.09278e-18
8172.99155 4.91280e-18
8174.93882 4.84197e-18
8176.89622 4.88186e-18
8178.84349 4.87747e-18
8180.79075 4.60361e-18
8182.74816 4.58435e-18
8184.69542 4.81711e-18
8186.64268 4.57024e-18
8188.58995 4.40134e-18
8190.54735 4.31891e-18
8192.49462 4.30501e-18
8194.44188 4.49083e-18
8196.38915 4.57015e-18
8198.34655 4.64015e-18
8200.29382 4.43655e-18
8202.24108 4.05741e-18
8204.19849 4.09785e-18
8206.14575 4.20315e-18
8208.09301 4.21349e-18
8210.04028 4.11290e-18
8211.99768 3.87224e-18
8213.94495 3.73970e-18
8215.89221 3.78408e-18
8217.84962 3.75326e-18
8219.79688 3.74610e-18
8221.74415 4.00884e-18
8223.69141 4.06636e-18
8225.64882 4.00163e-18
8227.59608 4.12414e-18
8229.54334 3.81932e-18
8231.49061 3.56591e-18
8233.44801 3.62572e-18
8235.39528 3.51973e-18
8237.34254 3.43960e-18
8239.29995 3.31944e-18
8241.24721 3.39729e-18
8243.19448 3.56148e-18
8245.14174 3.47780e-18
8247.09915 3.33579e-18
8249.04641 3.32451e-18
8250.99367 3.24590e-18
8252.94094 3.00235e-18
8254.89834 2.86992e-18
8256.84561 2.96429e-18
8258.79287 3.37897e-18
8260.75028 3.57617e-18
8262.69754 3.45972e-18
8264.64481 3.24637e-18
8266.59207 3.15655e-18
8268.54948 3.20846e-18
8270.49674 3.30533e-18
8272.44400 3.45251e-18
8274.40141 3.25284e-18
8276.34867 3.39507e-18
8278.29594 3.65608e-18
8280.24320 3.48247e-18
8282.20061 3.27554e-18
8284.14787 3.10161e-18
8286.09514 3.18106e-18
8288.04240 3.87853e-18
8289.99981 3.99127e-18
8291.94707 3.38250e-18
8293.89433 3.32268e-18
8295.85174 3.28001e-18
8297.79900 3.06228e-18
8299.74627 2.65064e-18
8301.69353 2.57183e-18
8303.65094 2.96987e-18
8305.59820 3.09006e-18
8307.54547 3.30542e-18
8309.49273 3.23291e-18
8311.45014 3.07896e-18
8313.39740 3.23684e-18
8315.34466 3.31555e-18
8317.30207 3.28831e-18
8319.24933 3.39568e-18
8321.19660 3.54512e-18
8323.14386 3.61387e-18
8325.10127 3.64304e-18
8327.04853 3.54643e-18
8328.99580 3.46403e-18
8330.95320 3.45071e-18
8332.90047 3.50203e-18
8334.84773 3.46092e-18
8336.79499 3.35431e-18
8338.75240 3.33417e-18
8340.69966 3.29959e-18
8342.64693 3.44466e-18
8344.59419 3.53197e-18
8346.55160 3.45447e-18
8348.49886 3.44013e-18
8350.44613 3.42712e-18
8352.40353 3.55922e-18
8354.35080 3.33280e-18
8356.29806 3.24162e-18
8358.24532 3.06571e-18
8360.20273 3.22231e-18
8362.14999 3.64610e-18
8364.09726 3.62316e-18
8366.04452 3.34564e-18
8368.00193 3.07033e-18
8369.94919 2.87528e-18
8371.89646 2.97520e-18
8373.85386 3.17211e-18
8375.80113 3.24706e-18
8377.74839 3.50261e-18
8379.69565 3.47710e-18
8381.65306 3.55579e-18
8383.60032 3.58376e-18
8385.54759 4.04344e-18
8387.49485 3.80976e-18
8389.45226 3.42829e-18
8391.39952 3.24396e-18
8393.34679 3.92270e-18
8395.30419 3.88379e-18
8397.25146 3.54633e-18
8399.19872 3.60584e-18
8401.14598 3.65485e-18
8403.10339 3.38542e-18
8405.05065 3.71065e-18
8406.99792 4.11113e-18
8407.12928 4.11113e-18
8408.82687 3.84170e-18
8410.52446 3.48800e-18
8412.22204 3.35672e-18
8413.91963 3.49106e-18
8415.61722 3.84352e-18
8417.31481 4.22697e-18
8419.01240 4.47368e-18
8420.70998 4.63832e-18
8422.40757 4.79857e-18
8424.10516 4.80347e-18
8425.80275 4.53400e-18
8427.50034 4.33424e-18
8429.19792 4.59040e-18
8430.89551 5.00929e-18
8432.59310 5.06560e-18
8434.29069 4.81178e-18
8435.99832 4.60996e-18
8437.69591 4.62715e-18
8439.39350 4.87333e-18
8441.09109 5.07195e-18
8442.77863 4.75695e-18
8444.48626 4.07228e-18
8446.18385 3.71655e-18
8447.88144 3.97075e-18
8449.57903 4.65307e-18
8451.27662 5.46460e-18
8452.97420 5.95501e-18
8454.67179 5.96136e-18
8456.36938 5.78109e-18
8458.06697 5.55597e-18
8459.76456 5.12336e-18
8461.46214 4.45751e-18
8463.15973 3.75881e-18
8464.85732 3.26268e-18
8466.55491 3.26692e-18
8468.25250 3.85137e-18
8469.95008 4.62476e-18
8471.64767 5.18801e-18
8473.34526 5.32077e-18
8475.04285 5.00331e-18
8476.74044 4.67015e-18
8478.43802 4.71741e-18
8480.13561 4.99981e-18
8481.83320 5.22096e-18
8483.53079 5.17906e-18
8485.22838 4.79956e-18
8486.92597 4.39738e-18
8488.62355 4.38893e-18
8490.32114 4.71878e-18
8492.01873 5.09571e-18
8493.71632 5.52852e-18
8495.41391 6.16535e-18
8497.11149 6.83391e-18
8498.80908 7.17108e-18
8500.50667 7.04261e-18
8502.20426 6.53589e-18
8503.90185 5.98522e-18
8505.59943 5.95019e-18
8507.29702 6.50116e-18
8508.99461 7.11289e-18
8510.69220 7.49486e-18
8512.38979 7.71241e-18
8514.08737 7.70154e-18
8515.78496 7.20083e-18
8517.49260 6.24359e-18
8519.19018 5.31956e-18
8520.87773 4.85007e-18
8522.58536 5.10490e-18
8524.27290 5.98290e-18
8525.98054 6.60087e-18
8527.67812 6.38312e-18
8529.37571 5.82295e-18
8531.07330 5.47818e-18
8532.77089 5.50555e-18
8534.46848 5.85995e-18
8536.16606 6.10902e-18
8537.86365 5.88310e-18
8539.56124 5.52065e-18
8541.25883 5.48433e-18
8542.95642 5.67365e-18
8544.65401 5.78884e-18
8546.35159 5.72902e-18
8548.04918 5.51257e-18
8549.74677 5.25988e-18
8551.44436 5.15158e-18
8553.14195 5.26830e-18
8554.83953 5.59221e-18
8556.53712 6.06198e-18
8558.23471 6.57147e-18
8559.93230 6.92211e-18
8561.62989 6.86213e-18
8563.32747 6.49324e-18
8565.02506 6.29928e-18
8566.72265 6.45158e-18
8568.42024 6.70821e-18
8570.11783 6.93623e-18
8571.81542 7.16824e-18
8573.51300 7.38803e-18
8575.21059 7.52982e-18
8576.90818 7.50168e-18
8578.60577 7.12804e-18
8580.30336 6.43000e-18
8582.00094 5.85341e-18
8583.69853 5.69757e-18
8585.39612 5.77142e-18
8587.09371 5.87103e-18
8588.79130 5.99812e-18
8590.48888 6.18399e-18
8592.18647 6.50190e-18
8593.88406 6.93815e-18
8595.58165 7.09635e-18
8597.27924 6.64096e-18
8598.97682 5.86479e-18
8600.67441 5.26480e-18
8602.37200 5.13133e-18
8604.07963 5.55154e-18
8605.76718 6.15352e-18
8607.47481 6.38478e-18
8609.17240 6.32121e-18
8610.86999 6.42276e-18
8612.56757 6.68696e-18
8614.26516 6.79666e-18
8615.96275 6.66755e-18
8617.66034 6.41303e-18
8619.35793 6.40611e-18
8621.05551 7.25158e-18
8622.75310 8.88869e-18
8624.45069 1.04868e-17
8626.14828 1.12367e-17
8627.84587 1.03925e-17
8629.54346 8.10932e-18
8631.24104 5.91402e-18
8632.93863 4.82924e-18
8634.63622 4.82489e-18
8636.33381 5.50602e-18
8638.03140 5.89835e-18
8639.72898 5.50528e-18
8641.42657 5.18016e-18
8643.12416 5.58281e-18
8644.82175 6.35340e-18
8646.51934 6.99445e-18
8648.21692 7.13923e-18
8649.91451 6.64282e-18
8651.61210 5.95076e-18
8653.30969 5.59146e-18
8655.00728 5.66777e-18
8656.70486 6.07963e-18
8658.40245 6.65139e-18
8660.10004 7.16897e-18
8661.79763 7.52003e-18
8663.49522 7.66351e-18
8665.19281 7.48678e-18
8666.89039 6.90281e-18
8668.58798 6.17687e-18
8670.28557 5.78146e-18
8671.98316 5.80073e-18
8673.68075 5.98402e-18
8675.37833 6.22734e-18
8677.07592 6.55693e-18
8678.77351 6.96958e-18
8680.47110 7.45179e-18
8682.16869 7.90870e-18
8683.86627 8.14743e-18
8685.56386 8.04134e-18
8687.26145 7.55196e-18
8688.96908 6.82235e-18
8690.66667 6.26972e-18
8692.36426 6.15275e-18
8694.06185 6.40183e-18
8695.75944 6.84032e-18
8697.45702 7.16991e-18
8699.15461 7.18225e-18
8700.85220 6.92277e-18
8702.54979 6.53492e-18
8704.24738 6.23969e-18
8705.94496 6.21820e-18
8707.64255 6.54469e-18
8709.34014 7.13855e-18
8711.03773 7.47830e-18
8712.73532 7.13396e-18
8714.43291 6.62516e-18
8716.13049 6.66658e-18
8717.82808 7.04839e-18
8719.52567 7.20293e-18
8721.22326 7.06964e-18
8722.92085 6.87050e-18
8724.61843 6.85295e-18
8726.31602 7.24091e-18
8728.01361 7.75934e-18
8729.71120 7.78249e-18
8731.40879 7.36259e-18
8733.10637 7.15102e-18
8734.80396 7.32853e-18
8736.50155 7.59128e-18
8738.19914 7.72352e-18
8739.89673 7.59843e-18
8741.59431 7.22554e-18
8743.29190 6.82364e-18
8744.98949 6.54691e-18
8746.68708 6.42312e-18
8748.38467 6.41606e-18
8750.08226 6.39406e-18
8751.77984 6.26969e-18
8753.47743 6.02613e-18
8755.17502 5.79774e-18
8756.87261 6.07739e-18
8758.57020 7.08633e-18
8760.26778 8.26306e-18
8761.96537 9.01475e-18
8763.66296 9.10326e-18
8765.36055 8.53746e-18
8767.05814 7.82866e-18
8768.75572 7.44779e-18
8770.45331 7.02551e-18
8772.16095 6.06641e-18
8773.85853 4.80971e-18
8775.55612 3.81015e-18
8777.25371 3.66868e-18
8778.95130 4.78150e-18
8780.64889 6.33942e-18
8782.34647 6.93430e-18
8784.04406 6.56579e-18
8785.74165 6.25271e-18
8787.43924 6.23701e-18
8789.13683 6.14119e-18
8790.83441 5.92577e-18
8792.53200 5.80738e-18
8794.22959 5.82492e-18
8795.92718 5.85834e-18
8797.62477 5.74985e-18
8799.32236 5.27455e-18
8801.01994 4.55703e-18
8802.71753 4.26242e-18
8804.41512 4.60247e-18
8806.11271 4.96856e-18
8807.81030 4.96996e-18
8809.50788 4.74923e-18
8811.20547 4.48137e-18
8812.90306 4.31914e-18
8814.60065 4.32163e-18
8816.29824 4.27929e-18
8817.99582 4.04846e-18
8819.69341 3.80473e-18
8821.39100 3.74840e-18
8823.08859 3.94426e-18
8824.78618 4.36603e-18
8826.48376 4.84492e-18
8828.18135 5.18820e-18
8829.87894 5.30843e-18
8831.57653 5.20882e-18
8833.27412 5.05018e-18
8834.97171 5.03132e-18
8836.66929 5.08673e-18
8838.36688 5.01824e-18
8840.06447 4.89697e-18
8841.76206 4.94011e-18
8843.45965 5.01171e-18
8845.15723 4.74386e-18
8846.85482 4.19291e-18
8848.55241 3.79230e-18
8850.25000 3.81674e-18
8851.94759 4.36323e-18
8853.65522 5.28171e-18
8855.34276 6.09824e-18
8857.05040 6.66306e-18
8858.74798 7.34528e-18
8860.44557 8.12717e-18
8862.14316 8.33595e-18
8863.84075 7.70732e-18
8865.53834 6.72163e-18
8867.23592 5.86907e-18
8868.93351 5.56372e-18
8870.63110 5.87183e-18
8872.32869 6.02352e-18
8874.02628 5.53444e-18
8875.72386 5.05309e-18
8877.42145 5.22520e-18
8879.11904 6.06116e-18
8880.81663 7.27692e-18
8882.51422 8.18644e-18
8884.21181 8.20663e-18
8885.90939 7.63932e-18
8887.60698 7.07062e-18
8889.30457 6.56161e-18
8891.00216 6.01490e-18
8892.69975 5.83832e-18
8894.39733 6.51983e-18
8896.09492 7.63758e-18
8897.79251 8.26784e-18
8899.49010 8.26497e-18
8901.18769 8.06535e-18
8902.88527 7.52375e-18
8904.58286 6.09260e-18
8906.28045 4.45543e-18
8907.97804 4.40612e-18
8909.67563 5.96076e-18
8911.37321 7.11531e-18
8913.07080 6.82893e-18
8914.76839 5.34893e-18
8916.46598 3.40120e-18
8918.16357 2.47375e-18
8919.86116 3.02392e-18
8921.55874 3.53906e-18
8923.25633 3.16924e-18
8924.95392 2.69727e-18
8926.65151 2.75784e-18
8928.34910 3.35463e-18
8930.04668 4.27658e-18
8931.74427 4.94534e-18
8933.44186 4.96469e-18
8935.14949 4.67313e-18
8936.83704 4.48772e-18
8938.53462 4.45329e-18
8940.24226 4.51568e-18
8941.93985 4.59172e-18
8943.63743 4.64633e-18
8945.33502 5.04220e-18
8947.03261 6.10856e-18
8948.73020 7.23712e-18
8950.42779 7.52642e-18
8952.12537 7.13866e-18
8953.82296 6.80904e-18
8955.52055 6.56897e-18
8957.21814 6.02027e-18
8958.91573 5.21817e-18
8960.61331 4.53682e-18
8962.31090 4.18015e-18
8964.00849 4.19188e-18
8965.70608 4.48377e-18
8967.40367 4.82423e-18
8969.10125 4.94118e-18
8970.79884 4.52179e-18
8972.49643 3.76721e-18
8974.19402 3.62663e-18
8975.89161 4.39418e-18
8977.58920 5.22455e-18
8979.28678 5.58220e-18
8980.98437 5.70482e-18
8982.68196 5.68697e-18
8984.37955 5.07008e-18
8986.07714 3.87025e-18
8987.77472 3.38925e-18
8989.47231 4.43559e-18
8991.16990 5.96344e-18
8992.86749 6.89956e-18
8994.56508 7.42144e-18
8996.26266 7.88297e-18
8997.96025 8.06184e-18
8999.65784 7.69931e-18
9001.35543 6.93353e-18
9003.05302 6.04504e-18
9004.75061 5.28735e-18
9006.44819 4.82826e-18
9008.14578 4.49540e-18
9009.84337 3.97239e-18
9011.54096 3.28345e-18
9013.23855 2.69447e-18
9014.93613 2.48629e-18
9016.63372 2.90974e-18
9018.33131 3.89140e-18
9020.02890 5.03905e-18
9021.72649 6.00859e-18
9023.43412 6.55048e-18
9025.13171 6.39356e-18
9026.82930 5.25638e-18
9028.52688 3.61095e-18
9030.22447 2.91526e-18
9031.92206 3.64011e-18
9033.61965 4.66170e-18
9035.31724 5.25669e-18
9037.01482 5.59384e-18
9038.71241 5.80853e-18
9040.41000 5.88600e-18
9042.10759 5.81181e-18
9043.80518 5.51283e-18
9045.50276 4.99217e-18
9047.20035 4.50601e-18
9048.89794 4.20984e-18
9050.59553 3.76323e-18
9052.29312 2.94585e-18
9053.99070 2.31525e-18
9055.68829 2.42926e-18
9057.38588 3.09548e-18
9059.08347 3.83589e-18
9060.78106 4.22583e-18
9062.47865 3.98572e-18
9064.17623 3.19912e-18
9065.87382 2.23702e-18
9067.57141 1.93348e-18
9069.26900 3.12611e-18
9070.96659 4.90937e-18
9072.66417 5.29774e-18
9074.36176 4.24208e-18
9076.05935 3.29229e-18
9077.75694 3.09323e-18
9079.45453 3.43547e-18
9081.15211 4.09198e-18
9082.84970 4.74655e-18
9084.54729 4.96780e-18
9086.24488 4.23281e-18
9087.94247 2.81214e-18
9089.64005 2.11171e-18
9091.33764 2.79578e-18
9093.03523 4.24270e-18
9094.73282 5.72034e-18
9096.43041 6.44810e-18
9098.12800 6.15665e-18
9099.82558 5.69003e-18
9101.52317 5.75371e-18
9103.22076 6.33350e-18
9104.92839 7.16703e-18
9106.62598 7.67279e-18
9108.32357 7.44631e-18
9110.01111 6.86657e-18
9111.71875 6.42146e-18
9113.41633 6.16457e-18
9115.11392 5.98451e-18
9116.81151 5.66834e-18
9118.50910 5.06056e-18
9120.20669 4.49365e-18
9121.90427 4.43375e-18
9123.60186 4.83022e-18
9125.29945 5.32275e-18
9126.99704 5.51603e-18
9128.69463 5.08122e-18
9130.39221 4.45221e-18
9132.08980 4.59514e-18
9133.78739 5.35513e-18
9135.48498 5.59320e-18
9137.18257 5.25092e-18
9138.88015 5.36227e-18
9140.57774 6.06474e-18
9142.27533 6.46079e-18
9143.97292 6.26488e-18
9145.67051 5.99466e-18
9147.36810 6.01529e-18
9149.06568 6.48566e-18
9150.76327 7.19858e-18
9152.46086 7.26312e-18
9154.15845 6.29066e-18
9155.85604 5.08249e-18
9157.55362 4.18758e-18
9159.25121 3.08763e-18
9160.94880 1.61481e-18
9162.64639 9.61821e-19
9164.34398 1.92408e-18
9166.04156 3.61003e-18
9167.73915 4.84772e-18
9169.43674 4.85579e-18
9171.13433 3.44066e-18
9172.83192 1.99214e-18
9174.52950 2.04967e-18
9176.22709 3.19472e-18
9177.92468 4.21220e-18
9179.62227 4.58246e-18
9181.31986 4.27464e-18
9183.01745 3.93401e-18
9184.71503 4.52039e-18
9186.42267 5.77486e-18
9188.11021 6.57648e-18
9189.81784 6.54310e-18
9191.50539 5.93893e-18
9193.21302 5.38709e-18
9194.91061 5.86117e-18
9196.60820 7.14191e-18
9198.30578 7.63493e-18
9200.00337 6.89716e-18
9201.70096 5.99163e-18
9203.39855 5.59789e-18
9205.09614 5.83998e-18
9206.79372 6.44856e-18
9208.49131 6.44022e-18
9210.18890 5.47250e-18
9211.88649 4.58826e-18
9213.58408 4.47884e-18
9215.28166 4.68256e-18
9216.97925 4.86267e-18
9218.67684 5.51689e-18
9220.37443 6.78951e-18
9222.07202 7.49712e-18
9223.76960 6.71787e-18
9225.46719 5.07231e-18
9227.16478 3.56242e-18
9228.86237 2.94757e-18
9230.55996 3.57842e-18
9232.25755 4.60786e-18
9233.95513 4.93674e-18
9235.65272 4.78138e-18
9237.35031 4.95227e-18
9239.04790 5.74069e-18
9240.74549 7.06282e-18
9242.44307 8.45686e-18
9244.14066 9.21275e-18
9245.83825 9.05586e-18
9247.53584 8.13910e-18
9249.23343 6.77465e-18
9250.93101 5.43065e-18
9252.62860 4.46585e-18
9254.32619 4.04886e-18
9256.02378 4.25207e-18
9257.72137 5.04813e-18
9259.41895 6.00646e-18
9261.11654 6.16852e-18
9262.81413 5.30150e-18
9264.51172 4.34505e-18
9266.20931 3.94945e-18
9267.91694 4.13314e-18
9269.60448 4.64202e-18
9271.31212 4.71155e-18
9272.99966 4.01457e-18
9274.70729 3.43281e-18
9276.40488 3.63683e-18
9278.10247 4.26578e-18
9279.80006 4.79912e-18
9281.49764 4.81737e-18
9283.19523 4.19191e-18
9284.89282 3.71471e-18
9286.59041 4.14883e-18
9288.28800 4.92339e-18
9289.98559 5.18456e-18
9291.68317 5.32871e-18
9293.38076 6.07610e-18
9295.07835 6.69163e-18
9296.77594 6.00174e-18
9298.47353 4.99858e-18
9300.17111 5.71438e-18
9301.86870 7.48754e-18
9303.56629 7.85130e-18
9305.26388 6.62864e-18
9306.96147 5.53604e-18
9308.65905 5.21570e-18
9310.35664 5.33441e-18
9312.05423 5.43456e-18
9313.75182 4.78542e-18
9315.44941 3.84948e-18
9317.14700 4.73936e-18
9318.84458 7.70407e-18
9320.54217 1.02195e-17
9322.23976 1.04998e-17
9323.93735 8.11677e-18
9325.63494 3.78773e-18
9327.33252 2.70503e-19
9329.03011 -8.31360e-19
9330.72770 -1.09917e-18
9332.42529 -1.84921e-18
9334.12288 -2.51459e-18
9335.82046 -2.34967e-18
9337.51805 -9.21404e-19
9339.21564 1.80170e-18
9340.91323 4.93460e-18
9342.61082 7.43172e-18
9344.30840 8.78615e-18
9346.00599 8.85843e-18
9347.70358 7.77649e-18
9349.41121 5.97029e-18
9351.09876 4.40768e-18
9352.80639 4.06275e-18
9354.49393 4.80193e-18
9356.20157 5.76712e-18
9357.89915 6.25125e-18
9359.59674 5.76092e-18
9361.29433 4.53973e-18
9362.99192 3.46746e-18
9364.68951 2.70545e-18
9366.38709 1.73856e-18
9368.08468 7.23377e-19
9369.78227 4.56333e-19
9371.47986 1.30916e-18
9373.17745 3.21095e-18
9374.87504 5.29500e-18
9376.57262 5.52985e-18
9378.27021 3.61741e-18
9379.96780 2.13804e-18
9381.66539 2.59474e-18
9383.36298 4.21668e-18
9385.06056 6.00126e-18
9386.75815 6.79807e-18
9388.45574 6.22968e-18
9390.15333 5.97287e-18
9391.85092 7.14521e-18
9393.54850 8.31502e-18
9395.24609 8.18767e-18
9396.94368 7.51463e-18
9398.64127 7.28519e-18
9400.33886 7.57348e-18
9402.03644 8.04260e-18
9403.73403 7.84324e-18
9405.43162 6.29027e-18
9407.12921 4.13576e-18
9408.82680 2.73126e-18
9410.52439 2.86667e-18
9412.22197 4.71959e-18
9413.91956 7.28664e-18
9415.61715 8.86109e-18
9417.31474 8.67042e-18
9419.01233 6.85654e-18
9420.70991 4.50542e-18
9422.40750 3.48185e-18
9424.10509 3.80629e-18
9425.80268 3.55002e-18
9427.50027 2.48330e-18
9429.19785 2.37182e-18
9430.89544 3.51194e-18
9432.59303 4.25617e-18
9434.29062 4.10899e-18
9435.98821 4.37253e-18
9437.69584 5.60996e-18
9439.39343 7.06779e-18
9441.09102 7.98808e-18
9442.78860 7.68144e-18
9444.48619 6.11762e-18
9446.18378 4.68270e-18
9447.88137 4.42223e-18
9449.57896 5.01016e-18
9451.27654 5.80821e-18
9452.97413 6.15508e-18
9454.67172 5.66277e-18
9456.36931 4.72162e-18
9458.06690 3.98464e-18
9459.76449 4.15690e-18
9461.46207 5.58521e-18
9463.15966 7.25062e-18
9464.85725 7.80990e-18
9466.55484 7.38282e-18
9468.25243 6.81564e-18
9469.95001 6.38661e-18
9471.64760 6.02321e-18
9473.34519 5.50773e-18
9475.04278 4.53685e-18
9476.74037 3.20099e-18
9478.43795 1.94806e-18
9480.13554 1.66935e-18
9481.83313 3.57489e-18
9483.53072 6.90819e-18
9485.22831 8.77830e-18
9486.92589 8.30052e-18
9488.62348 7.18894e-18
9490.32107 6.44936e-18
9492.01866 6.01881e-18
9493.71625 5.74028e-18
9495.41384 5.18736e-18
9497.11142 4.37287e-18
9498.80901 4.30543e-18
9500.50660 5.37001e-18
9502.20419 6.42101e-18
9503.90178 6.66161e-18
9505.59936 6.69909e-18
9507.29695 6.99412e-18
9508.99454 6.89736e-18
9510.69213 5.89423e-18
9512.38972 4.55414e-18
9514.08730 3.55097e-18
9515.78489 2.69341e-18
9517.48248 1.76322e-18
9519.19011 1.79622e-18
9520.88770 3.73943e-18
9522.58529 6.10985e-18
9524.28288 6.71692e-18
9525.98047 5.80272e-18
9527.67805 4.95382e-18
9529.37564 4.93983e-18
9531.07323 5.90197e-18
9532.77082 7.27655e-18
9534.46841 7.92223e-18
9536.16599 7.56196e-18
9537.86358 6.76224e-18
9539.56117 6.01083e-18
9541.25876 5.72209e-18
9542.95635 5.84875e-18
9544.65394 5.74995e-18
9546.35152 5.11095e-18
9548.04911 4.09306e-18
9549.74670 2.99697e-18
9551.44429 2.25789e-18
9553.14188 2.29517e-18
9554.83946 3.62577e-18
9556.53705 5.87053e-18
9558.23464 6.74801e-18
9559.93223 5.28014e-18
9561.62982 3.99581e-18
9563.32740 4.70349e-18
9565.02499 5.95625e-18
9566.72258 6.21200e-18
9568.42017 5.48102e-18
9570.11776 4.28853e-18
9571.81534 3.48579e-18
9573.51293 3.82174e-18
9575.21052 5.29917e-18
9576.90811 7.45463e-18
9578.60570 9.49929e-18
9580.30329 1.06127e-17
9582.00087 1.04980e-17
9583.69846 9.30219e-18
9585.39605 7.46559e-18
9587.09364 5.62416e-18
9588.79123 4.35127e-18
9590.48881 4.04230e-18
9592.18640 4.37963e-18
9593.88399 4.45964e-18
9595.58158 4.41803e-18
9597.27917 5.39220e-18
9598.97675 7.11178e-18
9600.67434 7.78147e-18
9602.38198 7.01391e-18
9604.07956 6.20944e-18
9605.76711 6.06607e-18
9607.47474 6.22693e-18
9609.17233 6.33475e-18
9610.86992 6.04077e-18
9612.56750 5.26517e-18
9614.26509 4.44478e-18
9615.96268 3.99390e-18
9617.66027 4.18875e-18
9619.35786 4.97934e-18
9621.05544 5.67463e-18
9622.75303 5.67200e-18
9624.45062 4.81509e-18
9626.14821 3.37569e-18
9627.84580 2.47528e-18
9629.54339 3.05668e-18
9631.24097 4.74804e-18
9632.93856 6.66793e-18
9634.63615 8.04842e-18
9636.33374 8.35254e-18
9638.03133 7.70787e-18
9639.72891 6.65452e-18
9641.42650 5.69725e-18
9643.12409 5.23081e-18
9644.82168 5.18262e-18
9646.51927 5.15243e-18
9648.21685 5.13841e-18
9649.91444 5.42664e-18
9651.61203 6.20818e-18
9653.30962 7.59414e-18
9655.00721 8.67377e-18
9656.70479 7.51037e-18
9658.40238 4.61426e-18
9660.09997 3.40260e-18
9661.79756 5.27580e-18
9663.49515 8.84382e-18
9665.19274 1.23727e-17
9666.89032 1.37040e-17
9668.58791 1.21658e-17
9670.28550 9.83929e-18
9671.98309 8.37838e-18
9673.68068 7.96073e-18
9675.37826 8.26872e-18
9677.07585 8.34902e-18
9678.77344 7.43100e-18
9680.47103 5.45742e-18
9682.16862 2.88792e-18
9683.86620 1.09071e-18
9685.56379 1.10511e-18
9687.26138 2.30372e-18
9688.96901 3.54505e-18
9690.66660 3.94358e-18
9692.36419 3.07596e-18
9694.06178 1.92184e-18
9695.75937 1.83657e-18
9697.45695 2.52973e-18
9699.15454 2.88666e-18
9700.85213 2.59859e-18
9702.54972 1.90455e-18
9704.24731 1.32701e-18
9705.94489 1.56975e-18
9707.64248 2.51539e-18
9709.34007 3.32043e-18
9711.03766 3.59301e-18
9712.73525 3.39931e-18
9714.43283 3.06660e-18
9716.13042 3.24644e-18
9717.82801 3.98885e-18
9719.52560 4.53948e-18
9721.22319 4.44746e-18
9722.92078 3.70454e-18
9724.61836 2.68347e-18
9726.31595 2.39471e-18
9728.01354 3.23922e-18
9729.71113 4.37504e-18
9731.40872 5.08297e-18
9733.10630 5.19654e-18
9734.80389 4.84155e-18
9736.50148 4.65830e-18
9738.19907 5.07724e-18
9739.89666 5.73678e-18
9741.59424 6.10047e-18
9743.29183 5.56467e-18
9744.98942 3.94898e-18
9746.68701 2.63493e-18
9748.38460 2.97319e-18
9750.08219 3.99186e-18
9751.77977 4.03440e-18
9753.47736 2.92202e-18
9755.17495 1.36297e-18
9756.87254 6.79543e-19
9758.57013 2.21958e-18
9760.26771 4.98695e-18
9761.96530 6.45251e-18
9763.66289 5.77377e-18
9765.36048 3.60729e-18
9767.05807 1.38087e-18
9768.75565 1.22132e-18
9770.45324 3.16024e-18
9772.16088 4.87056e-18
9773.85846 5.45930e-18
9775.55605 5.83532e-18
9777.25364 6.52639e-18
9778.95123 7.58413e-18
9780.64882 8.82042e-18
9782.34640 9.64479e-18
9784.04399 9.60134e-18
9785.74158 8.48419e-18
9787.43917 6.53800e-18
9789.13676 4.85098e-18
9790.83434 4.08631e-18
9792.53193 3.67218e-18
9794.22952 3.03183e-18
9795.92711 2.09215e-18
9797.62470 1.05777e-18
9799.32228 7.60782e-19
9801.01987 1.71822e-18
9802.71746 2.77400e-18
9804.41505 2.71935e-18
9806.11264 2.28860e-18
9807.81023 2.68235e-18
9809.50781 3.79979e-18
9811.20540 4.90488e-18
9812.90299 5.13567e-18
9814.60058 3.81706e-18
9816.29817 1.85357e-18
9817.99575 1.05337e-18
9819.69334 1.58855e-18
9821.39093 2.36982e-18
9823.08852 3.04889e-18
9824.78611 3.86328e-18
9826.48369 4.52179e-18
9828.18128 4.32124e-18
9829.87887 3.50948e-18
9831.57646 3.37190e-18
9833.27405 4.39946e-18
9834.97163 6.04493e-18
9836.66922 7.55800e-18
9838.36681 7.90706e-18
9840.06440 6.83781e-18
9841.76199 5.46697e-18
9843.45958 4.62693e-18
9845.15716 4.33021e-18
9846.85475 4.41190e-18
9848.55234 4.52158e-18
9850.24993 4.40952e-18
9851.94752 4.27436e-18
9853.65515 4.24996e-18
9855.34269 3.94079e-18
9857.05033 3.09356e-18
9858.74791 2.33955e-18
9860.44550 2.28017e-18
9862.14309 2.28511e-18
9863.84068 1.66010e-18
9865.53827 1.52330e-18
9867.23585 3.23369e-18
9868.93344 5.37105e-18
9870.63103 5.63346e-18
9872.32862 5.28351e-18
9874.02621 7.21899e-18
9875.72379 1.05242e-17
9877.42138 1.18285e-17
9879.11897 9.63913e-18
9880.81656 4.17645e-18
9882.51415 -1.97217e-18
9884.21173 -4.06097e-18
9885.90932 -1.53731e-18
9887.60691 1.44775e-18
9889.30450 2.52312e-18
9891.00209 1.55636e-18
9892.69968 -3.72126e-19
9894.39726 -2.66432e-19
9896.09485 2.65853e-18
9897.79244 5.38339e-18
9899.49003 5.79458e-18
9901.18762 3.78207e-18
9902.88520 2.55222e-19
9904.58279 -2.14144e-18
9906.28038 -1.84127e-18
9907.97797 -4.34618e-19
9909.67556 4.66587e-19
9911.37314 8.59868e-19
9913.07073 1.11176e-18
9914.76832 1.62744e-18
9916.46591 2.67959e-18
9918.16350 3.99436e-18
9919.86108 5.09426e-18
9921.55867 5.54628e-18
9923.25626 5.11417e-18
9924.95385 4.12533e-18
9926.65144 3.18539e-18
9928.34903 2.82974e-18
9930.04661 3.35737e-18
9931.74420 4.01588e-18
9933.44179 3.51054e-18
9935.14942 2.18290e-18
9936.83697 1.57665e-18
9938.54460 1.92414e-18
9940.23214 2.32507e-18
9941.93978 2.29321e-18
9943.63736 1.70309e-18
9945.33495 8.65676e-19
9947.03254 6.96590e-19
9948.73013 1.08689e-18
9950.42772 4.71670e-19
9952.12530 -1.41398e-18
9953.82289 -2.80700e-18
9955.52048 -2.63381e-18
9957.21807 -1.18967e-18
9958.91566 1.06989e-18
9960.61324 3.61793e-18
9962.31083 6.01262e-18
9964.00842 8.28388e-18
9965.70601 1.02003e-17
9967.40360 1.05912e-17
9969.10118 8.79510e-18
9970.79877 5.72136e-18
9972.49636 2.72440e-18
9974.19395 1.17469e-18
9975.89154 1.85002e-18
9977.58913 3.78924e-18
9979.28671 5.44231e-18
9980.98430 6.04746e-18
9982.68189 5.39038e-18
9984.37948 3.64235e-18
9986.07707 1.36289e-18
9987.77465 -6.09641e-19
9989.47224 -1.42360e-18
9991.16983 -6.98245e-19
9992.86742 1.40892e-18
9994.56501 3.49833e-18
9996.26259 3.33531e-18
9997.96018 1.50607e-18
9999.65777 1.28037e-18
