# wavelength flux
3465.99792 1.98886e-17
3467.46960 1.97636e-17
3468.94128 1.86419e-17
3470.41296 1.91630e-17
3471.88464 1.81858e-17
3473.34624 1.85788e-17
3474.81792 1.94933e-17
3476.28960 2.14716e-17
3477.76128 2.05678e-17
3479.23296 1.86566e-17
3480.70464 1.82207e-17
3482.16624 1.92221e-17
3483.63792 1.91638e-17
3485.10960 1.78146e-17
3486.58128 1.83780e-17
3488.05296 1.91967e-17
3489.52464 1.94918e-17
3490.98624 1.95719e-17
3492.45792 1.77482e-17
3493.92960 1.89134e-17
3495.40128 1.78760e-17
3496.87296 1.88898e-17
3498.34464 1.89510e-17
3499.80624 1.95717e-17
3501.27792 2.15028e-17
3502.74960 1.87997e-17
3504.22128 1.89766e-17
3505.69296 1.95088e-17
3507.16464 2.03931e-17
3508.62624 1.90788e-17
3510.09792 1.77133e-17
3511.56960 1.86350e-17
3513.04128 1.89891e-17
3514.51296 1.90405e-17
3515.98464 1.86851e-17
3517.44624 2.08426e-17
3518.91792 1.97737e-17
3520.38960 1.88715e-17
3521.86128 1.81797e-17
3523.33296 1.86105e-17
3524.80464 1.83051e-17
3526.26624 1.81311e-17
3527.73792 1.77568e-17
3529.20960 1.82383e-17
3530.68128 1.86982e-17
3532.15296 1.92984e-17
3533.62464 2.06714e-17
3535.08624 1.95097e-17
3536.55792 1.84188e-17
3538.02960 1.89956e-17
3539.50128 1.73472e-17
3540.97296 1.80825e-17
3542.44464 1.84125e-17
3543.90624 1.68664e-17
3545.37792 1.83389e-17
3546.84960 2.11596e-17
3548.32128 2.02257e-17
3549.79296 1.93862e-17
3551.26464 1.77439e-17
3552.72624 1.92241e-17
3554.19792 1.85453e-17
3555.66960 1.48731e-17
3557.14128 1.69803e-17
3558.61296 1.64302e-17
3560.08464 1.70860e-17
3561.54624 1.62197e-17
3563.01792 1.69414e-17
3564.48960 1.90743e-17
3565.96128 1.91244e-17
3567.43296 1.89524e-17
3568.90464 1.76342e-17
3570.36624 1.68237e-17
3571.83792 1.74072e-17
3573.30960 1.70502e-17
3574.78128 1.72947e-17
3576.25296 1.85461e-17
3577.72464 2.09488e-17
3579.18624 2.23234e-17
3580.65792 2.09497e-17
3582.12960 1.92701e-17
3583.60128 1.81066e-17
3585.07296 1.84819e-17
3586.54464 1.95538e-17
3588.00624 2.09707e-17
3589.47792 1.95654e-17
3590.94960 1.98462e-17
3592.42128 1.98595e-17
3593.89296 1.98149e-17
3595.36464 1.94366e-17
3596.82624 1.97347e-17
3598.29792 1.84344e-17
3599.76960 1.98165e-17
3601.24128 2.21237e-17
3602.71296 2.10216e-17
3604.18464 2.02040e-17
3605.64624 2.10472e-17
3607.11792 2.11664e-17
3608.58960 2.07562e-17
3610.06128 2.02227e-17
3611.53296 1.99024e-17
3613.00464 2.02613e-17
3614.46624 2.15183e-17
3615.93792 2.15494e-17
3617.40960 2.03196e-17
3618.88128 1.82342e-17
3620.35296 1.86224e-17
3621.82464 1.88595e-17
3623.28624 1.84847e-17
3624.75792 1.91881e-17
3626.22960 2.02545e-17
3627.70128 1.91483e-17
3629.17296 1.88037e-17
3630.64464 1.62838e-17
3632.10624 1.62684e-17
3633.57792 1.78538e-17
3635.04960 1.88001e-17
3636.52128 1.65323e-17
3637.99296 1.50050e-17
3639.46464 1.62779e-17
3640.92624 1.75261e-17
3642.39792 1.87787e-17
3643.86960 1.92497e-17
3645.34128 1.90956e-17
3646.81296 1.78906e-17
3648.28464 1.76714e-17
3649.74624 1.75531e-17
3651.21792 1.73364e-17
3652.68960 1.73042e-17
3654.16128 1.67471e-17
3655.63296 1.73087e-17
3657.10464 1.69120e-17
3658.56624 1.66827e-17
3660.03792 1.76932e-17
3661.50960 1.83834e-17
3662.98128 1.83848e-17
3664.45296 1.70523e-17
3665.92464 1.73032e-17
3667.38624 1.76865e-17
3668.85792 1.79073e-17
3670.32960 1.87105e-17
3671.80128 1.90618e-17
3673.27296 1.93037e-17
3674.74464 1.79801e-17
3676.20624 1.90010e-17
3677.67792 1.94011e-17
3679.14960 1.97329e-17
3680.62128 1.91495e-17
3682.09296 1.96651e-17
3683.56464 1.94334e-17
3685.02624 1.80094e-17
3686.49792 1.91484e-17
3687.96960 1.95253e-17
3689.44128 1.95879e-17
3690.91296 2.04190e-17
3692.38464 1.99378e-17
3693.84624 2.01412e-17
3695.31792 2.29217e-17
3696.78960 2.25609e-17
3698.26128 2.05574e-17
3699.73296 2.01111e-17
3701.20464 2.25416e-17
3702.66624 2.17618e-17
3704.13792 2.05685e-17
3705.60960 2.14696e-17
3707.08128 2.11054e-17
3708.55296 1.93507e-17
3710.02464 1.96034e-17
3711.48624 2.01561e-17
3712.95792 1.97762e-17
3714.42960 2.05708e-17
3715.90128 2.04505e-17
3717.37296 1.93409e-17
3718.84464 1.94550e-17
3720.30624 1.77547e-17
3721.77792 1.60865e-17
3723.24960 1.63096e-17
3724.72128 1.68312e-17
3726.19296 1.66826e-17
3727.66464 1.62248e-17
3729.12624 1.58349e-17
3730.59792 1.57210e-17
3732.06960 1.52028e-17
3733.54128 1.41298e-17
3735.01296 1.42905e-17
3736.48464 1.47393e-17
3737.94624 1.44467e-17
3739.41792 1.41541e-17
3740.88960 1.38699e-17
3742.36128 1.35856e-17
3743.83296 1.33015e-17
3745.30464 1.30175e-17
3746.76624 1.27337e-17
3748.23792 1.24499e-17
3749.70960 1.21662e-17
3751.18128 1.18826e-17
3752.65296 1.15991e-17
3754.12464 1.13156e-17
3755.58624 1.10323e-17
3757.05792 1.07491e-17
3758.52960 1.04659e-17
3760.00128 1.01829e-17
3761.47296 9.90000e-18
3762.94464 9.61717e-18
3764.40624 9.33438e-18
3765.87792 9.05174e-18
3767.34960 8.76914e-18
3768.82128 8.48668e-18
3770.29296 8.20431e-18
3771.76464 7.92198e-18
3773.22624 7.63980e-18
3774.69792 7.35770e-18
3776.16960 7.07570e-18
3777.64128 6.79378e-18
3779.11296 6.74277e-18
3780.58464 7.21879e-18
3782.04624 7.22070e-18
3783.51792 6.28895e-18
3784.98960 6.60082e-18
3786.46128 7.10609e-18
3787.93296 7.04855e-18
3789.40464 6.58159e-18
3790.86624 6.53552e-18
3792.33792 6.66672e-18
3793.80960 5.77289e-18
3795.28128 5.04741e-18
3796.75296 6.18390e-18
3798.22464 7.27714e-18
3799.68624 6.48766e-18
3801.15792 5.91991e-18
3802.62960 6.64513e-18
3804.10128 7.84864e-18
3805.57296 7.48773e-18
3807.04464 6.97522e-18
3808.50624 7.44381e-18
3809.97792 7.44489e-18
3811.44960 7.53221e-18
3812.92128 7.71679e-18
3814.39296 7.19895e-18
3815.86464 7.00740e-18
3817.32624 7.21848e-18
3818.79792 7.47458e-18
3820.26960 7.61780e-18
3821.74128 7.93901e-18
3823.21296 8.66240e-18
3824.68464 7.79022e-18
3826.14624 7.86423e-18
3827.61792 8.81075e-18
3829.08960 8.96472e-18
3830.56128 9.02054e-18
3832.03296 9.33203e-18
3833.50464 9.79092e-18
3834.96624 9.47153e-18
3836.43792 9.71976e-18
3837.90960 1.05136e-17
3839.38128 1.04848e-17
3840.85296 1.06410e-17
3842.32464 1.16401e-17
3843.78624 1.13471e-17
3845.25792 1.03611e-17
3846.72960 1.08791e-17
3848.20128 1.15965e-17
3849.67296 1.13598e-17
3851.14464 1.09617e-17
3852.60624 1.14995e-17
3854.07792 1.22078e-17
3855.54960 1.26178e-17
3857.02128 1.33800e-17
3858.49296 1.40956e-17
3859.96464 1.39283e-17
3861.42624 1.43926e-17
3862.89792 1.46691e-17
3864.36960 1.43862e-17
3865.84128 1.48766e-17
3867.31296 1.50905e-17
3868.78464 1.60147e-17
3870.24624 1.66599e-17
3871.71792 1.64599e-17
3873.18960 1.64775e-17
3874.66128 1.64510e-17
3876.13296 1.76803e-17
3877.60464 1.88039e-17
3879.06624 1.79728e-17
3880.53792 1.81682e-17
3882.00960 1.93240e-17
3883.48128 2.01425e-17
3884.95296 2.04513e-17
3886.42464 2.04184e-17
3887.88624 2.01594e-17
3889.35792 2.07704e-17
3890.82960 2.05372e-17
3892.30128 2.04076e-17
3893.77296 2.19632e-17
3895.24464 2.31553e-17
3896.70624 2.29681e-17
3898.17792 2.36773e-17
3899.64960 2.43000e-17
3901.12128 2.28935e-17
3902.59296 2.36744e-17
3904.06464 2.51128e-17
3905.52624 2.52304e-17
3906.99792 2.54260e-17
3908.46960 2.60342e-17
3909.94128 2.60123e-17
3911.41296 2.56327e-17
3912.88464 2.61652e-17
3914.34624 2.74763e-17
3915.81792 2.75072e-17
3917.28960 2.68782e-17
3918.76128 2.68572e-17
3920.23296 2.66786e-17
3921.70464 2.70009e-17
3923.16624 2.74707e-17
3924.63792 2.79119e-17
3926.10960 2.76582e-17
3927.58128 2.74254e-17
3929.05296 2.79818e-17
3930.52464 2.79470e-17
3931.98624 2.77370e-17
3933.45792 2.85512e-17
3934.92960 2.91924e-17
3936.40128 2.99727e-17
3937.87296 3.00891e-17
3939.34464 2.93234e-17
3940.80624 2.98507e-17
3942.27792 2.98050e-17
3943.74960 2.96572e-17
3945.22128 3.01243e-17
3946.69296 3.06597e-17
3948.16464 3.05616e-17
3949.62624 3.13312e-17
3951.09792 3.22026e-17
3952.56960 3.06334e-17
3954.04128 2.96800e-17
3955.51296 3.11494e-17
3956.98464 3.22671e-17
3958.44624 3.12121e-17
3959.91792 2.92988e-17
3961.38960 2.82808e-17
3962.86128 2.84167e-17
3964.33296 2.94350e-17
3965.80464 2.99111e-17
3967.26624 3.02995e-17
3968.73792 3.03257e-17
3970.20960 3.04730e-17
3971.68128 3.03451e-17
3973.15296 3.08213e-17
3974.62464 3.18234e-17
3976.08624 3.12636e-17
3977.55792 3.09306e-17
3979.02960 3.11491e-17
3980.50128 3.18301e-17
3981.97296 3.26835e-17
3983.44464 3.20138e-17
3984.90624 3.16762e-17
3986.37792 3.14773e-17
3987.84960 3.10602e-17
3989.32128 3.14541e-17
3990.79296 3.18309e-17
3992.26464 3.15367e-17
3993.72624 3.17910e-17
3995.19792 3.14320e-17
3996.66960 3.11116e-17
3998.14128 3.14358e-17
3999.61296 3.12570e-17
4001.08464 3.17814e-17
4002.54624 3.21068e-17
4004.01792 3.23118e-17
4005.48960 3.22562e-17
4006.96128 3.16262e-17
4008.43296 3.22729e-17
4009.90464 3.24141e-17
4011.36624 3.22784e-17
4012.83792 3.13667e-17
4014.30960 3.04056e-17
4015.78128 3.04291e-17
4017.25296 3.03468e-17
4018.72464 3.14546e-17
4020.18624 2.94364e-17
4021.65792 3.02158e-17
4023.12960 3.15217e-17
4024.60128 3.06153e-17
4026.07296 2.92947e-17
4027.54464 3.00678e-17
4029.00624 2.99396e-17
4030.47792 2.94622e-17
4031.94960 2.97720e-17
4033.42128 2.92329e-17
4034.89296 2.89365e-17
4036.36464 2.78557e-17
4037.82624 2.80541e-17
4039.29792 2.87086e-17
4040.76960 2.87710e-17
4042.24128 2.88445e-17
4043.71296 2.77725e-17
4045.18464 2.80347e-17
4046.64624 2.81316e-17
4048.11792 2.68280e-17
4049.58960 2.70981e-17
4051.06128 2.70024e-17
4052.53296 2.58027e-17
4054.00464 2.67059e-17
4055.46624 2.62587e-17
4056.93792 2.50078e-17
4058.40960 2.59728e-17
4059.88128 2.60110e-17
4061.35296 2.44204e-17
4062.82464 2.37648e-17
4064.28624 2.47474e-17
4065.75792 2.55526e-17
4067.22960 2.55067e-17
4068.70128 2.52035e-17
4070.17296 2.55493e-17
4071.64464 2.50172e-17
4073.10624 2.45459e-17
4074.57792 2.45773e-17
4076.04960 2.43745e-17
4077.52128 2.47111e-17
4078.99296 2.52537e-17
4080.46464 2.45704e-17
4081.92624 2.40002e-17
4083.39792 2.39562e-17
4084.86960 2.39754e-17
4086.34128 2.47492e-17
4087.81296 2.44047e-17
4089.28464 2.44576e-17
4090.74624 2.46067e-17
4092.21792 2.40064e-17
4093.68960 2.36121e-17
4095.16128 2.35506e-17
4096.63296 2.35806e-17
4098.10464 2.33276e-17
4099.56624 2.34586e-17
4101.03792 2.37530e-17
4102.50960 2.33062e-17
4103.98128 2.22171e-17
4105.45296 2.25698e-17
4106.92464 2.35511e-17
4108.38624 2.35957e-17
4109.85792 2.24735e-17
4111.32960 2.24817e-17
4112.80128 2.22830e-17
4114.27296 2.15675e-17
4115.74464 2.11713e-17
4117.20624 2.14531e-17
4118.67792 2.14808e-17
4120.14960 2.13773e-17
4121.62128 2.14418e-17
4123.09296 2.07181e-17
4124.56464 2.05664e-17
4126.02624 2.19941e-17
4127.49792 2.12208e-17
4128.96960 2.06703e-17
4130.44128 2.12785e-17
4131.91296 2.13631e-17
4133.38464 2.12168e-17
4134.84624 2.15647e-17
4136.31792 2.17605e-17
4137.78960 2.04332e-17
4139.26128 2.09309e-17
4140.73296 2.08956e-17
4142.20464 2.08576e-17
4143.66624 2.06175e-17
4145.13792 2.09299e-17
4146.60960 2.11204e-17
4148.08128 2.08672e-17
4149.55296 2.08303e-17
4151.02464 2.07912e-17
4152.48624 2.06821e-17
4153.95792 2.08751e-17
4155.42960 2.18574e-17
4156.90128 2.13897e-17
4158.37296 1.99311e-17
4159.84464 1.93468e-17
4161.30624 2.03712e-17
4162.77792 1.97557e-17
4164.24960 1.91698e-17
4165.72128 1.99277e-17
4167.19296 2.04745e-17
4168.66464 2.01985e-17
4170.12624 2.02195e-17
4171.59792 1.96085e-17
4173.06960 2.00343e-17
4174.54128 2.00779e-17
4176.01296 1.94251e-17
4177.48464 1.97285e-17
4178.94624 2.02754e-17
4180.41792 1.95425e-17
4181.88960 1.91705e-17
4183.36128 1.92917e-17
4184.83296 1.98635e-17
4186.30464 1.95794e-17
4187.76624 1.96613e-17
4189.23792 1.91280e-17
4190.70960 1.90739e-17
4192.18128 1.92756e-17
4193.65296 1.91983e-17
4195.12464 1.90237e-17
4196.58624 1.91037e-17
4198.05792 1.97633e-17
4199.52960 2.03476e-17
4201.00128 1.96752e-17
4202.47296 1.95591e-17
4203.94464 2.01193e-17
4205.40624 1.97982e-17
4206.87792 2.00195e-17
4208.34960 2.07827e-17
4209.82128 2.04346e-17
4211.29296 1.98066e-17
4212.76464 1.95800e-17
4214.22624 2.00408e-17
4215.69792 2.01266e-17
4217.16960 2.01760e-17
4218.64128 2.03163e-17
4220.11296 2.00251e-17
4221.58464 1.95901e-17
4223.04624 1.97235e-17
4224.51792 2.05923e-17
4225.98960 2.04194e-17
4227.46128 2.00810e-17
4228.93296 2.06135e-17
4230.40464 2.07614e-17
4231.86624 2.04305e-17
4233.33792 2.02911e-17
4234.80960 2.03161e-17
4236.28128 2.03665e-17
4237.75296 1.97753e-17
4239.22464 1.98547e-17
4240.68624 2.02849e-17
4242.15792 2.06766e-17
4243.62960 2.08136e-17
4245.10128 2.05571e-17
4246.57296 2.02968e-17
4248.04464 2.00512e-17
4249.50624 1.98480e-17
4250.97792 1.96273e-17
4252.44960 1.94977e-17
4253.92128 1.98341e-17
4255.39296 1.97085e-17
4256.86464 1.99126e-17
4258.32624 2.02583e-17
4259.79792 1.98402e-17
4261.26960 1.96037e-17
4262.74128 1.97023e-17
4264.21296 1.93112e-17
4265.68464 1.89210e-17
4267.14624 1.95894e-17
4268.61792 1.94842e-17
4270.08960 1.93505e-17
4271.56128 1.95435e-17
4273.03296 1.92089e-17
4274.50464 1.92672e-17
4275.96624 1.90416e-17
4277.43792 1.89430e-17
4278.90960 1.91396e-17
4280.38128 1.93729e-17
4281.85296 1.95181e-17
4283.32464 1.90476e-17
4284.78624 1.89253e-17
4286.25792 1.92640e-17
4287.72960 1.89212e-17
4289.20128 1.85276e-17
4290.67296 1.91050e-17
4292.14464 1.92643e-17
4293.60624 1.95783e-17
4295.07792 1.96038e-17
4296.54960 1.92388e-17
4298.02128 1.92216e-17
4299.49296 1.93339e-17
4300.96464 1.93298e-17
4302.42624 1.89077e-17
4303.89792 1.88949e-17
4305.36960 1.92479e-17
4306.84128 1.93074e-17
4308.31296 1.90894e-17
4309.78464 1.92233e-17
4311.24624 1.94308e-17
4312.71792 1.92506e-17
4314.18960 1.95112e-17
4315.66128 1.97153e-17
4317.13296 1.92486e-17
4318.60464 1.90919e-17
4320.06624 1.93516e-17
4321.53792 1.95915e-17
4323.00960 1.94236e-17
4324.48128 1.94779e-17
4325.95296 1.97181e-17
4327.42464 1.95372e-17
4328.88624 1.93161e-17
4330.35792 1.96323e-17
4331.82960 1.92953e-17
4333.30128 1.91995e-17
4334.77296 1.93453e-17
4336.24464 1.90170e-17
4337.70624 1.91655e-17
4339.17792 1.94557e-17
4340.64960 1.95615e-17
4342.12128 1.98675e-17
4343.59296 1.97316e-17
4345.06464 1.95141e-17
4346.52624 1.92295e-17
4347.99792 1.85129e-17
4349.46960 1.88644e-17
4350.94128 1.91859e-17
4352.41296 1.83695e-17
4353.88464 1.80885e-17
4355.34624 1.82341e-17
4356.81792 1.75738e-17
4358.28960 1.72955e-17
4359.76128 1.72198e-17
4361.23296 1.67913e-17
4362.70464 1.65828e-17
4364.16624 1.63820e-17
4365.63792 1.62828e-17
4367.10960 1.64560e-17
4368.58128 1.63220e-17
4370.05296 1.62836e-17
4371.52464 1.66110e-17
4372.98624 1.65516e-17
4374.45792 1.62447e-17
4375.92960 1.58361e-17
4377.40128 1.59613e-17
4378.87296 1.58188e-17
4380.34464 1.57265e-17
4381.80624 1.56342e-17
4383.27792 1.55419e-17
4384.74960 1.54497e-17
4386.22128 1.53575e-17
4387.69296 1.52653e-17
4389.16464 1.51731e-17
4390.62624 1.50810e-17
4392.09792 1.49888e-17
4393.56960 1.48968e-17
4395.04128 1.48047e-17
4396.51296 1.47126e-17
4397.98464 1.46206e-17
4399.44624 1.45286e-17
4400.91792 1.44366e-17
4402.38960 1.43446e-17
4403.86128 1.42527e-17
4405.33296 1.41607e-17
4406.80464 1.40689e-17
4408.26624 1.39770e-17
4409.73792 1.38851e-17
4411.20960 1.37933e-17
4412.68128 1.37015e-17
4414.15296 1.36097e-17
4415.62464 1.35179e-17
4417.08624 1.34262e-17
4418.55792 1.39035e-17
4420.02960 1.43380e-17
4421.50128 1.40665e-17
4422.97296 1.37467e-17
4424.44464 1.40671e-17
4425.90624 1.39500e-17
4427.37792 1.33402e-17
4428.84960 1.38316e-17
4430.32128 1.40581e-17
4431.79296 1.35044e-17
4433.26464 1.37499e-17
4434.72624 1.38043e-17
4436.19792 1.36846e-17
4437.66960 1.39907e-17
4439.14128 1.39040e-17
4440.61296 1.38324e-17
4442.08464 1.38128e-17
4443.54624 1.39666e-17
4445.01792 1.41636e-17
4446.48960 1.42879e-17
4447.96128 1.43636e-17
4449.43296 1.44426e-17
4450.90464 1.44736e-17
4452.36624 1.43980e-17
4453.83792 1.46444e-17
4455.30960 1.51838e-17
4456.78128 1.50966e-17
4458.25296 1.48493e-17
4459.72464 1.51330e-17
4461.18624 1.52340e-17
4462.65792 1.55104e-17
4464.12960 1.54235e-17
4465.60128 1.49286e-17
4467.07296 1.57612e-17
4468.54464 1.61877e-17
4470.00624 1.61634e-17
4471.47792 1.60337e-17
4472.94960 1.62007e-17
4474.42128 1.67080e-17
4475.89296 1.71671e-17
4477.36464 1.72868e-17
4478.82624 1.68783e-17
4480.29792 1.69307e-17
4481.76960 1.72142e-17
4483.24128 1.74069e-17
4484.71296 1.78583e-17
4486.18464 1.81726e-17
4487.64624 1.82906e-17
4489.11792 1.82532e-17
4490.58960 1.83852e-17
4492.06128 1.88290e-17
4493.53296 1.89754e-17
4495.00464 1.88365e-17
4496.46624 1.85345e-17
4497.93792 1.82915e-17
4499.40960 1.83279e-17
4500.88128 1.90389e-17
4502.35296 1.92401e-17
4503.82464 1.96149e-17
4505.28624 2.00549e-17
4506.75792 2.02198e-17
4508.22960 2.02970e-17
4509.70128 2.01779e-17
4511.17296 2.02464e-17
4512.64464 2.06469e-17
4514.10624 2.05592e-17
4515.57792 2.04376e-17
4517.04960 2.06885e-17
4518.52128 2.08110e-17
4519.99296 2.14313e-17
4521.46464 2.17280e-17
4522.92624 2.13697e-17
4524.39792 2.13669e-17
4525.86960 2.17177e-17
4527.34128 2.21765e-17
4528.81296 2.21687e-17
4530.28464 2.20105e-17
4531.74624 2.21315e-17
4533.21792 2.20659e-17
4534.68960 2.23039e-17
4536.16128 2.21856e-17
4537.63296 2.18466e-17
4539.10464 2.21238e-17
4540.56624 2.24242e-17
4542.03792 2.28982e-17
4543.50960 2.30730e-17
4544.98128 2.23895e-17
4546.45296 2.25812e-17
4547.92464 2.28716e-17
4549.38624 2.26065e-17
4550.85792 2.25248e-17
4552.32960 2.29548e-17
4553.80128 2.30244e-17
4555.27296 2.28879e-17
4556.74464 2.35107e-17
4558.20624 2.35678e-17
4559.67792 2.33579e-17
4561.14960 2.34916e-17
4562.62128 2.40052e-17
4564.09296 2.39842e-17
4565.56464 2.40486e-17
4567.02624 2.38856e-17
4568.49792 2.38769e-17
4569.96960 2.43768e-17
4571.44128 2.45608e-17
4572.91296 2.48867e-17
4574.38464 2.48714e-17
4575.84624 2.48432e-17
4577.31792 2.52214e-17
4578.78960 2.52796e-17
4580.26128 2.50472e-17
4581.73296 2.54744e-17
4583.20464 2.48580e-17
4584.66624 2.53262e-17
4586.13792 2.49780e-17
4587.60960 2.50213e-17
4589.08128 2.59000e-17
4590.55296 2.54454e-17
4592.02464 2.55136e-17
4593.48624 2.60674e-17
4594.95792 2.52513e-17
4596.42960 2.51979e-17
4597.90128 2.54012e-17
4599.37296 2.58247e-17
4600.84464 2.56077e-17
4602.30624 2.56314e-17
4603.77792 2.53277e-17
4605.24960 2.61204e-17
4606.72128 2.57453e-17
4608.19296 2.53520e-17
4609.66464 2.51159e-17
4611.12624 2.53584e-17
4612.59792 2.51611e-17
4614.06960 2.53230e-17
4615.54128 2.50916e-17
4617.01296 2.52925e-17
4618.48464 2.56567e-17
4619.94624 2.56105e-17
4621.41792 2.49628e-17
4622.88960 2.57816e-17
4624.36128 2.54865e-17
4625.83296 2.52135e-17
4627.30464 2.55517e-17
4628.76624 2.56224e-17
4630.23792 2.55494e-17
4631.70960 2.43447e-17
4633.18128 2.52547e-17
4634.65296 2.48344e-17
4636.12464 2.51871e-17
4637.58624 2.53691e-17
4639.05792 2.53531e-17
4640.52960 2.50261e-17
4642.00128 2.43865e-17
4643.47296 2.41374e-17
4644.94464 2.43207e-17
4646.40624 2.39676e-17
4647.87792 2.40124e-17
4649.34960 2.47608e-17
4650.82128 2.44046e-17
4652.29296 2.44623e-17
4653.76464 2.44159e-17
4655.22624 2.39082e-17
4656.69792 2.48593e-17
4658.16960 2.45411e-17
4659.64128 2.44149e-17
4661.11296 2.40279e-17
4662.58464 2.42610e-17
4664.04624 2.44393e-17
4665.51792 2.42369e-17
4666.98960 2.41521e-17
4668.46128 2.31568e-17
4669.93296 2.37747e-17
4671.40464 2.37726e-17
4672.86624 2.34315e-17
4674.33792 2.36227e-17
4675.80960 2.32582e-17
4677.28128 2.32543e-17
4678.75296 2.35814e-17
4680.22464 2.37061e-17
4681.68624 2.34098e-17
4683.15792 2.30146e-17
4684.62960 2.28858e-17
4686.10128 2.32529e-17
4687.57296 2.28742e-17
4689.04464 2.26647e-17
4690.50624 2.33475e-17
4691.97792 2.30543e-17
4693.44960 2.26396e-17
4694.92128 2.20351e-17
4696.39296 2.23719e-17
4697.86464 2.27571e-17
4699.32624 2.23654e-17
4700.79792 2.21428e-17
4702.26960 2.24039e-17
4703.74128 2.21079e-17
4705.21296 2.17800e-17
4706.68464 2.20404e-17
4708.14624 2.18604e-17
4709.61792 2.18256e-17
4711.08960 2.15000e-17
4712.56128 2.19137e-17
4714.03296 2.17196e-17
4715.50464 2.08900e-17
4716.96624 2.10272e-17
4718.43792 2.12832e-17
4719.90960 2.10202e-17
4721.38128 2.09854e-17
4722.85296 2.09628e-17
4724.32464 2.04225e-17
4725.78624 2.07554e-17
4727.25792 2.08225e-17
4728.72960 2.07004e-17
4730.20128 2.06269e-17
4731.67296 1.99807e-17
4733.14464 1.98284e-17
4734.60624 1.96200e-17
4736.07792 1.93304e-17
4737.54960 1.91360e-17
4739.02128 1.95665e-17
4740.49296 1.96181e-17
4741.96464 1.99479e-17
4743.42624 1.98048e-17
4744.89792 1.95240e-17
4746.36960 1.97673e-17
4747.84128 1.90825e-17
4749.31296 1.97648e-17
4750.78464 1.96278e-17
4752.24624 1.91662e-17
4753.71792 1.86460e-17
4755.18960 1.91437e-17
4756.66128 1.88482e-17
4758.13296 1.81056e-17
4759.60464 1.82016e-17
4761.06624 1.83300e-17
4762.53792 1.81120e-17
4764.00960 1.77702e-17
4765.48128 1.76874e-17
4766.95296 1.75071e-17
4768.42464 1.76573e-17
4769.88624 1.72316e-17
4771.35792 1.65942e-17
4772.82960 1.66382e-17
4774.30128 1.69754e-17
4775.77296 1.67742e-17
4777.24464 1.60519e-17
4778.70624 1.57107e-17
4780.17792 1.57176e-17
4781.64960 1.57665e-17
4783.12128 1.54860e-17
4784.59296 1.51612e-17
4786.06464 1.48894e-17
4787.52624 1.45094e-17
4788.99792 1.42189e-17
4790.46960 1.41558e-17
4791.94128 1.42455e-17
4793.41296 1.41846e-17
4794.88464 1.40383e-17
4796.34624 1.42136e-17
4797.81792 1.42699e-17
4799.28960 1.45034e-17
4800.76128 1.43495e-17
4802.23296 1.40629e-17
4803.70464 1.41049e-17
4805.16624 1.42620e-17
4806.63792 1.39581e-17
4808.10960 1.38946e-17
4809.58128 1.42849e-17
4811.05296 1.42069e-17
4812.52464 1.41325e-17
4813.98624 1.39647e-17
4815.45792 1.37741e-17
4816.92960 1.41953e-17
4818.40128 1.43470e-17
4819.87296 1.44743e-17
4821.34464 1.44537e-17
4822.80624 1.40950e-17
4824.27792 1.44869e-17
4825.74960 1.48432e-17
4827.22128 1.47893e-17
4828.69296 1.46321e-17
4830.16464 1.46275e-17
4831.62624 1.45097e-17
4833.09792 1.47912e-17
4834.56960 1.48613e-17
4836.04128 1.47334e-17
4837.51296 1.48419e-17
4838.98464 1.48650e-17
4840.44624 1.46131e-17
4841.91792 1.45987e-17
4843.38960 1.49270e-17
4844.86128 1.47512e-17
4846.33296 1.48167e-17
4847.80464 1.44623e-17
4849.26624 1.42738e-17
4850.73792 1.47120e-17
4852.20960 1.46635e-17
4853.68128 1.44567e-17
4855.15296 1.44154e-17
4856.62464 1.39899e-17
4858.08624 1.40277e-17
4859.55792 1.42187e-17
4861.02960 1.39248e-17
4862.50128 1.38154e-17
4863.97296 1.38518e-17
4865.44464 1.38105e-17
4866.90624 1.35567e-17
4868.37792 1.34165e-17
4869.84960 1.32753e-17
4871.32128 1.32150e-17
4872.79296 1.33651e-17
4874.26464 1.30462e-17
4875.72624 1.27846e-17
4877.19792 1.27135e-17
4878.66960 1.27116e-17
4880.14128 1.27714e-17
4881.61296 1.30437e-17
4883.08464 1.31225e-17
4884.54624 1.32014e-17
4886.01792 1.32802e-17
4887.48960 1.33589e-17
4888.96128 1.34377e-17
4890.43296 1.35164e-17
4891.90464 1.35951e-17
4893.36624 1.36737e-17
4894.83792 1.37524e-17
4896.30960 1.38310e-17
4897.78128 1.39096e-17
4899.25296 1.39882e-17
4900.72464 1.40668e-17
4902.18624 1.41453e-17
4903.65792 1.42238e-17
4905.12960 1.43023e-17
4906.60128 1.43808e-17
4908.07296 1.44592e-17
4909.54464 1.45376e-17
4911.00624 1.46160e-17
4912.47792 1.46944e-17
4913.94960 1.47727e-17
4915.42128 1.48511e-17
4916.89296 1.49294e-17
4918.36464 1.50076e-17
4919.82624 1.53231e-17
4921.29792 1.54912e-17
4922.76960 1.54272e-17
4924.24128 1.55708e-17
4925.71296 1.56142e-17
4927.18464 1.59540e-17
4928.64624 1.61673e-17
4930.11792 1.61137e-17
4931.58960 1.61209e-17
4933.06128 1.61743e-17
4934.53296 1.63432e-17
4936.00464 1.64225e-17
4937.46624 1.67245e-17
4938.93792 1.65628e-17
4940.40960 1.67453e-17
4941.88128 1.68606e-17
4943.35296 1.66316e-17
4944.82464 1.68143e-17
4946.28624 1.70148e-17
4947.75792 1.76498e-17
4949.22960 1.81031e-17
4950.70128 1.79155e-17
4952.17296 1.79926e-17
4953.64464 1.83949e-17
4955.10624 1.84206e-17
4956.57792 1.81868e-17
4958.04960 1.84213e-17
4959.52128 1.91074e-17
4960.99296 1.90355e-17
4962.46464 1.86816e-17
4963.92624 1.85396e-17
4965.39792 1.85754e-17
4966.86960 1.86561e-17
4968.34128 1.85666e-17
4969.81296 1.85563e-17
4971.28464 1.86394e-17
4972.74624 1.89739e-17
4974.21792 1.91636e-17
4975.68960 1.92447e-17
4977.16128 1.89737e-17
4978.63296 1.83514e-17
4980.10464 1.86945e-17
4981.56624 1.85226e-17
4983.03792 1.83507e-17
4984.50960 1.81789e-17
4985.98128 1.80070e-17
4987.45296 1.78353e-17
4988.92464 1.76636e-17
4990.38624 1.74920e-17
4991.85792 1.73204e-17
4993.32960 1.71489e-17
4994.80128 1.69774e-17
4996.27296 1.68059e-17
4997.74464 1.66345e-17
4999.20624 1.64632e-17
5000.67792 1.62919e-17
5002.14960 1.61207e-17
5003.62128 1.59495e-17
5005.09296 1.57784e-17
5006.56464 1.56073e-17
5008.02624 1.54363e-17
5009.49792 1.52652e-17
5010.96960 1.50943e-17
5012.44128 1.49234e-17
5013.91296 1.47526e-17
5015.38464 1.45818e-17
5016.84624 1.44111e-17
5018.31792 1.46321e-17
5019.78960 1.43153e-17
5021.26128 1.40921e-17
5022.73296 1.42585e-17
5024.20464 1.40230e-17
5025.66624 1.37443e-17
5027.13792 1.40656e-17
5028.60960 1.40756e-17
5030.08128 1.40730e-17
5031.55296 1.40704e-17
5033.02464 1.40678e-17
5034.48624 1.40651e-17
5035.95792 1.40625e-17
5037.42960 1.40599e-17
5038.90128 1.40573e-17
5040.37296 1.40547e-17
5041.84464 1.40521e-17
5043.30624 1.40494e-17
5044.77792 1.40468e-17
5046.24960 1.40442e-17
5047.72128 1.40416e-17
5049.19296 1.40390e-17
5050.66464 1.40364e-17
5052.12624 1.40338e-17
5053.59792 1.40312e-17
5055.06960 1.40286e-17
5056.54128 1.40260e-17
5058.01296 1.40234e-17
5059.48464 1.40208e-17
5060.94624 1.40182e-17
5062.41792 1.40156e-17
5063.88960 1.40130e-17
5065.36128 1.40104e-17
5066.83296 1.40062e-17
5068.30464 1.42879e-17
5069.76624 1.44740e-17
5071.23792 1.48147e-17
5072.70960 1.50970e-17
5074.18128 1.50141e-17
5075.65296 1.50303e-17
5077.12464 1.52371e-17
5078.58624 1.53133e-17
5080.05792 1.52763e-17
5081.52960 1.53982e-17
5083.00128 1.54652e-17
5084.47296 1.55249e-17
5085.94464 1.53019e-17
5087.40624 1.59055e-17
5088.87792 1.61981e-17
5090.34960 1.60650e-17
5091.82128 1.58499e-17
5093.29296 1.60458e-17
5094.76464 1.60611e-17
5096.22624 1.60364e-17
5097.69792 1.63783e-17
5099.16960 1.67790e-17
5100.64128 1.65701e-17
5102.11296 1.61686e-17
5103.58464 1.63673e-17
5105.04624 1.66441e-17
5106.51792 1.65903e-17
5107.98960 1.64552e-17
5109.46128 1.69251e-17
5110.93296 1.67836e-17
5112.40464 1.67962e-17
5113.86624 1.69765e-17
5115.33792 1.69493e-17
5116.80960 1.68910e-17
5118.28128 1.69285e-17
5119.75296 1.68472e-17
5121.22464 1.64676e-17
5122.68624 1.67733e-17
5124.15792 1.69457e-17
5125.62960 1.65981e-17
5127.10128 1.66863e-17
5128.57296 1.67621e-17
5130.04464 1.69024e-17
5131.50624 1.67319e-17
5132.97792 1.64540e-17
5134.44960 1.66202e-17
5135.92128 1.67002e-17
5137.39296 1.66873e-17
5138.86464 1.65128e-17
5140.32624 1.65165e-17
5141.79792 1.67392e-17
5143.26960 1.67265e-17
5144.74128 1.65577e-17
5146.21296 1.67745e-17
5147.68464 1.68756e-17
5149.14624 1.70109e-17
5150.61792 1.69707e-17
5152.08960 1.71033e-17
5153.56128 1.71142e-17
5155.03296 1.73873e-17
5156.50464 1.70328e-17
5157.96624 1.68118e-17
5159.43792 1.70660e-17
5160.90960 1.67746e-17
5162.38128 1.70920e-17
5163.85296 1.71021e-17
5165.32464 1.70272e-17
5166.78624 1.70482e-17
5168.25792 1.70953e-17
5169.72960 1.68728e-17
5171.20128 1.70341e-17
5172.67296 1.68481e-17
5174.14464 1.67286e-17
5175.60624 1.66615e-17
5177.07792 1.67142e-17
5178.54960 1.68415e-17
5180.02128 1.69939e-17
5181.49296 1.69929e-17
5182.96464 1.66861e-17
5184.42624 1.67401e-17
5185.89792 1.68685e-17
5187.36960 1.66333e-17
5188.84128 1.71078e-17
5190.31296 1.76297e-17
5191.78464 1.74449e-17
5193.24624 1.72009e-17
5194.71792 1.72580e-17
5196.18960 1.73238e-17
5197.66128 1.73807e-17
5199.13296 1.73372e-17
5200.60464 1.76215e-17
5202.06624 1.78839e-17
5203.53792 1.76695e-17
5205.00960 1.75397e-17
5206.48128 1.76510e-17
5207.95296 1.77346e-17
5209.42464 1.77221e-17
5210.88624 1.79928e-17
5212.35792 1.82705e-17
5213.82960 1.79888e-17
5215.30128 1.83828e-17
5216.77296 1.83296e-17
5218.24464 1.83909e-17
5219.70624 1.82689e-17
5221.17792 1.79368e-17
5222.64960 1.85337e-17
5224.12128 1.88021e-17
5225.59296 1.84297e-17
5227.06464 1.84128e-17
5228.52624 1.86335e-17
5229.99792 1.87481e-17
5231.46960 1.88012e-17
5232.94128 1.87032e-17
5234.41296 1.86183e-17
5235.88464 1.84670e-17
5237.34624 1.88516e-17
5238.81792 1.88107e-17
5240.28960 1.87039e-17
5241.76128 1.90661e-17
5243.23296 1.89650e-17
5244.70464 1.88189e-17
5246.16624 1.90466e-17
5247.63792 1.90821e-17
5249.10960 1.91967e-17
5250.58128 1.91468e-17
5252.05296 1.90509e-17
5253.52464 1.95012e-17
5254.98624 1.98446e-17
5256.45792 1.97259e-17
5257.92960 1.97079e-17
5259.40128 1.94666e-17
5260.87296 1.95887e-17
5262.34464 1.99413e-17
5263.80624 1.97725e-17
5265.27792 1.97337e-17
5266.74960 1.99286e-17
5268.22128 1.99306e-17
5269.69296 1.97109e-17
5271.16464 1.98222e-17
5272.62624 2.01489e-17
5274.09792 2.03012e-17
5275.56960 2.01664e-17
5277.04128 1.99472e-17
5278.51296 2.01142e-17
5279.98464 2.03283e-17
5281.44624 2.00237e-17
5282.91792 2.01477e-17
5284.38960 2.02030e-17
5285.86128 2.00438e-17
5287.33296 2.02444e-17
5288.80464 2.03708e-17
5290.26624 2.00581e-17
5291.73792 2.01027e-17
5293.20960 2.03232e-17
5294.68128 1.98891e-17
5296.15296 1.96384e-17
5297.62464 2.00663e-17
5299.08624 2.02191e-17
5300.55792 2.03552e-17
5302.02960 2.02711e-17
5303.50128 2.04351e-17
5304.97296 2.04114e-17
5306.44464 2.00244e-17
5307.90624 1.97876e-17
5309.37792 2.00585e-17
5310.84960 2.05582e-17
5312.32128 2.02466e-17
5313.79296 1.98958e-17
5315.26464 1.99501e-17
5316.72624 1.97882e-17
5318.19792 1.98168e-17
5319.66960 1.99029e-17
5321.14128 1.97115e-17
5322.61296 1.95961e-17
5324.08464 2.00292e-17
5325.54624 1.99969e-17
5327.01792 1.95438e-17
5328.48960 1.96398e-17
5329.96128 1.99859e-17
5331.43296 2.00214e-17
5332.90464 1.93438e-17
5334.36624 1.93638e-17
5335.83792 1.96666e-17
5337.30960 1.97322e-17
5338.78128 1.94928e-17
5340.25296 1.94402e-17
5341.72464 1.94694e-17
5343.18624 1.95101e-17
5344.65792 1.94795e-17
5346.12960 1.91594e-17
5347.60128 1.96096e-17
5349.07296 1.94442e-17
5350.54464 1.95756e-17
5352.00624 1.95959e-17
5353.47792 1.89758e-17
5354.94960 1.90765e-17
5356.42128 1.90578e-17
5357.89296 1.91771e-17
5359.36464 1.90501e-17
5360.82624 1.91260e-17
5362.29792 1.92518e-17
5363.76960 1.92866e-17
5365.24128 1.94482e-17
5366.71296 1.91858e-17
5368.18464 1.86508e-17
5369.64624 1.87816e-17
5371.11792 1.93462e-17
5372.58960 1.95665e-17
5374.06128 1.92223e-17
5375.53296 1.90896e-17
5377.00464 1.89934e-17
5378.46624 1.89503e-17
5379.93792 1.91847e-17
5381.40960 1.91909e-17
5382.88128 1.90706e-17
5384.35296 1.89381e-17
5385.82464 1.88790e-17
5387.28624 1.87520e-17
5388.75792 1.89140e-17
5390.22960 1.89713e-17
5391.70128 1.89640e-17
5393.17296 1.86021e-17
5394.64464 1.82940e-17
5396.10624 1.84070e-17
5397.57792 1.87744e-17
5399.04960 1.88104e-17
5400.52128 1.86497e-17
5401.99296 1.88471e-17
5403.46464 1.86582e-17
5404.92624 1.84753e-17
5406.39792 1.85419e-17
5407.86960 1.84398e-17
5409.34128 1.83538e-17
5410.81296 1.84475e-17
5412.28464 1.82346e-17
5413.74624 1.83322e-17
5415.21792 1.84865e-17
5416.68960 1.84222e-17
5418.16128 1.84876e-17
5419.63296 1.83324e-17
5421.10464 1.79323e-17
5422.56624 1.79548e-17
5424.03792 1.82258e-17
5425.50960 1.82747e-17
5426.98128 1.82286e-17
5428.45296 1.79595e-17
5429.92464 1.78781e-17
5431.38624 1.82214e-17
5432.85792 1.82908e-17
5434.32960 1.80703e-17
5435.80128 1.80134e-17
5437.27296 1.79515e-17
5438.74464 1.80635e-17
5440.20624 1.85055e-17
5441.67792 1.83899e-17
5443.14960 1.82179e-17
5444.62128 1.81712e-17
5446.09296 1.81197e-17
5447.56464 1.79134e-17
5449.02624 1.78821e-17
5450.49792 1.80316e-17
5451.96960 1.79966e-17
5453.44128 1.78256e-17
5454.91296 1.79290e-17
5456.38464 1.80483e-17
5457.84624 1.79823e-17
5459.31792 1.81313e-17
5460.78960 1.80988e-17
5462.26128 1.80475e-17
5463.73296 1.81218e-17
5465.20464 1.81596e-17
5466.66624 1.81353e-17
5468.13792 1.79717e-17
5469.60960 1.78664e-17
5471.08128 1.79307e-17
5472.55296 1.76817e-17
5474.02464 1.73422e-17
5475.48624 1.74926e-17
5476.95792 1.79938e-17
5478.42960 1.77713e-17
5479.90128 1.72470e-17
5481.37296 1.74356e-17
5482.84464 1.75895e-17
5484.30624 1.75009e-17
5485.77792 1.76027e-17
5487.24960 1.77376e-17
5488.72128 1.76169e-17
5490.19296 1.76092e-17
5491.66464 1.76178e-17
5493.12624 1.73184e-17
5494.59792 1.72281e-17
5496.06960 1.71823e-17
5497.54128 1.71935e-17
5499.01296 1.74370e-17
5500.48464 1.72021e-17
5501.94624 1.69976e-17
5503.41792 1.71567e-17
5504.88960 1.70854e-17
5506.36128 1.68109e-17
5507.83296 1.65914e-17
5509.30464 1.67348e-17
5510.76624 1.68821e-17
5512.23792 1.67002e-17
5513.70960 1.66712e-17
5515.18128 1.66748e-17
5516.65296 1.64874e-17
5518.12464 1.63277e-17
5519.58624 1.62692e-17
5521.05792 1.65697e-17
5522.52960 1.69045e-17
5524.00128 1.66549e-17
5525.47296 1.65580e-17
5526.94464 1.67538e-17
5528.40624 1.63861e-17
5529.87792 1.61642e-17
5531.34960 1.62650e-17
5532.82128 1.63215e-17
5534.29296 1.63769e-17
5535.76464 1.66286e-17
5537.22624 1.66193e-17
5538.69792 1.63740e-17
5540.16960 1.63121e-17
5541.64128 1.61194e-17
5543.11296 1.61295e-17
5544.58464 1.63356e-17
5546.04624 1.61959e-17
5547.51792 1.59087e-17
5548.98960 1.59383e-17
5550.46128 1.60875e-17
5551.93296 1.59827e-17
5553.40464 1.60112e-17
5554.86624 1.60124e-17
5556.33792 1.60381e-17
5557.80960 1.60486e-17
5559.28128 1.60833e-17
5560.75296 1.61512e-17
5562.22464 1.60490e-17
5563.68624 1.59366e-17
5565.15792 1.57099e-17
5566.62960 1.56593e-17
5568.10128 1.58438e-17
5569.57296 1.57989e-17
5571.04464 1.56557e-17
5572.50624 1.57828e-17
5573.97792 1.61354e-17
5575.44960 1.63306e-17
5576.92128 1.59341e-17
5578.39296 1.54252e-17
5579.86464 1.55616e-17
5581.32624 1.57917e-17
5582.79792 1.55781e-17
5584.26960 1.53910e-17
5585.74128 1.54957e-17
5587.21296 1.54718e-17
5588.68464 1.53670e-17
5590.14624 1.53363e-17
5591.61792 1.52310e-17
5593.08960 1.54405e-17
5594.56128 1.57565e-17
5596.03296 1.57526e-17
5597.50464 1.55198e-17
5598.96624 1.53633e-17
5600.43792 1.53425e-17
5601.90960 1.53586e-17
5603.38128 1.53610e-17
5604.85296 1.51174e-17
5606.32464 1.49373e-17
5607.78624 1.50076e-17
5609.25792 1.49391e-17
5610.72960 1.44769e-17
5612.20128 1.45189e-17
5613.67296 1.47008e-17
5615.14464 1.45634e-17
5616.60624 1.43279e-17
5618.07792 1.42808e-17
5619.54960 1.42140e-17
5621.02128 1.39133e-17
5622.49296 1.37021e-17
5623.96464 1.38516e-17
5625.42624 1.39003e-17
5626.89792 1.36745e-17
5628.36960 1.36884e-17
5629.84128 1.35989e-17
5631.31296 1.35230e-17
5632.78464 1.32683e-17
5634.24624 1.29273e-17
5635.71792 1.28863e-17
5637.18960 1.28794e-17
5638.66128 1.28400e-17
5640.13296 1.26889e-17
5641.60464 1.29081e-17
5643.06624 1.27535e-17
5644.53792 1.26767e-17
5646.00960 1.25304e-17
5647.48128 1.21362e-17
5648.95296 1.20381e-17
5650.42464 1.20665e-17
5651.88624 1.21031e-17
5653.35792 1.18356e-17
5654.82960 1.15006e-17
5656.30128 1.15359e-17
5657.77296 1.14595e-17
5659.24464 1.11871e-17
5660.70624 1.12935e-17
5662.17792 1.11532e-17
5663.64960 1.07959e-17
5665.12128 1.10189e-17
5666.59296 1.09334e-17
5668.06464 1.08659e-17
5669.52624 1.09573e-17
5670.99792 1.10632e-17
5672.46960 1.05707e-17
5673.94128 1.05843e-17
5675.41296 1.01728e-17
5676.88464 1.03819e-17
5678.34624 1.05989e-17
5679.81792 1.04692e-17
5681.28960 1.03617e-17
5682.76128 1.01893e-17
5684.23296 9.94352e-18
5685.70464 1.01218e-17
5687.16624 9.92187e-18
5688.63792 9.85984e-18
5690.10960 1.01334e-17
5691.58128 1.02408e-17
5693.05296 1.04539e-17
5694.52464 1.02998e-17
5695.98624 1.02318e-17
5697.45792 1.03012e-17
5698.92960 1.01716e-17
5700.40128 1.04270e-17
5701.87296 1.03738e-17
5703.34464 1.05787e-17
5704.80624 1.08342e-17
5706.27792 1.06751e-17
5707.74960 1.05217e-17
5709.22128 1.07416e-17
5710.69296 1.11033e-17
5712.16464 1.11993e-17
5713.62624 1.10504e-17
5715.09792 1.09790e-17
5716.56960 1.09376e-17
5718.04128 1.10962e-17
5719.51296 1.09009e-17
5720.98464 1.12616e-17
5722.44624 1.13320e-17
5723.91792 1.11326e-17
5725.38960 1.09005e-17
5726.86128 1.13056e-17
5728.33296 1.13476e-17
5729.80464 1.09357e-17
5731.26624 1.08708e-17
5732.73792 1.10249e-17
5734.20960 1.12392e-17
5735.68128 1.10512e-17
5737.15296 1.12824e-17
5738.62464 1.11804e-17
5740.08624 1.11761e-17
5741.55792 1.14760e-17
5743.02960 1.14329e-17
5744.50128 1.14376e-17
5745.97296 1.11555e-17
5747.44464 1.13044e-17
5748.90624 1.13601e-17
5750.37792 1.14802e-17
5751.84960 1.14297e-17
5753.32128 1.13569e-17
5754.79296 1.15284e-17
5756.26464 1.16757e-17
5757.72624 1.14037e-17
5759.19792 1.16105e-17
5760.66960 1.18571e-17
5762.14128 1.15818e-17
5763.61296 1.16777e-17
5765.08464 1.20858e-17
5766.54624 1.18536e-17
5768.01792 1.18845e-17
5769.48960 1.22486e-17
5770.96128 1.21781e-17
5772.43296 1.20329e-17
5773.90464 1.19717e-17
5775.36624 1.21480e-17
5776.83792 1.19773e-17
5778.30960 1.19629e-17
5779.78128 1.23843e-17
5781.25296 1.22242e-17
5782.72464 1.21485e-17
5784.18624 1.25394e-17
5785.65792 1.23812e-17
5787.12960 1.24078e-17
5788.60128 1.26044e-17
5790.07296 1.27482e-17
5791.54464 1.29053e-17
5793.00624 1.27866e-17
5794.47792 1.25662e-17
5795.94960 1.24763e-17
5797.42128 1.26562e-17
5798.89296 1.30196e-17
5800.36464 1.30514e-17
5801.82624 1.29648e-17
5803.29792 1.31577e-17
5804.76960 1.34843e-17
5806.24128 1.33051e-17
5807.71296 1.31783e-17
5809.18464 1.32878e-17
5810.64624 1.32776e-17
5812.11792 1.31728e-17
5813.58960 1.31922e-17
5815.06128 1.36172e-17
5816.53296 1.36166e-17
5818.00464 1.35027e-17
5819.46624 1.34961e-17
5820.93792 1.33646e-17
5822.40960 1.31778e-17
5823.88128 1.35440e-17
5825.35296 1.37022e-17
5826.82464 1.35680e-17
5828.28624 1.35879e-17
5829.75792 1.36252e-17
5831.22960 1.38741e-17
5832.70128 1.36362e-17
5834.17296 1.34676e-17
5835.64464 1.36508e-17
5837.10624 1.40515e-17
5838.57792 1.40049e-17
5840.04960 1.37931e-17
5841.52128 1.36651e-17
5842.99296 1.34148e-17
5844.46464 1.35800e-17
5845.92624 1.36783e-17
5847.39792 1.34462e-17
5848.86960 1.36065e-17
5850.34128 1.39718e-17
5851.81296 1.41473e-17
5853.28464 1.45888e-17
5854.74624 1.45325e-17
5856.21792 1.40172e-17
5857.68960 1.39873e-17
5859.16128 1.42275e-17
5860.63296 1.39729e-17
5862.10464 1.41733e-17
5863.56624 1.43481e-17
5865.03792 1.42091e-17
5866.50960 1.40999e-17
5867.98128 1.37168e-17
5869.45296 1.41407e-17
5870.92464 1.45678e-17
5872.38624 1.46620e-17
5873.85792 1.45071e-17
5875.32960 1.41378e-17
5876.80128 1.39812e-17
5878.27296 1.41006e-17
5879.74464 1.41785e-17
5881.20624 1.39764e-17
5882.67792 1.39649e-17
5884.14960 1.38023e-17
5885.62128 1.37167e-17
5887.09296 1.37731e-17
5888.56464 1.34489e-17
5890.02624 1.33282e-17
5891.49792 1.40214e-17
5892.96960 1.38229e-17
5894.44128 1.37151e-17
5895.91296 1.37224e-17
5897.38464 1.38029e-17
5898.84624 1.36496e-17
5900.31792 1.37956e-17
5901.78960 1.39704e-17
5903.26128 1.41646e-17
5904.73296 1.42771e-17
5906.20464 1.42038e-17
5907.66624 1.42725e-17
5909.13792 1.42543e-17
5910.60960 1.40794e-17
5912.08128 1.42269e-17
5913.55296 1.44613e-17
5915.02464 1.45134e-17
5916.48624 1.43463e-17
5917.95792 1.43235e-17
5919.42960 1.44151e-17
5920.90128 1.44947e-17
5922.37296 1.43945e-17
5923.84464 1.44019e-17
5925.30624 1.47891e-17
5926.77792 1.47427e-17
5928.24960 1.44794e-17
5929.72128 1.42629e-17
5931.19296 1.41154e-17
5932.66464 1.41603e-17
5934.12624 1.43435e-17
5935.59792 1.44098e-17
5937.06960 1.43961e-17
5938.54128 1.39495e-17
5940.01296 1.39329e-17
5941.48464 1.40936e-17
5942.94624 1.40840e-17
5944.41792 1.42553e-17
5945.88960 1.43736e-17
5947.36128 1.42860e-17
5948.83296 1.44342e-17
5950.30464 1.45056e-17
5951.76624 1.43704e-17
5953.23792 1.43106e-17
5954.70960 1.45794e-17
5956.18128 1.43357e-17
5957.65296 1.40402e-17
5959.12464 1.42143e-17
5960.58624 1.41826e-17
5962.05792 1.41539e-17
5963.52960 1.41595e-17
5965.00128 1.42327e-17
5966.47296 1.42480e-17
5967.94464 1.41365e-17
5969.40624 1.40564e-17
5970.87792 1.41710e-17
5972.34960 1.40099e-17
5973.82128 1.37505e-17
5975.29296 1.42692e-17
5976.76464 1.45628e-17
5978.22624 1.40553e-17
5979.69792 1.36902e-17
5981.16960 1.38605e-17
5982.64128 1.41001e-17
5984.11296 1.38081e-17
5985.58464 1.35748e-17
5987.04624 1.36398e-17
5988.51792 1.36245e-17
5989.98960 1.37572e-17
5991.46128 1.37859e-17
5992.93296 1.34494e-17
5994.40464 1.34609e-17
5995.86624 1.36269e-17
5997.33792 1.35899e-17
5998.80960 1.36433e-17
6000.28128 1.35940e-17
6001.75296 1.35578e-17
6003.22464 1.36781e-17
6004.68624 1.35067e-17
6006.15792 1.33474e-17
6007.62960 1.34324e-17
6009.10128 1.35778e-17
6010.57296 1.35820e-17
6012.04464 1.34507e-17
6013.50624 1.33195e-17
6014.97792 1.32361e-17
6016.44960 1.32839e-17
6017.92128 1.31346e-17
6019.39296 1.29173e-17
6020.86464 1.32192e-17
6022.32624 1.34811e-17
6023.79792 1.31137e-17
6025.26960 1.29696e-17
6026.74128 1.31279e-17
6028.21296 1.29688e-17
6029.68464 1.28611e-17
6031.14624 1.29430e-17
6032.61792 1.29075e-17
6034.08960 1.29654e-17
6035.56128 1.29668e-17
6037.03296 1.29255e-17
6038.50464 1.30118e-17
6039.96624 1.29879e-17
6041.43792 1.27971e-17
6042.90960 1.27205e-17
6044.38128 1.27525e-17
6045.85296 1.29133e-17
6047.32464 1.30747e-17
6048.78624 1.28085e-17
6050.25792 1.25692e-17
6051.72960 1.29264e-17
6053.20128 1.31733e-17
6054.67296 1.29178e-17
6056.14464 1.27153e-17
6057.60624 1.28592e-17
6059.07792 1.29998e-17
6060.54960 1.28209e-17
6062.02128 1.26335e-17
6063.49296 1.27859e-17
6064.96464 1.28101e-17
6066.42624 1.26882e-17
6067.89792 1.27901e-17
6069.36960 1.27081e-17
6070.84128 1.26293e-17
6072.31296 1.26733e-17
6073.78464 1.26117e-17
6075.24624 1.26146e-17
6076.71792 1.27711e-17
6078.18960 1.26866e-17
6079.66128 1.25923e-17
6081.13296 1.26896e-17
6082.60464 1.26268e-17
6084.06624 1.26119e-17
6085.53792 1.25624e-17
6087.00960 1.25508e-17
6088.48128 1.25439e-17
6089.95296 1.24012e-17
6091.42464 1.26620e-17
6092.88624 1.26159e-17
6094.35792 1.23832e-17
6095.82960 1.24849e-17
6097.30128 1.26406e-17
6098.77296 1.30497e-17
6100.24464 1.31108e-17
6101.70624 1.28777e-17
6103.17792 1.28429e-17
6104.64960 1.27973e-17
6106.12128 1.27950e-17
6107.59296 1.25910e-17
6109.06464 1.25851e-17
6110.52624 1.28616e-17
6111.99792 1.29305e-17
6113.46960 1.27276e-17
6114.94128 1.25737e-17
6116.41296 1.27886e-17
6117.88464 1.27583e-17
6119.34624 1.26040e-17
6120.81792 1.26994e-17
6122.28960 1.25859e-17
6123.76128 1.25176e-17
6125.23296 1.28555e-17
6126.70464 1.30780e-17
6128.16624 1.28676e-17
6129.63792 1.30305e-17
6131.10960 1.28364e-17
6132.58128 1.27072e-17
6134.05296 1.28185e-17
6135.52464 1.29392e-17
6136.98624 1.28534e-17
6138.45792 1.27090e-17
6139.92960 1.27765e-17
6141.40128 1.27168e-17
6142.87296 1.27082e-17
6144.34464 1.25801e-17
6145.80624 1.26258e-17
6147.27792 1.26151e-17
6148.74960 1.27504e-17
6150.22128 1.28497e-17
6151.69296 1.29091e-17
6153.16464 1.29449e-17
6154.62624 1.27151e-17
6156.09792 1.23824e-17
6157.56960 1.23569e-17
6159.04128 1.23559e-17
6160.51296 1.26539e-17
6161.98464 1.27745e-17
6163.44624 1.28414e-17
6164.91792 1.25977e-17
6166.38960 1.24905e-17
6167.86128 1.24386e-17
6169.33296 1.21968e-17
6170.80464 1.21632e-17
6172.26624 1.25078e-17
6173.73792 1.25115e-17
6175.20960 1.21414e-17
6176.68128 1.19185e-17
6178.15296 1.17653e-17
6179.62464 1.20341e-17
6181.08624 1.20047e-17
6182.55792 1.17228e-17
6184.02960 1.13481e-17
6185.50128 1.12509e-17
6186.97296 1.15049e-17
6188.44464 1.14118e-17
6189.90624 1.13186e-17
6191.37792 1.12440e-17
6192.84960 1.10437e-17
6194.32128 1.10099e-17
6195.79296 1.09498e-17
6197.26464 1.09257e-17
6198.72624 1.09809e-17
6200.19792 1.06469e-17
6201.66960 1.05296e-17
6203.14128 1.06159e-17
6204.61296 1.04728e-17
6206.08464 1.04425e-17
6207.54624 1.04542e-17
6209.01792 1.03916e-17
6210.48960 1.02407e-17
6211.96128 1.01499e-17
6213.43296 9.98601e-18
6214.90464 9.83009e-18
6216.36624 9.79001e-18
6217.83792 9.86649e-18
6219.30960 9.90837e-18
6220.78128 9.85611e-18
6222.25296 9.82726e-18
6223.72464 9.73066e-18
6225.18624 9.86373e-18
6226.65792 9.80034e-18
6228.12960 9.64080e-18
6229.60128 9.58047e-18
6231.07296 9.51480e-18
6232.54464 9.79401e-18
6234.00624 9.94330e-18
6235.47792 9.65435e-18
6236.94960 9.45440e-18
6238.42128 9.66030e-18
6239.89296 9.76086e-18
6241.36464 9.66776e-18
6242.82624 9.68254e-18
6244.29792 9.65563e-18
6245.76960 9.67253e-18
6247.24128 9.72094e-18
6248.71296 9.74986e-18
6250.18464 9.72500e-18
6251.64624 9.90238e-18
6253.11792 9.80818e-18
6254.58960 9.95793e-18
6256.06128 9.93399e-18
6257.53296 9.95159e-18
6259.00464 1.00106e-17
6260.46624 1.01080e-17
6261.93792 1.01770e-17
6263.40960 1.00245e-17
6264.88128 9.70950e-18
6266.35296 9.92572e-18
6267.82464 1.01817e-17
6269.28624 1.02140e-17
6270.75792 1.01135e-17
6272.22960 1.00907e-17
6273.70128 1.00469e-17
6275.17296 1.00067e-17
6276.64464 1.01058e-17
6278.10624 1.04078e-17
6279.57792 1.02045e-17
6281.04960 1.03403e-17
6282.52128 1.01908e-17
6283.99296 1.04881e-17
6285.46464 1.03707e-17
6286.92624 1.01216e-17
6288.39792 1.04348e-17
6289.86960 1.03791e-17
6291.34128 1.03228e-17
6292.81296 1.03678e-17
6294.28464 1.08593e-17
6295.74624 1.06909e-17
6297.21792 1.07519e-17
6298.68960 1.07385e-17
6300.16128 1.07113e-17
6301.63296 1.08254e-17
6303.10464 1.09301e-17
6304.56624 1.10002e-17
6306.03792 1.09831e-17
6307.50960 1.13007e-17
6308.98128 1.11005e-17
6310.45296 1.10612e-17
6311.92464 1.13536e-17
6313.38624 1.12350e-17
6314.85792 1.11948e-17
6316.32960 1.11923e-17
6317.80128 1.10243e-17
6319.27296 1.09919e-17
6320.74464 1.12890e-17
6322.20624 1.12524e-17
6323.67792 1.11405e-17
6325.14960 1.11516e-17
6326.62128 1.10341e-17
6328.09296 1.13176e-17
6329.56464 1.11357e-17
6331.02624 1.12382e-17
6332.49792 1.11509e-17
6333.96960 1.11658e-17
6335.44128 1.13246e-17
6336.91296 1.14987e-17
6338.38464 1.15449e-17
6339.84624 1.15496e-17
6341.31792 1.16048e-17
6342.78960 1.14290e-17
6344.26128 1.12598e-17
6345.73296 1.15648e-17
6347.20464 1.20821e-17
6348.66624 1.16235e-17
6350.13792 1.18434e-17
6351.60960 1.20736e-17
6353.08128 1.17155e-17
6354.55296 1.18167e-17
6356.02464 1.15120e-17
6357.48624 1.16427e-17
6358.95792 1.21266e-17
6360.42960 1.18380e-17
6361.90128 1.17560e-17
6363.37296 1.22028e-17
6364.84464 1.20734e-17
6366.30624 1.17950e-17
6367.77792 1.17615e-17
6369.24960 1.19811e-17
6370.72128 1.20303e-17
6372.19296 1.18436e-17
6373.66464 1.20039e-17
6375.12624 1.20880e-17
6376.59792 1.18948e-17
6378.06960 1.20610e-17
6379.54128 1.22253e-17
6381.01296 1.23777e-17
6382.48464 1.21654e-17
6383.94624 1.21329e-17
6385.41792 1.22164e-17
6386.88960 1.23499e-17
6388.36128 1.22700e-17
6389.83296 1.21945e-17
6391.30464 1.19879e-17
6392.76624 1.19965e-17
6394.23792 1.21046e-17
6395.70960 1.19439e-17
6397.18128 1.19803e-17
6398.65296 1.19821e-17
6400.12464 1.21012e-17
6401.58624 1.22264e-17
6403.05792 1.20094e-17
6404.52960 1.19018e-17
6406.00128 1.19521e-17
6407.47296 1.17942e-17
6408.94464 1.19446e-17
6410.40624 1.19725e-17
6411.87792 1.17918e-17
6413.34960 1.17751e-17
6414.82128 1.16822e-17
6416.29296 1.17585e-17
6417.76464 1.16525e-17
6419.22624 1.14713e-17
6420.69792 1.14968e-17
6422.16960 1.13776e-17
6423.64128 1.12631e-17
6425.11296 1.13435e-17
6426.58464 1.13879e-17
6428.04624 1.14140e-17
6429.51792 1.10901e-17
6430.98960 1.08152e-17
6432.46128 1.09621e-17
6433.93296 1.09533e-17
6435.40464 1.09906e-17
6436.86624 1.08369e-17
6438.33792 1.05509e-17
6439.80960 1.06479e-17
6441.28128 1.06814e-17
6442.75296 1.06630e-17
6444.22464 1.06412e-17
6445.68624 1.03166e-17
6447.15792 1.03541e-17
6448.62960 1.04994e-17
6450.10128 1.04169e-17
6451.57296 1.05268e-17
6453.04464 1.08418e-17
6454.50624 1.07168e-17
6455.97792 1.04871e-17
6457.44960 1.02492e-17
6458.92128 1.03424e-17
6460.39296 1.02565e-17
6461.86464 9.81548e-18
6463.32624 1.01593e-17
6464.79792 1.01689e-17
6466.26960 1.00569e-17
6467.74128 1.00925e-17
6469.21296 1.01041e-17
6470.68464 1.03832e-17
6472.14624 1.01374e-17
6473.61792 1.01768e-17
6475.08960 1.02776e-17
6476.56128 1.02680e-17
6478.03296 1.03139e-17
6479.50464 1.02918e-17
6480.96624 1.04605e-17
6482.43792 1.03429e-17
6483.90960 1.01474e-17
6485.38128 1.04108e-17
6486.85296 1.03578e-17
6488.32464 1.04273e-17
6489.78624 1.04955e-17
6491.25792 1.05165e-17
6492.72960 1.05456e-17
6494.20128 1.07239e-17
6495.67296 1.07744e-17
6497.14464 1.07756e-17
6498.60624 1.08553e-17
6500.07792 1.08154e-17
6501.54960 1.09076e-17
6503.02128 1.09415e-17
6504.49296 1.08829e-17
6505.96464 1.08290e-17
6507.42624 1.08885e-17
6508.89792 1.09346e-17
6510.36960 1.10253e-17
6511.84128 1.09031e-17
6513.31296 1.06545e-17
6514.78464 1.08093e-17
6516.24624 1.09915e-17
6517.71792 1.10365e-17
6519.18960 1.09171e-17
6520.66128 1.07141e-17
6522.13296 1.07527e-17
6523.60464 1.08111e-17
6525.06624 1.08182e-17
6526.53792 1.08857e-17
6528.00960 1.11665e-17
6529.48128 1.11433e-17
6530.95296 1.11171e-17
6532.42464 1.07518e-17
6533.88624 1.07518e-17
6535.35792 1.10359e-17
6536.82960 1.11423e-17
6538.30128 1.11827e-17
6539.77296 1.10607e-17
6541.24464 1.10486e-17
6542.70624 1.08448e-17
6544.17792 1.08028e-17
6545.64960 1.11342e-17
6547.12128 1.12288e-17
6548.59296 1.13365e-17
6550.06464 1.12332e-17
6551.52624 1.10768e-17
6552.99792 1.11659e-17
6554.46960 1.14226e-17
6555.94128 1.14248e-17
6557.41296 1.09248e-17
6558.88464 1.09494e-17
6560.34624 1.13634e-17
6561.81792 1.12238e-17
6563.28960 1.10278e-17
6564.76128 1.11043e-17
6566.23296 1.11253e-17
6567.70464 1.10938e-17
6569.16624 1.10412e-17
6570.63792 1.10079e-17
6572.10960 1.11529e-17
6573.58128 1.09920e-17
6575.05296 1.09367e-17
6576.52464 1.09362e-17
6577.98624 1.09799e-17
6579.45792 1.12814e-17
6580.92960 1.12197e-17
6582.40128 1.11533e-17
6583.87296 1.12319e-17
6585.34464 1.12293e-17
6586.80624 1.12267e-17
6588.27792 1.12241e-17
6589.74960 1.12215e-17
6591.22128 1.12189e-17
6592.69296 1.12162e-17
6594.16464 1.12136e-17
6595.62624 1.12110e-17
6597.09792 1.12084e-17
6598.56960 1.12058e-17
6600.04128 1.12032e-17
6601.51296 1.12006e-17
6602.98464 1.11980e-17
6604.44624 1.11954e-17
6605.91792 1.11928e-17
6607.38960 1.11902e-17
6608.86128 1.11876e-17
6610.33296 1.11850e-17
6611.80464 1.11824e-17
6613.26624 1.11797e-17
6614.73792 1.11771e-17
6616.20960 1.11745e-17
6617.68128 1.11719e-17
6619.15296 1.11693e-17
6620.62464 1.11667e-17
6622.08624 1.11641e-17
6623.55792 1.11615e-17
6625.02960 1.11589e-17
6626.50128 1.11563e-17
6627.97296 1.11537e-17
6629.44464 1.11511e-17
6630.90624 1.11485e-17
6632.37792 1.11459e-17
6633.84960 1.11433e-17
6635.32128 1.11407e-17
6636.79296 1.11381e-17
6638.26464 1.11355e-17
6639.72624 1.11329e-17
6641.19792 1.11303e-17
6642.66960 1.11277e-17
6644.14128 1.11252e-17
6645.61296 1.11226e-17
6647.08464 1.09693e-17
6648.54624 1.09875e-17
6650.01792 1.12729e-17
6651.48960 1.12860e-17
6652.96128 1.10502e-17
6654.43296 1.11454e-17
6655.90464 1.11527e-17
6657.36624 1.11552e-17
6658.83792 1.13483e-17
6660.30960 1.13232e-17
6661.78128 1.11992e-17
6663.25296 1.12917e-17
6664.72464 1.13277e-17
6666.18624 1.12357e-17
6667.65792 1.10620e-17
6669.12960 1.09669e-17
6670.60128 1.11412e-17
6672.07296 1.12785e-17
6673.54464 1.13633e-17
6675.00624 1.11975e-17
6676.47792 1.10533e-17
6677.94960 1.11903e-17
6679.42128 1.11557e-17
6680.89296 1.10555e-17
6682.36464 1.10028e-17
6683.82624 1.11110e-17
6685.29792 1.12656e-17
6686.76960 1.13185e-17
6688.24128 1.12813e-17
6689.71296 1.11501e-17
6691.18464 1.10873e-17
6692.64624 1.10788e-17
6694.11792 1.10266e-17
6695.58960 1.10976e-17
6697.06128 1.11589e-17
6698.53296 1.09729e-17
6700.00464 1.09080e-17
6701.46624 1.09557e-17
6702.93792 1.09265e-17
6704.40960 1.06976e-17
6705.88128 1.07564e-17
6707.35296 1.08782e-17
6708.82464 1.08852e-17
6710.28624 1.09274e-17
6711.75792 1.07559e-17
6713.22960 1.07416e-17
6714.70128 1.06718e-17
6716.17296 1.04994e-17
6717.64464 1.08898e-17
6719.10624 1.07843e-17
6720.57792 1.06405e-17
6722.04960 1.08485e-17
6723.52128 1.09522e-17
6724.99296 1.08070e-17
6726.46464 1.07482e-17
6727.92624 1.07717e-17
6729.39792 1.09839e-17
6730.86960 1.10291e-17
6732.34128 1.08651e-17
6733.81296 1.07647e-17
6735.28464 1.08833e-17
6736.74624 1.09323e-17
6738.21792 1.07539e-17
6739.68960 1.06692e-17
6741.16128 1.07534e-17
6742.63296 1.05523e-17
6744.10464 1.07179e-17
6745.56624 1.05440e-17
6747.03792 1.05584e-17
6748.50960 1.06118e-17
6749.98128 1.05298e-17
6751.45296 1.04548e-17
6752.92464 1.03620e-17
6754.38624 1.03460e-17
6755.85792 1.02722e-17
6757.32960 1.04472e-17
6758.80128 1.05467e-17
6760.27296 1.05490e-17
6761.74464 1.04045e-17
6763.20624 1.04294e-17
6764.67792 1.06189e-17
6766.14960 1.07477e-17
6767.62128 1.07048e-17
6769.09296 1.06996e-17
6770.56464 1.07672e-17
6772.02624 1.07167e-17
6773.49792 1.07211e-17
6774.96960 1.04281e-17
6776.44128 1.04092e-17
6777.91296 1.01931e-17
6779.38464 1.03051e-17
6780.84624 1.02003e-17
6782.31792 1.01630e-17
6783.78960 1.03637e-17
6785.26128 1.06247e-17
6786.73296 1.03468e-17
6788.20464 1.00517e-17
6789.66624 1.00161e-17
6791.13792 1.00655e-17
6792.60960 9.86435e-18
6794.08128 9.79305e-18
6795.55296 9.98035e-18
6797.02464 9.89881e-18
6798.48624 9.96175e-18
6799.95792 9.95048e-18
6801.42960 9.87440e-18
6802.90128 9.75498e-18
6804.37296 9.83425e-18
6805.84464 9.73897e-18
6807.30624 9.82377e-18
6808.77792 9.90448e-18
6810.24960 9.82823e-18
6811.72128 9.85244e-18
6813.19296 9.87629e-18
6814.66464 9.77681e-18
6816.12624 9.79218e-18
6817.59792 9.79388e-18
6819.06960 9.56162e-18
6820.54128 9.60724e-18
6822.01296 9.41854e-18
6823.48464 9.28186e-18
6824.94624 9.36204e-18
6826.41792 9.17979e-18
6827.88960 9.46949e-18
6829.36128 9.44888e-18
6830.83296 9.28277e-18
6832.30464 9.43723e-18
6833.76624 9.34337e-18
6835.23792 9.40628e-18
6836.70960 9.30887e-18
6838.18128 9.05006e-18
6839.65296 9.15743e-18
6841.12464 9.09245e-18
6842.58624 8.96165e-18
6844.05792 9.09299e-18
6845.52960 9.26521e-18
6847.00128 8.96051e-18
6848.47296 8.87654e-18
6849.94464 9.02400e-18
6851.40624 9.11436e-18
6852.87792 9.13399e-18
6854.34960 9.22515e-18
6855.82128 9.32939e-18
6857.29296 9.24928e-18
6858.76464 9.44596e-18
6860.22624 9.37342e-18
6861.69792 9.17278e-18
6863.16960 9.20620e-18
6864.64128 9.33679e-18
6866.11296 9.14589e-18
6867.58464 9.08105e-18
6869.04624 9.20756e-18
6870.51792 9.29529e-18
6871.98960 9.10450e-18
6873.46128 8.94024e-18
6874.93296 9.08030e-18
6876.40464 9.18247e-18
6877.86624 9.39172e-18
6879.33792 9.10750e-18
6880.80960 9.12665e-18
6882.28128 9.20773e-18
6883.75296 9.02403e-18
6885.22464 9.16960e-18
6886.68624 9.02033e-18
6888.15792 8.85580e-18
6889.62960 8.93830e-18
6891.10128 9.13519e-18
6892.57296 8.93023e-18
6894.04464 9.04660e-18
6895.50624 8.95501e-18
6896.97792 9.05288e-18
6898.44960 9.20171e-18
6899.92128 8.82766e-18
6901.39296 9.10797e-18
6902.86464 9.22541e-18
6904.32624 8.92834e-18
6905.79792 8.83690e-18
6907.26960 9.05499e-18
6908.74128 8.93741e-18
6910.21296 8.84180e-18
6911.68464 9.20037e-18
6913.14624 8.88648e-18
6914.61792 8.73366e-18
6916.08960 8.70207e-18
6917.56128 8.85212e-18
6919.03296 8.66732e-18
6920.50464 8.96794e-18
6921.96624 8.88590e-18
6923.43792 8.70652e-18
6924.90960 8.66878e-18
6926.38128 8.55131e-18
6927.85296 8.56864e-18
6929.32464 8.83037e-18
6930.78624 8.61844e-18
6932.25792 8.73046e-18
6933.72960 8.62229e-18
6935.20128 8.58637e-18
6936.67296 8.56497e-18
6938.14464 8.49961e-18
6939.60624 8.73688e-18
6941.07792 8.67038e-18
6942.54960 8.53702e-18
6944.02128 8.48075e-18
6945.49296 8.51067e-18
6946.96464 8.60428e-18
6948.42624 8.37591e-18
6949.89792 8.62028e-18
6951.36960 8.70961e-18
6952.84128 8.65154e-18
6954.31296 8.41300e-18
6955.78464 8.36844e-18
6957.24624 8.34822e-18
6958.71792 8.29537e-18
6960.18960 8.21325e-18
6961.66128 8.50874e-18
6963.13296 8.72525e-18
6964.60464 8.60317e-18
6966.06624 8.88183e-18
6967.53792 9.16736e-18
6969.00960 8.87938e-18
6970.48128 8.64444e-18
6971.95296 8.63891e-18
6973.42464 8.85369e-18
6974.88624 8.90146e-18
6976.35792 8.95115e-18
6977.82960 9.12024e-18
6979.30128 8.90954e-18
6980.77296 8.86765e-18
6982.24464 8.96217e-18
6983.70624 8.75283e-18
6985.17792 8.44299e-18
6986.64960 8.50069e-18
6988.12128 8.37554e-18
6989.59296 8.48556e-18
6991.06464 8.67649e-18
6992.52624 8.87794e-18
6993.99792 8.85783e-18
6995.46960 8.79069e-18
6996.94128 8.74439e-18
6998.41296 8.72667e-18
6999.88464 8.83078e-18
7001.34624 8.62000e-18
7002.81792 8.65262e-18
7004.28960 8.82947e-18
7005.76128 8.84341e-18
7007.23296 8.93623e-18
7008.70464 8.71120e-18
7010.16624 8.83578e-18
7011.63792 1.16291e-17
7013.10960 1.04942e-17
7014.58128 8.99302e-18
7016.05296 8.93415e-18
7017.52464 8.85195e-18
7018.98624 8.71405e-18
7020.45792 8.92547e-18
7021.92960 8.81931e-18
7023.40128 8.86447e-18
7024.87296 8.83352e-18
7026.34464 8.51540e-18
7027.80624 8.53147e-18
7029.27792 8.85933e-18
7030.74960 8.83535e-18
7032.22128 9.07006e-18
7033.69296 9.19384e-18
7035.16464 8.99086e-18
7036.62624 9.00539e-18
7038.09792 8.76428e-18
7039.56960 8.79097e-18
7041.04128 8.98841e-18
7042.51296 8.94353e-18
7043.98464 9.03719e-18
7045.44624 9.15439e-18
7046.91792 8.93866e-18
7048.38960 8.90463e-18
7049.86128 8.97458e-18
7051.33296 8.99353e-18
7052.80464 9.06031e-18
7054.26624 8.97165e-18
7055.73792 8.78055e-18
7057.20960 8.98906e-18
7058.68128 9.11099e-18
7060.15296 9.10211e-18
7061.62464 9.07955e-18
7063.08624 9.10508e-18
7064.55792 8.99966e-18
7066.02960 9.05452e-18
7067.50128 9.16781e-18
7068.97296 9.27460e-18
7070.44464 9.37709e-18
7071.90624 9.25096e-18
7073.37792 9.04559e-18
7074.84960 9.03436e-18
7076.32128 8.95268e-18
7077.79296 8.94568e-18
7079.26464 9.30743e-18
7080.72624 9.41291e-18
7082.19792 9.37247e-18
7083.66960 9.26411e-18
7085.14128 9.03722e-18
7086.61296 9.06250e-18
7088.08464 9.09742e-18
7089.54624 8.94935e-18
7091.01792 9.11520e-18
7092.48960 9.29780e-18
7093.96128 9.32446e-18
7095.43296 9.22177e-18
7096.90464 9.18712e-18
7098.36624 9.12937e-18
7099.83792 9.14450e-18
7101.30960 9.27711e-18
7102.78128 9.22899e-18
7104.25296 9.09968e-18
7105.72464 9.17854e-18
7107.18624 9.28126e-18
7108.65792 9.25541e-18
7110.12960 9.22595e-18
7111.60128 9.04753e-18
7113.07296 8.84695e-18
7114.54464 8.72287e-18
7116.00624 8.76803e-18
7117.47792 9.16434e-18
7118.94960 9.29066e-18
7120.42128 9.10232e-18
7121.89296 9.00458e-18
7123.36464 8.96252e-18
7124.82624 8.99720e-18
7126.29792 9.08677e-18
7127.76960 9.11316e-18
7129.24128 9.13995e-18
7130.71296 9.04320e-18
7132.18464 9.07323e-18
7133.64624 9.35844e-18
7135.11792 9.38456e-18
7136.58960 9.22535e-18
7138.06128 9.28107e-18
7139.53296 9.36000e-18
7141.00464 9.40655e-18
7142.46624 9.29958e-18
7143.93792 9.16426e-18
7145.40960 9.19784e-18
7146.88128 9.13250e-18
7148.35296 9.05050e-18
7149.82464 8.93666e-18
7151.28624 8.85813e-18
7152.75792 8.91024e-18
7154.22960 9.00577e-18
7155.70128 9.11155e-18
7157.17296 9.25360e-18
7158.64464 9.38998e-18
7160.10624 9.38205e-18
7161.57792 9.38139e-18
7163.04960 9.47428e-18
7164.52128 9.38980e-18
7165.99296 9.09818e-18
7167.46464 8.83050e-18
7168.92624 8.67334e-18
7170.39792 8.58764e-18
7171.86960 8.41057e-18
7173.34128 8.25429e-18
7174.81296 8.32632e-18
7176.28464 8.37037e-18
7177.74624 8.39853e-18
7179.21792 8.55197e-18
7180.68960 8.35403e-18
7182.16128 8.10425e-18
7183.63296 8.05360e-18
7185.10464 7.56692e-18
7186.56624 7.57485e-18
7188.03792 8.31954e-18
7189.50960 8.56262e-18
7190.98128 8.30479e-18
7192.45296 8.09012e-18
7193.92464 8.41415e-18
7195.38624 8.83119e-18
7196.85792 8.69136e-18
7198.32960 8.42804e-18
7199.80128 8.30993e-18
7201.27296 8.26181e-18
7202.74464 8.30859e-18
7204.20624 8.42632e-18
7205.67792 8.49278e-18
7207.14960 8.74033e-18
7208.62128 9.24007e-18
7210.09296 9.55839e-18
7211.56464 9.65451e-18
7213.02624 9.65468e-18
7214.49792 9.43405e-18
7215.96960 9.15590e-18
7217.44128 9.26761e-18
7218.91296 9.56138e-18
7220.38464 9.48812e-18
7221.84624 9.31381e-18
7223.31792 9.39891e-18
7224.78960 9.26549e-18
7226.26128 9.12595e-18
7227.73296 9.35709e-18
7229.20464 9.48249e-18
7230.66624 9.04789e-18
7232.13792 8.44861e-18
7233.60960 8.19275e-18
7235.08128 8.46300e-18
7236.55296 8.96976e-18
7238.02464 9.08193e-18
7239.48624 8.86774e-18
7240.95792 8.67071e-18
7242.42960 8.75817e-18
7243.90128 8.98886e-18
7245.37296 9.06020e-18
7246.84464 9.21542e-18
7248.30624 9.17321e-18
7249.77792 8.80794e-18
7251.24960 8.41913e-18
7252.72128 8.20181e-18
7254.19296 8.35915e-18
7255.66464 8.91144e-18
7257.12624 9.10446e-18
7258.59792 8.78832e-18
7260.06960 8.74999e-18
7261.54128 8.83340e-18
7263.01296 8.44316e-18
7264.48464 8.26012e-18
7265.94624 8.70239e-18
7267.41792 9.07036e-18
7268.88960 9.15953e-18
7270.36128 9.18323e-18
7271.83296 8.90845e-18
7273.30464 8.67045e-18
7274.76624 8.35434e-18
7276.23792 8.36790e-18
7277.70960 8.75298e-18
7279.18128 9.10252e-18
7280.65296 9.10470e-18
7282.12464 9.13916e-18
7283.58624 9.13675e-18
7285.05792 9.11199e-18
7286.52960 8.83698e-18
7288.00128 8.54724e-18
7289.47296 8.21710e-18
7290.94464 8.52000e-18
7292.40624 8.54078e-18
7293.87792 8.36535e-18
7295.34960 8.75199e-18
7296.82128 9.03132e-18
7298.29296 8.89494e-18
7299.76464 8.53250e-18
7301.22624 8.49179e-18
7302.69792 8.31387e-18
7304.16960 8.31992e-18
7305.64128 8.66135e-18
7307.11296 8.86062e-18
7308.58464 8.89491e-18
7310.04624 8.95038e-18
7311.51792 9.02226e-18
7312.98960 9.06697e-18
7314.46128 8.89209e-18
7315.93296 8.73408e-18
7317.40464 8.58111e-18
7318.86624 8.63788e-18
7320.33792 8.89522e-18
7321.80960 9.19384e-18
7323.28128 9.30701e-18
7324.75296 9.06353e-18
7326.22464 8.88177e-18
7327.68624 8.89929e-18
7329.15792 8.92260e-18
7330.62960 8.92284e-18
7332.10128 8.54257e-18
7333.57296 8.52950e-18
7335.04464 8.73512e-18
7336.50624 8.96128e-18
7337.97792 9.02684e-18
7339.44960 8.93224e-18
7340.92128 9.25531e-18
7342.39296 8.86474e-18
7343.86464 8.75793e-18
7345.32624 8.89384e-18
7346.79792 8.88408e-18
7348.26960 9.02334e-18
7349.74128 8.92028e-18
7351.21296 8.66559e-18
7352.68464 8.78050e-18
7354.14624 9.16683e-18
7355.61792 9.12310e-18
7357.08960 8.89206e-18
7358.56128 8.97162e-18
7360.03296 8.94999e-18
7361.50464 8.87347e-18
7362.96624 8.73455e-18
7364.43792 8.76229e-18
7365.90960 8.86161e-18
7367.38128 8.74151e-18
7368.85296 8.79262e-18
7370.32464 8.88626e-18
7371.78624 8.94778e-18
7373.25792 8.85488e-18
7374.72960 8.74349e-18
7376.20128 8.68483e-18
7377.67296 8.89782e-18
7379.14464 8.90411e-18
7380.60624 9.03465e-18
7382.07792 9.03460e-18
7383.54960 9.00853e-18
7385.02128 9.02550e-18
7386.49296 9.12489e-18
7387.96464 9.13122e-18
7389.42624 9.02206e-18
7390.89792 8.65316e-18
7392.36960 8.74819e-18
7393.84128 8.76543e-18
7395.31296 8.67537e-18
7396.78464 8.62588e-18
7398.24624 8.74244e-18
7399.71792 8.83390e-18
7401.18960 9.13428e-18
7402.66128 8.95641e-18
7404.13296 8.65947e-18
7405.60464 8.92087e-18
7407.06624 9.22791e-18
7408.53792 9.19971e-18
7410.00960 9.05820e-18
7411.48128 9.23770e-18
7412.95296 9.14307e-18
7414.42464 9.07571e-18
7415.88624 8.77434e-18
7417.35792 8.50350e-18
7418.50888 8.50350e-18
7420.16647 8.25530e-18
7421.82406 8.41726e-18
7423.48165 8.57920e-18
7425.14929 8.65356e-18
7426.80688 8.72790e-18
7428.46447 8.69969e-18
7430.13211 8.67143e-18
7431.78970 8.46655e-18
7433.44729 8.26170e-18
7435.10488 8.19333e-18
7436.77251 8.12503e-18
7438.43010 8.30264e-18
7440.08769 8.48016e-18
7441.74528 8.36877e-18
7443.41292 8.25742e-18
7445.07051 8.26676e-18
7446.72810 8.27611e-18
7448.39573 8.37303e-18
7450.05332 8.46992e-18
7451.71091 8.46753e-18
7453.36850 8.46517e-18
7455.03614 8.49132e-18
7456.69373 8.51750e-18
7458.35132 8.61777e-18
7460.00891 8.71802e-18
7461.67655 8.73360e-18
7463.33414 8.74917e-18
7464.99173 8.69929e-18
7466.65936 8.64935e-18
7468.31695 8.34249e-18
7469.97454 8.03572e-18
7471.63213 8.00764e-18
7473.29977 7.97963e-18
7474.95736 8.12543e-18
7476.61495 8.27118e-18
7478.28258 8.26214e-18
7479.94017 8.25305e-18
7481.59776 8.08596e-18
7483.25535 7.91894e-18
7484.92299 8.08064e-18
7486.58058 8.24232e-18
7488.23817 8.31069e-18
7489.89576 8.37905e-18
7491.56340 8.46032e-18
7493.22099 8.54152e-18
7494.87858 8.42401e-18
7496.54621 8.30651e-18
7498.20380 8.20410e-18
7499.86139 8.10166e-18
7501.51898 7.90698e-18
7503.18662 7.71239e-18
7504.84421 7.76881e-18
7506.50180 7.82523e-18
7508.16943 7.86459e-18
7509.82702 7.90393e-18
7511.48461 7.86462e-18
7513.14220 7.82538e-18
7514.80984 8.00907e-18
7516.46743 8.19265e-18
7518.12502 7.97666e-18
7519.78261 7.76076e-18
7521.45025 7.84025e-18
7523.10784 7.91974e-18
7524.76543 7.99312e-18
7526.43306 8.06647e-18
7528.09065 8.03825e-18
7529.74824 8.00998e-18
7531.40583 7.81345e-18
7533.07347 7.61703e-18
7534.73106 7.75304e-18
7536.38865 7.88902e-18
7538.04624 7.92691e-18
7539.71387 7.96478e-18
7541.37146 7.93894e-18
7543.02905 7.91305e-18
7544.69669 7.71784e-18
7546.35428 7.52271e-18
7548.01187 7.63821e-18
7549.66946 7.75370e-18
7551.33710 7.74127e-18
7552.99469 7.72883e-18
7554.65228 7.71640e-18
7556.30987 7.70398e-18
7557.97750 7.69155e-18
7559.63509 7.67912e-18
7561.29268 7.66669e-18
7562.96032 7.65427e-18
7564.61791 7.64184e-18
7566.27550 7.62941e-18
7567.93309 7.61698e-18
7569.60072 7.60456e-18
7571.25831 7.59213e-18
7572.91590 7.57970e-18
7574.58354 7.56728e-18
7576.24113 7.55485e-18
7577.89872 7.54243e-18
7579.55631 7.53001e-18
7581.22395 7.51758e-18
7582.88154 7.50516e-18
7584.53913 7.49274e-18
7586.19672 7.48031e-18
7587.86435 7.46790e-18
7589.52194 7.45546e-18
7591.17953 7.44304e-18
7592.84717 7.43063e-18
7594.50476 7.41820e-18
7596.16235 7.40579e-18
7597.81994 7.39337e-18
7599.48757 7.38095e-18
7601.14516 7.36852e-18
7602.80275 7.35610e-18
7604.46034 7.34368e-18
7606.12798 7.33127e-18
7607.78557 7.31885e-18
7609.44316 7.30644e-18
7611.11080 7.29402e-18
7612.76839 7.28159e-18
7614.42598 7.26918e-18
7616.08357 7.25676e-18
7617.75120 7.24435e-18
7619.40879 7.23193e-18
7621.06638 7.21952e-18
7622.72397 7.20710e-18
7624.39161 7.19469e-18
7626.04920 7.18227e-18
7627.70679 7.16986e-18
7629.37442 7.15745e-18
7631.03201 7.14504e-18
7632.68960 7.13261e-18
7634.34719 7.12022e-18
7636.01483 7.10779e-18
7637.67242 7.09538e-18
7639.33001 7.08297e-18
7640.99765 7.07056e-18
7642.65524 7.05815e-18
7644.31283 7.04574e-18
7645.97042 7.03333e-18
7647.63805 7.02092e-18
7649.29564 7.00851e-18
7650.95323 6.99610e-18
7652.61082 6.98369e-18
7654.27846 6.97128e-18
7655.93605 6.95888e-18
7657.59364 6.94647e-18
7659.26127 6.93406e-18
7660.91886 6.92166e-18
7662.57645 6.90925e-18
7664.23404 6.89684e-18
7665.90168 6.88445e-18
7667.55927 6.87203e-18
7669.21686 6.85962e-18
7670.87445 6.84723e-18
7672.54209 6.83483e-18
7674.19968 6.82242e-18
7675.85727 6.81002e-18
7677.52490 6.79762e-18
7679.18249 6.78521e-18
7680.84008 6.77281e-18
7682.49767 6.62092e-18
7684.16531 6.60532e-18
7685.82290 6.58983e-18
7687.48049 6.92138e-18
7689.13808 7.25277e-18
7690.80571 7.12230e-18
7692.46330 6.99186e-18
7694.12089 7.01206e-18
7695.78853 7.03222e-18
7697.44612 6.95753e-18
7699.10371 6.88293e-18
7700.76130 7.10756e-18
7702.42894 7.33205e-18
7704.08653 7.06194e-18
7705.74412 6.79195e-18
7707.40171 6.96613e-18
7709.06934 7.14024e-18
7710.72693 7.11181e-18
7712.38452 7.08341e-18
7714.05216 7.18439e-18
7715.70975 7.28530e-18
7717.36734 7.13241e-18
7719.02493 6.97960e-18
7720.69256 7.09932e-18
7722.35015 7.21895e-18
7724.00774 7.02843e-18
7725.67538 6.83793e-18
7727.33297 6.68913e-18
7728.99056 6.54042e-18
7730.64815 6.74299e-18
7732.31579 6.94551e-18
7733.97338 7.00427e-18
7735.63097 7.06297e-18
7737.28856 6.96785e-18
7738.95619 6.87277e-18
7740.61378 6.93660e-18
7742.27137 7.00043e-18
7743.93901 7.02334e-18
7745.59660 7.04630e-18
7747.25419 7.20542e-18
7748.91178 7.36441e-18
7750.57941 7.09756e-18
7752.23700 6.83077e-18
7753.89459 6.73628e-18
7755.55218 6.64189e-18
7757.21982 6.80466e-18
7758.87741 6.96750e-18
7760.53500 7.34361e-18
7762.20264 7.71955e-18
7763.86023 7.56842e-18
7765.51782 7.41735e-18
7767.17541 7.44917e-18
7768.84304 7.48096e-18
7770.50063 7.44189e-18
7772.15822 7.40281e-18
7773.81581 7.34155e-18
7775.48345 7.28028e-18
7777.14104 7.20158e-18
7778.79863 7.12294e-18
7780.46626 7.23509e-18
7782.12385 7.34718e-18
7783.78144 7.19970e-18
7785.43903 7.05235e-18
7787.10667 7.24074e-18
7788.76426 7.42910e-18
7790.42185 7.54824e-18
7792.07944 7.66731e-18
7793.74708 7.59243e-18
7795.40467 7.51758e-18
7797.06226 7.56544e-18
7798.72989 7.61331e-18
7800.38748 7.66022e-18
7802.04507 7.70707e-18
7803.70266 7.64438e-18
7805.37030 7.58172e-18
7807.02789 7.61930e-18
7808.68548 7.65685e-18
7810.35311 7.55166e-18
7812.01070 7.44661e-18
7813.66829 7.75561e-18
7815.32588 8.06445e-18
7816.99352 7.87898e-18
7818.65111 7.69355e-18
7820.30870 7.63712e-18
7821.96629 7.58067e-18
7823.63393 7.40868e-18
7825.29152 7.23674e-18
7826.94911 7.23889e-18
7828.61674 7.24103e-18
7830.27433 7.19977e-18
7831.93192 7.15856e-18
7833.58951 7.28032e-18
7835.25715 7.40209e-18
7836.91474 7.55315e-18
7838.57233 7.70406e-18
7840.22992 7.39707e-18
7841.89755 7.09023e-18
7843.55514 7.23316e-18
7845.21273 7.37603e-18
7846.88037 7.35943e-18
7848.53796 7.34285e-18
7850.19555 7.50555e-18
7851.85314 7.66831e-18
7853.52078 8.07793e-18
7855.17837 8.48735e-18
7856.83596 8.24956e-18
7858.50359 8.01178e-18
7860.16118 7.81610e-18
7861.81877 7.62055e-18
7863.47636 7.85259e-18
7865.14400 8.08451e-18
7866.80159 7.89977e-18
7868.45918 7.71512e-18
7870.11677 7.81277e-18
7871.78440 7.91034e-18
7873.44199 7.77760e-18
7875.09958 7.64490e-18
7876.76722 7.63950e-18
7878.42481 7.63414e-18
7880.08240 7.73769e-18
7881.73999 7.84116e-18
7883.40763 7.68170e-18
7885.06522 7.52238e-18
7886.72281 7.80621e-18
7888.38040 8.08991e-18
7890.04803 8.00023e-18
7891.70562 7.91049e-18
7893.36321 7.65068e-18
7895.03085 7.39095e-18
7896.68844 7.34017e-18
7898.34603 7.28939e-18
7900.00362 7.25804e-18
7901.67125 7.22676e-18
7903.32884 7.40541e-18
7904.98643 7.58401e-18
7906.64402 7.58592e-18
7908.31166 7.58780e-18
7909.96925 7.49954e-18
7911.62684 7.41125e-18
7913.29448 7.21388e-18
7914.95207 7.01667e-18
7916.60966 7.27356e-18
7918.26725 7.53032e-18
7919.93488 7.39061e-18
7921.59247 7.25102e-18
7923.25006 7.48261e-18
7924.90765 7.71411e-18
7926.57529 7.69687e-18
7928.23288 7.67957e-18
7929.89047 7.48164e-18
7931.55810 7.28373e-18
7933.21569 7.17642e-18
7934.87328 7.06918e-18
7936.53087 7.18379e-18
7938.19851 7.29830e-18
7939.85610 7.13447e-18
7941.51369 6.97072e-18
7943.18133 7.07024e-18
7944.83892 7.16983e-18
7946.49651 7.49085e-18
7948.15410 7.81169e-18
7949.82173 7.56023e-18
7951.47932 7.30876e-18
7953.13691 7.03219e-18
7954.79450 6.75582e-18
7956.46214 7.03594e-18
7958.11973 7.31587e-18
7959.77732 6.98772e-18
7961.44495 6.65974e-18
7963.10254 6.88357e-18
7964.76013 7.10732e-18
7966.41772 7.06823e-18
7968.08536 7.02915e-18
7969.74295 7.05222e-18
7971.40054 7.07530e-18
7973.05813 7.15821e-18
7974.72577 7.24102e-18
7976.38336 7.02057e-18
7978.04095 6.80016e-18
7979.70858 6.69187e-18
7981.36617 6.58371e-18
7983.02376 6.83759e-18
7984.68135 7.09139e-18
7986.34899 7.16725e-18
7988.00658 7.24302e-18
7989.66417 7.11530e-18
7991.33180 6.98766e-18
7992.98939 7.11796e-18
7994.64698 7.24810e-18
7996.30457 6.92614e-18
7997.97221 6.60437e-18
7999.62980 6.84928e-18
8001.28739 7.09405e-18
8002.94498 6.91160e-18
8004.61262 6.72921e-18
8006.27021 6.66917e-18
8007.92780 6.60926e-18
8009.59543 6.91069e-18
8011.25302 7.21193e-18
8012.91061 6.96214e-18
8014.56820 6.71244e-18
8016.23584 6.73740e-18
8017.89343 6.76238e-18
8019.55102 6.87377e-18
8021.20861 6.98513e-18
8022.87624 6.99105e-18
8024.53383 6.99691e-18
8026.19142 6.83464e-18
8027.85906 6.67240e-18
8029.51665 6.60903e-18
8031.17424 6.54564e-18
8032.83183 6.42544e-18
8034.49947 6.30534e-18
8036.15706 6.51523e-18
8037.81465 6.72504e-18
8039.47224 6.72376e-18
8041.13987 6.72245e-18
8042.79746 6.64062e-18
8044.45505 6.55881e-18
8046.12269 6.46890e-18
8047.78028 6.37907e-18
8049.43787 6.52902e-18
8051.09546 6.67891e-18
8052.76309 6.63318e-18
8054.42068 6.58742e-18
8056.07827 6.43603e-18
8057.73586 6.28473e-18
8059.40350 6.37377e-18
8061.06109 6.46281e-18
8062.71868 6.49047e-18
8064.38632 6.51806e-18
8066.04391 6.34631e-18
8067.70150 6.17460e-18
8069.35909 6.11737e-18
8071.02672 6.06020e-18
8072.68431 6.16077e-18
8074.34190 6.26135e-18
8076.00954 6.36005e-18
8077.66713 6.45873e-18
8079.32472 6.44549e-18
8080.98231 6.43218e-18
8082.64994 6.20447e-18
8084.30753 5.97679e-18
8085.96512 5.86527e-18
8087.62271 5.75379e-18
8089.29035 5.82184e-18
8090.94794 5.88989e-18
8092.60553 5.96484e-18
8094.27317 6.03977e-18
8095.93076 6.04370e-18
8097.58835 6.04764e-18
8099.24594 6.04214e-18
8100.91357 6.03666e-18
8102.57116 6.08504e-18
8104.22875 6.13336e-18
8105.88634 6.02674e-18
8107.55398 5.92019e-18
8109.21157 6.01146e-18
8110.86916 6.10264e-18
8112.53679 5.87753e-18
8114.19438 5.65257e-18
8115.85197 5.84287e-18
8117.50956 6.03319e-18
8119.17720 6.27069e-18
8120.83479 6.50802e-18
8122.49238 6.29165e-18
8124.16002 6.07526e-18
8125.81761 5.76263e-18
8127.47520 5.45013e-18
8129.13279 5.52901e-18
8130.80042 5.60791e-18
8132.45801 5.78784e-18
8134.11560 5.96770e-18
8135.77319 5.99196e-18
8137.44083 6.01621e-18
8139.09842 6.05186e-18
8140.75601 6.08747e-18
8142.41360 6.02363e-18
8144.08123 5.95976e-18
8145.73882 5.74659e-18
8147.39641 5.53357e-18
8149.06405 5.75179e-18
8150.72164 5.96991e-18
8152.37923 5.92717e-18
8154.03682 5.88437e-18
8155.70446 5.66508e-18
8157.36205 5.44592e-18
8159.01964 5.58701e-18
8160.68727 5.72806e-18
8162.34486 5.80121e-18
8164.00245 5.87427e-18
8165.66004 5.69931e-18
8167.32768 5.52450e-18
8168.98527 5.81040e-18
8170.64286 6.09620e-18
8172.30045 6.08527e-18
8173.96808 6.07418e-18
8175.62567 5.58942e-18
8177.28326 5.10489e-18
8178.95090 5.24982e-18
8180.60849 5.39477e-18
8182.26608 5.58631e-18
8183.92367 5.77780e-18
8185.59131 5.86730e-18
8187.24890 5.95666e-18
8188.90649 5.59208e-18
8190.56408 5.22765e-18
8192.23171 5.28336e-18
8193.88930 5.33913e-18
8195.54689 5.61407e-18
8197.21453 5.88891e-18
8198.87212 5.88875e-18
8200.52971 5.88855e-18
8202.18730 5.77007e-18
8203.85493 5.65164e-18
8205.51252 5.67426e-18
8207.17011 5.69688e-18
8208.82770 5.72438e-18
8210.49534 5.75177e-18
8212.15293 5.44042e-18
8213.81052 5.12922e-18
8215.47816 5.27397e-18
8217.13575 5.41863e-18
8218.79334 5.28637e-18
8220.45093 5.15423e-18
8222.11856 5.36548e-18
8223.77615 5.57661e-18
8225.43374 5.43204e-18
8227.09133 5.28757e-18
8228.75897 5.40443e-18
8230.41656 5.52123e-18
8232.07415 5.41919e-18
8233.74178 5.31718e-18
8235.39937 5.31308e-18
8237.05696 5.30895e-18
8238.71455 5.19660e-18
8240.38219 5.08427e-18
8242.03978 4.98268e-18
8243.69737 4.88123e-18
8245.36501 5.18096e-18
8247.02260 5.48056e-18
8248.68019 5.40837e-18
8250.33778 5.33621e-18
8252.00541 5.35708e-18
8253.66300 5.37782e-18
8255.32059 4.99042e-18
8256.97818 4.60329e-18
8258.64582 4.92512e-18
8260.30341 5.24685e-18
8261.96100 5.33449e-18
8263.62863 5.42206e-18
8265.28622 5.31971e-18
8266.94381 5.21735e-18
8268.60140 5.04638e-18
8270.26904 4.87548e-18
8271.92663 4.85907e-18
8273.58422 4.84270e-18
8275.25186 4.89794e-18
8276.90945 4.95312e-18
8278.56704 4.87430e-18
8280.22463 4.79548e-18
8281.89226 4.68579e-18
8283.54985 4.57618e-18
8285.20744 4.70523e-18
8286.86503 4.83420e-18
8288.53267 4.75075e-18
8290.19026 4.66737e-18
8291.84785 4.75843e-18
8293.51548 4.84950e-18
8295.17307 4.92728e-18
8296.83066 5.00502e-18
8298.48825 4.96236e-18
8300.15589 4.91963e-18
8301.81348 4.68492e-18
8303.47107 4.45031e-18
8305.12866 4.51154e-18
8306.79630 4.57273e-18
8308.45389 4.53243e-18
8310.11148 4.49212e-18
8311.77911 4.40606e-18
8313.43670 4.32005e-18
8315.09429 4.40467e-18
8316.75188 4.48929e-18
8318.41952 4.62494e-18
8320.07711 4.76052e-18
8321.73470 4.66987e-18
8323.40233 4.57918e-18
8325.05992 4.31860e-18
8326.71751 4.05817e-18
8328.37510 4.15877e-18
8330.04274 4.25937e-18
8331.70033 4.35243e-18
8333.35792 4.44547e-18
8335.01551 4.46151e-18
8336.68315 4.47757e-18
8338.34074 4.51144e-18
8339.99833 4.54532e-18
8341.65592 4.61838e-18
8343.32355 4.69150e-18
8344.98114 4.89763e-18
8346.63873 5.10364e-18
8348.30637 4.97548e-18
8349.96396 4.84727e-18
8351.62155 4.58172e-18
8353.27914 4.31629e-18
8354.94677 4.37754e-18
8356.60436 4.43879e-18
8358.26195 4.57636e-18
8359.92959 4.71388e-18
8361.58718 4.68909e-18
8363.24477 4.66426e-18
8364.90236 4.52779e-18
8366.57000 4.39134e-18
8368.22759 4.29371e-18
8369.88518 4.19619e-18
8371.54277 4.38930e-18
8373.21040 4.58224e-18
8374.86799 4.29057e-18
8376.52558 3.99910e-18
8378.19322 4.27357e-18
8379.85081 4.54791e-18
8381.50840 4.40615e-18
8383.16599 4.26447e-18
8384.83362 4.34404e-18
8386.49121 4.42352e-18
8388.14880 4.23747e-18
8389.81644 4.05155e-18
8391.47403 4.24163e-18
8393.13162 4.43171e-18
8394.78921 4.60052e-18
8396.45685 4.76923e-18
8398.11444 4.67301e-18
8399.77203 4.57680e-18
8401.42962 4.49676e-18
8403.09725 4.41678e-18
8404.75484 4.49542e-18
8406.41243 4.57411e-18
8408.08007 4.80028e-18
8409.73766 5.02630e-18
8411.39525 4.82511e-18
8413.05284 4.62399e-18
8414.72047 4.63788e-18
8416.37806 4.65170e-18
8418.03565 4.52319e-18
8419.69324 4.39473e-18
8421.36088 4.36569e-18
8423.01847 4.33668e-18
8424.67606 4.39283e-18
8426.34370 4.44888e-18
8428.00129 4.18055e-18
8429.65888 3.91240e-18
8431.31647 4.13191e-18
8432.98410 4.35139e-18
8434.64169 4.51638e-18
8436.29928 4.68129e-18
8437.95687 4.64488e-18
8439.62451 4.60847e-18
8441.28210 4.54449e-18
8442.93969 4.48045e-18
8444.60732 4.20132e-18
8446.26491 3.92233e-18
8447.92250 4.02850e-18
8449.58009 4.13470e-18
8451.24773 4.37718e-18
8452.90532 4.61959e-18
8454.56291 4.69531e-18
8456.22050 4.77095e-18
8457.88814 4.59294e-18
8459.54573 4.41496e-18
8461.20332 4.32946e-18
8462.87095 4.24402e-18
8464.52854 4.31572e-18
8466.18613 4.38738e-18
8467.84372 4.40361e-18
8469.51136 4.41983e-18
8471.16895 4.40653e-18
8472.82654 4.39321e-18
8474.48413 4.35773e-18
8476.15176 4.32231e-18
8477.80935 4.41604e-18
8479.46694 4.50985e-18
8481.13458 4.78143e-18
8482.79217 5.05282e-18
8484.44976 4.83290e-18
8486.10735 4.61305e-18
8487.77499 4.60115e-18
8489.43258 4.58935e-18
8491.09017 4.86908e-18
8492.75780 5.14863e-18
8494.41539 4.92262e-18
8496.07298 4.69671e-18
8497.73057 4.74769e-18
8499.39821 4.79866e-18
8501.05580 4.81193e-18
8502.71339 4.82520e-18
8504.37098 4.81986e-18
8506.03861 4.81452e-18
8507.69620 4.78934e-18
8509.35379 4.76419e-18
8511.01138 4.82231e-18
8512.67902 4.88040e-18
8514.33661 4.82304e-18
8515.99420 4.76575e-18
8517.66184 4.90735e-18
8519.31943 5.04885e-18
8520.97702 4.91551e-18
8522.63461 4.78219e-18
8524.30224 4.67805e-18
8525.95983 4.57404e-18
8527.61742 4.82697e-18
8529.28506 5.07986e-18
8530.94265 5.25496e-18
8532.60024 5.42991e-18
8534.25783 5.15973e-18
8535.92546 4.88973e-18
8537.58305 5.14369e-18
8539.24064 5.39751e-18
8540.89823 5.24287e-18
8542.56587 5.08830e-18
8544.22346 5.07528e-18
8545.88105 5.06227e-18
8547.54869 5.07728e-18
8549.20628 5.09237e-18
8550.86387 5.33787e-18
8552.52146 5.58328e-18
8554.18909 5.57991e-18
8555.84668 5.57660e-18
8557.50427 5.71184e-18
8559.17191 5.84697e-18
8560.82950 5.71978e-18
8562.48709 5.59262e-18
8564.14468 5.49310e-18
8565.81231 5.39368e-18
8567.46990 5.56292e-18
8569.12749 5.73210e-18
8570.78508 5.71724e-18
8572.45272 5.70232e-18
8574.11031 5.52546e-18
8575.76790 5.34862e-18
8577.43554 5.23825e-18
8579.09313 5.12796e-18
8580.75072 5.26662e-18
8582.40831 5.40519e-18
8584.07594 5.34583e-18
8585.73353 5.28653e-18
8587.39112 5.41828e-18
8589.04871 5.55004e-18
8590.71635 5.70296e-18
8592.37394 5.85576e-18
8594.03153 5.69594e-18
8595.69916 5.53616e-18
8597.35675 5.44622e-18
8599.01434 5.35633e-18
8600.67193 5.39982e-18
8602.33957 5.44339e-18
8603.99716 5.70552e-18
8605.65475 5.96750e-18
8607.32239 5.86447e-18
8608.97998 5.76141e-18
8610.63757 5.60830e-18
8612.29516 5.45525e-18
8613.96279 5.46728e-18
8615.62038 5.47931e-18
8617.27797 5.50254e-18
8618.93556 5.52576e-18
8620.60320 5.50529e-18
8622.26079 5.48490e-18
8623.91838 5.72555e-18
8625.58601 5.96615e-18
8627.24360 6.07539e-18
8628.90119 6.18452e-18
8630.55878 6.00640e-18
8632.22642 5.82832e-18
8633.88401 5.71376e-18
8635.54160 5.59932e-18
8637.20924 5.80432e-18
8638.86683 6.00929e-18
8640.52442 6.10243e-18
8642.18201 6.19540e-18
8643.84964 5.79032e-18
8645.50723 5.38542e-18
8647.16482 5.45299e-18
8648.82241 5.52062e-18
8650.49005 5.78354e-18
8652.14764 6.04634e-18
8653.80523 6.04607e-18
8655.46282 6.04576e-18
8657.13045 5.94512e-18
8658.78804 5.84456e-18
8660.44563 5.94465e-18
8662.11327 6.04461e-18
8663.77086 5.82545e-18
8665.42845 5.60638e-18
8667.08604 5.65748e-18
8668.75368 5.70855e-18
8670.41127 5.69131e-18
8672.06886 5.67409e-18
8673.73649 5.73469e-18
8675.39408 5.79521e-18
8677.05167 5.65414e-18
8678.70926 5.51317e-18
8680.37690 5.61611e-18
8682.03449 5.71901e-18
8683.69208 5.76486e-18
8685.34967 5.81060e-18
8687.01730 5.61375e-18
8688.67489 5.41704e-18
8690.33248 5.60242e-18
8691.99007 5.78776e-18
8693.65771 5.85827e-18
8695.31530 5.92870e-18
8696.97289 5.78397e-18
8698.64053 5.63932e-18
8700.29812 5.67732e-18
8701.95571 5.71534e-18
8703.61330 5.82247e-18
8705.28093 5.92951e-18
8706.93852 5.82905e-18
8708.59611 5.72857e-18
8710.26375 5.62801e-18
8711.92134 5.52756e-18
8713.57893 5.65687e-18
8715.23652 5.78611e-18
8716.90415 5.71502e-18
8718.56174 5.64392e-18
8720.21933 5.54963e-18
8721.87692 5.45537e-18
8723.54456 5.49035e-18
8725.20215 5.52536e-18
8726.85974 5.62855e-18
8728.52738 5.73176e-18
8730.18497 5.87241e-18
8731.84256 6.01294e-18
8733.50015 5.84418e-18
8735.16778 5.67555e-18
8736.82537 5.78573e-18
8738.48296 5.89584e-18
8740.14055 5.76688e-18
8741.80819 5.63802e-18
8743.46578 5.76367e-18
8745.12337 5.88918e-18
8746.79100 5.60731e-18
8748.44859 5.32559e-18
8750.10618 5.42821e-18
8751.76377 5.53094e-18
8753.43141 5.93482e-18
8755.08900 6.33855e-18
8756.74659 6.37644e-18
8758.40418 6.41416e-18
8760.07182 5.97485e-18
8761.72941 5.53569e-18
8763.38700 5.47552e-18
8765.05463 5.41541e-18
8766.71222 5.49042e-18
8768.36981 5.56537e-18
8770.02740 5.48010e-18
8771.69504 5.39488e-18
8773.35263 5.40535e-18
8775.01022 5.41581e-18
8776.67785 5.39576e-18
8778.33544 5.37571e-18
8779.99303 5.37217e-18
8781.65062 5.36865e-18
8783.31826 5.42928e-18
8784.97585 5.48979e-18
8786.63344 5.24371e-18
8788.29103 4.99769e-18
8789.95867 4.89829e-18
8791.61626 4.79905e-18
8793.27385 5.12651e-18
8794.94148 5.45379e-18
8796.59907 5.29725e-18
8798.25666 5.14077e-18
8799.91425 5.10939e-18
8801.58189 5.07802e-18
8803.23948 5.05091e-18
8804.89707 5.02380e-18
8806.56470 5.04159e-18
8808.22229 5.05940e-18
8809.87988 5.14281e-18
8811.53747 5.22619e-18
8813.20511 5.23858e-18
8814.86270 5.25098e-18
8816.52029 5.31534e-18
8818.17788 5.37968e-18
8819.84552 5.40756e-18
8821.50311 5.43544e-18
8823.16070 5.42664e-18
8824.82833 5.41786e-18
8826.48592 5.41342e-18
8828.14351 5.40878e-18
8829.80110 4.93567e-18
8831.46874 4.46291e-18
8833.12633 4.88596e-18
8834.78392 5.30881e-18
8836.44151 5.20816e-18
8838.10914 5.10755e-18
8839.76673 5.09947e-18
8841.42432 5.09136e-18
8843.09196 4.99724e-18
8844.74955 4.90316e-18
8846.40714 4.89705e-18
8848.06473 4.89096e-18
8849.73237 4.89288e-18
8851.38996 4.89484e-18
8853.04755 5.01158e-18
8854.71518 5.12821e-18
8856.37277 4.98533e-18
8858.03036 4.84247e-18
8859.68795 4.74385e-18
8861.35559 4.64527e-18
8863.01318 4.63624e-18
8864.67077 4.62725e-18
8866.32836 4.70127e-18
8867.99599 4.77532e-18
8869.65358 4.88540e-18
8871.31117 4.99545e-18
8872.97881 4.99019e-18
8874.63640 4.98487e-18
8876.29399 4.80514e-18
8877.95158 4.62555e-18
8879.61922 4.77197e-18
8881.27681 4.91831e-18
8882.93440 4.86769e-18
8884.60203 4.81715e-18
8886.25962 4.95163e-18
8887.91721 5.08607e-18
8889.57480 5.11072e-18
8891.24244 5.13525e-18
8892.90003 4.86075e-18
8894.55762 4.58639e-18
8896.21521 4.68661e-18
8897.88284 4.78679e-18
8899.54043 4.78822e-18
8901.19802 4.78964e-18
8902.85561 4.76154e-18
8904.52325 4.73344e-18
8906.18084 4.71504e-18
8907.83843 4.69658e-18
8909.50607 4.50239e-18
8911.16366 4.30830e-18
8912.82125 4.35727e-18
8914.47884 4.40618e-18
8916.14647 4.26645e-18
8917.80406 4.12688e-18
8919.46165 4.32313e-18
8921.11924 4.51928e-18
8922.78688 4.46016e-18
8924.44447 4.40120e-18
8926.10206 4.73604e-18
8927.76969 5.07073e-18
8929.42728 5.01789e-18
8931.08487 4.96489e-18
8932.74246 4.52641e-18
8934.41010 4.08811e-18
8936.06769 4.06460e-18
8937.72528 4.04120e-18
8939.38287 4.28918e-18
8941.05051 4.53695e-18
8942.70810 4.24611e-18
8944.36569 3.95541e-18
8946.03332 4.03408e-18
8947.69091 4.11266e-18
8949.34850 4.01115e-18
8951.00609 3.90976e-18
8952.67373 4.08874e-18
8954.33132 4.26755e-18
8955.98891 3.96912e-18
8957.64650 3.67088e-18
8959.31413 3.83588e-18
8960.97172 4.00085e-18
8962.62931 4.11927e-18
8964.29695 4.23770e-18
8965.95454 4.41293e-18
8967.61213 4.58802e-18
8969.26972 4.46457e-18
8970.93736 4.34116e-18
8972.59495 4.32035e-18
8974.25254 4.29953e-18
8975.92017 4.26306e-18
8977.57776 4.22657e-18
8979.23535 4.12072e-18
8980.89294 4.01496e-18
8982.56058 4.10941e-18
8984.21817 4.20386e-18
8985.87576 4.32372e-18
8987.53335 4.44345e-18
8989.20098 4.24851e-18
8990.85857 4.05363e-18
8992.51616 3.98884e-18
8994.18380 3.92410e-18
8995.84139 4.00547e-18
8997.49898 4.08683e-18
8999.15657 4.16257e-18
9000.82421 4.23834e-18
9002.48180 4.37269e-18
9004.13939 4.50698e-18
9005.79698 4.45183e-18
9007.46461 4.39669e-18
9009.12220 4.36868e-18
9010.77979 4.34073e-18
9012.44743 4.46494e-18
9014.10502 4.58902e-18
9015.76261 4.35926e-18
9017.42020 4.12963e-18
9019.08783 4.17218e-18
9020.74542 4.21465e-18
9022.40301 4.09602e-18
9024.07065 3.97744e-18
9025.72824 4.01230e-18
9027.38583 4.04718e-18
9029.04342 4.13202e-18
9030.71106 4.21691e-18
9032.36865 4.39982e-18
9034.02624 4.58255e-18
9035.68383 4.34125e-18
9037.35146 4.10002e-18
9039.00905 4.02546e-18
9040.66664 3.95099e-18
9042.33428 4.08971e-18
9043.99187 4.22830e-18
9045.64946 4.04051e-18
9047.30705 3.85271e-18
9048.97468 3.65473e-18
9050.63227 3.45696e-18
9052.28986 3.76159e-18
9053.95750 4.06612e-18
9055.61509 4.11083e-18
9057.27268 4.15542e-18
9058.93027 3.93274e-18
9060.59791 3.71012e-18
9062.25550 3.66238e-18
9063.91309 3.61468e-18
9065.57068 3.66227e-18
9067.23831 3.70978e-18
9068.89590 3.55165e-18
9070.55349 3.39367e-18
9072.21108 3.56979e-18
9073.87872 3.74584e-18
9075.53631 3.74867e-18
9077.19390 3.75151e-18
9078.86153 3.78694e-18
9080.51912 3.82223e-18
9082.17671 3.51953e-18
9083.83430 3.21705e-18
9085.50194 3.44014e-18
9087.15953 3.66319e-18
9088.81712 3.80598e-18
9090.48476 3.94864e-18
9092.14235 3.81424e-18
9093.79994 3.68005e-18
9095.45753 3.94397e-18
9097.12516 4.20767e-18
9098.78275 3.91854e-18
9100.44034 3.62962e-18
9102.09793 3.80963e-18
9103.76557 3.98973e-18
9105.42316 4.34376e-18
9107.08075 4.69756e-18
9108.74838 4.50960e-18
9110.40597 4.32163e-18
9112.06356 4.06791e-18
9113.72115 3.81429e-18
9115.38879 3.73935e-18
9117.04638 3.66448e-18
9118.70397 3.75164e-18
9120.36156 3.83876e-18
9122.02920 3.79392e-18
9123.68679 3.74914e-18
9125.34438 3.83544e-18
9127.01201 3.92174e-18
9128.66960 4.03454e-18
9130.32719 4.14730e-18
9131.98478 4.20496e-18
9133.65242 4.26259e-18
9135.31001 4.25488e-18
9136.96760 4.24720e-18
9138.63523 4.32055e-18
9140.29282 4.39381e-18
9141.95041 4.25318e-18
9143.60800 4.11262e-18
9145.27564 4.14410e-18
9146.93323 4.17553e-18
9148.59082 4.11553e-18
9150.24841 4.05548e-18
9151.91605 3.88824e-18
9153.57364 3.72118e-18
9155.23123 4.02002e-18
9156.89886 4.31874e-18
9158.55645 4.35121e-18
9160.21404 4.38362e-18
9161.87163 4.30597e-18
9163.53927 4.22826e-18
9165.19686 3.99093e-18
9166.85445 3.75377e-18
9168.51204 3.92293e-18
9170.17967 4.09202e-18
9171.83726 4.09877e-18
9173.49485 4.10551e-18
9175.15244 4.05969e-18
9176.82008 4.01397e-18
9178.47767 4.22646e-18
9180.13526 4.43890e-18
9181.80290 4.50117e-18
9183.46049 4.56338e-18
9185.11808 4.48194e-18
9186.77567 4.40055e-18
9188.44330 4.45257e-18
9190.10089 4.50454e-18
9191.75848 4.44187e-18
9193.42612 4.37915e-18
9195.08371 4.19958e-18
9196.74130 4.02019e-18
9198.39889 4.27911e-18
9200.06652 4.53792e-18
9201.72411 4.54751e-18
9203.38170 4.55700e-18
9205.03929 4.34380e-18
9206.70693 4.13069e-18
9208.36452 4.12507e-18
9210.02211 4.11952e-18
9211.68975 4.29953e-18
9213.34734 4.47944e-18
9215.00493 4.42993e-18
9216.66252 4.38040e-18
9218.33015 4.29941e-18
9219.98774 4.21841e-18
9221.64533 4.13262e-18
9223.31297 4.04689e-18
9224.97056 4.11229e-18
9226.62815 4.17757e-18
9228.28574 3.94325e-18
9229.95337 3.70917e-18
9231.61096 4.08816e-18
9233.26855 4.46704e-18
9234.92614 4.65035e-18
9236.59378 4.83347e-18
9238.25137 4.55702e-18
9239.90896 4.28064e-18
9241.56655 4.13818e-18
9243.23419 3.99589e-18
9244.89178 4.27615e-18
9246.54937 4.55620e-18
9248.21700 4.34718e-18
9249.87459 4.13827e-18
9251.53218 4.15322e-18
9253.18977 4.16814e-18
9254.85741 4.12080e-18
9256.51500 4.07350e-18
9258.17259 4.13039e-18
9259.84022 4.18729e-18
9261.49781 4.29129e-18
9263.15540 4.39521e-18
9264.81299 4.31876e-18
9266.48063 4.24223e-18
9268.13822 3.97359e-18
9269.79581 3.70519e-18
9271.45340 4.01320e-18
9273.12104 4.32102e-18
9274.77863 4.17461e-18
9276.43622 4.02835e-18
9278.10385 4.25000e-18
9279.76144 4.47145e-18
9281.41903 4.25427e-18
9283.07662 4.03721e-18
9284.74426 4.04294e-18
9286.40185 4.04872e-18
9288.05944 4.15097e-18
9289.71703 4.25304e-18
9291.38466 3.91632e-18
9293.04225 3.57979e-18
9294.69984 3.68009e-18
9296.36748 3.78042e-18
9298.02507 3.92659e-18
9299.68266 4.07270e-18
9301.34025 4.08041e-18
9303.00789 4.08809e-18
9304.66548 4.06438e-18
9306.32307 4.04062e-18
9307.99070 3.87939e-18
9309.64829 3.71820e-18
9311.30588 3.64248e-18
9312.96347 3.56684e-18
9314.63111 3.63864e-18
9316.28870 3.71033e-18
9317.94629 3.48138e-18
9319.60388 3.25241e-18
9321.27151 2.94549e-18
9322.92910 2.63884e-18
9324.58669 2.96619e-18
9326.25433 3.29341e-18
9327.91192 3.33855e-18
9329.56951 3.38372e-18
9331.22710 3.48996e-18
9332.89474 3.59608e-18
9334.55233 3.41676e-18
9336.20992 3.23755e-18
9337.87755 3.30041e-18
9339.53514 3.36327e-18
9341.19273 3.39890e-18
9342.85032 3.43461e-18
9344.51796 3.62515e-18
9346.17555 3.81563e-18
9347.83314 3.86121e-18
9349.49073 3.90657e-18
9351.15836 3.42511e-18
9352.81595 2.94384e-18
9354.47354 2.85911e-18
9356.13113 2.77461e-18
9357.79877 3.22817e-18
9359.45636 3.68153e-18
9361.11395 3.63908e-18
9362.78159 3.59673e-18
9364.43918 3.79780e-18
9366.09677 3.99878e-18
9367.75436 3.99859e-18
9369.42199 3.99840e-18
9371.07958 3.96820e-18
9372.73717 3.93777e-18
9374.40481 3.35868e-18
9376.06240 2.77985e-18
9377.71999 2.79479e-18
9379.37758 2.80983e-18
9381.04521 3.05124e-18
9382.70280 3.29256e-18
9384.36039 3.30439e-18
9386.01798 3.31622e-18
9387.68562 3.31823e-18
9389.34321 3.32022e-18
9391.00080 3.30715e-18
9392.66844 3.29417e-18
9394.32603 3.44637e-18
9395.98362 3.59844e-18
9397.64121 3.44252e-18
9399.30884 3.28666e-18
9400.96643 3.29607e-18
9402.62402 3.30549e-18
9404.28161 3.34934e-18
9405.94925 3.39314e-18
9407.60684 3.30527e-18
9409.26443 3.21751e-18
9410.93206 3.39185e-18
9412.58965 3.56612e-18
9414.24724 3.59894e-18
9415.90483 3.63168e-18
9417.57247 3.49370e-18
9419.23006 3.35577e-18
9420.88765 3.31609e-18
9422.54524 3.27636e-18
9424.21288 3.13371e-18
9425.87047 2.99129e-18
9427.52806 3.37871e-18
9429.19569 3.76585e-18
9430.85328 3.53094e-18
9432.51087 3.29609e-18
9434.16846 3.22121e-18
9435.83610 3.14619e-18
9437.49369 2.73340e-18
9439.15128 2.32071e-18
9440.80887 2.16808e-18
9442.47650 2.01581e-18
9444.13409 2.69305e-18
9445.79168 3.36999e-18
9447.45932 3.35762e-18
9449.11691 3.34529e-18
9450.77450 3.42897e-18
9452.43209 3.51251e-18
9454.09973 3.31020e-18
9455.75732 3.10789e-18
9457.41491 2.85963e-18
9459.07250 2.61151e-18
9460.74013 2.67849e-18
9462.39772 2.74553e-18
9464.05531 2.98303e-18
9465.72295 3.22028e-18
9467.38054 2.90280e-18
9469.03813 2.58557e-18
9470.69572 2.81668e-18
9472.36335 3.04780e-18
9474.02094 3.30833e-18
9475.67853 3.56880e-18
9477.34617 3.70256e-18
9479.00376 3.83618e-18
9480.66135 3.69140e-18
9482.31894 3.54669e-18
9483.98658 3.55008e-18
9485.64417 3.55338e-18
9487.30176 3.31335e-18
9488.95935 3.07342e-18
9490.62698 3.04830e-18
9492.28457 3.02317e-18
9493.94216 2.94492e-18
9495.60980 2.86688e-18
9497.26739 3.24862e-18
9498.92498 3.63013e-18
9500.58257 3.46154e-18
9502.25020 3.29304e-18
9503.90779 3.34308e-18
9505.56538 3.39315e-18
9507.23302 3.47210e-18
9508.89061 3.55090e-18
9510.54820 3.29770e-18
9512.20579 3.04456e-18
9513.87343 2.93557e-18
9515.53102 2.82659e-18
9517.18861 2.77186e-18
9518.84620 2.71730e-18
9520.51383 3.06423e-18
9522.17142 3.41091e-18
9523.82901 3.20012e-18
9525.49665 2.98947e-18
9527.15424 3.06892e-18
9528.81183 3.14829e-18
9530.46942 3.02919e-18
9532.13705 2.91021e-18
9533.79464 3.04940e-18
9535.45223 3.18854e-18
9537.10982 3.22108e-18
9538.77746 3.25363e-18
9540.43505 3.33094e-18
9542.09264 3.40821e-18
9543.76028 3.37177e-18
9545.41787 3.33523e-18
9547.07546 3.06783e-18
9548.73305 2.80049e-18
9550.40068 2.66403e-18
9552.05827 2.52792e-18
9553.71586 3.18785e-18
9555.37345 3.84735e-18
9557.04109 3.54626e-18
9558.69868 3.24528e-18
9560.35627 3.20218e-18
9562.02390 3.15916e-18
9563.68149 3.28769e-18
9565.33908 3.41609e-18
9566.99667 3.23873e-18
9568.66431 3.06147e-18
9570.32190 3.08705e-18
9571.97949 3.11266e-18
9573.64713 3.19153e-18
9575.30472 3.27025e-18
9576.96231 3.02235e-18
9578.61990 2.77457e-18
9580.28753 2.77418e-18
9581.94512 2.77384e-18
9583.60271 2.86195e-18
9585.27035 2.94998e-18
9586.92794 2.83968e-18
9588.58553 2.72942e-18
9590.24312 2.68963e-18
9591.91075 2.64998e-18
9593.56834 2.89980e-18
9595.22593 3.14947e-18
9596.88352 3.03352e-18
9598.55116 2.91771e-18
9600.20875 3.12288e-18
9601.86634 3.32795e-18
9603.52393 3.32255e-18
9605.19157 3.31722e-18
9606.84916 3.45920e-18
9608.50675 3.60096e-18
9610.17438 3.22732e-18
9611.83197 2.85384e-18
9613.48956 2.83988e-18
9615.14715 2.82590e-18
9616.81479 2.79524e-18
9618.47238 2.76461e-18
9620.12997 2.81586e-18
9621.79760 2.86713e-18
9623.45519 2.93254e-18
9625.11278 2.99795e-18
9626.77037 3.06034e-18
9628.43801 3.12274e-18
9630.09560 3.20490e-18
9631.75319 3.28703e-18
9633.41078 3.27883e-18
9635.07842 3.27069e-18
9636.73601 3.44524e-18
9638.39360 3.61961e-18
9640.06123 3.40848e-18
9641.71882 3.19749e-18
9643.37641 3.27054e-18
9645.03400 3.34343e-18
9646.70164 3.05102e-18
9648.35923 2.75884e-18
9650.01682 2.94947e-18
9651.67441 3.13999e-18
9653.34204 3.11416e-18
9654.99963 3.08824e-18
9656.65722 2.87350e-18
9658.31481 2.65890e-18
9659.98245 2.74802e-18
9661.64004 2.83723e-18
9663.29763 3.14053e-18
9664.96527 3.44352e-18
9666.62286 3.03261e-18
9668.28045 2.62199e-18
9669.93804 2.83761e-18
9671.60567 3.05323e-18
9673.26326 3.27376e-18
9674.92085 3.49422e-18
9676.58849 3.55163e-18
9678.24608 3.60894e-18
9679.90367 3.44915e-18
9681.56126 3.28960e-18
9683.22889 3.63282e-18
9684.88648 3.97578e-18
9686.54407 3.70733e-18
9688.20166 3.43882e-18
9689.86930 3.06223e-18
9691.52689 2.68598e-18
9693.18448 3.04502e-18
9694.85212 3.40393e-18
9696.50971 3.45053e-18
9698.16730 3.49723e-18
9699.82489 3.75075e-18
9701.49252 4.00382e-18
9703.15011 3.27941e-18
9704.80770 2.55541e-18
9706.46529 2.71376e-18
9708.13293 2.87208e-18
9709.79052 2.93854e-18
9711.44811 3.00483e-18
9713.11574 2.68772e-18
9714.77333 2.37090e-18
9716.43092 2.69337e-18
9718.08851 3.01583e-18
9719.75615 3.30930e-18
9721.41374 3.60251e-18
9723.07133 3.31903e-18
9724.73897 3.03573e-18
9726.39656 3.09609e-18
9728.05415 3.15646e-18
9729.71174 3.25008e-18
9731.37937 3.34357e-18
9733.03696 3.15593e-18
9734.69455 2.96841e-18
9736.35214 3.05006e-18
9738.01978 3.13172e-18
9739.67737 3.26731e-18
9741.33496 3.40284e-18
9743.00259 3.40057e-18
9744.66018 3.39823e-18
9746.31777 3.22365e-18
9747.97536 3.04908e-18
9749.64300 2.90034e-18
9751.30059 2.75181e-18
9752.95818 3.05548e-18
9754.62582 3.35888e-18
9756.28341 3.11568e-18
9757.94100 2.87264e-18
9759.59859 2.98702e-18
9761.26622 3.10138e-18
9762.92381 3.18601e-18
9764.58140 3.27058e-18
9766.23899 3.21653e-18
9767.90663 3.16259e-18
9769.56422 3.30733e-18
9771.22181 3.45195e-18
9772.87940 3.33718e-18
9774.54703 3.22241e-18
9776.20462 3.04478e-18
9777.86221 2.86716e-18
9779.52985 2.71736e-18
9781.18744 2.56776e-18
9782.84503 2.83637e-18
9784.50262 3.10484e-18
9786.17026 3.04242e-18
9787.82785 2.98038e-18
9789.48544 3.71827e-18
9791.15307 4.45563e-18
9792.81066 4.08318e-18
9794.46825 3.71082e-18
9796.12584 3.52167e-18
9797.79348 3.33265e-18
9799.45107 3.44572e-18
9801.10866 3.55844e-18
9802.76625 2.92062e-18
9804.43388 2.28301e-18
9806.09147 2.07374e-18
9807.74906 1.86480e-18
9809.41670 2.35240e-18
9811.07429 2.83981e-18
9812.73188 2.94118e-18
9814.38947 3.04255e-18
9816.05711 3.14637e-18
9817.71470 3.25011e-18
9819.37229 3.17015e-18
9821.03992 3.09012e-18
9822.69751 2.84584e-18
9824.35510 2.60184e-18
9826.01269 2.96321e-18
9827.68033 3.32433e-18
9829.33792 3.12520e-18
9830.99551 2.92622e-18
9832.65310 3.03674e-18
9834.32073 3.14716e-18
9835.97832 3.05779e-18
9837.63591 2.96837e-18
9839.30355 2.77901e-18
9840.96114 2.58991e-18
9842.61873 2.94928e-18
9844.27632 3.30866e-18
9845.94396 3.68643e-18
9847.60155 4.06393e-18
9849.25914 3.89028e-18
9850.91673 3.71662e-18
9852.58436 3.54052e-18
9854.24195 3.36442e-18
9855.89954 3.20840e-18
9857.56718 3.05245e-18
9859.22477 3.02668e-18
9860.88236 3.00091e-18
9862.53995 2.99329e-18
9864.20758 2.98594e-18
9865.86517 3.57166e-18
9867.52276 4.15704e-18
9869.18035 4.00604e-18
9870.84799 3.85517e-18
9872.50558 3.99273e-18
9874.16317 4.13039e-18
9875.83081 4.50588e-18
9877.48840 4.88089e-18
9879.14599 4.24354e-18
9880.80358 3.60622e-18
9882.47121 2.99444e-18
9884.12880 2.38319e-18
9885.78639 2.87846e-18
9887.44398 3.37362e-18
9889.11162 3.63748e-18
9890.76921 3.90125e-18
9892.42680 3.98166e-18
9894.09443 4.06211e-18
9895.75202 4.18449e-18
9897.40961 4.30685e-18
9899.06720 4.37207e-18
9900.73484 4.43691e-18
9902.39243 3.66497e-18
9904.05002 2.89336e-18
9905.70761 2.81874e-18
9907.37525 2.74409e-18
9909.03284 2.62728e-18
9910.69043 2.51053e-18
9912.35806 2.54075e-18
9914.01565 2.57116e-18
9915.67324 3.00446e-18
9917.33083 3.43747e-18
9918.99847 3.28765e-18
9920.65606 3.13794e-18
9922.31365 3.20566e-18
9923.98128 3.27341e-18
9925.63887 3.35957e-18
9927.29646 3.44577e-18
9928.95405 3.60956e-18
9930.62169 3.77294e-18
9932.27928 3.01863e-18
9933.93687 2.26457e-18
9935.59446 2.05252e-18
9937.26210 1.84091e-18
9938.91969 2.55272e-18
9940.57728 3.26432e-18
9942.23487 3.55597e-18
9943.90250 3.84748e-18
9945.56009 3.84957e-18
9947.21768 3.85142e-18
9948.88532 3.31897e-18
9950.54291 2.78705e-18
9952.20050 3.40128e-18
9953.85809 4.01521e-18
9955.52572 4.00573e-18
9957.18331 3.99604e-18
9958.84090 3.56654e-18
9960.50854 3.13717e-18
9962.16613 2.94990e-18
9963.82372 2.76269e-18
9965.48131 2.65555e-18
9967.14895 2.54836e-18
9968.80654 2.28983e-18
9970.46413 2.03138e-18
9972.12172 1.90788e-18
9973.78935 1.78446e-18
9975.44694 1.80109e-18
9977.10453 1.81796e-18
9978.77217 2.32521e-18
9980.42976 2.83218e-18
9982.08735 2.80618e-18
9983.74494 2.78028e-18
9985.41257 2.97173e-18
9987.07016 3.16322e-18
9988.72775 3.46220e-18
9990.39539 3.76097e-18
9992.05298 3.66178e-18
9993.71057 3.56245e-18
9995.36816 3.20657e-18
9997.03580 2.85056e-18
9998.69339 2.20516e-18
