# wavelength flux
3485.99810 6.46357e-18
3487.46869 -2.41230e-18
3488.93928 1.79410e-17
3490.40987 3.76781e-17
3491.88046 1.62388e-17
3493.35105 2.11403e-17
3494.82164 2.58120e-17
3496.29223 2.23380e-17
3497.76282 4.05190e-17
3499.23341 3.38620e-17
3500.70400 7.46016e-18
3502.17459 1.34991e-17
3503.63504 4.98627e-17
3505.10563 3.79017e-17
3506.57622 1.47270e-17
3508.04681 9.95047e-18
3509.51740 -2.83425e-18
3510.98799 2.26111e-17
3512.45858 4.38978e-17
3513.92917 3.58384e-17
3515.39976 2.43699e-17
3516.87035 3.85468e-18
3518.34094 2.01626e-17
3519.81153 4.24145e-17
3521.28212 5.26941e-17
3522.75271 4.65804e-17
3524.22330 9.05841e-18
3525.69389 8.14707e-17
3527.16448 1.25125e-16
3528.63507 6.35718e-17
3530.09551 4.53615e-17
3531.56610 3.98181e-17
3533.03669 3.61424e-17
3534.50728 3.79371e-17
3535.97787 3.85989e-17
3537.44846 4.91620e-17
3538.91905 3.48613e-17
3540.38964 9.00051e-18
3541.86023 2.06203e-17
3543.33082 2.01433e-17
3544.80141 3.76795e-17
3546.27200 3.85885e-17
3547.74259 3.04535e-17
3549.21318 2.10508e-17
3550.68377 1.89345e-17
3552.15436 1.63688e-17
3553.62495 1.71796e-17
3555.08540 2.36616e-17
3556.55599 2.61020e-17
3558.02658 1.42790e-17
3559.49717 1.00921e-18
3560.96776 1.13789e-17
3562.43835 4.19790e-17
3563.90894 2.74647e-17
3565.37953 8.73691e-18
3566.85012 3.03367e-18
3568.32071 1.33650e-17
3569.79130 2.78263e-17
3571.26189 8.94455e-18
3572.73248 1.02084e-18
3574.20307 1.45602e-17
3575.67366 3.19046e-17
3577.14425 1.66563e-17
3578.61484 -5.35430e-19
3580.07529 6.37152e-18
3581.54588 1.83488e-17
3583.01647 2.67244e-17
3584.48706 2.55759e-17
3585.95765 1.39876e-17
3587.42824 1.33314e-17
3588.89883 2.29438e-17
3590.36942 8.90546e-18
3591.84001 5.00248e-18
3593.31060 7.80390e-18
3594.78119 9.23356e-18
3596.25178 2.12256e-17
3597.72237 2.85686e-17
3599.19296 1.14222e-17
3600.66355 9.96046e-18
3602.13414 1.17396e-17
3603.60473 1.20031e-17
3605.06518 4.65450e-18
3606.53577 8.96362e-18
3608.00636 2.33869e-17
3609.47695 7.81204e-18
3610.94754 1.82945e-17
3612.41813 3.43024e-17
3613.88872 1.32187e-17
3615.35931 1.48784e-17
3616.82990 2.27037e-17
3618.30049 2.22095e-17
3619.77108 6.96819e-18
3621.24167 3.68606e-17
3622.71226 2.65676e-17
3624.18285 1.23300e-17
3625.65344 1.61547e-17
3627.12403 2.07709e-17
3628.59462 1.67924e-17
3630.06521 1.18209e-17
3631.52566 1.31271e-17
3632.99625 1.53361e-17
3634.46684 1.07015e-17
3635.93743 1.36926e-17
3637.40802 1.57897e-17
3638.87861 1.91714e-17
3640.34920 2.27892e-17
3641.81979 2.41839e-17
3643.29038 9.37072e-18
3644.76097 1.01406e-17
3646.23156 2.65902e-17
3647.70215 2.83638e-17
3649.17274 1.46346e-17
3650.64333 2.00072e-17
3652.11392 9.17580e-18
3653.58451 1.43968e-17
3655.05510 5.51809e-18
3656.51554 2.27116e-17
3657.98613 1.25400e-17
3659.45672 3.82424e-18
3660.92731 8.46940e-18
3662.39790 1.63432e-17
3663.86849 1.95854e-17
3665.33908 1.83424e-17
3666.80967 1.41666e-17
3668.28026 7.26488e-18
3669.75085 2.96843e-18
3671.22144 1.20329e-17
3672.69203 7.82900e-18
3674.16262 -2.77792e-18
3675.63321 8.69923e-18
3677.10380 1.37284e-17
3678.57439 1.52251e-17
3680.04498 5.28450e-18
3681.50543 1.75286e-17
3682.97602 1.61332e-17
3684.44661 1.65576e-17
3685.91720 2.18723e-17
3687.38779 9.58300e-18
3688.85838 1.83101e-17
3690.32897 2.16081e-17
3691.79956 1.31397e-17
3693.27015 1.65815e-17
3694.74074 1.76222e-17
3696.21133 8.46411e-18
3697.68192 6.41207e-18
3699.15251 1.53283e-17
3700.62310 1.76062e-17
3702.09369 1.36696e-17
3703.56428 1.00689e-17
3705.03487 1.51341e-17
3706.49532 1.25229e-17
3707.96591 1.48950e-17
3709.43650 1.57824e-17
3710.90709 1.32323e-17
3712.37768 1.87010e-17
3713.84827 1.08740e-17
3715.31886 1.39672e-17
3716.78945 7.13557e-18
3718.26004 1.44077e-17
3719.73063 9.54624e-18
3721.20122 1.48079e-17
3722.67181 1.80893e-17
3724.14240 1.32684e-17
3725.61299 1.08434e-17
3727.08358 3.10010e-18
3728.55417 1.03648e-17
3730.02476 1.25661e-17
3731.48521 1.28504e-17
3732.95580 1.28413e-17
3734.42639 2.32202e-17
3735.89698 1.07726e-17
3737.36757 7.32523e-18
3738.83816 1.97129e-17
3740.30875 1.51392e-17
3741.77934 1.35420e-17
3743.24993 1.90510e-17
3744.72052 1.50225e-17
3746.19111 1.44474e-17
3747.66170 1.53348e-17
3749.13229 9.73789e-18
3750.60288 1.02721e-17
3752.07347 6.40214e-18
3753.54406 1.14509e-17
3755.01465 1.15532e-17
3756.48524 9.61858e-18
3757.94569 1.44730e-17
3759.41628 1.07060e-17
3760.88687 1.05873e-17
3762.35746 1.04687e-17
3763.82805 1.01710e-17
3765.29864 9.87340e-18
3766.76923 9.57587e-18
3768.23982 9.27847e-18
3769.71041 8.98108e-18
3771.18100 8.68377e-18
3772.65159 8.38658e-18
3774.12218 8.08937e-18
3775.59277 7.79228e-18
3777.06336 7.49530e-18
3778.53395 7.19835e-18
3780.00454 6.90147e-18
3781.46498 6.60472e-18
3782.93557 6.30798e-18
3784.40616 6.01131e-18
3785.87675 5.71471e-18
3787.34734 5.41819e-18
3788.81793 5.12173e-18
3790.28852 4.82534e-18
3791.75911 4.52907e-18
3793.22970 4.23283e-18
3794.70029 3.93664e-18
3796.17088 3.64058e-18
3797.64147 3.34454e-18
3799.11206 3.04851e-18
3800.58265 2.75260e-18
3802.05324 7.54172e-18
3803.52383 3.74704e-18
3804.99442 3.61766e-18
3806.46501 1.00580e-17
3807.92546 7.48448e-18
3809.39605 8.23029e-18
3810.86664 3.21646e-18
3812.33723 1.18506e-17
3813.80782 1.78927e-17
3815.27841 1.01529e-17
3816.74900 5.29404e-18
3818.21959 3.47264e-18
3819.69018 3.56257e-18
3821.16077 7.73819e-18
3822.63136 5.34086e-18
3824.10195 1.47341e-18
3825.57254 6.30144e-18
3827.04313 7.77695e-18
3828.51372 1.00467e-17
3829.98431 7.55647e-18
3831.45490 3.56933e-18
3832.91535 -1.58527e-18
3834.38594 9.51809e-19
3835.85653 8.68038e-18
3837.32712 7.64249e-18
3838.79771 3.74380e-18
3840.26830 3.84998e-18
3841.73889 7.72569e-18
3843.20948 8.07909e-18
3844.68007 1.06833e-17
3846.15066 1.09880e-17
3847.62125 1.01063e-17
3849.09184 3.95626e-18
3850.56243 2.73639e-18
3852.03302 1.43084e-18
3853.50361 1.25163e-17
3854.97420 7.06621e-18
3856.44479 2.18837e-18
3857.90524 3.24552e-18
3859.37583 8.76951e-18
3860.84642 7.84859e-18
3862.31701 3.05971e-18
3863.78760 4.08231e-18
3865.25819 3.39272e-18
3866.72878 4.62556e-18
3868.19937 7.27684e-18
3869.66996 6.39436e-18
3871.14055 5.72409e-18
3872.61114 6.00616e-18
3874.08173 5.64292e-18
3875.55232 6.75702e-18
3877.02291 2.70923e-18
3878.49350 3.75490e-18
3879.96409 4.91937e-18
3881.43468 6.45717e-18
3882.89513 8.03021e-18
3884.36572 2.17632e-18
3885.83631 8.76874e-18
3887.30690 1.22625e-17
3888.77749 6.71697e-18
3890.24808 2.97322e-18
3891.71867 7.01179e-18
3893.18926 8.83764e-18
3894.65985 8.92988e-18
3896.13044 1.14900e-17
3897.60103 8.81211e-18
3899.07162 7.86394e-18
3900.54221 4.02334e-18
3902.01280 3.75879e-18
3903.48339 5.56453e-18
3904.95398 1.60756e-17
3906.42457 3.62886e-17
3907.88501 2.43315e-17
3909.35560 5.92623e-18
3910.82619 7.48277e-18
3912.29678 8.72075e-18
3913.76737 7.33127e-18
3915.23796 6.29490e-18
3916.70855 1.25920e-17
3918.17914 1.17325e-17
3919.64973 7.58237e-18
3921.12032 1.24965e-17
3922.59091 1.17812e-17
3924.06150 6.31447e-18
3925.53209 1.67646e-18
3927.00268 5.74873e-18
3928.47327 6.31659e-18
3929.94386 6.71474e-18
3931.41445 1.16357e-17
3932.87490 1.13043e-17
3934.34549 1.09661e-17
3935.81608 1.15313e-17
3937.28667 1.16748e-17
3938.75726 1.09562e-17
3940.22785 1.23313e-17
3941.69844 1.38528e-17
3943.16903 1.36135e-17
3944.63962 1.21973e-17
3946.11021 1.37277e-17
3947.58080 1.57950e-17
3949.05139 1.66837e-17
3950.52198 1.49174e-17
3951.99257 1.22697e-17
3953.46316 1.33361e-17
3954.93375 1.76548e-17
3956.40434 1.73397e-17
3957.87493 1.37800e-17
3959.33538 1.52957e-17
3960.80597 1.83913e-17
3962.27656 1.75953e-17
3963.74715 1.68348e-17
3965.21774 1.64713e-17
3966.68833 1.64846e-17
3968.15892 1.56116e-17
3969.62951 1.38551e-17
3971.10010 1.60972e-17
3972.57069 2.13118e-17
3974.04128 1.92682e-17
3975.51187 1.52683e-17
3976.98246 2.01605e-17
3978.45305 2.07999e-17
3979.92364 1.64485e-17
3981.39423 1.82618e-17
3982.86482 2.19876e-17
3984.32527 2.20567e-17
3985.79586 2.18334e-17
3987.26645 2.24851e-17
3988.73704 2.21482e-17
3990.20763 2.23813e-17
3991.67822 2.18397e-17
3993.14881 2.39751e-17
3994.61940 2.27300e-17
3996.08999 2.37772e-17
3997.56058 2.47515e-17
3999.03117 1.89159e-17
4000.50176 2.12202e-17
4001.97235 2.59699e-17
4003.44294 2.38302e-17
4004.91353 2.45878e-17
4006.38412 2.47657e-17
4007.85471 2.33410e-17
4009.32530 2.38203e-17
4010.78575 2.31179e-17
4012.25634 2.55632e-17
4013.72693 2.78161e-17
4015.19752 2.43285e-17
4016.66811 2.42315e-17
4018.13870 2.30734e-17
4019.60929 2.32608e-17
4021.07988 2.62393e-17
4022.55047 2.67305e-17
4024.02106 2.82985e-17
4025.49165 2.69317e-17
4026.96224 2.12833e-17
4028.43283 2.10795e-17
4029.90342 2.50011e-17
4031.37401 2.33012e-17
4032.84460 1.94606e-17
4034.30504 2.32695e-17
4035.77563 2.49746e-17
4037.24622 2.39882e-17
4038.71681 2.52865e-17
4040.18740 2.68410e-17
4041.65799 2.36194e-17
4043.12858 2.55028e-17
4044.59917 2.80905e-17
4046.06976 2.55605e-17
4047.54035 2.42211e-17
4049.01094 2.42586e-17
4050.48153 2.28903e-17
4051.95212 2.46980e-17
4053.42271 2.52888e-17
4054.89330 2.44504e-17
4056.36389 2.73097e-17
4057.83448 2.90085e-17
4059.30507 2.96987e-17
4060.76552 2.61848e-17
4062.23611 2.45425e-17
4063.70670 2.64751e-17
4065.17729 2.82110e-17
4066.64788 2.62120e-17
4068.11847 2.39456e-17
4069.58906 2.47459e-17
4071.05965 2.60044e-17
4072.53024 2.46656e-17
4074.00083 2.49302e-17
4075.47142 2.85661e-17
4076.94201 3.05709e-17
4078.41260 2.86460e-17
4079.88319 2.67971e-17
4081.35378 2.96494e-17
4082.82437 2.83323e-17
4084.29496 2.60829e-17
4085.75541 2.98832e-17
4087.22600 2.53064e-17
4088.69659 2.33438e-17
4090.16718 2.71674e-17
4091.63777 2.40581e-17
4093.10836 2.20036e-17
4094.57895 2.26355e-17
4096.04954 2.54082e-17
4097.52013 2.76831e-17
4098.99072 2.15216e-17
4100.46131 2.44337e-17
4101.93190 2.29139e-17
4103.40249 2.30192e-17
4104.87308 2.48520e-17
4106.34367 2.30565e-17
4107.81426 2.31119e-17
4109.28485 2.59222e-17
4110.74530 2.31085e-17
4112.21589 2.05680e-17
4113.68648 1.97417e-17
4115.15707 1.88192e-17
4116.62766 2.26515e-17
4118.09825 2.03454e-17
4119.56884 2.00828e-17
4121.03943 2.31180e-17
4122.51002 2.20604e-17
4123.98061 2.01081e-17
4125.45120 2.47882e-17
4126.92179 2.40791e-17
4128.39238 2.09037e-17
4129.86297 1.71283e-17
4131.33356 1.73678e-17
4132.80415 2.09248e-17
4134.27474 2.28243e-17
4135.74533 1.92318e-17
4137.20578 1.78213e-17
4138.67637 2.18683e-17
4140.14696 2.05739e-17
4141.61755 2.03272e-17
4143.08814 1.86850e-17
4144.55873 1.73950e-17
4146.02932 1.78178e-17
4147.49991 1.89674e-17
4148.97050 2.11926e-17
4150.44109 1.75015e-17
4151.91168 1.76442e-17
4153.38227 1.57251e-17
4154.85286 1.34727e-17
4156.32345 1.52780e-17
4157.79404 1.83476e-17
4159.26463 1.75224e-17
4160.73522 1.67048e-17
4162.19566 1.68773e-17
4163.66625 1.83113e-17
4165.13684 1.87622e-17
4166.60743 1.62804e-17
4168.07802 1.59628e-17
4169.54861 1.17479e-17
4171.01920 1.48562e-17
4172.48979 1.83284e-17
4173.96038 1.60414e-17
4175.43097 1.73842e-17
4176.90156 1.97409e-17
4178.37215 1.79318e-17
4179.84274 1.57813e-17
4181.31333 1.52636e-17
4182.78392 1.56726e-17
4184.25451 1.65544e-17
4185.72510 1.35224e-17
4187.18555 1.72985e-17
4188.65614 1.51248e-17
4190.12673 1.57368e-17
4191.59732 1.49519e-17
4193.06791 1.21497e-17
4194.53850 1.61612e-17
4196.00909 1.78996e-17
4197.47968 1.50036e-17
4198.95027 1.39426e-17
4200.42086 1.54589e-17
4201.89145 1.37920e-17
4203.36204 1.32448e-17
4204.83263 1.32423e-17
4206.30322 1.19407e-17
4207.77381 1.07610e-17
4209.24440 1.45367e-17
4210.71499 1.58770e-17
4212.17544 1.48557e-17
4213.64603 1.69320e-17
4215.11662 1.25219e-17
4216.58721 1.49963e-17
4218.05780 1.79461e-17
4219.52839 1.60948e-17
4220.99898 1.86440e-17
4222.46957 1.61364e-17
4223.94016 1.42921e-17
4225.41075 1.52640e-17
4226.88134 1.72036e-17
4228.35193 1.77214e-17
4229.82252 1.62462e-17
4231.29311 1.27254e-17
4232.76370 1.45084e-17
4234.23429 1.27160e-17
4235.70488 1.59372e-17
4237.16533 1.44945e-17
4238.63592 1.32113e-17
4240.10651 1.61048e-17
4241.57710 1.74935e-17
4243.04769 1.73054e-17
4244.51828 1.56183e-17
4245.98887 1.68094e-17
4247.45946 1.76965e-17
4248.93005 1.80571e-17
4250.40064 1.85488e-17
4251.87123 1.59273e-17
4253.34182 1.42256e-17
4254.81241 1.53136e-17
4256.28300 1.60386e-17
4257.75359 1.58106e-17
4259.22418 1.54053e-17
4260.69477 1.37656e-17
4262.15522 1.51906e-17
4263.62581 1.85504e-17
4265.09640 1.82932e-17
4266.56699 1.69464e-17
4268.03758 1.74375e-17
4269.50817 1.58215e-17
4270.97876 1.45065e-17
4272.44935 1.41253e-17
4273.91994 1.44751e-17
4275.39053 1.58087e-17
4276.86112 1.59712e-17
4278.33171 1.59715e-17
4279.80230 1.80852e-17
4281.27289 1.49826e-17
4282.74348 1.53404e-17
4284.21407 1.42867e-17
4285.68466 1.53298e-17
4287.14510 1.66356e-17
4288.61569 1.62463e-17
4290.08628 1.68472e-17
4291.55687 1.63646e-17
4293.02746 1.69011e-17
4294.49805 1.33608e-17
4295.96864 1.16905e-17
4297.43923 1.47496e-17
4298.90982 1.77126e-17
4300.38041 1.66619e-17
4301.85100 1.41764e-17
4303.32159 1.44769e-17
4304.79218 1.54672e-17
4306.26277 1.39353e-17
4307.73336 1.65905e-17
4309.20395 1.68549e-17
4310.67454 1.63064e-17
4312.14513 1.42073e-17
4313.60558 1.68551e-17
4315.07617 1.82425e-17
4316.54676 1.62810e-17
4318.01735 1.44284e-17
4319.48794 1.70817e-17
4320.95853 1.88720e-17
4322.42912 1.50492e-17
4323.89971 1.53484e-17
4325.37030 1.47635e-17
4326.84089 1.49537e-17
4328.31148 1.41101e-17
4329.78207 1.48572e-17
4331.25266 1.40403e-17
4332.72325 1.51487e-17
4334.19384 1.54077e-17
4335.66443 1.39737e-17
4337.13502 1.39520e-17
4338.59547 1.73810e-17
4340.06606 1.61668e-17
4341.53665 1.29147e-17
4343.00724 1.15263e-17
4344.47783 1.13767e-17
4345.94842 1.38309e-17
4347.41901 1.25449e-17
4348.88960 1.53165e-17
4350.36019 1.78478e-17
4351.83078 1.58466e-17
4353.30137 1.46184e-17
4354.77196 1.38021e-17
4356.24255 1.60676e-17
4357.71314 1.65509e-17
4359.18373 1.40691e-17
4360.65432 1.39808e-17
4362.12491 1.54016e-17
4363.58536 1.38511e-17
4365.05595 1.32970e-17
4366.52654 1.04190e-17
4367.99713 1.05834e-17
4369.46772 1.49353e-17
4370.93831 1.51258e-17
4372.40890 1.35730e-17
4373.87949 1.35753e-17
4375.35008 1.41755e-17
4376.82067 1.29778e-17
4378.29126 1.35639e-17
4379.76185 1.41915e-17
4381.23244 1.45170e-17
4382.70303 1.27508e-17
4384.17362 1.06924e-17
4385.64421 1.22158e-17
4387.11480 1.30351e-17
4388.57525 1.22325e-17
4390.04584 1.20398e-17
4391.51643 1.28085e-17
4392.98702 1.36049e-17
4394.45761 1.28022e-17
4395.92820 1.11853e-17
4397.39879 1.23492e-17
4398.86938 1.42654e-17
4400.33997 1.35621e-17
4401.81056 1.29526e-17
4403.28115 1.45203e-17
4404.75174 1.59184e-17
4406.22233 1.35680e-17
4407.69292 1.34865e-17
4409.16351 1.34051e-17
4410.63410 1.33236e-17
4412.10469 1.32422e-17
4413.56513 1.31608e-17
4415.03572 1.30794e-17
4416.50631 1.29980e-17
4417.97690 1.29167e-17
4419.44749 1.28353e-17
4420.91808 1.27540e-17
4422.38867 1.26726e-17
4423.85926 1.25913e-17
4425.32985 1.25101e-17
4426.80044 1.24288e-17
4428.27103 1.23475e-17
4429.74162 1.22663e-17
4431.21221 1.21851e-17
4432.68280 1.21038e-17
4434.15339 1.20226e-17
4435.62398 1.19415e-17
4437.09457 1.18603e-17
4438.56516 1.17791e-17
4440.02561 1.16980e-17
4441.49620 1.16169e-17
4442.96679 1.15358e-17
4444.43738 1.14547e-17
4445.90797 1.06589e-17
4447.37856 8.46757e-18
4448.84915 1.11432e-17
4450.31974 1.13717e-17
4451.79033 9.65432e-18
4453.26092 1.03047e-17
4454.73151 1.17228e-17
4456.20210 1.05523e-17
4457.67269 8.39897e-18
4459.14328 9.83198e-18
4460.61387 1.21004e-17
4462.08446 1.29995e-17
4463.55505 1.24453e-17
4465.01550 1.16534e-17
4466.48609 1.22249e-17
4467.95668 1.27608e-17
4469.42727 1.32646e-17
4470.89786 1.16434e-17
4472.36845 1.34988e-17
4473.83904 1.54988e-17
4475.30963 1.33983e-17
4476.78022 1.27453e-17
4478.25081 1.25114e-17
4479.72140 1.07566e-17
4481.19199 1.05935e-17
4482.66258 1.22553e-17
4484.13317 1.35629e-17
4485.60376 1.27390e-17
4487.07435 1.17772e-17
4488.54494 9.67683e-18
4490.00539 9.05080e-18
4491.47598 9.88201e-18
4492.94657 1.21989e-17
4494.41716 1.36940e-17
4495.88775 1.08327e-17
4497.35834 1.15719e-17
4498.82893 1.39237e-17
4500.29952 1.37512e-17
4501.77011 1.35637e-17
4503.24070 1.37892e-17
4504.71129 1.15716e-17
4506.18188 1.09414e-17
4507.65247 1.18943e-17
4509.12306 1.07800e-17
4510.59365 1.08047e-17
4512.06424 1.10085e-17
4513.52469 1.15862e-17
4514.99528 1.21083e-17
4516.46587 1.19643e-17
4517.93646 1.15165e-17
4519.40705 1.10172e-17
4520.87764 1.31857e-17
4522.34823 1.23777e-17
4523.81882 1.07693e-17
4525.28941 1.14873e-17
4526.76000 1.11248e-17
4528.23059 1.07783e-17
4529.70118 1.04312e-17
4531.17177 1.20949e-17
4532.64236 1.27430e-17
4534.11295 1.20919e-17
4535.58354 1.24319e-17
4537.05413 1.40424e-17
4538.52472 1.29780e-17
4539.99531 1.28555e-17
4541.45575 1.39269e-17
4542.92634 1.55639e-17
4544.39693 1.47158e-17
4545.86752 1.31219e-17
4547.33811 1.18568e-17
4548.80870 1.30451e-17
4550.27929 1.40133e-17
4551.74988 1.32860e-17
4553.22047 1.42415e-17
4554.69106 1.41008e-17
4556.16165 1.23428e-17
4557.63224 1.22208e-17
4559.10283 1.39711e-17
4560.57342 1.40938e-17
4562.04401 1.42773e-17
4563.51460 1.35445e-17
4564.97505 1.28781e-17
4566.44564 1.40582e-17
4567.91623 1.47589e-17
4569.38682 1.59211e-17
4570.85741 1.62804e-17
4572.32800 1.50126e-17
4573.79859 1.60406e-17
4575.26918 1.73043e-17
4576.73977 1.48542e-17
4578.21036 1.68072e-17
4579.68095 1.56930e-17
4581.15154 1.54048e-17
4582.62213 1.52576e-17
4584.09272 1.48538e-17
4585.56331 1.57827e-17
4587.03390 1.55080e-17
4588.50449 1.65475e-17
4589.97508 1.54293e-17
4591.43553 1.26740e-17
4592.90612 1.41034e-17
4594.37671 1.68768e-17
4595.84730 1.78352e-17
4597.31789 1.68866e-17
4598.78848 1.55977e-17
4600.25907 1.58326e-17
4601.72966 1.61709e-17
4603.20025 1.75813e-17
4604.67084 1.81621e-17
4606.14143 1.74040e-17
4607.61202 1.90818e-17
4609.08261 1.86806e-17
4610.55320 1.65539e-17
4612.02379 1.63258e-17
4613.49438 1.66690e-17
4614.96497 1.85124e-17
4616.42542 2.14782e-17
4617.89601 2.14509e-17
4619.36660 2.25178e-17
4620.83719 2.32602e-17
4622.30778 2.31902e-17
4623.77837 2.13625e-17
4625.24896 1.99619e-17
4626.71955 1.94537e-17
4628.19014 1.97119e-17
4629.66073 1.86557e-17
4631.13132 2.12832e-17
4632.60191 2.31459e-17
4634.07250 2.04832e-17
4635.54309 2.10975e-17
4637.01368 2.05400e-17
4638.48427 2.04422e-17
4639.95486 2.05616e-17
4641.41531 2.25886e-17
4642.88590 2.26388e-17
4644.35649 2.24701e-17
4645.82708 2.00103e-17
4647.29767 2.05793e-17
4648.76826 2.02911e-17
4650.23885 2.10576e-17
4651.70944 2.22086e-17
4653.18003 2.22944e-17
4654.65062 2.24916e-17
4656.12121 2.37536e-17
4657.59180 2.21444e-17
4659.06239 1.92031e-17
4660.53298 2.20359e-17
4662.00357 2.18466e-17
4663.47416 2.12686e-17
4664.94475 2.30389e-17
4666.41534 2.32744e-17
4667.87578 2.13381e-17
4669.34637 2.16177e-17
4670.81696 2.38041e-17
4672.28755 2.36539e-17
4673.75814 2.39317e-17
4675.22873 2.35723e-17
4676.69932 2.28196e-17
4678.16991 2.34982e-17
4679.64050 2.15795e-17
4681.11109 2.41172e-17
4682.58168 2.24037e-17
4684.05227 1.89992e-17
4685.52286 2.09018e-17
4686.99345 2.17932e-17
4688.46404 2.25083e-17
4689.93463 2.30091e-17
4691.39508 2.10278e-17
4692.86567 2.05136e-17
4694.33626 2.10536e-17
4695.80685 2.12165e-17
4697.27744 2.14791e-17
4698.74803 2.20294e-17
4700.21862 2.44285e-17
4701.68921 2.17274e-17
4703.15980 1.77678e-17
4704.63039 1.86974e-17
4706.10098 1.91319e-17
4707.57157 2.20713e-17
4709.04216 2.18857e-17
4710.51275 2.06762e-17
4711.98334 1.95333e-17
4713.45393 2.01688e-17
4714.92452 2.00292e-17
4716.38497 1.93708e-17
4717.85556 2.22854e-17
4719.32615 2.18954e-17
4720.79674 2.08150e-17
4722.26733 1.91087e-17
4723.73792 1.97137e-17
4725.20851 1.87466e-17
4726.67910 1.94009e-17
4728.14969 1.81493e-17
4729.62028 2.13738e-17
4731.09087 1.89350e-17
4732.56146 1.83658e-17
4734.03205 2.08255e-17
4735.50264 1.96570e-17
4736.97323 2.06462e-17
4738.44382 2.09894e-17
4739.91441 1.75383e-17
4741.38500 1.89394e-17
4742.84545 1.91129e-17
4744.31604 1.77234e-17
4745.78663 2.09993e-17
4747.25722 2.01749e-17
4748.72781 1.83195e-17
4750.19840 2.12886e-17
4751.66899 2.12334e-17
4753.13958 1.91824e-17
4754.61017 1.95887e-17
4756.08076 1.97249e-17
4757.55135 1.88865e-17
4759.02194 1.90770e-17
4760.49253 1.88927e-17
4761.96312 1.97894e-17
4763.43371 1.82651e-17
4764.90430 1.79604e-17
4766.37489 1.86863e-17
4767.83534 1.73585e-17
4769.30593 1.82135e-17
4770.77652 1.78797e-17
4772.24711 1.66679e-17
4773.71770 1.69026e-17
4775.18829 1.85461e-17
4776.65888 1.70471e-17
4778.12947 1.60315e-17
4779.60006 1.75658e-17
4781.07065 1.80859e-17
4782.54124 1.54888e-17
4784.01183 1.63416e-17
4785.48242 1.84955e-17
4786.95301 1.60372e-17
4788.42360 1.81769e-17
4789.89419 1.72623e-17
4791.36478 1.59979e-17
4792.83537 1.85665e-17
4794.29581 1.73601e-17
4795.76640 1.60339e-17
4797.23699 1.75355e-17
4798.70758 1.75332e-17
4800.17817 1.75519e-17
4801.64876 1.83403e-17
4803.11935 1.75626e-17
4804.58994 1.69014e-17
4806.06053 1.60878e-17
4807.53112 1.64697e-17
4809.00171 1.81614e-17
4810.47230 1.63818e-17
4811.94289 1.65831e-17
4813.41348 1.50590e-17
4814.88407 1.52458e-17
4816.35466 1.36100e-17
4817.81511 1.21352e-17
4819.28570 1.29205e-17
4820.75629 1.58992e-17
4822.22688 1.59718e-17
4823.69747 1.72965e-17
4825.16806 1.49208e-17
4826.63865 1.61800e-17
4828.10924 1.38596e-17
4829.57983 1.29138e-17
4831.05042 1.41343e-17
4832.52101 1.47245e-17
4833.99160 1.33966e-17
4835.46219 1.12752e-17
4836.93278 1.10052e-17
4838.40337 1.23064e-17
4839.87396 1.21456e-17
4841.34455 1.05746e-17
4842.80500 1.22180e-17
4844.27559 1.27717e-17
4845.74618 1.37201e-17
4847.21677 1.22923e-17
4848.68736 1.33488e-17
4850.15795 1.26791e-17
4851.62854 1.09405e-17
4853.09913 1.05541e-17
4854.56972 1.23699e-17
4856.04031 1.17617e-17
4857.51090 1.19619e-17
4858.98149 1.06921e-17
4860.45208 1.03027e-17
4861.92267 9.28021e-18
4863.39326 9.47253e-18
4864.86385 1.00492e-17
4866.33444 8.85234e-18
4867.80503 1.08827e-17
4869.26548 1.08865e-17
4870.73607 1.01192e-17
4872.20666 9.80361e-18
4873.67725 9.92348e-18
4875.14784 9.51705e-18
4876.61843 1.15971e-17
4878.08902 1.21320e-17
4879.55961 9.39330e-18
4881.03020 9.24773e-18
4882.50079 1.17604e-17
4883.97138 9.88356e-18
4885.44197 8.12738e-18
4886.91256 8.40335e-18
4888.38315 7.98253e-18
4889.85374 9.28610e-18
4891.32433 1.02851e-17
4892.79492 1.13726e-17
4894.25537 1.14631e-17
4895.72596 9.03110e-18
4897.19655 2.68527e-17
4898.66714 4.33241e-17
4900.13773 1.52878e-17
4901.60832 8.43277e-18
4903.07891 1.03151e-17
4904.54950 1.24754e-17
4906.02009 1.23043e-17
4907.49068 1.03782e-17
4908.96127 9.22827e-18
4910.43186 8.89714e-18
4911.90245 1.00677e-17
4913.37304 1.00295e-17
4914.84363 9.99132e-18
4916.31422 9.95312e-18
4917.78481 9.91494e-18
4919.25540 9.87676e-18
4920.71584 9.83859e-18
4922.18643 9.80044e-18
4923.65702 9.76228e-18
4925.12761 9.72414e-18
4926.59820 9.68600e-18
4928.06879 9.64788e-18
4929.53938 9.60976e-18
4931.00997 9.57167e-18
4932.48056 9.53356e-18
4933.95115 9.49546e-18
4935.42174 9.45738e-18
4936.89233 9.41930e-18
4938.36292 9.38124e-18
4939.83351 9.34319e-18
4941.30410 9.30515e-18
4942.77469 9.26710e-18
4944.24528 9.22906e-18
4945.70573 9.19104e-18
4947.17632 9.15302e-18
4948.64691 9.11502e-18
4950.11750 9.70469e-18
4951.58809 1.00294e-17
4953.05868 1.09736e-17
4954.52927 1.11752e-17
4955.99986 1.07055e-17
4957.47045 1.12116e-17
4958.94104 1.12597e-17
4960.41163 1.07835e-17
4961.88222 1.07858e-17
4963.35281 9.17432e-18
4964.82340 1.01053e-17
4966.29399 1.16320e-17
4967.76458 1.15787e-17
4969.22503 1.24262e-17
4970.69562 1.14480e-17
4972.16621 1.17232e-17
4973.63680 1.25902e-17
4975.10739 1.10792e-17
4976.57798 1.15019e-17
4978.04857 1.21411e-17
4979.51916 1.14224e-17
4980.98975 1.13385e-17
4982.46034 1.30209e-17
4983.93093 1.38780e-17
4985.40152 1.24036e-17
4986.87211 1.22130e-17
4988.34270 1.29371e-17
4989.81329 1.24299e-17
4991.28388 1.15552e-17
4992.75447 1.17156e-17
4994.22506 1.36198e-17
4995.68551 1.45443e-17
4997.15610 1.33521e-17
4998.62669 1.31585e-17
5000.09728 1.42040e-17
5001.56787 1.49831e-17
5003.03846 1.56588e-17
5004.50905 1.56069e-17
5005.97964 1.53680e-17
5007.45023 1.56838e-17
5008.92082 1.56239e-17
5010.39141 1.52837e-17
5011.86200 1.54019e-17
5013.33259 1.55202e-17
5014.80318 1.56384e-17
5016.27377 1.57566e-17
5017.74436 1.58747e-17
5019.21495 1.59928e-17
5020.67540 1.61109e-17
5022.14599 1.62290e-17
5023.61658 1.63470e-17
5025.08717 1.64650e-17
5026.55776 1.65831e-17
5028.02835 1.67010e-17
5029.49894 1.68189e-17
5030.96953 1.69369e-17
5032.44012 1.70547e-17
5033.91071 1.71726e-17
5035.38130 1.72905e-17
5036.85189 1.74083e-17
5038.32248 1.75260e-17
5039.79307 1.76438e-17
5041.26366 1.77616e-17
5042.73425 1.78793e-17
5044.20484 1.79970e-17
5045.66528 1.81147e-17
5047.13587 1.82323e-17
5048.60646 1.83499e-17
5050.07705 1.82081e-17
5051.54764 1.73981e-17
5053.01823 1.75690e-17
5054.48882 1.76999e-17
5055.95941 1.94150e-17
5057.43000 1.86304e-17
5058.90059 1.68571e-17
5060.37118 1.67462e-17
5061.84177 1.66354e-17
5063.31236 1.65245e-17
5064.78295 1.64138e-17
5066.25354 1.63030e-17
5067.72413 1.61923e-17
5069.19472 1.60816e-17
5070.66531 1.59709e-17
5072.12576 1.58602e-17
5073.59635 1.57496e-17
5075.06694 1.56390e-17
5076.53753 1.55284e-17
5078.00812 1.54179e-17
5079.47871 1.53073e-17
5080.94930 1.51968e-17
5082.41989 1.50863e-17
5083.89048 1.49758e-17
5085.36107 1.48654e-17
5086.83166 1.47550e-17
5088.30225 1.46446e-17
5089.77284 1.45342e-17
5091.24343 1.44239e-17
5092.71402 1.43136e-17
5094.18461 1.42032e-17
5095.64506 1.40930e-17
5097.11565 1.39828e-17
5098.58624 1.25403e-17
5100.05683 1.29122e-17
5101.52742 1.20754e-17
5102.99801 1.21967e-17
5104.46860 1.17664e-17
5105.93919 1.10926e-17
5107.40978 1.18320e-17
5108.88037 1.23801e-17
5110.35096 1.31426e-17
5111.82155 1.23629e-17
5113.29214 1.21064e-17
5114.76273 1.17047e-17
5116.23332 1.22867e-17
5117.70391 1.24605e-17
5119.17450 1.13089e-17
5120.64509 1.15889e-17
5122.10554 1.08975e-17
5123.57613 1.19819e-17
5125.04672 1.25812e-17
5126.51731 1.13951e-17
5127.98790 1.07721e-17
5129.45849 1.02611e-17
5130.92908 1.21798e-17
5132.39967 1.24414e-17
5133.87026 1.06735e-17
5135.34085 1.09769e-17
5136.81144 1.21394e-17
5138.28203 1.21436e-17
5139.75262 1.30354e-17
5141.22321 1.16191e-17
5142.69380 9.98836e-18
5144.16439 1.01263e-17
5145.62484 1.09213e-17
5147.09543 1.30965e-17
5148.56602 1.42422e-17
5150.03661 1.25548e-17
5151.50720 1.04953e-17
5152.97779 1.06649e-17
5154.44838 1.05664e-17
5155.91897 1.16673e-17
5157.38956 1.15415e-17
5158.86015 1.10391e-17
5160.33074 1.11087e-17
5161.80133 1.18812e-17
5163.27192 1.27497e-17
5164.74251 1.50109e-17
5166.21310 1.31171e-17
5167.68369 1.18456e-17
5169.15428 1.28479e-17
5170.62487 1.42425e-17
5172.08531 1.42960e-17
5173.55590 1.27827e-17
5175.02649 1.37034e-17
5176.49708 1.33355e-17
5177.96767 1.31751e-17
5179.43826 1.43093e-17
5180.90885 1.38845e-17
5182.37944 1.46372e-17
5183.85003 1.48930e-17
5185.32062 1.38869e-17
5186.79121 1.43085e-17
5188.26180 1.45710e-17
5189.73239 1.22706e-17
5191.20298 1.21505e-17
5192.67357 1.42176e-17
5194.14416 1.38257e-17
5195.61475 1.33976e-17
5197.07520 1.24620e-17
5198.54579 1.26977e-17
5200.01638 1.50226e-17
5201.48697 1.51190e-17
5202.95756 1.38357e-17
5204.42815 1.44853e-17
5205.89874 1.33803e-17
5207.36933 1.25915e-17
5208.83992 1.32707e-17
5210.31051 1.24519e-17
5211.78110 1.25706e-17
5213.25169 1.32083e-17
5214.72228 1.35532e-17
5216.19287 1.40564e-17
5217.66346 1.34460e-17
5219.13405 1.32403e-17
5220.60464 1.39955e-17
5222.06509 1.43110e-17
5223.53568 1.30193e-17
5225.00627 1.34340e-17
5226.47686 1.45088e-17
5227.94745 1.40885e-17
5229.41804 1.55209e-17
5230.88863 1.37239e-17
5232.35922 1.35020e-17
5233.82981 1.30956e-17
5235.30040 1.44976e-17
5236.77099 1.56718e-17
5238.24158 1.53388e-17
5239.71217 1.46079e-17
5241.18276 1.13378e-17
5242.65335 1.30762e-17
5244.12394 1.55560e-17
5245.59453 1.26676e-17
5247.06512 1.26599e-17
5248.52557 1.50106e-17
5249.99616 1.22048e-17
5251.46675 1.28884e-17
5252.93734 1.23821e-17
5254.40793 1.26046e-17
5255.87852 1.37252e-17
5257.34911 1.30596e-17
5258.81970 1.20488e-17
5260.29029 1.37927e-17
5261.76088 1.46767e-17
5263.23147 1.48221e-17
5264.70206 1.37832e-17
5266.17265 1.16476e-17
5267.64324 1.29180e-17
5269.11383 1.41461e-17
5270.58442 1.45570e-17
5272.04487 1.49106e-17
5273.51546 1.42413e-17
5274.98605 1.43306e-17
5276.45664 1.51409e-17
5277.92723 1.37276e-17
5279.39782 1.39252e-17
5280.86841 1.38342e-17
5282.33900 1.31060e-17
5283.80959 1.23218e-17
5285.28018 1.51561e-17
5286.75077 1.48455e-17
5288.22136 1.49504e-17
5289.69195 1.26187e-17
5291.16254 1.41108e-17
5292.63313 1.50760e-17
5294.10372 1.45223e-17
5295.57431 1.41924e-17
5297.04490 1.36088e-17
5298.50534 1.58255e-17
5299.97593 1.61360e-17
5301.44652 1.47915e-17
5302.91711 1.49473e-17
5304.38770 1.45343e-17
5305.85829 1.50580e-17
5307.32888 1.60448e-17
5308.79947 1.51613e-17
5310.27006 1.37255e-17
5311.74065 1.52613e-17
5313.21124 1.66650e-17
5314.68183 1.69306e-17
5316.15242 1.76401e-17
5317.62301 1.59267e-17
5319.09360 1.35442e-17
5320.56419 1.52394e-17
5322.03478 1.68536e-17
5323.49523 1.62212e-17
5324.96582 1.76615e-17
5326.43641 1.74483e-17
5327.90700 1.55440e-17
5329.37759 1.47685e-17
5330.84818 1.60565e-17
5332.31877 1.71027e-17
5333.78936 1.64445e-17
5335.25995 1.63571e-17
5336.73054 1.72310e-17
5338.20113 1.82733e-17
5339.67172 1.68064e-17
5341.14231 1.58025e-17
5342.61290 1.59154e-17
5344.08349 1.58341e-17
5345.55408 1.69659e-17
5347.02467 1.72580e-17
5348.48512 1.68531e-17
5349.95571 1.64862e-17
5351.42630 1.69719e-17
5352.89689 1.79773e-17
5354.36748 1.87146e-17
5355.83807 1.89834e-17
5357.30866 1.79516e-17
5358.77925 1.76096e-17
5360.24984 1.72187e-17
5361.72043 1.68350e-17
5363.19102 1.68478e-17
5364.66161 1.67241e-17
5366.13220 1.71156e-17
5367.60279 1.77015e-17
5369.07338 1.72479e-17
5370.54397 1.92295e-17
5372.01456 1.97674e-17
5373.48515 1.80113e-17
5374.94560 1.75220e-17
5376.41619 1.78243e-17
5377.88678 1.65819e-17
5379.35737 1.78009e-17
5380.82796 1.79199e-17
5382.29855 1.75137e-17
5383.76914 1.90709e-17
5385.23973 1.85032e-17
5386.71032 1.74861e-17
5388.18091 1.68679e-17
5389.65150 1.78084e-17
5391.12209 1.96177e-17
5392.59268 1.97888e-17
5394.06327 1.87596e-17
5395.53386 1.74559e-17
5397.00445 1.72795e-17
5398.47504 1.90292e-17
5399.93549 2.04696e-17
5401.40608 1.82995e-17
5402.87667 1.81108e-17
5404.34726 1.93892e-17
5405.81785 1.85962e-17
5407.28844 1.91865e-17
5408.75903 1.86234e-17
5410.22962 1.76214e-17
5411.70021 1.89520e-17
5413.17080 1.86525e-17
5414.64139 1.77263e-17
5416.11198 1.77065e-17
5417.58257 1.68427e-17
5419.05316 1.69234e-17
5420.52375 1.84419e-17
5421.99434 1.79823e-17
5423.46493 1.80723e-17
5424.93552 1.85711e-17
5426.39596 1.82086e-17
5427.86655 1.76280e-17
5429.33714 1.74086e-17
5430.80773 1.76964e-17
5432.27832 1.80022e-17
5433.74891 1.89178e-17
5435.21950 1.84958e-17
5436.69009 1.84766e-17
5438.16068 1.81202e-17
5439.63127 1.69591e-17
5441.10186 1.75516e-17
5442.57245 1.78925e-17
5444.04304 1.73838e-17
5445.51363 1.72753e-17
5446.98422 1.76026e-17
5448.45481 1.81449e-17
5449.91526 1.79891e-17
5451.38585 1.70836e-17
5452.85644 1.67767e-17
5454.32703 1.67162e-17
5455.79762 1.77036e-17
5457.26821 1.89055e-17
5458.73880 1.69468e-17
5460.20939 1.52096e-17
5461.67998 1.60455e-17
5463.15057 1.64159e-17
5464.62116 1.64510e-17
5466.09175 1.73922e-17
5467.56234 1.72912e-17
5469.03293 1.65954e-17
5470.50352 1.63742e-17
5471.97411 1.56575e-17
5473.44470 1.52008e-17
5474.90515 1.53725e-17
5476.37574 1.61013e-17
5477.84633 1.71235e-17
5479.31692 1.69896e-17
5480.78751 1.64607e-17
5482.25810 1.60443e-17
5483.72869 1.56502e-17
5485.19928 1.63825e-17
5486.66987 1.68226e-17
5488.14046 1.59813e-17
5489.61105 1.64469e-17
5491.08164 1.67410e-17
5492.55223 1.67029e-17
5494.02282 1.67681e-17
5495.49341 1.62897e-17
5496.96400 1.64343e-17
5498.43459 1.72424e-17
5499.90518 1.61332e-17
5501.36563 1.55062e-17
5502.83622 1.65276e-17
5504.30681 1.69055e-17
5505.77740 1.66950e-17
5507.24799 1.66240e-17
5508.71858 1.75726e-17
5510.18917 1.79163e-17
5511.65976 1.65990e-17
5513.13035 1.51768e-17
5514.60094 1.66745e-17
5516.07153 1.75393e-17
5517.54212 1.78472e-17
5519.01271 1.81391e-17
5520.48330 1.78623e-17
5521.95389 1.81387e-17
5523.42448 1.68672e-17
5524.89507 1.65379e-17
5526.35552 1.66957e-17
5527.82611 1.67960e-17
5529.29670 1.72243e-17
5530.76729 1.68562e-17
5532.23788 1.71913e-17
5533.70847 1.75883e-17
5535.17906 1.69922e-17
5536.64965 1.78259e-17
5538.12024 1.80379e-17
5539.59083 1.74841e-17
5541.06142 1.66445e-17
5542.53201 1.72936e-17
5544.00260 1.74287e-17
5545.47319 1.65364e-17
5546.94378 1.69213e-17
5548.41437 1.75950e-17
5549.88496 1.82119e-17
5551.34540 1.85081e-17
5552.81599 1.89895e-17
5554.28658 1.86872e-17
5555.75717 1.74068e-17
5557.22776 1.73705e-17
5558.69835 1.72729e-17
5560.16894 1.75912e-17
5561.63953 1.78800e-17
5563.11012 1.64091e-17
5564.58071 1.73472e-17
5566.05130 1.89811e-17
5567.52189 1.85701e-17
5568.99248 1.84178e-17
5570.46307 1.76155e-17
5571.93366 1.68144e-17
5573.40425 1.68387e-17
5574.87484 1.91217e-17
5576.33529 2.05509e-17
5577.80588 1.00510e-17
5579.27647 6.62149e-17
5580.74706 9.07415e-17
5582.21765 3.16830e-17
5583.68824 1.41932e-17
5585.15883 1.77251e-17
5586.62942 1.75133e-17
5588.10001 1.81173e-17
5589.57060 1.79281e-17
5591.04119 1.59880e-17
5592.51178 1.55390e-17
5593.98237 1.57839e-17
5595.45296 1.65919e-17
5596.92355 1.70495e-17
5598.39414 1.59640e-17
5599.86473 1.56802e-17
5601.32518 1.63785e-17
5602.79577 1.67751e-17
5604.26636 1.69914e-17
5605.73695 1.59152e-17
5607.20754 1.59361e-17
5608.67813 1.63965e-17
5610.14872 1.55113e-17
5611.61931 1.61130e-17
5613.08990 1.71220e-17
5614.56049 1.74486e-17
5616.03108 1.72879e-17
5617.50167 1.79319e-17
5618.97226 1.64378e-17
5620.44285 1.65250e-17
5621.91344 1.58911e-17
5623.38403 1.50500e-17
5624.85462 1.71185e-17
5626.31507 1.61386e-17
5627.78566 1.65167e-17
5629.25625 1.66667e-17
5630.72684 1.56939e-17
5632.19743 1.64646e-17
5633.66802 1.63264e-17
5635.13861 1.61843e-17
5636.60920 1.61426e-17
5638.07979 1.60878e-17
5639.55038 1.50711e-17
5641.02097 1.54613e-17
5642.49156 1.55923e-17
5643.96215 1.60840e-17
5645.43274 1.67443e-17
5646.90333 1.73414e-17
5648.37392 1.69723e-17
5649.84451 1.64253e-17
5651.31510 1.51043e-17
5652.77555 1.52764e-17
5654.24614 1.73312e-17
5655.71673 1.58374e-17
5657.18732 1.48060e-17
5658.65791 1.43539e-17
5660.12850 1.51393e-17
5661.59909 1.39211e-17
5663.06968 1.30799e-17
5664.54027 1.44783e-17
5666.01086 1.55323e-17
5667.48145 1.43449e-17
5668.95204 1.45200e-17
5670.42263 1.45524e-17
5671.89322 1.58274e-17
5673.36381 1.53737e-17
5674.83440 1.56757e-17
5676.30499 1.49091e-17
5677.76543 1.33245e-17
5679.23602 1.42329e-17
5680.70661 1.41670e-17
5682.17720 1.29320e-17
5683.64779 1.24778e-17
5685.11838 1.34691e-17
5686.58897 1.58618e-17
5688.05956 1.40924e-17
5689.53015 1.27811e-17
5691.00074 1.24385e-17
5692.47133 1.24616e-17
5693.94192 1.27667e-17
5695.41251 1.23987e-17
5696.88310 1.32003e-17
5698.35369 1.22388e-17
5699.82428 1.04793e-17
5701.29487 1.06179e-17
5702.75532 1.15968e-17
5704.22591 1.07631e-17
5705.69650 1.08584e-17
5707.16709 1.19041e-17
5708.63768 1.02620e-17
5710.10827 1.04755e-17
5711.57886 1.04911e-17
5713.04945 9.82590e-18
5714.52004 1.02420e-17
5715.99063 9.54571e-18
5717.46122 9.63622e-18
5718.93181 8.77358e-18
5720.40240 8.70808e-18
5721.87299 9.20378e-18
5723.34358 8.32316e-18
5724.81417 1.02381e-17
5726.28476 1.00547e-17
5727.74521 1.04216e-17
5729.21580 8.68930e-18
5730.68639 9.76103e-18
5732.15698 1.02008e-17
5733.62757 9.37505e-18
5735.09816 8.50194e-18
5736.56875 9.82446e-18
5738.03934 8.64445e-18
5739.50993 7.98711e-18
5740.98052 7.93036e-18
5742.45111 7.07240e-18
5743.92170 7.10521e-18
5745.39229 7.53461e-18
5746.86288 7.93001e-18
5748.33347 7.31523e-18
5749.80406 7.77834e-18
5751.27465 8.67595e-18
5752.74524 7.07873e-18
5754.20569 7.44627e-18
5755.67628 7.82382e-18
5757.14687 8.82950e-18
5758.61746 7.74039e-18
5760.08805 6.53761e-18
5761.55864 6.75050e-18
5763.02923 7.52907e-18
5764.49982 7.63201e-18
5765.97041 8.56684e-18
5767.44100 7.73697e-18
5768.91159 7.85954e-18
5770.38218 6.83923e-18
5771.85277 6.27308e-18
5773.32336 6.91192e-18
5774.79395 6.72151e-18
5776.26454 7.56494e-18
5777.72499 7.82846e-18
5779.19558 7.15609e-18
5780.66617 7.51928e-18
5782.13676 6.51273e-18
5783.60735 6.28807e-18
5785.07794 8.22892e-18
5786.54853 8.34560e-18
5788.01912 8.23969e-18
5789.48971 7.31059e-18
5790.96030 7.18885e-18
5792.43089 6.83487e-18
5793.90148 7.95896e-18
5795.37207 7.08223e-18
5796.84266 6.98879e-18
5798.31325 8.29503e-18
5799.78384 8.36665e-18
5801.25443 8.74449e-18
5802.72502 8.46983e-18
5804.18546 7.93525e-18
5805.65605 7.80244e-18
5807.12664 7.71096e-18
5808.59723 7.58003e-18
5810.06782 8.33763e-18
5811.53841 9.18645e-18
5813.00900 9.03240e-18
5814.47959 9.38095e-18
5815.95018 9.22381e-18
5817.42077 9.78295e-18
5818.89136 9.65947e-18
5820.36195 8.39682e-18
5821.83254 9.57994e-18
5823.30313 1.04836e-17
5824.77372 1.06003e-17
5826.24431 1.03329e-17
5827.71490 1.01799e-17
5829.17535 1.03755e-17
5830.64594 1.02385e-17
5832.11653 1.09989e-17
5833.58712 1.13212e-17
5835.05771 1.11644e-17
5836.52830 1.15931e-17
5837.99889 1.12645e-17
5839.46948 1.03980e-17
5840.94007 1.15028e-17
5842.41066 1.29510e-17
5843.88125 1.26831e-17
5845.35184 1.11777e-17
5846.82243 1.15983e-17
5848.29302 1.30312e-17
5849.76361 1.22032e-17
5851.23420 1.15450e-17
5852.70479 1.15046e-17
5854.16524 1.18621e-17
5855.63583 1.17639e-17
5857.10642 1.21863e-17
5858.57701 1.26895e-17
5860.04760 1.38305e-17
5861.51819 1.44682e-17
5862.98878 1.42678e-17
5864.45937 1.52006e-17
5865.92996 1.44264e-17
5867.40055 1.43553e-17
5868.87114 1.38031e-17
5870.34173 1.46834e-17
5871.81232 1.62046e-17
5873.28291 1.56472e-17
5874.75350 1.60250e-17
5876.22409 1.67376e-17
5877.69468 1.68010e-17
5879.16527 1.51055e-17
5880.62572 1.59593e-17
5882.09631 1.69064e-17
5883.56690 1.64357e-17
5885.03749 1.53603e-17
5886.50808 1.64545e-17
5887.97867 1.49857e-17
5889.44926 1.32802e-17
5890.91985 1.50469e-17
5892.39044 1.56684e-17
5893.86103 1.53934e-17
5895.33162 1.67641e-17
5896.80221 1.63146e-17
5898.27280 1.69106e-17
5899.74339 1.89089e-17
5901.21398 1.88753e-17
5902.68457 1.82796e-17
5904.14502 1.76323e-17
5905.61561 1.78772e-17
5907.08620 1.83273e-17
5908.55679 1.87500e-17
5910.02738 1.84675e-17
5911.49797 1.87270e-17
5912.96856 1.80976e-17
5914.43915 1.75407e-17
5915.90974 1.71698e-17
5917.38033 1.82279e-17
5918.85092 1.89461e-17
5920.32151 1.79358e-17
5921.79210 1.73538e-17
5923.26269 1.79823e-17
5924.73328 1.78758e-17
5926.20387 1.74174e-17
5927.67446 1.77786e-17
5929.14505 1.80583e-17
5930.60549 1.85962e-17
5932.07608 1.82944e-17
5933.54667 1.81582e-17
5935.01726 1.80233e-17
5936.48785 1.75807e-17
5937.95844 1.85276e-17
5939.42903 1.76609e-17
5940.89962 1.67980e-17
5942.37021 1.78235e-17
5943.84080 1.80679e-17
5945.31139 1.81060e-17
5946.78198 1.76289e-17
5948.25257 1.67705e-17
5949.72316 1.69729e-17
5951.19375 1.71357e-17
5952.66434 1.71354e-17
5954.13493 1.75985e-17
5955.59538 1.72609e-17
5957.06597 1.68399e-17
5958.53656 1.66532e-17
5960.00715 1.66307e-17
5961.47774 1.58753e-17
5962.94833 1.63670e-17
5964.41892 1.84689e-17
5965.88951 1.73692e-17
5967.36010 1.56921e-17
5968.83069 1.78411e-17
5970.30128 1.81361e-17
5971.77187 1.70613e-17
5973.24246 1.81989e-17
5974.71305 1.80428e-17
5976.18364 1.67017e-17
5977.65423 1.63441e-17
5979.12482 1.73783e-17
5980.58527 1.73070e-17
5982.05586 1.64672e-17
5983.52645 1.76077e-17
5984.99704 1.81856e-17
5986.46763 1.73173e-17
5987.93822 1.68101e-17
5989.40881 1.65898e-17
5990.87940 1.69114e-17
5992.34999 1.70123e-17
5993.82058 1.65128e-17
5995.29117 1.69741e-17
5996.76176 1.67654e-17
5998.23235 1.66394e-17
5999.70294 1.72530e-17
6001.17353 1.69997e-17
6002.64412 1.70631e-17
6004.11471 1.74835e-17
6005.58530 1.70770e-17
6007.04575 1.53322e-17
6008.51634 1.62049e-17
6009.98693 1.72084e-17
6011.45752 1.69331e-17
6012.92811 1.68360e-17
6014.39870 1.67250e-17
6015.86929 1.68741e-17
6017.33988 1.70572e-17
6018.81047 1.69583e-17
6020.28106 1.68478e-17
6021.75165 1.66357e-17
6023.22224 1.61335e-17
6024.69283 1.64702e-17
6026.16342 1.56183e-17
6027.63401 1.46292e-17
6029.10460 1.58825e-17
6030.56505 1.65837e-17
6032.03564 1.68068e-17
6033.50623 1.70359e-17
6034.97682 1.65265e-17
6036.44741 1.63368e-17
6037.91800 1.59414e-17
6039.38859 1.51149e-17
6040.85918 1.44007e-17
6042.32977 1.52755e-17
6043.80036 1.66852e-17
6045.27095 1.59302e-17
6046.74154 1.51388e-17
6048.21213 1.51368e-17
6049.68272 1.50382e-17
6051.15331 1.41683e-17
6052.62390 1.41231e-17
6054.09449 1.61078e-17
6055.56508 1.62845e-17
6057.02552 1.43615e-17
6058.49611 1.42269e-17
6059.96670 1.50218e-17
6061.43729 1.48570e-17
6062.90788 1.53365e-17
6064.37847 1.58223e-17
6065.84906 1.47322e-17
6067.31965 1.37405e-17
6068.79024 1.49759e-17
6070.26083 1.52394e-17
6071.73142 1.34039e-17
6073.20201 1.46597e-17
6074.67260 1.38412e-17
6076.14319 1.31679e-17
6077.61378 1.42974e-17
6079.08437 1.42706e-17
6080.55496 1.29092e-17
6082.01541 1.21653e-17
6083.48600 1.41959e-17
6084.95659 1.32806e-17
6086.42718 1.38312e-17
6087.89777 1.48004e-17
6089.36836 1.40699e-17
6090.83895 1.27731e-17
6092.30954 1.23868e-17
6093.78013 1.14278e-17
6095.25072 1.17967e-17
6096.72131 1.27866e-17
6098.19190 1.26200e-17
6099.66249 1.29639e-17
6101.13308 1.26760e-17
6102.60367 1.18645e-17
6104.07426 1.27946e-17
6105.54485 1.28196e-17
6107.00530 1.23859e-17
6108.47589 1.25042e-17
6109.94648 1.40427e-17
6111.41707 1.39014e-17
6112.88766 1.33596e-17
6114.35825 1.33356e-17
6115.82884 1.28376e-17
6117.29943 1.41807e-17
6118.77002 1.40711e-17
6120.24061 1.30494e-17
6121.71120 1.16862e-17
6123.18179 1.14568e-17
6124.65238 1.25948e-17
6126.12297 1.32618e-17
6127.59356 1.31542e-17
6129.06415 1.44559e-17
6130.53474 1.48853e-17
6132.00533 1.37151e-17
6133.46578 1.36094e-17
6134.93637 1.20899e-17
6136.40696 1.03901e-17
6137.87755 1.14004e-17
6139.34814 1.42602e-17
6140.81873 1.41190e-17
6142.28932 1.26482e-17
6143.75991 1.25851e-17
6145.23050 1.20019e-17
6146.70109 1.24494e-17
6148.17168 1.32509e-17
6149.64227 1.27092e-17
6151.11286 1.31148e-17
6152.58345 1.32002e-17
6154.05404 1.34536e-17
6155.52463 1.35560e-17
6156.99522 1.26028e-17
6158.45567 1.22048e-17
6159.92626 1.22077e-17
6161.39685 1.29654e-17
6162.86744 1.23627e-17
6164.33803 1.23486e-17
6165.80862 1.21764e-17
6167.27921 1.22547e-17
6168.74980 1.15665e-17
6170.22039 1.10867e-17
6171.69098 1.19757e-17
6173.16157 1.28799e-17
6174.63216 1.21177e-17
6176.10275 1.13653e-17
6177.57334 1.16431e-17
6179.04393 1.18419e-17
6180.51452 1.21085e-17
6181.98511 1.09722e-17
6183.44555 1.05725e-17
6184.91614 1.06508e-17
6186.38673 1.19381e-17
6187.85732 1.24322e-17
6189.32791 1.22239e-17
6190.79850 1.25798e-17
6192.26909 1.23633e-17
6193.73968 1.18412e-17
6195.21027 1.21310e-17
6196.68086 1.25753e-17
6198.15145 1.31850e-17
6199.62204 1.17313e-17
6201.09263 1.18175e-17
6202.56322 1.24875e-17
6204.03381 1.09540e-17
6205.50440 1.15150e-17
6206.97499 1.03091e-17
6208.43544 1.16306e-17
6209.90603 1.24425e-17
6211.37662 1.15684e-17
6212.84721 1.23427e-17
6214.31780 1.31664e-17
6215.78839 1.21967e-17
6217.25898 1.24558e-17
6218.72957 1.19681e-17
6220.20016 1.25974e-17
6221.67075 1.27538e-17
6223.14134 1.23624e-17
6224.61193 1.26867e-17
6226.08252 1.15055e-17
6227.55311 1.22120e-17
6229.02370 1.17790e-17
6230.49429 1.17676e-17
6231.96488 1.30599e-17
6233.42533 1.31810e-17
6234.89592 1.40719e-17
6236.36651 1.38898e-17
6237.83710 1.48053e-17
6239.30769 1.45614e-17
6240.77828 1.29348e-17
6242.24887 1.30767e-17
6243.71946 1.31835e-17
6245.19005 1.36032e-17
6246.66064 1.39325e-17
6248.13123 1.34271e-17
6249.60182 1.32811e-17
6251.07241 1.32113e-17
6252.54300 1.35967e-17
6254.01359 1.37448e-17
6255.48418 1.37189e-17
6256.95477 1.32466e-17
6258.41522 1.19927e-17
6259.88581 1.26881e-17
6261.35640 1.34247e-17
6262.82699 1.35696e-17
6264.29758 1.36417e-17
6265.76817 1.29736e-17
6267.23876 1.18257e-17
6268.70935 1.22662e-17
6270.17994 1.30877e-17
6271.65053 1.19710e-17
6273.12112 1.23376e-17
6274.59171 1.25153e-17
6276.06230 1.28382e-17
6277.53289 1.31124e-17
6279.00348 1.26695e-17
6280.47407 1.21025e-17
6281.94466 1.10586e-17
6283.41525 1.17816e-17
6284.87570 1.23540e-17
6286.34629 1.34802e-17
6287.81688 1.17357e-17
6289.28747 1.12629e-17
6290.75806 1.25630e-17
6292.22865 1.16503e-17
6293.69924 1.05272e-17
6295.16983 1.05046e-17
6296.64042 1.02752e-17
6298.11101 1.09183e-17
6299.58160 1.01580e-17
6301.05219 9.74657e-18
6302.52278 1.05907e-17
6303.99337 1.03381e-17
6305.46396 8.95948e-18
6306.93455 1.00267e-17
6308.40514 1.03071e-17
6309.86558 1.07932e-17
6311.33617 1.05563e-17
6312.80676 1.05805e-17
6314.27735 1.04914e-17
6315.74794 1.03257e-17
6317.21853 9.99079e-18
6318.68912 1.00504e-17
6320.15971 1.05454e-17
6321.63030 1.01690e-17
6323.10089 9.16871e-18
6324.57148 1.03579e-17
6326.04207 1.05944e-17
6327.51266 1.05322e-17
6328.98325 1.07494e-17
6330.45384 1.02054e-17
6331.92443 9.14791e-18
6333.39502 9.87160e-18
6334.85547 1.05470e-17
6336.32606 1.05753e-17
6337.79665 1.02161e-17
6339.26724 9.79549e-18
6340.73783 9.43431e-18
6342.20842 9.99786e-18
6343.67901 1.04498e-17
6345.14960 9.32657e-18
6346.62019 7.63319e-18
6348.09078 8.58952e-18
6349.56137 9.99460e-18
6351.03196 9.70895e-18
6352.50255 9.64140e-18
6353.97314 1.05097e-17
6355.44373 9.30008e-18
6356.91432 9.05355e-18
6358.37477 1.02940e-17
6359.84536 9.80440e-18
6361.31595 9.53997e-18
6362.78654 9.65825e-18
6364.25713 9.95288e-18
6365.72772 1.01009e-17
6367.19831 9.66861e-18
6368.66890 1.01199e-17
6370.13949 1.07520e-17
6371.61008 1.00299e-17
6373.08067 1.00681e-17
6374.55126 1.00373e-17
6376.02185 9.00731e-18
6377.49244 8.70056e-18
6378.96303 9.34593e-18
6380.43362 9.75603e-18
6381.90421 9.10387e-18
6383.37480 9.00125e-18
6384.83525 1.03464e-17
6386.30584 1.11830e-17
6387.77643 1.11708e-17
6389.24702 9.65584e-18
6390.71761 8.31983e-18
6392.18820 9.97356e-18
6393.65879 1.06098e-17
6395.12938 1.00775e-17
6396.59997 1.03870e-17
6398.07056 1.00256e-17
6399.54115 9.86054e-18
6401.01174 9.84340e-18
6402.48233 9.73905e-18
6403.95292 9.80530e-18
6405.42351 1.00766e-17
6406.89410 9.91549e-18
6408.36469 9.74289e-18
6409.82514 1.03075e-17
6411.29573 1.02042e-17
6412.76632 1.02567e-17
6414.23691 1.06945e-17
6415.70750 1.00913e-17
6417.17809 1.00609e-17
6418.64868 1.08391e-17
6420.11927 1.05002e-17
6421.58986 9.89891e-18
6423.06045 1.05560e-17
6424.53104 1.11053e-17
6426.00163 1.13944e-17
6427.47222 1.07584e-17
6428.94281 1.05170e-17
6430.41340 1.04764e-17
6431.88399 1.14121e-17
6433.35458 1.15721e-17
6434.82517 1.12084e-17
6436.28561 1.09193e-17
6437.75620 1.05503e-17
6439.22679 1.14060e-17
6440.69738 1.17506e-17
6442.16797 1.13405e-17
6443.63856 1.00955e-17
6445.10915 1.05053e-17
6446.57974 1.14683e-17
6448.05033 1.13529e-17
6449.52092 1.07971e-17
6450.99151 1.05843e-17
6452.46210 1.06377e-17
6453.93269 1.09791e-17
6455.40328 1.16512e-17
6456.87387 1.08122e-17
6458.34446 1.06159e-17
6459.81505 1.12323e-17
6461.27550 1.06137e-17
6462.74609 1.15553e-17
6464.21668 1.15676e-17
6465.68727 1.00431e-17
6467.15786 1.10498e-17
6468.62845 1.20361e-17
6470.09904 1.11397e-17
6471.56963 1.07465e-17
6473.04022 1.04859e-17
6474.51081 1.01978e-17
6475.98140 1.00811e-17
6477.45199 1.07087e-17
6478.92258 1.12176e-17
6480.39317 1.01917e-17
6481.86376 1.07605e-17
6483.33435 1.12823e-17
6484.79480 9.96824e-18
6486.26539 1.01230e-17
6487.73598 1.10892e-17
6489.20657 1.20319e-17
6490.67716 1.21408e-17
6492.14775 1.12445e-17
6493.61834 1.07197e-17
6495.08893 1.06086e-17
6496.55952 1.14924e-17
6498.03011 1.20608e-17
6499.50070 1.16406e-17
6500.97129 1.14808e-17
6502.44188 1.08309e-17
6503.91247 1.01880e-17
6505.38306 1.06205e-17
6506.85365 1.16441e-17
6508.32424 1.17654e-17
6509.79483 1.06413e-17
6511.25528 1.08107e-17
6512.72587 1.15927e-17
6514.19646 1.16180e-17
6515.66705 1.13081e-17
6517.13764 1.02558e-17
6518.60823 9.64872e-18
6520.07882 1.02056e-17
6521.54941 1.05936e-17
6523.02000 1.06177e-17
6524.49059 1.01091e-17
6525.96118 9.57324e-18
6527.43177 1.01957e-17
6528.90236 1.05914e-17
6530.37295 1.06907e-17
6531.84354 9.43006e-18
6533.31413 8.56706e-18
6534.78472 8.82675e-18
6536.24517 8.87906e-18
6537.71576 8.55977e-18
6539.18635 8.26127e-18
6540.65694 8.50082e-18
6542.12753 8.41958e-18
6543.59812 8.23861e-18
6545.06871 9.03684e-18
6546.53930 9.19218e-18
6548.00989 9.31533e-18
6549.48048 8.41899e-18
6550.95107 8.42702e-18
6552.42166 8.78743e-18
6553.89225 8.90190e-18
6555.36284 9.05399e-18
6556.83343 8.59966e-18
6558.30402 7.56534e-18
6559.77461 8.25406e-18
6561.24520 8.77870e-18
6562.70564 9.00087e-18
6564.17623 9.38731e-18
6565.64682 9.32604e-18
6567.11741 9.01390e-18
6568.58800 9.30884e-18
6570.05859 9.21777e-18
6571.52918 8.94065e-18
6572.99977 9.51692e-18
6574.47036 8.79699e-18
6575.94095 8.13257e-18
6577.41154 7.94698e-18
6578.88213 7.19290e-18
6580.35272 7.04391e-18
6581.82331 9.43085e-18
6583.29390 9.78017e-18
6584.76449 9.57621e-18
6586.23508 9.59448e-18
6587.69553 1.06351e-17
6589.16612 1.03764e-17
6590.63671 8.51806e-18
6592.10730 9.23951e-18
6593.57789 9.36985e-18
6595.04848 7.83750e-18
6596.51907 8.75633e-18
6597.98966 9.37341e-18
6599.46025 9.67301e-18
6600.93084 1.01728e-17
6602.40143 9.35301e-18
6603.87202 8.97461e-18
6605.34261 9.37405e-18
6606.81320 1.02681e-17
6608.28379 9.66036e-18
6609.75438 8.73417e-18
6611.22497 8.48636e-18
6612.68542 9.44902e-18
6614.15601 1.03406e-17
6615.62660 9.65830e-18
6617.09719 9.22811e-18
6618.56778 9.09458e-18
6620.03837 8.66143e-18
6621.50896 8.06244e-18
6622.97955 8.98137e-18
6624.45014 1.05180e-17
6625.92073 1.05591e-17
6627.39132 1.06003e-17
6628.86191 1.06415e-17
6630.33250 1.06826e-17
6631.80309 1.07238e-17
6633.27368 1.07650e-17
6634.74427 1.08061e-17
6636.21486 1.08472e-17
6637.68545 1.08884e-17
6639.14590 1.09295e-17
6640.61649 1.09707e-17
6642.08708 1.10118e-17
6643.55767 1.10529e-17
6645.02826 1.10940e-17
6646.49885 1.11352e-17
6647.96944 1.11763e-17
6649.44003 1.12174e-17
6650.91062 1.12585e-17
6652.38121 1.12996e-17
6653.85180 1.13407e-17
6655.32239 1.13818e-17
6656.79298 1.14229e-17
6658.26357 1.14640e-17
6659.73416 1.15050e-17
6661.20475 1.15461e-17
6662.66520 1.15872e-17
6664.13579 1.16283e-17
6665.60638 1.16693e-17
6667.07697 1.17104e-17
6668.54756 1.17515e-17
6670.01815 1.17925e-17
6671.48874 1.18336e-17
6672.95933 1.18746e-17
6674.42992 1.19157e-17
6675.90051 1.19567e-17
6677.37110 1.19977e-17
6678.84169 1.20388e-17
6680.31228 1.20798e-17
6681.78287 1.21208e-17
6683.25346 1.21618e-17
6684.72405 1.22029e-17
6686.19464 1.22439e-17
6687.66523 1.22849e-17
6689.12567 1.19088e-17
6690.59626 1.15920e-17
6692.06685 1.25846e-17
6693.53744 1.19871e-17
6695.00803 1.17416e-17
6696.47862 1.23141e-17
6697.94921 1.32538e-17
6699.41980 1.43283e-17
6700.89039 1.24169e-17
6702.36098 1.20801e-17
6703.83157 1.31364e-17
6705.30216 1.36850e-17
6706.77275 1.43258e-17
6708.24334 1.33979e-17
6709.71393 1.34947e-17
6711.18452 1.31393e-17
6712.65511 1.30891e-17
6714.11556 1.29275e-17
6715.58615 1.23029e-17
6717.05674 1.29590e-17
6718.52733 1.39244e-17
6719.99792 1.40475e-17
6721.46851 1.36821e-17
6722.93910 1.21693e-17
6724.40969 1.33261e-17
6725.88028 1.30667e-17
6727.35087 1.27977e-17
6728.82146 1.26506e-17
6730.29205 1.31769e-17
6731.76264 1.40739e-17
6733.23323 1.35360e-17
6734.70382 1.32216e-17
6736.17441 1.36313e-17
6737.64500 1.21513e-17
6739.10545 1.32702e-17
6740.57604 1.45355e-17
6742.04663 1.36462e-17
6743.51722 1.31003e-17
6744.98781 1.23827e-17
6746.45840 1.26567e-17
6747.92899 1.25100e-17
6749.39958 1.31862e-17
6750.87017 1.27820e-17
6752.34076 1.24633e-17
6753.81135 1.26520e-17
6755.28194 1.24708e-17
6756.75253 1.25256e-17
6758.22312 1.13961e-17
6759.69371 1.17226e-17
6761.16430 1.26352e-17
6762.63489 1.26685e-17
6764.10548 1.33425e-17
6765.56593 1.29433e-17
6767.03652 1.22528e-17
6768.50711 1.25986e-17
6769.97770 1.23439e-17
6771.44829 1.25849e-17
6772.91888 1.32655e-17
6774.38947 1.37303e-17
6775.86006 1.23722e-17
6777.33065 1.10869e-17
6778.80124 1.19044e-17
6780.27183 1.36731e-17
6781.74242 1.34203e-17
6783.21301 1.18631e-17
6784.68360 1.30025e-17
6786.15419 1.24335e-17
6787.62478 1.29588e-17
6789.08523 1.25900e-17
6790.55582 1.20798e-17
6792.02641 1.17482e-17
6793.49700 1.22544e-17
6794.96759 1.31231e-17
6796.43818 1.26006e-17
6797.90877 1.14223e-17
6799.37936 1.15039e-17
6800.84995 1.18331e-17
6802.32054 1.21812e-17
6803.79113 1.21395e-17
6805.26172 1.21903e-17
6806.73231 1.26454e-17
6808.20290 1.24981e-17
6809.67349 1.12672e-17
6811.14408 1.28175e-17
6812.61467 1.26727e-17
6814.08526 1.34822e-17
6815.54570 1.23900e-17
6817.01629 1.17081e-17
6818.48688 1.24441e-17
6819.95747 1.18345e-17
6821.42806 1.20697e-17
6822.89865 1.30528e-17
6824.36924 1.17253e-17
6825.83983 1.19693e-17
6827.31042 1.30404e-17
6828.78101 1.28706e-17
6830.25160 1.17786e-17
6831.72219 1.08394e-17
6833.19278 1.17926e-17
6834.66337 1.22964e-17
6836.13396 1.30495e-17
6837.60455 1.26206e-17
6839.06500 1.14422e-17
6840.53559 1.16829e-17
6842.00618 1.21420e-17
6843.47677 1.17672e-17
6844.94736 1.14822e-17
6846.41795 1.09659e-17
6847.88854 1.11378e-17
6849.35913 1.03105e-17
6850.82972 1.15493e-17
6852.30031 1.10983e-17
6853.77090 1.12820e-17
6855.24149 1.22251e-17
6856.71208 1.12083e-17
6858.18267 1.08688e-17
6859.65326 1.04988e-17
6861.12385 1.05769e-17
6862.59444 1.00509e-17
6864.06503 1.11580e-17
6865.52548 1.15142e-17
6866.99607 1.06577e-17
6868.46666 1.03274e-17
6869.93725 1.04797e-17
6871.40784 1.05784e-17
6872.87843 1.04693e-17
6874.34902 1.04446e-17
6875.81961 1.03569e-17
6877.29020 1.06490e-17
6878.76079 1.13309e-17
6880.23138 1.13166e-17
6881.70197 1.14422e-17
6883.17256 1.05156e-17
6884.64315 9.30992e-18
6886.11374 9.62370e-18
6887.58433 1.10336e-17
6889.05492 1.14619e-17
6890.51537 1.08481e-17
6891.98596 1.05162e-17
6893.45655 9.70688e-18
6894.92714 9.10908e-18
6896.39773 9.04920e-18
6897.86832 8.88758e-18
6899.33891 9.30223e-18
6900.80950 1.00844e-17
6902.28009 9.92650e-18
6903.75068 9.90175e-18
6905.22127 1.06099e-17
6906.69186 1.00176e-17
6908.16245 9.84261e-18
6909.63304 1.03806e-17
6911.10363 9.66631e-18
6912.57422 8.93244e-18
6914.04481 8.71852e-18
6915.50526 8.95248e-18
6916.97585 9.43326e-18
6918.44644 9.38245e-18
6919.91703 9.06578e-18
6921.38762 9.29333e-18
6922.85821 8.74079e-18
6924.32880 8.34128e-18
6925.79939 8.36674e-18
6927.26998 8.57603e-18
6928.74057 8.44453e-18
6930.21116 8.23359e-18
6931.68175 8.28055e-18
6933.15234 8.91195e-18
6934.62293 9.61219e-18
6936.09352 8.61795e-18
6937.56411 7.87972e-18
6939.03470 8.27177e-18
6940.50529 8.30902e-18
6941.96573 8.31056e-18
6943.43632 8.78148e-18
6944.90691 9.34144e-18
6946.37750 9.12190e-18
6947.84809 8.95192e-18
6949.31868 8.84222e-18
6950.78927 8.85632e-18
6952.25986 9.13969e-18
6953.73045 9.87470e-18
6955.20104 9.62393e-18
6956.67163 8.68959e-18
6958.14222 8.02373e-18
6959.61281 8.39973e-18
6961.08340 8.54554e-18
6962.55399 8.83302e-18
6964.02458 9.38764e-18
6965.49517 8.73425e-18
6966.95562 7.98540e-18
6968.42621 7.68500e-18
6969.89680 7.67283e-18
6971.36739 8.21985e-18
6972.83798 9.27393e-18
6974.30857 8.71746e-18
6975.77916 7.78218e-18
6977.24975 8.14292e-18
6978.72034 8.75655e-18
6980.19093 8.17276e-18
6981.66152 7.81445e-18
6983.13211 8.59002e-18
6984.60270 9.02255e-18
6986.07329 8.36444e-18
6987.54388 8.26895e-18
6989.01447 9.14718e-18
6990.47492 9.02218e-18
6991.94551 8.13784e-18
6993.41610 8.26688e-18
6994.88669 8.52835e-18
6996.35728 8.89171e-18
6997.82787 9.70054e-18
6999.29846 1.00078e-17
7000.76905 8.99967e-18
7002.23964 9.08558e-18
7003.71023 9.43806e-18
7005.18082 8.90544e-18
7006.65141 9.64796e-18
7008.12200 1.01855e-17
7009.59259 9.15985e-18
7011.06318 8.98293e-18
7012.53377 1.05655e-17
7014.00436 1.03498e-17
7015.47495 8.79033e-18
7016.93540 8.46269e-18
7018.40599 8.98062e-18
7019.87658 9.35517e-18
7021.34717 9.77717e-18
7022.81776 1.02440e-17
7024.28835 1.01605e-17
7025.75894 9.25719e-18
7027.22953 8.85259e-18
7028.70012 9.62895e-18
7030.17071 1.01926e-17
7031.64130 9.93127e-18
7033.11189 9.76130e-18
7034.58248 9.75589e-18
7036.05307 8.94353e-18
7037.52366 8.66000e-18
7038.99425 9.88522e-18
7040.46484 1.11995e-17
7041.92529 1.09799e-17
7043.39588 1.02669e-17
7044.86647 1.06387e-17
7046.33706 1.00521e-17
7047.80765 9.45749e-18
7049.27824 1.06296e-17
7050.74883 1.14465e-17
7052.21942 1.04825e-17
7053.69001 9.98846e-18
7055.16060 1.12051e-17
7056.63119 1.10235e-17
7058.10178 1.05142e-17
7059.57237 1.07849e-17
7061.04296 1.07723e-17
7062.51355 1.03046e-17
7063.98414 1.04523e-17
7065.45473 1.09773e-17
7066.92532 1.10036e-17
7068.38576 1.09887e-17
7069.85635 1.09870e-17
7071.32694 1.06410e-17
7072.79753 1.08579e-17
7074.26812 1.08907e-17
7075.73871 1.09652e-17
7077.20930 1.18980e-17
7078.67989 1.22059e-17
7080.15048 1.21636e-17
7081.62107 1.17553e-17
7083.09166 1.15221e-17
7084.56225 1.16356e-17
7086.03284 1.18603e-17
7087.50343 1.24676e-17
7088.97402 1.21880e-17
7090.44461 1.17597e-17
7091.91520 1.12091e-17
7093.37565 1.11574e-17
7094.84624 1.11380e-17
7096.31683 1.13978e-17
7097.78742 1.14173e-17
7099.25801 1.11983e-17
7100.72860 1.14532e-17
7102.19919 1.13984e-17
7103.66978 1.15857e-17
7105.14037 1.15101e-17
7106.61096 1.07621e-17
7108.08155 9.79117e-18
7109.55214 1.21354e-17
7111.02273 1.26706e-17
7112.49332 1.18263e-17
7113.96391 1.23813e-17
7115.43450 1.12715e-17
7116.89495 1.10576e-17
7118.36554 1.10617e-17
7119.83613 1.08649e-17
7121.30672 1.13310e-17
7122.77731 1.10938e-17
7124.24790 1.10978e-17
7125.71849 1.20677e-17
7127.18908 1.19165e-17
7128.65967 1.16906e-17
7130.13026 1.10102e-17
7131.60085 1.15351e-17
7133.07144 1.12881e-17
7134.54203 1.11326e-17
7136.01262 1.06833e-17
7137.48321 1.07509e-17
7138.95380 1.11567e-17
7140.42439 1.18786e-17
7141.89498 1.06114e-17
7143.35543 1.12565e-17
7144.82602 1.12711e-17
7146.29661 1.05078e-17
7147.76720 1.07344e-17
7149.23779 1.13836e-17
7150.70838 1.04483e-17
7152.17897 9.73102e-18
7153.64956 9.72033e-18
7155.12015 9.99100e-18
7156.59074 9.98852e-18
7158.06133 1.16412e-17
7159.53192 1.16968e-17
7161.00251 1.02475e-17
7162.47310 1.02729e-17
7163.94369 9.97842e-18
7165.41428 1.02100e-17
7166.88487 1.05683e-17
7168.34532 1.00424e-17
7169.81591 1.00077e-17
7171.28650 1.01791e-17
7172.75709 1.04163e-17
7174.22768 9.82431e-18
7175.69827 9.03374e-18
7177.16886 9.73728e-18
7178.63945 1.07755e-17
7180.11004 1.03718e-17
7181.58063 9.52283e-18
7183.05122 9.70522e-18
7184.52181 9.68716e-18
7185.99240 1.03285e-17
7187.46299 1.04837e-17
7188.93358 9.84492e-18
7190.40417 1.01272e-17
7191.87476 9.55786e-18
7193.33520 9.20562e-18
7194.80579 9.68752e-18
7196.27638 9.90191e-18
7197.74697 9.54133e-18
7199.21756 9.79969e-18
7200.68815 9.74456e-18
7202.15874 9.20596e-18
7203.62933 9.98167e-18
7205.09992 9.63976e-18
7206.57051 9.24244e-18
7208.04110 9.98561e-18
7209.51169 1.05218e-17
7210.98228 1.02432e-17
7212.45287 9.35431e-18
7213.92346 9.77670e-18
7215.39405 9.99945e-18
7216.86464 9.93742e-18
7218.33523 1.07919e-17
7219.79568 1.04004e-17
7221.26627 1.16641e-17
7222.73686 1.17596e-17
7224.20745 1.01004e-17
7225.67804 1.00057e-17
7227.14863 9.60320e-18
7228.61922 9.26514e-18
7230.08981 9.07962e-18
7231.56040 9.55872e-18
7233.03099 8.70423e-18
7234.50158 8.43724e-18
7235.97217 8.82334e-18
7237.44276 1.00518e-17
7238.91335 9.20147e-18
7240.38394 8.34562e-18
7241.85453 8.70479e-18
7243.31498 1.01359e-17
7244.78557 9.80809e-18
7246.25616 1.05574e-17
7247.72675 9.91119e-18
7249.19734 1.03618e-17
7250.66793 1.07634e-17
7252.13852 9.25541e-18
7253.60911 8.96123e-18
7255.07970 1.04195e-17
7256.55029 1.04569e-17
7258.02088 1.13722e-17
7259.49147 1.10017e-17
7260.96206 1.00809e-17
7262.43265 8.33661e-18
7263.90324 8.91492e-18
7265.37383 9.81984e-18
7266.84442 1.04789e-17
7268.31501 8.91049e-18
7269.77546 8.79266e-18
7271.24605 9.53928e-18
7272.71664 1.05005e-17
7274.18723 1.07132e-17
7275.65782 1.03804e-17
7277.12841 1.12529e-17
7278.59900 8.97309e-18
7280.06959 1.05397e-17
7281.54018 1.03823e-17
7283.01077 1.01131e-17
7284.48136 9.68155e-18
7285.95195 9.76346e-18
7287.42254 1.09751e-17
7288.89313 1.01108e-17
7290.36372 8.78972e-18
7291.83431 1.05834e-17
7293.30490 1.01527e-17
7294.76535 1.04307e-17
7296.23594 1.07191e-17
7297.70653 9.91888e-18
7299.17712 9.27848e-18
7300.64771 1.05798e-17
7302.11830 1.10496e-17
7303.58889 1.10544e-17
7305.05948 9.70827e-18
7306.53007 9.74157e-18
7308.00066 9.99018e-18
7309.47125 1.07292e-17
7310.94184 1.09427e-17
7312.41243 1.06586e-17
7313.88302 1.02849e-17
7315.35361 8.98852e-18
7316.82420 8.74738e-18
7318.29479 9.82201e-18
7319.75523 9.95421e-18
7321.22582 1.08223e-17
7322.69641 1.06344e-17
7324.16700 9.84403e-18
7325.63759 1.06600e-17
7327.10818 1.09578e-17
7328.57877 1.09113e-17
7330.04936 1.16977e-17
7331.51995 1.14949e-17
7332.99054 1.11235e-17
7334.46113 1.07994e-17
7335.93172 1.01379e-17
7337.40231 1.04690e-17
7338.87290 9.86293e-18
7340.34349 9.97280e-18
7341.81408 1.04472e-17
7343.28467 1.02907e-17
7344.75526 1.06084e-17
7346.21571 1.15562e-17
7347.68630 1.15083e-17
7349.15689 1.01328e-17
7350.62748 1.00358e-17
7352.09807 9.39759e-18
7353.56866 9.23545e-18
7355.03925 9.48177e-18
7356.50984 1.02617e-17
7357.98043 1.10596e-17
7359.45102 1.01605e-17
7360.92161 9.61107e-18
7362.39220 9.78675e-18
7363.86279 9.50292e-18
7365.33338 9.86659e-18
7366.80397 9.04330e-18
7368.27456 9.35001e-18
7369.74515 1.05750e-17
7371.20560 1.01685e-17
7372.67619 9.63153e-18
7374.14678 1.02538e-17
7375.61737 1.01019e-17
7377.08796 9.00753e-18
7378.55855 9.45413e-18
7380.02914 9.42743e-18
7381.49973 8.86011e-18
7382.97032 9.11036e-18
7384.44091 8.62921e-18
7385.91150 9.52231e-18
7387.38209 9.59623e-18
7388.85268 8.96767e-18
7390.32327 9.17852e-18
7391.79386 1.03289e-17
7393.26445 1.08260e-17
7394.73504 1.08045e-17
7396.20563 1.04953e-17
7397.66608 9.42294e-18
7399.13667 9.28408e-18
7400.60726 9.59582e-18
7402.07785 9.38927e-18
7403.54844 8.94196e-18
7405.01903 9.35143e-18
7406.48962 8.51442e-18
7407.96021 8.60982e-18
7409.43080 8.92513e-18
7410.90139 8.84488e-18
7412.37198 9.80478e-18
7413.84257 8.92130e-18
7415.31316 9.09836e-18
7416.20519 9.09836e-18
7418.20361 9.05922e-18
7420.20202 9.05218e-18
7422.21053 9.06741e-18
7424.20894 9.06948e-18
7426.20735 9.00000e-18
7428.20577 8.94320e-18
7430.20418 8.98598e-18
7432.21269 9.05934e-18
7434.21110 9.08841e-18
7436.20952 9.06298e-18
7438.20793 9.05109e-18
7440.21644 9.10795e-18
7442.21485 9.15989e-18
7444.21327 9.13222e-18
7446.21168 9.07949e-18
7448.21009 9.03907e-18
7450.21860 9.01802e-18
7452.21702 8.99374e-18
7454.21543 8.95758e-18
7456.21384 8.92530e-18
7458.22235 8.91959e-18
7460.22076 8.91771e-18
7462.21918 8.91122e-18
7464.21759 8.89168e-18
7466.21601 8.85187e-18
7468.22451 8.79489e-18
7470.22293 8.74052e-18
7472.22134 8.71685e-18
7474.21976 8.70708e-18
7476.21817 8.72869e-18
7478.22668 8.73251e-18
7480.22509 8.65763e-18
7482.22350 8.51551e-18
7484.22192 8.38972e-18
7486.23043 8.37170e-18
7488.22884 8.37637e-18
7490.22725 8.33553e-18
7492.22567 8.30052e-18
7494.22408 8.32127e-18
7496.23259 8.38644e-18
7498.23100 8.45246e-18
7500.22942 8.47935e-18
7502.22783 8.49118e-18
7504.22624 8.49773e-18
7506.23475 8.49015e-18
7508.23317 8.45829e-18
7510.23158 8.41217e-18
7512.22999 8.35908e-18
7514.23850 8.31447e-18
7516.23691 8.28377e-18
7518.23533 8.28492e-18
7520.23374 8.30786e-18
7522.23216 8.37789e-18
7524.24066 8.43511e-18
7526.23908 8.41333e-18
7528.23749 8.30555e-18
7530.23591 8.18862e-18
7532.23432 8.14256e-18
7534.24283 8.12339e-18
7536.24124 8.12758e-18
7538.23965 8.14093e-18
7540.23807 8.15300e-18
7542.24658 8.15913e-18
7544.24499 8.16890e-18
7546.24340 8.18559e-18
7548.24182 8.19760e-18
7550.24023 8.19772e-18
7552.24874 8.17679e-18
7554.24715 8.11605e-18
7556.24557 8.03376e-18
7558.24398 7.94741e-18
7560.24239 7.88515e-18
7562.25090 7.85208e-18
7564.24932 7.89711e-18
7566.24773 7.93928e-18
7568.24614 7.91015e-18
7570.25465 7.84268e-18
7572.25306 7.78454e-18
7574.25148 7.76100e-18
7576.24989 7.74698e-18
7578.24831 7.73078e-18
7580.25681 7.70268e-18
7582.25523 7.63320e-18
7584.25364 7.55729e-18
7586.25206 7.52476e-18
7588.26056 7.51178e-18
7590.25898 7.44212e-18
7592.25739 7.24702e-18
7594.25580 7.04508e-18
7596.25422 6.94817e-18
7598.26273 6.91449e-18
7600.26114 6.94890e-18
7602.25955 7.00442e-18
7604.25797 7.04938e-18
7606.25638 7.03112e-18
7608.26489 6.95891e-18
7610.26330 6.74525e-18
7612.26172 6.56794e-18
7614.26013 6.57989e-18
7616.26864 6.71388e-18
7618.26705 6.88057e-18
7620.26547 6.98464e-18
7622.26388 7.02268e-18
7624.26229 6.91716e-18
7626.27080 6.78087e-18
7628.26921 6.69822e-18
7630.26763 6.64864e-18
7632.26604 6.59810e-18
7634.27455 6.54676e-18
7636.27296 6.52249e-18
7638.27138 6.54846e-18
7640.26979 6.57388e-18
7642.26821 6.54621e-18
7644.27671 6.48947e-18
7646.27513 6.40495e-18
7648.27354 6.32054e-18
7650.27195 6.26586e-18
7652.27037 6.26222e-18
7654.27888 6.25512e-18
7656.27729 6.15955e-18
7658.27570 6.05862e-18
7660.27412 5.99427e-18
7662.28262 5.97324e-18
7664.28104 5.98402e-18
7666.27945 6.01697e-18
7668.27787 6.06199e-18
7670.27628 6.09862e-18
7672.28479 6.14159e-18
7674.28320 6.21708e-18
7676.28162 6.27970e-18
7678.28003 6.27940e-18
7680.27844 6.21265e-18
7682.28695 6.13206e-18
7684.28536 6.09031e-18
7686.28378 6.06154e-18
7688.28219 6.04522e-18
7690.29070 6.03549e-18
7692.28911 6.02022e-18
7694.28753 6.01167e-18
7696.28594 6.03749e-18
7698.28436 6.11319e-18
7700.29286 6.18564e-18
7702.29128 6.18910e-18
7704.28969 6.15718e-18
7706.28810 6.08260e-18
7708.29661 6.00482e-18
7710.29503 5.95716e-18
7712.29344 5.96919e-18
7714.29185 6.00738e-18
7716.29027 6.04929e-18
7718.29877 6.09741e-18
7720.29719 6.14850e-18
7722.29560 6.19693e-18
7724.29402 6.23668e-18
7726.29243 6.26950e-18
7728.30094 6.30397e-18
7730.29935 6.34997e-18
7732.29777 6.41720e-18
7734.29618 6.52855e-18
7736.30469 6.66254e-18
7738.30310 6.81612e-18
7740.30151 6.95800e-18
7742.29993 7.06534e-18
7744.29834 7.10551e-18
7746.30685 7.11407e-18
7748.30526 7.09265e-18
7750.30368 7.09338e-18
7752.30209 7.17184e-18
7754.30051 7.30807e-18
7756.30901 7.46044e-18
7758.30743 7.58557e-18
7760.30584 7.68818e-18
7762.30425 7.73751e-18
7764.31276 7.76798e-18
7766.31118 7.79680e-18
7768.30959 7.82750e-18
7770.30800 7.85184e-18
7772.30642 7.87629e-18
7774.31492 7.91246e-18
7776.31334 7.97903e-18
7778.31175 8.05542e-18
7780.31017 8.14044e-18
7782.30858 8.20937e-18
7784.31709 8.23571e-18
7786.31550 8.22461e-18
7788.31392 8.20507e-18
7790.31233 8.20798e-18
7792.32084 8.22582e-18
7794.31925 8.28784e-18
7796.31766 8.33954e-18
7798.31608 8.33068e-18
7800.31449 8.27436e-18
7802.32300 8.21053e-18
7804.32141 8.17533e-18
7806.31983 8.15543e-18
7808.31824 8.18486e-18
7810.32675 8.18801e-18
7812.32516 8.08716e-18
7814.32358 7.93540e-18
7816.32199 7.78824e-18
7818.32040 7.71057e-18
7820.32891 7.70286e-18
7822.32733 7.81792e-18
7824.32574 7.96483e-18
7826.32415 8.09038e-18
7828.32257 8.16878e-18
7830.33107 8.17679e-18
7832.32949 8.12539e-18
7834.32790 8.05530e-18
7836.32632 8.01495e-18
7838.33482 7.99820e-18
7840.33324 8.02636e-18
7842.33165 8.08662e-18
7844.33007 8.19184e-18
7846.32848 8.30052e-18
7848.33699 8.36945e-18
7850.33540 8.35519e-18
7852.33381 8.31120e-18
7854.33223 8.26569e-18
7856.33064 8.24396e-18
7858.33915 8.31138e-18
7860.33756 8.39512e-18
7862.33598 8.40058e-18
7864.33439 8.27916e-18
7866.34290 8.12090e-18
7868.34131 7.99863e-18
7870.33973 7.92144e-18
7872.33814 7.93898e-18
7874.33655 8.02011e-18
7876.34506 8.15227e-18
7878.34348 8.28620e-18
7880.34189 8.39008e-18
7882.34030 8.40192e-18
7884.34881 8.37237e-18
7886.34722 8.30543e-18
7888.34564 8.24791e-18
7890.34405 8.25294e-18
7892.34247 8.30179e-18
7894.35097 8.33632e-18
7896.34939 8.30119e-18
7898.34780 8.22976e-18
7900.34622 8.12078e-18
7902.34463 7.99887e-18
7904.35314 7.87405e-18
7906.35155 7.76785e-18
7908.34996 7.68448e-18
7910.34838 7.64182e-18
7912.35689 7.64115e-18
7914.35530 7.70262e-18
7916.35371 7.79692e-18
7918.35213 7.92678e-18
7920.35054 8.04584e-18
7922.35905 8.11884e-18
7924.35746 8.12387e-18
7926.35588 8.08850e-18
7928.35429 8.02873e-18
7930.35270 7.96980e-18
7932.36121 7.94274e-18
7934.35963 7.94947e-18
7936.35804 7.99996e-18
7938.35645 8.07891e-18
7940.36496 8.16562e-18
7942.36337 8.23207e-18
7944.36179 8.28565e-18
7946.36020 8.33674e-18
7948.35862 8.34512e-18
7950.36712 8.26107e-18
7952.36554 8.11756e-18
7954.36395 7.94893e-18
7956.36237 7.81889e-18
7958.37087 7.75505e-18
7960.36929 7.88248e-18
7962.36770 8.03449e-18
7964.36611 8.12284e-18
7966.36453 8.12060e-18
7968.37304 8.01155e-18
7970.37145 7.83200e-18
7972.36986 7.67240e-18
7974.36828 7.66755e-18
7976.36669 7.68217e-18
7978.37520 7.62295e-18
7980.37361 7.53095e-18
7982.37203 7.42840e-18
7984.37044 7.35929e-18
7986.37895 7.35740e-18
7988.37736 7.46548e-18
7990.37578 7.58229e-18
7992.37419 7.57841e-18
7994.37260 7.55341e-18
7996.38111 7.58842e-18
7998.37952 7.65936e-18
8000.37794 7.69085e-18
8002.37635 7.63539e-18
8004.37477 7.55929e-18
8006.38327 7.53047e-18
8008.38169 7.50729e-18
8010.38010 7.46281e-18
8012.37852 7.42719e-18
8014.38702 7.44764e-18
8016.38544 7.52713e-18
8018.38385 7.60389e-18
8020.38226 7.60462e-18
8022.38068 7.56172e-18
8024.38919 7.45067e-18
8026.38760 7.33022e-18
8028.38601 7.24836e-18
8030.38443 7.22773e-18
8032.39293 7.23616e-18
8034.39135 7.25340e-18
8036.38976 7.27099e-18
8038.38818 7.27160e-18
8040.38659 7.25376e-18
8042.39510 7.21286e-18
8044.39351 7.15212e-18
8046.39193 7.06383e-18
8048.39034 6.96455e-18
8050.38875 6.90545e-18
8052.39726 7.01079e-18
8054.39567 7.14150e-18
8056.39409 7.23131e-18
8058.39250 7.24884e-18
8060.40101 7.19138e-18
8062.39942 7.06941e-18
8064.39784 6.93397e-18
8066.39625 6.86255e-18
8068.39467 6.79701e-18
8070.40317 6.69330e-18
8072.40159 6.59585e-18
8074.40000 6.55483e-18
8076.39841 6.57928e-18
8078.39683 6.62740e-18
8080.40534 6.65993e-18
8082.40375 6.67261e-18
8084.40216 6.62880e-18
8086.40058 6.56326e-18
8088.40908 6.48413e-18
8090.40750 6.43171e-18
8092.40591 6.43692e-18
8094.40433 6.53280e-18
8096.40274 6.65368e-18
8098.41125 6.73081e-18
8100.40966 6.79288e-18
8102.40808 6.85447e-18
8104.40649 6.90156e-18
8106.40490 6.91667e-18
8108.41341 6.88682e-18
8110.41182 6.82595e-18
8112.41024 6.73596e-18
8114.40865 6.64069e-18
8116.41716 6.56345e-18
8118.41557 6.50131e-18
8120.41399 6.44208e-18
8122.41240 6.38741e-18
8124.41082 6.34754e-18
8126.41932 6.33462e-18
8128.41774 6.34323e-18
8130.41615 6.38571e-18
8132.41456 6.43292e-18
8134.42307 6.46259e-18
8136.42149 6.46526e-18
8138.41990 6.44876e-18
8140.41831 6.42115e-18
8142.41673 6.40689e-18
8144.42523 6.46035e-18
8146.42365 6.52491e-18
8148.42206 6.57224e-18
8150.42048 6.58250e-18
8152.41889 6.54906e-18
8154.42740 6.47546e-18
8156.42581 6.40143e-18
8158.42423 6.39742e-18
8160.42264 6.39936e-18
8162.43115 6.38480e-18
8164.42956 6.33553e-18
8166.42797 6.22958e-18
8168.42639 6.08406e-18
8170.42480 5.95431e-18
8172.43331 5.91752e-18
8174.43172 5.91724e-18
8176.43014 5.94351e-18
8178.42855 5.96683e-18
8180.43706 5.96203e-18
8182.43547 5.92558e-18
8184.43389 5.88032e-18
8186.43230 5.84787e-18
8188.43071 5.83201e-18
8190.43922 5.84525e-18
8192.43764 5.89220e-18
8194.43605 5.99302e-18
8196.43446 6.12029e-18
8198.43288 6.24790e-18
8200.44138 6.33613e-18
8202.43980 6.38644e-18
8204.43821 6.36769e-18
8206.43663 6.30561e-18
8208.44513 6.19420e-18
8210.44355 6.06992e-18
8212.44196 5.95562e-18
8214.44038 5.88151e-18
8216.43879 5.83567e-18
8218.44730 5.82230e-18
8220.44571 5.84255e-18
8222.44412 5.92384e-18
8224.44254 6.01081e-18
8226.44095 6.05915e-18
8228.44946 6.04440e-18
8230.44787 5.99245e-18
8232.44629 5.91668e-18
8234.44470 5.83007e-18
8236.45321 5.75202e-18
8238.45162 5.68322e-18
8240.45004 5.62657e-18
8242.44845 5.58113e-18
8244.44686 5.54289e-18
8246.45537 5.50817e-18
8248.45378 5.47831e-18
8250.45220 5.44231e-18
8252.45061 5.42649e-18
8254.45912 5.47076e-18
8256.45753 5.53258e-18
8258.45595 5.56231e-18
8260.45436 5.52273e-18
8262.45278 5.44837e-18
8264.46128 5.34953e-18
8266.45970 5.26003e-18
8268.45811 5.23821e-18
8270.45653 5.23188e-18
8272.45494 5.17458e-18
8274.46345 5.06400e-18
8276.46186 4.96663e-18
8278.46027 4.95087e-18
8280.45869 4.98161e-18
8282.46720 5.08587e-18
8284.46561 5.18773e-18
8286.46402 5.21829e-18
8288.46244 5.17828e-18
8290.46085 5.13054e-18
8292.46936 5.11911e-18
8294.46777 5.09605e-18
8296.46619 5.01207e-18
8298.46460 4.91189e-18
8300.46301 4.81346e-18
8302.47152 4.73362e-18
8304.46994 4.67504e-18
8306.46835 4.64438e-18
8308.46676 4.63256e-18
8310.47527 4.64387e-18
8312.47368 4.63900e-18
8314.47210 4.57174e-18
8316.47051 4.47020e-18
8318.46893 4.36251e-18
8320.47743 4.27498e-18
8322.47585 4.20289e-18
8324.47426 4.15746e-18
8326.47268 4.12400e-18
8328.47109 4.09819e-18
8330.47960 4.06760e-18
8332.47801 4.00898e-18
8334.47642 3.94299e-18
8336.47484 3.91795e-18
8338.48335 3.97246e-18
8340.48176 4.02063e-18
8342.48017 3.95571e-18
8344.47859 3.85438e-18
8346.47700 3.76170e-18
8348.48551 3.67920e-18
8350.48392 3.56886e-18
8352.48234 3.42998e-18
8354.48075 3.31543e-18
8356.48926 3.31825e-18
8358.48767 3.34689e-18
8360.48609 3.36481e-18
8362.48450 3.35037e-18
8364.48291 3.29219e-18
8366.49142 3.19620e-18
8368.48983 3.09934e-18
8370.48825 3.05018e-18
8372.48666 3.00978e-18
8374.48508 2.95876e-18
8376.49358 2.90082e-18
8378.49200 2.83501e-18
8380.49041 2.77233e-18
8382.48883 2.72535e-18
8384.49733 2.71057e-18
8386.49575 2.71074e-18
8388.49416 2.71826e-18
8390.49257 2.72592e-18
8392.49099 2.72926e-18
8394.49950 2.72252e-18
8396.49791 2.69630e-18
8398.49632 2.65574e-18
8400.49474 2.63540e-18
8402.50324 2.71279e-18
8404.50166 2.80316e-18
8406.50007 2.85391e-18
8408.49849 2.87986e-18
8410.49690 2.92018e-18
8412.50541 2.98559e-18
8414.50382 3.04296e-18
8416.50224 3.05431e-18
8418.50065 3.06149e-18
8420.49906 3.10182e-18
8422.50757 3.14631e-18
8424.50598 3.16347e-18
8426.50440 3.14740e-18
8428.50281 3.12007e-18
8430.51132 3.10147e-18
8432.50973 3.09792e-18
8434.50815 3.13740e-18
8436.50656 3.19103e-18
8438.50497 3.23428e-18
8440.51348 3.26917e-18
8442.51190 3.31708e-18
8444.51031 3.39101e-18
8446.50872 3.47218e-18
8448.50714 3.54654e-18
8450.51564 3.61249e-18
8452.51406 3.64764e-18
8454.51247 3.68670e-18
8456.51089 3.77410e-18
8458.51939 3.92727e-18
8460.51781 4.09349e-18
8462.51622 4.21944e-18
8464.51464 4.31773e-18
8466.51305 4.37972e-18
8468.52156 4.40600e-18
8470.51997 4.39054e-18
8472.51839 4.34722e-18
8474.51680 4.29139e-18
8476.52531 4.24833e-18
8478.52372 4.23062e-18
8480.52213 4.28953e-18
8482.52055 4.36109e-18
8484.51896 4.39536e-18
8486.52747 4.37957e-18
8488.52588 4.33827e-18
8490.52430 4.29243e-18
8492.52271 4.25967e-18
8494.52113 4.27266e-18
8496.52963 4.32701e-18
8498.52805 4.45041e-18
8500.52646 4.59568e-18
8502.52487 4.71309e-18
8504.53338 4.76047e-18
8506.53180 4.77969e-18
8508.53021 4.78969e-18
8510.52862 4.80923e-18
8512.52704 4.88046e-18
8514.53554 4.96279e-18
8516.53396 5.01896e-18
8518.53237 5.01848e-18
8520.53079 4.97197e-18
8522.52920 4.87065e-18
8524.53771 4.76981e-18
8526.53612 4.72007e-18
8528.53454 4.72184e-18
8530.53295 4.79598e-18
8532.54146 4.90349e-18
8534.53987 4.98387e-18
8536.53828 4.97435e-18
8538.53670 4.95991e-18
8540.53511 5.02890e-18
8542.54362 5.11725e-18
8544.54203 5.18241e-18
8546.54045 5.23188e-18
8548.53886 5.29704e-18
8550.53728 5.39692e-18
8552.54578 5.51169e-18
8554.54420 5.63834e-18
8556.54261 5.74934e-18
8558.54102 5.81189e-18
8560.54953 5.84315e-18
8562.54795 5.86273e-18
8564.54636 5.89080e-18
8566.54477 5.92349e-18
8568.54319 5.96704e-18
8570.55169 6.03629e-18
8572.55011 6.16598e-18
8574.54852 6.31526e-18
8576.54694 6.44639e-18
8578.54535 6.55070e-18
8580.55386 6.65835e-18
8582.55227 6.79118e-18
8584.55069 6.92911e-18
8586.54910 7.07390e-18
8588.55761 7.19508e-18
8590.55602 7.24411e-18
8592.55443 7.26286e-18
8594.55285 7.32506e-18
8596.55126 7.48126e-18
8598.55977 7.64843e-18
8600.55818 7.72422e-18
8602.55660 7.79061e-18
8604.55501 7.89486e-18
8606.55343 8.01186e-18
8608.56193 8.09639e-18
8610.56035 8.13376e-18
8612.55876 8.16398e-18
8614.55717 8.22564e-18
8616.56568 8.30847e-18
8618.56409 8.43226e-18
8620.56251 8.56509e-18
8622.56092 8.67268e-18
8624.55934 8.75369e-18
8626.56784 8.84805e-18
8628.56626 8.99101e-18
8630.56467 9.12913e-18
8632.56309 9.19126e-18
8634.57159 9.25255e-18
8636.57001 9.38132e-18
8638.56842 9.56476e-18
8640.56684 9.73898e-18
8642.56525 9.85991e-18
8644.57376 9.98237e-18
8646.57217 1.01668e-17
8648.57058 1.03606e-17
8650.56900 1.05703e-17
8652.56741 1.07263e-17
8654.57592 1.07525e-17
8656.57433 1.06298e-17
8658.57275 1.04759e-17
8660.57116 1.04273e-17
8662.57967 1.04307e-17
8664.57808 1.05100e-17
8666.57650 1.06184e-17
8668.57491 1.07209e-17
8670.57332 1.07878e-17
8672.58183 1.08414e-17
8674.58025 1.08863e-17
8676.57866 1.08886e-17
8678.57707 1.07851e-17
8680.57549 1.06474e-17
8682.58399 1.05222e-17
8684.58241 1.04412e-17
8686.58082 1.03872e-17
8688.57924 1.03661e-17
8690.58774 1.03838e-17
8692.58616 1.04746e-17
8694.58457 1.05778e-17
8696.58299 1.06524e-17
8698.58140 1.06930e-17
8700.58991 1.07175e-17
8702.58832 1.07367e-17
8704.58673 1.07531e-17
8706.58515 1.07785e-17
8708.59366 1.08034e-17
8710.59207 1.08275e-17
8712.59048 1.08433e-17
8714.58890 1.08244e-17
8716.58731 1.07983e-17
8718.59582 1.08261e-17
8720.59423 1.09954e-17
8722.59265 1.12090e-17
8724.59106 1.14353e-17
8726.58947 1.16123e-17
8728.59798 1.16765e-17
8730.59640 1.16404e-17
8732.59481 1.15824e-17
8734.59322 1.15718e-17
8736.60173 1.15460e-17
8738.60014 1.14526e-17
8740.59856 1.13353e-17
8742.59697 1.12003e-17
8744.59539 1.10901e-17
8746.60389 1.10370e-17
8748.60231 1.10684e-17
8750.60072 1.11354e-17
8752.59914 1.12038e-17
8754.60764 1.12510e-17
8756.60606 1.12424e-17
8758.60447 1.11850e-17
8760.60288 1.10857e-17
8762.60130 1.09680e-17
8764.60981 1.08510e-17
8766.60822 1.07704e-17
8768.60663 1.07226e-17
8770.60505 1.07327e-17
8772.60346 1.07681e-17
8774.61197 1.08077e-17
8776.61038 1.08298e-17
8778.60880 1.08385e-17
8780.60721 1.08258e-17
8782.61572 1.08002e-17
8784.61413 1.07505e-17
8786.61254 1.07154e-17
8788.61096 1.07263e-17
8790.60937 1.07860e-17
8792.61788 1.08805e-17
8794.61629 1.09921e-17
8796.61471 1.11058e-17
8798.61312 1.12066e-17
8800.61154 1.12608e-17
8802.62004 1.12271e-17
8804.61846 1.11220e-17
8806.61687 1.09596e-17
8808.61529 1.07787e-17
8810.62379 1.06088e-17
8812.62221 1.05190e-17
8814.62062 1.04348e-17
8816.61903 1.03006e-17
8818.61745 1.01446e-17
8820.62596 9.97879e-18
8822.62437 9.84505e-18
8824.62278 9.76962e-18
8826.62120 9.80227e-18
8828.62970 9.90767e-18
8830.62812 1.01395e-17
8832.62653 1.03381e-17
8834.62495 1.03493e-17
8836.62336 1.02007e-17
8838.63187 1.00294e-17
8840.63028 9.95021e-18
8842.62870 9.89256e-18
8844.62711 9.84784e-18
8846.62552 9.79001e-18
8848.63403 9.66852e-18
8850.63244 9.53660e-18
8852.63086 9.47471e-18
8854.62927 9.50960e-18
8856.63778 9.54407e-18
8858.63619 9.46372e-18
8860.63461 9.34637e-18
8862.63302 9.21232e-18
8864.63144 9.07797e-18
8866.63994 8.94939e-18
8868.63836 8.83452e-18
8870.63677 8.72584e-18
8872.63518 8.62001e-18
8874.63360 8.51758e-18
8876.64211 8.40647e-18
8878.64052 8.31223e-18
8880.63893 8.26411e-18
8882.63735 8.25124e-18
8884.64585 8.24275e-18
8886.64427 8.20743e-18
8888.64268 8.16113e-18
8890.64110 8.09202e-18
8892.63951 8.03285e-18
8894.64802 8.01161e-18
8896.64643 8.02308e-18
8898.64485 8.05949e-18
8900.64326 8.09554e-18
8902.65177 8.10312e-18
8904.65018 8.00991e-18
8906.64859 7.90160e-18
8908.64701 7.80135e-18
8910.64542 7.76609e-18
8912.65393 7.86853e-18
8914.65234 8.07830e-18
8916.65076 8.26599e-18
8918.64917 8.26805e-18
8920.64759 8.16957e-18
8922.65609 7.95366e-18
8924.65451 7.69388e-18
8926.65292 7.44630e-18
8928.65133 7.23483e-18
8930.65984 7.00697e-18
8932.65826 6.74695e-18
8934.65667 6.54227e-18
8936.65508 6.53383e-18
8938.65350 6.59294e-18
8940.66200 6.65841e-18
8942.66042 6.68238e-18
8944.65883 6.65993e-18
8946.65725 6.58189e-18
8948.66575 6.49694e-18
8950.66417 6.48347e-18
8952.66258 6.46617e-18
8954.66100 6.38480e-18
8956.65941 6.28710e-18
8958.66792 6.24802e-18
8960.66633 6.27618e-18
8962.66474 6.28043e-18
8964.66316 6.14966e-18
8966.66157 6.01573e-18
8968.67008 5.99332e-18
8970.66849 6.00648e-18
8972.66691 5.98505e-18
8974.66532 5.90242e-18
8976.67383 5.79532e-18
8978.67224 5.68434e-18
8980.67066 5.56757e-18
8982.66907 5.43319e-18
8984.66748 5.32830e-18
8986.67599 5.30860e-18
8988.67441 5.34421e-18
8990.67282 5.37393e-18
8992.67123 5.34583e-18
8994.66965 5.30339e-18
8996.67815 5.26974e-18
8998.67657 5.24230e-18
9000.67498 5.21419e-18
9002.67340 5.21064e-18
9004.68190 5.27277e-18
9006.68032 5.39066e-18
9008.67873 5.48954e-18
9010.67714 5.46575e-18
9012.67556 5.39364e-18
9014.68407 5.28661e-18
9016.68248 5.17973e-18
9018.68089 5.10494e-18
9020.67931 5.06262e-18
9022.67772 5.00513e-18
9024.68623 4.88968e-18
9026.68464 4.78999e-18
9028.68306 4.78844e-18
9030.68147 4.82492e-18
9032.68998 4.85604e-18
9034.68839 4.87413e-18
9036.68681 4.90642e-18
9038.68522 4.96489e-18
9040.68363 5.02934e-18
9042.69214 5.07746e-18
9044.69056 5.12293e-18
9046.68897 5.17384e-18
9048.68738 5.22468e-18
9050.68580 5.26453e-18
9052.69430 5.29160e-18
9054.69272 5.32189e-18
9056.69113 5.38361e-18
9058.68955 5.43060e-18
9060.69805 5.40471e-18
9062.69647 5.36482e-18
9064.69488 5.37893e-18
9066.69330 5.45971e-18
9068.69171 5.54464e-18
9070.70022 5.57501e-18
9072.69863 5.58128e-18
9074.69704 5.55850e-18
9076.69546 5.52992e-18
9078.69387 5.50015e-18
9080.70238 5.49908e-18
9082.70079 5.55373e-18
9084.69921 5.68649e-18
9086.69762 5.82700e-18
9088.70613 5.90192e-18
9090.70454 5.92532e-18
9092.70296 5.87515e-18
9094.70137 5.78503e-18
9096.69978 5.68237e-18
9098.70829 5.61132e-18
9100.70671 5.57502e-18
9102.70512 5.61764e-18
9104.70353 5.68925e-18
9106.70195 5.76481e-18
9108.71045 5.83756e-18
9110.70887 5.91994e-18
9112.70728 5.99664e-18
9114.70570 6.04350e-18
9116.71420 6.02211e-18
9118.71262 5.99041e-18
9120.71103 6.01092e-18
9122.70945 6.03366e-18
9124.70786 6.02040e-18
9126.71637 5.95097e-18
9128.71478 5.83027e-18
9130.71319 5.66383e-18
9132.71161 5.50758e-18
9134.72012 5.44477e-18
9136.71853 5.42864e-18
9138.71694 5.45919e-18
9140.71536 5.48706e-18
9142.71377 5.46325e-18
9144.72228 5.35854e-18
9146.72069 5.25223e-18
9148.71911 5.23057e-18
9150.71752 5.26700e-18
9152.71593 5.41783e-18
9154.72444 5.57812e-18
9156.72286 5.63673e-18
9158.72127 5.54882e-18
9160.71968 5.42846e-18
9162.72819 5.38234e-18
9164.72660 5.35756e-18
9166.72502 5.34368e-18
9168.72343 5.34709e-18
9170.72185 5.38204e-18
9172.73035 5.43701e-18
9174.72877 5.49265e-18
9176.72718 5.52314e-18
9178.72559 5.53500e-18
9180.73410 5.50753e-18
9182.73252 5.47741e-18
9184.73093 5.46623e-18
9186.72934 5.48945e-18
9188.72776 5.55250e-18
9190.73626 5.65090e-18
9192.73468 5.74423e-18
9194.73309 5.74839e-18
9196.73151 5.74844e-18
9198.72992 5.80609e-18
9200.73843 5.88540e-18
9202.73684 5.92205e-18
9204.73526 5.89726e-18
9206.73367 5.87725e-18
9208.74218 5.94009e-18
9210.74059 6.00648e-18
9212.73901 6.01011e-18
9214.73742 6.00170e-18
9216.73583 6.03600e-18
9218.74434 6.12642e-18
9220.74275 6.23643e-18
9222.74117 6.33498e-18
9224.73958 6.40950e-18
9226.73800 6.41447e-18
9228.74650 6.39378e-18
9230.74492 6.38419e-18
9232.74333 6.38437e-18
9234.74175 6.36192e-18
9236.75025 6.29924e-18
9238.74867 6.22988e-18
9240.74708 6.17976e-18
9242.74549 6.15730e-18
9244.74391 6.18394e-18
9246.75242 6.24535e-18
9248.75083 6.32940e-18
9250.74924 6.40986e-18
9252.74766 6.47151e-18
9254.75616 6.46369e-18
9256.75458 6.46102e-18
9258.75299 6.53693e-18
9260.75141 6.63717e-18
9262.74982 6.71005e-18
9264.75833 6.71758e-18
9266.75674 6.67565e-18
9268.75516 6.57904e-18
9270.75357 6.46599e-18
9272.75198 6.36550e-18
9274.76049 6.29426e-18
9276.75890 6.26635e-18
9278.75732 6.28486e-18
9280.75573 6.34790e-18
9282.76424 6.44069e-18
9284.76265 6.51502e-18
9286.76107 6.47042e-18
9288.75948 6.40264e-18
9290.75790 6.37994e-18
9292.76640 6.38425e-18
9294.76482 6.35142e-18
9296.76323 6.26246e-18
9298.76164 6.18601e-18
9300.76006 6.19978e-18
9302.76857 6.27557e-18
9304.76698 6.48462e-18
9306.76539 6.67917e-18
9308.76381 6.71260e-18
9310.77231 6.52983e-18
9312.77073 6.25628e-18
9314.76914 5.99201e-18
9316.76756 5.83200e-18
9318.76597 6.03444e-18
9320.77448 6.31599e-18
9322.77289 6.43067e-18
9324.77131 6.32127e-18
9326.76972 6.15445e-18
9328.77823 6.04859e-18
9330.77664 5.95684e-18
9332.77505 5.86461e-18
9334.77347 5.82521e-18
9336.77188 5.91693e-18
9338.78039 6.07271e-18
9340.77880 6.21556e-18
9342.77722 6.24117e-18
9344.77563 6.15124e-18
9346.77405 5.75210e-18
9348.78255 5.42736e-18
9350.78097 5.53049e-18
9352.77938 5.86833e-18
9354.77779 6.18170e-18
9356.78630 6.29560e-18
9358.78471 6.33364e-18
9360.78313 6.32958e-18
9362.78154 6.28298e-18
9364.77996 6.18953e-18
9366.78846 6.08849e-18
9368.78688 5.96483e-18
9370.78529 5.90841e-18
9372.78371 6.03090e-18
9374.79221 6.45652e-18
9376.79063 6.89926e-18
9378.78904 7.08774e-18
9380.78746 7.08452e-18
9382.78587 6.84125e-18
9384.79438 6.48844e-18
9386.79279 6.16119e-18
9388.79120 6.01065e-18
9390.78962 5.92596e-18
9392.78803 5.84971e-18
9394.79654 5.81128e-18
9396.79495 5.83933e-18
9398.79337 5.88760e-18
9400.79178 5.88748e-18
9402.80029 5.83524e-18
9404.79870 5.83950e-18
9406.79712 6.05903e-18
9408.79553 6.28467e-18
9410.79394 6.36059e-18
9412.80245 6.33813e-18
9414.80086 6.28231e-18
9416.79928 6.22041e-18
9418.79769 6.11446e-18
9420.79611 5.94955e-18
9422.80461 5.82008e-18
9424.80303 5.85934e-18
9426.80144 5.96698e-18
9428.79986 6.10597e-18
9430.80836 6.19559e-18
9432.80678 6.18249e-18
9434.80519 6.01772e-18
9436.80361 5.83432e-18
9438.80202 5.78381e-18
9440.81053 5.80520e-18
9442.80894 5.93983e-18
9444.80735 6.08327e-18
9446.80577 6.12751e-18
9448.81428 6.00559e-18
9450.81269 5.83019e-18
9452.81110 5.67239e-18
9454.80952 5.61481e-18
9456.80793 5.88268e-18
9458.81644 6.20342e-18
9460.81485 6.28213e-18
9462.81327 6.04353e-18
9464.81168 5.74474e-18
9466.81009 5.61584e-18
9468.81860 5.60578e-18
9470.81702 5.82111e-18
9472.81543 6.12727e-18
9474.81384 6.47989e-18
9476.82235 6.73900e-18
9478.82076 6.82298e-18
9480.81918 6.62030e-18
9482.81759 6.31022e-18
9484.81601 6.00597e-18
9486.82451 5.78263e-18
9488.82293 5.76371e-18
9490.82134 5.88361e-18
9492.81976 6.05210e-18
9494.81817 6.14547e-18
9496.82668 6.14043e-18
9498.82509 5.87010e-18
9500.82350 5.56036e-18
9502.82192 5.33121e-18
9504.83043 5.22372e-18
9506.82884 5.25460e-18
9508.82725 5.39703e-18
9510.82567 5.57325e-18
9512.82408 5.68098e-18
9514.83259 5.73200e-18
9516.83100 5.63715e-18
9518.82942 5.52944e-18
9520.82783 5.54635e-18
9522.82624 5.67463e-18
9524.83475 5.78158e-18
9526.83317 5.74483e-18
9528.83158 5.64049e-18
9530.82999 5.44778e-18
9532.83850 5.27207e-18
9534.83691 5.22059e-18
9536.83533 5.25632e-18
9538.83374 5.28359e-18
9540.83216 5.22867e-18
9542.84066 5.14569e-18
9544.83908 5.03591e-18
9546.83749 4.95634e-18
9548.83591 4.97711e-18
9550.83432 5.05366e-18
9552.84283 5.14053e-18
9554.84124 5.18438e-18
9556.83965 5.18304e-18
9558.83807 5.09449e-18
9560.84658 4.98404e-18
9562.84499 4.90610e-18
9564.84340 4.84024e-18
9566.84182 4.76289e-18
9568.84023 4.66931e-18
9570.84874 4.56760e-18
9572.84715 4.46670e-18
9574.84557 4.38938e-18
9576.84398 4.36032e-18
9578.84239 4.38861e-18
9580.85090 4.51636e-18
9582.84931 4.68505e-18
9584.84773 4.82879e-18
9586.84614 4.86935e-18
9588.85465 4.84466e-18
9590.85306 4.71994e-18
9592.85148 4.58488e-18
9594.84989 4.48664e-18
9596.84831 4.46094e-18
9598.85681 4.53240e-18
9600.85523 4.68651e-18
9602.85364 4.84704e-18
9604.85206 4.91059e-18
9606.86056 4.92059e-18
9608.85898 4.83108e-18
9610.85739 4.74544e-18
9612.85580 4.77121e-18
9614.85422 4.91574e-18
9616.86273 5.07169e-18
9618.86114 5.13299e-18
9620.85955 5.12809e-18
9622.85797 4.98963e-18
9624.85638 4.83254e-18
9626.86489 4.73835e-18
9628.86330 4.73937e-18
9630.86172 4.81652e-18
9632.86013 4.94133e-18
9634.86864 5.03207e-18
9636.86705 4.88477e-18
9638.86547 4.73475e-18
9640.86388 4.74990e-18
9642.86229 4.88247e-18
9644.87080 5.02024e-18
9646.86921 5.08014e-18
9648.86763 5.10262e-18
9650.86604 5.07990e-18
9652.86446 5.03592e-18
9654.87296 4.97015e-18
9656.87138 4.92456e-18
9658.86979 4.94041e-18
9660.86821 5.02089e-18
9662.87671 5.11728e-18
9664.87513 5.17917e-18
9666.87354 5.21705e-18
9668.87195 5.21343e-18
9670.87037 5.18267e-18
9672.87888 5.12122e-18
9674.87729 5.05886e-18
9676.87570 5.02402e-18
9678.87412 5.04969e-18
9680.88262 5.09298e-18
9682.88104 5.11998e-18
9684.87945 5.13763e-18
9686.87787 5.13657e-18
9688.87628 5.13202e-18
9690.88479 5.15036e-18
9692.88320 5.19616e-18
9694.88162 5.22560e-18
9696.88003 5.17419e-18
9698.87844 5.09442e-18
9700.88695 4.98841e-18
9702.88536 4.90159e-18
9704.88378 4.86728e-18
9706.88219 4.90667e-18
9708.89070 4.99498e-18
9710.88911 5.12132e-18
9712.88753 5.22028e-18
9714.88594 5.17559e-18
9716.88436 5.09703e-18
9718.89286 5.09499e-18
9720.89128 5.16865e-18
9722.88969 5.20661e-18
9724.88810 5.12900e-18
9726.89661 5.07385e-18
9728.89503 5.22001e-18
9730.89344 5.40329e-18
9732.89185 5.52347e-18
9734.89027 5.55825e-18
9736.89877 5.54034e-18
9738.89719 5.50096e-18
9740.89560 5.47607e-18
9742.89402 5.57168e-18
9744.89243 5.66119e-18
9746.90094 5.67153e-18
9748.89935 5.60496e-18
9750.89776 5.46689e-18
9752.89618 5.30301e-18
9754.90469 5.17531e-18
9756.90310 5.19569e-18
9758.90151 5.23951e-18
9760.89993 5.23545e-18
9762.89834 5.17802e-18
9764.90685 5.04428e-18
9766.90526 4.87900e-18
9768.90368 4.75656e-18
9770.90209 4.76606e-18
9772.90051 4.80953e-18
9774.90901 4.80966e-18
9776.90743 4.80338e-18
9778.90584 4.80271e-18
9780.90425 4.82881e-18
9782.91276 4.90457e-18
9784.91118 5.03507e-18
9786.90959 5.15825e-18
9788.90800 5.17666e-18
9790.90642 5.15844e-18
9792.91492 5.13251e-18
9794.91334 5.09394e-18
9796.91175 5.01112e-18
9798.91017 4.89470e-18
9800.91867 4.79369e-18
9802.91709 4.78021e-18
9804.91550 4.80067e-18
9806.91392 4.84398e-18
9808.91233 4.88604e-18
9810.92084 4.90337e-18
9812.91925 4.89880e-18
9814.91766 4.91212e-18
9816.91608 4.98143e-18
9818.91449 5.03614e-18
9820.92300 5.01263e-18
9822.92141 4.92965e-18
9824.91983 4.77331e-18
9826.91824 4.59242e-18
9828.92675 4.43184e-18
9830.92516 4.35297e-18
9832.92358 4.32614e-18
9834.92199 4.35487e-18
9836.92040 4.42769e-18
9838.92891 4.58181e-18
9840.92733 4.72400e-18
9842.92574 4.73707e-18
9844.92415 4.58671e-18
9846.92257 4.44639e-18
9848.93107 4.54447e-18
9850.92949 4.68679e-18
9852.92790 4.79030e-18
9854.92632 4.83837e-18
9856.93482 4.83710e-18
9858.93324 4.78811e-18
9860.93165 4.70557e-18
9862.93007 4.60581e-18
9864.92848 4.49627e-18
9866.93699 4.36448e-18
9868.93540 4.27324e-18
9870.93381 4.29522e-18
9872.93223 4.40385e-18
9874.94074 4.51538e-18
9876.93915 4.55041e-18
9878.93756 4.56865e-18
9880.93598 4.61251e-18
9882.93439 4.64149e-18
9884.94290 4.63449e-18
9886.94131 4.58302e-18
9888.93973 4.46970e-18
9890.93814 4.31961e-18
9892.93655 4.21002e-18
9894.94506 4.30064e-18
9896.94348 4.41243e-18
9898.94189 4.42716e-18
9900.94030 4.38321e-18
9902.94881 4.35144e-18
9904.94722 4.35559e-18
9906.94564 4.34394e-18
9908.94405 4.26782e-18
9910.94247 4.22830e-18
9912.95097 4.34395e-18
9914.94939 4.52272e-18
9916.94780 4.72179e-18
9918.94621 4.85280e-18
9920.95472 4.86237e-18
9922.95314 4.67934e-18
9924.95155 4.47024e-18
9926.94996 4.42675e-18
9928.94838 4.43908e-18
9930.95689 4.44970e-18
9932.95530 4.44904e-18
9934.95371 4.47778e-18
9936.95213 4.53263e-18
9938.95054 4.55391e-18
9940.95905 4.38450e-18
9942.95746 4.25800e-18
9944.95588 4.37333e-18
9946.95429 4.61852e-18
9948.96280 4.88162e-18
9950.96121 5.00744e-18
9952.95963 4.94356e-18
9954.95804 4.48736e-18
9956.95645 4.04914e-18
9958.96496 4.02606e-18
9960.96337 4.21833e-18
9962.96179 4.46983e-18
9964.96020 4.63142e-18
9966.95862 4.68662e-18
9968.96712 4.55059e-18
9970.96554 4.38735e-18
9972.96395 4.37516e-18
9974.96236 4.40790e-18
9976.97087 4.39524e-18
9978.96929 4.37077e-18
9980.96770 4.44642e-18
9982.96611 4.66628e-18
9984.96453 4.86398e-18
9986.97304 4.78854e-18
9988.97145 4.64048e-18
9990.96986 4.50014e-18
9992.96828 4.38786e-18
9994.97678 4.26444e-18
9996.97520 4.14832e-18
9998.97361 4.08477e-18
10000.97203 4.15434e-18
10002.97044 4.26131e-18
