# wavelength flux
3401.90063 3.15403e-18
3403.84790 4.07890e-18
3405.79516 4.50894e-18
3407.75257 3.63366e-18
3409.69983 3.83653e-18
3411.64710 4.45160e-18
3413.60450 3.67366e-18
3415.55177 3.27962e-18
3417.49903 3.32260e-18
3419.44629 3.57560e-18
3421.40370 3.89922e-18
3423.35096 4.17474e-18
3425.29823 3.89169e-18
3427.24549 3.11486e-18
3429.20290 2.88879e-18
3431.15016 3.26883e-18
3433.09743 3.70416e-18
3435.05483 4.24596e-18
3437.00210 4.00895e-18
3438.94936 3.64335e-18
3440.89662 3.50434e-18
3442.85403 3.30986e-18
3444.80129 3.10709e-18
3446.74856 2.74328e-18
3448.69582 3.03191e-18
3450.65323 3.28830e-18
3452.60049 2.85146e-18
3454.54776 3.68785e-18
3456.49502 3.92185e-18
3458.45243 3.76385e-18
3460.39969 4.44694e-18
3462.34695 4.42016e-18
3464.30436 4.22023e-18
3466.25162 3.79110e-18
3468.19889 3.64077e-18
3470.14615 4.08167e-18
3472.10356 5.07157e-18
3474.05082 4.97175e-18
3475.99809 4.57077e-18
3477.94535 4.57914e-18
3479.90276 5.20000e-18
3481.85002 4.49469e-18
3483.79728 4.04598e-18
3485.75469 4.65581e-18
3487.70195 4.74755e-18
3489.64922 5.01255e-18
3491.59648 4.83639e-18
3493.55389 4.74058e-18
3495.50115 5.27314e-18
3497.44842 5.30349e-18
3499.39568 5.06624e-18
3501.35309 4.79705e-18
3503.30035 4.83947e-18
3505.24761 5.53206e-18
3507.20502 5.22572e-18
3509.15228 6.02997e-18
3511.09955 5.79643e-18
3513.04681 5.52241e-18
3515.00422 6.44153e-18
3516.95148 6.99494e-18
3518.89875 6.02653e-18
3520.84601 6.30522e-18
3522.80342 6.14817e-18
3524.75068 7.07857e-18
3526.69794 6.92781e-18
3528.64521 6.71029e-18
3530.60261 7.48103e-18
3532.54988 6.86185e-18
3534.49714 6.78832e-18
3536.45455 7.37940e-18
3538.40181 7.37699e-18
3540.34908 6.86480e-18
3542.29634 6.96533e-18
3544.25375 6.30593e-18
3546.20101 6.84603e-18
3548.14827 6.81149e-18
3550.09554 6.90405e-18
3552.05294 7.17473e-18
3554.00021 6.21669e-18
3555.94747 6.23496e-18
3557.90488 7.12092e-18
3559.85214 6.29490e-18
3561.79941 4.83331e-18
3563.74667 6.16970e-18
3565.70408 6.00966e-18
3567.65134 5.39846e-18
3569.59860 4.87771e-18
3571.54587 4.29460e-18
3573.50327 4.65236e-18
3575.45054 4.99866e-18
3577.39780 4.83448e-18
3579.35521 4.49020e-18
3581.30247 5.23080e-18
3583.24974 5.01109e-18
3585.19700 4.26168e-18
3587.15441 4.42698e-18
3589.10167 5.33574e-18
3591.04893 4.35680e-18
3592.99620 4.05120e-18
3594.95360 4.23904e-18
3596.90087 4.45128e-18
3598.84813 5.03200e-18
3600.79540 4.90375e-18
3602.75280 4.84180e-18
3604.70007 4.48613e-18
3606.64733 5.30500e-18
3608.60474 5.25710e-18
3610.55200 5.35219e-18
3612.49926 4.78430e-18
3614.44653 4.25047e-18
3616.40393 4.95000e-18
3618.35120 5.51034e-18
3620.29846 5.70637e-18
3622.24573 5.58737e-18
3624.20313 5.50177e-18
3626.15040 5.62107e-18
3628.09766 5.21256e-18
3630.05507 5.37042e-18
3632.00233 6.14061e-18
3633.94959 6.97704e-18
3635.89686 7.26451e-18
3637.85426 6.91220e-18
3639.80153 7.39144e-18
3641.74879 7.37075e-18
3643.69606 7.12042e-18
3645.65346 7.16220e-18
3647.60073 7.02839e-18
3649.54799 7.40095e-18
3651.49525 7.97555e-18
3653.45266 7.49952e-18
3655.39992 8.68464e-18
3657.34719 8.54432e-18
3659.30459 7.40466e-18
3661.25186 7.72348e-18
3663.19912 7.97303e-18
3665.14639 8.14845e-18
3667.10379 8.34841e-18
3669.05106 7.70099e-18
3670.99832 8.23358e-18
3672.94558 8.01367e-18
3674.90299 7.44855e-18
3676.85025 7.56471e-18
3678.79752 7.32106e-18
3680.75492 7.20510e-18
3682.70219 7.15998e-18
3684.64945 7.10897e-18
3686.59672 7.14437e-18
3688.55412 7.20988e-18
3690.50139 7.39428e-18
3692.44865 7.23676e-18
3694.39591 7.82390e-18
3696.35332 7.30942e-18
3698.30058 7.45652e-18
3700.24785 7.45405e-18
3702.19511 7.13797e-18
3704.15252 7.32667e-18
3706.09978 7.56596e-18
3708.04705 7.49022e-18
3710.00445 7.73311e-18
3711.95172 8.24349e-18
3713.89898 8.26262e-18
3715.84624 7.42509e-18
3717.80365 7.64202e-18
3719.75091 8.05436e-18
3721.69818 7.64992e-18
3723.64544 7.32691e-18
3725.60285 7.45594e-18
3727.55011 7.70421e-18
3729.49738 7.52587e-18
3731.45478 7.26039e-18
3733.40205 7.13237e-18
3735.34931 6.90239e-18
3737.29657 7.50034e-18
3739.25398 6.88889e-18
3741.20124 6.30167e-18
3743.14851 6.63531e-18
3745.09577 6.93282e-18
3747.05318 6.63773e-18
3749.00044 6.53013e-18
3750.94771 6.41962e-18
3752.89497 6.10015e-18
3754.85238 5.98917e-18
3756.79964 5.68608e-18
3758.74690 5.82124e-18
3760.70431 5.69657e-18
3762.65157 5.57196e-18
3764.59884 5.45325e-18
3766.54610 5.33460e-18
3768.50351 5.21599e-18
3770.45077 5.09742e-18
3772.39804 4.97888e-18
3774.34530 4.86037e-18
3776.30271 4.74192e-18
3778.24997 4.62350e-18
3780.19723 4.50513e-18
3782.15464 4.38679e-18
3784.10190 4.26847e-18
3786.04917 4.15021e-18
3787.99643 4.03199e-18
3789.95384 3.91380e-18
3791.90110 3.79566e-18
3793.84837 3.67754e-18
3795.79563 3.55945e-18
3797.75304 3.44142e-18
3799.70030 3.32342e-18
3801.64756 3.20546e-18
3803.60497 2.57879e-18
3805.55223 2.66823e-18
3807.49950 2.56410e-18
3809.44676 2.23681e-18
3811.40417 2.24862e-18
3813.35143 2.23014e-18
3815.29870 2.45918e-18
3817.24596 2.10602e-18
3819.20337 2.01239e-18
3821.15063 1.93030e-18
3823.09789 1.66493e-18
3825.04516 1.64945e-18
3827.00256 1.58148e-18
3828.94983 1.32660e-18
3830.89709 1.82916e-18
3832.85450 1.74968e-18
3834.80176 1.87865e-18
3836.74903 1.35753e-18
3838.69629 1.41382e-18
3840.65370 1.37525e-18
3842.60096 1.66447e-18
3844.54822 1.23995e-18
3846.49549 1.81299e-18
3848.45289 1.46203e-18
3850.40016 1.56267e-18
3852.34742 1.90993e-18
3854.30483 2.02455e-18
3856.25209 1.53246e-18
3858.19936 1.38946e-18
3860.14662 1.72453e-18
3862.10403 1.71512e-18
3864.05129 1.67596e-18
3865.99855 1.53034e-18
3867.94582 1.58942e-18
3869.90322 1.93161e-18
3871.85049 1.87737e-18
3873.79775 1.71419e-18
3875.75516 1.65727e-18
3877.70242 1.82341e-18
3879.64969 1.58495e-18
3881.59695 1.78886e-18
3883.55436 1.80544e-18
3885.50162 1.84909e-18
3887.44888 1.89075e-18
3889.39615 1.99767e-18
3891.35355 1.94875e-18
3893.30082 2.10415e-18
3895.24808 1.97616e-18
3897.19535 1.84521e-18
3899.15275 2.06123e-18
3901.10002 2.11922e-18
3903.04728 2.17794e-18
3905.00469 2.24025e-18
3906.95195 2.25834e-18
3908.89921 2.14894e-18
3910.84648 2.17888e-18
3912.80388 2.64698e-18
3914.75115 2.66411e-18
3916.69841 2.96739e-18
3918.64568 2.71356e-18
3920.60308 2.56470e-18
3922.55035 3.04322e-18
3924.49761 3.13807e-18
3926.45502 3.10891e-18
3928.40228 3.54011e-18
3930.34954 3.46945e-18
3932.29681 3.49463e-18
3934.25421 3.44849e-18
3936.20148 3.57976e-18
3938.14874 3.99916e-18
3940.09601 4.45246e-18
3942.05341 4.41268e-18
3944.00068 4.46926e-18
3945.94794 4.69782e-18
3947.89520 5.06011e-18
3949.85261 5.56162e-18
3951.79987 5.75280e-18
3953.74714 5.68705e-18
3955.70454 6.16163e-18
3957.65181 6.26506e-18
3959.59907 6.87507e-18
3961.54634 7.75113e-18
3963.50374 7.07599e-18
3965.45101 7.25346e-18
3967.39827 8.15619e-18
3969.34553 8.60965e-18
3971.30294 9.21280e-18
3973.25020 9.89521e-18
3975.19747 1.04909e-17
3977.15487 1.05463e-17
3979.10214 1.08348e-17
3981.04940 1.12986e-17
3982.99667 1.15396e-17
3984.95407 1.21466e-17
3986.90134 1.25782e-17
3988.84860 1.22209e-17
3990.79586 1.23222e-17
3992.75327 1.27966e-17
3994.70053 1.30957e-17
3996.64780 1.24537e-17
3998.59506 1.21064e-17
4000.55247 1.22137e-17
4002.49973 1.20006e-17
4004.44700 1.11597e-17
4006.40440 1.08009e-17
4008.35167 1.06229e-17
4010.29893 1.05120e-17
4012.24619 1.05184e-17
4014.20360 1.02291e-17
4016.15086 1.00851e-17
4018.09813 1.02794e-17
4020.04539 1.03659e-17
4022.00280 1.02793e-17
4023.95006 1.05509e-17
4025.89733 1.06274e-17
4027.85473 1.08268e-17
4029.80200 1.10913e-17
4031.74926 1.14055e-17
4033.69652 1.17577e-17
4035.65393 1.15676e-17
4037.60119 1.20079e-17
4039.54846 1.27523e-17
4041.49572 1.27774e-17
4043.45313 1.26638e-17
4045.40039 1.27711e-17
4047.34766 1.31548e-17
4049.30506 1.32309e-17
4051.25233 1.30215e-17
4053.19959 1.35972e-17
4055.14685 1.42942e-17
4057.10426 1.42615e-17
4059.05152 1.41463e-17
4060.99879 1.42383e-17
4062.94605 1.41236e-17
4064.90346 1.39533e-17
4066.85072 1.37201e-17
4068.79799 1.40307e-17
4070.74525 1.44603e-17
4072.70266 1.40435e-17
4074.64992 1.41815e-17
4076.59718 1.40679e-17
4078.55459 1.36036e-17
4080.50185 1.37360e-17
4082.44912 1.41530e-17
4084.39638 1.44310e-17
4086.35379 1.40572e-17
4088.30105 1.36582e-17
4090.24832 1.37334e-17
4092.19558 1.39292e-17
4094.15299 1.39903e-17
4096.10025 1.39742e-17
4098.04751 1.39559e-17
4100.00492 1.43114e-17
4101.95218 1.50256e-17
4103.89945 1.54415e-17
4105.84671 1.51605e-17
4107.80412 1.47764e-17
4109.75138 1.46167e-17
4111.69865 1.46993e-17
4113.64591 1.48232e-17
4115.60332 1.45025e-17
4117.55058 1.39178e-17
4119.49784 1.42925e-17
4121.45525 1.49582e-17
4123.40251 1.44635e-17
4125.34978 1.41538e-17
4127.29704 1.42402e-17
4129.25445 1.40293e-17
4131.20171 1.36461e-17
4133.14898 1.33953e-17
4135.09624 1.32906e-17
4137.05365 1.31564e-17
4139.00091 1.28562e-17
4140.94817 1.28195e-17
4142.89544 1.26491e-17
4144.85284 1.27539e-17
4146.80011 1.28156e-17
4148.74737 1.24523e-17
4150.70478 1.27055e-17
4152.65204 1.30014e-17
4154.59931 1.30112e-17
4156.54657 1.34051e-17
4158.50398 1.40929e-17
4160.45124 1.43177e-17
4162.39850 1.39982e-17
4164.34577 1.38827e-17
4166.30317 1.36917e-17
4168.25044 1.29831e-17
4170.19770 1.30487e-17
4172.14497 1.32899e-17
4174.10237 1.29011e-17
4176.04964 1.26488e-17
4177.99690 1.25210e-17
4179.95431 1.23353e-17
4181.90157 1.21514e-17
4183.84883 1.22594e-17
4185.79610 1.20896e-17
4187.75350 1.16989e-17
4189.70077 1.17593e-17
4191.64803 1.18136e-17
4193.59530 1.20630e-17
4195.55270 1.25620e-17
4197.49997 1.28303e-17
4199.44723 1.29245e-17
4201.40464 1.32924e-17
4203.35190 1.34195e-17
4205.29916 1.32155e-17
4207.24643 1.37003e-17
4209.20383 1.43017e-17
4211.15110 1.43051e-17
4213.09836 1.40204e-17
4215.04563 1.42021e-17
4217.00303 1.46501e-17
4218.95030 1.43228e-17
4220.89756 1.37103e-17
4222.85497 1.36260e-17
4224.80223 1.34519e-17
4226.74949 1.29841e-17
4228.69676 1.28492e-17
4230.65416 1.26247e-17
4232.60143 1.22521e-17
4234.54869 1.21094e-17
4236.49596 1.21512e-17
4238.45336 1.19512e-17
4240.40063 1.18068e-17
4242.34789 1.19292e-17
4244.29515 1.20862e-17
4246.25256 1.16568e-17
4248.19982 1.14489e-17
4250.14709 1.12918e-17
4252.10449 1.10589e-17
4254.05176 1.12840e-17
4255.99902 1.14875e-17
4257.94629 1.14792e-17
4259.90369 1.16372e-17
4261.85096 1.20866e-17
4263.79822 1.21297e-17
4265.74548 1.21427e-17
4267.70289 1.25429e-17
4269.65015 1.24078e-17
4271.59742 1.21887e-17
4273.55482 1.24396e-17
4275.50209 1.24249e-17
4277.44935 1.26951e-17
4279.39662 1.31812e-17
4281.35402 1.31234e-17
4283.30129 1.29866e-17
4285.24855 1.25800e-17
4287.19581 1.21907e-17
4289.15322 1.25189e-17
4291.10048 1.24547e-17
4293.04775 1.20825e-17
4295.00515 1.17264e-17
4296.95242 1.14083e-17
4298.89968 1.13241e-17
4300.84695 1.09686e-17
4302.80435 1.06582e-17
4304.75162 1.01560e-17
4306.69888 1.00095e-17
4308.64614 1.05403e-17
4310.60355 1.07125e-17
4312.55081 1.03793e-17
4314.49808 1.02168e-17
4316.45548 9.92523e-18
4318.40275 9.80885e-18
4320.35001 9.96541e-18
4322.29728 1.01733e-17
4324.25468 1.01153e-17
4326.20195 9.79737e-18
4328.14921 9.82629e-18
4330.09647 9.69144e-18
4332.05388 9.83356e-18
4334.00114 1.02768e-17
4335.94841 1.03008e-17
4337.89567 1.02465e-17
4339.85308 1.05607e-17
4341.80034 1.01952e-17
4343.74761 1.05928e-17
4345.70501 1.11190e-17
4347.65228 1.05602e-17
4349.59954 1.03715e-17
4351.54680 1.03630e-17
4353.50421 1.01693e-17
4355.45147 1.04016e-17
4357.39874 1.06747e-17
4359.34600 1.05067e-17
4361.30341 1.10285e-17
4363.25067 1.16264e-17
4365.19794 1.13708e-17
4367.14520 1.04841e-17
4369.10261 1.04802e-17
4371.04987 1.08796e-17
4372.99713 1.10029e-17
4374.95454 1.08088e-17
4376.90180 1.01802e-17
4378.84907 9.82664e-18
4380.79633 9.95958e-18
4382.75374 9.95252e-18
4384.70100 9.82248e-18
4386.64827 9.95818e-18
4388.59553 9.76535e-18
4390.55294 9.62416e-18
4392.50020 9.27995e-18
4394.44746 9.31446e-18
4396.40487 9.55724e-18
4398.35213 9.81009e-18
4400.29940 9.96131e-18
4402.24666 1.06705e-17
4404.20407 1.02053e-17
4406.15133 9.16264e-18
4408.09860 9.06825e-18
4410.04586 8.97393e-18
4412.00327 8.87960e-18
4413.95053 8.78530e-18
4415.89779 8.69105e-18
4417.85520 8.59680e-18
4419.80246 8.50259e-18
4421.74973 8.40839e-18
4423.69699 8.31421e-18
4425.65440 8.22008e-18
4427.60166 8.12595e-18
4429.54893 8.03186e-18
4431.49619 7.93775e-18
4433.45360 7.84369e-18
4435.40086 7.74968e-18
4437.34812 7.65567e-18
4439.29539 7.56171e-18
4441.25279 7.46774e-18
4443.20006 7.37381e-18
4445.14732 7.27991e-18
4447.10473 6.90584e-18
4449.05199 6.59012e-18
4450.99926 6.68008e-18
4452.94652 6.78715e-18
4454.90393 6.41454e-18
4456.85119 6.24074e-18
4458.79845 5.93834e-18
4460.74572 6.16559e-18
4462.70312 6.63670e-18
4464.65039 6.24901e-18
4466.59765 6.31964e-18
4468.54492 6.60788e-18
4470.50232 6.56470e-18
4472.44959 6.64798e-18
4474.39685 7.37926e-18
4476.35426 7.44428e-18
4478.30152 7.72189e-18
4480.24878 8.14757e-18
4482.19605 8.97871e-18
4484.15345 8.92710e-18
4486.10072 9.00284e-18
4488.04798 9.45974e-18
4489.99525 9.50560e-18
4491.95265 1.01068e-17
4493.89992 1.01452e-17
4495.84718 1.04888e-17
4497.80459 1.04009e-17
4499.75185 1.03660e-17
4501.69911 9.93470e-18
4503.64638 1.06123e-17
4505.60378 1.07390e-17
4507.55105 1.03327e-17
4509.49831 1.02350e-17
4511.44558 9.95996e-18
4513.40298 1.03027e-17
4515.35025 1.04790e-17
4517.29751 1.03085e-17
4519.25492 1.04187e-17
4521.20218 1.05057e-17
4523.14944 1.01841e-17
4525.09671 1.06903e-17
4527.05411 1.08015e-17
4529.00138 1.04473e-17
4530.94864 1.06366e-17
4532.89591 1.09313e-17
4534.85331 1.08033e-17
4536.80058 1.06413e-17
4538.74784 1.07827e-17
4540.69510 1.06851e-17
4542.65251 1.06792e-17
4544.59977 1.07279e-17
4546.54704 1.06445e-17
4548.50444 1.06825e-17
4550.45171 1.08976e-17
4552.39897 1.09276e-17
4554.34624 1.07302e-17
4556.30364 1.08319e-17
4558.25091 1.10443e-17
4560.19817 1.07115e-17
4562.14543 1.00711e-17
4564.10284 1.06341e-17
4566.05010 1.09854e-17
4567.99737 1.07980e-17
4569.95477 1.07733e-17
4571.90204 1.03794e-17
4573.84930 1.08664e-17
4575.79657 1.12447e-17
4577.75397 1.15520e-17
4579.70124 1.12808e-17
4581.64850 1.10009e-17
4583.59576 1.15623e-17
4585.55317 1.18279e-17
4587.50043 1.17491e-17
4589.44770 1.17941e-17
4591.40510 1.24946e-17
4593.35237 1.26542e-17
4595.29963 1.23414e-17
4597.24690 1.27691e-17
4599.20430 1.32954e-17
4601.15157 1.33691e-17
4603.09883 1.35462e-17
4605.04609 1.39295e-17
4607.00350 1.38897e-17
4608.95076 1.42417e-17
4610.89803 1.50566e-17
4612.84529 1.54571e-17
4614.80270 1.61337e-17
4616.74996 1.62218e-17
4618.69723 1.62499e-17
4620.65463 1.71705e-17
4622.60190 1.66396e-17
4624.54916 1.66842e-17
4626.49642 1.71366e-17
4628.45383 1.67887e-17
4630.40109 1.70810e-17
4632.34836 1.68334e-17
4634.29562 1.63068e-17
4636.25303 1.71297e-17
4638.20029 1.72681e-17
4640.14756 1.73361e-17
4642.10496 1.72042e-17
4644.05223 1.73309e-17
4645.99949 1.67402e-17
4647.94675 1.70142e-17
4649.90416 1.75289e-17
4651.85142 1.78742e-17
4653.79869 1.81839e-17
4655.74595 1.81583e-17
4657.70336 1.83081e-17
4659.65062 1.84693e-17
4661.59789 1.82755e-17
4663.54515 1.83759e-17
4665.50256 1.85114e-17
4667.44982 1.83740e-17
4669.39708 1.84995e-17
4671.35449 1.81829e-17
4673.30175 1.80005e-17
4675.24902 1.78004e-17
4677.19628 1.79891e-17
4679.15369 1.72283e-17
4681.10095 1.65120e-17
4683.04822 1.65791e-17
4684.99548 1.64599e-17
4686.95289 1.64187e-17
4688.90015 1.63326e-17
4690.84741 1.61716e-17
4692.80482 1.60571e-17
4694.75208 1.62342e-17
4696.69935 1.63824e-17
4698.64661 1.63817e-17
4700.60402 1.61717e-17
4702.55128 1.59677e-17
4704.49855 1.58402e-17
4706.44581 1.58191e-17
4708.40322 1.60070e-17
4710.35048 1.58951e-17
4712.29774 1.56862e-17
4714.25515 1.58675e-17
4716.20241 1.58377e-17
4718.14968 1.60173e-17
4720.09694 1.67967e-17
4722.05435 1.69514e-17
4724.00161 1.70991e-17
4725.94888 1.75665e-17
4727.89614 1.72705e-17
4729.85355 1.79727e-17
4731.80081 1.87610e-17
4733.74807 1.76167e-17
4735.70548 1.76139e-17
4737.65274 1.78182e-17
4739.60001 1.84931e-17
4741.54727 1.84975e-17
4743.50468 1.82969e-17
4745.45194 1.82251e-17
4747.39921 1.84383e-17
4749.34647 1.83759e-17
4751.30388 1.85756e-17
4753.25114 1.85693e-17
4755.19840 1.88169e-17
4757.14567 1.87201e-17
4759.10307 1.91370e-17
4761.05034 1.85856e-17
4762.99760 1.87392e-17
4764.95501 1.96697e-17
4766.90227 1.97500e-17
4768.84954 1.95923e-17
4770.79680 1.95331e-17
4772.75421 1.93703e-17
4774.70147 1.90742e-17
4776.64873 1.88595e-17
4778.59600 1.82811e-17
4780.55340 1.78524e-17
4782.50067 1.81431e-17
4784.44793 1.84637e-17
4786.39520 1.80837e-17
4788.35260 1.77832e-17
4790.29987 1.77113e-17
4792.24713 1.71916e-17
4794.20454 1.65225e-17
4796.15180 1.72491e-17
4798.09906 1.73739e-17
4800.04633 1.70343e-17
4802.00373 1.72407e-17
4803.95100 1.70501e-17
4805.89826 1.67004e-17
4807.84553 1.67988e-17
4809.80293 1.67819e-17
4811.75020 1.64826e-17
4813.69746 1.59119e-17
4815.65487 1.61723e-17
4817.60213 1.64608e-17
4819.54939 1.63751e-17
4821.49666 1.61768e-17
4823.45406 1.58798e-17
4825.40133 1.53313e-17
4827.34859 1.52914e-17
4829.29586 1.54298e-17
4831.25326 1.52852e-17
4833.20053 1.56342e-17
4835.14779 1.54825e-17
4837.10520 1.53357e-17
4839.05246 1.52728e-17
4840.99972 1.54033e-17
4842.94699 1.51787e-17
4844.90439 1.50391e-17
4846.85166 1.53489e-17
4848.79892 1.51481e-17
4850.74619 1.48647e-17
4852.70359 1.49701e-17
4854.65086 1.45856e-17
4856.59812 1.45144e-17
4858.54538 1.47489e-17
4860.50279 1.48468e-17
4862.45005 1.43762e-17
4864.39732 1.38612e-17
4866.35472 1.37478e-17
4868.30199 1.34701e-17
4870.24925 1.30124e-17
4872.19652 1.26515e-17
4874.15392 1.20196e-17
4876.10119 1.21567e-17
4878.04845 1.25448e-17
4879.99571 1.20008e-17
4881.95312 1.17243e-17
4883.90038 1.20179e-17
4885.84765 1.15991e-17
4887.79491 1.15421e-17
4889.75232 1.10268e-17
4891.69958 1.04781e-17
4893.64685 1.06181e-17
4895.60425 1.02958e-17
4897.55152 9.95244e-18
4899.49878 9.84253e-18
4901.44604 9.48053e-18
4903.40345 9.40295e-18
4905.35071 9.62746e-18
4907.29798 9.42245e-18
4909.24524 8.98166e-18
4911.20265 8.45029e-18
4913.14991 8.31949e-18
4915.09718 8.18873e-18
4917.05458 8.05804e-18
4919.00185 7.92735e-18
4920.94911 7.79670e-18
4922.89637 7.66613e-18
4924.85378 7.53556e-18
4926.80104 7.40506e-18
4928.74831 7.27457e-18
4930.69557 7.14412e-18
4932.65298 7.01374e-18
4934.60024 6.88336e-18
4936.54751 6.75302e-18
4938.50491 6.62272e-18
4940.45218 6.49246e-18
4942.39944 6.36228e-18
4944.34670 6.23209e-18
4946.30411 6.10198e-18
4948.25137 5.97188e-18
4950.19864 5.84181e-18
4952.14590 5.80427e-18
4954.10331 5.72554e-18
4956.05057 5.73785e-18
4957.99784 5.99813e-18
4959.95524 6.14066e-18
4961.90251 5.85041e-18
4963.84977 5.86494e-18
4965.79703 5.96797e-18
4967.75444 5.74521e-18
4969.70170 6.12084e-18
4971.64897 6.34577e-18
4973.59623 6.25177e-18
4975.55364 6.66926e-18
4977.50090 7.01282e-18
4979.44817 7.08445e-18
4981.39543 7.11441e-18
4983.35284 7.18845e-18
4985.30010 7.37041e-18
4987.24736 7.67876e-18
4989.20477 7.89537e-18
4991.15203 7.97204e-18
4993.09930 8.18291e-18
4995.04656 8.09115e-18
4997.00397 8.10941e-18
4998.95123 8.52179e-18
5000.89850 8.95573e-18
5002.84576 9.48870e-18
5004.80317 9.71555e-18
5006.75043 9.82629e-18
5008.69769 1.00926e-17
5010.65510 1.05008e-17
5012.60236 1.08791e-17
5014.54963 1.12572e-17
5016.49689 1.16352e-17
5018.45430 1.20132e-17
5020.40156 1.23910e-17
5022.34883 1.27687e-17
5024.29609 1.31463e-17
5026.25350 1.35238e-17
5028.20076 1.39013e-17
5030.14802 1.42786e-17
5032.10543 1.46558e-17
5034.05269 1.50328e-17
5035.99996 1.54098e-17
5037.94722 1.57867e-17
5039.90463 1.61634e-17
5041.85189 1.65400e-17
5043.79916 1.69165e-17
5045.74642 1.72930e-17
5047.70383 1.76693e-17
5049.65109 1.81679e-17
5051.59835 1.88788e-17
5053.54562 1.90204e-17
5055.50302 1.96072e-17
5057.45029 2.01581e-17
5059.39755 2.06210e-17
5061.35496 2.07036e-17
5063.30222 2.07862e-17
5065.24949 2.08689e-17
5067.19675 2.09514e-17
5069.15416 2.10340e-17
5071.10142 2.11165e-17
5073.04868 2.11990e-17
5074.99595 2.12815e-17
5076.95335 2.13640e-17
5078.90062 2.14464e-17
5080.84788 2.15288e-17
5082.79515 2.16112e-17
5084.75255 2.16936e-17
5086.69982 2.17760e-17
5088.64708 2.18583e-17
5090.60449 2.19406e-17
5092.55175 2.20229e-17
5094.49901 2.21052e-17
5096.44628 2.21874e-17
5098.40368 2.14608e-17
5100.35095 2.07608e-17
5102.29821 2.05882e-17
5104.24548 2.06086e-17
5106.20288 2.07258e-17
5108.15015 1.99953e-17
5110.09741 1.95630e-17
5112.05482 1.90864e-17
5114.00208 1.87334e-17
5115.94934 1.86480e-17
5117.89661 1.85531e-17
5119.85401 1.79756e-17
5121.80128 1.74577e-17
5123.74854 1.69335e-17
5125.69581 1.68301e-17
5127.65321 1.64695e-17
5129.60048 1.59312e-17
5131.54774 1.58956e-17
5133.49500 1.59779e-17
5135.45241 1.55843e-17
5137.39967 1.49059e-17
5139.34694 1.41493e-17
5141.30434 1.38519e-17
5143.25161 1.35763e-17
5145.19887 1.36795e-17
5147.14614 1.32134e-17
5149.10354 1.30214e-17
5151.05081 1.29771e-17
5152.99807 1.24663e-17
5154.94533 1.24898e-17
5156.90274 1.24041e-17
5158.85000 1.19286e-17
5160.79727 1.23325e-17
5162.75467 1.21625e-17
5164.70194 1.17865e-17
5166.64920 1.13989e-17
5168.59647 1.10699e-17
5170.55387 1.12993e-17
5172.50114 1.13913e-17
5174.44840 1.15299e-17
5176.39566 1.18731e-17
5178.35307 1.22378e-17
5180.30033 1.21500e-17
5182.24760 1.22570e-17
5184.20500 1.27944e-17
5186.15227 1.34033e-17
5188.09953 1.36319e-17
5190.04680 1.38976e-17
5192.00420 1.43211e-17
5193.95147 1.45067e-17
5195.89873 1.49730e-17
5197.84599 1.53169e-17
5199.80340 1.52809e-17
5201.75066 1.52422e-17
5203.69793 1.52082e-17
5205.64519 1.54831e-17
5207.60260 1.56313e-17
5209.54986 1.61275e-17
5211.49713 1.61809e-17
5213.45453 1.59948e-17
5215.40180 1.57471e-17
5217.34906 1.62361e-17
5219.29632 1.58120e-17
5221.25373 1.58466e-17
5223.20099 1.64432e-17
5225.14826 1.67288e-17
5227.09552 1.72290e-17
5229.05293 1.65973e-17
5231.00019 1.61667e-17
5232.94746 1.60029e-17
5234.90486 1.65608e-17
5236.85213 1.62980e-17
5238.79939 1.58483e-17
5240.74665 1.56523e-17
5242.70406 1.58362e-17
5244.65132 1.54386e-17
5246.59859 1.50936e-17
5248.54585 1.55397e-17
5250.50326 1.53551e-17
5252.45052 1.52040e-17
5254.39779 1.50789e-17
5256.34505 1.51281e-17
5258.30246 1.49852e-17
5260.24972 1.49465e-17
5262.19698 1.48119e-17
5264.15439 1.48483e-17
5266.10165 1.50983e-17
5268.04892 1.53513e-17
5269.99618 1.51793e-17
5271.95359 1.51426e-17
5273.90085 1.56581e-17
5275.84812 1.55195e-17
5277.79538 1.53066e-17
5279.75279 1.56986e-17
5281.70005 1.54530e-17
5283.64731 1.55246e-17
5285.60472 1.53003e-17
5287.55198 1.50726e-17
5289.49925 1.52877e-17
5291.44651 1.47660e-17
5293.40392 1.47053e-17
5295.35118 1.50098e-17
5297.29845 1.49345e-17
5299.24571 1.50964e-17
5301.20312 1.52860e-17
5303.15038 1.54850e-17
5305.09764 1.58916e-17
5307.05505 1.58099e-17
5309.00231 1.59910e-17
5310.94958 1.56425e-17
5312.89684 1.55702e-17
5314.85425 1.55289e-17
5316.80151 1.55360e-17
5318.74878 1.54732e-17
5320.69604 1.55972e-17
5322.65345 1.54395e-17
5324.60071 1.52041e-17
5326.54797 1.50665e-17
5328.50538 1.50695e-17
5330.45264 1.49791e-17
5332.39991 1.46706e-17
5334.34717 1.52101e-17
5336.30458 1.52414e-17
5338.25184 1.48840e-17
5340.19911 1.49531e-17
5342.14637 1.49420e-17
5344.10378 1.52492e-17
5346.05104 1.50729e-17
5347.99830 1.48512e-17
5349.94557 1.49106e-17
5351.90297 1.56159e-17
5353.85024 1.60798e-17
5355.79750 1.60776e-17
5357.75491 1.61108e-17
5359.70217 1.60285e-17
5361.64944 1.59446e-17
5363.59670 1.63054e-17
5365.55411 1.64291e-17
5367.50137 1.66665e-17
5369.44863 1.66508e-17
5371.39590 1.66770e-17
5373.35330 1.71871e-17
5375.30057 1.68988e-17
5377.24783 1.70632e-17
5379.20524 1.78900e-17
5381.15250 1.75509e-17
5383.09977 1.71996e-17
5385.04703 1.77878e-17
5387.00444 1.79266e-17
5388.95170 1.76352e-17
5390.89896 1.78176e-17
5392.84623 1.78584e-17
5394.80363 1.77423e-17
5396.75090 1.82417e-17
5398.69816 1.82494e-17
5400.64543 1.82336e-17
5402.60283 1.87354e-17
5404.55010 1.86475e-17
5406.49736 1.86115e-17
5408.45477 1.84070e-17
5410.40203 1.86768e-17
5412.34929 1.86431e-17
5414.29656 1.83621e-17
5416.25396 1.81754e-17
5418.20123 1.83961e-17
5420.14849 1.86283e-17
5422.09576 1.83031e-17
5424.05316 1.85179e-17
5426.00043 1.85540e-17
5427.94769 1.84909e-17
5429.90510 1.84982e-17
5431.85236 1.83443e-17
5433.79962 1.81870e-17
5435.74689 1.84926e-17
5437.70429 1.85565e-17
5439.65156 1.83614e-17
5441.59882 1.85914e-17
5443.54609 1.83956e-17
5445.50349 1.83688e-17
5447.45076 1.83844e-17
5449.39802 1.79068e-17
5451.34528 1.83645e-17
5453.30269 1.86225e-17
5455.24995 1.89227e-17
5457.19722 1.92076e-17
5459.15462 1.87260e-17
5461.10189 1.86480e-17
5463.04915 1.87599e-17
5464.99642 1.86407e-17
5466.95382 1.88083e-17
5468.90109 1.92593e-17
5470.84835 1.95794e-17
5472.79561 1.99915e-17
5474.75302 2.01795e-17
5476.70028 1.99864e-17
5478.64755 2.02222e-17
5480.60495 2.03322e-17
5482.55222 2.00334e-17
5484.49948 2.02282e-17
5486.44675 2.01013e-17
5488.40415 1.99441e-17
5490.35142 2.00606e-17
5492.29868 1.95247e-17
5494.24594 1.91244e-17
5496.20335 1.92358e-17
5498.15061 1.92351e-17
5500.09788 1.90959e-17
5502.04514 1.90566e-17
5504.00255 1.89682e-17
5505.94981 1.92407e-17
5507.89708 1.94304e-17
5509.85448 1.93711e-17
5511.80175 1.91231e-17
5513.74901 1.94222e-17
5515.69627 1.91930e-17
5517.65368 1.83417e-17
5519.60094 1.86190e-17
5521.54821 1.80490e-17
5523.49547 1.88013e-17
5525.45288 1.84852e-17
5527.40014 1.82108e-17
5529.34741 1.77010e-17
5531.29467 1.67831e-17
5533.25208 1.72652e-17
5535.19934 1.69564e-17
5537.14660 1.69481e-17
5539.10401 1.73801e-17
5541.05127 1.67382e-17
5542.99854 1.56192e-17
5544.94580 1.49965e-17
5546.90321 1.55698e-17
5548.85047 1.61516e-17
5550.79774 1.60054e-17
5552.74500 1.60181e-17
5554.70241 1.64596e-17
5556.64967 1.69259e-17
5558.59693 1.74769e-17
5560.55434 1.79256e-17
5562.50160 1.82189e-17
5564.44887 1.85130e-17
5566.39613 1.96755e-17
5568.35354 2.00392e-17
5570.30080 1.94014e-17
5572.24807 1.95143e-17
5574.19533 1.94800e-17
5576.15274 1.94892e-17
5578.10000 2.10060e-17
5580.04726 2.17628e-17
5582.00467 2.35363e-17
5583.95193 2.30351e-17
5585.89920 2.29836e-17
5587.84646 2.37103e-17
5589.80387 2.40968e-17
5591.75113 2.39974e-17
5593.69840 2.45556e-17
5595.64566 2.50890e-17
5597.60307 2.48770e-17
5599.55033 2.48358e-17
5601.49759 2.52628e-17
5603.45500 2.56652e-17
5605.40226 2.54608e-17
5607.34953 2.55310e-17
5609.29679 2.56291e-17
5611.25420 2.52727e-17
5613.20146 2.56885e-17
5615.14873 2.61761e-17
5617.09599 2.60855e-17
5619.05340 2.58793e-17
5621.00066 2.58847e-17
5622.94792 2.60040e-17
5624.90533 2.61938e-17
5626.85259 2.56605e-17
5628.79986 2.51068e-17
5630.74712 2.44096e-17
5632.70453 2.44259e-17
5634.65179 2.35945e-17
5636.59906 2.38164e-17
5638.54632 2.35801e-17
5640.50373 2.34473e-17
5642.45099 2.38007e-17
5644.39825 2.31326e-17
5646.34552 2.29258e-17
5648.30292 2.21936e-17
5650.25019 2.22688e-17
5652.19745 2.15134e-17
5654.15486 2.02353e-17
5656.10212 2.03664e-17
5658.04939 1.99547e-17
5659.99665 1.86405e-17
5661.95406 1.81884e-17
5663.90132 1.79349e-17
5665.84858 1.77315e-17
5667.79585 1.77793e-17
5669.75325 1.73860e-17
5671.70052 1.64717e-17
5673.64778 1.58139e-17
5675.60519 1.54990e-17
5677.55245 1.51626e-17
5679.49972 1.51379e-17
5681.44698 1.47748e-17
5683.40439 1.49877e-17
5685.35165 1.52573e-17
5687.29891 1.46743e-17
5689.24618 1.46063e-17
5691.20358 1.48922e-17
5693.15085 1.48317e-17
5695.09811 1.49891e-17
5697.04538 1.50679e-17
5699.00278 1.49878e-17
5700.95005 1.50796e-17
5702.89731 1.53690e-17
5704.85472 1.50525e-17
5706.80198 1.54994e-17
5708.74924 1.53256e-17
5710.69651 1.49011e-17
5712.65391 1.54289e-17
5714.60118 1.52574e-17
5716.54844 1.51434e-17
5718.49571 1.58077e-17
5720.45311 1.55517e-17
5722.40038 1.55525e-17
5724.34764 1.53832e-17
5726.29490 1.54737e-17
5728.25231 1.54172e-17
5730.19957 1.49899e-17
5732.14684 1.49051e-17
5734.10424 1.45886e-17
5736.05151 1.47228e-17
5737.99877 1.45527e-17
5739.94604 1.38450e-17
5741.90344 1.33570e-17
5743.85071 1.33738e-17
5745.79797 1.34568e-17
5747.74523 1.32198e-17
5749.70264 1.31607e-17
5751.64990 1.29490e-17
5753.59717 1.22365e-17
5755.55457 1.16815e-17
5757.50184 1.14134e-17
5759.44910 1.08867e-17
5761.39637 1.06069e-17
5763.35377 1.04850e-17
5765.30104 9.71115e-18
5767.24830 9.25099e-18
5769.19556 8.99990e-18
5771.15297 8.59317e-18
5773.10023 8.22451e-18
5775.04750 7.91926e-18
5777.00490 7.44827e-18
5778.95217 7.23978e-18
5780.89943 7.38004e-18
5782.84670 6.90606e-18
5784.80410 6.32815e-18
5786.75137 5.84260e-18
5788.69863 5.87149e-18
5790.64589 6.02512e-18
5792.60330 5.55329e-18
5794.55056 5.13484e-18
5796.49783 5.25762e-18
5798.45523 5.10085e-18
5800.40250 4.88824e-18
5802.34976 4.67387e-18
5804.29703 4.57085e-18
5806.25443 4.69409e-18
5808.20170 4.72616e-18
5810.14896 4.54194e-18
5812.09622 4.39938e-18
5814.05363 4.45751e-18
5816.00089 4.57259e-18
5817.94816 4.58561e-18
5819.89542 4.64892e-18
5821.85283 4.70124e-18
5823.80009 4.64202e-18
5825.74736 5.03490e-18
5827.70476 5.36416e-18
5829.65203 5.36086e-18
5831.59929 5.07206e-18
5833.54655 4.96520e-18
5835.50396 5.27252e-18
5837.45122 5.33729e-18
5839.39849 5.34913e-18
5841.34575 5.76509e-18
5843.30316 6.30991e-18
5845.25042 6.50149e-18
5847.19769 6.52701e-18
5849.14495 6.75681e-18
5851.10236 6.90946e-18
5853.04962 6.83812e-18
5854.99688 6.94327e-18
5856.95429 7.61325e-18
5858.90155 8.13683e-18
5860.84882 8.06997e-18
5862.79608 8.36240e-18
5864.75349 8.68550e-18
5866.70075 8.94450e-18
5868.64802 9.20209e-18
5870.59528 9.67787e-18
5872.55269 1.05216e-17
5874.49995 1.08352e-17
5876.44721 1.07743e-17
5878.40462 1.09813e-17
5880.35188 1.14794e-17
5882.29915 1.20351e-17
5884.24641 1.19667e-17
5886.20382 1.22450e-17
5888.15108 1.25388e-17
5890.09835 1.26596e-17
5892.04561 1.31524e-17
5894.00302 1.31427e-17
5895.95028 1.37203e-17
5897.89754 1.49157e-17
5899.85495 1.53196e-17
5901.80221 1.55876e-17
5903.74948 1.59138e-17
5905.69674 1.62044e-17
5907.65415 1.63551e-17
5909.60141 1.65169e-17
5911.54868 1.71341e-17
5913.49594 1.73668e-17
5915.45335 1.77839e-17
5917.40061 1.80702e-17
5919.34787 1.78246e-17
5921.29514 1.83234e-17
5923.25254 1.87048e-17
5925.19981 1.84801e-17
5927.14707 1.89913e-17
5929.10448 1.98721e-17
5931.05174 1.99939e-17
5932.99901 1.98399e-17
5934.94627 2.03204e-17
5936.90368 2.03881e-17
5938.85094 1.99631e-17
5940.79820 2.05508e-17
5942.74547 2.10846e-17
5944.70287 2.07729e-17
5946.65014 2.02677e-17
5948.59740 2.10470e-17
5950.55481 2.13921e-17
5952.50207 2.09276e-17
5954.44934 2.15959e-17
5956.39660 2.20522e-17
5958.35401 2.20042e-17
5960.30127 2.17646e-17
5962.24853 2.14606e-17
5964.19580 2.17039e-17
5966.15320 2.21236e-17
5968.10047 2.24553e-17
5970.04773 2.22404e-17
5972.00514 2.20461e-17
5973.95240 2.25218e-17
5975.89967 2.25143e-17
5977.84693 2.24410e-17
5979.80434 2.19336e-17
5981.75160 2.22334e-17
5983.69886 2.28819e-17
5985.64613 2.25772e-17
5987.60353 2.24408e-17
5989.55080 2.23470e-17
5991.49806 2.20838e-17
5993.45547 2.24390e-17
5995.40273 2.21347e-17
5997.35000 2.14952e-17
5999.29726 2.20822e-17
6001.25467 2.19157e-17
6003.20193 2.16955e-17
6005.14919 2.16052e-17
6007.09646 2.15446e-17
6009.05386 2.15840e-17
6011.00113 2.20857e-17
6012.94839 2.17108e-17
6014.89566 2.15941e-17
6016.85306 2.13481e-17
6018.80033 2.09874e-17
6020.74759 2.10311e-17
6022.70500 2.13825e-17
6024.65226 2.16407e-17
6026.59952 2.13106e-17
6028.54679 2.14109e-17
6030.50419 2.17586e-17
6032.45146 2.13788e-17
6034.39872 2.12744e-17
6036.34599 2.15040e-17
6038.30339 2.18543e-17
6040.25066 2.14725e-17
6042.19792 2.13424e-17
6044.14518 2.15504e-17
6046.10259 2.16933e-17
6048.04985 2.10176e-17
6049.99712 2.08747e-17
6051.95452 2.07228e-17
6053.90179 2.07915e-17
6055.84905 2.13886e-17
6057.79632 2.04813e-17
6059.75372 1.99916e-17
6061.70099 2.01792e-17
6063.64825 2.01065e-17
6065.59551 2.02809e-17
6067.55292 2.03988e-17
6069.50018 1.97738e-17
6071.44745 1.93985e-17
6073.40485 2.01291e-17
6075.35212 2.00108e-17
6077.29938 1.93602e-17
6079.24665 1.93836e-17
6081.20405 1.92533e-17
6083.15132 1.86103e-17
6085.09858 1.84366e-17
6087.04584 1.84010e-17
6089.00325 1.82079e-17
6090.95051 1.79610e-17
6092.89778 1.79819e-17
6094.85518 1.77930e-17
6096.80245 1.80469e-17
6098.74971 1.77348e-17
6100.69698 1.72226e-17
6102.65438 1.76664e-17
6104.60165 1.75808e-17
6106.54891 1.73320e-17
6108.49617 1.70207e-17
6110.45358 1.68627e-17
6112.40084 1.66276e-17
6114.34811 1.64836e-17
6116.29537 1.66791e-17
6118.25278 1.63918e-17
6120.20004 1.63992e-17
6122.14731 1.64536e-17
6124.10471 1.59781e-17
6126.05198 1.54957e-17
6127.99924 1.59696e-17
6129.94650 1.62039e-17
6131.90391 1.53783e-17
6133.85117 1.52862e-17
6135.79844 1.55813e-17
6137.74570 1.56742e-17
6139.70311 1.54446e-17
6141.65037 1.52296e-17
6143.59764 1.51054e-17
6145.54490 1.47463e-17
6147.50231 1.49698e-17
6149.44957 1.47975e-17
6151.39683 1.43441e-17
6153.35424 1.38361e-17
6155.30150 1.32965e-17
6157.24877 1.32459e-17
6159.19603 1.39812e-17
6161.15344 1.34403e-17
6163.10070 1.25705e-17
6165.04797 1.29455e-17
6166.99523 1.39632e-17
6168.95264 1.30272e-17
6170.89990 1.22275e-17
6172.84716 1.29971e-17
6174.80457 1.29936e-17
6176.75183 1.31269e-17
6178.69910 1.24890e-17
6180.64636 1.23045e-17
6182.60377 1.27506e-17
6184.55103 1.30306e-17
6186.49830 1.28524e-17
6188.44556 1.26279e-17
6190.40297 1.37998e-17
6192.35023 1.36379e-17
6194.29749 1.38351e-17
6196.25490 1.37441e-17
6198.20216 1.37715e-17
6200.14943 1.43042e-17
6202.09669 1.43834e-17
6204.05410 1.45106e-17
6206.00136 1.47661e-17
6207.94863 1.48091e-17
6209.89589 1.48007e-17
6211.85330 1.46982e-17
6213.80056 1.45399e-17
6215.74782 1.50259e-17
6217.70523 1.49274e-17
6219.65249 1.47290e-17
6221.59976 1.46628e-17
6223.54702 1.49602e-17
6225.50443 1.54407e-17
6227.45169 1.55195e-17
6229.39896 1.53142e-17
6231.34622 1.56359e-17
6233.30363 1.52556e-17
6235.25089 1.49307e-17
6237.19815 1.49957e-17
6239.14542 1.52255e-17
6241.10282 1.57806e-17
6243.05009 1.54600e-17
6244.99735 1.50595e-17
6246.95476 1.43481e-17
6248.90202 1.43510e-17
6250.84929 1.50770e-17
6252.79655 1.48888e-17
6254.75396 1.44340e-17
6256.70122 1.41417e-17
6258.64848 1.41652e-17
6260.59575 1.41867e-17
6262.55315 1.32927e-17
6264.50042 1.33456e-17
6266.44768 1.39885e-17
6268.40509 1.41694e-17
6270.35235 1.40944e-17
6272.29962 1.35499e-17
6274.24688 1.37129e-17
6276.20429 1.36452e-17
6278.15155 1.34578e-17
6280.09881 1.35761e-17
6282.04608 1.38712e-17
6284.00348 1.42989e-17
6285.95075 1.45948e-17
6287.89801 1.44164e-17
6289.85542 1.49591e-17
6291.80268 1.56248e-17
6293.74995 1.56517e-17
6295.69721 1.52909e-17
6297.65462 1.55725e-17
6299.60188 1.52895e-17
6301.54914 1.50838e-17
6303.49641 1.56039e-17
6305.45381 1.65830e-17
6307.40108 1.63823e-17
6309.34834 1.60630e-17
6311.29561 1.69104e-17
6313.25301 1.73735e-17
6315.20028 1.79230e-17
6317.14754 1.84329e-17
6319.10495 1.85175e-17
6321.05221 1.81992e-17
6322.99947 1.78805e-17
6324.94674 1.81382e-17
6326.90414 1.81301e-17
6328.85141 1.81666e-17
6330.79867 1.84616e-17
6332.74594 1.89565e-17
6334.70334 1.93308e-17
6336.65061 1.93588e-17
6338.59787 1.89782e-17
6340.54513 1.89021e-17
6342.50254 1.87173e-17
6344.44980 1.83924e-17
6346.39707 1.81535e-17
6348.35447 1.85041e-17
6350.30174 1.82667e-17
6352.24900 1.76652e-17
6354.19627 1.81227e-17
6356.15367 1.84299e-17
6358.10094 1.86472e-17
6360.04820 1.89826e-17
6361.99546 1.83729e-17
6363.95287 1.80825e-17
6365.90013 1.73152e-17
6367.84740 1.65925e-17
6369.80480 1.69647e-17
6371.75207 1.71678e-17
6373.69933 1.70390e-17
6375.64660 1.67624e-17
6377.60400 1.68480e-17
6379.55127 1.65281e-17
6381.49853 1.63868e-17
6383.44579 1.67138e-17
6385.40320 1.63561e-17
6387.35046 1.64513e-17
6389.29773 1.66974e-17
6391.25513 1.63875e-17
6393.20240 1.65635e-17
6395.14966 1.64295e-17
6397.09693 1.62540e-17
6399.05433 1.64957e-17
6401.00160 1.61295e-17
6402.94886 1.58437e-17
6404.89612 1.61994e-17
6406.85353 1.61108e-17
6408.80079 1.61359e-17
6410.74806 1.62189e-17
6412.70546 1.65973e-17
6414.65273 1.68298e-17
6416.59999 1.64666e-17
6418.54726 1.63733e-17
6420.50466 1.59047e-17
6422.45193 1.59958e-17
6424.39919 1.60208e-17
6426.34645 1.56083e-17
6428.30386 1.53244e-17
6430.25112 1.52453e-17
6432.19839 1.51491e-17
6434.14565 1.53025e-17
6436.10306 1.57680e-17
6438.05032 1.57610e-17
6439.99759 1.57002e-17
6441.95499 1.55281e-17
6443.90226 1.53489e-17
6445.84952 1.55208e-17
6447.79678 1.57340e-17
6449.75419 1.54168e-17
6451.70145 1.54530e-17
6453.64872 1.50961e-17
6455.59598 1.46846e-17
6457.55339 1.47969e-17
6459.50065 1.48469e-17
6461.44792 1.44910e-17
6463.39518 1.44871e-17
6465.35259 1.46098e-17
6467.29985 1.41638e-17
6469.24711 1.41531e-17
6471.20452 1.41988e-17
6473.15178 1.42119e-17
6475.09905 1.41946e-17
6477.04631 1.37903e-17
6479.00372 1.35825e-17
6480.95098 1.38535e-17
6482.89825 1.40322e-17
6484.84551 1.40026e-17
6486.80292 1.43443e-17
6488.75018 1.38599e-17
6490.69744 1.39128e-17
6492.65485 1.41954e-17
6494.60211 1.40306e-17
6496.54938 1.40682e-17
6498.49664 1.48242e-17
6500.45405 1.47512e-17
6502.40131 1.42280e-17
6504.34858 1.45437e-17
6506.29584 1.49735e-17
6508.25325 1.48742e-17
6510.20051 1.42897e-17
6512.14777 1.39709e-17
6514.10518 1.39942e-17
6516.05244 1.40001e-17
6517.99971 1.39715e-17
6519.94697 1.33572e-17
6521.90438 1.32909e-17
6523.85164 1.36009e-17
6525.79891 1.35091e-17
6527.74617 1.31167e-17
6529.70358 1.35619e-17
6531.65084 1.39115e-17
6533.59810 1.38058e-17
6535.54537 1.40752e-17
6537.50277 1.42888e-17
6539.45004 1.44388e-17
6541.39730 1.45410e-17
6543.35471 1.49390e-17
6545.30197 1.48479e-17
6547.24924 1.46652e-17
6549.19650 1.49288e-17
6551.15391 1.48868e-17
6553.10117 1.50200e-17
6555.04843 1.55279e-17
6556.99570 1.59082e-17
6558.95310 1.50413e-17
6560.90037 1.48796e-17
6562.84763 1.57955e-17
6564.80504 1.53929e-17
6566.75230 1.52811e-17
6568.69957 1.57439e-17
6570.64683 1.59498e-17
6572.60424 1.57135e-17
6574.55150 1.55229e-17
6576.49876 1.53968e-17
6578.44603 1.48652e-17
6580.40343 1.48509e-17
6582.35070 1.48115e-17
6584.29796 1.45798e-17
6586.24523 1.41756e-17
6588.20263 1.42035e-17
6590.14990 1.36348e-17
6592.09716 1.34953e-17
6594.05457 1.34102e-17
6596.00183 1.28997e-17
6597.94909 1.24152e-17
6599.89636 1.22993e-17
6601.85376 1.24400e-17
6603.80103 1.20690e-17
6605.74829 1.17829e-17
6607.69556 1.21591e-17
6609.65296 1.19602e-17
6611.60023 1.11156e-17
6613.54749 1.05245e-17
6615.50490 9.96070e-18
6617.45216 9.58198e-18
6619.39942 9.50360e-18
6621.34669 9.29179e-18
6623.30409 8.95345e-18
6625.25136 8.71302e-18
6627.19862 8.83894e-18
6629.14589 8.96481e-18
6631.10329 9.09069e-18
6633.05056 9.21654e-18
6634.99782 9.34242e-18
6636.95523 9.46826e-18
6638.90249 9.59406e-18
6640.84975 9.71987e-18
6642.79702 9.84563e-18
6644.75442 9.97140e-18
6646.70169 1.00972e-17
6648.64895 1.02229e-17
6650.59622 1.03486e-17
6652.55362 1.04743e-17
6654.50089 1.06000e-17
6656.44815 1.07257e-17
6658.39541 1.08513e-17
6660.35282 1.09770e-17
6662.30008 1.11026e-17
6664.24735 1.12282e-17
6666.20475 1.13538e-17
6668.15202 1.14794e-17
6670.09928 1.16049e-17
6672.04655 1.17305e-17
6674.00395 1.18560e-17
6675.95122 1.19815e-17
6677.89848 1.21070e-17
6679.84574 1.22325e-17
6681.80315 1.23580e-17
6683.75041 1.24834e-17
6685.69768 1.26089e-17
6687.65508 1.27343e-17
6689.60235 1.30850e-17
6691.54961 1.34354e-17
6693.49688 1.39820e-17
6695.45428 1.45430e-17
6697.40155 1.46006e-17
6699.34881 1.48665e-17
6701.29607 1.49409e-17
6703.25348 1.48500e-17
6705.20074 1.47525e-17
6707.14801 1.47415e-17
6709.10541 1.49026e-17
6711.05268 1.45552e-17
6712.99994 1.43232e-17
6714.94721 1.48180e-17
6716.90461 1.53053e-17
6718.85188 1.54221e-17
6720.79914 1.57037e-17
6722.74640 1.54281e-17
6724.70381 1.49263e-17
6726.65107 1.49190e-17
6728.59834 1.48797e-17
6730.54560 1.45712e-17
6732.50301 1.38880e-17
6734.45027 1.38928e-17
6736.39754 1.43433e-17
6738.35494 1.44793e-17
6740.30221 1.44361e-17
6742.24947 1.49029e-17
6744.19673 1.48423e-17
6746.15414 1.44021e-17
6748.10140 1.44995e-17
6750.04867 1.42348e-17
6751.99593 1.42401e-17
6753.95334 1.41831e-17
6755.90060 1.42405e-17
6757.84787 1.42938e-17
6759.79513 1.38862e-17
6761.75254 1.37908e-17
6763.69980 1.34478e-17
6765.64706 1.34292e-17
6767.60447 1.38100e-17
6769.55173 1.36960e-17
6771.49900 1.35906e-17
6773.44626 1.36536e-17
6775.40367 1.35398e-17
6777.35093 1.37668e-17
6779.29820 1.37468e-17
6781.24546 1.34790e-17
6783.20287 1.32935e-17
6785.15013 1.26041e-17
6787.09739 1.25571e-17
6789.05480 1.31481e-17
6791.00206 1.30358e-17
6792.94933 1.26207e-17
6794.89659 1.25287e-17
6796.85400 1.22360e-17
6798.80126 1.19549e-17
6800.74853 1.18888e-17
6802.69579 1.21907e-17
6804.65320 1.22934e-17
6806.60046 1.21191e-17
6808.54772 1.19870e-17
6810.50513 1.23951e-17
6812.45239 1.31808e-17
6814.39966 1.28604e-17
6816.34692 1.22627e-17
6818.30433 1.20380e-17
6820.25159 1.17031e-17
6822.19886 1.16054e-17
6824.14612 1.17329e-17
6826.10353 1.17306e-17
6828.05079 1.14076e-17
6829.99805 1.15499e-17
6831.94532 1.17078e-17
6833.90272 1.12063e-17
6835.84999 1.09977e-17
6837.79725 1.11735e-17
6839.75466 1.09670e-17
6841.70192 1.11169e-17
6843.64919 1.15069e-17
6845.59645 1.13514e-17
6847.55386 1.14570e-17
6849.50112 1.17214e-17
6851.44838 1.15625e-17
6853.39565 1.11187e-17
6855.35305 1.10202e-17
6857.30032 1.12674e-17
6859.24758 1.13291e-17
6861.20499 1.13002e-17
6863.15225 1.09429e-17
6865.09952 1.07095e-17
6867.04678 1.05701e-17
6869.00419 1.00102e-17
6870.95145 1.06687e-17
6872.89871 1.12425e-17
6874.84598 1.05884e-17
6876.80338 1.00535e-17
6878.75065 1.01583e-17
6880.69791 1.03744e-17
6882.64518 1.01298e-17
6884.60258 9.85593e-18
6886.54985 9.76028e-18
6888.49711 9.83758e-18
6890.45452 9.81787e-18
6892.40178 9.87790e-18
6894.34904 1.00863e-17
6896.29631 9.74011e-18
6898.25371 9.89386e-18
6900.20098 9.84340e-18
6902.14824 9.78580e-18
6904.09551 9.89903e-18
6906.05291 1.01403e-17
6908.00018 1.01510e-17
6909.94744 1.00120e-17
6911.90485 1.06934e-17
6913.85211 8.69246e-18
6915.79937 4.99324e-18
6917.74664 8.27755e-18
6919.70404 9.74325e-18
6921.65131 8.77598e-18
6923.59857 8.73907e-18
6925.54584 9.24033e-18
6927.50324 8.96267e-18
6929.45051 8.43154e-18
6931.39777 8.66657e-18
6933.35518 8.68162e-18
6935.30244 8.39507e-18
6937.24970 8.39980e-18
6939.19697 8.44619e-18
6941.15437 8.13117e-18
6943.10164 8.10198e-18
6945.04890 8.77982e-18
6946.99617 8.69398e-18
6948.95357 8.12540e-18
6950.90084 8.38901e-18
6952.84810 8.44188e-18
6954.79536 8.10553e-18
6956.75277 8.51479e-18
6958.70003 9.14422e-18
6960.64730 8.71645e-18
6962.60470 8.11007e-18
6964.55197 8.69495e-18
6966.49923 8.83792e-18
6968.44650 8.06542e-18
6970.40390 7.71389e-18
6972.35117 7.35059e-18
6974.29843 7.46371e-18
6976.24569 7.39700e-18
6978.20310 7.31143e-18
6980.15036 7.31359e-18
6982.09763 7.31377e-18
6984.05503 6.53316e-18
6986.00230 6.79783e-18
6987.94956 6.38122e-18
6989.89683 6.82114e-18
6991.85423 6.59405e-18
6993.80150 6.50475e-18
6995.74876 6.44899e-18
6997.69602 6.41589e-18
6999.65343 6.39839e-18
7001.60069 6.12213e-18
7003.54796 6.16706e-18
7005.50536 5.85307e-18
7007.45263 5.55599e-18
7009.39989 6.06385e-18
7011.34716 5.64116e-18
7013.30456 5.60376e-18
7015.25183 6.44702e-18
7017.19909 6.06072e-18
7019.14635 6.20764e-18
7021.10376 6.17065e-18
7023.05102 6.16417e-18
7024.99829 6.16287e-18
7026.94555 6.56526e-18
7028.90296 6.41396e-18
7030.85022 5.82127e-18
7032.79749 6.24660e-18
7034.75489 6.43495e-18
7036.70216 6.65971e-18
7038.64942 6.56469e-18
7040.59668 6.68048e-18
7042.55409 7.34790e-18
7044.50135 7.30942e-18
7046.44862 7.28309e-18
7048.39588 7.70614e-18
7050.35329 8.35549e-18
7052.30055 8.59186e-18
7054.24782 8.99736e-18
7056.20522 9.07707e-18
7058.15249 9.75076e-18
7060.09975 1.03070e-17
7062.04701 9.92552e-18
7064.00442 1.05334e-17
7065.95168 1.07225e-17
7067.89895 1.08423e-17
7069.84621 1.10683e-17
7071.80362 1.15957e-17
7073.75088 1.21658e-17
7075.69815 1.25013e-17
7077.64541 1.27595e-17
7079.60282 1.27277e-17
7081.55008 1.29733e-17
7083.49734 1.28168e-17
7085.45475 1.32987e-17
7087.40201 1.33350e-17
7089.34928 1.37418e-17
7091.29654 1.34864e-17
7093.25395 1.31722e-17
7095.20121 1.35794e-17
7097.14848 1.41946e-17
7099.09574 1.41572e-17
7101.05315 1.45051e-17
7103.00041 1.48640e-17
7104.94767 1.45228e-17
7106.90508 1.37399e-17
7108.85234 1.37312e-17
7110.79961 1.36520e-17
7112.74687 1.43544e-17
7114.70428 1.44968e-17
7116.65154 1.43588e-17
7118.59881 1.39843e-17
7120.54607 1.40086e-17
7122.50348 1.41126e-17
7124.45074 1.42419e-17
7126.39800 1.45613e-17
7128.34527 1.39529e-17
7130.30267 1.37252e-17
7132.24994 1.41538e-17
7134.19720 1.36981e-17
7136.15461 1.32183e-17
7138.10187 1.35620e-17
7140.04914 1.42162e-17
7141.99640 1.44171e-17
7143.95381 1.32204e-17
7145.90107 1.32343e-17
7147.84833 1.31777e-17
7149.79560 1.33502e-17
7151.75300 1.34254e-17
7153.70027 1.25295e-17
7155.64753 1.25275e-17
7157.60494 1.30893e-17
7159.55220 1.32303e-17
7161.49947 1.32745e-17
7163.44673 1.33445e-17
7165.40414 1.33797e-17
7167.35140 1.30959e-17
7169.29866 1.30524e-17
7171.24593 1.29444e-17
7173.20333 1.29858e-17
7175.15060 1.33653e-17
7177.09786 1.32508e-17
7179.04513 1.35709e-17
7181.00253 1.38146e-17
7182.94980 1.32731e-17
7184.89706 1.29996e-17
7186.85447 1.31770e-17
7188.80173 1.33480e-17
7190.74899 1.34841e-17
7192.69626 1.30843e-17
7194.65366 1.30747e-17
7196.60093 1.35481e-17
7198.54819 1.33267e-17
7200.49546 1.25321e-17
7202.45286 1.26180e-17
7204.40013 1.27187e-17
7206.34739 1.25495e-17
7208.30480 1.23164e-17
7210.25206 1.25901e-17
7212.19932 1.24369e-17
7214.14659 1.24919e-17
7216.10399 1.33239e-17
7218.05126 1.28013e-17
7219.99852 1.23625e-17
7221.94579 1.19020e-17
7223.90319 1.17412e-17
7225.85046 1.19408e-17
7227.79772 1.17312e-17
7229.74498 1.17499e-17
7231.70239 1.20792e-17
7233.64965 1.16846e-17
7235.59692 1.11895e-17
7237.55432 1.15370e-17
7239.50159 1.21884e-17
7241.44885 1.26074e-17
7243.39612 1.25327e-17
7245.35352 1.14730e-17
7247.30079 1.16736e-17
7249.24805 1.18755e-17
7251.19531 1.14647e-17
7253.15272 1.12005e-17
7255.09998 1.10967e-17
7257.04725 1.10378e-17
7259.00465 1.10628e-17
7260.95192 1.09118e-17
7262.89918 1.10216e-17
7264.84645 1.10987e-17
7266.80385 1.13861e-17
7268.75112 1.21189e-17
7270.69838 1.14757e-17
7272.64564 1.07554e-17
7274.60305 1.11853e-17
7276.55031 1.18437e-17
7278.49758 1.16221e-17
7280.45498 1.20464e-17
7282.40225 1.21430e-17
7284.34951 1.22962e-17
7286.29678 1.22998e-17
7288.25418 1.25308e-17
7290.20145 1.26077e-17
7292.14871 1.25976e-17
7294.09597 1.29040e-17
7296.05338 1.27986e-17
7298.00064 1.35126e-17
7299.94791 1.30752e-17
7301.90531 1.23615e-17
7303.85258 1.29075e-17
7305.79984 1.28981e-17
7307.74711 1.21678e-17
7309.70451 1.25499e-17
7311.65178 1.31115e-17
7313.59904 1.35552e-17
7315.54630 1.36937e-17
7317.50371 1.30608e-17
7319.45097 1.31433e-17
7321.39824 1.38273e-17
7323.34550 1.34224e-17
7325.30291 1.32244e-17
7327.25017 1.31887e-17
7329.19744 1.30876e-17
7331.15484 1.32565e-17
7333.10211 1.33311e-17
7335.04937 1.28978e-17
7336.99663 1.33367e-17
7338.95404 1.33001e-17
7340.90130 1.30695e-17
7342.84857 1.28956e-17
7344.79583 1.26764e-17
7346.75324 1.28448e-17
7348.70050 1.32217e-17
7350.64777 1.33026e-17
7352.60517 1.33660e-17
7354.55244 1.37919e-17
7356.49970 1.35309e-17
7358.44696 1.32850e-17
7360.40437 1.41596e-17
7362.35163 1.38626e-17
7364.29890 1.36486e-17
7366.24616 1.44126e-17
7368.20357 1.50283e-17
7370.15083 1.48445e-17
7372.09810 1.40873e-17
7374.04536 1.39243e-17
7376.00277 1.48112e-17
7377.95003 1.51173e-17
7379.89729 1.50277e-17
7381.85470 1.56184e-17
7383.80196 1.59266e-17
7385.74923 1.55545e-17
7387.69649 1.56590e-17
7389.65390 1.65178e-17
7391.60116 1.61495e-17
7393.54843 1.55625e-17
7395.49569 1.53507e-17
7397.45310 1.53143e-17
7399.40036 1.51587e-17
7401.34762 1.52795e-17
7403.30503 1.49009e-17
7405.25229 1.46634e-17
7407.19956 1.55074e-17
7409.14682 1.50016e-17
7411.10423 1.44765e-17
7413.05149 1.53094e-17
7414.99876 1.55720e-17
7416.94602 1.51736e-17
7418.90343 1.51969e-17
7420.85069 1.54111e-17
7422.79795 1.53533e-17
7424.74522 1.57301e-17
7426.70262 1.56789e-17
7428.64989 1.51187e-17
7430.59715 1.47958e-17
7432.55456 1.44497e-17
7434.50182 1.43075e-17
7436.44909 1.41640e-17
7438.39635 1.41447e-17
7440.35376 1.37010e-17
7442.30102 1.31759e-17
7444.24828 1.33565e-17
7446.19555 1.36333e-17
7448.15295 1.40653e-17
7450.10022 1.46407e-17
7452.04748 1.44497e-17
7454.00489 1.39147e-17
7455.95215 1.40552e-17
7457.89942 1.43542e-17
7459.84668 1.41688e-17
7461.80409 1.37544e-17
7463.75135 1.36197e-17
7465.69861 1.38705e-17
7467.64588 1.38232e-17
7469.60328 1.36665e-17
7471.55055 1.35380e-17
7473.49781 1.30930e-17
7475.45522 1.28730e-17
7477.40248 1.26103e-17
7479.34975 1.25150e-17
7481.29701 1.22704e-17
7483.25442 1.18639e-17
7485.20168 1.18491e-17
7487.14894 1.20122e-17
7489.09621 1.20183e-17
7491.05361 1.19869e-17
7493.00088 1.25488e-17
7494.94814 1.26147e-17
7496.89541 1.23570e-17
7498.85281 1.23273e-17
7500.80008 1.24579e-17
7502.74734 1.29471e-17
7504.70475 1.23417e-17
7506.65201 1.16274e-17
7508.59927 1.20090e-17
7510.54654 1.23844e-17
7512.50394 1.22324e-17
7514.45121 1.20163e-17
7516.39847 1.24095e-17
7518.34574 1.21944e-17
7520.30314 1.18243e-17
7522.25041 1.18319e-17
7524.19767 1.18881e-17
7526.14493 1.19937e-17
7528.10234 1.19964e-17
7530.04960 1.22163e-17
7531.99687 1.23813e-17
7533.95427 1.23168e-17
7535.90154 1.20807e-17
7537.84880 1.23223e-17
7539.79607 1.28623e-17
7541.75347 1.32632e-17
7543.70074 1.27166e-17
7545.64800 1.20103e-17
7547.59526 1.19361e-17
7549.55267 1.21926e-17
7551.49993 1.24275e-17
7553.44720 1.22040e-17
7555.40460 1.20970e-17
7557.35187 1.21452e-17
7559.29913 1.18841e-17
7561.24640 1.19900e-17
7563.20380 1.22254e-17
7565.15107 1.23881e-17
7567.09833 1.25077e-17
7569.04559 1.24222e-17
7571.00300 1.26573e-17
7572.95026 1.25029e-17
7574.89753 1.21329e-17
7576.85493 1.23471e-17
7578.80220 1.23229e-17
7580.74946 1.19445e-17
7582.69673 1.20468e-17
7584.65413 1.24872e-17
7586.60140 1.27685e-17
7588.54866 1.32068e-17
7590.49592 1.29208e-17
7592.45333 1.23233e-17
7594.40059 1.18003e-17
7596.34786 1.12411e-17
7598.30526 1.17548e-17
7600.25253 1.18762e-17
7602.19979 1.14789e-17
7604.14706 1.14563e-17
7606.10446 1.10800e-17
7608.05173 1.11222e-17
7609.99899 1.17598e-17
7611.94625 1.18219e-17
7613.90366 1.15827e-17
7615.85092 1.16295e-17
7617.79819 1.17643e-17
7619.74545 1.17076e-17
7621.70286 1.15401e-17
7623.65012 1.15012e-17
7625.59739 1.10472e-17
7627.55479 1.13195e-17
7629.50206 1.05868e-17
7631.44932 1.03952e-17
7633.39658 1.06548e-17
7635.35399 1.06413e-17
7637.30125 1.09856e-17
7639.24852 1.10286e-17
7641.19578 1.08012e-17
7643.15319 1.12011e-17
7645.10045 1.13359e-17
7647.04772 1.06669e-17
7649.00512 1.05847e-17
7650.95239 1.14675e-17
7652.89965 1.11112e-17
7654.84691 1.09088e-17
7656.80432 1.12330e-17
7658.75158 1.08397e-17
7660.69885 1.08579e-17
7662.64611 1.06755e-17
7664.60352 1.03991e-17
7666.55078 9.97719e-18
7668.49805 9.63829e-18
7670.45545 9.49450e-18
7672.40272 9.42213e-18
7674.34998 9.83785e-18
7676.29724 9.61510e-18
7678.25465 9.60661e-18
7680.20191 9.51919e-18
7682.14918 8.80418e-18
7684.09644 8.43722e-18
7686.05385 8.56090e-18
7688.00111 9.04308e-18
7689.94838 8.75421e-18
7691.89564 8.25919e-18
7693.85305 8.49433e-18
7695.80031 8.30312e-18
7697.74757 8.06670e-18
7699.70498 8.40488e-18
7701.65224 8.73769e-18
7703.59951 8.77682e-18
7705.54677 8.54577e-18
7707.50418 8.36994e-18
7709.45144 8.49635e-18
7711.39871 7.60541e-18
7713.34597 6.95600e-18
7715.30338 7.86873e-18
7717.25064 8.62237e-18
7719.19790 8.98765e-18
7721.14517 9.09910e-18
7723.10257 8.91103e-18
7725.04984 8.88761e-18
7726.99710 9.09849e-18
7728.95451 8.70931e-18
7730.90177 8.64584e-18
7732.84904 8.40420e-18
7734.79630 7.89852e-18
7736.75371 8.03516e-18
7738.70097 8.05584e-18
7740.64823 7.98451e-18
7742.59550 8.26549e-18
7744.55290 8.30582e-18
7746.50017 8.22403e-18
7748.44743 8.42928e-18
7750.40484 8.04079e-18
7752.35210 7.56910e-18
7754.29937 7.88831e-18
7756.24663 8.17213e-18
7758.20404 8.60367e-18
7760.15130 8.76816e-18
7762.09856 8.49590e-18
7764.04583 8.40577e-18
7766.00323 8.72673e-18
7767.95050 8.76014e-18
7769.89776 8.67652e-18
7771.85517 9.02636e-18
7773.80243 9.29006e-18
7775.74970 8.92272e-18
7777.69696 8.56005e-18
7779.65437 8.40101e-18
7781.60163 9.08829e-18
7783.54889 8.72237e-18
7785.49616 8.60537e-18
7787.45356 9.12986e-18
7789.40083 8.96054e-18
7791.34809 8.95132e-18
7793.29536 8.57098e-18
7795.25276 8.63903e-18
7797.20003 9.24899e-18
7799.14729 9.35719e-18
7801.10470 9.56810e-18
7803.05196 9.38586e-18
7804.99922 9.70821e-18
7806.94649 1.03317e-17
7808.90389 1.01637e-17
7810.85116 1.04967e-17
7812.79842 1.04329e-17
7814.74569 1.06804e-17
7816.70309 1.15731e-17
7818.65036 1.14378e-17
7820.59762 1.23756e-17
7822.54488 1.21352e-17
7824.50229 1.16445e-17
7826.44955 1.19987e-17
7828.39682 1.19416e-17
7830.35422 1.22366e-17
7832.30149 1.18382e-17
7834.24875 1.20300e-17
7836.19602 1.30978e-17
7838.15342 1.28792e-17
7840.10069 1.23706e-17
7842.04795 1.19358e-17
7843.99521 1.18611e-17
7845.95262 1.27881e-17
7847.89988 1.22527e-17
7849.84715 1.22167e-17
7851.80455 1.23293e-17
7853.75182 1.22146e-17
7855.69908 1.21388e-17
7857.64635 1.30085e-17
7859.60375 1.28391e-17
7861.55102 1.36989e-17
7863.49828 1.30284e-17
7865.44554 1.32757e-17
7867.40295 1.42360e-17
7869.35021 1.42527e-17
7871.29748 1.37782e-17
7873.25488 1.34031e-17
7875.20215 1.35491e-17
7877.14941 1.35971e-17
7879.09668 1.31175e-17
7881.05408 1.41374e-17
7883.00135 1.39491e-17
7884.94861 1.37826e-17
7886.89587 1.35099e-17
7888.85328 1.35159e-17
7890.80054 1.31490e-17
7892.74781 1.30006e-17
7894.70521 1.37070e-17
7896.65248 1.41011e-17
7898.59974 1.38191e-17
7900.54701 1.35506e-17
7902.50441 1.31126e-17
7904.45168 1.28970e-17
7906.39894 1.37217e-17
7908.34620 1.40806e-17
7910.30361 1.37589e-17
7912.25087 1.37302e-17
7914.19814 1.44234e-17
7916.14540 1.37987e-17
7918.10281 1.39008e-17
7920.05007 1.35942e-17
7921.99734 1.32893e-17
7923.95474 1.34330e-17
7925.90201 1.29014e-17
7927.84927 1.19014e-17
7929.79653 1.23561e-17
7931.75394 1.27067e-17
7933.70120 1.20518e-17
7935.64847 1.21777e-17
7937.59573 1.25665e-17
7939.55314 1.31124e-17
7941.50040 1.28828e-17
7943.44767 1.19858e-17
7945.40507 1.14660e-17
7947.35234 1.16143e-17
7949.29960 1.20563e-17
7951.24686 1.25260e-17
7953.20427 1.21058e-17
7955.15153 1.13572e-17
7957.09880 1.20867e-17
7959.04606 1.19166e-17
7961.00347 1.16198e-17
7962.95073 1.24804e-17
7964.89800 1.28039e-17
7966.85540 1.20394e-17
7968.80267 1.11704e-17
7970.74993 1.08829e-17
7972.69719 1.02211e-17
7974.65460 1.04721e-17
7976.60186 1.00907e-17
7978.54913 9.11007e-18
7980.49639 9.85917e-18
7982.45380 1.02107e-17
7984.40106 9.78433e-18
7986.34833 9.78914e-18
7988.29559 1.02105e-17
7990.25300 1.04026e-17
7992.20026 1.00496e-17
7994.14752 9.94654e-18
7996.10493 1.02061e-17
7998.05219 1.01024e-17
7999.99946 9.95425e-18
8001.94672 9.11919e-18
8003.90413 1.00275e-17
8005.85139 1.02931e-17
8007.79866 9.69991e-18
8009.74592 1.04395e-17
8011.70333 1.08736e-17
8013.65059 1.03196e-17
8015.59785 9.81099e-18
8017.54512 9.80490e-18
8019.50252 1.02000e-17
8021.44979 9.85018e-18
8023.39705 9.57036e-18
8025.35446 8.29508e-18
8027.30172 8.36008e-18
8029.24899 9.00923e-18
8031.19625 8.77949e-18
8033.15366 8.91075e-18
8035.10092 8.86250e-18
8037.04818 8.34441e-18
8038.99545 8.02477e-18
8040.95285 8.41280e-18
8042.90012 9.04662e-18
8044.84738 9.23477e-18
8046.80479 9.32227e-18
8048.75205 9.21373e-18
8050.69932 9.19475e-18
8052.64658 9.32813e-18
8054.60399 9.06253e-18
8056.55125 9.39955e-18
8058.49851 9.27111e-18
8060.44578 8.38118e-18
8062.40318 8.45278e-18
8064.35045 8.44251e-18
8066.29771 8.00790e-18
8068.25512 8.59631e-18
8070.20238 8.23818e-18
8072.14965 8.20051e-18
8074.09691 8.24258e-18
8076.05432 8.04042e-18
8078.00158 7.70879e-18
8079.94884 8.14473e-18
8081.89611 8.38767e-18
8083.85351 7.82680e-18
8085.80078 7.58302e-18
8087.74804 8.16453e-18
8089.70545 8.56395e-18
8091.65271 8.64640e-18
8093.59998 8.40153e-18
8095.54724 7.73680e-18
8097.50465 7.68359e-18
8099.45191 8.48904e-18
8101.39917 8.35824e-18
8103.34644 8.05950e-18
8105.30384 7.94139e-18
8107.25111 8.71122e-18
8109.19837 8.20622e-18
8111.14564 6.88663e-18
8113.10304 7.32890e-18
8115.05031 7.43176e-18
8116.99757 7.30204e-18
8118.95498 7.06345e-18
8120.90224 7.15047e-18
8122.84950 7.27671e-18
8124.79677 7.00571e-18
8126.75417 7.40816e-18
8128.70144 7.40758e-18
8130.64870 7.30298e-18
8132.59597 7.69883e-18
8134.55337 7.62820e-18
8136.50064 7.46219e-18
8138.44790 6.87452e-18
8140.39516 7.07112e-18
8142.35257 7.06245e-18
8144.29983 7.31332e-18
8146.24710 6.97697e-18
8148.20450 6.72406e-18
8150.15177 7.40185e-18
8152.09903 6.78820e-18
8154.04630 7.13558e-18
8156.00370 7.29951e-18
8157.95097 6.96458e-18
8159.89823 6.48048e-18
8161.84549 7.12926e-18
8163.80290 7.47322e-18
8165.75016 7.58816e-18
8167.69743 6.69980e-18
8169.65483 7.09909e-18
8171.60210 7.35052e-18
8173.54936 7.23436e-18
8175.49663 6.49112e-18
8177.45403 7.31277e-18
8179.40130 7.49859e-18
8181.34856 6.78897e-18
8183.29582 6.32591e-18
8185.25323 6.59942e-18
8187.20049 7.03974e-18
8189.14776 7.48882e-18
8191.10516 7.34426e-18
8193.05243 6.60101e-18
8194.99969 6.42974e-18
8196.94696 7.02381e-18
8198.90436 7.19759e-18
8200.85163 6.65137e-18
8202.79889 6.57995e-18
8204.74615 6.54300e-18
8206.70356 6.39508e-18
8208.65082 6.45412e-18
8210.59809 6.33529e-18
8212.54535 6.19531e-18
8214.50276 5.97260e-18
8216.45002 6.33675e-18
8218.39729 6.11674e-18
8220.35469 5.49255e-18
8222.30196 5.49602e-18
8224.24922 5.54132e-18
8226.19648 5.36487e-18
8228.15389 5.66575e-18
8230.10115 6.06129e-18
8232.04842 5.94562e-18
8233.99568 6.08751e-18
8235.95309 6.46340e-18
8237.90035 5.94215e-18
8239.84762 5.39568e-18
8241.80502 5.81995e-18
8243.75229 5.79872e-18
8245.69955 5.60826e-18
8247.64681 6.03536e-18
8249.60422 5.97903e-18
8251.55148 5.68949e-18
8253.49875 5.44037e-18
8255.44601 5.31442e-18
8257.40342 5.64283e-18
8259.35068 5.60464e-18
8261.29795 5.46940e-18
8263.25535 5.60098e-18
8265.20262 5.57572e-18
8267.14988 5.45232e-18
8269.09714 5.52733e-18
8271.05455 5.61266e-18
8273.00181 5.66052e-18
8274.94908 5.49741e-18
8276.89634 5.40280e-18
8278.85375 6.05125e-18
8280.80101 6.16709e-18
8282.74828 5.88542e-18
8284.69554 6.21201e-18
8286.65295 6.42855e-18
8288.60021 5.78623e-18
8290.54747 5.31066e-18
8292.50488 4.98036e-18
8294.45214 5.83779e-18
8296.39941 6.45943e-18
8298.34667 5.99708e-18
8300.30408 5.79812e-18
8302.25134 5.71657e-18
8304.19861 6.06464e-18
8306.14587 6.66693e-18
8308.10328 6.71846e-18
8310.05054 5.90708e-18
8311.99780 5.74936e-18
8313.94507 6.10820e-18
8315.90247 5.75007e-18
8317.84974 6.04603e-18
8319.79700 6.80977e-18
8321.75441 6.20211e-18
8323.70167 6.17646e-18
8325.64894 6.47768e-18
8327.59620 6.10239e-18
8329.55361 6.28858e-18
8331.50087 6.32682e-18
8333.44813 6.36962e-18
8335.40554 6.13606e-18
8337.35280 6.07453e-18
8339.30007 5.90402e-18
8341.24733 5.37632e-18
8343.20474 6.34968e-18
8345.15200 6.66381e-18
8347.09927 6.28617e-18
8349.04653 5.96756e-18
8351.00394 5.74452e-18
8352.95120 5.91321e-18
8354.89846 5.89563e-18
8356.84573 5.76402e-18
8358.80313 6.25706e-18
8360.75040 6.25142e-18
8362.69766 5.93705e-18
8364.65507 5.96164e-18
8366.60233 6.18462e-18
8368.54960 6.74611e-18
8370.49686 6.70937e-18
8372.45427 6.71137e-18
8374.40153 6.80165e-18
8376.34879 6.94354e-18
8378.29606 7.03817e-18
8380.25346 6.82939e-18
8382.20073 6.78835e-18
8384.14799 7.14543e-18
8386.09526 7.45656e-18
8388.05266 7.59225e-18
8389.99993 1.16154e-17
8390.49257 1.16154e-17
8392.49099 1.16296e-17
8394.49950 1.16009e-17
8396.49791 1.14892e-17
8398.49632 1.13164e-17
8400.49474 1.12297e-17
8402.50324 1.15595e-17
8404.50166 1.19446e-17
8406.50007 1.21608e-17
8408.49849 1.22714e-17
8410.49690 1.24432e-17
8412.50541 1.27219e-17
8414.50382 1.29664e-17
8416.50224 1.30147e-17
8418.50065 1.30453e-17
8420.49906 1.32172e-17
8422.50757 1.34068e-17
8424.50598 1.34798e-17
8426.50440 1.34114e-17
8428.50281 1.32949e-17
8430.51132 1.32157e-17
8432.50973 1.32006e-17
8434.50815 1.33688e-17
8436.50656 1.35973e-17
8438.50497 1.37816e-17
8440.51348 1.39303e-17
8442.51190 1.41344e-17
8444.51031 1.44494e-17
8446.50872 1.47953e-17
8448.50714 1.51122e-17
8450.51564 1.53932e-17
8452.51406 1.55430e-17
8454.51247 1.57094e-17
8456.51089 1.60818e-17
8458.51939 1.67345e-17
8460.51781 1.74428e-17
8462.51622 1.79794e-17
8464.51464 1.83983e-17
8466.51305 1.86624e-17
8468.52156 1.87744e-17
8470.51997 1.87085e-17
8472.51839 1.85239e-17
8474.51680 1.82860e-17
8476.52531 1.81025e-17
8478.52372 1.80271e-17
8480.52213 1.82781e-17
8482.52055 1.85830e-17
8484.51896 1.87291e-17
8486.52747 1.86618e-17
8488.52588 1.84858e-17
8490.52430 1.82905e-17
8492.52271 1.81509e-17
8494.52113 1.82062e-17
8496.52963 1.84378e-17
8498.52805 1.89636e-17
8500.52646 1.95827e-17
8502.52487 2.00830e-17
8504.53338 2.02848e-17
8506.53180 2.03667e-17
8508.53021 2.04094e-17
8510.52862 2.04926e-17
8512.52704 2.07961e-17
8514.53554 2.11470e-17
8516.53396 2.13863e-17
8518.53237 2.13842e-17
8520.53079 2.11861e-17
8522.52920 2.07543e-17
8524.53771 2.03246e-17
8526.53612 2.01127e-17
8528.53454 2.01202e-17
8530.53295 2.04361e-17
8532.54146 2.08943e-17
8534.53987 2.12368e-17
8536.53828 2.11962e-17
8538.53670 2.11347e-17
8540.53511 2.14286e-17
8542.54362 2.18051e-17
8544.54203 2.20828e-17
8546.54045 2.22936e-17
8548.53886 2.25712e-17
8550.53728 2.29968e-17
8552.54578 2.34859e-17
8554.54420 2.40255e-17
8556.54261 2.44985e-17
8558.54102 2.47650e-17
8560.54953 2.48982e-17
8562.54795 2.49817e-17
8564.54636 2.51013e-17
8566.54477 2.52406e-17
8568.54319 2.54262e-17
8570.55169 2.57212e-17
8572.55011 2.62739e-17
8574.54852 2.69099e-17
8576.54694 2.74687e-17
8578.54535 2.79132e-17
8580.55386 2.83719e-17
8582.55227 2.89379e-17
8584.55069 2.95256e-17
8586.54910 3.01426e-17
8588.55761 3.06590e-17
8590.55602 3.08679e-17
8592.55443 3.09478e-17
8594.55285 3.12128e-17
8596.55126 3.18784e-17
8598.55977 3.25907e-17
8600.55818 3.29137e-17
8602.55660 3.31966e-17
8604.55501 3.36408e-17
8606.55343 3.41393e-17
8608.56193 3.44995e-17
8610.56035 3.46588e-17
8612.55876 3.47876e-17
8614.55717 3.50503e-17
8616.56568 3.54032e-17
8618.56409 3.59307e-17
8620.56251 3.64967e-17
8622.56092 3.69552e-17
8624.55934 3.73003e-17
8626.56784 3.77024e-17
8628.56626 3.83116e-17
8630.56467 3.89001e-17
8632.56309 3.91649e-17
8634.57159 3.94261e-17
8636.57001 3.99747e-17
8638.56842 4.07564e-17
8640.56684 4.14988e-17
8642.56525 4.20141e-17
8644.57376 4.25359e-17
8646.57217 4.33219e-17
8648.57058 4.41475e-17
8650.56900 4.50409e-17
8652.56741 4.57057e-17
8654.57592 4.58174e-17
8656.57433 4.52948e-17
8658.57275 4.46388e-17
8660.57116 4.44317e-17
8662.57967 4.44465e-17
8664.57808 4.47841e-17
8666.57650 4.52460e-17
8668.57491 4.56827e-17
8670.57332 4.59679e-17
8672.58183 4.61962e-17
8674.58025 4.63878e-17
8676.57866 4.63976e-17
8678.57707 4.59562e-17
8680.57549 4.53696e-17
8682.58399 4.48361e-17
8684.58241 4.44909e-17
8686.58082 4.42611e-17
8688.57924 4.41711e-17
8690.58774 4.42463e-17
8692.58616 4.46331e-17
8694.58457 4.50730e-17
8696.58299 4.53908e-17
8698.58140 4.55640e-17
8700.58991 4.56682e-17
8702.58832 4.57502e-17
8704.58673 4.58200e-17
8706.58515 4.59281e-17
8708.59366 4.60343e-17
8710.59207 4.61372e-17
8712.59048 4.62045e-17
8714.58890 4.61241e-17
8716.58731 4.60126e-17
8718.59582 4.61310e-17
8720.59423 4.68525e-17
8722.59265 4.77629e-17
8724.59106 4.87268e-17
8726.58947 4.94811e-17
8728.59798 4.97547e-17
8730.59640 4.96011e-17
8732.59481 4.93536e-17
8734.59322 4.93086e-17
8736.60173 4.91987e-17
8738.60014 4.88008e-17
8740.59856 4.83010e-17
8742.59697 4.77254e-17
8744.59539 4.72558e-17
8746.60389 4.70298e-17
8748.60231 4.71635e-17
8750.60072 4.74490e-17
8752.59914 4.77406e-17
8754.60764 4.79416e-17
8756.60606 4.79051e-17
8758.60447 4.76605e-17
8760.60288 4.72372e-17
8762.60130 4.67358e-17
8764.60981 4.62373e-17
8766.60822 4.58939e-17
8768.60663 4.56899e-17
8770.60505 4.57331e-17
8772.60346 4.58841e-17
8774.61197 4.60527e-17
8776.61038 4.61468e-17
8778.60880 4.61838e-17
8780.60721 4.61300e-17
8782.61572 4.60209e-17
8784.61413 4.58089e-17
8786.61254 4.56594e-17
8788.61096 4.57057e-17
8790.60937 4.59601e-17
8792.61788 4.63627e-17
8794.61629 4.68385e-17
8796.61471 4.73228e-17
8798.61312 4.77525e-17
8800.61154 4.79834e-17
8802.62004 4.78397e-17
8804.61846 4.73918e-17
8806.61687 4.67002e-17
8808.61529 4.59291e-17
8810.62379 4.52051e-17
8812.62221 4.48227e-17
8814.62062 4.44638e-17
8816.61903 4.38921e-17
8818.61745 4.32273e-17
8820.62596 4.25206e-17
8822.62437 4.19507e-17
8824.62278 4.16293e-17
8826.62120 4.17684e-17
8828.62970 4.22176e-17
8830.62812 4.32056e-17
8832.62653 4.40516e-17
8834.62495 4.40995e-17
8836.62336 4.34662e-17
8838.63187 4.27363e-17
8840.63028 4.23988e-17
8842.62870 4.21532e-17
8844.62711 4.19626e-17
8846.62552 4.17162e-17
8848.63403 4.11986e-17
8850.63244 4.06364e-17
8852.63086 4.03727e-17
8854.62927 4.05214e-17
8856.63778 4.06682e-17
8858.63619 4.03259e-17
8860.63461 3.98258e-17
8862.63302 3.92546e-17
8864.63144 3.86821e-17
8866.63994 3.81342e-17
8868.63836 3.76448e-17
8870.63677 3.71817e-17
8872.63518 3.67307e-17
8874.63360 3.62942e-17
8876.64211 3.58208e-17
8878.64052 3.54192e-17
8880.63893 3.52142e-17
8882.63735 3.51594e-17
8884.64585 3.51232e-17
8886.64427 3.49727e-17
8888.64268 3.47754e-17
8890.64110 3.44809e-17
8892.63951 3.42288e-17
8894.64802 3.41383e-17
8896.64643 3.41872e-17
8898.64485 3.43423e-17
8900.64326 3.44959e-17
8902.65177 3.45282e-17
8904.65018 3.41310e-17
8906.64859 3.36695e-17
8908.64701 3.32423e-17
8910.64542 3.30921e-17
8912.65393 3.35286e-17
8914.65234 3.44225e-17
8916.65076 3.52222e-17
8918.64917 3.52310e-17
8920.64759 3.48113e-17
8922.65609 3.38914e-17
8924.65451 3.27844e-17
8926.65292 3.17294e-17
8928.65133 3.08283e-17
8930.65984 2.98574e-17
8932.65826 2.87494e-17
8934.65667 2.78773e-17
8936.65508 2.78413e-17
8938.65350 2.80932e-17
8940.66200 2.83722e-17
8942.66042 2.84743e-17
8944.65883 2.83786e-17
8946.65725 2.80461e-17
8948.66575 2.76841e-17
8950.66417 2.76267e-17
8952.66258 2.75530e-17
8954.66100 2.72063e-17
8956.65941 2.67900e-17
8958.66792 2.66235e-17
8960.66633 2.67434e-17
8962.66474 2.67615e-17
8964.66316 2.62043e-17
8966.66157 2.56336e-17
8968.67008 2.55382e-17
8970.66849 2.55942e-17
8972.66691 2.55029e-17
8974.66532 2.51508e-17
8976.67383 2.46944e-17
8978.67224 2.42215e-17
8980.67066 2.37240e-17
8982.66907 2.31514e-17
8984.66748 2.27044e-17
8986.67599 2.26205e-17
8988.67441 2.27722e-17
8990.67282 2.28988e-17
8992.67123 2.27791e-17
8994.66965 2.25983e-17
8996.67815 2.24549e-17
8998.67657 2.23380e-17
9000.67498 2.22182e-17
9002.67340 2.22031e-17
9004.68190 2.24678e-17
9006.68032 2.29701e-17
9008.67873 2.33915e-17
9010.67714 2.32901e-17
9012.67556 2.29828e-17
9014.68407 2.25268e-17
9016.68248 2.20713e-17
9018.68089 2.17527e-17
9020.67931 2.15723e-17
9022.67772 2.13274e-17
9024.68623 2.08354e-17
9026.68464 2.04106e-17
9028.68306 2.04040e-17
9030.68147 2.05595e-17
9032.68998 2.06921e-17
9034.68839 2.07692e-17
9036.68681 2.09067e-17
9038.68522 2.11559e-17
9040.68363 2.14305e-17
9042.69214 2.16355e-17
9044.69056 2.18293e-17
9046.68897 2.20463e-17
9048.68738 2.22629e-17
9050.68580 2.24327e-17
9052.69430 2.25480e-17
9054.69272 2.26771e-17
9056.69113 2.29401e-17
9058.68955 2.31403e-17
9060.69805 2.30300e-17
9062.69647 2.28600e-17
9064.69488 2.29202e-17
9066.69330 2.32644e-17
9068.69171 2.36263e-17
9070.70022 2.37557e-17
9072.69863 2.37824e-17
9074.69704 2.36853e-17
9076.69546 2.35635e-17
9078.69387 2.34367e-17
9080.70238 2.34321e-17
9082.70079 2.36650e-17
9084.69921 2.42307e-17
9086.69762 2.48294e-17
9088.70613 2.51487e-17
9090.70454 2.52484e-17
9092.70296 2.50346e-17
9094.70137 2.46506e-17
9096.69978 2.42132e-17
9098.70829 2.39104e-17
9100.70671 2.37557e-17
9102.70512 2.39373e-17
9104.70353 2.42425e-17
9106.70195 2.45645e-17
9108.71045 2.48744e-17
9110.70887 2.52254e-17
9112.70728 2.55523e-17
9114.70570 2.57520e-17
9116.71420 2.56608e-17
9118.71262 2.55257e-17
9120.71103 2.56131e-17
9122.70945 2.57100e-17
9124.70786 2.56535e-17
9126.71637 2.53577e-17
9128.71478 2.48433e-17
9130.71319 2.41341e-17
9132.71161 2.34683e-17
9134.72012 2.32007e-17
9136.71853 2.31320e-17
9138.71694 2.32622e-17
9140.71536 2.33809e-17
9142.71377 2.32795e-17
9144.72228 2.28333e-17
9146.72069 2.23803e-17
9148.71911 2.22880e-17
9150.71752 2.24432e-17
9152.71593 2.30859e-17
9154.72444 2.37689e-17
9156.72286 2.40187e-17
9158.72127 2.36441e-17
9160.71968 2.31312e-17
9162.72819 2.29347e-17
9164.72660 2.28291e-17
9166.72502 2.27699e-17
9168.72343 2.27845e-17
9170.72185 2.29334e-17
9172.73035 2.31676e-17
9174.72877 2.34047e-17
9176.72718 2.35347e-17
9178.72559 2.35852e-17
9180.73410 2.34681e-17
9182.73252 2.33398e-17
9184.73093 2.32922e-17
9186.72934 2.33911e-17
9188.72776 2.36597e-17
9190.73626 2.40790e-17
9192.73468 2.44767e-17
9194.73309 2.44945e-17
9196.73151 2.44947e-17
9198.72992 2.47403e-17
9200.73843 2.50783e-17
9202.73684 2.52345e-17
9204.73526 2.51288e-17
9206.73367 2.50435e-17
9208.74218 2.53113e-17
9210.74059 2.55942e-17
9212.73901 2.56097e-17
9214.73742 2.55738e-17
9216.73583 2.57200e-17
9218.74434 2.61053e-17
9220.74275 2.65741e-17
9222.74117 2.69940e-17
9224.73958 2.73115e-17
9226.73800 2.73327e-17
9228.74650 2.72445e-17
9230.74492 2.72037e-17
9232.74333 2.72045e-17
9234.74175 2.71088e-17
9236.75025 2.68417e-17
9238.74867 2.65461e-17
9240.74708 2.63326e-17
9242.74549 2.62369e-17
9244.74391 2.63504e-17
9246.75242 2.66121e-17
9248.75083 2.69702e-17
9250.74924 2.73131e-17
9252.74766 2.75758e-17
9254.75616 2.75424e-17
9256.75458 2.75310e-17
9258.75299 2.78545e-17
9260.75141 2.82817e-17
9262.74982 2.85922e-17
9264.75833 2.86243e-17
9266.75674 2.84456e-17
9268.75516 2.80340e-17
9270.75357 2.75522e-17
9272.75198 2.71240e-17
9274.76049 2.68205e-17
9276.75890 2.67015e-17
9278.75732 2.67804e-17
9280.75573 2.70491e-17
9282.76424 2.74444e-17
9284.76265 2.77612e-17
9286.76107 2.75711e-17
9288.75948 2.72823e-17
9290.75790 2.71856e-17
9292.76640 2.72039e-17
9294.76482 2.70641e-17
9296.76323 2.66850e-17
9298.76164 2.63592e-17
9300.76006 2.64179e-17
9302.76857 2.67408e-17
9304.76698 2.76316e-17
9306.76539 2.84606e-17
9308.76381 2.86031e-17
9310.77231 2.78243e-17
9312.77073 2.66586e-17
9314.76914 2.55325e-17
9316.76756 2.48507e-17
9318.76597 2.57134e-17
9320.77448 2.69131e-17
9322.77289 2.74017e-17
9324.77131 2.69355e-17
9326.76972 2.62247e-17
9328.77823 2.57736e-17
9330.77664 2.53827e-17
9332.77505 2.49897e-17
9334.77347 2.48218e-17
9336.77188 2.52126e-17
9338.78039 2.58764e-17
9340.77880 2.64851e-17
9342.77722 2.65942e-17
9344.77563 2.62110e-17
9346.77405 2.45103e-17
9348.78255 2.31265e-17
9350.78097 2.35660e-17
9352.77938 2.50056e-17
9354.77779 2.63408e-17
9356.78630 2.68262e-17
9358.78471 2.69883e-17
9360.78313 2.69710e-17
9362.78154 2.67724e-17
9364.77996 2.63742e-17
9366.78846 2.59437e-17
9368.78688 2.54168e-17
9370.78529 2.51763e-17
9372.78371 2.56983e-17
9374.79221 2.75119e-17
9376.79063 2.93984e-17
9378.78904 3.02016e-17
9380.78746 3.01878e-17
9382.78587 2.91512e-17
9384.79438 2.76479e-17
9386.79279 2.62534e-17
9388.79120 2.56120e-17
9390.78962 2.52511e-17
9392.78803 2.49262e-17
9394.79654 2.47625e-17
9396.79495 2.48820e-17
9398.79337 2.50876e-17
9400.79178 2.50871e-17
9402.80029 2.48646e-17
9404.79870 2.48827e-17
9406.79712 2.58181e-17
9408.79553 2.67796e-17
9410.79394 2.71031e-17
9412.80245 2.70074e-17
9414.80086 2.67695e-17
9416.79928 2.65058e-17
9418.79769 2.60543e-17
9420.79611 2.53516e-17
9422.80461 2.48000e-17
9424.80303 2.49673e-17
9426.80144 2.54259e-17
9428.79986 2.60181e-17
9430.80836 2.64000e-17
9432.80678 2.63442e-17
9434.80519 2.56421e-17
9436.80361 2.48606e-17
9438.80202 2.46454e-17
9440.81053 2.47365e-17
9442.80894 2.53102e-17
9444.80735 2.59214e-17
9446.80577 2.61099e-17
9448.81428 2.55904e-17
9450.81269 2.48430e-17
9452.81110 2.41706e-17
9454.80952 2.39253e-17
9456.80793 2.50667e-17
9458.81644 2.64334e-17
9460.81485 2.67688e-17
9462.81327 2.57521e-17
9464.81168 2.44789e-17
9466.81009 2.39296e-17
9468.81860 2.38868e-17
9470.81702 2.48043e-17
9472.81543 2.61089e-17
9474.81384 2.76114e-17
9476.82235 2.87155e-17
9478.82076 2.90734e-17
9480.81918 2.82098e-17
9482.81759 2.68885e-17
9484.81601 2.55920e-17
9486.82451 2.46403e-17
9488.82293 2.45597e-17
9490.82134 2.50706e-17
9492.81976 2.57886e-17
9494.81817 2.61865e-17
9496.82668 2.61650e-17
9498.82509 2.50131e-17
9500.82350 2.36933e-17
9502.82192 2.27168e-17
9504.83043 2.22588e-17
9506.82884 2.23904e-17
9508.82725 2.29973e-17
9510.82567 2.37482e-17
9512.82408 2.42072e-17
9514.83259 2.44246e-17
9516.83100 2.40204e-17
9518.82942 2.35615e-17
9520.82783 2.36335e-17
9522.82624 2.41802e-17
9524.83475 2.46359e-17
9526.83317 2.44793e-17
9528.83158 2.40347e-17
9530.82999 2.32136e-17
9532.83850 2.24648e-17
9534.83691 2.22454e-17
9536.83533 2.23977e-17
9538.83374 2.25139e-17
9540.83216 2.22799e-17
9542.84066 2.19263e-17
9544.83908 2.14585e-17
9546.83749 2.11194e-17
9548.83591 2.12080e-17
9550.83432 2.15342e-17
9552.84283 2.19043e-17
9554.84124 2.20912e-17
9556.83965 2.20854e-17
9558.83807 2.17081e-17
9560.84658 2.12375e-17
9562.84499 2.09054e-17
9564.84340 2.06247e-17
9566.84182 2.02952e-17
9568.84023 1.98964e-17
9570.84874 1.94630e-17
9572.84715 1.90331e-17
9574.84557 1.87036e-17
9576.84398 1.85798e-17
9578.84239 1.87003e-17
9580.85090 1.92447e-17
9582.84931 1.99635e-17
9584.84773 2.05760e-17
9586.84614 2.07488e-17
9588.85465 2.06436e-17
9590.85306 2.01121e-17
9592.85148 1.95366e-17
9594.84989 1.91180e-17
9596.84831 1.90085e-17
9598.85681 1.93130e-17
9600.85523 1.99697e-17
9602.85364 2.06537e-17
9604.85206 2.09245e-17
9606.86056 2.09671e-17
9608.85898 2.05857e-17
9610.85739 2.02208e-17
9612.85580 2.03306e-17
9614.85422 2.09465e-17
9616.86273 2.16110e-17
9618.86114 2.18722e-17
9620.85955 2.18513e-17
9622.85797 2.12613e-17
9624.85638 2.05920e-17
9626.86489 2.01906e-17
9628.86330 2.01949e-17
9630.86172 2.05237e-17
9632.86013 2.10555e-17
9634.86864 2.14422e-17
9636.86705 2.08145e-17
9638.86547 2.01752e-17
9640.86388 2.02398e-17
9642.86229 2.08047e-17
9644.87080 2.13917e-17
9646.86921 2.16470e-17
9648.86763 2.17428e-17
9650.86604 2.16460e-17
9652.86446 2.14586e-17
9654.87296 2.11783e-17
9656.87138 2.09841e-17
9658.86979 2.10516e-17
9660.86821 2.13945e-17
9662.87671 2.18052e-17
9664.87513 2.20690e-17
9666.87354 2.22304e-17
9668.87195 2.22149e-17
9670.87037 2.20839e-17
9672.87888 2.18220e-17
9674.87729 2.15563e-17
9676.87570 2.14079e-17
9678.87412 2.15173e-17
9680.88262 2.17017e-17
9682.88104 2.18168e-17
9684.87945 2.18920e-17
9686.87787 2.18874e-17
9688.87628 2.18681e-17
9690.88479 2.19462e-17
9692.88320 2.21414e-17
9694.88162 2.22668e-17
9696.88003 2.20477e-17
9698.87844 2.17078e-17
9700.88695 2.12561e-17
9702.88536 2.08862e-17
9704.88378 2.07400e-17
9706.88219 2.09078e-17
9708.89070 2.12841e-17
9710.88911 2.18224e-17
9712.88753 2.22441e-17
9714.88594 2.20537e-17
9716.88436 2.17190e-17
9718.89286 2.17103e-17
9720.89128 2.20242e-17
9722.88969 2.21859e-17
9724.88810 2.18552e-17
9726.89661 2.16202e-17
9728.89503 2.22430e-17
9730.89344 2.30239e-17
9732.89185 2.35360e-17
9734.89027 2.36843e-17
9736.89877 2.36079e-17
9738.89719 2.34401e-17
9740.89560 2.33341e-17
9742.89402 2.37415e-17
9744.89243 2.41229e-17
9746.90094 2.41670e-17
9748.89935 2.38833e-17
9750.89776 2.32950e-17
9752.89618 2.25967e-17
9754.90469 2.20525e-17
9756.90310 2.21393e-17
9758.90151 2.23261e-17
9760.89993 2.23088e-17
9762.89834 2.20641e-17
9764.90685 2.14942e-17
9766.90526 2.07899e-17
9768.90368 2.02682e-17
9770.90209 2.03087e-17
9772.90051 2.04939e-17
9774.90901 2.04944e-17
9776.90743 2.04677e-17
9778.90584 2.04648e-17
9780.90425 2.05761e-17
9782.91276 2.08989e-17
9784.91118 2.14549e-17
9786.90959 2.19798e-17
9788.90800 2.20583e-17
9790.90642 2.19806e-17
9792.91492 2.18701e-17
9794.91334 2.17058e-17
9796.91175 2.13529e-17
9798.91017 2.08568e-17
9800.91867 2.04264e-17
9802.91709 2.03690e-17
9804.91550 2.04562e-17
9806.91392 2.06407e-17
9808.91233 2.08199e-17
9810.92084 2.08938e-17
9812.91925 2.08743e-17
9814.91766 2.09310e-17
9816.91608 2.12264e-17
9818.91449 2.14595e-17
9820.92300 2.13593e-17
9822.92141 2.10057e-17
9824.91983 2.03396e-17
9826.91824 1.95687e-17
9828.92675 1.88845e-17
9830.92516 1.85484e-17
9832.92358 1.84341e-17
9834.92199 1.85565e-17
9836.92040 1.88668e-17
9838.92891 1.95236e-17
9840.92733 2.01294e-17
9842.92574 2.01851e-17
9844.92415 1.95444e-17
9846.92257 1.89465e-17
9848.93107 1.93644e-17
9850.92949 1.99709e-17
9852.92790 2.04119e-17
9854.92632 2.06168e-17
9856.93482 2.06114e-17
9858.93324 2.04026e-17
9860.93165 2.00509e-17
9862.93007 1.96258e-17
9864.92848 1.91591e-17
9866.93699 1.85975e-17
9868.93540 1.82087e-17
9870.93381 1.83024e-17
9872.93223 1.87653e-17
9874.94074 1.92405e-17
9876.93915 1.93898e-17
9878.93756 1.94675e-17
9880.93598 1.96544e-17
9882.93439 1.97778e-17
9884.94290 1.97480e-17
9886.94131 1.95287e-17
9888.93973 1.90458e-17
9890.93814 1.84063e-17
9892.93655 1.79393e-17
9894.94506 1.83255e-17
9896.94348 1.88018e-17
9898.94189 1.88646e-17
9900.94030 1.86773e-17
9902.94881 1.85419e-17
9904.94722 1.85596e-17
9906.94564 1.85100e-17
9908.94405 1.81856e-17
9910.94247 1.80172e-17
9912.95097 1.85100e-17
9914.94939 1.92717e-17
9916.94780 2.01200e-17
9918.94621 2.06783e-17
9920.95472 2.07190e-17
9922.95314 1.99391e-17
9924.95155 1.90481e-17
9926.94996 1.88628e-17
9928.94838 1.89154e-17
9930.95689 1.89606e-17
9932.95530 1.89578e-17
9934.95371 1.90803e-17
9936.95213 1.93140e-17
9938.95054 1.94047e-17
9940.95905 1.86828e-17
9942.95746 1.81438e-17
9944.95588 1.86352e-17
9946.95429 1.96800e-17
9948.96280 2.08011e-17
9950.96121 2.13372e-17
9952.95963 2.10650e-17
9954.95804 1.91211e-17
9956.95645 1.72538e-17
9958.96496 1.71555e-17
9960.96337 1.79747e-17
9962.96179 1.90464e-17
9964.96020 1.97349e-17
9966.95862 1.99702e-17
9968.96712 1.93905e-17
9970.96554 1.86950e-17
9972.96395 1.86430e-17
9974.96236 1.87825e-17
9976.97087 1.87285e-17
9978.96929 1.86243e-17
9980.96770 1.89466e-17
9982.96611 1.98835e-17
9984.96453 2.07259e-17
9986.97304 2.04045e-17
9988.97145 1.97736e-17
9990.96986 1.91755e-17
9992.96828 1.86971e-17
9994.97678 1.81712e-17
9996.97520 1.76764e-17
9998.97361 1.74056e-17
10000.97203 1.77021e-17
10002.97044 1.81579e-17
