# wavelength flux
3485.99664 3.23485e-17
3487.46832 2.90966e-17
3488.94000 7.80384e-18
3490.41168 1.35144e-17
3491.88336 3.00295e-17
3493.34496 1.51885e-17
3494.81664 1.88802e-17
3496.28832 7.58475e-18
3497.76000 9.84256e-18
3499.23168 3.13037e-17
3500.70336 2.07782e-17
3502.16496 2.03196e-17
3503.63664 2.92490e-17
3505.10832 3.89441e-17
3506.58000 3.28308e-17
3508.05168 2.44752e-17
3509.52336 2.66458e-17
3510.98496 3.12596e-17
3512.45664 3.19180e-17
3513.92832 3.77093e-17
3515.40000 2.61760e-17
3516.87168 2.00905e-17
3518.34336 2.18967e-17
3519.81504 3.23878e-17
3521.27664 2.30873e-17
3522.74832 2.60664e-17
3524.22000 3.24861e-17
3525.69168 2.81048e-17
3527.16336 2.83955e-17
3528.62496 2.22742e-17
3530.09664 1.68259e-17
3531.56832 8.46123e-18
3533.04000 1.93014e-17
3534.51168 1.60790e-17
3535.98336 2.33880e-17
3537.45504 3.08677e-17
3538.91664 3.14359e-17
3540.38832 3.70459e-17
3541.86000 2.27675e-17
3543.33168 2.62088e-17
3544.80336 1.90616e-17
3546.26496 1.31192e-17
3547.73664 1.77980e-17
3549.20832 2.10021e-17
3550.68000 1.74429e-17
3552.15168 2.32230e-17
3553.62336 1.58838e-17
3555.09504 1.60798e-17
3556.55664 3.16669e-17
3558.02832 2.16488e-17
3559.50000 2.86548e-17
3560.97168 3.14185e-17
3562.44336 1.49752e-17
3563.90496 2.40091e-17
3565.37664 1.98168e-17
3566.84832 1.34508e-17
3568.32000 2.47033e-17
3569.79168 2.89704e-17
3571.26336 1.81358e-17
3572.73504 2.45186e-17
3574.19664 3.11726e-17
3575.66832 1.92000e-17
3577.14000 2.24970e-17
3578.61168 2.59096e-17
3580.08336 2.13113e-17
3581.54496 1.81493e-17
3583.01664 2.03963e-17
3584.48832 1.70130e-17
3585.96000 2.22616e-17
3587.43168 2.48716e-17
3588.90336 1.47777e-17
3590.37504 1.74852e-17
3591.83664 2.23732e-17
3593.30832 3.17426e-17
3594.78000 3.20771e-17
3596.25168 1.88947e-17
3597.72336 1.89351e-17
3599.18496 2.57327e-17
3600.65664 3.73893e-17
3602.12832 2.73489e-17
3603.60000 1.34723e-17
3605.07168 2.38200e-17
3606.54336 2.88992e-17
3608.01504 3.08233e-17
3609.47664 3.63279e-17
3610.94832 3.51351e-17
3612.42000 2.72454e-17
3613.89168 2.71107e-17
3615.36336 2.98353e-17
3616.82496 2.65160e-17
3618.29664 2.46023e-17
3619.76832 2.25681e-17
3621.24000 1.70519e-17
3622.71168 2.34347e-17
3624.18336 3.00667e-17
3625.64496 2.84809e-17
3627.11664 1.81758e-17
3628.58832 9.71892e-18
3630.06000 2.13789e-17
3631.53168 3.15467e-17
3633.00336 2.62450e-17
3634.46496 2.95557e-17
3635.93664 2.63207e-17
3637.40832 1.46252e-17
3638.88000 1.55069e-17
3640.35168 2.31487e-17
3641.82336 2.62283e-17
3643.29504 2.36182e-17
3644.75664 2.25217e-17
3646.22832 1.85028e-17
3647.70000 2.31978e-17
3649.17168 2.96300e-17
3650.64336 3.28206e-17
3652.10496 3.21496e-17
3653.57664 2.48733e-17
3655.04832 1.78082e-17
3656.52000 2.22102e-17
3657.99168 2.61070e-17
3659.46336 2.13482e-17
3660.92496 1.98392e-17
3662.39664 2.48550e-17
3663.86832 2.89258e-17
3665.34000 2.29307e-17
3666.81168 1.22287e-17
3668.28336 1.49788e-17
3669.74496 1.89548e-17
3671.21664 2.21703e-17
3672.68832 2.17444e-17
3674.16000 1.89850e-17
3675.63168 2.27182e-17
3677.10336 2.52226e-17
3678.57504 2.93530e-17
3680.03664 2.85421e-17
3681.50832 2.10887e-17
3682.98000 2.20930e-17
3684.45168 1.98781e-17
3685.92336 1.62111e-17
3687.38496 2.08140e-17
3688.85664 1.93452e-17
3690.32832 2.05981e-17
3691.80000 2.75048e-17
3693.27168 2.10254e-17
3694.74336 1.63155e-17
3696.21504 1.74530e-17
3697.67664 1.63893e-17
3699.14832 2.56013e-17
3700.62000 2.92611e-17
3702.09168 2.52648e-17
3703.56336 2.65109e-17
3705.02496 2.59577e-17
3706.49664 2.38939e-17
3707.96832 2.36854e-17
3709.44000 2.33185e-17
3710.91168 2.79680e-17
3712.38336 2.86029e-17
3713.85504 2.26182e-17
3715.31664 2.19599e-17
3716.78832 2.58482e-17
3718.26000 2.27432e-17
3719.73168 1.73903e-17
3721.20336 2.23804e-17
3722.66496 2.47590e-17
3724.13664 2.26211e-17
3725.60832 2.57347e-17
3727.08000 2.10804e-17
3728.55168 1.82070e-17
3730.02336 1.91766e-17
3731.49504 1.55178e-17
3732.95664 1.04355e-17
3734.42832 1.22351e-17
3735.90000 1.67285e-17
3737.37168 1.88165e-17
3738.84336 1.84941e-17
3740.30496 1.81717e-17
3741.77664 1.78783e-17
3743.24832 1.75851e-17
3744.72000 1.72919e-17
3746.19168 1.69989e-17
3747.66336 1.67059e-17
3749.12496 1.64131e-17
3750.59664 1.61203e-17
3752.06832 1.58276e-17
3753.54000 1.55351e-17
3755.01168 1.52426e-17
3756.48336 1.49503e-17
3757.94496 1.46580e-17
3759.41664 1.43659e-17
3760.88832 1.40738e-17
3762.36000 1.37818e-17
3763.83168 1.34900e-17
3765.30336 1.31982e-17
3766.77504 1.29065e-17
3768.23664 1.26150e-17
3769.70832 1.23235e-17
3771.18000 1.20322e-17
3772.65168 1.17408e-17
3774.12336 1.14496e-17
3775.58496 1.11585e-17
3777.05664 1.08676e-17
3778.52832 9.89505e-18
3780.00000 6.97922e-18
3781.47168 9.63546e-18
3782.94336 7.89329e-18
3784.40496 7.29140e-18
3785.87664 6.37960e-18
3787.34832 4.96189e-18
3788.82000 6.56761e-18
3790.29168 8.73454e-18
3791.76336 8.47249e-18
3793.22496 8.11825e-18
3794.69664 8.60980e-18
3796.16832 4.72490e-18
3797.64000 6.94053e-18
3799.11168 8.38513e-18
3800.58336 6.00432e-18
3802.05504 8.23283e-18
3803.51664 8.33387e-18
3804.98832 9.39803e-18
3806.46000 8.07713e-18
3807.93168 8.59183e-18
3809.40336 1.03491e-17
3810.86496 1.04797e-17
3812.33664 1.07753e-17
3813.80832 6.59422e-18
3815.28000 5.70647e-18
3816.75168 7.56935e-18
3818.22336 1.15701e-17
3819.69504 8.71253e-18
3821.15664 8.86851e-18
3822.62832 1.09940e-17
3824.10000 1.22224e-17
3825.57168 1.38989e-17
3827.04336 9.32766e-18
3828.50496 7.28616e-18
3829.97664 5.43337e-18
3831.44832 1.25342e-17
3832.92000 1.40311e-17
3834.39168 1.35602e-17
3835.86336 8.06120e-18
3837.33504 1.03946e-17
3838.79664 1.13870e-17
3840.26832 1.41008e-17
3841.74000 1.03057e-17
3843.21168 1.15025e-17
3844.68336 1.47343e-17
3846.14496 1.19843e-17
3847.61664 1.39932e-17
3849.08832 1.73193e-17
3850.56000 1.96764e-17
3852.03168 1.80379e-17
3853.50336 1.62748e-17
3854.97504 1.61755e-17
3856.43664 1.42135e-17
3857.90832 1.32376e-17
3859.38000 1.49017e-17
3860.85168 1.59278e-17
3862.32336 1.55059e-17
3863.78496 1.05905e-17
3865.25664 1.35374e-17
3866.72832 2.13272e-17
3868.20000 1.58547e-17
3869.67168 1.92636e-17
3871.14336 1.66313e-17
3872.61504 2.12817e-17
3874.07664 1.72464e-17
3875.54832 1.65656e-17
3877.02000 2.14531e-17
3878.49168 2.16136e-17
3879.96336 2.62615e-17
3881.42496 2.32566e-17
3882.89664 2.00864e-17
3884.36832 2.03810e-17
3885.84000 2.60301e-17
3887.31168 1.92717e-17
3888.78336 2.03641e-17
3890.25504 2.65491e-17
3891.71664 2.36942e-17
3893.18832 2.27231e-17
3894.66000 2.31465e-17
3896.13168 2.64480e-17
3897.60336 2.37842e-17
3899.06496 2.37351e-17
3900.53664 2.73854e-17
3902.00832 2.69136e-17
3903.48000 2.79684e-17
3904.95168 2.87733e-17
3906.42336 2.53885e-17
3907.88496 3.14947e-17
3909.35664 3.16751e-17
3910.82832 2.89304e-17
3912.30000 2.80083e-17
3913.77168 2.85428e-17
3915.24336 2.98561e-17
3916.70496 3.25854e-17
3918.17664 2.71469e-17
3919.64832 2.93328e-17
3921.12000 3.42941e-17
3922.59168 3.69101e-17
3924.06336 3.14983e-17
3925.53504 2.89298e-17
3926.99664 2.78722e-17
3928.46832 2.93917e-17
3929.94000 3.28106e-17
3931.41168 3.49442e-17
3932.88336 3.33836e-17
3934.34496 3.37711e-17
3935.81664 3.02058e-17
3937.28832 2.88643e-17
3938.76000 3.27265e-17
3940.23168 3.17336e-17
3941.70336 2.99592e-17
3943.16496 2.91783e-17
3944.63664 3.40140e-17
3946.10832 3.34522e-17
3947.58000 3.42180e-17
3949.05168 3.57761e-17
3950.52336 3.58188e-17
3951.98496 3.51855e-17
3953.45664 3.65874e-17
3954.92832 3.53889e-17
3956.40000 3.20251e-17
3957.87168 3.14336e-17
3959.34336 3.65252e-17
3960.81504 3.74632e-17
3962.27664 3.67888e-17
3963.74832 3.70260e-17
3965.22000 3.88369e-17
3966.69168 3.68404e-17
3968.16336 3.14029e-17
3969.62496 3.46003e-17
3971.09664 3.31437e-17
3972.56832 3.60188e-17
3974.04000 3.60693e-17
3975.51168 3.28035e-17
3976.98336 3.46886e-17
3978.45504 3.52054e-17
3979.91664 3.70618e-17
3981.38832 3.78355e-17
3982.86000 4.05077e-17
3984.33168 3.72203e-17
3985.80336 3.48905e-17
3987.26496 3.79121e-17
3988.73664 3.61517e-17
3990.20832 3.70173e-17
3991.68000 4.00809e-17
3993.15168 4.00147e-17
3994.62336 3.45377e-17
3996.09504 3.37468e-17
3997.55664 3.73882e-17
3999.02832 3.83788e-17
4000.50000 3.84593e-17
4001.97168 3.38465e-17
4003.44336 3.46675e-17
4004.90496 3.61754e-17
4006.37664 3.51548e-17
4007.84832 3.53500e-17
4009.32000 3.41253e-17
4010.79168 3.24900e-17
4012.26336 3.22416e-17
4013.73504 3.35230e-17
4015.19664 3.42622e-17
4016.66832 3.46069e-17
4018.14000 3.64941e-17
4019.61168 3.46574e-17
4021.08336 3.39527e-17
4022.54496 3.40515e-17
4024.01664 3.41637e-17
4025.48832 3.26283e-17
4026.96000 2.99146e-17
4028.43168 3.37922e-17
4029.90336 3.40502e-17
4031.37504 2.99147e-17
4032.83664 3.07780e-17
4034.30832 3.11560e-17
4035.78000 3.26555e-17
4037.25168 3.29942e-17
4038.72336 3.11157e-17
4040.18496 2.99761e-17
4041.65664 3.05577e-17
4043.12832 3.21027e-17
4044.60000 3.25142e-17
4046.07168 3.03915e-17
4047.54336 2.88176e-17
4049.01504 2.96603e-17
4050.47664 2.71626e-17
4051.94832 2.67189e-17
4053.42000 2.68469e-17
4054.89168 2.78490e-17
4056.36336 2.85478e-17
4057.82496 2.68655e-17
4059.29664 2.64338e-17
4060.76832 2.65881e-17
4062.24000 2.75780e-17
4063.71168 2.73662e-17
4065.18336 2.58753e-17
4066.64496 2.64602e-17
4068.11664 2.62895e-17
4069.58832 2.58941e-17
4071.06000 2.58117e-17
4072.53168 2.46181e-17
4074.00336 2.53897e-17
4075.46496 2.62286e-17
4076.93664 2.74216e-17
4078.40832 2.78293e-17
4079.88000 2.82480e-17
4081.35168 2.66136e-17
4082.82336 2.53756e-17
4084.29504 2.77499e-17
4085.75664 2.80281e-17
4087.22832 2.82767e-17
4088.70000 2.65637e-17
4090.17168 2.43121e-17
4091.64336 2.44462e-17
4093.10496 2.43592e-17
4094.57664 2.57313e-17
4096.04832 2.61193e-17
4097.52000 2.38728e-17
4098.99168 2.40583e-17
4100.46336 2.44255e-17
4101.93504 2.70360e-17
4103.39664 2.54929e-17
4104.86832 2.40864e-17
4106.34000 2.35796e-17
4107.81168 2.44975e-17
4109.28336 2.47422e-17
4110.74496 2.39324e-17
4112.21664 2.48310e-17
4113.68832 2.36628e-17
4115.16000 2.19059e-17
4116.63168 2.38015e-17
4118.10336 2.49445e-17
4119.56496 2.33627e-17
4121.03664 2.29993e-17
4122.50832 2.35776e-17
4123.98000 2.38188e-17
4125.45168 2.21577e-17
4126.92336 2.24854e-17
4128.38496 2.35969e-17
4129.85664 2.34226e-17
4131.32832 2.31821e-17
4132.80000 2.44940e-17
4134.27168 2.50462e-17
4135.74336 2.30761e-17
4137.21504 2.14633e-17
4138.67664 2.24290e-17
4140.14832 2.35107e-17
4141.62000 2.36573e-17
4143.09168 2.22631e-17
4144.56336 2.26226e-17
4146.02496 2.47640e-17
4147.49664 2.54108e-17
4148.96832 2.44901e-17
4150.44000 2.55765e-17
4151.91168 2.47609e-17
4153.38336 2.17999e-17
4154.85504 2.18789e-17
4156.31664 2.27642e-17
4157.78832 2.35050e-17
4159.26000 2.26000e-17
4160.73168 2.26146e-17
4162.20336 2.34473e-17
4163.66496 2.23623e-17
4165.13664 2.08963e-17
4166.60832 1.99611e-17
4168.08000 2.14688e-17
4169.55168 2.30213e-17
4171.02336 2.27602e-17
4172.49504 2.18529e-17
4173.95664 2.02056e-17
4175.42832 2.08883e-17
4176.90000 2.18032e-17
4178.37168 1.99038e-17
4179.84336 1.94702e-17
4181.30496 2.21522e-17
4182.77664 2.26551e-17
4184.24832 2.22995e-17
4185.72000 2.24639e-17
4187.19168 2.08577e-17
4188.66336 2.20965e-17
4190.13504 2.24744e-17
4191.59664 2.19837e-17
4193.06832 2.29377e-17
4194.54000 2.23516e-17
4196.01168 2.02145e-17
4197.48336 2.15467e-17
4198.94496 2.52712e-17
4200.41664 2.33547e-17
4201.88832 2.02489e-17
4203.36000 2.18226e-17
4204.83168 2.30911e-17
4206.30336 2.07353e-17
4207.77504 2.02751e-17
4209.23664 2.18595e-17
4210.70832 2.22606e-17
4212.18000 2.47610e-17
4213.65168 2.57113e-17
4215.12336 2.37357e-17
4216.58496 2.12760e-17
4218.05664 2.14760e-17
4219.52832 2.24243e-17
4221.00000 2.18753e-17
4222.47168 2.13361e-17
4223.94336 2.21349e-17
4225.41504 2.38649e-17
4226.87664 2.26112e-17
4228.34832 2.04409e-17
4229.82000 2.04335e-17
4231.29168 2.12340e-17
4232.76336 2.09043e-17
4234.22496 2.22979e-17
4235.69664 2.36212e-17
4237.16832 2.32058e-17
4238.64000 2.23397e-17
4240.11168 2.30055e-17
4241.58336 2.40322e-17
4243.04496 2.27682e-17
4244.51664 2.13008e-17
4245.98832 2.19353e-17
4247.46000 2.29707e-17
4248.93168 2.30586e-17
4250.40336 2.24770e-17
4251.86496 2.10301e-17
4253.33664 2.07059e-17
4254.80832 2.19335e-17
4256.28000 2.27472e-17
4257.75168 2.20964e-17
4259.22336 2.13155e-17
4260.69504 2.03718e-17
4262.15664 2.03542e-17
4263.62832 2.06932e-17
4265.10000 2.26423e-17
4266.57168 2.22003e-17
4268.04336 2.11818e-17
4269.50496 2.10927e-17
4270.97664 2.21868e-17
4272.44832 2.17223e-17
4273.92000 2.05569e-17
4275.39168 2.14351e-17
4276.86336 2.03539e-17
4278.33504 2.19506e-17
4279.79664 2.49873e-17
4281.26832 2.24784e-17
4282.74000 2.23169e-17
4284.21168 2.16282e-17
4285.68336 2.06764e-17
4287.14496 2.23799e-17
4288.61664 2.26915e-17
4290.08832 2.10063e-17
4291.56000 2.09991e-17
4293.03168 2.15062e-17
4294.50336 2.33749e-17
4295.97504 2.47198e-17
4297.43664 2.16672e-17
4298.90832 1.90001e-17
4300.38000 2.08324e-17
4301.85168 2.34668e-17
4303.32336 2.19778e-17
4304.78496 2.21576e-17
4306.25664 2.17332e-17
4307.72832 2.16619e-17
4309.20000 2.23879e-17
4310.67168 2.09428e-17
4312.14336 2.18841e-17
4313.61504 2.10407e-17
4315.07664 2.16187e-17
4316.54832 2.07096e-17
4318.02000 2.27493e-17
4319.49168 2.20485e-17
4320.96336 2.07046e-17
4322.42496 2.18871e-17
4323.89664 2.31454e-17
4325.36832 2.31463e-17
4326.84000 2.28882e-17
4328.31168 2.44130e-17
4329.78336 2.24792e-17
4331.25504 2.11625e-17
4332.71664 2.07134e-17
4334.18832 2.16896e-17
4335.66000 2.05036e-17
4337.13168 2.16411e-17
4338.60336 2.23077e-17
4340.06496 2.13049e-17
4341.53664 2.16059e-17
4343.00832 2.09410e-17
4344.48000 1.96928e-17
4345.95168 2.07292e-17
4347.42336 2.27701e-17
4348.89504 1.99006e-17
4350.35664 1.92725e-17
4351.82832 2.13498e-17
4353.30000 2.18539e-17
4354.77168 2.12331e-17
4356.24336 1.86628e-17
4357.70496 1.83717e-17
4359.17664 2.27179e-17
4360.64832 2.24599e-17
4362.12000 2.16481e-17
4363.59168 2.21306e-17
4365.06336 2.03502e-17
4366.52496 1.90115e-17
4367.99664 1.67139e-17
4369.46832 1.64406e-17
4370.94000 1.98560e-17
4372.41168 1.75082e-17
4373.88336 1.73870e-17
4375.34496 1.87210e-17
4376.81664 1.58791e-17
4378.28832 1.48669e-17
4379.76000 1.64516e-17
4381.23168 1.63384e-17
4382.70336 1.62253e-17
4384.17504 1.61123e-17
4385.63664 1.59993e-17
4387.10832 1.58863e-17
4388.58000 1.57733e-17
4390.05168 1.56604e-17
4391.52336 1.55475e-17
4392.98496 1.54346e-17
4394.45664 1.53218e-17
4395.92832 1.52089e-17
4397.40000 1.50961e-17
4398.87168 1.49834e-17
4400.34336 1.48706e-17
4401.81504 1.47579e-17
4403.27664 1.46453e-17
4404.74832 1.45326e-17
4406.22000 1.44199e-17
4407.69168 1.43074e-17
4409.16336 1.41947e-17
4410.62496 1.40822e-17
4412.09664 1.39697e-17
4413.56832 1.38572e-17
4415.04000 1.37448e-17
4416.51168 1.36324e-17
4417.98336 1.33052e-17
4419.45504 1.58074e-17
4420.91664 1.55599e-17
4422.38832 1.57879e-17
4423.86000 1.58730e-17
4425.33168 1.60634e-17
4426.80336 1.72731e-17
4428.26496 1.79960e-17
4429.73664 1.71360e-17
4431.20832 1.55486e-17
4432.68000 1.46771e-17
4434.15168 1.73082e-17
4435.62336 1.52477e-17
4437.09504 1.57563e-17
4438.55664 1.64305e-17
4440.02832 1.65090e-17
4441.50000 1.63030e-17
4442.97168 1.65189e-17
4444.44336 1.60201e-17
4445.90496 1.63202e-17
4447.37664 1.79227e-17
4448.84832 1.56720e-17
4450.32000 1.69022e-17
4451.79168 1.88581e-17
4453.26336 1.94007e-17
4454.73504 1.76317e-17
4456.19664 1.51841e-17
4457.66832 1.54052e-17
4459.14000 1.59286e-17
4460.61168 1.67246e-17
4462.08336 1.64019e-17
4463.54496 1.84806e-17
4465.01664 1.61960e-17
4466.48832 1.54848e-17
4467.96000 1.79796e-17
4469.43168 1.74053e-17
4470.90336 1.84544e-17
4472.37504 1.93928e-17
4473.83664 2.03094e-17
4475.30832 1.90557e-17
4476.78000 1.88392e-17
4478.25168 1.95838e-17
4479.72336 1.88884e-17
4481.18496 1.85699e-17
4482.65664 2.04337e-17
4484.12832 2.08581e-17
4485.60000 1.95668e-17
4487.07168 2.05719e-17
4488.54336 1.96840e-17
4490.00496 1.93763e-17
4491.47664 1.84463e-17
4492.94832 1.95140e-17
4494.42000 2.22155e-17
4495.89168 2.25834e-17
4497.36336 2.31276e-17
4498.82496 2.25025e-17
4500.29664 2.07792e-17
4501.76832 2.11301e-17
4503.24000 2.32635e-17
4504.71168 2.21746e-17
4506.18336 2.11347e-17
4507.65504 2.07977e-17
4509.11664 2.25416e-17
4510.58832 2.26039e-17
4512.06000 1.94433e-17
4513.53168 2.13296e-17
4515.00336 2.28914e-17
4516.46496 2.25320e-17
4517.93664 2.18865e-17
4519.40832 2.56132e-17
4520.88000 2.41638e-17
4522.35168 2.26323e-17
4523.82336 2.45168e-17
4525.29504 2.45327e-17
4526.75664 2.41104e-17
4528.22832 2.31934e-17
4529.70000 2.37296e-17
4531.17168 2.44235e-17
4532.64336 2.31091e-17
4534.10496 2.37631e-17
4535.57664 2.50142e-17
4537.04832 2.50234e-17
4538.52000 2.56597e-17
4539.99168 2.52569e-17
4541.46336 2.61732e-17
4542.93504 2.63592e-17
4544.39664 2.56154e-17
4545.86832 2.52573e-17
4547.34000 2.49441e-17
4548.81168 2.26213e-17
4550.28336 2.41909e-17
4551.74496 2.57003e-17
4553.21664 2.58063e-17
4554.68832 2.72380e-17
4556.16000 2.58724e-17
4557.63168 2.53297e-17
4559.10336 2.62424e-17
4560.56496 2.60056e-17
4562.03664 2.61969e-17
4563.50832 2.49330e-17
4564.98000 2.42478e-17
4566.45168 2.51141e-17
4567.92336 2.60883e-17
4569.38496 2.59607e-17
4570.85664 2.63660e-17
4572.32832 2.69535e-17
4573.80000 2.62852e-17
4575.27168 2.82339e-17
4576.74336 2.78030e-17
4578.21504 2.73324e-17
4579.67664 2.61863e-17
4581.14832 2.46715e-17
4582.62000 2.60923e-17
4584.09168 2.67095e-17
4585.56336 2.75024e-17
4587.02496 2.64725e-17
4588.49664 2.58244e-17
4589.96832 2.70042e-17
4591.44000 2.63444e-17
4592.91168 2.64255e-17
4594.38336 2.63917e-17
4595.85504 2.54162e-17
4597.31664 2.67006e-17
4598.78832 2.79626e-17
4600.26000 2.83068e-17
4601.73168 2.84976e-17
4603.20336 2.65995e-17
4604.66496 2.58781e-17
4606.13664 2.61596e-17
4607.60832 2.78243e-17
4609.08000 2.75622e-17
4610.55168 2.55263e-17
4612.02336 2.55646e-17
4613.49504 2.52417e-17
4614.95664 2.55277e-17
4616.42832 2.60676e-17
4617.90000 2.59693e-17
4619.37168 2.64727e-17
4620.84336 2.61148e-17
4622.30496 2.55797e-17
4623.77664 2.68471e-17
4625.24832 2.73652e-17
4626.72000 2.63022e-17
4628.19168 2.56342e-17
4629.66336 2.49415e-17
4631.13504 2.52455e-17
4632.59664 2.60216e-17
4634.06832 2.59939e-17
4635.54000 2.54394e-17
4637.01168 2.55373e-17
4638.48336 2.64115e-17
4639.94496 2.58010e-17
4641.41664 2.50957e-17
4642.88832 2.62785e-17
4644.36000 2.66065e-17
4645.83168 2.60205e-17
4647.30336 2.60409e-17
4648.77504 2.45472e-17
4650.23664 2.38133e-17
4651.70832 2.45392e-17
4653.18000 2.62026e-17
4654.65168 2.69083e-17
4656.12336 2.50244e-17
4657.58496 2.37251e-17
4659.05664 2.53245e-17
4660.52832 2.51413e-17
4662.00000 2.40588e-17
4663.47168 2.55965e-17
4664.94336 2.56096e-17
4666.41504 2.44407e-17
4667.87664 2.37680e-17
4669.34832 2.36947e-17
4670.82000 2.42322e-17
4672.29168 2.33744e-17
4673.76336 2.41397e-17
4675.22496 2.46609e-17
4676.69664 2.42229e-17
4678.16832 2.43841e-17
4679.64000 2.35874e-17
4681.11168 2.24274e-17
4682.58336 2.26330e-17
4684.04496 2.41809e-17
4685.51664 2.44013e-17
4686.98832 2.30933e-17
4688.46000 2.28450e-17
4689.93168 2.38536e-17
4691.40336 2.40429e-17
4692.86496 2.39423e-17
4694.33664 2.34254e-17
4695.80832 2.29086e-17
4697.28000 2.27002e-17
4698.75168 2.22607e-17
4700.22336 2.27235e-17
4701.69504 2.41460e-17
4703.15664 2.42761e-17
4704.62832 2.23408e-17
4706.10000 2.13185e-17
4707.57168 2.25774e-17
4709.04336 2.25376e-17
4710.50496 2.16913e-17
4711.97664 2.25455e-17
4713.44832 2.34578e-17
4714.92000 2.25215e-17
4716.39168 2.22002e-17
4717.86336 2.27237e-17
4719.33504 2.22520e-17
4720.79664 2.20627e-17
4722.26832 2.15759e-17
4723.74000 2.10054e-17
4725.21168 2.16544e-17
4726.68336 2.22025e-17
4728.14496 2.07256e-17
4729.61664 1.99601e-17
4731.08832 2.18848e-17
4732.56000 2.24190e-17
4734.03168 2.06473e-17
4735.50336 2.09857e-17
4736.97504 2.12255e-17
4738.43664 2.07980e-17
4739.90832 1.96514e-17
4741.38000 1.92253e-17
4742.85168 2.07592e-17
4744.32336 2.07713e-17
4745.78496 1.99010e-17
4747.25664 2.04234e-17
4748.72832 2.02592e-17
4750.20000 1.80652e-17
4751.67168 1.68692e-17
4753.14336 1.72393e-17
4754.61504 1.91889e-17
4756.07664 1.88367e-17
4757.54832 1.62134e-17
4759.02000 1.68447e-17
4760.49168 1.72379e-17
4761.96336 1.70262e-17
4763.42496 1.67341e-17
4764.89664 1.68920e-17
4766.36832 1.75918e-17
4767.84000 1.73270e-17
4769.31168 1.66359e-17
4770.78336 1.69134e-17
4772.25504 1.65281e-17
4773.71664 1.54716e-17
4775.18832 1.56929e-17
4776.66000 1.60480e-17
4778.13168 1.46568e-17
4779.60336 1.47962e-17
4781.06496 1.59254e-17
4782.53664 1.54452e-17
4784.00832 1.56191e-17
4785.48000 1.50721e-17
4786.95168 1.52014e-17
4788.42336 1.50513e-17
4789.89504 1.46987e-17
4791.35664 1.43939e-17
4792.82832 1.61057e-17
4794.30000 1.52615e-17
4795.77168 1.35127e-17
4797.24336 1.43272e-17
4798.70496 1.51788e-17
4800.17664 1.61800e-17
4801.64832 1.55158e-17
4803.12000 1.35397e-17
4804.59168 1.41000e-17
4806.06336 1.58498e-17
4807.52496 1.54223e-17
4808.99664 1.59248e-17
4810.46832 1.53698e-17
4811.94000 1.49080e-17
4813.41168 1.48666e-17
4814.88336 1.48985e-17
4816.34496 1.48992e-17
4817.81664 1.46761e-17
4819.28832 1.41856e-17
4820.76000 1.46294e-17
4822.23168 1.49589e-17
4823.70336 1.48163e-17
4825.17504 1.51150e-17
4826.63664 1.58686e-17
4828.10832 1.74624e-17
4829.58000 1.54816e-17
4831.05168 1.46082e-17
4832.52336 1.42756e-17
4833.98496 1.48757e-17
4835.45664 1.46061e-17
4836.92832 1.56179e-17
4838.40000 1.49702e-17
4839.87168 1.53537e-17
4841.34336 1.42782e-17
4842.81504 1.54450e-17
4844.27664 1.46837e-17
4845.74832 1.21941e-17
4847.22000 1.40805e-17
4848.69168 1.57188e-17
4850.16336 1.47613e-17
4851.62496 1.41955e-17
4853.09664 1.40872e-17
4854.56832 1.28204e-17
4856.04000 1.33936e-17
4857.51168 1.44723e-17
4858.98336 1.32023e-17
4860.45504 1.31974e-17
4861.91664 1.34587e-17
4863.38832 1.28675e-17
4864.86000 1.31196e-17
4866.33168 1.39683e-17
4867.80336 1.33252e-17
4869.26496 1.28480e-17
4870.73664 1.36398e-17
4872.20832 1.23624e-17
4873.68000 1.16246e-17
4875.15168 1.18168e-17
4876.62336 1.33889e-17
4878.09504 1.29556e-17
4879.55664 1.15311e-17
4881.02832 1.28114e-17
4882.50000 1.29141e-17
4883.97168 1.30167e-17
4885.44336 1.31192e-17
4886.90496 1.32218e-17
4888.37664 1.33242e-17
4889.84832 1.34267e-17
4891.32000 1.35291e-17
4892.79168 1.36316e-17
4894.26336 1.37340e-17
4895.73504 1.38363e-17
4897.19664 1.39387e-17
4898.66832 1.40409e-17
4900.14000 1.41432e-17
4901.61168 1.42454e-17
4903.08336 1.43476e-17
4904.54496 1.44498e-17
4906.01664 1.45520e-17
4907.48832 1.46541e-17
4908.96000 1.47561e-17
4910.43168 1.48582e-17
4911.90336 1.49602e-17
4913.37504 1.50622e-17
4914.83664 1.51641e-17
4916.30832 1.52661e-17
4917.78000 1.53679e-17
4919.25168 1.54699e-17
4920.72336 1.76042e-17
4922.18496 1.67714e-17
4923.65664 1.58661e-17
4925.12832 1.57840e-17
4926.60000 1.58869e-17
4928.07168 1.60208e-17
4929.54336 1.58549e-17
4931.00496 1.61035e-17
4932.47664 1.73021e-17
4933.94832 1.62857e-17
4935.42000 1.70200e-17
4936.89168 1.91672e-17
4938.36336 1.84116e-17
4939.82496 1.81438e-17
4941.29664 1.75173e-17
4942.76832 1.71283e-17
4944.24000 1.77412e-17
4945.71168 1.85486e-17
4947.18336 1.80072e-17
4948.65504 1.84445e-17
4950.11664 1.67336e-17
4951.58832 1.76130e-17
4953.06000 1.96738e-17
4954.53168 1.86373e-17
4956.00336 1.75372e-17
4957.46496 1.69725e-17
4958.93664 1.91506e-17
4960.40832 1.82974e-17
4961.88000 1.82949e-17
4963.35168 1.78136e-17
4964.82336 1.68385e-17
4966.29504 1.77552e-17
4967.75664 1.77358e-17
4969.22832 1.77803e-17
4970.70000 1.79838e-17
4972.17168 1.79301e-17
4973.64336 1.87379e-17
4975.10496 1.85118e-17
4976.57664 1.86928e-17
4978.04832 1.88204e-17
4979.52000 1.97069e-17
4980.99168 1.94490e-17
4982.46336 1.91913e-17
4983.93504 1.89336e-17
4985.39664 1.86760e-17
4986.86832 1.84184e-17
4988.34000 1.81609e-17
4989.81168 1.79035e-17
4991.28336 1.76462e-17
4992.74496 1.73889e-17
4994.21664 1.71317e-17
4995.68832 1.68747e-17
4997.16000 1.66176e-17
4998.63168 1.63607e-17
5000.10336 1.61038e-17
5001.56496 1.58471e-17
5003.03664 1.55903e-17
5004.50832 1.53337e-17
5005.98000 1.50771e-17
5007.45168 1.48205e-17
5008.92336 1.45642e-17
5010.38496 1.43078e-17
5011.85664 1.40516e-17
5013.32832 1.37954e-17
5014.80000 1.35393e-17
5016.27168 1.32831e-17
5017.74336 1.30271e-17
5019.21504 1.38884e-17
5020.67664 1.45879e-17
5022.14832 1.41325e-17
5023.62000 1.36365e-17
5025.09168 1.42744e-17
5026.56336 1.43287e-17
5028.02496 1.35709e-17
5029.49664 1.36407e-17
5030.96832 1.37105e-17
5032.44000 1.37803e-17
5033.91168 1.38501e-17
5035.38336 1.39198e-17
5036.85504 1.39896e-17
5038.31664 1.40592e-17
5039.78832 1.41289e-17
5041.26000 1.41986e-17
5042.73168 1.42683e-17
5044.20336 1.43379e-17
5045.66496 1.44075e-17
5047.13664 1.44771e-17
5048.60832 1.45467e-17
5050.08000 1.46162e-17
5051.55168 1.46857e-17
5053.02336 1.47553e-17
5054.49504 1.48248e-17
5055.95664 1.48942e-17
5057.42832 1.49637e-17
5058.90000 1.50331e-17
5060.37168 1.51026e-17
5061.84336 1.51719e-17
5063.30496 1.52413e-17
5064.77664 1.53107e-17
5066.24832 1.53800e-17
5067.72000 1.52229e-17
5069.19168 1.58837e-17
5070.66336 1.62076e-17
5072.13504 1.63005e-17
5073.59664 1.66986e-17
5075.06832 1.61352e-17
5076.54000 1.73604e-17
5078.01168 1.77059e-17
5079.48336 1.64110e-17
5080.94496 1.72069e-17
5082.41664 1.74208e-17
5083.88832 1.87071e-17
5085.36000 1.80171e-17
5086.83168 1.78504e-17
5088.30336 1.71923e-17
5089.77504 1.65530e-17
5091.23664 1.66697e-17
5092.70832 1.75955e-17
5094.18000 1.75019e-17
5095.65168 1.66083e-17
5097.12336 1.71860e-17
5098.58496 1.64872e-17
5100.05664 1.59726e-17
5101.52832 1.67634e-17
5103.00000 1.57215e-17
5104.47168 1.66134e-17
5105.94336 1.81979e-17
5107.41504 1.75538e-17
5108.87664 1.70640e-17
5110.34832 1.67571e-17
5111.82000 1.73924e-17
5113.29168 1.71843e-17
5114.76336 1.65399e-17
5116.22496 1.74065e-17
5117.69664 1.77334e-17
5119.16832 1.75029e-17
5120.64000 1.77393e-17
5122.11168 1.72211e-17
5123.58336 1.68018e-17
5125.04496 1.58480e-17
5126.51664 1.58006e-17
5127.98832 1.71139e-17
5129.46000 1.72309e-17
5130.93168 1.73686e-17
5132.40336 1.84600e-17
5133.86496 1.82436e-17
5135.33664 1.73021e-17
5136.80832 1.69085e-17
5138.28000 1.71089e-17
5139.75168 1.65170e-17
5141.22336 1.64875e-17
5142.69504 1.71532e-17
5144.15664 1.68518e-17
5145.62832 1.61169e-17
5147.10000 1.53668e-17
5148.57168 1.63763e-17
5150.04336 1.73934e-17
5151.50496 1.73008e-17
5152.97664 1.72965e-17
5154.44832 1.69615e-17
5155.92000 1.68614e-17
5157.39168 1.70751e-17
5158.86336 1.64504e-17
5160.33504 1.59389e-17
5161.79664 1.61602e-17
5163.26832 1.70134e-17
5164.74000 1.71245e-17
5166.21168 1.68754e-17
5167.68336 1.67821e-17
5169.14496 1.69358e-17
5170.61664 1.71597e-17
5172.08832 1.70888e-17
5173.56000 1.70575e-17
5175.03168 1.74803e-17
5176.50336 1.70785e-17
5177.97504 1.62658e-17
5179.43664 1.62099e-17
5180.90832 1.65032e-17
5182.38000 1.75135e-17
5183.85168 1.77222e-17
5185.32336 1.71867e-17
5186.78496 1.69863e-17
5188.25664 1.77258e-17
5189.72832 1.83960e-17
5191.20000 1.76859e-17
5192.67168 1.69135e-17
5194.14336 1.73081e-17
5195.61504 1.81472e-17
5197.07664 1.80652e-17
5198.54832 1.78540e-17
5200.02000 1.80715e-17
5201.49168 1.80724e-17
5202.96336 1.80426e-17
5204.42496 1.74421e-17
5205.89664 1.74849e-17
5207.36832 1.83999e-17
5208.84000 1.84855e-17
5210.31168 1.84853e-17
5211.78336 1.85005e-17
5213.25504 1.84957e-17
5214.71664 1.82492e-17
5216.18832 1.84144e-17
5217.66000 1.95197e-17
5219.13168 2.00944e-17
5220.60336 1.86165e-17
5222.06496 1.75466e-17
5223.53664 1.87288e-17
5225.00832 1.96617e-17
5226.48000 1.94045e-17
5227.95168 1.93774e-17
5229.42336 1.92774e-17
5230.89504 1.96088e-17
5232.35664 2.03564e-17
5233.82832 2.02391e-17
5235.30000 1.96106e-17
5236.77168 2.04650e-17
5238.24336 2.02856e-17
5239.70496 2.00688e-17
5241.17664 1.97296e-17
5242.64832 1.99077e-17
5244.12000 2.00131e-17
5245.59168 1.96882e-17
5247.06336 1.98026e-17
5248.52496 1.99009e-17
5249.99664 1.86392e-17
5251.46832 1.83498e-17
5252.94000 2.03091e-17
5254.41168 2.03310e-17
5255.88336 2.01314e-17
5257.34496 2.01243e-17
5258.81664 1.85980e-17
5260.28832 1.92026e-17
5261.76000 2.02217e-17
5263.23168 2.01775e-17
5264.70336 2.01481e-17
5266.17504 1.96674e-17
5267.63664 1.95757e-17
5269.10832 2.01192e-17
5270.58000 2.02210e-17
5272.05168 2.09330e-17
5273.52336 2.09373e-17
5274.98496 2.12335e-17
5276.45664 2.07501e-17
5277.92832 2.01615e-17
5279.40000 2.01197e-17
5280.87168 2.00987e-17
5282.34336 2.04465e-17
5283.81504 2.08075e-17
5285.27664 2.06501e-17
5286.74832 1.95017e-17
5288.22000 1.89002e-17
5289.69168 1.93783e-17
5291.16336 1.94450e-17
5292.62496 1.91566e-17
5294.09664 1.99346e-17
5295.56832 2.04406e-17
5297.04000 2.12872e-17
5298.51168 2.10227e-17
5299.98336 2.05001e-17
5301.45504 2.07230e-17
5302.91664 2.00054e-17
5304.38832 2.02899e-17
5305.86000 2.09683e-17
5307.33168 2.08411e-17
5308.80336 2.05795e-17
5310.26496 1.90847e-17
5311.73664 1.92504e-17
5313.20832 1.95143e-17
5314.68000 1.94126e-17
5316.15168 1.92691e-17
5317.62336 1.85763e-17
5319.09504 1.91004e-17
5320.55664 1.87874e-17
5322.02832 1.82051e-17
5323.50000 1.93335e-17
5324.97168 1.99215e-17
5326.44336 1.91151e-17
5327.90496 1.85911e-17
5329.37664 1.97895e-17
5330.84832 1.99341e-17
5332.32000 1.94437e-17
5333.79168 1.93879e-17
5335.26336 1.94746e-17
5336.73504 1.93362e-17
5338.19664 1.91201e-17
5339.66832 1.90920e-17
5341.14000 1.88320e-17
5342.61168 1.86678e-17
5344.08336 1.86200e-17
5345.54496 1.94504e-17
5347.01664 1.93082e-17
5348.48832 1.88670e-17
5349.96000 1.90227e-17
5351.43168 1.93959e-17
5352.90336 1.99751e-17
5354.37504 1.95898e-17
5355.83664 1.96749e-17
5357.30832 1.87922e-17
5358.78000 1.86047e-17
5360.25168 1.87956e-17
5361.72336 1.87809e-17
5363.18496 1.84352e-17
5364.65664 1.84442e-17
5366.12832 1.79192e-17
5367.60000 1.78393e-17
5369.07168 1.79317e-17
5370.54336 1.74177e-17
5372.00496 1.84258e-17
5373.47664 1.85654e-17
5374.94832 1.90671e-17
5376.42000 1.99034e-17
5377.89168 1.85645e-17
5379.36336 1.72721e-17
5380.82496 1.79907e-17
5382.29664 1.84017e-17
5383.76832 1.83286e-17
5385.24000 1.83551e-17
5386.71168 1.79449e-17
5388.18336 1.76802e-17
5389.65504 1.90107e-17
5391.11664 1.81616e-17
5392.58832 1.76701e-17
5394.06000 1.85923e-17
5395.53168 1.80817e-17
5397.00336 1.88561e-17
5398.46496 1.94616e-17
5399.93664 1.96993e-17
5401.40832 2.03513e-17
5402.88000 1.93846e-17
5404.35168 1.84567e-17
5405.82336 1.77592e-17
5407.29504 1.73152e-17
5408.75664 1.60146e-17
5410.22832 1.75666e-17
5411.70000 1.87494e-17
5413.17168 1.88595e-17
5414.64336 1.86289e-17
5416.10496 1.83276e-17
5417.57664 1.91063e-17
5419.04832 1.96604e-17
5420.52000 1.86604e-17
5421.99168 1.81568e-17
5423.46336 1.75999e-17
5424.93504 1.68357e-17
5426.39664 1.83139e-17
5427.86832 1.76021e-17
5429.34000 1.77191e-17
5430.81168 1.70924e-17
5432.28336 1.71485e-17
5433.74496 1.83454e-17
5435.21664 1.74724e-17
5436.68832 1.76536e-17
5438.16000 1.89643e-17
5439.63168 1.70321e-17
5441.10336 1.66492e-17
5442.56496 1.76222e-17
5444.03664 1.76308e-17
5445.50832 1.66875e-17
5446.98000 1.70003e-17
5448.45168 1.67963e-17
5449.92336 1.76908e-17
5451.38496 1.74119e-17
5452.85664 1.83114e-17
5454.32832 1.76052e-17
5455.80000 1.58564e-17
5457.27168 1.68216e-17
5458.74336 1.56999e-17
5460.21504 1.61743e-17
5461.67664 1.88444e-17
5463.14832 1.68316e-17
5464.62000 5.02647e-17
5466.09168 1.08586e-16
5467.56336 6.35424e-17
5469.02496 9.33863e-18
5470.49664 1.73544e-17
5471.96832 1.72067e-17
5473.44000 1.75593e-17
5474.91168 1.68834e-17
5476.38336 1.73790e-17
5477.85504 1.68612e-17
5479.31664 1.60313e-17
5480.78832 1.68469e-17
5482.26000 1.70273e-17
5483.73168 1.64269e-17
5485.20336 1.64758e-17
5486.66496 1.71209e-17
5488.13664 1.62432e-17
5489.60832 1.62264e-17
5491.08000 1.68648e-17
5492.55168 1.67987e-17
5494.02336 1.61442e-17
5495.49504 1.67442e-17
5496.95664 1.74467e-17
5498.42832 1.66840e-17
5499.90000 1.66244e-17
5501.37168 1.52677e-17
5502.84336 1.59803e-17
5504.30496 1.61196e-17
5505.77664 1.59043e-17
5507.24832 1.60199e-17
5508.72000 1.60953e-17
5510.19168 1.63224e-17
5511.66336 1.60486e-17
5513.13504 1.55650e-17
5514.59664 1.61099e-17
5516.06832 1.64637e-17
5517.54000 1.66500e-17
5519.01168 1.60933e-17
5520.48336 1.59061e-17
5521.94496 1.51499e-17
5523.41664 1.54510e-17
5524.88832 1.66653e-17
5526.36000 1.69211e-17
5527.83168 1.51920e-17
5529.30336 1.56045e-17
5530.77504 1.54450e-17
5532.23664 1.51062e-17
5533.70832 1.61939e-17
5535.18000 1.68164e-17
5536.65168 1.54940e-17
5538.12336 1.50924e-17
5539.58496 1.49123e-17
5541.05664 1.52920e-17
5542.52832 1.61685e-17
5544.00000 1.58895e-17
5545.47168 1.48161e-17
5546.94336 1.54818e-17
5548.41504 1.56580e-17
5549.87664 1.46394e-17
5551.34832 1.51351e-17
5552.82000 1.55760e-17
5554.29168 1.62021e-17
5555.76336 1.54247e-17
5557.22496 1.59976e-17
5558.69664 1.58015e-17
5560.16832 1.47071e-17
5561.64000 1.45865e-17
5563.11168 1.50663e-17
5564.58336 1.59724e-17
5566.04496 1.58080e-17
5567.51664 1.56420e-17
5568.98832 1.47119e-17
5570.46000 1.49173e-17
5571.93168 1.40294e-17
5573.40336 1.55756e-17
5574.86496 1.75512e-17
5576.33664 1.61908e-17
5577.80832 1.53333e-17
5579.28000 1.31780e-17
5580.75168 1.24588e-17
5582.22336 1.45702e-17
5583.69504 1.55112e-17
5585.15664 1.56235e-17
5586.62832 1.58968e-17
5588.10000 1.46961e-17
5589.57168 1.39397e-17
5591.04336 1.44662e-17
5592.50496 1.44316e-17
5593.97664 1.40163e-17
5595.44832 1.31349e-17
5596.92000 1.33732e-17
5598.39168 1.42707e-17
5599.86336 1.45158e-17
5601.33504 1.47014e-17
5602.79664 1.40518e-17
5604.26832 1.34258e-17
5605.74000 1.29343e-17
5607.21168 1.33115e-17
5608.68336 1.41692e-17
5610.14496 1.33838e-17
5611.61664 1.28952e-17
5613.08832 1.36054e-17
5614.56000 1.34478e-17
5616.03168 1.23979e-17
5617.50336 1.30930e-17
5618.97504 1.38303e-17
5620.43664 1.33440e-17
5621.90832 1.25017e-17
5623.38000 1.24577e-17
5624.85168 1.33306e-17
5626.32336 1.31337e-17
5627.78496 1.26434e-17
5629.25664 1.29378e-17
5630.72832 1.21552e-17
5632.20000 1.23111e-17
5633.67168 1.19271e-17
5635.14336 1.20560e-17
5636.61504 1.28778e-17
5638.07664 1.23996e-17
5639.54832 1.15992e-17
5641.02000 1.14678e-17
5642.49168 1.17554e-17
5643.96336 1.19775e-17
5645.42496 1.16663e-17
5646.89664 1.05750e-17
5648.36832 9.94807e-18
5649.84000 1.02790e-17
5651.31168 1.11802e-17
5652.78336 1.13599e-17
5654.25504 1.15144e-17
5655.71664 1.09237e-17
5657.18832 1.12680e-17
5658.66000 1.15845e-17
5660.13168 1.13964e-17
5661.60336 1.09984e-17
5663.06496 1.10989e-17
5664.53664 1.07314e-17
5666.00832 1.13355e-17
5667.48000 1.10276e-17
5668.95168 1.03405e-17
5670.42336 1.06438e-17
5671.89504 1.05290e-17
5673.35664 1.04435e-17
5674.82832 1.03038e-17
5676.30000 1.04096e-17
5677.77168 1.09376e-17
5679.24336 1.04758e-17
5680.70496 1.00754e-17
5682.17664 1.11054e-17
5683.64832 1.10866e-17
5685.12000 9.75211e-18
5686.59168 9.44576e-18
5688.06336 1.02090e-17
5689.52496 9.79311e-18
5690.99664 1.00622e-17
5692.46832 1.12388e-17
5693.94000 1.08575e-17
5695.41168 1.05603e-17
5696.88336 1.06431e-17
5698.34496 1.09699e-17
5699.81664 1.08008e-17
5701.28832 1.03418e-17
5702.76000 1.09647e-17
5704.23168 1.09820e-17
5705.70336 1.00630e-17
5707.17504 1.05352e-17
5708.63664 1.11475e-17
5710.10832 9.74646e-18
5711.58000 9.31746e-18
5713.05168 1.04832e-17
5714.52336 1.05205e-17
5715.98496 1.05278e-17
5717.45664 1.06156e-17
5718.92832 1.05182e-17
5720.40000 1.09874e-17
5721.87168 1.05822e-17
5723.34336 1.04236e-17
5724.81504 1.12395e-17
5726.27664 1.11963e-17
5727.74832 1.12232e-17
5729.22000 1.11296e-17
5730.69168 1.06035e-17
5732.16336 1.07633e-17
5733.62496 1.06070e-17
5735.09664 9.98641e-18
5736.56832 1.04242e-17
5738.04000 1.08871e-17
5739.51168 1.02608e-17
5740.98336 1.03834e-17
5742.45504 1.02013e-17
5743.91664 1.01340e-17
5745.38832 1.09458e-17
5746.86000 1.09700e-17
5748.33168 1.11102e-17
5749.80336 1.03603e-17
5751.26496 1.03748e-17
5752.73664 1.04053e-17
5754.20832 1.05921e-17
5755.68000 1.09429e-17
5757.15168 1.12029e-17
5758.62336 1.17872e-17
5760.08496 1.24197e-17
5761.55664 1.21306e-17
5763.02832 1.09917e-17
5764.50000 1.07080e-17
5765.97168 1.08639e-17
5767.44336 1.23080e-17
5768.90496 1.19797e-17
5770.37664 1.21024e-17
5771.84832 1.23047e-17
5773.32000 1.21163e-17
5774.79168 1.21882e-17
5776.26336 1.28239e-17
5777.73504 1.28533e-17
5779.19664 1.14675e-17
5780.66832 1.14046e-17
5782.14000 1.25488e-17
5783.61168 1.21592e-17
5785.08336 1.27133e-17
5786.54496 1.25594e-17
5788.01664 1.20518e-17
5789.48832 1.18791e-17
5790.96000 1.24147e-17
5792.43168 1.23864e-17
5793.90336 1.18393e-17
5795.37504 1.12511e-17
5796.83664 1.20663e-17
5798.30832 1.23863e-17
5799.78000 1.22841e-17
5801.25168 1.27587e-17
5802.72336 1.30791e-17
5804.18496 1.24371e-17
5805.65664 1.18317e-17
5807.12832 1.15163e-17
5808.60000 1.24764e-17
5810.07168 1.28766e-17
5811.54336 1.23825e-17
5813.00496 1.31654e-17
5814.47664 1.24956e-17
5815.94832 1.06025e-17
5817.42000 1.14362e-17
5818.89168 1.31730e-17
5820.36336 1.34343e-17
5821.82496 1.31515e-17
5823.29664 1.28822e-17
5824.76832 1.31254e-17
5826.24000 1.35590e-17
5827.71168 1.33065e-17
5829.18336 1.30488e-17
5830.65504 1.29001e-17
5832.11664 1.29917e-17
5833.58832 1.39096e-17
5835.06000 1.40551e-17
5836.53168 1.34256e-17
5838.00336 1.38095e-17
5839.46496 1.44389e-17
5840.93664 1.40147e-17
5842.40832 1.31012e-17
5843.88000 1.25469e-17
5845.35168 1.39637e-17
5846.82336 1.37458e-17
5848.29504 1.34868e-17
5849.75664 1.34238e-17
5851.22832 1.29350e-17
5852.70000 1.27941e-17
5854.17168 1.29013e-17
5855.64336 1.39365e-17
5857.10496 1.44979e-17
5858.57664 1.36802e-17
5860.04832 1.31756e-17
5861.52000 1.31819e-17
5862.99168 1.47151e-17
5864.46336 1.48430e-17
5865.93504 1.42909e-17
5867.39664 1.30360e-17
5868.86832 1.30158e-17
5870.34000 1.27634e-17
5871.81168 1.35838e-17
5873.28336 1.40194e-17
5874.74496 1.34486e-17
5876.21664 1.35768e-17
5877.68832 1.31431e-17
5879.16000 1.42876e-17
5880.63168 1.35297e-17
5882.10336 1.26108e-17
5883.56496 1.32081e-17
5885.03664 1.30471e-17
5886.50832 1.20672e-17
5887.98000 1.22272e-17
5889.45168 1.05617e-17
5890.92336 1.30648e-17
5892.38496 1.52672e-17
5893.85664 1.48912e-17
5895.32832 1.38512e-17
5896.80000 1.38976e-17
5898.27168 1.48227e-17
5899.74336 1.33887e-17
5901.21504 1.24885e-17
5902.67664 1.21751e-17
5904.14832 1.22292e-17
5905.62000 1.31746e-17
5907.09168 1.38098e-17
5908.56336 1.38035e-17
5910.02496 1.37213e-17
5911.49664 1.42714e-17
5912.96832 1.27842e-17
5914.44000 1.28271e-17
5915.91168 1.38248e-17
5917.38336 1.40198e-17
5918.85504 1.32451e-17
5920.31664 1.29266e-17
5921.78832 1.41917e-17
5923.26000 1.42563e-17
5924.73168 1.45013e-17
5926.20336 1.42485e-17
5927.66496 1.34584e-17
5929.13664 1.36644e-17
5930.60832 1.36368e-17
5932.08000 1.25227e-17
5933.55168 1.24428e-17
5935.02336 1.40324e-17
5936.49504 1.47884e-17
5937.95664 1.43313e-17
5939.42832 1.41206e-17
5940.90000 1.36186e-17
5942.37168 1.31179e-17
5943.84336 1.37372e-17
5945.30496 1.45269e-17
5946.77664 1.49348e-17
5948.24832 1.40075e-17
5949.72000 1.38626e-17
5951.19168 1.35191e-17
5952.66336 1.26743e-17
5954.13504 1.30778e-17
5955.59664 1.35715e-17
5957.06832 1.36814e-17
5958.54000 1.28081e-17
5960.01168 1.39267e-17
5961.48336 1.44268e-17
5962.94496 1.44578e-17
5964.41664 1.35745e-17
5965.88832 1.33978e-17
5967.36000 1.39458e-17
5968.83168 1.29381e-17
5970.30336 1.38079e-17
5971.77504 1.40723e-17
5973.23664 1.35973e-17
5974.70832 1.38693e-17
5976.18000 1.41232e-17
5977.65168 1.33324e-17
5979.12336 1.27218e-17
5980.58496 1.28751e-17
5982.05664 1.26386e-17
5983.52832 1.35800e-17
5985.00000 1.28776e-17
5986.47168 1.36322e-17
5987.94336 1.36643e-17
5989.41504 1.32504e-17
5990.87664 1.21459e-17
5992.34832 1.25327e-17
5993.82000 1.33026e-17
5995.29168 1.28457e-17
5996.76336 1.27376e-17
5998.22496 1.24527e-17
5999.69664 1.14727e-17
6001.16832 1.23633e-17
6002.64000 1.27544e-17
6004.11168 1.30962e-17
6005.58336 1.26644e-17
6007.04496 1.31442e-17
6008.51664 1.40327e-17
6009.98832 1.29919e-17
6011.46000 1.28446e-17
6012.93168 1.27385e-17
6014.40336 1.25465e-17
6015.86496 1.32798e-17
6017.33664 1.25031e-17
6018.80832 1.21362e-17
6020.28000 1.22858e-17
6021.75168 1.20532e-17
6023.22336 1.22589e-17
6024.69504 1.34488e-17
6026.15664 1.26765e-17
6027.62832 1.22983e-17
6029.10000 1.26998e-17
6030.57168 1.24336e-17
6032.04336 1.50030e-17
6033.50496 1.40361e-17
6034.97664 1.24802e-17
6036.44832 1.27205e-17
6037.92000 1.19225e-17
6039.39168 1.19015e-17
6040.86336 1.25641e-17
6042.33504 1.26869e-17
6043.79664 1.28812e-17
6045.26832 1.24867e-17
6046.74000 1.22891e-17
6048.21168 1.26361e-17
6049.68336 1.21564e-17
6051.14496 1.14599e-17
6052.61664 1.17921e-17
6054.08832 1.25838e-17
6055.56000 1.24838e-17
6057.03168 1.18986e-17
6058.50336 1.22002e-17
6059.97504 1.24635e-17
6061.43664 1.14224e-17
6062.90832 1.18626e-17
6064.38000 1.23101e-17
6065.85168 1.24891e-17
6067.32336 1.27747e-17
6068.78496 1.20155e-17
6070.25664 1.20285e-17
6071.72832 1.28550e-17
6073.20000 1.26863e-17
6074.67168 1.21943e-17
6076.14336 1.26107e-17
6077.61504 1.30361e-17
6079.07664 1.22435e-17
6080.54832 1.21523e-17
6082.02000 1.27220e-17
6083.49168 1.21797e-17
6084.96336 1.22017e-17
6086.42496 1.24258e-17
6087.89664 1.25331e-17
6089.36832 1.21321e-17
6090.84000 1.21463e-17
6092.31168 1.18437e-17
6093.78336 1.11006e-17
6095.25504 1.13637e-17
6096.71664 1.17654e-17
6098.18832 1.18619e-17
6099.66000 1.11788e-17
6101.13168 1.04028e-17
6102.60336 1.07758e-17
6104.06496 1.13217e-17
6105.53664 1.20721e-17
6107.00832 1.26701e-17
6108.48000 1.17005e-17
6109.95168 1.13930e-17
6111.42336 1.14154e-17
6112.89504 1.18575e-17
6114.35664 1.14895e-17
6115.82832 1.17684e-17
6117.30000 1.27937e-17
6118.77168 1.24804e-17
6120.24336 1.18415e-17
6121.70496 1.14090e-17
6123.17664 1.19147e-17
6124.64832 1.25756e-17
6126.12000 1.24352e-17
6127.59168 1.21919e-17
6129.06336 1.30641e-17
6130.52496 1.30781e-17
6131.99664 1.26250e-17
6133.46832 1.20721e-17
6134.94000 1.24240e-17
6136.41168 1.23179e-17
6137.88336 1.21427e-17
6139.34496 1.19430e-17
6140.81664 1.17553e-17
6142.28832 1.24063e-17
6143.76000 1.26874e-17
6145.23168 1.25804e-17
6146.70336 1.24129e-17
6148.17504 1.15239e-17
6149.63664 1.15526e-17
6151.10832 1.19708e-17
6152.58000 1.24482e-17
6154.05168 1.25927e-17
6155.52336 1.24053e-17
6156.98496 1.22799e-17
6158.45664 1.14926e-17
6159.92832 1.16466e-17
6161.40000 1.24412e-17
6162.87168 1.23974e-17
6164.34336 1.15725e-17
6165.81504 1.12503e-17
6167.27664 1.08271e-17
6168.74832 1.04520e-17
6170.22000 1.12519e-17
6171.69168 1.17785e-17
6173.16336 1.15167e-17
6174.62496 1.10860e-17
6176.09664 1.06217e-17
6177.56832 1.02854e-17
6179.04000 1.06103e-17
6180.51168 1.03029e-17
6181.98336 9.78216e-18
6183.45504 9.79502e-18
6184.91664 9.96534e-18
6186.38832 1.00371e-17
6187.86000 9.81892e-18
6189.33168 9.98660e-18
6190.80336 9.49210e-18
6192.26496 8.64305e-18
6193.73664 8.60144e-18
6195.20832 9.62317e-18
6196.68000 1.06824e-17
6198.15168 1.08518e-17
6199.62336 1.01820e-17
6201.08496 9.08859e-18
6202.55664 9.08147e-18
6204.02832 9.32603e-18
6205.50000 9.19997e-18
6206.97168 9.55172e-18
6208.44336 9.31769e-18
6209.90496 9.25141e-18
6211.37664 9.39905e-18
6212.84832 8.64269e-18
6214.32000 8.48052e-18
6215.79168 9.45634e-18
6217.26336 9.18359e-18
6218.73504 8.85661e-18
6220.19664 9.45211e-18
6221.66832 9.71589e-18
6223.14000 9.95137e-18
6224.61168 9.10612e-18
6226.08336 9.13267e-18
6227.54496 9.50003e-18
6229.01664 9.00397e-18
6230.48832 8.74137e-18
6231.96000 8.79708e-18
6233.43168 9.30698e-18
6234.90336 9.12697e-18
6236.37504 9.62448e-18
6237.83664 1.02526e-17
6239.30832 1.02154e-17
6240.78000 9.92903e-18
6242.25168 9.18991e-18
6243.72336 9.25173e-18
6245.18496 9.50320e-18
6246.65664 9.78343e-18
6248.12832 9.41886e-18
6249.60000 9.60918e-18
6251.07168 1.01769e-17
6252.54336 1.04389e-17
6254.00496 1.02150e-17
6255.47664 1.08011e-17
6256.94832 1.08470e-17
6258.42000 9.41319e-18
6259.89168 8.98110e-18
6261.36336 9.29326e-18
6262.82496 9.73552e-18
6264.29664 9.99821e-18
6265.76832 9.53116e-18
6267.24000 9.31167e-18
6268.71168 9.53918e-18
6270.18336 9.51163e-18
6271.65504 9.01385e-18
6273.11664 9.00549e-18
6274.58832 9.55859e-18
6276.06000 9.80539e-18
6277.53168 1.00269e-17
6279.00336 1.00620e-17
6280.46496 9.69495e-18
6281.93664 9.86155e-18
6283.40832 1.01444e-17
6284.88000 9.63299e-18
6286.35168 9.67421e-18
6287.82336 1.01103e-17
6289.29504 9.93281e-18
6290.75664 9.72291e-18
6292.22832 9.76185e-18
6293.70000 9.94697e-18
6295.17168 1.03997e-17
6296.64336 1.10830e-17
6298.10496 1.08464e-17
6299.57664 1.04733e-17
6301.04832 1.07393e-17
6302.52000 1.05597e-17
6303.99168 1.11044e-17
6305.46336 1.09112e-17
6306.93504 9.82543e-18
6308.39664 9.98963e-18
6309.86832 9.93339e-18
6311.34000 1.03271e-17
6312.81168 1.09783e-17
6314.28336 1.03423e-17
6315.74496 1.07461e-17
6317.21664 1.07277e-17
6318.68832 1.07069e-17
6320.16000 1.07355e-17
6321.63168 1.02920e-17
6323.10336 1.06217e-17
6324.56496 1.09646e-17
6326.03664 1.06599e-17
6327.50832 1.10149e-17
6328.98000 1.08262e-17
6330.45168 1.07988e-17
6331.92336 1.08555e-17
6333.38496 1.02693e-17
6334.85664 1.09760e-17
6336.32832 1.17140e-17
6337.80000 1.17558e-17
6339.27168 1.15413e-17
6340.74336 1.13443e-17
6342.21504 1.17143e-17
6343.67664 1.17083e-17
6345.14832 1.16140e-17
6346.62000 1.12217e-17
6348.09168 1.15659e-17
6349.56336 1.14173e-17
6351.02496 1.10239e-17
6352.49664 1.12948e-17
6353.96832 1.14281e-17
6355.44000 1.14602e-17
6356.91168 1.10717e-17
6358.38336 1.10374e-17
6359.85504 1.18193e-17
6361.31664 1.23135e-17
6362.78832 1.16914e-17
6364.26000 1.14082e-17
6365.73168 1.20210e-17
6367.20336 1.25646e-17
6368.66496 1.15074e-17
6370.13664 1.10969e-17
6371.60832 1.16348e-17
6373.08000 1.15064e-17
6374.55168 1.23446e-17
6376.02336 1.22637e-17
6377.49504 1.12431e-17
6378.95664 1.15530e-17
6380.42832 1.19292e-17
6381.90000 1.14092e-17
6383.37168 1.14157e-17
6384.84336 1.09790e-17
6386.30496 1.04490e-17
6387.77664 1.09106e-17
6389.24832 1.15466e-17
6390.72000 1.15235e-17
6392.19168 1.10905e-17
6393.66336 1.07735e-17
6395.13504 1.08488e-17
6396.59664 1.12616e-17
6398.06832 1.11254e-17
6399.54000 1.07639e-17
6401.01168 1.10975e-17
6402.48336 1.11506e-17
6403.94496 1.10581e-17
6405.41664 1.06070e-17
6406.88832 9.47500e-18
6408.36000 1.07937e-17
6409.83168 1.15703e-17
6411.30336 1.21934e-17
6412.77504 1.11285e-17
6414.23664 1.02417e-17
6415.70832 1.01681e-17
6417.18000 1.01141e-17
6418.65168 9.95646e-18
6420.12336 1.11831e-17
6421.58496 1.12187e-17
6423.05664 1.01350e-17
6424.52832 1.07631e-17
6426.00000 1.13291e-17
6427.47168 1.07149e-17
6428.94336 1.05889e-17
6430.41504 1.06396e-17
6431.87664 1.10958e-17
6433.34832 1.02232e-17
6434.82000 1.00039e-17
6436.29168 1.06152e-17
6437.76336 1.09842e-17
6439.22496 1.00178e-17
6440.69664 1.00671e-17
6442.16832 9.23499e-18
6443.64000 1.01955e-17
6445.11168 9.58081e-18
6446.58336 1.05086e-17
6448.04496 1.04864e-17
6449.51664 1.02837e-17
6450.98832 9.85113e-18
6452.46000 9.89351e-18
6453.93168 9.98126e-18
6455.40336 1.02008e-17
6456.86496 9.51973e-18
6458.33664 9.81991e-18
6459.80832 1.03650e-17
6461.28000 1.05266e-17
6462.75168 9.31155e-18
6464.22336 9.63480e-18
6465.69504 9.72922e-18
6467.15664 1.03655e-17
6468.62832 9.78523e-18
6470.10000 9.14502e-18
6471.57168 1.01429e-17
6473.04336 1.03173e-17
6474.50496 1.09097e-17
6475.97664 1.02383e-17
6477.44832 9.76018e-18
6478.92000 1.02288e-17
6480.39168 1.04698e-17
6481.86336 9.87491e-18
6483.33504 1.02606e-17
6484.79664 1.06336e-17
6486.26832 1.06370e-17
6487.74000 1.03206e-17
6489.21168 1.00892e-17
6490.68336 1.12509e-17
6492.14496 1.10495e-17
6493.61664 1.03091e-17
6495.08832 1.03385e-17
6496.56000 1.01656e-17
6498.03168 9.70095e-18
6499.50336 9.87759e-18
6500.97504 1.04744e-17
6502.43664 1.00919e-17
6503.90832 1.02377e-17
6505.38000 1.04897e-17
6506.85168 1.02255e-17
6508.32336 9.72647e-18
6509.78496 9.88616e-18
6511.25664 1.02557e-17
6512.72832 9.92514e-18
6514.20000 1.04733e-17
6515.67168 1.03777e-17
6517.14336 9.63636e-18
6518.61504 9.79494e-18
6520.07664 9.78912e-18
6521.54832 1.05784e-17
6523.02000 1.11212e-17
6524.49168 1.00309e-17
6525.96336 9.79290e-18
6527.42496 1.04864e-17
6528.89664 1.08723e-17
6530.36832 1.10873e-17
6531.84000 1.06809e-17
6533.31168 9.93755e-18
6534.78336 1.05162e-17
6536.25504 1.05980e-17
6537.71664 9.70244e-18
6539.18832 1.04303e-17
6540.66000 1.07569e-17
6542.13168 1.04350e-17
6543.60336 1.06465e-17
6545.06496 9.84700e-18
6546.53664 9.41287e-18
6548.00832 1.02807e-17
6549.48000 1.06012e-17
6550.95168 1.07376e-17
6552.42336 1.03916e-17
6553.89504 1.05846e-17
6555.35664 1.00824e-17
6556.82832 1.05963e-17
6558.30000 1.05713e-17
6559.77168 1.05264e-17
6561.24336 1.04890e-17
6562.70496 1.05438e-17
6564.17664 1.01043e-17
6565.64832 9.63899e-18
6567.12000 1.03066e-17
6568.59168 1.03785e-17
6570.06336 1.12648e-17
6571.52496 1.00199e-17
6572.99664 1.10799e-17
6574.46832 1.13637e-17
6575.94000 1.05880e-17
6577.41168 1.08511e-17
6578.88336 1.07676e-17
6580.34496 1.03297e-17
6581.81664 1.02673e-17
6583.28832 1.02975e-17
6584.76000 1.00769e-17
6586.23168 1.00918e-17
6587.70336 1.01067e-17
6589.17504 1.01216e-17
6590.63664 1.01364e-17
6592.10832 1.01513e-17
6593.58000 1.01662e-17
6595.05168 1.01811e-17
6596.52336 1.01959e-17
6597.98496 1.02108e-17
6599.45664 1.02257e-17
6600.92832 1.02405e-17
6602.40000 1.02554e-17
6603.87168 1.02703e-17
6605.34336 1.02851e-17
6606.81504 1.03000e-17
6608.27664 1.03148e-17
6609.74832 1.03297e-17
6611.22000 1.03446e-17
6612.69168 1.03594e-17
6614.16336 1.03742e-17
6615.62496 1.03891e-17
6617.09664 1.04039e-17
6618.56832 1.04188e-17
6620.04000 1.04336e-17
6621.51168 1.04485e-17
6622.98336 1.04633e-17
6624.45504 1.04781e-17
6625.91664 1.04930e-17
6627.38832 1.05078e-17
6628.86000 1.05226e-17
6630.33168 1.05375e-17
6631.80336 1.05523e-17
6633.26496 1.05671e-17
6634.73664 1.05820e-17
6636.20832 1.05968e-17
6637.68000 1.06116e-17
6639.15168 1.06264e-17
6640.62336 1.06412e-17
6642.08496 1.06560e-17
6643.55664 1.06709e-17
6645.02832 1.06857e-17
6646.50000 1.07005e-17
6647.97168 1.10842e-17
6649.44336 1.08208e-17
6650.90496 1.05035e-17
6652.37664 1.00783e-17
6653.84832 1.00177e-17
6655.32000 1.06384e-17
6656.79168 1.07975e-17
6658.26336 1.03794e-17
6659.73504 9.83107e-18
6661.19664 9.96499e-18
6662.66832 1.06763e-17
6664.14000 1.08806e-17
6665.61168 1.07819e-17
6667.08336 1.10751e-17
6668.54496 1.16153e-17
6670.01664 1.09733e-17
6671.48832 1.05125e-17
6672.96000 9.93921e-18
6674.43168 9.57492e-18
6675.90336 1.05585e-17
6677.37504 1.07505e-17
6678.83664 1.11263e-17
6680.30832 1.11446e-17
6681.78000 1.02990e-17
6683.25168 1.00289e-17
6684.72336 1.00280e-17
6686.18496 9.60385e-18
6687.65664 9.80807e-18
6689.12832 1.09452e-17
6690.60000 1.01136e-17
6692.07168 9.15859e-18
6693.54336 1.02319e-17
6695.00496 1.04463e-17
6696.47664 1.05437e-17
6697.94832 1.10160e-17
6699.42000 1.05111e-17
6700.89168 1.01686e-17
6702.36336 1.02189e-17
6703.82496 9.98412e-18
6705.29664 9.61156e-18
6706.76832 9.43502e-18
6708.24000 9.91461e-18
6709.71168 1.01257e-17
6711.18336 1.02490e-17
6712.65504 1.05849e-17
6714.11664 1.05417e-17
6715.58832 1.04041e-17
6717.06000 9.66211e-18
6718.53168 1.01034e-17
6720.00336 1.07677e-17
6721.46496 1.01052e-17
6722.93664 1.00615e-17
6724.40832 9.92436e-18
6725.88000 9.47984e-18
6727.35168 9.60656e-18
6728.82336 1.02143e-17
6730.29504 1.03758e-17
6731.75664 1.06919e-17
6733.22832 1.08271e-17
6734.70000 1.01295e-17
6736.17168 9.50963e-18
6737.64336 9.39642e-18
6739.10496 9.82559e-18
6740.57664 9.62106e-18
6742.04832 9.53407e-18
6743.52000 1.00140e-17
6744.99168 1.01707e-17
6746.46336 1.03511e-17
6747.93504 1.01774e-17
6749.39664 1.00645e-17
6750.86832 1.00476e-17
6752.34000 9.85641e-18
6753.81168 9.94382e-18
6755.28336 1.00456e-17
6756.74496 1.03030e-17
6758.21664 1.05894e-17
6759.68832 1.05153e-17
6761.16000 1.05865e-17
6762.63168 1.00675e-17
6764.10336 1.00124e-17
6765.56496 9.95431e-18
6767.03664 9.57254e-18
6768.50832 1.02747e-17
6769.98000 1.00783e-17
6771.45168 9.64717e-18
6772.92336 1.00526e-17
6774.38496 9.92751e-18
6775.85664 9.70040e-18
6777.32832 1.01184e-17
6778.80000 1.02705e-17
6780.27168 1.00788e-17
6781.74336 1.01440e-17
6783.21504 1.01093e-17
6784.67664 9.87199e-18
6786.14832 9.79213e-18
6787.62000 9.13924e-18
6789.09168 8.86833e-18
6790.56336 1.00361e-17
6792.02496 1.05147e-17
6793.49664 9.12996e-18
6794.96832 8.27745e-18
6796.44000 9.52797e-18
6797.91168 8.98737e-18
6799.38336 8.80566e-18
6800.85504 9.06303e-18
6802.31664 9.35269e-18
6803.78832 9.70206e-18
6805.26000 9.60097e-18
6806.73168 9.25307e-18
6808.20336 9.64676e-18
6809.66496 9.44611e-18
6811.13664 8.71778e-18
6812.60832 8.29970e-18
6814.08000 8.38766e-18
6815.55168 8.44976e-18
6817.02336 8.89507e-18
6818.49504 9.39532e-18
6819.95664 1.08540e-17
6821.42832 9.93151e-18
6822.90000 9.35430e-18
6824.37168 9.05727e-18
6825.84336 8.99615e-18
6827.30496 8.98395e-18
6828.77664 9.28285e-18
6830.24832 9.77675e-18
6831.72000 9.37708e-18
6833.19168 8.62532e-18
6834.66336 9.15499e-18
6836.13504 9.13520e-18
6837.59664 8.67323e-18
6839.06832 8.62959e-18
6840.54000 8.25583e-18
6842.01168 9.40475e-18
6843.48336 9.84827e-18
6844.94496 9.10206e-18
6846.41664 7.60516e-18
6847.88832 8.51764e-18
6849.36000 7.91546e-18
6850.83168 8.01443e-18
6852.30336 8.69455e-18
6853.77504 7.90259e-18
6855.23664 8.83574e-18
6856.70832 8.74697e-18
6858.18000 9.30428e-18
6859.65168 8.79399e-18
6861.12336 7.91812e-18
6862.58496 7.74977e-18
6864.05664 8.49075e-18
6865.52832 8.64132e-18
6867.00000 9.41639e-18
6868.47168 8.89137e-18
6869.94336 8.46770e-18
6871.41504 8.63306e-18
6872.87664 9.21671e-18
6874.34832 8.90977e-18
6875.82000 8.65779e-18
6877.29168 8.89699e-18
6878.76336 9.36054e-18
6880.22496 8.74392e-18
6881.69664 7.90447e-18
6883.16832 8.63125e-18
6884.64000 8.31534e-18
6886.11168 9.26798e-18
6887.58336 9.42960e-18
6889.04496 8.35661e-18
6890.51664 8.40855e-18
6891.98832 8.30777e-18
6893.46000 8.23892e-18
6894.93168 8.39607e-18
6896.40336 8.82059e-18
6897.86496 9.13593e-18
6899.33664 9.11456e-18
6900.80832 8.49674e-18
6902.28000 7.83416e-18
6903.75168 8.43947e-18
6905.22336 8.60560e-18
6906.69504 8.24195e-18
6908.15664 8.48537e-18
6909.62832 8.37466e-18
6911.10000 8.31491e-18
6912.57168 9.08484e-18
6914.04336 9.00490e-18
6915.50496 8.34522e-18
6916.97664 8.59851e-18
6918.44832 8.21895e-18
6919.92000 8.54067e-18
6921.39168 9.58112e-18
6922.86336 9.70469e-18
6924.33504 8.74371e-18
6925.79664 9.22678e-18
6927.26832 8.64928e-18
6928.74000 7.48901e-18
6930.21168 7.94963e-18
6931.68336 8.09699e-18
6933.14496 8.60559e-18
6934.61664 8.32736e-18
6936.08832 8.03691e-18
6937.56000 7.86346e-18
6939.03168 7.37222e-18
6940.50336 7.92293e-18
6941.97504 6.90075e-18
6943.43664 7.17728e-18
6944.90832 7.48638e-18
6946.38000 7.62237e-18
6947.85168 7.28425e-18
6949.32336 6.55509e-18
6950.78496 7.30278e-18
6952.25664 7.93390e-18
6953.72832 7.81403e-18
6955.20000 7.67280e-18
6956.67168 7.87688e-18
6958.14336 8.58067e-18
6959.60496 7.34607e-18
6961.07664 7.53244e-18
6962.54832 7.85332e-18
6964.02000 8.81638e-18
6965.49168 8.94011e-18
6966.96336 8.94752e-18
6968.42496 8.95289e-18
6969.89664 8.96173e-18
6971.36832 9.08932e-18
6972.84000 8.72974e-18
6974.31168 8.45450e-18
6975.78336 8.74037e-18
6977.25504 8.98706e-18
6978.71664 8.90181e-18
6980.18832 7.69137e-18
6981.66000 8.22910e-18
6983.13168 8.49759e-18
6984.60336 8.29258e-18
6986.06496 8.46722e-18
6987.53664 8.15405e-18
6989.00832 8.30395e-18
6990.48000 9.00535e-18
6991.95168 8.69285e-18
6993.42336 8.67350e-18
6994.89504 8.63390e-18
6996.35664 8.07019e-18
6997.82832 8.65375e-18
6999.30000 7.90819e-18
7000.77168 7.82144e-18
7002.24336 9.47441e-18
7003.70496 8.51572e-18
7005.17664 8.07463e-18
7006.64832 8.32176e-18
7008.12000 8.29453e-18
7009.59168 8.05982e-18
7011.06336 8.69338e-18
7012.52496 1.04591e-17
7013.99664 1.07299e-17
7015.46832 8.61927e-18
7016.94000 8.47700e-18
7018.41168 9.13503e-18
7019.88336 8.41328e-18
7021.34496 7.87828e-18
7022.81664 8.20252e-18
7024.28832 7.92095e-18
7025.76000 8.05203e-18
7027.23168 8.48899e-18
7028.70336 8.64242e-18
7030.17504 8.67494e-18
7031.63664 8.20014e-18
7033.10832 8.19454e-18
7034.58000 8.04111e-18
7036.05168 8.49290e-18
7037.52336 8.73329e-18
7038.98496 7.89561e-18
7040.45664 8.54939e-18
7041.92832 9.68332e-18
7043.40000 9.08907e-18
7044.87168 8.56761e-18
7046.34336 8.42709e-18
7047.81504 8.92381e-18
7049.27664 9.99280e-18
7050.74832 8.64252e-18
7052.22000 7.22774e-18
7053.69168 8.69251e-18
7055.16336 9.31637e-18
7056.62496 8.96310e-18
7058.09664 9.24907e-18
7059.56832 8.86150e-18
7061.04000 8.78822e-18
7062.51168 9.20470e-18
7063.98336 9.21745e-18
7065.45504 8.49870e-18
7066.91664 8.79895e-18
7068.38832 8.72388e-18
7069.86000 8.55905e-18
7071.33168 9.06981e-18
7072.80336 8.87001e-18
7074.26496 8.54339e-18
7075.73664 8.48547e-18
7077.20832 7.31697e-18
7078.68000 7.37394e-18
7080.15168 8.64061e-18
7081.62336 8.13302e-18
7083.08496 7.31370e-18
7084.55664 8.52353e-18
7086.02832 9.23375e-18
7087.50000 1.01184e-17
7088.97168 9.81346e-18
7090.44336 8.80193e-18
7091.90496 8.83567e-18
7093.37664 8.81160e-18
7094.84832 8.37344e-18
7096.32000 8.39827e-18
7097.79168 9.16435e-18
7099.26336 8.66448e-18
7100.73504 7.70808e-18
7102.19664 8.16081e-18
7103.66832 9.85559e-18
7105.14000 1.00179e-17
7106.61168 8.93123e-18
7108.08336 8.97749e-18
7109.54496 9.42422e-18
7111.01664 9.22323e-18
7112.48832 8.61990e-18
7113.96000 8.39548e-18
7115.43168 8.34806e-18
7116.90336 8.43316e-18
7118.37504 7.73087e-18
7119.83664 7.89676e-18
7121.30832 8.93876e-18
7122.78000 9.64571e-18
7124.25168 8.76146e-18
7125.72336 8.47791e-18
7127.18496 8.97721e-18
7128.65664 9.37529e-18
7130.12832 9.22823e-18
7131.60000 9.00665e-18
7133.07168 9.31451e-18
7134.54336 9.14719e-18
7136.00496 9.34756e-18
7137.47664 9.41500e-18
7138.94832 8.26048e-18
7140.42000 8.34911e-18
7141.89168 8.42934e-18
7143.36336 9.54921e-18
7144.82496 9.90268e-18
7146.29664 8.96247e-18
7147.76832 9.15651e-18
7149.24000 9.34652e-18
7150.71168 8.97795e-18
7152.18336 8.49532e-18
7153.65504 8.50996e-18
7155.11664 8.43348e-18
7156.58832 8.35457e-18
7158.06000 8.89342e-18
7159.53168 9.06907e-18
7161.00336 9.26898e-18
7162.46496 8.91789e-18
7163.93664 8.30837e-18
7165.40832 8.25847e-18
7166.88000 8.36857e-18
7168.35168 9.02593e-18
7169.82336 9.18655e-18
7171.29504 8.32282e-18
7172.75664 7.73374e-18
7174.22832 8.70943e-18
7175.70000 9.48109e-18
7177.17168 8.67010e-18
7178.64336 8.89062e-18
7180.10496 9.41988e-18
7181.57664 8.34714e-18
7183.04832 8.03687e-18
7184.52000 8.51750e-18
7185.99168 8.58142e-18
7187.46336 8.62042e-18
7188.93504 8.35512e-18
7190.39664 8.10383e-18
7191.86832 8.21512e-18
7193.34000 8.08669e-18
7194.81168 8.17431e-18
7196.28336 8.69829e-18
7197.74496 8.66783e-18
7199.21664 8.18642e-18
7200.68832 7.90068e-18
7202.16000 7.70372e-18
7203.63168 7.97526e-18
7205.10336 8.45910e-18
7206.56496 8.85484e-18
7208.03664 8.80826e-18
7209.50832 8.54969e-18
7210.98000 9.14545e-18
7212.45168 1.00551e-17
7213.92336 1.02692e-17
7215.38496 9.73494e-18
7216.85664 8.95696e-18
7218.32832 8.72349e-18
7219.80000 8.77528e-18
7221.27168 8.88634e-18
7222.74336 9.19677e-18
7224.21504 9.15736e-18
7225.67664 8.84044e-18
7227.14832 9.84216e-18
7228.62000 9.62780e-18
7230.09168 8.66643e-18
7231.56336 8.68766e-18
7233.02496 8.64923e-18
7234.49664 8.80101e-18
7235.96832 8.90116e-18
7237.44000 8.57776e-18
7238.91168 8.86476e-18
7240.38336 9.13116e-18
7241.85504 9.23591e-18
7243.31664 8.87337e-18
7244.78832 8.50450e-18
7246.26000 8.58268e-18
7247.73168 8.40740e-18
7249.20336 8.50145e-18
7250.66496 8.51451e-18
7252.13664 9.33317e-18
7253.60832 9.18611e-18
7255.08000 8.87303e-18
7256.55168 9.08310e-18
7258.02336 8.50454e-18
7259.49504 8.04791e-18
7260.95664 8.33077e-18
7262.42832 8.27323e-18
7263.90000 8.59391e-18
7265.37168 9.01435e-18
7266.84336 8.54993e-18
7268.30496 8.32098e-18
7269.77664 8.22471e-18
7271.24832 8.09735e-18
7272.72000 8.34290e-18
7274.19168 8.83725e-18
7275.66336 8.93870e-18
7277.13504 8.76958e-18
7278.59664 8.75139e-18
7280.06832 8.65117e-18
7281.54000 8.15417e-18
7283.01168 8.36949e-18
7284.48336 9.56642e-18
7285.94496 9.32831e-18
7287.41664 9.47205e-18
7288.88832 9.41096e-18
7290.36000 9.12188e-18
7291.83168 8.65576e-18
7293.30336 8.35091e-18
7294.77504 8.82498e-18
7296.23664 9.20920e-18
7297.70832 8.57187e-18
7299.18000 8.58438e-18
7300.65168 8.49794e-18
7302.12336 8.27603e-18
7303.58496 8.38296e-18
7305.05664 8.46095e-18
7306.52832 8.24799e-18
7308.00000 8.40529e-18
7309.47168 8.46055e-18
7310.94336 8.63567e-18
7312.41504 9.06339e-18
7313.87664 8.76415e-18
7315.34832 8.10613e-18
7316.82000 7.84318e-18
7318.29168 7.66464e-18
7319.76336 8.50525e-18
7321.22496 9.47153e-18
7322.69664 9.19831e-18
7324.16832 8.89242e-18
7325.64000 8.85028e-18
7327.11168 8.75006e-18
7328.58336 8.07125e-18
7330.04496 8.54790e-18
7331.51664 8.87943e-18
7332.98832 9.10831e-18
7334.46000 9.94217e-18
7335.93168 9.57478e-18
7337.40336 9.08752e-18
7338.86496 9.38722e-18
7340.33664 9.37651e-18
7341.80832 8.59125e-18
7343.28000 7.84754e-18
7344.75168 7.89252e-18
7346.22336 7.35733e-18
7347.69504 7.03577e-18
7349.15664 7.89315e-18
7350.62832 8.32560e-18
7352.10000 8.58811e-18
7353.57168 8.17374e-18
7355.04336 7.86782e-18
7356.50496 7.93147e-18
7357.97664 7.40214e-18
7359.44832 7.17061e-18
7360.92000 7.33065e-18
7362.39168 7.61818e-18
7363.86336 8.70686e-18
7365.33504 8.46193e-18
7366.79664 7.80435e-18
7368.26832 7.66962e-18
7369.74000 7.69159e-18
7371.21168 8.98120e-18
7372.68336 9.65081e-18
7374.14496 8.54921e-18
7375.61664 8.00739e-18
7377.08832 8.89099e-18
7378.56000 8.53557e-18
7380.03168 8.27201e-18
7381.50336 7.76778e-18
7382.97504 7.58512e-18
7384.43664 7.61744e-18
7385.90832 7.20329e-18
7387.38000 6.94169e-18
7388.85168 6.89378e-18
7390.32336 8.04052e-18
7391.78496 8.68021e-18
7393.25664 9.58823e-18
7394.72832 9.26042e-18
7396.20000 8.86916e-18
7397.67168 8.99643e-18
7399.14336 7.97585e-18
7400.60496 7.84785e-18
7402.07664 8.84117e-18
7403.54832 7.44767e-18
7405.02000 7.48305e-18
7406.49168 8.66162e-18
7407.96336 7.22695e-18
7409.42496 7.34332e-18
7410.89664 8.00031e-18
7412.36832 7.52357e-18
7413.84000 7.82279e-18
7415.31168 8.36627e-18
7416.84125 8.36627e-18
7418.50888 8.12889e-18
7420.16647 7.89162e-18
7421.82406 8.04645e-18
7423.48165 8.20126e-18
7425.14929 8.27234e-18
7426.80688 8.34340e-18
7428.46447 8.31644e-18
7430.13211 8.28943e-18
7431.78970 8.09356e-18
7433.44729 7.89774e-18
7435.10488 7.83238e-18
7436.77251 7.76709e-18
7438.43010 7.93688e-18
7440.08769 8.10658e-18
7441.74528 8.00010e-18
7443.41292 7.89365e-18
7445.07051 7.90258e-18
7446.72810 7.91152e-18
7448.39573 8.00416e-18
7450.05332 8.09679e-18
7451.71091 8.09451e-18
7453.36850 8.09224e-18
7455.03614 8.11725e-18
7456.69373 8.14227e-18
7458.35132 8.23812e-18
7460.00891 8.33396e-18
7461.67655 8.34885e-18
7463.33414 8.36374e-18
7464.99173 8.31606e-18
7466.65936 8.26832e-18
7468.31695 7.97497e-18
7469.97454 7.68172e-18
7471.63213 7.65488e-18
7473.29977 7.62809e-18
7474.95736 7.76748e-18
7476.61495 7.90680e-18
7478.28258 7.89816e-18
7479.94017 7.88948e-18
7481.59776 7.72974e-18
7483.25535 7.57009e-18
7484.92299 7.72466e-18
7486.58058 7.87922e-18
7488.23817 7.94457e-18
7489.89576 8.00993e-18
7491.56340 8.08762e-18
7493.22099 8.16524e-18
7494.87858 8.05290e-18
7496.54621 7.94058e-18
7498.20380 7.84268e-18
7499.86139 7.74475e-18
7501.51898 7.55865e-18
7503.18662 7.37263e-18
7504.84421 7.42657e-18
7506.50180 7.48050e-18
7508.16943 7.51812e-18
7509.82702 7.55574e-18
7511.48461 7.51816e-18
7513.14220 7.48064e-18
7514.80984 7.65624e-18
7516.46743 7.83173e-18
7518.12502 7.62526e-18
7519.78261 7.41887e-18
7521.45025 7.49486e-18
7523.10784 7.57084e-18
7524.76543 7.64099e-18
7526.43306 7.71112e-18
7528.09065 7.68414e-18
7529.74824 7.65711e-18
7531.40583 7.46924e-18
7533.07347 7.28147e-18
7534.73106 7.41150e-18
7536.38865 7.54148e-18
7538.04624 7.57770e-18
7539.71387 7.61390e-18
7541.37146 7.58921e-18
7543.02905 7.56446e-18
7544.69669 7.37784e-18
7546.35428 7.19131e-18
7548.01187 7.30172e-18
7549.66946 7.41212e-18
7551.33710 7.40024e-18
7552.99469 7.38835e-18
7554.65228 7.37647e-18
7556.30987 7.36459e-18
7557.97750 7.35271e-18
7559.63509 7.34083e-18
7561.29268 7.32895e-18
7562.96032 7.31707e-18
7564.61791 7.30519e-18
7566.27550 7.29331e-18
7567.93309 7.28143e-18
7569.60072 7.26955e-18
7571.25831 7.25767e-18
7572.91590 7.24579e-18
7574.58354 7.23392e-18
7576.24113 7.22203e-18
7577.89872 7.21016e-18
7579.55631 7.19828e-18
7581.22395 7.18641e-18
7582.88154 7.17453e-18
7584.53913 7.16266e-18
7586.19672 7.15077e-18
7587.86435 7.13891e-18
7589.52194 7.12702e-18
7591.17953 7.11515e-18
7592.84717 7.10329e-18
7594.50476 7.09140e-18
7596.16235 7.07954e-18
7597.81994 7.06766e-18
7599.48757 7.05579e-18
7601.14516 7.04391e-18
7602.80275 7.03204e-18
7604.46034 7.02016e-18
7606.12798 7.00830e-18
7607.78557 6.99643e-18
7609.44316 6.98456e-18
7611.11080 6.97269e-18
7612.76839 6.96081e-18
7614.42598 6.94895e-18
7616.08357 6.93708e-18
7617.75120 6.92521e-18
7619.40879 6.91334e-18
7621.06638 6.90147e-18
7622.72397 6.88960e-18
7624.39161 6.87774e-18
7626.04920 6.86586e-18
7627.70679 6.85400e-18
7629.37442 6.84214e-18
7631.03201 6.83027e-18
7632.68960 6.81840e-18
7634.34719 6.80654e-18
7636.01483 6.79467e-18
7637.67242 6.78281e-18
7639.33001 6.77094e-18
7640.99765 6.75908e-18
7642.65524 6.74722e-18
7644.31283 6.73535e-18
7645.97042 6.72349e-18
7647.63805 6.71163e-18
7649.29564 6.69976e-18
7650.95323 6.68790e-18
7652.61082 6.67604e-18
7654.27846 6.66417e-18
7655.93605 6.65232e-18
7657.59364 6.64046e-18
7659.26127 6.62859e-18
7660.91886 6.61674e-18
7662.57645 6.60488e-18
7664.23404 6.59301e-18
7665.90168 6.58116e-18
7667.55927 6.56930e-18
7669.21686 6.55743e-18
7670.87445 6.54558e-18
7672.54209 6.53373e-18
7674.19968 6.52187e-18
7675.85727 6.51001e-18
7677.52490 6.49816e-18
7679.18249 6.48630e-18
7680.84008 6.47444e-18
7682.49767 6.32925e-18
7684.16531 6.31434e-18
7685.82290 6.29953e-18
7687.48049 6.61647e-18
7689.13808 6.93326e-18
7690.80571 6.80853e-18
7692.46330 6.68384e-18
7694.12089 6.70315e-18
7695.78853 6.72242e-18
7697.44612 6.65102e-18
7699.10371 6.57971e-18
7700.76130 6.79445e-18
7702.42894 7.00905e-18
7704.08653 6.75083e-18
7705.74412 6.49274e-18
7707.40171 6.65925e-18
7709.06934 6.82569e-18
7710.72693 6.79851e-18
7712.38452 6.77136e-18
7714.05216 6.86790e-18
7715.70975 6.96435e-18
7717.36734 6.81820e-18
7719.02493 6.67212e-18
7720.69256 6.78657e-18
7722.35015 6.90093e-18
7724.00774 6.71881e-18
7725.67538 6.53670e-18
7727.33297 6.39445e-18
7728.99056 6.25229e-18
7730.64815 6.44593e-18
7732.31579 6.63953e-18
7733.97338 6.69571e-18
7735.63097 6.75182e-18
7737.28856 6.66090e-18
7738.95619 6.57000e-18
7740.61378 6.63102e-18
7742.27137 6.69203e-18
7743.93901 6.71393e-18
7745.59660 6.73588e-18
7747.25419 6.88800e-18
7748.91178 7.03998e-18
7750.57941 6.78488e-18
7752.23700 6.52985e-18
7753.89459 6.43952e-18
7755.55218 6.34929e-18
7757.21982 6.50489e-18
7758.87741 6.66055e-18
7760.53500 7.02010e-18
7762.20264 7.37948e-18
7763.86023 7.23501e-18
7765.51782 7.09059e-18
7767.17541 7.12101e-18
7768.84304 7.15140e-18
7770.50063 7.11405e-18
7772.15822 7.07669e-18
7773.81581 7.01813e-18
7775.48345 6.95956e-18
7777.14104 6.88432e-18
7778.79863 6.80915e-18
7780.46626 6.91636e-18
7782.12385 7.02351e-18
7783.78144 6.88253e-18
7785.43903 6.74166e-18
7787.10667 6.92176e-18
7788.76426 7.10182e-18
7790.42185 7.21571e-18
7792.07944 7.32954e-18
7793.74708 7.25795e-18
7795.40467 7.18641e-18
7797.06226 7.23216e-18
7798.72989 7.27792e-18
7800.38748 7.32276e-18
7802.04507 7.36755e-18
7803.70266 7.30762e-18
7805.37030 7.24772e-18
7807.02789 7.28365e-18
7808.68548 7.31953e-18
7810.35311 7.21899e-18
7812.01070 7.11856e-18
7813.66829 7.41395e-18
7815.32588 7.70918e-18
7816.99352 7.53188e-18
7818.65111 7.35462e-18
7820.30870 7.30068e-18
7821.96629 7.24671e-18
7823.63393 7.08230e-18
7825.29152 6.91793e-18
7826.94911 6.91999e-18
7828.61674 6.92204e-18
7830.27433 6.88260e-18
7831.93192 6.84320e-18
7833.58951 6.95959e-18
7835.25715 7.07600e-18
7836.91474 7.22040e-18
7838.57233 7.36467e-18
7840.22992 7.07120e-18
7841.89755 6.77788e-18
7843.55514 6.91451e-18
7845.21273 7.05109e-18
7846.88037 7.03522e-18
7848.53796 7.01937e-18
7850.19555 7.17491e-18
7851.85314 7.33050e-18
7853.52078 7.72207e-18
7855.17837 8.11345e-18
7856.83596 7.88613e-18
7858.50359 7.65884e-18
7860.16118 7.47177e-18
7861.81877 7.28483e-18
7863.47636 7.50666e-18
7865.14400 7.72836e-18
7866.80159 7.55176e-18
7868.45918 7.37524e-18
7870.11677 7.46859e-18
7871.78440 7.56186e-18
7873.44199 7.43497e-18
7875.09958 7.30811e-18
7876.76722 7.30295e-18
7878.42481 7.29783e-18
7880.08240 7.39682e-18
7881.73999 7.49573e-18
7883.40763 7.34329e-18
7885.06522 7.19099e-18
7886.72281 7.46231e-18
7888.38040 7.73352e-18
7890.04803 7.64779e-18
7891.70562 7.56200e-18
7893.36321 7.31364e-18
7895.03085 7.06535e-18
7896.68844 7.01681e-18
7898.34603 6.96827e-18
7900.00362 6.93830e-18
7901.67125 6.90839e-18
7903.32884 7.07917e-18
7904.98643 7.24990e-18
7906.64402 7.25173e-18
7908.31166 7.25353e-18
7909.96925 7.16916e-18
7911.62684 7.08476e-18
7913.29448 6.89609e-18
7914.95207 6.70756e-18
7916.60966 6.95313e-18
7918.26725 7.19858e-18
7919.93488 7.06502e-18
7921.59247 6.93159e-18
7923.25006 7.15297e-18
7924.90765 7.37428e-18
7926.57529 7.35780e-18
7928.23288 7.34126e-18
7929.89047 7.15205e-18
7931.55810 6.96286e-18
7933.21569 6.86028e-18
7934.87328 6.75776e-18
7936.53087 6.86731e-18
7938.19851 6.97678e-18
7939.85610 6.82017e-18
7941.51369 6.66363e-18
7943.18133 6.75877e-18
7944.83892 6.85398e-18
7946.49651 7.16086e-18
7948.15410 7.46756e-18
7949.82173 7.22718e-18
7951.47932 6.98678e-18
7953.13691 6.72240e-18
7954.79450 6.45820e-18
7956.46214 6.72599e-18
7958.11973 6.99358e-18
7959.77732 6.67988e-18
7961.44495 6.36635e-18
7963.10254 6.58032e-18
7964.76013 6.79422e-18
7966.41772 6.75685e-18
7968.08536 6.71949e-18
7969.74295 6.74154e-18
7971.40054 6.76361e-18
7973.05813 6.84286e-18
7974.72577 6.92202e-18
7976.38336 6.71129e-18
7978.04095 6.50059e-18
7979.70858 6.39707e-18
7981.36617 6.29368e-18
7983.02376 6.53637e-18
7984.68135 6.77899e-18
7986.34899 6.85150e-18
7988.00658 6.92394e-18
7989.66417 6.80185e-18
7991.33180 6.67983e-18
7992.98939 6.80439e-18
7994.64698 6.92880e-18
7996.30457 6.62102e-18
7997.97221 6.31342e-18
7999.62980 6.54755e-18
8001.28739 6.78153e-18
8002.94498 6.60712e-18
8004.61262 6.43276e-18
8006.27021 6.37537e-18
8007.92780 6.31810e-18
8009.59543 6.60625e-18
8011.25302 6.89422e-18
8012.91061 6.65543e-18
8014.56820 6.41673e-18
8016.23584 6.44059e-18
8017.89343 6.46447e-18
8019.55102 6.57096e-18
8021.20861 6.67741e-18
8022.87624 6.68307e-18
8024.53383 6.68867e-18
8026.19142 6.53355e-18
8027.85906 6.37846e-18
8029.51665 6.31788e-18
8031.17424 6.25728e-18
8032.83183 6.14238e-18
8034.49947 6.02757e-18
8036.15706 6.22821e-18
8037.81465 6.42878e-18
8039.47224 6.42755e-18
8041.13987 6.42630e-18
8042.79746 6.34808e-18
8044.45505 6.26987e-18
8046.12269 6.18393e-18
8047.78028 6.09804e-18
8049.43787 6.24140e-18
8051.09546 6.38468e-18
8052.76309 6.34097e-18
8054.42068 6.29722e-18
8056.07827 6.15250e-18
8057.73586 6.00786e-18
8059.40350 6.09299e-18
8061.06109 6.17810e-18
8062.71868 6.20454e-18
8064.38632 6.23092e-18
8066.04391 6.06673e-18
8067.70150 5.90259e-18
8069.35909 5.84788e-18
8071.02672 5.79322e-18
8072.68431 5.88936e-18
8074.34190 5.98551e-18
8076.00954 6.07987e-18
8077.66713 6.17420e-18
8079.32472 6.16154e-18
8080.98231 6.14882e-18
8082.64994 5.93114e-18
8084.30753 5.71349e-18
8085.96512 5.60688e-18
8087.62271 5.50032e-18
8089.29035 5.56536e-18
8090.94794 5.63042e-18
8092.60553 5.70206e-18
8094.27317 5.77370e-18
8095.93076 5.77746e-18
8097.58835 5.78122e-18
8099.24594 5.77596e-18
8100.91357 5.77073e-18
8102.57116 5.81697e-18
8104.22875 5.86316e-18
8105.88634 5.76124e-18
8107.55398 5.65938e-18
8109.21157 5.74664e-18
8110.86916 5.83379e-18
8112.53679 5.61860e-18
8114.19438 5.40355e-18
8115.85197 5.58547e-18
8117.50956 5.76741e-18
8119.17720 5.99444e-18
8120.83479 6.22132e-18
8122.49238 6.01448e-18
8124.16002 5.80763e-18
8125.81761 5.50876e-18
8127.47520 5.21003e-18
8129.13279 5.28543e-18
8130.80042 5.36086e-18
8132.45801 5.53286e-18
8134.11560 5.70480e-18
8135.77319 5.72799e-18
8137.44083 5.75118e-18
8139.09842 5.78525e-18
8140.75601 5.81929e-18
8142.41360 5.75827e-18
8144.08123 5.69721e-18
8145.73882 5.49344e-18
8147.39641 5.28980e-18
8149.06405 5.49841e-18
8150.72164 5.70691e-18
8152.37923 5.66606e-18
8154.03682 5.62514e-18
8155.70446 5.41551e-18
8157.36205 5.20601e-18
8159.01964 5.34088e-18
8160.68727 5.47572e-18
8162.34486 5.54565e-18
8164.00245 5.61549e-18
8165.66004 5.44824e-18
8167.32768 5.28112e-18
8168.98527 5.55444e-18
8170.64286 5.82764e-18
8172.30045 5.81719e-18
8173.96808 5.80659e-18
8175.62567 5.34319e-18
8177.28326 4.88000e-18
8178.95090 5.01854e-18
8180.60849 5.15711e-18
8182.26608 5.34021e-18
8183.92367 5.52326e-18
8185.59131 5.60883e-18
8187.24890 5.69425e-18
8188.90649 5.34573e-18
8190.56408 4.99736e-18
8192.23171 5.05060e-18
8193.88930 5.10392e-18
8195.54689 5.36675e-18
8197.21453 5.62949e-18
8198.87212 5.62933e-18
8200.52971 5.62913e-18
8202.18730 5.51588e-18
8203.85493 5.40266e-18
8205.51252 5.42429e-18
8207.17011 5.44592e-18
8208.82770 5.47220e-18
8210.49534 5.49838e-18
8212.15293 5.20075e-18
8213.81052 4.90326e-18
8215.47816 5.04163e-18
8217.13575 5.17992e-18
8218.79334 5.05349e-18
8220.45093 4.92717e-18
8222.11856 5.12911e-18
8223.77615 5.33094e-18
8225.43374 5.19274e-18
8227.09133 5.05463e-18
8228.75897 5.16635e-18
8230.41656 5.27800e-18
8232.07415 5.18045e-18
8233.74178 5.08294e-18
8235.39937 5.07902e-18
8237.05696 5.07507e-18
8238.71455 4.96767e-18
8240.38219 4.86029e-18
8242.03978 4.76318e-18
8243.69737 4.66619e-18
8245.36501 4.95272e-18
8247.02260 5.23912e-18
8248.68019 5.17011e-18
8250.33778 5.10113e-18
8252.00541 5.12108e-18
8253.66300 5.14091e-18
8255.32059 4.77058e-18
8256.97818 4.40050e-18
8258.64582 4.70815e-18
8260.30341 5.01571e-18
8261.96100 5.09949e-18
8263.62863 5.18320e-18
8265.28622 5.08536e-18
8266.94381 4.98751e-18
8268.60140 4.82407e-18
8270.26904 4.66069e-18
8271.92663 4.64501e-18
8273.58422 4.62936e-18
8275.25186 4.68217e-18
8276.90945 4.73492e-18
8278.56704 4.65957e-18
8280.22463 4.58422e-18
8281.89226 4.47937e-18
8283.54985 4.37458e-18
8285.20744 4.49795e-18
8286.86503 4.62123e-18
8288.53267 4.54146e-18
8290.19026 4.46175e-18
8291.84785 4.54881e-18
8293.51548 4.63587e-18
8295.17307 4.71021e-18
8296.83066 4.78453e-18
8298.48825 4.74375e-18
8300.15589 4.70290e-18
8301.81348 4.47853e-18
8303.47107 4.25426e-18
8305.12866 4.31279e-18
8306.79630 4.37129e-18
8308.45389 4.33276e-18
8310.11148 4.29422e-18
8311.77911 4.21196e-18
8313.43670 4.12974e-18
8315.09429 4.21063e-18
8316.75188 4.29152e-18
8318.41952 4.42119e-18
8320.07711 4.55080e-18
8321.73470 4.46415e-18
8323.40233 4.37745e-18
8325.05992 4.12835e-18
8326.71751 3.87940e-18
8328.37510 3.97556e-18
8330.04274 4.07173e-18
8331.70033 4.16069e-18
8333.35792 4.24963e-18
8335.01551 4.26496e-18
8336.68315 4.28031e-18
8338.34074 4.31269e-18
8339.99833 4.34508e-18
8341.65592 4.41492e-18
8343.32355 4.48482e-18
8344.98114 4.68187e-18
8346.63873 4.87881e-18
8348.30637 4.75629e-18
8349.96396 4.63373e-18
8351.62155 4.37988e-18
8353.27914 4.12614e-18
8354.94677 4.18469e-18
8356.60436 4.24325e-18
8358.26195 4.37476e-18
8359.92959 4.50621e-18
8361.58718 4.48252e-18
8363.24477 4.45878e-18
8364.90236 4.32833e-18
8366.57000 4.19788e-18
8368.22759 4.10456e-18
8369.88518 4.01133e-18
8371.54277 4.19594e-18
8373.21040 4.38038e-18
8374.86799 4.10156e-18
8376.52558 3.82293e-18
8378.19322 4.08531e-18
8379.85081 4.34756e-18
8381.50840 4.21205e-18
8383.16599 4.07660e-18
8384.83362 4.15267e-18
8386.49121 4.22865e-18
8388.14880 4.05079e-18
8389.81644 3.87306e-18
8391.47403 4.05478e-18
8393.13162 4.23648e-18
8394.78921 4.39785e-18
8396.45685 4.55913e-18
8398.11444 4.46715e-18
8399.77203 4.37518e-18
8401.42962 4.29866e-18
8403.09725 4.22221e-18
8404.75484 4.29738e-18
8406.41243 4.37260e-18
8408.08007 4.58881e-18
8409.73766 4.80487e-18
8411.39525 4.61255e-18
8413.05284 4.42029e-18
8414.72047 4.43356e-18
8416.37806 4.44678e-18
8418.03565 4.32393e-18
8419.69324 4.20113e-18
8421.36088 4.17337e-18
8423.01847 4.14564e-18
8424.67606 4.19931e-18
8426.34370 4.25289e-18
8428.00129 3.99638e-18
8429.65888 3.74005e-18
8431.31647 3.94988e-18
8432.98410 4.15970e-18
8434.64169 4.31742e-18
8436.29928 4.47507e-18
8437.95687 4.44026e-18
8439.62451 4.40545e-18
8441.28210 4.34429e-18
8442.93969 4.28307e-18
8444.60732 4.01624e-18
8446.26491 3.74953e-18
8447.92250 3.85103e-18
8449.58009 3.95256e-18
8451.24773 4.18435e-18
8452.90532 4.41608e-18
8454.56291 4.48847e-18
8456.22050 4.56077e-18
8457.88814 4.39060e-18
8459.54573 4.22047e-18
8461.20332 4.13873e-18
8462.87095 4.05705e-18
8464.52854 4.12559e-18
8466.18613 4.19410e-18
8467.84372 4.20962e-18
8469.51136 4.22512e-18
8471.16895 4.21241e-18
8472.82654 4.19968e-18
8474.48413 4.16576e-18
8476.15176 4.13189e-18
8477.80935 4.22150e-18
8479.46694 4.31118e-18
8481.13458 4.57079e-18
8482.79217 4.83022e-18
8484.44976 4.61999e-18
8486.10735 4.40983e-18
8487.77499 4.39845e-18
8489.43258 4.38717e-18
8491.09017 4.65458e-18
8492.75780 4.92181e-18
8494.41539 4.70576e-18
8496.07298 4.48980e-18
8497.73057 4.53854e-18
8499.39821 4.58726e-18
8501.05580 4.59995e-18
8502.71339 4.61263e-18
8504.37098 4.60753e-18
8506.03861 4.60242e-18
8507.69620 4.57835e-18
8509.35379 4.55431e-18
8511.01138 4.60987e-18
8512.67902 4.66540e-18
8514.33661 4.61057e-18
8515.99420 4.55580e-18
8517.66184 4.69116e-18
8519.31943 4.82643e-18
8520.97702 4.69897e-18
8522.63461 4.57151e-18
8524.30224 4.47197e-18
8525.95983 4.37254e-18
8527.61742 4.61433e-18
8529.28506 4.85607e-18
8530.94265 5.02346e-18
8532.60024 5.19070e-18
8534.25783 4.93242e-18
8535.92546 4.67432e-18
8537.58305 4.91709e-18
8539.24064 5.15973e-18
8540.89823 5.01190e-18
8542.56587 4.86414e-18
8544.22346 4.85170e-18
8545.88105 4.83926e-18
8547.54869 4.85361e-18
8549.20628 4.86803e-18
8550.86387 5.10272e-18
8552.52146 5.33732e-18
8554.18909 5.33410e-18
8555.84668 5.33093e-18
8557.50427 5.46021e-18
8559.17191 5.58939e-18
8560.82950 5.46781e-18
8562.48709 5.34625e-18
8564.14468 5.25111e-18
8565.81231 5.15607e-18
8567.46990 5.31786e-18
8569.12749 5.47958e-18
8570.78508 5.46538e-18
8572.45272 5.45112e-18
8574.11031 5.28205e-18
8575.76790 5.11299e-18
8577.43554 5.00748e-18
8579.09313 4.90205e-18
8580.75072 5.03461e-18
8582.40831 5.16707e-18
8584.07594 5.11033e-18
8585.73353 5.05364e-18
8587.39112 5.17959e-18
8589.04871 5.30554e-18
8590.71635 5.45172e-18
8592.37394 5.59779e-18
8594.03153 5.44501e-18
8595.69916 5.29227e-18
8597.35675 5.20629e-18
8599.01434 5.12037e-18
8600.67193 5.16194e-18
8602.33957 5.20359e-18
8603.99716 5.45417e-18
8605.65475 5.70461e-18
8607.32239 5.60612e-18
8608.97998 5.50760e-18
8610.63757 5.36123e-18
8612.29516 5.21492e-18
8613.96279 5.22642e-18
8615.62038 5.23792e-18
8617.27797 5.26013e-18
8618.93556 5.28233e-18
8620.60320 5.26276e-18
8622.26079 5.24327e-18
8623.91838 5.47331e-18
8625.58601 5.70332e-18
8627.24360 5.80775e-18
8628.90119 5.91207e-18
8630.55878 5.74180e-18
8632.22642 5.57157e-18
8633.88401 5.46204e-18
8635.54160 5.35265e-18
8637.20924 5.54862e-18
8638.86683 5.74456e-18
8640.52442 5.83360e-18
8642.18201 5.92247e-18
8643.84964 5.53524e-18
8645.50723 5.14817e-18
8647.16482 5.21277e-18
8648.82241 5.27742e-18
8650.49005 5.52875e-18
8652.14764 5.77997e-18
8653.80523 5.77972e-18
8655.46282 5.77942e-18
8657.13045 5.68322e-18
8658.78804 5.58709e-18
8660.44563 5.68277e-18
8662.11327 5.77832e-18
8663.77086 5.56882e-18
8665.42845 5.35940e-18
8667.08604 5.40825e-18
8668.75368 5.45706e-18
8670.41127 5.44058e-18
8672.06886 5.42412e-18
8673.73649 5.48206e-18
8675.39408 5.53991e-18
8677.05167 5.40506e-18
8678.70926 5.27029e-18
8680.37690 5.36870e-18
8682.03449 5.46707e-18
8683.69208 5.51090e-18
8685.34967 5.55462e-18
8687.01730 5.36644e-18
8688.67489 5.17840e-18
8690.33248 5.35561e-18
8691.99007 5.53279e-18
8693.65771 5.60020e-18
8695.31530 5.66752e-18
8696.97289 5.52917e-18
8698.64053 5.39089e-18
8700.29812 5.42721e-18
8701.95571 5.46356e-18
8703.61330 5.56597e-18
8705.28093 5.66830e-18
8706.93852 5.57226e-18
8708.59611 5.47621e-18
8710.26375 5.38008e-18
8711.92134 5.28405e-18
8713.57893 5.40766e-18
8715.23652 5.53121e-18
8716.90415 5.46325e-18
8718.56174 5.39528e-18
8720.21933 5.30515e-18
8721.87692 5.21504e-18
8723.54456 5.24848e-18
8725.20215 5.28195e-18
8726.85974 5.38059e-18
8728.52738 5.47925e-18
8730.18497 5.61371e-18
8731.84256 5.74804e-18
8733.50015 5.58673e-18
8735.16778 5.42552e-18
8736.82537 5.53085e-18
8738.48296 5.63611e-18
8740.14055 5.51283e-18
8741.80819 5.38964e-18
8743.46578 5.50976e-18
8745.12337 5.62974e-18
8746.79100 5.36029e-18
8748.44859 5.09098e-18
8750.10618 5.18907e-18
8751.76377 5.28728e-18
8753.43141 5.67337e-18
8755.08900 6.05931e-18
8756.74659 6.09554e-18
8758.40418 6.13159e-18
8760.07182 5.71164e-18
8761.72941 5.29182e-18
8763.38700 5.23431e-18
8765.05463 5.17684e-18
8766.71222 5.24855e-18
8768.36981 5.32020e-18
8770.02740 5.23868e-18
8771.69504 5.15721e-18
8773.35263 5.16723e-18
8775.01022 5.17722e-18
8776.67785 5.15806e-18
8778.33544 5.13889e-18
8779.99303 5.13551e-18
8781.65062 5.13214e-18
8783.31826 5.19010e-18
8784.97585 5.24794e-18
8786.63344 5.01271e-18
8788.29103 4.77752e-18
8789.95867 4.68251e-18
8791.61626 4.58763e-18
8793.27385 4.90067e-18
8794.94148 5.21353e-18
8796.59907 5.06389e-18
8798.25666 4.91430e-18
8799.91425 4.88431e-18
8801.58189 4.85431e-18
8803.23948 4.82840e-18
8804.89707 4.80248e-18
8806.56470 4.81949e-18
8808.22229 4.83651e-18
8809.87988 4.91625e-18
8811.53747 4.99596e-18
8813.20511 5.00780e-18
8814.86270 5.01965e-18
8816.52029 5.08118e-18
8818.17788 5.14269e-18
8819.84552 5.16934e-18
8821.50311 5.19599e-18
8823.16070 5.18758e-18
8824.82833 5.17918e-18
8826.48592 5.17494e-18
8828.14351 5.17050e-18
8829.80110 4.71824e-18
8831.46874 4.26631e-18
8833.12633 4.67072e-18
8834.78392 5.07494e-18
8836.44151 4.97872e-18
8838.10914 4.88255e-18
8839.76673 4.87482e-18
8841.42432 4.86707e-18
8843.09196 4.77710e-18
8844.74955 4.68716e-18
8846.40714 4.68132e-18
8848.06473 4.67549e-18
8849.73237 4.67733e-18
8851.38996 4.67921e-18
8853.04755 4.79081e-18
8854.71518 4.90229e-18
8856.37277 4.76571e-18
8858.03036 4.62914e-18
8859.68795 4.53487e-18
8861.35559 4.44063e-18
8863.01318 4.43200e-18
8864.67077 4.42340e-18
8866.32836 4.49416e-18
8867.99599 4.56495e-18
8869.65358 4.67018e-18
8871.31117 4.77538e-18
8872.97881 4.77036e-18
8874.63640 4.76527e-18
8876.29399 4.59346e-18
8877.95158 4.42177e-18
8879.61922 4.56175e-18
8881.27681 4.70164e-18
8882.93440 4.65325e-18
8884.60203 4.60494e-18
8886.25962 4.73349e-18
8887.91721 4.86201e-18
8889.57480 4.88557e-18
8891.24244 4.90902e-18
8892.90003 4.64662e-18
8894.55762 4.38435e-18
8896.21521 4.48015e-18
8897.88284 4.57591e-18
8899.54043 4.57729e-18
8901.19802 4.57864e-18
8902.85561 4.55178e-18
8904.52325 4.52492e-18
8906.18084 4.50733e-18
8907.83843 4.48968e-18
8909.50607 4.30404e-18
8911.16366 4.11850e-18
8912.82125 4.16532e-18
8914.47884 4.21207e-18
8916.14647 4.07850e-18
8917.80406 3.94508e-18
8919.46165 4.13268e-18
8921.11924 4.32019e-18
8922.78688 4.26368e-18
8924.44447 4.20731e-18
8926.10206 4.52740e-18
8927.76969 4.84734e-18
8929.42728 4.79683e-18
8931.08487 4.74617e-18
8932.74246 4.32701e-18
8934.41010 3.90802e-18
8936.06769 3.88554e-18
8937.72528 3.86317e-18
8939.38287 4.10023e-18
8941.05051 4.33708e-18
8942.70810 4.05905e-18
8944.36569 3.78116e-18
8946.03332 3.85636e-18
8947.69091 3.93148e-18
8949.34850 3.83445e-18
8951.00609 3.73752e-18
8952.67373 3.90862e-18
8954.33132 4.07955e-18
8955.98891 3.79426e-18
8957.64650 3.50916e-18
8959.31413 3.66690e-18
8960.97172 3.82460e-18
8962.62931 3.93780e-18
8964.29695 4.05101e-18
8965.95454 4.21852e-18
8967.61213 4.38590e-18
8969.26972 4.26789e-18
8970.93736 4.14991e-18
8972.59495 4.13002e-18
8974.25254 4.11012e-18
8975.92017 4.07526e-18
8977.57776 4.04037e-18
8979.23535 3.93919e-18
8980.89294 3.83809e-18
8982.56058 3.92838e-18
8984.21817 4.01867e-18
8985.87576 4.13325e-18
8987.53335 4.24770e-18
8989.20098 4.06135e-18
8990.85857 3.87505e-18
8992.51616 3.81312e-18
8994.18380 3.75123e-18
8995.84139 3.82902e-18
8997.49898 3.90679e-18
8999.15657 3.97920e-18
9000.82421 4.05163e-18
9002.48180 4.18006e-18
9004.13939 4.30843e-18
9005.79698 4.25571e-18
9007.46461 4.20300e-18
9009.12220 4.17622e-18
9010.77979 4.14951e-18
9012.44743 4.26824e-18
9014.10502 4.38685e-18
9015.76261 4.16722e-18
9017.42020 3.94771e-18
9019.08783 3.98838e-18
9020.74542 4.02898e-18
9022.40301 3.91558e-18
9024.07065 3.80222e-18
9025.72824 3.83555e-18
9027.38583 3.86888e-18
9029.04342 3.94999e-18
9030.71106 4.03114e-18
9032.36865 4.20599e-18
9034.02624 4.38067e-18
9035.68383 4.15000e-18
9037.35146 3.91939e-18
9039.00905 3.84813e-18
9040.66664 3.77693e-18
9042.33428 3.90954e-18
9043.99187 4.04203e-18
9045.64946 3.86251e-18
9047.30705 3.68298e-18
9048.97468 3.49373e-18
9050.63227 3.30467e-18
9052.28986 3.59588e-18
9053.95750 3.88699e-18
9055.61509 3.92973e-18
9057.27268 3.97236e-18
9058.93027 3.75949e-18
9060.59791 3.54668e-18
9062.25550 3.50104e-18
9063.91309 3.45544e-18
9065.57068 3.50093e-18
9067.23831 3.54635e-18
9068.89590 3.39519e-18
9070.55349 3.24417e-18
9072.21108 3.41253e-18
9073.87872 3.58082e-18
9075.53631 3.58352e-18
9077.19390 3.58624e-18
9078.86153 3.62011e-18
9080.51912 3.65385e-18
9082.17671 3.36448e-18
9083.83430 3.07533e-18
9085.50194 3.28858e-18
9087.15953 3.50181e-18
9088.81712 3.63831e-18
9090.48476 3.77469e-18
9092.14235 3.64620e-18
9093.79994 3.51793e-18
9095.45753 3.77023e-18
9097.12516 4.02231e-18
9098.78275 3.74592e-18
9100.44034 3.46973e-18
9102.09793 3.64181e-18
9103.76557 3.81396e-18
9105.42316 4.15240e-18
9107.08075 4.49061e-18
9108.74838 4.31093e-18
9110.40597 4.13124e-18
9112.06356 3.88871e-18
9113.72115 3.64626e-18
9115.38879 3.57462e-18
9117.04638 3.50305e-18
9118.70397 3.58637e-18
9120.36156 3.66965e-18
9122.02920 3.62679e-18
9123.68679 3.58397e-18
9125.34438 3.66648e-18
9127.01201 3.74897e-18
9128.66960 3.85680e-18
9130.32719 3.96459e-18
9131.98478 4.01971e-18
9133.65242 4.07481e-18
9135.31001 4.06744e-18
9136.96760 4.06010e-18
9138.63523 4.13021e-18
9140.29282 4.20025e-18
9141.95041 4.06581e-18
9143.60800 3.93145e-18
9145.27564 3.96154e-18
9146.93323 3.99159e-18
9148.59082 3.93423e-18
9150.24841 3.87682e-18
9151.91605 3.71695e-18
9153.57364 3.55724e-18
9155.23123 3.84293e-18
9156.89886 4.12848e-18
9158.55645 4.15952e-18
9160.21404 4.19051e-18
9161.87163 4.11628e-18
9163.53927 4.04199e-18
9165.19686 3.81512e-18
9166.85445 3.58840e-18
9168.51204 3.75011e-18
9170.17967 3.91175e-18
9171.83726 3.91821e-18
9173.49485 3.92465e-18
9175.15244 3.88085e-18
9176.82008 3.83714e-18
9178.47767 4.04027e-18
9180.13526 4.24335e-18
9181.80290 4.30287e-18
9183.46049 4.36235e-18
9185.11808 4.28449e-18
9186.77567 4.20669e-18
9188.44330 4.25642e-18
9190.10089 4.30610e-18
9191.75848 4.24619e-18
9193.42612 4.18623e-18
9195.08371 4.01458e-18
9196.74130 3.84309e-18
9198.39889 4.09060e-18
9200.06652 4.33800e-18
9201.72411 4.34717e-18
9203.38170 4.35624e-18
9205.03929 4.15244e-18
9206.70693 3.94872e-18
9208.36452 3.94334e-18
9210.02211 3.93804e-18
9211.68975 4.11012e-18
9213.34734 4.28211e-18
9215.00493 4.23477e-18
9216.66252 4.18743e-18
9218.33015 4.11000e-18
9219.98774 4.03258e-18
9221.64533 3.95057e-18
9223.31297 3.86861e-18
9224.97056 3.93113e-18
9226.62815 3.99353e-18
9228.28574 3.76953e-18
9229.95337 3.54577e-18
9231.61096 3.90806e-18
9233.26855 4.27025e-18
9234.92614 4.44549e-18
9236.59378 4.62054e-18
9238.25137 4.35627e-18
9239.90896 4.09206e-18
9241.56655 3.95588e-18
9243.23419 3.81986e-18
9244.89178 4.08777e-18
9246.54937 4.35549e-18
9248.21700 4.15568e-18
9249.87459 3.95596e-18
9251.53218 3.97026e-18
9253.18977 3.98452e-18
9254.85741 3.93926e-18
9256.51500 3.89405e-18
9258.17259 3.94843e-18
9259.84022 4.00282e-18
9261.49781 4.10224e-18
9263.15540 4.20159e-18
9264.81299 4.12851e-18
9266.48063 4.05535e-18
9268.13822 3.79854e-18
9269.79581 3.54196e-18
9271.45340 3.83641e-18
9273.12104 4.13066e-18
9274.77863 3.99071e-18
9276.43622 3.85089e-18
9278.10385 4.06277e-18
9279.76144 4.27446e-18
9281.41903 4.06686e-18
9283.07662 3.85935e-18
9284.74426 3.86484e-18
9286.40185 3.87036e-18
9288.05944 3.96810e-18
9289.71703 4.06568e-18
9291.38466 3.74380e-18
9293.04225 3.42208e-18
9294.69984 3.51797e-18
9296.36748 3.61388e-18
9298.02507 3.75361e-18
9299.68266 3.89328e-18
9301.34025 3.90065e-18
9303.00789 3.90799e-18
9304.66548 3.88533e-18
9306.32307 3.86262e-18
9307.99070 3.70849e-18
9309.64829 3.55440e-18
9311.30588 3.48202e-18
9312.96347 3.40970e-18
9314.63111 3.47835e-18
9316.28870 3.54688e-18
9317.94629 3.32801e-18
9319.60388 3.10913e-18
9321.27151 2.81573e-18
9322.92910 2.52259e-18
9324.58669 2.83552e-18
9326.25433 3.14832e-18
9327.91192 3.19148e-18
9329.56951 3.23465e-18
9331.22710 3.33621e-18
9332.89474 3.43766e-18
9334.55233 3.26624e-18
9336.20992 3.09492e-18
9337.87755 3.15502e-18
9339.53514 3.21511e-18
9341.19273 3.24917e-18
9342.85032 3.28331e-18
9344.51796 3.46545e-18
9346.17555 3.64754e-18
9347.83314 3.69111e-18
9349.49073 3.73447e-18
9351.15836 3.27423e-18
9352.81595 2.81415e-18
9354.47354 2.73316e-18
9356.13113 2.65238e-18
9357.79877 3.08596e-18
9359.45636 3.51935e-18
9361.11395 3.47876e-18
9362.78159 3.43828e-18
9364.43918 3.63049e-18
9366.09677 3.82262e-18
9367.75436 3.82244e-18
9369.42199 3.82225e-18
9371.07958 3.79338e-18
9372.73717 3.76430e-18
9374.40481 3.21072e-18
9376.06240 2.65739e-18
9377.71999 2.67167e-18
9379.37758 2.68604e-18
9381.04521 2.91683e-18
9382.70280 3.14751e-18
9384.36039 3.15882e-18
9386.01798 3.17013e-18
9387.68562 3.17205e-18
9389.34321 3.17395e-18
9391.00080 3.16146e-18
9392.66844 3.14905e-18
9394.32603 3.29454e-18
9395.98362 3.43992e-18
9397.64121 3.29086e-18
9399.30884 3.14187e-18
9400.96643 3.15086e-18
9402.62402 3.15987e-18
9404.28161 3.20179e-18
9405.94925 3.24366e-18
9407.60684 3.15966e-18
9409.26443 3.07577e-18
9410.93206 3.24243e-18
9412.58965 3.40902e-18
9414.24724 3.44039e-18
9415.90483 3.47169e-18
9417.57247 3.33979e-18
9419.23006 3.20794e-18
9420.88765 3.17000e-18
9422.54524 3.13203e-18
9424.21288 2.99566e-18
9425.87047 2.85951e-18
9427.52806 3.22986e-18
9429.19569 3.59995e-18
9430.85328 3.37539e-18
9432.51087 3.15088e-18
9434.16846 3.07931e-18
9435.83610 3.00759e-18
9437.49369 2.61298e-18
9439.15128 2.21847e-18
9440.80887 2.07257e-18
9442.47650 1.92701e-18
9444.13409 2.57441e-18
9445.79168 3.22153e-18
9447.45932 3.20971e-18
9449.11691 3.19792e-18
9450.77450 3.27791e-18
9452.43209 3.35778e-18
9454.09973 3.16438e-18
9455.75732 2.97098e-18
9457.41491 2.73365e-18
9459.07250 2.49647e-18
9460.74013 2.56049e-18
9462.39772 2.62458e-18
9464.05531 2.85161e-18
9465.72295 3.07842e-18
9467.38054 2.77493e-18
9469.03813 2.47166e-18
9470.69572 2.69260e-18
9472.36335 2.91354e-18
9474.02094 3.16258e-18
9475.67853 3.41158e-18
9477.34617 3.53944e-18
9479.00376 3.66718e-18
9480.66135 3.52878e-18
9482.31894 3.39044e-18
9483.98658 3.39368e-18
9485.64417 3.39684e-18
9487.30176 3.16739e-18
9488.95935 2.93802e-18
9490.62698 2.91401e-18
9492.28457 2.88999e-18
9493.94216 2.81519e-18
9495.60980 2.74059e-18
9497.26739 3.10551e-18
9498.92498 3.47021e-18
9500.58257 3.30905e-18
9502.25020 3.14797e-18
9503.90779 3.19581e-18
9505.56538 3.24367e-18
9507.23302 3.31914e-18
9508.89061 3.39447e-18
9510.54820 3.15242e-18
9512.20579 2.91044e-18
9513.87343 2.80625e-18
9515.53102 2.70207e-18
9517.18861 2.64975e-18
9518.84620 2.59759e-18
9520.51383 2.92924e-18
9522.17142 3.26065e-18
9523.82901 3.05914e-18
9525.49665 2.85777e-18
9527.15424 2.93372e-18
9528.81183 3.00960e-18
9530.46942 2.89575e-18
9532.13705 2.78201e-18
9533.79464 2.91507e-18
9535.45223 3.04807e-18
9537.10982 3.07918e-18
9538.77746 3.11029e-18
9540.43505 3.18420e-18
9542.09264 3.25806e-18
9543.76028 3.22323e-18
9545.41787 3.18830e-18
9547.07546 2.93268e-18
9548.73305 2.67711e-18
9550.40068 2.54667e-18
9552.05827 2.41656e-18
9553.71586 3.04741e-18
9555.37345 3.67786e-18
9557.04109 3.39003e-18
9558.69868 3.10231e-18
9560.35627 3.06111e-18
9562.02390 3.01999e-18
9563.68149 3.14286e-18
9565.33908 3.26559e-18
9566.99667 3.09605e-18
9568.66431 2.92660e-18
9570.32190 2.95105e-18
9571.97949 2.97554e-18
9573.64713 3.05093e-18
9575.30472 3.12618e-18
9576.96231 2.88921e-18
9578.61990 2.65234e-18
9580.28753 2.65197e-18
9581.94512 2.65164e-18
9583.60271 2.73587e-18
9585.27035 2.82003e-18
9586.92794 2.71459e-18
9588.58553 2.60918e-18
9590.24312 2.57115e-18
9591.91075 2.53324e-18
9593.56834 2.77206e-18
9595.22593 3.01072e-18
9596.88352 2.89988e-18
9598.55116 2.78917e-18
9600.20875 2.98530e-18
9601.86634 3.18134e-18
9603.52393 3.17618e-18
9605.19157 3.17108e-18
9606.84916 3.30681e-18
9608.50675 3.44233e-18
9610.17438 3.08515e-18
9611.83197 2.72812e-18
9613.48956 2.71477e-18
9615.14715 2.70141e-18
9616.81479 2.67210e-18
9618.47238 2.64282e-18
9620.12997 2.69181e-18
9621.79760 2.74082e-18
9623.45519 2.80335e-18
9625.11278 2.86587e-18
9626.77037 2.92552e-18
9628.43801 2.98517e-18
9630.09560 3.06372e-18
9631.75319 3.14222e-18
9633.41078 3.13438e-18
9635.07842 3.12661e-18
9636.73601 3.29347e-18
9638.39360 3.46015e-18
9640.06123 3.25833e-18
9641.71882 3.05663e-18
9643.37641 3.12646e-18
9645.03400 3.19614e-18
9646.70164 2.91662e-18
9648.35923 2.63730e-18
9650.01682 2.81953e-18
9651.67441 3.00166e-18
9653.34204 2.97697e-18
9654.99963 2.95220e-18
9656.65722 2.74691e-18
9658.31481 2.54177e-18
9659.98245 2.62696e-18
9661.64004 2.71224e-18
9663.29763 3.00218e-18
9664.96527 3.29182e-18
9666.62286 2.89901e-18
9668.28045 2.50648e-18
9669.93804 2.71261e-18
9671.60567 2.91873e-18
9673.26326 3.12954e-18
9674.92085 3.34028e-18
9676.58849 3.39517e-18
9678.24608 3.44996e-18
9679.90367 3.29720e-18
9681.56126 3.14468e-18
9683.22889 3.47278e-18
9684.88648 3.80063e-18
9686.54407 3.54401e-18
9688.20166 3.28733e-18
9689.86930 2.92733e-18
9691.52689 2.56765e-18
9693.18448 2.91088e-18
9694.85212 3.25397e-18
9696.50971 3.29852e-18
9698.16730 3.34316e-18
9699.82489 3.58551e-18
9701.49252 3.82743e-18
9703.15011 3.13494e-18
9704.80770 2.44284e-18
9706.46529 2.59421e-18
9708.13293 2.74556e-18
9709.79052 2.80909e-18
9711.44811 2.87246e-18
9713.11574 2.56932e-18
9714.77333 2.26646e-18
9716.43092 2.57472e-18
9718.08851 2.88297e-18
9719.75615 3.16352e-18
9721.41374 3.44381e-18
9723.07133 3.17282e-18
9724.73897 2.90199e-18
9726.39656 2.95969e-18
9728.05415 3.01741e-18
9729.71174 3.10691e-18
9731.37937 3.19627e-18
9733.03696 3.01690e-18
9734.69455 2.83764e-18
9736.35214 2.91569e-18
9738.01978 2.99376e-18
9739.67737 3.12338e-18
9741.33496 3.25293e-18
9743.00259 3.25076e-18
9744.66018 3.24853e-18
9746.31777 3.08164e-18
9747.97536 2.91476e-18
9749.64300 2.77257e-18
9751.30059 2.63058e-18
9752.95818 2.92087e-18
9754.62582 3.21091e-18
9756.28341 2.97842e-18
9757.94100 2.74609e-18
9759.59859 2.85543e-18
9761.26622 2.96475e-18
9762.92381 3.04565e-18
9764.58140 3.12650e-18
9766.23899 3.07483e-18
9767.90663 3.02327e-18
9769.56422 3.16163e-18
9771.22181 3.29988e-18
9772.87940 3.19017e-18
9774.54703 3.08045e-18
9776.20462 2.91065e-18
9777.86221 2.74085e-18
9779.52985 2.59765e-18
9781.18744 2.45464e-18
9782.84503 2.71142e-18
9784.50262 2.96806e-18
9786.17026 2.90839e-18
9787.82785 2.84909e-18
9789.48544 3.55446e-18
9791.15307 4.25935e-18
9792.81066 3.90330e-18
9794.46825 3.54735e-18
9796.12584 3.36653e-18
9797.79348 3.18584e-18
9799.45107 3.29393e-18
9801.10866 3.40168e-18
9802.76625 2.79196e-18
9804.43388 2.18243e-18
9806.09147 1.98238e-18
9807.74906 1.78265e-18
9809.41670 2.24876e-18
9811.07429 2.71471e-18
9812.73188 2.81162e-18
9814.38947 2.90851e-18
9816.05711 3.00776e-18
9817.71470 3.10693e-18
9819.37229 3.03049e-18
9821.03992 2.95399e-18
9822.69751 2.72047e-18
9824.35510 2.48722e-18
9826.01269 2.83267e-18
9827.68033 3.17788e-18
9829.33792 2.98752e-18
9830.99551 2.79731e-18
9832.65310 2.90296e-18
9834.32073 3.00851e-18
9835.97832 2.92308e-18
9837.63591 2.83761e-18
9839.30355 2.65659e-18
9840.96114 2.47582e-18
9842.61873 2.81936e-18
9844.27632 3.16290e-18
9845.94396 3.52403e-18
9847.60155 3.88490e-18
9849.25914 3.71890e-18
9850.91673 3.55289e-18
9852.58436 3.38455e-18
9854.24195 3.21621e-18
9855.89954 3.06706e-18
9857.56718 2.91798e-18
9859.22477 2.89334e-18
9860.88236 2.86871e-18
9862.53995 2.86142e-18
9864.20758 2.85440e-18
9865.86517 3.41431e-18
9867.52276 3.97391e-18
9869.18035 3.82956e-18
9870.84799 3.68534e-18
9872.50558 3.81683e-18
9874.16317 3.94843e-18
9875.83081 4.30738e-18
9877.48840 4.66587e-18
9879.14599 4.05660e-18
9880.80358 3.44735e-18
9882.47121 2.86252e-18
9884.12880 2.27820e-18
9885.78639 2.75165e-18
9887.44398 3.22500e-18
9889.11162 3.47724e-18
9890.76921 3.72938e-18
9892.42680 3.80626e-18
9894.09443 3.88316e-18
9895.75202 4.00015e-18
9897.40961 4.11712e-18
9899.06720 4.17947e-18
9900.73484 4.24145e-18
9902.39243 3.50351e-18
9904.05002 2.76590e-18
9905.70761 2.69456e-18
9907.37525 2.62321e-18
9909.03284 2.51154e-18
9910.69043 2.39993e-18
9912.35806 2.42882e-18
9914.01565 2.45789e-18
9915.67324 2.87210e-18
9917.33083 3.28603e-18
9918.99847 3.14281e-18
9920.65606 2.99970e-18
9922.31365 3.06444e-18
9923.98128 3.12920e-18
9925.63887 3.21157e-18
9927.29646 3.29397e-18
9928.95405 3.45055e-18
9930.62169 3.60673e-18
9932.27928 2.88564e-18
9933.93687 2.16481e-18
9935.59446 1.96209e-18
9937.26210 1.75981e-18
9938.91969 2.44026e-18
9940.57728 3.12052e-18
9942.23487 3.39931e-18
9943.90250 3.67798e-18
9945.56009 3.67998e-18
9947.21768 3.68175e-18
9948.88532 3.17275e-18
9950.54291 2.66427e-18
9952.20050 3.25144e-18
9953.85809 3.83833e-18
9955.52572 3.82926e-18
9957.18331 3.82000e-18
9958.84090 3.40942e-18
9960.50854 2.99897e-18
9962.16613 2.81995e-18
9963.82372 2.64099e-18
9965.48131 2.53857e-18
9967.14895 2.43610e-18
9968.80654 2.18895e-18
9970.46413 1.94189e-18
9972.12172 1.82383e-18
9973.78935 1.70585e-18
9975.44694 1.72175e-18
9977.10453 1.73788e-18
9978.77217 2.22277e-18
9980.42976 2.70742e-18
9982.08735 2.68256e-18
9983.74494 2.65780e-18
9985.41257 2.84082e-18
9987.07016 3.02387e-18
9988.72775 3.30967e-18
9990.39539 3.59529e-18
9992.05298 3.50047e-18
9993.71057 3.40552e-18
9995.36816 3.06531e-18
9997.03580 2.72499e-18
9998.69339 2.10802e-18
