# wavelength flux
3800.69422 9.81583e-18
3802.16481 2.21805e-18
3803.62525 -5.18221e-18
3805.09584 1.16562e-18
3806.56643 5.37932e-18
3808.03702 2.79202e-18
3809.50761 6.27368e-18
3810.97820 2.58351e-18
3812.44879 -3.15260e-19
3813.91938 5.11059e-18
3815.38997 1.26795e-17
3816.86056 7.94165e-18
3818.33115 3.26763e-19
3819.80174 1.42384e-17
3821.27233 6.13012e-18
3822.74292 1.60261e-18
3824.21351 9.67863e-18
3825.68410 1.31601e-17
3827.15469 3.61003e-18
3828.61514 -9.34943e-19
3830.08573 8.74176e-18
3831.55632 2.52645e-18
3833.02691 7.50264e-18
3834.49750 1.22887e-18
3835.96809 -4.12829e-19
3837.43868 1.38656e-17
3838.90927 6.73701e-18
3840.37986 -2.00250e-18
3841.85045 -2.93470e-18
3843.32104 7.23305e-19
3844.79163 3.26002e-18
3846.26222 9.43882e-18
3847.73281 1.11272e-17
3849.20340 1.35897e-17
3850.67399 1.44622e-17
3852.14458 9.77106e-18
3853.61517 6.62713e-18
3855.07562 1.35136e-17
3856.54621 1.72309e-17
3858.01680 1.56268e-17
3859.48739 2.37588e-17
3860.95798 1.95810e-17
3862.42857 2.53076e-18
3863.89916 4.33915e-18
3865.36975 9.35703e-18
3866.84034 8.03919e-19
3868.31093 1.24926e-17
3869.78152 1.78131e-17
3871.25211 1.08215e-17
3872.72270 6.71477e-18
3874.19329 1.17700e-17
3875.66388 5.61682e-18
3877.13447 2.11477e-18
3878.60506 8.54716e-18
3880.06551 1.42289e-17
3881.53610 1.12492e-17
3883.00669 7.07973e-18
3884.47728 7.36580e-18
3885.94787 6.08149e-18
3887.41846 4.34220e-18
3888.88905 6.08092e-19
3890.35964 5.86945e-21
3891.83023 3.45315e-18
3893.30082 -4.76917e-18
3894.77141 -3.17603e-18
3896.24200 3.07543e-19
3897.71259 1.38881e-18
3899.18318 6.28961e-18
3900.65377 2.78305e-17
3902.12436 1.63401e-17
3903.59495 6.82380e-18
3905.05540 1.02392e-17
3906.52599 8.99724e-18
3907.99658 1.67333e-17
3909.46717 1.77578e-17
3910.93776 1.29876e-17
3912.40835 1.39186e-17
3913.87894 9.44720e-18
3915.34953 6.67381e-18
3916.82012 5.80534e-18
3918.29071 1.02719e-17
3919.76130 1.02426e-17
3921.23189 8.73532e-18
3922.70248 7.45300e-18
3924.17307 5.42384e-18
3925.64366 1.02070e-17
3927.11425 1.20229e-17
3928.58484 1.14580e-17
3930.04528 1.50785e-17
3931.51587 1.38106e-17
3932.98646 1.29690e-17
3934.45705 1.25913e-17
3935.92764 6.05675e-18
3937.39823 1.24342e-18
3938.86882 4.82949e-18
3940.33941 3.60367e-18
3941.81000 9.11360e-19
3943.28059 8.61890e-18
3944.75118 1.32809e-17
3946.22177 1.29004e-17
3947.69236 1.17661e-17
3949.16295 8.05594e-18
3950.63354 4.81945e-18
3952.10413 2.75058e-18
3953.57472 3.88956e-18
3955.03517 8.77982e-18
3956.50576 1.15157e-17
3957.97635 1.23019e-17
3959.44694 1.63733e-17
3960.91753 1.53379e-17
3962.38812 1.04181e-17
3963.85871 9.49688e-18
3965.32930 1.04781e-17
3966.79989 1.24172e-17
3968.27048 1.39488e-17
3969.74107 1.45995e-17
3971.21166 1.59560e-17
3972.68225 1.35707e-17
3974.15284 8.82620e-18
3975.62343 1.06905e-17
3977.09402 1.33582e-17
3978.56461 1.04427e-17
3980.02506 1.48290e-17
3981.49565 1.97432e-17
3982.96624 1.82398e-17
3984.43683 1.69986e-17
3985.90742 1.27530e-17
3987.37801 1.00518e-17
3988.84860 1.32987e-17
3990.31919 1.39848e-17
3991.78978 1.38393e-17
3993.26037 1.24782e-17
3994.73096 1.33543e-17
3996.20155 1.85075e-17
3997.67214 2.03850e-17
3999.14273 1.57741e-17
4000.61332 7.90727e-18
4002.08391 9.25473e-18
4003.55450 1.63787e-17
4005.02509 1.71294e-17
4006.48554 1.35936e-17
4007.95613 1.08407e-17
4009.42672 1.02355e-17
4010.89731 9.83451e-18
4012.36790 1.02156e-17
4013.83849 1.26787e-17
4015.30908 1.72717e-17
4016.77967 1.83647e-17
4018.25026 1.16766e-17
4019.72085 1.08548e-17
4021.19144 1.60698e-17
4022.66203 1.40236e-17
4024.13262 1.62921e-17
4025.60321 1.94455e-17
4027.07380 1.60943e-17
4028.54439 1.41744e-17
4030.01498 1.54924e-17
4031.47543 1.54643e-17
4032.94602 1.40939e-17
4034.41661 1.76700e-17
4035.88720 1.98763e-17
4037.35779 1.79565e-17
4038.82838 1.42379e-17
4040.29897 1.55783e-17
4041.76956 1.73625e-17
4043.24015 1.78556e-17
4044.71074 1.85094e-17
4046.18133 1.92052e-17
4047.65192 2.06068e-17
4049.12251 1.66978e-17
4050.59310 1.48064e-17
4052.06369 1.79156e-17
4053.53428 2.02934e-17
4055.00487 2.00766e-17
4056.46531 2.03480e-17
4057.93590 2.04483e-17
4059.40649 1.90270e-17
4060.87708 1.30680e-17
4062.34767 1.14136e-17
4063.81826 1.51047e-17
4065.28885 1.83451e-17
4066.75944 2.03528e-17
4068.23003 2.13913e-17
4069.70062 2.00908e-17
4071.17121 1.93752e-17
4072.64180 2.16898e-17
4074.11239 2.30498e-17
4075.58298 1.98693e-17
4077.05357 1.63857e-17
4078.52416 1.56918e-17
4079.99475 1.63279e-17
4081.45520 1.81432e-17
4082.92579 1.74749e-17
4084.39638 1.82314e-17
4085.86697 1.65513e-17
4087.33756 1.63635e-17
4088.80815 2.15785e-17
4090.27874 2.02544e-17
4091.74933 1.89188e-17
4093.21992 2.07111e-17
4094.69051 2.32546e-17
4096.16110 2.12476e-17
4097.63169 1.80922e-17
4099.10228 1.79481e-17
4100.57287 1.91948e-17
4102.04346 1.93713e-17
4103.51405 2.24730e-17
4104.98464 2.11763e-17
4106.45523 1.52096e-17
4107.91568 1.55542e-17
4109.38627 1.95678e-17
4110.85686 1.79084e-17
4112.32745 1.41763e-17
4113.79804 1.65926e-17
4115.26863 2.22014e-17
4116.73922 2.11811e-17
4118.20981 1.65164e-17
4119.68040 1.76451e-17
4121.15099 1.78360e-17
4122.62158 1.54335e-17
4124.09217 1.52101e-17
4125.56276 1.63983e-17
4127.03335 1.69451e-17
4128.50394 1.45490e-17
4129.97453 1.23655e-17
4131.43498 1.57493e-17
4132.90557 1.79481e-17
4134.37616 1.55110e-17
4135.84675 1.31851e-17
4137.31734 1.37207e-17
4138.78793 1.73344e-17
4140.25852 1.78324e-17
4141.72911 1.90781e-17
4143.19970 1.41284e-17
4144.67029 1.13833e-17
4146.14088 1.27431e-17
4147.61147 1.30004e-17
4149.08206 1.36423e-17
4150.55265 1.19280e-17
4152.02324 1.13790e-17
4153.49383 1.27725e-17
4154.96442 1.32562e-17
4156.43501 1.44997e-17
4157.89546 1.63322e-17
4159.36605 1.51822e-17
4160.83664 1.47543e-17
4162.30723 1.53516e-17
4163.77782 1.48954e-17
4165.24841 1.24441e-17
4166.71900 1.33845e-17
4168.18959 1.37613e-17
4169.66018 1.13349e-17
4171.13077 1.15099e-17
4172.60136 1.43800e-17
4174.07195 1.34156e-17
4175.54254 1.22002e-17
4177.01313 1.53852e-17
4178.48372 1.43059e-17
4179.95431 1.37299e-17
4181.42490 1.30808e-17
4182.88534 1.29542e-17
4184.35593 1.30662e-17
4185.82652 1.27776e-17
4187.29711 8.07943e-18
4188.76770 8.89958e-18
4190.23829 9.24423e-18
4191.70888 1.15839e-17
4193.17947 1.34492e-17
4194.65006 1.10797e-17
4196.12065 1.43810e-17
4197.59124 1.04390e-17
4199.06183 7.93124e-18
4200.53242 1.19618e-17
4202.00301 1.61033e-17
4203.47360 8.85364e-18
4204.94419 1.14370e-17
4206.41478 1.58537e-17
4207.87523 1.47647e-17
4209.34582 1.20312e-17
4210.81641 1.10524e-17
4212.28700 1.11015e-17
4213.75759 1.07169e-17
4215.22818 1.06894e-17
4216.69877 6.80610e-18
4218.16936 1.17675e-17
4219.63995 1.45426e-17
4221.11054 1.40643e-17
4222.58113 1.48389e-17
4224.05172 1.21163e-17
4225.52231 1.42196e-17
4226.99290 1.20120e-17
4228.46349 9.34771e-18
4229.93408 1.32756e-17
4231.40467 1.22128e-17
4232.86512 1.24360e-17
4234.33571 1.08897e-17
4235.80630 8.95426e-18
4237.27689 1.13660e-17
4238.74748 1.07922e-17
4240.21807 1.12673e-17
4241.68866 1.14218e-17
4243.15925 1.04556e-17
4244.62984 9.77530e-18
4246.10043 1.09456e-17
4247.57102 1.03789e-17
4249.04161 1.08929e-17
4250.51220 1.16590e-17
4251.98279 1.24885e-17
4253.45338 1.17906e-17
4254.92397 1.04083e-17
4256.39456 8.85685e-18
4257.86515 9.76281e-18
4259.32560 9.31835e-18
4260.79619 1.00014e-17
4262.26678 1.14752e-17
4263.73737 1.09160e-17
4265.20796 1.03803e-17
4266.67855 8.92201e-18
4268.14914 1.02668e-17
4269.61973 1.10446e-17
4271.09032 1.11325e-17
4272.56091 8.87326e-18
4274.03150 9.43923e-18
4275.50209 1.04230e-17
4276.97268 7.34613e-18
4278.44327 9.45038e-18
4279.91386 1.03457e-17
4281.38445 9.81633e-18
4282.85504 1.06904e-17
4284.31549 8.94051e-18
4285.78608 9.52283e-18
4287.25667 8.84368e-18
4288.72726 8.45893e-18
4290.19785 1.02201e-17
4291.66844 1.32474e-17
4293.13903 1.19776e-17
4294.60962 8.76675e-18
4296.08021 8.10964e-18
4297.55080 9.22245e-18
4299.02139 1.28428e-17
4300.49198 1.27281e-17
4301.96257 1.32410e-17
4303.43316 1.39777e-17
4304.90375 1.18278e-17
4306.37434 7.77508e-18
4307.83478 7.96558e-18
4309.30537 9.74529e-18
4310.77596 9.80776e-18
4312.24655 1.20647e-17
4313.71714 1.41631e-17
4315.18773 1.07336e-17
4316.65832 1.12759e-17
4318.12891 1.01423e-17
4319.59950 1.23889e-17
4321.07009 1.41065e-17
4322.54068 1.24190e-17
4324.01127 1.00578e-17
4325.48186 9.44982e-18
4326.95245 9.72498e-18
4328.42304 1.00114e-17
4329.89363 8.51179e-18
4331.36422 7.95322e-18
4332.83481 1.10587e-17
4334.29526 1.13011e-17
4335.76585 1.20243e-17
4337.23644 1.17432e-17
4338.70703 1.17772e-17
4340.17762 8.96514e-18
4341.64821 1.00908e-17
4343.11880 1.04501e-17
4344.58939 1.01220e-17
4346.05998 8.90544e-18
4347.53057 9.69994e-18
4349.00116 1.02848e-17
4350.47175 1.18347e-17
4351.94234 1.17833e-17
4353.41293 8.17308e-18
4354.88352 1.22121e-17
4356.35411 1.06001e-17
4357.82470 9.66652e-18
4359.28515 9.48318e-18
4360.75574 1.08382e-17
4362.22633 9.01389e-18
4363.69692 7.11945e-18
4365.16751 1.22525e-17
4366.63810 9.61235e-18
4368.10869 9.93339e-18
4369.57928 1.08169e-17
4371.04987 1.08391e-17
4372.52046 8.80430e-18
4373.99105 1.21984e-17
4375.46164 9.56279e-18
4376.93223 4.61684e-18
4378.40282 7.97229e-18
4379.87341 8.88426e-18
4381.34400 1.03657e-17
4382.81459 1.18409e-17
4384.28518 8.68658e-18
4385.74563 7.71502e-18
4387.21622 7.79418e-18
4388.68681 6.85251e-18
4390.15740 7.09882e-18
4391.62799 6.95371e-18
4393.09858 7.14030e-18
4394.56917 5.53883e-18
4396.03976 8.44589e-18
4397.51035 9.41571e-18
4398.98094 1.06418e-17
4400.45153 9.72521e-18
4401.92212 6.12010e-18
4403.39271 8.82746e-18
4404.86330 8.94416e-18
4406.33389 7.64337e-18
4407.80448 7.69731e-18
4409.27507 7.75125e-18
4410.73552 7.80518e-18
4412.20611 7.85908e-18
4413.67670 7.91299e-18
4415.14729 7.96685e-18
4416.61788 8.02074e-18
4418.08847 8.07460e-18
4419.55906 8.12846e-18
4421.02965 8.18229e-18
4422.50024 8.23613e-18
4423.97083 8.28994e-18
4425.44142 8.34374e-18
4426.91201 8.39754e-18
4428.38260 8.45132e-18
4429.85319 8.50510e-18
4431.32378 8.55885e-18
4432.79437 8.61261e-18
4434.25481 8.66632e-18
4435.72540 8.72006e-18
4437.19599 8.77378e-18
4438.66658 8.82747e-18
4440.13717 8.88117e-18
4441.60776 8.93484e-18
4443.07835 8.98850e-18
4444.54894 9.04215e-18
4446.01953 7.90054e-18
4447.49012 5.06337e-18
4448.96071 7.11854e-18
4450.43130 9.05034e-18
4451.90189 6.28365e-18
4453.37248 6.76006e-18
4454.84307 8.95496e-18
4456.31366 1.10686e-17
4457.78425 9.32531e-18
4459.25484 6.94274e-18
4460.72543 8.47423e-18
4462.18588 1.01537e-17
4463.65647 9.83054e-18
4465.12706 1.11382e-17
4466.59765 1.09501e-17
4468.06824 1.04438e-17
4469.53883 1.12775e-17
4471.00942 1.04301e-17
4472.48001 1.06778e-17
4473.95060 1.24516e-17
4475.42119 1.29536e-17
4476.89178 1.06016e-17
4478.36237 9.74474e-18
4479.83296 1.18801e-17
4481.30355 1.13049e-17
4482.77414 1.04674e-17
4484.24473 9.75515e-18
4485.70518 1.03584e-17
4487.17577 1.11591e-17
4488.64636 1.08771e-17
4490.11695 9.65489e-18
4491.58754 1.14971e-17
4493.05813 1.14837e-17
4494.52872 9.00759e-18
4495.99931 7.67448e-18
4497.46990 8.60534e-18
4498.94049 9.78110e-18
4500.41108 1.04269e-17
4501.88167 1.00038e-17
4503.35226 8.85578e-18
4504.82285 1.00969e-17
4506.29344 1.06329e-17
4507.76403 1.03512e-17
4509.23462 1.13458e-17
4510.70521 1.23781e-17
4512.16566 1.02224e-17
4513.63625 1.03130e-17
4515.10684 1.13223e-17
4516.57743 1.20410e-17
4518.04802 1.21009e-17
4519.51861 8.82068e-18
4520.98920 7.60572e-18
4522.45979 8.39210e-18
4523.93038 8.12975e-18
4525.40097 9.74657e-18
4526.87156 1.06566e-17
4528.34215 1.09342e-17
4529.81274 1.12195e-17
4531.28333 1.09565e-17
4532.75392 1.02185e-17
4534.22451 9.94766e-18
4535.69510 1.06249e-17
4537.15555 1.03477e-17
4538.62614 9.16400e-18
4540.09673 9.77683e-18
4541.56732 1.12299e-17
4543.03791 1.14778e-17
4544.50850 1.06557e-17
4545.97909 1.00562e-17
4547.44968 8.72776e-18
4548.92027 8.35208e-18
4550.39086 1.11252e-17
4551.86145 1.13181e-17
4553.33204 1.01246e-17
4554.80263 1.12190e-17
4556.27322 1.15389e-17
4557.74381 1.04314e-17
4559.21440 1.12383e-17
4560.68499 1.16596e-17
4562.14543 9.67306e-18
4563.61602 9.97390e-18
4565.08661 1.02651e-17
4566.55720 1.11834e-17
4568.02779 1.34379e-17
4569.49838 1.17606e-17
4570.96897 9.68969e-18
4572.43956 1.11069e-17
4573.91015 1.24809e-17
4575.38074 1.19963e-17
4576.85133 1.16688e-17
4578.32192 1.21471e-17
4579.79251 1.31150e-17
4581.26310 1.34007e-17
4582.73369 1.33360e-17
4584.20428 1.37841e-17
4585.67487 1.25718e-17
4587.14546 1.19760e-17
4588.60591 1.33337e-17
4590.07650 1.32775e-17
4591.54709 1.38296e-17
4593.01768 1.38745e-17
4594.48827 1.29564e-17
4595.95886 1.31649e-17
4597.42945 1.31085e-17
4598.90004 1.49705e-17
4600.37063 1.59770e-17
4601.84122 1.44370e-17
4603.31181 1.41105e-17
4604.78240 1.44225e-17
4606.25299 1.49590e-17
4607.72358 1.66429e-17
4609.19417 1.59212e-17
4610.66476 1.50206e-17
4612.12521 1.62743e-17
4613.59580 1.49762e-17
4615.06639 1.42536e-17
4616.53698 1.61444e-17
4618.00757 1.65064e-17
4619.47816 1.58481e-17
4620.94875 1.74471e-17
4622.41934 1.69891e-17
4623.88993 1.56443e-17
4625.36052 1.57605e-17
4626.83111 1.42527e-17
4628.30170 1.49851e-17
4629.77229 1.77965e-17
4631.24288 1.70618e-17
4632.71347 1.60638e-17
4634.18406 1.69940e-17
4635.65465 1.68243e-17
4637.12524 1.59129e-17
4638.58569 1.53872e-17
4640.05628 1.64618e-17
4641.52687 1.86932e-17
4642.99746 1.81482e-17
4644.46805 1.55800e-17
4645.93864 1.39506e-17
4647.40923 1.66181e-17
4648.87982 1.92160e-17
4650.35041 1.77450e-17
4651.82100 1.70734e-17
4653.29159 1.80935e-17
4654.76218 1.77748e-17
4656.23277 1.81681e-17
4657.70336 1.85293e-17
4659.17395 1.98794e-17
4660.64454 1.85726e-17
4662.10499 1.65362e-17
4663.57558 1.61037e-17
4665.04617 1.66633e-17
4666.51676 1.75678e-17
4667.98735 1.82041e-17
4669.45794 1.88252e-17
4670.92853 1.72763e-17
4672.39912 1.70196e-17
4673.86971 1.94438e-17
4675.34030 1.80052e-17
4676.81089 1.56861e-17
4678.28148 1.70883e-17
4679.75207 1.80083e-17
4681.22266 1.85397e-17
4682.69325 1.81238e-17
4684.16384 1.85230e-17
4685.63443 2.03415e-17
4687.10502 1.92372e-17
4688.56546 1.88938e-17
4690.03605 1.91187e-17
4691.50664 1.66872e-17
4692.97723 1.79367e-17
4694.44782 2.12420e-17
4695.91841 1.97379e-17
4697.38900 1.79327e-17
4698.85959 1.95304e-17
4700.33018 2.20455e-17
4701.80077 2.12424e-17
4703.27136 2.20593e-17
4704.74195 2.10277e-17
4706.21254 1.82369e-17
4707.68313 1.85890e-17
4709.15372 2.07559e-17
4710.62431 2.06062e-17
4712.09490 1.86295e-17
4713.55535 1.80318e-17
4715.02594 1.83741e-17
4716.49653 1.93733e-17
4717.96712 1.84739e-17
4719.43771 2.01965e-17
4720.90830 1.83019e-17
4722.37889 1.82491e-17
4723.84948 2.00630e-17
4725.32007 1.85737e-17
4726.79066 1.83308e-17
4728.26125 1.69626e-17
4729.73184 1.95670e-17
4731.20243 2.18776e-17
4732.67302 1.95127e-17
4734.14361 1.90100e-17
4735.61420 1.81046e-17
4737.08479 1.93190e-17
4738.54524 1.93558e-17
4740.01583 1.75367e-17
4741.48642 1.76135e-17
4742.95701 1.57084e-17
4744.42760 1.80949e-17
4745.89819 1.87823e-17
4747.36878 1.85348e-17
4748.83937 1.92760e-17
4750.30996 1.88024e-17
4751.78055 1.87840e-17
4753.25114 1.87291e-17
4754.72173 1.91379e-17
4756.19232 1.87418e-17
4757.66291 1.97901e-17
4759.13350 1.91910e-17
4760.60409 1.80161e-17
4762.07468 1.84254e-17
4763.54527 1.99299e-17
4765.00572 1.79772e-17
4766.47631 1.66242e-17
4767.94690 1.64834e-17
4769.41749 1.88503e-17
4770.88808 1.77013e-17
4772.35867 1.60732e-17
4773.82926 1.59179e-17
4775.29985 1.48345e-17
4776.77044 1.48107e-17
4778.24103 1.63981e-17
4779.71162 1.61312e-17
4781.18221 1.53743e-17
4782.65280 1.65384e-17
4784.12339 1.57913e-17
4785.59398 1.86712e-17
4787.06457 1.86724e-17
4788.52502 1.79960e-17
4789.99561 1.59251e-17
4791.46620 1.57952e-17
4792.93679 1.82032e-17
4794.40738 1.72669e-17
4795.87797 1.86098e-17
4797.34856 1.64371e-17
4798.81915 1.60857e-17
4800.28974 1.66955e-17
4801.76033 1.56606e-17
4803.23092 1.58634e-17
4804.70151 1.68894e-17
4806.17210 1.68809e-17
4807.64269 1.57552e-17
4809.11328 1.73162e-17
4810.58387 1.47248e-17
4812.05446 1.76942e-17
4813.51490 1.70033e-17
4814.98549 1.50282e-17
4816.45608 1.52235e-17
4817.92667 1.42624e-17
4819.39726 1.51095e-17
4820.86785 1.76723e-17
4822.33844 1.60051e-17
4823.80903 1.26732e-17
4825.27962 1.32079e-17
4826.75021 1.46155e-17
4828.22080 1.51205e-17
4829.69139 1.62775e-17
4831.16198 1.37439e-17
4832.63257 1.49667e-17
4834.10316 1.41740e-17
4835.57375 1.33233e-17
4837.04434 1.46042e-17
4838.51493 1.23032e-17
4839.97538 1.31016e-17
4841.44597 1.19815e-17
4842.91656 1.38287e-17
4844.38715 1.36300e-17
4845.85774 1.19723e-17
4847.32833 1.05170e-17
4848.79892 1.08628e-17
4850.26951 1.20230e-17
4851.74010 1.25786e-17
4853.21069 1.32664e-17
4854.68128 1.14641e-17
4856.15187 1.09565e-17
4857.62246 1.31617e-17
4859.09305 1.29558e-17
4860.56364 1.11031e-17
4862.03423 1.19859e-17
4863.50482 1.09725e-17
4864.96527 1.16278e-17
4866.43586 9.62159e-18
4867.90645 9.56964e-18
4869.37704 7.43564e-18
4870.84763 7.62724e-18
4872.31822 1.03543e-17
4873.78881 8.55994e-18
4875.25940 1.04067e-17
4876.72999 9.67317e-18
4878.20058 9.13647e-18
4879.67117 1.02988e-17
4881.14176 8.70286e-18
4882.61235 8.09695e-18
4884.08294 1.01471e-17
4885.55353 7.86304e-18
4887.02412 7.83655e-18
4888.49471 8.71778e-18
4889.95516 8.08094e-18
4891.42575 7.17945e-18
4892.89634 7.47723e-18
4894.36693 7.66996e-18
4895.83752 6.02116e-18
4897.30811 6.24084e-18
4898.77870 7.85583e-18
4900.24929 8.72785e-18
4901.71988 7.70462e-18
4903.19047 5.36055e-18
4904.66106 6.56017e-18
4906.13165 7.16197e-18
4907.60224 7.46474e-18
4909.07283 7.86188e-18
4910.54342 7.44606e-18
4912.01401 7.03141e-18
4913.48460 7.03856e-18
4914.95519 7.04571e-18
4916.41564 7.05286e-18
4917.88623 7.06000e-18
4919.35682 7.06714e-18
4920.82741 7.07429e-18
4922.29800 7.08143e-18
4923.76859 7.08857e-18
4925.23918 7.09571e-18
4926.70977 7.10285e-18
4928.18036 7.10998e-18
4929.65095 7.11711e-18
4931.12154 7.12425e-18
4932.59213 7.13138e-18
4934.06272 7.13851e-18
4935.53331 7.14564e-18
4937.00390 7.15276e-18
4938.47449 7.15989e-18
4939.93493 7.16701e-18
4941.40552 7.17414e-18
4942.87611 7.18126e-18
4944.34670 7.18838e-18
4945.81729 7.19549e-18
4947.28788 7.20261e-18
4948.75847 7.20972e-18
4950.22906 5.89270e-18
4951.69965 6.82864e-18
4953.17024 7.00036e-18
4954.64083 8.74103e-18
4956.11142 8.63057e-18
4957.58201 8.36632e-18
4959.05260 9.21104e-18
4960.52319 8.13713e-18
4961.99378 7.73875e-18
4963.46437 9.51862e-18
4964.93496 9.37580e-18
4966.39541 9.10137e-18
4967.86600 1.01721e-17
4969.33659 9.66092e-18
4970.80718 9.26269e-18
4972.27777 7.96248e-18
4973.74836 8.66231e-18
4975.21895 1.10273e-17
4976.68954 1.08040e-17
4978.16013 1.12260e-17
4979.63072 1.01215e-17
4981.10131 1.05297e-17
4982.57190 1.06908e-17
4984.04249 1.03074e-17
4985.51308 1.03468e-17
4986.98367 1.15178e-17
4988.45426 1.08136e-17
4989.92485 1.00048e-17
4991.38530 1.02277e-17
4992.85589 1.03238e-17
4994.32648 1.26309e-17
4995.79707 1.14052e-17
4997.26766 1.01257e-17
4998.73825 1.23750e-17
5000.20884 1.53218e-17
5001.67943 1.41808e-17
5003.15002 1.15140e-17
5004.62061 1.18197e-17
5006.09120 1.38451e-17
5007.56179 1.54590e-17
5009.03238 1.41487e-17
5010.50297 1.47882e-17
5011.97356 1.50072e-17
5013.44415 1.52260e-17
5014.91474 1.54449e-17
5016.37519 1.56636e-17
5017.84578 1.58824e-17
5019.31637 1.61011e-17
5020.78696 1.63198e-17
5022.25755 1.65383e-17
5023.72814 1.67569e-17
5025.19873 1.69755e-17
5026.66932 1.71939e-17
5028.13991 1.74123e-17
5029.61050 1.76307e-17
5031.08109 1.78490e-17
5032.55168 1.80673e-17
5034.02227 1.82855e-17
5035.49286 1.85038e-17
5036.96345 1.87218e-17
5038.43404 1.89399e-17
5039.90463 1.91579e-17
5041.37522 1.93760e-17
5042.83567 1.95939e-17
5044.30626 1.98119e-17
5045.77685 2.00296e-17
5047.24744 2.02475e-17
5048.71803 2.04653e-17
5050.18862 1.93163e-17
5051.65921 1.95166e-17
5053.12980 2.12598e-17
5054.60039 2.16013e-17
5056.07098 2.10740e-17
5057.54157 2.10828e-17
5059.01216 2.07259e-17
5060.48275 2.07017e-17
5061.95334 2.06775e-17
5063.42393 2.06534e-17
5064.89452 2.06293e-17
5066.35496 2.06051e-17
5067.82555 2.05810e-17
5069.29614 2.05569e-17
5070.76673 2.05328e-17
5072.23732 2.05086e-17
5073.70791 2.04845e-17
5075.17850 2.04604e-17
5076.64909 2.04364e-17
5078.11968 2.04123e-17
5079.59027 2.03882e-17
5081.06086 2.03641e-17
5082.53145 2.03400e-17
5084.00204 2.03160e-17
5085.47263 2.02919e-17
5086.94322 2.02679e-17
5088.41381 2.02438e-17
5089.88440 2.02198e-17
5091.35499 2.01958e-17
5092.81544 2.01717e-17
5094.28603 2.01477e-17
5095.75662 2.01237e-17
5097.22721 2.00997e-17
5098.69780 1.95484e-17
5100.16839 1.80816e-17
5101.63898 1.79772e-17
5103.10957 1.78085e-17
5104.58016 1.79453e-17
5106.05075 1.69680e-17
5107.52134 1.54427e-17
5108.99193 1.61616e-17
5110.46252 1.53379e-17
5111.93311 1.42701e-17
5113.40370 1.54440e-17
5114.87429 1.62627e-17
5116.34488 1.54276e-17
5117.80533 1.43869e-17
5119.27592 1.51253e-17
5120.74651 1.53755e-17
5122.21710 1.41887e-17
5123.68769 1.31245e-17
5125.15828 1.38093e-17
5126.62887 1.33638e-17
5128.09946 1.25594e-17
5129.57005 1.33060e-17
5131.04064 1.22997e-17
5132.51123 1.17150e-17
5133.98182 1.28376e-17
5135.45241 1.30336e-17
5136.92300 1.25677e-17
5138.39359 1.30710e-17
5139.86418 1.29910e-17
5141.33477 1.29688e-17
5142.79522 1.33013e-17
5144.26581 1.23532e-17
5145.73640 1.22110e-17
5147.20699 1.25343e-17
5148.67758 1.18043e-17
5150.14817 1.19674e-17
5151.61876 1.22361e-17
5153.08935 1.12475e-17
5154.55994 1.12771e-17
5156.03053 1.20943e-17
5157.50112 1.17319e-17
5158.97171 1.13332e-17
5160.44230 1.16152e-17
5161.91289 1.20464e-17
5163.38348 1.23237e-17
5164.85407 1.21516e-17
5166.32466 1.24329e-17
5167.79525 1.28198e-17
5169.25570 1.21458e-17
5170.72629 1.12047e-17
5172.19688 1.11677e-17
5173.66747 1.17497e-17
5175.13806 1.25710e-17
5176.60865 1.30244e-17
5178.07924 1.26634e-17
5179.54983 1.31838e-17
5181.02042 1.41133e-17
5182.49101 1.43027e-17
5183.96160 1.37534e-17
5185.43219 1.35482e-17
5186.90278 1.38916e-17
5188.37337 1.30298e-17
5189.84396 1.18648e-17
5191.31455 1.18449e-17
5192.77499 1.28713e-17
5194.24558 1.28752e-17
5195.71617 1.26453e-17
5197.18676 1.30837e-17
5198.65735 1.20776e-17
5200.12794 1.22755e-17
5201.59853 1.39511e-17
5203.06912 1.36291e-17
5204.53971 1.38501e-17
5206.01030 1.48797e-17
5207.48089 1.41041e-17
5208.95148 1.41328e-17
5210.42207 1.55531e-17
5211.89266 1.56378e-17
5213.36325 1.41964e-17
5214.83384 1.37420e-17
5216.30443 1.36587e-17
5217.77502 1.31474e-17
5219.24561 1.26054e-17
5220.70606 1.33498e-17
5222.17665 1.47082e-17
5223.64724 1.42350e-17
5225.11783 1.37315e-17
5226.58842 1.40687e-17
5228.05901 1.40700e-17
5229.52960 1.35244e-17
5231.00019 1.37695e-17
5232.47078 1.41570e-17
5233.94137 1.42784e-17
5235.41196 1.45715e-17
5236.88255 1.35551e-17
5238.35314 1.23847e-17
5239.82373 1.31743e-17
5241.29432 1.46631e-17
5242.75477 1.27344e-17
5244.22536 1.26882e-17
5245.69595 1.35708e-17
5247.16654 1.45803e-17
5248.63713 1.46614e-17
5250.10772 1.29747e-17
5251.57831 1.19847e-17
5253.04890 1.30219e-17
5254.51949 1.44604e-17
5255.99008 1.41777e-17
5257.46067 1.29737e-17
5258.93126 1.28002e-17
5260.40185 1.37798e-17
5261.87244 1.43599e-17
5263.34303 1.39296e-17
5264.81362 1.26898e-17
5266.28421 1.18218e-17
5267.75480 1.24011e-17
5269.21525 1.34185e-17
5270.68584 1.34110e-17
5272.15643 1.27336e-17
5273.62702 1.19995e-17
5275.09761 1.19225e-17
5276.56820 1.37012e-17
5278.03879 1.35506e-17
5279.50938 1.32458e-17
5280.97997 1.38147e-17
5282.45056 1.24187e-17
5283.92115 1.30273e-17
5285.39174 1.36461e-17
5286.86233 1.22569e-17
5288.33292 1.20706e-17
5289.80351 1.23454e-17
5291.27410 1.35172e-17
5292.74469 1.47264e-17
5294.20514 1.45718e-17
5295.67573 1.31607e-17
5297.14632 1.09941e-17
5298.61691 1.25184e-17
5300.08750 1.39958e-17
5301.55809 1.35084e-17
5303.02868 1.50256e-17
5304.49927 1.35602e-17
5305.96986 1.32120e-17
5307.44045 1.37644e-17
5308.91104 1.44357e-17
5310.38163 1.41189e-17
5311.85222 1.17102e-17
5313.32281 1.25118e-17
5314.79340 1.43453e-17
5316.26399 1.26578e-17
5317.73458 1.28776e-17
5319.20517 1.31379e-17
5320.66561 1.24690e-17
5322.13620 1.27282e-17
5323.60679 1.35627e-17
5325.07738 1.32125e-17
5326.54797 1.50224e-17
5328.01856 1.40931e-17
5329.48915 1.35276e-17
5330.95974 1.46239e-17
5332.43033 1.55564e-17
5333.90092 1.40683e-17
5335.37151 1.38423e-17
5336.84210 1.60026e-17
5338.31269 1.69468e-17
5339.78328 1.63543e-17
5341.25387 1.53738e-17
5342.72446 1.53223e-17
5344.19505 1.43210e-17
5345.65550 1.54760e-17
5347.12609 1.46466e-17
5348.59668 1.45252e-17
5350.06727 1.65272e-17
5351.53786 1.60544e-17
5353.00845 1.63354e-17
5354.47904 1.61121e-17
5355.94963 1.55807e-17
5357.42022 1.49409e-17
5358.89081 1.66738e-17
5360.36140 1.59067e-17
5361.83199 1.52943e-17
5363.30258 1.53082e-17
5364.77317 1.59639e-17
5366.24376 1.57640e-17
5367.71435 1.70725e-17
5369.18494 1.75848e-17
5370.64539 1.84680e-17
5372.11598 1.85483e-17
5373.58657 1.68422e-17
5375.05716 1.58239e-17
5376.52775 1.57959e-17
5377.99834 1.63806e-17
5379.46893 1.56199e-17
5380.93952 1.60560e-17
5382.41011 1.67914e-17
5383.88070 1.74797e-17
5385.35129 1.76963e-17
5386.82188 1.61189e-17
5388.29247 1.69031e-17
5389.76306 1.81530e-17
5391.23365 1.76938e-17
5392.70424 1.74596e-17
5394.17483 1.66987e-17
5395.63528 1.61633e-17
5397.10587 1.54805e-17
5398.57646 1.70733e-17
5400.04705 1.77712e-17
5401.51764 1.77586e-17
5402.98823 1.79994e-17
5404.45882 1.75207e-17
5405.92941 1.60906e-17
5407.40000 1.72778e-17
5408.87059 1.73407e-17
5410.34118 1.69071e-17
5411.81177 1.73400e-17
5413.28236 1.84370e-17
5414.75295 1.76198e-17
5416.22354 1.67239e-17
5417.69413 1.90377e-17
5419.16472 1.82125e-17
5420.62517 1.74346e-17
5422.09576 1.74896e-17
5423.56635 1.74115e-17
5425.03694 1.68678e-17
5426.50753 1.80533e-17
5427.97812 1.63111e-17
5429.44871 1.86841e-17
5430.91930 1.86313e-17
5432.38989 1.74962e-17
5433.86048 1.81850e-17
5435.33107 1.80163e-17
5436.80166 1.69450e-17
5438.27225 1.67160e-17
5439.74284 1.78708e-17
5441.21343 1.77687e-17
5442.68402 1.62066e-17
5444.15461 1.63606e-17
5445.62520 1.66514e-17
5447.08564 1.68270e-17
5448.55623 1.59625e-17
5450.02682 1.76639e-17
5451.49741 1.79140e-17
5452.96800 1.67213e-17
5454.43859 1.75094e-17
5455.90918 1.65012e-17
5457.37977 1.57114e-17
5458.85036 1.80111e-17
5460.32095 1.80078e-17
5461.79154 1.68761e-17
5463.26213 1.82434e-17
5464.73272 1.61717e-17
5466.20331 1.53681e-17
5467.67390 1.80237e-17
5469.14449 1.83662e-17
5470.61508 1.74770e-17
5472.07553 1.78959e-17
5473.54612 1.75985e-17
5475.01671 1.72542e-17
5476.48730 1.82543e-17
5477.95789 1.74967e-17
5479.42848 1.74345e-17
5480.89907 1.80056e-17
5482.36966 1.80065e-17
5483.84025 1.89060e-17
5485.31084 1.78843e-17
5486.78143 1.71092e-17
5488.25202 1.72661e-17
5489.72261 1.70668e-17
5491.19320 1.55332e-17
5492.66379 1.53317e-17
5494.13438 1.73386e-17
5495.60497 1.80168e-17
5497.06542 1.73127e-17
5498.53601 1.61687e-17
5500.00660 1.70395e-17
5501.47719 1.71672e-17
5502.94778 1.63561e-17
5504.41837 1.52157e-17
5505.88896 1.48720e-17
5507.35955 1.65994e-17
5508.83014 1.63990e-17
5510.30073 1.56933e-17
5511.77132 1.67140e-17
5513.24191 1.65329e-17
5514.71250 1.63217e-17
5516.18309 1.58322e-17
5517.65368 1.50506e-17
5519.12427 1.54527e-17
5520.59486 1.62687e-17
5522.05531 1.56911e-17
5523.52590 1.54286e-17
5524.99649 1.60645e-17
5526.46708 1.62478e-17
5527.93767 1.69380e-17
5529.40826 1.71653e-17
5530.87885 1.58996e-17
5532.34944 1.51232e-17
5533.82003 1.62568e-17
5535.29062 1.74485e-17
5536.76121 1.74755e-17
5538.23180 1.73349e-17
5539.70239 1.78878e-17
5541.17298 1.71709e-17
5542.64357 1.64809e-17
5544.11416 1.65243e-17
5545.58475 1.73463e-17
5547.04520 1.77201e-17
5548.51579 1.74232e-17
5549.98638 1.82655e-17
5551.45697 1.85144e-17
5552.92756 1.75609e-17
5554.39815 1.70520e-17
5555.86874 1.89752e-17
5557.33933 1.86369e-17
5558.80992 1.96387e-17
5560.28051 2.07703e-17
5561.75110 2.02791e-17
5563.22169 1.93151e-17
5564.69228 1.88622e-17
5566.16287 2.03014e-17
5567.63346 2.00990e-17
5569.10405 2.04040e-17
5570.57464 2.01968e-17
5572.03508 1.68932e-17
5573.50567 1.89653e-17
5574.97626 2.57475e-17
5576.44685 2.24122e-17
5577.91744 1.99788e-17
5579.38803 1.54349e-17
5580.85862 1.59659e-17
5582.32921 1.84879e-17
5583.79980 1.82897e-17
5585.27039 2.04167e-17
5586.74098 2.03562e-17
5588.21157 1.87268e-17
5589.68216 1.69002e-17
5591.15275 1.70425e-17
5592.62334 1.83900e-17
5594.09393 1.74655e-17
5595.56452 1.74324e-17
5597.03511 1.78533e-17
5598.49556 1.78325e-17
5599.96615 1.70694e-17
5601.43674 1.68134e-17
5602.90733 1.72686e-17
5604.37792 1.75116e-17
5605.84851 1.70707e-17
5607.31910 1.72832e-17
5608.78969 1.85668e-17
5610.26028 1.83720e-17
5611.73087 1.83636e-17
5613.20146 1.85805e-17
5614.67205 1.75061e-17
5616.14264 1.63715e-17
5617.61323 1.53471e-17
5619.08382 1.53339e-17
5620.55441 1.71751e-17
5622.02500 1.77083e-17
5623.48545 1.70154e-17
5624.95604 1.70173e-17
5626.42663 1.71467e-17
5627.89722 1.61582e-17
5629.36781 1.55545e-17
5630.83840 1.62785e-17
5632.30899 1.62174e-17
5633.77958 1.63509e-17
5635.25017 1.67986e-17
5636.72076 1.68818e-17
5638.19135 1.67337e-17
5639.66194 1.67774e-17
5641.13253 1.66116e-17
5642.60312 1.67089e-17
5644.07371 1.70176e-17
5645.54430 1.66458e-17
5647.01489 1.64699e-17
5648.47534 1.59646e-17
5649.94593 1.42231e-17
5651.41652 1.28268e-17
5652.88711 1.37686e-17
5654.35770 1.53534e-17
5655.82829 1.55144e-17
5657.29888 1.47995e-17
5658.76947 1.48407e-17
5660.24006 1.47977e-17
5661.71065 1.65427e-17
5663.18124 1.73230e-17
5664.65183 1.54785e-17
5666.12242 1.41129e-17
5667.59301 1.36109e-17
5669.06360 1.52897e-17
5670.53419 1.62975e-17
5672.00478 1.53586e-17
5673.47537 1.47261e-17
5674.93582 1.53785e-17
5676.40641 1.53611e-17
5677.87700 1.48215e-17
5679.34759 1.40153e-17
5680.81818 1.44466e-17
5682.28877 1.49640e-17
5683.75936 1.46645e-17
5685.22995 1.52303e-17
5686.70054 1.54082e-17
5688.17113 1.45154e-17
5689.64172 1.26120e-17
5691.11231 1.27773e-17
5692.58290 1.33272e-17
5694.05349 1.29836e-17
5695.52408 1.25149e-17
5696.99467 1.22655e-17
5698.45511 1.29469e-17
5699.92570 1.29940e-17
5701.39629 1.25095e-17
5702.86688 1.29568e-17
5704.33747 1.26178e-17
5705.80806 1.12477e-17
5707.27865 1.19278e-17
5708.74924 1.21257e-17
5710.21983 1.10317e-17
5711.69042 1.17806e-17
5713.16101 1.29261e-17
5714.63160 1.14129e-17
5716.10219 1.07038e-17
5717.57278 1.15666e-17
5719.04337 1.04741e-17
5720.51396 9.28567e-18
5721.98455 1.00118e-17
5723.45514 9.64911e-18
5724.91559 8.63974e-18
5726.38618 9.50522e-18
5727.85677 1.00656e-17
5729.32736 9.60927e-18
5730.79795 9.58208e-18
5732.26854 8.75726e-18
5733.73913 8.17298e-18
5735.20972 9.39370e-18
5736.68031 9.81233e-18
5738.15090 8.12016e-18
5739.62149 7.42496e-18
5741.09208 8.15408e-18
5742.56267 8.11989e-18
5744.03326 7.04054e-18
5745.50385 7.04807e-18
5746.97444 7.08725e-18
5748.44503 7.25194e-18
5749.90548 6.41830e-18
5751.37607 7.42804e-18
5752.84666 8.36470e-18
5754.31725 7.45036e-18
5755.78784 5.94641e-18
5757.25843 6.10106e-18
5758.72902 7.49961e-18
5760.19961 7.03766e-18
5761.67020 5.65677e-18
5763.14079 5.56894e-18
5764.61138 6.04090e-18
5766.08197 5.56011e-18
5767.55256 5.13959e-18
5769.02315 6.28518e-18
5770.49374 8.31651e-18
5771.96433 8.49946e-18
5773.43492 7.14592e-18
5774.89537 7.62940e-18
5776.36596 8.19019e-18
5777.83655 6.72507e-18
5779.30714 5.92026e-18
5780.77773 5.52278e-18
5782.24832 5.65109e-18
5783.71891 7.16874e-18
5785.18950 7.10518e-18
5786.66009 5.71350e-18
5788.13068 5.92847e-18
5789.60127 6.11008e-18
5791.07186 6.17406e-18
5792.54245 6.10736e-18
5794.01304 6.04281e-18
5795.48363 6.50178e-18
5796.95422 7.35167e-18
5798.42481 6.72046e-18
5799.89540 6.37254e-18
5801.35585 7.19592e-18
5802.82644 7.35257e-18
5804.29703 7.34469e-18
5805.76762 7.24148e-18
5807.23821 6.91144e-18
5808.70880 7.72395e-18
5810.17939 7.14898e-18
5811.64998 6.20037e-18
5813.12057 7.10165e-18
5814.59116 9.00416e-18
5816.06175 9.47088e-18
5817.53234 8.98492e-18
5819.00293 7.93272e-18
5820.47352 7.31087e-18
5821.94411 7.69016e-18
5823.41470 8.47559e-18
5824.87514 8.45935e-18
5826.34573 8.78667e-18
5827.81632 9.02368e-18
5829.28691 8.37796e-18
5830.75750 9.17476e-18
5832.22809 9.68765e-18
5833.69868 9.41045e-18
5835.16927 1.00661e-17
5836.63986 1.08833e-17
5838.11045 1.17457e-17
5839.58104 1.20049e-17
5841.05163 1.11122e-17
5842.52222 1.16757e-17
5843.99281 1.17978e-17
5845.46340 1.34281e-17
5846.93399 1.25464e-17
5848.40458 1.21032e-17
5849.87517 1.34402e-17
5851.33562 1.34820e-17
5852.80621 1.30573e-17
5854.27680 1.25158e-17
5855.74739 1.34229e-17
5857.21798 1.17087e-17
5858.68857 1.21133e-17
5860.15916 1.32146e-17
5861.62975 1.36373e-17
5863.10034 1.43066e-17
5864.57093 1.40990e-17
5866.04152 1.23449e-17
5867.51211 1.25115e-17
5868.98270 1.42429e-17
5870.45329 1.47969e-17
5871.92388 1.36134e-17
5873.39447 1.50203e-17
5874.85492 1.66971e-17
5876.32551 1.67404e-17
5877.79610 1.64401e-17
5879.26669 1.48146e-17
5880.73728 1.63860e-17
5882.20787 1.69466e-17
5883.67846 1.55468e-17
5885.14905 1.50820e-17
5886.61964 1.61686e-17
5888.09023 1.35754e-17
5889.56082 1.07350e-17
5891.03141 1.38214e-17
5892.50200 1.48039e-17
5893.97259 1.35326e-17
5895.44318 1.52036e-17
5896.91377 1.78151e-17
5898.38436 1.91292e-17
5899.85495 1.60596e-17
5901.31540 1.88692e-17
5902.78599 1.82946e-17
5904.25658 1.82043e-17
5905.72717 1.95841e-17
5907.19776 1.96901e-17
5908.66835 1.95264e-17
5910.13894 1.76425e-17
5911.60953 2.04042e-17
5913.08012 2.04174e-17
5914.55071 1.81630e-17
5916.02130 1.94032e-17
5917.49189 2.04858e-17
5918.96248 1.93760e-17
5920.43307 1.81285e-17
5921.90366 1.81029e-17
5923.37425 2.12921e-17
5924.84484 2.20539e-17
5926.30529 2.00360e-17
5927.77588 2.03122e-17
5929.24647 2.00257e-17
5930.71706 2.07129e-17
5932.18765 2.21020e-17
5933.65824 2.13222e-17
5935.12883 2.06757e-17
5936.59942 2.01002e-17
5938.07001 2.03763e-17
5939.54060 1.97106e-17
5941.01119 2.02849e-17
5942.48178 2.22970e-17
5943.95237 2.12051e-17
5945.42296 2.14265e-17
5946.89355 1.86376e-17
5948.36414 1.93824e-17
5949.83473 1.90108e-17
5951.29517 1.82315e-17
5952.76576 1.87200e-17
5954.23635 1.91214e-17
5955.70694 1.97791e-17
5957.17753 1.90729e-17
5958.64812 1.97246e-17
5960.11871 1.96937e-17
5961.58930 2.00025e-17
5963.05989 2.00459e-17
5964.53048 1.92049e-17
5966.00107 1.96763e-17
5967.47166 2.02751e-17
5968.94225 2.11434e-17
5970.41284 2.13276e-17
5971.88343 2.03202e-17
5973.35402 1.87416e-17
5974.82461 1.85444e-17
5976.29520 1.97643e-17
5977.75565 2.09313e-17
5979.22624 2.07414e-17
5980.69683 2.00943e-17
5982.16742 1.93527e-17
5983.63801 1.83400e-17
5985.10860 1.82861e-17
5986.57919 1.80477e-17
5988.04978 1.90093e-17
5989.52037 1.87717e-17
5990.99096 1.80836e-17
5992.46155 1.86115e-17
5993.93214 1.77792e-17
5995.40273 1.87806e-17
5996.87332 1.91128e-17
5998.34391 1.74614e-17
5999.81450 1.77079e-17
6001.27495 1.79970e-17
6002.74554 1.80766e-17
6004.21613 1.84095e-17
6005.68672 1.84611e-17
6007.15731 1.88880e-17
6008.62790 1.86958e-17
6010.09849 1.94475e-17
6011.56908 2.06853e-17
6013.03967 1.87654e-17
6014.51026 1.82675e-17
6015.98085 1.87965e-17
6017.45144 1.77736e-17
6018.92203 1.93318e-17
6020.39262 1.87390e-17
6021.86321 1.90475e-17
6023.33380 1.78882e-17
6024.80439 1.77559e-17
6026.27498 1.79125e-17
6027.73543 1.69558e-17
6029.20602 1.65159e-17
6030.67661 1.75064e-17
6032.14720 1.85756e-17
6033.61779 1.89813e-17
6035.08838 1.87066e-17
6036.55897 1.86915e-17
6038.02956 1.80552e-17
6039.50015 1.85953e-17
6040.97074 1.78950e-17
6042.44133 1.81449e-17
6043.91192 1.76665e-17
6045.38251 1.75843e-17
6046.85310 1.75383e-17
6048.32369 1.91663e-17
6049.79428 1.83113e-17
6051.26487 1.61883e-17
6052.72532 1.56802e-17
6054.19591 1.69097e-17
6055.66650 1.70863e-17
6057.13709 1.90751e-17
6058.60768 1.73557e-17
6060.07827 1.59341e-17
6061.54886 1.73388e-17
6063.01945 1.75812e-17
6064.49004 1.71399e-17
6065.96063 1.61338e-17
6067.43122 1.61554e-17
6068.90181 1.62444e-17
6070.37240 1.77374e-17
6071.84299 1.71686e-17
6073.31358 1.76974e-17
6074.78417 1.75345e-17
6076.25476 1.63415e-17
6077.71520 1.54488e-17
6079.18579 1.56292e-17
6080.65638 1.71433e-17
6082.12697 1.59080e-17
6083.59756 1.60882e-17
6085.06815 1.58296e-17
6086.53874 1.64195e-17
6088.00933 1.61605e-17
6089.47992 1.52069e-17
6090.95051 1.52019e-17
6092.42110 1.59968e-17
6093.89169 1.48734e-17
6095.36228 1.58916e-17
6096.83287 1.65061e-17
6098.30346 1.44421e-17
6099.77405 1.52131e-17
6101.24464 1.59873e-17
6102.71523 1.47447e-17
6104.17568 1.48372e-17
6105.64627 1.51844e-17
6107.11686 1.54595e-17
6108.58745 1.48786e-17
6110.05804 1.36675e-17
6111.52863 1.36658e-17
6112.99922 1.46856e-17
6114.46981 1.68218e-17
6115.94040 1.46376e-17
6117.41099 1.28731e-17
6118.88158 1.46644e-17
6120.35217 1.46537e-17
6121.82276 1.26716e-17
6123.29335 1.29936e-17
6124.76394 1.44077e-17
6126.23453 1.37136e-17
6127.70512 1.31255e-17
6129.16557 1.30949e-17
6130.63616 1.40608e-17
6132.10675 1.49154e-17
6133.57734 1.49905e-17
6135.04793 1.37236e-17
6136.51852 1.26145e-17
6137.98911 1.21127e-17
6139.45970 1.44997e-17
6140.93029 1.56687e-17
6142.40088 1.45289e-17
6143.87147 1.47643e-17
6145.34206 1.52010e-17
6146.81265 1.44073e-17
6148.28324 1.42831e-17
6149.75383 1.43622e-17
6151.22442 1.34402e-17
6152.69501 1.29506e-17
6154.15546 1.36585e-17
6155.62605 1.35723e-17
6157.09664 1.38123e-17
6158.56723 1.45073e-17
6160.03782 1.32247e-17
6161.50841 1.21884e-17
6162.97900 1.27418e-17
6164.44959 1.28742e-17
6165.92018 1.19726e-17
6167.39077 1.15538e-17
6168.86136 1.20695e-17
6170.33195 1.34204e-17
6171.80254 1.43474e-17
6173.27313 1.46289e-17
6174.74372 1.49506e-17
6176.21431 1.38920e-17
6177.68490 1.32975e-17
6179.14535 1.31592e-17
6180.61594 1.24808e-17
6182.08653 1.27916e-17
6183.55712 1.26450e-17
6185.02771 1.19436e-17
6186.49830 1.22011e-17
6187.96889 1.30030e-17
6189.43948 1.34574e-17
6190.91007 1.32277e-17
6192.38066 1.30347e-17
6193.85125 1.32488e-17
6195.32184 1.30221e-17
6196.79243 1.27146e-17
6198.26302 1.26308e-17
6199.73361 1.36200e-17
6201.20420 1.39422e-17
6202.67479 1.30893e-17
6204.13523 1.36008e-17
6205.60582 1.36349e-17
6207.07641 1.28284e-17
6208.54700 1.23668e-17
6210.01759 1.25571e-17
6211.48818 1.25637e-17
6212.95877 1.25831e-17
6214.42936 1.30069e-17
6215.89995 1.30838e-17
6217.37054 1.28499e-17
6218.84113 1.27254e-17
6220.31172 1.23396e-17
6221.78231 1.24738e-17
6223.25290 1.36587e-17
6224.72349 1.31011e-17
6226.19408 1.25791e-17
6227.66467 1.20092e-17
6229.13526 1.15463e-17
6230.59571 1.26636e-17
6232.06630 1.28915e-17
6233.53689 1.23062e-17
6235.00748 1.19911e-17
6236.47807 1.17293e-17
6237.94866 1.14344e-17
6239.41925 1.19833e-17
6240.88984 1.41270e-17
6242.36043 1.45647e-17
6243.83102 1.30796e-17
6245.30161 1.35604e-17
6246.77220 1.35991e-17
6248.24279 1.17983e-17
6249.71338 1.20468e-17
6251.18397 1.22303e-17
6252.65456 1.25223e-17
6254.12515 1.30846e-17
6255.58560 1.29285e-17
6257.05619 1.31625e-17
6258.52678 1.29229e-17
6259.99737 1.22845e-17
6261.46796 1.16831e-17
6262.93855 1.14404e-17
6264.40914 1.34459e-17
6265.87973 1.39250e-17
6267.35032 1.49496e-17
6268.82091 1.49209e-17
6270.29150 1.29193e-17
6271.76209 1.28534e-17
6273.23268 1.24833e-17
6274.70327 1.41055e-17
6276.17386 1.51506e-17
6277.64445 1.39524e-17
6279.10490 1.32311e-17
6280.57549 1.25022e-17
6282.04608 1.27902e-17
6283.51667 1.34961e-17
6284.98726 1.24734e-17
6286.45785 1.31575e-17
6287.92844 1.51386e-17
6289.39903 1.37751e-17
6290.86962 1.28527e-17
6292.34021 1.24962e-17
6293.81080 1.30595e-17
6295.28139 1.44854e-17
6296.75198 1.54921e-17
6298.22257 1.49696e-17
6299.69316 1.54292e-17
6301.16375 1.48707e-17
6302.63434 1.46239e-17
6304.10493 1.51678e-17
6305.56538 1.44604e-17
6307.03597 1.41187e-17
6308.50656 1.36898e-17
6309.97715 1.29260e-17
6311.44774 1.25816e-17
6312.91833 1.22668e-17
6314.38892 1.25234e-17
6315.85951 1.36935e-17
6317.33010 1.41804e-17
6318.80069 1.36023e-17
6320.27128 1.42636e-17
6321.74187 1.31798e-17
6323.21246 1.21081e-17
6324.68305 1.11039e-17
6326.15364 1.19613e-17
6327.62423 1.27735e-17
6329.09482 1.11430e-17
6330.55526 1.24579e-17
6332.02585 1.23152e-17
6333.49644 1.19590e-17
6334.96703 1.25221e-17
6336.43762 1.19197e-17
6337.90821 1.26625e-17
6339.37880 1.22853e-17
6340.84939 1.14224e-17
6342.31998 1.23067e-17
6343.79057 1.17397e-17
6345.26116 1.05155e-17
6346.73175 1.04667e-17
6348.20234 1.20212e-17
6349.67293 1.22365e-17
6351.14352 1.22342e-17
6352.61411 1.21095e-17
6354.08470 1.21284e-17
6355.54515 1.13753e-17
6357.01574 1.11032e-17
6358.48633 1.21141e-17
6359.95692 1.27251e-17
6361.42751 1.15141e-17
6362.89810 1.13340e-17
6364.36869 1.15488e-17
6365.83928 1.13110e-17
6367.30987 1.14614e-17
6368.78046 1.12140e-17
6370.25105 1.10386e-17
6371.72164 1.00058e-17
6373.19223 1.07684e-17
6374.66282 1.23402e-17
6376.13341 1.11844e-17
6377.60400 1.00828e-17
6379.07459 1.03438e-17
6380.54518 1.09065e-17
6382.00563 1.07626e-17
6383.47622 1.20222e-17
6384.94681 1.24029e-17
6386.41740 1.04160e-17
6387.88799 1.04705e-17
6389.35858 1.09342e-17
6390.82917 1.05978e-17
6392.29976 1.10071e-17
6393.77035 1.18765e-17
6395.24094 1.13493e-17
6396.71153 1.08529e-17
6398.18212 1.04860e-17
6399.65271 1.02456e-17
6401.12330 9.42685e-18
6402.59389 1.08624e-17
6404.06448 1.19483e-17
6405.52493 1.02854e-17
6406.99552 9.69200e-18
6408.46611 1.03570e-17
6409.93670 1.13336e-17
6411.40729 1.05038e-17
6412.87788 1.05949e-17
6414.34847 1.15970e-17
6415.81906 1.17648e-17
6417.28965 1.14934e-17
6418.76024 1.15255e-17
6420.23083 1.05484e-17
6421.70142 1.08172e-17
6423.17201 1.17739e-17
6424.64260 1.20315e-17
6426.11319 1.17808e-17
6427.58378 1.10423e-17
6429.05437 1.25678e-17
6430.52496 1.20496e-17
6431.99555 1.02002e-17
6433.45600 1.02248e-17
6434.92659 1.09998e-17
6436.39718 1.01708e-17
6437.86777 1.04482e-17
6439.33836 1.03423e-17
6440.80895 1.03560e-17
6442.27954 1.07724e-17
6443.75013 1.13322e-17
6445.22072 9.50781e-18
6446.69131 8.91667e-18
6448.16190 1.00569e-17
6449.63249 1.03050e-17
6451.10308 1.09853e-17
6452.57367 1.05554e-17
6454.04426 1.06106e-17
6455.50470 1.19216e-17
6456.97529 1.08051e-17
6458.44588 1.08460e-17
6459.91647 9.70021e-18
6461.38706 1.06632e-17
6462.85765 1.23164e-17
6464.32824 1.06652e-17
6465.79883 1.05942e-17
6467.26942 9.27820e-18
6468.74001 9.11518e-18
6470.21060 1.05828e-17
6471.68119 9.71368e-18
6473.15178 1.04093e-17
6474.62237 1.15850e-17
6476.09296 9.92467e-18
6477.56355 1.01530e-17
6479.03414 1.14563e-17
6480.50473 1.17222e-17
6481.97532 1.20440e-17
6483.43577 1.14774e-17
6484.90636 1.21929e-17
6486.37695 1.10546e-17
6487.84754 1.11564e-17
6489.31813 1.09048e-17
6490.78872 1.03974e-17
6492.25931 1.00714e-17
6493.72990 1.19818e-17
6495.20049 1.26734e-17
6496.67108 1.08638e-17
6498.14167 8.83324e-18
6499.61226 1.14453e-17
6501.08285 1.01476e-17
6502.55344 9.08373e-18
6504.02403 9.72009e-18
6505.49462 9.01002e-18
6506.95507 9.15264e-18
6508.42566 1.04755e-17
6509.89625 9.30661e-18
6511.36684 9.66907e-18
6512.83743 1.12355e-17
6514.30802 1.11621e-17
6515.77861 1.10466e-17
6517.24920 1.03300e-17
6518.71979 8.91806e-18
6520.19038 1.13787e-17
6521.66097 1.08888e-17
6523.13156 1.05069e-17
6524.60215 9.74731e-18
6526.07274 9.33655e-18
6527.54333 9.19397e-18
6529.01392 9.88920e-18
6530.48451 9.03100e-18
6531.95510 8.34392e-18
6533.41555 7.61595e-18
6534.88614 7.59671e-18
6536.35673 9.36071e-18
6537.82732 9.05526e-18
6539.29791 8.08267e-18
6540.76850 9.09936e-18
6542.23909 8.51219e-18
6543.70968 8.44276e-18
6545.18027 8.22736e-18
6546.65086 9.41238e-18
6548.12145 9.66569e-18
6549.59204 7.36524e-18
6551.06263 7.48127e-18
6552.53322 7.28628e-18
6554.00381 8.34394e-18
6555.47440 9.39976e-18
6556.94499 7.84589e-18
6558.40544 7.65682e-18
6559.87603 8.30674e-18
6561.34662 8.50468e-18
6562.81721 7.43026e-18
6564.28780 7.08173e-18
6565.75839 7.33013e-18
6567.22898 7.18394e-18
6568.69957 8.25735e-18
6570.17016 7.95252e-18
6571.64075 6.94240e-18
6573.11134 7.28748e-18
6574.58193 7.03461e-18
6576.05252 6.95040e-18
6577.52311 7.38822e-18
6578.99370 7.64944e-18
6580.46429 8.20053e-18
6581.93488 8.23751e-18
6583.39532 8.24641e-18
6584.86591 7.96745e-18
6586.33650 7.14806e-18
6587.80709 6.95802e-18
6589.27768 6.87248e-18
6590.74827 6.98664e-18
6592.21886 7.11954e-18
6593.68945 7.08525e-18
6595.16004 6.81605e-18
6596.63063 6.66591e-18
6598.10122 6.75538e-18
6599.57181 6.27056e-18
6601.04240 6.74974e-18
6602.51299 7.20291e-18
6603.98358 7.03005e-18
6605.45417 6.94951e-18
6606.92476 6.84531e-18
6608.39535 6.77902e-18
6609.85580 8.02259e-18
6611.32639 6.98736e-18
6612.79698 6.77297e-18
6614.26757 7.69263e-18
6615.73816 8.07597e-18
6617.20875 7.86820e-18
6618.67934 8.09146e-18
6620.14993 8.11409e-18
6621.62052 7.52484e-18
6623.09111 8.56376e-18
6624.56170 9.62401e-18
6626.03229 9.68253e-18
6627.50288 9.74106e-18
6628.97347 9.79957e-18
6630.44406 9.85808e-18
6631.91465 9.91659e-18
6633.37510 9.97509e-18
6634.84569 1.00336e-17
6636.31628 1.00921e-17
6637.78687 1.01506e-17
6639.25746 1.02090e-17
6640.72805 1.02675e-17
6642.19864 1.03260e-17
6643.66923 1.03844e-17
6645.13982 1.04429e-17
6646.61041 1.05013e-17
6648.08100 1.05598e-17
6649.55159 1.06182e-17
6651.02218 1.06767e-17
6652.49277 1.07351e-17
6653.96336 1.07935e-17
6655.43395 1.08519e-17
6656.90454 1.09103e-17
6658.37513 1.09687e-17
6659.83558 1.10271e-17
6661.30617 1.10855e-17
6662.77676 1.11439e-17
6664.24735 1.12023e-17
6665.71794 1.12607e-17
6667.18853 1.13191e-17
6668.65912 1.13774e-17
6670.12971 1.14358e-17
6671.60030 1.14942e-17
6673.07089 1.15525e-17
6674.54148 1.16108e-17
6676.01207 1.16692e-17
6677.48266 1.17275e-17
6678.95325 1.17858e-17
6680.42384 1.18442e-17
6681.89443 1.19025e-17
6683.36502 1.19608e-17
6684.82547 1.20191e-17
6686.29606 1.20774e-17
6687.76665 1.21357e-17
6689.23724 1.27879e-17
6690.70783 1.31246e-17
6692.17842 1.29402e-17
6693.64901 1.36783e-17
6695.11960 1.34827e-17
6696.59019 1.43365e-17
6698.06078 1.44699e-17
6699.53137 1.38973e-17
6701.00196 1.31568e-17
6702.47255 1.31137e-17
6703.94314 1.35727e-17
6705.41373 1.33986e-17
6706.88432 1.40491e-17
6708.35491 1.31440e-17
6709.81535 1.31786e-17
6711.28594 1.35323e-17
6712.75653 1.30372e-17
6714.22712 1.25353e-17
6715.69771 1.22634e-17
6717.16830 1.25635e-17
6718.63889 1.31739e-17
6720.10948 1.33228e-17
6721.58007 1.33486e-17
6723.05066 1.44670e-17
6724.52125 1.42461e-17
6725.99184 1.38327e-17
6727.46243 1.49079e-17
6728.93302 1.45884e-17
6730.40361 1.40265e-17
6731.87420 1.44794e-17
6733.34479 1.44549e-17
6734.81538 1.47328e-17
6736.27583 1.45029e-17
6737.74642 1.47463e-17
6739.21701 1.53673e-17
6740.68760 1.49761e-17
6742.15819 1.49038e-17
6743.62878 1.45940e-17
6745.09937 1.44517e-17
6746.56996 1.45324e-17
6748.04055 1.51275e-17
6749.51114 1.55408e-17
6750.98173 1.44755e-17
6752.45232 1.44442e-17
6753.92291 1.52084e-17
6755.39350 1.42284e-17
6756.86409 1.33802e-17
6758.33468 1.32077e-17
6759.79513 1.26120e-17
6761.26572 1.30207e-17
6762.73631 1.37416e-17
6764.20690 1.42494e-17
6765.67749 1.42396e-17
6767.14808 1.34085e-17
6768.61867 1.36448e-17
6770.08926 1.48986e-17
6771.55985 1.49778e-17
6773.03044 1.40862e-17
6774.50103 1.36755e-17
6775.97162 1.42880e-17
6777.44221 1.49665e-17
6778.91280 1.40519e-17
6780.38339 1.27945e-17
6781.85398 1.33077e-17
6783.32457 1.42739e-17
6784.78502 1.36555e-17
6786.25561 1.46172e-17
6787.72620 1.46027e-17
6789.19679 1.28054e-17
6790.66738 1.32993e-17
6792.13797 1.36950e-17
6793.60856 1.34601e-17
6795.07915 1.39974e-17
6796.54974 1.43172e-17
6798.02033 1.41493e-17
6799.49092 1.32277e-17
6800.96151 1.31352e-17
6802.43210 1.35411e-17
6803.90269 1.39472e-17
6805.37328 1.41317e-17
6806.84387 1.18805e-17
6808.31446 1.10138e-17
6809.78505 1.32933e-17
6811.24550 1.42542e-17
6812.71609 1.39299e-17
6814.18668 1.46001e-17
6815.65727 1.45642e-17
6817.12786 1.42086e-17
6818.59845 1.45900e-17
6820.06904 1.42293e-17
6821.53963 1.42281e-17
6823.01022 1.42499e-17
6824.48081 1.39043e-17
6825.95140 1.47108e-17
6827.42199 1.60911e-17
6828.89258 1.57219e-17
6830.36317 1.36364e-17
6831.83376 1.28204e-17
6833.30435 1.32745e-17
6834.77494 1.38416e-17
6836.23538 1.33878e-17
6837.70597 1.21910e-17
6839.17656 1.13338e-17
6840.64715 1.22920e-17
6842.11774 1.29464e-17
6843.58833 1.30182e-17
6845.05892 1.16454e-17
6846.52951 1.14249e-17
6848.00010 1.19856e-17
6849.47069 1.29699e-17
6850.94128 1.40077e-17
6852.41187 1.31696e-17
6853.88246 1.26802e-17
6855.35305 1.30010e-17
6856.82364 1.30972e-17
6858.29423 1.30087e-17
6859.76482 1.13095e-17
6861.23541 1.31746e-17
6862.69586 1.34231e-17
6864.16645 1.15879e-17
6865.63704 1.27384e-17
6867.10763 1.25313e-17
6868.57822 1.07418e-17
6870.04881 1.12854e-17
6871.51940 1.19180e-17
6872.98999 1.10031e-17
6874.46058 1.16179e-17
6875.93117 1.20369e-17
6877.40176 1.25521e-17
6878.87235 1.26191e-17
6880.34294 1.25904e-17
6881.81353 1.21899e-17
6883.28412 1.15292e-17
6884.75471 1.12832e-17
6886.22530 1.20444e-17
6887.68575 1.12335e-17
6889.15634 1.00648e-17
6890.62693 9.13010e-18
6892.09752 8.82849e-18
6893.56811 1.04805e-17
6895.03870 1.08084e-17
6896.50929 1.07845e-17
6897.97988 1.01771e-17
6899.45047 9.56716e-18
6900.92106 1.02552e-17
6902.39165 1.21739e-17
6903.86224 1.13370e-17
6905.33283 9.98372e-18
6906.80342 9.26547e-18
6908.27401 9.62873e-18
6909.74460 8.79501e-18
6911.20505 7.77464e-18
6912.67564 8.59359e-18
6914.14623 9.38986e-18
6915.61682 1.08127e-17
6917.08741 9.85448e-18
6918.55800 7.71994e-18
6920.02859 7.16089e-18
6921.49918 7.57003e-18
6922.96977 8.61783e-18
6924.44036 8.56702e-18
6925.91095 6.25948e-18
6927.38154 7.82206e-18
6928.85213 7.97950e-18
6930.32272 8.65673e-18
6931.79331 7.96540e-18
6933.26390 7.67646e-18
6934.73449 7.59777e-18
6936.20508 8.63258e-18
6937.66553 7.75864e-18
6939.13612 8.42802e-18
6940.60671 7.75312e-18
6942.07730 7.07631e-18
6943.54789 6.52124e-18
6945.01848 6.43870e-18
6946.48907 6.77197e-18
6947.95966 6.69897e-18
6949.43025 7.86492e-18
6950.90084 8.19734e-18
6952.37143 9.27706e-18
6953.84202 8.13771e-18
6955.31261 7.75394e-18
6956.78320 7.07323e-18
6958.25379 7.63877e-18
6959.72438 8.45153e-18
6961.19497 6.90528e-18
6962.65541 8.61481e-18
6964.12600 7.05727e-18
6965.59659 6.90620e-18
6967.06718 8.41986e-18
6968.53777 8.37944e-18
6970.00836 6.19403e-18
6971.47895 6.36738e-18
6972.94954 6.92761e-18
6974.42013 7.41792e-18
6975.89072 8.42919e-18
6977.36131 9.15470e-18
6978.83190 7.97711e-18
6980.30249 7.83292e-18
6981.77308 6.94973e-18
6983.24367 7.94266e-18
6984.71426 7.70717e-18
6986.18485 7.29905e-18
6987.64530 7.09104e-18
6989.11589 7.64793e-18
6990.58648 8.06394e-18
6992.05707 7.36795e-18
6993.52766 7.95864e-18
6994.99825 7.36437e-18
6996.46884 6.70187e-18
6997.93943 7.50172e-18
6999.41002 8.14028e-18
7000.88061 8.30840e-18
7002.35120 8.39437e-18
7003.82179 7.66555e-18
7005.29238 7.75209e-18
7006.76297 8.04393e-18
7008.23356 8.76758e-18
7009.70415 8.86358e-18
7011.17474 8.23173e-18
7012.64533 9.76806e-18
7014.10578 1.14120e-17
7015.57637 1.10393e-17
7017.04696 9.72035e-18
7018.51755 8.50547e-18
7019.98814 8.19351e-18
7021.45873 7.51182e-18
7022.92932 9.20511e-18
7024.39991 8.78116e-18
7025.87050 8.83049e-18
7027.34109 8.99111e-18
7028.81168 8.58484e-18
7030.28227 9.10906e-18
7031.75286 9.59490e-18
7033.22345 8.75945e-18
7034.69404 9.41636e-18
7036.16463 9.84296e-18
7037.62508 1.15969e-17
7039.09567 9.44569e-18
7040.56626 8.72389e-18
7042.03685 1.04778e-17
7043.50744 1.14368e-17
7044.97803 1.12092e-17
7046.44862 1.07093e-17
7047.91921 1.06350e-17
7049.38980 1.11325e-17
7050.86039 1.01053e-17
7052.33098 1.04515e-17
7053.80157 1.09345e-17
7055.27216 1.07638e-17
7056.74275 9.75795e-18
7058.21334 9.98705e-18
7059.68393 1.03565e-17
7061.15452 1.07513e-17
7062.62511 1.18099e-17
7064.08556 1.13962e-17
7065.55615 1.12456e-17
7067.02674 1.20784e-17
7068.49733 1.32378e-17
7069.96792 1.16900e-17
7071.43851 1.07121e-17
7072.90910 1.25874e-17
7074.37969 1.15345e-17
7075.85028 1.28583e-17
7077.32087 1.44307e-17
7078.79146 1.24544e-17
7080.26205 1.35301e-17
7081.73264 1.35476e-17
7083.20323 1.22488e-17
7084.67382 1.41971e-17
7086.14441 1.48828e-17
7087.61500 1.24693e-17
7089.07544 1.19259e-17
7090.54603 1.23834e-17
7092.01662 1.18068e-17
7093.48721 1.17836e-17
7094.95780 1.19592e-17
7096.42839 1.20888e-17
7097.89898 1.22894e-17
7099.36957 1.27998e-17
7100.84016 1.24277e-17
7102.31075 1.25466e-17
7103.78134 1.38419e-17
7105.25193 1.32909e-17
7106.72252 1.29653e-17
7108.19311 1.28857e-17
7109.66370 1.25409e-17
7111.13429 1.40821e-17
7112.60488 1.37162e-17
7114.06533 1.31397e-17
7115.53592 1.33904e-17
7117.00651 1.32950e-17
7118.47710 1.42474e-17
7119.94769 1.34830e-17
7121.41828 1.24349e-17
7122.88887 1.18058e-17
7124.35946 1.31942e-17
7125.83005 1.41872e-17
7127.30064 1.23332e-17
7128.77123 1.27273e-17
7130.24182 1.27163e-17
7131.71241 1.22002e-17
7133.18300 1.39662e-17
7134.65359 1.46443e-17
7136.12418 1.30994e-17
7137.59477 1.28253e-17
7139.05522 1.42854e-17
7140.52581 1.34861e-17
7141.99640 1.37985e-17
7143.46699 1.45539e-17
7144.93758 1.45416e-17
7146.40817 1.44792e-17
7147.87876 1.28259e-17
7149.34935 1.23205e-17
7150.81994 1.26188e-17
7152.29053 1.25970e-17
7153.76112 1.23947e-17
7155.23171 1.21678e-17
7156.70230 1.34707e-17
7158.17289 1.36227e-17
7159.64348 1.13389e-17
7161.11407 1.17804e-17
7162.58466 1.29757e-17
7164.04511 1.10251e-17
7165.51570 1.14506e-17
7166.98629 1.14194e-17
7168.45688 1.11436e-17
7169.92747 1.17494e-17
7171.39806 1.04677e-17
7172.86865 9.85637e-18
7174.33924 1.05657e-17
7175.80983 1.09028e-17
7177.28042 1.01442e-17
7178.75101 9.81751e-18
7180.22160 1.14285e-17
7181.69219 1.19874e-17
7183.16278 1.06710e-17
7184.63337 9.57619e-18
7186.10396 9.71228e-18
7187.57455 9.93584e-18
7189.04514 1.09767e-17
7190.50559 1.09411e-17
7191.97618 1.09513e-17
7193.44677 1.04410e-17
7194.91736 9.86379e-18
7196.38795 9.68706e-18
7197.85854 9.95020e-18
7199.32913 9.94452e-18
7200.79972 8.94179e-18
7202.27031 9.80944e-18
7203.74090 1.05453e-17
7205.21149 1.04435e-17
7206.68208 1.00240e-17
7208.15267 9.59797e-18
7209.62326 1.02753e-17
7211.09385 1.08065e-17
7212.56444 1.17093e-17
7214.02488 1.13194e-17
7215.49547 1.11620e-17
7216.96606 1.16851e-17
7218.43665 1.17122e-17
7219.90724 1.13927e-17
7221.37783 1.22015e-17
7222.84842 1.25310e-17
7224.31901 1.17340e-17
7225.78960 1.19832e-17
7227.26019 1.27270e-17
7228.73078 1.15306e-17
7230.20137 9.58541e-18
7231.67196 1.01758e-17
7233.14255 1.10169e-17
7234.61314 9.39356e-18
7236.08373 7.39767e-18
7237.55432 8.83693e-18
7239.02491 9.08765e-18
7240.49550 8.92111e-18
7241.95595 9.85525e-18
7243.42654 1.06092e-17
7244.89713 1.11676e-17
7246.36772 1.05060e-17
7247.83831 9.74150e-18
7249.30890 9.60438e-18
7250.77949 9.69226e-18
7252.25008 1.16447e-17
7253.72067 1.22868e-17
7255.19126 1.09278e-17
7256.66185 1.00948e-17
7258.13244 1.06674e-17
7259.60303 1.22434e-17
7261.07362 1.24624e-17
7262.54421 1.11673e-17
7264.01480 1.06473e-17
7265.47525 9.78477e-18
7266.94584 9.17382e-18
7268.41643 1.08778e-17
7269.88702 1.10256e-17
7271.35761 9.53082e-18
7272.82820 9.42065e-18
7274.29879 8.11403e-18
7275.76938 5.25598e-18
7277.23997 5.74702e-18
7278.71056 6.80190e-18
7280.18115 8.73762e-18
7281.65174 1.18990e-17
7283.12233 1.00988e-17
7284.59292 8.58471e-18
7286.06351 8.40532e-18
7287.53410 8.73249e-18
7289.00469 1.08149e-17
7290.47528 1.08177e-17
7291.93573 1.00900e-17
7293.40632 1.03944e-17
7294.87691 1.10151e-17
7296.34750 1.13714e-17
7297.81809 1.01417e-17
7299.28868 9.53220e-18
7300.75927 1.01422e-17
7302.22986 1.06108e-17
7303.70045 1.13355e-17
7305.17104 1.14629e-17
7306.64163 1.19291e-17
7308.11222 1.20148e-17
7309.58281 1.08722e-17
7311.05340 1.10541e-17
7312.52399 1.32010e-17
7313.99458 1.10251e-17
7315.46517 1.06176e-17
7316.92562 1.02733e-17
7318.39621 7.48727e-18
7319.86680 8.74516e-18
7321.33739 9.78248e-18
7322.80798 1.08662e-17
7324.27857 1.10302e-17
7325.74916 1.00447e-17
7327.21975 9.76225e-18
7328.69034 9.53992e-18
7330.16093 9.90667e-18
7331.63152 1.06013e-17
7333.10211 9.05143e-18
7334.57270 1.08999e-17
7336.04329 1.16329e-17
7337.51388 1.08409e-17
7338.98447 1.34517e-17
7340.45506 1.41083e-17
7341.91550 1.32578e-17
7343.38609 1.33640e-17
7344.85668 1.38909e-17
7346.32727 1.43456e-17
7347.79786 1.33518e-17
7349.26845 1.17138e-17
7350.73904 1.15636e-17
7352.20963 1.23021e-17
7353.68022 1.30019e-17
7355.15081 1.17476e-17
7356.62140 1.04780e-17
7358.09199 9.95871e-18
7359.56258 8.80778e-18
7361.03317 9.62263e-18
7362.50376 1.05677e-17
7363.97435 1.01604e-17
7365.44494 1.07887e-17
7366.91553 1.18888e-17
7368.37598 1.01257e-17
7369.84657 8.29699e-18
7371.31716 9.67359e-18
7372.78775 9.13562e-18
7374.25834 1.02358e-17
7375.72893 1.06486e-17
7377.19952 1.21553e-17
7378.67011 1.14747e-17
7380.14070 1.12766e-17
7381.61129 1.29153e-17
7383.08188 1.29275e-17
7384.55247 1.31562e-17
7386.02306 1.25269e-17
7387.49365 1.15032e-17
7388.96424 1.13541e-17
7390.43483 1.07551e-17
7391.89528 1.00137e-17
7393.36587 9.54365e-18
7394.83646 9.28433e-18
7396.30705 9.55576e-18
7397.77764 1.00651e-17
7399.24823 1.04362e-17
7400.71882 1.12962e-17
7402.18941 1.28125e-17
7403.66000 1.24725e-17
7405.13059 1.21885e-17
7406.60118 1.22056e-17
7408.07177 1.13667e-17
7409.54236 1.02505e-17
7411.01295 1.09090e-17
7412.48354 1.06418e-17
7413.95413 1.03827e-17
7415.42472 1.02570e-17
7416.88517 1.03253e-17
7418.35576 8.68059e-18
7420.20202 8.68059e-18
7422.21053 8.69520e-18
7424.20894 8.69717e-18
7426.20735 8.63055e-18
7428.20577 8.57608e-18
7430.20418 8.61710e-18
7432.21269 8.68746e-18
7434.21110 8.71533e-18
7436.20952 8.69095e-18
7438.20793 8.67954e-18
7440.21644 8.73407e-18
7442.21485 8.78388e-18
7444.21327 8.75734e-18
7446.21168 8.70678e-18
7448.21009 8.66802e-18
7450.21860 8.64783e-18
7452.21702 8.62455e-18
7454.21543 8.58987e-18
7456.21384 8.55891e-18
7458.22235 8.55344e-18
7460.22076 8.55164e-18
7462.21918 8.54541e-18
7464.21759 8.52668e-18
7466.21601 8.48850e-18
7468.22451 8.43386e-18
7470.22293 8.38172e-18
7472.22134 8.35903e-18
7474.21976 8.34966e-18
7476.21817 8.37038e-18
7478.22668 8.37404e-18
7480.22509 8.30223e-18
7482.22350 8.16595e-18
7484.22192 8.04532e-18
7486.23043 8.02804e-18
7488.22884 8.03252e-18
7490.22725 7.99336e-18
7492.22567 7.95978e-18
7494.22408 7.97968e-18
7496.23259 8.04218e-18
7498.23100 8.10549e-18
7500.22942 8.13127e-18
7502.22783 8.14262e-18
7504.22624 8.14890e-18
7506.23475 8.14163e-18
7508.23317 8.11108e-18
7510.23158 8.06685e-18
7512.22999 8.01594e-18
7514.23850 7.97317e-18
7516.23691 7.94372e-18
7518.23533 7.94483e-18
7520.23374 7.96682e-18
7522.23216 8.03398e-18
7524.24066 8.08885e-18
7526.23908 8.06796e-18
7528.23749 7.96461e-18
7530.23591 7.85248e-18
7532.23432 7.80831e-18
7534.24283 7.78992e-18
7536.24124 7.79394e-18
7538.23965 7.80674e-18
7540.23807 7.81832e-18
7542.24658 7.82420e-18
7544.24499 7.83357e-18
7546.24340 7.84957e-18
7548.24182 7.86109e-18
7550.24023 7.86121e-18
7552.24874 7.84113e-18
7554.24715 7.78288e-18
7556.24557 7.70398e-18
7558.24398 7.62117e-18
7560.24239 7.56147e-18
7562.25090 7.52975e-18
7564.24932 7.57293e-18
7566.24773 7.61337e-18
7568.24614 7.58544e-18
7570.25465 7.52073e-18
7572.25306 7.46499e-18
7574.25148 7.44241e-18
7576.24989 7.42897e-18
7578.24831 7.41343e-18
7580.25681 7.38649e-18
7582.25523 7.31986e-18
7584.25364 7.24706e-18
7586.25206 7.21587e-18
7588.26056 7.20342e-18
7590.25898 7.13662e-18
7592.25739 6.94953e-18
7594.25580 6.75588e-18
7596.25422 6.66295e-18
7598.26273 6.63065e-18
7600.26114 6.66364e-18
7602.25955 6.71689e-18
7604.25797 6.76001e-18
7606.25638 6.74249e-18
7608.26489 6.67325e-18
7610.26330 6.46836e-18
7612.26172 6.29832e-18
7614.26013 6.30979e-18
7616.26864 6.43827e-18
7618.26705 6.59812e-18
7620.26547 6.69792e-18
7622.26388 6.73440e-18
7624.26229 6.63321e-18
7626.27080 6.50251e-18
7628.26921 6.42326e-18
7630.26763 6.37572e-18
7632.26604 6.32724e-18
7634.27455 6.27801e-18
7636.27296 6.25474e-18
7638.27138 6.27964e-18
7640.26979 6.30403e-18
7642.26821 6.27749e-18
7644.27671 6.22308e-18
7646.27513 6.14202e-18
7648.27354 6.06108e-18
7650.27195 6.00865e-18
7652.27037 6.00516e-18
7654.27888 5.99835e-18
7656.27729 5.90670e-18
7658.27570 5.80991e-18
7660.27412 5.74821e-18
7662.28262 5.72804e-18
7664.28104 5.73837e-18
7666.27945 5.76997e-18
7668.27787 5.81314e-18
7670.27628 5.84828e-18
7672.28479 5.88948e-18
7674.28320 5.96186e-18
7676.28162 6.02192e-18
7678.28003 6.02163e-18
7680.27844 5.95762e-18
7682.28695 5.88034e-18
7684.28536 5.84030e-18
7686.28378 5.81271e-18
7688.28219 5.79706e-18
7690.29070 5.78774e-18
7692.28911 5.77309e-18
7694.28753 5.76490e-18
7696.28594 5.78966e-18
7698.28436 5.86224e-18
7700.29286 5.93172e-18
7702.29128 5.93504e-18
7704.28969 5.90443e-18
7706.28810 5.83291e-18
7708.29661 5.75833e-18
7710.29503 5.71262e-18
7712.29344 5.72416e-18
7714.29185 5.76078e-18
7716.29027 5.80097e-18
7718.29877 5.84711e-18
7720.29719 5.89611e-18
7722.29560 5.94255e-18
7724.29402 5.98066e-18
7726.29243 6.01214e-18
7728.30094 6.04519e-18
7730.29935 6.08930e-18
7732.29777 6.15378e-18
7734.29618 6.26056e-18
7736.30469 6.38904e-18
7738.30310 6.53632e-18
7740.30151 6.67237e-18
7742.29993 6.77531e-18
7744.29834 6.81383e-18
7746.30685 6.82204e-18
7748.30526 6.80150e-18
7750.30368 6.80220e-18
7752.30209 6.87744e-18
7754.30051 7.00807e-18
7756.30901 7.15419e-18
7758.30743 7.27418e-18
7760.30584 7.37258e-18
7762.30425 7.41989e-18
7764.31276 7.44910e-18
7766.31118 7.47674e-18
7768.30959 7.50619e-18
7770.30800 7.52952e-18
7772.30642 7.55297e-18
7774.31492 7.58765e-18
7776.31334 7.65149e-18
7778.31175 7.72475e-18
7780.31017 7.80628e-18
7782.30858 7.87238e-18
7784.31709 7.89763e-18
7786.31550 7.88699e-18
7788.31392 7.86825e-18
7790.31233 7.87104e-18
7792.32084 7.88815e-18
7794.31925 7.94762e-18
7796.31766 7.99720e-18
7798.31608 7.98870e-18
7800.31449 7.93470e-18
7802.32300 7.87349e-18
7804.32141 7.83974e-18
7806.31983 7.82065e-18
7808.31824 7.84887e-18
7810.32675 7.85190e-18
7812.32516 7.75518e-18
7814.32358 7.60965e-18
7816.32199 7.46854e-18
7818.32040 7.39405e-18
7820.32891 7.38666e-18
7822.32733 7.49699e-18
7824.32574 7.63787e-18
7826.32415 7.75827e-18
7828.32257 7.83345e-18
7830.33107 7.84113e-18
7832.32949 7.79184e-18
7834.32790 7.72463e-18
7836.32632 7.68594e-18
7838.33482 7.66988e-18
7840.33324 7.69688e-18
7842.33165 7.75466e-18
7844.33007 7.85556e-18
7846.32848 7.95978e-18
7848.33699 8.02589e-18
7850.33540 8.01221e-18
7852.33381 7.97002e-18
7854.33223 7.92638e-18
7856.33064 7.90555e-18
7858.33915 7.97020e-18
7860.33756 8.05050e-18
7862.33598 8.05574e-18
7864.33439 7.93930e-18
7866.34290 7.78754e-18
7868.34131 7.67028e-18
7870.33973 7.59627e-18
7872.33814 7.61308e-18
7874.33655 7.69088e-18
7876.34506 7.81762e-18
7878.34348 7.94605e-18
7880.34189 8.04567e-18
7882.34030 8.05702e-18
7884.34881 8.02868e-18
7886.34722 7.96450e-18
7888.34564 7.90933e-18
7890.34405 7.91416e-18
7892.34247 7.96100e-18
7894.35097 7.99411e-18
7896.34939 7.96042e-18
7898.34780 7.89193e-18
7900.34622 7.78742e-18
7902.34463 7.67052e-18
7904.35314 7.55082e-18
7906.35155 7.44898e-18
7908.34996 7.36903e-18
7910.34838 7.32812e-18
7912.35689 7.32748e-18
7914.35530 7.38643e-18
7916.35371 7.47686e-18
7918.35213 7.60139e-18
7920.35054 7.71556e-18
7922.35905 7.78556e-18
7924.35746 7.79039e-18
7926.35588 7.75646e-18
7928.35429 7.69915e-18
7930.35270 7.64264e-18
7932.36121 7.61669e-18
7934.35963 7.62315e-18
7936.35804 7.67156e-18
7938.35645 7.74727e-18
7940.36496 7.83042e-18
7942.36337 7.89414e-18
7944.36179 7.94553e-18
7946.36020 7.99452e-18
7948.35862 8.00255e-18
7950.36712 7.92196e-18
7952.36554 7.78434e-18
7954.36395 7.62263e-18
7956.36237 7.49792e-18
7958.37087 7.43671e-18
7960.36929 7.55891e-18
7962.36770 7.70467e-18
7964.36611 7.78940e-18
7966.36453 7.78725e-18
7968.37304 7.68268e-18
7970.37145 7.51049e-18
7972.36986 7.35745e-18
7974.36828 7.35280e-18
7976.36669 7.36682e-18
7978.37520 7.31003e-18
7980.37361 7.22181e-18
7982.37203 7.12347e-18
7984.37044 7.05719e-18
7986.37895 7.05538e-18
7988.37736 7.15902e-18
7990.37578 7.27104e-18
7992.37419 7.26731e-18
7994.37260 7.24334e-18
7996.38111 7.27692e-18
7998.37952 7.34494e-18
8000.37794 7.37514e-18
8002.37635 7.32195e-18
8004.37477 7.24898e-18
8006.38327 7.22134e-18
8008.38169 7.19911e-18
8010.38010 7.15646e-18
8012.37852 7.12230e-18
8014.38702 7.14191e-18
8016.38544 7.21814e-18
8018.38385 7.29175e-18
8020.38226 7.29245e-18
8022.38068 7.25131e-18
8024.38919 7.14482e-18
8026.38760 7.02931e-18
8028.38601 6.95081e-18
8030.38443 6.93103e-18
8032.39293 6.93912e-18
8034.39135 6.95564e-18
8036.38976 6.97252e-18
8038.38818 6.97310e-18
8040.38659 6.95599e-18
8042.39510 6.91677e-18
8044.39351 6.85852e-18
8046.39193 6.77386e-18
8048.39034 6.67866e-18
8050.38875 6.62198e-18
8052.39726 6.72300e-18
8054.39567 6.84834e-18
8056.39409 6.93446e-18
8058.39250 6.95128e-18
8060.40101 6.89617e-18
8062.39942 6.77921e-18
8064.39784 6.64933e-18
8066.39625 6.58084e-18
8068.39467 6.51799e-18
8070.40317 6.41854e-18
8072.40159 6.32509e-18
8074.40000 6.28575e-18
8076.39841 6.30920e-18
8078.39683 6.35535e-18
8080.40534 6.38654e-18
8082.40375 6.39870e-18
8084.40216 6.35669e-18
8086.40058 6.29384e-18
8088.40908 6.21796e-18
8090.40750 6.16769e-18
8092.40591 6.17269e-18
8094.40433 6.26463e-18
8096.40274 6.38055e-18
8098.41125 6.45451e-18
8100.40966 6.51404e-18
8102.40808 6.57310e-18
8104.40649 6.61826e-18
8106.40490 6.63274e-18
8108.41341 6.60411e-18
8110.41182 6.54575e-18
8112.41024 6.45945e-18
8114.40865 6.36809e-18
8116.41716 6.29402e-18
8118.41557 6.23443e-18
8120.41399 6.17764e-18
8122.41240 6.12521e-18
8124.41082 6.08697e-18
8126.41932 6.07458e-18
8128.41774 6.08284e-18
8130.41615 6.12358e-18
8132.41456 6.16885e-18
8134.42307 6.19730e-18
8136.42149 6.19986e-18
8138.41990 6.18404e-18
8140.41831 6.15756e-18
8142.41673 6.14389e-18
8144.42523 6.19515e-18
8146.42365 6.25707e-18
8148.42206 6.30245e-18
8150.42048 6.31229e-18
8152.41889 6.28023e-18
8154.42740 6.20964e-18
8156.42581 6.13865e-18
8158.42423 6.13481e-18
8160.42264 6.13667e-18
8162.43115 6.12270e-18
8164.42956 6.07545e-18
8166.42797 5.97385e-18
8168.42639 5.83431e-18
8170.42480 5.70989e-18
8172.43331 5.67461e-18
8174.43172 5.67433e-18
8176.43014 5.69953e-18
8178.42855 5.72189e-18
8180.43706 5.71729e-18
8182.43547 5.68234e-18
8184.43389 5.63894e-18
8186.43230 5.60782e-18
8188.43071 5.59260e-18
8190.43922 5.60531e-18
8192.43764 5.65032e-18
8194.43605 5.74701e-18
8196.43446 5.86905e-18
8198.43288 5.99143e-18
8200.44138 6.07603e-18
8202.43980 6.12427e-18
8204.43821 6.10629e-18
8206.43663 6.04676e-18
8208.44513 5.93993e-18
8210.44355 5.82075e-18
8212.44196 5.71114e-18
8214.44038 5.64008e-18
8216.43879 5.59611e-18
8218.44730 5.58330e-18
8220.44571 5.60271e-18
8222.44412 5.68067e-18
8224.44254 5.76406e-18
8226.44095 5.81042e-18
8228.44946 5.79628e-18
8230.44787 5.74646e-18
8232.44629 5.67380e-18
8234.44470 5.59075e-18
8236.45321 5.51590e-18
8238.45162 5.44993e-18
8240.45004 5.39560e-18
8242.44845 5.35203e-18
8244.44686 5.31535e-18
8246.45537 5.28206e-18
8248.45378 5.25342e-18
8250.45220 5.21890e-18
8252.45061 5.20373e-18
8254.45912 5.24619e-18
8256.45753 5.30547e-18
8258.45595 5.33398e-18
8260.45436 5.29602e-18
8262.45278 5.22471e-18
8264.46128 5.12993e-18
8266.45970 5.04411e-18
8268.45811 5.02319e-18
8270.45653 5.01711e-18
8272.45494 4.96216e-18
8274.46345 4.85613e-18
8276.46186 4.76275e-18
8278.46027 4.74764e-18
8280.45869 4.77711e-18
8282.46720 4.87709e-18
8284.46561 4.97478e-18
8286.46402 5.00408e-18
8288.46244 4.96571e-18
8290.46085 4.91993e-18
8292.46936 4.90897e-18
8294.46777 4.88686e-18
8296.46619 4.80633e-18
8298.46460 4.71026e-18
8300.46301 4.61587e-18
8302.47152 4.53930e-18
8304.46994 4.48313e-18
8306.46835 4.45373e-18
8308.46676 4.44239e-18
8310.47527 4.45324e-18
8312.47368 4.44857e-18
8314.47210 4.38407e-18
8316.47051 4.28670e-18
8318.46893 4.18343e-18
8320.47743 4.09949e-18
8322.47585 4.03037e-18
8324.47426 3.98679e-18
8326.47268 3.95471e-18
8328.47109 3.92996e-18
8330.47960 3.90062e-18
8332.47801 3.84441e-18
8334.47642 3.78113e-18
8336.47484 3.75711e-18
8338.48335 3.80939e-18
8340.48176 3.85558e-18
8342.48017 3.79333e-18
8344.47859 3.69615e-18
8346.47700 3.60728e-18
8348.48551 3.52817e-18
8350.48392 3.42236e-18
8352.48234 3.28918e-18
8354.48075 3.17933e-18
8356.48926 3.18203e-18
8358.48767 3.20951e-18
8360.48609 3.22668e-18
8362.48450 3.21283e-18
8364.48291 3.15705e-18
8366.49142 3.06499e-18
8368.48983 2.97211e-18
8370.48825 2.92497e-18
8372.48666 2.88623e-18
8374.48508 2.83731e-18
8376.49358 2.78175e-18
8378.49200 2.71863e-18
8380.49041 2.65853e-18
8382.48883 2.61347e-18
8384.49733 2.59930e-18
8386.49575 2.59946e-18
8388.49416 2.60667e-18
8390.49257 2.61402e-18
8392.49099 2.61722e-18
8394.49950 2.61076e-18
8396.49791 2.58561e-18
8398.49632 2.54673e-18
8400.49474 2.52722e-18
8402.50324 2.60143e-18
8404.50166 2.68809e-18
8406.50007 2.73676e-18
8408.49849 2.76165e-18
8410.49690 2.80031e-18
8412.50541 2.86303e-18
8414.50382 2.91805e-18
8416.50224 2.92893e-18
8418.50065 2.93582e-18
8420.49906 2.97449e-18
8422.50757 3.01716e-18
8424.50598 3.03361e-18
8426.50440 3.01820e-18
8428.50281 2.99199e-18
8430.51132 2.97416e-18
8432.50973 2.97075e-18
8434.50815 3.00861e-18
8436.50656 3.06004e-18
8438.50497 3.10152e-18
8440.51348 3.13497e-18
8442.51190 3.18091e-18
8444.51031 3.25181e-18
8446.50872 3.32965e-18
8448.50714 3.40096e-18
8450.51564 3.46419e-18
8452.51406 3.49790e-18
8454.51247 3.53536e-18
8456.51089 3.61917e-18
8458.51939 3.76606e-18
8460.51781 3.92545e-18
8462.51622 4.04623e-18
8464.51464 4.14049e-18
8466.51305 4.19993e-18
8468.52156 4.22513e-18
8470.51997 4.21031e-18
8472.51839 4.16877e-18
8474.51680 4.11523e-18
8476.52531 4.07393e-18
8478.52372 4.05695e-18
8480.52213 4.11344e-18
8482.52055 4.18206e-18
8484.51896 4.21493e-18
8486.52747 4.19979e-18
8488.52588 4.16019e-18
8490.52430 4.11623e-18
8492.52271 4.08481e-18
8494.52113 4.09727e-18
8496.52963 4.14938e-18
8498.52805 4.26772e-18
8500.52646 4.40703e-18
8502.52487 4.51962e-18
8504.53338 4.56505e-18
8506.53180 4.58348e-18
8508.53021 4.59308e-18
8510.52862 4.61181e-18
8512.52704 4.68012e-18
8514.53554 4.75907e-18
8516.53396 4.81293e-18
8518.53237 4.81247e-18
8520.53079 4.76787e-18
8522.52920 4.67071e-18
8524.53771 4.57401e-18
8526.53612 4.52631e-18
8528.53454 4.52801e-18
8530.53295 4.59910e-18
8532.54146 4.70221e-18
8534.53987 4.77929e-18
8536.53828 4.77016e-18
8538.53670 4.75631e-18
8540.53511 4.82246e-18
8542.54362 4.90719e-18
8544.54203 4.96967e-18
8546.54045 5.01712e-18
8548.53886 5.07960e-18
8550.53728 5.17538e-18
8552.54578 5.28544e-18
8554.54420 5.40689e-18
8556.54261 5.51333e-18
8558.54102 5.57331e-18
8560.54953 5.60329e-18
8562.54795 5.62207e-18
8564.54636 5.64898e-18
8566.54477 5.68033e-18
8568.54319 5.72210e-18
8570.55169 5.78850e-18
8572.55011 5.91287e-18
8574.54852 6.05602e-18
8576.54694 6.18177e-18
8578.54535 6.28180e-18
8580.55386 6.38503e-18
8582.55227 6.51241e-18
8584.55069 6.64467e-18
8586.54910 6.78352e-18
8588.55761 6.89972e-18
8590.55602 6.94674e-18
8592.55443 6.96472e-18
8594.55285 7.02437e-18
8596.55126 7.17415e-18
8598.55977 7.33447e-18
8600.55818 7.40715e-18
8602.55660 7.47081e-18
8604.55501 7.57078e-18
8606.55343 7.68297e-18
8608.56193 7.76403e-18
8610.56035 7.79987e-18
8612.55876 7.82885e-18
8614.55717 7.88798e-18
8616.56568 7.96741e-18
8618.56409 8.08611e-18
8620.56251 8.21349e-18
8622.56092 8.31667e-18
8624.55934 8.39435e-18
8626.56784 8.48484e-18
8628.56626 8.62193e-18
8630.56467 8.75438e-18
8632.56309 8.81396e-18
8634.57159 8.87274e-18
8636.57001 8.99622e-18
8638.56842 9.17213e-18
8640.56684 9.33919e-18
8642.56525 9.45517e-18
8644.57376 9.57259e-18
8646.57217 9.74949e-18
8648.57058 9.93530e-18
8650.56900 1.01363e-17
8652.56741 1.02860e-17
8654.57592 1.03111e-17
8656.57433 1.01935e-17
8658.57275 1.00459e-17
8660.57116 9.99925e-18
8662.57967 1.00026e-17
8664.57808 1.00786e-17
8666.57650 1.01825e-17
8668.57491 1.02808e-17
8670.57332 1.03450e-17
8672.58183 1.03963e-17
8674.58025 1.04395e-17
8676.57866 1.04417e-17
8678.57707 1.03423e-17
8680.57549 1.02103e-17
8682.58399 1.00903e-17
8684.58241 1.00126e-17
8686.58082 9.96084e-18
8688.57924 9.94059e-18
8690.58774 9.95753e-18
8692.58616 1.00446e-17
8694.58457 1.01436e-17
8696.58299 1.02151e-17
8698.58140 1.02541e-17
8700.58991 1.02775e-17
8702.58832 1.02960e-17
8704.58673 1.03117e-17
8706.58515 1.03360e-17
8708.59366 1.03599e-17
8710.59207 1.03831e-17
8712.59048 1.03982e-17
8714.58890 1.03801e-17
8716.58731 1.03550e-17
8718.59582 1.03817e-17
8720.59423 1.05440e-17
8722.59265 1.07489e-17
8724.59106 1.09659e-17
8726.58947 1.11356e-17
8728.59798 1.11972e-17
8730.59640 1.11626e-17
8732.59481 1.11069e-17
8734.59322 1.10968e-17
8736.60173 1.10721e-17
8738.60014 1.09825e-17
8740.59856 1.08700e-17
8742.59697 1.07405e-17
8744.59539 1.06348e-17
8746.60389 1.05839e-17
8748.60231 1.06140e-17
8750.60072 1.06783e-17
8752.59914 1.07439e-17
8754.60764 1.07891e-17
8756.60606 1.07809e-17
8758.60447 1.07259e-17
8760.60288 1.06306e-17
8762.60130 1.05178e-17
8764.60981 1.04056e-17
8766.60822 1.03283e-17
8768.60663 1.02824e-17
8770.60505 1.02921e-17
8772.60346 1.03261e-17
8774.61197 1.03640e-17
8776.61038 1.03852e-17
8778.60880 1.03935e-17
8780.60721 1.03814e-17
8782.61572 1.03569e-17
8784.61413 1.03092e-17
8786.61254 1.02755e-17
8788.61096 1.02860e-17
8790.60937 1.03432e-17
8792.61788 1.04338e-17
8794.61629 1.05409e-17
8796.61471 1.06499e-17
8798.61312 1.07466e-17
8800.61154 1.07986e-17
8802.62004 1.07662e-17
8804.61846 1.06654e-17
8806.61687 1.05098e-17
8808.61529 1.03362e-17
8810.62379 1.01733e-17
8812.62221 1.00872e-17
8814.62062 1.00065e-17
8816.61903 9.87780e-18
8818.61745 9.72820e-18
8820.62596 9.56916e-18
8822.62437 9.44091e-18
8824.62278 9.36858e-18
8826.62120 9.39988e-18
8828.62970 9.50096e-18
8830.62812 9.72331e-18
8832.62653 9.91371e-18
8834.62495 9.92447e-18
8836.62336 9.78196e-18
8838.63187 9.61769e-18
8840.63028 9.54175e-18
8842.62870 9.48647e-18
8844.62711 9.44359e-18
8846.62552 9.38813e-18
8848.63403 9.27163e-18
8850.63244 9.14513e-18
8852.63086 9.08577e-18
8854.62927 9.11923e-18
8856.63778 9.15228e-18
8858.63619 9.07524e-18
8860.63461 8.96270e-18
8862.63302 8.83416e-18
8864.63144 8.70532e-18
8866.63994 8.58202e-18
8868.63836 8.47186e-18
8870.63677 8.36764e-18
8872.63518 8.26616e-18
8874.63360 8.16793e-18
8876.64211 8.06138e-18
8878.64052 7.97101e-18
8880.63893 7.92487e-18
8882.63735 7.91253e-18
8884.64585 7.90438e-18
8886.64427 7.87052e-18
8888.64268 7.82612e-18
8890.64110 7.75984e-18
8892.63951 7.70310e-18
8894.64802 7.68274e-18
8896.64643 7.69373e-18
8898.64485 7.72865e-18
8900.64326 7.76321e-18
8902.65177 7.77049e-18
8904.65018 7.68111e-18
8906.64859 7.57724e-18
8908.64701 7.48111e-18
8910.64542 7.44730e-18
8912.65393 7.54552e-18
8914.65234 7.74669e-18
8916.65076 7.92667e-18
8918.64917 7.92865e-18
8920.64759 7.83421e-18
8922.65609 7.62716e-18
8924.65451 7.37805e-18
8926.65292 7.14063e-18
8928.65133 6.93784e-18
8930.65984 6.71933e-18
8932.65826 6.46999e-18
8934.65667 6.27371e-18
8936.65508 6.26562e-18
8938.65350 6.32230e-18
8940.66200 6.38509e-18
8942.66042 6.40807e-18
8944.65883 6.38654e-18
8946.65725 6.31171e-18
8948.66575 6.23024e-18
8950.66417 6.21732e-18
8952.66258 6.20074e-18
8954.66100 6.12270e-18
8956.65941 6.02902e-18
8958.66792 5.99154e-18
8960.66633 6.01854e-18
8962.66474 6.02262e-18
8964.66316 5.89721e-18
8966.66157 5.76879e-18
8968.67008 5.74730e-18
8970.66849 5.75991e-18
8972.66691 5.73937e-18
8974.66532 5.66013e-18
8976.67383 5.55742e-18
8978.67224 5.45100e-18
8980.67066 5.33902e-18
8982.66907 5.21016e-18
8984.66748 5.10957e-18
8986.67599 5.09068e-18
8988.67441 5.12483e-18
8990.67282 5.15333e-18
8992.67123 5.12638e-18
8994.66965 5.08568e-18
8996.67815 5.05342e-18
8998.67657 5.02711e-18
9000.67498 5.00015e-18
9002.67340 4.99674e-18
9004.68190 5.05633e-18
9006.68032 5.16937e-18
9008.67873 5.26420e-18
9010.67714 5.24138e-18
9012.67556 5.17223e-18
9014.68407 5.06960e-18
9016.68248 4.96710e-18
9018.68089 4.89539e-18
9020.67931 4.85480e-18
9022.67772 4.79967e-18
9024.68623 4.68896e-18
9026.68464 4.59336e-18
9028.68306 4.59188e-18
9030.68147 4.62686e-18
9032.68998 4.65670e-18
9034.68839 4.67405e-18
9036.68681 4.70501e-18
9038.68522 4.76108e-18
9040.68363 4.82288e-18
9042.69214 4.86903e-18
9044.69056 4.91263e-18
9046.68897 4.96146e-18
9048.68738 5.01021e-18
9050.68580 5.04842e-18
9052.69430 5.07438e-18
9054.69272 5.10343e-18
9056.69113 5.16261e-18
9058.68955 5.20767e-18
9060.69805 5.18284e-18
9062.69647 5.14459e-18
9064.69488 5.15813e-18
9066.69330 5.23559e-18
9068.69171 5.31703e-18
9070.70022 5.34616e-18
9072.69863 5.35217e-18
9074.69704 5.33033e-18
9076.69546 5.30291e-18
9078.69387 5.27437e-18
9080.70238 5.27335e-18
9082.70079 5.32575e-18
9084.69921 5.45306e-18
9086.69762 5.58780e-18
9088.70613 5.65965e-18
9090.70454 5.68208e-18
9092.70296 5.63398e-18
9094.70137 5.54755e-18
9096.69978 5.44911e-18
9098.70829 5.38098e-18
9100.70671 5.34617e-18
9102.70512 5.38703e-18
9104.70353 5.45571e-18
9106.70195 5.52817e-18
9108.71045 5.59793e-18
9110.70887 5.67692e-18
9112.70728 5.75048e-18
9114.70570 5.79542e-18
9116.71420 5.77490e-18
9118.71262 5.74451e-18
9120.71103 5.76417e-18
9122.70945 5.78598e-18
9124.70786 5.77326e-18
9126.71637 5.70668e-18
9128.71478 5.59093e-18
9130.71319 5.43133e-18
9132.71161 5.28149e-18
9134.72012 5.22127e-18
9136.71853 5.20579e-18
9138.71694 5.23509e-18
9140.71536 5.26181e-18
9142.71377 5.23899e-18
9144.72228 5.13857e-18
9146.72069 5.03662e-18
9148.71911 5.01585e-18
9150.71752 5.05079e-18
9152.71593 5.19542e-18
9154.72444 5.34913e-18
9156.72286 5.40535e-18
9158.72127 5.32104e-18
9160.71968 5.20562e-18
9162.72819 5.16139e-18
9164.72660 5.13763e-18
9166.72502 5.12432e-18
9168.72343 5.12760e-18
9170.72185 5.16111e-18
9172.73035 5.21382e-18
9174.72877 5.26717e-18
9176.72718 5.29642e-18
9178.72559 5.30778e-18
9180.73410 5.28145e-18
9182.73252 5.25257e-18
9184.73093 5.24184e-18
9186.72934 5.26411e-18
9188.72776 5.32457e-18
9190.73626 5.41893e-18
9192.73468 5.50843e-18
9194.73309 5.51242e-18
9196.73151 5.51246e-18
9198.72992 5.56775e-18
9200.73843 5.64381e-18
9202.73684 5.67895e-18
9204.73526 5.65518e-18
9206.73367 5.63599e-18
9208.74218 5.69625e-18
9210.74059 5.75991e-18
9212.73901 5.76340e-18
9214.73742 5.75533e-18
9216.73583 5.78822e-18
9218.74434 5.87493e-18
9220.74275 5.98043e-18
9222.74117 6.07493e-18
9224.73958 6.14639e-18
9226.73800 6.15116e-18
9228.74650 6.13132e-18
9230.74492 6.12212e-18
9232.74333 6.12230e-18
9234.74175 6.10077e-18
9236.75025 6.04065e-18
9238.74867 5.97414e-18
9240.74708 5.92608e-18
9242.74549 5.90455e-18
9244.74391 5.93009e-18
9246.75242 5.98898e-18
9248.75083 6.06958e-18
9250.74924 6.14674e-18
9252.74766 6.20586e-18
9254.75616 6.19835e-18
9256.75458 6.19579e-18
9258.75299 6.26859e-18
9260.75141 6.36472e-18
9262.74982 6.43461e-18
9264.75833 6.44182e-18
9266.75674 6.40161e-18
9268.75516 6.30897e-18
9270.75357 6.20056e-18
9272.75198 6.10420e-18
9274.76049 6.03588e-18
9276.75890 6.00912e-18
9278.75732 6.02686e-18
9280.75573 6.08732e-18
9282.76424 6.17630e-18
9284.76265 6.24758e-18
9286.76107 6.20481e-18
9288.75948 6.13981e-18
9290.75790 6.11805e-18
9292.76640 6.12218e-18
9294.76482 6.09070e-18
9296.76323 6.00539e-18
9298.76164 5.93207e-18
9300.76006 5.94528e-18
9302.76857 6.01796e-18
9304.76698 6.21843e-18
9306.76539 6.40499e-18
9308.76381 6.43705e-18
9310.77231 6.26178e-18
9312.77073 5.99946e-18
9314.76914 5.74604e-18
9316.76756 5.59259e-18
9318.76597 5.78673e-18
9320.77448 6.05672e-18
9322.77289 6.16670e-18
9324.77131 6.06178e-18
9326.76972 5.90181e-18
9328.77823 5.80029e-18
9330.77664 5.71231e-18
9332.77505 5.62386e-18
9334.77347 5.58608e-18
9336.77188 5.67404e-18
9338.78039 5.82343e-18
9340.77880 5.96041e-18
9342.77722 5.98497e-18
9344.77563 5.89873e-18
9346.77405 5.51597e-18
9348.78255 5.20457e-18
9350.78097 5.30346e-18
9352.77938 5.62744e-18
9354.77779 5.92794e-18
9356.78630 6.03716e-18
9358.78471 6.07365e-18
9360.78313 6.06975e-18
9362.78154 6.02506e-18
9364.77996 5.93545e-18
9366.78846 5.83856e-18
9368.78688 5.71998e-18
9370.78529 5.66587e-18
9372.78371 5.78333e-18
9374.79221 6.19149e-18
9376.79063 6.61604e-18
9378.78904 6.79678e-18
9380.78746 6.79370e-18
9382.78587 6.56041e-18
9384.79438 6.22209e-18
9386.79279 5.90827e-18
9388.79120 5.76391e-18
9390.78962 5.68270e-18
9392.78803 5.60958e-18
9394.79654 5.57273e-18
9396.79495 5.59962e-18
9398.79337 5.64591e-18
9400.79178 5.64580e-18
9402.80029 5.59571e-18
9404.79870 5.59979e-18
9406.79712 5.81031e-18
9408.79553 6.02669e-18
9410.79394 6.09949e-18
9412.80245 6.07796e-18
9414.80086 6.02442e-18
9416.79928 5.96507e-18
9418.79769 5.86346e-18
9420.79611 5.70533e-18
9422.80461 5.58117e-18
9424.80303 5.61882e-18
9426.80144 5.72204e-18
9428.79986 5.85532e-18
9430.80836 5.94127e-18
9432.80678 5.92870e-18
9434.80519 5.77070e-18
9436.80361 5.59482e-18
9438.80202 5.54638e-18
9440.81053 5.56690e-18
9442.80894 5.69600e-18
9444.80735 5.83355e-18
9446.80577 5.87598e-18
9448.81428 5.75906e-18
9450.81269 5.59086e-18
9452.81110 5.43954e-18
9454.80952 5.38432e-18
9456.80793 5.64120e-18
9458.81644 5.94877e-18
9460.81485 6.02425e-18
9462.81327 5.79545e-18
9464.81168 5.50892e-18
9466.81009 5.38531e-18
9468.81860 5.37566e-18
9470.81702 5.58215e-18
9472.81543 5.87574e-18
9474.81384 6.21389e-18
9476.82235 6.46236e-18
9478.82076 6.54290e-18
9480.81918 6.34854e-18
9482.81759 6.05119e-18
9484.81601 5.75943e-18
9486.82451 5.54525e-18
9488.82293 5.52711e-18
9490.82134 5.64208e-18
9492.81976 5.80366e-18
9494.81817 5.89320e-18
9496.82668 5.88837e-18
9498.82509 5.62913e-18
9500.82350 5.33211e-18
9502.82192 5.11236e-18
9504.83043 5.00928e-18
9506.82884 5.03890e-18
9508.82725 5.17548e-18
9510.82567 5.34447e-18
9512.82408 5.44778e-18
9514.83259 5.49670e-18
9516.83100 5.40574e-18
9518.82942 5.30246e-18
9520.82783 5.31867e-18
9522.82624 5.44169e-18
9524.83475 5.54425e-18
9526.83317 5.50901e-18
9528.83158 5.40895e-18
9530.82999 5.22415e-18
9532.83850 5.05565e-18
9534.83691 5.00628e-18
9536.83533 5.04055e-18
9538.83374 5.06670e-18
9540.83216 5.01404e-18
9542.84066 4.93446e-18
9544.83908 4.82919e-18
9546.83749 4.75288e-18
9548.83591 4.77280e-18
9550.83432 4.84621e-18
9552.84283 4.92951e-18
9554.84124 4.97156e-18
9556.83965 4.97027e-18
9558.83807 4.88536e-18
9560.84658 4.77945e-18
9562.84499 4.70470e-18
9564.84340 4.64155e-18
9566.84182 4.56738e-18
9568.84023 4.47763e-18
9570.84874 4.38010e-18
9572.84715 4.28334e-18
9574.84557 4.20920e-18
9576.84398 4.18133e-18
9578.84239 4.20846e-18
9580.85090 4.33096e-18
9582.84931 4.49273e-18
9584.84773 4.63057e-18
9586.84614 4.66946e-18
9588.85465 4.64579e-18
9590.85306 4.52619e-18
9592.85148 4.39667e-18
9594.84989 4.30247e-18
9596.84831 4.27782e-18
9598.85681 4.34634e-18
9600.85523 4.49413e-18
9602.85364 4.64807e-18
9604.85206 4.70901e-18
9606.86056 4.71860e-18
9608.85898 4.63276e-18
9610.85739 4.55064e-18
9612.85580 4.57535e-18
9614.85422 4.71395e-18
9616.86273 4.86349e-18
9618.86114 4.92228e-18
9620.85955 4.91758e-18
9622.85797 4.78480e-18
9624.85638 4.63417e-18
9626.86489 4.54384e-18
9628.86330 4.54482e-18
9630.86172 4.61880e-18
9632.86013 4.73849e-18
9634.86864 4.82551e-18
9636.86705 4.68425e-18
9638.86547 4.54039e-18
9640.86388 4.55492e-18
9642.86229 4.68205e-18
9644.87080 4.81416e-18
9646.86921 4.87160e-18
9648.86763 4.89316e-18
9650.86604 4.87137e-18
9652.86446 4.82920e-18
9654.87296 4.76612e-18
9656.87138 4.72241e-18
9658.86979 4.73761e-18
9660.86821 4.81478e-18
9662.87671 4.90722e-18
9664.87513 4.96657e-18
9666.87354 5.00289e-18
9668.87195 4.99941e-18
9670.87037 4.96992e-18
9672.87888 4.91099e-18
9674.87729 4.85120e-18
9676.87570 4.81778e-18
9678.87412 4.84240e-18
9680.88262 4.88392e-18
9682.88104 4.90981e-18
9684.87945 4.92673e-18
9686.87787 4.92572e-18
9688.87628 4.92135e-18
9690.88479 4.93894e-18
9692.88320 4.98286e-18
9694.88162 5.01109e-18
9696.88003 4.96179e-18
9698.87844 4.88530e-18
9700.88695 4.78363e-18
9702.88536 4.70038e-18
9704.88378 4.66748e-18
9706.88219 4.70526e-18
9708.89070 4.78993e-18
9710.88911 4.91109e-18
9712.88753 5.00599e-18
9714.88594 4.96313e-18
9716.88436 4.88780e-18
9718.89286 4.88584e-18
9720.89128 4.95648e-18
9722.88969 4.99288e-18
9724.88810 4.91845e-18
9726.89661 4.86557e-18
9728.89503 5.00573e-18
9730.89344 5.18148e-18
9732.89185 5.29673e-18
9734.89027 5.33008e-18
9736.89877 5.31291e-18
9738.89719 5.27515e-18
9740.89560 5.25128e-18
9742.89402 5.34296e-18
9744.89243 5.42880e-18
9746.90094 5.43871e-18
9748.89935 5.37487e-18
9750.89776 5.24248e-18
9752.89618 5.08532e-18
9754.90469 4.96286e-18
9756.90310 4.98241e-18
9758.90151 5.02443e-18
9760.89993 5.02054e-18
9762.89834 4.96547e-18
9764.90685 4.83721e-18
9766.90526 4.67871e-18
9768.90368 4.56130e-18
9770.90209 4.57042e-18
9772.90051 4.61210e-18
9774.90901 4.61222e-18
9776.90743 4.60620e-18
9778.90584 4.60556e-18
9780.90425 4.63059e-18
9782.91276 4.70324e-18
9784.91118 4.82838e-18
9786.90959 4.94651e-18
9788.90800 4.96416e-18
9790.90642 4.94668e-18
9792.91492 4.92182e-18
9794.91334 4.88483e-18
9796.91175 4.80542e-18
9798.91017 4.69377e-18
9800.91867 4.59691e-18
9802.91709 4.58399e-18
9804.91550 4.60361e-18
9806.91392 4.64514e-18
9808.91233 4.68547e-18
9810.92084 4.70209e-18
9812.91925 4.69770e-18
9814.91766 4.71047e-18
9816.91608 4.77695e-18
9818.91449 4.82940e-18
9820.92300 4.80686e-18
9822.92141 4.72729e-18
9824.91983 4.57737e-18
9826.91824 4.40390e-18
9828.92675 4.24991e-18
9830.92516 4.17428e-18
9832.92358 4.14855e-18
9834.92199 4.17610e-18
9836.92040 4.24593e-18
9838.92891 4.39373e-18
9840.92733 4.53008e-18
9842.92574 4.54261e-18
9844.92415 4.39843e-18
9846.92257 4.26387e-18
9848.93107 4.35792e-18
9850.92949 4.49440e-18
9852.92790 4.59366e-18
9854.92632 4.63976e-18
9856.93482 4.63853e-18
9858.93324 4.59156e-18
9860.93165 4.51241e-18
9862.93007 4.41674e-18
9864.92848 4.31170e-18
9866.93699 4.18532e-18
9868.93540 4.09783e-18
9870.93381 4.11890e-18
9872.93223 4.22308e-18
9874.94074 4.33002e-18
9876.93915 4.36362e-18
9878.93756 4.38110e-18
9880.93598 4.42317e-18
9882.93439 4.45096e-18
9884.94290 4.44424e-18
9886.94131 4.39489e-18
9888.93973 4.28622e-18
9890.93814 4.14229e-18
9892.93655 4.03720e-18
9894.94506 4.12410e-18
9896.94348 4.23130e-18
9898.94189 4.24542e-18
9900.94030 4.20328e-18
9902.94881 4.17281e-18
9904.94722 4.17679e-18
9906.94564 4.16562e-18
9908.94405 4.09263e-18
9910.94247 4.05472e-18
9912.95097 4.16563e-18
9914.94939 4.33706e-18
9916.94780 4.52796e-18
9918.94621 4.65359e-18
9920.95472 4.66277e-18
9922.95314 4.48726e-18
9924.95155 4.28674e-18
9926.94996 4.24503e-18
9928.94838 4.25686e-18
9930.95689 4.26704e-18
9932.95530 4.26640e-18
9934.95371 4.29396e-18
9936.95213 4.34657e-18
9938.95054 4.36697e-18
9940.95905 4.20451e-18
9942.95746 4.08321e-18
9944.95588 4.19381e-18
9946.95429 4.42893e-18
9948.96280 4.68123e-18
9950.96121 4.80188e-18
9952.95963 4.74063e-18
9954.95804 4.30316e-18
9956.95645 3.88292e-18
9958.96496 3.86079e-18
9960.96337 4.04516e-18
9962.96179 4.28635e-18
9964.96020 4.44130e-18
9966.95862 4.49424e-18
9968.96712 4.36379e-18
9970.96554 4.20725e-18
9972.96395 4.19556e-18
9974.96236 4.22696e-18
9976.97087 4.21481e-18
9978.96929 4.19135e-18
9980.96770 4.26390e-18
9982.96611 4.47473e-18
9984.96453 4.66431e-18
9986.97304 4.59198e-18
9988.97145 4.44999e-18
9990.96986 4.31541e-18
9992.96828 4.20774e-18
9994.97678 4.08938e-18
9996.97520 3.97803e-18
9998.97361 3.91709e-18
10000.97203 3.98381e-18
10002.97044 4.08639e-18
