# wavelength flux
3200.79393 0.00000e+00
3203.73306 0.00000e+00
3206.67219 -6.88408e-18
3209.61132 -7.16840e-18
3212.55045 2.40372e-17
3215.49975 3.05058e-17
3218.43888 3.74935e-18
3221.37801 -1.64715e-17
3224.31714 2.03851e-17
3227.25627 3.38678e-17
3230.20557 2.02847e-17
3233.14470 1.48441e-17
3236.08383 6.07220e-18
3239.02296 -1.03847e-17
3241.96209 1.68985e-17
3244.91139 3.77077e-17
3247.85052 -9.36226e-18
3250.78965 -7.25789e-18
3253.72878 -1.72201e-18
3256.66791 7.96261e-19
3259.61721 2.75232e-17
3262.55634 2.82811e-17
3265.49547 1.38816e-17
3268.43460 -2.61341e-18
3271.37373 1.90884e-17
3274.32303 2.19235e-17
3277.26216 1.46778e-17
3280.20129 9.15355e-18
3283.14042 2.75035e-18
3286.07955 3.53755e-17
3289.02885 2.83164e-17
3291.96798 2.43816e-17
3294.90711 2.41716e-17
3297.84624 3.49743e-17
3300.78537 7.78204e-18
3303.72450 2.07522e-17
3306.67380 1.08662e-17
3309.61293 1.60432e-17
3312.55206 1.48098e-17
3315.49119 2.07511e-17
3318.43032 2.35990e-17
3321.37962 2.02902e-17
3324.31875 1.67672e-17
3327.25788 2.54084e-17
3330.19701 3.19036e-17
3333.13614 2.64906e-17
3336.08544 1.54112e-17
3339.02457 2.77894e-17
3341.96370 3.55096e-17
3344.90283 3.26148e-17
3347.84196 1.96174e-17
3350.79126 2.34671e-17
3353.73039 1.86751e-17
3356.66952 3.41681e-17
3359.60865 2.69041e-17
3362.54778 1.82473e-17
3365.49708 3.22239e-17
3368.43621 2.43881e-17
3371.37534 2.51245e-17
3374.31447 2.36283e-17
3377.25360 1.87978e-17
3380.20290 2.19389e-17
3383.14203 2.27558e-17
3386.08116 3.36273e-17
3389.02029 2.60270e-17
3391.95942 2.48385e-17
3394.90872 2.50165e-17
3397.84785 2.20941e-17
3400.78698 2.18429e-17
3403.72611 1.96313e-17
3406.66524 2.56266e-17
3409.60437 2.20978e-17
3412.55367 2.81336e-17
3415.49280 2.28030e-17
3418.43193 2.70711e-17
3421.37106 2.38036e-17
3424.31019 2.43647e-17
3427.25949 2.48716e-17
3430.19862 2.68551e-17
3433.13775 2.51951e-17
3436.07688 2.64808e-17
3439.01601 3.23926e-17
3441.96531 2.44226e-17
3444.90444 3.03098e-17
3447.84357 2.24328e-17
3450.78270 2.88240e-17
3453.72183 2.77461e-17
3456.67113 2.36322e-17
3459.61026 2.75969e-17
3462.54939 3.37943e-17
3465.48852 2.65331e-17
3468.42765 2.61190e-17
3471.37695 2.70310e-17
3474.31608 2.68619e-17
3477.25521 2.80051e-17
3480.19434 2.68341e-17
3483.13347 3.17424e-17
3486.08277 2.94540e-17
3489.02190 2.65314e-17
3491.96103 2.49529e-17
3494.90016 2.78810e-17
3497.83929 3.29010e-17
3500.78859 2.76547e-17
3503.72772 2.81977e-17
3506.66685 2.78341e-17
3509.60598 2.67426e-17
3512.54511 2.87501e-17
3515.49441 2.72371e-17
3518.43354 2.55587e-17
3521.37267 2.56792e-17
3524.31180 2.92828e-17
3527.25093 2.50843e-17
3530.20023 2.45072e-17
3533.13936 2.64195e-17
3536.07849 2.53634e-17
3539.01762 2.74149e-17
3541.95675 2.56673e-17
3544.89588 2.71328e-17
3547.84518 2.63182e-17
3550.78431 2.80509e-17
3553.72344 2.81709e-17
3556.66257 2.54877e-17
3559.60170 2.40688e-17
3562.55100 2.69083e-17
3565.49013 2.68674e-17
3568.42926 2.69539e-17
3571.36839 2.82782e-17
3574.30752 2.61524e-17
3577.25682 2.78370e-17
3580.19595 2.71810e-17
3583.13508 2.84562e-17
3586.07421 2.33832e-17
3589.01334 2.59602e-17
3591.96264 2.55059e-17
3594.90177 2.76517e-17
3597.84090 2.55145e-17
3600.78003 2.57344e-17
3603.71916 2.32843e-17
3606.66846 2.11296e-17
3609.60759 2.16026e-17
3612.54672 2.37760e-17
3615.48585 2.39829e-17
3618.42498 2.54580e-17
3621.37428 2.34864e-17
3624.31341 2.35136e-17
3627.25254 2.25896e-17
3630.19167 2.23130e-17
3633.13080 2.30854e-17
3636.08010 2.30630e-17
3639.01923 2.41458e-17
3641.95836 2.35164e-17
3644.89749 2.24387e-17
3647.83662 2.22501e-17
3650.78592 2.44728e-17
3653.72505 2.48110e-17
3656.66418 2.43392e-17
3659.60331 2.41014e-17
3662.54244 2.54202e-17
3665.48157 2.46726e-17
3668.43087 2.82823e-17
3671.37000 2.74218e-17
3674.30913 2.57568e-17
3677.24826 2.67368e-17
3680.18739 2.73129e-17
3683.13669 2.82776e-17
3686.07582 2.62979e-17
3689.01495 2.75475e-17
3691.95408 2.71942e-17
3694.89321 2.60110e-17
3697.84251 2.78234e-17
3700.78164 2.66290e-17
3703.72077 2.56479e-17
3706.65990 2.47413e-17
3709.59903 2.50661e-17
3712.54833 2.62899e-17
3715.48746 2.62256e-17
3718.42659 2.67128e-17
3721.36572 2.59084e-17
3724.30485 2.54420e-17
3727.25415 2.47761e-17
3730.19328 2.47904e-17
3733.13241 2.61260e-17
3736.07154 2.59752e-17
3739.01067 2.48246e-17
3741.95997 2.42910e-17
3744.89910 2.40359e-17
3747.83823 2.46425e-17
3750.77736 2.45007e-17
3753.71649 2.43531e-17
3756.66579 2.36028e-17
3759.60492 2.25632e-17
3762.54405 2.32055e-17
3765.48318 2.51476e-17
3768.42231 2.52904e-17
3771.37161 2.59512e-17
3774.31074 2.65207e-17
3777.24987 2.49156e-17
3780.18900 2.64048e-17
3783.12813 2.64973e-17
3786.06726 2.45181e-17
3789.01656 2.51126e-17
3791.95569 2.41931e-17
3794.89482 2.47257e-17
3797.83395 2.42571e-17
3800.77308 2.40453e-17
3803.72238 2.37990e-17
3806.66151 2.52773e-17
3809.60064 2.46019e-17
3812.53977 2.48143e-17
3815.47890 2.51713e-17
3818.42820 2.58665e-17
3821.36733 2.56567e-17
3824.30646 2.55675e-17
3827.24559 2.76742e-17
3830.18472 2.66474e-17
3833.13402 2.60441e-17
3836.07315 2.49942e-17
3839.01228 2.53868e-17
3841.95141 2.54641e-17
3844.89054 2.55786e-17
3847.83984 2.36669e-17
3850.77897 2.49024e-17
3853.71810 2.58018e-17
3856.65723 2.44025e-17
3859.59636 2.43197e-17
3862.54566 2.39577e-17
3865.48479 2.19887e-17
3868.42392 2.28977e-17
3871.36305 2.25788e-17
3874.30218 2.24105e-17
3877.25148 2.45709e-17
3880.19061 2.37536e-17
3883.12974 2.41642e-17
3886.06887 2.44603e-17
3889.00800 2.50674e-17
3891.95730 2.50667e-17
3894.89643 2.58272e-17
3897.83556 2.53089e-17
3900.77469 2.55575e-17
3903.71382 2.49087e-17
3906.65295 2.46744e-17
3909.60225 2.43376e-17
3912.54138 2.35121e-17
3915.48051 2.38491e-17
3918.41964 2.52010e-17
3921.35877 2.41030e-17
3924.30807 2.44555e-17
3927.24720 2.37526e-17
3930.18633 2.28684e-17
3933.12546 2.19148e-17
3936.06459 2.07248e-17
3939.01389 2.03795e-17
3941.95302 2.19617e-17
3944.89215 2.36739e-17
3947.83128 2.25995e-17
3950.77041 2.41805e-17
3953.71971 2.40357e-17
3956.65884 2.47518e-17
3959.59797 2.66635e-17
3962.53710 2.56160e-17
3965.47623 2.39299e-17
3968.42553 2.42727e-17
3971.36466 2.43802e-17
3974.30379 2.37981e-17
3977.24292 2.34153e-17
3980.18205 2.28115e-17
3983.13135 2.33374e-17
3986.07048 2.33838e-17
3989.00961 2.36553e-17
3991.94874 2.43163e-17
3994.88787 2.29715e-17
3997.83717 2.24551e-17
4000.77630 2.34251e-17
4003.71543 2.17127e-17
4006.65456 2.23179e-17
4009.59369 2.19831e-17
4012.54299 2.24945e-17
4015.48212 2.23363e-17
4018.42125 2.23301e-17
4021.36038 2.26971e-17
4024.29951 2.29390e-17
4027.24881 2.34351e-17
4030.18794 2.33488e-17
4033.12707 2.37935e-17
4036.06620 2.35089e-17
4039.00533 2.33976e-17
4041.94446 2.34269e-17
4044.89376 2.31152e-17
4047.83289 2.41576e-17
4050.77202 2.36114e-17
4053.71115 2.35118e-17
4056.65028 2.35786e-17
4059.59958 2.28786e-17
4062.53871 2.23916e-17
4065.47784 2.21448e-17
4068.41697 2.19290e-17
4071.35610 2.12979e-17
4074.30540 2.19455e-17
4077.24453 2.10914e-17
4080.18366 2.08700e-17
4083.12279 2.12088e-17
4086.06192 2.19456e-17
4089.01122 2.34621e-17
4091.95035 2.40321e-17
4094.88948 2.52287e-17
4097.82861 2.52065e-17
4100.76774 2.48343e-17
4103.71704 2.43563e-17
4106.65617 2.40401e-17
4109.59530 2.52564e-17
4112.53443 2.40379e-17
4115.47356 2.41171e-17
4118.42286 2.38181e-17
4121.36199 2.45040e-17
4124.30112 2.41074e-17
4127.24025 2.47875e-17
4130.17938 2.39897e-17
4133.12868 2.27562e-17
4136.06781 2.38280e-17
4139.00694 2.31087e-17
4141.94607 2.37786e-17
4144.88520 2.34662e-17
4147.82433 2.40054e-17
4150.77363 2.38481e-17
4153.71276 2.30601e-17
4156.65189 2.37891e-17
4159.59102 2.27657e-17
4162.53015 2.20043e-17
4165.47945 2.27987e-17
4168.41858 2.23777e-17
4171.35771 2.29505e-17
4174.29684 2.27151e-17
4177.23597 2.17787e-17
4180.18527 2.20118e-17
4183.12440 2.21629e-17
4186.06353 2.26587e-17
4189.00266 2.34130e-17
4191.94179 2.27970e-17
4194.89109 2.40048e-17
4197.83022 2.32884e-17
4200.76935 2.36865e-17
4203.70848 2.35357e-17
4206.64761 2.39917e-17
4209.59691 2.47656e-17
4212.53604 2.49353e-17
4215.47517 2.42756e-17
4218.41430 2.49035e-17
4221.35343 2.56856e-17
4224.30273 2.51569e-17
4227.24186 2.47029e-17
4230.18099 2.51081e-17
4233.12012 2.49863e-17
4236.05925 2.45589e-17
4239.00855 2.46646e-17
4241.94768 2.60145e-17
4244.88681 2.44557e-17
4247.82594 2.37460e-17
4250.76507 2.49267e-17
4253.71437 2.45462e-17
4256.65350 2.46447e-17
4259.59263 2.49907e-17
4262.53176 2.36953e-17
4265.47089 2.29466e-17
4268.41002 2.26245e-17
4271.35932 2.34099e-17
4274.29845 2.30426e-17
4277.23758 2.30371e-17
4280.17671 2.36317e-17
4283.11584 2.31123e-17
4286.06514 2.25614e-17
4289.00427 2.16748e-17
4291.94340 2.16539e-17
4294.88253 2.25544e-17
4297.82166 2.19282e-17
4300.77096 2.19356e-17
4303.71009 2.21995e-17
4306.64922 2.14893e-17
4309.58835 2.15554e-17
4312.52748 2.13694e-17
4315.47678 2.20156e-17
4318.41591 2.22556e-17
4321.35504 2.27578e-17
4324.29417 2.33514e-17
4327.23330 2.24530e-17
4330.18260 2.28218e-17
4333.12173 2.35091e-17
4336.06086 2.25454e-17
4338.99999 2.36627e-17
4341.93912 2.29357e-17
4344.88842 2.24856e-17
4347.82755 2.28897e-17
4350.76668 2.24149e-17
4353.70581 2.25561e-17
4356.64494 2.24737e-17
4359.59424 2.19432e-17
4362.53337 2.17010e-17
4365.47250 2.16282e-17
4368.41163 2.14884e-17
4371.35076 2.14413e-17
4374.30006 2.16374e-17
4377.23919 2.15445e-17
4380.17832 2.22021e-17
4383.11745 2.17824e-17
4386.05658 2.12802e-17
4388.99571 2.13540e-17
4391.94501 2.10158e-17
4394.88414 2.16253e-17
4397.82327 2.07280e-17
4400.76240 2.09319e-17
4403.70153 2.15272e-17
4406.65083 2.14522e-17
4409.58996 2.24448e-17
4412.52909 2.21718e-17
4415.46822 2.15111e-17
4418.40735 2.09954e-17
4421.35665 2.04575e-17
4424.29578 2.15729e-17
4427.23491 2.09645e-17
4430.17404 2.10827e-17
4433.11317 2.06991e-17
4436.06247 2.09479e-17
4439.00160 2.05966e-17
4441.94073 1.98521e-17
4444.87986 1.99542e-17
4447.81899 2.00150e-17
4450.76829 2.03137e-17
4453.70742 2.08485e-17
4456.64655 2.10509e-17
4459.58568 2.11154e-17
4462.52481 2.22757e-17
4465.47411 2.22632e-17
4468.41324 2.12021e-17
4471.35237 2.14338e-17
4474.29150 2.15125e-17
4477.23063 2.10880e-17
4480.17993 2.08440e-17
4483.11906 2.01996e-17
4486.05819 2.02733e-17
4488.99732 2.03934e-17
4491.93645 2.05146e-17
4494.88575 2.02928e-17
4497.82488 2.01314e-17
4500.76401 2.01429e-17
4503.70314 1.99334e-17
4506.64227 1.99798e-17
4509.59157 2.01416e-17
4512.53070 1.99229e-17
4515.46983 1.98717e-17
4518.40896 1.92734e-17
4521.34809 1.81053e-17
4524.29739 1.72398e-17
4527.23652 1.72268e-17
4530.17565 1.73185e-17
4533.11478 1.71461e-17
4536.05391 1.85446e-17
4538.99304 1.86105e-17
4541.94234 1.99538e-17
4544.88147 2.13420e-17
4547.82060 2.19250e-17
4550.75973 2.30520e-17
4553.69886 2.32980e-17
4556.64816 2.27508e-17
4559.58729 2.30167e-17
4562.52642 2.27812e-17
4565.46555 2.23589e-17
4568.40468 2.17457e-17
4571.35398 2.11358e-17
4574.29311 2.16675e-17
4577.23224 2.11742e-17
4580.17137 2.09361e-17
4583.11050 2.07166e-17
4586.05980 2.09210e-17
4588.99893 2.07982e-17
4591.93806 2.07270e-17
4594.87719 2.04217e-17
4597.81632 2.00384e-17
4600.76562 2.02220e-17
4603.70475 2.01824e-17
4606.64388 2.05269e-17
4609.58301 2.08340e-17
4612.52214 2.03477e-17
4615.46127 2.02189e-17
4618.41057 2.03317e-17
4621.34970 2.04290e-17
4624.28883 2.01034e-17
4627.22796 2.01080e-17
4630.16709 2.03678e-17
4633.11639 2.07187e-17
4636.05552 2.03230e-17
4638.99465 2.10648e-17
4641.93378 2.08271e-17
4644.87291 2.02218e-17
4647.82221 2.08183e-17
4650.76134 2.05755e-17
4653.70047 1.98422e-17
4656.63960 2.02923e-17
4659.57873 2.07227e-17
4662.52803 2.01711e-17
4665.46716 1.98174e-17
4668.40629 1.96177e-17
4671.34542 1.92281e-17
4674.28455 1.85389e-17
4677.23385 1.91201e-17
4680.17298 1.94488e-17
4683.11211 1.90985e-17
4686.05124 1.88212e-17
4688.99037 1.89029e-17
4691.93967 1.91537e-17
4694.87880 1.92312e-17
4697.81793 1.91499e-17
4700.75706 1.84629e-17
4703.69619 1.87991e-17
4706.64549 1.92607e-17
4709.58462 1.95433e-17
4712.52375 1.93623e-17
4715.46288 1.91026e-17
4718.40201 1.96672e-17
4721.35131 1.98549e-17
4724.29044 1.93157e-17
4727.22957 1.97367e-17
4730.16870 1.95200e-17
4733.10783 1.97797e-17
4736.05713 1.93230e-17
4738.99626 1.98035e-17
4741.93539 1.97179e-17
4744.87452 2.01438e-17
4747.81365 1.97967e-17
4750.76295 2.01131e-17
4753.70208 1.92194e-17
4756.64121 1.86811e-17
4759.58034 1.93478e-17
4762.51947 1.85705e-17
4765.45860 1.82678e-17
4768.40790 1.89231e-17
4771.34703 1.85122e-17
4774.28616 1.82660e-17
4777.22529 1.85745e-17
4780.16442 1.87759e-17
4783.11372 1.88620e-17
4786.05285 1.85146e-17
4788.99198 1.90154e-17
4791.93111 1.93817e-17
4794.87024 1.91829e-17
4797.81954 1.95945e-17
4800.75867 1.97682e-17
4803.69780 1.91136e-17
4806.63693 1.90515e-17
4809.57606 1.94587e-17
4812.52536 1.94316e-17
4815.46449 1.88949e-17
4818.40362 1.84603e-17
4821.34275 1.87736e-17
4824.28188 1.93837e-17
4827.23118 1.90818e-17
4830.17031 1.88067e-17
4833.10944 1.84203e-17
4836.04857 1.84305e-17
4838.98770 1.83086e-17
4841.93700 1.79620e-17
4844.87613 1.81144e-17
4847.81526 1.78978e-17
4850.75439 1.79182e-17
4853.69352 1.81948e-17
4856.64282 1.80951e-17
4859.58195 1.82191e-17
4862.52108 1.81771e-17
4865.46021 1.79232e-17
4868.39934 1.79262e-17
4871.34864 1.83254e-17
4874.28777 1.85013e-17
4877.22690 1.82680e-17
4880.16603 1.80146e-17
4883.10516 1.77705e-17
4886.05446 1.83097e-17
4888.99359 1.83105e-17
4891.93272 1.79481e-17
4894.87185 1.79735e-17
4897.81098 1.83412e-17
4900.75011 1.82725e-17
4903.69941 1.81661e-17
4906.63854 1.81054e-17
4909.57767 1.81553e-17
4912.51680 1.79551e-17
4915.45593 1.76193e-17
4918.40523 1.76438e-17
4921.34436 1.79071e-17
4924.28349 1.78577e-17
4927.22262 1.72745e-17
4930.16175 1.73394e-17
4933.11105 1.75293e-17
4936.05018 1.74698e-17
4938.98931 1.71870e-17
4941.92844 1.73085e-17
4944.86757 1.72679e-17
4947.81687 1.73643e-17
4950.75600 1.73575e-17
4953.69513 1.74608e-17
4956.63426 1.76668e-17
4959.57339 1.71188e-17
4962.52269 1.74036e-17
4965.46182 1.70224e-17
4968.40095 1.69561e-17
4971.34008 1.67476e-17
4974.27921 1.67057e-17
4977.22851 1.68384e-17
4980.16764 1.61589e-17
4983.10677 1.60837e-17
4986.04590 1.55300e-17
4988.98503 1.56399e-17
4991.93433 1.59452e-17
4994.87346 1.63767e-17
4997.81259 1.67759e-17
5000.75172 1.74957e-17
5003.69085 1.77574e-17
5006.62998 1.80607e-17
5009.57928 1.82697e-17
5012.51841 1.81034e-17
5015.45754 1.85487e-17
5018.39667 1.86589e-17
5021.33580 1.82425e-17
5024.28510 1.81143e-17
5027.22423 1.79040e-17
5030.16336 1.77051e-17
5033.10249 1.76655e-17
5036.04162 1.76449e-17
5038.99092 1.75073e-17
5041.93005 1.71388e-17
5044.86918 1.70229e-17
5047.80831 1.69489e-17
5050.74744 1.67307e-17
5053.69674 1.66845e-17
5056.63587 1.64629e-17
5059.57500 1.66373e-17
5062.51413 1.59365e-17
5065.45326 1.62994e-17
5068.40256 1.59891e-17
5071.34169 1.57878e-17
5074.28082 1.58475e-17
5077.21995 1.51698e-17
5080.15908 1.46474e-17
5083.10838 1.50394e-17
5086.04751 1.53277e-17
5088.98664 1.59308e-17
5091.92577 1.62308e-17
5094.86490 1.64825e-17
5097.81420 1.69743e-17
5100.75333 1.72811e-17
5103.69246 1.80564e-17
5106.63159 1.78433e-17
5109.57072 1.76863e-17
5112.52002 1.76286e-17
5115.45915 1.74470e-17
5118.39828 1.77134e-17
5121.33741 1.75884e-17
5124.27654 1.76484e-17
5127.22584 1.77334e-17
5130.16497 1.72592e-17
5133.10410 1.70948e-17
5136.04323 1.75284e-17
5138.98236 1.75726e-17
5141.93166 1.72913e-17
5144.87079 1.70833e-17
5147.80992 1.69772e-17
5150.74905 1.70251e-17
5153.68818 1.67028e-17
5156.62731 1.68618e-17
5159.57661 1.66386e-17
5162.51574 1.67938e-17
5165.45487 1.69339e-17
5168.39400 1.66369e-17
5171.33313 1.68675e-17
5174.28243 1.69664e-17
5177.22156 1.67819e-17
5180.16069 1.66867e-17
5183.09982 1.67504e-17
5186.03895 1.63714e-17
5188.98825 1.63828e-17
5191.92738 1.66077e-17
5194.86651 1.63138e-17
5197.80564 1.62682e-17
5200.74477 1.62597e-17
5203.69407 1.62482e-17
5206.63320 1.63484e-17
5209.57233 1.61297e-17
5212.51146 1.65943e-17
5215.45059 1.67533e-17
5218.39989 1.65456e-17
5221.33902 1.63393e-17
5224.27815 1.62768e-17
5227.21728 1.61494e-17
5230.15641 1.61780e-17
5233.09554 1.66179e-17
5236.04484 1.66788e-17
5238.98397 1.67231e-17
5241.92310 1.67000e-17
5244.86223 1.66389e-17
5247.80136 1.68810e-17
5250.75066 1.66340e-17
5253.68979 1.67803e-17
5256.62892 1.64890e-17
5259.56805 1.64949e-17
5262.50718 1.65184e-17
5265.45648 1.66903e-17
5268.39561 1.67714e-17
5271.33474 1.65969e-17
5274.27387 1.65840e-17
5277.21300 1.63484e-17
5280.16230 1.66366e-17
5283.10143 1.64387e-17
5286.04056 1.63904e-17
5288.97969 1.62449e-17
5291.91882 1.62262e-17
5294.86812 1.64057e-17
5297.80725 1.63402e-17
5300.74638 1.58454e-17
5303.68551 1.60794e-17
5306.62464 1.61712e-17
5309.57394 1.59812e-17
5312.51307 1.62613e-17
5315.45220 1.61298e-17
5318.39133 1.61652e-17
5321.33046 1.61957e-17
5324.27976 1.61955e-17
5327.21889 1.65461e-17
5330.15802 1.60845e-17
5333.09715 1.58151e-17
5336.03628 1.55805e-17
5338.98558 1.59086e-17
5341.92471 1.61842e-17
5344.86384 1.56826e-17
5347.80297 1.59164e-17
5350.74210 1.58259e-17
5353.69140 1.59394e-17
5356.63053 1.62954e-17
5359.56966 1.59862e-17
5362.50879 1.57486e-17
5365.44792 1.61137e-17
5368.39722 1.58037e-17
5371.33635 1.57407e-17
5374.27548 1.58712e-17
5377.21461 1.58742e-17
5380.15374 1.58611e-17
5383.09287 1.58489e-17
5386.04217 1.57349e-17
5388.98130 1.54288e-17
5391.92043 1.58511e-17
5394.85956 1.61848e-17
5397.79869 1.58974e-17
5400.74799 1.61196e-17
5403.68712 1.57417e-17
5406.62625 1.59560e-17
5409.56538 1.63100e-17
5412.50451 1.56929e-17
5415.45381 1.52633e-17
5418.39294 1.52952e-17
5421.33207 1.55209e-17
5424.27120 1.56138e-17
5427.21033 1.56423e-17
5430.15963 1.54139e-17
5433.09876 1.52357e-17
5436.03789 1.53527e-17
5438.97702 1.52945e-17
5441.91615 1.54080e-17
5444.86545 1.55598e-17
5447.80458 1.54372e-17
5450.74371 1.50711e-17
5453.68284 1.48873e-17
5456.62197 1.52425e-17
5459.57127 1.52527e-17
5462.51040 1.49192e-17
5465.44953 1.46296e-17
5468.38866 1.43963e-17
5471.32779 1.47276e-17
5474.27709 1.48941e-17
5477.21622 1.43773e-17
5480.15535 1.41293e-17
5483.09448 1.44764e-17
5486.03361 1.44279e-17
5488.98291 1.41868e-17
5491.92204 1.45957e-17
5494.86117 1.46808e-17
5497.80030 1.45502e-17
5500.73943 1.43883e-17
5503.67856 1.43674e-17
5506.62786 1.45865e-17
5509.56699 1.45428e-17
5512.50612 1.43227e-17
5515.44525 1.42414e-17
5518.38438 1.44070e-17
5521.33368 1.47700e-17
5524.27281 1.46102e-17
5527.21194 1.43693e-17
5530.15107 1.44487e-17
5533.09020 1.46323e-17
5536.03950 1.47771e-17
5538.97863 1.47196e-17
5541.91776 1.43509e-17
5544.85689 1.42324e-17
5547.79602 1.42079e-17
5550.74532 1.44175e-17
5553.68445 1.44933e-17
5556.62358 1.43068e-17
5559.56271 1.42306e-17
5562.50184 1.44352e-17
5565.45114 1.47408e-17
5568.39027 1.47622e-17
5571.32940 1.44640e-17
5574.26853 1.44738e-17
5577.20766 1.45910e-17
5580.15696 1.44739e-17
5583.09609 1.46151e-17
5586.03522 1.43225e-17
5588.97435 1.43584e-17
5591.91348 1.44813e-17
5594.86278 1.41764e-17
5597.80191 1.42975e-17
5600.74104 1.41578e-17
5603.68017 1.37499e-17
5606.61930 1.41129e-17
5609.56860 1.39416e-17
5612.50773 1.39046e-17
5615.44686 1.39024e-17
5618.38599 1.38647e-17
5621.32512 1.39051e-17
5624.26425 1.40738e-17
5627.21355 1.41637e-17
5630.15268 1.38203e-17
5633.09181 1.35791e-17
5636.03094 1.36596e-17
5638.97007 1.36561e-17
5641.91937 1.37083e-17
5644.85850 1.36733e-17
5647.79763 1.40168e-17
5650.73676 1.39138e-17
5653.67589 1.35200e-17
5656.62519 1.33245e-17
5659.56432 1.35545e-17
5662.50345 1.35725e-17
5665.44258 1.31902e-17
5668.38171 1.33239e-17
5671.33101 1.32973e-17
5674.27014 1.29083e-17
5677.20927 1.30598e-17
5680.14840 1.35540e-17
5683.08753 1.36351e-17
5686.03683 1.32128e-17
5688.97596 1.28808e-17
5691.91509 1.31565e-17
5694.85422 1.32888e-17
5697.79335 1.29533e-17
5700.74265 1.27481e-17
5703.68178 1.33082e-17
5706.62091 1.32189e-17
5709.56004 1.25654e-17
5712.49917 1.26226e-17
5715.44847 1.25758e-17
5718.38760 1.29794e-17
5721.32673 1.31328e-17
5724.26586 1.26694e-17
5727.20499 1.26376e-17
5730.14412 1.26805e-17
5733.09342 1.24411e-17
5736.03255 1.24743e-17
5738.97168 1.25128e-17
5741.91081 1.22599e-17
5744.84994 1.20321e-17
5747.79924 1.21696e-17
5750.73837 1.22451e-17
5753.67750 1.19496e-17
5756.61663 1.17510e-17
5759.55576 1.20587e-17
5762.50506 1.21910e-17
5765.44419 1.23695e-17
5768.38332 1.28580e-17
5771.32245 1.26175e-17
5774.26158 1.26612e-17
5777.21088 1.29553e-17
5780.15001 1.27798e-17
5783.08914 1.26888e-17
5786.02827 1.25873e-17
5788.96740 1.26212e-17
5791.91670 1.31566e-17
5794.85583 1.29631e-17
5797.79496 1.24816e-17
5800.73409 1.27830e-17
5803.67322 1.30057e-17
5806.62252 1.28900e-17
5809.56165 1.28662e-17
5812.50078 1.27676e-17
5815.43991 1.28957e-17
5818.37904 1.26970e-17
5821.32834 1.25755e-17
5824.26747 1.27707e-17
5827.20660 1.27346e-17
5830.14573 1.27093e-17
5833.08486 1.29936e-17
5836.03416 1.29515e-17
5838.97329 1.26217e-17
5841.91242 1.26390e-17
5844.85155 1.26989e-17
5847.79068 1.25987e-17
5850.73998 1.25462e-17
5853.67911 1.29881e-17
5856.61824 1.25663e-17
5859.55737 1.24129e-17
5862.49650 1.24632e-17
5865.44580 1.26033e-17
5868.38493 1.23123e-17
5871.32406 1.20875e-17
5874.26319 1.22978e-17
5877.20232 1.21846e-17
5880.14145 1.17692e-17
5883.09075 1.15928e-17
5886.02988 1.16644e-17
5888.96901 1.19996e-17
5891.90814 1.20211e-17
5894.84727 1.16513e-17
5897.79657 1.14127e-17
5900.73570 1.14879e-17
5903.67483 1.19521e-17
5906.61396 1.16003e-17
5909.55309 1.18262e-17
5912.50239 1.18533e-17
5915.44152 1.17541e-17
5918.38065 1.13864e-17
5921.31978 1.11672e-17
5924.25891 1.13406e-17
5927.20821 1.13053e-17
5930.14734 1.12075e-17
5933.08647 1.10465e-17
5936.02560 1.08646e-17
5938.96473 1.05778e-17
5941.91403 9.89225e-18
5944.85316 9.59627e-18
5947.79229 9.13415e-18
5950.73142 9.18589e-18
5953.67055 9.15578e-18
5956.61985 9.65436e-18
5959.55898 1.07704e-17
5962.49811 1.12334e-17
5965.43724 1.21621e-17
5968.37637 1.37828e-17
5971.31550 1.47579e-17
5974.26480 1.51429e-17
5977.20393 1.54190e-17
5980.14306 1.58161e-17
5983.08219 1.56188e-17
5986.02132 1.55488e-17
5988.97062 1.48189e-17
5991.90975 1.46525e-17
5994.84888 1.42439e-17
5997.78801 1.37220e-17
6000.72714 1.37651e-17
6003.67644 1.35740e-17
6006.61557 1.34976e-17
6009.55470 1.34699e-17
6012.49383 1.35061e-17
6015.43296 1.34481e-17
6018.38226 1.28204e-17
6021.32139 1.27969e-17
6024.26052 1.31888e-17
6027.19965 1.30369e-17
6030.13878 1.29103e-17
6033.08808 1.28777e-17
6036.02721 1.26931e-17
6038.96634 1.28093e-17
6041.90547 1.27759e-17
6044.84460 1.25847e-17
6047.79390 1.27943e-17
6050.73303 1.29232e-17
6053.67216 1.23485e-17
6056.61129 1.20445e-17
6059.55042 1.23173e-17
6062.49972 1.22253e-17
6065.43885 1.22505e-17
6068.37798 1.26178e-17
6071.31711 1.27100e-17
6074.25624 1.23829e-17
6077.20554 1.24303e-17
6080.14467 1.22477e-17
6083.08380 1.23054e-17
6086.02293 1.21786e-17
6088.96206 1.21479e-17
6091.91136 1.20240e-17
6094.85049 1.19556e-17
6097.78962 1.19515e-17
6100.72875 1.18260e-17
6103.66788 1.19437e-17
6106.61718 1.20575e-17
6109.55631 1.19854e-17
6112.49544 1.17795e-17
6115.43457 1.17322e-17
6118.37370 1.17293e-17
6121.31283 1.16649e-17
6124.26213 1.19139e-17
6127.20126 1.17466e-17
6130.14039 1.14465e-17
6133.07952 1.16565e-17
6136.01865 1.16436e-17
6138.96795 1.13141e-17
6141.90708 1.13338e-17
6144.84621 1.14097e-17
6147.78534 1.12559e-17
6150.72447 1.12249e-17
6153.67377 1.14907e-17
6156.61290 1.13651e-17
6159.55203 1.14720e-17
6162.49116 1.12344e-17
6165.43029 1.13752e-17
6168.37959 1.16054e-17
6171.31872 1.12403e-17
6174.25785 1.11284e-17
6177.19698 1.13006e-17
6180.13611 1.12214e-17
6183.08541 1.11398e-17
6186.02454 1.11557e-17
6188.96367 1.12066e-17
6191.90280 1.10956e-17
6194.84193 1.10398e-17
6197.79123 1.14660e-17
6200.73036 1.14270e-17
6203.66949 1.15446e-17
6206.60862 1.15892e-17
6209.54775 1.12030e-17
6212.49705 1.11473e-17
6215.43618 1.12833e-17
6218.37531 1.12246e-17
6221.31444 1.11225e-17
6224.25357 1.10658e-17
6227.19270 1.11969e-17
6230.14200 1.12373e-17
6233.08113 1.11859e-17
6236.02026 1.14642e-17
6238.95939 1.12188e-17
6241.89852 1.10357e-17
6244.84782 1.10495e-17
6247.78695 1.10476e-17
6250.72608 1.14451e-17
6253.66521 1.13080e-17
6256.60434 1.09501e-17
6259.55364 1.11355e-17
6262.49277 1.13398e-17
6265.43190 1.13228e-17
6268.37103 1.10646e-17
6271.31016 1.11005e-17
6274.25946 1.08671e-17
6277.19859 1.06841e-17
6280.13772 1.08517e-17
6283.07685 1.04992e-17
6286.01598 1.08998e-17
6288.96528 1.08605e-17
6291.90441 1.09084e-17
6294.84354 1.11143e-17
6297.78267 1.08207e-17
6300.72180 1.06928e-17
6303.67110 1.07093e-17
6306.61023 1.07711e-17
6309.54936 1.09067e-17
6312.48849 1.07987e-17
6315.42762 1.07018e-17
6318.37692 1.07014e-17
6321.31605 1.10678e-17
6324.25518 1.08131e-17
6327.19431 1.05254e-17
6330.13344 1.07012e-17
6333.08274 1.09480e-17
6336.02187 1.10118e-17
6338.96100 1.09215e-17
6341.90013 1.06759e-17
6344.83926 1.04749e-17
6347.77839 1.07464e-17
6350.72769 1.08097e-17
6353.66682 1.06460e-17
6356.60595 1.02876e-17
6359.54508 1.05219e-17
6362.48421 1.04962e-17
6365.43351 1.02487e-17
6368.37264 1.01709e-17
6371.31177 1.03303e-17
6374.25090 1.03726e-17
6377.19003 1.01425e-17
6380.13933 1.00461e-17
6383.07846 1.00378e-17
6386.01759 1.02298e-17
6388.95672 1.01454e-17
6391.89585 9.95496e-18
6394.84515 9.86204e-18
6397.78428 9.99842e-18
6400.72341 9.96253e-18
6403.66254 9.84707e-18
6406.60167 1.00914e-17
6409.55097 1.00192e-17
6412.49010 9.75179e-18
6415.42923 9.90086e-18
6418.36836 9.75535e-18
6421.30749 9.79159e-18
6424.25679 9.95937e-18
6427.19592 1.01964e-17
6430.13505 9.98061e-18
6433.07418 1.01388e-17
6436.01331 1.01166e-17
6438.96261 1.00006e-17
6441.90174 1.01291e-17
6444.84087 1.02187e-17
6447.78000 1.03574e-17
6450.71913 1.06399e-17
6453.66843 1.05321e-17
6456.60756 1.03089e-17
6459.54669 1.05869e-17
6462.48582 1.04631e-17
6465.42495 1.04074e-17
6468.37425 1.03241e-17
6471.31338 1.03561e-17
6474.25251 1.07841e-17
6477.19164 1.08133e-17
6480.13077 1.04141e-17
6483.08007 1.05601e-17
6486.01920 1.08778e-17
6488.95833 1.07655e-17
6491.89746 1.08505e-17
6494.83659 1.08784e-17
6497.77572 1.09439e-17
6500.72502 1.07289e-17
6503.66415 1.12615e-17
6506.60328 1.08433e-17
6509.54241 1.07463e-17
6512.48154 1.08578e-17
6515.43084 1.06179e-17
6518.36997 1.06923e-17
6521.30910 1.08480e-17
6524.24823 1.06897e-17
6527.18736 1.07184e-17
6530.13666 1.07097e-17
6533.07579 1.07549e-17
6536.01492 1.06024e-17
6538.95405 1.01119e-17
6541.89318 1.03736e-17
6544.84248 1.05440e-17
6547.78161 1.01812e-17
6550.72074 1.02663e-17
6553.65987 1.04208e-17
6556.59900 1.03881e-17
6559.54830 1.05781e-17
6562.48743 1.03276e-17
6565.42656 1.01243e-17
6568.36569 1.02218e-17
6571.30482 9.90220e-18
6574.25412 9.77617e-18
6577.19325 9.88668e-18
6580.13238 9.69880e-18
6583.07151 9.67844e-18
6586.01064 9.92624e-18
6588.94977 9.99310e-18
6591.89907 9.73328e-18
6594.83820 9.63282e-18
6597.77733 9.80872e-18
6600.71646 9.49076e-18
6603.65559 9.48603e-18
6606.60489 9.78602e-18
6609.54402 9.47897e-18
6612.48315 9.21886e-18
6615.42228 9.15386e-18
6618.36141 9.10889e-18
6621.31071 9.02211e-18
6624.24984 9.39378e-18
6627.18897 9.48317e-18
6630.12810 9.06273e-18
6633.06723 9.50026e-18
6636.01653 9.39568e-18
6638.95566 8.95618e-18
6641.89479 8.70624e-18
6644.83392 8.70381e-18
6647.77305 8.71341e-18
6650.72235 8.75872e-18
6653.66148 8.31140e-18
6656.60061 8.72721e-18
6659.53974 9.44118e-18
6662.47887 9.37570e-18
6665.42817 9.51558e-18
6668.36730 9.24276e-18
6671.30643 8.98632e-18
6674.24556 9.24043e-18
6677.18469 9.52188e-18
6680.13399 9.66343e-18
6683.07312 9.75541e-18
6686.01225 1.00410e-17
6688.95138 1.02346e-17
6691.89051 1.00537e-17
6694.83981 1.01263e-17
6697.77894 1.04590e-17
6700.71807 1.01552e-17
6703.65720 9.72003e-18
6706.59633 9.87241e-18
6709.54563 1.01351e-17
6712.48476 9.90731e-18
6715.42389 9.86442e-18
6718.36302 1.03034e-17
6721.30215 9.99426e-18
6724.25145 9.52867e-18
6727.19058 9.58554e-18
6730.12971 9.53551e-18
6733.06884 9.42456e-18
6736.00797 9.50723e-18
6738.94710 9.45646e-18
6741.89640 9.51242e-18
6744.83553 9.03952e-18
6747.77466 8.87549e-18
6750.71379 8.61364e-18
6753.65292 8.63494e-18
6756.60222 8.46357e-18
6759.54135 8.01390e-18
6762.48048 7.69462e-18
6765.41961 7.54532e-18
6768.35874 7.62370e-18
6771.30804 7.83737e-18
6774.24717 8.23236e-18
6777.18630 8.43720e-18
6780.12543 8.98762e-18
6783.06456 9.86600e-18
6786.01386 1.02876e-17
6788.95299 1.05255e-17
6791.89212 1.05896e-17
6794.83125 1.06208e-17
6797.77038 1.09223e-17
6800.71968 1.10507e-17
6803.65881 1.08457e-17
6806.59794 1.06956e-17
6809.53707 1.06437e-17
6812.47620 1.05741e-17
6815.42550 1.06683e-17
6818.36463 1.01498e-17
6821.30376 9.92124e-18
6824.24289 9.77585e-18
6827.18202 9.64411e-18
6830.13132 9.65828e-18
6833.07045 9.50870e-18
6836.00958 9.40519e-18
6838.94871 9.36177e-18
6841.88784 9.62278e-18
6844.82697 9.44583e-18
6847.77627 9.41911e-18
6850.71540 9.39239e-18
6853.65453 9.36568e-18
6856.59366 9.33896e-18
6859.53279 9.31225e-18
6862.48209 9.28554e-18
6865.42122 9.25883e-18
6868.36035 9.23213e-18
6871.29948 9.20543e-18
6874.23861 9.17873e-18
6877.18791 9.15203e-18
6880.12704 9.12534e-18
6883.06617 9.09865e-18
6886.00530 9.07196e-18
6888.94443 9.04528e-18
6891.89373 9.01860e-18
6894.83286 8.99192e-18
6897.77199 8.96524e-18
6900.71112 8.93857e-18
6903.65025 8.91190e-18
6906.59955 8.88523e-18
6909.53868 8.85856e-18
6912.47781 8.83190e-18
6915.41694 8.80524e-18
6918.35607 8.77858e-18
6921.30537 8.75192e-18
6924.24450 8.72527e-18
6927.18363 8.69862e-18
6930.12276 8.67198e-18
6933.06189 8.64533e-18
6936.01119 8.61869e-18
6938.95032 8.67549e-18
6941.88945 9.25323e-18
6944.82858 9.04072e-18
6947.76771 8.90434e-18
6950.71701 9.27188e-18
6953.65614 9.25721e-18
6956.59527 8.73613e-18
6959.53440 8.70370e-18
6962.47353 8.97614e-18
6965.41266 8.84031e-18
6968.36196 8.89439e-18
6971.30109 8.98878e-18
6974.24022 8.70726e-18
6977.17935 8.67612e-18
6980.11848 9.12428e-18
6983.06778 8.94818e-18
6986.00691 8.74095e-18
6988.94604 8.98138e-18
6991.88517 9.27770e-18
6994.82430 9.32794e-18
6997.77360 9.13571e-18
7000.71273 9.00435e-18
7003.65186 8.99639e-18
7006.59099 8.73018e-18
7009.53012 8.75770e-18
7012.47942 8.57044e-18
7015.41855 8.77369e-18
7018.35768 8.80266e-18
7021.29681 8.84345e-18
7024.23594 8.88184e-18
7027.18524 8.74348e-18
7030.12437 9.00401e-18
7033.06350 9.21193e-18
7036.00263 8.81392e-18
7038.94176 8.58114e-18
7041.89106 8.59115e-18
7044.83019 8.51427e-18
7047.76932 8.48301e-18
7050.70845 8.57580e-18
7053.64758 8.62877e-18
7056.59688 8.67255e-18
7059.53601 8.63855e-18
7062.47514 8.47842e-18
7065.41427 8.42204e-18
7068.35340 8.36550e-18
7071.30270 8.61287e-18
7074.24183 8.65117e-18
7077.18096 8.72644e-18
7080.12009 8.34050e-18
7083.05922 8.38688e-18
7085.99835 8.62757e-18
7088.94765 8.44790e-18
7091.88678 8.38929e-18
7094.82591 8.44899e-18
7097.76504 8.44142e-18
7100.70417 8.80645e-18
7103.65347 8.48309e-18
7106.59260 8.26751e-18
7109.53173 8.32134e-18
7112.47086 8.12265e-18
7115.40999 8.35606e-18
7118.35929 8.49298e-18
7121.29842 8.51499e-18
7124.23755 8.65935e-18
7127.17668 8.25804e-18
7130.11581 8.42592e-18
7133.06511 8.67503e-18
7136.00424 8.55118e-18
7138.94337 8.39695e-18
7141.88250 8.22274e-18
7144.82163 7.98637e-18
7147.77093 7.60281e-18
7150.71006 7.61488e-18
7153.64919 7.86347e-18
7156.58832 7.80666e-18
7159.52745 8.01890e-18
7162.47675 8.17542e-18
7165.41588 8.15296e-18
7168.35501 8.73502e-18
7171.29414 9.15877e-18
7174.23327 9.24030e-18
7177.18257 9.31861e-18
7180.12170 9.67185e-18
7183.06083 9.72945e-18
7185.99996 9.50736e-18
7188.93909 9.60520e-18
7191.88839 9.63326e-18
7194.82752 9.69895e-18
7197.76665 1.01360e-17
7200.70578 9.85646e-18
7203.64491 9.77732e-18
7206.58404 9.42535e-18
7209.53334 9.35390e-18
7212.47247 9.24401e-18
7215.41160 8.98270e-18
7218.35073 9.06601e-18
7221.28986 8.85412e-18
7224.23916 8.88507e-18
7227.17829 8.91370e-18
7230.11742 8.72688e-18
7233.05655 8.80311e-18
7235.99568 8.51479e-18
7238.94498 8.68808e-18
7241.88411 8.90832e-18
7244.82324 8.76634e-18
7247.76237 8.59536e-18
7250.70150 8.45217e-18
7253.65080 8.72246e-18
7256.58993 8.76684e-18
7259.52906 8.75846e-18
7262.46819 8.55600e-18
7265.40732 8.54877e-18
7268.35662 8.40215e-18
7271.29575 8.49594e-18
7274.23488 8.72979e-18
7277.17401 8.67048e-18
7280.11314 8.60802e-18
7283.06244 8.57608e-18
7286.00157 8.28748e-18
7288.94070 8.31426e-18
7291.87983 8.00947e-18
7294.81896 8.08360e-18
7297.76826 7.58676e-18
7300.70739 7.47594e-18
7303.64652 8.02107e-18
7306.58565 8.13822e-18
7309.52478 7.93967e-18
7312.46391 8.29761e-18
7315.41321 8.68824e-18
7318.35234 8.33005e-18
7321.29147 8.49060e-18
7324.23060 8.36999e-18
7327.16973 8.52078e-18
7330.11903 8.18953e-18
7333.05816 7.95554e-18
7335.99729 7.78984e-18
7338.93642 7.46773e-18
7341.87555 7.49262e-18
7344.82485 7.67562e-18
7347.76398 7.90880e-18
7350.70311 7.94079e-18
7353.64224 8.03059e-18
7356.58137 8.26787e-18
7359.53067 8.66756e-18
7362.46980 8.73792e-18
7365.40893 8.57551e-18
7368.34806 8.15688e-18
7371.28719 7.66818e-18
7374.23649 7.58805e-18
7377.17562 7.42541e-18
7380.11475 7.47674e-18
7383.05388 7.57019e-18
7385.99301 7.42200e-18
7388.94231 7.48857e-18
7391.88144 7.90565e-18
7394.82057 8.10050e-18
7397.75970 8.32084e-18
7400.69883 8.76098e-18
7403.64813 8.86030e-18
7406.58726 8.92880e-18
7409.52639 9.05029e-18
7412.46552 8.29490e-18
7415.40465 8.29495e-18
7418.35395 8.06879e-18
7421.29308 7.78604e-18
7424.23221 7.65662e-18
7427.17134 7.72298e-18
7430.11047 8.13485e-18
7433.05977 8.32438e-18
7435.99890 8.25561e-18
7438.93803 8.75664e-18
7441.87716 8.64902e-18
7444.81629 8.54344e-18
7447.76559 8.37337e-18
7450.70472 7.92273e-18
7453.64385 7.65989e-18
7456.58298 7.43567e-18
7459.52211 7.23904e-18
7462.46124 7.25299e-18
7465.41054 7.17074e-18
7468.34967 7.22012e-18
7471.28880 7.37027e-18
7474.22793 7.72365e-18
7477.16706 7.91935e-18
7480.11636 8.05583e-18
7483.05549 8.04619e-18
7485.99462 8.08528e-18
7488.93375 8.12762e-18
7491.87288 7.88958e-18
7494.82218 7.53345e-18
7497.76131 7.17649e-18
7500.70044 6.92722e-18
7503.63957 6.87129e-18
7506.57870 6.78032e-18
7509.52800 6.92006e-18
7512.46713 7.19419e-18
7515.40626 7.30574e-18
7518.34539 7.49850e-18
7521.28452 7.85029e-18
7524.23382 8.14750e-18
7527.17295 8.42733e-18
7530.11208 8.25437e-18
7533.05121 8.10500e-18
7535.99034 7.70179e-18
7538.93964 7.33472e-18
7541.87877 7.17651e-18
7544.81790 6.92149e-18
7547.75703 6.84380e-18
7550.69616 6.85702e-18
7553.64546 6.87025e-18
7556.58459 6.88347e-18
7559.52372 6.89669e-18
7562.46285 6.90991e-18
7565.40198 6.92313e-18
7568.35128 6.93635e-18
7571.29041 6.94956e-18
7574.22954 6.96277e-18
7577.16867 6.97599e-18
7580.10780 6.98919e-18
7583.04693 7.00240e-18
7585.99623 7.01561e-18
7588.93536 7.02881e-18
7591.87449 7.04202e-18
7594.81362 7.05522e-18
7597.75275 7.06842e-18
7600.70205 7.08161e-18
7603.64118 7.09481e-18
7606.58031 7.10801e-18
7609.51944 7.12120e-18
7612.45857 7.13439e-18
7615.40787 7.14758e-18
7618.34700 7.16076e-18
7621.28613 7.17395e-18
7624.22526 7.18713e-18
7627.16439 7.20032e-18
7630.11369 7.21350e-18
7633.05282 7.22668e-18
7635.99195 7.23985e-18
7638.93108 7.25303e-18
7641.87021 7.26620e-18
7644.81951 7.27937e-18
7647.75864 7.29254e-18
7650.69777 7.30571e-18
7653.63690 7.31888e-18
7656.57603 7.33205e-18
7659.52533 7.34521e-18
7662.46446 7.35837e-18
7665.40359 7.37153e-18
7668.34272 7.38469e-18
7671.28185 7.39785e-18
7674.23115 7.41100e-18
7677.17028 7.42415e-18
7680.10941 7.43731e-18
7683.04854 7.56304e-18
7685.98767 7.60143e-18
7688.93697 7.57398e-18
7691.87610 7.50707e-18
7694.81523 7.35366e-18
7697.75436 7.40913e-18
7700.69349 7.51647e-18
7703.63262 7.04957e-18
7706.58192 6.76014e-18
7709.52105 6.82569e-18
7712.46018 6.24884e-18
7715.39931 6.58046e-18
7718.33844 6.92192e-18
7721.28774 6.91847e-18
7724.22687 6.96210e-18
7727.16600 6.90245e-18
7730.10513 6.79923e-18
7733.04426 6.74786e-18
7735.99356 6.72791e-18
7738.93269 6.59562e-18
7741.87182 6.47664e-18
7744.81095 6.63131e-18
7747.75008 6.72516e-18
7750.69938 6.68439e-18
7753.63851 6.45395e-18
7756.57764 6.28951e-18
7759.51677 6.37107e-18
7762.45590 6.42995e-18
7765.40520 6.42634e-18
7768.34433 6.45612e-18
7771.28346 6.38870e-18
7774.22259 6.68926e-18
7777.16172 6.98640e-18
7780.11102 6.92210e-18
7783.05015 6.72707e-18
7785.98928 6.54547e-18
7788.92841 6.17555e-18
7791.86754 5.71594e-18
7794.81684 5.97651e-18
7797.75597 5.91891e-18
7800.69510 5.72970e-18
7803.63423 5.71069e-18
7806.57336 5.69828e-18
7809.52266 6.18016e-18
7812.46179 6.82363e-18
7815.40092 6.99521e-18
7818.34005 7.28511e-18
7821.27918 7.28176e-18
7824.22848 7.17882e-18
7827.16761 6.67713e-18
7830.10674 6.79500e-18
7833.04587 6.39887e-18
7835.98500 6.08315e-18
7838.93430 6.08422e-18
7841.87343 5.73979e-18
7844.81256 5.65186e-18
7847.75169 5.90672e-18
7850.69082 6.20312e-18
7853.62995 6.51397e-18
7856.57925 6.70504e-18
7859.51838 6.96557e-18
7862.45751 7.17486e-18
7865.39664 7.33400e-18
7868.33577 7.23509e-18
7871.28507 7.20775e-18
7874.22420 7.45998e-18
7877.16333 7.04982e-18
7880.10246 7.04600e-18
7883.04159 6.62980e-18
7885.99089 6.29073e-18
7888.93002 5.94962e-18
7891.86915 5.71834e-18
7894.80828 5.65550e-18
7897.74741 5.48314e-18
7900.69671 5.44847e-18
7903.63584 5.84668e-18
7906.57497 6.21420e-18
7909.51410 6.76144e-18
7912.45323 6.96305e-18
7915.40253 7.38762e-18
7918.34166 7.26062e-18
7921.28079 6.92392e-18
7924.21992 7.14652e-18
7927.15905 7.43112e-18
7930.09818 7.45512e-18
7933.04748 7.42629e-18
7935.98661 6.83007e-18
7938.92574 6.49888e-18
7941.86487 6.24769e-18
7944.80400 6.08112e-18
7947.75330 5.80149e-18
7950.69243 5.50327e-18
7953.63156 5.58902e-18
7956.57069 5.90300e-18
7959.50982 6.06850e-18
7962.45912 6.29334e-18
7965.39825 6.56179e-18
7968.33738 6.86399e-18
7971.27651 7.42858e-18
7974.21564 7.31465e-18
7977.16494 7.15850e-18
7980.10407 7.10743e-18
7983.04320 6.82255e-18
7985.98233 6.38515e-18
7988.92146 5.91906e-18
7991.87076 6.25687e-18
7994.80989 6.12019e-18
7997.74902 5.98112e-18
8000.68815 6.03010e-18
8003.62728 6.17610e-18
8006.57658 6.10057e-18
8009.51571 6.21196e-18
8012.45484 6.64871e-18
8015.39397 6.59823e-18
8018.33310 6.43445e-18
8021.28240 6.98626e-18
8024.22153 7.08646e-18
8027.16066 6.93093e-18
8030.09979 6.94896e-18
8033.03892 6.64579e-18
8035.98822 6.57655e-18
8038.92735 6.68462e-18
8041.86648 6.47184e-18
8044.80561 6.53573e-18
8047.74474 6.40715e-18
8050.69404 6.40127e-18
8053.63317 6.28168e-18
8056.57230 6.16384e-18
8059.51143 5.95198e-18
8062.45056 6.20099e-18
8065.39986 6.32089e-18
8068.33899 6.23533e-18
8071.27812 6.77622e-18
8074.21725 6.99207e-18
8077.15638 7.03946e-18
8080.09551 7.09830e-18
8083.04481 7.08981e-18
8085.98394 6.50557e-18
8088.92307 6.36513e-18
8091.86220 6.23060e-18
8094.80133 6.07956e-18
8097.75063 6.16777e-18
8100.68976 5.47935e-18
8103.62889 5.13811e-18
8106.56802 5.14029e-18
8109.50715 5.79945e-18
8112.45645 5.77295e-18
8115.39558 5.67235e-18
8118.33471 5.98627e-18
8121.27384 5.89299e-18
8124.21297 5.41794e-18
8127.16227 5.34812e-18
8130.10140 5.36994e-18
8133.04053 5.28925e-18
8135.97966 5.59846e-18
8138.91879 5.82510e-18
8141.86809 6.17783e-18
8144.80722 6.20755e-18
8147.74635 6.15335e-18
8150.68548 6.42898e-18
8153.62461 6.62067e-18
8156.57391 6.66686e-18
8159.51304 6.81254e-18
8162.45217 6.75816e-18
8165.39130 6.63675e-18
8168.33043 6.51897e-18
8171.27973 6.07995e-18
8174.21886 5.55499e-18
8177.15799 5.46888e-18
8180.09712 5.43440e-18
8183.03625 5.08126e-18
8185.98555 5.11948e-18
8188.92468 5.27279e-18
8191.86381 5.19455e-18
8194.80294 5.28981e-18
8197.74207 5.36877e-18
8200.68120 5.53309e-18
8203.63050 5.80034e-18
8206.56963 5.84123e-18
8209.50876 5.85643e-18
8212.44789 6.05593e-18
8215.38702 5.69765e-18
8218.33632 5.21875e-18
8221.27545 5.31243e-18
8224.21458 5.18883e-18
8227.15371 5.07382e-18
8230.09284 5.11096e-18
8233.04214 5.36751e-18
8235.98127 5.60138e-18
8238.92040 5.36908e-18
8241.85953 5.32269e-18
8244.79866 5.13210e-18
8247.74796 5.20880e-18
8250.68709 5.41965e-18
8253.62622 5.58476e-18
8256.56535 5.68208e-18
8259.50448 5.81780e-18
8262.45378 6.01427e-18
8265.39291 6.08889e-18
8268.33204 5.89750e-18
8271.27117 5.52689e-18
8274.21030 5.31175e-18
8277.14943 5.08468e-18
8280.09873 5.21422e-18
8283.03786 5.33629e-18
8285.97699 5.33964e-18
8288.91612 5.45015e-18
8291.86542 5.72674e-18
8294.80455 6.03637e-18
8297.74368 5.97883e-18
8300.68281 6.15053e-18
8303.62194 6.20499e-18
8306.56107 6.30356e-18
8309.51037 5.97669e-18
8312.44950 5.63886e-18
8315.38863 5.55997e-18
8318.32776 5.41972e-18
8321.26689 5.26778e-18
8324.21619 5.06248e-18
8327.15532 5.12236e-18
8330.09445 5.01365e-18
8333.03358 4.85712e-18
8335.97271 5.13339e-18
8338.92201 5.80588e-18
8341.86114 6.51546e-18
8344.80027 6.87601e-18
8347.73940 6.77361e-18
8350.67853 6.42970e-18
8353.62783 5.97803e-18
8356.56696 5.88249e-18
8359.50609 5.22122e-18
8362.44522 4.85466e-18
8365.38435 4.65213e-18
8368.33365 4.54270e-18
8371.27278 4.56361e-18
8374.21191 4.61601e-18
8377.15104 5.03774e-18
8380.09017 5.24132e-18
8383.03947 5.37502e-18
8385.97860 5.47149e-18
8388.91773 5.68262e-18
8391.85686 5.65877e-18
8394.79599 5.81562e-18
8397.74529 6.31874e-18
8400.68442 6.52227e-18
8403.62355 6.15267e-18
8406.56268 5.40830e-18
8409.50181 4.92250e-18
8412.45111 4.51422e-18
8415.39024 4.03228e-18
8418.32937 3.71637e-18
8421.26850 3.94098e-18
8424.20763 4.62248e-18
8427.15693 5.16725e-18
8430.09606 5.45761e-18
8433.03519 5.88984e-18
8435.97432 6.06694e-18
8438.91345 6.45446e-18
8441.86275 6.97244e-18
8444.80188 6.66208e-18
8447.74101 5.87840e-18
8450.68014 5.17079e-18
8453.61927 4.60054e-18
8456.55840 4.19188e-18
8459.50770 3.80414e-18
8462.44683 3.74683e-18
8465.38596 4.02056e-18
8468.32509 4.25389e-18
8471.27439 4.52151e-18
8474.21352 5.10887e-18
8477.15265 5.60967e-18
8480.09178 5.92577e-18
8483.03091 6.21767e-18
8485.97004 6.26896e-18
8488.91934 6.41867e-18
8491.85847 5.92947e-18
8494.79760 5.74216e-18
8497.73673 5.53208e-18
8500.67586 4.98865e-18
8503.62516 4.74277e-18
8506.56429 4.68061e-18
8509.50342 4.49605e-18
8512.44255 4.63607e-18
8515.38168 4.66598e-18
8518.33098 4.63775e-18
8521.27011 4.86746e-18
8524.20924 4.90802e-18
8527.14837 4.93839e-18
8530.08750 5.66043e-18
8533.02663 6.40923e-18
8535.97593 6.46031e-18
8538.91506 6.37029e-18
8541.85419 6.04243e-18
8544.79332 5.44708e-18
8547.74262 4.94908e-18
8550.68175 4.61592e-18
8553.62088 4.31168e-18
8556.56001 4.30959e-18
8559.49914 4.37840e-18
8562.43827 4.29243e-18
8565.38757 4.33746e-18
8568.32670 4.39116e-18
8571.26583 4.52206e-18
8574.20496 4.27501e-18
8577.14409 4.81115e-18
8580.09339 5.30057e-18
8583.03252 5.34730e-18
8585.97165 5.32598e-18
8588.91078 5.42899e-18
8591.84991 5.50576e-18
8594.79921 5.29736e-18
8597.73834 5.43403e-18
8600.67747 5.44529e-18
8603.61660 4.90832e-18
8606.55573 4.92277e-18
8609.50503 4.95306e-18
8612.44416 4.64790e-18
8615.38329 4.63889e-18
8618.32242 4.90939e-18
8621.26155 5.00420e-18
8624.21085 4.74764e-18
8627.14998 4.68849e-18
8630.08911 4.69025e-18
8633.02824 4.39662e-18
8635.96737 4.23731e-18
8638.91667 4.41816e-18
8641.85580 4.60064e-18
8644.79493 4.74421e-18
8647.73406 5.03052e-18
8650.67319 5.24770e-18
8653.61232 5.28341e-18
8656.56162 5.19671e-18
8659.50075 5.10290e-18
8662.43988 5.01107e-18
8665.37901 4.78440e-18
8668.32831 4.56606e-18
8671.26744 4.46471e-18
8674.20657 4.29708e-18
8677.14570 4.34457e-18
8680.08483 4.58901e-18
8683.02396 4.75634e-18
8685.97326 5.01729e-18
8688.91239 5.16201e-18
8691.85152 5.13213e-18
8694.79065 4.89842e-18
8697.72978 4.53747e-18
8700.67908 4.37937e-18
8703.61821 4.26264e-18
8706.55734 4.31188e-18
8709.49647 4.37950e-18
8712.43560 5.09466e-18
8715.38490 5.31168e-18
8718.32403 5.17503e-18
8721.26316 5.07828e-18
8724.20229 4.64343e-18
8727.14142 4.22913e-18
8730.09072 3.88510e-18
8733.02985 4.03567e-18
8735.96898 4.23904e-18
8738.90811 4.68694e-18
8741.84724 4.68440e-18
8744.79654 4.57530e-18
8747.73567 4.41780e-18
8750.67480 3.98124e-18
8753.61393 3.88654e-18
8756.55306 3.99865e-18
8759.50236 4.88069e-18
8762.44149 5.06556e-18
8765.38062 5.41059e-18
8768.31975 5.69093e-18
8771.25888 5.93721e-18
8774.20818 6.47332e-18
8777.14731 6.75876e-18
8780.08644 6.39268e-18
8783.02557 5.94066e-18
8785.96470 5.96014e-18
8788.91400 5.67740e-18
8791.85313 5.59181e-18
8794.79226 5.23779e-18
8797.73139 4.41755e-18
8800.67052 3.82772e-18
8803.61982 3.88714e-18
8806.55895 4.07831e-18
8809.49808 3.87001e-18
8812.43721 4.13131e-18
8815.37634 4.83276e-18
8818.31547 5.40842e-18
8821.26477 6.04010e-18
8824.20390 6.40393e-18
8827.14303 5.97685e-18
8830.08216 5.72050e-18
8833.02129 6.29297e-18
8835.97059 6.23345e-18
8838.90972 5.96704e-18
8841.84885 5.96052e-18
8844.78798 5.70909e-18
8847.72711 5.67079e-18
8850.67641 5.29051e-18
8853.61554 4.41840e-18
8856.55467 3.80462e-18
8859.49380 3.21903e-18
8862.43293 2.52658e-18
8865.38223 2.55269e-18
8868.32136 2.79207e-18
8871.26049 3.15994e-18
8874.19962 4.17535e-18
8877.13875 5.49056e-18
8880.08805 6.22224e-18
8883.02718 6.65671e-18
8885.96631 7.18638e-18
8888.90544 6.86098e-18
8891.84457 6.38762e-18
8894.79387 6.35680e-18
8897.73300 6.17158e-18
8900.67213 5.56338e-18
8903.61126 5.16794e-18
8906.55039 4.70627e-18
8909.48952 4.21246e-18
8912.43882 4.60036e-18
8915.37795 4.88762e-18
8918.31708 4.49741e-18
8921.25621 4.77938e-18
8924.20551 4.94753e-18
8927.14464 5.70263e-18
8930.08377 6.04638e-18
8933.02290 5.98935e-18
8935.96203 6.19894e-18
8938.90116 5.86934e-18
8941.85046 5.71953e-18
8944.78959 5.18138e-18
8947.72872 5.10184e-18
8950.66785 4.57836e-18
8953.60698 3.67103e-18
8956.55628 3.01384e-18
8959.49541 2.78174e-18
8962.43454 2.86331e-18
8965.37367 2.95213e-18
8968.31280 2.88258e-18
8971.26210 3.08126e-18
8974.20123 3.16214e-18
8977.14036 3.65771e-18
8980.07949 3.89890e-18
8983.01862 4.26970e-18
8985.96792 4.91832e-18
8988.90705 5.23214e-18
8991.84618 5.37518e-18
8994.78531 5.32816e-18
8997.72444 5.24545e-18
9000.67374 5.31447e-18
9003.61287 5.00677e-18
9006.55200 4.37007e-18
9009.49113 3.56471e-18
9012.43026 2.85437e-18
9015.36939 2.55398e-18
9018.31869 2.42219e-18
9021.25782 2.07327e-18
9024.19695 1.68174e-18
9027.13608 1.44592e-18
9030.07521 1.41729e-18
9033.02451 1.42637e-18
9035.96364 1.60704e-18
9038.90277 1.73376e-18
9041.84190 1.84653e-18
9044.79120 2.19030e-18
9047.73033 1.99385e-18
9048.97468 1.99385e-18
9050.63227 1.88596e-18
9052.28986 2.05215e-18
9053.95750 2.21828e-18
9055.61509 2.24267e-18
9057.27268 2.26700e-18
9058.93027 2.14552e-18
9060.59791 2.02407e-18
9062.25550 1.99802e-18
9063.91309 1.97200e-18
9065.57068 1.99796e-18
9067.23831 2.02388e-18
9068.89590 1.93762e-18
9070.55349 1.85143e-18
9072.21108 1.94751e-18
9073.87872 2.04355e-18
9075.53631 2.04510e-18
9077.19390 2.04665e-18
9078.86153 2.06598e-18
9080.51912 2.08523e-18
9082.17671 1.92009e-18
9083.83430 1.75507e-18
9085.50194 1.87678e-18
9087.15953 1.99846e-18
9088.81712 2.07636e-18
9090.48476 2.15419e-18
9092.14235 2.08087e-18
9093.79994 2.00766e-18
9095.45753 2.15165e-18
9097.12516 2.29551e-18
9098.78275 2.13777e-18
9100.44034 1.98015e-18
9102.09793 2.07836e-18
9103.76557 2.17661e-18
9105.42316 2.36975e-18
9107.08075 2.56277e-18
9108.74838 2.46023e-18
9110.40597 2.35768e-18
9112.06356 2.21926e-18
9113.72115 2.08090e-18
9115.38879 2.04001e-18
9117.04638 1.99917e-18
9118.70397 2.04672e-18
9120.36156 2.09425e-18
9122.02920 2.06979e-18
9123.68679 2.04535e-18
9125.34438 2.09244e-18
9127.01201 2.13952e-18
9128.66960 2.20105e-18
9130.32719 2.26257e-18
9131.98478 2.29403e-18
9133.65242 2.32547e-18
9135.31001 2.32127e-18
9136.96760 2.31707e-18
9138.63523 2.35709e-18
9140.29282 2.39706e-18
9141.95041 2.32034e-18
9143.60800 2.24365e-18
9145.27564 2.26083e-18
9146.93323 2.27798e-18
9148.59082 2.24524e-18
9150.24841 2.21248e-18
9151.91605 2.12124e-18
9153.57364 2.03010e-18
9155.23123 2.19314e-18
9156.89886 2.35610e-18
9158.55645 2.37382e-18
9160.21404 2.39150e-18
9161.87163 2.34914e-18
9163.53927 2.30674e-18
9165.19686 2.17727e-18
9166.85445 2.04788e-18
9168.51204 2.14016e-18
9170.17967 2.23242e-18
9171.83726 2.23610e-18
9173.49485 2.23978e-18
9175.15244 2.21478e-18
9176.82008 2.18983e-18
9178.47767 2.30576e-18
9180.13526 2.42165e-18
9181.80290 2.45563e-18
9183.46049 2.48957e-18
9185.11808 2.44513e-18
9186.77567 2.40073e-18
9188.44330 2.42912e-18
9190.10089 2.45746e-18
9191.75848 2.42327e-18
9193.42612 2.38906e-18
9195.08371 2.29110e-18
9196.74130 2.19323e-18
9198.39889 2.33448e-18
9200.06652 2.47567e-18
9201.72411 2.48091e-18
9203.38170 2.48608e-18
9205.03929 2.36977e-18
9206.70693 2.25351e-18
9208.36452 2.25044e-18
9210.02211 2.24742e-18
9211.68975 2.34562e-18
9213.34734 2.44377e-18
9215.00493 2.41676e-18
9216.66252 2.38974e-18
9218.33015 2.34555e-18
9219.98774 2.30137e-18
9221.64533 2.25456e-18
9223.31297 2.20779e-18
9224.97056 2.24347e-18
9226.62815 2.27909e-18
9228.28574 2.15125e-18
9229.95337 2.02355e-18
9231.61096 2.23031e-18
9233.26855 2.43701e-18
9234.92614 2.53702e-18
9236.59378 2.63692e-18
9238.25137 2.48610e-18
9239.90896 2.33531e-18
9241.56655 2.25760e-18
9243.23419 2.17997e-18
9244.89178 2.33287e-18
9246.54937 2.48565e-18
9248.21700 2.37162e-18
9249.87459 2.25765e-18
9251.53218 2.26580e-18
9253.18977 2.27394e-18
9254.85741 2.24811e-18
9256.51500 2.22231e-18
9258.17259 2.25335e-18
9259.84022 2.28439e-18
9261.49781 2.34112e-18
9263.15540 2.39782e-18
9264.81299 2.35611e-18
9266.48063 2.31436e-18
9268.13822 2.16780e-18
9269.79581 2.02138e-18
9271.45340 2.18941e-18
9273.12104 2.35734e-18
9274.77863 2.27747e-18
9276.43622 2.19768e-18
9278.10385 2.31860e-18
9279.76144 2.43941e-18
9281.41903 2.32093e-18
9283.07662 2.20251e-18
9284.74426 2.20564e-18
9286.40185 2.20879e-18
9288.05944 2.26457e-18
9289.71703 2.32026e-18
9291.38466 2.13656e-18
9293.04225 1.95296e-18
9294.69984 2.00769e-18
9296.36748 2.06242e-18
9298.02507 2.14217e-18
9299.68266 2.22187e-18
9301.34025 2.22608e-18
9303.00789 2.23027e-18
9304.66548 2.21734e-18
9306.32307 2.20437e-18
9307.99070 2.11641e-18
9309.64829 2.02847e-18
9311.30588 1.98717e-18
9312.96347 1.94590e-18
9314.63111 1.98507e-18
9316.28870 2.02418e-18
9317.94629 1.89928e-18
9319.60388 1.77436e-18
9321.27151 1.60692e-18
9322.92910 1.43963e-18
9324.58669 1.61821e-18
9326.25433 1.79673e-18
9327.91192 1.82136e-18
9329.56951 1.84600e-18
9331.22710 1.90396e-18
9332.89474 1.96186e-18
9334.55233 1.86403e-18
9336.20992 1.76625e-18
9337.87755 1.80055e-18
9339.53514 1.83484e-18
9341.19273 1.85428e-18
9342.85032 1.87376e-18
9344.51796 1.97771e-18
9346.17555 2.08163e-18
9347.83314 2.10649e-18
9349.49073 2.13124e-18
9351.15836 1.86858e-18
9352.81595 1.60602e-18
9354.47354 1.55980e-18
9356.13113 1.51370e-18
9357.79877 1.76114e-18
9359.45636 2.00847e-18
9361.11395 1.98531e-18
9362.78159 1.96221e-18
9364.43918 2.07190e-18
9366.09677 2.18155e-18
9367.75436 2.18145e-18
9369.42199 2.18134e-18
9371.07958 2.16486e-18
9372.73717 2.14826e-18
9374.40481 1.83234e-18
9376.06240 1.51656e-18
9377.71999 1.52471e-18
9379.37758 1.53291e-18
9381.04521 1.66462e-18
9382.70280 1.79627e-18
9384.36039 1.80272e-18
9386.01798 1.80917e-18
9387.68562 1.81027e-18
9389.34321 1.81136e-18
9391.00080 1.80423e-18
9392.66844 1.79714e-18
9394.32603 1.88018e-18
9395.98362 1.96314e-18
9397.64121 1.87808e-18
9399.30884 1.79305e-18
9400.96643 1.79818e-18
9402.62402 1.80332e-18
9404.28161 1.82724e-18
9405.94925 1.85114e-18
9407.60684 1.80320e-18
9409.26443 1.75532e-18
9410.93206 1.85043e-18
9412.58965 1.94551e-18
9414.24724 1.96341e-18
9415.90483 1.98128e-18
9417.57247 1.90600e-18
9419.23006 1.83075e-18
9420.88765 1.80910e-18
9422.54524 1.78743e-18
9424.21288 1.70961e-18
9425.87047 1.63191e-18
9427.52806 1.84326e-18
9429.19569 2.05447e-18
9430.85328 1.92632e-18
9432.51087 1.79819e-18
9434.16846 1.75734e-18
9435.83610 1.71641e-18
9437.49369 1.49121e-18
9439.15128 1.26607e-18
9440.80887 1.18280e-18
9442.47650 1.09973e-18
9444.13409 1.46920e-18
9445.79168 1.83851e-18
9447.45932 1.83176e-18
9449.11691 1.82503e-18
9450.77450 1.87068e-18
9452.43209 1.91626e-18
9454.09973 1.80589e-18
9455.75732 1.69552e-18
9457.41491 1.56008e-18
9459.07250 1.42472e-18
9460.74013 1.46126e-18
9462.39772 1.49783e-18
9464.05531 1.62740e-18
9465.72295 1.75683e-18
9467.38054 1.58363e-18
9469.03813 1.41056e-18
9470.69572 1.53665e-18
9472.36335 1.66274e-18
9474.02094 1.80487e-18
9475.67853 1.94697e-18
9477.34617 2.01994e-18
9479.00376 2.09284e-18
9480.66135 2.01385e-18
9482.31894 1.93491e-18
9483.98658 1.93676e-18
9485.64417 1.93856e-18
9487.30176 1.80761e-18
9488.95935 1.67671e-18
9490.62698 1.66301e-18
9492.28457 1.64930e-18
9493.94216 1.60661e-18
9495.60980 1.56404e-18
9497.26739 1.77230e-18
9498.92498 1.98043e-18
9500.58257 1.88845e-18
9502.25020 1.79653e-18
9503.90779 1.82383e-18
9505.56538 1.85114e-18
9507.23302 1.89421e-18
9508.89061 1.93720e-18
9510.54820 1.79907e-18
9512.20579 1.66097e-18
9513.87343 1.60151e-18
9515.53102 1.54206e-18
9517.18861 1.51220e-18
9518.84620 1.48243e-18
9520.51383 1.67170e-18
9522.17142 1.86083e-18
9523.82901 1.74584e-18
9525.49665 1.63091e-18
9527.15424 1.67426e-18
9528.81183 1.71756e-18
9530.46942 1.65259e-18
9532.13705 1.58767e-18
9533.79464 1.66361e-18
9535.45223 1.73952e-18
9537.10982 1.75727e-18
9538.77746 1.77503e-18
9540.43505 1.81720e-18
9542.09264 1.85936e-18
9543.76028 1.83948e-18
9545.41787 1.81954e-18
9547.07546 1.67366e-18
9548.73305 1.52781e-18
9550.40068 1.45337e-18
9552.05827 1.37912e-18
9553.71586 1.73914e-18
9555.37345 2.09893e-18
9557.04109 1.93467e-18
9558.69868 1.77047e-18
9560.35627 1.74696e-18
9562.02390 1.72349e-18
9563.68149 1.79361e-18
9565.33908 1.86366e-18
9566.99667 1.76690e-18
9568.66431 1.67019e-18
9570.32190 1.68415e-18
9571.97949 1.69812e-18
9573.64713 1.74115e-18
9575.30472 1.78409e-18
9576.96231 1.64885e-18
9578.61990 1.51368e-18
9580.28753 1.51346e-18
9581.94512 1.51328e-18
9583.60271 1.56135e-18
9585.27035 1.60937e-18
9586.92794 1.54920e-18
9588.58553 1.48904e-18
9590.24312 1.46734e-18
9591.91075 1.44570e-18
9593.56834 1.58200e-18
9595.22593 1.71820e-18
9596.88352 1.65495e-18
9598.55116 1.59177e-18
9600.20875 1.70369e-18
9601.86634 1.81557e-18
9603.52393 1.81263e-18
9605.19157 1.80972e-18
9606.84916 1.88718e-18
9608.50675 1.96452e-18
9610.17438 1.76067e-18
9611.83197 1.55692e-18
9613.48956 1.54930e-18
9615.14715 1.54168e-18
9616.81479 1.52495e-18
9618.47238 1.50824e-18
9620.12997 1.53620e-18
9621.79760 1.56417e-18
9623.45519 1.59985e-18
9625.11278 1.63554e-18
9626.77037 1.66958e-18
9628.43801 1.70362e-18
9630.09560 1.74845e-18
9631.75319 1.79325e-18
9633.41078 1.78877e-18
9635.07842 1.78434e-18
9636.73601 1.87956e-18
9638.39360 1.97469e-18
9640.06123 1.85951e-18
9641.71882 1.74440e-18
9643.37641 1.78426e-18
9645.03400 1.82402e-18
9646.70164 1.66450e-18
9648.35923 1.50509e-18
9650.01682 1.60909e-18
9651.67441 1.71303e-18
9653.34204 1.69894e-18
9654.99963 1.68480e-18
9656.65722 1.56765e-18
9658.31481 1.45057e-18
9659.98245 1.49919e-18
9661.64004 1.54786e-18
9663.29763 1.71333e-18
9664.96527 1.87862e-18
9666.62286 1.65445e-18
9668.28045 1.43044e-18
9669.93804 1.54807e-18
9671.60567 1.66570e-18
9673.26326 1.78601e-18
9674.92085 1.90628e-18
9676.58849 1.93760e-18
9678.24608 1.96887e-18
9679.90367 1.88170e-18
9681.56126 1.79465e-18
9683.22889 1.98190e-18
9684.88648 2.16900e-18
9686.54407 2.02254e-18
9688.20166 1.87606e-18
9689.86930 1.67061e-18
9691.52689 1.46534e-18
9693.18448 1.66122e-18
9694.85212 1.85702e-18
9696.50971 1.88245e-18
9698.16730 1.90792e-18
9699.82489 2.04623e-18
9701.49252 2.18429e-18
9703.15011 1.78909e-18
9704.80770 1.39411e-18
9706.46529 1.48050e-18
9708.13293 1.56687e-18
9709.79052 1.60313e-18
9711.44811 1.63930e-18
9713.11574 1.46630e-18
9714.77333 1.29345e-18
9716.43092 1.46938e-18
9718.08851 1.64530e-18
9719.75615 1.80540e-18
9721.41374 1.96536e-18
9723.07133 1.81071e-18
9724.73897 1.65615e-18
9726.39656 1.68908e-18
9728.05415 1.72202e-18
9729.71174 1.77309e-18
9731.37937 1.82409e-18
9733.03696 1.72173e-18
9734.69455 1.61942e-18
9736.35214 1.66397e-18
9738.01978 1.70852e-18
9739.67737 1.78249e-18
9741.33496 1.85643e-18
9743.00259 1.85519e-18
9744.66018 1.85392e-18
9746.31777 1.75867e-18
9747.97536 1.66344e-18
9749.64300 1.58229e-18
9751.30059 1.50126e-18
9752.95818 1.66692e-18
9754.62582 1.83245e-18
9756.28341 1.69977e-18
9757.94100 1.56718e-18
9759.59859 1.62958e-18
9761.26622 1.69197e-18
9762.92381 1.73814e-18
9764.58140 1.78427e-18
9766.23899 1.75479e-18
9767.90663 1.72536e-18
9769.56422 1.80432e-18
9771.22181 1.88322e-18
9772.87940 1.82061e-18
9774.54703 1.75800e-18
9776.20462 1.66109e-18
9777.86221 1.56419e-18
9779.52985 1.48247e-18
9781.18744 1.40085e-18
9782.84503 1.54739e-18
9784.50262 1.69386e-18
9786.17026 1.65980e-18
9787.82785 1.62596e-18
9789.48544 2.02851e-18
9791.15307 2.43078e-18
9792.81066 2.22759e-18
9794.46825 2.02445e-18
9796.12584 1.92126e-18
9797.79348 1.81814e-18
9799.45107 1.87983e-18
9801.10866 1.94132e-18
9802.76625 1.59335e-18
9804.43388 1.24550e-18
9806.09147 1.13133e-18
9807.74906 1.01735e-18
9809.41670 1.28336e-18
9811.07429 1.54927e-18
9812.73188 1.60457e-18
9814.38947 1.65987e-18
9816.05711 1.71651e-18
9817.71470 1.77311e-18
9819.37229 1.72948e-18
9821.03992 1.68582e-18
9822.69751 1.55255e-18
9824.35510 1.41944e-18
9826.01269 1.61659e-18
9827.68033 1.81360e-18
9829.33792 1.70496e-18
9830.99551 1.59641e-18
9832.65310 1.65670e-18
9834.32073 1.71694e-18
9835.97832 1.66819e-18
9837.63591 1.61941e-18
9839.30355 1.51610e-18
9840.96114 1.41294e-18
9842.61873 1.60899e-18
9844.27632 1.80505e-18
9845.94396 2.01114e-18
9847.60155 2.21709e-18
9849.25914 2.12236e-18
9850.91673 2.02761e-18
9852.58436 1.93154e-18
9854.24195 1.83547e-18
9855.89954 1.75035e-18
9857.56718 1.66527e-18
9859.22477 1.65121e-18
9860.88236 1.63716e-18
9862.53995 1.63300e-18
9864.20758 1.62899e-18
9865.86517 1.94853e-18
9867.52276 2.26789e-18
9869.18035 2.18551e-18
9870.84799 2.10320e-18
9872.50558 2.17825e-18
9874.16317 2.25335e-18
9875.83081 2.45820e-18
9877.48840 2.66279e-18
9879.14599 2.31508e-18
9880.80358 1.96738e-18
9882.47121 1.63362e-18
9884.12880 1.30015e-18
9885.78639 1.57035e-18
9887.44398 1.84049e-18
9889.11162 1.98444e-18
9890.76921 2.12834e-18
9892.42680 2.17221e-18
9894.09443 2.21609e-18
9895.75202 2.28286e-18
9897.40961 2.34961e-18
9899.06720 2.38520e-18
9900.73484 2.42057e-18
9902.39243 1.99943e-18
9904.05002 1.57848e-18
9905.70761 1.53777e-18
9907.37525 1.49705e-18
9909.03284 1.43332e-18
9910.69043 1.36963e-18
9912.35806 1.38611e-18
9914.01565 1.40270e-18
9915.67324 1.63909e-18
9917.33083 1.87532e-18
9918.99847 1.79359e-18
9920.65606 1.71191e-18
9922.31365 1.74886e-18
9923.98128 1.78582e-18
9925.63887 1.83282e-18
9927.29646 1.87985e-18
9928.95405 1.96921e-18
9930.62169 2.05834e-18
9932.27928 1.64682e-18
9933.93687 1.23544e-18
9935.59446 1.11976e-18
9937.26210 1.00431e-18
9938.91969 1.39264e-18
9940.57728 1.78086e-18
9942.23487 1.93997e-18
9943.90250 2.09900e-18
9945.56009 2.10014e-18
9947.21768 2.10115e-18
9948.88532 1.81067e-18
9950.54291 1.52048e-18
9952.20050 1.85558e-18
9953.85809 2.19051e-18
9955.52572 2.18534e-18
9957.18331 2.18005e-18
9958.84090 1.94574e-18
9960.50854 1.71149e-18
9962.16613 1.60933e-18
9963.82372 1.50719e-18
9965.48131 1.44875e-18
9967.14895 1.39027e-18
9968.80654 1.24922e-18
9970.46413 1.10822e-18
9972.12172 1.04085e-18
9973.78935 9.73517e-19
9975.44694 9.82590e-19
9977.10453 9.91795e-19
9978.77217 1.26852e-18
9980.42976 1.54511e-18
9982.08735 1.53092e-18
9983.74494 1.51679e-18
9985.41257 1.62124e-18
9987.07016 1.72571e-18
9988.72775 1.88881e-18
9990.39539 2.05181e-18
9992.05298 1.99770e-18
9993.71057 1.94351e-18
9995.36816 1.74936e-18
9997.03580 1.55513e-18
9998.69339 1.20303e-18
