# wavelength flux
4975.05213 6.78538e-17
4977.69633 2.04570e-17
4980.34053 -3.34287e-17
4982.98473 -4.38106e-19
4985.62893 9.25484e-17
4988.27313 6.01439e-17
4990.91733 -8.69825e-18
4993.57170 -6.57021e-18
4996.21590 9.02660e-17
4998.86010 6.54195e-17
5001.50430 2.75975e-17
5004.14850 2.93910e-17
5006.79270 3.22858e-17
5009.43690 4.54451e-17
5012.08110 3.63471e-17
5014.72530 3.93682e-17
5017.36950 3.99824e-17
5020.01370 4.76190e-17
5022.66807 3.54092e-17
5025.31227 2.19351e-17
5027.95647 2.79900e-17
5030.60067 2.53905e-17
5033.24487 7.50601e-18
5035.88907 1.12109e-17
5038.53327 1.54390e-17
5041.17747 2.38130e-17
5043.82167 1.66631e-17
5046.46587 1.42869e-17
5049.12024 1.56605e-17
5051.76444 1.29574e-17
5054.40864 1.39978e-17
5057.05284 1.07019e-17
5059.69704 1.30186e-17
5062.34124 1.83806e-17
5064.98544 2.01364e-17
5067.62964 2.50787e-17
5070.27384 2.17898e-17
5072.91804 1.58925e-17
5075.57241 1.39357e-17
5078.21661 1.80513e-17
5080.86081 1.72965e-17
5083.50501 1.72376e-17
5086.14921 2.05949e-17
5088.79341 1.74987e-17
5091.43761 1.30754e-17
5094.08181 8.90051e-18
5096.72601 9.66641e-18
5099.37021 1.67338e-17
5102.02458 2.25994e-17
5104.66878 1.89253e-17
5107.31298 1.84743e-17
5109.95718 2.19199e-17
5112.60138 1.67697e-17
5115.24558 1.37521e-17
5117.88978 1.80807e-17
5120.53398 1.90912e-17
5123.17818 1.85054e-17
5125.82238 1.75499e-17
5128.46658 1.79849e-17
5131.12095 1.67576e-17
5133.76515 1.40100e-17
5136.40935 1.26816e-17
5139.05355 1.21137e-17
5141.69775 1.44184e-17
5144.34195 1.53305e-17
5146.98615 1.56206e-17
5149.63035 1.67521e-17
5152.27455 1.71650e-17
5154.91875 1.63751e-17
5157.57312 1.30275e-17
5160.21732 1.08178e-17
5162.86152 1.18131e-17
5165.50572 1.33602e-17
5168.14992 1.30780e-17
5170.79412 1.10940e-17
5173.43832 1.05514e-17
5176.08252 1.08240e-17
5178.72672 1.28294e-17
5181.37092 1.29656e-17
5184.02529 1.14799e-17
5186.66949 1.17698e-17
5189.31369 1.17572e-17
5191.95789 1.04478e-17
5194.60209 1.18725e-17
5197.24629 1.19710e-17
5199.89049 9.94334e-18
5202.53469 9.98048e-18
5205.17889 1.40368e-17
5207.82309 1.24122e-17
5210.47746 1.08732e-17
5213.12166 1.12650e-17
5215.76586 1.23610e-17
5218.41006 1.14237e-17
5221.05426 1.12403e-17
5223.69846 1.44947e-17
5226.34266 1.59908e-17
5228.98686 1.23062e-17
5231.63106 1.26937e-17
5234.27526 1.36548e-17
5236.91946 1.29590e-17
5239.57383 1.25657e-17
5242.21803 1.29784e-17
5244.86223 1.22198e-17
5247.50643 1.08471e-17
5250.15063 1.00014e-17
5252.79483 1.06519e-17
5255.43903 1.41324e-17
5258.08323 1.58092e-17
5260.72743 1.43211e-17
5263.38180 1.49465e-17
5266.02600 1.67290e-17
5268.67020 1.68198e-17
5271.31440 1.55815e-17
5273.95860 1.48232e-17
5276.60280 1.47206e-17
5279.24700 1.37251e-17
5281.89120 1.44242e-17
5284.53540 1.78197e-17
5287.17960 1.78022e-17
5289.82380 1.30783e-17
5292.47817 1.30694e-17
5295.12237 1.53327e-17
5297.76657 1.51377e-17
5300.41077 1.53738e-17
5303.05497 1.46617e-17
5305.69917 1.59406e-17
5308.34337 1.69583e-17
5310.98757 1.69411e-17
5313.63177 1.68071e-17
5316.27597 1.51913e-17
5318.93034 1.51875e-17
5321.57454 1.59885e-17
5324.21874 1.57948e-17
5326.86294 1.72508e-17
5329.50714 1.82968e-17
5332.15134 1.67711e-17
5334.79554 1.74765e-17
5337.43974 1.74799e-17
5340.08394 1.64753e-17
5342.72814 1.68401e-17
5345.38251 1.70000e-17
5348.02671 1.83527e-17
5350.67091 1.95713e-17
5353.31511 1.83254e-17
5355.95931 1.69512e-17
5358.60351 1.63378e-17
5361.24771 1.75279e-17
5363.89191 1.63863e-17
5366.53611 1.48838e-17
5369.18031 1.58206e-17
5371.83468 1.70271e-17
5374.47888 1.57183e-17
5377.12308 1.38336e-17
5379.76728 1.54379e-17
5382.41148 1.69120e-17
5385.05568 1.61149e-17
5387.69988 1.63399e-17
5390.34408 1.64792e-17
5392.98828 1.66029e-17
5395.63248 1.76203e-17
5398.27668 1.78704e-17
5400.93105 1.82276e-17
5403.57525 1.76196e-17
5406.21945 1.81908e-17
5408.86365 1.86813e-17
5411.50785 1.71451e-17
5414.15205 1.72398e-17
5416.79625 1.67569e-17
5419.44045 1.69885e-17
5422.08465 1.76902e-17
5424.72885 1.76395e-17
5427.38322 1.86622e-17
5430.02742 2.04698e-17
5432.67162 1.86241e-17
5435.31582 1.67402e-17
5437.96002 1.71587e-17
5440.60422 1.73196e-17
5443.24842 1.60511e-17
5445.89262 1.80723e-17
5448.53682 2.22759e-17
5451.18102 1.98264e-17
5453.83539 1.88024e-17
5456.47959 1.94606e-17
5459.12379 1.53837e-17
5461.76799 1.33359e-17
5464.41219 1.63263e-17
5467.05639 1.87988e-17
5469.70059 1.90327e-17
5472.34479 1.86580e-17
5474.98899 1.93160e-17
5477.63319 2.07885e-17
5480.28756 1.81181e-17
5482.93176 1.68239e-17
5485.57596 1.84060e-17
5488.22016 1.78295e-17
5490.86436 1.76100e-17
5493.50856 1.99370e-17
5496.15276 1.72401e-17
5498.79696 1.59019e-17
5501.44116 1.91325e-17
5504.08536 2.06418e-17
5506.73973 1.93597e-17
5509.38393 1.77108e-17
5512.02813 1.82461e-17
5514.67233 1.82485e-17
5517.31653 1.76916e-17
5519.96073 1.71670e-17
5522.60493 1.73875e-17
5525.24913 1.71992e-17
5527.89333 1.74504e-17
5530.53753 1.80472e-17
5533.18173 1.75197e-17
5535.83610 1.82995e-17
5538.48030 1.80989e-17
5541.12450 1.54979e-17
5543.76870 1.47435e-17
5546.41290 1.44943e-17
5549.05710 1.47825e-17
5551.70130 1.63974e-17
5554.34550 1.65144e-17
5556.98970 1.64043e-17
5559.64407 1.37842e-17
5562.28827 1.28616e-17
5564.93247 1.43354e-17
5567.57667 1.30922e-17
5570.22087 1.02034e-17
5572.86507 1.06727e-17
5575.50927 1.76707e-17
5578.15347 2.38893e-17
5580.79767 2.51830e-17
5583.44187 2.49099e-17
5586.08607 2.25776e-17
5588.74044 1.87585e-17
5591.38464 1.87782e-17
5594.02884 2.14717e-17
5596.67304 2.11567e-17
5599.31724 2.01446e-17
5601.96144 1.73100e-17
5604.60564 1.78973e-17
5607.24984 1.80649e-17
5609.89404 1.57575e-17
5612.53824 1.71049e-17
5615.19261 1.81717e-17
5617.83681 1.91091e-17
5620.48101 2.02717e-17
5623.12521 1.93494e-17
5625.76941 1.62112e-17
5628.41361 1.69871e-17
5631.05781 1.87623e-17
5633.70201 1.65890e-17
5636.34621 1.45741e-17
5638.99041 1.53855e-17
5641.63461 1.58152e-17
5644.28898 1.58144e-17
5646.93318 1.65041e-17
5649.57738 1.54470e-17
5652.22158 1.45459e-17
5654.86578 1.61223e-17
5657.50998 1.60198e-17
5660.15418 1.49830e-17
5662.79838 1.48187e-17
5665.44258 1.40644e-17
5668.09695 1.53283e-17
5670.74115 1.62043e-17
5673.38535 1.54744e-17
5676.02955 1.30530e-17
5678.67375 1.13024e-17
5681.31795 1.11111e-17
5683.96215 1.12815e-17
5686.60635 1.11140e-17
5689.25055 1.07806e-17
5691.89475 9.04148e-18
5694.53895 9.26863e-18
5697.19332 1.01266e-17
5699.83752 1.05834e-17
5702.48172 1.14952e-17
5705.12592 1.00720e-17
5707.77012 1.01005e-17
5710.41432 9.84549e-18
5713.05852 8.73956e-18
5715.70272 9.99315e-18
5718.34692 9.69726e-18
5720.99112 9.09768e-18
5723.64549 8.83705e-18
5726.28969 7.59059e-18
5728.93389 7.09841e-18
5731.57809 8.79102e-18
5734.22229 9.67613e-18
5736.86649 1.03206e-17
5739.51069 1.02603e-17
5742.15489 1.03389e-17
5744.79909 1.03608e-17
5747.44329 1.16122e-17
5750.09766 1.13622e-17
5752.74186 9.92616e-18
5755.38606 1.14493e-17
5758.03026 1.11594e-17
5760.67446 1.07369e-17
5763.31866 1.05233e-17
5765.96286 9.59972e-18
5768.60706 7.72450e-18
5771.25126 8.40862e-18
5773.89546 9.31612e-18
5776.54983 9.62576e-18
5779.19403 9.56946e-18
5781.83823 1.02111e-17
5784.48243 8.09121e-18
5787.12663 8.44396e-18
5789.77083 9.34921e-18
5792.41503 1.03861e-17
5795.05923 1.02796e-17
5797.70343 9.56869e-18
5800.34763 1.13105e-17
5803.00200 1.19496e-17
5805.64620 1.16755e-17
5808.29040 9.53219e-18
5810.93460 7.94450e-18
5813.57880 7.87027e-18
5816.22300 8.56565e-18
5818.86720 8.31239e-18
5821.51140 8.36438e-18
5824.15560 7.82894e-18
5826.79980 6.36332e-18
5829.44400 7.40558e-18
5832.09837 9.38091e-18
5834.74257 9.82377e-18
5837.38677 9.04604e-18
5840.03097 6.80102e-18
5842.67517 6.03413e-18
5845.31937 8.87087e-18
5847.96357 7.95579e-18
5850.60777 4.43613e-18
5853.25197 3.45481e-18
5855.89617 4.70781e-18
5858.55054 4.90791e-18
5861.19474 3.91577e-18
5863.83894 5.79011e-18
5866.48314 7.97283e-18
5869.12734 5.05591e-18
5871.77154 5.06661e-18
5874.41574 6.79717e-18
5877.05994 5.94466e-18
5879.70414 5.39606e-18
5882.34834 5.01507e-18
5885.00271 1.73364e-18
5887.64691 7.54591e-19
5890.29111 3.83428e-18
5892.93531 6.78060e-18
5895.57951 8.55990e-18
5898.22371 5.91291e-18
5900.86791 4.20498e-18
5903.51211 5.87533e-18
5906.15631 7.48034e-18
5908.80051 8.32415e-18
5911.45488 1.01508e-17
5914.09908 1.02688e-17
5916.74328 9.11179e-18
5919.38748 8.78565e-18
5922.03168 9.43944e-18
5924.67588 8.67733e-18
5927.32008 8.36132e-18
5929.96428 9.85390e-18
5932.60848 1.08587e-17
5935.25268 1.19701e-17
5937.90705 1.27463e-17
5940.55125 1.07913e-17
5943.19545 1.32040e-17
5945.83965 1.57320e-17
5948.48385 1.59294e-17
5951.12805 1.93268e-17
5953.77225 2.15286e-17
5956.41645 2.05842e-17
5959.06065 2.19342e-17
5961.70485 2.14858e-17
5964.35922 2.00608e-17
5967.00342 2.08861e-17
5969.64762 2.14777e-17
5972.29182 2.19976e-17
5974.93602 2.20229e-17
5977.58022 2.12630e-17
5980.22442 2.16914e-17
5982.86862 2.21549e-17
5985.51282 2.25242e-17
5988.15702 2.29503e-17
5990.80122 2.38091e-17
5993.45559 2.32902e-17
5996.09979 2.10959e-17
5998.74399 2.19918e-17
6001.38819 2.34800e-17
6004.03239 2.36216e-17
6006.67659 2.28133e-17
6009.32079 2.33044e-17
6011.96499 2.41738e-17
6014.60919 2.24514e-17
6017.25339 2.11919e-17
6019.90776 2.17275e-17
6022.55196 2.08472e-17
6025.19616 2.14825e-17
6027.84036 2.15718e-17
6030.48456 2.01388e-17
6033.12876 1.83911e-17
6035.77296 2.12803e-17
6038.41716 2.31512e-17
6041.06136 2.08006e-17
6043.70556 1.80976e-17
6046.35993 1.73971e-17
6049.00413 1.68248e-17
6051.64833 1.60354e-17
6054.29253 1.64311e-17
6056.93673 1.76202e-17
6059.58093 1.75112e-17
6062.22513 1.78564e-17
6064.86933 1.63699e-17
6067.51353 1.56912e-17
6070.15773 1.50196e-17
6072.81210 1.36311e-17
6075.45630 1.43385e-17
6078.10050 1.40224e-17
6080.74470 1.41340e-17
6083.38890 1.34419e-17
6086.03310 1.16048e-17
6088.67730 9.61987e-18
6091.32150 9.94342e-18
6093.96570 1.07607e-17
6096.60990 1.20007e-17
6099.25410 1.25875e-17
6101.90847 1.11119e-17
6104.55267 9.06059e-18
6107.19687 9.65842e-18
6109.84107 1.00748e-17
6112.48527 9.45908e-18
6115.12947 9.99207e-18
6117.77367 9.40692e-18
6120.41787 8.00356e-18
6123.06207 9.67524e-18
6125.70627 1.06821e-17
6128.36064 1.01839e-17
6131.00484 1.12906e-17
6133.64904 1.13675e-17
6136.29324 1.03050e-17
6138.93744 9.62249e-18
6141.58164 9.82235e-18
6144.22584 1.07008e-17
6146.87004 1.01119e-17
6149.51424 8.95811e-18
6152.15844 9.79543e-18
6154.81281 1.00003e-17
6157.45701 9.91454e-18
6160.10121 9.22262e-18
6162.74541 8.64589e-18
6165.38961 1.07891e-17
6168.03381 1.17072e-17
6170.67801 8.58819e-18
6173.32221 7.02954e-18
6175.96641 8.02592e-18
6178.61061 7.15767e-18
6181.26498 8.94039e-18
6183.90918 1.04874e-17
6186.55338 8.39293e-18
6189.19758 8.43993e-18
6191.84178 9.62355e-18
6194.48598 9.71309e-18
6197.13018 8.84877e-18
6199.77438 1.08192e-17
6202.41858 1.32853e-17
6205.06278 1.29225e-17
6207.71715 1.17882e-17
6210.36135 1.12164e-17
6213.00555 1.12961e-17
6215.64975 1.27183e-17
6218.29395 1.42826e-17
6220.93815 1.48222e-17
6223.58235 1.54736e-17
6226.22655 1.52634e-17
6228.87075 1.39136e-17
6231.51495 1.29223e-17
6234.16932 1.23723e-17
6236.81352 1.40176e-17
6239.45772 1.40315e-17
6242.10192 1.21699e-17
6244.74612 1.28671e-17
6247.39032 1.46586e-17
6250.03452 1.39804e-17
6252.67872 1.31860e-17
6255.32292 1.28113e-17
6257.96712 1.27276e-17
6260.61132 1.32792e-17
6263.26569 1.28508e-17
6265.90989 1.32069e-17
6268.55409 1.30810e-17
6271.19829 1.10224e-17
6273.84249 1.23490e-17
6276.48669 1.35292e-17
6279.13089 1.14296e-17
6281.77509 1.03994e-17
6284.41929 1.16190e-17
6287.06349 1.33664e-17
6289.71786 1.46881e-17
6292.36206 1.35252e-17
6295.00626 1.14140e-17
6297.65046 1.10899e-17
6300.29466 1.41704e-17
6302.93886 1.61070e-17
6305.58306 1.57635e-17
6308.22726 1.57831e-17
6310.87146 1.50881e-17
6313.51566 1.63606e-17
6316.17003 1.62826e-17
6318.81423 1.51067e-17
6321.45843 1.51515e-17
6324.10263 1.33876e-17
6326.74683 1.28411e-17
6329.39103 1.42455e-17
6332.03523 1.46632e-17
6334.67943 1.45768e-17
6337.32363 1.59446e-17
6339.96783 1.54902e-17
6342.62220 1.39701e-17
6345.26640 1.47796e-17
6347.91060 1.49005e-17
6350.55480 1.46792e-17
6353.19900 1.44452e-17
6355.84320 1.33336e-17
6358.48740 1.35323e-17
6361.13160 1.41389e-17
6363.77580 1.42929e-17
6366.42000 1.42107e-17
6369.07437 1.48823e-17
6371.71857 1.48680e-17
6374.36277 1.37402e-17
6377.00697 1.35484e-17
6379.65117 1.41127e-17
6382.29537 1.40529e-17
6384.93957 1.31730e-17
6387.58377 1.25955e-17
6390.22797 1.17284e-17
6392.87217 1.14324e-17
6395.51637 1.38783e-17
6398.17074 1.44968e-17
6400.81494 1.18451e-17
6403.45914 1.11798e-17
6406.10334 1.18888e-17
6408.74754 1.19649e-17
6411.39174 1.08343e-17
6414.03594 1.07442e-17
6416.68014 1.22919e-17
6419.32434 1.28784e-17
6421.96854 1.28996e-17
6424.62291 1.13163e-17
6427.26711 9.69352e-18
6429.91131 1.02567e-17
6432.55551 1.13081e-17
6435.19971 1.18527e-17
6437.84391 1.22204e-17
6440.48811 1.23133e-17
6443.13231 1.18742e-17
6445.77651 1.22929e-17
6448.42071 1.33391e-17
6451.07508 1.25469e-17
6453.71928 1.16719e-17
6456.36348 1.27224e-17
6459.00768 1.36169e-17
6461.65188 1.29775e-17
6464.29608 1.25632e-17
6466.94028 1.18417e-17
6469.58448 1.07471e-17
6472.22868 1.15302e-17
6474.87288 1.35576e-17
6477.52725 1.47560e-17
6480.17145 1.33193e-17
6482.81565 1.13805e-17
6485.45985 1.16450e-17
6488.10405 1.30319e-17
6490.74825 1.28210e-17
6493.39245 1.21558e-17
6496.03665 1.23368e-17
6498.68085 1.49520e-17
6501.32505 1.75038e-17
6503.96925 1.45941e-17
6506.62362 1.33809e-17
6509.26782 1.60631e-17
6511.91202 1.64819e-17
6514.55622 1.57291e-17
6517.20042 1.52957e-17
6519.84462 1.41799e-17
6522.48882 1.52778e-17
6525.13302 1.70920e-17
6527.77722 1.64627e-17
6530.43159 1.57093e-17
6533.07579 1.67861e-17
6535.71999 1.72973e-17
6538.36419 1.61494e-17
6541.00839 1.74284e-17
6543.65259 1.69173e-17
6546.29679 1.54180e-17
6548.94099 1.86351e-17
6551.58519 1.97801e-17
6554.22939 1.79281e-17
6556.87359 1.89754e-17
6559.52796 2.03848e-17
6562.17216 1.95192e-17
6564.81636 1.78259e-17
6567.46056 1.83715e-17
6570.10476 1.91755e-17
6572.74896 1.74070e-17
6575.39316 1.63277e-17
6578.03736 1.70121e-17
6580.68156 1.78891e-17
6583.32576 1.77575e-17
6585.98013 1.78079e-17
6588.62433 2.00206e-17
6591.26853 2.06194e-17
6593.91273 1.92983e-17
6596.55693 2.06656e-17
6599.20113 2.08286e-17
6601.84533 1.90141e-17
6604.48953 1.79693e-17
6607.13373 1.86077e-17
6609.77793 1.90632e-17
6612.43230 1.87548e-17
6615.07650 1.67839e-17
6617.72070 1.58535e-17
6620.36490 1.69191e-17
6623.00910 1.70088e-17
6625.65330 1.68830e-17
6628.29750 1.66369e-17
6630.94170 1.65845e-17
6633.58590 1.68503e-17
6636.23010 1.56452e-17
6638.88447 1.50834e-17
6641.52867 1.66292e-17
6644.17287 1.77913e-17
6646.81707 1.71552e-17
6649.46127 1.69901e-17
6652.10547 1.99895e-17
6654.74967 2.08489e-17
6657.39387 1.85432e-17
6660.03807 1.60193e-17
6662.68227 1.39629e-17
6665.33664 1.43463e-17
6667.98084 1.54997e-17
6670.62504 1.05334e-17
6673.26924 5.70905e-19
6675.91344 -2.44437e-18
6678.55764 8.27843e-19
6681.20184 -2.77432e-18
6683.84604 -9.30340e-18
6686.49024 -2.93386e-18
6689.13444 1.07328e-17
6691.77864 1.32509e-17
6694.43301 9.21917e-18
6697.07721 4.10433e-18
6699.72141 -1.29130e-19
6702.36561 -1.66267e-18
6705.00981 1.83526e-18
6707.65401 7.67810e-18
6710.29821 1.06189e-17
6712.94241 1.07342e-17
6715.58661 1.12430e-17
6718.23081 1.11082e-17
6720.88518 1.05320e-17
6723.52938 9.92494e-18
6726.17358 9.73291e-18
6728.81778 9.82678e-18
6731.46198 9.64987e-18
6734.10618 1.13195e-17
6736.75038 1.30778e-17
6739.39458 1.30058e-17
6742.03878 1.19007e-17
6744.68298 1.08830e-17
6747.33735 1.19686e-17
6749.98155 1.15368e-17
6752.62575 1.06700e-17
6755.26995 1.07131e-17
6757.91415 1.11716e-17
6760.55835 1.14949e-17
6763.20255 1.17331e-17
6765.84675 1.20161e-17
6768.49095 1.33656e-17
6771.13515 1.53881e-17
6773.78952 1.66547e-17
6776.43372 1.54926e-17
6779.07792 1.46885e-17
6781.72212 1.50956e-17
6784.36632 1.65089e-17
6787.01052 1.65156e-17
6789.65472 1.54900e-17
6792.29892 1.50879e-17
6794.94312 1.50844e-17
6797.58732 1.53277e-17
6800.23152 1.64293e-17
6802.88589 1.70160e-17
6805.53009 1.62902e-17
6808.17429 1.32973e-17
6810.81849 1.19213e-17
6813.46269 1.45526e-17
6816.10689 1.55797e-17
6818.75109 1.43114e-17
6821.39529 1.39960e-17
6824.03949 1.39794e-17
6826.69386 1.50136e-17
6829.33806 1.30507e-17
6831.98226 5.69662e-18
6834.62646 2.23677e-18
6837.27066 1.09147e-18
6839.91486 1.43739e-18
6842.55906 7.18912e-18
6845.20326 7.17668e-18
6847.84746 7.16423e-18
6850.49166 7.15179e-18
6853.13586 7.13935e-18
6855.79023 7.12692e-18
6858.43443 7.11448e-18
6861.07863 7.10205e-18
6863.72283 7.08961e-18
6866.36703 7.07718e-18
6869.01123 7.06475e-18
6871.65543 7.05232e-18
6874.29963 7.03989e-18
6876.94383 7.02746e-18
6879.58803 7.01503e-18
6882.24240 7.00260e-18
6884.88660 6.99018e-18
6887.53080 6.97775e-18
6890.17500 6.96533e-18
6892.81920 6.95291e-18
6895.46340 6.94049e-18
6898.10760 6.92807e-18
6900.75180 6.91565e-18
6903.39600 6.90323e-18
6906.04020 6.89081e-18
6908.69457 6.87840e-18
6911.33877 6.86598e-18
6913.98297 6.85357e-18
6916.62717 6.84116e-18
6919.27137 6.82875e-18
6921.91557 6.81634e-18
6924.55977 6.80393e-18
6927.20397 6.79152e-18
6929.84817 6.77911e-18
6932.49237 6.76671e-18
6935.14674 6.75430e-18
6937.79094 6.65319e-18
6940.43514 6.54863e-18
6943.07934 4.06000e-18
6945.72354 2.44366e-18
6948.36774 6.85171e-18
6951.01194 8.52645e-18
6953.65614 4.50141e-18
6956.30034 2.70185e-18
6958.94454 3.19774e-18
6961.59891 5.42636e-18
6964.24311 6.85906e-18
6966.88731 5.87167e-18
6969.53151 5.26525e-18
6972.17571 6.24681e-18
6974.81991 7.00970e-18
6977.46411 6.98062e-18
6980.10831 7.06512e-18
6982.75251 7.69624e-18
6985.39671 5.71232e-18
6988.04091 3.96052e-18
6990.69528 4.98110e-18
6993.33948 4.97437e-18
6995.98368 3.43670e-18
6998.62788 2.99526e-18
7001.27208 3.58768e-18
7003.91628 3.31603e-18
7006.56048 3.18520e-18
7009.20468 4.02448e-18
7011.84888 5.80386e-18
7014.49308 6.14395e-18
7017.14745 4.92095e-18
7019.79165 3.95273e-18
7022.43585 3.29191e-18
7025.08005 3.15121e-18
7027.72425 2.34591e-18
7030.36845 4.76061e-18
7033.01265 5.97401e-18
7035.65685 3.98903e-18
7038.30105 4.02019e-18
7040.94525 5.07141e-18
7043.59962 4.02859e-18
7046.24382 3.09756e-18
7048.88802 3.86517e-18
7051.53222 4.39530e-18
7054.17642 2.33132e-18
7056.82062 3.09310e-18
7059.46482 5.78611e-18
7062.10902 5.47518e-18
7064.75322 4.71225e-18
7067.39742 3.94571e-18
7070.05179 6.02528e-18
7072.69599 7.14250e-18
7075.34019 5.66689e-18
7077.98439 5.74769e-18
7080.62859 4.74910e-18
7083.27279 4.67221e-18
7085.91699 5.55714e-18
7088.56119 5.75710e-18
7091.20539 5.39488e-18
7093.84959 6.67998e-18
7096.50396 8.82801e-18
7099.14816 9.28238e-18
7101.79236 8.31861e-18
7104.43656 8.47465e-18
7107.08076 9.77080e-18
7109.72496 1.24952e-17
7112.36916 1.33602e-17
7115.01336 1.23964e-17
7117.65756 1.23690e-17
7120.30176 1.36601e-17
7122.94596 1.63504e-17
7125.60033 1.57184e-17
7128.24453 1.51368e-17
7130.88873 1.50091e-17
7133.53293 1.55400e-17
7136.17713 1.71333e-17
7138.82133 1.88417e-17
7141.46553 1.89218e-17
7144.10973 1.90664e-17
7146.75393 2.07974e-17
7149.39813 2.32274e-17
7152.05250 2.31965e-17
7154.69670 2.34421e-17
7157.34090 2.59109e-17
7159.98510 2.59509e-17
7162.62930 2.51380e-17
7165.27350 2.49558e-17
7167.91770 2.60096e-17
7170.56190 2.88028e-17
7173.20610 2.94075e-17
7175.85030 2.68777e-17
7178.50467 2.67277e-17
7181.14887 2.65927e-17
7183.79307 2.61334e-17
7186.43727 2.51667e-17
7189.08147 2.47009e-17
7191.72567 2.56516e-17
7194.36987 2.85167e-17
7197.01407 2.72532e-17
7199.65827 2.28995e-17
7202.30247 2.18328e-17
7204.95684 2.46811e-17
7207.60104 2.58331e-17
7210.24524 2.66101e-17
7212.88944 2.67067e-17
7215.53364 2.51524e-17
7218.17784 2.56007e-17
7220.82204 2.72214e-17
7223.46624 2.49777e-17
7226.11044 2.44738e-17
7228.75464 2.30914e-17
7231.40901 1.98027e-17
7234.05321 1.96016e-17
7236.69741 1.94501e-17
7239.34161 1.88083e-17
7241.98581 1.77107e-17
7244.63001 1.61014e-17
7247.27421 1.62250e-17
7249.91841 1.68529e-17
7252.56261 1.52682e-17
7255.20681 1.59973e-17
7257.85101 1.43523e-17
7260.50538 1.23399e-17
7263.14958 1.25913e-17
7265.79378 1.21497e-17
7268.43798 1.30321e-17
7271.08218 1.42404e-17
7273.72638 1.43544e-17
7276.37058 1.18873e-17
7279.01478 9.98162e-18
7281.65898 1.10727e-17
7284.30318 1.35794e-17
7286.95755 1.37436e-17
7289.60175 1.19986e-17
7292.24595 1.05863e-17
7294.89015 8.99328e-18
7297.53435 8.95491e-18
7300.17855 8.61482e-18
7302.82275 7.99727e-18
7305.46695 1.01691e-17
7308.11115 1.10714e-17
7310.75535 1.14968e-17
7313.40972 1.35436e-17
7316.05392 1.34772e-17
7318.69812 1.16626e-17
7321.34232 9.93400e-18
7323.98652 1.05458e-17
7326.63072 1.11597e-17
7329.27492 1.22917e-17
7331.91912 1.47776e-17
7334.56332 1.31269e-17
7337.20752 9.33294e-18
7339.86189 1.01097e-17
7342.50609 1.49948e-17
7345.15029 1.68772e-17
7347.79449 1.75240e-17
7350.43869 1.63399e-17
7353.08289 1.31242e-17
7355.72709 1.32560e-17
7358.37129 1.48810e-17
7361.01549 1.65031e-17
7363.65969 1.41376e-17
7366.30389 1.05790e-17
7368.95826 1.08645e-17
7371.60246 1.55515e-17
7374.24666 1.61464e-17
7376.89086 1.34628e-17
7379.53506 1.33712e-17
7382.17926 1.39220e-17
7384.82346 1.57783e-17
7387.46766 1.57070e-17
7390.11186 1.47509e-17
7392.76623 1.54177e-17
7395.41043 1.63903e-17
7398.05463 1.69253e-17
7400.69883 1.79516e-17
7403.34303 1.95540e-17
7405.98723 2.08866e-17
7408.63143 1.98191e-17
7411.27563 1.68855e-17
7413.91983 1.65094e-17
7416.56403 1.86616e-17
7419.20823 1.88889e-17
7421.86260 1.94319e-17
7424.50680 1.79750e-17
7427.15100 1.58221e-17
7429.79520 1.87987e-17
7432.43940 2.04548e-17
7435.08360 2.03964e-17
7437.72780 1.79110e-17
7440.37200 1.55218e-17
7443.01620 1.55885e-17
7445.66040 1.64562e-17
7448.31477 1.64737e-17
7450.95897 1.55595e-17
7453.60317 1.67723e-17
7456.24737 1.84684e-17
7458.89157 1.78667e-17
7461.53577 1.70272e-17
7464.17997 1.59194e-17
7466.82417 1.59879e-17
7469.46837 1.62246e-17
7472.11257 1.51157e-17
7474.75677 1.52216e-17
7477.41114 1.30418e-17
7480.05534 1.31374e-17
7482.69954 1.44279e-17
7485.34374 1.32656e-17
7487.98794 1.32013e-17
7490.63214 1.35232e-17
7493.27634 1.36763e-17
7495.92054 1.22928e-17
7498.56474 1.23997e-17
7501.21911 1.43624e-17
7503.86331 1.43979e-17
7506.50751 1.48527e-17
7509.15171 1.50748e-17
7511.79591 1.42580e-17
7514.44011 1.30236e-17
7517.08431 1.17504e-17
7519.72851 1.25081e-17
7522.37271 1.54701e-17
7525.01691 1.64820e-17
7527.66111 1.61662e-17
7530.31548 1.60800e-17
7532.95968 1.51602e-17
7535.60388 1.47426e-17
7538.24808 1.41501e-17
7540.89228 1.25017e-17
7543.53648 1.14307e-17
7546.18068 1.11454e-17
7548.82488 1.16076e-17
7551.46908 1.14906e-17
7554.11328 1.13735e-17
7556.76765 1.12564e-17
7559.41185 1.11394e-17
7562.05605 1.10223e-17
7564.70025 1.09053e-17
7567.34445 1.07883e-17
7569.98865 1.06713e-17
7572.63285 1.05543e-17
7575.27705 1.04374e-17
7577.92125 1.03204e-17
7580.56545 1.02034e-17
7583.21982 1.00865e-17
7585.86402 9.96957e-18
7588.50822 9.85267e-18
7591.15242 9.73575e-18
7593.79662 9.61887e-18
7596.44082 9.50200e-18
7599.08502 9.38512e-18
7601.72922 9.26827e-18
7604.37342 9.15144e-18
7607.01762 9.03460e-18
7609.67199 8.91779e-18
7612.31619 8.80099e-18
7614.96039 8.68418e-18
7617.60459 8.56741e-18
7620.24879 8.45063e-18
7622.89299 8.33388e-18
7625.53719 8.21714e-18
7628.18139 8.10040e-18
7630.82559 7.98369e-18
7633.46979 7.86699e-18
7636.12416 7.75028e-18
7638.76836 7.63360e-18
7641.41256 7.51694e-18
7644.05676 7.40027e-18
7646.70096 7.28363e-18
7649.34516 7.16698e-18
7651.98936 7.05037e-18
7654.63356 6.93377e-18
7657.27776 6.81716e-18
7659.92196 6.70058e-18
7662.56616 6.58402e-18
7665.22053 6.46744e-18
7667.86473 6.35090e-18
7670.50893 6.23437e-18
7673.15313 6.11784e-18
7675.79733 6.00133e-18
7678.44153 5.88482e-18
7681.08573 5.76834e-18
7683.72993 8.57875e-18
7686.37413 1.01014e-17
7689.01833 7.65276e-18
7691.67270 6.07105e-18
7694.31690 6.26737e-18
7696.96110 5.82071e-18
7699.60530 5.31595e-18
7702.24950 6.03260e-18
7704.89370 4.89883e-18
7707.53790 4.06791e-18
7710.18210 4.64539e-18
7712.82630 4.71220e-18
7715.47050 6.95950e-18
7718.12487 7.70815e-18
7720.76907 4.78298e-18
7723.41327 6.80025e-18
7726.05747 1.02814e-17
7728.70167 9.18677e-18
7731.34587 8.53213e-18
7733.99007 8.00896e-18
7736.63427 5.95373e-18
7739.27847 4.37063e-18
7741.92267 3.18546e-18
7744.57704 2.94352e-18
7747.22124 6.25765e-18
7749.86544 1.15654e-17
7752.50964 1.20168e-17
7755.15384 9.12553e-18
7757.79804 8.60428e-18
7760.44224 7.30399e-18
7763.08644 6.77065e-18
7765.73064 8.38908e-18
7768.37484 9.12576e-18
7771.01904 8.83497e-18
7773.67341 6.16428e-18
7776.31761 2.79930e-18
7778.96181 4.67384e-18
7781.60601 7.68479e-18
7784.25021 9.48789e-18
7786.89441 7.98967e-18
7789.53861 9.25767e-18
7792.18281 9.63111e-18
7794.82701 7.19833e-18
7797.48138 8.80698e-18
7800.12558 9.60682e-18
7802.76978 8.55653e-18
7805.41398 7.13256e-18
7808.05818 7.56503e-18
7810.70238 7.70051e-18
7813.34658 9.53402e-18
7815.99078 7.44644e-18
7818.63498 4.14618e-18
7821.27918 3.94464e-18
7823.93355 5.66373e-18
7826.57775 8.52987e-18
7829.22195 1.18647e-17
7831.86615 1.01060e-17
7834.51035 7.19964e-18
7837.15455 7.52582e-18
7839.79875 5.41242e-18
7842.44295 2.63813e-18
7845.08715 3.48314e-18
7847.73135 5.93366e-18
7850.37555 7.42925e-18
7853.02992 6.08566e-18
7855.67412 6.42085e-18
7858.31832 1.15779e-17
7860.96252 1.30924e-17
7863.60672 7.91948e-18
7866.25092 6.77148e-18
7868.89512 1.01724e-17
7871.53932 9.95234e-18
7874.18352 1.13697e-17
7876.82772 1.39300e-17
7879.48209 1.24323e-17
7882.12629 9.99118e-18
7884.77049 7.65114e-18
7887.41469 8.16617e-18
7890.05889 1.05501e-17
7892.70309 1.06860e-17
7895.34729 1.15070e-17
7897.99149 1.08117e-17
7900.63569 1.14635e-17
7903.27989 1.10950e-17
7905.93426 7.63812e-18
7908.57846 7.44025e-18
7911.22266 1.01814e-17
7913.86686 9.52077e-18
7916.51106 9.47957e-18
7919.15526 9.32259e-18
7921.79946 1.01144e-17
7924.44366 1.15315e-17
7927.08786 1.27725e-17
7929.73206 1.42687e-17
7932.38643 1.65200e-17
7935.03063 1.60824e-17
7937.67483 1.40344e-17
7940.31903 1.20589e-17
7942.96323 9.13747e-18
7945.60743 8.57894e-18
7948.25163 6.55050e-18
7950.89583 5.07734e-18
7953.54003 4.96367e-18
7956.18423 6.30041e-18
7958.82843 9.17972e-18
7961.48280 1.02400e-17
7964.12700 9.24010e-18
7966.77120 1.14007e-17
7969.41540 1.51189e-17
7972.05960 1.36206e-17
7974.70380 9.86265e-18
7977.34800 6.83092e-18
7979.99220 5.36106e-18
7982.63640 6.66630e-18
7985.28060 7.59606e-18
7987.93497 6.78805e-18
7990.57917 8.08743e-18
7993.22337 1.11397e-17
7995.86757 1.28323e-17
7998.51177 1.13162e-17
8001.15597 7.15421e-18
8003.80017 6.64403e-18
8006.44437 7.16245e-18
8009.08857 7.39992e-18
8011.73277 6.96245e-18
8014.38714 6.53243e-18
8017.03134 5.89123e-18
8019.67554 7.26258e-18
8022.31974 9.29385e-18
8024.96394 1.25030e-17
8027.60814 7.34333e-18
8030.25234 6.29156e-18
8032.89654 7.98536e-18
8035.54074 6.52946e-18
8038.18494 5.06822e-18
8040.83931 6.12123e-18
8043.48351 4.47613e-18
8046.12771 3.02310e-18
8048.77191 5.49318e-18
8051.41611 8.14993e-18
8054.06031 6.60407e-18
8056.70451 4.52637e-18
8059.34871 3.81122e-18
8061.99291 3.04695e-18
8064.63711 2.69484e-18
8067.29148 3.41181e-18
8069.93568 4.24309e-18
8072.57988 4.70148e-18
8075.22408 4.82327e-18
8077.86828 4.29826e-18
8080.51248 6.23076e-18
8083.15668 7.19007e-18
8085.80088 4.43144e-18
8088.44508 4.24774e-18
8091.08928 3.55208e-18
8093.73348 1.39588e-18
8096.38785 5.62579e-18
8099.03205 9.93926e-18
8101.67625 7.11501e-18
8104.32045 7.43197e-18
8106.96465 6.51905e-18
8109.60885 4.61125e-18
8112.25305 6.56021e-18
8114.89725 5.62257e-18
8117.54145 4.89226e-18
8120.19582 3.63608e-18
8122.84002 6.17084e-18
8125.48422 7.49322e-18
8128.12842 7.60908e-18
8130.77262 5.38800e-18
8133.41682 3.40196e-18
8136.06102 2.68132e-18
8138.70522 2.97097e-18
8141.34942 3.19342e-18
8143.99362 5.75741e-18
8146.63782 6.39151e-18
8149.29219 4.82536e-18
8151.93639 3.77146e-18
8154.58059 3.30456e-18
8157.22479 4.24201e-18
8159.86899 3.90925e-18
8162.51319 3.41810e-18
8165.15739 3.06081e-18
8167.80159 1.78689e-18
8170.44579 2.97277e-18
8173.08999 3.79242e-18
8175.74436 4.02144e-18
8178.38856 3.96046e-18
8181.03276 4.07852e-18
8183.67696 5.89364e-18
8186.32116 4.61242e-18
8188.96536 2.04735e-18
8191.60956 1.30703e-18
8194.25376 1.57953e-18
8196.89796 4.82886e-18
8199.54216 6.14794e-18
8202.19653 3.71037e-18
8204.84073 3.73031e-18
8207.48493 3.45942e-18
8210.12913 4.56205e-18
8212.77333 2.13474e-18
8215.41753 -1.68478e-18
8218.06173 4.67963e-17
8220.70593 1.55987e-16
8223.35013 9.12126e-17
8225.99433 3.23807e-18
8228.64870 -1.99350e-18
8231.29290 2.95878e-18
8233.93710 3.07271e-18
8236.58130 1.36741e-18
8239.22550 1.18383e-18
8241.86970 2.83977e-18
8244.51390 4.36190e-18
8247.15810 4.94276e-18
8249.80230 3.73897e-18
8252.44650 2.46717e-18
8255.10087 2.79464e-18
8257.74507 2.57909e-18
8260.38927 1.65643e-18
8263.03347 2.03940e-18
8265.67767 3.93178e-18
8268.32187 3.48854e-18
8270.96607 1.70895e-18
8273.61027 2.69086e-18
8276.25447 1.66598e-18
8278.89867 -1.23739e-18
8281.54287 -1.31209e-18
8284.19724 1.20078e-18
8286.84144 3.67997e-18
8289.48564 6.78997e-18
8292.12984 7.12272e-18
8294.77404 5.96565e-18
8297.41824 2.78559e-18
8300.06244 5.19159e-18
8302.70664 4.60224e-18
8305.35084 4.36254e-18
8307.99504 5.71464e-18
8310.64941 5.77870e-18
8313.29361 1.98347e-18
8315.93781 2.63216e-18
8318.58201 5.91480e-18
8321.22621 7.09125e-18
8323.87041 4.97154e-18
8326.51461 5.11413e-19
8329.15881 1.38234e-19
8331.80301 3.98850e-18
8334.44721 7.14145e-18
8337.10158 8.89889e-18
8339.74578 1.12152e-17
8342.38998 7.06345e-18
8345.03418 3.59203e-18
8347.67838 1.36377e-17
8350.32258 2.08874e-17
8352.96678 1.89568e-17
8355.61098 1.49513e-17
8358.25518 1.30411e-17
8360.89938 1.23127e-17
8363.55375 9.56480e-18
8366.19795 7.10739e-18
8368.84215 4.31628e-18
8371.48635 5.54952e-18
8374.13055 6.24748e-18
8376.77475 4.85747e-18
8379.41895 4.92866e-18
8382.06315 9.65364e-18
8384.70735 1.01199e-17
8387.35155 1.02585e-17
8389.99575 7.73392e-18
8392.65012 7.18654e-18
8395.29432 8.32258e-18
8397.93852 7.87636e-18
8400.58272 7.15036e-18
8403.22692 5.35157e-18
8405.87112 5.70165e-18
8408.51532 6.31472e-18
8411.15952 5.04903e-18
8413.80372 5.86851e-18
8416.44792 6.74837e-18
8419.10229 5.69085e-18
8421.74649 4.64689e-18
8424.39069 8.07202e-19
8427.03489 -3.06004e-18
8429.67909 5.23314e-19
8432.32329 3.96005e-18
8434.96749 -1.12258e-18
8437.61169 -3.33712e-18
8440.25589 -1.28356e-18
8442.90009 3.20561e-18
8445.55446 4.93741e-18
8448.19866 3.84211e-18
8450.84286 4.51034e-18
8453.48706 5.33354e-18
8456.13126 8.22993e-18
8458.77546 9.74936e-18
8461.41966 7.79133e-18
8464.06386 2.10198e-18
8466.70806 5.13133e-18
8469.35226 1.16961e-17
8472.00663 1.04531e-17
8474.65083 7.26537e-18
8477.29503 5.06341e-18
8479.93923 4.31935e-18
8482.58343 5.54063e-18
8485.22763 6.89167e-18
8487.87183 7.14151e-18
8490.51603 5.33938e-18
8493.16023 4.89800e-18
8495.80443 6.87180e-18
8498.44863 6.12352e-18
8501.10300 4.54412e-18
8503.74720 6.10739e-18
8506.39140 8.39791e-18
8509.03560 1.36693e-17
8511.67980 1.49031e-17
8514.32400 1.15958e-17
8516.96820 9.02653e-18
8519.61240 7.18320e-18
8522.25660 6.33326e-18
8524.90080 6.00287e-18
8527.55517 5.36601e-18
8530.19937 5.03943e-18
8532.84357 6.11140e-18
8535.48777 9.03203e-18
8538.13197 1.03957e-17
8540.77617 9.01077e-18
8543.42037 8.77994e-18
8546.06457 1.04593e-17
8548.70877 1.10664e-17
8551.36314 1.05509e-17
8554.00734 1.20758e-17
8556.65154 1.41829e-17
8559.29574 1.57761e-17
8561.93994 1.76356e-17
8564.58414 1.66524e-17
8567.22834 1.73149e-17
8569.87254 1.83503e-17
8572.51674 1.58089e-17
8575.16094 1.65217e-17
8577.80514 2.29652e-17
8580.45951 2.39970e-17
8583.10371 2.02761e-17
8585.74791 2.24281e-17
8588.39211 2.36639e-17
8591.03631 2.09649e-17
8593.68051 2.01638e-17
8596.32471 2.45411e-17
8598.96891 2.70115e-17
8601.61311 2.56981e-17
8604.25731 2.65652e-17
8606.91168 2.92510e-17
8609.55588 2.99330e-17
8612.20008 2.89567e-17
8614.84428 2.70804e-17
8617.48848 2.66566e-17
8620.13268 2.89778e-17
8622.77688 3.15438e-17
8625.42108 3.11698e-17
8628.06528 2.77931e-17
8630.70948 2.93735e-17
8633.35368 3.53418e-17
8636.00805 3.83153e-17
8638.65225 3.67724e-17
8641.29645 3.42538e-17
8643.94065 3.27730e-17
8646.58485 3.24174e-17
8649.22905 3.64654e-17
8651.87325 4.02005e-17
8654.51745 4.36458e-17
8657.16165 4.48829e-17
8659.80585 3.93336e-17
8662.46022 3.50365e-17
8665.10442 3.43418e-17
8667.74862 4.16427e-17
8670.39282 4.99107e-17
8673.03702 4.75088e-17
8675.68122 4.42386e-17
8678.32542 4.54808e-17
8680.96962 4.53500e-17
8683.61382 4.30638e-17
8686.25802 3.91130e-17
8688.91239 3.56827e-17
8691.55659 3.76424e-17
8694.20079 4.12110e-17
8696.84499 4.20252e-17
8699.48919 4.07665e-17
8702.13339 3.94359e-17
8704.77759 4.02841e-17
8707.42179 3.97329e-17
8710.06599 3.82376e-17
8712.72036 3.58479e-17
8715.35439 3.11807e-17
8718.00876 3.00249e-17
8720.65296 3.28110e-17
8723.29716 3.57614e-17
8725.94136 3.41209e-17
8728.58556 3.10794e-17
8731.22976 3.06603e-17
8733.87396 2.90007e-17
8736.51816 2.66380e-17
8739.16236 2.66854e-17
8741.81673 2.70686e-17
8744.46093 2.73676e-17
8747.10513 2.99342e-17
8749.74933 3.08493e-17
8752.39353 3.06068e-17
8755.03773 3.22885e-17
8757.68193 3.36226e-17
8760.32613 3.15791e-17
8762.97033 2.92287e-17
8765.61453 2.92199e-17
8768.26890 2.57559e-17
8770.91310 2.24362e-17
8773.55730 2.27635e-17
8776.20150 2.16213e-17
8778.84570 2.41948e-17
8781.48990 3.18701e-17
8784.13410 3.66971e-17
8786.77830 3.64367e-17
8789.42250 3.35786e-17
8792.06670 3.24818e-17
8794.72107 3.43102e-17
8797.36527 3.24174e-17
8800.00947 3.22900e-17
8802.65367 3.67742e-17
8805.29787 3.57146e-17
8807.94207 3.06196e-17
8810.58627 3.06788e-17
8813.23047 3.44781e-17
8815.87467 3.77377e-17
8818.51887 3.69260e-17
8821.16307 3.07110e-17
8823.81744 2.81314e-17
8826.46164 3.31412e-17
8829.10584 3.92420e-17
8831.75004 4.63906e-17
8834.39424 5.27525e-17
8837.03844 5.07265e-17
8839.68264 4.05465e-17
8842.32684 3.28090e-17
8844.97104 3.54709e-17
8847.62541 4.10403e-17
8850.26961 4.04273e-17
8852.91381 3.58781e-17
8855.55801 3.32757e-17
8858.20221 3.14247e-17
8860.84641 2.98625e-17
8863.49061 3.09002e-17
8866.13481 3.40084e-17
8868.77901 3.42239e-17
8871.42321 3.37026e-17
8874.06741 3.25794e-17
8876.71161 3.24170e-17
8879.36598 2.94690e-17
8882.01018 2.35115e-17
8884.65438 2.73173e-17
8887.29858 3.32368e-17
8889.94278 3.32362e-17
8892.58698 3.61437e-17
8895.23118 3.31502e-17
8897.87538 2.34379e-17
8900.51958 1.83660e-17
8903.17395 1.53321e-17
8905.81815 1.27345e-17
8908.46235 1.70657e-17
8911.10655 2.27149e-17
8913.75075 1.94305e-17
8916.39495 2.27987e-17
8919.03915 2.74359e-17
8921.68335 1.82417e-17
8924.32755 9.09732e-18
8926.97175 1.32679e-17
8929.62612 1.60694e-17
8932.27032 1.46749e-17
8934.91452 1.14542e-17
8937.55872 1.04734e-17
8940.20292 1.23484e-17
8942.84712 1.81889e-17
8945.49132 2.16422e-17
8948.13552 2.11900e-17
8950.77972 2.63966e-17
8953.42392 2.90443e-17
8956.07829 2.68809e-17
8958.72249 2.34305e-17
8961.36669 1.54941e-17
8964.01089 6.31208e-18
8966.65509 1.90014e-18
8969.29929 7.14696e-18
8971.94349 1.01276e-17
8974.58769 1.15639e-17
8977.23189 8.98625e-18
8979.87609 -3.44797e-19
8982.52029 -3.43617e-18
8985.17466 -6.36610e-19
8987.81886 3.64334e-19
8990.46306 -1.09414e-19
8993.10726 3.20264e-18
8995.75146 1.17825e-17
8998.39566 1.52749e-17
9001.03986 1.12388e-17
9003.68406 6.43498e-18
9006.32826 6.49747e-18
9008.97246 5.88673e-18
9011.62683 -9.54258e-19
9014.27103 -7.36353e-19
9016.91523 3.85526e-18
9019.55943 6.93570e-18
9022.20363 8.73129e-18
9024.84783 6.94550e-18
9027.49203 6.48423e-18
9030.13623 6.43557e-18
9032.78043 5.17428e-18
9035.42463 4.18948e-18
9038.07900 2.63425e-18
9040.72320 5.27395e-18
9043.36740 7.72658e-18
9046.01160 5.59484e-18
9048.65580 3.44463e-18
9051.30000 7.96183e-19
9053.94420 -1.88852e-18
9056.58840 -9.43189e-19
9059.23260 1.18831e-18
9061.87680 2.13712e-18
9064.53117 3.38032e-18
9067.17537 3.55911e-18
9069.81957 1.80685e-18
9072.46377 1.43715e-18
9075.10797 2.01909e-18
9077.75217 1.64915e-18
9080.39637 1.89933e-18
9083.04057 1.76818e-18
9085.68477 1.78454e-18
9088.32897 2.69737e-18
9090.97317 2.83336e-18
9093.62754 2.87817e-18
9096.27174 2.44950e-18
9098.91594 3.42507e-18
9101.56014 4.38672e-18
9104.20434 4.62784e-18
9106.84854 6.67613e-18
9109.49274 7.96568e-18
9112.13694 4.39807e-18
9114.78114 7.23747e-19
9117.42534 -8.17468e-19
9120.07971 -1.56934e-18
9122.72391 4.91153e-19
9125.36811 3.04138e-18
9128.01231 4.54902e-18
9130.65651 3.10403e-18
9133.30071 2.27636e-19
9135.94491 -1.54060e-18
9138.58911 8.55332e-19
9141.23331 8.37862e-18
9143.87751 7.92555e-18
9146.53188 2.50088e-18
9149.17608 6.82198e-19
9151.82028 -3.48669e-19
9154.46448 2.55787e-19
9157.10868 1.56477e-18
9159.75288 1.09202e-18
9162.39708 2.64990e-18
9165.04128 6.99806e-18
9167.68548 8.35349e-18
9170.32968 5.60257e-18
9172.98405 3.78975e-18
9175.62825 4.86891e-18
9178.27245 4.43849e-18
9180.91665 1.40981e-18
9183.56085 1.48374e-18
9186.20505 2.71080e-18
9188.84925 1.95928e-18
9191.49345 2.32025e-18
9194.13765 4.00750e-18
9196.78185 4.65263e-18
9199.43622 3.96997e-18
9202.08042 2.06066e-18
9204.72462 2.47889e-18
9207.36882 2.29129e-18
9210.01302 4.93906e-19
9212.65722 2.65726e-18
9215.30142 5.52143e-18
9217.94562 4.44727e-18
9220.58982 2.74393e-18
9223.23402 1.20173e-18
9225.88839 -1.22897e-18
9228.53259 -1.50986e-18
9231.17679 -1.39075e-18
9233.82099 -2.98350e-18
9236.46519 -5.44175e-20
9239.10939 3.96684e-18
9241.75359 4.04037e-18
9244.39779 5.77809e-18
9247.04199 7.54132e-18
9249.68619 3.21499e-18
9252.33039 2.33847e-18
9254.98476 1.68654e-18
9257.62896 2.19354e-18
9260.27316 2.41967e-18
9262.91736 3.27053e-18
9265.56156 5.15727e-18
9268.20576 2.56046e-18
9270.84996 2.10348e-18
9273.49416 4.31283e-18
9276.13836 4.67726e-18
9278.78256 4.69830e-18
9281.43693 3.36558e-18
9284.08113 3.60446e-18
9286.72533 4.72623e-18
9289.36953 7.43986e-18
9292.01373 8.77609e-18
9294.65793 3.48472e-18
9297.30213 -5.02454e-18
9299.94633 -5.69561e-18
9302.59053 -2.00237e-19
9305.23473 2.32343e-18
9307.87893 3.11783e-18
9310.53330 1.80918e-18
9313.17750 2.27026e-19
9315.82170 -5.69333e-19
9318.46590 1.05827e-17
9321.11010 2.24344e-17
9323.75430 2.08177e-17
9326.39850 1.50853e-17
9329.04270 9.81302e-18
9331.69707 5.37105e-18
9334.33110 2.15515e-18
9336.98547 1.81748e-18
9339.62967 3.65188e-18
9342.27387 1.15347e-17
9344.91807 1.30953e-17
9347.56227 1.31047e-17
9350.20647 1.06208e-17
9352.85067 6.84227e-18
9355.49487 7.23192e-18
9358.13907 8.21120e-18
9360.79344 7.18819e-18
9363.43764 2.38876e-18
9366.08184 -5.37346e-18
9368.72604 -1.85508e-17
9371.37024 -1.78652e-17
9374.01444 1.55952e-18
9376.65864 1.68611e-17
9379.30284 1.56170e-17
9381.94704 7.39549e-18
9384.59124 8.91088e-18
9387.24561 1.07940e-17
9389.88981 1.09740e-17
9392.53401 9.00656e-18
9395.17821 3.47355e-18
9397.82241 1.68060e-18
9400.46661 1.97299e-18
9403.11081 2.54551e-18
9405.75501 4.82980e-18
9408.39921 2.97442e-18
9411.04341 4.26363e-18
9413.68761 2.10871e-18
9416.34198 -3.72446e-18
9418.98618 2.39820e-19
9421.63038 1.29906e-17
9424.27458 1.28404e-17
9426.91878 4.37790e-18
9429.56298 4.20707e-18
9432.20718 -1.76278e-18
9434.85138 -5.74444e-18
9437.49558 6.86898e-18
9440.13978 2.12170e-17
9442.79415 3.63602e-17
9445.43835 4.79461e-17
9448.08255 3.92186e-17
9450.72675 1.71787e-17
9453.37095 1.06791e-17
9456.01515 1.52392e-17
9458.65935 1.37594e-17
9461.30355 1.03035e-17
9463.94775 3.47282e-18
9466.59195 4.78433e-18
9469.24632 1.59929e-17
9471.89052 2.33131e-17
9474.53472 2.59102e-17
9477.17892 2.38839e-17
9479.82312 1.97541e-17
9482.46732 1.60739e-17
9485.11152 1.46405e-17
9487.75572 1.33682e-17
9490.39992 4.28619e-18
9493.04412 -5.37018e-19
9495.68832 1.29584e-19
9498.34269 -6.08116e-19
9500.98689 5.71452e-19
9503.63109 -1.86258e-19
9506.27529 2.39710e-18
9508.91949 4.82420e-18
9511.56369 6.33688e-18
9514.20789 5.30429e-18
9516.85209 -1.70268e-18
9519.49629 -3.53633e-18
9522.15066 9.52172e-19
9524.79486 -6.99686e-19
9527.43906 -4.20869e-18
9530.08326 -1.73680e-18
9532.72746 3.13656e-19
9535.37166 -3.97739e-19
9538.01586 5.32388e-18
9540.66006 9.07973e-18
9543.30426 6.63082e-18
9545.94846 2.75252e-18
9548.60283 8.11486e-18
9551.24703 8.95256e-18
9553.89123 1.88160e-18
9556.53543 -2.16082e-18
9559.17963 -5.43722e-18
9561.82383 -1.19229e-17
9564.46803 -1.25485e-17
9567.11223 -4.53722e-18
9569.75643 1.24252e-18
9572.40063 8.83137e-18
9575.04483 1.87688e-17
9577.69920 1.20035e-17
9580.34340 1.08174e-18
9582.98760 -1.53939e-18
9585.63180 -1.17128e-18
9588.27600 -1.84411e-18
9590.92020 -9.29543e-19
9593.56440 2.17672e-18
9596.20860 2.84840e-18
9598.85280 3.67803e-18
9601.49700 2.37241e-18
9604.15137 -2.83964e-18
9606.79557 -3.49794e-18
9609.43977 3.38637e-18
9612.08397 5.61368e-18
9614.72817 1.47831e-18
9617.37237 3.72128e-18
9620.01657 5.14824e-18
9622.66077 -4.64452e-20
9625.30497 2.46408e-18
9627.94917 6.43749e-18
9630.60354 8.76000e-18
9633.24774 9.02277e-18
9635.89194 2.89086e-18
9638.53614 3.98499e-19
9641.18034 2.90424e-19
9643.82454 -1.12362e-18
9646.46874 2.26488e-18
9649.11294 2.94171e-18
9651.75714 -1.34693e-18
9654.40134 8.83495e-19
9657.05571 4.81156e-18
9659.69991 2.29379e-18
9662.34411 -1.96463e-18
9664.98831 -2.06165e-18
9667.63251 1.60023e-18
9670.27671 -6.91709e-19
9672.92091 -7.88211e-19
9675.56511 1.68889e-18
9678.20931 3.87204e-18
9680.85351 2.61106e-18
9683.49771 -2.96398e-18
9686.15208 -8.47950e-18
9688.79628 -1.23832e-17
9691.44048 -1.22595e-17
9694.08468 -6.60915e-18
9696.72888 -3.10869e-19
9699.37308 1.16764e-18
9702.01728 -5.07202e-19
9704.66148 -2.14191e-18
9707.30568 -2.95771e-18
9709.94988 -3.87589e-18
9712.60425 -2.60951e-18
9715.24845 7.23067e-18
9717.89265 1.17676e-17
9720.53685 7.34939e-18
9723.18105 1.05993e-17
9725.82525 1.56243e-17
9728.46945 9.38810e-18
9731.11365 -9.09308e-18
9733.75785 -1.23647e-17
9736.40205 -4.16031e-18
9739.05642 -2.38974e-18
9741.70062 -2.79103e-18
9744.34482 -2.43754e-18
9746.98902 1.54742e-18
9749.63322 3.35022e-18
9752.27742 3.55653e-18
9754.92162 6.61404e-18
9757.56582 3.89955e-18
9760.21002 1.46188e-18
9762.85422 2.07613e-18
9765.50859 6.47837e-19
9768.15279 1.43626e-18
9770.79699 2.97667e-18
9773.44119 2.75963e-18
9776.08539 -2.46713e-18
9778.72959 -4.99192e-18
9781.37379 -2.19815e-18
9784.01799 -3.03381e-18
9786.66219 -1.98264e-17
9789.30639 -3.99040e-17
9791.95059 -3.71405e-17
9794.60496 -1.80557e-17
9797.24916 5.09289e-18
9799.89336 9.52650e-18
9802.53756 2.60415e-18
9805.18176 8.77449e-18
9807.82596 9.51436e-18
9810.47016 9.73902e-18
9813.11436 1.08173e-17
9815.75856 8.07922e-18
9818.41293 1.05178e-17
9821.05713 6.48343e-18
9823.70133 -6.64087e-18
9826.34553 -1.15545e-17
9828.98973 -2.59038e-18
9831.63393 3.13511e-18
9834.27813 -8.13029e-19
9836.92233 -2.81804e-18
9839.56653 -2.55809e-19
9842.21073 2.05159e-19
9844.85493 5.98679e-19
9847.50930 1.41959e-18
9850.15350 6.90053e-19
9852.79770 1.93944e-18
9855.44190 4.90027e-18
9858.08610 -9.43891e-19
9860.73030 -6.85521e-18
9863.37450 -9.57827e-19
9866.01870 -3.75674e-18
9868.66290 -4.02213e-18
9871.30710 6.17416e-18
9873.96147 7.73913e-18
9876.60567 1.69507e-17
9879.24987 3.05714e-17
9881.89407 2.91852e-17
9884.53827 1.31442e-17
9887.18247 -9.91262e-18
9889.82667 -7.92623e-18
9892.47087 2.02973e-17
9895.11507 3.54518e-17
9897.75927 4.02327e-17
9900.41364 3.59244e-17
9903.05784 7.63037e-18
9905.70204 -1.02805e-17
9908.34624 -9.47974e-18
9910.99044 -2.27689e-17
9913.63464 -2.74319e-17
9916.27884 -1.24523e-17
9918.92304 -1.18077e-17
9921.56724 -6.81768e-18
9924.21144 1.20615e-17
9926.85564 2.69596e-17
9929.51001 3.95282e-17
9932.15421 2.29449e-17
9934.79841 4.86734e-18
9937.44261 1.19066e-17
9940.08681 3.95188e-17
9942.73101 9.69942e-17
9945.37521 1.14759e-16
9948.01941 9.72063e-17
9950.66361 6.69219e-17
9953.30781 3.94959e-17
9955.96218 1.63051e-17
9958.60638 -3.55546e-17
9961.25058 -3.13135e-17
9963.89478 4.29698e-17
9966.53898 9.78632e-17
9969.18318 9.68994e-17
9971.82738 3.88836e-17
9974.47158 7.18079e-18
9977.11578 2.35225e-17
9979.77015 2.66415e-17
9982.40418 4.75458e-18
9985.05855 -9.21342e-18
9987.70275 -3.70881e-18
9990.34695 -9.72391e-18
9992.99115 -1.75024e-17
9995.63535 -3.57516e-17
9998.27955 -3.09080e-17
9998.97361 -3.09080e-17
10000.97203 -3.14345e-17
10002.97044 -3.22439e-17
