# wavelength flux
3674.00403 3.65355e-17
3675.92616 3.61530e-17
3677.84829 3.57702e-17
3679.78059 3.53879e-17
3681.70272 3.69223e-17
3683.63502 3.51007e-17
3685.55715 3.49815e-17
3687.48945 3.88164e-17
3689.41158 3.87901e-17
3691.33371 3.47983e-17
3693.26601 3.88917e-17
3695.18814 3.54179e-17
3697.12044 3.69668e-17
3699.04257 4.06559e-17
3700.96470 3.56055e-17
3702.89700 3.60080e-17
3704.81913 3.69385e-17
3706.75143 3.65516e-17
3708.67356 3.77979e-17
3710.60586 3.55724e-17
3712.52799 3.79493e-17
3714.45012 3.70861e-17
3716.38242 3.53301e-17
3718.30455 3.47396e-17
3720.23685 3.47636e-17
3722.15898 3.61633e-17
3724.09128 3.83566e-17
3726.01341 3.54078e-17
3727.93554 3.63350e-17
3729.86784 3.81502e-17
3731.78997 3.67802e-17
3733.72227 3.66370e-17
3735.64440 3.81557e-17
3737.57670 3.64852e-17
3739.49883 3.85371e-17
3741.42096 3.91815e-17
3743.35326 3.81266e-17
3745.27539 3.43202e-17
3747.20769 3.79848e-17
3749.12982 3.62351e-17
3751.05195 3.82878e-17
3752.98425 3.96730e-17
3754.90638 3.87722e-17
3756.83868 3.69559e-17
3758.76081 3.67120e-17
3760.69311 3.86985e-17
3762.61524 3.70068e-17
3764.53737 3.79401e-17
3766.46967 3.79041e-17
3768.39180 3.81062e-17
3770.32410 3.67784e-17
3772.24623 3.85999e-17
3774.17853 3.98350e-17
3776.10066 3.95041e-17
3778.02279 3.92040e-17
3779.95509 3.85162e-17
3781.87722 4.00458e-17
3783.80952 3.77700e-17
3785.73165 3.94827e-17
3787.65378 3.93783e-17
3789.58608 3.96197e-17
3791.50821 3.97897e-17
3793.44051 3.96423e-17
3795.36264 4.03531e-17
3797.29494 4.03812e-17
3799.21707 3.78257e-17
3801.13920 3.89487e-17
3803.07150 4.01752e-17
3804.99363 3.79995e-17
3806.92593 3.71296e-17
3808.84806 3.73265e-17
3810.78036 3.83681e-17
3812.70249 3.94981e-17
3814.62462 4.05139e-17
3816.55692 4.18418e-17
3818.47905 4.09019e-17
3820.41135 3.77351e-17
3822.33348 3.78371e-17
3824.25561 3.93658e-17
3826.18791 4.05918e-17
3828.11004 4.08930e-17
3830.04234 4.02411e-17
3831.96447 4.07360e-17
3833.89677 4.16461e-17
3835.81890 3.97657e-17
3837.74103 3.77411e-17
3839.67333 3.68333e-17
3841.59546 3.65425e-17
3843.52776 3.85309e-17
3845.44989 3.90436e-17
3847.38219 3.90228e-17
3849.30432 3.90709e-17
3851.22645 3.95374e-17
3853.15875 3.66159e-17
3855.08088 3.88187e-17
3857.01318 3.88260e-17
3858.93531 3.89960e-17
3860.86761 3.85868e-17
3862.78974 3.71673e-17
3864.71187 3.86056e-17
3866.64417 3.92557e-17
3868.56630 3.96143e-17
3870.49860 3.74524e-17
3872.42073 3.79621e-17
3874.34286 3.76585e-17
3876.27516 3.67305e-17
3878.19729 3.78065e-17
3880.12959 3.71755e-17
3882.05172 3.74439e-17
3883.98402 3.84496e-17
3885.90615 3.88735e-17
3887.82828 3.65104e-17
3889.76058 3.85618e-17
3891.68271 3.67363e-17
3893.61501 3.70641e-17
3895.53714 3.67137e-17
3897.46944 3.77926e-17
3899.39157 3.82275e-17
3901.31370 3.69244e-17
3903.24600 3.66682e-17
3905.16813 3.90905e-17
3907.10043 3.68295e-17
3909.02256 3.82693e-17
3910.94469 3.81936e-17
3912.87699 3.86370e-17
3914.79912 3.83128e-17
3916.73142 3.84149e-17
3918.65355 3.74743e-17
3920.58585 3.86079e-17
3922.50798 3.85146e-17
3924.43011 3.74855e-17
3926.36241 3.87017e-17
3928.28454 3.75239e-17
3930.21684 3.75507e-17
3932.13897 3.61463e-17
3934.07127 3.72172e-17
3935.99340 3.52313e-17
3937.91553 3.67377e-17
3939.84783 3.79937e-17
3941.76996 3.78338e-17
3943.70226 3.74608e-17
3945.62439 3.73655e-17
3947.54652 3.69490e-17
3949.47882 3.87070e-17
3951.40095 3.90522e-17
3953.33325 3.72053e-17
3955.25538 3.91625e-17
3957.18768 3.86299e-17
3959.10981 3.80056e-17
3961.03194 3.83178e-17
3962.96424 3.93769e-17
3964.88637 3.66435e-17
3966.81867 3.73608e-17
3968.74080 3.66947e-17
3970.67310 3.60849e-17
3972.59523 3.65937e-17
3974.51736 3.79524e-17
3976.44966 3.75466e-17
3978.37179 3.85708e-17
3980.30409 3.81933e-17
3982.22622 3.82820e-17
3984.14835 3.82034e-17
3986.08065 3.82937e-17
3988.00278 3.78968e-17
3989.93508 3.76195e-17
3991.85721 3.84601e-17
3993.78951 3.96756e-17
3995.71164 3.81064e-17
3997.63377 3.73720e-17
3999.56607 3.60066e-17
4001.48820 3.44337e-17
4003.42050 3.51667e-17
4005.34263 3.50718e-17
4007.27493 3.56157e-17
4009.19706 3.76258e-17
4011.11919 3.84326e-17
4013.05149 3.80997e-17
4014.97362 3.59862e-17
4016.90592 3.67475e-17
4018.82805 3.80107e-17
4020.75018 3.74581e-17
4022.68248 3.63672e-17
4024.60461 3.77008e-17
4026.53691 3.85359e-17
4028.45904 3.72688e-17
4030.39134 3.69203e-17
4032.31347 3.50403e-17
4034.23560 3.53114e-17
4036.16790 3.37223e-17
4038.09003 3.26354e-17
4040.02233 3.46861e-17
4041.94446 3.62596e-17
4043.87676 3.57849e-17
4045.79889 3.53728e-17
4047.72102 3.79657e-17
4049.65332 3.62906e-17
4051.57545 3.61827e-17
4053.50775 3.67802e-17
4055.42988 3.59582e-17
4057.35201 3.67142e-17
4059.28431 3.67469e-17
4061.20644 3.65462e-17
4063.13874 3.86783e-17
4065.06087 3.76960e-17
4066.99317 3.58012e-17
4068.91530 3.59251e-17
4070.83743 3.73327e-17
4072.76973 3.74329e-17
4074.69186 3.71797e-17
4076.62416 3.69493e-17
4078.54629 3.65362e-17
4080.47859 3.74035e-17
4082.40072 3.53101e-17
4084.32285 3.41402e-17
4086.25515 3.76160e-17
4088.17728 3.86355e-17
4090.10958 3.71185e-17
4092.03171 3.83631e-17
4093.96401 3.75305e-17
4095.88614 3.72662e-17
4097.80827 3.82910e-17
4099.74057 3.77484e-17
4101.66270 3.77118e-17
4103.59500 3.72343e-17
4105.51713 3.59326e-17
4107.43926 3.74495e-17
4109.37156 3.56458e-17
4111.29369 3.48761e-17
4113.22599 3.58920e-17
4115.14812 3.79573e-17
4117.08042 3.71499e-17
4119.00255 3.78761e-17
4120.92468 3.83272e-17
4122.85698 3.84490e-17
4124.77911 3.73171e-17
4126.71141 3.78832e-17
4128.63354 3.79532e-17
4130.56584 3.83903e-17
4132.48797 3.72129e-17
4134.41010 3.69501e-17
4136.34240 3.87769e-17
4138.26453 3.99486e-17
4140.19683 3.91561e-17
4142.11896 4.00474e-17
4144.04109 3.84342e-17
4145.97339 3.69532e-17
4147.89552 3.66631e-17
4149.82782 3.74004e-17
4151.74995 3.54712e-17
4153.68225 3.45341e-17
4155.60438 3.35437e-17
4157.52651 3.32469e-17
4159.45881 3.43285e-17
4161.38094 3.67167e-17
4163.31324 3.85912e-17
4165.23537 4.08627e-17
4167.16767 4.20331e-17
4169.08980 4.33479e-17
4171.01193 4.38306e-17
4172.94423 4.33394e-17
4174.86636 4.32842e-17
4176.79866 4.40746e-17
4178.72079 4.25076e-17
4180.65309 4.12597e-17
4182.57522 4.10219e-17
4184.49735 4.12921e-17
4186.42965 4.04623e-17
4188.35178 3.97887e-17
4190.28408 3.98128e-17
4192.20621 3.97820e-17
4194.12834 3.82474e-17
4196.06064 3.86678e-17
4197.98277 3.84567e-17
4199.91507 3.84003e-17
4201.83720 3.59193e-17
4203.76950 3.63902e-17
4205.69163 3.62280e-17
4207.61376 3.67547e-17
4209.54606 3.76270e-17
4211.46819 3.64634e-17
4213.40049 3.67876e-17
4215.32262 3.50346e-17
4217.24475 3.51783e-17
4219.17705 3.42719e-17
4221.09918 3.51769e-17
4223.03148 3.48430e-17
4224.95361 3.40365e-17
4226.88591 3.52551e-17
4228.80804 3.50390e-17
4230.73017 3.39397e-17
4232.66247 3.40702e-17
4234.58460 3.49137e-17
4236.51690 3.41423e-17
4238.43903 3.35457e-17
4240.37133 3.36910e-17
4242.29346 3.41649e-17
4244.21559 3.36973e-17
4246.14789 3.26929e-17
4248.07002 3.35706e-17
4250.00232 3.31233e-17
4251.92445 3.33376e-17
4253.85675 3.36984e-17
4255.77888 3.35445e-17
4257.70101 3.27879e-17
4259.63331 3.35005e-17
4261.55544 3.26101e-17
4263.48774 3.53524e-17
4265.40987 3.49177e-17
4267.33200 3.29587e-17
4269.26430 3.31539e-17
4271.18643 3.33152e-17
4273.11873 3.38706e-17
4275.04086 3.28565e-17
4276.97316 3.22790e-17
4278.89529 3.23471e-17
4280.81742 3.15011e-17
4282.74972 3.19619e-17
4284.67185 3.29918e-17
4286.60415 3.21176e-17
4288.52628 3.26864e-17
4290.45858 3.21349e-17
4292.38071 3.13980e-17
4294.30284 3.09485e-17
4296.23514 3.17185e-17
4298.15727 3.12906e-17
4300.08957 3.10115e-17
4302.01170 3.06758e-17
4303.93383 3.11494e-17
4305.86613 3.13999e-17
4307.78826 3.11185e-17
4309.72056 3.14557e-17
4311.64269 3.16028e-17
4313.57499 3.09833e-17
4315.49712 3.10324e-17
4317.41925 3.22132e-17
4319.35155 3.10911e-17
4321.27368 3.03038e-17
4323.20598 3.17692e-17
4325.12811 3.07344e-17
4327.06041 3.01865e-17
4328.98254 3.06195e-17
4330.90467 3.11579e-17
4332.83697 3.01124e-17
4334.75910 3.07152e-17
4336.69140 3.15092e-17
4338.61353 3.17322e-17
4340.53566 3.12098e-17
4342.46796 2.99910e-17
4344.39009 3.05799e-17
4346.32239 3.03939e-17
4348.24452 2.99549e-17
4350.17682 2.90841e-17
4352.09895 3.04573e-17
4354.02108 3.05773e-17
4355.95338 3.02475e-17
4357.87551 3.07660e-17
4359.80781 3.01174e-17
4361.72994 3.07506e-17
4363.66224 3.10159e-17
4365.58437 3.06564e-17
4367.50650 2.98652e-17
4369.43880 2.88336e-17
4371.36093 2.97508e-17
4373.29323 3.01822e-17
4375.21536 2.96693e-17
4377.13749 2.94035e-17
4379.06979 2.94183e-17
4380.99192 2.94212e-17
4382.92422 2.97541e-17
4384.84635 2.95691e-17
4386.77865 2.98243e-17
4388.70078 3.03545e-17
4390.62291 2.99614e-17
4392.55521 3.04034e-17
4394.47734 3.05025e-17
4396.40964 3.02385e-17
4398.33177 3.12445e-17
4400.26407 3.02632e-17
4402.18620 2.98612e-17
4404.10833 2.95574e-17
4406.04063 2.97322e-17
4407.96276 3.08816e-17
4409.89506 3.02185e-17
4411.81719 3.00677e-17
4413.73932 3.01884e-17
4415.67162 2.88555e-17
4417.59375 2.98342e-17
4419.52605 2.94382e-17
4421.44818 2.97054e-17
4423.38048 2.99790e-17
4425.30261 2.94283e-17
4427.22474 2.98380e-17
4429.15704 2.88441e-17
4431.07917 2.88944e-17
4433.01147 2.95860e-17
4434.93360 2.91471e-17
4436.86590 2.88773e-17
4438.78803 2.88711e-17
4440.71016 2.94637e-17
4442.64246 2.94440e-17
4444.56459 2.93333e-17
4446.49689 2.98810e-17
4448.41902 2.91599e-17
4450.35132 2.85186e-17
4452.27345 2.91772e-17
4454.19558 2.96719e-17
4456.12788 2.86026e-17
4458.05001 2.90798e-17
4459.98231 2.97437e-17
4461.90444 2.87598e-17
4463.82657 2.82574e-17
4465.75887 2.87271e-17
4467.68100 2.89831e-17
4469.61330 2.88621e-17
4471.53543 2.88176e-17
4473.46773 2.86831e-17
4475.38986 2.82438e-17
4477.31199 2.81566e-17
4479.24429 2.85267e-17
4481.16642 2.79708e-17
4483.09872 2.80151e-17
4485.02085 2.78247e-17
4486.95315 2.87567e-17
4488.87528 2.82624e-17
4490.79741 2.78455e-17
4492.72971 2.82590e-17
4494.65184 2.84099e-17
4496.58414 2.76355e-17
4498.50627 2.79279e-17
4500.42840 2.77787e-17
4502.36070 2.76484e-17
4504.28283 2.74075e-17
4506.21513 2.75403e-17
4508.13726 2.85397e-17
4510.06956 2.85033e-17
4511.99169 2.77120e-17
4513.91382 2.78904e-17
4515.84612 2.78849e-17
4517.76825 2.80625e-17
4519.70055 2.78867e-17
4521.62268 2.85638e-17
4523.55498 2.80343e-17
4525.47711 2.80505e-17
4527.39924 2.84627e-17
4529.33154 2.76902e-17
4531.25367 2.70534e-17
4533.18597 2.79027e-17
4535.10810 2.72134e-17
4537.03023 2.71144e-17
4538.96253 2.84153e-17
4540.88466 2.86819e-17
4542.81696 2.85314e-17
4544.73909 2.88775e-17
4546.67139 2.89211e-17
4548.59352 2.78409e-17
4550.51565 2.85643e-17
4552.44795 2.92630e-17
4554.37008 2.90300e-17
4556.30238 2.84378e-17
4558.22451 2.85885e-17
4560.15681 2.91752e-17
4562.07894 2.89879e-17
4564.00107 2.93222e-17
4565.93337 2.83886e-17
4567.85550 2.88185e-17
4569.78780 2.82644e-17
4571.70993 2.89668e-17
4573.63206 2.89516e-17
4575.56436 2.87054e-17
4577.48649 2.87459e-17
4579.41879 2.91554e-17
4581.34092 2.89601e-17
4583.27322 2.90877e-17
4585.19535 3.03648e-17
4587.11748 3.02563e-17
4589.04978 3.03559e-17
4590.97191 2.98773e-17
4592.90421 3.05611e-17
4594.82634 3.02380e-17
4596.75864 2.99231e-17
4598.68077 2.98838e-17
4600.60290 2.97408e-17
4602.53520 3.01271e-17
4604.45733 2.92659e-17
4606.38963 3.02286e-17
4608.31176 3.00929e-17
4610.23389 3.12516e-17
4612.16619 3.07951e-17
4614.08832 3.02480e-17
4616.02062 3.05406e-17
4617.94275 3.05059e-17
4619.87505 3.09921e-17
4621.79718 3.05104e-17
4623.71931 3.03705e-17
4625.65161 2.98615e-17
4627.57374 3.01496e-17
4629.50604 3.00529e-17
4631.42817 2.97023e-17
4633.36047 2.94184e-17
4635.28260 2.93748e-17
4637.20473 2.96068e-17
4639.13703 2.97470e-17
4641.05916 2.85974e-17
4642.99146 2.88606e-17
4644.91359 2.91619e-17
4646.84589 2.99531e-17
4648.76802 2.94501e-17
4650.69015 2.88611e-17
4652.62245 2.89834e-17
4654.54458 2.93143e-17
4656.47688 2.97901e-17
4658.39901 2.97278e-17
4660.32114 2.98107e-17
4662.25344 2.93656e-17
4664.17557 2.95619e-17
4666.10787 2.98212e-17
4668.03000 3.06581e-17
4669.96230 2.95947e-17
4671.88443 2.93284e-17
4673.80656 2.96125e-17
4675.73886 2.96523e-17
4677.66099 3.02129e-17
4679.59329 3.01201e-17
4681.51542 3.02107e-17
4683.44772 3.01692e-17
4685.36985 2.99465e-17
4687.29198 3.09217e-17
4689.22428 3.12199e-17
4691.14641 3.14723e-17
4693.07871 3.13202e-17
4695.00084 3.21209e-17
4696.93314 3.27671e-17
4698.85527 3.37119e-17
4700.77740 3.38861e-17
4702.70970 3.41819e-17
4704.63183 3.53661e-17
4706.56413 3.60974e-17
4708.48626 3.67715e-17
4710.40839 3.72991e-17
4712.34069 3.88811e-17
4714.26282 3.88702e-17
4716.19512 3.83081e-17
4718.11725 3.86622e-17
4720.04955 3.82047e-17
4721.97168 3.73496e-17
4723.89381 3.72654e-17
4725.82611 3.60037e-17
4727.74824 3.56074e-17
4729.68054 3.56898e-17
4731.60267 3.58251e-17
4733.52480 3.58057e-17
4735.45710 3.54545e-17
4737.37923 3.62958e-17
4739.31153 3.57041e-17
4741.23366 3.50179e-17
4743.16596 3.60168e-17
4745.08809 3.66047e-17
4747.01022 3.74295e-17
4748.94252 3.81204e-17
4750.86465 3.82068e-17
4752.79695 3.97190e-17
4754.71908 4.07075e-17
4756.65138 4.31564e-17
4758.57351 4.54037e-17
4760.49564 4.62374e-17
4762.42794 4.67925e-17
4764.35007 4.70097e-17
4766.28237 4.62980e-17
4768.20450 4.52820e-17
4770.13680 4.44174e-17
4772.05893 4.13023e-17
4773.98106 3.96480e-17
4775.91336 3.86366e-17
4777.83549 3.63050e-17
4779.76779 3.57903e-17
4781.68992 3.51351e-17
4783.61205 3.51628e-17
4785.54435 3.44586e-17
4787.46648 3.37051e-17
4789.39878 3.40807e-17
4791.32091 3.33586e-17
4793.25321 3.24433e-17
4795.17534 3.18715e-17
4797.09747 3.11852e-17
4799.02977 3.06546e-17
4800.95190 3.09923e-17
4802.88420 3.01899e-17
4804.80633 2.94948e-17
4806.73863 2.98199e-17
4808.66076 2.91829e-17
4810.58289 2.86795e-17
4812.51519 2.80722e-17
4814.43732 2.81379e-17
4816.36962 2.77458e-17
4818.29175 2.75066e-17
4820.21388 2.71893e-17
4822.14618 2.68983e-17
4824.06831 2.68521e-17
4826.00061 2.69542e-17
4827.92274 2.65595e-17
4829.85504 2.66964e-17
4831.77717 2.74854e-17
4833.69930 2.63130e-17
4835.63160 2.56691e-17
4837.55373 2.62385e-17
4839.48603 2.64827e-17
4841.40816 2.62805e-17
4843.34046 2.59568e-17
4845.26259 2.58791e-17
4847.18472 2.55719e-17
4849.11702 2.51022e-17
4851.03915 2.53401e-17
4852.97145 2.54758e-17
4854.89358 2.54460e-17
4856.81571 2.52206e-17
4858.74801 2.46717e-17
4860.67014 2.48347e-17
4862.60244 2.48413e-17
4864.52457 2.50630e-17
4866.45687 2.47717e-17
4868.37900 2.45467e-17
4870.30113 2.45171e-17
4872.23343 2.50123e-17
4874.15556 2.44845e-17
4876.08786 2.47893e-17
4878.00999 2.47845e-17
4879.94229 2.41523e-17
4881.86442 2.37866e-17
4883.78655 2.39541e-17
4885.71885 2.41323e-17
4887.64098 2.39569e-17
4889.57328 2.40027e-17
4891.49541 2.36253e-17
4893.41754 2.33809e-17
4895.34984 2.40543e-17
4897.27197 2.37876e-17
4899.20427 2.34430e-17
4901.12640 2.37375e-17
4903.05870 2.37450e-17
4904.98083 2.39720e-17
4906.90296 2.39248e-17
4908.83526 2.36401e-17
4910.75739 2.40073e-17
4912.68969 2.36010e-17
4914.61182 2.34595e-17
4916.53395 2.36363e-17
4918.46625 2.36812e-17
4920.38838 2.37052e-17
4922.32068 2.44185e-17
4924.24281 2.43419e-17
4926.17511 2.46802e-17
4928.09724 2.41131e-17
4930.01937 2.41265e-17
4931.95167 2.50231e-17
4933.87380 2.52942e-17
4935.80610 2.46127e-17
4937.72823 2.49853e-17
4939.66053 2.47667e-17
4941.58266 2.51836e-17
4943.50479 2.45587e-17
4945.43709 2.42322e-17
4947.35922 2.45049e-17
4949.29152 2.43161e-17
4951.21365 2.39697e-17
4953.14595 2.32596e-17
4955.06808 2.28432e-17
4956.99021 2.26434e-17
4958.92251 2.30092e-17
4960.84464 2.26900e-17
4962.77694 2.31352e-17
4964.69907 2.34242e-17
4966.62120 2.28511e-17
4968.55350 2.28869e-17
4970.47563 2.28830e-17
4972.40793 2.26859e-17
4974.33006 2.28452e-17
4976.26236 2.27236e-17
4978.18449 2.28361e-17
4980.10662 2.21090e-17
4982.03892 2.23523e-17
4983.96105 2.20854e-17
4985.89335 2.27815e-17
4987.81548 2.26201e-17
4989.74778 2.17477e-17
4991.66991 1.95005e-17
4993.59204 2.19603e-17
4995.52434 2.17408e-17
4997.44647 2.19770e-17
4999.37877 2.21669e-17
5001.30090 2.21801e-17
5003.23320 2.18332e-17
5005.15533 2.14489e-17
5007.07746 2.15541e-17
5009.00976 2.17360e-17
5010.93189 2.13216e-17
5012.86419 2.10754e-17
5014.78632 2.12536e-17
5016.70845 2.16981e-17
5018.64075 2.19556e-17
5020.56288 2.21149e-17
5022.49518 2.18473e-17
5024.41731 2.08175e-17
5026.34961 2.10514e-17
5028.27174 2.12599e-17
5030.19387 2.10941e-17
5032.12617 2.14796e-17
5034.04830 2.07378e-17
5035.98060 2.13242e-17
5037.90273 2.12409e-17
5039.82486 2.08893e-17
5041.75716 2.09510e-17
5043.67929 2.10089e-17
5045.61159 2.11513e-17
5047.53372 2.07217e-17
5049.46602 2.06472e-17
5051.38815 2.03242e-17
5053.31028 2.05233e-17
5055.24258 2.07126e-17
5057.16471 2.01929e-17
5059.09701 2.01316e-17
5061.01914 2.05416e-17
5062.95144 2.09924e-17
5064.87357 2.03537e-17
5066.79570 2.03446e-17
5068.72800 2.03717e-17
5070.65013 1.96479e-17
5072.58243 2.00600e-17
5074.50456 2.05301e-17
5076.43686 2.06029e-17
5078.35899 2.03117e-17
5080.28112 2.00659e-17
5082.21342 1.97715e-17
5084.13555 1.96672e-17
5086.06785 1.97748e-17
5087.98998 2.00394e-17
5089.91211 2.03421e-17
5091.84441 1.99253e-17
5093.76654 1.99181e-17
5095.69884 2.01248e-17
5097.62097 2.00651e-17
5099.55327 2.01970e-17
5101.47540 2.00546e-17
5103.39753 1.99357e-17
5105.32983 1.96504e-17
5107.25196 1.94800e-17
5109.18426 1.96949e-17
5111.10639 1.99910e-17
5113.03869 1.97523e-17
5114.96082 1.92898e-17
5116.88295 1.94105e-17
5118.81525 1.95486e-17
5120.73738 1.94916e-17
5122.66968 1.98706e-17
5124.59181 1.96864e-17
5126.51394 1.98280e-17
5128.44624 1.93274e-17
5130.36837 1.91901e-17
5132.30067 1.96320e-17
5134.22280 1.98914e-17
5136.15510 2.04792e-17
5138.07723 2.00238e-17
5139.99936 1.96002e-17
5141.93166 1.95039e-17
5143.85379 1.97555e-17
5145.78609 1.97751e-17
5147.70822 2.00154e-17
5149.64052 1.90359e-17
5151.56265 1.89665e-17
5153.48478 1.94065e-17
5155.41708 1.91177e-17
5157.33921 1.90172e-17
5159.27151 1.94139e-17
5161.19364 1.92920e-17
5163.11577 1.94717e-17
5165.04807 1.92651e-17
5166.97020 1.86694e-17
5168.90250 1.94986e-17
5170.82463 1.90372e-17
5172.75693 1.87678e-17
5174.67906 1.92246e-17
5176.60119 1.93898e-17
5178.53349 1.92456e-17
5180.45562 1.89911e-17
5182.38792 1.90740e-17
5184.31005 1.95396e-17
5186.24235 1.91694e-17
5188.16448 1.87262e-17
5190.08661 1.87029e-17
5192.01891 1.88509e-17
5193.94104 1.89942e-17
5195.87334 1.90639e-17
5197.79547 1.85794e-17
5199.72777 1.86298e-17
5201.64990 1.88158e-17
5203.57203 1.86162e-17
5205.50433 1.90500e-17
5207.42646 1.85195e-17
5209.35876 1.86631e-17
5211.28089 1.90480e-17
5213.20302 1.89751e-17
5215.13532 1.92223e-17
5217.05745 1.86066e-17
5218.98975 1.86589e-17
5220.91188 1.82232e-17
5222.84418 1.87763e-17
5224.76631 1.87052e-17
5226.68844 1.87558e-17
5228.62074 1.86516e-17
5230.54287 1.85391e-17
5232.47517 1.85067e-17
5234.39730 1.86990e-17
5236.31943 1.88804e-17
5238.25173 1.83857e-17
5240.17386 1.85197e-17
5242.10616 1.89805e-17
5244.02829 1.90034e-17
5245.96059 1.91724e-17
5247.88272 1.85917e-17
5249.80485 1.82935e-17
5251.73715 1.87578e-17
5253.65928 1.85169e-17
5255.59158 1.84760e-17
5257.51371 1.83682e-17
5259.44601 1.83449e-17
5261.36814 1.77914e-17
5263.29027 1.81849e-17
5265.22257 1.88296e-17
5267.14470 1.84460e-17
5269.07700 1.82153e-17
5270.99913 1.81755e-17
5272.93143 1.85748e-17
5274.85356 1.79045e-17
5276.77569 1.79237e-17
5278.70799 1.82011e-17
5280.63012 1.83775e-17
5282.56242 1.77999e-17
5284.48455 1.76889e-17
5286.40668 1.80493e-17
5288.33898 1.83198e-17
5290.26111 1.83856e-17
5292.19341 1.83092e-17
5294.11554 1.75788e-17
5296.04784 1.77405e-17
5297.96997 1.80312e-17
5299.89210 1.79904e-17
5301.82440 1.80886e-17
5303.74653 1.72548e-17
5305.67883 1.77497e-17
5307.60096 1.77113e-17
5309.53326 1.82420e-17
5311.45539 1.79948e-17
5313.37752 1.79009e-17
5315.30982 1.81344e-17
5317.23195 1.77598e-17
5319.16425 1.78756e-17
5321.08638 1.77759e-17
5323.00851 1.75401e-17
5324.94081 1.74910e-17
5326.86294 1.68361e-17
5328.79524 1.77500e-17
5330.71737 1.78722e-17
5332.64967 1.77452e-17
5334.57180 1.75736e-17
5336.49393 1.74531e-17
5338.42623 1.78029e-17
5340.34836 1.79747e-17
5342.28066 1.78903e-17
5344.20279 1.76044e-17
5346.13509 1.79340e-17
5348.05722 1.72716e-17
5349.97935 1.78565e-17
5351.91165 1.79602e-17
5353.83378 1.75351e-17
5355.76608 1.75506e-17
5357.68821 1.71769e-17
5359.61034 1.75675e-17
5361.54264 1.73063e-17
5363.46477 1.69721e-17
5365.39707 1.73809e-17
5367.31920 1.76649e-17
5369.25150 1.75619e-17
5371.17363 1.71538e-17
5373.09576 1.75611e-17
5375.02806 1.79320e-17
5376.95019 1.77365e-17
5378.88249 1.74719e-17
5380.80462 1.74165e-17
5382.73692 1.74466e-17
5384.65905 1.75016e-17
5386.58118 1.77136e-17
5388.51348 1.76212e-17
5390.43561 1.73993e-17
5392.36791 1.77802e-17
5394.29004 1.77196e-17
5396.21217 1.78627e-17
5398.14447 1.83243e-17
5400.06660 1.81797e-17
5401.99890 1.77224e-17
5403.92103 1.76868e-17
5405.85333 1.78103e-17
5407.77546 1.81604e-17
5409.69759 1.82589e-17
5411.62989 1.79333e-17
5413.55202 1.79763e-17
5415.48432 1.76938e-17
5417.40645 1.77355e-17
5419.33875 1.80043e-17
5421.26088 1.75087e-17
5423.18301 1.76110e-17
5425.11531 1.74809e-17
5427.03744 1.70984e-17
5428.96974 1.74479e-17
5430.89187 1.78356e-17
5432.81400 1.75665e-17
5434.74630 1.74013e-17
5436.66843 1.74391e-17
5438.60073 1.75656e-17
5440.52286 1.73461e-17
5442.45516 1.74272e-17
5444.37729 1.76729e-17
5446.29942 1.75898e-17
5448.23172 1.78322e-17
5450.15385 1.75692e-17
5452.08615 1.74075e-17
5454.00828 1.74759e-17
5455.94058 1.75746e-17
5457.86271 1.73873e-17
5459.78484 1.71594e-17
5461.71714 1.72763e-17
5463.63927 1.73159e-17
5465.57157 1.79650e-17
5467.49370 1.77146e-17
5469.42600 1.80173e-17
5471.34813 1.77394e-17
5473.27026 1.75704e-17
5475.20256 1.80595e-17
5477.12469 1.76545e-17
5479.05699 1.81332e-17
5480.97912 1.85729e-17
5482.90125 1.84298e-17
5484.83355 1.84163e-17
5486.75568 1.84291e-17
5488.68798 1.84813e-17
5490.61011 1.91289e-17
5492.54241 1.92331e-17
5494.46454 1.91977e-17
5496.38667 1.93716e-17
5498.31897 1.98034e-17
5500.24110 1.95343e-17
5502.17340 2.02130e-17
5504.09553 1.95263e-17
5506.02783 1.90481e-17
5507.94996 1.84770e-17
5509.87209 1.81018e-17
5511.80439 1.86435e-17
5513.72652 1.85470e-17
5515.65882 1.83888e-17
5517.58095 1.82031e-17
5519.50308 1.80601e-17
5521.43538 1.80814e-17
5523.35751 1.75850e-17
5525.28981 1.71392e-17
5527.21194 1.71578e-17
5529.14424 1.72293e-17
5531.06637 1.71339e-17
5532.98850 1.70129e-17
5534.92080 1.72124e-17
5536.84293 1.78843e-17
5538.77523 1.75195e-17
5540.69736 1.67531e-17
5542.62966 1.68012e-17
5544.55179 1.66372e-17
5546.47392 1.73062e-17
5548.40622 1.66479e-17
5550.32835 1.65573e-17
5552.26065 1.63936e-17
5554.18278 1.64484e-17
5556.10491 1.69659e-17
5558.03721 1.67843e-17
5559.95934 1.61785e-17
5561.89164 1.65535e-17
5563.81377 1.70633e-17
5565.74607 1.65786e-17
5567.66820 1.64783e-17
5569.59033 1.67338e-17
5571.52263 1.65147e-17
5573.44476 1.61240e-17
5575.37706 1.65137e-17
5577.29919 1.63325e-17
5579.23149 1.60506e-17
5581.15362 1.72951e-17
5583.07575 1.69076e-17
5585.00805 1.64778e-17
5586.93018 1.62375e-17
5588.86248 1.63599e-17
5590.78461 1.63740e-17
5592.70674 1.58458e-17
5594.63904 1.63234e-17
5596.56117 1.61082e-17
5598.49347 1.59158e-17
5600.41560 1.59246e-17
5602.34790 1.60488e-17
5604.27003 1.53772e-17
5606.19216 1.58792e-17
5608.12446 1.55309e-17
5610.04659 1.53960e-17
5611.97889 1.55738e-17
5613.90102 1.56225e-17
5615.83332 1.59186e-17
5617.75545 1.57688e-17
5619.67758 1.53970e-17
5621.60988 1.55354e-17
5623.53201 1.59316e-17
5625.46431 1.55963e-17
5627.38644 1.58768e-17
5629.30857 1.56262e-17
5631.24087 1.53348e-17
5633.16300 1.53919e-17
5635.09530 1.53524e-17
5637.01743 1.59315e-17
5638.94973 1.56990e-17
5640.87186 1.55078e-17
5642.79399 1.52045e-17
5644.72629 1.54977e-17
5646.64842 1.54002e-17
5648.58072 1.52277e-17
5650.50285 1.50915e-17
5652.43515 1.52482e-17
5654.35728 1.54031e-17
5656.27941 1.52943e-17
5658.21171 1.52343e-17
5660.13384 1.53203e-17
5662.06614 1.51122e-17
5663.98827 1.50149e-17
5665.92057 1.49921e-17
5667.84270 1.48908e-17
5669.76483 1.49129e-17
5671.69713 1.47653e-17
5673.61926 1.49835e-17
5675.55156 1.52961e-17
5677.47369 1.49268e-17
5679.39582 1.48041e-17
5681.32812 1.52404e-17
5683.25025 1.49607e-17
5685.18255 1.50864e-17
5687.10468 1.49810e-17
5689.03698 1.44238e-17
5690.95911 1.48607e-17
5692.88124 1.46215e-17
5694.81354 1.45582e-17
5696.73567 1.46567e-17
5698.66797 1.49920e-17
5700.59010 1.48053e-17
5702.52240 1.51992e-17
5704.44453 1.51052e-17
5706.36666 1.48161e-17
5708.29896 1.49450e-17
5710.22109 1.53471e-17
5712.15339 1.48686e-17
5714.07552 1.47481e-17
5716.00782 1.46846e-17
5717.92995 1.48939e-17
5719.85208 1.47457e-17
5721.78438 1.44201e-17
5723.70651 1.49339e-17
5725.63881 1.47036e-17
5727.56094 1.45419e-17
5729.48307 1.46503e-17
5731.41537 1.50602e-17
5733.33750 1.43972e-17
5735.26980 1.42546e-17
5737.19193 1.43009e-17
5739.12423 1.49295e-17
5741.04636 1.49543e-17
5742.96849 1.44765e-17
5744.90079 1.41215e-17
5746.82292 1.49060e-17
5748.75522 1.47270e-17
5750.67735 1.46169e-17
5752.59948 1.42592e-17
5754.53178 1.43536e-17
5756.45391 1.50390e-17
5758.38621 1.47842e-17
5760.30834 1.46380e-17
5762.24064 1.46725e-17
5764.16277 1.48737e-17
5766.08490 1.49841e-17
5768.01720 1.46068e-17
5769.93933 1.47069e-17
5771.87163 1.46915e-17
5773.79376 1.49366e-17
5775.72606 1.44679e-17
5777.64819 1.43957e-17
5779.57032 1.49712e-17
5781.50262 1.45839e-17
5783.42475 1.42242e-17
5785.35705 1.42453e-17
5787.27918 1.49874e-17
5789.21148 1.48411e-17
5791.13361 1.45597e-17
5793.05574 1.46982e-17
5794.98804 1.42633e-17
5796.91017 1.42622e-17
5798.84247 1.47035e-17
5800.76460 1.46554e-17
5802.68673 1.47233e-17
5804.61903 1.42761e-17
5806.54116 1.44624e-17
5808.47346 1.42940e-17
5810.39559 1.48386e-17
5812.32789 1.51287e-17
5814.25002 1.46258e-17
5816.17215 1.44008e-17
5818.10445 1.48473e-17
5820.02658 1.50437e-17
5821.95888 1.47078e-17
5823.88101 1.41511e-17
5825.81331 1.45165e-17
5827.73544 1.46698e-17
5829.65757 1.46558e-17
5831.58987 1.46460e-17
5833.51200 1.42781e-17
5835.44430 1.41531e-17
5837.36643 1.48207e-17
5839.28856 1.46657e-17
5841.22086 1.45510e-17
5843.14299 1.46531e-17
5845.07529 1.47288e-17
5846.99742 1.47185e-17
5848.92972 1.44603e-17
5850.85185 1.41615e-17
5852.77398 1.46082e-17
5854.70628 1.44831e-17
5856.62841 1.46616e-17
5858.56071 1.41003e-17
5860.48284 1.41612e-17
5862.41514 1.43968e-17
5864.33727 1.45225e-17
5866.25940 1.48816e-17
5868.19170 1.46319e-17
5870.11383 1.46318e-17
5872.04613 1.42724e-17
5873.96826 1.42303e-17
5875.89039 1.41953e-17
5877.82269 1.40792e-17
5879.74482 1.39613e-17
5881.67712 1.36434e-17
5883.59925 1.34420e-17
5885.53155 1.37046e-17
5887.45368 1.35951e-17
5889.37581 1.33367e-17
5891.30811 1.33112e-17
5893.23024 1.36870e-17
5895.16254 1.36152e-17
5897.08467 1.37002e-17
5899.01697 1.40811e-17
5900.93910 1.39158e-17
5902.86123 1.39617e-17
5904.79353 1.39581e-17
5906.71566 1.39047e-17
5908.64796 1.44169e-17
5910.57009 1.47379e-17
5912.50239 1.43293e-17
5914.42452 1.41753e-17
5916.34665 1.43060e-17
5918.27895 1.40963e-17
5920.20108 1.42981e-17
5922.13338 1.40660e-17
5924.05551 1.36807e-17
5925.97764 1.38597e-17
5927.90994 1.40435e-17
5929.83207 1.40508e-17
5931.76437 1.38866e-17
5933.68650 1.37011e-17
5935.61880 1.35357e-17
5937.54093 1.38506e-17
5939.46306 1.42169e-17
5941.39536 1.37506e-17
5943.31749 1.39799e-17
5945.24979 1.44274e-17
5947.17192 1.39117e-17
5949.09405 1.35916e-17
5951.02635 1.33758e-17
5952.94848 1.30316e-17
5954.88078 1.31638e-17
5956.80291 1.26114e-17
5958.73521 1.25203e-17
5960.65734 1.30808e-17
5962.57947 1.33931e-17
5964.51177 1.39612e-17
5966.43390 1.40031e-17
5968.36620 1.42778e-17
5970.28833 1.44091e-17
5972.22063 1.43361e-17
5974.14276 1.45290e-17
5976.06489 1.52052e-17
5977.99719 1.48604e-17
5979.91932 1.50490e-17
5981.85162 1.52034e-17
5983.77375 1.45454e-17
5985.70605 1.46451e-17
5987.62818 1.47313e-17
5989.55031 1.41173e-17
5991.48261 1.33419e-17
5993.40474 1.31887e-17
5995.33704 1.30020e-17
5997.25917 1.27286e-17
5999.18130 1.26138e-17
6001.11360 1.25799e-17
6003.03573 1.31434e-17
6004.96803 1.35599e-17
6006.89016 1.35277e-17
6008.82246 1.34267e-17
6010.74459 1.34753e-17
6012.66672 1.37258e-17
6014.59902 1.38501e-17
6016.52115 1.35732e-17
6018.45345 1.31479e-17
6020.37558 1.32191e-17
6022.30788 1.34076e-17
6024.23001 1.33456e-17
6026.15214 1.30742e-17
6028.08444 1.31045e-17
6030.00657 1.30917e-17
6031.93887 1.31393e-17
6033.86100 1.35144e-17
6035.78313 1.35480e-17
6037.71543 1.34323e-17
6039.63756 1.33098e-17
6041.56986 1.36444e-17
6043.49199 1.40000e-17
6045.42429 1.32459e-17
6047.34642 1.29052e-17
6049.26855 1.31583e-17
6051.20085 1.32813e-17
6053.12298 1.31215e-17
6055.05528 1.30324e-17
6056.97741 1.31308e-17
6058.90971 1.30094e-17
6060.83184 1.27968e-17
6062.75397 1.29829e-17
6064.68627 1.33125e-17
6066.60840 1.30588e-17
6068.54070 1.28188e-17
6070.46283 1.26301e-17
6072.38496 1.27073e-17
6074.31726 1.30574e-17
6076.23939 1.31425e-17
6078.17169 1.29496e-17
6080.09382 1.26599e-17
6082.02612 1.27484e-17
6083.94825 1.28201e-17
6085.87038 1.26309e-17
6087.80268 1.26682e-17
6089.72481 1.28312e-17
6091.65711 1.32462e-17
6093.57924 1.31501e-17
6095.51154 1.30711e-17
6097.43367 1.26417e-17
6099.35580 1.26111e-17
6101.28810 1.29804e-17
6103.21023 1.25155e-17
6105.14253 1.21510e-17
6107.06466 1.25441e-17
6108.98679 1.24736e-17
6110.91909 1.25476e-17
6112.84122 1.24057e-17
6114.77352 1.26084e-17
6116.69565 1.26642e-17
6118.62795 1.23126e-17
6120.55008 1.22049e-17
6122.47221 1.21228e-17
6124.40451 1.26690e-17
6126.32664 1.26906e-17
6128.25894 1.24396e-17
6130.18107 1.28526e-17
6132.11337 1.26704e-17
6134.03550 1.27873e-17
6135.95763 1.24700e-17
6137.88993 1.26244e-17
6139.81206 1.23498e-17
6141.74436 1.22504e-17
6143.66649 1.24532e-17
6145.58862 1.22832e-17
6147.52092 1.22584e-17
6149.44305 1.20115e-17
6151.37535 1.19732e-17
6153.29748 1.21915e-17
6155.22978 1.23017e-17
6157.15191 1.25747e-17
6159.07404 1.22313e-17
6161.00634 1.23233e-17
6162.92847 1.26262e-17
6164.86077 1.26539e-17
6166.78290 1.23764e-17
6168.71520 1.21459e-17
6170.63733 1.21130e-17
6172.55946 1.17029e-17
6174.49176 1.17081e-17
6176.41389 1.21988e-17
6178.34619 1.20334e-17
6180.26832 1.21211e-17
6182.19045 1.23353e-17
6184.12275 1.22160e-17
6186.04488 1.23614e-17
6187.97718 1.20910e-17
6189.89931 1.19599e-17
6191.83161 1.24300e-17
6193.75374 1.23637e-17
6195.67587 1.19128e-17
6197.60817 1.17889e-17
6199.53030 1.17142e-17
6201.46260 1.18880e-17
6203.38473 1.20697e-17
6205.31703 1.17451e-17
6207.23916 1.19672e-17
6209.16129 1.21190e-17
6211.09359 1.21905e-17
6213.01572 1.21156e-17
6214.94802 1.20053e-17
6216.87015 1.18916e-17
6218.80245 1.19424e-17
6220.72458 1.24197e-17
6222.64671 1.21988e-17
6224.57901 1.21412e-17
6226.50114 1.13823e-17
6228.43344 1.15839e-17
6230.35557 1.19203e-17
6232.27770 1.20414e-17
6234.21000 1.20806e-17
6236.13213 1.17986e-17
6238.06443 1.18268e-17
6239.98656 1.17205e-17
6241.91886 1.17426e-17
6243.84099 1.16107e-17
6245.76312 1.15626e-17
6247.69542 1.16053e-17
6249.61755 1.20052e-17
6251.54985 1.16257e-17
6253.47198 1.15716e-17
6255.39411 1.19876e-17
6257.32641 1.14010e-17
6259.24854 1.15740e-17
6261.18084 1.17243e-17
6263.10297 1.19925e-17
6265.03527 1.21137e-17
6266.95740 1.16288e-17
6268.87953 1.14909e-17
6270.81183 1.18277e-17
6272.73396 1.17065e-17
6274.66626 1.10940e-17
6276.58839 1.09652e-17
6278.52069 1.11843e-17
6280.44282 1.14341e-17
6282.36495 1.16101e-17
6284.29725 1.14749e-17
6286.21938 1.12873e-17
6288.15168 1.12160e-17
6290.07381 1.11390e-17
6292.00611 1.10258e-17
6293.92824 1.14697e-17
6295.85037 1.13857e-17
6297.78267 1.09887e-17
6299.70480 1.11919e-17
6301.63710 1.14693e-17
6303.55923 1.17400e-17
6305.48136 1.15914e-17
6307.41366 1.15865e-17
6309.33579 1.19341e-17
6311.26809 1.16821e-17
6313.19022 1.14422e-17
6315.12252 1.13606e-17
6317.04465 1.09644e-17
6318.96678 1.14810e-17
6320.89908 1.14402e-17
6322.82121 1.12000e-17
6324.75351 1.13785e-17
6326.67564 1.12101e-17
6328.60794 1.16210e-17
6330.53007 1.15329e-17
6332.45220 1.13311e-17
6334.38450 1.14759e-17
6336.30663 1.11739e-17
6338.23893 1.13828e-17
6340.16106 1.10633e-17
6342.08319 1.10230e-17
6344.01549 1.10002e-17
6345.93762 1.15808e-17
6347.86992 1.14335e-17
6349.79205 1.11170e-17
6351.72435 1.12240e-17
6353.64648 1.11453e-17
6355.56861 1.10281e-17
6357.50091 1.12416e-17
6359.42304 1.12348e-17
6361.35534 1.10914e-17
6363.27747 1.09795e-17
6365.20977 1.07728e-17
6367.13190 1.09720e-17
6369.05403 1.11687e-17
6370.98633 1.10207e-17
6372.90846 1.11906e-17
6374.84076 1.12945e-17
6376.76289 1.11929e-17
6378.68502 1.12751e-17
6380.61732 1.08976e-17
6382.53945 1.10456e-17
6384.47175 1.10928e-17
6386.39388 1.10738e-17
6388.32618 1.09273e-17
6390.24831 1.12461e-17
6392.17044 1.09974e-17
6394.10274 1.06509e-17
6396.02487 1.09214e-17
6397.95717 1.10573e-17
6399.87930 1.12527e-17
6401.81160 1.10403e-17
6403.73373 1.08823e-17
6405.65586 1.11974e-17
6407.58816 1.14606e-17
6409.51029 1.12928e-17
6411.44259 1.12807e-17
6413.36472 1.11728e-17
6415.28685 1.13549e-17
6417.21915 1.10841e-17
6419.14128 1.11222e-17
6421.07358 1.15012e-17
6422.99571 1.14004e-17
6424.92801 1.11739e-17
6426.85014 1.07217e-17
6428.77227 1.05662e-17
6430.70457 1.08033e-17
6432.62670 1.09169e-17
6434.55900 1.08544e-17
6436.48113 1.08937e-17
6438.41343 1.09745e-17
6440.33556 1.10352e-17
6442.25769 1.11284e-17
6444.18999 1.11726e-17
6446.11212 1.09438e-17
6448.04442 1.06606e-17
6449.96655 1.09025e-17
6451.88868 1.10203e-17
6453.82098 1.05666e-17
6455.74311 1.06370e-17
6457.67541 1.09487e-17
6459.59754 1.11793e-17
6461.52984 1.12511e-17
6463.45197 1.07190e-17
6465.37410 1.10365e-17
6467.30640 1.11759e-17
6469.22853 1.11844e-17
6471.16083 1.08782e-17
6473.08296 1.06556e-17
6475.01526 1.09278e-17
6476.93739 1.09854e-17
6478.85952 1.07798e-17
6480.79182 1.08547e-17
6482.71395 1.11405e-17
6484.64625 1.12225e-17
6486.56838 1.11197e-17
6488.50068 1.10582e-17
6490.42281 1.11940e-17
6492.34494 1.12927e-17
6494.27724 1.14523e-17
6496.19937 1.11588e-17
6498.13167 1.10284e-17
6500.05380 1.11037e-17
6501.97593 1.11089e-17
6503.90823 1.09290e-17
6505.83036 1.08632e-17
6507.76266 1.09673e-17
6509.68479 1.11348e-17
6511.61709 1.09861e-17
6513.53922 1.09495e-17
6515.46135 1.10193e-17
6517.39365 1.09907e-17
6519.31578 1.08344e-17
6521.24808 1.07869e-17
6523.17021 1.12341e-17
6525.10251 1.11092e-17
6527.02464 1.07862e-17
6528.94677 1.07846e-17
6530.87907 1.08066e-17
6532.80120 1.09316e-17
6534.73350 1.07098e-17
6536.65563 1.08656e-17
6538.58793 1.08180e-17
6540.51006 1.09830e-17
6542.43219 1.08481e-17
6544.36449 1.07431e-17
6546.28662 1.07544e-17
6548.21892 1.09498e-17
6550.14105 1.09428e-17
6552.06318 1.09673e-17
6553.99548 1.09926e-17
6555.91761 1.06865e-17
6557.84991 1.09529e-17
6559.77204 1.09459e-17
6561.70434 1.13085e-17
6563.62647 1.08700e-17
6565.54860 1.07751e-17
6567.48090 1.09206e-17
6569.40303 1.10472e-17
6571.33533 1.09657e-17
6573.25746 1.08055e-17
6575.18976 1.04064e-17
6577.11189 1.04065e-17
6579.03402 1.09534e-17
6580.96632 1.10338e-17
6582.88845 1.08736e-17
6584.82075 1.07533e-17
6586.74288 1.05726e-17
6588.66501 1.06847e-17
6590.59731 1.08739e-17
6592.51944 1.08932e-17
6594.45174 1.09016e-17
6596.37387 1.07422e-17
6598.30617 1.06244e-17
6600.22830 1.10669e-17
6602.15043 1.12363e-17
6604.08273 1.08476e-17
6606.00486 1.09787e-17
6607.93716 1.08071e-17
6609.85929 1.10806e-17
6611.78142 1.09419e-17
6613.71372 1.07433e-17
6615.63585 1.08653e-17
6617.56815 1.06039e-17
6619.49028 1.11102e-17
6621.42258 1.11935e-17
6623.34471 1.15290e-17
6625.26684 1.13087e-17
6627.19914 1.11635e-17
6629.12127 1.12684e-17
6631.05357 1.15311e-17
6632.97570 1.14003e-17
6634.90800 1.13554e-17
6636.83013 1.13993e-17
6638.75226 1.14135e-17
6640.68456 1.12473e-17
6642.60669 1.12699e-17
6644.53899 1.13051e-17
6646.46112 1.16433e-17
6648.38325 1.16721e-17
6650.31555 1.16314e-17
6652.23768 1.16794e-17
6654.16998 1.17290e-17
6656.09211 1.22408e-17
6658.02441 1.26604e-17
6659.94654 1.31182e-17
6661.86867 1.32773e-17
6663.80097 1.34427e-17
6665.72310 1.31027e-17
6667.65540 1.30128e-17
6669.57753 1.30900e-17
6671.50983 1.32748e-17
6673.43196 1.29363e-17
6675.35409 1.34543e-17
6677.28639 1.50196e-17
6679.20852 1.55135e-17
6681.14082 1.50099e-17
6683.06295 1.36305e-17
6684.99525 1.21141e-17
6686.91738 1.15948e-17
6688.83951 1.15566e-17
6690.77181 1.15437e-17
6692.69394 1.17100e-17
6694.62624 1.16770e-17
6696.54837 1.19773e-17
6698.47050 1.25327e-17
6700.40280 1.23464e-17
6702.32493 1.22945e-17
6704.25723 1.20607e-17
6706.17936 1.15284e-17
6708.11166 1.10308e-17
6710.03379 1.08340e-17
6711.95592 1.10368e-17
6713.88822 1.10142e-17
6715.81035 1.07818e-17
6717.74265 1.07788e-17
6719.66478 1.07151e-17
6721.59708 1.04727e-17
6723.51921 1.07446e-17
6725.44134 1.09155e-17
6727.37364 1.03659e-17
6729.29577 1.04790e-17
6731.22807 1.04915e-17
6733.15020 1.05276e-17
6735.08250 1.04189e-17
6737.00463 1.04762e-17
6738.92676 1.07808e-17
6740.85906 1.06016e-17
6742.78119 1.03654e-17
6744.71349 1.05296e-17
6746.63562 1.07368e-17
6748.55775 1.02568e-17
6750.49005 1.03137e-17
6752.41218 1.02230e-17
6754.34448 1.03246e-17
6756.26661 1.00460e-17
6758.19891 1.00762e-17
6760.12104 1.06295e-17
6762.04317 1.03079e-17
6763.97547 1.02043e-17
6765.89760 1.04553e-17
6767.82990 1.04825e-17
6769.75203 1.00577e-17
6771.67416 9.67309e-18
6773.60646 9.95692e-18
6775.52859 1.02747e-17
6777.46089 1.03422e-17
6779.38302 1.04622e-17
6781.31532 1.06164e-17
6783.23745 1.06820e-17
6785.15958 1.05687e-17
6787.09188 1.05119e-17
6789.01401 1.04252e-17
6790.94631 1.03872e-17
6792.86844 1.04426e-17
6794.80074 1.04607e-17
6796.72287 1.07506e-17
6798.64500 1.07139e-17
6800.57730 1.04382e-17
6802.49943 1.01221e-17
6804.43173 1.06037e-17
6806.35386 1.00788e-17
6808.28616 1.01342e-17
6810.20829 1.04574e-17
6812.13042 1.04061e-17
6814.06272 1.02955e-17
6815.98485 1.02611e-17
6817.91715 1.01465e-17
6819.83928 1.00060e-17
6821.76141 9.73576e-18
6823.69371 9.99351e-18
6825.61584 9.81505e-18
6827.54814 9.64020e-18
6829.47027 1.00998e-17
6831.40257 1.01719e-17
6833.32470 1.02207e-17
6835.24683 1.04252e-17
6837.17913 1.02030e-17
6839.10126 1.00357e-17
6841.03356 9.99374e-18
6842.95569 9.74433e-18
6844.88799 9.40507e-18
6846.81012 9.39482e-18
6848.73225 9.38457e-18
6850.66455 9.37432e-18
6852.58668 9.36408e-18
6854.51898 9.35383e-18
6856.44111 9.34359e-18
6858.36324 9.33334e-18
6860.29554 9.32310e-18
6862.21767 9.31286e-18
6864.14997 9.30261e-18
6866.07210 9.29237e-18
6868.00440 9.28213e-18
6869.92653 9.27189e-18
6871.84866 9.26165e-18
6873.78096 9.25141e-18
6875.70309 9.24117e-18
6877.63539 9.23093e-18
6879.55752 9.22070e-18
6881.48982 9.21046e-18
6883.41195 9.20022e-18
6885.33408 9.18999e-18
6887.26638 9.17975e-18
6889.18851 9.16952e-18
6891.12081 9.15929e-18
6893.04294 9.14905e-18
6894.96507 9.13882e-18
6896.89737 9.12859e-18
6898.81950 9.11836e-18
6900.75180 9.10813e-18
6902.67393 9.09790e-18
6904.60623 9.08767e-18
6906.52836 9.07744e-18
6908.45049 9.06722e-18
6910.38279 9.05699e-18
6912.30492 9.04676e-18
6914.23722 9.03654e-18
6916.15935 9.02631e-18
6918.09165 9.01609e-18
6920.01378 9.00586e-18
6921.93591 8.99564e-18
6923.86821 8.98542e-18
6925.79034 8.97519e-18
6927.72264 8.96497e-18
6929.64477 8.95475e-18
6931.57707 8.94453e-18
6933.49920 8.93431e-18
6935.42133 8.92410e-18
6937.35363 8.90567e-18
6939.27576 8.97931e-18
6941.20806 9.06768e-18
6943.13019 9.09704e-18
6945.05232 8.80110e-18
6946.98462 8.56872e-18
6948.90675 8.87216e-18
6950.83905 8.83657e-18
6952.76118 8.79184e-18
6954.69348 8.93441e-18
6956.61561 8.61614e-18
6958.53774 8.76658e-18
6960.47004 8.72723e-18
6962.39217 8.70245e-18
6964.32447 8.77768e-18
6966.24660 8.54850e-18
6968.16873 8.79273e-18
6970.10103 8.88487e-18
6972.02316 8.69976e-18
6973.95546 8.53795e-18
6975.87759 8.43391e-18
6977.80989 8.74792e-18
6979.73202 8.68443e-18
6981.65415 8.80139e-18
6983.58645 8.70818e-18
6985.50858 8.75086e-18
6987.44088 8.77415e-18
6989.36301 9.07506e-18
6991.29531 9.24579e-18
6993.21744 8.86695e-18
6995.13957 8.83525e-18
6997.07187 9.19823e-18
6998.99400 9.06950e-18
7000.92630 8.79027e-18
7002.84843 8.69481e-18
7004.78073 8.46832e-18
7006.70286 8.69277e-18
7008.62499 8.84710e-18
7010.55729 8.74947e-18
7012.47942 8.90363e-18
7014.41172 8.92507e-18
7016.33385 8.83187e-18
7018.25598 8.64272e-18
7020.18828 8.41245e-18
7022.11041 8.57909e-18
7024.04271 8.42024e-18
7025.96484 8.75038e-18
7027.89714 8.62911e-18
7029.81927 8.97831e-18
7031.74140 8.55120e-18
7033.67370 8.40713e-18
7035.59583 8.41651e-18
7037.52813 8.24328e-18
7039.45026 8.45336e-18
7041.38256 8.50009e-18
7043.30469 8.18017e-18
7045.22682 8.41236e-18
7047.15912 8.62391e-18
7049.08125 8.71916e-18
7051.01355 8.66844e-18
7052.93568 8.27594e-18
7054.85781 8.34278e-18
7056.79011 8.66457e-18
7058.71224 8.86613e-18
7060.64454 8.53696e-18
7062.56667 8.34079e-18
7064.49897 8.38995e-18
7066.42110 8.38760e-18
7068.34323 8.49615e-18
7070.27553 8.06401e-18
7072.19766 8.09706e-18
7074.12996 8.45216e-18
7076.05209 8.45003e-18
7077.98439 8.54720e-18
7079.90652 8.70194e-18
7081.82865 8.37763e-18
7083.76095 8.65342e-18
7085.68308 8.96968e-18
7087.61538 8.38163e-18
7089.53751 8.02017e-18
7091.45964 8.10523e-18
7093.39194 8.23321e-18
7095.31407 8.28368e-18
7097.24637 8.26646e-18
7099.16850 8.30021e-18
7101.10080 8.15699e-18
7103.02293 8.09933e-18
7104.94506 8.28332e-18
7106.87736 8.51684e-18
7108.79949 8.77185e-18
7110.73179 8.42944e-18
7112.65392 8.35963e-18
7114.58622 8.31309e-18
7116.50835 8.30437e-18
7118.43048 8.39229e-18
7120.36278 8.60524e-18
7122.28491 8.45441e-18
7124.21721 8.55193e-18
7126.13934 8.68141e-18
7128.06147 8.36563e-18
7129.99377 8.60561e-18
7131.91590 8.65756e-18
7133.84820 8.35669e-18
7135.77033 8.10721e-18
7137.70263 8.06126e-18
7139.62476 8.21280e-18
7141.54689 8.13498e-18
7143.47919 8.26162e-18
7145.40132 8.50169e-18
7147.33362 8.57531e-18
7149.25575 8.44791e-18
7151.18805 8.21479e-18
7153.11018 8.25498e-18
7155.03231 8.43079e-18
7156.96461 8.44686e-18
7158.88674 8.22335e-18
7160.81904 8.00375e-18
7162.74117 8.14872e-18
7164.66330 8.01492e-18
7166.59560 7.92606e-18
7168.51773 8.16332e-18
7170.45003 8.51586e-18
7172.37216 8.02392e-18
7174.30446 7.84152e-18
7176.22659 8.23128e-18
7178.14872 8.22707e-18
7180.08102 7.98994e-18
7182.00315 8.22103e-18
7183.93545 7.79426e-18
7185.85758 7.91903e-18
7187.78988 8.07039e-18
7189.71201 8.31288e-18
7191.63414 8.29116e-18
7193.56644 8.31232e-18
7195.48857 8.38428e-18
7197.42087 8.31942e-18
7199.34300 8.10599e-18
7201.27530 7.75359e-18
7203.19743 7.77871e-18
7205.11956 7.85227e-18
7207.05186 7.98849e-18
7208.97399 8.21697e-18
7210.90629 8.21660e-18
7212.82842 8.27154e-18
7214.75055 8.29821e-18
7216.68285 8.67933e-18
7218.60498 8.74511e-18
7220.53728 8.57389e-18
7222.45941 8.70353e-18
7224.39171 8.13249e-18
7226.31384 8.44349e-18
7228.23597 8.86224e-18
7230.16827 8.52260e-18
7232.09040 7.84195e-18
7234.02270 8.00010e-18
7235.94483 8.43657e-18
7237.87713 8.58480e-18
7239.79926 8.22751e-18
7241.72139 8.35707e-18
7243.65369 8.23802e-18
7245.57582 8.20914e-18
7247.50812 8.20094e-18
7249.43025 8.12484e-18
7251.35238 8.22383e-18
7253.28468 7.88616e-18
7255.20681 7.93329e-18
7257.13911 7.84359e-18
7259.06124 8.09421e-18
7260.99354 7.93237e-18
7262.91567 7.91209e-18
7264.83780 7.95044e-18
7266.77010 8.32110e-18
7268.69223 8.26289e-18
7270.62453 8.32704e-18
7272.54666 8.24712e-18
7274.47896 8.02046e-18
7276.40109 8.18061e-18
7278.32322 7.89643e-18
7280.25552 7.94919e-18
7282.17765 8.38290e-18
7284.10995 8.41546e-18
7286.03208 7.82909e-18
7287.95421 8.02457e-18
7289.88651 8.22068e-18
7291.80864 8.11009e-18
7293.74094 7.95413e-18
7295.66307 7.86385e-18
7297.59537 7.80005e-18
7299.51750 7.62847e-18
7301.43963 7.78476e-18
7303.37193 7.93546e-18
7305.29406 7.91194e-18
7307.22636 7.44277e-18
7309.14849 7.54100e-18
7311.08079 7.97255e-18
7313.00292 7.72997e-18
7314.92505 7.56404e-18
7316.85735 7.57655e-18
7318.77948 7.71117e-18
7320.71178 7.76662e-18
7322.63391 7.92199e-18
7324.55604 7.82988e-18
7326.48834 8.13483e-18
7328.41047 7.79201e-18
7330.34277 7.21980e-18
7332.26490 7.33078e-18
7334.19720 7.61206e-18
7336.11933 7.75922e-18
7338.04146 7.69130e-18
7339.97376 7.56038e-18
7341.89589 7.52834e-18
7343.82819 7.38734e-18
7345.75032 7.27141e-18
7347.68262 7.45361e-18
7349.60475 7.72845e-18
7351.52688 7.92196e-18
7353.45918 7.79737e-18
7355.38131 7.63281e-18
7357.31361 7.51739e-18
7359.23574 7.70129e-18
7361.15787 7.40316e-18
7363.09017 7.36506e-18
7365.01230 7.83527e-18
7366.94460 8.05129e-18
7368.86673 7.96542e-18
7370.79903 7.98490e-18
7372.72116 7.72942e-18
7374.64329 7.72715e-18
7376.57559 7.45223e-18
7378.49772 7.39619e-18
7380.43002 7.64785e-18
7382.35215 7.78660e-18
7384.28445 7.41546e-18
7386.20658 7.21994e-18
7388.12871 7.21746e-18
7390.06101 7.38833e-18
7391.98314 7.48028e-18
7393.91544 7.37272e-18
7395.83757 7.46786e-18
7397.75970 7.33848e-18
7399.69200 7.21413e-18
7401.61413 7.35835e-18
7403.54643 7.44892e-18
7405.46856 7.51529e-18
7407.40086 7.80933e-18
7409.32299 7.50787e-18
7411.24512 7.45556e-18
7413.17742 7.31052e-18
7415.09955 7.40596e-18
7417.03185 7.66440e-18
7418.95398 7.45066e-18
7420.88628 7.37900e-18
7422.80841 7.13702e-18
7424.73054 6.90550e-18
7426.66284 7.10988e-18
7428.58497 7.10207e-18
7430.51727 7.03214e-18
7432.43940 6.90836e-18
7434.37170 6.99957e-18
7436.29383 7.24390e-18
7438.21596 7.34062e-18
7440.14826 7.24180e-18
7442.07039 7.22856e-18
7444.00269 7.29266e-18
7445.92482 7.25179e-18
7447.84695 7.53671e-18
7449.77925 7.28358e-18
7451.70138 7.04305e-18
7453.63368 7.47280e-18
7455.55581 7.31071e-18
7457.48811 7.33418e-18
7459.41024 7.29777e-18
7461.33237 7.16089e-18
7463.26467 6.98036e-18
7465.18680 6.93688e-18
7467.11910 6.91316e-18
7469.04123 6.98973e-18
7470.96336 7.37804e-18
7472.89566 7.43036e-18
7474.81779 7.11000e-18
7476.75009 6.78904e-18
7478.67222 6.95082e-18
7480.60452 7.04752e-18
7482.52665 7.09619e-18
7484.44878 6.98819e-18
7486.38108 6.67256e-18
7488.30321 6.90972e-18
7490.23551 6.95976e-18
7492.15764 6.84867e-18
7494.08994 6.86139e-18
7496.01207 6.90957e-18
7497.93420 7.70077e-18
7499.86650 7.90127e-18
7501.78863 7.82199e-18
7503.72093 7.49206e-18
7505.64306 7.37503e-18
7507.57536 7.28268e-18
7509.49749 7.11101e-18
7511.41962 7.01696e-18
7513.35192 7.20684e-18
7515.27405 6.84658e-18
7517.20635 6.35665e-18
7519.12848 6.22514e-18
7521.05061 6.50741e-18
7522.98291 6.70705e-18
7524.90504 6.89798e-18
7526.83734 7.08939e-18
7528.75947 6.97138e-18
7530.69177 7.30314e-18
7532.61390 7.20607e-18
7534.53603 6.83227e-18
7536.46833 6.80748e-18
7538.39046 6.85942e-18
7540.32276 6.83070e-18
7542.24489 7.19991e-18
7544.17719 7.34604e-18
7546.09932 7.18675e-18
7548.02145 7.28092e-18
7549.95375 7.38604e-18
7551.87588 7.37806e-18
7553.80818 7.37008e-18
7555.73031 7.36210e-18
7557.66261 7.35412e-18
7559.58474 7.34614e-18
7561.50687 7.33816e-18
7563.43917 7.33018e-18
7565.36130 7.32221e-18
7567.29360 7.31423e-18
7569.21573 7.30625e-18
7571.13786 7.29828e-18
7573.07016 7.29030e-18
7574.99229 7.28233e-18
7576.92459 7.27435e-18
7578.84672 7.26638e-18
7580.77902 7.25841e-18
7582.70115 7.25044e-18
7584.62328 7.24247e-18
7586.55558 7.23450e-18
7588.47771 7.22652e-18
7590.41001 7.21855e-18
7592.33214 7.21058e-18
7594.26444 7.20261e-18
7596.18657 7.19465e-18
7598.10870 7.18668e-18
7600.04100 7.17871e-18
7601.96313 7.17074e-18
7603.89543 7.16278e-18
7605.81756 7.15481e-18
7607.73969 7.14685e-18
7609.67199 7.13888e-18
7611.59412 7.13092e-18
7613.52642 7.12295e-18
7615.44855 7.11499e-18
7617.38085 7.10703e-18
7619.30298 7.09907e-18
7621.22511 7.09111e-18
7623.15741 7.08315e-18
7625.07954 7.07519e-18
7627.01184 7.06723e-18
7628.93397 7.05927e-18
7630.86627 7.05131e-18
7632.78840 7.04335e-18
7634.71053 7.03539e-18
7636.64283 7.02743e-18
7638.56496 7.01948e-18
7640.49726 7.01152e-18
7642.41939 7.00357e-18
7644.34152 6.99561e-18
7646.27382 6.98766e-18
7648.19595 6.97970e-18
7650.12825 6.97175e-18
7652.05038 6.96380e-18
7653.98268 6.95585e-18
7655.90481 6.94790e-18
7657.82694 6.93994e-18
7659.75924 6.93199e-18
7661.68137 6.92404e-18
7663.61367 6.91609e-18
7665.53580 6.90815e-18
7667.46810 6.90020e-18
7669.39023 6.89225e-18
7671.31236 6.88430e-18
7673.24466 6.87636e-18
7675.16679 6.86841e-18
7677.09909 6.86047e-18
7679.02122 6.85252e-18
7680.94335 6.84458e-18
7682.87565 6.71871e-18
7684.79778 6.93828e-18
7686.73008 6.93477e-18
7688.65221 6.90814e-18
7690.58451 6.65267e-18
7692.50664 6.59582e-18
7694.42877 6.56970e-18
7696.36107 6.77734e-18
7698.28320 6.98012e-18
7700.21550 6.79537e-18
7702.13763 6.78416e-18
7704.06993 6.92545e-18
7705.99206 6.87875e-18
7707.91419 6.80857e-18
7709.84649 6.69857e-18
7711.76862 7.06269e-18
7713.70092 7.02378e-18
7715.62305 6.85964e-18
7717.54518 7.58893e-18
7719.47748 7.11156e-18
7721.39961 7.24359e-18
7723.33191 6.77488e-18
7725.25404 6.94830e-18
7727.18634 7.23980e-18
7729.10847 6.76979e-18
7731.03060 6.73869e-18
7732.96290 6.54888e-18
7734.88503 6.61674e-18
7736.81733 6.67182e-18
7738.73946 6.70405e-18
7740.67176 6.82491e-18
7742.59389 6.97183e-18
7744.51602 6.86206e-18
7746.44832 6.35268e-18
7748.37045 6.50155e-18
7750.30275 6.51811e-18
7752.22488 6.42246e-18
7754.15718 7.06942e-18
7756.07931 6.58812e-18
7758.00144 6.97988e-18
7759.93374 7.11248e-18
7761.85587 6.81990e-18
7763.78817 6.56177e-18
7765.71030 6.90635e-18
7767.63243 6.94310e-18
7769.56473 6.80715e-18
7771.48686 6.53579e-18
7773.41916 6.73122e-18
7775.34129 6.94727e-18
7777.27359 6.71121e-18
7779.19572 6.84732e-18
7781.11785 6.75762e-18
7783.05015 6.37502e-18
7784.97228 6.29920e-18
7786.90458 6.24818e-18
7788.82671 6.01578e-18
7790.74884 6.03046e-18
7792.68114 6.73521e-18
7794.60327 7.02063e-18
7796.53557 6.53220e-18
7798.45770 6.49347e-18
7800.39000 6.33928e-18
7802.31213 6.32512e-18
7804.23426 6.54632e-18
7806.16656 6.57412e-18
7808.08869 6.66151e-18
7810.02099 6.43675e-18
7811.94312 6.12564e-18
7813.87542 6.15643e-18
7815.79755 6.79875e-18
7817.71968 6.68613e-18
7819.65198 6.17321e-18
7821.57411 6.06201e-18
7823.50641 6.45635e-18
7825.42854 6.56918e-18
7827.36084 5.99942e-18
7829.28297 5.82936e-18
7831.20510 6.18641e-18
7833.13740 6.30465e-18
7835.05953 6.18415e-18
7836.99183 6.17954e-18
7838.91396 5.99564e-18
7840.83609 6.16827e-18
7842.76839 6.11407e-18
7844.69052 6.11141e-18
7846.62282 6.35344e-18
7848.54495 6.37904e-18
7850.47725 6.50406e-18
7852.39938 6.12167e-18
7854.32151 5.92116e-18
7856.25381 6.57168e-18
7858.17594 6.04989e-18
7860.10824 6.13222e-18
7862.03037 6.77702e-18
7863.96267 6.52828e-18
7865.88480 6.64122e-18
7867.80693 6.43995e-18
7869.73923 5.71098e-18
7871.66136 6.27940e-18
7873.59366 6.73426e-18
7875.51579 6.37987e-18
7877.43792 6.24482e-18
7879.37022 6.18076e-18
7881.29235 6.18574e-18
7883.22465 6.05005e-18
7885.14678 5.73518e-18
7887.07908 6.01454e-18
7889.00121 5.78635e-18
7890.92334 6.07115e-18
7892.85564 6.08386e-18
7894.77777 6.21998e-18
7896.71007 6.06141e-18
7898.63220 5.91181e-18
7900.56450 5.95735e-18
7902.48663 6.05423e-18
7904.40876 6.15700e-18
7906.34106 6.12200e-18
7908.26319 5.77786e-18
7910.19549 6.04446e-18
7912.11762 6.37070e-18
7914.03975 5.84618e-18
7915.97205 6.23289e-18
7917.89418 6.63150e-18
7919.82648 6.11500e-18
7921.74861 6.36155e-18
7923.68091 6.14725e-18
7925.60304 6.10044e-18
7927.52517 6.25240e-18
7929.45747 5.78810e-18
7931.37960 5.88114e-18
7933.31190 6.19788e-18
7935.23403 6.35258e-18
7937.16633 5.96900e-18
7939.08846 5.88967e-18
7941.01059 5.88516e-18
7942.94289 5.88298e-18
7944.86502 5.96762e-18
7946.79732 5.61895e-18
7948.71945 5.84218e-18
7950.65175 6.03503e-18
7952.57388 5.77858e-18
7954.49601 6.24608e-18
7956.42831 6.35054e-18
7958.35044 6.08696e-18
7960.28274 6.04726e-18
7962.20487 6.12855e-18
7964.12700 5.76346e-18
7966.05930 6.31675e-18
7967.98143 6.36995e-18
7969.91373 6.17644e-18
7971.83586 5.93764e-18
7973.76816 5.95655e-18
7975.69029 6.03942e-18
7977.61242 6.07133e-18
7979.54472 6.13409e-18
7981.46685 5.81941e-18
7983.39915 5.74790e-18
7985.32128 5.71281e-18
7987.24341 5.65969e-18
7989.17571 5.52566e-18
7991.09784 5.70026e-18
7993.03014 6.13892e-18
7994.95227 6.09009e-18
7996.88457 5.77115e-18
7998.80670 5.67653e-18
8000.72883 6.20642e-18
8002.66113 6.12606e-18
8004.58326 6.00448e-18
8006.51556 5.71440e-18
8008.43769 5.63565e-18
8010.36999 5.60367e-18
8012.29212 5.55653e-18
8014.21425 5.70366e-18
8016.14655 5.78886e-18
8018.06868 5.83579e-18
8020.00098 5.62307e-18
8021.92311 5.44411e-18
8023.85541 5.63035e-18
8025.77754 6.11028e-18
8027.69967 6.06953e-18
8029.63197 5.85027e-18
8031.55410 5.75095e-18
8033.48640 5.63931e-18
8035.40853 5.65196e-18
8037.33066 5.96595e-18
8039.26296 6.36099e-18
8041.18509 5.89393e-18
8043.11739 5.89411e-18
8045.03952 5.98972e-18
8046.97182 5.77243e-18
8048.89395 5.45804e-18
8050.81608 5.72171e-18
8052.74838 5.59966e-18
8054.67051 5.93384e-18
8056.60281 5.51804e-18
8058.52494 5.42776e-18
8060.45724 5.74547e-18
8062.37937 5.78795e-18
8064.30150 5.40243e-18
8066.23380 5.37244e-18
8068.15593 5.56122e-18
8070.08823 5.88497e-18
8072.01036 5.69764e-18
8073.93249 5.42508e-18
8075.86479 5.75348e-18
8077.78692 5.75967e-18
8079.71922 5.88286e-18
8081.64135 5.92629e-18
8083.57365 5.92526e-18
8085.49578 5.89881e-18
8087.41791 5.63087e-18
8089.35021 5.70484e-18
8091.27234 5.50514e-18
8093.20464 5.29286e-18
8095.12677 5.72126e-18
8097.05907 5.30558e-18
8098.98120 5.43646e-18
8100.90333 5.77999e-18
8102.83563 5.37715e-18
8104.75776 5.32989e-18
8106.69006 5.80274e-18
8108.61219 5.74401e-18
8110.53432 5.66321e-18
8112.46662 5.89889e-18
8114.38875 5.85004e-18
8116.32105 5.70676e-18
8118.24318 5.56507e-18
8120.17548 5.62797e-18
8122.09761 6.16415e-18
8124.01974 6.15388e-18
8125.95204 5.67330e-18
8127.87417 5.27587e-18
8129.80647 5.41835e-18
8131.72860 5.11261e-18
8133.66090 5.02626e-18
8135.58303 5.24119e-18
8137.50516 5.40288e-18
8139.43746 5.46348e-18
8141.35959 5.64235e-18
8143.29189 5.54414e-18
8145.21402 5.38616e-18
8147.13615 5.46471e-18
8149.06845 5.58133e-18
8150.99058 5.50019e-18
8152.92288 5.49692e-18
8154.84501 5.87433e-18
8156.77731 5.85389e-18
8158.69944 5.35014e-18
8160.62157 5.34727e-18
8162.55387 5.42091e-18
8164.47600 5.42837e-18
8166.40830 5.33531e-18
8168.33043 5.28609e-18
8170.26273 5.61475e-18
8172.18486 5.35727e-18
8174.10699 5.02708e-18
8176.03929 5.29656e-18
8177.96142 4.94601e-18
8179.89372 4.98568e-18
8181.81585 5.29140e-18
8183.73798 5.16222e-18
8185.67028 5.51500e-18
8187.59241 5.48632e-18
8189.52471 5.36461e-18
8191.44684 5.84342e-18
8193.37914 5.83311e-18
8195.30127 5.48120e-18
8197.22340 5.47456e-18
8199.15570 5.37683e-18
8201.07783 5.25537e-18
8203.01013 5.30632e-18
8204.93226 5.42043e-18
8206.86456 5.25988e-18
8208.78669 5.34741e-18
8210.70882 5.22077e-18
8212.64112 5.30602e-18
8214.56325 5.27017e-18
8216.49555 4.86257e-18
8218.41768 5.14962e-18
8220.34998 4.90324e-18
8222.27211 4.93860e-18
8224.19424 5.10888e-18
8226.12654 5.03448e-18
8228.04867 4.99044e-18
8229.98097 5.17799e-18
8231.90310 5.37988e-18
8233.83540 5.39297e-18
8235.75753 5.22771e-18
8237.67966 5.24601e-18
8239.61196 5.56523e-18
8241.53409 5.72429e-18
8243.46639 5.72480e-18
8245.38852 5.13195e-18
8247.31065 5.39259e-18
8249.24295 5.60484e-18
8251.16508 5.42279e-18
8253.09738 5.68409e-18
8255.01951 5.26856e-18
8256.94164 5.10850e-18
8258.87394 5.25684e-18
8260.79607 5.19983e-18
8262.72837 5.23125e-18
8264.65050 5.51799e-18
8266.58280 5.10589e-18
8268.50493 4.80745e-18
8270.43723 5.07837e-18
8272.35936 5.18145e-18
8274.28149 4.86741e-18
8276.21379 4.87019e-18
8278.13592 5.14063e-18
8280.06822 5.10389e-18
8281.99035 5.11144e-18
8283.91248 4.83892e-18
8285.84478 5.23333e-18
8287.76691 5.55472e-18
8289.69921 5.27634e-18
8291.62134 5.49269e-18
8293.55364 5.76908e-18
8295.47577 5.06279e-18
8297.39790 5.47669e-18
8299.33020 5.55112e-18
8301.25233 5.20832e-18
8303.18463 5.17003e-18
8305.10676 5.23758e-18
8307.02889 4.76425e-18
8308.96119 4.74307e-18
8310.88332 5.16897e-18
8312.81562 5.31177e-18
8314.73775 5.21391e-18
8316.67005 5.09435e-18
8318.59218 5.24084e-18
8320.51431 5.37771e-18
8322.44661 5.39504e-18
8324.36874 5.62936e-18
8326.30104 5.49874e-18
8328.22317 5.24574e-18
8330.15547 4.92068e-18
8332.07760 5.25827e-18
8333.99973 5.44848e-18
8335.93203 5.22881e-18
8337.85416 4.94419e-18
8339.78646 5.22785e-18
8341.70859 4.86126e-18
8343.64089 5.05494e-18
8345.56302 4.69973e-18
8347.48515 4.69413e-18
8349.41745 5.51980e-18
8351.33958 5.53335e-18
8353.27188 5.33042e-18
8355.19401 5.81818e-18
8357.11614 5.78501e-18
8359.04844 5.31520e-18
8360.97057 5.41213e-18
8362.90287 5.60473e-18
8364.82500 5.72536e-18
8366.75730 5.84293e-18
8368.67943 5.48165e-18
8370.60156 5.44950e-18
8372.53386 5.96057e-18
8374.45599 5.98768e-18
8376.38829 5.78174e-18
8378.31042 5.40893e-18
8380.24272 5.63441e-18
8382.16485 5.55198e-18
8384.08698 5.55551e-18
8386.01928 5.45012e-18
8387.94141 4.88601e-18
8389.87371 4.81125e-18
8391.79584 5.27970e-18
8393.72814 5.21568e-18
8395.65027 4.79487e-18
8397.57240 4.87899e-18
8399.50470 5.47553e-18
8401.42683 6.08100e-18
8403.35913 5.70600e-18
8405.28126 5.43956e-18
8407.20339 5.54729e-18
8409.13569 5.18951e-18
8411.05782 5.65669e-18
8412.99012 5.51604e-18
8414.91225 5.21760e-18
8416.83438 4.84650e-18
8418.76668 5.18992e-18
8420.68881 5.26312e-18
8422.62111 5.52201e-18
8424.54324 5.33589e-18
8426.47554 4.92899e-18
8428.39767 4.93234e-18
8430.31980 4.42604e-18
8432.25210 4.46195e-18
8434.17423 5.18957e-18
8436.10653 5.16023e-18
8438.02866 4.85717e-18
8439.96096 4.84562e-18
8441.88309 5.29901e-18
8443.81539 5.21852e-18
8445.73752 5.18346e-18
8447.65965 5.08909e-18
8449.59195 4.83662e-18
8451.51408 5.29006e-18
8453.44638 4.90319e-18
8455.36851 5.20035e-18
8457.29064 4.98371e-18
8459.22294 5.36290e-18
8461.14507 5.68036e-18
8463.07737 5.13835e-18
8464.99950 5.60268e-18
8466.92163 5.76792e-18
8468.85393 5.19259e-18
8470.77606 5.01002e-18
8472.70836 5.13825e-18
8474.63049 5.16759e-18
8476.56279 4.91477e-18
8478.48492 4.97706e-18
8480.40705 5.18313e-18
8482.33935 5.22469e-18
8484.26148 4.82213e-18
8486.19378 4.93044e-18
8488.11591 4.72246e-18
8490.03804 5.21455e-18
8491.97034 5.10703e-18
8493.89247 5.23713e-18
8495.82477 4.92708e-18
8497.74690 5.11968e-18
8499.67920 5.37599e-18
8501.60133 4.77465e-18
8503.52346 4.49519e-18
8505.45576 4.76394e-18
8507.37789 5.14447e-18
8509.31019 5.31352e-18
8511.23232 5.34908e-18
8513.16462 5.12591e-18
8515.08675 4.85296e-18
8517.00888 4.89000e-18
8518.94118 4.68204e-18
8520.86331 5.11602e-18
8522.79561 5.13727e-18
8524.71774 4.57342e-18
8526.65004 4.83872e-18
8528.57217 4.66935e-18
8530.49430 4.99856e-18
8532.42660 5.15712e-18
8534.34873 4.80970e-18
8536.28103 4.75291e-18
8538.20316 4.59081e-18
8540.13546 4.92883e-18
8542.05759 4.69288e-18
8543.97972 4.71206e-18
8545.91202 4.73328e-18
8547.83415 4.42317e-18
8549.76645 4.80504e-18
8551.68858 4.94213e-18
8553.61071 4.69225e-18
8555.54301 4.82132e-18
8557.46514 4.71842e-18
8559.39744 4.84490e-18
8561.31957 5.15234e-18
8563.25187 5.04028e-18
8565.17400 4.40303e-18
8567.09613 4.83864e-18
8569.02843 4.98992e-18
8570.95056 5.13255e-18
8572.88286 4.90282e-18
8574.80499 4.62795e-18
8576.72712 4.95014e-18
8578.65942 4.71370e-18
8580.58155 4.71909e-18
8582.51385 4.77344e-18
8584.43598 4.73473e-18
8586.36828 4.87154e-18
8588.29041 4.87989e-18
8590.21254 4.78339e-18
8592.14484 5.03306e-18
8594.06697 5.14262e-18
8595.99927 4.92756e-18
8597.92140 5.04096e-18
8599.85370 4.86983e-18
8601.77583 4.78333e-18
8603.69796 4.99647e-18
8605.63026 5.22453e-18
8607.55239 5.39163e-18
8609.48469 5.09664e-18
8611.40682 4.91469e-18
8613.33912 4.94664e-18
8615.26125 4.70685e-18
8617.18338 4.54923e-18
8619.11568 4.70877e-18
8621.03781 4.36012e-18
8622.97011 4.02131e-18
8624.89224 4.92717e-18
8626.81437 5.47709e-18
8628.74667 5.16262e-18
8630.66880 4.77238e-18
8632.60110 4.21449e-18
8634.52323 4.68769e-18
8636.45553 5.20903e-18
8638.37766 4.65702e-18
8640.29979 5.02271e-18
8642.23209 4.77200e-18
8644.15422 4.63162e-18
8646.08652 4.86875e-18
8648.00865 4.72459e-18
8649.93078 5.00586e-18
8651.86308 4.56071e-18
8653.78521 4.77048e-18
8655.71751 4.84691e-18
8657.63964 4.89708e-18
8659.57194 4.71471e-18
8661.49407 4.36529e-18
8663.41620 4.49647e-18
8665.34850 4.83232e-18
8667.27063 4.60678e-18
8669.20293 4.34632e-18
8671.12506 4.53852e-18
8673.05736 4.58533e-18
8674.97949 4.70639e-18
8676.90162 4.84335e-18
8678.83392 5.12953e-18
8680.75605 5.14048e-18
8682.68835 4.74461e-18
8684.61048 4.79411e-18
8686.54278 5.11759e-18
8688.46491 4.41057e-18
8690.38704 4.31196e-18
8692.31934 4.69247e-18
8694.24147 4.43781e-18
8696.17377 4.43140e-18
8698.09590 4.59151e-18
8700.01803 4.42057e-18
8701.95033 4.22110e-18
8703.87246 4.42378e-18
8705.80476 4.40803e-18
8707.72689 4.36557e-18
8709.65919 4.59355e-18
8711.58132 4.38181e-18
8713.50345 4.31850e-18
8715.43575 4.64267e-18
8717.35788 4.45955e-18
8719.29018 4.29307e-18
8721.21231 4.14744e-18
8723.14461 4.29602e-18
8725.06674 4.97064e-18
8726.98887 4.28488e-18
8728.92117 4.47699e-18
8730.84330 4.43328e-18
8732.77560 4.42995e-18
8734.69773 4.97241e-18
8736.61986 4.60657e-18
8738.55216 4.50790e-18
8740.47429 4.60437e-18
8742.40659 4.70822e-18
8744.32872 4.95515e-18
8746.26102 4.62599e-18
8748.18315 4.38386e-18
8750.10528 4.40070e-18
8752.03758 4.29848e-18
8753.95971 4.73402e-18
8755.89201 4.61827e-18
8757.81414 4.29560e-18
8759.74644 4.32906e-18
8761.66857 4.42220e-18
8763.59070 4.13825e-18
8765.52300 4.78271e-18
8767.44513 4.57260e-18
8769.37743 4.21038e-18
8771.29956 4.39719e-18
8773.23186 4.00353e-18
8775.15399 4.26678e-18
8777.07612 4.41269e-18
8779.00842 4.07770e-18
8780.93055 4.23007e-18
8782.86285 4.40698e-18
8784.78498 4.26940e-18
8786.70711 4.15154e-18
8788.63941 4.07294e-18
8790.56154 4.27587e-18
8792.49384 4.59745e-18
8794.41597 4.48193e-18
8796.34827 4.41847e-18
8798.27040 4.56243e-18
8800.19253 4.47712e-18
8802.12483 4.90448e-18
8804.04696 4.48494e-18
8805.97926 4.06730e-18
8807.90139 3.67462e-18
8809.82352 4.01175e-18
8811.75582 4.51760e-18
8813.67795 4.24490e-18
8815.61025 4.12791e-18
8817.53238 4.23390e-18
8819.46468 3.99506e-18
8821.38681 4.41089e-18
8823.31911 5.00864e-18
8825.24124 4.58064e-18
8827.16337 4.04546e-18
8829.09567 4.19873e-18
8831.01780 4.48387e-18
8832.95010 4.24792e-18
8834.87223 4.33486e-18
8836.79436 4.21081e-18
8838.72666 3.96118e-18
8840.64879 4.11112e-18
8842.58109 3.91611e-18
8844.50322 4.04612e-18
8846.43552 4.53738e-18
8848.35765 4.49409e-18
8850.27978 4.34214e-18
8852.21208 4.65891e-18
8854.13421 4.37712e-18
8856.06651 4.45809e-18
8857.98864 4.48468e-18
8859.91077 4.34668e-18
8861.84307 4.67377e-18
8863.76520 4.49742e-18
8865.69750 4.17313e-18
8867.61963 4.31346e-18
8869.55193 4.16686e-18
8871.47406 3.95885e-18
8873.39619 3.99780e-18
8875.32849 4.18721e-18
8877.25062 3.81566e-18
8879.18292 4.08460e-18
8881.10505 3.91288e-18
8883.02718 3.51996e-18
8884.95948 3.59313e-18
8886.88161 4.26733e-18
8888.81391 3.87974e-18
8890.73604 3.95219e-18
8892.66834 4.05666e-18
8894.59047 3.95507e-18
8896.52277 4.33433e-18
8898.44490 4.29710e-18
8900.36703 4.24459e-18
8902.29933 4.28489e-18
8904.22146 3.74997e-18
8906.15376 3.62699e-18
8908.07589 3.93039e-18
8909.99802 3.86055e-18
8911.93032 3.46516e-18
8913.85245 4.53394e-18
8915.78475 4.44474e-18
8917.70688 4.54181e-18
8919.63918 4.96828e-18
8921.56131 4.15821e-18
8923.48344 3.62392e-18
8925.41574 3.58945e-18
8927.33787 3.76055e-18
8929.27017 4.04653e-18
8931.19230 3.80750e-18
8933.11443 4.09949e-18
8935.04673 4.33482e-18
8936.96886 3.95290e-18
8938.90116 3.90723e-18
8940.82329 3.77416e-18
8942.75559 3.63031e-18
8944.67772 4.02796e-18
8946.59985 4.28566e-18
8948.53215 4.33436e-18
8950.45428 4.06217e-18
8952.38658 3.90193e-18
8954.30871 3.42688e-18
8956.24101 3.70936e-18
8958.16314 3.56134e-18
8960.08527 3.77787e-18
8962.01757 3.82161e-18
8963.93970 3.99691e-18
8965.87200 3.48212e-18
8967.79413 3.76477e-18
8969.72643 3.92389e-18
8971.64856 3.59356e-18
8973.57069 3.42420e-18
8975.50299 3.37818e-18
8977.42512 3.54249e-18
8979.35742 3.63401e-18
8981.27955 3.88800e-18
8983.20168 4.49189e-18
8985.13398 4.38773e-18
8987.05611 4.09011e-18
8988.98841 3.97623e-18
8990.91054 3.96546e-18
8992.84284 4.38647e-18
8994.76497 3.96163e-18
8996.68710 2.96528e-18
8998.61940 3.72323e-18
9000.54153 3.75875e-18
9002.47383 3.53024e-18
9004.39596 3.81800e-18
9006.32826 4.06213e-18
9008.25039 3.71058e-18
9010.17252 3.37084e-18
9012.10482 3.36547e-18
9014.02695 3.51839e-18
9015.95925 3.53674e-18
9017.88138 3.45428e-18
9019.80351 3.60463e-18
9021.73581 3.55690e-18
9023.65794 3.35449e-18
9025.59024 3.41200e-18
9027.51237 3.75850e-18
9029.44467 3.77888e-18
9031.36680 3.94597e-18
9033.28893 3.89571e-18
9035.22123 4.09320e-18
9037.14336 3.61725e-18
9039.07566 3.48505e-18
9040.99779 3.88669e-18
9042.93009 4.26644e-18
9044.85222 3.72698e-18
9046.77435 3.45543e-18
9048.70665 3.98491e-18
9050.62878 3.68838e-18
9052.56108 3.58104e-18
9054.48321 4.31597e-18
9056.41551 3.77664e-18
9058.33764 3.06880e-18
9060.25977 3.78501e-18
9062.19207 3.90632e-18
9064.11420 3.65175e-18
9066.04650 3.70326e-18
9067.96863 3.86635e-18
9069.89076 3.72500e-18
9071.82306 3.15217e-18
9073.74519 3.22279e-18
9075.67749 3.40715e-18
9077.59962 3.31764e-18
9079.52175 3.11122e-18
9081.45405 4.40791e-18
9083.37618 4.33141e-18
9085.30848 3.76200e-18
9087.23061 3.70682e-18
9089.16291 3.80724e-18
9091.08504 3.67432e-18
9093.00717 3.47809e-18
9094.93947 3.55367e-18
9096.86160 3.34294e-18
9098.79390 3.36729e-18
9100.71603 3.51448e-18
9102.64833 3.50343e-18
9104.57046 3.21158e-18
9106.49259 3.51442e-18
9108.42489 3.30837e-18
9110.34702 3.36979e-18
9112.27932 3.76800e-18
9114.20145 3.57477e-18
9116.13375 3.45420e-18
9118.05588 2.94746e-18
9119.97801 3.06428e-18
9121.91031 3.45004e-18
9123.83244 3.56707e-18
9125.76474 3.31714e-18
9127.68687 3.17000e-18
9129.60900 3.39677e-18
9131.54130 3.23268e-18
9133.46343 2.94320e-18
9135.39573 3.10320e-18
9137.31786 3.37315e-18
9139.25016 3.74073e-18
9141.17229 3.12841e-18
9143.09442 3.23867e-18
9145.02672 3.46584e-18
9146.94885 3.66244e-18
9148.88115 3.56707e-18
9150.80328 3.70631e-18
9152.73558 3.76669e-18
9154.65771 3.99268e-18
9156.57984 3.78057e-18
9158.51214 3.52448e-18
9160.43427 3.61446e-18
9162.36657 3.41519e-18
9164.28870 3.39622e-18
9166.22100 3.48657e-18
9168.14313 3.22361e-18
9170.06526 3.24030e-18
9171.99756 3.31815e-18
9173.91969 3.24650e-18
9175.85199 3.61519e-18
9177.77412 3.64249e-18
9179.69625 3.17037e-18
9181.62855 3.20141e-18
9183.55068 3.55920e-18
9185.48298 3.54728e-18
9187.40511 3.82096e-18
9189.33741 3.69945e-18
9191.25954 3.31791e-18
9193.18167 3.53284e-18
9195.11397 3.75906e-18
9197.03610 3.69302e-18
9198.96840 4.07977e-18
9200.89053 3.62713e-18
9202.82283 3.16651e-18
9204.74496 3.57308e-18
9206.66709 3.70953e-18
9208.59939 3.70974e-18
9210.52152 3.80941e-18
9212.45382 3.68544e-18
9214.37595 3.31471e-18
9216.30825 3.42513e-18
9218.23038 3.56939e-18
9220.15251 3.20172e-18
9222.08481 3.46030e-18
9224.00694 3.62722e-18
9225.93924 3.58303e-18
9227.86137 3.66805e-18
9229.78350 3.58307e-18
9231.71580 3.69485e-18
9233.63793 3.78944e-18
9235.57023 3.52236e-18
9237.49236 3.62815e-18
9239.41449 4.01969e-18
9241.34679 4.19641e-18
9243.26892 4.08980e-18
9245.20122 3.81571e-18
9247.12335 3.89752e-18
9249.05565 3.83331e-18
9250.97778 3.48213e-18
9252.89991 3.73514e-18
9254.83221 3.94982e-18
9256.75434 3.84414e-18
9258.68664 3.73844e-18
9259.41895 3.73844e-18
9261.11654 3.83931e-18
9262.81413 3.29967e-18
9264.51172 2.70437e-18
9266.20931 2.45815e-18
9267.91694 2.57248e-18
9269.60448 2.88921e-18
9271.31212 2.93248e-18
9272.99966 2.49868e-18
9274.70729 2.13659e-18
9276.40488 2.26358e-18
9278.10247 2.65504e-18
9279.80006 2.98698e-18
9281.49764 2.99835e-18
9283.19523 2.60906e-18
9284.89282 2.31205e-18
9286.59041 2.58225e-18
9288.28800 3.06433e-18
9289.98559 3.22688e-18
9291.68317 3.31660e-18
9293.38076 3.78178e-18
9295.07835 4.16489e-18
9296.77594 3.73550e-18
9298.47353 3.11113e-18
9300.17111 3.55664e-18
9301.86870 4.66027e-18
9303.56629 4.88667e-18
9305.26388 4.12568e-18
9306.96147 3.44565e-18
9308.65905 3.24627e-18
9310.35664 3.32015e-18
9312.05423 3.38248e-18
9313.75182 2.97846e-18
9315.44941 2.39593e-18
9317.14700 2.94979e-18
9318.84458 4.79503e-18
9320.54217 6.36067e-18
9322.23976 6.53511e-18
9323.93735 5.05190e-18
9325.63494 2.35749e-18
9327.33252 1.68362e-19
9329.03011 -5.17441e-19
9330.72770 -6.84128e-19
9332.42529 -1.15096e-18
9334.12288 -1.56509e-18
9335.82046 -1.46244e-18
9337.51805 -5.73484e-19
9339.21564 1.12138e-18
9340.91323 3.07131e-18
9342.61082 4.62553e-18
9344.30840 5.46852e-18
9346.00599 5.51351e-18
9347.70358 4.84011e-18
9349.41121 3.71592e-18
9351.09876 2.74335e-18
9352.80639 2.52867e-18
9354.49393 2.98873e-18
9356.20157 3.58947e-18
9357.89915 3.89080e-18
9359.59674 3.58561e-18
9361.29433 2.82554e-18
9362.99192 2.15816e-18
9364.68951 1.68388e-18
9366.38709 1.08209e-18
9368.08468 4.50232e-19
9369.78227 2.84023e-19
9371.47986 8.14825e-19
9373.17745 1.99850e-18
9374.87504 3.29562e-18
9376.57262 3.44179e-18
9378.27021 2.25149e-18
9379.96780 1.33072e-18
9381.66539 1.61498e-18
9383.36298 2.62448e-18
9385.06056 3.73520e-18
9386.75815 4.23114e-18
9388.45574 3.87737e-18
9390.15333 3.71753e-18
9391.85092 4.44720e-18
9393.54850 5.17529e-18
9395.24609 5.09603e-18
9396.94368 4.67713e-18
9398.64127 4.53433e-18
9400.33886 4.71376e-18
9402.03644 5.00574e-18
9403.73403 4.88165e-18
9405.43162 3.91508e-18
9407.12921 2.57411e-18
9408.82680 1.69995e-18
9410.52439 1.78423e-18
9412.22197 2.93749e-18
9413.91956 4.53522e-18
9415.61715 5.51517e-18
9417.31474 5.39650e-18
9419.01233 4.26753e-18
9420.70991 2.80418e-18
9422.40750 2.16711e-18
9424.10509 2.36905e-18
9425.80268 2.20954e-18
9427.50027 1.54561e-18
9429.19785 1.47622e-18
9430.89544 2.18584e-18
9432.59303 2.64905e-18
9434.29062 2.55745e-18
9435.98821 2.72148e-18
9437.69584 3.49166e-18
9439.39343 4.39901e-18
9441.09102 4.97180e-18
9442.78860 4.78095e-18
9444.48619 3.80762e-18
9446.18378 2.91452e-18
9447.88137 2.75241e-18
9449.57896 3.11834e-18
9451.27654 3.61504e-18
9452.97413 3.83094e-18
9454.67172 3.52453e-18
9456.36931 2.93875e-18
9458.06690 2.48005e-18
9459.76449 2.58727e-18
9461.46207 3.47625e-18
9463.15966 4.51281e-18
9464.85725 4.86090e-18
9466.55484 4.59509e-18
9468.25243 4.24207e-18
9469.95001 3.97504e-18
9471.64760 3.74886e-18
9473.34519 3.42803e-18
9475.04278 2.82375e-18
9476.74037 1.99230e-18
9478.43795 1.21248e-18
9480.13554 1.03901e-18
9481.83313 2.22502e-18
9483.53072 4.29968e-18
9485.22831 5.46364e-18
9486.92589 5.16627e-18
9488.62348 4.47442e-18
9490.32107 4.01410e-18
9492.01866 3.74612e-18
9493.71625 3.57277e-18
9495.41384 3.22862e-18
9497.11142 2.72169e-18
9498.80901 2.67971e-18
9500.50660 3.34231e-18
9502.20419 3.99646e-18
9503.90178 4.14620e-18
9505.59936 4.16953e-18
9507.29695 4.35316e-18
9508.99454 4.29294e-18
9510.69213 3.66858e-18
9512.38972 2.83451e-18
9514.08730 2.21013e-18
9515.78489 1.67639e-18
9517.48248 1.09743e-18
9519.19011 1.11797e-18
9520.88770 2.32743e-18
9522.58529 3.80279e-18
9524.28288 4.18063e-18
9525.98047 3.61163e-18
9527.67805 3.08327e-18
9529.37564 3.07457e-18
9531.07323 3.67341e-18
9532.77082 4.52895e-18
9534.46841 4.93082e-18
9536.16599 4.70659e-18
9537.86358 4.20883e-18
9539.56117 3.74116e-18
9541.25876 3.56145e-18
9542.95635 3.64028e-18
9544.65394 3.57879e-18
9546.35152 3.18107e-18
9548.04911 2.54753e-18
9549.74670 1.86533e-18
9551.44429 1.40532e-18
9553.14188 1.42852e-18
9554.83946 2.25669e-18
9556.53705 3.65383e-18
9558.23464 4.19998e-18
9559.93223 3.28637e-18
9561.62982 2.48700e-18
9563.32740 2.92746e-18
9565.02499 3.70719e-18
9566.72258 3.86637e-18
9568.42017 3.41140e-18
9570.11776 2.66919e-18
9571.81534 2.16957e-18
9573.51293 2.37866e-18
9575.21052 3.29822e-18
9576.90811 4.63978e-18
9578.60570 5.91238e-18
9580.30329 6.60537e-18
9582.00087 6.53399e-18
9583.69846 5.78971e-18
9585.39605 4.64661e-18
9587.09364 3.50049e-18
9588.79123 2.70825e-18
9590.48881 2.51594e-18
9592.18640 2.72589e-18
9593.88399 2.77569e-18
9595.58158 2.74980e-18
9597.27917 3.35612e-18
9598.97675 4.42639e-18
9600.67434 4.84321e-18
9602.38198 4.36547e-18
9604.07956 3.86477e-18
9605.76711 3.77554e-18
9607.47474 3.87566e-18
9609.17233 3.94277e-18
9610.86992 3.75979e-18
9612.56750 3.27705e-18
9614.26509 2.76644e-18
9615.96268 2.48581e-18
9617.66027 2.60709e-18
9619.35786 3.09915e-18
9621.05544 3.53190e-18
9622.75303 3.53027e-18
9624.45062 2.99693e-18
9626.14821 2.10104e-18
9627.84580 1.54062e-18
9629.54339 1.90249e-18
9631.24097 2.95519e-18
9632.93856 4.15014e-18
9634.63615 5.00936e-18
9636.33374 5.19865e-18
9638.03133 4.79740e-18
9639.72891 4.14179e-18
9641.42650 3.54599e-18
9643.12409 3.25567e-18
9644.82168 3.22568e-18
9646.51927 3.20689e-18
9648.21685 3.19816e-18
9649.91444 3.37756e-18
9651.61203 3.86399e-18
9653.30962 4.72662e-18
9655.00721 5.39858e-18
9656.70479 4.67448e-18
9658.40238 2.87193e-18
9660.09997 2.11779e-18
9661.79756 3.28367e-18
9663.49515 5.50442e-18
9665.19274 7.70078e-18
9666.89032 8.52938e-18
9668.58791 7.57204e-18
9670.28550 6.12400e-18
9671.98309 5.21473e-18
9673.68068 4.95478e-18
9675.37826 5.14647e-18
9677.07585 5.19645e-18
9678.77344 4.62507e-18
9680.47103 3.39671e-18
9682.16862 1.79745e-18
9683.86620 6.78861e-19
9685.56379 6.87823e-19
9687.26138 1.43384e-18
9688.96901 2.20645e-18
9690.66660 2.45449e-18
9692.36419 1.91449e-18
9694.06178 1.19616e-18
9695.75937 1.14308e-18
9697.45695 1.57451e-18
9699.15454 1.79667e-18
9700.85213 1.61737e-18
9702.54972 1.18540e-18
9704.24731 8.25934e-19
9705.94489 9.77019e-19
9707.64248 1.56558e-18
9709.34007 2.06665e-18
9711.03766 2.23630e-18
9712.73525 2.11574e-18
9714.43283 1.90866e-18
9716.13042 2.02059e-18
9717.82801 2.48267e-18
9719.52560 2.82538e-18
9721.22319 2.76811e-18
9722.92078 2.30572e-18
9724.61836 1.67020e-18
9726.31595 1.49047e-18
9728.01354 2.01610e-18
9729.71113 2.72304e-18
9731.40872 3.16365e-18
9733.10630 3.23434e-18
9734.80389 3.01340e-18
9736.50148 2.89934e-18
9738.19907 3.16009e-18
9739.89666 3.57059e-18
9741.59424 3.79695e-18
9743.29183 3.46347e-18
9744.98942 2.45785e-18
9746.68701 1.63998e-18
9748.38460 1.85052e-18
9750.08219 2.48455e-18
9751.77977 2.51102e-18
9753.47736 1.81867e-18
9755.17495 8.48316e-19
9756.87254 4.22949e-19
9758.57013 1.38147e-18
9760.26771 3.10389e-18
9761.96530 4.01606e-18
9763.66289 3.59361e-18
9765.36048 2.24519e-18
9767.05807 8.59460e-19
9768.75565 7.60154e-19
9770.45324 1.96694e-18
9772.16088 3.03145e-18
9773.85846 3.39789e-18
9775.55605 3.63192e-18
9777.25364 4.06204e-18
9778.95123 4.72039e-18
9780.64882 5.48985e-18
9782.34640 6.00294e-18
9784.04399 5.97590e-18
9785.74158 5.28059e-18
9787.43917 4.06927e-18
9789.13676 3.01926e-18
9790.83434 2.54333e-18
9792.53193 2.28558e-18
9794.22952 1.88702e-18
9795.92711 1.30216e-18
9797.62470 6.58361e-19
9799.32228 4.73513e-19
9801.01987 1.06943e-18
9802.71746 1.72655e-18
9804.41505 1.69253e-18
9806.11264 1.42443e-18
9807.81023 1.66951e-18
9809.50781 2.36500e-18
9811.20540 3.05281e-18
9812.90299 3.19645e-18
9814.60058 2.37575e-18
9816.29817 1.15367e-18
9817.99575 6.55622e-19
9819.69334 9.88721e-19
9821.39093 1.47498e-18
9823.08852 1.89764e-18
9824.78611 2.40451e-18
9826.48369 2.81437e-18
9828.18128 2.68955e-18
9829.87887 2.18431e-18
9831.57646 2.09868e-18
9833.27405 2.73823e-18
9834.97163 3.76238e-18
9836.66922 4.70412e-18
9838.36681 4.92137e-18
9840.06440 4.25587e-18
9841.76199 3.40266e-18
9843.45958 2.87981e-18
9845.15716 2.69514e-18
9846.85475 2.74598e-18
9848.55234 2.81424e-18
9850.24993 2.74450e-18
9851.94752 2.66037e-18
9853.65515 2.64519e-18
9855.34269 2.45276e-18
9857.05033 1.92544e-18
9858.74791 1.45614e-18
9860.44550 1.41918e-18
9862.14309 1.42226e-18
9863.84068 1.03325e-18
9865.53827 9.48103e-19
9867.23585 2.01266e-18
9868.93344 3.34296e-18
9870.63103 3.50628e-18
9872.32862 3.28847e-18
9874.02621 4.49312e-18
9875.72379 6.55030e-18
9877.42138 7.36212e-18
9879.11897 5.99942e-18
9880.81656 2.59943e-18
9882.51415 -1.22749e-18
9884.21173 -2.52756e-18
9885.90932 -9.56825e-19
9887.60691 9.01087e-19
9889.30450 1.57040e-18
9891.00209 9.68685e-19
9892.69968 -2.31612e-19
9894.39726 -1.65828e-19
9896.09485 1.65468e-18
9897.79244 3.35064e-18
9899.49003 3.60656e-18
9901.18762 2.35397e-18
9902.88520 1.58851e-19
9904.58279 -1.33284e-18
9906.28038 -1.14601e-18
9907.97797 -2.70507e-19
9909.67556 2.90405e-19
9911.37314 5.35184e-19
9913.07073 6.91964e-19
9914.76832 1.01292e-18
9916.46591 1.66779e-18
9918.16350 2.48610e-18
9919.86108 3.17068e-18
9921.55867 3.45202e-18
9923.25626 3.18307e-18
9924.95385 2.56762e-18
9926.65144 1.98260e-18
9928.34903 1.76124e-18
9930.04661 2.08963e-18
9931.74420 2.49949e-18
9933.44179 2.18497e-18
9935.14942 1.35864e-18
9936.83697 9.81313e-19
9938.54460 1.19759e-18
9940.23214 1.44713e-18
9941.93978 1.42730e-18
9943.63736 1.06001e-18
9945.33495 5.38799e-19
9947.03254 4.33560e-19
9948.73013 6.76485e-19
9950.42772 2.93569e-19
9952.12530 -8.80065e-19
9953.82289 -1.74709e-18
9955.52048 -1.63929e-18
9957.21807 -7.40453e-19
9958.91566 6.65904e-19
9960.61324 2.25181e-18
9962.31083 3.74227e-18
9964.00842 5.15591e-18
9965.70601 6.34870e-18
9967.40360 6.59200e-18
9969.10118 5.47409e-18
9970.79877 3.56099e-18
9972.49636 1.69568e-18
9974.19395 7.31132e-19
9975.89154 1.15145e-18
9977.58913 2.35843e-18
9979.28671 3.38731e-18
9980.98430 3.76395e-18
9982.68189 3.35499e-18
9984.37948 2.26701e-18
9986.07707 8.48269e-19
9987.77465 -3.79442e-19
9989.47224 -8.86054e-19
9991.16983 -4.34590e-19
9992.86742 8.76916e-19
9994.56501 2.17737e-18
9996.26259 2.07591e-18
9997.96018 9.37381e-19
9999.65777 7.96906e-19
