# wavelength flux
5035.00428 1.86371e-17
5037.64848 2.62243e-17
5040.29268 2.19119e-17
5042.93688 1.15744e-17
5045.58108 1.21139e-17
5048.22528 3.98961e-18
5050.86948 3.34957e-18
5053.51368 7.34078e-18
5056.15788 1.00778e-17
5058.80208 6.84929e-18
5061.44628 1.22932e-17
5064.09048 1.80151e-17
5066.73468 1.82616e-17
5069.38905 1.11509e-17
5072.03325 1.50184e-17
5074.67745 1.52674e-17
5077.32165 1.37415e-17
5079.96585 1.51729e-17
5082.61005 1.55198e-17
5085.25425 1.28092e-17
5087.89845 1.59455e-17
5090.54265 1.69557e-17
5093.18685 1.71127e-17
5095.83105 1.66322e-17
5098.47525 1.58654e-17
5101.11945 1.65833e-17
5103.76365 1.51066e-17
5106.40785 1.44462e-17
5109.06222 1.59350e-17
5111.70642 1.75406e-17
5114.35062 1.74309e-17
5116.99482 1.62518e-17
5119.63902 1.55732e-17
5122.28322 1.50431e-17
5124.92742 1.69468e-17
5127.57162 2.03967e-17
5130.21582 1.74674e-17
5132.86002 1.46363e-17
5135.50422 1.55916e-17
5138.14842 1.68719e-17
5140.79262 1.48458e-17
5143.43682 1.28620e-17
5146.08102 1.09804e-17
5148.73539 1.38484e-17
5151.37959 1.53913e-17
5154.02379 1.52817e-17
5156.66799 1.28336e-17
5159.31219 1.40794e-17
5161.95639 1.62501e-17
5164.60059 1.79353e-17
5167.24479 1.77265e-17
5169.88899 1.96655e-17
5172.53319 1.85698e-17
5175.17739 1.32192e-17
5177.82159 1.40584e-17
5180.46579 1.31766e-17
5183.12016 1.05716e-17
5185.76436 1.15585e-17
5188.40856 1.31638e-17
5191.05276 1.23669e-17
5193.69696 1.26157e-17
5196.34116 1.01183e-17
5198.98536 1.08624e-17
5201.62956 1.32293e-17
5204.27376 1.26240e-17
5206.91796 1.16804e-17
5209.56216 1.12798e-17
5212.20636 1.31100e-17
5214.85056 1.43111e-17
5217.49476 1.24445e-17
5220.13896 1.36846e-17
5222.78316 1.52643e-17
5225.43753 1.44229e-17
5228.08173 1.45499e-17
5230.72593 1.41097e-17
5233.37013 1.45659e-17
5236.01433 1.71352e-17
5238.65853 1.61790e-17
5241.30273 1.51480e-17
5243.94693 1.28227e-17
5246.59113 1.31790e-17
5249.23533 1.73997e-17
5251.87953 1.61824e-17
5254.52373 1.43337e-17
5257.16793 1.47585e-17
5259.82230 1.34064e-17
5262.46650 1.60012e-17
5265.11070 1.78885e-17
5267.75490 1.68152e-17
5270.39910 1.55792e-17
5273.04330 1.59494e-17
5275.68750 1.70783e-17
5278.33170 1.69901e-17
5280.97590 1.70526e-17
5283.62010 1.92030e-17
5286.26430 1.76158e-17
5288.90850 1.62449e-17
5291.55270 1.72036e-17
5294.19690 1.71828e-17
5296.84110 1.81753e-17
5299.49547 1.93324e-17
5302.13967 1.63835e-17
5304.78387 1.61403e-17
5307.42807 1.66911e-17
5310.07227 1.81042e-17
5312.71647 1.85137e-17
5315.36067 1.74684e-17
5318.00487 1.56813e-17
5320.64907 1.59221e-17
5323.29327 1.69049e-17
5325.93747 1.84970e-17
5328.58167 1.77167e-17
5331.22587 1.81263e-17
5333.87007 1.75059e-17
5336.51427 1.69923e-17
5339.16864 1.79156e-17
5341.81284 1.54207e-17
5344.45704 1.56750e-17
5347.10124 1.80855e-17
5349.74544 1.75307e-17
5352.38964 1.58059e-17
5355.03384 1.50840e-17
5357.67804 1.43924e-17
5360.32224 1.34831e-17
5362.96644 1.06255e-17
5365.61064 7.89746e-18
5368.25484 1.22642e-17
5370.89904 1.34369e-17
5373.54324 1.27126e-17
5376.19761 1.39367e-17
5378.84181 1.45205e-17
5381.48601 1.67689e-17
5384.13021 1.57784e-17
5386.77441 1.45676e-17
5389.41861 1.55933e-17
5392.06281 1.73900e-17
5394.70701 1.79559e-17
5397.35121 1.92270e-17
5399.99541 2.02667e-17
5402.63961 1.65209e-17
5405.28381 1.68648e-17
5407.92801 1.99681e-17
5410.57221 1.85724e-17
5413.21641 1.60892e-17
5415.87078 1.53222e-17
5418.51498 1.59872e-17
5421.15918 1.57386e-17
5423.80338 1.56166e-17
5426.44758 1.70491e-17
5429.09178 1.73385e-17
5431.73598 1.77096e-17
5434.38018 1.71906e-17
5437.02438 1.74202e-17
5439.66858 1.86446e-17
5442.31278 1.91683e-17
5444.95698 1.70281e-17
5447.60118 1.58408e-17
5450.24538 1.87231e-17
5452.89975 1.93336e-17
5455.54395 1.74539e-17
5458.18815 1.49809e-17
5460.83235 1.27134e-17
5463.47655 1.53771e-17
5466.12075 1.67452e-17
5468.76495 1.60466e-17
5471.40915 1.68982e-17
5474.05335 1.70832e-17
5476.69755 1.56867e-17
5479.34175 1.53209e-17
5481.98595 1.59827e-17
5484.63015 1.78370e-17
5487.27435 1.91406e-17
5489.91855 1.92400e-17
5492.57292 1.78250e-17
5495.21712 1.76909e-17
5497.86132 1.72483e-17
5500.50552 1.71441e-17
5503.14972 1.76322e-17
5505.79392 1.70995e-17
5508.43812 1.88653e-17
5511.08232 1.95656e-17
5513.72652 1.78040e-17
5516.37072 1.85714e-17
5519.01492 1.87662e-17
5521.65912 1.66356e-17
5524.30332 1.73997e-17
5526.94752 1.66908e-17
5529.60189 1.45089e-17
5532.24609 1.50534e-17
5534.89029 1.49770e-17
5537.53449 1.71922e-17
5540.17869 1.80337e-17
5542.82289 1.44120e-17
5545.46709 1.44533e-17
5548.11129 1.61920e-17
5550.75549 1.92366e-17
5553.39969 1.70733e-17
5556.04389 1.44731e-17
5558.68809 1.30399e-17
5561.33229 1.31720e-17
5563.97649 1.34521e-17
5566.63086 1.32178e-17
5569.27506 1.20801e-17
5571.91926 1.08525e-17
5574.56346 1.02679e-17
5577.20766 1.35073e-17
5579.85186 1.59522e-17
5582.49606 1.72630e-17
5585.14026 1.72423e-17
5587.78446 1.58134e-17
5590.42866 1.45311e-17
5593.07286 1.60728e-17
5595.71706 1.67832e-17
5598.36126 1.70038e-17
5601.00546 1.80232e-17
5603.64966 1.70259e-17
5606.30403 1.57220e-17
5608.94823 1.61515e-17
5611.59243 1.79972e-17
5614.23663 1.79185e-17
5616.88083 1.81762e-17
5619.52503 1.99517e-17
5622.16923 2.01520e-17
5624.81343 1.94496e-17
5627.45763 2.00246e-17
5630.10183 1.98130e-17
5632.74603 1.88455e-17
5635.39023 1.84066e-17
5638.03443 1.75218e-17
5640.67863 1.88709e-17
5643.33300 1.87253e-17
5645.97720 1.40070e-17
5648.62140 1.45127e-17
5651.26560 1.74369e-17
5653.90980 1.46348e-17
5656.55400 1.52397e-17
5659.19820 1.75875e-17
5661.84240 1.84749e-17
5664.48660 1.79990e-17
5667.13080 1.60950e-17
5669.77500 1.51723e-17
5672.41920 1.45722e-17
5675.06340 1.41987e-17
5677.70760 1.25442e-17
5680.36197 1.29463e-17
5683.00617 1.36942e-17
5685.65037 1.35042e-17
5688.29457 1.44127e-17
5690.93877 1.33761e-17
5693.58297 1.10852e-17
5696.22717 1.24769e-17
5698.87137 1.38416e-17
5701.51557 1.29380e-17
5704.15977 1.32258e-17
5706.80397 1.16450e-17
5709.44817 1.18398e-17
5712.09237 9.99840e-18
5714.73657 1.02629e-17
5717.38077 1.12580e-17
5720.03514 9.20083e-18
5722.67934 8.70567e-18
5725.32354 9.73467e-18
5727.96774 9.94410e-18
5730.61194 9.36296e-18
5733.25614 1.05524e-17
5735.90034 1.11510e-17
5738.54454 1.11998e-17
5741.18874 1.17559e-17
5743.83294 1.02213e-17
5746.47714 1.09126e-17
5749.12134 1.06979e-17
5751.76554 1.06895e-17
5754.40974 1.07706e-17
5757.06411 1.06621e-17
5759.70831 1.32267e-17
5762.35251 1.35185e-17
5764.99671 1.18000e-17
5767.64091 1.12494e-17
5770.28511 1.17287e-17
5772.92931 1.25701e-17
5775.57351 1.28906e-17
5778.21771 1.26918e-17
5780.86191 1.35038e-17
5783.50611 1.28874e-17
5786.15031 1.16335e-17
5788.79451 1.26234e-17
5791.43871 1.35956e-17
5794.08291 1.23066e-17
5796.73728 9.94990e-18
5799.38148 1.18082e-17
5802.02568 1.36500e-17
5804.66988 1.37338e-17
5807.31408 1.20206e-17
5809.95828 1.10273e-17
5812.60248 1.07663e-17
5815.24668 1.08484e-17
5817.89088 1.13894e-17
5820.53508 9.85821e-18
5823.17928 1.07007e-17
5825.82348 1.27243e-17
5828.46768 1.14848e-17
5831.11188 9.60410e-18
5833.76625 8.61091e-18
5836.41045 8.51063e-18
5839.05465 7.86316e-18
5841.69885 7.87165e-18
5844.34305 7.72431e-18
5846.98725 7.81344e-18
5849.63145 8.06994e-18
5852.27565 8.07255e-18
5854.91985 8.98133e-18
5857.56405 1.02149e-17
5860.20825 8.25815e-18
5862.85245 5.67736e-18
5865.49665 6.91502e-18
5868.14085 8.56553e-18
5870.79522 7.17319e-18
5873.43942 6.79289e-18
5876.08362 6.46871e-18
5878.72782 6.06288e-18
5881.37202 5.31659e-18
5884.01622 5.95709e-18
5886.66042 7.40923e-18
5889.30462 8.01389e-18
5891.94882 8.26313e-18
5894.59302 7.75179e-18
5897.23722 8.54779e-18
5899.88142 9.06134e-18
5902.52562 9.73654e-18
5905.16982 9.37917e-18
5907.81402 9.60932e-18
5910.46839 1.02469e-17
5913.11259 1.00234e-17
5915.75679 1.11827e-17
5918.40099 1.07434e-17
5921.04519 1.04107e-17
5923.68939 1.12416e-17
5926.33359 1.13346e-17
5928.97779 1.10773e-17
5931.62199 1.19321e-17
5934.26619 1.26990e-17
5936.91039 1.28432e-17
5939.55459 1.36398e-17
5942.19879 1.38578e-17
5944.84299 1.29509e-17
5947.49736 1.42848e-17
5950.14156 1.66006e-17
5952.78576 1.70494e-17
5955.42996 1.84150e-17
5958.07416 1.93644e-17
5960.71836 2.02991e-17
5963.36256 2.05689e-17
5966.00676 1.96653e-17
5968.65096 2.03617e-17
5971.29516 2.12125e-17
5973.93936 2.04567e-17
5976.58356 2.10190e-17
5979.22776 2.22725e-17
5981.87196 2.22548e-17
5984.51616 2.16576e-17
5987.17053 2.13766e-17
5989.81473 2.15630e-17
5992.45893 2.16396e-17
5995.10313 2.08981e-17
5997.74733 2.07514e-17
6000.39153 2.07542e-17
6003.03573 2.02659e-17
6005.67993 2.04562e-17
6008.32413 2.08521e-17
6010.96833 2.16536e-17
6013.61253 2.21009e-17
6016.25673 2.10951e-17
6018.90093 1.94226e-17
6021.54513 1.91577e-17
6024.19950 2.01811e-17
6026.84370 2.09118e-17
6029.48790 1.96145e-17
6032.13210 1.84478e-17
6034.77630 1.86401e-17
6037.42050 1.79456e-17
6040.06470 1.90311e-17
6042.70890 1.97817e-17
6045.35310 1.84457e-17
6047.99730 1.74777e-17
6050.64150 1.56286e-17
6053.28570 1.54531e-17
6055.92990 1.54817e-17
6058.57410 1.48698e-17
6061.21830 1.42437e-17
6063.87267 1.50480e-17
6066.51687 1.48349e-17
6069.16107 1.42758e-17
6071.80527 1.39298e-17
6074.44947 1.47568e-17
6077.09367 1.59427e-17
6079.73787 1.48680e-17
6082.38207 1.42072e-17
6085.02627 1.37379e-17
6087.67047 1.29088e-17
6090.31467 1.38392e-17
6092.95887 1.46300e-17
6095.60307 1.27989e-17
6098.24727 1.06032e-17
6100.90164 1.14240e-17
6103.54584 1.17135e-17
6106.19004 1.28896e-17
6108.83424 1.23994e-17
6111.47844 1.11907e-17
6114.12264 1.13009e-17
6116.76684 1.14466e-17
6119.41104 1.06824e-17
6122.05524 1.09397e-17
6124.69944 1.20315e-17
6127.34364 1.23633e-17
6129.98784 1.08830e-17
6132.63204 9.93072e-18
6135.27624 1.14091e-17
6137.93061 1.10357e-17
6140.57481 9.41069e-18
6143.21901 8.96093e-18
6145.86321 8.51663e-18
6148.50741 9.70914e-18
6151.15161 1.10079e-17
6153.79581 1.13056e-17
6156.44001 1.16495e-17
6159.08421 1.18664e-17
6161.72841 1.13481e-17
6164.37261 9.41256e-18
6167.01681 8.46008e-18
6169.66101 1.02430e-17
6172.30521 1.25274e-17
6174.94941 1.22407e-17
6177.59361 1.04970e-17
6180.24798 1.09371e-17
6182.89218 1.16834e-17
6185.53638 1.12144e-17
6188.18058 1.09569e-17
6190.82478 1.14666e-17
6193.46898 1.12659e-17
6196.11318 1.03648e-17
6198.75738 1.14835e-17
6201.40158 1.33903e-17
6204.04578 1.33515e-17
6206.68998 1.26148e-17
6209.33418 1.33773e-17
6211.97838 1.31444e-17
6214.63275 1.22637e-17
6217.27695 1.32085e-17
6219.92115 1.40196e-17
6222.56535 1.32694e-17
6225.20955 1.40724e-17
6227.85375 1.48957e-17
6230.49795 1.28257e-17
6233.14215 1.31624e-17
6235.78635 1.44061e-17
6238.43055 1.33925e-17
6241.07475 1.20748e-17
6243.71895 1.09333e-17
6246.36315 1.17260e-17
6249.00735 1.27409e-17
6251.65155 1.30418e-17
6254.30592 1.33751e-17
6256.95012 1.42159e-17
6259.59432 1.42244e-17
6262.23852 1.34881e-17
6264.88272 1.32784e-17
6267.52692 1.33757e-17
6270.17112 1.42888e-17
6272.81532 1.40952e-17
6275.45952 1.26917e-17
6278.10372 1.11643e-17
6280.74792 1.00498e-17
6283.39212 1.06404e-17
6286.03632 1.19486e-17
6288.68052 1.16885e-17
6291.33489 1.03333e-17
6293.97909 1.14690e-17
6296.62329 1.25681e-17
6299.26749 1.23390e-17
6301.91169 1.34061e-17
6304.55589 1.35752e-17
6307.20009 1.39737e-17
6309.84429 1.43257e-17
6312.48849 1.26801e-17
6315.13269 1.38188e-17
6317.77689 1.56081e-17
6320.42109 1.45405e-17
6323.06529 1.39302e-17
6325.70949 1.33095e-17
6328.35369 1.41981e-17
6331.00806 1.60580e-17
6333.65226 1.50814e-17
6336.29646 1.39589e-17
6338.94066 1.30292e-17
6341.58486 1.26451e-17
6344.22906 1.38768e-17
6346.87326 1.52122e-17
6349.51746 1.40685e-17
6352.16166 1.28869e-17
6354.80586 1.29764e-17
6357.45006 1.36151e-17
6360.09426 1.49665e-17
6362.73846 1.52090e-17
6365.38266 1.35203e-17
6368.02686 1.22550e-17
6370.68123 1.31178e-17
6373.32543 1.24497e-17
6375.96963 1.12055e-17
6378.61383 1.29740e-17
6381.25803 1.38446e-17
6383.90223 1.29710e-17
6386.54643 1.36310e-17
6389.19063 1.42584e-17
6391.83483 1.39414e-17
6394.47903 1.31385e-17
6397.12323 1.33222e-17
6399.76743 1.33283e-17
6402.41163 1.31966e-17
6405.06600 1.31877e-17
6407.71020 1.17180e-17
6410.35440 1.12029e-17
6412.99860 1.10924e-17
6415.64280 1.08233e-17
6418.28700 1.22726e-17
6420.93120 1.30974e-17
6423.57540 1.22573e-17
6426.21960 1.13297e-17
6428.86380 1.21148e-17
6431.50800 1.23391e-17
6434.15220 1.19397e-17
6436.79640 1.25133e-17
6439.44060 1.32639e-17
6442.08480 1.24203e-17
6444.72900 1.18170e-17
6447.38337 1.31423e-17
6450.02757 1.31388e-17
6452.67177 1.08493e-17
6455.31597 1.03714e-17
6457.96017 1.12754e-17
6460.60437 1.10513e-17
6463.24857 1.06051e-17
6465.89277 1.12927e-17
6468.53697 1.17417e-17
6471.18117 1.10509e-17
6473.82537 1.10708e-17
6476.46957 1.12046e-17
6479.11377 1.15130e-17
6481.76814 1.21902e-17
6484.41234 1.26440e-17
6487.05654 1.29491e-17
6489.70074 1.20190e-17
6492.34494 1.13345e-17
6494.98914 1.21306e-17
6497.63334 1.30017e-17
6500.27754 1.36897e-17
6502.92174 1.34730e-17
6505.56594 1.18747e-17
6508.21014 1.20599e-17
6510.85434 1.38090e-17
6513.49854 1.36163e-17
6516.14274 1.24359e-17
6518.78694 1.22193e-17
6521.44131 1.23230e-17
6524.08551 1.25995e-17
6526.72971 1.29938e-17
6529.37391 1.32557e-17
6532.01811 1.43110e-17
6534.66231 1.44803e-17
6537.30651 1.43193e-17
6539.95071 1.49736e-17
6542.59491 1.47606e-17
6545.23911 1.41841e-17
6547.88331 1.43549e-17
6550.52751 1.49112e-17
6553.17171 1.49386e-17
6555.81591 1.55716e-17
6558.46011 1.57755e-17
6561.11448 1.50739e-17
6563.75868 1.53769e-17
6566.40288 1.60803e-17
6569.04708 1.60551e-17
6571.69128 1.57775e-17
6574.33548 1.56927e-17
6576.97968 1.53474e-17
6579.62388 1.42458e-17
6582.26808 1.43340e-17
6584.91228 1.54858e-17
6587.55648 1.53145e-17
6590.20068 1.51390e-17
6592.84488 1.46442e-17
6595.48908 1.48538e-17
6598.14345 1.78648e-17
6600.78765 1.86679e-17
6603.43185 1.72657e-17
6606.07605 1.63353e-17
6608.72025 1.50047e-17
6611.36445 1.36905e-17
6614.00865 1.33193e-17
6616.65285 1.33083e-17
6619.29705 1.34220e-17
6621.94125 1.40555e-17
6624.58545 1.48173e-17
6627.22965 1.45057e-17
6629.87385 1.39470e-17
6632.51805 1.42117e-17
6635.16225 1.40889e-17
6637.81662 1.35925e-17
6640.46082 1.36556e-17
6643.10502 1.45077e-17
6645.74922 1.53923e-17
6648.39342 1.62653e-17
6651.03762 1.62243e-17
6653.68182 1.43034e-17
6656.32602 1.28852e-17
6658.97022 1.31332e-17
6661.61442 1.37683e-17
6664.25862 1.47467e-17
6666.90282 1.47833e-17
6669.54702 1.23577e-17
6672.19122 8.96830e-18
6674.84559 5.08192e-18
6677.48979 1.61194e-18
6680.13399 1.40550e-18
6682.77819 2.55235e-18
6685.42239 4.13127e-18
6688.06659 6.96137e-18
6690.71079 9.45157e-18
6693.35499 1.11533e-17
6695.99919 1.15875e-17
6698.64339 1.08228e-17
6701.28759 9.29731e-18
6703.93179 8.17528e-18
6706.57599 8.92964e-18
6709.22019 1.04012e-17
6711.87456 1.15750e-17
6714.51876 1.16302e-17
6717.16296 1.02583e-17
6719.80716 9.78734e-18
6722.45136 1.07605e-17
6725.09556 1.09717e-17
6727.73976 1.11464e-17
6730.38396 1.23974e-17
6733.02816 1.22893e-17
6735.67236 1.14266e-17
6738.31656 1.11853e-17
6740.96076 1.02600e-17
6743.60496 1.03080e-17
6746.24916 1.13279e-17
6748.89336 1.12131e-17
6751.54773 1.11049e-17
6754.19193 1.07789e-17
6756.83613 1.05450e-17
6759.48033 1.11587e-17
6762.12453 1.12548e-17
6764.76873 1.15486e-17
6767.41293 1.24072e-17
6770.05713 1.23588e-17
6772.70133 1.26658e-17
6775.34553 1.33568e-17
6777.98973 1.29047e-17
6780.63393 1.21327e-17
6783.27813 1.35437e-17
6785.92233 1.48518e-17
6788.57670 1.47197e-17
6791.22090 1.42876e-17
6793.86510 1.33039e-17
6796.50930 1.35873e-17
6799.15350 1.43429e-17
6801.79770 1.46192e-17
6804.44190 1.41215e-17
6807.08610 1.41429e-17
6809.73030 1.41992e-17
6812.37450 1.32734e-17
6815.01870 1.26764e-17
6817.66290 1.23859e-17
6820.30710 1.35994e-17
6822.95130 1.45918e-17
6825.59550 1.32040e-17
6828.24987 1.14094e-17
6830.89407 1.14730e-17
6833.53827 1.19575e-17
6836.18247 1.13081e-17
6838.82667 9.50397e-18
6841.47087 8.78935e-18
6844.11507 9.39035e-18
6846.75927 9.29917e-18
6849.40347 9.20801e-18
6852.04767 9.11685e-18
6854.69187 9.02569e-18
6857.33607 8.93455e-18
6859.98027 8.84342e-18
6862.62447 8.75229e-18
6865.27884 8.66117e-18
6867.92304 8.57006e-18
6870.56724 8.47897e-18
6873.21144 8.38788e-18
6875.85564 8.29679e-18
6878.49984 8.20571e-18
6881.14404 8.11465e-18
6883.78824 8.02360e-18
6886.43244 7.93255e-18
6889.07664 7.84150e-18
6891.72084 7.75047e-18
6894.36504 7.65946e-18
6897.00924 7.56844e-18
6899.65344 7.47743e-18
6902.30781 7.38643e-18
6904.95201 7.29545e-18
6907.59621 7.20447e-18
6910.24041 7.11349e-18
6912.88461 7.02253e-18
6915.52881 6.93159e-18
6918.17301 6.84064e-18
6920.81721 6.74969e-18
6923.46141 6.65876e-18
6926.10561 6.56784e-18
6928.74981 6.47694e-18
6931.39401 6.38603e-18
6934.03821 6.29513e-18
6936.68241 6.20424e-18
6939.32661 5.71357e-18
6941.98098 6.40718e-18
6944.62518 7.61047e-18
6947.26938 7.27581e-18
6949.91358 6.90337e-18
6952.55778 7.04756e-18
6955.20198 7.25217e-18
6957.84618 6.58338e-18
6960.49038 6.67312e-18
6963.13458 6.97885e-18
6965.77878 6.60489e-18
6968.42298 5.62461e-18
6971.06718 5.43916e-18
6973.71138 5.74688e-18
6976.35558 5.25440e-18
6979.00995 5.95152e-18
6981.65415 6.88657e-18
6984.29835 7.81114e-18
6986.94255 7.44432e-18
6989.58675 5.34098e-18
6992.23095 4.74622e-18
6994.87515 5.53338e-18
6997.51935 5.55844e-18
7000.16355 5.51033e-18
7002.80775 5.81431e-18
7005.45195 5.98266e-18
7008.09615 6.53407e-18
7010.74035 6.12227e-18
7013.38455 5.05568e-18
7016.02875 4.42451e-18
7018.68312 4.80309e-18
7021.32732 5.10672e-18
7023.97152 5.43966e-18
7026.61572 6.67988e-18
7029.25992 6.16790e-18
7031.90412 4.88265e-18
7034.54832 4.62245e-18
7037.19252 5.31514e-18
7039.83672 6.23826e-18
7042.48092 5.85312e-18
7045.12512 5.74133e-18
7047.76932 6.31007e-18
7050.41352 6.18838e-18
7053.05772 5.68765e-18
7055.71209 5.08732e-18
7058.35629 5.53428e-18
7061.00049 6.10185e-18
7063.64469 5.84338e-18
7066.28889 6.28059e-18
7068.93309 6.32418e-18
7071.57729 5.68453e-18
7074.22149 5.41619e-18
7076.86569 6.15336e-18
7079.50989 7.29187e-18
7082.15409 6.68529e-18
7084.79829 5.16530e-18
7087.44249 5.39680e-18
7090.08669 6.40504e-18
7092.74106 6.23408e-18
7095.38526 6.19878e-18
7098.02946 7.32843e-18
7100.67366 7.66316e-18
7103.31786 7.66765e-18
7105.96206 9.03141e-18
7108.60626 9.59155e-18
7111.25046 9.31164e-18
7113.89466 1.04169e-17
7116.53886 1.10338e-17
7119.18306 1.02434e-17
7121.82726 1.17896e-17
7124.47146 1.27635e-17
7127.11566 1.15669e-17
7129.75986 1.21719e-17
7132.41423 1.35716e-17
7135.05843 1.38172e-17
7137.70263 1.29736e-17
7140.34683 1.25449e-17
7142.99103 1.30721e-17
7145.63523 1.38276e-17
7148.27943 1.42744e-17
7150.92363 1.43215e-17
7153.56783 1.43220e-17
7156.21203 1.42765e-17
7158.85623 1.51619e-17
7161.50043 1.57278e-17
7164.14463 1.64048e-17
7166.78883 1.74361e-17
7169.44320 1.72087e-17
7172.08740 1.75552e-17
7174.73160 1.74590e-17
7177.37580 1.70799e-17
7180.02000 1.79419e-17
7182.66420 1.87194e-17
7185.30840 1.78059e-17
7187.95260 1.63302e-17
7190.59680 1.63242e-17
7193.24100 1.63152e-17
7195.88520 1.61272e-17
7198.52940 1.67099e-17
7201.17360 1.62018e-17
7203.81780 1.56643e-17
7206.46200 1.58219e-17
7209.11637 1.54906e-17
7211.76057 1.57932e-17
7214.40477 1.63847e-17
7217.04897 1.60285e-17
7219.69317 1.53108e-17
7222.33737 1.54979e-17
7224.98157 1.53501e-17
7227.62577 1.55786e-17
7230.26997 1.70788e-17
7232.91417 1.66027e-17
7235.55837 1.39884e-17
7238.20257 1.24744e-17
7240.84677 1.21279e-17
7243.49097 1.15065e-17
7246.14534 1.15951e-17
7248.78954 1.25681e-17
7251.43374 1.21543e-17
7254.07794 1.08385e-17
7256.72214 1.00738e-17
7259.36634 1.03133e-17
7262.01054 1.09099e-17
7264.65474 1.09822e-17
7267.29894 1.20250e-17
7269.94314 1.19453e-17
7272.58734 1.05479e-17
7275.23154 9.89719e-18
7277.87574 9.73810e-18
7280.51994 1.01583e-17
7283.16414 9.91771e-18
7285.81851 9.35754e-18
7288.46271 9.90440e-18
7291.10691 1.01607e-17
7293.75111 8.92732e-18
7296.39531 8.15635e-18
7299.03951 8.83497e-18
7301.68371 9.46178e-18
7304.32791 9.67476e-18
7306.97211 9.10509e-18
7309.61631 9.06936e-18
7312.26051 9.68361e-18
7314.90471 9.16658e-18
7317.54891 9.43407e-18
7320.19311 1.01800e-17
7322.84748 9.34670e-18
7325.49168 8.51984e-18
7328.13588 9.51658e-18
7330.78008 1.04021e-17
7333.42428 1.01120e-17
7336.06848 1.01093e-17
7338.71268 1.03235e-17
7341.35688 1.09571e-17
7344.00108 1.11717e-17
7346.64528 1.01723e-17
7349.28948 1.00720e-17
7351.93368 1.10104e-17
7354.57788 1.00548e-17
7357.22208 8.85023e-18
7359.87645 9.82477e-18
7362.52065 1.09185e-17
7365.16485 1.09479e-17
7367.80905 1.06378e-17
7370.45325 1.16148e-17
7373.09745 1.24946e-17
7375.74165 1.17520e-17
7378.38585 1.25883e-17
7381.03005 1.30852e-17
7383.67425 1.14098e-17
7386.31845 1.13109e-17
7388.96265 1.20824e-17
7391.60685 1.22554e-17
7394.25105 1.23929e-17
7396.89525 1.28205e-17
7399.53945 1.35379e-17
7402.19382 1.39610e-17
7404.83802 1.35075e-17
7407.48222 1.27326e-17
7410.12642 1.28478e-17
7412.77062 1.42425e-17
7415.41482 1.33838e-17
7418.05902 1.23906e-17
7420.70322 1.30225e-17
7423.34742 1.40988e-17
7425.99162 1.41384e-17
7428.63582 1.29311e-17
7431.28002 1.24236e-17
7433.92422 1.36525e-17
7436.57859 1.51585e-17
7439.22279 1.42836e-17
7441.86699 1.27551e-17
7444.51119 1.15562e-17
7447.15539 1.15994e-17
7449.79959 1.19287e-17
7452.44379 1.26222e-17
7455.08799 1.40601e-17
7457.73219 1.41079e-17
7460.37639 1.28392e-17
7463.02059 1.23054e-17
7465.66479 1.10896e-17
7468.30899 1.02263e-17
7470.95319 1.17842e-17
7473.59739 1.24981e-17
7476.25176 1.21953e-17
7478.89596 1.19903e-17
7481.54016 1.15130e-17
7484.18436 1.02438e-17
7486.82856 9.82672e-18
7489.47276 1.06818e-17
7492.11696 1.18631e-17
7494.76116 1.19769e-17
7497.40536 1.02387e-17
7500.04956 9.61195e-18
7502.69376 1.11062e-17
7505.33796 1.10009e-17
7507.98216 9.60274e-18
7510.62636 9.26340e-18
7513.28073 9.23636e-18
7515.92493 9.80867e-18
7518.56913 1.04134e-17
7521.21333 9.78715e-18
7523.85753 9.10510e-18
7526.50173 9.50319e-18
7529.14593 1.04894e-17
7531.79013 1.13114e-17
7534.43433 1.27891e-17
7537.07853 1.27456e-17
7539.72273 1.08049e-17
7542.36693 1.03769e-17
7545.01113 1.00741e-17
7547.65533 1.03597e-17
7550.29953 1.03079e-17
7552.95390 1.02561e-17
7555.59810 1.02044e-17
7558.24230 1.01527e-17
7560.88650 1.01009e-17
7563.53070 1.00492e-17
7566.17490 9.99746e-18
7568.81910 9.94574e-18
7571.46330 9.89401e-18
7574.10750 9.84230e-18
7576.75170 9.79059e-18
7579.39590 9.73890e-18
7582.04010 9.68720e-18
7584.68430 9.63550e-18
7587.32850 9.58382e-18
7589.97270 9.53214e-18
7592.62707 9.48046e-18
7595.27127 9.42879e-18
7597.91547 9.37713e-18
7600.55967 9.32547e-18
7603.20387 9.27382e-18
7605.84807 9.22216e-18
7608.49227 9.17052e-18
7611.13647 9.11889e-18
7613.78067 9.06725e-18
7616.42487 9.01562e-18
7619.06907 8.96400e-18
7621.71327 8.91238e-18
7624.35747 8.86077e-18
7627.01184 8.80915e-18
7629.65604 8.75756e-18
7632.30024 8.70596e-18
7634.94444 8.65438e-18
7637.58864 8.60279e-18
7640.23284 8.55121e-18
7642.87704 8.49963e-18
7645.52124 8.44807e-18
7648.16544 8.39650e-18
7650.80964 8.34494e-18
7653.45384 8.29338e-18
7656.09804 8.24184e-18
7658.74224 8.19030e-18
7661.38644 8.13876e-18
7664.03064 8.08722e-18
7666.68501 8.03569e-18
7669.32921 7.98418e-18
7671.97341 7.93266e-18
7674.61761 7.88115e-18
7677.26181 7.82964e-18
7679.90601 7.77815e-18
7682.55021 7.72665e-18
7685.19441 7.20470e-18
7687.83861 6.82548e-18
7690.48281 7.50497e-18
7693.12701 7.87862e-18
7695.77121 8.28065e-18
7698.41541 9.01380e-18
7701.05961 8.92295e-18
7703.71398 9.60645e-18
7706.35818 8.68581e-18
7709.00238 7.57462e-18
7711.64658 7.53937e-18
7714.29078 7.82045e-18
7716.93498 8.81074e-18
7719.57918 8.48202e-18
7722.22338 5.71036e-18
7724.86758 6.01856e-18
7727.51178 7.99800e-18
7730.15598 7.76261e-18
7732.80018 7.25045e-18
7735.44438 7.17893e-18
7738.08858 6.80345e-18
7740.73278 7.21126e-18
7743.38715 6.07956e-18
7746.03135 4.82348e-18
7748.67555 6.91320e-18
7751.31975 8.46458e-18
7753.96395 8.11595e-18
7756.60815 6.72728e-18
7759.25235 5.91977e-18
7761.89655 6.93777e-18
7764.54075 8.36919e-18
7767.18495 8.68581e-18
7769.82915 8.21922e-18
7772.47335 7.63879e-18
7775.11755 7.06715e-18
7777.76175 6.96908e-18
7780.40595 6.94862e-18
7783.06032 7.17179e-18
7785.70452 7.85617e-18
7788.34872 7.46232e-18
7790.99292 6.58849e-18
7793.63712 7.34512e-18
7796.28132 7.75196e-18
7798.92552 6.61392e-18
7801.56972 6.87717e-18
7804.21392 7.70512e-18
7806.85812 7.98611e-18
7809.50232 8.29273e-18
7812.14652 8.31348e-18
7814.79072 7.19449e-18
7817.43492 5.78756e-18
7820.08929 5.55803e-18
7822.73349 6.55874e-18
7825.37769 6.56090e-18
7828.02189 6.34175e-18
7830.66609 6.92046e-18
7833.31029 7.42006e-18
7835.95449 8.02870e-18
7838.59869 8.00660e-18
7841.24289 7.51408e-18
7843.88709 7.72413e-18
7846.53129 7.93066e-18
7849.17549 6.75160e-18
7851.81969 5.38287e-18
7854.46389 6.59576e-18
7857.11826 8.08097e-18
7859.76246 7.11886e-18
7862.40666 6.61351e-18
7865.05086 7.46047e-18
7867.69506 8.01402e-18
7870.33926 8.22576e-18
7872.98346 8.18311e-18
7875.62766 8.22460e-18
7878.27186 7.77467e-18
7880.91606 8.09048e-18
7883.56026 9.49150e-18
7886.20446 9.20358e-18
7888.84866 9.04292e-18
7891.49286 9.71394e-18
7894.13706 9.66278e-18
7896.79143 9.95355e-18
7899.43563 9.61534e-18
7902.07983 9.17691e-18
7904.72403 9.44236e-18
7907.36823 1.00591e-17
7910.01243 1.13123e-17
7912.65663 1.22121e-17
7915.30083 1.22401e-17
7917.94503 1.09595e-17
7920.58923 1.07010e-17
7923.23343 1.11417e-17
7925.87763 9.61269e-18
7928.52183 9.77968e-18
7931.16603 1.07055e-17
7933.82040 1.08275e-17
7936.46460 1.02498e-17
7939.10880 1.01864e-17
7941.75300 1.10111e-17
7944.39720 1.11504e-17
7947.04140 9.62358e-18
7949.68560 9.98331e-18
7952.32980 1.04274e-17
7954.97400 1.01731e-17
7957.61820 1.02080e-17
7960.26240 9.46896e-18
7962.90660 9.13397e-18
7965.55080 9.00506e-18
7968.19500 8.79358e-18
7970.83920 9.23618e-18
7973.49357 9.53102e-18
7976.13777 9.50388e-18
7978.78197 9.74382e-18
7981.42617 1.09852e-17
7984.07037 1.11591e-17
7986.71457 9.26063e-18
7989.35877 8.55211e-18
7992.00297 9.18890e-18
7994.64717 9.82902e-18
7997.29137 9.14647e-18
7999.93557 8.72813e-18
8002.57977 1.01792e-17
8005.22397 9.32746e-18
8007.86817 8.40615e-18
8010.52254 8.85471e-18
8013.16674 7.89941e-18
8015.81094 7.30710e-18
8018.45514 7.95185e-18
8021.09934 7.81897e-18
8023.74354 6.72013e-18
8026.38774 7.07732e-18
8029.03194 8.14481e-18
8031.67614 7.21329e-18
8034.32034 6.56143e-18
8036.96454 8.36976e-18
8039.60874 1.01872e-17
8042.25294 9.50302e-18
8044.89714 7.44674e-18
8047.55151 6.42222e-18
8050.19571 6.43304e-18
8052.83991 7.17281e-18
8055.48411 6.96549e-18
8058.12831 5.74215e-18
8060.77251 5.78043e-18
8063.41671 7.01394e-18
8066.06091 6.71636e-18
8068.70511 6.03010e-18
8071.34931 6.52001e-18
8073.99351 6.06132e-18
8076.63771 5.67230e-18
8079.28191 7.43406e-18
8081.92611 8.73340e-18
8084.57031 7.94239e-18
8087.22468 6.16040e-18
8089.86888 5.41036e-18
8092.51308 6.65160e-18
8095.15728 6.78472e-18
8097.80148 7.15678e-18
8100.44568 7.44568e-18
8103.08988 7.11359e-18
8105.73408 6.50508e-18
8108.37828 6.48845e-18
8111.02248 6.43674e-18
8113.66668 5.49082e-18
8116.31088 5.59520e-18
8118.95508 5.91835e-18
8121.59928 5.63960e-18
8124.25365 6.21859e-18
8126.89785 6.62900e-18
8129.54205 6.42621e-18
8132.18625 5.99139e-18
8134.83045 6.34218e-18
8137.47465 6.65286e-18
8140.11885 6.81977e-18
8142.76305 6.51333e-18
8145.40725 5.72212e-18
8148.05145 4.83764e-18
8150.69565 4.85016e-18
8153.33985 5.28505e-18
8155.98405 4.96531e-18
8158.62825 5.14161e-18
8161.27245 5.39284e-18
8163.92682 5.12889e-18
8166.57102 5.26367e-18
8169.21522 5.18940e-18
8171.85942 4.75008e-18
8174.50362 5.06425e-18
8177.14782 5.65271e-18
8179.79202 5.34791e-18
8182.43622 6.42703e-18
8185.08042 6.22195e-18
8187.72462 4.76111e-18
8190.36882 6.22657e-18
8193.01302 6.80225e-18
8195.65722 5.55887e-18
8198.30142 5.49938e-18
8200.94562 6.19060e-18
8203.59999 6.15091e-18
8206.24419 5.69525e-18
8208.88839 5.49736e-18
8211.53259 4.60051e-18
8214.17679 4.26354e-18
8216.82099 5.53805e-18
8219.46519 6.59673e-18
8222.10939 5.86425e-18
8224.75359 5.44791e-18
8227.39779 5.06819e-18
8230.04199 5.57008e-18
8232.68619 6.19464e-18
8235.33039 5.07975e-18
8237.97459 5.03870e-18
8240.62896 4.93230e-18
8243.27316 4.21111e-18
8245.91736 4.62109e-18
8248.56156 5.12194e-18
8251.20576 6.37019e-18
8253.84996 6.73689e-18
8256.49416 5.84366e-18
8259.13836 5.37317e-18
8261.78256 4.58141e-18
8264.42676 4.56973e-18
8267.07096 4.80860e-18
8269.71516 4.58921e-18
8272.35936 5.17216e-18
8275.00356 5.66038e-18
8277.65793 5.13336e-18
8280.30213 4.15456e-18
8282.94633 3.65576e-18
8285.59053 3.38597e-18
8288.23473 4.40314e-18
8290.87893 4.86420e-18
8293.52313 3.71667e-18
8296.16733 4.24871e-18
8298.81153 5.59822e-18
8301.45573 5.72357e-18
8304.09993 5.00922e-18
8306.74413 4.88082e-18
8309.38833 6.63471e-18
8312.03253 7.76881e-18
8314.68690 6.75148e-18
8317.33110 6.10316e-18
8319.97530 6.36082e-18
8322.61950 6.41975e-18
8325.26370 6.58945e-18
8327.90790 6.40328e-18
8330.55210 4.91848e-18
8333.19630 4.30423e-18
8335.84050 4.42991e-18
8338.48470 4.47352e-18
8341.12890 5.83835e-18
8343.77310 6.53657e-18
8346.41730 5.62241e-18
8349.06150 5.03850e-18
8351.70570 5.79553e-18
8354.36007 6.28624e-18
8357.00427 5.52612e-18
8359.64847 6.33861e-18
8362.29267 7.39605e-18
8364.93687 7.26205e-18
8367.58107 7.40605e-18
8370.22527 7.19229e-18
8372.86947 5.67727e-18
8375.51367 5.07632e-18
8378.15787 6.01955e-18
8380.80207 5.85140e-18
8383.44627 5.23207e-18
8386.09047 5.02538e-18
8388.73467 5.03957e-18
8391.38904 6.11515e-18
8394.03324 6.45126e-18
8396.67744 6.48787e-18
8399.32164 7.60043e-18
8401.96584 9.92753e-18
8404.61004 1.12594e-17
8407.25424 1.00227e-17
8409.89844 9.26548e-18
8412.54264 8.76526e-18
8415.18684 8.60367e-18
8417.83104 9.62134e-18
8420.47524 9.45422e-18
8423.11944 8.49179e-18
8425.76364 8.95611e-18
8428.40784 7.65503e-18
8431.06221 5.65309e-18
8433.70641 6.45032e-18
8436.35061 8.09205e-18
8438.99481 7.63988e-18
8441.63901 5.71000e-18
8444.28321 5.37431e-18
8446.92741 7.00655e-18
8449.57161 8.15664e-18
8452.21581 8.39151e-18
8454.86001 8.35488e-18
8457.50421 7.78114e-18
8460.14841 6.70477e-18
8462.79261 5.39986e-18
8465.43681 4.72796e-18
8468.09118 4.48455e-18
8470.73538 3.86463e-18
8473.37958 4.90622e-18
8476.02378 6.67815e-18
8478.66798 6.34364e-18
8481.31218 5.66932e-18
8483.95638 6.99457e-18
8486.60058 7.72917e-18
8489.24478 6.92851e-18
8491.88898 6.01006e-18
8494.53318 5.99542e-18
8497.17738 6.97500e-18
8499.82158 7.19772e-18
8502.46578 6.98099e-18
8505.10998 6.88214e-18
8507.76435 7.93698e-18
8510.40855 8.80826e-18
8513.05275 7.61848e-18
8515.69695 5.57584e-18
8518.34115 5.07595e-18
8520.98535 6.11765e-18
8523.62955 6.75252e-18
8526.27375 6.99497e-18
8528.91795 6.80805e-18
8531.56215 6.46385e-18
8534.20635 7.51062e-18
8536.85055 8.53537e-18
8539.49475 8.80459e-18
8542.13895 8.91861e-18
8544.79332 8.61545e-18
8547.43752 7.41457e-18
8550.08172 7.55917e-18
8552.72592 7.91931e-18
8555.37012 7.96016e-18
8558.01432 9.10390e-18
8560.65852 1.04272e-17
8563.30272 1.00483e-17
8565.94692 1.03686e-17
8568.59112 1.28184e-17
8571.23532 1.30115e-17
8573.87952 1.21503e-17
8576.52372 1.28771e-17
8579.16792 1.32536e-17
8581.81212 1.33886e-17
8584.46649 1.42283e-17
8587.11069 1.40131e-17
8589.75489 1.31613e-17
8592.39909 1.39678e-17
8595.04329 1.48394e-17
8597.68749 1.37930e-17
8600.33169 1.33518e-17
8602.97589 1.55188e-17
8605.62009 1.76855e-17
8608.26429 1.84936e-17
8610.90849 1.82337e-17
8613.55269 1.66467e-17
8616.19689 1.59789e-17
8618.84109 1.53370e-17
8621.49546 1.49096e-17
8624.13966 1.68146e-17
8626.78386 1.92254e-17
8629.42806 1.90043e-17
8632.07226 1.92296e-17
8634.71646 1.85944e-17
8637.36066 1.71864e-17
8640.00486 1.78992e-17
8642.64906 2.02388e-17
8645.29326 2.01798e-17
8647.93746 1.84750e-17
8650.58166 1.98787e-17
8653.22586 2.26427e-17
8655.87006 2.26421e-17
8658.52443 2.16543e-17
8661.16863 2.19667e-17
8663.81283 2.19595e-17
8666.45703 2.15463e-17
8669.10123 2.16529e-17
8671.74543 2.32722e-17
8674.38963 2.28743e-17
8677.03383 2.23427e-17
8679.67803 2.39305e-17
8682.32223 2.34994e-17
8684.96643 2.19944e-17
8687.61063 2.19166e-17
8690.25483 2.23779e-17
8692.89903 2.22228e-17
8695.55340 2.30167e-17
8698.18743 2.47215e-17
8700.84180 2.39756e-17
8703.48600 2.19473e-17
8706.13020 2.19753e-17
8708.77440 2.24844e-17
8711.41860 2.10571e-17
8714.06280 2.00229e-17
8716.70700 1.91744e-17
8719.35120 1.83543e-17
8721.99540 1.97409e-17
8724.63960 1.93428e-17
8727.28380 1.97167e-17
8729.92800 1.97273e-17
8732.57220 1.78708e-17
8735.22657 1.86957e-17
8737.87077 1.81330e-17
8740.51497 1.66448e-17
8743.15917 1.69882e-17
8745.80337 1.83935e-17
8748.44757 1.83681e-17
8751.09177 1.86715e-17
8753.73597 1.88122e-17
8756.38017 1.86039e-17
8759.02437 2.05171e-17
8761.66857 1.96998e-17
8764.31277 1.70506e-17
8766.95697 1.65636e-17
8769.60117 1.60112e-17
8772.25554 1.53030e-17
8774.88957 1.62106e-17
8777.54394 1.79126e-17
8780.18814 1.86888e-17
8782.83234 2.01782e-17
8785.47654 2.13834e-17
8788.12074 2.07246e-17
8790.76494 2.07397e-17
8793.40914 2.00497e-17
8796.05334 1.98979e-17
8798.69754 1.98846e-17
8801.34174 2.04835e-17
8803.98594 2.15606e-17
8806.63014 2.16411e-17
8809.27434 2.01461e-17
8811.92871 2.04407e-17
8814.57291 2.18815e-17
8817.21711 2.13334e-17
8819.86131 2.13381e-17
8822.50551 2.07287e-17
8825.14971 1.74857e-17
8827.79391 1.64653e-17
8830.43811 1.86201e-17
8833.08231 2.19661e-17
8835.72651 2.70908e-17
8838.37071 2.86956e-17
8841.01491 2.70739e-17
8843.65911 2.69707e-17
8846.30331 2.22890e-17
8848.95768 1.88625e-17
8851.59171 2.03088e-17
8854.24608 2.03820e-17
8856.89028 1.89472e-17
8859.53448 2.13385e-17
8862.17868 2.54301e-17
8864.82288 2.66959e-17
8867.46708 2.65474e-17
8870.11128 2.65800e-17
8872.75548 2.64553e-17
8875.39968 2.53350e-17
8878.04388 2.25447e-17
8880.68808 2.06441e-17
8883.33228 2.14663e-17
8885.97648 2.10247e-17
8888.63085 1.55315e-17
8891.27505 1.09838e-17
8893.91925 9.09129e-18
8896.56345 4.36125e-18
8899.20765 3.33276e-18
8901.85185 6.47480e-18
8904.49605 1.12899e-17
8907.14025 1.65477e-17
8909.78445 1.78508e-17
8912.42865 1.96424e-17
8915.07285 2.14360e-17
8917.71705 2.35197e-17
8920.36125 2.33130e-17
8923.00545 2.03688e-17
8925.65982 1.73144e-17
8928.30402 1.91537e-17
8930.94822 2.29791e-17
8933.59242 1.99530e-17
8936.23662 1.50708e-17
8938.88082 1.47318e-17
8941.52502 1.68927e-17
8944.16922 1.77185e-17
8946.81342 1.72795e-17
8949.45762 1.96181e-17
8952.10182 1.98709e-17
8954.74602 1.45256e-17
8957.39022 7.43435e-18
8960.03442 3.68177e-18
8962.68879 2.01805e-18
8965.33299 -8.40342e-19
8967.97719 -2.85168e-19
8970.62139 4.65476e-18
8973.26559 8.52850e-18
8975.90979 8.41893e-18
8978.55399 7.77125e-18
8981.19819 7.77396e-18
8983.84239 7.20065e-18
8986.48659 7.40820e-18
8989.13079 7.17174e-18
8991.77499 5.68202e-18
8994.41919 5.34936e-18
8997.06339 7.03513e-18
8999.70759 8.70746e-18
9002.36196 7.92127e-18
9005.00616 5.77150e-18
9007.65036 4.96804e-18
9010.29456 5.84865e-18
9012.93876 7.78373e-18
9015.58296 9.47391e-18
9018.22716 8.11720e-18
9020.87136 6.10962e-18
9023.51556 6.28901e-18
9026.15976 6.80426e-18
9028.80396 6.73518e-18
9031.44816 7.33916e-18
9034.09236 7.27407e-18
9036.73656 6.08291e-18
9039.39093 5.56167e-18
9042.03513 5.68152e-18
9044.67933 5.58760e-18
9047.32353 5.31195e-18
9049.96773 5.34956e-18
9052.61193 6.30497e-18
9055.25613 6.89719e-18
9057.90033 6.04183e-18
9060.54453 4.92558e-18
9063.18873 4.55177e-18
9065.83293 5.36290e-18
9068.47713 6.14618e-18
9071.12133 7.08069e-18
9073.76553 7.84856e-18
9076.40973 8.08442e-18
9079.05393 7.21953e-18
9081.70830 6.30367e-18
9084.35250 5.43078e-18
9086.99670 5.19191e-18
9089.64090 6.28516e-18
9092.28510 6.50352e-18
9094.92930 5.58352e-18
9097.57350 5.32143e-18
9100.21770 5.24914e-18
9102.86190 4.71483e-18
9105.50610 4.79737e-18
9108.15030 6.16418e-18
9110.79450 7.16237e-18
9113.43870 7.03791e-18
9116.09307 7.02381e-18
9118.73727 6.54339e-18
9121.38147 5.58987e-18
9124.02567 4.18205e-18
9126.66987 4.92601e-18
9129.31407 6.52015e-18
9131.95827 5.61854e-18
9134.60247 4.53427e-18
9137.24667 4.88087e-18
9139.89087 4.28715e-18
9142.53507 3.35083e-18
9145.17927 3.88604e-18
9147.82347 4.98505e-18
9150.46767 5.82004e-18
9153.11187 6.30609e-18
9155.75607 5.82450e-18
9158.41044 4.00845e-18
9161.05464 3.41155e-18
9163.69884 5.43830e-18
9166.34304 6.19028e-18
9168.98724 5.97792e-18
9171.63144 5.79624e-18
9174.27564 5.18259e-18
9176.91984 5.10353e-18
9179.56404 5.06385e-18
9182.20824 3.99582e-18
9184.85244 4.20260e-18
9187.49664 5.48031e-18
9190.14084 6.24753e-18
9192.78504 6.02707e-18
9195.43941 5.84203e-18
9198.08361 5.68959e-18
9200.72781 5.17729e-18
9203.37201 6.18975e-18
9206.01621 7.45063e-18
9208.66041 6.68635e-18
9211.30461 6.08575e-18
9213.94881 5.64960e-18
9216.59301 5.64313e-18
9219.23721 5.78146e-18
9221.88141 5.45535e-18
9224.52561 6.96438e-18
9227.16981 7.36800e-18
9229.81401 7.47316e-18
9232.46838 6.21329e-18
9235.11258 5.35881e-18
9237.75678 5.69296e-18
9240.40098 5.16851e-18
9243.04518 4.73664e-18
9245.68938 5.06719e-18
9248.33358 5.12963e-18
9250.97778 4.12733e-18
9253.62198 3.99929e-18
9256.26618 6.01784e-18
9258.91038 7.29522e-18
9261.55458 6.49150e-18
9264.19878 5.43837e-18
9266.84298 7.10828e-18
9269.48718 7.07196e-18
9272.14155 5.69920e-18
9274.78575 6.46279e-18
9277.42995 7.18753e-18
9280.07415 6.58607e-18
9282.71835 4.88066e-18
9285.36255 5.89082e-18
9288.00675 6.57078e-18
9290.65095 6.20734e-18
9293.29515 5.16092e-18
9295.93935 4.20883e-18
9298.58355 5.09496e-18
9301.22775 6.12149e-18
9303.87195 7.56484e-18
9306.52632 9.68011e-18
9309.17052 1.12799e-17
9311.81472 1.29385e-17
9314.45892 1.21227e-17
9317.10312 9.16843e-18
9319.74732 7.01478e-18
9322.39152 5.85279e-18
9325.03572 6.76814e-18
9327.67992 8.55461e-18
9330.32412 8.91953e-18
9332.96832 6.81231e-18
9335.61252 4.72162e-18
9338.25672 5.25151e-18
9340.90092 4.40756e-18
9343.55529 2.80560e-18
9346.18932 2.85776e-18
9348.84369 3.79611e-18
9351.48789 5.19493e-18
9354.13209 5.77260e-18
9356.77629 5.14781e-18
9359.42049 3.73815e-18
9362.06469 3.73664e-18
9364.70889 3.39741e-18
9367.35309 4.44357e-18
9368.78688 4.44357e-18
9370.78529 4.40154e-18
9372.78371 4.49279e-18
9374.79221 4.80986e-18
9376.79063 5.13968e-18
9378.78904 5.28009e-18
9380.78746 5.27769e-18
9382.78587 5.09646e-18
9384.79438 4.83364e-18
9386.79279 4.58985e-18
9388.79120 4.47770e-18
9390.78962 4.41461e-18
9392.78803 4.35781e-18
9394.79654 4.32918e-18
9396.79495 4.35007e-18
9398.79337 4.38603e-18
9400.79178 4.38594e-18
9402.80029 4.34703e-18
9404.79870 4.35020e-18
9406.79712 4.51374e-18
9408.79553 4.68184e-18
9410.79394 4.73839e-18
9412.80245 4.72166e-18
9414.80086 4.68008e-18
9416.79928 4.63397e-18
9418.79769 4.55504e-18
9420.79611 4.43219e-18
9422.80461 4.33574e-18
9424.80303 4.36498e-18
9426.80144 4.44517e-18
9428.79986 4.54871e-18
9430.80836 4.61548e-18
9432.80678 4.60571e-18
9434.80519 4.48297e-18
9436.80361 4.34634e-18
9438.80202 4.30871e-18
9440.81053 4.32465e-18
9442.80894 4.42495e-18
9444.80735 4.53180e-18
9446.80577 4.56476e-18
9448.81428 4.47393e-18
9450.81269 4.34327e-18
9452.81110 4.22571e-18
9454.80952 4.18282e-18
9456.80793 4.38237e-18
9458.81644 4.62131e-18
9460.81485 4.67994e-18
9462.81327 4.50220e-18
9464.81168 4.27961e-18
9466.81009 4.18358e-18
9468.81860 4.17609e-18
9470.81702 4.33650e-18
9472.81543 4.56458e-18
9474.81384 4.82726e-18
9476.82235 5.02029e-18
9478.82076 5.08286e-18
9480.81918 4.93187e-18
9482.81759 4.70087e-18
9484.81601 4.47421e-18
9486.82451 4.30783e-18
9488.82293 4.29374e-18
9490.82134 4.38306e-18
9492.81976 4.50858e-18
9494.81817 4.57814e-18
9496.82668 4.57439e-18
9498.82509 4.37300e-18
9500.82350 4.14225e-18
9502.82192 3.97154e-18
9504.83043 3.89147e-18
9506.82884 3.91448e-18
9508.82725 4.02058e-18
9510.82567 4.15185e-18
9512.82408 4.23211e-18
9514.83259 4.27012e-18
9516.83100 4.19946e-18
9518.82942 4.11922e-18
9520.82783 4.13182e-18
9522.82624 4.22738e-18
9524.83475 4.30705e-18
9526.83317 4.27968e-18
9528.83158 4.20195e-18
9530.82999 4.05839e-18
9532.83850 3.92749e-18
9534.83691 3.88913e-18
9536.83533 3.91576e-18
9538.83374 3.93607e-18
9540.83216 3.89516e-18
9542.84066 3.83334e-18
9544.83908 3.75156e-18
9546.83749 3.69228e-18
9548.83591 3.70775e-18
9550.83432 3.76478e-18
9552.84283 3.82949e-18
9554.84124 3.86216e-18
9556.83965 3.86116e-18
9558.83807 3.79520e-18
9560.84658 3.71292e-18
9562.84499 3.65485e-18
9564.84340 3.60579e-18
9566.84182 3.54817e-18
9568.84023 3.47845e-18
9570.84874 3.40269e-18
9572.84715 3.32752e-18
9574.84557 3.26992e-18
9576.84398 3.24827e-18
9578.84239 3.26934e-18
9580.85090 3.36451e-18
9582.84931 3.49018e-18
9584.84773 3.59727e-18
9586.84614 3.62748e-18
9588.85465 3.60909e-18
9590.85306 3.51617e-18
9592.85148 3.41556e-18
9594.84989 3.34237e-18
9596.84831 3.32323e-18
9598.85681 3.37646e-18
9600.85523 3.49127e-18
9602.85364 3.61085e-18
9604.85206 3.65820e-18
9606.86056 3.66565e-18
9608.85898 3.59896e-18
9610.85739 3.53517e-18
9612.85580 3.55437e-18
9614.85422 3.66204e-18
9616.86273 3.77821e-18
9618.86114 3.82388e-18
9620.85955 3.82023e-18
9622.85797 3.71708e-18
9624.85638 3.60006e-18
9626.86489 3.52989e-18
9628.86330 3.53065e-18
9630.86172 3.58812e-18
9632.86013 3.68110e-18
9634.86864 3.74870e-18
9636.86705 3.63896e-18
9638.86547 3.52721e-18
9640.86388 3.53849e-18
9642.86229 3.63725e-18
9644.87080 3.73988e-18
9646.86921 3.78451e-18
9648.86763 3.80125e-18
9650.86604 3.78433e-18
9652.86446 3.75156e-18
9654.87296 3.70257e-18
9656.87138 3.66861e-18
9658.86979 3.68042e-18
9660.86821 3.74037e-18
9662.87671 3.81218e-18
9664.87513 3.85828e-18
9666.87354 3.88650e-18
9668.87195 3.88380e-18
9670.87037 3.86089e-18
9672.87888 3.81511e-18
9674.87729 3.76866e-18
9676.87570 3.74270e-18
9678.87412 3.76183e-18
9680.88262 3.79408e-18
9682.88104 3.81419e-18
9684.87945 3.82734e-18
9686.87787 3.82655e-18
9688.87628 3.82316e-18
9690.88479 3.83682e-18
9692.88320 3.87094e-18
9694.88162 3.89287e-18
9696.88003 3.85457e-18
9698.87844 3.79515e-18
9700.88695 3.71617e-18
9702.88536 3.65149e-18
9704.88378 3.62593e-18
9706.88219 3.65528e-18
9708.89070 3.72106e-18
9710.88911 3.81518e-18
9712.88753 3.88891e-18
9714.88594 3.85561e-18
9716.88436 3.79709e-18
9718.89286 3.79557e-18
9720.89128 3.85045e-18
9722.88969 3.87872e-18
9724.88810 3.82091e-18
9726.89661 3.77982e-18
9728.89503 3.88870e-18
9730.89344 4.02524e-18
9732.89185 4.11477e-18
9734.89027 4.14068e-18
9736.89877 4.12734e-18
9738.89719 4.09800e-18
9740.89560 4.07946e-18
9742.89402 4.15068e-18
9744.89243 4.21737e-18
9746.90094 4.22507e-18
9748.89935 4.17547e-18
9750.89776 4.07262e-18
9752.89618 3.95054e-18
9754.90469 3.85540e-18
9756.90310 3.87059e-18
9758.90151 3.90323e-18
9760.89993 3.90021e-18
9762.89834 3.85743e-18
9764.90685 3.75779e-18
9766.90526 3.63466e-18
9768.90368 3.54345e-18
9770.90209 3.55053e-18
9772.90051 3.58292e-18
9774.90901 3.58301e-18
9776.90743 3.57833e-18
9778.90584 3.57784e-18
9780.90425 3.59728e-18
9782.91276 3.65372e-18
9784.91118 3.75093e-18
9786.90959 3.84270e-18
9788.90800 3.85641e-18
9790.90642 3.84283e-18
9792.91492 3.82352e-18
9794.91334 3.79479e-18
9796.91175 3.73309e-18
9798.91017 3.64636e-18
9800.91867 3.57111e-18
9802.91709 3.56107e-18
9804.91550 3.57632e-18
9806.91392 3.60858e-18
9808.91233 3.63991e-18
9810.92084 3.65282e-18
9812.91925 3.64941e-18
9814.91766 3.65934e-18
9816.91608 3.71097e-18
9818.91449 3.75173e-18
9820.92300 3.73421e-18
9822.92141 3.67240e-18
9824.91983 3.55593e-18
9826.91824 3.42117e-18
9828.92675 3.30155e-18
9830.92516 3.24279e-18
9832.92358 3.22281e-18
9834.92199 3.24421e-18
9836.92040 3.29846e-18
9838.92891 3.41327e-18
9840.92733 3.51920e-18
9842.92574 3.52893e-18
9844.92415 3.41692e-18
9846.92257 3.31239e-18
9848.93107 3.38545e-18
9850.92949 3.49148e-18
9852.92790 3.56859e-18
9854.92632 3.60440e-18
9856.93482 3.60345e-18
9858.93324 3.56696e-18
9860.93165 3.50547e-18
9862.93007 3.43115e-18
9864.92848 3.34955e-18
9866.93699 3.25137e-18
9868.93540 3.18340e-18
9870.93381 3.19977e-18
9872.93223 3.28070e-18
9874.94074 3.36378e-18
9876.93915 3.38988e-18
9878.93756 3.40346e-18
9880.93598 3.43614e-18
9882.93439 3.45773e-18
9884.94290 3.45251e-18
9886.94131 3.41417e-18
9888.93973 3.32975e-18
9890.93814 3.21794e-18
9892.93655 3.13630e-18
9894.94506 3.20381e-18
9896.94348 3.28709e-18
9898.94189 3.29806e-18
9900.94030 3.26532e-18
9902.94881 3.24165e-18
9904.94722 3.24474e-18
9906.94564 3.23607e-18
9908.94405 3.17936e-18
9910.94247 3.14992e-18
9912.95097 3.23607e-18
9914.94939 3.36925e-18
9916.94780 3.51755e-18
9918.94621 3.61515e-18
9920.95472 3.62228e-18
9922.95314 3.48593e-18
9924.95155 3.33016e-18
9926.94996 3.29776e-18
9928.94838 3.30694e-18
9930.95689 3.31486e-18
9932.95530 3.31436e-18
9934.95371 3.33577e-18
9936.95213 3.37664e-18
9938.95054 3.39248e-18
9940.95905 3.26628e-18
9942.95746 3.17204e-18
9944.95588 3.25796e-18
9946.95429 3.44062e-18
9948.96280 3.63662e-18
9950.96121 3.73035e-18
9952.95963 3.68276e-18
9954.95804 3.34291e-18
9956.95645 3.01645e-18
9958.96496 2.99926e-18
9960.96337 3.14249e-18
9962.96179 3.32985e-18
9964.96020 3.45023e-18
9966.95862 3.49135e-18
9968.96712 3.39001e-18
9970.96554 3.26841e-18
9972.96395 3.25932e-18
9974.96236 3.28372e-18
9976.97087 3.27428e-18
9978.96929 3.25605e-18
9980.96770 3.31241e-18
9982.96611 3.47620e-18
9984.96453 3.62348e-18
9986.97304 3.56728e-18
9988.97145 3.45698e-18
9990.96986 3.35243e-18
9992.96828 3.26879e-18
9994.97678 3.17684e-18
9996.97520 3.09034e-18
9998.97361 3.04299e-18
10000.97203 3.09482e-18
10002.97044 3.17451e-18
