# wavelength flux
3202.23807 4.85239e-17
3204.96363 4.21201e-17
3207.68919 4.35092e-17
3210.40458 4.48913e-17
3213.13014 1.90098e-17
3215.85570 3.31107e-17
3218.58126 5.38370e-17
3221.29665 -2.08148e-17
3224.02221 5.32302e-18
3226.74777 5.34030e-17
3229.47333 5.14393e-17
3232.18872 1.31774e-17
3234.91428 -2.06758e-17
3237.63984 4.81559e-17
3240.36540 3.97892e-17
3243.08079 -2.00574e-17
3245.80635 5.09202e-17
3248.53191 5.12860e-17
3251.25747 4.74614e-17
3253.97286 4.54555e-17
3256.69842 -1.46684e-17
3259.42398 -2.13949e-17
3262.14954 2.19346e-19
3264.86493 6.22674e-18
3267.59049 -2.10123e-17
3270.31605 1.85281e-17
3273.04161 3.03221e-17
3275.76717 4.83305e-17
3278.48256 4.86534e-17
3281.20812 1.50633e-17
3283.93368 2.13086e-17
3286.65924 -2.22173e-17
3289.37463 -1.16973e-18
3292.10019 4.03918e-17
3294.82575 4.16991e-17
3297.55131 1.32404e-17
3300.26670 5.16965e-17
3302.99226 4.98441e-17
3305.71782 3.68680e-17
3308.44338 4.72766e-17
3311.15877 4.58106e-17
3313.88433 3.83589e-17
3316.60989 2.28934e-17
3319.33545 -1.01379e-17
3322.05084 2.86466e-17
3324.77640 3.03882e-17
3327.50196 2.96236e-17
3330.22752 3.87095e-17
3332.94291 1.10980e-18
3335.66847 3.15894e-18
3338.39403 3.82937e-17
3341.11959 5.31550e-18
3343.83498 2.22197e-17
3346.56054 -1.46870e-17
3349.28610 2.42000e-17
3352.01166 3.92531e-17
3354.73722 3.25082e-17
3357.45261 1.52739e-17
3360.17817 4.62187e-18
3362.90373 1.06367e-17
3365.62929 9.92427e-18
3368.34468 1.94817e-17
3371.07024 1.20046e-17
3373.79580 -9.93773e-18
3376.52136 2.57377e-17
3379.23675 -7.40559e-19
3381.96231 2.29902e-17
3384.68787 1.17220e-17
3387.41343 -2.09931e-17
3390.12882 2.25833e-18
3392.85438 1.27103e-17
3395.57994 -1.95209e-18
3398.30550 1.67172e-17
3401.02089 1.24317e-17
3403.74645 3.37063e-18
3406.47201 5.76166e-18
3409.19757 6.68270e-18
3411.91296 1.47256e-18
3414.63852 3.14214e-18
3417.36408 -6.22888e-18
3420.08964 3.91482e-18
3422.80503 1.73189e-17
3425.53059 3.23777e-17
3428.25615 2.68568e-17
3430.98171 7.25463e-18
3433.69710 8.69293e-18
3436.42266 1.12103e-17
3439.14822 1.58304e-17
3441.87378 1.48519e-17
3444.59934 9.72549e-18
3447.31473 1.98503e-17
3450.04029 2.72967e-17
3452.76585 1.83809e-17
3455.49141 1.47166e-17
3458.20680 1.70419e-17
3460.93236 1.45371e-17
3463.65792 1.95302e-18
3466.38348 -7.54418e-18
3469.09887 1.84670e-17
3471.82443 1.26564e-17
3474.54999 6.33788e-18
3477.27555 1.76042e-17
3479.99094 1.26094e-17
3482.71650 -2.04701e-18
3485.44206 1.85237e-18
3488.16762 -6.26728e-18
3490.88301 6.27237e-18
3493.60857 1.33599e-17
3496.33413 2.09173e-18
3499.05969 4.41749e-18
3501.77508 1.53507e-17
3504.50064 1.50813e-17
3507.22620 1.70261e-17
3509.95176 3.42334e-18
3512.66715 -5.01192e-18
3515.39271 4.24019e-18
3518.11827 1.32719e-18
3520.84383 3.05726e-18
3523.55922 1.56339e-18
3526.28478 7.00195e-19
3529.01034 6.97574e-19
3531.73590 2.50316e-18
3534.46146 9.78564e-18
3537.17685 1.15995e-17
3539.90241 3.15925e-18
3542.62797 1.74391e-17
3545.35353 3.96605e-18
3548.06892 4.87043e-18
3550.79448 7.03563e-18
3553.52004 1.39326e-17
3556.24560 9.71089e-18
3558.96099 1.90386e-17
3561.68655 1.51330e-17
3564.41211 2.74042e-18
3567.13767 1.47763e-17
3569.85306 7.12061e-18
3572.57862 7.37930e-18
3575.30418 1.19544e-17
3578.02974 1.21638e-17
3580.74513 1.20356e-17
3583.47069 8.15962e-18
3586.19625 -3.10626e-18
3588.92181 9.31106e-18
3591.63720 1.49800e-17
3594.36276 1.15962e-17
3597.08832 1.17726e-17
3599.81388 9.16707e-18
3602.52927 6.70990e-18
3605.25483 7.69883e-18
3607.98039 4.62176e-18
3610.70595 -2.23737e-18
3613.42134 1.55395e-18
3616.14690 6.50001e-18
3618.87246 4.54461e-18
3621.59802 4.04414e-18
3624.32358 8.91126e-18
3627.03897 9.09135e-18
3629.76453 1.27523e-17
3632.49009 7.68017e-18
3635.21565 2.01431e-18
3637.93104 4.16749e-18
3640.65660 1.20565e-17
3643.38216 1.00162e-17
3646.10772 1.77304e-17
3648.82311 6.32689e-18
3651.54867 1.22340e-18
3654.27423 1.47294e-17
3656.99979 7.73617e-18
3659.71518 5.38681e-18
3662.44074 8.93351e-18
3665.16630 7.73771e-18
3667.89186 9.62487e-18
3670.60725 1.11229e-17
3673.33281 1.53897e-17
3676.05837 1.28545e-17
3678.78393 8.93030e-18
3681.49932 1.42014e-17
3684.22488 9.36105e-18
3686.95044 1.14854e-17
3689.67600 1.15765e-17
3692.39139 1.21126e-17
3695.11695 1.21792e-17
3697.84251 7.78049e-18
3700.56807 1.11853e-17
3703.29363 1.02936e-17
3706.00902 1.12057e-17
3708.73458 1.09094e-17
3711.46014 7.43052e-18
3714.18570 1.13253e-17
3716.90109 1.44219e-17
3719.62665 8.66467e-18
3722.35221 4.22513e-18
3725.07777 7.97939e-18
3727.79316 4.12274e-18
3730.51872 9.85949e-18
3733.24428 1.26357e-17
3735.96984 1.13103e-17
3738.68523 9.22553e-18
3741.41079 5.86832e-18
3744.13635 3.91705e-18
3746.86191 9.42391e-18
3749.57730 1.23092e-17
3752.30286 8.62089e-18
3755.02842 8.45268e-18
3757.75398 1.27105e-17
3760.46937 1.01582e-17
3763.19493 5.40689e-18
3765.92049 1.04203e-17
3768.64605 7.37309e-18
3771.36144 5.32896e-18
3774.08700 3.98604e-18
3776.81256 9.48618e-18
3779.53812 1.07792e-17
3782.25351 1.00888e-17
3784.97907 7.48667e-18
3787.70463 4.67741e-18
3790.43019 4.37645e-18
3793.15575 8.89997e-18
3795.87114 1.25999e-17
3798.59670 1.03622e-17
3801.32226 9.25847e-18
3804.04782 1.14919e-17
3806.76321 7.54160e-18
3809.48877 9.85429e-18
3812.21433 8.80072e-18
3814.93989 1.20718e-17
3817.65528 1.17815e-17
3820.38084 9.04091e-18
3823.10640 9.74154e-18
3825.83196 1.17790e-17
3828.54735 1.37996e-17
3831.27291 1.26267e-17
3833.99847 1.05078e-17
3836.72403 1.30391e-17
3839.43942 1.14929e-17
3842.16498 1.10055e-17
3844.89054 1.09347e-17
3847.61610 1.25815e-17
3850.33149 1.35011e-17
3853.05705 1.23840e-17
3855.78261 1.15763e-17
3858.50817 9.12816e-18
3861.22356 1.05071e-17
3863.94912 9.80004e-18
3866.67468 1.12527e-17
3869.40024 7.43948e-18
3872.11563 8.39641e-18
3874.84119 5.79049e-18
3877.56675 1.20725e-17
3880.29231 1.42984e-17
3883.00770 1.10789e-17
3885.73326 7.71439e-18
3888.45882 8.14047e-18
3891.18438 1.06928e-17
3893.90994 8.58290e-18
3896.62533 8.13988e-18
3899.35089 1.19135e-17
3902.07645 1.07502e-17
3904.80201 8.15623e-18
3907.51740 1.13559e-17
3910.24296 1.20060e-17
3912.96852 1.04341e-17
3915.69408 9.37464e-18
3918.40947 1.30649e-17
3921.13503 9.73774e-18
3923.86059 1.33797e-17
3926.58615 1.32379e-17
3929.30154 1.10630e-17
3932.02710 1.07076e-17
3934.75266 1.09997e-17
3937.47822 1.08188e-17
3940.19361 1.08589e-17
3942.91917 8.16314e-18
3945.64473 7.56391e-18
3948.37029 8.80911e-18
3951.08568 9.73682e-18
3953.81124 1.23470e-17
3956.53680 1.15503e-17
3959.26236 1.02616e-17
3961.97775 9.15388e-18
3964.70331 1.04776e-17
3967.42887 1.13709e-17
3970.15443 1.14089e-17
3972.87999 8.78162e-18
3975.59538 1.02474e-17
3978.32094 1.02202e-17
3981.04650 9.92352e-18
3983.77206 1.00774e-17
3986.48745 1.27939e-17
3989.21301 1.48755e-17
3991.93857 1.60071e-17
3994.66413 1.46718e-17
3997.37952 1.46887e-17
4000.10508 1.28508e-17
4002.83064 9.37604e-18
4005.55620 8.20044e-18
4008.27159 1.17236e-17
4010.99715 1.48031e-17
4013.72271 1.26742e-17
4016.44827 1.27185e-17
4019.16366 1.33629e-17
4021.88922 1.32993e-17
4024.61478 1.43692e-17
4027.34034 1.46922e-17
4030.05573 1.10355e-17
4032.78129 1.16078e-17
4035.50685 1.02515e-17
4038.23241 1.02145e-17
4040.94780 1.28991e-17
4043.67336 1.39413e-17
4046.39892 1.24103e-17
4049.12448 1.26504e-17
4051.83987 1.20683e-17
4054.56543 1.14745e-17
4057.29099 1.10555e-17
4060.01655 1.35220e-17
4062.74211 1.17408e-17
4065.45750 1.04556e-17
4068.18306 1.05319e-17
4070.90862 1.20338e-17
4073.63418 1.27757e-17
4076.34957 1.00190e-17
4079.07513 1.04023e-17
4081.80069 1.11427e-17
4084.52625 1.15654e-17
4087.24164 9.79257e-18
4089.96720 1.01665e-17
4092.69276 1.17604e-17
4095.41832 1.18637e-17
4098.13371 1.46366e-17
4100.85927 1.39983e-17
4103.58483 1.31522e-17
4106.31039 1.53313e-17
4109.02578 1.46380e-17
4111.75134 1.57421e-17
4114.47690 1.57930e-17
4117.20246 1.32342e-17
4119.91785 1.33450e-17
4122.64341 1.42966e-17
4125.36897 1.44689e-17
4128.09453 1.19462e-17
4130.80992 1.10479e-17
4133.53548 1.20036e-17
4136.26104 1.02765e-17
4138.98660 1.08189e-17
4141.71216 1.17456e-17
4144.42755 1.26839e-17
4147.15311 1.00307e-17
4149.87867 1.23856e-17
4152.60423 1.54837e-17
4155.31962 1.36524e-17
4158.04518 1.17663e-17
4160.77074 1.17644e-17
4163.49630 1.15807e-17
4166.21169 9.83629e-18
4168.93725 1.05374e-17
4171.66281 1.11393e-17
4174.38837 1.00140e-17
4177.10376 1.08526e-17
4179.82932 1.34967e-17
4182.55488 1.03521e-17
4185.28044 1.03074e-17
4187.99583 1.30853e-17
4190.72139 1.02437e-17
4193.44695 1.07648e-17
4196.17251 1.25165e-17
4198.88790 1.18676e-17
4201.61346 1.10013e-17
4204.33902 1.27077e-17
4207.06458 1.26964e-17
4209.77997 1.21193e-17
4212.50553 1.23246e-17
4215.23109 1.28736e-17
4217.95665 1.23613e-17
4220.67204 1.19182e-17
4223.39760 1.32416e-17
4226.12316 1.56475e-17
4228.84872 1.44318e-17
4231.56411 1.44896e-17
4234.28967 1.39253e-17
4237.01523 1.30914e-17
4239.74079 1.33537e-17
4242.46635 1.42626e-17
4245.18174 1.40070e-17
4247.90730 1.37213e-17
4250.63286 1.22024e-17
4253.35842 1.46357e-17
4256.07381 1.54632e-17
4258.79937 1.26821e-17
4261.52493 1.32546e-17
4264.25049 1.22489e-17
4266.96588 1.06251e-17
4269.69144 1.09481e-17
4272.41700 1.35231e-17
4275.14256 1.43806e-17
4277.85795 1.32098e-17
4280.58351 1.27544e-17
4283.30907 1.30852e-17
4286.03463 1.35022e-17
4288.75002 1.32723e-17
4291.47558 1.58014e-17
4294.20114 1.49162e-17
4296.92670 1.53310e-17
4299.64209 1.30455e-17
4302.36765 1.24425e-17
4305.09321 1.44612e-17
4307.81877 1.50282e-17
4310.53416 1.46606e-17
4313.25972 1.31907e-17
4315.98528 1.28543e-17
4318.71084 1.36515e-17
4321.42623 1.27623e-17
4324.15179 1.10157e-17
4326.87735 1.10290e-17
4329.60291 1.34160e-17
4332.32847 1.39316e-17
4335.04386 1.39630e-17
4337.76942 1.15977e-17
4340.49498 1.25522e-17
4343.22054 1.30612e-17
4345.93593 1.22863e-17
4348.66149 1.28830e-17
4351.38705 1.31765e-17
4354.11261 1.50436e-17
4356.82800 1.37858e-17
4359.55356 1.20461e-17
4362.27912 1.16594e-17
4365.00468 1.22241e-17
4367.72007 1.21513e-17
4370.44563 1.29061e-17
4373.17119 1.33222e-17
4375.89675 1.25992e-17
4378.61214 1.19141e-17
4381.33770 1.16578e-17
4384.06326 1.14548e-17
4386.78882 1.32796e-17
4389.50421 1.25513e-17
4392.22977 1.30011e-17
4394.95533 1.38156e-17
4397.68089 1.24590e-17
4400.39628 1.26919e-17
4403.12184 1.33734e-17
4405.84740 1.20893e-17
4408.57296 1.20200e-17
4411.29852 1.28898e-17
4414.01391 1.18406e-17
4416.73947 1.32496e-17
4419.46503 1.19524e-17
4422.19059 1.27118e-17
4424.90598 1.24627e-17
4427.63154 1.07812e-17
4430.35710 1.11076e-17
4433.08266 1.32494e-17
4435.79805 1.32550e-17
4438.52361 1.16162e-17
4441.24917 1.21486e-17
4443.97473 1.15193e-17
4446.69012 1.14323e-17
4449.41568 1.12660e-17
4452.14124 1.11362e-17
4454.86680 1.44511e-17
4457.58219 1.31946e-17
4460.30775 1.20595e-17
4463.03331 1.25084e-17
4465.75887 1.32100e-17
4468.47426 1.24573e-17
4471.19982 1.28258e-17
4473.92538 1.27068e-17
4476.65094 1.19070e-17
4479.36633 1.16379e-17
4482.09189 1.17844e-17
4484.81745 1.17737e-17
4487.54301 1.19520e-17
4490.26857 1.22897e-17
4492.98396 1.24408e-17
4495.70952 1.09114e-17
4498.43508 1.13153e-17
4501.16064 1.30392e-17
4503.87603 1.20556e-17
4506.60159 1.14096e-17
4509.32715 9.96979e-18
4512.05271 1.03249e-17
4514.76810 8.63721e-18
4517.49366 8.26347e-18
4520.21922 1.08177e-17
4522.94478 1.13910e-17
4525.66017 8.11607e-18
4528.38573 9.53070e-18
4531.11129 1.03964e-17
4533.83685 9.55363e-18
4536.55224 1.14487e-17
4539.27780 1.28143e-17
4542.00336 1.36456e-17
4544.72892 1.31724e-17
4547.44431 1.24146e-17
4550.16987 1.30308e-17
4552.89543 1.25143e-17
4555.62099 1.31783e-17
4558.33638 1.23570e-17
4561.06194 1.32489e-17
4563.78750 1.30512e-17
4566.51306 1.21705e-17
4569.22845 1.27788e-17
4571.95401 1.47963e-17
4574.67957 1.26458e-17
4577.40513 1.40772e-17
4580.12052 1.32164e-17
4582.84608 1.17575e-17
4585.57164 1.21971e-17
4588.29720 1.29198e-17
4591.01259 1.32686e-17
4593.73815 1.20100e-17
4596.46371 1.23278e-17
4599.18927 1.10015e-17
4601.91483 1.43375e-17
4604.63022 1.36340e-17
4607.35578 1.18336e-17
4610.08134 1.42647e-17
4612.80690 1.37727e-17
4615.52229 1.27324e-17
4618.24785 1.31269e-17
4620.97341 1.39450e-17
4623.69897 1.50972e-17
4626.41436 1.46694e-17
4629.13992 1.41222e-17
4631.86548 1.33782e-17
4634.59104 1.30302e-17
4637.30643 1.32191e-17
4640.03199 1.43576e-17
4642.75755 1.38916e-17
4645.48311 1.25458e-17
4648.19850 1.30418e-17
4650.92406 1.37364e-17
4653.64962 1.42421e-17
4656.37518 1.44766e-17
4659.09057 1.56115e-17
4661.81613 1.49310e-17
4664.54169 1.50329e-17
4667.26725 1.49968e-17
4669.99281 1.59047e-17
4672.70820 1.44518e-17
4675.43376 1.50609e-17
4678.15932 1.46819e-17
4680.88488 1.52082e-17
4683.60027 1.41430e-17
4686.32583 1.48198e-17
4689.05139 1.73342e-17
4691.77695 1.65869e-17
4694.49234 1.50168e-17
4697.21790 1.48753e-17
4699.94346 1.53472e-17
4702.66902 1.46969e-17
4705.38441 1.55277e-17
4708.10997 1.65006e-17
4710.83553 1.67261e-17
4713.56109 1.62110e-17
4716.27648 1.73818e-17
4719.00204 1.60837e-17
4721.72760 1.54351e-17
4724.45316 1.61575e-17
4727.16855 1.64460e-17
4729.89411 1.62158e-17
4732.61967 1.51991e-17
4735.34523 1.60867e-17
4738.06062 1.55084e-17
4740.78618 1.47489e-17
4743.51174 1.49809e-17
4746.23730 1.48125e-17
4748.95269 1.65142e-17
4751.67825 1.48468e-17
4754.40381 1.52914e-17
4757.12937 1.66498e-17
4759.85493 1.59610e-17
4762.57032 1.43306e-17
4765.29588 1.44584e-17
4768.02144 1.26665e-17
4770.74700 1.17918e-17
4773.46239 1.27595e-17
4776.18795 1.41464e-17
4778.91351 1.43740e-17
4781.63907 1.52626e-17
4784.35446 1.43441e-17
4787.08002 1.59999e-17
4789.80558 1.61035e-17
4792.53114 1.47774e-17
4795.24653 1.52401e-17
4797.97209 1.49534e-17
4800.69765 1.40377e-17
4803.42321 1.49530e-17
4806.13860 1.49437e-17
4808.86416 1.39911e-17
4811.58972 1.43319e-17
4814.31528 1.55092e-17
4817.03067 1.52027e-17
4819.75623 1.46465e-17
4822.48179 1.48031e-17
4825.20735 1.58392e-17
4827.92274 1.41953e-17
4830.64830 1.33889e-17
4833.37386 1.40318e-17
4836.09942 1.33626e-17
4838.81481 1.40014e-17
4841.54037 1.43936e-17
4844.26593 1.40925e-17
4846.99149 1.33433e-17
4849.71705 1.21040e-17
4852.43244 1.26195e-17
4855.15800 1.21261e-17
4857.88356 1.23342e-17
4860.60912 1.28489e-17
4863.32451 1.32045e-17
4866.05007 1.24334e-17
4868.77563 1.25092e-17
4871.50119 1.27457e-17
4874.21658 1.24770e-17
4876.94214 1.24033e-17
4879.66770 1.22749e-17
4882.39326 1.31751e-17
4885.10865 1.23807e-17
4887.83421 1.33185e-17
4890.55977 1.30807e-17
4893.28533 1.28659e-17
4896.00072 1.45826e-17
4898.72628 1.39243e-17
4901.45184 1.29842e-17
4904.17740 1.35448e-17
4906.89279 1.50693e-17
4909.61835 1.41394e-17
4912.34391 1.25933e-17
4915.06947 1.29841e-17
4917.78486 1.33494e-17
4920.51042 1.29864e-17
4923.23598 1.39995e-17
4925.96154 1.37175e-17
4928.67693 1.29891e-17
4931.40249 1.42288e-17
4934.12805 1.46111e-17
4936.85361 1.36625e-17
4939.57917 1.21475e-17
4942.29456 1.10852e-17
4945.02012 1.16235e-17
4947.74568 1.21306e-17
4950.47124 1.22214e-17
4953.18663 1.24317e-17
4955.91219 1.34128e-17
4958.63775 1.27099e-17
4961.36331 1.26298e-17
4964.07870 1.29509e-17
4966.80426 1.34055e-17
4969.52982 1.22454e-17
4972.25538 1.17375e-17
4974.97077 1.18133e-17
4977.69633 1.22162e-17
4980.42189 1.30421e-17
4983.14745 1.21157e-17
4985.86284 1.37167e-17
4988.58840 1.41664e-17
4991.31396 1.49851e-17
4994.03952 1.65578e-17
4996.75491 1.66134e-17
4999.48047 1.69164e-17
5002.20603 1.71447e-17
5004.93159 1.72207e-17
5007.64698 1.75765e-17
5010.37254 1.72795e-17
5013.09810 1.57546e-17
5015.82366 1.64748e-17
5018.53905 1.69201e-17
5021.26461 1.57524e-17
5023.99017 1.48740e-17
5026.71573 1.46468e-17
5029.44129 1.46451e-17
5032.15668 1.34136e-17
5034.88224 1.32658e-17
5037.60780 1.24706e-17
5040.33336 1.21867e-17
5043.04875 1.17661e-17
5045.77431 1.17959e-17
5048.49987 1.25581e-17
5051.22543 1.29414e-17
5053.94082 1.18666e-17
5056.66638 1.07399e-17
5059.39194 1.12246e-17
5062.11750 1.09793e-17
5064.83289 1.17804e-17
5067.55845 1.17926e-17
5070.28401 1.14326e-17
5073.00957 1.26757e-17
5075.72496 1.13343e-17
5078.45052 1.28047e-17
5081.17608 1.41807e-17
5083.90164 1.51290e-17
5086.61703 1.58375e-17
5089.34259 1.49299e-17
5092.06815 1.55714e-17
5094.79371 1.54871e-17
5097.50910 1.56996e-17
5100.23466 1.65699e-17
5102.96022 1.65753e-17
5105.68578 1.71086e-17
5108.41134 1.85409e-17
5111.12673 1.89668e-17
5113.85229 1.80244e-17
5116.57785 1.91445e-17
5119.30341 1.80989e-17
5122.01880 1.86285e-17
5124.74436 1.74940e-17
5127.46992 1.75742e-17
5130.19548 1.66873e-17
5132.91087 1.65237e-17
5135.63643 1.66111e-17
5138.36199 1.61929e-17
5141.08755 1.69131e-17
5143.80294 1.72490e-17
5146.52850 1.47748e-17
5149.25406 1.51710e-17
5151.97962 1.57852e-17
5154.69501 1.41498e-17
5157.42057 1.32033e-17
5160.14613 1.50063e-17
5162.87169 1.33713e-17
5165.58708 1.35009e-17
5168.31264 1.42527e-17
5171.03820 1.34179e-17
5173.76376 1.24673e-17
5176.47915 1.28555e-17
5179.20471 1.20090e-17
5181.93027 1.29831e-17
5184.65583 1.35586e-17
5187.38139 1.33345e-17
5190.09678 1.30333e-17
5192.82234 1.25812e-17
5195.54790 1.17373e-17
5198.27346 1.22068e-17
5200.98885 1.32151e-17
5203.71441 1.26031e-17
5206.43997 1.22678e-17
5209.16553 1.15669e-17
5211.88092 1.02709e-17
5214.60648 1.15236e-17
5217.33204 1.34202e-17
5220.05760 1.18408e-17
5222.77299 1.24708e-17
5225.49855 1.27012e-17
5228.22411 1.31573e-17
5230.94967 1.33160e-17
5233.66506 1.18185e-17
5236.39062 1.21570e-17
5239.11618 1.36281e-17
5241.84174 1.49131e-17
5244.55713 1.47521e-17
5247.28269 1.44868e-17
5250.00825 1.44136e-17
5252.73381 1.41712e-17
5255.44920 1.29891e-17
5258.17476 1.42081e-17
5260.90032 1.43084e-17
5263.62588 1.40641e-17
5266.34127 1.44596e-17
5269.06683 1.44044e-17
5271.79239 1.61610e-17
5274.51795 1.42945e-17
5277.23334 1.44704e-17
5279.95890 1.37648e-17
5282.68446 1.46383e-17
5285.41002 1.38147e-17
5288.12541 1.40022e-17
5290.85097 1.41631e-17
5293.57653 1.44101e-17
5296.30209 1.41602e-17
5299.02765 1.40452e-17
5301.74304 1.35766e-17
5304.46860 1.41219e-17
5307.19416 1.51098e-17
5309.91972 1.36185e-17
5312.63511 1.39523e-17
5315.36067 1.57837e-17
5318.08623 1.49047e-17
5320.81179 1.44616e-17
5323.52718 1.41461e-17
5326.25274 1.40445e-17
5328.97830 1.46999e-17
5331.70386 1.47371e-17
5334.41925 1.40275e-17
5337.14481 1.48851e-17
5339.87037 1.50667e-17
5342.59593 1.43398e-17
5345.31132 1.53106e-17
5348.03688 1.42894e-17
5350.76244 1.49338e-17
5353.48800 1.53117e-17
5356.20339 1.52487e-17
5358.92895 1.45431e-17
5361.65451 1.41092e-17
5364.38007 1.39106e-17
5367.09546 1.44404e-17
5369.82102 1.49893e-17
5372.54658 1.33885e-17
5375.27214 1.36471e-17
5377.99770 1.62691e-17
5380.71309 1.69435e-17
5383.43865 1.52700e-17
5386.16421 1.56547e-17
5388.88977 1.65287e-17
5391.60516 1.52853e-17
5394.33072 1.52644e-17
5397.05628 1.55199e-17
5399.78184 1.61369e-17
5402.49723 1.64596e-17
5405.22279 1.59786e-17
5407.94835 1.66203e-17
5410.67391 1.63552e-17
5413.38930 1.56703e-17
5416.11486 1.60228e-17
5418.84042 1.68914e-17
5421.56598 1.57831e-17
5424.28137 1.45776e-17
5427.00693 1.49322e-17
5429.73249 1.64770e-17
5432.45805 1.62544e-17
5435.17344 1.59202e-17
5437.89900 1.67672e-17
5440.62456 1.64298e-17
5443.35012 1.63780e-17
5446.07568 1.64357e-17
5448.79107 1.64882e-17
5451.51663 1.57056e-17
5454.24219 1.59939e-17
5456.96775 1.60860e-17
5459.68314 1.56830e-17
5462.40870 1.57396e-17
5465.13426 1.61057e-17
5467.85982 1.57039e-17
5470.57521 1.62371e-17
5473.30077 1.56657e-17
5476.02633 1.61659e-17
5478.75189 1.67344e-17
5481.46728 1.62155e-17
5484.19284 1.59630e-17
5486.91840 1.70295e-17
5489.64396 1.71933e-17
5492.35935 1.65356e-17
5495.08491 1.54022e-17
5497.81047 1.58348e-17
5500.53603 1.59764e-17
5503.25142 1.56152e-17
5505.97698 1.67658e-17
5508.70254 1.68128e-17
5511.42810 1.55683e-17
5514.14349 1.55763e-17
5516.86905 1.43398e-17
5519.59461 1.43725e-17
5522.32017 1.53850e-17
5525.03556 1.60397e-17
5527.76112 1.63349e-17
5530.48668 1.63448e-17
5533.21224 1.53844e-17
5535.92763 1.49873e-17
5538.65319 1.53540e-17
5541.37875 1.56125e-17
5544.10431 1.50680e-17
5546.81970 1.52635e-17
5549.54526 1.45656e-17
5552.27082 1.46957e-17
5554.99638 1.47694e-17
5557.72194 1.50996e-17
5560.43733 1.43424e-17
5563.16289 1.47186e-17
5565.88845 1.42424e-17
5568.61401 1.45222e-17
5571.32940 1.55816e-17
5574.05496 1.44629e-17
5576.78052 1.40874e-17
5579.50608 1.41084e-17
5582.22147 1.40594e-17
5584.94703 1.47448e-17
5587.67259 1.56751e-17
5590.39815 1.68365e-17
5593.11354 1.54774e-17
5595.83910 1.54334e-17
5598.56466 1.63930e-17
5601.29022 1.52188e-17
5604.00561 1.65618e-17
5606.73117 1.63709e-17
5609.45673 1.60230e-17
5612.18229 1.60961e-17
5614.89768 1.64442e-17
5617.62324 1.56844e-17
5620.34880 1.68373e-17
5623.07436 1.62994e-17
5625.78975 1.60353e-17
5628.51531 1.70000e-17
5631.24087 1.71143e-17
5633.96643 1.61022e-17
5636.69199 1.56713e-17
5639.40738 1.66891e-17
5642.13294 1.65619e-17
5644.85850 1.56312e-17
5647.58406 1.54432e-17
5650.29945 1.54635e-17
5653.02501 1.42772e-17
5655.75057 1.49817e-17
5658.47613 1.59705e-17
5661.19152 1.44185e-17
5663.91708 1.34103e-17
5666.64264 1.38745e-17
5669.36820 1.41710e-17
5672.08359 1.33763e-17
5674.80915 1.30916e-17
5677.53471 1.31776e-17
5680.26027 1.20942e-17
5682.97566 1.12624e-17
5685.70122 1.14374e-17
5688.42678 1.11144e-17
5691.15234 1.10213e-17
5693.86773 1.16224e-17
5696.59329 1.09726e-17
5699.31885 1.01348e-17
5702.04441 9.81370e-18
5704.75980 1.14241e-17
5707.48536 1.11621e-17
5710.21092 1.00766e-17
5712.93648 1.04134e-17
5715.66204 1.10013e-17
5718.37743 1.00662e-17
5721.10299 1.01792e-17
5723.82855 1.05075e-17
5726.55411 1.05381e-17
5729.26950 1.13772e-17
5731.99506 1.16499e-17
5734.72062 1.13952e-17
5737.44618 1.16488e-17
5740.16157 1.10878e-17
5742.88713 1.12957e-17
5745.61269 1.18897e-17
5748.33825 1.03012e-17
5751.05364 1.02574e-17
5753.77920 1.11746e-17
5756.50476 1.06988e-17
5759.23032 1.20696e-17
5761.94571 1.23328e-17
5764.67127 1.14141e-17
5767.39683 1.13548e-17
5770.12239 1.25828e-17
5772.83778 1.14276e-17
5775.56334 1.14805e-17
5778.28890 1.12730e-17
5781.01446 1.18683e-17
5783.72985 1.15737e-17
5786.45541 1.09854e-17
5789.18097 1.12664e-17
5791.90653 1.19521e-17
5794.62192 1.05885e-17
5797.34748 1.10333e-17
5800.07304 1.12182e-17
5802.79860 1.13349e-17
5805.52416 1.04258e-17
5808.23955 1.03012e-17
5810.96511 1.04519e-17
5813.69067 9.38337e-18
5816.41623 9.36869e-18
5819.13162 9.88520e-18
5821.85718 9.85751e-18
5824.58274 8.93614e-18
5827.30830 8.67677e-18
5830.02369 1.00182e-17
5832.74925 1.06459e-17
5835.47481 9.68469e-18
5838.20037 9.04464e-18
5840.91576 9.12535e-18
5843.64132 8.35043e-18
5846.36688 8.85167e-18
5849.09244 9.17244e-18
5851.80783 7.93948e-18
5854.53339 8.30382e-18
5857.25895 7.98564e-18
5859.98451 7.64984e-18
5862.69990 7.33084e-18
5865.42546 8.03002e-18
5868.15102 8.48433e-18
5870.87658 7.24190e-18
5873.59197 7.46145e-18
5876.31753 8.61011e-18
5879.04309 9.02273e-18
5881.76865 7.94596e-18
5884.48404 6.68985e-18
5887.20960 6.73442e-18
5889.93516 7.88792e-18
5892.66072 8.54150e-18
5895.37611 7.38124e-18
5898.10167 7.33019e-18
5900.82723 7.63457e-18
5903.55279 8.87648e-18
5906.27835 8.05811e-18
5908.99374 8.79862e-18
5911.71930 7.54732e-18
5914.44486 8.34717e-18
5917.17042 9.41970e-18
5919.88581 9.98900e-18
5922.61137 1.06504e-17
5925.33693 1.05740e-17
5928.06249 1.01600e-17
5930.77788 9.71230e-18
5933.50344 1.05357e-17
5936.22900 1.16169e-17
5938.95456 1.07521e-17
5941.66995 1.09365e-17
5944.39551 1.11863e-17
5947.12107 1.11730e-17
5949.84663 1.27676e-17
5952.56202 1.34911e-17
5955.28758 1.38086e-17
5958.01314 1.40490e-17
5960.73870 1.51905e-17
5963.45409 1.63444e-17
5966.17965 1.61680e-17
5968.90521 1.65048e-17
5971.63077 1.79579e-17
5974.34616 1.78446e-17
5977.07172 1.85961e-17
5979.79728 1.93222e-17
5982.52284 1.83959e-17
5985.24840 1.88784e-17
5987.96379 1.99270e-17
5990.68935 1.99617e-17
5993.41491 1.81619e-17
5996.14047 1.78171e-17
5998.85586 1.79329e-17
6001.58142 1.76135e-17
6004.30698 1.81375e-17
6007.03254 1.73616e-17
6009.74793 1.77890e-17
6012.47349 1.84647e-17
6015.19905 1.79779e-17
6017.92461 1.80214e-17
6020.64000 1.75067e-17
6023.36556 1.56958e-17
6026.09112 1.68334e-17
6028.81668 1.69333e-17
6031.53207 1.56413e-17
6034.25763 1.43218e-17
6036.98319 1.46272e-17
6039.70875 1.43770e-17
6042.42414 1.48316e-17
6045.14970 1.42407e-17
6047.87526 1.51219e-17
6050.60082 1.44806e-17
6053.31621 1.40578e-17
6056.04177 1.38553e-17
6058.76733 1.36546e-17
6061.49289 1.37145e-17
6064.20828 1.27026e-17
6066.93384 1.30637e-17
6069.65940 1.29012e-17
6072.38496 1.25911e-17
6075.11052 1.19919e-17
6077.82591 1.19267e-17
6080.55147 1.14274e-17
6083.27703 1.12809e-17
6086.00259 1.14561e-17
6088.71798 1.09728e-17
6091.44354 1.09218e-17
6094.16910 1.16898e-17
6096.89466 1.10294e-17
6099.61005 1.01477e-17
6102.33561 1.06444e-17
6105.06117 1.01084e-17
6107.78673 9.87748e-18
6110.50212 1.04414e-17
6113.22768 9.75235e-18
6115.95324 9.39320e-18
6118.67880 9.79630e-18
6121.39419 1.07340e-17
6124.11975 1.08459e-17
6126.84531 1.05630e-17
6129.57087 1.08172e-17
6132.28626 9.99983e-18
6135.01182 1.04997e-17
6137.73738 1.02236e-17
6140.46294 9.75211e-18
6143.17833 9.74267e-18
6145.90389 1.02487e-17
6148.62945 1.04974e-17
6151.35501 1.06393e-17
6154.08057 9.54148e-18
6156.79596 9.94327e-18
6159.52152 9.63945e-18
6162.24708 9.53727e-18
6164.97264 9.71750e-18
6167.68803 9.77265e-18
6170.41359 1.08408e-17
6173.13915 1.04539e-17
6175.86471 1.08045e-17
6178.58010 1.01201e-17
6181.30566 1.04415e-17
6184.03122 1.01737e-17
6186.75678 1.08272e-17
6189.47217 1.00377e-17
6192.19773 9.27396e-18
6194.92329 1.02232e-17
6197.64885 1.11378e-17
6200.36424 1.09432e-17
6203.08980 1.15654e-17
6205.81536 1.07911e-17
6208.54092 1.02229e-17
6211.25631 1.06258e-17
6213.98187 1.04783e-17
6216.70743 1.14779e-17
6219.43299 1.19954e-17
6222.14838 1.08356e-17
6224.87394 1.06828e-17
6227.59950 1.18272e-17
6230.32506 1.18247e-17
6233.04045 1.19179e-17
6235.76601 1.26904e-17
6238.49157 1.21186e-17
6241.21713 1.25396e-17
6243.93252 1.26405e-17
6246.65808 1.20294e-17
6249.38364 1.21333e-17
6252.10920 1.21138e-17
6254.83476 1.23419e-17
6257.55015 1.16092e-17
6260.27571 1.14196e-17
6263.00127 1.12115e-17
6265.72683 1.12538e-17
6268.44222 1.07748e-17
6271.16778 1.08175e-17
6273.89334 1.10929e-17
6276.61890 1.05559e-17
6279.33429 1.05785e-17
6282.05985 1.03774e-17
6284.78541 1.09056e-17
6287.51097 1.14532e-17
6290.22636 1.12042e-17
6292.95192 1.09645e-17
6295.67748 1.17886e-17
6298.40304 1.11426e-17
6301.11843 1.01811e-17
6303.84399 1.13096e-17
6306.56955 1.20549e-17
6309.29511 1.14962e-17
6312.01050 1.08902e-17
6314.73606 1.15025e-17
6317.46162 1.19795e-17
6320.18718 1.17162e-17
6322.90257 1.17660e-17
6325.62813 1.18808e-17
6328.35369 1.19663e-17
6331.07925 1.19048e-17
6333.79464 1.19431e-17
6336.52020 1.21753e-17
6339.24576 1.27435e-17
6341.97132 1.33964e-17
6344.69688 1.28141e-17
6347.41227 1.21914e-17
6350.13783 1.26400e-17
6352.86339 1.23070e-17
6355.58895 1.24740e-17
6358.30434 1.15787e-17
6361.02990 1.15580e-17
6363.75546 1.20192e-17
6366.48102 1.16977e-17
6369.19641 1.11615e-17
6371.92197 1.18513e-17
6374.64753 1.14526e-17
6377.37309 1.01531e-17
6380.08848 1.02722e-17
6382.81404 1.09659e-17
6385.53960 1.12117e-17
6388.26516 1.07430e-17
6390.98055 1.06685e-17
6393.70611 1.13463e-17
6396.43167 1.04273e-17
6399.15723 1.01136e-17
6401.87262 9.83209e-18
6404.59818 9.70466e-18
6407.32374 9.04449e-18
6410.04930 8.94460e-18
6412.77486 9.10490e-18
6415.49025 9.56170e-18
6418.21581 1.01704e-17
6420.94137 9.95658e-18
6423.66693 9.75486e-18
6426.38232 1.01920e-17
6429.10788 1.01284e-17
6431.83344 9.33437e-18
6434.55900 9.81502e-18
6437.27439 1.01999e-17
6439.99995 9.89581e-18
6442.72551 1.00691e-17
6445.45107 1.02132e-17
6448.16646 1.01063e-17
6450.89202 1.05284e-17
6453.61758 1.04011e-17
6456.34314 1.04516e-17
6459.05853 1.01956e-17
6461.78409 9.83568e-18
6464.50965 9.65198e-18
6467.23521 1.06492e-17
6469.95060 1.04219e-17
6472.67616 9.80960e-18
6475.40172 9.67183e-18
6478.12728 1.06936e-17
6480.84267 1.08899e-17
6483.56823 1.06385e-17
6486.29379 1.05197e-17
6489.01935 1.10748e-17
6491.73474 1.18465e-17
6494.46030 1.05445e-17
6497.18586 1.00651e-17
6499.91142 1.10007e-17
6502.62681 1.10744e-17
6505.35237 1.18056e-17
6508.07793 1.20742e-17
6510.80349 1.06781e-17
6513.52905 1.09024e-17
6516.24444 1.17543e-17
6518.97000 1.12004e-17
6521.69556 1.11470e-17
6524.42112 1.15103e-17
6527.13651 1.15750e-17
6529.86207 1.12447e-17
6532.58763 1.12837e-17
6535.31319 1.21808e-17
6538.02858 1.17497e-17
6540.75414 1.13152e-17
6543.47970 1.19912e-17
6546.20526 1.21008e-17
6548.92065 1.22520e-17
6551.64621 1.20632e-17
6554.37177 1.20623e-17
6557.09733 1.24593e-17
6559.81272 1.18843e-17
6562.53828 1.25289e-17
6565.26384 1.22339e-17
6567.98940 1.36935e-17
6570.70479 1.26068e-17
6573.43035 1.24347e-17
6576.15591 1.39816e-17
6578.88147 1.28974e-17
6581.59686 1.19046e-17
6584.32242 1.17034e-17
6587.04798 1.20936e-17
6589.77354 1.27349e-17
6592.48893 1.28392e-17
6595.21449 1.27471e-17
6597.94005 1.25135e-17
6600.66561 1.21363e-17
6603.39117 1.22076e-17
6606.10656 1.28783e-17
6608.83212 1.25430e-17
6611.55768 1.14646e-17
6614.28324 1.15954e-17
6616.99863 1.15543e-17
6619.72419 1.14609e-17
6622.44975 1.21364e-17
6625.17531 1.15579e-17
6627.89070 1.05804e-17
6630.61626 1.06221e-17
6633.34182 1.14968e-17
6636.06738 1.12323e-17
6638.78277 1.11365e-17
6641.50833 1.16679e-17
6644.23389 1.15539e-17
6646.95945 1.15417e-17
6649.67484 1.10602e-17
6652.40040 1.17888e-17
6655.12596 1.28437e-17
6657.85152 1.24155e-17
6660.56691 1.22852e-17
6663.29247 1.27726e-17
6666.01803 1.28343e-17
6668.74359 1.19065e-17
6671.45898 9.74349e-18
6674.18454 8.26874e-18
6676.91010 7.44219e-18
6679.63566 6.60420e-18
6682.36122 6.46698e-18
6685.07661 7.93691e-18
6687.80217 9.48010e-18
6690.52773 1.07404e-17
6693.25329 1.12100e-17
6695.96868 9.83615e-18
6698.69424 9.22841e-18
6701.41980 9.71824e-18
6704.14536 9.37553e-18
6706.86075 8.73972e-18
6709.58631 8.90989e-18
6712.31187 9.05985e-18
6715.03743 9.68448e-18
6717.75282 8.85930e-18
6720.47838 9.46658e-18
6723.20394 9.43335e-18
6725.92950 8.42064e-18
6728.64489 9.21295e-18
6731.37045 9.68710e-18
6734.09601 9.54377e-18
6736.82157 9.38698e-18
6739.53696 9.13323e-18
6742.26252 9.14119e-18
6744.98808 9.15963e-18
6747.71364 9.30332e-18
6750.42903 8.68998e-18
6753.15459 9.13161e-18
6755.88015 9.07017e-18
6758.60571 9.44808e-18
6761.32110 9.48185e-18
6764.04666 9.96996e-18
6766.77222 1.02884e-17
6769.49778 1.05835e-17
6772.22334 1.16963e-17
6774.93873 1.22045e-17
6777.66429 1.23748e-17
6780.38985 1.24709e-17
6783.11541 1.24590e-17
6785.83080 1.22603e-17
6788.55636 1.27560e-17
6791.28192 1.31113e-17
6794.00748 1.36238e-17
6796.72287 1.32936e-17
6799.44843 1.25084e-17
6802.17399 1.34149e-17
6804.89955 1.29546e-17
6807.61494 1.26994e-17
6810.34050 1.30390e-17
6813.06606 1.19539e-17
6815.79162 1.11268e-17
6818.50701 1.10365e-17
6821.23257 1.11959e-17
6823.95813 1.14584e-17
6826.68369 1.07638e-17
6829.39908 1.15648e-17
6832.12464 1.03854e-17
6834.85020 9.69507e-18
6837.57576 9.47684e-18
6840.29115 9.29563e-18
6843.01671 9.97860e-18
6845.74227 9.88801e-18
6848.46783 9.79744e-18
6851.19339 9.70688e-18
6853.90878 9.61633e-18
6856.63434 9.52578e-18
6859.35990 9.43525e-18
6862.08546 9.34474e-18
6864.80085 9.25422e-18
6867.52641 9.16373e-18
6870.25197 9.07322e-18
6872.97753 8.98273e-18
6875.69292 8.89225e-18
6878.41848 8.80177e-18
6881.14404 8.71131e-18
6883.86960 8.62085e-18
6886.58499 8.53041e-18
6889.31055 8.43998e-18
6892.03611 8.34957e-18
6894.76167 8.25913e-18
6897.47706 8.16872e-18
6900.20262 8.07832e-18
6902.92818 7.98792e-18
6905.65374 7.89754e-18
6908.36913 7.80716e-18
6911.09469 7.71679e-18
6913.82025 7.62643e-18
6916.54581 7.53608e-18
6919.26120 7.44576e-18
6921.98676 7.35542e-18
6924.71232 7.26510e-18
6927.43788 7.17478e-18
6930.15327 7.08448e-18
6932.87883 6.99418e-18
6935.60439 6.90389e-18
6938.32995 6.73089e-18
6941.04534 6.06224e-18
6943.77090 6.38570e-18
6946.49646 6.11329e-18
6949.22202 6.13854e-18
6951.94758 6.49164e-18
6954.66297 5.78304e-18
6957.38853 5.94570e-18
6960.11409 5.37432e-18
6962.83965 5.31782e-18
6965.55504 6.15360e-18
6968.28060 7.24479e-18
6971.00616 6.69926e-18
6973.73172 6.12796e-18
6976.44711 6.53185e-18
6979.17267 6.52684e-18
6981.89823 7.03579e-18
6984.62379 6.03890e-18
6987.33918 5.32695e-18
6990.06474 5.65371e-18
6992.79030 5.48385e-18
6995.51586 5.69866e-18
6998.23125 5.92096e-18
7000.95681 5.70318e-18
7003.68237 5.98194e-18
7006.40793 5.68537e-18
7009.12332 5.01112e-18
7011.84888 5.60266e-18
7014.57444 5.78907e-18
7017.30000 5.66015e-18
7020.01539 6.40942e-18
7022.74095 6.72438e-18
7025.46651 5.15997e-18
7028.19207 5.12495e-18
7030.90746 4.95858e-18
7033.63302 5.37846e-18
7036.35858 5.28785e-18
7039.08414 6.39517e-18
7041.80970 6.11231e-18
7044.52509 4.89836e-18
7047.25065 5.60338e-18
7049.97621 5.97263e-18
7052.70177 5.01039e-18
7055.41716 4.81097e-18
7058.14272 5.32845e-18
7060.86828 5.58792e-18
7063.59384 5.88823e-18
7066.30923 5.80570e-18
7069.03479 5.91253e-18
7071.76035 6.20317e-18
7074.48591 5.80856e-18
7077.20130 6.13719e-18
7079.92686 6.35807e-18
7082.65242 5.73414e-18
7085.37798 6.16683e-18
7088.09337 6.37737e-18
7090.81893 6.42553e-18
7093.54449 7.10154e-18
7096.27005 7.28363e-18
7098.98544 7.30751e-18
7101.71100 7.48536e-18
7104.43656 7.51351e-18
7107.16212 7.71495e-18
7109.87751 8.25552e-18
7112.60307 8.05397e-18
7115.32863 8.08250e-18
7118.05419 8.79627e-18
7120.77975 8.57446e-18
7123.49514 8.94360e-18
7126.22070 9.84912e-18
7128.94626 1.00235e-17
7131.67182 9.73458e-18
7134.38721 9.35617e-18
7137.11277 1.01750e-17
7139.83833 1.07693e-17
7142.56389 1.03285e-17
7145.27928 1.09241e-17
7148.00484 1.08646e-17
7150.73040 1.04075e-17
7153.45596 1.08356e-17
7156.17135 1.20370e-17
7158.89691 1.14171e-17
7161.62247 1.12786e-17
7164.34803 1.15285e-17
7167.06342 1.16750e-17
7169.78898 1.26040e-17
7172.51454 1.20891e-17
7175.24010 1.19635e-17
7177.95549 1.28343e-17
7180.68105 1.24347e-17
7183.40661 1.22129e-17
7186.13217 1.22180e-17
7188.84756 1.27313e-17
7191.57312 1.29842e-17
7194.29868 1.27807e-17
7197.02424 1.20431e-17
7199.73963 1.18672e-17
7202.46519 1.24137e-17
7205.19075 1.18482e-17
7207.91631 1.14437e-17
7210.63170 1.18831e-17
7213.35726 1.17193e-17
7216.08282 1.18888e-17
7218.80838 1.14141e-17
7221.53394 1.07481e-17
7224.24933 1.12372e-17
7226.97489 1.04066e-17
7229.70045 1.13440e-17
7232.42601 1.14318e-17
7235.14140 1.06104e-17
7237.86696 9.40928e-18
7240.59252 9.55807e-18
7243.31808 9.44756e-18
7246.03347 9.65472e-18
7248.75903 9.82277e-18
7251.48459 8.41329e-18
7254.21015 8.39546e-18
7256.92554 8.33956e-18
7259.65110 7.36280e-18
7262.37666 7.24290e-18
7265.10222 8.00750e-18
7267.81761 7.92608e-18
7270.54317 7.63305e-18
7273.26873 8.40399e-18
7275.99429 8.65631e-18
7278.70968 8.50538e-18
7281.43524 7.45920e-18
7284.16080 7.34141e-18
7286.88636 8.03335e-18
7289.60175 7.94182e-18
7292.32731 7.89955e-18
7295.05287 7.33426e-18
7297.77843 7.65889e-18
7300.50399 7.99821e-18
7303.21938 7.88358e-18
7305.94494 8.43261e-18
7308.67050 7.77217e-18
7311.39606 7.30289e-18
7314.11145 8.06716e-18
7316.83701 7.00338e-18
7319.56257 7.01742e-18
7322.28813 8.20170e-18
7325.00352 8.61263e-18
7327.72908 8.67659e-18
7330.45464 8.25036e-18
7333.18020 7.46051e-18
7335.89559 7.74952e-18
7338.62115 8.76436e-18
7341.34671 8.51399e-18
7344.07227 8.70984e-18
7346.78766 8.22570e-18
7349.51322 8.47962e-18
7352.23878 8.10830e-18
7354.96434 8.67869e-18
7357.67973 8.73125e-18
7360.40529 8.76601e-18
7363.13085 8.25475e-18
7365.85641 8.51852e-18
7368.57180 8.20746e-18
7371.29736 8.94358e-18
7374.02292 9.50173e-18
7376.74848 9.39749e-18
7379.47404 9.58604e-18
7382.18943 9.73722e-18
7384.91499 1.00010e-17
7387.64055 1.06179e-17
7390.36611 1.06698e-17
7393.08150 1.07954e-17
7395.80706 1.15256e-17
7398.53262 1.07806e-17
7401.25818 1.02867e-17
7403.97357 1.19085e-17
7406.69913 1.16173e-17
7409.42469 1.16784e-17
7412.15025 1.17031e-17
7414.86564 1.17124e-17
7417.59120 1.20973e-17
7420.31676 1.15333e-17
7423.04232 1.16087e-17
7425.75771 1.19483e-17
7428.48327 1.14195e-17
7431.20883 1.05771e-17
7433.93439 1.10212e-17
7436.64978 1.23513e-17
7439.37534 1.23050e-17
7442.10090 1.17078e-17
7444.82646 1.13188e-17
7447.54185 1.10520e-17
7450.26741 1.14018e-17
7452.99297 1.15692e-17
7455.71853 1.11304e-17
7458.43392 1.07895e-17
7461.15948 1.05881e-17
7463.88504 1.02152e-17
7466.61060 1.02703e-17
7469.32599 1.00552e-17
7472.05155 1.08100e-17
7474.77711 1.04172e-17
7477.50267 9.40940e-18
7480.22823 1.04262e-17
7482.94362 1.04374e-17
7485.66918 9.73636e-18
7488.39474 9.34689e-18
7491.12030 9.05362e-18
7493.83569 1.00894e-17
7496.56125 1.09133e-17
7499.28681 9.64125e-18
7502.01237 9.69712e-18
7504.72776 1.02132e-17
7507.45332 9.78552e-18
7510.17888 9.97111e-18
7512.90444 9.75149e-18
7515.61983 9.76838e-18
7518.34539 9.20643e-18
7521.07095 8.75792e-18
7523.79651 8.84209e-18
7526.51190 9.12166e-18
7529.23746 9.46948e-18
7531.96302 8.87569e-18
7534.68858 9.25040e-18
7537.40397 9.43669e-18
7540.12953 9.44269e-18
7542.85509 9.22751e-18
7545.58065 9.94129e-18
7548.29604 9.52959e-18
7551.02160 9.51632e-18
7553.74716 9.50306e-18
7556.47272 9.48980e-18
7559.18811 9.47654e-18
7561.91367 9.46328e-18
7564.63923 9.45002e-18
7567.36479 9.43677e-18
7570.09035 9.42351e-18
7572.80574 9.41026e-18
7575.53130 9.39700e-18
7578.25686 9.38375e-18
7580.98242 9.37050e-18
7583.69781 9.35725e-18
7586.42337 9.34401e-18
7589.14893 9.33076e-18
7591.87449 9.31751e-18
7594.58988 9.30427e-18
7597.31544 9.29103e-18
7600.04100 9.27778e-18
7602.76656 9.26454e-18
7605.48195 9.25131e-18
7608.20751 9.23807e-18
7610.93307 9.22483e-18
7613.65863 9.21160e-18
7616.37402 9.19836e-18
7619.09958 9.18513e-18
7621.82514 9.17190e-18
7624.55070 9.15867e-18
7627.26609 9.14544e-18
7629.99165 9.13221e-18
7632.71721 9.11898e-18
7635.44277 9.10576e-18
7638.15816 9.09254e-18
7640.88372 9.07931e-18
7643.60928 9.06609e-18
7646.33484 9.05287e-18
7649.06040 9.03965e-18
7651.77579 9.02644e-18
7654.50135 9.01322e-18
7657.22691 9.00000e-18
7659.95247 8.98679e-18
7662.66786 8.97358e-18
7665.39342 8.96037e-18
7668.11898 8.94716e-18
7670.84454 8.93395e-18
7673.55993 8.92074e-18
7676.28549 8.90754e-18
7679.01105 8.89433e-18
7681.73661 8.88113e-18
7684.45200 8.11951e-18
7687.17756 7.63587e-18
7689.90312 7.81431e-18
7692.62868 9.05889e-18
7695.34407 7.81710e-18
7698.06963 7.52745e-18
7700.79519 7.69813e-18
7703.52075 8.57053e-18
7706.23614 8.31743e-18
7708.96170 7.54939e-18
7711.68726 7.96066e-18
7714.41282 6.45644e-18
7717.12821 6.38875e-18
7719.85377 8.22381e-18
7722.57933 8.37078e-18
7725.30489 7.54187e-18
7728.02028 7.14083e-18
7730.74584 7.07773e-18
7733.47140 6.68221e-18
7736.19696 6.76695e-18
7738.92252 5.98142e-18
7741.63791 6.86519e-18
7744.36347 6.92989e-18
7747.08903 5.63901e-18
7749.81459 6.11628e-18
7752.52998 6.77980e-18
7755.25554 6.85804e-18
7757.98110 6.85849e-18
7760.70666 6.60955e-18
7763.42205 6.66107e-18
7766.14761 7.12052e-18
7768.87317 7.22394e-18
7771.59873 7.02045e-18
7774.31412 6.73543e-18
7777.03968 6.83865e-18
7779.76524 6.82210e-18
7782.49080 6.39446e-18
7785.20619 7.08427e-18
7787.93175 7.44159e-18
7790.65731 7.16974e-18
7793.38287 6.26285e-18
7796.09826 6.85286e-18
7798.82382 6.25451e-18
7801.54938 6.21873e-18
7804.27494 6.90691e-18
7806.99033 6.19272e-18
7809.71589 5.94639e-18
7812.44145 6.01681e-18
7815.16701 6.27455e-18
7817.89257 7.52638e-18
7820.60796 7.21280e-18
7823.33352 6.17706e-18
7826.05908 6.31486e-18
7828.78464 5.96049e-18
7831.50003 5.93985e-18
7834.22559 6.35664e-18
7836.95115 5.98959e-18
7839.67671 6.70898e-18
7842.39210 6.69271e-18
7845.11766 6.61461e-18
7847.84322 6.83266e-18
7850.56878 6.22296e-18
7853.28417 6.53014e-18
7856.00973 7.40799e-18
7858.73529 7.40676e-18
7861.46085 6.79678e-18
7864.17624 6.61442e-18
7866.90180 7.70144e-18
7869.62736 8.74253e-18
7872.35292 8.15677e-18
7875.06831 7.56832e-18
7877.79387 7.73783e-18
7880.51943 7.24746e-18
7883.24499 7.49994e-18
7885.96038 8.81158e-18
7888.68594 8.35703e-18
7891.41150 8.06794e-18
7894.13706 9.47682e-18
7896.85245 9.35123e-18
7899.57801 8.12942e-18
7902.30357 9.07586e-18
7905.02913 8.39164e-18
7907.75469 8.58543e-18
7910.47008 9.78261e-18
7913.19564 1.05817e-17
7915.92120 1.05615e-17
7918.64676 9.63518e-18
7921.36215 9.61749e-18
7924.08771 1.01874e-17
7926.81327 1.00251e-17
7929.53883 1.05912e-17
7932.25422 1.10781e-17
7934.97978 1.07380e-17
7937.70534 1.06559e-17
7940.43090 9.34490e-18
7943.14629 1.02382e-17
7944.36179 1.02382e-17
7946.36020 1.03013e-17
7948.35862 1.03117e-17
7950.36712 1.02078e-17
7952.36554 1.00305e-17
7954.36395 9.82213e-18
7956.36237 9.66144e-18
7958.37087 9.58256e-18
7960.36929 9.74002e-18
7962.36770 9.92785e-18
7964.36611 1.00370e-17
7966.36453 1.00343e-17
7968.37304 9.89951e-18
7970.37145 9.67764e-18
7972.36986 9.48044e-18
7974.36828 9.47444e-18
7976.36669 9.49251e-18
7978.37520 9.41933e-18
7980.37361 9.30565e-18
7982.37203 9.17894e-18
7984.37044 9.09353e-18
7986.37895 9.09121e-18
7988.37736 9.22475e-18
7990.37578 9.36909e-18
7992.37419 9.36429e-18
7994.37260 9.33340e-18
7996.38111 9.37666e-18
7998.37952 9.46432e-18
8000.37794 9.50323e-18
8002.37635 9.43470e-18
8004.37477 9.34067e-18
8006.38327 9.30506e-18
8008.38169 9.27641e-18
8010.38010 9.22145e-18
8012.37852 9.17744e-18
8014.38702 9.20271e-18
8016.38544 9.30093e-18
8018.38385 9.39578e-18
8020.38226 9.39668e-18
8022.38068 9.34367e-18
8024.38919 9.20645e-18
8026.38760 9.05762e-18
8028.38601 8.95647e-18
8030.38443 8.93097e-18
8032.39293 8.94139e-18
8034.39135 8.96269e-18
8036.38976 8.98443e-18
8038.38818 8.98518e-18
8040.38659 8.96314e-18
8042.39510 8.91260e-18
8044.39351 8.83755e-18
8046.39193 8.72845e-18
8048.39034 8.60578e-18
8050.38875 8.53275e-18
8052.39726 8.66291e-18
8054.39567 8.82442e-18
8056.39409 8.93540e-18
8058.39250 8.95707e-18
8060.40101 8.88606e-18
8062.39942 8.73535e-18
8064.39784 8.56799e-18
8066.39625 8.47973e-18
8068.39467 8.39875e-18
8070.40317 8.27061e-18
8072.40159 8.15019e-18
8074.40000 8.09950e-18
8076.39841 8.12972e-18
8078.39683 8.18918e-18
8080.40534 8.22937e-18
8082.40375 8.24504e-18
8084.40216 8.19090e-18
8086.40058 8.10992e-18
8088.40908 8.01215e-18
8090.40750 7.94736e-18
8092.40591 7.95381e-18
8094.40433 8.07228e-18
8096.40274 8.22165e-18
8098.41125 8.31695e-18
8100.40966 8.39365e-18
8102.40808 8.46976e-18
8104.40649 8.52795e-18
8106.40490 8.54662e-18
8108.41341 8.50973e-18
8110.41182 8.43452e-18
8112.41024 8.32332e-18
8114.40865 8.20560e-18
8116.41716 8.11015e-18
8118.41557 8.03337e-18
8120.41399 7.96019e-18
8122.41240 7.89263e-18
8124.41082 7.84337e-18
8126.41932 7.82739e-18
8128.41774 7.83804e-18
8130.41615 7.89053e-18
8132.41456 7.94886e-18
8134.42307 7.98553e-18
8136.42149 7.98883e-18
8138.41990 7.96843e-18
8140.41831 7.93432e-18
8142.41673 7.91670e-18
8144.42523 7.98276e-18
8146.42365 8.06254e-18
8148.42206 8.12102e-18
8150.42048 8.13369e-18
8152.41889 8.09238e-18
8154.42740 8.00143e-18
8156.42581 7.90995e-18
8158.42423 7.90500e-18
8160.42264 7.90740e-18
8162.43115 7.88940e-18
8164.42956 7.82852e-18
8166.42797 7.69760e-18
8168.42639 7.51780e-18
8170.42480 7.35747e-18
8172.43331 7.31201e-18
8174.43172 7.31166e-18
8176.43014 7.34412e-18
8178.42855 7.37294e-18
8180.43706 7.36701e-18
8182.43547 7.32197e-18
8184.43389 7.26605e-18
8186.43230 7.22595e-18
8188.43071 7.20635e-18
8190.43922 7.22271e-18
8192.43764 7.28072e-18
8194.43605 7.40530e-18
8196.43446 7.56256e-18
8198.43288 7.72025e-18
8200.44138 7.82927e-18
8202.43980 7.89143e-18
8204.43821 7.86826e-18
8206.43663 7.79155e-18
8208.44513 7.65389e-18
8210.44355 7.50033e-18
8212.44196 7.35909e-18
8214.44038 7.26752e-18
8216.43879 7.21087e-18
8218.44730 7.19436e-18
8220.44571 7.21937e-18
8222.44412 7.31982e-18
8224.44254 7.42728e-18
8226.44095 7.48702e-18
8228.44946 7.46879e-18
8230.44787 7.40460e-18
8232.44629 7.31097e-18
8234.44470 7.20395e-18
8236.45321 7.10750e-18
8238.45162 7.02250e-18
8240.45004 6.95250e-18
8242.44845 6.89635e-18
8244.44686 6.84910e-18
8246.45537 6.80620e-18
8248.45378 6.76929e-18
8250.45220 6.72481e-18
8252.45061 6.70527e-18
8254.45912 6.75997e-18
8256.45753 6.83636e-18
8258.45595 6.87309e-18
8260.45436 6.82419e-18
8262.45278 6.73230e-18
8264.46128 6.61017e-18
8266.45970 6.49958e-18
8268.45811 6.47262e-18
8270.45653 6.46479e-18
8272.45494 6.39399e-18
8274.46345 6.25736e-18
8276.46186 6.13704e-18
8278.46027 6.11756e-18
8280.45869 6.15555e-18
8282.46720 6.28437e-18
8284.46561 6.41024e-18
8286.46402 6.44800e-18
8288.46244 6.39856e-18
8290.46085 6.33957e-18
8292.46936 6.32545e-18
8294.46777 6.29696e-18
8296.46619 6.19319e-18
8298.46460 6.06940e-18
8300.46301 5.94777e-18
8302.47152 5.84911e-18
8304.46994 5.77673e-18
8306.46835 5.73885e-18
8308.46676 5.72424e-18
8310.47527 5.73821e-18
8312.47368 5.73220e-18
8314.47210 5.64908e-18
8316.47051 5.52362e-18
8318.46893 5.39056e-18
8320.47743 5.28239e-18
8322.47585 5.19332e-18
8324.47426 5.13718e-18
8326.47268 5.09584e-18
8328.47109 5.06394e-18
8330.47960 5.02615e-18
8332.47801 4.95371e-18
8334.47642 4.87217e-18
8336.47484 4.84123e-18
8338.48335 4.90859e-18
8340.48176 4.96811e-18
8342.48017 4.88789e-18
8344.47859 4.76268e-18
8346.47700 4.64816e-18
8348.48551 4.54622e-18
8350.48392 4.40988e-18
8352.48234 4.23827e-18
8354.48075 4.09673e-18
8356.48926 4.10021e-18
8358.48767 4.13561e-18
8360.48609 4.15774e-18
8362.48450 4.13989e-18
8364.48291 4.06801e-18
8366.49142 3.94940e-18
8368.48983 3.82971e-18
8370.48825 3.76897e-18
8372.48666 3.71905e-18
8374.48508 3.65601e-18
8376.49358 3.58442e-18
8378.49200 3.50309e-18
8380.49041 3.42564e-18
8382.48883 3.36758e-18
8384.49733 3.34933e-18
8386.49575 3.34954e-18
8388.49416 3.35883e-18
8390.49257 3.36829e-18
8392.49099 3.37242e-18
8394.49950 3.36409e-18
8396.49791 3.33169e-18
8398.49632 3.28158e-18
8400.49474 3.25645e-18
8402.50324 3.35207e-18
8404.50166 3.46374e-18
8406.50007 3.52645e-18
8408.49849 3.55852e-18
8410.49690 3.60834e-18
8412.50541 3.68916e-18
8414.50382 3.76005e-18
8416.50224 3.77407e-18
8418.50065 3.78294e-18
8420.49906 3.83278e-18
8422.50757 3.88775e-18
8424.50598 3.90895e-18
8426.50440 3.88910e-18
8428.50281 3.85533e-18
8430.51132 3.83235e-18
8432.50973 3.82796e-18
8434.50815 3.87675e-18
8436.50656 3.94301e-18
8438.50497 3.99645e-18
8440.51348 4.03957e-18
8442.51190 4.09876e-18
8444.51031 4.19012e-18
8446.50872 4.29041e-18
8448.50714 4.38230e-18
8450.51564 4.46378e-18
8452.51406 4.50722e-18
8454.51247 4.55549e-18
8456.51089 4.66348e-18
8458.51939 4.85275e-18
8460.51781 5.05813e-18
8462.51622 5.21376e-18
8464.51464 5.33523e-18
8466.51305 5.41182e-18
8468.52156 5.44429e-18
8470.51997 5.42519e-18
8472.51839 5.37166e-18
8474.51680 5.30267e-18
8476.52531 5.24946e-18
8478.52372 5.22758e-18
8480.52213 5.30038e-18
8482.52055 5.38879e-18
8484.51896 5.43115e-18
8486.52747 5.41164e-18
8488.52588 5.36061e-18
8490.52430 5.30396e-18
8492.52271 5.26348e-18
8494.52113 5.27953e-18
8496.52963 5.34668e-18
8498.52805 5.49917e-18
8500.52646 5.67867e-18
8502.52487 5.82375e-18
8504.53338 5.88229e-18
8506.53180 5.90604e-18
8508.53021 5.91840e-18
8510.52862 5.94255e-18
8512.52704 6.03056e-18
8514.53554 6.13230e-18
8516.53396 6.20170e-18
8518.53237 6.20111e-18
8520.53079 6.14363e-18
8522.52920 6.01844e-18
8524.53771 5.89384e-18
8526.53612 5.83238e-18
8528.53454 5.83456e-18
8530.53295 5.92617e-18
8532.54146 6.05902e-18
8534.53987 6.15834e-18
8536.53828 6.14658e-18
8538.53670 6.12873e-18
8540.53511 6.21398e-18
8542.54362 6.32315e-18
8544.54203 6.40367e-18
8546.54045 6.46480e-18
8548.53886 6.54532e-18
8550.53728 6.66873e-18
8552.54578 6.81055e-18
8554.54420 6.96704e-18
8556.54261 7.10419e-18
8558.54102 7.18148e-18
8560.54953 7.22011e-18
8562.54795 7.24431e-18
8564.54636 7.27899e-18
8566.54477 7.31938e-18
8568.54319 7.37320e-18
8570.55169 7.45877e-18
8572.55011 7.61902e-18
8574.54852 7.80348e-18
8576.54694 7.96551e-18
8578.54535 8.09440e-18
8580.55386 8.22742e-18
8582.55227 8.39156e-18
8584.55069 8.56199e-18
8586.54910 8.74089e-18
8588.55761 8.89063e-18
8590.55602 8.95122e-18
8592.55443 8.97439e-18
8594.55285 9.05124e-18
8596.55126 9.24425e-18
8598.55977 9.45082e-18
8600.55818 9.54447e-18
8602.55660 9.62650e-18
8604.55501 9.75532e-18
8606.55343 9.89988e-18
8608.56193 1.00043e-17
8610.56035 1.00505e-17
8612.55876 1.00879e-17
8614.55717 1.01640e-17
8616.56568 1.02664e-17
8618.56409 1.04194e-17
8620.56251 1.05835e-17
8622.56092 1.07164e-17
8624.55934 1.08165e-17
8626.56784 1.09331e-17
8628.56626 1.11098e-17
8630.56467 1.12804e-17
8632.56309 1.13572e-17
8634.57159 1.14330e-17
8636.57001 1.15921e-17
8638.56842 1.18187e-17
8640.56684 1.20340e-17
8642.56525 1.21834e-17
8644.57376 1.23348e-17
8646.57217 1.25627e-17
8648.57058 1.28021e-17
8650.56900 1.30612e-17
8652.56741 1.32540e-17
8654.57592 1.32863e-17
8656.57433 1.31348e-17
8658.57275 1.29446e-17
8660.57116 1.28845e-17
8662.57967 1.28888e-17
8664.57808 1.29867e-17
8666.57650 1.31206e-17
8668.57491 1.32473e-17
8670.57332 1.33300e-17
8672.58183 1.33962e-17
8674.58025 1.34518e-17
8676.57866 1.34546e-17
8678.57707 1.33266e-17
8680.57549 1.31565e-17
8682.58399 1.30018e-17
8684.58241 1.29017e-17
8686.58082 1.28350e-17
8688.57924 1.28089e-17
8690.58774 1.28308e-17
8692.58616 1.29429e-17
8694.58457 1.30705e-17
8696.58299 1.31626e-17
8698.58140 1.32129e-17
8700.58991 1.32431e-17
8702.58832 1.32669e-17
8704.58673 1.32871e-17
8706.58515 1.33184e-17
8708.59366 1.33493e-17
8710.59207 1.33791e-17
8712.59048 1.33986e-17
8714.58890 1.33753e-17
8716.58731 1.33430e-17
8718.59582 1.33773e-17
8720.59423 1.35865e-17
8722.59265 1.38505e-17
8724.59106 1.41300e-17
8726.58947 1.43488e-17
8728.59798 1.44281e-17
8730.59640 1.43836e-17
8732.59481 1.43118e-17
8734.59322 1.42987e-17
8736.60173 1.42669e-17
8738.60014 1.41515e-17
8740.59856 1.40065e-17
8742.59697 1.38396e-17
8744.59539 1.37035e-17
8746.60389 1.36379e-17
8748.60231 1.36767e-17
8750.60072 1.37595e-17
8752.59914 1.38441e-17
8754.60764 1.39023e-17
8756.60606 1.38917e-17
8758.60447 1.38208e-17
8760.60288 1.36981e-17
8762.60130 1.35527e-17
8764.60981 1.34081e-17
8766.60822 1.33085e-17
8768.60663 1.32494e-17
8770.60505 1.32619e-17
8772.60346 1.33057e-17
8774.61197 1.33546e-17
8776.61038 1.33819e-17
8778.60880 1.33926e-17
8780.60721 1.33770e-17
8782.61572 1.33454e-17
8784.61413 1.32839e-17
8786.61254 1.32405e-17
8788.61096 1.32540e-17
8790.60937 1.33277e-17
8792.61788 1.34445e-17
8794.61629 1.35825e-17
8796.61471 1.37229e-17
8798.61312 1.38475e-17
8800.61154 1.39145e-17
8802.62004 1.38728e-17
8804.61846 1.37429e-17
8806.61687 1.35423e-17
8808.61529 1.33187e-17
8810.62379 1.31088e-17
8812.62221 1.29979e-17
8814.62062 1.28938e-17
8816.61903 1.27280e-17
8818.61745 1.25353e-17
8820.62596 1.23303e-17
8822.62437 1.21651e-17
8824.62278 1.20719e-17
8826.62120 1.21122e-17
8828.62970 1.22425e-17
8830.62812 1.25290e-17
8832.62653 1.27743e-17
8834.62495 1.27882e-17
8836.62336 1.26045e-17
8838.63187 1.23929e-17
8840.63028 1.22950e-17
8842.62870 1.22238e-17
8844.62711 1.21685e-17
8846.62552 1.20971e-17
8848.63403 1.19470e-17
8850.63244 1.17839e-17
8852.63086 1.17075e-17
8854.62927 1.17506e-17
8856.63778 1.17932e-17
8858.63619 1.16939e-17
8860.63461 1.15489e-17
8862.63302 1.13832e-17
8864.63144 1.12172e-17
8866.63994 1.10583e-17
8868.63836 1.09164e-17
8870.63677 1.07821e-17
8872.63518 1.06513e-17
8874.63360 1.05248e-17
8876.64211 1.03875e-17
8878.64052 1.02710e-17
8880.63893 1.02116e-17
8882.63735 1.01957e-17
8884.64585 1.01852e-17
8886.64427 1.01415e-17
8888.64268 1.00843e-17
8890.64110 9.99893e-18
8892.63951 9.92583e-18
8894.64802 9.89958e-18
8896.64643 9.91376e-18
8898.64485 9.95874e-18
8900.64326 1.00033e-17
8902.65177 1.00127e-17
8904.65018 9.89748e-18
8906.64859 9.76364e-18
8908.64701 9.63977e-18
8910.64542 9.59621e-18
8912.65393 9.72278e-18
8914.65234 9.98199e-18
8916.65076 1.02139e-17
8918.64917 1.02165e-17
8920.64759 1.00948e-17
8922.65609 9.82798e-18
8924.65451 9.50698e-18
8926.65292 9.20106e-18
8928.65133 8.93975e-18
8930.65984 8.65819e-18
8932.65826 8.33689e-18
8934.65667 8.08398e-18
8936.65508 8.07356e-18
8938.65350 8.14659e-18
8940.66200 8.22750e-18
8942.66042 8.25711e-18
8944.65883 8.22937e-18
8946.65725 8.13294e-18
8948.66575 8.02797e-18
8950.66417 8.01132e-18
8952.66258 7.98995e-18
8954.66100 7.88940e-18
8956.65941 7.76868e-18
8958.66792 7.72040e-18
8960.66633 7.75519e-18
8962.66474 7.76044e-18
8964.66316 7.59885e-18
8966.66157 7.43337e-18
8968.67008 7.40568e-18
8970.66849 7.42193e-18
8972.66691 7.39546e-18
8974.66532 7.29335e-18
8976.67383 7.16101e-18
8978.67224 7.02388e-18
8980.67066 6.87959e-18
8982.66907 6.71354e-18
8984.66748 6.58393e-18
8986.67599 6.55959e-18
8988.67441 6.60359e-18
8990.67282 6.64032e-18
8992.67123 6.60559e-18
8994.66965 6.55315e-18
8996.67815 6.51158e-18
8998.67657 6.47767e-18
9000.67498 6.44294e-18
9002.67340 6.43855e-18
9004.68190 6.51532e-18
9006.68032 6.66099e-18
9008.67873 6.78318e-18
9010.67714 6.75377e-18
9012.67556 6.66467e-18
9014.68407 6.53243e-18
9016.68248 6.40035e-18
9018.68089 6.30795e-18
9020.67931 6.25565e-18
9022.67772 6.18461e-18
9024.68623 6.04196e-18
9026.68464 5.91877e-18
9028.68306 5.91686e-18
9030.68147 5.96194e-18
9032.68998 6.00039e-18
9034.68839 6.02274e-18
9036.68681 6.06264e-18
9038.68522 6.13488e-18
9040.68363 6.21452e-18
9042.69214 6.27398e-18
9044.69056 6.33017e-18
9046.68897 6.39308e-18
9048.68738 6.45590e-18
9050.68580 6.50514e-18
9052.69430 6.53859e-18
9054.69272 6.57602e-18
9056.69113 6.65228e-18
9058.68955 6.71034e-18
9060.69805 6.67835e-18
9062.69647 6.62906e-18
9064.69488 6.64650e-18
9066.69330 6.74631e-18
9068.69171 6.85126e-18
9070.70022 6.88879e-18
9072.69863 6.89654e-18
9074.69704 6.86839e-18
9076.69546 6.83306e-18
9078.69387 6.79628e-18
9080.70238 6.79497e-18
9082.70079 6.86250e-18
9084.69921 7.02654e-18
9086.69762 7.20015e-18
9088.70613 7.29273e-18
9090.70454 7.32164e-18
9092.70296 7.25966e-18
9094.70137 7.14829e-18
9096.69978 7.02145e-18
9098.70829 6.93365e-18
9100.70671 6.88880e-18
9102.70512 6.94146e-18
9104.70353 7.02995e-18
9106.70195 7.12332e-18
9108.71045 7.21321e-18
9110.70887 7.31499e-18
9112.70728 7.40977e-18
9114.70570 7.46768e-18
9116.71420 7.44124e-18
9118.71262 7.40208e-18
9120.71103 7.42742e-18
9122.70945 7.45552e-18
9124.70786 7.43913e-18
9126.71637 7.35334e-18
9128.71478 7.20419e-18
9130.71319 6.99853e-18
9132.71161 6.80546e-18
9134.72012 6.72786e-18
9136.71853 6.70792e-18
9138.71694 6.74567e-18
9140.71536 6.78011e-18
9142.71377 6.75069e-18
9144.72228 6.62130e-18
9146.72069 6.48993e-18
9148.71911 6.46317e-18
9150.71752 6.50818e-18
9152.71593 6.69456e-18
9154.72444 6.89262e-18
9156.72286 6.96505e-18
9158.72127 6.85642e-18
9160.71968 6.70770e-18
9162.72819 6.65071e-18
9164.72660 6.62009e-18
9166.72502 6.60294e-18
9168.72343 6.60716e-18
9170.72185 6.65034e-18
9172.73035 6.71826e-18
9174.72877 6.78701e-18
9176.72718 6.82470e-18
9178.72559 6.83934e-18
9180.73410 6.80540e-18
9182.73252 6.76819e-18
9184.73093 6.75437e-18
9186.72934 6.78307e-18
9188.72776 6.86097e-18
9190.73626 6.98256e-18
9192.73468 7.09788e-18
9194.73309 7.10302e-18
9196.73151 7.10308e-18
9198.72992 7.17432e-18
9200.73843 7.27232e-18
9202.73684 7.31761e-18
9204.73526 7.28698e-18
9206.73367 7.26224e-18
9208.74218 7.33989e-18
9210.74059 7.42193e-18
9212.73901 7.42642e-18
9214.73742 7.41602e-18
9216.73583 7.45841e-18
9218.74434 7.57013e-18
9220.74275 7.70607e-18
9222.74117 7.82784e-18
9224.73958 7.91992e-18
9226.73800 7.92607e-18
9228.74650 7.90050e-18
9230.74492 7.88865e-18
9232.74333 7.88888e-18
9234.74175 7.86114e-18
9236.75025 7.78368e-18
9238.74867 7.69798e-18
9240.74708 7.63604e-18
9242.74549 7.60830e-18
9244.74391 7.64122e-18
9246.75242 7.71710e-18
9248.75083 7.82095e-18
9250.74924 7.92037e-18
9252.74766 7.99655e-18
9254.75616 7.98688e-18
9256.75458 7.98358e-18
9258.75299 8.07738e-18
9260.75141 8.20125e-18
9262.74982 8.29131e-18
9264.75833 8.30060e-18
9266.75674 8.24879e-18
9268.75516 8.12942e-18
9270.75357 7.98973e-18
9272.75198 7.86556e-18
9274.76049 7.77753e-18
9276.75890 7.74304e-18
9278.75732 7.76591e-18
9280.75573 7.84382e-18
9282.76424 7.95846e-18
9284.76265 8.05031e-18
9286.76107 7.99520e-18
9288.75948 7.91145e-18
9290.75790 7.88341e-18
9292.76640 7.88873e-18
9294.76482 7.84816e-18
9296.76323 7.73824e-18
9298.76164 7.64376e-18
9300.76006 7.66079e-18
9302.76857 7.75444e-18
9304.76698 8.01275e-18
9306.76539 8.25314e-18
9308.76381 8.29445e-18
9310.77231 8.06861e-18
9312.77073 7.73059e-18
9314.76914 7.40405e-18
9316.76756 7.20633e-18
9318.76597 7.45648e-18
9320.77448 7.80438e-18
9322.77289 7.94609e-18
9324.77131 7.81090e-18
9326.76972 7.60477e-18
9328.77823 7.47396e-18
9330.77664 7.36059e-18
9332.77505 7.24663e-18
9334.77347 7.19794e-18
9336.77188 7.31128e-18
9338.78039 7.50377e-18
9340.77880 7.68028e-18
9342.77722 7.71192e-18
9344.77563 7.60080e-18
9346.77405 7.10760e-18
9348.78255 6.70635e-18
9350.78097 6.83377e-18
9352.77938 7.25123e-18
9354.77779 7.63844e-18
9356.78630 7.77918e-18
9358.78471 7.82619e-18
9360.78313 7.82117e-18
9362.78154 7.76359e-18
9364.77996 7.64811e-18
9366.78846 7.52327e-18
9368.78688 7.37047e-18
9370.78529 7.30075e-18
9372.78371 7.45210e-18
9374.79221 7.97803e-18
9376.79063 8.52510e-18
9378.78904 8.75799e-18
9380.78746 8.75402e-18
9382.78587 8.45342e-18
9384.79438 8.01747e-18
9386.79279 7.61310e-18
9388.79120 7.42708e-18
9390.78962 7.32244e-18
9392.78803 7.22822e-18
9394.79654 7.18074e-18
9396.79495 7.21539e-18
9398.79337 7.27504e-18
9400.79178 7.27489e-18
9402.80029 7.21034e-18
9404.79870 7.21561e-18
9406.79712 7.48687e-18
9408.79553 7.76568e-18
9410.79394 7.85949e-18
9412.80245 7.83174e-18
9414.80086 7.76276e-18
9416.79928 7.68628e-18
9418.79769 7.55536e-18
9420.79611 7.35159e-18
9422.80461 7.19161e-18
9424.80303 7.24012e-18
9426.80144 7.37313e-18
9428.79986 7.54486e-18
9430.80836 7.65561e-18
9432.80678 7.63942e-18
9434.80519 7.43583e-18
9436.80361 7.20920e-18
9438.80202 7.14679e-18
9440.81053 7.17322e-18
9442.80894 7.33958e-18
9444.80735 7.51682e-18
9446.80577 7.57148e-18
9448.81428 7.42083e-18
9450.81269 7.20410e-18
9452.81110 7.00911e-18
9454.80952 6.93796e-18
9456.80793 7.26896e-18
9458.81644 7.66528e-18
9460.81485 7.76254e-18
9462.81327 7.46772e-18
9464.81168 7.09851e-18
9466.81009 6.93923e-18
9468.81860 6.92681e-18
9470.81702 7.19288e-18
9472.81543 7.57118e-18
9474.81384 8.00690e-18
9476.82235 8.32707e-18
9478.82076 8.43085e-18
9480.81918 8.18041e-18
9482.81759 7.79725e-18
9484.81601 7.42130e-18
9486.82451 7.14533e-18
9488.82293 7.12195e-18
9490.82134 7.27010e-18
9492.81976 7.47830e-18
9494.81817 7.59368e-18
9496.82668 7.58745e-18
9498.82509 7.25341e-18
9500.82350 6.87068e-18
9502.82192 6.58753e-18
9504.83043 6.45471e-18
9506.82884 6.49287e-18
9508.82725 6.66886e-18
9510.82567 6.88661e-18
9512.82408 7.01973e-18
9514.83259 7.08277e-18
9516.83100 6.96556e-18
9518.82942 6.83248e-18
9520.82783 6.85337e-18
9522.82624 7.01188e-18
9524.83475 7.14404e-18
9526.83317 7.09863e-18
9528.83158 6.96970e-18
9530.82999 6.73158e-18
9532.83850 6.51445e-18
9534.83691 6.45084e-18
9536.83533 6.49500e-18
9538.83374 6.52869e-18
9540.83216 6.46083e-18
9542.84066 6.35829e-18
9544.83908 6.22265e-18
9546.83749 6.12432e-18
9548.83591 6.14998e-18
9550.83432 6.24458e-18
9552.84283 6.35192e-18
9554.84124 6.40611e-18
9556.83965 6.40444e-18
9558.83807 6.29503e-18
9560.84658 6.15855e-18
9562.84499 6.06224e-18
9564.84340 5.98086e-18
9566.84182 5.88529e-18
9568.84023 5.76965e-18
9570.84874 5.64398e-18
9572.84715 5.51930e-18
9574.84557 5.42376e-18
9576.84398 5.38785e-18
9578.84239 5.42281e-18
9580.85090 5.58066e-18
9582.84931 5.78910e-18
9584.84773 5.96672e-18
9586.84614 6.01683e-18
9588.85465 5.98633e-18
9590.85306 5.83221e-18
9592.85148 5.66533e-18
9594.84989 5.54394e-18
9596.84831 5.51218e-18
9598.85681 5.60047e-18
9600.85523 5.79091e-18
9602.85364 5.98926e-18
9604.85206 6.06780e-18
9606.86056 6.08015e-18
9608.85898 5.96954e-18
9610.85739 5.86372e-18
9612.85580 5.89556e-18
9614.85422 6.07415e-18
9616.86273 6.26685e-18
9618.86114 6.34260e-18
9620.85955 6.33654e-18
9622.85797 6.16545e-18
9624.85638 5.97135e-18
9626.86489 5.85496e-18
9628.86330 5.85623e-18
9630.86172 5.95155e-18
9632.86013 6.10578e-18
9634.86864 6.21790e-18
9636.86705 6.03588e-18
9638.86547 5.85051e-18
9640.86388 5.86924e-18
9642.86229 6.03305e-18
9644.87080 6.20328e-18
9646.86921 6.27730e-18
9648.86763 6.30508e-18
9650.86604 6.27700e-18
9652.86446 6.22266e-18
9654.87296 6.14138e-18
9656.87138 6.08506e-18
9658.86979 6.10464e-18
9660.86821 6.20408e-18
9662.87671 6.32319e-18
9664.87513 6.39966e-18
9666.87354 6.44648e-18
9668.87195 6.44199e-18
9670.87037 6.40398e-18
9672.87888 6.32806e-18
9674.87729 6.25101e-18
9676.87570 6.20795e-18
9678.87412 6.23968e-18
9680.88262 6.29317e-18
9682.88104 6.32653e-18
9684.87945 6.34834e-18
9686.87787 6.34703e-18
9688.87628 6.34140e-18
9690.88479 6.36407e-18
9692.88320 6.42066e-18
9694.88162 6.45704e-18
9696.88003 6.39351e-18
9698.87844 6.29495e-18
9700.88695 6.16394e-18
9702.88536 6.05667e-18
9704.88378 6.01427e-18
9706.88219 6.06295e-18
9708.89070 6.17207e-18
9710.88911 6.32818e-18
9712.88753 6.45046e-18
9714.88594 6.39524e-18
9716.88436 6.29817e-18
9718.89286 6.29565e-18
9720.89128 6.38667e-18
9722.88969 6.43357e-18
9724.88810 6.33767e-18
9726.89661 6.26953e-18
9728.89503 6.45013e-18
9730.89344 6.67659e-18
9732.89185 6.82509e-18
9734.89027 6.86807e-18
9736.89877 6.84594e-18
9738.89719 6.79728e-18
9740.89560 6.76653e-18
9742.89402 6.88467e-18
9744.89243 6.99527e-18
9746.90094 7.00805e-18
9748.89935 6.92579e-18
9750.89776 6.75519e-18
9752.89618 6.55269e-18
9754.90469 6.39489e-18
9756.90310 6.42007e-18
9758.90151 6.47423e-18
9760.89993 6.46921e-18
9762.89834 6.39825e-18
9764.90685 6.23299e-18
9766.90526 6.02875e-18
9768.90368 5.87746e-18
9770.90209 5.88921e-18
9772.90051 5.94292e-18
9774.90901 5.94307e-18
9776.90743 5.93531e-18
9778.90584 5.93449e-18
9780.90425 5.96674e-18
9782.91276 6.06036e-18
9784.91118 6.22161e-18
9786.90959 6.37382e-18
9788.90800 6.39657e-18
9790.90642 6.37404e-18
9792.91492 6.34200e-18
9794.91334 6.29435e-18
9796.91175 6.19202e-18
9798.91017 6.04816e-18
9800.91867 5.92334e-18
9802.91709 5.90669e-18
9804.91550 5.93197e-18
9806.91392 5.98549e-18
9808.91233 6.03746e-18
9810.92084 6.05887e-18
9812.91925 6.05322e-18
9814.91766 6.06968e-18
9816.91608 6.15533e-18
9818.91449 6.22293e-18
9820.92300 6.19388e-18
9822.92141 6.09134e-18
9824.91983 5.89817e-18
9826.91824 5.67464e-18
9828.92675 5.47622e-18
9830.92516 5.37876e-18
9832.92358 5.34561e-18
9834.92199 5.38112e-18
9836.92040 5.47109e-18
9838.92891 5.66154e-18
9840.92733 5.83723e-18
9842.92574 5.85338e-18
9844.92415 5.66759e-18
9846.92257 5.49420e-18
9848.93107 5.61539e-18
9850.92949 5.79125e-18
9852.92790 5.91915e-18
9854.92632 5.97855e-18
9856.93482 5.97698e-18
9858.93324 5.91645e-18
9860.93165 5.81446e-18
9862.93007 5.69119e-18
9864.92848 5.55584e-18
9866.93699 5.39298e-18
9868.93540 5.28025e-18
9870.93381 5.30741e-18
9872.93223 5.44164e-18
9874.94074 5.57945e-18
9876.93915 5.62274e-18
9878.93756 5.64527e-18
9880.93598 5.69947e-18
9882.93439 5.73528e-18
9884.94290 5.72662e-18
9886.94131 5.66303e-18
9888.93973 5.52300e-18
9890.93814 5.33754e-18
9892.93655 5.20213e-18
9894.94506 5.31410e-18
9896.94348 5.45224e-18
9898.94189 5.47043e-18
9900.94030 5.41613e-18
9902.94881 5.37687e-18
9904.94722 5.38200e-18
9906.94564 5.36761e-18
9908.94405 5.27355e-18
9910.94247 5.22471e-18
9912.95097 5.36762e-18
9914.94939 5.58851e-18
9916.94780 5.83450e-18
9918.94621 5.99638e-18
9920.95472 6.00821e-18
9922.95314 5.78205e-18
9924.95155 5.52367e-18
9926.94996 5.46993e-18
9928.94838 5.48517e-18
9930.95689 5.49830e-18
9932.95530 5.49747e-18
9934.95371 5.53298e-18
9936.95213 5.60077e-18
9938.95054 5.62705e-18
9940.95905 5.41772e-18
9942.95746 5.26141e-18
9944.95588 5.40392e-18
9946.95429 5.70690e-18
9948.96280 6.03200e-18
9950.96121 6.18746e-18
9952.95963 6.10853e-18
9954.95804 5.54483e-18
9956.95645 5.00334e-18
9958.96496 4.97482e-18
9960.96337 5.21239e-18
9962.96179 5.52317e-18
9964.96020 5.72283e-18
9966.95862 5.79105e-18
9968.96712 5.62295e-18
9970.96554 5.42125e-18
9972.96395 5.40618e-18
9974.96236 5.44664e-18
9976.97087 5.43099e-18
9978.96929 5.40076e-18
9980.96770 5.49424e-18
9982.96611 5.76591e-18
9984.96453 6.01020e-18
9986.97304 5.91699e-18
9988.97145 5.73403e-18
9990.96986 5.56061e-18
9992.96828 5.42188e-18
9994.97678 5.26937e-18
9996.97520 5.12589e-18
9998.97361 5.04736e-18
10000.97203 5.13333e-18
10002.97044 5.26551e-18
