# wavelength flux
3402.01538 1.83351e-18
3405.00986 1.83726e-18
3408.01436 2.06317e-18
3411.01887 1.61196e-18
3414.01335 2.16698e-18
3417.01785 2.71915e-18
3420.02235 2.08739e-18
3423.01683 1.68563e-18
3426.02133 2.22428e-18
3429.02583 2.08120e-18
3432.03033 2.00451e-18
3435.02482 2.05743e-18
3438.02932 1.83855e-18
3441.03382 2.10513e-18
3444.02831 2.61212e-18
3447.03281 2.70613e-18
3450.03731 3.17356e-18
3453.03179 3.18699e-18
3456.03629 2.79305e-18
3459.04079 2.90440e-18
3462.03528 2.93358e-18
3465.03978 2.72009e-18
3468.04428 3.20427e-18
3471.04878 3.59017e-18
3474.04326 3.04994e-18
3477.04776 2.63650e-18
3480.05226 2.50481e-18
3483.04675 2.63323e-18
3486.05125 2.92702e-18
3489.05575 2.86374e-18
3492.05023 2.87910e-18
3495.05473 2.89389e-18
3498.05923 2.81096e-18
3501.05372 2.67968e-18
3504.05822 2.46278e-18
3507.06272 2.26389e-18
3510.06722 2.21871e-18
3513.06170 2.29165e-18
3516.06620 2.23217e-18
3519.07070 2.28592e-18
3522.06519 2.10962e-18
3525.06969 2.09295e-18
3528.07418 2.13238e-18
3531.06867 2.23125e-18
3534.07317 2.21089e-18
3537.07767 2.39230e-18
3540.07216 2.43358e-18
3543.07666 2.08672e-18
3546.08116 1.72283e-18
3549.08566 1.75969e-18
3552.08014 1.86118e-18
3555.08464 1.89370e-18
3558.08914 2.12554e-18
3561.08363 2.41131e-18
3564.08813 2.21150e-18
3567.09263 2.18515e-18
3570.08711 2.24732e-18
3573.09161 1.99197e-18
3576.09611 2.18021e-18
3579.10061 2.36923e-18
3582.09510 2.39629e-18
3585.09960 2.40441e-18
3588.10410 2.63932e-18
3591.09858 2.65519e-18
3594.10308 2.42652e-18
3597.10758 2.29400e-18
3600.10207 2.38622e-18
3603.10657 2.41635e-18
3606.11107 2.33040e-18
3609.10555 2.38451e-18
3612.11005 2.36451e-18
3615.11455 2.29149e-18
3618.11905 2.42505e-18
3621.11354 2.42476e-18
3624.11804 2.27437e-18
3627.12254 2.29012e-18
3630.11702 2.27743e-18
3633.12152 2.27870e-18
3636.12602 2.20854e-18
3639.12051 2.21461e-18
3642.12501 2.35040e-18
3645.12951 2.32766e-18
3648.12399 2.29774e-18
3651.12849 2.31884e-18
3654.13299 2.20850e-18
3657.13749 2.16905e-18
3660.13198 2.34959e-18
3663.13648 2.50402e-18
3666.14098 2.41796e-18
3669.13546 2.39037e-18
3672.13996 2.29366e-18
3675.14446 2.09217e-18
3678.13895 2.16699e-18
3681.14345 2.20088e-18
3684.14795 2.13666e-18
3687.14243 2.17106e-18
3690.14693 2.29919e-18
3693.15143 2.48207e-18
3696.15593 2.63926e-18
3699.15042 2.79833e-18
3702.15492 2.72214e-18
3705.15942 2.76665e-18
3708.15390 2.93637e-18
3711.15840 3.08726e-18
3714.16290 2.96582e-18
3717.15739 2.92544e-18
3720.16189 3.23124e-18
3723.16639 3.36577e-18
3726.17089 3.35871e-18
3729.16537 3.36934e-18
3732.16987 3.43183e-18
3735.17437 3.53527e-18
3738.16886 3.53752e-18
3741.17336 3.51257e-18
3744.17786 3.35998e-18
3747.17234 3.13400e-18
3750.17684 2.95591e-18
3753.18134 2.81353e-18
3756.17583 2.52022e-18
3759.18033 2.22657e-18
3762.18483 2.10985e-18
3765.18933 1.94743e-18
3768.18381 1.59635e-18
3771.18831 1.37862e-18
3774.19281 1.29056e-18
3777.18730 1.22063e-18
3780.19180 1.18000e-18
3783.19630 1.12231e-18
3786.19078 1.02416e-18
3789.19528 9.27190e-19
3792.19978 9.04916e-19
3795.19427 9.02823e-19
3798.19877 8.17348e-19
3801.20327 8.11722e-19
3804.20777 7.80807e-19
3807.20225 7.34121e-19
3810.20675 6.73109e-19
3813.21125 6.29989e-19
3816.20574 6.42573e-19
3819.21024 6.96848e-19
3822.21474 7.06413e-19
3825.20922 7.00791e-19
3828.21372 6.82258e-19
3831.21822 6.54613e-19
3834.21270 6.54708e-19
3837.21720 6.82926e-19
3840.22170 7.26738e-19
3843.22620 7.30621e-19
3846.22069 7.71305e-19
3849.22519 8.04005e-19
3852.22969 7.43182e-19
3855.22417 7.95213e-19
3858.22867 8.45464e-19
3861.23317 8.68100e-19
3864.22766 9.37532e-19
3867.23216 1.04729e-18
3870.23666 1.09037e-18
3873.24116 1.16616e-18
3876.23565 1.25910e-18
3879.24015 1.34189e-18
3882.24465 1.43451e-18
3885.23913 1.64123e-18
3888.24363 1.79312e-18
3891.24813 1.94898e-18
3894.24262 2.21970e-18
3897.24712 2.45888e-18
3900.25162 2.67051e-18
3903.24610 2.87338e-18
3906.25060 3.19333e-18
3909.25510 3.56689e-18
3912.25960 3.80123e-18
3915.25409 4.04218e-18
3918.25859 4.42205e-18
3921.26309 4.79963e-18
3924.25757 5.04535e-18
3927.26207 5.24719e-18
3930.26657 5.41561e-18
3933.26105 5.50722e-18
3936.26555 5.59287e-18
3939.27005 5.76680e-18
3942.26454 5.93192e-18
3945.26904 6.00186e-18
3948.27354 6.04524e-18
3951.27804 6.13119e-18
3954.27253 6.24127e-18
3957.27703 6.26447e-18
3960.28153 6.28792e-18
3963.27601 6.14934e-18
3966.28051 5.95752e-18
3969.28501 5.96215e-18
3972.27950 5.98732e-18
3975.28400 6.07876e-18
3978.28850 6.10357e-18
3981.28298 6.02618e-18
3984.28748 6.00845e-18
3987.29198 6.00384e-18
3990.29648 5.92752e-18
3993.29097 6.03450e-18
3996.29547 6.19590e-18
3999.29997 6.33876e-18
4002.29445 6.37228e-18
4005.29895 6.30422e-18
4008.30345 6.31805e-18
4011.29794 6.34567e-18
4014.30244 6.36889e-18
4017.30694 6.40460e-18
4020.31144 6.58181e-18
4023.30592 6.76848e-18
4026.31042 6.86859e-18
4029.31492 6.97552e-18
4032.30941 7.10899e-18
4035.31391 7.22817e-18
4038.31840 7.32671e-18
4041.31289 7.46086e-18
4044.31739 7.66839e-18
4047.32189 7.92098e-18
4050.31638 8.03471e-18
4053.32088 8.09405e-18
4056.32538 8.18101e-18
4059.32988 8.24858e-18
4062.32436 8.30425e-18
4065.32886 8.35399e-18
4068.33336 8.34183e-18
4071.32785 8.33840e-18
4074.33235 8.22533e-18
4077.33685 8.00015e-18
4080.33133 7.91223e-18
4083.33583 7.87206e-18
4086.34033 7.66625e-18
4089.33482 7.39870e-18
4092.33932 7.30987e-18
4095.34382 7.25894e-18
4098.34832 7.11936e-18
4101.34280 7.01462e-18
4104.34730 6.75135e-18
4107.35180 6.58569e-18
4110.34628 6.57140e-18
4113.35078 6.44410e-18
4116.35528 6.26661e-18
4119.34977 6.13743e-18
4122.35427 5.89779e-18
4125.35877 5.74535e-18
4128.36327 5.78372e-18
4131.35775 5.78830e-18
4134.36226 5.62675e-18
4137.36676 5.54993e-18
4140.36124 5.59560e-18
4143.36574 5.53563e-18
4146.37024 5.47220e-18
4149.36472 5.49779e-18
4152.36922 5.50636e-18
4155.37372 5.51403e-18
4158.36821 5.59946e-18
4161.37271 5.54939e-18
4164.37721 5.49944e-18
4167.38171 5.50272e-18
4170.37620 5.40700e-18
4173.38070 5.30547e-18
4176.38520 5.26648e-18
4179.37968 5.16710e-18
4182.38418 5.11317e-18
4185.38868 5.12115e-18
4188.38317 5.02475e-18
4191.38767 4.96879e-18
4194.39217 4.94391e-18
4197.38665 4.97930e-18
4200.39115 5.01051e-18
4203.39565 5.03808e-18
4206.40015 5.06271e-18
4209.39464 5.06668e-18
4212.39914 5.13150e-18
4215.40364 5.24500e-18
4218.39812 5.32156e-18
4221.40262 5.27694e-18
4224.40712 5.22120e-18
4227.40161 5.23878e-18
4230.40611 5.31582e-18
4233.41061 5.26672e-18
4236.40509 5.15031e-18
4239.40959 5.16175e-18
4242.41409 5.18833e-18
4245.41859 5.07841e-18
4248.41308 5.06247e-18
4251.41758 5.04446e-18
4254.42208 4.94346e-18
4257.41656 4.91844e-18
4260.42106 4.90543e-18
4263.42556 4.91962e-18
4266.42004 4.94806e-18
4269.42454 4.94596e-18
4272.42904 4.98239e-18
4275.42353 5.05960e-18
4278.42803 5.12555e-18
4281.43253 5.21788e-18
4284.43703 5.28648e-18
4287.43152 5.33136e-18
4290.43602 5.34069e-18
4293.44052 5.37337e-18
4296.43500 5.42211e-18
4299.43950 5.47996e-18
4302.44400 5.50283e-18
4305.43848 5.50473e-18
4308.44298 5.47783e-18
4311.44748 5.47075e-18
4314.45198 5.50353e-18
4317.44647 5.50122e-18
4320.45097 5.54560e-18
4323.45547 5.54427e-18
4326.44996 5.40907e-18
4329.45446 5.32591e-18
4332.45896 5.34804e-18
4335.45344 5.31371e-18
4338.45794 5.23336e-18
4341.46244 5.16838e-18
4344.45693 5.09404e-18
4347.46143 5.05011e-18
4350.46593 5.05371e-18
4353.47043 5.05237e-18
4356.46491 5.02515e-18
4359.46941 5.00047e-18
4362.47391 4.99289e-18
4365.46840 4.98570e-18
4368.47290 4.96510e-18
4371.47740 4.83603e-18
4374.47188 4.68319e-18
4377.47638 4.58616e-18
4380.48088 4.50191e-18
4383.47537 4.36154e-18
4386.47987 4.23857e-18
4389.48437 4.14732e-18
4392.48887 4.08171e-18
4395.48335 4.02796e-18
4398.48785 3.97854e-18
4401.49235 3.99787e-18
4404.48684 4.01491e-18
4407.49134 4.01478e-18
4410.49584 4.02582e-18
4413.49032 4.07399e-18
4416.49482 4.17660e-18
4419.49932 4.20741e-18
4422.49381 4.23539e-18
4425.49831 4.34530e-18
4428.50281 4.40089e-18
4431.50731 4.43944e-18
4434.50179 4.58838e-18
4437.50629 4.71517e-18
4440.51079 4.80777e-18
4443.50528 4.84945e-18
4446.50978 4.91035e-18
4449.51428 4.94548e-18
4452.50876 4.95084e-18
4455.51326 5.00489e-18
4458.51776 5.12592e-18
4461.52226 5.20899e-18
4464.51674 5.25878e-18
4467.52124 5.30857e-18
4470.52574 5.39825e-18
4473.52023 5.41807e-18
4476.52473 5.37746e-18
4479.52923 5.40667e-18
4482.52372 5.47656e-18
4485.52822 5.56285e-18
4488.53272 5.60667e-18
4491.52720 5.62540e-18
4494.53170 5.61727e-18
4497.53620 5.65194e-18
4500.54070 5.72984e-18
4503.53519 5.79857e-18
4506.53969 5.89208e-18
4509.54419 5.99225e-18
4512.53867 6.04826e-18
4515.54317 6.17870e-18
4518.54767 6.31207e-18
4521.54216 6.46624e-18
4524.54666 6.65049e-18
4527.55116 6.75861e-18
4530.54564 6.90643e-18
4533.55014 7.13608e-18
4536.55464 7.38168e-18
4539.55914 7.60877e-18
4542.55363 7.82380e-18
4545.55813 8.08624e-18
4548.56263 8.31763e-18
4551.55711 8.51351e-18
4554.56161 8.77480e-18
4557.56611 9.01219e-18
4560.56059 9.23582e-18
4563.56509 9.55370e-18
4566.56959 9.83776e-18
4569.56408 1.00133e-17
4572.56858 1.02091e-17
4575.57308 1.04635e-17
4578.57758 1.05907e-17
4581.57207 1.07203e-17
4584.57657 1.09420e-17
4587.58107 1.11381e-17
4590.57555 1.12601e-17
4593.58005 1.12292e-17
4596.58455 1.12663e-17
4599.57903 1.13204e-17
4602.58353 1.13621e-17
4605.58803 1.14555e-17
4608.59253 1.15355e-17
4611.58702 1.16449e-17
4614.59152 1.17113e-17
4617.59602 1.18026e-17
4620.59051 1.18598e-17
4623.59501 1.18351e-17
4626.59951 1.18688e-17
4629.59399 1.18692e-17
4632.59849 1.18831e-17
4635.60299 1.19801e-17
4638.59747 1.20716e-17
4641.60197 1.21654e-17
4644.60647 1.21790e-17
4647.61097 1.21177e-17
4650.60546 1.21115e-17
4653.60996 1.20946e-17
4656.61446 1.20152e-17
4659.60894 1.19880e-17
4662.61344 1.18970e-17
4665.61794 1.18120e-17
4668.61243 1.18219e-17
4671.61693 1.17823e-17
4674.62143 1.16330e-17
4677.61592 1.14691e-17
4680.62042 1.13222e-17
4683.62492 1.11563e-17
4686.62942 1.09460e-17
4689.62390 1.07214e-17
4692.62840 1.06057e-17
4695.63290 1.06306e-17
4698.62739 1.06027e-17
4701.63189 1.05998e-17
4704.63639 1.07661e-17
4707.63087 1.09985e-17
4710.63537 1.13586e-17
4713.63987 1.16667e-17
4716.63436 1.18923e-17
4719.63886 1.21232e-17
4722.64336 1.23822e-17
4725.64786 1.26545e-17
4728.64234 1.27211e-17
4731.64684 1.26970e-17
4734.65134 1.27521e-17
4737.64583 1.28212e-17
4740.65033 1.27484e-17
4743.65483 1.26984e-17
4746.64931 1.27423e-17
4749.65381 1.26521e-17
4752.65831 1.24815e-17
4755.66281 1.23309e-17
4758.65729 1.22230e-17
4761.66179 1.20947e-17
4764.66629 1.20557e-17
4767.66078 1.20300e-17
4770.66528 1.19501e-17
4773.66978 1.17772e-17
4776.66427 1.17618e-17
4779.66877 1.18761e-17
4782.67327 1.18366e-17
4785.66775 1.16941e-17
4788.67225 1.16084e-17
4791.67675 1.16488e-17
4794.68125 1.15765e-17
4797.67573 1.14446e-17
4800.68023 1.14881e-17
4803.68473 1.14010e-17
4806.67922 1.12321e-17
4809.68372 1.11968e-17
4812.68822 1.11345e-17
4815.68271 1.08586e-17
4818.68721 1.05886e-17
4821.69171 1.04113e-17
4824.68619 1.02150e-17
4827.69069 1.00373e-17
4830.69519 9.81349e-18
4833.69969 9.53671e-18
4836.69418 9.32976e-18
4839.69867 9.16601e-18
4842.70317 8.93430e-18
4845.69766 8.72909e-18
4848.70216 8.61172e-18
4851.70666 8.45431e-18
4854.70115 8.25213e-18
4857.70565 8.06714e-18
4860.71015 7.87200e-18
4863.70463 7.66922e-18
4866.70913 7.45557e-18
4869.71363 7.20179e-18
4872.71813 7.05431e-18
4875.71262 6.99694e-18
4878.71712 6.85222e-18
4881.72162 6.67925e-18
4884.71610 6.53175e-18
4887.72060 6.41037e-18
4890.72510 6.28180e-18
4893.71959 6.08680e-18
4896.72409 5.91165e-18
4899.72859 5.81969e-18
4902.73309 5.79709e-18
4905.72757 5.83495e-18
4908.73207 5.94452e-18
4911.73657 6.14564e-18
4914.73106 6.35311e-18
4917.73556 6.51929e-18
4920.74006 6.69289e-18
4923.73454 6.93360e-18
4926.73904 7.18895e-18
4929.74354 7.47651e-18
4932.73803 7.76388e-18
4935.74253 7.97645e-18
4938.74703 8.11595e-18
4941.75153 8.26062e-18
4944.74601 8.42408e-18
4947.75051 8.60987e-18
4950.75501 8.75547e-18
4953.74950 8.98233e-18
4956.75400 9.23794e-18
4959.75850 9.47357e-18
4962.75298 9.72158e-18
4965.75748 9.92605e-18
4968.76198 1.02502e-17
4971.75647 1.05793e-17
4974.76097 1.08558e-17
4977.76547 1.11292e-17
4980.76997 1.14870e-17
4983.76445 1.19156e-17
4986.76895 1.22906e-17
4989.77345 1.26876e-17
4992.76793 1.30778e-17
4995.77243 1.34513e-17
4998.77693 1.39070e-17
5001.77142 1.44610e-17
5004.77592 1.48864e-17
5007.78042 1.52517e-17
5010.77491 1.56060e-17
5013.77941 1.58222e-17
5016.78391 1.59104e-17
5019.78841 1.59650e-17
5022.78289 1.58747e-17
5025.78739 1.58067e-17
5028.79189 1.57339e-17
5031.78638 1.55489e-17
5034.79088 1.52962e-17
5037.79538 1.50428e-17
5040.78986 1.47280e-17
5043.79436 1.44842e-17
5046.79886 1.42822e-17
5049.80336 1.39156e-17
5052.79785 1.34798e-17
5055.80235 1.30229e-17
5058.80685 1.25522e-17
5061.80133 1.20430e-17
5064.80583 1.14824e-17
5067.81033 1.09629e-17
5070.80482 1.05154e-17
5073.80932 1.01476e-17
5076.81382 9.73731e-18
5079.80830 9.34661e-18
5082.81280 9.02564e-18
5085.81730 8.70340e-18
5088.82180 8.44588e-18
5091.81628 8.24528e-18
5094.82078 8.13602e-18
5097.82528 8.08812e-18
5100.81977 8.05289e-18
5103.82427 7.98179e-18
5106.82877 7.92721e-18
5109.82326 7.97641e-18
5112.82776 8.02975e-18
5115.83226 8.07546e-18
5118.82674 8.19694e-18
5121.83124 8.33259e-18
5124.83574 8.47188e-18
5127.84024 8.63404e-18
5130.83472 8.78731e-18
5133.83922 8.91111e-18
5136.84372 9.17213e-18
5139.83821 9.43596e-18
5142.84271 9.57887e-18
5145.84721 9.70287e-18
5148.84170 9.83644e-18
5151.84620 9.96348e-18
5154.85070 1.01663e-17
5157.84518 1.03256e-17
5160.84968 1.04678e-17
5163.85418 1.05705e-17
5166.85868 1.07264e-17
5169.85316 1.08593e-17
5172.85766 1.09707e-17
5175.86216 1.11050e-17
5178.85665 1.11576e-17
5181.86115 1.11493e-17
5184.86565 1.12096e-17
5187.86014 1.12515e-17
5190.86464 1.11980e-17
5193.86914 1.11591e-17
5196.86362 1.11514e-17
5199.86812 1.11120e-17
5202.87262 1.10257e-17
5205.87712 1.09402e-17
5208.87161 1.08556e-17
5211.87611 1.08320e-17
5214.88061 1.08383e-17
5217.87509 1.08181e-17
5220.87959 1.07871e-17
5223.88409 1.07708e-17
5226.87858 1.07367e-17
5229.88308 1.06162e-17
5232.88758 1.05547e-17
5235.89208 1.05911e-17
5238.88656 1.05870e-17
5241.89106 1.05109e-17
5244.89556 1.04487e-17
5247.89005 1.05329e-17
5250.89455 1.06823e-17
5253.89905 1.08100e-17
5256.89353 1.08719e-17
5259.89803 1.08507e-17
5262.90253 1.08942e-17
5265.89702 1.09714e-17
5268.90152 1.10367e-17
5271.90602 1.11488e-17
5274.91052 1.12773e-17
5277.90500 1.13580e-17
5280.90950 1.14339e-17
5283.91400 1.15836e-17
5286.90848 1.17383e-17
5289.91298 1.18576e-17
5292.91748 1.19775e-17
5295.91197 1.21575e-17
5298.91647 1.22928e-17
5301.92097 1.23494e-17
5304.92547 1.24508e-17
5307.91996 1.25871e-17
5310.92446 1.26513e-17
5313.92896 1.28114e-17
5316.92344 1.30971e-17
5319.92794 1.32651e-17
5322.93244 1.33374e-17
5325.92692 1.34767e-17
5328.93142 1.35034e-17
5331.93592 1.35808e-17
5334.93041 1.37176e-17
5337.93491 1.38262e-17
5340.93941 1.39871e-17
5343.94391 1.40260e-17
5346.93840 1.40408e-17
5349.94290 1.41622e-17
5352.94740 1.42878e-17
5355.94188 1.43946e-17
5358.94638 1.44526e-17
5361.95088 1.45517e-17
5364.94537 1.46581e-17
5367.94987 1.46920e-17
5370.95437 1.47146e-17
5373.94885 1.47544e-17
5376.95335 1.47475e-17
5379.95785 1.47881e-17
5382.96235 1.49160e-17
5385.95684 1.49940e-17
5388.96134 1.50452e-17
5391.96584 1.51008e-17
5394.96032 1.51570e-17
5397.96482 1.52873e-17
5400.96932 1.54421e-17
5403.96381 1.55048e-17
5406.96831 1.55546e-17
5409.97281 1.56446e-17
5412.96729 1.57925e-17
5415.97179 1.60659e-17
5418.97629 1.63309e-17
5421.98079 1.64310e-17
5424.97528 1.64282e-17
5427.97978 1.64348e-17
5430.98428 1.64502e-17
5433.97876 1.64497e-17
5436.98326 1.64223e-17
5439.98776 1.63995e-17
5442.98225 1.64032e-17
5445.98675 1.63409e-17
5448.99125 1.61405e-17
5451.98573 1.59549e-17
5454.99023 1.58133e-17
5457.99473 1.57392e-17
5460.99923 1.56654e-17
5463.99372 1.55061e-17
5466.99822 1.54024e-17
5470.00272 1.53528e-17
5472.99720 1.52773e-17
5476.00170 1.52255e-17
5479.00620 1.52124e-17
5482.00068 1.52181e-17
5485.00518 1.51976e-17
5488.00968 1.53127e-17
5491.01418 1.55197e-17
5494.00867 1.57570e-17
5497.01317 1.60902e-17
5500.01767 1.64162e-17
5503.01216 1.66729e-17
5506.01666 1.70348e-17
5509.02116 1.75811e-17
5512.01564 1.80374e-17
5515.02014 1.85135e-17
5518.02464 1.89392e-17
5521.01913 1.92615e-17
5524.02363 1.96848e-17
5527.02813 2.00384e-17
5530.03263 2.02643e-17
5533.02711 2.05526e-17
5536.03161 2.08413e-17
5539.03611 2.09998e-17
5542.03060 2.10962e-17
5545.03510 2.11290e-17
5548.03960 2.11001e-17
5551.03408 2.10753e-17
5554.03858 2.10291e-17
5557.04308 2.09239e-17
5560.03757 2.07201e-17
5563.04207 2.04167e-17
5566.04657 2.01031e-17
5569.05107 1.98200e-17
5572.04555 1.94525e-17
5575.05005 1.89688e-17
5578.05455 1.85882e-17
5581.04904 1.82115e-17
5584.05354 1.77609e-17
5587.05804 1.73802e-17
5590.05252 1.68758e-17
5593.05702 1.63557e-17
5596.06152 1.59082e-17
5599.05601 1.54913e-17
5602.06051 1.50325e-17
5605.06501 1.45731e-17
5608.06951 1.42193e-17
5611.06399 1.39542e-17
5614.06849 1.37365e-17
5617.07299 1.35120e-17
5620.06747 1.33385e-17
5623.07197 1.32608e-17
5626.07647 1.32729e-17
5629.07096 1.32767e-17
5632.07546 1.32436e-17
5635.07996 1.32628e-17
5638.08446 1.32741e-17
5641.07895 1.32583e-17
5644.08345 1.32952e-17
5647.08795 1.33376e-17
5650.08243 1.32931e-17
5653.08693 1.32381e-17
5656.09143 1.32116e-17
5659.08591 1.31273e-17
5662.09041 1.28922e-17
5665.09491 1.24629e-17
5668.08940 1.19884e-17
5671.09390 1.14975e-17
5674.09840 1.09643e-17
5677.10290 1.03283e-17
5680.09739 9.59781e-18
5683.10189 8.86230e-18
5686.10639 8.19805e-18
5689.10087 7.60881e-18
5692.10537 6.99158e-18
5695.10987 6.40295e-18
5698.10436 5.84749e-18
5701.10886 5.36445e-18
5704.11336 4.98688e-18
5707.10784 4.69244e-18
5710.11234 4.46431e-18
5713.11684 4.23043e-18
5716.12134 4.03932e-18
5719.11583 3.91205e-18
5722.12033 3.81976e-18
5725.12483 3.76801e-18
5728.11931 3.69840e-18
5731.12381 3.61479e-18
5734.12831 3.61467e-18
5737.12280 3.67614e-18
5740.12730 3.73115e-18
5743.13180 3.77571e-18
5746.12628 3.86087e-18
5749.13078 3.99019e-18
5752.13528 4.09210e-18
5755.13978 4.19651e-18
5758.13427 4.35844e-18
5761.13877 4.54247e-18
5764.14327 4.70827e-18
5767.13775 4.83863e-18
5770.14225 4.99805e-18
5773.14675 5.23239e-18
5776.14124 5.50647e-18
5779.14574 5.77120e-18
5782.15024 6.03412e-18
5785.15474 6.31721e-18
5788.14922 6.59883e-18
5791.15372 6.91985e-18
5794.15822 7.26420e-18
5797.15271 7.60794e-18
5800.15721 7.97976e-18
5803.16171 8.35321e-18
5806.15619 8.68081e-18
5809.16069 9.02366e-18
5812.16519 9.39808e-18
5815.15967 9.77547e-18
5818.16417 1.01796e-17
5821.16867 1.06446e-17
5824.17317 1.11240e-17
5827.16766 1.15649e-17
5830.17216 1.20121e-17
5833.17666 1.24752e-17
5836.17115 1.29342e-17
5839.17565 1.34285e-17
5842.18015 1.39431e-17
5845.17463 1.44629e-17
5848.17913 1.50397e-17
5851.18363 1.57035e-17
5854.18813 1.64074e-17
5857.18262 1.71713e-17
5860.18712 1.79788e-17
5863.19162 1.88494e-17
5866.18610 1.97316e-17
5869.19060 2.06422e-17
5872.19510 2.15510e-17
5875.18959 2.23897e-17
5878.19409 2.31879e-17
5881.19859 2.39221e-17
5884.19307 2.45602e-17
5887.19757 2.51377e-17
5890.20207 2.55830e-17
5893.20657 2.59468e-17
5896.20106 2.65089e-17
5899.20556 2.70587e-17
5902.21006 2.74647e-17
5905.20454 2.78778e-17
5908.20904 2.82051e-17
5911.21354 2.84485e-17
5914.20803 2.85823e-17
5917.21253 2.84954e-17
5920.21703 2.83469e-17
5923.21151 2.81936e-17
5926.21601 2.80420e-17
5929.22051 2.78592e-17
5932.21500 2.76020e-17
5935.21950 2.72489e-17
5938.22400 2.68724e-17
5941.22850 2.65107e-17
5944.22298 2.61569e-17
5947.22748 2.58020e-17
5950.23198 2.54270e-17
5953.22647 2.50439e-17
5956.23097 2.46607e-17
5959.23547 2.42929e-17
5962.22995 2.39637e-17
5965.23445 2.36245e-17
5968.23895 2.32782e-17
5971.24345 2.30870e-17
5974.23794 2.29269e-17
5977.24244 2.27506e-17
5980.24694 2.25673e-17
5983.24142 2.23547e-17
5986.24592 2.20853e-17
5989.25042 2.17898e-17
5992.24491 2.14964e-17
5995.24941 2.12777e-17
5998.25391 2.10614e-17
6001.25841 2.08454e-17
6004.25289 2.06710e-17
6007.25739 2.05015e-17
6010.26189 2.02991e-17
6013.25637 2.01270e-17
6016.26087 1.99169e-17
6019.26537 1.97171e-17
6022.25986 1.95229e-17
6025.26436 1.93071e-17
6028.26886 1.90541e-17
6031.26335 1.87476e-17
6034.26785 1.85131e-17
6037.27235 1.82475e-17
6040.27685 1.79680e-17
6043.27133 1.77723e-17
6046.27583 1.75621e-17
6049.28033 1.74591e-17
6052.27482 1.73332e-17
6055.27932 1.71482e-17
6058.28382 1.69243e-17
6061.27830 1.66794e-17
6064.28280 1.64550e-17
6067.28730 1.63159e-17
6070.28179 1.61579e-17
6073.28629 1.60574e-17
6076.29079 1.59509e-17
6079.29529 1.57451e-17
6082.28977 1.55626e-17
6085.29427 1.54067e-17
6088.29877 1.52510e-17
6091.29326 1.51075e-17
6094.29776 1.50058e-17
6097.30226 1.49620e-17
6100.29674 1.48798e-17
6103.30124 1.48132e-17
6106.30574 1.47562e-17
6109.30022 1.47132e-17
6112.30472 1.46955e-17
6115.30922 1.46772e-17
6118.31372 1.46425e-17
6121.30821 1.46856e-17
6124.31271 1.47236e-17
6127.31721 1.47189e-17
6130.31170 1.48048e-17
6133.31620 1.49235e-17
6136.32070 1.50105e-17
6139.31518 1.51503e-17
6142.31968 1.53171e-17
6145.32418 1.54540e-17
6148.32868 1.55216e-17
6151.32316 1.55767e-17
6154.32766 1.55588e-17
6157.33216 1.55392e-17
6160.32665 1.55877e-17
6163.33115 1.55704e-17
6166.33565 1.55513e-17
6169.33014 1.54839e-17
6172.33464 1.53553e-17
6175.33914 1.51982e-17
6178.33362 1.50722e-17
6181.33812 1.50420e-17
6184.34262 1.49567e-17
6187.34712 1.47681e-17
6190.34160 1.46086e-17
6193.34610 1.45177e-17
6196.35060 1.43709e-17
6199.34509 1.41904e-17
6202.34959 1.40418e-17
6205.35409 1.39000e-17
6208.34858 1.37734e-17
6211.35308 1.36607e-17
6214.35758 1.35768e-17
6217.35206 1.35563e-17
6220.35656 1.35791e-17
6223.36106 1.35836e-17
6226.36556 1.36080e-17
6229.36005 1.36570e-17
6232.36455 1.37006e-17
6235.36905 1.37743e-17
6238.36353 1.38764e-17
6241.36803 1.39028e-17
6244.37253 1.39340e-17
6247.36702 1.39944e-17
6250.37152 1.40732e-17
6253.37602 1.41659e-17
6256.37050 1.42595e-17
6259.37500 1.43985e-17
6262.37950 1.45109e-17
6265.38400 1.45630e-17
6268.37849 1.45698e-17
6271.38299 1.45220e-17
6274.38749 1.43797e-17
6277.38197 1.42076e-17
6280.38647 1.39776e-17
6283.39097 1.37184e-17
6286.38546 1.34110e-17
6289.38996 1.30220e-17
6292.39446 1.26470e-17
6295.38894 1.22843e-17
6298.39344 1.19101e-17
6301.39794 1.14693e-17
6304.40244 1.09271e-17
6307.39693 1.04064e-17
6310.40143 9.91989e-18
6313.40593 9.38733e-18
6316.40041 8.82690e-18
6319.40491 8.25437e-18
6322.40941 7.69024e-18
6325.40390 7.25571e-18
6328.40840 6.91477e-18
6331.41290 6.60831e-18
6334.41740 6.46029e-18
6337.41188 6.44361e-18
6340.41638 6.53409e-18
6343.42088 6.77663e-18
6346.41536 7.07262e-18
6349.41986 7.49783e-18
6352.42436 8.06924e-18
6355.41885 8.66501e-18
6358.42335 9.26245e-18
6361.42785 9.86184e-18
6364.42234 1.04331e-17
6367.42684 1.09778e-17
6370.43134 1.14701e-17
6373.43584 1.18950e-17
6376.43032 1.21650e-17
6379.43482 1.24201e-17
6382.43932 1.26658e-17
6385.43381 1.27989e-17
6388.43831 1.28867e-17
6391.44281 1.30289e-17
6394.43729 1.32109e-17
6397.44179 1.34207e-17
6400.44629 1.36076e-17
6403.44078 1.37619e-17
6406.44528 1.39125e-17
6409.44978 1.40557e-17
6412.45428 1.41695e-17
6415.44876 1.42370e-17
6418.45326 1.43453e-17
6421.45776 1.45019e-17
6424.45225 1.46099e-17
6427.45675 1.47417e-17
6430.46125 1.49141e-17
6433.45573 1.50669e-17
6436.46023 1.51433e-17
6439.46473 1.52294e-17
6442.45922 1.53235e-17
6445.46372 1.54458e-17
6448.46822 1.56197e-17
6451.47272 1.57804e-17
6454.46720 1.58385e-17
6457.47170 1.59146e-17
6460.47620 1.60377e-17
6463.47069 1.61528e-17
6466.47519 1.62087e-17
6469.47969 1.62754e-17
6472.47417 1.63621e-17
6475.47867 1.63959e-17
6478.48317 1.64301e-17
6481.48767 1.64438e-17
6484.48216 1.64142e-17
6487.48666 1.64242e-17
6490.49116 1.64964e-17
6493.48564 1.65661e-17
6496.49014 1.66133e-17
6499.49464 1.66036e-17
6502.48913 1.65508e-17
6505.49363 1.64668e-17
6508.49813 1.63501e-17
6511.49261 1.62273e-17
6514.49711 1.60804e-17
6517.50161 1.58151e-17
6520.50611 1.55269e-17
6523.50059 1.53119e-17
6526.50509 1.50580e-17
6529.50959 1.47801e-17
6532.50408 1.45711e-17
6535.50858 1.43227e-17
6538.51308 1.40453e-17
6541.50757 1.38386e-17
6544.51207 1.35643e-17
6547.51657 1.31764e-17
6550.52107 1.28011e-17
6553.51555 1.25574e-17
6556.52005 1.23861e-17
6559.52455 1.22473e-17
6562.51904 1.21320e-17
6565.52354 1.20780e-17
6568.52804 1.21021e-17
6571.52252 1.21483e-17
6574.52702 1.21723e-17
6577.53152 1.22381e-17
6580.52601 1.23448e-17
6583.53051 1.25058e-17
6586.53501 1.27322e-17
6589.53951 1.30116e-17
6592.53399 1.32801e-17
6595.53849 1.35117e-17
6598.54299 1.37524e-17
6601.53748 1.40310e-17
6604.54198 1.43332e-17
6607.54648 1.46470e-17
6610.54096 1.49353e-17
6613.54546 1.52830e-17
6616.54996 1.56001e-17
6619.54445 1.58240e-17
6622.54895 1.60083e-17
6625.55345 1.61691e-17
6628.54793 1.63678e-17
6631.55243 1.65794e-17
6634.55693 1.68873e-17
6637.56143 1.71113e-17
6640.55591 1.72019e-17
6643.56041 1.72766e-17
6646.56491 1.73549e-17
6649.55940 1.74544e-17
6652.56390 1.75698e-17
6655.56840 1.77712e-17
6658.56289 1.80424e-17
6661.56739 1.83163e-17
6664.57189 1.86133e-17
6667.57639 1.89781e-17
6670.57087 1.93129e-17
6673.57537 1.95032e-17
6676.57987 1.96854e-17
6679.57435 1.98891e-17
6682.57885 2.01993e-17
6685.58335 2.04598e-17
6688.57784 2.06085e-17
6691.58234 2.06827e-17
6694.58684 2.07305e-17
6697.59134 2.08354e-17
6700.58583 2.09685e-17
6703.59033 2.09542e-17
6706.59483 2.08998e-17
6709.58931 2.09749e-17
6712.59381 2.10376e-17
6715.59831 2.10826e-17
6718.59280 2.11511e-17
6721.59730 2.11094e-17
6724.60180 2.09227e-17
6727.59628 2.08136e-17
6730.60078 2.06512e-17
6733.60528 2.03627e-17
6736.60978 2.00922e-17
6739.60427 1.98089e-17
6742.60877 1.95955e-17
6745.61327 1.94332e-17
6748.60775 1.92847e-17
6751.61225 1.90414e-17
6754.61675 1.86713e-17
6757.61124 1.83699e-17
6760.61574 1.81288e-17
6763.62024 1.78940e-17
6766.61472 1.77697e-17
6769.61922 1.76221e-17
6772.62372 1.73194e-17
6775.62822 1.69873e-17
6778.62271 1.67138e-17
6781.62721 1.64351e-17
6784.63171 1.61604e-17
6787.62619 1.59926e-17
6790.63069 1.58383e-17
6793.63519 1.57408e-17
6796.62968 1.57056e-17
6799.63418 1.56033e-17
6802.63868 1.54316e-17
6805.63316 1.52430e-17
6808.63766 1.50760e-17
6811.64216 1.49301e-17
6814.64666 1.48057e-17
6817.64115 1.47768e-17
6820.64565 1.48149e-17
6823.65015 1.48166e-17
6826.64463 1.48014e-17
6829.64913 1.47463e-17
6832.65363 1.46630e-17
6835.64811 1.45889e-17
6838.65261 1.44742e-17
6841.65711 1.44961e-17
6844.66161 1.44671e-17
6847.65610 1.43945e-17
6850.66060 1.43759e-17
6853.66510 1.42879e-17
6856.65959 1.41552e-17
6859.66409 1.40095e-17
6862.66859 1.38137e-17
6865.66307 1.35184e-17
6868.66757 1.32339e-17
6871.67207 1.30405e-17
6874.66656 1.27470e-17
6877.67106 1.21965e-17
6880.67556 1.13856e-17
6883.68006 1.05650e-17
6886.67454 1.03368e-17
6889.67904 1.09467e-17
6892.68354 1.19269e-17
6895.67803 1.23881e-17
6898.68253 1.19481e-17
6901.68703 1.10288e-17
6904.68151 1.02835e-17
6907.68601 9.96754e-18
6910.69051 9.88812e-18
6913.68500 9.71692e-18
6916.68950 9.42751e-18
6919.69400 9.20089e-18
6922.69850 9.05724e-18
6925.69298 8.90380e-18
6928.69748 8.70674e-18
6931.70198 8.49238e-18
6934.69647 8.31083e-18
6937.70097 8.11447e-18
6940.70547 7.89701e-18
6943.69995 7.77464e-18
6946.70445 7.70628e-18
6949.70895 7.71336e-18
6952.70344 7.84590e-18
6955.70794 7.88823e-18
6958.71244 7.87585e-18
6961.71694 8.01841e-18
6964.71142 8.26803e-18
6967.71592 8.48839e-18
6970.72042 8.57656e-18
6973.71491 8.67490e-18
6976.71941 8.84089e-18
6979.72391 9.02873e-18
6982.71839 9.27306e-18
6985.72289 9.53953e-18
6988.72739 9.74414e-18
6991.72188 9.94151e-18
6994.72638 1.02357e-17
6997.73088 1.06160e-17
7000.73538 1.10015e-17
7003.72986 1.13441e-17
7006.73436 1.16586e-17
7009.73886 1.20146e-17
7012.73334 1.24411e-17
7015.73784 1.29201e-17
7018.74234 1.32866e-17
7021.73683 1.37045e-17
7024.74133 1.43069e-17
7027.74583 1.48213e-17
7030.75033 1.52054e-17
7033.74482 1.54347e-17
7036.74932 1.56677e-17
7039.75382 1.60271e-17
7042.74830 1.64151e-17
7045.75280 1.69237e-17
7048.75730 1.76138e-17
7051.75179 1.84096e-17
7054.75629 1.92860e-17
7057.76079 2.01132e-17
7060.75527 2.07058e-17
7063.75977 2.09302e-17
7066.76427 2.10754e-17
7069.76877 2.12599e-17
7072.76326 2.13453e-17
7075.76776 2.15488e-17
7078.77226 2.17823e-17
7081.76674 2.19657e-17
7084.77124 2.21876e-17
7087.77574 2.22389e-17
7090.77023 2.21707e-17
7093.77473 2.21226e-17
7096.77923 2.20451e-17
7099.77371 2.19698e-17
7102.77821 2.18842e-17
7105.78271 2.18249e-17
7108.78721 2.18001e-17
7111.78170 2.17386e-17
7114.78620 2.17568e-17
7117.79070 2.17319e-17
7120.78518 2.14389e-17
7123.78968 2.10145e-17
7126.79418 2.05095e-17
7129.78867 2.00217e-17
7132.79317 1.96563e-17
7135.79767 1.94380e-17
7138.79215 1.92914e-17
7141.79665 1.91537e-17
7144.80115 1.88841e-17
7147.80565 1.84902e-17
7150.80014 1.80611e-17
7153.80464 1.76707e-17
7156.80914 1.73696e-17
7159.80362 1.71349e-17
7162.80812 1.68616e-17
7165.81262 1.65911e-17
7168.80710 1.63415e-17
7171.81160 1.60846e-17
7174.81610 1.59909e-17
7177.82060 1.58554e-17
7180.81509 1.54559e-17
7183.81959 1.51256e-17
7186.82409 1.51126e-17
7189.81858 1.50685e-17
7192.82308 1.49198e-17
7195.82758 1.48500e-17
7198.82206 1.46844e-17
7201.82656 1.44704e-17
7204.83106 1.44569e-17
7207.82555 1.46612e-17
7210.83004 1.48218e-17
7213.83454 1.48266e-17
7216.83904 1.48720e-17
7219.83353 1.51466e-17
7222.83803 1.53893e-17
7225.84253 1.54289e-17
7228.83702 1.55645e-17
7231.84152 1.57040e-17
7234.84602 1.56548e-17
7237.84050 1.56560e-17
7240.84500 1.57342e-17
7243.84950 1.58995e-17
7246.84399 1.59633e-17
7249.84849 1.59519e-17
7252.85299 1.60797e-17
7255.85749 1.62638e-17
7258.85197 1.63203e-17
7261.85647 1.64164e-17
7264.86097 1.64423e-17
7267.85546 1.64136e-17
7270.85996 1.63977e-17
7273.86446 1.63803e-17
7276.85894 1.65301e-17
7279.86344 1.68075e-17
7282.86794 1.69774e-17
7285.86243 1.70894e-17
7288.86693 1.71964e-17
7291.87143 1.72087e-17
7294.87593 1.71534e-17
7297.87041 1.72414e-17
7300.87491 1.75118e-17
7303.87941 1.77338e-17
7306.87390 1.78305e-17
7309.87840 1.80699e-17
7312.88290 1.83005e-17
7315.87738 1.85038e-17
7318.88188 1.86887e-17
7321.88638 1.86609e-17
7324.89088 1.86871e-17
7327.88537 1.88227e-17
7330.88987 1.89361e-17
7333.89437 1.90656e-17
7336.88885 1.92528e-17
7339.89335 1.94959e-17
7342.89785 1.96319e-17
7345.89234 1.95881e-17
7348.89684 1.95599e-17
7351.90134 1.94424e-17
7354.89582 1.91372e-17
7357.90032 1.88543e-17
7360.90482 1.86713e-17
7363.90932 1.85694e-17
7366.90380 1.83513e-17
7369.90830 1.82516e-17
7372.91280 1.81409e-17
7375.90729 1.78939e-17
7378.91179 1.77365e-17
7381.91629 1.76065e-17
7384.91078 1.73213e-17
7387.91528 1.69689e-17
7390.91978 1.66327e-17
7393.91426 1.63580e-17
7396.91876 1.61564e-17
7399.92326 1.60253e-17
7402.92776 1.60253e-17
7405.92225 1.60152e-17
7408.92675 1.59082e-17
7411.93125 1.57131e-17
7414.92573 1.54608e-17
7417.93023 1.52376e-17
7420.93473 1.49393e-17
7423.92922 1.46858e-17
7426.93372 1.45800e-17
7429.93822 1.45783e-17
7432.93270 1.45319e-17
7435.93720 1.45112e-17
7438.94170 1.45909e-17
7441.94620 1.46154e-17
7444.94069 1.44713e-17
7447.94519 1.42999e-17
7450.94969 1.41467e-17
7453.94417 1.39942e-17
7456.94867 1.39058e-17
7459.95317 1.38772e-17
7462.94766 1.39814e-17
7465.95216 1.41795e-17
7468.95666 1.43578e-17
7471.96116 1.44305e-17
7474.95564 1.44218e-17
7477.96014 1.45172e-17
7480.96464 1.45543e-17
7483.95913 1.45284e-17
7486.96363 1.43215e-17
7489.96813 1.40914e-17
7492.96261 1.39192e-17
7495.96711 1.37425e-17
7498.97161 1.37167e-17
7501.96609 1.37309e-17
7504.97059 1.36720e-17
7507.97509 1.36646e-17
7510.97959 1.37323e-17
7513.97408 1.37862e-17
7516.97858 1.37423e-17
7519.98308 1.35744e-17
7522.97757 1.32527e-17
7525.98207 1.29285e-17
7528.98657 1.28178e-17
7531.98105 1.28357e-17
7534.98555 1.28361e-17
7537.99005 1.28214e-17
7540.98453 1.29189e-17
7543.98903 1.29698e-17
7546.99353 1.28899e-17
7549.99803 1.27209e-17
7552.99252 1.24844e-17
7555.99702 1.23680e-17
7559.00152 1.23597e-17
7561.99601 1.22160e-17
7565.00051 1.20545e-17
7568.00501 1.20768e-17
7570.99949 1.21808e-17
7574.00399 1.22237e-17
7577.00849 1.21375e-17
7580.00298 1.19970e-17
7583.00748 1.17495e-17
7586.01198 1.14177e-17
7589.01648 1.12130e-17
7592.01096 1.10707e-17
7595.01546 1.09893e-17
7598.01996 1.09538e-17
7601.01445 1.08144e-17
7604.01895 1.04724e-17
7607.02345 1.01231e-17
7610.01793 1.03849e-17
7613.02243 1.05524e-17
7616.02693 1.01060e-17
7619.03143 9.41913e-18
7622.02592 8.76769e-18
7625.03042 8.25339e-18
7628.03492 8.04489e-18
7631.02940 8.18421e-18
7634.03390 8.44309e-18
7637.03840 8.79937e-18
7640.03289 9.00571e-18
7643.03739 8.64777e-18
7646.04189 8.22528e-18
7649.03637 8.11853e-18
7652.04087 8.15938e-18
7655.04537 8.16852e-18
7658.04987 8.24266e-18
7661.04435 8.34441e-18
7664.04886 8.41627e-18
7667.05336 8.45024e-18
7670.04784 8.41383e-18
7673.05234 8.42490e-18
7676.05684 8.45564e-18
7679.05133 8.36493e-18
7682.05583 8.29719e-18
7685.06033 8.35372e-18
7688.05481 8.39202e-18
7691.05931 8.43208e-18
7694.06381 8.57057e-18
7697.06831 8.76298e-18
7700.06279 8.92137e-18
7703.06729 9.05200e-18
7706.07179 9.14469e-18
7709.06628 9.15022e-18
7712.07078 9.08400e-18
7715.07528 9.07486e-18
7718.06977 9.05075e-18
7721.07427 8.86551e-18
7724.07877 8.83256e-18
7727.07325 8.99910e-18
7730.07775 9.21372e-18
7733.08225 9.42237e-18
7736.08675 9.66027e-18
7739.08124 9.96619e-18
7742.08574 1.01914e-17
7745.09024 1.02721e-17
7748.08472 1.03912e-17
7751.08922 1.05105e-17
7754.09372 1.05157e-17
7757.08821 1.05511e-17
7760.09271 1.06851e-17
7763.09721 1.08897e-17
7766.10171 1.11278e-17
7769.09619 1.14569e-17
7772.10069 1.18521e-17
7775.10519 1.22574e-17
7778.09968 1.27020e-17
7781.10418 1.30553e-17
7784.10868 1.32932e-17
7787.10316 1.34783e-17
7790.10766 1.36728e-17
7793.11216 1.38543e-17
7796.10665 1.38578e-17
7799.11115 1.37802e-17
7802.11565 1.37977e-17
7805.12015 1.37661e-17
7808.11463 1.37361e-17
7811.11913 1.38321e-17
7814.12363 1.40078e-17
7817.11812 1.41412e-17
7820.12262 1.42200e-17
7823.12712 1.42927e-17
7826.12160 1.43653e-17
7829.12610 1.44111e-17
7832.13060 1.43107e-17
7835.12509 1.41359e-17
7838.12959 1.40409e-17
7841.13409 1.39367e-17
7844.13859 1.37354e-17
7847.13307 1.34478e-17
7850.13757 1.31244e-17
7853.14207 1.28909e-17
7856.13656 1.28122e-17
7859.14106 1.27843e-17
7862.14556 1.27646e-17
7865.14004 1.28365e-17
7868.14454 1.29375e-17
7871.14904 1.29414e-17
7874.14353 1.27414e-17
7877.14803 1.24382e-17
7880.15253 1.23204e-17
7883.15703 1.22071e-17
7886.15151 1.20137e-17
7889.15601 1.18748e-17
7892.16051 1.17843e-17
7895.15500 1.17534e-17
7898.15950 1.16425e-17
7901.16400 1.14867e-17
7904.15848 1.14548e-17
7907.16298 1.16087e-17
7910.16748 1.18233e-17
7913.16197 1.19824e-17
7916.16647 1.20903e-17
7919.17097 1.19948e-17
7922.17547 1.16677e-17
7925.16995 1.14095e-17
7928.17445 1.13066e-17
7931.17895 1.14317e-17
7934.17344 1.16411e-17
7937.17794 1.17256e-17
7940.18244 1.17976e-17
7943.17692 1.18680e-17
7946.18142 1.18261e-17
7949.18592 1.19031e-17
7952.19042 1.21034e-17
7955.18491 1.21530e-17
7958.18941 1.20028e-17
7961.19391 1.18130e-17
7964.18839 1.17125e-17
7967.19289 1.15855e-17
7970.19739 1.14007e-17
7973.19188 1.13317e-17
7976.19638 1.13016e-17
7979.20088 1.12262e-17
7982.19536 1.12421e-17
7985.19986 1.14055e-17
7988.20436 1.16214e-17
7991.20886 1.17247e-17
7994.20334 1.17708e-17
7997.20784 1.17572e-17
8000.21234 1.15489e-17
8003.20683 1.13047e-17
8006.21133 1.10348e-17
8009.21583 1.07535e-17
8012.21032 1.06469e-17
8015.21482 1.06468e-17
8018.21932 1.06113e-17
8021.22382 1.05877e-17
8024.21830 1.06420e-17
8027.22280 1.07307e-17
8030.22730 1.08065e-17
8033.22178 1.08166e-17
8036.22628 1.06971e-17
8039.23078 1.05623e-17
8042.22527 1.04692e-17
8045.22977 1.03048e-17
8048.23427 1.00608e-17
8051.22876 9.88387e-18
8054.23326 9.79361e-18
8057.23776 9.79489e-18
8060.24226 9.81744e-18
8063.23674 9.79905e-18
8066.24124 9.83730e-18
8069.24574 9.90146e-18
8072.24023 1.00069e-17
8075.24473 1.01058e-17
8078.24923 1.00756e-17
8081.24371 9.96242e-18
8084.24821 9.87507e-18
8087.25271 9.73716e-18
8090.24720 9.49965e-18
8093.25170 9.30681e-18
8096.25620 9.15426e-18
8099.26070 8.99055e-18
8102.25518 8.90834e-18
8105.25968 8.93622e-18
8108.26418 8.97507e-18
8111.25867 8.99154e-18
8114.26317 9.06627e-18
8117.26767 9.10701e-18
8120.26215 9.09308e-18
8123.26665 9.22726e-18
8126.27115 9.40667e-18
8129.26564 9.47126e-18
8132.27014 9.50932e-18
8135.27464 9.57729e-18
8138.27914 9.59673e-18
8141.27362 9.55426e-18
8144.27812 9.42365e-18
8147.28262 9.19123e-18
8150.27711 8.96612e-18
8153.28161 8.76157e-18
8156.28611 8.64409e-18
8159.28059 8.62156e-18
8162.28509 8.54365e-18
8165.28959 8.44406e-18
8168.28408 8.38977e-18
8171.28858 8.32038e-18
8174.29308 8.22376e-18
8177.29758 8.15474e-18
8180.29206 8.08341e-18
8183.29656 8.11983e-18
8186.30106 8.27142e-18
8189.29554 8.44837e-18
8192.30004 8.58859e-18
8195.30455 8.58981e-18
8198.29903 8.52915e-18
8201.30353 8.57143e-18
8204.30803 8.59326e-18
8207.30252 8.48447e-18
8210.30702 8.39113e-18
8213.31152 8.35985e-18
8216.31602 8.31455e-18
8219.31050 8.32044e-18
8222.31500 8.43626e-18
8225.31950 8.61228e-18
8228.31399 8.60971e-18
8231.31848 8.55805e-18
8234.32299 8.52698e-18
8237.31747 8.37629e-18
8240.32197 8.20414e-18
8243.32647 7.94203e-18
8246.33097 7.70530e-18
8249.32546 7.80924e-18
8252.32995 8.21795e-18
8255.33446 8.54379e-18
8258.32894 8.61310e-18
8261.33344 8.60101e-18
8264.33794 8.56305e-18
8267.33243 8.45855e-18
8270.33693 8.33217e-18
8273.34143 8.11658e-18
8276.33591 7.83806e-18
8279.34041 7.65382e-18
8282.34491 7.60439e-18
8285.34941 7.43027e-18
8288.34389 7.16252e-18
8291.34840 6.87699e-18
8294.35289 6.62005e-18
8297.34738 6.42907e-18
8300.35188 6.23861e-18
8303.35638 6.08939e-18
8306.35087 5.94535e-18
8309.35536 5.74348e-18
8312.35987 5.52562e-18
8315.36436 5.39814e-18
8318.35885 5.32503e-18
8321.36335 5.15133e-18
8324.36785 4.92909e-18
8327.36233 4.65946e-18
8330.36684 4.39797e-18
8333.37133 4.12579e-18
8336.36582 3.83970e-18
8339.37032 3.67879e-18
8342.37482 3.52646e-18
8345.37932 3.34179e-18
8348.37381 3.24340e-18
8351.37831 3.16790e-18
8354.38281 3.01127e-18
8357.37729 2.88346e-18
8360.38179 2.83791e-18
8363.38629 2.75364e-18
8366.38078 2.66054e-18
8369.38528 2.60012e-18
8372.38978 2.51738e-18
8375.38426 2.44787e-18
8378.38876 2.41522e-18
8381.39326 2.38275e-18
8384.38774 2.33064e-18
8387.39225 2.30282e-18
8390.39675 2.29581e-18
8393.40125 2.26030e-18
8396.39573 2.25246e-18
8399.40023 2.34107e-18
8402.40473 2.44236e-18
8405.39921 2.55559e-18
8408.40372 2.70861e-18
8411.40821 2.79148e-18
8414.40270 2.86188e-18
8417.40720 2.97447e-18
8420.41170 3.13454e-18
8423.40619 3.33065e-18
8426.41069 3.52471e-18
8429.41519 3.70893e-18
8432.41969 3.90307e-18
8435.41417 4.09032e-18
8438.41867 4.21477e-18
8441.42317 4.30560e-18
8444.41766 4.39277e-18
8447.42216 4.44713e-18
8450.42666 4.60562e-18
8453.42114 4.80613e-18
8456.42564 5.00701e-18
8459.43014 5.11957e-18
8462.42462 5.16837e-18
8465.42913 5.33098e-18
8468.43362 5.55878e-18
8471.43813 5.70890e-18
8474.43261 5.84044e-18
8477.43711 6.02861e-18
8480.44161 6.19913e-18
8483.43610 6.36703e-18
8486.44060 6.49862e-18
8489.44510 6.52936e-18
8492.43958 6.54645e-18
8495.44408 6.52530e-18
8498.44858 6.42566e-18
8501.44306 6.31688e-18
8504.44757 6.40165e-18
8507.45206 6.47511e-18
8510.45657 6.58432e-18
8513.45105 6.69227e-18
8516.45555 6.73225e-18
8519.46005 6.74489e-18
8522.45454 6.84862e-18
8525.45904 7.10977e-18
8528.46354 7.39472e-18
8531.45802 7.56776e-18
8534.46252 7.61846e-18
8537.46702 7.72316e-18
8540.46151 7.91351e-18
8543.46601 8.01030e-18
8546.47051 8.06767e-18
8549.47501 8.20379e-18
8552.46949 8.35489e-18
8555.47399 8.50701e-18
8558.47849 8.60892e-18
8561.47298 8.78239e-18
8564.47747 9.03621e-18
8567.48198 9.30811e-18
8570.47646 9.63084e-18
8573.48096 1.00928e-17
8576.48546 1.05397e-17
8579.48996 1.09517e-17
8582.48445 1.13052e-17
8585.48894 1.16062e-17
8588.49345 1.20048e-17
8591.48793 1.24528e-17
8594.49243 1.29279e-17
8597.49693 1.34106e-17
8600.49142 1.37451e-17
8603.49592 1.38818e-17
8606.50042 1.39563e-17
8609.50492 1.41881e-17
8612.49940 1.45192e-17
8615.50390 1.46654e-17
8618.50840 1.47701e-17
8621.50288 1.49372e-17
8624.50739 1.51342e-17
8627.51188 1.54736e-17
8630.50637 1.59010e-17
8633.51087 1.63892e-17
8636.51537 1.67911e-17
8639.50986 1.70980e-17
8642.51435 1.76228e-17
8645.51886 1.83651e-17
8648.52335 1.91119e-17
8651.51784 1.98256e-17
8654.52234 2.05463e-17
8657.52684 2.11466e-17
8660.52132 2.15262e-17
8663.52583 2.17365e-17
8666.53032 2.17692e-17
8669.52481 2.16805e-17
8672.52931 2.15696e-17
8675.53381 2.15171e-17
8678.53831 2.16226e-17
8681.53280 2.16397e-17
8684.53730 2.16099e-17
8687.54180 2.16809e-17
8690.53628 2.17647e-17
8693.54078 2.17543e-17
8696.54528 2.17274e-17
8699.53977 2.19526e-17
8702.54427 2.22876e-17
8705.54877 2.25496e-17
8708.54325 2.28305e-17
8711.54775 2.31214e-17
8714.55225 2.32291e-17
8717.55675 2.31402e-17
8720.55124 2.29260e-17
8723.55573 2.25153e-17
8726.56024 2.20984e-17
8729.55472 2.18448e-17
8732.55922 2.15027e-17
8735.56372 2.12733e-17
8738.55820 2.11306e-17
8741.56271 2.08073e-17
8744.56720 2.02335e-17
8747.56169 2.00042e-17
8750.56619 1.98091e-17
8753.57069 1.96411e-17
8756.57519 1.94586e-17
8759.56968 1.93914e-17
8762.57418 1.94549e-17
8765.57868 1.94297e-17
8768.57316 1.94079e-17
8771.57766 1.94081e-17
8774.58216 1.92647e-17
8777.57665 1.90883e-17
8780.58115 1.88852e-17
8783.58565 1.85402e-17
8786.58013 1.81795e-17
8789.58463 1.77677e-17
8792.58913 1.73711e-17
8795.59363 1.71800e-17
8798.58812 1.68820e-17
8801.59261 1.67320e-17
8804.59712 1.65820e-17
8807.59160 1.64001e-17
8810.59610 1.62244e-17
8813.60060 1.63316e-17
8816.59508 1.64826e-17
8819.59958 1.64870e-17
8822.60408 1.64000e-17
8825.59857 1.63540e-17
8828.60307 1.64148e-17
8831.60757 1.64801e-17
8834.61207 1.64100e-17
8837.60656 1.62051e-17
8840.61106 1.60699e-17
8843.61556 1.59241e-17
8846.61004 1.55208e-17
8849.61454 1.50908e-17
8852.61904 1.46276e-17
8855.61353 1.41321e-17
8858.61803 1.36513e-17
8861.62253 1.34467e-17
8864.61701 1.31514e-17
8867.62151 1.28145e-17
8870.62601 1.26169e-17
8873.62050 1.25794e-17
8876.62500 1.25396e-17
8879.62950 1.24922e-17
8882.63400 1.24816e-17
8885.62848 1.24579e-17
8888.63298 1.24144e-17
8891.63748 1.22705e-17
8894.63197 1.20726e-17
8897.63646 1.20038e-17
8900.64097 1.19203e-17
8903.63545 1.17365e-17
8906.63995 1.12933e-17
8909.64445 1.07615e-17
8912.64895 1.05860e-17
8915.64344 1.06188e-17
8918.64794 1.05172e-17
8921.65244 1.02048e-17
8924.64692 1.00222e-17
8927.65142 1.00077e-17
8930.65592 9.97155e-18
8933.65041 9.85513e-18
8936.65491 9.77526e-18
8939.65941 9.98842e-18
8942.66391 1.02222e-17
8945.65839 1.00867e-17
8948.66289 9.83277e-18
8951.66739 9.73598e-18
8954.66187 9.77852e-18
8957.66638 9.82706e-18
8960.67087 9.77830e-18
8963.66536 9.66783e-18
8966.66986 9.46495e-18
8969.67436 9.32997e-18
8972.67886 9.29886e-18
8975.67334 9.05393e-18
8978.67785 8.78192e-18
8981.68234 8.65220e-18
8984.67683 8.65027e-18
8987.68133 8.51661e-18
8990.68583 8.40315e-18
8993.68031 8.39589e-18
8996.68482 8.27036e-18
8999.68931 8.03929e-18
9002.68380 7.80262e-18
9005.68830 7.75934e-18
9008.69280 8.09406e-18
9011.69730 8.44266e-18
9014.69179 8.48522e-18
9017.69629 8.40403e-18
9020.70079 8.53647e-18
9023.69527 8.63850e-18
9026.69977 8.73410e-18
9029.70427 8.62006e-18
9032.69876 8.46529e-18
9035.70326 8.42053e-18
9038.70776 8.38526e-18
9041.71226 8.23059e-18
9044.70674 8.28552e-18
9047.71124 8.40310e-18
9050.71574 8.45014e-18
9053.71023 8.51585e-18
9056.71472 8.48668e-18
9059.71923 8.46713e-18
9062.71371 8.60119e-18
9065.71821 8.70363e-18
9068.72271 8.74629e-18
9071.71719 8.83245e-18
9074.72170 9.00323e-18
9077.72619 9.13879e-18
9080.72068 9.05787e-18
9083.72518 8.87532e-18
9086.72968 8.74075e-18
9089.73418 8.54731e-18
9092.72867 8.53712e-18
9095.73317 8.63312e-18
9098.73767 8.62051e-18
9101.73215 8.60548e-18
9104.73665 8.67168e-18
9107.74115 8.68126e-18
9110.73564 8.63366e-18
9113.74014 8.57969e-18
9116.74464 8.51414e-18
9119.73912 8.47899e-18
9122.74362 8.64309e-18
9125.74812 8.91848e-18
9128.75262 8.88201e-18
9131.74711 8.82645e-18
9134.75160 9.00881e-18
9137.75611 9.07287e-18
9140.75059 8.98205e-18
9143.75509 8.85664e-18
9146.75959 8.67802e-18
9149.75407 8.57323e-18
9152.75857 8.58634e-18
9155.76307 8.60750e-18
9158.75756 8.53652e-18
9161.76206 8.28463e-18
9164.76656 7.92246e-18
9167.77106 7.65550e-18
9170.76555 7.58539e-18
9173.77005 7.58776e-18
9176.77455 7.60963e-18
9179.76903 7.73320e-18
9182.77353 7.80422e-18
9185.77803 7.64566e-18
9188.77252 7.38185e-18
9191.77702 7.21725e-18
9194.78152 7.26979e-18
9197.77600 7.33234e-18
