# wavelength flux
3330.32665 6.16564e-17
3332.22414 5.62734e-17
3334.13171 3.24995e-17
3336.03929 3.94360e-17
3337.93677 4.98541e-17
3339.84435 4.34311e-17
3341.74184 3.39690e-17
3343.64941 3.34277e-17
3345.55699 3.56874e-17
3347.45447 3.23470e-17
3349.36205 2.40549e-17
3351.25953 3.38776e-17
3353.16711 3.46722e-17
3355.07469 1.94242e-17
3356.97217 3.42403e-17
3358.87975 5.65088e-17
3360.77723 5.30162e-17
3362.68481 3.23196e-17
3364.58229 2.00383e-17
3366.48987 4.83361e-17
3368.39745 7.07842e-17
3370.29493 6.43287e-17
3372.20251 6.97162e-17
3374.09999 6.72971e-17
3376.00757 4.55299e-17
3377.91515 3.44643e-17
3379.81263 4.51840e-17
3381.72021 5.03966e-17
3383.61769 4.74836e-17
3385.52527 4.64394e-17
3387.43285 3.91424e-17
3389.33033 3.72927e-17
3391.23791 4.10995e-17
3393.13539 4.10144e-17
3395.04297 4.16374e-17
3396.95055 4.92408e-17
3398.84803 5.23331e-17
3400.75561 5.04180e-17
3402.65309 4.07245e-17
3404.56067 3.31085e-17
3406.45815 4.58994e-17
3408.36573 4.78286e-17
3410.27331 3.49545e-17
3412.17079 3.17462e-17
3414.07837 3.20158e-17
3415.97585 3.18587e-17
3417.88343 3.19556e-17
3419.79100 3.01534e-17
3421.68849 3.99851e-17
3423.59607 5.75237e-17
3425.49355 4.56202e-17
3427.40113 3.28931e-17
3429.30870 2.02591e-17
3431.20619 3.16874e-17
3433.11376 5.03264e-17
3435.01125 5.16970e-17
3436.91883 4.96938e-17
3438.82640 5.05976e-17
3440.72389 4.68028e-17
3442.63146 3.53876e-17
3444.52895 3.75933e-17
3446.43652 4.17341e-17
3448.34410 4.44473e-17
3450.24159 4.70753e-17
3452.14916 3.70364e-17
3454.04665 3.39559e-17
3455.95422 4.05904e-17
3457.85171 4.43325e-17
3459.75928 3.81924e-17
3461.66686 3.40200e-17
3463.56435 3.59426e-17
3465.47192 3.65865e-17
3467.36941 3.73909e-17
3469.27698 3.77335e-17
3471.18456 3.76263e-17
3473.08204 4.43224e-17
3474.98962 4.96367e-17
3476.88711 3.82328e-17
3478.79468 3.45683e-17
3480.70226 3.85362e-17
3482.59974 5.05870e-17
3484.50732 4.67267e-17
3486.40480 3.78506e-17
3488.31238 3.52793e-17
3490.21996 3.63810e-17
3492.11744 3.54119e-17
3494.02502 3.84853e-17
3495.92250 4.26958e-17
3497.83008 4.83484e-17
3499.73766 5.41722e-17
3501.63514 4.35444e-17
3503.54272 3.48369e-17
3505.44020 4.24045e-17
3507.34778 3.83103e-17
3509.24526 2.98881e-17
3511.15284 3.56399e-17
3513.06042 4.56606e-17
3514.95790 4.21172e-17
3516.86548 3.34406e-17
3518.76296 3.25482e-17
3520.67054 3.56874e-17
3522.57812 3.71329e-17
3524.47560 3.70517e-17
3526.38318 4.35388e-17
3528.28066 4.34360e-17
3530.18824 3.20111e-17
3532.09582 3.12966e-17
3533.99330 3.73117e-17
3535.90088 3.74944e-17
3537.79836 3.72298e-17
3539.70594 4.06572e-17
3541.61351 3.39398e-17
3543.51100 3.09788e-17
3545.41858 3.71495e-17
3547.31606 3.73121e-17
3549.22364 3.27679e-17
3551.13121 3.28109e-17
3553.02870 3.50826e-17
3554.93627 3.37111e-17
3556.83376 3.16130e-17
3558.74134 3.20305e-17
3560.63882 3.27346e-17
3562.54640 3.30384e-17
3564.45397 3.39630e-17
3566.35146 3.64157e-17
3568.25903 3.60237e-17
3570.15652 3.74582e-17
3572.06410 3.73003e-17
3573.97167 3.18535e-17
3575.86916 2.91364e-17
3577.77673 2.40750e-17
3579.67422 2.53095e-17
3581.58179 3.49432e-17
3583.48937 3.52359e-17
3585.38686 2.99001e-17
3587.29443 2.98859e-17
3589.19192 3.05158e-17
3591.09949 2.51791e-17
3593.00707 2.60817e-17
3594.90455 3.21458e-17
3596.81213 2.92040e-17
3598.70962 2.74475e-17
3600.61719 3.10477e-17
3602.52477 3.53209e-17
3604.42225 3.14630e-17
3606.32983 2.66452e-17
3608.22731 2.88906e-17
3610.13489 2.90358e-17
3612.03238 2.63339e-17
3613.93995 2.51335e-17
3615.84753 2.56606e-17
3617.74501 2.27381e-17
3619.65259 2.52919e-17
3621.55007 3.17022e-17
3623.45765 3.15404e-17
3625.36523 2.90699e-17
3627.26271 2.82665e-17
3629.17029 2.72840e-17
3631.06777 2.46863e-17
3632.97535 2.35390e-17
3634.88293 2.17949e-17
3636.78041 2.22277e-17
3638.68799 2.77226e-17
3640.58547 2.59696e-17
3642.49305 2.77951e-17
3644.40063 2.76486e-17
3646.29811 2.45460e-17
3648.20569 2.55684e-17
3650.10317 2.48129e-17
3652.01075 2.26793e-17
3653.91833 2.58450e-17
3655.81581 2.81313e-17
3657.72339 2.70250e-17
3659.62087 2.73468e-17
3661.52845 2.56236e-17
3663.42593 2.52785e-17
3665.33351 2.86895e-17
3667.24109 2.85905e-17
3669.13857 2.89967e-17
3671.04615 3.12438e-17
3672.94363 2.80602e-17
3674.85121 2.51269e-17
3676.75878 2.57000e-17
3678.65627 2.45261e-17
3680.56385 2.57370e-17
3682.46133 2.69708e-17
3684.36891 2.45004e-17
3686.27648 2.62145e-17
3688.17397 2.64250e-17
3690.08154 2.60968e-17
3691.97903 2.97837e-17
3693.88661 2.76891e-17
3695.79418 2.89923e-17
3697.69167 3.31679e-17
3699.59924 3.21448e-17
3701.49673 3.12539e-17
3703.40430 3.11024e-17
3705.31188 2.92500e-17
3707.20937 2.84744e-17
3709.11694 3.12923e-17
3711.01443 3.39925e-17
3712.92200 3.24399e-17
3714.81949 3.04502e-17
3716.72706 2.84490e-17
3718.63464 2.73684e-17
3720.53213 2.69864e-17
3722.43970 2.75245e-17
3724.33719 3.04895e-17
3726.24476 3.20700e-17
3728.15234 2.87477e-17
3730.04982 2.59638e-17
3731.95740 2.83173e-17
3733.85489 3.01060e-17
3735.76246 2.80478e-17
3737.67004 2.53241e-17
3739.56752 2.37698e-17
3741.47510 2.62639e-17
3743.37258 2.74538e-17
3745.28016 2.50954e-17
3747.18774 2.50417e-17
3749.08522 2.41600e-17
3750.99280 2.53352e-17
3752.89028 2.32715e-17
3754.79786 1.81415e-17
3756.69534 1.74204e-17
3758.60292 2.05598e-17
3760.51050 2.29944e-17
3762.40798 1.77935e-17
3764.31556 1.68876e-17
3766.21304 1.96383e-17
3768.12062 1.94266e-17
3770.02820 1.94170e-17
3771.92568 1.96157e-17
3773.83326 1.93591e-17
3775.73074 1.67243e-17
3777.63832 1.55363e-17
3779.54590 1.64199e-17
3781.44338 1.53992e-17
3783.35096 1.43014e-17
3785.24844 1.31491e-17
3787.15602 1.21034e-17
3789.06360 1.10366e-17
3790.96108 8.30466e-18
3792.86866 1.01099e-17
3794.76614 1.41191e-17
3796.67372 1.43937e-17
3798.58129 1.42390e-17
3800.47878 1.44483e-17
3802.38636 1.44291e-17
3804.28384 1.19766e-17
3806.19142 1.05179e-17
3808.08890 1.14632e-17
3809.99648 1.31183e-17
3811.90405 1.50630e-17
3813.80154 1.59302e-17
3815.70912 1.44053e-17
3817.60660 1.45640e-17
3819.51418 1.26831e-17
3821.42175 1.21768e-17
3823.31924 1.42957e-17
3825.22681 1.49965e-17
3827.12430 1.65453e-17
3829.03188 1.79520e-17
3830.93945 1.57319e-17
3832.83694 1.57900e-17
3834.74451 1.83731e-17
3836.64200 1.85622e-17
3838.54957 1.67648e-17
3840.45715 1.37585e-17
3842.35464 1.28988e-17
3844.26221 1.41134e-17
3846.15970 1.49001e-17
3848.06727 1.66692e-17
3849.97485 1.82132e-17
3851.87233 1.85115e-17
3853.77991 1.95244e-17
3855.67740 2.04687e-17
3857.58497 1.89151e-17
3859.48246 1.84593e-17
3861.39003 2.01701e-17
3863.29761 2.22192e-17
3865.19509 2.16325e-17
3867.10267 2.11150e-17
3869.00016 2.24037e-17
3870.90773 2.18821e-17
3872.81531 2.14643e-17
3874.71279 2.09123e-17
3876.62037 2.23679e-17
3878.51785 2.57738e-17
3880.42543 2.77263e-17
3882.33301 2.69055e-17
3884.23049 2.64065e-17
3886.13807 2.60097e-17
3888.03555 2.64315e-17
3889.94313 2.70874e-17
3891.85071 2.69143e-17
3893.74819 2.94977e-17
3895.65577 3.10164e-17
3897.55325 3.06328e-17
3899.46083 3.23137e-17
3901.36841 3.30310e-17
3903.26589 3.14180e-17
3905.17347 3.24015e-17
3907.07095 3.40768e-17
3908.97853 3.81246e-17
3910.87601 3.91739e-17
3912.78359 3.77205e-17
3914.69117 3.73652e-17
3916.58865 3.55532e-17
3918.49623 3.46817e-17
3920.39371 3.71727e-17
3922.30129 3.63268e-17
3924.20887 3.52195e-17
3926.10635 3.54911e-17
3928.01393 3.39438e-17
3929.91141 3.37413e-17
3931.81899 3.39409e-17
3933.72656 3.29088e-17
3935.62405 3.43233e-17
3937.53163 3.58350e-17
3939.42911 3.40839e-17
3941.33669 3.31487e-17
3943.24426 3.42776e-17
3945.14175 3.44814e-17
3947.04932 3.48188e-17
3948.94681 3.55092e-17
3950.85439 3.41652e-17
3952.75187 3.40493e-17
3954.65945 3.61408e-17
3956.56702 3.55354e-17
3958.46451 3.53402e-17
3960.37208 3.59887e-17
3962.26957 3.52585e-17
3964.17715 3.75731e-17
3966.08472 3.82078e-17
3967.98221 3.63737e-17
3969.88978 3.83932e-17
3971.78727 3.74930e-17
3973.69484 3.53147e-17
3975.60242 3.61414e-17
3977.49991 3.79039e-17
3979.40748 3.93493e-17
3981.30497 4.06555e-17
3983.21254 4.02662e-17
3985.12012 3.77879e-17
3987.01760 3.82509e-17
3988.92518 4.09270e-17
3990.82267 4.16558e-17
3992.73024 4.07510e-17
3994.63782 4.00710e-17
3996.53530 3.97177e-17
3998.44288 3.99629e-17
4000.34036 3.99102e-17
4002.24794 3.86973e-17
4004.14543 3.92516e-17
4006.05300 3.93050e-17
4007.96058 3.98338e-17
4009.85806 3.95325e-17
4011.76564 3.87000e-17
4013.66312 3.91120e-17
4015.57070 3.91439e-17
4017.47828 3.90371e-17
4019.37576 3.83137e-17
4021.28334 3.59464e-17
4023.18082 3.55541e-17
4025.08840 3.70684e-17
4026.99598 3.72890e-17
4028.89346 3.61755e-17
4030.80104 3.41877e-17
4032.69852 3.28733e-17
4034.60610 3.33509e-17
4036.51368 3.36128e-17
4038.41116 3.32198e-17
4040.31874 3.26816e-17
4042.21622 3.22605e-17
4044.12380 3.41115e-17
4046.03138 3.47602e-17
4047.92886 3.33678e-17
4049.83644 3.30831e-17
4051.73392 3.16650e-17
4053.64150 3.07402e-17
4055.53898 3.11592e-17
4057.44656 3.14671e-17
4059.35414 3.24469e-17
4061.25162 3.19852e-17
4063.15920 3.08116e-17
4065.05668 3.04563e-17
4066.96426 3.05452e-17
4068.87183 2.85700e-17
4070.76932 2.83284e-17
4072.67690 2.98509e-17
4074.57438 3.10969e-17
4076.48196 3.20940e-17
4078.38953 3.01322e-17
4080.28702 2.93447e-17
4082.19459 3.11556e-17
4084.09208 3.16789e-17
4085.99966 3.08142e-17
4087.90723 2.99556e-17
4089.80472 3.12719e-17
4091.71229 3.20214e-17
4093.60978 3.03485e-17
4095.51735 2.90445e-17
4097.42493 2.84263e-17
4099.32242 2.75219e-17
4101.22999 2.87447e-17
4103.12748 2.97474e-17
4105.03505 2.73086e-17
4106.93254 2.60380e-17
4108.84011 2.64253e-17
4110.74769 2.71155e-17
4112.64518 2.76234e-17
4114.55275 2.68248e-17
4116.45024 2.66588e-17
4118.35781 2.72534e-17
4120.26539 2.68898e-17
4122.16287 2.60786e-17
4124.07045 2.62625e-17
4125.96794 2.61606e-17
4127.87551 2.54294e-17
4129.78309 2.51316e-17
4131.68057 2.56025e-17
4133.58815 2.76596e-17
4135.48563 2.82638e-17
4137.39321 2.77823e-17
4139.30079 2.69222e-17
4141.19827 2.60178e-17
4143.10585 2.65586e-17
4145.00333 2.69109e-17
4146.91091 2.65273e-17
4148.80839 2.61471e-17
4150.71597 2.59308e-17
4152.62355 2.49738e-17
4154.52103 2.44303e-17
4156.42861 2.54847e-17
4158.32609 2.59289e-17
4160.23367 2.55268e-17
4162.14125 2.52482e-17
4164.03873 2.64957e-17
4165.94631 2.66656e-17
4167.84379 2.52570e-17
4169.75137 2.45012e-17
4171.65895 2.37936e-17
4173.55643 2.30194e-17
4175.46401 2.24903e-17
4177.36149 2.31661e-17
4179.26907 2.29208e-17
4181.17664 2.37666e-17
4183.07413 2.52578e-17
4184.98171 2.31487e-17
4186.87919 2.20781e-17
4188.78677 2.19824e-17
4190.69434 2.31039e-17
4192.59183 2.44289e-17
4194.49941 2.35929e-17
4196.39689 2.28163e-17
4198.30447 2.26980e-17
4200.20195 2.32649e-17
4202.10953 2.39405e-17
4204.01710 2.28463e-17
4205.91459 2.23412e-17
4207.82217 2.31481e-17
4209.71965 2.37665e-17
4211.62723 2.39006e-17
4213.53480 2.17449e-17
4215.43229 2.06481e-17
4217.33986 2.18582e-17
4219.23735 2.25100e-17
4221.14493 2.35144e-17
4223.05250 2.45445e-17
4224.94999 2.37954e-17
4226.85756 2.34618e-17
4228.75505 2.46922e-17
4230.66262 2.47678e-17
4232.57020 2.53229e-17
4234.46769 2.64663e-17
4236.37526 2.59239e-17
4238.27275 2.47551e-17
4240.18032 2.34875e-17
4242.08790 2.41330e-17
4243.98538 2.48780e-17
4245.89296 2.41779e-17
4247.79044 2.44058e-17
4249.69802 2.55870e-17
4251.59551 2.64692e-17
4253.50308 2.68926e-17
4255.41066 2.61703e-17
4257.30814 2.56808e-17
4259.21572 2.61335e-17
4261.11321 2.60835e-17
4263.02078 2.58331e-17
4264.92836 2.58086e-17
4266.82584 2.58317e-17
4268.73342 2.50110e-17
4270.63090 2.33259e-17
4272.53848 2.28397e-17
4274.44606 2.44361e-17
4276.34354 2.61452e-17
4278.25112 2.52799e-17
4280.14860 2.40646e-17
4282.05618 2.42957e-17
4283.96376 2.34234e-17
4285.86124 2.42146e-17
4287.76882 2.44681e-17
4289.66630 2.36912e-17
4291.57388 2.27798e-17
4293.48146 2.31782e-17
4295.37894 2.36294e-17
4297.28652 2.38356e-17
4299.18400 2.45408e-17
4301.09158 2.39441e-17
4302.98906 2.40008e-17
4304.89664 2.38678e-17
4306.80422 2.45313e-17
4308.70170 2.54018e-17
4310.60928 2.48151e-17
4312.50676 2.46389e-17
4314.41434 2.48676e-17
4316.32192 2.45597e-17
4318.21940 2.40347e-17
4320.12698 2.44428e-17
4322.02446 2.40857e-17
4323.93204 2.34233e-17
4325.83961 2.36436e-17
4327.73710 2.48170e-17
4329.64468 2.31313e-17
4331.54216 2.33386e-17
4333.44974 2.59699e-17
4335.35731 2.52422e-17
4337.25480 2.31407e-17
4339.16237 2.26398e-17
4341.05986 2.28976e-17
4342.96744 2.26600e-17
4344.86492 2.32102e-17
4346.77250 2.35727e-17
4348.68007 2.21902e-17
4350.57756 2.12129e-17
4352.48513 2.06979e-17
4354.38262 1.97588e-17
4356.29019 1.96279e-17
4358.19777 1.99119e-17
4360.09526 1.87388e-17
4362.00283 1.77447e-17
4363.90032 1.78795e-17
4365.80789 1.78771e-17
4367.71547 1.78886e-17
4369.61296 1.79002e-17
4371.52053 1.79118e-17
4373.41802 1.79233e-17
4375.32559 1.79347e-17
4377.23317 1.79461e-17
4379.13065 1.79575e-17
4381.03823 1.79688e-17
4382.93572 1.79800e-17
4384.84329 1.79912e-17
4386.75087 1.80023e-17
4388.64835 1.80134e-17
4390.55593 1.80245e-17
4392.45341 1.80354e-17
4394.36099 1.80464e-17
4396.25848 1.80573e-17
4398.16605 1.80682e-17
4400.07363 1.80789e-17
4401.97111 1.80897e-17
4403.87869 1.81004e-17
4405.77617 1.81110e-17
4407.68375 1.81217e-17
4409.59133 1.81322e-17
4411.48881 1.81420e-17
4413.39639 1.81670e-17
4415.29387 1.80563e-17
4417.20145 1.85715e-17
4419.10903 1.92117e-17
4421.00651 1.89910e-17
4422.91409 1.91251e-17
4424.81157 1.92992e-17
4426.71915 1.89110e-17
4428.62673 1.83968e-17
4430.52421 1.85313e-17
4432.43179 1.97978e-17
4434.32927 1.97712e-17
4436.23685 1.93513e-17
4438.14443 1.91983e-17
4440.04191 1.90710e-17
4441.94949 1.89373e-17
4443.84697 1.87997e-17
4445.75455 1.86670e-17
4447.65203 1.89451e-17
4449.55961 1.99281e-17
4451.46719 1.94977e-17
4453.36467 2.01751e-17
4455.27225 2.04670e-17
4457.16973 2.02680e-17
4459.07731 1.99443e-17
4460.98488 1.91607e-17
4462.88237 1.90194e-17
4464.78995 2.00692e-17
4466.68743 1.96084e-17
4468.59501 1.87157e-17
4470.50258 1.91704e-17
4472.40007 2.02389e-17
4474.30764 2.16950e-17
4476.20513 2.15470e-17
4478.11271 2.07171e-17
4480.02028 2.05458e-17
4481.91777 2.07572e-17
4483.82534 2.05093e-17
4485.72283 1.99565e-17
4487.63040 2.11529e-17
4489.53798 2.17124e-17
4491.43547 2.27744e-17
4493.34304 2.29162e-17
4495.24053 2.13633e-17
4497.14810 2.12696e-17
4499.04559 2.26704e-17
4500.95316 2.28042e-17
4502.86074 2.27791e-17
4504.75823 2.35296e-17
4506.66580 2.26407e-17
4508.56329 2.26346e-17
4510.47086 2.37942e-17
4512.37844 2.46408e-17
4514.27592 2.51441e-17
4516.18350 2.43582e-17
4518.08099 2.46264e-17
4519.98856 2.54082e-17
4521.89614 2.43259e-17
4523.79362 2.41081e-17
4525.70120 2.47404e-17
4527.59868 2.46140e-17
4529.50626 2.48783e-17
4531.41384 2.47472e-17
4533.31132 2.48437e-17
4535.21890 2.59794e-17
4537.11638 2.60283e-17
4539.02396 2.45488e-17
4540.92144 2.38754e-17
4542.82902 2.45277e-17
4544.73660 2.52871e-17
4546.63408 2.51392e-17
4548.54166 2.49592e-17
4550.43914 2.59996e-17
4552.34672 2.57180e-17
4554.25430 2.48524e-17
4556.15178 2.53287e-17
4558.05936 2.55786e-17
4559.95684 2.50530e-17
4561.86442 2.55700e-17
4563.77200 2.64964e-17
4565.66948 2.58736e-17
4567.57706 2.58229e-17
4569.47454 2.62443e-17
4571.38212 2.57531e-17
4573.28970 2.58939e-17
4575.18718 2.66505e-17
4577.09476 2.60149e-17
4578.99224 2.53206e-17
4580.89982 2.64505e-17
4582.80739 2.68309e-17
4584.70488 2.59419e-17
4586.61246 2.56092e-17
4588.50994 2.47280e-17
4590.41752 2.34222e-17
4592.31500 2.25315e-17
4594.22258 2.32949e-17
4596.13015 2.33103e-17
4598.02764 2.29127e-17
4599.93522 2.32733e-17
4601.83270 2.26669e-17
4603.74028 2.28742e-17
4605.64785 2.42652e-17
4607.54534 2.33767e-17
4609.45291 2.31122e-17
4611.35040 2.34994e-17
4613.25798 2.30789e-17
4615.16555 2.31709e-17
4617.06304 2.28618e-17
4618.97061 2.27420e-17
4620.86810 2.31847e-17
4622.77567 2.40463e-17
4624.68325 2.38187e-17
4626.58074 2.21494e-17
4628.48831 2.11873e-17
4630.38580 2.18286e-17
4632.29337 2.18821e-17
4634.20095 2.09599e-17
4636.09843 2.12008e-17
4638.00601 2.09582e-17
4639.90350 2.15364e-17
4641.81107 2.23599e-17
4643.70856 2.10988e-17
4645.61613 2.02876e-17
4647.52371 2.06425e-17
4649.42119 2.09265e-17
4651.32877 2.05166e-17
4653.22626 2.06423e-17
4655.13383 2.14573e-17
4657.04141 2.06363e-17
4658.93889 2.07295e-17
4660.84647 2.09163e-17
4662.74395 2.02845e-17
4664.65153 1.93049e-17
4666.55911 1.92822e-17
4668.45659 1.97524e-17
4670.36417 1.96797e-17
4672.26165 1.94009e-17
4674.16923 1.89213e-17
4676.07681 1.79190e-17
4677.97429 1.74367e-17
4679.88187 1.80228e-17
4681.77935 1.73537e-17
4683.68693 1.61305e-17
4685.59451 1.59753e-17
4687.49199 1.59267e-17
4689.39957 1.64804e-17
4691.29705 1.62377e-17
4693.20463 1.65853e-17
4695.10211 1.67177e-17
4697.00969 1.56848e-17
4698.91727 1.45945e-17
4700.81475 1.47793e-17
4702.72233 1.49334e-17
4704.61981 1.50362e-17
4706.52739 1.51934e-17
4708.43497 1.56542e-17
4710.33245 1.58196e-17
4712.24003 1.64677e-17
4714.13751 1.69432e-17
4716.04509 1.58915e-17
4717.95266 1.66000e-17
4719.85015 1.71317e-17
4721.75773 1.69578e-17
4723.65521 1.79218e-17
4725.56279 1.87023e-17
4727.47036 1.83470e-17
4729.36785 1.82800e-17
4731.27542 1.91675e-17
4733.17291 1.99565e-17
4735.08049 1.95759e-17
4736.97797 1.88430e-17
4738.88555 1.85027e-17
4740.79312 1.86017e-17
4742.69061 1.93867e-17
4744.59818 1.89751e-17
4746.49567 1.82100e-17
4748.40325 1.86764e-17
4750.31082 1.82307e-17
4752.20831 1.73780e-17
4754.11588 1.87119e-17
4756.01337 1.89144e-17
4757.92094 1.83233e-17
4759.82852 1.83677e-17
4761.72601 1.84593e-17
4763.63358 1.87648e-17
4765.53107 1.81254e-17
4767.43864 1.74950e-17
4769.34622 1.70306e-17
4771.24370 1.67019e-17
4773.15128 1.73849e-17
4775.04877 1.75187e-17
4776.95634 1.65777e-17
4778.86392 1.53481e-17
4780.76140 1.52535e-17
4782.66898 1.65093e-17
4784.56646 1.66280e-17
4786.47404 1.56203e-17
4788.37153 1.60050e-17
4790.27910 1.68353e-17
4792.18668 1.61334e-17
4794.08416 1.50110e-17
4795.99174 1.49231e-17
4797.89932 1.52336e-17
4799.79680 1.46410e-17
4801.70438 1.43508e-17
4803.60186 1.51613e-17
4805.50944 1.48417e-17
4807.40692 1.38435e-17
4809.31450 1.33075e-17
4811.22208 1.37143e-17
4813.11956 1.46623e-17
4815.02714 1.47380e-17
4816.92462 1.48854e-17
4818.83220 1.51157e-17
4820.73978 1.49335e-17
4822.63726 1.53104e-17
4824.54484 1.54715e-17
4826.44232 1.48660e-17
4828.34990 1.52555e-17
4830.25748 1.64780e-17
4832.15496 1.62441e-17
4834.06254 1.50830e-17
4835.96002 1.52188e-17
4837.86760 1.63561e-17
4839.77517 1.62849e-17
4841.67266 1.55616e-17
4843.58024 1.61871e-17
4845.47772 1.72210e-17
4847.38530 1.70640e-17
4849.28278 1.59480e-17
4851.19036 1.55304e-17
4853.09793 1.59286e-17
4854.99542 1.65887e-17
4856.90300 1.72472e-17
4858.80048 1.75548e-17
4860.70806 1.68551e-17
4862.61563 1.63047e-17
4864.51312 1.75264e-17
4866.42069 1.75561e-17
4868.31818 1.61411e-17
4870.22576 1.54441e-17
4872.13333 1.55276e-17
4874.03082 1.55110e-17
4875.93839 1.49704e-17
4877.83588 1.47276e-17
4879.74345 1.46634e-17
4881.65103 1.39563e-17
4883.54852 1.41790e-17
4885.45609 1.47345e-17
4887.35358 1.38688e-17
4889.26115 1.36503e-17
4891.16873 1.43177e-17
4893.06621 1.46905e-17
4894.97379 1.41253e-17
4896.87128 1.29789e-17
4898.77885 1.32163e-17
4900.67634 1.34486e-17
4902.58391 1.36068e-17
4904.49149 1.41863e-17
4906.38897 1.42857e-17
4908.29655 1.40522e-17
4910.19404 1.45507e-17
4912.10161 1.47563e-17
4914.00919 1.54386e-17
4915.90667 1.57146e-17
4917.81425 1.56940e-17
4919.71173 1.51706e-17
4921.61931 1.53890e-17
4923.52689 1.59884e-17
4925.42437 1.70197e-17
4927.33195 1.79896e-17
4929.22943 1.74345e-17
4931.13701 1.71616e-17
4933.04459 1.69293e-17
4934.94207 1.74219e-17
4936.84965 1.88751e-17
4938.74713 1.96975e-17
4940.65471 1.94296e-17
4942.56229 1.96170e-17
4944.45977 1.96527e-17
4946.36735 1.91515e-17
4948.26483 1.95086e-17
4950.17241 2.03340e-17
4952.06989 2.11420e-17
4953.97747 2.09361e-17
4955.88505 2.04594e-17
4957.78253 2.09739e-17
4959.69011 2.00560e-17
4961.58759 1.91568e-17
4963.49517 1.99736e-17
4965.40275 2.04495e-17
4967.30023 2.05408e-17
4969.20781 2.07907e-17
4971.10529 2.13804e-17
4973.01287 2.06138e-17
4974.92044 1.99278e-17
4976.81793 2.02774e-17
4978.72551 2.07629e-17
4980.62299 2.04427e-17
4982.53057 2.07880e-17
4984.43814 2.02963e-17
4986.33563 1.94885e-17
4988.24320 1.91961e-17
4990.14069 1.88438e-17
4992.04827 1.82798e-17
4993.94575 1.86127e-17
4995.85333 1.90990e-17
4997.76090 1.83312e-17
4999.65839 1.77980e-17
5001.56596 1.82436e-17
5003.46345 1.79390e-17
5005.37103 1.71127e-17
5007.27860 1.69216e-17
5009.17609 1.62560e-17
5011.08366 1.56084e-17
5012.98115 1.57190e-17
5014.88872 1.58864e-17
5016.79630 1.55701e-17
5018.69379 1.61984e-17
5020.60136 1.64006e-17
5022.49885 1.64904e-17
5024.40642 1.56923e-17
5026.31400 1.50757e-17
5028.21148 1.50518e-17
5030.11906 1.45875e-17
5032.01655 1.47492e-17
5033.92412 1.51097e-17
5035.83170 1.50334e-17
5037.72918 1.43302e-17
5039.63676 1.40810e-17
5041.53424 1.52252e-17
5043.44182 1.56159e-17
5045.33931 1.49198e-17
5047.24688 1.41937e-17
5049.15446 1.41639e-17
5051.05194 1.45651e-17
5052.95952 1.46092e-17
5054.85700 1.48105e-17
5056.76458 1.53839e-17
5058.67216 1.58620e-17
5060.56964 1.58618e-17
5062.47722 1.64501e-17
5064.37470 1.72607e-17
5066.28228 1.67793e-17
5068.18986 1.63768e-17
5070.08734 1.62104e-17
5071.99492 1.69619e-17
5073.89240 1.72839e-17
5075.79998 1.75819e-17
5077.70756 1.77246e-17
5079.60504 1.77742e-17
5081.51262 1.79447e-17
5083.41010 1.80422e-17
5085.31768 1.79535e-17
5087.21516 1.78691e-17
5089.12274 1.86447e-17
5091.03032 1.93154e-17
5092.92780 1.86890e-17
5094.83538 1.87311e-17
5096.73286 1.93246e-17
5098.64044 1.95940e-17
5100.54802 1.97382e-17
5102.44550 2.02514e-17
5104.35308 2.09964e-17
5106.25056 2.10134e-17
5108.15814 2.03237e-17
5110.06571 1.99172e-17
5111.96320 2.00441e-17
5113.87078 1.99226e-17
5115.76826 2.01789e-17
5117.67584 2.03555e-17
5119.58341 2.05017e-17
5121.48090 2.08654e-17
5123.38847 2.02613e-17
5125.28596 2.00975e-17
5127.19354 2.04649e-17
5129.10111 2.01236e-17
5130.99860 1.95325e-17
5132.90617 2.01453e-17
5134.80366 2.08906e-17
5136.71123 2.09778e-17
5138.60872 2.07885e-17
5140.51630 2.04742e-17
5142.42387 2.03080e-17
5144.32136 2.02006e-17
5146.22893 1.99649e-17
5148.12642 2.01273e-17
5150.03399 2.03628e-17
5151.94157 2.04907e-17
5153.83906 2.06567e-17
5155.74663 2.10503e-17
5157.64412 2.06574e-17
5159.55169 1.98598e-17
5161.45927 2.00945e-17
5163.35675 2.02344e-17
5165.26433 2.03721e-17
5167.16182 2.05778e-17
5169.06939 2.04267e-17
5170.97697 1.93700e-17
5172.87445 1.90675e-17
5174.78203 2.00586e-17
5176.67951 2.07192e-17
5178.58709 2.12902e-17
5180.48458 2.15206e-17
5182.39215 2.03197e-17
5184.29973 2.02759e-17
5186.19721 2.11205e-17
5188.10479 2.10374e-17
5190.00227 2.13176e-17
5191.90985 2.14469e-17
5193.81743 2.11858e-17
5195.71491 2.09227e-17
5197.62249 2.13371e-17
5199.51997 2.19408e-17
5201.42755 2.16578e-17
5203.33513 2.11151e-17
5205.23261 2.10790e-17
5207.14019 2.17973e-17
5209.03767 2.21642e-17
5210.94525 2.15686e-17
5212.85283 2.13140e-17
5214.75031 2.14797e-17
5216.65789 2.16705e-17
5218.55537 2.16406e-17
5220.46295 2.14546e-17
5222.37053 2.16751e-17
5224.26801 2.11091e-17
5226.17559 2.09117e-17
5228.07307 2.13769e-17
5229.98065 2.16027e-17
5231.87813 2.17342e-17
5233.78571 2.16649e-17
5235.69329 2.11160e-17
5237.59077 2.17950e-17
5239.49835 2.26271e-17
5241.39583 2.21443e-17
5243.30341 2.24869e-17
5245.21098 2.23726e-17
5247.10847 2.15136e-17
5249.01605 2.14112e-17
5250.91353 2.11108e-17
5252.82111 2.02466e-17
5254.72868 2.08213e-17
5256.62617 2.19949e-17
5258.53374 2.26220e-17
5260.43123 2.28596e-17
5262.33881 2.21978e-17
5264.24638 2.13725e-17
5266.14387 2.08235e-17
5268.05144 2.08489e-17
5269.94893 2.15511e-17
5271.85650 2.13735e-17
5273.76408 2.14104e-17
5275.66157 2.13423e-17
5277.56914 2.14239e-17
5279.46663 2.12253e-17
5281.37420 2.05771e-17
5283.27169 2.06431e-17
5285.17926 2.09315e-17
5287.08684 2.11021e-17
5288.98433 2.10033e-17
5290.89190 2.01661e-17
5292.78939 1.99393e-17
5294.69696 2.02003e-17
5296.60454 2.00357e-17
5298.50202 2.00741e-17
5300.40960 1.99713e-17
5302.30709 2.01255e-17
5304.21466 2.02554e-17
5306.12224 2.04965e-17
5308.01972 2.01748e-17
5309.92730 1.99758e-17
5311.82478 2.07482e-17
5313.73236 2.04251e-17
5315.63994 1.95095e-17
5317.53742 1.95768e-17
5319.44500 1.99507e-17
5321.34248 1.99945e-17
5323.25006 1.95952e-17
5325.14754 2.01550e-17
5327.05512 2.02387e-17
5328.96270 1.95313e-17
5330.86018 1.93214e-17
5332.76776 2.00039e-17
5334.66524 2.05229e-17
5336.57282 2.01672e-17
5338.48040 1.92137e-17
5340.37788 1.96554e-17
5342.28546 2.05698e-17
5344.18294 2.01260e-17
5346.09052 1.95183e-17
5347.99810 1.93275e-17
5349.89558 1.94016e-17
5351.80316 1.86780e-17
5353.70064 1.90746e-17
5355.60822 1.94519e-17
5357.51580 1.94178e-17
5359.41328 1.93068e-17
5361.32086 1.91753e-17
5363.21834 1.84296e-17
5365.12592 1.84607e-17
5367.03349 1.94812e-17
5368.93098 1.91723e-17
5370.83856 1.83999e-17
5372.73604 1.84606e-17
5374.64362 1.83684e-17
5376.54110 1.82273e-17
5378.44868 1.88502e-17
5380.35625 1.92230e-17
5382.25374 1.83088e-17
5384.16132 1.78116e-17
5386.05880 1.80872e-17
5387.96638 1.82256e-17
5389.87395 1.80000e-17
5391.77144 1.80122e-17
5393.67901 1.84360e-17
5395.57650 1.78502e-17
5397.48408 1.76744e-17
5399.39165 1.79133e-17
5401.28914 1.79199e-17
5403.19671 1.80332e-17
5405.09420 1.77898e-17
5407.00177 1.77497e-17
5408.90935 1.79309e-17
5410.80684 1.75351e-17
5412.71441 1.71345e-17
5414.61190 1.71756e-17
5416.51947 1.69660e-17
5418.42705 1.65438e-17
5420.32453 1.61645e-17
5422.23211 1.64861e-17
5424.12960 1.71309e-17
5426.03717 1.70283e-17
5427.93466 1.69925e-17
5429.84223 1.69525e-17
5431.74981 1.69120e-17
5433.64729 1.68716e-17
5435.55487 1.68312e-17
5437.45236 1.67909e-17
5439.35993 1.67506e-17
5441.26751 1.67103e-17
5443.16499 1.66702e-17
5445.07257 1.66300e-17
5446.97005 1.65900e-17
5448.87763 1.65500e-17
5450.78521 1.65101e-17
5452.68269 1.64702e-17
5454.59027 1.64303e-17
5456.48775 1.63905e-17
5458.39533 1.63507e-17
5460.30291 1.63110e-17
5462.20039 1.62714e-17
5464.10797 1.62319e-17
5466.00545 1.61923e-17
5467.91303 1.61528e-17
5469.82061 1.61134e-17
5471.71809 1.60700e-17
5473.62567 1.60715e-17
5475.52315 1.57289e-17
5477.43073 1.58351e-17
5479.32821 1.61540e-17
5481.23579 1.55069e-17
5483.14337 1.55562e-17
5485.04085 1.56938e-17
5486.94843 1.59314e-17
5488.84591 1.56681e-17
5490.75349 1.54301e-17
5492.66107 1.52571e-17
5494.55855 1.53274e-17
5496.46613 1.59299e-17
5498.36361 1.51626e-17
5500.27119 1.56389e-17
5502.17876 1.52535e-17
5504.07625 1.54154e-17
5505.98383 1.51482e-17
5507.88131 1.46819e-17
5509.78889 1.45916e-17
5511.69646 1.51541e-17
5513.59395 1.47115e-17
5515.50152 1.46684e-17
5517.39901 1.47044e-17
5519.30659 1.47638e-17
5521.21416 1.51529e-17
5523.11165 1.52132e-17
5525.01922 1.53145e-17
5526.91671 1.50974e-17
5528.82428 1.48443e-17
5530.73186 1.46844e-17
5532.62935 1.41905e-17
5534.53692 1.47470e-17
5536.43441 1.50689e-17
5538.34198 1.47750e-17
5540.23947 1.48393e-17
5542.14704 1.46385e-17
5544.05462 1.46468e-17
5545.95211 1.44581e-17
5547.85968 1.46932e-17
5549.75717 1.48097e-17
5551.66474 1.42112e-17
5553.57232 1.42332e-17
5555.46980 1.42403e-17
5557.37738 1.41299e-17
5559.27487 1.42920e-17
5561.18244 1.37701e-17
5563.09002 1.38904e-17
5564.98750 1.40045e-17
5566.89508 1.34223e-17
5568.79256 1.35468e-17
5570.70014 1.34435e-17
5572.60772 1.33287e-17
5574.50520 1.40756e-17
5576.41278 1.42035e-17
5578.31026 1.34921e-17
5580.21784 1.32853e-17
5582.12542 1.33769e-17
5584.02290 1.37257e-17
5585.93048 1.41013e-17
5587.82796 1.32728e-17
5589.73554 1.26892e-17
5591.63302 1.30583e-17
5593.54060 1.35092e-17
5595.44818 1.36470e-17
5597.34566 1.34105e-17
5599.25324 1.35445e-17
5601.15072 1.39891e-17
5603.05830 1.38326e-17
5604.96588 1.31166e-17
5606.86336 1.33187e-17
5608.77094 1.31176e-17
5610.66842 1.32303e-17
5612.57600 1.33873e-17
5614.48358 1.33897e-17
5616.38106 1.35472e-17
5618.28864 1.37149e-17
5620.18612 1.34426e-17
5622.09370 1.24698e-17
5624.00127 1.26295e-17
5625.89876 1.25300e-17
5627.80634 1.26362e-17
5629.70382 1.28465e-17
5631.61140 1.23220e-17
5633.50888 1.25042e-17
5635.41646 1.32780e-17
5637.32403 1.29500e-17
5639.22152 1.21448e-17
5641.12910 1.29869e-17
5643.02658 1.28481e-17
5644.93416 1.26514e-17
5646.84173 1.29603e-17
5648.73922 1.34356e-17
5650.64679 1.32694e-17
5652.54428 1.28896e-17
5654.45186 1.24180e-17
5656.35943 1.22396e-17
5658.25692 1.23488e-17
5660.16449 1.28838e-17
5662.06198 1.28278e-17
5663.96955 1.25483e-17
5665.87713 1.21302e-17
5667.77462 1.24629e-17
5669.68219 1.23844e-17
5671.57968 1.19942e-17
5673.48725 1.18043e-17
5675.39483 1.18190e-17
5677.29231 1.20217e-17
5679.19989 1.22781e-17
5681.09738 1.18239e-17
5683.00495 1.12945e-17
5684.90244 1.13383e-17
5686.81001 1.16496e-17
5688.71759 1.21120e-17
5690.61507 1.18781e-17
5692.52265 1.10728e-17
5694.42014 1.05884e-17
5696.32771 1.07732e-17
5698.23529 1.13181e-17
5700.13277 1.08012e-17
5702.04035 1.02494e-17
5703.93783 1.05232e-17
5705.84541 1.01114e-17
5707.75299 9.46673e-18
5709.65047 9.28694e-18
5711.55805 8.80511e-18
5713.45553 8.53030e-18
5715.36311 8.82160e-18
5717.27069 8.90160e-18
5719.16817 8.56708e-18
5721.07575 8.57910e-18
5722.97323 8.78666e-18
5724.88081 8.23935e-18
5726.78839 8.17092e-18
5728.68587 7.97726e-18
5730.59345 8.42038e-18
5732.49093 9.06955e-18
5734.39851 9.01555e-18
5736.29599 8.54793e-18
5738.20357 8.40855e-18
5740.11115 8.72613e-18
5742.00863 9.34571e-18
5743.91621 9.60179e-18
5745.81369 9.01557e-18
5747.72127 9.67029e-18
5749.62885 9.77905e-18
5751.52633 1.01894e-17
5753.43391 1.08750e-17
5755.33139 1.11743e-17
5757.23897 1.13342e-17
5759.14654 1.20067e-17
5761.04403 1.21858e-17
5762.95161 1.21728e-17
5764.84909 1.27669e-17
5766.75667 1.26055e-17
5768.66424 1.29793e-17
5770.56173 1.38850e-17
5772.46930 1.40970e-17
5774.36679 1.38893e-17
5776.27437 1.40138e-17
5778.18194 1.38430e-17
5780.07943 1.40770e-17
5781.98700 1.44880e-17
5783.88449 1.48271e-17
5785.79206 1.50291e-17
5787.68955 1.48794e-17
5789.59713 1.54129e-17
5791.50470 1.58639e-17
5793.40219 1.54322e-17
5795.30976 1.54459e-17
5797.20725 1.56853e-17
5799.11482 1.57476e-17
5801.02240 1.56266e-17
5802.91989 1.55163e-17
5804.82746 1.58250e-17
5806.72495 1.62479e-17
5808.63252 1.63264e-17
5810.54010 1.61088e-17
5812.43758 1.64520e-17
5814.34516 1.64054e-17
5816.24265 1.58973e-17
5818.15022 1.64473e-17
5820.05780 1.62691e-17
5821.95528 1.57090e-17
5823.86286 1.57632e-17
5825.76034 1.55008e-17
5827.66792 1.58084e-17
5829.56541 1.60864e-17
5831.47298 1.59458e-17
5833.38056 1.50629e-17
5835.27804 1.46958e-17
5837.18562 1.57191e-17
5839.08310 1.54822e-17
5840.99068 1.46564e-17
5842.89826 1.49106e-17
5844.79574 1.53344e-17
5846.70332 1.52756e-17
5848.60080 1.45622e-17
5850.50838 1.44788e-17
5852.41596 1.48783e-17
5854.31344 1.48910e-17
5856.22102 1.48932e-17
5858.11850 1.46094e-17
5860.02608 1.40372e-17
5861.93366 1.36052e-17
5863.83114 1.33494e-17
5865.73872 1.43324e-17
5867.63620 1.42561e-17
5869.54378 1.36392e-17
5871.45136 1.36133e-17
5873.34884 1.34511e-17
5875.25642 1.33315e-17
5877.15390 1.29011e-17
5879.06148 1.33371e-17
5880.95896 1.36945e-17
5882.86654 1.33393e-17
5884.77412 1.27802e-17
5886.67160 1.32088e-17
5888.57918 1.30968e-17
5890.47666 1.31309e-17
5892.38424 1.24544e-17
5894.29181 1.27910e-17
5896.18930 1.29165e-17
5898.09688 1.31943e-17
5899.99436 1.37997e-17
5901.90194 1.47688e-17
5903.80951 1.41595e-17
5905.70700 1.39104e-17
5907.61457 1.39945e-17
5909.51206 1.39036e-17
5911.41964 1.29758e-17
5913.32721 1.30063e-17
5915.22470 1.35191e-17
5917.13227 1.32692e-17
5919.02976 1.29453e-17
5920.93733 1.26029e-17
5922.84491 1.28793e-17
5924.74240 1.34483e-17
5926.64997 1.35905e-17
5928.54746 1.38271e-17
5930.45503 1.36676e-17
5932.35252 1.34018e-17
5934.26009 1.26858e-17
5936.16767 1.24201e-17
5938.06516 1.27818e-17
5939.97273 1.31230e-17
5941.87022 1.29869e-17
5943.77779 1.24695e-17
5945.68537 1.14264e-17
5947.58285 1.13751e-17
5949.49043 1.21720e-17
5951.38792 1.25738e-17
5953.29549 1.28286e-17
5955.20307 1.27643e-17
5957.10055 1.23533e-17
5959.00813 1.26193e-17
5960.90561 1.27787e-17
5962.81319 1.28537e-17
5964.72077 1.22493e-17
5966.61825 1.16709e-17
5968.52583 1.17676e-17
5970.42331 1.19171e-17
5972.33089 1.18200e-17
5974.23847 1.18389e-17
5976.13595 1.17863e-17
5978.04353 1.18486e-17
5979.94101 1.23757e-17
5981.84859 1.21258e-17
5983.74607 1.18591e-17
5985.65365 1.15906e-17
5987.56123 1.18983e-17
5989.45871 1.23137e-17
5991.36629 1.19058e-17
5993.26377 1.14731e-17
5995.17135 1.15773e-17
5997.07893 1.14999e-17
5998.97641 1.17109e-17
6000.88399 1.17254e-17
6002.78147 1.16100e-17
6004.68905 1.15684e-17
6006.59663 1.08789e-17
6008.49411 1.09205e-17
6010.40169 1.12169e-17
6012.29917 1.10966e-17
6014.20675 1.09404e-17
6016.11432 1.11060e-17
6018.01181 1.12449e-17
6019.91939 1.12135e-17
6021.81687 1.07649e-17
6023.72445 1.08189e-17
6025.62193 1.03503e-17
6027.52951 1.04290e-17
6029.43708 1.09565e-17
6031.33457 1.10348e-17
6033.24215 1.04256e-17
6035.13963 9.70216e-18
6037.04721 9.65734e-18
6038.95478 1.03456e-17
6040.85227 1.03868e-17
6042.75984 1.05052e-17
6044.65733 1.06714e-17
6046.56491 1.07791e-17
6048.47248 1.05169e-17
6050.36997 1.06142e-17
6052.27754 1.04210e-17
6054.17503 1.02157e-17
6056.08260 1.04411e-17
6057.99018 1.03254e-17
6059.88767 1.05347e-17
6061.79524 1.04604e-17
6063.69273 9.73717e-18
6065.60030 9.81162e-18
6067.50788 1.03561e-17
6069.40536 1.04576e-17
6071.31294 1.04450e-17
6073.21043 1.02013e-17
6075.11800 1.01962e-17
6077.01549 1.05096e-17
6078.92306 1.00628e-17
6080.83064 1.00023e-17
6082.72812 1.03969e-17
6084.63570 1.03422e-17
6086.53319 1.02566e-17
6088.44076 1.00695e-17
6090.34834 1.01827e-17
6092.24582 1.03236e-17
6094.15340 1.01218e-17
6096.05088 1.02278e-17
6097.95846 1.02090e-17
6099.86604 1.00727e-17
6101.76352 1.05443e-17
6103.67110 1.07085e-17
6105.56858 1.04091e-17
6107.47616 1.03939e-17
6109.38374 1.02620e-17
6111.28122 1.05068e-17
6113.18880 1.06620e-17
6115.08628 1.04266e-17
6116.99386 9.96882e-18
6118.90144 1.01886e-17
6120.79892 1.03304e-17
6122.70650 9.96482e-18
6124.60398 9.89773e-18
6126.51156 9.84962e-18
6128.40904 1.02829e-17
6130.31662 1.02737e-17
6132.22420 9.78965e-18
6134.12168 9.82518e-18
6136.02926 1.01422e-17
6137.92674 1.01602e-17
6139.83432 1.00383e-17
6141.74190 9.89993e-18
6143.63938 9.77671e-18
6145.54696 9.59493e-18
6147.44444 9.76326e-18
6149.35202 1.00497e-17
6151.25959 9.98049e-18
6153.15708 9.94353e-18
6155.06466 9.81960e-18
6156.96214 9.87481e-18
6158.86972 1.00715e-17
6160.77729 1.00703e-17
6162.67478 9.95994e-18
6164.58235 1.00355e-17
6166.47984 1.02015e-17
6168.38742 1.02281e-17
6170.28490 1.03347e-17
6172.19248 1.02946e-17
6174.10005 1.01319e-17
6175.99754 9.67492e-18
6177.90511 9.48003e-18
6179.80260 9.53522e-18
6181.71018 9.47007e-18
6183.61775 9.28815e-18
6185.51524 9.49290e-18
6187.42281 9.91807e-18
6189.32030 9.68408e-18
6191.22787 9.23676e-18
6193.13545 9.17460e-18
6195.03294 8.92032e-18
6196.94051 8.65341e-18
6198.83800 8.70265e-18
6200.74557 8.93722e-18
6202.65315 8.86771e-18
6204.55063 8.79996e-18
6206.45821 8.87963e-18
6208.35570 8.71820e-18
6210.26327 8.64326e-18
6212.17085 8.92945e-18
6214.06833 8.83530e-18
6215.97591 8.20065e-18
6217.87339 8.16629e-18
6219.78097 8.72950e-18
6221.67846 8.46830e-18
6223.58603 7.93656e-18
6225.49361 8.11927e-18
6227.39109 8.37415e-18
6229.29867 8.09197e-18
6231.19615 7.88952e-18
6233.10373 7.90174e-18
6235.01131 7.60350e-18
6236.90879 7.70692e-18
6238.81637 7.86966e-18
6240.71385 7.61618e-18
6242.62143 7.29469e-18
6244.52901 7.43076e-18
6246.42649 7.43755e-18
6248.33407 6.74233e-18
6250.23155 6.71220e-18
6252.13913 7.10710e-18
6254.04671 7.16319e-18
6255.94419 6.99728e-18
6257.85177 6.71246e-18
6259.74925 6.66951e-18
6261.65683 6.46795e-18
6263.56441 6.16078e-18
6265.46189 5.89339e-18
6267.36947 6.01328e-18
6269.26695 6.62428e-18
6271.17453 6.30730e-18
6273.07201 5.99825e-18
6274.97959 6.42981e-18
6276.88717 6.20178e-18
6278.78465 5.85587e-18
6280.69223 6.04506e-18
6282.58971 6.25536e-18
6284.49729 6.54120e-18
6286.40486 6.22625e-18
6288.30235 6.20358e-18
6290.20993 6.59486e-18
6292.10741 6.70523e-18
6294.01499 6.18060e-18
6295.92256 6.48967e-18
6297.82005 6.34300e-18
6299.72762 6.11111e-18
6301.62511 6.46031e-18
6303.53269 6.36253e-18
6305.44026 6.46463e-18
6307.33775 6.50890e-18
6309.24532 5.80449e-18
6311.14281 5.49235e-18
6313.05038 5.54909e-18
6314.95796 5.38695e-18
6316.85545 5.31038e-18
6318.76302 5.21145e-18
6320.66051 5.34663e-18
6322.56808 5.30773e-18
6324.46557 4.76535e-18
6326.37314 4.56930e-18
6328.28072 4.50439e-18
6330.17821 4.69425e-18
6332.08578 4.80760e-18
6333.98327 4.75790e-18
6335.89084 4.79278e-18
6337.79842 4.81717e-18
6339.69590 4.99957e-18
6341.60348 4.92284e-18
6343.50097 5.33841e-18
6345.40854 5.80913e-18
6347.31612 5.00342e-18
6349.21360 5.08883e-18
6351.12118 5.12841e-18
6353.01866 5.30869e-18
6354.92624 5.56756e-18
6356.83382 5.48078e-18
6358.73130 5.44799e-18
6360.63888 5.25726e-18
6362.53636 5.85375e-18
6364.44394 6.20521e-18
6366.35152 5.96772e-18
6368.24900 6.15110e-18
6370.15658 6.69890e-18
6372.05406 7.31749e-18
6373.96164 8.08161e-18
6375.85912 7.92021e-18
6377.76670 7.93049e-18
6379.67428 8.86456e-18
6381.57176 9.00295e-18
6383.47934 9.10325e-18
6385.37682 9.21293e-18
6387.28440 9.17348e-18
6389.19198 9.70988e-18
6391.08946 1.02934e-17
6392.99704 1.06308e-17
6394.89452 1.08308e-17
6396.80210 1.12425e-17
6398.70968 1.11896e-17
6400.60716 1.11238e-17
6402.51474 1.14635e-17
6404.41222 1.15772e-17
6406.31980 1.13945e-17
6408.22737 1.16853e-17
6410.12486 1.19617e-17
6412.03244 1.21151e-17
6413.92992 1.19650e-17
6415.83750 1.18708e-17
6417.73498 1.22310e-17
6419.64256 1.20591e-17
6421.55013 1.21417e-17
6423.44762 1.26218e-17
6425.35520 1.24010e-17
6427.25268 1.24692e-17
6429.16026 1.25383e-17
6431.06783 1.25237e-17
6432.96532 1.26608e-17
6434.87289 1.25333e-17
6436.77038 1.25790e-17
6438.67796 1.24917e-17
6440.58553 1.19410e-17
6442.48302 1.16741e-17
6444.39059 1.19867e-17
6446.28808 1.20693e-17
6448.19565 1.17744e-17
6450.10323 1.20752e-17
6452.00072 1.19811e-17
6453.90829 1.23927e-17
6455.80578 1.27740e-17
6457.71335 1.22311e-17
6459.62093 1.17754e-17
6461.51841 1.18663e-17
6463.42599 1.26899e-17
6465.32348 1.23726e-17
6467.23105 1.15178e-17
6469.12854 1.17672e-17
6471.03611 1.23901e-17
6472.94369 1.21925e-17
6474.84117 1.14864e-17
6476.74875 1.12329e-17
6478.64624 1.16346e-17
6480.55381 1.18297e-17
6482.46139 1.08900e-17
6484.35887 1.09284e-17
6486.26645 1.12711e-17
6488.16393 1.09929e-17
6490.07151 1.13775e-17
6491.97909 1.18056e-17
6493.87657 1.10705e-17
6495.78415 1.01846e-17
6497.68163 9.22267e-18
6499.58921 9.27876e-18
6501.49679 9.91890e-18
6503.39427 1.00481e-17
6505.30185 1.02978e-17
6507.19933 9.55857e-18
6509.10691 8.74406e-18
6511.01449 8.74503e-18
6512.91197 8.85000e-18
6514.81955 8.93626e-18
6516.71703 9.00665e-18
6518.62461 8.85170e-18
6520.52209 8.99004e-18
6522.42967 1.03483e-17
6524.33725 1.01465e-17
6526.23473 1.01882e-17
6528.14231 1.00331e-17
6530.03979 9.21091e-18
6531.94737 8.90962e-18
6533.85495 8.90855e-18
6535.75243 9.23752e-18
6537.66001 9.16475e-18
6539.55749 9.21683e-18
6541.46507 9.61000e-18
6543.37264 9.67680e-18
6545.27013 9.42443e-18
6547.17771 1.01314e-17
6549.07519 1.05633e-17
6550.98277 1.03095e-17
6552.89034 1.07948e-17
6554.78783 1.12841e-17
6556.69540 1.15151e-17
6558.59289 1.17276e-17
6560.50047 1.14549e-17
6562.40804 1.11167e-17
6564.30553 1.16462e-17
6566.21310 1.18274e-17
6568.11059 1.14124e-17
6570.01816 1.15881e-17
6571.91565 1.16608e-17
6573.82323 1.19649e-17
6575.73080 1.22143e-17
6577.62829 1.23205e-17
6579.53586 1.29407e-17
6581.43335 1.21490e-17
6583.34092 1.22760e-17
6585.24850 1.25253e-17
6587.14599 1.26426e-17
6589.05356 1.27607e-17
6590.95105 1.24100e-17
6592.85862 1.28687e-17
6594.76620 1.31069e-17
6596.66368 1.23947e-17
6598.57126 1.23079e-17
6600.46875 1.23546e-17
6602.37632 1.23726e-17
6604.28390 1.24081e-17
6606.18138 1.23653e-17
6608.08896 1.21999e-17
6609.98644 1.32923e-17
6611.89402 1.36285e-17
6613.79151 1.33498e-17
6615.69908 1.36445e-17
6617.60666 1.30907e-17
6619.50414 1.27314e-17
6621.41172 1.27190e-17
6623.30920 1.27293e-17
6625.21678 1.27328e-17
6627.12436 1.27375e-17
6629.02184 1.27412e-17
6630.92942 1.27560e-17
6632.82690 1.27094e-17
6634.73448 1.25141e-17
6636.64206 1.29627e-17
6638.53954 1.23117e-17
6640.44712 1.17958e-17
6642.34460 1.22617e-17
6644.25218 1.23533e-17
6646.15976 1.24423e-17
6648.05724 1.25314e-17
6649.96482 1.28873e-17
6651.86230 1.30744e-17
6653.76988 1.23128e-17
6655.67746 1.18451e-17
6657.57494 1.13916e-17
6659.48252 1.13536e-17
6661.38000 1.13757e-17
6663.28758 1.11986e-17
6665.18506 1.18404e-17
6667.09264 1.20597e-17
6669.00022 1.18689e-17
6670.89770 1.18613e-17
6672.80528 1.21317e-17
6674.70276 1.22856e-17
6676.61034 1.14218e-17
6678.51791 1.14226e-17
6680.41540 1.12265e-17
6682.32298 1.10881e-17
6684.22046 1.14216e-17
6686.12804 1.15682e-17
6688.03561 1.14975e-17
6689.93310 1.10186e-17
6691.84067 1.03293e-17
6693.73816 9.87909e-18
6695.64574 1.04637e-17
6697.55331 1.16000e-17
6699.45080 1.17927e-17
6701.35837 1.12237e-17
6703.25586 1.15311e-17
6705.16343 1.17842e-17
6707.07101 1.14605e-17
6708.96850 1.14414e-17
6710.87607 1.12039e-17
6712.77356 1.13751e-17
6714.68113 1.10347e-17
6716.57862 1.02087e-17
6718.48619 1.03292e-17
6720.39377 1.08273e-17
6722.29126 1.16888e-17
6724.19883 1.12218e-17
6726.09632 1.06619e-17
6728.00389 1.05836e-17
6729.91147 1.01222e-17
6731.80895 1.06212e-17
6733.71653 1.06692e-17
6735.61402 1.00399e-17
6737.52159 1.00231e-17
6739.42917 1.05962e-17
6741.32665 1.02808e-17
6743.23423 1.09502e-17
6745.13171 1.12266e-17
6747.03929 1.08892e-17
6748.94687 1.12450e-17
6750.84435 1.17289e-17
6752.75193 1.17028e-17
6754.64941 1.19493e-17
6756.55699 1.18524e-17
6758.46457 1.15507e-17
6760.36205 1.09674e-17
6762.26963 1.06589e-17
6764.16711 1.04192e-17
6766.07469 1.05282e-17
6767.97217 1.10160e-17
6769.87975 1.11375e-17
6771.78733 1.05070e-17
6773.68481 9.87122e-18
6775.59239 1.02765e-17
6777.48987 1.11086e-17
6779.39745 1.06848e-17
6781.30503 1.00394e-17
6783.20251 1.06237e-17
6785.11009 1.07424e-17
6787.00757 1.08078e-17
6788.91515 1.14717e-17
6790.82273 1.12456e-17
6792.72021 1.11585e-17
6794.62779 1.10477e-17
6796.52527 1.07469e-17
6798.43285 1.09945e-17
6800.34042 1.12128e-17
6802.23791 1.12106e-17
6804.14549 1.11980e-17
6806.04297 1.05380e-17
6807.95055 1.07093e-17
6809.84803 1.12287e-17
6811.75561 1.09804e-17
6813.66318 9.84318e-18
6815.56067 9.57648e-18
6817.46825 9.80919e-18
6819.36573 1.00686e-17
6821.27331 9.98614e-18
6823.18088 1.00945e-17
6825.07837 1.00378e-17
6826.98594 1.05915e-17
6828.88343 1.03672e-17
6830.79101 9.99842e-18
6832.69858 1.00839e-17
6834.59607 1.02500e-17
6836.50364 1.05967e-17
6838.40113 1.02172e-17
6840.30870 9.42495e-18
6842.21628 9.66798e-18
6844.11377 9.99513e-18
6846.02134 9.96881e-18
6847.91883 9.94249e-18
6849.82640 9.91617e-18
6851.73398 9.88985e-18
6853.63146 9.86354e-18
6855.53904 9.83722e-18
6857.43653 9.81092e-18
6859.34410 9.78461e-18
6861.24159 9.75830e-18
6863.14916 9.73200e-18
6865.05674 9.70569e-18
6866.95422 9.67940e-18
6868.86180 9.65310e-18
6870.75929 9.62681e-18
6872.66686 9.60052e-18
6874.57444 9.57423e-18
6876.47192 9.54793e-18
6878.37950 9.52165e-18
6880.27698 9.49537e-18
6882.18456 9.46909e-18
6884.09214 9.44281e-18
6885.98962 9.41653e-18
6887.89720 9.39026e-18
6889.79468 9.36399e-18
6891.70226 9.33771e-18
6893.60984 9.31144e-18
6895.50732 9.28518e-18
6897.41490 9.25891e-18
6899.31238 9.23265e-18
6901.21996 9.20640e-18
6903.12754 9.18013e-18
6905.02502 9.15388e-18
6906.93260 9.12762e-18
6908.83008 9.10138e-18
6910.73766 9.07513e-18
6912.63514 9.04888e-18
6914.54272 9.02264e-18
6916.45030 8.99640e-18
6918.34778 8.97015e-18
6920.25536 8.94392e-18
6922.15284 8.91768e-18
6924.06042 8.89145e-18
6925.96799 8.86522e-18
6927.86548 8.83898e-18
6929.77306 8.81276e-18
6931.67054 8.78654e-18
6933.57812 8.76031e-18
6935.48569 8.73409e-18
6937.38318 8.92192e-18
6939.29076 9.60664e-18
6941.18824 9.04484e-18
6943.09582 8.70901e-18
6945.00339 8.90741e-18
6946.90088 8.68501e-18
6948.80845 9.15140e-18
6950.70594 1.02370e-17
6952.61352 1.02789e-17
6954.52109 1.00153e-17
6956.41858 1.00971e-17
6958.32615 9.73799e-18
6960.22364 1.01551e-17
6962.13121 9.71692e-18
6964.03879 9.41670e-18
6965.93628 9.88846e-18
6967.84385 9.85500e-18
6969.74134 1.06893e-17
6971.64891 1.09335e-17
6973.54640 1.07802e-17
6975.45397 1.02524e-17
6977.36155 9.60135e-18
6979.25904 9.63004e-18
6981.16661 1.03556e-17
6983.06410 9.91730e-18
6984.97167 1.00283e-17
6986.87925 1.01672e-17
6988.77673 9.36003e-18
6990.68431 9.91757e-18
6992.58180 9.99637e-18
6994.48937 9.85015e-18
6996.39695 9.92379e-18
6998.29443 9.97598e-18
7000.20201 1.00304e-17
7002.09949 9.84709e-18
7004.00707 9.45864e-18
7005.91465 9.93949e-18
7007.81213 1.06357e-17
7009.71971 9.89336e-18
7011.61719 8.78166e-18
7013.52477 9.38335e-18
7015.43235 9.74772e-18
7017.32983 9.57194e-18
7019.23741 9.22478e-18
7021.13489 9.32550e-18
7023.04247 9.17576e-18
7024.93995 9.23052e-18
7026.84753 9.27959e-18
7028.75511 9.83884e-18
7030.65259 1.03769e-17
7032.56017 9.41635e-18
7034.45765 8.92942e-18
7036.36523 9.28935e-18
7038.27281 9.07471e-18
7040.17029 9.04205e-18
7042.07787 9.07534e-18
7043.97535 9.09751e-18
7045.88293 9.11201e-18
7047.79051 9.16705e-18
7049.68799 9.47408e-18
7051.59557 9.48850e-18
7053.49305 9.23992e-18
7055.40063 9.36600e-18
7057.30820 9.49076e-18
7059.20569 8.93576e-18
7061.11327 8.71213e-18
7063.01075 9.01016e-18
7064.91833 8.92556e-18
7066.81581 8.69431e-18
7068.72339 8.85224e-18
7070.63096 8.63964e-18
7072.52845 8.64063e-18
7074.43603 9.01942e-18
7076.33351 8.63559e-18
7078.24109 8.36118e-18
7080.14866 8.71392e-18
7082.04615 8.52430e-18
7083.95372 8.16190e-18
7085.85121 8.48197e-18
7087.75878 8.50429e-18
7089.66636 8.31161e-18
7091.56385 7.92493e-18
7093.47142 7.82334e-18
7095.36891 7.67724e-18
7097.27648 8.51657e-18
7099.18406 7.80124e-18
7101.08155 8.15791e-18
7102.98912 8.10690e-18
7104.88661 7.81271e-18
7106.79418 7.41959e-18
7108.70176 7.70302e-18
7110.59924 8.11306e-18
7112.50682 8.38562e-18
7114.40431 7.57061e-18
7116.31188 7.59666e-18
7118.20937 7.35538e-18
7120.11694 7.36375e-18
7122.02452 7.62855e-18
7123.92200 7.08762e-18
7125.82958 6.81608e-18
7127.72707 7.53648e-18
7129.63464 8.15845e-18
7131.54222 6.84689e-18
7133.43970 6.48062e-18
7135.34728 7.26221e-18
7137.24476 8.04648e-18
7139.15234 8.70729e-18
7141.05992 8.45379e-18
7142.95740 8.22690e-18
7144.86498 7.72804e-18
7146.76246 7.32770e-18
7148.67004 8.36206e-18
7150.57762 8.76532e-18
7152.47510 8.17523e-18
7154.38268 8.18941e-18
7156.28016 7.84980e-18
7158.18774 7.86071e-18
7160.08522 8.19732e-18
7161.99280 8.19153e-18
7163.90038 7.96872e-18
7165.79786 8.32196e-18
7167.70544 8.23384e-18
7169.60292 7.18031e-18
7171.51050 7.45160e-18
7173.41808 8.30161e-18
7175.31556 7.87673e-18
7177.22314 7.14899e-18
7179.12062 7.16237e-18
7181.02820 7.77932e-18
7182.93578 8.10635e-18
7184.83326 7.64787e-18
7186.74084 7.50549e-18
7188.63832 7.43658e-18
7190.54590 7.50517e-18
7192.45347 7.35182e-18
7194.35096 7.31162e-18
7196.25854 7.37553e-18
7198.15602 7.38220e-18
7200.06360 7.31400e-18
7201.97117 7.43182e-18
7203.86866 8.23517e-18
7205.77623 8.09401e-18
7207.67372 7.45278e-18
7209.58129 7.83903e-18
7211.47878 7.89046e-18
7213.38636 7.23706e-18
7215.29393 7.84516e-18
7217.19142 8.64499e-18
7219.09899 8.14515e-18
7220.99648 8.34670e-18
7222.90406 7.94644e-18
7224.81163 7.44880e-18
7226.70912 8.16515e-18
7228.61669 7.77706e-18
7230.51418 7.50628e-18
7232.42175 7.88950e-18
7234.32933 7.54857e-18
7236.22682 7.67008e-18
7238.13439 7.20720e-18
7240.03188 7.06309e-18
7241.93945 7.00654e-18
7243.84703 6.93275e-18
7245.74451 6.86428e-18
7247.65209 6.78016e-18
7249.54958 6.64114e-18
7251.45715 6.79622e-18
7253.35464 7.23200e-18
7255.26221 7.38743e-18
7257.16979 7.42476e-18
7259.06727 7.53398e-18
7260.97485 7.51731e-18
7262.87234 8.04067e-18
7264.77991 7.85972e-18
7266.68749 6.91359e-18
7268.58497 7.06367e-18
7270.49255 6.94204e-18
7272.39003 7.10524e-18
7274.29761 7.34063e-18
7276.20519 7.11713e-18
7278.10267 7.12867e-18
7280.01025 7.36690e-18
7281.90773 7.10309e-18
7283.81531 7.52237e-18
7285.72289 7.68436e-18
7287.62037 7.76548e-18
7289.52795 7.86146e-18
7291.42543 7.95503e-18
7293.33301 8.06550e-18
7295.24059 7.89867e-18
7297.13807 6.82357e-18
7299.04565 6.69737e-18
7300.94313 7.07893e-18
7302.85071 7.20463e-18
7304.74819 7.07779e-18
7306.65577 6.47438e-18
7308.56335 6.66002e-18
7310.46083 6.87852e-18
7312.36841 6.85466e-18
7314.26589 6.54757e-18
7316.17347 6.74285e-18
7318.08104 6.93040e-18
7319.97853 6.58728e-18
7321.88611 7.22009e-18
7323.78359 7.66607e-18
7325.69117 6.57313e-18
7327.59874 6.35681e-18
7329.49623 6.86008e-18
7331.40381 6.06589e-18
7333.30129 6.34287e-18
7335.20887 7.07268e-18
7337.11644 7.29005e-18
7339.01393 7.03905e-18
7340.92150 7.09413e-18
7342.81899 7.23484e-18
7344.72657 6.87532e-18
7346.63414 7.23638e-18
7348.53163 7.10321e-18
7350.43920 6.85544e-18
7352.33669 6.39332e-18
7354.24426 6.08994e-18
7356.14175 6.52889e-18
7358.04933 7.24523e-18
7359.95690 7.71967e-18
7361.85439 7.10484e-18
7363.76196 7.27773e-18
7365.65945 7.84153e-18
7367.56702 7.87318e-18
7369.47460 7.08688e-18
7371.37209 6.42161e-18
7373.27966 6.37541e-18
7375.17715 6.60503e-18
7377.08472 7.57283e-18
7378.99230 7.66619e-18
7380.88978 7.36112e-18
7382.79736 6.81128e-18
7384.69484 6.34926e-18
7386.60242 6.24854e-18
7388.51000 6.76811e-18
7390.40748 7.28213e-18
7392.31506 7.23396e-18
7394.21254 7.05243e-18
7396.12012 6.35768e-18
7398.01761 6.65095e-18
7399.92518 7.10232e-18
7401.83276 6.57397e-18
7403.73024 7.15667e-18
7405.63782 7.03338e-18
7407.53530 6.33751e-18
7409.44288 6.18855e-18
7411.35046 6.09269e-18
7413.24794 6.80502e-18
7415.15552 7.14300e-18
7417.05300 7.22601e-18
7418.96058 6.38462e-18
7420.86816 5.74792e-18
7422.76564 6.15046e-18
7424.67322 5.94885e-18
7426.57070 6.18365e-18
7428.47828 6.34764e-18
7430.38586 6.59121e-18
7432.28334 7.28870e-18
7434.19092 7.33867e-18
7436.08840 7.06712e-18
7437.99598 6.31741e-18
7439.90356 6.35035e-18
7441.80104 6.30373e-18
7443.70862 6.37806e-18
7445.60610 6.01396e-18
7447.51368 6.62333e-18
7449.41116 6.90998e-18
7451.31874 6.70039e-18
7453.22632 6.63376e-18
7455.12380 6.40926e-18
7457.03138 6.13057e-18
7458.92886 6.27729e-18
7460.83644 7.15973e-18
7462.74401 6.64461e-18
7464.64150 6.26342e-18
7466.54908 7.48380e-18
7468.44656 7.26689e-18
7470.35414 6.26489e-18
7472.26171 6.61582e-18
7474.15920 6.22988e-18
7476.06677 6.01842e-18
7477.96426 5.99508e-18
7479.87184 5.98934e-18
7481.77941 5.94146e-18
7483.67690 5.97762e-18
7485.58447 6.21168e-18
7487.48196 6.05336e-18
7489.38953 6.17601e-18
7491.29711 6.38498e-18
7493.19459 6.43772e-18
7495.10217 6.72821e-18
7496.99966 6.69155e-18
7498.90723 5.94293e-18
7500.80472 5.88140e-18
7502.71229 6.20055e-18
7504.61987 6.91132e-18
7506.51736 6.61697e-18
7508.42493 5.92958e-18
7510.32242 5.84435e-18
7512.22999 6.35778e-18
7514.13757 6.40132e-18
7516.03505 5.99723e-18
7517.94263 6.08013e-18
7519.84012 6.46063e-18
7521.74769 6.92795e-18
7523.65527 6.15355e-18
7525.55275 5.28663e-18
7527.46033 5.58309e-18
7529.35781 6.26604e-18
7531.26539 5.98272e-18
7533.17297 6.16350e-18
7535.07045 6.11818e-18
7536.97803 6.57709e-18
7538.87551 6.33227e-18
7540.78309 6.14431e-18
7542.69067 6.09985e-18
7544.58815 6.02363e-18
7546.49573 6.15842e-18
7548.39321 6.19199e-18
7550.30079 6.17961e-18
7552.19827 6.16723e-18
7554.10585 6.15486e-18
7556.01343 6.14248e-18
7557.91091 6.13010e-18
7559.81849 6.11773e-18
7561.71597 6.10535e-18
7563.62355 6.09298e-18
7565.53113 6.08061e-18
7567.42861 6.06824e-18
7569.33619 6.05587e-18
7571.23367 6.04350e-18
7573.14125 6.03114e-18
7575.04883 6.01877e-18
7576.94631 6.00641e-18
7578.85389 5.99404e-18
7580.75137 5.98168e-18
7582.65895 5.96932e-18
7584.56652 5.95696e-18
7586.46401 5.94460e-18
7588.37159 5.93224e-18
7590.26907 5.91989e-18
7592.17665 5.90753e-18
7594.07413 5.89518e-18
7595.98171 5.88282e-18
7597.88928 5.87047e-18
7599.78677 5.85812e-18
7601.69434 5.84577e-18
7603.59183 5.83342e-18
7605.49941 5.82107e-18
7607.40698 5.80872e-18
7609.30447 5.79638e-18
7611.21204 5.78403e-18
7613.10953 5.77169e-18
7615.01711 5.75935e-18
7616.92468 5.74700e-18
7618.82217 5.73466e-18
7620.72974 5.72233e-18
7622.62723 5.70999e-18
7624.53480 5.69765e-18
7626.44238 5.68532e-18
7628.33987 5.67298e-18
7630.24744 5.66065e-18
7632.14493 5.64831e-18
7634.05250 5.63598e-18
7635.96008 5.62365e-18
7637.85756 5.61132e-18
7639.76514 5.59900e-18
7641.66263 5.58667e-18
7643.57020 5.57434e-18
7645.46769 5.56202e-18
7647.37526 5.54970e-18
7649.28284 5.53737e-18
7651.18032 5.52505e-18
7653.08790 5.51273e-18
7654.98539 5.50041e-18
7656.89296 5.48809e-18
7658.80054 5.47578e-18
7660.69802 5.46346e-18
7662.60560 5.45115e-18
7664.50308 5.43883e-18
7666.41066 5.42652e-18
7668.31824 5.41421e-18
7670.21572 5.40190e-18
7672.12330 5.38959e-18
7674.02078 5.37728e-18
7675.92836 5.36498e-18
7677.83594 5.35267e-18
7679.73342 5.34037e-18
7681.64100 5.32807e-18
7683.53848 6.01605e-18
7685.44606 5.72162e-18
7687.35364 5.52191e-18
7689.25112 5.78781e-18
7691.15870 5.83478e-18
7693.05618 5.90498e-18
7694.96376 6.56979e-18
7696.87134 6.25913e-18
7698.76882 5.10660e-18
7700.67640 4.70285e-18
7702.57388 5.03837e-18
7704.48146 5.07458e-18
7706.38903 5.50303e-18
7708.28652 5.77107e-18
7710.19410 5.82267e-18
7712.09158 5.70768e-18
7713.99916 5.68128e-18
7715.89664 5.44038e-18
7717.80422 4.84048e-18
7719.71179 5.00803e-18
7721.60928 5.33207e-18
7723.51686 5.26768e-18
7725.41434 5.55198e-18
7727.32192 5.90117e-18
7729.22949 6.20337e-18
7731.12698 5.37239e-18
7733.03455 4.96715e-18
7734.93204 5.58525e-18
7736.83962 5.77861e-18
7738.74719 5.67399e-18
7740.64468 5.80220e-18
7742.55225 5.87759e-18
7744.44974 5.73461e-18
7746.35731 5.61148e-18
7748.26489 4.99183e-18
7750.16238 5.00552e-18
7752.06995 4.77538e-18
7753.96744 4.78059e-18
7755.87501 5.80380e-18
7757.77250 5.45208e-18
7759.68007 5.30705e-18
7761.58765 5.18262e-18
7763.48514 5.15126e-18
7765.39271 5.47970e-18
7767.29020 5.82290e-18
7769.19777 5.65779e-18
7771.10535 4.99627e-18
7773.00283 5.01582e-18
7774.91041 5.41849e-18
7776.80789 5.69696e-18
7778.71547 5.49551e-18
7780.62305 5.83303e-18
7782.52053 5.90330e-18
7784.42811 5.91169e-18
7786.32559 5.76209e-18
7788.23317 5.42833e-18
7790.14075 5.72975e-18
7792.03823 5.32662e-18
7793.94581 5.81191e-18
7795.84329 5.83484e-18
7797.75087 5.40176e-18
7799.65845 5.84456e-18
7801.55593 5.89321e-18
7803.46351 5.93305e-18
7805.36099 6.06889e-18
7807.26857 6.70004e-18
7809.16605 6.34745e-18
7811.07363 5.88043e-18
7812.98121 6.53473e-18
7814.87869 6.04454e-18
7816.78627 5.21468e-18
7818.68375 5.24980e-18
7820.59133 5.32506e-18
7822.49891 5.45050e-18
7824.39639 5.59419e-18
7826.30397 5.73172e-18
7828.20145 5.89320e-18
7830.10903 5.94645e-18
7832.01661 5.33326e-18
7833.91409 5.24095e-18
7835.82167 5.48869e-18
7837.71915 6.05142e-18
7839.62673 6.13466e-18
7841.53430 6.15091e-18
7843.43179 6.00555e-18
7845.33937 5.74799e-18
7847.23685 6.30964e-18
7849.14443 6.43525e-18
7851.05200 4.87007e-18
7852.94949 4.59255e-18
7854.85706 5.87098e-18
7856.75455 6.50179e-18
7858.66213 6.60542e-18
7860.55961 5.63449e-18
7862.46719 5.78223e-18
7864.37476 5.80943e-18
7866.27225 6.28801e-18
7868.17982 6.31998e-18
7870.07731 5.57255e-18
7871.98489 5.46222e-18
7873.89246 4.85882e-18
7875.78995 4.93279e-18
7877.69752 5.13925e-18
7879.59501 5.32138e-18
7881.50258 5.48570e-18
7883.41016 5.74497e-18
7885.30764 6.64978e-18
7887.21522 7.16878e-18
7889.11271 6.99496e-18
7891.02028 6.21733e-18
7892.92786 5.50385e-18
7894.82534 5.19343e-18
7896.73292 5.96760e-18
7898.63041 6.09263e-18
7900.53798 5.56359e-18
7902.43547 5.49533e-18
7904.34304 5.51001e-18
7906.25062 5.50678e-18
7908.14810 5.50578e-18
7910.05568 5.50479e-18
7911.95317 5.50383e-18
7913.86074 5.50287e-18
7915.76832 5.50188e-18
7917.66580 5.50092e-18
7919.57338 5.49998e-18
7921.47086 5.49902e-18
7923.37844 5.49807e-18
7925.28602 5.49716e-18
7927.18350 5.49622e-18
7929.09108 5.49530e-18
7930.98856 5.49440e-18
7932.89614 5.49349e-18
7934.80372 5.49258e-18
7936.70120 5.49171e-18
7938.60878 5.49083e-18
7940.50626 5.48995e-18
7942.41384 5.48907e-18
7944.32142 5.48823e-18
7946.21890 5.48739e-18
7948.12648 5.48657e-18
7950.02396 5.48575e-18
7951.93154 5.48495e-18
7953.82902 5.48414e-18
7955.73660 5.48336e-18
7957.64418 5.48260e-18
7959.54166 5.48185e-18
7961.44924 5.48110e-18
7963.34672 5.48036e-18
7965.25430 5.47964e-18
7967.16188 5.47893e-18
7969.05936 5.47826e-18
7970.96694 5.47758e-18
7972.86442 5.47691e-18
7974.77200 5.47626e-18
7976.67957 5.47563e-18
7978.57706 5.47338e-18
7980.48464 5.48322e-18
7982.38212 5.44315e-18
7984.28970 5.00446e-18
7986.19727 4.87849e-18
7988.09476 6.02394e-18
7990.00233 6.91825e-18
7991.89982 5.80103e-18
7993.80740 4.26404e-18
7995.71497 3.63660e-18
7997.61246 4.84731e-18
7999.52003 5.50447e-18
8001.41752 5.49652e-18
8003.32509 5.85654e-18
8005.22258 5.73372e-18
8007.13016 5.03441e-18
8009.03773 5.26431e-18
8010.93522 5.36441e-18
8012.84279 5.34882e-18
8014.74028 5.80720e-18
8016.64785 5.71516e-18
8018.55543 5.63907e-18
8020.45292 5.96230e-18
8022.36049 5.07101e-18
8024.25798 4.70778e-18
8026.16555 4.86866e-18
8028.07313 4.18946e-18
8029.97061 4.91903e-18
8031.87819 5.59079e-18
8033.77568 5.11455e-18
8035.68325 5.08650e-18
8037.59083 5.79379e-18
8039.48831 5.57912e-18
8041.39589 5.42497e-18
8043.29337 5.15722e-18
8045.20095 5.16390e-18
8047.10853 5.47210e-18
8049.00601 5.55618e-18
8050.91359 5.25169e-18
8052.81107 5.30203e-18
8054.71865 4.87018e-18
8056.61613 5.06391e-18
8058.52371 5.84429e-18
8060.43129 6.41319e-18
8062.32877 5.26697e-18
8064.23635 5.10354e-18
8066.13383 4.96956e-18
8068.04141 4.97427e-18
8069.94899 4.87419e-18
8071.84647 4.88123e-18
8073.75405 5.23282e-18
8075.65153 5.09475e-18
8077.55911 4.96616e-18
8079.46669 5.05916e-18
8081.36417 5.03343e-18
8083.27175 5.35813e-18
8085.16923 5.91160e-18
8087.07681 6.00741e-18
8088.98439 5.45423e-18
8090.88187 5.58516e-18
8092.78945 5.61027e-18
8094.68693 5.30027e-18
8096.59451 5.14371e-18
8098.49199 5.07523e-18
8100.39957 4.77449e-18
8102.30715 5.00456e-18
8104.20463 5.24271e-18
8106.11221 4.79115e-18
8108.00969 4.99323e-18
8109.91727 5.24080e-18
8111.82484 5.25573e-18
8113.72233 5.24031e-18
8115.62991 5.08535e-18
8117.52739 4.17549e-18
8119.43497 4.79058e-18
8121.34254 5.27054e-18
8123.24003 5.32175e-18
8125.14760 5.06921e-18
8127.04509 4.88880e-18
8128.95267 4.82631e-18
8130.86024 4.52576e-18
8132.75773 5.08069e-18
8134.66530 5.12945e-18
8136.56279 4.70615e-18
8138.47036 5.02681e-18
8140.37794 4.86669e-18
8142.27543 4.93885e-18
8144.18300 4.39845e-18
8146.08049 4.50905e-18
8147.98806 4.49395e-18
8149.88555 3.91071e-18
8151.79312 4.15651e-18
8153.70070 4.50959e-18
8155.59819 4.39983e-18
8157.50576 4.02734e-18
8159.40325 4.04611e-18
8161.31082 4.46787e-18
8163.21840 4.69938e-18
8165.11588 4.68634e-18
8167.02346 4.78752e-18
8168.92095 4.58874e-18
8170.82852 4.23648e-18
8172.73610 4.39573e-18
8174.63358 4.93401e-18
8176.54116 4.65461e-18
8178.43864 4.28184e-18
8180.34622 4.37744e-18
8182.25380 4.24409e-18
8184.15128 4.51827e-18
8186.05886 4.74643e-18
8187.95634 4.68034e-18
8189.86392 4.74080e-18
8191.76140 4.94648e-18
8193.66898 5.21768e-18
8195.57656 4.91093e-18
8197.47404 4.52955e-18
8199.38162 4.18638e-18
8201.27910 4.13805e-18
8203.18668 4.33447e-18
8205.09426 5.15139e-18
8206.99174 4.78742e-18
8208.89932 4.09731e-18
8210.79680 4.68847e-18
8212.70438 4.75841e-18
8214.61196 4.72436e-18
8216.50944 5.01638e-18
8218.41702 4.67982e-18
8220.31450 5.10297e-18
8222.22208 5.11963e-18
8224.12966 4.40112e-18
8226.02714 3.72854e-18
8227.93472 3.84071e-18
8229.83220 4.56513e-18
8231.73978 4.47024e-18
8233.63726 4.29707e-18
8235.54484 4.23659e-18
8237.45242 4.63441e-18
8239.34990 4.81914e-18
8241.25748 4.59790e-18
8243.15496 3.96184e-18
8245.06254 4.03557e-18
8246.97011 4.30505e-18
8248.86760 4.72124e-18
8250.77518 4.86484e-18
8252.67266 4.76617e-18
8254.58024 4.53143e-18
8256.48781 4.17377e-18
8258.38530 4.73083e-18
8260.29287 5.12252e-18
8262.19036 4.76285e-18
8264.09793 4.52304e-18
8266.00551 4.68469e-18
8267.90300 4.65540e-18
8269.81057 4.08985e-18
8271.70806 4.54520e-18
8273.61563 4.67705e-18
8275.52321 4.80441e-18
8277.42070 5.74520e-18
8279.32827 4.78388e-18
8281.22576 4.32956e-18
8283.13333 4.12596e-18
8285.04091 4.58612e-18
8286.93839 4.42781e-18
8288.84597 3.02870e-18
8290.74346 3.02761e-18
8292.65103 3.22595e-18
8294.54852 3.57777e-18
8296.45609 4.90975e-18
8298.36367 4.61513e-18
8300.26115 4.41118e-18
8302.16873 4.64115e-18
8304.06622 4.11864e-18
8305.97379 3.96166e-18
8307.88137 4.14311e-18
8309.77885 4.80877e-18
8311.68643 4.33029e-18
8313.58391 3.42357e-18
8315.49149 4.02960e-18
8317.39907 4.32725e-18
8319.29655 4.49019e-18
8321.20413 4.34480e-18
8323.10161 4.19324e-18
8325.00919 4.01733e-18
8326.91677 4.11373e-18
8328.81425 4.18556e-18
8330.72183 3.75987e-18
8332.61931 3.90778e-18
8334.52689 4.26577e-18
8336.43447 3.98036e-18
8338.33195 3.72281e-18
8340.23953 3.29263e-18
8342.13701 3.59360e-18
8344.04459 4.21796e-18
8345.94207 4.39841e-18
8347.84965 4.28682e-18
8349.75723 3.94260e-18
8351.65471 4.15507e-18
8353.56229 4.33668e-18
8355.45977 4.19058e-18
8357.36735 4.24760e-18
8359.27493 4.29902e-18
8361.17241 3.94625e-18
8363.07999 3.68851e-18
8364.97747 3.76576e-18
8366.88505 3.67676e-18
8368.79262 3.95975e-18
8370.69011 4.16095e-18
8372.59769 4.29263e-18
8374.49517 4.22558e-18
8376.40275 4.38667e-18
8378.31032 4.96786e-18
8380.20781 4.83513e-18
8382.11538 4.45914e-18
8384.01287 3.80546e-18
8385.92044 3.61301e-18
8387.82802 4.18804e-18
8389.72551 4.64309e-18
8391.63308 4.44399e-18
8393.53057 4.90386e-18
8395.43814 4.88658e-18
8397.33563 4.61430e-18
8399.24321 3.99117e-18
8401.15078 3.87889e-18
8403.04827 4.94510e-18
8404.95584 5.23405e-18
8406.85333 4.77034e-18
8408.76090 5.07239e-18
8410.66848 5.07038e-18
8412.56596 5.34367e-18
8414.47354 4.85300e-18
8416.37103 4.15369e-18
8418.27860 4.34171e-18
8420.18618 4.88768e-18
8422.08366 4.51911e-18
8423.99124 4.86724e-18
8425.88873 6.94064e-18
8427.79630 5.59773e-18
8429.70388 4.83270e-18
8431.60136 5.58188e-18
8433.50894 4.41903e-18
8435.40642 4.02643e-18
8437.31400 3.97073e-18
8439.22158 4.69563e-18
8441.11906 5.09419e-18
8443.02664 4.89809e-18
8444.92412 4.44967e-18
8446.83170 4.67738e-18
8448.72918 4.43405e-18
8450.63676 4.36478e-18
8452.54434 4.35365e-18
8454.44182 4.33160e-18
8456.34940 4.31075e-18
8458.24688 4.28987e-18
8460.15446 4.26796e-18
8462.06204 4.25543e-18
8463.95952 4.19530e-18
8465.86710 3.97260e-18
8467.76458 4.28954e-18
8469.67216 4.67330e-18
8471.57974 5.18767e-18
8473.47722 5.07499e-18
8475.38480 4.46348e-18
8477.28228 3.97081e-18
8479.18986 4.04245e-18
8481.09744 4.24763e-18
8482.99492 4.11808e-18
8484.90250 4.40678e-18
8486.79998 4.64869e-18
8488.70756 5.37687e-18
8490.61513 5.35432e-18
8492.51262 4.81491e-18
8494.42020 4.26416e-18
8496.31768 4.03224e-18
8498.22526 3.81672e-18
8500.12274 4.54463e-18
8502.03032 5.36945e-18
8503.93789 5.51935e-18
8505.83538 5.16339e-18
8507.74296 5.06956e-18
8509.64044 5.11538e-18
8511.54802 4.94260e-18
8513.45559 4.95138e-18
8515.35308 4.90595e-18
8517.26065 5.35823e-18
8519.15814 5.62947e-18
8521.06572 5.30075e-18
8522.97329 5.29753e-18
8524.87078 5.13197e-18
8526.77835 4.85490e-18
8528.67584 4.93114e-18
8530.58341 4.99987e-18
8532.49099 5.38308e-18
8534.38848 4.91753e-18
8536.29605 4.83099e-18
8538.19354 4.92282e-18
8540.10111 4.89455e-18
8541.99860 4.76028e-18
8543.90617 5.20832e-18
8545.81375 5.66582e-18
8547.71124 5.19401e-18
8549.61881 4.34160e-18
8551.51630 4.07564e-18
8553.42387 4.61882e-18
8555.33145 5.25613e-18
8557.22893 5.01043e-18
8559.13651 5.08531e-18
8561.03399 4.87317e-18
8562.94157 4.58974e-18
8564.84915 4.51014e-18
8566.74663 4.63987e-18
8568.65421 4.99381e-18
8570.55169 5.07950e-18
8572.45927 5.20128e-18
8574.36685 5.63591e-18
8576.26433 5.77461e-18
8578.17191 5.76819e-18
8580.06939 5.15129e-18
8581.97697 4.74510e-18
8583.88455 4.78506e-18
8585.78203 4.89026e-18
8587.68961 4.46820e-18
8589.58709 5.11335e-18
8591.49467 5.65945e-18
8593.39215 5.15442e-18
8595.29973 5.33987e-18
8597.20731 4.99006e-18
8599.10479 4.35534e-18
8601.01237 5.30347e-18
8602.90985 5.54017e-18
8604.81743 4.89772e-18
8606.72501 4.93225e-18
8608.62249 5.17740e-18
8610.53007 5.45975e-18
8612.42755 4.99083e-18
8614.33513 4.97618e-18
8616.24271 5.02184e-18
8618.14019 4.86954e-18
8620.04777 5.49294e-18
8621.94525 5.46748e-18
8623.85283 5.51509e-18
8625.76040 4.85578e-18
8627.65789 4.71632e-18
8629.56546 5.42734e-18
8631.46295 5.45985e-18
8633.37053 5.49046e-18
8635.27810 4.77188e-18
8637.17559 4.63347e-18
8639.08316 4.61942e-18
8640.98065 4.65388e-18
8642.88823 5.07755e-18
8644.78571 4.69766e-18
8646.69329 4.48205e-18
8648.60086 4.83695e-18
8650.49835 4.61309e-18
8652.40592 5.27835e-18
8654.30341 5.11371e-18
8656.21099 4.11784e-18
8658.11856 4.61831e-18
8660.01605 4.64251e-18
8661.92362 4.60941e-18
8663.82111 4.61290e-18
8665.72868 4.51764e-18
8667.63626 4.51710e-18
8669.53375 4.51020e-18
8671.44132 4.20099e-18
8673.33881 3.87588e-18
8675.24638 4.27102e-18
8677.15396 4.68588e-18
8679.05144 4.40253e-18
8680.95902 4.21057e-18
8682.85651 4.54261e-18
8684.76408 4.63352e-18
8686.66157 4.62925e-18
8688.56914 4.66856e-18
8690.47672 4.80533e-18
8692.37420 5.08699e-18
8694.28178 4.60998e-18
8696.17927 4.46434e-18
8698.08684 4.72564e-18
8699.99442 4.68277e-18
8701.89190 4.97814e-18
8703.79948 5.15273e-18
8705.69696 4.97083e-18
8707.60454 4.84406e-18
8709.51212 4.48732e-18
8711.40960 4.19498e-18
8713.31718 4.91534e-18
8715.21466 5.23800e-18
8717.12224 4.80593e-18
8719.02982 4.69355e-18
8720.92730 4.54747e-18
8722.83488 5.10657e-18
8724.73236 4.89794e-18
8726.63994 5.12716e-18
8728.54752 5.36941e-18
8730.44500 5.04927e-18
8732.35258 4.52573e-18
8734.25006 4.95831e-18
8736.15764 4.56727e-18
8738.05512 4.44329e-18
8739.96270 4.98918e-18
8741.87028 4.95664e-18
8743.76776 4.97079e-18
8745.67534 5.05193e-18
8747.57282 5.06796e-18
8749.48040 4.71122e-18
8751.38798 4.80697e-18
8753.28546 4.64867e-18
8755.19304 4.84219e-18
8757.09052 5.30272e-18
8758.99810 4.72398e-18
8760.90567 3.68438e-18
8762.80316 3.31118e-18
8764.71074 3.92115e-18
8766.60822 5.02321e-18
8768.51580 4.51165e-18
8770.42337 3.78536e-18
8772.32086 4.24070e-18
8774.22843 5.41150e-18
8776.12592 5.16744e-18
8778.03349 4.33919e-18
8779.94107 3.74828e-18
8781.83856 2.59232e-18
8783.74613 3.96466e-18
8785.64362 4.50487e-18
8787.55119 3.92166e-18
8789.44868 4.08783e-18
8791.35626 5.16709e-18
8793.26383 5.25279e-18
8795.16132 4.85679e-18
8797.06889 4.20948e-18
8798.96638 3.94369e-18
8800.87395 4.11546e-18
8802.78153 4.56428e-18
8804.67901 4.58495e-18
8806.58659 4.26018e-18
8808.48408 4.08149e-18
8810.39165 4.57323e-18
8812.29923 4.24259e-18
8814.19671 4.21328e-18
8816.10429 4.81926e-18
8818.00178 4.52206e-18
8819.90935 4.24114e-18
8821.81693 4.67642e-18
8823.71441 4.91502e-18
8825.62199 3.02460e-18
8827.51947 4.17594e-18
8829.42705 4.61678e-18
8831.33463 4.98393e-18
8833.23211 2.40724e-18
8835.13969 1.93103e-18
8837.03717 2.94734e-18
8838.94475 3.39274e-18
8840.84223 3.64211e-18
8842.74981 3.76068e-18
8844.65739 3.91015e-18
8846.55487 4.44350e-18
8848.46245 5.09078e-18
8850.35993 4.15287e-18
8852.26751 3.49651e-18
8854.17509 3.52531e-18
8856.07257 3.73161e-18
8857.98015 4.51875e-18
8859.87763 4.82576e-18
8861.78521 4.03634e-18
8863.69279 4.11571e-18
8865.59027 4.68829e-18
8867.49785 3.94332e-18
8869.39533 4.07642e-18
8871.30291 4.82475e-18
8873.21049 5.07361e-18
8875.10797 4.69462e-18
8877.01555 4.87595e-18
8878.91303 4.73073e-18
8880.82061 4.07702e-18
8882.72818 5.39310e-18
8884.62567 3.61782e-18
8886.53325 3.75687e-18
8888.43073 4.05242e-18
8890.33831 5.63671e-18
8892.23579 3.97588e-18
8894.14337 3.96702e-18
8897.55489 3.96702e-18
8901.84277 3.92719e-18
8906.12047 3.72708e-18
8910.40836 3.68282e-18
8914.69625 3.74309e-18
8918.97394 3.78705e-18
8923.26183 3.69076e-18
8927.54971 3.51779e-18
8931.82741 3.53738e-18
8936.11530 3.62978e-18
8940.40318 3.57135e-18
8944.69107 3.57589e-18
8948.96877 3.54280e-18
8953.25665 3.35911e-18
8957.54454 3.32147e-18
8961.82224 3.42145e-18
8966.11012 3.44970e-18
8970.39801 3.40522e-18
8974.68590 3.38900e-18
8978.96360 3.47620e-18
8983.25148 3.60016e-18
8987.53937 3.56178e-18
8991.81706 3.44340e-18
8996.10495 3.37309e-18
9000.39283 3.32314e-18
9004.68072 3.35098e-18
9008.95842 3.41273e-18
9013.24631 3.39660e-18
9017.53419 3.33092e-18
9021.81189 3.22112e-18
9026.09977 3.11078e-18
9030.38766 3.13094e-18
9034.66536 3.17149e-18
9038.95325 3.13508e-18
9043.24113 3.06757e-18
9047.51883 3.00072e-18
9051.80671 3.04268e-18
9056.09460 3.02325e-18
9060.38248 2.97450e-18
9064.66019 3.00713e-18
9068.94807 3.03805e-18
9073.23596 2.95494e-18
9077.51365 2.82503e-18
9081.80154 2.78916e-18
9086.08942 2.78949e-18
9090.37731 2.76365e-18
9094.65501 2.78424e-18
9098.94290 2.87459e-18
9103.23078 2.89452e-18
9107.50848 2.87124e-18
9111.79637 2.86161e-18
9116.08425 2.82174e-18
9120.37213 2.80841e-18
9124.64984 2.82509e-18
9128.93772 2.78480e-18
9133.22560 2.71213e-18
9137.50331 2.68221e-18
9141.79119 2.74290e-18
9146.07907 2.85136e-18
9150.36696 2.90834e-18
9154.64466 2.87671e-18
9158.93254 2.77536e-18
9163.22043 2.72018e-18
9167.49813 2.83157e-18
9171.78601 2.94013e-18
9176.07390 2.83839e-18
9180.35160 2.68751e-18
9184.63948 2.70009e-18
9188.92737 2.76667e-18
9193.21525 2.76896e-18
9197.49295 2.77669e-18
9201.78084 2.77094e-18
9206.06872 2.74966e-18
9210.34642 2.71465e-18
9214.63431 2.61448e-18
9218.92219 2.55703e-18
9223.19989 2.69099e-18
9227.48778 2.83067e-18
9231.77566 2.85650e-18
9236.06355 2.77888e-18
9240.34125 2.75105e-18
9244.62913 2.75439e-18
9248.91702 2.66321e-18
9253.19472 2.66589e-18
9257.48260 2.68676e-18
9261.77049 2.74508e-18
9266.05838 2.85816e-18
9270.33608 2.72973e-18
9274.62396 2.58656e-18
9278.91185 2.62510e-18
9283.18954 2.69939e-18
9287.47743 2.70519e-18
9291.76531 2.76351e-18
9296.04301 2.78172e-18
9300.33090 2.69120e-18
9304.61879 2.74437e-18
9308.90667 2.81772e-18
9313.18437 2.78933e-18
9317.47225 2.85517e-18
9321.76014 2.90661e-18
9326.03784 2.86800e-18
9330.32573 2.96148e-18
9334.61361 3.01456e-18
9338.90150 2.81887e-18
9343.17919 2.73617e-18
9347.46708 2.80835e-18
9351.75496 2.72833e-18
9356.03267 2.61120e-18
9360.32055 2.66486e-18
9364.60844 2.85518e-18
9368.88613 2.86803e-18
9373.17402 2.73060e-18
9377.46190 2.51241e-18
9381.74979 2.48869e-18
9386.02749 2.61147e-18
9390.31538 2.58028e-18
9394.60326 2.50470e-18
9398.89114 2.47645e-18
9403.16885 2.51319e-18
9407.45673 2.60319e-18
9411.74462 2.53930e-18
9416.02232 2.39808e-18
9420.31020 2.42143e-18
9424.59808 2.64351e-18
9428.87579 2.70378e-18
9433.16367 2.53518e-18
9437.45155 2.42773e-18
9441.73944 2.36341e-18
9446.01714 2.34920e-18
9450.30502 2.47917e-18
9454.59291 2.51876e-18
9458.87061 2.38379e-18
9463.15849 2.36109e-18
9467.44638 2.59088e-18
9471.72408 2.69772e-18
9476.01196 2.52913e-18
9480.29985 2.35738e-18
9484.58773 2.30082e-18
9488.86543 2.43320e-18
9493.15332 2.48501e-18
9497.44120 2.34656e-18
9501.71890 2.31968e-18
9506.00679 2.44626e-18
9510.29467 2.69406e-18
9514.57237 2.63759e-18
9518.86026 2.37595e-18
9523.14814 2.43196e-18
9527.43603 2.67374e-18
9531.71373 2.70523e-18
9536.00162 2.65533e-18
9540.28950 2.58745e-18
9544.56720 2.51497e-18
9548.85508 2.41420e-18
9553.14297 2.36202e-18
9557.43085 2.44238e-18
9561.70856 2.36513e-18
9565.99644 2.40791e-18
9570.28433 2.46622e-18
9574.56202 2.42900e-18
9578.84991 2.45241e-18
9583.13779 2.45181e-18
9587.42568 2.38677e-18
9591.70338 2.33477e-18
9595.99127 2.35902e-18
9600.27915 2.41423e-18
9604.55685 2.51298e-18
9608.84473 2.57681e-18
9613.13262 2.63062e-18
9617.41032 2.69416e-18
9621.69821 2.62199e-18
9625.98609 2.53388e-18
9630.27398 2.50636e-18
9634.55167 2.50242e-18
9638.83956 2.42786e-18
9643.12744 2.32318e-18
9647.40514 2.28142e-18
9651.69303 2.14012e-18
9655.98092 2.07850e-18
9660.26880 2.19292e-18
9664.54650 2.30236e-18
9668.83438 2.33695e-18
9673.12227 2.45029e-18
9677.39997 2.50406e-18
9681.68786 2.42105e-18
9685.97574 2.29787e-18
9690.26362 2.31942e-18
9694.54133 2.55245e-18
9698.82921 2.75262e-18
9703.11709 2.73979e-18
9707.39480 2.44421e-18
9711.68268 2.20623e-18
9715.97056 2.18928e-18
9720.24827 2.13099e-18
9724.53615 2.07250e-18
9728.82403 1.99492e-18
9733.11192 1.86228e-18
9737.38962 1.88665e-18
9741.67750 2.12516e-18
9745.96539 2.34130e-18
9750.24309 2.32013e-18
9754.53097 2.19309e-18
9758.81886 2.18227e-18
9763.09656 2.26301e-18
9767.38444 2.27284e-18
9771.67233 2.26062e-18
9775.96021 2.31705e-18
9780.23791 2.24873e-18
9784.52580 2.06290e-18
9788.81368 2.07405e-18
9793.09138 2.06594e-18
9797.37927 2.00356e-18
9801.66715 2.06222e-18
9805.94485 2.17107e-18
9810.23274 2.23447e-18
9814.52062 2.14852e-18
9818.80851 2.00436e-18
9823.08621 1.98242e-18
9827.37410 1.90262e-18
9831.66198 1.86302e-18
9835.94987 2.03521e-18
9840.22756 2.08305e-18
9844.51545 2.03134e-18
9848.80333 2.14022e-18
9853.08104 2.06447e-18
9857.36892 1.76682e-18
9861.65681 1.65148e-18
9865.93450 1.71096e-18
9870.22239 1.72169e-18
9874.51027 1.65030e-18
9878.79816 1.65677e-18
9883.07586 1.78224e-18
9887.36375 1.89034e-18
9891.65163 1.95429e-18
9895.92933 1.92221e-18
9900.21721 1.77489e-18
9904.50510 1.64810e-18
9908.79298 1.58934e-18
9913.07069 1.84869e-18
9917.35857 1.92174e-18
9921.64646 1.69876e-18
9925.92415 1.60057e-18
9930.21204 1.52686e-18
9934.49992 1.41480e-18
9938.77762 1.37861e-18
9943.06551 1.51074e-18
9947.35340 1.59498e-18
9951.64128 1.58130e-18
9955.91898 1.41814e-18
9960.20687 1.30162e-18
9964.49475 1.42101e-18
9968.77245 1.68366e-18
9973.06034 1.86923e-18
9977.34822 1.84208e-18
9981.63610 1.86352e-18
9985.91381 1.99021e-18
9990.20169 2.07643e-18
9994.48957 2.08625e-18
9998.76728 2.11278e-18
