# wavelength flux
3337.91659 4.82940e-17
3339.81407 7.41928e-18
3341.71156 6.09411e-17
3343.61913 6.97591e-17
3345.51662 3.87178e-17
3347.42419 3.12160e-17
3349.32168 2.66186e-17
3351.21916 2.82125e-17
3353.12674 3.24220e-17
3355.02422 3.38217e-17
3356.93180 5.77284e-17
3358.82928 5.74231e-17
3360.72677 4.54682e-18
3362.63435 7.87141e-18
3364.53183 3.00623e-17
3366.43941 1.64945e-17
3368.33689 1.86391e-17
3370.24447 4.09888e-17
3372.14195 6.74691e-17
3374.03944 4.19811e-17
3375.94701 1.52855e-17
3377.84450 5.35432e-17
3379.75207 4.44709e-17
3381.64956 3.75189e-17
3383.54704 5.14490e-17
3385.45462 4.30933e-17
3387.35210 2.17706e-18
3389.25968 1.52551e-17
3391.15716 5.97755e-17
3393.05465 5.37210e-17
3394.96222 5.80902e-17
3396.85971 4.74799e-17
3398.76728 4.80212e-17
3400.66477 5.55440e-17
3402.56225 6.14012e-17
3404.46983 5.88854e-17
3406.36731 5.53499e-17
3408.27489 5.05395e-17
3410.17238 2.34372e-17
3412.06986 1.76377e-17
3413.97744 3.58235e-17
3415.87492 4.06042e-17
3417.78250 3.26556e-17
3419.67998 2.37823e-17
3421.57747 1.43670e-17
3423.48504 -9.66104e-19
3425.38253 1.24226e-17
3427.29010 3.48030e-17
3429.18759 2.15445e-17
3431.09516 2.87552e-17
3432.99265 3.90349e-17
3434.89013 2.79981e-17
3436.79771 1.74721e-17
3438.69519 1.73040e-17
3440.60277 2.31228e-17
3442.50025 4.48053e-17
3444.39774 2.88490e-17
3446.30532 1.56625e-17
3448.20280 2.52844e-17
3450.11038 3.54299e-17
3452.00786 4.31297e-17
3453.90534 4.87404e-17
3455.81292 4.42495e-17
3457.71041 4.97321e-17
3459.61798 4.14202e-17
3461.51547 2.64750e-17
3463.41295 3.71233e-17
3465.32053 4.93270e-17
3467.21801 4.86880e-17
3469.12559 4.75404e-17
3471.02307 3.73816e-17
3472.93065 2.64993e-17
3474.82813 3.11959e-17
3476.72562 3.57650e-17
3478.63319 3.32195e-17
3480.53068 3.19407e-17
3482.43826 2.59363e-17
3484.33574 2.90461e-17
3486.23322 4.03194e-17
3488.14080 3.26679e-17
3490.03828 3.38246e-17
3491.94586 3.78051e-17
3493.84335 3.07923e-17
3495.74083 2.08573e-17
3497.64841 3.66868e-17
3499.54589 3.64334e-17
3501.45347 5.31667e-17
3503.35095 4.93277e-17
3505.24843 4.27204e-17
3507.15601 3.54669e-17
3509.05350 3.94635e-17
3510.96107 4.45625e-17
3512.85856 4.41802e-17
3514.75604 3.66466e-17
3516.66362 3.97130e-17
3518.56110 4.04385e-17
3520.46868 2.80150e-17
3522.36616 2.39839e-17
3524.27374 1.97954e-17
3526.17122 1.84586e-17
3528.06871 1.61495e-17
3529.97629 1.96688e-17
3531.87377 3.76673e-17
3533.78135 4.20392e-17
3535.67883 2.97177e-17
3537.57631 2.35883e-17
3539.48389 2.37889e-17
3541.38138 2.24413e-17
3543.28895 2.69150e-17
3545.18644 2.84180e-17
3547.08392 2.64545e-17
3548.99150 3.63961e-17
3550.88898 3.89719e-17
3552.79656 3.74766e-17
3554.69404 2.73708e-17
3556.59153 2.13361e-17
3558.49910 3.12907e-17
3560.39659 2.39450e-17
3562.30416 2.97836e-17
3564.20165 3.15515e-17
3566.09913 3.73887e-17
3568.00671 4.09435e-17
3569.90419 3.80389e-17
3571.81177 3.14512e-17
3573.70925 2.87249e-17
3575.61683 3.33944e-17
3577.51432 4.16138e-17
3579.41180 3.83715e-17
3581.31938 3.13096e-17
3583.21686 3.04687e-17
3585.12444 3.32428e-17
3587.02192 3.16105e-17
3588.91941 3.19280e-17
3590.82698 3.76830e-17
3592.72447 3.89950e-17
3594.63204 3.78454e-17
3596.52953 3.42830e-17
3598.42701 3.48153e-17
3600.33459 2.73934e-17
3602.23207 3.29905e-17
3604.13965 3.45557e-17
3606.03713 3.33372e-17
3607.93462 3.13857e-17
3609.84219 3.15640e-17
3611.73968 3.44368e-17
3613.64726 3.54337e-17
3615.54474 3.16810e-17
3617.44222 2.54693e-17
3619.34980 2.46104e-17
3621.24728 2.66789e-17
3623.15486 1.59455e-17
3625.05235 1.34628e-17
3626.95992 2.27602e-17
3628.85741 2.96847e-17
3630.75489 2.90533e-17
3632.66247 2.50920e-17
3634.55995 2.51398e-17
3636.46753 2.83096e-17
3638.36501 3.13493e-17
3640.26250 2.98955e-17
3642.17007 2.33919e-17
3644.06756 2.29350e-17
3645.97513 2.98296e-17
3647.87262 3.72689e-17
3649.77010 4.19151e-17
3651.67768 3.66712e-17
3653.57516 3.13559e-17
3655.48274 3.37098e-17
3657.38022 3.43977e-17
3659.27771 3.50041e-17
3661.18529 3.80500e-17
3663.08277 3.46206e-17
3664.99035 2.77745e-17
3666.88783 3.32220e-17
3668.79541 3.23818e-17
3670.69289 2.15817e-17
3672.59038 2.82903e-17
3674.49795 3.14771e-17
3676.39544 3.15353e-17
3678.30301 3.00476e-17
3680.20050 3.06243e-17
3682.09798 2.74126e-17
3684.00556 2.54584e-17
3685.90304 2.62493e-17
3687.81062 2.88884e-17
3689.70810 3.05683e-17
3691.60559 2.93883e-17
3693.51316 2.94723e-17
3695.41065 3.14073e-17
3697.31823 2.86714e-17
3699.21571 2.67147e-17
3701.11319 2.47262e-17
3703.02077 2.09908e-17
3704.91825 2.87679e-17
3706.82583 3.29604e-17
3708.72332 3.15779e-17
3710.62080 2.93654e-17
3712.52838 3.10504e-17
3714.42586 3.12273e-17
3716.33344 3.05800e-17
3718.23092 2.67538e-17
3720.12841 2.33360e-17
3722.03598 2.65130e-17
3723.93347 2.94753e-17
3725.84104 2.48683e-17
3727.73853 2.19257e-17
3729.64610 2.82501e-17
3731.54359 3.05964e-17
3733.44107 3.09121e-17
3735.34865 3.29695e-17
3737.24613 2.96560e-17
3739.15371 2.38376e-17
3741.05119 2.41646e-17
3742.94868 2.80784e-17
3744.85626 2.98359e-17
3746.75374 2.90416e-17
3748.66132 2.97971e-17
3750.55880 2.99646e-17
3752.45628 2.82056e-17
3754.36386 2.80122e-17
3756.26135 2.57306e-17
3758.16892 2.64574e-17
3760.06641 3.24347e-17
3761.96389 3.11127e-17
3763.87147 2.84160e-17
3765.76895 2.66200e-17
3767.67653 2.65322e-17
3769.57401 2.75305e-17
3771.48159 2.77309e-17
3773.37907 3.31217e-17
3775.27656 3.32432e-17
3777.18413 2.71384e-17
3779.08162 2.37999e-17
3780.98920 2.41772e-17
3782.88668 1.00623e-17
3784.78416 2.39167e-17
3786.69174 2.73811e-17
3788.58922 2.51842e-17
3790.49680 2.46711e-17
3792.39429 1.80023e-17
3794.29177 1.90806e-17
3796.19935 2.20518e-17
3798.09683 2.03891e-17
3800.00441 2.05113e-17
3801.90189 2.34732e-17
3803.79938 2.62984e-17
3805.70695 2.82337e-17
3807.60444 2.85896e-17
3809.51201 2.63090e-17
3811.40950 2.65632e-17
3813.30698 3.15948e-17
3815.21456 3.25850e-17
3817.11204 2.85503e-17
3819.01962 2.69553e-17
3820.91710 2.55053e-17
3822.82468 2.57168e-17
3824.72216 2.89348e-17
3826.61965 2.99395e-17
3828.52723 3.24284e-17
3830.42471 3.19422e-17
3832.33229 2.99337e-17
3834.22977 2.91253e-17
3836.12725 2.69112e-17
3838.03483 2.85746e-17
3839.93232 3.22562e-17
3841.83989 3.26082e-17
3843.73738 3.13562e-17
3845.63486 3.17764e-17
3847.54244 3.09778e-17
3849.43992 3.17293e-17
3851.34750 3.12808e-17
3853.24498 3.04520e-17
3855.14247 3.06439e-17
3857.05004 3.03048e-17
3858.94753 3.16736e-17
3860.85510 3.20931e-17
3862.75259 3.19199e-17
3864.65007 3.15783e-17
3866.55765 3.00253e-17
3868.45513 3.27680e-17
3870.36271 3.27461e-17
3872.26019 3.23395e-17
3874.16777 3.54722e-17
3876.06526 3.15996e-17
3877.96274 3.04121e-17
3879.87032 3.39306e-17
3881.76780 3.40829e-17
3883.67538 3.27612e-17
3885.57286 3.30974e-17
3887.47035 3.37012e-17
3889.37792 3.40382e-17
3891.27541 3.63249e-17
3893.18298 3.63313e-17
3895.08047 3.41488e-17
3896.97795 3.53646e-17
3898.88553 3.60279e-17
3900.78301 3.49921e-17
3902.69059 3.55807e-17
3904.58807 3.63745e-17
3906.48556 3.67219e-17
3908.39313 3.71954e-17
3910.29062 3.69652e-17
3912.19820 3.51664e-17
3914.09568 3.59871e-17
3916.00326 3.93543e-17
3917.90074 3.90652e-17
3919.79822 3.61990e-17
3921.70580 3.37453e-17
3923.60329 3.23679e-17
3925.51086 3.30483e-17
3927.40835 3.44348e-17
3929.30583 3.44672e-17
3931.21341 3.28123e-17
3933.11089 3.34311e-17
3935.01847 3.50478e-17
3936.91595 3.47894e-17
3938.81344 3.38249e-17
3940.72101 3.26450e-17
3942.61850 3.15331e-17
3944.52607 3.26288e-17
3946.42356 3.45407e-17
3948.32104 3.05171e-17
3950.22862 3.44068e-17
3952.12610 3.81091e-17
3954.03368 3.72176e-17
3955.93116 3.44681e-17
3957.82865 3.44236e-17
3959.73623 3.56069e-17
3961.63371 3.63526e-17
3963.54129 3.73353e-17
3965.43877 3.75088e-17
3967.34635 3.51729e-17
3969.24383 3.24239e-17
3971.14132 3.34915e-17
3973.04889 3.69645e-17
3974.94638 3.53386e-17
3976.85395 3.34497e-17
3978.75144 3.85520e-17
3980.64892 3.99167e-17
3982.55650 3.76610e-17
3984.45398 3.28282e-17
3986.36156 3.43161e-17
3988.25904 3.93021e-17
3990.15653 4.02414e-17
3992.06410 3.99239e-17
3993.96159 3.87328e-17
3995.86917 3.89076e-17
3997.76665 3.97536e-17
3999.66413 4.05254e-17
4001.57171 3.86783e-17
4003.46919 3.58541e-17
4005.37677 3.67064e-17
4007.27426 3.92632e-17
4009.17174 4.06688e-17
4011.07932 4.08908e-17
4012.97680 3.92454e-17
4014.88438 3.78261e-17
4016.78186 3.87768e-17
4018.68944 4.03842e-17
4020.58692 4.06456e-17
4022.48441 4.06343e-17
4024.39198 4.05411e-17
4026.28947 3.94760e-17
4028.19704 3.87161e-17
4030.09453 3.95705e-17
4031.99201 3.91192e-17
4033.89959 3.63682e-17
4035.79707 3.65944e-17
4037.70465 3.77872e-17
4039.60213 3.81210e-17
4041.49962 3.58651e-17
4043.40720 3.49326e-17
4045.30468 3.68316e-17
4047.21226 3.65923e-17
4049.10974 3.66585e-17
4051.00722 3.77077e-17
4052.91480 3.78389e-17
4054.81228 3.70799e-17
4056.71986 3.56858e-17
4058.61735 3.48257e-17
4060.51483 3.39633e-17
4062.42241 3.41372e-17
4064.31989 3.62637e-17
4066.22747 3.61318e-17
4068.12495 3.43970e-17
4070.03253 3.39923e-17
4071.93001 3.32148e-17
4073.82750 3.32658e-17
4075.73507 3.59843e-17
4077.63256 3.69998e-17
4079.54014 3.49399e-17
4081.43762 3.35265e-17
4083.33510 3.13282e-17
4085.24268 2.88313e-17
4087.14016 3.06767e-17
4089.04774 3.33410e-17
4090.94523 3.39679e-17
4092.84271 3.37219e-17
4094.75029 3.37976e-17
4096.64777 3.40255e-17
4098.55535 3.16647e-17
4100.45283 2.99244e-17
4102.35032 3.09929e-17
4104.25789 3.17667e-17
4106.15538 3.12025e-17
4108.06295 3.12371e-17
4109.96044 3.31955e-17
4111.85792 3.16134e-17
4113.76550 2.98953e-17
4115.66298 3.13638e-17
4117.57056 3.11493e-17
4119.46804 2.96440e-17
4121.37562 3.14678e-17
4123.27310 3.20839e-17
4125.17059 3.01931e-17
4127.07817 3.05467e-17
4128.97565 3.10020e-17
4130.88323 3.01289e-17
4132.78071 2.94778e-17
4134.67819 2.88578e-17
4136.58577 2.81307e-17
4138.48326 2.75779e-17
4140.39083 2.84824e-17
4142.28832 2.66536e-17
4144.18580 2.19473e-17
4146.09338 2.40597e-17
4147.99086 2.64913e-17
4149.89844 2.56950e-17
4151.79592 2.69816e-17
4153.69341 2.71150e-17
4155.60098 2.49608e-17
4157.49847 2.63710e-17
4159.40604 2.62406e-17
4161.30353 2.44961e-17
4163.20101 2.52030e-17
4165.10859 2.54609e-17
4167.00607 2.58965e-17
4168.91365 2.49487e-17
4170.81113 2.39002e-17
4172.71871 2.31443e-17
4174.61619 2.28056e-17
4176.51368 2.17168e-17
4178.42126 2.08477e-17
4180.31874 2.19613e-17
4182.22632 2.24562e-17
4184.12380 2.26900e-17
4186.02128 2.37215e-17
4187.92886 2.35138e-17
4189.82635 2.25081e-17
4191.73392 2.12792e-17
4193.63141 2.02503e-17
4195.52889 2.12103e-17
4197.43647 2.23839e-17
4199.33395 2.18121e-17
4201.24153 2.10266e-17
4203.13901 2.16169e-17
4205.03650 2.27759e-17
4206.94407 2.31578e-17
4208.84156 2.32446e-17
4210.74914 2.30942e-17
4212.64662 2.26973e-17
4214.54410 2.29353e-17
4216.45168 2.37853e-17
4218.34916 2.29994e-17
4220.25674 2.24218e-17
4222.15423 2.30338e-17
4224.06180 2.37021e-17
4225.95929 2.44586e-17
4227.85677 2.54871e-17
4229.76435 2.51731e-17
4231.66183 2.56592e-17
4233.56941 2.70139e-17
4235.46689 2.80459e-17
4237.36438 2.73385e-17
4239.27195 2.54940e-17
4241.16944 2.55338e-17
4243.07701 2.66333e-17
4244.97450 2.73953e-17
4246.87198 2.72386e-17
4248.77956 2.61159e-17
4250.67704 2.53287e-17
4252.58462 2.52983e-17
4254.48210 2.60840e-17
4256.37959 2.40486e-17
4258.28717 2.50567e-17
4260.18465 2.65877e-17
4262.09223 2.61390e-17
4263.98971 2.53584e-17
4265.88719 2.57946e-17
4267.79477 2.60757e-17
4269.69226 2.66914e-17
4271.59983 2.72918e-17
4273.49732 2.63087e-17
4275.40489 2.48574e-17
4277.30238 2.47241e-17
4279.19986 2.50569e-17
4281.10744 2.58414e-17
4283.00492 2.48729e-17
4284.91250 2.38308e-17
4286.80998 2.53703e-17
4288.70747 2.68276e-17
4290.61504 2.54527e-17
4292.51253 2.51443e-17
4294.42011 2.61547e-17
4296.31759 2.53870e-17
4298.21507 2.53906e-17
4300.12265 2.57743e-17
4302.02013 2.44895e-17
4303.92771 2.46983e-17
4305.82520 2.58166e-17
4307.72268 2.39384e-17
4309.63026 2.20541e-17
4311.52774 2.48807e-17
4313.43532 2.53432e-17
4315.33280 2.54799e-17
4317.24038 2.54548e-17
4319.13786 2.51064e-17
4321.03535 2.53406e-17
4322.94292 2.49003e-17
4324.84041 2.43838e-17
4326.74798 2.51403e-17
4328.64547 2.55575e-17
4330.54295 2.45037e-17
4332.45053 2.43170e-17
4334.34801 2.50297e-17
4336.25559 2.54568e-17
4338.15307 2.57590e-17
4340.05056 2.44854e-17
4341.95813 2.38408e-17
4343.85562 2.44611e-17
4345.76320 2.42585e-17
4347.66068 2.41594e-17
4349.55816 2.37166e-17
4351.46574 2.27247e-17
4353.36323 2.23660e-17
4355.27080 2.27247e-17
4357.16829 2.33574e-17
4359.06577 2.33990e-17
4360.97335 2.34887e-17
4362.87083 2.35755e-17
4364.77841 2.36612e-17
4366.67589 2.37466e-17
4368.58347 2.38316e-17
4370.48095 2.39161e-17
4372.37844 2.40003e-17
4374.28601 2.40840e-17
4376.18350 2.41673e-17
4378.09108 2.42502e-17
4379.98856 2.43328e-17
4381.88604 2.44150e-17
4383.79362 2.44968e-17
4385.69110 2.45782e-17
4387.59868 2.46592e-17
4389.49617 2.47398e-17
4391.39365 2.48201e-17
4393.30123 2.48999e-17
4395.19871 2.49795e-17
4397.10629 2.50587e-17
4399.00377 2.51375e-17
4400.90126 2.52159e-17
4402.80883 2.52940e-17
4404.70632 2.53717e-17
4406.61389 2.54491e-17
4408.51138 2.55261e-17
4410.40886 2.55978e-17
4412.31644 2.56919e-17
4414.21392 2.57160e-17
4416.12150 2.41476e-17
4418.01898 2.29206e-17
4419.92656 2.52217e-17
4421.82404 2.51617e-17
4423.72153 2.52260e-17
4425.62911 2.60111e-17
4427.52659 2.59899e-17
4429.43417 2.52166e-17
4431.33165 2.48661e-17
4433.22913 2.41319e-17
4435.13671 2.44638e-17
4437.03420 2.55653e-17
4438.94177 2.46122e-17
4440.83926 2.47262e-17
4442.73674 2.57891e-17
4444.64432 2.52334e-17
4446.54180 2.54333e-17
4448.44938 2.57777e-17
4450.34686 2.43195e-17
4452.24435 2.42010e-17
4454.15192 2.54725e-17
4456.04941 2.53580e-17
4457.95698 2.49690e-17
4459.85447 2.51892e-17
4461.76205 2.54600e-17
4463.65953 2.46075e-17
4465.55701 2.28176e-17
4467.46459 2.18999e-17
4469.36207 2.23795e-17
4471.26965 2.43695e-17
4473.16714 2.48798e-17
4475.06462 2.40572e-17
4476.97220 2.42001e-17
4478.86968 2.53134e-17
4480.77726 2.49986e-17
4482.67474 2.42567e-17
4484.57223 2.49334e-17
4486.47980 2.59111e-17
4488.37729 2.54083e-17
4490.28486 2.46777e-17
4492.18235 2.53542e-17
4494.07983 2.57388e-17
4495.98741 2.34416e-17
4497.88489 2.37291e-17
4499.79247 2.52498e-17
4501.68995 2.37825e-17
4503.58744 2.48311e-17
4505.49501 2.42747e-17
4507.39250 2.38240e-17
4509.30008 2.51433e-17
4511.19756 2.59024e-17
4513.09504 2.63703e-17
4515.00262 2.64920e-17
4516.90010 2.55422e-17
4518.80768 2.44136e-17
4520.70517 2.46500e-17
4522.61274 2.56779e-17
4524.51023 2.61974e-17
4526.40771 2.55370e-17
4528.31529 2.55173e-17
4530.21277 2.68277e-17
4532.12035 2.71955e-17
4534.01783 2.79977e-17
4535.91532 2.78707e-17
4537.82289 2.59796e-17
4539.72038 2.55641e-17
4541.62795 2.62303e-17
4543.52544 2.63841e-17
4545.42292 2.59957e-17
4547.33050 2.52875e-17
4549.22798 2.62693e-17
4551.13556 2.60344e-17
4553.03304 2.56047e-17
4554.93053 2.65199e-17
4556.83811 2.65743e-17
4558.73559 2.64384e-17
4560.64317 2.60924e-17
4562.54065 2.61321e-17
4564.43813 2.69365e-17
4566.34571 2.68275e-17
4568.24320 2.69038e-17
4570.15077 2.70109e-17
4572.04826 2.57586e-17
4573.95583 2.52851e-17
4575.85332 2.60288e-17
4577.75080 2.71269e-17
4579.65838 2.82270e-17
4581.55586 2.74888e-17
4583.46344 2.67637e-17
4585.36092 2.76736e-17
4587.25841 2.71864e-17
4589.16598 2.54764e-17
4591.06347 2.54365e-17
4592.97105 2.57237e-17
4594.86853 2.52852e-17
4596.76601 2.58900e-17
4598.67359 2.61547e-17
4600.57107 2.52788e-17
4602.47865 2.48494e-17
4604.37614 2.42469e-17
4606.27362 2.48022e-17
4608.18120 2.45645e-17
4610.07868 2.40546e-17
4611.98626 2.51037e-17
4613.88374 2.60761e-17
4615.78123 2.51764e-17
4617.68880 2.39778e-17
4619.58629 2.45390e-17
4621.49386 2.44800e-17
4623.39135 2.33621e-17
4625.29892 2.35401e-17
4627.19641 2.39015e-17
4629.09389 2.40367e-17
4631.00147 2.41859e-17
4632.89895 2.32881e-17
4634.80653 2.26710e-17
4636.70401 2.23280e-17
4638.60150 2.16929e-17
4640.50908 2.14678e-17
4642.40656 2.15562e-17
4644.31414 2.03434e-17
4646.21162 2.02007e-17
4648.10910 2.26822e-17
4650.01668 2.31386e-17
4651.91417 2.09184e-17
4653.82174 1.92947e-17
4655.71923 2.00085e-17
4657.61671 1.90106e-17
4659.52429 1.89648e-17
4661.42177 1.85825e-17
4663.32935 1.87606e-17
4665.22683 2.00602e-17
4667.12432 1.98857e-17
4669.03189 1.79638e-17
4670.92938 1.71077e-17
4672.83695 1.68843e-17
4674.73444 1.76388e-17
4676.64202 1.76400e-17
4678.53950 1.57118e-17
4680.43698 1.49843e-17
4682.34456 1.43312e-17
4684.24204 1.34020e-17
4686.14962 1.42903e-17
4688.04711 1.44220e-17
4689.94459 1.39719e-17
4691.85217 1.40190e-17
4693.74965 1.40090e-17
4695.65723 1.42398e-17
4697.55471 1.41282e-17
4699.45219 1.42039e-17
4701.35977 1.38808e-17
4703.25726 1.40513e-17
4705.16483 1.35504e-17
4707.06232 1.38283e-17
4708.95980 1.44588e-17
4710.86738 1.42965e-17
4712.76486 1.43040e-17
4714.67244 1.40301e-17
4716.56992 1.43511e-17
4718.47750 1.51069e-17
4720.37498 1.58906e-17
4722.27247 1.66741e-17
4724.18005 1.78309e-17
4726.07753 1.78211e-17
4727.98511 1.62021e-17
4729.88259 1.56682e-17
4731.78007 1.74826e-17
4733.68765 1.81946e-17
4735.58514 1.71391e-17
4737.49271 1.85230e-17
4739.39020 2.00077e-17
4741.28768 1.82709e-17
4743.19526 1.76767e-17
4745.09274 1.83972e-17
4747.00032 1.81829e-17
4748.89780 1.83776e-17
4750.79529 1.88165e-17
4752.70286 1.86335e-17
4754.60035 1.88264e-17
4756.50792 1.89012e-17
4758.40541 1.78455e-17
4760.30289 1.83510e-17
4762.21047 1.83962e-17
4764.10795 1.58801e-17
4766.01553 1.63698e-17
4767.91301 1.74466e-17
4769.82059 1.92935e-17
4771.71808 1.97141e-17
4773.61556 1.87787e-17
4775.52314 1.82395e-17
4777.42062 1.83496e-17
4779.32820 1.85134e-17
4781.22568 1.82649e-17
4783.12317 1.78230e-17
4785.03074 1.77342e-17
4786.92823 1.79706e-17
4788.83580 1.85216e-17
4790.73329 1.81537e-17
4792.63077 1.71146e-17
4794.53835 1.70513e-17
4796.43583 1.68558e-17
4798.34341 1.64839e-17
4800.24089 1.66873e-17
4802.13838 1.68872e-17
4804.04595 1.63019e-17
4805.94344 1.58450e-17
4807.85102 1.61404e-17
4809.74850 1.56172e-17
4811.64598 1.36250e-17
4813.55356 1.37699e-17
4815.45104 1.63285e-17
4817.35862 1.64505e-17
4819.25611 1.63231e-17
4821.16368 1.45236e-17
4823.06117 1.44020e-17
4824.95865 1.24781e-17
4826.86623 1.34564e-17
4828.76371 1.45325e-17
4830.67129 1.54574e-17
4832.56877 1.63615e-17
4834.46626 1.56789e-17
4836.37383 1.70905e-17
4838.27132 1.74404e-17
4840.17889 1.60479e-17
4842.07638 1.69763e-17
4843.97386 1.80130e-17
4845.88144 1.71374e-17
4847.77892 1.73474e-17
4849.68650 1.87601e-17
4851.58398 1.77511e-17
4853.48147 1.66607e-17
4855.38904 1.77989e-17
4857.28653 1.79740e-17
4859.19411 1.71163e-17
4861.09159 1.66303e-17
4862.99917 1.81787e-17
4864.89665 1.82625e-17
4866.79414 1.77495e-17
4868.70171 1.87526e-17
4870.59920 1.90527e-17
4872.50677 1.87138e-17
4874.40426 1.76746e-17
4876.30174 1.64623e-17
4878.20932 1.78775e-17
4880.10680 1.65217e-17
4882.01438 1.71087e-17
4883.91186 1.91457e-17
4885.80935 1.97847e-17
4887.71692 1.87026e-17
4889.61441 1.72245e-17
4891.52199 1.77304e-17
4893.41947 1.82727e-17
4895.31695 1.70108e-17
4897.22453 1.62177e-17
4899.12201 1.71701e-17
4901.02959 1.70484e-17
4902.92708 1.61075e-17
4904.82456 1.71428e-17
4906.73214 1.83411e-17
4908.62962 1.85512e-17
4910.53720 1.84523e-17
4912.43468 1.92299e-17
4914.34226 1.90481e-17
4916.23974 1.86625e-17
4918.13723 1.85516e-17
4920.04480 1.95177e-17
4921.94229 1.92268e-17
4923.84986 1.91186e-17
4925.74735 2.00147e-17
4927.64483 1.99317e-17
4929.55241 2.04712e-17
4931.44989 1.94573e-17
4933.35747 1.95597e-17
4935.25495 2.07329e-17
4937.15244 1.97815e-17
4939.06002 1.98160e-17
4940.95750 2.00047e-17
4942.86508 1.94355e-17
4944.76256 1.98653e-17
4946.66004 2.01021e-17
4948.56762 2.04664e-17
4950.46511 2.05317e-17
4952.37268 2.03937e-17
4954.27017 1.92485e-17
4956.16765 1.91872e-17
4958.07523 2.06065e-17
4959.97271 1.96160e-17
4961.88029 1.95395e-17
4963.77777 1.95940e-17
4965.67526 1.99858e-17
4967.58283 2.01442e-17
4969.48032 1.95424e-17
4971.38789 1.91238e-17
4973.28538 1.88697e-17
4975.19296 1.91006e-17
4977.09044 1.95811e-17
4978.98792 1.99335e-17
4980.89550 1.95573e-17
4982.79298 1.94290e-17
4984.70056 1.89150e-17
4986.59804 1.93862e-17
4988.49553 1.91808e-17
4990.40311 1.94983e-17
4992.30059 1.96109e-17
4994.20817 1.98201e-17
4996.10565 1.94732e-17
4998.00313 1.91013e-17
4999.91071 1.94278e-17
5001.80820 2.03195e-17
5003.71577 2.05165e-17
5005.61326 1.94809e-17
5007.52083 1.99122e-17
5009.41832 2.04165e-17
5011.31580 1.92479e-17
5013.22338 1.92332e-17
5015.12086 1.92252e-17
5017.01835 1.90620e-17
5018.92592 2.02719e-17
5020.82341 2.06098e-17
5022.73099 2.02459e-17
5024.62847 2.01411e-17
5026.53605 1.98516e-17
5028.43353 2.04326e-17
5030.33101 2.05661e-17
5032.23859 2.05504e-17
5034.13608 2.08433e-17
5036.04365 1.98244e-17
5037.94114 1.89985e-17
5039.83862 1.78193e-17
5041.74620 2.03011e-17
5043.64368 2.15589e-17
5045.55126 2.05854e-17
5047.44874 2.06572e-17
5049.34623 2.12335e-17
5051.25380 2.14656e-17
5053.15129 2.18735e-17
5055.05886 2.25568e-17
5056.95635 2.23950e-17
5058.85383 2.13134e-17
5060.76141 2.12648e-17
5062.65889 2.11711e-17
5064.56647 2.05939e-17
5066.46395 2.06421e-17
5068.37153 2.03585e-17
5070.26902 2.03885e-17
5072.16650 2.07540e-17
5074.07408 2.16223e-17
5075.97156 2.22214e-17
5077.87914 2.08046e-17
5079.77662 2.04845e-17
5081.67411 2.13779e-17
5083.58168 2.13206e-17
5085.47917 2.10079e-17
5087.38674 2.07713e-17
5089.28423 2.13770e-17
5091.18171 2.20793e-17
5093.08929 2.16917e-17
5094.98677 2.16661e-17
5096.89435 2.19485e-17
5098.79183 2.04401e-17
5100.68932 2.15382e-17
5102.59689 2.16836e-17
5104.49438 2.15305e-17
5106.40196 2.23236e-17
5108.29944 1.96844e-17
5110.19692 1.94167e-17
5112.10450 2.12206e-17
5114.00198 2.15265e-17
5115.90956 2.15884e-17
5117.80705 2.18100e-17
5119.71462 2.00685e-17
5121.61211 1.74494e-17
5123.50959 1.92965e-17
5125.41717 2.19553e-17
5127.31465 2.15462e-17
5129.22223 2.03321e-17
5131.11971 1.96724e-17
5133.01720 2.12328e-17
5134.92477 2.02907e-17
5136.82226 1.86257e-17
5138.72983 2.00395e-17
5140.62732 2.13898e-17
5142.52480 1.99874e-17
5144.43238 2.06944e-17
5146.32986 2.16072e-17
5148.23744 2.09015e-17
5150.13492 1.97472e-17
5152.03241 2.05214e-17
5153.93998 2.07344e-17
5155.83747 2.07157e-17
5157.74505 2.15622e-17
5159.64253 2.18376e-17
5161.54001 2.15718e-17
5163.44759 2.16766e-17
5165.34508 2.06700e-17
5167.25265 2.08216e-17
5169.15014 2.16601e-17
5171.05771 2.14599e-17
5172.95520 2.09135e-17
5174.85268 2.04214e-17
5176.76026 2.11066e-17
5178.65774 2.22947e-17
5180.56532 2.23223e-17
5182.46280 2.21068e-17
5184.36029 2.37717e-17
5186.26786 2.38390e-17
5188.16535 2.25729e-17
5190.07293 2.25951e-17
5191.97041 2.26993e-17
5193.86789 2.31240e-17
5195.77547 2.14458e-17
5197.67295 1.93495e-17
5199.58053 2.23117e-17
5201.47802 2.38731e-17
5203.37550 2.31136e-17
5205.28308 2.26434e-17
5207.18056 2.29440e-17
5209.08814 2.31124e-17
5210.98562 2.31965e-17
5212.88311 2.29150e-17
5214.79068 2.30336e-17
5216.68817 2.38308e-17
5218.59574 2.14694e-17
5220.49323 2.13663e-17
5222.40080 2.38136e-17
5224.29829 2.46298e-17
5226.19577 2.43376e-17
5228.10335 2.35307e-17
5230.00083 2.31857e-17
5231.90841 2.33782e-17
5233.80589 2.36698e-17
5235.70338 2.37253e-17
5237.61096 2.26025e-17
5239.50844 2.13861e-17
5241.41602 2.30874e-17
5243.31350 2.34488e-17
5245.21098 2.31619e-17
5247.11856 2.25783e-17
5249.01605 2.20740e-17
5250.92362 2.28398e-17
5252.82111 2.18160e-17
5254.71859 2.29627e-17
5256.62617 2.26224e-17
5258.52365 2.26545e-17
5260.43123 2.25575e-17
5262.32871 2.06369e-17
5264.23629 2.05708e-17
5266.13377 2.10641e-17
5268.03126 2.21786e-17
5269.93883 2.28851e-17
5271.83632 2.26481e-17
5273.74390 2.18167e-17
5275.64138 2.14427e-17
5277.53886 2.13680e-17
5279.44644 2.21834e-17
5281.34392 2.24231e-17
5283.25150 2.19711e-17
5285.14899 2.22326e-17
5287.04647 2.14725e-17
5288.95405 2.08537e-17
5290.85153 2.05002e-17
5292.75911 1.93291e-17
5294.65659 1.92889e-17
5296.55408 2.12049e-17
5298.46165 2.16125e-17
5300.35914 2.11555e-17
5302.26671 1.92643e-17
5304.16420 2.08339e-17
5306.06168 2.15015e-17
5307.96926 2.05849e-17
5309.86674 2.06732e-17
5311.77432 2.13096e-17
5313.67180 2.14750e-17
5315.57938 2.07433e-17
5317.47686 1.99233e-17
5319.37435 2.02273e-17
5321.28193 1.94901e-17
5323.17941 1.97195e-17
5325.08699 2.04598e-17
5326.98447 2.07173e-17
5328.88195 2.05678e-17
5330.78953 1.94809e-17
5332.68702 1.91696e-17
5334.59459 1.99030e-17
5336.49208 2.00612e-17
5338.38956 2.04701e-17
5340.29714 2.12521e-17
5342.19462 2.07112e-17
5344.10220 1.94207e-17
5345.99968 1.96858e-17
5347.89717 2.07843e-17
5349.80474 2.05725e-17
5351.70223 2.09995e-17
5353.60980 2.07742e-17
5355.50729 1.92260e-17
5357.40477 1.86401e-17
5359.31235 1.90046e-17
5361.20983 1.78865e-17
5363.11741 1.89449e-17
5365.01489 1.92050e-17
5366.92247 1.79437e-17
5368.81996 1.99142e-17
5370.71744 2.03758e-17
5372.62502 1.99640e-17
5374.52250 1.95892e-17
5376.43008 1.91663e-17
5378.32756 1.86779e-17
5380.22505 1.81622e-17
5382.13262 1.79474e-17
5384.03011 1.81223e-17
5385.93768 1.85140e-17
5387.83517 1.84242e-17
5389.73265 1.81321e-17
5391.64023 1.79509e-17
5393.53771 1.77120e-17
5395.44529 1.81579e-17
5397.34277 1.87598e-17
5399.24026 1.88916e-17
5401.14783 1.85447e-17
5403.04532 1.76841e-17
5404.95290 1.85509e-17
5406.85038 1.84098e-17
5408.75796 1.66483e-17
5410.65544 1.75625e-17
5412.55292 1.74178e-17
5414.46050 1.68411e-17
5416.35799 1.66095e-17
5418.26556 1.63565e-17
5420.16305 1.67624e-17
5422.06053 1.75298e-17
5423.96811 1.76395e-17
5425.86559 1.75660e-17
5427.77317 1.75312e-17
5429.67065 1.74914e-17
5431.56814 1.74517e-17
5433.47571 1.74120e-17
5435.37320 1.73724e-17
5437.28077 1.73329e-17
5439.17826 1.72933e-17
5441.07574 1.72538e-17
5442.98332 1.72144e-17
5444.88080 1.71751e-17
5446.78838 1.71357e-17
5448.68586 1.70965e-17
5450.58335 1.70573e-17
5452.49093 1.70181e-17
5454.38841 1.69790e-17
5456.29599 1.69400e-17
5458.19347 1.69009e-17
5460.10105 1.68620e-17
5461.99853 1.68231e-17
5463.89602 1.67843e-17
5465.80359 1.67454e-17
5467.70108 1.67066e-17
5469.60865 1.66699e-17
5471.50614 1.66171e-17
5473.40362 1.66277e-17
5475.31120 1.69875e-17
5477.20868 1.63458e-17
5479.11626 1.55564e-17
5481.01374 1.53915e-17
5482.91123 1.55221e-17
5484.81880 1.54407e-17
5486.71629 1.46060e-17
5488.62387 1.59544e-17
5490.52135 1.43666e-17
5492.41883 1.22869e-17
5494.32641 1.40978e-17
5496.22389 1.49713e-17
5498.13147 1.42983e-17
5500.02896 1.47676e-17
5501.92644 1.50584e-17
5503.83402 1.58568e-17
5505.73150 1.60688e-17
5507.63908 1.48819e-17
5509.53656 1.57380e-17
5511.44414 1.54512e-17
5513.34162 1.49079e-17
5515.23911 1.52146e-17
5517.14668 1.55430e-17
5519.04417 1.44081e-17
5520.95174 1.37503e-17
5522.84923 1.43651e-17
5524.74671 1.45260e-17
5526.65429 1.36363e-17
5528.55177 1.38258e-17
5530.45935 1.42637e-17
5532.35683 1.40278e-17
5534.25432 1.38272e-17
5536.16190 1.41595e-17
5538.05938 1.11470e-17
5539.96696 1.06945e-17
5541.86444 1.09218e-17
5543.76192 1.26985e-17
5545.66950 1.24513e-17
5547.56699 1.23885e-17
5549.47456 1.37923e-17
5551.37205 1.41344e-17
5553.26953 1.45142e-17
5555.17711 1.34826e-17
5557.07459 1.31903e-17
5558.98217 1.44866e-17
5560.87965 1.40028e-17
5562.77714 1.42264e-17
5564.68471 1.42783e-17
5566.58220 1.29068e-17
5568.48977 1.17352e-17
5570.38726 1.43407e-17
5572.29484 1.62231e-17
5574.19232 1.25432e-17
5576.08980 1.19093e-17
5577.99738 1.16259e-17
5579.89486 1.25831e-17
5581.80244 1.20471e-17
5583.69993 1.06448e-17
5585.59741 1.06482e-17
5587.50499 1.27631e-17
5589.40247 1.32263e-17
5591.31005 1.19754e-17
5593.20753 1.25876e-17
5595.10502 1.26015e-17
5597.01259 1.25707e-17
5598.91008 1.18041e-17
5600.81765 1.18125e-17
5602.71514 1.29024e-17
5604.62271 1.23880e-17
5606.52020 1.15719e-17
5608.41768 1.18244e-17
5610.32526 1.24324e-17
5612.22274 1.30343e-17
5614.13032 1.32315e-17
5616.02780 1.31524e-17
5617.92529 1.28899e-17
5619.83287 1.28143e-17
5621.73035 1.24004e-17
5623.63793 1.15749e-17
5625.53541 1.23386e-17
5627.43289 1.26946e-17
5629.34047 1.20789e-17
5631.23796 1.13035e-17
5633.14553 1.06083e-17
5635.04302 1.21421e-17
5636.94050 1.17352e-17
5638.84808 1.12830e-17
5640.74556 1.06826e-17
5642.65314 1.22557e-17
5644.55062 1.22993e-17
5646.44811 1.21704e-17
5648.35568 1.25882e-17
5650.25317 1.22952e-17
5652.16074 1.14078e-17
5654.05823 1.17714e-17
5655.95571 1.08892e-17
5657.86329 1.17440e-17
5659.76077 1.28096e-17
5661.66835 1.19721e-17
5663.56583 1.00984e-17
5665.47341 9.45324e-18
5667.37090 1.18089e-17
5669.26838 1.25579e-17
5671.17596 1.05919e-17
5673.07344 1.01904e-17
5674.98102 1.19564e-17
5676.87850 1.17729e-17
5678.77599 1.20837e-17
5680.68356 1.13388e-17
5682.58105 1.05225e-17
5684.48862 1.14906e-17
5686.38611 1.10607e-17
5688.28359 1.08781e-17
5690.19117 1.18043e-17
5692.08865 1.14678e-17
5693.99623 1.07249e-17
5695.89371 1.08802e-17
5697.79120 1.15929e-17
5699.69877 1.21733e-17
5701.59626 1.18946e-17
5703.50384 1.10988e-17
5705.40132 1.03868e-17
5707.29880 1.09589e-17
5709.20638 1.15814e-17
5711.10386 1.06750e-17
5713.01144 9.58495e-18
5714.90893 9.88759e-18
5716.81650 1.04692e-17
5718.71399 1.06345e-17
5720.61147 1.06487e-17
5722.51905 9.56092e-18
5724.41653 9.01935e-18
5726.32411 9.36003e-18
5728.22159 8.58306e-18
5730.11908 9.14901e-18
5732.02665 9.69703e-18
5733.92414 9.72034e-18
5735.83171 1.00822e-17
5737.72920 1.10569e-17
5739.62668 1.11974e-17
5741.53426 1.08064e-17
5743.43174 1.12674e-17
5745.33932 1.12685e-17
5747.23680 1.18462e-17
5749.13429 1.23556e-17
5751.04187 1.19537e-17
5752.93935 1.11100e-17
5754.84693 1.15698e-17
5756.74441 1.25820e-17
5758.64189 1.35021e-17
5760.54947 1.18960e-17
5762.44696 1.17604e-17
5764.35453 1.17365e-17
5766.25202 1.19321e-17
5768.15959 1.21233e-17
5770.05708 1.23408e-17
5771.95456 1.33249e-17
5773.86214 1.41811e-17
5775.75962 1.42072e-17
5777.66720 1.40477e-17
5779.56468 1.47212e-17
5781.46217 1.49548e-17
5783.36974 1.39565e-17
5785.26723 1.28061e-17
5787.17481 1.41452e-17
5789.07229 1.41761e-17
5790.96977 1.42532e-17
5792.87735 1.46746e-17
5794.77483 1.42558e-17
5796.68241 1.45155e-17
5798.57989 1.49027e-17
5800.47738 1.46156e-17
5802.38496 1.44690e-17
5804.28244 1.49412e-17
5806.19002 1.47987e-17
5808.08750 1.53395e-17
5809.99508 1.58282e-17
5811.89256 1.49598e-17
5813.79005 1.39390e-17
5815.69762 1.35310e-17
5817.59511 1.35434e-17
5819.50268 1.34369e-17
5821.40017 1.37599e-17
5823.29765 1.37601e-17
5825.20523 1.37771e-17
5827.10271 1.39761e-17
5829.01029 1.38692e-17
5830.90777 1.42291e-17
5832.80526 1.43017e-17
5834.71284 1.37837e-17
5836.61032 1.33939e-17
5838.51790 1.28365e-17
5840.41538 1.24105e-17
5842.31286 1.24526e-17
5844.22044 1.32156e-17
5846.11793 1.32313e-17
5848.02550 1.28823e-17
5849.92299 1.28018e-17
5851.82047 1.25452e-17
5853.72805 1.26713e-17
5855.62553 1.22646e-17
5857.53311 1.31297e-17
5859.43059 1.31124e-17
5861.33817 1.27793e-17
5863.23565 1.23623e-17
5865.13314 1.25180e-17
5867.04071 1.22490e-17
5868.93820 1.28165e-17
5870.84578 1.26546e-17
5872.74326 1.10282e-17
5874.64074 1.16731e-17
5876.54832 1.28033e-17
5878.44580 1.20809e-17
5880.35338 1.18880e-17
5882.25087 1.14555e-17
5884.14835 1.12442e-17
5886.05593 1.06688e-17
5887.95341 9.26442e-18
5889.86099 9.86871e-18
5891.75847 1.03732e-17
5893.65596 1.11115e-17
5895.56353 1.06690e-17
5897.46102 1.03342e-17
5899.36859 1.09326e-17
5901.26608 1.17132e-17
5903.16356 1.21203e-17
5905.07114 1.20216e-17
5906.96862 1.12004e-17
5908.87620 1.19344e-17
5910.77368 1.24816e-17
5912.68126 1.20071e-17
5914.57874 1.20172e-17
5916.47623 1.17880e-17
5918.38381 1.14356e-17
5920.28129 1.16059e-17
5922.18887 1.10933e-17
5924.08635 1.10504e-17
5925.98383 1.01833e-17
5927.89141 1.09520e-17
5929.78889 1.10700e-17
5931.69647 1.00897e-17
5933.59396 9.53131e-18
5935.49144 7.97572e-18
5937.39902 8.41158e-18
5939.29650 1.04587e-17
5941.20408 1.04767e-17
5943.10156 1.05103e-17
5944.99905 1.09629e-17
5946.90662 1.00718e-17
5948.80411 9.42081e-18
5950.71168 9.70823e-18
5952.60917 8.47678e-18
5954.51674 1.05913e-17
5956.41423 1.13432e-17
5958.31171 1.11274e-17
5960.21929 1.06740e-17
5962.11677 9.85968e-18
5964.02435 1.07296e-17
5965.92184 1.15132e-17
5967.81932 1.18725e-17
5969.72690 1.10260e-17
5971.62438 1.02711e-17
5973.53196 1.09617e-17
5975.42944 1.01332e-17
5977.32693 8.73428e-18
5979.23450 1.04167e-17
5981.13199 1.20088e-17
5983.03956 1.04603e-17
5984.93705 1.03205e-17
5986.83453 1.12215e-17
5988.74211 1.05393e-17
5990.63959 1.03872e-17
5992.54717 1.08811e-17
5994.44465 1.07876e-17
5996.34214 1.07622e-17
5998.24971 1.06538e-17
6000.14720 1.06919e-17
6002.05478 1.10688e-17
6003.95226 1.07329e-17
6005.85984 1.06444e-17
6007.75732 1.06241e-17
6009.65480 1.09001e-17
6011.56238 1.06179e-17
6013.45987 9.50128e-18
6015.36744 9.62816e-18
6017.26493 1.00964e-17
6019.16241 1.05545e-17
6021.06999 1.04643e-17
6022.96747 1.07287e-17
6024.87505 1.04602e-17
6026.77253 1.06881e-17
6028.67002 1.08439e-17
6030.57759 1.06834e-17
6032.47508 1.09859e-17
6034.38265 1.10293e-17
6036.28014 9.77907e-18
6038.17762 9.47268e-18
6040.08520 1.06581e-17
6041.98268 1.03955e-17
6043.89026 9.78014e-18
6045.78774 1.02466e-17
6047.68523 1.01922e-17
6049.59281 1.03381e-17
6051.49029 1.08113e-17
6053.39787 1.07970e-17
6055.29535 1.03326e-17
6057.20293 9.39639e-18
6059.10041 9.78649e-18
6060.99790 1.10645e-17
6062.90547 1.11488e-17
6064.80296 1.03261e-17
6066.71053 1.02646e-17
6068.60802 9.85347e-18
6070.50550 9.96804e-18
6072.41308 1.01215e-17
6074.31056 9.99232e-18
6076.21814 1.04158e-17
6078.11562 1.09445e-17
6080.01311 1.07788e-17
6081.92068 1.02458e-17
6083.81817 1.01997e-17
6085.72574 1.01489e-17
6087.62323 1.02063e-17
6089.52071 9.26724e-18
6091.42829 8.75860e-18
6093.32577 9.71674e-18
6095.23335 1.03653e-17
6097.13083 9.50925e-18
6099.02832 9.33768e-18
6100.93590 1.00616e-17
6102.83338 1.01143e-17
6104.74096 9.36742e-18
6106.63844 9.24227e-18
6108.54602 9.46809e-18
6110.44350 9.42792e-18
6112.34099 1.01552e-17
6114.24856 1.02636e-17
6116.14605 1.05152e-17
6118.05362 1.08394e-17
6119.95111 9.78403e-18
6121.84859 9.80842e-18
6123.75617 1.00332e-17
6125.65365 9.69099e-18
6127.56123 9.41918e-18
6129.45871 8.96781e-18
6131.35620 9.48939e-18
6133.26378 9.82000e-18
6135.16126 9.49428e-18
6137.06884 9.79980e-18
6138.96632 9.46579e-18
6140.86380 9.52125e-18
6142.77138 9.98828e-18
6144.66887 1.00824e-17
6146.57644 9.18691e-18
6148.47393 8.95495e-18
6150.38150 9.37569e-18
6152.27899 9.67991e-18
6154.17647 9.45754e-18
6156.08405 9.55166e-18
6157.98153 9.25485e-18
6159.87902 8.70425e-18
6161.78659 9.18610e-18
6163.68408 9.58922e-18
6165.59165 9.63741e-18
6167.48914 9.87886e-18
6169.39672 1.01651e-17
6171.29420 9.54301e-18
6173.19168 9.25895e-18
6175.09926 8.76293e-18
6176.99674 8.92294e-18
6178.90432 9.48168e-18
6180.80181 9.92044e-18
6182.69929 9.41445e-18
6184.60687 9.43607e-18
6186.50435 8.54155e-18
6188.41193 9.05588e-18
6190.30941 8.91989e-18
6192.20690 8.57499e-18
6194.11447 8.84799e-18
6196.01196 9.14034e-18
6197.91953 9.32432e-18
6199.81702 8.15250e-18
6201.72459 8.13686e-18
6203.62208 9.41204e-18
6205.51956 9.13328e-18
6207.42714 8.75680e-18
6209.32462 8.79334e-18
6211.23220 8.68076e-18
6213.12968 8.90339e-18
6215.02717 8.95661e-18
6216.93475 8.71620e-18
6218.83223 8.85159e-18
6220.73981 9.19901e-18
6222.63729 8.69831e-18
6224.53477 8.35945e-18
6226.44235 8.58931e-18
6228.33984 9.10170e-18
6230.24741 9.16550e-18
6232.14490 8.21530e-18
6234.04238 7.58003e-18
6235.94996 7.58253e-18
6237.84744 7.95272e-18
6239.75502 8.30345e-18
6241.65250 8.58982e-18
6243.54999 7.90123e-18
6245.45756 7.49139e-18
6247.35505 7.34548e-18
6249.26262 6.44053e-18
6251.16011 6.74208e-18
6253.05759 7.77291e-18
6254.96517 7.89001e-18
6256.86265 7.32038e-18
6258.77023 7.13427e-18
6260.66771 7.04725e-18
6262.57529 6.75004e-18
6264.47278 6.17748e-18
6266.37026 6.39117e-18
6268.27784 7.63126e-18
6270.17532 7.69901e-18
6272.08290 6.63649e-18
6273.98038 5.83335e-18
6275.87787 5.76924e-18
6277.78544 5.96461e-18
6279.68293 6.24907e-18
6281.59050 6.49911e-18
6283.48799 5.97309e-18
6285.38547 6.60486e-18
6287.29305 5.85472e-18
6289.19053 6.35004e-18
6291.09811 7.03570e-18
6292.99559 7.70579e-18
6294.89308 7.51938e-18
6296.80065 7.22772e-18
6298.69814 6.92947e-18
6300.60572 6.51882e-18
6302.50320 6.19969e-18
6304.40068 7.16914e-18
6306.30826 7.97197e-18
6308.20574 7.32389e-18
6310.11332 7.16473e-18
6312.01081 7.74795e-18
6313.91838 7.76181e-18
6315.81587 7.55449e-18
6317.71335 7.99935e-18
6319.62093 8.51080e-18
6321.51841 8.15045e-18
6323.42599 7.92337e-18
6325.32347 7.86797e-18
6327.22096 7.76483e-18
6329.12853 8.11157e-18
6331.02602 7.92098e-18
6332.93359 7.60157e-18
6334.83108 7.29577e-18
6336.72856 7.53171e-18
6338.63614 8.34803e-18
6340.53362 8.78551e-18
6342.44120 9.07599e-18
6344.33868 8.29287e-18
6346.23617 7.93031e-18
6348.14375 8.40410e-18
6350.04123 8.75745e-18
6351.94881 8.82822e-18
6353.84629 9.36790e-18
6355.75387 9.41918e-18
6357.65135 9.48936e-18
6359.54884 9.90397e-18
6361.45641 9.11762e-18
6363.35390 8.89815e-18
6365.26147 9.02142e-18
6367.15896 8.75075e-18
6369.05644 9.74631e-18
6370.96402 9.91225e-18
6372.86150 1.05828e-17
6374.76908 1.12789e-17
6376.66656 1.02634e-17
6378.56405 1.05312e-17
6380.47162 1.25268e-17
6382.36911 1.37960e-17
6384.27669 1.36026e-17
6386.17417 1.33966e-17
6388.07165 1.35347e-17
6389.97923 1.34771e-17
6391.87671 1.38258e-17
6393.78429 1.38700e-17
6395.68178 1.42911e-17
6397.57926 1.51173e-17
6399.48684 1.54433e-17
6401.38432 1.51082e-17
6403.29190 1.48229e-17
6405.18938 1.51120e-17
6407.09696 1.53014e-17
6408.99444 1.48005e-17
6410.89193 1.56900e-17
6412.79950 1.59720e-17
6414.69699 1.57222e-17
6416.60456 1.55236e-17
6418.50205 1.60300e-17
6420.39953 1.64169e-17
6422.30711 1.64973e-17
6424.20459 1.63174e-17
6426.11217 1.65969e-17
6428.00965 1.66681e-17
6429.90714 1.58431e-17
6431.81472 1.55005e-17
6433.71220 1.55253e-17
6435.61978 1.56765e-17
6437.51726 1.65877e-17
6439.41474 1.70060e-17
6441.32232 1.63249e-17
6443.21981 1.62318e-17
6445.12738 1.53149e-17
6447.02487 1.49145e-17
6448.92235 1.60127e-17
6450.82993 1.58543e-17
6452.72741 1.51303e-17
6454.63499 1.68696e-17
6456.53247 1.70774e-17
6458.44005 1.68471e-17
6460.33753 1.61188e-17
6462.23502 1.61328e-17
6464.14259 1.46413e-17
6466.04008 1.46146e-17
6467.94766 1.48828e-17
6469.84514 1.61434e-17
6471.74262 1.60082e-17
6473.65020 1.38874e-17
6475.54768 1.56641e-17
6477.45526 1.74019e-17
6479.35275 1.62238e-17
6481.25023 1.56072e-17
6483.15781 1.62852e-17
6485.05529 1.65300e-17
6486.96287 1.57715e-17
6488.86035 1.59413e-17
6490.75784 1.68856e-17
6492.66541 1.66014e-17
6494.56290 1.52222e-17
6496.47047 1.42324e-17
6498.36796 1.40665e-17
6500.27553 1.37425e-17
6502.17302 1.31871e-17
6504.07050 1.28322e-17
6505.97808 1.22539e-17
6507.87556 1.14554e-17
6509.78314 1.29722e-17
6511.68062 1.36921e-17
6513.57811 1.46256e-17
6515.48569 1.43734e-17
6517.38317 1.36258e-17
6519.29075 1.31189e-17
6521.18823 1.23424e-17
6523.08571 1.23580e-17
6524.99329 1.36353e-17
6526.89078 1.43448e-17
6528.79835 1.39964e-17
6530.69584 1.36033e-17
6532.59332 1.31176e-17
6534.50090 1.27874e-17
6536.39838 1.37004e-17
6538.30596 1.40685e-17
6540.20344 1.41526e-17
6542.10093 1.36619e-17
6544.00850 1.43638e-17
6545.90599 1.51409e-17
6547.81356 1.39125e-17
6549.71105 1.23857e-17
6551.61863 1.21602e-17
6553.51611 1.37154e-17
6555.41359 1.40438e-17
6557.32117 1.30195e-17
6559.21865 1.38495e-17
6561.12623 1.41106e-17
6563.02372 1.33866e-17
6564.92120 1.44472e-17
6566.82878 1.61943e-17
6568.72626 1.39448e-17
6570.63384 1.35727e-17
6572.53132 1.47564e-17
6574.42881 1.45610e-17
6576.33638 1.36236e-17
6578.23387 1.33866e-17
6580.14144 1.30700e-17
6582.03893 1.27813e-17
6583.93641 1.20961e-17
6585.84399 1.32717e-17
6587.74147 1.38188e-17
6589.64905 1.46542e-17
6591.54653 1.48733e-17
6593.44402 1.48754e-17
6595.35159 1.54619e-17
6597.24908 1.53377e-17
6599.15666 1.46835e-17
6601.05414 1.41629e-17
6602.96172 1.46723e-17
6604.85920 1.44445e-17
6606.75668 1.38600e-17
6608.66426 1.35421e-17
6610.56174 1.29596e-17
6612.46932 1.28986e-17
6614.36681 1.33728e-17
6616.26429 1.38904e-17
6618.17187 1.31735e-17
6620.06935 1.23663e-17
6621.97693 1.45043e-17
6623.87441 1.65151e-17
6625.77190 1.55657e-17
6627.67947 1.59199e-17
6629.57696 1.58237e-17
6631.48453 1.39512e-17
6633.38202 1.28187e-17
6635.27950 1.34401e-17
6637.18708 1.33088e-17
6639.08456 1.30219e-17
6640.99214 1.26080e-17
6642.88962 1.23260e-17
6644.78711 1.30038e-17
6646.69469 1.36791e-17
6648.59217 1.42206e-17
6650.49975 1.26094e-17
6652.39723 1.24805e-17
6654.30481 1.25535e-17
6656.20229 1.19111e-17
6658.09978 1.21140e-17
6660.00735 1.20906e-17
6661.90484 1.16025e-17
6663.81241 1.27843e-17
6665.70990 1.26225e-17
6667.60738 1.09579e-17
6669.51496 1.16932e-17
6671.41244 1.25275e-17
6673.32002 1.27172e-17
6675.21750 1.21763e-17
6677.11499 1.20268e-17
6679.02256 1.26617e-17
6680.92005 1.13044e-17
6682.82763 1.14417e-17
6684.72511 1.18859e-17
6686.62259 1.17647e-17
6688.53017 1.08949e-17
6690.42765 1.05775e-17
6692.33523 1.11435e-17
6694.23272 1.12219e-17
6696.14029 1.15343e-17
6698.03778 1.19593e-17
6699.93526 1.21440e-17
6701.84284 1.13819e-17
6703.74032 1.05816e-17
6705.63781 1.07799e-17
6707.54538 1.20609e-17
6709.44287 1.13735e-17
6711.35044 1.05011e-17
6713.24793 9.78175e-18
6715.15550 8.90348e-18
6717.05299 1.09609e-17
6718.95047 1.18644e-17
6720.85805 1.20144e-17
6722.75553 1.17718e-17
6724.66311 1.06694e-17
6726.56059 1.08020e-17
6728.45808 1.19632e-17
6730.36566 1.24167e-17
6732.26314 1.22755e-17
6734.17072 1.24234e-17
6736.06820 1.20794e-17
6737.96568 1.11162e-17
6739.87326 1.09544e-17
6741.77074 1.15165e-17
6743.67832 1.10173e-17
6745.57581 1.07181e-17
6747.48338 1.18417e-17
6749.38087 1.20304e-17
6751.27835 1.17507e-17
6753.18593 1.05422e-17
6755.08341 1.03847e-17
6756.99099 1.13305e-17
6758.88847 1.15576e-17
6760.78596 1.08308e-17
6762.69353 1.07635e-17
6764.59102 1.09459e-17
6766.49860 1.08581e-17
6768.39608 1.05316e-17
6770.29356 1.11341e-17
6772.20114 1.14669e-17
6774.09862 1.07671e-17
6776.00620 1.06607e-17
6777.90369 1.13826e-17
6779.80117 1.08530e-17
6781.70875 1.02904e-17
6783.60623 9.67324e-18
6785.51381 9.84903e-18
6787.41129 1.07752e-17
6789.30878 1.13791e-17
6791.21635 1.05663e-17
6793.11384 1.08504e-17
6795.02141 1.13340e-17
6796.91890 1.20629e-17
6798.81638 1.12049e-17
6800.72396 9.99832e-18
6802.62144 1.09648e-17
6804.52902 1.20596e-17
6806.42650 1.14432e-17
6808.33408 1.06359e-17
6810.23156 1.07811e-17
6812.12905 1.05230e-17
6814.03663 1.08356e-17
6815.93411 1.14811e-17
6817.84169 1.06965e-17
6819.73917 9.12545e-18
6821.63665 9.59287e-18
6823.54423 1.07169e-17
6825.44172 1.14180e-17
6827.34929 1.22735e-17
6829.24678 1.05526e-17
6831.14426 1.04440e-17
6833.05184 1.05859e-17
6834.94932 1.09502e-17
6836.85690 1.17540e-17
6838.75438 1.17941e-17
6840.65187 1.08678e-17
6842.55944 9.26646e-18
6844.45693 9.57176e-18
6846.36450 9.58607e-18
6848.26199 9.60038e-18
6850.15947 9.61469e-18
6852.06705 9.62900e-18
6853.96453 9.64330e-18
6855.87211 9.65761e-18
6857.76959 9.67192e-18
6859.67717 9.68622e-18
6861.57466 9.70052e-18
6863.47214 9.71482e-18
6865.37972 9.72912e-18
6867.27720 9.74341e-18
6869.18478 9.75771e-18
6871.08226 9.77200e-18
6872.97975 9.78629e-18
6874.88732 9.80059e-18
6876.78481 9.81488e-18
6878.69238 9.82917e-18
6880.58987 9.84345e-18
6882.48735 9.85774e-18
6884.39493 9.87202e-18
6886.29241 9.88631e-18
6888.19999 9.90059e-18
6890.09747 9.91487e-18
6891.99496 9.92915e-18
6893.90253 9.94343e-18
6895.80002 9.95771e-18
6897.70759 9.97198e-18
6899.60508 9.98626e-18
6901.51266 1.00005e-17
6903.41014 1.00148e-17
6905.30762 1.00291e-17
6907.21520 1.00433e-17
6909.11269 1.00576e-17
6911.02026 1.00719e-17
6912.91775 1.00861e-17
6914.81523 1.01004e-17
6916.72281 1.01147e-17
6918.62029 1.01289e-17
6920.52787 1.01432e-17
6922.42535 1.01575e-17
6924.32284 1.01717e-17
6926.23041 1.01860e-17
6928.12790 1.02002e-17
6930.03547 1.02145e-17
6931.93296 1.02287e-17
6933.83044 1.02430e-17
6935.73802 1.02572e-17
6937.63550 9.70294e-18
6939.54308 1.03402e-17
6941.44056 1.01782e-17
6943.33805 9.94891e-18
6945.24563 9.71994e-18
6947.14311 8.77492e-18
6949.05069 8.97983e-18
6950.94817 9.87023e-18
6952.85575 1.00838e-17
6954.75323 9.98313e-18
6956.65072 1.07100e-17
6958.55829 1.12009e-17
6960.45578 1.03970e-17
6962.36335 1.07265e-17
6964.26084 1.09934e-17
6966.15832 1.05644e-17
6968.06590 1.16332e-17
6969.96338 1.18485e-17
6971.87096 1.07050e-17
6973.76844 1.01744e-17
6975.66593 9.40683e-18
6977.57350 9.28870e-18
6979.47099 1.03918e-17
6981.37857 9.94769e-18
6983.27605 9.37938e-18
6985.17353 8.65786e-18
6987.08111 9.81926e-18
6988.97859 1.01598e-17
6990.88617 1.04191e-17
6992.78366 1.00855e-17
6994.68114 9.74432e-18
6996.58872 9.72120e-18
6998.48620 1.00526e-17
7000.39378 1.05076e-17
7002.29126 9.74834e-18
7004.19884 1.01432e-17
7006.09632 1.00304e-17
7007.99381 9.48552e-18
7009.90138 9.03117e-18
7011.79887 9.53709e-18
7013.70644 9.31115e-18
7015.60393 8.19343e-18
7017.50141 8.13644e-18
7019.40899 8.15496e-18
7021.30647 8.15190e-18
7023.21405 8.15207e-18
7025.11153 8.15229e-18
7027.00902 8.15249e-18
7028.91660 8.15266e-18
7030.81408 8.15285e-18
7032.72166 8.15302e-18
7034.61914 8.15318e-18
7036.51662 8.15336e-18
7038.42420 8.15353e-18
7040.32169 8.15371e-18
7042.22926 8.15387e-18
7044.12675 8.15405e-18
7046.02423 8.15419e-18
7047.93181 8.15435e-18
7049.82929 8.15451e-18
7051.73687 8.15465e-18
7053.63435 8.15480e-18
7055.54193 8.15494e-18
7057.43941 8.15506e-18
7059.33690 8.15521e-18
7061.24447 8.15538e-18
7063.14196 8.15551e-18
7065.04954 8.15565e-18
7066.94702 8.15580e-18
7068.84450 8.15593e-18
7070.75208 8.15607e-18
7072.64956 8.15537e-18
7074.55714 8.15708e-18
7076.45463 8.16649e-18
7078.35211 7.79138e-18
7080.25969 7.15599e-18
7082.15717 8.12774e-18
7084.06475 8.65049e-18
7085.96223 9.42600e-18
7087.85972 8.64959e-18
7089.76729 7.53636e-18
7091.66478 8.48700e-18
7093.57235 8.48553e-18
7095.46984 8.52178e-18
7097.37741 8.50697e-18
7099.27490 8.49188e-18
7101.17238 9.26916e-18
7103.07996 7.85961e-18
7104.97744 7.14096e-18
7106.88502 7.01051e-18
7108.78250 7.00361e-18
7110.67999 8.50913e-18
7112.58757 8.34763e-18
7114.48505 7.47196e-18
7116.39263 7.08733e-18
7118.29011 7.71266e-18
7120.18759 7.97701e-18
7122.09517 7.83476e-18
7123.99266 8.08980e-18
7125.90023 7.70459e-18
7127.79772 6.39325e-18
7129.69520 6.28544e-18
7131.60278 7.73538e-18
7133.50026 7.88754e-18
7135.40784 7.45733e-18
7137.30532 7.94831e-18
7139.20281 8.10902e-18
7141.11038 7.57108e-18
7143.00787 7.69937e-18
7144.91544 8.19811e-18
7146.81293 9.15530e-18
7148.72051 9.20964e-18
7150.61799 8.18983e-18
7152.51547 8.53472e-18
7154.42305 7.74306e-18
7156.32053 8.59852e-18
7158.22811 8.80091e-18
7160.12560 8.17952e-18
7162.02308 8.47058e-18
7163.93066 8.04365e-18
7165.82814 8.11995e-18
7167.73572 8.64140e-18
7169.63320 7.39998e-18
7171.53069 6.16539e-18
7173.43826 5.88955e-18
7175.33575 6.65275e-18
7177.24332 6.68782e-18
7179.14081 7.41892e-18
7181.03829 6.77363e-18
7182.94587 6.26764e-18
7184.84335 6.66538e-18
7186.75093 5.88182e-18
7188.64841 6.47983e-18
7190.54590 7.75717e-18
7192.45347 7.05631e-18
7194.35096 7.17225e-18
7196.25854 7.15755e-18
7198.15602 6.64588e-18
7200.06360 6.83751e-18
7201.96108 7.42227e-18
7203.85856 6.79168e-18
7205.76614 6.09574e-18
7207.66363 6.55742e-18
7209.57120 7.10949e-18
7211.46869 7.09132e-18
7213.36617 7.66935e-18
7215.27375 8.80520e-18
7217.17123 7.76110e-18
7219.07881 7.13524e-18
7220.97629 8.55528e-18
7222.87378 8.13585e-18
7224.78135 7.19598e-18
7226.67884 7.57323e-18
7228.58641 8.37850e-18
7230.48390 7.44011e-18
7232.38138 7.24751e-18
7234.28896 8.44827e-18
7236.18644 7.76204e-18
7238.09402 7.57817e-18
7239.99150 6.57904e-18
7241.89908 5.53078e-18
7243.79657 6.18927e-18
7245.69405 6.64294e-18
7247.60163 7.05587e-18
7249.49911 6.69021e-18
7251.40669 7.80994e-18
7253.30417 8.00334e-18
7255.20166 7.36739e-18
7257.10923 6.50627e-18
7259.00672 6.57138e-18
7260.91429 7.51945e-18
7262.81178 6.92212e-18
7264.70926 6.90169e-18
7266.61684 6.53284e-18
7268.51432 7.27559e-18
7270.42190 7.73046e-18
7272.31938 8.18910e-18
7274.21687 8.47190e-18
7276.12444 7.87147e-18
7278.02193 5.87775e-18
7279.92951 7.14729e-18
7281.82699 8.02926e-18
7283.72447 7.62004e-18
7285.63205 6.25487e-18
7287.52953 7.46045e-18
7289.43711 7.69546e-18
7291.33460 7.68391e-18
7293.24217 6.83636e-18
7295.13966 6.84415e-18
7297.03714 7.56544e-18
7298.94472 8.34457e-18
7300.84220 8.13891e-18
7302.74978 6.94952e-18
7304.64726 6.87664e-18
7306.54475 7.94651e-18
7308.45232 6.90074e-18
7310.34981 6.41811e-18
7312.25738 6.94753e-18
7314.15487 7.24602e-18
7316.05235 7.32035e-18
7317.95993 6.87591e-18
7319.85741 6.08473e-18
7321.76499 6.58781e-18
7323.66247 6.60440e-18
7325.55996 6.56159e-18
7327.46754 7.03455e-18
7329.36502 7.35819e-18
7331.27260 6.74455e-18
7333.17008 6.75621e-18
7335.06756 6.76793e-18
7336.97514 7.83224e-18
7338.87263 7.72164e-18
7340.78020 6.72688e-18
7342.67769 4.95511e-18
7344.58526 5.00926e-18
7346.48275 6.94390e-18
7348.38023 6.76441e-18
7350.28781 5.43874e-18
7352.18529 6.22277e-18
7354.09287 6.75636e-18
7355.99035 6.27533e-18
7357.88784 5.81097e-18
7359.79541 5.87559e-18
7361.69290 6.24516e-18
7363.60048 6.09444e-18
7365.49796 6.43866e-18
7367.39544 7.38868e-18
7369.30302 7.51834e-18
7371.20050 7.82630e-18
7373.10808 7.88891e-18
7375.00557 6.23354e-18
7376.90305 5.79260e-18
7378.81063 6.80696e-18
7380.70811 7.28234e-18
7382.61569 7.40760e-18
7384.51317 7.54964e-18
7386.41066 8.26273e-18
7388.31823 8.95252e-18
7390.21572 8.33085e-18
7392.12329 5.84255e-18
7394.02078 5.16482e-18
7395.91826 7.26980e-18
7397.82584 8.22495e-18
7399.72332 6.87087e-18
7401.63090 5.84387e-18
7403.52838 6.75933e-18
7405.43596 6.39928e-18
7407.33344 6.47475e-18
7409.23093 6.74393e-18
7411.13851 6.45658e-18
7413.03599 5.82885e-18
7414.94357 5.83822e-18
7416.84105 7.70686e-18
7418.73853 7.51734e-18
7420.64611 5.58340e-18
7422.54360 4.79436e-18
7424.45117 6.30769e-18
7426.34866 6.73002e-18
7428.24614 6.36184e-18
7430.15372 6.07886e-18
7432.05120 5.68101e-18
7433.95878 6.85092e-18
7435.85626 7.26498e-18
7437.76384 5.67641e-18
7439.66132 6.30902e-18
7441.55881 6.84443e-18
7443.46638 5.98747e-18
7445.36387 6.19653e-18
7447.27145 5.81100e-18
7449.16893 6.12430e-18
7451.06641 8.32505e-18
7452.97399 7.41814e-18
7454.87147 5.10999e-18
7456.77905 6.96598e-18
7458.67654 7.01758e-18
7460.57402 6.20408e-18
7462.48160 6.19545e-18
7464.37908 7.10677e-18
7466.28666 7.28296e-18
7468.18414 7.06382e-18
7470.08163 6.62069e-18
7471.98920 5.80675e-18
7473.88669 7.10711e-18
7475.79426 6.80044e-18
7477.69175 5.88539e-18
7479.58923 6.68591e-18
7481.49681 6.57217e-18
7483.39429 6.60535e-18
7485.30187 6.56089e-18
7487.19935 6.14084e-18
7489.09684 6.47873e-18
7491.00441 6.77445e-18
7492.90190 6.51532e-18
7494.80948 7.34665e-18
7496.70696 7.82160e-18
7498.61454 7.83592e-18
7500.51202 6.34430e-18
7502.40950 6.61283e-18
7504.31708 6.58194e-18
7506.21457 6.85230e-18
7508.12214 6.67306e-18
7510.01963 7.04369e-18
7511.91711 6.85068e-18
7513.82469 6.67123e-18
7515.72217 7.28447e-18
7517.62975 6.69480e-18
7519.52723 5.48745e-18
7521.42472 7.18790e-18
7523.33229 7.12264e-18
7525.22978 7.07376e-18
7527.13735 6.14087e-18
7529.03484 5.61913e-18
7530.93232 5.47720e-18
7532.83990 5.70029e-18
7534.73738 5.68171e-18
7536.64496 5.85191e-18
7538.54244 5.53569e-18
7540.43993 6.65152e-18
7542.34751 6.61678e-18
7544.24499 6.91083e-18
7546.15257 6.50452e-18
7548.05005 6.63149e-18
7549.95763 6.61231e-18
7551.85511 6.59314e-18
7553.75259 6.57398e-18
7555.66017 6.55482e-18
7557.55766 6.53566e-18
7559.46523 6.51649e-18
7561.36272 6.49734e-18
7563.26020 6.47818e-18
7565.16778 6.45902e-18
7567.06526 6.43987e-18
7568.97284 6.42071e-18
7570.87032 6.40157e-18
7572.76781 6.38242e-18
7574.67538 6.36327e-18
7576.57287 6.34413e-18
7578.48045 6.32499e-18
7580.37793 6.30584e-18
7582.27541 6.28670e-18
7584.18299 6.26756e-18
7586.08047 6.24843e-18
7587.98805 6.22929e-18
7589.88554 6.21016e-18
7591.78302 6.19103e-18
7593.69060 6.17190e-18
7595.58808 6.15277e-18
7597.49566 6.13365e-18
7599.39314 6.11453e-18
7601.30072 6.09540e-18
7603.19820 6.07628e-18
7605.09569 6.05716e-18
7607.00326 6.03804e-18
7608.90075 6.01893e-18
7610.80832 5.99981e-18
7612.70581 5.98070e-18
7614.60329 5.96159e-18
7616.51087 5.94249e-18
7618.40835 5.92338e-18
7620.31593 5.90428e-18
7622.21341 5.88517e-18
7624.11090 5.86607e-18
7626.01848 5.84697e-18
7627.91596 5.82787e-18
7629.82354 5.80878e-18
7631.72102 5.78968e-18
7633.61850 5.77059e-18
7635.52608 5.75150e-18
7637.42357 5.73241e-18
7639.33114 5.71332e-18
7641.22863 5.69424e-18
7643.13620 5.67515e-18
7645.03369 5.65607e-18
7646.93117 5.63699e-18
7648.83875 5.61791e-18
7650.73623 5.59884e-18
7652.64381 5.57976e-18
7654.54129 5.56069e-18
7656.43878 5.54162e-18
7658.34635 5.52255e-18
7660.24384 5.50348e-18
7662.15142 5.48441e-18
7664.04890 5.46535e-18
7665.94638 5.44629e-18
7667.85396 5.42723e-18
7669.75144 5.40817e-18
7671.65902 5.38911e-18
7673.55651 5.37005e-18
7675.45399 5.35100e-18
7677.36157 5.33195e-18
7679.25905 5.31290e-18
7681.16663 5.29385e-18
7683.06411 6.64014e-18
7684.96160 7.27666e-18
7686.86917 5.89068e-18
7688.76666 5.57272e-18
7690.67423 6.12699e-18
7692.57172 6.56212e-18
7694.47929 6.27739e-18
7696.37678 5.68335e-18
7698.27426 6.16447e-18
7700.18184 5.50010e-18
7702.07932 4.70939e-18
7703.98690 6.40799e-18
7705.88438 7.23074e-18
7707.78187 6.10759e-18
7709.68944 5.09304e-18
7711.58693 4.01022e-18
7713.49451 3.72378e-18
7715.39199 5.13335e-18
7717.28947 4.64527e-18
7719.19705 3.88209e-18
7721.09454 5.13255e-18
7723.00211 5.87544e-18
7724.89960 6.27746e-18
7726.79708 6.85060e-18
7728.70466 6.50013e-18
7730.60214 5.82354e-18
7732.50972 5.59856e-18
7734.40720 6.27276e-18
7736.30469 7.30344e-18
7738.21226 5.81508e-18
7740.10975 5.15433e-18
7742.01732 6.41667e-18
7743.91481 6.54670e-18
7745.82239 6.11070e-18
7747.71987 6.68653e-18
7749.61735 7.84145e-18
7751.52493 8.11367e-18
7753.42241 6.38810e-18
7755.32999 6.40490e-18
7757.22748 5.80973e-18
7759.12496 5.56583e-18
7761.03254 5.99947e-18
7762.93002 5.88477e-18
7764.83760 6.54718e-18
7766.73508 6.61610e-18
7768.63257 6.25580e-18
7770.54014 6.79763e-18
7772.43763 6.36007e-18
7774.34520 4.37534e-18
7776.24269 5.33099e-18
7778.14017 6.63205e-18
7780.04775 6.33921e-18
7781.94523 6.86861e-18
7783.85281 6.49032e-18
7785.75029 6.87868e-18
7787.65787 6.61199e-18
7789.55535 6.29827e-18
7791.45284 7.42726e-18
7793.36042 7.43971e-18
7795.25790 6.28766e-18
7797.16548 5.55282e-18
7799.06296 7.07943e-18
7800.96044 7.11820e-18
7802.86802 5.90839e-18
7804.76551 6.45156e-18
7806.67308 5.68313e-18
7808.57057 4.77213e-18
7810.46805 4.83427e-18
7812.37563 6.05409e-18
7814.27311 7.14806e-18
7816.18069 6.06727e-18
7818.07817 5.65606e-18
7819.97566 7.03433e-18
7821.88323 6.41703e-18
7823.78072 5.97648e-18
7825.68829 6.17085e-18
7827.58578 5.39234e-18
7829.48326 5.38475e-18
7831.39084 5.76264e-18
7833.28832 5.65191e-18
7835.19590 6.10391e-18
7837.09338 5.62700e-18
7839.00096 5.06864e-18
7840.89845 5.63367e-18
7842.79593 6.21520e-18
7844.70351 4.92227e-18
7846.60099 4.96171e-18
7848.50857 4.19209e-18
7850.40605 4.80557e-18
7852.30354 7.36520e-18
7854.21111 6.42280e-18
7856.10860 4.22909e-18
7858.01617 3.87259e-18
7859.91366 4.78354e-18
7861.81114 4.18358e-18
7863.71872 5.15575e-18
7865.61620 6.59182e-18
7867.52378 6.19618e-18
7869.42126 5.23659e-18
7871.31875 5.31672e-18
7873.22632 7.10813e-18
7875.12381 7.09142e-18
7877.03139 6.16022e-18
7878.92887 6.61421e-18
7880.82635 5.65857e-18
7882.73393 5.16406e-18
7884.63141 5.68014e-18
7886.53899 5.48682e-18
7888.43648 5.60395e-18
7890.34405 6.02533e-18
7892.24154 6.57243e-18
7894.13902 6.30403e-18
7896.04660 5.76892e-18
7897.94408 5.76988e-18
7899.85166 6.37521e-18
7901.74914 7.37051e-18
7903.64663 6.95920e-18
7905.55420 5.47870e-18
7907.45169 6.50524e-18
7909.35926 8.45826e-18
7911.25675 6.71489e-18
7913.15423 7.58964e-18
7915.06181 5.31608e-18
7916.95929 4.75416e-18
7918.86687 4.66591e-18
7920.76435 5.13068e-18
7922.66184 5.54856e-18
7924.56942 3.74184e-18
7926.46690 6.52566e-18
7928.37448 6.65946e-18
7930.27196 5.26937e-18
7932.16944 5.03630e-18
7934.07702 6.78974e-18
7935.97451 6.49968e-18
7937.88208 6.25929e-18
7939.77957 5.64808e-18
7941.67705 6.28966e-18
7943.58463 6.39400e-18
7945.48211 6.82337e-18
7947.38969 8.02772e-18
7949.28717 7.65928e-18
7951.19475 5.55785e-18
7953.09223 5.15214e-18
7954.98972 6.14715e-18
7956.89729 5.76160e-18
7958.79478 5.67692e-18
7960.70236 5.97429e-18
7962.59984 5.60221e-18
7964.49732 5.95829e-18
7966.40490 7.28238e-18
7968.30238 6.88210e-18
7970.20996 5.62886e-18
7972.10745 5.53407e-18
7974.00493 6.30429e-18
7975.91251 6.33359e-18
7977.80999 6.60640e-18
7979.71757 5.73751e-18
7981.61505 4.87630e-18
7983.52263 5.23498e-18
7985.42011 6.25152e-18
7987.31760 6.13143e-18
7989.22517 5.18620e-18
7991.12266 3.41454e-18
7993.03023 4.82052e-18
7994.92772 8.95353e-18
7996.82520 7.85095e-18
7998.73278 6.41685e-18
8000.63026 6.41795e-18
8002.53784 6.07885e-18
8004.43532 5.20068e-18
8006.33281 5.44827e-18
8008.24039 5.03413e-18
8010.13787 5.20680e-18
8012.04545 6.02107e-18
8013.94293 5.67577e-18
8015.84041 5.59972e-18
8017.74799 5.77908e-18
8019.64548 5.64528e-18
8021.55305 4.63441e-18
8023.45054 4.87842e-18
8025.34802 6.52680e-18
8027.25560 5.98947e-18
8029.15308 5.33505e-18
8031.06066 6.04452e-18
8032.95814 5.70885e-18
8034.85563 5.19864e-18
8036.76320 5.29692e-18
8038.66069 4.99942e-18
8040.56826 4.96056e-18
8042.46575 4.96458e-18
8044.37333 4.95947e-18
8046.27081 4.95553e-18
8048.16829 4.95159e-18
8050.07587 4.94765e-18
8051.97335 4.94373e-18
8053.88093 4.93982e-18
8055.77842 4.93593e-18
8057.67590 4.93205e-18
8059.58348 4.92819e-18
8061.48096 4.92432e-18
8063.38854 4.92047e-18
8065.28602 4.91663e-18
8067.18351 4.91281e-18
8069.09108 4.90900e-18
8070.98857 4.90519e-18
8072.89614 4.90138e-18
8074.79363 4.89759e-18
8076.69111 4.89384e-18
8078.59869 4.89006e-18
8080.49617 4.88629e-18
8082.40375 4.88256e-18
8084.30123 4.87884e-18
8086.19872 4.87510e-18
8088.10629 4.87139e-18
8090.00378 4.86768e-18
8091.91136 4.86399e-18
8093.80884 4.86031e-18
8095.71642 4.85665e-18
8097.61390 4.85061e-18
8099.51138 4.86409e-18
8101.41896 4.77924e-18
8103.31645 4.29674e-18
8105.22402 4.27964e-18
8107.12151 4.45784e-18
8109.01899 4.76557e-18
8110.92657 5.16094e-18
8112.82405 5.85576e-18
8114.73163 5.35574e-18
8116.62911 3.96566e-18
8118.52660 4.68251e-18
8120.43417 4.81772e-18
8122.33166 4.88906e-18
8124.23923 5.45915e-18
8126.13672 4.45867e-18
8128.03420 4.12618e-18
8129.94178 4.12409e-18
8131.83926 3.66262e-18
8133.74684 4.05510e-18
8135.64432 3.84672e-18
8137.54181 4.03697e-18
8139.44939 5.09677e-18
8141.34687 4.72263e-18
8143.25445 4.23283e-18
8145.15193 5.36368e-18
8147.05951 5.67922e-18
8148.95699 4.34569e-18
8150.85448 4.79869e-18
8152.76205 4.29923e-18
8154.65954 4.49216e-18
8156.56711 4.74344e-18
8158.46460 4.86472e-18
8160.36208 4.95253e-18
8162.26966 4.49023e-18
8164.16714 3.88537e-18
8166.07472 3.60637e-18
8167.97220 5.23273e-18
8169.86969 5.52388e-18
8171.77726 4.59599e-18
8173.67475 4.28467e-18
8175.58233 5.76432e-18
8177.47981 5.02414e-18
8179.37729 3.98789e-18
8181.28487 3.82502e-18
8183.18235 4.13018e-18
8185.08993 4.56527e-18
8186.98742 5.39647e-18
8188.89499 4.54264e-18
8190.79248 3.79366e-18
8192.68996 4.78038e-18
8194.59754 4.55946e-18
8196.49502 4.18923e-18
8198.40260 4.90722e-18
8200.30008 4.93554e-18
8202.19757 4.32223e-18
8204.10514 5.26123e-18
8206.00263 5.32875e-18
8207.91020 4.80811e-18
8209.80769 4.48385e-18
8211.70517 4.34152e-18
8213.61275 4.95157e-18
8215.51023 5.18476e-18
8217.41781 4.78034e-18
8219.31529 4.61291e-18
8221.21278 4.21758e-18
8223.12036 5.36330e-18
8225.01784 5.45980e-18
8226.92542 5.00622e-18
8228.82290 3.64901e-18
8230.72038 3.52116e-18
8232.62796 4.25328e-18
8234.52545 4.96777e-18
8236.43302 5.38334e-18
8238.33051 6.33863e-18
8240.23808 5.03508e-18
8242.13557 4.97937e-18
8244.03305 5.44607e-18
8245.94063 4.10255e-18
8247.83811 4.26394e-18
8249.74569 5.74321e-18
8251.64317 5.41977e-18
8253.54066 5.52436e-18
8255.44823 4.92343e-18
8257.34572 5.96812e-18
8259.25330 5.67701e-18
8261.15078 4.92176e-18
8263.04826 5.22297e-18
8264.95584 4.64925e-18
8266.85332 3.98111e-18
8268.76090 4.20074e-18
8270.65839 4.99295e-18
8272.55587 4.58385e-18
8274.46345 3.51565e-18
8276.36093 3.79480e-18
8278.26851 3.53247e-18
8280.16599 3.27965e-18
8282.06348 3.63129e-18
8283.97105 5.11746e-18
8285.86854 4.63093e-18
8287.77611 3.77303e-18
8289.67360 3.92760e-18
8291.57108 3.46225e-18
8293.47866 2.46962e-18
8295.37614 1.26003e-18
8297.28372 3.99682e-18
8299.18120 5.95533e-18
8301.08878 5.39784e-18
8302.98626 5.65542e-18
8304.88375 5.30902e-18
8306.79133 4.35655e-18
8308.68881 5.37955e-18
8310.59639 5.54242e-18
8312.49387 5.32867e-18
8314.39135 6.41014e-18
8316.29893 5.76653e-18
8318.19642 5.85852e-18
8320.10399 5.44095e-18
8322.00148 4.59345e-18
8323.89896 4.18796e-18
8325.80654 5.37953e-18
8327.70402 5.62127e-18
8329.61160 5.53051e-18
8331.50908 5.76810e-18
8333.40657 4.09666e-18
8335.31414 3.54085e-18
8337.21163 4.73347e-18
8339.11920 6.31538e-18
8341.01669 6.66148e-18
8342.91417 6.33240e-18
8344.82175 5.66530e-18
8346.71923 1.94206e-18
8348.62681 2.49040e-18
8350.52429 4.57940e-18
8352.42178 7.70886e-18
8354.32936 8.08402e-18
8356.22684 4.69452e-18
8358.13442 4.25939e-18
8360.03190 5.58290e-18
8361.93948 4.97338e-18
8363.83696 3.89616e-18
8365.73445 5.36323e-18
8367.64202 6.00254e-18
8369.53951 4.46765e-18
8371.44708 5.18125e-18
8373.34457 4.83481e-18
8375.25214 6.01749e-18
8377.14963 6.80566e-18
8379.04711 7.02619e-18
8380.95469 6.55620e-18
8382.85217 7.19061e-18
8384.75975 5.09676e-18
8386.65723 5.49089e-18
8388.55472 5.49886e-18
8390.46230 5.25804e-18
8392.35978 5.09385e-18
8394.26736 3.08311e-18
8396.16484 6.50772e-19
8398.06232 3.05076e-18
8399.96990 3.33168e-18
8401.86739 5.40314e-18
8403.77496 4.77204e-18
8405.67245 4.82768e-18
8407.56993 5.32477e-18
8409.47751 5.70739e-18
8411.37499 5.34260e-18
8413.28257 7.57648e-18
8415.18005 8.91538e-18
8417.07754 7.26410e-18
8418.98511 6.66345e-18
8420.88260 6.20722e-18
8422.79017 6.15701e-18
8424.68766 2.59583e-18
8426.58514 -1.68867e-18
8428.49272 -4.77083e-18
8430.39020 -4.33218e-18
8432.29778 -5.99930e-19
8434.19526 2.10335e-18
8436.09275 3.37828e-18
8438.00033 5.21897e-18
8439.89781 7.83020e-18
8441.80539 6.19720e-18
8443.70287 6.75404e-18
8445.61045 8.35723e-18
8447.50793 8.02028e-18
8449.40541 9.09166e-18
8451.31299 7.85554e-18
8453.21048 6.07230e-18
8455.11805 4.79355e-18
8457.01554 4.87772e-18
8458.91302 6.60844e-18
8460.82060 6.70666e-18
8462.71808 4.52394e-18
8464.62566 5.86819e-18
8466.52314 7.26954e-18
8468.42063 4.87451e-18
8470.32820 3.82584e-18
8472.22569 4.23715e-18
8474.13327 3.89964e-18
8476.03075 5.61981e-18
8477.92823 6.24558e-18
8479.83581 5.57973e-18
8481.73329 5.91537e-18
8483.64087 6.29365e-18
8485.53836 5.04579e-18
8487.44593 5.24875e-18
8489.34342 5.75042e-18
8491.24090 8.87006e-18
8493.14848 8.37047e-18
8495.04596 5.69093e-18
8496.95354 4.52020e-18
8498.85102 6.80020e-18
8500.74851 7.83503e-18
8502.65608 7.09310e-18
8504.55357 7.79513e-18
8506.46114 8.04001e-18
8508.35863 6.46319e-18
8510.25611 5.97258e-18
8512.16369 5.53603e-18
8514.06117 5.24328e-18
8515.96875 5.43909e-18
8517.86623 6.59347e-18
8519.76372 6.43647e-18
8521.67130 6.69190e-18
8523.56878 6.94488e-18
8525.47636 6.95352e-18
8527.37384 7.23455e-18
8529.27132 6.61435e-18
8531.17890 5.90578e-18
8533.07639 5.57641e-18
8534.98396 5.26531e-18
8536.88145 5.48193e-18
8538.77893 6.47231e-18
8540.68651 5.56306e-18
8542.58399 3.41264e-18
8544.49157 1.99536e-18
8546.38905 3.11915e-18
8548.29663 4.02907e-18
8550.19411 5.20664e-18
8552.09160 5.59495e-18
8553.99917 6.65335e-18
8555.89666 6.53210e-18
8557.80424 6.12094e-18
8559.70172 6.13255e-18
8561.59920 6.48569e-18
8563.50678 6.00881e-18
8565.40426 7.53994e-18
8567.31184 7.70049e-18
8569.20933 6.15097e-18
8571.10681 6.10967e-18
8573.01439 6.37645e-18
8574.91187 5.67618e-18
8576.81945 5.60821e-18
8578.71693 6.08506e-18
8580.61442 7.26566e-18
8582.52199 6.77322e-18
8584.41948 5.51600e-18
8586.32705 5.88569e-18
8588.22454 6.42836e-18
8590.13211 6.92461e-18
8592.02960 7.36585e-18
8593.92708 7.61682e-18
8595.83466 6.26355e-18
8597.73214 7.15052e-18
8599.63972 7.07791e-18
8601.53720 6.08227e-18
8603.43469 4.82195e-18
8605.34226 4.35147e-18
8607.23975 4.62274e-18
8609.14733 4.84074e-18
8611.04481 6.07357e-18
8612.94229 8.74855e-18
8614.84987 1.06957e-17
8616.74736 1.01551e-17
8618.65493 8.50749e-18
8620.55242 5.98184e-18
8622.44990 3.14076e-18
8624.35748 2.27776e-18
8626.25496 6.43557e-19
8628.16254 1.73450e-18
8630.06002 4.77430e-18
8631.95751 7.13082e-18
8633.86508 1.03756e-17
8635.76257 1.21654e-17
8637.67014 1.14613e-17
8639.56763 1.03331e-17
8641.46511 8.15067e-18
8643.37269 6.58407e-18
8645.27017 5.20260e-18
8647.17775 2.23549e-18
8649.07523 2.30138e-18
8650.97272 2.63021e-18
8652.88030 2.25804e-18
8654.77778 4.12507e-18
8656.68536 2.78357e-18
8658.58284 2.15339e-18
8660.49042 4.88241e-18
8662.38790 5.08347e-18
8664.28539 4.44353e-18
8666.19296 8.40747e-18
8668.09045 1.27965e-17
8669.99802 1.12059e-17
8671.89551 9.59238e-18
8673.80308 9.46582e-18
8675.70057 9.09066e-18
8677.59805 7.92702e-18
8679.50563 6.03322e-18
8681.40311 5.76987e-18
8683.30060 5.09902e-18
8685.20817 3.01782e-18
8687.10566 4.08568e-18
8689.01324 3.71638e-18
8690.91072 4.07067e-18
8692.81830 5.46329e-18
8694.71578 5.25094e-18
8696.61326 7.68061e-18
8698.52084 7.61806e-18
8700.41833 7.22843e-18
8702.32590 8.22911e-18
8704.22339 8.50175e-18
8706.12087 8.95890e-18
8708.02845 8.98700e-18
8709.92593 9.75138e-18
8711.83351 8.83200e-18
8713.73099 6.97125e-18
8715.62848 7.01163e-18
8717.53605 6.99069e-18
8719.43354 8.28952e-18
8721.34111 9.35425e-18
8723.23860 9.27935e-18
8725.13608 7.66350e-18
8727.04366 7.60116e-18
8728.94114 6.62354e-18
8730.84872 5.46413e-18
8732.74620 6.25318e-18
8734.65378 5.84373e-18
8736.55127 5.64042e-18
8738.44875 6.29552e-18
8740.35633 6.74808e-18
8742.25381 6.94930e-18
8744.15129 7.51451e-18
8746.05887 7.42238e-18
8747.95636 -3.25370e-18
8749.86393 -2.97877e-18
8751.76142 -8.51843e-19
8753.65890 6.35608e-19
8755.56648 2.53419e-18
8757.46396 9.19166e-18
8759.37154 1.23234e-17
8761.26902 1.47676e-17
8763.17660 2.19556e-17
8765.07408 2.16212e-17
8766.97157 1.80131e-17
8768.87914 1.35984e-17
8770.77663 3.11672e-19
8772.68421 -8.42178e-18
8774.58169 -1.14290e-17
8776.48927 -1.06084e-17
8778.38675 -7.50119e-18
8780.28423 2.52125e-18
8782.19181 7.31038e-18
8784.08929 8.62273e-18
8785.99687 1.08182e-17
8787.89436 1.29522e-17
8789.79184 1.37946e-17
8791.69942 1.02944e-17
8793.59690 7.20654e-18
8795.50448 5.59697e-18
8797.40196 4.56364e-18
8799.29945 4.22649e-18
8801.20702 4.73377e-18
8803.10451 3.88616e-18
8805.01208 3.76881e-18
8806.90957 3.56523e-18
8808.80705 4.17675e-18
8810.71463 3.68970e-18
8812.61211 4.46579e-18
8814.51969 6.05125e-18
8816.41717 6.71690e-18
8818.31466 6.66618e-18
8820.22224 1.41729e-17
8822.11972 2.91907e-17
8824.02730 3.94393e-17
8825.92478 4.01032e-17
8827.82226 2.96545e-17
8829.72984 8.75669e-18
8831.62733 -3.72514e-18
8833.53490 -6.12712e-19
8835.43239 -6.43074e-19
8837.32987 -3.49455e-19
8839.23745 1.61411e-18
8841.13493 4.56851e-18
8843.04251 3.81848e-18
8844.93999 6.06837e-18
8846.84757 1.06853e-17
8848.74505 8.91560e-18
8850.64254 6.33256e-18
8852.55011 9.45804e-18
8854.44760 6.56755e-18
8856.35518 6.61762e-18
8858.25266 7.26600e-18
8860.15014 8.29233e-18
8862.05772 1.09894e-17
8863.95520 1.19729e-17
8865.86278 1.15615e-17
8867.76027 1.02605e-17
8869.65775 7.00700e-18
8871.56533 4.52582e-18
8873.46281 4.55864e-18
8875.37039 4.09106e-18
8877.26787 4.51437e-18
8879.17545 3.86060e-18
8881.07293 -2.01648e-19
8882.97042 -3.72021e-18
8884.87799 -4.89073e-18
8886.77548 -1.00498e-17
8888.68305 3.39952e-18
8890.58054 9.35668e-18
8892.47802 7.32209e-18
8894.38560 7.32289e-18
8896.28308 8.54818e-18
8898.19066 1.24442e-17
8900.08814 1.52977e-17
8901.98563 1.23552e-17
8903.89321 1.11881e-17
8905.79069 9.44423e-18
8907.69827 5.29649e-18
8909.59575 3.58132e-18
8911.49323 4.70681e-18
8913.40081 2.34739e-18
8915.29830 -6.12544e-18
8917.20587 -1.32595e-17
8919.10336 -1.02025e-17
8921.00084 -8.64991e-18
8922.90842 4.77110e-18
8924.80590 7.99954e-18
8926.71348 5.66874e-18
8928.61096 5.54569e-18
8930.50845 5.39921e-18
8932.41602 4.49346e-18
8934.31351 5.07780e-18
8936.22108 3.88111e-18
8938.11857 6.05884e-18
8940.01605 8.66293e-18
8941.92363 6.96581e-18
8943.82111 6.56940e-18
8945.72869 6.75015e-18
8947.62617 5.89274e-18
8949.53375 5.89379e-18
8951.43124 5.51124e-18
8953.32872 2.86278e-18
8955.23630 2.99043e-18
8957.13378 6.97822e-18
8959.04136 5.51464e-18
8960.93884 6.01719e-18
8962.83633 7.20340e-18
8964.74390 3.83354e-18
8966.64139 4.82741e-18
8968.54896 6.00910e-18
8970.44645 5.89631e-18
8972.34393 5.71943e-18
8974.25151 5.32144e-18
8976.14899 4.27550e-18
8978.05657 4.82292e-18
8979.95405 4.60100e-18
8981.85154 4.04892e-18
8983.75911 4.26174e-18
8985.65660 4.70528e-18
8987.56418 7.31034e-18
8989.46166 5.62963e-18
8991.36924 3.64609e-18
8993.26672 3.43547e-18
8995.16420 4.01038e-18
8997.07178 4.34322e-18
8998.96926 5.87973e-18
9000.87684 1.92612e-18
9002.77433 1.19455e-18
9004.67181 2.77276e-18
9006.57939 3.78166e-18
9008.47687 2.92116e-18
9010.38445 3.34518e-18
9012.28193 3.01328e-18
9014.17942 2.07101e-18
9016.08699 2.26504e-18
9017.98448 5.63215e-18
9019.89205 6.75649e-18
9021.78954 6.00349e-18
9023.68702 5.47819e-18
9025.59460 3.71546e-18
9027.49208 3.24458e-18
9028.00172 3.24458e-18
9030.00472 3.22475e-18
9031.99770 3.21029e-18
9034.00071 3.27095e-18
9036.00370 3.26002e-18
9037.99669 3.13751e-18
9039.99969 3.12540e-18
9042.00269 3.21869e-18
9043.99568 3.23930e-18
9045.99868 3.13058e-18
9048.00168 3.22802e-18
9050.00468 3.17369e-18
9051.99766 3.15280e-18
9054.00066 3.25361e-18
9056.00366 3.17098e-18
9057.99665 3.16508e-18
9059.99965 3.20647e-18
9062.00265 3.20986e-18
9063.99563 3.30509e-18
9065.99863 3.21867e-18
9068.00163 3.19382e-18
9070.00463 3.14669e-18
9071.99762 3.09273e-18
9074.00062 3.21877e-18
9076.00361 3.24721e-18
9077.99660 3.12870e-18
9079.99960 3.16754e-18
9082.00260 3.21300e-18
9083.99559 3.12814e-18
9085.99858 3.02787e-18
9088.00158 3.16453e-18
9090.00459 3.16212e-18
9091.99757 3.09842e-18
9094.00057 3.15035e-18
9096.00357 3.16458e-18
9097.99656 3.04923e-18
9099.99956 3.13828e-18
9102.00256 3.21740e-18
9103.99554 3.12669e-18
9105.99854 3.13799e-18
9108.00154 3.15063e-18
9110.00454 3.14219e-18
9111.99753 3.12545e-18
9114.00053 3.14676e-18
9116.00353 3.03269e-18
9117.99651 3.10934e-18
9119.99951 3.14404e-18
9122.00251 3.13060e-18
9123.99550 3.13039e-18
9125.99849 3.15192e-18
9128.00150 3.08141e-18
9130.00450 3.13362e-18
9131.99748 3.17342e-18
9134.00048 3.02230e-18
9136.00348 3.22102e-18
9137.99647 3.16640e-18
9139.99947 3.12140e-18
9142.00246 3.09318e-18
9143.99545 3.07274e-18
9145.99845 3.06772e-18
9148.00145 3.14652e-18
9150.00445 3.08908e-18
9151.99744 3.16046e-18
9154.00044 3.10466e-18
9156.00344 3.14708e-18
9157.99642 3.08859e-18
9159.99942 3.04067e-18
9162.00242 3.12444e-18
9163.99541 3.09300e-18
9165.99841 3.09086e-18
9168.00141 3.10118e-18
9170.00441 3.11815e-18
9171.99739 3.06924e-18
9174.00039 3.09071e-18
9176.00339 3.15501e-18
9177.99638 3.08143e-18
9179.99938 3.10599e-18
9182.00238 3.04792e-18
9183.99536 3.07488e-18
9185.99836 3.09024e-18
9188.00136 3.01215e-18
9190.00436 3.07058e-18
9191.99734 3.12098e-18
9194.00035 3.01134e-18
9196.00335 3.07349e-18
9197.99633 3.08731e-18
9199.99933 3.04531e-18
9202.00233 3.06779e-18
9203.99532 3.00958e-18
9205.99831 3.03922e-18
9208.00131 3.14053e-18
9210.00432 3.09383e-18
9211.99730 3.10303e-18
9214.00030 3.13915e-18
9216.00330 3.17251e-18
9217.99629 3.12190e-18
9219.99929 3.19653e-18
9222.00229 3.14391e-18
9223.99527 3.16606e-18
9225.99827 3.32967e-18
9228.00127 3.42665e-18
9230.00427 3.46556e-18
9231.99726 3.34821e-18
9234.00026 3.27919e-18
9236.00326 3.15756e-18
9237.99624 3.14495e-18
9239.99924 3.10870e-18
9242.00224 3.03419e-18
9243.99523 3.02817e-18
9245.99822 3.02785e-18
9248.00122 2.99954e-18
9250.00423 2.97917e-18
9251.99721 3.08060e-18
9254.00021 2.99915e-18
9256.00321 2.99094e-18
9257.99619 2.98120e-18
9259.99920 3.00511e-18
9262.00219 3.02263e-18
9263.99518 3.08175e-18
9265.99818 3.04035e-18
9268.00118 2.98813e-18
9270.00418 3.04869e-18
9271.99717 2.95406e-18
9274.00017 3.04869e-18
9276.00317 2.98765e-18
9277.99615 2.97070e-18
9279.99915 3.08151e-18
9282.00215 3.01328e-18
9283.99514 2.94211e-18
9285.99813 3.04382e-18
9288.00114 3.05648e-18
9290.00414 3.00968e-18
9291.99712 2.98837e-18
9294.00012 3.04209e-18
9296.00312 3.03151e-18
9297.99611 2.99720e-18
9299.99911 3.00518e-18
9302.00210 2.98485e-18
9303.99509 3.05482e-18
9305.99809 2.88147e-18
9308.00109 2.86193e-18
9310.00409 3.22445e-18
9311.99707 3.02990e-18
9314.00007 2.79517e-18
9316.00308 2.98116e-18
9317.99606 3.09529e-18
9319.99906 3.05215e-18
9322.00206 2.86832e-18
9324.00506 3.07122e-18
9325.99805 3.07044e-18
9328.00105 3.03030e-18
9330.00405 2.85390e-18
9331.99703 2.90537e-18
9334.00003 3.04431e-18
9336.00303 3.02303e-18
9337.99602 3.05551e-18
9339.99902 3.03492e-18
9342.00202 2.70908e-18
9343.99500 3.14259e-18
9345.99800 3.23449e-18
9348.00100 2.97504e-18
9350.00400 2.88122e-18
9351.99698 2.72600e-18
9353.99999 3.11632e-18
9356.00299 2.91506e-18
9357.99597 3.00474e-18
9359.99897 3.20840e-18
9362.00197 2.96660e-18
9363.99496 2.74562e-18
9365.99796 2.92045e-18
9368.00095 2.85035e-18
9370.00396 2.86888e-18
9371.99694 3.15987e-18
9373.99994 2.90337e-18
9376.00294 2.89855e-18
9377.99593 2.89890e-18
9379.99893 2.87322e-18
9382.00193 3.10111e-18
9384.00493 2.96711e-18
9385.99791 2.83823e-18
9388.00091 2.99180e-18
9390.00391 2.83895e-18
9391.99690 2.79668e-18
9393.99990 2.90511e-18
9396.00290 2.83100e-18
9397.99588 2.79265e-18
9399.99888 2.87097e-18
9402.00188 2.89732e-18
9404.00488 2.87814e-18
9405.99787 2.85440e-18
9408.00086 2.80530e-18
9410.00387 2.91643e-18
9411.99685 2.99446e-18
9413.99985 2.90932e-18
9416.00285 2.78880e-18
9417.99583 2.90635e-18
9419.99884 2.80852e-18
9422.00183 2.86858e-18
9423.99482 2.68657e-18
9425.99782 2.65391e-18
9428.00082 2.98245e-18
9430.00382 3.12445e-18
9431.99681 2.91200e-18
9433.99981 2.77421e-18
9436.00281 2.70692e-18
9437.99579 2.76634e-18
9439.99879 2.82956e-18
9442.00179 3.00568e-18
9444.00479 2.89207e-18
9445.99778 2.87192e-18
9448.00078 2.75064e-18
9450.00378 2.90861e-18
9451.99676 2.79516e-18
9453.99976 2.67557e-18
9456.00276 3.04020e-18
9457.99575 2.68332e-18
9459.99875 2.66553e-18
9462.00174 2.95536e-18
9464.00475 2.82468e-18
9465.99773 2.76640e-18
9468.00073 2.65969e-18
9470.00373 2.88634e-18
9471.99671 2.75812e-18
9473.99971 2.70686e-18
9476.00272 2.94339e-18
9477.99570 2.73289e-18
9479.99870 2.66744e-18
9482.00170 3.00844e-18
9483.99469 2.89120e-18
9485.99769 2.71795e-18
9488.00069 2.78843e-18
9490.00369 2.78300e-18
9491.99667 2.66239e-18
9493.99967 2.83561e-18
9496.00267 2.84985e-18
9497.99566 2.73038e-18
9499.99866 2.72111e-18
9502.00166 3.01289e-18
9504.00466 2.80398e-18
9505.99764 2.78917e-18
9508.00064 2.77265e-18
9510.00364 2.83209e-18
9511.99662 2.72806e-18
9513.99963 2.69954e-18
9516.00263 2.65263e-18
9517.99561 2.77231e-18
9519.99861 2.72990e-18
9522.00161 2.76126e-18
9524.00461 2.76230e-18
9525.99760 2.66458e-18
9528.00059 2.75006e-18
9530.00360 2.82025e-18
9531.99658 2.73598e-18
9533.99958 2.68751e-18
9536.00258 2.81231e-18
9537.99556 2.83608e-18
9539.99856 2.73407e-18
9542.00157 2.75456e-18
9544.00456 2.97434e-18
9545.99755 3.15478e-18
9548.00055 2.97451e-18
9550.00355 2.83761e-18
9551.99654 2.74735e-18
9553.99954 2.84965e-18
9556.00254 2.90003e-18
9557.99552 2.88264e-18
9559.99852 2.76608e-18
9562.00152 2.62752e-18
9564.00452 2.73255e-18
9565.99751 2.72853e-18
9568.00050 2.68228e-18
9570.00351 2.67484e-18
9571.99649 2.62205e-18
9573.99949 2.61154e-18
9576.00249 2.62853e-18
9577.99547 2.57794e-18
9579.99848 2.66518e-18
9582.00148 2.85316e-18
9584.00447 2.68299e-18
9585.99746 2.60177e-18
9588.00046 2.54599e-18
9590.00346 2.64314e-18
9591.99644 2.71985e-18
9593.99944 2.69620e-18
9596.00245 2.58430e-18
9597.99543 2.66102e-18
9599.99843 2.70523e-18
9602.00143 2.65276e-18
9604.00443 2.60136e-18
9605.99742 2.64516e-18
9608.00042 2.71015e-18
9610.00342 2.72060e-18
9611.99640 2.67005e-18
9613.99940 2.61354e-18
9616.00240 2.58792e-18
9617.99539 2.58616e-18
9619.99839 2.55578e-18
9622.00139 2.62189e-18
9624.00439 2.57189e-18
9625.99737 2.63088e-18
9628.00037 2.70830e-18
9630.00337 2.67694e-18
9631.99636 2.52847e-18
9633.99935 2.55974e-18
9636.00236 2.61244e-18
9637.99534 2.71250e-18
9639.99834 2.63134e-18
9642.00134 2.55741e-18
9644.00434 2.56117e-18
9645.99733 2.68521e-18
9648.00032 2.59513e-18
9650.00332 2.55374e-18
9651.99631 2.63060e-18
9653.99931 2.60199e-18
9656.00231 2.61882e-18
9657.99530 2.56232e-18
9659.99830 2.56089e-18
9662.00130 2.65050e-18
9664.00430 2.65747e-18
9665.99728 2.56115e-18
9668.00028 2.53603e-18
9670.00328 2.62372e-18
9671.99627 2.66626e-18
9673.99927 2.65909e-18
9676.00227 2.68062e-18
9677.99525 2.54204e-18
9679.99825 2.54454e-18
9682.00125 2.57249e-18
9684.00425 2.58186e-18
9685.99724 2.55901e-18
9688.00023 2.62438e-18
9690.00324 2.55671e-18
9691.99622 2.60877e-18
9693.99922 2.59649e-18
9696.00222 2.53807e-18
9697.99520 2.53029e-18
9699.99820 2.52305e-18
9702.00121 2.54305e-18
9704.00420 2.52976e-18
9705.99719 2.47136e-18
9708.00019 2.55553e-18
9710.00319 2.55079e-18
9711.99618 2.47821e-18
9713.99918 2.55083e-18
9716.00218 2.64557e-18
9717.99516 2.52053e-18
9719.99816 2.58435e-18
9722.00116 2.57149e-18
9724.00416 2.65739e-18
9725.99715 2.56330e-18
9728.00014 2.65744e-18
9730.00315 2.52120e-18
9731.99613 2.52134e-18
9733.99913 2.51784e-18
9736.00213 2.55456e-18
9738.00513 2.62812e-18
9739.99812 2.56172e-18
9742.00112 2.47865e-18
9744.00411 2.58899e-18
9745.99710 2.58009e-18
9748.00010 2.57785e-18
9750.00310 2.54264e-18
9751.99609 2.49913e-18
9753.99908 2.47596e-18
9756.00209 2.57428e-18
9757.99507 2.59936e-18
9759.99807 2.53678e-18
9762.00107 2.56722e-18
9764.00407 2.59967e-18
9765.99706 2.51490e-18
9768.00006 2.50642e-18
9770.00306 2.54457e-18
9771.99604 2.48971e-18
9773.99904 2.51617e-18
9776.00204 2.50269e-18
9777.99503 2.54551e-18
9779.99803 2.50627e-18
9782.00103 2.56940e-18
9784.00403 2.53270e-18
9785.99701 2.56823e-18
9788.00001 2.51189e-18
9790.00301 2.49728e-18
9791.99600 2.52800e-18
9793.99899 2.67896e-18
9796.00200 2.52315e-18
9798.00500 2.49065e-18
9799.99798 2.57250e-18
9802.00098 2.51290e-18
9804.00398 2.52425e-18
9805.99697 2.62119e-18
9807.99997 2.52787e-18
9810.00296 2.52537e-18
9811.99595 2.53090e-18
9813.99895 2.48999e-18
9816.00195 2.44063e-18
9817.99494 2.45823e-18
9819.99794 2.53357e-18
9822.00094 2.51327e-18
9824.00394 2.48803e-18
9825.99692 2.57159e-18
9827.99992 2.51568e-18
9830.00292 2.54252e-18
9831.99591 2.58397e-18
9833.99891 2.56532e-18
9836.00191 2.57259e-18
9837.99489 2.55677e-18
9839.99789 2.55384e-18
9842.00089 2.48889e-18
9844.00389 2.48744e-18
9845.99688 2.49825e-18
9847.99988 2.46699e-18
9850.00288 2.48769e-18
9851.99586 2.50448e-18
9853.99886 2.53766e-18
9856.00186 2.47418e-18
9858.00486 2.49930e-18
9859.99784 2.52674e-18
9862.00085 2.50392e-18
9864.00384 2.53820e-18
9865.99683 2.51579e-18
9867.99983 2.50882e-18
9870.00283 2.53882e-18
9871.99582 2.48297e-18
9873.99881 2.57493e-18
9876.00181 2.50104e-18
9878.00482 2.51974e-18
9879.99780 2.50314e-18
9882.00080 2.54915e-18
9884.00380 2.51449e-18
9885.99679 2.52843e-18
9887.99979 2.46202e-18
9890.00279 2.43783e-18
9891.99577 2.47535e-18
9893.99877 2.46836e-18
9896.00177 2.52660e-18
9897.99476 2.47767e-18
9899.99776 2.48845e-18
9902.00076 2.47559e-18
9904.00375 2.44673e-18
9905.99674 2.47248e-18
9907.99974 2.40436e-18
9910.00274 2.48076e-18
9911.99573 2.47436e-18
9913.99872 2.63508e-18
9916.00173 2.49728e-18
9918.00473 2.51099e-18
9919.99771 2.49305e-18
9922.00071 2.42343e-18
9924.00371 2.37061e-18
9925.99669 2.48303e-18
9927.99970 2.45601e-18
9930.00269 2.45681e-18
9931.99568 2.47318e-18
9933.99868 2.53552e-18
9936.00168 2.47609e-18
9938.00468 2.46984e-18
9939.99767 2.45912e-18
9942.00067 2.39605e-18
9944.00367 2.41735e-18
9945.99665 2.43862e-18
9947.99965 2.56198e-18
9950.00265 2.45034e-18
9951.99564 2.41655e-18
9953.99863 2.49361e-18
9956.00164 2.42374e-18
9957.99462 2.42912e-18
9959.99762 2.39441e-18
9962.00062 2.50407e-18
9964.00362 2.46349e-18
9965.99661 2.45393e-18
9967.99961 2.45369e-18
9970.00260 2.46309e-18
9971.99559 2.47278e-18
9973.99859 2.38985e-18
9976.00159 2.41903e-18
9978.00459 2.44371e-18
9979.99757 2.48202e-18
9982.00058 2.43377e-18
9984.00358 2.42313e-18
9985.99656 2.41574e-18
9987.99956 2.35534e-18
9990.00256 2.45555e-18
9991.99555 2.46141e-18
9993.99855 2.39062e-18
9996.00155 2.46297e-18
9998.00455 2.37398e-18
9999.99753 2.39438e-18
