# wavelength flux
3401.93526 1.72459e-18
3404.93976 1.46935e-18
3407.94426 8.35944e-19
3410.93874 1.05909e-18
3413.94324 1.66820e-18
3416.94774 1.82402e-18
3419.95224 1.63525e-18
3422.94673 1.94334e-18
3425.95123 1.80246e-18
3428.95573 1.88115e-18
3431.96023 2.03189e-18
3434.96473 2.09386e-18
3437.95922 1.64816e-18
3440.96372 1.49169e-18
3443.96822 1.54382e-18
3446.97272 2.04137e-18
3449.96720 2.52421e-18
3452.97170 2.52587e-18
3455.97620 2.55001e-18
3458.98070 1.95175e-18
3461.98520 1.72801e-18
3464.97969 1.99893e-18
3467.98419 1.96844e-18
3470.98869 1.58394e-18
3473.99319 1.73732e-18
3476.98767 1.99421e-18
3479.99217 2.14748e-18
3482.99667 2.11595e-18
3486.00117 2.06582e-18
3489.00567 1.97323e-18
3492.00016 1.88521e-18
3495.00466 1.93248e-18
3498.00916 1.61900e-18
3501.01366 1.49733e-18
3504.00814 1.76525e-18
3507.01264 1.85405e-18
3510.01714 1.76049e-18
3513.02164 1.56376e-18
3516.02614 1.82163e-18
3519.02063 1.69856e-18
3522.02513 1.41018e-18
3525.02963 1.36382e-18
3528.03413 1.74565e-18
3531.03863 1.90272e-18
3534.03311 1.87361e-18
3537.03761 1.51448e-18
3540.04211 1.30082e-18
3543.04661 1.37601e-18
3546.04110 1.19531e-18
3549.04560 1.17471e-18
3552.05010 1.48718e-18
3555.05460 1.76273e-18
3558.05910 1.65245e-18
3561.05358 1.57513e-18
3564.05808 1.71372e-18
3567.06258 1.66293e-18
3570.06708 1.48998e-18
3573.06157 1.49289e-18
3576.06607 1.67940e-18
3579.07057 1.73786e-18
3582.07507 1.65954e-18
3585.07957 1.66633e-18
3588.07405 1.65918e-18
3591.07855 1.52835e-18
3594.08305 1.71596e-18
3597.08755 1.80807e-18
3600.08204 1.58584e-18
3603.08654 1.52603e-18
3606.09104 1.60711e-18
3609.09554 1.58032e-18
3612.10004 1.50069e-18
3615.09452 1.34995e-18
3618.09902 1.45441e-18
3621.10352 1.55346e-18
3624.10802 1.44454e-18
3627.10251 1.33343e-18
3630.10701 1.37159e-18
3633.11151 1.15516e-18
3636.11601 1.34353e-18
3639.12051 1.67572e-18
3642.11499 1.45621e-18
3645.11949 1.29399e-18
3648.12399 1.43993e-18
3651.12849 1.63200e-18
3654.12298 1.51349e-18
3657.12748 1.34819e-18
3660.13198 1.52666e-18
3663.13648 1.61439e-18
3666.14098 1.56841e-18
3669.13546 1.46023e-18
3672.13996 1.41592e-18
3675.14446 1.65107e-18
3678.14896 1.81751e-18
3681.15346 1.83452e-18
3684.14795 1.87906e-18
3687.15245 1.82044e-18
3690.15695 1.79570e-18
3693.16145 1.90196e-18
3696.15593 2.02642e-18
3699.16043 2.04495e-18
3702.16493 2.13937e-18
3705.16943 2.28398e-18
3708.17393 2.26861e-18
3711.16842 2.26336e-18
3714.17292 2.39909e-18
3717.17742 2.45718e-18
3720.18192 2.54457e-18
3723.17640 2.50313e-18
3726.18090 2.39910e-18
3729.18540 2.28866e-18
3732.18990 2.23699e-18
3735.19440 2.32782e-18
3738.18889 2.31975e-18
3741.19339 2.22565e-18
3744.19789 2.04539e-18
3747.20239 1.96652e-18
3750.19687 1.83629e-18
3753.20137 1.66157e-18
3756.20587 1.58951e-18
3759.21037 1.57171e-18
3762.21487 1.46977e-18
3765.20936 1.30846e-18
3768.21386 1.21394e-18
3771.21836 1.09772e-18
3774.22286 9.21810e-19
3777.21734 8.67975e-19
3780.22184 8.48158e-19
3783.22634 8.93644e-19
3786.23084 8.58686e-19
3789.23534 7.72677e-19
3792.22983 7.69470e-19
3795.23433 7.28715e-19
3798.23883 6.75652e-19
3801.24333 5.87421e-19
3804.23781 5.34488e-19
3807.24231 6.24023e-19
3810.24681 7.39967e-19
3813.25131 7.40246e-19
3816.25581 6.93586e-19
3819.25030 6.24330e-19
3822.25480 6.66465e-19
3825.25930 7.18186e-19
3828.26380 7.16270e-19
3831.25828 6.78556e-19
3834.26278 6.47716e-19
3837.26728 6.61701e-19
3840.27178 7.05811e-19
3843.27628 7.44133e-19
3846.27077 8.05599e-19
3849.27527 9.11600e-19
3852.27977 8.80538e-19
3855.28427 8.82622e-19
3858.27875 9.98082e-19
3861.28325 1.06768e-18
3864.28775 1.11354e-18
3867.29225 1.15596e-18
3870.29675 1.24218e-18
3873.29124 1.29869e-18
3876.29574 1.28752e-18
3879.30024 1.41683e-18
3882.30474 1.62521e-18
3885.30924 1.83250e-18
3888.30372 1.99516e-18
3891.30822 2.16068e-18
3894.31272 2.34229e-18
3897.31722 2.51106e-18
3900.31171 2.71664e-18
3903.31621 3.01740e-18
3906.32071 3.38142e-18
3909.32521 3.58052e-18
3912.32971 3.74716e-18
3915.32419 3.93819e-18
3918.32869 4.07204e-18
3921.33319 4.15712e-18
3924.33769 4.31816e-18
3927.33218 4.40552e-18
3930.33668 4.43019e-18
3933.34118 4.48297e-18
3936.34568 4.65219e-18
3939.35018 4.76905e-18
3942.34466 4.62624e-18
3945.34916 4.49339e-18
3948.35366 4.60540e-18
3951.35816 4.69451e-18
3954.35264 4.71008e-18
3957.35714 4.75848e-18
3960.36164 4.73450e-18
3963.36614 4.80163e-18
3966.37064 4.99079e-18
3969.36513 5.00117e-18
3972.36963 4.90582e-18
3975.37413 4.94526e-18
3978.37863 4.98638e-18
3981.37311 5.02914e-18
3984.37761 5.06350e-18
3987.38211 5.25947e-18
3990.38661 5.41089e-18
3993.39111 5.35574e-18
3996.38560 5.42658e-18
3999.39010 5.60721e-18
4002.39460 5.67902e-18
4005.39910 5.72143e-18
4008.39359 5.77100e-18
4011.39809 5.92159e-18
4014.40259 5.98322e-18
4017.40709 5.99701e-18
4020.41159 6.15943e-18
4023.40607 6.36128e-18
4026.41057 6.45531e-18
4029.41507 6.61304e-18
4032.41957 6.73268e-18
4035.42407 6.76082e-18
4038.41856 6.94538e-18
4041.42306 7.18936e-18
4044.42756 7.34974e-18
4047.43206 7.49541e-18
4050.42654 7.57059e-18
4053.43104 7.59934e-18
4056.43554 7.71215e-18
4059.44004 7.74678e-18
4062.44454 7.63221e-18
4065.43903 7.58507e-18
4068.44353 7.48640e-18
4071.44803 7.45717e-18
4074.45253 7.51590e-18
4077.44701 7.48685e-18
4080.45151 7.29868e-18
4083.45601 7.06343e-18
4086.46051 6.91057e-18
4089.46501 6.74448e-18
4092.45950 6.51057e-18
4095.46400 6.29600e-18
4098.46850 6.20100e-18
4101.47300 6.01805e-18
4104.46748 5.79504e-18
4107.47198 5.70554e-18
4110.47648 5.65368e-18
4113.48098 5.49786e-18
4116.48548 5.30309e-18
4119.47997 5.20115e-18
4122.48447 5.09542e-18
4125.48897 5.00348e-18
4128.49347 4.97684e-18
4131.48795 4.85057e-18
4134.49245 4.74331e-18
4137.49695 4.76600e-18
4140.50145 4.77425e-18
4143.50595 4.72866e-18
4146.50043 4.63382e-18
4149.50493 4.62629e-18
4152.50943 4.72994e-18
4155.51393 4.70441e-18
4158.50842 4.60622e-18
4161.51292 4.53634e-18
4164.51742 4.56765e-18
4167.52192 4.57244e-18
4170.52642 4.44201e-18
4173.52091 4.32055e-18
4176.52541 4.33861e-18
4179.52991 4.27952e-18
4182.53441 4.11877e-18
4185.52889 4.09431e-18
4188.53339 4.08780e-18
4191.53789 4.06198e-18
4194.54239 4.10790e-18
4197.54689 4.17949e-18
4200.54137 4.19350e-18
4203.54587 4.23813e-18
4206.55037 4.31322e-18
4209.55487 4.35482e-18
4212.55937 4.34121e-18
4215.55386 4.30113e-18
4218.55836 4.31275e-18
4221.56286 4.26615e-18
4224.56736 4.17897e-18
4227.56185 4.22344e-18
4230.56635 4.33209e-18
4233.57085 4.36148e-18
4236.57535 4.30033e-18
4239.57985 4.19186e-18
4242.57433 4.11281e-18
4245.57883 4.10075e-18
4248.58333 4.14330e-18
4251.58783 4.15945e-18
4254.58232 4.22664e-18
4257.58682 4.26523e-18
4260.59132 4.27444e-18
4263.59582 4.31043e-18
4266.60032 4.35047e-18
4269.59480 4.49143e-18
4272.59930 4.64935e-18
4275.60380 4.71972e-18
4278.60830 4.73039e-18
4281.60279 4.77367e-18
4284.60729 4.76575e-18
4287.61179 4.70258e-18
4290.61629 4.69707e-18
4293.62079 4.75397e-18
4296.61527 4.78641e-18
4299.61977 4.80476e-18
4302.62427 4.88962e-18
4305.62877 4.90437e-18
4308.62326 4.88671e-18
4311.62776 4.87648e-18
4314.63226 4.81863e-18
4317.63676 4.78308e-18
4320.64126 4.67417e-18
4323.63574 4.65124e-18
4326.64024 4.70923e-18
4329.64474 4.68558e-18
4332.64924 4.60059e-18
4335.64372 4.63279e-18
4338.64822 4.66241e-18
4341.65272 4.64625e-18
4344.65722 4.52641e-18
4347.66172 4.42329e-18
4350.65621 4.47523e-18
4353.66071 4.51632e-18
4356.66521 4.39668e-18
4359.66971 4.28813e-18
4362.67421 4.16982e-18
4365.66870 4.04630e-18
4368.67320 3.98680e-18
4371.67770 3.94377e-18
4374.68220 3.86247e-18
4377.67668 3.74263e-18
4380.68118 3.65256e-18
4383.68568 3.63349e-18
4386.69018 3.66846e-18
4389.69468 3.64578e-18
4392.68916 3.56135e-18
4395.69366 3.59111e-18
4398.69816 3.67756e-18
4401.70266 3.83326e-18
4404.69715 3.89458e-18
4407.70165 3.92133e-18
4410.70615 3.97215e-18
4413.71065 3.98459e-18
4416.71515 4.05558e-18
4419.70964 4.12745e-18
4422.71414 4.24754e-18
4425.71864 4.34898e-18
4428.72314 4.29792e-18
4431.71762 4.32208e-18
4434.72212 4.40377e-18
4437.72662 4.45179e-18
4440.73112 4.42579e-18
4443.73562 4.35843e-18
4446.73010 4.46352e-18
4449.73460 4.51304e-18
4452.73910 4.48653e-18
4455.74360 4.52785e-18
4458.73809 4.56383e-18
4461.74259 4.53325e-18
4464.74709 4.52497e-18
4467.75159 4.55897e-18
4470.75609 4.62127e-18
4473.75058 4.69188e-18
4476.75508 4.73977e-18
4479.75958 4.79369e-18
4482.76408 4.85349e-18
4485.75856 4.90822e-18
4488.76306 4.95201e-18
4491.76756 4.99953e-18
4494.77206 5.04944e-18
4497.77656 5.09823e-18
4500.77105 5.16690e-18
4503.77555 5.23077e-18
4506.78005 5.36490e-18
4509.78455 5.54052e-18
4512.77903 5.76704e-18
4515.78353 5.98147e-18
4518.78803 6.07694e-18
4521.79253 6.20974e-18
4524.79703 6.38471e-18
4527.79152 6.56908e-18
4530.79602 6.80659e-18
4533.80052 7.00116e-18
4536.80502 7.20757e-18
4539.80952 7.46801e-18
4542.80400 7.73735e-18
4545.80850 7.86379e-18
4548.81300 8.08625e-18
4551.81750 8.32940e-18
4554.81199 8.55916e-18
4557.81649 8.76004e-18
4560.82099 8.93688e-18
4563.82549 9.14490e-18
4566.82999 9.36331e-18
4569.82447 9.57452e-18
4572.82897 9.73618e-18
4575.83347 9.92200e-18
4578.83797 1.00753e-17
4581.83246 1.01289e-17
4584.83696 1.01871e-17
4587.84146 1.02299e-17
4590.84596 1.04322e-17
4593.85046 1.04623e-17
4596.84494 1.03991e-17
4599.84944 1.04656e-17
4602.85394 1.05890e-17
4605.85844 1.05215e-17
4608.85293 1.04729e-17
4611.85743 1.05741e-17
4614.86193 1.06017e-17
4617.86643 1.06674e-17
4620.87093 1.06933e-17
4623.86541 1.06872e-17
4626.86991 1.06625e-17
4629.87441 1.07492e-17
4632.87891 1.08837e-17
4635.87340 1.09976e-17
4638.87790 1.11387e-17
4641.88240 1.12001e-17
4644.88690 1.13695e-17
4647.89140 1.15576e-17
4650.88588 1.15151e-17
4653.89038 1.14058e-17
4656.89488 1.13532e-17
4659.89938 1.13200e-17
4662.89387 1.12015e-17
4665.89837 1.09859e-17
4668.90287 1.06992e-17
4671.90737 1.04636e-17
4674.91187 1.01737e-17
4677.90635 9.74387e-18
4680.91085 9.44683e-18
4683.91535 9.29730e-18
4686.91985 9.05039e-18
4689.92435 8.89006e-18
4692.91884 8.82732e-18
4695.92334 8.92303e-18
4698.92784 8.97863e-18
4701.93234 9.14231e-18
4704.92682 9.41699e-18
4707.93132 9.70437e-18
4710.93582 1.00699e-17
4713.94032 1.04064e-17
4716.94482 1.07220e-17
4719.93930 1.09693e-17
4722.94380 1.11840e-17
4725.94830 1.13926e-17
4728.95280 1.14461e-17
4731.94729 1.15707e-17
4734.95179 1.17598e-17
4737.95629 1.18501e-17
4740.96079 1.18209e-17
4743.95528 1.17917e-17
4746.95978 1.17096e-17
4749.96428 1.16011e-17
4752.96878 1.16043e-17
4755.97328 1.15572e-17
4758.96776 1.14576e-17
4761.97226 1.14256e-17
4764.97676 1.13852e-17
4767.98126 1.13327e-17
4770.98576 1.13861e-17
4773.98025 1.14509e-17
4776.98474 1.14063e-17
4779.98924 1.12335e-17
4782.99374 1.11590e-17
4785.98823 1.11929e-17
4788.99273 1.11676e-17
4791.99723 1.11359e-17
4795.00173 1.10619e-17
4798.00623 1.09259e-17
4801.00072 1.07419e-17
4804.00522 1.05943e-17
4807.00972 1.04810e-17
4810.01422 1.03295e-17
4813.00870 1.00591e-17
4816.01320 9.80514e-18
4819.01770 9.59550e-18
4822.02220 9.39347e-18
4825.02670 9.21579e-18
4828.02119 9.12962e-18
4831.02569 8.95042e-18
4834.03019 8.70816e-18
4837.03469 8.56065e-18
4840.03919 8.45026e-18
4843.03367 8.38425e-18
4846.03817 8.28606e-18
4849.04267 8.19615e-18
4852.04717 8.05326e-18
4855.04166 7.83313e-18
4858.04616 7.67893e-18
4861.05066 7.59684e-18
4864.05516 7.48442e-18
4867.05966 7.41004e-18
4870.05414 7.31069e-18
4873.05864 7.13206e-18
4876.06314 7.00486e-18
4879.06764 6.90256e-18
4882.06213 6.82873e-18
4885.06663 6.73300e-18
4888.07113 6.65998e-18
4891.07563 6.57093e-18
4894.08013 6.44857e-18
4897.07461 6.42493e-18
4900.07911 6.47457e-18
4903.08361 6.52071e-18
4906.08811 6.60755e-18
4909.08259 6.80300e-18
4912.08709 7.00605e-18
4915.09159 7.20416e-18
4918.09609 7.39941e-18
4921.10059 7.64456e-18
4924.09508 7.95026e-18
4927.09958 8.21982e-18
4930.10408 8.37635e-18
4933.10858 8.52820e-18
4936.10307 8.72212e-18
4939.10757 8.95806e-18
4942.11207 9.11704e-18
4945.11657 9.21397e-18
4948.12107 9.37521e-18
4951.11555 9.53683e-18
4954.12005 9.76308e-18
4957.12455 9.96007e-18
4960.12905 1.01121e-17
4963.12353 1.03367e-17
4966.12803 1.06968e-17
4969.13253 1.09805e-17
4972.13703 1.12243e-17
4975.14153 1.15983e-17
4978.13602 1.19835e-17
4981.14052 1.22565e-17
4984.14502 1.24971e-17
4987.14952 1.28250e-17
4990.14401 1.31339e-17
4993.14851 1.35149e-17
4996.15301 1.38990e-17
4999.15751 1.42015e-17
5002.16201 1.44957e-17
5005.15649 1.47274e-17
5008.16099 1.49065e-17
5011.16549 1.50646e-17
5014.16999 1.51618e-17
5017.16447 1.50576e-17
5020.16897 1.49251e-17
5023.17347 1.49111e-17
5026.17797 1.47922e-17
5029.18247 1.44581e-17
5032.17696 1.41524e-17
5035.18146 1.39758e-17
5038.18596 1.36428e-17
5041.19046 1.32727e-17
5044.18494 1.29322e-17
5047.18944 1.24996e-17
5050.19394 1.20073e-17
5053.19844 1.15866e-17
5056.20294 1.11736e-17
5059.19743 1.06959e-17
5062.20193 1.02463e-17
5065.20643 9.82917e-18
5068.21093 9.41818e-18
5071.20542 8.98532e-18
5074.20992 8.61184e-18
5077.21442 8.37429e-18
5080.21892 8.15746e-18
5083.22342 7.91932e-18
5086.21790 7.76519e-18
5089.22240 7.70430e-18
5092.22690 7.66485e-18
5095.23140 7.61882e-18
5098.23590 7.58945e-18
5101.23039 7.64688e-18
5104.23489 7.70174e-18
5107.23939 7.72495e-18
5110.24389 7.79325e-18
5113.23837 7.88277e-18
5116.24287 7.95403e-18
5119.24737 8.05831e-18
5122.25187 8.18791e-18
5125.25637 8.36602e-18
5128.25086 8.56587e-18
5131.25536 8.71453e-18
5134.25986 8.90544e-18
5137.26436 9.08304e-18
5140.25884 9.17481e-18
5143.26334 9.26205e-18
5146.26784 9.42669e-18
5149.27234 9.55909e-18
5152.27684 9.71800e-18
5155.27133 9.79555e-18
5158.27583 9.81912e-18
5161.28033 9.88938e-18
5164.28483 9.97359e-18
5167.27931 1.00638e-17
5170.28381 1.01183e-17
5173.28831 1.02365e-17
5176.29281 1.03294e-17
5179.29731 1.02810e-17
5182.29180 1.02401e-17
5185.29630 1.02354e-17
5188.30080 1.02226e-17
5191.30530 1.02808e-17
5194.29978 1.03772e-17
5197.30428 1.03419e-17
5200.30878 1.02324e-17
5203.31328 1.01830e-17
5206.31778 1.01351e-17
5209.31227 1.00605e-17
5212.31677 9.99873e-18
5215.32127 9.95174e-18
5218.32577 9.94831e-18
5221.32025 9.93353e-18
5224.32475 9.89040e-18
5227.32925 9.84051e-18
5230.33375 9.84533e-18
5233.33825 9.83227e-18
5236.33273 9.82956e-18
5239.33723 9.80279e-18
5242.34173 9.82114e-18
5245.34623 9.84392e-18
5248.35073 9.83045e-18
5251.34522 9.92482e-18
5254.34972 1.00258e-17
5257.35422 1.01388e-17
5260.35872 1.02537e-17
5263.35321 1.02771e-17
5266.35771 1.04047e-17
5269.36221 1.05711e-17
5272.36671 1.06861e-17
5275.37121 1.07461e-17
5278.36569 1.08261e-17
5281.37019 1.09924e-17
5284.37469 1.11921e-17
5287.37919 1.13464e-17
5290.37367 1.14426e-17
5293.37817 1.15394e-17
5296.38267 1.17431e-17
5299.38717 1.20146e-17
5302.39167 1.22124e-17
5305.38616 1.23152e-17
5308.39066 1.24602e-17
5311.39516 1.27083e-17
5314.39966 1.29423e-17
5317.39415 1.31279e-17
5320.39865 1.32592e-17
5323.40315 1.34334e-17
5326.40765 1.36258e-17
5329.41215 1.37217e-17
5332.40663 1.38396e-17
5335.41113 1.38965e-17
5338.41563 1.39928e-17
5341.42013 1.41657e-17
5344.41462 1.42862e-17
5347.41912 1.43936e-17
5350.42362 1.44834e-17
5353.42811 1.46437e-17
5356.43261 1.46922e-17
5359.42710 1.48525e-17
5362.43160 1.50670e-17
5365.43610 1.51037e-17
5368.44060 1.50730e-17
5371.44510 1.52017e-17
5374.43959 1.52823e-17
5377.44409 1.53596e-17
5380.44859 1.54842e-17
5383.45309 1.55900e-17
5386.44757 1.56736e-17
5389.45207 1.56707e-17
5392.45657 1.56992e-17
5395.46107 1.58439e-17
5398.46557 1.59680e-17
5401.46006 1.60313e-17
5404.46456 1.61198e-17
5407.46906 1.62744e-17
5410.47356 1.63720e-17
5413.46804 1.64550e-17
5416.47254 1.65699e-17
5419.47704 1.66488e-17
5422.48154 1.66797e-17
5425.48604 1.66625e-17
5428.48053 1.66345e-17
5431.48503 1.65507e-17
5434.48953 1.64570e-17
5437.49403 1.64649e-17
5440.48851 1.64273e-17
5443.49301 1.62835e-17
5446.49751 1.61512e-17
5449.50201 1.60300e-17
5452.50651 1.58543e-17
5455.50100 1.57431e-17
5458.50550 1.56311e-17
5461.51000 1.55097e-17
5464.51450 1.55221e-17
5467.50898 1.54168e-17
5470.51348 1.52254e-17
5473.51798 1.51253e-17
5476.52248 1.50926e-17
5479.52698 1.51829e-17
5482.52147 1.52621e-17
5485.52597 1.54218e-17
5488.53047 1.56766e-17
5491.53497 1.59612e-17
5494.52945 1.62862e-17
5497.53395 1.67034e-17
5500.53845 1.70373e-17
5503.54295 1.73892e-17
5506.54745 1.76765e-17
5509.54194 1.80641e-17
5512.54644 1.85947e-17
5515.55094 1.89810e-17
5518.55544 1.93065e-17
5521.54992 1.96353e-17
5524.55442 1.99562e-17
5527.55892 2.02210e-17
5530.56342 2.04085e-17
5533.56792 2.04806e-17
5536.56241 2.04900e-17
5539.56691 2.04840e-17
5542.57141 2.04629e-17
5545.57591 2.03910e-17
5548.58041 2.03937e-17
5551.57489 2.02760e-17
5554.57939 1.98719e-17
5557.58389 1.95654e-17
5560.58839 1.94045e-17
5563.58288 1.91845e-17
5566.58738 1.89159e-17
5569.59188 1.86771e-17
5572.59638 1.83364e-17
5575.60088 1.79412e-17
5578.59536 1.76603e-17
5581.59986 1.72083e-17
5584.60436 1.67203e-17
5587.60886 1.63257e-17
5590.60334 1.58984e-17
5593.60784 1.54549e-17
5596.61234 1.50074e-17
5599.61684 1.46319e-17
5602.62134 1.42792e-17
5605.61583 1.38914e-17
5608.62033 1.35603e-17
5611.62483 1.33690e-17
5614.62933 1.33020e-17
5617.62381 1.32284e-17
5620.62831 1.32323e-17
5623.63281 1.33126e-17
5626.63731 1.34306e-17
5629.64181 1.35533e-17
5632.63630 1.36233e-17
5635.64080 1.37302e-17
5638.64530 1.38824e-17
5641.64980 1.39530e-17
5644.64429 1.39904e-17
5647.64879 1.40538e-17
5650.65329 1.41125e-17
5653.65779 1.40930e-17
5656.66229 1.39624e-17
5659.65677 1.37724e-17
5662.66127 1.34156e-17
5665.66577 1.29335e-17
5668.67027 1.24334e-17
5671.66476 1.18018e-17
5674.66926 1.10884e-17
5677.67376 1.03366e-17
5680.67826 9.59423e-18
5683.68276 8.91335e-18
5686.67724 8.16652e-18
5689.68174 7.43802e-18
5692.68624 6.92846e-18
5695.69074 6.49465e-18
5698.68523 6.00295e-18
5701.68973 5.58452e-18
5704.69423 5.33805e-18
5707.69873 5.18283e-18
5710.70323 4.98468e-18
5713.69771 4.74747e-18
5716.70221 4.61383e-18
5719.70671 4.54474e-18
5722.71121 4.49807e-18
5725.71571 4.48480e-18
5728.71020 4.48842e-18
5731.71470 4.50273e-18
5734.71920 4.56229e-18
5737.72370 4.65279e-18
5740.71818 4.73588e-18
5743.72268 4.83549e-18
5746.72718 4.97499e-18
5749.73168 5.13271e-18
5752.73618 5.27931e-18
5755.73067 5.44245e-18
5758.73517 5.63927e-18
5761.73967 5.81719e-18
5764.74417 6.01245e-18
5767.73865 6.29154e-18
5770.74315 6.58928e-18
5773.74765 6.85406e-18
5776.75215 7.07145e-18
5779.75665 7.36445e-18
5782.75114 7.66678e-18
5785.75564 7.95400e-18
5788.76014 8.27302e-18
5791.76464 8.63008e-18
5794.75912 8.98768e-18
5797.76362 9.32926e-18
5800.76812 9.81651e-18
5803.77262 1.02351e-17
5806.77712 1.05262e-17
5809.77160 1.09664e-17
5812.77610 1.15308e-17
5815.78060 1.19749e-17
5818.78510 1.23488e-17
5821.77959 1.27754e-17
5824.78409 1.32484e-17
5827.78859 1.36633e-17
5830.79309 1.41077e-17
5833.79759 1.45457e-17
5836.79208 1.49356e-17
5839.79658 1.53279e-17
5842.80108 1.57695e-17
5845.80558 1.62928e-17
5848.80006 1.68165e-17
5851.80456 1.73675e-17
5854.80906 1.80845e-17
5857.81356 1.87840e-17
5860.81806 1.94259e-17
5863.81254 2.01801e-17
5866.81704 2.09999e-17
5869.82154 2.17516e-17
5872.82604 2.25027e-17
5875.82053 2.32826e-17
5878.82503 2.39271e-17
5881.82953 2.43994e-17
5884.83403 2.48515e-17
5887.83853 2.52534e-17
5890.83302 2.56910e-17
5893.83752 2.61484e-17
5896.84202 2.66070e-17
5899.84652 2.70690e-17
5902.84100 2.74984e-17
5905.84550 2.78691e-17
5908.85000 2.81362e-17
5911.85450 2.82139e-17
5914.85900 2.81526e-17
5917.85349 2.80848e-17
5920.85799 2.79530e-17
5923.86249 2.78540e-17
5926.86699 2.77149e-17
5929.87148 2.75301e-17
5932.86597 2.72847e-17
5935.87047 2.69446e-17
5938.87497 2.65173e-17
5941.87947 2.61415e-17
5944.87396 2.57993e-17
5947.87846 2.55025e-17
5950.88296 2.53720e-17
5953.88746 2.52481e-17
5956.89196 2.50222e-17
5959.88644 2.47343e-17
5962.89094 2.44960e-17
5965.89544 2.42799e-17
5968.89994 2.39834e-17
5971.89443 2.37734e-17
5974.89893 2.36778e-17
5977.90343 2.34229e-17
5980.90793 2.30351e-17
5983.91243 2.28022e-17
5986.90691 2.26696e-17
5989.91141 2.25069e-17
5992.91591 2.23349e-17
5995.92041 2.21256e-17
5998.91490 2.19748e-17
6001.91940 2.18976e-17
6004.92390 2.17801e-17
6007.92840 2.16287e-17
6010.93290 2.14513e-17
6013.92738 2.11811e-17
6016.93188 2.10095e-17
6019.93638 2.08878e-17
6022.94088 2.06215e-17
6025.94538 2.03070e-17
6028.93987 2.01223e-17
6031.94437 1.98976e-17
6034.94887 1.95455e-17
6037.95337 1.93229e-17
6040.94785 1.91452e-17
6043.95235 1.89310e-17
6046.95685 1.88295e-17
6049.96135 1.86808e-17
6052.96585 1.84334e-17
6055.96034 1.82172e-17
6058.96484 1.80455e-17
6061.96934 1.78937e-17
6064.97384 1.77121e-17
6067.96832 1.75064e-17
6070.97282 1.72237e-17
6073.97732 1.70493e-17
6076.98182 1.69019e-17
6079.98632 1.66698e-17
6082.98081 1.65172e-17
6085.98531 1.63778e-17
6088.98981 1.61926e-17
6091.99431 1.60161e-17
6094.98879 1.59521e-17
6097.99329 1.59648e-17
6100.99779 1.59119e-17
6104.00229 1.58742e-17
6106.99678 1.59550e-17
6110.00128 1.59747e-17
6113.00578 1.59598e-17
6116.01028 1.60059e-17
6119.01478 1.60024e-17
6122.00926 1.60144e-17
6125.01376 1.60680e-17
6128.01826 1.60822e-17
6131.02276 1.60997e-17
6134.02726 1.62041e-17
6137.02175 1.63158e-17
6140.02625 1.63853e-17
6143.03075 1.63814e-17
6146.03525 1.63210e-17
6149.02973 1.63861e-17
6152.03423 1.63636e-17
6155.03873 1.62294e-17
6158.04323 1.60751e-17
6161.04773 1.60532e-17
6164.04222 1.60917e-17
6167.04672 1.58900e-17
6170.05122 1.56171e-17
6173.05572 1.54421e-17
6176.05020 1.53087e-17
6179.05470 1.51666e-17
6182.05920 1.49685e-17
6185.06370 1.47704e-17
6188.06820 1.45522e-17
6191.06268 1.43129e-17
6194.06718 1.41077e-17
6197.07168 1.40223e-17
6200.07618 1.39317e-17
6203.08068 1.38097e-17
6206.07517 1.37365e-17
6209.07967 1.36591e-17
6212.08417 1.36087e-17
6215.08867 1.36038e-17
6218.08316 1.35452e-17
6221.08766 1.35319e-17
6224.09216 1.35374e-17
6227.09666 1.34641e-17
6230.10116 1.34560e-17
6233.09564 1.34761e-17
6236.10014 1.33377e-17
6239.10464 1.31614e-17
6242.10914 1.30687e-17
6245.10363 1.30206e-17
6248.10813 1.29683e-17
6251.11263 1.29398e-17
6254.11713 1.29278e-17
6257.12163 1.28650e-17
6260.11611 1.27236e-17
6263.12061 1.25446e-17
6266.12511 1.23163e-17
6269.12961 1.19157e-17
6272.12410 1.14098e-17
6275.12860 1.09169e-17
6278.13310 1.04387e-17
6281.13760 9.88441e-18
6284.14210 9.25746e-18
6287.13658 8.67726e-18
6290.14108 8.12173e-18
6293.14558 7.54981e-18
6296.15008 6.99312e-18
6299.14457 6.41949e-18
6302.14907 5.87155e-18
6305.15357 5.39376e-18
6308.15807 4.92439e-18
6311.16257 4.54862e-18
6314.15705 4.29605e-18
6317.16155 4.07444e-18
6320.16605 3.95548e-18
6323.17055 3.93088e-18
6326.16503 4.01144e-18
6329.16953 4.18558e-18
6332.17404 4.45311e-18
6335.17854 4.81363e-18
6338.18304 5.25509e-18
6341.17752 5.79423e-18
6344.18202 6.43457e-18
6347.18652 7.17335e-18
6350.19102 7.91321e-18
6353.18551 8.60817e-18
6356.19001 9.31195e-18
6359.19451 9.97533e-18
6362.19901 1.05530e-17
6365.20351 1.10575e-17
6368.19799 1.14395e-17
6371.20249 1.17442e-17
6374.20699 1.20449e-17
6377.21149 1.23583e-17
6380.20597 1.26535e-17
6383.21047 1.29451e-17
6386.21497 1.32229e-17
6389.21947 1.34663e-17
6392.22397 1.36612e-17
6395.21846 1.38200e-17
6398.22296 1.39682e-17
6401.22746 1.41513e-17
6404.23196 1.43982e-17
6407.22645 1.46696e-17
6410.23095 1.48330e-17
6413.23545 1.48934e-17
6416.23995 1.50636e-17
6419.24445 1.53591e-17
6422.23893 1.55597e-17
6425.24343 1.56386e-17
6428.24793 1.57420e-17
6431.25243 1.59354e-17
6434.25693 1.60789e-17
6437.25141 1.62281e-17
6440.25591 1.64174e-17
6443.26041 1.66234e-17
6446.26491 1.68301e-17
6449.25940 1.70444e-17
6452.26390 1.71745e-17
6455.26840 1.72599e-17
6458.27290 1.73953e-17
6461.27740 1.74879e-17
6464.27189 1.74820e-17
6467.27639 1.74441e-17
6470.28089 1.74019e-17
6473.28539 1.73691e-17
6476.27987 1.72415e-17
6479.28437 1.71770e-17
6482.28887 1.70217e-17
6485.29337 1.67802e-17
6488.29787 1.65506e-17
6491.29236 1.64384e-17
6494.29686 1.62197e-17
6497.30136 1.58821e-17
6500.30586 1.55871e-17
6503.30034 1.53534e-17
6506.30484 1.50606e-17
6509.30934 1.47092e-17
6512.31384 1.44546e-17
6515.31834 1.42875e-17
6518.31283 1.41021e-17
6521.31733 1.39405e-17
6524.32183 1.38146e-17
6527.32633 1.37626e-17
6530.32081 1.36380e-17
6533.32531 1.35718e-17
6536.32981 1.34241e-17
6539.33431 1.32521e-17
6542.33881 1.32619e-17
6545.33330 1.33769e-17
6548.33780 1.33883e-17
6551.34230 1.34619e-17
6554.34680 1.36159e-17
6557.34128 1.37833e-17
6560.34578 1.39806e-17
6563.35028 1.41401e-17
6566.35478 1.43565e-17
6569.35928 1.46752e-17
6572.35377 1.49467e-17
6575.35827 1.52241e-17
6578.36277 1.55666e-17
6581.36727 1.59342e-17
6584.37177 1.64327e-17
6587.36625 1.69225e-17
6590.37075 1.73735e-17
6593.37525 1.78182e-17
6596.37975 1.82919e-17
6599.37424 1.88238e-17
6602.37874 1.92036e-17
6605.38324 1.94474e-17
6608.38774 1.96413e-17
6611.39224 1.97807e-17
6614.38672 2.00012e-17
6617.39122 2.01945e-17
6620.39572 2.03073e-17
6623.40022 2.05132e-17
6626.39471 2.05420e-17
6629.39921 2.04364e-17
6632.40371 2.03250e-17
6635.40821 2.03117e-17
6638.41271 2.03433e-17
6641.40719 2.04025e-17
6644.41169 2.04991e-17
6647.41619 2.07378e-17
6650.42069 2.10934e-17
6653.41518 2.14519e-17
6656.41968 2.18245e-17
6659.42418 2.22133e-17
6662.42868 2.24338e-17
6665.43318 2.25291e-17
6668.42766 2.28043e-17
6671.43216 2.31731e-17
6674.43666 2.34977e-17
6677.44116 2.37818e-17
6680.43565 2.39344e-17
6683.44015 2.41015e-17
6686.44465 2.41830e-17
6689.44915 2.41873e-17
6692.45365 2.42967e-17
6695.44813 2.43688e-17
6698.45263 2.43870e-17
6701.45713 2.45207e-17
6704.46163 2.45939e-17
6707.45611 2.44824e-17
6710.46061 2.43894e-17
6713.46511 2.42304e-17
6716.46961 2.39040e-17
6719.47411 2.37526e-17
6722.46860 2.37295e-17
6725.47310 2.35417e-17
6728.47760 2.32900e-17
6731.48210 2.30875e-17
6734.48660 2.29338e-17
6737.48109 2.26794e-17
6740.48559 2.23560e-17
6743.49009 2.20630e-17
6746.49459 2.16886e-17
6749.48907 2.13755e-17
6752.49357 2.12142e-17
6755.49807 2.10746e-17
6758.50257 2.09218e-17
6761.50707 2.07246e-17
6764.50155 2.04566e-17
6767.50605 2.02100e-17
6770.51055 1.99834e-17
6773.51505 1.97814e-17
6776.50954 1.95566e-17
6779.51404 1.94964e-17
6782.51854 1.95105e-17
6785.52304 1.94055e-17
6788.52754 1.93457e-17
6791.52203 1.92123e-17
6794.52653 1.89639e-17
6797.53103 1.87780e-17
6800.53553 1.87252e-17
6803.53001 1.87571e-17
6806.53451 1.87812e-17
6809.53901 1.87804e-17
6812.54351 1.87838e-17
6815.54801 1.87814e-17
6818.54250 1.87595e-17
6821.54700 1.86639e-17
6824.55150 1.84957e-17
6827.55600 1.83517e-17
6830.55048 1.81137e-17
6833.55498 1.80173e-17
6836.55948 1.77322e-17
6839.56398 1.75798e-17
6842.56848 1.73437e-17
6845.56297 1.69627e-17
6848.56747 1.65313e-17
6851.57197 1.61060e-17
6854.57647 1.58625e-17
6857.57095 1.56515e-17
6860.57545 1.50646e-17
6863.57995 1.43221e-17
6866.58445 1.38020e-17
6869.58895 1.33656e-17
6872.58344 1.30306e-17
6875.58794 1.28379e-17
6878.59244 1.25886e-17
6881.59694 1.21060e-17
6884.59142 1.15096e-17
6887.59592 1.10924e-17
6890.60042 1.08606e-17
6893.60492 1.06356e-17
6896.60942 1.04915e-17
6899.60391 1.05027e-17
6902.60841 1.03975e-17
6905.61291 1.01200e-17
6908.61741 9.86731e-18
6911.62191 9.73625e-18
6914.61639 9.63198e-18
6917.62089 9.49587e-18
6920.62539 9.47644e-18
6923.62989 9.54856e-18
6926.62438 9.60587e-18
6929.62888 9.76152e-18
6932.63338 1.00503e-17
6935.63788 1.02782e-17
6938.64238 1.04027e-17
6941.63686 1.04908e-17
6944.64136 1.06403e-17
6947.64586 1.08249e-17
6950.65036 1.10473e-17
6953.64484 1.13257e-17
6956.64934 1.16425e-17
6959.65384 1.19898e-17
6962.65834 1.23799e-17
6965.66284 1.26938e-17
6968.65733 1.28496e-17
6971.66183 1.30369e-17
6974.66633 1.33780e-17
6977.67083 1.38922e-17
6980.66532 1.44232e-17
6983.66982 1.48473e-17
6986.67432 1.52073e-17
6989.67882 1.53440e-17
6992.68332 1.54946e-17
6995.67780 1.59317e-17
6998.68230 1.63729e-17
7001.68680 1.65676e-17
7004.69130 1.68551e-17
7007.68578 1.71338e-17
7010.69028 1.73640e-17
7013.69478 1.76939e-17
7016.69928 1.78767e-17
7019.70378 1.78268e-17
7022.69827 1.77715e-17
7025.70277 1.79421e-17
7028.70727 1.82739e-17
7031.71177 1.88779e-17
7034.70626 1.94569e-17
7037.71076 1.99690e-17
7040.71526 2.03976e-17
7043.71976 2.07857e-17
7046.72426 2.10478e-17
7049.71874 2.11821e-17
7052.72324 2.11698e-17
7055.72774 2.12124e-17
7058.73224 2.14187e-17
7061.73674 2.16076e-17
7064.73123 2.16836e-17
7067.73573 2.17410e-17
7070.74023 2.18077e-17
7073.74473 2.17973e-17
7076.73921 2.17437e-17
7079.74371 2.16138e-17
7082.74821 2.13544e-17
7085.75271 2.12792e-17
7088.75721 2.13172e-17
7091.75170 2.13575e-17
7094.75620 2.12213e-17
7097.76070 2.11250e-17
7100.76520 2.11136e-17
7103.75968 2.09319e-17
7106.76418 2.05644e-17
7109.76868 2.01800e-17
7112.77318 1.98203e-17
7115.77768 1.94716e-17
7118.77217 1.92027e-17
7121.77667 1.91071e-17
7124.78117 1.91204e-17
7127.78567 1.90021e-17
7130.78015 1.86565e-17
7133.78465 1.82428e-17
7136.78915 1.80553e-17
7139.79365 1.77317e-17
7142.79815 1.74080e-17
7145.79264 1.71633e-17
7148.79714 1.68934e-17
7151.80164 1.67811e-17
7154.80614 1.67943e-17
7157.80062 1.68254e-17
7160.80512 1.68357e-17
7163.80962 1.68841e-17
7166.81412 1.69554e-17
7169.81862 1.66907e-17
7172.81311 1.61541e-17
7175.81761 1.59253e-17
7178.82211 1.58592e-17
7181.82661 1.57272e-17
7184.82109 1.57126e-17
7187.82559 1.58666e-17
7190.83009 1.59256e-17
7193.83459 1.59795e-17
7196.83909 1.61789e-17
7199.83358 1.64350e-17
7202.83808 1.66333e-17
7205.84258 1.66075e-17
7208.84708 1.63537e-17
7211.84156 1.62981e-17
7214.84606 1.65245e-17
7217.85056 1.65851e-17
7220.85506 1.64694e-17
7223.85956 1.63577e-17
7226.85405 1.62156e-17
7229.85855 1.64055e-17
7232.86305 1.66795e-17
7235.86755 1.65717e-17
7238.86203 1.64572e-17
7241.86653 1.63704e-17
7244.87103 1.59664e-17
7247.87553 1.55817e-17
7250.88003 1.56029e-17
7253.87452 1.57688e-17
7256.87902 1.59338e-17
7259.88352 1.60766e-17
7262.88802 1.61400e-17
7265.88250 1.62443e-17
7268.88700 1.64405e-17
7271.89150 1.65215e-17
7274.89600 1.64196e-17
7277.90050 1.63145e-17
7280.89498 1.62537e-17
7283.89948 1.64144e-17
7286.90398 1.67523e-17
7289.90848 1.71094e-17
7292.91298 1.73313e-17
7295.90747 1.74679e-17
7298.91197 1.75559e-17
7301.91647 1.75877e-17
7304.92097 1.75580e-17
7307.91546 1.74883e-17
7310.91996 1.74449e-17
7313.92446 1.76456e-17
7316.92896 1.80252e-17
7319.93346 1.81238e-17
7322.92794 1.79798e-17
7325.93244 1.79995e-17
7328.93694 1.80718e-17
7331.94144 1.80347e-17
7334.93593 1.79367e-17
7337.94043 1.79130e-17
7340.94492 1.76878e-17
7343.94942 1.73209e-17
7346.95392 1.70686e-17
7349.94841 1.70394e-17
7352.95291 1.70380e-17
7355.95741 1.69853e-17
7358.96191 1.69959e-17
7361.95640 1.69869e-17
7364.96090 1.67833e-17
7367.96540 1.64561e-17
7370.96990 1.61523e-17
7373.97440 1.59231e-17
7376.96888 1.57633e-17
7379.97338 1.56251e-17
7382.97788 1.56273e-17
7385.98238 1.56101e-17
7388.98688 1.56297e-17
7391.98137 1.55732e-17
7394.98587 1.55003e-17
7397.99037 1.53745e-17
7400.99487 1.51150e-17
7403.98935 1.48780e-17
7406.99385 1.47009e-17
7409.99835 1.45788e-17
7413.00285 1.46509e-17
7416.00735 1.47936e-17
7419.00184 1.48276e-17
7422.00634 1.48749e-17
7425.01084 1.49588e-17
7428.01534 1.50119e-17
7431.00982 1.49406e-17
7434.01432 1.46939e-17
7437.01882 1.45086e-17
7440.02332 1.45408e-17
7443.02782 1.46937e-17
7446.02231 1.47857e-17
7449.02681 1.49313e-17
7452.03131 1.51171e-17
7455.03581 1.51523e-17
7458.03029 1.51535e-17
7461.03479 1.51854e-17
7464.03929 1.51385e-17
7467.04379 1.49991e-17
7470.04829 1.47538e-17
7473.04278 1.45299e-17
7476.04728 1.44560e-17
7479.05178 1.43250e-17
7482.05628 1.43385e-17
7485.05076 1.45744e-17
7488.05526 1.47154e-17
7491.05976 1.47756e-17
7494.06426 1.48386e-17
7497.06876 1.47397e-17
7500.06325 1.45774e-17
7503.06775 1.44907e-17
7506.07225 1.42321e-17
7509.07675 1.40329e-17
7512.07123 1.40698e-17
7515.07573 1.41403e-17
7518.08023 1.42284e-17
7521.08473 1.44074e-17
7524.08923 1.45558e-17
7527.08372 1.44795e-17
7530.08822 1.42840e-17
7533.09272 1.41956e-17
7536.09722 1.40896e-17
7539.09170 1.39340e-17
7542.09620 1.38028e-17
7545.10070 1.36200e-17
7548.10520 1.35425e-17
7551.10970 1.36921e-17
7554.10419 1.37421e-17
7557.10869 1.36665e-17
7560.11319 1.35393e-17
7563.11769 1.33529e-17
7566.12219 1.32084e-17
7569.11667 1.29867e-17
7572.12117 1.26894e-17
7575.12567 1.25950e-17
7578.13017 1.24397e-17
7581.12466 1.20347e-17
7584.12916 1.15828e-17
7587.13366 1.12434e-17
7590.13816 1.11756e-17
7593.14266 1.09599e-17
7596.13714 1.07906e-17
7599.14164 1.08635e-17
7602.14614 1.06907e-17
7605.15064 1.06029e-17
7608.14513 1.05530e-17
7611.14963 1.02078e-17
7614.15413 9.78785e-18
7617.15863 9.57715e-18
7620.16313 9.51278e-18
7623.15761 9.41028e-18
7626.16211 9.32832e-18
7629.16661 9.48965e-18
7632.17111 9.75155e-18
7635.16560 9.78262e-18
7638.17010 9.73640e-18
7641.17460 9.74519e-18
7644.17910 9.55726e-18
7647.18360 9.32699e-18
7650.17808 9.23011e-18
7653.18258 9.08959e-18
7656.18708 8.88507e-18
7659.19158 8.77254e-18
7662.18607 8.78043e-18
7665.19057 8.91114e-18
7668.19507 9.13986e-18
7671.19957 9.26388e-18
7674.20407 9.28239e-18
7677.19855 9.48131e-18
7680.20305 9.82557e-18
7683.20755 1.01346e-17
7686.21205 1.01590e-17
7689.20654 9.67734e-18
7692.21104 9.43049e-18
7695.21554 9.53945e-18
7698.22004 9.62748e-18
7701.22454 9.64192e-18
7704.21902 9.83091e-18
7707.22352 1.01041e-17
7710.22802 1.02695e-17
7713.23252 1.04179e-17
7716.22701 1.06398e-17
7719.23151 1.08958e-17
7722.23601 1.10518e-17
7725.24051 1.10642e-17
7728.24501 1.10838e-17
7731.23949 1.10984e-17
7734.24399 1.12281e-17
7737.24849 1.14043e-17
7740.25299 1.15317e-17
7743.24748 1.17730e-17
7746.25198 1.21540e-17
7749.25648 1.25608e-17
7752.26098 1.28199e-17
7755.26548 1.31081e-17
7758.25996 1.34555e-17
7761.26446 1.36826e-17
7764.26896 1.39268e-17
7767.27346 1.40992e-17
7770.26795 1.42233e-17
7773.27245 1.44645e-17
7776.27695 1.45252e-17
7779.28145 1.45319e-17
7782.28595 1.45344e-17
7785.28043 1.43123e-17
7788.28493 1.40593e-17
7791.28943 1.40552e-17
7794.29393 1.42609e-17
7797.29843 1.44281e-17
7800.29291 1.45111e-17
7803.29742 1.45549e-17
7806.30192 1.44781e-17
7809.30642 1.43640e-17
7812.30090 1.43405e-17
7815.30540 1.43143e-17
7818.30990 1.42074e-17
7821.31440 1.41681e-17
7824.31890 1.41134e-17
7827.31339 1.38352e-17
7830.31789 1.35532e-17
7833.32239 1.32781e-17
7836.32689 1.29654e-17
7839.32137 1.27205e-17
7842.32587 1.28156e-17
7845.33037 1.31082e-17
7848.33487 1.34941e-17
7851.33937 1.36827e-17
7854.33385 1.34196e-17
7857.33835 1.31070e-17
7860.34285 1.29221e-17
7863.34735 1.27650e-17
7866.34184 1.26724e-17
7869.34634 1.26950e-17
7872.35084 1.28101e-17
7875.35534 1.29927e-17
7878.35984 1.31331e-17
7881.35433 1.30457e-17
7884.35883 1.28783e-17
7887.36333 1.28957e-17
7890.36783 1.30576e-17
7893.36231 1.33587e-17
7896.36681 1.38112e-17
7899.37131 1.41354e-17
7902.37581 1.36498e-17
7905.38031 1.29404e-17
7908.37480 1.27461e-17
7911.37930 1.32582e-17
7914.38380 1.36147e-17
7917.38829 1.34853e-17
7920.38278 1.34058e-17
7923.38728 1.32068e-17
7926.39178 1.31119e-17
7929.39628 1.35912e-17
7932.40078 1.36468e-17
7935.39527 1.33015e-17
7938.39977 1.30095e-17
7941.40427 1.29922e-17
7944.40877 1.28741e-17
7947.41327 1.27084e-17
7950.40775 1.25514e-17
7953.41225 1.25536e-17
7956.41675 1.23204e-17
7959.42125 1.21139e-17
7962.41574 1.21588e-17
7965.42024 1.23539e-17
7968.42474 1.25789e-17
7971.42924 1.27566e-17
7974.43374 1.29190e-17
7977.42822 1.29778e-17
7980.43272 1.28880e-17
7983.43722 1.26380e-17
7986.44172 1.21283e-17
7989.43621 1.17991e-17
7992.44071 1.14844e-17
7995.44521 1.13223e-17
7998.44971 1.13991e-17
8001.45421 1.15883e-17
8004.44869 1.17854e-17
8007.45319 1.19506e-17
8010.45769 1.19615e-17
8013.46219 1.18712e-17
8016.45668 1.18245e-17
8019.46118 1.18043e-17
8022.46568 1.17147e-17
8025.47018 1.14922e-17
8028.47468 1.12405e-17
8031.46916 1.11456e-17
8034.47366 1.10877e-17
8037.47816 1.10048e-17
8040.48266 1.10228e-17
8043.47715 1.09776e-17
8046.48165 1.10494e-17
8049.48615 1.12986e-17
8052.49065 1.13422e-17
8055.49515 1.14055e-17
8058.48963 1.14587e-17
8061.49413 1.13374e-17
8064.49863 1.12432e-17
8067.50313 1.11554e-17
8070.49762 1.09115e-17
8073.50212 1.07249e-17
8076.50662 1.07426e-17
8079.51112 1.07704e-17
8082.51562 1.06690e-17
8085.51010 1.05026e-17
8088.51460 1.05365e-17
8091.51910 1.05929e-17
8094.52360 1.07382e-17
8097.52810 1.10536e-17
8100.52259 1.11357e-17
8103.52709 1.11320e-17
8106.53159 1.11667e-17
8109.53609 1.11215e-17
8112.53057 1.10347e-17
8115.53507 1.10201e-17
8118.53957 1.10666e-17
8121.54407 1.09880e-17
8124.54857 1.07803e-17
8127.54306 1.05402e-17
8130.54756 1.02587e-17
8133.55206 1.01760e-17
8136.55656 1.01303e-17
8139.55104 1.00049e-17
8142.55554 9.92514e-18
8145.56004 9.84716e-18
8148.56454 9.73028e-18
8151.56904 9.55168e-18
8154.56353 9.52343e-18
8157.56803 9.47976e-18
8160.57253 9.41699e-18
8163.57703 9.48640e-18
8166.57151 9.61541e-18
8169.57601 9.63545e-18
8172.58051 9.64288e-18
8175.58501 9.75667e-18
8178.58951 9.82377e-18
8181.58399 9.76393e-18
8184.58849 9.62672e-18
8187.59299 9.48032e-18
8190.59749 9.30708e-18
8193.59198 9.26724e-18
8196.59648 9.20903e-18
8199.60098 9.16997e-18
8202.60548 9.11769e-18
8205.60998 9.11753e-18
8208.60447 9.10206e-18
8211.60896 9.06974e-18
8214.61347 9.12047e-18
8217.61796 9.04742e-18
8220.61245 8.80479e-18
8223.61695 8.66742e-18
8226.62145 8.64524e-18
8229.62595 8.62956e-18
8232.63045 8.65470e-18
8235.62494 8.71149e-18
8238.62944 8.78939e-18
8241.63394 8.77428e-18
8244.63844 8.66787e-18
8247.64294 8.46011e-18
8250.63742 8.21976e-18
8253.64192 7.89137e-18
8256.64642 7.54250e-18
8259.65092 7.27229e-18
8262.64541 6.98537e-18
8265.64991 6.62953e-18
8268.65441 6.36139e-18
8271.65891 6.12337e-18
8274.65339 5.77589e-18
8277.65789 5.44983e-18
8280.66239 5.18216e-18
8283.66689 4.88688e-18
8286.67139 4.61198e-18
8289.66588 4.42326e-18
8292.67037 4.31677e-18
8295.67488 4.21580e-18
8298.67937 4.05995e-18
8301.68388 3.91427e-18
8304.67836 3.82479e-18
8307.68286 3.67782e-18
8310.68736 3.44056e-18
8313.69186 3.21440e-18
8316.68635 3.02335e-18
8319.69084 2.84324e-18
8322.69535 2.69043e-18
8325.69984 2.58310e-18
8328.70435 2.51075e-18
8331.69883 2.44162e-18
8334.70333 2.39297e-18
8337.70783 2.40804e-18
8340.71233 2.43213e-18
8343.70681 2.43713e-18
8346.71132 2.43437e-18
8349.71581 2.40720e-18
8352.72032 2.35156e-18
8355.72481 2.33618e-18
8358.71930 2.41905e-18
8361.72380 2.50927e-18
8364.72830 2.48017e-18
8367.73280 2.36807e-18
8370.73730 2.35619e-18
8373.73179 2.42229e-18
8376.73629 2.41759e-18
8379.74079 2.39998e-18
8382.74529 2.47903e-18
8385.73977 2.66350e-18
8388.74427 2.81750e-18
8391.74877 2.91045e-18
8394.75327 3.02951e-18
8397.74776 3.13926e-18
8400.75226 3.22157e-18
8403.75676 3.39412e-18
8406.76126 3.47028e-18
8409.76576 3.58006e-18
8412.76024 3.75566e-18
8415.76474 3.85225e-18
8418.76924 3.91270e-18
8421.77374 3.96839e-18
8424.77824 3.92421e-18
8427.77273 3.90854e-18
8430.77722 4.03222e-18
8433.78173 4.10539e-18
8436.78622 4.20591e-18
8439.78071 4.34554e-18
8442.78521 4.29756e-18
8445.78971 4.22449e-18
8448.79421 4.18808e-18
8451.78869 4.23374e-18
8454.79320 4.42651e-18
8457.79769 4.58486e-18
8460.80220 4.74666e-18
8463.80669 4.92109e-18
8466.80118 4.94436e-18
8469.80568 4.96976e-18
8472.81018 5.04918e-18
8475.81468 5.04752e-18
8478.81918 5.03658e-18
8481.81367 5.02986e-18
8484.81817 5.01323e-18
8487.82267 4.90420e-18
8490.82717 4.67559e-18
8493.82165 4.78924e-18
8496.82615 5.03127e-18
8499.83065 5.35728e-18
8502.83515 5.64901e-18
8505.83965 5.69576e-18
8508.83414 5.64941e-18
8511.83864 5.70012e-18
8514.84314 6.04886e-18
8517.84764 6.40254e-18
8520.84212 6.42258e-18
8523.84662 6.33243e-18
8526.85112 6.32005e-18
8529.85562 6.40638e-18
8532.86012 6.74966e-18
8535.85461 7.19352e-18
8538.85910 7.43861e-18
8541.86361 7.50317e-18
8544.86810 7.49578e-18
8547.86259 7.55074e-18
8550.86709 7.72240e-18
8553.87159 7.98730e-18
8556.87609 8.32239e-18
8559.88059 8.58277e-18
8562.87507 8.87052e-18
8565.87957 9.31057e-18
8568.88407 9.79041e-18
8571.88857 1.01694e-17
8574.88306 1.05242e-17
8577.88756 1.09021e-17
8580.89206 1.11676e-17
8583.89656 1.13368e-17
8586.90106 1.15213e-17
8589.89555 1.17048e-17
8592.90005 1.18312e-17
8595.90455 1.18617e-17
8598.90905 1.18501e-17
8601.90353 1.20014e-17
8604.90803 1.22250e-17
8607.91253 1.22746e-17
8610.91703 1.23577e-17
8613.92153 1.25619e-17
8616.91602 1.27970e-17
8619.92052 1.32366e-17
8622.92502 1.36995e-17
8625.92951 1.40476e-17
8628.93402 1.44438e-17
8631.92850 1.47975e-17
8634.93300 1.51315e-17
8637.93750 1.55443e-17
8640.94200 1.61569e-17
8643.93649 1.65115e-17
8646.94099 1.66693e-17
8649.94549 1.67799e-17
8652.94999 1.68984e-17
8655.95449 1.68066e-17
8658.94897 1.64819e-17
8661.95347 1.64021e-17
8664.95797 1.66139e-17
8667.96247 1.68569e-17
8670.95695 1.67089e-17
8673.96146 1.64170e-17
8676.96595 1.64659e-17
8679.97046 1.64536e-17
8682.97495 1.62447e-17
8685.96944 1.62752e-17
8688.97394 1.63979e-17
8691.97844 1.65983e-17
8694.98294 1.69295e-17
8697.98744 1.71823e-17
8700.98193 1.74252e-17
8703.98643 1.75830e-17
8706.99093 1.74894e-17
8709.99543 1.73720e-17
8712.98991 1.73049e-17
8715.99441 1.70160e-17
8718.99891 1.67006e-17
8722.00341 1.65460e-17
8724.99790 1.63893e-17
8728.00240 1.61793e-17
8731.00690 1.59289e-17
8734.01140 1.56448e-17
8737.01590 1.54737e-17
8740.01038 1.54109e-17
8743.01488 1.52537e-17
8746.01938 1.52893e-17
8749.02388 1.54744e-17
8752.02838 1.55505e-17
8755.02287 1.55325e-17
8758.02736 1.53938e-17
8761.03187 1.52583e-17
8764.03636 1.51337e-17
8767.03085 1.50424e-17
8770.03535 1.50970e-17
8773.03985 1.51158e-17
8776.04435 1.49516e-17
8779.03883 1.47670e-17
8782.04334 1.46510e-17
8785.04783 1.45884e-17
8788.05234 1.44932e-17
8791.05683 1.42083e-17
8794.05132 1.38661e-17
8797.05582 1.36218e-17
8800.06032 1.33417e-17
8803.06482 1.32210e-17
8806.06932 1.31588e-17
8809.06381 1.30106e-17
8812.06831 1.29219e-17
8815.07281 1.30183e-17
8818.07731 1.32253e-17
8821.07179 1.32217e-17
8824.07629 1.29883e-17
8827.08079 1.28471e-17
8830.08529 1.28638e-17
8833.08979 1.28330e-17
8836.08428 1.26037e-17
8839.08878 1.23587e-17
8842.09328 1.23735e-17
8845.09778 1.22917e-17
8848.09226 1.19233e-17
8851.09676 1.13815e-17
8854.10126 1.10178e-17
8857.10576 1.08609e-17
8860.11026 1.08246e-17
8863.10475 1.06153e-17
8866.10924 1.04157e-17
8869.11375 1.02597e-17
8872.11824 1.02355e-17
8875.11273 1.03848e-17
8878.11723 1.05065e-17
8881.12173 1.05785e-17
8884.12623 1.06395e-17
8887.13073 1.06432e-17
8890.12522 1.05710e-17
8893.12971 1.06418e-17
8896.13422 1.11415e-17
8899.13871 1.18939e-17
8902.13320 1.19770e-17
8905.13770 1.09445e-17
8908.14220 9.91726e-18
8911.14670 9.62794e-18
8914.15120 9.79910e-18
8917.14569 9.77692e-18
8920.15019 9.43406e-18
8923.15469 9.18123e-18
8926.15919 9.01402e-18
8929.16369 8.89672e-18
8932.15817 9.12759e-18
8935.16267 9.46385e-18
8938.16717 9.52955e-18
8941.17167 9.27842e-18
8944.16616 8.62778e-18
8947.17066 8.18794e-18
8950.17516 8.32727e-18
8953.17966 8.53852e-18
8956.18416 8.96690e-18
8959.17864 9.21742e-18
8962.18314 9.13673e-18
8965.18764 9.04552e-18
8968.19214 9.09239e-18
8971.18663 9.15387e-18
8974.19113 9.00819e-18
8977.19563 8.74191e-18
8980.20013 8.42307e-18
8983.20463 8.09091e-18
8986.19911 8.06557e-18
8989.20361 8.12724e-18
8992.20811 8.00134e-18
8995.21261 7.83297e-18
8998.20709 7.72033e-18
9001.21160 7.81417e-18
9004.21609 8.03072e-18
9007.22060 8.15512e-18
9010.22509 8.31292e-18
9013.21958 8.46897e-18
9016.22408 8.52936e-18
9019.22858 8.57114e-18
9022.23308 8.58355e-18
9025.22756 8.60613e-18
9028.23207 8.69637e-18
9031.23656 8.69172e-18
9034.24107 8.49911e-18
9037.24556 8.32535e-18
9040.24005 8.37302e-18
9043.24455 8.55289e-18
9046.24905 8.65459e-18
9049.25355 8.62747e-18
9052.24804 8.71082e-18
9055.25254 8.73441e-18
9058.25704 8.80124e-18
9061.26154 8.99842e-18
9064.26604 9.26243e-18
9067.26052 9.29769e-18
9070.26502 9.44542e-18
9073.26952 9.69067e-18
9076.27402 9.90160e-18
9079.26851 9.99855e-18
9082.27301 9.82451e-18
9085.27751 9.73179e-18
9088.28201 9.73858e-18
9091.28651 9.54607e-18
9094.28099 9.30512e-18
9097.28549 9.16393e-18
9100.28999 9.20076e-18
9103.29449 9.47333e-18
9106.29899 9.64939e-18
9109.29348 9.52083e-18
9112.29797 9.27077e-18
9115.30248 9.33573e-18
9118.30697 9.70126e-18
9121.30146 9.65052e-18
9124.30596 9.50850e-18
9127.31046 9.66711e-18
9130.31496 9.82781e-18
9133.30944 1.00506e-17
9136.31394 1.02337e-17
9139.31844 1.02229e-17
9142.32294 1.01870e-17
9145.32744 9.99503e-18
9148.32193 9.90964e-18
9151.32643 9.78137e-18
9154.33093 9.66973e-18
9157.33543 9.66057e-18
9160.33993 9.65096e-18
9163.33442 9.44136e-18
9166.33892 9.17463e-18
9169.34342 8.98252e-18
9172.34792 8.83618e-18
9175.34240 8.63805e-18
9178.34690 8.48186e-18
9181.35140 8.46138e-18
9184.35590 8.34289e-18
9187.36040 8.11315e-18
9190.35489 8.07865e-18
9193.35939 8.18808e-18
9196.36389 8.36668e-18
9199.36838 8.58850e-18
