# wavelength flux
3137.41717 -2.57300e-18
3140.01286 -7.40308e-19
3142.60856 2.07451e-19
3145.20426 -2.17791e-18
3147.79996 -3.09562e-18
3150.39566 1.05065e-17
3152.99135 2.37214e-18
3155.58705 -1.69819e-18
3158.18275 6.78771e-18
3160.77845 6.45222e-18
3163.37415 -7.32438e-19
3165.96984 -7.22591e-19
3168.56554 5.13497e-18
3171.16124 4.61050e-18
3173.75694 6.11903e-18
3176.35264 5.78652e-18
3178.94833 1.77684e-18
3181.53401 1.09488e-18
3184.12971 5.45155e-18
3186.72541 5.31918e-18
3189.32110 2.11151e-18
3191.91680 3.87906e-18
3194.51250 5.76589e-18
3197.10820 3.16032e-18
3199.70390 -9.34112e-19
3202.29959 -7.35134e-19
3204.89529 -4.13441e-19
3207.49099 2.06040e-18
3210.08669 3.69363e-18
3212.68239 5.22926e-18
3215.27808 1.13561e-18
3217.87378 -9.61560e-19
3220.46948 1.79657e-18
3223.06518 2.43844e-18
3225.66088 2.86550e-18
3228.25657 2.05457e-18
3230.84225 1.81078e-18
3233.43795 -1.29100e-18
3236.03365 -1.86751e-18
3238.62934 6.23050e-19
3241.22504 3.54493e-18
3243.82074 2.20108e-18
3246.41644 -1.99483e-18
3249.01214 -6.66670e-19
3251.60783 4.37841e-18
3254.20353 3.48949e-18
3256.79923 -3.43903e-19
3259.39493 1.08137e-18
3261.99063 2.03295e-18
3264.58632 5.00753e-19
3267.18202 -2.27184e-18
3269.77772 -2.68178e-19
3272.37342 3.27092e-18
3274.96912 4.26444e-18
3277.56481 3.61128e-18
3280.16051 1.41478e-18
3282.74619 5.40705e-20
3285.34189 -2.18419e-19
3287.93758 -4.53441e-19
3290.53328 1.13659e-18
3293.12898 3.87092e-18
3295.72468 4.46832e-18
3298.32038 3.29992e-18
3300.91607 -2.69120e-19
3303.51177 -3.56078e-18
3306.10747 -3.84092e-18
3308.70317 -2.24352e-18
3311.29887 -4.43134e-18
3313.89456 -8.42867e-19
3316.49026 -4.26748e-18
3319.08596 -2.31082e-18
3321.68166 -2.54484e-18
3324.27736 -2.59108e-18
3326.87305 -1.52236e-19
3329.46875 3.02128e-18
3332.05443 4.99999e-18
3334.65013 8.20868e-18
3337.24582 6.96467e-18
3339.84152 4.44046e-18
3342.43722 3.21072e-18
3345.03292 4.92251e-18
3347.62862 5.39815e-18
3350.22431 4.22069e-18
3352.82001 4.15959e-18
3355.41571 4.65848e-18
3358.01141 3.92064e-18
3360.60711 3.47155e-18
3363.20280 3.94919e-18
3365.79850 4.07449e-18
3368.39420 3.34089e-18
3370.98990 2.92389e-18
3373.58560 3.27620e-18
3376.18129 3.24149e-18
3378.77699 3.20792e-18
3381.37269 3.91208e-18
3383.95837 3.96593e-18
3386.55406 4.13604e-18
3389.14976 4.33956e-18
3391.74546 2.88318e-18
3394.34116 2.77239e-18
3396.93686 4.29341e-18
3399.53255 4.16754e-18
3402.12825 2.69809e-18
3404.72395 2.50879e-18
3407.31965 2.35349e-18
3409.91535 2.34457e-18
3412.51104 4.00085e-18
3415.10674 4.12760e-18
3417.70244 3.64219e-18
3420.29814 4.40562e-18
3422.89384 4.36878e-18
3425.48953 4.34163e-18
3428.08523 3.85250e-18
3430.68093 3.15487e-18
3433.26661 2.79112e-18
3435.86230 3.29617e-18
3438.45800 3.84036e-18
3441.05370 4.50877e-18
3443.64940 4.84952e-18
3446.24510 5.05958e-18
3448.84079 4.86607e-18
3451.43649 4.09584e-18
3454.03219 3.52324e-18
3456.62789 3.99970e-18
3459.22359 4.12822e-18
3461.81928 3.62536e-18
3464.41498 3.86590e-18
3467.01068 4.50158e-18
3469.60638 5.00748e-18
3472.20208 5.08538e-18
3474.79777 4.38022e-18
3477.39347 3.75096e-18
3479.98917 4.04801e-18
3482.58487 4.39636e-18
3485.17054 3.93652e-18
3487.76624 3.80566e-18
3490.36194 4.16415e-18
3492.95764 3.67282e-18
3495.55334 3.28539e-18
3498.14903 3.80723e-18
3500.74473 4.02344e-18
3503.34043 4.05961e-18
3505.93613 4.20432e-18
3508.53183 4.00773e-18
3511.12752 3.75973e-18
3513.72322 3.23116e-18
3516.31892 3.42692e-18
3518.91462 3.97655e-18
3521.51032 3.54700e-18
3524.10601 3.12070e-18
3526.70171 3.03307e-18
3529.29741 3.44013e-18
3531.89311 3.76930e-18
3534.47878 3.95612e-18
3537.07448 3.87400e-18
3539.67018 3.47229e-18
3542.26588 3.28343e-18
3544.86158 3.69953e-18
3547.45727 3.97488e-18
3550.05297 3.42847e-18
3552.64867 3.06112e-18
3555.24437 3.08220e-18
3557.84007 3.59460e-18
3560.43576 4.22638e-18
3563.03146 3.84619e-18
3565.62716 3.20253e-18
3568.22286 3.59244e-18
3570.81856 4.15994e-18
3573.41425 3.85312e-18
3576.00995 3.56493e-18
3578.60565 3.79102e-18
3581.20135 3.96740e-18
3583.78702 3.99417e-18
3586.38272 3.82323e-18
3588.97842 3.60243e-18
3591.57412 3.40569e-18
3594.16982 3.64762e-18
3596.76551 4.00890e-18
3599.36121 3.66252e-18
3601.95691 3.22535e-18
3604.55261 3.25876e-18
3607.14831 3.58310e-18
3609.74400 4.10879e-18
3612.33970 4.68873e-18
3614.93540 4.78013e-18
3617.53110 4.65033e-18
3620.12680 4.51243e-18
3622.72249 4.65914e-18
3625.31819 4.69203e-18
3627.91389 4.68165e-18
3630.50959 4.82644e-18
3633.09526 4.26816e-18
3635.69096 4.18728e-18
3638.28666 4.54864e-18
3640.88236 4.67999e-18
3643.47806 4.16442e-18
3646.07375 3.63154e-18
3648.66945 3.78802e-18
3651.26515 4.28149e-18
3653.86085 4.51915e-18
3656.45655 4.15947e-18
3659.05224 3.91184e-18
3661.64794 3.89475e-18
3664.24364 3.88948e-18
3666.83934 3.85600e-18
3669.43504 3.77365e-18
3672.03073 3.94490e-18
3674.62643 4.40396e-18
3677.22213 4.63286e-18
3679.81783 4.75086e-18
3682.41353 5.19408e-18
3684.99920 5.33694e-18
3687.59490 5.40261e-18
3690.19060 5.54292e-18
3692.78630 5.74641e-18
3695.38199 5.65620e-18
3697.97769 5.40767e-18
3700.57339 6.32746e-18
3703.16909 6.63033e-18
3705.76479 6.94866e-18
3708.36048 7.26751e-18
3710.95618 7.42826e-18
3713.55188 7.63749e-18
3716.14758 8.00864e-18
3718.74328 8.07803e-18
3721.33897 8.12388e-18
3723.93467 8.16971e-18
3726.53037 8.21555e-18
3729.12607 8.26138e-18
3731.72177 8.30719e-18
3734.30744 8.35301e-18
3736.90314 8.39883e-18
3739.49884 8.44464e-18
3742.09454 8.49044e-18
3744.69023 8.53624e-18
3747.28593 8.58204e-18
3749.88163 8.62783e-18
3752.47733 8.67361e-18
3755.07303 8.71939e-18
3757.66872 8.29971e-18
3760.26442 8.33614e-18
3762.86012 8.38598e-18
3765.45582 8.08577e-18
3768.05152 7.91690e-18
3770.64721 7.60272e-18
3773.24291 6.94987e-18
3775.83861 6.87891e-18
3778.43431 7.04821e-18
3781.03001 6.49419e-18
3783.61568 5.78397e-18
3786.21138 5.39739e-18
3788.80708 5.32706e-18
3791.40278 5.01502e-18
3793.99847 4.68915e-18
3796.59417 4.22681e-18
3799.18987 4.16565e-18
3801.78557 4.26712e-18
3804.38127 3.91229e-18
3806.97696 3.72337e-18
3809.57266 3.68987e-18
3812.16836 3.28593e-18
3814.76406 3.26783e-18
3817.35976 3.23953e-18
3819.95545 3.10903e-18
3822.55115 3.11412e-18
3825.14685 3.07169e-18
3827.74255 2.78655e-18
3830.33825 2.37671e-18
3832.93394 2.73967e-18
3835.51962 2.91956e-18
3838.11532 2.71417e-18
3840.71102 2.82945e-18
3843.30671 3.07404e-18
3845.90241 3.00861e-18
3848.49811 2.94210e-18
3851.09381 3.00050e-18
3853.68951 3.19483e-18
3856.28520 3.28872e-18
3858.88090 3.36047e-18
3861.47660 3.62505e-18
3864.07230 3.84129e-18
3866.66800 3.94541e-18
3869.26369 3.92475e-18
3871.85939 4.03164e-18
3874.45509 4.42819e-18
3877.05079 4.85293e-18
3879.64649 5.27977e-18
3882.24218 5.57720e-18
3884.82786 5.65788e-18
3887.42356 5.65936e-18
3890.01926 6.19610e-18
3892.61495 6.86060e-18
3895.21065 7.17393e-18
3897.80635 7.42794e-18
3900.40205 7.79085e-18
3902.99775 8.05550e-18
3905.59344 8.39605e-18
3908.18914 8.67554e-18
3910.78484 9.01737e-18
3913.38054 8.87480e-18
3915.97624 9.17324e-18
3918.57193 9.50301e-18
3921.16763 9.79989e-18
3923.76333 9.92681e-18
3926.35903 9.96704e-18
3928.95473 1.03429e-17
3931.55042 1.05785e-17
3934.13610 1.07078e-17
3936.73180 1.10392e-17
3939.32750 1.08047e-17
3941.92319 1.07008e-17
3944.51889 1.11992e-17
3947.11459 1.16421e-17
3949.71029 1.17258e-17
3952.30599 1.14424e-17
3954.90168 1.11161e-17
3957.49738 1.12965e-17
3960.09308 1.18734e-17
3962.68878 1.24156e-17
3965.28448 1.26722e-17
3967.88017 1.23826e-17
3970.47587 1.21741e-17
3973.07157 1.26779e-17
3975.66727 1.31176e-17
3978.26297 1.30887e-17
3980.85866 1.29930e-17
3983.45436 1.29544e-17
3986.04004 1.27961e-17
3988.63574 1.29467e-17
3991.23143 1.31354e-17
3993.82713 1.29626e-17
3996.42283 1.29408e-17
3999.01853 1.31332e-17
4001.61423 1.31073e-17
4004.20992 1.29180e-17
4006.80562 1.29769e-17
4009.40132 1.31813e-17
4011.99702 1.34311e-17
4014.59272 1.34893e-17
4017.18841 1.37489e-17
4019.78411 1.37841e-17
4022.37981 1.37064e-17
4024.97551 1.38023e-17
4027.57121 1.36404e-17
4030.16690 1.35496e-17
4032.76260 1.37489e-17
4035.34828 1.41559e-17
4037.94398 1.36192e-17
4040.53967 1.32142e-17
4043.13537 1.33190e-17
4045.73107 1.32910e-17
4048.32677 1.32848e-17
4050.92247 1.32184e-17
4053.51816 1.30514e-17
4056.11386 1.29649e-17
4058.70956 1.31090e-17
4061.30526 1.32152e-17
4063.90096 1.30600e-17
4066.49665 1.28390e-17
4069.09235 1.24293e-17
4071.68805 1.19993e-17
4074.28375 1.19449e-17
4076.87945 1.19825e-17
4079.47514 1.17182e-17
4082.07084 1.13072e-17
4084.66654 1.13513e-17
4087.25222 1.16050e-17
4089.84791 1.12554e-17
4092.44361 1.10787e-17
4095.03931 1.10605e-17
4097.63501 1.09030e-17
4100.23071 1.10279e-17
4102.82640 1.10859e-17
4105.42210 1.11077e-17
4108.01780 1.10281e-17
4110.61350 1.10481e-17
4113.20920 1.09401e-17
4115.80489 1.05471e-17
4118.40059 1.02601e-17
4120.99629 1.01992e-17
4123.59199 1.02325e-17
4126.18769 1.00311e-17
4128.78338 9.69346e-18
4131.37908 9.32715e-18
4133.97478 9.18088e-18
4136.56046 9.14537e-18
4139.15615 8.88888e-18
4141.75185 8.56229e-18
4144.34755 8.40247e-18
4146.94325 8.34093e-18
4149.53895 8.29688e-18
4152.13464 8.25704e-18
4154.73034 8.32405e-18
4157.32604 8.40422e-18
4159.92174 8.36157e-18
4162.51744 8.45672e-18
4165.11313 8.61940e-18
4167.70883 8.64744e-18
4170.30453 8.11691e-18
4172.90023 6.99404e-18
4175.49593 6.63787e-18
4178.09162 7.13377e-18
4180.68732 7.46089e-18
4183.28302 7.86802e-18
4185.87872 7.89325e-18
4188.46439 7.43002e-18
4191.06009 7.38314e-18
4193.65579 7.72098e-18
4196.25149 7.75732e-18
4198.84719 7.68024e-18
4201.44288 7.66713e-18
4204.03858 7.40283e-18
4206.63428 7.19106e-18
4209.22998 7.13371e-18
4211.82568 7.25614e-18
4214.42137 7.49858e-18
4217.01707 7.53752e-18
4219.61277 7.53925e-18
4222.20847 7.76364e-18
4224.80417 7.98270e-18
4227.39986 7.80183e-18
4229.99556 7.89525e-18
4232.59126 8.31781e-18
4235.17694 8.39937e-18
4237.77263 8.06396e-18
4240.36833 8.07091e-18
4242.96403 8.37658e-18
4245.55973 8.34293e-18
4248.15543 8.30045e-18
4250.75112 8.41451e-18
4253.34682 8.44853e-18
4255.94252 8.51207e-18
4258.53822 8.47888e-18
4261.13392 8.47186e-18
4263.72961 8.66086e-18
4266.32531 8.55997e-18
4268.92101 8.51205e-18
4271.51671 8.66198e-18
4274.11241 8.48597e-18
4276.70810 8.39190e-18
4279.30380 8.59850e-18
4281.89950 8.69022e-18
4284.48518 8.52163e-18
4287.08087 8.46031e-18
4289.67657 8.37482e-18
4292.27227 8.35067e-18
4294.86797 8.31320e-18
4297.46367 8.18752e-18
4300.05936 8.22515e-18
4302.65506 8.24953e-18
4305.25076 8.26193e-18
4307.84646 8.49069e-18
4310.44216 8.57315e-18
4313.03785 8.67137e-18
4315.63355 8.95596e-18
4318.22925 8.95249e-18
4320.82495 8.92855e-18
4323.42065 9.06548e-18
4326.01634 9.07178e-18
4328.61204 8.98997e-18
4331.20774 9.04936e-18
4333.80344 9.16516e-18
4336.39914 9.30074e-18
4338.98481 9.38598e-18
4341.58051 9.30001e-18
4344.17621 9.20427e-18
4346.77191 9.24199e-18
4349.36760 9.45640e-18
4351.96330 9.68496e-18
4354.55900 9.59647e-18
4357.15470 9.52195e-18
4359.75040 9.44742e-18
4362.34609 9.37292e-18
4364.94179 9.29842e-18
4367.53749 9.22394e-18
4370.13319 9.14947e-18
4372.72889 9.07500e-18
4375.32458 9.00054e-18
4377.92028 8.92610e-18
4380.51598 8.85166e-18
4383.11168 8.77723e-18
4385.70738 8.70281e-18
4388.29305 8.62841e-18
4390.88875 8.55401e-18
4393.48445 8.49331e-18
4396.08015 8.63732e-18
4398.67584 8.50577e-18
4401.27154 8.35322e-18
4403.86724 8.43703e-18
4406.46294 8.50172e-18
4409.05864 8.42752e-18
4411.65433 8.17047e-18
4414.25003 8.42344e-18
4416.84573 8.53448e-18
4419.44143 8.23933e-18
4422.03713 7.93607e-18
4424.63282 7.79382e-18
4427.22852 7.84214e-18
4429.82422 7.77528e-18
4432.41992 7.62389e-18
4435.01562 7.56692e-18
4437.60129 7.46489e-18
4440.19699 7.41635e-18
4442.79269 7.50207e-18
4445.38839 7.52932e-18
4447.98408 7.47286e-18
4450.57978 7.35869e-18
4453.17548 7.25599e-18
4455.77118 7.30133e-18
4458.36688 7.39068e-18
4460.96257 7.53432e-18
4463.55827 7.73209e-18
4466.15397 7.87060e-18
4468.74967 7.87567e-18
4471.34537 7.82071e-18
4473.94106 7.77946e-18
4476.53676 7.90204e-18
4479.13246 8.21913e-18
4481.72816 8.45867e-18
4484.32386 8.68517e-18
4486.90953 8.80927e-18
4489.50523 8.73279e-18
4492.10093 8.71074e-18
4494.69663 9.15701e-18
4497.29232 9.60731e-18
4499.88802 9.78388e-18
4502.48372 1.01089e-17
4505.07942 1.05610e-17
4507.67512 1.08937e-17
4510.27081 1.08581e-17
4512.86651 1.07804e-17
4515.46221 1.11370e-17
4518.05791 1.13075e-17
4520.65361 1.12115e-17
4523.24930 1.12336e-17
4525.84500 1.14053e-17
4528.44070 1.15422e-17
4531.03640 1.15461e-17
4533.63210 1.18433e-17
4536.22779 1.22045e-17
4538.81347 1.23929e-17
4541.40917 1.27299e-17
4544.00487 1.29948e-17
4546.60056 1.31438e-17
4549.19626 1.31953e-17
4551.79196 1.32289e-17
4554.38766 1.34385e-17
4556.98336 1.38102e-17
4559.57905 1.37769e-17
4562.17475 1.39300e-17
4564.77045 1.42278e-17
4567.36615 1.44617e-17
4569.96185 1.43919e-17
4572.55754 1.42963e-17
4575.15324 1.46287e-17
4577.74894 1.51825e-17
4580.34464 1.53853e-17
4582.94034 1.53241e-17
4585.53603 1.55346e-17
4588.13173 1.60098e-17
4590.71741 1.61703e-17
4593.31311 1.60521e-17
4595.90880 1.61582e-17
4598.50450 1.63596e-17
4601.10020 1.64234e-17
4603.69590 1.65196e-17
4606.29160 1.67763e-17
4608.88729 1.68430e-17
4611.48299 1.67692e-17
4614.07869 1.68655e-17
4616.67439 1.69334e-17
4619.27009 1.68576e-17
4621.86578 1.68334e-17
4624.46148 1.70275e-17
4627.05718 1.70057e-17
4629.65288 1.67812e-17
4632.24858 1.68186e-17
4634.84427 1.67840e-17
4637.42995 1.65609e-17
4640.02565 1.64380e-17
4642.62135 1.63435e-17
4645.21704 1.61904e-17
4647.81274 1.59175e-17
4650.40844 1.55974e-17
4653.00414 1.54570e-17
4655.59984 1.52722e-17
4658.19553 1.49730e-17
4660.79123 1.48962e-17
4663.38693 1.49628e-17
4665.98263 1.49578e-17
4668.57833 1.48057e-17
4671.17402 1.45341e-17
4673.76972 1.43132e-17
4676.36542 1.43259e-17
4678.96112 1.44351e-17
4681.55682 1.44898e-17
4684.15251 1.44747e-17
4686.74821 1.46271e-17
4689.33389 1.46340e-17
4691.92959 1.43700e-17
4694.52528 1.41965e-17
4697.12098 1.42121e-17
4699.71668 1.42698e-17
4702.31238 1.43517e-17
4704.90808 1.41803e-17
4707.50377 1.38474e-17
4710.09947 1.38594e-17
4712.69517 1.39343e-17
4715.29087 1.38249e-17
4717.88657 1.36938e-17
4720.48226 1.36440e-17
4723.07796 1.34802e-17
4725.67366 1.32981e-17
4728.26936 1.32633e-17
4730.86506 1.31832e-17
4733.46075 1.31464e-17
4736.05645 1.32866e-17
4738.65215 1.33645e-17
4741.23783 1.31776e-17
4743.83352 1.29596e-17
4746.42922 1.28471e-17
4749.02492 1.30314e-17
4751.62062 1.33270e-17
4754.21632 1.32200e-17
4756.81201 1.30975e-17
4759.40771 1.30980e-17
4762.00341 1.29473e-17
4764.59911 1.27251e-17
4767.19481 1.26894e-17
4769.79050 1.25205e-17
4772.38620 1.24764e-17
4774.98190 1.23627e-17
4777.57760 1.22634e-17
4780.17330 1.23162e-17
4782.76899 1.23227e-17
4785.36469 1.23285e-17
4787.96039 1.21361e-17
4790.54607 1.22604e-17
4793.14176 1.23346e-17
4795.73746 1.20282e-17
4798.33316 1.17686e-17
4800.92886 1.18284e-17
4803.52456 1.16910e-17
4806.12025 1.14839e-17
4808.71595 1.15706e-17
4811.31165 1.16072e-17
4813.90735 1.14231e-17
4816.50305 1.12118e-17
4819.09874 1.10896e-17
4821.69444 1.12906e-17
4824.29014 1.15225e-17
4826.88584 1.14833e-17
4829.48154 1.15162e-17
4832.07723 1.17577e-17
4834.67293 1.21055e-17
4837.26863 1.23948e-17
4839.85431 1.27361e-17
4842.45000 1.29856e-17
4845.04570 1.29660e-17
4847.64140 1.30686e-17
4850.23710 1.35262e-17
4852.83280 1.36221e-17
4855.42849 1.35021e-17
4858.02419 1.33822e-17
4860.61989 1.32623e-17
4863.21559 1.31424e-17
4865.81129 1.30226e-17
4868.40698 1.29027e-17
4871.00268 1.27829e-17
4873.59838 1.26631e-17
4876.19408 1.25433e-17
4878.78978 1.24235e-17
4881.38547 1.23037e-17
4883.98117 1.21840e-17
4886.57687 1.20643e-17
4889.17257 1.19446e-17
4891.75824 1.18249e-17
4894.35394 1.16039e-17
4896.94964 1.13248e-17
4899.54534 1.12480e-17
4902.14104 1.12526e-17
4904.73673 1.12298e-17
4907.33243 1.10920e-17
4909.92813 1.10537e-17
4912.52383 1.11580e-17
4915.11953 1.12226e-17
4917.71522 1.13387e-17
4920.31092 1.15195e-17
4922.90662 1.16730e-17
4925.50232 1.18844e-17
4928.09802 1.21518e-17
4930.69371 1.23306e-17
4933.28941 1.26931e-17
4935.88511 1.31935e-17
4938.48081 1.33089e-17
4941.07651 1.33155e-17
4943.66218 1.35830e-17
4946.25788 1.38676e-17
4948.85358 1.39428e-17
4951.44928 1.41649e-17
4954.04497 1.42010e-17
4956.64067 1.42371e-17
4959.23637 1.42732e-17
4961.83207 1.43093e-17
4964.42777 1.43454e-17
4967.02346 1.43815e-17
4969.61916 1.44175e-17
4972.21486 1.44536e-17
4974.81056 1.44897e-17
4977.40626 1.45257e-17
4980.00195 1.45618e-17
4982.59765 1.45978e-17
4985.19335 1.46339e-17
4987.78905 1.46699e-17
4990.38475 1.47060e-17
4992.97042 1.47293e-17
4995.56612 1.47160e-17
4998.16182 1.45950e-17
5000.75752 1.44124e-17
5003.35321 1.42298e-17
5005.94891 1.40471e-17
5008.54461 1.38646e-17
5011.14031 1.36821e-17
5013.73601 1.34996e-17
5016.33170 1.33171e-17
5018.92740 1.31347e-17
5021.52310 1.29522e-17
5024.11880 1.27698e-17
5026.71450 1.25875e-17
5029.31019 1.24052e-17
5031.90589 1.22228e-17
5034.50159 1.20406e-17
5037.09729 1.18583e-17
5039.68296 1.14487e-17
5042.27866 1.10486e-17
5044.87436 1.07182e-17
5047.47006 1.05211e-17
5050.06576 1.03990e-17
5052.66145 1.02829e-17
5055.25715 1.01711e-17
5057.85285 1.00341e-17
5060.44855 1.00415e-17
5063.04425 1.01207e-17
5065.63994 1.00695e-17
5068.23564 1.01343e-17
5070.83134 1.01341e-17
5073.42704 9.99845e-18
5076.02274 1.00332e-17
5078.61843 1.00543e-17
5081.21413 1.00537e-17
5083.80983 1.01833e-17
5086.40553 1.02993e-17
5089.00123 1.02947e-17
5091.58690 1.03031e-17
5094.18260 1.04203e-17
5096.77830 1.04386e-17
5099.37400 1.04489e-17
5101.96969 1.06123e-17
5104.56539 1.06031e-17
5107.16109 1.05644e-17
5109.75679 1.07079e-17
5112.35249 1.07432e-17
5114.94818 1.06443e-17
5117.54388 1.07158e-17
5120.13958 1.09961e-17
5122.73528 1.09572e-17
5125.33098 1.07167e-17
5127.92667 1.08272e-17
5130.52237 1.09297e-17
5133.11807 1.09976e-17
5135.71377 1.10847e-17
5138.30947 1.11444e-17
5140.89514 1.13602e-17
5143.49084 1.15755e-17
5146.08654 1.15764e-17
5148.68224 1.13729e-17
5151.27793 1.14908e-17
5153.87363 1.17116e-17
5156.46933 1.17344e-17
5159.06503 1.16332e-17
5161.66073 1.16384e-17
5164.25642 1.16218e-17
5166.85212 1.15207e-17
5169.44782 1.15694e-17
5172.04352 1.17414e-17
5174.63922 1.18215e-17
5177.23491 1.17773e-17
5179.83061 1.16580e-17
5182.42631 1.16576e-17
5185.02201 1.16662e-17
5187.61771 1.17266e-17
5190.20338 1.19868e-17
5192.79908 1.21087e-17
5195.39478 1.18471e-17
5197.99048 1.18704e-17
5200.58617 1.19534e-17
5203.18187 1.18614e-17
5205.77757 1.18235e-17
5208.37327 1.17164e-17
5210.96897 1.16663e-17
5213.56466 1.16580e-17
5216.16036 1.16534e-17
5218.75606 1.17750e-17
5221.35176 1.19138e-17
5223.94746 1.20234e-17
5226.54315 1.21929e-17
5229.13885 1.22234e-17
5231.73455 1.23675e-17
5234.33025 1.25103e-17
5236.92595 1.25522e-17
5239.52164 1.27597e-17
5242.10732 1.31283e-17
5244.70302 1.31555e-17
5247.29872 1.30336e-17
5249.89441 1.30888e-17
5252.49011 1.30901e-17
5255.08581 1.31804e-17
5257.68151 1.32132e-17
5260.27721 1.32159e-17
5262.87290 1.32551e-17
5265.46860 1.33919e-17
5268.06430 1.36919e-17
5270.66000 1.37292e-17
5273.25570 1.38036e-17
5275.85139 1.40400e-17
5278.44709 1.40962e-17
5281.04279 1.40981e-17
5283.63849 1.43218e-17
5286.23419 1.45496e-17
5288.82988 1.47715e-17
5291.42558 1.49057e-17
5294.01126 1.49790e-17
5296.60696 1.50963e-17
5299.20265 1.52950e-17
5301.79835 1.54838e-17
5304.39405 1.53887e-17
5306.98975 1.52373e-17
5309.58545 1.54217e-17
5312.18114 1.54764e-17
5314.77684 1.53697e-17
5317.37254 1.54274e-17
5319.96824 1.55957e-17
5322.56394 1.56563e-17
5325.15963 1.57392e-17
5327.75533 1.59621e-17
5330.35103 1.61953e-17
5332.94673 1.63228e-17
5335.54243 1.62470e-17
5338.13812 1.63217e-17
5340.73382 1.65538e-17
5343.31950 1.65710e-17
5345.91520 1.66079e-17
5348.51089 1.67299e-17
5351.10659 1.67919e-17
5353.70229 1.68360e-17
5356.29799 1.70388e-17
5358.89369 1.70682e-17
5361.48938 1.70828e-17
5364.08508 1.70216e-17
5366.68078 1.68802e-17
5369.27648 1.68876e-17
5371.87218 1.69843e-17
5374.46787 1.70450e-17
5377.06357 1.70615e-17
5379.65927 1.69777e-17
5382.25497 1.68657e-17
5384.85067 1.67326e-17
5387.44636 1.66469e-17
5390.04206 1.67445e-17
5392.62774 1.68271e-17
5395.22344 1.66717e-17
5397.81913 1.65784e-17
5400.41483 1.65877e-17
5403.01053 1.67062e-17
5405.60623 1.68015e-17
5408.20193 1.66934e-17
5410.79762 1.65547e-17
5413.39332 1.66572e-17
5415.98902 1.67556e-17
5418.58472 1.65795e-17
5421.18042 1.64898e-17
5423.77611 1.67212e-17
5426.37181 1.68643e-17
5428.96751 1.68671e-17
5431.56321 1.68823e-17
5434.15891 1.71187e-17
5436.75460 1.72506e-17
5439.35030 1.73014e-17
5441.94600 1.75610e-17
5444.53168 1.78603e-17
5447.12737 1.80329e-17
5449.72307 1.84118e-17
5452.31877 1.88608e-17
5454.91447 1.89323e-17
5457.51017 1.89923e-17
5460.10586 1.91155e-17
5462.70156 1.92906e-17
5465.29726 1.95498e-17
5467.89296 1.95794e-17
5470.48866 1.95649e-17
5473.08435 1.96811e-17
5475.68005 2.01142e-17
5478.27575 2.04432e-17
5480.87145 2.05922e-17
5483.46715 2.05589e-17
5486.06284 2.05090e-17
5488.65854 2.04724e-17
5491.25424 2.04048e-17
5493.83992 2.03957e-17
5496.43561 2.04473e-17
5499.03131 2.06415e-17
5501.62701 2.07285e-17
5504.22271 2.05623e-17
5506.81841 2.05625e-17
5509.41410 2.04980e-17
5512.00980 2.04270e-17
5514.60550 2.04778e-17
5517.20120 2.04424e-17
5519.79690 2.04094e-17
5522.39259 2.03662e-17
5524.98829 2.02687e-17
5527.58399 2.01414e-17
5530.17969 2.01096e-17
5532.77539 2.00596e-17
5535.37108 2.00003e-17
5537.96678 1.99507e-17
5540.56248 1.96522e-17
5543.14816 1.94906e-17
5545.74385 1.95835e-17
5548.33955 1.96671e-17
5550.93525 1.96385e-17
5553.53095 1.96451e-17
5556.12665 1.97804e-17
5558.72234 1.97284e-17
5561.31804 1.95744e-17
5563.91374 1.93806e-17
5566.50944 1.94466e-17
5569.10514 1.95839e-17
5571.70083 1.96303e-17
5574.29653 1.97785e-17
5576.89223 1.97314e-17
5579.48793 1.97381e-17
5582.08363 1.98907e-17
5584.67932 1.99379e-17
5587.27502 1.99448e-17
5589.87072 1.99697e-17
5592.46642 2.00242e-17
5595.05209 2.00956e-17
5597.64779 2.02287e-17
5600.24349 2.03182e-17
5602.83919 2.03351e-17
5605.43489 2.02855e-17
5608.03058 2.00798e-17
5610.62628 1.99572e-17
5613.22198 2.01637e-17
5615.81768 2.01826e-17
5618.41338 2.01213e-17
5621.00907 2.00728e-17
5623.60477 1.96546e-17
5626.20047 1.87657e-17
5628.79617 1.89076e-17
5631.39187 1.97913e-17
5633.98756 1.98290e-17
5636.58326 1.97907e-17
5639.17896 1.95352e-17
5641.77466 1.94433e-17
5644.37036 1.95019e-17
5646.95603 1.94644e-17
5649.55173 1.93694e-17
5652.14743 1.92356e-17
5654.74313 1.90033e-17
5657.33882 1.89642e-17
5659.93452 1.88730e-17
5662.53022 1.87835e-17
5665.12592 1.86906e-17
5667.72162 1.85295e-17
5670.31731 1.86190e-17
5672.91301 1.85233e-17
5675.50871 1.82214e-17
5678.10441 1.80951e-17
5680.70011 1.81312e-17
5683.29580 1.80536e-17
5685.89150 1.78829e-17
5688.48720 1.76224e-17
5691.08290 1.74923e-17
5693.67860 1.73437e-17
5696.26427 1.71438e-17
5698.85997 1.70505e-17
5701.45567 1.68034e-17
5704.05137 1.65547e-17
5706.64706 1.63971e-17
5709.24276 1.63454e-17
5711.83846 1.63275e-17
5714.43416 1.61020e-17
5717.02986 1.60299e-17
5719.62555 1.62377e-17
5722.22125 1.61518e-17
5724.81695 1.59420e-17
5727.41265 1.59277e-17
5730.00835 1.58410e-17
5732.60404 1.57533e-17
5735.19974 1.57989e-17
5737.79544 1.57191e-17
5740.39114 1.55135e-17
5742.98684 1.53290e-17
5745.57251 1.51880e-17
5748.16821 1.51735e-17
5750.76391 1.52402e-17
5753.35961 1.51805e-17
5755.95530 1.50220e-17
5758.55100 1.51355e-17
5761.14670 1.52699e-17
5763.74240 1.51463e-17
5766.33810 1.50937e-17
5768.93379 1.50771e-17
5771.52949 1.49913e-17
5774.12519 1.49781e-17
5776.72089 1.50002e-17
5779.31659 1.50051e-17
5781.91228 1.51032e-17
5784.50798 1.51990e-17
5787.10368 1.51250e-17
5789.69938 1.51272e-17
5792.29508 1.51790e-17
5794.89077 1.52355e-17
5797.47645 1.53035e-17
5800.07215 1.54644e-17
5802.66785 1.55232e-17
5805.26354 1.55439e-17
5807.85924 1.55869e-17
5810.45494 1.56270e-17
5813.05064 1.57012e-17
5815.64634 1.57022e-17
5818.24203 1.58577e-17
5820.83773 1.58318e-17
5823.43343 1.58856e-17
5826.02913 1.58201e-17
5828.62483 1.58109e-17
5831.22052 1.58142e-17
5833.81622 1.58233e-17
5836.41192 1.59579e-17
5839.00762 1.60304e-17
5841.60332 1.60848e-17
5844.18899 1.63202e-17
5846.78469 1.64891e-17
5849.38039 1.63909e-17
5851.97609 1.62592e-17
5854.57178 1.62554e-17
5857.16748 1.63127e-17
5859.76318 1.63193e-17
5862.35888 1.62693e-17
5864.95458 1.62653e-17
5867.55027 1.62182e-17
5870.14597 1.61489e-17
5872.74167 1.61353e-17
5875.33737 1.61277e-17
5877.93307 1.60148e-17
5880.52876 1.59320e-17
5883.12446 1.59821e-17
5885.72016 1.59917e-17
5888.31586 1.59791e-17
5890.91156 1.59157e-17
5893.49723 1.58629e-17
5896.09293 1.59484e-17
5898.68863 1.59140e-17
5901.28433 1.57456e-17
5903.88002 1.57455e-17
5906.47572 1.58333e-17
5909.07142 1.59489e-17
5911.66712 1.60229e-17
5914.26282 1.60277e-17
5916.85851 1.60803e-17
5919.45421 1.62005e-17
5922.04991 1.62099e-17
5924.64561 1.62528e-17
5927.24131 1.63524e-17
5929.83700 1.62630e-17
5932.43270 1.61906e-17
5935.02840 1.62893e-17
5937.62410 1.63721e-17
5940.21980 1.63607e-17
5942.81549 1.63129e-17
5945.40117 1.62935e-17
5947.99687 1.62000e-17
5950.59257 1.61253e-17
5953.18826 1.61254e-17
5955.78396 1.60822e-17
5958.37966 1.59179e-17
5960.97536 1.57519e-17
5963.57106 1.57207e-17
5966.16675 1.56719e-17
5968.76245 1.55633e-17
5971.35815 1.54399e-17
5973.95385 1.53181e-17
5976.54955 1.51421e-17
5979.14524 1.48615e-17
5981.74094 1.47266e-17
5984.33664 1.47758e-17
5986.93234 1.47397e-17
5989.52804 1.46287e-17
5992.12373 1.45546e-17
5994.71943 1.45007e-17
5997.30511 1.45472e-17
5999.90081 1.44447e-17
6002.49650 1.42471e-17
6005.09220 1.40482e-17
6007.68790 1.38375e-17
6010.28360 1.36719e-17
6012.87930 1.34961e-17
6015.47499 1.32788e-17
6018.07069 1.31467e-17
6020.66639 1.31224e-17
6023.26209 1.30090e-17
6025.85779 1.29233e-17
6028.45348 1.28750e-17
6031.04918 1.27666e-17
6033.64488 1.27240e-17
6036.24058 1.27753e-17
6038.83628 1.27520e-17
6041.43197 1.26596e-17
6044.02767 1.26532e-17
6046.61335 1.26060e-17
6049.20905 1.26262e-17
6051.80474 1.27139e-17
6054.40044 1.27579e-17
6056.99614 1.28141e-17
6059.59184 1.29145e-17
6062.18754 1.30361e-17
6064.78323 1.31367e-17
6067.37893 1.31667e-17
6069.97463 1.31516e-17
6072.57033 1.32079e-17
6075.16603 1.32621e-17
6077.76172 1.32046e-17
6080.35742 1.31585e-17
6082.95312 1.32883e-17
6085.54882 1.33164e-17
6088.14452 1.32147e-17
6090.74021 1.30833e-17
6093.33591 1.32153e-17
6095.92159 1.33618e-17
6098.51729 1.32586e-17
6101.11298 1.30557e-17
6103.70868 1.30724e-17
6106.30438 1.30704e-17
6108.90008 1.29891e-17
6111.49578 1.28753e-17
6114.09147 1.26869e-17
6116.68717 1.25667e-17
6119.28287 1.26170e-17
6121.87857 1.26239e-17
6124.47427 1.26272e-17
6127.06996 1.26595e-17
6129.66566 1.27489e-17
6132.26136 1.28417e-17
6134.85706 1.28922e-17
6137.45276 1.29156e-17
6140.04845 1.30550e-17
6142.64415 1.32830e-17
6145.23985 1.33863e-17
6147.82553 1.34478e-17
6150.42122 1.35678e-17
6153.01692 1.35419e-17
6155.61262 1.35136e-17
6158.20832 1.35813e-17
6160.80402 1.38456e-17
6163.39971 1.41029e-17
6165.99541 1.43213e-17
6168.59111 1.43652e-17
6171.18681 1.43465e-17
6173.78251 1.44923e-17
6176.37820 1.45128e-17
6178.97390 1.45092e-17
6181.56960 1.46149e-17
6184.16530 1.47184e-17
6186.76100 1.47136e-17
6189.35669 1.46705e-17
6191.95239 1.46816e-17
6194.54809 1.47465e-17
6197.14379 1.48281e-17
6199.72946 1.48096e-17
6202.32516 1.46736e-17
6204.92086 1.44466e-17
6207.51656 1.42821e-17
6210.11226 1.41616e-17
6212.70795 1.40415e-17
6215.30365 1.40084e-17
6217.89935 1.40130e-17
6220.49505 1.39085e-17
6223.09075 1.36801e-17
6225.68644 1.35715e-17
6228.28214 1.35993e-17
6230.87784 1.35558e-17
6233.47354 1.35626e-17
6236.06924 1.34607e-17
6238.66493 1.34156e-17
6241.26063 1.34191e-17
6243.85633 1.32991e-17
6246.44201 1.32500e-17
6249.03770 1.32943e-17
6251.63340 1.33343e-17
6254.22910 1.32708e-17
6256.82480 1.31756e-17
6259.42050 1.31389e-17
6262.01619 1.30588e-17
6264.61189 1.30677e-17
6267.20759 1.31038e-17
6269.80329 1.30825e-17
6272.39899 1.30727e-17
6274.99468 1.30130e-17
6277.59038 1.29510e-17
6280.18608 1.28611e-17
6282.78178 1.27021e-17
6285.37748 1.27318e-17
6287.97317 1.28464e-17
6290.56887 1.27453e-17
6293.16457 1.25079e-17
6295.76027 1.23736e-17
6298.34594 1.22141e-17
6300.94164 1.21405e-17
6303.53734 1.21401e-17
6306.13304 1.21120e-17
6308.72874 1.20920e-17
6311.32443 1.19322e-17
6313.92013 1.18744e-17
6316.51583 1.18554e-17
6319.11153 1.17212e-17
6321.70723 1.15661e-17
6324.30292 1.14888e-17
6326.89862 1.14777e-17
6329.49432 1.15305e-17
6332.09002 1.15453e-17
6334.68572 1.15150e-17
6337.28141 1.15067e-17
6339.87711 1.15331e-17
6342.47281 1.15680e-17
6345.06851 1.16637e-17
6347.65418 1.16508e-17
6350.24988 1.16730e-17
6352.84558 1.16554e-17
6355.44128 1.16630e-17
6358.03698 1.18438e-17
6360.63267 1.20011e-17
6363.22837 1.20292e-17
6365.82407 1.20339e-17
6368.41977 1.20582e-17
6371.01547 1.20824e-17
6373.61116 1.20661e-17
6376.20686 1.20264e-17
6378.80256 1.20299e-17
6381.39826 1.21819e-17
6383.99396 1.22989e-17
6386.58965 1.22141e-17
6389.18535 1.22574e-17
6391.78105 1.23257e-17
6394.37675 1.23698e-17
6396.97245 1.24427e-17
6399.55812 1.25004e-17
6402.15382 1.25933e-17
6404.74952 1.26832e-17
6407.34522 1.27331e-17
6409.94091 1.28041e-17
6412.53661 1.28741e-17
6415.13231 1.28518e-17
6417.72801 1.29053e-17
6420.32371 1.30343e-17
6422.91940 1.31251e-17
6425.51510 1.32419e-17
6428.11080 1.34505e-17
6430.70650 1.35302e-17
6433.30220 1.34453e-17
6435.89789 1.35399e-17
6438.49359 1.36245e-17
6441.08929 1.37154e-17
6443.68499 1.38028e-17
6446.28069 1.38163e-17
6448.86636 1.38219e-17
6451.46206 1.38980e-17
6454.05776 1.40174e-17
6456.65346 1.41059e-17
6459.24915 1.40282e-17
6461.84485 1.40377e-17
6464.44055 1.41112e-17
6467.03625 1.41488e-17
6469.63195 1.40227e-17
6472.22764 1.39449e-17
6474.82334 1.39994e-17
6477.41904 1.40398e-17
6480.01474 1.40361e-17
6482.61044 1.40422e-17
6485.20613 1.41393e-17
6487.80183 1.42287e-17
6490.39753 1.42253e-17
6492.99323 1.41827e-17
6495.58893 1.43389e-17
6498.18462 1.45807e-17
6500.77030 1.46161e-17
6503.36600 1.46354e-17
6505.96170 1.47592e-17
6508.55739 1.48928e-17
6511.15309 1.49080e-17
6513.74879 1.49653e-17
6516.34449 1.51003e-17
6518.94019 1.50969e-17
6521.53588 1.50239e-17
6524.13158 1.51041e-17
6526.72728 1.51073e-17
6529.32298 1.50711e-17
6531.91868 1.51580e-17
6534.51437 1.51834e-17
6537.11007 1.51193e-17
6539.70577 1.50678e-17
6542.30147 1.50801e-17
6544.89717 1.50897e-17
6547.49286 1.50865e-17
6550.07854 1.50832e-17
6552.67424 1.50800e-17
6555.26994 1.50768e-17
6557.86563 1.50735e-17
6560.46133 1.50703e-17
6563.05703 1.50670e-17
6565.65273 1.50638e-17
6568.24843 1.50606e-17
6570.84412 1.50573e-17
6573.43982 1.50541e-17
6576.03552 1.50508e-17
6578.63122 1.50476e-17
6581.22692 1.50444e-17
6583.82261 1.50411e-17
6586.41831 1.50379e-17
6589.01401 1.50346e-17
6591.60971 1.50314e-17
6594.20541 1.50282e-17
6596.80110 1.50249e-17
6599.39680 1.50217e-17
6601.98248 1.50185e-17
6604.57818 1.50152e-17
6607.17387 1.50120e-17
6609.76957 1.50088e-17
6612.36527 1.49979e-17
6614.96097 1.49447e-17
6617.55667 1.50166e-17
6620.15236 1.50328e-17
6622.74806 1.49195e-17
6625.34376 1.49817e-17
6627.93946 1.50749e-17
6630.53516 1.49021e-17
6633.13085 1.48314e-17
6635.72655 1.48435e-17
6638.32225 1.48833e-17
6640.91795 1.48598e-17
6643.51365 1.47578e-17
6646.10934 1.47349e-17
6648.69502 1.46073e-17
6651.29072 1.44822e-17
6653.88642 1.44578e-17
6656.48211 1.44019e-17
6659.07781 1.42877e-17
6661.67351 1.41564e-17
6664.26921 1.39462e-17
6666.86491 1.38200e-17
6669.46060 1.37715e-17
6672.05630 1.36417e-17
6674.65200 1.35008e-17
6677.24770 1.34524e-17
6679.84340 1.33685e-17
6682.43909 1.32392e-17
6685.03479 1.32328e-17
6687.63049 1.32558e-17
6690.22619 1.31590e-17
6692.82189 1.30400e-17
6695.41758 1.29992e-17
6698.01328 1.29974e-17
6700.59896 1.29926e-17
6703.19466 1.29685e-17
6705.79035 1.29624e-17
6708.38605 1.29609e-17
6710.98175 1.29173e-17
6713.57745 1.30185e-17
6716.17315 1.31924e-17
6718.76884 1.31193e-17
6721.36454 1.30850e-17
6723.96024 1.31426e-17
6726.55594 1.31600e-17
6729.15164 1.33478e-17
6731.74733 1.38085e-17
6734.34303 1.39861e-17
6736.93873 1.34785e-17
6739.53443 1.27800e-17
6742.13013 1.23826e-17
6744.72582 1.24564e-17
6747.32152 1.28088e-17
6749.90720 1.31286e-17
6752.50290 1.32916e-17
6755.09859 1.31038e-17
6757.69429 1.29519e-17
6760.28999 1.29214e-17
6762.88569 1.27992e-17
6765.48139 1.26719e-17
6768.07708 1.27279e-17
6770.67278 1.27246e-17
6773.26848 1.26899e-17
6775.86418 1.27622e-17
6778.45988 1.27289e-17
6781.05557 1.27154e-17
6783.65127 1.27839e-17
6786.24697 1.27376e-17
6788.84267 1.26624e-17
6791.43837 1.25638e-17
6794.03406 1.25417e-17
6796.62976 1.25438e-17
6799.21544 1.25778e-17
6801.81114 1.25469e-17
6804.40683 1.25604e-17
6807.00253 1.25162e-17
6809.59823 1.24266e-17
6812.19393 1.24029e-17
6814.78963 1.24042e-17
6817.38532 1.22810e-17
6819.98102 1.21530e-17
6822.57672 1.21661e-17
6825.17242 1.21887e-17
6827.76812 1.21642e-17
6830.36381 1.21713e-17
6832.95951 1.21353e-17
6835.55521 1.20083e-17
6838.15091 1.18795e-17
6840.74661 1.17941e-17
6843.34230 1.17327e-17
6845.93800 1.16817e-17
6848.53370 1.15672e-17
6851.11938 1.13898e-17
6853.71507 1.12523e-17
6856.31077 1.12394e-17
6858.90647 1.12393e-17
6861.50217 1.11370e-17
6864.09787 1.10418e-17
6866.69356 1.10053e-17
6869.28926 1.09555e-17
6871.88496 1.09277e-17
6874.48066 1.08666e-17
6877.07636 1.08320e-17
6879.67205 1.09107e-17
6882.26775 1.09282e-17
6884.86345 1.09127e-17
6887.45915 1.08997e-17
6890.05485 1.09799e-17
6892.65054 1.10339e-17
6895.24624 1.10762e-17
6897.84194 1.11341e-17
6900.43764 1.11226e-17
6903.02331 1.11640e-17
6905.61901 1.11869e-17
6908.21471 1.11535e-17
6910.81041 1.11301e-17
6913.40611 1.11506e-17
6916.00180 1.12642e-17
6918.59750 1.13211e-17
6921.19320 1.14292e-17
6923.78890 1.14565e-17
6926.38460 1.14040e-17
6928.98029 1.13695e-17
6931.57599 1.14483e-17
6934.17169 1.15278e-17
6936.76739 1.14788e-17
6939.36309 1.14364e-17
6941.95878 1.14981e-17
6944.55448 1.14014e-17
6947.15018 1.12867e-17
6949.74588 1.14046e-17
6952.33155 1.15009e-17
6954.92725 1.15194e-17
6957.52295 1.14863e-17
6960.11865 1.13970e-17
6962.71435 1.13409e-17
6965.31004 1.14571e-17
6967.90574 1.15639e-17
6970.50144 1.14940e-17
6973.09714 1.14501e-17
6975.69284 1.14949e-17
6978.28853 1.15309e-17
6980.88423 1.15440e-17
6983.47993 1.16398e-17
6986.07563 1.17879e-17
6988.67133 1.17271e-17
6991.26702 1.17094e-17
6993.86272 1.18118e-17
6996.45842 1.19258e-17
6999.05412 1.19644e-17
7001.63979 1.20071e-17
7004.23549 1.20118e-17
7006.83119 1.18784e-17
7009.42689 1.18728e-17
7012.02259 1.18858e-17
7014.61828 1.18541e-17
7017.21398 1.19517e-17
7019.80968 1.19737e-17
7022.40538 1.18637e-17
7025.00108 1.18816e-17
7027.59677 1.18338e-17
7030.19247 1.17694e-17
7032.78817 1.16751e-17
7035.38387 1.15883e-17
7037.97957 1.16683e-17
7040.57526 1.16872e-17
7043.17096 1.14838e-17
7045.76666 1.12761e-17
7048.36236 1.12249e-17
7050.94803 1.12433e-17
7053.54373 1.12128e-17
7056.13943 1.12241e-17
7058.73513 1.11369e-17
7061.33083 1.09789e-17
7063.92652 1.10093e-17
7066.52222 1.09263e-17
7069.11792 1.08156e-17
7071.71362 1.09522e-17
7074.30932 1.09701e-17
7076.90501 1.08646e-17
7079.50071 1.08304e-17
7082.09641 1.07601e-17
7084.69211 1.07260e-17
7087.28781 1.07823e-17
7089.88350 1.07857e-17
7092.47920 1.06398e-17
7095.07490 1.04855e-17
7097.67060 1.04699e-17
7100.25627 1.06214e-17
7102.85197 1.06225e-17
7105.44767 1.04288e-17
7108.04337 1.04383e-17
7110.63907 1.06962e-17
7113.23476 1.07315e-17
7115.83046 1.05967e-17
7118.42616 1.05746e-17
7121.02186 1.06765e-17
7123.61756 1.07686e-17
7126.21325 1.07040e-17
7128.80895 1.06363e-17
7131.40465 1.05969e-17
7134.00035 1.05281e-17
7136.59605 1.05792e-17
7139.19174 1.06723e-17
7141.78744 1.06387e-17
7144.38314 1.05928e-17
7146.97884 1.06727e-17
7149.57454 1.06062e-17
7152.16021 1.04054e-17
7154.75591 1.04675e-17
7157.35161 1.05723e-17
7159.94731 1.04720e-17
7162.54300 1.03591e-17
7165.13870 1.02441e-17
7167.73440 1.02920e-17
7170.33010 1.03554e-17
7172.92580 1.03156e-17
7175.52149 1.02263e-17
7178.11719 1.02949e-17
7180.71289 1.03688e-17
7183.30859 1.04458e-17
7185.90429 1.05133e-17
7188.49998 1.05110e-17
7191.09568 1.04634e-17
7193.69138 1.05142e-17
7196.28708 1.06514e-17
7198.88278 1.07214e-17
7201.47847 1.06903e-17
7204.06415 1.06152e-17
7206.65985 1.07721e-17
7209.25555 1.10226e-17
7211.85124 1.10551e-17
7214.44694 1.11509e-17
7217.04264 1.11811e-17
7219.63834 1.10585e-17
7222.23404 1.12195e-17
7224.82973 1.14280e-17
7227.42543 1.14996e-17
7230.02113 1.16396e-17
7232.61683 1.17038e-17
7235.21253 1.16795e-17
7237.80822 1.18515e-17
7240.40392 1.20559e-17
7242.99962 1.21017e-17
7245.59532 1.20516e-17
7248.19102 1.20478e-17
7250.78671 1.19939e-17
7253.37239 1.19986e-17
7255.96809 1.21115e-17
7258.56379 1.22873e-17
7261.15948 1.23781e-17
7263.75518 1.23107e-17
7266.35088 1.22140e-17
7268.94658 1.21902e-17
7271.54228 1.22447e-17
7274.13797 1.23053e-17
7276.73367 1.23318e-17
7279.32937 1.21872e-17
7281.92507 1.19680e-17
7284.52077 1.19335e-17
7287.11646 1.19649e-17
7289.71216 1.19646e-17
7292.30786 1.19585e-17
7294.90356 1.18212e-17
7297.49926 1.17335e-17
7300.09495 1.18079e-17
7302.68063 1.18616e-17
7305.27633 1.18113e-17
7307.87203 1.16469e-17
7310.46772 1.15385e-17
7313.06342 1.15419e-17
7315.65912 1.15438e-17
7318.25482 1.15498e-17
7320.85052 1.15526e-17
7323.44621 1.15247e-17
7326.04191 1.14395e-17
7328.63761 1.12951e-17
7331.23331 1.13290e-17
7333.82901 1.14582e-17
7336.42470 1.14372e-17
7339.02040 1.13723e-17
7341.61610 1.14230e-17
7344.21180 1.14750e-17
7346.80750 1.15677e-17
7349.40319 1.16440e-17
7351.99889 1.16333e-17
7354.58457 1.15298e-17
7357.18027 1.14450e-17
7359.77596 1.15194e-17
7362.37166 1.16563e-17
7364.96736 1.17094e-17
7367.56306 1.17414e-17
7370.15876 1.17695e-17
7372.75445 1.16223e-17
7375.35015 1.14994e-17
7377.94585 1.15944e-17
7380.54155 1.17731e-17
7383.13725 1.17790e-17
7385.73294 1.16106e-17
7388.32864 1.16621e-17
7390.92434 1.16611e-17
7393.52004 1.15905e-17
7396.11574 1.17447e-17
7398.71143 1.18330e-17
7401.30713 1.16576e-17
7403.90283 1.15270e-17
7406.48851 1.16163e-17
7409.08420 1.16473e-17
7411.67990 1.16549e-17
7414.27560 1.17532e-17
7416.87130 1.17824e-17
7419.46700 1.17593e-17
7422.06269 1.17718e-17
7424.65839 1.17430e-17
7427.25409 1.17156e-17
7429.84979 1.17978e-17
7432.44549 1.18474e-17
7435.04118 1.19259e-17
7437.63688 1.19893e-17
7440.23258 1.19751e-17
7442.82828 1.23703e-17
7445.42398 1.30006e-17
7448.01967 1.28146e-17
7450.61537 1.17356e-17
7453.20105 1.06646e-17
7455.79675 9.67754e-18
7458.39244 8.65796e-18
7460.98814 7.91685e-18
7463.58384 7.87905e-18
7466.17954 8.36949e-18
7468.77524 9.18997e-18
7471.37093 1.02443e-17
7473.96663 1.10807e-17
7476.56233 1.10755e-17
7479.15803 1.03741e-17
7481.75373 9.74726e-18
7484.34942 9.41632e-18
7486.94512 9.09640e-18
7489.54082 9.07346e-18
7492.13652 9.20671e-18
7494.73222 9.20490e-18
7497.32791 9.15326e-18
7499.92361 9.17259e-18
7502.50929 9.25861e-18
7505.10499 9.12683e-18
7507.70068 8.89407e-18
7510.29638 8.84163e-18
7512.89208 8.85044e-18
7515.48778 8.81224e-18
7518.08348 8.72145e-18
7520.67917 8.57853e-18
7523.27487 8.42995e-18
7525.87057 8.23034e-18
7528.46627 7.89073e-18
7531.06197 7.62586e-18
7533.65766 7.43850e-18
7536.25336 7.30424e-18
7538.84906 7.10474e-18
7541.44476 6.88675e-18
7544.04046 6.74098e-18
7546.63615 6.60711e-18
7549.23185 6.49343e-18
7551.82755 6.41454e-18
7554.41323 6.29232e-18
7557.00892 6.09258e-18
7559.60462 5.90783e-18
7562.20032 5.71773e-18
7564.79602 5.63009e-18
7567.39172 5.61381e-18
7569.98741 5.56384e-18
7572.58311 5.51272e-18
7575.17881 5.43898e-18
7577.77451 5.22004e-18
7580.37021 5.07820e-18
7582.96590 5.07410e-18
7585.56160 5.19591e-18
7588.15730 5.25592e-18
7590.75300 5.24065e-18
7593.34870 5.19355e-18
7595.94439 5.14027e-18
7598.54009 5.08400e-18
7601.13579 5.12351e-18
7603.73149 5.30507e-18
7606.31716 5.43196e-18
7608.91286 5.58205e-18
7611.50856 5.68946e-18
7614.10426 5.74314e-18
7616.69996 5.80646e-18
7619.29565 5.89404e-18
7621.89135 6.05142e-18
7624.48705 6.25426e-18
7627.08275 6.45546e-18
7629.67845 6.66200e-18
7632.27414 6.72408e-18
7634.86984 6.81147e-18
7637.46554 7.11584e-18
7640.06124 7.44523e-18
7642.65694 7.69583e-18
7645.25263 7.84149e-18
7647.84833 7.99661e-18
7650.44403 8.10979e-18
7653.03973 8.20382e-18
7655.62540 8.38754e-18
7658.22110 8.63169e-18
7660.81680 8.87075e-18
7663.41250 9.07327e-18
7666.00820 9.23625e-18
7668.60389 9.34855e-18
7671.19959 9.40353e-18
7673.79529 9.58524e-18
7676.39099 9.82700e-18
7678.98669 9.95216e-18
7681.58238 1.01232e-17
7684.17808 1.04257e-17
7686.77378 1.05104e-17
7689.36948 1.06257e-17
7691.96518 1.07238e-17
7694.56087 1.07548e-17
7697.15657 1.07703e-17
7699.75227 1.07262e-17
7702.34797 1.08707e-17
7704.93364 1.12163e-17
7707.52934 1.14663e-17
7710.12504 1.16307e-17
7712.72074 1.15235e-17
7715.31644 1.12752e-17
7717.91213 1.12332e-17
7720.50783 1.14130e-17
7723.10353 1.17147e-17
7725.69923 1.19795e-17
7728.29493 1.20121e-17
7730.89062 1.18145e-17
7733.48632 1.15682e-17
7736.08202 1.14529e-17
7738.67772 1.14680e-17
7741.27342 1.15463e-17
7743.86911 1.18261e-17
7746.46481 1.21651e-17
7749.06051 1.21598e-17
7751.65621 1.20274e-17
7754.25191 1.18420e-17
7756.83758 1.16868e-17
7759.43328 1.18184e-17
7762.02898 1.21348e-17
7764.62468 1.24253e-17
7767.22037 1.25695e-17
7769.81607 1.24702e-17
7772.41177 1.21834e-17
7775.00747 1.19229e-17
7777.60317 1.20715e-17
7780.19886 1.24103e-17
7782.79456 1.27865e-17
7785.39026 1.29885e-17
7787.98596 1.29661e-17
7790.58166 1.26080e-17
7793.17735 1.23884e-17
7795.77305 1.23916e-17
7798.36875 1.24945e-17
7800.96445 1.27909e-17
7803.56015 1.30988e-17
7806.15584 1.30561e-17
7808.74152 1.28296e-17
7811.33722 1.25840e-17
7813.93292 1.26469e-17
7816.52861 1.30302e-17
7819.12431 1.33614e-17
7821.72001 1.33316e-17
7824.31571 1.30418e-17
7826.91141 1.27981e-17
7829.50710 1.26757e-17
7832.10280 1.27611e-17
7834.69850 1.30533e-17
7837.29420 1.33327e-17
7839.88990 1.34148e-17
7842.48559 1.32000e-17
7845.08129 1.29083e-17
7847.67699 1.27516e-17
7850.27269 1.27975e-17
7852.86839 1.29472e-17
7855.45406 1.31377e-17
7858.04976 1.32592e-17
7860.64546 1.32105e-17
7863.24116 1.29445e-17
7865.83685 1.24454e-17
7868.43255 1.22742e-17
7871.02825 1.27809e-17
7873.62395 1.33628e-17
7876.21965 1.34442e-17
7878.81534 1.29703e-17
7881.41104 1.23659e-17
7884.00674 1.20967e-17
7886.60244 1.21334e-17
7889.19814 1.24536e-17
7891.79383 1.28508e-17
7894.38953 1.30470e-17
7896.98523 1.29002e-17
7899.58093 1.25202e-17
7902.17663 1.20707e-17
7904.77232 1.20208e-17
7907.35800 1.23555e-17
7909.95370 1.26057e-17
7912.54940 1.26023e-17
7915.14509 1.22372e-17
7917.74079 1.18139e-17
7920.33649 1.17045e-17
7922.93219 1.18124e-17
7925.52789 1.19972e-17
7928.12358 1.25228e-17
7930.71928 1.26500e-17
7933.31498 1.23047e-17
7935.91068 1.17946e-17
7938.50638 1.13042e-17
7941.10207 1.13271e-17
7943.69777 1.18564e-17
7946.29347 1.23857e-17
7948.88917 1.25724e-17
7951.48487 1.23159e-17
7954.08056 1.17360e-17
7956.66624 1.13073e-17
7959.26194 1.10061e-17
7961.85764 1.12149e-17
7964.45333 1.17446e-17
7967.04903 1.21595e-17
7969.64473 1.20265e-17
7972.24043 1.13693e-17
7974.83613 1.07821e-17
7977.43182 1.06240e-17
7980.02752 1.08165e-17
7982.62322 1.12835e-17
7985.21892 1.17398e-17
7987.81462 1.14806e-17
7990.41031 1.07100e-17
7993.00601 1.01070e-17
7995.60171 9.82648e-18
7998.19741 9.90707e-18
8000.79311 1.03145e-17
8003.38880 1.09046e-17
8005.97448 1.11525e-17
8008.57018 1.09074e-17
8011.16588 1.04298e-17
8013.76157 9.88500e-18
8016.35727 9.43099e-18
8018.95297 9.33419e-18
8021.54867 9.69137e-18
8024.14437 1.03428e-17
8026.74006 1.08041e-17
8029.33576 1.05404e-17
8031.93146 9.91222e-18
8034.52716 9.41801e-18
8037.12286 9.35880e-18
8039.71855 9.87725e-18
8042.31425 1.03475e-17
8044.90995 1.06472e-17
8047.50565 1.06134e-17
8050.10135 1.00796e-17
8052.69704 9.41158e-18
8055.29274 9.26752e-18
8057.87842 9.57587e-18
8060.47412 9.99795e-18
8063.06981 1.02495e-17
8065.66551 1.01884e-17
8068.26121 9.68391e-18
8070.85691 8.75495e-18
8073.45261 7.97406e-18
8076.04830 7.95890e-18
8078.64400 8.49012e-18
8081.23970 9.18542e-18
8083.83540 9.60292e-18
8086.43110 9.33648e-18
8089.02679 8.53953e-18
8091.62249 8.09125e-18
8094.21819 8.21418e-18
8096.81389 8.52786e-18
8099.40959 8.91775e-18
8102.00528 9.33734e-18
8104.60098 9.58120e-18
8107.19668 9.38977e-18
8109.78236 8.79665e-18
8112.37805 8.08566e-18
8114.97375 7.59058e-18
8117.56945 7.50840e-18
8120.16515 8.18791e-18
8122.76085 8.92965e-18
8125.35654 9.03206e-18
8127.95224 8.41870e-18
8130.54794 7.56306e-18
8133.14364 7.24565e-18
8135.73934 7.46603e-18
8138.33503 8.06895e-18
8140.93073 8.58415e-18
8143.52643 8.53563e-18
8146.12213 7.85174e-18
8148.71783 6.97157e-18
8151.31352 6.48393e-18
8153.90922 6.69129e-18
8156.50492 7.10180e-18
8159.09060 7.56446e-18
8161.68629 7.82580e-18
8164.28199 7.79773e-18
8166.87769 7.42421e-18
8169.47339 6.78282e-18
8172.06909 6.15906e-18
8174.66478 5.86432e-18
8177.26048 6.03097e-18
8179.85618 6.46687e-18
8182.45188 7.09586e-18
8185.04758 7.60969e-18
8187.64327 7.41197e-18
8190.23897 6.56022e-18
8192.83467 5.78617e-18
8195.43037 5.43563e-18
8198.02607 5.33881e-18
8200.62176 5.36342e-18
8203.21746 5.62037e-18
8205.81316 5.99783e-18
8208.39884 6.18990e-18
8210.99453 5.85645e-18
8213.59023 5.17918e-18
8216.18593 4.50047e-18
8218.78163 4.26272e-18
8221.37733 4.29740e-18
8223.97302 4.56700e-18
8226.56872 4.76163e-18
8229.16442 4.61518e-18
8231.76012 4.37054e-18
8234.35582 3.87833e-18
8236.95151 3.21833e-18
8239.54721 2.91033e-18
8242.14291 2.91152e-18
8244.73861 3.01250e-18
8247.33431 3.25190e-18
8249.93000 3.43597e-18
8252.52570 3.36299e-18
8255.12140 3.02817e-18
8257.70708 2.72513e-18
8260.30277 2.67212e-18
8262.89847 2.55803e-18
8265.49417 2.40638e-18
8268.08987 2.32252e-18
8270.68557 2.67025e-18
8273.28126 3.05627e-18
8275.87696 3.23406e-18
8278.47266 3.13803e-18
8281.06836 2.61690e-18
8283.66406 2.28457e-18
8286.25975 2.35312e-18
8288.85545 2.56803e-18
8291.45115 2.86517e-18
8294.04685 2.97844e-18
8296.64255 2.90454e-18
8299.23824 2.85059e-18
8301.83394 2.60713e-18
8304.42964 2.32103e-18
8307.02534 2.39148e-18
8309.62104 2.63064e-18
8312.20671 2.86239e-18
8314.80241 3.10105e-18
8317.39811 3.24599e-18
8319.99381 3.13316e-18
8322.58950 2.76395e-18
8325.18520 2.46111e-18
8327.78090 2.41406e-18
8330.37660 2.50617e-18
8332.97230 2.72769e-18
8335.56799 3.07830e-18
8338.16369 3.32279e-18
8340.75939 3.48919e-18
8343.35509 3.45403e-18
8345.95079 3.24246e-18
8348.54648 2.98713e-18
8351.14218 2.79598e-18
8353.73788 2.84160e-18
8356.33358 3.10493e-18
8358.92928 3.72484e-18
8361.51495 4.24238e-18
8364.11065 4.28078e-18
8366.70635 3.86836e-18
8369.30205 3.54610e-18
8371.89774 3.34049e-18
8374.49344 3.28657e-18
8377.08914 3.52080e-18
8379.68484 4.00289e-18
8382.28054 4.61866e-18
8384.87623 4.80207e-18
8387.47193 4.24274e-18
8390.06763 3.67556e-18
8392.66333 3.57079e-18
8395.25903 3.74504e-18
8397.85472 4.13578e-18
8400.45042 4.56102e-18
8403.04612 4.86623e-18
8405.64182 4.70213e-18
8408.23752 4.10731e-18
8410.82319 3.57744e-18
8413.41889 3.35315e-18
8416.01459 3.47046e-18
8418.61029 4.08593e-18
8421.20598 4.75075e-18
8423.80168 4.81975e-18
8426.39738 4.48056e-18
8428.99308 4.14430e-18
8431.58878 3.76376e-18
8434.18447 3.56551e-18
8436.78017 3.76911e-18
8439.37587 4.13549e-18
8441.97157 4.60162e-18
8444.56727 5.20113e-18
8447.16296 5.61626e-18
8449.75866 5.60426e-18
8452.35436 5.20876e-18
8454.95006 4.58671e-18
8457.54576 3.98166e-18
8460.13143 3.93724e-18
8462.72713 4.74283e-18
8465.32283 5.73199e-18
8467.91853 6.12176e-18
8470.51422 5.49604e-18
8473.10992 4.58141e-18
8475.70562 4.39433e-18
8478.30132 4.92161e-18
8480.89702 5.87014e-18
8483.49271 7.01749e-18
8486.08841 7.54945e-18
8488.68411 6.99336e-18
8491.27981 5.69131e-18
8493.87551 4.75659e-18
8496.47120 5.11378e-18
8499.06690 6.33752e-18
8501.66260 7.72143e-18
8504.25830 8.79169e-18
8506.84397 9.38771e-18
8509.43967 9.34306e-18
8512.03537 8.74225e-18
8514.63107 8.09488e-18
8517.22677 7.57754e-18
8519.82246 7.15967e-18
8522.41816 6.93600e-18
8525.01386 7.00815e-18
8527.60956 7.59816e-18
8530.20526 8.75672e-18
8532.80095 1.00317e-17
8535.39665 1.08049e-17
8537.99235 1.09517e-17
8540.58805 1.02451e-17
8543.18375 9.26459e-18
8545.77944 8.43730e-18
8548.37514 8.21452e-18
8550.97084 8.80323e-18
8553.56654 1.01690e-17
8556.16224 1.15724e-17
8558.74791 1.25605e-17
8561.34361 1.25270e-17
8563.93931 1.13724e-17
8566.53501 1.00339e-17
8569.13070 9.18738e-18
8571.72640 9.26174e-18
8574.32210 1.02009e-17
8576.91780 1.15976e-17
8579.51350 1.29465e-17
8582.10919 1.32281e-17
8584.70489 1.22491e-17
8587.30059 1.08534e-17
8589.89629 9.73181e-18
8592.49199 9.51607e-18
8595.08768 1.00656e-17
8597.68338 1.11003e-17
8600.27908 1.24517e-17
8602.87478 1.39304e-17
8605.47048 1.46360e-17
8608.06617 1.38371e-17
8610.65185 1.18996e-17
8613.24755 1.00549e-17
8615.84325 9.54082e-18
8618.43894 1.00787e-17
8621.03464 1.10813e-17
8623.63034 1.26662e-17
8626.22604 1.42378e-17
8628.82174 1.50099e-17
8631.41743 1.39396e-17
8634.01313 1.20685e-17
8636.60883 1.04908e-17
8639.20453 9.59481e-18
8641.80023 9.54998e-18
8644.39592 1.01581e-17
8646.99162 1.15273e-17
8649.58732 1.31193e-17
8652.18302 1.44780e-17
8654.77872 1.55390e-17
8657.37441 1.61320e-17
8659.97011 1.55429e-17
8662.55579 1.39810e-17
8665.15149 1.18087e-17
8667.74718 9.90454e-18
8670.34288 9.33079e-18
8672.93858 1.02131e-17
8675.53428 1.19557e-17
8678.12998 1.37899e-17
8680.72567 1.48672e-17
8683.32137 1.41207e-17
8685.91707 1.21852e-17
8688.51277 1.05490e-17
8691.10847 9.65102e-18
8693.70416 9.33722e-18
8696.29986 9.45020e-18
8698.89556 1.02355e-17
8701.49126 1.21362e-17
8704.08696 1.41068e-17
8706.68265 1.45840e-17
8709.27835 1.31760e-17
8711.87405 1.09704e-17
8714.45973 9.72708e-18
8717.05542 9.49377e-18
8719.65112 1.05247e-17
8722.24682 1.20960e-17
8724.84252 1.36666e-17
8727.43822 1.43940e-17
8730.03391 1.39218e-17
8732.62961 1.23400e-17
8735.22531 1.05614e-17
8737.82101 9.18578e-18
8740.41671 8.74253e-18
8743.01240 8.98794e-18
8745.60810 1.02870e-17
8748.20380 1.24519e-17
8750.79950 1.39497e-17
8753.39520 1.33027e-17
8755.99089 1.13123e-17
8758.58659 9.49165e-18
8761.18229 8.26406e-18
8763.76797 7.93022e-18
8766.36366 8.83762e-18
8768.95936 1.06720e-17
8771.55506 1.21074e-17
8774.15076 1.21638e-17
8776.74646 1.11475e-17
8779.34215 9.50645e-18
8781.93785 7.70813e-18
8784.53355 6.40457e-18
8787.12925 6.16635e-18
8789.72495 6.77394e-18
8792.32064 7.76224e-18
8794.91634 9.00071e-18
8797.51204 9.60873e-18
8800.10774 8.85147e-18
8802.70344 7.15157e-18
8805.29913 5.63842e-18
8807.89483 4.78803e-18
8810.49053 4.79819e-18
8813.07621 5.50715e-18
8815.67190 6.25856e-18
8818.26760 6.97101e-18
8820.86330 7.75972e-18
8823.45900 7.80428e-18
8826.05470 6.46510e-18
8828.65039 4.79308e-18
8831.24609 3.96553e-18
8833.84179 3.73065e-18
8836.43749 3.96384e-18
8839.03319 4.59819e-18
8841.62888 5.37297e-18
8844.22458 6.17668e-18
8846.82028 6.65063e-18
8849.41598 6.41410e-18
8852.01168 5.85344e-18
8854.60737 5.21827e-18
8857.20307 4.54600e-18
8859.79877 3.81693e-18
8862.38445 3.34561e-18
8864.98014 3.46092e-18
8867.57584 4.26900e-18
8870.17154 5.33759e-18
8872.76724 6.13270e-18
8875.36294 6.03244e-18
8877.95863 5.02708e-18
8880.55433 3.91976e-18
8883.15003 3.21075e-18
8885.74573 3.07499e-18
8888.34143 3.44100e-18
8890.93712 4.11644e-18
8893.53282 4.88570e-18
8896.12852 5.46328e-18
8898.72422 5.55825e-18
8901.31992 5.09462e-18
8903.91561 4.17803e-18
8906.51131 3.47327e-18
8909.09699 3.22895e-18
8911.69269 3.27144e-18
8914.28838 3.36782e-18
8916.88408 3.61845e-18
8919.47978 4.08004e-18
8922.07548 4.67807e-18
8924.67118 5.48496e-18
8927.26687 6.20470e-18
8929.86257 6.46156e-18
8932.45827 5.95829e-18
8935.05397 4.95890e-18
8937.64967 4.12557e-18
8940.24536 3.86167e-18
8942.84106 4.37936e-18
8945.43676 5.49449e-18
8948.03246 6.73621e-18
8950.62816 7.16487e-18
8953.22385 6.65840e-18
8955.81955 5.72578e-18
8958.41525 4.97704e-18
8961.00093 4.41270e-18
8963.59662 4.20705e-18
8966.19232 4.49712e-18
8968.78802 4.90870e-18
8971.38372 5.63519e-18
8973.97942 6.67495e-18
8976.57511 7.09437e-18
8979.17081 7.24276e-18
8981.76651 7.26906e-18
8984.36221 6.67915e-18
8986.95791 5.79620e-18
8989.55360 4.96583e-18
8992.14930 4.30560e-18
8994.74500 4.16761e-18
8997.34070 4.73828e-18
8999.93640 5.81145e-18
9002.53209 6.90513e-18
9005.12779 7.61830e-18
9007.72349 7.52632e-18
9010.31919 6.65856e-18
9012.90486 5.37281e-18
9015.50056 4.43762e-18
9018.09626 4.05803e-18
9020.69196 4.30566e-18
9023.28766 5.24344e-18
9025.88335 6.29508e-18
9028.47905 7.01750e-18
9031.07475 6.93915e-18
9033.67045 5.92083e-18
9036.26615 4.74674e-18
9038.86184 3.91707e-18
9041.45754 3.66562e-18
9044.05324 4.02389e-18
9046.64894 4.81018e-18
9049.24464 5.71149e-18
9051.84033 6.32994e-18
9054.43603 6.47903e-18
9057.03173 5.87633e-18
9059.62743 4.80461e-18
9062.21310 4.04939e-18
9064.81882 3.69597e-18
9067.40450 3.61571e-18
9070.00020 3.70469e-18
9072.59590 3.91634e-18
9075.19159 4.34389e-18
9077.78729 5.04786e-18
9080.38299 5.97781e-18
9082.97869 6.52743e-18
9085.57439 6.38037e-18
9088.17008 5.79975e-18
9090.76578 5.36345e-18
9093.36148 4.81047e-18
9095.95718 4.22485e-18
9098.55288 4.05287e-18
9101.14857 4.30207e-18
9103.74427 4.88457e-18
9106.33997 5.73520e-18
9108.93567 6.41933e-18
9111.53137 6.38422e-18
9114.12706 5.75734e-18
9116.71274 5.08064e-18
9119.30844 4.56227e-18
9121.90414 4.24458e-18
9124.49983 4.47021e-18
9127.09553 4.89699e-18
9129.69123 5.77537e-18
9132.28693 6.80328e-18
9134.88263 6.53483e-18
9137.47832 5.43737e-18
9140.07402 4.06190e-18
9142.66972 3.04865e-18
9145.26542 3.37886e-18
9147.86112 4.09995e-18
9150.45681 4.41167e-18
9153.05251 4.36458e-18
9155.64821 4.37790e-18
9158.24391 4.59205e-18
9160.83961 4.78837e-18
9163.43530 5.36989e-18
9166.02098 5.99232e-18
9168.61668 5.78319e-18
9171.21238 4.79908e-18
9173.80807 3.58161e-18
9176.40377 3.03765e-18
9178.99947 3.09197e-18
9181.59517 3.59347e-18
9184.19087 4.41831e-18
9186.78656 5.59213e-18
9189.38226 7.09113e-18
9191.97796 8.00632e-18
9194.57366 7.31611e-18
9197.16936 5.19416e-18
9199.76505 3.67494e-18
9202.36075 3.51647e-18
9204.95645 3.83528e-18
9207.55215 4.51727e-18
9210.14785 5.55519e-18
9212.74354 6.41150e-18
9215.32922 6.38576e-18
9217.92492 5.71953e-18
9220.52062 5.10116e-18
9223.11631 4.35083e-18
9225.71201 4.17128e-18
9228.30771 4.48048e-18
9230.90341 5.11189e-18
9233.49911 5.97568e-18
9236.09480 6.72877e-18
9238.69050 7.24504e-18
9241.28620 6.61477e-18
9243.88190 5.69981e-18
9246.47760 5.02213e-18
9249.07329 4.24281e-18
9251.66899 3.57884e-18
9254.26469 2.95407e-18
9256.86039 3.36311e-18
9259.45609 4.80146e-18
9262.05178 6.52886e-18
9264.63746 7.96162e-18
9267.23316 8.02922e-18
9269.82886 6.51575e-18
9272.42455 4.77938e-18
9275.02025 3.85655e-18
9277.61595 3.83165e-18
9280.21165 4.28077e-18
9282.80735 5.12458e-18
9285.40304 6.69014e-18
9287.99874 8.10125e-18
9290.59444 8.52346e-18
9293.19014 7.47560e-18
9295.78584 5.50746e-18
9298.38153 4.31837e-18
9300.97723 4.16106e-18
9303.57293 4.47995e-18
9306.16863 4.95929e-18
9308.76433 5.82543e-18
9311.36002 6.63303e-18
9313.94570 6.55897e-18
9316.54140 5.75923e-18
9319.13710 4.83741e-18
9321.73279 4.17335e-18
9324.32849 3.85692e-18
9326.92419 3.74638e-18
9329.51989 3.98500e-18
9332.11559 4.94850e-18
9334.71128 6.32369e-18
9337.30698 7.13276e-18
9339.90268 7.17297e-18
9342.49838 6.31855e-18
9345.09408 5.16138e-18
9347.68977 4.23248e-18
9350.28547 3.43595e-18
9352.88117 3.23680e-18
9355.47687 3.42735e-18
9358.07257 4.14446e-18
9360.66826 5.99666e-18
9363.26396 7.45052e-18
9365.84964 6.66001e-18
9368.44534 4.79472e-18
9371.04103 3.32140e-18
9373.63673 2.05816e-18
9376.23243 1.18611e-18
9378.82813 1.58139e-18
9381.42383 3.23810e-18
9384.01952 5.11714e-18
9386.61522 5.98058e-18
9389.21092 5.32897e-18
9391.80662 4.00664e-18
9394.40232 2.89137e-18
9396.99801 2.31967e-18
9399.59371 2.33014e-18
9402.18941 2.72477e-18
9404.78511 3.28174e-18
9407.38081 3.71172e-18
9409.97650 4.20558e-18
9412.57220 4.31059e-18
9415.15788 3.88143e-18
9417.75358 3.12291e-18
9420.34927 2.52733e-18
9422.94497 2.22504e-18
9425.54067 2.17201e-18
9428.13637 2.38360e-18
9430.73207 2.71495e-18
9433.32776 3.25748e-18
9435.92346 3.85565e-18
9438.51916 4.17201e-18
9441.11486 4.10644e-18
9443.71056 3.60463e-18
9446.30625 3.01647e-18
9448.90195 2.46059e-18
9451.49765 2.36914e-18
9454.09335 2.55889e-18
9456.68905 2.89303e-18
9459.28474 3.54808e-18
9461.88044 4.13645e-18
9464.46612 4.24370e-18
9467.06182 3.65735e-18
9469.65751 2.85865e-18
9472.25321 2.42142e-18
9474.84891 2.35493e-18
9477.44461 2.62738e-18
9480.04031 3.16606e-18
9482.63600 3.82446e-18
9485.23170 4.49228e-18
9487.82740 4.75772e-18
9490.42310 4.17853e-18
9493.01880 3.08353e-18
9495.61449 2.26153e-18
9498.21019 1.95578e-18
9500.80589 2.10958e-18
9503.40159 2.52640e-18
9505.99729 2.96150e-18
9508.59298 3.63787e-18
9511.18868 4.39093e-18
9513.77436 4.89588e-18
9516.38008 4.92487e-18
9518.96575 4.44204e-18
9521.56145 4.03656e-18
9524.15715 3.79374e-18
9526.75285 3.47712e-18
9529.34855 3.01092e-18
9531.94424 2.53836e-18
9534.53994 2.35253e-18
9537.13564 2.49855e-18
9539.73134 2.87856e-18
9542.32704 3.43279e-18
9544.92273 3.94487e-18
9547.51843 4.24481e-18
9550.11413 4.30776e-18
9552.70983 4.04365e-18
9555.30553 3.45617e-18
9557.90122 2.87656e-18
9560.49692 2.61397e-18
9563.08260 2.43394e-18
9565.68832 2.36532e-18
9568.27399 2.50491e-18
9570.86969 2.92190e-18
9573.46539 3.41712e-18
9576.06109 4.10147e-18
9578.65679 4.58822e-18
9581.25248 4.38670e-18
9583.84818 3.62919e-18
9586.44388 2.91943e-18
9589.03958 2.46428e-18
9591.63528 2.10274e-18
9594.23097 2.02978e-18
9596.82667 2.19513e-18
9599.42237 2.36834e-18
9602.01807 2.71367e-18
9604.61377 3.19612e-18
9607.20946 3.68846e-18
9609.80516 3.81644e-18
9612.39084 3.63695e-18
9614.99656 3.32337e-18
9617.58223 2.88795e-18
9620.17793 2.44239e-18
9622.77363 2.19138e-18
9625.36933 2.12049e-18
9627.96503 2.18689e-18
9630.56072 2.49464e-18
9633.15642 2.94834e-18
9635.75212 3.31035e-18
9638.34782 3.42862e-18
9640.94352 3.29934e-18
9643.53921 3.00201e-18
9646.13491 2.54986e-18
9648.73061 2.11920e-18
9651.32631 1.90668e-18
9653.92201 1.82345e-18
9656.51770 1.85045e-18
9659.11340 2.07441e-18
9661.70910 2.46259e-18
9664.30480 2.82760e-18
9666.89047 3.01770e-18
9669.48617 2.78214e-18
9672.08187 2.24490e-18
9674.67757 1.91050e-18
9677.27327 1.59643e-18
9679.86896 1.45410e-18
9682.46466 1.43184e-18
9685.06036 1.50764e-18
9687.65606 1.70632e-18
9690.25176 2.05832e-18
9692.84745 2.38917e-18
9695.44315 2.60155e-18
9698.03885 2.70588e-18
9700.63455 2.77629e-18
9703.23025 2.76166e-18
9705.82594 2.45919e-18
9708.42164 1.98071e-18
9711.01734 1.56055e-18
9713.61304 1.27433e-18
9716.20874 1.22580e-18
9718.79441 1.47281e-18
9721.39011 1.76740e-18
9723.98581 1.94215e-18
9726.58151 2.20926e-18
9729.17720 2.52807e-18
9731.77290 2.47110e-18
9734.36860 2.23329e-18
9736.96430 1.81934e-18
9739.56000 1.31837e-18
9742.15569 9.47636e-19
9744.75139 8.63570e-19
9747.34709 1.07816e-18
9749.94279 1.43011e-18
9752.53849 1.65791e-18
9755.13418 1.83870e-18
9757.72988 2.22079e-18
9760.32558 2.62029e-18
9762.92128 2.59797e-18
9765.51698 2.21520e-18
9768.10265 1.87627e-18
9770.69835 1.56383e-18
9773.29405 1.27274e-18
9775.88975 9.80835e-19
9778.48544 9.41005e-19
9781.08114 1.10638e-18
9783.67684 1.20751e-18
9786.27254 1.31911e-18
9788.86824 1.51475e-18
9791.46393 1.76351e-18
9794.05963 1.99468e-18
9796.65533 2.07838e-18
9799.25103 1.99360e-18
9799.34061 1.99360e-18
9800.20207 2.00016e-18
9801.06353 2.00675e-18
9801.92499 2.01993e-18
9802.78645 2.03313e-18
9803.64792 2.04706e-18
9804.51940 2.06099e-18
9805.38086 2.06878e-18
9806.24232 2.07655e-18
9807.10378 2.07487e-18
9807.96524 2.07315e-18
9808.82671 2.06860e-18
9809.68817 2.06404e-18
9810.54963 2.06291e-18
9811.41109 2.06179e-18
9812.27255 2.06805e-18
9813.13402 2.07434e-18
9813.99548 2.08985e-18
9814.86696 2.10539e-18
9815.72842 2.11910e-18
9816.58988 2.13281e-18
9817.45134 2.13301e-18
9818.31280 2.13317e-18
9819.17427 2.12141e-18
9820.03573 2.10962e-18
9820.89719 2.09084e-18
9821.75865 2.07204e-18
9822.62012 2.05347e-18
9823.48158 2.03491e-18
9824.35306 2.02499e-18
9825.21452 2.01510e-18
9826.07598 2.01261e-18
9826.93744 2.01013e-18
9827.79890 2.00823e-18
9828.66037 2.00633e-18
9829.52183 2.00333e-18
9830.38329 2.00032e-18
9831.24475 1.99825e-18
9832.10621 1.99619e-18
9832.97769 1.99458e-18
9833.83915 1.99297e-18
9834.70062 1.98917e-18
9835.56208 1.98536e-18
9836.42354 1.97815e-18
9837.28500 1.97092e-18
9838.14647 1.96101e-18
9839.00793 1.95109e-18
9839.86939 1.93929e-18
9840.73085 1.92748e-18
9841.59231 1.91420e-18
9842.45377 1.90092e-18
9843.32525 1.88769e-18
9844.18672 1.87446e-18
9845.04818 1.86596e-18
9845.90964 1.85747e-18
9846.77110 1.85739e-18
9847.63256 1.85734e-18
9848.49403 1.86454e-18
9849.35549 1.87177e-18
9850.21695 1.88416e-18
9851.07841 1.89656e-18
9851.93987 1.91213e-18
9852.81135 1.92770e-18
9853.67282 1.94408e-18
9854.53428 1.96045e-18
9855.39574 1.97614e-18
9856.25720 1.99182e-18
9857.11866 2.00572e-18
9857.98013 2.01961e-18
9858.84159 2.02874e-18
9859.70305 2.03786e-18
9860.56451 2.03882e-18
9861.42597 2.03976e-18
9862.29745 2.03209e-18
9863.15891 2.02440e-18
9864.02038 2.00956e-18
9864.88184 1.99471e-18
9865.74330 1.97541e-18
9866.60476 1.95609e-18
9867.46622 1.93620e-18
9868.32769 1.91632e-18
9869.18915 1.89806e-18
9870.05061 1.87980e-18
9870.92209 1.86292e-18
9871.78355 1.84603e-18
9872.64501 1.83081e-18
9873.50648 1.81559e-18
9874.36794 1.80334e-18
9875.22940 1.79109e-18
9876.09086 1.78283e-18
9876.95232 1.77459e-18
9877.81379 1.77128e-18
9878.67525 1.76799e-18
9879.53671 1.77006e-18
9880.39817 1.77215e-18
9881.26965 1.77895e-18
9882.13111 1.78576e-18
9882.99257 1.79606e-18
9883.85404 1.80637e-18
9884.71550 1.81794e-18
9885.57696 1.82952e-18
9886.43842 1.83996e-18
9887.29988 1.85040e-18
9888.16135 1.85744e-18
9889.02281 1.86447e-18
9889.88427 1.86623e-18
9890.74573 1.86797e-18
9891.61721 1.86439e-18
9892.47867 1.86080e-18
9893.34014 1.85285e-18
9894.20160 1.84488e-18
9895.06306 1.83357e-18
9895.92452 1.82225e-18
9896.78598 1.80867e-18
9897.64745 1.79507e-18
9898.50891 1.78098e-18
9899.37037 1.76687e-18
9900.23183 1.75460e-18
9901.09329 1.74233e-18
9901.96477 1.73226e-18
9902.82623 1.72220e-18
9903.68770 1.71236e-18
9904.54916 1.70252e-18
9905.41062 1.69336e-18
9906.27208 1.68420e-18
9907.13354 1.68004e-18
9907.99501 1.67590e-18
9908.85647 1.67879e-18
9909.71793 1.68170e-18
9910.57939 1.68968e-18
9911.45087 1.69768e-18
9912.31233 1.70753e-18
9913.17380 1.71739e-18
9914.03526 1.72235e-18
9914.89672 1.72729e-18
9915.75818 1.72196e-18
9916.61964 1.71660e-18
9917.48111 1.70286e-18
9918.34257 1.68911e-18
9919.20403 1.67026e-18
9920.07551 1.65140e-18
9920.93697 1.63118e-18
9921.79843 1.61096e-18
9922.65989 1.59317e-18
9923.52136 1.57540e-18
9924.38282 1.56170e-18
9925.24428 1.54803e-18
9926.10574 1.53909e-18
9926.96720 1.53016e-18
9927.82867 1.52350e-18
9928.69013 1.51684e-18
9929.56161 1.50851e-18
9930.42307 1.50018e-18
9931.28453 1.48891e-18
9932.14599 1.47764e-18
9933.00746 1.46399e-18
9933.86892 1.45033e-18
9934.73038 1.43546e-18
9935.59184 1.42059e-18
9936.45330 1.40616e-18
9937.31477 1.39174e-18
9938.17623 1.37998e-18
9939.03769 1.36823e-18
9939.90917 1.36191e-18
9940.77063 1.35560e-18
9941.63209 1.35548e-18
9942.49355 1.35538e-18
9943.35502 1.35858e-18
9944.21648 1.36180e-18
9945.07794 1.36585e-18
9945.93940 1.36989e-18
9946.80086 1.37416e-18
9947.66233 1.37842e-18
9948.52379 1.38218e-18
9949.39527 1.38593e-18
9950.25673 1.38781e-18
9951.11819 1.38968e-18
9951.97965 1.38878e-18
9952.84112 1.38788e-18
9953.70258 1.38599e-18
9954.56404 1.38410e-18
9955.42550 1.38319e-18
9956.28696 1.38228e-18
9957.14843 1.38102e-18
9958.00989 1.37977e-18
9958.88137 1.37637e-18
9959.74283 1.37296e-18
9960.60429 1.36649e-18
9961.46575 1.36001e-18
9962.32721 1.34988e-18
9963.18868 1.33973e-18
9964.05014 1.32896e-18
9964.91160 1.31819e-18
9965.77306 1.31185e-18
9966.63452 1.30554e-18
9967.49599 1.30483e-18
9968.36747 1.30413e-18
9969.22893 1.30710e-18
9970.09039 1.31007e-18
9970.95185 1.31640e-18
9971.81331 1.32273e-18
9972.67477 1.33388e-18
9973.53624 1.34504e-18
9974.39770 1.36040e-18
9975.25916 1.37578e-18
9976.12062 1.39206e-18
9976.98208 1.40835e-18
9977.85356 1.42295e-18
9978.71503 1.43754e-18
9979.57649 1.44919e-18
9980.43795 1.46084e-18
9981.29941 1.46911e-18
9982.16087 1.47737e-18
9983.02234 1.48402e-18
9983.88380 1.49067e-18
9984.74526 1.49747e-18
9985.60672 1.50427e-18
9986.46818 1.51211e-18
9987.32965 1.51994e-18
9988.20112 1.52927e-18
9989.06259 1.53860e-18
9989.92405 1.54613e-18
9990.78551 1.55366e-18
9991.64697 1.55567e-18
9992.50843 1.55766e-18
9993.36990 1.55695e-18
9994.23136 1.55623e-18
9995.09282 1.55757e-18
9995.95428 1.55892e-18
9996.81574 1.56151e-18
9997.67721 1.56409e-18
9998.54869 1.56487e-18
9999.41015 1.56564e-18
