# wavelength flux
3294.29153 1.70953e-17
3297.23800 2.06089e-17
3300.17445 2.05855e-17
3303.12091 1.85036e-17
3306.05736 1.64794e-17
3309.00383 1.49288e-17
3311.94027 1.46274e-17
3314.88674 1.37582e-17
3317.82319 1.54430e-17
3320.76966 1.47570e-17
3323.71612 1.27927e-17
3326.65257 1.28809e-17
3329.59904 1.38285e-17
3332.53548 1.45707e-17
3335.48195 1.29849e-17
3338.41840 1.12250e-17
3341.36487 1.09557e-17
3344.30131 1.27370e-17
3347.24778 1.37496e-17
3350.18423 1.27109e-17
3353.13069 1.30589e-17
3356.07716 1.69710e-17
3359.01361 1.74112e-17
3361.96008 1.43862e-17
3364.89652 1.16183e-17
3367.84299 1.10509e-17
3370.77944 1.16165e-17
3373.72590 1.14152e-17
3376.66235 1.16711e-17
3379.60882 1.41185e-17
3382.54526 1.42114e-17
3385.49173 1.25238e-17
3388.43820 1.27979e-17
3391.37465 1.32597e-17
3394.32111 1.23979e-17
3397.25756 1.25321e-17
3400.20403 1.30082e-17
3403.14047 1.13354e-17
3406.08694 1.17864e-17
3409.02339 1.30467e-17
3411.96986 1.29638e-17
3414.91632 1.34347e-17
3417.85277 1.46191e-17
3420.79924 1.59835e-17
3423.73568 1.54655e-17
3426.68215 1.42685e-17
3429.61860 1.45524e-17
3432.56507 1.46339e-17
3435.50151 1.37666e-17
3438.44798 1.38414e-17
3441.38443 1.49244e-17
3444.33089 1.64030e-17
3447.27736 1.62177e-17
3450.21381 1.62817e-17
3453.16028 1.63799e-17
3456.09672 1.60965e-17
3459.04319 1.53723e-17
3461.97964 1.46204e-17
3464.92610 1.50050e-17
3467.86255 1.59211e-17
3470.80902 1.51952e-17
3473.74546 1.60007e-17
3476.69193 1.55995e-17
3479.63840 1.35589e-17
3482.57485 1.28573e-17
3485.52131 1.38799e-17
3488.45776 1.44984e-17
3491.40423 1.28187e-17
3494.34067 1.21274e-17
3497.28714 1.30551e-17
3500.22359 1.35089e-17
3503.17006 1.34260e-17
3506.11652 1.42197e-17
3509.05297 1.40412e-17
3511.99944 1.36202e-17
3514.93588 1.37545e-17
3517.88235 1.35447e-17
3520.81880 1.36518e-17
3523.76527 1.36513e-17
3526.70171 1.33287e-17
3529.64818 1.27770e-17
3532.58463 1.19161e-17
3535.53109 1.29162e-17
3538.47756 1.44268e-17
3541.41401 1.38092e-17
3544.36048 1.29143e-17
3547.29692 1.34824e-17
3550.24339 1.35241e-17
3553.17984 1.30773e-17
3556.12630 1.42424e-17
3559.06275 1.46844e-17
3562.00922 1.37479e-17
3564.94566 1.37671e-17
3567.89213 1.41736e-17
3570.83860 1.42727e-17
3573.77505 1.44274e-17
3576.72151 1.48213e-17
3579.65796 1.47554e-17
3582.60443 1.49894e-17
3585.54087 1.51252e-17
3588.48734 1.42230e-17
3591.42379 1.39930e-17
3594.37026 1.42896e-17
3597.31672 1.44308e-17
3600.25317 1.40739e-17
3603.19964 1.34321e-17
3606.13608 1.38384e-17
3609.08255 1.47046e-17
3612.01900 1.41651e-17
3614.96547 1.33567e-17
3617.90191 1.29636e-17
3620.84838 1.30092e-17
3623.78483 1.36117e-17
3626.73129 1.43567e-17
3629.67776 1.45906e-17
3632.61421 1.39677e-17
3635.56068 1.39753e-17
3638.49712 1.40367e-17
3641.44359 1.34954e-17
3644.38004 1.35419e-17
3647.32650 1.44353e-17
3650.26295 1.43831e-17
3653.20942 1.39473e-17
3656.14586 1.32733e-17
3659.09233 1.33635e-17
3662.03880 1.39619e-17
3664.97525 1.39516e-17
3667.92171 1.40845e-17
3670.85816 1.41857e-17
3673.80463 1.39875e-17
3676.74107 1.40571e-17
3679.68754 1.45134e-17
3682.62399 1.46954e-17
3685.57046 1.45315e-17
3688.51692 1.50622e-17
3691.45337 1.54136e-17
3694.39984 1.56753e-17
3697.33628 1.54226e-17
3700.28275 1.52254e-17
3703.21920 1.58520e-17
3706.16567 1.62497e-17
3709.10211 1.61283e-17
3712.04858 1.58055e-17
3714.98503 1.59594e-17
3717.93149 1.57466e-17
3720.87796 1.55207e-17
3723.81441 1.52950e-17
3726.76088 1.50693e-17
3729.69732 1.48436e-17
3732.64379 1.46180e-17
3735.58024 1.43924e-17
3738.52670 1.41669e-17
3741.46315 1.39414e-17
3744.40962 1.37159e-17
3747.35609 1.34905e-17
3750.29253 1.32652e-17
3753.23900 1.30399e-17
3756.17545 1.28146e-17
3759.12191 1.31287e-17
3762.05836 1.28566e-17
3765.00483 1.17322e-17
3767.94127 1.13207e-17
3770.88774 1.10957e-17
3773.82419 1.09559e-17
3776.77066 1.09334e-17
3779.71712 1.06754e-17
3782.65357 9.87655e-18
3785.60004 9.72023e-18
3788.53648 9.52577e-18
3791.48295 9.25923e-18
3794.41940 9.19698e-18
3797.36587 9.11792e-18
3800.30231 9.20780e-18
3803.24878 9.04557e-18
3806.18523 8.92305e-18
3809.13169 8.62296e-18
3812.07816 8.27164e-18
3815.01461 8.21818e-18
3817.96108 8.00868e-18
3820.89752 7.22394e-18
3823.84399 7.14580e-18
3826.78044 7.32240e-18
3829.72690 7.40645e-18
3832.66335 7.45890e-18
3835.60982 7.61155e-18
3838.55629 7.47742e-18
3841.49273 7.81083e-18
3844.43920 8.16655e-18
3847.37565 8.26729e-18
3850.32211 8.27948e-18
3853.25856 8.27571e-18
3856.20503 8.73509e-18
3859.14147 9.05910e-18
3862.08794 9.17123e-18
3865.02439 9.38519e-18
3867.97086 1.02260e-17
3870.91732 1.07712e-17
3873.85377 1.07082e-17
3876.80024 1.09966e-17
3879.73668 1.15959e-17
3882.68315 1.21881e-17
3885.61960 1.23680e-17
3888.56607 1.26583e-17
3891.50251 1.35061e-17
3894.44898 1.39387e-17
3897.38543 1.43797e-17
3900.33189 1.47081e-17
3903.27836 1.54036e-17
3906.21481 1.53502e-17
3909.16128 1.53370e-17
3912.09772 1.60944e-17
3915.04419 1.63748e-17
3917.98064 1.68408e-17
3920.92710 1.70478e-17
3923.86355 1.68492e-17
3926.81002 1.71275e-17
3929.75649 1.74120e-17
3932.69293 1.76986e-17
3935.63940 1.75917e-17
3938.57585 1.75514e-17
3941.52231 1.74958e-17
3944.45876 1.79279e-17
3947.40523 1.83516e-17
3950.34167 1.83312e-17
3953.28814 1.83712e-17
3956.22459 1.86098e-17
3959.17106 1.83930e-17
3962.11752 1.87665e-17
3965.05397 1.85497e-17
3968.00044 1.86681e-17
3970.93688 1.91087e-17
3973.88335 1.94083e-17
3976.81980 1.95227e-17
3979.76627 1.95816e-17
3982.70271 1.98617e-17
3985.64918 1.98224e-17
3988.59565 1.91581e-17
3991.53209 1.89632e-17
3994.47856 1.92203e-17
3997.41501 1.92127e-17
4000.36148 1.88463e-17
4003.29792 1.86924e-17
4006.24439 1.86811e-17
4009.18084 1.88859e-17
4012.12730 1.90165e-17
4015.06375 1.88225e-17
4018.01022 1.83771e-17
4020.95669 1.81526e-17
4023.89313 1.79557e-17
4026.83960 1.74019e-17
4029.77605 1.71875e-17
4032.72251 1.72726e-17
4035.65896 1.71503e-17
4038.60543 1.69611e-17
4041.54187 1.70158e-17
4044.48834 1.69426e-17
4047.42479 1.66989e-17
4050.37126 1.67185e-17
4053.31772 1.68032e-17
4056.25417 1.67809e-17
4059.20064 1.67281e-17
4062.13708 1.63140e-17
4065.08355 1.64277e-17
4068.02000 1.65626e-17
4070.96647 1.64242e-17
4073.90291 1.63421e-17
4076.84938 1.61107e-17
4079.79585 1.57858e-17
4082.73229 1.55246e-17
4085.67876 1.55044e-17
4088.61521 1.55564e-17
4091.56168 1.56537e-17
4094.49812 1.54821e-17
4097.44459 1.51808e-17
4100.38104 1.54012e-17
4103.32750 1.56199e-17
4106.26395 1.52540e-17
4109.21042 1.50735e-17
4112.15689 1.48958e-17
4115.09333 1.46083e-17
4118.03980 1.45227e-17
4120.97625 1.45844e-17
4123.92271 1.46169e-17
4126.85916 1.46437e-17
4129.80563 1.45411e-17
4132.74207 1.45479e-17
4135.68854 1.45708e-17
4138.63501 1.45758e-17
4141.57146 1.42933e-17
4144.51792 1.41502e-17
4147.45437 1.43049e-17
4150.40084 1.42030e-17
4153.33728 1.41905e-17
4156.28375 1.40370e-17
4159.22020 1.39738e-17
4162.16667 1.41632e-17
4165.10311 1.43787e-17
4168.04958 1.43262e-17
4170.99605 1.42727e-17
4173.93249 1.39537e-17
4176.87896 1.38534e-17
4179.81541 1.39803e-17
4182.76188 1.40588e-17
4185.69832 1.40402e-17
4188.64479 1.37972e-17
4191.58124 1.36765e-17
4194.52770 1.40428e-17
4197.46415 1.40052e-17
4200.41062 1.38996e-17
4203.35709 1.41119e-17
4206.29353 1.42710e-17
4209.24000 1.44993e-17
4212.17645 1.50467e-17
4215.12291 1.52211e-17
4218.05936 1.51700e-17
4221.00583 1.50415e-17
4223.94227 1.50567e-17
4226.88874 1.50919e-17
4229.82519 1.49571e-17
4232.77166 1.48212e-17
4235.71812 1.47624e-17
4238.65457 1.45730e-17
4241.60104 1.44311e-17
4244.53748 1.44204e-17
4247.48395 1.45924e-17
4250.42040 1.43912e-17
4253.36687 1.41158e-17
4256.30331 1.41963e-17
4259.24978 1.42053e-17
4262.19625 1.41816e-17
4265.13269 1.42070e-17
4268.07916 1.41103e-17
4271.01561 1.42551e-17
4273.96208 1.42593e-17
4276.89852 1.41968e-17
4279.84499 1.42194e-17
4282.78144 1.41112e-17
4285.72790 1.41861e-17
4288.66435 1.42045e-17
4291.61082 1.41986e-17
4294.55729 1.42460e-17
4297.49373 1.44931e-17
4300.44020 1.46269e-17
4303.37665 1.44160e-17
4306.32311 1.42247e-17
4309.25956 1.42077e-17
4312.20603 1.41987e-17
4315.14247 1.41083e-17
4318.08894 1.41622e-17
4321.03541 1.43278e-17
4323.97186 1.43126e-17
4326.91832 1.43183e-17
4329.85477 1.41829e-17
4332.80124 1.41027e-17
4335.73768 1.39596e-17
4338.68415 1.37084e-17
4341.62060 1.38164e-17
4344.56707 1.38157e-17
4347.50351 1.34718e-17
4350.44998 1.32986e-17
4353.39645 1.30735e-17
4356.33289 1.29554e-17
4359.27936 1.28374e-17
4362.21581 1.27194e-17
4365.16228 1.26014e-17
4368.09872 1.24834e-17
4371.04519 1.23654e-17
4373.98164 1.22475e-17
4376.92810 1.21295e-17
4379.86455 1.20116e-17
4382.81102 1.18937e-17
4385.75749 1.17758e-17
4388.69393 1.16579e-17
4391.64040 1.15401e-17
4394.57685 1.17116e-17
4397.52331 1.16591e-17
4400.45976 1.14869e-17
4403.40623 1.13382e-17
4406.34267 1.14065e-17
4409.28914 1.14660e-17
4412.23561 1.13330e-17
4415.17206 1.14962e-17
4418.11852 1.17245e-17
4421.05497 1.18307e-17
4424.00144 1.19145e-17
4426.93788 1.19414e-17
4429.88435 1.19692e-17
4432.82080 1.17847e-17
4435.76727 1.15137e-17
4438.70371 1.15161e-17
4441.65018 1.17507e-17
4444.59665 1.20944e-17
4447.53309 1.22339e-17
4450.47956 1.23137e-17
4453.41601 1.26100e-17
4456.36248 1.26679e-17
4459.29892 1.26318e-17
4462.24539 1.27552e-17
4465.18184 1.28477e-17
4468.12830 1.29269e-17
4471.07477 1.31388e-17
4474.01122 1.31774e-17
4476.95769 1.33146e-17
4479.89413 1.33047e-17
4482.84060 1.35053e-17
4485.77705 1.36525e-17
4488.72351 1.37214e-17
4491.65996 1.38539e-17
4494.60643 1.40770e-17
4497.54287 1.42696e-17
4500.48934 1.45353e-17
4503.43581 1.48441e-17
4506.37226 1.49069e-17
4509.31872 1.49950e-17
4512.25517 1.49772e-17
4515.20164 1.50637e-17
4518.13808 1.52500e-17
4521.08455 1.54046e-17
4524.02100 1.55813e-17
4526.96747 1.56932e-17
4529.90391 1.56259e-17
4532.85038 1.57239e-17
4535.79685 1.60248e-17
4538.73329 1.61232e-17
4541.67976 1.65137e-17
4544.61621 1.70073e-17
4547.56268 1.71132e-17
4550.49912 1.68209e-17
4553.44559 1.68279e-17
4556.38204 1.71798e-17
4559.32850 1.73195e-17
4562.26495 1.72450e-17
4565.21142 1.71928e-17
4568.15789 1.74628e-17
4571.09433 1.79181e-17
4574.04080 1.79842e-17
4576.97725 1.79872e-17
4579.92371 1.80890e-17
4582.86016 1.81392e-17
4585.80663 1.81539e-17
4588.74307 1.80313e-17
4591.68954 1.80571e-17
4594.63601 1.80547e-17
4597.57246 1.78421e-17
4600.51892 1.77414e-17
4603.45537 1.76992e-17
4606.40184 1.74195e-17
4609.33828 1.74462e-17
4612.28475 1.74605e-17
4615.22120 1.72596e-17
4618.16767 1.73705e-17
4621.10411 1.73801e-17
4624.05058 1.72510e-17
4626.99705 1.75838e-17
4629.93349 1.74985e-17
4632.87996 1.73530e-17
4635.81641 1.73881e-17
4638.76288 1.74614e-17
4641.69932 1.75060e-17
4644.64579 1.76389e-17
4647.58224 1.77260e-17
4650.52870 1.75309e-17
4653.47517 1.71753e-17
4656.41162 1.71580e-17
4659.35809 1.72309e-17
4662.29453 1.71381e-17
4665.24100 1.69367e-17
4668.17745 1.71018e-17
4671.12391 1.71149e-17
4674.06036 1.69436e-17
4677.00683 1.68416e-17
4679.94327 1.66483e-17
4682.88974 1.66801e-17
4685.83621 1.68501e-17
4688.77266 1.64215e-17
4691.71912 1.62574e-17
4694.65557 1.61812e-17
4697.60204 1.58292e-17
4700.53848 1.58917e-17
4703.48495 1.60946e-17
4706.42140 1.58114e-17
4709.36787 1.56129e-17
4712.31433 1.55808e-17
4715.25078 1.53315e-17
4718.19725 1.54774e-17
4721.13369 1.54193e-17
4724.08016 1.51822e-17
4727.01661 1.49388e-17
4729.96308 1.50630e-17
4732.89952 1.51734e-17
4735.84599 1.49970e-17
4738.78244 1.49255e-17
4741.72890 1.48897e-17
4744.67537 1.50442e-17
4747.61182 1.50467e-17
4750.55829 1.49914e-17
4753.49473 1.47677e-17
4756.44120 1.44347e-17
4759.37765 1.42795e-17
4762.32411 1.40178e-17
4765.26056 1.36686e-17
4768.20703 1.34964e-17
4771.14347 1.33274e-17
4774.08994 1.31836e-17
4777.03641 1.30403e-17
4779.97286 1.29536e-17
4782.91932 1.27374e-17
4785.85577 1.24822e-17
4788.80224 1.25313e-17
4791.73868 1.26707e-17
4794.68515 1.25599e-17
4797.62160 1.22512e-17
4800.56807 1.21593e-17
4803.50451 1.23693e-17
4806.45098 1.26353e-17
4809.39745 1.26036e-17
4812.33389 1.26716e-17
4815.28036 1.29317e-17
4818.21681 1.29745e-17
4821.16328 1.29912e-17
4824.09972 1.32032e-17
4827.04619 1.32756e-17
4829.98264 1.32640e-17
4832.92910 1.34140e-17
4835.87557 1.34114e-17
4838.81202 1.33213e-17
4841.75849 1.31646e-17
4844.69493 1.31184e-17
4847.64140 1.28432e-17
4850.57785 1.26445e-17
4853.52431 1.25211e-17
4856.46076 1.24654e-17
4859.40723 1.24097e-17
4862.34367 1.23540e-17
4865.29014 1.22984e-17
4868.23661 1.22427e-17
4871.17306 1.21870e-17
4874.11952 1.21314e-17
4877.05597 1.20757e-17
4880.00244 1.20201e-17
4882.93888 1.19645e-17
4885.88535 1.19089e-17
4888.82180 1.18533e-17
4891.76827 1.17977e-17
4894.71473 1.19276e-17
4897.65118 1.19658e-17
4900.59765 1.18892e-17
4903.53409 1.22462e-17
4906.48056 1.25968e-17
4909.41701 1.26932e-17
4912.36348 1.28178e-17
4915.29992 1.30222e-17
4918.24639 1.31775e-17
4921.18284 1.31258e-17
4924.12930 1.33288e-17
4927.07577 1.37966e-17
4930.01222 1.39222e-17
4932.95869 1.38909e-17
4935.89513 1.39879e-17
4938.84160 1.42799e-17
4941.77805 1.44276e-17
4944.72451 1.43858e-17
4947.66096 1.45492e-17
4950.60743 1.44436e-17
4953.55390 1.43217e-17
4956.49034 1.41998e-17
4959.43681 1.40779e-17
4962.37326 1.39560e-17
4965.31972 1.38341e-17
4968.25617 1.37123e-17
4971.20264 1.35905e-17
4974.13908 1.34687e-17
4977.08555 1.33470e-17
4980.02200 1.32252e-17
4982.96847 1.31035e-17
4985.91493 1.29818e-17
4988.85138 1.28601e-17
4991.79785 1.26620e-17
4994.73429 1.24286e-17
4997.68076 1.23130e-17
5000.61721 1.21968e-17
5003.56368 1.20805e-17
5006.50012 1.19643e-17
5009.44659 1.18481e-17
5012.38304 1.17319e-17
5015.32950 1.16158e-17
5018.27597 1.14996e-17
5021.21242 1.13835e-17
5024.15889 1.12674e-17
5027.09533 1.11513e-17
5030.04180 1.10353e-17
5032.97825 1.09193e-17
5035.92471 1.08033e-17
5038.86116 1.09147e-17
5041.80763 1.07484e-17
5044.74407 1.07607e-17
5047.69054 1.08229e-17
5050.63701 1.09261e-17
5053.57346 1.10504e-17
5056.51992 1.09485e-17
5059.45637 1.10074e-17
5062.40284 1.11029e-17
5065.33928 1.12549e-17
5068.28575 1.13007e-17
5071.22220 1.13038e-17
5074.16867 1.13326e-17
5077.11513 1.15888e-17
5080.05158 1.18165e-17
5082.99805 1.20150e-17
5085.93449 1.21221e-17
5088.88096 1.20994e-17
5091.81741 1.20588e-17
5094.76388 1.18942e-17
5097.70032 1.19794e-17
5100.64679 1.20799e-17
5103.58324 1.21818e-17
5106.52970 1.21199e-17
5109.47617 1.20127e-17
5112.41262 1.20069e-17
5115.35909 1.19723e-17
5118.29553 1.20061e-17
5121.24200 1.22323e-17
5124.17845 1.24577e-17
5127.12491 1.26105e-17
5130.06136 1.26276e-17
5133.00783 1.25510e-17
5135.95430 1.25730e-17
5138.89074 1.25548e-17
5141.83721 1.25056e-17
5144.77366 1.24230e-17
5147.72012 1.24487e-17
5150.65657 1.23382e-17
5153.60304 1.23029e-17
5156.53948 1.23178e-17
5159.48595 1.24324e-17
5162.42240 1.24474e-17
5165.36887 1.25260e-17
5168.31533 1.26425e-17
5171.25178 1.26854e-17
5174.19825 1.26584e-17
5177.13469 1.28291e-17
5180.08116 1.27582e-17
5183.01761 1.28769e-17
5185.96408 1.31241e-17
5188.90052 1.31853e-17
5191.84699 1.30636e-17
5194.79346 1.29917e-17
5197.72990 1.30674e-17
5200.67637 1.30189e-17
5203.61282 1.30604e-17
5206.55929 1.30977e-17
5209.49573 1.31832e-17
5212.44220 1.32746e-17
5215.37865 1.35116e-17
5218.32511 1.36918e-17
5221.26156 1.36897e-17
5224.20803 1.40525e-17
5227.15450 1.41222e-17
5230.09094 1.41989e-17
5233.03741 1.42994e-17
5235.97386 1.43145e-17
5238.92032 1.44312e-17
5241.85677 1.45108e-17
5244.80324 1.43588e-17
5247.73968 1.43294e-17
5250.68615 1.41582e-17
5253.62260 1.42817e-17
5256.56907 1.43374e-17
5259.51553 1.43561e-17
5262.45198 1.44699e-17
5265.39845 1.45996e-17
5268.33489 1.46514e-17
5271.28136 1.45742e-17
5274.21781 1.47161e-17
5277.16428 1.50964e-17
5280.10072 1.50475e-17
5283.04719 1.49443e-17
5285.98364 1.51751e-17
5288.93010 1.53264e-17
5291.87657 1.51837e-17
5294.81302 1.53200e-17
5297.75949 1.54815e-17
5300.69593 1.55350e-17
5303.64240 1.54722e-17
5306.57885 1.55634e-17
5309.52531 1.55062e-17
5312.46176 1.50446e-17
5315.40823 1.50294e-17
5318.35470 1.50218e-17
5321.29114 1.51031e-17
5324.23761 1.49779e-17
5327.17406 1.48141e-17
5330.12052 1.49287e-17
5333.05697 1.49483e-17
5336.00344 1.49339e-17
5338.93988 1.48842e-17
5341.88635 1.46547e-17
5344.82280 1.45537e-17
5347.76927 1.46836e-17
5350.71573 1.48175e-17
5353.65218 1.48114e-17
5356.59865 1.47774e-17
5359.53509 1.48808e-17
5362.48156 1.48051e-17
5365.41801 1.47514e-17
5368.36448 1.46761e-17
5371.30092 1.43775e-17
5374.24739 1.42686e-17
5377.19386 1.45723e-17
5380.13030 1.48492e-17
5383.07677 1.49766e-17
5386.01322 1.50735e-17
5388.95969 1.52542e-17
5391.89613 1.52444e-17
5394.84260 1.52664e-17
5397.77905 1.52233e-17
5400.72551 1.52842e-17
5403.66196 1.55620e-17
5406.60843 1.55425e-17
5409.55490 1.54747e-17
5412.49134 1.57006e-17
5415.43781 1.59348e-17
5418.37426 1.59671e-17
5421.32072 1.58837e-17
5424.25717 1.57133e-17
5427.20364 1.56249e-17
5430.14008 1.56356e-17
5433.08655 1.58524e-17
5436.03302 1.58249e-17
5438.96947 1.57316e-17
5441.91593 1.57649e-17
5444.85238 1.59597e-17
5447.79885 1.60291e-17
5450.73529 1.59369e-17
5453.68176 1.56302e-17
5456.61821 1.54195e-17
5459.56468 1.53802e-17
5462.50112 1.54309e-17
5465.44759 1.52857e-17
5468.39406 1.52259e-17
5471.33050 1.51234e-17
5474.27697 1.51355e-17
5477.21342 1.48772e-17
5480.15989 1.46982e-17
5483.09633 1.47419e-17
5486.04280 1.47149e-17
5488.97925 1.45876e-17
5491.92571 1.46166e-17
5494.86216 1.46439e-17
5497.80863 1.46494e-17
5500.75510 1.46833e-17
5503.69154 1.45412e-17
5506.63801 1.44790e-17
5509.57446 1.45116e-17
5512.52092 1.45271e-17
5515.45737 1.47834e-17
5518.40384 1.48627e-17
5521.34028 1.46748e-17
5524.28675 1.45642e-17
5527.22320 1.46089e-17
5530.16967 1.46449e-17
5533.11613 1.44208e-17
5536.05258 1.42530e-17
5538.99905 1.43257e-17
5541.93549 1.45253e-17
5544.88196 1.45722e-17
5547.81841 1.45341e-17
5550.76488 1.44935e-17
5553.70132 1.43316e-17
5556.64779 1.43755e-17
5559.59426 1.46254e-17
5562.53070 1.45392e-17
5565.47717 1.43271e-17
5568.41362 1.43735e-17
5571.36009 1.43076e-17
5574.29653 1.45160e-17
5577.24300 1.44893e-17
5580.17945 1.43052e-17
5583.12591 1.43850e-17
5586.06236 1.43069e-17
5589.00883 1.41759e-17
5591.95530 1.41575e-17
5594.89174 1.43186e-17
5597.83821 1.41550e-17
5600.77466 1.40294e-17
5603.72112 1.38759e-17
5606.65757 1.37828e-17
5609.60404 1.36849e-17
5612.54048 1.37581e-17
5615.48695 1.36662e-17
5618.43342 1.35425e-17
5621.36987 1.35700e-17
5624.31633 1.36659e-17
5627.25278 1.33962e-17
5630.19925 1.33568e-17
5633.13569 1.33793e-17
5636.08216 1.33095e-17
5639.01861 1.31283e-17
5641.96508 1.31282e-17
5644.90152 1.30308e-17
5647.84799 1.29828e-17
5650.79446 1.29830e-17
5653.73090 1.27674e-17
5656.67737 1.28554e-17
5659.61382 1.29598e-17
5662.56029 1.27231e-17
5665.49673 1.27043e-17
5668.44320 1.27330e-17
5671.37965 1.28159e-17
5674.32611 1.24942e-17
5677.27258 1.22977e-17
5680.20903 1.25812e-17
5683.15550 1.23051e-17
5686.09194 1.20247e-17
5689.03841 1.20258e-17
5691.97486 1.19493e-17
5694.92132 1.20883e-17
5697.85777 1.21817e-17
5700.80424 1.20124e-17
5703.74068 1.16709e-17
5706.68715 1.15084e-17
5709.63362 1.16928e-17
5712.57007 1.17596e-17
5715.51653 1.16560e-17
5718.45298 1.16006e-17
5721.39945 1.15877e-17
5724.33589 1.16919e-17
5727.28236 1.17632e-17
5730.21881 1.17077e-17
5733.16528 1.15250e-17
5736.10172 1.15166e-17
5739.04819 1.15248e-17
5741.99466 1.17416e-17
5744.93110 1.14952e-17
5747.87757 1.13998e-17
5750.81402 1.15236e-17
5753.76049 1.14776e-17
5756.69693 1.15081e-17
5759.64340 1.17801e-17
5762.57985 1.16761e-17
5765.52631 1.13485e-17
5768.47278 1.14259e-17
5771.40923 1.14974e-17
5774.35570 1.15076e-17
5777.29214 1.14603e-17
5780.23861 1.13954e-17
5783.17506 1.15811e-17
5786.12152 1.17487e-17
5789.05797 1.17168e-17
5792.00444 1.15850e-17
5794.94088 1.16306e-17
5797.88735 1.18354e-17
5800.83382 1.19675e-17
5803.77027 1.19301e-17
5806.71673 1.19166e-17
5809.65318 1.18149e-17
5812.59965 1.17622e-17
5815.53609 1.16005e-17
5818.48256 1.15312e-17
5821.41901 1.14738e-17
5824.36548 1.14688e-17
5827.30192 1.14467e-17
5830.24839 1.14542e-17
5833.19486 1.13787e-17
5836.13130 1.15133e-17
5839.07777 1.15795e-17
5842.01422 1.15272e-17
5844.96069 1.16858e-17
5847.89713 1.17630e-17
5850.84360 1.15008e-17
5853.78005 1.15031e-17
5856.72651 1.14681e-17
5859.67298 1.14887e-17
5862.60943 1.17404e-17
5865.55590 1.18258e-17
5868.49234 1.17797e-17
5871.43881 1.18986e-17
5874.37526 1.20028e-17
5877.32172 1.19756e-17
5880.25817 1.21456e-17
5883.20464 1.22104e-17
5886.14108 1.21467e-17
5889.08755 1.21868e-17
5892.03402 1.21743e-17
5894.97047 1.19889e-17
5897.91693 1.19082e-17
5900.85338 1.17954e-17
5903.79985 1.16678e-17
5906.73629 1.16172e-17
5909.68276 1.16736e-17
5912.61921 1.18589e-17
5915.56568 1.19694e-17
5918.50212 1.19318e-17
5921.44859 1.19301e-17
5924.39506 1.21399e-17
5927.33150 1.20437e-17
5930.27797 1.19709e-17
5933.21442 1.18616e-17
5936.16089 1.18139e-17
5939.09733 1.19924e-17
5942.04380 1.20222e-17
5944.98025 1.16948e-17
5947.92671 1.16744e-17
5950.87318 1.17575e-17
5953.80963 1.17980e-17
5956.75610 1.16428e-17
5959.69254 1.12404e-17
5962.63901 1.11944e-17
5965.57546 1.12133e-17
5968.52192 1.13643e-17
5971.45837 1.13544e-17
5974.40484 1.11952e-17
5977.34128 1.09994e-17
5980.28775 1.10824e-17
5983.23422 1.11516e-17
5986.17067 1.11223e-17
5989.11713 1.11528e-17
5992.05358 1.12767e-17
5995.00005 1.11143e-17
5997.93649 1.11244e-17
6000.88296 1.12674e-17
6003.81941 1.11097e-17
6006.76588 1.11021e-17
6009.71234 1.09822e-17
6012.64879 1.08171e-17
6015.59526 1.07651e-17
6018.53170 1.10457e-17
6021.47817 1.09947e-17
6024.41462 1.09510e-17
6027.36109 1.10790e-17
6030.29753 1.10617e-17
6033.24400 1.09534e-17
6036.18045 1.09569e-17
6039.12691 1.09283e-17
6042.07338 1.08207e-17
6045.00983 1.07924e-17
6047.95630 1.09048e-17
6050.89274 1.09715e-17
6053.83921 1.08508e-17
6056.77566 1.07532e-17
6059.72212 1.07574e-17
6062.65857 1.06366e-17
6065.60504 1.04770e-17
6068.54148 1.06318e-17
6071.48795 1.05484e-17
6074.43442 1.04633e-17
6077.37087 1.04425e-17
6080.31733 1.07157e-17
6083.25378 1.07409e-17
6086.20025 1.07683e-17
6089.13669 1.09024e-17
6092.08316 1.09989e-17
6095.01961 1.10902e-17
6097.96608 1.10992e-17
6100.90252 1.09949e-17
6103.84899 1.11673e-17
6106.79546 1.12482e-17
6109.73190 1.13056e-17
6112.67837 1.13963e-17
6115.61482 1.15987e-17
6118.56129 1.15509e-17
6121.49773 1.13945e-17
6124.44420 1.15809e-17
6127.38065 1.15128e-17
6130.32711 1.15035e-17
6133.27358 1.16263e-17
6136.21003 1.16711e-17
6139.15650 1.16495e-17
6142.09294 1.15663e-17
6145.03941 1.15374e-17
6147.97586 1.12647e-17
6150.92232 1.08880e-17
6153.85877 1.07578e-17
6156.80524 1.06621e-17
6159.74168 1.06863e-17
6162.68815 1.06815e-17
6165.63462 1.04879e-17
6168.57107 1.03838e-17
6171.51753 1.04087e-17
6174.45398 1.03159e-17
6177.40045 1.03002e-17
6180.33689 1.02710e-17
6183.28336 9.97844e-18
6186.21981 9.92723e-18
6189.16628 9.87842e-18
6192.11274 9.66719e-18
6195.04919 9.75123e-18
6197.99566 9.94724e-18
6200.93210 9.83592e-18
6203.87857 9.62959e-18
6206.81502 9.55967e-18
6209.76149 9.69316e-18
6212.69793 9.82374e-18
6215.64440 9.67043e-18
6218.58085 9.68601e-18
6221.52731 9.83481e-18
6224.47378 9.81083e-18
6227.41023 9.74981e-18
6230.35670 9.78586e-18
6233.29314 9.86315e-18
6236.23961 9.82436e-18
6239.17606 9.80854e-18
6242.12252 9.89319e-18
6245.05897 9.92135e-18
6248.00544 9.94877e-18
6250.95191 1.00450e-17
6253.88835 9.96070e-18
6256.83482 9.90855e-18
6259.77127 1.00494e-17
6262.71773 9.94879e-18
6265.65418 9.64157e-18
6268.60065 9.68368e-18
6271.53709 9.86762e-18
6274.48356 9.97514e-18
6277.42001 1.01036e-17
6280.36648 1.01574e-17
6283.31294 1.00880e-17
6286.24939 1.02221e-17
6289.19586 1.02529e-17
6292.13230 1.01002e-17
6295.07877 9.94508e-18
6298.01522 1.01220e-17
6300.96169 1.01673e-17
6303.89813 1.00868e-17
6306.84460 1.00121e-17
6309.78105 1.00513e-17
6312.72751 1.01840e-17
6315.67398 1.02928e-17
6318.61043 1.03210e-17
6321.55690 1.02133e-17
6324.49334 1.01869e-17
6327.43981 1.04276e-17
6330.37626 1.04237e-17
6333.32272 1.02924e-17
6336.25917 1.04799e-17
6339.20564 1.06564e-17
6342.14208 1.05236e-17
6345.08855 1.05920e-17
6348.03502 1.09449e-17
6350.97147 1.09796e-17
6353.91793 1.08932e-17
6356.85438 1.08134e-17
6359.80085 1.07449e-17
6362.73729 1.07069e-17
6365.68376 1.07629e-17
6368.62021 1.08531e-17
6371.56668 1.09903e-17
6374.51314 1.11537e-17
6377.44959 1.10621e-17
6380.39606 1.09306e-17
6383.33250 1.09622e-17
6386.27897 1.09239e-17
6389.21542 1.09599e-17
6392.16189 1.09955e-17
6395.09833 1.08519e-17
6398.04480 1.08177e-17
6400.98125 1.05452e-17
6403.92771 1.04591e-17
6406.87418 1.05484e-17
6409.81063 1.05171e-17
6412.75710 1.04413e-17
6415.69354 1.03854e-17
6418.64001 1.02799e-17
6421.57646 1.02364e-17
6424.52292 1.01920e-17
6427.45937 1.00646e-17
6430.40584 1.02650e-17
6433.35231 1.04812e-17
6436.28875 1.04289e-17
6439.23522 1.04314e-17
6442.17167 1.05894e-17
6445.11813 1.05086e-17
6448.05458 1.04957e-17
6451.00105 1.06433e-17
6453.93749 1.07146e-17
6456.88396 1.09650e-17
6459.82041 1.10822e-17
6462.76688 1.10084e-17
6465.71334 1.10093e-17
6468.64979 1.10389e-17
6471.59626 1.10948e-17
6474.53270 1.10033e-17
6477.47917 1.07781e-17
6480.41562 1.08071e-17
6483.36209 1.09325e-17
6486.29853 1.09573e-17
6489.24500 1.09837e-17
6492.19147 1.11514e-17
6495.12791 1.10050e-17
6498.07438 1.09214e-17
6501.01083 1.08700e-17
6503.95730 1.09369e-17
6506.89374 1.10550e-17
6509.84021 1.10603e-17
6512.77666 1.10210e-17
6515.72312 1.10631e-17
6518.65957 1.09069e-17
6521.60604 1.06865e-17
6524.55251 1.08367e-17
6527.48895 1.09294e-17
6530.43542 1.10336e-17
6533.37187 1.10396e-17
6536.31833 1.10201e-17
6539.25478 1.10969e-17
6542.20125 1.10735e-17
6545.13769 1.09100e-17
6548.08416 1.08835e-17
6551.02061 1.08571e-17
6553.96708 1.08306e-17
6556.91354 1.08042e-17
6559.84999 1.07777e-17
6562.79646 1.07512e-17
6565.73290 1.07248e-17
6568.67937 1.06983e-17
6571.61582 1.06719e-17
6574.56229 1.06454e-17
6577.49873 1.06190e-17
6580.44520 1.05925e-17
6583.38165 1.05661e-17
6586.32811 1.05397e-17
6589.27458 1.05132e-17
6592.21103 1.04868e-17
6595.15750 1.04603e-17
6598.09394 1.04339e-17
6601.04041 1.04075e-17
6603.97686 1.03811e-17
6606.92332 1.03546e-17
6609.85977 1.03282e-17
6612.80624 1.03544e-17
6615.75271 1.05192e-17
6618.68915 1.05426e-17
6621.63562 1.05230e-17
6624.57207 1.04818e-17
6627.51853 1.02613e-17
6630.45498 1.01994e-17
6633.40145 1.02456e-17
6636.33789 1.03162e-17
6639.28436 1.03799e-17
6642.22081 1.03500e-17
6645.16728 1.01759e-17
6648.11374 1.00987e-17
6651.05019 9.90106e-18
6653.99666 9.88222e-18
6656.93310 1.01391e-17
6659.87957 1.01780e-17
6662.81602 1.00635e-17
6665.76249 1.01745e-17
6668.69893 1.02068e-17
6671.64540 1.01237e-17
6674.59187 1.00682e-17
6677.52831 1.00396e-17
6680.47478 9.90803e-18
6683.41123 1.00046e-17
6686.35770 9.91524e-18
6689.29414 9.85660e-18
6692.24061 9.80817e-18
6695.17706 9.77897e-18
6698.12352 9.91120e-18
6701.05997 9.90917e-18
6704.00644 1.00086e-17
6706.95291 1.00934e-17
6709.88935 9.93526e-18
6712.83582 9.82485e-18
6715.77227 9.57755e-18
6718.71873 9.55981e-18
6721.65518 9.60062e-18
6724.60165 9.56283e-18
6727.53809 9.14290e-18
6730.48456 8.84550e-18
6733.43103 8.76216e-18
6736.36748 9.16235e-18
6739.31394 9.72101e-18
6742.25039 9.71110e-18
6745.19686 9.51077e-18
6748.13330 9.33588e-18
6751.07977 9.15876e-18
6754.01622 9.21217e-18
6756.96269 9.16847e-18
6759.89913 9.09220e-18
6762.84560 9.22760e-18
6765.79207 9.37121e-18
6768.72851 9.18546e-18
6771.67498 8.93118e-18
6774.61143 8.82126e-18
6777.55790 8.70638e-18
6780.49434 8.87055e-18
6783.44081 8.70086e-18
6786.37726 8.54498e-18
6789.32372 8.68147e-18
6792.26017 8.83213e-18
6795.20664 8.68140e-18
6798.15311 8.78437e-18
6801.08955 8.76877e-18
6804.03602 8.56147e-18
6806.97247 8.60574e-18
6809.91893 8.71682e-18
6812.85538 8.56688e-18
6815.80185 8.50142e-18
6818.73829 8.59849e-18
6821.68476 8.58830e-18
6824.63123 8.59108e-18
6827.56768 8.50373e-18
6830.51414 8.44663e-18
6833.45059 8.36899e-18
6836.39706 8.25979e-18
6839.33350 8.25156e-18
6842.27997 8.27997e-18
6845.21642 8.29950e-18
6848.16289 8.28399e-18
6851.09933 8.46360e-18
6854.04580 8.49574e-18
6856.99227 8.26321e-18
6859.92871 8.12955e-18
6862.87518 8.25902e-18
6865.81163 8.39414e-18
6868.75810 8.29997e-18
6871.69454 8.33920e-18
6874.64101 8.44139e-18
6877.57746 8.42574e-18
6880.52392 8.43317e-18
6883.46037 8.27000e-18
6886.40684 8.10005e-18
6889.35331 8.19717e-18
6892.28975 8.20743e-18
6895.23622 8.30112e-18
6898.17267 8.37151e-18
6901.11913 8.43924e-18
6904.05558 8.25637e-18
6907.00205 8.09351e-18
6909.93849 8.10216e-18
6912.88496 8.18673e-18
6915.83143 8.26008e-18
6918.76788 8.20608e-18
6921.71434 8.26925e-18
6924.65079 8.35496e-18
6927.59726 8.32669e-18
6930.53370 8.25929e-18
6933.48017 8.38690e-18
6936.41662 8.38541e-18
6939.36309 8.32759e-18
6942.29953 8.21172e-18
6945.24600 8.09800e-18
6948.19247 8.05652e-18
6951.12891 8.17544e-18
6954.07538 8.32373e-18
6957.01183 8.49306e-18
6959.95830 8.46357e-18
6962.89474 8.34637e-18
6965.84121 8.24805e-18
6968.77766 8.24282e-18
6971.72412 8.07247e-18
6974.66057 8.09383e-18
6977.60704 8.15156e-18
6980.55351 7.98162e-18
6983.48995 8.01477e-18
6986.43642 8.09483e-18
6989.37287 8.07726e-18
6992.31933 8.07941e-18
6995.25578 8.03538e-18
6998.20225 8.07820e-18
7001.13869 7.98146e-18
7004.08516 7.92069e-18
7007.03163 7.80299e-18
7009.96808 7.88828e-18
7012.91454 8.04021e-18
7015.85099 8.05916e-18
7018.79746 8.02120e-18
7021.73390 8.11165e-18
7024.68037 8.32355e-18
7027.61682 8.35679e-18
7030.56329 8.26213e-18
7033.49973 8.35714e-18
7036.44620 8.27130e-18
7039.39267 8.25708e-18
7042.32911 8.36042e-18
7045.27558 8.28536e-18
7048.21203 8.03979e-18
7051.15850 7.99188e-18
7054.09494 8.14683e-18
7057.04141 8.20543e-18
7059.97786 8.09593e-18
7062.92432 8.09076e-18
7065.86077 8.18339e-18
7068.80724 8.35600e-18
7071.75371 8.34533e-18
7074.69015 8.03825e-18
7077.63662 7.94685e-18
7080.57307 7.95979e-18
7083.51953 7.78421e-18
7086.45598 7.52781e-18
7089.40245 7.58179e-18
7092.33889 7.78557e-18
7095.28536 7.65772e-18
7098.23183 7.60758e-18
7101.16828 7.74250e-18
7104.11474 7.92975e-18
7107.05119 7.74380e-18
7109.99766 7.68866e-18
7112.93410 7.93112e-18
7115.88057 8.04019e-18
7118.81702 8.16104e-18
7121.76349 8.26815e-18
7124.69993 8.00455e-18
7127.64640 7.87392e-18
7130.59287 7.86261e-18
7133.52931 7.94020e-18
7136.47578 8.12579e-18
7139.41223 8.03330e-18
7142.35870 7.98985e-18
7145.29514 7.89848e-18
7148.24161 8.09205e-18
7151.17806 8.18254e-18
7154.12452 8.04953e-18
7157.06097 8.05409e-18
7160.00744 8.07206e-18
7162.95391 8.01842e-18
7165.89035 8.11889e-18
7168.83682 8.19836e-18
7171.77327 8.30199e-18
7174.71973 8.20465e-18
7177.65618 8.33733e-18
7180.60265 8.60119e-18
7183.53909 8.53348e-18
7186.48556 8.41619e-18
7189.43203 8.25560e-18
7192.36848 8.22367e-18
7195.31494 8.43368e-18
7198.25139 8.49074e-18
7201.19786 8.62021e-18
7204.13430 8.62820e-18
7207.08077 8.35538e-18
7210.01722 8.36007e-18
7212.96369 8.40158e-18
7215.90013 8.33629e-18
7218.84660 8.56999e-18
7221.79307 8.47583e-18
7224.72951 8.36333e-18
7227.67598 8.44500e-18
7230.61243 8.44335e-18
7233.55890 8.43942e-18
7236.49534 8.47311e-18
7239.44181 8.37926e-18
7242.37826 8.29079e-18
7245.32472 8.36459e-18
7248.26117 8.36384e-18
7251.20764 8.29340e-18
7254.15411 8.32914e-18
7257.09055 8.52984e-18
7260.03702 8.45497e-18
7262.97347 8.17939e-18
7265.91993 8.20179e-18
7268.85638 8.39581e-18
7271.80285 8.43897e-18
7274.73929 8.43868e-18
7277.68576 8.32358e-18
7280.63223 8.23100e-18
7283.56868 8.05898e-18
7286.51514 8.08916e-18
7289.45159 8.20836e-18
7292.39806 8.12375e-18
7295.33450 8.02912e-18
7298.28097 8.12224e-18
7301.21742 8.25394e-18
7304.16389 8.39376e-18
7307.10033 8.41913e-18
7310.04680 8.39482e-18
7312.99327 8.37152e-18
7315.92971 8.33255e-18
7318.87618 8.18314e-18
7321.81263 8.20550e-18
7324.75910 8.18844e-18
7327.69554 8.12137e-18
7330.64201 8.06824e-18
7333.57846 8.08314e-18
7336.52492 8.15192e-18
7339.47139 8.38112e-18
7342.40784 8.37468e-18
7345.35431 8.52551e-18
7348.29075 8.47280e-18
7351.23722 8.35836e-18
7354.17367 8.18940e-18
7357.12013 8.21931e-18
7360.05658 8.07641e-18
7363.00305 7.89593e-18
7365.93949 7.87598e-18
7368.88596 8.08263e-18
7371.83243 8.20016e-18
7374.76888 7.98820e-18
7377.71534 8.07804e-18
7380.65179 8.34800e-18
7383.59826 8.37055e-18
7386.53470 8.42864e-18
7389.48117 8.43766e-18
7392.41762 8.39863e-18
7395.36409 8.41854e-18
7398.30053 8.38041e-18
7401.24700 8.14896e-18
7404.19347 8.00697e-18
7407.12991 7.93592e-18
7410.07638 7.93742e-18
7413.01283 7.99272e-18
7415.95930 7.87867e-18
7418.89574 7.56114e-18
7421.84221 7.57509e-18
7424.77866 7.81516e-18
7427.72512 7.84275e-18
7430.66157 7.71926e-18
7433.60804 7.53470e-18
7436.55451 7.26846e-18
7439.49095 6.98354e-18
7442.43742 6.56870e-18
7445.37387 5.82517e-18
7448.32033 5.21688e-18
7451.25678 5.26144e-18
7454.20325 6.10246e-18
7457.13969 7.54662e-18
7460.08616 8.04786e-18
7463.03263 8.13039e-18
7465.96908 7.26065e-18
7468.91554 6.50691e-18
7471.85199 6.08419e-18
7474.79846 5.85594e-18
7477.73490 5.50413e-18
7480.68137 5.34547e-18
7483.61782 5.14350e-18
7486.56429 5.28362e-18
7489.50073 5.49978e-18
7492.44720 5.32867e-18
7495.39367 5.58674e-18
7498.33011 5.81342e-18
7501.27658 5.63547e-18
7504.21303 5.50582e-18
7507.15950 5.39917e-18
7510.09594 5.32306e-18
7513.04241 5.02272e-18
7515.97886 4.66224e-18
7518.92532 4.67515e-18
7521.87179 4.77994e-18
7524.80824 4.48982e-18
7527.75471 4.47201e-18
7530.69115 4.30468e-18
7533.63762 4.24708e-18
7536.57407 4.43829e-18
7539.52053 4.53450e-18
7542.45698 4.28147e-18
7545.40345 4.18302e-18
7548.33989 4.13901e-18
7551.28636 4.10710e-18
7554.23283 4.38161e-18
7557.16928 4.47723e-18
7560.11574 4.26985e-18
7563.05219 4.33953e-18
7565.99866 4.41722e-18
7568.93510 4.55353e-18
7571.88157 4.55874e-18
7574.81802 4.44572e-18
7577.76449 4.40210e-18
7580.71095 4.50683e-18
7583.64740 4.74505e-18
7586.59387 4.72832e-18
7589.53031 4.90361e-18
7592.47678 5.08533e-18
7595.41323 4.97470e-18
7598.35970 4.71596e-18
7601.29614 4.69269e-18
7604.24261 4.81221e-18
7607.17906 4.96401e-18
7610.12552 5.04811e-18
7613.07199 4.96453e-18
7616.00844 4.95197e-18
7618.95491 4.90326e-18
7621.89135 5.04951e-18
7624.83782 5.46529e-18
7627.77427 5.88456e-18
7630.72073 6.09395e-18
7633.65718 6.10880e-18
7636.60365 6.07053e-18
7639.54009 6.28780e-18
7642.48656 6.36193e-18
7645.43303 6.17429e-18
7648.36948 6.14981e-18
7651.31594 6.07173e-18
7654.25239 6.12193e-18
7657.19886 6.01128e-18
7660.13530 5.84971e-18
7663.08177 5.94485e-18
7666.01822 6.09525e-18
7668.96469 6.33165e-18
7671.91115 6.22657e-18
7674.84760 6.37862e-18
7677.79407 6.47151e-18
7680.73051 6.60787e-18
7683.67698 6.74137e-18
7686.61343 6.60051e-18
7689.55990 6.30703e-18
7692.49634 6.22159e-18
7695.44281 6.55875e-18
7698.37926 6.59339e-18
7701.32572 6.63268e-18
7704.27219 6.87941e-18
7707.20864 6.83803e-18
7710.15511 6.92148e-18
7713.09155 7.08955e-18
7716.03802 7.02651e-18
7718.97447 6.95220e-18
7721.92093 7.01571e-18
7724.85738 7.12174e-18
7727.80385 7.03449e-18
7730.74029 7.19107e-18
7733.68676 7.23008e-18
7736.63323 7.16469e-18
7739.56968 7.17974e-18
7742.51614 7.16167e-18
7745.45259 7.22242e-18
7748.39906 7.41993e-18
7751.33550 7.52558e-18
7754.28197 7.51700e-18
7757.21842 7.61056e-18
7760.16489 7.67019e-18
7763.11135 7.43177e-18
7766.04780 7.33604e-18
7768.99427 7.65624e-18
7771.93071 7.86380e-18
7774.87718 7.71341e-18
7777.81363 7.63027e-18
7780.76010 7.51278e-18
7783.69654 7.41510e-18
7786.64301 7.64321e-18
7789.57946 7.66482e-18
7792.52592 7.71727e-18
7795.47239 7.65273e-18
7798.40884 7.55211e-18
7801.35531 7.76552e-18
7804.29175 7.98204e-18
7807.23822 7.99678e-18
7810.17467 7.88997e-18
7813.12113 7.73259e-18
7816.05758 7.81298e-18
7819.00405 7.89235e-18
7821.94049 7.70763e-18
7824.88696 7.51177e-18
7827.83343 7.67672e-18
7830.76988 7.84995e-18
7833.71634 7.86584e-18
7836.65279 7.58747e-18
7839.59926 7.56087e-18
7842.53570 7.51082e-18
7845.48217 7.45360e-18
7848.41862 7.58739e-18
7851.36509 7.63887e-18
7854.31155 7.63132e-18
7857.24800 7.73870e-18
7860.19447 7.67172e-18
7863.13091 7.72265e-18
7866.07738 7.59686e-18
7869.01383 7.47893e-18
7871.96030 7.35580e-18
7874.89674 7.25987e-18
7877.84321 7.37309e-18
7880.77966 7.32045e-18
7883.72612 7.22849e-18
7886.67259 7.18959e-18
7889.60904 7.47645e-18
7892.55551 7.55171e-18
7895.49195 7.57923e-18
7898.43842 7.52192e-18
7901.37487 7.31688e-18
7904.32133 7.15783e-18
7907.25778 7.26770e-18
7910.20425 7.19673e-18
7913.15072 7.15128e-18
7916.08716 7.24435e-18
7919.03363 7.06693e-18
7921.97008 7.01689e-18
7924.91654 7.13626e-18
7927.85299 7.25638e-18
7930.79946 7.12103e-18
7933.73590 6.99930e-18
7936.68237 6.85769e-18
7939.61882 6.77351e-18
7942.56529 6.85893e-18
7945.51175 6.68020e-18
7948.44820 6.79798e-18
7951.39467 6.84500e-18
7954.33111 6.79626e-18
7957.27758 6.75298e-18
7960.21403 6.58289e-18
7963.16050 6.55012e-18
7966.09694 6.74706e-18
7969.04341 6.58969e-18
7971.97986 6.47701e-18
7974.92632 6.61120e-18
7977.87279 6.64829e-18
7980.80924 6.69807e-18
7983.75571 6.62944e-18
7986.69215 6.39926e-18
7989.63862 6.32055e-18
7992.57507 6.26792e-18
7995.52153 6.19785e-18
7998.45798 6.15923e-18
8001.40445 6.09883e-18
8004.34089 6.26469e-18
8007.28736 6.60370e-18
8010.23383 6.37442e-18
8013.17028 5.98191e-18
8016.11674 5.83118e-18
8019.05319 6.06191e-18
8021.99966 6.23403e-18
8024.93610 6.32135e-18
8027.88257 6.12706e-18
8030.81902 5.89971e-18
8033.76549 5.80028e-18
8036.71195 6.10475e-18
8039.64840 6.12076e-18
8042.59487 6.06716e-18
8045.53131 6.15196e-18
8048.47778 6.03506e-18
8051.41423 5.76071e-18
8054.36070 5.84944e-18
8057.29714 5.87700e-18
8060.24361 5.60124e-18
8063.18006 5.62831e-18
8066.12652 5.67513e-18
8069.07299 5.62348e-18
8072.00944 5.61704e-18
8074.95591 5.71235e-18
8077.89235 5.62523e-18
8080.83882 5.56879e-18
8083.77527 5.58877e-18
8086.72173 5.73393e-18
8089.65818 5.74005e-18
8092.60465 5.64764e-18
8095.55112 5.67947e-18
8098.48756 5.69676e-18
8101.43403 5.75400e-18
8104.37048 5.80698e-18
8107.31694 5.64630e-18
8110.25339 5.40212e-18
8113.19986 5.49047e-18
8116.13630 5.44581e-18
8119.08277 5.44781e-18
8122.01922 5.17791e-18
8124.96569 4.89110e-18
8127.91215 4.99659e-18
8130.84860 5.04625e-18
8133.79507 4.83654e-18
8136.73151 4.73268e-18
8139.67798 4.92481e-18
8142.61443 5.06440e-18
8145.56090 4.87906e-18
8148.49734 4.68501e-18
8151.44381 4.67089e-18
8154.38026 4.38245e-18
8157.32672 4.27157e-18
8160.27319 4.47737e-18
8163.20964 4.33911e-18
8166.15611 4.30769e-18
8169.09255 4.21192e-18
8172.03902 3.94001e-18
8174.97547 3.75829e-18
8177.92193 3.92671e-18
8180.85838 3.93827e-18
8183.80485 4.06005e-18
8186.74129 4.11065e-18
8189.68776 3.83977e-18
8192.63423 3.79115e-18
8195.57068 3.69323e-18
8198.51714 3.52336e-18
8201.45359 3.45160e-18
8204.40006 3.54628e-18
8207.33650 3.16843e-18
8210.28297 3.01782e-18
8213.21942 3.19666e-18
8216.16589 3.20153e-18
8219.11235 3.01464e-18
8222.04880 2.87724e-18
8224.99527 2.77413e-18
8227.93171 2.53877e-18
8230.87818 2.70376e-18
8233.81463 3.03998e-18
8236.76110 3.01280e-18
8239.69754 3.12632e-18
8242.64401 3.15185e-18
8245.59048 3.05838e-18
8248.52692 3.27789e-18
8251.47339 3.35065e-18
8254.40984 3.26751e-18
8257.35631 3.27576e-18
8260.29275 3.04466e-18
8263.23922 2.99509e-18
8266.17567 3.29406e-18
8269.12213 3.40962e-18
8272.05858 3.11513e-18
8275.00505 2.98777e-18
8277.95152 3.08605e-18
8280.88796 3.20455e-18
8283.83443 3.22156e-18
8286.77088 3.45912e-18
8289.71734 3.67010e-18
8292.65379 3.95800e-18
8295.60026 3.96492e-18
8298.53670 4.12778e-18
8301.48317 4.17214e-18
8304.42964 3.93917e-18
8307.36609 4.30625e-18
8310.31255 4.38268e-18
8313.24900 4.31546e-18
8316.19547 4.12810e-18
8319.13191 3.82755e-18
8322.07838 3.68590e-18
8325.01483 3.92479e-18
8327.96130 4.05136e-18
8330.89774 3.96025e-18
8333.84421 4.05189e-18
8336.79068 4.16345e-18
8339.72712 4.29559e-18
8342.67359 4.29459e-18
8345.61004 4.50374e-18
8348.55651 4.61459e-18
8351.49295 4.44649e-18
8354.43942 4.63922e-18
8357.37587 4.59844e-18
8360.32233 4.37100e-18
8363.26880 4.31826e-18
8366.20525 4.08826e-18
8369.15172 4.23235e-18
8372.08816 4.41858e-18
8375.03463 4.51107e-18
8377.97108 4.44566e-18
8380.91754 4.58453e-18
8383.85399 4.63184e-18
8386.80046 4.76338e-18
8389.73690 4.75632e-18
8392.68337 4.81476e-18
8395.62984 5.04140e-18
8398.56629 5.18362e-18
8401.51275 5.33768e-18
8404.44920 5.28854e-18
8407.39567 5.11860e-18
8410.33211 5.17015e-18
8413.27858 5.01158e-18
8416.21503 4.80295e-18
8419.16150 4.71221e-18
8422.10796 4.71284e-18
8425.04441 4.59844e-18
8427.99088 4.78623e-18
8430.92732 5.38522e-18
8433.87379 5.39548e-18
8436.81024 5.17857e-18
8439.75671 5.36171e-18
8442.69315 5.51067e-18
8445.63962 5.62307e-18
8448.57607 5.80484e-18
8451.52253 5.89508e-18
8454.46900 6.00227e-18
8457.40545 5.63996e-18
8460.35192 5.24885e-18
8463.28836 5.18571e-18
8466.23483 5.30757e-18
8469.17128 5.24219e-18
8472.11774 5.17988e-18
8475.05419 5.28522e-18
8478.00066 5.23761e-18
8480.93710 5.02830e-18
8483.88357 5.39704e-18
8486.83004 5.52583e-18
8489.76649 5.56508e-18
8492.71295 5.95590e-18
8495.64940 6.13801e-18
8498.59587 6.40865e-18
8501.53231 6.39413e-18
8504.47878 6.20494e-18
8507.41523 6.38949e-18
8510.36170 6.56133e-18
8513.29814 6.50578e-18
8516.24461 6.11427e-18
8519.19108 6.21003e-18
8522.12752 6.27515e-18
8525.07399 6.29304e-18
8528.01044 6.35983e-18
8530.95691 6.15603e-18
8533.89335 5.87386e-18
8536.83982 5.76823e-18
8539.77627 5.68044e-18
8542.72273 6.09531e-18
8545.66920 6.61322e-18
8548.60565 6.88175e-18
8551.55212 6.76033e-18
8554.48856 6.74560e-18
8557.43503 6.66467e-18
8560.37148 6.49484e-18
8563.31794 6.42183e-18
8566.25439 6.53516e-18
8569.20086 6.49958e-18
8572.13730 6.49224e-18
8575.08377 6.38102e-18
8578.03024 6.13522e-18
8580.96669 6.20735e-18
8583.91315 6.32010e-18
8586.84960 5.98224e-18
8589.79607 5.96308e-18
8592.73251 6.17536e-18
8595.67898 5.90914e-18
8598.61543 5.80951e-18
8601.56190 6.10526e-18
8604.49834 6.47203e-18
8607.44481 6.36348e-18
8610.39128 6.17927e-18
8613.32772 6.43450e-18
8616.27419 6.70658e-18
8619.21064 7.15966e-18
8622.15711 6.87671e-18
8625.09355 6.70878e-18
8628.04002 6.48293e-18
8630.97647 6.49321e-18
8633.92293 6.49801e-18
8636.85938 6.18727e-18
8639.80585 5.99171e-18
8642.75232 5.76589e-18
8645.68876 5.58923e-18
8648.63523 5.49188e-18
8651.57168 5.52790e-18
8654.51814 5.70567e-18
8657.45459 6.03874e-18
8660.40106 6.06803e-18
8663.33750 6.00700e-18
8666.28397 6.02096e-18
8669.23044 6.15695e-18
8672.16689 6.19599e-18
8675.11335 6.14293e-18
8678.04980 6.18055e-18
8680.99627 6.32809e-18
8683.93271 6.26993e-18
8686.87918 6.27360e-18
8689.81563 5.97130e-18
8692.76210 5.56250e-18
8695.69854 5.37753e-18
8698.64501 5.51728e-18
8701.59148 5.35431e-18
8704.52792 4.92441e-18
8707.47439 5.02516e-18
8710.41084 5.38343e-18
8713.35731 5.59881e-18
8716.29375 5.59310e-18
8719.24022 5.70357e-18
8722.17667 5.97461e-18
8725.12313 6.04429e-18
8728.06960 6.02651e-18
8731.00605 5.79018e-18
8733.95252 5.59545e-18
8736.88896 5.74618e-18
8739.83543 5.79009e-18
8742.77188 5.46424e-18
8745.71834 4.82745e-18
8748.65479 4.68061e-18
8751.60126 4.55325e-18
8754.53770 4.59056e-18
8757.48417 4.62954e-18
8760.43064 4.59089e-18
8763.36709 4.76732e-18
8766.31355 4.89317e-18
8769.25000 4.63697e-18
8772.19647 4.75681e-18
8775.13291 4.77696e-18
8778.07938 4.56195e-18
8781.01583 4.14244e-18
8783.96230 3.99124e-18
8786.90876 4.20952e-18
8789.84521 4.08198e-18
8792.79168 3.89770e-18
8795.72812 3.58471e-18
8798.67459 3.49479e-18
8801.61104 3.51260e-18
8804.55751 3.18288e-18
8807.49395 2.85082e-18
8810.44042 2.80644e-18
8813.37687 3.03065e-18
8816.32333 3.19810e-18
8819.26980 3.46842e-18
8822.20625 3.63268e-18
8825.15272 3.54506e-18
8828.08916 3.55667e-18
8831.03563 3.60642e-18
8833.97208 3.46225e-18
8836.91854 3.92331e-18
8839.85499 4.05656e-18
8842.80146 3.58942e-18
8845.74793 3.28912e-18
8848.68437 3.15151e-18
8851.63084 3.11983e-18
8854.56729 3.08284e-18
8857.51375 2.86979e-18
8860.45020 2.64603e-18
8863.39667 2.67968e-18
8866.33311 2.59351e-18
8869.27958 2.52378e-18
8872.21603 2.60519e-18
8875.16250 2.84369e-18
8878.10896 2.99745e-18
8881.04541 2.77914e-18
8883.99188 2.74197e-18
8886.92832 3.02632e-18
8889.87479 3.26986e-18
8892.81124 3.42546e-18
8895.75771 3.47326e-18
8898.69415 3.48757e-18
8901.64062 3.50039e-18
8904.57707 3.29696e-18
8907.52353 2.77878e-18
8910.47000 3.14438e-18
8913.40645 3.06829e-18
8916.35292 3.06137e-18
8919.28936 2.70432e-18
8922.23583 2.48747e-18
8925.17228 2.42342e-18
8928.11874 2.53704e-18
8931.05519 2.60633e-18
8934.00166 2.38869e-18
8935.99668 2.38869e-18
8938.00372 2.35679e-18
8940.00056 2.44009e-18
8941.99741 2.53785e-18
8944.00445 2.53862e-18
8946.00130 2.47533e-18
8947.99814 2.44012e-18
8949.99499 2.42888e-18
8952.00203 2.36369e-18
8953.99888 2.23082e-18
8955.99572 2.08294e-18
8958.00276 1.93802e-18
8959.99961 1.77272e-18
8961.99646 1.80575e-18
8964.00349 2.10674e-18
8966.00034 2.21759e-18
8967.99719 2.17819e-18
8970.00422 2.12063e-18
8972.00107 2.09778e-18
8973.99792 2.08078e-18
8976.00496 2.10091e-18
8978.00180 2.14367e-18
8979.99865 2.22036e-18
8981.99550 2.35145e-18
8984.00254 2.47387e-18
8985.99938 2.58976e-18
8987.99623 2.68515e-18
8990.00327 2.67074e-18
8992.00012 2.54578e-18
8993.99696 2.44379e-18
8996.00400 2.25344e-18
8998.00085 2.17678e-18
8999.99770 2.26783e-18
9001.99454 2.43291e-18
9004.00158 2.56117e-18
9005.99843 2.71647e-18
9007.99528 2.80035e-18
9010.00231 2.80748e-18
9011.99916 2.84694e-18
9013.99601 2.95901e-18
9016.00304 3.03692e-18
9017.99989 2.95583e-18
9019.99674 2.74352e-18
9022.00378 2.67136e-18
9024.00062 2.70072e-18
9025.99747 2.67182e-18
9028.00451 2.60695e-18
9030.00136 2.51840e-18
9031.99820 2.37948e-18
9033.99505 2.20221e-18
9036.00209 2.21075e-18
9037.99894 2.47204e-18
9039.99578 2.51202e-18
9042.00282 2.39473e-18
9043.99967 2.25495e-18
9045.99652 2.11028e-18
9048.00355 1.96334e-18
9050.00040 1.95708e-18
9051.99725 2.10358e-18
9054.00428 2.17562e-18
9056.00113 2.21497e-18
9057.99798 2.29359e-18
9059.99483 2.46185e-18
9062.00186 2.64249e-18
9063.99871 2.68603e-18
9065.99556 2.62981e-18
9068.00260 2.57293e-18
9069.99944 2.41447e-18
9071.99629 2.36084e-18
9074.00333 2.47731e-18
9076.00018 2.61213e-18
9077.99702 2.58886e-18
9080.00406 2.46499e-18
9082.00091 2.37323e-18
9083.99776 2.22558e-18
9085.99460 2.16101e-18
9088.00164 2.21621e-18
9089.99849 2.26258e-18
9091.99534 2.17500e-18
9094.00237 2.00024e-18
9095.99922 2.02670e-18
9097.99607 2.23233e-18
9100.00310 2.37276e-18
9101.99995 2.56074e-18
9103.99680 2.64468e-18
9106.00384 2.50634e-18
9108.00068 2.23060e-18
9109.99753 2.09334e-18
9112.00457 1.96145e-18
9114.00142 1.94964e-18
9115.99826 2.09069e-18
9117.99511 2.20812e-18
9120.00215 2.25147e-18
9121.99900 2.26862e-18
9123.99584 2.30146e-18
9126.00288 2.34138e-18
9127.99973 2.35831e-18
9129.99658 2.33856e-18
9132.00361 2.34788e-18
9134.00046 2.42948e-18
9135.99731 2.50095e-18
9138.00434 2.43186e-18
9140.00119 2.23768e-18
9141.99804 2.13930e-18
9143.99489 2.01616e-18
9146.00192 2.02070e-18
9147.99877 2.21217e-18
9149.99562 2.42624e-18
9152.00266 2.51703e-18
9153.99950 2.55268e-18
9155.99635 2.52594e-18
9158.00339 2.38888e-18
9160.00024 2.30081e-18
9161.99708 2.22857e-18
9164.00412 2.18110e-18
9166.00097 2.16657e-18
9167.99782 2.18066e-18
9170.00485 2.23349e-18
9172.00170 2.34818e-18
9173.99855 2.43673e-18
9175.99540 2.55757e-18
9178.00243 2.61598e-18
9179.99928 2.55931e-18
9181.99613 2.43734e-18
9184.00316 2.35959e-18
9186.00001 2.25540e-18
9187.99686 2.23404e-18
9190.00390 2.32959e-18
9192.00074 2.35427e-18
9193.99759 2.24317e-18
9196.00463 2.09631e-18
9198.00148 2.06099e-18
9199.99832 2.09816e-18
9201.99517 2.11113e-18
9204.00221 2.11993e-18
9205.99906 2.15467e-18
9207.99590 2.22110e-18
9210.00294 2.30325e-18
9211.99979 2.40168e-18
9213.99664 2.54346e-18
9216.00367 2.51328e-18
9218.00052 2.22866e-18
9219.99737 2.16428e-18
9222.00440 2.35447e-18
9224.00125 2.54917e-18
9225.99810 2.56602e-18
9227.99495 2.48996e-18
9230.00198 2.52448e-18
9231.99883 2.64460e-18
9233.99568 2.70525e-18
9236.00272 2.75529e-18
9237.99956 2.75434e-18
9239.99641 2.65331e-18
9242.00345 2.49556e-18
9244.00030 2.45827e-18
9245.99714 2.54966e-18
9248.00418 2.52515e-18
9250.00103 2.43305e-18
9251.99788 2.33693e-18
9254.00491 2.23418e-18
9256.00176 2.13751e-18
9257.99861 2.11421e-18
9259.99546 2.18478e-18
9262.00249 2.15141e-18
9263.99934 2.01989e-18
9265.99619 1.94962e-18
9268.00322 1.96477e-18
9270.00007 2.01120e-18
9271.99692 2.04219e-18
9274.00396 2.08918e-18
9276.00080 2.07949e-18
9277.99765 1.97161e-18
9279.99450 1.96316e-18
9282.00154 2.07449e-18
9283.99838 2.20790e-18
9285.99523 2.28435e-18
9288.00227 2.33667e-18
9289.99912 2.42685e-18
9291.99596 2.63159e-18
9294.00300 2.63997e-18
9295.99985 2.31577e-18
9297.99670 2.14856e-18
9300.00373 2.49129e-18
9302.00058 3.12672e-18
9303.99743 3.36430e-18
9306.00446 3.64922e-18
9308.00131 3.31380e-18
9309.99816 2.00050e-18
9312.00520 1.13922e-18
9314.00204 1.32965e-18
9315.99889 1.99802e-18
9317.99574 2.19212e-18
9320.00278 2.15988e-18
9321.99962 2.32177e-18
9323.99647 2.58313e-18
9326.00351 2.85249e-18
9328.00036 3.20424e-18
9329.99720 3.50000e-18
9332.00424 3.43795e-18
9334.00109 3.03680e-18
9335.99794 2.83415e-18
9337.99478 2.61520e-18
9340.00182 2.51677e-18
9341.99867 2.63124e-18
9343.99552 2.73835e-18
9346.00255 2.57501e-18
9347.99940 2.20826e-18
9349.99625 2.09650e-18
9352.00328 2.13475e-18
9354.00013 2.17962e-18
9355.99698 2.24927e-18
9358.00402 2.35739e-18
9360.00086 2.52751e-18
9361.99771 2.74984e-18
9364.00475 2.86724e-18
9366.00160 2.92469e-18
9367.99844 2.95269e-18
9369.99529 2.87138e-18
9372.00233 2.86883e-18
9373.99918 3.08758e-18
9375.99602 3.39882e-18
9378.00306 3.40857e-18
9379.99991 3.22173e-18
9381.99676 2.97506e-18
9384.00379 2.42400e-18
9386.00064 2.13370e-18
9387.99749 2.33939e-18
9390.00452 2.71503e-18
9392.00137 2.71357e-18
9393.99822 2.46805e-18
9395.99507 2.34508e-18
9398.00210 2.18398e-18
9399.99895 2.12357e-18
9401.99580 2.24067e-18
9404.00284 2.36978e-18
9405.99968 2.29236e-18
9407.99653 2.06292e-18
9410.00357 1.94897e-18
9412.00042 1.86127e-18
9413.99726 1.80887e-18
9416.00430 1.77508e-18
9418.00115 1.79530e-18
9419.99800 1.92254e-18
9421.99484 2.14380e-18
9424.00188 2.23515e-18
9425.99873 2.22370e-18
9427.99558 2.26579e-18
9430.00261 2.29118e-18
9431.99946 2.39329e-18
9433.99631 2.61225e-18
9436.00334 2.92689e-18
9438.00019 3.38246e-18
9439.99704 4.38322e-18
9442.00408 4.52267e-18
9444.00092 3.92959e-18
9445.99777 3.31124e-18
9448.00481 2.75826e-18
9450.00166 2.25193e-18
9451.99850 2.16494e-18
9453.99535 2.60130e-18
9456.00239 2.58257e-18
9457.99924 2.30988e-18
9459.99608 2.05896e-18
9462.00312 1.82539e-18
9463.99997 1.61892e-18
9465.99682 1.50663e-18
9468.00385 1.42050e-18
9470.00070 1.58437e-18
9471.99755 2.09778e-18
9474.00458 2.44656e-18
9476.00143 2.70085e-18
9477.99828 2.81544e-18
9479.99513 2.64919e-18
9482.00216 2.21183e-18
9483.99901 2.07714e-18
9485.99586 2.15448e-18
9488.00290 2.12941e-18
9489.99974 2.01446e-18
9491.99659 1.91661e-18
9494.00363 1.87416e-18
9496.00048 1.86703e-18
9497.99732 2.01604e-18
9500.00436 2.36635e-18
9502.00121 2.63057e-18
9503.99806 2.97507e-18
9505.99490 3.15289e-18
9508.00194 3.04205e-18
9509.99879 2.74761e-18
9511.99564 2.46140e-18
9514.00267 1.97370e-18
9515.99952 1.78363e-18
9517.99637 1.79041e-18
9520.00340 1.85849e-18
9522.00025 1.98742e-18
9523.99710 2.16683e-18
9526.00414 2.34577e-18
9528.00098 2.63432e-18
9529.99783 2.60696e-18
9532.00487 2.20385e-18
9534.00172 1.99353e-18
9535.99856 2.07989e-18
9537.99541 2.18176e-18
9540.00245 1.95622e-18
9541.99930 1.42127e-18
9543.99614 1.57422e-18
9546.00318 2.43187e-18
9548.00003 2.93675e-18
9549.99688 3.24656e-18
9552.00391 3.35654e-18
9554.00076 3.17746e-18
9555.99761 2.74173e-18
9557.99446 2.35253e-18
9560.00149 1.58833e-18
9561.99834 1.47833e-18
9563.99519 2.05760e-18
9566.00222 2.65124e-18
9567.99907 3.03328e-18
9569.99592 3.32047e-18
9572.00296 3.21237e-18
9573.99980 2.57963e-18
9575.99665 2.22327e-18
9578.00369 1.90665e-18
9580.00054 1.64498e-18
9581.99738 1.39911e-18
9584.00442 1.23224e-18
9586.00127 1.33690e-18
9587.99812 1.77720e-18
9590.00515 1.97600e-18
9592.00200 2.08687e-18
9593.99885 2.17652e-18
9595.99570 2.23892e-18
9598.00273 2.28373e-18
9599.99958 2.33855e-18
9601.99643 2.39217e-18
9604.00346 2.44227e-18
9606.00031 2.55355e-18
9607.99716 2.53147e-18
9610.00420 2.37447e-18
9612.00104 2.13441e-18
9613.99789 1.77062e-18
9615.99474 1.24073e-18
9618.00178 1.31582e-18
9619.99862 2.19224e-18
9621.99547 2.42548e-18
9624.00251 2.10016e-18
9625.99936 1.69598e-18
9627.99620 1.37947e-18
9630.00324 1.06775e-18
9632.00009 1.17554e-18
9633.99694 1.82726e-18
9636.00397 2.12620e-18
9638.00082 2.33248e-18
9639.99767 2.38128e-18
9642.00470 2.15364e-18
9644.00155 1.79583e-18
9645.99840 1.77594e-18
9647.99525 2.03765e-18
9650.00228 2.13462e-18
9651.99913 2.24121e-18
9653.99598 2.24426e-18
9656.00302 2.09364e-18
9657.99986 1.87320e-18
9659.99671 1.69806e-18
9662.00375 1.46371e-18
9664.00060 1.46256e-18
9665.99744 1.72861e-18
9668.00448 1.88698e-18
9670.00133 1.93994e-18
9671.99818 1.94126e-18
9673.99502 1.90476e-18
9676.00206 1.81643e-18
9677.99891 1.74328e-18
9679.99576 1.57151e-18
9682.00279 1.58798e-18
9683.99964 1.89823e-18
9685.99649 2.14250e-18
9688.00352 2.03905e-18
9690.00037 1.72339e-18
9691.99722 1.59240e-18
9694.00426 1.51460e-18
9696.00110 1.47285e-18
9697.99795 1.48669e-18
9699.99480 1.51610e-18
9702.00184 1.53615e-18
9703.99868 1.56713e-18
9705.99553 1.66069e-18
9708.00257 1.85342e-18
9709.99942 1.95561e-18
9711.99626 2.01695e-18
9714.00330 2.05530e-18
9716.00015 2.05438e-18
9717.99700 2.04279e-18
9720.00403 2.10371e-18
9722.00088 2.25708e-18
9723.99773 2.27266e-18
9726.00476 2.23621e-18
9728.00161 2.10452e-18
9729.99846 1.79698e-18
9731.99531 1.47687e-18
9734.00234 1.36226e-18
9735.99919 1.35600e-18
9737.99604 1.48475e-18
9740.00308 1.84386e-18
9741.99992 2.11462e-18
9743.99677 2.36769e-18
9746.00381 2.53457e-18
9748.00066 2.52132e-18
9749.99750 2.36288e-18
9751.99435 2.22087e-18
9754.00139 1.97288e-18
9755.99824 1.83643e-18
9757.99508 1.74243e-18
9760.00212 1.75129e-18
9761.99897 1.96909e-18
9763.99582 2.31600e-18
9766.00285 2.32513e-18
9767.99970 2.04077e-18
9769.99655 1.86962e-18
9772.00358 1.58684e-18
9774.00043 1.49747e-18
9775.99728 1.80397e-18
9778.00432 2.26804e-18
9780.00116 2.32403e-18
9781.99801 2.03923e-18
9784.00505 1.98974e-18
9786.00190 2.11394e-18
9787.99874 2.08913e-18
9789.99559 1.81069e-18
9792.00263 1.46656e-18
9793.99948 1.28878e-18
9795.99632 1.12334e-18
9798.00336 1.28776e-18
9800.00021 2.01363e-18
9801.99706 2.30275e-18
9804.00409 2.06603e-18
9806.00094 1.69083e-18
9807.99779 1.45431e-18
9809.99464 1.19574e-18
9812.00167 1.25493e-18
9813.99852 1.79540e-18
9815.99537 1.94884e-18
9818.00240 1.75947e-18
9819.99925 1.48731e-18
9821.99610 1.20261e-18
9824.00314 8.66593e-19
9825.99998 9.54852e-19
9827.99683 1.60143e-18
9830.00387 1.82340e-18
9832.00072 1.79166e-18
9833.99756 1.69490e-18
9836.00460 1.54042e-18
9838.00145 1.35130e-18
9839.99830 1.39575e-18
9841.99514 1.68945e-18
9844.00218 1.82545e-18
9845.99903 1.91715e-18
9847.99588 1.98666e-18
9850.00291 2.05061e-18
9851.99976 2.08282e-18
9853.99661 2.02514e-18
9856.00364 1.84412e-18
9858.00049 1.80188e-18
9859.99734 1.86213e-18
9862.00438 1.89201e-18
9864.00122 1.91850e-18
9865.99807 1.90023e-18
9868.00511 1.74989e-18
9870.00196 1.47281e-18
9871.99880 1.30573e-18
9873.99565 1.09114e-18
9876.00269 1.07861e-18
9877.99954 1.36685e-18
9879.99638 1.64562e-18
9882.00342 1.66651e-18
9884.00027 1.54247e-18
9885.99712 1.48042e-18
9888.00415 1.33657e-18
9890.00100 1.34781e-18
9891.99785 1.63206e-18
9893.99470 1.75928e-18
9896.00173 1.42666e-18
9897.99858 8.56325e-19
9899.99543 7.40909e-19
9902.00246 9.55892e-19
9903.99931 1.08283e-18
9905.99616 1.30178e-18
9908.00320 1.44695e-18
9910.00004 1.44907e-18
9911.99689 1.38789e-18
9914.00393 1.39572e-18
9916.00078 1.39167e-18
9917.99762 1.49893e-18
9920.00466 1.81973e-18
9922.00151 1.95085e-18
9923.99836 1.80429e-18
9925.99520 1.55507e-18
9928.00224 1.37196e-18
9929.99909 1.10716e-18
9931.99594 1.21209e-18
9934.00297 1.74817e-18
9935.99982 2.09334e-18
9937.99667 2.33241e-18
9940.00370 2.42378e-18
9942.00055 2.19324e-18
9943.99740 1.64268e-18
9946.00444 1.69597e-18
9948.00128 2.41615e-18
9949.99813 2.62655e-18
9951.99498 2.38180e-18
9954.00202 2.09156e-18
9955.99886 1.96528e-18
9957.99571 1.88786e-18
9960.00275 1.79455e-18
9961.99960 1.54379e-18
9963.99644 1.67861e-18
9966.00348 2.50741e-18
9968.00033 2.84260e-18
9969.99718 2.03508e-18
9972.00421 7.18456e-19
9974.00106 3.10315e-19
9975.99791 4.67611e-19
9978.00494 5.03807e-19
9980.00179 6.58982e-19
9981.99864 8.37455e-19
9983.99549 1.03945e-18
9986.00252 1.25858e-18
9987.99937 1.45741e-18
9989.99622 1.66958e-18
9992.00326 1.80356e-18
9994.00010 1.89230e-18
9995.99695 1.92299e-18
9998.00399 1.85711e-18
10000.00084 1.77720e-18
