# wavelength flux
3552.38275 2.74235e-18
3555.00693 1.27876e-18
3557.63111 5.25672e-18
3560.25529 5.16752e-18
3562.87947 5.52661e-18
3565.50365 4.28917e-18
3568.11773 4.57164e-18
3570.74191 6.68693e-18
3573.36609 7.45065e-18
3575.99027 6.94417e-18
3578.61445 4.28647e-18
3581.23863 8.26734e-18
3583.85272 6.57891e-18
3586.47690 5.90753e-18
3589.10108 1.18412e-17
3591.72526 8.91410e-18
3594.34944 1.27610e-17
3596.97362 9.45775e-18
3599.59780 8.12192e-18
3602.21189 7.41677e-18
3604.83607 7.58849e-18
3607.46025 1.02995e-17
3610.08443 8.02150e-18
3612.70861 7.79856e-18
3615.33279 9.80315e-18
3617.94687 8.15754e-18
3620.57105 8.50370e-18
3623.19523 7.53426e-18
3625.81941 7.95269e-18
3628.44359 7.54778e-18
3631.06777 7.01269e-18
3633.68186 7.58646e-18
3636.30604 6.84191e-18
3638.93022 5.66907e-18
3641.55440 6.87233e-18
3644.17858 4.28805e-18
3646.80276 5.50139e-18
3649.42694 6.63497e-18
3652.04103 7.78501e-18
3654.66521 6.83298e-18
3657.28939 5.60701e-18
3659.91357 7.00640e-18
3662.53775 5.52124e-18
3665.16193 7.10172e-18
3667.77601 7.95007e-18
3670.40019 8.70922e-18
3673.02437 9.90704e-18
3675.64855 9.88726e-18
3678.27273 1.15931e-17
3680.89691 1.07637e-17
3683.51100 1.12884e-17
3686.13518 1.23595e-17
3688.75936 1.00131e-17
3691.38354 1.15535e-17
3694.00772 1.08799e-17
3696.63190 9.32661e-18
3699.25608 1.20945e-17
3701.87017 1.02430e-17
3704.49435 1.02670e-17
3707.11853 1.22031e-17
3709.74271 1.13259e-17
3712.36689 1.12363e-17
3714.99107 1.00681e-17
3717.60516 1.11575e-17
3720.22933 1.10291e-17
3722.85352 9.38259e-18
3725.47770 9.86255e-18
3728.10188 8.58192e-18
3730.72606 8.82897e-18
3733.35024 8.81037e-18
3735.96432 9.20192e-18
3738.58850 8.85331e-18
3741.21268 7.51469e-18
3743.83686 8.01557e-18
3746.46104 7.13207e-18
3749.08522 5.93883e-18
3751.69931 7.79444e-18
3754.32349 7.07710e-18
3756.94767 4.93770e-18
3759.57185 5.56043e-18
3762.19603 7.31184e-18
3764.82021 7.34498e-18
3767.43430 5.55286e-18
3770.05848 6.91349e-18
3772.68266 6.89221e-18
3775.30684 5.70155e-18
3777.93102 6.28451e-18
3780.55520 5.87004e-18
3783.17938 6.40681e-18
3785.79346 4.39935e-18
3788.41764 4.98764e-18
3791.04182 4.93005e-18
3793.66600 4.36976e-18
3796.29018 4.39747e-18
3798.91436 3.28658e-18
3801.52845 4.08017e-18
3804.15263 3.27575e-18
3806.77681 2.88253e-18
3809.40099 3.65679e-18
3812.02517 2.38593e-18
3814.64935 3.31542e-18
3817.26344 2.69852e-18
3819.88762 2.98767e-18
3822.51180 3.18226e-18
3825.13598 3.59832e-18
3827.76016 4.07008e-18
3830.38434 2.15421e-18
3833.00852 3.35116e-18
3835.62260 3.00266e-18
3838.24678 1.71680e-18
3840.87096 2.22787e-18
3843.49514 2.76692e-18
3846.11932 2.95522e-18
3848.74350 2.84123e-18
3851.35759 2.44373e-18
3853.98177 3.11010e-18
3856.60595 2.68518e-18
3859.23013 3.26885e-18
3861.85431 3.53251e-18
3864.47849 3.62164e-18
3867.10267 3.63177e-18
3869.71676 2.67456e-18
3872.34094 4.00308e-18
3874.96512 4.26223e-18
3877.58930 3.70251e-18
3880.21348 4.94295e-18
3882.83766 4.62666e-18
3885.45175 4.43741e-18
3888.07593 4.30286e-18
3890.70011 5.53344e-18
3893.32429 6.00618e-18
3895.94847 4.88873e-18
3898.57265 5.88966e-18
3901.18673 7.22158e-18
3903.81091 7.94358e-18
3906.43509 8.46689e-18
3909.05927 7.42235e-18
3911.68345 8.85715e-18
3914.30763 8.66935e-18
3916.93181 9.07029e-18
3919.54590 9.84302e-18
3922.17008 9.06785e-18
3924.79426 1.01074e-17
3927.41844 9.42060e-18
3930.04262 8.80259e-18
3932.66680 9.36591e-18
3935.28089 8.82545e-18
3937.90507 8.95866e-18
3940.52925 8.88539e-18
3943.15343 8.61746e-18
3945.77761 8.64082e-18
3948.40179 9.22185e-18
3951.01587 9.62427e-18
3953.64005 8.99272e-18
3956.26423 8.99996e-18
3958.88841 9.87508e-18
3961.51259 9.53515e-18
3964.13677 1.01446e-17
3966.76095 1.03567e-17
3969.37504 1.08480e-17
3971.99922 1.10032e-17
3974.62340 1.17698e-17
3977.24758 1.37087e-17
3979.87176 1.35028e-17
3982.49594 1.41175e-17
3985.11003 1.47994e-17
3987.73421 1.50968e-17
3990.35839 1.55628e-17
3992.98257 1.59986e-17
3995.60675 1.71228e-17
3998.23093 1.71998e-17
4000.85511 1.67999e-17
4003.46919 1.78131e-17
4006.09337 1.86097e-17
4008.71755 1.83283e-17
4011.34173 1.94215e-17
4013.96591 2.03513e-17
4016.59009 2.14048e-17
4019.20418 2.17780e-17
4021.82836 2.08500e-17
4024.45254 2.05829e-17
4027.07672 2.03819e-17
4029.70090 2.04409e-17
4032.32508 2.12923e-17
4034.93917 2.10503e-17
4037.56335 1.98856e-17
4040.18753 2.05380e-17
4042.81171 2.14992e-17
4045.43589 2.00398e-17
4048.06007 1.94329e-17
4050.68425 1.84822e-17
4053.29833 1.91969e-17
4055.92252 1.95418e-17
4058.54670 1.82543e-17
4061.17088 1.91829e-17
4063.79506 1.67446e-17
4066.41924 1.76283e-17
4069.03332 1.79936e-17
4071.65750 1.73596e-17
4074.28168 1.80202e-17
4076.90586 1.71078e-17
4079.53004 1.61543e-17
4082.15422 1.77863e-17
4084.76831 1.66880e-17
4087.39249 1.72458e-17
4090.01667 1.71400e-17
4092.64085 1.71938e-17
4095.26503 1.66037e-17
4097.88921 1.61340e-17
4100.51339 1.76271e-17
4103.12748 1.62880e-17
4105.75166 1.61775e-17
4108.37584 1.61022e-17
4111.00002 1.46994e-17
4113.62420 1.47929e-17
4116.24838 1.55164e-17
4118.86246 1.58539e-17
4121.48664 1.56603e-17
4124.11082 1.57133e-17
4126.73500 1.57466e-17
4129.35918 1.61272e-17
4131.98336 1.56601e-17
4134.59745 1.58051e-17
4137.22163 1.45898e-17
4139.84581 1.49754e-17
4142.46999 1.48106e-17
4145.09417 1.47994e-17
4147.71835 1.46203e-17
4150.34253 1.49399e-17
4152.95662 1.42201e-17
4155.58080 1.34625e-17
4158.20498 1.30585e-17
4160.82916 1.25548e-17
4163.45334 1.34720e-17
4166.07752 1.34286e-17
4168.69160 1.27298e-17
4171.31578 1.27438e-17
4173.93996 1.25825e-17
4176.56414 1.14673e-17
4179.18832 1.27627e-17
4181.81250 1.26599e-17
4184.43668 1.32499e-17
4187.05077 1.24922e-17
4189.67495 1.22137e-17
4192.29913 1.17994e-17
4194.92331 1.13910e-17
4197.54749 1.14892e-17
4200.17167 1.15714e-17
4202.78576 1.16701e-17
4205.40994 1.13172e-17
4208.03412 1.15032e-17
4210.65830 1.17290e-17
4213.28248 1.28180e-17
4215.90666 1.32369e-17
4218.52074 1.33114e-17
4221.14493 1.26070e-17
4223.76911 1.37893e-17
4226.39329 1.32619e-17
4229.01747 1.35696e-17
4231.64164 1.40669e-17
4234.26583 1.41903e-17
4236.87991 1.33469e-17
4239.50409 1.37423e-17
4242.12827 1.43114e-17
4244.75245 1.46554e-17
4247.37663 1.45815e-17
4250.00081 1.47587e-17
4252.61490 1.48372e-17
4255.23908 1.45287e-17
4257.86326 1.42423e-17
4260.48744 1.40793e-17
4263.11162 1.54995e-17
4265.73580 1.38818e-17
4268.34989 1.42770e-17
4270.97407 1.43592e-17
4273.59825 1.35477e-17
4276.22243 1.44511e-17
4278.84661 1.42669e-17
4281.47079 1.38525e-17
4284.09497 1.42514e-17
4286.70905 1.39516e-17
4289.33323 1.35921e-17
4291.95741 1.30435e-17
4294.58159 1.28889e-17
4297.20577 1.33289e-17
4299.82995 1.35521e-17
4302.44404 1.20442e-17
4305.06822 1.18569e-17
4307.69240 1.25505e-17
4310.31658 1.23292e-17
4312.94076 1.24053e-17
4315.56494 1.23979e-17
4318.18912 1.13417e-17
4320.80321 1.13136e-17
4323.42739 1.23282e-17
4326.05157 1.23343e-17
4328.67575 1.23766e-17
4331.29993 1.18596e-17
4333.92411 1.18475e-17
4336.53819 1.26983e-17
4339.16237 1.27592e-17
4341.78655 1.26462e-17
4344.41073 1.25566e-17
4347.03491 1.20285e-17
4349.65909 1.10506e-17
4352.27318 1.12791e-17
4354.89736 1.15475e-17
4357.52154 1.03025e-17
4360.14572 9.88234e-18
4362.76990 9.90345e-18
4365.39408 9.22217e-18
4368.01826 7.97168e-18
4370.63235 7.72246e-18
4373.25653 7.80865e-18
4375.88071 6.73274e-18
4378.50489 6.48036e-18
4381.12907 6.84519e-18
4383.75325 6.84375e-18
4386.36733 7.13325e-18
4388.99152 7.18341e-18
4391.61570 7.30191e-18
4394.23988 7.59014e-18
4396.86406 7.40675e-18
4399.48823 7.90018e-18
4402.10232 8.96185e-18
4404.72650 8.88070e-18
4407.35068 8.30111e-18
4409.97486 8.44312e-18
4412.59904 9.58283e-18
4415.22322 9.30880e-18
4417.84740 9.56539e-18
4420.46149 1.02880e-17
4423.08567 1.04028e-17
4425.70985 1.06472e-17
4428.33403 1.13269e-17
4430.95821 1.14187e-17
4433.58239 1.18643e-17
4436.19648 1.17840e-17
4438.82066 1.25303e-17
4441.44484 1.32066e-17
4444.06902 1.33442e-17
4446.69320 1.31576e-17
4449.31738 1.32194e-17
4451.94156 1.32563e-17
4454.55564 1.48668e-17
4457.17982 1.46252e-17
4459.80400 1.41733e-17
4462.42818 1.44578e-17
4465.05236 1.49384e-17
4467.67654 1.46622e-17
4470.29063 1.52959e-17
4472.91481 1.52174e-17
4475.53899 1.50610e-17
4478.16317 1.45560e-17
4480.78735 1.38077e-17
4483.41153 1.30436e-17
4486.02562 1.37308e-17
4488.64980 1.30695e-17
4491.27398 1.40800e-17
4493.89816 1.43025e-17
4496.52234 1.42592e-17
4499.14652 1.40005e-17
4501.77070 1.38543e-17
4504.38478 1.40793e-17
4507.00896 1.35057e-17
4509.63314 1.33799e-17
4512.25732 1.31960e-17
4514.88150 1.31693e-17
4517.50568 1.36594e-17
4520.11977 1.27898e-17
4522.74395 1.40775e-17
4525.36813 1.41128e-17
4527.99231 1.31737e-17
4530.61649 1.37582e-17
4533.24067 1.45324e-17
4535.85476 1.45600e-17
4538.47894 1.43596e-17
4541.10312 1.48323e-17
4543.72730 1.52314e-17
4546.35148 1.47854e-17
4548.97566 1.48408e-17
4551.59984 1.57698e-17
4554.21393 1.51807e-17
4556.83811 1.56191e-17
4559.46229 1.49878e-17
4562.08647 1.57189e-17
4564.71065 1.58257e-17
4567.33483 1.59416e-17
4569.94891 1.57230e-17
4572.57309 1.68580e-17
4575.19727 1.73051e-17
4577.82145 1.65071e-17
4580.44563 1.67625e-17
4583.06981 1.65516e-17
4585.69399 1.64593e-17
4588.30808 1.67558e-17
4590.93226 1.60802e-17
4593.55644 1.56680e-17
4596.18062 1.66574e-17
4598.80480 1.62765e-17
4601.42898 1.64478e-17
4604.04307 1.58406e-17
4606.66725 1.61719e-17
4609.29143 1.56936e-17
4611.91561 1.50151e-17
4614.53979 1.42934e-17
4617.16397 1.36996e-17
4619.77805 1.35712e-17
4622.40223 1.35329e-17
4625.02641 1.34174e-17
4627.65059 1.31636e-17
4630.27477 1.25275e-17
4632.89895 1.26824e-17
4635.51304 1.28192e-17
4638.13722 1.35906e-17
4640.76140 1.33459e-17
4643.38558 1.38142e-17
4646.00976 1.40396e-17
4648.63394 1.36521e-17
4651.25812 1.29506e-17
4653.87221 1.29600e-17
4656.49639 1.40640e-17
4659.12057 1.36671e-17
4661.74475 1.33001e-17
4664.36893 1.26988e-17
4666.99311 1.26073e-17
4669.60719 1.29679e-17
4672.23137 1.26745e-17
4674.85555 1.22947e-17
4677.47973 1.23931e-17
4680.10391 1.20422e-17
4682.72809 1.21409e-17
4685.35227 1.18961e-17
4687.96636 1.15500e-17
4690.59054 1.13401e-17
4693.21472 1.07545e-17
4695.83890 1.07242e-17
4698.46308 1.11977e-17
4701.08726 1.08814e-17
4703.70135 1.06267e-17
4706.32553 1.10197e-17
4708.94971 1.06372e-17
4711.57389 1.06810e-17
4714.19807 1.08711e-17
4716.82225 1.09863e-17
4719.43634 1.21394e-17
4722.06052 1.25240e-17
4724.68469 1.31562e-17
4727.30888 1.33784e-17
4729.93306 1.34192e-17
4732.55724 1.45860e-17
4735.18142 1.55555e-17
4737.79550 1.52494e-17
4740.41968 1.47677e-17
4743.04386 1.55021e-17
4745.66804 1.55451e-17
4748.29222 1.52648e-17
4750.91640 1.54911e-17
4753.53049 1.52296e-17
4756.15467 1.52596e-17
4758.77885 1.52365e-17
4761.40303 1.54316e-17
4764.02721 1.54867e-17
4766.65139 1.47706e-17
4769.27557 1.52513e-17
4771.88966 1.53147e-17
4774.51384 1.47577e-17
4777.13802 1.50870e-17
4779.76220 1.51769e-17
4782.38638 1.50889e-17
4785.01056 1.50702e-17
4787.62464 1.43517e-17
4790.24882 1.42048e-17
4792.87300 1.40408e-17
4795.49718 1.36999e-17
4798.12136 1.38700e-17
4800.74554 1.34259e-17
4803.35963 1.27879e-17
4805.98381 1.20344e-17
4808.60799 1.20343e-17
4811.23217 1.13701e-17
4813.85635 1.05769e-17
4816.48053 1.08411e-17
4819.09462 1.06364e-17
4821.71880 1.03368e-17
4824.34298 9.93426e-18
4826.96716 9.42116e-18
4829.59134 9.45234e-18
4832.21552 9.37626e-18
4834.83970 9.41170e-18
4837.45378 9.61105e-18
4840.07796 9.64420e-18
4842.70214 1.00504e-17
4845.32632 1.04966e-17
4847.95050 1.08030e-17
4850.57468 1.12369e-17
4853.19886 1.20527e-17
4855.81295 1.20552e-17
4858.43713 1.16328e-17
4861.06131 1.18994e-17
4863.68549 1.19739e-17
4866.30967 1.22510e-17
4868.93385 1.21485e-17
4871.54794 1.15473e-17
4874.17212 1.15168e-17
4876.79630 1.08387e-17
4879.42048 1.02353e-17
4882.04466 1.00360e-17
4884.66884 9.14688e-18
4887.28293 8.86161e-18
4889.90711 8.51175e-18
4892.53129 8.61069e-18
4895.15547 7.74097e-18
4897.77964 7.95128e-18
4900.40383 8.04908e-18
4903.01791 7.44081e-18
4905.64209 6.67250e-18
4908.26627 7.94803e-18
4910.89045 8.01268e-18
4913.51463 8.00353e-18
4916.13881 8.51386e-18
4918.76299 8.82515e-18
4921.37708 8.51293e-18
4924.00126 9.18529e-18
4926.62544 9.65968e-18
4929.24962 9.32042e-18
4931.87380 1.01492e-17
4934.49798 1.07931e-17
4937.11207 1.10429e-17
4939.73625 1.12979e-17
4942.36043 1.19954e-17
4944.98461 1.21083e-17
4947.60879 1.26209e-17
4950.23297 1.33977e-17
4952.84705 1.33752e-17
4955.47123 1.34944e-17
4958.09541 1.39552e-17
4960.71959 1.45743e-17
4963.34377 1.55050e-17
4965.96795 1.63575e-17
4968.59213 1.66070e-17
4971.20622 1.74775e-17
4973.83040 1.79499e-17
4976.45458 1.80740e-17
4979.07876 1.81121e-17
4981.70294 1.93995e-17
4984.32712 1.90124e-17
4986.94121 1.93705e-17
4989.56539 1.90129e-17
4992.18957 1.93960e-17
4994.81375 1.93447e-17
4997.43793 1.97419e-17
5000.06211 2.01996e-17
5002.68629 2.00560e-17
5005.30037 2.08540e-17
5007.92455 2.14556e-17
5010.54873 2.15536e-17
5013.17291 2.12299e-17
5015.79709 2.11853e-17
5018.42127 2.25204e-17
5021.03536 2.28838e-17
5023.65954 2.33054e-17
5026.28372 2.25289e-17
5028.90790 2.36957e-17
5031.53208 2.32334e-17
5034.15626 2.23548e-17
5036.77035 2.26787e-17
5039.39453 2.31102e-17
5042.01871 2.29899e-17
5044.64289 2.28916e-17
5047.26707 2.20173e-17
5049.89125 2.07748e-17
5052.51543 2.05428e-17
5055.12952 2.04054e-17
5057.75370 2.05624e-17
5060.37788 1.98926e-17
5063.00206 1.94344e-17
5065.62624 1.93320e-17
5068.25042 1.82385e-17
5070.86450 1.85927e-17
5073.48868 1.77803e-17
5076.11286 1.63881e-17
5078.73704 1.55236e-17
5081.36122 1.40906e-17
5083.98540 1.25345e-17
5086.60958 1.09883e-17
5089.22367 8.87884e-18
5091.84785 7.80890e-18
5094.47203 7.89878e-18
5097.09621 8.23610e-18
5099.72039 8.68499e-18
5102.34457 1.02568e-17
5104.95866 1.37600e-17
5107.58284 1.64679e-17
5110.20702 1.75729e-17
5112.83120 1.74351e-17
5115.45538 1.69175e-17
5118.07956 1.71300e-17
5120.69364 1.66497e-17
5123.31782 1.66955e-17
5125.94200 1.69827e-17
5128.56618 1.64349e-17
5131.19036 1.63979e-17
5133.81454 1.64943e-17
5136.42863 1.64603e-17
5139.05281 1.62766e-17
5141.67699 1.63001e-17
5144.30117 1.67633e-17
5146.92535 1.58710e-17
5149.54953 1.60976e-17
5152.17371 1.62386e-17
5154.78780 1.62831e-17
5157.41198 1.70024e-17
5160.03616 1.69182e-17
5162.66034 1.72870e-17
5165.28452 1.79181e-17
5167.90870 1.79617e-17
5170.52278 1.86003e-17
5173.14696 1.79909e-17
5175.77114 1.78769e-17
5178.39532 1.81777e-17
5181.01950 1.86614e-17
5183.64368 1.83147e-17
5186.26786 1.81144e-17
5188.88195 1.87224e-17
5191.50613 1.90832e-17
5194.13031 1.93643e-17
5196.75449 1.96452e-17
5199.37867 1.94950e-17
5202.00285 1.94297e-17
5204.61694 1.97896e-17
5207.24112 1.99731e-17
5209.86530 2.01752e-17
5212.48948 1.99711e-17
5215.11366 2.01624e-17
5217.73784 2.04508e-17
5220.35193 2.01185e-17
5222.97611 1.99816e-17
5225.60029 1.95394e-17
5228.22447 1.99399e-17
5230.84865 1.96588e-17
5233.47283 1.95217e-17
5236.09701 2.01740e-17
5238.71109 1.98360e-17
5241.33527 1.99506e-17
5243.95945 1.99651e-17
5246.58363 1.93011e-17
5249.20781 1.91790e-17
5251.83199 1.93655e-17
5254.44608 1.97468e-17
5257.07026 1.98443e-17
5259.69444 1.96804e-17
5262.31862 1.95071e-17
5264.94280 1.91495e-17
5267.56698 1.87314e-17
5270.18107 1.90468e-17
5272.80525 1.93690e-17
5275.42943 1.92052e-17
5278.05361 1.90734e-17
5280.67779 1.85450e-17
5283.30197 1.83982e-17
5285.92615 1.87273e-17
5288.54023 1.92120e-17
5291.16441 1.89419e-17
5293.78859 1.82512e-17
5296.41277 1.81836e-17
5299.03695 1.85382e-17
5301.66113 1.85797e-17
5304.27522 1.88447e-17
5306.89940 1.93670e-17
5309.52358 1.90850e-17
5312.14776 1.90894e-17
5314.77194 1.89864e-17
5317.39612 1.85981e-17
5320.02030 1.93631e-17
5322.63439 1.90998e-17
5325.25857 1.87558e-17
5327.88275 1.88070e-17
5330.50693 1.85466e-17
5333.13111 1.85716e-17
5335.75529 1.85104e-17
5338.36937 1.83820e-17
5340.99355 1.76739e-17
5343.61773 1.79566e-17
5346.24191 1.85417e-17
5348.86609 1.80163e-17
5351.49027 1.81563e-17
5354.10436 1.85055e-17
5356.72854 1.87519e-17
5359.35272 1.89586e-17
5361.97690 1.86277e-17
5364.60108 1.90860e-17
5367.22526 1.94895e-17
5369.84944 1.93791e-17
5372.46353 1.90921e-17
5375.08771 1.91780e-17
5377.71189 1.98262e-17
5380.33607 2.00560e-17
5382.96025 1.95319e-17
5385.58443 1.92621e-17
5388.19852 1.94761e-17
5390.82269 1.93437e-17
5393.44688 1.92986e-17
5396.07106 1.88885e-17
5398.69524 1.85737e-17
5401.31942 1.89085e-17
5403.94359 1.87414e-17
5406.55768 1.79200e-17
5409.18186 1.82592e-17
5411.80604 1.86475e-17
5414.43022 1.83093e-17
5417.05440 1.80089e-17
5419.67858 1.82100e-17
5422.29267 1.78173e-17
5424.91685 1.74020e-17
5427.54103 1.80015e-17
5430.16521 1.72286e-17
5432.78939 1.71449e-17
5435.41357 1.74035e-17
5438.02766 1.69455e-17
5440.65184 1.67059e-17
5443.27602 1.66235e-17
5445.90020 1.65319e-17
5448.52438 1.62868e-17
5451.14856 1.64850e-17
5453.77274 1.63416e-17
5456.38682 1.57536e-17
5459.01100 1.63861e-17
5461.63518 1.66087e-17
5464.25936 1.68235e-17
5466.88354 1.67743e-17
5469.50772 1.65938e-17
5472.12181 1.66431e-17
5474.74599 1.70970e-17
5477.37017 1.70744e-17
5479.99435 1.74170e-17
5482.61853 1.73401e-17
5485.24271 1.77543e-17
5487.85680 1.81239e-17
5490.48098 1.77594e-17
5493.10516 1.75764e-17
5495.72934 1.74598e-17
5498.35352 1.76659e-17
5500.97770 1.71727e-17
5503.60188 1.69061e-17
5506.21596 1.76913e-17
5508.84014 1.76451e-17
5511.46432 1.73262e-17
5514.08850 1.72454e-17
5516.71268 1.68712e-17
5519.33686 1.70078e-17
5521.95095 1.69038e-17
5524.57513 1.70817e-17
5527.19931 1.74696e-17
5529.82349 1.79280e-17
5532.44767 1.68356e-17
5535.07185 1.67905e-17
5537.69603 1.72672e-17
5540.31012 1.70539e-17
5542.93430 1.68300e-17
5545.55848 1.66670e-17
5548.18266 1.70054e-17
5550.80684 1.73840e-17
5553.43102 1.71027e-17
5556.04511 1.69816e-17
5558.66928 1.62989e-17
5561.29347 1.61674e-17
5563.91765 1.61750e-17
5566.54183 1.58792e-17
5569.16601 1.59431e-17
5571.78009 1.56990e-17
5574.40427 1.52284e-17
5577.02845 1.53690e-17
5579.65263 1.55391e-17
5582.27681 1.56780e-17
5584.90099 1.55818e-17
5587.51508 1.57695e-17
5590.13926 1.57629e-17
5592.76344 1.59294e-17
5595.38762 1.59847e-17
5598.01180 1.56725e-17
5600.63598 1.56786e-17
5603.26016 1.62368e-17
5605.87425 1.57683e-17
5608.49843 1.56866e-17
5611.12261 1.66152e-17
5613.74679 1.58605e-17
5616.37097 1.55488e-17
5618.99515 1.61836e-17
5621.60923 1.66464e-17
5624.23341 1.62786e-17
5626.85759 1.64345e-17
5629.48177 1.63431e-17
5632.10595 1.64252e-17
5634.73013 1.61859e-17
5637.35431 1.58341e-17
5639.96840 1.56571e-17
5642.59258 1.56671e-17
5645.21676 1.60871e-17
5647.84094 1.55813e-17
5650.46512 1.51131e-17
5653.08930 1.53755e-17
5655.70339 1.46415e-17
5658.32757 1.53432e-17
5660.95175 1.53429e-17
5663.57593 1.53132e-17
5666.20011 1.50985e-17
5668.82429 1.52770e-17
5671.43837 1.54795e-17
5674.06255 1.53873e-17
5676.68673 1.51588e-17
5679.31091 1.57341e-17
5681.93509 1.53865e-17
5684.55927 1.54288e-17
5687.18345 1.45901e-17
5689.79754 1.48197e-17
5692.42172 1.45503e-17
5695.04590 1.41377e-17
5697.67008 1.34814e-17
5700.29426 1.27605e-17
5702.91844 1.19167e-17
5705.53253 1.05133e-17
5708.15671 9.84403e-18
5710.78089 8.90305e-18
5713.40507 8.43133e-18
5716.02925 7.23946e-18
5718.65343 6.47095e-18
5721.27761 6.13372e-18
5723.89170 5.84674e-18
5726.51588 5.39845e-18
5729.14006 5.48077e-18
5731.76424 5.56708e-18
5734.38842 5.36989e-18
5737.01260 5.23676e-18
5739.62668 5.43621e-18
5742.25086 5.68697e-18
5744.87504 5.91112e-18
5747.49922 5.44694e-18
5750.12340 5.77193e-18
5752.74758 5.88736e-18
5755.36167 6.37110e-18
5757.98585 6.54794e-18
5760.61003 6.97479e-18
5763.23421 7.54473e-18
5765.85839 7.51124e-18
5768.48257 8.31429e-18
5771.10675 8.44378e-18
5773.72084 9.07217e-18
5776.34502 9.30832e-18
5778.96920 9.68978e-18
5781.59338 9.91356e-18
5784.21756 1.08321e-17
5786.84174 1.14872e-17
5789.45582 1.19148e-17
5792.08000 1.23744e-17
5794.70418 1.31945e-17
5797.32836 1.36009e-17
5799.95254 1.45468e-17
5802.57672 1.53531e-17
5805.19081 1.57284e-17
5807.81499 1.67007e-17
5810.43917 1.76070e-17
5813.06335 1.77420e-17
5815.68753 1.77591e-17
5818.31171 1.81917e-17
5820.92580 1.92367e-17
5823.54998 2.01736e-17
5826.17416 2.00688e-17
5828.79834 1.98058e-17
5831.42252 2.09771e-17
5834.04670 2.13055e-17
5836.67088 2.13178e-17
5839.28496 2.24973e-17
5841.90914 2.29686e-17
5844.53332 2.29425e-17
5847.15750 2.28949e-17
5849.78168 2.27549e-17
5852.40586 2.32013e-17
5855.03004 2.39887e-17
5857.64413 2.42608e-17
5860.26831 2.44539e-17
5862.89249 2.41116e-17
5865.51667 2.44407e-17
5868.14085 2.44940e-17
5870.76503 2.47654e-17
5873.37912 2.47214e-17
5876.00330 2.45182e-17
5878.62748 2.49685e-17
5881.25166 2.51914e-17
5883.87584 2.49867e-17
5886.50002 2.44272e-17
5889.11411 2.34089e-17
5891.73829 2.31842e-17
5894.36247 2.31678e-17
5896.98664 2.36426e-17
5899.61083 2.28616e-17
5902.23501 2.27005e-17
5904.84909 2.31397e-17
5907.47327 2.30164e-17
5910.09745 2.26377e-17
5912.72163 2.28027e-17
5915.34581 2.27710e-17
5917.96999 2.19445e-17
5920.59417 2.26903e-17
5923.20826 2.24309e-17
5925.83244 2.21051e-17
5928.45662 2.19899e-17
5931.08080 2.15227e-17
5933.70498 2.18320e-17
5936.32916 2.15541e-17
5938.94325 2.12287e-17
5941.56743 2.09943e-17
5944.19161 2.05303e-17
5946.81579 2.01239e-17
5949.43997 1.97044e-17
5952.06415 1.96671e-17
5954.68833 2.04558e-17
5957.30241 2.01077e-17
5959.92659 2.05700e-17
5962.55077 2.09470e-17
5965.17495 1.98498e-17
5967.79913 2.08221e-17
5970.42331 2.01403e-17
5973.03740 1.97275e-17
5975.66158 1.98465e-17
5978.28576 1.98691e-17
5980.90994 1.91013e-17
5983.53412 1.95481e-17
5986.15830 1.92049e-17
5988.77239 1.87620e-17
5991.39657 1.84769e-17
5994.02075 1.84834e-17
5996.64493 1.82893e-17
5999.26911 1.83392e-17
6001.89329 1.78880e-17
6004.51747 1.83293e-17
6007.13155 1.79857e-17
6009.75573 1.79877e-17
6012.37991 1.76255e-17
6015.00409 1.74050e-17
6017.62827 1.76650e-17
6020.25245 1.74257e-17
6022.86654 1.74522e-17
6025.49072 1.70757e-17
6028.11490 1.66975e-17
6030.73908 1.71388e-17
6033.36326 1.68140e-17
6035.98744 1.67206e-17
6038.61162 1.64848e-17
6041.22571 1.64204e-17
6043.84989 1.57421e-17
6046.47407 1.57156e-17
6049.09825 1.54432e-17
6051.72243 1.53741e-17
6054.34661 1.49501e-17
6056.96069 1.53439e-17
6059.58488 1.52158e-17
6062.20906 1.51262e-17
6064.83324 1.51134e-17
6067.45742 1.44881e-17
6070.08160 1.47912e-17
6072.69568 1.46036e-17
6075.31986 1.46702e-17
6077.94404 1.46717e-17
6080.56822 1.47399e-17
6083.19240 1.45386e-17
6085.81658 1.49449e-17
6088.43067 1.51382e-17
6091.05485 1.49980e-17
6093.67903 1.50642e-17
6096.30321 1.48742e-17
6098.92739 1.49336e-17
6101.55157 1.47649e-17
6104.17575 1.45873e-17
6106.78984 1.50241e-17
6109.41402 1.49024e-17
6112.03820 1.47921e-17
6114.66238 1.47214e-17
6117.28656 1.51745e-17
6119.91074 1.46102e-17
6122.52482 1.43112e-17
6125.14900 1.42411e-17
6127.77318 1.39940e-17
6130.39736 1.38672e-17
6133.02154 1.37123e-17
6135.64572 1.33442e-17
6138.26990 1.34866e-17
6140.88399 1.34568e-17
6143.50817 1.32410e-17
6146.13235 1.32840e-17
6148.75653 1.30618e-17
6151.38071 1.29341e-17
6154.00489 1.30255e-17
6156.61898 1.32052e-17
6159.24316 1.33276e-17
6161.86734 1.33989e-17
6164.49152 1.35557e-17
6167.11570 1.30486e-17
6169.73988 1.31097e-17
6172.35396 1.29476e-17
6174.97814 1.32596e-17
6177.60232 1.36126e-17
6180.22650 1.35555e-17
6182.85068 1.35779e-17
6185.47486 1.38787e-17
6188.09904 1.38560e-17
6190.71313 1.38314e-17
6193.33731 1.37723e-17
6195.96149 1.40415e-17
6198.58567 1.40625e-17
6201.20985 1.40296e-17
6203.83403 1.34729e-17
6206.44812 1.36701e-17
6209.07230 1.38251e-17
6211.69648 1.35625e-17
6214.32066 1.33368e-17
6216.94484 1.32554e-17
6219.56902 1.38335e-17
6222.18311 1.29953e-17
6224.80729 1.31973e-17
6227.43147 1.29423e-17
6230.05565 1.25799e-17
6232.67983 1.21883e-17
6235.30401 1.23868e-17
6237.92819 1.22921e-17
6240.54227 1.21779e-17
6243.16645 1.13791e-17
6245.79063 1.13197e-17
6248.41481 1.08272e-17
6251.03899 1.06296e-17
6253.66317 1.03092e-17
6256.27726 1.00602e-17
6258.90144 9.70604e-18
6261.52562 9.55812e-18
6264.14980 8.99734e-18
6266.77398 9.12682e-18
6269.39816 8.79998e-18
6272.02234 8.57583e-18
6274.63643 8.26875e-18
6277.26061 8.00256e-18
6279.88479 8.10331e-18
6282.50897 8.27723e-18
6285.13315 8.29979e-18
6287.75733 8.55168e-18
6290.37141 8.78751e-18
6292.99559 8.78506e-18
6295.61977 8.99608e-18
6298.24395 8.50082e-18
6300.86813 8.05956e-18
6303.49231 7.90385e-18
6306.10640 7.31117e-18
6308.73058 6.95222e-18
6311.35476 6.55957e-18
6313.97894 5.81255e-18
6316.60312 5.35109e-18
6319.22730 5.00581e-18
6321.85148 4.78018e-18
6324.46557 4.38513e-18
6327.08975 4.34373e-18
6329.71393 4.08033e-18
6332.33811 3.97381e-18
6334.96229 3.90895e-18
6337.58647 3.81999e-18
6340.20055 3.66759e-18
6342.82473 3.72486e-18
6345.44891 3.73348e-18
6348.07309 3.90347e-18
6350.69727 3.90464e-18
6353.32145 3.85129e-18
6355.94563 4.09954e-18
6358.55972 4.29339e-18
6361.18390 4.88831e-18
6363.80808 4.87532e-18
6366.43226 5.74744e-18
6369.05644 6.28305e-18
6371.68062 6.64057e-18
6374.29471 7.32288e-18
6376.91889 7.93065e-18
6379.54307 9.42599e-18
6382.16725 1.04102e-17
6384.79143 1.11487e-17
6387.41561 1.15058e-17
6390.02970 1.19371e-17
6392.65388 1.26659e-17
6395.27806 1.34202e-17
6397.90224 1.35981e-17
6400.52642 1.39045e-17
6403.15060 1.40623e-17
6405.77478 1.42365e-17
6408.38886 1.47641e-17
6411.01304 1.45851e-17
6413.63722 1.46256e-17
6416.26140 1.48898e-17
6418.88558 1.51551e-17
6421.50976 1.47720e-17
6424.12385 1.54121e-17
6426.74803 1.54040e-17
6429.37221 1.57255e-17
6431.99639 1.59359e-17
6434.62057 1.58776e-17
6437.24475 1.63449e-17
6439.85884 1.64427e-17
6442.48302 1.63266e-17
6445.10720 1.63193e-17
6447.73138 1.66696e-17
6450.35556 1.68251e-17
6452.97974 1.68566e-17
6455.60392 1.69041e-17
6458.21800 1.72587e-17
6460.84218 1.70953e-17
6463.46636 1.71560e-17
6466.09054 1.73005e-17
6468.71472 1.76798e-17
6471.33890 1.73289e-17
6473.95299 1.73258e-17
6476.57717 1.67050e-17
6479.20135 1.66811e-17
6481.82553 1.64469e-17
6484.44971 1.58372e-17
6487.07389 1.55564e-17
6489.69807 1.47641e-17
6492.31216 1.36106e-17
6494.93634 1.35573e-17
6497.56052 1.28629e-17
6500.18470 1.19163e-17
6502.80888 1.14890e-17
6505.43306 1.13122e-17
6508.04714 1.10062e-17
6510.67132 1.07234e-17
6513.29550 1.02118e-17
6515.91968 1.00455e-17
6518.54386 1.00419e-17
6521.16804 9.79514e-18
6523.78213 1.00277e-17
6526.40631 9.49090e-18
6529.03049 9.51221e-18
6531.65467 9.72067e-18
6534.27885 9.46049e-18
6536.90303 1.00343e-17
6539.52721 1.01724e-17
6542.14130 1.01430e-17
6544.76548 1.01874e-17
6547.38966 1.02993e-17
6550.01384 1.07994e-17
6552.63802 1.08742e-17
6555.26220 1.12041e-17
6557.87629 1.16557e-17
6560.50047 1.19402e-17
6563.12464 1.24704e-17
6565.74883 1.28977e-17
6568.37301 1.34288e-17
6570.99719 1.40882e-17
6573.61127 1.44390e-17
6576.23545 1.45710e-17
6578.85963 1.50450e-17
6581.48381 1.53209e-17
6584.10799 1.56987e-17
6586.73217 1.59486e-17
6589.35635 1.68153e-17
6591.97044 1.69504e-17
6594.59462 1.70823e-17
6597.21880 1.74422e-17
6599.84298 1.77382e-17
6602.46716 1.75446e-17
6605.09134 1.76650e-17
6607.70543 1.79289e-17
6610.32961 1.88299e-17
6612.95379 1.81406e-17
6615.57797 1.73705e-17
6618.20215 1.57009e-17
6620.82633 1.71015e-17
6623.45051 1.78802e-17
6626.06459 1.90164e-17
6628.68877 2.01441e-17
6631.31295 2.03083e-17
6633.93713 2.04440e-17
6636.56131 1.99501e-17
6639.18549 1.97640e-17
6641.79958 2.01596e-17
6644.42376 2.08564e-17
6647.04794 2.15640e-17
6649.67212 2.08788e-17
6652.29630 2.10887e-17
6654.92048 2.17949e-17
6657.53457 2.18787e-17
6660.15875 2.09383e-17
6662.78293 2.14274e-17
6665.40711 2.20554e-17
6668.03129 2.19198e-17
6670.65547 2.20986e-17
6673.26955 2.16917e-17
6675.89373 2.14306e-17
6678.51791 2.14500e-17
6681.14209 2.13538e-17
6683.76627 2.12857e-17
6686.39045 2.11250e-17
6689.01463 2.08317e-17
6691.62872 2.04481e-17
6694.25290 2.04475e-17
6696.87708 1.95788e-17
6699.50126 2.00829e-17
6702.12544 1.96912e-17
6704.74962 1.97292e-17
6707.36371 1.94475e-17
6709.98789 1.92199e-17
6712.61207 1.94832e-17
6715.23625 1.92185e-17
6717.86043 1.91071e-17
6720.48461 1.88739e-17
6723.10879 1.89364e-17
6725.72288 1.92480e-17
6728.34706 1.89368e-17
6730.97123 1.86139e-17
6733.59542 1.84609e-17
6736.21960 1.86284e-17
6738.84378 1.84686e-17
6741.45786 1.87394e-17
6744.08204 1.90844e-17
6746.70622 1.87174e-17
6749.33040 1.89527e-17
6751.95458 1.91025e-17
6754.57876 1.93110e-17
6757.19285 1.89413e-17
6759.81703 1.84230e-17
6762.44121 1.89592e-17
6765.06539 1.88811e-17
6767.68957 1.86455e-17
6770.31375 1.84479e-17
6772.93793 1.82628e-17
6775.55202 1.82340e-17
6778.17620 1.83737e-17
6780.80038 1.84463e-17
6783.42456 1.79492e-17
6786.04874 1.76715e-17
6788.67292 1.73902e-17
6791.28700 1.78288e-17
6793.91118 1.76472e-17
6796.53536 1.74620e-17
6799.15954 1.78745e-17
6801.78372 1.68510e-17
6804.40790 1.74149e-17
6807.03208 1.73646e-17
6809.64617 1.70625e-17
6812.27035 1.69932e-17
6814.89453 1.69324e-17
6817.51871 1.69373e-17
6820.14289 1.73403e-17
6822.76707 1.71635e-17
6825.38116 1.70004e-17
6828.00534 1.69218e-17
6830.62952 1.70877e-17
6833.25370 1.72869e-17
6835.87788 1.69471e-17
6838.50206 1.69705e-17
6841.11614 1.66848e-17
6843.74032 1.65369e-17
6846.36450 1.63499e-17
6848.98868 1.61628e-17
6851.61286 1.59758e-17
6854.23704 1.57888e-17
6856.85113 1.56018e-17
6859.47531 1.54149e-17
6862.09949 1.52279e-17
6864.72367 1.50410e-17
6867.34785 1.48542e-17
6869.97203 1.46673e-17
6872.59621 1.44805e-17
6875.21030 1.42937e-17
6877.83448 1.41068e-17
6880.45866 1.39201e-17
6883.08284 1.37333e-17
6885.70702 1.35466e-17
6888.33120 1.33599e-17
6890.95538 1.31732e-17
6893.56947 1.29865e-17
6896.19365 1.27999e-17
6898.81783 1.26133e-17
6901.44201 1.24267e-17
6904.06619 1.22401e-17
6906.69037 1.20535e-17
6909.30445 1.18670e-17
6911.92863 1.16805e-17
6914.55281 1.14940e-17
6917.17699 1.13075e-17
6919.80117 1.11210e-17
6922.42535 1.09346e-17
6925.03944 1.07482e-17
6927.66362 1.05619e-17
6930.28780 1.03755e-17
6932.91198 1.01892e-17
6935.53616 1.00028e-17
6938.16034 1.06950e-17
6940.77443 1.12119e-17
6943.39861 1.13260e-17
6946.02279 1.16767e-17
6948.64697 1.21136e-17
6951.27115 1.25989e-17
6953.89533 1.28507e-17
6956.51951 1.30042e-17
6959.13359 1.36117e-17
6961.75777 1.40596e-17
6964.38195 1.45644e-17
6967.00613 1.47904e-17
6969.63031 1.52836e-17
6972.25449 1.56520e-17
6974.86858 1.58322e-17
6977.49276 1.63100e-17
6980.11694 1.69439e-17
6982.74112 1.68533e-17
6985.36530 1.69504e-17
6987.98948 1.73085e-17
6990.60357 1.70135e-17
6993.22775 1.71184e-17
6995.85193 1.83675e-17
6998.47611 1.85198e-17
7001.10029 1.81423e-17
7003.72447 1.86597e-17
7006.34865 1.87955e-17
7008.96273 1.87905e-17
7011.58691 1.91863e-17
7014.21109 1.93972e-17
7016.83527 1.91921e-17
7019.45945 1.89094e-17
7022.08363 1.93014e-17
7024.69772 1.96395e-17
7027.32190 1.95035e-17
7029.94608 1.95104e-17
7032.57026 1.92870e-17
7035.19444 1.97007e-17
7037.81862 1.95277e-17
7040.44280 1.95559e-17
7043.05689 1.97742e-17
7045.68107 1.96093e-17
7048.30525 1.95509e-17
7050.92943 1.93714e-17
7053.55361 1.90926e-17
7056.17779 1.88751e-17
7058.79188 1.91542e-17
7061.41606 1.88793e-17
7064.04024 1.84079e-17
7066.66442 1.82007e-17
7069.28859 1.82909e-17
7071.91278 1.80033e-17
7074.52686 1.76294e-17
7077.15104 1.78803e-17
7079.77522 1.72661e-17
7082.39940 1.67316e-17
7085.02358 1.61529e-17
7087.64776 1.56295e-17
7090.27194 1.56516e-17
7092.88603 1.49991e-17
7095.51021 1.46980e-17
7098.13439 1.45118e-17
7100.75857 1.39886e-17
7103.38275 1.37929e-17
7106.00693 1.33604e-17
7108.62102 1.25374e-17
7111.24520 1.21198e-17
7113.86938 1.20399e-17
7116.49356 1.18122e-17
7119.11774 1.16885e-17
7121.74192 1.15196e-17
7124.35600 1.09532e-17
7126.98018 1.07227e-17
7129.60436 1.03614e-17
7132.22854 1.04548e-17
7134.85272 1.02567e-17
7137.47690 1.01511e-17
7140.10108 1.05464e-17
7142.71517 1.03475e-17
7145.33935 1.01629e-17
7147.96353 1.02927e-17
7150.58771 1.02977e-17
7153.21189 1.08699e-17
7155.83607 1.10294e-17
7158.45016 1.10289e-17
7161.07434 1.14189e-17
7163.69852 1.16489e-17
7166.32270 1.18884e-17
7168.94688 1.19669e-17
7171.57106 1.23240e-17
7174.18514 1.21408e-17
7176.80932 1.22353e-17
7179.43350 1.24396e-17
7182.05768 1.21621e-17
7184.68186 1.18649e-17
7187.30604 1.20023e-17
7189.93022 1.21619e-17
7192.54431 1.19563e-17
7195.16849 1.19293e-17
7197.79267 1.21843e-17
7200.41685 1.23066e-17
7203.04103 1.26005e-17
7205.66521 1.27645e-17
7208.27930 1.25944e-17
7210.90348 1.27720e-17
7213.52766 1.29225e-17
7216.15184 1.29518e-17
7218.77602 1.26428e-17
7221.40020 1.29514e-17
7224.02438 1.34040e-17
7226.63847 1.36393e-17
7229.26265 1.36909e-17
7231.88683 1.33439e-17
7234.51101 1.33225e-17
7237.13519 1.34431e-17
7239.75937 1.34567e-17
7242.37345 1.37842e-17
7244.99763 1.37451e-17
7247.62181 1.37617e-17
7250.24599 1.40562e-17
7252.87017 1.40817e-17
7255.49435 1.40055e-17
7258.10844 1.42576e-17
7260.73262 1.43843e-17
7263.35680 1.39445e-17
7265.98098 1.38916e-17
7268.60516 1.40064e-17
7271.22934 1.42925e-17
7273.85352 1.45109e-17
7276.46761 1.41560e-17
7279.09179 1.37125e-17
7281.71597 1.38575e-17
7284.34015 1.35980e-17
7286.96433 1.38498e-17
7289.58851 1.35464e-17
7292.20259 1.34330e-17
7294.82677 1.32551e-17
7297.45095 1.30257e-17
7300.07513 1.31175e-17
7302.69931 1.31392e-17
7305.32349 1.30607e-17
7307.93758 1.27391e-17
7310.56176 1.24257e-17
7313.18594 1.23978e-17
7315.81012 1.25771e-17
7318.43430 1.26454e-17
7321.05848 1.23373e-17
7323.68266 1.19175e-17
7326.29675 1.18262e-17
7328.92093 1.16019e-17
7331.54511 1.16109e-17
7334.16929 1.15844e-17
7336.79347 1.13814e-17
7339.41765 1.14655e-17
7342.03173 1.14344e-17
7344.65591 1.13508e-17
7347.28009 1.10334e-17
7349.90427 1.10391e-17
7352.52845 1.10304e-17
7355.15263 1.10868e-17
7357.77681 1.09691e-17
7360.39090 1.07679e-17
7363.01508 1.08945e-17
7365.63926 1.07042e-17
7368.26344 1.09158e-17
7370.88762 1.11120e-17
7373.51180 1.10829e-17
7376.12589 1.09600e-17
7378.75007 1.10779e-17
7381.37425 1.12981e-17
7383.99843 1.14534e-17
7386.62261 1.11097e-17
7389.24679 1.08018e-17
7391.86088 1.10132e-17
7394.48506 1.08977e-17
7397.10924 1.10724e-17
7399.73342 1.09784e-17
7402.35760 1.07789e-17
7404.98178 1.08852e-17
7407.60596 1.10740e-17
7410.22004 1.09850e-17
7412.84422 1.07703e-17
7415.46840 1.08468e-17
7418.09258 1.06414e-17
7420.71676 1.01724e-17
7423.34094 1.03131e-17
7425.95503 1.04732e-17
7428.57921 1.02446e-17
7431.20339 9.97320e-18
7433.82757 1.03456e-17
7436.45175 1.04331e-17
7439.07593 1.02602e-17
7441.69002 1.03305e-17
7444.31420 1.05752e-17
7446.93838 1.06992e-17
7449.56256 1.06390e-17
7452.18674 1.06934e-17
7454.81092 1.09158e-17
7457.43510 1.04855e-17
7460.04918 1.07062e-17
7462.67336 1.04686e-17
7465.29754 1.06483e-17
7467.92172 1.06319e-17
7470.54590 1.05353e-17
7473.17008 1.07241e-17
7475.78417 1.08019e-17
7478.40835 1.10508e-17
7481.03253 1.09837e-17
7483.65671 1.09205e-17
7486.28089 1.05298e-17
7488.90507 1.06309e-17
7491.52925 1.06185e-17
7494.14334 1.05443e-17
7496.76752 1.01824e-17
7499.39170 1.02718e-17
7502.01588 1.04613e-17
7504.64006 1.09830e-17
7507.26424 1.07888e-17
7509.87832 1.06578e-17
7512.50250 1.09137e-17
7515.12668 1.08746e-17
7517.75086 1.04849e-17
7520.37504 1.02437e-17
7522.99922 1.03571e-17
7525.61331 1.03969e-17
7528.23749 1.05101e-17
7530.86167 1.02676e-17
7533.48585 1.00073e-17
7536.11003 9.87897e-18
7538.73421 9.99499e-18
7541.35839 1.00130e-17
7543.97248 1.00697e-17
7546.59666 1.00922e-17
7549.22084 1.00770e-17
7551.84502 1.00457e-17
7554.46920 1.00144e-17
7557.09338 9.98316e-18
7559.70747 9.95189e-18
7562.33165 9.92063e-18
7564.95583 9.88937e-18
7567.58001 9.85812e-18
7570.20419 9.82686e-18
7572.82837 9.79561e-18
7575.45255 9.76437e-18
7578.06663 9.73313e-18
7580.69081 9.70190e-18
7583.31499 9.67066e-18
7585.93917 9.63943e-18
7588.56335 9.60821e-18
7591.18753 9.57699e-18
7593.80162 9.54577e-18
7596.42580 9.51456e-18
7599.04998 9.48335e-18
7601.67416 9.45214e-18
7604.29834 9.42094e-18
7606.92252 9.38974e-18
7609.53661 9.35855e-18
7612.16079 9.32736e-18
7614.78497 9.29617e-18
7617.40915 9.26499e-18
7620.03333 9.23381e-18
7622.65751 9.20264e-18
7625.27159 9.17147e-18
7627.89577 9.14030e-18
7630.51995 9.10914e-18
7633.14413 9.07798e-18
7635.76831 9.04683e-18
7638.39249 9.01568e-18
7641.01667 8.98453e-18
7643.63076 8.95338e-18
7646.25494 8.92224e-18
7648.87912 8.89111e-18
7651.50330 8.85998e-18
7654.12748 8.82885e-18
7656.75166 8.79773e-18
7659.36575 8.76661e-18
7661.98993 8.73549e-18
7664.61411 8.70438e-18
7667.23829 8.67328e-18
7669.86247 8.64217e-18
7672.48665 8.61107e-18
7675.11083 8.57997e-18
7677.72491 8.54888e-18
7680.34909 8.51780e-18
7682.97327 8.84881e-18
7685.59745 9.34826e-18
7688.22163 9.12795e-18
7690.84581 9.03098e-18
7693.45990 8.97459e-18
7696.08408 9.16004e-18
7698.70826 9.03393e-18
7701.33244 8.96675e-18
7703.95662 9.43182e-18
7706.58080 9.52019e-18
7709.19489 9.36817e-18
7711.81907 9.25866e-18
7714.44325 8.95146e-18
7717.06743 9.02376e-18
7719.69161 9.06232e-18
7722.31579 9.03556e-18
7724.93997 9.06831e-18
7727.55406 9.18655e-18
7730.17824 9.06594e-18
7732.80242 8.81920e-18
7735.42659 8.80076e-18
7738.05078 8.64685e-18
7740.67496 8.72401e-18
7743.28904 8.89357e-18
7745.91322 9.17233e-18
7748.53740 1.07738e-17
7751.16158 1.01627e-17
7753.78576 9.29806e-18
7756.40994 8.94297e-18
7759.03412 8.77415e-18
7761.64821 8.70119e-18
7764.27239 8.38399e-18
7766.89657 8.45477e-18
7769.52075 8.78599e-18
7772.14493 9.10214e-18
7774.76911 9.00135e-18
7777.38320 9.11835e-18
7780.00738 9.17128e-18
7782.63156 9.55905e-18
7785.25574 9.49047e-18
7787.87992 9.44840e-18
7790.50410 9.64654e-18
7793.11818 9.95865e-18
7795.74236 9.70744e-18
7798.36654 9.56622e-18
7800.99072 9.48040e-18
7803.61490 9.39325e-18
7806.23908 9.52228e-18
7808.86326 9.34690e-18
7811.47735 9.33187e-18
7814.10153 9.40764e-18
7816.72571 9.60379e-18
7819.34989 9.35217e-18
7821.97407 9.69243e-18
7824.59825 9.54214e-18
7827.21234 9.58400e-18
7829.83652 9.50765e-18
7832.46070 9.62390e-18
7835.08488 9.33300e-18
7837.70906 9.27643e-18
7840.33324 9.29912e-18
7842.94732 9.10833e-18
7845.57150 9.24029e-18
7848.19568 9.64727e-18
7850.81986 9.53997e-18
7853.44404 9.54773e-18
7856.06822 9.30983e-18
7858.68231 9.45865e-18
7861.30649 9.27758e-18
7863.93067 9.60549e-18
7866.55485 9.66669e-18
7869.17903 9.44456e-18
7871.80321 9.20326e-18
7874.42739 9.21287e-18
7877.04148 9.17832e-18
7879.66566 8.94632e-18
7882.28984 9.17891e-18
7884.91402 9.17417e-18
7887.53820 9.25026e-18
7890.16238 9.36434e-18
7892.77647 9.11028e-18
7895.40065 8.91634e-18
7898.02483 9.41904e-18
7900.64901 9.12784e-18
7903.27319 9.27215e-18
7905.89737 9.13619e-18
7908.52155 8.82294e-18
7911.13563 8.94845e-18
7913.75981 9.14036e-18
7916.38399 9.01716e-18
7919.00817 8.74177e-18
7921.63235 8.58634e-18
7924.25653 8.87692e-18
7926.87062 9.10872e-18
7929.49480 9.18076e-18
7932.11898 8.76727e-18
7934.74316 8.78552e-18
7937.36734 9.14456e-18
7939.99152 8.80177e-18
7942.60561 8.96582e-18
7945.22979 8.79237e-18
7947.85397 8.80510e-18
7950.47815 9.16293e-18
7953.10233 8.79318e-18
7955.72651 8.76098e-18
7958.35069 8.77160e-18
7960.96477 8.65281e-18
7963.58895 8.90076e-18
7966.21313 8.53882e-18
7968.83731 9.12485e-18
7971.46149 8.85526e-18
7974.08567 9.04484e-18
7976.69976 9.02406e-18
7979.32394 8.95582e-18
7981.94812 9.00652e-18
7984.57230 9.18972e-18
7987.19648 8.75478e-18
7989.82066 8.67331e-18
7992.44484 8.41026e-18
7995.05893 8.17825e-18
7997.68311 8.46178e-18
8000.30729 8.40975e-18
8002.93147 8.41311e-18
8005.55565 8.81826e-18
8008.17983 8.61967e-18
8010.79391 8.72936e-18
8013.41809 8.65436e-18
8016.04227 8.30525e-18
8018.66645 8.67239e-18
8021.29063 8.71028e-18
8023.91481 8.40614e-18
8026.52890 8.52804e-18
8029.15308 8.54872e-18
8031.77726 8.47819e-18
8034.40144 8.21439e-18
8037.02562 8.30166e-18
8039.64980 8.31397e-18
8042.27398 8.09414e-18
8044.88807 8.29244e-18
8047.51225 8.53204e-18
8050.13643 8.59914e-18
8052.76061 8.32049e-18
8055.38479 8.43267e-18
8058.00897 8.73608e-18
8060.62306 8.88441e-18
8063.24724 8.69462e-18
8065.87142 8.12050e-18
8068.49560 8.43543e-18
8071.11978 8.58154e-18
8073.74396 8.38652e-18
8076.36814 8.16387e-18
8078.98222 8.22550e-18
8081.60640 8.45653e-18
8084.23058 8.22645e-18
8086.85476 8.15445e-18
8089.47894 8.29155e-18
8092.10312 8.04220e-18
8094.71721 8.29441e-18
8097.34139 8.23910e-18
8099.96557 8.23475e-18
8102.58975 8.32626e-18
8105.21393 8.25769e-18
8107.83811 8.25653e-18
8110.45220 8.01228e-18
8113.07638 8.01510e-18
8115.70056 8.05065e-18
8118.32474 7.97856e-18
8120.94892 7.99829e-18
8123.57310 7.67401e-18
8126.18718 7.73795e-18
8128.81136 7.83711e-18
8131.43554 7.87842e-18
8134.05972 7.85906e-18
8136.68390 8.17609e-18
8139.30808 8.06527e-18
8141.93226 7.97938e-18
8144.54635 8.20149e-18
8147.17053 8.04421e-18
8149.79471 8.02412e-18
8152.41889 8.08709e-18
8155.04307 7.98341e-18
8157.66725 7.63799e-18
8160.28134 7.77283e-18
8162.90552 7.88192e-18
8165.52970 7.78112e-18
8168.15388 7.75299e-18
8170.77806 7.80166e-18
8173.40224 7.77388e-18
8176.02642 8.02975e-18
8178.64050 8.19132e-18
8181.26468 7.72766e-18
8183.88886 7.88993e-18
8186.51304 7.76630e-18
8189.13722 7.78345e-18
8191.76140 7.69273e-18
8194.37549 7.29752e-18
8196.99967 7.81212e-18
8199.62385 7.59870e-18
8202.24803 7.48823e-18
8204.87221 7.54627e-18
8207.49639 7.17787e-18
8210.11048 7.73310e-18
8212.73466 7.87397e-18
8215.35884 7.74822e-18
8217.98302 7.96692e-18
8220.60720 7.50514e-18
8223.23138 7.59503e-18
8225.85556 7.46522e-18
8228.46965 7.20026e-18
8231.09382 7.38774e-18
8233.71801 7.29521e-18
8236.34219 7.19429e-18
8238.96637 7.45786e-18
8241.59055 7.58303e-18
8244.20463 7.60602e-18
8246.82881 7.28151e-18
8249.45299 7.57759e-18
8252.07717 7.67969e-18
8254.70135 7.47095e-18
8257.32553 7.49775e-18
8259.93962 7.20087e-18
8262.56380 7.17277e-18
8265.18798 7.18643e-18
8267.81216 7.29509e-18
8270.43634 7.25920e-18
8273.06052 7.17414e-18
8275.68470 6.88436e-18
8278.29879 6.95610e-18
8280.92297 7.49410e-18
8283.54715 7.55666e-18
8286.17133 7.38817e-18
8288.79551 7.03494e-18
8291.41969 7.35056e-18
8294.04387 7.21139e-18
8296.65795 7.04297e-18
8299.28213 6.78848e-18
8301.90631 6.81517e-18
8304.53049 6.98493e-18
8307.15467 6.90655e-18
8309.77885 6.75147e-18
8312.39294 6.76994e-18
8315.01712 6.51452e-18
8317.64130 6.50422e-18
8320.26548 6.40199e-18
8322.88966 6.41355e-18
8325.51384 6.70202e-18
8328.12793 6.48315e-18
8330.75211 6.48187e-18
8333.37629 6.13040e-18
8336.00047 5.90741e-18
8338.62465 6.07545e-18
8341.24883 5.55544e-18
8343.86291 5.48602e-18
8346.48709 5.67636e-18
8349.11127 5.38248e-18
8351.73545 5.13652e-18
8354.35963 5.03548e-18
8356.98381 5.11645e-18
8359.60799 4.77282e-18
8362.22208 4.52239e-18
8364.84626 4.63113e-18
8367.47044 4.60043e-18
8370.09462 4.59832e-18
8372.71880 4.61663e-18
8375.34298 4.26957e-18
8377.95707 4.18565e-18
8380.58125 4.12251e-18
8383.20543 4.12763e-18
8385.82961 4.04203e-18
8388.45379 4.19472e-18
8391.07797 4.28362e-18
8393.69206 4.23361e-18
8396.31624 4.31997e-18
8398.94041 4.43704e-18
8401.56459 4.67321e-18
8404.18878 4.67782e-18
8406.81296 4.73926e-18
8409.43714 4.55638e-18
8412.05122 4.37339e-18
8414.67540 4.80593e-18
8417.29958 4.66204e-18
8419.92376 4.77310e-18
8422.54794 4.93157e-18
8425.17212 5.26961e-18
8427.78621 5.91611e-18
8430.41039 5.68906e-18
8433.03457 5.77676e-18
8435.65875 5.99813e-18
8438.28293 5.94045e-18
8440.90711 6.02296e-18
8443.52120 6.12063e-18
8446.14538 6.44364e-18
8448.76956 6.30992e-18
8451.39374 6.34640e-18
8454.01792 6.68805e-18
8456.64210 6.50281e-18
8459.26628 6.68583e-18
8461.88036 6.84346e-18
8464.50454 7.02026e-18
8467.12872 7.02415e-18
8469.75290 6.92315e-18
8472.37708 7.25513e-18
8475.00126 7.06869e-18
8477.61535 7.18707e-18
8480.23953 7.09166e-18
8482.86371 6.79148e-18
8485.48789 7.01265e-18
8488.11207 6.95187e-18
8490.73625 6.81949e-18
8493.36043 6.83934e-18
8495.97452 6.82018e-18
8498.59870 6.94653e-18
8501.22288 7.06439e-18
8503.84706 6.82471e-18
8506.47124 6.96526e-18
8509.09542 7.04048e-18
8511.70950 6.85452e-18
8514.33368 6.67657e-18
8516.95786 6.83921e-18
8519.58204 6.88981e-18
8522.20622 6.84223e-18
8524.83040 7.11306e-18
8527.44449 6.80999e-18
8530.06867 6.78247e-18
8532.69285 7.19301e-18
8535.31703 7.49916e-18
8537.94121 7.41687e-18
8540.56539 7.24388e-18
8543.18957 7.33863e-18
8545.80366 7.39754e-18
8548.42784 7.52014e-18
8551.05202 7.57874e-18
8553.67620 7.56977e-18
8556.30038 7.58621e-18
8558.92456 7.62802e-18
8561.53865 7.58016e-18
8564.16283 8.05088e-18
8566.78701 8.09795e-18
8569.41119 8.18038e-18
8572.03536 8.28699e-18
8574.65955 8.59023e-18
8577.28373 8.54931e-18
8579.89781 8.50087e-18
8582.52199 8.73457e-18
8585.14617 8.72287e-18
8587.77035 8.88055e-18
8590.39453 8.70431e-18
8593.00862 8.99481e-18
8595.63280 9.31717e-18
8598.25698 9.39563e-18
8600.88116 9.45528e-18
8603.50534 9.67427e-18
8606.12952 9.60796e-18
8608.75370 9.74244e-18
8611.36779 9.64894e-18
8613.99197 9.57718e-18
8616.61615 9.57957e-18
8619.24033 9.28623e-18
8621.86451 9.41860e-18
8624.48869 9.41740e-18
8627.11287 9.12959e-18
8629.72695 9.57679e-18
8632.35113 9.76702e-18
8634.97531 1.01375e-17
8637.59949 1.02055e-17
8640.22367 1.02579e-17
8642.84785 1.07238e-17
8645.46194 1.04231e-17
8648.08612 1.03072e-17
8650.71030 1.05624e-17
8653.33448 1.04169e-17
8655.95866 9.86486e-18
8658.58284 9.89419e-18
8661.20702 9.94797e-18
8663.82111 1.05768e-17
8666.44529 1.04169e-17
8669.06947 1.05796e-17
8671.69365 1.05430e-17
8674.31783 1.03903e-17
8676.94201 1.05566e-17
8679.55609 1.04961e-17
8682.18027 1.08023e-17
8684.80445 1.04613e-17
8687.42863 1.04799e-17
8690.05281 1.07014e-17
8692.67699 1.05081e-17
8695.29108 1.02401e-17
8697.91526 1.07197e-17
8700.53944 1.08459e-17
8703.16362 1.09088e-17
8705.78780 1.11353e-17
8708.41198 1.10085e-17
8711.03616 1.09005e-17
8713.65025 1.08592e-17
8716.27443 1.04868e-17
8718.89861 1.04876e-17
8721.52279 1.07347e-17
8724.14697 1.07670e-17
8726.77115 1.08430e-17
8729.38524 1.09384e-17
8732.00942 1.14171e-17
8734.63360 1.15385e-17
8737.25778 1.12735e-17
8739.88196 1.11622e-17
8742.50614 1.07711e-17
8745.12022 1.04963e-17
8747.74440 1.07566e-17
8750.36858 1.06266e-17
8752.99276 1.06672e-17
8755.61694 1.10645e-17
8758.24112 1.08835e-17
8760.85521 1.11147e-17
8763.47939 1.12741e-17
8766.10357 1.14610e-17
8768.72775 1.10379e-17
8771.35193 1.07551e-17
8773.97611 1.03694e-17
8776.60029 9.88538e-18
8779.21438 1.00966e-17
8781.83856 1.02575e-17
8784.46274 1.07025e-17
8787.08692 1.04853e-17
8789.71110 1.03048e-17
8792.33528 9.76292e-18
8794.95946 9.41693e-18
8797.57354 9.98956e-18
8800.19772 9.79798e-18
8802.82190 9.81867e-18
8805.44608 1.00904e-17
8808.07026 9.93894e-18
8810.68435 9.58039e-18
8813.30853 9.24319e-18
8815.93271 9.33717e-18
8818.55689 9.15883e-18
8821.18107 9.37697e-18
8823.80525 9.62786e-18
8826.42943 9.72600e-18
8829.04352 9.09283e-18
8831.66770 8.69538e-18
8834.29188 8.80503e-18
8836.91606 9.19203e-18
8839.54024 9.21913e-18
8842.16442 9.06990e-18
8844.78860 8.68242e-18
8847.40268 8.88161e-18
8850.02686 8.60861e-18
8852.65104 8.10162e-18
8855.27522 8.69911e-18
8857.89940 8.99366e-18
8860.52358 8.38148e-18
8863.13767 8.47681e-18
8864.36197 8.47681e-18
8865.63510 9.05490e-18
8866.89804 8.67147e-18
8868.17116 9.34357e-18
8869.44429 9.29698e-18
8870.70723 7.79827e-18
8871.98035 8.11844e-18
8873.24330 1.01442e-17
8874.51642 1.09916e-17
8875.77936 1.02955e-17
8877.05248 9.92893e-18
8878.31542 1.03090e-17
8879.58855 1.07146e-17
8880.85149 1.21042e-17
8882.12462 1.36191e-17
8883.39774 1.34119e-17
8884.66068 1.29342e-17
8885.93381 1.33452e-17
8887.19674 1.47011e-17
8888.46987 1.39653e-17
8889.73281 1.08765e-17
8891.00593 9.21267e-18
8892.26887 8.38080e-18
8893.54200 7.72503e-18
8894.80494 8.62267e-18
8896.07806 1.00424e-17
8897.34100 8.85381e-18
8898.61413 6.28927e-18
8899.88725 6.52321e-18
8901.15019 9.89550e-18
8902.42332 1.24603e-17
8903.68626 1.13479e-17
8904.95938 1.01952e-17
8906.22233 1.10961e-17
8907.49545 1.15137e-17
8908.75839 1.07355e-17
8910.03152 9.82489e-18
8911.29445 9.37098e-18
8912.56758 7.95340e-18
8913.83052 7.43201e-18
8915.10364 8.98831e-18
8916.37677 1.00002e-17
8917.63971 9.96638e-18
8918.91283 1.02363e-17
8920.17577 1.09818e-17
8921.44890 1.09058e-17
8922.71184 1.27843e-17
8923.98496 1.45326e-17
8925.24790 1.11886e-17
8926.52103 8.14052e-18
8927.78397 8.32742e-18
8929.05710 8.77067e-18
8930.33022 8.99239e-18
8931.59316 9.75455e-18
8932.86629 9.57333e-18
8934.12923 8.87977e-18
8935.40235 9.21516e-18
8936.66529 9.48333e-18
8937.93842 8.73585e-18
8939.20135 8.25467e-18
8940.47448 8.39762e-18
8941.73742 9.10135e-18
8943.01054 1.03476e-17
8944.27348 9.91384e-18
8945.54661 8.57040e-18
8946.80955 9.38587e-18
8948.08267 9.80869e-18
8949.35580 8.80327e-18
8950.61874 1.09933e-17
8951.89187 1.39869e-17
8953.15481 1.34331e-17
8954.42793 1.20604e-17
8955.69087 1.22154e-17
8956.96400 1.31197e-17
8958.22694 1.27973e-17
8959.50006 1.22273e-17
8960.76300 1.26009e-17
8962.03613 1.00082e-17
8963.30925 7.91962e-18
8964.57219 8.95107e-18
8965.84531 9.93627e-18
8967.10825 9.68651e-18
8968.38138 9.72998e-18
8969.64432 1.16391e-17
8970.91744 1.16916e-17
8972.18038 1.02107e-17
8973.45351 1.00287e-17
8974.71645 1.01549e-17
8975.98957 1.05209e-17
8977.26270 1.14068e-17
8978.52564 1.13863e-17
8979.78858 1.01909e-17
8981.06171 1.02299e-17
8982.33483 1.04362e-17
8983.59777 9.66546e-18
8984.87090 1.02033e-17
8986.13383 1.16157e-17
8987.40696 1.23660e-17
8988.66990 1.06516e-17
8989.94302 9.85597e-18
8991.20596 1.08573e-17
8992.47909 1.05951e-17
8993.74203 1.02098e-17
8995.01515 8.67936e-18
8996.28828 8.47349e-18
8997.55122 1.02764e-17
8998.82435 1.14742e-17
9000.08728 1.02517e-17
