# wavelength flux
3700.03735 2.64927e-17
3704.53912 3.88766e-17
3709.03071 -2.66390e-17
3713.53248 -1.10590e-17
3718.02406 5.21409e-17
3722.52583 -5.78757e-18
3727.01742 -2.59926e-17
3731.51919 2.61042e-17
3736.02096 -6.00723e-18
3740.51255 -1.74349e-17
3745.01431 3.51566e-17
3749.50590 2.50513e-17
3754.00767 -8.51198e-18
3758.50944 2.66594e-17
3763.00103 2.03627e-18
3767.50279 -2.96361e-17
3771.99438 -8.88937e-18
3776.49615 1.68285e-17
3780.99792 1.47319e-17
3785.48951 1.26365e-17
3789.99127 1.05426e-17
3794.48286 8.45012e-18
3798.98463 6.35884e-18
3803.47621 4.26901e-18
3807.97798 2.18039e-18
3812.47975 9.31965e-20
3816.97134 -1.99282e-18
3821.47311 1.14874e-17
3825.96469 9.12261e-18
3830.46646 4.29719e-18
3834.96823 -4.85506e-18
3839.45982 -9.34643e-19
3843.96159 1.23013e-17
3848.45318 5.18162e-18
3852.95494 1.37559e-17
3857.45671 1.19287e-17
3861.94830 1.33513e-17
3866.45007 8.12534e-18
3870.94166 -8.09746e-18
3875.44342 1.33146e-17
3879.93501 9.86493e-18
3884.43678 5.54073e-19
3888.93855 1.10025e-17
3893.43014 -4.55152e-19
3897.93190 -3.70836e-18
3902.42349 -3.68962e-18
3906.92526 1.14295e-17
3911.42703 1.19247e-17
3915.91861 -5.69311e-19
3920.42038 8.06162e-19
3924.91197 1.05157e-17
3929.41374 1.21211e-17
3933.91551 1.43092e-18
3938.40709 3.60690e-18
3942.90886 4.25493e-18
3947.40045 -1.12190e-18
3951.90222 9.50980e-18
3956.39381 9.75259e-18
3960.89557 8.00032e-18
3965.39734 1.20162e-17
3969.88893 6.96972e-18
3974.39070 9.66373e-19
3978.88229 1.21292e-18
3983.38405 7.30878e-18
3987.88582 1.36270e-17
3992.37741 7.84083e-18
3996.87918 1.47541e-17
4001.37077 1.18552e-17
4005.87253 3.51824e-18
4010.37431 1.59994e-17
4014.86589 1.98135e-17
4019.36766 1.57044e-17
4023.85924 1.33260e-17
4028.36101 8.31657e-18
4032.86278 1.10687e-17
4037.35437 7.57095e-18
4041.85614 5.10799e-18
4046.34772 8.56142e-18
4050.84949 9.79353e-18
4055.34108 1.20990e-17
4059.84285 1.45284e-17
4064.34462 1.12203e-17
4068.83620 1.30753e-17
4073.33797 1.59447e-17
4077.82956 1.28689e-17
4082.33133 1.38348e-17
4086.83310 1.59688e-17
4091.32469 1.82641e-17
4095.82645 1.90653e-17
4100.31804 1.52437e-17
4104.81981 1.95963e-17
4109.32158 2.23625e-17
4113.81316 2.14434e-17
4118.31494 1.86627e-17
4122.80652 1.97229e-17
4127.30829 1.90879e-17
4131.79987 1.44343e-17
4136.30164 1.49957e-17
4140.80342 1.46786e-17
4145.29500 1.41673e-17
4149.79677 1.28019e-17
4154.28835 1.44638e-17
4158.79012 1.54011e-17
4163.29190 1.44202e-17
4167.78348 1.42932e-17
4172.28525 1.33973e-17
4176.77683 1.40212e-17
4181.27860 1.52870e-17
4185.78038 1.35471e-17
4190.27196 9.74079e-18
4194.77373 1.22734e-17
4199.26531 1.04355e-17
4203.76708 1.19901e-17
4208.25867 1.30679e-17
4212.76044 9.14865e-18
4217.26221 1.05532e-17
4221.75379 9.83930e-18
4226.25556 1.08788e-17
4230.74715 1.13000e-17
4235.24892 1.27223e-17
4239.75069 1.15580e-17
4244.24227 1.09368e-17
4248.74404 8.52376e-18
4253.23563 8.16371e-18
4257.73740 7.47513e-18
4262.23917 5.17565e-18
4266.73075 5.07795e-18
4271.23252 6.87729e-18
4275.72411 8.20371e-18
4280.22588 5.90407e-18
4284.72765 4.37375e-18
4289.21924 4.27130e-18
4293.72100 6.55481e-18
4298.21259 8.25640e-18
4302.71436 8.61851e-18
4307.20594 8.44393e-18
4311.70772 9.62735e-18
4316.20949 6.60881e-18
4320.70107 6.29853e-18
4325.20284 7.92416e-18
4329.69442 7.81055e-18
4334.19620 9.22365e-18
4338.69797 9.99996e-18
4343.18955 1.06348e-17
4347.69132 8.30455e-18
4352.18290 7.63255e-18
4356.68468 9.85492e-18
4361.18645 1.06128e-17
4365.67803 8.28455e-18
4370.17980 9.06105e-18
4374.67138 8.07491e-18
4379.17315 8.09080e-18
4383.66474 7.82588e-18
4388.16651 8.72592e-18
4392.66828 8.46182e-18
4397.15986 8.22271e-18
4401.66163 8.66874e-18
4406.15322 8.36929e-18
4410.65499 7.58008e-18
4415.15676 8.85354e-18
4419.64834 9.39531e-18
4424.15011 8.43143e-18
4428.64170 8.34510e-18
4433.14347 8.25883e-18
4437.64524 8.17260e-18
4442.13682 8.08640e-18
4446.63859 8.00025e-18
4451.13018 7.91415e-18
4455.63195 7.82809e-18
4460.12353 7.74208e-18
4464.62530 7.65610e-18
4469.12707 7.12586e-18
4473.61866 5.25958e-18
4478.12043 5.14984e-18
4482.61201 7.01713e-18
4487.11378 7.97740e-18
4491.61555 6.20719e-18
4496.10714 4.12679e-18
4500.60891 6.56011e-18
4505.10050 8.22694e-18
4509.60226 5.84813e-18
4514.10403 4.03438e-18
4518.59562 5.16817e-18
4523.09739 6.54305e-18
4527.58898 6.75777e-18
4532.09075 6.69031e-18
4536.58233 7.16178e-18
4541.08410 6.58995e-18
4545.58587 5.23726e-18
4550.07746 5.66233e-18
4554.57923 6.75068e-18
4559.07081 7.95009e-18
4563.57258 8.11365e-18
4568.07435 8.04325e-18
4572.56593 8.74825e-18
4577.06771 1.03551e-17
4581.55929 9.70771e-18
4586.06106 7.96624e-18
4590.56283 9.79871e-18
4595.05441 1.11750e-17
4599.55619 9.55011e-18
4604.04777 9.74179e-18
4608.54954 1.06516e-17
4613.04112 1.07344e-17
4617.54289 1.10574e-17
4622.04467 1.26506e-17
4626.53625 1.43201e-17
4631.03802 1.43368e-17
4635.52960 1.43108e-17
4640.03137 1.57614e-17
4644.53315 1.48169e-17
4649.02473 1.41229e-17
4653.52650 1.45670e-17
4658.01808 1.61225e-17
4662.51985 1.50716e-17
4667.02162 1.51712e-17
4671.51321 1.64732e-17
4676.01498 1.69420e-17
4680.50656 1.75307e-17
4685.00833 1.72721e-17
4689.51010 1.49652e-17
4694.00169 1.44073e-17
4698.50346 1.43514e-17
4702.99504 1.33196e-17
4707.49681 1.43366e-17
4711.98840 1.48943e-17
4716.49017 1.41322e-17
4720.99194 1.31596e-17
4725.48352 1.48037e-17
4729.98529 1.54445e-17
4734.47688 1.29330e-17
4738.97865 1.24219e-17
4743.48042 1.37724e-17
4747.97200 1.35665e-17
4752.47377 1.42130e-17
4756.96536 1.32345e-17
4761.46713 1.32592e-17
4765.96890 1.40857e-17
4770.46049 1.27308e-17
4774.96225 1.12979e-17
4779.45384 1.07209e-17
4783.95561 1.22719e-17
4788.44719 1.24799e-17
4792.94897 1.06812e-17
4797.45074 1.03144e-17
4801.94232 8.51578e-18
4806.44409 7.11310e-18
4810.93567 7.91817e-18
4815.43745 9.02081e-18
4819.93922 9.51761e-18
4824.43080 1.07948e-17
4828.93257 1.01080e-17
4833.42415 1.12792e-17
4837.92592 1.16318e-17
4842.42770 1.17567e-17
4846.91928 1.21409e-17
4851.42105 1.19534e-17
4855.91263 1.32711e-17
4860.41440 1.35471e-17
4864.90599 1.18628e-17
4869.40776 1.30891e-17
4873.90953 1.43443e-17
4878.40111 1.31814e-17
4882.90288 1.24727e-17
4887.39447 1.24084e-17
4891.89624 1.31825e-17
4896.39801 1.28079e-17
4900.88959 1.18262e-17
4905.39136 1.21927e-17
4909.88295 1.14637e-17
4914.38472 1.17683e-17
4918.88649 1.21128e-17
4923.37807 1.19009e-17
4927.87984 1.08534e-17
4932.37143 1.05670e-17
4936.87320 1.08185e-17
4941.37497 1.10699e-17
4945.86655 1.13211e-17
4950.36832 1.15722e-17
4954.85991 1.18231e-17
4959.36168 1.20738e-17
4963.85326 1.23244e-17
4968.35503 1.25748e-17
4972.85680 1.28251e-17
4977.34839 1.20409e-17
4981.85016 1.18437e-17
4986.34175 1.15099e-17
4990.84351 1.14527e-17
4995.34528 1.06960e-17
4999.83687 1.03097e-17
5004.33864 1.01108e-17
5008.83023 9.72496e-18
5013.33200 9.35680e-18
5017.83376 9.91382e-18
5022.32535 1.16849e-17
5026.82712 1.15786e-17
5031.31870 1.18904e-17
5035.82048 1.21079e-17
5040.31206 1.23252e-17
5044.81383 1.25423e-17
5049.31560 1.27594e-17
5053.80718 1.29763e-17
5058.30896 1.31931e-17
5062.80054 1.34097e-17
5067.30231 1.36263e-17
5071.80408 1.38427e-17
5076.29566 1.55575e-17
5080.79744 1.62943e-17
5085.28902 1.59855e-17
5089.79079 1.56770e-17
5094.28237 1.53687e-17
5098.78414 1.50605e-17
5103.28592 1.47525e-17
5107.77750 1.44447e-17
5112.27927 1.41370e-17
5116.77085 1.38296e-17
5121.27262 1.35224e-17
5125.77439 1.31236e-17
5130.26598 1.30490e-17
5134.76775 1.34793e-17
5139.25933 1.25873e-17
5143.76110 1.22663e-17
5148.26287 1.21650e-17
5152.75446 1.12553e-17
5157.25623 9.86201e-18
5161.74781 9.61230e-18
5166.24958 8.95693e-18
5170.75135 9.37600e-18
5175.24294 1.00681e-17
5179.74471 1.02731e-17
5184.23629 1.01000e-17
5188.73806 1.02151e-17
5193.23983 1.01688e-17
5197.73142 1.14539e-17
5202.23319 1.20649e-17
5206.72477 1.33475e-17
5211.22654 1.41409e-17
5215.71813 1.37968e-17
5220.21990 1.38661e-17
5224.72167 1.38640e-17
5229.21325 1.43218e-17
5233.71502 1.49803e-17
5238.20661 1.40818e-17
5242.70838 1.34183e-17
5247.21015 1.35889e-17
5251.70174 1.39665e-17
5256.20350 1.41746e-17
5260.69509 1.28478e-17
5265.19686 1.27220e-17
5269.69863 1.33915e-17
5274.19022 1.35056e-17
5278.69199 1.34634e-17
5283.18357 1.33463e-17
5287.68534 1.34712e-17
5292.17692 1.40293e-17
5296.67869 1.41245e-17
5301.18047 1.43257e-17
5305.67205 1.43805e-17
5310.17382 1.42386e-17
5314.66540 1.52958e-17
5319.16717 1.55716e-17
5323.66895 1.44849e-17
5328.16053 1.43270e-17
5332.66230 1.54663e-17
5337.15388 1.55594e-17
5341.65565 1.52214e-17
5346.14724 1.46802e-17
5350.64901 1.56213e-17
5355.15078 1.55368e-17
5359.64236 1.48581e-17
5364.14413 1.51238e-17
5368.63572 1.51820e-17
5373.13749 1.57991e-17
5377.63926 1.60549e-17
5382.13084 1.63792e-17
5386.63261 1.69806e-17
5391.12420 1.76283e-17
5395.62597 1.76544e-17
5400.12774 1.66746e-17
5404.61932 1.76698e-17
5409.12109 1.77618e-17
5413.61268 1.68390e-17
5418.11445 1.63866e-17
5422.61622 1.68791e-17
5427.10780 1.72466e-17
5431.60957 1.68759e-17
5436.10116 1.74137e-17
5440.60293 1.76796e-17
5445.09451 1.75756e-17
5449.59628 1.78171e-17
5454.09805 1.82746e-17
5458.58964 1.81038e-17
5463.09141 1.73269e-17
5467.58300 1.69765e-17
5472.08476 1.76668e-17
5476.58653 1.83013e-17
5481.07812 1.74034e-17
5485.57989 1.68490e-17
5490.07147 1.71074e-17
5494.57325 1.76492e-17
5499.07501 1.76097e-17
5503.56660 1.70995e-17
5508.06837 1.77179e-17
5512.55995 1.78795e-17
5517.06173 1.77849e-17
5521.56350 1.76244e-17
5526.05508 1.73266e-17
5530.55685 1.75300e-17
5535.04843 1.74458e-17
5539.55021 1.65787e-17
5544.04179 1.55065e-17
5548.54356 1.63629e-17
5553.04533 1.70331e-17
5557.53691 1.60915e-17
5562.03869 1.55780e-17
5566.53027 1.49036e-17
5571.03204 1.37030e-17
5575.53381 1.35999e-17
5580.02539 1.65207e-17
5584.52716 1.82416e-17
5589.01875 1.88004e-17
5593.52052 1.81266e-17
5598.01210 1.74292e-17
5602.51387 1.77483e-17
5607.01564 1.89028e-17
5611.50723 2.04233e-17
5616.00900 2.12186e-17
5620.50058 2.17378e-17
5625.00235 2.17623e-17
5629.50412 2.15262e-17
5633.99571 2.10251e-17
5638.49748 2.08015e-17
5642.98906 2.10142e-17
5647.49083 2.07453e-17
5651.99260 2.11506e-17
5656.48419 2.09206e-17
5660.98596 2.01855e-17
5665.47754 1.93880e-17
5669.97931 1.86802e-17
5674.48108 1.84829e-17
5678.97267 1.72300e-17
5683.47444 1.71070e-17
5687.96602 1.71411e-17
5692.46779 1.63288e-17
5696.95938 1.60275e-17
5701.46115 1.53875e-17
5705.96292 1.54353e-17
5710.45450 1.60793e-17
5714.95627 1.63914e-17
5719.44786 1.58187e-17
5723.94963 1.55474e-17
5728.45140 1.57885e-17
5732.94299 1.57659e-17
5737.44475 1.57088e-17
5741.93634 1.55449e-17
5746.43811 1.64061e-17
5750.93988 1.57134e-17
5755.43146 1.48506e-17
5759.93324 1.50356e-17
5764.42482 1.52649e-17
5768.92659 1.43762e-17
5773.41817 1.36380e-17
5777.91994 1.27339e-17
5782.42172 1.28444e-17
5786.91330 1.18909e-17
5791.41507 1.12721e-17
5795.90665 1.18009e-17
5800.40842 1.10333e-17
5804.91020 1.04484e-17
5809.40178 9.82413e-18
5813.90355 9.72595e-18
5818.39513 1.00237e-17
5822.89690 9.10855e-18
5827.39868 8.11862e-18
5831.89026 7.73129e-18
5836.39203 8.22249e-18
5840.88361 7.09250e-18
5845.38538 6.36087e-18
5849.87697 7.09716e-18
5854.37874 7.71625e-18
5858.88051 7.70863e-18
5863.37209 6.96034e-18
5867.87386 6.37210e-18
5872.36545 7.01978e-18
5876.86722 8.14335e-18
5881.36899 7.93599e-18
5885.86057 7.40543e-18
5890.36234 9.33921e-18
5894.85393 9.34225e-18
5899.35570 9.50558e-18
5903.85747 1.16249e-17
5908.34905 1.35039e-17
5912.85082 1.35002e-17
5917.34241 1.35879e-17
5921.84418 1.45301e-17
5926.34595 1.57993e-17
5930.83753 1.69976e-17
5935.33930 1.69315e-17
5939.83089 1.70867e-17
5944.33266 1.86461e-17
5948.82424 1.94066e-17
5953.32601 1.91256e-17
5957.82778 1.95263e-17
5962.31937 1.95181e-17
5966.82114 1.91814e-17
5971.31272 1.97183e-17
5975.81450 2.10961e-17
5980.31626 2.16319e-17
5984.80785 2.12364e-17
5989.30962 2.11796e-17
5993.80120 2.04216e-17
5998.30298 1.97390e-17
6002.80475 1.99231e-17
6007.29633 1.98283e-17
6011.79810 1.99989e-17
6016.28968 2.08992e-17
6020.79146 2.13308e-17
6025.28304 2.09440e-17
6029.78481 2.08859e-17
6034.28658 2.08375e-17
6038.77816 2.08363e-17
6043.27993 2.03495e-17
6047.77152 1.99214e-17
6052.27329 2.01337e-17
6056.77506 1.96521e-17
6061.26664 1.89667e-17
6065.76841 1.96906e-17
6070.26000 2.01334e-17
6074.76177 1.96054e-17
6079.26354 1.93876e-17
6083.75512 1.89614e-17
6088.25689 1.85183e-17
6092.74848 1.77126e-17
6097.25025 1.72360e-17
6101.74183 1.84971e-17
6106.24360 1.93147e-17
6110.74537 1.83493e-17
6115.23696 1.71969e-17
6119.73873 1.69899e-17
6124.23031 1.73261e-17
6128.73208 1.71549e-17
6133.23385 1.73827e-17
6137.72544 1.71854e-17
6142.22721 1.59233e-17
6146.71879 1.60343e-17
6151.22056 1.64192e-17
6155.72233 1.54977e-17
6160.21392 1.58791e-17
6164.71569 1.62307e-17
6169.20727 1.55412e-17
6173.70904 1.50072e-17
6178.21081 1.42039e-17
6182.70240 1.47220e-17
6187.20417 1.58155e-17
6191.69575 1.51107e-17
6196.19752 1.41400e-17
6200.68911 1.41697e-17
6205.19088 1.45946e-17
6209.69265 1.47891e-17
6214.18423 1.50800e-17
6218.68600 1.51286e-17
6223.17759 1.53408e-17
6227.67936 1.59779e-17
6232.18113 1.63257e-17
6236.67271 1.58231e-17
6241.17449 1.49807e-17
6245.66607 1.46526e-17
6250.16784 1.47161e-17
6254.66961 1.55014e-17
6259.16119 1.52250e-17
6263.66297 1.56135e-17
6268.15455 1.49929e-17
6272.65632 1.49967e-17
6277.14790 1.47342e-17
6281.64967 1.45653e-17
6286.15145 1.45959e-17
6290.64303 1.42133e-17
6295.14480 1.41877e-17
6299.63638 1.39865e-17
6304.13815 1.38400e-17
6308.63992 1.41118e-17
6313.13151 1.47745e-17
6317.63328 1.51497e-17
6322.12486 1.54241e-17
6326.62663 1.52111e-17
6331.11822 1.52236e-17
6335.61999 1.62904e-17
6340.12176 1.74539e-17
6344.61334 1.78752e-17
6349.11511 1.73553e-17
6353.60670 1.71388e-17
6358.10847 1.73299e-17
6362.61024 1.74497e-17
6367.10182 1.76665e-17
6371.60359 1.70663e-17
6376.09518 1.67623e-17
6380.59695 1.68806e-17
6385.09872 1.69674e-17
6389.59030 1.68388e-17
6394.09207 1.68408e-17
6398.58366 1.73437e-17
6403.08543 1.77821e-17
6407.58720 1.79591e-17
6412.07878 1.73029e-17
6416.58055 1.76138e-17
6421.07214 1.75602e-17
6425.57391 1.76775e-17
6430.06549 1.75625e-17
6434.56726 1.64392e-17
6439.06903 1.63825e-17
6443.56062 1.67380e-17
6448.06239 1.62164e-17
6452.55397 1.62004e-17
6457.05575 1.61306e-17
6461.55751 1.60201e-17
6466.04910 1.56715e-17
6470.55087 1.49277e-17
6475.04245 1.47370e-17
6479.54423 1.53275e-17
6484.04600 1.54733e-17
6488.53758 1.46435e-17
6493.03935 1.42628e-17
6497.53093 1.46576e-17
6502.03270 1.57497e-17
6506.53448 1.69599e-17
6511.02606 1.79452e-17
6515.52783 1.93567e-17
6520.01941 1.92198e-17
6524.52118 1.93860e-17
6529.01277 2.01933e-17
6533.51454 2.04965e-17
6538.01631 2.02836e-17
6542.50789 2.08987e-17
6547.00966 2.25639e-17
6551.50125 2.21939e-17
6556.00302 2.12912e-17
6560.50479 2.22440e-17
6564.99637 2.37342e-17
6569.49814 2.37877e-17
6573.98973 2.36662e-17
6578.49150 2.37114e-17
6582.99327 2.43015e-17
6587.48485 2.38778e-17
6591.98662 2.38846e-17
6596.47821 2.49707e-17
6600.97998 2.50125e-17
6605.47156 2.44003e-17
6609.97333 2.37320e-17
6614.47510 2.32382e-17
6618.96669 2.31668e-17
6623.46846 2.27351e-17
6627.96004 2.20136e-17
6632.46181 2.13742e-17
6636.96358 2.06037e-17
6641.45517 1.97189e-17
6645.95694 1.91694e-17
6650.44852 1.94242e-17
6654.95029 1.96642e-17
6659.45206 1.99041e-17
6663.94365 2.01440e-17
6668.44542 2.03839e-17
6672.93700 2.06236e-17
6677.43877 2.08633e-17
6681.93036 2.11029e-17
6686.43213 2.13425e-17
6690.93390 2.15820e-17
6695.42548 2.18214e-17
6699.92725 2.20608e-17
6704.41884 2.23001e-17
6708.92061 2.25394e-17
6713.42238 2.27786e-17
6717.91396 2.30177e-17
6722.41574 2.34379e-17
6726.90732 2.37790e-17
6731.40909 2.40250e-17
6735.91086 2.36668e-17
6740.40244 2.42193e-17
6744.90422 2.48791e-17
6749.39580 2.41090e-17
6753.89757 2.34308e-17
6758.39934 2.38106e-17
6762.89092 2.38285e-17
6767.39269 2.36323e-17
6771.88428 2.32036e-17
6776.38605 2.30052e-17
6780.87763 2.24020e-17
6785.37940 2.21829e-17
6789.88117 2.27368e-17
6794.37276 2.29856e-17
6798.87453 2.19557e-17
6803.36611 2.17859e-17
6807.86788 2.16264e-17
6812.36965 2.15641e-17
6816.86124 2.14567e-17
6821.36301 2.12090e-17
6825.85459 2.12232e-17
6830.35636 2.12472e-17
6834.85813 2.16537e-17
6839.34972 2.16814e-17
6843.85149 2.12189e-17
6848.34307 2.08886e-17
6852.84484 2.05583e-17
6857.33643 2.02282e-17
6861.83820 1.98981e-17
6866.33997 1.95681e-17
6870.83155 1.92382e-17
6875.33332 1.89084e-17
6879.82491 1.85786e-17
6884.32668 1.82490e-17
6888.82845 1.79194e-17
6893.32003 1.75899e-17
6897.82180 1.72606e-17
6902.31339 1.69313e-17
6906.81516 1.66020e-17
6911.31693 1.62729e-17
6915.80851 1.59439e-17
6920.31028 1.56149e-17
6924.80187 1.52861e-17
6929.30364 1.49573e-17
6933.79522 1.46286e-17
6938.29700 1.43000e-17
6942.79876 1.41138e-17
6947.29035 1.33123e-17
6951.79212 1.25230e-17
6956.28370 1.25076e-17
6960.78547 1.29310e-17
6965.28725 1.32682e-17
6969.77883 1.32482e-17
6974.28060 1.25862e-17
6978.77218 1.20946e-17
6983.27395 1.24326e-17
6987.77573 1.27808e-17
6992.26731 1.26314e-17
6996.76908 1.15748e-17
7001.26066 1.11786e-17
7005.76243 1.09919e-17
7010.25402 1.01201e-17
7014.75579 9.61699e-18
7019.25756 9.46893e-18
7023.74914 9.46546e-18
7028.25091 9.18828e-18
7032.74250 9.17760e-18
7037.24427 9.38246e-18
7041.74604 8.97255e-18
7046.23762 8.61816e-18
7050.73939 8.23154e-18
7055.23098 8.33589e-18
7059.73275 9.23003e-18
7064.23452 9.69699e-18
7068.72610 9.81072e-18
7073.22787 1.04902e-17
7077.71946 1.12149e-17
7082.22123 1.16149e-17
7086.72300 1.26453e-17
7091.21458 1.34877e-17
7095.71635 1.41387e-17
7100.20794 1.51914e-17
7104.70971 1.51608e-17
7109.20129 1.62166e-17
7113.70306 1.72459e-17
7118.20483 1.67787e-17
7122.69642 1.63749e-17
7127.19819 1.68779e-17
7131.68977 1.71232e-17
7136.19154 1.74150e-17
7140.69331 1.72900e-17
7145.18490 1.73659e-17
7149.68667 1.71170e-17
7154.17825 1.70325e-17
7158.68002 1.77512e-17
7163.17161 1.78644e-17
7167.67338 1.71075e-17
7172.17515 1.70021e-17
7176.66673 1.73726e-17
7181.16850 1.72741e-17
7185.66009 1.66969e-17
7190.16186 1.59398e-17
7194.66363 1.63156e-17
7199.15521 1.63228e-17
7203.65699 1.71820e-17
7208.14857 1.78033e-17
7212.65034 1.69237e-17
7217.15211 1.66669e-17
7221.64369 1.65551e-17
7226.14546 1.69068e-17
7230.63705 1.63203e-17
7235.13882 1.54901e-17
7239.64059 1.53767e-17
7244.13217 1.52032e-17
7248.63394 1.48639e-17
7253.12553 1.53428e-17
7257.62730 1.57089e-17
7262.11888 1.52287e-17
7266.62065 1.38256e-17
7271.12242 1.38265e-17
7275.61401 1.48660e-17
7280.11578 1.44447e-17
7284.60736 1.39833e-17
7289.10913 1.35513e-17
7293.61090 1.32434e-17
7298.10249 1.28972e-17
7302.60426 1.31375e-17
7307.09584 1.38235e-17
7311.59761 1.39421e-17
7316.09938 1.42644e-17
7320.59097 1.41263e-17
7325.09274 1.46762e-17
7329.58432 1.50260e-17
7334.08609 1.48379e-17
7338.57768 1.50519e-17
7343.07945 1.57238e-17
7347.58122 1.58804e-17
7352.07280 1.52123e-17
7356.57457 1.49668e-17
7361.06616 1.56630e-17
7365.56793 1.55582e-17
7370.06970 1.49443e-17
7374.56128 1.49126e-17
7379.06305 1.55835e-17
7383.55464 1.62364e-17
7388.05641 1.61019e-17
7392.55818 1.67592e-17
7397.04976 1.69738e-17
7401.55153 1.66870e-17
7406.04312 1.71608e-17
7410.54489 1.66458e-17
7415.03647 1.69106e-17
7419.53824 1.64169e-17
7424.04001 1.69160e-17
7428.53160 1.71269e-17
7433.03337 1.65180e-17
7437.52495 1.63362e-17
7442.02672 1.60790e-17
7446.52850 1.62697e-17
7451.02008 1.66944e-17
7455.52185 1.65493e-17
7460.01343 1.67159e-17
7464.51520 1.67030e-17
7469.01698 1.62013e-17
7473.50856 1.60762e-17
7478.01033 1.57659e-17
7482.50191 1.48042e-17
7487.00368 1.43111e-17
7491.50546 1.45359e-17
7495.99704 1.44988e-17
7500.49881 1.48100e-17
7504.99039 1.49816e-17
7509.49216 1.47224e-17
7513.98375 1.41844e-17
7518.48552 1.35997e-17
7522.98729 1.34581e-17
7527.47887 1.44986e-17
7531.98064 1.45665e-17
7536.47223 1.41057e-17
7540.97400 1.28321e-17
7545.47577 1.31132e-17
7549.96735 1.39420e-17
7554.46912 1.38593e-17
7558.96071 1.37767e-17
7563.46248 1.36941e-17
7567.96425 1.36115e-17
7572.45583 1.35290e-17
7576.95760 1.34464e-17
7581.44919 1.33639e-17
7585.95096 1.32814e-17
7590.44254 1.31989e-17
7594.94431 1.31165e-17
7599.44608 1.30341e-17
7603.93767 1.29517e-17
7608.43944 1.28693e-17
7612.93102 1.27869e-17
7617.43279 1.27046e-17
7621.93456 1.26223e-17
7626.42615 1.25400e-17
7630.92792 1.24578e-17
7635.41950 1.23755e-17
7639.92127 1.22933e-17
7644.42304 1.22111e-17
7648.91463 1.21290e-17
7653.41640 1.20468e-17
7657.90798 1.19647e-17
7662.40975 1.18826e-17
7666.90134 1.18005e-17
7671.40311 1.17185e-17
7675.90488 1.16365e-17
7680.39646 1.15545e-17
7684.89823 1.14612e-17
7689.38982 1.08298e-17
7693.89159 1.10957e-17
7698.39336 1.10331e-17
7702.88494 1.11492e-17
7707.38671 1.14155e-17
7711.87830 1.08921e-17
7716.38007 1.07980e-17
7720.88184 1.12353e-17
7725.37342 1.16597e-17
7729.87519 1.09947e-17
7734.36678 1.08316e-17
7738.86855 1.10876e-17
7743.37032 1.04758e-17
7747.86190 1.02090e-17
7752.36367 1.03183e-17
7756.85526 1.02253e-17
7761.35703 9.80214e-18
7765.84861 9.74819e-18
7770.35038 1.04081e-17
7774.85215 1.04786e-17
7779.34374 9.91200e-18
7783.84551 9.49697e-18
7788.33709 9.30712e-18
7792.83886 9.61641e-18
7797.34063 1.01259e-17
7801.83222 1.06998e-17
7806.33399 1.00262e-17
7810.82557 9.89389e-18
7815.32734 9.64728e-18
7819.82911 9.03832e-18
7824.32070 9.10895e-18
7828.82247 9.91263e-18
7833.31405 1.10058e-17
7837.81582 1.19390e-17
7842.30741 1.29369e-17
7846.80918 1.31412e-17
7851.31095 1.31435e-17
7855.80253 1.28560e-17
7860.30430 1.29211e-17
7864.79589 1.33434e-17
7869.29766 1.34408e-17
7873.79943 1.41564e-17
7878.29101 1.43938e-17
7882.79278 1.36564e-17
7887.28437 1.37581e-17
7891.78614 1.41621e-17
7896.27772 1.42833e-17
7900.77949 1.37295e-17
7905.28126 1.35733e-17
7909.77285 1.44733e-17
7914.27462 1.43641e-17
7918.76620 1.35037e-17
7923.26797 1.27548e-17
7927.76975 1.33243e-17
7932.26133 1.34014e-17
7936.76310 1.37714e-17
7941.25468 1.35746e-17
7945.75645 1.33746e-17
7950.25823 1.31430e-17
7954.74981 1.26340e-17
7959.25158 1.23500e-17
7963.74316 1.26989e-17
7968.24493 1.25316e-17
7972.74670 1.26883e-17
7977.23829 1.38795e-17
7981.74006 1.35464e-17
7986.23164 1.23228e-17
7990.73341 1.21247e-17
7995.22500 1.31269e-17
7999.72677 1.28087e-17
8004.22854 1.14013e-17
8008.72012 1.13351e-17
8013.22189 1.18719e-17
8017.71348 1.21871e-17
8022.21525 1.18222e-17
8026.71702 1.05932e-17
8031.20860 1.08391e-17
8035.71037 1.09745e-17
8040.20196 1.08597e-17
8044.70373 1.14194e-17
8049.20550 1.12671e-17
8053.69708 1.09446e-17
8058.19885 1.09288e-17
8062.69044 1.06985e-17
8067.19221 1.07429e-17
8071.69398 1.09931e-17
8076.18556 1.08696e-17
8080.68733 1.06244e-17
8085.17892 1.09616e-17
8089.68069 1.08633e-17
8094.17227 9.82980e-18
8098.67404 1.02847e-17
8103.17581 1.03571e-17
8107.66740 1.03622e-17
8112.16917 9.76051e-18
8116.66075 9.51205e-18
8121.16252 1.04017e-17
8125.66429 1.02542e-17
8130.15588 9.59748e-18
8134.65765 9.62372e-18
8139.14923 1.03200e-17
8143.65100 9.98388e-18
8148.15277 9.49567e-18
8152.64436 9.95003e-18
8157.14613 1.00770e-17
8161.63771 9.48594e-18
8166.13948 8.89978e-18
8170.63107 8.76706e-18
8175.13284 9.35565e-18
8179.63461 9.67469e-18
8184.12619 9.36371e-18
8188.62796 9.23707e-18
8193.11955 8.86618e-18
8197.62132 8.82097e-18
8202.12309 9.04811e-18
8206.61468 9.34448e-18
8211.11644 9.56073e-18
8215.60803 9.76559e-18
8220.10980 1.00573e-17
8224.60138 9.79367e-18
8229.10316 9.20219e-18
8233.60492 8.73920e-18
8238.09651 9.54105e-18
8242.59828 9.08200e-18
8247.08986 8.68216e-18
8251.59163 8.94755e-18
8256.09340 9.02931e-18
8260.58499 8.97784e-18
8265.08676 8.03713e-18
8269.57834 8.02913e-18
8274.08011 8.38893e-18
8278.58188 7.88596e-18
8283.07347 8.43901e-18
8287.57524 8.85390e-18
8292.06682 8.60253e-18
8296.56859 8.45201e-18
8301.07036 7.84954e-18
8305.56195 8.64287e-18
8310.06372 9.01368e-18
8314.55530 8.82571e-18
8319.05707 8.99643e-18
8323.55884 8.78985e-18
8328.05043 8.43514e-18
8332.55220 8.54740e-18
8337.04378 9.08737e-18
8341.54555 9.19617e-18
8346.03714 8.82748e-18
8350.53891 8.12776e-18
8355.04068 8.48473e-18
8359.53226 8.07017e-18
8364.03404 7.65181e-18
8368.52562 8.31218e-18
8373.02739 8.33664e-18
8377.52916 8.27696e-18
8382.02074 8.63036e-18
8386.52252 7.90055e-18
8391.01410 6.96053e-18
8395.51587 6.87055e-18
8400.00746 6.36653e-18
8404.50922 6.63786e-18
8409.01100 8.09453e-18
8413.50258 8.06797e-18
8418.00435 7.47071e-18
8422.49593 7.75246e-18
8426.99770 7.21460e-18
8431.49948 6.03877e-18
8435.99106 5.87953e-18
8440.49283 6.12132e-18
8444.98441 6.35793e-18
8449.48618 5.84323e-18
8453.98796 4.75279e-18
8458.47954 5.03711e-18
8462.98131 4.72345e-18
8467.47289 4.55755e-18
8471.97466 4.58239e-18
8476.46625 5.02515e-18
8480.96802 5.39770e-18
8485.46979 5.12121e-18
8489.96137 4.61543e-18
8494.46314 3.95847e-18
8498.95473 4.31107e-18
8503.45650 5.20212e-18
8507.95827 5.27361e-18
8512.44985 4.92631e-18
8516.95162 4.73500e-18
8521.44321 5.04777e-18
8525.94498 5.05559e-18
8530.44675 4.59362e-18
8534.93833 4.76021e-18
8539.44010 6.14417e-18
8543.93169 6.15054e-18
8548.43346 5.09809e-18
8552.93523 5.17435e-18
8557.42681 5.95114e-18
8561.92858 5.95281e-18
8566.42017 6.80546e-18
8570.92194 6.82591e-18
8575.42371 6.23724e-18
8579.91529 6.10543e-18
8584.41706 6.77164e-18
8588.90865 7.04723e-18
8593.41042 7.04092e-18
8597.90200 7.04788e-18
8602.40377 6.36631e-18
8606.90554 6.28045e-18
8611.39713 6.52207e-18
8615.89890 5.93457e-18
8620.39048 5.92237e-18
8624.89225 6.43638e-18
8629.39402 6.42222e-18
8633.88561 6.61194e-18
8638.38738 7.43092e-18
8642.87896 7.93034e-18
8647.38073 6.67118e-18
8651.87232 6.59714e-18
8656.37409 6.69474e-18
8660.87586 6.91969e-18
8665.36744 7.87365e-18
8669.86921 7.51758e-18
8674.36080 7.27106e-18
8678.86257 7.56722e-18
8683.36434 8.35049e-18
8687.85592 9.34965e-18
8692.35769 9.36970e-18
8696.84928 9.86226e-18
8701.35105 1.14033e-17
8705.85282 1.11563e-17
8710.34440 1.10893e-17
8714.84617 1.23247e-17
8719.33776 1.29119e-17
8723.83953 1.36994e-17
8728.33112 1.47236e-17
8732.83288 1.53634e-17
8737.33465 1.51617e-17
8741.82624 1.43928e-17
8746.32801 1.47390e-17
8750.82978 1.48623e-17
8755.32136 1.51941e-17
8759.82313 1.70177e-17
8764.31472 1.76680e-17
8768.81649 1.65437e-17
8773.30808 1.54951e-17
8777.80984 1.66775e-17
8782.31162 1.78278e-17
8786.80320 1.75937e-17
8791.30497 1.66530e-17
8795.79656 1.61619e-17
8800.29832 1.65947e-17
8804.80010 1.75002e-17
8809.29168 1.73134e-17
8813.79345 1.75388e-17
8818.28504 1.74287e-17
8822.78680 1.72333e-17
8827.28858 1.79633e-17
8831.78016 1.81406e-17
8836.28193 1.77458e-17
8840.77352 1.71785e-17
8845.27528 1.68080e-17
8849.76687 1.77023e-17
8854.26864 1.78950e-17
8858.77041 1.63352e-17
8863.26200 1.59203e-17
8867.76376 1.60800e-17
8872.25535 1.53784e-17
8876.75712 1.49801e-17
8881.25889 1.57826e-17
8885.75048 1.62923e-17
8890.25224 1.53794e-17
8894.74383 1.59700e-17
8899.24560 1.52308e-17
8903.73718 1.47623e-17
8908.23896 1.42001e-17
8912.74072 1.47254e-17
8917.23231 1.34812e-17
8921.73408 1.23717e-17
8926.22566 1.36293e-17
8930.72744 1.50166e-17
8935.22920 1.41384e-17
8939.72079 1.21534e-17
8944.22256 1.25629e-17
8948.71414 1.30595e-17
8953.21592 1.36530e-17
8957.71768 1.37675e-17
8962.20927 1.21816e-17
8966.71104 1.18596e-17
8971.20262 1.26498e-17
8975.70439 1.25097e-17
8980.19598 1.13091e-17
8984.69775 1.03982e-17
8989.19952 1.07556e-17
8993.69110 1.10838e-17
8998.19287 1.08697e-17
9002.69464 1.00314e-17
9007.18623 9.72945e-18
9011.68800 1.08270e-17
9016.17958 1.09837e-17
9020.68135 1.07949e-17
9025.17294 9.15286e-18
9029.67471 8.56783e-18
9034.17648 9.79625e-18
9038.66806 1.04677e-17
9043.16983 1.00998e-17
9047.66142 9.19532e-18
9052.16319 8.12999e-18
9056.65477 8.69400e-18
9061.15654 8.82752e-18
9065.65831 8.80285e-18
9070.14990 9.82973e-18
9074.65167 9.07546e-18
9079.14325 8.97622e-18
9083.64502 9.20545e-18
9088.14679 8.58761e-18
9092.63838 8.54120e-18
9097.14015 8.91092e-18
9101.63173 8.99145e-18
9106.13350 8.18929e-18
9110.63527 7.02095e-18
9115.12686 6.97161e-18
9119.62863 7.90684e-18
9124.12021 8.70830e-18
9128.62198 8.78718e-18
9133.12375 7.51285e-18
9137.61534 7.19580e-18
9142.11711 7.00026e-18
9146.60869 6.42165e-18
9151.11046 6.35826e-18
9155.60205 7.72686e-18
9160.10382 7.47858e-18
9164.60559 6.35831e-18
9169.09717 6.84404e-18
9173.59894 8.40936e-18
9178.09053 7.98880e-18
9182.59230 7.41147e-18
9187.09407 7.75480e-18
9191.58565 7.13079e-18
9196.08742 7.81399e-18
9200.57901 8.53084e-18
9205.08078 8.35138e-18
9209.58255 9.30811e-18
9214.07413 9.62936e-18
9218.57590 8.54245e-18
9223.06749 8.09061e-18
9227.56926 7.96572e-18
9232.07103 8.18628e-18
9236.56262 8.85670e-18
9241.06438 8.47875e-18
9245.55597 8.27968e-18
9250.05774 8.79770e-18
9254.55951 8.67532e-18
9259.05110 8.85005e-18
9263.55286 9.19921e-18
9268.04445 8.50652e-18
9272.54622 7.31529e-18
9277.03780 7.31935e-18
9281.53958 7.84011e-18
9286.04134 7.16069e-18
9290.53293 8.42082e-18
9295.03470 8.78238e-18
9299.52628 8.29763e-18
9304.02806 9.53391e-18
9308.51964 8.22026e-18
9313.02141 7.28317e-18
9317.52318 8.93794e-18
9322.01476 9.04379e-18
9326.51654 8.01630e-18
9331.00812 8.96285e-18
9335.50989 8.87411e-18
9340.01166 8.19406e-18
9344.50324 9.92567e-18
9349.00502 9.96583e-18
9353.49660 1.05684e-17
9357.99837 1.05929e-17
9362.50014 9.79830e-18
9366.99172 8.23010e-18
9371.49350 1.04286e-17
9375.98508 1.11854e-17
9380.48685 1.08491e-17
9384.98862 8.34815e-18
9389.48020 8.67119e-18
9393.98198 9.39342e-18
9398.47356 8.18727e-18
9402.97533 9.29252e-18
9407.46691 1.04719e-17
9411.96868 9.79709e-18
9416.47046 9.62948e-18
9420.96204 1.07373e-17
9425.46381 1.02020e-17
9429.95539 7.77199e-18
9434.45716 8.53487e-18
9438.95894 9.40375e-18
9443.45052 8.51847e-18
9447.95229 8.75258e-18
9452.44387 9.44174e-18
9456.94564 8.42354e-18
9461.44742 6.95567e-18
9465.93900 7.26745e-18
9470.44077 6.93472e-18
9474.93235 5.99620e-18
9479.43412 8.42455e-18
9483.93590 9.90795e-18
9488.42748 1.09395e-17
9492.92925 1.02411e-17
9497.42083 9.63595e-18
9501.92260 8.24360e-18
9506.42438 8.65823e-18
9510.91596 6.50760e-18
9515.41773 7.65416e-18
9519.90931 9.83658e-18
9524.41108 7.95405e-18
9528.90267 6.08431e-18
9533.40444 7.64208e-18
9537.90621 9.16092e-18
9542.39779 1.01731e-17
9546.89956 1.20938e-17
9551.39115 1.00890e-17
9555.89292 8.61840e-18
9560.38450 8.71763e-18
9564.88627 1.06981e-17
9569.38804 1.03956e-17
9573.87963 9.82058e-18
9578.38140 9.70002e-18
9582.87298 7.65939e-18
9587.37475 7.88086e-18
9591.87652 9.10789e-18
9596.36811 1.01451e-17
9600.86988 9.17563e-18
9605.36146 8.05223e-18
9609.86323 9.22501e-18
9614.36500 9.30940e-18
9618.85659 7.89103e-18
9623.35836 8.04349e-18
9627.84994 9.42437e-18
9632.35171 7.59365e-18
9636.85348 8.04256e-18
9641.34507 1.01333e-17
9645.84684 7.07405e-18
9650.33842 4.96912e-18
9654.84019 5.66419e-18
9659.33178 5.26703e-18
9663.83355 5.20409e-18
9668.33532 4.73800e-18
9672.82690 5.41135e-18
9677.32867 6.37952e-18
9681.82026 6.82884e-18
9686.32203 7.61072e-18
9690.82380 4.89717e-18
9695.31538 6.81486e-18
9699.81715 9.78889e-18
9704.30874 8.47881e-18
9708.81051 8.03089e-18
9713.31228 7.92758e-18
9717.80386 8.42512e-18
9722.30563 7.83627e-18
9726.79722 5.20366e-18
9731.29899 5.72008e-18
9735.79058 5.90702e-18
9740.29234 4.76633e-18
9744.79412 3.80140e-18
9749.28570 5.45626e-18
9753.78747 5.34241e-18
9758.27906 5.86494e-18
9762.78082 8.97226e-18
9767.28260 7.23832e-18
9771.77418 5.61568e-18
9776.27595 5.00283e-18
9780.76754 5.92768e-18
9785.26930 5.87647e-18
9789.77108 3.60020e-18
9794.26266 5.53628e-18
9798.76443 6.12429e-18
9803.25602 3.87780e-18
9807.75778 3.19696e-18
9812.24937 5.79370e-18
9816.75114 5.12563e-18
9821.25291 4.43769e-18
9825.74450 5.49466e-18
9830.24626 4.79068e-18
9834.73785 4.80799e-18
9839.23962 5.98933e-18
9843.74139 5.75511e-18
9848.23298 5.60506e-18
9852.73474 6.39252e-18
9857.22633 6.22090e-18
9861.72810 6.49982e-18
9866.22987 8.49321e-18
9870.72146 8.52587e-18
9875.22322 6.29799e-18
9879.71481 5.90504e-18
9884.21658 6.08843e-18
9888.70817 4.84663e-18
9893.20993 4.30194e-18
9897.71170 7.18016e-18
9902.20329 7.14791e-18
9906.70506 3.87253e-18
9911.19664 6.42127e-18
9915.69841 5.77345e-18
9920.20018 3.74524e-18
9924.69177 3.83433e-18
9929.19354 4.00575e-18
9933.68512 6.86330e-18
9938.18689 8.74840e-18
9942.67848 5.26617e-18
9947.18025 5.29188e-18
9951.68202 7.36726e-18
9956.17360 7.58449e-18
9960.67537 5.69006e-18
9965.17714 3.17168e-18
9969.66873 6.01256e-18
9974.17050 5.34341e-18
9978.66208 3.62143e-18
9983.16385 4.49253e-18
9987.65544 6.98733e-18
9992.15721 9.15986e-18
9996.65898 7.82178e-18
