# wavelength flux
3300.49333 2.77715e-18
3303.48781 2.55569e-18
3306.49231 2.53149e-18
3309.48680 2.91993e-18
3312.49130 3.31597e-18
3315.48578 2.62515e-18
3318.49028 2.78878e-18
3321.48477 2.44091e-18
3324.48927 2.97123e-18
3327.49377 3.39270e-18
3330.48825 3.34390e-18
3333.49275 3.02473e-18
3336.48724 3.03911e-18
3339.49174 3.58229e-18
3342.48622 3.79531e-18
3345.49072 3.55106e-18
3348.48520 3.64455e-18
3351.48970 3.45777e-18
3354.49420 3.56956e-18
3357.48869 3.34768e-18
3360.49319 3.42945e-18
3363.48767 3.12267e-18
3366.49217 2.84439e-18
3369.48666 3.25918e-18
3372.49116 3.85321e-18
3375.48565 3.86929e-18
3378.49015 4.11503e-18
3381.49465 4.07430e-18
3384.48913 3.92520e-18
3387.49363 3.72920e-18
3390.48812 3.95051e-18
3393.49262 4.19295e-18
3396.48710 4.05367e-18
3399.49160 4.03851e-18
3402.48609 4.14730e-18
3405.49059 4.04063e-18
3408.49509 4.48878e-18
3411.48957 4.44074e-18
3414.49407 4.56297e-18
3417.48855 4.75648e-18
3420.49305 4.82754e-18
3423.48754 5.34940e-18
3426.49204 5.69054e-18
3429.48653 5.60999e-18
3432.49103 5.40557e-18
3435.48551 5.51881e-18
3438.49001 5.85410e-18
3441.49451 5.92512e-18
3444.48900 5.67655e-18
3447.49350 5.97135e-18
3450.48798 6.34767e-18
3453.49248 6.55227e-18
3456.48697 6.58801e-18
3459.49147 6.59538e-18
3462.48595 6.65912e-18
3465.49045 6.76315e-18
3468.49495 7.04320e-18
3471.48943 6.97641e-18
3474.49393 6.86348e-18
3477.48842 6.74161e-18
3480.49292 6.50045e-18
3483.48741 6.17838e-18
3486.49191 6.22461e-18
3489.48639 6.54450e-18
3492.49089 6.62026e-18
3495.49539 6.64489e-18
3498.48988 6.67362e-18
3501.49438 6.85073e-18
3504.48886 6.48809e-18
3507.49336 6.41905e-18
3510.48785 6.33207e-18
3513.49235 6.50332e-18
3516.48683 6.23024e-18
3519.49133 6.27271e-18
3522.49583 6.25449e-18
3525.49032 6.14663e-18
3528.49482 6.12978e-18
3531.48930 6.01576e-18
3534.49380 5.90043e-18
3537.48829 5.70244e-18
3540.49279 5.60505e-18
3543.48727 5.70306e-18
3546.49177 5.78825e-18
3549.49627 5.74812e-18
3552.49076 5.63561e-18
3555.49526 5.43322e-18
3558.48974 5.23976e-18
3561.49424 5.11976e-18
3564.48873 5.14078e-18
3567.49323 5.32507e-18
3570.48771 5.13527e-18
3573.49221 4.90921e-18
3576.49671 5.00055e-18
3579.49120 5.24308e-18
3582.49570 5.08771e-18
3585.49018 4.99054e-18
3588.49468 5.06097e-18
3591.48917 5.02656e-18
3594.49367 5.05215e-18
3597.48815 5.02397e-18
3600.49265 4.95828e-18
3603.48714 5.01441e-18
3606.49164 5.07407e-18
3609.49614 5.31562e-18
3612.49062 5.11315e-18
3615.49512 5.12974e-18
3618.48961 5.07026e-18
3621.49411 4.97626e-18
3624.48859 5.13114e-18
3627.49309 5.27067e-18
3630.48758 5.15235e-18
3633.49208 5.15387e-18
3636.49658 5.26739e-18
3639.49106 5.38693e-18
3642.49556 5.43051e-18
3645.49005 5.54131e-18
3648.49455 5.68026e-18
3651.48903 5.71483e-18
3654.49353 5.93862e-18
3657.48802 6.01293e-18
3660.49252 6.12555e-18
3663.49702 6.41535e-18
3666.49150 6.49758e-18
3669.49600 6.65670e-18
3672.49048 7.10507e-18
3675.49498 7.34050e-18
3678.48947 7.57993e-18
3681.49397 7.95387e-18
3684.48846 8.12715e-18
3687.49296 8.23608e-18
3690.49746 8.59613e-18
3693.49194 9.23635e-18
3696.49644 9.78219e-18
3699.49093 1.04482e-17
3702.49543 1.11084e-17
3705.48991 1.16185e-17
3708.49441 1.20570e-17
3711.48889 1.25211e-17
3714.49339 1.26771e-17
3717.49789 1.31922e-17
3720.49238 1.37157e-17
3723.49688 1.43039e-17
3726.49136 1.43960e-17
3729.49586 1.45195e-17
3732.49035 1.44131e-17
3735.49485 1.38692e-17
3738.48934 1.32984e-17
3741.49384 1.29190e-17
3744.49834 1.25998e-17
3747.49282 1.21071e-17
3750.49732 1.13754e-17
3753.49181 1.06430e-17
3756.49631 9.79381e-18
3759.49079 8.97806e-18
3762.49529 8.30499e-18
3765.48978 7.71692e-18
3768.49428 7.14904e-18
3771.48876 6.72516e-18
3774.49326 6.36921e-18
3777.49776 6.06490e-18
3780.49225 5.71334e-18
3783.49674 5.43916e-18
3786.49123 5.20588e-18
3789.49573 5.09469e-18
3792.49022 4.93640e-18
3795.49472 4.76005e-18
3798.48920 4.59938e-18
3801.49370 4.51480e-18
3804.49820 4.48838e-18
3807.49269 4.45351e-18
3810.49719 4.36688e-18
3813.49167 4.37007e-18
3816.49617 4.35542e-18
3819.49066 4.36560e-18
3822.49516 4.40129e-18
3825.48964 4.46649e-18
3828.49414 4.62264e-18
3831.49864 4.84934e-18
3834.49313 4.81496e-18
3837.49763 4.97389e-18
3840.49211 5.03262e-18
3843.49661 5.19835e-18
3846.49110 5.47766e-18
3849.49560 5.83014e-18
3852.49008 6.05500e-18
3855.49458 6.22968e-18
3858.49908 6.43668e-18
3861.49357 6.81626e-18
3864.49807 7.11348e-18
3867.49255 7.59995e-18
3870.49705 8.26245e-18
3873.49154 8.79739e-18
3876.49604 9.16620e-18
3879.49052 9.76781e-18
3882.49502 1.01189e-17
3885.49952 1.04512e-17
3888.49401 1.09815e-17
3891.49851 1.15938e-17
3894.49299 1.21781e-17
3897.49749 1.26008e-17
3900.49198 1.31354e-17
3903.49648 1.38815e-17
3906.49096 1.42163e-17
3909.49546 1.47643e-17
3912.49996 1.55930e-17
3915.49445 1.62003e-17
3918.49895 1.71121e-17
3921.49343 1.77696e-17
3924.49793 1.84106e-17
3927.49242 1.86543e-17
3930.49692 1.90087e-17
3933.49140 1.94354e-17
3936.49590 2.02908e-17
3939.50040 2.09960e-17
3942.49489 2.12859e-17
3945.49939 2.19283e-17
3948.49387 2.26033e-17
3951.49837 2.33956e-17
3954.49286 2.39121e-17
3957.49736 2.40003e-17
3960.49184 2.41836e-17
3963.49634 2.43756e-17
3966.50084 2.47721e-17
3969.49533 2.51997e-17
3972.49983 2.56475e-17
3975.49431 2.62838e-17
3978.49881 2.67300e-17
3981.49330 2.66483e-17
3984.49780 2.68874e-17
3987.49228 2.71840e-17
3990.49678 2.70626e-17
3993.50128 2.68664e-17
3996.49577 2.63362e-17
3999.50027 2.62538e-17
4002.49475 2.63514e-17
4005.49925 2.59089e-17
4008.49374 2.58208e-17
4011.49824 2.56776e-17
4014.49272 2.51305e-17
4017.49722 2.50332e-17
4020.49170 2.48696e-17
4023.49620 2.43576e-17
4026.50070 2.40105e-17
4029.49519 2.41577e-17
4032.49969 2.38878e-17
4035.49418 2.31026e-17
4038.49867 2.24337e-17
4041.49316 2.20300e-17
4044.49766 2.14092e-17
4047.49215 2.10592e-17
4050.49665 2.03625e-17
4053.50115 1.95317e-17
4056.49563 1.88775e-17
4059.50013 1.82770e-17
4062.49462 1.76326e-17
4065.49912 1.72672e-17
4068.49360 1.67348e-17
4071.49810 1.59723e-17
4074.49258 1.56171e-17
4077.49708 1.52223e-17
4080.50158 1.46531e-17
4083.49607 1.41752e-17
4086.50057 1.38119e-17
4089.49506 1.36880e-17
4092.49956 1.34959e-17
4095.49404 1.31483e-17
4098.49854 1.29291e-17
4101.49302 1.28429e-17
4104.49753 1.27220e-17
4107.50203 1.26300e-17
4110.49651 1.25812e-17
4113.50101 1.22848e-17
4116.49550 1.20064e-17
4119.50000 1.19726e-17
4122.49448 1.16774e-17
4125.49898 1.12079e-17
4128.49347 1.10216e-17
4131.49797 1.09626e-17
4134.50247 1.07311e-17
4137.49695 1.04575e-17
4140.50145 1.02785e-17
4143.49593 1.00611e-17
4146.50043 9.84079e-18
4149.49492 9.88452e-18
4152.49942 9.78375e-18
4155.49391 9.61287e-18
4158.49841 9.50599e-18
4161.50291 9.49498e-18
4164.49739 9.37445e-18
4167.50189 9.34515e-18
4170.49638 9.26935e-18
4173.50088 9.17789e-18
4176.49536 9.16527e-18
4179.49986 9.08816e-18
4182.49435 9.07455e-18
4185.49885 9.23677e-18
4188.50335 9.16985e-18
4191.49783 9.08979e-18
4194.50233 9.23780e-18
4197.49682 9.21470e-18
4200.50132 9.13805e-18
4203.49580 9.26742e-18
4206.50030 9.44685e-18
4209.49478 9.59483e-18
4212.49928 9.79609e-18
4215.49377 9.91123e-18
4218.49827 9.98158e-18
4221.50277 1.01518e-17
4224.49726 1.03547e-17
4227.50176 1.04964e-17
4230.49624 1.06855e-17
4233.50074 1.08734e-17
4236.49522 1.09651e-17
4239.49972 1.10572e-17
4242.49421 1.12529e-17
4245.49871 1.13913e-17
4248.50321 1.13580e-17
4251.49770 1.12596e-17
4254.50220 1.12535e-17
4257.49668 1.13530e-17
4260.50118 1.13962e-17
4263.49566 1.13573e-17
4266.50016 1.13744e-17
4269.49465 1.14026e-17
4272.49915 1.14978e-17
4275.50365 1.15195e-17
4278.49814 1.15447e-17
4281.50264 1.16506e-17
4284.49712 1.17371e-17
4287.50162 1.17286e-17
4290.49611 1.18012e-17
4293.50061 1.18933e-17
4296.49509 1.21675e-17
4299.49959 1.22238e-17
4302.50409 1.23556e-17
4305.49858 1.23846e-17
4308.50308 1.22584e-17
4311.49756 1.25074e-17
4314.50206 1.29229e-17
4317.49654 1.31206e-17
4320.50104 1.31463e-17
4323.49553 1.31765e-17
4326.50003 1.32627e-17
4329.50453 1.34685e-17
4332.49902 1.37375e-17
4335.50352 1.37984e-17
4338.49800 1.37987e-17
4341.50250 1.40421e-17
4344.49698 1.42574e-17
4347.50148 1.43521e-17
4350.49597 1.45419e-17
4353.50047 1.45533e-17
4356.50497 1.44206e-17
4359.49946 1.43022e-17
4362.50396 1.42371e-17
4365.49844 1.41178e-17
4368.50294 1.37989e-17
4371.49743 1.33727e-17
4374.50193 1.31023e-17
4377.49641 1.27651e-17
4380.50091 1.22926e-17
4383.50541 1.18491e-17
4386.49990 1.16092e-17
4389.50440 1.13558e-17
4392.49888 1.10621e-17
4395.50338 1.06353e-17
4398.49787 1.03622e-17
4401.50237 1.01563e-17
4404.49685 9.99346e-18
4407.50135 9.90822e-18
4410.49584 9.78985e-18
4413.50034 9.61149e-18
4416.50484 9.36475e-18
4419.49932 9.24702e-18
4422.50382 9.09504e-18
4425.49831 9.10687e-18
4428.50281 9.11799e-18
4431.49729 8.99631e-18
4434.50179 8.80809e-18
4437.49628 8.81062e-18
4440.50078 8.92606e-18
4443.50528 8.94417e-18
4446.49976 8.88670e-18
4449.50426 8.92456e-18
4452.49874 9.07259e-18
4455.50324 9.14269e-18
4458.49773 9.16764e-18
4461.50223 9.12782e-18
4464.49672 9.14326e-18
4467.50122 9.36892e-18
4470.50572 9.49648e-18
4473.50020 9.60875e-18
4476.50470 9.84582e-18
4479.49919 1.00054e-17
4482.50369 1.01478e-17
4485.49817 1.05060e-17
4488.50267 1.07091e-17
4491.49716 1.09669e-17
4494.50166 1.12545e-17
4497.50616 1.14736e-17
4500.50064 1.18390e-17
4503.50514 1.21234e-17
4506.49963 1.23892e-17
4509.50413 1.26907e-17
4512.49861 1.29572e-17
4515.50311 1.32834e-17
4518.49759 1.34975e-17
4521.50209 1.37255e-17
4524.50659 1.40594e-17
4527.50108 1.43334e-17
4530.50558 1.46574e-17
4533.50007 1.48221e-17
4536.50457 1.50890e-17
4539.49905 1.54971e-17
4542.50355 1.59229e-17
4545.49803 1.64544e-17
4548.50253 1.69827e-17
4551.50703 1.72741e-17
4554.50152 1.76023e-17
4557.50602 1.81241e-17
4560.50050 1.85572e-17
4563.50500 1.90529e-17
4566.49949 1.93003e-17
4569.50399 1.97654e-17
4572.49848 2.05116e-17
4575.50298 2.09281e-17
4578.50748 2.12085e-17
4581.50196 2.16339e-17
4584.50646 2.20642e-17
4587.50095 2.24061e-17
4590.50545 2.27138e-17
4593.49993 2.29928e-17
4596.50443 2.31167e-17
4599.49892 2.32022e-17
4602.50342 2.31983e-17
4605.49790 2.32405e-17
4608.50240 2.30799e-17
4611.50690 2.28823e-17
4614.50139 2.28097e-17
4617.50589 2.27626e-17
4620.50037 2.23557e-17
4623.50487 2.17417e-17
4626.49935 2.11635e-17
4629.50385 2.06684e-17
4632.49834 2.02008e-17
4635.50284 1.97006e-17
4638.50734 1.93829e-17
4641.50183 1.90884e-17
4644.50633 1.87999e-17
4647.50081 1.85508e-17
4650.50531 1.81275e-17
4653.49979 1.77834e-17
4656.50429 1.74424e-17
4659.49878 1.70848e-17
4662.50328 1.66999e-17
4665.50778 1.62785e-17
4668.50227 1.59311e-17
4671.50677 1.55397e-17
4674.50125 1.50579e-17
4677.50575 1.46206e-17
4680.50024 1.42586e-17
4683.50474 1.40357e-17
4686.49922 1.37841e-17
4689.50372 1.37194e-17
4692.50822 1.36828e-17
4695.50271 1.36425e-17
4698.50721 1.37916e-17
4701.50169 1.38004e-17
4704.50619 1.40474e-17
4707.50068 1.42791e-17
4710.50518 1.43527e-17
4713.49966 1.43927e-17
4716.50416 1.43706e-17
4719.50866 1.44365e-17
4722.50315 1.45387e-17
4725.50765 1.44719e-17
4728.50213 1.44898e-17
4731.50663 1.47096e-17
4734.50112 1.47964e-17
4737.50562 1.48909e-17
4740.50010 1.49391e-17
4743.50460 1.48799e-17
4746.50910 1.48828e-17
4749.50359 1.49038e-17
4752.50809 1.49500e-17
4755.50257 1.49436e-17
4758.50707 1.49203e-17
4761.50155 1.50428e-17
4764.50605 1.49874e-17
4767.50054 1.47160e-17
4770.50504 1.45587e-17
4773.49953 1.43782e-17
4776.50403 1.40536e-17
4779.50853 1.38039e-17
4782.50301 1.36215e-17
4785.50751 1.33496e-17
4788.50200 1.30364e-17
4791.50650 1.28233e-17
4794.50098 1.25836e-17
4797.50548 1.24394e-17
4800.49997 1.23446e-17
4803.50447 1.22595e-17
4806.50897 1.21952e-17
4809.50345 1.21363e-17
4812.50795 1.21813e-17
4815.50244 1.22564e-17
4818.50694 1.24146e-17
4821.50142 1.26632e-17
4824.50592 1.29451e-17
4827.50041 1.31877e-17
4830.50491 1.33008e-17
4833.50941 1.35118e-17
4836.50389 1.37064e-17
4839.50839 1.38773e-17
4842.50288 1.41575e-17
4845.50738 1.44618e-17
4848.50186 1.45901e-17
4851.50636 1.47026e-17
4854.50084 1.48191e-17
4857.50534 1.48562e-17
4860.50984 1.48114e-17
4863.50433 1.46508e-17
4866.50883 1.44534e-17
4869.50331 1.42579e-17
4872.50781 1.41472e-17
4875.50230 1.40083e-17
4878.50680 1.38066e-17
4881.50129 1.35915e-17
4884.50579 1.34306e-17
4887.51029 1.32068e-17
4890.50477 1.30491e-17
4893.50927 1.29478e-17
4896.50376 1.28849e-17
4899.50826 1.28480e-17
4902.50274 1.28294e-17
4905.50724 1.28341e-17
4908.50173 1.30137e-17
4911.50623 1.31295e-17
4914.51073 1.32680e-17
4917.50521 1.35485e-17
4920.50971 1.38191e-17
4923.50420 1.40175e-17
4926.50870 1.42450e-17
4929.50318 1.46086e-17
4932.50768 1.49627e-17
4935.50216 1.52853e-17
4938.50666 1.56492e-17
4941.50115 1.58889e-17
4944.50565 1.62638e-17
4947.51015 1.66281e-17
4950.50464 1.68062e-17
4953.50914 1.71119e-17
4956.50362 1.75283e-17
4959.50812 1.79573e-17
4962.50260 1.81996e-17
4965.50710 1.83507e-17
4968.50159 1.85904e-17
4971.50609 1.88955e-17
4974.51059 1.88748e-17
4977.50508 1.89578e-17
4980.50958 1.90007e-17
4983.50406 1.88893e-17
4986.50856 1.88226e-17
4989.50305 1.87366e-17
4992.50755 1.86292e-17
4995.50203 1.83894e-17
4998.50653 1.79889e-17
5001.51103 1.74299e-17
5004.50552 1.68028e-17
5007.51002 1.61822e-17
5010.50450 1.57697e-17
5013.50900 1.52107e-17
5016.50349 1.46368e-17
5019.50799 1.41403e-17
5022.50247 1.37257e-17
5025.50697 1.32799e-17
5028.51147 1.28447e-17
5031.50596 1.23845e-17
5034.51046 1.20561e-17
5037.50494 1.17662e-17
5040.50944 1.14558e-17
5043.50392 1.12342e-17
5046.50842 1.10504e-17
5049.50291 1.09129e-17
5052.50741 1.07687e-17
5055.51191 1.07954e-17
5058.50640 1.08045e-17
5061.51090 1.08098e-17
5064.50538 1.08263e-17
5067.50988 1.08068e-17
5070.50436 1.08413e-17
5073.50886 1.09994e-17
5076.50335 1.11154e-17
5079.50785 1.11931e-17
5082.51235 1.12653e-17
5085.50684 1.14585e-17
5088.51134 1.15851e-17
5091.50582 1.16597e-17
5094.51032 1.18203e-17
5097.50481 1.20142e-17
5100.50931 1.20867e-17
5103.50379 1.21528e-17
5106.50829 1.23811e-17
5109.50278 1.25401e-17
5112.50728 1.26239e-17
5115.51178 1.28081e-17
5118.50626 1.28872e-17
5121.51076 1.28585e-17
5124.50525 1.28514e-17
5127.50975 1.29375e-17
5130.50423 1.30594e-17
5133.50873 1.31259e-17
5136.50322 1.30369e-17
5139.50772 1.29060e-17
5142.51222 1.29799e-17
5145.50670 1.30222e-17
5148.51120 1.29970e-17
5151.50569 1.30357e-17
5154.51019 1.30146e-17
5157.50467 1.29276e-17
5160.50917 1.28327e-17
5163.50366 1.27645e-17
5166.50816 1.27943e-17
5169.51266 1.28369e-17
5172.50714 1.27719e-17
5175.51164 1.26764e-17
5178.50612 1.26428e-17
5181.51062 1.26518e-17
5184.50511 1.26335e-17
5187.50961 1.26777e-17
5190.50410 1.27168e-17
5193.50860 1.26155e-17
5196.51310 1.25704e-17
5199.50758 1.26457e-17
5202.51208 1.27816e-17
5205.50657 1.28931e-17
5208.51107 1.30291e-17
5211.50555 1.32349e-17
5214.51005 1.34148e-17
5217.50454 1.35968e-17
5220.50904 1.38886e-17
5223.51354 1.39887e-17
5226.50802 1.41467e-17
5229.51252 1.44041e-17
5232.50701 1.46605e-17
5235.51151 1.49718e-17
5238.50599 1.52315e-17
5241.51049 1.55266e-17
5244.50497 1.58381e-17
5247.50947 1.61816e-17
5250.51397 1.64470e-17
5253.50846 1.67663e-17
5256.51296 1.71965e-17
5259.50745 1.76076e-17
5262.51195 1.79235e-17
5265.50643 1.82348e-17
5268.51093 1.85313e-17
5271.50541 1.88959e-17
5274.50991 1.92794e-17
5277.51441 1.95914e-17
5280.50890 1.98573e-17
5283.51340 2.01094e-17
5286.50789 2.03148e-17
5289.51238 2.05068e-17
5292.50687 2.06800e-17
5295.51137 2.09278e-17
5298.50586 2.10743e-17
5301.51036 2.11845e-17
5304.50484 2.12489e-17
5307.50934 2.13967e-17
5310.51384 2.14908e-17
5313.50833 2.16608e-17
5316.51283 2.18552e-17
5319.50731 2.18503e-17
5322.51181 2.19153e-17
5325.50630 2.20420e-17
5328.51080 2.20793e-17
5331.50528 2.20998e-17
5334.50978 2.20414e-17
5337.51428 2.19865e-17
5340.50877 2.20957e-17
5343.51327 2.21712e-17
5346.50775 2.22005e-17
5349.51225 2.22295e-17
5352.50673 2.22335e-17
5355.51123 2.23433e-17
5358.50572 2.23207e-17
5361.51022 2.22834e-17
5364.51472 2.23973e-17
5367.50921 2.23628e-17
5370.51371 2.22143e-17
5373.50819 2.21491e-17
5376.51269 2.21157e-17
5379.50717 2.19482e-17
5382.51167 2.17713e-17
5385.50616 2.14916e-17
5388.51066 2.11957e-17
5391.51516 2.10821e-17
5394.50965 2.09709e-17
5397.51415 2.07892e-17
5400.50863 2.04684e-17
5403.51313 2.02645e-17
5406.50762 2.02607e-17
5409.51212 2.01044e-17
5412.50660 1.98967e-17
5415.51110 1.97215e-17
5418.51560 1.96000e-17
5421.51009 1.94791e-17
5424.51459 1.94068e-17
5427.50907 1.94320e-17
5430.51357 1.94638e-17
5433.50806 1.93625e-17
5436.51256 1.94074e-17
5439.50704 1.96051e-17
5442.51154 1.97363e-17
5445.51604 1.97826e-17
5448.51053 1.97725e-17
5451.51503 1.99462e-17
5454.50951 2.00558e-17
5457.51401 2.00933e-17
5460.50850 2.03643e-17
5463.51300 2.06042e-17
5466.50748 2.06149e-17
5469.51198 2.05868e-17
5472.51648 2.07706e-17
5475.51097 2.09280e-17
5478.51547 2.09399e-17
5481.50995 2.09482e-17
5484.51445 2.08882e-17
5487.50893 2.08764e-17
5490.51343 2.08702e-17
5493.50792 2.09486e-17
5496.51242 2.09219e-17
5499.51692 2.08628e-17
5502.51141 2.07801e-17
5505.51591 2.07178e-17
5508.51039 2.07511e-17
5511.51489 2.05806e-17
5514.50938 2.04867e-17
5517.51388 2.05319e-17
5520.50836 2.04640e-17
5523.51286 2.03391e-17
5526.50734 2.02414e-17
5529.51184 2.01280e-17
5532.51635 2.00253e-17
5535.51083 1.99199e-17
5538.51533 1.98439e-17
5541.50982 1.97652e-17
5544.51432 1.96514e-17
5547.50880 1.96931e-17
5550.51330 1.97004e-17
5553.50778 1.96227e-17
5556.51228 1.96688e-17
5559.51678 1.95449e-17
5562.51127 1.93323e-17
5565.51577 1.93709e-17
5568.51026 1.93842e-17
5571.51476 1.92780e-17
5574.50924 1.92176e-17
5577.51374 1.92007e-17
5580.50822 1.91791e-17
5583.51272 1.91265e-17
5586.51722 1.91478e-17
5589.51171 1.91095e-17
5592.51621 1.89736e-17
5595.51070 1.89031e-17
5598.51520 1.88671e-17
5601.50968 1.88519e-17
5604.51418 1.88248e-17
5607.50867 1.87313e-17
5610.51317 1.86614e-17
5613.51767 1.86440e-17
5616.51215 1.85102e-17
5619.51665 1.84626e-17
5622.51114 1.84502e-17
5625.51564 1.84647e-17
5628.51012 1.85170e-17
5631.51462 1.84553e-17
5634.50911 1.82892e-17
5637.51361 1.82698e-17
5640.51811 1.84008e-17
5643.51259 1.84244e-17
5646.51709 1.83393e-17
5649.51158 1.82397e-17
5652.51608 1.81654e-17
5655.51056 1.80737e-17
5658.51506 1.79088e-17
5661.50954 1.77714e-17
5664.51404 1.75565e-17
5667.50853 1.73387e-17
5670.51303 1.71920e-17
5673.51753 1.70164e-17
5676.51202 1.67173e-17
5679.51652 1.64337e-17
5682.51100 1.61996e-17
5685.51550 1.59273e-17
5688.50998 1.55987e-17
5691.51448 1.53063e-17
5694.51898 1.50272e-17
5697.51347 1.47029e-17
5700.51797 1.43789e-17
5703.51246 1.41526e-17
5706.51696 1.39490e-17
5709.51144 1.37393e-17
5712.51594 1.35619e-17
5715.51043 1.33653e-17
5718.51493 1.31419e-17
5721.50941 1.29740e-17
5724.51391 1.27936e-17
5727.51841 1.26189e-17
5730.51290 1.25134e-17
5733.51740 1.23457e-17
5736.51188 1.22113e-17
5739.51638 1.21679e-17
5742.51087 1.21812e-17
5745.51537 1.22087e-17
5748.50985 1.22607e-17
5751.51435 1.23278e-17
5754.51885 1.24636e-17
5757.51334 1.25253e-17
5760.51784 1.25809e-17
5763.51232 1.26693e-17
5766.51682 1.27588e-17
5769.51130 1.28302e-17
5772.51581 1.29498e-17
5775.51029 1.30594e-17
5778.51479 1.31345e-17
5781.51929 1.33612e-17
5784.51378 1.35844e-17
5787.51828 1.38043e-17
5790.51276 1.41006e-17
5793.51726 1.43631e-17
5796.51175 1.46432e-17
5799.51625 1.49092e-17
5802.51073 1.51278e-17
5805.51523 1.53230e-17
5808.51973 1.55282e-17
5811.51422 1.57217e-17
5814.51872 1.59434e-17
5817.51320 1.61628e-17
5820.51770 1.63014e-17
5823.51219 1.65317e-17
5826.51669 1.66816e-17
5829.51117 1.67437e-17
5832.51567 1.68454e-17
5835.52017 1.69420e-17
5838.51466 1.69519e-17
5841.51916 1.69777e-17
5844.51364 1.71405e-17
5847.51814 1.72637e-17
5850.51263 1.74139e-17
5853.51713 1.75394e-17
5856.51161 1.76210e-17
5859.51611 1.77431e-17
5862.51059 1.78307e-17
5865.51509 1.78997e-17
5868.51959 1.80726e-17
5871.51408 1.81657e-17
5874.51858 1.81280e-17
5877.51307 1.81207e-17
5880.51757 1.80843e-17
5883.51205 1.80128e-17
5886.51655 1.79342e-17
5889.51103 1.78078e-17
5892.51553 1.76780e-17
5895.52003 1.76057e-17
5898.51452 1.77195e-17
5901.51902 1.79297e-17
5904.51351 1.81449e-17
5907.51801 1.82383e-17
5910.51249 1.83637e-17
5913.51699 1.84754e-17
5916.52149 1.84954e-17
5919.51598 1.84958e-17
5922.52048 1.84053e-17
5925.51496 1.83825e-17
5928.51946 1.83969e-17
5931.51395 1.83573e-17
5934.51845 1.83509e-17
5937.51293 1.83105e-17
5940.51743 1.82615e-17
5943.51192 1.82232e-17
5946.51642 1.81594e-17
5949.52092 1.81434e-17
5952.51540 1.80890e-17
5955.51990 1.79972e-17
5958.51439 1.78518e-17
5961.51889 1.76854e-17
5964.51337 1.76115e-17
5967.51787 1.75541e-17
5970.51235 1.74050e-17
5973.51685 1.72159e-17
5976.52135 1.71069e-17
5979.51584 1.70226e-17
5982.52034 1.68238e-17
5985.51483 1.66570e-17
5988.51933 1.65902e-17
5991.51381 1.64106e-17
5994.51831 1.61872e-17
5997.51279 1.60168e-17
6000.51729 1.58557e-17
6003.52179 1.57282e-17
6006.51628 1.55392e-17
6009.52078 1.53966e-17
6012.51527 1.53384e-17
6015.51977 1.52196e-17
6018.51425 1.50843e-17
6021.51875 1.48982e-17
6024.51324 1.48039e-17
6027.51774 1.47130e-17
6030.52224 1.46338e-17
6033.51672 1.45921e-17
6036.52122 1.45503e-17
6039.51571 1.44731e-17
6042.52021 1.43997e-17
6045.51469 1.43362e-17
6048.51919 1.42980e-17
6051.51368 1.43579e-17
6054.51818 1.44460e-17
6057.52268 1.45036e-17
6060.51716 1.45701e-17
6063.52166 1.45675e-17
6066.51615 1.45799e-17
6069.52065 1.46057e-17
6072.51513 1.45930e-17
6075.51963 1.45855e-17
6078.51411 1.45280e-17
6081.51861 1.44596e-17
6084.51310 1.44659e-17
6087.51760 1.44049e-17
6090.52210 1.42731e-17
6093.51659 1.41260e-17
6096.52109 1.40000e-17
6099.51557 1.38779e-17
6102.52007 1.37870e-17
6105.51456 1.36390e-17
6108.51906 1.34228e-17
6111.51354 1.32668e-17
6114.51804 1.31476e-17
6117.52254 1.29385e-17
6120.51703 1.27602e-17
6123.52153 1.27099e-17
6126.51601 1.26681e-17
6129.52051 1.25745e-17
6132.51500 1.25232e-17
6135.51950 1.25652e-17
6138.51398 1.26647e-17
6141.51848 1.27214e-17
6144.52298 1.27660e-17
6147.51747 1.28682e-17
6150.52197 1.29055e-17
6153.51645 1.29713e-17
6156.52095 1.30283e-17
6159.51544 1.30352e-17
6162.51994 1.30430e-17
6165.51442 1.30412e-17
6168.51892 1.30363e-17
6171.52342 1.29603e-17
6174.51791 1.29119e-17
6177.52241 1.29005e-17
6180.51689 1.28428e-17
6183.52139 1.27409e-17
6186.51588 1.25855e-17
6189.52038 1.23988e-17
6192.51486 1.21988e-17
6195.51936 1.19408e-17
6198.52386 1.16521e-17
6201.51834 1.13217e-17
6204.52284 1.09958e-17
6207.51733 1.06282e-17
6210.52183 1.02568e-17
6213.51632 9.91722e-18
6216.52082 9.54925e-18
6219.51530 9.17090e-18
6222.51980 8.90152e-18
6225.52430 8.60931e-18
6228.51879 8.26714e-18
6231.52329 8.01360e-18
6234.51777 7.77455e-18
6237.52227 7.53091e-18
6240.51676 7.30786e-18
6243.52126 7.13928e-18
6246.51574 6.93438e-18
6249.52024 6.67640e-18
6252.52474 6.45764e-18
6255.51923 6.28460e-18
6258.52373 6.09324e-18
6261.51821 5.90411e-18
6264.52271 5.75527e-18
6267.51720 5.60260e-18
6270.52170 5.41029e-18
6273.51618 5.19845e-18
6276.52068 5.02711e-18
6279.51516 4.90458e-18
6282.51966 4.78723e-18
6285.52416 4.71611e-18
6288.51865 4.63827e-18
6291.52315 4.52888e-18
6294.51764 4.46468e-18
6297.52214 4.41158e-18
6300.51662 4.34220e-18
6303.52112 4.28675e-18
6306.51561 4.27100e-18
6309.52011 4.25942e-18
6312.52461 4.23616e-18
6315.51909 4.23298e-18
6318.52359 4.25492e-18
6321.51808 4.34061e-18
6324.52258 4.42968e-18
6327.51706 4.52142e-18
6330.52156 4.69174e-18
6333.51605 4.90647e-18
6336.52055 5.12683e-18
6339.52505 5.36667e-18
6342.51953 5.65883e-18
6345.52403 6.03201e-18
6348.51852 6.44762e-18
6351.52302 6.87485e-18
6354.51750 7.27220e-18
6357.52200 7.68337e-18
6360.51649 8.10070e-18
6363.52099 8.49652e-18
6366.52549 8.90392e-18
6369.51997 9.29322e-18
6372.52447 9.72826e-18
6375.51896 1.01128e-17
6378.52346 1.04988e-17
6381.51794 1.09105e-17
6384.52244 1.12817e-17
6387.51692 1.16704e-17
6390.52142 1.20810e-17
6393.52592 1.24579e-17
6396.52041 1.27880e-17
6399.52491 1.31277e-17
6402.51940 1.34838e-17
6405.52390 1.38383e-17
6408.51838 1.41668e-17
6411.52288 1.44555e-17
6414.51737 1.47435e-17
6417.52187 1.50127e-17
6420.52637 1.52998e-17
6423.52085 1.56213e-17
6426.52535 1.59329e-17
6429.51984 1.62322e-17
6432.52434 1.64943e-17
6435.51882 1.66860e-17
6438.52332 1.68841e-17
6441.51781 1.70905e-17
6444.52231 1.72972e-17
6447.52681 1.74790e-17
6450.52129 1.76130e-17
6453.52579 1.77013e-17
6456.52028 1.78174e-17
6459.52478 1.79247e-17
6462.51926 1.80007e-17
6465.52376 1.80277e-17
6468.51825 1.80532e-17
6471.52275 1.80606e-17
6474.52725 1.81171e-17
6477.52173 1.81623e-17
6480.52623 1.82081e-17
6483.52072 1.82402e-17
6486.52522 1.82594e-17
6489.51970 1.82318e-17
6492.52420 1.82545e-17
6495.51869 1.82753e-17
6498.52319 1.82353e-17
6501.51767 1.81703e-17
6504.52217 1.81236e-17
6507.52667 1.80835e-17
6510.52116 1.80005e-17
6513.52566 1.78848e-17
6516.52014 1.77170e-17
6519.52464 1.75800e-17
6522.51913 1.74510e-17
6525.52363 1.73296e-17
6528.51811 1.72715e-17
6531.52261 1.72081e-17
6534.52711 1.71155e-17
6537.52160 1.71028e-17
6540.52610 1.70820e-17
6543.52058 1.70680e-17
6546.52508 1.71465e-17
6549.51957 1.72181e-17
6552.52407 1.72600e-17
6555.51855 1.73261e-17
6558.52305 1.74491e-17
6561.52755 1.75216e-17
6564.52203 1.75849e-17
6567.52653 1.77154e-17
6570.52102 1.78392e-17
6573.52552 1.79126e-17
6576.52001 1.79544e-17
6579.52451 1.80072e-17
6582.51899 1.80982e-17
6585.52349 1.82464e-17
6588.52799 1.84024e-17
6591.52247 1.85341e-17
6594.52697 1.85907e-17
6597.52146 1.85817e-17
6600.52596 1.86554e-17
6603.52045 1.86995e-17
6606.52495 1.86581e-17
6609.51943 1.86944e-17
6612.52393 1.88131e-17
6615.52843 1.88844e-17
6618.52292 1.89009e-17
6621.52742 1.88830e-17
6624.52190 1.88529e-17
6627.52640 1.87358e-17
6630.52089 1.86430e-17
6633.52539 1.85811e-17
6636.51987 1.85394e-17
6639.52437 1.85667e-17
6642.52887 1.84520e-17
6645.52336 1.83216e-17
6648.52786 1.83478e-17
6651.52234 1.83603e-17
6654.52684 1.83222e-17
6657.52133 1.83380e-17
6660.52583 1.83721e-17
6663.52031 1.83373e-17
6666.52481 1.83032e-17
6669.52931 1.83214e-17
6672.52380 1.82995e-17
6675.52830 1.83248e-17
6678.52278 1.83086e-17
6681.52728 1.82160e-17
6684.52177 1.81470e-17
6687.52627 1.81781e-17
6690.52075 1.81886e-17
6693.52525 1.80977e-17
6696.51973 1.80452e-17
6699.52423 1.79746e-17
6702.52873 1.78720e-17
6705.52322 1.76546e-17
6708.52772 1.75196e-17
6711.52221 1.75086e-17
6714.52671 1.74961e-17
6717.52119 1.74149e-17
6720.52569 1.73510e-17
6723.52018 1.72377e-17
6726.52468 1.70329e-17
6729.52918 1.69246e-17
6732.52366 1.67997e-17
6735.52816 1.67083e-17
6738.52265 1.66507e-17
6741.52715 1.66352e-17
6744.52163 1.66157e-17
6747.52613 1.64769e-17
6750.52062 1.63687e-17
6753.52512 1.62785e-17
6756.52962 1.61077e-17
6759.52410 1.59363e-17
6762.52860 1.58290e-17
6765.52309 1.57398e-17
6768.52759 1.56654e-17
6771.52207 1.55661e-17
6774.52657 1.54729e-17
6777.52106 1.53946e-17
6780.52556 1.53010e-17
6783.53006 1.52133e-17
6786.52454 1.51037e-17
6789.52904 1.49800e-17
6792.52353 1.48790e-17
6795.52803 1.47996e-17
6798.52251 1.47289e-17
6801.52701 1.46711e-17
6804.52149 1.46057e-17
6807.52599 1.44707e-17
6810.53049 1.43120e-17
6813.52498 1.41141e-17
6816.52948 1.39501e-17
6819.52397 1.39198e-17
6822.52847 1.39117e-17
6825.52295 1.37974e-17
6828.52745 1.36651e-17
6831.52194 1.36110e-17
6834.52644 1.35856e-17
6837.52092 1.34932e-17
6840.52542 1.33553e-17
6843.52992 1.32267e-17
6846.52441 1.31405e-17
6849.52891 1.30657e-17
6852.52339 1.29607e-17
6855.52789 1.28485e-17
6858.52238 1.27534e-17
6861.52688 1.27031e-17
6864.53138 1.26378e-17
6867.52586 1.25605e-17
6870.53036 1.24635e-17
6873.52484 1.24064e-17
6876.52934 1.24127e-17
6879.52383 1.23606e-17
6882.52833 1.22300e-17
6885.52282 1.22096e-17
6888.52732 1.21059e-17
6891.53182 1.19710e-17
6894.52630 1.19511e-17
6897.53080 1.19150e-17
6900.52528 1.17695e-17
6903.52978 1.16170e-17
6906.52427 1.16066e-17
6909.52877 1.16491e-17
6912.52326 1.16559e-17
6915.52776 1.16407e-17
6918.52224 1.15797e-17
6921.52674 1.15052e-17
6924.53124 1.14486e-17
6927.52573 1.13834e-17
6930.53023 1.13195e-17
6933.52471 1.13189e-17
6936.52921 1.13316e-17
6939.52370 1.12845e-17
6942.52820 1.13308e-17
6945.52268 1.13544e-17
6948.52718 1.12903e-17
6951.53168 1.12063e-17
6954.52617 1.11462e-17
6957.53067 1.11440e-17
6960.52515 1.11899e-17
6963.52965 1.12637e-17
6966.52414 1.13439e-17
6969.52864 1.14145e-17
6972.52312 1.14638e-17
6975.52762 1.15006e-17
6978.53212 1.15342e-17
6981.52661 1.15091e-17
6984.53111 1.14553e-17
6987.52559 1.14662e-17
6990.53009 1.15170e-17
6993.52458 1.16164e-17
6996.52908 1.17058e-17
6999.52356 1.17556e-17
7002.52806 1.17958e-17
7005.53256 1.18536e-17
7008.52704 1.18465e-17
7011.53154 1.17686e-17
7014.52603 1.17757e-17
7017.53053 1.17857e-17
7020.52502 1.17878e-17
7023.52952 1.19140e-17
7026.52400 1.19809e-17
7029.52850 1.19637e-17
7032.53300 1.18793e-17
7035.52749 1.17912e-17
7038.53199 1.17582e-17
7041.52647 1.17851e-17
7044.53097 1.18433e-17
7047.52546 1.18530e-17
7050.52996 1.18469e-17
7053.52444 1.19130e-17
7056.52894 1.20176e-17
7059.52343 1.20215e-17
7062.52793 1.19125e-17
7065.53243 1.18470e-17
7068.52691 1.17902e-17
7071.53141 1.17180e-17
7074.52590 1.17513e-17
7077.53040 1.17542e-17
7080.52488 1.17003e-17
7083.52938 1.17475e-17
7086.53388 1.17262e-17
7089.52837 1.16379e-17
7092.53287 1.15645e-17
7095.52735 1.15147e-17
7098.53185 1.14615e-17
7101.52634 1.14170e-17
7104.53084 1.13973e-17
7107.52532 1.13808e-17
7110.52982 1.13937e-17
7113.52430 1.14103e-17
7116.52880 1.14046e-17
7119.53330 1.14125e-17
7122.52779 1.13178e-17
7125.53229 1.11875e-17
7128.52678 1.11143e-17
7131.53128 1.11057e-17
7134.52576 1.10693e-17
7137.53026 1.09726e-17
7140.52475 1.08843e-17
7143.52925 1.08197e-17
7146.53375 1.08039e-17
7149.52823 1.07714e-17
7152.53273 1.07815e-17
7155.52722 1.07066e-17
7158.53172 1.05742e-17
7161.52620 1.04763e-17
7164.53070 1.04379e-17
7167.52519 1.03815e-17
7170.52969 1.03099e-17
7173.53419 1.03085e-17
7176.52867 1.03533e-17
7179.53317 1.03589e-17
7182.52766 1.02738e-17
7185.53216 1.02024e-17
7188.52664 1.02526e-17
7191.53114 1.03506e-17
7194.52563 1.03145e-17
7197.53013 1.02715e-17
7200.53463 1.03895e-17
7203.52911 1.04612e-17
7206.53361 1.04823e-17
7209.52809 1.05268e-17
7212.53259 1.05843e-17
7215.52708 1.07382e-17
7218.53158 1.09177e-17
7221.52607 1.10092e-17
7224.53057 1.09753e-17
7227.53507 1.09508e-17
7230.52955 1.10292e-17
7233.53405 1.10993e-17
7236.52854 1.10851e-17
7239.53304 1.10561e-17
7242.52752 1.10667e-17
7245.53202 1.10727e-17
7248.52651 1.10505e-17
7251.53101 1.10488e-17
7254.52549 1.10213e-17
7257.52999 1.09499e-17
7260.53449 1.09095e-17
7263.52898 1.08536e-17
7266.53348 1.07441e-17
7269.52796 1.07046e-17
7272.53246 1.06886e-17
7275.52695 1.07486e-17
7278.53145 1.08191e-17
7281.52593 1.08068e-17
7284.53043 1.07195e-17
7287.53493 1.06156e-17
7290.52941 1.05198e-17
7293.53391 1.04653e-17
7296.52840 1.04314e-17
7299.53290 1.03556e-17
7302.52739 1.02701e-17
7305.53189 1.02440e-17
7308.52637 1.02546e-17
7311.53087 1.02699e-17
7314.53537 1.02991e-17
7317.52985 1.03115e-17
7320.53435 1.03364e-17
7323.52884 1.03437e-17
7326.53334 1.02183e-17
7329.52783 1.01008e-17
7332.53233 1.01469e-17
7335.52681 1.02005e-17
7338.53131 1.02347e-17
7341.53581 1.02574e-17
7344.53030 1.03174e-17
7347.53480 1.03415e-17
7350.52928 1.02450e-17
7353.53378 1.02280e-17
7356.52827 1.02205e-17
7359.53277 1.02011e-17
7362.52725 1.02393e-17
7365.53175 1.02628e-17
7368.53625 1.02735e-17
7371.53074 1.03200e-17
7374.53524 1.04042e-17
7377.52972 1.04702e-17
7380.53422 1.05033e-17
7383.52871 1.05154e-17
7386.53321 1.04902e-17
7389.52769 1.04579e-17
7392.53219 1.04181e-17
7395.53669 1.04552e-17
7398.53118 1.05825e-17
7401.53568 1.06164e-17
7404.53016 1.06789e-17
7407.53466 1.07042e-17
7410.52915 1.06877e-17
7413.53365 1.07392e-17
7416.52813 1.08027e-17
7419.53263 1.07845e-17
7422.53713 1.07563e-17
7425.53161 1.07464e-17
7428.53611 1.06911e-17
7431.53060 1.06915e-17
7434.53510 1.07797e-17
7437.52959 1.07991e-17
7440.53409 1.08086e-17
7443.52857 1.09105e-17
7446.53307 1.10255e-17
7449.52756 1.10754e-17
7452.53206 1.10660e-17
7455.53656 1.10444e-17
7458.53104 1.09307e-17
7461.53554 1.08685e-17
7464.53003 1.08973e-17
7467.53453 1.09484e-17
7470.52901 1.09746e-17
7473.53351 1.09719e-17
7476.52800 1.09457e-17
7479.53250 1.09536e-17
7482.53700 1.09422e-17
7485.53148 1.08331e-17
7488.53598 1.06474e-17
7491.53047 1.05038e-17
7494.53497 1.04323e-17
7497.52945 1.03355e-17
7500.53395 1.02288e-17
7503.52844 1.01579e-17
7506.53294 1.00923e-17
7509.53744 1.00624e-17
7512.53192 9.99926e-18
7515.53642 9.86372e-18
7518.53091 9.73804e-18
7521.53541 9.62899e-18
7524.52989 9.56344e-18
7527.53439 9.45596e-18
7530.52888 9.32444e-18
7533.53337 9.33294e-18
7536.53787 9.36992e-18
7539.53236 9.31289e-18
7542.53686 9.25002e-18
7545.53135 9.19450e-18
7548.53585 9.11227e-18
7551.53033 9.01585e-18
7554.53483 8.90224e-18
7557.52932 8.78095e-18
7560.53382 8.68980e-18
7563.53832 8.63405e-18
7566.53280 8.58491e-18
7569.53730 8.56363e-18
7572.53179 8.61105e-18
7575.53629 8.63816e-18
7578.53077 8.60255e-18
7581.53527 8.61889e-18
7584.52976 8.65806e-18
7587.53426 8.64161e-18
7590.53876 8.65779e-18
7593.53324 8.69290e-18
7596.53774 8.64064e-18
7599.53222 8.55103e-18
7602.53672 8.57973e-18
7605.53121 8.88515e-18
7608.53571 9.01911e-18
7611.53020 8.93314e-18
7614.53470 8.92821e-18
7617.52918 8.96943e-18
7620.53368 9.00885e-18
7623.53818 8.99243e-18
7626.53266 8.88799e-18
7629.53716 8.86186e-18
7632.53165 8.92521e-18
7635.53615 8.97632e-18
7638.53064 9.01078e-18
7641.53514 9.00890e-18
7644.52962 8.92902e-18
7647.53412 8.91307e-18
7650.53862 8.98805e-18
7653.53311 8.94752e-18
7656.53761 8.86889e-18
7659.53209 8.90859e-18
7662.53659 9.04503e-18
7665.53108 9.11877e-18
7668.53558 9.08781e-18
7671.53006 9.06917e-18
7674.53456 9.15482e-18
7677.53906 9.22383e-18
7680.53355 9.20196e-18
7683.53805 9.20894e-18
7686.53253 9.17263e-18
7689.53703 8.98226e-18
7692.53152 8.86700e-18
7695.53602 8.94662e-18
7698.53050 9.03864e-18
7701.53500 9.08543e-18
7704.53950 9.13201e-18
7707.53399 9.21713e-18
7710.53849 9.28166e-18
7713.53297 9.23040e-18
7716.53747 9.15774e-18
7719.53196 9.11207e-18
7722.53646 9.06425e-18
7725.53094 8.97359e-18
7728.53544 8.87520e-18
7731.53994 8.83105e-18
7734.53442 8.79647e-18
7737.53892 8.70508e-18
7740.53341 8.63674e-18
7743.53791 8.65686e-18
7746.53240 8.70465e-18
7749.53690 8.72892e-18
7752.53138 8.74880e-18
7755.53588 8.76998e-18
7758.54038 8.80435e-18
7761.53487 8.83172e-18
7764.53937 8.82725e-18
7767.53385 8.84165e-18
7770.53835 8.78961e-18
7773.53284 8.77485e-18
7776.53734 8.76618e-18
7779.53182 8.73669e-18
7782.53632 8.82467e-18
7785.54082 8.89741e-18
7788.53531 8.89728e-18
7791.53981 9.00134e-18
7794.53429 9.11840e-18
7797.53879 9.19103e-18
7800.53328 9.28407e-18
7803.53778 9.34996e-18
7806.53226 9.37146e-18
7809.53676 9.33758e-18
7812.53125 9.26509e-18
7815.53575 9.19083e-18
7818.54025 9.16569e-18
7821.53473 9.20683e-18
7824.53923 9.31079e-18
7827.53372 9.45953e-18
7830.53822 9.53477e-18
7833.53270 9.58702e-18
7836.53720 9.59376e-18
7839.53169 9.63183e-18
7842.53619 9.66332e-18
7845.54069 9.69582e-18
7848.53517 9.75154e-18
7851.53967 9.66448e-18
7854.53416 9.57845e-18
7857.53866 9.54977e-18
7860.53314 9.53869e-18
7863.53764 9.45639e-18
7866.53213 9.41143e-18
7869.53663 9.50132e-18
7872.54113 9.61791e-18
7875.53561 9.59657e-18
7878.54011 9.51967e-18
7881.53460 9.49040e-18
7884.53910 9.43415e-18
7887.53358 9.34710e-18
7890.53808 9.30705e-18
7893.53257 9.31001e-18
7896.53707 9.26369e-18
7899.54157 9.21988e-18
7902.53605 9.26025e-18
7905.54055 9.30285e-18
7908.53503 9.32546e-18
7911.53953 9.35403e-18
7914.53402 9.32297e-18
7917.53852 9.34832e-18
7920.53301 9.38268e-18
7923.53751 9.32710e-18
7926.54201 9.24377e-18
7929.53649 9.15242e-18
7932.54099 9.05564e-18
7935.53547 8.97202e-18
7938.53997 8.87937e-18
7941.53446 8.80131e-18
7944.53896 8.79018e-18
7947.53345 8.81754e-18
7950.53795 8.79851e-18
7953.53243 8.76745e-18
7956.53693 8.79940e-18
7959.54143 8.77991e-18
7962.53592 8.69292e-18
7965.54042 8.63337e-18
7968.53490 8.57134e-18
7971.53940 8.47596e-18
7974.53389 8.41979e-18
7977.53839 8.44025e-18
7980.53287 8.39461e-18
7983.53737 8.28454e-18
7986.54187 8.27637e-18
7989.53636 8.35347e-18
7992.54086 8.39849e-18
7995.53534 8.43476e-18
7998.53984 8.42803e-18
8001.53433 8.35609e-18
8004.53883 8.26932e-18
8007.53331 8.16175e-18
8010.53781 8.05764e-18
8013.54231 7.98254e-18
8016.53679 7.90919e-18
8019.54129 7.83856e-18
8022.53578 7.75016e-18
8025.54028 7.68538e-18
8028.53477 7.67901e-18
8031.53927 7.66329e-18
8034.53375 7.65440e-18
8037.53825 7.69874e-18
8040.54275 7.74774e-18
8043.53724 7.74377e-18
8046.54173 7.74569e-18
8049.53622 7.75073e-18
8052.54072 7.70092e-18
8055.53521 7.62886e-18
8058.53971 7.52517e-18
8061.53419 7.43194e-18
8064.53869 7.36080e-18
8067.54319 7.29556e-18
8070.53768 7.21598e-18
8073.54218 7.12236e-18
8076.53666 7.04076e-18
8079.54116 6.97114e-18
8082.53565 6.91106e-18
8085.54015 6.89440e-18
8088.53463 6.91541e-18
8091.53913 6.90569e-18
8094.54363 6.90990e-18
8097.53812 6.88188e-18
8100.54262 6.85249e-18
8103.53710 6.85877e-18
8106.54160 6.84005e-18
8109.53609 6.79985e-18
8112.54059 6.77703e-18
8115.53507 6.69436e-18
8118.53957 6.60767e-18
8121.54407 6.51769e-18
8124.53856 6.38967e-18
8127.54306 6.24885e-18
8130.53754 6.14214e-18
8133.54204 6.05499e-18
8136.53653 5.93585e-18
8139.54103 5.80203e-18
8142.53551 5.70236e-18
8145.54001 5.63612e-18
8148.53450 5.59162e-18
8151.53900 5.52250e-18
8154.54350 5.37699e-18
8157.53798 5.24737e-18
8160.54248 5.18151e-18
8163.53697 5.11506e-18
8166.54147 5.08321e-18
8169.53595 5.00234e-18
8172.54045 4.86827e-18
8175.53494 4.72633e-18
8178.53944 4.56445e-18
8181.54394 4.35362e-18
8184.53842 4.15706e-18
8187.54292 4.02153e-18
8190.53741 3.83757e-18
8193.54191 3.63302e-18
8196.53639 3.51717e-18
8199.54089 3.41471e-18
8202.53538 3.26951e-18
8205.53988 3.13616e-18
8208.54438 3.02290e-18
8211.53886 2.90685e-18
8214.54336 2.74358e-18
8217.53785 2.54347e-18
8220.54234 2.40201e-18
8223.53683 2.29235e-18
8226.54133 2.19480e-18
8229.53581 2.13789e-18
8232.54032 2.13142e-18
8235.54481 2.15726e-18
8238.53930 2.17253e-18
8241.54380 2.14636e-18
8244.53829 2.09020e-18
8247.54279 2.04184e-18
8250.53727 2.01320e-18
8253.54177 2.00236e-18
8256.53626 1.96930e-18
8259.54075 1.93478e-18
8262.54526 1.91618e-18
8265.53974 1.91068e-18
8268.54424 1.92426e-18
8271.53873 1.91082e-18
8274.54322 1.87646e-18
8277.53771 1.88116e-18
8280.54221 1.89469e-18
8283.53669 1.90531e-18
8286.54119 1.91519e-18
8289.53568 1.90818e-18
8292.54018 1.90955e-18
8295.54468 1.90522e-18
8298.53917 1.90314e-18
8301.54367 1.89242e-18
8304.53815 1.90610e-18
8307.54265 1.92601e-18
8310.53714 1.91059e-18
8313.54164 1.91528e-18
8316.54614 1.93002e-18
8319.54062 1.94819e-18
8322.54512 1.98172e-18
8325.53960 2.00031e-18
8328.54411 2.04005e-18
8331.53859 2.09287e-18
8334.54309 2.12636e-18
8337.53758 2.16219e-18
8340.54207 2.17802e-18
8343.53656 2.18226e-18
8346.54106 2.18906e-18
8349.54556 2.18926e-18
8352.54005 2.18795e-18
8355.54455 2.19056e-18
8358.53903 2.18712e-18
8361.54353 2.19997e-18
8364.53802 2.22754e-18
8367.54252 2.25295e-18
8370.53700 2.28332e-18
8373.54150 2.31655e-18
8376.54600 2.33351e-18
8379.54048 2.34446e-18
8382.54499 2.39094e-18
8385.53947 2.45487e-18
8388.54397 2.49779e-18
8391.53845 2.55363e-18
8394.54295 2.64323e-18
8397.53744 2.71997e-18
8400.54194 2.77285e-18
8403.54644 2.82174e-18
8406.54093 2.86861e-18
8409.54543 2.92288e-18
8412.53991 2.94278e-18
8415.54441 2.91285e-18
8418.53890 2.90722e-18
8421.54340 2.91541e-18
8424.53788 2.95795e-18
8427.54238 3.06170e-18
8430.54688 3.12808e-18
8433.54137 3.15196e-18
8436.54587 3.22730e-18
8439.54035 3.30429e-18
8442.54485 3.40861e-18
8445.53933 3.53135e-18
8448.54384 3.64147e-18
8451.53832 3.71863e-18
8454.54282 3.69576e-18
8457.54732 3.69052e-18
8460.54181 3.76467e-18
8463.54631 3.81233e-18
8466.54079 3.85041e-18
8469.54529 3.92712e-18
8472.53978 4.02195e-18
8475.54428 4.11033e-18
8478.53876 4.19595e-18
8481.54326 4.30424e-18
8484.53774 4.48980e-18
8487.54225 4.58649e-18
8490.54674 4.69593e-18
8493.54123 4.79998e-18
8496.54573 4.92158e-18
8499.54021 5.10695e-18
8502.54471 5.25165e-18
8505.53920 5.39585e-18
8508.54370 5.52082e-18
8511.54820 5.57811e-18
8514.54269 5.60084e-18
8517.54719 5.68654e-18
8520.54167 5.78506e-18
8523.54617 5.86369e-18
8526.54066 5.91536e-18
8529.54516 5.94065e-18
8532.53964 6.03023e-18
8535.54414 6.15272e-18
8538.53863 6.26693e-18
8541.54313 6.39369e-18
8544.54763 6.50207e-18
8547.54211 6.63654e-18
8550.54661 6.82741e-18
8553.54110 7.01418e-18
8556.54559 7.17747e-18
8559.54008 7.32540e-18
8562.54458 7.44983e-18
8565.53906 7.52871e-18
8568.54356 7.57916e-18
8571.54806 7.62704e-18
8574.54255 7.69196e-18
8577.54705 7.74620e-18
8580.54154 7.79037e-18
8583.54604 7.82357e-18
8586.54052 7.81142e-18
8589.54502 7.77513e-18
8592.54952 7.78331e-18
8595.54400 7.82827e-18
8598.54851 7.81886e-18
8601.54299 7.79117e-18
8604.54749 7.84945e-18
8607.54198 7.91285e-18
8610.54648 7.97021e-18
8613.54096 8.02553e-18
8616.54546 8.16138e-18
8619.53995 8.22991e-18
8622.54444 8.24151e-18
8625.54895 8.27925e-18
8628.54343 8.31658e-18
8631.54793 8.31178e-18
8634.54242 8.33262e-18
8637.54692 8.35647e-18
8640.54140 8.33901e-18
8643.54590 8.32411e-18
8646.54039 8.27496e-18
8649.54489 8.23167e-18
8652.54939 8.24118e-18
8655.54387 8.23954e-18
8658.54837 8.23023e-18
8661.54285 8.22553e-18
8664.54736 8.19513e-18
8667.54184 8.19734e-18
8670.54634 8.27928e-18
8673.54083 8.34779e-18
8676.54532 8.32111e-18
8679.53981 8.32777e-18
8682.54431 8.34818e-18
8685.54881 8.32798e-18
8688.54330 8.31779e-18
8691.54780 8.30452e-18
8694.54228 8.27136e-18
8697.54678 8.28489e-18
8700.54126 8.32886e-18
8703.54577 8.21593e-18
8706.55026 8.08296e-18
8709.54475 8.05587e-18
8712.54925 8.10894e-18
8715.54374 8.12356e-18
8718.54824 8.06482e-18
8721.54272 8.03006e-18
8724.54722 8.00517e-18
8727.54170 8.00621e-18
8730.54621 8.07952e-18
8733.54069 8.09767e-18
8736.54519 8.06844e-18
8739.54969 8.06571e-18
8742.54418 8.04172e-18
8745.54868 8.01320e-18
8748.54316 8.03261e-18
8751.54766 8.01531e-18
8754.54215 7.91087e-18
8757.54665 7.82495e-18
8760.54113 7.78410e-18
8763.54563 7.68842e-18
8766.55013 7.54318e-18
8769.54462 7.45429e-18
8772.54911 7.41187e-18
8775.54360 7.36344e-18
8778.54810 7.34858e-18
8781.54258 7.37043e-18
8784.54709 7.41900e-18
8787.54157 7.46671e-18
8790.54607 7.47389e-18
8793.55057 7.51803e-18
8796.54506 7.59282e-18
8799.54956 7.64307e-18
8802.54404 7.69872e-18
8805.54854 7.67275e-18
8808.54303 7.66388e-18
8811.54753 7.65135e-18
8814.54201 7.57487e-18
8817.54651 7.48312e-18
8820.55101 7.42614e-18
8823.54550 7.37384e-18
8826.55000 7.22606e-18
8829.54448 7.18917e-18
8832.54898 7.15166e-18
8835.54347 7.12192e-18
8838.54796 7.11065e-18
8841.54245 7.10802e-18
8844.54695 7.06658e-18
8847.54144 7.00979e-18
8850.54594 7.02981e-18
8853.55044 7.15352e-18
8856.54492 7.30790e-18
8859.54942 7.30757e-18
8862.54391 7.19477e-18
8865.54841 7.06541e-18
8868.54289 6.98412e-18
8871.54739 6.92508e-18
8874.55189 6.88398e-18
8877.54637 6.95024e-18
8880.55088 7.02833e-18
8883.54536 7.03882e-18
8886.54986 6.97651e-18
8889.54435 6.83025e-18
8892.54884 6.81006e-18
8895.54333 6.92811e-18
8898.54783 6.99173e-18
8901.55233 6.98089e-18
8904.54681 6.89850e-18
8907.55131 6.77069e-18
8910.54580 6.62263e-18
8913.55030 6.56328e-18
8916.54479 6.61213e-18
8919.54929 6.59689e-18
8922.54377 6.51766e-18
8925.54827 6.43683e-18
8928.54276 6.39877e-18
8931.54726 6.36607e-18
8934.55176 6.26286e-18
8937.54624 6.12117e-18
8940.55074 6.02562e-18
8943.54522 5.92588e-18
8946.54973 5.84095e-18
8949.54421 5.85101e-18
8952.54871 5.76079e-18
8955.54320 5.60369e-18
8958.54769 5.48936e-18
8961.55220 5.56510e-18
8964.54668 5.66363e-18
8967.55118 5.66014e-18
8970.54567 5.67401e-18
8973.55017 5.72242e-18
8976.54465 5.61437e-18
8979.54915 5.42213e-18
8982.54363 5.40977e-18
8985.54814 5.45134e-18
8988.55264 5.38441e-18
8991.54712 5.34592e-18
8994.55162 5.33516e-18
8997.54610 5.22393e-18
9000.55061 5.07936e-18
9003.54509 5.01433e-18
9006.54959 4.97098e-18
9009.54407 4.89462e-18
9012.54857 4.80223e-18
9015.55307 4.75758e-18
9018.54756 4.73370e-18
9021.55206 4.67805e-18
9024.54655 4.70195e-18
9027.55105 4.77265e-18
9030.54553 4.79489e-18
9033.55003 4.82040e-18
9036.54452 4.84115e-18
9039.54902 4.81673e-18
9042.54350 4.74496e-18
9045.54800 4.66855e-18
9048.55250 4.63161e-18
9051.54699 4.57784e-18
9054.55148 4.50191e-18
9057.54597 4.41875e-18
9060.55047 4.32657e-18
9063.54495 4.24901e-18
9066.54946 4.18860e-18
9069.55395 4.21001e-18
9072.54844 4.17745e-18
9075.55294 4.14108e-18
9078.54743 4.14540e-18
9081.55193 4.19884e-18
9084.54641 4.24905e-18
9087.55091 4.24375e-18
9090.54540 4.29657e-18
9093.54990 4.36108e-18
9096.55440 4.41748e-18
9099.54888 4.57794e-18
9102.55338 4.77269e-18
9105.54787 4.79204e-18
9108.55236 4.81453e-18
9111.54685 4.99614e-18
9114.55135 5.08247e-18
9117.54584 5.06807e-18
9120.55033 5.05375e-18
9123.54482 5.07299e-18
9126.54932 5.14220e-18
9129.55382 5.20563e-18
9132.54831 5.28175e-18
9135.55281 5.40578e-18
9138.54729 5.52126e-18
9141.55179 5.53735e-18
9144.54628 5.46211e-18
9147.55078 5.37150e-18
9150.54526 5.38697e-18
9153.54976 5.51148e-18
9156.55426 5.61941e-18
9159.54875 5.66496e-18
9162.55325 5.66869e-18
9165.54773 5.65533e-18
9168.55223 5.67512e-18
9171.54672 5.76499e-18
9174.55121 5.88292e-18
9177.54570 5.96194e-18
9180.55020 6.02110e-18
9183.55470 6.09148e-18
9186.54919 6.16146e-18
9189.55369 6.28953e-18
9192.54817 6.45326e-18
9195.55267 6.54640e-18
9198.54716 6.55663e-18
9201.78084 6.55663e-18
9206.06872 6.50627e-18
9210.34642 6.42343e-18
9214.63431 6.18641e-18
9218.92219 6.05048e-18
9223.19989 6.36745e-18
9227.48778 6.69795e-18
9231.77566 6.75909e-18
9236.06355 6.57542e-18
9240.34125 6.50956e-18
9244.62913 6.51747e-18
9248.91702 6.30173e-18
9253.19472 6.30807e-18
9257.48260 6.35745e-18
9261.77049 6.49543e-18
9266.05838 6.76301e-18
9270.33608 6.45910e-18
9274.62396 6.12034e-18
9278.91185 6.21154e-18
9283.18954 6.38733e-18
9287.47743 6.40105e-18
9291.76531 6.53905e-18
9296.04301 6.58213e-18
9300.33090 6.36794e-18
9304.61879 6.49376e-18
9308.90667 6.66732e-18
9313.18437 6.60014e-18
9317.47225 6.75592e-18
9321.76014 6.87766e-18
9326.03784 6.78630e-18
9330.32573 7.00748e-18
9334.61361 7.13308e-18
9338.90150 6.67005e-18
9343.17919 6.47436e-18
9347.46708 6.64514e-18
9351.75496 6.45580e-18
9356.03267 6.17864e-18
9360.32055 6.30563e-18
9364.60844 6.75596e-18
9368.88613 6.78636e-18
9373.17402 6.46117e-18
9377.46190 5.94490e-18
9381.74979 5.88875e-18
9386.02749 6.17929e-18
9390.31538 6.10549e-18
9394.60326 5.92665e-18
9398.89114 5.85981e-18
9403.16885 5.94673e-18
9407.45673 6.15970e-18
9411.74462 6.00851e-18
9416.02232 5.67436e-18
9420.31020 5.72961e-18
9424.59808 6.25510e-18
9428.87579 6.39770e-18
9433.16367 5.99876e-18
9437.45155 5.74452e-18
9441.73944 5.59233e-18
9446.01714 5.55870e-18
9450.30502 5.86624e-18
9454.59291 5.95991e-18
9458.87061 5.64055e-18
9463.15849 5.58683e-18
9467.44638 6.13057e-18
9471.72408 6.38336e-18
9476.01196 5.98445e-18
9480.29985 5.57806e-18
9484.58773 5.44422e-18
9488.86543 5.75747e-18
9493.15332 5.88005e-18
9497.44120 5.55246e-18
9501.71890 5.48885e-18
9506.00679 5.78837e-18
9510.29467 6.37470e-18
9514.57237 6.24109e-18
9518.86026 5.62200e-18
9523.14814 5.75452e-18
9527.43603 6.32662e-18
9531.71373 6.40114e-18
9536.00162 6.28306e-18
9540.28950 6.12245e-18
9544.56720 5.95094e-18
9548.85508 5.71251e-18
9553.14297 5.58905e-18
9557.43085 5.77918e-18
9561.70856 5.59640e-18
9565.99644 5.69763e-18
9570.28433 5.83560e-18
9574.56202 5.74753e-18
9578.84991 5.80291e-18
9583.13779 5.80150e-18
9587.42568 5.64759e-18
9591.70338 5.52456e-18
9595.99127 5.58193e-18
9600.27915 5.71259e-18
9604.55685 5.94624e-18
9608.84473 6.09728e-18
9613.13262 6.22459e-18
9617.41032 6.37494e-18
9621.69821 6.20419e-18
9625.98609 5.99569e-18
9630.27398 5.93057e-18
9634.55167 5.92125e-18
9638.83956 5.74484e-18
9643.12744 5.49713e-18
9647.40514 5.39833e-18
9651.69303 5.06397e-18
9655.98092 4.91817e-18
9660.26880 5.18890e-18
9664.54650 5.44788e-18
9668.83438 5.52973e-18
9673.12227 5.79790e-18
9677.39997 5.92513e-18
9681.68786 5.72870e-18
9685.97574 5.43724e-18
9690.26362 5.48824e-18
9694.54133 6.03964e-18
9698.82921 6.51328e-18
9703.11709 6.48292e-18
9707.39480 5.78350e-18
9711.68268 5.22041e-18
9715.97056 5.18030e-18
9720.24827 5.04236e-18
9724.53615 4.90397e-18
9728.82403 4.72040e-18
9733.11192 4.40655e-18
9737.38962 4.46422e-18
9741.67750 5.02856e-18
9745.96539 5.54001e-18
9750.24309 5.48992e-18
9754.53097 5.18931e-18
9758.81886 5.16370e-18
9763.09656 5.35476e-18
9767.38444 5.37801e-18
9771.67233 5.34909e-18
9775.96021 5.48264e-18
9780.23791 5.32098e-18
9784.52580 4.88127e-18
9788.81368 4.90764e-18
9793.09138 4.88846e-18
9797.37927 4.74085e-18
9801.66715 4.87966e-18
9805.94485 5.13722e-18
9810.23274 5.28723e-18
9814.52062 5.08385e-18
9818.80851 4.74273e-18
9823.08621 4.69081e-18
9827.37410 4.50199e-18
9831.66198 4.40829e-18
9835.94987 4.81574e-18
9840.22756 4.92893e-18
9844.51545 4.80658e-18
9848.80333 5.06421e-18
9853.08104 4.88497e-18
9857.36892 4.18068e-18
9861.65681 3.90774e-18
9865.93450 4.04848e-18
9870.22239 4.07387e-18
9874.51027 3.90495e-18
9878.79816 3.92026e-18
9883.07586 4.21716e-18
9887.36375 4.47294e-18
9891.65163 4.62425e-18
9895.92933 4.54834e-18
9900.21721 4.19976e-18
9904.50510 3.89975e-18
9908.79298 3.76072e-18
9913.07069 4.37439e-18
9917.35857 4.54725e-18
9921.64646 4.01962e-18
9925.92415 3.78727e-18
9930.21204 3.61288e-18
9934.49992 3.34772e-18
9938.77762 3.26209e-18
9943.06551 3.57472e-18
9947.35340 3.77405e-18
9951.64128 3.74169e-18
9955.91898 3.35562e-18
9960.20687 3.07991e-18
9964.49475 3.36242e-18
9968.77245 3.98389e-18
9973.06034 4.42298e-18
9977.34822 4.35875e-18
9981.63610 4.40949e-18
9985.91381 4.70927e-18
9990.20169 4.91326e-18
9994.48957 4.93651e-18
9998.76728 4.99929e-18
