# wavelength flux
3400.96380 2.72046e-18
3403.96830 2.31465e-18
3406.97280 2.82011e-18
3409.98732 3.14712e-18
3412.99182 3.33421e-18
3415.99632 3.35131e-18
3419.00082 3.10329e-18
3422.01534 2.73718e-18
3425.01984 2.49051e-18
3428.02434 2.21062e-18
3431.02884 2.41999e-18
3434.03334 2.86978e-18
3437.04785 3.46263e-18
3440.05235 3.47564e-18
3443.05685 3.53966e-18
3446.06135 3.47288e-18
3449.07587 3.78059e-18
3452.08037 4.09016e-18
3455.08487 4.09204e-18
3458.08937 3.84750e-18
3461.09386 3.98944e-18
3464.10838 4.12432e-18
3467.11288 4.23663e-18
3470.11738 4.24364e-18
3473.12188 4.13806e-18
3476.13639 4.00771e-18
3479.14090 4.05802e-18
3482.14540 4.24738e-18
3485.14990 3.79425e-18
3488.15440 4.00316e-18
3491.16891 4.09305e-18
3494.17341 4.07626e-18
3497.17791 3.78888e-18
3500.18241 3.44226e-18
3503.18691 3.62801e-18
3506.20143 3.77761e-18
3509.20593 3.51480e-18
3512.21043 3.42829e-18
3515.21493 3.25256e-18
3518.22944 3.41815e-18
3521.23394 3.68676e-18
3524.23844 3.39717e-18
3527.24294 3.17129e-18
3530.24744 3.20640e-18
3533.26195 3.01003e-18
3536.26645 3.19484e-18
3539.27095 2.63999e-18
3542.27545 2.39538e-18
3545.28997 2.64983e-18
3548.29447 2.92849e-18
3551.29897 2.61221e-18
3554.30347 2.67432e-18
3557.30797 2.80358e-18
3560.32249 2.98001e-18
3563.32699 2.95989e-18
3566.33149 2.83660e-18
3569.33599 2.91638e-18
3572.35050 3.04953e-18
3575.35500 2.93256e-18
3578.35950 2.96633e-18
3581.36400 2.95117e-18
3584.36850 2.99870e-18
3587.38302 3.11535e-18
3590.38752 3.15873e-18
3593.39202 3.33308e-18
3596.39652 3.41092e-18
3599.41103 3.38894e-18
3602.41553 3.06055e-18
3605.42003 3.14531e-18
3608.42453 3.40633e-18
3611.42903 3.12104e-18
3614.44355 3.00871e-18
3617.44805 3.21565e-18
3620.45255 3.34602e-18
3623.45705 3.30845e-18
3626.47156 3.07424e-18
3629.47606 2.91245e-18
3632.48056 2.97176e-18
3635.48506 3.00284e-18
3638.48956 3.01082e-18
3641.50408 3.10709e-18
3644.50858 3.05821e-18
3647.51308 2.89851e-18
3650.51758 2.95559e-18
3653.53209 3.15143e-18
3656.53659 3.28303e-18
3659.54109 3.31092e-18
3662.54559 3.22792e-18
3665.55009 3.29736e-18
3668.56461 3.22062e-18
3671.56911 3.04434e-18
3674.57361 3.05021e-18
3677.57811 3.02344e-18
3680.59262 2.98449e-18
3683.59712 3.03186e-18
3686.60162 2.99011e-18
3689.60612 3.11775e-18
3692.61062 3.26481e-18
3695.62514 3.32515e-18
3698.62964 3.36442e-18
3701.63414 3.28138e-18
3704.63864 3.39879e-18
3707.65315 3.49047e-18
3710.65765 3.50930e-18
3713.66215 3.44166e-18
3716.66665 3.59318e-18
3719.67115 3.77480e-18
3722.68567 3.75782e-18
3725.69017 3.91163e-18
3728.69467 4.20366e-18
3731.69917 4.36320e-18
3734.71368 4.45060e-18
3737.71818 4.46564e-18
3740.72268 4.34489e-18
3743.72718 4.36608e-18
3746.73168 4.22349e-18
3749.74620 4.10577e-18
3752.75070 3.89895e-18
3755.75520 3.53221e-18
3758.75970 3.33172e-18
3761.77421 3.06642e-18
3764.77871 2.75194e-18
3767.78321 2.54467e-18
3770.78771 2.19870e-18
3773.79221 1.85853e-18
3776.80673 1.67845e-18
3779.81123 1.59304e-18
3782.81573 1.47223e-18
3785.82023 1.21589e-18
3788.83474 1.24792e-18
3791.83924 1.20802e-18
3794.84374 1.12186e-18
3797.84824 1.06128e-18
3800.85274 9.85323e-19
3803.86726 9.15360e-19
3806.87176 8.11089e-19
3809.87626 7.38172e-19
3812.88076 7.72205e-19
3815.89527 7.86464e-19
3818.89977 8.04197e-19
3821.90427 7.60688e-19
3824.90877 7.28790e-19
3827.91327 8.40966e-19
3830.92779 8.45622e-19
3833.93229 8.26711e-19
3836.93679 8.65281e-19
3839.94129 7.96890e-19
3842.95580 7.61820e-19
3845.96030 7.77620e-19
3848.96480 7.50839e-19
3851.96930 6.68204e-19
3854.97380 7.48838e-19
3857.98832 8.99911e-19
3860.99282 9.41507e-19
3863.99732 9.77566e-19
3867.00182 1.03711e-18
3870.01633 1.08360e-18
3873.02083 1.08561e-18
3876.02533 1.19842e-18
3879.02983 1.27640e-18
3882.03433 1.38887e-18
3885.04885 1.52990e-18
3888.05335 1.70889e-18
3891.05785 1.87380e-18
3894.06235 1.96372e-18
3897.07686 2.17532e-18
3900.08136 2.44341e-18
3903.08586 2.86337e-18
3906.09036 3.15264e-18
3909.09486 3.39451e-18
3912.10938 3.70539e-18
3915.11388 4.13699e-18
3918.11838 4.60606e-18
3921.12288 4.90284e-18
3924.13739 5.29599e-18
3927.14189 5.68110e-18
3930.14639 5.92400e-18
3933.15089 6.18486e-18
3936.15539 6.43156e-18
3939.16991 6.68021e-18
3942.17441 7.12412e-18
3945.17891 7.54585e-18
3948.18341 7.65391e-18
3951.19792 7.75669e-18
3954.20242 8.00966e-18
3957.20692 8.03647e-18
3960.21142 8.06060e-18
3963.21592 8.10055e-18
3966.23044 7.98799e-18
3969.23494 7.91806e-18
3972.23944 7.92540e-18
3975.24393 7.81599e-18
3978.25845 7.81921e-18
3981.26295 7.67742e-18
3984.26745 7.62110e-18
3987.27195 7.63817e-18
3990.27645 7.45479e-18
3993.29097 7.38296e-18
3996.29547 7.29950e-18
3999.29997 7.17224e-18
4002.30447 7.17968e-18
4005.31898 7.34682e-18
4008.32348 7.30509e-18
4011.32798 7.49219e-18
4014.33248 7.57636e-18
4017.33698 7.54566e-18
4020.35150 7.54284e-18
4023.35600 7.74114e-18
4026.36050 7.84626e-18
4029.36500 7.87919e-18
4032.37951 8.06917e-18
4035.38401 8.25719e-18
4038.38851 8.48517e-18
4041.39301 8.64286e-18
4044.39751 8.75780e-18
4047.41203 8.93347e-18
4050.41653 9.08120e-18
4053.42103 9.29097e-18
4056.42553 9.27868e-18
4059.44004 9.19212e-18
4062.44454 9.33214e-18
4065.44904 9.55440e-18
4068.45354 9.54257e-18
4071.45804 9.40067e-18
4074.47256 9.31625e-18
4077.47706 9.23690e-18
4080.48156 9.03622e-18
4083.48606 8.87895e-18
4086.50057 8.78497e-18
4089.50507 8.65103e-18
4092.50957 8.35676e-18
4095.51407 8.18686e-18
4098.51857 8.02640e-18
4101.53309 7.92856e-18
4104.53759 7.90761e-18
4107.54209 7.67795e-18
4110.54659 7.55713e-18
4113.56110 7.50289e-18
4116.56560 7.35093e-18
4119.57010 7.22272e-18
4122.57460 7.15899e-18
4125.57910 7.12664e-18
4128.59361 6.94272e-18
4131.59811 6.77431e-18
4134.60261 6.76928e-18
4137.60711 6.78549e-18
4140.62163 6.70073e-18
4143.62613 6.70685e-18
4146.63063 6.75314e-18
4149.63513 6.72960e-18
4152.63963 6.66490e-18
4155.65415 6.65109e-18
4158.65865 6.65454e-18
4161.66315 6.61407e-18
4164.66765 6.51058e-18
4167.68216 6.52199e-18
4170.68666 6.59709e-18
4173.69116 6.40937e-18
4176.69566 6.26881e-18
4179.70016 6.32624e-18
4182.71468 6.17184e-18
4185.71918 6.11237e-18
4188.72368 6.09313e-18
4191.72818 5.95635e-18
4194.74269 5.82885e-18
4197.74719 5.80795e-18
4200.75169 5.78421e-18
4203.75619 5.85294e-18
4206.76069 5.95153e-18
4209.77521 6.06172e-18
4212.77971 6.05037e-18
4215.78421 6.08053e-18
4218.78871 6.19712e-18
4221.80322 6.34620e-18
4224.80772 6.37809e-18
4227.81222 6.41941e-18
4230.81672 6.46502e-18
4233.82122 6.42124e-18
4236.83573 6.35236e-18
4239.84023 6.37205e-18
4242.84473 6.30126e-18
4245.84923 6.25135e-18
4248.86375 6.15709e-18
4251.86825 6.08174e-18
4254.87275 6.02142e-18
4257.87725 6.05719e-18
4260.88175 5.95131e-18
4263.89627 5.83723e-18
4266.90077 5.96233e-18
4269.90527 5.98977e-18
4272.90977 5.91972e-18
4275.92428 5.99656e-18
4278.92878 5.97501e-18
4281.93328 5.96634e-18
4284.93778 6.04889e-18
4287.94228 6.00227e-18
4290.95680 6.08369e-18
4293.96130 6.17406e-18
4296.96580 6.09932e-18
4299.97030 6.16794e-18
4302.98481 6.34603e-18
4305.98931 6.35672e-18
4308.99381 6.39330e-18
4311.99831 6.48971e-18
4315.00281 6.42521e-18
4318.01733 6.44018e-18
4321.02183 6.54933e-18
4324.02633 6.50907e-18
4327.03083 6.39645e-18
4330.04534 6.31318e-18
4333.04984 6.32223e-18
4336.05434 6.27695e-18
4339.05884 6.13379e-18
4342.06334 6.08766e-18
4345.07785 6.06047e-18
4348.08235 5.98007e-18
4351.08685 5.95541e-18
4354.09135 5.92458e-18
4357.10587 5.95414e-18
4360.11037 5.98597e-18
4363.11487 5.92355e-18
4366.11937 5.96278e-18
4369.12387 6.07792e-18
4372.13839 6.10966e-18
4375.14289 6.05222e-18
4378.14739 6.02017e-18
4381.15189 5.92281e-18
4384.16640 5.79097e-18
4387.17090 5.72594e-18
4390.17540 5.68665e-18
4393.17990 5.55365e-18
4396.18440 5.40867e-18
4399.19891 5.30714e-18
4402.20341 5.25711e-18
4405.20791 5.15924e-18
4408.21241 4.98475e-18
4411.21691 4.93532e-18
4414.23143 5.00141e-18
4417.23593 4.90545e-18
4420.24043 4.82732e-18
4423.24493 4.90898e-18
4426.25945 4.97231e-18
4429.26395 4.97889e-18
4432.26845 4.97604e-18
4435.27295 5.00605e-18
4438.27745 5.13737e-18
4441.29196 5.26374e-18
4444.29646 5.32886e-18
4447.30096 5.43127e-18
4450.30546 5.55740e-18
4453.31998 5.64014e-18
4456.32447 5.75676e-18
4459.32897 5.79890e-18
4462.33347 5.80534e-18
4465.33797 5.87624e-18
4468.35249 5.96853e-18
4471.35699 6.04140e-18
4474.36149 6.05512e-18
4477.36599 6.03335e-18
4480.38051 6.12468e-18
4483.38501 6.25098e-18
4486.38951 6.34269e-18
4489.39401 6.29745e-18
4492.39851 6.33646e-18
4495.41302 6.41504e-18
4498.41752 6.47533e-18
4501.42202 6.49625e-18
4504.42652 6.44502e-18
4507.44103 6.57998e-18
4510.44553 6.76296e-18
4513.45003 6.82475e-18
4516.45453 6.84589e-18
4519.45903 6.98265e-18
4522.47355 7.15324e-18
4525.47805 7.24389e-18
4528.48255 7.39959e-18
4531.48705 7.53671e-18
4534.50157 7.71047e-18
4537.50607 7.88819e-18
4540.51057 8.07273e-18
4543.51507 8.37801e-18
4546.51957 8.63968e-18
4549.53408 8.83956e-18
4552.53858 9.02490e-18
4555.54308 9.32170e-18
4558.54758 9.63921e-18
4561.56210 9.87718e-18
4564.56660 1.00898e-17
4567.57110 1.03364e-17
4570.57560 1.04783e-17
4573.58010 1.05888e-17
4576.59461 1.08276e-17
4579.59911 1.12197e-17
4582.60361 1.14865e-17
4585.60811 1.15310e-17
4588.62262 1.16836e-17
4591.62712 1.18444e-17
4594.63162 1.18660e-17
4597.63612 1.19194e-17
4600.64062 1.19637e-17
4603.65514 1.19455e-17
4606.65964 1.20483e-17
4609.66414 1.22737e-17
4612.66864 1.23810e-17
4615.68316 1.24223e-17
4618.68766 1.26075e-17
4621.69216 1.26901e-17
4624.69666 1.26265e-17
4627.70116 1.26354e-17
4630.71567 1.26742e-17
4633.72017 1.27463e-17
4636.72467 1.27855e-17
4639.72917 1.29491e-17
4642.74369 1.30117e-17
4645.74819 1.29445e-17
4648.75269 1.29162e-17
4651.75719 1.27639e-17
4654.76169 1.26932e-17
4657.77620 1.26309e-17
4660.78070 1.25347e-17
4663.78520 1.24831e-17
4666.78970 1.24821e-17
4669.80422 1.22995e-17
4672.80872 1.21234e-17
4675.81322 1.20416e-17
4678.81772 1.18931e-17
4681.82222 1.17463e-17
4684.83673 1.15571e-17
4687.84123 1.14050e-17
4690.84573 1.13545e-17
4693.85023 1.13289e-17
4696.86474 1.11974e-17
4699.86924 1.11182e-17
4702.87374 1.11668e-17
4705.87824 1.11812e-17
4708.88274 1.13989e-17
4711.89726 1.17547e-17
4714.90176 1.19333e-17
4717.90626 1.20870e-17
4720.91076 1.23277e-17
4723.92528 1.24523e-17
4726.92978 1.25394e-17
4729.93428 1.26263e-17
4732.93878 1.26661e-17
4735.94328 1.26966e-17
4738.95779 1.27212e-17
4741.96229 1.27330e-17
4744.96679 1.27575e-17
4747.97129 1.26742e-17
4750.98581 1.25655e-17
4753.99031 1.24810e-17
4756.99481 1.23270e-17
4759.99931 1.21410e-17
4763.00381 1.19325e-17
4766.01832 1.17197e-17
4769.02282 1.16638e-17
4772.02732 1.16527e-17
4775.03182 1.16520e-17
4778.04634 1.16159e-17
4781.05084 1.15613e-17
4784.05534 1.15070e-17
4787.05984 1.15277e-17
4790.06434 1.15484e-17
4793.07885 1.15583e-17
4796.08335 1.15296e-17
4799.08785 1.13797e-17
4802.09235 1.12880e-17
4805.10686 1.12477e-17
4808.11136 1.12539e-17
4811.11586 1.12280e-17
4814.12036 1.11497e-17
4817.12486 1.09648e-17
4820.13938 1.07019e-17
4823.14388 1.05541e-17
4826.14838 1.04308e-17
4829.15288 1.02344e-17
4832.16740 1.00728e-17
4835.17190 9.84177e-18
4838.17640 9.53235e-18
4841.18090 9.36620e-18
4844.18540 9.31279e-18
4847.19991 9.09731e-18
4850.20441 8.85637e-18
4853.20891 8.63214e-18
4856.21341 8.41698e-18
4859.22793 8.17525e-18
4862.23243 7.97329e-18
4865.23693 7.79894e-18
4868.24143 7.64518e-18
4871.24593 7.48279e-18
4874.26044 7.27046e-18
4877.26494 7.09526e-18
4880.26944 6.96256e-18
4883.27394 6.75892e-18
4886.28846 6.60515e-18
4889.29296 6.44240e-18
4892.29746 6.24695e-18
4895.30196 6.10382e-18
4898.30646 5.95444e-18
4901.32097 5.79149e-18
4904.32547 5.71419e-18
4907.32997 5.74660e-18
4910.33447 5.82257e-18
4913.34898 5.82700e-18
4916.35348 5.89778e-18
4919.35798 6.11165e-18
4922.36248 6.37881e-18
4925.36698 6.65655e-18
4928.38150 6.96274e-18
4931.38600 7.18537e-18
4934.39050 7.41660e-18
4937.39500 7.66575e-18
4940.40952 7.76637e-18
4943.41402 7.92216e-18
4946.41852 8.13017e-18
4949.42302 8.24968e-18
4952.42752 8.36017e-18
4955.44203 8.53345e-18
4958.44653 8.71685e-18
4961.45103 8.95380e-18
4964.45553 9.18543e-18
4967.47005 9.48803e-18
4970.47455 9.81395e-18
4973.47905 1.00775e-17
4976.48355 1.03655e-17
4979.48805 1.07622e-17
4982.50256 1.12212e-17
4985.50706 1.16728e-17
4988.51156 1.21245e-17
4991.51606 1.25354e-17
4994.53058 1.30598e-17
4997.53508 1.36010e-17
5000.53958 1.40293e-17
5003.54408 1.44713e-17
5006.54858 1.49335e-17
5009.56309 1.53856e-17
5012.56759 1.58033e-17
5015.57209 1.60747e-17
5018.57659 1.61799e-17
5021.59111 1.62995e-17
5024.59561 1.63931e-17
5027.60011 1.64394e-17
5030.60461 1.63886e-17
5033.60910 1.62516e-17
5036.62362 1.60655e-17
5039.62812 1.58671e-17
5042.63262 1.57109e-17
5045.63712 1.53734e-17
5048.65164 1.49601e-17
5051.65614 1.45907e-17
5054.66064 1.41664e-17
5057.66514 1.36398e-17
5060.66964 1.31200e-17
5063.68415 1.25333e-17
5066.68865 1.20011e-17
5069.69315 1.14745e-17
5072.69765 1.09820e-17
5075.71216 1.05108e-17
5078.71666 1.00821e-17
5081.72116 9.68195e-18
5084.72566 9.27288e-18
5087.73016 8.99499e-18
5090.74468 8.79474e-18
5093.74918 8.52476e-18
5096.75368 8.34371e-18
5099.75818 8.28254e-18
5102.77270 8.28650e-18
5105.77720 8.23809e-18
5108.78170 8.20230e-18
5111.78620 8.18614e-18
5114.79070 8.13372e-18
5117.80521 8.18584e-18
5120.80971 8.38225e-18
5123.81421 8.48532e-18
5126.81871 8.55760e-18
5129.83323 8.70104e-18
5132.83773 8.91776e-18
5135.84223 9.15213e-18
5138.84673 9.33206e-18
5141.85123 9.54109e-18
5144.86574 9.74522e-18
5147.87024 9.95972e-18
5150.87474 1.02598e-17
5153.87924 1.05325e-17
5156.89376 1.07424e-17
5159.89826 1.10152e-17
5162.90276 1.12108e-17
5165.90726 1.11844e-17
5168.91176 1.12568e-17
5171.92627 1.14308e-17
5174.93077 1.16220e-17
5177.93527 1.17563e-17
5180.93977 1.18234e-17
5183.95428 1.18219e-17
5186.95878 1.18054e-17
5189.96328 1.17290e-17
5192.96778 1.17309e-17
5195.97228 1.17011e-17
5198.98680 1.16676e-17
5201.99130 1.16266e-17
5204.99580 1.15249e-17
5208.00030 1.14867e-17
5211.01482 1.14797e-17
5214.01932 1.14112e-17
5217.02382 1.13880e-17
5220.02832 1.13500e-17
5223.03282 1.13210e-17
5226.04733 1.12978e-17
5229.05183 1.12793e-17
5232.05633 1.12212e-17
5235.06083 1.12423e-17
5238.07535 1.13029e-17
5241.07985 1.12810e-17
5244.08435 1.12818e-17
5247.08885 1.13677e-17
5250.09335 1.13783e-17
5253.10786 1.13531e-17
5256.11236 1.14488e-17
5259.11686 1.15555e-17
5262.12136 1.16305e-17
5265.13587 1.16438e-17
5268.14037 1.16929e-17
5271.14487 1.17358e-17
5274.14937 1.17417e-17
5277.15387 1.17656e-17
5280.16839 1.18771e-17
5283.17289 1.18378e-17
5286.17739 1.20746e-17
5289.18189 1.22345e-17
5292.19641 1.22752e-17
5295.20091 1.24084e-17
5298.20541 1.25506e-17
5301.20991 1.26169e-17
5304.21441 1.27225e-17
5307.22892 1.28951e-17
5310.23342 1.29949e-17
5313.23792 1.29869e-17
5316.24242 1.29770e-17
5319.25694 1.31404e-17
5322.26144 1.32994e-17
5325.26594 1.34019e-17
5328.27044 1.34526e-17
5331.27494 1.34944e-17
5334.28945 1.35663e-17
5337.29395 1.35702e-17
5340.29845 1.36261e-17
5343.30295 1.37767e-17
5346.31747 1.38937e-17
5349.32197 1.39215e-17
5352.32647 1.38865e-17
5355.33097 1.38088e-17
5358.33547 1.38945e-17
5361.34998 1.40283e-17
5364.35448 1.40267e-17
5367.35898 1.40927e-17
5370.36348 1.41458e-17
5373.37799 1.41329e-17
5376.38249 1.42026e-17
5379.38699 1.42590e-17
5382.39149 1.42282e-17
5385.39599 1.42441e-17
5388.41051 1.42508e-17
5391.41501 1.42481e-17
5394.41951 1.43845e-17
5397.42401 1.44330e-17
5400.42851 1.44472e-17
5403.44303 1.45700e-17
5406.44753 1.46725e-17
5409.45203 1.47636e-17
5412.45653 1.48916e-17
5415.47104 1.50612e-17
5418.47554 1.51821e-17
5421.48004 1.52105e-17
5424.48454 1.52703e-17
5427.48904 1.53121e-17
5430.50356 1.53097e-17
5433.50806 1.53595e-17
5436.51256 1.54278e-17
5439.51706 1.53705e-17
5442.53157 1.53502e-17
5445.53607 1.53545e-17
5448.54057 1.52070e-17
5451.54507 1.50210e-17
5454.54957 1.48686e-17
5457.56409 1.46925e-17
5460.56859 1.45920e-17
5463.57309 1.44712e-17
5466.57759 1.43488e-17
5469.59210 1.43042e-17
5472.59660 1.43180e-17
5475.60110 1.42886e-17
5478.60560 1.42741e-17
5481.61010 1.42742e-17
5484.62461 1.42336e-17
5487.62911 1.43720e-17
5490.63361 1.44133e-17
5493.63811 1.45584e-17
5496.65263 1.48835e-17
5499.65713 1.52009e-17
5502.66163 1.56109e-17
5505.66613 1.59220e-17
5508.67063 1.60330e-17
5511.68515 1.64942e-17
5514.68965 1.70348e-17
5517.69415 1.74507e-17
5520.69865 1.78950e-17
5523.71316 1.82608e-17
5526.71766 1.86981e-17
5529.72216 1.90078e-17
5532.72666 1.93125e-17
5535.73116 1.97156e-17
5538.74568 2.00176e-17
5541.75018 2.01609e-17
5544.75468 2.03181e-17
5547.75918 2.05751e-17
5550.77369 2.07511e-17
5553.77819 2.07711e-17
5556.78269 2.07050e-17
5559.78719 2.05431e-17
5562.79169 2.03991e-17
5565.80621 2.01902e-17
5568.81071 1.97022e-17
5571.81521 1.91877e-17
5574.81971 1.87058e-17
5577.83422 1.82013e-17
5580.83872 1.77996e-17
5583.84322 1.73973e-17
5586.84772 1.69397e-17
5589.85222 1.63957e-17
5592.86674 1.59250e-17
5595.87124 1.55513e-17
5598.87574 1.50519e-17
5601.88024 1.45023e-17
5604.89475 1.40362e-17
5607.89925 1.36630e-17
5610.90375 1.33017e-17
5613.90825 1.30877e-17
5616.91275 1.29340e-17
5619.92727 1.27669e-17
5622.93177 1.26255e-17
5625.93627 1.25360e-17
5628.94077 1.24561e-17
5631.95528 1.23905e-17
5634.95978 1.23286e-17
5637.96428 1.23228e-17
5640.96878 1.24114e-17
5643.97328 1.24362e-17
5646.98780 1.23789e-17
5649.99230 1.24112e-17
5652.99680 1.24988e-17
5656.00130 1.24923e-17
5659.01581 1.24556e-17
5662.02031 1.23481e-17
5665.02481 1.21387e-17
5668.02931 1.18604e-17
5671.03381 1.14716e-17
5674.04833 1.10154e-17
5677.05283 1.04646e-17
5680.05733 9.88762e-18
5683.06183 9.32426e-18
5686.07634 8.70581e-18
5689.08084 8.10407e-18
5692.08534 7.43046e-18
5695.08984 6.75901e-18
5698.09434 6.16304e-18
5701.10886 5.60305e-18
5704.11336 5.10832e-18
5707.11786 4.67942e-18
5710.12236 4.36481e-18
5713.13687 4.07839e-18
5716.14137 3.86848e-18
5719.14587 3.68627e-18
5722.15037 3.56110e-18
5725.15487 3.44617e-18
5728.16939 3.33237e-18
5731.17389 3.26688e-18
5734.17839 3.21296e-18
5737.18289 3.20143e-18
5740.19740 3.21685e-18
5743.20190 3.22115e-18
5746.20640 3.25111e-18
5749.21090 3.31504e-18
5752.21540 3.38601e-18
5755.22991 3.44841e-18
5758.23441 3.54881e-18
5761.23891 3.63662e-18
5764.24341 3.69619e-18
5767.25793 3.84109e-18
5770.26243 4.04718e-18
5773.26693 4.23282e-18
5776.27143 4.39210e-18
5779.27593 4.58856e-18
5782.29045 4.86093e-18
5785.29495 5.11529e-18
5788.29945 5.33485e-18
5791.30395 5.58048e-18
5794.31846 5.90414e-18
5797.32296 6.25569e-18
5800.32746 6.54517e-18
5803.33196 6.81732e-18
5806.33646 7.16729e-18
5809.35098 7.44561e-18
5812.35548 7.75533e-18
5815.35998 8.11045e-18
5818.36448 8.45090e-18
5821.37899 8.80526e-18
5824.38349 9.22035e-18
5827.38799 9.65139e-18
5830.39249 1.00956e-17
5833.39699 1.06318e-17
5836.41151 1.10665e-17
5839.41601 1.15231e-17
5842.42051 1.21694e-17
5845.42501 1.28422e-17
5848.42951 1.35269e-17
5851.44402 1.42191e-17
5854.44852 1.48106e-17
5857.45302 1.55028e-17
5860.45752 1.64019e-17
5863.47203 1.72529e-17
5866.47653 1.81202e-17
5869.48103 1.90541e-17
5872.48553 1.99799e-17
5875.49003 2.08962e-17
5878.50455 2.16395e-17
5881.50905 2.23225e-17
5884.51355 2.29488e-17
5887.51805 2.34793e-17
5890.53257 2.39760e-17
5893.53707 2.43157e-17
5896.54157 2.48373e-17
5899.54607 2.53671e-17
5902.55057 2.56711e-17
5905.56508 2.60538e-17
5908.56958 2.63757e-17
5911.57408 2.64293e-17
5914.57858 2.64894e-17
5917.59310 2.65508e-17
5920.59760 2.63796e-17
5923.60210 2.60629e-17
5926.60660 2.58565e-17
5929.61110 2.56979e-17
5932.62561 2.52680e-17
5935.63011 2.47744e-17
5938.63461 2.44219e-17
5941.63911 2.41037e-17
5944.65362 2.36600e-17
5947.65812 2.32855e-17
5950.66262 2.28211e-17
5953.66712 2.22940e-17
5956.67162 2.18262e-17
5959.68614 2.14994e-17
5962.69064 2.11918e-17
5965.69514 2.07463e-17
5968.69964 2.02777e-17
5971.71416 2.01518e-17
5974.71866 2.01778e-17
5977.72316 2.00111e-17
5980.72766 1.96959e-17
5983.73216 1.94006e-17
5986.74667 1.92530e-17
5989.75117 1.91475e-17
5992.75567 1.90224e-17
5995.76017 1.88579e-17
5998.77469 1.86104e-17
6001.77919 1.85067e-17
6004.78369 1.84512e-17
6007.78819 1.82432e-17
6010.79269 1.80803e-17
6013.80720 1.79871e-17
6016.81170 1.78096e-17
6019.81620 1.74698e-17
6022.82070 1.71589e-17
6025.83522 1.69761e-17
6028.83972 1.66450e-17
6031.84422 1.62506e-17
6034.84872 1.59835e-17
6037.85322 1.57847e-17
6040.86773 1.56296e-17
6043.87223 1.54641e-17
6046.87673 1.52754e-17
6049.88123 1.50682e-17
6052.89575 1.48437e-17
6055.90025 1.46765e-17
6058.90474 1.45301e-17
6061.90924 1.43356e-17
6064.91374 1.41938e-17
6067.92826 1.40545e-17
6070.93276 1.38562e-17
6073.93726 1.37142e-17
6076.94176 1.36060e-17
6079.95628 1.35518e-17
6082.96078 1.35308e-17
6085.96528 1.34211e-17
6088.96978 1.33877e-17
6091.97428 1.33648e-17
6094.98879 1.34354e-17
6097.99329 1.35338e-17
6100.99779 1.35126e-17
6104.00229 1.34412e-17
6107.01681 1.33952e-17
6110.02131 1.33736e-17
6113.02581 1.33282e-17
6116.03031 1.33283e-17
6119.03481 1.33199e-17
6122.04932 1.31936e-17
6125.05382 1.31842e-17
6128.05832 1.31989e-17
6131.06282 1.33164e-17
6134.07734 1.35003e-17
6137.08184 1.36577e-17
6140.08634 1.36983e-17
6143.09084 1.38990e-17
6146.09534 1.40076e-17
6149.10985 1.41046e-17
6152.11435 1.42862e-17
6155.11885 1.43921e-17
6158.12335 1.43883e-17
6161.13787 1.44615e-17
6164.14237 1.45713e-17
6167.14687 1.45726e-17
6170.15137 1.44659e-17
6173.15587 1.43595e-17
6176.17038 1.43036e-17
6179.17488 1.42213e-17
6182.17938 1.41326e-17
6185.18388 1.40581e-17
6188.19840 1.40508e-17
6191.20290 1.38614e-17
6194.20740 1.35211e-17
6197.21190 1.32978e-17
6200.21640 1.32443e-17
6203.23091 1.31737e-17
6206.23541 1.30834e-17
6209.23991 1.30883e-17
6212.24441 1.30816e-17
6215.25893 1.30300e-17
6218.26343 1.30913e-17
6221.26793 1.32452e-17
6224.27243 1.34763e-17
6227.27693 1.37182e-17
6230.29144 1.38377e-17
6233.29594 1.40679e-17
6236.30044 1.42394e-17
6239.30494 1.42452e-17
6242.31946 1.43764e-17
6245.32396 1.47203e-17
6248.32846 1.50204e-17
6251.33296 1.52355e-17
6254.33746 1.53908e-17
6257.35197 1.55742e-17
6260.35647 1.58328e-17
6263.36097 1.60125e-17
6266.36547 1.62245e-17
6269.37999 1.64254e-17
6272.38449 1.64550e-17
6275.38899 1.63371e-17
6278.39349 1.61075e-17
6281.39799 1.59420e-17
6284.41250 1.59119e-17
6287.41700 1.58750e-17
6290.42150 1.58348e-17
6293.42600 1.56140e-17
6296.44052 1.52005e-17
6299.44502 1.48294e-17
6302.44952 1.45760e-17
6305.45402 1.42900e-17
6308.45852 1.39651e-17
6311.47303 1.35648e-17
6314.47753 1.30208e-17
6317.48203 1.24925e-17
6320.48653 1.19388e-17
6323.50104 1.14346e-17
6326.50554 1.10838e-17
6329.51004 1.07366e-17
6332.51454 1.05248e-17
6335.51905 1.04851e-17
6338.53356 1.04417e-17
6341.53806 1.05526e-17
6344.54256 1.08350e-17
6347.54706 1.11188e-17
6350.56158 1.14679e-17
6353.56608 1.19055e-17
6356.57058 1.23351e-17
6359.57508 1.28140e-17
6362.57958 1.32468e-17
6365.59409 1.35196e-17
6368.59859 1.37375e-17
6371.60309 1.38031e-17
6374.60759 1.38653e-17
6377.62211 1.39375e-17
6380.62661 1.39004e-17
6383.63111 1.38551e-17
6386.63561 1.38711e-17
6389.64011 1.40125e-17
6392.65462 1.41035e-17
6395.65912 1.41527e-17
6398.66362 1.42563e-17
6401.66812 1.43200e-17
6404.68264 1.43741e-17
6407.68714 1.44293e-17
6410.69164 1.44811e-17
6413.69614 1.44822e-17
6416.70064 1.43993e-17
6419.71515 1.44916e-17
6422.71965 1.46758e-17
6425.72415 1.47636e-17
6428.72865 1.48402e-17
6431.74316 1.49249e-17
6434.74766 1.50252e-17
6437.75216 1.51533e-17
6440.75666 1.52078e-17
6443.76116 1.52835e-17
6446.77568 1.54845e-17
6449.78018 1.57311e-17
6452.78468 1.59076e-17
6455.78918 1.60171e-17
6458.80370 1.60332e-17
6461.80820 1.60410e-17
6464.81270 1.60897e-17
6467.81720 1.61159e-17
6470.82170 1.61787e-17
6473.83621 1.62023e-17
6476.84071 1.61593e-17
6479.84521 1.62405e-17
6482.84971 1.64136e-17
6485.86423 1.65049e-17
6488.86873 1.66541e-17
6491.87323 1.68966e-17
6494.87773 1.70558e-17
6497.88223 1.71408e-17
6500.89674 1.71631e-17
6503.90124 1.71804e-17
6506.90574 1.72406e-17
6509.91024 1.71757e-17
6512.92476 1.70351e-17
6515.92926 1.69713e-17
6518.93376 1.67845e-17
6521.93826 1.65358e-17
6524.94276 1.64374e-17
6527.95727 1.63729e-17
6530.96177 1.62728e-17
6533.96627 1.61014e-17
6536.97077 1.58218e-17
6539.98528 1.54853e-17
6542.98978 1.51849e-17
6545.99428 1.48009e-17
6548.99878 1.42617e-17
6552.00328 1.37841e-17
6555.01780 1.34212e-17
6558.02230 1.31285e-17
6561.02680 1.28586e-17
6564.03130 1.25711e-17
6567.04582 1.23785e-17
6570.05032 1.22333e-17
6573.05482 1.22169e-17
6576.05932 1.22375e-17
6579.06382 1.22086e-17
6582.07833 1.22268e-17
6585.08283 1.23379e-17
6588.08733 1.24387e-17
6591.09183 1.25773e-17
6594.10635 1.27853e-17
6597.11085 1.29610e-17
6600.11535 1.31172e-17
6603.11985 1.33553e-17
6606.12435 1.35723e-17
6609.13886 1.36955e-17
6612.14336 1.38352e-17
6615.14786 1.39837e-17
6618.15236 1.41140e-17
6621.16688 1.43095e-17
6624.17138 1.45230e-17
6627.17588 1.47513e-17
6630.18038 1.50730e-17
6633.18488 1.53222e-17
6636.19939 1.53957e-17
6639.20389 1.54526e-17
6642.20839 1.56102e-17
6645.21289 1.57930e-17
6648.22741 1.59661e-17
6651.23191 1.61993e-17
6654.23641 1.64840e-17
6657.24091 1.68467e-17
6660.24541 1.71670e-17
6663.25992 1.73409e-17
6666.26442 1.74921e-17
6669.26892 1.76794e-17
6672.27342 1.78760e-17
6675.28794 1.80265e-17
6678.29244 1.82089e-17
6681.29694 1.83352e-17
6684.30144 1.83861e-17
6687.30594 1.84606e-17
6690.32045 1.85093e-17
6693.32495 1.84891e-17
6696.32945 1.85935e-17
6699.33395 1.87517e-17
6702.34847 1.88012e-17
6705.35297 1.88201e-17
6708.35747 1.87576e-17
6711.36197 1.86836e-17
6714.36647 1.86232e-17
6717.38098 1.84467e-17
6720.38548 1.81719e-17
6723.38998 1.78801e-17
6726.39448 1.76185e-17
6729.40900 1.73988e-17
6732.41350 1.72177e-17
6735.41800 1.69732e-17
6738.42250 1.67346e-17
6741.42700 1.65323e-17
6744.44151 1.62951e-17
6747.44601 1.61216e-17
6750.45051 1.60179e-17
6753.45501 1.56989e-17
6756.46953 1.53578e-17
6759.47403 1.51471e-17
6762.47853 1.48847e-17
6765.48303 1.45862e-17
6768.48753 1.43563e-17
6771.50204 1.42075e-17
6774.50654 1.40156e-17
6777.51104 1.37342e-17
6780.51554 1.34638e-17
6783.53006 1.32457e-17
6786.53456 1.30830e-17
6789.53906 1.29877e-17
6792.54356 1.29038e-17
6795.54806 1.28045e-17
6798.56257 1.26794e-17
6801.56707 1.24300e-17
6804.57157 1.21742e-17
6807.57607 1.20889e-17
6810.59059 1.21321e-17
6813.59509 1.21396e-17
6816.59959 1.20323e-17
6819.60409 1.19553e-17
6822.60859 1.19055e-17
6825.62310 1.18335e-17
6828.62760 1.17535e-17
6831.63210 1.16485e-17
6834.63660 1.15721e-17
6837.64110 1.15893e-17
6840.65562 1.16888e-17
6843.66012 1.17061e-17
6846.66462 1.16279e-17
6849.66912 1.15541e-17
6852.68363 1.14901e-17
6855.68813 1.14215e-17
6858.69263 1.12849e-17
6861.69713 1.11108e-17
6864.70163 1.09754e-17
6867.71615 1.08369e-17
6870.72065 1.06735e-17
6873.72515 1.05069e-17
6876.72965 1.04124e-17
6879.74416 1.03957e-17
6882.74866 1.05239e-17
6885.75316 1.06570e-17
6888.75766 1.04877e-17
6891.76216 1.00158e-17
6894.77668 9.59303e-18
6897.78118 9.32892e-18
6900.78568 9.12135e-18
6903.79018 8.96111e-18
6906.80469 8.86651e-18
6909.80919 8.72769e-18
6912.81369 8.54755e-18
6915.81819 8.37909e-18
6918.82269 8.15683e-18
6921.83721 7.94440e-18
6924.84171 7.88051e-18
6927.84621 7.80634e-18
6930.85071 7.68395e-18
6933.86522 7.50741e-18
6936.86972 7.29976e-18
6939.87422 7.26319e-18
6942.87872 7.22163e-18
6945.88322 7.15239e-18
6948.89774 7.17673e-18
6951.90224 7.19690e-18
6954.90674 7.25071e-18
6957.91124 7.36889e-18
6960.92575 7.53654e-18
6963.93025 7.67450e-18
6966.93475 7.75067e-18
6969.93925 7.86984e-18
6972.94375 8.03953e-18
6975.95827 8.17964e-18
6978.96277 8.41047e-18
6981.96727 8.67931e-18
6984.97177 8.90282e-18
6987.98628 9.19152e-18
6990.99078 9.57881e-18
6993.99528 9.98362e-18
6996.99978 1.03306e-17
7000.00428 1.06822e-17
7003.01879 1.10524e-17
7006.02329 1.14278e-17
7009.02779 1.19002e-17
7012.03229 1.24095e-17
7015.04681 1.28936e-17
7018.05131 1.34650e-17
7021.05581 1.39309e-17
7024.06031 1.43649e-17
7027.06481 1.50157e-17
7030.07933 1.56320e-17
7033.08383 1.61115e-17
7036.08833 1.67527e-17
7039.09283 1.74967e-17
7042.10734 1.82340e-17
7045.11184 1.90540e-17
7048.11634 1.98402e-17
7051.12084 2.04496e-17
7054.12534 2.08156e-17
7057.13986 2.11122e-17
7060.14436 2.12816e-17
7063.14886 2.14756e-17
7066.15336 2.15731e-17
7069.16787 2.15879e-17
7072.17237 2.17166e-17
7075.17687 2.17692e-17
7078.18137 2.18294e-17
7081.18587 2.19645e-17
7084.20039 2.21622e-17
7087.20489 2.23102e-17
7090.20939 2.23405e-17
7093.21389 2.23364e-17
7096.22840 2.21664e-17
7099.23290 2.19631e-17
7102.23740 2.17772e-17
7105.24190 2.15794e-17
7108.24640 2.13482e-17
7111.26091 2.11587e-17
7114.26541 2.10123e-17
7117.26991 2.08355e-17
7120.27441 2.05235e-17
7123.28893 2.01268e-17
7126.29343 1.96834e-17
7129.29793 1.91345e-17
7132.30243 1.86101e-17
7135.30693 1.82839e-17
7138.32145 1.80128e-17
7141.32595 1.77174e-17
7144.33045 1.75175e-17
7147.33495 1.74325e-17
7150.34946 1.73203e-17
7153.35396 1.70250e-17
7156.35846 1.67610e-17
7159.36296 1.65957e-17
7162.36746 1.63665e-17
7165.38198 1.60557e-17
7168.38648 1.56667e-17
7171.39098 1.52755e-17
7174.39548 1.49921e-17
7177.40999 1.50062e-17
7180.41449 1.50117e-17
7183.41899 1.50364e-17
7186.42349 1.49796e-17
7189.42799 1.47217e-17
7192.44251 1.45052e-17
7195.44701 1.43921e-17
7198.45151 1.42688e-17
7201.45601 1.41719e-17
7204.47052 1.41169e-17
7207.47502 1.42674e-17
7210.47952 1.45277e-17
7213.48402 1.44844e-17
7216.48852 1.46077e-17
7219.50303 1.49034e-17
7222.50753 1.52306e-17
7225.51203 1.54224e-17
7228.51653 1.55768e-17
7231.53105 1.58717e-17
7234.53555 1.60912e-17
7237.54005 1.62022e-17
7240.54455 1.64026e-17
7243.54905 1.66471e-17
7246.56357 1.67867e-17
7249.56807 1.68872e-17
7252.57257 1.70242e-17
7255.57707 1.70133e-17
7258.59158 1.71128e-17
7261.59608 1.72896e-17
7264.60058 1.75711e-17
7267.60508 1.80112e-17
7270.60958 1.83756e-17
7273.62410 1.86445e-17
7276.62860 1.88588e-17
7279.63310 1.90158e-17
7282.63760 1.91423e-17
7285.65211 1.91989e-17
7288.65661 1.92240e-17
7291.66111 1.93766e-17
7294.66561 1.94717e-17
7297.67011 1.96264e-17
7300.68463 1.99579e-17
7303.68913 2.02564e-17
7306.69363 2.04146e-17
7309.69813 2.07161e-17
7312.71264 2.11301e-17
7315.71714 2.13371e-17
7318.72164 2.14579e-17
7321.72614 2.16271e-17
7324.73064 2.17035e-17
7327.74516 2.18239e-17
7330.74966 2.20346e-17
7333.75416 2.20779e-17
7336.75866 2.19837e-17
7339.77317 2.18674e-17
7342.77767 2.17886e-17
7345.78217 2.16270e-17
7348.78667 2.14121e-17
7351.79117 2.12842e-17
7354.80569 2.11379e-17
7357.81019 2.08667e-17
7360.81469 2.05669e-17
7363.81919 2.01617e-17
7366.83370 1.96017e-17
7369.83820 1.91783e-17
7372.84270 1.88577e-17
7375.84720 1.85828e-17
7378.85170 1.84076e-17
7381.86622 1.82100e-17
7384.87072 1.79443e-17
7387.87522 1.77366e-17
7390.87972 1.75192e-17
7393.89423 1.72303e-17
7396.89873 1.68485e-17
7399.90323 1.65812e-17
7402.90773 1.63872e-17
7405.91223 1.59645e-17
7408.92675 1.56454e-17
7411.93125 1.55326e-17
7414.93575 1.53299e-17
7417.94025 1.51430e-17
7420.95476 1.49375e-17
7423.95926 1.48166e-17
7426.96376 1.47862e-17
7429.96826 1.46202e-17
7432.97276 1.44607e-17
7435.98728 1.43272e-17
7438.99178 1.41982e-17
7441.99628 1.40767e-17
7445.00078 1.38848e-17
7448.01529 1.37818e-17
7451.01979 1.37419e-17
7454.02429 1.36713e-17
7457.02879 1.36634e-17
7460.03329 1.37371e-17
7463.04781 1.37875e-17
7466.05231 1.38288e-17
7469.05681 1.38902e-17
7472.06131 1.38716e-17
7475.07582 1.38051e-17
7478.08032 1.36450e-17
7481.08482 1.35189e-17
7484.08932 1.33543e-17
7487.09382 1.32279e-17
7490.10834 1.30110e-17
7493.11284 1.28197e-17
7496.11734 1.28133e-17
7499.12184 1.27070e-17
7502.13635 1.24862e-17
7505.14085 1.24760e-17
7508.14535 1.25571e-17
7511.14985 1.24371e-17
7514.15435 1.22504e-17
7517.16887 1.22037e-17
7520.17337 1.20247e-17
7523.17787 1.17612e-17
7526.18237 1.15264e-17
7529.19688 1.13442e-17
7532.20138 1.12343e-17
7535.20588 1.11896e-17
7538.21038 1.10695e-17
7541.21488 1.09409e-17
7544.22940 1.08690e-17
7547.23390 1.08236e-17
7550.23840 1.07850e-17
7553.24290 1.07448e-17
7556.25741 1.07134e-17
7559.26191 1.06346e-17
7562.26641 1.05313e-17
7565.27091 1.03578e-17
7568.27541 1.01145e-17
7571.28993 9.85970e-18
7574.29443 9.67261e-18
7577.29893 9.52879e-18
7580.30343 9.43646e-18
7583.31794 9.33964e-18
7586.32244 9.24118e-18
7589.32694 9.19908e-18
7592.33144 9.17992e-18
7595.33594 9.23878e-18
7598.35046 9.43880e-18
7601.35496 9.65380e-18
7604.35946 9.47194e-18
7607.36396 9.05847e-18
7610.37847 8.80446e-18
7613.38297 8.59144e-18
7616.38747 8.31739e-18
7619.39197 8.59840e-18
7622.39647 8.63461e-18
7625.41099 9.07806e-18
7628.41549 9.34493e-18
7631.41999 9.11803e-18
7634.42449 8.82734e-18
7637.43900 8.49709e-18
7640.44350 8.32117e-18
7643.44800 8.30179e-18
7646.45250 8.23087e-18
7649.45700 8.16602e-18
7652.47152 8.07338e-18
7655.47602 8.00589e-18
7658.48052 7.95015e-18
7661.48502 8.03725e-18
7664.49953 7.92374e-18
7667.50403 7.89327e-18
7670.50853 8.12524e-18
7673.51303 8.29180e-18
7676.51753 8.40558e-18
7679.53204 8.45563e-18
7682.53654 8.36718e-18
7685.54104 8.32372e-18
7688.54554 8.29748e-18
7691.56006 8.36095e-18
7694.56456 8.39326e-18
7697.56906 8.32907e-18
7700.57356 8.31730e-18
7703.57806 8.30768e-18
7706.59258 8.42347e-18
7709.59708 8.56899e-18
7712.60158 8.64713e-18
7715.60608 8.75092e-18
7718.62059 8.95688e-18
7721.62509 9.20464e-18
7724.62959 9.38046e-18
7727.63409 9.47127e-18
7730.63859 9.53483e-18
7733.65311 9.77144e-18
7736.65761 1.00616e-17
7739.66211 1.02845e-17
7742.66661 1.04302e-17
7745.68112 1.06333e-17
7748.68562 1.08992e-17
7751.69012 1.10285e-17
7754.69462 1.10789e-17
7757.69912 1.13626e-17
7760.71364 1.17680e-17
7763.71814 1.20389e-17
7766.72264 1.21987e-17
7769.72714 1.24471e-17
7772.74165 1.27315e-17
7775.74615 1.30014e-17
7778.75065 1.31887e-17
7781.75515 1.32576e-17
7784.75965 1.33913e-17
7787.77416 1.35320e-17
7790.77866 1.35574e-17
7793.78316 1.35435e-17
7796.78766 1.36890e-17
7799.79216 1.37898e-17
7802.80668 1.39677e-17
7805.81118 1.42027e-17
7808.81568 1.43514e-17
7811.82018 1.44966e-17
7814.83470 1.45706e-17
7817.83920 1.45205e-17
7820.84370 1.43306e-17
7823.84820 1.41880e-17
7826.85270 1.39879e-17
7829.86721 1.36343e-17
7832.87171 1.33238e-17
7835.87621 1.31687e-17
7838.88071 1.29887e-17
7841.89523 1.27228e-17
7844.89973 1.24385e-17
7847.90423 1.21868e-17
7850.90873 1.20054e-17
7853.91323 1.19425e-17
7856.92774 1.18873e-17
7859.93224 1.17246e-17
7862.93674 1.14498e-17
7865.94124 1.12148e-17
7868.95576 1.10323e-17
7871.96026 1.08643e-17
7874.96476 1.07259e-17
7877.96926 1.05633e-17
7880.97376 1.03018e-17
7883.98827 1.00484e-17
7886.99277 9.95480e-18
7889.99727 9.99140e-18
7893.00177 9.96833e-18
7896.01628 9.81320e-18
7899.02078 9.80229e-18
7902.02528 9.83617e-18
7905.02978 9.74644e-18
7908.03428 9.68182e-18
7911.04880 9.60799e-18
7914.05330 9.53705e-18
7917.05780 9.45594e-18
7920.06230 9.34774e-18
7923.07682 9.24598e-18
7926.08132 9.13709e-18
7929.08582 9.10136e-18
7932.09032 9.08705e-18
7935.09482 9.03317e-18
7938.10933 9.09843e-18
7941.11383 9.21470e-18
7944.11833 9.31470e-18
7947.12283 9.47800e-18
7950.13735 9.54307e-18
7953.14185 9.43121e-18
7956.14635 9.34492e-18
7959.15085 9.35869e-18
7962.15535 9.34435e-18
7965.16986 9.24467e-18
7968.17436 9.14676e-18
7971.17886 9.01388e-18
7974.18336 8.89123e-18
7977.19788 8.81181e-18
7980.20238 8.91125e-18
7983.20688 9.07603e-18
7986.21138 9.02460e-18
7989.21588 8.92509e-18
7992.23039 8.93164e-18
7995.23489 8.95642e-18
7998.23939 8.95214e-18
8001.24389 8.87660e-18
8004.25841 8.88036e-18
8007.26291 8.87424e-18
8010.26741 8.80274e-18
8013.27191 8.66234e-18
8016.27641 8.55805e-18
8019.29092 8.46271e-18
8022.29542 8.33452e-18
8025.29992 8.29821e-18
8028.30442 8.31501e-18
8031.31894 8.29747e-18
8034.32344 8.16360e-18
8037.32794 8.07184e-18
8040.33244 8.08136e-18
8043.33694 8.05670e-18
8046.35145 8.03851e-18
8049.35595 7.96081e-18
8052.36045 7.92783e-18
8055.36495 7.90848e-18
8058.37947 7.85111e-18
8061.38397 7.81273e-18
8064.38847 7.81066e-18
8067.39297 7.72683e-18
8070.39747 7.60117e-18
8073.41198 7.57697e-18
8076.41648 7.53022e-18
8079.42098 7.42140e-18
8082.42548 7.38929e-18
8085.44000 7.41254e-18
8088.44450 7.30619e-18
8091.44900 7.15598e-18
8094.45350 7.05645e-18
8097.45800 6.98392e-18
8100.47251 6.94827e-18
8103.47701 6.96354e-18
8106.48151 6.99477e-18
8109.48601 7.01710e-18
8112.50053 7.07538e-18
8115.50503 7.08464e-18
8118.50953 7.07246e-18
8121.51403 7.15088e-18
8124.51853 7.19184e-18
8127.53304 7.13490e-18
8130.53754 7.13936e-18
8133.54204 7.18994e-18
8136.54654 7.13239e-18
8139.56106 6.94068e-18
8142.56556 6.83816e-18
8145.57006 6.78150e-18
8148.57456 6.70030e-18
8151.57906 6.62728e-18
8154.59357 6.65220e-18
8157.59807 6.73752e-18
8160.60257 6.77426e-18
8163.60707 6.78476e-18
8166.62159 6.72096e-18
8169.62609 6.68247e-18
8172.63059 6.70155e-18
8175.63509 6.65214e-18
8178.63959 6.67488e-18
8181.65410 6.68751e-18
8184.65860 6.64990e-18
8187.66310 6.63055e-18
8190.66760 6.60078e-18
8193.68211 6.62570e-18
8196.68662 6.68800e-18
8199.69111 6.65361e-18
8202.69562 6.62178e-18
8205.70011 6.67507e-18
8208.71463 6.79602e-18
8211.71913 6.95938e-18
8214.72363 7.02033e-18
8217.72813 6.99943e-18
8220.74265 6.96498e-18
8223.74715 6.95264e-18
8226.75165 6.90625e-18
8229.75615 6.79610e-18
8232.76065 6.75621e-18
8235.77516 6.73042e-18
8238.77966 6.67171e-18
8241.78416 6.73067e-18
8244.78866 6.86634e-18
8247.80318 6.97692e-18
8250.80768 6.89332e-18
8253.81218 6.82499e-18
8256.81668 6.88677e-18
8259.82118 6.78370e-18
8262.83569 6.64720e-18
8265.84019 6.59872e-18
8268.84469 6.39542e-18
8271.84919 6.21692e-18
8274.86370 6.09974e-18
8277.86821 6.00515e-18
8280.87270 5.88069e-18
8283.87721 5.77277e-18
8286.88170 5.68331e-18
8289.89622 5.55116e-18
8292.90072 5.44541e-18
8295.90522 5.40715e-18
8298.90972 5.31637e-18
8301.92424 5.16571e-18
8304.92873 5.02671e-18
8307.93324 4.83254e-18
8310.93773 4.63462e-18
8313.94224 4.47064e-18
8316.95675 4.32490e-18
8319.96125 4.15663e-18
8322.96575 3.94520e-18
8325.97025 3.80942e-18
8328.98477 3.74961e-18
8331.98927 3.63483e-18
8334.99377 3.53167e-18
8337.99827 3.39458e-18
8341.00277 3.29061e-18
8344.01728 3.20443e-18
8347.02178 3.03476e-18
8350.02628 2.95028e-18
8353.03078 2.86783e-18
8356.04530 2.70336e-18
8359.04980 2.61279e-18
8362.05430 2.53892e-18
8365.05880 2.45763e-18
8368.06330 2.33471e-18
8371.07781 2.22415e-18
8374.08231 2.20015e-18
8377.08681 2.16007e-18
8380.09131 2.09197e-18
8383.10583 2.01325e-18
8386.11032 1.98412e-18
8389.11483 2.05471e-18
8392.11932 2.14417e-18
8395.12383 2.24948e-18
8398.13834 2.31022e-18
8401.14284 2.30318e-18
8404.14734 2.39758e-18
8407.15184 2.56396e-18
8410.15634 2.66966e-18
8413.17086 2.76671e-18
8416.17535 2.89610e-18
8419.17986 3.02791e-18
8422.18435 3.18020e-18
8425.19887 3.30984e-18
8428.20337 3.52954e-18
8431.20787 3.71063e-18
8434.21237 3.78990e-18
8437.21687 4.04073e-18
8440.23139 4.31431e-18
8443.23589 4.46101e-18
8446.24039 4.67661e-18
8449.24489 5.00032e-18
8452.25940 5.21936e-18
8455.26390 5.37775e-18
8458.26840 5.61613e-18
8461.27290 5.84018e-18
8464.27740 6.06643e-18
8467.29192 6.19654e-18
8470.29642 6.31397e-18
8473.30092 6.55608e-18
8476.30542 6.70945e-18
8479.31993 6.91677e-18
8482.32443 7.18667e-18
8485.32893 7.38468e-18
8488.33343 7.53347e-18
8491.33793 7.73553e-18
8494.35245 7.99250e-18
8497.35694 8.24837e-18
8500.36145 8.41790e-18
8503.36594 8.56149e-18
8506.38046 8.68376e-18
8509.38496 8.78156e-18
8512.38946 8.88966e-18
8515.39396 8.87750e-18
8518.39846 8.99595e-18
8521.41297 9.18883e-18
8524.41748 9.25413e-18
8527.42197 9.37034e-18
8530.42648 9.66022e-18
8533.44099 9.87730e-18
8536.44549 1.01255e-17
8539.44999 1.05357e-17
8542.45449 1.09368e-17
8545.46901 1.11914e-17
8548.47350 1.14236e-17
8551.47801 1.16489e-17
8554.48250 1.17904e-17
8557.48701 1.18791e-17
8560.50152 1.20800e-17
8563.50602 1.23370e-17
8566.51052 1.25278e-17
8569.51502 1.26990e-17
8572.51952 1.29365e-17
8575.53404 1.32164e-17
8578.53854 1.36551e-17
8581.54304 1.40419e-17
8584.54754 1.42887e-17
8587.56205 1.47420e-17
8590.56655 1.52902e-17
8593.57105 1.56571e-17
8596.57555 1.58479e-17
8599.59007 1.61381e-17
8602.59456 1.65186e-17
8605.59907 1.68449e-17
8608.60356 1.71032e-17
8611.60807 1.73749e-17
8614.62258 1.77370e-17
8617.62708 1.81621e-17
8620.63158 1.86639e-17
8623.63608 1.91843e-17
8626.64058 1.97760e-17
8629.65510 2.04491e-17
8632.65959 2.12722e-17
8635.66410 2.20936e-17
8638.66859 2.28810e-17
8641.68311 2.34762e-17
8644.68761 2.40373e-17
8647.69211 2.46370e-17
8650.69661 2.50725e-17
8653.71112 2.53410e-17
8656.71563 2.55334e-17
8659.72012 2.55254e-17
8662.72463 2.56781e-17
8665.72912 2.59302e-17
8668.74364 2.58240e-17
8671.74814 2.56203e-17
8674.75264 2.56827e-17
8677.75714 2.60269e-17
8680.76164 2.63193e-17
8683.77616 2.61830e-17
8686.78066 2.61279e-17
8689.78516 2.63667e-17
8692.78966 2.64273e-17
8695.80417 2.65162e-17
8698.80867 2.65651e-17
8701.81317 2.66759e-17
8704.81767 2.66041e-17
8707.83219 2.63741e-17
8710.83669 2.58215e-17
8713.84119 2.51676e-17
8716.84569 2.47291e-17
8719.85019 2.44201e-17
8722.86470 2.41167e-17
8725.86920 2.35515e-17
8728.87370 2.30337e-17
8731.87820 2.26451e-17
8734.88270 2.22025e-17
8737.89722 2.19800e-17
8740.90171 2.18870e-17
8743.90622 2.16427e-17
8746.91071 2.12752e-17
8749.92523 2.09047e-17
8752.92973 2.06569e-17
8755.93423 2.05571e-17
8758.93873 2.02107e-17
8761.95325 1.99202e-17
8764.95774 1.97045e-17
8767.96225 1.92314e-17
8770.96674 1.89075e-17
8773.97125 1.87313e-17
8776.98576 1.83262e-17
8779.99026 1.79323e-17
8782.99476 1.76277e-17
8785.99926 1.73696e-17
8789.00376 1.71621e-17
8792.01828 1.69748e-17
8795.02278 1.69086e-17
8798.02728 1.68835e-17
8801.03178 1.67333e-17
8804.04629 1.65369e-17
8807.05079 1.64954e-17
8810.05529 1.64129e-17
8813.05979 1.61749e-17
8816.07431 1.59537e-17
8819.07881 1.58744e-17
8822.08331 1.59493e-17
8825.08781 1.57502e-17
8828.09231 1.52760e-17
8831.10682 1.50869e-17
8834.11132 1.48933e-17
8837.11582 1.45224e-17
8840.12032 1.41931e-17
8843.12482 1.38695e-17
8846.13933 1.35794e-17
8849.14384 1.34101e-17
8852.14833 1.32319e-17
8855.15284 1.28947e-17
8858.16735 1.27254e-17
8861.17185 1.25427e-17
8864.17635 1.22489e-17
8867.18085 1.20766e-17
8870.19536 1.19432e-17
8873.19987 1.17828e-17
8876.20436 1.15983e-17
8879.20887 1.13295e-17
8882.21336 1.11076e-17
8885.22788 1.10357e-17
8888.23238 1.09265e-17
8891.23688 1.05726e-17
8894.24138 1.02742e-17
8897.24588 1.00655e-17
8900.26040 9.92740e-18
8903.26490 9.70964e-18
8906.26940 9.43055e-18
8909.27390 9.37985e-18
8912.28841 9.40651e-18
8915.29291 9.31815e-18
8918.29741 8.95292e-18
8921.30191 8.63912e-18
8924.30641 8.58300e-18
8927.32093 8.59135e-18
8930.32543 8.54931e-18
8933.32993 8.39586e-18
8936.33443 8.25656e-18
8939.34894 8.24249e-18
8942.35344 8.13284e-18
8945.35794 7.99529e-18
8948.36244 7.94918e-18
8951.36694 7.87285e-18
8954.38146 7.66051e-18
8957.38595 7.56983e-18
8960.39046 7.46598e-18
8963.39495 7.43085e-18
8966.40947 7.45555e-18
8969.41397 7.30954e-18
8972.41847 7.12527e-18
8975.42297 7.08597e-18
8978.42747 7.04619e-18
8981.44198 7.05584e-18
8984.44649 7.12425e-18
8987.45098 7.08775e-18
8990.45549 7.05178e-18
8993.47000 7.07701e-18
8996.47450 7.05666e-18
8999.47900 6.91983e-18
9002.48350 6.84128e-18
9005.48800 6.87118e-18
9008.50252 6.89229e-18
9011.50702 6.95015e-18
9014.51152 7.08648e-18
9017.51602 7.14460e-18
9020.53053 7.20559e-18
9023.53503 7.18806e-18
9026.53953 7.05271e-18
9029.54403 6.95329e-18
9032.54853 7.03698e-18
9035.56305 7.17427e-18
9038.56755 7.19790e-18
9041.57205 7.21446e-18
9044.57655 7.16496e-18
9047.59106 7.03049e-18
9050.59556 7.03213e-18
9053.60006 7.10256e-18
9056.60456 7.20286e-18
9059.60906 7.16488e-18
9062.62357 7.05253e-18
9065.62808 7.07430e-18
9068.63257 7.06779e-18
9071.63708 7.07598e-18
9074.65159 7.06219e-18
9077.65609 7.00268e-18
9080.66059 6.95878e-18
9083.66509 6.98245e-18
9086.66959 7.12046e-18
9089.68411 7.11671e-18
9092.68860 7.14686e-18
9095.69311 7.23094e-18
9098.69760 7.18171e-18
