# wavelength flux
3500.18241 2.01955e-18
3503.17690 1.89136e-18
3506.18140 1.95569e-18
3509.17588 1.76702e-18
3512.17036 1.79097e-18
3515.16485 2.08280e-18
3518.16935 1.99712e-18
3521.16384 2.05008e-18
3524.15832 2.45017e-18
3527.15281 2.38771e-18
3530.15731 2.11608e-18
3533.15179 1.96390e-18
3536.14628 1.96478e-18
3539.15078 2.14771e-18
3542.14526 2.28354e-18
3545.13974 2.20095e-18
3548.13423 1.81476e-18
3551.13873 1.70112e-18
3554.13322 1.65143e-18
3557.12770 1.60896e-18
3560.13220 1.82692e-18
3563.12669 1.89635e-18
3566.12117 1.87914e-18
3569.11566 1.95255e-18
3572.12016 1.93410e-18
3575.11464 1.92359e-18
3578.10913 1.92077e-18
3581.10361 1.94417e-18
3584.10811 1.98111e-18
3587.10260 1.84315e-18
3590.09708 1.73675e-18
3593.10158 1.71815e-18
3596.09607 1.76898e-18
3599.09055 1.75091e-18
3602.08504 1.72628e-18
3605.08954 1.73789e-18
3608.08402 1.60274e-18
3611.07851 1.40521e-18
3614.08301 1.43467e-18
3617.07749 1.63538e-18
3620.07198 1.66443e-18
3623.06646 1.52071e-18
3626.07096 1.42060e-18
3629.06545 1.51540e-18
3632.05993 1.56194e-18
3635.05442 1.54805e-18
3638.05892 1.52574e-18
3641.05340 1.58420e-18
3644.04789 1.70622e-18
3647.05239 1.79954e-18
3650.04687 1.78224e-18
3653.04136 1.69178e-18
3656.03584 1.73783e-18
3659.04034 1.85745e-18
3662.03483 1.79341e-18
3665.02931 1.87314e-18
3668.03381 2.02356e-18
3671.02830 1.99245e-18
3674.02278 2.10682e-18
3677.01727 2.27895e-18
3680.02177 2.43167e-18
3683.01625 2.44925e-18
3686.01073 2.40253e-18
3689.01523 2.45094e-18
3692.00972 2.66736e-18
3695.00421 2.76814e-18
3697.99869 2.82343e-18
3701.00319 2.87656e-18
3703.99768 2.92090e-18
3706.99216 2.90116e-18
3709.98664 2.96633e-18
3712.99114 3.11841e-18
3715.98563 3.11910e-18
3718.98011 3.17894e-18
3721.98461 3.21397e-18
3724.97910 3.03812e-18
3727.97359 2.98725e-18
3730.96807 3.10324e-18
3733.97257 3.12368e-18
3736.96706 3.11740e-18
3739.96154 3.11125e-18
3742.96604 3.01376e-18
3745.96052 2.89903e-18
3748.95501 2.73317e-18
3751.94950 2.43805e-18
3754.95400 2.29880e-18
3757.94848 2.34193e-18
3760.94297 2.23004e-18
3763.93745 2.00816e-18
3766.94195 1.86097e-18
3769.93644 1.78271e-18
3772.93092 1.59729e-18
3775.93542 1.46706e-18
3778.92991 1.40724e-18
3781.92439 1.39634e-18
3784.91888 1.40196e-18
3787.92338 1.39761e-18
3790.91786 1.33262e-18
3793.91235 1.26202e-18
3796.91685 1.18456e-18
3799.91133 1.11709e-18
3802.90582 1.06565e-18
3805.90030 1.12858e-18
3808.90480 1.22324e-18
3811.89929 1.20131e-18
3814.89377 1.24178e-18
3817.89827 1.26695e-18
3820.89276 1.24481e-18
3823.88724 1.23395e-18
3826.88173 1.29434e-18
3829.88623 1.38369e-18
3832.88071 1.42807e-18
3835.87520 1.35680e-18
3838.86968 1.45945e-18
3841.87418 1.62943e-18
3844.86867 1.65462e-18
3847.86315 1.65655e-18
3850.86765 1.72939e-18
3853.86214 1.82571e-18
3856.85662 1.89894e-18
3859.85111 2.02406e-18
3862.85561 2.20750e-18
3865.85009 2.32751e-18
3868.84458 2.39734e-18
3871.84908 2.54814e-18
3874.84356 2.76056e-18
3877.83805 2.90485e-18
3880.83253 3.07926e-18
3883.83703 3.34925e-18
3886.83152 3.61750e-18
3889.82600 3.88447e-18
3892.82049 4.08278e-18
3895.82499 4.30906e-18
3898.81947 4.64228e-18
3901.81396 4.95295e-18
3904.81846 5.16727e-18
3907.81294 5.37307e-18
3910.80742 5.59451e-18
3913.80191 5.95832e-18
3916.80641 6.25761e-18
3919.80089 6.37054e-18
3922.79538 6.46569e-18
3925.79988 6.53970e-18
3928.79437 6.62403e-18
3931.78885 6.72367e-18
3934.78334 6.84890e-18
3937.78784 6.96237e-18
3940.78232 7.00742e-18
3943.77680 7.10016e-18
3946.78130 7.22124e-18
3949.77579 7.24055e-18
3952.77028 7.29173e-18
3955.76476 7.38175e-18
3958.76926 7.46476e-18
3961.76375 7.57530e-18
3964.75823 7.73756e-18
3967.75272 7.81132e-18
3970.75722 7.75747e-18
3973.75170 7.82161e-18
3976.74618 8.12824e-18
3979.75068 8.40926e-18
3982.74517 8.61023e-18
3985.73966 8.87088e-18
3988.73414 9.14142e-18
3991.73864 9.26818e-18
3994.73313 9.45579e-18
3997.72761 9.73583e-18
4000.73211 9.99220e-18
4003.72660 1.01933e-17
4006.72108 1.03472e-17
4009.71557 1.03611e-17
4012.72007 1.04159e-17
4015.71455 1.04615e-17
4018.70904 1.06420e-17
4021.70352 1.08702e-17
4024.70802 1.10277e-17
4027.70251 1.09496e-17
4030.69699 1.08998e-17
4033.70149 1.11930e-17
4036.69598 1.14478e-17
4039.69046 1.16273e-17
4042.68495 1.17893e-17
4045.68945 1.17323e-17
4048.68393 1.17479e-17
4051.67842 1.17666e-17
4054.68292 1.16296e-17
4057.67740 1.15122e-17
4060.67189 1.14105e-17
4063.66637 1.11572e-17
4066.67087 1.08168e-17
4069.66536 1.04734e-17
4072.65984 1.03204e-17
4075.65433 1.01586e-17
4078.65883 9.82553e-18
4081.65331 9.43469e-18
4084.64780 9.10256e-18
4087.65230 8.80119e-18
4090.64678 8.48982e-18
4093.64127 8.13667e-18
4096.63575 7.79525e-18
4099.64025 7.58869e-18
4102.63473 7.52165e-18
4105.62922 7.38504e-18
4108.63372 7.15452e-18
4111.62821 6.98079e-18
4114.62269 6.82376e-18
4117.61718 6.71668e-18
4120.62168 6.60697e-18
4123.61616 6.56153e-18
4126.61065 6.53316e-18
4129.61515 6.41640e-18
4132.60963 6.16665e-18
4135.60412 5.99376e-18
4138.59860 6.01730e-18
4141.60310 6.06814e-18
4144.59759 5.99021e-18
4147.59207 5.81099e-18
4150.58655 5.69777e-18
4153.59105 5.65458e-18
4156.58554 5.60307e-18
4159.58003 5.55747e-18
4162.58453 5.47076e-18
4165.57901 5.43707e-18
4168.57350 5.28456e-18
4171.56798 5.11740e-18
4174.57248 5.07494e-18
4177.56697 5.03059e-18
4180.56145 4.92223e-18
4183.56595 4.88126e-18
4186.56044 4.82377e-18
4189.55492 4.76716e-18
4192.54941 4.77022e-18
4195.55391 4.80316e-18
4198.54839 4.79203e-18
4201.54288 4.71794e-18
4204.54738 4.63423e-18
4207.54186 4.63780e-18
4210.53634 4.57892e-18
4213.53083 4.51577e-18
4216.53533 4.52464e-18
4219.52981 4.56614e-18
4222.52430 4.59700e-18
4225.51879 4.62904e-18
4228.52329 4.67441e-18
4231.51777 4.69995e-18
4234.51226 4.79582e-18
4237.51676 4.84558e-18
4240.51124 4.83964e-18
4243.50572 4.86856e-18
4246.50021 4.91105e-18
4249.50471 4.92482e-18
4252.49920 5.02228e-18
4255.49368 5.12722e-18
4258.49818 5.20744e-18
4261.49266 5.33336e-18
4264.48715 5.43184e-18
4267.48164 5.47444e-18
4270.48614 5.58637e-18
4273.48062 5.73532e-18
4276.47510 5.72074e-18
4279.46959 5.77343e-18
4282.47409 5.84411e-18
4285.46858 5.85024e-18
4288.46306 5.85424e-18
4291.46756 5.86798e-18
4294.46205 5.90796e-18
4297.45653 5.93552e-18
4300.45102 5.92953e-18
4303.45552 5.99376e-18
4306.45000 5.94816e-18
4309.44448 5.85350e-18
4312.44898 5.91851e-18
4315.44347 6.01686e-18
4318.43796 6.07455e-18
4321.43244 6.06635e-18
4324.43694 6.09221e-18
4327.43142 6.09119e-18
4330.42591 6.05198e-18
4333.43041 6.08311e-18
4336.42490 6.02209e-18
4339.41938 5.88899e-18
4342.41387 5.85135e-18
4345.41837 5.88324e-18
4348.41285 5.85056e-18
4351.40734 5.74973e-18
4354.40182 5.68476e-18
4357.40632 5.59738e-18
4360.40081 5.51317e-18
4363.39529 5.49186e-18
4366.39979 5.44859e-18
4369.39428 5.37380e-18
4372.38876 5.33075e-18
4375.38324 5.27651e-18
4378.38774 5.24355e-18
4381.38223 5.25252e-18
4384.37672 5.25198e-18
4387.38122 5.23855e-18
4390.37570 5.22278e-18
4393.37018 5.18203e-18
4396.36467 5.19285e-18
4399.36917 5.26373e-18
4402.36366 5.31643e-18
4405.35814 5.27834e-18
4408.35263 5.26551e-18
4411.35713 5.34229e-18
4414.35161 5.38381e-18
4417.34609 5.29951e-18
4420.35059 5.18607e-18
4423.34508 5.22277e-18
4426.33957 5.32255e-18
4429.33405 5.35203e-18
4432.33855 5.31658e-18
4435.33303 5.20019e-18
4438.32752 5.18660e-18
4441.33202 5.24009e-18
4444.32650 5.22375e-18
4447.32099 5.16599e-18
4450.31548 5.15445e-18
4453.31998 5.15949e-18
4456.31446 5.15086e-18
4459.30895 5.21752e-18
4462.30343 5.23548e-18
4465.30793 5.23521e-18
4468.30242 5.31129e-18
4471.29690 5.37753e-18
4474.30140 5.39808e-18
4477.29589 5.45819e-18
4480.29037 5.52617e-18
4483.28485 5.55444e-18
4486.28935 5.58692e-18
4489.28384 5.71408e-18
4492.27833 5.86250e-18
4495.28283 5.96174e-18
4498.27731 6.07799e-18
4501.27179 6.23188e-18
4504.26628 6.39396e-18
4507.27078 6.53431e-18
4510.26527 6.71187e-18
4513.25975 6.99972e-18
4516.26425 7.20183e-18
4519.25874 7.33866e-18
4522.25322 7.49312e-18
4525.24771 7.73644e-18
4528.25221 8.00096e-18
4531.24669 8.23580e-18
4534.24118 8.46585e-18
4537.23566 8.67311e-18
4540.24016 8.91964e-18
4543.23465 9.08484e-18
4546.22913 9.24975e-18
4549.23363 9.45376e-18
4552.22811 9.66388e-18
4555.22260 9.87723e-18
4558.21709 1.00610e-17
4561.22159 1.01390e-17
4564.21607 1.02623e-17
4567.21056 1.04512e-17
4570.21506 1.06653e-17
4573.20954 1.08065e-17
4576.20403 1.08588e-17
4579.19851 1.10453e-17
4582.20301 1.13202e-17
4585.19750 1.15596e-17
4588.19198 1.17714e-17
4591.18647 1.19462e-17
4594.19097 1.19501e-17
4597.18545 1.18278e-17
4600.17994 1.18206e-17
4603.18444 1.19669e-17
4606.17892 1.21718e-17
4609.17341 1.23558e-17
4612.16789 1.23706e-17
4615.17239 1.23562e-17
4618.16687 1.24004e-17
4621.16136 1.24477e-17
4624.16586 1.24956e-17
4627.16035 1.25943e-17
4630.15483 1.26976e-17
4633.14932 1.27236e-17
4636.15382 1.27096e-17
4639.14830 1.27819e-17
4642.14279 1.28425e-17
4645.14729 1.27830e-17
4648.14177 1.26617e-17
4651.13626 1.26287e-17
4654.13074 1.25135e-17
4657.13524 1.21651e-17
4660.12972 1.17507e-17
4663.12421 1.13422e-17
4666.11870 1.08921e-17
4669.12320 1.04227e-17
4672.11768 9.89146e-18
4675.11216 9.34580e-18
4678.11666 8.86279e-18
4681.11115 8.41885e-18
4684.10564 8.02945e-18
4687.10012 7.82656e-18
4690.10462 7.79250e-18
4693.09911 7.78562e-18
4696.09359 7.88602e-18
4699.09809 8.07944e-18
4702.09258 8.36542e-18
4705.08706 8.67943e-18
4708.08155 9.03955e-18
4711.08605 9.46324e-18
4714.08053 9.81442e-18
4717.07502 1.01755e-17
4720.07952 1.04894e-17
4723.07400 1.07936e-17
4726.06848 1.11062e-17
4729.06297 1.13367e-17
4732.06747 1.14604e-17
4735.06196 1.16457e-17
4738.05644 1.17927e-17
4741.05093 1.18264e-17
4744.05543 1.18900e-17
4747.04991 1.19402e-17
4750.04440 1.20062e-17
4753.04890 1.20454e-17
4756.04338 1.20286e-17
4759.03787 1.19216e-17
4762.03235 1.18798e-17
4765.03685 1.19553e-17
4768.03134 1.19573e-17
4771.02582 1.18894e-17
4774.03032 1.18968e-17
4777.02481 1.18897e-17
4780.01929 1.17872e-17
4783.01378 1.17596e-17
4786.01828 1.17422e-17
4789.01276 1.16560e-17
4792.00724 1.15550e-17
4795.00173 1.13792e-17
4798.00623 1.11382e-17
4801.00072 1.09398e-17
4803.99520 1.08221e-17
4806.99970 1.06572e-17
4809.99419 1.04544e-17
4812.98867 1.02904e-17
4815.98316 1.01194e-17
4818.98766 9.98772e-18
4821.98214 9.91150e-18
4824.97663 9.88467e-18
4827.98113 9.87255e-18
4830.97561 9.71046e-18
4833.97009 9.63779e-18
4836.96458 9.75563e-18
4839.96908 9.83381e-18
4842.96357 9.92126e-18
4845.95805 9.96462e-18
4848.95253 9.98041e-18
4851.95703 1.00439e-17
4854.95152 1.00079e-17
4857.94601 9.93458e-18
4860.95051 9.98213e-18
4863.94499 1.00869e-17
4866.93948 1.01604e-17
4869.93396 1.01665e-17
4872.93846 1.01205e-17
4875.93295 1.01407e-17
4878.92743 1.01369e-17
4881.93193 9.97097e-18
4884.92641 9.82508e-18
4887.92090 9.81281e-18
4890.91539 9.82016e-18
4893.91989 9.74733e-18
4896.91437 9.67599e-18
4899.90885 9.58923e-18
4902.91335 9.57495e-18
4905.90784 9.69605e-18
4908.90233 9.73498e-18
4911.89681 9.78791e-18
4914.90131 9.89296e-18
4917.89580 9.99416e-18
4920.89028 1.01421e-17
4923.88477 1.03045e-17
4926.88927 1.04126e-17
4929.88375 1.05367e-17
4932.87824 1.07509e-17
4935.88274 1.09559e-17
4938.87722 1.10997e-17
4941.87171 1.12629e-17
4944.86619 1.14685e-17
4947.87069 1.16863e-17
4950.86517 1.19487e-17
4953.85966 1.22101e-17
4956.86416 1.24102e-17
4959.85865 1.25987e-17
4962.85313 1.28840e-17
4965.84762 1.33377e-17
4968.85211 1.37238e-17
4971.84660 1.40836e-17
4974.84109 1.44185e-17
4977.83557 1.46751e-17
4980.84007 1.49566e-17
4983.83456 1.53545e-17
4986.82904 1.56528e-17
4989.83354 1.59192e-17
4992.82803 1.61541e-17
4995.82251 1.63011e-17
4998.81700 1.64579e-17
5001.82150 1.66345e-17
5004.81598 1.67129e-17
5007.81047 1.67202e-17
5010.81497 1.66439e-17
5013.80945 1.64834e-17
5016.80393 1.62639e-17
5019.79842 1.60063e-17
5022.80292 1.56028e-17
5025.79741 1.52375e-17
5028.79189 1.49292e-17
5031.78638 1.45382e-17
5034.79088 1.40754e-17
5037.78536 1.35777e-17
5040.77985 1.29932e-17
5043.78435 1.24065e-17
5046.77883 1.19196e-17
5049.77332 1.14637e-17
5052.76780 1.09545e-17
5055.77230 1.04316e-17
5058.76678 1.00042e-17
5061.76127 9.63307e-18
5064.76577 9.34527e-18
5067.76026 9.16421e-18
5070.75474 8.95573e-18
5073.74922 8.75348e-18
5076.75372 8.62189e-18
5079.74821 8.52616e-18
5082.74270 8.47565e-18
5085.74720 8.48567e-18
5088.74168 8.54587e-18
5091.73617 8.58053e-18
5094.73065 8.66065e-18
5097.73515 8.77920e-18
5100.72964 8.86813e-18
5103.72412 8.89013e-18
5106.72862 8.98530e-18
5109.72311 9.14584e-18
5112.71759 9.27938e-18
5115.71208 9.47663e-18
5118.71658 9.64365e-18
5121.71106 9.69676e-18
5124.70554 9.80454e-18
5127.70003 1.00330e-17
5130.70453 1.02675e-17
5133.69902 1.03350e-17
5136.69350 1.03681e-17
5139.69800 1.04845e-17
5142.69249 1.05866e-17
5145.68697 1.06283e-17
5148.68146 1.06738e-17
5151.68596 1.07275e-17
5154.68044 1.08081e-17
5157.67493 1.08686e-17
5160.67943 1.08908e-17
5163.67391 1.08594e-17
5166.66840 1.08438e-17
5169.66288 1.09167e-17
5172.66738 1.09333e-17
5175.66187 1.09423e-17
5178.65635 1.08975e-17
5181.66085 1.08283e-17
5184.65534 1.08567e-17
5187.64982 1.09019e-17
5190.64430 1.08803e-17
5193.64880 1.08430e-17
5196.64329 1.07560e-17
5199.63778 1.06653e-17
5202.63226 1.06096e-17
5205.63676 1.05145e-17
5208.63125 1.04007e-17
5211.62573 1.03907e-17
5214.63023 1.04048e-17
5217.62472 1.03226e-17
5220.61920 1.02515e-17
5223.61369 1.02557e-17
5226.61819 1.02783e-17
5229.61267 1.02844e-17
5232.60716 1.03428e-17
5235.60164 1.04270e-17
5238.60614 1.04853e-17
5241.60063 1.05257e-17
5244.59511 1.05196e-17
5247.59961 1.05523e-17
5250.59409 1.06741e-17
5253.58858 1.08062e-17
5256.58307 1.09502e-17
5259.58757 1.11275e-17
5262.58205 1.12889e-17
5265.57654 1.14294e-17
5268.58104 1.16378e-17
5271.57552 1.19039e-17
5274.57001 1.20990e-17
5277.56449 1.22558e-17
5280.56899 1.25116e-17
5283.56347 1.27133e-17
5286.55796 1.28279e-17
5289.56246 1.29726e-17
5292.55695 1.31539e-17
5295.55143 1.33744e-17
5298.54591 1.35566e-17
5301.55041 1.37072e-17
5304.54490 1.39035e-17
5307.53939 1.41481e-17
5310.53387 1.43343e-17
5313.53837 1.45498e-17
5316.53286 1.48103e-17
5319.52734 1.49596e-17
5322.53184 1.51009e-17
5325.52633 1.53481e-17
5328.52081 1.56014e-17
5331.51530 1.58451e-17
5334.51980 1.60455e-17
5337.51428 1.62210e-17
5340.50877 1.64153e-17
5343.51327 1.66068e-17
5346.50775 1.67713e-17
5349.50223 1.69279e-17
5352.49672 1.71266e-17
5355.50122 1.73253e-17
5358.49571 1.74487e-17
5361.49019 1.75499e-17
5364.49469 1.76292e-17
5367.48917 1.77542e-17
5370.48366 1.77590e-17
5373.47815 1.76425e-17
5376.48265 1.75628e-17
5379.47713 1.74636e-17
5382.47162 1.75419e-17
5385.46610 1.77049e-17
5388.47060 1.77281e-17
5391.46509 1.77453e-17
5394.45957 1.78484e-17
5397.46407 1.79285e-17
5400.45856 1.78658e-17
5403.45304 1.77769e-17
5406.44753 1.78109e-17
5409.45203 1.78484e-17
5412.44651 1.78277e-17
5415.44099 1.78418e-17
5418.43548 1.77508e-17
5421.43998 1.76480e-17
5424.43447 1.77156e-17
5427.42895 1.76973e-17
5430.43345 1.75917e-17
5433.42794 1.75609e-17
5436.42242 1.74941e-17
5439.41691 1.73222e-17
5442.42141 1.71353e-17
5445.41589 1.70285e-17
5448.41038 1.69836e-17
5451.41488 1.68966e-17
5454.40936 1.67957e-17
5457.40384 1.66458e-17
5460.39833 1.65044e-17
5463.40283 1.64246e-17
5466.39732 1.63649e-17
5469.39180 1.63741e-17
5472.39630 1.64700e-17
5475.39078 1.66247e-17
5478.38527 1.67769e-17
5481.37975 1.70026e-17
5484.38425 1.72216e-17
5487.37874 1.73741e-17
5490.37323 1.77741e-17
5493.37773 1.81438e-17
5496.37221 1.83549e-17
5499.36670 1.86180e-17
5502.36118 1.89619e-17
5505.36568 1.93141e-17
5508.36017 1.96292e-17
5511.35465 1.99149e-17
5514.34914 2.00727e-17
5517.35364 2.01762e-17
5520.34812 2.03478e-17
5523.34260 2.05265e-17
5526.34710 2.05440e-17
5529.34159 2.04559e-17
5532.33608 2.04497e-17
5535.33056 2.04592e-17
5538.33506 2.03295e-17
5541.32955 2.01969e-17
5544.32403 2.01131e-17
5547.32853 1.99540e-17
5550.32302 1.97647e-17
5553.31750 1.96206e-17
5556.31199 1.95446e-17
5559.31649 1.94505e-17
5562.31097 1.92284e-17
5565.30546 1.89642e-17
5568.29994 1.86845e-17
5571.30444 1.84070e-17
5574.29893 1.81737e-17
5577.29341 1.79217e-17
5580.29791 1.76672e-17
5583.29240 1.74755e-17
5586.28688 1.72834e-17
5589.28136 1.69986e-17
5592.28586 1.67111e-17
5595.28035 1.64919e-17
5598.27484 1.63189e-17
5601.27934 1.61692e-17
5604.27382 1.59885e-17
5607.26831 1.58693e-17
5610.26279 1.58551e-17
5613.26729 1.58751e-17
5616.26178 1.59600e-17
5619.25626 1.61545e-17
5622.25075 1.64831e-17
5625.25525 1.68183e-17
5628.24973 1.71340e-17
5631.24422 1.74683e-17
5634.24872 1.76715e-17
5637.24320 1.77782e-17
5640.23769 1.78975e-17
5643.23217 1.79571e-17
5646.23667 1.80214e-17
5649.23116 1.81644e-17
5652.22564 1.83196e-17
5655.23014 1.83074e-17
5658.22463 1.81450e-17
5661.21911 1.79756e-17
5664.21360 1.76891e-17
5667.21810 1.72011e-17
5670.21258 1.66719e-17
5673.20707 1.59839e-17
5676.21157 1.52206e-17
5679.20605 1.45581e-17
5682.20053 1.37632e-17
5685.19502 1.29167e-17
5688.19952 1.22086e-17
5691.19401 1.14621e-17
5694.18849 1.06534e-17
5697.18297 9.91161e-18
5700.18747 9.32231e-18
5703.18196 8.84366e-18
5706.17645 8.40534e-18
5709.18095 8.06633e-18
5712.17543 7.79899e-18
5715.16992 7.54939e-18
5718.16440 7.33439e-18
5721.16890 7.17037e-18
5724.16339 7.03941e-18
5727.15787 6.93435e-18
5730.16237 6.85410e-18
5733.15686 6.83585e-18
5736.15134 6.86485e-18
5739.14583 6.86612e-18
5742.15033 6.90285e-18
5745.14481 7.00672e-18
5748.13929 7.10652e-18
5751.13378 7.26132e-18
5754.13828 7.46144e-18
5757.13277 7.64481e-18
5760.12725 7.84185e-18
5763.13175 8.08164e-18
5766.12623 8.33093e-18
5769.12072 8.54470e-18
5772.11521 8.78813e-18
5775.11971 9.07733e-18
5778.11419 9.37047e-18
5781.10868 9.61238e-18
5784.11318 9.91843e-18
5787.10766 1.03650e-17
5790.10215 1.08194e-17
5793.09663 1.12785e-17
5796.10113 1.17011e-17
5799.09562 1.20783e-17
5802.09010 1.25081e-17
5805.09460 1.29528e-17
5808.08909 1.34067e-17
5811.08357 1.38339e-17
5814.07805 1.42440e-17
5817.08255 1.47065e-17
5820.07704 1.52009e-17
5823.07153 1.56832e-17
5826.06601 1.61660e-17
5829.07051 1.65822e-17
5832.06500 1.68933e-17
5835.05948 1.71595e-17
5838.06398 1.74774e-17
5841.05847 1.78052e-17
5844.05295 1.80090e-17
5847.04744 1.82224e-17
5850.05194 1.85590e-17
5853.04642 1.89567e-17
5856.04091 1.93265e-17
5859.04541 1.97449e-17
5862.03989 2.02948e-17
5865.03438 2.08988e-17
5868.02886 2.13669e-17
5871.03336 2.17504e-17
5874.02784 2.22207e-17
5877.02233 2.26651e-17
5880.01681 2.30293e-17
5883.02131 2.33620e-17
5886.01580 2.35173e-17
5889.01029 2.34866e-17
5892.01479 2.35439e-17
5895.00927 2.36847e-17
5898.00376 2.38097e-17
5900.99824 2.39004e-17
5904.00274 2.39818e-17
5906.99723 2.41152e-17
5909.99171 2.41638e-17
5912.99621 2.40982e-17
5915.99070 2.39984e-17
5918.98518 2.38591e-17
5921.97966 2.37132e-17
5924.98416 2.35774e-17
5927.97865 2.34372e-17
5930.97314 2.32811e-17
5933.96762 2.30726e-17
5936.97212 2.28502e-17
5939.96660 2.27195e-17
5942.96109 2.26206e-17
5945.96559 2.24353e-17
5948.96008 2.22957e-17
5951.95456 2.22504e-17
5954.94905 2.21888e-17
5957.95355 2.21059e-17
5960.94803 2.20162e-17
5963.94252 2.19105e-17
5966.94702 2.18273e-17
5969.94150 2.17877e-17
5972.93599 2.17543e-17
5975.93047 2.17903e-17
5978.93497 2.17555e-17
5981.92946 2.16195e-17
5984.92394 2.15656e-17
5987.92844 2.15404e-17
5990.92292 2.14694e-17
5993.91741 2.13469e-17
5996.91190 2.12125e-17
5999.91640 2.09981e-17
6002.91088 2.07134e-17
6005.90537 2.05548e-17
6008.89985 2.04060e-17
6011.90435 2.01714e-17
6014.89884 1.99816e-17
6017.89332 1.98168e-17
6020.89782 1.96295e-17
6023.89231 1.94279e-17
6026.88679 1.92277e-17
6029.88128 1.90789e-17
6032.88578 1.89350e-17
6035.88026 1.86905e-17
6038.87475 1.84662e-17
6041.87925 1.83526e-17
6044.87373 1.81785e-17
6047.86822 1.79402e-17
6050.86270 1.77491e-17
6053.86720 1.75845e-17
6056.86169 1.73992e-17
6059.85617 1.71857e-17
6062.85066 1.70332e-17
6065.85516 1.69297e-17
6068.84964 1.67982e-17
6071.84413 1.66803e-17
6074.84863 1.65393e-17
6077.84311 1.63387e-17
6080.83759 1.61967e-17
6083.83208 1.61296e-17
6086.83658 1.60180e-17
6089.83107 1.58841e-17
6092.82555 1.58037e-17
6095.83005 1.57439e-17
6098.82453 1.56723e-17
6101.81902 1.56491e-17
6104.81351 1.56865e-17
6107.81801 1.56777e-17
6110.81249 1.55927e-17
6113.80698 1.55263e-17
6116.81148 1.55322e-17
6119.80596 1.55350e-17
6122.80045 1.54511e-17
6125.79493 1.53962e-17
6128.79943 1.53811e-17
6131.79392 1.53329e-17
6134.78840 1.53243e-17
6137.78289 1.53400e-17
6140.78739 1.53215e-17
6143.78187 1.52978e-17
6146.77635 1.52358e-17
6149.78085 1.51256e-17
6152.77534 1.50079e-17
6155.76983 1.48873e-17
6158.76431 1.47726e-17
6161.76881 1.46385e-17
6164.76329 1.44392e-17
6167.75778 1.42390e-17
6170.76228 1.40843e-17
6173.75677 1.39516e-17
6176.75125 1.37959e-17
6179.74574 1.35880e-17
6182.75024 1.34402e-17
6185.74472 1.33507e-17
6188.73921 1.32964e-17
6191.73369 1.32285e-17
6194.73819 1.31418e-17
6197.73268 1.30894e-17
6200.72716 1.30736e-17
6203.73166 1.31073e-17
6206.72615 1.31191e-17
6209.72063 1.30475e-17
6212.71511 1.29602e-17
6215.71961 1.29020e-17
6218.71410 1.28623e-17
6221.70859 1.27903e-17
6224.71309 1.26727e-17
6227.70757 1.26033e-17
6230.70206 1.25197e-17
6233.69654 1.23371e-17
6236.70104 1.21072e-17
6239.69553 1.18686e-17
6242.69001 1.16287e-17
6245.68450 1.13246e-17
6248.68900 1.09628e-17
6251.68348 1.05831e-17
6254.67797 1.01710e-17
6257.68247 9.71629e-18
6260.67695 9.21777e-18
6263.67144 8.75666e-18
6266.66592 8.30479e-18
6269.67042 7.77139e-18
6272.66491 7.18760e-18
6275.65939 6.64120e-18
6278.66389 6.17769e-18
6281.65837 5.75143e-18
6284.65286 5.35750e-18
6287.64735 5.01370e-18
6290.65185 4.69549e-18
6293.64633 4.42303e-18
6296.64082 4.19627e-18
6299.64532 3.99013e-18
6302.63980 3.86066e-18
6305.63429 3.80291e-18
6308.62877 3.72406e-18
6311.63327 3.63091e-18
6314.62776 3.57512e-18
6317.62224 3.59096e-18
6320.61672 3.67031e-18
6323.62122 3.76196e-18
6326.61571 3.88787e-18
6329.61020 4.08650e-18
6332.61470 4.33391e-18
6335.60918 4.60043e-18
6338.60366 4.89798e-18
6341.59815 5.26130e-18
6344.60265 5.71348e-18
6347.59714 6.20448e-18
6350.59162 6.72785e-18
6353.59612 7.28729e-18
6356.59061 7.80257e-18
6359.58509 8.25583e-18
6362.57958 8.69167e-18
6365.58408 9.11600e-18
6368.57856 9.48410e-18
6371.57305 9.81928e-18
6374.57755 1.01708e-17
6377.57203 1.05050e-17
6380.56652 1.08044e-17
6383.56100 1.11194e-17
6386.56550 1.14464e-17
6389.55998 1.17379e-17
6392.55447 1.19710e-17
6395.54896 1.22738e-17
6398.55346 1.26038e-17
6401.54794 1.28913e-17
6404.54243 1.31863e-17
6407.54693 1.34335e-17
6410.54141 1.36234e-17
6413.53590 1.38655e-17
6416.53038 1.41893e-17
6419.53488 1.45215e-17
6422.52937 1.48346e-17
6425.52385 1.51274e-17
6428.52835 1.54384e-17
6431.52284 1.57704e-17
6434.51732 1.60369e-17
6437.51181 1.62950e-17
6440.51631 1.65595e-17
6443.51079 1.67926e-17
6446.50528 1.70171e-17
6449.50978 1.72434e-17
6452.50426 1.74899e-17
6455.49874 1.76587e-17
6458.49323 1.76841e-17
6461.49773 1.76508e-17
6464.49222 1.75736e-17
6467.48670 1.74710e-17
6470.48119 1.73774e-17
6473.48569 1.72791e-17
6476.48017 1.71661e-17
6479.47466 1.70763e-17
6482.47916 1.69990e-17
6485.47364 1.68975e-17
6488.46813 1.67600e-17
6491.46261 1.65776e-17
6494.46711 1.64207e-17
6497.46159 1.62672e-17
6500.45608 1.61278e-17
6503.45057 1.59899e-17
6506.45507 1.58251e-17
6509.44955 1.56717e-17
6512.44403 1.55379e-17
6515.44853 1.54569e-17
6518.44302 1.54218e-17
6521.43751 1.53524e-17
6524.43199 1.53411e-17
6527.43649 1.53835e-17
6530.43098 1.53691e-17
6533.42546 1.53935e-17
6536.42996 1.54732e-17
6539.42445 1.55343e-17
6542.41893 1.56305e-17
6545.41341 1.58231e-17
6548.41791 1.60734e-17
6551.41240 1.62893e-17
6554.40689 1.64554e-17
6557.41139 1.66404e-17
6560.40587 1.69251e-17
6563.40035 1.72723e-17
6566.39484 1.75066e-17
6569.39934 1.76805e-17
6572.39383 1.78600e-17
6575.38831 1.80723e-17
6578.38280 1.82422e-17
6581.38730 1.84218e-17
6584.38178 1.86830e-17
6587.37627 1.90089e-17
6590.38077 1.92949e-17
6593.37525 1.95877e-17
6596.36974 1.98328e-17
6599.36422 2.00016e-17
6602.36872 2.01897e-17
6605.36321 2.03867e-17
6608.35769 2.05609e-17
6611.36219 2.07498e-17
6614.35667 2.09435e-17
6617.35116 2.11190e-17
6620.34565 2.12879e-17
6623.35015 2.13987e-17
6626.34463 2.14044e-17
6629.33912 2.13699e-17
6632.34362 2.13533e-17
6635.33810 2.13378e-17
6638.33259 2.13060e-17
6641.32707 2.13418e-17
6644.33157 2.13761e-17
6647.32606 2.13952e-17
6650.32054 2.14153e-17
6653.31503 2.14843e-17
6656.31953 2.15552e-17
6659.31401 2.16641e-17
6662.30850 2.18483e-17
6665.31300 2.20169e-17
6668.30748 2.21970e-17
6671.30197 2.24894e-17
6674.29645 2.27790e-17
6677.30095 2.29367e-17
6680.29543 2.29750e-17
6683.28992 2.29772e-17
6686.28441 2.29976e-17
6689.28891 2.29747e-17
6692.28339 2.30086e-17
6695.27788 2.31301e-17
6698.28238 2.31458e-17
6701.27686 2.30989e-17
6704.27135 2.29498e-17
6707.26583 2.27948e-17
6710.27033 2.27131e-17
6713.26482 2.25809e-17
6716.25930 2.23868e-17
6719.26380 2.22764e-17
6722.25828 2.21385e-17
6725.25277 2.19818e-17
6728.24726 2.18718e-17
6731.25176 2.17502e-17
6734.24624 2.14967e-17
6737.24072 2.12349e-17
6740.24522 2.10308e-17
6743.23971 2.08406e-17
6746.23420 2.07538e-17
6749.22868 2.07533e-17
6752.23318 2.07089e-17
6755.22767 2.05662e-17
6758.22215 2.03523e-17
6761.21664 2.01772e-17
6764.22114 2.00800e-17
6767.21562 1.99850e-17
6770.21011 1.98500e-17
6773.21461 1.97601e-17
6776.20909 1.97458e-17
6779.20358 1.97443e-17
6782.19806 1.96509e-17
6785.20256 1.95255e-17
6788.19704 1.93661e-17
6791.19153 1.92361e-17
6794.19603 1.91334e-17
6797.19052 1.90798e-17
6800.18500 1.89970e-17
6803.17949 1.88772e-17
6806.18399 1.88294e-17
6809.17847 1.87836e-17
6812.17296 1.86123e-17
6815.17746 1.83756e-17
6818.17194 1.81643e-17
6821.16643 1.79570e-17
6824.16091 1.77621e-17
6827.16541 1.76456e-17
6830.15990 1.75383e-17
6833.15438 1.73407e-17
6836.15888 1.70979e-17
6839.15337 1.67220e-17
6842.14785 1.63043e-17
6845.14234 1.59154e-17
6848.14684 1.54668e-17
6851.14132 1.50906e-17
6854.13580 1.47410e-17
6857.13029 1.43660e-17
6860.13479 1.39748e-17
6863.12928 1.36107e-17
6866.12376 1.33091e-17
6869.12826 1.30311e-17
6872.12275 1.27302e-17
6875.11723 1.24505e-17
6878.11172 1.22297e-17
6881.11622 1.19694e-17
6884.11070 1.16508e-17
6887.10519 1.14171e-17
6890.09967 1.12894e-17
6893.10417 1.12143e-17
6896.09866 1.11583e-17
6899.09314 1.11286e-17
6902.09764 1.11475e-17
6905.09213 1.10998e-17
6908.08661 1.09959e-17
6911.08109 1.09806e-17
6914.08559 1.10628e-17
6917.08008 1.12018e-17
6920.07457 1.13370e-17
6923.07907 1.14042e-17
6926.07355 1.14377e-17
6929.06804 1.15574e-17
6932.06252 1.17259e-17
6935.06702 1.19149e-17
6938.06151 1.21407e-17
6941.05599 1.23539e-17
6944.06049 1.25105e-17
6947.05498 1.26288e-17
6950.04946 1.28142e-17
6953.04395 1.30738e-17
6956.04845 1.33127e-17
6959.04293 1.34948e-17
6962.03741 1.36434e-17
6965.03190 1.38524e-17
6968.03640 1.40871e-17
6971.03089 1.42783e-17
6974.02537 1.44715e-17
6977.02987 1.47009e-17
6980.02436 1.49011e-17
6983.01884 1.49732e-17
6986.01333 1.49639e-17
6989.01783 1.50288e-17
6992.01231 1.51576e-17
6995.00680 1.52643e-17
6998.01130 1.53831e-17
7001.00578 1.55163e-17
7004.00027 1.56393e-17
7006.99475 1.57138e-17
7009.99925 1.57311e-17
7012.99374 1.57195e-17
7015.98822 1.56720e-17
7018.99272 1.56341e-17
7021.98721 1.56096e-17
7024.98169 1.56370e-17
7027.97617 1.57723e-17
7030.98067 1.58706e-17
7033.97516 1.59419e-17
7036.96965 1.60385e-17
7039.96413 1.61221e-17
7042.96863 1.61892e-17
7045.96312 1.62743e-17
7048.95760 1.62424e-17
7051.96210 1.62866e-17
7054.95659 1.65072e-17
7057.95107 1.67456e-17
7060.94556 1.68952e-17
7063.95006 1.69595e-17
7066.94454 1.69897e-17
7069.93903 1.69797e-17
7072.94353 1.69757e-17
7075.93801 1.70442e-17
7078.93250 1.70711e-17
7081.92698 1.70508e-17
7084.93148 1.70751e-17
7087.92597 1.70730e-17
7090.92045 1.71043e-17
7093.91494 1.71613e-17
7096.91944 1.70271e-17
7099.91392 1.67600e-17
7102.90841 1.65155e-17
7105.91291 1.62639e-17
7108.90739 1.61208e-17
7111.90188 1.59787e-17
7114.89636 1.59546e-17
7117.90086 1.60784e-17
7120.89534 1.60577e-17
7123.88983 1.58691e-17
7126.89433 1.56840e-17
7129.88882 1.55393e-17
7132.88330 1.54430e-17
7135.87778 1.53395e-17
7138.88228 1.52171e-17
7141.87677 1.51301e-17
7144.87126 1.50323e-17
7147.86574 1.49602e-17
7150.87024 1.49567e-17
7153.86473 1.49697e-17
7156.85921 1.49298e-17
7159.86371 1.48432e-17
7162.85820 1.47817e-17
7165.85268 1.47354e-17
7168.84717 1.46684e-17
7171.85167 1.45349e-17
7174.84615 1.44618e-17
7177.84064 1.43890e-17
7180.84514 1.42909e-17
7183.83962 1.42332e-17
7186.83410 1.41618e-17
7189.82859 1.40878e-17
7192.83309 1.40526e-17
7195.82758 1.39986e-17
7198.82206 1.39245e-17
7201.82656 1.39220e-17
7204.82105 1.40454e-17
7207.81553 1.41352e-17
7210.81002 1.40347e-17
7213.81452 1.39101e-17
7216.80900 1.38653e-17
7219.80349 1.38795e-17
7222.79797 1.38700e-17
7225.80247 1.37595e-17
7228.79696 1.36778e-17
7231.79144 1.36339e-17
7234.79594 1.36625e-17
7237.79043 1.35903e-17
7240.78491 1.34318e-17
7243.77940 1.33077e-17
7246.78390 1.31846e-17
7249.77838 1.29589e-17
7252.77286 1.29491e-17
7255.77736 1.30274e-17
7258.77185 1.30302e-17
7261.76634 1.30538e-17
7264.76082 1.30180e-17
7267.76532 1.28809e-17
7270.75981 1.28256e-17
7273.75429 1.29158e-17
7276.74878 1.30224e-17
7279.75328 1.31207e-17
7282.74776 1.32831e-17
7285.74225 1.35433e-17
7288.74675 1.37901e-17
7291.74123 1.39182e-17
7294.73572 1.39932e-17
7297.73020 1.39679e-17
7300.73470 1.39888e-17
7303.72919 1.40661e-17
7306.72367 1.41327e-17
7309.72817 1.41740e-17
7312.72266 1.42098e-17
7315.71714 1.43935e-17
7318.71163 1.46568e-17
7321.71613 1.47728e-17
7324.71061 1.47136e-17
7327.70510 1.45358e-17
7330.70960 1.43577e-17
7333.70408 1.42213e-17
7336.69857 1.41107e-17
7339.69305 1.40631e-17
7342.69755 1.40342e-17
7345.69204 1.40351e-17
7348.68652 1.40383e-17
7351.68101 1.39966e-17
7354.68551 1.38948e-17
7357.67999 1.37928e-17
7360.67447 1.37642e-17
7363.67897 1.36746e-17
7366.67346 1.34434e-17
7369.66795 1.32098e-17
7372.66243 1.30405e-17
7375.66693 1.29432e-17
7378.66142 1.30180e-17
7381.65590 1.30695e-17
7384.66040 1.30305e-17
7387.65489 1.30404e-17
7390.64937 1.30598e-17
7393.64386 1.30068e-17
7396.64836 1.28869e-17
7399.64284 1.27348e-17
7402.63733 1.26923e-17
7405.63181 1.27570e-17
7408.63631 1.27681e-17
7411.63080 1.28034e-17
7414.62528 1.28605e-17
7417.62978 1.28658e-17
7420.62427 1.28941e-17
7423.61875 1.29454e-17
7426.61323 1.29279e-17
7429.61773 1.27986e-17
7432.61222 1.26842e-17
7435.60671 1.26941e-17
7438.61121 1.27974e-17
7441.60569 1.29410e-17
7444.60018 1.30456e-17
7447.59466 1.31098e-17
7450.59916 1.31830e-17
7453.59365 1.32889e-17
7456.58813 1.33306e-17
7459.59263 1.32859e-17
7462.58712 1.32658e-17
7465.58160 1.32789e-17
7468.57609 1.32621e-17
7471.58059 1.32718e-17
7474.57507 1.33186e-17
7477.56956 1.33248e-17
7480.56404 1.33933e-17
7483.56854 1.35294e-17
7486.56303 1.36496e-17
7489.55751 1.37132e-17
7492.56201 1.36742e-17
7495.55650 1.36574e-17
7498.55098 1.35903e-17
7501.54547 1.34605e-17
7504.54997 1.33271e-17
7507.54445 1.32596e-17
7510.53894 1.32758e-17
7513.54344 1.33657e-17
7516.53792 1.34639e-17
7519.53241 1.35161e-17
7522.52689 1.36147e-17
7525.53139 1.36507e-17
7528.52588 1.34700e-17
7531.52036 1.32864e-17
7534.51484 1.32188e-17
7537.51934 1.30756e-17
7540.51383 1.29407e-17
7543.50832 1.29630e-17
7546.51282 1.29171e-17
7549.50730 1.28143e-17
7552.50179 1.26759e-17
7555.49627 1.25027e-17
7558.50077 1.23759e-17
7561.49526 1.21620e-17
7564.48974 1.18775e-17
7567.49424 1.16302e-17
7570.48873 1.14484e-17
7573.48321 1.13077e-17
7576.47770 1.11672e-17
7579.48220 1.11172e-17
7582.47668 1.10527e-17
7585.47116 1.07994e-17
7588.46565 1.03999e-17
7591.47015 1.00338e-17
7594.46464 9.82208e-18
7597.45912 9.64250e-18
7600.46362 9.35908e-18
7603.45810 9.12033e-18
7606.45259 9.11715e-18
7609.44708 9.31402e-18
7612.45158 9.43164e-18
7615.44606 9.28190e-18
7618.44055 8.98448e-18
7621.44505 8.79551e-18
7624.43953 8.64082e-18
7627.43402 8.53251e-18
7630.42850 8.59595e-18
7633.43300 8.66358e-18
7636.42749 8.61224e-18
7639.42197 8.52958e-18
7642.42647 8.47998e-18
7645.42096 8.40298e-18
7648.41544 8.45398e-18
7651.40992 8.48325e-18
7654.41442 8.39117e-18
7657.40891 8.42276e-18
7660.40340 8.51779e-18
7663.39788 8.55831e-18
7666.40238 8.65683e-18
7669.39687 8.79554e-18
7672.39135 8.96019e-18
7675.39585 9.10771e-18
7678.39034 9.18886e-18
7681.38482 9.32428e-18
7684.37931 9.49225e-18
7687.38381 9.59452e-18
7690.37829 9.49768e-18
7693.37278 9.35377e-18
7696.37728 9.43497e-18
7699.37176 9.65091e-18
7702.36625 9.83580e-18
7705.36073 1.00208e-17
7708.36523 1.02109e-17
7711.35972 1.03625e-17
7714.35420 1.05191e-17
7717.35870 1.06814e-17
7720.35319 1.07514e-17
7723.34767 1.07151e-17
7726.34216 1.07294e-17
7729.34666 1.08353e-17
7732.34114 1.09133e-17
7735.33563 1.09636e-17
7738.33011 1.10515e-17
7741.33461 1.12081e-17
7744.32910 1.14267e-17
7747.32358 1.16968e-17
7750.32808 1.19179e-17
7753.32257 1.20447e-17
7756.31705 1.21711e-17
7759.31153 1.22319e-17
7762.31603 1.22233e-17
7765.31052 1.22116e-17
7768.30501 1.21547e-17
7771.30951 1.20465e-17
7774.30399 1.19478e-17
7777.29848 1.18796e-17
7780.29296 1.18051e-17
7783.29746 1.17083e-17
7786.29195 1.16390e-17
7789.28643 1.16526e-17
7792.28092 1.17588e-17
7795.28542 1.18975e-17
7798.27990 1.20054e-17
7801.27439 1.20653e-17
7804.27889 1.20337e-17
7807.27337 1.19024e-17
7810.26786 1.17052e-17
7813.26234 1.14810e-17
7816.26684 1.13085e-17
7819.26133 1.11815e-17
7822.25581 1.11422e-17
7825.26031 1.11228e-17
7828.25479 1.10737e-17
7831.24928 1.10793e-17
7834.24377 1.11474e-17
7837.24827 1.11990e-17
7840.24275 1.12208e-17
7843.23724 1.12959e-17
7846.23172 1.14758e-17
7849.23622 1.16595e-17
7852.23071 1.17161e-17
7855.22519 1.16276e-17
7858.22969 1.14571e-17
7861.22418 1.13798e-17
7864.21866 1.14484e-17
7867.21315 1.14659e-17
7870.21765 1.14658e-17
7873.21213 1.16248e-17
7876.20662 1.18516e-17
7879.21112 1.19904e-17
7882.20560 1.20649e-17
7885.20009 1.20950e-17
7888.19457 1.21169e-17
7891.19907 1.21537e-17
7894.19356 1.21684e-17
7897.18804 1.21835e-17
7900.19254 1.21590e-17
7903.18703 1.20049e-17
7906.18151 1.17932e-17
7909.17600 1.17593e-17
7912.18050 1.20086e-17
7915.17498 1.22892e-17
7918.16947 1.23685e-17
7921.16395 1.21694e-17
7924.16845 1.19704e-17
7927.16294 1.19176e-17
7930.15742 1.19423e-17
7933.16192 1.21217e-17
7936.15641 1.20640e-17
7939.15089 1.17312e-17
7942.14538 1.14563e-17
7945.14988 1.13362e-17
7948.14436 1.13243e-17
7951.13885 1.13123e-17
7954.14335 1.12675e-17
7957.13783 1.12163e-17
7960.13232 1.12135e-17
7963.12680 1.12769e-17
7966.13130 1.13855e-17
7969.12579 1.15446e-17
7972.12027 1.16218e-17
7975.11476 1.16190e-17
7978.11926 1.14946e-17
7981.11374 1.12712e-17
7984.10822 1.10644e-17
7987.11272 1.09012e-17
7990.10721 1.08394e-17
7993.10170 1.08533e-17
7996.09618 1.08379e-17
7999.10068 1.09193e-17
8002.09516 1.10849e-17
8005.08965 1.10901e-17
8008.09415 1.10195e-17
8011.08864 1.09299e-17
8014.08312 1.07649e-17
8017.07761 1.05820e-17
8020.08211 1.04326e-17
8023.07659 1.02886e-17
8026.07108 1.01625e-17
8029.06556 1.01135e-17
8032.07006 1.01872e-17
8035.06455 1.03258e-17
8038.05903 1.03712e-17
8041.06353 1.03747e-17
8044.05802 1.04855e-17
8047.05250 1.06408e-17
8050.04698 1.07657e-17
8053.05148 1.07968e-17
8056.04597 1.06999e-17
8059.04046 1.05557e-17
8062.04496 1.03908e-17
8065.03944 1.02063e-17
8068.03393 1.00487e-17
8071.02841 9.94161e-18
8074.03291 9.88662e-18
8077.02740 9.89792e-18
8080.02188 9.89042e-18
8083.02638 9.89375e-18
8086.02087 9.94362e-18
8089.01535 1.00145e-17
8092.00984 1.00831e-17
8095.01434 1.01562e-17
8098.00882 1.02008e-17
8101.00331 1.01751e-17
8104.00781 1.00870e-17
8107.00229 1.00026e-17
8109.99678 9.94094e-18
8112.99126 9.87898e-18
8115.99576 9.76783e-18
8118.99024 9.56088e-18
8121.98473 9.32089e-18
8124.97922 9.14984e-18
8127.98372 9.03535e-18
8130.97820 8.91328e-18
8133.97269 8.78806e-18
8136.97719 8.70774e-18
8139.97167 8.65596e-18
8142.96616 8.60056e-18
8145.96064 8.57441e-18
8148.96514 8.62118e-18
8151.95963 8.60799e-18
8154.95411 8.52710e-18
8157.95861 8.44452e-18
8160.95309 8.42512e-18
8163.94758 8.51902e-18
8166.94207 8.63120e-18
8169.94657 8.64870e-18
8172.94105 8.60515e-18
8175.93553 8.55686e-18
8178.94003 8.53330e-18
8181.93452 8.50461e-18
8184.92901 8.44732e-18
8187.92349 8.33709e-18
8190.92799 8.19595e-18
8193.92247 8.14223e-18
8196.91696 8.17057e-18
8199.91144 8.17512e-18
8202.91595 8.13735e-18
8205.91043 8.14806e-18
8208.90492 8.14115e-18
8211.90942 8.13582e-18
8214.90390 8.08451e-18
8217.89839 7.81362e-18
8220.89287 7.33280e-18
8223.89737 6.92228e-18
8226.89185 6.70455e-18
8229.88634 6.58466e-18
8232.88083 6.49508e-18
8235.88532 6.40007e-18
8238.87981 6.25864e-18
8241.87430 6.07620e-18
8244.87880 5.76551e-18
8247.87328 5.38377e-18
8250.86777 5.10047e-18
8253.86225 4.83424e-18
8256.86675 4.53106e-18
8259.86124 4.30006e-18
8262.85572 4.10378e-18
8265.86022 3.88892e-18
8268.85470 3.67033e-18
8271.84919 3.47390e-18
8274.84368 3.28860e-18
8277.84818 3.12825e-18
8280.84266 3.05314e-18
8283.83715 2.99897e-18
8286.83163 2.93537e-18
8289.83613 2.87285e-18
8292.83062 2.80709e-18
8295.82510 2.73146e-18
8298.82960 2.68117e-18
8301.82409 2.64254e-18
8304.81857 2.58745e-18
8307.81306 2.49385e-18
8310.81756 2.39134e-18
8313.81204 2.30399e-18
8316.80652 2.23207e-18
8319.81103 2.21113e-18
8322.80551 2.23317e-18
8325.80000 2.25586e-18
8328.79448 2.28419e-18
8331.79898 2.31029e-18
8334.79347 2.34484e-18
8337.78795 2.40168e-18
8340.79245 2.44060e-18
8343.78694 2.43062e-18
8346.78142 2.39917e-18
8349.77591 2.38033e-18
8352.78041 2.38791e-18
8355.77489 2.42970e-18
8358.76937 2.46258e-18
8361.76386 2.46658e-18
8364.76836 2.45510e-18
8367.76284 2.46144e-18
8370.75733 2.52731e-18
8373.76183 2.58937e-18
8376.75631 2.61990e-18
8379.75080 2.66671e-18
8382.74529 2.70010e-18
8385.74979 2.73574e-18
8388.74427 2.82273e-18
8391.73876 2.88904e-18
8394.74326 2.91958e-18
8397.73774 2.95839e-18
8400.73222 2.99874e-18
8403.72671 3.05974e-18
8406.73121 3.15287e-18
8409.72569 3.22750e-18
8412.72018 3.30148e-18
8415.72468 3.33942e-18
8418.71917 3.38905e-18
8421.71365 3.39584e-18
8424.70814 3.38702e-18
8427.71263 3.40571e-18
8430.70712 3.39673e-18
8433.70161 3.37166e-18
8436.70610 3.36815e-18
8439.70059 3.41293e-18
8442.69507 3.47138e-18
8445.68956 3.50797e-18
8448.69406 3.56682e-18
8451.68855 3.65246e-18
8454.68303 3.73094e-18
8457.67752 3.80727e-18
8460.68202 3.86588e-18
8463.67650 3.88164e-18
8466.67099 3.86056e-18
8469.67548 3.88619e-18
8472.66997 3.94930e-18
8475.66446 3.99058e-18
8478.65894 4.02745e-18
8481.66344 4.05950e-18
8484.65793 4.15619e-18
8487.65241 4.26596e-18
8490.65691 4.41599e-18
8493.65140 4.67521e-18
8496.64588 4.85976e-18
8499.64037 5.03907e-18
8502.64487 5.08788e-18
8505.63935 5.02733e-18
8508.63384 5.21304e-18
8511.62832 5.60698e-18
8514.63282 5.78392e-18
8517.62731 5.67002e-18
8520.62179 5.59347e-18
8523.62629 5.69272e-18
8526.62078 5.88461e-18
8529.61526 6.10790e-18
8532.60974 6.26244e-18
8535.61425 6.34322e-18
8538.60873 6.46986e-18
8541.60321 6.68931e-18
8544.59770 6.89049e-18
8547.60220 7.05856e-18
8550.59669 7.26071e-18
8553.59117 7.51408e-18
8556.59567 7.79025e-18
8559.59016 7.98536e-18
8562.58464 8.17956e-18
8565.57913 8.46644e-18
8568.58363 8.75360e-18
8571.57811 9.00227e-18
8574.57259 9.20703e-18
8577.57710 9.30949e-18
8580.57158 9.43542e-18
8583.56606 9.63411e-18
8586.56055 9.71770e-18
8589.56505 9.70636e-18
8592.55954 9.74633e-18
8595.55402 9.83817e-18
8598.54851 9.87781e-18
8601.55300 9.93960e-18
8604.54749 1.00683e-17
8607.54198 1.03134e-17
8610.54648 1.05981e-17
8613.54096 1.07359e-17
8616.53544 1.08600e-17
8619.52993 1.11391e-17
8622.53443 1.14110e-17
8625.52892 1.16962e-17
8628.52340 1.19422e-17
8631.52790 1.20941e-17
8634.52239 1.22333e-17
8637.51687 1.23907e-17
8640.51136 1.24890e-17
8643.51585 1.25425e-17
8646.51034 1.25863e-17
8649.50482 1.25830e-17
8652.50932 1.25025e-17
8655.50381 1.24383e-17
8658.49830 1.25372e-17
8661.49278 1.26225e-17
8664.49728 1.25867e-17
8667.49177 1.25060e-17
8670.48625 1.25014e-17
8673.49075 1.25207e-17
8676.48524 1.25494e-17
8679.47972 1.26963e-17
8682.47421 1.28249e-17
8685.47870 1.29660e-17
8688.47319 1.31781e-17
8691.46768 1.33454e-17
8694.46216 1.34161e-17
8697.46666 1.33615e-17
8700.46115 1.32152e-17
8703.45563 1.30385e-17
8706.46013 1.28635e-17
8709.45462 1.27209e-17
8712.44910 1.26457e-17
8715.44358 1.25814e-17
8718.44808 1.24418e-17
8721.44257 1.22987e-17
8724.43706 1.21702e-17
8727.44156 1.20139e-17
8730.43604 1.19736e-17
8733.43053 1.19689e-17
8736.42501 1.19330e-17
8739.42951 1.19718e-17
8742.42400 1.21057e-17
8745.41848 1.22855e-17
8748.41296 1.23780e-17
8751.41747 1.23567e-17
8754.41195 1.22818e-17
8757.40644 1.22099e-17
8760.41094 1.21144e-17
8763.40542 1.19749e-17
8766.39991 1.17413e-17
8769.39439 1.15141e-17
8772.39889 1.13313e-17
8775.39337 1.11652e-17
8778.38786 1.09302e-17
8781.39236 1.05909e-17
8784.38685 1.03472e-17
8787.38133 1.02311e-17
8790.37581 1.01611e-17
8793.38032 1.01508e-17
8796.37480 1.02359e-17
8799.36929 1.02752e-17
8802.37379 1.02390e-17
8805.36827 1.02043e-17
8808.36276 1.01781e-17
8811.35724 1.01193e-17
8814.36174 1.00459e-17
8817.35622 1.00423e-17
8820.35071 9.97049e-18
8823.34519 9.86425e-18
8826.34969 9.83020e-18
8829.34418 9.78316e-18
8832.33867 9.61930e-18
8835.34317 9.43236e-18
8838.33765 9.30162e-18
8841.33214 9.23201e-18
8844.32662 9.20616e-18
8847.33112 9.13453e-18
8850.32560 9.04567e-18
8853.32009 9.06162e-18
8856.32459 9.08377e-18
8859.31907 9.00221e-18
8862.31356 8.98388e-18
8865.30805 9.07300e-18
8868.31255 9.09178e-18
8871.30703 9.08682e-18
8874.30152 9.09942e-18
8877.29600 9.03115e-18
8880.30050 9.04605e-18
8883.29499 9.29542e-18
8886.28947 9.58070e-18
8889.29397 9.48607e-18
8892.28845 8.92570e-18
8895.28294 8.53769e-18
8898.28744 8.64608e-18
8901.28193 8.90400e-18
8904.27641 9.18901e-18
8907.27090 9.31690e-18
8910.26538 8.97117e-18
8913.26988 8.51195e-18
8916.26437 8.30426e-18
8919.25885 8.15093e-18
8922.26335 8.17322e-18
8925.25784 8.39861e-18
8928.25232 8.17293e-18
8931.25682 7.54958e-18
8934.25131 7.02835e-18
8937.24579 6.90755e-18
8940.24028 7.11394e-18
8943.24478 7.35250e-18
8946.23926 7.44440e-18
8949.23374 7.39567e-18
8952.22823 7.23122e-18
8955.23273 7.17480e-18
8958.22722 7.18250e-18
8961.22170 7.04254e-18
8964.21619 6.88057e-18
8967.22069 6.77918e-18
8970.21517 6.73246e-18
8973.20966 6.71681e-18
8976.21416 6.64707e-18
8979.20864 6.56691e-18
8982.20312 6.54523e-18
8985.20763 6.63548e-18
8988.20211 6.83278e-18
8991.19659 6.94619e-18
8994.19108 6.95279e-18
8997.19558 6.96621e-18
9000.19006 6.98809e-18
9003.18455 6.90349e-18
9006.17904 6.75468e-18
9009.18354 6.73688e-18
9012.17802 6.79509e-18
9015.17251 6.76873e-18
9018.17701 6.68707e-18
9021.17149 6.69128e-18
9024.16597 6.80923e-18
9027.16046 6.95335e-18
9030.16496 7.03924e-18
9033.15944 7.07994e-18
9036.15393 7.10809e-18
9039.15843 7.15548e-18
9042.15292 7.23949e-18
9045.14740 7.35067e-18
9048.14189 7.48214e-18
9051.14639 7.59478e-18
9054.14087 7.63804e-18
9057.13536 7.53910e-18
9060.12984 7.40900e-18
9063.13434 7.31109e-18
9066.12882 7.13380e-18
9069.12331 6.94170e-18
9072.12781 6.84196e-18
9075.12230 6.78175e-18
9078.11678 6.66598e-18
9081.11127 6.56231e-18
9084.11577 6.59706e-18
9087.11025 6.61276e-18
9090.10474 6.58552e-18
9093.10923 6.64658e-18
9096.10372 6.66151e-18
9099.09821 6.64245e-18
9102.09269 6.69573e-18
9105.09719 6.76326e-18
9108.09168 6.84272e-18
9111.08616 6.93175e-18
9114.09066 6.94841e-18
9117.08515 6.90118e-18
9120.07963 6.85023e-18
9123.07412 6.70962e-18
9126.07862 6.54713e-18
9129.07310 6.48483e-18
9132.06759 6.45708e-18
9135.06207 6.50824e-18
9138.06657 6.58972e-18
9141.06106 6.55406e-18
9144.05554 6.48289e-18
9147.06004 6.38991e-18
9150.05453 6.26464e-18
9153.04901 6.20221e-18
9156.04349 6.23046e-18
9159.04800 6.35769e-18
9162.04248 6.38213e-18
9165.03696 6.29795e-18
9168.04147 6.38204e-18
9171.03595 6.58049e-18
9174.03044 6.75792e-18
9177.02492 6.96833e-18
9180.02942 7.13556e-18
9183.02391 7.25892e-18
9186.01839 7.46791e-18
9189.01288 7.73148e-18
9192.01738 7.84500e-18
9195.01186 7.95715e-18
9198.00634 8.10561e-18
