# wavelength flux
3725.68852 1.30009e-17
3730.11825 1.29474e-17
3734.55799 1.28939e-17
3738.98772 1.28404e-17
3743.41744 1.27869e-17
3747.85719 1.27335e-17
3752.28691 1.26801e-17
3756.72666 1.26267e-17
3761.15638 1.25734e-17
3765.59613 8.95601e-18
3770.02585 9.60331e-18
3774.45557 1.04652e-17
3778.89532 8.31081e-18
3783.32504 6.47346e-18
3787.76479 6.90644e-18
3792.19451 4.36787e-18
3796.62424 3.21308e-18
3801.06398 3.07150e-18
3805.49371 2.95938e-18
3809.93345 9.48761e-19
3814.36318 8.15762e-19
3818.79290 2.96804e-18
3823.23265 2.51356e-18
3827.66237 3.68040e-18
3832.10212 1.80042e-18
3836.53184 2.21559e-18
3840.96157 2.40992e-18
3845.40131 2.56275e-18
3849.83104 5.25123e-18
3854.27078 4.91318e-18
3858.70051 1.90091e-18
3863.14025 1.30933e-18
3867.56998 2.89322e-18
3871.99970 4.95838e-18
3876.43945 5.88712e-18
3880.86917 3.42320e-18
3885.30892 4.11467e-18
3889.73864 7.30162e-18
3894.16836 8.71027e-18
3898.60811 9.93542e-18
3903.03783 1.01671e-17
3907.47758 7.23534e-18
3911.90730 7.43231e-18
3916.33703 9.56881e-18
3920.77677 9.79460e-18
3925.20650 1.11313e-17
3929.64624 1.29564e-17
3934.07597 1.14659e-17
3938.50569 1.04832e-17
3942.94544 9.82424e-18
3947.37516 1.11002e-17
3951.81491 1.13691e-17
3956.24463 1.22644e-17
3960.67436 1.19418e-17
3965.11410 1.30101e-17
3969.54383 1.37120e-17
3973.98357 1.44506e-17
3978.41330 1.52976e-17
3982.84302 1.35900e-17
3987.28277 1.21756e-17
3991.71249 1.33797e-17
3996.15224 1.49180e-17
4000.58196 1.54340e-17
4005.02171 1.39196e-17
4009.45143 1.21650e-17
4013.88115 1.34368e-17
4018.32090 1.39553e-17
4022.75062 1.49235e-17
4027.19037 1.35331e-17
4031.62009 1.29134e-17
4036.04982 1.25962e-17
4040.48956 1.25026e-17
4044.91929 1.24309e-17
4049.35903 1.20106e-17
4053.78876 1.24731e-17
4058.21848 1.09660e-17
4062.65823 1.19941e-17
4067.08795 1.15949e-17
4071.52770 1.11823e-17
4075.95742 1.12302e-17
4080.38715 1.01897e-17
4084.82689 1.02061e-17
4089.25662 1.06350e-17
4093.69636 1.13615e-17
4098.12609 1.17766e-17
4102.56583 1.12044e-17
4106.99556 1.06564e-17
4111.42528 1.02761e-17
4115.86503 9.26079e-18
4120.29475 8.39059e-18
4124.73450 9.18803e-18
4129.16422 8.71413e-18
4133.59394 7.70462e-18
4138.03369 7.85853e-18
4142.46341 8.01799e-18
4146.90316 7.40897e-18
4151.33288 7.58008e-18
4155.76261 8.88706e-18
4160.20235 7.86809e-18
4164.63208 7.33969e-18
4169.07182 7.30527e-18
4173.50155 7.78145e-18
4177.93127 6.88398e-18
4182.37102 6.64842e-18
4186.80074 7.03998e-18
4191.24049 7.01057e-18
4195.67021 7.09793e-18
4200.09994 6.29099e-18
4204.53968 6.00837e-18
4208.96941 6.54407e-18
4213.40915 6.93385e-18
4217.83888 7.22242e-18
4222.27862 7.64261e-18
4226.70835 8.73973e-18
4231.13807 8.62780e-18
4235.57782 8.20683e-18
4240.00754 8.34672e-18
4244.44729 7.73945e-18
4248.87701 8.74297e-18
4253.30673 8.90781e-18
4257.74648 8.65225e-18
4262.17620 9.10077e-18
4266.61595 8.52795e-18
4271.04567 7.91216e-18
4275.47540 7.49179e-18
4279.91514 7.60696e-18
4284.34487 7.85369e-18
4288.78461 7.65440e-18
4293.21434 7.71060e-18
4297.64406 8.07424e-18
4302.08381 8.57712e-18
4306.51353 7.89334e-18
4310.95328 8.28480e-18
4315.38300 8.71163e-18
4319.81273 8.97607e-18
4324.25247 8.21987e-18
4328.68220 8.03304e-18
4333.12194 9.86718e-18
4337.55167 9.97742e-18
4341.99141 9.50600e-18
4346.42114 1.05196e-17
4350.85086 1.10608e-17
4355.29061 1.07858e-17
4359.72033 1.05109e-17
4364.16008 1.02361e-17
4368.58980 9.96131e-18
4373.01952 9.68658e-18
4377.45927 9.41194e-18
4381.88899 9.13734e-18
4386.32874 8.86280e-18
4390.75846 8.58836e-18
4395.18819 8.31396e-18
4399.62793 7.42258e-18
4404.05766 7.60560e-18
4408.49740 7.48556e-18
4412.92713 7.16366e-18
4417.35685 6.81732e-18
4421.79660 6.39090e-18
4426.22632 6.45286e-18
4430.66607 6.04431e-18
4435.09579 5.86845e-18
4439.52552 6.32841e-18
4443.96526 6.17140e-18
4448.39499 6.02599e-18
4452.83473 6.12374e-18
4457.26446 6.81397e-18
4461.70420 7.01118e-18
4466.13393 6.94789e-18
4470.56365 7.39477e-18
4475.00340 7.13056e-18
4479.43312 6.94345e-18
4483.87287 7.62051e-18
4488.30259 8.16361e-18
4492.73231 7.50725e-18
4497.17206 8.15566e-18
4501.60178 9.88587e-18
4506.04153 1.00017e-17
4510.47125 1.00125e-17
4514.90098 1.07752e-17
4519.34072 1.12405e-17
4523.77045 1.04575e-17
4528.21019 9.67241e-18
4532.63992 1.05797e-17
4537.06964 1.22757e-17
4541.50939 1.35159e-17
4545.93911 1.29755e-17
4550.37886 1.38708e-17
4554.80858 1.46337e-17
4559.23831 1.42042e-17
4563.67805 1.37975e-17
4568.10778 1.45602e-17
4572.54752 1.45441e-17
4576.97725 1.47354e-17
4581.40697 1.60140e-17
4585.84672 1.65293e-17
4590.27644 1.64243e-17
4594.71619 1.68482e-17
4599.14591 1.71400e-17
4603.58566 1.69466e-17
4608.01538 1.68020e-17
4612.44510 1.72306e-17
4616.88485 1.74721e-17
4621.31457 1.77920e-17
4625.75432 1.73934e-17
4630.18404 1.69478e-17
4634.61377 1.62477e-17
4639.05351 1.53211e-17
4643.48324 1.59264e-17
4647.92298 1.61549e-17
4652.35271 1.57862e-17
4656.78243 1.48995e-17
4661.22218 1.54257e-17
4665.65190 1.57047e-17
4670.09165 1.56762e-17
4674.52137 1.56659e-17
4678.96112 1.55883e-17
4683.39084 1.53020e-17
4687.82057 1.47828e-17
4692.26031 1.53120e-17
4696.69004 1.51358e-17
4701.12978 1.50037e-17
4705.55951 1.50059e-17
4709.98923 1.45073e-17
4714.42898 1.39397e-17
4718.85870 1.34162e-17
4723.29845 1.32506e-17
4727.72817 1.29074e-17
4732.15789 1.27631e-17
4736.59764 1.31986e-17
4741.02736 1.39733e-17
4745.46711 1.28868e-17
4749.89683 1.27140e-17
4754.32656 1.34292e-17
4758.76630 1.34627e-17
4763.19603 1.28002e-17
4767.63577 1.27634e-17
4772.06550 1.28158e-17
4776.49522 1.31160e-17
4780.93497 1.26307e-17
4785.36469 1.18596e-17
4789.80444 1.16119e-17
4794.23416 1.13759e-17
4798.67391 1.11680e-17
4803.10363 1.09701e-17
4807.53336 1.11930e-17
4811.97310 1.12146e-17
4816.40283 1.09918e-17
4820.84257 1.09367e-17
4825.27230 1.10562e-17
4829.70202 1.16983e-17
4834.14177 1.25330e-17
4838.57149 1.27741e-17
4843.01124 1.33900e-17
4847.44096 1.29106e-17
4851.87068 1.36853e-17
4856.31043 1.33603e-17
4860.74015 1.30354e-17
4865.17990 1.27106e-17
4869.60962 1.23859e-17
4874.03935 1.20613e-17
4878.47909 1.17368e-17
4882.90882 1.14124e-17
4887.34856 1.10880e-17
4891.77829 1.07638e-17
4896.20801 1.09376e-17
4900.64776 1.06093e-17
4905.07748 1.06820e-17
4909.51723 1.10303e-17
4913.94695 1.11918e-17
4918.37668 1.17035e-17
4922.81642 1.22883e-17
4927.24615 1.28193e-17
4931.68589 1.35279e-17
4936.11562 1.40053e-17
4940.55536 1.40929e-17
4944.98509 1.41602e-17
4949.41481 1.43497e-17
4953.85456 1.43399e-17
4958.28428 1.43301e-17
4962.72403 1.43202e-17
4967.15375 1.43104e-17
4971.58347 1.43006e-17
4976.02322 1.42908e-17
4980.45294 1.42809e-17
4984.89269 1.42711e-17
4989.32241 1.42613e-17
4993.75214 1.44072e-17
4998.19188 1.46901e-17
5002.62161 1.43477e-17
5007.06135 1.40053e-17
5011.49108 1.36631e-17
5015.92080 1.33210e-17
5020.36055 1.29789e-17
5024.79027 1.26369e-17
5029.23002 1.22950e-17
5033.65974 1.19533e-17
5038.09949 1.16116e-17
5042.52921 9.98523e-18
5046.95894 9.77072e-18
5051.39868 1.09092e-17
5055.82841 1.02266e-17
5060.26815 9.40485e-18
5064.69788 9.41324e-18
5069.12760 9.98446e-18
5073.56735 1.03809e-17
5077.99707 1.04502e-17
5082.43682 1.05278e-17
5086.86654 1.05316e-17
5091.29626 1.03516e-17
5095.73601 9.71525e-18
5100.16573 1.04336e-17
5104.60548 1.12401e-17
5109.03520 1.11874e-17
5113.46493 1.10796e-17
5117.90467 1.11153e-17
5122.33440 1.10848e-17
5126.77414 1.13067e-17
5131.20387 1.18348e-17
5135.63359 1.18317e-17
5140.07334 1.22774e-17
5144.50306 1.24859e-17
5148.94281 1.16098e-17
5153.37253 1.04053e-17
5157.81228 1.06498e-17
5162.24200 1.10359e-17
5166.67173 1.07746e-17
5171.11147 1.04607e-17
5175.54120 1.10642e-17
5179.98094 1.22699e-17
5184.41067 1.24573e-17
5188.84039 1.22847e-17
5193.28014 1.25985e-17
5197.70986 1.27438e-17
5202.14961 1.20926e-17
5206.57933 1.16196e-17
5211.00905 1.16987e-17
5215.44880 1.18628e-17
5219.87852 1.26137e-17
5224.31827 1.28241e-17
5228.74799 1.23818e-17
5233.17772 1.37345e-17
5237.61746 1.41737e-17
5242.04719 1.39121e-17
5246.48693 1.35949e-17
5250.91666 1.34062e-17
5255.34638 1.36697e-17
5259.78613 1.35326e-17
5264.21585 1.38618e-17
5268.65560 1.44459e-17
5273.08532 1.50463e-17
5277.52507 1.56800e-17
5281.95479 1.64085e-17
5286.38452 1.63192e-17
5290.82426 1.57746e-17
5295.25399 1.55962e-17
5299.69373 1.56119e-17
5304.12346 1.62684e-17
5308.55318 1.66027e-17
5312.99293 1.61613e-17
5317.42265 1.63667e-17
5321.86240 1.57152e-17
5326.29212 1.57685e-17
5330.72184 1.70893e-17
5335.16159 1.71538e-17
5339.59131 1.70374e-17
5344.03106 1.73341e-17
5348.46078 1.68492e-17
5352.89051 1.66120e-17
5357.33025 1.67276e-17
5361.75998 1.65380e-17
5366.19972 1.66594e-17
5370.62945 1.68721e-17
5375.06919 1.67291e-17
5379.49892 1.62786e-17
5383.92864 1.64390e-17
5388.36839 1.66847e-17
5392.79811 1.69749e-17
5397.23786 1.69060e-17
5401.66758 1.68004e-17
5406.09731 1.69610e-17
5410.53705 1.68870e-17
5414.96678 1.72673e-17
5419.40652 1.78063e-17
5423.83625 1.76518e-17
5428.26597 1.73626e-17
5432.70572 1.78222e-17
5437.13544 1.84404e-17
5441.57519 1.88400e-17
5446.00491 1.91396e-17
5450.43463 1.95520e-17
5454.87438 1.95705e-17
5459.30410 1.93720e-17
5463.74385 1.97289e-17
5468.17357 1.92561e-17
5472.60330 1.90516e-17
5477.04304 1.94218e-17
5481.47277 2.01221e-17
5485.91251 2.03012e-17
5490.34224 1.99678e-17
5494.78198 1.99014e-17
5499.21171 1.94398e-17
5503.64143 1.95683e-17
5508.08118 1.97015e-17
5512.51090 2.01350e-17
5516.94063 2.02584e-17
5521.38037 1.96829e-17
5525.81010 1.95871e-17
5530.24984 2.02865e-17
5534.67957 1.99171e-17
5539.11931 1.94672e-17
5543.54904 1.97480e-17
5547.97876 1.99303e-17
5552.41851 2.00042e-17
5556.84823 1.99603e-17
5561.28798 1.93645e-17
5565.71770 1.90018e-17
5570.14742 1.97454e-17
5574.58717 2.03370e-17
5579.01689 1.99536e-17
5583.45664 1.94747e-17
5587.88636 1.90728e-17
5592.31609 1.88672e-17
5596.75583 1.91565e-17
5601.18556 1.97777e-17
5605.62530 2.00683e-17
5610.05503 2.00627e-17
5614.49477 2.02927e-17
5618.92450 1.96694e-17
5623.35422 1.91888e-17
5627.79397 1.93946e-17
5632.22369 1.94178e-17
5636.66344 1.91145e-17
5641.09316 1.89297e-17
5645.52289 1.89598e-17
5649.96263 1.88834e-17
5654.39236 1.90078e-17
5658.83210 1.87560e-17
5663.26183 1.83340e-17
5667.69155 1.79559e-17
5672.13130 1.77539e-17
5676.56102 1.76228e-17
5681.00077 1.76128e-17
5685.43049 1.74379e-17
5689.86021 1.67881e-17
5694.29996 1.65654e-17
5698.72968 1.67590e-17
5703.16943 1.63772e-17
5707.59915 1.60578e-17
5712.02888 1.61438e-17
5716.46862 1.53769e-17
5720.89835 1.52786e-17
5725.33809 1.55272e-17
5729.76782 1.55743e-17
5734.20756 1.54377e-17
5738.63729 1.51817e-17
5743.06701 1.58190e-17
5747.50676 1.55271e-17
5751.93648 1.53558e-17
5756.37623 1.49504e-17
5760.80595 1.48224e-17
5765.23568 1.55303e-17
5769.67542 1.50754e-17
5774.10515 1.44382e-17
5778.54489 1.49429e-17
5782.97462 1.48566e-17
5787.40434 1.54252e-17
5791.84409 1.51381e-17
5796.27381 1.48216e-17
5800.71356 1.57812e-17
5805.14328 1.53247e-17
5809.57300 1.58629e-17
5814.01275 1.54260e-17
5818.44247 1.59707e-17
5822.88222 1.64354e-17
5827.31194 1.62664e-17
5831.74167 1.53165e-17
5836.18141 1.52898e-17
5840.61114 1.54384e-17
5845.05088 1.53358e-17
5849.48061 1.55669e-17
5853.91033 1.52501e-17
5858.35008 1.51109e-17
5862.77980 1.54981e-17
5867.21955 1.52124e-17
5871.64927 1.55986e-17
5876.08902 1.55592e-17
5880.51874 1.55796e-17
5884.94847 1.57523e-17
5889.38821 1.56373e-17
5893.81794 1.58549e-17
5898.25768 1.58606e-17
5902.68741 1.57483e-17
5907.11713 1.60058e-17
5911.55688 1.55034e-17
5915.98660 1.59843e-17
5920.42635 1.61105e-17
5924.85607 1.60352e-17
5929.28579 1.60270e-17
5933.72554 1.60629e-17
5938.15526 1.60432e-17
5942.59501 1.57254e-17
5947.02473 1.55517e-17
5951.45446 1.58351e-17
5955.89420 1.57771e-17
5960.32393 1.51955e-17
5964.76367 1.48300e-17
5969.19340 1.46049e-17
5973.63314 1.41253e-17
5978.06287 1.40416e-17
5982.49259 1.39244e-17
5986.93234 1.34430e-17
5991.36206 1.37737e-17
5995.80181 1.44146e-17
6000.23153 1.40887e-17
6004.66126 1.34894e-17
6009.10100 1.33650e-17
6013.53073 1.30011e-17
6017.97047 1.29155e-17
6022.40020 1.26608e-17
6026.82992 1.28722e-17
6031.26967 1.35289e-17
6035.69939 1.38036e-17
6040.13914 1.29937e-17
6044.56886 1.26782e-17
6048.99858 1.32128e-17
6053.43833 1.35346e-17
6057.86805 1.34375e-17
6062.30780 1.33239e-17
6066.73752 1.40508e-17
6071.17727 1.41498e-17
6075.60699 1.36915e-17
6080.03672 1.36770e-17
6084.47646 1.39786e-17
6088.90619 1.37383e-17
6093.34593 1.33825e-17
6097.77566 1.29171e-17
6102.20538 1.29437e-17
6106.64513 1.30845e-17
6111.07485 1.31385e-17
6115.51460 1.32200e-17
6119.94432 1.30203e-17
6124.37405 1.27181e-17
6128.81379 1.35561e-17
6133.24352 1.42705e-17
6137.68326 1.42742e-17
6142.11299 1.47746e-17
6146.54271 1.50300e-17
6150.98246 1.53663e-17
6155.41218 1.58384e-17
6159.85193 1.58385e-17
6164.28165 1.56301e-17
6168.71137 1.58146e-17
6173.15112 1.53031e-17
6177.58084 1.49552e-17
6182.02059 1.55133e-17
6186.45031 1.54475e-17
6190.88004 1.51515e-17
6195.31978 1.47624e-17
6199.74951 1.40333e-17
6204.18925 1.38459e-17
6208.61898 1.42453e-17
6213.05872 1.42729e-17
6217.48845 1.36774e-17
6221.91817 1.30357e-17
6226.35792 1.31920e-17
6230.78764 1.31912e-17
6235.22739 1.29579e-17
6239.65711 1.32771e-17
6244.08684 1.32409e-17
6248.52658 1.28368e-17
6252.95631 1.26694e-17
6257.39605 1.30276e-17
6261.82578 1.32138e-17
6266.25550 1.34892e-17
6270.69525 1.29521e-17
6275.12497 1.26140e-17
6279.56472 1.26868e-17
6283.99444 1.30197e-17
6288.42416 1.30700e-17
6292.86391 1.26367e-17
6297.29363 1.24769e-17
6301.73338 1.28219e-17
6306.16310 1.25552e-17
6310.60285 1.20271e-17
6315.03257 1.20737e-17
6319.46230 1.19950e-17
6323.90204 1.18864e-17
6328.33177 1.22384e-17
6332.77151 1.21843e-17
6337.20124 1.18211e-17
6341.63096 1.21787e-17
6346.07071 1.21823e-17
6350.50043 1.16621e-17
6354.94018 1.20060e-17
6359.36990 1.27393e-17
6363.79963 1.29151e-17
6368.23937 1.31332e-17
6372.66910 1.38337e-17
6377.10884 1.37869e-17
6381.53857 1.32829e-17
6385.96829 1.31850e-17
6390.40804 1.34110e-17
6394.83776 1.34952e-17
6399.27751 1.38950e-17
6403.70723 1.39089e-17
6408.13695 1.38373e-17
6412.57670 1.39705e-17
6417.00642 1.42852e-17
6421.44617 1.40928e-17
6425.87589 1.40571e-17
6430.31564 1.44253e-17
6434.74536 1.48367e-17
6439.17509 1.46532e-17
6443.61483 1.46196e-17
6448.04456 1.47357e-17
6452.48430 1.50047e-17
6456.91403 1.49365e-17
6461.34375 1.46341e-17
6465.78350 1.48194e-17
6470.21322 1.48288e-17
6474.65297 1.50465e-17
6479.08269 1.51231e-17
6483.51242 1.48428e-17
6487.95216 1.45375e-17
6492.38189 1.47434e-17
6496.82163 1.52077e-17
6501.25136 1.52119e-17
6505.68108 1.52724e-17
6510.12083 1.53043e-17
6514.55055 1.53376e-17
6518.99030 1.55521e-17
6523.42002 1.55011e-17
6527.84974 1.54347e-17
6532.28949 1.53682e-17
6536.71921 1.55863e-17
6541.15896 1.53297e-17
6545.58868 1.49529e-17
6550.02843 1.49824e-17
6554.45815 1.50119e-17
6558.88788 1.50414e-17
6563.32762 1.50709e-17
6567.75735 1.51004e-17
6572.19709 1.51299e-17
6576.62682 1.51594e-17
6581.05654 1.51888e-17
6585.49629 1.52183e-17
6589.92601 1.52478e-17
6594.36576 1.52773e-17
6598.79548 1.53068e-17
6603.22521 1.53362e-17
6607.66495 1.53657e-17
6612.09468 1.55941e-17
6616.53442 1.56025e-17
6620.96415 1.54182e-17
6625.39387 1.49444e-17
6629.83362 1.47213e-17
6634.26334 1.47315e-17
6638.70309 1.44466e-17
6643.13281 1.40877e-17
6647.56253 1.40364e-17
6652.00228 1.41390e-17
6656.43200 1.41354e-17
6660.87175 1.37782e-17
6665.30147 1.36310e-17
6669.74122 1.38731e-17
6674.17094 1.33936e-17
6678.60067 1.32025e-17
6683.04041 1.30212e-17
6687.47014 1.30681e-17
6691.90988 1.29054e-17
6696.33961 1.29511e-17
6700.76933 1.28897e-17
6705.20908 1.30787e-17
6709.63880 1.33448e-17
6714.07855 1.34566e-17
6718.50827 1.33458e-17
6722.93800 1.30534e-17
6727.37774 1.26757e-17
6731.80747 1.25498e-17
6736.24721 1.28845e-17
6740.67694 1.28867e-17
6745.10666 1.26129e-17
6749.54641 1.28898e-17
6753.97613 1.29788e-17
6758.41588 1.31335e-17
6762.84560 1.30164e-17
6767.28535 1.26353e-17
6771.71507 1.27617e-17
6776.14479 1.25802e-17
6780.58454 1.21741e-17
6785.01426 1.21738e-17
6789.44399 1.22148e-17
6793.88373 1.22379e-17
6798.31346 1.22468e-17
6802.75320 1.22324e-17
6807.18293 1.25073e-17
6811.62267 1.21613e-17
6816.05240 1.17001e-17
6820.48212 1.15643e-17
6824.92187 1.17991e-17
6829.35159 1.17665e-17
6833.79134 1.14738e-17
6838.22106 1.17096e-17
6842.65079 1.14574e-17
6847.09053 1.16985e-17
6851.52026 1.19783e-17
6855.96000 1.15919e-17
6860.38973 1.10682e-17
6864.81945 1.10128e-17
6869.25920 1.10309e-17
6873.68892 1.09540e-17
6878.12867 1.09297e-17
6882.55839 1.08969e-17
6886.99814 1.09219e-17
6891.42786 1.11196e-17
6895.85758 1.10800e-17
6900.29733 1.09542e-17
6904.72705 1.12912e-17
6909.16680 1.12934e-17
6913.59652 1.11476e-17
6918.02625 1.10558e-17
6922.46599 1.09210e-17
6926.89572 1.10754e-17
6931.33546 1.13354e-17
6935.76519 1.13908e-17
6940.19491 1.10089e-17
6944.63466 1.06749e-17
6949.06438 1.09868e-17
6953.50413 1.14079e-17
6957.93385 1.12335e-17
6962.36358 1.09828e-17
6966.80332 1.11776e-17
6971.23305 1.12442e-17
6975.67279 1.12526e-17
6980.10252 1.10868e-17
6984.53224 1.10912e-17
6988.97199 1.14926e-17
6993.40171 1.17427e-17
6997.84146 1.16349e-17
7002.27118 1.14614e-17
7006.71093 1.11746e-17
7011.14065 1.12012e-17
7015.57037 1.14687e-17
7020.01012 1.12578e-17
7024.43984 1.12469e-17
7028.87959 1.11855e-17
7033.30931 1.06331e-17
7037.73904 1.05793e-17
7042.17878 1.09006e-17
7046.60851 1.11761e-17
7051.04825 1.09205e-17
7055.47798 1.07293e-17
7059.90770 1.12140e-17
7064.34745 1.11003e-17
7068.77717 1.08280e-17
7073.21692 1.08217e-17
7077.64664 1.06687e-17
7082.07637 1.04771e-17
7086.51611 1.08440e-17
7090.94584 1.07438e-17
7095.38558 1.08328e-17
7099.81531 1.09195e-17
7104.24503 1.04237e-17
7108.68478 1.05856e-17
7113.11450 1.04453e-17
7117.55425 1.00072e-17
7121.98397 1.03650e-17
7126.41369 1.03244e-17
7130.85344 1.02812e-17
7135.28316 1.08703e-17
7139.72291 1.09039e-17
7144.15263 1.03120e-17
7148.59238 1.02721e-17
7153.02210 1.04609e-17
7157.45183 9.89119e-18
7161.89157 9.81410e-18
7166.32130 9.97287e-18
7170.76104 1.01767e-17
7175.19077 1.04080e-17
7179.62049 1.05480e-17
7184.06024 1.09422e-17
7188.48996 1.10338e-17
7192.92971 1.07027e-17
7197.35943 1.08975e-17
7201.78916 1.08729e-17
7206.22890 1.11365e-17
7210.65863 1.15649e-17
7215.09837 1.12524e-17
7219.52810 1.14479e-17
7223.95782 1.18651e-17
7228.39757 1.15335e-17
7232.82729 1.14858e-17
7237.26704 1.19476e-17
7241.69676 1.17267e-17
7246.13651 1.11890e-17
7250.56623 1.14948e-17
7254.99595 1.16682e-17
7259.43570 1.13326e-17
7263.86542 1.12593e-17
7268.30517 1.14121e-17
7272.73489 1.13854e-17
7277.16462 1.14212e-17
7281.60436 1.13312e-17
7286.03409 1.11411e-17
7290.47383 1.12002e-17
7294.90356 1.13371e-17
7299.33328 1.10879e-17
7303.77303 1.11982e-17
7308.20275 1.13222e-17
7312.64250 1.11462e-17
7317.07222 1.08257e-17
7321.50195 1.09041e-17
7325.94169 1.12085e-17
7330.37142 1.11202e-17
7334.81116 1.14397e-17
7339.24089 1.12295e-17
7343.67061 1.10017e-17
7348.11036 1.14144e-17
7352.54008 1.13496e-17
7356.97983 1.11233e-17
7361.40955 1.13124e-17
7365.84930 1.12460e-17
7370.27902 1.10198e-17
7374.70874 1.09913e-17
7379.14849 1.11484e-17
7383.57821 1.10603e-17
7388.01796 1.11953e-17
7392.44768 1.10794e-17
7396.87741 1.13585e-17
7401.31715 1.10707e-17
7405.74688 1.11306e-17
7410.18662 1.15371e-17
7414.61635 1.15787e-17
7419.04607 1.11160e-17
7423.48582 1.06941e-17
7427.91554 1.09000e-17
7432.35529 1.14618e-17
7436.78501 1.11057e-17
7441.21474 1.03842e-17
7445.65448 1.05565e-17
7450.08421 1.08570e-17
7454.52395 1.06634e-17
7458.95368 1.08185e-17
7463.38340 1.02731e-17
7467.82315 9.49800e-18
7472.25287 9.67350e-18
7476.69262 1.01174e-17
7481.12234 9.44363e-18
7485.55206 8.68366e-18
7489.99181 8.37290e-18
7494.42153 8.41273e-18
7498.86128 8.44565e-18
7503.29100 7.65437e-18
7507.73075 7.50787e-18
7512.16047 7.58307e-18
7516.59020 7.30118e-18
7521.02994 6.88589e-18
7525.45967 6.58615e-18
7529.89941 6.07646e-18
7534.32914 5.80093e-18
7538.75886 5.56771e-18
7543.19861 5.29837e-18
7547.62833 4.44915e-18
7552.06808 4.60391e-18
7556.49780 5.18264e-18
7560.92753 4.84244e-18
7565.36727 4.67606e-18
7569.79700 4.70370e-18
7574.23674 4.65539e-18
7578.66647 4.61561e-18
7583.10621 4.54458e-18
7587.53594 4.80732e-18
7591.96566 5.02353e-18
7596.40541 5.32320e-18
7600.83513 5.42789e-18
7605.27488 5.64542e-18
7609.70460 5.84915e-18
7614.13432 6.31631e-18
7618.57407 6.08234e-18
7623.00379 5.85442e-18
7627.44354 6.10144e-18
7631.87326 6.73054e-18
7636.30299 7.15108e-18
7640.74273 7.18302e-18
7645.17246 7.74596e-18
7649.61220 8.18164e-18
7654.04193 7.82844e-18
7658.47165 7.97510e-18
7662.91140 8.24466e-18
7667.34112 8.60323e-18
7671.78087 9.27099e-18
7676.21059 9.39708e-18
7680.64032 9.53340e-18
7685.08006 1.00886e-17
7689.50979 1.04018e-17
7693.94953 1.01470e-17
7698.37926 1.00532e-17
7702.81900 1.06519e-17
7707.24873 1.05067e-17
7711.67845 1.06035e-17
7716.11820 1.04862e-17
7720.54792 1.04291e-17
7724.98767 1.04560e-17
7729.41739 1.04565e-17
7733.84711 1.07788e-17
7738.28686 1.14353e-17
7742.71658 1.12599e-17
7747.15633 1.08698e-17
7751.58605 1.08374e-17
7756.01578 1.12672e-17
7760.45552 1.17958e-17
7764.88525 1.21253e-17
7769.32499 1.21568e-17
7773.75472 1.23878e-17
7778.18444 1.21392e-17
7782.62419 1.19441e-17
7787.05391 1.22919e-17
7791.49366 1.22533e-17
7795.92338 1.20392e-17
7800.35311 1.23204e-17
7804.79285 1.27994e-17
7809.22258 1.25147e-17
7813.66232 1.20004e-17
7818.09205 1.23629e-17
7822.52177 1.23566e-17
7826.96152 1.20448e-17
7831.39124 1.21313e-17
7835.83099 1.23274e-17
7840.26071 1.22217e-17
7844.70046 1.22342e-17
7849.13018 1.22549e-17
7853.55990 1.17663e-17
7857.99965 1.16827e-17
7862.42937 1.20665e-17
7866.86912 1.18867e-17
7871.29884 1.17483e-17
7875.72857 1.15925e-17
7880.16831 1.13999e-17
7884.59804 1.17536e-17
7889.03778 1.14251e-17
7893.46751 1.08516e-17
7897.89723 1.07543e-17
7902.33698 1.09607e-17
7906.76670 1.10101e-17
7911.20645 1.09366e-17
7915.63617 1.13065e-17
7920.06590 1.14509e-17
7924.50564 1.13043e-17
7928.93537 1.13270e-17
7933.37511 1.13273e-17
7937.80484 1.04798e-17
7942.24458 1.06525e-17
7946.67431 1.06417e-17
7951.10403 1.05040e-17
7955.54378 1.03002e-17
7959.97350 1.04690e-17
7964.41325 1.02696e-17
7968.84297 1.00758e-17
7973.27269 9.92889e-18
7977.71244 1.01669e-17
7982.14216 1.00866e-17
7986.58191 9.46797e-18
7991.01163 9.54378e-18
7995.44136 9.94196e-18
7999.88110 9.71580e-18
8004.31083 9.30168e-18
8008.75057 9.55864e-18
8013.18030 9.46646e-18
8017.61002 9.19345e-18
8022.04977 9.19519e-18
8026.47949 8.86498e-18
8030.91924 8.72041e-18
8035.34896 8.90868e-18
8039.77869 8.98075e-18
8044.21843 8.61242e-18
8048.64816 8.55866e-18
8053.08790 8.65942e-18
8057.51763 8.62751e-18
8061.94735 8.22706e-18
8066.38710 7.68339e-18
8070.81682 7.63501e-18
8075.25657 7.76250e-18
8079.68629 7.96983e-18
8084.12604 8.02096e-18
8088.55576 7.94592e-18
8092.98548 7.83104e-18
8097.42523 7.60734e-18
8101.85495 7.50982e-18
8106.29470 7.81109e-18
8110.72442 7.56831e-18
8115.15415 7.13775e-18
8119.59389 7.12632e-18
8124.02362 7.17331e-18
8128.46336 6.99975e-18
8132.89309 6.62982e-18
8137.32281 6.03903e-18
8141.76256 6.25981e-18
8146.19228 6.89763e-18
8150.63203 6.74318e-18
8155.06175 6.56416e-18
8159.49148 6.25075e-18
8163.93122 6.13877e-18
8168.36095 5.96415e-18
8172.80069 5.58376e-18
8177.23042 5.19066e-18
8181.67016 5.23768e-18
8186.09989 5.32551e-18
8190.52961 4.87900e-18
8194.96936 4.53343e-18
8199.39908 4.14952e-18
8203.83883 4.28113e-18
8208.26855 3.94003e-18
8212.69827 3.42119e-18
8217.13802 3.54819e-18
8221.56774 3.69788e-18
8226.00749 3.35641e-18
8230.43721 2.98801e-18
8234.86694 2.98939e-18
8239.30668 2.66539e-18
8243.73641 2.55983e-18
8248.17615 2.59505e-18
8252.60588 2.47617e-18
8257.03560 2.52041e-18
8261.47535 2.51025e-18
8265.90507 2.35038e-18
8270.34482 2.15283e-18
8274.77454 2.20995e-18
8279.20427 2.35243e-18
8283.64401 2.33611e-18
8288.07374 2.28619e-18
8292.51348 2.25360e-18
8296.94321 2.75855e-18
8301.38295 2.64124e-18
8305.81268 2.06782e-18
8310.24240 2.21102e-18
8314.68215 2.26618e-18
8319.11187 2.10191e-18
8323.55162 2.17035e-18
8327.98134 2.75524e-18
8332.41106 3.13882e-18
8336.85081 3.30233e-18
8341.28053 2.98522e-18
8345.72028 2.65223e-18
8350.15000 2.63227e-18
8354.57973 3.33662e-18
8359.01947 3.47442e-18
8363.44920 3.13041e-18
8367.88894 3.35373e-18
8372.31867 3.69021e-18
8376.75841 3.85872e-18
8381.18814 3.76183e-18
8385.61786 3.70594e-18
8390.05761 3.63742e-18
8394.48733 3.28001e-18
8398.91706 3.12957e-18
8403.35680 3.18016e-18
8407.78653 3.28682e-18
8412.22627 3.26674e-18
8416.65600 3.58179e-18
8421.09574 3.81843e-18
8425.52547 4.37195e-18
8429.95519 4.11048e-18
8434.39494 3.94480e-18
8438.82466 4.21545e-18
8443.26441 4.52286e-18
8447.69413 4.49772e-18
8452.12385 4.85381e-18
8456.56360 5.08392e-18
8460.99332 4.52763e-18
8465.43307 4.66798e-18
8469.86279 5.14380e-18
8474.29252 5.80616e-18
8478.73226 6.03516e-18
8483.16199 5.84003e-18
8487.60173 6.48409e-18
8492.03146 6.90286e-18
8496.47120 6.54546e-18
8500.90093 6.27281e-18
8505.33065 6.25498e-18
8509.77040 6.95731e-18
8514.20012 7.76510e-18
8518.62985 7.45036e-18
8523.06959 7.65242e-18
8527.49932 8.59920e-18
8531.93906 8.61079e-18
8536.36879 8.55858e-18
8540.79851 8.51244e-18
8545.23826 8.61274e-18
8549.66798 8.95028e-18
8554.10773 8.78975e-18
8558.53745 8.61332e-18
8562.97720 9.08288e-18
8567.40692 9.32077e-18
8571.83664 9.51289e-18
8576.27639 9.08593e-18
8580.70611 9.27730e-18
8585.14586 9.06086e-18
8589.57558 8.77958e-18
8594.00531 9.34648e-18
8598.44505 9.35029e-18
8602.87478 8.53638e-18
8607.31452 8.84038e-18
8611.74425 9.64579e-18
8616.17397 9.75776e-18
8620.61372 9.70936e-18
8625.04344 1.01134e-17
8629.48319 9.91110e-18
8633.91291 9.71887e-18
8638.35266 1.00016e-17
8642.78238 9.68348e-18
8647.21211 8.72627e-18
8651.65185 8.44033e-18
8656.08158 8.72980e-18
8660.51130 9.00571e-18
8664.95105 9.19276e-18
8669.38077 9.41570e-18
8673.82052 1.01782e-17
8678.25024 9.87372e-18
8682.67996 9.50910e-18
8687.11971 1.02033e-17
8691.54943 9.82754e-18
8695.98918 9.36597e-18
8700.41890 8.79401e-18
8704.85865 8.72668e-18
8709.28837 8.57144e-18
8713.71810 8.30279e-18
8718.15784 8.37100e-18
8722.58757 7.54877e-18
8727.02731 7.67065e-18
8731.45704 8.62651e-18
8735.88676 8.53738e-18
8740.32651 8.49693e-18
8744.75623 7.70075e-18
8749.19598 8.06873e-18
8753.62570 8.22468e-18
8758.06545 8.31919e-18
8762.49517 7.34632e-18
8766.92490 6.89970e-18
8771.36464 7.33097e-18
8775.79437 7.36937e-18
8780.23411 7.08820e-18
8784.66384 6.53861e-18
8789.09356 5.85255e-18
8793.53331 5.84188e-18
8797.96303 6.08741e-18
8802.40278 5.77723e-18
8806.83250 5.21586e-18
8811.26222 4.98407e-18
8815.70197 4.64551e-18
8820.13169 4.62971e-18
8824.57144 5.42847e-18
8829.00116 4.91215e-18
8833.43089 4.37437e-18
8837.87063 4.57258e-18
8842.30036 4.80804e-18
8846.74010 4.29848e-18
8851.16983 4.03524e-18
8855.60957 3.83321e-18
8860.03930 4.01872e-18
8864.46902 4.16837e-18
8868.90877 4.02066e-18
8873.33849 3.62272e-18
8877.77824 3.56869e-18
8882.20796 3.78702e-18
8886.63769 4.01832e-18
8891.07743 4.20423e-18
8895.50716 3.83836e-18
8899.94690 4.13134e-18
8904.37663 4.23303e-18
8908.80635 4.52809e-18
8913.24610 4.91293e-18
8917.67582 4.43723e-18
8922.11557 4.71718e-18
8926.54529 5.36917e-18
8930.97501 5.25448e-18
8935.41476 5.19193e-18
8939.84448 5.27587e-18
8944.28423 4.98757e-18
8948.71395 5.11399e-18
8953.14368 5.32069e-18
8957.58342 5.74826e-18
8962.01315 5.83865e-18
8966.45289 5.46028e-18
8970.88262 5.52132e-18
8975.32236 5.30615e-18
8979.75209 5.41430e-18
8984.18181 5.69341e-18
8988.62156 5.65148e-18
8993.05128 4.91927e-18
8997.49103 5.04667e-18
9001.92075 5.36525e-18
9006.35048 5.31392e-18
9010.79022 5.15829e-18
9015.21995 4.80633e-18
9019.65969 5.04789e-18
9024.08942 5.20097e-18
9028.51914 5.16232e-18
9032.95889 5.00895e-18
9037.38861 5.35331e-18
9041.82836 4.96316e-18
9046.25808 5.16107e-18
9050.68780 4.85198e-18
9055.12755 4.61829e-18
9059.55727 4.12529e-18
9063.99702 4.47885e-18
9068.42674 5.25063e-18
9072.85647 5.68734e-18
9077.29621 5.22954e-18
9081.72594 5.31687e-18
9086.16568 5.53655e-18
9090.59541 5.59915e-18
9095.03515 5.74910e-18
9099.46488 5.49769e-18
9103.89460 5.56370e-18
9108.33435 6.07538e-18
9112.76407 5.37784e-18
9117.20382 4.56518e-18
9121.63354 5.12108e-18
9126.06327 5.24352e-18
9130.50301 5.48824e-18
9134.93274 6.69383e-18
9139.37248 6.53108e-18
9143.80221 5.98542e-18
9148.23193 5.95472e-18
9152.67168 4.99683e-18
9157.10140 4.53785e-18
9161.54115 4.99182e-18
9165.97087 4.99400e-18
9170.40059 4.91120e-18
9174.84034 5.12725e-18
9179.27006 4.32391e-18
9183.70981 3.96401e-18
9188.13953 4.89687e-18
9192.56926 5.65116e-18
9197.00900 5.02887e-18
9201.43873 5.81712e-18
9205.87847 6.00966e-18
9210.30820 5.79654e-18
9214.73792 6.14728e-18
9219.17767 6.09226e-18
9223.60739 5.52307e-18
9228.04714 4.58669e-18
9232.47686 4.58530e-18
9236.91661 4.54601e-18
9241.34633 5.28952e-18
9245.77606 6.03338e-18
9250.21580 7.21609e-18
9254.64553 6.75275e-18
9259.08527 6.03732e-18
9263.51500 6.39805e-18
9267.94472 5.81290e-18
9272.38447 5.12489e-18
9276.81419 4.60512e-18
9281.25394 5.74152e-18
9285.68366 5.39354e-18
9290.11338 6.13185e-18
9294.55313 6.41715e-18
9298.98285 5.38429e-18
9303.42260 5.25494e-18
9307.85232 5.17749e-18
9312.28205 5.38020e-18
9316.72179 5.93835e-18
9321.15152 6.00996e-18
9325.59126 5.43348e-18
9330.02099 5.04995e-18
9334.45071 4.85820e-18
9338.89046 4.75125e-18
9343.32018 5.20386e-18
9347.75993 5.02349e-18
9352.18965 4.96394e-18
9356.61938 5.68833e-18
9361.05912 5.45273e-18
9365.48885 4.80158e-18
9369.92859 3.94278e-18
9374.35832 3.94142e-18
9378.79806 4.68446e-18
9383.22779 3.67783e-18
9387.65751 3.40022e-18
9392.09726 3.80033e-18
9396.52698 4.13103e-18
9400.96673 4.65224e-18
9405.39645 4.94637e-18
9409.82617 4.69890e-18
9414.26592 3.31109e-18
9418.69564 3.17449e-18
9423.13539 4.07964e-18
9427.56511 4.03956e-18
9431.99484 4.65318e-18
9436.43458 4.30139e-18
9440.86431 2.84620e-18
9445.30405 3.59632e-18
9449.73378 4.24818e-18
9454.17352 3.53762e-18
9458.60325 4.09197e-18
9463.03297 4.11727e-18
9467.47272 3.51584e-18
9471.90244 3.96154e-18
9476.34219 4.06271e-18
9480.77191 3.80499e-18
9485.20164 3.98138e-18
9489.64138 4.27497e-18
9494.07111 4.19912e-18
9498.51085 4.01303e-18
9502.94058 5.18302e-18
9507.37030 5.52539e-18
9511.81005 4.30843e-18
9516.23977 4.41920e-18
9520.67952 5.55819e-18
9525.10924 4.99312e-18
9529.53896 5.08505e-18
9533.97871 4.29935e-18
9538.40843 4.06251e-18
9542.84818 4.03859e-18
9547.27790 4.15445e-18
9551.70763 5.37570e-18
9556.14737 5.88655e-18
9560.57710 4.81554e-18
9565.01684 3.94093e-18
9569.44657 3.76612e-18
9573.88631 3.99680e-18
9578.31604 3.53841e-18
9582.74576 2.97657e-18
9587.18551 2.78054e-18
9591.61523 2.60117e-18
9596.05498 3.33808e-18
9600.48470 4.37426e-18
9604.91443 4.68583e-18
9609.35417 4.46514e-18
9613.78390 3.98654e-18
9618.22364 3.89122e-18
9622.65337 4.23290e-18
9627.08309 4.58463e-18
9631.52284 3.99005e-18
9635.95256 3.76389e-18
9640.39231 4.12756e-18
9644.82203 4.30329e-18
9649.25175 4.23988e-18
9653.69150 3.14457e-18
9658.12122 3.38401e-18
9662.56097 3.31146e-18
9666.99069 3.60702e-18
9671.42042 5.16043e-18
9675.86016 4.50061e-18
9680.28989 3.74239e-18
9684.72963 3.66578e-18
9689.15936 3.78749e-18
9693.58908 4.35943e-18
9698.02883 4.12340e-18
9702.45855 3.18008e-18
9706.89830 2.01902e-18
9711.32802 2.67800e-18
9715.76777 4.04190e-18
9720.19749 4.66028e-18
9724.62722 4.44267e-18
9729.06696 3.40824e-18
9733.49669 3.53702e-18
9737.93643 2.69471e-18
9742.36616 3.17184e-18
9746.79588 4.45352e-18
9751.23563 3.54504e-18
9755.66535 3.15459e-18
9760.10510 3.52753e-18
9764.53482 2.23458e-18
9768.97457 2.50835e-18
9773.40429 3.15215e-18
9777.83401 3.55339e-18
9782.27376 3.45181e-18
9786.70348 2.47235e-18
9791.13321 1.83223e-18
9795.57295 2.71552e-18
9800.00268 3.43874e-18
9804.44242 3.67934e-18
9804.51940 3.67934e-18
9805.38086 3.69325e-18
9806.24232 3.70713e-18
9807.10378 3.70413e-18
9807.96524 3.70106e-18
9808.82671 3.69294e-18
9809.68817 3.68479e-18
9810.54963 3.68277e-18
9811.41109 3.68077e-18
9812.27255 3.69195e-18
9813.13402 3.70318e-18
9813.99548 3.73086e-18
9814.86696 3.75860e-18
9815.72842 3.78309e-18
9816.58988 3.80757e-18
9817.45134 3.80792e-18
9818.31280 3.80821e-18
9819.17427 3.78722e-18
9820.03573 3.76617e-18
9820.89719 3.73264e-18
9821.75865 3.69907e-18
9822.62012 3.66593e-18
9823.48158 3.63279e-18
9824.35306 3.61508e-18
9825.21452 3.59743e-18
9826.07598 3.59297e-18
9826.93744 3.58855e-18
9827.79890 3.58515e-18
9828.66037 3.58176e-18
9829.52183 3.57640e-18
9830.38329 3.57104e-18
9831.24475 3.56735e-18
9832.10621 3.56366e-18
9832.97769 3.56078e-18
9833.83915 3.55791e-18
9834.70062 3.55112e-18
9835.56208 3.54433e-18
9836.42354 3.53145e-18
9837.28500 3.51855e-18
9838.14647 3.50086e-18
9839.00793 3.48315e-18
9839.86939 3.46208e-18
9840.73085 3.44100e-18
9841.59231 3.41730e-18
9842.45377 3.39359e-18
9843.32525 3.36997e-18
9844.18672 3.34634e-18
9845.04818 3.33117e-18
9845.90964 3.31601e-18
9846.77110 3.31588e-18
9847.63256 3.31578e-18
9848.49403 3.32865e-18
9849.35549 3.34154e-18
9850.21695 3.36366e-18
9851.07841 3.38581e-18
9851.93987 3.41359e-18
9852.81135 3.44140e-18
9853.67282 3.47063e-18
9854.53428 3.49986e-18
9855.39574 3.52787e-18
9856.25720 3.55587e-18
9857.11866 3.58067e-18
9857.98013 3.60547e-18
9858.84159 3.62177e-18
9859.70305 3.63805e-18
9860.56451 3.63977e-18
9861.42597 3.64144e-18
9862.29745 3.62776e-18
9863.15891 3.61402e-18
9864.02038 3.58754e-18
9864.88184 3.56101e-18
9865.74330 3.52656e-18
9866.60476 3.49208e-18
9867.46622 3.45658e-18
9868.32769 3.42107e-18
9869.18915 3.38847e-18
9870.05061 3.35588e-18
9870.92209 3.32574e-18
9871.78355 3.29560e-18
9872.64501 3.26842e-18
9873.50648 3.24126e-18
9874.36794 3.21938e-18
9875.22940 3.19751e-18
9876.09086 3.18277e-18
9876.95232 3.16805e-18
9877.81379 3.16215e-18
9878.67525 3.15627e-18
9879.53671 3.15997e-18
9880.39817 3.16370e-18
9881.26965 3.17584e-18
9882.13111 3.18800e-18
9882.99257 3.20639e-18
9883.85404 3.22479e-18
9884.71550 3.24545e-18
9885.57696 3.26612e-18
9886.43842 3.28476e-18
9887.29988 3.30339e-18
9888.16135 3.31596e-18
9889.02281 3.32852e-18
9889.88427 3.33165e-18
9890.74573 3.33476e-18
9891.61721 3.32837e-18
9892.47867 3.32197e-18
9893.34014 3.30777e-18
9894.20160 3.29354e-18
9895.06306 3.27336e-18
9895.92452 3.25314e-18
9896.78598 3.22889e-18
9897.64745 3.20462e-18
9898.50891 3.17946e-18
9899.37037 3.15428e-18
9900.23183 3.13237e-18
9901.09329 3.11046e-18
9901.96477 3.09249e-18
9902.82623 3.07453e-18
9903.68770 3.05696e-18
9904.54916 3.03940e-18
9905.41062 3.02304e-18
9906.27208 3.00669e-18
9907.13354 2.99927e-18
9907.99501 2.99187e-18
9908.85647 2.99703e-18
9909.71793 3.00223e-18
9910.57939 3.01648e-18
9911.45087 3.03075e-18
9912.31233 3.04834e-18
9913.17380 3.06595e-18
9914.03526 3.07479e-18
9914.89672 3.08361e-18
9915.75818 3.07409e-18
9916.61964 3.06452e-18
9917.48111 3.04001e-18
9918.34257 3.01545e-18
9919.20403 2.98180e-18
9920.07551 2.94814e-18
9920.93697 2.91204e-18
9921.79843 2.87595e-18
9922.65989 2.84419e-18
9923.52136 2.81245e-18
9924.38282 2.78801e-18
9925.24428 2.76359e-18
9926.10574 2.74763e-18
9926.96720 2.73170e-18
9927.82867 2.71980e-18
9928.69013 2.70791e-18
9929.56161 2.69305e-18
9930.42307 2.67817e-18
9931.28453 2.65806e-18
9932.14599 2.63793e-18
9933.00746 2.61356e-18
9933.86892 2.58918e-18
9934.73038 2.56263e-18
9935.59184 2.53608e-18
9936.45330 2.51033e-18
9937.31477 2.48458e-18
9938.17623 2.46359e-18
9939.03769 2.44261e-18
9939.90917 2.43132e-18
9940.77063 2.42006e-18
9941.63209 2.41985e-18
9942.49355 2.41967e-18
9943.35502 2.42539e-18
9944.21648 2.43112e-18
9945.07794 2.43835e-18
9945.93940 2.44558e-18
9946.80086 2.45319e-18
9947.66233 2.46080e-18
9948.52379 2.46751e-18
9949.39527 2.47421e-18
9950.25673 2.47756e-18
9951.11819 2.48090e-18
9951.97965 2.47929e-18
9952.84112 2.47768e-18
9953.70258 2.47432e-18
9954.56404 2.47095e-18
9955.42550 2.46931e-18
9956.28696 2.46769e-18
9957.14843 2.46545e-18
9958.00989 2.46321e-18
9958.88137 2.45714e-18
9959.74283 2.45106e-18
9960.60429 2.43951e-18
9961.46575 2.42794e-18
9962.32721 2.40984e-18
9963.18868 2.39173e-18
9964.05014 2.37250e-18
9964.91160 2.35327e-18
9965.77306 2.34197e-18
9966.63452 2.33068e-18
9967.49599 2.32942e-18
9968.36747 2.32818e-18
9969.22893 2.33347e-18
9970.09039 2.33878e-18
9970.95185 2.35007e-18
9971.81331 2.36139e-18
9972.67477 2.38129e-18
9973.53624 2.40121e-18
9974.39770 2.42864e-18
9975.25916 2.45608e-18
9976.12062 2.48516e-18
9976.98208 2.51424e-18
9977.85356 2.54029e-18
9978.71503 2.56634e-18
9979.57649 2.58715e-18
9980.43795 2.60794e-18
9981.29941 2.62270e-18
9982.16087 2.63745e-18
9983.02234 2.64932e-18
9983.88380 2.66119e-18
9984.74526 2.67333e-18
9985.60672 2.68547e-18
9986.46818 2.69946e-18
9987.32965 2.71345e-18
9988.20112 2.73010e-18
9989.06259 2.74675e-18
9989.92405 2.76020e-18
9990.78551 2.77364e-18
9991.64697 2.77723e-18
9992.50843 2.78079e-18
9993.36990 2.77952e-18
9994.23136 2.77823e-18
9995.09282 2.78063e-18
9995.95428 2.78304e-18
9996.81574 2.78765e-18
9997.67721 2.79227e-18
9998.54869 2.79366e-18
9999.41015 2.79504e-18
