# wavelength flux
3502.86594 1.57765e-17
3507.15382 1.26939e-17
3511.44171 9.53639e-18
3515.72959 9.75407e-18
3520.00729 1.15251e-17
3524.29518 9.25160e-18
3528.58306 9.68369e-18
3532.86076 1.41515e-17
3537.14865 1.39609e-17
3541.43653 1.01372e-17
3545.72442 7.24811e-18
3550.00212 7.84223e-18
3554.29000 1.08606e-17
3558.57789 1.27668e-17
3562.85559 1.05605e-17
3567.14347 7.40388e-18
3571.43136 7.29236e-18
3575.71924 8.51911e-18
3579.99694 9.31456e-18
3584.28483 8.76355e-18
3588.57271 9.23615e-18
3592.85041 1.02138e-17
3597.13830 9.21112e-18
3601.42619 6.85928e-18
3605.70388 6.21061e-18
3609.99177 6.70367e-18
3614.27965 7.28696e-18
3618.56754 7.48093e-18
3622.84524 7.90808e-18
3627.13312 8.60499e-18
3631.42101 8.00003e-18
3635.69871 8.54858e-18
3639.98659 1.04286e-17
3644.27448 1.04313e-17
3648.56236 8.68278e-18
3652.84006 9.37610e-18
3657.12795 1.00810e-17
3661.41583 1.02584e-17
3665.69353 1.02750e-17
3669.98142 9.05682e-18
3674.26931 7.81211e-18
3678.54700 7.72356e-18
3682.83489 8.66216e-18
3687.12277 9.59722e-18
3691.41066 8.51601e-18
3695.68836 6.15990e-18
3699.97624 6.69242e-18
3704.26413 7.59417e-18
3708.54183 7.35644e-18
3712.82971 7.51371e-18
3717.11760 7.95853e-18
3721.40548 7.84410e-18
3725.68318 7.23123e-18
3729.97107 7.39573e-18
3734.25895 8.35569e-18
3738.53665 8.69171e-18
3742.82454 8.92425e-18
3747.11243 9.86160e-18
3751.39012 1.02416e-17
3755.67801 9.30231e-18
3759.96589 8.11264e-18
3764.25378 8.04146e-18
3768.53148 9.41621e-18
3772.81936 1.06530e-17
3777.10725 1.07742e-17
3781.38495 1.08324e-17
3785.67283 1.08905e-17
3789.96072 1.09486e-17
3794.24860 1.10067e-17
3798.52630 1.10647e-17
3802.81419 1.11228e-17
3807.10207 1.11809e-17
3811.37977 1.12389e-17
3815.66766 1.12969e-17
3819.95554 1.13549e-17
3824.23324 1.23738e-17
3828.52113 1.29767e-17
3832.80901 1.27667e-17
3837.09690 1.25885e-17
3841.37460 1.15054e-17
3845.66248 1.00274e-17
3849.95037 9.97091e-18
3854.22807 1.11441e-17
3858.51595 1.19559e-17
3862.80384 1.17940e-17
3867.09172 1.06337e-17
3871.36942 9.87664e-18
3875.65731 9.65804e-18
3879.94519 9.73474e-18
3884.22289 9.45557e-18
3888.51078 8.64045e-18
3892.79866 8.57860e-18
3897.07636 9.30069e-18
3901.36425 9.39115e-18
3905.65213 8.68085e-18
3909.94002 8.17816e-18
3914.21772 8.25365e-18
3918.50560 8.69488e-18
3922.79349 8.68671e-18
3927.07119 8.74036e-18
3931.35907 1.01211e-17
3935.64696 1.12118e-17
3939.93484 1.09711e-17
3944.21254 1.11856e-17
3948.50043 1.23570e-17
3952.78831 1.25556e-17
3957.06601 1.19660e-17
3961.35390 1.29660e-17
3965.64178 1.37871e-17
3969.91948 1.36183e-17
3974.20737 1.41388e-17
3978.49525 1.51410e-17
3982.78314 1.57405e-17
3987.06084 1.62945e-17
3991.34872 1.64451e-17
3995.63661 1.60722e-17
3999.91431 1.60241e-17
4004.20219 1.64173e-17
4008.49008 1.68491e-17
4012.77796 1.70549e-17
4017.05566 1.66849e-17
4021.34355 1.57723e-17
4025.63144 1.55428e-17
4029.90913 1.62567e-17
4034.19702 1.58848e-17
4038.48490 1.49724e-17
4042.76260 1.47430e-17
4047.05049 1.50044e-17
4051.33837 1.56702e-17
4055.62626 1.58233e-17
4059.90396 1.55456e-17
4064.19184 1.62619e-17
4068.47973 1.65283e-17
4072.75743 1.60987e-17
4077.04531 1.69499e-17
4081.33320 1.81086e-17
4085.62108 1.82498e-17
4089.89878 1.86997e-17
4094.18667 1.88310e-17
4098.47455 1.78532e-17
4102.75225 1.74725e-17
4107.04014 1.78584e-17
4111.32802 1.77254e-17
4115.60572 1.74030e-17
4119.89361 1.74696e-17
4124.18149 1.77839e-17
4128.46938 1.78517e-17
4132.74708 1.76139e-17
4137.03496 1.74176e-17
4141.32285 1.71758e-17
4145.60055 1.62990e-17
4149.88843 1.55349e-17
4154.17632 1.55589e-17
4158.46420 1.53943e-17
4162.74190 1.48864e-17
4167.02979 1.50900e-17
4171.31768 1.56903e-17
4175.59537 1.57015e-17
4179.88326 1.55423e-17
4184.17115 1.57356e-17
4188.45903 1.54778e-17
4192.73673 1.54489e-17
4197.02461 1.60968e-17
4201.31250 1.63163e-17
4205.59020 1.56696e-17
4209.87808 1.50786e-17
4214.16597 1.52046e-17
4218.44367 1.50337e-17
4222.73155 1.36979e-17
4227.01944 1.24676e-17
4231.30732 1.23775e-17
4235.58502 1.26338e-17
4239.87291 1.24851e-17
4244.16079 1.22519e-17
4248.43850 1.23934e-17
4252.72638 1.20657e-17
4257.01426 1.12398e-17
4261.30215 1.12372e-17
4265.57985 1.15824e-17
4269.86773 1.13107e-17
4274.15562 1.10071e-17
4278.43332 1.07937e-17
4282.72120 1.03077e-17
4287.00909 1.01735e-17
4291.28679 1.07231e-17
4295.57467 1.08884e-17
4299.86256 1.10847e-17
4304.15045 1.24852e-17
4308.42814 1.32470e-17
4312.71603 1.27108e-17
4317.00392 1.22243e-17
4321.28161 1.19535e-17
4325.56950 1.18966e-17
4329.85739 1.20635e-17
4334.14527 1.20717e-17
4338.42297 1.25445e-17
4342.71085 1.32749e-17
4346.99874 1.37235e-17
4351.27644 1.35722e-17
4355.56432 1.33666e-17
4359.85221 1.34101e-17
4364.12991 1.37114e-17
4368.41779 1.38191e-17
4372.70568 1.42117e-17
4376.99356 1.46447e-17
4381.27126 1.39198e-17
4385.55915 1.34016e-17
4389.84703 1.41171e-17
4394.12474 1.41204e-17
4398.41262 1.32994e-17
4402.70050 1.31188e-17
4406.98839 1.37618e-17
4411.26609 1.45169e-17
4415.55397 1.51621e-17
4419.84186 1.61617e-17
4424.11956 1.61796e-17
4428.40744 1.58761e-17
4432.69533 1.55727e-17
4436.97303 1.52694e-17
4441.26091 1.49663e-17
4445.54880 1.46634e-17
4449.83669 1.43606e-17
4454.11438 1.40580e-17
4458.40227 1.37555e-17
4462.69016 1.34532e-17
4466.96785 1.30583e-17
4471.25574 1.28697e-17
4475.54363 1.25914e-17
4479.83151 1.22774e-17
4484.10921 1.23435e-17
4488.39709 1.18723e-17
4492.68498 1.10805e-17
4496.96268 1.15751e-17
4501.25056 1.18921e-17
4505.53845 1.15717e-17
4509.82633 1.23307e-17
4514.10403 1.30736e-17
4518.39192 1.30792e-17
4522.67980 1.21559e-17
4526.95750 1.18185e-17
4531.24539 1.20807e-17
4535.53327 1.22625e-17
4539.81098 1.25867e-17
4544.09886 1.25323e-17
4548.38675 1.23299e-17
4552.67463 1.26225e-17
4556.95233 1.32814e-17
4561.24021 1.34597e-17
4565.52810 1.35126e-17
4569.80580 1.38488e-17
4574.09368 1.41000e-17
4578.38157 1.45664e-17
4582.65927 1.51567e-17
4586.94715 1.53025e-17
4591.23504 1.50383e-17
4595.52293 1.49073e-17
4599.80062 1.51849e-17
4604.08851 1.56322e-17
4608.37640 1.61071e-17
4612.65409 1.63372e-17
4616.94198 1.63238e-17
4621.22986 1.68686e-17
4625.51775 1.78009e-17
4629.79545 1.89485e-17
4634.08333 1.95514e-17
4638.37122 1.94498e-17
4642.64892 1.92858e-17
4646.93680 1.93967e-17
4651.22469 1.95178e-17
4655.50239 1.94532e-17
4659.79027 2.00768e-17
4664.07816 2.12997e-17
4668.36604 2.22183e-17
4672.64375 2.26584e-17
4676.93163 2.22712e-17
4681.21951 2.17933e-17
4685.49722 2.22143e-17
4689.78510 2.24115e-17
4694.07298 2.21425e-17
4698.36087 2.20848e-17
4702.63857 2.22134e-17
4706.92645 2.24218e-17
4711.21434 2.21955e-17
4715.49204 2.16550e-17
4719.77992 2.19460e-17
4724.06781 2.25225e-17
4728.35570 2.19490e-17
4732.63339 2.09720e-17
4736.92128 2.06333e-17
4741.20917 2.04926e-17
4745.48686 2.00311e-17
4749.77475 1.95980e-17
4754.06264 1.93080e-17
4758.34033 1.87648e-17
4762.62822 1.83127e-17
4766.91610 1.80799e-17
4771.20399 1.70145e-17
4775.48169 1.58648e-17
4779.76957 1.58223e-17
4784.05746 1.55912e-17
4788.33516 1.45788e-17
4792.62304 1.35282e-17
4796.91093 1.30567e-17
4801.18863 1.34432e-17
4805.47651 1.38195e-17
4809.76440 1.35928e-17
4814.05228 1.38028e-17
4818.32999 1.48531e-17
4822.61787 1.54880e-17
4826.90575 1.51293e-17
4831.18346 1.49498e-17
4835.47134 1.56386e-17
4839.75922 1.61897e-17
4844.04711 1.65239e-17
4848.32481 1.72400e-17
4852.61269 1.73867e-17
4856.90058 1.66766e-17
4861.17828 1.60572e-17
4865.46616 1.58965e-17
4869.75405 1.64272e-17
4874.04194 1.73469e-17
4878.31963 1.73925e-17
4882.60752 1.70589e-17
4886.89541 1.72323e-17
4891.17310 1.71439e-17
4895.46099 1.64677e-17
4899.74888 1.62638e-17
4904.02657 1.67707e-17
4908.31446 1.68801e-17
4912.60234 1.66017e-17
4916.89023 1.68165e-17
4921.16793 1.73073e-17
4925.45581 1.74495e-17
4929.74370 1.73137e-17
4934.02140 1.73308e-17
4938.30928 1.73479e-17
4942.59717 1.73651e-17
4946.88505 1.73822e-17
4951.16275 1.73993e-17
4955.45064 1.74164e-17
4959.73852 1.74335e-17
4964.01623 1.74506e-17
4968.30411 1.74677e-17
4972.59200 1.74848e-17
4976.87988 1.76688e-17
4981.15758 1.75694e-17
4985.44546 1.75538e-17
4989.73335 1.78012e-17
4994.01105 1.76330e-17
4998.29893 1.72494e-17
5002.58682 1.73586e-17
5006.86452 1.77803e-17
5011.15240 1.78872e-17
5015.44029 1.76274e-17
5019.72818 1.75380e-17
5024.00587 1.79368e-17
5028.29376 1.86109e-17
5032.58165 1.87078e-17
5036.85934 1.88047e-17
5041.14723 1.89015e-17
5045.43512 1.89983e-17
5049.71281 1.90950e-17
5054.00070 1.91917e-17
5058.28858 1.92883e-17
5062.57647 1.93848e-17
5066.85417 1.94814e-17
5071.14205 1.95778e-17
5075.42994 1.92484e-17
5079.70764 1.89038e-17
5083.99552 1.86246e-17
5088.28341 1.83455e-17
5092.57129 1.80667e-17
5096.84900 1.77880e-17
5101.13688 1.75094e-17
5105.42476 1.72311e-17
5109.70247 1.69529e-17
5113.99035 1.66748e-17
5118.27823 1.63969e-17
5122.56612 1.57358e-17
5126.84382 1.51200e-17
5131.13170 1.50736e-17
5135.41959 1.52986e-17
5139.69729 1.50790e-17
5143.98517 1.45010e-17
5148.27306 1.46355e-17
5152.55076 1.51576e-17
5156.83864 1.51176e-17
5161.12653 1.48049e-17
5165.41442 1.46187e-17
5169.69211 1.47283e-17
5173.98000 1.47654e-17
5178.26789 1.46456e-17
5182.54558 1.49957e-17
5186.83347 1.54923e-17
5191.12135 1.53571e-17
5195.40924 1.51900e-17
5199.68694 1.56004e-17
5203.97482 1.59410e-17
5208.26271 1.59371e-17
5212.54041 1.55712e-17
5216.82829 1.53578e-17
5221.11618 1.55856e-17
5225.39388 1.58596e-17
5229.68176 1.58703e-17
5233.96965 1.59893e-17
5238.25753 1.59902e-17
5242.53524 1.56194e-17
5246.82312 1.56676e-17
5251.11100 1.59560e-17
5255.38871 1.55842e-17
5259.67659 1.52250e-17
5263.96447 1.58326e-17
5268.25236 1.65073e-17
5272.53006 1.61551e-17
5276.81794 1.60896e-17
5281.10583 1.63626e-17
5285.38353 1.61057e-17
5289.67141 1.58116e-17
5293.95930 1.58703e-17
5298.23700 1.58682e-17
5302.52488 1.59157e-17
5306.81277 1.65222e-17
5311.10066 1.70317e-17
5315.37835 1.71480e-17
5319.66624 1.72464e-17
5323.95413 1.72776e-17
5328.23182 1.70469e-17
5332.51971 1.69095e-17
5336.80759 1.72770e-17
5341.09548 1.77905e-17
5345.37318 1.80565e-17
5349.66106 1.82783e-17
5353.94895 1.84689e-17
5358.22665 1.85537e-17
5362.51453 1.90316e-17
5366.80242 1.97245e-17
5371.08012 1.98512e-17
5375.36800 1.98877e-17
5379.65589 2.00101e-17
5383.94377 1.97402e-17
5388.22148 1.98023e-17
5392.50936 2.04891e-17
5396.79725 2.06873e-17
5401.07495 2.01400e-17
5405.36283 1.99682e-17
5409.65071 2.04318e-17
5413.93860 2.06612e-17
5418.21630 2.05417e-17
5422.50418 2.03535e-17
5426.79207 2.05253e-17
5431.06977 2.10533e-17
5435.35765 2.11240e-17
5439.64554 2.07804e-17
5443.92324 2.04386e-17
5448.21112 2.04511e-17
5452.49901 2.07487e-17
5456.78690 2.10714e-17
5461.06459 2.14213e-17
5465.35248 2.15216e-17
5469.64037 2.12819e-17
5473.91806 2.10408e-17
5478.20595 2.08626e-17
5482.49383 2.04994e-17
5486.78172 2.03525e-17
5491.05942 2.04089e-17
5495.34730 2.05641e-17
5499.63519 2.04205e-17
5503.91289 1.96294e-17
5508.20077 1.90506e-17
5512.48866 1.91613e-17
5516.76636 1.93395e-17
5521.05425 1.94734e-17
5525.34213 1.95983e-17
5529.63001 1.95226e-17
5533.90772 1.96273e-17
5538.19560 1.99960e-17
5542.48348 2.00246e-17
5546.76119 1.95802e-17
5551.04907 1.92082e-17
5555.33695 1.94423e-17
5559.62484 1.99608e-17
5563.90254 2.00400e-17
5568.19042 1.97767e-17
5572.47831 1.97469e-17
5576.75601 1.99028e-17
5581.04389 1.98911e-17
5585.33178 1.99407e-17
5589.60948 2.02267e-17
5593.89736 2.00442e-17
5598.18525 1.97527e-17
5602.47314 2.01244e-17
5606.75083 2.03390e-17
5611.03872 1.99722e-17
5615.32660 1.98987e-17
5619.60430 1.99167e-17
5623.89219 1.96396e-17
5628.18007 1.98580e-17
5632.46796 2.01428e-17
5636.74566 2.00979e-17
5641.03354 2.03918e-17
5645.32143 2.02683e-17
5649.59913 1.98238e-17
5653.88701 1.96149e-17
5658.17490 1.94818e-17
5662.45260 1.94360e-17
5666.74049 1.96593e-17
5671.02837 1.97111e-17
5675.31625 1.92875e-17
5679.59396 1.88743e-17
5683.88184 1.85484e-17
5688.16972 1.82958e-17
5692.44743 1.85423e-17
5696.73531 1.89971e-17
5701.02319 1.90486e-17
5705.31108 1.84938e-17
5709.58878 1.81044e-17
5713.87666 1.80587e-17
5718.16455 1.78063e-17
5722.44225 1.74703e-17
5726.73013 1.73693e-17
5731.01802 1.73471e-17
5735.29572 1.71568e-17
5739.58360 1.66961e-17
5743.87149 1.60854e-17
5748.15938 1.56919e-17
5752.43707 1.55294e-17
5756.72496 1.50270e-17
5761.01284 1.44762e-17
5765.29054 1.45267e-17
5769.57843 1.46020e-17
5773.86631 1.42601e-17
5778.15420 1.39554e-17
5782.43190 1.41073e-17
5786.71978 1.42920e-17
5791.00767 1.39948e-17
5795.28537 1.39683e-17
5799.57325 1.42669e-17
5803.86114 1.45263e-17
5808.14902 1.47076e-17
5812.42673 1.46354e-17
5816.71461 1.46588e-17
5821.00250 1.49724e-17
5825.28020 1.52014e-17
5829.56808 1.50518e-17
5833.85596 1.49042e-17
5838.13367 1.49628e-17
5842.42155 1.51419e-17
5846.70943 1.56333e-17
5850.99732 1.55585e-17
5855.27502 1.49311e-17
5859.56290 1.44890e-17
5863.85079 1.43024e-17
5868.12849 1.42786e-17
5872.41637 1.44659e-17
5876.70426 1.49214e-17
5880.99215 1.53514e-17
5885.26984 1.53149e-17
5889.55773 1.51049e-17
5893.84562 1.52122e-17
5898.12331 1.55719e-17
5902.41120 1.62090e-17
5906.69908 1.68219e-17
5910.97678 1.72895e-17
5915.26467 1.79109e-17
5919.55255 1.83370e-17
5923.84044 1.82934e-17
5928.11814 1.81701e-17
5932.40602 1.85326e-17
5936.69391 1.89972e-17
5940.97161 1.89636e-17
5945.25950 1.88924e-17
5949.54738 1.90128e-17
5953.83526 1.89902e-17
5958.11297 1.91696e-17
5962.40085 1.92348e-17
5966.68873 1.89688e-17
5970.96644 1.88298e-17
5975.25432 1.88769e-17
5979.54220 1.91243e-17
5983.81991 1.95419e-17
5988.10779 1.94597e-17
5992.39567 1.88900e-17
5996.68356 1.85350e-17
6000.96126 1.86008e-17
6005.24914 1.89189e-17
6009.53703 1.90639e-17
6013.81473 1.89463e-17
6018.10261 1.86725e-17
6022.39050 1.83557e-17
6026.67839 1.84495e-17
6030.95608 1.85684e-17
6035.24397 1.86375e-17
6039.53185 1.86497e-17
6043.80955 1.85255e-17
6048.09744 1.84145e-17
6052.38532 1.82918e-17
6056.66302 1.81654e-17
6060.95091 1.80370e-17
6065.23879 1.79325e-17
6069.52668 1.78608e-17
6073.80438 1.76665e-17
6078.09226 1.74200e-17
6082.38015 1.73771e-17
6086.65785 1.76101e-17
6090.94574 1.75803e-17
6095.23362 1.70876e-17
6099.52150 1.68192e-17
6103.79921 1.67915e-17
6108.08709 1.66215e-17
6112.37497 1.66455e-17
6116.65268 1.66820e-17
6120.94056 1.64059e-17
6125.22844 1.63662e-17
6129.50615 1.64223e-17
6133.79403 1.62838e-17
6138.08191 1.59286e-17
6142.36980 1.58725e-17
6146.64750 1.58971e-17
6150.93538 1.56589e-17
6155.22327 1.56041e-17
6159.50097 1.57394e-17
6163.78885 1.57594e-17
6168.07674 1.58224e-17
6172.36463 1.59360e-17
6176.64232 1.57660e-17
6180.93021 1.54121e-17
6185.21809 1.53483e-17
6189.49579 1.54034e-17
6193.78368 1.55425e-17
6198.07156 1.55581e-17
6202.35945 1.52593e-17
6206.63715 1.50362e-17
6210.92503 1.50032e-17
6215.21292 1.48741e-17
6219.49062 1.45742e-17
6223.77850 1.43473e-17
6228.06639 1.46136e-17
6232.34409 1.52205e-17
6236.63198 1.54149e-17
6240.91986 1.49731e-17
6245.20775 1.46206e-17
6249.48545 1.48911e-17
6253.77333 1.52094e-17
6258.06121 1.51924e-17
6262.33892 1.53757e-17
6266.62680 1.57763e-17
6270.91468 1.56664e-17
6275.20257 1.50810e-17
6279.48027 1.48716e-17
6283.76815 1.53118e-17
6288.05604 1.57074e-17
6292.33374 1.56948e-17
6296.62162 1.55899e-17
6300.90951 1.55169e-17
6305.18721 1.52517e-17
6309.47509 1.48137e-17
6313.76298 1.43892e-17
6318.05087 1.38901e-17
6322.32856 1.33967e-17
6326.61645 1.32550e-17
6330.90433 1.33907e-17
6335.18203 1.33745e-17
6339.46992 1.29168e-17
6343.75780 1.25573e-17
6348.03550 1.23826e-17
6352.32339 1.23199e-17
6356.61127 1.22934e-17
6360.89916 1.21742e-17
6365.17686 1.21979e-17
6369.46475 1.23035e-17
6373.75263 1.23001e-17
6378.03033 1.24031e-17
6382.31822 1.25974e-17
6386.60610 1.26163e-17
6390.89399 1.26423e-17
6395.17169 1.25026e-17
6399.45957 1.24033e-17
6403.74745 1.26891e-17
6408.02516 1.29983e-17
6412.31304 1.29606e-17
6416.60092 1.28806e-17
6420.88881 1.30187e-17
6425.16651 1.30125e-17
6429.45439 1.31470e-17
6433.74228 1.34363e-17
6438.01998 1.35328e-17
6442.30786 1.34166e-17
6446.59575 1.31363e-17
6450.87345 1.31123e-17
6455.16133 1.34080e-17
6459.44922 1.35748e-17
6463.73710 1.35275e-17
6468.01480 1.36604e-17
6472.30269 1.38806e-17
6476.59057 1.40867e-17
6480.86827 1.42381e-17
6485.15616 1.42653e-17
6489.44404 1.43745e-17
6493.73193 1.46332e-17
6498.00963 1.49775e-17
6502.29751 1.53789e-17
6506.58540 1.57595e-17
6510.86310 1.61502e-17
6515.15099 1.65727e-17
6519.43887 1.70089e-17
6523.72675 1.76435e-17
6528.00446 1.81377e-17
6532.29234 1.83378e-17
6536.58022 1.86335e-17
6540.85793 1.90371e-17
6545.14581 1.93421e-17
6549.43369 1.95063e-17
6553.71140 1.97898e-17
6557.99928 2.02879e-17
6562.28716 2.05965e-17
6566.57505 2.07841e-17
6570.85275 2.10790e-17
6575.14063 2.13550e-17
6579.42852 2.15820e-17
6583.70622 2.15947e-17
6587.99410 2.17451e-17
6592.28199 2.20287e-17
6596.55969 2.20327e-17
6600.84757 2.19983e-17
6605.13546 2.19993e-17
6609.42334 2.19565e-17
6613.70104 2.20195e-17
6617.98893 2.22156e-17
6622.27681 2.23026e-17
6626.55451 2.20731e-17
6630.84240 2.18473e-17
6635.13028 2.19075e-17
6639.41817 2.21182e-17
6643.69587 2.21958e-17
6647.98375 2.21280e-17
6652.27164 2.21672e-17
6656.54934 2.21155e-17
6660.83723 2.20638e-17
6665.12511 2.20120e-17
6669.41300 2.19603e-17
6673.69070 2.19087e-17
6677.97858 2.18570e-17
6682.26646 2.18053e-17
6686.54417 2.17537e-17
6690.83205 2.17020e-17
6695.11993 2.16504e-17
6699.39763 2.15988e-17
6703.68552 2.15472e-17
6707.97340 2.14956e-17
6712.26129 2.14441e-17
6716.53899 2.13925e-17
6720.82687 2.16325e-17
6725.11476 2.17929e-17
6729.39246 2.17808e-17
6733.68034 2.15852e-17
6737.96823 2.14459e-17
6742.25612 2.13085e-17
6746.53381 2.12675e-17
6750.82170 2.13367e-17
6755.10958 2.13611e-17
6759.38728 2.12529e-17
6763.67517 2.09877e-17
6767.96305 2.07336e-17
6772.24075 2.06896e-17
6776.52864 2.06328e-17
6780.81652 2.03301e-17
6785.10441 2.01631e-17
6789.38211 2.00916e-17
6793.67000 1.99057e-17
6797.95788 1.98553e-17
6802.23558 1.98516e-17
6806.52347 1.96063e-17
6810.81135 1.94107e-17
6815.08905 1.94018e-17
6819.37694 1.93349e-17
6823.66482 1.90512e-17
6827.95270 1.87870e-17
6832.23041 1.88720e-17
6836.51829 1.91044e-17
6840.80617 1.92245e-17
6845.08387 1.90158e-17
6849.37176 1.88073e-17
6853.65964 1.85987e-17
6857.94753 1.83903e-17
6862.22523 1.81818e-17
6866.51311 1.79735e-17
6870.80100 1.77652e-17
6875.07870 1.75569e-17
6879.36658 1.73487e-17
6883.65447 1.71406e-17
6887.94235 1.69324e-17
6892.22005 1.67244e-17
6896.50794 1.65164e-17
6900.79582 1.63084e-17
6905.07352 1.61005e-17
6909.36141 1.58927e-17
6913.64929 1.56849e-17
6917.92699 1.54771e-17
6922.21488 1.52694e-17
6926.50276 1.50618e-17
6930.79065 1.48542e-17
6935.06835 1.46467e-17
6939.35624 1.46343e-17
6943.64412 1.46019e-17
6947.92182 1.45385e-17
6952.20971 1.43214e-17
6956.49759 1.42306e-17
6960.78547 1.42061e-17
6965.06318 1.42273e-17
6969.35106 1.43012e-17
6973.63894 1.43410e-17
6977.91665 1.43371e-17
6982.20453 1.42835e-17
6986.49241 1.42714e-17
6990.77011 1.41695e-17
6995.05800 1.38981e-17
6999.34588 1.37933e-17
7003.63377 1.38801e-17
7007.91147 1.38768e-17
7012.19935 1.37788e-17
7016.48724 1.34561e-17
7020.76494 1.32769e-17
7025.05282 1.34713e-17
7029.34071 1.35192e-17
7033.62859 1.33976e-17
7037.90629 1.32948e-17
7042.19418 1.31605e-17
7046.48206 1.30371e-17
7050.75976 1.30073e-17
7055.04765 1.29935e-17
7059.33553 1.28965e-17
7063.61323 1.27865e-17
7067.90112 1.27727e-17
7072.18900 1.26861e-17
7076.47689 1.25895e-17
7080.75459 1.26891e-17
7085.04248 1.27382e-17
7089.33036 1.28085e-17
7093.60806 1.29726e-17
7097.89595 1.30433e-17
7102.18383 1.30378e-17
7106.47171 1.30505e-17
7110.74942 1.30716e-17
7115.03730 1.30220e-17
7119.32518 1.29467e-17
7123.60288 1.30543e-17
7127.89077 1.31722e-17
7132.17865 1.29925e-17
7136.45635 1.28386e-17
7140.74424 1.29482e-17
7145.03212 1.32101e-17
7149.32001 1.32238e-17
7153.59771 1.29317e-17
7157.88559 1.29255e-17
7162.17348 1.30663e-17
7166.45118 1.30273e-17
7170.73906 1.27912e-17
7175.02695 1.25722e-17
7179.31483 1.25419e-17
7183.59253 1.26793e-17
7187.88042 1.27049e-17
7192.16830 1.24995e-17
7196.44600 1.23721e-17
7200.73389 1.24316e-17
7205.02177 1.26081e-17
7209.29947 1.26285e-17
7213.58736 1.25723e-17
7217.87525 1.25760e-17
7222.16313 1.24404e-17
7226.44083 1.23009e-17
7230.72872 1.22645e-17
7235.01660 1.22541e-17
7239.29430 1.23945e-17
7243.58219 1.25251e-17
7247.87007 1.24127e-17
7252.15795 1.22575e-17
7256.43566 1.21391e-17
7260.72354 1.20612e-17
7265.01142 1.21229e-17
7269.28912 1.21262e-17
7273.57701 1.18958e-17
7277.86489 1.17943e-17
7282.15278 1.18463e-17
7286.43048 1.18539e-17
7290.71836 1.17984e-17
7295.00625 1.17226e-17
7299.28395 1.17882e-17
7303.57183 1.19284e-17
7307.85972 1.17974e-17
7312.13742 1.15703e-17
7316.42530 1.15884e-17
7320.71319 1.18325e-17
7325.00107 1.19387e-17
7329.27877 1.18375e-17
7333.56666 1.18175e-17
7337.85454 1.19032e-17
7342.13224 1.20279e-17
7346.42013 1.21423e-17
7350.70801 1.21805e-17
7354.99590 1.21166e-17
7359.27360 1.20741e-17
7363.56149 1.20771e-17
7367.84937 1.20716e-17
7372.12707 1.20801e-17
7376.41496 1.20229e-17
7380.70284 1.20051e-17
7384.98054 1.20989e-17
7389.26843 1.22116e-17
7393.55631 1.22312e-17
7397.84419 1.21053e-17
7402.12190 1.21058e-17
7406.40978 1.21196e-17
7410.69766 1.19833e-17
7414.97536 1.19116e-17
7419.26325 1.19348e-17
7423.55113 1.19270e-17
7427.83902 1.18319e-17
7432.11672 1.17248e-17
7436.40460 1.15825e-17
7440.69249 1.14807e-17
7444.97019 1.14597e-17
7449.25807 1.15406e-17
7453.54596 1.16772e-17
7457.82366 1.17992e-17
7462.11154 1.17484e-17
7466.39943 1.14925e-17
7470.68731 1.13131e-17
7474.96501 1.12667e-17
7479.25290 1.12478e-17
7483.54078 1.13349e-17
7487.81848 1.12109e-17
7492.10637 1.10185e-17
7496.39425 1.10880e-17
7500.68214 1.12079e-17
7504.95984 1.12553e-17
7509.24773 1.12509e-17
7513.53561 1.12938e-17
7517.81331 1.12906e-17
7522.10120 1.12626e-17
7526.38908 1.13151e-17
7530.66678 1.13054e-17
7534.95467 1.12402e-17
7539.24255 1.12407e-17
7543.53043 1.12160e-17
7547.80813 1.11945e-17
7552.09602 1.11509e-17
7556.38390 1.11074e-17
7560.66160 1.10638e-17
7564.94949 1.10203e-17
7569.23737 1.09767e-17
7573.52526 1.09332e-17
7577.80296 1.08897e-17
7582.09084 1.08462e-17
7586.37873 1.08027e-17
7590.65643 1.07592e-17
7594.94431 1.07157e-17
7599.23220 1.06723e-17
7603.50990 1.06288e-17
7607.79778 1.05854e-17
7612.08567 1.05419e-17
7616.37355 1.04985e-17
7620.65125 1.04551e-17
7624.93914 1.04117e-17
7629.22702 1.03683e-17
7633.50472 1.03250e-17
7637.79261 1.02816e-17
7642.08050 1.02383e-17
7646.36838 1.01949e-17
7650.64608 1.01516e-17
7654.93397 1.01083e-17
7659.22185 1.00650e-17
7663.49955 1.00217e-17
7667.78744 9.97841e-18
7672.07532 9.93514e-18
7676.35302 9.89189e-18
7680.64091 9.84864e-18
7684.92879 9.59052e-18
7689.21667 9.60365e-18
7693.49437 9.69939e-18
7697.78226 9.76947e-18
7702.07014 9.87010e-18
7706.34784 9.79210e-18
7710.63573 9.67308e-18
7714.92361 9.74288e-18
7719.21150 9.83915e-18
7723.48920 9.89770e-18
7727.77708 9.79917e-18
7732.06497 9.60305e-18
7736.34267 9.55616e-18
7740.63055 9.42571e-18
7744.91844 9.13961e-18
7749.20632 8.98568e-18
7753.48402 9.05491e-18
7757.77191 9.25219e-18
7762.05979 9.40190e-18
7766.33749 9.38213e-18
7770.62538 9.36664e-18
7774.91326 9.26566e-18
7779.19096 9.15899e-18
7783.47885 9.22153e-18
7787.76674 9.23613e-18
7792.05462 9.21650e-18
7796.33232 9.33650e-18
7800.62021 9.42758e-18
7804.90809 9.45110e-18
7809.18579 9.63981e-18
7813.47368 9.87952e-18
7817.76156 9.95846e-18
7822.03926 9.92181e-18
7826.32715 9.87655e-18
7830.61503 9.98302e-18
7834.90291 1.02200e-17
7839.18061 1.03567e-17
7843.46850 1.02592e-17
7847.75638 1.00833e-17
7852.03408 1.00653e-17
7856.32197 1.03091e-17
7860.60985 1.03540e-17
7864.89774 1.01892e-17
7869.17544 1.01118e-17
7873.46332 1.01412e-17
7877.75121 1.02398e-17
7882.02891 1.02234e-17
7886.31679 1.01577e-17
7890.60468 1.02385e-17
7894.88238 1.03335e-17
7899.17026 1.03787e-17
7903.45815 1.03486e-17
7907.74603 1.01422e-17
7912.02373 9.88209e-18
7916.31162 9.93086e-18
7920.59950 1.00379e-17
7924.87720 1.00348e-17
7929.16509 1.01730e-17
7933.45298 1.01772e-17
7937.74086 1.00996e-17
7942.01856 1.01640e-17
7946.30645 1.01668e-17
7950.59433 1.02328e-17
7954.87203 1.03137e-17
7959.15992 1.01474e-17
7963.44780 1.00389e-17
7967.73568 1.01296e-17
7972.01338 1.01514e-17
7976.30127 1.02670e-17
7980.58915 1.03321e-17
7984.86685 1.01267e-17
7989.15474 1.00900e-17
7993.44262 1.01298e-17
7997.72032 1.00172e-17
8002.00821 1.00289e-17
8006.29609 1.00436e-17
8010.58398 9.79862e-18
8014.86168 9.78084e-18
8019.14956 9.79527e-18
8023.43745 9.76106e-18
8027.71515 9.81024e-18
8032.00303 9.74576e-18
8036.29092 9.64329e-18
8040.57880 9.49078e-18
8044.85650 9.41920e-18
8049.14439 9.39709e-18
8053.43227 9.46672e-18
8057.70997 9.74017e-18
8061.99786 9.73203e-18
8066.28575 9.50854e-18
8070.56344 9.64566e-18
8074.85133 9.85891e-18
8079.13922 9.74624e-18
8083.42710 9.45709e-18
8087.70480 9.41655e-18
8091.99269 9.33853e-18
8096.28057 9.18537e-18
8100.55827 9.23776e-18
8104.84616 9.23365e-18
8109.13404 9.23229e-18
8113.42192 9.25812e-18
8117.69962 9.21890e-18
8121.98751 9.12021e-18
8126.27539 9.06282e-18
8130.55309 8.98887e-18
8134.84098 8.89908e-18
8139.12886 9.06731e-18
8143.40656 9.18937e-18
8147.69445 9.02475e-18
8151.98233 8.99670e-18
8156.27022 9.15083e-18
8160.54792 9.18542e-18
8164.83580 9.14694e-18
8169.12369 9.03877e-18
8173.40139 8.90184e-18
8177.68927 8.75897e-18
8181.97716 8.73033e-18
8186.26504 8.99857e-18
8190.54274 9.20126e-18
8194.83063 9.19655e-18
8199.11852 9.04098e-18
8203.39622 8.92475e-18
8207.68410 8.96131e-18
8211.97199 8.93214e-18
8216.25987 8.89706e-18
8220.53757 8.89304e-18
8224.82546 8.78509e-18
8229.11334 8.72116e-18
8233.39104 8.78755e-18
8237.67893 8.76448e-18
8241.96681 8.81642e-18
8246.24451 8.94470e-18
8250.53240 8.89695e-18
8254.82028 8.79614e-18
8259.10816 8.70084e-18
8263.38587 8.67064e-18
8267.67375 8.74580e-18
8271.96163 8.72210e-18
8276.23934 8.60892e-18
8280.52722 8.53101e-18
8284.81510 8.40562e-18
8289.10299 8.29672e-18
8293.38069 8.41736e-18
8297.66857 8.60732e-18
8301.95646 8.50149e-18
8306.23416 8.40555e-18
8310.52204 8.48305e-18
8314.80993 8.45147e-18
8319.08763 8.30118e-18
8323.37551 8.19931e-18
8327.66340 8.22426e-18
8331.94110 8.27758e-18
8336.22898 8.25544e-18
8340.51687 8.30919e-18
8344.80475 8.15265e-18
8349.08245 7.72104e-18
8353.37034 7.76854e-18
8357.65822 7.94262e-18
8361.93592 7.74565e-18
8366.22381 7.52268e-18
8370.51169 7.42183e-18
8374.79958 7.36273e-18
8379.07728 7.39666e-18
8383.36516 7.32990e-18
8387.65305 7.08644e-18
8391.93075 6.93960e-18
8396.21863 6.79030e-18
8400.50652 6.59886e-18
8404.79440 6.35208e-18
8409.07210 6.23454e-18
8413.35999 6.16661e-18
8417.64788 6.01033e-18
8421.92558 5.92135e-18
8426.21346 5.90004e-18
8430.50135 6.00269e-18
8434.78923 6.02919e-18
8439.06693 5.88800e-18
8443.35481 5.90903e-18
8447.64270 6.06432e-18
8451.92040 6.13750e-18
8456.20829 6.04592e-18
8460.49617 5.93833e-18
8464.77387 5.72953e-18
8469.06175 5.71298e-18
8473.34964 5.87404e-18
8477.63753 5.85247e-18
8481.91523 5.82805e-18
8486.20311 5.83840e-18
8490.49100 5.87143e-18
8494.76869 5.91337e-18
8499.05658 6.04186e-18
8503.34446 6.24622e-18
8507.63235 6.22903e-18
8511.91005 6.06806e-18
8516.19794 6.10476e-18
8520.48582 6.06192e-18
8524.76352 5.99692e-18
8529.05140 6.05080e-18
8533.33929 6.16916e-18
8537.61699 6.16744e-18
8541.90488 6.00958e-18
8546.19276 6.02486e-18
8550.48064 6.17845e-18
8554.75835 6.35193e-18
8559.04623 6.42341e-18
8563.33411 6.27260e-18
8567.61182 6.15274e-18
8571.89970 6.18963e-18
8576.18758 6.33885e-18
8580.47547 6.49398e-18
8584.75317 6.46288e-18
8589.04105 6.38352e-18
8593.32894 6.41066e-18
8597.60664 6.48549e-18
8601.89452 6.59005e-18
8606.18241 6.65913e-18
8610.46011 6.71070e-18
8614.74799 6.66822e-18
8619.03588 6.48213e-18
8623.32377 6.45332e-18
8627.60146 6.57671e-18
8631.88935 6.78381e-18
8636.17723 6.94886e-18
8640.45493 6.75918e-18
8644.74282 6.72147e-18
8649.03070 7.04399e-18
8653.31859 7.06667e-18
8657.59629 6.98753e-18
8661.88417 7.18041e-18
8666.17206 7.26390e-18
8670.44976 7.11357e-18
8674.73764 7.18212e-18
8679.02553 7.54944e-18
8683.30323 7.75135e-18
8687.59112 8.03894e-18
8691.87900 8.21627e-18
8696.16688 8.03739e-18
8700.44458 8.19185e-18
8704.73247 8.28280e-18
8709.02035 8.14041e-18
8713.29806 8.18560e-18
8717.58594 8.45428e-18
8721.87383 8.60841e-18
8726.16171 8.63073e-18
8730.43941 8.54626e-18
8734.72729 8.79056e-18
8739.01518 9.14304e-18
8743.29288 9.04623e-18
8747.58077 8.85898e-18
8751.86865 8.94248e-18
8756.15654 9.16298e-18
8760.43423 9.09639e-18
8764.72212 9.04685e-18
8769.01001 8.99016e-18
8773.28771 8.92952e-18
8777.57559 9.01019e-18
8781.86348 8.91075e-18
8786.14117 8.81735e-18
8790.42906 8.96943e-18
8794.71694 9.09183e-18
8798.99464 9.03483e-18
8803.28253 8.99955e-18
8807.57042 9.03746e-18
8811.85830 8.97354e-18
8816.13600 8.91471e-18
8820.42388 8.87043e-18
8824.71177 8.76788e-18
8828.98947 8.86963e-18
8833.27736 8.96121e-18
8837.56524 8.81125e-18
8841.85312 8.78542e-18
8846.13083 8.81309e-18
8850.41871 8.58023e-18
8854.70659 8.34536e-18
8858.98430 8.48317e-18
8863.27218 8.61929e-18
8867.56006 8.59707e-18
8871.84795 8.60445e-18
8876.12565 8.34817e-18
8880.41353 8.17996e-18
8884.70142 8.18495e-18
8888.97912 8.14433e-18
8893.26700 8.61636e-18
8897.55489 9.16199e-18
8901.84277 9.07000e-18
8906.12047 8.60784e-18
8910.40836 8.50561e-18
8914.69625 8.64482e-18
8918.97394 8.74635e-18
8923.26183 8.52395e-18
8927.54971 8.12447e-18
8931.82741 8.16973e-18
8936.11530 8.38311e-18
8940.40318 8.24818e-18
8944.69107 8.25865e-18
8948.96877 8.18224e-18
8953.25665 7.75800e-18
8957.54454 7.67106e-18
8961.82224 7.90198e-18
8966.11012 7.96721e-18
8970.39801 7.86449e-18
8974.68590 7.82703e-18
8978.96360 8.02843e-18
8983.25148 8.31472e-18
8987.53937 8.22607e-18
8991.81706 7.95268e-18
8996.10495 7.79029e-18
9000.39283 7.67492e-18
9004.68072 7.73922e-18
9008.95842 7.88183e-18
9013.24631 7.84458e-18
9017.53419 7.69290e-18
9021.81189 7.43930e-18
9026.09977 7.18446e-18
9030.38766 7.23104e-18
9034.66536 7.32468e-18
9038.95325 7.24059e-18
9043.24113 7.08467e-18
9047.51883 6.93028e-18
9051.80671 7.02719e-18
9056.09460 6.98231e-18
9060.38248 6.86973e-18
9064.66019 6.94508e-18
9068.94807 7.01649e-18
9073.23596 6.82454e-18
9077.51365 6.52452e-18
9081.80154 6.44167e-18
9086.08942 6.44244e-18
9090.37731 6.38277e-18
9094.65501 6.43031e-18
9098.94290 6.63897e-18
9103.23078 6.68501e-18
9107.50848 6.63124e-18
9111.79637 6.60900e-18
9116.08425 6.51691e-18
9120.37213 6.48614e-18
9124.64984 6.52466e-18
9128.93772 6.43160e-18
9133.22560 6.26377e-18
9137.50331 6.19467e-18
9141.79119 6.33484e-18
9146.07907 6.58532e-18
9150.36696 6.71693e-18
9154.64466 6.64387e-18
9158.93254 6.40980e-18
9163.22043 6.28237e-18
9167.49813 6.53963e-18
9171.78601 6.79035e-18
9176.07390 6.55538e-18
9180.35160 6.20692e-18
9184.63948 6.23596e-18
9188.92737 6.38973e-18
9193.21525 6.39503e-18
9197.49295 6.41287e-18
9201.78084 6.39960e-18
9206.06872 6.35045e-18
9210.34642 6.26959e-18
9214.63431 6.03825e-18
9218.92219 5.90557e-18
9223.19989 6.21495e-18
9227.48778 6.53754e-18
9231.77566 6.59721e-18
9236.06355 6.41794e-18
9240.34125 6.35366e-18
9244.62913 6.36138e-18
9248.91702 6.15080e-18
9253.19472 6.15699e-18
9257.48260 6.20519e-18
9261.77049 6.33987e-18
9266.05838 6.60104e-18
9270.33608 6.30441e-18
9274.62396 5.97376e-18
9278.91185 6.06277e-18
9283.18954 6.23435e-18
9287.47743 6.24775e-18
9291.76531 6.38244e-18
9296.04301 6.42449e-18
9300.33090 6.21543e-18
9304.61879 6.33824e-18
9308.90667 6.50764e-18
9313.18437 6.44207e-18
9317.47225 6.59412e-18
9321.76014 6.71294e-18
9326.03784 6.62377e-18
9330.32573 6.83965e-18
9334.61361 6.96224e-18
9338.90150 6.51030e-18
9343.17919 6.31930e-18
9347.46708 6.48599e-18
9351.75496 6.30118e-18
9356.03267 6.03066e-18
9360.32055 6.15461e-18
9364.60844 6.59416e-18
9368.88613 6.62383e-18
9373.17402 6.30643e-18
9377.46190 5.80252e-18
9381.74979 5.74772e-18
9386.02749 6.03130e-18
9390.31538 5.95926e-18
9394.60326 5.78471e-18
9398.89114 5.71947e-18
9403.16885 5.80431e-18
9407.45673 6.01218e-18
9411.74462 5.86461e-18
9416.02232 5.53846e-18
9420.31020 5.59239e-18
9424.59808 6.10529e-18
9428.87579 6.24448e-18
9433.16367 5.85509e-18
9437.45155 5.60694e-18
9441.73944 5.45839e-18
9446.01714 5.42557e-18
9450.30502 5.72574e-18
9454.59291 5.81717e-18
9458.87061 5.50546e-18
9463.15849 5.45303e-18
9467.44638 5.98374e-18
9471.72408 6.23048e-18
9476.01196 5.84112e-18
9480.29985 5.44447e-18
9484.58773 5.31383e-18
9488.86543 5.61958e-18
9493.15332 5.73922e-18
9497.44120 5.41948e-18
9501.71890 5.35739e-18
9506.00679 5.64974e-18
9510.29467 6.22203e-18
9514.57237 6.09162e-18
9518.86026 5.48735e-18
9523.14814 5.61670e-18
9527.43603 6.17510e-18
9531.71373 6.24783e-18
9536.00162 6.13258e-18
9540.28950 5.97582e-18
9544.56720 5.80842e-18
9548.85508 5.57570e-18
9553.14297 5.45519e-18
9557.43085 5.64077e-18
9561.70856 5.46237e-18
9565.99644 5.56117e-18
9570.28433 5.69584e-18
9574.56202 5.60988e-18
9578.84991 5.66393e-18
9583.13779 5.66256e-18
9587.42568 5.51233e-18
9591.70338 5.39225e-18
9595.99127 5.44824e-18
9600.27915 5.57577e-18
9604.55685 5.80383e-18
9608.84473 5.95125e-18
9613.13262 6.07551e-18
9617.41032 6.22226e-18
9621.69821 6.05560e-18
9625.98609 5.85209e-18
9630.27398 5.78853e-18
9634.55167 5.77944e-18
9638.83956 5.60725e-18
9643.12744 5.36547e-18
9647.40514 5.26904e-18
9651.69303 4.94269e-18
9655.98092 4.80038e-18
9660.26880 5.06463e-18
9664.54650 5.31740e-18
9668.83438 5.39729e-18
9673.12227 5.65904e-18
9677.39997 5.78322e-18
9681.68786 5.59150e-18
9685.97574 5.30702e-18
9690.26362 5.35680e-18
9694.54133 5.89499e-18
9698.82921 6.35729e-18
9703.11709 6.32766e-18
9707.39480 5.64499e-18
9711.68268 5.09538e-18
9715.97056 5.05623e-18
9720.24827 4.92160e-18
9724.53615 4.78652e-18
9728.82403 4.60735e-18
9733.11192 4.30101e-18
9737.38962 4.35730e-18
9741.67750 4.90813e-18
9745.96539 5.40733e-18
9750.24309 5.35844e-18
9754.53097 5.06503e-18
9758.81886 5.04003e-18
9763.09656 5.22651e-18
9767.38444 5.24921e-18
9771.67233 5.22098e-18
9775.96021 5.35133e-18
9780.23791 5.19354e-18
9784.52580 4.76436e-18
9788.81368 4.79010e-18
9793.09138 4.77138e-18
9797.37927 4.62731e-18
9801.66715 4.76279e-18
9805.94485 5.01418e-18
9810.23274 5.16060e-18
9814.52062 4.96209e-18
9818.80851 4.62914e-18
9823.08621 4.57847e-18
9827.37410 4.39417e-18
9831.66198 4.30271e-18
9835.94987 4.70040e-18
9840.22756 4.81088e-18
9844.51545 4.69146e-18
9848.80333 4.94292e-18
9853.08104 4.76798e-18
9857.36892 4.08055e-18
9861.65681 3.81415e-18
9865.93450 3.95152e-18
9870.22239 3.97630e-18
9874.51027 3.81143e-18
9878.79816 3.82637e-18
9883.07586 4.11616e-18
9887.36375 4.36581e-18
9891.65163 4.51350e-18
9895.92933 4.43941e-18
9900.21721 4.09918e-18
9904.50510 3.80635e-18
9908.79298 3.67065e-18
9913.07069 4.26962e-18
9917.35857 4.43834e-18
9921.64646 3.92335e-18
9925.92415 3.69657e-18
9930.21204 3.52635e-18
9934.49992 3.26754e-18
9938.77762 3.18396e-18
9943.06551 3.48911e-18
9947.35340 3.68366e-18
9951.64128 3.65208e-18
9955.91898 3.27525e-18
9960.20687 3.00615e-18
9964.49475 3.28189e-18
9968.77245 3.88848e-18
9973.06034 4.31705e-18
9977.34822 4.25436e-18
9981.63610 4.30388e-18
9985.91381 4.59648e-18
9990.20169 4.79559e-18
9994.48957 4.81828e-18
9998.76728 4.87956e-18
