# wavelength flux
3750.03552 2.27951e-17
3751.30865 1.91072e-17
3752.57158 9.36923e-18
3753.84471 7.64516e-18
3755.11783 1.32208e-17
3756.38078 1.38068e-17
3757.65390 1.50941e-17
3758.92702 2.15438e-17
3760.18996 8.99289e-18
3761.46309 1.75725e-18
3762.73621 1.41592e-17
3763.99915 2.29042e-17
3765.27228 2.48497e-17
3766.54540 2.97081e-17
3767.80834 2.70750e-17
3769.08147 1.53636e-17
3770.35459 4.49391e-18
3771.61753 8.19095e-18
3772.89066 1.78193e-17
3774.16379 2.05777e-17
3775.42672 2.07326e-17
3776.69985 2.05928e-17
3777.97297 2.04530e-17
3779.23592 2.03133e-17
3780.50904 1.99254e-17
3781.78217 1.95377e-17
3783.04510 1.91500e-17
3784.31823 1.87624e-17
3785.59135 1.83748e-17
3786.85430 1.79874e-17
3788.12742 1.75999e-17
3789.40054 1.72127e-17
3790.66348 1.68254e-17
3791.93661 1.64382e-17
3793.20973 1.60512e-17
3794.47267 1.56641e-17
3795.74580 1.52772e-17
3797.01892 1.48902e-17
3798.28186 1.45034e-17
3799.55499 1.41167e-17
3800.82811 1.37300e-17
3802.09105 1.33434e-17
3803.36418 1.29569e-17
3804.63731 1.25704e-17
3805.90024 1.21841e-17
3807.17337 1.17977e-17
3808.43631 1.14115e-17
3809.70944 1.10253e-17
3810.98256 1.06392e-17
3812.24550 1.02531e-17
3813.51862 9.86717e-18
3814.79175 9.48128e-18
3816.05469 9.09545e-18
3817.32781 8.70969e-18
3818.60094 1.36191e-17
3819.86388 1.73287e-17
3821.13701 1.70253e-17
3822.41013 1.60162e-17
3823.67307 1.60498e-17
3824.94619 1.40143e-17
3826.21932 1.48617e-17
3827.48226 1.87936e-17
3828.75538 2.03663e-17
3830.02851 1.41220e-17
3831.29145 8.63562e-18
3832.56457 1.46008e-17
3833.83770 1.73896e-17
3835.10064 9.48611e-18
3836.37376 6.15742e-18
3837.64689 1.27268e-17
3838.90983 1.70304e-17
3840.18295 1.66711e-17
3841.45608 1.44760e-17
3842.71902 3.78777e-18
3843.99214 -1.15234e-18
3845.26527 5.06446e-18
3846.52821 4.46064e-18
3847.80133 2.06250e-18
3849.07446 5.50752e-18
3850.33740 7.20451e-18
3851.61053 8.64012e-18
3852.88365 1.02845e-17
3854.14659 9.07446e-18
3855.41971 1.10490e-17
3856.69284 1.78862e-17
3857.95578 2.08508e-17
3859.22890 1.87356e-17
3860.50203 1.89933e-17
3861.76497 1.75334e-17
3863.03809 1.16343e-17
3864.31122 8.82878e-18
3865.57416 1.04855e-17
3866.84728 1.23573e-17
3868.12041 1.46584e-17
3869.38335 1.66183e-17
3870.65647 1.34684e-17
3871.91941 1.29247e-17
3873.19254 1.80730e-17
3874.46567 1.41578e-17
3875.72860 5.05110e-18
3877.00173 5.37804e-18
3878.27485 1.20598e-17
3879.53780 1.47782e-17
3880.81092 1.30667e-17
3882.08405 9.52096e-18
3883.34698 7.39243e-18
3884.62011 6.42847e-18
3885.89324 1.63825e-18
3887.15618 -7.01057e-19
3888.42930 9.69465e-18
3889.70242 1.83181e-17
3890.96537 1.73501e-17
3892.23849 1.34574e-17
3893.51161 1.09637e-17
3894.77455 9.17039e-18
3896.04768 7.14576e-18
3897.32080 7.19810e-18
3898.58374 1.26044e-17
3899.85687 1.82454e-17
3901.12999 1.89142e-17
3902.39293 1.71858e-17
3903.66606 1.94052e-17
3904.93919 2.27915e-17
3906.20212 2.04369e-17
3907.47525 1.52070e-17
3908.74837 1.01713e-17
3910.01131 6.63039e-18
3911.28444 1.07153e-17
3912.55756 1.52035e-17
3913.82050 1.58775e-17
3915.09363 1.93200e-17
3916.36676 2.14437e-17
3917.62969 1.45320e-17
3918.90282 9.58999e-18
3920.17594 1.18717e-17
3921.43889 1.60879e-17
3922.71201 1.83815e-17
3923.98513 1.98981e-17
3925.24807 2.01579e-17
3926.52120 1.62754e-17
3927.79432 1.42333e-17
3929.05726 1.62274e-17
3930.33039 1.84386e-17
3931.60351 1.78806e-17
3932.86645 1.65947e-17
3934.13958 1.66997e-17
3935.41270 1.61227e-17
3936.67564 1.56005e-17
3937.94877 1.47100e-17
3939.21171 1.38823e-17
3940.48483 1.27377e-17
3941.75796 1.16220e-17
3943.02090 1.32471e-17
3944.29403 1.69043e-17
3945.56715 1.74595e-17
3946.83009 1.77499e-17
3948.10321 1.90470e-17
3949.37634 1.99811e-17
3950.63928 1.72708e-17
3951.91241 1.17670e-17
3953.18553 1.17550e-17
3954.44847 1.95821e-17
3955.72159 2.60253e-17
3956.99472 2.89159e-17
3958.25766 2.85724e-17
3959.53078 2.56372e-17
3960.80391 2.33694e-17
3962.06685 2.42880e-17
3963.33997 2.57130e-17
3964.61310 2.15197e-17
3965.87604 1.34430e-17
3967.14916 1.14152e-17
3968.42229 1.29964e-17
3969.68523 1.22065e-17
3970.95835 1.12246e-17
3972.23148 1.11499e-17
3973.49442 1.21648e-17
3974.76755 1.42534e-17
3976.04067 1.53332e-17
3977.30361 1.60136e-17
3978.57673 1.64317e-17
3979.84986 1.35934e-17
3981.11280 7.98777e-18
3982.38593 6.43946e-18
3983.65905 1.14736e-17
3984.92199 1.62912e-17
3986.19511 1.68145e-17
3987.46824 1.67117e-17
3988.73118 1.74340e-17
3990.00430 1.58400e-17
3991.27743 1.39046e-17
3992.54037 1.51360e-17
3993.81349 1.73349e-17
3995.08662 1.94807e-17
3996.34956 2.02500e-17
3997.62269 1.89257e-17
3998.89581 1.73355e-17
4000.15875 1.80880e-17
4001.43187 2.31593e-17
4002.69481 2.43900e-17
4003.96794 2.18707e-17
4005.24106 2.05522e-17
4006.50400 2.13027e-17
4007.77713 2.10333e-17
4009.05025 1.57546e-17
4010.31319 8.39755e-18
4011.58632 1.09978e-17
4012.85944 1.76741e-17
4014.12238 2.28463e-17
4015.39551 2.51245e-17
4016.66863 2.29588e-17
4017.93157 1.89798e-17
4019.20470 1.66510e-17
4020.47782 1.69752e-17
4021.74077 1.72248e-17
4023.01389 1.86431e-17
4024.28701 1.89213e-17
4025.54995 1.64153e-17
4026.82308 1.68216e-17
4028.09620 2.17245e-17
4029.35914 2.45360e-17
4030.63227 2.41856e-17
4031.90539 2.36963e-17
4033.16833 2.15912e-17
4034.44146 1.97782e-17
4035.71458 2.11089e-17
4036.97752 2.28083e-17
4038.25065 2.73005e-17
4039.52378 2.97657e-17
4040.78671 2.79843e-17
4042.05984 2.30070e-17
4043.33296 1.78559e-17
4044.59591 1.48480e-17
4045.86903 1.43751e-17
4047.14216 1.76414e-17
4048.40509 2.06987e-17
4049.67822 2.56194e-17
4050.95134 2.89780e-17
4052.21429 2.09603e-17
4053.48741 1.11907e-17
4054.76053 1.64795e-17
4056.02347 2.43215e-17
4057.29660 2.24395e-17
4058.56972 1.51292e-17
4059.83266 1.20851e-17
4061.10579 1.70743e-17
4062.36873 2.51279e-17
4063.64185 2.77334e-17
4064.91498 2.31072e-17
4066.17792 1.99742e-17
4067.45104 2.17732e-17
4068.72417 2.11382e-17
4069.98711 1.94396e-17
4071.26023 1.93595e-17
4072.53336 1.69695e-17
4073.79630 1.38766e-17
4075.06943 1.62143e-17
4076.34255 2.00590e-17
4077.60549 2.22633e-17
4078.87861 2.22524e-17
4080.15174 2.27579e-17
4081.41468 2.17833e-17
4082.68781 1.68620e-17
4083.96093 1.66358e-17
4085.22387 1.77416e-17
4086.49699 1.81885e-17
4087.77012 1.91879e-17
4089.03306 1.84452e-17
4090.30618 1.80297e-17
4091.57931 2.19879e-17
4092.84225 2.49500e-17
4094.11537 2.34153e-17
4095.38850 2.08484e-17
4096.65144 1.84810e-17
4097.92456 1.83135e-17
4099.19769 2.16583e-17
4100.46063 2.57465e-17
4101.73376 2.76373e-17
4103.00688 2.72246e-17
4104.26982 2.54071e-17
4105.54294 2.19559e-17
4106.81607 1.65914e-17
4108.07901 1.32750e-17
4109.35214 1.36780e-17
4110.62526 1.40614e-17
4111.88820 1.47994e-17
4113.16133 1.65409e-17
4114.43445 1.92156e-17
4115.69739 2.38488e-17
4116.97051 2.46465e-17
4118.24364 1.80725e-17
4119.50658 1.18587e-17
4120.77970 1.28651e-17
4122.05283 1.87800e-17
4123.31577 2.13388e-17
4124.58889 1.92323e-17
4125.86202 1.87361e-17
4127.12496 2.00472e-17
4128.39808 2.10157e-17
4129.66103 2.32962e-17
4130.93415 2.03730e-17
4132.20727 1.58838e-17
4133.47021 1.18086e-17
4134.74334 9.57388e-18
4136.01646 9.83443e-18
4137.27941 1.00250e-17
4138.55253 1.18889e-17
4139.82565 1.94774e-17
4141.08860 2.17336e-17
4142.36172 1.60589e-17
4143.63484 1.28962e-17
4144.89779 1.37179e-17
4146.17091 1.43308e-17
4147.44403 1.59261e-17
4148.70698 1.68702e-17
4149.98010 1.53682e-17
4151.25322 1.65645e-17
4152.51617 1.79076e-17
4153.78929 1.91362e-17
4155.06242 2.17384e-17
4156.32535 2.16284e-17
4157.59848 1.87361e-17
4158.87160 1.88775e-17
4160.13454 1.86990e-17
4161.40767 1.81644e-17
4162.68080 2.08444e-17
4163.94373 2.39876e-17
4165.21686 2.33265e-17
4166.48999 2.22469e-17
4167.75292 2.37958e-17
4169.02605 2.19233e-17
4170.29918 1.93903e-17
4171.56211 2.01282e-17
4172.83524 2.21883e-17
4174.10837 2.33896e-17
4175.37130 2.29003e-17
4176.64443 2.02103e-17
4177.91755 1.99836e-17
4179.18050 2.14010e-17
4180.45362 1.90594e-17
4181.72674 1.70356e-17
4182.98969 1.76617e-17
4184.26281 1.59457e-17
4185.53593 1.42536e-17
4186.79887 1.48613e-17
4188.07200 1.38866e-17
4189.34512 1.32682e-17
4190.60806 1.63350e-17
4191.88119 1.85451e-17
4193.14413 1.63837e-17
4194.41725 1.48904e-17
4195.69038 1.51440e-17
4196.95332 1.43509e-17
4198.22645 1.38201e-17
4199.49957 1.60743e-17
4200.76251 1.60582e-17
4202.03564 1.33731e-17
4203.30876 1.61026e-17
4204.57170 1.94167e-17
4205.84482 1.65379e-17
4207.11795 1.53095e-17
4208.38089 1.69028e-17
4209.65401 1.77351e-17
4210.92714 1.86121e-17
4212.19008 1.89630e-17
4213.46321 1.71318e-17
4214.73633 1.90677e-17
4215.99927 2.28300e-17
4217.27239 2.14580e-17
4218.54552 1.66322e-17
4219.80846 1.58816e-17
4221.08158 1.94226e-17
4222.35471 2.09061e-17
4223.61765 2.07544e-17
4224.89077 1.96472e-17
4226.16390 1.62420e-17
4227.42684 1.24523e-17
4228.69996 1.09303e-17
4229.97309 1.16194e-17
4231.23603 1.34950e-17
4232.50915 1.65419e-17
4233.78228 2.10812e-17
4235.04522 2.33646e-17
4236.31834 2.01185e-17
4237.59147 1.68653e-17
4238.85441 1.79542e-17
4240.12753 1.78439e-17
4241.40066 1.36243e-17
4242.66360 1.15386e-17
4243.93673 1.41484e-17
4245.20985 1.59894e-17
4246.47279 1.47000e-17
4247.74592 1.28343e-17
4249.00886 1.18785e-17
4250.28198 1.21227e-17
4251.55510 1.48165e-17
4252.82823 1.90752e-17
4254.09117 1.90290e-17
4255.36429 1.54568e-17
4256.62723 1.43685e-17
4257.90036 1.63070e-17
4259.17349 1.66595e-17
4260.43642 1.51815e-17
4261.70955 1.73192e-17
4262.98268 1.96680e-17
4264.24561 1.62837e-17
4265.51874 1.27672e-17
4266.79187 1.45896e-17
4268.05480 1.65584e-17
4269.32793 1.63873e-17
4270.60105 1.58130e-17
4271.86400 1.47934e-17
4273.13712 1.34243e-17
4274.41025 1.28464e-17
4275.67318 1.21438e-17
4276.94631 1.02659e-17
4278.21943 1.01242e-17
4279.48237 1.34836e-17
4280.75550 1.79640e-17
4282.02862 1.93606e-17
4283.29156 1.48763e-17
4284.56469 1.26260e-17
4285.83781 1.62195e-17
4287.10075 1.46255e-17
4288.37388 1.19295e-17
4289.64700 1.40429e-17
4290.90995 1.50234e-17
4292.18307 1.25233e-17
4293.45619 1.06389e-17
4294.71914 1.12945e-17
4295.99226 1.22943e-17
4297.26538 1.16502e-17
4298.52832 1.07659e-17
4299.80145 1.06320e-17
4301.07457 1.17122e-17
4302.33751 1.45055e-17
4303.61064 1.74566e-17
4304.88376 1.84932e-17
4306.14671 1.75202e-17
4307.41983 1.39873e-17
4308.69296 1.30107e-17
4309.95590 1.32821e-17
4311.22902 1.29065e-17
4312.50214 1.45254e-17
4313.76508 1.80341e-17
4315.03821 1.96186e-17
4316.30115 1.91485e-17
4317.57427 1.69693e-17
4318.84740 1.41746e-17
4320.12052 1.36702e-17
4321.38346 1.39842e-17
4322.65659 1.41901e-17
4323.91953 1.68127e-17
4325.19265 1.76209e-17
4326.46578 1.66515e-17
4327.72872 1.57975e-17
4329.00184 1.38114e-17
4330.27497 1.13042e-17
4331.53791 1.06530e-17
4332.81103 1.15601e-17
4334.08416 1.25208e-17
4335.34710 1.33978e-17
4336.62023 1.40590e-17
4337.89335 1.43178e-17
4339.15629 1.31796e-17
4340.42941 1.09548e-17
4341.70254 9.68133e-18
4342.96548 1.07226e-17
4344.23860 1.43343e-17
4345.51173 1.60044e-17
4346.77467 1.43265e-17
4348.04779 1.28993e-17
4349.32092 1.41859e-17
4350.58386 1.65530e-17
4351.85699 1.70543e-17
4353.13011 1.55246e-17
4354.39305 1.47162e-17
4355.66618 1.15664e-17
4356.93930 8.70997e-18
4358.20224 9.85130e-18
4359.47537 1.21688e-17
4360.74849 1.20633e-17
4362.01143 1.06701e-17
4363.28455 1.28334e-17
4364.55768 1.80419e-17
4365.82062 2.03967e-17
4367.09375 1.49620e-17
4368.36687 9.91372e-18
4369.62981 1.37573e-17
4370.90294 1.60693e-17
4372.17606 1.30384e-17
4373.43900 1.07280e-17
4374.71213 1.16119e-17
4375.98525 1.28121e-17
4377.24819 1.36700e-17
4378.52131 1.56088e-17
4379.78425 1.60737e-17
4381.05738 1.35752e-17
4382.33050 1.51447e-17
4383.60363 1.80444e-17
4384.86657 1.48292e-17
4386.13969 8.95315e-18
4387.40263 8.34674e-18
4388.67576 1.12265e-17
4389.94888 1.17343e-17
4391.21182 1.26843e-17
4392.48495 1.57436e-17
4393.75807 1.66307e-17
4395.02101 1.45390e-17
4396.29414 1.29578e-17
4397.56726 1.35607e-17
4398.83021 1.55806e-17
4400.10333 1.69351e-17
4401.37646 1.75674e-17
4402.63940 1.79701e-17
4403.91252 1.59992e-17
4405.18564 1.43364e-17
4406.44859 1.62475e-17
4407.72171 1.69528e-17
4408.99483 1.66035e-17
4410.25777 1.58078e-17
4411.53090 1.38395e-17
4412.80402 1.39921e-17
4414.06696 1.73995e-17
4415.34009 1.98730e-17
4416.61322 1.88526e-17
4417.87615 1.59930e-17
4419.14928 1.34179e-17
4420.42241 1.22061e-17
4421.68534 1.45944e-17
4422.95847 1.79029e-17
4424.23159 1.64885e-17
4425.49453 1.13918e-17
4426.76766 1.14967e-17
4428.04078 1.16016e-17
4429.30372 1.17064e-17
4430.57685 1.18113e-17
4431.84998 1.19162e-17
4433.11291 1.20210e-17
4434.38604 1.21257e-17
4435.65917 1.22306e-17
4436.92210 1.23353e-17
4438.19523 1.24401e-17
4439.45817 1.25448e-17
4440.73129 1.26495e-17
4442.00442 1.27542e-17
4443.26736 1.28589e-17
4444.54049 1.29636e-17
4445.81361 1.30682e-17
4447.07655 1.31728e-17
4448.34968 1.32774e-17
4449.62280 1.33820e-17
4450.88574 1.34866e-17
4452.15886 1.35911e-17
4453.43199 1.36957e-17
4454.69493 1.38002e-17
4455.96805 1.39047e-17
4457.24118 1.40092e-17
4458.50412 1.41136e-17
4459.77725 1.42181e-17
4461.05037 1.43225e-17
4462.31331 1.44270e-17
4463.58644 1.52257e-17
4464.85956 1.61614e-17
4466.12250 1.45412e-17
4467.39563 1.28344e-17
4468.66875 1.13224e-17
4469.93169 1.27559e-17
4471.20482 1.77817e-17
4472.47794 1.83442e-17
4473.74088 1.72023e-17
4475.01400 1.73845e-17
4476.28713 1.68615e-17
4477.55007 1.72578e-17
4478.82319 1.85913e-17
4480.09632 1.81036e-17
4481.35926 1.77313e-17
4482.63238 1.91992e-17
4483.90551 1.71805e-17
4485.16845 1.49949e-17
4486.44157 1.60304e-17
4487.71470 1.74365e-17
4488.97764 1.75228e-17
4490.25076 1.77129e-17
4491.52389 1.76084e-17
4492.78683 1.71047e-17
4494.05995 1.69085e-17
4495.33308 1.71277e-17
4496.59602 1.67549e-17
4497.86914 1.46629e-17
4499.14227 1.35240e-17
4500.40521 1.66223e-17
4501.67833 1.86729e-17
4502.94127 1.94612e-17
4504.21440 2.04532e-17
4505.48752 2.01795e-17
4506.76065 1.83479e-17
4508.02359 1.62231e-17
4509.29672 1.40944e-17
4510.55966 1.32568e-17
4511.83278 1.51908e-17
4513.10591 1.71966e-17
4514.36884 1.71786e-17
4515.64197 1.55599e-17
4516.91509 1.46420e-17
4518.17803 1.54340e-17
4519.45116 1.50591e-17
4520.72428 1.38294e-17
4521.98722 1.26909e-17
4523.26035 1.15460e-17
4524.53348 1.11490e-17
4525.79641 1.12005e-17
4527.06954 1.10298e-17
4528.34267 1.18700e-17
4529.60560 1.26209e-17
4530.87873 1.33565e-17
4532.15186 1.47305e-17
4533.41479 1.55155e-17
4534.68792 1.50616e-17
4535.96104 1.56571e-17
4537.22399 1.78126e-17
4538.49711 1.67949e-17
4539.77023 1.37939e-17
4541.03317 1.30777e-17
4542.30630 1.58018e-17
4543.57942 1.66773e-17
4544.84236 1.34401e-17
4546.11549 1.20365e-17
4547.38861 1.38834e-17
4548.65155 1.50740e-17
4549.92468 1.58938e-17
4551.19780 1.56849e-17
4552.46075 1.62353e-17
4553.73387 1.63718e-17
4555.00700 1.34744e-17
4556.26994 1.35960e-17
4557.54306 1.54252e-17
4558.81618 1.57340e-17
4560.07913 1.70000e-17
4561.35225 1.96850e-17
4562.62537 2.13913e-17
4563.88831 1.96673e-17
4565.16144 1.54485e-17
4566.43456 1.58821e-17
4567.69750 1.60835e-17
4568.97063 1.33267e-17
4570.23357 1.22582e-17
4571.50670 1.66131e-17
4572.77982 2.22831e-17
4574.04276 2.19668e-17
4575.31588 1.73341e-17
4576.58901 1.42025e-17
4577.85195 1.29117e-17
4579.12507 1.37131e-17
4580.39820 1.67491e-17
4581.66114 1.89756e-17
4582.93426 1.83163e-17
4584.20739 1.74246e-17
4585.47033 1.73845e-17
4586.74345 1.52090e-17
4588.01658 1.32765e-17
4589.27952 1.53005e-17
4590.55264 1.70890e-17
4591.82577 1.47447e-17
4593.08871 1.40034e-17
4594.36183 1.66489e-17
4595.63496 1.79436e-17
4596.89790 1.68940e-17
4598.17102 1.64859e-17
4599.44415 1.73941e-17
4600.70709 1.80999e-17
4601.98022 1.93243e-17
4603.25334 2.19710e-17
4604.51628 2.24294e-17
4605.78940 2.09514e-17
4607.06253 1.74107e-17
4608.32547 1.58632e-17
4609.59859 1.79731e-17
4610.87172 1.74804e-17
4612.13466 1.56228e-17
4613.40778 1.82743e-17
4614.68091 2.16918e-17
4615.94385 2.12651e-17
4617.21698 1.70415e-17
4618.49010 1.36265e-17
4619.75304 1.48948e-17
4621.02617 1.76921e-17
4622.29929 1.93926e-17
4623.56223 2.33816e-17
4624.83536 2.63043e-17
4626.10848 2.39610e-17
4627.37142 2.13610e-17
4628.64454 2.20132e-17
4629.91767 2.12640e-17
4631.18061 2.04494e-17
4632.45374 1.96689e-17
4633.71667 1.98931e-17
4634.98980 2.13943e-17
4636.26292 2.18294e-17
4637.52586 1.90498e-17
4638.79899 1.54055e-17
4640.07211 1.60363e-17
4641.33505 1.85292e-17
4642.60818 1.99462e-17
4643.88130 2.01376e-17
4645.14425 1.93536e-17
4646.41737 1.86318e-17
4647.69049 1.82230e-17
4648.95344 1.72253e-17
4650.22656 1.89716e-17
4651.49968 1.99591e-17
4652.76262 1.86542e-17
4654.03575 1.88071e-17
4655.30887 2.10516e-17
4656.57181 2.22047e-17
4657.84494 2.15269e-17
4659.11806 2.02766e-17
4660.38100 1.94857e-17
4661.65413 1.92455e-17
4662.92725 1.97068e-17
4664.19020 2.01718e-17
4665.46332 2.01454e-17
4666.73645 2.05817e-17
4667.99939 2.11103e-17
4669.27251 2.03827e-17
4670.54563 1.91576e-17
4671.80858 1.87522e-17
4673.08170 1.90829e-17
4674.35482 1.88952e-17
4675.61776 1.90551e-17
4676.89089 2.21236e-17
4678.16401 2.41462e-17
4679.42695 2.26348e-17
4680.70008 2.19020e-17
4681.97321 2.18513e-17
4683.23614 2.19257e-17
4684.50927 2.30639e-17
4685.78240 2.20937e-17
4687.04533 2.19776e-17
4688.31846 2.16409e-17
4689.59159 2.00102e-17
4690.85452 1.90517e-17
4692.12765 1.97157e-17
4693.40077 2.02366e-17
4694.66372 2.05003e-17
4695.93684 2.34483e-17
4697.19978 2.48510e-17
4698.47290 2.31290e-17
4699.74603 2.15911e-17
4701.00897 2.12675e-17
4702.28209 2.11003e-17
4703.55522 2.12736e-17
4704.81816 2.11392e-17
4706.09128 1.94478e-17
4707.36441 1.86333e-17
4708.62735 2.01535e-17
4709.90048 2.15323e-17
4711.17360 2.05642e-17
4712.43654 1.86750e-17
4713.70967 1.77959e-17
4714.98279 1.72198e-17
4716.24573 1.85750e-17
4717.51885 2.16774e-17
4718.79198 2.05168e-17
4720.05492 1.54216e-17
4721.32804 1.49432e-17
4722.60117 1.97460e-17
4723.86411 2.16390e-17
4725.13724 2.15405e-17
4726.41036 2.28380e-17
4727.67330 2.37176e-17
4728.94643 2.30440e-17
4730.21955 2.18866e-17
4731.48249 2.00227e-17
4732.75562 1.83289e-17
4734.02874 1.91150e-17
4735.29168 2.09043e-17
4736.56480 2.20720e-17
4737.83793 2.21526e-17
4739.10087 2.03696e-17
4740.37399 1.74807e-17
4741.64712 1.66990e-17
4742.91006 1.83652e-17
4744.18318 1.89746e-17
4745.45631 1.83925e-17
4746.71925 1.67284e-17
4747.99237 1.55205e-17
4749.26550 1.67896e-17
4750.52844 1.74832e-17
4751.80156 1.62356e-17
4753.07469 1.67436e-17
4754.33763 1.69126e-17
4755.61075 1.58421e-17
4756.88388 1.54551e-17
4758.14682 1.58521e-17
4759.41994 1.58409e-17
4760.68289 1.45803e-17
4761.95601 1.35291e-17
4763.22913 1.43874e-17
4764.49207 1.41733e-17
4765.76520 1.41493e-17
4767.03832 1.58428e-17
4768.30126 1.57158e-17
4769.57439 1.55716e-17
4770.84751 1.75111e-17
4772.11046 1.88589e-17
4773.38358 1.59251e-17
4774.65671 1.30005e-17
4775.91964 1.32730e-17
4777.19277 1.35024e-17
4778.46590 1.41547e-17
4779.72883 1.58336e-17
4781.00196 1.48969e-17
4782.27508 1.41599e-17
4783.53802 1.46705e-17
4784.81115 1.50043e-17
4786.08427 1.46950e-17
4787.34721 1.34025e-17
4788.62034 1.33960e-17
4789.89347 1.24948e-17
4791.15640 1.20555e-17
4792.42953 1.35500e-17
4793.70266 1.65262e-17
4794.96559 1.78910e-17
4796.23872 1.49933e-17
4797.51184 1.30423e-17
4798.77478 1.52488e-17
4800.04791 1.51531e-17
4801.32103 1.29144e-17
4802.58398 1.24081e-17
4803.85710 1.27911e-17
4805.13022 1.26852e-17
4806.39317 1.36585e-17
4807.66629 1.53998e-17
4808.93941 1.62210e-17
4810.20235 1.48988e-17
4811.47548 1.23494e-17
4812.74860 1.05228e-17
4814.01154 1.02093e-17
4815.28467 1.13227e-17
4816.54761 1.33352e-17
4817.82074 1.33444e-17
4819.09386 1.25057e-17
4820.36699 1.46709e-17
4821.62993 1.70002e-17
4822.90305 1.45537e-17
4824.16599 1.06188e-17
4825.43912 1.07927e-17
4826.71224 1.37937e-17
4827.97518 1.59900e-17
4829.24830 1.60759e-17
4830.52143 1.47148e-17
4831.78437 1.43961e-17
4833.05750 1.65919e-17
4834.33062 1.78933e-17
4835.59356 1.55033e-17
4836.86668 1.24352e-17
4838.13981 1.19021e-17
4839.40275 1.32828e-17
4840.67587 1.52775e-17
4841.94900 1.66973e-17
4843.21194 1.63701e-17
4844.48506 1.68358e-17
4845.75819 1.69285e-17
4847.02113 1.63273e-17
4848.29425 1.75068e-17
4849.56738 1.97247e-17
4850.83032 1.93543e-17
4852.10344 1.68839e-17
4853.37657 1.67954e-17
4854.63951 1.89559e-17
4855.91263 1.90817e-17
4857.18576 1.69497e-17
4858.44870 1.58276e-17
4859.72182 1.71463e-17
4860.99495 1.91097e-17
4862.25789 1.95289e-17
4863.53101 1.87612e-17
4864.80414 1.77710e-17
4866.06708 1.77884e-17
4867.34021 1.80610e-17
4868.61333 1.76128e-17
4869.87627 1.63859e-17
4871.14939 1.47881e-17
4872.42252 1.63972e-17
4873.68546 1.91804e-17
4874.95858 1.99549e-17
4876.23171 1.86558e-17
4877.49465 1.64820e-17
4878.76777 1.55971e-17
4880.04090 1.71071e-17
4881.30384 1.77613e-17
4882.57697 1.84516e-17
4883.85009 1.96346e-17
4885.11303 2.07361e-17
4886.38616 2.01625e-17
4887.65928 1.78522e-17
4888.92222 1.59584e-17
4890.19535 1.47411e-17
4891.45828 1.58861e-17
4892.73141 1.62812e-17
4894.00453 1.44229e-17
4895.26748 1.41012e-17
4896.54060 1.53775e-17
4897.81372 1.46503e-17
4899.07666 1.44987e-17
4900.34979 1.68023e-17
4901.62291 1.60462e-17
4902.88585 1.51663e-17
4904.15898 1.73721e-17
4905.43210 1.81538e-17
4906.69504 1.48199e-17
4907.96817 1.26164e-17
4909.24129 1.50641e-17
4910.50424 1.64470e-17
4911.77736 1.74934e-17
4913.05049 1.62463e-17
4914.31343 1.39995e-17
4915.58655 1.57362e-17
4916.85967 1.78491e-17
4918.12262 1.67271e-17
4919.39574 1.63585e-17
4920.66886 1.76294e-17
4921.93180 1.90739e-17
4923.20493 1.85851e-17
4924.47805 1.65112e-17
4925.74100 1.59222e-17
4927.01412 1.67934e-17
4928.28725 1.76542e-17
4929.55019 1.73591e-17
4930.82331 1.73420e-17
4932.09644 1.67335e-17
4933.35938 1.67357e-17
4934.63250 1.67379e-17
4935.90562 1.67400e-17
4937.16856 1.67422e-17
4938.44169 1.67444e-17
4939.71481 1.67466e-17
4940.97775 1.67487e-17
4942.25088 1.67509e-17
4943.52400 1.67531e-17
4944.78694 1.67553e-17
4946.06007 1.67574e-17
4947.32301 1.67596e-17
4948.59613 1.67618e-17
4949.86926 1.67640e-17
4951.14239 1.67661e-17
4952.40532 1.67683e-17
4953.67845 1.67705e-17
4954.94139 1.67726e-17
4956.21451 1.67748e-17
4957.48764 1.67770e-17
4958.75058 1.67792e-17
4960.02371 1.67813e-17
4961.29683 1.67835e-17
4962.55977 1.67857e-17
4963.83289 1.67879e-17
4965.10602 1.67900e-17
4966.36896 1.67922e-17
4967.64208 1.67944e-17
4968.91521 1.67965e-17
4970.17815 1.67987e-17
4971.45127 1.80157e-17
4972.72440 1.80094e-17
4973.98734 1.67275e-17
4975.26047 1.60154e-17
4976.53359 1.63568e-17
4977.79653 1.66748e-17
4979.06966 1.68611e-17
4980.34278 1.67283e-17
4981.60572 1.55460e-17
4982.87884 1.44197e-17
4984.15197 1.41915e-17
4985.41491 1.56310e-17
4986.68803 1.62226e-17
4987.96116 1.55247e-17
4989.22410 1.60018e-17
4990.49723 1.69771e-17
4991.77035 1.62366e-17
4993.03329 1.64361e-17
4994.30642 1.87497e-17
4995.57954 1.97994e-17
4996.84248 1.81739e-17
4998.11560 1.67201e-17
4999.38873 1.68966e-17
5000.65167 1.66482e-17
5001.92479 1.60748e-17
5003.19792 1.57829e-17
5004.46086 1.47956e-17
5005.73398 1.48201e-17
5007.00711 1.66474e-17
5008.27005 1.79295e-17
5009.54317 1.79274e-17
5010.80611 1.77215e-17
5012.07924 1.64503e-17
5013.35236 1.54226e-17
5014.61530 1.58141e-17
5015.88843 1.55683e-17
5017.16155 1.51859e-17
5018.42450 1.68162e-17
5019.69762 1.67609e-17
5020.97075 1.48939e-17
5022.23369 1.46898e-17
5023.50681 1.53673e-17
5024.77994 1.64457e-17
5026.04288 1.82416e-17
5027.31600 1.82665e-17
5028.58912 1.59063e-17
5029.85207 1.60659e-17
5031.12519 1.84286e-17
5032.39831 1.84087e-17
5033.66125 1.83889e-17
5034.93438 1.83691e-17
5036.20750 1.83492e-17
5037.47044 1.83294e-17
5038.74357 1.83096e-17
5040.01670 1.82898e-17
5041.27963 1.82700e-17
5042.55276 1.82501e-17
5043.82589 1.82303e-17
5045.08882 1.82105e-17
5046.36195 1.81907e-17
5047.63507 1.81710e-17
5048.89801 1.81512e-17
5050.17114 1.81314e-17
5051.44426 1.81116e-17
5052.70720 1.80918e-17
5053.98033 1.80720e-17
5055.25346 1.80523e-17
5056.51639 1.80325e-17
5057.78952 1.80127e-17
5059.06264 1.79930e-17
5060.32558 1.79732e-17
5061.59871 1.79535e-17
5062.87183 1.79337e-17
5064.13477 1.79140e-17
5065.40790 1.78942e-17
5066.68102 1.78745e-17
5067.94397 1.78548e-17
5069.21709 1.78351e-17
5070.49021 1.91663e-17
5071.75316 1.81986e-17
5073.02628 1.66761e-17
5074.28922 1.73579e-17
5075.56234 1.78892e-17
5076.83547 1.73361e-17
5078.09841 1.59484e-17
5079.37153 1.45002e-17
5080.64466 1.43294e-17
5081.90760 1.43760e-17
5083.18073 1.44225e-17
5084.45385 1.44691e-17
5085.71679 1.45156e-17
5086.98992 1.45621e-17
5088.26304 1.46087e-17
5089.52598 1.46552e-17
5090.79911 1.47017e-17
5092.07223 1.47482e-17
5093.33517 1.47947e-17
5094.60829 1.48412e-17
5095.88142 1.48877e-17
5097.14436 1.49341e-17
5098.41748 1.49806e-17
5099.69061 1.50271e-17
5100.95355 1.50735e-17
5102.22667 1.51200e-17
5103.49980 1.51664e-17
5104.76274 1.52128e-17
5106.03586 1.52593e-17
5107.30899 1.53057e-17
5108.57193 1.53521e-17
5109.84505 1.53985e-17
5111.11818 1.54449e-17
5112.38112 1.54913e-17
5113.65425 1.55376e-17
5114.92737 1.55840e-17
5116.19031 1.56304e-17
5117.46343 1.56767e-17
5118.73656 1.57231e-17
5119.99950 1.63984e-17
5121.27262 1.59559e-17
5122.54575 1.45867e-17
5123.80869 1.41190e-17
5125.08181 1.40608e-17
5126.35494 1.30696e-17
5127.61788 1.17192e-17
5128.89100 1.17050e-17
5130.16413 1.31573e-17
5131.42707 1.40415e-17
5132.70020 1.32099e-17
5133.97332 1.25587e-17
5135.23626 1.21025e-17
5136.50939 1.10598e-17
5137.77232 1.14578e-17
5139.04545 1.35435e-17
5140.31857 1.26144e-17
5141.58151 1.01808e-17
5142.85464 1.03382e-17
5144.12776 1.20735e-17
5145.39070 1.37662e-17
5146.66383 1.49366e-17
5147.93696 1.53999e-17
5149.19989 1.63331e-17
5150.47302 1.64132e-17
5151.74615 1.43427e-17
5153.00908 1.22504e-17
5154.28221 1.14121e-17
5155.55534 1.09942e-17
5156.81827 1.07629e-17
5158.09140 1.17942e-17
5159.36452 1.42446e-17
5160.62747 1.51067e-17
5161.90059 1.52694e-17
5163.17371 1.46077e-17
5164.43665 1.32821e-17
5165.70978 1.31108e-17
5166.98290 1.36660e-17
5168.24584 1.42700e-17
5169.51897 1.54544e-17
5170.79209 1.49822e-17
5172.05503 1.37960e-17
5173.32816 1.45980e-17
5174.60128 1.56343e-17
5175.86423 1.49612e-17
5177.13735 1.57083e-17
5178.41048 1.67684e-17
5179.67342 1.56006e-17
5180.94654 1.41471e-17
5182.21966 1.40730e-17
5183.48261 1.33361e-17
5184.75573 1.19516e-17
5186.02885 1.32703e-17
5187.29179 1.45890e-17
5188.56492 1.35247e-17
5189.83804 1.32687e-17
5191.10099 1.31049e-17
5192.37411 1.17501e-17
5193.64724 1.19001e-17
5194.91017 1.40309e-17
5196.18330 1.49687e-17
5197.45643 1.40032e-17
5198.71936 1.38424e-17
5199.99249 1.43718e-17
5201.26561 1.43721e-17
5202.52855 1.47400e-17
5203.80168 1.48694e-17
5205.06462 1.24713e-17
5206.33774 1.18146e-17
5207.61087 1.40872e-17
5208.87381 1.50278e-17
5210.14693 1.41597e-17
5211.42006 1.38016e-17
5212.68300 1.41583e-17
5213.95612 1.48598e-17
5215.22925 1.51394e-17
5216.49219 1.48902e-17
5217.76531 1.45398e-17
5219.03844 1.47709e-17
5220.30138 1.60259e-17
5221.57450 1.67709e-17
5222.84763 1.49429e-17
5224.11057 1.25606e-17
5225.38370 1.22928e-17
5226.65682 1.42293e-17
5227.91976 1.57265e-17
5229.19288 1.53642e-17
5230.46601 1.40890e-17
5231.72895 1.33846e-17
5233.00207 1.43233e-17
5234.27520 1.52836e-17
5235.53814 1.52482e-17
5236.81126 1.41617e-17
5238.08439 1.34256e-17
5239.34733 1.37758e-17
5240.62046 1.38857e-17
5241.89358 1.32958e-17
5243.15652 1.31001e-17
5244.42965 1.43804e-17
5245.70277 1.45198e-17
5246.96571 1.31340e-17
5248.23883 1.26252e-17
5249.51196 1.27431e-17
5250.77490 1.24280e-17
5252.04802 1.37400e-17
5253.32115 1.42489e-17
5254.58409 1.49859e-17
5255.85721 1.68982e-17
5257.13034 1.71246e-17
5258.39328 1.53524e-17
5259.66640 1.46099e-17
5260.93953 1.43659e-17
5262.20247 1.42940e-17
5263.47559 1.30604e-17
5264.74872 1.22191e-17
5266.01166 1.36235e-17
5267.28478 1.56377e-17
5268.54773 1.58160e-17
5269.82085 1.45386e-17
5271.09397 1.45244e-17
5272.35692 1.63806e-17
5273.63004 1.68779e-17
5274.90316 1.57344e-17
5276.16610 1.47150e-17
5277.43923 1.42806e-17
5278.71235 1.46331e-17
5279.97529 1.44233e-17
5281.24842 1.47996e-17
5282.52154 1.39126e-17
5283.78449 1.16160e-17
5285.05761 1.04602e-17
5286.33074 1.13934e-17
5287.59368 1.31240e-17
5288.86680 1.37564e-17
5290.13993 1.37749e-17
5291.40287 1.41070e-17
5292.67599 1.42772e-17
5293.94911 1.40925e-17
5295.21205 1.38483e-17
5296.48518 1.37123e-17
5297.75830 1.43007e-17
5299.02124 1.52311e-17
5300.29437 1.60632e-17
5301.56750 1.59879e-17
5302.83043 1.52857e-17
5304.10356 1.50643e-17
5305.37669 1.56966e-17
5306.63962 1.66187e-17
5307.91275 1.66357e-17
5309.18588 1.64910e-17
5310.44881 1.62818e-17
5311.72194 1.69122e-17
5312.99506 1.77748e-17
5314.25800 1.61959e-17
5315.53113 1.32388e-17
5316.80425 1.35933e-17
5318.06719 1.69386e-17
5319.34032 1.81358e-17
5320.61344 1.82520e-17
5321.87638 1.87141e-17
5323.14951 1.72581e-17
5324.42263 1.52231e-17
5325.68557 1.61402e-17
5326.95870 1.75852e-17
5328.23182 1.74741e-17
5329.49476 1.76791e-17
5330.76789 1.87566e-17
5332.03083 1.89346e-17
5333.30396 1.76387e-17
5334.57708 1.62528e-17
5335.84002 1.63679e-17
5337.11315 1.75174e-17
5338.38627 1.94228e-17
5339.64921 1.96501e-17
5340.92233 1.78320e-17
5342.19546 1.65822e-17
5343.45840 1.59315e-17
5344.73152 1.59053e-17
5346.00465 1.56535e-17
5347.26759 1.48833e-17
5348.54072 1.54548e-17
5349.81384 1.67342e-17
5351.07678 1.67073e-17
5352.34991 1.67552e-17
5353.62303 1.75997e-17
5354.88597 1.67691e-17
5356.15909 1.59550e-17
5357.43222 1.75300e-17
5358.69516 1.98696e-17
5359.96828 2.06144e-17
5361.24141 1.98330e-17
5362.50435 1.86276e-17
5363.77747 1.84091e-17
5365.05060 1.82945e-17
5366.31354 1.79339e-17
5367.58666 1.85632e-17
5368.85979 1.96808e-17
5370.12273 1.94055e-17
5371.39585 1.81228e-17
5372.66898 1.72974e-17
5373.93192 1.73422e-17
5375.20504 1.64035e-17
5376.47817 1.56207e-17
5377.74111 1.75595e-17
5379.01424 2.00456e-17
5380.28736 1.92520e-17
5381.55030 1.75225e-17
5382.82342 1.73663e-17
5384.09655 1.71517e-17
5385.35949 1.68043e-17
5386.63261 1.65417e-17
5387.90574 1.72276e-17
5389.16868 1.98470e-17
5390.44180 2.01282e-17
5391.70475 1.69288e-17
5392.97787 1.61132e-17
5394.25100 1.82501e-17
5395.52412 1.93252e-17
5396.78706 1.86159e-17
5398.06019 1.83014e-17
5399.32312 1.86736e-17
5400.59625 1.81941e-17
5401.86938 1.62658e-17
5403.13231 1.56446e-17
5404.40544 1.80559e-17
5405.67856 2.00546e-17
5406.94150 1.82834e-17
5408.21463 1.60556e-17
5409.48775 1.75502e-17
5410.75069 1.92050e-17
5412.02382 1.85504e-17
5413.29695 1.83427e-17
5414.55988 1.86540e-17
5415.83301 1.71804e-17
5417.10613 1.56997e-17
5418.36907 1.65837e-17
5419.64220 1.79628e-17
5420.91532 1.87593e-17
5422.17826 1.96043e-17
5423.45139 1.95177e-17
5424.72451 1.80379e-17
5425.98746 1.69367e-17
5427.26058 1.66081e-17
5428.53370 1.62228e-17
5429.79664 1.59856e-17
5431.06977 1.69301e-17
5432.34289 1.75101e-17
5433.60583 1.69068e-17
5434.87896 1.70600e-17
5436.15208 1.80617e-17
5437.41502 1.81335e-17
5438.68815 1.76310e-17
5439.96127 1.78194e-17
5441.22422 1.74246e-17
5442.49734 1.53330e-17
5443.77047 1.45469e-17
5445.03341 1.67978e-17
5446.30653 1.73095e-17
5447.56947 1.72941e-17
5448.84260 1.69686e-17
5450.11572 1.56335e-17
5451.38884 1.58565e-17
5452.65178 1.85575e-17
5453.92491 1.99063e-17
5455.18785 1.82462e-17
5456.46097 1.73458e-17
5457.73410 1.80314e-17
5458.99704 1.86142e-17
5460.27016 1.89651e-17
5461.54329 1.86886e-17
5462.80623 1.70091e-17
5464.07935 1.57827e-17
5465.35248 1.64402e-17
5466.61542 1.79620e-17
5467.88854 1.97583e-17
5469.16167 2.03614e-17
5470.42461 1.87426e-17
5471.69774 1.64384e-17
5472.97086 1.52257e-17
5474.23380 1.49332e-17
5475.50692 1.51648e-17
5476.78005 1.44826e-17
5478.04299 1.42765e-17
5479.31611 1.50563e-17
5480.58924 1.51058e-17
5481.85218 1.48173e-17
5483.12530 1.53496e-17
5484.39843 1.57613e-17
5485.66137 1.64524e-17
5486.93450 1.78908e-17
5488.20762 1.76779e-17
5489.47056 1.58178e-17
5490.74369 1.50322e-17
5492.01681 1.45319e-17
5493.27975 1.44394e-17
5494.55287 1.41549e-17
5495.82600 1.50613e-17
5497.08894 1.66492e-17
5498.36206 1.73202e-17
5499.63519 1.70462e-17
5500.89813 1.62017e-17
5502.17125 1.52372e-17
5503.44438 1.50023e-17
5504.70732 1.64996e-17
5505.98045 1.84526e-17
5507.25357 1.76846e-17
5508.51651 1.58222e-17
5509.78964 1.62480e-17
5511.06276 1.60790e-17
5512.32570 1.51307e-17
5513.59883 1.59217e-17
5514.86176 1.74225e-17
5516.13489 1.80068e-17
5517.40801 1.79187e-17
5518.68114 1.74246e-17
5519.94408 1.78427e-17
5521.21720 1.83981e-17
5522.48014 1.76653e-17
5523.75327 1.73404e-17
5525.02639 1.91376e-17
5526.28933 1.95661e-17
5527.56246 1.74728e-17
5528.83558 1.59221e-17
5530.09852 1.61504e-17
5531.37165 1.66234e-17
5532.64477 1.75168e-17
5533.90772 1.81885e-17
5535.18084 1.76506e-17
5536.45396 1.56828e-17
5537.71691 1.51044e-17
5538.99003 1.57441e-17
5540.26315 1.65832e-17
5541.52609 1.65033e-17
5542.79922 1.57831e-17
5544.07234 1.62641e-17
5545.33528 1.64898e-17
5546.60841 1.54849e-17
5547.88153 1.62531e-17
5549.14448 1.78627e-17
5550.41760 1.93877e-17
5551.69073 1.88724e-17
5552.95367 1.66336e-17
5554.22679 1.64655e-17
5555.49992 1.73332e-17
5556.76285 1.85562e-17
5558.03598 1.84594e-17
5559.30910 1.68703e-17
5560.57204 1.61462e-17
5561.84517 1.65809e-17
5563.11829 1.69554e-17
5564.38123 1.76147e-17
5565.65436 1.78740e-17
5566.92749 1.69257e-17
5568.19042 1.61882e-17
5569.46355 1.63109e-17
5570.73668 1.68841e-17
5571.99961 1.62505e-17
5573.27274 1.54338e-17
5574.54587 1.52551e-17
5575.80880 1.57734e-17
5577.08193 1.70604e-17
5578.34487 1.74351e-17
5579.61800 1.90737e-17
5580.89112 2.10589e-17
5582.16424 2.00614e-17
5583.42718 1.75438e-17
5584.70031 1.55431e-17
5585.96325 1.54265e-17
5587.23637 1.62071e-17
5588.50950 1.67063e-17
5589.77244 1.71485e-17
5591.04556 1.70288e-17
5592.31869 1.69269e-17
5593.58163 1.67262e-17
5594.85475 1.62646e-17
5596.12788 1.52633e-17
5597.39082 1.54335e-17
5598.66395 1.70362e-17
5599.93707 1.76605e-17
5601.20001 1.69445e-17
5602.47314 1.67701e-17
5603.74626 1.76059e-17
5605.00920 1.84457e-17
5606.28232 1.82751e-17
5607.55545 1.70658e-17
5608.81839 1.67883e-17
5610.09151 1.61746e-17
5611.36464 1.56725e-17
5612.62758 1.51228e-17
5613.90071 1.50241e-17
5615.17383 1.59415e-17
5616.43677 1.64497e-17
5617.70989 1.51366e-17
5618.98302 1.44129e-17
5620.24596 1.51565e-17
5621.51908 1.60189e-17
5622.79221 1.62392e-17
5624.05515 1.62235e-17
5625.32827 1.59568e-17
5626.60140 1.58553e-17
5627.86434 1.52424e-17
5629.13746 1.54996e-17
5630.41059 1.60482e-17
5631.67353 1.67618e-17
5632.94665 1.64925e-17
5634.21978 1.56239e-17
5635.48272 1.59869e-17
5636.75584 1.68356e-17
5638.02897 1.70444e-17
5639.29191 1.62507e-17
5640.56503 1.56349e-17
5641.82798 1.66213e-17
5643.10110 1.71827e-17
5644.37423 1.55502e-17
5645.63717 1.36038e-17
5646.91029 1.46052e-17
5648.18341 1.71771e-17
5649.44636 1.76645e-17
5650.71948 1.79408e-17
5651.99260 1.71108e-17
5653.25554 1.59828e-17
5654.52867 1.54834e-17
5655.80179 1.48388e-17
5657.06473 1.52537e-17
5658.33786 1.70475e-17
5659.61099 1.67988e-17
5660.87392 1.53664e-17
5662.14705 1.55421e-17
5663.42018 1.59576e-17
5664.68311 1.52204e-17
5665.95624 1.51911e-17
5667.22937 1.65319e-17
5668.49230 1.63552e-17
5669.76543 1.60239e-17
5671.03855 1.62609e-17
5672.30150 1.69213e-17
5673.57462 1.81454e-17
5674.84775 1.76872e-17
5676.11068 1.63127e-17
5677.38381 1.51977e-17
5678.65693 1.49553e-17
5679.91987 1.66537e-17
5681.19300 1.79444e-17
5682.46612 1.70064e-17
5683.72906 1.50586e-17
5685.00219 1.40539e-17
5686.27531 1.36067e-17
5687.53825 1.32696e-17
5688.81138 1.41684e-17
5690.08450 1.46766e-17
5691.34745 1.42086e-17
5692.62057 1.44696e-17
5693.89369 1.50809e-17
5695.15663 1.49033e-17
5696.42976 1.45087e-17
5697.70288 1.53769e-17
5698.96582 1.63155e-17
5700.23895 1.57324e-17
5701.51207 1.43402e-17
5702.77501 1.29180e-17
5704.04814 1.29315e-17
5705.32126 1.36316e-17
5706.58421 1.35042e-17
5707.85733 1.28143e-17
5709.12027 1.29331e-17
5710.39340 1.36233e-17
5711.66652 1.44623e-17
5712.92946 1.48923e-17
5714.20258 1.36407e-17
5715.47571 1.34017e-17
5716.73865 1.43500e-17
5718.01177 1.51636e-17
5719.28490 1.42863e-17
5720.54784 1.27822e-17
5721.82096 1.39125e-17
5723.09409 1.45092e-17
5724.35703 1.46031e-17
5725.63015 1.44399e-17
5726.90328 1.32853e-17
5728.16622 1.29010e-17
5729.43934 1.31949e-17
5730.71247 1.35672e-17
5731.97541 1.29975e-17
5733.24853 1.15252e-17
5734.52166 1.16683e-17
5735.78460 1.31307e-17
5737.05773 1.41889e-17
5738.33085 1.43227e-17
5739.59379 1.43007e-17
5740.86691 1.34356e-17
5742.14004 1.24292e-17
5743.40298 1.28681e-17
5744.67610 1.38878e-17
5745.94923 1.44012e-17
5747.21217 1.44545e-17
5748.48529 1.43561e-17
5749.75842 1.48196e-17
5751.02136 1.30560e-17
5752.29449 1.08124e-17
5753.56761 1.07836e-17
5754.83055 1.14704e-17
5756.10368 1.26191e-17
5757.37680 1.30344e-17
5758.63974 1.21108e-17
5759.91286 1.10402e-17
5761.18599 1.16208e-17
5762.44893 1.36726e-17
5763.72205 1.33173e-17
5764.99518 1.17990e-17
5766.25812 1.09327e-17
5767.53125 1.08630e-17
5768.80437 1.06748e-17
5770.06731 1.06897e-17
5771.34044 1.17202e-17
5772.60337 1.20606e-17
5773.87650 1.08054e-17
5775.14963 1.03573e-17
5776.41256 1.20169e-17
5777.68569 1.26089e-17
5778.95881 1.09265e-17
5780.22175 1.00883e-17
5781.49488 1.05834e-17
5782.76800 1.18874e-17
5784.03095 1.31137e-17
5785.30407 1.27045e-17
5786.57719 1.11782e-17
5787.84013 1.05066e-17
5789.11326 1.13141e-17
5790.38638 1.19586e-17
5791.64932 1.25649e-17
5792.92245 1.27898e-17
5794.19557 1.28996e-17
5795.45851 1.22454e-17
5796.73164 1.16523e-17
5798.00476 1.14948e-17
5799.26771 1.09589e-17
5800.54083 1.14756e-17
5801.81395 1.21541e-17
5803.07690 1.16231e-17
5804.35002 1.07398e-17
5805.62314 1.16951e-17
5806.88608 1.37970e-17
5808.15921 1.33652e-17
5809.43233 1.26162e-17
5810.69527 1.28563e-17
5811.96840 1.24200e-17
5813.24152 1.23428e-17
5814.50446 1.25646e-17
5815.77759 1.24354e-17
5817.05072 1.26688e-17
5818.31365 1.32763e-17
5819.58678 1.35660e-17
5820.85991 1.32457e-17
5822.12284 1.26743e-17
5823.39597 1.25281e-17
5824.66909 1.22358e-17
5825.93203 1.05439e-17
5827.20516 9.59357e-18
5828.47828 1.10437e-17
5829.74122 1.15513e-17
5831.01435 1.08951e-17
5832.28748 1.09887e-17
5833.55041 1.14876e-17
5834.82354 1.13605e-17
5836.08648 1.07018e-17
5837.35960 1.08815e-17
5838.63273 1.27654e-17
5839.89567 1.29976e-17
5841.16879 1.25561e-17
5842.44192 1.31318e-17
5843.70486 1.22824e-17
5844.97799 1.15588e-17
5846.25111 1.26472e-17
5847.51405 1.34028e-17
5848.78718 1.28016e-17
5850.06030 1.29100e-17
5851.32324 1.37896e-17
5852.59636 1.30230e-17
5853.86949 1.08149e-17
5855.13243 1.05297e-17
5856.40555 1.14708e-17
5857.67868 1.18381e-17
5858.94162 1.27830e-17
5860.21475 1.32070e-17
5861.48787 1.31315e-17
5862.75081 1.28447e-17
5864.02394 1.26562e-17
5865.29706 1.21254e-17
5866.56000 1.11232e-17
5867.83313 1.12250e-17
5869.10625 1.25728e-17
5870.36919 1.35947e-17
5871.64231 1.34299e-17
5872.91544 1.31989e-17
5874.17838 1.34374e-17
5875.45150 1.33156e-17
5876.72463 1.34074e-17
5877.98757 1.29561e-17
5879.26069 1.22928e-17
5880.53382 1.23339e-17
5881.79676 1.22578e-17
5883.06988 1.18849e-17
5884.34301 1.22439e-17
5885.60595 1.30657e-17
5886.87907 1.30263e-17
5888.15220 1.23797e-17
5889.41514 1.19708e-17
5890.68826 1.26301e-17
5891.96139 1.35103e-17
5893.22433 1.31494e-17
5894.49745 1.34714e-17
5895.77058 1.34402e-17
5897.03352 1.35051e-17
5898.30664 1.37007e-17
5899.57977 1.34282e-17
5900.84271 1.43168e-17
5902.11583 1.52300e-17
5903.37877 1.42732e-17
5904.65190 1.30990e-17
5905.92502 1.31245e-17
5907.18797 1.39884e-17
5908.46109 1.48134e-17
5909.73422 1.45448e-17
5910.99716 1.47811e-17
5912.27028 1.48546e-17
5913.54340 1.40883e-17
5914.80634 1.38983e-17
5916.07947 1.41477e-17
5917.35259 1.43330e-17
5918.61553 1.37890e-17
5919.88866 1.36386e-17
5921.16178 1.38727e-17
5922.42472 1.27207e-17
5923.69785 1.28238e-17
5924.97098 1.44528e-17
5926.23391 1.48561e-17
5927.50704 1.54327e-17
5928.78017 1.59267e-17
5930.04310 1.62445e-17
5931.31623 1.63077e-17
5932.58936 1.52158e-17
5933.85229 1.51491e-17
5935.12542 1.52929e-17
5936.39854 1.51838e-17
5937.66149 1.55457e-17
5938.93461 1.48060e-17
5940.20773 1.39070e-17
5941.47067 1.42827e-17
5942.74380 1.48428e-17
5944.01692 1.51611e-17
5945.27986 1.51589e-17
5946.55299 1.50728e-17
5947.82611 1.43523e-17
5949.08905 1.37427e-17
5950.36218 1.49085e-17
5951.63530 1.48519e-17
5952.89825 1.39921e-17
5954.17137 1.40967e-17
5955.44450 1.43739e-17
5956.70744 1.48689e-17
5957.98056 1.50908e-17
5959.24350 1.47247e-17
5960.51663 1.47749e-17
5961.78975 1.48148e-17
5963.06287 1.46744e-17
5964.32581 1.51149e-17
5965.59894 1.53693e-17
5966.86188 1.57480e-17
5968.13500 1.59777e-17
5969.40813 1.62387e-17
5970.67107 1.74142e-17
5971.94420 1.69780e-17
5973.21732 1.41258e-17
5974.48026 1.29797e-17
5975.75338 1.48619e-17
5977.02651 1.59691e-17
5978.28945 1.55313e-17
5979.56257 1.53544e-17
5980.83570 1.43657e-17
5982.09864 1.43400e-17
5983.37176 1.59041e-17
5984.64489 1.67022e-17
5985.90783 1.61095e-17
5987.18095 1.53111e-17
5988.45408 1.44649e-17
5989.71702 1.31153e-17
5990.99014 1.20696e-17
5992.26327 1.36244e-17
5993.52621 1.55635e-17
5994.79933 1.54597e-17
5996.07246 1.49617e-17
5997.33540 1.51499e-17
5998.60852 1.59576e-17
5999.88165 1.50681e-17
6001.14459 1.32713e-17
6002.41772 1.42465e-17
6003.69084 1.66735e-17
6004.95378 1.65224e-17
6006.22690 1.52119e-17
6007.50003 1.45200e-17
6008.76297 1.42931e-17
6010.03609 1.45238e-17
6011.30922 1.58588e-17
6012.57216 1.64441e-17
6013.84528 1.48076e-17
6015.11841 1.37912e-17
6016.38135 1.44930e-17
6017.65448 1.42858e-17
6018.92760 1.31028e-17
6020.19054 1.33288e-17
6021.46367 1.46309e-17
6022.72660 1.47513e-17
6023.99973 1.40479e-17
6025.27285 1.43465e-17
6026.54598 1.49393e-17
6027.80892 1.53625e-17
6029.08204 1.54973e-17
6030.34498 1.47836e-17
6031.61811 1.48665e-17
6032.89124 1.44897e-17
6034.15417 1.43187e-17
6035.42730 1.52192e-17
6036.70042 1.53488e-17
6037.96336 1.52595e-17
6039.23649 1.48241e-17
6040.50961 1.44929e-17
6041.77255 1.50405e-17
6043.04568 1.53966e-17
6044.31880 1.53966e-17
6045.58175 1.49003e-17
6046.85487 1.47129e-17
6048.12799 1.44216e-17
6049.39094 1.43900e-17
6050.66406 1.53520e-17
6051.93718 1.57466e-17
6053.20012 1.48870e-17
6054.47325 1.43391e-17
6055.74637 1.41826e-17
6057.00931 1.43640e-17
6058.28244 1.49189e-17
6059.55556 1.51351e-17
6060.81850 1.46977e-17
6062.09163 1.38957e-17
6063.36475 1.41870e-17
6064.62770 1.48332e-17
6065.90082 1.48542e-17
6067.17395 1.44569e-17
6068.43689 1.43505e-17
6069.71001 1.45177e-17
6070.98313 1.38315e-17
6072.24608 1.26856e-17
6073.51920 1.29532e-17
6074.79232 1.32364e-17
6076.05526 1.25519e-17
6077.32839 1.33143e-17
6078.60151 1.48958e-17
6079.86445 1.51076e-17
6081.13758 1.51424e-17
6082.41071 1.53525e-17
6083.67364 1.50476e-17
6084.94677 1.52993e-17
6086.21990 1.46290e-17
6087.48283 1.32688e-17
6088.75596 1.33675e-17
6090.01890 1.32885e-17
6091.29202 1.23587e-17
6092.56515 1.22899e-17
6093.83827 1.28579e-17
6095.10121 1.24299e-17
6096.37434 1.23937e-17
6097.63728 1.33588e-17
6098.91040 1.42693e-17
6100.18353 1.43823e-17
6101.44647 1.33466e-17
6102.71959 1.20875e-17
6103.99272 1.21242e-17
6105.25566 1.30527e-17
6106.52878 1.36144e-17
6107.80191 1.34505e-17
6109.06485 1.27879e-17
6110.33798 1.27397e-17
6111.61110 1.22222e-17
6112.87404 1.14307e-17
6114.14717 1.20491e-17
6115.42029 1.34791e-17
6116.68323 1.39945e-17
6117.95635 1.39662e-17
6119.22948 1.47029e-17
6120.49242 1.47165e-17
6121.76554 1.40924e-17
6123.03867 1.36611e-17
6124.30161 1.35337e-17
6125.57474 1.31043e-17
6126.84786 1.25279e-17
6128.11080 1.30139e-17
6129.38393 1.35623e-17
6130.65705 1.34455e-17
6131.91999 1.28849e-17
6133.19312 1.28872e-17
6134.46624 1.44659e-17
6135.72918 1.50100e-17
6137.00230 1.38755e-17
6138.27543 1.35872e-17
6139.53837 1.32768e-17
6140.81149 1.24102e-17
6142.08462 1.24065e-17
6143.34756 1.32480e-17
6144.62068 1.29308e-17
6145.89381 1.19588e-17
6147.15675 1.17622e-17
6148.42987 1.13200e-17
6149.70300 1.21575e-17
6150.96594 1.40856e-17
6152.23906 1.36553e-17
6153.50200 1.21364e-17
6154.77513 1.09923e-17
6156.04825 1.03464e-17
6157.31120 1.10885e-17
6158.58432 1.27400e-17
6159.85744 1.36108e-17
6161.12039 1.40066e-17
6162.39351 1.31298e-17
6163.66663 1.14186e-17
6164.92957 1.17602e-17
6166.20270 1.25600e-17
6167.47582 1.25483e-17
6168.73876 1.35874e-17
6170.01189 1.50870e-17
6171.28501 1.36980e-17
6172.54796 1.21329e-17
6173.82108 1.35645e-17
6175.09421 1.51056e-17
6176.35714 1.42447e-17
6177.63027 1.26101e-17
6178.90340 1.25420e-17
6180.16633 1.27603e-17
6181.43946 1.21524e-17
6182.71258 1.26181e-17
6183.97552 1.34408e-17
6185.24865 1.27398e-17
6186.52177 1.20343e-17
6187.78471 1.31217e-17
6189.05784 1.38717e-17
6190.33097 1.27705e-17
6191.59390 1.23779e-17
6192.86703 1.29014e-17
6194.14016 1.22127e-17
6195.40309 1.21423e-17
6196.67622 1.26093e-17
6197.94934 1.20266e-17
6199.21228 1.17011e-17
6200.48541 1.19057e-17
6201.75853 1.16248e-17
6203.02148 1.24145e-17
6204.29460 1.38485e-17
6205.56772 1.36552e-17
6206.83066 1.30453e-17
6208.10379 1.25145e-17
6209.37691 1.14589e-17
6210.63985 1.08616e-17
6211.91298 1.19221e-17
6213.17592 1.25838e-17
6214.44904 1.25572e-17
6215.72217 1.21530e-17
6216.98511 1.20506e-17
6218.25824 1.25611e-17
6219.53136 1.24100e-17
6220.79430 1.15701e-17
6222.06743 1.20420e-17
6223.34055 1.28809e-17
6224.60349 1.33174e-17
6225.87662 1.25192e-17
6227.14974 1.17326e-17
6228.41268 1.21170e-17
6229.68580 1.25194e-17
6230.95893 1.26146e-17
6232.22187 1.27080e-17
6233.49500 1.20142e-17
6234.76812 1.20465e-17
6236.03106 1.19574e-17
6237.30418 1.10275e-17
6238.57731 1.05522e-17
6239.84025 1.17700e-17
6241.11337 1.38499e-17
6242.38650 1.38232e-17
6243.64944 1.29518e-17
6244.92256 1.30662e-17
6246.19569 1.30174e-17
6247.45863 1.20824e-17
6248.73175 1.18725e-17
6250.00488 1.21449e-17
6251.26782 1.21085e-17
6252.54094 1.20945e-17
6253.81407 1.22402e-17
6255.07701 1.25482e-17
6256.35013 1.21170e-17
6257.62326 1.22351e-17
6258.88620 1.28398e-17
6260.15932 1.29192e-17
6261.43245 1.15580e-17
6262.69539 1.06606e-17
6263.96851 1.22366e-17
6265.24164 1.36927e-17
6266.50458 1.27296e-17
6267.77771 1.19893e-17
6269.05083 1.26228e-17
6270.31377 1.25950e-17
6271.58689 1.21039e-17
6272.86002 1.30030e-17
6274.12296 1.33289e-17
6275.39608 1.28752e-17
6276.65902 1.26386e-17
6277.93215 1.17687e-17
6279.20527 1.09798e-17
6280.46821 1.16361e-17
6281.74134 1.18447e-17
6283.01447 1.10279e-17
6284.27740 1.10894e-17
6285.55053 1.21291e-17
6286.82366 1.16010e-17
6288.08659 1.10056e-17
6289.35972 1.19721e-17
6290.63285 1.22257e-17
6291.89578 1.17614e-17
6293.16891 1.14470e-17
6294.44203 1.16141e-17
6295.70498 1.23476e-17
6296.97810 1.27279e-17
6298.25122 1.24446e-17
6299.51416 1.16810e-17
6300.78729 1.12382e-17
6302.06041 1.16650e-17
6303.32335 1.16757e-17
6304.59648 1.18870e-17
6305.86960 1.20392e-17
6307.13254 1.09124e-17
6308.40567 9.79239e-18
6309.67879 1.03292e-17
6310.94174 1.20279e-17
6312.21486 1.23271e-17
6313.48798 1.17146e-17
6314.75093 1.06227e-17
6316.02405 9.69316e-18
6317.29717 1.02150e-17
6318.56011 1.09127e-17
6319.83324 1.04160e-17
6321.10636 9.98268e-18
6322.36930 9.99368e-18
6323.64243 1.00116e-17
6324.91555 9.57480e-18
6326.17850 9.91000e-18
6327.45162 1.03227e-17
6328.72475 1.02029e-17
6329.98769 9.65303e-18
6331.26081 9.79925e-18
6332.53394 1.02670e-17
6333.79688 1.03537e-17
6335.07000 1.09240e-17
6336.34312 1.20780e-17
6337.60606 1.17980e-17
6338.87919 1.00533e-17
6340.15231 9.65152e-18
6341.41525 1.03568e-17
6342.68838 1.16244e-17
6343.95132 1.27962e-17
6345.22444 1.19823e-17
6346.49757 9.91158e-18
6347.76051 8.89348e-18
6349.03363 9.17201e-18
6350.30676 9.86549e-18
6351.56970 1.01392e-17
6352.84282 1.00175e-17
6354.11595 9.17666e-18
6355.37889 8.78387e-18
6356.65201 9.51485e-18
6357.92514 9.87435e-18
6359.18808 1.00843e-17
6360.46120 1.04305e-17
6361.73433 1.01778e-17
6362.99727 1.00812e-17
6364.27039 1.03369e-17
6365.54352 1.09716e-17
6366.80646 1.13948e-17
6368.07958 1.12224e-17
6369.35271 1.09835e-17
6370.61565 1.14744e-17
6371.88877 1.15048e-17
6373.16190 1.10963e-17
6374.42484 1.04414e-17
6375.69797 9.72996e-18
6376.97109 9.88084e-18
6378.23403 1.00109e-17
6379.50716 9.91051e-18
6380.78028 1.00678e-17
6382.04322 1.10055e-17
6383.31634 1.09915e-17
6384.58947 9.60674e-18
6385.85241 1.00131e-17
6387.12553 1.11500e-17
6388.39866 1.07647e-17
6389.66160 1.00920e-17
6390.93473 9.86041e-18
6392.20785 9.89897e-18
6393.47079 1.00172e-17
6394.74392 9.34152e-18
6396.01704 8.70843e-18
6397.27998 9.70298e-18
6398.55310 1.12895e-17
6399.82623 1.17737e-17
6401.08917 1.13189e-17
6402.36229 1.05169e-17
6403.63542 9.91181e-18
6404.89836 1.01390e-17
6406.17148 1.10296e-17
6407.43443 1.12815e-17
6408.70755 1.01124e-17
6409.98067 9.27286e-18
6411.24361 9.77871e-18
6412.51674 1.01766e-17
6413.78986 1.06450e-17
6415.05280 1.16939e-17
6416.32593 1.18582e-17
6417.59905 1.16754e-17
6418.86200 1.12991e-17
6420.13512 1.09275e-17
6421.40825 1.07664e-17
6422.67119 1.10160e-17
6423.94431 1.09880e-17
6425.21743 1.10291e-17
6426.48038 1.14731e-17
6427.75350 1.09769e-17
6429.02662 1.11009e-17
6430.28956 1.19377e-17
6431.56269 1.24331e-17
6432.83581 1.21087e-17
6434.09875 1.12753e-17
6435.37188 1.06516e-17
6436.64500 1.00944e-17
6437.90794 9.97260e-18
6439.18107 1.00718e-17
6440.45420 9.74448e-18
6441.71713 9.99930e-18
6442.99026 1.01291e-17
6444.26339 9.73311e-18
6445.52632 9.94659e-18
6446.79945 9.85190e-18
6448.07257 9.17693e-18
6449.33551 9.75779e-18
6450.60864 1.10619e-17
6451.88176 1.17408e-17
6453.14470 1.19289e-17
6454.41783 1.22272e-17
6455.69096 1.22331e-17
6456.95389 1.10470e-17
6458.22702 1.03978e-17
6459.50014 9.82718e-18
6460.76308 9.46202e-18
6462.03621 1.01084e-17
6463.30933 1.12515e-17
6464.57227 1.20487e-17
6465.84540 1.16877e-17
6467.11852 1.07311e-17
6468.38147 1.01864e-17
6469.65459 1.07854e-17
6470.91753 1.19370e-17
6472.19065 1.19744e-17
6473.46378 1.14044e-17
6474.72672 1.12013e-17
6475.99984 1.08802e-17
6477.27297 1.04646e-17
6478.53591 1.13894e-17
6479.80903 1.20904e-17
6481.08216 1.10447e-17
6482.34510 1.07077e-17
6483.61823 1.14241e-17
6484.89135 1.20013e-17
6486.15429 1.19393e-17
6487.42742 1.14953e-17
6488.70054 1.12150e-17
6489.96348 1.18086e-17
6491.23661 1.26556e-17
6492.50973 1.24568e-17
6493.77267 1.15703e-17
6495.04579 1.11647e-17
6496.31892 1.14763e-17
6497.58186 1.19558e-17
6498.85498 1.21315e-17
6500.12811 1.24389e-17
6501.39105 1.21214e-17
6502.66417 1.08159e-17
6503.93730 1.13368e-17
6505.20024 1.19882e-17
6506.47336 1.19677e-17
6507.74649 1.30285e-17
6509.00943 1.31940e-17
6510.28255 1.34491e-17
6511.55568 1.41301e-17
6512.81862 1.33664e-17
6514.09175 1.39155e-17
6515.36487 1.46023e-17
6516.62781 1.35419e-17
6517.90093 1.32630e-17
6519.17406 1.32222e-17
6520.43700 1.29761e-17
6521.71012 1.24728e-17
6522.98325 1.38266e-17
6524.24619 1.55238e-17
6525.51931 1.63902e-17
6526.79244 1.65255e-17
6528.05538 1.56250e-17
6529.32850 1.54021e-17
6530.60163 1.53175e-17
6531.86457 1.39041e-17
6533.13770 1.35549e-17
6534.40063 1.50110e-17
6535.67376 1.60135e-17
6536.94688 1.58828e-17
6538.20982 1.48414e-17
6539.48295 1.55048e-17
6540.75607 1.53721e-17
6542.01901 1.47377e-17
6543.29214 1.66555e-17
6544.56526 1.74729e-17
6545.82820 1.56495e-17
6547.10133 1.47336e-17
6548.37446 1.60470e-17
6549.63739 1.76937e-17
6550.91052 1.76511e-17
6552.18365 1.64628e-17
6553.44658 1.69288e-17
6554.71971 1.82367e-17
6555.99284 1.93530e-17
6557.25577 1.81649e-17
6558.52890 1.50892e-17
6559.80202 1.48010e-17
6561.06497 1.65579e-17
6562.33809 1.68986e-17
6563.61121 1.66603e-17
6564.87415 1.60475e-17
6566.14728 1.66444e-17
6567.42040 1.73892e-17
6568.68334 1.65856e-17
6569.95647 1.68444e-17
6571.22959 1.81849e-17
6572.49253 1.75700e-17
6573.76566 1.74221e-17
6575.03878 1.79488e-17
6576.30173 1.80187e-17
6577.57485 1.75138e-17
6578.84797 1.69830e-17
6580.11092 1.73546e-17
6581.38404 1.70283e-17
6582.65716 1.51550e-17
6583.92010 1.35417e-17
6585.19323 1.42936e-17
6586.46635 1.61373e-17
6587.72929 1.58130e-17
6589.00242 1.58972e-17
6590.26536 1.77661e-17
6591.53849 1.89666e-17
6592.81161 1.78212e-17
6594.08474 1.67562e-17
6595.34767 1.74442e-17
6596.62080 1.68431e-17
6597.88374 1.65976e-17
6599.15686 1.66056e-17
6600.42999 1.61304e-17
6601.69293 1.75410e-17
6602.96605 1.86907e-17
6604.23918 1.73131e-17
6605.50212 1.72186e-17
6606.77524 1.90025e-17
6608.04837 1.85807e-17
6609.31131 1.75381e-17
6610.58443 1.73348e-17
6611.85756 1.71102e-17
6613.12050 1.68019e-17
6614.39362 1.70324e-17
6615.66675 1.86131e-17
6616.92969 1.89609e-17
6618.20281 1.86176e-17
6619.47594 1.81407e-17
6620.73888 1.65007e-17
6622.01200 1.67218e-17
6623.28513 1.81333e-17
6624.54807 1.81528e-17
6625.82120 1.77266e-17
6627.09432 1.59513e-17
6628.35726 1.56109e-17
6629.63038 1.73085e-17
6630.90351 1.73718e-17
6632.16645 1.61406e-17
6633.43957 1.75298e-17
6634.71270 2.00030e-17
6635.97564 1.93947e-17
6637.24876 1.79544e-17
6638.52189 1.69157e-17
6639.78483 1.70453e-17
6641.05796 1.87215e-17
6642.33108 1.96550e-17
6643.59402 1.88390e-17
6644.86715 1.85529e-17
6646.14027 1.75332e-17
6647.40321 1.68742e-17
6648.67633 1.68370e-17
6649.94946 1.81432e-17
6651.21240 1.88817e-17
6652.48552 1.74854e-17
6653.75865 1.74847e-17
6655.02159 1.74839e-17
6656.29471 1.74832e-17
6657.55765 1.74824e-17
6658.83078 1.74816e-17
6660.10390 1.74809e-17
6661.37703 1.74801e-17
6662.63997 1.74794e-17
6663.91309 1.74786e-17
6665.17603 1.74779e-17
6666.44916 1.74771e-17
6667.72228 1.74763e-17
6668.98523 1.74756e-17
6670.25835 1.74748e-17
6671.53147 1.74741e-17
6672.79442 1.74733e-17
6674.06754 1.74726e-17
6675.34066 1.74718e-17
6676.60360 1.74711e-17
6677.87673 1.74703e-17
6679.14985 1.74695e-17
6680.41279 1.74688e-17
6681.68592 1.74680e-17
6682.95904 1.74673e-17
6684.22199 1.74665e-17
6685.49511 1.74658e-17
6686.76824 1.74650e-17
6688.03118 1.74643e-17
6689.30430 1.74635e-17
6690.57742 1.74627e-17
6691.84037 1.74620e-17
6693.11349 1.74612e-17
6694.38661 1.74605e-17
6695.64955 1.74597e-17
6696.92268 1.74590e-17
6698.19580 1.74582e-17
6699.45874 1.74575e-17
6700.73187 1.74567e-17
6702.00500 1.74560e-17
6703.26793 1.74552e-17
6704.54106 1.74545e-17
6705.81419 1.74537e-17
6707.07712 1.74529e-17
6708.35025 1.74522e-17
6709.62338 1.74514e-17
6710.88631 1.74507e-17
6712.15944 1.74499e-17
6713.43256 1.74492e-17
6714.69550 1.74484e-17
6715.96863 1.74477e-17
6717.24175 1.88696e-17
6718.50469 2.04202e-17
6719.77782 2.08457e-17
6721.04076 1.85534e-17
6722.31388 1.76497e-17
6723.58701 1.84758e-17
6724.86013 1.80868e-17
6726.12307 1.87028e-17
6727.39620 1.89968e-17
6728.65914 1.78352e-17
6729.93226 1.65720e-17
6731.20539 1.72689e-17
6732.46833 1.79058e-17
6733.74146 1.68614e-17
6735.01458 1.76910e-17
6736.27752 1.74677e-17
6737.55065 1.75921e-17
6738.82377 1.92935e-17
6740.08671 1.95228e-17
6741.35983 1.82611e-17
6742.63296 1.74560e-17
6743.89590 1.72009e-17
6745.16902 1.62431e-17
6746.44215 1.57742e-17
6747.70509 1.64972e-17
6748.97822 1.71038e-17
6750.25134 1.75952e-17
6751.51428 1.71822e-17
6752.78741 1.67151e-17
6754.06053 1.66830e-17
6755.32347 1.68993e-17
6756.59659 1.75933e-17
6757.86972 1.68426e-17
6759.13266 1.59774e-17
6760.40578 1.69604e-17
6761.67891 1.83597e-17
6762.94185 1.84273e-17
6764.21497 1.89259e-17
6765.48810 2.00803e-17
6766.75104 1.91628e-17
6768.02416 1.71047e-17
6769.29729 1.73594e-17
6770.56023 1.81080e-17
6771.83335 1.91963e-17
6773.10648 1.85528e-17
6774.36942 1.62913e-17
6775.64254 1.48363e-17
6776.91567 1.53376e-17
6778.17861 1.60396e-17
6779.45174 1.54891e-17
6780.72486 1.48750e-17
6781.98780 1.48365e-17
6783.26092 1.50654e-17
6784.52387 1.62894e-17
6785.79699 1.61361e-17
6787.07011 1.46539e-17
6788.33305 1.48667e-17
6789.60618 1.54062e-17
6790.87930 1.46384e-17
6792.14225 1.41027e-17
6793.41537 1.53557e-17
6794.68850 1.72285e-17
6795.95143 1.76296e-17
6797.22456 1.71543e-17
6798.49769 1.61083e-17
6799.76062 1.52954e-17
6801.03375 1.56633e-17
6802.30687 1.51179e-17
6803.56981 1.44107e-17
6804.84294 1.46773e-17
6806.11606 1.51695e-17
6807.37900 1.61851e-17
6808.65213 1.61946e-17
6809.92525 1.56895e-17
6811.18819 1.46740e-17
6812.46132 1.32305e-17
6813.73445 1.40737e-17
6814.99738 1.58720e-17
6816.27051 1.53440e-17
6817.54363 1.53230e-17
6818.80657 1.59055e-17
6820.07970 1.53554e-17
6821.35282 1.53957e-17
6822.61576 1.52144e-17
6823.88889 1.53928e-17
6825.16201 1.56887e-17
6826.42496 1.44445e-17
6827.69808 1.43126e-17
6828.97120 1.53930e-17
6830.23414 1.48342e-17
6831.50727 1.41547e-17
6832.78039 1.41457e-17
6834.04333 1.45353e-17
6835.31646 1.49780e-17
6836.58958 1.68322e-17
6837.85252 1.88798e-17
6839.12565 1.83943e-17
6840.39877 1.63253e-17
6841.66172 1.61429e-17
6842.93484 1.67171e-17
6844.20797 1.46626e-17
6845.47091 1.46037e-17
6846.74403 1.45448e-17
6848.00697 1.44860e-17
6849.28010 1.44271e-17
6850.55322 1.43682e-17
6851.81616 1.43093e-17
6853.08928 1.42505e-17
6854.36241 1.41916e-17
6855.62535 1.41328e-17
6856.89847 1.40739e-17
6858.17160 1.40151e-17
6859.43454 1.39562e-17
6860.70766 1.38974e-17
6861.98079 1.38385e-17
6863.24373 1.37797e-17
6864.51685 1.37209e-17
6865.78998 1.36621e-17
6867.05292 1.36032e-17
6868.32604 1.35444e-17
6869.59917 1.34856e-17
6870.86211 1.34268e-17
6872.13523 1.33680e-17
6873.40836 1.33092e-17
6874.67130 1.32504e-17
6875.94442 1.31916e-17
6877.21755 1.31329e-17
6878.48049 1.30741e-17
6879.75361 1.30153e-17
6881.02674 1.29565e-17
6882.28968 1.28978e-17
6883.56280 1.28390e-17
6884.83593 1.27803e-17
6886.09887 1.27215e-17
6887.37200 1.26628e-17
6888.64512 1.26040e-17
6889.90806 1.25453e-17
6891.18119 1.24865e-17
6892.45431 1.24278e-17
6893.71725 1.23691e-17
6894.99037 1.23104e-17
6896.26350 1.22516e-17
6897.52644 1.21929e-17
6898.79956 1.21342e-17
6900.07269 1.20755e-17
6901.33563 1.20168e-17
6902.60875 1.19581e-17
6903.88188 1.18994e-17
6905.14482 1.18408e-17
6906.41795 1.17821e-17
6907.69107 1.17234e-17
6908.95401 1.16647e-17
6910.22714 1.16061e-17
6911.49007 1.15474e-17
6912.76320 1.14887e-17
6914.03632 1.14301e-17
6915.29926 1.13714e-17
6916.57239 1.13128e-17
6917.84551 1.12541e-17
6919.10845 1.11955e-17
6920.38158 1.11369e-17
6921.65470 1.10782e-17
6922.91764 1.10196e-17
6924.19077 1.09610e-17
6925.46389 1.09024e-17
6926.72683 1.08438e-17
6927.99996 1.07851e-17
6929.27308 1.07265e-17
6930.53602 1.06679e-17
6931.80915 1.06093e-17
6933.08227 1.05507e-17
6934.34522 1.04922e-17
6935.61834 1.04336e-17
6936.89146 1.09678e-17
6938.15441 1.14319e-17
6939.42753 1.15241e-17
6940.70065 1.13235e-17
6941.96359 1.20025e-17
6943.23672 1.23842e-17
6944.50984 1.15218e-17
6945.77278 1.17283e-17
6947.04591 1.06679e-17
6948.31903 9.80289e-18
6949.58198 1.05535e-17
6950.85510 1.13253e-17
6952.12823 1.18821e-17
6953.39117 1.13325e-17
6954.66429 1.16492e-17
6955.93742 1.28357e-17
6957.20035 1.18610e-17
6958.47348 1.04560e-17
6959.74660 1.04675e-17
6961.00954 1.07309e-17
6962.28267 1.06551e-17
6963.55579 1.04447e-17
6964.81873 9.86372e-18
6966.09186 9.17226e-18
6967.36499 9.14025e-18
6968.62792 9.57435e-18
6969.90105 1.03485e-17
6971.17418 1.17805e-17
6972.43711 1.19222e-17
6973.71024 1.07953e-17
6974.98337 9.61029e-18
6976.24630 9.74944e-18
6977.51943 1.07110e-17
6978.78237 1.16609e-17
6980.05550 1.18667e-17
6981.32862 1.02818e-17
6982.59156 9.59719e-18
6983.86468 1.13984e-17
6985.13781 1.24382e-17
6986.40075 1.23311e-17
6987.67387 1.17898e-17
6988.94700 1.14508e-17
6990.20994 1.15018e-17
6991.48306 1.23366e-17
6992.75619 1.18068e-17
6994.01913 1.08169e-17
6995.29225 1.06701e-17
6996.56538 9.76211e-18
6997.82832 8.61978e-18
6999.10145 9.16561e-18
7000.37457 1.11327e-17
7001.63751 1.18471e-17
7002.91064 1.12890e-17
7004.18376 1.06019e-17
7005.44670 1.08572e-17
7006.71982 1.07473e-17
7007.99295 9.57931e-18
7009.25589 1.02643e-17
7010.52901 1.14745e-17
7011.80214 1.11636e-17
7013.06508 1.09408e-17
7014.33821 1.09484e-17
7015.61133 1.08503e-17
7016.87427 1.05421e-17
7018.14739 8.95923e-18
7019.42052 8.26767e-18
7020.68346 9.23589e-18
7021.95658 9.65920e-18
7023.22971 8.83029e-18
7024.49265 8.89963e-18
7025.76577 1.03956e-17
7027.03890 1.16340e-17
7028.30184 1.16692e-17
7029.57496 1.16488e-17
7030.84809 1.13139e-17
7032.11103 1.07939e-17
7033.38415 1.08494e-17
7034.65728 1.13422e-17
7035.92022 1.04257e-17
7037.19334 9.98008e-18
7038.46647 1.11288e-17
7039.72941 1.17649e-17
7041.00253 1.10645e-17
7042.26548 9.25022e-18
7043.53860 8.82506e-18
7044.81173 1.03767e-17
7046.07467 1.15029e-17
7047.34779 1.13548e-17
7048.62091 1.07789e-17
7049.88386 1.11969e-17
7051.15698 1.07784e-17
7052.43010 1.10308e-17
7053.69304 1.16699e-17
7054.96617 1.02049e-17
7056.23929 8.76348e-18
7057.50223 8.06219e-18
7058.77536 7.85942e-18
7060.04849 8.63805e-18
7061.31142 9.91701e-18
7062.58455 1.07862e-17
7063.85768 1.04687e-17
7065.12061 1.08935e-17
7066.39374 1.17868e-17
7067.66687 1.20318e-17
7068.92980 1.12656e-17
7070.20293 1.00958e-17
7071.47605 9.62651e-18
7072.73900 1.00228e-17
7074.01212 1.04036e-17
7075.28525 1.07530e-17
7076.54818 1.07445e-17
7077.82131 1.05767e-17
7079.09443 1.10755e-17
7080.35737 1.07661e-17
7081.63050 1.01518e-17
7082.90362 1.04302e-17
7084.16656 1.05532e-17
7085.43969 1.06451e-17
7086.71281 1.01166e-17
7087.97575 1.04890e-17
7089.24888 1.17166e-17
7090.52200 1.17090e-17
7091.78495 1.05375e-17
7093.05807 9.84017e-18
7094.33119 1.00438e-17
7095.59413 1.05188e-17
7096.86726 1.00719e-17
7098.14038 9.72973e-18
7099.40332 1.07067e-17
7100.67645 1.04620e-17
7101.93939 9.76169e-18
7103.21251 1.07685e-17
7104.48564 1.20188e-17
7105.74858 1.14972e-17
7107.02171 1.00960e-17
7108.29483 1.04455e-17
7109.55777 1.10344e-17
7110.83090 1.03990e-17
7112.10402 1.04633e-17
7113.36696 1.09877e-17
7114.64008 1.08234e-17
7115.91321 1.07979e-17
7117.17615 1.06629e-17
7118.44927 1.12645e-17
7119.72240 1.18200e-17
7120.98534 1.07416e-17
7122.25846 1.00071e-17
7123.53159 1.02354e-17
7124.79453 9.80299e-18
7126.06765 9.49947e-18
7127.34078 9.94420e-18
7128.60372 1.02888e-17
7129.87684 9.87949e-18
7131.14997 1.00021e-17
7132.41291 1.10061e-17
7133.68603 1.05874e-17
7134.95916 9.99129e-18
7136.22210 1.00383e-17
7137.49522 1.02101e-17
7138.76835 1.02829e-17
7140.03129 1.03468e-17
7141.30441 1.04131e-17
7142.57754 1.05731e-17
7143.84048 1.08811e-17
7145.11360 1.09031e-17
7146.38673 1.04257e-17
7147.64967 1.06406e-17
7148.92279 1.07189e-17
7150.19592 1.01713e-17
7151.45886 1.02852e-17
7152.73199 1.03162e-17
7154.00511 9.68474e-18
7155.26805 9.50941e-18
7156.54118 1.01654e-17
7157.80411 1.00340e-17
7159.07724 9.87095e-18
7160.35036 1.05763e-17
7161.62349 1.09289e-17
7162.88643 1.10734e-17
7164.15955 9.73568e-18
7165.42249 9.53756e-18
7166.69562 1.06682e-17
7167.96875 1.03965e-17
7169.24187 9.22965e-18
7170.50481 8.87082e-18
7171.77794 9.82512e-18
7173.04087 1.03359e-17
7174.31400 9.66254e-18
7175.58713 9.35973e-18
7176.85006 9.96530e-18
7178.12319 9.77493e-18
7179.39631 9.84773e-18
7180.65925 1.08199e-17
7181.93238 1.10577e-17
7183.20550 1.00600e-17
7184.46845 9.18437e-18
7185.74157 8.84513e-18
7187.01469 9.32310e-18
7188.27763 1.09639e-17
7189.55076 1.21882e-17
7190.82388 1.17188e-17
7192.08682 1.10904e-17
7193.35995 1.14477e-17
7194.63307 1.17031e-17
7195.89601 1.07239e-17
7197.16914 1.10917e-17
7198.44226 1.14538e-17
7199.70521 1.01878e-17
7200.97833 8.97337e-18
7202.25145 8.07429e-18
7203.51440 8.78452e-18
7204.78752 9.87144e-18
7206.06064 9.30235e-18
7207.32358 9.29708e-18
7208.59671 1.02201e-17
7209.86983 1.03224e-17
7211.13277 1.03796e-17
7212.40590 1.11329e-17
7213.67902 1.17816e-17
7214.94196 1.02353e-17
7216.21509 8.77905e-18
7217.48822 9.67887e-18
7218.75115 9.78148e-18
7220.02428 9.80507e-18
7221.28722 1.07290e-17
7222.56034 1.06205e-17
7223.83347 9.90173e-18
7225.10659 1.00242e-17
7226.36953 1.05515e-17
7227.64266 9.94463e-18
7228.90560 8.73277e-18
7230.17872 8.04471e-18
7231.45185 7.58205e-18
7232.71479 8.54243e-18
7233.98791 1.01766e-17
7235.26104 1.02634e-17
7236.52398 9.74628e-18
7237.79710 9.81167e-18
7239.07023 9.22168e-18
7240.33317 7.27181e-18
7241.60629 7.24424e-18
7242.87942 9.44177e-18
7244.14236 1.00684e-17
7245.41549 9.72536e-18
7246.68861 9.15581e-18
7247.95155 7.98579e-18
7249.22467 7.78250e-18
7250.49780 8.30322e-18
7251.76074 8.55499e-18
7253.03386 8.74564e-18
7254.30699 9.50154e-18
7255.56993 1.07597e-17
7256.84305 1.04747e-17
7258.11618 9.00368e-18
7259.37912 8.61198e-18
7260.65225 9.61358e-18
7261.92537 9.85718e-18
7263.18831 9.17558e-18
7264.46144 9.66565e-18
7265.73456 9.09118e-18
7266.99750 8.40248e-18
7268.27063 8.88870e-18
7269.54375 9.26678e-18
7270.80669 9.36760e-18
7272.07981 8.29282e-18
7273.35294 8.57875e-18
7274.61588 8.99995e-18
7275.88900 8.96404e-18
7277.16213 9.09403e-18
7278.42507 8.73459e-18
7279.69819 9.14548e-18
7280.97132 1.03841e-17
7282.23426 1.04153e-17
7283.50738 1.05947e-17
7284.78051 1.08928e-17
7286.04345 9.79349e-18
7287.31657 8.78138e-18
7288.57951 9.01351e-18
7289.85264 8.35071e-18
7291.12576 9.42841e-18
7292.39889 1.06011e-17
7293.66183 9.74519e-18
7294.93495 1.03223e-17
7296.19790 1.05370e-17
7297.47102 9.30945e-18
7298.74414 8.60556e-18
7300.00708 8.51290e-18
7301.28021 8.32491e-18
7302.55333 8.17551e-18
7303.81627 8.64024e-18
7305.08940 8.82036e-18
7306.36252 8.09843e-18
7307.62547 8.22986e-18
7308.89859 9.18715e-18
7310.17172 9.02481e-18
7311.43466 8.69101e-18
7312.70778 9.60187e-18
7313.98090 1.01220e-17
7315.24384 9.57984e-18
7316.51697 9.44906e-18
7317.79009 9.28185e-18
7319.05303 8.90081e-18
7320.32616 8.84716e-18
7321.59928 9.13902e-18
7322.86222 9.47755e-18
7324.13535 8.27704e-18
7325.40848 7.22458e-18
7326.67141 8.61555e-18
7327.94454 9.78574e-18
7329.21767 1.01066e-17
7330.48060 9.95949e-18
7331.75373 9.56009e-18
7333.02686 9.70022e-18
7334.28979 9.16202e-18
7335.56292 7.43553e-18
7336.83604 7.35791e-18
7338.09899 7.44241e-18
7339.37211 8.04113e-18
7340.64523 1.09899e-17
7341.90817 1.26638e-17
7343.18130 1.11999e-17
7344.45442 1.02563e-17
7345.71736 9.96977e-18
7346.99049 8.91898e-18
7348.26361 8.97185e-18
7349.52655 9.90525e-18
7350.79968 1.03938e-17
7352.06262 1.02981e-17
7353.33575 1.01445e-17
7354.60887 9.31327e-18
7355.87181 8.89506e-18
7357.14494 9.37020e-18
7358.41806 1.00187e-17
7359.68100 1.11377e-17
7360.95412 1.15441e-17
7362.22725 1.04660e-17
7363.49019 9.05060e-18
7364.76331 8.09094e-18
7366.03644 8.18573e-18
7367.29938 9.07069e-18
7368.57250 9.76867e-18
7369.84563 9.20767e-18
7371.10857 7.16848e-18
7372.38170 7.04192e-18
7373.65482 8.76255e-18
7374.91776 8.81973e-18
7376.19088 7.70643e-18
7377.46401 7.95295e-18
7378.72695 9.51372e-18
7380.00007 9.25596e-18
7381.27320 7.73205e-18
7382.53614 7.26102e-18
7383.80926 8.46738e-18
7385.08239 1.00404e-17
7386.34533 1.02180e-17
7387.61845 1.00693e-17
7388.89158 9.38161e-18
7390.15452 8.64651e-18
7391.42764 8.74678e-18
7392.70077 8.75336e-18
7393.96371 9.59084e-18
7395.23683 1.00694e-17
7396.50996 9.14925e-18
7397.77290 8.51194e-18
7399.04602 8.86198e-18
7400.31915 9.92074e-18
7401.58209 1.05711e-17
7402.85522 9.66767e-18
7404.12834 8.67189e-18
7405.39128 8.61443e-18
7406.66440 9.15024e-18
7407.93753 8.81380e-18
7409.20047 9.04993e-18
7410.47359 9.01185e-18
7411.74672 8.96925e-18
7413.00966 9.65415e-18
7414.28278 9.77407e-18
7415.54572 9.90356e-18
7416.81885 9.36508e-18
7418.09198 8.71728e-18
7419.35491 9.45900e-18
7420.62804 1.01718e-17
7421.90117 9.93383e-18
7423.16410 9.73871e-18
7424.43723 9.30791e-18
7425.71035 9.13294e-18
7426.97329 9.53746e-18
7428.24642 9.31823e-18
7429.51954 9.34502e-18
7430.78248 9.18729e-18
7432.05561 8.36614e-18
7433.32874 8.90497e-18
7434.59167 8.66976e-18
7435.86480 6.30839e-18
7437.13792 6.16045e-18
7438.40086 8.64437e-18
7439.67399 9.70063e-18
7440.94711 8.36478e-18
7442.21005 7.41222e-18
7443.48318 7.42606e-18
7444.75630 8.70454e-18
7446.01925 9.05692e-18
7447.29237 7.82626e-18
7448.56549 7.29094e-18
7449.82844 7.69221e-18
7451.10156 7.71845e-18
7452.37468 8.42091e-18
7453.63762 8.93832e-18
7454.91075 8.32129e-18
7456.18387 7.75536e-18
7457.44681 8.03480e-18
7458.71994 8.52959e-18
7459.99306 7.42090e-18
7461.25600 7.05716e-18
7462.52913 9.19458e-18
7463.80225 1.04975e-17
7465.06520 9.49696e-18
7466.33832 9.07872e-18
7467.61144 8.90571e-18
7468.87439 7.63190e-18
7470.14751 7.69368e-18
7471.42063 9.50700e-18
7472.68357 1.11520e-17
7473.95670 1.13751e-17
7475.22982 1.03726e-17
7476.49276 1.05769e-17
7477.76589 1.13572e-17
7479.03901 1.06209e-17
7480.30195 9.63448e-18
7481.57508 8.71032e-18
7482.83802 8.47119e-18
7484.11114 9.19063e-18
7485.38427 9.02428e-18
7486.64721 8.43668e-18
7487.92033 7.74261e-18
7489.19346 8.59028e-18
7490.45640 9.58176e-18
7491.72952 1.01320e-17
7493.00265 1.09569e-17
7494.26559 1.01636e-17
7495.53871 1.01542e-17
7496.81184 1.11621e-17
7498.07478 1.08731e-17
7499.34790 9.44719e-18
7500.62103 8.63562e-18
7501.88397 8.66377e-18
7503.15709 9.13496e-18
7504.43022 8.60377e-18
7505.69316 8.93516e-18
7506.96628 9.67851e-18
7508.23941 9.37249e-18
7509.50235 9.37173e-18
7510.77548 8.88914e-18
7512.04860 8.06639e-18
7513.31154 7.90587e-18
7514.58467 8.14983e-18
7515.85779 9.26837e-18
7517.12073 1.02466e-17
7518.39385 1.00774e-17
7519.66698 9.35209e-18
7520.92992 9.19187e-18
7522.20304 9.28916e-18
7523.47617 8.70190e-18
7524.73911 9.42622e-18
7526.01224 1.00628e-17
7527.28536 9.65211e-18
7528.54830 9.68833e-18
7529.82143 1.02834e-17
7531.09455 1.18111e-17
7532.35749 1.16536e-17
7533.63062 9.77319e-18
7534.90374 9.59396e-18
7536.16668 1.06339e-17
7537.43980 9.55480e-18
7538.71293 7.37757e-18
7539.97587 7.00502e-18
7541.24899 7.99364e-18
7542.52212 9.21053e-18
7543.78506 8.28172e-18
7545.05818 6.99244e-18
7546.32112 7.44915e-18
7547.59425 7.87819e-18
7548.86737 8.08651e-18
7550.13031 8.08066e-18
7551.40344 8.07480e-18
7552.67656 8.06895e-18
7553.93950 8.06310e-18
7555.21263 8.05725e-18
7556.48575 8.05141e-18
7557.74870 8.04555e-18
7559.02182 8.03971e-18
7560.29494 8.03386e-18
7561.55789 8.02801e-18
7562.83101 8.02216e-18
7564.10413 8.01632e-18
7565.36707 8.01047e-18
7566.64020 8.00463e-18
7567.91332 7.99878e-18
7569.17626 7.99293e-18
7570.44939 7.98709e-18
7571.72251 7.98125e-18
7572.98546 7.97540e-18
7574.25858 7.96956e-18
7575.53171 7.96372e-18
7576.79464 7.95787e-18
7578.06777 7.95203e-18
7579.34089 7.94619e-18
7580.60383 7.94035e-18
7581.87696 7.93451e-18
7583.15008 7.92867e-18
7584.41302 7.92283e-18
7585.68615 7.91699e-18
7586.95927 7.91115e-18
7588.22221 7.90531e-18
7589.49534 7.89947e-18
7590.76847 7.89363e-18
7592.03140 7.88780e-18
7593.30453 7.88196e-18
7594.57766 7.87612e-18
7595.84059 7.87029e-18
7597.11372 7.86445e-18
7598.38684 7.85861e-18
7599.64978 7.85278e-18
7600.92291 7.84694e-18
7602.19603 7.84111e-18
7603.45898 7.83528e-18
7604.73210 7.82944e-18
7606.00522 7.82361e-18
7607.26816 7.81778e-18
7608.54129 7.81195e-18
7609.80423 7.80612e-18
7611.07735 7.80028e-18
7612.35048 7.79445e-18
7613.61342 7.78862e-18
7614.88654 7.78279e-18
7616.15967 7.77696e-18
7617.42261 7.77114e-18
7618.69574 7.76531e-18
7619.96886 7.75948e-18
7621.23180 7.75365e-18
7622.50493 7.74782e-18
7623.77805 7.74200e-18
7625.04099 7.73617e-18
7626.31411 7.73035e-18
7627.58724 7.72452e-18
7628.85018 7.71870e-18
7630.12330 7.71287e-18
7631.39643 7.70705e-18
7632.65937 7.70122e-18
7633.93250 7.69540e-18
7635.20562 7.68958e-18
7636.46856 7.68375e-18
7637.74168 7.67793e-18
7639.01481 7.67211e-18
7640.27775 7.66629e-18
7641.55087 7.66047e-18
7642.82400 7.65465e-18
7644.08694 7.64883e-18
7645.36006 7.64301e-18
7646.63319 7.63719e-18
7647.89613 7.63137e-18
7649.16925 7.62555e-18
7650.44238 7.61974e-18
7651.70532 7.61392e-18
7652.97844 7.60810e-18
7654.25157 7.60229e-18
7655.51451 7.59647e-18
7656.78763 7.59066e-18
7658.06076 7.58484e-18
7659.32370 7.57902e-18
7660.59682 7.57321e-18
7661.86995 7.56740e-18
7663.13289 7.56158e-18
7664.40601 7.55577e-18
7665.67914 7.54996e-18
7666.94208 7.54415e-18
7668.21521 7.53833e-18
7669.48833 7.53252e-18
7670.75127 7.52671e-18
7672.02439 7.52090e-18
7673.29752 7.51509e-18
7674.56046 7.50928e-18
7675.83358 7.50348e-18
7677.09652 7.49767e-18
7678.36965 7.49186e-18
7679.64277 7.48605e-18
7680.90571 7.48024e-18
7682.17884 8.33554e-18
7683.45197 8.51329e-18
7684.71490 8.06435e-18
7685.98803 8.36491e-18
7687.26116 8.37997e-18
7688.52409 8.20977e-18
7689.79722 7.90472e-18
7691.07034 7.01336e-18
7692.33328 6.51037e-18
7693.60641 7.28185e-18
7694.87953 7.90058e-18
7696.14247 7.84641e-18
7697.41560 8.11297e-18
7698.68872 8.10231e-18
7699.95166 7.59278e-18
7701.22479 7.26241e-18
7702.49791 7.12275e-18
7703.76085 7.46984e-18
7705.03398 7.54761e-18
7706.30710 7.24697e-18
7707.57004 7.61212e-18
7708.84317 7.81548e-18
7710.11629 8.62158e-18
7711.37924 8.60752e-18
7712.65236 7.21142e-18
7713.92548 8.79283e-18
7715.18843 1.07806e-17
7716.46155 1.10571e-17
7717.73467 8.90579e-18
7718.99761 7.30257e-18
7720.27074 8.67398e-18
7721.54386 9.71718e-18
7722.80680 8.79798e-18
7724.07993 7.45592e-18
7725.35305 6.27437e-18
7726.61600 5.95768e-18
7727.88912 7.24934e-18
7729.16225 8.18076e-18
7730.42519 7.41592e-18
7731.69831 7.13351e-18
7732.96125 7.03046e-18
7734.23438 6.31147e-18
7735.50750 6.91767e-18
7736.78062 7.55337e-18
7738.04356 7.28247e-18
7739.31669 8.40977e-18
7740.57963 9.37728e-18
7741.85275 7.82146e-18
7743.12588 6.56634e-18
7744.38882 7.08814e-18
7745.66194 7.59591e-18
7746.93507 7.85829e-18
7748.19801 7.94209e-18
7749.47113 7.30509e-18
7750.74426 6.98891e-18
7752.00720 7.62829e-18
7753.28032 7.64389e-18
7754.55345 6.95608e-18
7755.81639 7.20025e-18
7757.08951 7.44861e-18
7758.36264 6.97524e-18
7759.62558 7.12374e-18
7760.89870 7.28139e-18
7762.17183 6.23643e-18
7763.43477 5.82206e-18
7764.70789 7.03271e-18
7765.98102 7.31526e-18
7767.24396 6.43292e-18
7768.51708 5.34121e-18
7769.79021 5.40108e-18
7771.05315 7.03846e-18
7772.32627 8.97463e-18
7773.59940 1.00300e-17
7774.86234 9.35564e-18
7776.13547 8.40580e-18
7777.40859 8.74495e-18
7778.67153 7.76307e-18
7779.94466 6.10643e-18
7781.21778 6.93143e-18
7782.48072 6.85333e-18
7783.75384 6.42117e-18
7785.02697 7.77520e-18
7786.28991 8.01006e-18
7787.56303 7.62452e-18
7788.83616 7.10949e-18
7790.09910 7.17252e-18
7791.37223 7.74095e-18
7792.64535 7.79800e-18
7793.90829 7.65774e-18
7795.18142 8.23426e-18
7796.44435 8.10323e-18
7797.71748 7.31023e-18
7798.99060 8.17158e-18
7800.25354 8.69342e-18
7801.52667 7.38068e-18
7802.79979 7.94813e-18
7804.06274 9.76919e-18
7805.33586 9.11152e-18
7806.60898 8.78478e-18
7807.87192 1.05873e-17
7809.14505 9.59408e-18
7810.41817 7.73431e-18
7811.68111 7.98249e-18
7812.95424 8.80353e-18
7814.22736 9.06665e-18
7815.49030 9.13423e-18
7816.76343 8.91160e-18
7818.03655 8.86543e-18
7819.29950 9.63944e-18
7820.57262 1.06601e-17
7821.84575 9.70771e-18
7823.10869 6.79925e-18
7824.38181 5.46675e-18
7825.65493 6.52972e-18
7826.91788 8.02964e-18
7828.19100 8.14046e-18
7829.46412 8.16926e-18
7830.72706 8.45619e-18
7832.00019 8.65037e-18
7833.27331 9.15331e-18
7834.53625 8.87893e-18
7835.80938 8.28599e-18
7837.08250 7.87050e-18
7838.34544 8.03291e-18
7839.61857 8.17817e-18
7840.89170 7.74315e-18
7842.15463 7.58438e-18
7843.42776 7.95145e-18
7844.70088 8.45516e-18
7845.96382 8.85904e-18
7847.23695 8.18504e-18
7848.51007 7.22717e-18
7849.77301 8.99167e-18
7851.04614 1.04399e-17
7852.31926 9.22210e-18
7853.58220 8.69267e-18
7854.85533 9.17563e-18
7856.11827 8.98349e-18
7857.39139 9.34681e-18
7858.66452 9.46316e-18
7859.93764 8.22044e-18
7861.20058 6.96645e-18
7862.47371 7.96239e-18
7863.73665 9.15905e-18
7865.00977 8.02668e-18
7866.28290 7.66484e-18
7867.55602 8.11439e-18
7868.81897 7.15933e-18
7870.09209 6.91307e-18
7871.35503 7.17330e-18
7872.62815 7.83759e-18
7873.90128 8.57501e-18
7875.16422 8.32956e-18
7876.43734 7.87911e-18
7877.71047 8.32943e-18
7878.97341 1.00436e-17
7880.24653 1.08800e-17
7881.51966 9.84409e-18
7882.78260 8.24322e-18
7884.05573 7.94872e-18
7885.32885 9.68263e-18
7886.59179 1.08806e-17
7887.86492 9.41453e-18
7889.13804 7.89704e-18
7890.40098 8.12042e-18
7891.67411 7.61226e-18
7892.94723 7.69386e-18
7894.21017 9.14267e-18
7895.48329 9.49286e-18
7896.75642 8.40884e-18
7898.01936 7.40429e-18
7899.29248 6.92538e-18
7900.56561 6.94231e-18
7901.82855 8.10007e-18
7903.10167 8.33912e-18
7904.37480 7.39054e-18
7905.63774 7.34811e-18
7906.91086 7.40607e-18
7908.18399 6.48444e-18
7909.44693 5.73528e-18
7910.72005 6.98885e-18
7911.99318 8.16492e-18
7913.25612 9.12933e-18
7914.52924 9.39012e-18
7915.80237 8.28120e-18
7917.06531 6.80999e-18
7918.33843 6.43349e-18
7919.61156 8.14364e-18
7920.87450 9.83302e-18
7922.14762 1.10808e-17
7923.42075 1.15813e-17
7924.68369 1.01919e-17
7925.95681 9.75759e-18
7927.21975 1.10972e-17
7928.49288 1.13613e-17
7929.76600 9.97885e-18
7931.02895 7.25741e-18
7932.30207 6.04613e-18
7933.57520 6.64989e-18
7934.83813 7.47391e-18
7936.11126 8.37921e-18
7937.38438 9.56526e-18
7938.64732 1.03106e-17
7939.92045 1.00391e-17
7941.19357 9.29677e-18
7942.45651 8.77500e-18
7943.72964 8.38366e-18
7945.00276 8.52894e-18
7946.26570 8.48232e-18
7947.53883 7.87143e-18
7948.81196 8.04858e-18
7950.07489 7.29802e-18
7951.34802 7.79468e-18
7952.62115 8.53758e-18
7953.88408 8.06698e-18
7955.15721 7.25036e-18
7956.43033 7.03017e-18
7957.69327 7.13121e-18
7958.96640 7.30241e-18
7960.23952 7.57243e-18
7961.50246 8.04696e-18
7962.77559 8.05968e-18
7964.04871 7.57894e-18
7965.31165 7.98981e-18
7966.58478 8.87353e-18
7967.85790 9.04355e-18
7969.12084 8.57801e-18
7970.39397 8.41910e-18
7971.66709 7.97589e-18
7972.93003 7.41319e-18
7974.20316 9.14992e-18
7975.47628 9.18700e-18
7976.73923 7.81270e-18
7978.01235 9.24183e-18
7979.28547 1.05380e-17
7980.54842 9.40709e-18
7981.82154 7.96774e-18
7983.09466 7.31174e-18
7984.35760 6.97685e-18
7985.63073 6.01468e-18
7986.89367 6.24320e-18
7988.16679 7.14514e-18
7989.43992 6.64527e-18
7990.70286 5.04070e-18
7991.97599 4.50605e-18
7993.24911 6.03477e-18
7994.51205 7.14971e-18
7995.78517 7.81884e-18
7997.05830 9.05652e-18
7998.32124 9.81523e-18
7999.59436 9.61068e-18
8000.86749 8.74336e-18
8002.13043 7.48674e-18
8003.40355 6.86527e-18
8004.67668 7.36974e-18
8005.93962 7.54582e-18
8007.21274 8.01711e-18
8008.48587 7.70911e-18
8009.74881 7.35210e-18
8011.02193 8.55094e-18
8012.29506 9.47265e-18
8013.55800 8.34035e-18
8014.83112 7.10865e-18
8016.10425 7.70314e-18
8017.36719 8.38141e-18
8018.64031 8.27309e-18
8019.91344 8.39352e-18
8021.17638 8.23809e-18
8022.44950 8.46146e-18
8023.72263 8.71264e-18
8024.98557 9.30273e-18
8026.25869 9.85437e-18
8027.53182 9.65063e-18
8028.79476 8.75925e-18
8030.06788 7.50397e-18
8031.34101 7.68497e-18
8032.60395 8.78195e-18
8033.87707 8.91882e-18
8035.15020 7.89043e-18
8036.41314 6.85509e-18
8037.68626 6.88076e-18
8038.95939 6.19741e-18
8040.22233 6.06768e-18
8041.49546 7.48981e-18
8042.76858 8.32667e-18
8044.03152 8.51007e-18
8045.30465 8.49736e-18
8046.57777 7.22380e-18
8047.84071 6.67926e-18
8049.11383 7.88321e-18
8050.37677 7.87040e-18
8051.64990 6.39933e-18
8052.92302 6.40739e-18
8054.18596 7.33432e-18
8055.45909 6.98367e-18
8056.73221 7.06053e-18
8057.99515 8.27064e-18
8059.26828 8.31104e-18
8060.54140 7.31539e-18
8061.80434 7.63208e-18
8063.07747 8.10791e-18
8064.35059 7.75105e-18
8065.61353 8.50434e-18
8066.88666 9.00802e-18
8068.15978 8.09156e-18
8069.42273 8.15230e-18
8070.69585 8.45666e-18
8071.96897 8.21554e-18
8073.23191 8.67813e-18
8074.50504 8.29949e-18
8075.77816 7.38984e-18
8077.04110 6.88194e-18
8078.31423 7.02863e-18
8079.58735 7.33746e-18
8080.85029 7.62178e-18
8082.12342 7.92730e-18
8083.39654 7.68368e-18
8084.65949 7.43484e-18
8085.93261 7.69743e-18
8087.20574 7.68072e-18
8088.46868 8.19511e-18
8089.74180 8.75724e-18
8091.01492 7.44106e-18
8092.27787 6.45033e-18
8093.55099 5.91760e-18
8094.82411 5.96711e-18
8096.08705 7.05134e-18
8097.36018 7.76459e-18
8098.63330 7.71562e-18
8099.89624 7.38377e-18
8101.16937 6.89314e-18
8102.44250 6.82452e-18
8103.70543 7.49777e-18
8104.97856 8.39463e-18
8106.25169 8.44149e-18
8107.51462 7.58395e-18
8108.78775 6.68728e-18
8110.06088 6.26626e-18
8111.32381 7.24489e-18
8112.59694 7.47638e-18
8113.87006 6.73599e-18
8115.13300 6.87120e-18
8116.40613 7.04175e-18
8117.66907 7.11123e-18
8118.94219 7.87956e-18
8120.21532 8.14269e-18
8121.47826 7.63692e-18
8122.75138 6.90242e-18
8124.02451 5.84889e-18
8125.28745 5.69709e-18
8126.56057 6.11133e-18
8127.83370 6.15662e-18
8129.09664 5.37658e-18
8130.36976 4.80879e-18
8131.64289 5.32813e-18
8132.90583 6.08223e-18
8134.17896 6.64149e-18
8135.45208 6.79963e-18
8136.71502 6.42049e-18
8137.98814 6.12778e-18
8139.26127 6.18395e-18
8140.52421 6.39479e-18
8141.79733 7.64287e-18
8143.07046 7.67189e-18
8144.33340 6.60269e-18
8145.60652 6.63732e-18
8146.87965 7.49776e-18
8148.14259 8.20039e-18
8149.41572 8.36951e-18
8150.68884 8.27906e-18
8151.95178 8.20837e-18
8153.22491 8.54490e-18
8154.49803 8.68413e-18
8155.76097 7.95585e-18
8157.03409 7.26046e-18
8158.30722 7.81184e-18
8159.57016 8.32185e-18
8160.84328 8.46656e-18
8162.11641 8.23240e-18
8163.37935 7.32522e-18
8164.65247 7.27337e-18
8165.92560 7.43105e-18
8167.18854 6.75529e-18
8168.46166 6.64403e-18
8169.73479 6.83871e-18
8170.99773 6.34263e-18
8172.27085 6.25318e-18
8173.54398 6.81787e-18
8174.80692 6.79875e-18
8176.08004 6.32619e-18
8177.34299 5.65437e-18
8178.61611 5.19299e-18
8179.88923 6.30006e-18
8181.15218 7.76272e-18
8182.42530 8.40096e-18
8183.69842 8.67314e-18
8184.96136 7.38052e-18
8186.23449 7.16842e-18
8187.50761 7.37855e-18
8188.77055 6.50500e-18
8190.04368 5.33267e-18
8191.31680 4.52678e-18
8192.57975 5.02875e-18
8193.85287 6.09465e-18
8195.12600 5.92019e-18
8196.38893 5.69143e-18
8197.66206 6.48737e-18
8198.93519 6.69398e-18
8200.19812 6.18088e-18
8201.47125 6.54407e-18
8202.74438 6.98134e-18
8204.00731 6.98657e-18
8205.28044 7.02699e-18
8206.55357 7.30139e-18
8207.81650 8.02969e-18
8209.08963 7.83870e-18
8210.36276 6.50670e-18
8211.62570 6.47876e-18
8212.89882 6.22816e-18
8214.17195 5.55662e-18
8215.43489 7.12499e-18
8216.70801 8.37414e-18
8217.98113 7.18993e-18
8219.24407 6.14084e-18
8220.51720 6.45262e-18
8221.79032 6.63309e-18
8223.05326 6.36238e-18
8224.32639 5.89172e-18
8225.59951 5.30824e-18
8226.86246 6.72420e-18
8228.13558 8.19755e-18
8229.40870 7.86245e-18
8230.67165 7.18640e-18
8231.94477 7.01526e-18
8233.21789 7.31597e-18
8234.48084 8.00751e-18
8235.75396 8.60153e-18
8237.02708 8.07577e-18
8238.29002 6.33137e-18
8239.56315 6.11049e-18
8240.83627 7.23347e-18
8242.09922 6.06978e-18
8243.37234 5.74988e-18
8244.63528 7.17451e-18
8245.90841 7.50629e-18
8247.18153 6.36995e-18
8248.44447 6.34252e-18
8249.71760 7.29556e-18
8250.99072 7.42122e-18
8252.25366 8.27422e-18
8253.52679 8.29311e-18
8254.79991 6.56190e-18
8256.06285 5.69600e-18
8257.33597 6.40766e-18
8258.60910 6.44220e-18
8259.87204 7.34296e-18
8261.14516 8.05568e-18
8262.41829 6.84480e-18
8263.68123 6.20192e-18
8264.95435 6.47473e-18
8266.22748 6.51665e-18
8267.49042 5.86805e-18
8268.76354 6.09722e-18
8270.03667 7.13234e-18
8271.29961 7.31333e-18
8272.57273 7.68001e-18
8273.84586 7.91717e-18
8275.10880 6.83011e-18
8276.38192 6.85274e-18
8277.65505 8.23291e-18
8278.91799 7.40745e-18
8280.19111 5.65880e-18
8281.46424 5.68747e-18
8282.72718 5.98852e-18
8284.00030 5.63607e-18
8285.27343 6.02994e-18
8286.53637 5.84991e-18
8287.80949 5.18848e-18
8289.08262 5.76729e-18
8290.34556 6.49503e-18
8291.61868 6.21315e-18
8292.89181 5.66269e-18
8294.15475 5.42022e-18
8295.42787 5.16926e-18
8296.70100 4.99550e-18
8297.96394 5.97481e-18
8299.23706 6.89247e-18
8300.51019 5.96145e-18
8301.77313 5.26838e-18
8303.04625 5.89274e-18
8304.31938 6.20426e-18
8305.58232 6.30495e-18
8306.85544 5.87003e-18
8308.11838 5.17057e-18
8309.39151 5.84763e-18
8310.66463 6.97448e-18
8311.93776 7.61664e-18
8313.20070 7.96778e-18
8314.47382 7.68616e-18
8315.73676 7.09311e-18
8317.00989 6.88525e-18
8318.28301 7.53597e-18
8319.54595 8.28859e-18
8320.81908 7.05996e-18
8322.09221 6.61423e-18
8323.35514 7.60242e-18
8324.62827 8.47572e-18
8325.90139 7.74718e-18
8327.16433 6.67989e-18
8328.43746 6.88143e-18
8329.71058 7.34178e-18
8330.97352 6.81618e-18
8332.24665 5.17436e-18
8333.51977 4.65965e-18
8334.78271 6.35985e-18
8336.05584 7.09314e-18
8337.32897 7.92593e-18
8338.59190 8.21551e-18
8339.86503 7.20042e-18
8341.13816 6.88061e-18
8342.40109 6.56502e-18
8343.67422 5.47149e-18
8344.94735 6.20723e-18
8346.21029 7.92837e-18
8347.48341 7.07253e-18
8348.75654 6.98201e-18
8350.01947 7.81845e-18
8351.29260 7.77132e-18
8352.56573 7.72908e-18
8353.82866 7.06433e-18
8355.10179 5.97357e-18
8356.37492 5.99436e-18
8357.63785 5.80514e-18
8358.91098 4.67776e-18
8360.18411 3.62257e-18
8361.44704 4.65337e-18
8362.72017 6.30171e-18
8363.99330 6.14405e-18
8365.25623 5.19923e-18
8366.52936 5.62617e-18
8367.79230 7.41043e-18
8369.06542 8.19025e-18
8370.33855 6.60166e-18
8371.60149 5.35873e-18
8372.87462 6.04247e-18
8374.14774 6.39750e-18
8375.42087 6.48333e-18
8376.68381 5.04374e-18
8377.95693 4.57344e-18
8379.21987 6.29551e-18
8380.49300 6.16872e-18
8381.76612 5.41835e-18
8383.02906 6.63012e-18
8384.30219 7.61676e-18
8385.57531 8.02486e-18
8386.83825 8.39093e-18
8388.11138 7.25087e-18
8389.38450 5.96932e-18
8390.64744 5.85259e-18
8391.92057 5.87893e-18
8393.19369 5.87843e-18
8394.45663 5.72437e-18
8395.72975 5.09989e-18
8397.00288 4.56088e-18
8398.26582 4.18646e-18
8399.53894 5.11567e-18
8400.81207 6.27533e-18
8402.07501 5.90437e-18
8403.34813 6.31327e-18
8404.62126 7.27023e-18
8405.88420 5.87234e-18
8407.15733 4.01476e-18
8408.43045 3.44572e-18
8409.69339 4.34702e-18
8410.96652 4.73003e-18
8412.23964 5.49495e-18
8413.50258 5.70462e-18
8414.77571 4.23802e-18
8416.04883 3.22665e-18
8417.31177 4.18164e-18
8418.58489 5.73125e-18
8419.85802 5.49032e-18
8421.12096 4.44324e-18
8422.39408 4.18168e-18
8423.66721 4.10208e-18
8424.93015 3.18788e-18
8426.20327 3.17714e-18
8427.47640 3.80103e-18
8428.73934 4.01115e-18
8430.01246 4.98477e-18
8431.27540 5.49964e-18
8432.54853 6.20349e-18
8433.82165 8.85245e-18
8435.08460 8.82911e-18
8436.35772 6.69867e-18
8437.63084 5.72137e-18
8438.90397 5.29950e-18
8440.16691 5.30150e-18
8441.44003 5.42203e-18
8442.70298 4.47934e-18
8443.97610 4.20031e-18
8445.24922 5.08595e-18
8446.51217 5.48207e-18
8447.78529 5.07556e-18
8449.05841 5.95390e-18
8450.32136 6.64262e-18
8451.59448 6.13667e-18
8452.86760 6.71144e-18
8454.13054 8.01217e-18
8455.40367 8.46775e-18
8456.67679 7.45764e-18
8457.93973 6.35913e-18
8459.21286 5.75652e-18
8460.48598 5.68472e-18
8461.74892 5.56615e-18
8463.02205 4.86992e-18
8464.29517 4.84498e-18
8465.55811 5.60670e-18
8466.83124 5.61176e-18
8468.10437 6.10351e-18
8469.36730 6.90511e-18
8470.64043 6.28864e-18
8471.91356 5.87136e-18
8473.17649 6.02788e-18
8474.44962 5.05467e-18
8475.72275 4.67985e-18
8476.98568 5.97759e-18
8478.25881 5.63929e-18
8479.53193 4.61942e-18
8480.79487 5.46132e-18
8482.06800 5.69473e-18
8483.34112 5.82410e-18
8484.60406 6.05388e-18
8485.87719 6.49210e-18
8487.15031 7.38246e-18
8488.41325 6.32517e-18
8489.68638 4.28655e-18
8490.95950 3.31391e-18
8492.22244 3.37573e-18
8493.49557 4.29377e-18
8494.75851 6.08575e-18
8496.03163 7.09050e-18
8497.30476 6.90625e-18
8498.56770 6.54409e-18
8499.84083 6.41687e-18
8501.11395 7.01177e-18
8502.37689 7.11544e-18
8503.65002 6.93582e-18
8504.92314 7.45052e-18
8506.18608 9.01847e-18
8507.45920 8.37408e-18
8508.73233 6.25249e-18
8509.99527 6.19901e-18
8511.26839 6.75586e-18
8512.54152 7.45403e-18
8513.80446 7.51445e-18
8515.07758 6.77553e-18
8516.35071 5.61189e-18
8517.61365 6.38436e-18
8518.88677 8.25606e-18
8520.15990 8.07627e-18
8521.42284 5.57171e-18
8522.69596 3.14850e-18
8523.96909 3.61477e-18
8525.23203 4.34388e-18
8526.50515 4.48928e-18
8527.77828 5.55933e-18
8529.04122 6.88204e-18
8530.31435 7.66305e-18
8531.58747 7.14412e-18
8532.85041 6.05835e-18
8534.12354 6.16095e-18
8535.39666 5.86774e-18
8536.65960 6.25311e-18
8537.93273 5.84383e-18
8539.20585 5.54490e-18
8540.46879 6.21255e-18
8541.74192 6.56484e-18
8543.01504 6.35429e-18
8544.27798 5.48588e-18
8545.55111 4.73162e-18
8546.82423 5.26807e-18
8548.08717 7.07343e-18
8549.36029 6.77088e-18
8550.62323 4.98589e-18
8551.89636 4.03773e-18
8553.16948 3.62189e-18
8554.44261 3.82687e-18
8555.70555 4.99574e-18
8556.97867 6.77391e-18
8558.24162 8.21720e-18
8559.51474 7.39215e-18
8560.78787 5.09893e-18
8562.05081 4.00671e-18
8563.32393 4.92934e-18
8564.59706 6.92306e-18
8565.86000 8.28129e-18
8567.13312 7.81563e-18
8568.40625 6.82627e-18
8569.66919 6.53437e-18
8570.94231 6.66355e-18
8572.21544 6.44478e-18
8573.47837 5.73437e-18
8574.75150 5.57199e-18
8576.02463 5.71499e-18
8577.28756 5.02071e-18
8578.56069 5.04477e-18
8579.83381 5.33251e-18
8581.09675 4.68508e-18
8582.36988 5.56440e-18
8583.64300 6.99578e-18
8584.90594 7.05140e-18
8586.17907 7.13477e-18
8587.45219 6.81353e-18
8588.71513 5.26479e-18
8589.98826 4.55083e-18
8591.26138 5.80464e-18
8592.52433 6.46493e-18
8593.79745 5.85119e-18
8595.07057 5.31576e-18
8596.33352 5.86900e-18
8597.60664 6.62188e-18
8598.87976 6.01273e-18
8600.14271 6.41809e-18
8601.41583 7.45122e-18
8602.68895 8.63078e-18
8603.95190 8.54093e-18
8605.22502 7.59825e-18
8606.49814 7.31460e-18
8607.76109 7.36908e-18
8609.03421 7.19855e-18
8610.30733 5.28256e-18
8611.57028 4.59033e-18
8612.84340 6.61265e-18
8614.10634 9.40715e-18
8615.37946 8.67600e-18
8616.65259 6.08451e-18
8617.92571 6.20566e-18
8619.18865 5.47807e-18
8620.46178 3.26615e-18
8621.72472 3.76740e-18
8622.99784 4.73060e-18
8624.27097 5.12670e-18
8625.54410 5.05248e-18
8626.80703 4.14205e-18
8628.08016 2.95839e-18
8629.34310 3.13669e-18
8630.61622 6.23119e-18
8631.88935 6.69677e-18
8633.15229 5.45134e-18
8634.42541 4.81655e-18
8635.69854 3.73793e-18
8636.96148 3.41345e-18
8638.23460 4.18399e-18
8639.50773 4.55637e-18
8640.77067 5.54533e-18
8642.04379 6.35784e-18
8643.31692 6.23455e-18
8644.57986 6.31586e-18
8645.85298 6.11696e-18
8647.12611 7.00824e-18
8648.38905 8.88582e-18
8649.66217 7.89746e-18
8650.93530 6.03365e-18
8652.19824 6.44745e-18
8653.47137 9.43860e-18
8654.74449 1.10901e-17
8656.00743 9.80391e-18
8657.28056 8.56717e-18
8658.55368 8.19639e-18
8659.81662 7.11945e-18
8661.08974 6.36449e-18
8662.36287 7.49104e-18
8663.62581 9.33032e-18
8664.89893 9.84406e-18
8666.17206 1.01773e-17
8667.43500 9.94293e-18
8668.70812 8.25830e-18
8669.98125 7.13212e-18
8671.24419 6.31497e-18
8672.51731 6.97957e-18
8673.79044 7.69204e-18
8675.05338 8.03656e-18
8676.32650 8.10694e-18
8677.58944 8.11355e-18
8678.86257 8.79467e-18
8680.13569 8.90578e-18
8681.39863 8.57407e-18
8682.67176 8.20488e-18
8683.94488 8.45076e-18
8685.21801 9.60692e-18
8686.48095 1.01551e-17
8687.75408 9.14479e-18
8689.02720 8.17870e-18
8690.29014 8.07886e-18
8691.56327 7.06677e-18
8692.82620 5.39157e-18
8694.09933 4.98581e-18
8695.37246 7.08400e-18
8696.63539 8.79875e-18
8697.90852 7.84807e-18
8699.18165 6.77665e-18
8700.44458 6.39670e-18
8701.71771 6.11054e-18
8702.99083 7.18193e-18
8704.25377 8.57793e-18
8705.52690 9.60353e-18
8706.80002 1.00849e-17
8708.06296 9.19048e-18
8709.33609 8.31669e-18
8710.60921 8.81051e-18
8711.87215 9.76563e-18
8713.14528 1.08211e-17
8714.41840 1.10594e-17
8715.68135 1.11565e-17
8716.95447 1.19600e-17
8718.22760 1.22182e-17
8719.49054 1.13496e-17
8720.76366 1.01317e-17
8722.03679 1.00139e-17
8723.29973 8.82859e-18
8724.57285 7.70035e-18
8725.84598 7.82750e-18
8727.10892 7.55663e-18
8728.38204 7.07205e-18
8729.65517 6.84686e-18
8730.91810 7.59868e-18
8732.19123 8.20225e-18
8733.46436 8.22939e-18
8734.72729 7.78167e-18
8736.00042 7.36565e-18
8737.27355 7.95829e-18
8738.53648 8.34158e-18
8739.80961 7.71873e-18
8741.08273 8.14095e-18
8742.34567 8.46232e-18
8743.61880 7.86597e-18
8744.88174 7.17909e-18
8746.15487 7.48489e-18
8747.42799 8.70111e-18
8748.69093 9.04235e-18
8749.96406 9.79367e-18
8751.23718 1.02382e-17
8752.51030 9.69835e-18
8753.77325 8.32843e-18
8755.04637 7.54570e-18
8756.30931 8.15730e-18
8757.58244 8.85728e-18
8758.85556 1.04648e-17
8760.11850 1.10584e-17
8761.39163 9.26557e-18
8762.66475 7.41044e-18
8763.92769 8.30670e-18
8765.20082 1.09328e-17
8766.47394 1.25024e-17
8767.73688 1.25989e-17
8769.01001 1.07353e-17
8770.28313 9.45071e-18
8771.54607 8.95771e-18
8772.81919 8.12136e-18
8774.09232 8.66958e-18
8775.35526 1.11889e-17
8776.62838 1.28684e-17
8777.90151 1.21250e-17
8779.16445 1.17708e-17
8780.43757 1.29455e-17
8781.71070 1.07938e-17
8782.97364 7.80738e-18
8784.24676 9.53298e-18
8785.51989 1.16452e-17
8786.78283 1.13853e-17
8788.05595 9.34226e-18
8789.32908 8.10941e-18
8790.59202 8.08551e-18
8791.86514 7.38587e-18
8793.13827 7.28757e-18
8794.40121 9.17565e-18
8795.67433 9.66187e-18
8796.94746 8.23425e-18
8798.21040 8.40402e-18
8799.48352 8.24668e-18
8800.75665 6.82957e-18
8802.01959 5.56964e-18
8803.29271 4.82217e-18
8804.56584 6.03056e-18
8805.82878 6.40123e-18
8807.10190 4.75648e-18
8808.37503 5.15185e-18
8809.63797 8.12973e-18
8810.91110 9.07018e-18
8812.17404 7.83071e-18
8813.44716 8.54622e-18
8814.72028 9.61842e-18
8815.99341 9.30405e-18
8817.25635 8.66086e-18
8818.52947 8.90093e-18
8819.79241 1.07795e-17
8821.06554 1.40972e-17
8822.33866 1.58720e-17
8823.60160 1.39952e-17
8824.87473 1.29164e-17
8826.14785 1.24768e-17
8827.41079 1.22205e-17
8828.68392 1.44980e-17
8829.95704 1.63696e-17
8831.21998 1.37893e-17
8832.49311 1.02395e-17
8833.76623 9.18315e-18
8835.02917 9.19628e-18
8836.30230 9.05048e-18
8837.57542 9.77558e-18
8838.83837 1.01575e-17
8840.11149 9.25847e-18
8841.38462 9.64906e-18
8842.64755 8.96058e-18
8843.92068 7.30035e-18
8845.19381 5.81078e-18
8846.45674 5.60309e-18
8847.72987 7.25099e-18
8849.00300 7.61296e-18
8850.26593 5.93654e-18
8851.53906 5.50982e-18
8852.81219 6.57874e-18
8854.07512 6.76000e-18
8855.34825 5.95289e-18
8856.62137 5.68853e-18
8857.88431 5.91239e-18
8859.15744 5.79102e-18
8860.43056 6.35196e-18
8861.69350 8.11696e-18
8862.96663 8.19335e-18
8864.23975 6.50741e-18
8865.50269 4.75920e-18
8866.77582 2.89807e-18
8868.04894 2.84137e-18
8869.31188 4.39054e-18
8870.58501 6.64771e-18
8871.85813 8.57747e-18
8873.12108 8.92307e-18
8874.39420 8.17042e-18
8875.65714 7.87391e-18
8876.93027 8.22865e-18
8878.20339 8.18015e-18
8879.46633 8.85188e-18
8880.73946 1.21490e-17
8882.01258 1.52517e-17
8883.27552 1.42999e-17
8884.54864 1.11802e-17
8885.82177 9.47571e-18
8887.08471 9.16689e-18
8888.35783 8.82596e-18
8889.63096 9.22546e-18
8890.89390 1.13135e-17
8892.16702 1.22968e-17
8893.44015 1.03537e-17
8894.70309 8.67848e-18
8895.97621 7.13640e-18
8897.24934 6.65698e-18
8898.51228 6.32557e-18
8899.78540 6.14443e-18
8901.05853 7.43172e-18
8902.32147 7.38602e-18
8903.59460 6.68477e-18
8904.86772 5.89751e-18
8906.13066 5.03612e-18
8907.40379 5.85738e-18
8908.67691 6.30491e-18
8909.93985 5.39103e-18
8911.21298 6.68497e-18
8912.48610 6.69796e-18
8913.74904 5.57029e-18
8915.02217 5.69818e-18
8916.29529 6.13412e-18
8917.55823 6.22185e-18
8918.83136 5.83628e-18
8920.10448 6.05307e-18
8921.36742 9.68159e-18
8922.64055 1.19589e-17
8923.91367 9.30828e-18
8925.17661 6.05599e-18
8926.44973 6.55781e-18
8927.71267 8.14452e-18
8928.98580 6.15568e-18
8930.25892 4.78259e-18
8931.53205 6.21451e-18
8932.79499 6.92776e-18
8934.06812 6.24027e-18
8935.34124 6.36168e-18
8936.60418 7.29776e-18
8937.87730 7.56136e-18
8939.14025 7.00744e-18
8940.41337 7.49550e-18
8941.68649 9.82191e-18
8942.94944 1.10217e-17
8944.22256 8.81265e-18
8945.49568 6.27768e-18
8946.75863 6.61830e-18
8948.03175 9.02574e-18
8949.30487 1.04388e-17
8950.56782 1.03350e-17
8951.84094 1.02081e-17
8953.11406 1.08256e-17
8954.37700 1.28573e-17
8955.65013 1.41979e-17
8956.92325 1.10419e-17
8958.18619 5.88283e-18
8959.45932 5.93767e-18
8960.73244 8.82293e-18
8961.99538 7.14845e-18
8963.26851 6.81677e-18
8964.54163 8.85447e-18
8965.80458 8.81948e-18
8967.07770 8.07189e-18
8968.35082 9.26090e-18
8969.61377 1.08228e-17
8970.88689 9.87529e-18
8972.16001 7.46151e-18
8973.42296 8.46326e-18
8974.69608 1.14151e-17
8975.96920 1.21603e-17
8977.23214 1.21169e-17
8978.50527 1.19545e-17
8979.77839 9.94220e-18
8981.04133 9.75755e-18
8982.31446 9.14766e-18
8983.58758 8.13134e-18
8984.85052 9.71722e-18
8986.12365 1.01908e-17
8987.39677 8.14763e-18
8988.65971 6.41475e-18
8989.93284 6.99319e-18
8991.19578 8.70293e-18
8992.46890 9.22588e-18
8993.74203 9.38863e-18
8995.01515 1.20253e-17
8996.27809 1.46788e-17
8997.55122 1.26505e-17
8998.82435 1.16717e-17
9000.08728 1.31901e-17
9000.39283 1.31901e-17
9004.68072 1.33006e-17
9008.95842 1.35457e-17
9013.24631 1.34817e-17
9017.53419 1.32210e-17
9021.81189 1.27852e-17
9026.09977 1.23472e-17
9030.38766 1.24272e-17
9034.66536 1.25882e-17
9038.95325 1.24437e-17
9043.24113 1.21757e-17
9047.51883 1.19104e-17
9051.80671 1.20769e-17
9056.09460 1.19998e-17
9060.38248 1.18063e-17
9064.66019 1.19358e-17
9068.94807 1.20585e-17
9073.23596 1.17286e-17
9077.51365 1.12130e-17
9081.80154 1.10706e-17
9086.08942 1.10720e-17
9090.37731 1.09694e-17
9094.65501 1.10511e-17
9098.94290 1.14097e-17
9103.23078 1.14888e-17
9107.50848 1.13964e-17
9111.79637 1.13582e-17
9116.08425 1.11999e-17
9120.37213 1.11471e-17
9124.64984 1.12133e-17
9128.93772 1.10533e-17
9133.22560 1.07649e-17
9137.50331 1.06461e-17
9141.79119 1.08870e-17
9146.07907 1.13175e-17
9150.36696 1.15437e-17
9154.64466 1.14181e-17
9158.93254 1.10159e-17
9163.22043 1.07969e-17
9167.49813 1.12390e-17
9171.78601 1.16699e-17
9176.07390 1.12661e-17
9180.35160 1.06672e-17
9184.63948 1.07171e-17
9188.92737 1.09814e-17
9193.21525 1.09905e-17
9197.49295 1.10211e-17
9201.78084 1.09983e-17
9206.06872 1.09139e-17
9210.34642 1.07749e-17
9214.63431 1.03773e-17
9218.92219 1.01493e-17
9223.19989 1.06810e-17
9227.48778 1.12354e-17
9231.77566 1.13380e-17
9236.06355 1.10299e-17
9240.34125 1.09194e-17
9244.62913 1.09327e-17
9248.91702 1.05708e-17
9253.19472 1.05814e-17
9257.48260 1.06642e-17
9261.77049 1.08957e-17
9266.05838 1.13445e-17
9270.33608 1.08347e-17
9274.62396 1.02665e-17
9278.91185 1.04195e-17
9283.18954 1.07143e-17
9287.47743 1.07374e-17
9291.76531 1.09688e-17
9296.04301 1.10411e-17
9300.33090 1.06818e-17
9304.61879 1.08929e-17
9308.90667 1.11840e-17
9313.18437 1.10713e-17
9317.47225 1.13326e-17
9321.76014 1.15368e-17
9326.03784 1.13836e-17
9330.32573 1.17546e-17
9334.61361 1.19653e-17
9338.90150 1.11886e-17
9343.17919 1.08603e-17
9347.46708 1.11468e-17
9351.75496 1.08292e-17
9356.03267 1.03643e-17
9360.32055 1.05773e-17
9364.60844 1.13327e-17
9368.88613 1.13837e-17
9373.17402 1.08382e-17
9377.46190 9.97220e-18
9381.74979 9.87802e-18
9386.02749 1.03654e-17
9390.31538 1.02416e-17
9394.60326 9.94159e-18
9398.89114 9.82947e-18
9403.16885 9.97527e-18
9407.45673 1.03325e-17
9411.74462 1.00789e-17
9416.02232 9.51838e-18
9420.31020 9.61107e-18
9424.59808 1.04925e-17
9428.87579 1.07317e-17
9433.16367 1.00625e-17
9437.45155 9.63607e-18
9441.73944 9.38078e-18
9446.01714 9.32437e-18
9450.30502 9.84024e-18
9454.59291 9.99738e-18
9458.87061 9.46167e-18
9463.15849 9.37156e-18
9467.44638 1.02836e-17
9471.72408 1.07077e-17
9476.01196 1.00385e-17
9480.29985 9.35685e-18
9484.58773 9.13234e-18
9488.86543 9.65780e-18
9493.15332 9.86341e-18
9497.44120 9.31391e-18
9501.71890 9.20720e-18
9506.00679 9.70963e-18
9510.29467 1.06932e-17
9514.57237 1.04690e-17
9518.86026 9.43055e-18
9523.14814 9.65285e-18
9527.43603 1.06125e-17
9531.71373 1.07375e-17
9536.00162 1.05394e-17
9540.28950 1.02700e-17
9544.56720 9.98234e-18
9548.85508 9.58239e-18
9553.14297 9.37528e-18
9557.43085 9.69421e-18
9561.70856 9.38762e-18
9565.99644 9.55741e-18
9570.28433 9.78886e-18
9574.56202 9.64113e-18
9578.84991 9.73402e-18
9583.13779 9.73166e-18
9587.42568 9.47348e-18
9591.70338 9.26711e-18
9595.99127 9.36333e-18
9600.27915 9.58251e-18
9604.55685 9.97445e-18
9608.84473 1.02278e-17
9613.13262 1.04414e-17
9617.41032 1.06936e-17
9621.69821 1.04071e-17
9625.98609 1.00574e-17
9630.27398 9.94815e-18
9634.55167 9.93253e-18
9638.83956 9.63661e-18
9643.12744 9.22108e-18
9647.40514 9.05536e-18
9651.69303 8.49450e-18
9655.98092 8.24992e-18
9660.26880 8.70406e-18
9664.54650 9.13847e-18
9668.83438 9.27577e-18
9673.12227 9.72561e-18
9677.39997 9.93903e-18
9681.68786 9.60954e-18
9685.97574 9.12063e-18
9690.26362 9.20618e-18
9694.54133 1.01311e-17
9698.82921 1.09256e-17
9703.11709 1.08747e-17
9707.39480 9.70147e-18
9711.68268 8.75691e-18
9715.97056 8.68963e-18
9720.24827 8.45825e-18
9724.53615 8.22610e-18
9728.82403 7.91818e-18
9733.11192 7.39171e-18
9737.38962 7.48845e-18
9741.67750 8.43510e-18
9745.96539 9.29302e-18
9750.24309 9.20900e-18
9754.53097 8.70475e-18
9758.81886 8.66178e-18
9763.09656 8.98227e-18
9767.38444 9.02128e-18
9771.67233 8.97276e-18
9775.96021 9.19678e-18
9780.23791 8.92561e-18
9784.52580 8.18802e-18
9788.81368 8.23225e-18
9793.09138 8.20008e-18
9797.37927 7.95248e-18
9801.66715 8.18532e-18
9805.94485 8.61736e-18
9810.23274 8.86900e-18
9814.52062 8.52784e-18
9818.80851 7.95563e-18
9823.08621 7.86855e-18
9827.37410 7.55181e-18
9831.66198 7.39463e-18
9835.94987 8.07810e-18
9840.22756 8.26797e-18
9844.51545 8.06273e-18
9848.80333 8.49489e-18
9853.08104 8.19424e-18
9857.36892 7.01282e-18
9861.65681 6.55499e-18
9865.93450 6.79107e-18
9870.22239 6.83366e-18
9874.51027 6.55031e-18
9878.79816 6.57599e-18
9883.07586 7.07402e-18
9887.36375 7.50307e-18
9891.65163 7.75689e-18
9895.92933 7.62956e-18
9900.21721 7.04484e-18
9904.50510 6.54158e-18
9908.79298 6.30837e-18
9913.07069 7.33776e-18
9917.35857 7.62772e-18
9921.64646 6.74266e-18
9925.92415 6.35292e-18
9930.21204 6.06038e-18
9934.49992 5.61559e-18
9938.77762 5.47195e-18
9943.06551 5.99638e-18
9947.35340 6.33073e-18
9951.64128 6.27646e-18
9955.91898 5.62884e-18
9960.20687 5.16636e-18
9964.49475 5.64025e-18
9968.77245 6.68273e-18
9973.06034 7.41927e-18
9977.34822 7.31153e-18
9981.63610 7.39664e-18
9985.91381 7.89950e-18
9990.20169 8.24169e-18
9994.48957 8.28069e-18
9998.76728 8.38600e-18
