# wavelength flux
3500.97153 2.15584e-18
3501.96966 2.40615e-18
3502.96779 1.77801e-18
3503.97610 5.83349e-19
3504.97423 1.40387e-19
3505.97236 1.54992e-18
3506.97050 3.31223e-18
3507.96862 3.49797e-18
3508.97694 2.21530e-18
3509.97507 1.25079e-18
3510.97320 1.79146e-18
3511.97133 2.28773e-18
3512.96946 9.92942e-19
3513.96759 -1.00659e-18
3514.97590 -1.33766e-18
3515.97404 9.69022e-19
3516.97217 3.15040e-18
3517.97030 2.62591e-18
3518.96843 6.29563e-19
3519.97674 -6.46215e-19
3520.97487 -2.95970e-19
3521.97300 5.67533e-19
3522.97113 1.08528e-18
3523.96926 1.57285e-18
3524.96739 2.47496e-18
3525.97570 3.57154e-18
3526.97383 4.06333e-18
3527.97196 3.41753e-18
3528.97009 2.08138e-18
3529.96822 4.88047e-19
3530.97654 -7.24993e-19
3531.97467 -8.02383e-19
3532.97280 6.07798e-19
3533.97093 2.29731e-18
3534.96906 2.98539e-18
3535.96719 2.92825e-18
3536.97550 2.94845e-18
3537.97363 3.40932e-18
3538.97176 3.61632e-18
3539.96989 2.99635e-18
3540.96803 1.98271e-18
3541.97634 1.21041e-18
3542.97447 9.96893e-19
3543.97260 1.19822e-18
3544.97073 1.71624e-18
3545.96886 2.25525e-18
3546.97717 2.41259e-18
3547.97530 2.25187e-18
3548.97343 2.35477e-18
3549.97156 3.16509e-18
3550.96969 3.68141e-18
3551.96782 2.68007e-18
3552.97614 7.79789e-19
3553.97427 -1.45818e-19
3554.97240 1.13961e-18
3555.97053 3.09132e-18
3556.96866 4.08536e-18
3557.97697 4.09018e-18
3558.97510 3.82502e-18
3559.97323 3.75774e-18
3560.97136 3.73773e-18
3561.96949 3.70902e-18
3562.96762 3.58235e-18
3563.97594 3.22810e-18
3564.97407 2.64626e-18
3565.97220 2.22414e-18
3566.97033 2.35924e-18
3567.96846 2.66510e-18
3568.97678 2.52529e-18
3569.97491 1.80133e-18
3570.97303 1.28437e-18
3571.97116 1.69718e-18
3572.96929 2.36205e-18
3573.96742 2.31684e-18
3574.97574 1.42380e-18
3575.97387 7.39946e-19
3576.97200 1.11377e-18
3577.97013 2.08337e-18
3578.96826 3.08080e-18
3579.97657 3.64895e-18
3580.97470 3.43360e-18
3581.97283 2.11543e-18
3582.97096 7.76730e-19
3583.96909 7.75330e-19
3584.97741 1.91946e-18
3585.97554 2.58321e-18
3586.97367 1.52630e-18
3587.97180 1.48366e-20
3588.96993 -4.84092e-19
3589.96806 5.55603e-20
3590.97637 5.82652e-19
3591.97450 3.49642e-19
3592.97264 9.92032e-22
3593.97077 2.13204e-19
3594.96889 9.17426e-19
3595.97721 1.59456e-18
3596.97534 1.87067e-18
3597.97347 1.75330e-18
3598.97160 1.20318e-18
3599.96973 5.39079e-19
3600.96786 2.76756e-19
3601.97618 7.62410e-19
3602.97431 1.57367e-18
3603.97244 2.26539e-18
3604.97056 2.70787e-18
3605.96869 2.93640e-18
3606.97701 2.96689e-18
3607.97514 2.73800e-18
3608.97327 2.17554e-18
3609.97140 1.55074e-18
3610.96953 1.29597e-18
3611.97784 1.64982e-18
3612.97597 2.06708e-18
3613.97410 1.95196e-18
3614.97223 1.54356e-18
3615.97036 1.43023e-18
3616.96849 1.93814e-18
3617.97681 2.52128e-18
3618.97494 2.71051e-18
3619.97307 2.33685e-18
3620.97120 1.34153e-18
3621.96933 -1.54618e-19
3622.97764 -1.23613e-18
3623.97577 -9.33478e-19
3624.97390 3.52884e-19
3625.97203 1.64970e-18
3626.97017 2.26303e-18
3627.96830 2.46163e-18
3628.97661 2.46019e-18
3629.97474 2.36565e-18
3630.97287 2.26696e-18
3631.97100 2.23780e-18
3632.96913 2.15263e-18
3633.97744 1.85853e-18
3634.97557 1.49251e-18
3635.97370 1.31171e-18
3636.97183 1.46059e-18
3637.96996 1.67527e-18
3638.97828 1.72132e-18
3639.97641 1.50358e-18
3640.97454 9.86614e-19
3641.97267 2.12484e-19
3642.97080 -3.24214e-19
3643.96893 -8.61127e-20
3644.97725 7.40120e-19
3645.97537 1.58880e-18
3646.97350 2.02433e-18
3647.97163 2.23393e-18
3648.96976 2.42804e-18
3649.97808 2.51743e-18
3650.97621 2.25341e-18
3651.97434 1.50600e-18
3652.97247 7.17016e-19
3653.97060 3.64547e-19
3654.96873 4.59809e-19
3655.97705 6.91716e-19
3656.97518 8.07344e-19
3657.97330 9.87866e-19
3658.97143 1.46187e-18
3659.96956 2.04402e-18
3660.97788 2.22782e-18
3661.97601 1.62297e-18
3662.97414 8.76273e-19
3663.97227 7.54374e-19
3664.97040 1.27520e-18
3665.96853 1.71777e-18
3666.97684 1.48777e-18
3667.97497 1.06549e-18
3668.97310 1.02366e-18
3669.97123 1.48444e-18
3670.96936 2.01855e-18
3671.97768 2.28911e-18
3672.97581 2.31045e-18
3673.97394 2.11078e-18
3674.97207 1.81330e-18
3675.97020 1.70276e-18
3676.97851 2.07119e-18
3677.97664 2.60463e-18
3678.97478 2.86330e-18
3679.97291 2.65645e-18
3680.97104 2.32557e-18
3681.96916 2.18425e-18
3682.97748 2.12143e-18
3683.97561 1.93265e-18
3684.97374 1.52206e-18
3685.97187 1.05661e-18
3686.97000 6.52943e-19
3687.97831 4.61144e-19
3688.97644 6.47129e-19
3689.97457 1.25821e-18
3690.97270 1.82744e-18
3691.97083 1.84783e-18
3692.96896 1.45755e-18
3693.97728 1.12178e-18
3694.97541 1.19035e-18
3695.97354 1.37087e-18
3696.97167 1.34167e-18
3697.96980 1.15475e-18
3698.97811 1.12879e-18
3699.97624 1.50624e-18
3700.97437 1.86408e-18
3701.97250 1.72440e-18
3702.97063 1.08063e-18
3703.96877 4.36534e-19
3704.97708 2.21795e-19
3705.97521 3.24471e-19
3706.97334 5.79258e-19
3707.97147 8.67457e-19
3708.96960 1.14887e-18
3709.97791 1.34079e-18
3710.97604 1.51843e-18
3711.97417 1.81404e-18
3712.97231 2.23386e-18
3713.97044 2.41344e-18
3714.97875 1.95675e-18
3715.97688 1.24851e-18
3716.97501 9.42512e-19
3717.97314 1.44064e-18
3718.97127 2.08123e-18
3719.96940 2.18174e-18
3720.97771 1.82706e-18
3721.97584 1.51695e-18
3722.97397 1.62540e-18
3723.97210 1.93262e-18
3724.97023 2.25529e-18
3725.97855 2.40080e-18
3726.97668 2.17020e-18
3727.97481 1.36024e-18
3728.97294 5.22824e-19
3729.97107 3.33632e-19
3730.96920 9.27313e-19
3731.97752 1.54577e-18
3732.97564 1.45839e-18
3733.97377 1.11837e-18
3734.97190 1.22595e-18
3735.97003 2.08786e-18
3736.97835 2.91309e-18
3737.97648 2.96060e-18
3738.97461 2.39345e-18
3739.97274 1.71867e-18
3740.97087 1.33433e-18
3741.97919 1.23072e-18
3742.97731 1.43649e-18
3743.97544 1.85911e-18
3744.97357 2.31536e-18
3745.97170 2.62326e-18
3746.96983 2.82472e-18
3747.97815 2.98513e-18
3748.97628 3.10243e-18
3749.97441 3.07890e-18
3750.97254 2.83310e-18
3751.97067 2.49107e-18
3752.97898 2.22171e-18
3753.97711 2.11612e-18
3754.97524 2.05517e-18
3755.97338 1.91030e-18
3756.97150 1.77851e-18
3757.96963 1.83342e-18
3758.97795 2.17795e-18
3759.97608 2.57107e-18
3760.97421 2.76397e-18
3761.97234 2.72678e-18
3762.97047 2.59452e-18
3763.97878 2.48507e-18
3764.97692 2.36677e-18
3765.97505 2.20673e-18
3766.97318 2.02562e-18
3767.97131 1.91849e-18
3768.96943 1.94923e-18
3769.97775 2.17603e-18
3770.97588 2.65624e-18
3771.97401 3.35572e-18
3772.97214 3.94315e-18
3773.97027 4.07972e-18
3774.97858 3.81733e-18
3775.97671 3.40008e-18
3776.97484 3.04248e-18
3777.97297 2.76699e-18
3778.97110 2.60120e-18
3779.97942 2.56430e-18
3780.97755 2.66370e-18
3781.97568 2.89657e-18
3782.97381 3.15979e-18
3783.97194 3.34046e-18
3784.97007 3.37344e-18
3785.97838 3.29459e-18
3786.97651 3.08664e-18
3787.97464 2.96540e-18
3788.97277 3.23804e-18
3789.97091 4.08443e-18
3790.97922 4.74370e-18
3791.97735 4.34523e-18
3792.97548 3.10877e-18
3793.97361 2.15886e-18
3794.97174 2.52210e-18
3795.96987 3.29979e-18
3796.97818 3.37607e-18
3797.97631 2.35712e-18
3798.97444 1.34594e-18
3799.97257 1.37234e-18
3800.97070 2.06046e-18
3801.97902 2.61396e-18
3802.97715 2.47010e-18
3803.97528 2.16699e-18
3804.97341 2.21396e-18
3805.97154 2.64656e-18
3806.96967 3.13385e-18
3807.97798 3.41136e-18
3808.97611 3.47501e-18
3809.97424 3.34170e-18
3810.97237 3.04240e-18
3811.97050 2.62420e-18
3812.97882 2.12232e-18
3813.97695 1.73983e-18
3814.97508 1.71947e-18
3815.97321 2.21398e-18
3816.97134 2.94492e-18
3817.97966 3.63801e-18
3818.97779 4.11143e-18
3819.97591 4.27596e-18
3820.97404 4.02826e-18
3821.97217 3.61283e-18
3822.97031 3.34524e-18
3823.97862 3.36832e-18
3824.97675 3.38147e-18
3825.97488 3.05703e-18
3826.97301 2.63115e-18
3827.97114 2.54463e-18
3828.97945 3.11489e-18
3829.97758 3.70332e-18
3830.97571 3.61893e-18
3831.97384 2.84122e-18
3832.97197 2.08437e-18
3833.97010 2.01003e-18
3834.97842 2.29559e-18
3835.97655 2.46406e-18
3836.97468 2.24899e-18
3837.97281 2.06939e-18
3838.97094 2.30988e-18
3839.97925 2.87029e-18
3840.97738 3.40491e-18
3841.97552 3.62898e-18
3842.97365 3.56924e-18
3843.97177 3.25112e-18
3844.98009 2.76894e-18
3845.97822 2.31742e-18
3846.97635 2.11018e-18
3847.97448 2.09675e-18
3848.97261 2.15003e-18
3849.97074 2.16910e-18
3850.97906 2.22936e-18
3851.97719 2.39350e-18
3852.97531 2.63472e-18
3853.97344 2.85600e-18
3854.97157 2.99235e-18
3855.97989 2.95192e-18
3856.97802 2.62290e-18
3857.97615 2.03575e-18
3858.97428 1.63919e-18
3859.97241 1.93250e-18
3860.97054 2.65233e-18
3861.97885 3.17610e-18
3862.97698 2.96559e-18
3863.97511 2.49259e-18
3864.97324 2.27936e-18
3865.97137 2.49355e-18
3866.97969 2.70191e-18
3867.97782 2.51948e-18
3868.97595 2.10487e-18
3869.97408 1.75478e-18
3870.97221 1.69233e-18
3871.98052 1.81010e-18
3872.97865 2.02909e-18
3873.97678 2.25144e-18
3874.97491 2.36715e-18
3875.97305 2.24068e-18
3876.97118 2.03984e-18
3877.97949 1.99107e-18
3878.97762 2.21683e-18
3879.97575 2.42728e-18
3880.97388 2.33372e-18
3881.97201 1.98431e-18
3882.98032 1.63960e-18
3883.97845 1.52269e-18
3884.97658 1.61347e-18
3885.97471 1.87586e-18
3886.97284 2.24489e-18
3887.97097 2.60092e-18
3888.97929 2.83730e-18
3889.97742 2.86036e-18
3890.97555 2.59080e-18
3891.97368 1.96759e-18
3892.97181 1.37533e-18
3893.98013 1.24824e-18
3894.97825 1.67686e-18
3895.97638 2.14878e-18
3896.97451 2.15833e-18
3897.97264 1.87280e-18
3898.97077 1.65643e-18
3899.97909 1.79345e-18
3900.97722 2.10779e-18
3901.97535 2.46211e-18
3902.97348 2.71021e-18
3903.97161 2.70465e-18
3904.97993 2.24678e-18
3905.97806 1.64904e-18
3906.97618 1.34447e-18
3907.97431 1.64477e-18
3908.97244 2.12090e-18
3909.98076 2.34086e-18
3910.97889 2.22263e-18
3911.97702 2.04692e-18
3912.97515 2.04529e-18
3913.97328 2.19217e-18
3914.97141 2.42929e-18
3915.97972 2.69587e-18
3916.97785 2.87754e-18
3917.97598 2.84112e-18
3918.97411 2.60355e-18
3919.97224 2.30793e-18
3920.98056 2.09588e-18
3921.97869 1.94857e-18
3922.97682 1.82201e-18
3923.97495 1.69721e-18
3924.97308 1.67739e-18
3925.97121 1.87804e-18
3926.97952 2.20476e-18
3927.97766 2.41905e-18
3928.97579 2.28687e-18
3929.97392 1.99909e-18
3930.97204 1.80086e-18
3931.98036 1.84199e-18
3932.97849 1.91912e-18
3933.97662 1.84623e-18
3934.97475 1.63559e-18
3935.97288 1.42950e-18
3936.98119 1.34154e-18
3937.97932 1.40171e-18
3938.97745 1.63897e-18
3939.97558 2.03209e-18
3940.97371 2.38899e-18
3941.97184 2.50062e-18
3942.98016 2.39485e-18
3943.97829 2.25385e-18
3944.97642 2.24925e-18
3945.97455 2.32379e-18
3946.97268 2.40489e-18
3947.98099 2.44343e-18
3948.97912 2.46427e-18
3949.97725 2.46901e-18
3950.97538 2.49634e-18
3951.97351 2.60484e-18
3952.97165 2.85223e-18
3953.97996 3.13577e-18
3954.97809 3.34349e-18
3955.97622 3.38841e-18
3956.97435 3.24478e-18
3957.97248 2.84923e-18
3958.98079 2.36125e-18
3959.97892 2.08663e-18
3960.97705 2.33380e-18
3961.97519 2.85435e-18
3962.97331 3.32100e-18
3963.97144 3.50121e-18
3964.97976 3.59815e-18
3965.97789 3.81229e-18
3966.97602 4.10011e-18
3967.97415 4.22474e-18
3968.97228 3.96173e-18
3969.98059 3.55713e-18
3970.97872 3.31997e-18
3971.97685 3.47308e-18
3972.97498 3.85058e-18
3973.97311 4.32067e-18
3974.98143 4.74710e-18
3975.97956 5.00495e-18
3976.97769 4.93996e-18
3977.97582 4.70988e-18
3978.97395 4.53956e-18
3979.97208 4.61290e-18
3980.98040 4.80621e-18
3981.97852 4.99308e-18
3982.97665 5.14310e-18
3983.97478 5.35560e-18
3984.97291 5.75195e-18
3985.98123 6.12286e-18
3986.97936 6.18025e-18
3987.97749 5.70062e-18
3988.97562 5.19464e-18
3989.97375 5.19634e-18
3990.97188 5.84608e-18
3991.98019 6.60405e-18
3992.97832 6.96059e-18
3993.97645 6.96028e-18
3994.97458 6.84669e-18
3995.97271 6.83554e-18
3996.98103 6.81227e-18
3997.97916 6.65768e-18
3998.97729 6.36314e-18
3999.97542 6.18834e-18
4000.97355 6.41158e-18
4001.97168 6.87693e-18
4002.97999 7.21191e-18
4003.97812 7.05530e-18
4004.97626 6.68200e-18
4005.97438 6.42188e-18
4006.97251 6.47880e-18
4007.98083 6.56329e-18
4008.97896 6.39547e-18
4009.97709 6.01949e-18
4010.97522 5.72842e-18
4011.97335 5.80995e-18
4012.98166 6.05076e-18
4013.97980 6.16391e-18
4014.97793 5.93950e-18
4015.97606 5.64379e-18
4016.97419 5.52134e-18
4017.97231 5.64629e-18
4018.98063 5.86760e-18
4019.97876 6.07714e-18
4020.97689 6.17824e-18
4021.97502 6.07877e-18
4022.97315 5.69923e-18
4023.98146 5.23397e-18
4024.97959 4.89564e-18
4025.97772 4.78191e-18
4026.97585 4.73018e-18
4027.97398 4.58337e-18
4028.97212 4.37546e-18
4029.98043 4.22862e-18
4030.97856 4.25537e-18
4031.97669 4.34595e-18
4032.97482 4.37688e-18
4033.97295 4.27435e-18
4034.98126 4.15504e-18
4035.97939 4.11330e-18
4036.97752 4.19076e-18
4037.97565 4.37731e-18
4038.97379 4.70141e-18
4039.97192 4.98090e-18
4040.98023 4.99221e-18
4041.97836 4.56611e-18
4042.97649 4.10775e-18
4043.97462 4.03602e-18
4044.97275 4.45308e-18
4045.98106 4.91533e-18
4046.97919 5.02250e-18
4047.97732 4.77731e-18
4048.97545 4.34403e-18
4049.97358 3.85282e-18
4050.98190 3.52575e-18
4051.98003 3.60662e-18
4052.97816 4.19787e-18
4053.97629 4.92095e-18
4054.97442 5.40775e-18
4055.97255 5.55708e-18
4056.98086 5.49620e-18
4057.97899 5.30679e-18
4058.97712 5.14076e-18
4059.97525 5.17078e-18
4060.97338 5.53336e-18
4061.98170 5.93992e-18
4062.97983 6.10312e-18
4063.97796 5.90978e-18
4064.97609 5.56521e-18
4065.97422 5.21788e-18
4066.97235 5.01443e-18
4067.98067 5.09002e-18
4068.97879 5.59540e-18
4069.97692 6.22925e-18
4070.97505 6.64696e-18
4071.97319 6.62213e-18
4072.98150 6.45058e-18
4073.97963 6.41447e-18
4074.97776 6.56574e-18
4075.97589 6.72054e-18
4076.97402 6.70508e-18
4077.98233 6.63238e-18
4078.98046 6.67394e-18
4079.97859 6.97404e-18
4080.97672 7.34521e-18
4081.97485 7.59749e-18
4082.97298 7.63774e-18
4083.98130 7.61854e-18
4084.97943 7.66736e-18
4085.97756 7.79820e-18
4086.97569 7.95540e-18
4087.97382 8.12272e-18
4088.98213 8.15299e-18
4089.98026 7.87849e-18
4090.97840 7.19716e-18
4091.97653 6.56020e-18
4092.97465 6.43501e-18
4093.97278 6.92134e-18
4094.98110 7.51787e-18
4095.97923 7.71508e-18
4096.97736 7.62572e-18
4097.97549 7.60875e-18
4098.97362 8.02100e-18
4099.98193 8.47730e-18
4100.98006 8.54918e-18
4101.97819 7.98306e-18
4102.97632 7.36850e-18
4103.97445 7.28294e-18
4104.98277 7.78574e-18
4105.98090 8.32652e-18
4106.97903 8.37951e-18
4107.97716 8.07320e-18
4108.97529 7.72287e-18
4109.97342 7.61283e-18
4110.98173 7.65521e-18
4111.97987 7.76383e-18
4112.97800 7.87723e-18
4113.97613 8.04025e-18
4114.97426 8.28882e-18
4115.98257 8.56644e-18
4116.98070 8.74041e-18
4117.97883 8.68694e-18
4118.97696 8.45136e-18
4119.97509 8.12026e-18
4120.97322 7.77206e-18
4121.98153 7.56979e-18
4122.97966 7.68945e-18
4123.97779 8.17751e-18
4124.97592 8.71214e-18
4125.97405 8.96504e-18
4126.98237 8.90506e-18
4127.98050 8.73793e-18
4128.97863 8.67249e-18
4129.97676 8.63888e-18
4130.97489 8.52016e-18
4131.98320 8.21735e-18
4132.98133 7.98572e-18
4133.97946 8.08192e-18
4134.97759 8.59310e-18
4135.97572 9.15158e-18
4136.97386 9.39147e-18
4137.98217 9.29730e-18
4138.98030 9.11286e-18
4139.97843 9.09594e-18
4140.97656 9.09420e-18
4141.97469 8.89057e-18
4142.98301 8.30136e-18
4143.98113 7.72025e-18
4144.97926 7.54256e-18
4145.97739 7.93765e-18
4146.97552 8.45114e-18
4147.97365 8.64847e-18
4148.98197 8.49669e-18
4149.98010 8.27014e-18
4150.97823 8.22606e-18
4151.97636 8.29798e-18
4152.97449 8.36329e-18
4153.98280 8.31443e-18
4154.98094 8.25841e-18
4155.97906 8.31036e-18
4156.97719 8.50443e-18
4157.97532 8.60912e-18
4158.98364 8.35095e-18
4159.98177 7.88025e-18
4160.97990 7.68410e-18
4161.97803 8.29407e-18
4162.97616 9.31605e-18
4163.97429 1.01509e-17
4164.98261 1.02387e-17
4165.98074 9.91381e-18
4166.97887 9.51543e-18
4167.97699 9.29619e-18
4168.97512 9.12479e-18
4169.98344 8.91932e-18
4170.98157 8.68254e-18
4171.97970 8.50783e-18
4172.97783 8.48407e-18
4173.97596 8.53927e-18
4174.97409 8.55478e-18
4175.98240 8.40449e-18
4176.98053 8.23330e-18
4177.97866 8.20165e-18
4178.97679 8.40451e-18
4179.97493 8.56724e-18
4180.98324 8.42562e-18
4181.98137 7.94831e-18
4182.97950 7.43450e-18
4183.97763 7.16073e-18
4184.97576 7.14425e-18
4185.97389 7.29071e-18
4186.98221 7.52629e-18
4187.98033 7.75567e-18
4188.97847 7.87213e-18
4189.97660 7.79221e-18
4190.97473 7.67642e-18
4191.98304 7.68170e-18
4192.98117 7.87405e-18
4193.97930 8.12243e-18
4194.97743 8.32247e-18
4195.97556 8.41428e-18
4196.98387 8.37359e-18
4197.98200 8.17295e-18
4198.98013 7.85253e-18
4199.97826 7.46809e-18
4200.97639 7.07310e-18
4201.97452 6.81835e-18
4202.98284 6.86056e-18
4203.98097 7.25178e-18
4204.97910 7.70708e-18
4205.97723 7.94671e-18
4206.97536 7.91128e-18
4207.98368 7.77364e-18
4208.98180 7.67513e-18
4209.97994 7.67133e-18
4210.97806 7.79036e-18
4211.97620 8.08213e-18
4212.97432 8.37933e-18
4213.98264 8.49618e-18
4214.98077 8.30004e-18
4215.97890 8.04318e-18
4216.97703 7.96774e-18
4217.97516 8.16192e-18
4218.98347 8.41962e-18
4219.98160 8.55064e-18
4220.97973 8.56295e-18
4221.97786 8.57511e-18
4222.97600 8.69443e-18
4223.97412 8.87729e-18
4224.98244 9.06256e-18
4225.98057 9.20166e-18
4226.97870 9.23328e-18
4227.97683 9.08110e-18
4228.97496 8.73847e-18
4229.98327 8.46322e-18
4230.98140 8.53509e-18
4231.97953 8.92082e-18
4232.97767 9.23596e-18
4233.97579 9.08461e-18
4234.98411 8.59028e-18
4235.98224 8.06219e-18
4236.98037 7.80069e-18
4237.97850 7.75129e-18
4238.97663 7.83193e-18
4239.97476 7.96071e-18
4240.98308 8.15183e-18
4241.98121 8.42081e-18
4242.97933 8.70719e-18
4243.97746 8.75902e-18
4244.97559 8.29322e-18
4245.98391 7.44343e-18
4246.98204 6.66612e-18
4247.98017 6.44225e-18
4248.97830 6.64320e-18
4249.97643 6.98042e-18
4250.97456 7.16760e-18
4251.98287 7.28438e-18
4252.98100 7.40570e-18
4253.97913 7.58557e-18
4254.97726 7.75892e-18
4255.97539 7.89347e-18
4256.98371 7.94440e-18
4257.98184 7.83927e-18
4258.97997 7.46522e-18
4259.97810 6.95437e-18
4260.97623 6.58415e-18
4261.97436 6.67476e-18
4262.98268 6.99430e-18
4263.98080 7.20254e-18
4264.97894 6.96949e-18
4265.97707 6.51020e-18
4266.97519 6.03955e-18
4267.98351 5.74511e-18
4268.98164 5.64216e-18
4269.97977 5.77287e-18
4270.97790 6.10940e-18
4271.97603 6.51664e-18
4272.98434 6.88060e-18
4273.98247 7.07300e-18
4274.98060 6.97720e-18
4275.97874 6.43429e-18
4276.97686 5.70739e-18
4277.97500 5.13849e-18
4278.98331 5.05917e-18
4279.98144 5.29724e-18
4280.97957 5.67910e-18
4281.97770 6.03149e-18
4282.97583 6.20307e-18
4283.98415 6.00034e-18
4284.98227 5.43177e-18
4285.98041 4.86651e-18
4286.97853 4.68251e-18
4287.97667 4.88516e-18
4288.97479 5.23137e-18
4289.98311 5.49335e-18
4290.98124 5.63827e-18
4291.97937 5.67409e-18
4292.97750 5.60357e-18
4293.97563 5.45267e-18
4294.98394 5.25421e-18
4295.98207 5.04794e-18
4296.98020 4.92365e-18
4297.97833 4.99082e-18
4298.97646 5.24874e-18
4299.98478 5.45510e-18
4300.98291 5.31726e-18
4301.98104 4.95923e-18
4302.97917 4.81249e-18
4303.97730 5.38020e-18
4304.97543 6.29716e-18
4305.98375 6.97475e-18
4306.98187 6.79390e-18
4307.98000 6.23146e-18
4308.97814 5.82084e-18
4309.97626 6.02666e-18
4310.98458 6.41710e-18
4311.98271 6.61975e-18
4312.98084 6.41517e-18
4313.97897 6.08693e-18
4314.97710 5.85346e-18
4315.97523 5.80032e-18
4316.98354 5.85200e-18
4317.98167 5.95938e-18
4318.97980 6.10459e-18
4319.97793 6.27902e-18
4320.97606 6.47452e-18
4321.98438 6.63518e-18
4322.98251 6.70476e-18
4323.98064 6.63429e-18
4324.97877 6.52496e-18
4325.97690 6.47027e-18
4326.98522 6.54485e-18
4327.98334 6.75373e-18
4328.98148 7.13600e-18
4329.97960 7.61039e-18
4330.97774 7.90438e-18
4331.97586 7.69629e-18
4332.98418 7.12183e-18
4333.98231 6.59959e-18
4334.98044 6.59014e-18
4335.97857 6.90307e-18
4336.97670 7.20244e-18
4337.98501 7.14750e-18
4338.98315 6.92158e-18
4339.98127 6.71746e-18
4340.97941 6.70338e-18
4341.97753 6.79900e-18
4342.97566 6.94851e-18
4343.98398 7.09908e-18
4344.98211 7.22820e-18
4345.98024 7.31538e-18
4346.97837 7.32196e-18
4347.97650 7.19307e-18
4348.98481 6.83714e-18
4349.98294 6.40653e-18
4350.98107 6.15208e-18
4351.97921 6.36214e-18
4352.97733 6.82686e-18
4353.98565 7.25883e-18
4354.98378 7.36819e-18
4355.98191 7.31991e-18
4356.98004 7.27319e-18
4357.97817 7.36329e-18
4358.97630 7.52380e-18
4359.98461 7.72263e-18
4360.98275 7.91232e-18
4361.98088 8.01618e-18
4362.97900 7.94285e-18
4363.97714 7.71460e-18
4364.98545 7.46454e-18
4365.98358 7.31307e-18
4366.98171 7.30744e-18
4367.97984 7.45620e-18
4368.97797 7.78911e-18
4369.97610 8.16549e-18
4370.98441 8.42363e-18
4371.98254 8.40592e-18
4372.98067 8.21239e-18
4373.97880 7.94230e-18
4374.97693 7.69427e-18
4375.98525 7.53477e-18
4376.98338 7.54907e-18
4377.98151 7.74870e-18
4378.97964 7.97484e-18
4379.97777 8.07026e-18
4380.97590 8.00505e-18
4381.98422 7.88185e-18
4382.98234 7.78082e-18
4383.98048 7.75484e-18
4384.97860 7.83880e-18
4385.97674 8.08036e-18
4386.98505 8.40167e-18
4387.98318 8.70434e-18
4388.98131 8.89477e-18
4389.97944 8.93030e-18
4390.97757 8.77080e-18
4391.98589 8.40049e-18
4392.98401 7.96516e-18
4393.98214 7.61219e-18
4394.98027 7.43251e-18
4395.97840 7.34009e-18
4396.97653 7.25272e-18
4397.98485 7.16676e-18
4398.98298 7.17609e-18
4399.98111 7.38228e-18
4400.97924 7.69694e-18
4401.97737 7.94461e-18
4402.98568 7.94217e-18
4403.98381 7.75325e-18
4404.98195 7.49230e-18
4405.98007 7.26612e-18
4406.97821 7.13654e-18
4407.97633 7.16658e-18
4408.98465 7.40642e-18
4409.98278 7.68888e-18
4410.98091 7.84959e-18
4411.97904 7.77942e-18
4412.97717 7.61205e-18
4413.98549 7.45883e-18
4414.98362 7.38623e-18
4415.98175 7.36679e-18
4416.97987 7.38171e-18
4417.97800 7.44343e-18
4418.97613 7.58307e-18
4419.98445 7.84828e-18
4420.98258 8.13919e-18
4421.98071 8.31751e-18
4422.97884 8.22898e-18
4423.97697 7.99072e-18
4424.98528 7.74938e-18
4425.98341 7.65078e-18
4426.98154 7.65458e-18
4427.97967 7.72621e-18
4428.97780 7.82794e-18
4429.98612 7.92347e-18
4430.98425 7.96570e-18
4431.98238 7.93166e-18
4432.98051 7.87295e-18
4433.97864 7.84159e-18
4434.97677 7.84561e-18
4435.98508 7.83255e-18
4436.98322 7.74806e-18
4437.98135 7.61437e-18
4438.97948 7.49586e-18
4439.97761 7.46054e-18
4440.98592 7.47882e-18
4441.98405 7.49779e-18
4442.98218 7.47261e-18
4443.98031 7.38325e-18
4444.97844 7.21111e-18
4445.97657 6.93147e-18
4446.98488 6.69803e-18
4447.98301 6.66225e-18
4448.98114 6.92697e-18
4449.97927 7.24371e-18
4450.97740 7.39506e-18
4451.98572 7.24567e-18
4452.98385 6.90300e-18
4453.98198 6.42037e-18
4454.98011 5.91717e-18
4455.97824 5.57283e-18
4456.97637 5.63020e-18
4457.98469 5.97195e-18
4458.98281 6.28134e-18
4459.98095 6.16797e-18
4460.97907 5.85536e-18
4461.97721 5.71132e-18
4462.98552 6.16296e-18
4463.98365 6.80407e-18
4464.98178 7.17244e-18
4465.97991 6.80591e-18
4466.97804 6.14237e-18
4467.98636 5.60030e-18
4468.98448 5.54072e-18
4469.98261 5.67482e-18
4470.98074 5.77453e-18
4471.97887 5.68890e-18
4472.97700 5.58908e-18
4473.98532 5.59975e-18
4474.98345 5.75477e-18
4475.98158 5.93393e-18
4476.97971 6.02874e-18
4477.97784 6.03940e-18
4478.98615 6.04693e-18
4479.98428 6.13702e-18
4480.98242 6.26871e-18
4481.98054 6.36032e-18
4482.97868 6.33202e-18
4483.97680 6.21071e-18
4484.98512 6.03953e-18
4485.98325 5.85146e-18
4486.98138 5.72394e-18
4487.97951 5.73668e-18
4488.97764 5.96188e-18
4489.98596 6.21821e-18
4490.98409 6.32876e-18
4491.98221 6.17152e-18
4492.98034 5.96969e-18
4493.97847 5.92243e-18
4494.97660 6.11834e-18
4495.98492 6.34903e-18
4496.98305 6.43435e-18
4497.98118 6.33544e-18
4498.97931 6.19487e-18
4499.97744 6.13846e-18
4500.98575 6.18093e-18
4501.98388 6.26869e-18
4502.98201 6.34875e-18
4503.98014 6.43719e-18
4504.97827 6.56456e-18
4505.98659 6.76810e-18
4506.98472 6.97525e-18
4507.98285 7.10601e-18
4508.98098 7.08210e-18
4509.97911 6.95401e-18
4510.97724 6.77609e-18
4511.98555 6.60537e-18
4512.98369 6.48221e-18
4513.98181 6.44454e-18
4514.97995 6.51980e-18
4515.97807 6.72211e-18
4516.98639 7.07352e-18
4517.98452 7.52803e-18
4518.98265 7.88354e-18
4519.98078 7.94230e-18
4520.97891 7.67164e-18
4521.97704 7.25252e-18
4522.98535 6.83347e-18
4523.98349 6.52834e-18
4524.98161 6.41172e-18
4525.97975 6.60489e-18
4526.97787 6.97969e-18
4527.98619 7.32945e-18
4528.98432 7.41741e-18
4529.98245 7.32825e-18
4530.98058 7.19307e-18
4531.97871 7.14566e-18
4532.98702 7.17720e-18
4533.98516 7.28045e-18
4534.98328 7.44997e-18
4535.98142 7.63133e-18
4536.97954 7.76257e-18
4537.97768 7.79352e-18
4538.98599 7.81811e-18
4539.98412 7.92931e-18
4540.98225 8.16149e-18
4541.98038 8.32423e-18
4542.97851 8.23742e-18
4543.98682 7.87914e-18
4544.98495 7.51258e-18
4545.98308 7.38336e-18
4546.98121 7.53509e-18
4547.97934 7.81195e-18
4548.97748 8.07825e-18
4549.98579 8.28746e-18
4550.98392 8.44114e-18
4551.98205 8.52167e-18
4552.98018 8.54577e-18
4553.97831 8.54199e-18
4554.98662 8.55518e-18
4555.98475 8.54889e-18
4556.98288 8.48284e-18
4557.98101 8.31334e-18
4558.97915 8.12245e-18
4559.98746 7.98886e-18
4560.98559 7.98225e-18
4561.98372 8.10737e-18
4562.98185 8.37459e-18
4563.97998 8.77201e-18
4564.97811 9.12897e-18
4565.98643 9.27481e-18
4566.98456 9.12424e-18
4567.98268 8.89627e-18
4568.98081 8.79849e-18
4569.97894 8.89821e-18
4570.98726 8.98166e-18
4571.98539 8.84522e-18
4572.98352 8.51216e-18
4573.98165 8.23747e-18
4574.97978 8.27131e-18
4575.97791 8.58657e-18
4576.98623 8.99662e-18
4577.98435 9.33110e-18
4578.98249 9.53338e-18
4579.98061 9.58914e-18
4580.97875 9.45248e-18
4581.98706 9.24225e-18
4582.98519 9.10231e-18
4583.98332 9.20507e-18
4584.98145 9.41297e-18
4585.97958 9.57531e-18
4586.98790 9.52989e-18
4587.98602 9.44311e-18
4588.98416 9.46919e-18
4589.98228 9.74573e-18
4590.98041 1.00553e-17
4591.97854 1.02046e-17
4592.98686 1.00642e-17
4593.98499 9.89926e-18
4594.98312 9.93954e-18
4595.98125 1.02941e-17
4596.97938 1.07033e-17
4597.98769 1.09506e-17
4598.98582 1.09497e-17
4599.98395 1.08452e-17
4600.98208 1.07458e-17
4601.98022 1.07081e-17
4602.97834 1.07299e-17
4603.98666 1.08250e-17
4604.98479 1.09883e-17
4605.98292 1.12013e-17
4606.98105 1.14490e-17
4607.97918 1.16859e-17
4608.98750 1.18616e-17
4609.98563 1.19162e-17
4610.98375 1.18897e-17
4611.98189 1.18400e-17
4612.98001 1.18329e-17
4613.97815 1.18593e-17
4614.98646 1.19072e-17
4615.98459 1.19596e-17
4616.98272 1.20565e-17
4617.98085 1.22306e-17
4618.97898 1.25055e-17
4619.98729 1.28237e-17
4620.98542 1.31402e-17
4621.98355 1.34104e-17
4622.98168 1.35431e-17
4623.97981 1.34363e-17
4624.98813 1.30779e-17
4625.98626 1.27949e-17
4626.98439 1.28957e-17
4627.98252 1.34827e-17
4628.98065 1.41959e-17
4629.97878 1.47345e-17
4630.98709 1.49465e-17
4631.98523 1.49083e-17
4632.98335 1.46186e-17
4633.98149 1.42172e-17
4634.97962 1.39328e-17
4635.98793 1.40687e-17
4636.98606 1.44975e-17
4637.98419 1.48965e-17
4638.98232 1.48819e-17
4639.98045 1.46120e-17
4640.97858 1.43863e-17
4641.98690 1.45502e-17
4642.98502 1.49091e-17
4643.98315 1.52012e-17
4644.98128 1.51400e-17
4645.97941 1.48968e-17
4646.98773 1.46621e-17
4647.98586 1.46301e-17
4648.98399 1.47467e-17
4649.98212 1.49630e-17
4650.98025 1.52251e-17
4651.97838 1.55071e-17
4652.98670 1.57745e-17
4653.98482 1.59923e-17
4654.98296 1.61135e-17
4655.98108 1.60972e-17
4656.97922 1.59262e-17
4657.98753 1.56712e-17
4658.98566 1.53951e-17
4659.98379 1.51592e-17
4660.98192 1.50066e-17
4661.98005 1.49861e-17
4662.98837 1.51059e-17
4663.98650 1.53070e-17
4664.98463 1.55397e-17
4665.98275 1.57551e-17
4666.98088 1.59134e-17
4667.97901 1.59446e-17
4668.98733 1.59015e-17
4669.98546 1.59177e-17
4670.98359 1.61584e-17
4671.98172 1.65414e-17
4672.97985 1.68759e-17
4673.98816 1.69615e-17
4674.98629 1.68262e-17
4675.98442 1.65696e-17
4676.98255 1.62719e-17
4677.98069 1.60294e-17
4678.97881 1.59347e-17
4679.98713 1.61117e-17
4680.98526 1.64098e-17
4681.98339 1.66573e-17
4682.98152 1.66672e-17
4683.97965 1.65352e-17
4684.98797 1.63566e-17
4685.98609 1.62190e-17
4686.98423 1.61992e-17
4687.98236 1.63788e-17
4688.98049 1.68276e-17
4689.97861 1.72558e-17
4690.98693 1.73950e-17
4691.98506 1.70317e-17
4692.98319 1.64550e-17
4693.98132 1.59062e-17
4694.97945 1.55785e-17
4695.98776 1.53635e-17
4696.98589 1.52006e-17
4697.98402 1.50383e-17
4698.98215 1.48881e-17
4699.98028 1.47430e-17
4700.98860 1.45948e-17
4701.98673 1.44306e-17
4702.98486 1.42342e-17
4703.98299 1.40264e-17
4704.98112 1.38727e-17
4705.97925 1.38305e-17
4706.98756 1.39136e-17
4707.98570 1.40921e-17
4708.98382 1.43704e-17
4709.98196 1.46438e-17
4710.98008 1.47614e-17
4711.98840 1.45195e-17
4712.98653 1.40583e-17
4713.98466 1.36412e-17
4714.98279 1.35834e-17
4715.98092 1.37630e-17
4716.97905 1.39559e-17
4717.98736 1.39048e-17
4718.98549 1.37243e-17
4719.98362 1.35743e-17
4720.98175 1.36114e-17
4721.97988 1.37997e-17
4722.98820 1.40890e-17
4723.98633 1.44628e-17
4724.98446 1.46990e-17
4725.98259 1.45802e-17
4726.98072 1.38617e-17
4727.97885 1.29770e-17
4728.98716 1.23449e-17
4729.98529 1.23890e-17
4730.98343 1.26768e-17
4731.98155 1.28310e-17
4732.97969 1.25059e-17
4733.98800 1.21354e-17
4734.98613 1.20628e-17
4735.98426 1.25554e-17
4736.98239 1.32847e-17
4737.98052 1.40062e-17
4738.98884 1.45040e-17
4739.98697 1.47521e-17
4740.98510 1.46813e-17
4741.98322 1.43034e-17
4742.98135 1.38211e-17
4743.97948 1.34271e-17
4744.98780 1.32461e-17
4745.98593 1.32454e-17
4746.98406 1.34382e-17
4747.98219 1.37547e-17
4748.98032 1.40261e-17
4749.98863 1.40384e-17
4750.98676 1.38256e-17
4751.98489 1.36699e-17
4752.98302 1.38786e-17
4753.98115 1.43930e-17
4754.98947 1.48907e-17
4755.98760 1.50516e-17
4756.98573 1.48742e-17
4757.98386 1.45331e-17
4758.98199 1.41676e-17
4759.98012 1.38808e-17
4760.98844 1.37499e-17
4761.98656 1.39120e-17
4762.98470 1.42172e-17
4763.98283 1.44469e-17
4764.98095 1.43264e-17
4765.98927 1.40025e-17
4766.98740 1.36900e-17
4767.98553 1.36352e-17
4768.98366 1.37282e-17
4769.98179 1.38273e-17
4770.97992 1.37863e-17
4771.98823 1.36292e-17
4772.98636 1.33865e-17
4773.98450 1.30787e-17
4774.98262 1.27883e-17
4775.98075 1.25985e-17
4776.98907 1.26022e-17
4777.98720 1.26800e-17
4778.98533 1.27172e-17
4779.98346 1.25942e-17
4780.98159 1.23936e-17
4781.97972 1.21838e-17
4782.98803 1.20328e-17
4783.98617 1.18831e-17
4784.98429 1.16936e-17
4785.98243 1.14291e-17
4786.98055 1.11250e-17
4787.98887 1.08087e-17
4788.98700 1.05068e-17
4789.98513 1.02230e-17
4790.98326 9.96354e-18
4791.98139 9.73626e-18
4792.98970 9.56744e-18
4793.98783 9.47881e-18
4794.98596 9.47382e-18
4795.98409 9.50434e-18
4796.98222 9.53135e-18
4797.98035 9.51931e-18
4798.98867 9.44499e-18
4799.98680 9.27195e-18
4800.98493 9.01434e-18
4801.98306 8.77369e-18
4802.98119 8.66387e-18
4803.98950 8.68648e-18
4804.98763 8.68399e-18
4805.98576 8.49193e-18
4806.98390 8.12519e-18
4807.98202 7.79274e-18
4808.98016 7.70738e-18
4809.98847 7.86058e-18
4810.98660 8.06030e-18
4811.98473 8.11314e-18
4812.98286 8.02220e-18
4813.98099 7.91730e-18
4814.98930 7.93593e-18
4815.98744 8.05847e-18
4816.98556 8.19328e-18
4817.98369 8.21336e-18
4818.98182 8.22707e-18
4819.99014 8.41514e-18
4820.98827 9.01441e-18
4821.98640 9.83124e-18
4822.98453 1.05580e-17
4823.98266 1.08386e-17
4824.98079 1.07903e-17
4825.98910 1.06362e-17
4826.98724 1.06200e-17
4827.98536 1.07248e-17
4828.98350 1.08943e-17
4829.98162 1.10668e-17
4830.98994 1.12636e-17
4831.98807 1.15046e-17
4832.98620 1.18254e-17
4833.98433 1.21094e-17
4834.98246 1.22391e-17
4835.98059 1.20723e-17
4836.98891 1.17659e-17
4837.98703 1.14856e-17
4838.98517 1.14222e-17
4839.98329 1.14678e-17
4840.98142 1.15169e-17
4841.98974 1.14464e-17
4842.98787 1.13653e-17
4843.98600 1.13682e-17
4844.98413 1.15571e-17
4845.98226 1.17986e-17
4846.98039 1.19739e-17
4847.98870 1.19601e-17
4848.98683 1.18879e-17
4849.98497 1.18731e-17
4850.98309 1.20340e-17
4851.98123 1.22058e-17
4852.98954 1.22461e-17
4853.98767 1.20270e-17
4854.98580 1.18499e-17
4855.98393 1.19713e-17
4856.98206 1.25933e-17
4857.99037 1.33165e-17
4858.98850 1.38123e-17
4859.98664 1.38105e-17
4860.98476 1.35282e-17
4861.98290 1.31120e-17
4862.98102 1.27116e-17
4863.98934 1.23999e-17
4864.98747 1.22880e-17
4865.98560 1.24227e-17
4866.98373 1.25886e-17
4867.98186 1.25845e-17
4868.99017 1.23052e-17
4869.98830 1.20142e-17
4870.98643 1.19193e-17
4871.98456 1.21402e-17
4872.98269 1.25215e-17
4873.98082 1.29688e-17
4874.98914 1.33692e-17
4875.98727 1.35956e-17
4876.98540 1.34895e-17
4877.98353 1.30471e-17
4878.98166 1.25608e-17
4879.98998 1.23154e-17
4880.98810 1.24037e-17
4881.98624 1.25755e-17
4882.98436 1.26053e-17
4883.98250 1.24429e-17
4884.98063 1.23078e-17
4885.98894 1.24104e-17
4886.98707 1.27303e-17
4887.98520 1.29642e-17
4888.98333 1.28034e-17
4889.98146 1.22688e-17
4890.98977 1.17238e-17
4891.98790 1.15353e-17
4892.98603 1.17179e-17
4893.98416 1.19688e-17
4894.98229 1.19823e-17
4895.99061 1.17704e-17
4896.98874 1.15854e-17
4897.98687 1.16883e-17
4898.98500 1.20230e-17
4899.98313 1.23305e-17
4900.98126 1.23466e-17
4901.98957 1.20923e-17
4902.98771 1.17554e-17
4903.98583 1.15137e-17
4904.98397 1.14066e-17
4905.98209 1.13990e-17
4906.99041 1.14684e-17
4907.98854 1.15974e-17
4908.98667 1.17665e-17
4909.98480 1.19626e-17
4910.98293 1.21262e-17
4911.98106 1.21889e-17
4912.98938 1.20575e-17
4913.98750 1.18056e-17
4914.98564 1.15589e-17
4915.98376 1.14616e-17
4916.98189 1.14911e-17
4917.99021 1.15745e-17
4918.98834 1.16458e-17
4919.98647 1.16701e-17
4920.98460 1.16240e-17
4921.98273 1.14571e-17
4922.98086 1.12436e-17
4923.98917 1.10808e-17
4924.98730 1.10982e-17
4925.98543 1.12150e-17
4926.98356 1.13154e-17
4927.98170 1.12574e-17
4928.99001 1.11090e-17
4929.98814 1.09685e-17
4930.98627 1.09509e-17
4931.98440 1.10086e-17
4932.98253 1.10750e-17
4933.99084 1.10749e-17
4934.98898 1.10367e-17
4935.98711 1.09988e-17
4936.98524 1.10003e-17
4937.98337 1.10371e-17
4938.98149 1.11009e-17
4939.98981 1.11880e-17
4940.98794 1.12754e-17
4941.98607 1.13400e-17
4942.98420 1.13586e-17
4943.98233 1.13413e-17
4944.99064 1.13034e-17
4945.98877 1.12461e-17
4946.98690 1.12453e-17
4947.98503 1.13721e-17
4948.98316 1.17162e-17
4949.98129 1.21534e-17
4950.98961 1.25537e-17
4951.98774 1.27814e-17
4952.98587 1.28367e-17
4953.98400 1.27305e-17
4954.98213 1.24566e-17
4955.99045 1.21717e-17
4956.98857 1.20310e-17
4957.98671 1.22175e-17
4958.98483 1.25685e-17
4959.98297 1.29190e-17
4960.99128 1.30898e-17
4961.98941 1.31097e-17
4962.98754 1.30071e-17
4963.98567 1.28024e-17
4964.98380 1.26047e-17
4965.98193 1.25219e-17
4966.99024 1.26784e-17
4967.98837 1.29511e-17
4968.98650 1.32193e-17
4969.98463 1.33486e-17
4970.98276 1.33687e-17
4971.99108 1.33043e-17
4972.98921 1.31873e-17
4973.98734 1.30064e-17
4974.98547 1.27591e-17
4975.98360 1.24418e-17
4976.98173 1.21089e-17
4977.99004 1.18119e-17
4978.98818 1.16103e-17
4979.98630 1.14455e-17
4980.98444 1.12634e-17
4981.98256 1.09939e-17
4982.99088 1.07544e-17
4983.98901 1.06475e-17
4984.98714 1.07898e-17
4985.98527 1.09976e-17
4986.98340 1.11087e-17
4987.99172 1.09497e-17
4988.98985 1.06748e-17
4989.98798 1.04147e-17
4990.98610 1.03038e-17
4991.98423 1.03316e-17
4992.98236 1.04970e-17
4993.99068 1.08002e-17
4994.98881 1.10960e-17
4995.98694 1.12483e-17
4996.98507 1.11195e-17
4997.98320 1.08086e-17
4998.99151 1.04038e-17
4999.98964 9.99881e-18
5000.98777 9.66650e-18
5001.98590 9.48451e-18
5002.98403 9.53497e-18
5003.98217 9.68586e-18
5004.99048 9.81285e-18
5005.98861 9.77383e-18
5006.98674 9.73404e-18
5007.98487 9.83076e-18
5008.98300 1.02132e-17
5009.99131 1.06566e-17
5010.98945 1.09714e-17
5011.98757 1.09619e-17
5012.98571 1.07834e-17
5013.98383 1.05638e-17
5014.99215 1.04382e-17
5015.99028 1.03955e-17
5016.98841 1.04406e-17
5017.98654 1.05777e-17
5018.98467 1.07332e-17
5019.98280 1.08333e-17
5020.99111 1.07956e-17
5021.98925 1.07166e-17
5022.98737 1.06791e-17
5023.98550 1.07758e-17
5024.98363 1.08906e-17
5025.99195 1.09297e-17
5026.99008 1.07982e-17
5027.98821 1.05860e-17
5028.98634 1.03648e-17
5029.98447 1.01991e-17
5030.98260 1.01750e-17
5031.99092 1.03745e-17
5032.98904 1.08904e-17
5033.98718 1.14360e-17
5034.98530 1.17554e-17
5035.98344 1.15811e-17
5036.99175 1.11701e-17
5037.98988 1.07445e-17
5038.98801 1.05361e-17
5039.98614 1.05687e-17
5040.98427 1.08765e-17
5041.98240 1.14886e-17
5042.99071 1.22239e-17
5043.98884 1.29087e-17
5044.98697 1.33709e-17
5045.98510 1.35721e-17
5046.98324 1.34764e-17
5047.99155 1.30338e-17
5048.98968 1.25798e-17
5049.98781 1.24262e-17
5050.98594 1.29194e-17
5051.98407 1.37088e-17
5052.99238 1.44770e-17
5053.99051 1.48683e-17
5054.98864 1.50297e-17
5055.98677 1.50784e-17
5056.98491 1.51505e-17
5057.98303 1.52015e-17
5058.99135 1.52083e-17
5059.98948 1.51483e-17
5060.98761 1.50632e-17
5061.98574 1.49882e-17
5062.98387 1.49580e-17
5063.99219 1.49677e-17
5064.99032 1.50123e-17
5065.98844 1.50892e-17
5066.98657 1.51692e-17
5067.98470 1.52243e-17
5068.98283 1.52162e-17
5069.99115 1.52079e-17
5070.98928 1.52578e-17
5071.98741 1.54302e-17
5072.98554 1.56792e-17
5073.98367 1.59580e-17
5074.99199 1.62224e-17
5075.99011 1.64227e-17
5076.98825 1.65125e-17
5077.98637 1.64310e-17
5078.98450 1.62635e-17
5079.98263 1.60991e-17
5080.99095 1.60587e-17
5081.98908 1.60513e-17
5082.98721 1.59880e-17
5083.98534 1.57340e-17
5084.98347 1.54881e-17
5085.99178 1.54420e-17
5086.98992 1.58350e-17
5087.98804 1.64381e-17
5088.98618 1.70044e-17
5089.98430 1.72579e-17
5090.99262 1.72342e-17
5091.99075 1.69960e-17
5092.98888 1.66094e-17
5093.98701 1.61460e-17
5094.98514 1.56854e-17
5095.98327 1.53046e-17
5096.99158 1.50726e-17
5097.98971 1.50409e-17
5098.98784 1.52981e-17
5099.98598 1.56672e-17
5100.98410 1.59479e-17
5101.99242 1.58798e-17
5102.99055 1.56054e-17
5103.98868 1.53167e-17
5104.98681 1.52446e-17
5105.98494 1.53151e-17
5106.98307 1.54103e-17
5107.99139 1.54123e-17
5108.98951 1.53078e-17
5109.98765 1.51066e-17
5110.98577 1.48015e-17
5111.98391 1.44547e-17
5112.99222 1.41428e-17
5113.99035 1.39455e-17
5114.98848 1.38857e-17
5115.98661 1.39619e-17
5116.98474 1.41984e-17
5117.98287 1.44939e-17
5118.99118 1.47199e-17
5119.98931 1.47084e-17
5120.98744 1.45216e-17
5121.98557 1.42929e-17
5122.98370 1.41806e-17
5123.99202 1.41609e-17
5124.99015 1.41469e-17
5125.98828 1.40477e-17
5126.98641 1.38784e-17
5127.98454 1.36970e-17
5128.99285 1.35505e-17
5129.99099 1.34547e-17
5130.98911 1.34056e-17
5131.98725 1.34293e-17
5132.98538 1.34610e-17
5133.98350 1.33985e-17
5134.99182 1.30952e-17
5135.98995 1.26330e-17
5136.98808 1.22241e-17
5137.98621 1.21193e-17
5138.98434 1.22777e-17
5139.99266 1.24562e-17
5140.99078 1.23924e-17
5141.98891 1.20986e-17
5142.98704 1.18119e-17
5143.98517 1.17708e-17
5144.98330 1.19743e-17
5145.99162 1.21915e-17
5146.98975 1.22006e-17
5147.98788 1.19782e-17
5148.98601 1.17275e-17
5149.98414 1.16362e-17
5150.99246 1.17326e-17
5151.99058 1.18287e-17
5152.98872 1.17567e-17
5153.98684 1.14846e-17
5154.98498 1.11976e-17
5155.98310 1.10554e-17
5156.99142 1.11070e-17
5157.98955 1.11910e-17
5158.98768 1.11803e-17
5159.98581 1.10154e-17
5160.98394 1.07965e-17
5161.99225 1.05886e-17
5162.99039 1.04450e-17
5163.98851 1.03720e-17
5164.98664 1.03939e-17
5165.98477 1.05060e-17
5166.99309 1.06305e-17
5167.99122 1.06940e-17
5168.98935 1.06519e-17
5169.98748 1.05703e-17
5170.98561 1.04990e-17
5171.98374 1.04770e-17
5172.99205 1.04714e-17
5173.99018 1.04618e-17
5174.98831 1.04318e-17
5175.98645 1.04083e-17
5176.98457 1.04133e-17
5177.99289 1.04613e-17
5178.99102 1.04876e-17
5179.98915 1.04370e-17
5180.98728 1.02676e-17
5181.98541 1.01042e-17
5182.99373 1.00492e-17
5183.99185 1.01947e-17
5184.98999 1.04138e-17
5185.98812 1.06077e-17
5186.98625 1.06773e-17
5187.98438 1.06845e-17
5188.99269 1.06699e-17
5189.99082 1.06771e-17
5190.98895 1.07117e-17
5191.98708 1.07877e-17
5192.98521 1.09233e-17
5193.99352 1.10577e-17
5194.99165 1.11370e-17
5195.98978 1.10957e-17
5196.98791 1.10378e-17
5197.98604 1.10541e-17
5198.98417 1.12513e-17
5199.99249 1.15380e-17
5200.99062 1.18317e-17
5201.98875 1.20323e-17
5202.98688 1.21937e-17
5203.98501 1.23652e-17
5204.99332 1.26153e-17
5205.99146 1.28777e-17
5206.98958 1.30912e-17
5207.98772 1.31652e-17
5208.98584 1.32191e-17
5209.98398 1.33730e-17
5210.99229 1.37852e-17
5211.99042 1.43246e-17
5212.98855 1.48375e-17
5213.98668 1.51335e-17
5214.98481 1.52718e-17
5215.99312 1.53419e-17
5216.99125 1.54691e-17
5217.98938 1.55732e-17
5218.98751 1.55495e-17
5219.98564 1.52543e-17
5220.99396 1.48159e-17
5221.99209 1.44221e-17
5222.99022 1.43061e-17
5223.98835 1.44027e-17
5224.98648 1.45534e-17
5225.98461 1.45512e-17
5226.99292 1.44701e-17
5227.99105 1.44866e-17
5228.98919 1.48263e-17
5229.98731 1.53640e-17
5230.98545 1.58007e-17
5231.99376 1.58127e-17
5232.99189 1.54247e-17
5233.99002 1.49045e-17
5234.98815 1.44871e-17
5235.98628 1.42878e-17
5236.98441 1.42963e-17
5237.99273 1.45616e-17
5238.99086 1.50063e-17
5239.98898 1.54283e-17
5240.98711 1.56036e-17
5241.98524 1.54830e-17
5242.99356 1.52746e-17
5243.99169 1.51647e-17
5244.98982 1.52277e-17
5245.98795 1.53039e-17
5246.98608 1.52665e-17
5247.99439 1.50756e-17
5248.99252 1.49265e-17
5249.99065 1.49770e-17
5250.98878 1.53005e-17
5251.98691 1.56853e-17
5252.98504 1.59687e-17
5253.99336 1.60282e-17
5254.99149 1.59531e-17
5255.98962 1.57917e-17
5256.98775 1.56007e-17
5257.98588 1.54292e-17
5258.99420 1.53380e-17
5259.99232 1.53726e-17
5260.99046 1.54380e-17
5261.98859 1.54534e-17
5262.98672 1.53401e-17
5263.98484 1.51938e-17
5264.99316 1.50884e-17
5265.99129 1.51044e-17
5266.98942 1.51224e-17
5267.98755 1.50495e-17
5268.98568 1.47812e-17
5269.99399 1.44823e-17
5270.99212 1.42886e-17
5271.99025 1.43509e-17
5272.98838 1.45655e-17
5273.98651 1.48420e-17
5274.98464 1.50817e-17
5275.99296 1.52598e-17
5276.99109 1.53499e-17
5277.98922 1.53142e-17
5278.98735 1.52145e-17
5279.98548 1.51168e-17
5280.99379 1.51125e-17
5281.99193 1.51485e-17
5282.99005 1.51666e-17
5283.98819 1.50867e-17
5284.98631 1.49747e-17
5285.99463 1.49085e-17
5286.99276 1.49768e-17
5287.99089 1.51566e-17
5288.98902 1.54004e-17
5289.98715 1.56641e-17
5290.98528 1.59101e-17
5291.99359 1.61051e-17
5292.99172 1.62040e-17
5293.98985 1.62158e-17
5294.98798 1.61724e-17
5295.98611 1.61181e-17
5296.99443 1.60521e-17
5297.99256 1.59526e-17
5298.99069 1.57864e-17
5299.98882 1.55940e-17
5300.98695 1.54646e-17
5301.98508 1.54866e-17
5302.99339 1.56638e-17
5303.99152 1.59131e-17
5304.98966 1.61804e-17
5305.98778 1.63898e-17
5306.98592 1.64495e-17
5307.99423 1.62390e-17
5308.99236 1.57760e-17
5309.99049 1.53277e-17
5310.98862 1.51465e-17
5311.98675 1.53436e-17
5312.98488 1.56380e-17
5313.99320 1.58102e-17
5314.99132 1.57163e-17
5315.98945 1.55570e-17
5316.98758 1.54590e-17
5317.98571 1.55326e-17
5318.99403 1.57489e-17
5319.99216 1.61174e-17
5320.99029 1.66241e-17
5321.98842 1.70416e-17
5322.98655 1.71675e-17
5323.99486 1.68183e-17
5324.99300 1.63289e-17
5325.99112 1.59700e-17
5326.98925 1.60290e-17
5327.98738 1.63014e-17
5328.98551 1.66339e-17
5329.99383 1.68466e-17
5330.99196 1.69934e-17
5331.99009 1.71016e-17
5332.98822 1.72078e-17
5333.98635 1.72654e-17
5334.99467 1.72403e-17
5335.99279 1.71063e-17
5336.99093 1.68686e-17
5337.98905 1.65410e-17
5338.98718 1.61107e-17
5339.98531 1.57124e-17
5340.99363 1.54787e-17
5341.99176 1.55827e-17
5342.98989 1.59044e-17
5343.98802 1.62786e-17
5344.98615 1.65292e-17
5345.99446 1.66149e-17
5346.99259 1.65395e-17
5347.99073 1.62537e-17
5348.98885 1.58926e-17
5349.98699 1.56430e-17
5350.98511 1.57730e-17
5351.99343 1.61698e-17
5352.99156 1.65343e-17
5353.98969 1.65107e-17
5354.98782 1.61495e-17
5355.98595 1.57997e-17
5356.99426 1.58188e-17
5357.99240 1.62269e-17
5358.99052 1.66677e-17
5359.98866 1.68219e-17
5360.98678 1.65984e-17
5361.99510 1.62927e-17
5362.99323 1.61406e-17
5363.99136 1.62535e-17
5364.98949 1.64133e-17
5365.98762 1.64653e-17
5366.98575 1.63158e-17
5367.99406 1.61257e-17
5368.99219 1.60011e-17
5369.99032 1.60308e-17
5370.98845 1.61697e-17
5371.98658 1.64000e-17
5372.99490 1.66921e-17
5373.99303 1.69628e-17
5374.99116 1.71371e-17
5375.98929 1.71491e-17
5376.98742 1.70410e-17
5377.98555 1.68425e-17
5378.99386 1.65751e-17
5379.99200 1.64162e-17
5380.99012 1.65209e-17
5381.98825 1.70858e-17
5382.98639 1.77713e-17
5383.99470 1.82755e-17
5384.99283 1.82328e-17
5385.99096 1.78681e-17
5386.98909 1.74057e-17
5387.98722 1.70902e-17
5388.98535 1.69704e-17
5389.99366 1.70745e-17
5390.99179 1.74772e-17
5391.98992 1.80119e-17
5392.98805 1.84815e-17
5393.98618 1.86275e-17
5394.99450 1.85187e-17
5395.99263 1.83036e-17
5396.99076 1.81651e-17
5397.98889 1.80813e-17
5398.98702 1.79605e-17
5399.99533 1.76966e-17
5400.99347 1.73512e-17
5401.99159 1.70772e-17
5402.98973 1.70245e-17
5403.98785 1.72105e-17
5404.98599 1.75307e-17
5405.99430 1.79037e-17
5406.99243 1.82526e-17
5407.99056 1.85209e-17
5408.98869 1.86407e-17
5409.98682 1.85874e-17
5410.99514 1.84142e-17
5411.99326 1.81589e-17
5412.99140 1.78779e-17
5413.98952 1.76656e-17
5414.98765 1.76211e-17
5415.99597 1.77987e-17
5416.99410 1.80320e-17
5417.99223 1.81821e-17
5418.99036 1.81259e-17
5419.98849 1.80104e-17
5420.98662 1.79428e-17
5421.99493 1.80371e-17
5422.99306 1.81554e-17
5423.99119 1.81962e-17
5424.98932 1.80382e-17
5425.98746 1.78543e-17
5426.99577 1.77831e-17
5427.99390 1.79969e-17
5428.99203 1.83179e-17
5429.99016 1.85894e-17
5430.98829 1.86222e-17
5431.98642 1.85053e-17
5432.99474 1.83323e-17
5433.99287 1.81956e-17
5434.99100 1.81427e-17
5435.98913 1.82093e-17
5436.98725 1.84747e-17
5437.99557 1.88178e-17
5438.99370 1.90863e-17
5439.99183 1.90728e-17
5440.98996 1.88579e-17
5441.98809 1.86144e-17
5442.98622 1.85487e-17
5443.99453 1.86334e-17
5444.99266 1.87188e-17
5445.99079 1.86499e-17
5446.98892 1.84309e-17
5447.98705 1.82010e-17
5448.99537 1.80893e-17
5449.99350 1.81261e-17
5450.99163 1.82031e-17
5451.98976 1.82200e-17
5452.98789 1.81502e-17
5453.99621 1.81398e-17
5454.99433 1.83221e-17
5455.99247 1.87361e-17
5456.99059 1.90707e-17
5457.98873 1.90675e-17
5458.98686 1.85519e-17
5459.99517 1.79222e-17
5460.99330 1.74828e-17
5461.99143 1.75189e-17
5462.98956 1.77840e-17
5463.98769 1.81123e-17
5464.99600 1.83211e-17
5465.99413 1.84325e-17
5466.99226 1.84384e-17
5467.99039 1.83261e-17
5468.98852 1.81840e-17
5469.98665 1.80955e-17
5470.99497 1.81648e-17
5471.99310 1.83181e-17
5472.99123 1.84816e-17
5473.98936 1.85884e-17
5474.98749 1.85802e-17
5475.99580 1.84113e-17
5476.99394 1.79862e-17
5477.99206 1.74681e-17
5478.99020 1.70543e-17
5479.98832 1.70069e-17
5480.99664 1.72347e-17
5481.99477 1.75392e-17
5482.99290 1.76815e-17
5483.99103 1.76864e-17
5484.98916 1.77119e-17
5485.98729 1.79233e-17
5486.99561 1.83009e-17
5487.99374 1.86672e-17
5488.99186 1.88576e-17
5489.98999 1.88340e-17
5490.98812 1.87438e-17
5491.99644 1.87067e-17
5492.99457 1.87821e-17
5493.99270 1.88685e-17
5494.99083 1.88986e-17
5495.98896 1.88269e-17
5496.98709 1.87187e-17
5497.99540 1.86130e-17
5498.99353 1.85469e-17
5499.99166 1.85266e-17
5500.98979 1.85662e-17
5501.98793 1.86760e-17
5502.99624 1.87744e-17
5503.99437 1.87917e-17
5504.99250 1.86499e-17
5505.99063 1.84440e-17
5506.98876 1.82538e-17
5507.98689 1.81802e-17
5508.99521 1.81618e-17
5509.99333 1.81462e-17
5510.99147 1.80482e-17
5511.98960 1.79626e-17
5512.98772 1.79777e-17
5513.99604 1.82361e-17
5514.99417 1.85748e-17
5515.99230 1.88047e-17
5516.99043 1.86666e-17
5517.98856 1.82972e-17
5518.99687 1.79326e-17
5519.99500 1.78567e-17
5520.99313 1.80302e-17
5521.99126 1.82628e-17
5522.98939 1.83539e-17
5523.98752 1.82966e-17
5524.99584 1.82413e-17
5525.99397 1.83242e-17
5526.99210 1.85613e-17
5527.99023 1.87967e-17
5528.98836 1.89028e-17
5529.99668 1.88234e-17
5530.99480 1.86831e-17
5531.99294 1.85665e-17
5532.99106 1.85409e-17
5533.98920 1.85774e-17
5534.98733 1.86772e-17
5535.99564 1.88275e-17
5536.99377 1.88907e-17
5537.99190 1.87441e-17
5538.99003 1.82672e-17
5539.98816 1.77440e-17
5540.99647 1.74035e-17
5541.99460 1.75075e-17
5542.99273 1.78151e-17
5543.99086 1.81280e-17
5544.98900 1.82120e-17
5545.98712 1.81183e-17
5546.99544 1.78948e-17
5547.99357 1.75938e-17
5548.99170 1.72574e-17
5549.98983 1.69338e-17
5550.98796 1.66702e-17
5551.99627 1.65131e-17
5552.99440 1.64964e-17
5553.99253 1.66704e-17
5554.99067 1.69670e-17
5555.98879 1.72734e-17
5556.99711 1.74888e-17
5557.99524 1.75393e-17
5558.99337 1.73849e-17
5559.99150 1.69350e-17
5560.98963 1.62837e-17
5561.98776 1.57132e-17
5562.99608 1.55179e-17
5563.99420 1.57763e-17
5564.99233 1.61401e-17
5565.99046 1.63300e-17
5566.98859 1.61657e-17
5567.99691 1.58759e-17
5568.99504 1.55999e-17
5569.99317 1.54750e-17
5570.99130 1.55150e-17
5571.98943 1.57603e-17
5572.98756 1.62348e-17
5573.99587 1.67820e-17
5574.99400 1.72672e-17
5575.99213 1.75541e-17
5576.99026 1.76178e-17
5577.98840 1.74370e-17
5578.99671 1.69678e-17
5579.99484 1.64375e-17
5580.99297 1.60615e-17
5581.99110 1.61118e-17
5582.98923 1.64685e-17
5583.98736 1.69777e-17
5584.99568 1.74579e-17
5585.99380 1.78766e-17
5586.99194 1.82288e-17
5587.99006 1.85009e-17
5588.98819 1.86808e-17
5589.99651 1.87642e-17
5590.99464 1.87509e-17
5591.99277 1.86691e-17
5592.99090 1.85656e-17
5593.98903 1.84825e-17
5594.99734 1.84588e-17
5595.99547 1.85249e-17
5596.99360 1.87207e-17
5597.99174 1.90397e-17
5598.98986 1.93822e-17
5599.98800 1.96556e-17
5600.99631 1.98001e-17
5601.99444 1.99105e-17
5602.99257 2.00576e-17
5603.99070 2.03060e-17
5604.98883 2.05621e-17
5605.99715 2.07598e-17
5606.99527 2.08263e-17
5607.99341 2.08815e-17
5608.99153 2.10207e-17
5609.98967 2.13698e-17
5610.98779 2.17773e-17
5611.99611 2.21169e-17
5612.99424 2.21881e-17
5613.99237 2.22431e-17
5614.99050 2.25166e-17
5615.98863 2.33683e-17
5616.99694 2.44630e-17
5617.99507 2.54060e-17
5618.99320 2.56560e-17
5619.99133 2.54620e-17
5620.98947 2.52791e-17
5621.99778 2.56515e-17
5622.99591 2.64883e-17
5623.99404 2.73578e-17
5624.99217 2.78373e-17
5625.99030 2.78365e-17
5626.98843 2.76168e-17
5627.99675 2.73833e-17
5628.99487 2.72268e-17
5629.99300 2.69871e-17
5630.99114 2.65639e-17
5631.98926 2.59147e-17
5632.99758 2.52243e-17
5633.99571 2.46240e-17
5634.99384 2.42311e-17
5635.99197 2.40345e-17
5636.99010 2.40446e-17
5637.98823 2.42622e-17
5638.99654 2.45022e-17
5639.99467 2.46004e-17
5640.99280 2.43593e-17
5641.99093 2.39830e-17
5642.98906 2.36457e-17
5643.99738 2.35878e-17
5644.99551 2.36382e-17
5645.99364 2.36379e-17
5646.99177 2.33484e-17
5647.98990 2.29658e-17
5648.99822 2.27155e-17
5649.99634 2.29095e-17
5650.99448 2.33688e-17
5651.99260 2.37886e-17
5652.99074 2.38164e-17
5653.98886 2.34802e-17
5654.99718 2.30229e-17
5655.99531 2.26601e-17
5656.99344 2.24872e-17
5657.99157 2.24542e-17
5658.98970 2.25547e-17
5659.99801 2.27509e-17
5660.99615 2.29674e-17
5661.99427 2.31284e-17
5662.99240 2.31713e-17
5663.99053 2.30858e-17
5664.98866 2.28506e-17
5665.99698 2.24629e-17
5666.99511 2.20492e-17
5667.99324 2.17214e-17
5668.99137 2.15992e-17
5669.98950 2.15493e-17
5670.99781 2.14672e-17
5671.99594 2.12111e-17
5672.99407 2.09215e-17
5673.99221 2.07122e-17
5674.99033 2.07575e-17
5675.99865 2.08640e-17
5676.99678 2.08431e-17
5677.99491 2.04243e-17
5678.99304 1.98003e-17
5679.99117 1.92277e-17
5680.98930 1.90305e-17
5681.99761 1.91304e-17
5682.99575 1.93044e-17
5683.99388 1.93120e-17
5684.99200 1.91377e-17
5685.99014 1.89303e-17
5686.99845 1.88150e-17
5687.99658 1.88247e-17
5688.99471 1.88514e-17
5689.99284 1.88178e-17
5690.99097 1.86765e-17
5691.98910 1.84807e-17
5692.99741 1.82682e-17
5693.99554 1.80703e-17
5694.99367 1.78199e-17
5695.99180 1.74672e-17
5696.98993 1.69650e-17
5697.99825 1.65113e-17
5698.99638 1.62639e-17
5699.99451 1.64076e-17
5700.99264 1.67187e-17
5701.99077 1.70100e-17
5702.98890 1.70340e-17
5703.99722 1.69363e-17
5704.99534 1.68515e-17
5705.99348 1.69768e-17
5706.99160 1.71730e-17
5707.98974 1.72796e-17
5708.99805 1.70723e-17
5709.99618 1.66809e-17
5710.99431 1.63264e-17
5711.99244 1.62846e-17
5712.99057 1.64972e-17
5713.99888 1.67118e-17
5714.99701 1.66726e-17
5715.99514 1.63459e-17
5716.99327 1.59729e-17
5717.99140 1.57427e-17
5718.98953 1.57619e-17
5719.99785 1.59113e-17
5720.99598 1.61249e-17
5721.99411 1.63315e-17
5722.99224 1.64999e-17
5723.99037 1.65858e-17
5724.99868 1.65534e-17
5725.99681 1.64479e-17
5726.99495 1.63064e-17
5727.99307 1.61674e-17
5728.99121 1.60755e-17
5729.98933 1.60717e-17
5730.99765 1.62198e-17
5731.99578 1.64118e-17
5732.99391 1.65469e-17
5733.99204 1.64783e-17
5734.99017 1.63100e-17
5735.99849 1.61660e-17
5736.99662 1.62084e-17
5737.99474 1.63843e-17
5738.99287 1.65813e-17
5739.99100 1.66808e-17
5740.98913 1.66719e-17
5741.99745 1.66123e-17
5742.99558 1.65359e-17
5743.99371 1.64790e-17
5744.99184 1.64725e-17
5745.98997 1.65724e-17
5746.99828 1.67712e-17
5747.99641 1.69056e-17
5748.99454 1.68266e-17
5749.99268 1.64440e-17
5750.99080 1.60386e-17
5751.99912 1.58272e-17
5752.99725 1.60222e-17
5753.99538 1.63504e-17
5754.99351 1.66128e-17
5755.99164 1.65768e-17
5756.98977 1.63761e-17
5757.99808 1.61108e-17
5758.99622 1.58977e-17
5759.99435 1.57503e-17
5760.99248 1.56821e-17
5761.99060 1.57175e-17
5762.99892 1.58220e-17
5763.99705 1.59480e-17
5764.99518 1.60459e-17
5765.99331 1.60820e-17
5766.99144 1.60345e-17
5767.98957 1.58674e-17
5768.99788 1.56053e-17
5769.99601 1.53157e-17
5770.99414 1.50733e-17
5771.99227 1.49065e-17
5772.99040 1.47684e-17
5773.99872 1.46112e-17
5774.99685 1.44219e-17
5775.99498 1.43248e-17
5776.99311 1.44272e-17
5777.99124 1.47980e-17
5778.98937 1.51172e-17
5779.99769 1.51345e-17
5780.99581 1.45864e-17
5781.99395 1.38354e-17
5782.99207 1.31624e-17
5783.99021 1.29017e-17
5784.99852 1.29139e-17
5785.99665 1.30812e-17
5786.99478 1.32778e-17
5787.99291 1.34236e-17
5788.99104 1.34441e-17
5789.99935 1.32205e-17
5790.99748 1.28296e-17
5791.99561 1.23937e-17
5792.99375 1.20666e-17
5793.99187 1.18524e-17
5794.99000 1.16796e-17
5795.99832 1.14711e-17
5796.99645 1.12318e-17
5797.99458 1.10553e-17
5798.99271 1.10286e-17
5799.99084 1.11593e-17
5800.99915 1.12709e-17
5801.99728 1.12206e-17
5802.99542 1.09090e-17
5803.99354 1.04885e-17
5804.99168 1.00652e-17
5805.98980 9.75012e-18
5806.99812 9.53313e-18
5807.99625 9.42198e-18
5808.99438 9.42042e-18
5809.99251 9.47860e-18
5810.99064 9.54631e-18
5811.99896 9.57248e-18
5812.99708 9.52368e-18
5813.99521 9.37550e-18
5814.99334 9.07643e-18
5815.99147 8.71919e-18
5816.98960 8.41406e-18
5817.99792 8.30224e-18
5818.99605 8.35482e-18
5819.99418 8.47118e-18
5820.99231 8.55893e-18
5821.99044 8.56732e-18
5822.99875 8.49054e-18
5823.99688 8.29964e-18
5824.99501 8.01087e-18
5825.99314 7.71448e-18
5826.99127 7.49280e-18
5827.99959 7.40193e-18
5828.99772 7.37930e-18
5829.99585 7.38811e-18
5830.99398 7.38791e-18
5831.99211 7.32914e-18
5832.99024 7.16190e-18
5833.99855 6.82264e-18
5834.99669 6.46685e-18
5835.99481 6.22381e-18
5836.99294 6.27012e-18
5837.99107 6.44745e-18
5838.99939 6.60496e-18
5839.99752 6.55291e-18
5840.99565 6.34536e-18
5841.99378 6.07300e-18
5842.99191 5.81429e-18
5844.00022 5.63411e-18
5844.99835 5.58302e-18
5845.99649 5.74024e-18
5846.99461 6.06911e-18
5847.99275 6.44055e-18
5848.99087 6.74018e-18
5849.99919 6.88805e-18
5850.99732 6.87751e-18
5851.99545 6.67461e-18
5852.99358 6.29437e-18
5853.99171 5.91837e-18
5855.00002 5.70733e-18
5855.99816 5.80657e-18
5856.99628 6.02672e-18
5857.99442 6.22769e-18
5858.99254 6.23692e-18
5859.99068 6.18939e-18
5860.99899 6.18190e-18
5861.99712 6.35786e-18
5862.99525 6.57057e-18
5863.99338 6.68863e-18
5864.99151 6.52361e-18
5865.99982 6.21241e-18
5866.99795 5.93026e-18
5867.99608 5.89866e-18
5868.99421 6.07443e-18
5869.99234 6.31255e-18
5870.99048 6.46010e-18
5871.99879 6.49813e-18
5872.99692 6.52876e-18
5873.99505 6.63326e-18
5874.99318 6.83944e-18
5875.99131 7.05848e-18
5876.99962 7.23027e-18
5877.99775 7.31008e-18
5878.99588 7.34125e-18
5879.99401 7.34569e-18
5880.99215 7.34743e-18
5882.00046 7.39787e-18
5882.99859 7.54443e-18
5883.99672 7.85172e-18
5884.99485 8.18091e-18
5885.99298 8.41601e-18
5886.99111 8.39496e-18
5887.99942 8.25593e-18
5888.99755 8.13872e-18
5889.99568 8.22290e-18
5890.99381 8.46256e-18
5891.99194 8.76930e-18
5893.00026 9.04486e-18
5893.99839 9.27636e-18
5894.99652 9.49072e-18
5895.99465 9.71882e-18
5896.99278 9.94250e-18
5897.99091 1.00925e-17
5898.99923 1.00987e-17
5899.99735 9.96224e-18
5900.99549 9.85730e-18
5901.99361 9.92408e-18
5902.99175 1.02700e-17
5904.00006 1.07727e-17
5904.99819 1.13513e-17
5905.99632 1.19172e-17
5906.99445 1.23996e-17
5907.99258 1.27283e-17
5909.00090 1.28171e-17
5909.99902 1.27911e-17
5910.99716 1.27669e-17
5911.99528 1.28792e-17
5912.99341 1.31356e-17
5913.99154 1.35237e-17
5914.99986 1.40680e-17
5915.99799 1.46494e-17
5916.99612 1.51196e-17
5917.99425 1.52799e-17
5918.99238 1.51731e-17
5920.00069 1.50003e-17
5920.99882 1.49515e-17
5921.99695 1.51084e-17
5922.99508 1.53700e-17
5923.99322 1.56844e-17
5924.99134 1.59906e-17
5925.99966 1.62346e-17
5926.99779 1.63501e-17
5927.99592 1.62857e-17
5928.99405 1.61769e-17
5929.99218 1.61307e-17
5931.00050 1.62718e-17
5931.99863 1.64987e-17
5932.99675 1.67342e-17
5933.99489 1.68845e-17
5934.99301 1.69660e-17
5935.99114 1.69962e-17
5936.99946 1.69777e-17
5937.99759 1.69591e-17
5938.99572 1.69908e-17
5939.99385 1.71611e-17
5940.99198 1.74085e-17
5942.00029 1.76110e-17
5942.99842 1.76262e-17
5943.99655 1.74574e-17
5944.99468 1.72625e-17
5945.99281 1.71814e-17
5947.00113 1.72871e-17
5947.99926 1.74662e-17
5948.99739 1.76375e-17
5949.99552 1.77338e-17
5950.99365 1.78834e-17
5951.99178 1.81735e-17
5953.00009 1.87002e-17
5953.99823 1.92523e-17
5954.99635 1.96669e-17
5955.99449 1.97429e-17
5956.99262 1.96170e-17
5958.00093 1.94134e-17
5958.99906 1.92844e-17
5959.99719 1.92347e-17
5960.99532 1.92547e-17
5961.99345 1.93420e-17
5962.99158 1.94841e-17
5963.99989 1.96620e-17
5964.99802 1.98460e-17
5965.99615 2.00240e-17
5966.99428 2.01987e-17
5967.99241 2.03708e-17
5969.00073 2.05316e-17
5969.99886 2.06532e-17
5970.99699 2.07169e-17
5971.99512 2.07079e-17
5972.99325 2.06186e-17
5973.99138 2.04440e-17
5974.99970 2.01851e-17
5975.99782 1.99140e-17
5976.99596 1.96927e-17
5977.99408 1.95853e-17
5978.99222 1.96086e-17
5980.00053 1.97735e-17
5980.99866 2.00892e-17
5981.99679 2.05138e-17
5982.99492 2.09940e-17
5983.99305 2.14909e-17
5985.00137 2.19162e-17
5985.99950 2.21825e-17
5986.99762 2.21683e-17
5987.99575 2.19221e-17
5988.99388 2.16042e-17
5989.99201 2.13675e-17
5991.00033 2.12866e-17
5991.99846 2.12973e-17
5992.99659 2.13831e-17
5993.99472 2.14978e-17
5994.99285 2.14985e-17
5996.00116 2.12490e-17
5996.99929 2.06307e-17
5997.99742 1.99854e-17
5998.99555 1.95775e-17
5999.99369 1.97200e-17
6000.99181 2.01609e-17
6002.00013 2.06928e-17
6002.99826 2.10686e-17
6003.99639 2.12698e-17
6004.99452 2.12936e-17
6005.99265 2.11059e-17
6007.00097 2.07991e-17
6007.99909 2.04957e-17
6008.99723 2.03498e-17
6009.99536 2.03784e-17
6010.99348 2.05092e-17
6011.99161 2.06851e-17
6012.99993 2.08626e-17
6013.99806 2.10324e-17
6014.99619 2.11624e-17
6015.99432 2.12389e-17
6016.99245 2.13185e-17
6018.00076 2.14499e-17
6018.99889 2.16776e-17
6019.99702 2.18579e-17
6020.99515 2.18849e-17
6021.99328 2.16383e-17
6023.00160 2.12276e-17
6023.99973 2.07480e-17
6024.99786 2.02965e-17
6025.99599 1.99507e-17
6026.99412 1.97771e-17
6027.99225 1.98784e-17
6029.00056 2.01666e-17
6029.99870 2.05059e-17
6030.99682 2.07425e-17
6031.99496 2.08377e-17
6032.99309 2.08335e-17
6034.00140 2.07469e-17
6034.99953 2.06189e-17
6035.99766 2.05149e-17
6036.99579 2.05056e-17
6037.99392 2.06316e-17
6038.99205 2.08158e-17
6040.00036 2.10031e-17
6040.99849 2.11353e-17
6041.99662 2.11867e-17
6042.99475 2.11275e-17
6043.99288 2.09209e-17
6045.00120 2.06473e-17
6045.99933 2.03800e-17
6046.99746 2.02281e-17
6047.99559 2.01285e-17
6048.99372 2.00170e-17
6049.99185 1.97758e-17
6051.00016 1.95123e-17
6051.99829 1.93785e-17
6052.99643 1.95709e-17
6053.99455 2.00261e-17
6054.99269 2.05001e-17
6056.00100 2.07618e-17
6056.99913 2.07124e-17
6057.99726 2.05085e-17
6058.99539 2.02551e-17
6059.99352 2.00476e-17
6061.00184 1.98406e-17
6061.99996 1.96259e-17
6062.99809 1.93906e-17
6063.99622 1.92016e-17
6064.99435 1.91048e-17
6065.99248 1.91427e-17
6067.00080 1.93039e-17
6067.99893 1.95701e-17
6068.99706 1.99525e-17
6069.99519 2.03128e-17
6070.99332 2.05145e-17
6072.00163 2.03652e-17
6072.99976 1.99594e-17
6073.99789 1.94894e-17
6074.99602 1.91503e-17
6075.99416 1.90142e-17
6077.00247 1.90319e-17
6078.00060 1.92037e-17
6078.99873 1.94683e-17
6079.99686 1.96533e-17
6080.99499 1.95903e-17
6081.99312 1.91639e-17
6083.00144 1.86395e-17
6083.99956 1.82153e-17
6084.99770 1.81128e-17
6085.99582 1.81796e-17
6086.99395 1.83117e-17
6088.00227 1.83648e-17
6089.00040 1.84043e-17
6089.99853 1.84784e-17
6090.99666 1.86752e-17
6091.99479 1.88861e-17
6092.99292 1.89896e-17
6094.00123 1.88119e-17
6094.99936 1.84406e-17
6095.99750 1.80762e-17
6096.99562 1.79376e-17
6097.99375 1.80566e-17
6099.00207 1.82346e-17
6100.00020 1.83174e-17
6100.99833 1.82056e-17
6101.99646 1.80107e-17
6102.99459 1.77930e-17
6103.99272 1.76193e-17
6105.00103 1.75069e-17
6105.99917 1.74829e-17
6106.99729 1.75735e-17
6107.99543 1.77385e-17
6108.99355 1.79379e-17
6110.00187 1.81290e-17
6111.00000 1.82690e-17
6111.99813 1.83191e-17
6112.99626 1.82405e-17
6113.99439 1.80332e-17
6115.00270 1.77170e-17
6116.00083 1.72965e-17
6116.99896 1.68445e-17
6117.99709 1.64740e-17
6118.99523 1.62931e-17
6119.99335 1.63516e-17
6121.00167 1.65974e-17
6121.99980 1.70039e-17
6122.99793 1.75115e-17
6123.99606 1.79413e-17
6124.99419 1.81376e-17
6126.00250 1.79522e-17
6127.00063 1.75386e-17
6127.99876 1.70165e-17
6128.99690 1.65179e-17
6129.99502 1.61334e-17
6130.99316 1.59448e-17
6132.00147 1.60775e-17
6132.99960 1.63995e-17
6133.99773 1.67473e-17
6134.99586 1.69317e-17
6135.99399 1.69181e-17
6137.00230 1.67474e-17
6138.00043 1.64203e-17
6138.99856 1.60198e-17
6139.99669 1.57036e-17
6140.99482 1.56358e-17
6142.00314 1.58884e-17
6143.00127 1.62679e-17
6143.99940 1.66358e-17
6144.99753 1.68532e-17
6145.99566 1.69051e-17
6146.99379 1.67555e-17
6148.00210 1.63601e-17
6149.00024 1.58991e-17
6149.99836 1.55297e-17
6150.99650 1.54683e-17
6151.99462 1.55851e-17
6153.00294 1.57424e-17
6154.00107 1.57575e-17
6154.99920 1.56656e-17
6155.99733 1.55534e-17
6156.99546 1.55141e-17
6157.99359 1.55477e-17
6159.00191 1.55878e-17
6160.00003 1.55712e-17
6160.99816 1.54874e-17
6161.99629 1.54331e-17
6162.99442 1.54932e-17
6164.00274 1.57190e-17
6165.00087 1.59171e-17
6165.99900 1.59391e-17
6166.99713 1.56171e-17
6167.99526 1.52443e-17
6168.99339 1.50410e-17
6170.00170 1.53088e-17
6170.99983 1.57711e-17
6171.99797 1.61792e-17
6172.99609 1.62157e-17
6173.99423 1.59589e-17
6175.00254 1.55530e-17
6176.00067 1.51228e-17
6176.99880 1.47682e-17
6177.99693 1.45629e-17
6178.99506 1.46298e-17
6180.00337 1.49453e-17
6181.00150 1.52968e-17
6181.99964 1.54871e-17
6182.99776 1.53909e-17
6183.99590 1.52006e-17
6184.99402 1.50477e-17
6186.00234 1.50733e-17
6187.00047 1.51098e-17
6187.99860 1.50482e-17
6188.99673 1.47350e-17
6189.99486 1.43663e-17
6191.00317 1.41006e-17
6192.00130 1.41614e-17
6192.99943 1.43980e-17
6193.99756 1.46331e-17
6194.99569 1.46598e-17
6195.99382 1.44747e-17
6197.00214 1.41576e-17
6198.00027 1.37600e-17
6198.99840 1.33564e-17
6199.99653 1.30324e-17
6200.99466 1.28839e-17
6202.00298 1.29563e-17
6203.00110 1.31618e-17
6203.99924 1.34406e-17
6204.99737 1.37256e-17
6205.99550 1.39309e-17
6206.99363 1.39750e-17
6208.00194 1.37580e-17
6209.00007 1.34690e-17
6209.99820 1.32669e-17
6210.99633 1.33651e-17
6211.99446 1.36638e-17
6213.00277 1.40487e-17
6214.00090 1.43747e-17
6214.99903 1.46410e-17
6215.99716 1.48841e-17
6216.99529 1.51481e-17
6218.00361 1.54031e-17
6219.00174 1.55615e-17
6219.99987 1.55412e-17
6220.99800 1.53272e-17
6221.99613 1.50562e-17
6222.99426 1.48349e-17
6224.00257 1.47586e-17
6225.00071 1.47743e-17
6225.99883 1.48561e-17
6226.99697 1.49707e-17
6227.99509 1.50887e-17
6229.00341 1.51783e-17
6230.00154 1.51948e-17
6230.99967 1.51749e-17
6231.99780 1.51571e-17
6232.99593 1.51873e-17
6233.99406 1.52685e-17
6235.00238 1.53911e-17
6236.00050 1.55510e-17
6236.99863 1.57282e-17
6237.99676 1.58923e-17
6238.99489 1.60201e-17
6240.00321 1.60872e-17
6241.00134 1.60671e-17
6241.99947 1.59223e-17
6242.99760 1.56419e-17
6243.99573 1.54088e-17
6244.99386 1.53706e-17
6246.00217 1.56994e-17
6247.00030 1.60972e-17
6247.99844 1.63345e-17
6248.99656 1.60989e-17
6249.99470 1.56153e-17
6251.00301 1.51014e-17
6252.00114 1.48247e-17
6252.99927 1.47717e-17
6253.99740 1.48644e-17
6254.99553 1.50526e-17
6256.00384 1.52662e-17
6257.00198 1.54319e-17
6258.00011 1.54448e-17
6258.99824 1.52903e-17
6259.99636 1.51181e-17
6260.99449 1.50513e-17
6262.00281 1.51839e-17
6263.00094 1.53794e-17
6263.99907 1.55479e-17
6264.99720 1.55854e-17
6265.99533 1.55396e-17
6267.00364 1.54373e-17
6268.00177 1.53241e-17
6268.99990 1.51681e-17
6269.99803 1.49483e-17
6270.99616 1.46166e-17
6272.00448 1.42554e-17
6273.00261 1.39649e-17
6274.00074 1.38730e-17
6274.99887 1.39555e-17
6275.99700 1.40906e-17
6276.99513 1.41684e-17
6278.00345 1.41316e-17
6279.00157 1.40312e-17
6279.99971 1.38836e-17
6280.99783 1.37185e-17
6281.99597 1.36183e-17
6283.00428 1.36591e-17
6284.00241 1.39266e-17
6285.00054 1.42394e-17
6285.99867 1.44559e-17
6286.99680 1.43916e-17
6287.99493 1.41578e-17
6289.00324 1.38658e-17
6290.00137 1.36330e-17
6290.99950 1.35137e-17
6291.99763 1.35384e-17
6292.99576 1.37845e-17
6294.00408 1.41780e-17
6295.00221 1.45526e-17
6296.00034 1.47184e-17
6296.99847 1.46244e-17
6297.99660 1.44963e-17
6298.99473 1.45168e-17
6300.00304 1.48233e-17
6301.00118 1.51226e-17
6301.99930 1.52109e-17
6302.99744 1.48475e-17
6303.99556 1.43533e-17
6305.00388 1.39682e-17
6306.00201 1.40154e-17
6307.00014 1.43048e-17
6307.99827 1.46505e-17
6308.99640 1.48125e-17
6310.00472 1.48246e-17
6311.00284 1.47805e-17
6312.00097 1.47829e-17
6312.99910 1.48315e-17
6313.99723 1.48527e-17
6314.99536 1.47702e-17
6316.00368 1.45875e-17
6317.00181 1.44868e-17
6317.99994 1.46237e-17
6318.99807 1.51098e-17
6319.99620 1.56228e-17
6321.00451 1.59245e-17
6322.00264 1.57299e-17
6323.00077 1.53512e-17
6323.99890 1.50264e-17
6324.99703 1.50795e-17
6325.99517 1.53593e-17
6327.00348 1.57098e-17
6328.00161 1.59257e-17
6328.99974 1.60490e-17
6329.99787 1.61833e-17
6330.99600 1.64437e-17
6332.00431 1.68131e-17
6333.00245 1.71615e-17
6334.00058 1.73760e-17
6334.99870 1.74126e-17
6335.99683 1.74146e-17
6337.00515 1.74813e-17
6338.00328 1.77061e-17
6339.00141 1.80527e-17
6339.99954 1.85089e-17
6340.99767 1.90696e-17
6341.99580 1.96163e-17
6343.00411 2.00469e-17
6344.00225 2.01925e-17
6345.00037 2.02263e-17
6345.99850 2.03291e-17
6346.99663 2.07706e-17
6348.00495 2.14278e-17
6349.00308 2.20491e-17
6350.00121 2.23461e-17
6350.99934 2.22983e-17
6351.99747 2.21806e-17
6352.99560 2.22279e-17
6354.00392 2.25637e-17
6355.00204 2.28783e-17
6356.00018 2.29546e-17
6356.99830 2.25757e-17
6357.99644 2.20766e-17
6359.00475 2.16916e-17
6360.00288 2.17331e-17
6361.00101 2.19292e-17
6361.99914 2.20602e-17
6362.99727 2.18194e-17
6363.99540 2.13527e-17
6365.00371 2.08504e-17
6366.00184 2.05336e-17
6366.99997 2.04107e-17
6367.99810 2.03867e-17
6368.99624 2.03797e-17
6370.00455 2.03580e-17
6371.00268 2.03741e-17
6372.00081 2.04627e-17
6372.99894 2.06334e-17
6373.99707 2.07520e-17
6375.00538 2.07164e-17
6376.00351 2.04199e-17
6377.00165 2.00319e-17
6377.99977 1.96819e-17
6378.99791 1.95443e-17
6379.99603 1.95275e-17
6381.00435 1.95506e-17
6382.00248 1.94785e-17
6383.00061 1.93950e-17
6383.99874 1.94085e-17
6384.99687 1.96837e-17
6386.00518 2.01231e-17
6387.00331 2.04670e-17
6388.00144 2.04506e-17
6388.99957 1.99994e-17
6389.99770 1.94380e-17
6390.99583 1.90179e-17
6392.00415 1.89573e-17
6393.00228 1.90038e-17
6394.00041 1.89996e-17
6394.99854 1.87361e-17
6395.99667 1.84736e-17
6397.00499 1.83989e-17
6398.00311 1.87742e-17
6399.00125 1.93924e-17
6399.99937 2.00358e-17
6400.99750 2.04530e-17
6401.99564 2.06201e-17
6403.00395 2.05959e-17
6404.00208 2.03994e-17
6405.00021 2.01214e-17
6405.99834 1.99095e-17
6406.99647 1.99161e-17
6408.00478 2.02223e-17
6409.00292 2.06954e-17
6410.00104 2.12496e-17
6410.99917 2.17884e-17
6411.99730 2.21798e-17
6413.00562 2.23003e-17
6414.00375 2.19761e-17
6415.00188 2.14905e-17
6416.00001 2.10876e-17
6416.99814 2.11508e-17
6417.99627 2.14303e-17
6419.00458 2.16263e-17
6420.00272 2.12970e-17
6421.00084 2.06169e-17
6421.99898 2.00448e-17
6422.99710 2.00789e-17
6424.00542 2.07767e-17
6425.00355 2.14907e-17
6426.00168 2.17083e-17
6426.99981 2.10623e-17
6427.99794 2.01628e-17
6428.99607 1.94100e-17
6430.00439 1.92582e-17
6431.00251 1.94546e-17
6432.00065 1.98446e-17
6432.99877 2.02522e-17
6433.99690 2.05761e-17
6435.00522 2.07205e-17
6436.00335 2.05153e-17
6437.00148 2.00912e-17
6437.99961 1.96501e-17
6438.99774 1.94371e-17
6439.99587 1.94772e-17
6441.00418 1.96077e-17
6442.00231 1.97046e-17
6443.00044 1.96853e-17
6443.99857 1.96111e-17
6444.99671 1.94969e-17
6446.00502 1.93636e-17
6447.00315 1.92810e-17
6448.00128 1.93129e-17
6448.99941 1.95640e-17
6449.99754 1.98109e-17
6451.00585 1.98740e-17
6452.00399 1.94564e-17
6453.00211 1.88372e-17
6454.00025 1.83282e-17
6454.99838 1.83631e-17
6455.99650 1.88137e-17
6457.00482 1.93044e-17
6458.00295 1.94509e-17
6459.00108 1.91546e-17
6459.99921 1.87575e-17
6460.99734 1.85046e-17
6462.00565 1.85859e-17
6463.00378 1.87775e-17
6464.00191 1.89516e-17
6465.00004 1.89596e-17
6465.99817 1.88919e-17
6466.99630 1.87997e-17
6468.00462 1.87326e-17
6469.00275 1.87321e-17
6470.00088 1.88319e-17
6470.99901 1.91205e-17
6471.99714 1.94721e-17
6473.00546 1.97208e-17
6474.00358 1.96412e-17
6475.00172 1.92748e-17
6475.99984 1.88834e-17
6476.99798 1.87126e-17
6477.99610 1.88775e-17
6479.00442 1.91005e-17
6480.00255 1.91910e-17
6481.00068 1.89629e-17
6481.99881 1.86242e-17
6482.99694 1.83074e-17
6484.00525 1.81811e-17
6485.00338 1.81676e-17
6486.00151 1.82106e-17
6486.99964 1.82298e-17
6487.99777 1.82466e-17
6489.00609 1.82864e-17
6490.00422 1.83980e-17
6491.00235 1.85280e-17
6492.00048 1.85795e-17
6492.99861 1.84452e-17
6493.99674 1.81257e-17
6495.00505 1.77993e-17
6496.00318 1.76006e-17
6497.00131 1.76432e-17
6497.99945 1.78864e-17
6498.99757 1.83202e-17
6500.00589 1.89404e-17
6501.00402 1.95255e-17
6502.00215 1.98913e-17
6503.00028 1.97686e-17
6503.99841 1.93999e-17
6505.00673 1.90359e-17
6506.00485 1.90101e-17
6507.00299 1.92773e-17
6508.00112 1.96741e-17
6508.99924 2.00308e-17
6509.99737 2.03122e-17
6511.00569 2.06325e-17
6512.00382 2.10718e-17
6513.00195 2.16636e-17
6514.00008 2.22481e-17
6514.99821 2.27087e-17
6516.00652 2.29257e-17
6517.00465 2.30339e-17
6518.00278 2.31269e-17
6519.00091 2.33437e-17
6519.99904 2.35669e-17
6520.99717 2.37011e-17
6522.00549 2.35956e-17
6523.00362 2.33626e-17
6524.00175 2.31522e-17
6524.99988 2.31555e-17
6525.99801 2.33493e-17
6527.00632 2.35641e-17
6528.00446 2.36412e-17
6529.00258 2.35148e-17
6530.00072 2.33541e-17
6530.99885 2.32785e-17
6531.99698 2.33992e-17
6533.00529 2.35521e-17
6534.00342 2.36275e-17
6535.00155 2.34685e-17
6535.99968 2.32794e-17
6536.99781 2.32166e-17
6538.00612 2.35367e-17
6539.00425 2.40081e-17
6540.00238 2.43743e-17
6541.00051 2.42835e-17
6541.99864 2.38416e-17
6543.00696 2.33675e-17
6544.00509 2.31668e-17
6545.00322 2.33569e-17
6546.00135 2.37302e-17
6546.99948 2.41599e-17
6547.99761 2.45178e-17
6549.00593 2.48004e-17
6550.00405 2.49713e-17
6551.00219 2.49989e-17
6552.00031 2.49260e-17
6552.99845 2.47952e-17
6554.00676 2.46625e-17
6555.00489 2.45430e-17
6556.00302 2.44511e-17
6557.00115 2.44004e-17
6557.99928 2.44036e-17
6558.99741 2.44695e-17
6560.00572 2.46115e-17
6561.00385 2.48160e-17
6562.00198 2.50406e-17
6563.00011 2.52378e-17
6563.99824 2.53818e-17
6565.00656 2.55492e-17
6566.00469 2.57970e-17
6567.00282 2.61899e-17
6568.00095 2.65700e-17
6568.99908 2.68202e-17
6570.00739 2.67762e-17
6571.00552 2.65769e-17
6572.00365 2.63520e-17
6573.00178 2.62949e-17
6573.99992 2.63381e-17
6574.99804 2.63639e-17
6576.00636 2.62021e-17
6577.00449 2.59171e-17
6578.00262 2.57657e-17
6579.00075 2.59950e-17
6579.99888 2.66892e-17
6581.00720 2.74308e-17
6582.00532 2.79081e-17
6583.00346 2.78105e-17
6584.00158 2.74730e-17
6584.99971 2.71168e-17
6585.99784 2.70342e-17
6587.00616 2.70873e-17
6588.00429 2.71690e-17
6589.00242 2.71662e-17
6590.00055 2.70547e-17
6590.99868 2.68352e-17
6592.00700 2.64402e-17
6593.00512 2.59889e-17
6594.00325 2.57092e-17
6595.00138 2.58528e-17
6595.99951 2.64769e-17
6596.99764 2.71908e-17
6598.00596 2.76975e-17
6599.00409 2.77209e-17
6600.00222 2.74966e-17
6601.00035 2.71642e-17
6601.99848 2.68912e-17
6603.00679 2.67176e-17
6604.00493 2.66898e-17
6605.00305 2.69099e-17
6606.00119 2.72219e-17
6606.99931 2.74490e-17
6608.00763 2.73575e-17
6609.00576 2.69829e-17
6610.00389 2.65123e-17
6611.00202 2.60934e-17
6612.00015 2.58451e-17
6612.99828 2.58073e-17
6614.00659 2.60546e-17
6615.00472 2.66143e-17
6616.00285 2.71932e-17
6617.00099 2.75586e-17
6617.99911 2.74370e-17
6619.00743 2.70191e-17
6620.00556 2.64562e-17
6621.00369 2.59251e-17
6622.00182 2.54937e-17
6622.99995 2.52122e-17
6623.99808 2.51894e-17
6625.00639 2.53356e-17
6626.00452 2.54759e-17
6627.00266 2.54032e-17
6628.00078 2.50729e-17
6628.99892 2.47077e-17
6630.00723 2.44766e-17
6631.00536 2.45121e-17
6632.00349 2.46050e-17
6633.00162 2.46230e-17
6633.99975 2.44125e-17
6634.99788 2.40476e-17
6636.00619 2.35787e-17
6637.00432 2.30487e-17
6638.00245 2.25450e-17
6639.00058 2.21496e-17
6639.99871 2.19919e-17
6641.00703 2.20087e-17
6642.00516 2.20609e-17
6643.00329 2.20014e-17
6644.00142 2.17800e-17
6644.99955 2.14942e-17
6646.00786 2.12071e-17
6647.00600 2.09789e-17
6648.00412 2.07896e-17
6649.00225 2.06377e-17
6650.00038 2.05106e-17
6650.99851 2.04512e-17
6652.00683 2.04860e-17
6653.00496 2.06791e-17
6654.00309 2.08927e-17
6655.00122 2.09955e-17
6655.99935 2.07916e-17
6657.00767 2.03725e-17
6658.00579 1.99304e-17
6659.00392 1.96741e-17
6660.00205 1.96558e-17
6661.00018 1.97125e-17
6661.99831 1.97284e-17
6663.00663 1.96130e-17
6664.00476 1.94774e-17
6665.00289 1.93848e-17
6666.00102 1.94123e-17
6666.99915 1.95018e-17
6668.00746 1.96160e-17
6669.00559 1.96889e-17
6670.00373 1.97820e-17
6671.00185 1.99483e-17
6671.99999 2.02934e-17
6672.99811 2.07097e-17
6674.00643 2.10291e-17
6675.00456 2.10512e-17
6676.00269 2.07746e-17
6677.00082 2.04490e-17
6677.99895 2.02783e-17
6679.00726 2.04121e-17
6680.00540 2.06694e-17
6681.00352 2.09404e-17
6682.00166 2.10910e-17
6682.99978 2.11826e-17
6684.00810 2.12450e-17
6685.00623 2.13358e-17
6686.00436 2.13943e-17
6687.00249 2.13712e-17
6688.00062 2.11719e-17
6688.99875 2.08972e-17
6690.00706 2.07035e-17
6691.00519 2.07758e-17
6692.00332 2.11219e-17
6693.00145 2.15274e-17
6693.99958 2.18215e-17
6695.00790 2.18745e-17
6696.00603 2.18151e-17
6697.00416 2.17144e-17
6698.00229 2.16583e-17
6699.00042 2.16590e-17
6699.99855 2.17405e-17
6701.00686 2.19387e-17
6702.00500 2.22108e-17
6703.00313 2.25104e-17
6704.00125 2.27677e-17
6704.99939 2.29951e-17
6706.00770 2.32308e-17
6707.00583 2.35279e-17
6708.00396 2.38743e-17
6709.00209 2.41744e-17
6710.00022 2.43378e-17
6711.00853 2.43172e-17
6712.00666 2.43210e-17
6713.00479 2.45034e-17
6714.00292 2.50503e-17
6715.00105 2.56846e-17
6715.99918 2.61994e-17
6717.00750 2.62971e-17
6718.00563 2.61612e-17
6719.00376 2.59823e-17
6720.00189 2.60061e-17
6721.00002 2.62022e-17
6722.00833 2.64364e-17
6723.00647 2.66017e-17
6724.00459 2.66355e-17
6725.00273 2.65523e-17
6726.00085 2.63330e-17
6726.99899 2.59874e-17
6728.00730 2.56644e-17
6729.00543 2.54860e-17
6730.00356 2.55933e-17
6731.00169 2.58360e-17
6731.99982 2.60989e-17
6733.00814 2.62288e-17
6734.00626 2.62572e-17
6735.00439 2.62260e-17
6736.00252 2.61691e-17
6737.00065 2.61195e-17
6738.00897 2.61061e-17
6739.00710 2.61789e-17
6740.00523 2.63316e-17
6741.00336 2.64728e-17
6742.00149 2.65223e-17
6742.99962 2.64190e-17
6744.00793 2.62689e-17
6745.00606 2.61453e-17
6746.00420 2.61463e-17
6747.00232 2.61660e-17
6748.00046 2.61295e-17
6749.00877 2.59130e-17
6750.00690 2.56321e-17
6751.00503 2.54109e-17
6752.00316 2.54138e-17
6753.00129 2.56053e-17
6753.99942 2.58540e-17
6755.00774 2.60298e-17
6756.00587 2.60773e-17
6757.00400 2.60905e-17
6758.00212 2.61300e-17
6759.00025 2.62472e-17
6760.00857 2.63135e-17
6761.00670 2.62462e-17
6762.00483 2.59485e-17
6763.00296 2.55099e-17
6764.00109 2.50079e-17
6764.99922 2.45082e-17
6766.00753 2.41118e-17
6767.00566 2.39073e-17
6768.00379 2.40382e-17
6769.00192 2.44196e-17
6770.00005 2.48379e-17
6771.00837 2.50822e-17
6772.00650 2.50435e-17
6773.00463 2.48534e-17
6774.00276 2.45885e-17
6775.00089 2.43377e-17
6776.00921 2.41054e-17
6777.00733 2.39177e-17
6778.00547 2.37962e-17
6779.00359 2.37554e-17
6780.00173 2.38011e-17
6780.99986 2.39502e-17
6782.00817 2.41447e-17
6783.00630 2.43161e-17
6784.00443 2.43889e-17
6785.00256 2.43444e-17
6786.00069 2.42110e-17
6787.00900 2.39935e-17
6788.00713 2.37290e-17
6789.00526 2.35329e-17
6790.00339 2.35134e-17
6791.00152 2.37756e-17
6791.99965 2.40624e-17
6793.00797 2.41848e-17
6794.00610 2.38647e-17
6795.00423 2.33800e-17
6796.00236 2.29710e-17
6797.00049 2.29905e-17
6798.00880 2.32893e-17
6799.00694 2.36138e-17
6800.00506 2.36743e-17
6801.00320 2.34432e-17
6802.00132 2.31460e-17
6803.00964 2.29595e-17
6804.00777 2.29973e-17
6805.00590 2.30720e-17
6806.00403 2.30713e-17
6807.00216 2.28676e-17
6808.00029 2.26131e-17
6809.00860 2.24105e-17
6810.00673 2.23775e-17
6811.00486 2.25111e-17
6812.00299 2.27956e-17
6813.00112 2.32561e-17
6814.00944 2.37636e-17
6815.00757 2.41494e-17
6816.00570 2.42161e-17
6817.00383 2.39328e-17
6818.00196 2.34828e-17
6819.00009 2.30061e-17
6820.00840 2.26329e-17
6821.00653 2.23535e-17
6822.00466 2.21919e-17
6823.00279 2.21676e-17
6824.00093 2.22230e-17
6825.00924 2.23042e-17
6826.00737 2.23229e-17
6827.00550 2.23257e-17
6828.00363 2.23600e-17
6829.00176 2.25113e-17
6829.99989 2.27162e-17
6831.00821 2.28514e-17
6832.00634 2.27750e-17
6833.00446 2.24700e-17
6834.00259 2.21444e-17
6835.00072 2.19677e-17
6836.00904 2.20820e-17
6837.00717 2.22117e-17
6838.00530 2.21721e-17
6839.00343 2.17165e-17
6840.00156 2.11017e-17
6841.00987 2.05308e-17
6842.00800 2.02700e-17
6843.00613 2.02650e-17
6844.00426 2.04140e-17
6845.00239 2.06240e-17
6846.00052 2.05423e-17
6847.00884 2.04605e-17
6848.00697 2.03788e-17
6849.00510 2.02970e-17
6850.00323 2.02153e-17
6851.00136 2.01335e-17
6852.00968 2.00518e-17
6853.00780 1.99701e-17
6854.00594 1.98883e-17
6855.00406 1.98066e-17
6856.00220 1.97249e-17
6857.00032 1.96432e-17
6858.00864 1.95615e-17
6859.00677 1.94798e-17
6860.00490 1.93981e-17
6861.00303 1.93164e-17
6862.00116 1.92347e-17
6863.00947 1.91530e-17
6864.00760 1.90713e-17
6865.00573 1.89897e-17
6866.00386 1.89080e-17
6867.00200 1.88263e-17
6868.00012 1.87447e-17
6869.00844 1.86630e-17
6870.00657 1.85814e-17
6871.00470 1.84997e-17
6872.00283 1.84181e-17
6873.00096 1.83364e-17
6874.00927 1.82548e-17
6875.00741 1.81732e-17
6876.00553 1.80916e-17
6877.00367 1.80099e-17
6878.00179 1.79283e-17
6879.01011 1.78467e-17
6880.00824 1.77651e-17
6881.00637 1.76835e-17
6882.00450 1.76019e-17
6883.00263 1.75203e-17
6884.00076 1.74387e-17
6885.00907 1.73572e-17
6886.00720 1.72756e-17
6887.00533 1.71940e-17
6888.00346 1.71125e-17
6889.00159 1.70309e-17
6890.00991 1.69493e-17
6891.00804 1.68678e-17
6892.00617 1.67863e-17
6893.00430 1.67047e-17
6894.00243 1.66232e-17
6895.00056 1.65416e-17
6896.00887 1.64601e-17
6897.00700 1.63786e-17
6898.00513 1.62971e-17
6899.00326 1.62156e-17
6900.00140 1.61341e-17
6902.43561 1.59362e-17
6906.72350 1.55870e-17
6911.00119 1.52380e-17
6915.28908 1.48891e-17
6919.57697 1.45402e-17
6923.85466 1.41914e-17
6928.14255 1.38428e-17
6932.43044 1.34942e-17
6936.70813 1.31457e-17
6940.99602 1.26667e-17
6945.28391 1.24876e-17
6949.56160 1.23670e-17
6953.84949 1.20200e-17
6958.13737 1.16752e-17
6962.41507 1.17147e-17
6966.70296 1.14181e-17
6970.99084 1.10835e-17
6975.26854 1.10579e-17
6979.55643 1.10891e-17
6983.84431 1.07903e-17
6988.12201 1.06099e-17
6992.40990 1.06669e-17
6996.69778 1.01457e-17
7000.97548 1.01511e-17
7005.26337 9.58584e-18
7009.55125 9.34403e-18
7013.82895 8.75187e-18
7018.11684 8.56464e-18
7022.40473 8.50786e-18
7026.68242 7.92046e-18
7030.97031 8.11095e-18
7035.25820 7.76691e-18
7039.53589 7.62869e-18
7043.82378 7.74047e-18
7048.11166 7.55949e-18
7052.38936 7.69845e-18
7056.67725 8.24493e-18
7060.96513 8.57672e-18
7065.25302 8.96938e-18
7069.53072 9.31639e-18
7073.81860 1.01743e-17
7078.10649 1.10641e-17
7082.38419 1.22830e-17
7086.67207 1.30812e-17
7090.95996 1.40503e-17
7095.23766 1.52301e-17
7099.52554 1.58612e-17
7103.81343 1.65202e-17
7108.09113 1.65990e-17
7112.37901 1.67108e-17
7116.66690 1.69880e-17
7120.94460 1.68278e-17
7125.23249 1.65987e-17
7129.52037 1.71518e-17
7133.79807 1.71747e-17
7138.08596 1.74874e-17
7142.37384 1.72964e-17
7146.65154 1.75161e-17
7150.93942 1.66286e-17
7155.22731 1.68711e-17
7159.50501 1.65844e-17
7163.79289 1.69002e-17
7168.08078 1.65121e-17
7172.35848 1.64557e-17
7176.64636 1.66282e-17
7180.93425 1.59465e-17
7185.21195 1.57438e-17
7189.49983 1.55226e-17
7193.78772 1.54908e-17
7198.06542 1.54489e-17
7202.35330 1.55441e-17
7206.64119 1.56413e-17
7210.91889 1.61139e-17
7215.20677 1.63218e-17
7219.49466 1.58455e-17
7223.77236 1.56463e-17
7228.06025 1.54039e-17
7232.34813 1.48414e-17
7236.63601 1.41879e-17
7240.91371 1.50529e-17
7245.20160 1.45311e-17
7249.48949 1.40612e-17
7253.76718 1.43175e-17
7258.05507 1.44871e-17
7262.34296 1.44430e-17
7266.62065 1.46115e-17
7270.90854 1.40019e-17
7275.19643 1.33173e-17
7279.47412 1.35647e-17
7283.76201 1.30764e-17
7288.04990 1.35334e-17
7292.32759 1.39409e-17
7296.61548 1.33675e-17
7300.90337 1.33578e-17
7305.18106 1.34605e-17
7309.46895 1.32772e-17
7313.75683 1.38772e-17
7318.03453 1.41925e-17
7322.32242 1.41783e-17
7326.61030 1.44121e-17
7330.88800 1.52742e-17
7335.17589 1.52426e-17
7339.46377 1.51435e-17
7343.74147 1.47853e-17
7348.02936 1.53818e-17
7352.31725 1.50009e-17
7356.59494 1.51254e-17
7360.88283 1.55338e-17
7365.17072 1.56758e-17
7369.44841 1.61834e-17
7373.73630 1.60390e-17
7378.02419 1.61553e-17
7382.30188 1.63045e-17
7386.58977 1.59903e-17
7390.87766 1.67378e-17
7395.15535 1.61816e-17
7399.44324 1.67799e-17
7403.73112 1.61859e-17
7408.00882 1.66954e-17
7412.29671 1.69553e-17
7416.58459 1.73867e-17
7420.87248 1.72637e-17
7425.15018 1.71455e-17
7429.43806 1.73783e-17
7433.72595 1.70357e-17
7438.00365 1.79026e-17
7442.29153 1.73872e-17
7446.57942 1.72767e-17
7450.85712 1.74273e-17
7455.14500 1.74709e-17
7459.43289 1.72140e-17
7463.71059 1.70425e-17
7467.99848 1.64544e-17
7472.28636 1.65518e-17
7476.56406 1.56814e-17
7480.85195 1.56161e-17
7485.13983 1.56499e-17
7489.41753 1.49908e-17
7493.70541 1.51838e-17
7497.99330 1.47044e-17
7502.27100 1.44104e-17
7506.55888 1.43370e-17
7510.84677 1.39316e-17
7515.12447 1.37158e-17
7519.41235 1.30813e-17
7523.70024 1.36608e-17
7527.97794 1.31774e-17
7532.26582 1.28107e-17
7536.55371 1.27088e-17
7540.83141 1.23453e-17
7545.11929 1.31290e-17
7549.40718 1.31943e-17
7553.68488 1.30840e-17
7557.97276 1.29737e-17
7562.26065 1.28635e-17
7566.53835 1.27533e-17
7570.82624 1.26431e-17
7575.11412 1.25330e-17
7579.39182 1.24229e-17
7583.67970 1.23128e-17
7587.96759 1.22027e-17
7592.24529 1.20927e-17
7596.53317 1.19827e-17
7600.82106 1.18728e-17
7605.10894 1.17629e-17
7609.38664 1.16530e-17
7613.67453 1.15431e-17
7617.96241 1.14333e-17
7622.24011 1.13235e-17
7626.52800 1.12137e-17
7630.81588 1.11039e-17
7635.09358 1.09942e-17
7639.38147 1.08845e-17
7643.66935 1.07749e-17
7647.94705 1.06652e-17
7652.23494 1.05556e-17
7656.52282 1.04461e-17
7660.80052 1.03365e-17
7665.08841 1.02270e-17
7669.37629 1.01176e-17
7673.65400 1.00081e-17
7677.94188 9.89870e-18
7682.22976 9.78931e-18
7686.50746 9.50863e-18
7690.79535 9.75687e-18
7695.08324 9.53625e-18
7699.36093 9.36319e-18
7703.64882 1.00724e-17
7707.93671 1.00816e-17
7712.21440 9.91833e-18
7716.50229 9.63649e-18
7720.79018 9.25097e-18
7725.06787 9.11234e-18
7729.35576 9.30653e-18
7733.64365 9.12157e-18
7737.92134 9.40389e-18
7742.20923 9.14441e-18
7746.49711 9.20285e-18
7750.77481 9.25300e-18
7755.06270 9.21192e-18
7759.35058 9.16743e-18
7763.62828 8.37840e-18
7767.91617 8.29916e-18
7772.20405 8.43809e-18
7776.48175 8.41332e-18
7780.76964 8.48586e-18
7785.05752 8.60343e-18
7789.34541 8.20509e-18
7793.62311 8.49130e-18
7797.91100 8.61758e-18
7802.19888 9.18659e-18
7806.47658 9.63534e-18
7810.76447 9.06991e-18
7815.05235 9.12404e-18
7819.33005 9.22875e-18
7823.61794 8.80496e-18
7827.90582 9.53748e-18
7832.18352 1.02987e-17
7836.47141 1.06461e-17
7840.75929 1.18312e-17
7845.03699 1.25211e-17
7849.32487 1.33310e-17
7853.61276 1.34733e-17
7857.89046 1.33685e-17
7862.17834 1.27990e-17
7866.46623 1.27314e-17
7870.74393 1.24071e-17
7875.03181 1.30155e-17
7879.31970 1.27597e-17
7883.59740 1.29448e-17
7887.88528 1.32725e-17
7892.17317 1.32794e-17
7896.45087 1.36125e-17
7900.73875 1.35045e-17
7905.02664 1.37293e-17
7909.30434 1.39240e-17
7913.59223 1.31823e-17
7917.88011 1.31675e-17
7922.15781 1.33031e-17
7926.44570 1.30082e-17
7930.73358 1.29591e-17
7935.01128 1.28253e-17
7939.29916 1.20738e-17
7943.58705 1.25331e-17
7947.86475 1.23442e-17
7952.15263 1.24496e-17
7956.44052 1.19176e-17
7960.71822 1.14994e-17
7965.00610 1.16445e-17
7969.29399 1.17348e-17
7973.58187 1.17324e-17
7977.85957 1.11516e-17
7982.14746 1.05084e-17
7986.43534 1.10022e-17
7990.71304 1.09694e-17
7995.00093 1.07660e-17
7999.28881 1.05644e-17
8003.56651 9.63095e-18
8007.85440 9.95542e-18
8012.14228 9.79398e-18
8016.41999 9.36240e-18
8020.70787 8.88994e-18
8024.99575 9.67555e-18
8029.27345 9.01040e-18
8033.56134 8.78981e-18
8037.84922 8.99959e-18
8042.12692 8.71300e-18
8046.41481 9.11376e-18
8050.70269 8.94817e-18
8054.98039 9.25253e-18
8059.26828 9.19199e-18
8063.55616 8.93696e-18
8067.83386 8.86819e-18
8072.12175 8.54485e-18
8076.40963 8.51911e-18
8080.68733 8.33330e-18
8084.97522 8.18005e-18
8089.26310 7.97079e-18
8093.54080 8.06779e-18
8097.82869 8.62626e-18
8102.11657 7.87257e-18
8106.39427 8.31886e-18
8110.68216 8.37974e-18
8114.97004 8.13611e-18
8119.24775 8.14668e-18
8123.53563 8.27085e-18
8127.82351 7.08101e-18
8132.11140 7.19307e-18
8136.38910 7.21476e-18
8140.67699 7.12269e-18
8144.96487 7.41596e-18
8149.24257 7.45666e-18
8153.53046 7.28347e-18
8157.81834 7.04826e-18
8162.09604 6.88182e-18
8166.38393 7.03055e-18
8170.67181 7.16612e-18
8174.94951 7.26859e-18
8179.23740 7.05427e-18
8183.52528 6.85720e-18
8187.80298 6.98221e-18
8192.09087 6.73358e-18
8196.37875 6.71730e-18
8200.65645 6.35669e-18
8204.94434 6.72031e-18
8209.23222 6.64447e-18
8213.50992 6.31296e-18
8217.79781 6.75675e-18
8222.08569 7.06859e-18
8226.36339 6.82785e-18
8230.65128 6.47911e-18
8234.93916 6.64772e-18
8239.21686 6.68018e-18
8243.50475 6.44635e-18
8247.79263 5.95363e-18
8252.07033 6.55170e-18
8256.35822 6.52393e-18
8260.64610 6.03391e-18
8264.92380 6.26590e-18
8269.21169 6.27935e-18
8273.49957 6.18417e-18
8277.77727 6.10481e-18
8282.06516 6.29756e-18
8286.35304 6.73354e-18
8290.64092 6.32109e-18
8294.91863 5.95587e-18
8299.20651 5.94908e-18
8303.49439 6.74432e-18
8307.77210 6.79645e-18
8312.05998 6.02533e-18
8316.34786 6.24057e-18
8320.62557 5.94273e-18
8324.91345 5.46730e-18
8329.20133 5.81135e-18
8333.47903 6.12201e-18
8337.76692 6.34882e-18
8342.05480 6.77034e-18
8346.33250 6.33797e-18
8350.62039 6.31744e-18
8354.90827 6.07207e-18
8359.18598 5.83453e-18
8363.47386 6.63850e-18
8367.76174 6.03544e-18
8372.03944 6.00408e-18
8376.32733 5.94583e-18
8380.61521 5.99717e-18
8384.89292 5.72151e-18
8389.18080 5.53963e-18
8393.46868 6.03566e-18
8397.74638 5.73934e-18
8402.03427 5.44501e-18
8406.32215 5.12315e-18
8410.59986 5.10418e-18
8414.88774 5.04375e-18
8419.17562 5.43323e-18
8423.46351 4.77795e-18
8427.74121 4.49491e-18
8432.02909 4.35311e-18
8436.31698 4.69723e-18
8440.59468 4.62107e-18
8444.88256 4.68298e-18
8449.17045 4.46072e-18
8453.44815 4.39976e-18
8457.73603 4.30709e-18
8462.02392 4.66983e-18
8466.30162 4.40919e-18
8470.58950 3.28568e-18
8474.87739 3.05031e-18
8479.15509 3.12466e-18
8483.44297 3.04700e-18
8487.73086 3.72260e-18
8492.00856 3.37865e-18
8496.29644 3.10221e-18
8500.58433 2.90630e-18
8504.86203 3.39056e-18
8509.14991 3.55472e-18
8513.43780 3.63791e-18
8517.71550 3.37307e-18
8522.00338 3.53435e-18
8526.29127 3.27494e-18
8530.56897 3.43183e-18
8534.85685 3.78524e-18
8539.14474 4.09831e-18
8543.42244 4.34968e-18
8547.71033 4.18468e-18
8551.99821 4.44289e-18
8556.27591 4.80106e-18
8560.56380 5.01624e-18
8564.85168 5.19852e-18
8569.12938 5.79237e-18
8573.41727 5.90523e-18
8577.70515 5.98194e-18
8581.98285 6.63664e-18
8586.27074 7.00927e-18
8590.55862 6.81007e-18
8594.83632 6.53419e-18
8599.12421 6.71910e-18
8603.41209 6.72741e-18
8607.68979 6.53941e-18
8611.97767 6.71470e-18
8616.26556 6.95646e-18
8620.54326 6.89565e-18
8624.83115 6.30673e-18
8629.11903 5.96097e-18
8633.39673 6.33008e-18
8637.68462 6.08441e-18
8641.97250 6.97147e-18
8646.26038 6.27771e-18
8650.53809 5.88221e-18
8654.82597 6.80155e-18
8659.11385 7.04271e-18
8663.39156 6.84181e-18
8667.67944 6.44545e-18
8671.96732 8.01919e-18
8676.24503 9.16228e-18
8680.53291 9.73960e-18
8684.82079 8.82045e-18
8689.09850 9.46201e-18
8693.38638 9.31869e-18
8697.67426 1.00977e-17
8701.95196 1.06743e-17
8706.23985 1.08954e-17
8710.52773 1.17441e-17
8714.80544 1.20055e-17
8719.09332 1.27831e-17
8723.38120 1.31746e-17
8727.65890 1.35281e-17
8731.94679 1.41178e-17
8736.23467 1.50717e-17
8740.51238 1.54542e-17
8744.80026 1.61097e-17
8749.08814 1.62544e-17
8753.37603 1.59494e-17
8757.65373 1.55603e-17
8761.94161 1.54965e-17
8766.22950 1.64601e-17
8770.50720 1.79708e-17
8774.79508 1.91317e-17
8779.08297 1.92914e-17
8783.36067 1.92714e-17
8787.64855 1.98949e-17
8791.93644 1.99859e-17
8796.21414 2.02475e-17
8800.50202 2.07821e-17
8804.78991 2.00985e-17
8809.06761 2.00071e-17
8813.35549 2.02381e-17
8817.64338 2.07876e-17
8821.92108 2.17319e-17
8826.20896 2.15934e-17
8830.49685 2.12666e-17
8834.77455 2.03323e-17
8839.06243 1.96259e-17
8843.35032 1.96589e-17
8847.62802 1.94281e-17
8851.91590 1.80505e-17
8856.20379 1.80409e-17
8860.48149 1.79014e-17
8864.76937 1.71670e-17
8869.05726 1.70194e-17
8873.33496 1.76825e-17
8877.62284 1.64763e-17
8881.91073 1.54619e-17
8886.18843 1.58293e-17
8890.47631 1.58017e-17
8894.76420 1.44983e-17
8899.04190 1.40075e-17
8903.32978 1.39025e-17
8907.61767 1.48705e-17
8911.89537 1.40858e-17
8916.18325 1.31099e-17
8920.47114 1.36026e-17
8924.74884 1.42605e-17
8929.03672 1.51320e-17
8933.32461 1.49842e-17
8937.60231 1.43316e-17
8941.89019 1.36110e-17
8946.17808 1.33859e-17
8950.45578 1.39618e-17
8954.74366 1.30954e-17
8959.03155 1.10082e-17
8963.30925 1.08786e-17
8967.59713 1.19181e-17
8971.88502 1.16392e-17
8976.16272 1.22526e-17
8980.45060 1.29195e-17
8984.73849 1.21298e-17
8989.02637 1.08286e-17
8993.30408 1.02574e-17
8997.59196 1.06674e-17
9001.87985 1.06270e-17
9006.15755 1.03210e-17
9010.44543 1.05817e-17
9014.73331 1.04848e-17
9019.01102 1.02809e-17
9023.29890 1.03085e-17
9027.58678 9.21971e-18
9031.86448 8.75965e-18
9036.15237 9.06172e-18
9040.44025 8.42045e-18
9044.71796 7.81256e-18
9049.00584 8.19339e-18
9053.29372 7.80867e-18
9057.57142 7.98743e-18
9061.85931 8.24741e-18
9066.14719 8.18882e-18
9070.42490 8.61977e-18
9074.71278 8.52407e-18
9079.00066 8.32378e-18
9083.27837 8.82325e-18
9087.56625 8.11952e-18
9091.85413 7.28879e-18
9096.13184 7.86018e-18
9100.41972 7.28716e-18
9104.70760 7.20807e-18
9108.98531 7.80806e-18
9113.27319 7.59495e-18
9117.56107 6.73477e-18
9121.84896 5.93835e-18
9126.12666 5.29739e-18
9130.41454 5.35880e-18
9134.70243 6.51296e-18
9138.98013 7.11852e-18
9143.26801 6.73745e-18
9147.55590 6.43147e-18
9151.83360 6.06165e-18
9156.12148 6.14089e-18
9160.40937 6.19980e-18
9164.68707 5.82157e-18
9168.97495 6.18446e-18
9173.26284 6.76503e-18
9177.54054 7.26762e-18
9181.82842 7.09440e-18
9186.11631 6.25729e-18
9190.39401 6.76676e-18
9194.68189 6.69736e-18
9198.96978 6.16744e-18
9203.24748 6.42714e-18
9207.53536 6.38978e-18
9211.82325 6.77847e-18
9216.10095 6.74250e-18
9220.38883 6.97005e-18
9224.67672 7.53815e-18
9228.95442 7.66851e-18
9233.24230 7.08604e-18
9237.53019 7.36262e-18
9241.80789 7.90680e-18
9246.09577 7.42480e-18
9250.38366 7.26370e-18
9254.66136 6.59275e-18
9258.94924 7.03525e-18
9263.23713 6.00648e-18
9267.51483 5.11818e-18
9271.80271 5.35998e-18
9276.09060 6.18234e-18
9280.36830 5.99354e-18
9284.65618 6.00921e-18
9288.94407 6.11964e-18
9293.22177 6.05268e-18
9297.50965 5.86085e-18
9301.79754 5.14472e-18
9306.07524 5.51994e-18
9310.36312 6.73277e-18
9314.65101 7.76605e-18
9318.93889 7.29369e-18
9323.21659 5.80022e-18
9327.50448 6.44707e-18
9331.79237 6.85424e-18
9336.07006 6.21635e-18
9340.35795 6.26211e-18
9344.64583 7.01361e-18
9348.92353 7.76093e-18
9353.21142 8.39674e-18
9357.49931 7.96619e-18
9361.77700 6.70554e-18
9366.06489 7.65330e-18
9370.35277 8.78399e-18
9374.63047 8.46372e-18
9378.91836 7.47156e-18
9383.20624 8.10643e-18
9387.48394 8.41379e-18
9391.77183 8.33282e-18
9396.05971 8.27550e-18
9400.33741 7.98018e-18
9404.62530 7.98665e-18
9408.91318 8.10553e-18
9413.19088 8.48651e-18
9417.47877 7.95169e-18
9421.76665 7.45940e-18
9426.04435 7.21345e-18
9430.33224 7.62489e-18
9434.62012 6.54273e-18
9438.89783 5.93950e-18
9443.18571 6.29287e-18
9447.47360 7.86346e-18
9451.75130 8.67111e-18
9456.03918 7.98881e-18
9460.32706 7.09972e-18
9464.60477 7.45850e-18
9468.89265 7.15320e-18
9473.18053 6.42190e-18
9477.45823 5.23859e-18
9481.74612 5.94340e-18
9486.03400 6.25339e-18
9490.32189 5.48778e-18
9494.59959 6.32284e-18
9498.88747 5.04208e-18
9503.17536 5.39493e-18
9507.45306 5.39503e-18
9511.74094 6.02734e-18
9516.02883 5.81617e-18
9520.30653 7.31944e-18
9524.59441 6.83309e-18
9528.88230 5.78403e-18
9533.16000 6.23354e-18
9537.44788 7.09337e-18
9541.73577 7.03341e-18
9546.01347 6.45639e-18
9550.30135 6.53377e-18
9554.58924 6.89895e-18
9558.86694 5.46766e-18
9563.15482 4.41022e-18
9567.44271 4.17552e-18
9571.72041 4.97620e-18
9576.00829 5.01487e-18
9580.29618 6.20081e-18
9584.57388 6.70147e-18
9588.86176 5.60272e-18
9593.14965 5.15147e-18
9597.42735 5.69378e-18
9601.71523 6.71269e-18
9606.00312 6.98730e-18
9610.28082 6.73819e-18
9614.56870 6.74936e-18
9618.85659 6.24049e-18
9623.13429 4.76093e-18
9627.42217 6.17837e-18
9631.71006 6.12630e-18
9635.98776 6.35527e-18
9640.27564 5.83750e-18
9644.56353 5.80834e-18
9648.84123 4.69389e-18
9653.12911 5.02346e-18
9657.41700 4.80907e-18
9661.70488 3.80834e-18
9665.98258 4.99039e-18
9670.27047 6.65092e-18
9674.55835 6.38860e-18
9678.83605 5.52760e-18
9683.12394 6.42153e-18
9687.41183 5.95991e-18
9691.68952 5.02770e-18
9695.97741 5.02768e-18
9700.26529 5.43710e-18
9704.54299 6.62053e-18
9708.83088 6.68764e-18
9713.11876 4.96009e-18
9717.39646 4.02707e-18
9721.68435 4.39588e-18
9725.97223 4.19540e-18
9730.24993 4.38774e-18
9734.53782 5.95935e-18
9738.82570 5.99449e-18
9743.10340 4.94120e-18
9747.39129 5.44281e-18
9751.67917 5.35880e-18
9755.95687 3.99780e-18
9760.24476 3.13634e-18
9764.53264 3.68719e-18
9768.81034 3.78418e-18
9773.09823 4.63875e-18
9777.38612 4.08544e-18
9781.66381 3.54720e-18
9785.95170 2.46956e-18
9790.23958 2.38049e-18
9794.51728 3.56086e-18
9798.80517 5.83835e-18
9803.09306 5.90812e-18
9807.37075 4.78372e-18
9811.65864 5.02040e-18
9815.94652 4.86485e-18
9820.22422 4.06436e-18
9824.51211 4.62129e-18
9828.79999 6.28957e-18
9833.07769 4.62845e-18
9837.36558 3.58811e-18
9841.65346 4.34940e-18
9845.94135 3.49421e-18
9850.21905 3.37634e-18
9854.50693 5.10944e-18
9858.79482 4.45866e-18
9863.07252 2.02452e-18
9867.36040 2.98003e-18
9871.64829 5.41355e-18
9875.92599 6.65339e-18
9880.21387 5.37306e-18
9884.50176 3.64440e-18
9888.77946 5.52985e-18
9893.06735 4.85004e-18
9897.35523 5.25683e-18
9901.63293 5.90631e-18
9905.92081 6.24798e-18
9910.20870 6.82415e-18
9914.48640 5.90954e-18
9918.77428 3.77267e-18
9923.06217 4.05424e-18
9927.33987 4.73800e-18
9931.62775 2.51238e-18
9935.91564 2.04918e-18
9940.19334 3.32363e-18
9944.48122 4.10569e-18
9948.76911 4.62350e-18
9953.04681 5.63245e-18
9957.33469 2.22218e-18
9961.62258 2.65353e-18
9965.90028 5.90517e-18
9970.18816 3.50681e-18
9974.47605 3.18240e-18
9978.75375 2.55241e-18
9983.04163 1.08032e-18
9987.32952 3.42713e-18
9991.60722 2.03966e-18
9995.89510 2.54954e-18
