# wavelength flux
3200.97476 5.87127e-19
3202.88234 -3.60422e-17
3204.78992 -2.64907e-17
3206.69750 2.14532e-17
3208.60507 8.72871e-17
3210.51265 7.33086e-17
3212.42023 5.90813e-17
3214.32780 5.42877e-17
3216.23538 3.24763e-17
3218.13286 1.80882e-17
3220.04044 7.78322e-18
3221.94802 2.81112e-17
3223.85560 6.17668e-17
3225.76317 4.89899e-17
3227.67075 8.06835e-18
3229.57833 -4.60819e-18
3231.48590 1.79166e-17
3233.39348 1.72463e-17
3235.30106 2.25085e-17
3237.19854 5.83350e-17
3239.10612 4.26243e-17
3241.01370 6.03000e-17
3242.92127 2.38805e-17
3244.82885 9.27706e-18
3246.73643 -1.94288e-18
3248.64400 -1.64690e-17
3250.55158 -1.87981e-17
3252.45916 6.19859e-17
3254.36673 8.28434e-17
3256.27431 5.54010e-17
3258.17180 5.27477e-17
3260.07937 7.17848e-17
3261.98695 7.13459e-17
3263.89453 8.74002e-17
3265.80210 5.99690e-17
3267.70968 2.37442e-17
3269.61726 4.20027e-17
3271.52483 6.64593e-17
3273.43241 6.75828e-17
3275.33999 6.19903e-17
3277.23747 6.67223e-17
3279.14505 7.41738e-17
3281.05263 7.51455e-17
3282.96020 7.75691e-17
3284.86778 6.48027e-17
3286.77536 5.15473e-17
3288.68293 6.90967e-17
3290.59051 8.23333e-17
3292.49809 7.73002e-17
3294.40567 5.06666e-17
3296.31324 3.43216e-17
3298.21073 6.97687e-17
3300.11830 8.05705e-17
3302.02588 7.94084e-17
3303.93346 6.81730e-17
3305.84103 7.87136e-17
3307.74861 8.15907e-17
3309.65619 8.02797e-17
3311.56377 7.84285e-17
3313.47134 7.92470e-17
3315.37892 8.94590e-17
3317.27640 9.91564e-17
3319.18398 6.73520e-17
3321.09156 6.92082e-17
3322.99913 7.35520e-17
3324.90671 4.99468e-17
3326.81429 4.69200e-17
3328.72187 4.50518e-17
3330.62944 4.47737e-17
3332.53702 6.86225e-17
3334.44460 8.13435e-17
3336.35217 7.14894e-17
3338.24966 6.05571e-17
3340.15723 5.56318e-17
3342.06481 5.94088e-17
3343.97239 6.56180e-17
3345.87997 7.22855e-17
3347.78754 7.75530e-17
3349.69512 7.91662e-17
3351.60270 8.43153e-17
3353.51027 8.26005e-17
3355.41785 7.80183e-17
3357.31533 6.38064e-17
3359.22291 6.08438e-17
3361.13049 5.97811e-17
3363.03807 6.46489e-17
3364.94564 8.13349e-17
3366.85322 8.60416e-17
3368.76080 9.27286e-17
3370.66837 8.47898e-17
3372.57595 7.47857e-17
3374.48353 6.28829e-17
3376.39110 6.23631e-17
3378.28859 6.98469e-17
3380.19617 7.61195e-17
3382.10374 6.88147e-17
3384.01132 5.70507e-17
3385.91890 6.61173e-17
3387.82647 6.87365e-17
3389.73405 6.31569e-17
3391.64163 6.93605e-17
3393.54920 7.29811e-17
3395.45678 7.91351e-17
3397.35427 7.48358e-17
3399.26184 5.20340e-17
3401.16942 4.88682e-17
3403.07700 5.80075e-17
3404.98457 5.42346e-17
3406.89215 5.13382e-17
3408.79973 5.97272e-17
3410.70730 7.14601e-17
3412.61488 7.01467e-17
3414.52246 6.61599e-17
3416.43004 6.39894e-17
3418.32752 5.65694e-17
3420.23510 6.17356e-17
3422.14267 6.60048e-17
3424.05025 6.68329e-17
3425.95783 6.96043e-17
3427.86540 7.43422e-17
3429.77298 7.42797e-17
3431.68056 7.31269e-17
3433.58813 7.07283e-17
3435.49571 6.18414e-17
3437.39320 6.53108e-17
3439.30077 6.76628e-17
3441.20835 6.00894e-17
3443.11593 5.22883e-17
3445.02350 5.20378e-17
3446.93108 5.24311e-17
3448.83866 5.51035e-17
3450.74624 6.70499e-17
3452.65381 6.52880e-17
3454.56139 5.57547e-17
3456.45887 5.44433e-17
3458.36645 6.05650e-17
3460.27403 6.58331e-17
3462.18160 5.38346e-17
3464.08918 5.38778e-17
3465.99676 6.50285e-17
3467.90434 5.55535e-17
3469.81191 5.37636e-17
3471.71949 6.37208e-17
3473.62707 6.00026e-17
3475.53464 5.88220e-17
3477.43213 6.27161e-17
3479.33970 6.62808e-17
3481.24728 6.95111e-17
3483.15486 5.78021e-17
3485.06244 5.38320e-17
3486.97001 5.57933e-17
3488.87759 5.55030e-17
3490.78517 5.40652e-17
3492.69274 5.61166e-17
3494.60032 5.68408e-17
3496.50790 5.68659e-17
3498.40538 5.98399e-17
3500.31296 5.78931e-17
3502.22053 5.49758e-17
3504.12811 5.40521e-17
3506.03569 5.70761e-17
3507.94327 8.51055e-17
3509.85084 9.66214e-17
3511.75842 6.14131e-17
3513.66600 5.06342e-17
3515.57357 5.03411e-17
3517.47106 5.15350e-17
3519.37864 5.94843e-17
3521.28621 5.89360e-17
3523.19379 5.05688e-17
3525.10137 5.20643e-17
3527.00894 5.98965e-17
3528.91652 5.87554e-17
3530.82410 5.13513e-17
3532.73167 4.76609e-17
3534.63925 5.03830e-17
3536.54683 5.08848e-17
3538.44431 4.28909e-17
3540.35189 3.98784e-17
3542.25947 4.49859e-17
3544.16704 4.78898e-17
3546.07462 4.96414e-17
3547.98220 4.78094e-17
3549.88977 4.20024e-17
3551.79735 3.85819e-17
3553.70493 4.09486e-17
3555.61251 4.36026e-17
3557.50999 4.42878e-17
3559.41757 4.49796e-17
3561.32514 4.68305e-17
3563.23272 4.88814e-17
3565.14030 4.67544e-17
3567.04787 4.40164e-17
3568.95545 4.15769e-17
3570.86303 3.98445e-17
3572.77061 4.03612e-17
3574.67818 4.47545e-17
3576.57567 4.38436e-17
3578.48324 4.09011e-17
3580.39082 4.75099e-17
3582.29840 4.50691e-17
3584.20597 4.18034e-17
3586.11355 4.26754e-17
3588.02113 4.40660e-17
3589.92871 4.41748e-17
3591.83628 3.94691e-17
3593.74386 4.03318e-17
3595.65144 4.22815e-17
3597.54892 3.99505e-17
3599.45650 3.98339e-17
3601.36407 4.08455e-17
3603.27165 4.13782e-17
3605.17923 4.23600e-17
3607.08681 4.27455e-17
3608.99438 4.22989e-17
3610.90196 4.10835e-17
3612.80954 3.92757e-17
3614.71711 3.79302e-17
3616.61460 3.81610e-17
3618.52217 4.00518e-17
3620.42975 4.13576e-17
3622.33733 4.06879e-17
3624.24491 4.02106e-17
3626.15248 3.90470e-17
3628.06006 3.50418e-17
3629.96764 3.42647e-17
3631.87521 3.55666e-17
3633.78279 3.71477e-17
3635.69037 3.76456e-17
3637.58785 3.97306e-17
3639.49543 4.01612e-17
3641.40301 3.90659e-17
3643.31058 3.74506e-17
3645.21816 3.67668e-17
3647.12574 3.57265e-17
3649.03331 3.54401e-17
3650.94089 3.52843e-17
3652.84847 3.59416e-17
3654.75604 3.63927e-17
3656.66362 3.78468e-17
3658.56111 3.45105e-17
3660.46868 3.00214e-17
3662.37626 3.24819e-17
3664.28384 3.71755e-17
3666.19141 3.76797e-17
3668.09899 3.43916e-17
3670.00657 3.29665e-17
3671.91414 3.42929e-17
3673.82172 3.48640e-17
3675.72930 3.63791e-17
3677.62678 3.75437e-17
3679.53436 3.72259e-17
3681.44194 3.70782e-17
3683.34951 3.69181e-17
3685.25709 3.67027e-17
3687.16467 3.65963e-17
3689.07224 3.70952e-17
3690.97982 3.52309e-17
3692.88740 3.16534e-17
3694.79498 3.26078e-17
3696.70255 3.62372e-17
3698.60004 3.93096e-17
3700.50761 3.98369e-17
3702.41519 3.64568e-17
3704.32277 3.56179e-17
3706.23034 3.75650e-17
3708.13792 3.70795e-17
3710.04550 3.69201e-17
3711.95308 3.87657e-17
3713.86065 3.96367e-17
3715.76823 3.87124e-17
3717.66571 3.82611e-17
3719.57329 4.04134e-17
3721.48087 3.94967e-17
3723.38844 3.72840e-17
3725.29602 3.77527e-17
3727.20360 3.67895e-17
3729.11118 3.56457e-17
3731.01875 3.48901e-17
3732.92633 3.34323e-17
3734.83391 3.09980e-17
3736.73139 3.00319e-17
3738.63897 3.31469e-17
3740.54654 3.33596e-17
3742.45412 3.15334e-17
3744.36170 2.95288e-17
3746.26928 3.01435e-17
3748.17685 3.23092e-17
3750.08443 3.15419e-17
3751.99201 2.97622e-17
3753.89958 2.88680e-17
3755.80716 2.99198e-17
3757.70464 3.18150e-17
3759.61222 3.26603e-17
3761.51980 3.06771e-17
3763.42738 2.98790e-17
3765.33495 2.94064e-17
3767.24253 2.81576e-17
3769.15011 2.91898e-17
3771.05768 2.95666e-17
3772.96526 2.84071e-17
3774.87284 2.66152e-17
3776.77032 2.54918e-17
3778.67790 2.70221e-17
3780.58548 2.75505e-17
3782.49305 2.66015e-17
3784.40063 2.52634e-17
3786.30821 2.28404e-17
3788.21578 2.33776e-17
3790.12336 2.30209e-17
3792.03094 2.08162e-17
3793.93851 2.27598e-17
3795.84609 2.47345e-17
3797.74358 2.28533e-17
3799.65115 2.11469e-17
3801.55873 2.00191e-17
3803.46631 2.29099e-17
3805.37388 2.52749e-17
3807.28146 2.64406e-17
3809.18904 2.54943e-17
3811.09661 2.32566e-17
3813.00419 2.40966e-17
3814.91177 2.51736e-17
3816.80925 2.54337e-17
3818.71683 2.55011e-17
3820.62441 2.39802e-17
3822.53198 2.43740e-17
3824.43956 2.76382e-17
3826.34714 2.97554e-17
3828.25471 2.88691e-17
3830.16229 2.67218e-17
3832.06987 2.67753e-17
3833.97745 2.80261e-17
3835.88502 2.79182e-17
3837.78251 2.79811e-17
3839.69008 2.84963e-17
3841.59766 2.96011e-17
3843.50524 3.08694e-17
3845.41281 2.95827e-17
3847.32039 2.79896e-17
3849.22797 2.76479e-17
3851.13555 2.84993e-17
3853.04312 2.86705e-17
3854.95070 2.91998e-17
3856.84818 2.98423e-17
3858.75576 2.97045e-17
3860.66334 3.03852e-17
3862.57091 3.18403e-17
3864.47849 3.26344e-17
3866.38607 3.40590e-17
3868.29365 3.51089e-17
3870.20122 3.42284e-17
3872.10880 3.28957e-17
3874.01638 3.25715e-17
3875.92395 3.35020e-17
3877.82144 3.47165e-17
3879.72901 3.65767e-17
3881.63659 3.58542e-17
3883.54417 3.46663e-17
3885.45175 3.63679e-17
3887.35932 3.81957e-17
3889.26690 3.86582e-17
3891.17448 3.80120e-17
3893.08205 3.71421e-17
3894.98963 3.87787e-17
3896.88711 4.19845e-17
3898.79469 4.15831e-17
3900.70227 3.94447e-17
3902.60985 4.10963e-17
3904.51742 4.23429e-17
3906.42500 4.24766e-17
3908.33258 4.09642e-17
3910.24015 4.11755e-17
3912.14773 4.17524e-17
3914.05531 4.07579e-17
3915.96288 4.27378e-17
3917.86037 4.37743e-17
3919.76795 4.38126e-17
3921.67552 4.24154e-17
3923.58310 4.14314e-17
3925.49068 4.15770e-17
3927.39825 4.16356e-17
3929.30583 4.17851e-17
3931.21341 4.12534e-17
3933.12098 4.07695e-17
3935.02856 4.02200e-17
3936.92605 3.94126e-17
3938.83362 3.99982e-17
3940.74120 4.14001e-17
3942.64878 4.20762e-17
3944.55635 4.19896e-17
3946.46393 4.18364e-17
3948.37151 4.21017e-17
3950.27908 4.17348e-17
3952.18666 4.05403e-17
3954.09424 4.04111e-17
3956.00182 4.17721e-17
3957.89930 4.37401e-17
3959.80688 4.47338e-17
3961.71445 4.38909e-17
3963.62203 4.43919e-17
3965.52961 4.62256e-17
3967.43718 4.55441e-17
3969.34476 4.42339e-17
3971.25234 4.42299e-17
3973.15992 4.43794e-17
3975.06749 4.42053e-17
3976.96498 4.37526e-17
3978.87255 4.48708e-17
3980.78013 4.60757e-17
3982.68771 4.55150e-17
3984.59528 4.65212e-17
3986.50286 4.76941e-17
3988.41044 4.63280e-17
3990.31802 4.74316e-17
3992.22559 4.80996e-17
3994.13317 4.80457e-17
3996.04075 4.92449e-17
3997.93823 4.95852e-17
3999.84581 4.96876e-17
4001.75338 5.12970e-17
4003.66096 5.09890e-17
4005.56854 4.81754e-17
4007.47612 4.61966e-17
4009.38369 4.56640e-17
4011.29127 4.69053e-17
4013.19885 4.68915e-17
4015.10642 4.67353e-17
4017.00391 4.68732e-17
4018.91148 4.71862e-17
4020.81906 4.65833e-17
4022.72664 4.76082e-17
4024.63422 4.86960e-17
4026.54179 4.81230e-17
4028.44937 4.61996e-17
4030.35695 4.47186e-17
4032.26452 4.59103e-17
4034.17210 4.51051e-17
4036.07968 4.44940e-17
4037.97716 4.50413e-17
4039.88474 4.45652e-17
4041.79232 4.42393e-17
4043.69989 4.48154e-17
4045.60747 4.34385e-17
4047.51505 4.17742e-17
4049.42262 4.11140e-17
4051.33020 4.02873e-17
4053.23778 4.05626e-17
4055.14535 4.10152e-17
4057.04284 4.03568e-17
4058.95042 4.03103e-17
4060.85799 4.14629e-17
4062.76557 4.25028e-17
4064.67315 4.14983e-17
4066.58072 3.99278e-17
4068.48830 4.02393e-17
4070.39588 3.98596e-17
4072.30345 3.93605e-17
4074.21103 4.04225e-17
4076.11861 4.07765e-17
4078.01609 4.03323e-17
4079.92367 4.03155e-17
4081.83125 4.03803e-17
4083.73882 4.04104e-17
4085.64640 4.03348e-17
4087.55398 3.97913e-17
4089.46155 3.91121e-17
4091.36913 3.89924e-17
4093.27671 3.83648e-17
4095.18429 3.77683e-17
4097.08177 3.84528e-17
4098.98935 3.76110e-17
4100.89692 3.70720e-17
4102.80450 3.73813e-17
4104.71208 3.67533e-17
4106.61965 3.68160e-17
4108.52723 3.75878e-17
4110.43481 3.65776e-17
4112.34238 3.61015e-17
4114.24996 3.63795e-17
4116.15754 3.63557e-17
4118.05502 3.68994e-17
4119.96260 3.61971e-17
4121.87018 3.59879e-17
4123.77775 3.63479e-17
4125.68533 3.62863e-17
4127.59291 3.53871e-17
4129.50049 3.43121e-17
4131.40806 3.45423e-17
4133.31564 3.42190e-17
4135.22322 3.30368e-17
4137.12070 3.39616e-17
4139.02828 3.32887e-17
4140.93585 3.41388e-17
4142.84343 3.44233e-17
4144.75101 3.35275e-17
4146.65859 3.24081e-17
4148.56616 3.12121e-17
4150.47374 3.12581e-17
4152.38132 3.19646e-17
4154.28889 3.15857e-17
4156.19647 3.01573e-17
4158.09395 3.00565e-17
4160.00153 3.01204e-17
4161.90911 3.07567e-17
4163.81668 3.15591e-17
4165.72426 3.14620e-17
4167.63184 3.09925e-17
4169.53942 3.04350e-17
4171.44699 3.09367e-17
4173.35457 3.14104e-17
4175.26215 3.06600e-17
4177.15963 3.10125e-17
4179.06721 3.15146e-17
4180.97479 2.99275e-17
4182.88236 2.84998e-17
4184.78994 2.89893e-17
4186.69752 2.98234e-17
4188.60509 2.99928e-17
4190.51267 3.04633e-17
4192.42025 2.98100e-17
4194.32782 2.89649e-17
4196.22531 2.93354e-17
4198.13288 2.90506e-17
4200.04046 2.80858e-17
4201.94804 2.84459e-17
4203.85562 2.96071e-17
4205.76319 3.04871e-17
4207.67077 3.03913e-17
4209.57835 2.88668e-17
4211.48592 2.86637e-17
4213.39350 2.88786e-17
4215.30108 2.83957e-17
4217.19856 2.93984e-17
4219.10614 2.98886e-17
4221.01372 2.94395e-17
4222.92129 2.95333e-17
4224.82887 2.95611e-17
4226.73645 2.95941e-17
4228.64402 2.96268e-17
4230.55160 2.96593e-17
4232.45918 2.96915e-17
4234.36676 2.97234e-17
4236.27433 2.97551e-17
4238.17182 2.97865e-17
4240.07939 2.98176e-17
4241.98697 2.98486e-17
4243.89455 2.98792e-17
4245.80212 2.99095e-17
4247.70970 2.99397e-17
4249.61728 2.99696e-17
4251.52486 2.99993e-17
4253.43243 3.00287e-17
4255.34001 3.00579e-17
4257.23749 3.00868e-17
4259.14507 3.01154e-17
4261.05265 3.01439e-17
4262.96022 3.01720e-17
4264.86780 3.02001e-17
4266.77538 3.02277e-17
4268.68296 3.02551e-17
4270.59053 3.02820e-17
4272.49811 3.02949e-17
4274.40569 3.04511e-17
4276.30317 2.93696e-17
4278.21075 2.83176e-17
4280.11832 2.89991e-17
4282.02590 2.91107e-17
4283.93348 2.84384e-17
4285.84106 2.90315e-17
4287.74863 2.96259e-17
4289.65621 2.91510e-17
4291.56379 2.95795e-17
4293.47136 2.92083e-17
4295.37894 2.81939e-17
4297.27642 2.88397e-17
4299.18400 2.80972e-17
4301.09158 2.83257e-17
4302.99916 2.70882e-17
4304.90673 2.71406e-17
4306.81431 2.78642e-17
4308.72189 2.72431e-17
4310.62946 2.80017e-17
4312.53704 2.89620e-17
4314.44462 2.89408e-17
4316.34210 2.82694e-17
4318.24968 2.85746e-17
4320.15726 2.83383e-17
4322.06483 2.86295e-17
4323.97241 2.87498e-17
4325.87999 2.88764e-17
4327.78756 2.91071e-17
4329.69514 2.84795e-17
4331.60272 2.86303e-17
4333.51029 2.89845e-17
4335.41787 2.80060e-17
4337.31536 2.76364e-17
4339.22293 2.82014e-17
4341.13051 2.76544e-17
4343.03809 2.61472e-17
4344.94566 2.58396e-17
4346.85324 2.64236e-17
4348.76082 2.57233e-17
4350.66839 2.51835e-17
4352.57597 2.56966e-17
4354.48355 2.57217e-17
4356.39113 2.48033e-17
4358.28861 2.35788e-17
4360.19619 2.36904e-17
4362.10376 2.38857e-17
4364.01134 2.31890e-17
4365.91892 2.26045e-17
4367.82649 2.17258e-17
4369.73407 2.19245e-17
4371.64165 2.20939e-17
4373.54923 2.23431e-17
4375.45680 2.28496e-17
4377.35429 2.33820e-17
4379.26186 2.39044e-17
4381.16944 2.44101e-17
4383.07702 2.50949e-17
4384.98459 2.39964e-17
4386.89217 2.33211e-17
4388.79975 2.40015e-17
4390.70733 2.41917e-17
4392.61490 2.44840e-17
4394.52248 2.44157e-17
4396.43006 2.44072e-17
4398.32754 2.54372e-17
4400.23512 2.57563e-17
4402.14269 2.48584e-17
4404.05027 2.46098e-17
4405.95785 2.45056e-17
4407.86542 2.53431e-17
4409.77300 2.59677e-17
4411.68058 2.55464e-17
4413.58816 2.58848e-17
4415.49573 2.71627e-17
4417.39322 2.70486e-17
4419.30079 2.56771e-17
4421.20837 2.65431e-17
4423.11595 2.62156e-17
4425.02353 2.60512e-17
4426.93110 2.63554e-17
4428.83868 2.63791e-17
4430.74626 2.64764e-17
4432.65383 2.65812e-17
4434.56141 2.67792e-17
4436.45889 2.67040e-17
4438.36647 2.61588e-17
4440.27405 2.60009e-17
4442.18163 2.65494e-17
4444.08920 2.63172e-17
4445.99678 2.62175e-17
4447.90436 2.68277e-17
4449.81193 2.72072e-17
4451.71951 2.74278e-17
4453.62709 2.73493e-17
4455.53466 2.73572e-17
4457.43215 2.64824e-17
4459.33973 2.65299e-17
4461.24730 2.69151e-17
4463.15488 2.72411e-17
4465.06246 2.78321e-17
4466.97003 2.68772e-17
4468.87761 2.68387e-17
4470.78519 2.69768e-17
4472.69276 2.62462e-17
4474.60034 2.66747e-17
4476.50792 2.65228e-17
4478.40540 2.71714e-17
4480.31298 2.78154e-17
4482.22056 2.76630e-17
4484.12813 2.65845e-17
4486.03571 2.71924e-17
4487.94329 2.80191e-17
4489.85086 2.72104e-17
4491.75844 2.74157e-17
4493.66602 2.86150e-17
4495.57359 2.84671e-17
4497.47108 2.80753e-17
4499.37866 2.86423e-17
4501.28623 2.81462e-17
4503.19381 2.70562e-17
4505.10139 2.68731e-17
4507.00896 2.66199e-17
4508.91654 2.61702e-17
4510.82412 2.69670e-17
4512.73170 2.94369e-17
4514.63927 2.97835e-17
4516.53676 2.94844e-17
4518.44433 3.01377e-17
4520.35191 3.07910e-17
4522.25949 3.08564e-17
4524.16706 3.00559e-17
4526.07464 2.97896e-17
4527.98222 3.07668e-17
4529.88980 3.13491e-17
4531.79737 3.07437e-17
4533.70495 3.02215e-17
4535.61253 3.10799e-17
4537.51001 3.12662e-17
4539.41759 3.02533e-17
4541.32516 2.96580e-17
4543.23274 3.02820e-17
4545.14032 3.04106e-17
4547.04789 3.03258e-17
4548.95547 3.10585e-17
4550.86305 3.13166e-17
4552.77063 3.08070e-17
4554.67820 3.03130e-17
4556.57569 2.95027e-17
4558.48326 2.92222e-17
4560.39084 2.96210e-17
4562.29842 2.98735e-17
4564.20600 3.02414e-17
4566.11357 3.05066e-17
4568.02115 3.03582e-17
4569.92873 2.89079e-17
4571.83630 2.84835e-17
4573.74388 2.85004e-17
4575.65146 2.85093e-17
4577.54894 2.85150e-17
4579.45652 2.85219e-17
4581.36409 2.85275e-17
4583.27167 2.85451e-17
4585.17925 2.85092e-17
4587.08683 2.82723e-17
4588.99440 2.88356e-17
4590.90198 2.83459e-17
4592.80956 2.80091e-17
4594.71713 2.83068e-17
4596.62471 2.84007e-17
4598.52220 2.80718e-17
4600.42977 2.73966e-17
4602.33735 2.75821e-17
4604.24493 2.79601e-17
4606.15250 2.75501e-17
4608.06008 2.71646e-17
4609.96766 2.72517e-17
4611.87523 2.66468e-17
4613.78281 2.59973e-17
4615.69039 2.65313e-17
4617.58787 2.63736e-17
4619.49545 2.55482e-17
4621.40303 2.57493e-17
4623.31060 2.59152e-17
4625.21818 2.57467e-17
4627.12576 2.55789e-17
4629.03333 2.58894e-17
4630.94091 2.61514e-17
4632.84849 2.59724e-17
4634.75607 2.59575e-17
4636.66364 2.53742e-17
4638.56113 2.47460e-17
4640.46870 2.52940e-17
4642.37628 2.47639e-17
4644.28386 2.38259e-17
4646.19143 2.40596e-17
4648.09901 2.38375e-17
4650.00659 2.32498e-17
4651.91417 2.39567e-17
4653.82174 2.41018e-17
4655.72932 2.37440e-17
4657.62680 2.33718e-17
4659.53438 2.25427e-17
4661.44196 2.24358e-17
4663.34953 2.26349e-17
4665.25711 2.26682e-17
4667.16469 2.22085e-17
4669.07227 2.17342e-17
4670.97984 2.19414e-17
4672.88742 2.15245e-17
4674.79500 2.06564e-17
4676.69248 1.99229e-17
4678.60006 1.93042e-17
4680.50763 1.91663e-17
4682.41521 1.88789e-17
4684.32279 1.86055e-17
4686.23037 1.91588e-17
4688.13794 1.86713e-17
4690.04552 1.90889e-17
4691.95310 1.94236e-17
4693.86067 1.82500e-17
4695.76825 1.82663e-17
4697.66573 1.78166e-17
4699.57331 1.79217e-17
4701.48089 1.81970e-17
4703.38847 1.77931e-17
4705.29604 1.78858e-17
4707.20362 1.73589e-17
4709.11120 1.74689e-17
4711.01877 1.79147e-17
4712.92635 1.81394e-17
4714.83393 1.84616e-17
4716.73141 1.90288e-17
4718.63899 1.88164e-17
4720.54657 1.87631e-17
4722.45414 1.93332e-17
4724.36172 1.98348e-17
4726.26930 2.00698e-17
4728.17687 2.03212e-17
4730.08445 2.08573e-17
4731.99203 2.08191e-17
4733.89960 2.06554e-17
4735.80718 2.01807e-17
4737.70467 2.05259e-17
4739.61224 2.12042e-17
4741.51982 2.03373e-17
4743.42740 2.00581e-17
4745.33497 2.11302e-17
4747.24255 2.07089e-17
4749.15013 2.02323e-17
4751.05770 2.06589e-17
4752.96528 2.05391e-17
4754.87286 2.05205e-17
4756.77034 1.96460e-17
4758.67792 2.03744e-17
4760.58550 2.02723e-17
4762.49307 1.98119e-17
4764.40065 2.03766e-17
4766.30823 2.00494e-17
4768.21580 1.92866e-17
4770.12338 1.86400e-17
4772.03096 1.87490e-17
4773.93854 1.89934e-17
4775.84611 1.91647e-17
4777.74360 1.98079e-17
4779.65117 2.02221e-17
4781.55875 2.02038e-17
4783.46633 2.03934e-17
4785.37390 2.01869e-17
4787.28148 1.93908e-17
4789.18906 1.91654e-17
4791.09663 1.87752e-17
4793.00421 1.84303e-17
4794.91179 1.84451e-17
4796.80927 1.84439e-17
4798.71685 1.77066e-17
4800.62443 1.80053e-17
4802.53200 1.79277e-17
4804.43958 1.76770e-17
4806.34716 1.81908e-17
4808.25474 1.75825e-17
4810.16231 1.79668e-17
4812.06989 1.77684e-17
4813.97747 1.70926e-17
4815.87495 1.67416e-17
4817.78253 1.70788e-17
4819.69010 1.78436e-17
4821.59768 1.81082e-17
4823.50526 1.78129e-17
4825.41284 1.75918e-17
4827.32041 1.76867e-17
4829.22799 1.79652e-17
4831.13557 1.77740e-17
4833.04314 1.72666e-17
4834.95072 1.75504e-17
4836.84820 1.85893e-17
4838.75578 1.90490e-17
4840.66336 1.83164e-17
4842.57094 1.78395e-17
4844.47851 1.86346e-17
4846.38609 1.91063e-17
4848.29367 1.86501e-17
4850.20124 1.85363e-17
4852.10882 1.88920e-17
4854.01640 1.90704e-17
4855.92397 1.87800e-17
4857.82146 1.83279e-17
4859.72904 1.79268e-17
4861.63661 1.82499e-17
4863.54419 1.89486e-17
4865.45177 1.90717e-17
4867.35934 1.87147e-17
4869.26692 1.84414e-17
4871.17450 1.81875e-17
4873.08207 1.82859e-17
4874.98965 1.77931e-17
4876.89723 1.78413e-17
4878.79471 1.82638e-17
4880.70229 1.85063e-17
4882.60987 1.82175e-17
4884.51744 1.74613e-17
4886.42502 1.74906e-17
4888.33260 1.74517e-17
4890.24017 1.72069e-17
4892.14775 1.76335e-17
4894.05533 1.74061e-17
4895.96291 1.70413e-17
4897.86039 1.75280e-17
4899.76797 1.76950e-17
4901.67554 1.73470e-17
4903.58312 1.70003e-17
4905.49070 1.74538e-17
4907.39827 1.76644e-17
4909.30585 1.77668e-17
4911.21343 1.78828e-17
4913.12101 1.83653e-17
4915.02858 1.86070e-17
4916.92607 1.90951e-17
4918.83364 1.87262e-17
4920.74122 1.87936e-17
4922.64880 1.89703e-17
4924.55637 1.97107e-17
4926.46395 2.05656e-17
4928.37153 2.05923e-17
4930.27911 2.11861e-17
4932.18668 2.07814e-17
4934.09426 2.08219e-17
4936.00184 2.10298e-17
4937.89932 2.14274e-17
4939.80690 2.18725e-17
4941.71447 2.17781e-17
4943.62205 2.18575e-17
4945.52963 2.17881e-17
4947.43721 2.18492e-17
4949.34478 2.21106e-17
4951.25236 2.16964e-17
4953.15994 2.16128e-17
4955.06751 2.20901e-17
4956.96500 2.18761e-17
4958.87257 2.12129e-17
4960.78015 2.17544e-17
4962.68773 2.18685e-17
4964.59531 2.15336e-17
4966.50288 2.14216e-17
4968.41046 2.11652e-17
4970.31804 2.09514e-17
4972.22561 2.16574e-17
4974.13319 2.18254e-17
4976.04077 2.10806e-17
4977.93825 2.02755e-17
4979.84583 2.02370e-17
4981.75341 2.00973e-17
4983.66098 1.97146e-17
4985.56856 1.89312e-17
4987.47614 1.88526e-17
4989.38371 1.94499e-17
4991.29129 1.97478e-17
4993.19887 1.91655e-17
4995.10644 1.88613e-17
4997.00393 1.85737e-17
4998.91151 1.81155e-17
5000.81908 1.83337e-17
5002.72666 1.87825e-17
5004.63424 1.88223e-17
5006.54181 1.83895e-17
5008.44939 1.79334e-17
5010.35697 1.78984e-17
5012.26454 1.79520e-17
5014.17212 1.79006e-17
5016.06961 1.81933e-17
5017.97718 1.85303e-17
5019.88476 1.84239e-17
5021.79234 1.83688e-17
5023.69991 1.85182e-17
5025.60749 1.84079e-17
5027.51507 1.84299e-17
5029.42264 1.86484e-17
5031.33022 1.88086e-17
5033.23780 1.88904e-17
5035.14538 1.84267e-17
5037.04286 1.80331e-17
5038.95044 1.78943e-17
5040.85801 1.79653e-17
5042.76559 1.85378e-17
5044.67317 1.85543e-17
5046.58074 1.87114e-17
5048.48832 1.90390e-17
5050.39590 1.92896e-17
5052.30348 1.90116e-17
5054.21105 1.83119e-17
5056.10854 1.84623e-17
5058.01611 1.86839e-17
5059.92369 1.86296e-17
5061.83127 1.88919e-17
5063.73884 1.92631e-17
5065.64642 1.98153e-17
5067.55400 1.97197e-17
5069.46158 1.99420e-17
5071.36915 2.01936e-17
5073.27673 2.02550e-17
5075.18431 2.02732e-17
5077.08179 2.03989e-17
5078.98937 2.07097e-17
5080.89694 2.09850e-17
5082.80452 2.12534e-17
5084.71210 2.16577e-17
5086.61968 2.14314e-17
5088.52725 2.13769e-17
5090.43483 2.19773e-17
5092.34241 2.20302e-17
5094.24998 2.23492e-17
5096.14747 2.19927e-17
5098.05504 2.18992e-17
5099.96262 2.22885e-17
5101.87020 2.25974e-17
5103.77778 2.21266e-17
5105.68535 2.18376e-17
5107.59293 2.18659e-17
5109.50051 2.19314e-17
5111.40808 2.21549e-17
5113.31566 2.19109e-17
5115.22324 2.20581e-17
5117.12072 2.26789e-17
5119.02830 2.24792e-17
5120.93588 2.24124e-17
5122.84345 2.25439e-17
5124.75103 2.22046e-17
5126.65861 2.20786e-17
5128.56618 2.21280e-17
5130.47376 2.18103e-17
5132.38134 2.19260e-17
5134.28891 2.20668e-17
5136.19649 2.20567e-17
5138.09398 2.18575e-17
5140.00155 2.18249e-17
5141.90913 2.18337e-17
5143.81671 2.14419e-17
5145.72428 2.14880e-17
5147.63186 2.20140e-17
5149.53944 2.19686e-17
5151.44701 2.17458e-17
5153.35459 2.19263e-17
5155.26217 2.17558e-17
5157.15965 2.17372e-17
5159.06723 2.16810e-17
5160.97481 2.16192e-17
5162.88238 2.16940e-17
5164.78996 2.22164e-17
5166.69754 2.30801e-17
5168.60511 2.30825e-17
5170.51269 2.24733e-17
5172.42027 2.22450e-17
5174.32784 2.23761e-17
5176.23542 2.23850e-17
5178.13291 2.22792e-17
5180.04048 2.30719e-17
5181.94806 2.33974e-17
5183.85564 2.23484e-17
5185.76321 2.20674e-17
5187.67079 2.28279e-17
5189.57837 2.30140e-17
5191.48595 2.27849e-17
5193.39352 2.25667e-17
5195.30110 2.27677e-17
5197.19858 2.31777e-17
5199.10616 2.32919e-17
5201.01374 2.25907e-17
5202.92131 2.25605e-17
5204.82889 2.29899e-17
5206.73647 2.27135e-17
5208.64405 2.33431e-17
5210.55162 2.41252e-17
5212.45920 2.37825e-17
5214.36678 2.32220e-17
5216.26426 2.34656e-17
5218.17184 2.33506e-17
5220.07941 2.32550e-17
5221.98699 2.37317e-17
5223.89457 2.37865e-17
5225.80214 2.36352e-17
5227.70972 2.38845e-17
5229.61730 2.39119e-17
5231.52488 2.35662e-17
5233.43245 2.37373e-17
5235.34003 2.37223e-17
5237.23751 2.32082e-17
5239.14509 2.29091e-17
5241.05267 2.29616e-17
5242.96025 2.34102e-17
5244.86782 2.33458e-17
5246.77540 2.34654e-17
5248.68298 2.33608e-17
5250.59055 2.28978e-17
5252.49813 2.25486e-17
5254.40571 2.28884e-17
5256.31328 2.30101e-17
5258.21077 2.33575e-17
5260.11834 2.27397e-17
5262.02592 2.24510e-17
5263.93350 2.27294e-17
5265.84108 2.26616e-17
5267.74865 2.26372e-17
5269.65623 2.24140e-17
5271.56381 2.20543e-17
5273.47138 2.14757e-17
5275.37896 2.15174e-17
5277.27645 2.22288e-17
5279.18402 2.22326e-17
5281.09160 2.19527e-17
5282.99918 2.19620e-17
5284.90675 2.18551e-17
5286.81433 2.17585e-17
5288.72191 2.16616e-17
5290.62948 2.15648e-17
5292.53706 2.14682e-17
5294.44464 2.13717e-17
5296.34212 2.12755e-17
5298.24970 2.11794e-17
5300.15728 2.10834e-17
5302.06485 2.09876e-17
5303.97243 2.08920e-17
5305.88001 2.07966e-17
5307.78758 2.07013e-17
5309.69516 2.06061e-17
5311.60274 2.05112e-17
5313.51032 2.04164e-17
5315.41789 2.03218e-17
5317.31538 2.02273e-17
5319.22295 2.01331e-17
5321.13053 2.00391e-17
5323.03811 1.99451e-17
5324.94568 1.98512e-17
5326.85326 1.97576e-17
5328.76084 1.96642e-17
5330.66842 1.95755e-17
5332.57599 1.94477e-17
5334.48357 1.96199e-17
5336.38105 2.01812e-17
5338.28863 2.03563e-17
5340.19621 2.00015e-17
5342.10378 1.95290e-17
5344.01136 1.93632e-17
5345.91894 1.97899e-17
5347.82652 2.00145e-17
5349.73409 2.00369e-17
5351.64167 1.95956e-17
5353.54925 1.95002e-17
5355.45682 1.94151e-17
5357.35431 1.93174e-17
5359.26188 1.94601e-17
5361.16946 1.97314e-17
5363.07704 1.94484e-17
5364.98462 1.95296e-17
5366.89219 1.94900e-17
5368.79977 1.93496e-17
5370.70735 1.92228e-17
5372.61492 1.93945e-17
5374.52250 1.94175e-17
5376.43008 1.93653e-17
5378.32756 1.91920e-17
5380.23514 1.90906e-17
5382.14272 1.88235e-17
5384.05029 1.81955e-17
5385.95787 1.82874e-17
5387.86545 1.85796e-17
5389.77302 1.80765e-17
5391.68060 1.79051e-17
5393.58818 1.83441e-17
5395.49575 1.85283e-17
5397.39324 1.85049e-17
5399.30082 1.83829e-17
5401.20839 1.80553e-17
5403.11597 1.78941e-17
5405.02355 1.79615e-17
5406.93112 1.73399e-17
5408.83870 1.74072e-17
5410.74628 1.75682e-17
5412.65385 1.72625e-17
5414.56143 1.77496e-17
5416.45892 1.80356e-17
5418.36649 1.76514e-17
5420.27407 1.76685e-17
5422.18165 1.73956e-17
5424.08922 1.69588e-17
5425.99680 1.66425e-17
5427.90438 1.72704e-17
5429.81195 1.74217e-17
5431.71953 1.68793e-17
5433.62711 1.69161e-17
5435.53469 1.68310e-17
5437.43217 1.67447e-17
5439.33975 1.64682e-17
5441.24732 1.62778e-17
5443.15490 1.63773e-17
5445.06248 1.63682e-17
5446.97005 1.67337e-17
5448.87763 1.71875e-17
5450.78521 1.70614e-17
5452.69279 1.66357e-17
5454.60036 1.66727e-17
5456.49785 1.69594e-17
5458.40542 1.64589e-17
5460.31300 1.63485e-17
5462.22058 1.61769e-17
5464.12815 1.63265e-17
5466.03573 1.64544e-17
5467.94331 1.62909e-17
5469.85088 1.62135e-17
5471.75846 1.61266e-17
5473.66604 1.59422e-17
5475.57362 1.57924e-17
5477.47110 1.58723e-17
5479.37868 1.59588e-17
5481.28625 1.60028e-17
5483.19383 1.55410e-17
5485.10141 1.48922e-17
5487.00899 1.55869e-17
5488.91656 1.58778e-17
5490.82414 1.57909e-17
5492.73172 1.57062e-17
5494.63929 1.55168e-17
5496.54687 1.52590e-17
5498.44435 1.52162e-17
5500.35193 1.54545e-17
5502.25951 1.56341e-17
5504.16709 1.54058e-17
5506.07466 1.49630e-17
5507.98224 1.49829e-17
5509.88982 1.52082e-17
5511.79739 1.52249e-17
5513.70497 1.51768e-17
5515.61255 1.55535e-17
5517.51003 1.58665e-17
5519.41761 1.55477e-17
5521.32519 1.51353e-17
5523.23276 1.50476e-17
5525.14034 1.53594e-17
5527.04792 1.51577e-17
5528.95549 1.45959e-17
5530.86307 1.44221e-17
5532.77065 1.49260e-17
5534.67822 1.55133e-17
5536.57571 1.47640e-17
5538.48329 1.44213e-17
5540.39086 1.49020e-17
5542.29844 1.47500e-17
5544.20602 1.42165e-17
5546.11359 1.45083e-17
5548.02117 1.45864e-17
5549.92875 1.42255e-17
5551.83632 1.45799e-17
5553.74390 1.46970e-17
5555.65148 1.46228e-17
5557.54896 1.47199e-17
5559.45654 1.43012e-17
5561.36412 1.37822e-17
5563.27169 1.38013e-17
5565.17927 1.41122e-17
5567.08685 1.40744e-17
5568.99442 1.41829e-17
5570.90200 1.39364e-17
5572.80958 1.39370e-17
5574.71716 1.35378e-17
5576.61464 1.33345e-17
5578.52222 1.39851e-17
5580.42979 1.43297e-17
5582.33737 1.40277e-17
5584.24495 1.38603e-17
5586.15252 1.36843e-17
5588.06010 1.37776e-17
5589.96768 1.32727e-17
5591.87526 1.36464e-17
5593.78283 1.37378e-17
5595.68032 1.35151e-17
5597.58789 1.33968e-17
5599.49547 1.37495e-17
5601.40305 1.36052e-17
5603.31062 1.32058e-17
5605.21820 1.33007e-17
5607.12578 1.39297e-17
5609.03336 1.41097e-17
5610.94093 1.37381e-17
5612.84851 1.35440e-17
5614.75609 1.35137e-17
5616.65357 1.31753e-17
5618.56115 1.29418e-17
5620.46872 1.34816e-17
5622.37630 1.35297e-17
5624.28388 1.31369e-17
5626.19146 1.31398e-17
5628.09903 1.29263e-17
5630.00661 1.27940e-17
5631.91419 1.32552e-17
5633.82176 1.34106e-17
5635.72934 1.32366e-17
5637.62682 1.30709e-17
5639.53440 1.28555e-17
5641.44198 1.30859e-17
5643.34956 1.33031e-17
5645.25713 1.28904e-17
5647.16471 1.27492e-17
5649.07229 1.27115e-17
5650.97986 1.28269e-17
5652.88744 1.24914e-17
5654.79502 1.23393e-17
5656.69250 1.27386e-17
5658.60008 1.26385e-17
5660.50766 1.26255e-17
5662.41523 1.27749e-17
5664.32281 1.26533e-17
5666.23039 1.25267e-17
5668.13796 1.26216e-17
5670.04554 1.26901e-17
5671.95312 1.25007e-17
5673.86069 1.22818e-17
5675.76827 1.22138e-17
5677.66576 1.22717e-17
5679.57333 1.21635e-17
5681.48091 1.22889e-17
5683.38849 1.25348e-17
5685.29606 1.25666e-17
5687.20364 1.22609e-17
5689.11122 1.20142e-17
5691.01879 1.16635e-17
5692.92637 1.19441e-17
5694.83395 1.20088e-17
5696.73143 1.14138e-17
5698.63901 1.13499e-17
5700.54659 1.12484e-17
5702.45416 1.11002e-17
5704.36174 1.09779e-17
5706.26932 1.07215e-17
5708.17689 1.05214e-17
5710.08447 1.03492e-17
5711.99205 1.01491e-17
5713.89963 9.96305e-18
5715.79711 9.75248e-18
5717.70469 9.37829e-18
5719.61226 9.25215e-18
5721.51984 9.23035e-18
5723.42742 9.11785e-18
5725.33499 9.20958e-18
5727.24257 9.12998e-18
5729.15015 9.09032e-18
5731.05773 9.33902e-18
5732.96530 9.27970e-18
5734.87288 9.28109e-18
5736.77036 9.50065e-18
5738.67794 9.88441e-18
5740.58552 1.02040e-17
5742.49309 1.05316e-17
5744.40067 1.08652e-17
5746.30825 1.10729e-17
5748.21583 1.14068e-17
5750.12340 1.14444e-17
5752.03098 1.12601e-17
5753.93856 1.18231e-17
5755.84613 1.20036e-17
5757.74362 1.23288e-17
5759.65119 1.30942e-17
5761.55877 1.30203e-17
5763.46635 1.26336e-17
5765.37393 1.30386e-17
5767.28150 1.37695e-17
5769.18908 1.40576e-17
5771.09666 1.39795e-17
5773.00423 1.40011e-17
5774.91181 1.42103e-17
5776.80929 1.46039e-17
5778.71687 1.46978e-17
5780.62445 1.47268e-17
5782.53203 1.49336e-17
5784.43960 1.50341e-17
5786.34718 1.52629e-17
5788.25476 1.53873e-17
5790.16233 1.56349e-17
5792.06991 1.56393e-17
5793.97749 1.57341e-17
5795.88506 1.60375e-17
5797.78255 1.60674e-17
5799.69013 1.59381e-17
5801.59770 1.57028e-17
5803.50528 1.54489e-17
5805.41286 1.56557e-17
5807.32043 1.59966e-17
5809.22801 1.57710e-17
5811.13559 1.57350e-17
5813.04316 1.57071e-17
5814.95074 1.56682e-17
5816.84823 1.58277e-17
5818.75580 1.59008e-17
5820.66338 1.57220e-17
5822.57096 1.56459e-17
5824.47853 1.53211e-17
5826.38611 1.53281e-17
5828.29369 1.53892e-17
5830.20126 1.50355e-17
5832.10884 1.48543e-17
5834.01642 1.48959e-17
5835.92400 1.48298e-17
5837.82148 1.47750e-17
5839.72906 1.48412e-17
5841.63663 1.45683e-17
5843.54421 1.43132e-17
5845.45179 1.46856e-17
5847.35936 1.46763e-17
5849.26694 1.43351e-17
5851.17452 1.38506e-17
5853.08209 1.38355e-17
5854.98967 1.39388e-17
5856.88716 1.39811e-17
5858.79473 1.40516e-17
5860.70231 1.38061e-17
5862.60989 1.35172e-17
5864.51746 1.35623e-17
5866.42504 1.37213e-17
5868.33262 1.40797e-17
5870.24020 1.38621e-17
5872.14777 1.30949e-17
5874.05535 1.29174e-17
5875.96293 1.33648e-17
5877.86041 1.39765e-17
5879.76799 1.37244e-17
5881.67556 1.33871e-17
5883.58314 1.36737e-17
5885.49072 1.33635e-17
5887.39829 1.27569e-17
5889.30587 1.28825e-17
5891.21345 1.39595e-17
5893.12103 1.37775e-17
5895.02860 1.31503e-17
5896.92609 1.28742e-17
5898.83366 1.33020e-17
5900.74124 1.36256e-17
5902.64882 1.33703e-17
5904.55640 1.32116e-17
5906.46397 1.35261e-17
5908.37155 1.34243e-17
5910.27913 1.32927e-17
5912.18670 1.33264e-17
5914.09428 1.36221e-17
5915.99176 1.35311e-17
5917.89934 1.33063e-17
5919.80692 1.32167e-17
5921.71450 1.31102e-17
5923.62207 1.31274e-17
5925.52965 1.32284e-17
5927.43723 1.31757e-17
5929.34480 1.32796e-17
5931.25238 1.33927e-17
5933.15996 1.33549e-17
5935.06753 1.33204e-17
5936.96502 1.30204e-17
5938.87259 1.27418e-17
5940.78017 1.27394e-17
5942.68775 1.27605e-17
5944.59533 1.23526e-17
5946.50290 1.22384e-17
5948.41048 1.23003e-17
5950.31806 1.20145e-17
5952.22563 1.19859e-17
5954.13321 1.22693e-17
5956.03070 1.23738e-17
5957.93827 1.24297e-17
5959.84585 1.25171e-17
5961.75343 1.25928e-17
5963.66100 1.27215e-17
5965.56858 1.28058e-17
5967.47616 1.26301e-17
5969.38373 1.23888e-17
5971.29131 1.21960e-17
5973.19889 1.21972e-17
5975.10647 1.22155e-17
5977.00395 1.24401e-17
5978.91153 1.25750e-17
5980.81910 1.22578e-17
5982.72668 1.20548e-17
5984.63426 1.18725e-17
5986.54183 1.17469e-17
5988.44941 1.19458e-17
5990.35699 1.20842e-17
5992.26457 1.19510e-17
5994.17214 1.19634e-17
5996.06963 1.20265e-17
5997.97720 1.18729e-17
5999.88478 1.16267e-17
6001.79236 1.13220e-17
6003.69993 1.13611e-17
6005.60751 1.14246e-17
6007.51509 1.12420e-17
6009.42267 1.12082e-17
6011.33024 1.13552e-17
6013.23782 1.14233e-17
6015.14540 1.12704e-17
6017.04288 1.13469e-17
6018.95046 1.14760e-17
6020.85803 1.12561e-17
6022.76561 1.09222e-17
6024.67319 1.09293e-17
6026.58077 1.13694e-17
6028.48834 1.14557e-17
6030.39592 1.12715e-17
6032.30350 1.12250e-17
6034.21107 1.10173e-17
6036.11865 1.12543e-17
6038.01613 1.12716e-17
6039.92371 1.10757e-17
6041.83129 1.10914e-17
6043.73887 1.09963e-17
6045.64644 1.09562e-17
6047.55402 1.08051e-17
6049.46160 1.07755e-17
6051.36917 1.06659e-17
6053.27675 1.06814e-17
6055.18433 1.06308e-17
6057.08181 1.05003e-17
6058.98939 1.04381e-17
6060.89697 1.03971e-17
6062.80454 1.03278e-17
6064.71212 1.03184e-17
6066.61970 1.04378e-17
6068.52727 1.05143e-17
6070.43485 1.04000e-17
6072.34243 1.03831e-17
6074.25000 1.04057e-17
6076.15758 1.02682e-17
6078.05507 1.03214e-17
6079.96264 1.04359e-17
6081.87022 1.02381e-17
6083.77780 1.01991e-17
6085.68537 1.03320e-17
6087.59295 1.04467e-17
6089.50053 1.05542e-17
6091.40810 1.05434e-17
6093.31568 1.05357e-17
6095.22326 1.06762e-17
6097.12074 1.07131e-17
6099.02832 1.06350e-17
6100.93590 1.05167e-17
6102.84347 1.04446e-17
6104.75105 1.04936e-17
6106.65863 1.05440e-17
6108.56620 1.06283e-17
6110.47378 1.04906e-17
6112.38136 1.03546e-17
6114.28894 1.06468e-17
6116.18642 1.06491e-17
6118.09400 1.02962e-17
6120.00157 1.03883e-17
6121.90915 1.06818e-17
6123.81673 1.07463e-17
6125.72430 1.09061e-17
6127.63188 1.08272e-17
6129.53946 1.03912e-17
6131.44704 1.05061e-17
6133.35461 1.04427e-17
6135.26219 1.04854e-17
6137.15967 1.04396e-17
6139.06725 1.04864e-17
6140.97483 1.06298e-17
6142.88240 1.05856e-17
6144.78998 1.03761e-17
6146.69756 1.03419e-17
6148.60514 1.03264e-17
6150.51271 1.02906e-17
6152.42029 1.02622e-17
6154.32787 1.02528e-17
6156.22535 1.02838e-17
6158.13293 1.03513e-17
6160.04050 1.01331e-17
6161.94808 1.00661e-17
6163.85566 1.01835e-17
6165.76324 1.01366e-17
6167.67081 1.00749e-17
6169.57839 9.86238e-18
6171.48597 9.83307e-18
6173.39354 9.88944e-18
6175.30112 9.87842e-18
6177.19860 1.00487e-17
6179.10618 1.01939e-17
6181.01376 9.65278e-18
6182.92133 9.61413e-18
6184.82891 9.60565e-18
6186.73649 9.49074e-18
6188.64407 9.58796e-18
6190.55164 9.54627e-18
6192.45922 9.54622e-18
6194.36680 9.66927e-18
6196.26428 9.36015e-18
6198.17186 9.17819e-18
6200.07944 9.07100e-18
6201.98701 9.13540e-18
6203.89459 9.40462e-18
6205.80217 9.33710e-18
6207.70974 9.04030e-18
6209.61732 8.82817e-18
6211.52490 8.72724e-18
6213.43247 8.76604e-18
6215.34005 8.88599e-18
6217.23754 8.92575e-18
6219.14511 8.70261e-18
6221.05269 8.49785e-18
6222.96027 8.51206e-18
6224.86784 8.48762e-18
6226.77542 8.54603e-18
6228.68300 8.66022e-18
6230.59057 8.72080e-18
6232.49815 8.56475e-18
6234.40573 8.45547e-18
6236.30321 8.49313e-18
6238.21079 8.34737e-18
6240.11837 8.30325e-18
6242.02594 8.30769e-18
6243.93352 7.95051e-18
6245.84110 7.85192e-18
6247.74867 7.69626e-18
6249.65625 7.52368e-18
6251.56383 7.48099e-18
6253.47141 7.42303e-18
6255.37898 7.33673e-18
6257.27647 7.28111e-18
6259.18404 7.07409e-18
6261.09162 6.92786e-18
6262.99920 6.72117e-18
6264.90677 6.73331e-18
6266.81435 6.85575e-18
6268.72193 6.41523e-18
6270.62951 6.26580e-18
6272.53708 6.50688e-18
6274.44466 6.67796e-18
6276.35224 6.62800e-18
6278.24972 6.43223e-18
6280.15730 6.47636e-18
6282.06487 6.57902e-18
6283.97245 6.78125e-18
6285.88003 6.76295e-18
6287.78761 6.61766e-18
6289.69518 6.66963e-18
6291.60276 6.98310e-18
6293.51034 7.26799e-18
6295.41791 7.42407e-18
6297.31540 7.68663e-18
6299.22297 7.83040e-18
6301.13055 7.39459e-18
6303.03813 6.90119e-18
6304.94571 6.76100e-18
6306.85328 6.61993e-18
6308.76086 6.39857e-18
6310.66844 6.23495e-18
6312.57601 6.10358e-18
6314.48359 6.18246e-18
6316.39117 6.12699e-18
6318.28865 5.98412e-18
6320.19623 5.95784e-18
6322.10381 5.61923e-18
6324.01138 5.26184e-18
6325.91896 5.41512e-18
6327.82654 5.52828e-18
6329.73411 5.58657e-18
6331.64169 5.32877e-18
6333.54927 5.58141e-18
6335.45684 5.14277e-18
6337.35433 4.68308e-18
6339.26191 5.15242e-18
6341.16948 5.25639e-18
6343.07706 5.60628e-18
6344.98464 5.70473e-18
6346.89221 5.54232e-18
6348.79979 5.40731e-18
6350.70737 5.56657e-18
6352.61494 5.60384e-18
6354.52252 5.62950e-18
6356.42001 5.85576e-18
6358.32758 6.27196e-18
6360.23516 6.70583e-18
6362.14274 6.78608e-18
6364.05031 6.62249e-18
6365.95789 6.74167e-18
6367.86547 6.93982e-18
6369.77304 7.17427e-18
6371.68062 7.69366e-18
6373.58820 7.98115e-18
6375.49578 8.38781e-18
6377.39326 8.96746e-18
6379.30084 9.21283e-18
6381.20841 9.53935e-18
6383.11599 9.94050e-18
6385.02357 1.05863e-17
6386.93114 1.07037e-17
6388.83872 1.08541e-17
6390.74630 1.12872e-17
6392.65388 1.14145e-17
6394.56145 1.16697e-17
6396.45894 1.18498e-17
6398.36651 1.16281e-17
6400.27409 1.19610e-17
6402.18167 1.18735e-17
6404.08924 1.16988e-17
6405.99682 1.20576e-17
6407.90440 1.23603e-17
6409.81198 1.23147e-17
6411.71955 1.26873e-17
6413.62713 1.27268e-17
6415.53471 1.25135e-17
6417.43219 1.24866e-17
6419.33977 1.24871e-17
6421.24734 1.25207e-17
6423.15492 1.27380e-17
6425.06250 1.28281e-17
6426.97008 1.30146e-17
6428.87765 1.30095e-17
6430.78523 1.26326e-17
6432.69281 1.25184e-17
6434.60038 1.25758e-17
6436.49787 1.24302e-17
6438.40544 1.23413e-17
6440.31302 1.24191e-17
6442.22060 1.25716e-17
6444.12818 1.26385e-17
6446.03575 1.24890e-17
6447.94333 1.24707e-17
6449.85091 1.25868e-17
6451.75848 1.26800e-17
6453.66606 1.25877e-17
6455.56354 1.21520e-17
6457.47112 1.22375e-17
6459.37870 1.25945e-17
6461.28628 1.26380e-17
6463.19385 1.25316e-17
6465.10143 1.24304e-17
6467.00901 1.26680e-17
6468.91658 1.23069e-17
6470.82416 1.19791e-17
6472.73174 1.18034e-17
6474.63931 1.17764e-17
6476.53680 1.16986e-17
6478.44438 1.16516e-17
6480.35195 1.18216e-17
6482.25953 1.18575e-17
6484.16711 1.19136e-17
6486.07468 1.15903e-17
6487.98226 1.12627e-17
6489.88984 1.11061e-17
6491.79741 1.09716e-17
6493.70499 1.07153e-17
6495.60248 1.11200e-17
6497.51005 1.13546e-17
6499.41763 1.08666e-17
6501.32521 1.04296e-17
6503.23278 1.05418e-17
6505.14036 1.03305e-17
6507.04794 1.00483e-17
6508.95551 9.73292e-18
6510.86309 9.67508e-18
6512.77067 9.87315e-18
6514.67825 9.84515e-18
6516.57573 9.64386e-18
6518.48331 9.42649e-18
6520.39088 9.57175e-18
6522.29846 9.64662e-18
6524.20604 9.62780e-18
6526.11361 9.80562e-18
6528.02119 9.77936e-18
6529.92877 1.00534e-17
6531.83635 1.01508e-17
6533.74392 9.96122e-18
6535.65150 1.00480e-17
6537.54898 1.00750e-17
6539.45656 1.02207e-17
6541.36414 1.02649e-17
6543.27171 1.00864e-17
6545.17929 1.05041e-17
6547.08687 1.06231e-17
6548.99445 1.04296e-17
6550.90202 1.06083e-17
6552.80960 1.02671e-17
6554.71718 1.03591e-17
6556.61466 1.08503e-17
6558.52224 1.09163e-17
6560.42981 1.10164e-17
6562.33739 1.11666e-17
6564.24497 1.14629e-17
6566.15254 1.15721e-17
6568.06012 1.13468e-17
6569.96770 1.13607e-17
6571.87528 1.13030e-17
6573.78285 1.15159e-17
6575.69043 1.15377e-17
6577.58791 1.13580e-17
6579.49549 1.15417e-17
6581.40307 1.17691e-17
6583.31065 1.15284e-17
6585.21822 1.12425e-17
6587.12580 1.13385e-17
6589.03338 1.14602e-17
6590.94095 1.14549e-17
6592.84853 1.17311e-17
6594.75611 1.19885e-17
6596.65359 1.15745e-17
6598.56117 1.14478e-17
6600.46875 1.19166e-17
6602.37632 1.19059e-17
6604.28390 1.17870e-17
6606.19148 1.17978e-17
6608.09905 1.17164e-17
6610.00663 1.15539e-17
6611.91421 1.13429e-17
6613.82178 1.11817e-17
6615.72936 1.12469e-17
6617.62684 1.11615e-17
6619.53442 1.12931e-17
6621.44200 1.17714e-17
6623.34958 1.22422e-17
6625.25715 1.20208e-17
6627.16473 1.12852e-17
6629.07231 1.09811e-17
6630.97988 1.11664e-17
6632.88746 1.10293e-17
6634.79504 1.07565e-17
6636.69252 1.09328e-17
6638.60010 1.08755e-17
6640.50768 1.05870e-17
6642.41525 1.05634e-17
6644.32283 1.05937e-17
6646.23041 1.08940e-17
6648.13798 1.06455e-17
6650.04556 1.02499e-17
6651.95314 1.00701e-17
6653.86072 1.00486e-17
6655.76829 1.00124e-17
6657.66578 1.01787e-17
6659.57335 1.02245e-17
6661.48093 1.00885e-17
6663.38851 1.03191e-17
6665.29608 1.04771e-17
6667.20366 1.03183e-17
6669.11124 1.01594e-17
6671.01882 1.02172e-17
6672.92639 1.01334e-17
6674.83397 9.90745e-18
6676.73145 9.99012e-18
6678.63903 1.01069e-17
6680.54661 1.00698e-17
6682.45418 9.95258e-18
6684.36176 9.88675e-18
6686.26934 9.73354e-18
6688.17692 9.70778e-18
6690.08449 9.72134e-18
6691.99207 9.54750e-18
6693.89965 9.52785e-18
6695.79713 9.26954e-18
6697.70471 9.38879e-18
6699.61228 9.52084e-18
6701.51986 9.66262e-18
6703.42744 9.74536e-18
6705.33502 9.50194e-18
6707.24259 9.44295e-18
6709.15017 9.57784e-18
6711.05775 9.52055e-18
6712.96532 9.45984e-18
6714.87290 9.40148e-18
6716.77038 9.34449e-18
6718.67796 9.27481e-18
6720.58554 9.27694e-18
6722.49312 9.50161e-18
6724.40069 9.66569e-18
6726.30827 9.62455e-18
6728.21585 9.34174e-18
6730.12342 9.13450e-18
6732.03100 9.07079e-18
6733.93858 9.11982e-18
6735.83606 9.20066e-18
6737.74364 9.39879e-18
6739.65122 9.57147e-18
6741.55879 9.49622e-18
6743.46637 9.36339e-18
6745.37395 9.22513e-18
6747.28152 8.87087e-18
6749.18910 8.77072e-18
6751.09668 8.98872e-18
6753.00425 8.90611e-18
6754.91183 8.69739e-18
6756.80932 8.93773e-18
6758.71689 9.21330e-18
6760.62447 9.02436e-18
6762.53205 8.93623e-18
6764.43962 9.07696e-18
6766.34720 9.04858e-18
6768.25478 9.00400e-18
6770.16235 9.07813e-18
6772.06993 9.26266e-18
6773.97751 9.16664e-18
6775.87499 9.03593e-18
6777.78257 9.00793e-18
6779.69015 8.93514e-18
6781.59772 9.07064e-18
6783.50530 8.90981e-18
6785.41288 8.87395e-18
6787.32045 9.01760e-18
6789.22803 9.13508e-18
6791.13561 8.87790e-18
6793.04319 8.90872e-18
6794.95076 9.11346e-18
6796.84825 9.09565e-18
6798.75582 8.90964e-18
6800.66340 8.76792e-18
6802.57098 8.91665e-18
6804.47855 9.01961e-18
6806.38613 8.79620e-18
6808.29371 8.54861e-18
6810.20129 8.52993e-18
6812.10886 8.59719e-18
6814.01644 8.90856e-18
6815.92402 8.85040e-18
6817.82150 8.41740e-18
6819.72908 8.57817e-18
6821.63665 8.51684e-18
6823.54423 8.28354e-18
6825.45181 8.54227e-18
6827.35939 8.66841e-18
6829.26696 8.73201e-18
6831.17454 8.70473e-18
6833.08212 8.50047e-18
6834.98969 8.21250e-18
6836.88718 8.48674e-18
6838.79475 8.54818e-18
6840.70233 8.43633e-18
6842.60991 8.22728e-18
6844.51749 8.40506e-18
6846.42506 8.37903e-18
6848.33264 8.35301e-18
6850.24022 8.32699e-18
6852.14779 8.30098e-18
6854.05537 8.27495e-18
6855.95285 8.24893e-18
6857.86043 8.22292e-18
6859.76801 8.19691e-18
6861.67558 8.17090e-18
6863.58316 8.14490e-18
6865.49074 8.11889e-18
6867.39832 8.09288e-18
6869.30589 8.06688e-18
6871.21347 8.04088e-18
6873.12105 8.01489e-18
6875.02862 7.98890e-18
6876.92611 7.96290e-18
6878.83369 7.93691e-18
6880.74126 7.91092e-18
6882.64884 7.88494e-18
6884.55642 7.85896e-18
6886.46399 7.83298e-18
6888.37157 7.80700e-18
6890.27915 7.78102e-18
6892.18672 7.75505e-18
6894.09430 7.72907e-18
6895.99179 7.70311e-18
6897.89936 7.67714e-18
6899.80694 7.65117e-18
6901.71452 7.62520e-18
6903.62209 7.59924e-18
6905.52967 7.57328e-18
6907.43725 7.54733e-18
6909.34482 7.52137e-18
6911.25240 7.49542e-18
6913.15998 7.46947e-18
6915.06756 7.44352e-18
6916.96504 7.41758e-18
6918.87262 7.39163e-18
6920.78019 7.36569e-18
6922.68777 7.33975e-18
6924.59535 7.31381e-18
6926.50292 7.28787e-18
6928.41050 7.26195e-18
6930.31808 7.23601e-18
6932.22566 7.21008e-18
6934.13323 7.18415e-18
6936.03072 7.15823e-18
6937.93829 7.26395e-18
6939.84587 7.54400e-18
6941.75345 7.55616e-18
6943.66102 7.76400e-18
6945.56860 7.91578e-18
6947.47618 7.94390e-18
6949.38376 7.73326e-18
6951.29133 7.35603e-18
6953.19891 7.69616e-18
6955.10649 7.69722e-18
6957.00397 7.71710e-18
6958.91155 7.50859e-18
6960.81912 7.39196e-18
6962.72670 7.53344e-18
6964.63428 8.10169e-18
6966.54186 8.07874e-18
6968.44943 8.11773e-18
6970.35701 8.08227e-18
6972.26459 7.87680e-18
6974.17216 7.63658e-18
6976.06965 7.74489e-18
6977.97722 7.76748e-18
6979.88480 7.72415e-18
6981.79238 7.63402e-18
6983.69996 7.57080e-18
6985.60753 7.52674e-18
6987.51511 7.47395e-18
6989.42269 7.49642e-18
6991.33026 7.40960e-18
6993.23784 7.21840e-18
6995.14542 7.28731e-18
6997.04290 7.31223e-18
6998.95048 7.17065e-18
7000.85806 7.39230e-18
7002.76563 7.61008e-18
7004.67321 7.54882e-18
7006.58079 7.32779e-18
7008.48836 7.20249e-18
7010.39594 7.18365e-18
7012.30352 6.97530e-18
7014.21109 7.10510e-18
7016.10858 7.14339e-18
7018.01616 6.94266e-18
7019.92373 6.92057e-18
7021.83131 6.96835e-18
7023.73889 6.94866e-18
7025.64646 7.11485e-18
7027.55404 7.04241e-18
7029.46162 6.94641e-18
7031.36919 6.89225e-18
7033.27677 6.79151e-18
7035.18435 6.72207e-18
7037.08183 6.85870e-18
7038.98941 6.78875e-18
7040.89699 6.72685e-18
7042.80456 6.84277e-18
7044.71214 6.61644e-18
7046.61972 6.73087e-18
7048.52729 6.73350e-18
7050.43487 6.50728e-18
7052.34245 6.63557e-18
7054.25003 6.71050e-18
7056.14751 6.49330e-18
7058.05509 6.51407e-18
7059.96266 6.43582e-18
7061.87024 6.38333e-18
7063.77782 6.51312e-18
7065.68539 6.41402e-18
7067.59297 6.47825e-18
7069.50055 6.69785e-18
7071.40813 6.67480e-18
7073.31570 6.51627e-18
7075.22328 6.37805e-18
7077.12076 6.37307e-18
7079.02834 6.32391e-18
7080.93592 6.28675e-18
7082.84349 6.10203e-18
7084.75107 6.12776e-18
7086.65865 6.21228e-18
7088.56623 6.32109e-18
7090.47380 6.32456e-18
7092.38138 6.24874e-18
7094.28896 6.10976e-18
7096.18644 6.07339e-18
7098.09402 6.13111e-18
7100.00159 6.09680e-18
7101.90917 6.11381e-18
7103.81675 6.09736e-18
7105.72433 5.90777e-18
7107.63190 5.80552e-18
7109.53948 5.96080e-18
7111.44706 5.94766e-18
7113.35463 5.75426e-18
7115.26221 5.79620e-18
7117.15969 5.88685e-18
7119.06727 5.75688e-18
7120.97485 5.61782e-18
7122.88243 5.74487e-18
7124.79000 5.78527e-18
7126.69758 5.46314e-18
7128.60516 5.34911e-18
7130.51273 5.50586e-18
7132.42031 5.79651e-18
7134.32789 5.88662e-18
7136.22537 5.54331e-18
7138.13295 5.68401e-18
7140.04053 5.88024e-18
7141.94810 5.84790e-18
7143.85568 6.01332e-18
7145.76326 5.84649e-18
7147.67083 5.53415e-18
7149.57841 5.84076e-18
7151.48599 6.01987e-18
7153.39356 5.92231e-18
7155.29105 5.84195e-18
7157.19863 6.14858e-18
7159.10620 6.30232e-18
7161.01378 5.97536e-18
7162.92136 6.02543e-18
7164.82893 6.14086e-18
7166.73651 5.98865e-18
7168.64409 5.81825e-18
7170.55166 5.78268e-18
7172.45924 5.79586e-18
7174.36682 5.82370e-18
7176.27440 5.87081e-18
7178.17188 5.76297e-18
7180.07946 5.54134e-18
7181.98703 5.61624e-18
7183.89461 5.70234e-18
7185.80219 5.78093e-18
7187.70976 5.88633e-18
7189.61734 5.84558e-18
7191.52492 5.42422e-18
7193.43250 5.39741e-18
7195.34007 5.44588e-18
7197.23756 5.54730e-18
7199.14513 5.57666e-18
7201.05271 5.33358e-18
7202.96029 5.08926e-18
7204.86786 5.18178e-18
7206.77544 5.35787e-18
7208.68302 5.29601e-18
7210.59060 5.42876e-18
7212.49817 5.47347e-18
7214.40575 5.54168e-18
7216.30323 5.62554e-18
7218.21081 5.47187e-18
7220.11839 5.52489e-18
7222.02596 5.61455e-18
7223.93354 5.49863e-18
7225.84112 5.44553e-18
7227.74870 5.44777e-18
7229.65627 5.43201e-18
7231.56385 5.30053e-18
7233.47143 5.09740e-18
7235.37900 5.15141e-18
7237.27649 5.33504e-18
7239.18406 5.51090e-18
7241.09164 5.37063e-18
7242.99922 5.05502e-18
7244.90679 5.10573e-18
7246.81437 5.28900e-18
7248.72195 5.26996e-18
7250.62953 4.98887e-18
7252.53710 5.07684e-18
7254.44468 5.38642e-18
7256.34216 5.28458e-18
7258.24974 5.14613e-18
7260.15732 5.13035e-18
7262.06490 5.15329e-18
7263.97247 4.97699e-18
7265.88005 4.79557e-18
7267.78763 5.04703e-18
7269.69520 5.29199e-18
7271.60278 5.11290e-18
7273.51036 4.97797e-18
7275.41793 4.94479e-18
7277.31542 4.99661e-18
7279.22300 5.03643e-18
7281.13057 5.05637e-18
7283.03815 5.22860e-18
7284.94573 5.42124e-18
7286.85330 5.08234e-18
7288.76088 4.75388e-18
7290.66846 4.87406e-18
7292.57603 5.11760e-18
7294.48361 5.15392e-18
7296.38110 5.12449e-18
7298.28867 5.02532e-18
7300.19625 4.95716e-18
7302.10383 4.82429e-18
7304.01140 4.82070e-18
7305.91898 4.90777e-18
7307.82656 4.71976e-18
7309.73413 4.88714e-18
7311.64171 5.04409e-18
7313.54929 5.03925e-18
7315.45687 4.98416e-18
7317.35435 4.80803e-18
7319.26193 4.91612e-18
7321.16950 4.88677e-18
7323.07708 4.80568e-18
7324.98466 4.82651e-18
7326.89223 4.98191e-18
7328.79981 4.97754e-18
7330.70739 4.91631e-18
7332.61497 4.89762e-18
7334.52254 5.00580e-18
7336.42003 5.19337e-18
7338.32760 5.21805e-18
7340.23518 4.97634e-18
7342.14276 5.00903e-18
7344.05033 5.18318e-18
7345.95791 4.82421e-18
7347.86549 4.84770e-18
7349.77307 4.99756e-18
7351.68064 4.93762e-18
7353.58822 4.82631e-18
7355.48570 4.94545e-18
7357.39328 4.87775e-18
7359.30086 4.88523e-18
7361.20843 4.87419e-18
7363.11601 4.59519e-18
7365.02359 4.77007e-18
7366.93117 4.95968e-18
7368.83874 5.16824e-18
7370.74632 5.16979e-18
7372.65390 5.18175e-18
7374.56147 4.79626e-18
7376.45896 4.54303e-18
7378.36653 4.60101e-18
7380.27411 4.73259e-18
7382.18169 4.88425e-18
7384.08927 4.60731e-18
7385.99684 4.71349e-18
7387.90442 5.04003e-18
7389.81200 5.00480e-18
7391.71957 4.69913e-18
7393.62715 4.55281e-18
7395.52463 4.74259e-18
7397.43221 4.84174e-18
7399.33979 4.64575e-18
7401.24737 4.55884e-18
7403.15494 4.68615e-18
7405.06252 4.71182e-18
7406.97010 4.54644e-18
7408.87767 4.49795e-18
7410.78525 4.53483e-18
7412.69283 4.55469e-18
7414.60040 4.54454e-18
7416.49789 4.40130e-18
7418.40547 4.51007e-18
7420.31304 4.35620e-18
7422.22062 4.22656e-18
7424.12820 4.43254e-18
7426.03577 4.62043e-18
7427.94335 4.57752e-18
7429.85093 4.42614e-18
7431.75850 4.60294e-18
7433.66608 4.75044e-18
7435.57366 4.78428e-18
7437.47114 4.75939e-18
7439.37872 4.47282e-18
7441.28630 4.32156e-18
7443.19387 4.28317e-18
7445.10145 4.43752e-18
7447.00903 4.51716e-18
7448.91660 4.74436e-18
7450.82418 4.52956e-18
7452.73176 4.37653e-18
7454.63934 4.30966e-18
7456.53682 4.21551e-18
7458.44440 4.26349e-18
7460.35197 4.20263e-18
7462.25955 4.02664e-18
7464.16713 4.03902e-18
7466.07470 4.15892e-18
7467.98228 4.35267e-18
7469.88986 4.40443e-18
7471.79744 4.39652e-18
7473.70501 4.53454e-18
7475.61259 4.61493e-18
7477.51007 4.48958e-18
7479.41765 4.43459e-18
7481.32523 4.40806e-18
7483.23280 4.09260e-18
7485.14038 4.22872e-18
7487.04796 4.31220e-18
7488.95554 4.13202e-18
7490.86311 4.15047e-18
7492.77069 4.31610e-18
7494.67827 4.45391e-18
7496.57575 4.34943e-18
7498.48333 4.15702e-18
7500.39090 4.11697e-18
7502.29848 4.31016e-18
7504.20606 4.44024e-18
7506.11364 4.31178e-18
7508.02121 4.15336e-18
7509.92879 4.20430e-18
7511.83637 4.21898e-18
7513.74394 4.38762e-18
7515.65152 4.27179e-18
7517.54900 3.99677e-18
7519.45658 4.11357e-18
7521.36416 4.43685e-18
7523.27174 4.47724e-18
7525.17931 4.26803e-18
7527.08689 4.17611e-18
7528.99447 4.11640e-18
7530.90204 4.17851e-18
7532.80962 4.20178e-18
7534.71720 4.37587e-18
7536.61468 4.24378e-18
7538.52226 3.98904e-18
7540.42984 3.86973e-18
7542.33741 4.02813e-18
7544.24499 4.21921e-18
7546.15257 4.17428e-18
7548.06014 4.05820e-18
7549.96772 4.05042e-18
7551.87530 4.04264e-18
7553.78287 4.03487e-18
7555.68036 4.02709e-18
7557.58794 4.01932e-18
7559.49551 4.01154e-18
7561.40309 4.00377e-18
7563.31067 3.99599e-18
7565.21824 3.98822e-18
7567.12582 3.98045e-18
7569.03340 3.97268e-18
7570.94097 3.96491e-18
7572.84855 3.95714e-18
7574.75613 3.94937e-18
7576.65361 3.94160e-18
7578.56119 3.93383e-18
7580.46877 3.92607e-18
7582.37634 3.91830e-18
7584.28392 3.91053e-18
7586.19150 3.90277e-18
7588.09907 3.89500e-18
7590.00665 3.88724e-18
7591.91423 3.87948e-18
7593.82181 3.87171e-18
7595.71929 3.86395e-18
7597.62687 3.85619e-18
7599.53444 3.84843e-18
7601.44202 3.84067e-18
7603.34960 3.83291e-18
7605.25717 3.82516e-18
7607.16475 3.81740e-18
7609.07233 3.80964e-18
7610.97991 3.80189e-18
7612.88748 3.79413e-18
7614.79506 3.78638e-18
7616.69254 3.77862e-18
7618.60012 3.77087e-18
7620.50770 3.76312e-18
7622.41527 3.75537e-18
7624.32285 3.74761e-18
7626.23043 3.73986e-18
7628.13801 3.73211e-18
7630.04558 3.72436e-18
7631.95316 3.71661e-18
7633.86074 3.70887e-18
7635.75822 3.70112e-18
7637.66580 3.69338e-18
7639.57337 3.68563e-18
7641.48095 3.67788e-18
7643.38853 3.67014e-18
7645.29611 3.66240e-18
7647.20368 3.65466e-18
7649.11126 3.64691e-18
7651.01884 3.63917e-18
7652.92641 3.63143e-18
7654.83399 3.62369e-18
7656.73147 3.61595e-18
7658.63905 3.60821e-18
7660.54663 3.60048e-18
7662.45421 3.59274e-18
7664.36178 3.58500e-18
7666.26936 3.57727e-18
7668.17694 3.56953e-18
7670.08451 3.56180e-18
7671.99209 3.55406e-18
7673.89967 3.54633e-18
7675.79715 3.53860e-18
7677.70473 3.53087e-18
7679.61231 3.52314e-18
7681.51988 3.51541e-18
7683.42746 3.56382e-18
7685.33504 3.61328e-18
7687.24261 3.66546e-18
7689.15019 3.61370e-18
7691.05777 3.38283e-18
7692.96534 3.46955e-18
7694.87292 3.64728e-18
7696.77041 3.64579e-18
7698.67798 3.74339e-18
7700.58556 3.78838e-18
7702.49314 3.69410e-18
7704.40071 3.68500e-18
7706.30829 3.70032e-18
7708.21587 3.68305e-18
7710.12344 3.73519e-18
7712.03102 3.74154e-18
7713.93860 3.91518e-18
7715.84618 4.01705e-18
7717.74366 3.90356e-18
7719.65124 3.64893e-18
7721.55881 3.70868e-18
7723.46639 3.81679e-18
7725.37397 3.74132e-18
7727.28154 3.60040e-18
7729.18912 3.38856e-18
7731.09670 3.58349e-18
7733.00428 3.53746e-18
7734.91185 3.44854e-18
7736.80934 3.58049e-18
7738.71691 3.47510e-18
7740.62449 3.49918e-18
7742.53207 3.65258e-18
7744.43964 3.80908e-18
7746.34722 4.21994e-18
7748.25480 4.15762e-18
7750.16238 3.71986e-18
7752.06995 3.73785e-18
7753.97753 3.73581e-18
7755.87501 3.85124e-18
7757.78259 3.78047e-18
7759.69017 3.61783e-18
7761.59774 3.78848e-18
7763.50532 3.57702e-18
7765.41290 3.35663e-18
7767.32048 3.45446e-18
7769.22805 3.58521e-18
7771.13563 3.60103e-18
7773.04321 3.54706e-18
7774.95078 3.64362e-18
7776.84827 3.76523e-18
7778.75584 3.73491e-18
7780.66342 3.77298e-18
7782.57100 3.72327e-18
7784.47858 3.57799e-18
7786.38615 3.60985e-18
7788.29373 3.54236e-18
7790.20131 3.75865e-18
7792.10888 3.90360e-18
7794.01646 3.72869e-18
7795.91394 3.74451e-18
7797.82152 3.61035e-18
7799.72910 3.61615e-18
7801.63668 3.53702e-18
7803.54425 3.62008e-18
7805.45183 3.47653e-18
7807.35941 3.56355e-18
7809.26698 3.61912e-18
7811.17456 3.42787e-18
7813.08214 3.41795e-18
7814.98971 3.64078e-18
7816.88720 3.73771e-18
7818.79478 4.12639e-18
7820.70235 4.18218e-18
7822.60993 3.86417e-18
7824.51751 3.68881e-18
7826.42508 3.68389e-18
7828.33266 3.57402e-18
7830.24024 3.46807e-18
7832.14781 3.61970e-18
7834.05539 3.60401e-18
7835.95288 3.54762e-18
7837.86045 3.49203e-18
7839.76803 3.47579e-18
7841.67561 3.47132e-18
7843.58318 3.48660e-18
7845.49076 3.59639e-18
7847.39834 3.56918e-18
7849.30591 3.65717e-18
7851.21349 3.99535e-18
7853.12107 4.05932e-18
7855.02865 3.92036e-18
7856.92613 3.65660e-18
7858.83371 3.68040e-18
7860.74128 3.68734e-18
7862.64886 3.48989e-18
7864.55644 3.45078e-18
7866.46401 3.77256e-18
7868.37159 4.09352e-18
7870.27917 3.97514e-18
7872.18674 3.72010e-18
7874.09432 3.54360e-18
7875.99181 3.77191e-18
7877.89938 3.72873e-18
7879.80696 3.57659e-18
7881.71454 3.59287e-18
7883.62211 3.50208e-18
7885.52969 3.49296e-18
7887.43727 3.71006e-18
7889.34485 3.76709e-18
7891.25242 3.64299e-18
7893.16000 3.52910e-18
7895.05748 3.40415e-18
7896.96506 3.33176e-18
7898.87264 3.26749e-18
7900.78021 3.46263e-18
7902.68779 3.60614e-18
7904.59537 3.35756e-18
7906.50295 3.24894e-18
7908.41052 3.54800e-18
7910.31810 3.56890e-18
7912.22568 3.55923e-18
7914.13325 3.55686e-18
7916.03074 3.55352e-18
7917.93831 3.55017e-18
7919.84589 3.54683e-18
7921.75347 3.54349e-18
7923.66105 3.54017e-18
7925.56862 3.53684e-18
7927.47620 3.53351e-18
7929.38378 3.53018e-18
7931.29135 3.52686e-18
7933.19893 3.52355e-18
7935.10651 3.52023e-18
7937.00399 3.51692e-18
7938.91157 3.51361e-18
7940.81915 3.51031e-18
7942.72672 3.50702e-18
7944.63430 3.50373e-18
7946.54188 3.50045e-18
7948.44945 3.49716e-18
7950.35703 3.49389e-18
7952.26461 3.49062e-18
7954.17218 3.48736e-18
7956.06967 3.48535e-18
7957.97725 3.47220e-18
7959.88482 3.51955e-18
7961.79240 3.72551e-18
7963.69998 3.62904e-18
7965.60755 3.57105e-18
7967.51513 3.32045e-18
7969.42271 3.23928e-18
7971.33028 3.40696e-18
7973.23786 3.37795e-18
7975.14544 3.33996e-18
7977.04292 3.48966e-18
7978.95050 3.36319e-18
7980.85808 3.22795e-18
7982.76565 3.16245e-18
7984.67323 3.06282e-18
7986.58081 3.20613e-18
7988.48838 3.52024e-18
7990.39596 3.76320e-18
7992.30354 3.33835e-18
7994.21112 3.06873e-18
7996.10860 2.92690e-18
7998.01618 2.88772e-18
7999.92375 3.10101e-18
8001.83133 3.15577e-18
8003.73891 3.13936e-18
8005.64648 3.04505e-18
8007.55406 2.91980e-18
8009.46164 3.01994e-18
8011.36922 3.07689e-18
8013.27679 3.06729e-18
8015.18437 3.33834e-18
8017.08185 3.33198e-18
8018.98943 3.18819e-18
8020.89701 3.41545e-18
8022.80458 3.28341e-18
8024.71216 2.84174e-18
8026.61974 3.05961e-18
8028.52732 3.28279e-18
8030.43489 3.19254e-18
8032.34247 3.16825e-18
8034.25005 3.16342e-18
8036.14753 2.98490e-18
8038.05511 2.87459e-18
8039.96268 2.93138e-18
8041.87026 3.07769e-18
8043.77784 3.35512e-18
8045.68542 3.15146e-18
8047.59299 3.07305e-18
8049.50057 3.16645e-18
8051.40815 3.12079e-18
8053.31572 3.00480e-18
8055.22330 3.02204e-18
8057.12078 3.16719e-18
8059.02836 3.44383e-18
8060.93594 3.20719e-18
8062.84352 3.17297e-18
8064.75109 3.07458e-18
8066.65867 2.91049e-18
8068.56625 2.96476e-18
8070.47382 2.91245e-18
8072.38140 2.98620e-18
8074.28898 2.99162e-18
8076.18646 2.92367e-18
8078.09404 2.98048e-18
8080.00162 3.04680e-18
8081.90919 3.03872e-18
8083.81677 3.06912e-18
8085.72435 3.07792e-18
8087.63192 2.91595e-18
8089.53950 2.84972e-18
8091.44708 3.01461e-18
8093.35465 3.08147e-18
8095.26223 2.88672e-18
8097.15972 2.90511e-18
8099.06729 3.02979e-18
8100.97487 2.81616e-18
8102.88245 2.84157e-18
8104.79002 2.84176e-18
8106.69760 2.87107e-18
8108.60518 2.94998e-18
8110.51275 2.92231e-18
8112.42033 2.93557e-18
8114.32791 2.79980e-18
8116.22539 2.76115e-18
8118.13297 2.80239e-18
8120.04055 2.75773e-18
8121.94812 2.75152e-18
8123.85570 2.80374e-18
8125.76328 2.82463e-18
8127.67085 2.66454e-18
8129.57843 2.72453e-18
8131.48601 2.83874e-18
8133.39359 2.85758e-18
8135.29107 2.82489e-18
8137.19865 2.64511e-18
8139.10622 2.66593e-18
8141.01380 2.74740e-18
8142.92138 2.78915e-18
8144.82895 2.77090e-18
8146.73653 2.76412e-18
8148.64411 2.54726e-18
8150.55169 2.51274e-18
8152.45926 2.60465e-18
8154.36684 2.55235e-18
8156.26432 2.42692e-18
8158.17190 2.46175e-18
8160.07948 2.48083e-18
8161.98705 2.47820e-18
8163.89463 2.45194e-18
8165.80221 2.47677e-18
8167.70979 2.52628e-18
8169.61736 2.55224e-18
8171.52494 2.49744e-18
8173.43252 2.50111e-18
8175.33000 2.47200e-18
8177.23758 2.33059e-18
8179.14515 2.31425e-18
8181.05273 2.45126e-18
8182.96031 2.38890e-18
8184.86789 2.24770e-18
8186.77546 2.35600e-18
8188.68304 2.56516e-18
8190.59062 2.56693e-18
8192.49819 2.57252e-18
8194.40577 2.63239e-18
8196.30325 2.54542e-18
8198.21083 2.37752e-18
8200.11841 2.44631e-18
8202.02599 2.53815e-18
8203.93356 2.46006e-18
8205.84114 2.43000e-18
8207.74872 2.44621e-18
8209.65629 2.54399e-18
8211.56387 2.59634e-18
8213.47145 2.56625e-18
8215.37902 2.49998e-18
8217.27651 2.48974e-18
8219.18409 2.49695e-18
8221.09166 2.61347e-18
8222.99924 2.51595e-18
8224.90682 2.46324e-18
8226.81439 2.35317e-18
8228.72197 2.21257e-18
8230.62955 2.17172e-18
8232.53712 2.27653e-18
8234.44470 2.34015e-18
8236.34219 2.40329e-18
8238.24976 2.47842e-18
8240.15734 2.56632e-18
8242.06492 2.64596e-18
8243.97249 2.61337e-18
8245.88007 2.66612e-18
8247.78765 2.60106e-18
8249.69522 2.41706e-18
8251.60280 2.51476e-18
8253.51038 2.57777e-18
8255.40786 2.46356e-18
8257.31544 2.35173e-18
8259.22302 2.35145e-18
8261.13059 2.39627e-18
8263.03817 2.46379e-18
8264.94575 2.60487e-18
8266.85332 2.50281e-18
8268.76090 2.46039e-18
8270.66848 2.42324e-18
8272.57606 2.52935e-18
8274.48363 2.44240e-18
8276.38112 2.70753e-18
8278.28869 3.11144e-18
8280.19627 2.78221e-18
8282.10385 2.61815e-18
8284.01142 2.62952e-18
8285.91900 2.62164e-18
8287.82658 2.43764e-18
8289.73416 2.59037e-18
8291.64173 2.50962e-18
8293.54931 2.41055e-18
8295.44679 2.56274e-18
8297.35437 2.77187e-18
8299.26195 2.77105e-18
8301.16952 2.69282e-18
8303.07710 2.49841e-18
8304.98468 2.36261e-18
8306.89226 2.51173e-18
8308.79983 2.63062e-18
8310.70741 2.47111e-18
8312.61499 2.23136e-18
8314.52256 2.30853e-18
8316.42005 2.43187e-18
8318.32762 2.35312e-18
8320.23520 2.42090e-18
8322.14278 2.41457e-18
8324.05036 2.37309e-18
8325.95793 2.49534e-18
8327.86551 2.53145e-18
8329.77309 2.52161e-18
8331.68066 2.38654e-18
8333.58824 2.41502e-18
8335.49582 2.40482e-18
8337.39330 2.34917e-18
8339.30088 2.28610e-18
8341.20846 2.99350e-18
8343.11603 3.35178e-18
8345.02361 2.92460e-18
8346.93119 3.24118e-18
8348.83876 3.01506e-18
8350.74634 2.78989e-18
8352.65392 2.65141e-18
8354.56149 2.27216e-18
8356.45898 2.26009e-18
8358.36656 2.24288e-18
8360.27413 2.37887e-18
8362.18171 2.41191e-18
8364.08929 2.37091e-18
8365.99686 2.39695e-18
8367.90444 2.48173e-18
8369.81202 2.44768e-18
8371.71959 2.41428e-18
8373.62717 2.39045e-18
8375.52466 2.44298e-18
8377.43223 2.43348e-18
8379.33981 2.43156e-18
8381.24739 2.51431e-18
8383.15496 2.49519e-18
8385.06254 2.35729e-18
8386.97012 2.41139e-18
8388.87769 2.34012e-18
8390.78527 2.24577e-18
8392.69285 2.20258e-18
8394.60043 2.38464e-18
8396.49791 2.44929e-18
8398.40549 2.54773e-18
8400.31306 2.63813e-18
8402.22064 2.58636e-18
8404.12822 2.59606e-18
8406.03579 2.46018e-18
8407.94337 2.49491e-18
8409.85095 2.62251e-18
8411.75853 2.67651e-18
8413.66610 2.89919e-18
8415.56359 2.87917e-18
8417.47116 2.74955e-18
8419.37874 2.51782e-18
8421.28632 2.37925e-18
8423.19389 2.33627e-18
8425.10147 2.38071e-18
8427.00905 2.70403e-18
8428.91662 3.18494e-18
8430.82420 3.11005e-18
8432.73178 2.57434e-18
8434.63936 2.31539e-18
8436.53684 2.37308e-18
8438.44442 2.35423e-18
8440.35199 2.31455e-18
8442.25957 2.39108e-18
8444.16715 2.41698e-18
8446.07473 2.38456e-18
8447.98230 2.29102e-18
8449.88988 2.26778e-18
8451.79746 2.59714e-18
8453.70503 2.74117e-18
8455.61261 2.59200e-18
8457.51009 2.42814e-18
8459.41767 2.32645e-18
8461.32525 2.34863e-18
8463.23283 2.47617e-18
8465.14040 2.61567e-18
8467.04798 2.40524e-18
8468.95556 2.23515e-18
8470.86313 2.41733e-18
8472.77071 2.41023e-18
8474.66819 2.50230e-18
8476.57577 2.48385e-18
8478.48335 2.49388e-18
8480.39093 2.36863e-18
8482.29850 2.36463e-18
8484.20608 2.32812e-18
8486.11366 2.26241e-18
8488.02123 2.28752e-18
8489.92881 2.38690e-18
8491.83639 2.52966e-18
8493.74396 2.56397e-18
8495.64145 2.39868e-18
8497.54903 2.29018e-18
8499.45660 2.44369e-18
8501.36418 2.45029e-18
8503.27176 2.47592e-18
8505.17933 2.55382e-18
8507.08691 2.61235e-18
8508.99449 2.46043e-18
8510.90206 2.27097e-18
8512.80964 2.31425e-18
8514.71722 2.41598e-18
8516.61470 2.44427e-18
8518.52228 2.41756e-18
8520.42986 2.35665e-18
8522.33743 2.38581e-18
8524.24501 2.43128e-18
8526.15259 2.30269e-18
8528.06016 2.25150e-18
8529.96774 2.26893e-18
8531.87532 2.29829e-18
8533.78290 2.29975e-18
8535.69047 2.27410e-18
8537.58796 2.26712e-18
8539.49553 2.16810e-18
8541.40311 2.23825e-18
8543.31069 2.40268e-18
8545.21826 2.40973e-18
8547.12584 2.35752e-18
8549.03342 2.44181e-18
8550.94100 2.32001e-18
8552.84857 2.28713e-18
8554.74606 2.45902e-18
8556.65363 2.28269e-18
8558.56121 2.16974e-18
8560.46879 2.29303e-18
8562.37636 2.35537e-18
8564.28394 2.30759e-18
8566.19152 2.35465e-18
8568.09909 2.29655e-18
8570.00667 2.27578e-18
8571.91425 2.44095e-18
8573.82183 2.50095e-18
8575.72940 2.30783e-18
8577.62689 2.21487e-18
8579.53446 2.24006e-18
8581.44204 2.23395e-18
8583.34962 2.17362e-18
8585.25720 2.15224e-18
8587.16477 2.11850e-18
8589.07235 2.20710e-18
8590.97993 2.24127e-18
8592.88750 2.24918e-18
8594.79508 2.28724e-18
8596.69256 2.42619e-18
8598.60014 2.40628e-18
8600.50772 2.34461e-18
8602.41530 2.23400e-18
8604.32287 2.17796e-18
8606.23045 2.15944e-18
8608.13803 2.26974e-18
8610.04560 2.17236e-18
8611.95318 2.24102e-18
8613.86076 2.33259e-18
8615.75824 2.28209e-18
8617.66582 2.17491e-18
8619.57340 2.11603e-18
8621.48097 2.22179e-18
8623.38855 2.20331e-18
8625.29613 2.04366e-18
8627.20370 1.96131e-18
8629.11128 2.18734e-18
8631.01886 2.35072e-18
8632.92643 2.26082e-18
8634.82392 2.15803e-18
8636.73149 2.23022e-18
8638.63907 2.30430e-18
8640.54665 2.30089e-18
8642.45423 2.21913e-18
8644.36180 2.14319e-18
8646.26938 2.06159e-18
8648.17696 1.95197e-18
8650.08453 2.02877e-18
8651.99211 2.05148e-18
8653.89969 2.14303e-18
8655.79717 2.10029e-18
8657.70475 2.19075e-18
8659.61233 2.27250e-18
8661.51990 2.27831e-18
8663.42748 2.23079e-18
8665.33506 2.34076e-18
8667.24263 2.26039e-18
8669.15021 2.16754e-18
8671.05779 2.11737e-18
8672.96537 2.07042e-18
8674.87294 2.01898e-18
8676.77043 1.98605e-18
8678.67800 2.02983e-18
8680.58558 1.96849e-18
8682.49316 1.99682e-18
8684.40073 2.12040e-18
8686.30831 2.17766e-18
8688.21589 2.29952e-18
8690.12347 2.24011e-18
8692.03104 2.07541e-18
8693.93862 2.07860e-18
8695.83610 2.15893e-18
8697.74368 2.24197e-18
8699.65126 2.21117e-18
8701.55883 2.07248e-18
8703.46641 1.93808e-18
8705.37399 2.02784e-18
8707.28156 2.19785e-18
8709.18914 2.07909e-18
8711.09672 1.99715e-18
8713.00430 1.98862e-18
8714.91187 1.90594e-18
8716.80936 1.98572e-18
8718.71693 2.05337e-18
8720.62451 1.99781e-18
8722.53209 2.14614e-18
8724.43966 2.10962e-18
8726.34724 2.02771e-18
8728.25482 2.05384e-18
8730.16240 1.98780e-18
8732.06997 2.15326e-18
8733.97755 2.12064e-18
8735.87503 2.08398e-18
8737.78261 2.00259e-18
8739.69019 2.02623e-18
8741.59777 2.08452e-18
8743.50534 1.91976e-18
8745.41292 1.92933e-18
8747.32050 2.00211e-18
8749.22807 2.01284e-18
8751.13565 1.96696e-18
8753.04323 1.88749e-18
8754.94071 1.98298e-18
8756.84829 1.93606e-18
8758.75586 2.01539e-18
8760.66344 2.10883e-18
8762.57102 2.00578e-18
8764.47860 2.31536e-18
8766.38617 2.49702e-18
8768.29375 2.27311e-18
8770.20133 2.31689e-18
8772.10890 2.20891e-18
8774.01648 2.16300e-18
8775.91396 2.26403e-18
8777.82154 2.17084e-18
8779.72912 2.08849e-18
8781.63670 2.16073e-18
8783.54427 2.41355e-18
8785.45185 2.20359e-18
8787.35943 1.83990e-18
8789.26700 1.89909e-18
8791.17458 1.68949e-18
8793.08216 1.86968e-18
8794.98974 2.02185e-18
8796.88722 2.04350e-18
8798.79480 1.95849e-18
8800.70237 1.79030e-18
8802.60995 1.73702e-18
8804.51753 1.92423e-18
8806.42510 1.84831e-18
8808.33268 1.81412e-18
8810.24026 1.83968e-18
8812.14784 1.78697e-18
8814.04532 1.80936e-18
8815.95290 1.80368e-18
8817.86047 1.87139e-18
8819.76805 1.93620e-18
8821.67563 1.99462e-18
8823.58320 1.94933e-18
8825.49078 1.84506e-18
8827.39836 1.83601e-18
8829.30594 1.85746e-18
8831.21351 2.27069e-18
8833.12109 2.67355e-18
8835.02867 2.70197e-18
8836.92615 2.88519e-18
8838.83373 2.30596e-18
8840.74130 2.08397e-18
8842.64888 1.76855e-18
8844.55646 1.93850e-18
8846.46404 1.84934e-18
8848.37161 1.62159e-18
8850.27919 1.71840e-18
8852.18677 1.77625e-18
8854.09434 1.78844e-18
8855.99183 1.82988e-18
8857.89940 1.81998e-18
8859.80698 1.79135e-18
8861.71456 1.89884e-18
8863.62214 1.81669e-18
8865.52971 1.59712e-18
8867.43729 1.56095e-18
8869.34487 1.69217e-18
8871.25244 1.86036e-18
8873.16002 1.93341e-18
8875.06760 2.01969e-18
8876.96508 2.04640e-18
8878.87266 1.90291e-18
8880.78024 1.69583e-18
8882.68781 1.57687e-18
8884.59539 1.69922e-18
8886.50297 1.65505e-18
8888.41054 1.62999e-18
8890.31812 1.61951e-18
8892.22570 1.57975e-18
8894.13327 1.92087e-18
8896.03076 2.27922e-18
8897.93834 2.22641e-18
8899.84591 2.07275e-18
8901.75349 1.78064e-18
8903.66107 1.63498e-18
8905.56864 1.55793e-18
8905.99899 1.55793e-18
8908.00199 1.57276e-18
8910.00499 1.58734e-18
8911.99798 1.58571e-18
8914.00098 1.56887e-18
8916.00397 1.60437e-18
8917.99696 1.63417e-18
8919.99996 1.56322e-18
8922.00296 1.56008e-18
8923.99595 1.56276e-18
8925.99894 1.56487e-18
8928.00194 1.58399e-18
8929.99493 1.57364e-18
8931.99793 1.55248e-18
8934.00093 1.54132e-18
8936.00393 1.54099e-18
8937.99692 1.52901e-18
8939.99992 1.54286e-18
8942.00292 1.52226e-18
8943.99590 1.56386e-18
8945.99890 1.56144e-18
8948.00190 1.52902e-18
8949.99489 1.52036e-18
8951.99789 1.51446e-18
8954.00089 1.54781e-18
8956.00389 1.55838e-18
8957.99687 1.54717e-18
8959.99987 1.51698e-18
8962.00287 1.52327e-18
8963.99586 1.54320e-18
8965.99885 1.56141e-18
8968.00186 1.52329e-18
8970.00486 1.54292e-18
8971.99784 1.55991e-18
8974.00084 1.56326e-18
8976.00384 1.55524e-18
8977.99683 1.51068e-18
8979.99982 1.54274e-18
8982.00282 1.59588e-18
8983.99581 1.52770e-18
8985.99881 1.51603e-18
8988.00181 1.60779e-18
8990.00481 1.51373e-18
8991.99780 1.57417e-18
8994.00080 1.53619e-18
8996.00380 1.54787e-18
8997.99678 1.52387e-18
8999.99978 1.53062e-18
9002.00278 1.57355e-18
9003.99577 1.62048e-18
9005.99877 1.59820e-18
9008.00177 1.58583e-18
9009.99475 1.57377e-18
9011.99775 1.66780e-18
9014.00075 1.64485e-18
9016.00375 1.64748e-18
9017.99674 1.72053e-18
9019.99973 1.56325e-18
9022.00274 1.56476e-18
9023.99572 1.57294e-18
9025.99872 1.58835e-18
9028.00172 1.52768e-18
9030.00472 1.51834e-18
9031.99770 1.51153e-18
9034.00071 1.54009e-18
9036.00370 1.53495e-18
9037.99669 1.47727e-18
9039.99969 1.47156e-18
9042.00269 1.51549e-18
9043.99568 1.52519e-18
9045.99868 1.47400e-18
9048.00168 1.51988e-18
9050.00468 1.49430e-18
9051.99766 1.48446e-18
9054.00066 1.53193e-18
9056.00366 1.49302e-18
9057.99665 1.49025e-18
9059.99965 1.50973e-18
9062.00265 1.51133e-18
9063.99563 1.55617e-18
9065.99863 1.51548e-18
9068.00163 1.50378e-18
9070.00463 1.48159e-18
9071.99762 1.45618e-18
9074.00062 1.51552e-18
9076.00361 1.52892e-18
9077.99660 1.47312e-18
9079.99960 1.49140e-18
9082.00260 1.51281e-18
9083.99559 1.47285e-18
9085.99858 1.42564e-18
9088.00158 1.48999e-18
9090.00459 1.48885e-18
9091.99757 1.45886e-18
9094.00057 1.48331e-18
9096.00357 1.49001e-18
9097.99656 1.43570e-18
9099.99956 1.47763e-18
9102.00256 1.51488e-18
9103.99554 1.47217e-18
9105.99854 1.47749e-18
9108.00154 1.48344e-18
9110.00454 1.47947e-18
9111.99753 1.47158e-18
9114.00053 1.48162e-18
9116.00353 1.42791e-18
9117.99651 1.46400e-18
9119.99951 1.48034e-18
9122.00251 1.47401e-18
9123.99550 1.47391e-18
9125.99849 1.48405e-18
9128.00150 1.45085e-18
9130.00450 1.47543e-18
9131.99748 1.49417e-18
9134.00048 1.42302e-18
9136.00348 1.51658e-18
9137.99647 1.49087e-18
9139.99947 1.46968e-18
9142.00246 1.45639e-18
9143.99545 1.44677e-18
9145.99845 1.44440e-18
9148.00145 1.48151e-18
9150.00445 1.45446e-18
9151.99744 1.48807e-18
9154.00044 1.46180e-18
9156.00344 1.48177e-18
9157.99642 1.45423e-18
9159.99942 1.43167e-18
9162.00242 1.47111e-18
9163.99541 1.45631e-18
9165.99841 1.45530e-18
9168.00141 1.46016e-18
9170.00441 1.46815e-18
9171.99739 1.44512e-18
9174.00039 1.45523e-18
9176.00339 1.48550e-18
9177.99638 1.45086e-18
9179.99938 1.46242e-18
9182.00238 1.43508e-18
9183.99536 1.44778e-18
9185.99836 1.45501e-18
9188.00136 1.41824e-18
9190.00436 1.44575e-18
9191.99734 1.46948e-18
9194.00035 1.41786e-18
9196.00335 1.44712e-18
9197.99633 1.45363e-18
9199.99933 1.43386e-18
9202.00233 1.44444e-18
9203.99532 1.41703e-18
9205.99831 1.43099e-18
9208.00131 1.47869e-18
9210.00432 1.45670e-18
9211.99730 1.46103e-18
9214.00030 1.47804e-18
9216.00330 1.49374e-18
9217.99629 1.46991e-18
9219.99929 1.50505e-18
9222.00229 1.48028e-18
9223.99527 1.49071e-18
9225.99827 1.56774e-18
9228.00127 1.61340e-18
9230.00427 1.63173e-18
9231.99726 1.57647e-18
9234.00026 1.54397e-18
9236.00326 1.48670e-18
9237.99624 1.48077e-18
9239.99924 1.46370e-18
9242.00224 1.42862e-18
9243.99523 1.42578e-18
9245.99822 1.42563e-18
9248.00122 1.41230e-18
9250.00423 1.40271e-18
9251.99721 1.45047e-18
9254.00021 1.41212e-18
9256.00321 1.40825e-18
9257.99619 1.40367e-18
9259.99920 1.41492e-18
9262.00219 1.42317e-18
9263.99518 1.45101e-18
9265.99818 1.43152e-18
9268.00118 1.40693e-18
9270.00418 1.43544e-18
9271.99717 1.39089e-18
9274.00017 1.43545e-18
9276.00317 1.40670e-18
9277.99615 1.39872e-18
9279.99915 1.45090e-18
9282.00215 1.41877e-18
9283.99514 1.38526e-18
9285.99813 1.43315e-18
9288.00114 1.43911e-18
9290.00414 1.41708e-18
9291.99712 1.40705e-18
9294.00012 1.43234e-18
9296.00312 1.42735e-18
9297.99611 1.41120e-18
9299.99911 1.41496e-18
9302.00210 1.40539e-18
9303.99509 1.43833e-18
9305.99809 1.35671e-18
9308.00109 1.34751e-18
9310.00409 1.51820e-18
9311.99707 1.42660e-18
9314.00007 1.31608e-18
9316.00308 1.40365e-18
9317.99606 1.45739e-18
9319.99906 1.43708e-18
9322.00206 1.35052e-18
9324.00506 1.44605e-18
9325.99805 1.44568e-18
9328.00105 1.42679e-18
9330.00405 1.34373e-18
9331.99703 1.36797e-18
9334.00003 1.43338e-18
9336.00303 1.42336e-18
9337.99602 1.43866e-18
9339.99902 1.42896e-18
9342.00202 1.27554e-18
9343.99500 1.47966e-18
9345.99800 1.52293e-18
9348.00100 1.40077e-18
9350.00400 1.35659e-18
9351.99698 1.28351e-18
9353.99999 1.46729e-18
9356.00299 1.37252e-18
9357.99597 1.41475e-18
9359.99897 1.51064e-18
9362.00197 1.39680e-18
9363.99496 1.29275e-18
9365.99796 1.37506e-18
9368.00095 1.34206e-18
9370.00396 1.35078e-18
9371.99694 1.48779e-18
9373.99994 1.36702e-18
9376.00294 1.36475e-18
9377.99593 1.36492e-18
9379.99893 1.35283e-18
9382.00193 1.46012e-18
9384.00493 1.39704e-18
9385.99791 1.33635e-18
9388.00091 1.40866e-18
9390.00391 1.33669e-18
9391.99690 1.31679e-18
9393.99990 1.36784e-18
9396.00290 1.33295e-18
9397.99588 1.31489e-18
9399.99888 1.35177e-18
9402.00188 1.36417e-18
9404.00488 1.35514e-18
9405.99787 1.34396e-18
9408.00086 1.32085e-18
9410.00387 1.37317e-18
9411.99685 1.40991e-18
9413.99985 1.36982e-18
9416.00285 1.31308e-18
9417.99583 1.36842e-18
9419.99884 1.32236e-18
9422.00183 1.35064e-18
9423.99482 1.26494e-18
9425.99782 1.24957e-18
9428.00082 1.40426e-18
9430.00382 1.47111e-18
9431.99681 1.37108e-18
9433.99981 1.30621e-18
9436.00281 1.27452e-18
9437.99579 1.30250e-18
9439.99879 1.33227e-18
9442.00179 1.41519e-18
9444.00479 1.36170e-18
9445.99778 1.35222e-18
9448.00078 1.29511e-18
9450.00378 1.36949e-18
9451.99676 1.31607e-18
9453.99976 1.25977e-18
9456.00276 1.43145e-18
9457.99575 1.26342e-18
9459.99875 1.25504e-18
9462.00174 1.39150e-18
9464.00475 1.32997e-18
9465.99773 1.30253e-18
9468.00073 1.25229e-18
9470.00373 1.35901e-18
9471.99671 1.29863e-18
9473.99971 1.27450e-18
9476.00272 1.38586e-18
9477.99570 1.28675e-18
9479.99870 1.25594e-18
9482.00170 1.41649e-18
9483.99469 1.36129e-18
9485.99769 1.27972e-18
9488.00069 1.31290e-18
9490.00369 1.31035e-18
9491.99667 1.25356e-18
9493.99967 1.33512e-18
9496.00267 1.34182e-18
9497.99566 1.28557e-18
9499.99866 1.28121e-18
9502.00166 1.41859e-18
9504.00466 1.32023e-18
9505.99764 1.31325e-18
9508.00064 1.30548e-18
9510.00364 1.33346e-18
9511.99662 1.28448e-18
9513.99963 1.27105e-18
9516.00263 1.24896e-18
9517.99561 1.30531e-18
9519.99861 1.28534e-18
9522.00161 1.30011e-18
9524.00461 1.30060e-18
9525.99760 1.25459e-18
9528.00059 1.29484e-18
9530.00360 1.32789e-18
9531.99658 1.28821e-18
9533.99958 1.26539e-18
9536.00258 1.32415e-18
9537.99556 1.33534e-18
9539.99856 1.28731e-18
9542.00157 1.29696e-18
9544.00456 1.40044e-18
9545.99755 1.48539e-18
9548.00055 1.40052e-18
9550.00355 1.33606e-18
9551.99654 1.29356e-18
9553.99954 1.34173e-18
9556.00254 1.36545e-18
9557.99552 1.35726e-18
9559.99852 1.30238e-18
9562.00152 1.23714e-18
9564.00452 1.28659e-18
9565.99751 1.28470e-18
9568.00050 1.26293e-18
9570.00351 1.25942e-18
9571.99649 1.23457e-18
9573.99949 1.22962e-18
9576.00249 1.23762e-18
9577.99547 1.21380e-18
9579.99848 1.25487e-18
9582.00148 1.34338e-18
9584.00447 1.26326e-18
9585.99746 1.22502e-18
9588.00046 1.19875e-18
9590.00346 1.24449e-18
9591.99644 1.28061e-18
9593.99944 1.26948e-18
9596.00245 1.21679e-18
9597.99543 1.25292e-18
9599.99843 1.27373e-18
9602.00143 1.24902e-18
9604.00443 1.22482e-18
9605.99742 1.24545e-18
9608.00042 1.27605e-18
9610.00342 1.28097e-18
9611.99640 1.25717e-18
9613.99940 1.23056e-18
9616.00240 1.21849e-18
9617.99539 1.21767e-18
9619.99839 1.20336e-18
9622.00139 1.23449e-18
9624.00439 1.21095e-18
9625.99737 1.23872e-18
9628.00037 1.27518e-18
9630.00337 1.26041e-18
9631.99636 1.19051e-18
9633.99935 1.20523e-18
9636.00236 1.23004e-18
9637.99534 1.27715e-18
9639.99834 1.23894e-18
9642.00134 1.20413e-18
9644.00434 1.20590e-18
9645.99733 1.26430e-18
9648.00032 1.22189e-18
9650.00332 1.20240e-18
9651.99631 1.23859e-18
9653.99931 1.22512e-18
9656.00231 1.23305e-18
9657.99530 1.20644e-18
9659.99830 1.20577e-18
9662.00130 1.24796e-18
9664.00430 1.25124e-18
9665.99728 1.20589e-18
9668.00028 1.19406e-18
9670.00328 1.23535e-18
9671.99627 1.25538e-18
9673.99927 1.25200e-18
9676.00227 1.26214e-18
9677.99525 1.19689e-18
9679.99825 1.19807e-18
9682.00125 1.21123e-18
9684.00425 1.21564e-18
9685.99724 1.20488e-18
9688.00023 1.23566e-18
9690.00324 1.20380e-18
9691.99622 1.22831e-18
9693.99922 1.22253e-18
9696.00222 1.19502e-18
9697.99520 1.19136e-18
9699.99820 1.18795e-18
9702.00121 1.19737e-18
9704.00420 1.19111e-18
9705.99719 1.16361e-18
9708.00019 1.20325e-18
9710.00319 1.20101e-18
9711.99618 1.16684e-18
9713.99918 1.20103e-18
9716.00218 1.24564e-18
9717.99516 1.18677e-18
9719.99816 1.21682e-18
9722.00116 1.21076e-18
9724.00416 1.25121e-18
9725.99715 1.20691e-18
9728.00014 1.25123e-18
9730.00315 1.18708e-18
9731.99613 1.18715e-18
9733.99913 1.18550e-18
9736.00213 1.20279e-18
9738.00513 1.23742e-18
9739.99812 1.20616e-18
9742.00112 1.16705e-18
9744.00411 1.21900e-18
9745.99710 1.21481e-18
9748.00010 1.21376e-18
9750.00310 1.19717e-18
9751.99609 1.17669e-18
9753.99908 1.16578e-18
9756.00209 1.21207e-18
9757.99507 1.22388e-18
9759.99807 1.19442e-18
9762.00107 1.20875e-18
9764.00407 1.22403e-18
9765.99706 1.18411e-18
9768.00006 1.18012e-18
9770.00306 1.19809e-18
9771.99604 1.17226e-18
9773.99904 1.18471e-18
9776.00204 1.17837e-18
9777.99503 1.19853e-18
9779.99803 1.18005e-18
9782.00103 1.20978e-18
9784.00403 1.19250e-18
9785.99701 1.20923e-18
9788.00001 1.18270e-18
9790.00301 1.17582e-18
9791.99600 1.19028e-18
9793.99899 1.26136e-18
9796.00200 1.18800e-18
9798.00500 1.17270e-18
9799.99798 1.21124e-18
9802.00098 1.18318e-18
9804.00398 1.18852e-18
9805.99697 1.23416e-18
9807.99997 1.19022e-18
9810.00296 1.18905e-18
9811.99595 1.19165e-18
9813.99895 1.17239e-18
9816.00195 1.14915e-18
9817.99494 1.15743e-18
9819.99794 1.19290e-18
9822.00094 1.18335e-18
9824.00394 1.17146e-18
9825.99692 1.21081e-18
9827.99992 1.18448e-18
9830.00292 1.19712e-18
9831.99591 1.21664e-18
9833.99891 1.20786e-18
9836.00191 1.21128e-18
9837.99489 1.20383e-18
9839.99789 1.20245e-18
9842.00089 1.17187e-18
9844.00389 1.17119e-18
9845.99688 1.17627e-18
9847.99988 1.16156e-18
9850.00288 1.17130e-18
9851.99586 1.17921e-18
9853.99886 1.19483e-18
9856.00186 1.16494e-18
9858.00486 1.17677e-18
9859.99784 1.18969e-18
9862.00085 1.17894e-18
9864.00384 1.19509e-18
9865.99683 1.18453e-18
9867.99983 1.18125e-18
9870.00283 1.19538e-18
9871.99582 1.16908e-18
9873.99881 1.21238e-18
9876.00181 1.17759e-18
9878.00482 1.18639e-18
9879.99780 1.17858e-18
9882.00080 1.20024e-18
9884.00380 1.18392e-18
9885.99679 1.19049e-18
9887.99979 1.15922e-18
9890.00279 1.14783e-18
9891.99577 1.16549e-18
9893.99877 1.16220e-18
9896.00177 1.18963e-18
9897.99476 1.16659e-18
9899.99776 1.17166e-18
9902.00076 1.16561e-18
9904.00375 1.15202e-18
9905.99674 1.16414e-18
9907.99974 1.13207e-18
9910.00274 1.16804e-18
9911.99573 1.16503e-18
9913.99872 1.24070e-18
9916.00173 1.17582e-18
9918.00473 1.18227e-18
9919.99771 1.17383e-18
9922.00071 1.14105e-18
9924.00371 1.11618e-18
9925.99669 1.16911e-18
9927.99970 1.15639e-18
9930.00269 1.15676e-18
9931.99568 1.16447e-18
9933.99868 1.19382e-18
9936.00168 1.16584e-18
9938.00468 1.16290e-18
9939.99767 1.15785e-18
9942.00067 1.12815e-18
9944.00367 1.13819e-18
9945.99665 1.14820e-18
9947.99965 1.20628e-18
9950.00265 1.15372e-18
9951.99564 1.13781e-18
9953.99863 1.17409e-18
9956.00164 1.14119e-18
9957.99462 1.14373e-18
9959.99762 1.12738e-18
9962.00062 1.17902e-18
9964.00362 1.15991e-18
9965.99661 1.15541e-18
9967.99961 1.15530e-18
9970.00260 1.15972e-18
9971.99559 1.16428e-18
9973.99859 1.12524e-18
9976.00159 1.13897e-18
9978.00459 1.15060e-18
9979.99757 1.16863e-18
9982.00058 1.14592e-18
9984.00358 1.14091e-18
9985.99656 1.13743e-18
9987.99956 1.10899e-18
9990.00256 1.15617e-18
9991.99555 1.15893e-18
9993.99855 1.12560e-18
9996.00155 1.15966e-18
9998.00455 1.11776e-18
9999.99753 1.12737e-18
