# wavelength flux
3300.65357 3.68522e-18
3303.65807 3.47315e-18
3306.66257 2.65729e-18
3309.65705 2.92784e-18
3312.66155 4.05747e-18
3315.66605 4.15692e-18
3318.66054 3.29900e-18
3321.66504 3.42778e-18
3324.66954 3.84183e-18
3327.67404 4.05265e-18
3330.66852 3.72506e-18
3333.67302 3.56767e-18
3336.67752 3.19265e-18
3339.67201 3.67215e-18
3342.67651 3.97024e-18
3345.68101 3.17753e-18
3348.67549 2.90587e-18
3351.67999 2.77894e-18
3354.68449 3.69103e-18
3357.67898 3.61700e-18
3360.68348 3.04860e-18
3363.68798 3.31065e-18
3366.69248 4.60363e-18
3369.68696 4.63081e-18
3372.69146 3.94384e-18
3375.69596 4.24246e-18
3378.69045 4.75566e-18
3381.69495 4.52280e-18
3384.69945 4.44829e-18
3387.69393 4.80956e-18
3390.69843 4.55684e-18
3393.70293 4.90833e-18
3396.69742 5.12667e-18
3399.70192 5.01926e-18
3402.70642 4.99558e-18
3405.70090 4.87907e-18
3408.70540 4.77543e-18
3411.70990 5.33196e-18
3414.71440 6.02770e-18
3417.70889 6.61061e-18
3420.71339 6.01149e-18
3423.71789 6.01630e-18
3426.71237 5.85407e-18
3429.71687 5.85692e-18
3432.72137 6.43433e-18
3435.71586 6.76904e-18
3438.72036 6.82160e-18
3441.72486 6.94470e-18
3444.71934 7.15964e-18
3447.72384 7.22998e-18
3450.72834 7.14732e-18
3453.73284 7.43212e-18
3456.72733 7.73856e-18
3459.73183 7.72025e-18
3462.73633 7.80887e-18
3465.73081 8.01736e-18
3468.73531 7.70896e-18
3471.73981 7.71707e-18
3474.73430 8.03715e-18
3477.73880 7.92524e-18
3480.74330 7.67431e-18
3483.73778 7.56552e-18
3486.74228 7.71820e-18
3489.74678 7.70006e-18
3492.75128 7.61353e-18
3495.74577 7.41854e-18
3498.75027 7.39051e-18
3501.75477 7.31783e-18
3504.74925 7.35906e-18
3507.75375 7.50243e-18
3510.75825 7.59557e-18
3513.75274 7.66021e-18
3516.75724 7.69923e-18
3519.76174 7.60234e-18
3522.75622 7.26137e-18
3525.76072 7.22495e-18
3528.76522 7.06926e-18
3531.75970 7.20711e-18
3534.76420 7.16085e-18
3537.76870 6.88800e-18
3540.77320 6.68613e-18
3543.76769 6.63443e-18
3546.77219 6.47955e-18
3549.77669 6.32142e-18
3552.77117 6.30691e-18
3555.77567 6.40205e-18
3558.78017 6.22985e-18
3561.77466 5.95178e-18
3564.77916 6.15771e-18
3567.78366 6.22329e-18
3570.77815 5.94356e-18
3573.78265 5.94781e-18
3576.78715 5.90771e-18
3579.79165 6.14892e-18
3582.78613 6.16864e-18
3585.79063 5.99680e-18
3588.79513 5.98344e-18
3591.78962 5.92005e-18
3594.79412 5.96515e-18
3597.79862 6.17112e-18
3600.79310 6.36636e-18
3603.79760 6.33742e-18
3606.80210 6.06875e-18
3609.79659 6.25182e-18
3612.80109 6.01927e-18
3615.80559 5.75482e-18
3618.81009 5.89100e-18
3621.80457 5.95139e-18
3624.80907 6.00790e-18
3627.81357 5.74772e-18
3630.80805 5.91686e-18
3633.81255 6.16686e-18
3636.81705 6.12925e-18
3639.81154 6.23421e-18
3642.81604 6.40178e-18
3645.82054 6.54099e-18
3648.81503 6.71359e-18
3651.81953 6.89414e-18
3654.82402 7.16313e-18
3657.81851 7.32390e-18
3660.82301 7.49763e-18
3663.82751 7.71190e-18
3666.83201 7.99335e-18
3669.82650 8.34659e-18
3672.83100 8.69351e-18
3675.83550 8.97878e-18
3678.82998 9.50249e-18
3681.83448 9.82801e-18
3684.83898 1.01631e-17
3687.83347 1.06060e-17
3690.83797 1.12401e-17
3693.84247 1.17806e-17
3696.83695 1.22103e-17
3699.84145 1.28895e-17
3702.84595 1.38799e-17
3705.85045 1.44839e-17
3708.84494 1.51635e-17
3711.84944 1.56631e-17
3714.85394 1.62360e-17
3717.84842 1.66684e-17
3720.85292 1.71682e-17
3723.85742 1.68846e-17
3726.85190 1.66696e-17
3729.85640 1.67429e-17
3732.86091 1.63909e-17
3735.85539 1.58615e-17
3738.85989 1.53409e-17
3741.86439 1.47646e-17
3744.85888 1.43366e-17
3747.86338 1.35640e-17
3750.86788 1.25729e-17
3753.87238 1.16920e-17
3756.86686 1.07963e-17
3759.87136 1.02743e-17
3762.87586 9.70896e-18
3765.87035 8.83233e-18
3768.87485 8.15350e-18
3771.87935 7.74089e-18
3774.87383 7.52036e-18
3777.87833 7.24540e-18
3780.88283 6.70691e-18
3783.87732 6.34049e-18
3786.88182 6.23236e-18
3789.88632 5.99954e-18
3792.89082 5.66209e-18
3795.88530 5.62609e-18
3798.88980 5.44412e-18
3801.89430 5.45153e-18
3804.88879 5.28633e-18
3807.89329 5.18542e-18
3810.89779 5.18998e-18
3813.89227 5.18219e-18
3816.89677 5.29725e-18
3819.90127 5.20986e-18
3822.89576 5.22164e-18
3825.90026 5.35631e-18
3828.90476 5.56582e-18
3831.90926 5.56270e-18
3834.90374 5.63797e-18
3837.90824 6.00998e-18
3840.91274 6.35567e-18
3843.90723 6.31459e-18
3846.91173 6.49763e-18
3849.91623 6.98439e-18
3852.91071 7.42888e-18
3855.91521 7.81040e-18
3858.91971 8.14460e-18
3861.91420 8.41995e-18
3864.91870 8.81905e-18
3867.92320 9.27294e-18
3870.91768 9.83638e-18
3873.92218 1.05187e-17
3876.92668 1.09987e-17
3879.93118 1.12976e-17
3882.92567 1.18336e-17
3885.93017 1.25000e-17
3888.93467 1.30008e-17
3891.92915 1.33123e-17
3894.93365 1.42615e-17
3897.93815 1.49179e-17
3900.93264 1.55386e-17
3903.93714 1.61647e-17
3906.94164 1.68548e-17
3909.93612 1.71534e-17
3912.94062 1.81231e-17
3915.94512 1.90145e-17
3918.94962 1.98362e-17
3921.94411 2.07981e-17
3924.94861 2.15795e-17
3927.95311 2.18353e-17
3930.94759 2.20964e-17
3933.95209 2.23934e-17
3936.95659 2.33978e-17
3939.95108 2.41267e-17
3942.95558 2.46362e-17
3945.96008 2.52253e-17
3948.95456 2.55180e-17
3951.95906 2.59383e-17
3954.96356 2.65685e-17
3957.96806 2.70221e-17
3960.96255 2.72878e-17
3963.96705 2.72754e-17
3966.97155 2.76580e-17
3969.96603 2.77927e-17
3972.97053 2.83704e-17
3975.97503 2.82551e-17
3978.96952 2.79214e-17
3981.97402 2.83574e-17
3984.97852 2.85750e-17
3987.97300 2.84017e-17
3990.97750 2.84514e-17
3993.98200 2.84159e-17
3996.97649 2.82710e-17
3999.98099 2.78692e-17
4002.98549 2.76473e-17
4005.98999 2.75428e-17
4008.98447 2.76879e-17
4011.98897 2.73632e-17
4014.99347 2.65584e-17
4017.98796 2.61816e-17
4020.99246 2.61082e-17
4023.99696 2.61038e-17
4026.99144 2.56537e-17
4029.99594 2.52404e-17
4033.00044 2.51791e-17
4035.99492 2.44778e-17
4038.99942 2.36378e-17
4042.00392 2.29722e-17
4045.00842 2.22503e-17
4048.00291 2.16285e-17
4051.00741 2.09181e-17
4054.01191 2.00605e-17
4057.00639 1.95149e-17
4060.01089 1.91204e-17
4063.01539 1.85559e-17
4066.00988 1.80375e-17
4069.01438 1.75356e-17
4072.01888 1.67640e-17
4075.01337 1.61876e-17
4078.01787 1.60503e-17
4081.02237 1.59768e-17
4084.01685 1.57823e-17
4087.02135 1.52388e-17
4090.02585 1.47863e-17
4093.03035 1.48150e-17
4096.02484 1.46801e-17
4099.02934 1.44824e-17
4102.03384 1.42907e-17
4105.02832 1.40366e-17
4108.03282 1.36543e-17
4111.03732 1.33575e-17
4114.03181 1.31588e-17
4117.03631 1.28239e-17
4120.04081 1.24901e-17
4123.03529 1.24483e-17
4126.03979 1.21253e-17
4129.04429 1.18164e-17
4132.03878 1.15404e-17
4135.04328 1.12643e-17
4138.04778 1.11457e-17
4141.05228 1.11104e-17
4144.04676 1.10164e-17
4147.05126 1.08117e-17
4150.05576 1.06988e-17
4153.05025 1.06355e-17
4156.05475 1.05173e-17
4159.05925 1.04170e-17
4162.05373 1.03166e-17
4165.05823 1.02267e-17
4168.06273 1.00986e-17
4171.06723 1.00972e-17
4174.06172 1.01653e-17
4177.06622 1.00993e-17
4180.07072 9.93929e-18
4183.06520 9.95114e-18
4186.06970 1.00586e-17
4189.07420 1.00857e-17
4192.06869 1.00470e-17
4195.07319 1.02599e-17
4198.07769 1.04226e-17
4201.07217 1.04206e-17
4204.07667 1.05529e-17
4207.08117 1.08312e-17
4210.07566 1.09656e-17
4213.08016 1.10649e-17
4216.08466 1.11373e-17
4219.08916 1.13384e-17
4222.08364 1.15325e-17
4225.08814 1.17606e-17
4228.09264 1.19236e-17
4231.08713 1.19873e-17
4234.09163 1.20130e-17
4237.09613 1.20322e-17
4240.09061 1.21789e-17
4243.09511 1.22025e-17
4246.09961 1.21671e-17
4249.09409 1.22245e-17
4252.09859 1.22321e-17
4255.10309 1.22752e-17
4258.10759 1.23305e-17
4261.10208 1.23943e-17
4264.10658 1.24093e-17
4267.11108 1.25504e-17
4270.10556 1.26069e-17
4273.11006 1.27217e-17
4276.11456 1.28036e-17
4279.10905 1.26703e-17
4282.11355 1.28417e-17
4285.11805 1.32399e-17
4288.11254 1.33173e-17
4291.11704 1.33728e-17
4294.12154 1.36038e-17
4297.12604 1.40069e-17
4300.12052 1.41124e-17
4303.12502 1.40801e-17
4306.12952 1.42031e-17
4309.12401 1.42760e-17
4312.12851 1.44098e-17
4315.13301 1.45034e-17
4318.12749 1.47353e-17
4321.13199 1.48786e-17
4324.13649 1.49806e-17
4327.13098 1.52163e-17
4330.13548 1.54440e-17
4333.13998 1.56073e-17
4336.13446 1.57651e-17
4339.13896 1.60251e-17
4342.14346 1.62803e-17
4345.14796 1.63236e-17
4348.14245 1.63161e-17
4351.14695 1.63238e-17
4354.15145 1.62960e-17
4357.14593 1.59521e-17
4360.15043 1.55389e-17
4363.15493 1.52869e-17
4366.14941 1.49191e-17
4369.15391 1.45716e-17
4372.15841 1.39925e-17
4375.15290 1.36111e-17
4378.15740 1.31628e-17
4381.16190 1.26885e-17
4384.16640 1.25110e-17
4387.16089 1.21450e-17
4390.16539 1.17775e-17
4393.16989 1.14639e-17
4396.16437 1.11981e-17
4399.16887 1.09760e-17
4402.17337 1.08314e-17
4405.16785 1.08256e-17
4408.17235 1.06323e-17
4411.17685 1.04078e-17
4414.17134 1.03417e-17
4417.17584 1.01842e-17
4420.18034 1.00882e-17
4423.17483 1.00996e-17
4426.17933 9.97817e-18
4429.18383 9.86305e-18
4432.18833 9.91947e-18
4435.18281 9.90578e-18
4438.18731 9.82604e-18
4441.19181 9.79505e-18
4444.18630 9.81721e-18
4447.19080 9.86751e-18
4450.19530 9.98716e-18
4453.18978 1.01162e-17
4456.19428 1.01864e-17
4459.19878 1.02190e-17
4462.19327 1.03438e-17
4465.19777 1.04682e-17
4468.20227 1.06646e-17
4471.20677 1.09124e-17
4474.20125 1.11993e-17
4477.20575 1.14298e-17
4480.21025 1.15081e-17
4483.20474 1.16166e-17
4486.20924 1.19107e-17
4489.21374 1.22148e-17
4492.20822 1.26451e-17
4495.21272 1.29561e-17
4498.21722 1.29813e-17
4501.21171 1.32810e-17
4504.21621 1.38753e-17
4507.22071 1.41626e-17
4510.21519 1.44557e-17
4513.21969 1.48874e-17
4516.22419 1.51310e-17
4519.22869 1.53664e-17
4522.22318 1.57277e-17
4525.22768 1.59816e-17
4528.23218 1.63153e-17
4531.22666 1.67457e-17
4534.23116 1.70797e-17
4537.23566 1.74708e-17
4540.23015 1.80067e-17
4543.23465 1.85991e-17
4546.23915 1.89066e-17
4549.23363 1.92579e-17
4552.23813 1.98211e-17
4555.24263 2.01777e-17
4558.24713 2.04633e-17
4561.24161 2.09279e-17
4564.24611 2.13253e-17
4567.25061 2.18653e-17
4570.24510 2.21611e-17
4573.24960 2.26073e-17
4576.25410 2.31042e-17
4579.24859 2.32068e-17
4582.25309 2.35506e-17
4585.25759 2.40809e-17
4588.25207 2.41617e-17
4591.25657 2.41232e-17
4594.26107 2.41007e-17
4597.26557 2.38823e-17
4600.26005 2.37553e-17
4603.26455 2.37672e-17
4606.26905 2.36965e-17
4609.26354 2.33230e-17
4612.26804 2.31500e-17
4615.27254 2.29197e-17
4618.26703 2.23186e-17
4621.27153 2.18420e-17
4624.27603 2.13901e-17
4627.27051 2.09235e-17
4630.27501 2.03466e-17
4633.27951 1.99198e-17
4636.27400 1.95905e-17
4639.27850 1.91032e-17
4642.28300 1.88988e-17
4645.28750 1.86881e-17
4648.28198 1.82119e-17
4651.28648 1.80670e-17
4654.29098 1.77785e-17
4657.28547 1.71399e-17
4660.28997 1.66047e-17
4663.29447 1.64758e-17
4666.28895 1.62124e-17
4669.29345 1.55522e-17
4672.29795 1.53302e-17
4675.29244 1.48147e-17
4678.29694 1.43743e-17
4681.30144 1.40191e-17
4684.30594 1.38669e-17
4687.30042 1.37530e-17
4690.30492 1.36083e-17
4693.30942 1.35023e-17
4696.30391 1.35680e-17
4699.30841 1.36375e-17
4702.31291 1.36851e-17
4705.30739 1.38847e-17
4708.31189 1.39907e-17
4711.31639 1.40192e-17
4714.31088 1.41498e-17
4717.31538 1.43218e-17
4720.31988 1.44351e-17
4723.32438 1.44035e-17
4726.31886 1.44406e-17
4729.32336 1.46484e-17
4732.32786 1.48939e-17
4735.32234 1.51370e-17
4738.32684 1.51878e-17
4741.33134 1.51449e-17
4744.32583 1.52955e-17
4747.33033 1.55254e-17
4750.33483 1.55438e-17
4753.32931 1.55062e-17
4756.33381 1.56325e-17
4759.33831 1.54358e-17
4762.33280 1.51248e-17
4765.33730 1.49024e-17
4768.34180 1.46358e-17
4771.34630 1.43543e-17
4774.34079 1.41881e-17
4777.34528 1.39202e-17
4780.34978 1.36256e-17
4783.34427 1.34121e-17
4786.34877 1.33164e-17
4789.35327 1.32768e-17
4792.34776 1.32015e-17
4795.35226 1.30351e-17
4798.35676 1.30219e-17
4801.35124 1.29694e-17
4804.35574 1.28803e-17
4807.36024 1.28479e-17
4810.36474 1.29414e-17
4813.35923 1.31520e-17
4816.36373 1.34674e-17
4819.36823 1.36646e-17
4822.36271 1.38650e-17
4825.36721 1.41741e-17
4828.37171 1.43114e-17
4831.36620 1.43829e-17
4834.37070 1.45592e-17
4837.37520 1.46852e-17
4840.36968 1.49021e-17
4843.37418 1.51462e-17
4846.37868 1.52108e-17
4849.37316 1.53525e-17
4852.37766 1.54062e-17
4855.38216 1.52438e-17
4858.38666 1.48520e-17
4861.38115 1.49125e-17
4864.38565 1.47880e-17
4867.39015 1.45585e-17
4870.38464 1.44154e-17
4873.38914 1.42608e-17
4876.39364 1.41956e-17
4879.38812 1.40526e-17
4882.39262 1.39085e-17
4885.39712 1.37243e-17
4888.39160 1.36435e-17
4891.39610 1.36930e-17
4894.40060 1.36247e-17
4897.40510 1.35703e-17
4900.39959 1.35280e-17
4903.40409 1.35853e-17
4906.40859 1.38135e-17
4909.40308 1.39761e-17
4912.40758 1.42227e-17
4915.41208 1.44436e-17
4918.40656 1.45759e-17
4921.41106 1.48086e-17
4924.41556 1.49967e-17
4927.41004 1.54529e-17
4930.41454 1.58793e-17
4933.41904 1.62005e-17
4936.41353 1.65193e-17
4939.41803 1.69314e-17
4942.42253 1.71985e-17
4945.42703 1.71558e-17
4948.42152 1.73618e-17
4951.42602 1.77770e-17
4954.43052 1.81399e-17
4957.42500 1.84198e-17
4960.42950 1.86799e-17
4963.43400 1.88829e-17
4966.42849 1.90212e-17
4969.43299 1.91856e-17
4972.43749 1.93532e-17
4975.43197 1.92895e-17
4978.43647 1.92489e-17
4981.44097 1.90709e-17
4984.44547 1.89712e-17
4987.43996 1.87695e-17
4990.44446 1.83502e-17
4993.44896 1.79377e-17
4996.44344 1.76412e-17
4999.44794 1.72890e-17
5002.45244 1.67324e-17
5005.44693 1.61659e-17
5008.45143 1.56558e-17
5011.45593 1.50717e-17
5014.45041 1.44808e-17
5017.45491 1.40010e-17
5020.45941 1.36175e-17
5023.46391 1.33325e-17
5026.45840 1.30501e-17
5029.46290 1.27798e-17
5032.46740 1.25410e-17
5035.46188 1.21483e-17
5038.46638 1.19349e-17
5041.47088 1.19129e-17
5044.46537 1.18513e-17
5047.46987 1.16944e-17
5050.47437 1.15345e-17
5053.46885 1.14601e-17
5056.47335 1.14981e-17
5059.47785 1.15297e-17
5062.48235 1.15598e-17
5065.47684 1.16647e-17
5068.48134 1.17840e-17
5071.48584 1.18114e-17
5074.48032 1.19466e-17
5077.48482 1.20722e-17
5080.48932 1.21756e-17
5083.48380 1.23257e-17
5086.48830 1.25115e-17
5089.49280 1.25452e-17
5092.48729 1.25860e-17
5095.49179 1.27320e-17
5098.49629 1.29500e-17
5101.49078 1.32126e-17
5104.49528 1.33215e-17
5107.49978 1.33980e-17
5110.50428 1.35213e-17
5113.49876 1.36184e-17
5116.50326 1.35822e-17
5119.50776 1.36349e-17
5122.50225 1.36868e-17
5125.50675 1.36513e-17
5128.51125 1.36237e-17
5131.50573 1.36953e-17
5134.51023 1.38495e-17
5137.51473 1.39157e-17
5140.50922 1.38027e-17
5143.51372 1.37171e-17
5146.51822 1.37498e-17
5149.52272 1.36506e-17
5152.51720 1.35349e-17
5155.52170 1.34698e-17
5158.52620 1.34985e-17
5161.52069 1.35420e-17
5164.52519 1.34956e-17
5167.52969 1.35248e-17
5170.52417 1.34916e-17
5173.52867 1.35389e-17
5176.53317 1.35781e-17
5179.52766 1.34947e-17
5182.53216 1.35895e-17
5185.53666 1.36750e-17
5188.54116 1.36538e-17
5191.53564 1.36494e-17
5194.54014 1.36069e-17
5197.54464 1.36739e-17
5200.53913 1.39156e-17
5203.54363 1.41285e-17
5206.54813 1.42159e-17
5209.54261 1.43415e-17
5212.54711 1.46582e-17
5215.55161 1.49604e-17
5218.54609 1.50730e-17
5221.55059 1.53215e-17
5224.55509 1.55861e-17
5227.54958 1.58727e-17
5230.55408 1.62049e-17
5233.55858 1.63733e-17
5236.56308 1.66220e-17
5239.55757 1.69095e-17
5242.56207 1.71853e-17
5245.56657 1.74977e-17
5248.56105 1.79224e-17
5251.56555 1.83050e-17
5254.57005 1.87196e-17
5257.56453 1.90654e-17
5260.56903 1.93570e-17
5263.57353 1.97441e-17
5266.56802 2.00072e-17
5269.57252 2.01344e-17
5272.57702 2.04225e-17
5275.58152 2.06541e-17
5278.57601 2.08430e-17
5281.58051 2.10671e-17
5284.58501 2.12325e-17
5287.57949 2.13766e-17
5290.58399 2.14262e-17
5293.58849 2.15113e-17
5296.58298 2.14986e-17
5299.58748 2.15801e-17
5302.59198 2.18831e-17
5305.58646 2.19108e-17
5308.59096 2.18394e-17
5311.59546 2.20323e-17
5314.58995 2.20080e-17
5317.59445 2.21144e-17
5320.59895 2.21685e-17
5323.60345 2.20977e-17
5326.59793 2.20239e-17
5329.60243 2.20817e-17
5332.60693 2.21219e-17
5335.60142 2.21065e-17
5338.60592 2.21674e-17
5341.61042 2.21266e-17
5344.60490 2.21818e-17
5347.60940 2.23737e-17
5350.61390 2.23920e-17
5353.60839 2.21776e-17
5356.61289 2.21932e-17
5359.61739 2.22563e-17
5362.62189 2.20976e-17
5365.61637 2.19119e-17
5368.62087 2.18696e-17
5371.62537 2.18597e-17
5374.61985 2.16376e-17
5377.62435 2.14242e-17
5380.62885 2.13790e-17
5383.62334 2.12579e-17
5386.62784 2.10252e-17
5389.63234 2.07253e-17
5392.62683 2.05084e-17
5395.63133 2.04904e-17
5398.63583 2.03695e-17
5401.63031 2.01777e-17
5404.63481 2.00782e-17
5407.63931 1.98498e-17
5410.64381 1.97703e-17
5413.63829 1.97837e-17
5416.64279 1.96164e-17
5419.64729 1.95741e-17
5422.64178 1.95353e-17
5425.64628 1.96521e-17
5428.65078 1.96184e-17
5431.64527 1.96535e-17
5434.64977 1.97865e-17
5437.65427 1.98340e-17
5440.64875 1.99800e-17
5443.65325 2.01020e-17
5446.65775 2.02422e-17
5449.66225 2.02764e-17
5452.65674 2.04454e-17
5455.66124 2.05182e-17
5458.66574 2.02955e-17
5461.66022 2.03446e-17
5464.66472 2.04940e-17
5467.66922 2.05040e-17
5470.66371 2.05562e-17
5473.66821 2.04466e-17
5476.67271 2.03704e-17
5479.66719 2.03933e-17
5482.67169 2.03087e-17
5485.67619 2.02590e-17
5488.68069 2.02596e-17
5491.67518 2.01241e-17
5494.67968 1.99902e-17
5497.68418 2.00594e-17
5500.67866 2.00880e-17
5503.68316 1.99987e-17
5506.68766 2.00015e-17
5509.68215 1.99460e-17
5512.68665 1.98199e-17
5515.69115 1.96943e-17
5518.68563 1.97221e-17
5521.69013 1.95512e-17
5524.69463 1.95020e-17
5527.68912 1.93923e-17
5530.69362 1.91815e-17
5533.69812 1.90585e-17
5536.70262 1.90695e-17
5539.69710 1.91103e-17
5542.70160 1.91315e-17
5545.70610 1.90498e-17
5548.70059 1.90278e-17
5551.70509 1.89676e-17
5554.70959 1.88856e-17
5557.70407 1.88206e-17
5560.70857 1.87851e-17
5563.71307 1.87711e-17
5566.71757 1.87412e-17
5569.71205 1.87807e-17
5572.71655 1.88148e-17
5575.72105 1.87407e-17
5578.71554 1.86284e-17
5581.72004 1.84746e-17
5584.72454 1.83907e-17
5587.71903 1.83354e-17
5590.72353 1.82296e-17
5593.72803 1.81847e-17
5596.72251 1.81490e-17
5599.72701 1.81618e-17
5602.73151 1.81517e-17
5605.72600 1.81804e-17
5608.73049 1.80455e-17
5611.73499 1.79710e-17
5614.72948 1.78432e-17
5617.73398 1.77974e-17
5620.73848 1.76995e-17
5623.74298 1.77402e-17
5626.73747 1.77796e-17
5629.74197 1.77233e-17
5632.74647 1.77680e-17
5635.74095 1.78137e-17
5638.74545 1.78221e-17
5641.74995 1.77694e-17
5644.74444 1.77175e-17
5647.74894 1.76957e-17
5650.75344 1.76619e-17
5653.75794 1.74943e-17
5656.75242 1.73257e-17
5659.75692 1.71978e-17
5662.76142 1.70381e-17
5665.75591 1.68991e-17
5668.76041 1.67616e-17
5671.76491 1.65399e-17
5674.75939 1.62924e-17
5677.76389 1.61263e-17
5680.76839 1.59302e-17
5683.76288 1.57470e-17
5686.76738 1.56189e-17
5689.77188 1.53590e-17
5692.76636 1.50836e-17
5695.77086 1.49228e-17
5698.77536 1.47337e-17
5701.76984 1.46057e-17
5704.77434 1.44058e-17
5707.77884 1.42953e-17
5710.78334 1.42974e-17
5713.77783 1.41632e-17
5716.78233 1.40119e-17
5719.78683 1.38265e-17
5722.78132 1.36219e-17
5725.78582 1.35146e-17
5728.79032 1.34347e-17
5731.78480 1.32846e-17
5734.78930 1.31028e-17
5737.79380 1.29809e-17
5740.79830 1.29387e-17
5743.79278 1.29599e-17
5746.79728 1.28990e-17
5749.80178 1.28486e-17
5752.79627 1.29197e-17
5755.80077 1.29853e-17
5758.80527 1.30253e-17
5761.79976 1.30736e-17
5764.80426 1.31695e-17
5767.80876 1.32621e-17
5770.80324 1.34292e-17
5773.80774 1.36851e-17
5776.81224 1.38192e-17
5779.80673 1.38933e-17
5782.81123 1.40696e-17
5785.81573 1.42965e-17
5788.82023 1.45101e-17
5791.81471 1.46692e-17
5794.81921 1.49190e-17
5797.82371 1.51443e-17
5800.81820 1.53945e-17
5803.82270 1.55600e-17
5806.82720 1.57149e-17
5809.82168 1.59422e-17
5812.82618 1.61653e-17
5815.83068 1.63130e-17
5818.82517 1.64244e-17
5821.82967 1.65127e-17
5824.83417 1.65405e-17
5827.83867 1.65722e-17
5830.83315 1.66669e-17
5833.83765 1.67615e-17
5836.84215 1.68530e-17
5839.83664 1.69754e-17
5842.84114 1.70146e-17
5845.84564 1.70935e-17
5848.84012 1.71877e-17
5851.84462 1.73364e-17
5854.84912 1.74421e-17
5857.84361 1.73791e-17
5860.84811 1.74512e-17
5863.85261 1.75882e-17
5866.84709 1.75731e-17
5869.85159 1.75897e-17
5872.85609 1.75997e-17
5875.86059 1.75689e-17
5878.85508 1.75532e-17
5881.85958 1.73749e-17
5884.86408 1.72798e-17
5887.85856 1.72479e-17
5890.86306 1.72033e-17
5893.86756 1.72699e-17
5896.86204 1.73321e-17
5899.86654 1.73360e-17
5902.87104 1.74621e-17
5905.86553 1.77125e-17
5908.87003 1.78246e-17
5911.87453 1.78389e-17
5914.87903 1.77158e-17
5917.87352 1.77203e-17
5920.87802 1.77608e-17
5923.88252 1.76692e-17
5926.87700 1.76126e-17
5929.88150 1.76922e-17
5932.88600 1.77158e-17
5935.88048 1.76669e-17
5938.88498 1.75922e-17
5941.88948 1.74645e-17
5944.88397 1.73508e-17
5947.88847 1.73094e-17
5950.89297 1.72520e-17
5953.89747 1.70926e-17
5956.89196 1.69526e-17
5959.89646 1.68985e-17
5962.90096 1.68101e-17
5965.89544 1.67716e-17
5968.89994 1.66805e-17
5971.90444 1.65022e-17
5974.89893 1.63596e-17
5977.90343 1.61524e-17
5980.90793 1.59650e-17
5983.90241 1.57984e-17
5986.90691 1.57170e-17
5989.91141 1.56013e-17
5992.90590 1.54514e-17
5995.91040 1.53341e-17
5998.91490 1.51860e-17
6001.91940 1.50414e-17
6004.91388 1.49618e-17
6007.91838 1.48310e-17
6010.92288 1.47257e-17
6013.91737 1.46669e-17
6016.92187 1.45945e-17
6019.92637 1.44964e-17
6022.92085 1.43883e-17
6025.92535 1.43565e-17
6028.92985 1.43774e-17
6031.92434 1.43470e-17
6034.92884 1.43111e-17
6037.93334 1.42856e-17
6040.93784 1.41986e-17
6043.93232 1.42343e-17
6046.93682 1.43795e-17
6049.94132 1.43578e-17
6052.93581 1.43216e-17
6055.94031 1.43700e-17
6058.94481 1.43757e-17
6061.93929 1.43777e-17
6064.94379 1.44216e-17
6067.94829 1.43699e-17
6070.94278 1.42228e-17
6073.94728 1.41705e-17
6076.95178 1.41122e-17
6079.94626 1.40505e-17
6082.95076 1.39712e-17
6085.95526 1.38697e-17
6088.95976 1.37650e-17
6091.95424 1.36491e-17
6094.95874 1.35489e-17
6097.96324 1.33781e-17
6100.95773 1.32645e-17
6103.96223 1.31881e-17
6106.96673 1.31239e-17
6109.96122 1.30740e-17
6112.96572 1.29158e-17
6115.97022 1.27476e-17
6118.96470 1.26522e-17
6121.96920 1.26144e-17
6124.97370 1.25840e-17
6127.97820 1.25980e-17
6130.97269 1.26311e-17
6133.97719 1.27107e-17
6136.98169 1.28114e-17
6139.97617 1.28395e-17
6142.98067 1.28461e-17
6145.98517 1.28794e-17
6148.97966 1.28534e-17
6151.98416 1.27989e-17
6154.98866 1.27884e-17
6157.98314 1.26650e-17
6160.98764 1.25177e-17
6163.99214 1.24516e-17
6166.98663 1.23180e-17
6169.99113 1.22392e-17
6172.99563 1.20969e-17
6176.00013 1.18786e-17
6178.99461 1.16348e-17
6181.99911 1.13953e-17
6185.00361 1.11274e-17
6187.99809 1.08150e-17
6191.00259 1.05043e-17
6194.00709 1.02312e-17
6197.00158 9.99135e-18
6200.00608 9.71470e-18
6203.01058 9.36682e-18
6206.00507 9.08043e-18
6209.00957 8.85829e-18
6212.01407 8.60618e-18
6215.01857 8.34453e-18
6218.01305 8.11707e-18
6221.01755 7.92534e-18
6224.02205 7.67780e-18
6227.01653 7.50419e-18
6230.02103 7.38219e-18
6233.02553 7.23203e-18
6236.02002 7.08200e-18
6239.02452 6.94059e-18
6242.02902 6.82752e-18
6245.02351 6.67612e-18
6248.02801 6.48265e-18
6251.03251 6.32119e-18
6254.03701 6.14802e-18
6257.03149 5.97574e-18
6260.03599 5.84946e-18
6263.04049 5.71512e-18
6266.03497 5.53715e-18
6269.03947 5.37636e-18
6272.04397 5.28800e-18
6275.03846 5.12763e-18
6278.04296 5.01721e-18
6281.04746 4.97070e-18
6284.04195 4.89887e-18
6287.04645 4.84198e-18
6290.05095 4.80629e-18
6293.04543 4.76879e-18
6296.04993 4.74081e-18
6299.05443 4.69690e-18
6302.05893 4.64673e-18
6305.05342 4.67212e-18
6308.05792 4.68981e-18
6311.06242 4.65214e-18
6314.05690 4.65044e-18
6317.06140 4.69349e-18
6320.06590 4.76807e-18
6323.06039 4.90586e-18
6326.06489 5.08397e-18
6329.06939 5.28185e-18
6332.06387 5.45425e-18
6335.06837 5.66796e-18
6338.07287 5.96463e-18
6341.07737 6.30843e-18
6344.07186 6.63589e-18
6347.07636 7.03928e-18
6350.08086 7.45939e-18
6353.07534 7.84301e-18
6356.07984 8.23124e-18
6359.08434 8.61522e-18
6362.07883 8.99842e-18
6365.08333 9.38336e-18
6368.08783 9.73435e-18
6371.08231 1.00521e-17
6374.08681 1.03757e-17
6377.09131 1.07551e-17
6380.09581 1.11623e-17
6383.09029 1.15221e-17
6386.09479 1.18750e-17
6389.09929 1.22835e-17
6392.09378 1.26708e-17
6395.09828 1.29819e-17
6398.10278 1.33413e-17
6401.09727 1.36357e-17
6404.10177 1.39600e-17
6407.10627 1.42835e-17
6410.10075 1.45178e-17
6413.10525 1.47771e-17
6416.10975 1.50794e-17
6419.10423 1.53997e-17
6422.10873 1.57094e-17
6425.11323 1.59297e-17
6428.11773 1.61628e-17
6431.11222 1.64478e-17
6434.11672 1.66473e-17
6437.12122 1.67770e-17
6440.11571 1.69379e-17
6443.12021 1.70660e-17
6446.12471 1.71679e-17
6449.11919 1.72694e-17
6452.12369 1.73817e-17
6455.12819 1.74659e-17
6458.12268 1.74706e-17
6461.12718 1.75572e-17
6464.13168 1.75267e-17
6467.13618 1.74796e-17
6470.13066 1.76534e-17
6473.13516 1.77679e-17
6476.13966 1.77591e-17
6479.13415 1.78562e-17
6482.13865 1.79141e-17
6485.14315 1.79098e-17
6488.13763 1.79137e-17
6491.14213 1.79772e-17
6494.14663 1.80790e-17
6497.14112 1.81156e-17
6500.14562 1.80585e-17
6503.15012 1.80639e-17
6506.14460 1.80298e-17
6509.14910 1.79381e-17
6512.15360 1.78406e-17
6515.15810 1.78355e-17
6518.15259 1.78313e-17
6521.15709 1.77509e-17
6524.16159 1.76374e-17
6527.15607 1.75929e-17
6530.16057 1.75555e-17
6533.16507 1.74802e-17
6536.15956 1.74475e-17
6539.16406 1.74503e-17
6542.16856 1.74977e-17
6545.16304 1.75705e-17
6548.16754 1.76061e-17
6551.17204 1.76433e-17
6554.17654 1.77150e-17
6557.17103 1.78260e-17
6560.17553 1.79449e-17
6563.18003 1.81324e-17
6566.17451 1.82131e-17
6569.17901 1.81944e-17
6572.18351 1.82135e-17
6575.17800 1.82457e-17
6578.18250 1.83120e-17
6581.18700 1.84005e-17
6584.18148 1.84768e-17
6587.18598 1.85460e-17
6590.19048 1.86375e-17
6593.18497 1.87312e-17
6596.18947 1.86907e-17
6599.19397 1.86879e-17
6602.19847 1.87687e-17
6605.19295 1.87340e-17
6608.19745 1.87324e-17
6611.20195 1.88041e-17
6614.19644 1.88982e-17
6617.20094 1.88309e-17
6620.20544 1.88529e-17
6623.19992 1.88002e-17
6626.20442 1.86078e-17
6629.20892 1.85031e-17
6632.20341 1.85049e-17
6635.20791 1.85123e-17
6638.21241 1.85391e-17
6641.21691 1.85872e-17
6644.21139 1.86008e-17
6647.21589 1.85262e-17
6650.22039 1.83849e-17
6653.21488 1.83321e-17
6656.21938 1.83067e-17
6659.22388 1.82256e-17
6662.21836 1.82116e-17
6665.22286 1.82739e-17
6668.22736 1.82473e-17
6671.22185 1.81765e-17
6674.22635 1.81991e-17
6677.23085 1.80875e-17
6680.23535 1.79178e-17
6683.22983 1.78555e-17
6686.23433 1.77596e-17
6689.23883 1.77019e-17
6692.23332 1.76786e-17
6695.23782 1.76080e-17
6698.24232 1.75503e-17
6701.23680 1.74445e-17
6704.24130 1.72756e-17
6707.24580 1.71332e-17
6710.24028 1.70625e-17
6713.24478 1.70377e-17
6716.24928 1.69758e-17
6719.25378 1.68753e-17
6722.24827 1.67593e-17
6725.25277 1.65844e-17
6728.25727 1.64066e-17
6731.25176 1.62535e-17
6734.25626 1.61392e-17
6737.26076 1.60998e-17
6740.25524 1.60207e-17
6743.25974 1.60132e-17
6746.26424 1.60361e-17
6749.25872 1.58282e-17
6752.26322 1.56591e-17
6755.26772 1.56121e-17
6758.27222 1.54901e-17
6761.26671 1.53532e-17
6764.27121 1.52287e-17
6767.27571 1.51376e-17
6770.27020 1.51507e-17
6773.27470 1.50729e-17
6776.27920 1.48768e-17
6779.27368 1.47961e-17
6782.27818 1.47067e-17
6785.28268 1.45249e-17
6788.27717 1.44657e-17
6791.28167 1.44517e-17
6794.28617 1.44055e-17
6797.28065 1.43484e-17
6800.28515 1.42706e-17
6803.28965 1.42083e-17
6806.29415 1.41036e-17
6809.28864 1.39310e-17
6812.29314 1.37244e-17
6815.29764 1.35940e-17
6818.29212 1.36104e-17
6821.29662 1.36010e-17
6824.30112 1.35378e-17
6827.29561 1.35090e-17
6830.30011 1.34336e-17
6833.30461 1.33225e-17
6836.29909 1.32176e-17
6839.30359 1.31110e-17
6842.30809 1.30254e-17
6845.31259 1.29116e-17
6848.30708 1.28314e-17
6851.31158 1.28827e-17
6854.31608 1.29855e-17
6857.31056 1.30807e-17
6860.31506 1.28366e-17
6863.31956 1.24458e-17
6866.31405 1.22991e-17
6869.31855 1.24403e-17
6872.32305 1.24570e-17
6875.31753 1.24158e-17
6878.32203 1.23220e-17
6881.32653 1.21289e-17
6884.32102 1.20625e-17
6887.32552 1.20294e-17
6890.33002 1.19231e-17
6893.33452 1.17759e-17
6896.32900 1.16789e-17
6899.33350 1.16076e-17
6902.33800 1.14781e-17
6905.33248 1.13575e-17
6908.33698 1.12802e-17
6911.34148 1.12864e-17
6914.33597 1.12796e-17
6917.34047 1.12763e-17
6920.34497 1.12166e-17
6923.33946 1.10896e-17
6926.34396 1.11042e-17
6929.34846 1.11162e-17
6932.35296 1.10414e-17
6935.34744 1.10126e-17
6938.35194 1.09849e-17
6941.35644 1.09400e-17
6944.35093 1.09482e-17
6947.35543 1.09922e-17
6950.35993 1.10543e-17
6953.35441 1.09967e-17
6956.35891 1.08729e-17
6959.36341 1.09141e-17
6962.35790 1.10768e-17
6965.36240 1.12017e-17
6968.36690 1.12549e-17
6971.36138 1.13021e-17
6974.36588 1.13438e-17
6977.37038 1.13675e-17
6980.37488 1.13609e-17
6983.36937 1.13151e-17
6986.37387 1.13285e-17
6989.37837 1.13616e-17
6992.37285 1.13834e-17
6995.37735 1.15275e-17
6998.38185 1.16659e-17
7001.37634 1.17035e-17
7004.38084 1.17157e-17
7007.38534 1.16593e-17
7010.37982 1.15495e-17
7013.38432 1.14838e-17
7016.38882 1.14875e-17
7019.39332 1.15110e-17
7022.38781 1.15579e-17
7025.39231 1.16630e-17
7028.39681 1.17642e-17
7031.39129 1.17884e-17
7034.39579 1.17065e-17
7037.40029 1.16704e-17
7040.39478 1.16147e-17
7043.39928 1.15526e-17
7046.40378 1.15676e-17
7049.39826 1.16390e-17
7052.40276 1.16773e-17
7055.40726 1.17019e-17
7058.40175 1.17282e-17
7061.40625 1.16359e-17
7064.41075 1.14881e-17
7067.41525 1.14100e-17
7070.40973 1.14042e-17
7073.41423 1.13238e-17
7076.41873 1.12790e-17
7079.41322 1.13419e-17
7082.41772 1.13857e-17
7085.42222 1.13689e-17
7088.41670 1.12804e-17
7091.42120 1.12631e-17
7094.42570 1.11627e-17
7097.42018 1.10968e-17
7100.42468 1.09499e-17
7103.42918 1.09368e-17
7106.43368 1.09210e-17
7109.42817 1.09483e-17
7112.43267 1.08943e-17
7115.43717 1.07921e-17
7118.43166 1.07420e-17
7121.43616 1.07405e-17
7124.44066 1.07231e-17
7127.43514 1.05746e-17
7130.43964 1.04489e-17
7133.44414 1.03966e-17
7136.43863 1.03215e-17
7139.44313 1.02400e-17
7142.44763 1.02147e-17
7145.45213 1.03009e-17
7148.44661 1.03708e-17
7151.45111 1.03300e-17
7154.45561 1.02613e-17
7157.45010 1.01631e-17
7160.45460 1.01243e-17
7163.45910 1.01270e-17
7166.45358 1.01188e-17
7169.45808 1.00889e-17
7172.46258 1.00612e-17
7175.45707 1.00904e-17
7178.46157 1.01345e-17
7181.46607 1.01875e-17
7184.46055 1.02213e-17
7187.46505 1.02719e-17
7190.46955 1.03108e-17
7193.47405 1.02462e-17
7196.46853 1.02274e-17
7199.47303 1.03404e-17
7202.47753 1.04352e-17
7205.47202 1.05114e-17
7208.47652 1.05906e-17
7211.48102 1.06462e-17
7214.47551 1.07287e-17
7217.48001 1.07862e-17
7220.48451 1.08325e-17
7223.48901 1.08154e-17
7226.48349 1.07348e-17
7229.48799 1.07776e-17
7232.49249 1.07774e-17
7235.48697 1.07285e-17
7238.49147 1.07242e-17
7241.49597 1.06672e-17
7244.49046 1.04564e-17
7247.49496 1.03360e-17
7250.49946 1.04575e-17
7253.49395 1.05454e-17
7256.49845 1.04442e-17
7259.50295 1.03221e-17
7262.49743 1.02848e-17
7265.50193 1.01985e-17
7268.50643 9.97178e-18
7271.50092 9.88807e-18
7274.50542 1.00585e-17
7277.50991 1.01922e-17
7280.51441 1.01876e-17
7283.50890 1.00721e-17
7286.51340 9.94401e-18
7289.51790 9.84242e-18
7292.51239 9.82939e-18
7295.51689 9.80149e-18
7298.52139 9.72025e-18
7301.51587 9.73977e-18
7304.52037 9.74092e-18
7307.52487 9.70736e-18
7310.52937 9.70419e-18
7313.52386 9.80735e-18
7316.52836 9.93265e-18
7319.53286 9.96616e-18
7322.52734 1.00010e-17
7325.53184 1.00001e-17
7328.53634 9.93296e-18
7331.53083 9.88094e-18
7334.53533 9.81050e-18
7337.53983 9.76722e-18
7340.53431 9.77100e-18
7343.53881 9.86684e-18
7346.54331 9.92859e-18
7349.53780 9.99553e-18
7352.54230 9.99704e-18
7355.54680 9.97742e-18
7358.54128 9.91989e-18
7361.54578 9.82970e-18
7364.55028 9.83762e-18
7367.55478 9.91895e-18
7370.54927 1.00062e-17
7373.55377 1.00620e-17
7376.55827 1.01195e-17
7379.55275 1.01783e-17
7382.55725 1.02086e-17
7385.56175 1.02426e-17
7388.55624 1.02224e-17
7391.56074 1.01909e-17
7394.56524 1.01736e-17
7397.56974 1.01993e-17
7400.56422 1.02125e-17
7403.56872 1.02233e-17
7406.57322 1.03267e-17
7409.56771 1.04274e-17
7412.57221 1.04714e-17
7415.57671 1.04139e-17
7418.57119 1.03730e-17
7421.57569 1.03712e-17
7424.58019 1.03289e-17
7427.57467 1.03156e-17
7430.57917 1.02999e-17
7433.58367 1.03224e-17
7436.57816 1.03891e-17
7439.58266 1.03567e-17
7442.58716 1.03518e-17
7445.59166 1.04708e-17
7448.58615 1.05257e-17
7451.59065 1.04875e-17
7454.59515 1.03863e-17
7457.58963 1.02837e-17
7460.59413 1.02255e-17
7463.59863 1.02057e-17
7466.59312 1.01340e-17
7469.59762 1.00656e-17
7472.60212 1.00247e-17
7475.59660 1.00050e-17
7478.60110 1.00559e-17
7481.60560 1.01038e-17
7484.61010 1.00644e-17
7487.60459 9.96425e-18
7490.60909 9.81395e-18
7493.61359 9.61962e-18
7496.60807 9.45122e-18
7499.61257 9.33598e-18
7502.61707 9.24458e-18
7505.61156 9.18072e-18
7508.61606 9.14281e-18
7511.62056 9.13797e-18
7514.61504 9.17654e-18
7517.61954 9.18354e-18
7520.62404 9.11046e-18
7523.61853 8.84240e-18
7526.62303 8.65425e-18
7529.62753 8.55239e-18
7532.63203 8.56527e-18
7535.62651 8.55931e-18
7538.63101 8.45298e-18
7541.63551 8.45772e-18
7544.63000 8.53864e-18
7547.63450 8.56327e-18
7550.63900 8.55655e-18
7553.63348 8.50284e-18
7556.63798 8.38590e-18
7559.64248 8.29947e-18
7562.63697 8.29047e-18
7565.64147 8.30753e-18
7568.64597 8.30152e-18
7571.65047 8.28919e-18
7574.64495 8.35678e-18
7577.64945 8.49625e-18
7580.65395 8.72742e-18
7583.64844 8.92549e-18
7586.65294 8.80047e-18
7589.65744 8.37077e-18
7592.65192 8.23202e-18
7595.65642 8.39522e-18
7598.66092 8.56022e-18
7601.65541 8.33156e-18
7604.65991 8.24825e-18
7607.66441 8.75236e-18
7610.66891 9.35745e-18
7613.66339 9.38277e-18
7616.66789 8.87145e-18
7619.67239 8.53722e-18
7622.66688 8.66072e-18
7625.67138 8.83442e-18
7628.67588 8.79220e-18
7631.67036 8.61186e-18
7634.67486 8.49831e-18
7637.67936 8.47123e-18
7640.67385 8.40725e-18
7643.67835 8.34792e-18
7646.68285 8.46058e-18
7649.67733 8.55528e-18
7652.68183 8.61116e-18
7655.68633 8.54969e-18
7658.69083 8.59497e-18
7661.68532 8.78913e-18
7664.68982 8.80196e-18
7667.69432 8.78409e-18
7670.68880 8.85766e-18
7673.69330 8.80289e-18
7676.69780 8.71856e-18
7679.69229 8.72629e-18
7682.69679 8.63970e-18
7685.70129 8.44396e-18
7688.69577 8.32498e-18
7691.70027 8.34701e-18
7694.70477 8.36398e-18
7697.70927 8.43064e-18
7700.70376 8.47815e-18
7703.70826 8.53400e-18
7706.71276 8.61149e-18
7709.70724 8.62348e-18
7712.71174 8.57762e-18
7715.71624 8.51013e-18
7718.71072 8.39914e-18
7721.71522 8.32207e-18
7724.71972 8.25273e-18
7727.71421 8.11162e-18
7730.71871 8.06479e-18
7733.72321 8.07522e-18
7736.71770 7.99396e-18
7739.72220 7.95830e-18
7742.72670 8.08024e-18
7745.73120 8.21622e-18
7748.72568 8.17860e-18
7751.73018 8.17672e-18
7754.73468 8.38337e-18
7757.72916 8.51795e-18
7760.73366 8.58866e-18
7763.73816 8.53534e-18
7766.73265 8.56946e-18
7769.73715 8.54775e-18
7772.74165 8.47066e-18
7775.73614 8.38308e-18
7778.74064 8.35881e-18
7781.74514 8.45337e-18
7784.74964 8.51275e-18
7787.74412 8.60801e-18
7790.74862 8.67386e-18
7793.75312 8.69348e-18
7796.74761 8.78774e-18
7799.75211 8.86258e-18
7802.75661 8.94530e-18
7805.75109 9.08071e-18
7808.75559 9.19396e-18
7811.76009 9.30072e-18
7814.75458 9.18675e-18
7817.75908 9.01786e-18
7820.76358 8.97506e-18
7823.75806 8.94312e-18
7826.76256 8.96966e-18
7829.76706 9.06507e-18
7832.77156 9.23225e-18
7835.76605 9.33546e-18
7838.77055 9.40289e-18
7841.77505 9.37088e-18
7844.76953 9.27494e-18
7847.77403 9.25426e-18
7850.77853 9.20313e-18
7853.77302 9.19300e-18
7856.77752 9.26363e-18
7859.78202 9.17922e-18
7862.77650 8.93216e-18
7865.78100 8.58881e-18
7868.78550 8.29922e-18
7871.79000 8.38973e-18
7874.78449 8.74388e-18
7877.78899 8.97139e-18
7880.79349 9.03254e-18
7883.78797 9.23409e-18
7886.79247 9.10984e-18
7889.79697 8.92755e-18
7892.79146 8.80531e-18
7895.79596 8.74245e-18
7898.80046 8.71261e-18
7901.79494 8.63570e-18
7904.79944 8.64586e-18
7907.80394 8.80786e-18
7910.80844 8.96423e-18
7913.80292 9.01858e-18
7916.80742 8.98606e-18
7919.81192 8.87083e-18
7922.80641 8.71644e-18
7925.81091 8.64837e-18
7928.81541 8.65695e-18
7931.80990 8.57485e-18
7934.81440 8.44852e-18
7937.81890 8.38313e-18
7940.81338 8.34747e-18
7943.81788 8.15548e-18
7946.82238 7.97234e-18
7949.82688 7.90149e-18
7952.82137 7.88621e-18
7955.82587 7.98317e-18
7958.83037 8.15169e-18
7961.82485 8.24214e-18
7964.82935 8.13463e-18
7967.83385 7.95918e-18
7970.82834 7.85449e-18
7973.83284 7.77066e-18
7976.83734 7.69920e-18
7979.83182 7.71432e-18
7982.83632 7.79314e-18
7985.84082 7.80407e-18
7988.83531 7.68795e-18
7991.83981 7.58302e-18
7994.84431 7.60699e-18
7997.84881 7.71107e-18
8000.84329 7.76410e-18
8003.84779 7.73996e-18
8006.85229 7.62096e-18
8009.84678 7.53730e-18
8012.85128 7.50061e-18
8015.85578 7.30561e-18
8018.85026 7.10460e-18
8021.85476 7.03315e-18
8024.85926 7.03631e-18
8027.85375 7.07337e-18
8030.85825 7.07759e-18
8033.86275 7.03715e-18
8036.86725 7.03523e-18
8039.86173 7.10718e-18
8042.86623 7.22192e-18
8045.87073 7.31490e-18
8048.86522 7.30521e-18
8051.86972 7.18198e-18
8054.87422 7.06160e-18
8057.86870 6.96925e-18
8060.87320 6.83281e-18
8063.87770 6.67590e-18
8066.87219 6.59532e-18
8069.87669 6.52333e-18
8072.88119 6.41878e-18
8075.87567 6.31954e-18
8078.88017 6.30033e-18
8081.88467 6.35890e-18
8084.88917 6.42898e-18
8087.88366 6.40492e-18
8090.88816 6.30195e-18
8093.89266 6.35455e-18
8096.88714 6.48737e-18
8099.89164 6.46703e-18
8102.89614 6.44375e-18
8105.89063 6.48450e-18
8108.89513 6.46835e-18
8111.89963 6.35859e-18
8114.89411 6.19855e-18
8117.89861 6.05670e-18
8120.90311 5.90493e-18
8123.90761 5.70662e-18
8126.90210 5.52416e-18
8129.90660 5.37864e-18
8132.91110 5.27892e-18
8135.90558 5.13177e-18
8138.91008 4.93862e-18
8141.91458 4.86589e-18
8144.90907 4.70912e-18
8147.91357 4.53384e-18
8150.91807 4.48873e-18
8153.91255 4.37972e-18
8156.91705 4.20989e-18
8159.92155 4.17237e-18
8162.91604 4.18651e-18
8165.92054 4.09297e-18
8168.92504 3.92030e-18
8171.92954 3.73970e-18
8174.92402 3.61936e-18
8177.92852 3.41347e-18
8180.93302 3.19092e-18
8183.92751 3.00717e-18
8186.93201 2.86426e-18
8189.93651 2.75607e-18
8192.93099 2.67812e-18
8195.93549 2.64972e-18
8198.93999 2.57675e-18
8201.93448 2.48672e-18
8204.93898 2.43357e-18
8207.94348 2.38325e-18
8210.94798 2.29651e-18
8213.94246 2.23533e-18
8216.94696 2.15310e-18
8219.95146 1.98627e-18
8222.94594 1.90712e-18
8225.95045 1.96322e-18
8228.95494 2.02564e-18
8231.94943 2.03551e-18
8234.95393 2.01866e-18
8237.95843 2.02977e-18
8240.95292 2.01360e-18
8243.95742 1.97779e-18
8246.96192 1.94848e-18
8249.96642 1.92322e-18
8252.96090 1.92246e-18
8255.96540 1.90770e-18
8258.96990 1.90486e-18
8261.96439 1.91472e-18
8264.96889 1.90097e-18
8267.97339 1.88264e-18
8270.96787 1.85829e-18
8273.97237 1.84177e-18
8276.97687 1.88489e-18
8279.97135 1.94097e-18
8282.97586 1.95523e-18
8285.98035 1.96986e-18
8288.97484 1.98491e-18
8291.97934 1.98006e-18
8294.98384 1.94820e-18
8297.98834 1.92152e-18
8300.98282 1.94645e-18
8303.98733 1.96526e-18
8306.99182 1.97492e-18
8309.98631 1.97074e-18
8312.99081 1.92910e-18
8315.99531 1.94409e-18
8318.98980 2.00066e-18
8321.99430 1.99615e-18
8324.99880 1.97088e-18
8327.99328 1.96928e-18
8330.99778 2.02151e-18
8334.00228 2.11457e-18
8336.99676 2.19356e-18
8340.00127 2.23831e-18
8343.00576 2.24806e-18
8346.01027 2.24987e-18
8349.00475 2.22465e-18
8352.00925 2.18834e-18
8355.01375 2.18514e-18
8358.00824 2.17696e-18
8361.01274 2.20776e-18
8364.01724 2.21883e-18
8367.01172 2.25723e-18
8370.01622 2.30720e-18
8373.02072 2.32715e-18
8376.02522 2.35825e-18
8379.01971 2.38564e-18
8382.02420 2.40090e-18
8385.02871 2.46257e-18
8388.02319 2.53208e-18
8391.02769 2.59138e-18
8394.03219 2.70160e-18
8397.02668 2.80610e-18
8400.03118 2.85885e-18
8403.03568 2.91174e-18
8406.03016 2.95805e-18
8409.03466 3.00708e-18
8412.03916 3.04207e-18
8415.03365 3.07697e-18
8418.03815 3.09685e-18
8421.04265 3.12656e-18
8424.04715 3.11844e-18
8427.04163 3.15084e-18
8430.04613 3.23313e-18
8433.05063 3.31992e-18
8436.04512 3.43633e-18
8439.04961 3.44205e-18
8442.05412 3.45826e-18
8445.04860 3.58001e-18
8448.05310 3.70708e-18
8451.05760 3.87798e-18
8454.05208 4.06740e-18
8457.05659 4.16726e-18
8460.06108 4.08265e-18
8463.05557 3.92840e-18
8466.06007 3.99906e-18
8469.06457 4.08342e-18
8472.06907 4.23923e-18
8475.06356 4.54690e-18
8478.06806 4.57317e-18
8481.07256 4.46048e-18
8484.06704 4.62788e-18
8487.07154 5.05501e-18
8490.07604 5.43783e-18
8493.07053 5.58444e-18
8496.07503 5.58479e-18
8499.07953 5.50202e-18
8502.07401 5.33767e-18
8505.07851 5.31091e-18
8508.08301 5.52425e-18
8511.07749 5.73089e-18
8514.08200 5.78536e-18
8517.08649 5.72353e-18
8520.09100 5.66297e-18
8523.08548 5.74551e-18
8526.08998 5.91149e-18
8529.09448 6.04644e-18
8532.08897 6.02046e-18
8535.09346 6.03229e-18
8538.09797 6.18066e-18
8541.09245 6.25840e-18
8544.09695 6.37990e-18
8547.10145 6.52716e-18
8550.10595 6.58712e-18
8553.10044 6.64374e-18
8556.10494 6.81336e-18
8559.10944 7.04731e-18
8562.10392 7.27529e-18
8565.10842 7.33765e-18
8568.11292 7.29253e-18
8571.10741 7.36085e-18
8574.11191 7.41568e-18
8577.11641 7.34477e-18
8580.11089 7.20886e-18
8583.11539 7.05321e-18
8586.11989 7.10328e-18
8589.11438 7.27140e-18
8592.11888 7.31537e-18
8595.12338 7.20193e-18
8598.12788 7.13080e-18
8601.12236 7.21029e-18
8604.12686 7.31116e-18
8607.13136 7.34891e-18
8610.12585 7.41801e-18
8613.13034 7.49260e-18
8616.13485 7.54791e-18
8619.12933 7.69443e-18
8622.13383 7.83428e-18
8625.13833 7.88478e-18
8628.13281 7.92688e-18
8631.13731 7.94876e-18
8634.14181 7.89363e-18
8637.14631 7.80580e-18
8640.14080 7.74972e-18
8643.14530 7.74867e-18
8646.14980 7.77667e-18
8649.14429 7.76323e-18
8652.14879 7.65406e-18
8655.15329 7.48822e-18
8658.14777 7.38070e-18
8661.15227 7.40296e-18
8664.15677 7.46725e-18
8667.15126 7.44644e-18
8670.15575 7.42504e-18
8673.16026 7.51147e-18
8676.16475 7.62809e-18
8679.15924 7.71103e-18
8682.16374 7.75099e-18
8685.16824 7.78034e-18
8688.16273 7.84986e-18
8691.16722 7.86114e-18
8694.17173 7.80475e-18
8697.16621 7.82409e-18
8700.17071 7.86709e-18
8703.17521 7.80874e-18
8706.16970 7.69977e-18
8709.17419 7.53559e-18
8712.17870 7.30093e-18
8715.17318 7.29030e-18
8718.17768 7.27045e-18
8721.18218 7.26479e-18
8724.18668 7.27729e-18
8727.18117 7.38764e-18
8730.18567 7.48208e-18
8733.19017 7.46772e-18
8736.18465 7.38558e-18
8739.18915 7.44060e-18
8742.19365 7.49364e-18
8745.18814 7.45904e-18
8748.19264 7.43807e-18
8751.19714 7.41276e-18
8754.19162 7.36877e-18
8757.19612 7.31099e-18
8760.20062 7.20534e-18
8763.20512 7.09011e-18
8766.19960 6.99131e-18
8769.20411 6.92810e-18
8772.20860 6.94480e-18
8775.20309 6.97842e-18
8778.20759 6.95441e-18
8781.21209 7.01920e-18
8784.20658 7.06948e-18
8787.21107 7.04045e-18
8790.21558 7.00136e-18
8793.21006 7.01036e-18
8796.21456 7.09056e-18
8799.21906 7.17031e-18
8802.22356 7.18556e-18
8805.21805 7.08221e-18
8808.22255 7.02191e-18
8811.22705 7.15613e-18
8814.22153 7.19454e-18
8817.22603 6.96316e-18
8820.23053 6.73650e-18
8823.22501 6.66227e-18
8826.22952 6.68337e-18
8829.23401 6.72500e-18
8832.22850 6.75570e-18
8835.23300 6.67850e-18
8838.23750 6.50224e-18
8841.24200 6.49901e-18
8844.23648 6.54544e-18
8847.24099 6.63529e-18
8850.24548 6.68061e-18
8853.23997 6.50556e-18
8856.24447 6.10777e-18
8859.24897 5.82236e-18
8862.24345 6.12289e-18
8865.24796 6.75081e-18
8868.25245 6.83830e-18
8871.24694 6.21639e-18
8874.25144 5.55354e-18
8877.25594 5.34304e-18
8880.25043 5.68970e-18
8883.25493 6.33837e-18
8886.25943 6.86071e-18
8889.26393 7.58090e-18
8892.25841 7.99520e-18
8895.26291 6.66032e-18
8898.26741 5.88763e-18
8901.26190 6.45496e-18
8904.26640 7.36308e-18
8907.27090 7.82249e-18
8910.26538 7.53649e-18
8913.26988 6.87801e-18
8916.27438 6.41541e-18
8919.26887 6.31678e-18
8922.27337 6.21561e-18
8925.27787 6.02279e-18
8928.28237 5.90996e-18
8931.27685 5.88863e-18
8934.28135 5.94547e-18
8937.28585 5.97320e-18
8940.28033 5.88472e-18
8943.28484 5.78902e-18
8946.28933 5.63772e-18
8949.28382 5.48621e-18
8952.28832 5.47916e-18
8955.29282 5.37841e-18
8958.29732 5.16616e-18
8961.29181 5.05442e-18
8964.29631 5.01328e-18
8967.30081 5.07223e-18
8970.29529 5.18338e-18
8973.29979 5.12042e-18
8976.30429 5.02102e-18
8979.29878 4.97066e-18
8982.30328 4.77289e-18
8985.30778 4.64763e-18
8988.30226 4.80785e-18
8991.30676 4.93453e-18
8994.31126 4.88538e-18
8997.30574 4.75354e-18
9000.31025 4.63817e-18
9003.31474 4.68915e-18
9006.30923 4.70412e-18
9009.31373 4.60299e-18
9012.31823 4.48698e-18
9015.32273 4.40281e-18
9018.31721 4.24136e-18
9021.32172 4.13244e-18
9024.32621 4.14086e-18
9027.32070 4.27606e-18
9030.32520 4.42749e-18
9033.32970 4.38128e-18
9036.32419 4.29297e-18
9039.32869 4.30972e-18
9042.33319 4.42159e-18
9045.32767 4.55643e-18
9048.33217 4.61131e-18
9051.33667 4.56956e-18
9054.33116 4.48844e-18
9057.33566 4.39021e-18
9060.34016 4.29441e-18
9063.34466 4.21255e-18
9066.33914 4.09162e-18
9069.34364 3.99629e-18
9072.34814 4.07711e-18
9075.34263 4.13854e-18
9078.34713 4.03468e-18
9081.35163 3.93665e-18
9084.34611 3.92141e-18
9087.35061 4.14683e-18
9090.35511 4.30096e-18
9093.34959 4.22597e-18
9096.35410 4.25942e-18
9099.35859 4.36043e-18
9102.36310 4.51454e-18
9105.35758 4.71832e-18
9108.36208 4.84007e-18
9111.36658 4.85397e-18
9114.36106 4.95899e-18
9117.36557 5.13454e-18
9120.37006 5.09977e-18
9123.36455 4.95614e-18
9126.36905 4.87764e-18
9129.37355 4.83739e-18
9132.37805 4.88837e-18
9135.37254 5.01758e-18
9138.37704 5.11365e-18
9141.38154 5.13957e-18
9144.37602 5.06086e-18
9147.38052 4.78442e-18
9150.38502 4.55695e-18
9153.37951 4.67485e-18
9156.38400 4.91944e-18
9159.38851 5.02442e-18
9162.38299 5.08058e-18
9165.38749 5.09243e-18
9168.39199 4.96596e-18
9171.38647 4.92136e-18
9174.39098 5.15747e-18
9177.39547 5.45526e-18
9180.38996 5.59091e-18
9183.39446 5.62646e-18
9186.39896 5.67784e-18
9189.40346 5.76725e-18
9192.39795 5.81769e-18
9195.40244 5.85294e-18
9198.40694 5.95431e-18
9201.78084 5.95431e-18
9206.06872 5.90858e-18
9210.34642 5.83335e-18
9214.63431 5.61810e-18
9218.92219 5.49466e-18
9223.19989 5.78251e-18
9227.48778 6.08265e-18
9231.77566 6.13817e-18
9236.06355 5.97137e-18
9240.34125 5.91157e-18
9244.62913 5.91875e-18
9248.91702 5.72282e-18
9253.19472 5.72858e-18
9257.48260 5.77343e-18
9261.77049 5.89874e-18
9266.05838 6.14173e-18
9270.33608 5.86574e-18
9274.62396 5.55810e-18
9278.91185 5.64092e-18
9283.18954 5.80056e-18
9287.47743 5.81303e-18
9291.76531 5.93834e-18
9296.04301 5.97747e-18
9300.33090 5.78295e-18
9304.61879 5.89722e-18
9308.90667 6.05483e-18
9313.18437 5.99382e-18
9317.47225 6.13530e-18
9321.76014 6.24585e-18
9326.03784 6.16288e-18
9330.32573 6.36374e-18
9334.61361 6.47780e-18
9338.90150 6.05731e-18
9343.17919 5.87960e-18
9347.46708 6.03469e-18
9351.75496 5.86274e-18
9356.03267 5.61104e-18
9360.32055 5.72637e-18
9364.60844 6.13533e-18
9368.88613 6.16294e-18
9373.17402 5.86762e-18
9377.46190 5.39878e-18
9381.74979 5.34779e-18
9386.02749 5.61164e-18
9390.31538 5.54461e-18
9394.60326 5.38220e-18
9398.89114 5.32150e-18
9403.16885 5.40044e-18
9407.45673 5.59385e-18
9411.74462 5.45655e-18
9416.02232 5.15309e-18
9420.31020 5.20327e-18
9424.59808 5.68048e-18
9428.87579 5.80998e-18
9433.16367 5.44769e-18
9437.45155 5.21680e-18
9441.73944 5.07859e-18
9446.01714 5.04805e-18
9450.30502 5.32734e-18
9454.59291 5.41241e-18
9458.87061 5.12239e-18
9463.15849 5.07360e-18
9467.44638 5.56739e-18
9471.72408 5.79696e-18
9476.01196 5.43469e-18
9480.29985 5.06564e-18
9484.58773 4.94409e-18
9488.86543 5.22856e-18
9493.15332 5.33988e-18
9497.44120 5.04239e-18
9501.71890 4.98462e-18
9506.00679 5.25663e-18
9510.29467 5.78910e-18
9514.57237 5.66776e-18
9518.86026 5.10554e-18
9523.14814 5.22588e-18
9527.43603 5.74543e-18
9531.71373 5.81310e-18
9536.00162 5.70587e-18
9540.28950 5.56002e-18
9544.56720 5.40426e-18
9548.85508 5.18774e-18
9553.14297 5.07561e-18
9557.43085 5.24828e-18
9561.70856 5.08229e-18
9565.99644 5.17422e-18
9570.28433 5.29952e-18
9574.56202 5.21954e-18
9578.84991 5.26983e-18
9583.13779 5.26855e-18
9587.42568 5.12878e-18
9591.70338 5.01705e-18
9595.99127 5.06915e-18
9600.27915 5.18780e-18
9604.55685 5.39999e-18
9608.84473 5.53716e-18
9613.13262 5.65277e-18
9617.41032 5.78931e-18
9621.69821 5.63425e-18
9625.98609 5.44490e-18
9630.27398 5.38576e-18
9634.55167 5.37730e-18
9638.83956 5.21709e-18
9643.12744 4.99214e-18
9647.40514 4.90242e-18
9651.69303 4.59877e-18
9655.98092 4.46637e-18
9660.26880 4.71223e-18
9664.54650 4.94741e-18
9668.83438 5.02174e-18
9673.12227 5.26528e-18
9677.39997 5.38082e-18
9681.68786 5.20244e-18
9685.97574 4.93775e-18
9690.26362 4.98407e-18
9694.54133 5.48481e-18
9698.82921 5.91494e-18
9703.11709 5.88738e-18
9707.39480 5.25221e-18
9711.68268 4.74084e-18
9715.97056 4.70441e-18
9720.24827 4.57915e-18
9724.53615 4.45347e-18
9728.82403 4.28677e-18
9733.11192 4.00174e-18
9737.38962 4.05412e-18
9741.67750 4.56662e-18
9745.96539 5.03108e-18
9750.24309 4.98559e-18
9754.53097 4.71260e-18
9758.81886 4.68934e-18
9763.09656 4.86284e-18
9767.38444 4.88397e-18
9771.67233 4.85770e-18
9775.96021 4.97898e-18
9780.23791 4.83217e-18
9784.52580 4.43285e-18
9788.81368 4.45680e-18
9793.09138 4.43938e-18
9797.37927 4.30534e-18
9801.66715 4.43139e-18
9805.94485 4.66529e-18
9810.23274 4.80152e-18
9814.52062 4.61682e-18
9818.80851 4.30704e-18
9823.08621 4.25990e-18
9827.37410 4.08842e-18
9831.66198 4.00332e-18
9835.94987 4.37334e-18
9840.22756 4.47613e-18
9844.51545 4.36502e-18
9848.80333 4.59899e-18
9853.08104 4.43622e-18
9857.36892 3.79662e-18
9861.65681 3.54876e-18
9865.93450 3.67657e-18
9870.22239 3.69963e-18
9874.51027 3.54623e-18
9878.79816 3.56013e-18
9883.07586 3.82975e-18
9887.36375 4.06203e-18
9891.65163 4.19945e-18
9895.92933 4.13051e-18
9900.21721 3.81396e-18
9904.50510 3.54150e-18
9908.79298 3.41524e-18
9913.07069 3.97254e-18
9917.35857 4.12952e-18
9921.64646 3.65036e-18
9925.92415 3.43936e-18
9930.21204 3.28098e-18
9934.49992 3.04018e-18
9938.77762 2.96242e-18
9943.06551 3.24633e-18
9947.35340 3.42735e-18
9951.64128 3.39796e-18
9955.91898 3.04736e-18
9960.20687 2.79698e-18
9964.49475 3.05353e-18
9968.77245 3.61792e-18
9973.06034 4.01667e-18
9977.34822 3.95834e-18
9981.63610 4.00441e-18
9985.91381 4.27665e-18
9990.20169 4.46191e-18
9994.48957 4.48302e-18
9998.76728 4.54004e-18
