# wavelength flux
3500.03451 4.72886e-18
3504.84183 1.58325e-18
3509.65933 1.22165e-17
3514.46666 2.72544e-17
3519.27397 1.72498e-17
3524.09148 -5.63969e-18
3528.89880 -5.10713e-18
3533.70612 -7.34212e-19
3538.52362 1.42741e-17
3543.33094 2.16266e-17
3548.13827 8.97610e-18
3552.95577 -6.17240e-18
3557.76309 1.00076e-17
3562.57041 1.72385e-17
3567.38791 1.30153e-17
3572.19523 1.42408e-17
3577.00256 1.77008e-17
3581.82006 3.10612e-17
3586.62738 1.00926e-17
3591.43470 -7.45496e-18
3596.25220 2.54593e-18
3601.05953 2.50836e-17
3605.86684 2.06825e-17
3610.68435 1.82145e-17
3615.49167 3.11718e-17
3620.29899 2.32110e-17
3625.11649 1.68476e-17
3629.92381 1.44479e-17
3634.73113 1.31335e-17
3639.54864 1.07289e-17
3644.35596 4.61520e-18
3649.16328 4.51752e-18
3653.98079 3.40410e-18
3658.78810 5.27276e-18
3663.59542 9.58720e-18
3668.41293 4.12998e-18
3673.22025 3.92103e-18
3678.02757 9.85033e-18
3682.84507 1.10614e-17
3687.65240 1.72242e-17
3692.45971 1.90723e-17
3697.27722 1.22089e-17
3702.08454 4.10131e-18
3706.89186 2.62620e-18
3711.70936 5.09996e-18
3716.51669 1.49679e-18
3721.32400 -5.62833e-19
3726.14151 4.72338e-18
3730.94883 1.00859e-17
3735.75615 1.30263e-17
3740.57366 1.28004e-17
3745.38097 5.93905e-18
3750.18829 5.85053e-18
3755.00580 1.23064e-17
3759.81312 1.01487e-17
3764.62044 4.72019e-18
3769.43794 4.80617e-18
3774.24527 8.05851e-18
3779.05258 7.87375e-18
3783.87009 7.68912e-18
3788.67741 7.50465e-18
3793.48473 7.32033e-18
3798.30223 7.13614e-18
3803.10956 6.95210e-18
3807.91687 6.76820e-18
3812.72419 6.58443e-18
3817.54170 6.40080e-18
3822.34902 7.26279e-18
3827.15634 5.37692e-18
3831.97384 6.08981e-18
3836.78116 8.10574e-18
3841.58848 7.57375e-18
3846.40599 5.73459e-18
3851.21331 3.31523e-18
3856.02063 4.62243e-18
3860.83813 9.66974e-18
3865.64545 1.17524e-17
3870.45277 7.80186e-18
3875.27028 6.42373e-18
3880.07760 1.18503e-17
3884.88492 8.48181e-18
3889.70242 9.76360e-18
3894.50974 9.37551e-18
3899.31706 1.14006e-17
3904.13457 9.62893e-18
3908.94189 8.80786e-18
3913.74921 7.95317e-18
3918.56671 7.53751e-18
3923.37403 7.52852e-18
3928.18135 7.12488e-18
3932.99886 8.21541e-18
3937.80618 9.68738e-18
3942.61350 1.07960e-17
3947.43100 1.05610e-17
3952.23832 9.49218e-18
3957.04565 9.22998e-18
3961.86315 7.40246e-18
3966.67047 1.05649e-17
3971.47779 1.49212e-17
3976.29529 1.39881e-17
3981.10261 1.18147e-17
3985.90994 1.26397e-17
3990.72744 1.45647e-17
3995.53476 1.44632e-17
4000.34208 1.27815e-17
4005.15958 1.27659e-17
4009.96690 1.35719e-17
4014.77422 1.20911e-17
4019.59173 1.08689e-17
4024.39905 1.11971e-17
4029.20637 9.73876e-18
4034.02387 7.86534e-18
4038.83119 6.98260e-18
4043.63852 7.80595e-18
4048.45602 8.05830e-18
4053.26334 7.71922e-18
4058.07066 8.76205e-18
4062.88816 9.18820e-18
4067.69548 1.02621e-17
4072.50281 1.20509e-17
4077.32031 1.17537e-17
4082.12763 1.29687e-17
4086.93495 1.52174e-17
4091.75245 1.55491e-17
4096.55977 1.56697e-17
4101.36709 1.59349e-17
4106.18460 1.66676e-17
4110.99192 1.81020e-17
4115.79924 1.88526e-17
4120.61675 1.83873e-17
4125.42406 1.70499e-17
4130.23139 1.58346e-17
4135.04889 1.51325e-17
4139.85621 1.36017e-17
4144.66353 1.38495e-17
4149.48103 1.42017e-17
4154.28835 1.27341e-17
4159.09567 1.11135e-17
4163.91318 1.11667e-17
4168.72050 1.22813e-17
4173.52782 1.20033e-17
4178.34532 1.18483e-17
4183.15265 1.15985e-17
4187.95997 1.12613e-17
4192.77747 1.08211e-17
4197.58479 1.05545e-17
4202.39211 1.06198e-17
4207.20961 1.07464e-17
4212.01693 1.06739e-17
4216.82425 1.02956e-17
4221.64176 1.06797e-17
4226.44908 1.08044e-17
4231.25640 1.03832e-17
4236.07391 9.92261e-18
4240.88123 9.80745e-18
4245.68854 9.98864e-18
4250.50605 9.22090e-18
4255.31337 9.13897e-18
4260.12069 9.13217e-18
4264.93819 8.63375e-18
4269.74551 7.96425e-18
4274.55283 7.99543e-18
4279.37034 7.77154e-18
4284.17766 7.39070e-18
4288.98498 7.05366e-18
4293.80249 6.41147e-18
4298.60980 6.67932e-18
4303.41712 7.18512e-18
4308.23463 7.05959e-18
4313.04195 6.78374e-18
4317.84927 7.14143e-18
4322.66677 7.66489e-18
4327.47409 8.32839e-18
4332.28142 8.97413e-18
4337.09892 8.74054e-18
4341.90624 8.51816e-18
4346.71356 8.92031e-18
4351.53106 8.72708e-18
4356.33839 8.09878e-18
4361.14570 7.84145e-18
4365.95302 8.49577e-18
4370.77053 9.63747e-18
4375.57785 9.54073e-18
4380.39535 9.52627e-18
4385.20268 9.31670e-18
4390.01000 8.51567e-18
4394.82750 7.94417e-18
4399.63482 8.31562e-18
4404.44214 8.54586e-18
4409.25965 8.53603e-18
4414.06696 9.12598e-18
4418.87428 9.86071e-18
4423.68160 9.82864e-18
4428.49911 9.67305e-18
4433.30643 9.51755e-18
4438.11375 9.36213e-18
4442.93125 9.20677e-18
4447.73857 9.05152e-18
4452.54590 8.89637e-18
4457.36340 8.74130e-18
4462.17072 8.58632e-18
4466.97804 8.43142e-18
4471.79554 8.48363e-18
4476.60286 8.12446e-18
4481.41018 7.88265e-18
4486.22769 8.00895e-18
4491.03501 8.24279e-18
4495.84233 8.13129e-18
4500.65983 7.69999e-18
4505.46716 7.59421e-18
4510.27448 7.86119e-18
4515.09198 8.27500e-18
4519.89930 8.18037e-18
4524.70662 8.03753e-18
4529.52412 7.65689e-18
4534.33144 7.77664e-18
4539.13876 8.17927e-18
4543.95627 7.99656e-18
4548.76359 8.01514e-18
4553.57091 8.13042e-18
4558.38842 8.14648e-18
4563.19574 8.63425e-18
4568.00305 9.49078e-18
4572.82056 9.58622e-18
4577.62788 9.67647e-18
4582.43520 9.89314e-18
4587.25270 1.00155e-17
4592.06002 1.04490e-17
4596.86734 1.13918e-17
4601.68485 1.22694e-17
4606.49217 1.27287e-17
4611.29949 1.28494e-17
4616.11700 1.34741e-17
4620.92431 1.41567e-17
4625.73164 1.44650e-17
4630.54914 1.51907e-17
4635.35646 1.56869e-17
4640.16378 1.56132e-17
4644.98128 1.59346e-17
4649.78860 1.61615e-17
4654.59592 1.65049e-17
4659.41343 1.74608e-17
4664.22075 1.80168e-17
4669.02807 1.80559e-17
4673.84557 1.84712e-17
4678.65290 1.89582e-17
4683.46022 1.91229e-17
4688.27772 1.89089e-17
4693.08504 1.83889e-17
4697.89236 1.82556e-17
4702.70986 1.86421e-17
4707.51718 1.89020e-17
4712.32450 1.91789e-17
4717.14201 1.96008e-17
4721.94933 1.89779e-17
4726.75665 1.80634e-17
4731.57416 1.78539e-17
4736.38148 1.75251e-17
4741.18879 1.73321e-17
4746.00630 1.71269e-17
4750.81362 1.65348e-17
4755.62094 1.61302e-17
4760.43844 1.56689e-17
4765.24576 1.48156e-17
4770.05308 1.39263e-17
4774.87059 1.29993e-17
4779.67791 1.19070e-17
4784.48523 1.12797e-17
4789.30274 1.06550e-17
4794.11005 1.00486e-17
4798.91737 9.54279e-18
4803.73488 9.15935e-18
4808.54220 9.17137e-18
4813.34952 9.82620e-18
4818.16702 1.04594e-17
4822.97434 1.08398e-17
4827.78166 1.15637e-17
4832.59917 1.18793e-17
4837.40649 1.22693e-17
4842.21381 1.27168e-17
4847.03131 1.27282e-17
4851.83864 1.28283e-17
4856.64595 1.30328e-17
4861.46346 1.34758e-17
4866.27078 1.39983e-17
4871.07810 1.41841e-17
4875.89560 1.43339e-17
4880.70292 1.46098e-17
4885.51025 1.42100e-17
4890.32775 1.34722e-17
4895.13507 1.27052e-17
4899.94239 1.25812e-17
4904.75990 1.26190e-17
4909.56722 1.20445e-17
4914.37453 1.15957e-17
4919.19204 1.16362e-17
4923.99936 1.17987e-17
4928.80668 1.19909e-17
4933.62418 1.23074e-17
4938.43150 1.26237e-17
4943.23882 1.29398e-17
4948.05633 1.32557e-17
4952.86365 1.35714e-17
4957.67097 1.38868e-17
4962.48848 1.42021e-17
4967.29579 1.45171e-17
4972.10311 1.48320e-17
4976.92062 1.46309e-17
4981.72794 1.42613e-17
4986.53526 1.34994e-17
4991.35276 1.30473e-17
4996.16008 1.27543e-17
5000.96741 1.25609e-17
5005.77473 1.23499e-17
5010.59223 1.25965e-17
5015.39955 1.26566e-17
5020.20687 1.22826e-17
5025.02437 1.24634e-17
5029.83169 1.31269e-17
5034.63901 1.34323e-17
5039.45652 1.37375e-17
5044.26384 1.40426e-17
5049.07116 1.43475e-17
5053.88867 1.46521e-17
5058.69599 1.49566e-17
5063.50330 1.52609e-17
5068.32081 1.55650e-17
5073.12813 1.58689e-17
5077.93545 1.56734e-17
5082.75295 1.54271e-17
5087.56027 1.51810e-17
5092.36759 1.49351e-17
5097.18510 1.46893e-17
5101.99242 1.44437e-17
5106.79974 1.41983e-17
5111.61725 1.39530e-17
5116.42456 1.37079e-17
5121.23189 1.34629e-17
5126.04939 1.27139e-17
5130.85671 1.18271e-17
5135.66403 1.13104e-17
5140.48153 1.09077e-17
5145.28885 1.04399e-17
5150.09617 1.01117e-17
5154.91368 9.88257e-18
5159.72100 9.70417e-18
5164.52832 9.63130e-18
5169.34582 9.52532e-18
5174.15315 9.51297e-18
5178.96047 9.77193e-18
5183.77797 1.00551e-17
5188.58529 1.02538e-17
5193.39261 1.05352e-17
5198.21011 1.08037e-17
5203.01743 1.10249e-17
5207.82475 1.12676e-17
5212.64226 1.14550e-17
5217.44958 1.15616e-17
5222.25690 1.15757e-17
5227.07441 1.17463e-17
5231.88173 1.21232e-17
5236.68904 1.24924e-17
5241.50655 1.24658e-17
5246.31387 1.20615e-17
5251.12119 1.22541e-17
5255.93869 1.26881e-17
5260.74601 1.25848e-17
5265.55333 1.26167e-17
5270.37084 1.27491e-17
5275.17816 1.24423e-17
5279.98548 1.22883e-17
5284.80299 1.23433e-17
5289.61030 1.24761e-17
5294.41763 1.25438e-17
5299.23513 1.22328e-17
5304.04245 1.22462e-17
5308.84977 1.24228e-17
5313.66727 1.23960e-17
5318.47459 1.25442e-17
5323.28191 1.26862e-17
5328.09942 1.29352e-17
5332.90674 1.31339e-17
5337.71406 1.30877e-17
5342.53156 1.31931e-17
5347.33889 1.35768e-17
5352.14621 1.38580e-17
5356.96371 1.41322e-17
5361.77103 1.42626e-17
5366.57835 1.42901e-17
5371.39585 1.47634e-17
5376.20317 1.53082e-17
5381.01050 1.57634e-17
5385.82800 1.61292e-17
5390.63532 1.62213e-17
5395.44264 1.62931e-17
5400.26015 1.64683e-17
5405.06747 1.67025e-17
5409.87478 1.67900e-17
5414.69229 1.68641e-17
5419.49961 1.71760e-17
5424.30693 1.75965e-17
5429.12443 1.79877e-17
5433.93175 1.79154e-17
5438.73907 1.76672e-17
5443.55658 1.74250e-17
5448.36390 1.75896e-17
5453.17122 1.79385e-17
5457.98873 1.80089e-17
5462.79604 1.80777e-17
5467.60336 1.80589e-17
5472.42087 1.82706e-17
5477.22819 1.83110e-17
5482.03551 1.83487e-17
5486.85301 1.82824e-17
5491.66033 1.80910e-17
5496.46765 1.82811e-17
5501.28516 1.83952e-17
5506.09248 1.81128e-17
5510.89980 1.77294e-17
5515.71730 1.74958e-17
5520.52463 1.70706e-17
5525.33194 1.69265e-17
5530.14945 1.70315e-17
5534.95677 1.69766e-17
5539.76409 1.67935e-17
5544.58159 1.66599e-17
5549.38891 1.67525e-17
5554.19624 1.67157e-17
5559.01374 1.63196e-17
5563.82106 1.61162e-17
5568.62838 1.62623e-17
5573.44589 1.66205e-17
5578.25320 1.73883e-17
5583.06052 1.79183e-17
5587.87803 1.83546e-17
5592.68535 1.86325e-17
5597.49267 1.85596e-17
5602.29999 1.92509e-17
5607.11750 1.95909e-17
5611.92481 1.94376e-17
5616.73214 1.94484e-17
5621.54964 1.97421e-17
5626.35696 1.98171e-17
5631.16428 1.93093e-17
5635.98178 1.89379e-17
5640.78910 1.90794e-17
5645.59642 1.94028e-17
5650.41393 1.92983e-17
5655.22125 1.93374e-17
5660.02857 1.92591e-17
5664.84607 1.85827e-17
5669.65340 1.80208e-17
5674.47090 1.73431e-17
5679.27822 1.66470e-17
5684.08554 1.64054e-17
5688.89286 1.60008e-17
5693.71036 1.57489e-17
5698.51768 1.57992e-17
5703.32500 1.58633e-17
5708.14251 1.59048e-17
5712.94983 1.57224e-17
5717.75715 1.59426e-17
5722.57465 1.61646e-17
5727.38198 1.57748e-17
5732.18929 1.57073e-17
5737.00680 1.59345e-17
5741.81412 1.58538e-17
5746.62144 1.54736e-17
5751.43894 1.51774e-17
5756.24626 1.50200e-17
5761.05358 1.44808e-17
5765.87109 1.38428e-17
5770.67841 1.35235e-17
5775.48573 1.29218e-17
5780.30324 1.20119e-17
5785.11055 1.15587e-17
5789.91788 1.15227e-17
5794.73538 1.12922e-17
5799.54270 1.10304e-17
5804.35002 1.12250e-17
5809.16752 1.11147e-17
5813.97484 1.04199e-17
5818.78216 1.00480e-17
5823.59967 9.90944e-18
5828.40699 9.50578e-18
5833.21431 8.94761e-18
5838.03181 8.64176e-18
5842.83914 8.42864e-18
5847.64646 8.26246e-18
5852.46396 8.14444e-18
5857.27128 8.17643e-18
5862.07860 8.12815e-18
5866.89610 8.21269e-18
5871.70342 8.54731e-18
5876.51075 8.92537e-18
5881.32825 8.89331e-18
5886.13557 8.79564e-18
5890.94289 9.12931e-18
5895.76040 9.52057e-18
5900.56772 1.05214e-17
5905.37503 1.19555e-17
5910.19254 1.30786e-17
5914.99986 1.37403e-17
5919.80718 1.47165e-17
5924.62468 1.55051e-17
5929.43200 1.55082e-17
5934.23932 1.60713e-17
5939.05683 1.67322e-17
5943.86415 1.71033e-17
5948.67147 1.81969e-17
5953.48898 1.91722e-17
5958.29629 1.94197e-17
5963.10361 1.95865e-17
5967.92112 1.98951e-17
5972.72844 2.01149e-17
5977.53576 2.02040e-17
5982.35326 2.02579e-17
5987.16058 2.01943e-17
5991.96790 2.00634e-17
5996.78541 1.99939e-17
6001.59273 1.99997e-17
6006.40005 2.01210e-17
6011.21755 2.00236e-17
6016.02488 2.00469e-17
6020.83219 2.00208e-17
6025.64970 1.99221e-17
6030.45702 2.01551e-17
6035.26434 1.99613e-17
6040.08184 1.98772e-17
6044.88916 1.99827e-17
6049.69649 1.95816e-17
6054.51399 1.93496e-17
6059.32131 1.94817e-17
6064.12863 1.91575e-17
6068.94614 1.88140e-17
6073.75346 1.88124e-17
6078.56077 1.86293e-17
6083.37828 1.85237e-17
6088.18560 1.82528e-17
6092.99292 1.77401e-17
6097.81042 1.76143e-17
6102.61775 1.75387e-17
6107.42506 1.77182e-17
6112.24257 1.77112e-17
6117.04989 1.71353e-17
6121.85721 1.67433e-17
6126.67472 1.68965e-17
6131.48203 1.69229e-17
6136.28935 1.70021e-17
6141.10686 1.67090e-17
6145.91418 1.59611e-17
6150.72150 1.56387e-17
6155.53900 1.56452e-17
6160.34632 1.56326e-17
6165.15364 1.56691e-17
6169.97115 1.55324e-17
6174.77847 1.50079e-17
6179.58579 1.48407e-17
6184.39311 1.46670e-17
6189.21061 1.44454e-17
6194.01793 1.42770e-17
6198.82525 1.39681e-17
6203.64276 1.39317e-17
6208.45008 1.43610e-17
6213.25740 1.48183e-17
6218.07490 1.49687e-17
6222.88223 1.51270e-17
6227.69973 1.51907e-17
6232.50705 1.47850e-17
6237.31437 1.44758e-17
6242.12169 1.45522e-17
6246.93919 1.45234e-17
6251.74651 1.44354e-17
6256.56402 1.43658e-17
6261.37134 1.42066e-17
6266.17866 1.39608e-17
6270.98598 1.37965e-17
6275.80349 1.34366e-17
6280.61080 1.30999e-17
6285.41813 1.29333e-17
6290.23563 1.31282e-17
6295.04295 1.34092e-17
6299.85027 1.36953e-17
6304.66777 1.40767e-17
6309.47509 1.44318e-17
6314.28241 1.44142e-17
6319.09992 1.42274e-17
6323.90724 1.43054e-17
6328.71456 1.41719e-17
6333.53206 1.41598e-17
6338.33939 1.44999e-17
6343.14671 1.43673e-17
6347.96421 1.42192e-17
6352.77153 1.42257e-17
6357.57885 1.40848e-17
6362.39635 1.39671e-17
6367.20367 1.39604e-17
6372.01100 1.38613e-17
6376.82850 1.40881e-17
6381.63582 1.41579e-17
6386.44314 1.40235e-17
6391.26064 1.39937e-17
6396.06797 1.38601e-17
6400.87528 1.38216e-17
6405.69279 1.36580e-17
6410.50011 1.36010e-17
6415.30743 1.36769e-17
6420.12493 1.36409e-17
6424.93225 1.34056e-17
6429.73957 1.32788e-17
6434.55708 1.32323e-17
6439.36440 1.32162e-17
6444.17172 1.30972e-17
6448.98923 1.27667e-17
6453.79654 1.22611e-17
6458.60387 1.17829e-17
6463.42137 1.18236e-17
6468.22869 1.21601e-17
6473.03601 1.21166e-17
6477.85351 1.19481e-17
6482.66083 1.19088e-17
6487.46815 1.19298e-17
6492.28566 1.20686e-17
6497.09298 1.21865e-17
6501.90030 1.26912e-17
6506.71780 1.34232e-17
6511.52513 1.42703e-17
6516.33245 1.53546e-17
6521.14995 1.60351e-17
6525.95727 1.64267e-17
6530.76459 1.67501e-17
6535.58209 1.69923e-17
6540.38941 1.73979e-17
6545.19674 1.78674e-17
6550.01424 1.82761e-17
6554.82156 1.87088e-17
6559.62888 1.90951e-17
6564.44639 1.95188e-17
6569.25371 1.98238e-17
6574.06102 2.02015e-17
6578.87853 2.07988e-17
6583.68585 2.11267e-17
6588.49317 2.11074e-17
6593.31067 2.11141e-17
6598.11800 2.11904e-17
6602.92531 2.12210e-17
6607.74282 2.13518e-17
6612.55014 2.13472e-17
6617.35746 2.11493e-17
6622.17497 2.10596e-17
6626.98228 2.08594e-17
6631.78960 2.05364e-17
6636.60711 2.01576e-17
6641.41443 1.97570e-17
6646.22175 1.96620e-17
6651.03925 1.95435e-17
6655.84657 1.96173e-17
6660.65389 1.96910e-17
6665.47140 1.97648e-17
6670.27872 1.98385e-17
6675.08604 1.99123e-17
6679.90354 1.99860e-17
6684.71087 2.00596e-17
6689.51818 2.01333e-17
6694.33569 2.02069e-17
6699.14301 2.02806e-17
6703.95033 2.03542e-17
6708.76783 2.04277e-17
6713.57515 2.05013e-17
6718.38248 2.05748e-17
6723.19998 2.07692e-17
6728.00730 2.12954e-17
6732.81462 2.12502e-17
6737.63213 2.12328e-17
6742.43944 2.15898e-17
6747.24676 2.17537e-17
6752.06427 2.16461e-17
6756.87159 2.15314e-17
6761.67891 2.14276e-17
6766.48623 2.15023e-17
6771.30374 2.16385e-17
6776.11105 2.15364e-17
6780.92856 2.15982e-17
6785.73588 2.13526e-17
6790.54320 2.10359e-17
6795.35052 2.09896e-17
6800.16802 2.07926e-17
6804.97534 2.03094e-17
6809.79285 2.01883e-17
6814.60017 2.05795e-17
6819.40749 2.05164e-17
6824.21481 1.98746e-17
6829.03231 1.94869e-17
6833.83963 1.96043e-17
6838.65714 1.98442e-17
6843.46446 1.99073e-17
6848.27178 1.96105e-17
6853.07910 1.93138e-17
6857.89660 1.90172e-17
6862.70392 1.87206e-17
6867.51125 1.84242e-17
6872.32875 1.81278e-17
6877.13607 1.78315e-17
6881.94339 1.75352e-17
6886.76089 1.72391e-17
6891.56822 1.69431e-17
6896.37553 1.66471e-17
6901.19304 1.63512e-17
6906.00036 1.60554e-17
6910.80768 1.57597e-17
6915.62518 1.54641e-17
6920.43250 1.51685e-17
6925.23982 1.48731e-17
6930.05733 1.45777e-17
6934.86465 1.42824e-17
6939.67197 1.39872e-17
6944.48948 1.39856e-17
6949.29679 1.39605e-17
6954.10412 1.41735e-17
6958.92162 1.42906e-17
6963.72894 1.41436e-17
6968.53626 1.38470e-17
6973.35376 1.34099e-17
6978.16108 1.34927e-17
6982.96840 1.36901e-17
6987.78591 1.34139e-17
6992.59323 1.31318e-17
6997.40055 1.29725e-17
7002.21805 1.28837e-17
7007.02538 1.26303e-17
7011.83270 1.21193e-17
7016.65020 1.21281e-17
7021.45752 1.21534e-17
7026.26484 1.20280e-17
7031.08234 1.20018e-17
7035.88966 1.18503e-17
7040.69699 1.15587e-17
7045.51449 1.11352e-17
7050.32181 1.10340e-17
7055.12913 1.11959e-17
7059.94663 1.12528e-17
7064.75396 1.13813e-17
7069.56127 1.14503e-17
7074.37878 1.14008e-17
7079.18610 1.17109e-17
7083.99342 1.20359e-17
7088.81092 1.21446e-17
7093.61825 1.23155e-17
7098.42556 1.25271e-17
7103.24307 1.26309e-17
7108.05039 1.31059e-17
7112.85771 1.38456e-17
7117.67522 1.37582e-17
7122.48253 1.36308e-17
7127.28985 1.40885e-17
7132.10736 1.45178e-17
7136.91468 1.45478e-17
7141.72200 1.43488e-17
7146.53950 1.41932e-17
7151.34682 1.39410e-17
7156.15414 1.33905e-17
7160.97165 1.28741e-17
7165.77897 1.31138e-17
7170.58629 1.40072e-17
7175.40379 1.47314e-17
7180.21112 1.51199e-17
7185.01843 1.53408e-17
7189.83594 1.58223e-17
7194.64326 1.59852e-17
7199.45058 1.56047e-17
7204.26808 1.49902e-17
7209.07540 1.43092e-17
7213.88273 1.41260e-17
7218.70023 1.41427e-17
7223.50755 1.38322e-17
7228.31487 1.34254e-17
7233.13238 1.32777e-17
7237.93970 1.33043e-17
7242.74701 1.34988e-17
7247.56452 1.33482e-17
7252.37184 1.28371e-17
7257.17916 1.26211e-17
7261.99666 1.25238e-17
7266.80399 1.24747e-17
7271.61130 1.21910e-17
7276.42881 1.19229e-17
7281.23613 1.17915e-17
7286.04345 1.16540e-17
7290.86096 1.17160e-17
7295.66827 1.17885e-17
7300.47559 1.15660e-17
7305.29310 1.12815e-17
7310.10042 1.10573e-17
7314.90774 1.13720e-17
7319.72525 1.16187e-17
7324.53256 1.15925e-17
7329.33988 1.16753e-17
7334.15739 1.15681e-17
7338.96471 1.18137e-17
7343.77203 1.22870e-17
7348.57935 1.21016e-17
7353.39685 1.15568e-17
7358.20417 1.14684e-17
7363.02168 1.14768e-17
7367.82900 1.11555e-17
7372.63632 1.12229e-17
7377.44364 1.16736e-17
7382.26114 1.19242e-17
7387.06847 1.18468e-17
7391.88597 1.20940e-17
7396.69329 1.25238e-17
7401.50061 1.23596e-17
7406.30793 1.19495e-17
7411.12543 1.19801e-17
7415.93275 1.21964e-17
7420.75026 1.21480e-17
7425.55758 1.18114e-17
7430.36490 1.14564e-17
7435.17222 1.14404e-17
7439.98973 1.14823e-17
7444.79704 1.13512e-17
7449.60436 1.13496e-17
7454.42187 1.13305e-17
7459.22919 1.11711e-17
7464.03651 1.08474e-17
7468.85401 1.06384e-17
7473.66133 1.05434e-17
7478.46865 1.05782e-17
7483.28616 1.08163e-17
7488.09348 1.09639e-17
7492.90080 1.08519e-17
7497.71830 1.04194e-17
7502.52562 1.03826e-17
7507.33295 1.04481e-17
7512.15045 1.03385e-17
7516.95777 1.03335e-17
7521.76509 1.04063e-17
7526.58259 1.07046e-17
7531.38991 1.08360e-17
7536.19724 1.06222e-17
7541.01474 1.03938e-17
7545.82206 1.01315e-17
7550.62938 1.00838e-17
7555.44688 1.00362e-17
7560.25421 9.98848e-18
7565.06152 9.94082e-18
7569.87903 9.89317e-18
7574.68635 9.84554e-18
7579.49367 9.79792e-18
7584.31117 9.75031e-18
7589.11849 9.70272e-18
7593.92581 9.65515e-18
7598.74332 9.60758e-18
7603.55064 9.56003e-18
7608.35796 9.51250e-18
7613.17547 9.46498e-18
7617.98278 9.41747e-18
7622.79011 9.36997e-18
7627.60761 9.32250e-18
7632.41493 9.27503e-18
7637.22225 9.22758e-18
7642.03975 9.18014e-18
7646.84707 9.13272e-18
7651.65439 9.08532e-18
7656.47190 9.03793e-18
7661.27922 8.99054e-18
7666.08654 8.94317e-18
7670.90404 8.89582e-18
7675.71137 8.84849e-18
7680.51869 8.80117e-18
7685.33619 8.94782e-18
7690.14351 9.11875e-18
7694.95083 8.84017e-18
7699.76833 8.75904e-18
7704.57565 8.93599e-18
7709.38298 8.74401e-18
7714.20048 8.19560e-18
7719.00780 7.93851e-18
7723.81512 8.15654e-18
7728.63262 8.14250e-18
7733.43995 7.81482e-18
7738.24726 7.80128e-18
7743.06477 7.90238e-18
7747.87209 8.05862e-18
7752.67941 7.84455e-18
7757.49691 7.41798e-18
7762.30424 7.10338e-18
7767.11155 6.96267e-18
7771.92906 6.96448e-18
7776.73638 6.95061e-18
7781.54370 6.80344e-18
7786.36121 6.61354e-18
7791.16852 6.46003e-18
7795.97584 6.06656e-18
7800.79335 6.17341e-18
7805.60067 6.64999e-18
7810.40799 6.89539e-18
7815.22550 7.09375e-18
7820.03281 7.35301e-18
7824.84013 7.64250e-18
7829.65764 7.79954e-18
7834.46496 7.93356e-18
7839.27228 8.26814e-18
7844.08978 8.25853e-18
7848.89711 8.30922e-18
7853.70442 8.25943e-18
7858.52193 8.20337e-18
7863.32925 8.22460e-18
7868.13657 8.80752e-18
7872.95407 9.27330e-18
7877.76139 9.45653e-18
7882.56872 9.72392e-18
7887.38622 9.70080e-18
7892.19354 9.29800e-18
7897.00086 8.97627e-18
7901.81837 9.23512e-18
7906.62568 9.72168e-18
7911.43300 1.00208e-17
7916.25051 1.00187e-17
7921.05783 9.95857e-18
7925.86515 9.74351e-18
7930.68265 9.08115e-18
7935.48998 8.56555e-18
7940.29729 8.68073e-18
7945.11480 9.00388e-18
7949.92212 9.27969e-18
7954.72944 9.41048e-18
7959.53676 9.37543e-18
7964.35426 9.33723e-18
7969.16158 9.43929e-18
7973.97909 9.30805e-18
7978.78641 9.10101e-18
7983.59373 9.19859e-18
7988.41124 9.25418e-18
7993.21855 9.18944e-18
7998.02587 9.12045e-18
8002.84338 8.86100e-18
8007.65070 8.69548e-18
8012.45802 8.63068e-18
8017.27552 8.67793e-18
8022.08284 8.67041e-18
8026.89016 8.45464e-18
8031.69748 8.43001e-18
8036.51499 8.64884e-18
8041.32231 8.50980e-18
8046.12963 8.17895e-18
8050.94713 7.87834e-18
8055.75446 7.59482e-18
8060.56177 7.70817e-18
8065.37928 7.60474e-18
8070.18660 7.56715e-18
8074.99392 7.74790e-18
8079.81142 7.87917e-18
8084.61874 7.93718e-18
8089.42606 7.84957e-18
8094.24357 7.69836e-18
8099.05089 7.42574e-18
8103.85821 7.03714e-18
8108.67572 6.86103e-18
8113.48303 6.87476e-18
8118.29035 6.90343e-18
8123.10786 6.81728e-18
8127.91518 6.68194e-18
8132.72250 6.61438e-18
8137.54000 6.65484e-18
8142.34732 6.72575e-18
8147.15464 6.60591e-18
8151.97215 6.19158e-18
8156.77947 5.88267e-18
8161.58679 5.92674e-18
8166.40429 5.96530e-18
8171.21161 6.00119e-18
8176.01894 6.05110e-18
8180.83644 5.82814e-18
8185.64376 5.68855e-18
8190.45108 5.86005e-18
8195.26858 5.97164e-18
8200.07590 6.02561e-18
8204.88322 6.09084e-18
8209.70073 5.87603e-18
8214.50805 4.91960e-18
8219.31537 2.95568e-18
8224.13287 2.95522e-18
8225.08008 2.95522e-18
8226.34302 2.74165e-18
8227.61614 2.64540e-18
8228.87908 2.58112e-18
8230.15221 2.80021e-18
8231.41515 3.12251e-18
8232.68827 3.14029e-18
8233.95121 2.92956e-18
8235.22434 2.95704e-18
8236.48728 3.46269e-18
8237.76040 3.64136e-18
8239.02334 3.44890e-18
8240.29647 3.45089e-18
8241.56959 3.34284e-18
8242.83253 3.20542e-18
8244.10566 3.08481e-18
8245.36860 3.18371e-18
8246.64172 3.33574e-18
8247.90467 3.55218e-18
8249.17779 3.25479e-18
8250.44073 2.71200e-18
8251.71385 2.78419e-18
8252.97679 2.84085e-18
8254.24992 2.70401e-18
8255.51286 2.69325e-18
8256.78599 2.61087e-18
8258.05911 2.82127e-18
8259.32205 3.10505e-18
8260.59518 3.10529e-18
8261.85811 2.90856e-18
8263.13124 2.79748e-18
8264.39418 3.05115e-18
8265.66730 3.33671e-18
8266.93024 3.24199e-18
8268.20337 3.31497e-18
8269.46631 3.40547e-18
8270.73943 2.98897e-18
8272.00238 2.81845e-18
8273.27550 3.14189e-18
8274.54862 3.39556e-18
8275.81156 3.14637e-18
8277.08469 2.96314e-18
8278.34763 3.03244e-18
8279.62075 3.01458e-18
8280.88370 3.10279e-18
8282.15682 3.53722e-18
8283.41976 4.04018e-18
8284.69289 4.06846e-18
8285.95582 3.54044e-18
8287.22895 2.56889e-18
8288.49189 2.41052e-18
8289.76501 2.99539e-18
8291.03814 3.44655e-18
8292.30108 3.38969e-18
8293.57421 3.01261e-18
8294.83714 3.03655e-18
8296.11027 2.80021e-18
8297.37321 2.50298e-18
8298.64633 2.81858e-18
8299.90927 3.12618e-18
8301.18240 3.55321e-18
8302.44534 3.47304e-18
8303.71846 3.04443e-18
8304.98141 3.09104e-18
8306.25453 3.34927e-18
8307.52765 3.64849e-18
8308.79060 3.74902e-18
8310.06372 3.69136e-18
8311.32666 3.22142e-18
8312.59978 2.56884e-18
8313.86273 2.82656e-18
8315.13585 3.45102e-18
8316.39879 3.37480e-18
8317.67191 2.94946e-18
8318.93485 2.72763e-18
8320.20798 2.74383e-18
8321.48110 2.93223e-18
8322.74404 3.10026e-18
8324.01717 3.02405e-18
8325.28011 3.00431e-18
8326.55323 3.05689e-18
8327.81617 2.78811e-18
8329.08930 2.89475e-18
8330.35224 3.23691e-18
8331.62536 3.15042e-18
8332.88830 2.97668e-18
8334.16143 2.60600e-18
8335.42437 2.40639e-18
8336.69750 2.89540e-18
8337.97062 4.07857e-18
8339.23356 5.08133e-18
8340.50669 4.77163e-18
8341.76962 3.90057e-18
8343.04275 3.11163e-18
8344.30569 2.67618e-18
8345.57881 3.17527e-18
8346.84175 4.16259e-18
8348.11488 4.66949e-18
8349.37782 4.02675e-18
8350.65094 3.49475e-18
8351.91388 3.62903e-18
8353.18701 3.75306e-18
8354.46013 3.36111e-18
8355.72307 3.12147e-18
8356.99620 3.38196e-18
8358.25914 3.40769e-18
8359.53226 3.12729e-18
8360.79521 3.02050e-18
8362.06833 3.04667e-18
8363.33127 3.12021e-18
8364.60440 3.72856e-18
8365.86733 3.96568e-18
8367.14046 3.22049e-18
8368.41359 2.75437e-18
8369.67652 3.13974e-18
8370.94965 3.56229e-18
8372.21259 3.34397e-18
8373.48571 3.00776e-18
8374.74865 3.03664e-18
8376.02178 2.81432e-18
8377.28472 2.87298e-18
8378.55785 3.26182e-18
8379.82078 3.19041e-18
8381.09391 2.85396e-18
8382.35685 2.93815e-18
8383.62997 3.24793e-18
8384.89292 2.87807e-18
8386.16604 2.19620e-18
8387.43916 2.22622e-18
8388.70211 2.53334e-18
8389.97523 2.60970e-18
8391.23817 2.51716e-18
8392.51130 2.30156e-18
8393.77423 2.46175e-18
8395.04736 2.45495e-18
8396.31030 1.75388e-18
8397.58342 1.98336e-18
8398.84637 2.18305e-18
8400.11949 1.40734e-18
8401.39262 2.26785e-18
8402.65556 3.74278e-18
8403.92868 3.18874e-18
8405.19162 2.25293e-18
8406.46474 2.10624e-18
8407.72768 2.05672e-18
8409.00081 2.36428e-18
8410.26375 2.82721e-18
8411.53687 2.99865e-18
8412.79982 3.00886e-18
8414.07294 3.41472e-18
8415.33588 3.18688e-18
8416.60900 2.24232e-18
8417.87194 1.91487e-18
8419.14507 2.19139e-18
8420.41819 2.38409e-18
8421.68113 2.14021e-18
8422.95426 2.09414e-18
8424.21720 2.69913e-18
8425.49033 3.15123e-18
8426.75326 2.70052e-18
8428.02639 2.57256e-18
8429.28933 2.81913e-18
8430.56245 2.43053e-18
8431.82539 2.28726e-18
8433.09852 2.26719e-18
8434.37164 1.84894e-18
8435.63458 1.76606e-18
8436.90771 1.91069e-18
8438.17065 1.66268e-18
8439.44377 1.78658e-18
8440.70671 2.44389e-18
8441.97984 2.63646e-18
8443.24278 2.26367e-18
8444.51590 1.91164e-18
8445.77885 1.99272e-18
8447.05197 2.47458e-18
8448.31491 2.94960e-18
8449.58804 2.54458e-18
8450.86116 1.71269e-18
8452.12410 1.38059e-18
8453.39723 1.43500e-18
8454.66016 1.32340e-18
8455.93329 1.18227e-18
8457.19623 1.44796e-18
8458.46935 1.67480e-18
8459.73229 2.18489e-18
8461.00542 2.45542e-18
8462.26836 1.59715e-18
8463.54148 1.19688e-18
8464.80442 2.07377e-18
8466.07755 2.67271e-18
8467.35067 2.87704e-18
8468.61362 2.77165e-18
8469.88674 1.98603e-18
8471.14968 1.24593e-18
8472.42281 1.20390e-18
8473.68575 1.56182e-18
8474.95887 1.59438e-18
8476.22181 1.37868e-18
8477.49494 1.67202e-18
8478.75787 2.26097e-18
8480.03100 2.32555e-18
8481.30413 1.84175e-18
8482.56706 1.68399e-18
8483.84019 1.89982e-18
8485.10313 1.62770e-18
8486.37625 1.38550e-18
8487.63919 1.66663e-18
8488.91232 1.72228e-18
8490.17526 1.66342e-18
8491.44838 1.71808e-18
8492.71133 1.68555e-18
8493.98445 1.87798e-18
8495.24739 2.50286e-18
8496.52052 2.45039e-18
8497.79364 1.86903e-18
8499.05658 1.92996e-18
8500.32971 2.19371e-18
8501.59265 2.13546e-18
8502.86577 1.52298e-18
8504.12871 1.09185e-18
8505.40183 1.73329e-18
8506.66477 2.16211e-18
8507.93790 2.06366e-18
8509.20084 1.94835e-18
8510.47396 1.66362e-18
8511.73690 1.58604e-18
8513.01003 1.57147e-18
8514.27297 1.68112e-18
8515.54609 1.94443e-18
8516.81922 2.00486e-18
8518.08216 1.92387e-18
8519.35528 2.02785e-18
8520.61823 2.07908e-18
8521.89135 1.77910e-18
8523.15429 1.73139e-18
8524.42742 2.01484e-18
8525.69035 1.78955e-18
8526.96348 1.36235e-18
8528.23661 1.18792e-18
8529.49954 1.13018e-18
8530.77267 1.10386e-18
8532.03561 1.27040e-18
8533.30873 1.57867e-18
8534.57167 1.68272e-18
8535.84480 1.76629e-18
8537.10774 1.99696e-18
8538.38087 1.92166e-18
8539.64380 1.56933e-18
8540.91693 1.38446e-18
8542.17987 1.71563e-18
8543.45299 2.23290e-18
8544.71594 2.20970e-18
8545.98906 1.85030e-18
8547.26218 1.71726e-18
8548.52513 1.93551e-18
8549.79825 2.27031e-18
8551.06119 2.54029e-18
8552.33432 2.44843e-18
8553.59725 2.12366e-18
8554.87038 2.01774e-18
8556.13332 2.09195e-18
8557.40644 2.17427e-18
8558.66938 2.16052e-18
8559.94251 2.17623e-18
8561.21563 2.15657e-18
8562.47858 2.00579e-18
8563.75170 1.79903e-18
8565.01464 1.69714e-18
8566.28777 1.85580e-18
8567.55070 2.20551e-18
8568.82383 2.45963e-18
8570.08677 2.24981e-18
8571.35989 1.96245e-18
8572.62284 2.26818e-18
8573.89596 2.45378e-18
8575.15890 2.12600e-18
8576.43203 1.97757e-18
8577.69496 1.98824e-18
8578.96809 1.85509e-18
8580.24121 1.45566e-18
8581.50415 1.43889e-18
8582.77728 1.85885e-18
8584.04022 1.98307e-18
8585.31335 1.82233e-18
8586.57629 1.92793e-18
8587.84941 2.13814e-18
8589.11235 1.97789e-18
8590.38547 1.70511e-18
8591.64841 1.69911e-18
8592.92154 1.71823e-18
8594.19466 1.78520e-18
8595.45760 2.15566e-18
8596.73073 2.44223e-18
8597.99367 2.73571e-18
8599.26679 2.97635e-18
8600.52973 2.57433e-18
8601.80286 2.44629e-18
8603.06580 2.73625e-18
8604.33892 2.57202e-18
8605.60187 2.45529e-18
8606.87499 2.85495e-18
8608.13793 2.89343e-18
8609.41106 2.67396e-18
8610.68418 2.84811e-18
8611.94712 2.89659e-18
8613.22025 2.40666e-18
8614.48318 1.82084e-18
8615.75631 1.85923e-18
8617.01925 2.44031e-18
8618.29237 2.26062e-18
8619.55531 1.85597e-18
8620.82844 2.37686e-18
8622.09138 2.07965e-18
8623.36450 1.32082e-18
8624.62744 1.98929e-18
8625.90057 2.68734e-18
8627.17369 2.28215e-18
8628.43663 1.48601e-18
8629.70976 8.95617e-19
8630.97270 1.85389e-18
8632.24582 2.73623e-18
8633.50877 1.87459e-18
8634.78189 1.62645e-18
8636.04483 2.64634e-18
8637.31796 2.93615e-18
8638.58089 2.61230e-18
8639.85402 2.35248e-18
8641.12715 2.26325e-18
8642.39008 2.21072e-18
8643.66321 2.32252e-18
8644.92615 2.44028e-18
8646.19927 2.21702e-18
8647.46221 2.23759e-18
8648.73534 2.78517e-18
8649.99828 3.09705e-18
8651.27140 3.24391e-18
8652.53435 3.29376e-18
8653.80747 3.05123e-18
8655.07041 2.99863e-18
8656.34353 2.96946e-18
8657.61666 3.06605e-18
8658.87960 3.02525e-18
8660.15272 2.62499e-18
8661.41567 3.03466e-18
8662.68879 3.22732e-18
8663.95173 3.47015e-18
8665.22486 4.27203e-18
8666.48779 4.43326e-18
8667.76092 3.69855e-18
8669.02386 2.86569e-18
8670.29698 2.46778e-18
8671.55992 2.78097e-18
8672.83305 3.21742e-18
8674.09599 2.94112e-18
8675.36912 2.59672e-18
8676.64224 2.66670e-18
8677.90518 3.01981e-18
8679.17830 3.48729e-18
8680.44124 3.29345e-18
8681.71437 2.71668e-18
8682.97731 2.50269e-18
8684.25043 2.81472e-18
8685.51338 3.07645e-18
8686.78650 3.43839e-18
8688.05962 3.69282e-18
8689.32256 3.24749e-18
8690.59569 3.03668e-18
8691.85863 3.22874e-18
8693.13175 3.39184e-18
8694.39469 3.04042e-18
8695.66782 2.24615e-18
8696.93076 2.25273e-18
8698.20388 3.02124e-18
8699.46682 3.26136e-18
8700.73995 3.23494e-18
8702.00289 3.35139e-18
8703.27601 3.30013e-18
8704.53895 2.98262e-18
8705.81208 3.25810e-18
8707.07502 3.68566e-18
8708.34814 3.28990e-18
8709.62127 3.15380e-18
8710.88421 3.54575e-18
8712.15733 3.65635e-18
8713.42027 3.46724e-18
8714.69340 3.53325e-18
8715.95634 3.64773e-18
8717.22946 3.73320e-18
8718.49240 4.04482e-18
8719.76553 4.21126e-18
8721.02847 4.05768e-18
8722.30160 3.73459e-18
8723.57472 3.74882e-18
8724.83766 4.08205e-18
8726.11079 4.26901e-18
8727.37372 4.54535e-18
8728.64685 4.84013e-18
8729.90979 4.53286e-18
8731.18291 3.91250e-18
8732.44585 3.75290e-18
8733.71898 4.20486e-18
8734.98192 4.73225e-18
8736.25504 4.73493e-18
8737.51798 4.24872e-18
8738.79111 3.96538e-18
8740.06423 4.19902e-18
8741.32717 4.36672e-18
8742.60030 4.25081e-18
8743.86324 4.40896e-18
8745.13637 4.71030e-18
8746.39931 4.99732e-18
8747.67243 5.47076e-18
8748.93537 5.26504e-18
8750.20850 4.56760e-18
8751.47143 4.65510e-18
8752.74456 4.92918e-18
8754.00750 4.55331e-18
8755.28062 4.16414e-18
8756.55375 3.98010e-18
8757.81669 4.00782e-18
8759.08981 4.43319e-18
8760.35275 4.81546e-18
8761.62588 4.33781e-18
8762.88882 4.57496e-18
8764.16194 6.26306e-18
8765.42488 7.19145e-18
8766.69801 7.04143e-18
8767.96095 6.88302e-18
8769.23408 6.79111e-18
8770.50720 5.93801e-18
8771.77014 5.57865e-18
8773.04327 7.19755e-18
8774.30621 8.31711e-18
8775.57933 7.47960e-18
8776.84227 7.16543e-18
8778.11539 7.56855e-18
8779.37833 6.85520e-18
8780.65146 5.50561e-18
8781.91440 4.74922e-18
8783.18752 4.79458e-18
8784.45046 5.31129e-18
8785.72359 5.51668e-18
8786.99671 5.62109e-18
8788.25965 5.84820e-18
8789.53278 6.06758e-18
8790.79572 6.13458e-18
8792.06884 5.88135e-18
8793.33179 5.05524e-18
8794.60491 4.54691e-18
8795.86785 5.21862e-18
8797.14098 5.42243e-18
8798.40391 4.83665e-18
8799.67704 4.77220e-18
8800.93998 5.37017e-18
8802.21310 5.57378e-18
8803.48623 5.02520e-18
8804.74917 5.15261e-18
8806.02229 5.59473e-18
8807.28523 4.89782e-18
8808.55836 4.13789e-18
8809.82130 4.25413e-18
8811.09442 4.60543e-18
8812.35736 4.98737e-18
8813.63049 4.96270e-18
8814.89343 4.86778e-18
8816.16655 4.91665e-18
8817.43968 4.98558e-18
8818.70262 5.15895e-18
8819.96556 5.43138e-18
8821.23869 6.18839e-18
8822.51181 7.48391e-18
8823.77475 7.83153e-18
8825.04788 6.99163e-18
8826.31081 7.11861e-18
8827.58394 8.00424e-18
8828.84688 8.24537e-18
8830.12000 7.86432e-18
8831.38294 6.52203e-18
8832.65607 5.69353e-18
8833.91901 6.10945e-18
8835.19213 6.41955e-18
8836.46526 6.10057e-18
8837.72820 6.06566e-18
8839.00133 6.24111e-18
8840.26426 6.00727e-18
8841.53739 5.55637e-18
8842.80033 4.94437e-18
8844.07345 4.91370e-18
8845.33640 5.76839e-18
8846.60952 5.99461e-18
8847.87246 5.36099e-18
8849.14559 5.06993e-18
8850.41871 5.18849e-18
8851.68165 5.38353e-18
8852.95478 5.53833e-18
8854.21771 5.38184e-18
8855.49084 4.97587e-18
8856.75378 4.83794e-18
8858.02690 5.02613e-18
8859.28985 5.09211e-18
8860.56297 4.87193e-18
8861.82591 4.29925e-18
8863.09904 3.78154e-18
8864.36197 4.05991e-18
8865.63510 4.33678e-18
8866.89804 4.15314e-18
8868.17116 4.47503e-18
8869.44429 4.45272e-18
8870.70723 3.73493e-18
8871.98035 3.88827e-18
8873.24330 4.85850e-18
8874.51642 5.26434e-18
8875.77936 4.93094e-18
8877.05248 4.75539e-18
8878.31542 4.93741e-18
8879.58855 5.13166e-18
8880.85149 5.79720e-18
8882.12462 6.52279e-18
8883.39774 6.42353e-18
8884.66068 6.19476e-18
8885.93381 6.39157e-18
8887.19674 7.04096e-18
8888.46987 6.68860e-18
8889.73281 5.20921e-18
8891.00593 4.41234e-18
8892.26887 4.01392e-18
8893.54200 3.69985e-18
8894.80494 4.12976e-18
8896.07806 4.80973e-18
8897.34100 4.24047e-18
8898.61413 3.01220e-18
8899.88725 3.12425e-18
8901.15019 4.73938e-18
8902.42332 5.96778e-18
8903.68626 5.43499e-18
8904.95938 4.88290e-18
8906.22233 5.31437e-18
8907.49545 5.51440e-18
8908.75839 5.14171e-18
8910.03152 4.70556e-18
8911.29445 4.48816e-18
8912.56758 3.80922e-18
8913.83052 3.55950e-18
8915.10364 4.30488e-18
8916.37677 4.78954e-18
8917.63971 4.77333e-18
8918.91283 4.90260e-18
8920.17577 5.25964e-18
8921.44890 5.22323e-18
8922.71184 6.12295e-18
8923.98496 6.96027e-18
8925.24790 5.35870e-18
8926.52103 3.89884e-18
8927.78397 3.98836e-18
8929.05710 4.20065e-18
8930.33022 4.30684e-18
8931.59316 4.67187e-18
8932.86629 4.58507e-18
8934.12923 4.25290e-18
8935.40235 4.41353e-18
8936.66529 4.54197e-18
8937.93842 4.18397e-18
8939.20135 3.95351e-18
8940.47448 4.02198e-18
8941.73742 4.35903e-18
8943.01054 4.95591e-18
8944.27348 4.74816e-18
8945.54661 4.10473e-18
8946.80955 4.49529e-18
8948.08267 4.69780e-18
8949.35580 4.21626e-18
8950.61874 5.26517e-18
8951.89187 6.69891e-18
8953.15481 6.43370e-18
8954.42793 5.77622e-18
8955.69087 5.85048e-18
8956.96400 6.28358e-18
8958.22694 6.12918e-18
8959.50006 5.85619e-18
8960.76300 6.03512e-18
8962.03613 4.79335e-18
8963.30925 3.79305e-18
8964.57219 4.28705e-18
8965.84531 4.75890e-18
8967.10825 4.63928e-18
8968.38138 4.66010e-18
8969.64432 5.57444e-18
8970.91744 5.59960e-18
8972.18038 4.89036e-18
8973.45351 4.80316e-18
8974.71645 4.86361e-18
8975.98957 5.03893e-18
8977.26270 5.46321e-18
8978.52564 5.45339e-18
8979.78858 4.88085e-18
8981.06171 4.89954e-18
8982.33483 4.99835e-18
8983.59777 4.62920e-18
8984.87090 4.88678e-18
8986.13383 5.56323e-18
8987.40696 5.92263e-18
8988.66990 5.10152e-18
8989.94302 4.72044e-18
8991.20596 5.20002e-18
8992.47909 5.07447e-18
8993.74203 4.88993e-18
8995.01515 4.15692e-18
8996.28828 4.05831e-18
8997.55122 4.92179e-18
8998.82435 5.49550e-18
9000.08728 4.90996e-18
