# wavelength flux
3284.49002 9.51120e-18
3287.15587 -3.97600e-18
3289.81170 4.79387e-18
3292.47755 1.09207e-18
3295.14340 -2.08669e-18
3297.80925 -1.01031e-17
3300.47511 -1.15122e-17
3303.14096 -4.71687e-18
3305.80681 -3.38156e-18
3308.47266 -9.68436e-18
3311.12849 -6.83602e-18
3313.79434 6.00427e-18
3316.46020 1.05697e-17
3319.12605 -1.05938e-18
3321.79190 -5.78711e-18
3324.45775 8.19663e-19
3327.12360 1.58467e-17
3329.78946 2.05628e-17
3332.44529 4.81321e-18
3335.11114 1.01931e-17
3337.77699 8.62753e-18
3340.44284 -2.25049e-19
3343.10869 6.57726e-18
3345.77455 4.01386e-18
3348.44040 3.10176e-18
3351.09623 5.53632e-18
3353.76208 2.23020e-18
3356.42793 6.86088e-18
3359.09378 1.78141e-17
3361.75964 1.17652e-17
3364.42549 6.88373e-18
3367.09134 8.76954e-18
3369.75719 1.06545e-18
3372.41302 6.42514e-19
3375.07887 4.64134e-18
3377.74473 4.39921e-18
3380.41058 1.19515e-18
3383.07643 1.70154e-18
3385.74228 -7.17109e-19
3388.40813 -4.19493e-18
3391.07399 -2.72590e-18
3393.72982 -1.22427e-18
3396.39567 3.16107e-18
3399.06152 3.12048e-18
3401.72737 1.88001e-18
3404.39322 -2.30694e-18
3407.05908 -7.64380e-18
3409.72493 -1.70943e-18
3412.39078 1.05954e-17
3415.04661 7.68772e-18
3417.71246 6.21838e-18
3420.37831 1.03257e-17
3423.04417 7.07599e-18
3425.71002 3.23002e-18
3428.37587 -2.01087e-18
3431.04172 -5.54867e-18
3433.69755 -1.82909e-19
3436.36340 4.92185e-18
3439.02926 4.28180e-18
3441.69511 2.22880e-18
3444.36096 -1.28650e-18
3447.02681 2.72283e-18
3449.69266 2.66781e-18
3452.35852 -1.60934e-18
3455.01435 -2.72336e-18
3457.68020 4.52738e-19
3460.34605 7.68367e-18
3463.01190 5.50498e-18
3465.67775 1.12302e-18
3468.34361 3.64856e-18
3471.00946 7.24738e-18
3473.67531 6.72783e-18
3476.33114 1.61227e-18
3478.99699 -1.67423e-18
3481.66284 2.86006e-18
3484.32870 4.27847e-18
3486.99455 3.08249e-18
3489.66040 4.31556e-18
3492.32625 3.90850e-18
3494.98208 4.39558e-18
3497.64793 1.93792e-18
3500.31379 3.20084e-18
3502.97964 6.09041e-18
3505.64549 1.37707e-18
3508.31134 -1.94297e-18
3510.97719 4.37754e-19
3513.64305 1.57259e-18
3516.29888 -5.86401e-20
3518.96473 1.75353e-18
3521.63058 4.93735e-18
3524.29643 2.30505e-18
3526.96228 -1.72376e-18
3529.62814 -1.78719e-18
3532.29399 1.34204e-18
3534.95984 4.19054e-18
3537.61567 1.93520e-18
3540.28152 -1.28725e-18
3542.94737 -4.04389e-18
3545.61323 -3.24763e-18
3548.27908 9.80633e-21
3550.94493 -7.08927e-19
3553.61078 -1.52693e-18
3556.27663 -2.05034e-18
3558.93246 -1.46278e-18
3561.59832 3.05005e-19
3564.26417 2.04161e-19
3566.93002 3.78153e-18
3569.59587 4.72451e-18
3572.26172 1.80290e-18
3574.92758 1.91079e-18
3577.58341 7.64051e-19
3580.24926 2.93538e-18
3582.91511 2.45840e-18
3585.58096 4.53104e-19
3588.24681 1.63496e-18
3590.91267 4.82437e-18
3593.57852 4.75168e-18
3596.24437 4.43991e-18
3598.90020 7.85352e-18
3601.56605 4.88096e-18
3604.23190 4.63210e-19
3606.89776 7.71410e-19
3609.56361 1.96553e-18
3612.22946 1.95609e-18
3614.89531 7.65868e-19
3617.56116 -1.13941e-18
3620.21699 6.84881e-19
3622.88285 3.10555e-18
3625.54870 1.09062e-18
3628.21455 2.45139e-18
3630.88040 5.18590e-18
3633.54625 2.82847e-18
3636.21211 2.38377e-18
3638.86794 2.91757e-18
3641.53379 2.67230e-18
3644.19964 3.04970e-18
3646.86549 1.90832e-18
3649.53134 3.92440e-18
3652.19720 4.23930e-18
3654.86305 1.49776e-18
3657.52890 2.21501e-18
3660.18473 2.41810e-18
3662.85058 2.22607e-18
3665.51643 3.78444e-18
3668.18229 3.31576e-18
3670.84814 2.83248e-18
3673.51399 7.67822e-19
3676.17984 7.46896e-19
3678.84569 2.24288e-18
3681.50152 1.39704e-18
3684.16738 -2.53104e-19
3686.83323 4.68601e-20
3689.49908 3.17642e-18
3692.16493 3.23959e-18
3694.83078 2.50570e-18
3697.49664 3.85503e-18
3700.15247 3.18888e-18
3702.81832 3.09326e-18
3705.48417 2.61241e-18
3708.15002 8.01842e-19
3710.81587 2.19030e-18
3713.48173 2.50995e-18
3716.14758 2.08904e-18
3718.81343 2.12927e-18
3721.46926 2.21104e-18
3724.13511 2.29280e-18
3726.80096 2.37453e-18
3729.46682 2.45626e-18
3732.13267 2.53799e-18
3734.79852 2.61969e-18
3737.46437 2.70137e-18
3740.13022 2.78306e-18
3742.78605 2.86472e-18
3745.45191 2.94637e-18
3748.11776 3.02801e-18
3750.78361 3.10964e-18
3753.44946 3.19125e-18
3756.11531 3.27286e-18
3758.78117 3.18877e-18
3761.44702 3.63599e-18
3764.10285 4.69843e-18
3766.76870 3.88221e-18
3769.43455 2.96152e-18
3772.10040 2.43410e-18
3774.76626 1.76296e-18
3777.43211 2.26375e-18
3780.09796 3.05062e-18
3782.75379 3.57446e-18
3785.41964 3.94662e-18
3788.08549 4.32567e-18
3790.75135 4.01928e-18
3793.41720 3.08229e-18
3796.08305 2.35714e-18
3798.74890 2.12794e-18
3801.41475 1.24612e-18
3804.07058 1.53869e-18
3806.73644 1.80758e-18
3809.40229 2.76331e-19
3812.06814 1.70396e-18
3814.73399 2.26649e-18
3817.39984 8.15532e-19
3820.06570 3.57507e-19
3822.73155 1.49139e-18
3825.38738 1.95145e-18
3828.05323 7.53907e-19
3830.71908 4.48010e-19
3833.38493 1.19368e-18
3836.05079 1.87723e-18
3838.71664 2.27656e-18
3841.38249 1.85496e-18
3844.03832 1.50411e-18
3846.70417 1.67970e-18
3849.37002 1.54515e-18
3852.03588 8.56372e-19
3854.70173 -2.25542e-19
3857.36758 -8.93557e-20
3860.03343 1.00117e-18
3862.69928 1.54960e-18
3865.35511 1.49686e-18
3868.02097 1.66661e-18
3870.68682 1.43913e-18
3873.35267 1.04033e-18
3876.01852 1.29546e-18
3878.68437 1.61377e-18
3881.35023 8.73803e-19
3884.01608 9.98416e-19
3886.67191 2.38422e-18
3889.33776 3.09369e-18
3892.00361 3.69318e-18
3894.66946 3.52297e-18
3897.33532 3.97067e-18
3900.00117 4.55023e-18
3902.66702 4.09108e-18
3905.32285 4.09476e-18
3907.98870 4.03996e-18
3910.65455 3.87405e-18
3913.32041 2.75110e-18
3915.98626 3.28344e-18
3918.65211 3.41417e-18
3921.31796 3.21530e-18
3923.98381 4.19215e-18
3926.63964 5.37000e-18
3929.30550 5.02141e-18
3931.97135 4.38617e-18
3934.63720 5.61312e-18
3937.30305 6.16310e-18
3939.96890 5.74503e-18
3942.63476 4.92376e-18
3945.30061 4.94241e-18
3947.95644 5.84519e-18
3950.62229 4.91198e-18
3953.28814 4.05245e-18
3955.95399 4.45932e-18
3958.61985 5.03913e-18
3961.28570 4.80816e-18
3963.95155 5.29380e-18
3966.61740 6.45623e-18
3969.27323 5.76262e-18
3971.93908 5.91719e-18
3974.60494 7.22797e-18
3977.27079 7.12658e-18
3979.93664 6.54034e-18
3982.60249 7.70119e-18
3985.26834 6.29240e-18
3987.92417 6.26425e-18
3990.59003 6.79094e-18
3993.25588 5.14263e-18
3995.92173 5.79760e-18
3998.58758 8.03013e-18
4001.25343 7.93783e-18
4003.91929 6.44113e-18
4006.58514 4.88066e-18
4009.24097 5.19832e-18
4011.90682 7.00032e-18
4014.57267 6.70447e-18
4017.23852 6.18912e-18
4019.90438 6.21385e-18
4022.57023 6.35818e-18
4025.23608 7.84238e-18
4027.90193 8.68765e-18
4030.55776 7.76142e-18
4033.22361 7.16453e-18
4035.88947 7.32584e-18
4038.55532 7.98023e-18
4041.22117 7.50891e-18
4043.88702 7.00930e-18
4046.55287 6.30777e-18
4049.20870 6.81156e-18
4051.87456 7.98728e-18
4054.54041 8.20431e-18
4057.20626 7.66262e-18
4059.87211 6.73813e-18
4062.53796 7.26501e-18
4065.20382 7.87152e-18
4067.86967 7.60402e-18
4070.52550 6.34321e-18
4073.19135 6.66340e-18
4075.85720 7.69819e-18
4078.52305 7.34351e-18
4081.18891 7.27284e-18
4083.85476 7.12306e-18
4086.52061 7.42204e-18
4089.18646 7.05266e-18
4091.84229 6.08203e-18
4094.50814 5.89823e-18
4097.17400 6.78879e-18
4099.83985 7.07565e-18
4102.50570 7.04252e-18
4105.17155 6.61412e-18
4107.83740 6.76579e-18
4110.50326 6.79200e-18
4113.15909 7.41916e-18
4115.82494 7.85269e-18
4118.49079 5.93850e-18
4121.15664 4.72039e-18
4123.82249 5.43888e-18
4126.48835 4.83600e-18
4129.15420 4.96702e-18
4131.82005 3.60557e-18
4134.47588 1.56846e-18
4137.14173 4.04708e-18
4139.80758 5.11282e-18
4142.47344 4.75264e-18
4145.13929 4.22943e-18
4147.80514 4.26113e-18
4150.47099 4.12211e-18
4153.12682 4.01655e-18
4155.79267 4.06719e-18
4158.45853 4.71482e-18
4161.12438 4.74467e-18
4163.79023 4.51550e-18
4166.45608 4.43572e-18
4169.12193 4.65215e-18
4171.77776 4.76047e-18
4174.44362 4.77549e-18
4177.10947 4.88174e-18
4179.77532 5.40329e-18
4182.44117 5.78372e-18
4185.10702 5.47788e-18
4187.77288 5.11630e-18
4190.43873 4.97813e-18
4193.10458 4.34910e-18
4195.76041 4.80314e-18
4198.42626 5.28861e-18
4201.09211 4.94541e-18
4203.75797 4.60467e-18
4206.42382 3.99377e-18
4209.08967 3.34692e-18
4211.75552 3.20925e-18
4214.41135 3.90703e-18
4217.07720 4.30966e-18
4219.74306 4.54546e-18
4222.40891 4.46852e-18
4225.07476 4.28095e-18
4227.74061 4.60001e-18
4230.40646 4.05543e-18
4233.07232 4.24014e-18
4235.72815 4.54750e-18
4238.39400 4.45363e-18
4241.05985 3.91151e-18
4243.72570 3.83711e-18
4246.39155 4.26459e-18
4249.05741 4.76627e-18
4251.72326 3.91339e-18
4254.38911 3.42449e-18
4257.04494 4.16360e-18
4259.71079 4.29737e-18
4262.37664 4.36772e-18
4265.04250 4.20105e-18
4267.70835 4.20174e-18
4270.37420 4.54716e-18
4273.04005 5.35593e-18
4275.69588 5.29422e-18
4278.36173 5.03578e-18
4281.02759 5.10833e-18
4283.69344 4.97691e-18
4286.35929 5.52680e-18
4289.02514 5.71808e-18
4291.69099 5.32161e-18
4294.35685 5.56728e-18
4297.01268 5.69553e-18
4299.67853 5.13302e-18
4302.34438 4.67140e-18
4305.01023 4.80111e-18
4307.67608 4.70400e-18
4310.34194 4.88026e-18
4313.00779 5.23684e-18
4315.67364 5.11221e-18
4318.32947 5.51781e-18
4320.99532 5.50812e-18
4323.66117 4.94965e-18
4326.32703 5.07354e-18
4328.99288 5.17385e-18
4331.65873 5.42784e-18
4334.32458 5.08289e-18
4336.98041 4.23273e-18
4339.64626 4.87120e-18
4342.31212 6.27640e-18
4344.97797 6.75641e-18
4347.64382 7.31998e-18
4350.30967 7.05900e-18
4352.97552 6.32366e-18
4355.64138 6.26385e-18
4358.29721 6.20404e-18
4360.96306 6.14425e-18
4363.62891 6.08446e-18
4366.29476 6.02468e-18
4368.96061 5.96491e-18
4371.62647 5.90515e-18
4374.29232 5.84538e-18
4376.95817 5.78564e-18
4379.61400 5.72591e-18
4382.27985 5.66618e-18
4384.94570 5.60646e-18
4387.61156 5.54675e-18
4390.27741 5.48704e-18
4392.94326 5.42734e-18
4395.60911 5.28614e-18
4398.26494 5.87706e-18
4400.93079 6.21507e-18
4403.59665 5.36325e-18
4406.26250 5.06725e-18
4408.92835 5.17020e-18
4411.59420 5.21523e-18
4414.26005 5.51470e-18
4416.92591 5.66929e-18
4419.58174 5.74833e-18
4422.24759 5.13111e-18
4424.91344 5.01713e-18
4427.57929 5.26779e-18
4430.24514 5.19027e-18
4432.91100 4.79099e-18
4435.57685 4.93998e-18
4438.24270 5.35053e-18
4440.89853 4.79419e-18
4443.56438 4.04933e-18
4446.23023 3.82025e-18
4448.89609 4.35122e-18
4451.56194 4.58051e-18
4454.22779 5.00330e-18
4456.89364 5.20933e-18
4459.55949 5.35286e-18
4462.21532 5.23036e-18
4464.88118 5.73508e-18
4467.54703 5.77417e-18
4470.21288 4.74734e-18
4472.87873 4.67458e-18
4475.54458 5.10256e-18
4478.21044 4.70149e-18
4480.87629 4.60676e-18
4483.53212 5.30964e-18
4486.19797 5.69224e-18
4488.86382 5.52831e-18
4491.52967 5.60440e-18
4494.19553 5.90251e-18
4496.86138 5.84181e-18
4499.52723 6.91235e-18
4502.18306 7.54123e-18
4504.84891 6.40008e-18
4507.51476 5.99312e-18
4510.18062 6.71007e-18
4512.84647 7.57505e-18
4515.51232 7.82062e-18
4518.17817 7.86665e-18
4520.84402 7.39424e-18
4523.49985 7.21441e-18
4526.16571 8.15673e-18
4528.83156 8.65323e-18
4531.49741 8.68386e-18
4534.16326 8.47886e-18
4536.82911 8.28520e-18
4539.49497 8.44165e-18
4542.16082 8.70185e-18
4544.81665 9.24989e-18
4547.48250 9.38481e-18
4550.14835 8.83674e-18
4552.81420 9.08083e-18
4555.48006 9.41072e-18
4558.14591 9.83210e-18
4560.81176 1.03528e-17
4563.46759 1.00117e-17
4566.13344 9.70544e-18
4568.79929 1.03473e-17
4571.46515 1.10314e-17
4574.13100 1.06965e-17
4576.79685 1.12768e-17
4579.46270 1.12471e-17
4582.12855 1.08279e-17
4584.78438 1.17147e-17
4587.45024 1.17074e-17
4590.11609 1.13093e-17
4592.78194 1.19761e-17
4595.44779 1.31124e-17
4598.11364 1.31474e-17
4600.77950 1.18774e-17
4603.44535 1.18011e-17
4606.10118 1.27662e-17
4608.76703 1.29519e-17
4611.43288 1.26075e-17
4614.09873 1.28461e-17
4616.76459 1.26370e-17
4619.43044 1.26159e-17
4622.09629 1.31996e-17
4624.75212 1.25964e-17
4627.41797 1.26342e-17
4630.08382 1.27314e-17
4632.74968 1.25900e-17
4635.41553 1.33316e-17
4638.08138 1.31642e-17
4640.74723 1.33485e-17
4643.41308 1.39111e-17
4646.06891 1.41201e-17
4648.73477 1.36627e-17
4651.40062 1.28065e-17
4654.06647 1.27375e-17
4656.73232 1.32657e-17
4659.39817 1.33197e-17
4662.06403 1.28696e-17
4664.72988 1.24914e-17
4667.38571 1.26096e-17
4670.05156 1.24591e-17
4672.71741 1.15980e-17
4675.38326 1.07928e-17
4678.04912 1.12235e-17
4680.71497 1.14200e-17
4683.38082 1.15095e-17
4686.03665 1.12028e-17
4688.70250 1.13233e-17
4691.36835 1.02579e-17
4694.03421 9.92480e-18
4696.70006 1.11060e-17
4699.36591 1.12853e-17
4702.03176 1.10421e-17
4704.69761 1.03393e-17
4707.35344 9.58746e-18
4710.01930 9.82927e-18
4712.68515 1.03555e-17
4715.35100 9.99109e-18
4718.01685 9.57107e-18
4720.68270 9.15518e-18
4723.34856 9.73800e-18
4726.01441 9.77972e-18
4728.67024 9.49944e-18
4731.33609 1.02614e-17
4734.00194 9.88108e-18
4736.66779 9.56280e-18
4739.33365 9.85359e-18
4741.99950 9.61164e-18
4744.66535 9.29685e-18
4747.32118 9.33149e-18
4749.98703 9.87000e-18
4752.65288 1.00331e-17
4755.31874 1.00082e-17
4757.98459 9.57958e-18
4760.65044 9.53741e-18
4763.31629 9.98133e-18
4765.98214 1.01164e-17
4768.63797 9.78117e-18
4771.30383 9.38049e-18
4773.96968 8.97537e-18
4776.63553 8.58900e-18
4779.30138 9.34537e-18
4781.96723 9.75890e-18
4784.63309 9.86709e-18
4787.29894 1.01425e-17
4789.95477 9.67033e-18
4792.62062 9.44558e-18
4795.28647 9.69892e-18
4797.95232 9.74643e-18
4800.61818 1.02619e-17
4803.28403 1.02651e-17
4805.94988 9.55011e-18
4808.61573 9.21302e-18
4811.27156 9.19548e-18
4813.93741 9.37046e-18
4816.60327 9.09210e-18
4819.26912 9.15285e-18
4821.93497 9.20100e-18
4824.60082 8.75679e-18
4827.26667 9.26528e-18
4829.92250 1.01170e-17
4832.58836 1.03263e-17
4835.25421 9.15494e-18
4837.92006 8.70653e-18
4840.58591 9.27513e-18
4843.25176 1.00022e-17
4845.91762 1.03955e-17
4848.58347 1.04420e-17
4851.23930 1.03253e-17
4853.90515 1.04311e-17
4856.57100 1.04810e-17
4859.23685 1.05310e-17
4861.90271 1.05809e-17
4864.56856 1.06308e-17
4867.23441 1.06808e-17
4869.90026 1.07306e-17
4872.55609 1.07805e-17
4875.22194 1.08304e-17
4877.88780 1.08803e-17
4880.55365 1.09302e-17
4883.21950 1.09801e-17
4885.88535 1.10299e-17
4888.55120 1.10798e-17
4891.20703 1.11296e-17
4893.87289 1.18142e-17
4896.53874 1.16977e-17
4899.20459 1.09221e-17
4901.87044 1.04168e-17
4904.53629 9.46733e-18
4907.20215 9.43294e-18
4909.86800 9.58837e-18
4912.52383 9.73197e-18
4915.18968 1.00757e-17
4917.85553 1.01500e-17
4920.52138 9.86203e-18
4923.18724 9.34576e-18
4925.85309 9.30425e-18
4928.51894 1.02782e-17
4931.18479 1.08214e-17
4933.84062 1.04048e-17
4936.50647 1.04913e-17
4939.17233 1.07198e-17
4941.83818 1.05026e-17
4944.50403 1.07766e-17
4947.16988 1.13069e-17
4949.83573 1.14307e-17
4952.50159 1.15987e-17
4955.15742 1.17666e-17
4957.82327 1.19344e-17
4960.48912 1.21023e-17
4963.15497 1.22701e-17
4965.82082 1.24379e-17
4968.48668 1.26058e-17
4971.15253 1.27735e-17
4973.80836 1.29412e-17
4976.47421 1.31089e-17
4979.14006 1.32766e-17
4981.80591 1.34443e-17
4984.47177 1.36119e-17
4987.13762 1.37795e-17
4989.80347 1.39471e-17
4992.46932 1.40821e-17
4995.12515 1.35226e-17
4997.79100 1.28372e-17
5000.45686 1.27267e-17
5003.12271 1.26163e-17
5005.78856 1.25059e-17
5008.45441 1.23955e-17
5011.12026 1.22851e-17
5013.78612 1.21747e-17
5016.44195 1.20644e-17
5019.10780 1.19541e-17
5021.77365 1.18438e-17
5024.43950 1.17335e-17
5027.10535 1.16232e-17
5029.77121 1.15130e-17
5032.43706 1.14027e-17
5035.09289 1.12925e-17
5037.75874 1.11823e-17
5040.42459 1.04017e-17
5043.09044 1.02454e-17
5045.75630 1.01224e-17
5048.42215 9.45150e-18
5051.08800 8.90596e-18
5053.75385 8.83890e-18
5056.40968 8.51059e-18
5059.07553 8.73607e-18
5061.74139 8.91555e-18
5064.40724 8.50925e-18
5067.07309 8.50602e-18
5069.73894 8.28710e-18
5072.40479 7.99755e-18
5075.07065 8.68486e-18
5077.72648 8.49353e-18
5080.39233 7.86636e-18
5083.05818 7.63173e-18
5085.72403 7.40021e-18
5088.38988 7.57473e-18
5091.05574 7.87329e-18
5093.72159 7.88470e-18
5096.37742 8.07586e-18
5099.04327 7.56914e-18
5101.70912 7.51774e-18
5104.37497 8.01403e-18
5107.04083 8.26351e-18
5109.70668 8.29113e-18
5112.37253 8.13605e-18
5115.03838 7.73749e-18
5117.69421 7.84530e-18
5120.36006 7.60313e-18
5123.02592 7.84772e-18
5125.69177 7.49533e-18
5128.35762 7.89728e-18
5131.02347 8.80665e-18
5133.68932 8.98967e-18
5136.35518 8.43163e-18
5139.01101 8.19952e-18
5141.67686 8.77805e-18
5144.34271 9.31145e-18
5147.00856 9.47101e-18
5149.67441 8.73746e-18
5152.34027 8.46340e-18
5155.00612 8.62054e-18
5157.67197 8.90822e-18
5160.32780 8.90603e-18
5162.99365 8.97622e-18
5165.65950 9.30833e-18
5168.32536 9.09684e-18
5170.99121 9.13748e-18
5173.65706 9.51096e-18
5176.32291 9.50443e-18
5178.97874 9.40463e-18
5181.64459 9.50737e-18
5184.31045 8.98330e-18
5186.97630 9.33185e-18
5189.64215 9.64328e-18
5192.30800 9.82375e-18
5194.97385 1.05635e-17
5197.63971 1.11971e-17
5200.29554 1.10752e-17
5202.96139 1.00336e-17
5205.62724 1.02378e-17
5208.29309 1.04911e-17
5210.95894 9.84043e-18
5213.62480 9.31117e-18
5216.29065 9.85863e-18
5218.95650 9.89670e-18
5221.61233 9.64646e-18
5224.27818 1.04858e-17
5226.94403 1.04050e-17
5229.60989 1.07624e-17
5232.27574 1.07076e-17
5234.94159 1.06339e-17
5237.60744 1.00790e-17
5240.26327 1.00524e-17
5242.92912 1.00486e-17
5245.59498 1.07083e-17
5248.26083 1.10699e-17
5250.92668 1.15523e-17
5253.59253 1.09799e-17
5256.25838 1.06850e-17
5258.92424 1.13424e-17
5261.58007 1.12053e-17
5264.24592 1.14021e-17
5266.91177 1.13432e-17
5269.57762 1.09909e-17
5272.24347 1.10183e-17
5274.90933 1.18340e-17
5277.57518 1.17078e-17
5280.24103 1.13629e-17
5282.89686 1.17378e-17
5285.56271 1.18826e-17
5288.22856 1.19690e-17
5290.89442 1.20793e-17
5293.56027 1.25793e-17
5296.22612 1.21883e-17
5298.89197 1.19353e-17
5301.55782 1.25783e-17
5304.21365 1.26316e-17
5306.87951 1.22939e-17
5309.54536 1.18924e-17
5312.21121 1.20111e-17
5314.87706 1.22964e-17
5317.54291 1.24214e-17
5320.20877 1.25813e-17
5322.86460 1.26341e-17
5325.53045 1.29533e-17
5328.19630 1.33221e-17
5330.86215 1.29290e-17
5333.52800 1.33080e-17
5336.19386 1.35954e-17
5338.85971 1.30581e-17
5341.52556 1.27000e-17
5344.18139 1.35558e-17
5346.84724 1.38246e-17
5349.51309 1.34955e-17
5352.17895 1.37412e-17
5354.84480 1.37060e-17
5357.51065 1.39625e-17
5360.17650 1.40502e-17
5362.83233 1.40923e-17
5365.49818 1.42699e-17
5368.16404 1.43622e-17
5370.82989 1.46680e-17
5373.49574 1.48872e-17
5376.16159 1.49963e-17
5378.82744 1.47437e-17
5381.49330 1.45883e-17
5384.14913 1.47036e-17
5386.81498 1.47311e-17
5389.48083 1.50106e-17
5392.14668 1.48079e-17
5394.81253 1.42963e-17
5397.47839 1.43842e-17
5400.14424 1.43393e-17
5402.81009 1.38573e-17
5405.46592 1.35742e-17
5408.13177 1.35504e-17
5410.79762 1.34747e-17
5413.46348 1.36695e-17
5416.12933 1.33902e-17
5418.79518 1.29740e-17
5421.46103 1.29992e-17
5424.12688 1.32943e-17
5426.78271 1.32494e-17
5429.44857 1.36992e-17
5432.11442 1.36767e-17
5434.78027 1.30752e-17
5437.44612 1.37823e-17
5440.11197 1.42004e-17
5442.77783 1.41306e-17
5445.43366 1.40400e-17
5448.09951 1.40792e-17
5450.76536 1.43822e-17
5453.43121 1.48528e-17
5456.09706 1.43647e-17
5458.76292 1.45811e-17
5461.42877 1.60777e-17
5464.09462 1.68246e-17
5466.75045 1.58924e-17
5469.41630 1.55978e-17
5472.08215 1.55222e-17
5474.74801 1.60448e-17
5477.41386 1.71011e-17
5480.07971 1.82295e-17
5482.74556 1.87206e-17
5485.41141 1.78602e-17
5488.06724 1.77475e-17
5490.73310 1.82631e-17
5493.39895 1.85836e-17
5496.06480 1.86577e-17
5498.73065 1.87983e-17
5501.39650 1.86520e-17
5504.06236 1.88390e-17
5506.72821 1.88475e-17
5509.38404 1.92065e-17
5512.04989 1.95683e-17
5514.71574 1.96983e-17
5517.38159 1.96902e-17
5520.04745 1.95009e-17
5522.71330 1.93637e-17
5525.37915 1.91983e-17
5528.03498 1.95783e-17
5530.70083 1.95858e-17
5533.36668 1.94747e-17
5536.03254 1.87097e-17
5538.69839 1.81755e-17
5541.36424 1.84682e-17
5544.03009 1.86016e-17
5546.69594 1.83130e-17
5549.35177 1.77179e-17
5552.01763 1.73035e-17
5554.68348 1.71241e-17
5557.34933 1.71682e-17
5560.01518 1.65309e-17
5562.68103 1.54825e-17
5565.34689 1.50004e-17
5568.01274 1.50420e-17
5570.66857 1.45249e-17
5573.33442 1.45556e-17
5576.00027 1.36132e-17
5578.66612 9.33104e-18
5581.33198 1.16361e-17
5583.99783 1.65283e-17
5586.66368 1.55397e-17
5589.31951 1.56576e-17
5591.98536 1.55860e-17
5594.65121 1.53372e-17
5597.31707 1.58528e-17
5599.98292 1.61628e-17
5602.64877 1.63431e-17
5605.31462 1.65391e-17
5607.98047 1.66301e-17
5610.63630 1.61970e-17
5613.30216 1.57779e-17
5615.96801 1.62729e-17
5618.63386 1.66625e-17
5621.29971 1.67287e-17
5623.96556 1.66040e-17
5626.63142 1.62283e-17
5629.29727 1.60539e-17
5631.95310 1.64975e-17
5634.61895 1.64230e-17
5637.28480 1.60908e-17
5639.95065 1.60752e-17
5642.61651 1.65684e-17
5645.28236 1.73862e-17
5647.94821 1.68912e-17
5650.61406 1.64367e-17
5653.26989 1.66270e-17
5655.93574 1.68641e-17
5658.60160 1.66347e-17
5661.26745 1.60835e-17
5663.93330 1.57469e-17
5666.59915 1.59620e-17
5669.26500 1.57740e-17
5671.93086 1.54540e-17
5674.58669 1.58373e-17
5677.25254 1.60328e-17
5679.91839 1.53427e-17
5682.58424 1.54029e-17
5685.25009 1.59449e-17
5687.91595 1.57422e-17
5690.58180 1.49566e-17
5693.23763 1.48509e-17
5695.90348 1.53063e-17
5698.56933 1.55985e-17
5701.23518 1.50268e-17
5703.90104 1.44424e-17
5706.56689 1.43812e-17
5709.23274 1.43163e-17
5711.88857 1.40556e-17
5714.55442 1.35135e-17
5717.22027 1.32350e-17
5719.88613 1.32558e-17
5722.55198 1.34823e-17
5725.21783 1.32734e-17
5727.88368 1.27478e-17
5730.54953 1.26875e-17
5733.20536 1.27330e-17
5735.87122 1.24086e-17
5738.53707 1.21658e-17
5741.20292 1.22139e-17
5743.86877 1.19180e-17
5746.53462 1.12358e-17
5749.20048 1.06659e-17
5751.86633 1.07895e-17
5754.52216 1.07742e-17
5757.18801 1.06799e-17
5759.85386 1.04220e-17
5762.51971 1.02222e-17
5765.18557 1.03189e-17
5767.85142 1.00759e-17
5770.51727 1.00014e-17
5773.18312 9.97975e-18
5775.83895 9.97872e-18
5778.50480 9.89780e-18
5781.17066 1.00884e-17
5783.83651 1.01458e-17
5786.50236 1.01877e-17
5789.16821 1.03516e-17
5791.83406 1.01006e-17
5794.48989 9.68835e-18
5797.15575 1.00001e-17
5799.82160 1.00829e-17
5802.48745 1.03983e-17
5805.15330 1.07954e-17
5807.81915 1.12651e-17
5810.48501 1.16177e-17
5813.15086 1.14972e-17
5815.80669 1.15348e-17
5818.47254 1.14187e-17
5821.13839 1.18281e-17
5823.80424 1.20696e-17
5826.47010 1.23658e-17
5829.13595 1.24869e-17
5831.80180 1.21550e-17
5834.46765 1.18894e-17
5837.12348 1.21040e-17
5839.78933 1.21658e-17
5842.45519 1.25626e-17
5845.12104 1.29369e-17
5847.78689 1.29912e-17
5850.45274 1.34872e-17
5853.11859 1.39055e-17
5855.78445 1.36002e-17
5858.44028 1.34238e-17
5861.10613 1.37185e-17
5863.77198 1.40590e-17
5866.43783 1.40671e-17
5869.10368 1.36968e-17
5871.76954 1.36285e-17
5874.43539 1.40524e-17
5877.09122 1.42416e-17
5879.75707 1.39719e-17
5882.42292 1.40397e-17
5885.08877 1.40820e-17
5887.75463 1.43889e-17
5890.42048 1.50222e-17
5893.08633 1.49528e-17
5895.75218 1.44324e-17
5898.40801 1.42263e-17
5901.07386 1.41426e-17
5903.73972 1.40201e-17
5906.40557 1.41976e-17
5909.07142 1.41509e-17
5911.73727 1.41753e-17
5914.40312 1.45328e-17
5917.06898 1.48702e-17
5919.72481 1.49068e-17
5922.39066 1.44922e-17
5925.05651 1.49268e-17
5927.72236 1.50084e-17
5930.38821 1.48109e-17
5933.05407 1.46314e-17
5935.71992 1.47219e-17
5938.37575 1.44776e-17
5941.04160 1.40029e-17
5943.70745 1.40684e-17
5946.37330 1.46911e-17
5949.03916 1.49083e-17
5951.70501 1.47797e-17
5954.37086 1.44614e-17
5957.03671 1.43368e-17
5959.69254 1.44786e-17
5962.35839 1.43905e-17
5965.02425 1.43313e-17
5967.69010 1.47730e-17
5970.35595 1.42560e-17
5973.02180 1.39077e-17
5975.68765 1.41931e-17
5978.35351 1.39837e-17
5981.00934 1.41675e-17
5983.67519 1.43985e-17
5986.34104 1.39173e-17
5989.00689 1.34836e-17
5991.67274 1.37820e-17
5994.33860 1.36179e-17
5997.00445 1.35057e-17
5999.67030 1.34376e-17
6002.32613 1.35347e-17
6004.99198 1.37207e-17
6007.65783 1.37475e-17
6010.32369 1.30851e-17
6012.98954 1.25494e-17
6015.65539 1.26918e-17
6018.32124 1.30858e-17
6020.98709 1.31043e-17
6023.64292 1.27264e-17
6026.30878 1.24890e-17
6028.97463 1.20387e-17
6031.64048 1.19189e-17
6034.30633 1.18245e-17
6036.97218 1.16334e-17
6039.63804 1.14599e-17
6042.29387 1.10949e-17
6044.95972 1.08291e-17
6047.62557 1.06644e-17
6050.29142 1.10214e-17
6052.95727 1.12272e-17
6055.62313 1.15284e-17
6058.28898 1.18189e-17
6060.95483 1.12785e-17
6063.61066 1.09297e-17
6066.27651 1.09048e-17
6068.94236 1.07510e-17
6071.60822 1.09847e-17
6074.27407 1.14179e-17
6076.93992 1.14813e-17
6079.60577 1.12260e-17
6082.27162 1.13583e-17
6084.92745 1.19159e-17
6087.59331 1.19033e-17
6090.25916 1.16006e-17
6092.92501 1.17831e-17
6095.59086 1.20535e-17
6098.25671 1.20863e-17
6100.92257 1.18719e-17
6103.57840 1.19084e-17
6106.24425 1.21406e-17
6108.91010 1.18722e-17
6111.57595 1.20750e-17
6114.24180 1.18913e-17
6116.90766 1.17422e-17
6119.57351 1.19262e-17
6122.23936 1.16853e-17
6124.89519 1.08987e-17
6127.56104 1.08294e-17
6130.22689 1.06838e-17
6132.89275 1.09001e-17
6135.55860 1.15620e-17
6138.22445 1.16635e-17
6140.89030 1.10953e-17
6143.55615 1.09241e-17
6146.21198 1.12051e-17
6148.87784 1.11500e-17
6151.54369 1.13736e-17
6154.20954 1.12693e-17
6156.87539 1.11984e-17
6159.54124 1.18421e-17
6162.20710 1.20654e-17
6164.86293 1.23491e-17
6167.52878 1.26688e-17
6170.19463 1.27139e-17
6172.86048 1.33020e-17
6175.52633 1.35875e-17
6178.19219 1.33548e-17
6180.85804 1.38468e-17
6183.52389 1.45913e-17
6186.17972 1.48528e-17
6188.84557 1.48027e-17
6191.51142 1.47735e-17
6194.17728 1.52361e-17
6196.84313 1.57196e-17
6199.50898 1.59218e-17
6202.17483 1.60233e-17
6204.84068 1.56465e-17
6207.49651 1.55618e-17
6210.16237 1.56794e-17
6212.82822 1.59560e-17
6215.49407 1.59964e-17
6218.15992 1.63882e-17
6220.82577 1.64827e-17
6223.49163 1.63891e-17
6226.14746 1.60455e-17
6228.81331 1.63778e-17
6231.47916 1.68882e-17
6234.14501 1.66383e-17
6236.81086 1.58798e-17
6239.47672 1.64667e-17
6242.14257 1.68446e-17
6244.80842 1.61177e-17
6247.46425 1.60706e-17
6250.13010 1.62427e-17
6252.79595 1.62180e-17
6255.46181 1.64227e-17
6258.12766 1.62527e-17
6260.79351 1.63523e-17
6263.45936 1.65349e-17
6266.12521 1.66304e-17
6268.78104 1.65078e-17
6271.44690 1.62911e-17
6274.11275 1.60473e-17
6276.77860 1.57956e-17
6279.44445 1.60484e-17
6282.11030 1.61555e-17
6284.77616 1.63274e-17
6287.43199 1.63366e-17
6290.09784 1.61470e-17
6292.76369 1.57632e-17
6295.42954 1.54436e-17
6298.09539 1.50372e-17
6300.76125 1.46095e-17
6303.42710 1.45708e-17
6306.09295 1.46956e-17
6308.74878 1.41523e-17
6311.41463 1.38688e-17
6314.08048 1.37452e-17
6316.74634 1.40453e-17
6319.41219 1.37394e-17
6322.07804 1.36870e-17
6324.74389 1.38989e-17
6327.40974 1.32025e-17
6330.06557 1.28373e-17
6332.73143 1.31093e-17
6335.39728 1.28472e-17
6338.06313 1.27932e-17
6340.72898 1.27830e-17
6343.39483 1.24737e-17
6346.06069 1.22300e-17
6348.72654 1.23597e-17
6351.38237 1.25189e-17
6354.04822 1.26130e-17
6356.71407 1.26325e-17
6359.37992 1.24266e-17
6362.04578 1.24051e-17
6364.71163 1.25351e-17
6367.37748 1.24556e-17
6370.04333 1.22089e-17
6372.69916 1.22199e-17
6375.36501 1.26832e-17
6378.03087 1.29322e-17
6380.69672 1.29525e-17
6383.36257 1.28132e-17
6386.02842 1.29354e-17
6388.69427 1.30074e-17
6391.35010 1.27334e-17
6394.01596 1.29310e-17
6396.68181 1.28543e-17
6399.34766 1.29177e-17
6402.01351 1.31357e-17
6404.67936 1.31018e-17
6407.34522 1.32627e-17
6410.01107 1.32635e-17
6412.66690 1.32405e-17
6415.33275 1.33354e-17
6417.99860 1.34469e-17
6420.66445 1.32839e-17
6423.33031 1.33141e-17
6425.99616 1.35241e-17
6428.66201 1.39241e-17
6431.32786 1.43320e-17
6433.98369 1.39190e-17
6436.64954 1.41210e-17
6439.31540 1.46610e-17
6441.98125 1.45382e-17
6444.64710 1.45765e-17
6447.31295 1.46169e-17
6449.97880 1.46314e-17
6452.63463 1.46760e-17
6455.30049 1.48821e-17
6457.96634 1.49050e-17
6460.63219 1.47636e-17
6463.29804 1.48978e-17
6465.96389 1.49857e-17
6468.62975 1.53702e-17
6471.29560 1.56209e-17
6473.95143 1.56232e-17
6476.61728 1.57036e-17
6479.28313 1.58302e-17
6481.94898 1.58061e-17
6484.61484 1.55492e-17
6487.28069 1.58047e-17
6489.94654 1.54858e-17
6492.61239 1.54091e-17
6495.26822 1.55414e-17
6497.93407 1.57008e-17
6500.59993 1.56706e-17
6503.26578 1.57573e-17
6505.93163 1.55243e-17
6508.59748 1.52042e-17
6511.26333 1.57910e-17
6513.91916 1.62943e-17
6516.58502 1.59451e-17
6519.25087 1.61645e-17
6521.91672 1.64062e-17
6524.58257 1.62188e-17
6527.24842 1.63861e-17
6529.91428 1.63024e-17
6532.58013 1.64433e-17
6535.23596 1.66685e-17
6537.90181 1.67078e-17
6540.56766 1.66497e-17
6543.23351 1.61787e-17
6545.89937 1.60998e-17
6548.56522 1.60591e-17
6551.23107 1.60184e-17
6553.89692 1.59777e-17
6556.55275 1.59370e-17
6559.21860 1.58963e-17
6561.88446 1.58557e-17
6564.55031 1.58150e-17
6567.21616 1.57743e-17
6569.88201 1.57336e-17
6572.54786 1.56930e-17
6575.20369 1.56523e-17
6577.86955 1.56116e-17
6580.53540 1.55710e-17
6583.20125 1.55303e-17
6585.86710 1.54896e-17
6588.53295 1.54490e-17
6591.19881 1.54083e-17
6593.86466 1.53677e-17
6596.52049 1.53270e-17
6599.18634 1.52864e-17
6601.85219 1.52458e-17
6604.51804 1.52051e-17
6607.18390 1.51645e-17
6609.84975 1.51239e-17
6612.51560 1.47450e-17
6615.18145 1.44849e-17
6617.83728 1.46730e-17
6620.50313 1.45415e-17
6623.16899 1.44683e-17
6625.83484 1.42416e-17
6628.50069 1.41024e-17
6631.16654 1.40277e-17
6633.83239 1.43079e-17
6636.48822 1.39230e-17
6639.15408 1.40266e-17
6641.81993 1.39561e-17
6644.48578 1.36041e-17
6647.15163 1.36268e-17
6649.81748 1.36541e-17
6652.48334 1.37707e-17
6655.14919 1.39959e-17
6657.80502 1.38711e-17
6660.47087 1.37919e-17
6663.13672 1.35085e-17
6665.80257 1.34806e-17
6668.46843 1.34524e-17
6671.13428 1.34472e-17
6673.80013 1.36269e-17
6676.46598 1.32439e-17
6679.12181 1.28138e-17
6681.78766 1.27283e-17
6684.45352 1.29957e-17
6687.11937 1.28447e-17
6689.78522 1.22676e-17
6692.45107 1.22930e-17
6695.11692 1.28142e-17
6697.78278 1.26819e-17
6700.43861 1.22231e-17
6703.10446 1.21104e-17
6705.77031 1.19323e-17
6708.43616 1.19091e-17
6711.10201 1.20696e-17
6713.76787 1.19689e-17
6716.43372 1.18160e-17
6719.09957 1.17479e-17
6721.75540 1.17868e-17
6724.42125 1.16474e-17
6727.08710 1.15297e-17
6729.75296 1.13886e-17
6732.41881 1.13308e-17
6735.08466 1.12567e-17
6737.75051 1.08678e-17
6740.40634 1.05873e-17
6743.07219 1.08136e-17
6745.73805 1.14624e-17
6748.40390 1.18513e-17
6751.06975 1.18028e-17
6753.73560 1.16433e-17
6756.40145 1.12034e-17
6759.06731 1.08608e-17
6761.72314 1.05997e-17
6764.38899 1.10724e-17
6767.05484 1.12816e-17
6769.72069 1.10801e-17
6772.38654 1.12456e-17
6775.05240 1.12650e-17
6777.71825 1.12543e-17
6780.38410 1.12727e-17
6783.03993 1.11783e-17
6785.70578 1.13538e-17
6788.37163 1.12857e-17
6791.03749 1.12707e-17
6793.70334 1.11176e-17
6796.36919 1.09747e-17
6799.03504 1.12557e-17
6801.69087 1.09883e-17
6804.35672 1.08946e-17
6807.02258 1.11579e-17
6809.68843 1.12220e-17
6812.35428 1.12439e-17
6815.02013 1.12180e-17
6817.68598 1.11113e-17
6820.35184 1.10864e-17
6823.00767 1.11319e-17
6825.67352 1.09097e-17
6828.33937 1.10808e-17
6831.00522 1.08460e-17
6833.67107 1.07359e-17
6836.33693 1.09368e-17
6839.00278 1.06377e-17
6841.66863 1.03470e-17
6844.32446 1.00570e-17
6846.99031 1.00957e-17
6849.65616 1.01920e-17
6852.32202 9.95014e-18
6854.98787 9.70632e-18
6857.65372 1.00320e-17
6860.31957 1.01562e-17
6862.97540 9.90845e-18
6865.64125 9.62051e-18
6868.30711 9.70936e-18
6870.97296 9.87747e-18
6873.63881 9.90792e-18
6876.30466 9.56931e-18
6878.97051 9.35377e-18
6881.63637 9.67359e-18
6884.29220 9.59116e-18
6886.95805 9.34420e-18
6889.62390 9.12424e-18
6892.28975 8.50385e-18
6894.95560 8.49473e-18
6897.62146 8.93925e-18
6900.28731 9.20670e-18
6902.95316 9.15641e-18
6905.60899 9.09479e-18
6908.27484 8.95246e-18
6910.94069 9.08682e-18
6913.60655 9.09643e-18
6916.27240 9.09467e-18
6918.93825 9.15122e-18
6921.60410 9.13383e-18
6924.25993 9.42311e-18
6926.92578 9.47864e-18
6929.59164 9.67057e-18
6932.25749 9.53834e-18
6934.92334 9.42427e-18
6937.58919 9.70882e-18
6940.25504 1.00218e-17
6942.92090 1.01245e-17
6945.57673 9.78650e-18
6948.24258 9.62846e-18
6950.90843 9.96690e-18
6953.57428 1.01931e-17
6956.24013 1.04563e-17
6958.90599 1.06634e-17
6961.57184 1.05812e-17
6964.23769 1.04441e-17
6966.89352 1.04385e-17
6969.55937 1.04973e-17
6972.22522 1.05353e-17
6974.89108 1.03359e-17
6977.55693 1.04155e-17
6980.22278 1.05726e-17
6982.88863 1.04870e-17
6985.54446 1.06411e-17
6988.21031 1.09188e-17
6990.87617 1.08891e-17
6993.54202 1.07230e-17
6996.20787 1.11059e-17
6998.87372 1.13373e-17
7001.53957 1.10272e-17
7004.20543 1.10437e-17
7006.86126 1.12617e-17
7009.52711 1.11992e-17
7012.19296 1.12677e-17
7014.85881 1.14281e-17
7017.52466 1.14117e-17
7020.19052 1.12486e-17
7022.85637 1.08689e-17
7025.52222 1.10482e-17
7028.17805 1.13167e-17
7030.84390 1.13187e-17
7033.50975 1.09679e-17
7036.17561 1.08743e-17
7038.84146 1.09926e-17
7041.50731 1.07673e-17
7044.17316 1.10623e-17
7046.83901 1.07916e-17
7049.49484 1.10022e-17
7052.16070 1.11090e-17
7054.82655 1.06896e-17
7057.49240 1.07210e-17
7060.15825 1.03811e-17
7062.82410 1.03100e-17
7065.48996 1.06919e-17
7068.15581 1.08428e-17
7070.81164 1.07344e-17
7073.47749 1.03045e-17
7076.14334 1.03396e-17
7078.80919 1.03873e-17
7081.47505 1.01405e-17
7084.14090 1.02728e-17
7086.80675 1.00580e-17
7089.46258 9.99327e-18
7092.12843 1.02390e-17
7094.79428 1.01106e-17
7097.46014 9.78175e-18
7100.12599 9.69687e-18
7102.79184 9.54352e-18
7105.45769 9.63805e-18
7108.12354 1.00862e-17
7110.77937 9.63866e-18
7113.44523 9.14204e-18
7116.11108 8.87370e-18
7118.77693 9.32257e-18
7121.44278 9.43569e-18
7124.10863 9.39032e-18
7126.77449 9.89395e-18
7129.44034 9.92378e-18
7132.09617 9.63028e-18
7134.76202 9.56163e-18
7137.42787 9.30611e-18
7140.09372 9.39690e-18
7142.75958 1.00154e-17
7145.42543 9.63423e-18
7148.09128 9.23243e-18
7150.74711 9.59725e-18
7153.41296 1.01118e-17
7156.07881 1.01761e-17
7158.74467 9.93031e-18
7161.41052 1.01341e-17
7164.07637 9.92414e-18
7166.74222 9.67494e-18
7169.40807 9.76236e-18
7172.06390 9.97884e-18
7174.72976 9.56072e-18
7177.39561 9.55605e-18
7180.06146 9.75081e-18
7182.72731 1.00506e-17
7185.39316 1.03664e-17
7188.05902 1.01220e-17
7190.72487 9.92781e-18
7193.38070 1.00653e-17
7196.04655 1.02567e-17
7198.71240 9.96628e-18
7201.37825 9.66849e-18
7204.04411 1.01072e-17
7206.70996 1.01421e-17
7209.37581 1.03819e-17
7212.03164 1.07294e-17
7214.69749 1.11098e-17
7217.36334 1.12643e-17
7220.02920 1.11601e-17
7222.69505 1.08311e-17
7225.36090 1.09917e-17
7228.02675 1.10776e-17
7230.69260 1.10639e-17
7233.34843 1.10742e-17
7236.01429 1.13467e-17
7238.68014 1.16030e-17
7241.34599 1.16628e-17
7244.01184 1.19175e-17
7246.67769 1.19459e-17
7249.34355 1.20351e-17
7252.00940 1.25228e-17
7254.66523 1.22808e-17
7257.33108 1.21323e-17
7259.99693 1.26983e-17
7262.66278 1.26909e-17
7265.32864 1.25531e-17
7267.99449 1.34623e-17
7270.66034 1.32772e-17
7273.31617 1.30106e-17
7275.98202 1.28727e-17
7278.64787 1.30958e-17
7281.31373 1.30644e-17
7283.97958 1.31361e-17
7286.64543 1.32275e-17
7289.31128 1.34102e-17
7291.97713 1.36066e-17
7294.63296 1.31142e-17
7297.29882 1.25997e-17
7299.96467 1.28772e-17
7302.63052 1.33566e-17
7305.29637 1.33977e-17
7307.96222 1.29357e-17
7310.62808 1.24943e-17
7313.29393 1.23277e-17
7315.94976 1.22069e-17
7318.61561 1.25622e-17
7321.28146 1.26833e-17
7323.94731 1.25136e-17
7326.61317 1.23636e-17
7329.27902 1.23782e-17
7331.94487 1.21707e-17
7334.60070 1.20795e-17
7337.26655 1.23367e-17
7339.93240 1.22035e-17
7342.59826 1.18090e-17
7345.26411 1.11490e-17
7347.92996 1.12677e-17
7350.59581 1.18581e-17
7353.26166 1.22034e-17
7355.91749 1.22935e-17
7358.58335 1.19302e-17
7361.24920 1.18030e-17
7363.91505 1.21033e-17
7366.58090 1.22509e-17
7369.24675 1.24152e-17
7371.91261 1.25421e-17
7374.57846 1.25326e-17
7377.23429 1.21027e-17
7379.90014 1.19457e-17
7382.56599 1.20910e-17
7385.23184 1.20199e-17
7387.89770 1.23073e-17
7390.56355 1.24103e-17
7393.22940 1.24115e-17
7395.89525 1.25978e-17
7398.55108 1.23787e-17
7401.21693 1.20993e-17
7403.88279 1.22780e-17
7406.54864 1.24866e-17
7409.21449 1.23548e-17
7411.88034 1.22939e-17
7414.54619 1.26089e-17
7417.20202 1.26899e-17
7419.86788 1.23726e-17
7422.53373 1.22178e-17
7425.19958 1.21010e-17
7427.86543 1.19704e-17
7430.53128 1.18756e-17
7433.19714 1.20615e-17
7435.86299 1.22327e-17
7438.51882 1.22693e-17
7441.18467 1.17098e-17
7443.85052 1.14121e-17
7446.51637 1.06324e-17
7449.18223 9.44126e-18
7451.84808 8.21028e-18
7454.51393 7.38010e-18
7457.17978 7.11080e-18
7459.83561 7.84046e-18
7462.50146 9.21165e-18
7465.16732 1.08231e-17
7467.83317 1.13907e-17
7470.49902 1.10435e-17
7473.16487 1.09979e-17
7475.83072 1.05401e-17
7478.48655 1.01927e-17
7481.15241 9.92639e-18
7483.81826 9.98596e-18
7486.48411 9.85980e-18
7489.14996 1.03583e-17
7491.81581 1.06725e-17
7494.48167 1.11803e-17
7497.14752 1.07495e-17
7499.80335 1.10834e-17
7502.46920 1.15825e-17
7505.13505 1.16510e-17
7507.80090 1.17071e-17
7510.46676 1.13891e-17
7513.13261 1.12233e-17
7515.79846 1.12332e-17
7518.46431 1.12500e-17
7521.12014 1.10384e-17
7523.78599 1.02464e-17
7526.45185 1.02658e-17
7529.11770 1.03302e-17
7531.78355 9.98830e-18
7534.44940 9.80583e-18
7537.11525 9.49366e-18
7539.78111 9.00840e-18
7542.43694 9.03091e-18
7545.10279 8.86305e-18
7547.76864 8.64407e-18
7550.43449 8.37074e-18
7553.10034 8.18024e-18
7555.76620 7.99470e-18
7558.43205 8.13474e-18
7561.08788 7.92792e-18
7563.75373 7.25583e-18
7566.41958 6.71123e-18
7569.08543 6.32296e-18
7571.75129 5.90612e-18
7574.41714 5.74035e-18
7577.08299 5.84727e-18
7579.74884 5.37742e-18
7582.40467 5.38553e-18
7585.07052 5.15517e-18
7587.73638 5.19674e-18
7590.40223 4.90118e-18
7593.06808 5.05478e-18
7595.73393 4.99350e-18
7598.39978 4.99530e-18
7601.06564 4.92909e-18
7603.72147 4.90313e-18
7606.38732 4.83751e-18
7609.05317 4.73289e-18
7611.71902 4.78419e-18
7614.38487 4.69052e-18
7617.05073 4.68018e-18
7619.71658 5.16179e-18
7622.38243 5.44342e-18
7625.03826 5.10603e-18
7627.70411 4.92423e-18
7630.36996 5.20537e-18
7633.03582 5.69058e-18
7635.70167 6.70349e-18
7638.36752 6.49841e-18
7641.03337 6.37733e-18
7643.68920 6.52092e-18
7646.35505 6.49796e-18
7649.02091 6.87476e-18
7651.68676 6.91509e-18
7654.35261 6.87314e-18
7657.01846 7.30723e-18
7659.68431 7.48130e-18
7662.35017 7.88336e-18
7665.00600 8.37546e-18
7667.67185 8.32496e-18
7670.33770 8.33242e-18
7673.00355 8.36934e-18
7675.66940 8.60604e-18
7678.33526 9.17454e-18
7681.00111 9.52377e-18
7683.65694 9.60712e-18
7686.32279 9.77970e-18
7688.98864 1.02095e-17
7691.65449 1.05972e-17
7694.32035 1.06249e-17
7696.98620 1.08971e-17
7699.65205 1.08639e-17
7702.31790 1.07509e-17
7704.97373 1.08630e-17
7707.63958 1.12621e-17
7710.30544 1.15576e-17
7712.97129 1.18453e-17
7715.63714 1.22322e-17
7718.30299 1.22615e-17
7720.96884 1.23395e-17
7723.63470 1.26156e-17
7726.29053 1.25127e-17
7728.95638 1.23926e-17
7731.62223 1.26271e-17
7734.28808 1.29352e-17
7736.95393 1.29489e-17
7739.61979 1.32969e-17
7742.28564 1.36268e-17
7744.95149 1.30184e-17
7747.60732 1.28208e-17
7750.27317 1.34486e-17
7752.93902 1.40932e-17
7755.60488 1.42641e-17
7758.27073 1.43909e-17
7760.93658 1.40435e-17
7763.60243 1.31293e-17
7766.25826 1.28747e-17
7768.92411 1.34005e-17
7771.58997 1.39103e-17
7774.25582 1.40457e-17
7776.92167 1.40223e-17
7779.58752 1.38301e-17
7782.25337 1.40642e-17
7784.91923 1.38632e-17
7787.57506 1.35098e-17
7790.24091 1.37671e-17
7792.90676 1.36711e-17
7795.57261 1.36061e-17
7798.23846 1.36182e-17
7800.90432 1.39365e-17
7803.57017 1.39690e-17
7806.23602 1.31023e-17
7808.89185 1.26640e-17
7811.55770 1.30135e-17
7814.22355 1.31598e-17
7816.88941 1.34788e-17
7819.55526 1.39010e-17
7822.22111 1.36080e-17
7824.88696 1.32331e-17
7827.54279 1.33331e-17
7830.20864 1.37785e-17
7832.87450 1.36909e-17
7835.54035 1.34914e-17
7838.20620 1.32133e-17
7840.87205 1.27673e-17
7843.53790 1.24446e-17
7846.20376 1.27427e-17
7848.85959 1.29940e-17
7851.52544 1.30475e-17
7854.19129 1.30074e-17
7856.85714 1.26092e-17
7859.52299 1.24719e-17
7862.18885 1.30556e-17
7864.85470 1.36002e-17
7867.52055 1.32602e-17
7870.17638 1.24374e-17
7872.84223 1.22957e-17
7875.50808 1.20802e-17
7878.17394 1.25564e-17
7880.83979 1.24909e-17
7883.50564 1.30008e-17
7886.17149 1.29984e-17
7888.83734 1.22947e-17
7891.49317 1.24203e-17
7894.15903 1.21714e-17
7896.82488 1.19784e-17
7899.49073 1.26834e-17
7902.15658 1.28137e-17
7904.82243 1.25431e-17
7907.48829 1.25183e-17
7910.15414 1.21900e-17
7912.80997 1.20919e-17
7915.47582 1.18234e-17
7918.14167 1.18389e-17
7920.80752 1.22797e-17
7921.12306 1.22797e-17
7921.98452 1.22507e-17
7922.85600 1.22216e-17
7923.71746 1.21788e-17
7924.57892 1.21359e-17
7925.44038 1.20973e-17
7926.30185 1.20586e-17
7927.16331 1.20345e-17
7928.02477 1.20105e-17
7928.88623 1.20081e-17
7929.74769 1.20059e-17
7930.60916 1.20208e-17
7931.47062 1.20358e-17
7932.34210 1.20557e-17
7933.20356 1.20758e-17
7934.06502 1.20902e-17
7934.92648 1.21045e-17
7935.78794 1.21045e-17
7936.64941 1.21047e-17
7937.51087 1.20859e-17
7938.37233 1.20669e-17
7939.23379 1.20302e-17
7940.09525 1.19934e-17
7940.95672 1.19441e-17
7941.81818 1.18948e-17
7942.68966 1.18453e-17
7943.55112 1.17958e-17
7944.41258 1.17557e-17
7945.27404 1.17156e-17
7946.13551 1.16866e-17
7946.99697 1.16576e-17
7947.85843 1.16396e-17
7948.71989 1.16215e-17
7949.58135 1.16110e-17
7950.44282 1.16006e-17
7951.30428 1.15931e-17
7952.17576 1.15857e-17
7953.03722 1.15712e-17
7953.89868 1.15567e-17
7954.76014 1.15265e-17
7955.62160 1.14964e-17
7956.48307 1.14632e-17
7957.34453 1.14299e-17
7958.20599 1.14099e-17
7959.06745 1.13901e-17
7959.92891 1.13847e-17
7960.79038 1.13792e-17
7961.66186 1.13848e-17
7962.52332 1.13902e-17
7963.38478 1.13980e-17
7964.24624 1.14059e-17
7965.10770 1.14035e-17
7965.96917 1.14010e-17
7966.83063 1.13956e-17
7967.69209 1.13900e-17
7968.55355 1.14021e-17
7969.41501 1.14144e-17
7970.27648 1.14489e-17
7971.14795 1.14836e-17
7972.00942 1.15301e-17
7972.87088 1.15767e-17
7973.73234 1.16212e-17
7974.59380 1.16659e-17
7975.45526 1.16881e-17
7976.31673 1.17103e-17
7977.17819 1.17014e-17
7978.03965 1.16926e-17
7978.90111 1.16694e-17
7979.76257 1.16462e-17
7980.63405 1.16230e-17
7981.49552 1.16000e-17
7982.35698 1.15807e-17
7983.21844 1.15613e-17
7984.07990 1.15479e-17
7984.94136 1.15346e-17
7985.80283 1.15223e-17
7986.66429 1.15102e-17
7987.52575 1.14940e-17
7988.38721 1.14777e-17
7989.24867 1.14596e-17
7990.11014 1.14414e-17
7990.98161 1.14241e-17
7991.84308 1.14068e-17
7992.70454 1.13956e-17
7993.56600 1.13843e-17
7994.42746 1.13854e-17
7995.28892 1.13865e-17
7996.15039 1.13876e-17
7997.01185 1.13888e-17
7997.87331 1.13706e-17
7998.73477 1.13525e-17
7999.59623 1.13175e-17
8000.46771 1.12824e-17
8001.32917 1.12451e-17
8002.19064 1.12078e-17
8003.05210 1.11793e-17
8003.91356 1.11508e-17
8004.77502 1.11406e-17
8005.63649 1.11303e-17
8006.49795 1.11359e-17
8007.35941 1.11414e-17
8008.22087 1.11435e-17
8009.08233 1.11456e-17
8009.95381 1.11378e-17
8010.81527 1.11301e-17
8011.67674 1.11310e-17
8012.53820 1.11320e-17
8013.39966 1.11506e-17
8014.26112 1.11692e-17
8015.12258 1.11925e-17
8015.98405 1.12158e-17
8016.84551 1.12313e-17
8017.70697 1.12468e-17
8018.56843 1.12420e-17
8019.43991 1.12371e-17
8020.30137 1.12043e-17
8021.16284 1.11714e-17
8022.02430 1.11313e-17
8022.88576 1.10912e-17
8023.74722 1.10669e-17
8024.60868 1.10427e-17
8025.47015 1.10335e-17
8026.33161 1.10243e-17
8027.19307 1.10241e-17
8028.05453 1.10240e-17
8028.92601 1.10252e-17
8029.78747 1.10264e-17
8030.64893 1.10202e-17
8031.51040 1.10140e-17
8032.37186 1.10013e-17
8033.23332 1.09886e-17
8034.09478 1.09756e-17
8034.95624 1.09625e-17
8035.81771 1.09530e-17
8036.67917 1.09436e-17
8037.54063 1.09400e-17
8038.41211 1.09365e-17
8039.27357 1.09397e-17
8040.13503 1.09429e-17
8040.99650 1.09519e-17
8041.85796 1.09609e-17
8042.71942 1.09726e-17
8043.58088 1.09843e-17
8044.44234 1.09935e-17
8045.30380 1.10028e-17
8046.16527 1.10055e-17
8047.02673 1.10082e-17
8047.88819 1.10026e-17
8048.75967 1.09970e-17
8049.62113 1.09840e-17
8050.48259 1.09710e-17
8051.34406 1.09603e-17
8052.20552 1.09495e-17
8053.06698 1.09482e-17
8053.92844 1.09468e-17
8054.78990 1.09494e-17
8055.65137 1.09520e-17
8056.51283 1.09517e-17
8057.37429 1.09514e-17
8058.24577 1.09401e-17
8059.10723 1.09287e-17
8059.96869 1.08993e-17
8060.83015 1.08699e-17
8061.69162 1.08281e-17
8062.55308 1.07863e-17
8063.41454 1.07418e-17
8064.27600 1.06974e-17
8065.13746 1.06611e-17
8065.99893 1.06248e-17
8066.86039 1.06074e-17
8067.73187 1.05901e-17
8068.59333 1.05922e-17
8069.45479 1.05944e-17
8070.31625 1.06103e-17
8071.17772 1.06262e-17
8072.03918 1.06445e-17
8072.90064 1.06628e-17
8073.76210 1.06671e-17
8074.62356 1.06715e-17
8075.48503 1.06559e-17
8076.34649 1.06403e-17
8077.21797 1.06126e-17
8078.07943 1.05849e-17
8078.94089 1.05499e-17
8079.80235 1.05148e-17
8080.66381 1.04716e-17
8081.52528 1.04284e-17
8082.38674 1.03776e-17
8083.24820 1.03268e-17
8084.10966 1.02707e-17
8084.97113 1.02145e-17
8085.83259 1.01555e-17
8086.70407 1.00964e-17
8087.56553 1.00382e-17
8088.42699 9.98009e-18
8089.28845 9.92631e-18
8090.14991 9.87254e-18
8091.01138 9.82632e-18
8091.87284 9.78012e-18
8092.73430 9.74314e-18
8093.59576 9.70618e-18
8094.45722 9.67774e-18
8095.31869 9.64932e-18
8096.18015 9.62713e-18
8097.05163 9.60497e-18
8097.91309 9.57667e-18
8098.77455 9.54837e-18
8099.63601 9.49932e-18
8100.49748 9.45022e-18
8101.35894 9.37578e-18
8102.22040 9.30128e-18
8103.08186 9.20241e-18
8103.94332 9.10347e-18
8104.80479 8.99213e-18
8105.67626 8.88076e-18
8106.53773 8.77637e-18
8107.39919 8.67200e-18
8108.26065 8.58668e-18
8109.12211 8.50140e-18
8109.98357 8.43926e-18
8110.84504 8.37717e-18
8111.70650 8.33276e-18
8112.56796 8.28837e-18
8113.42942 8.24264e-18
8114.29088 8.19692e-18
8115.15235 8.13449e-18
8116.02383 8.07204e-18
8116.88529 7.98638e-18
8117.74675 7.90068e-18
8118.60821 7.79055e-18
8119.46967 7.68038e-18
8120.33114 7.56167e-18
8121.19260 7.44296e-18
8122.05406 7.32837e-18
8122.91552 7.21381e-18
8123.77698 7.08918e-18
8124.63845 6.96454e-18
8125.49991 6.81672e-18
8126.37139 6.66885e-18
8127.23285 6.50489e-18
8128.09431 6.34090e-18
8128.95577 6.17115e-18
8129.81723 6.00140e-18
8130.67870 5.84575e-18
8131.54016 5.69013e-18
8132.40162 5.56994e-18
8133.26308 5.44984e-18
8134.12454 5.35364e-18
8134.99602 5.25749e-18
8135.85749 5.15956e-18
8136.71895 5.06163e-18
8137.58041 4.95222e-18
8138.44187 4.84279e-18
8139.30333 4.72155e-18
8140.16480 4.60027e-18
8141.02626 4.47027e-18
8141.88772 4.34026e-18
8142.74918 4.20876e-18
8143.61064 4.07724e-18
8144.47210 3.95140e-18
8145.34358 3.82557e-18
8146.20505 3.71112e-18
8147.06651 3.59671e-18
8147.92797 3.49768e-18
8148.78943 3.39870e-18
8149.65089 3.31637e-18
8150.51236 3.23410e-18
8151.37382 3.16643e-18
8152.23528 3.09880e-18
8153.09674 3.03688e-18
8153.95820 2.97497e-18
8154.82968 2.91157e-18
8155.69115 2.84819e-18
8156.55261 2.78401e-18
8157.41407 2.71982e-18
8158.27553 2.65705e-18
8159.13699 2.59428e-18
8159.99845 2.53826e-18
8160.85992 2.48225e-18
8161.72138 2.43822e-18
8162.58284 2.39422e-18
8163.44430 2.36378e-18
8164.31578 2.33337e-18
8165.17724 2.31624e-18
8166.03871 2.29913e-18
8166.90017 2.28715e-18
8167.76163 2.27519e-18
8168.62309 2.25847e-18
8169.48455 2.24175e-18
8170.34602 2.21203e-18
8171.20748 2.18229e-18
8172.06894 2.13175e-18
8172.93040 2.08115e-18
8173.80188 2.02313e-18
8174.66334 1.96511e-18
8175.52481 1.92845e-18
8176.38627 1.89186e-18
8177.24773 1.88299e-18
8178.10919 1.87419e-18
8178.97065 1.87639e-18
8179.83212 1.87861e-18
8180.69358 1.87914e-18
8181.55504 1.87967e-18
8182.41650 1.87053e-18
8183.28798 1.86137e-18
8184.14944 1.83964e-18
8185.01090 1.81789e-18
8185.87237 1.79436e-18
8186.73383 1.77082e-18
8187.59529 1.75320e-18
8188.45675 1.73558e-18
8189.31821 1.71792e-18
8190.17968 1.70025e-18
8191.04114 1.67837e-18
8191.90260 1.65647e-18
8192.77408 1.63545e-18
8193.63554 1.61444e-18
8194.49700 1.59944e-18
8195.35846 1.58445e-18
8196.21993 1.58006e-18
8197.08139 1.57570e-18
8197.94285 1.58541e-18
8198.80431 1.59514e-18
8199.66577 1.61062e-18
8200.52724 1.62611e-18
8201.38870 1.63571e-18
8202.25016 1.64531e-18
8203.12164 1.64678e-18
8203.98310 1.64825e-18
8204.84456 1.64348e-18
8205.70603 1.63869e-18
8206.56749 1.62865e-18
8207.42895 1.61857e-18
8208.29041 1.60405e-18
8209.15187 1.58951e-18
8210.01334 1.57287e-18
8210.87480 1.55623e-18
8211.73626 1.54054e-18
8212.60774 1.52486e-18
8213.46920 1.51142e-18
8214.33066 1.49799e-18
8215.19212 1.48659e-18
8216.05359 1.47519e-18
8216.91505 1.46219e-18
8217.77651 1.44920e-18
8218.63797 1.42458e-18
8219.49943 1.39993e-18
8220.36090 1.35983e-18
8221.22236 1.31970e-18
8222.08382 1.27441e-18
8222.95530 1.22910e-18
8223.81676 1.19007e-18
8224.67822 1.15105e-18
8225.53969 1.13266e-18
8226.40115 1.11431e-18
8227.26261 1.12692e-18
8228.12407 1.13960e-18
8228.98553 1.17355e-18
8229.84700 1.20755e-18
8230.70846 1.24943e-18
8231.57994 1.29132e-18
8232.44140 1.32808e-18
8233.30286 1.36483e-18
8234.16432 1.38435e-18
8235.02578 1.40384e-18
8235.88725 1.41015e-18
8236.74871 1.41641e-18
8237.61017 1.41961e-18
8238.47163 1.42280e-18
8239.33309 1.42993e-18
8240.19456 1.43707e-18
8241.06604 1.45399e-18
8241.92750 1.47094e-18
8242.78896 1.49423e-18
8243.65042 1.51754e-18
8244.51188 1.53662e-18
8245.37335 1.55570e-18
8246.23481 1.56537e-18
8247.09627 1.57502e-18
8247.95773 1.57587e-18
8248.81919 1.57670e-18
8249.68066 1.57084e-18
8250.54212 1.56497e-18
8251.41360 1.55711e-18
8252.27506 1.54924e-18
8253.13652 1.54375e-18
8253.99798 1.53828e-18
8254.85945 1.53784e-18
8255.72091 1.53742e-18
8256.58237 1.54353e-18
8257.44383 1.54966e-18
8258.30529 1.56127e-18
8259.16676 1.57289e-18
8260.02822 1.58778e-18
8260.89970 1.60268e-18
8261.76116 1.61672e-18
8262.62262 1.63076e-18
8263.48408 1.63991e-18
8264.34554 1.64904e-18
8265.20701 1.64964e-18
8266.06847 1.65022e-18
8266.92993 1.63987e-18
8267.79139 1.62951e-18
8268.65285 1.61372e-18
8269.52433 1.59792e-18
8270.38580 1.58434e-18
8271.24726 1.57076e-18
8272.10872 1.56451e-18
8272.97018 1.55828e-18
8273.83164 1.56333e-18
8274.69311 1.56841e-18
8275.55457 1.58080e-18
8276.41603 1.59320e-18
8277.27749 1.60398e-18
8278.13895 1.61476e-18
8279.01043 1.62028e-18
8279.87189 1.62580e-18
8280.73336 1.62693e-18
8281.59482 1.62806e-18
8282.45628 1.62750e-18
8283.31774 1.62693e-18
8284.17920 1.63033e-18
8285.04067 1.63374e-18
8285.90213 1.64325e-18
8286.76359 1.65277e-18
8287.62505 1.66327e-18
8288.48651 1.67377e-18
8289.34798 1.68255e-18
8290.21946 1.69132e-18
8291.08092 1.70246e-18
8291.94238 1.71359e-18
8292.80384 1.72942e-18
8293.66530 1.74525e-18
8294.52677 1.76164e-18
8295.38823 1.77802e-18
8296.24969 1.79114e-18
8297.11115 1.80426e-18
8297.97261 1.81165e-18
8298.83408 1.81902e-18
8299.70555 1.81922e-18
8300.56702 1.81939e-18
8301.42848 1.82107e-18
8302.28994 1.82276e-18
8303.15140 1.83623e-18
8304.01286 1.84973e-18
8304.87433 1.87103e-18
8305.73579 1.89233e-18
8306.59725 1.91288e-18
8307.45871 1.93343e-18
8308.32017 1.94804e-18
8309.18164 1.96264e-18
8310.05312 1.96751e-18
8310.91458 1.97236e-18
8311.77604 1.97154e-18
8312.63750 1.97070e-18
8313.49896 1.97402e-18
8314.36043 1.97734e-18
8315.22189 1.99031e-18
8316.08335 2.00332e-18
8316.94481 2.02705e-18
8317.80627 2.05082e-18
8318.67775 2.08252e-18
8319.53921 2.11425e-18
8320.40068 2.14508e-18
8321.26214 2.17592e-18
8322.12360 2.19959e-18
8322.98506 2.22323e-18
8323.84652 2.23964e-18
8324.70799 2.25603e-18
8325.56945 2.26600e-18
8326.43091 2.27597e-18
8327.29237 2.28197e-18
8328.16385 2.28796e-18
8329.02531 2.29305e-18
8329.88678 2.29812e-18
8330.74824 2.30404e-18
8331.60970 2.30996e-18
8332.47116 2.31845e-18
8333.33262 2.32694e-18
8334.19408 2.34226e-18
8335.05555 2.35760e-18
8335.91701 2.38330e-18
8336.77847 2.40901e-18
8337.64995 2.44232e-18
8338.51141 2.47563e-18
8339.37287 2.51179e-18
8340.23434 2.54797e-18
8341.09580 2.58047e-18
8341.95726 2.61297e-18
8342.81872 2.63475e-18
8343.68018 2.65652e-18
8344.54165 2.66774e-18
8345.40311 2.67894e-18
8346.26457 2.68454e-18
8347.12603 2.69013e-18
8347.99751 2.69414e-18
8348.85897 2.69816e-18
8349.72043 2.70359e-18
8350.58190 2.70902e-18
8351.44336 2.71936e-18
8352.30482 2.72971e-18
8353.16628 2.74866e-18
8354.02775 2.76762e-18
8354.88921 2.79561e-18
8355.75067 2.82361e-18
8356.62215 2.85606e-18
8357.48361 2.88853e-18
8358.34507 2.92089e-18
8359.20653 2.95324e-18
8360.06800 2.98154e-18
8360.92946 3.00982e-18
8361.79092 3.03167e-18
8362.65238 3.05350e-18
8363.51384 3.07302e-18
8364.37531 3.09253e-18
8365.23677 3.11376e-18
8366.10825 3.13500e-18
8366.96971 3.15530e-18
8367.83117 3.17561e-18
8368.69263 3.19219e-18
8369.55410 3.20878e-18
8370.41556 3.22434e-18
8371.27702 3.23992e-18
8372.13848 3.25821e-18
8372.99994 3.27649e-18
8373.86140 3.29952e-18
8374.72287 3.32256e-18
8375.59435 3.35163e-18
8376.45581 3.38072e-18
8377.31727 3.41557e-18
8378.17873 3.45043e-18
8379.04019 3.48971e-18
8379.90166 3.52900e-18
8380.76312 3.57057e-18
8381.62458 3.61214e-18
8382.48604 3.65346e-18
8383.34750 3.69477e-18
8384.20897 3.73376e-18
8385.07043 3.77272e-18
8385.94191 3.80743e-18
8386.80337 3.84215e-18
8387.66483 3.87375e-18
8388.52629 3.90534e-18
8389.38775 3.93997e-18
8390.24922 3.97460e-18
8391.11068 4.01397e-18
8391.97214 4.05334e-18
8392.83360 4.08954e-18
8393.69507 4.12573e-18
8394.55653 4.15308e-18
8395.41799 4.18042e-18
8396.28947 4.19877e-18
8397.15093 4.21711e-18
8398.01239 4.22875e-18
8398.87385 4.24038e-18
8399.73532 4.25819e-18
8400.59678 4.27601e-18
8401.45824 4.31172e-18
8402.31970 4.34747e-18
8403.18116 4.39730e-18
8404.04263 4.44715e-18
8404.90409 4.50391e-18
8405.77557 4.56067e-18
8406.63703 4.61641e-18
8407.49849 4.67214e-18
8408.35995 4.71865e-18
8409.22142 4.76513e-18
8410.08288 4.80245e-18
8410.94434 4.83975e-18
8411.80580 4.87206e-18
8412.66726 4.90436e-18
8413.52873 4.93456e-18
8414.39019 4.96475e-18
8415.26167 4.99519e-18
8416.12313 5.02563e-18
8416.98459 5.05878e-18
8417.84605 5.09194e-18
8418.70751 5.12986e-18
8419.56898 5.16778e-18
8420.43044 5.21125e-18
8421.29190 5.25473e-18
8422.15336 5.30357e-18
8423.01482 5.35243e-18
8423.87629 5.40405e-18
8424.74777 5.45569e-18
8425.60923 5.50296e-18
8426.47069 5.55022e-18
8427.33215 5.59023e-18
8428.19361 5.63022e-18
8429.05508 5.67103e-18
8429.91654 5.71184e-18
8430.77800 5.76002e-18
8431.63946 5.80822e-18
8432.50092 5.86448e-18
8433.36239 5.92075e-18
8434.23386 5.98405e-18
8435.09533 6.04735e-18
8435.95679 6.10715e-18
8436.81825 6.16696e-18
8437.67971 6.21294e-18
8438.54117 6.25889e-18
8439.40264 6.29708e-18
8440.26410 6.33525e-18
8441.12556 6.37549e-18
8441.98702 6.41572e-18
8442.84848 6.46090e-18
8443.70995 6.50611e-18
8444.58143 6.55691e-18
8445.44289 6.60772e-18
8446.30435 6.66468e-18
8447.16581 6.72166e-18
8448.02727 6.78462e-18
8448.88874 6.84757e-18
8449.75020 6.91458e-18
8450.61166 6.98158e-18
8451.47312 7.04977e-18
8452.33458 7.11795e-18
8453.20606 7.18407e-18
8454.06752 7.25016e-18
8454.92899 7.31023e-18
8455.79045 7.37028e-18
8456.65191 7.42516e-18
8457.51337 7.48003e-18
8458.37483 7.53824e-18
8459.23630 7.59646e-18
8460.09776 7.66159e-18
8460.95922 7.72675e-18
8461.82068 7.79149e-18
8462.69216 7.85624e-18
8463.55362 7.91541e-18
8464.41508 7.97459e-18
8465.27655 8.02858e-18
8466.13801 8.08257e-18
8466.99947 8.13356e-18
8467.86093 8.18454e-18
8468.72240 8.24336e-18
8469.58386 8.30218e-18
8470.44532 8.37838e-18
8471.30678 8.45461e-18
8472.16824 8.54228e-18
8473.03972 8.62998e-18
8473.90118 8.72052e-18
8474.76265 8.81105e-18
8475.62411 8.89792e-18
8476.48557 8.98478e-18
8477.34703 9.06172e-18
8478.20849 9.13864e-18
8479.06996 9.21306e-18
8479.93142 9.28747e-18
8480.79288 9.37292e-18
8481.65434 9.45839e-18
8482.51580 9.55182e-18
8483.38728 9.64527e-18
8484.24875 9.73409e-18
8485.11021 9.82289e-18
8485.97167 9.90147e-18
8486.83313 9.98003e-18
8487.69459 1.00482e-17
8488.55605 1.01164e-17
8489.41752 1.01778e-17
8490.27898 1.02392e-17
8491.14044 1.03029e-17
8492.00190 1.03666e-17
8492.87338 1.04385e-17
8493.73484 1.05105e-17
8494.59631 1.05890e-17
8495.45777 1.06676e-17
8496.31923 1.07536e-17
8497.18069 1.08397e-17
8498.04215 1.09428e-17
8498.90362 1.10459e-17
8499.76508 1.11697e-17
8500.62654 1.12936e-17
8501.48800 1.14216e-17
8502.35948 1.15496e-17
8503.22094 1.16656e-17
8504.08240 1.17817e-17
8504.94387 1.18824e-17
8505.80533 1.19830e-17
8506.66679 1.20677e-17
8507.52825 1.21524e-17
8508.38972 1.22270e-17
8509.25118 1.23017e-17
8510.11264 1.23743e-17
8510.98412 1.24470e-17
8511.84558 1.25208e-17
8512.70704 1.25945e-17
8513.56850 1.26710e-17
8514.42997 1.27474e-17
8515.29143 1.28262e-17
8516.15289 1.29051e-17
8517.01435 1.29854e-17
8517.87581 1.30657e-17
8518.73728 1.31475e-17
8519.59874 1.32292e-17
8520.46020 1.33127e-17
8521.33168 1.33961e-17
8522.19314 1.34849e-17
8523.05460 1.35736e-17
8523.91607 1.36746e-17
8524.77753 1.37756e-17
8525.63899 1.38911e-17
8526.50045 1.40065e-17
8527.36191 1.41323e-17
8528.22337 1.42579e-17
8529.08484 1.43873e-17
8529.94630 1.45167e-17
8530.80776 1.46389e-17
8531.67924 1.47612e-17
8532.54070 1.48676e-17
8533.40216 1.49738e-17
8534.26363 1.50610e-17
8535.12509 1.51481e-17
8535.98655 1.52168e-17
8536.84801 1.52857e-17
8537.70947 1.53495e-17
8538.57094 1.54133e-17
8539.43240 1.54861e-17
8540.30388 1.55591e-17
8541.16534 1.56504e-17
8542.02680 1.57417e-17
8542.88826 1.58571e-17
8543.74972 1.59725e-17
8544.61119 1.61043e-17
8545.47265 1.62360e-17
8546.33411 1.63721e-17
8547.19557 1.65081e-17
8548.05703 1.66275e-17
8548.91850 1.67468e-17
8549.78998 1.68264e-17
8550.65144 1.69061e-17
8551.51290 1.69481e-17
8552.37436 1.69900e-17
8553.23582 1.70118e-17
8554.09729 1.70335e-17
8554.95875 1.70586e-17
8555.82021 1.70837e-17
8556.68167 1.71399e-17
8557.54313 1.71962e-17
8558.40460 1.72962e-17
8559.27607 1.73963e-17
8560.13754 1.75323e-17
8560.99900 1.76684e-17
8561.86046 1.78257e-17
8562.72192 1.79829e-17
8563.58338 1.81370e-17
8564.44485 1.82912e-17
8565.30631 1.84199e-17
8566.16777 1.85485e-17
8567.02923 1.86370e-17
8567.89070 1.87253e-17
8568.75216 1.87666e-17
8569.62364 1.88078e-17
8570.48510 1.88135e-17
8571.34656 1.88191e-17
8572.20802 1.88061e-17
8573.06948 1.87930e-17
8573.93095 1.87797e-17
8574.79241 1.87665e-17
8575.65387 1.87709e-17
8576.51533 1.87754e-17
8577.37679 1.88163e-17
8578.23826 1.88573e-17
8579.09972 1.89489e-17
8579.97120 1.90405e-17
8580.83266 1.91649e-17
8581.69412 1.92894e-17
8582.55558 1.94171e-17
8583.41705 1.95448e-17
8584.27851 1.96518e-17
8585.13997 1.97590e-17
8586.00143 1.98261e-17
8586.86289 1.98932e-17
8587.72436 1.99175e-17
8588.58582 1.99419e-17
8589.45730 1.99344e-17
8590.31876 1.99267e-17
8591.18022 1.99040e-17
8592.04168 1.98814e-17
8592.90314 1.98662e-17
8593.76461 1.98510e-17
8594.62607 1.98560e-17
8595.48753 1.98609e-17
8596.34899 1.98809e-17
8597.21045 1.99009e-17
8598.07192 1.99328e-17
8598.94340 1.99649e-17
8599.80486 2.00120e-17
8600.66632 2.00593e-17
8601.52778 2.01202e-17
8602.38924 2.01812e-17
8603.25071 2.02462e-17
8604.11217 2.03113e-17
8604.97363 2.03698e-17
8605.83509 2.04284e-17
8606.69655 2.04660e-17
8607.56803 2.05036e-17
8608.42949 2.05088e-17
8609.29096 2.05139e-17
8610.15242 2.04899e-17
8611.01388 2.04656e-17
8611.87534 2.04205e-17
8612.73680 2.03753e-17
8613.59827 2.03185e-17
8614.45973 2.02615e-17
8615.32119 2.02026e-17
8616.18265 2.01437e-17
8617.04411 2.01012e-17
8617.91559 2.00587e-17
8618.77706 2.00528e-17
8619.63852 2.00469e-17
8620.49998 2.00787e-17
8621.36144 2.01106e-17
8622.22290 2.01691e-17
8623.08437 2.02279e-17
8623.94583 2.02977e-17
8624.80729 2.03676e-17
8625.66875 2.04289e-17
8626.53021 2.04902e-17
8627.40169 2.05311e-17
8628.26315 2.05719e-17
8629.12462 2.05921e-17
8629.98608 2.06122e-17
8630.84754 2.06112e-17
8631.70900 2.06102e-17
8632.57046 2.05853e-17
8633.43193 2.05602e-17
8634.29339 2.05148e-17
8635.15485 2.04694e-17
8636.01631 2.04177e-17
8636.88779 2.03659e-17
8637.74925 2.03229e-17
8638.61072 2.02799e-17
8639.47218 2.02627e-17
8640.33364 2.02456e-17
8641.19510 2.02661e-17
8642.05656 2.02866e-17
8642.91803 2.03348e-17
8643.77949 2.03832e-17
8644.64095 2.04440e-17
8645.50241 2.05048e-17
8646.37389 2.05625e-17
8647.23535 2.06202e-17
8648.09681 2.06589e-17
8648.95828 2.06976e-17
8649.81974 2.07115e-17
8650.68120 2.07254e-17
8651.54266 2.07148e-17
8652.40412 2.07040e-17
8653.26559 2.06671e-17
8654.12705 2.06301e-17
8654.98851 2.05658e-17
8655.85999 2.05014e-17
8656.72145 2.04209e-17
8657.58291 2.03403e-17
8658.44438 2.02630e-17
8659.30584 2.01856e-17
8660.16730 2.01246e-17
8661.02876 2.00638e-17
8661.89022 2.00252e-17
8662.75168 1.99867e-17
8663.61315 1.99736e-17
8664.47461 1.99606e-17
8665.33607 1.99720e-17
8666.20755 1.99835e-17
8667.06901 2.00140e-17
8667.93047 2.00448e-17
8668.79194 2.00850e-17
8669.65340 2.01253e-17
8670.51486 2.01622e-17
8671.37632 2.01992e-17
8672.23778 2.02106e-17
8673.09925 2.02219e-17
8673.96071 2.01914e-17
8674.82217 2.01607e-17
8675.68363 2.00930e-17
8676.55511 2.00253e-17
8677.41657 1.99315e-17
8678.27803 1.98374e-17
8679.13950 1.97358e-17
8680.00096 1.96341e-17
8680.86242 1.95447e-17
8681.72388 1.94554e-17
8682.58535 1.93864e-17
8683.44681 1.93175e-17
8684.30827 1.92717e-17
8685.16973 1.92260e-17
8686.04121 1.92061e-17
8686.90267 1.91864e-17
8687.76413 1.91929e-17
8688.62560 1.91995e-17
8689.48706 1.92272e-17
8690.34852 1.92550e-17
8691.20998 1.92958e-17
8692.07144 1.93367e-17
8692.93291 1.93768e-17
8693.79437 1.94168e-17
8694.66585 1.94384e-17
8695.52731 1.94600e-17
8696.38877 1.94526e-17
8697.25023 1.94450e-17
8698.11170 1.94065e-17
8698.97316 1.93678e-17
8699.83462 1.93024e-17
8700.69608 1.92371e-17
8701.55754 1.91590e-17
8702.41900 1.90810e-17
8703.28047 1.90022e-17
8704.15195 1.89234e-17
8705.01341 1.88442e-17
8705.87487 1.87651e-17
8706.73633 1.86888e-17
8707.59779 1.86127e-17
8708.45926 1.85554e-17
8709.32072 1.84982e-17
8710.18218 1.84722e-17
8711.04364 1.84463e-17
8711.90510 1.84522e-17
8712.76657 1.84583e-17
8713.62803 1.84916e-17
8714.49951 1.85249e-17
8715.36097 1.85613e-17
8716.22243 1.85976e-17
8717.08389 1.86094e-17
8717.94535 1.86212e-17
8718.80682 1.85972e-17
8719.66828 1.85729e-17
8720.52974 1.85089e-17
8721.39120 1.84448e-17
8722.25267 1.83564e-17
8723.11413 1.82681e-17
8723.98561 1.81829e-17
8724.84707 1.80976e-17
8725.70853 1.80256e-17
8726.56999 1.79536e-17
8727.43145 1.78919e-17
8728.29292 1.78304e-17
8729.15438 1.77794e-17
8730.01584 1.77285e-17
8730.87730 1.76895e-17
8731.73876 1.76504e-17
8732.61024 1.76271e-17
8733.47170 1.76036e-17
8734.33317 1.76067e-17
8735.19463 1.76098e-17
8736.05609 1.76361e-17
8736.91755 1.76624e-17
8737.77902 1.76809e-17
8738.64048 1.76993e-17
8739.50194 1.76837e-17
8740.36340 1.76681e-17
8741.22486 1.76039e-17
8742.08633 1.75397e-17
8742.95780 1.74234e-17
8743.81927 1.73069e-17
8744.68073 1.71718e-17
8745.54219 1.70367e-17
8746.40365 1.69194e-17
8747.26511 1.68022e-17
8748.12658 1.67197e-17
8748.98804 1.66374e-17
8749.84950 1.66000e-17
8750.71096 1.65628e-17
8751.57242 1.65599e-17
8752.44390 1.65572e-17
8753.30537 1.65688e-17
8754.16683 1.65805e-17
8755.02829 1.65954e-17
8755.88975 1.66104e-17
8756.75121 1.66215e-17
8757.61268 1.66326e-17
8758.47414 1.66236e-17
8759.33560 1.66146e-17
8760.19706 1.65658e-17
8761.05852 1.65170e-17
8761.91999 1.64254e-17
8762.79146 1.63336e-17
8763.65293 1.62095e-17
8764.51439 1.60854e-17
8765.37585 1.59461e-17
8766.23731 1.58070e-17
8767.09877 1.56774e-17
8767.96024 1.55480e-17
8768.82170 1.54440e-17
8769.68316 1.53402e-17
8770.54462 1.52599e-17
8771.40608 1.51797e-17
8772.26755 1.51195e-17
8773.13903 1.50595e-17
8774.00049 1.50168e-17
8774.86195 1.49739e-17
8775.72341 1.49429e-17
8776.58487 1.49117e-17
8777.44633 1.48873e-17
8778.30780 1.48629e-17
8779.16926 1.48380e-17
8780.03072 1.48131e-17
8780.89218 1.47660e-17
8781.76366 1.47189e-17
8782.62512 1.46303e-17
8783.48659 1.45415e-17
8784.34805 1.44206e-17
8785.20951 1.42997e-17
8786.07097 1.41639e-17
8786.93243 1.40281e-17
8787.79390 1.38903e-17
8788.65536 1.37525e-17
8789.51682 1.36255e-17
8790.37828 1.34985e-17
8791.24976 1.33819e-17
8792.11122 1.32654e-17
8792.97268 1.31501e-17
8793.83415 1.30348e-17
8794.69561 1.29267e-17
8795.55707 1.28188e-17
8796.41853 1.27345e-17
8797.28000 1.26504e-17
8798.14146 1.25866e-17
8799.00292 1.25229e-17
8799.86438 1.24575e-17
8800.72584 1.23920e-17
8801.59732 1.23067e-17
8802.45878 1.22214e-17
8803.32025 1.21040e-17
8804.18171 1.19866e-17
8805.04317 1.18356e-17
8805.90463 1.16846e-17
8806.76609 1.15217e-17
8807.62756 1.13586e-17
8808.48902 1.12036e-17
8809.35048 1.10487e-17
8810.21194 1.09112e-17
8811.08342 1.07737e-17
8811.94488 1.06601e-17
8812.80635 1.05465e-17
8813.66781 1.04543e-17
8814.52927 1.03622e-17
8815.39073 1.02853e-17
8816.25219 1.02085e-17
8817.11365 1.01394e-17
8817.97512 1.00704e-17
8818.83658 1.00007e-17
8819.70806 9.93106e-18
8820.56952 9.85060e-18
8821.43098 9.77010e-18
8822.29244 9.66996e-18
8823.15391 9.56978e-18
8824.01537 9.44886e-18
8824.87683 9.32790e-18
8825.73829 9.18939e-18
8826.59975 9.05085e-18
8827.46122 8.90752e-18
8828.32268 8.76418e-18
8829.19416 8.63440e-18
8830.05562 8.50467e-18
8830.91708 8.39781e-18
8831.77854 8.29102e-18
8832.64000 8.20775e-18
8833.50147 8.12454e-18
8834.36293 8.06188e-18
8835.22439 7.99927e-18
8836.08585 7.94989e-18
8836.94732 7.90054e-18
8837.80878 7.85583e-18
8838.67024 7.81114e-18
8839.54172 7.76230e-18
8840.40318 7.71346e-18
8841.26464 7.65399e-18
8842.12610 7.59450e-18
8842.98757 7.52354e-18
8843.84903 7.45255e-18
8844.71049 7.37147e-18
8845.57195 7.29036e-18
8846.43341 7.20390e-18
8847.29488 7.11742e-18
8848.15634 7.03165e-18
8849.02782 6.94589e-18
8849.88928 6.86408e-18
8850.75074 6.78229e-18
8851.61220 6.70753e-18
8852.47367 6.63280e-18
8853.33513 6.58098e-18
8854.19659 6.52921e-18
8855.05805 6.51612e-18
8855.91951 6.50314e-18
8856.78097 6.51625e-18
8857.64244 6.52942e-18
8858.50390 6.54658e-18
8859.36536 6.56373e-18
8860.23684 6.56665e-18
8861.09830 6.56953e-18
8861.95976 6.54171e-18
8862.82123 6.51381e-18
8863.68269 6.46147e-18
8864.54415 6.40906e-18
8865.40561 6.35626e-18
8866.26707 6.30347e-18
8867.12854 6.26141e-18
8867.99000 6.21939e-18
8868.86148 6.18526e-18
8869.72294 6.15113e-18
8870.58440 6.12368e-18
8871.44586 6.09624e-18
8872.30732 6.07441e-18
8873.16879 6.05260e-18
8874.03025 6.03759e-18
8874.89171 6.02259e-18
8875.75317 6.02366e-18
8876.61463 6.02477e-18
8877.47610 6.04565e-18
8878.34758 6.06658e-18
8879.20904 6.09573e-18
8880.07050 6.12491e-18
8880.93196 6.15022e-18
8881.79342 6.17551e-18
8882.65489 6.18572e-18
8883.51635 6.19589e-18
8884.37781 6.18279e-18
8885.23927 6.16963e-18
8886.10073 6.14080e-18
8886.96220 6.11193e-18
8887.83367 6.07924e-18
8888.69514 6.04653e-18
8889.55660 6.02093e-18
8890.41806 5.99533e-18
8891.27952 5.98676e-18
8892.14099 5.97824e-18
8893.00245 5.99231e-18
8893.86391 6.00645e-18
8894.72537 6.04540e-18
8895.58683 6.08440e-18
8896.44830 6.13906e-18
8897.30976 6.19376e-18
8898.18124 6.24848e-18
8899.04270 6.30319e-18
8899.90416 6.34459e-18
8900.76562 6.38596e-18
8901.62708 6.40291e-18
8902.48855 6.41979e-18
8903.35001 6.41400e-18
8904.21147 6.40815e-18
8905.07293 6.39815e-18
8905.93439 6.38813e-18
8906.80587 6.38608e-18
8907.66734 6.38404e-18
8908.52880 6.38872e-18
8909.39026 6.39342e-18
8910.25172 6.40487e-18
8911.11318 6.41632e-18
8911.97465 6.43679e-18
8912.83611 6.45728e-18
8913.69757 6.48770e-18
8914.55903 6.51815e-18
8915.42049 6.56069e-18
8916.29197 6.60326e-18
8917.15343 6.65740e-18
8918.01490 6.71157e-18
8918.87636 6.76339e-18
8919.73782 6.81519e-18
8920.59928 6.85075e-18
8921.46074 6.88625e-18
8922.32221 6.90158e-18
8923.18367 6.91686e-18
8924.04513 6.91156e-18
8924.90659 6.90620e-18
8925.76805 6.89669e-18
8926.63953 6.88716e-18
8927.50100 6.89584e-18
8928.36246 6.90456e-18
8929.22392 6.93230e-18
8930.08538 6.96008e-18
8930.94684 6.99673e-18
8931.80831 7.03340e-18
8932.66977 7.07164e-18
8933.53123 7.10986e-18
8934.39269 7.14257e-18
8935.25415 7.17525e-18
8936.12563 7.20579e-18
8936.98709 7.23631e-18
8937.84856 7.28067e-18
8938.71002 7.32509e-18
8939.57148 7.38402e-18
8940.43294 7.44299e-18
8941.29440 7.49477e-18
8942.15587 7.54653e-18
8943.01733 7.57520e-18
8943.87879 7.60381e-18
8944.74025 7.60224e-18
8945.61173 7.60057e-18
8946.47319 7.57132e-18
8947.33466 7.54199e-18
8948.19612 7.51859e-18
8949.05758 7.49521e-18
8949.91904 7.50488e-18
8950.78050 7.51465e-18
8951.64197 7.54894e-18
8952.50343 7.58329e-18
8953.36489 7.62851e-18
8954.22635 7.67376e-18
8955.08781 7.69424e-18
8955.95929 7.71466e-18
8956.82075 7.67534e-18
8957.68222 7.63588e-18
8958.54368 7.58039e-18
8959.40514 7.52487e-18
8960.26660 7.51747e-18
8961.12806 7.51021e-18
8961.98953 7.56008e-18
8962.85099 7.61011e-18
8963.71245 7.70508e-18
8964.57391 7.80018e-18
8965.44539 7.90948e-18
8966.30685 8.01881e-18
8967.16832 8.09584e-18
8968.02978 8.17280e-18
8968.89124 8.22267e-18
8969.75270 8.27248e-18
8970.61416 8.34612e-18
8971.47563 8.41983e-18
8972.33709 8.53488e-18
8973.19855 8.65005e-18
8974.06001 8.78470e-18
8974.93149 8.91938e-18
8975.79295 9.04204e-18
8976.65441 9.16466e-18
8977.51588 9.22703e-18
8978.37734 9.28924e-18
8979.23880 9.25371e-18
8980.10026 9.21791e-18
8980.96172 9.06026e-18
8981.82319 8.90230e-18
8982.68465 8.63808e-18
8983.54611 8.37359e-18
8984.41759 8.14491e-18
8985.27905 7.91634e-18
8986.14051 7.85432e-18
8987.00198 7.79273e-18
8987.86344 7.94230e-18
8988.72490 8.09244e-18
8989.58636 8.46037e-18
8990.44782 8.82888e-18
8991.30928 9.23958e-18
8992.17075 9.65039e-18
8993.03221 9.89246e-18
8993.89367 1.01341e-17
8994.76515 1.01758e-17
8995.62661 1.02170e-17
8996.48807 1.00971e-17
8997.34954 9.97674e-18
8998.21100 9.78968e-18
8999.07246 9.60245e-18
8999.93392 9.47728e-18
9000.79538 9.35228e-18
9001.65685 9.34524e-18
9002.51831 9.33853e-18
9003.38979 9.44616e-18
9004.25125 9.55409e-18
9005.11271 9.73886e-18
9005.97417 9.92382e-18
9006.83563 1.01122e-17
9007.69710 1.03005e-17
9008.55856 1.04351e-17
9009.42002 1.05695e-17
9010.28148 1.06236e-17
9011.14295 1.06776e-17
9012.00441 1.06526e-17
9012.87589 1.06274e-17
9013.73735 1.05864e-17
9014.59881 1.05453e-17
9015.46027 1.05352e-17
9016.32173 1.05252e-17
9017.18320 1.05174e-17
9018.04466 1.05096e-17
9018.90612 1.04827e-17
9019.76758 1.04558e-17
9020.62904 1.04345e-17
9021.49051 1.04132e-17
9022.35197 1.04231e-17
9023.22345 1.04330e-17
9024.08491 1.05063e-17
9024.94637 1.05797e-17
9025.80783 1.07421e-17
9026.66930 1.09047e-17
9027.53076 1.11171e-17
9028.39222 1.13297e-17
9029.25368 1.15332e-17
9030.11514 1.17366e-17
9030.97660 1.18901e-17
9031.83807 1.20434e-17
9032.70955 1.21164e-17
9033.57101 1.21893e-17
9034.43247 1.21792e-17
9035.29393 1.21689e-17
9036.15539 1.20912e-17
9037.01686 1.20132e-17
9037.87832 1.19078e-17
9038.73978 1.18022e-17
9039.60124 1.17302e-17
9040.46270 1.16585e-17
9041.32417 1.16365e-17
9042.18563 1.16147e-17
9043.05711 1.15978e-17
9043.91857 1.15808e-17
9044.78003 1.15453e-17
9045.64149 1.15098e-17
9046.50295 1.14699e-17
9047.36442 1.14300e-17
9048.22588 1.13980e-17
9049.08734 1.13661e-17
9049.94880 1.13618e-17
9050.81027 1.13574e-17
9051.67173 1.13859e-17
9052.54321 1.14146e-17
9053.40467 1.14176e-17
9054.26613 1.14205e-17
9055.12759 1.13468e-17
9055.98905 1.12730e-17
9056.85052 1.11500e-17
9057.71198 1.10268e-17
9058.57344 1.08915e-17
9059.43490 1.07561e-17
9060.29636 1.06130e-17
9061.16784 1.04699e-17
9062.02931 1.03210e-17
9062.89077 1.01720e-17
9063.75223 1.00117e-17
9064.61369 9.85136e-18
9065.47515 9.66781e-18
9066.33662 9.48420e-18
9067.19808 9.32413e-18
9068.05954 9.16414e-18
9068.92100 9.10517e-18
9069.78246 9.04647e-18
9070.64393 9.07143e-18
9071.51540 9.09663e-18
9072.37687 9.11863e-18
9073.23833 9.14063e-18
9074.09979 9.12763e-18
9074.96125 9.11453e-18
9075.82271 9.09076e-18
9076.68418 9.06696e-18
9077.54564 9.04762e-18
9078.40710 9.02829e-18
9079.26856 9.02214e-18
9080.13002 9.01602e-18
9080.99149 9.02272e-18
9081.86297 9.02943e-18
9082.72443 9.01885e-18
9083.58589 9.00821e-18
9084.44735 8.96352e-18
9085.30881 8.91875e-18
9086.17028 8.87314e-18
9087.03174 8.82753e-18
9087.89320 8.80657e-18
9088.75466 8.78567e-18
9089.61612 8.75674e-18
9090.48760 8.72777e-18
9091.34906 8.65957e-18
9092.21053 8.59167e-18
9093.07199 8.51650e-18
9093.93345 8.44131e-18
9094.79491 8.39864e-18
9095.65637 8.35606e-18
9096.51784 8.33469e-18
9097.37930 8.31339e-18
9098.24076 8.28979e-18
9099.10222 8.26617e-18
9099.97370 8.24643e-18
9100.83516 8.22669e-18
9101.69663 8.22340e-18
9102.55809 8.22016e-18
9103.41955 8.25748e-18
9104.28101 8.29492e-18
9105.14247 8.40740e-18
9106.00393 8.52011e-18
9106.86540 8.66678e-18
9107.72686 8.81354e-18
9108.58832 8.88926e-18
9109.45980 8.96477e-18
9110.32126 8.92470e-18
9111.18272 8.88433e-18
9112.04419 8.75458e-18
9112.90565 8.62459e-18
9113.76711 8.45876e-18
9114.62857 8.29285e-18
9115.49003 8.20099e-18
9116.35150 8.10934e-18
9117.21296 8.14878e-18
9118.07442 8.18858e-18
9118.93588 8.27442e-18
9119.80736 8.36040e-18
9120.66882 8.40976e-18
9121.53028 8.45902e-18
9122.39175 8.41881e-18
9123.25321 8.37836e-18
9124.11467 8.21670e-18
9124.97613 8.05471e-18
9125.83760 7.84636e-18
9126.69906 7.63790e-18
9127.56052 7.47389e-18
9128.43200 7.30999e-18
9129.29346 7.23732e-18
9130.15492 7.16490e-18
9131.01638 7.21385e-18
9131.87785 7.26315e-18
9132.73931 7.41332e-18
9133.60077 7.56377e-18
9134.46223 7.76899e-18
9135.32369 7.97435e-18
9136.18516 8.18655e-18
9137.04662 8.39877e-18
9137.90808 8.56836e-18
9138.76954 8.73783e-18
9139.64102 8.83289e-18
9140.50248 8.92774e-18
9141.36395 8.93750e-18
9142.22541 8.94702e-18
9143.08687 8.85531e-18
9143.94833 8.76333e-18
9144.80979 8.54690e-18
9145.67125 8.33015e-18
9146.53272 8.01706e-18
9147.39418 7.70371e-18
9148.26566 7.38853e-18
9149.12712 7.07335e-18
9149.98858 6.84188e-18
9150.85004 6.61063e-18
9151.71151 6.53229e-18
9152.57297 6.45438e-18
9153.43443 6.55625e-18
9154.29589 6.65861e-18
9155.15735 6.85166e-18
9156.01882 7.04496e-18
9156.88028 7.23511e-18
9157.75176 7.42525e-18
9158.61322 7.56852e-18
9159.47468 7.71166e-18
9160.33614 7.77407e-18
9161.19760 7.83624e-18
9162.05907 7.82006e-18
9162.92053 7.80364e-18
9163.78199 7.72731e-18
9164.64345 7.65083e-18
9165.50492 7.51182e-18
9166.36638 7.37262e-18
9167.22784 7.16763e-18
9168.09932 6.96247e-18
9168.96078 6.74236e-18
9169.82224 6.52222e-18
9170.68370 6.35584e-18
9171.54517 6.18963e-18
9172.40663 6.11140e-18
9173.26809 6.03341e-18
9174.12955 6.05830e-18
9174.99101 6.08347e-18
9175.85248 6.16917e-18
9176.71394 6.25502e-18
9177.58542 6.30535e-18
9178.44688 6.35557e-18
9179.30834 6.34254e-18
9180.16980 6.32935e-18
9181.03127 6.31608e-18
9181.89273 6.30282e-18
9182.75419 6.32405e-18
9183.61565 6.34539e-18
9184.47711 6.38873e-18
9185.33857 6.43214e-18
9186.20004 6.48264e-18
9187.07152 6.53316e-18
9187.93298 6.55461e-18
9188.79444 6.57597e-18
9189.65590 6.54825e-18
9190.51736 6.52038e-18
9191.37883 6.49948e-18
9192.24029 6.47859e-18
9193.10175 6.51434e-18
9193.96321 6.55025e-18
9194.82467 6.62050e-18
9195.68614 6.69083e-18
9196.55762 6.76396e-18
9197.41908 6.83709e-18
9198.28054 6.88452e-18
9199.14200 6.93188e-18
9200.00346 6.92613e-18
9200.86492 6.92025e-18
9201.72639 6.88159e-18
9202.58785 6.84282e-18
9203.44931 6.81103e-18
9204.31077 6.77926e-18
9205.17224 6.75550e-18
9206.04371 6.73175e-18
9206.90518 6.69855e-18
9207.76664 6.66531e-18
9208.62810 6.62820e-18
9209.48956 6.59109e-18
9210.35102 6.56879e-18
9211.21249 6.54653e-18
9212.07395 6.55781e-18
9212.93541 6.56920e-18
9213.79687 6.63559e-18
9214.65833 6.70213e-18
9215.52981 6.81932e-18
9216.39127 6.93666e-18
9217.25274 7.06013e-18
9218.11420 7.18360e-18
9218.97566 7.28444e-18
9219.83712 7.38519e-18
9220.69859 7.47259e-18
9221.56005 7.55997e-18
9222.42151 7.63915e-18
9223.28297 7.71831e-18
9224.14443 7.78045e-18
9225.00590 7.84254e-18
9225.87737 7.88147e-18
9226.73884 7.92034e-18
9227.60030 7.92960e-18
9228.46176 7.93878e-18
9229.32322 7.91587e-18
9230.18468 7.89289e-18
9231.04615 7.86393e-18
9231.90761 7.83496e-18
9232.76907 7.83012e-18
9233.63053 7.82532e-18
9234.49199 7.83796e-18
9235.35346 7.85062e-18
9236.22494 7.86375e-18
9237.08640 7.87688e-18
9237.94786 7.89825e-18
9238.80932 7.91964e-18
9239.67078 7.96520e-18
9240.53225 8.01081e-18
9241.39371 8.08819e-18
9242.25517 8.16566e-18
9243.11663 8.27798e-18
9243.97809 8.39040e-18
9244.84957 8.52788e-18
9245.71103 8.66542e-18
9246.57250 8.80575e-18
9247.43396 8.94607e-18
9248.29542 9.07648e-18
9249.15688 9.20686e-18
9250.01834 9.32999e-18
9250.87981 9.45311e-18
9251.74127 9.56274e-18
9252.60273 9.67233e-18
9253.46419 9.74219e-18
9254.32565 9.81193e-18
9255.19713 9.83772e-18
9256.05860 9.86337e-18
9256.92006 9.89615e-18
9257.78152 9.92896e-18
9258.64298 1.00072e-17
9259.50444 1.00855e-17
9260.36591 1.01976e-17
9261.22737 1.03097e-17
9262.08883 1.04349e-17
9262.95029 1.05602e-17
9263.81175 1.06533e-17
9264.68323 1.07464e-17
9265.54469 1.07643e-17
9266.40616 1.07819e-17
9267.26762 1.07257e-17
9268.12908 1.06693e-17
9268.99054 1.05568e-17
9269.85200 1.04442e-17
9270.71347 1.03173e-17
9271.57493 1.01904e-17
9272.43639 1.00990e-17
9273.29785 1.00078e-17
9274.16933 9.99138e-18
9275.03079 9.97517e-18
9275.89226 1.00625e-17
9276.75372 1.01502e-17
9277.61518 1.03266e-17
9278.47664 1.05033e-17
9279.33810 1.07202e-17
9280.19957 1.09372e-17
9281.06103 1.11421e-17
9281.92249 1.13471e-17
9282.79397 1.14895e-17
9283.65543 1.16318e-17
9284.51689 1.16714e-17
9285.37835 1.17107e-17
9286.23982 1.16237e-17
9287.10128 1.15364e-17
9287.96274 1.13332e-17
9288.82420 1.11297e-17
9289.68566 1.08748e-17
9290.54713 1.06197e-17
9291.40859 1.03880e-17
9292.27005 1.01563e-17
9293.14153 1.00463e-17
9294.00299 9.93669e-18
9294.86445 1.00129e-17
9295.72592 1.00895e-17
9296.58738 1.02855e-17
9297.44884 1.04819e-17
9298.31030 1.07097e-17
9299.17176 1.09375e-17
9300.03323 1.10771e-17
9300.89469 1.12164e-17
9301.75615 1.11528e-17
9302.62763 1.10885e-17
9303.48909 1.09321e-17
9304.35055 1.07755e-17
9305.21201 1.07071e-17
9306.07348 1.06389e-17
9306.93494 1.06164e-17
9307.79640 1.05940e-17
9308.65786 1.04862e-17
9309.51932 1.03782e-17
9310.38079 1.01912e-17
9311.24225 1.00040e-17
9312.11373 9.81530e-18
9312.97519 9.62656e-18
9313.83665 9.51191e-18
9314.69811 9.39746e-18
9315.55958 9.44315e-18
9316.42104 9.48931e-18
9317.28250 9.67856e-18
9318.14396 9.86823e-18
9319.00542 1.00352e-17
9319.86688 1.02020e-17
9320.72835 1.02815e-17
9321.58981 1.03607e-17
9322.46129 1.05056e-17
9323.32275 1.06507e-17
9324.18421 1.08945e-17
9325.04567 1.11386e-17
9325.90714 1.11687e-17
9326.76860 1.11982e-17
9327.63006 1.08217e-17
9328.49152 1.04442e-17
9329.35298 9.96386e-18
9330.21445 9.48327e-18
9331.07591 9.19207e-18
9331.94739 8.90142e-18
9332.80885 8.74282e-18
9333.67031 8.58462e-18
9334.53177 8.47400e-18
9335.39323 8.36351e-18
9336.25470 8.30278e-18
9337.11616 8.24219e-18
9337.97762 8.21682e-18
9338.83908 8.19157e-18
9339.70055 8.45957e-18
9340.56201 8.72839e-18
9341.43349 9.63916e-18
9342.29495 1.05517e-17
9343.15641 1.16577e-17
9344.01787 1.27641e-17
9344.87933 1.32419e-17
9345.74080 1.37177e-17
9346.60226 1.33217e-17
9347.46372 1.29230e-17
9348.32518 1.17932e-17
9349.18664 1.06614e-17
9350.04811 9.31755e-18
9350.90957 7.97310e-18
9351.78105 7.37329e-18
9352.64251 6.77563e-18
9353.50397 7.23426e-18
9354.36543 7.69589e-18
9355.22689 8.51979e-18
9356.08836 9.34471e-18
9356.94982 9.95110e-18
9357.81128 1.05569e-17
9358.67274 1.05981e-17
9359.53420 1.06377e-17
9360.39567 9.96355e-18
9361.26715 9.28734e-18
9362.12861 8.44377e-18
9362.99007 7.59976e-18
9363.85153 7.10221e-18
9364.71299 6.60568e-18
9365.57446 6.48384e-18
9366.43592 6.36310e-18
9367.29738 6.56731e-18
9368.15884 6.77244e-18
9369.02030 7.04665e-18
9369.89178 7.32105e-18
9370.75324 7.37202e-18
9371.61471 7.42235e-18
9372.47617 7.26805e-18
9373.33763 7.11318e-18
9374.19909 6.86320e-18
9375.06056 6.61294e-18
9375.92202 6.43481e-18
9376.78348 6.25688e-18
9377.64494 6.35527e-18
9378.50640 6.45443e-18
9379.37788 6.75172e-18
9380.23934 7.04957e-18
9381.10081 7.28224e-18
9381.96227 7.51471e-18
9382.82373 7.59880e-18
9383.68519 7.68247e-18
9384.54665 7.69377e-18
9385.40812 7.70485e-18
9386.26958 7.66431e-18
9387.13104 7.62361e-18
9387.99250 7.49575e-18
9388.85396 7.36763e-18
9389.72544 7.15043e-18
9390.58691 6.93298e-18
9391.44837 6.65922e-18
9392.30983 6.38531e-18
9393.17129 6.09990e-18
9394.03275 5.81447e-18
9394.89422 5.59712e-18
9395.75568 5.37997e-18
9396.61714 5.28462e-18
9397.47860 5.18962e-18
9398.34006 5.17629e-18
9399.21154 5.16319e-18
9400.07300 5.18161e-18
9400.93447 5.20012e-18
9401.79593 5.20199e-18
9402.65739 5.20380e-18
9403.51885 5.14684e-18
9404.38031 5.08971e-18
9405.24178 5.02141e-18
9406.10324 4.95310e-18
9406.96470 4.94020e-18
9407.82616 4.92746e-18
9408.69764 4.97068e-18
9409.55910 5.01407e-18
9410.42057 5.09022e-18
9411.28203 5.16645e-18
9412.14349 5.23949e-18
9413.00495 5.31252e-18
9413.86641 5.33972e-18
9414.72788 5.36678e-18
9415.58934 5.31966e-18
9416.45080 5.27231e-18
9417.31226 5.14207e-18
9418.17372 5.01158e-18
9419.04520 4.80732e-18
9419.90666 4.60285e-18
9420.76813 4.33822e-18
9421.62959 4.07341e-18
9422.49105 3.84312e-18
9423.35251 3.61293e-18
9424.21397 3.64301e-18
9425.07544 3.67385e-18
9425.93690 4.03688e-18
9426.79836 4.40086e-18
9427.65982 4.85986e-18
9428.53130 5.31910e-18
9429.39276 5.64559e-18
9430.25423 5.97169e-18
9431.11569 5.95416e-18
9431.97715 5.93565e-18
9432.83861 5.46697e-18
9433.70007 4.99701e-18
9434.56153 4.44880e-18
9435.42300 3.90039e-18
9436.28446 3.66138e-18
9437.14592 3.42328e-18
9438.01740 3.55470e-18
9438.87886 3.68720e-18
9439.74032 4.16388e-18
9440.60179 4.64155e-18
9441.46325 5.22140e-18
9442.32471 5.80153e-18
9443.18617 6.17294e-18
9444.04763 6.54374e-18
9444.90910 6.61759e-18
9445.77056 6.69056e-18
9446.63202 6.48629e-18
9447.49348 6.28122e-18
9448.36496 5.90910e-18
9449.22642 5.53653e-18
9450.08788 5.17399e-18
9450.94935 4.81148e-18
9451.81081 4.57411e-18
9452.67227 4.33711e-18
9453.53373 4.26996e-18
9454.39520 4.20331e-18
9455.25666 4.31763e-18
9456.11812 4.43249e-18
9456.98960 4.70055e-18
9457.85106 4.96905e-18
9458.71252 5.31060e-18
9459.57398 5.65233e-18
9460.43545 5.90540e-18
9461.29691 6.15819e-18
9462.15837 6.22518e-18
9463.01983 6.29164e-18
9463.88129 6.24880e-18
9464.74276 6.20566e-18
9465.60422 6.13271e-18
9466.47570 6.05968e-18
9467.33716 6.00559e-18
9468.19862 5.95154e-18
9469.06008 5.95563e-18
9469.92155 5.95989e-18
9470.78301 5.96185e-18
9471.64447 5.96380e-18
9472.50593 5.89937e-18
9473.36739 5.83476e-18
9474.22885 5.74417e-18
9475.09032 5.65351e-18
9475.96180 5.59148e-18
9476.82326 5.52954e-18
9477.68472 5.60951e-18
9478.54618 5.68989e-18
9479.40764 6.03977e-18
9480.26911 6.39041e-18
9481.13057 6.87129e-18
9481.99203 7.35254e-18
9482.85349 7.69573e-18
9483.71495 8.03850e-18
9484.57642 8.10238e-18
9485.43788 8.16544e-18
9486.30936 7.90044e-18
9487.17082 7.63447e-18
9488.03228 7.14847e-18
9488.89374 6.66185e-18
9489.75520 6.23908e-18
9490.61667 5.81651e-18
9491.47813 5.63869e-18
9492.33959 5.46160e-18
9493.20105 5.52541e-18
9494.06252 5.58993e-18
9494.92398 5.89447e-18
9495.79546 6.19969e-18
9496.65692 6.78373e-18
9497.51838 7.36858e-18
9498.37984 8.17056e-18
9499.24130 8.97317e-18
9500.10277 9.67928e-18
9500.96423 1.03851e-17
9501.82569 1.07239e-17
9502.68715 1.10616e-17
9503.54861 1.09901e-17
9504.41008 1.09175e-17
9505.28155 1.04635e-17
9506.14302 1.00084e-17
9507.00448 9.40770e-18
9507.86594 8.80660e-18
9508.72740 8.33967e-18
9509.58887 7.87314e-18
9510.45033 7.56748e-18
9511.31179 7.26229e-18
9512.17325 7.06245e-18
9513.03471 6.86291e-18
9513.89617 6.82348e-18
9514.75764 6.78450e-18
9515.62912 6.98357e-18
9516.49058 7.18333e-18
9517.35204 7.59812e-18
9518.21350 8.01354e-18
9519.07496 8.56747e-18
9519.93643 9.12180e-18
9520.79789 9.68002e-18
9521.65935 1.02383e-17
9522.52081 1.06150e-17
9523.38227 1.09913e-17
9524.24374 1.11241e-17
9525.11522 1.12562e-17
9525.97668 1.12426e-17
9526.83814 1.12286e-17
9527.69960 1.11586e-17
9528.56106 1.10884e-17
9529.42252 1.10331e-17
9530.28399 1.09778e-17
9531.14545 1.09771e-17
9532.00691 1.09765e-17
9532.86837 1.09671e-17
9533.72984 1.09577e-17
9534.60131 1.08865e-17
9535.46278 1.08150e-17
9536.32424 1.06657e-17
9537.18570 1.05161e-17
9538.04716 1.02973e-17
9538.90862 1.00783e-17
9539.77009 9.98972e-18
9540.63155 9.90150e-18
9541.49301 1.01316e-17
9542.35447 1.03626e-17
9543.21593 1.07763e-17
9544.08741 1.11905e-17
9544.94888 1.15869e-17
9545.81034 1.19832e-17
9546.67180 1.21662e-17
9547.53326 1.23485e-17
9548.39472 1.21169e-17
9549.25619 1.18842e-17
9550.11765 1.14713e-17
9550.97911 1.10580e-17
9551.84057 1.09335e-17
9552.70203 1.08098e-17
9553.57351 1.10054e-17
9554.43497 1.12020e-17
9555.29644 1.14403e-17
9556.15790 1.16787e-17
9557.01936 1.17726e-17
9557.88082 1.18661e-17
9558.74228 1.16910e-17
9559.60375 1.15153e-17
9560.46521 1.11486e-17
9561.32667 1.07814e-17
9562.18813 1.06469e-17
9563.05961 1.05132e-17
9563.92107 1.08297e-17
9564.78254 1.11476e-17
9565.64400 1.16899e-17
9566.50546 1.22329e-17
9567.36692 1.27588e-17
9568.22838 1.32846e-17
9569.08985 1.35050e-17
9569.95131 1.37245e-17
9570.81277 1.34404e-17
9571.67423 1.31548e-17
9572.53569 1.26165e-17
9573.40717 1.20776e-17
9574.26863 1.15827e-17
9575.13010 1.10881e-17
9575.99156 1.08355e-17
9576.85302 1.05837e-17
9577.71448 1.07305e-17
9578.57594 1.08785e-17
9579.43741 1.11779e-17
9580.29887 1.14776e-17
9581.16033 1.15688e-17
9582.02179 1.16594e-17
9582.89327 1.14948e-17
9583.75473 1.13295e-17
9584.61620 1.09798e-17
9585.47766 1.06296e-17
9586.33912 1.03470e-17
9587.20058 1.00646e-17
9588.06204 1.02331e-17
9588.92351 1.04029e-17
9589.78497 1.09744e-17
9590.64643 1.15470e-17
9591.51791 1.20810e-17
9592.37937 1.26149e-17
9593.24083 1.28739e-17
9594.10229 1.31322e-17
9594.96376 1.31390e-17
9595.82522 1.31452e-17
9596.68668 1.29476e-17
9597.54814 1.27494e-17
9598.40960 1.24588e-17
9599.27107 1.21681e-17
9600.13253 1.19075e-17
9600.99399 1.16470e-17
9601.86547 1.15136e-17
9602.72693 1.13806e-17
9603.58839 1.14379e-17
9604.44986 1.14959e-17
9605.31132 1.17334e-17
9606.17278 1.19714e-17
9607.03424 1.23356e-17
9607.89570 1.26999e-17
9608.75717 1.29591e-17
9609.61863 1.32180e-17
9610.48009 1.31491e-17
9611.35157 1.30792e-17
9612.21303 1.27768e-17
9613.07449 1.24739e-17
9613.93595 1.21166e-17
9614.79742 1.17590e-17
9615.65888 1.14708e-17
9616.52034 1.11827e-17
9617.38180 1.10670e-17
9618.24326 1.09519e-17
9619.10473 1.10354e-17
9619.96619 1.11195e-17
9620.82765 1.13733e-17
9621.69913 1.16278e-17
9622.56059 1.19606e-17
9623.42205 1.22935e-17
9624.28352 1.25777e-17
9625.14498 1.28617e-17
9626.00644 1.29758e-17
9626.86790 1.30893e-17
9627.72936 1.29195e-17
9628.59083 1.27489e-17
9629.45229 1.23285e-17
9630.31375 1.19075e-17
9631.17521 1.14855e-17
9632.04669 1.10634e-17
9632.90815 1.08327e-17
9633.76961 1.06026e-17
9634.63108 1.06384e-17
9635.49254 1.06750e-17
9636.35400 1.09694e-17
9637.21546 1.12645e-17
9638.07692 1.15382e-17
9638.93839 1.18118e-17
9639.79985 1.18340e-17
9640.67133 1.18554e-17
9641.53279 1.17702e-17
9642.39425 1.16847e-17
9643.25571 1.16604e-17
9644.11718 1.16364e-17
9644.97864 1.17138e-17
9645.84010 1.17916e-17
9646.70156 1.19872e-17
9647.56302 1.21831e-17
9648.42448 1.23661e-17
9649.28595 1.25491e-17
9650.15743 1.25496e-17
9651.01889 1.25493e-17
9651.88035 1.23665e-17
9652.74181 1.21831e-17
9653.60327 1.18933e-17
9654.46474 1.16030e-17
9655.32620 1.13110e-17
9656.18766 1.10189e-17
9657.04912 1.08457e-17
9657.91058 1.06729e-17
9658.77205 1.06860e-17
9659.64352 1.06998e-17
9660.50499 1.09158e-17
9661.36645 1.11325e-17
9662.22791 1.14831e-17
9663.08937 1.18341e-17
9663.95083 1.21406e-17
9664.81230 1.24469e-17
9665.67376 1.26059e-17
9666.53522 1.27645e-17
9667.39668 1.28306e-17
9668.25815 1.28966e-17
9669.11961 1.29013e-17
9669.99109 1.29059e-17
9670.85255 1.27963e-17
9671.71401 1.26863e-17
9672.57547 1.24479e-17
9673.43693 1.22091e-17
9674.29840 1.19394e-17
9675.15986 1.16694e-17
9676.02132 1.14655e-17
9676.88278 1.12618e-17
9677.74424 1.11916e-17
9678.61572 1.11218e-17
9679.47718 1.12303e-17
9680.33865 1.13392e-17
9681.20011 1.15371e-17
9682.06157 1.17350e-17
9682.92303 1.18976e-17
9683.78449 1.20600e-17
9684.64596 1.21505e-17
9685.50742 1.22407e-17
9686.36888 1.22541e-17
9687.23034 1.22672e-17
9688.10182 1.22164e-17
9688.96328 1.21654e-17
9689.82475 1.20818e-17
9690.68621 1.19981e-17
9691.54767 1.18874e-17
9692.40913 1.17766e-17
9693.27059 1.16221e-17
9694.13206 1.14675e-17
9694.99352 1.12921e-17
9695.85498 1.11166e-17
9696.71644 1.09825e-17
9697.57790 1.08486e-17
9698.44938 1.07868e-17
9699.31084 1.07253e-17
9700.17231 1.07241e-17
9701.03377 1.07230e-17
9701.89523 1.07569e-17
9702.75669 1.07909e-17
9703.61816 1.08031e-17
9704.47962 1.08153e-17
9705.34108 1.07693e-17
9706.20254 1.07232e-17
9707.06400 1.06543e-17
9707.93548 1.05854e-17
9708.79694 1.05302e-17
9709.65841 1.04751e-17
9710.51987 1.04535e-17
9711.38133 1.04321e-17
9712.24279 1.04572e-17
9713.10425 1.04825e-17
9713.96572 1.05195e-17
9714.82718 1.05566e-17
9715.68864 1.05637e-17
9716.55010 1.05708e-17
9717.41156 1.05361e-17
9718.28304 1.05012e-17
9719.14451 1.04198e-17
9720.00597 1.03382e-17
9720.86743 1.02536e-17
9721.72889 1.01690e-17
9722.59035 1.01483e-17
9723.45182 1.01278e-17
9724.31328 1.01416e-17
9725.17474 1.01555e-17
9726.03620 1.01162e-17
9726.89766 1.00769e-17
9727.76914 9.95372e-18
9728.63060 9.83033e-18
9729.49207 9.63952e-18
9730.35353 9.44851e-18
9731.21499 9.23073e-18
9732.07645 9.01288e-18
9732.93791 8.84301e-18
9733.79938 8.67329e-18
9734.66084 8.59798e-18
9735.52230 8.52294e-18
9736.38376 8.53310e-18
9737.25524 8.54352e-18
9738.11670 8.61817e-18
9738.97817 8.69301e-18
9739.83963 8.79083e-18
9740.70109 8.88872e-18
9741.56255 8.96887e-18
9742.42401 9.04897e-18
9743.28548 9.08979e-18
9744.14694 9.13049e-18
9745.00840 9.11915e-18
9745.86986 9.10766e-18
9746.74134 9.06158e-18
9747.60280 9.01540e-18
9748.46426 8.95846e-18
9749.32573 8.90148e-18
9750.18719 8.83936e-18
9751.04865 8.77722e-18
9751.91011 8.71291e-18
9752.77157 8.64860e-18
9753.63304 8.57999e-18
9754.49450 8.51136e-18
9755.35596 8.43401e-18
9756.22744 8.35662e-18
9757.08890 8.28661e-18
9757.95036 8.21662e-18
9758.81183 8.17775e-18
9759.67329 8.13897e-18
9760.53475 8.14963e-18
9761.39621 8.16044e-18
9762.25767 8.23641e-18
9763.11913 8.31259e-18
9763.98060 8.42996e-18
9764.84206 8.54745e-18
9765.71354 8.63885e-18
9766.57500 8.73018e-18
9767.43646 8.76258e-18
9768.29792 8.79480e-18
9769.15939 8.78986e-18
9770.02085 8.78480e-18
9770.88231 8.76096e-18
9771.74377 8.73707e-18
9772.60523 8.70356e-18
9773.46670 8.67002e-18
9774.32816 8.63854e-18
9775.19964 8.60704e-18
9776.06110 8.58683e-18
9776.92256 8.56664e-18
9777.78402 8.56386e-18
9778.64548 8.56114e-18
9779.50695 8.58369e-18
9780.36841 8.60632e-18
9781.22987 8.65636e-18
9782.09133 8.70649e-18
9782.95280 8.74072e-18
9783.81426 8.77489e-18
9784.68574 8.74620e-18
9785.54720 8.71731e-18
9786.40866 8.64853e-18
9787.27012 8.57963e-18
9788.13158 8.51366e-18
9788.99305 8.44770e-18
9789.85451 8.39966e-18
9790.71597 8.35165e-18
9791.57743 8.32782e-18
9792.43889 8.30404e-18
9793.30036 8.28831e-18
9794.16182 8.27261e-18
9795.03330 8.23118e-18
9795.89476 8.18967e-18
9796.75622 8.13240e-18
9797.61768 8.07509e-18
9798.47915 8.05140e-18
9799.34061 8.02781e-18
9800.20207 8.05421e-18
9801.06353 8.08077e-18
9801.92499 8.13383e-18
9802.78645 8.18698e-18
9803.64792 8.24307e-18
9804.51940 8.29916e-18
9805.38086 8.33055e-18
9806.24232 8.36185e-18
9807.10378 8.35507e-18
9807.96524 8.34816e-18
9808.82671 8.32983e-18
9809.68817 8.31146e-18
9810.54963 8.30690e-18
9811.41109 8.30238e-18
9812.27255 8.32761e-18
9813.13402 8.35293e-18
9813.99548 8.41538e-18
9814.86696 8.47795e-18
9815.72842 8.53318e-18
9816.58988 8.58839e-18
9817.45134 8.58920e-18
9818.31280 8.58984e-18
9819.17427 8.54250e-18
9820.03573 8.49502e-18
9820.89719 8.41939e-18
9821.75865 8.34368e-18
9822.62012 8.26891e-18
9823.48158 8.19416e-18
9824.35306 8.15423e-18
9825.21452 8.11440e-18
9826.07598 8.10434e-18
9826.93744 8.09439e-18
9827.79890 8.08672e-18
9828.66037 8.07906e-18
9829.52183 8.06698e-18
9830.38329 8.05489e-18
9831.24475 8.04655e-18
9832.10621 8.03823e-18
9832.97769 8.03174e-18
9833.83915 8.02526e-18
9834.70062 8.00996e-18
9835.56208 7.99463e-18
9836.42354 7.96558e-18
9837.28500 7.93649e-18
9838.14647 7.89657e-18
9839.00793 7.85663e-18
9839.86939 7.80910e-18
9840.73085 7.76155e-18
9841.59231 7.70810e-18
9842.45377 7.65462e-18
9843.32525 7.60134e-18
9844.18672 7.54805e-18
9845.04818 7.51382e-18
9845.90964 7.47964e-18
9846.77110 7.47934e-18
9847.63256 7.47912e-18
9848.49403 7.50813e-18
9849.35549 7.53723e-18
9850.21695 7.58711e-18
9851.07841 7.63706e-18
9851.93987 7.69974e-18
9852.81135 7.76246e-18
9853.67282 7.82839e-18
9854.53428 7.89433e-18
9855.39574 7.95750e-18
9856.25720 8.02065e-18
9857.11866 8.07661e-18
9857.98013 8.13254e-18
9858.84159 8.16932e-18
9859.70305 8.20602e-18
9860.56451 8.20990e-18
9861.42597 8.21368e-18
9862.29745 8.18281e-18
9863.15891 8.15184e-18
9864.02038 8.09210e-18
9864.88184 8.03227e-18
9865.74330 7.95456e-18
9866.60476 7.87678e-18
9867.46622 7.79669e-18
9868.32769 7.71661e-18
9869.18915 7.64308e-18
9870.05061 7.56957e-18
9870.92209 7.50157e-18
9871.78355 7.43360e-18
9872.64501 7.37230e-18
9873.50648 7.31101e-18
9874.36794 7.26166e-18
9875.22940 7.21235e-18
9876.09086 7.17910e-18
9876.95232 7.14590e-18
9877.81379 7.13258e-18
9878.67525 7.11932e-18
9879.53671 7.12767e-18
9880.39817 7.13609e-18
9881.26965 7.16346e-18
9882.13111 7.19089e-18
9882.99257 7.23237e-18
9883.85404 7.27388e-18
9884.71550 7.32049e-18
9885.57696 7.36711e-18
9886.43842 7.40914e-18
9887.29988 7.45116e-18
9888.16135 7.47952e-18
9889.02281 7.50784e-18
9889.88427 7.51492e-18
9890.74573 7.52192e-18
9891.61721 7.50752e-18
9892.47867 7.49307e-18
9893.34014 7.46104e-18
9894.20160 7.42895e-18
9895.06306 7.38342e-18
9895.92452 7.33783e-18
9896.78598 7.28312e-18
9897.64745 7.22839e-18
9898.50891 7.17162e-18
9899.37037 7.11483e-18
9900.23183 7.06540e-18
9901.09329 7.01600e-18
9901.96477 6.97546e-18
9902.82623 6.93495e-18
9903.68770 6.89532e-18
9904.54916 6.85570e-18
9905.41062 6.81881e-18
9906.27208 6.78193e-18
9907.13354 6.76519e-18
9907.99501 6.74849e-18
9908.85647 6.76013e-18
9909.71793 6.77187e-18
9910.57939 6.80400e-18
9911.45087 6.83619e-18
9912.31233 6.87588e-18
9913.17380 6.91558e-18
9914.03526 6.93554e-18
9914.89672 6.95543e-18
9915.75818 6.93396e-18
9916.61964 6.91238e-18
9917.48111 6.85708e-18
9918.34257 6.80168e-18
9919.20403 6.72579e-18
9920.07551 6.64985e-18
9920.93697 6.56844e-18
9921.79843 6.48702e-18
9922.65989 6.41538e-18
9923.52136 6.34379e-18
9924.38282 6.28866e-18
9925.24428 6.23359e-18
9926.10574 6.19758e-18
9926.96720 6.16165e-18
9927.82867 6.13481e-18
9928.69013 6.10799e-18
9929.56161 6.07447e-18
9930.42307 6.04092e-18
9931.28453 5.99555e-18
9932.14599 5.95014e-18
9933.00746 5.89518e-18
9933.86892 5.84019e-18
9934.73038 5.78030e-18
9935.59184 5.72040e-18
9936.45330 5.66233e-18
9937.31477 5.60425e-18
9938.17623 5.55690e-18
9939.03769 5.50957e-18
9939.90917 5.48412e-18
9940.77063 5.45873e-18
9941.63209 5.45824e-18
9942.49355 5.45783e-18
9943.35502 5.47074e-18
9944.21648 5.48367e-18
9945.07794 5.49998e-18
9945.93940 5.51628e-18
9946.80086 5.53344e-18
9947.66233 5.55062e-18
9948.52379 5.56574e-18
9949.39527 5.58087e-18
9950.25673 5.58841e-18
9951.11819 5.59594e-18
9951.97965 5.59232e-18
9952.84112 5.58869e-18
9953.70258 5.58110e-18
9954.56404 5.57349e-18
9955.42550 5.56981e-18
9956.28696 5.56614e-18
9957.14843 5.56110e-18
9958.00989 5.55605e-18
9958.88137 5.54236e-18
9959.74283 5.52863e-18
9960.60429 5.50258e-18
9961.46575 5.47649e-18
9962.32721 5.43567e-18
9963.18868 5.39481e-18
9964.05014 5.35144e-18
9964.91160 5.30807e-18
9965.77306 5.28257e-18
9966.63452 5.25712e-18
9967.49599 5.25427e-18
9968.36747 5.25148e-18
9969.22893 5.26341e-18
9970.09039 5.27537e-18
9970.95185 5.30085e-18
9971.81331 5.32638e-18
9972.67477 5.37126e-18
9973.53624 5.41621e-18
9974.39770 5.47807e-18
9975.25916 5.53997e-18
9976.12062 5.60556e-18
9976.98208 5.67114e-18
9977.85356 5.72992e-18
9978.71503 5.78867e-18
9979.57649 5.83560e-18
9980.43795 5.88249e-18
9981.29941 5.91580e-18
9982.16087 5.94907e-18
9983.02234 5.97585e-18
9983.88380 6.00261e-18
9984.74526 6.02999e-18
9985.60672 6.05738e-18
9986.46818 6.08894e-18
9987.32965 6.12049e-18
9988.20112 6.15805e-18
9989.06259 6.19561e-18
9989.92405 6.22594e-18
9990.78551 6.25625e-18
9991.64697 6.26435e-18
9992.50843 6.27238e-18
9993.36990 6.26951e-18
9994.23136 6.26661e-18
9995.09282 6.27202e-18
9995.95428 6.27746e-18
9996.81574 6.28786e-18
9997.67721 6.29828e-18
9998.54869 6.30142e-18
9999.41015 6.30452e-18
