# wavelength flux
3400.43334 8.35269e-18
3402.31584 9.45389e-18
3404.18823 6.18356e-18
3406.07073 4.87009e-18
3407.95324 7.95602e-18
3409.82563 7.42653e-18
3411.70813 2.45699e-18
3413.59064 -5.76838e-19
3415.46302 1.63095e-18
3417.34553 4.42849e-18
3419.22804 4.36115e-18
3421.10042 4.70355e-18
3422.98293 3.80626e-18
3424.86543 2.99401e-18
3426.73782 2.12237e-18
3428.62032 4.72276e-18
3430.50283 5.37889e-18
3432.37521 2.02444e-18
3434.25772 -3.05351e-19
3436.14023 1.87481e-19
3438.01261 1.35560e-18
3439.89512 3.84776e-18
3441.77762 4.95389e-18
3443.65001 3.60081e-18
3445.53251 4.94374e-18
3447.41502 8.06797e-18
3449.28741 5.66145e-18
3451.16991 1.18137e-18
3453.05242 2.79337e-18
3454.92480 3.72936e-18
3456.80731 2.50354e-18
3458.68981 5.36216e-18
3460.56220 1.02236e-17
3462.44471 1.17135e-17
3464.32721 1.10310e-17
3466.19960 8.81471e-18
3468.08210 6.89662e-18
3469.96461 8.02003e-18
3471.83699 7.70115e-18
3473.71950 5.16420e-18
3475.60201 3.29911e-18
3477.47439 2.53064e-18
3479.35690 4.64240e-18
3481.23940 8.99527e-18
3483.11179 1.02382e-17
3484.99429 9.05974e-18
3486.87680 1.04174e-17
3488.74918 1.19222e-17
3490.63169 9.24682e-18
3492.51420 6.29326e-18
3494.38658 5.08726e-18
3496.26909 4.93166e-18
3498.15159 6.92638e-18
3500.02398 8.30076e-18
3501.90648 7.33384e-18
3503.78899 6.32460e-18
3505.66138 5.20836e-18
3507.54388 3.24418e-18
3509.42639 3.05361e-18
3511.29877 4.89195e-18
3513.18128 6.31059e-18
3515.06378 6.06677e-18
3516.93617 4.98691e-18
3518.81867 6.20685e-18
3520.70118 7.30021e-18
3522.57357 4.95400e-18
3524.45607 4.42442e-18
3526.33858 4.76525e-18
3528.21096 5.35337e-18
3530.09347 6.63694e-18
3531.97597 6.95669e-18
3533.84836 7.70099e-18
3535.73087 7.12416e-18
3537.61337 6.78493e-18
3539.48576 9.81310e-18
3541.36826 1.12328e-17
3543.25077 9.08785e-18
3545.12315 7.46439e-18
3547.00566 7.50810e-18
3548.88817 9.12160e-18
3550.76055 1.08107e-17
3552.64306 9.12240e-18
3554.52556 5.22325e-18
3556.39795 3.70778e-18
3558.28045 5.61808e-18
3560.16296 8.56448e-18
3562.03534 9.35353e-18
3563.91785 7.58241e-18
3565.80036 8.57740e-18
3567.67274 8.83650e-18
3569.55525 8.98110e-18
3571.43775 9.30558e-18
3573.31014 8.53737e-18
3575.19264 8.36686e-18
3577.07515 1.06044e-17
3578.94754 1.23054e-17
3580.83004 1.17211e-17
3582.71255 1.06323e-17
3584.58493 8.70079e-18
3586.46744 7.86483e-18
3588.34994 8.10127e-18
3590.22233 8.99421e-18
3592.10484 1.06668e-17
3593.98734 1.00404e-17
3595.85973 7.83507e-18
3597.74223 6.75086e-18
3599.62474 6.28162e-18
3601.49712 6.67731e-18
3603.37963 9.21161e-18
3605.26214 1.15952e-17
3607.13452 1.07833e-17
3609.01703 9.41643e-18
3610.89953 1.02551e-17
3612.77192 1.14717e-17
3614.65442 1.16880e-17
3616.53693 1.11962e-17
3618.40931 9.85433e-18
3620.29182 7.56129e-18
3622.17433 5.39333e-18
3624.04671 5.65924e-18
3625.92922 7.74316e-18
3627.81172 1.00184e-17
3629.68411 9.69716e-18
3631.56662 8.98215e-18
3633.44912 8.20863e-18
3635.32151 6.89022e-18
3637.20401 7.22201e-18
3639.08652 8.87714e-18
3640.95890 7.98899e-18
3642.84141 5.39632e-18
3644.72392 6.13275e-18
3646.59630 8.88502e-18
3648.47881 9.39517e-18
3650.36131 9.24290e-18
3652.23370 1.05543e-17
3654.11620 1.24265e-17
3655.99871 1.09483e-17
3657.87109 8.65321e-18
3659.75360 7.77340e-18
3661.63611 8.22284e-18
3663.50849 9.39252e-18
3665.39100 9.94527e-18
3667.27350 1.03119e-17
3669.14589 1.00768e-17
3671.02839 8.04190e-18
3672.91090 6.98475e-18
3674.78328 8.59005e-18
3676.66579 1.00510e-17
3678.54830 9.87742e-18
3680.42068 9.02314e-18
3682.30319 8.63751e-18
3684.18569 9.14460e-18
3686.05808 9.22245e-18
3687.94058 9.15624e-18
3689.82309 7.94331e-18
3691.69548 7.02785e-18
3693.57798 8.19725e-18
3695.46049 9.53440e-18
3697.33287 9.94099e-18
3699.21538 9.34908e-18
3701.08776 7.97679e-18
3702.97027 7.42886e-18
3704.85278 8.51394e-18
3706.73528 9.15257e-18
3708.60767 8.41531e-18
3710.49017 8.03200e-18
3712.37268 8.65716e-18
3714.24506 9.06220e-18
3716.12757 8.73709e-18
3717.99996 8.82407e-18
3719.88246 9.63250e-18
3721.76497 9.27785e-18
3723.63735 8.26459e-18
3725.51986 7.73149e-18
3727.40236 6.61153e-18
3729.28487 6.50696e-18
3731.15726 7.82528e-18
3733.03976 8.03242e-18
3734.91215 8.93229e-18
3736.79465 9.43229e-18
3738.67716 8.46360e-18
3740.54954 7.66328e-18
3742.43205 7.65481e-18
3744.31456 8.60400e-18
3746.19706 9.04604e-18
3748.06945 8.05306e-18
3749.95195 8.23935e-18
3751.82434 8.84756e-18
3753.70684 8.34538e-18
3755.58935 8.22417e-18
3757.46173 9.18501e-18
3759.34424 9.96928e-18
3761.22675 9.07855e-18
3763.09913 8.40419e-18
3764.98164 8.05562e-18
3766.86414 7.97583e-18
3768.73653 8.37135e-18
3770.61903 9.15753e-18
3772.50154 8.82399e-18
3774.37392 8.06517e-18
3776.25643 8.75256e-18
3778.13894 9.48357e-18
3780.01132 9.52430e-18
3781.89383 1.01173e-17
3783.77633 1.01518e-17
3785.64872 9.42120e-18
3787.53123 8.95333e-18
3789.41373 8.73598e-18
3791.28612 8.55386e-18
3793.16862 8.55246e-18
3795.05113 8.76337e-18
3796.92351 9.19671e-18
3798.80602 9.34396e-18
3800.68853 8.97641e-18
3802.56091 9.78709e-18
3804.44342 1.11459e-17
3806.32592 1.05867e-17
3808.19831 8.98583e-18
3810.08081 8.76736e-18
3811.96332 9.54953e-18
3813.83570 9.77103e-18
3815.71821 9.83864e-18
3817.60072 1.03756e-17
3819.47310 1.00373e-17
3821.35561 9.23402e-18
3823.23811 9.75160e-18
3825.11050 9.99197e-18
3826.99300 9.69593e-18
3828.87551 9.41386e-18
3830.74789 9.19785e-18
3832.63040 9.42124e-18
3834.51291 1.00311e-17
3836.38529 9.83794e-18
3838.26780 9.55345e-18
3840.15030 9.92483e-18
3842.02269 9.82870e-18
3843.90519 9.94576e-18
3845.78770 1.08343e-17
3847.66009 1.07574e-17
3849.54259 1.03071e-17
3851.42510 1.06744e-17
3853.29748 1.08176e-17
3855.17999 1.06328e-17
3857.06249 1.08252e-17
3858.93488 1.03374e-17
3860.81739 1.01121e-17
3862.69989 1.01656e-17
3864.57228 1.03479e-17
3866.45478 1.04923e-17
3868.33729 1.05591e-17
3870.20967 1.00011e-17
3872.09218 9.34941e-18
3873.97469 9.85304e-18
3875.84707 1.13519e-17
3877.72958 1.18552e-17
3879.61208 1.09770e-17
3881.48447 1.06675e-17
3883.36697 1.08510e-17
3885.24948 1.06405e-17
3887.12187 1.04695e-17
3889.00437 9.86002e-18
3890.88688 9.36150e-18
3892.75926 9.87045e-18
3894.64177 1.02891e-17
3896.52427 9.76933e-18
3898.39666 9.54500e-18
3900.27916 9.69296e-18
3902.16167 9.36391e-18
3904.03406 9.46556e-18
3905.91656 1.01615e-17
3907.79907 1.01831e-17
3909.67145 9.68978e-18
3911.55396 9.45658e-18
3913.43647 9.54128e-18
3915.30885 1.02082e-17
3917.19136 1.07184e-17
3919.07386 9.89647e-18
3920.94625 9.48338e-18
3922.82875 1.09227e-17
3924.71126 1.07414e-17
3926.58364 9.63988e-18
3928.46615 9.49889e-18
3930.34866 9.98836e-18
3932.22104 9.88859e-18
3934.10355 9.49821e-18
3935.98605 9.20261e-18
3937.85844 9.69049e-18
3939.74094 1.02995e-17
3941.62345 1.04433e-17
3943.49583 1.02526e-17
3945.37834 1.01117e-17
3947.26085 1.06255e-17
3949.13323 1.10491e-17
3951.01574 1.08531e-17
3952.89824 1.06918e-17
3954.77063 1.06938e-17
3956.65314 1.02809e-17
3958.53564 1.00406e-17
3960.40803 1.01214e-17
3962.29053 9.70695e-18
3964.17304 9.70897e-18
3966.04542 9.90797e-18
3967.92793 9.71833e-18
3969.81043 9.55541e-18
3971.68282 9.43959e-18
3973.56533 9.58900e-18
3975.44783 1.03797e-17
3977.32022 1.10482e-17
3979.20272 1.08199e-17
3981.08523 1.01486e-17
3982.95761 9.92849e-18
3984.84012 1.05647e-17
3986.72263 1.14330e-17
3988.59501 1.18877e-17
3990.47752 1.16781e-17
3992.36002 1.12561e-17
3994.23241 1.08191e-17
3996.11491 1.03675e-17
3997.99742 1.02857e-17
3999.86981 1.05260e-17
4001.75231 1.04430e-17
4003.63482 1.01518e-17
4005.50720 1.07181e-17
4007.38971 1.13107e-17
4009.27221 1.09660e-17
4011.14460 1.04702e-17
4013.02711 1.01078e-17
4014.90961 9.97253e-18
4016.78200 1.04289e-17
4018.66450 1.06872e-17
4020.54701 1.06956e-17
4022.41939 1.12134e-17
4024.30190 1.12934e-17
4026.18440 1.07516e-17
4028.05679 1.03235e-17
4029.93930 1.10499e-17
4031.82180 1.11648e-17
4033.69419 1.09278e-17
4035.57669 1.07299e-17
4037.45920 1.09696e-17
4039.33158 1.14873e-17
4041.21409 1.15105e-17
4043.09660 1.09182e-17
4044.96898 1.06032e-17
4046.85149 1.08242e-17
4048.73399 1.07140e-17
4050.60638 1.06304e-17
4052.48888 1.10748e-17
4054.37139 1.18087e-17
4056.24377 1.20085e-17
4058.12628 1.15212e-17
4060.00879 1.08597e-17
4061.88117 1.10188e-17
4063.76368 1.12469e-17
4065.64618 1.18163e-17
4067.51857 1.19091e-17
4069.40108 1.14012e-17
4071.28358 1.10207e-17
4073.15597 1.10619e-17
4075.03847 1.16444e-17
4076.92098 1.20268e-17
4078.79336 1.14553e-17
4080.67587 1.11419e-17
4082.55838 1.16524e-17
4084.43076 1.15715e-17
4086.31327 1.12133e-17
4088.19577 1.11599e-17
4090.06816 1.14894e-17
4091.95066 1.20211e-17
4093.83317 1.17144e-17
4095.70555 1.14344e-17
4097.58806 1.16524e-17
4099.47057 1.16816e-17
4101.34295 1.11416e-17
4103.22546 1.11090e-17
4105.10796 1.14447e-17
4106.98035 1.11417e-17
4108.86285 1.06106e-17
4110.74536 1.07451e-17
4112.61774 1.13101e-17
4114.50025 1.17182e-17
4116.38276 1.18445e-17
4118.25514 1.17348e-17
4120.13765 1.17746e-17
4122.02015 1.14363e-17
4123.89254 1.13408e-17
4125.77504 1.12326e-17
4127.65755 1.14346e-17
4129.52994 1.17378e-17
4131.41244 1.16150e-17
4133.29495 1.15603e-17
4135.16733 1.12288e-17
4137.04984 1.10154e-17
4138.93235 1.09749e-17
4140.80473 1.09483e-17
4142.68724 1.12922e-17
4144.56974 1.16008e-17
4146.44213 1.14912e-17
4148.32463 1.14309e-17
4150.20714 1.14909e-17
4152.07952 1.14421e-17
4153.96203 1.13876e-17
4155.84454 1.15759e-17
4157.71692 1.16482e-17
4159.59943 1.15585e-17
4161.48193 1.10990e-17
4163.35432 1.09429e-17
4165.23682 1.13275e-17
4167.11933 1.12040e-17
4168.99171 1.10603e-17
4170.87422 1.16374e-17
4172.75673 1.18933e-17
4174.62911 1.18450e-17
4176.51162 1.20339e-17
4178.39412 1.19032e-17
4180.26651 1.16611e-17
4182.14901 1.17176e-17
4184.03152 1.18047e-17
4185.90391 1.17738e-17
4187.78641 1.18142e-17
4189.66892 1.20415e-17
4191.54130 1.19933e-17
4193.42381 1.19362e-17
4195.30631 1.20177e-17
4197.17870 1.22322e-17
4199.06121 1.23127e-17
4200.94371 1.23894e-17
4202.81610 1.21426e-17
4204.69860 1.18448e-17
4206.58111 1.16809e-17
4208.45349 1.17404e-17
4210.33600 1.18447e-17
4212.21851 1.15116e-17
4214.09089 1.14416e-17
4215.97340 1.18849e-17
4217.85590 1.19278e-17
4219.72829 1.17164e-17
4221.61079 1.13530e-17
4223.49330 1.03788e-17
4225.36569 9.65740e-18
4227.24819 1.01209e-17
4229.13070 1.12437e-17
4231.00308 1.14280e-17
4232.88559 1.08771e-17
4234.76809 1.09876e-17
4236.64048 1.12163e-17
4238.52299 1.11235e-17
4240.40549 1.09672e-17
4242.27788 1.06724e-17
4244.16038 1.06545e-17
4246.04289 1.10886e-17
4247.91527 1.10974e-17
4249.79778 1.05312e-17
4251.68029 1.03762e-17
4253.55267 1.08128e-17
4255.43518 1.07814e-17
4257.31768 1.07221e-17
4259.19007 1.13563e-17
4261.07257 1.19584e-17
4262.95508 1.17513e-17
4264.82746 1.14171e-17
4266.70997 1.16209e-17
4268.59248 1.14324e-17
4270.46486 1.05349e-17
4272.34737 1.03019e-17
4274.22987 1.07196e-17
4276.10226 1.04727e-17
4277.98476 1.04108e-17
4279.86727 1.12077e-17
4281.73966 1.09978e-17
4283.62216 1.03629e-17
4285.50467 1.10809e-17
4287.37705 1.13957e-17
4289.25956 1.07487e-17
4291.14206 1.06753e-17
4293.01445 1.11347e-17
4294.89696 1.11149e-17
4296.77946 1.12739e-17
4298.65185 1.11956e-17
4300.53435 1.09134e-17
4302.41686 1.10490e-17
4304.28924 1.14015e-17
4306.17175 1.12389e-17
4308.05426 1.09961e-17
4309.92664 1.12027e-17
4311.80915 1.12871e-17
4313.69165 1.12524e-17
4315.56404 1.14373e-17
4317.44654 1.14782e-17
4319.32905 1.13761e-17
4321.20143 1.14308e-17
4323.08394 1.13586e-17
4324.95633 1.12305e-17
4326.83883 1.11912e-17
4328.72134 1.11026e-17
4330.59372 1.14372e-17
4332.47623 1.16876e-17
4334.35873 1.15619e-17
4336.23112 1.11879e-17
4338.11362 1.11095e-17
4339.99613 1.13101e-17
4341.86852 1.14653e-17
4343.75102 1.15034e-17
4345.63353 1.14438e-17
4347.50591 1.17365e-17
4349.38842 1.21187e-17
4351.27092 1.20782e-17
4353.14331 1.20899e-17
4355.02582 1.15492e-17
4356.90832 1.18352e-17
4358.78071 1.22028e-17
4360.66321 1.22481e-17
4362.54572 1.22995e-17
4364.41810 1.21947e-17
4366.30061 1.16969e-17
4368.18312 1.13077e-17
4370.05550 1.12747e-17
4371.93801 1.13995e-17
4373.82051 1.15812e-17
4375.69290 1.17215e-17
4377.57540 1.16402e-17
4379.45791 1.13883e-17
4381.33029 1.15387e-17
4383.21280 1.20669e-17
4385.09531 1.19990e-17
4386.96769 1.19365e-17
4388.85020 1.15692e-17
4390.73270 1.13358e-17
4392.60509 1.13422e-17
4394.48759 1.13161e-17
4396.37010 1.16673e-17
4398.24249 1.17748e-17
4400.12499 1.13514e-17
4402.00750 1.17230e-17
4403.87988 1.24917e-17
4405.76239 1.25178e-17
4407.64489 1.21081e-17
4409.51728 1.21156e-17
4411.39979 1.24020e-17
4413.28229 1.23525e-17
4415.15468 1.23735e-17
4417.03718 1.26541e-17
4418.91969 1.30091e-17
4420.79207 1.31170e-17
4422.67458 1.29814e-17
4424.55709 1.25869e-17
4426.42947 1.27973e-17
4428.31198 1.30085e-17
4430.19448 1.28403e-17
4432.06687 1.29995e-17
4433.94937 1.32489e-17
4435.83188 1.33930e-17
4437.70426 1.35958e-17
4439.58677 1.36249e-17
4441.46928 1.37002e-17
4443.34166 1.39193e-17
4445.22417 1.37461e-17
4447.10667 1.32366e-17
4448.97906 1.29095e-17
4450.86156 1.34151e-17
4452.74407 1.41988e-17
4454.61646 1.40906e-17
4456.49896 1.36941e-17
4458.38147 1.37559e-17
4460.25385 1.38699e-17
4462.13636 1.38560e-17
4464.01887 1.37201e-17
4465.89125 1.37731e-17
4467.77376 1.40216e-17
4469.65626 1.41640e-17
4471.52865 1.40611e-17
4473.41115 1.37008e-17
4475.29366 1.35306e-17
4477.16604 1.33869e-17
4479.04855 1.29967e-17
4480.93106 1.30437e-17
4482.80344 1.31432e-17
4484.68595 1.33203e-17
4486.56845 1.33444e-17
4488.44084 1.34110e-17
4490.32334 1.36239e-17
4492.20585 1.35440e-17
4494.07823 1.32106e-17
4495.96074 1.35498e-17
4497.84325 1.41692e-17
4499.71563 1.44058e-17
4501.59814 1.43383e-17
4503.48064 1.43809e-17
4505.35303 1.43514e-17
4507.23554 1.42529e-17
4509.11804 1.43290e-17
4510.99043 1.45596e-17
4512.87293 1.47591e-17
4514.75544 1.45331e-17
4516.62782 1.42974e-17
4518.51033 1.42772e-17
4520.39284 1.42450e-17
4522.26522 1.43210e-17
4524.14773 1.42021e-17
4526.03023 1.42365e-17
4527.90262 1.44268e-17
4529.78512 1.46443e-17
4531.66763 1.46539e-17
4533.54001 1.41884e-17
4535.42252 1.39869e-17
4537.30503 1.39953e-17
4539.17741 1.37995e-17
4541.05992 1.39322e-17
4542.94242 1.42684e-17
4544.81481 1.41745e-17
4546.69731 1.40938e-17
4548.57982 1.43372e-17
4550.45221 1.44453e-17
4552.33471 1.42446e-17
4554.21722 1.40598e-17
4556.08960 1.40142e-17
4557.97211 1.37881e-17
4559.85461 1.38436e-17
4561.72700 1.41832e-17
4563.60951 1.41006e-17
4565.49201 1.39233e-17
4567.36440 1.42722e-17
4569.24690 1.44106e-17
4571.12941 1.41936e-17
4573.00179 1.40016e-17
4574.88430 1.38890e-17
4576.76681 1.39606e-17
4578.63919 1.40648e-17
4580.52170 1.42266e-17
4582.40420 1.46335e-17
4584.27659 1.48537e-17
4586.15909 1.46291e-17
4588.04160 1.43578e-17
4589.91398 1.42600e-17
4591.79649 1.39234e-17
4593.67900 1.35545e-17
4595.55138 1.37947e-17
4597.43389 1.40893e-17
4599.31639 1.40333e-17
4601.18878 1.39827e-17
4603.07128 1.40242e-17
4604.95379 1.39338e-17
4606.82618 1.38778e-17
4608.70868 1.39536e-17
4610.59119 1.39396e-17
4612.46357 1.38276e-17
4614.34608 1.36437e-17
4616.22858 1.33504e-17
4618.10097 1.31246e-17
4619.98347 1.32801e-17
4621.86598 1.32871e-17
4623.73837 1.34718e-17
4625.62087 1.35607e-17
4627.50338 1.35064e-17
4629.37576 1.32220e-17
4631.25827 1.33850e-17
4633.14077 1.36447e-17
4635.01316 1.36537e-17
4636.89567 1.35281e-17
4638.77817 1.32308e-17
4640.65056 1.31173e-17
4642.53306 1.31391e-17
4644.41557 1.28853e-17
4646.28795 1.29134e-17
4648.17046 1.33363e-17
4650.05297 1.34058e-17
4651.92535 1.29480e-17
4653.80786 1.27434e-17
4655.69036 1.31522e-17
4657.56275 1.30438e-17
4659.44525 1.27696e-17
4661.32776 1.31039e-17
4663.20014 1.31230e-17
4665.08265 1.29150e-17
4666.96516 1.29637e-17
4668.83754 1.29964e-17
4670.72005 1.28776e-17
4672.60255 1.28408e-17
4674.47494 1.30484e-17
4676.35744 1.32550e-17
4678.23995 1.33328e-17
4680.11234 1.34252e-17
4681.99484 1.32367e-17
4683.87735 1.29664e-17
4685.74973 1.27828e-17
4687.63224 1.29034e-17
4689.51474 1.28496e-17
4691.38713 1.25892e-17
4693.26964 1.29423e-17
4695.15214 1.30195e-17
4697.02453 1.26177e-17
4698.90703 1.26251e-17
4700.78954 1.29197e-17
4702.66192 1.27824e-17
4704.54443 1.22703e-17
4706.42694 1.22305e-17
4708.29932 1.25394e-17
4710.18183 1.24449e-17
4712.06433 1.23302e-17
4713.93672 1.24058e-17
4715.81922 1.23501e-17
4717.70173 1.24013e-17
4719.57411 1.24415e-17
4721.45662 1.22766e-17
4723.33913 1.23784e-17
4725.21151 1.25084e-17
4727.09402 1.23403e-17
4728.97652 1.23821e-17
4730.84891 1.23099e-17
4732.73141 1.20644e-17
4734.61392 1.21210e-17
4736.48631 1.20988e-17
4738.36881 1.20042e-17
4740.25132 1.23810e-17
4742.12370 1.26703e-17
4744.00621 1.24102e-17
4745.88872 1.23275e-17
4747.76110 1.25122e-17
4749.64361 1.24955e-17
4751.52611 1.24945e-17
4753.39850 1.24750e-17
4755.28100 1.24325e-17
4757.16351 1.24190e-17
4759.03589 1.22896e-17
4760.91840 1.21515e-17
4762.80091 1.21241e-17
4764.67329 1.20571e-17
4766.55580 1.21519e-17
4768.43830 1.20814e-17
4770.31069 1.20430e-17
4772.19319 1.22891e-17
4774.07570 1.23932e-17
4775.94808 1.21942e-17
4777.83059 1.20013e-17
4779.71310 1.21643e-17
4781.58548 1.23205e-17
4783.46799 1.20798e-17
4785.35049 1.22010e-17
4787.22288 1.24419e-17
4789.10539 1.23603e-17
4790.98789 1.24467e-17
4792.86028 1.22362e-17
4794.74278 1.19945e-17
4796.62529 1.21683e-17
4798.49767 1.20386e-17
4800.38018 1.21002e-17
4802.26269 1.23897e-17
4804.13507 1.21631e-17
4806.01758 1.16365e-17
4807.90008 1.16680e-17
4809.77247 1.20851e-17
4811.65497 1.20692e-17
4813.53748 1.19222e-17
4815.40986 1.18867e-17
4817.29237 1.17858e-17
4819.17488 1.19479e-17
4821.04726 1.20166e-17
4822.92977 1.16466e-17
4824.81227 1.14465e-17
4826.68466 1.14920e-17
4828.56716 1.16149e-17
4830.44967 1.16412e-17
4832.32206 1.15754e-17
4834.20456 1.15136e-17
4836.08707 1.14601e-17
4837.95945 1.13482e-17
4839.84196 1.12793e-17
4841.72446 1.12907e-17
4843.59685 1.12140e-17
4845.47936 1.10675e-17
4847.36186 1.09867e-17
4849.23425 1.11162e-17
4851.11675 1.14263e-17
4852.99926 1.14109e-17
4854.87164 1.11917e-17
4856.75415 1.13046e-17
4858.63666 1.16001e-17
4860.50904 1.14191e-17
4862.39155 1.12466e-17
4864.27405 1.12761e-17
4866.14644 1.10688e-17
4868.02894 1.09549e-17
4869.91145 1.12922e-17
4871.78383 1.14859e-17
4873.66634 1.12514e-17
4875.54885 1.10032e-17
4877.42123 1.09672e-17
4879.30374 1.10567e-17
4881.18624 1.11172e-17
4883.05863 1.13024e-17
4884.94113 1.11923e-17
4886.82364 1.07456e-17
4888.69603 1.09728e-17
4890.57853 1.13109e-17
4892.46104 1.12979e-17
4894.33342 1.10779e-17
4896.21593 1.10820e-17
4898.09843 1.12370e-17
4899.97082 1.12264e-17
4901.85333 1.12489e-17
4903.73583 1.12436e-17
4905.60822 1.10867e-17
4907.49072 1.10717e-17
4909.37323 1.12198e-17
4911.24561 1.13126e-17
4913.12812 1.13788e-17
4915.01062 1.14779e-17
4916.88301 1.14994e-17
4918.76552 1.13418e-17
4920.64802 1.11404e-17
4922.52041 1.11658e-17
4924.40291 1.12687e-17
4926.27530 1.12330e-17
4928.15780 1.11317e-17
4930.04031 1.11406e-17
4931.91269 1.13603e-17
4933.79520 1.16136e-17
4935.67771 1.15588e-17
4937.55009 1.11027e-17
4939.43260 1.08495e-17
4941.31510 1.10764e-17
4943.18749 1.12774e-17
4945.06999 1.14578e-17
4946.95250 1.16778e-17
4948.82489 1.15934e-17
4950.70739 1.16185e-17
4952.58990 1.18571e-17
4954.46228 1.18871e-17
4956.34479 1.17770e-17
4958.22729 1.17667e-17
4960.09968 1.16478e-17
4961.98219 1.16776e-17
4963.86469 1.17516e-17
4965.73708 1.18244e-17
4967.61958 1.20367e-17
4969.50209 1.21906e-17
4971.37447 1.22590e-17
4973.25698 1.22949e-17
4975.13949 1.21827e-17
4977.01187 1.21688e-17
4978.89438 1.24361e-17
4980.77688 1.24668e-17
4982.64927 1.21348e-17
4984.53177 1.23433e-17
4986.41428 1.26086e-17
4988.28666 1.21988e-17
4990.16917 1.20818e-17
4992.05168 1.22961e-17
4993.92406 1.24596e-17
4995.80657 1.23917e-17
4997.68907 1.23705e-17
4999.56146 1.27170e-17
5001.44396 1.30584e-17
5003.32647 1.29035e-17
5005.19886 1.27290e-17
5007.08136 1.29901e-17
5008.96387 1.31431e-17
5010.83625 1.28602e-17
5012.71876 1.26234e-17
5014.60126 1.27368e-17
5016.47365 1.29061e-17
5018.35616 1.29162e-17
5020.23866 1.29392e-17
5022.11105 1.30213e-17
5023.99355 1.29931e-17
5025.87606 1.29660e-17
5027.74844 1.31941e-17
5029.63095 1.33120e-17
5031.51346 1.31701e-17
5033.38584 1.30223e-17
5035.26835 1.29604e-17
5037.15085 1.29314e-17
5039.02324 1.29595e-17
5040.90574 1.31080e-17
5042.78825 1.32761e-17
5044.66064 1.32612e-17
5046.54314 1.31711e-17
5048.42565 1.32251e-17
5050.29803 1.33461e-17
5052.18054 1.35491e-17
5054.06304 1.36668e-17
5055.93543 1.35219e-17
5057.81794 1.35386e-17
5059.70044 1.37157e-17
5061.57283 1.39076e-17
5063.45533 1.39049e-17
5065.33784 1.36669e-17
5067.21022 1.35078e-17
5069.09273 1.37664e-17
5070.97524 1.39003e-17
5072.84762 1.36325e-17
5074.73013 1.35450e-17
5076.61263 1.36744e-17
5078.48502 1.37901e-17
5080.36752 1.40483e-17
5082.25003 1.43543e-17
5084.12241 1.42560e-17
5086.00492 1.38657e-17
5087.88743 1.37949e-17
5089.75981 1.40085e-17
5091.64232 1.42431e-17
5093.52482 1.42107e-17
5095.39721 1.42091e-17
5097.27971 1.41453e-17
5099.16222 1.38847e-17
5101.03460 1.37863e-17
5102.91711 1.43256e-17
5104.79962 1.46699e-17
5106.67200 1.43837e-17
5108.55451 1.42285e-17
5110.43701 1.41637e-17
5112.30940 1.41773e-17
5114.19191 1.43846e-17
5116.07441 1.43445e-17
5117.94680 1.41250e-17
5119.82930 1.42658e-17
5121.71181 1.44460e-17
5123.58419 1.45888e-17
5125.46670 1.46417e-17
5127.34921 1.47305e-17
5129.22159 1.46347e-17
5131.10410 1.45986e-17
5132.98660 1.45338e-17
5134.85899 1.44101e-17
5136.74149 1.43262e-17
5138.62400 1.44597e-17
5140.49638 1.47085e-17
5142.37889 1.48676e-17
5144.26140 1.50209e-17
5146.13378 1.48743e-17
5148.01629 1.46614e-17
5149.89879 1.45982e-17
5151.77118 1.46975e-17
5153.65368 1.47501e-17
5155.53619 1.46284e-17
5157.40858 1.46108e-17
5159.29108 1.47837e-17
5161.17359 1.47834e-17
5163.04597 1.48072e-17
5164.92848 1.47023e-17
5166.81098 1.46491e-17
5168.68337 1.47207e-17
5170.56588 1.46750e-17
5172.44838 1.46374e-17
5174.32077 1.45750e-17
5176.20327 1.44994e-17
5178.08578 1.46069e-17
5179.95816 1.45625e-17
5181.84067 1.46526e-17
5183.72318 1.48446e-17
5185.59556 1.47872e-17
5187.47807 1.48067e-17
5189.36057 1.47724e-17
5191.23296 1.46473e-17
5193.11546 1.46890e-17
5194.99797 1.48422e-17
5196.87035 1.48733e-17
5198.75286 1.48956e-17
5200.63537 1.49742e-17
5202.50775 1.48876e-17
5204.39026 1.47898e-17
5206.27276 1.48870e-17
5208.14515 1.49467e-17
5210.02765 1.47876e-17
5211.91016 1.45917e-17
5213.78255 1.47079e-17
5215.66505 1.49026e-17
5217.54756 1.48876e-17
5219.41994 1.47957e-17
5221.30245 1.45598e-17
5223.18495 1.45022e-17
5225.05734 1.48271e-17
5226.93984 1.50951e-17
5228.82235 1.51916e-17
5230.69474 1.50996e-17
5232.57724 1.50181e-17
5234.45975 1.49230e-17
5236.33213 1.49906e-17
5238.21464 1.51198e-17
5240.09714 1.50328e-17
5241.96953 1.50612e-17
5243.85204 1.50850e-17
5245.73454 1.48653e-17
5247.60693 1.49356e-17
5249.48943 1.51520e-17
5251.37194 1.52017e-17
5253.24432 1.51112e-17
5255.12683 1.53081e-17
5257.00934 1.51315e-17
5258.88172 1.50894e-17
5260.76423 1.54574e-17
5262.64673 1.54916e-17
5264.51912 1.53429e-17
5266.40162 1.54200e-17
5268.28413 1.52598e-17
5270.15651 1.49870e-17
5272.03902 1.52604e-17
5273.92153 1.54975e-17
5275.79391 1.52772e-17
5277.67642 1.53427e-17
5279.55892 1.54997e-17
5281.43131 1.54886e-17
5283.31381 1.54479e-17
5285.19632 1.52455e-17
5287.06871 1.50802e-17
5288.95121 1.51768e-17
5290.83372 1.54861e-17
5292.70610 1.54586e-17
5294.58861 1.51359e-17
5296.47111 1.49390e-17
5298.34350 1.53567e-17
5300.22601 1.56593e-17
5302.10851 1.54848e-17
5303.98090 1.54199e-17
5305.86340 1.54819e-17
5307.74591 1.54459e-17
5309.61829 1.55412e-17
5311.50080 1.56515e-17
5313.38331 1.54500e-17
5315.25569 1.54548e-17
5317.13820 1.58451e-17
5319.02070 1.61605e-17
5320.89309 1.56406e-17
5322.77559 1.50512e-17
5324.65810 1.52589e-17
5326.53049 1.57363e-17
5328.41299 1.57128e-17
5330.29550 1.53738e-17
5332.16788 1.54277e-17
5334.05039 1.54563e-17
5335.93289 1.52516e-17
5337.80528 1.51997e-17
5339.68779 1.53389e-17
5341.57029 1.54559e-17
5343.44268 1.55022e-17
5345.32518 1.56143e-17
5347.20769 1.55412e-17
5349.08007 1.55925e-17
5350.96258 1.54880e-17
5352.84508 1.54281e-17
5354.71747 1.54066e-17
5356.59998 1.55433e-17
5358.48248 1.54753e-17
5360.35487 1.55267e-17
5362.23737 1.54347e-17
5364.11988 1.49564e-17
5365.99226 1.49307e-17
5367.87477 1.51947e-17
5369.75728 1.51187e-17
5371.62966 1.51018e-17
5373.51217 1.52610e-17
5375.39467 1.51441e-17
5377.26706 1.50008e-17
5379.14956 1.51389e-17
5381.03207 1.51887e-17
5382.90445 1.52001e-17
5384.78696 1.51575e-17
5386.66947 1.50565e-17
5388.54185 1.50450e-17
5390.42436 1.49340e-17
5392.30686 1.50053e-17
5394.17925 1.48745e-17
5396.06176 1.48931e-17
5397.94426 1.50180e-17
5399.81665 1.48746e-17
5401.69915 1.48103e-17
5403.58166 1.46834e-17
5405.45404 1.44241e-17
5407.33655 1.45171e-17
5409.21906 1.48011e-17
5411.09144 1.48806e-17
5412.97395 1.46882e-17
5414.85645 1.48397e-17
5416.72884 1.50201e-17
5418.61134 1.49378e-17
5420.49385 1.50376e-17
5422.36623 1.46715e-17
5424.24874 1.46307e-17
5426.13125 1.43442e-17
5428.00363 1.44716e-17
5429.88614 1.48518e-17
5431.76864 1.48480e-17
5433.64103 1.47053e-17
5435.52353 1.47088e-17
5437.40604 1.47182e-17
5439.27843 1.46700e-17
5441.16093 1.45550e-17
5443.04344 1.44955e-17
5444.91582 1.47273e-17
5446.79833 1.46945e-17
5448.68083 1.42613e-17
5450.55322 1.43102e-17
5452.43573 1.45684e-17
5454.31823 1.47641e-17
5456.19062 1.46544e-17
5458.07312 1.45552e-17
5459.95563 1.45606e-17
5461.82801 1.42844e-17
5463.71052 1.43810e-17
5465.59303 1.46872e-17
5467.46541 1.44036e-17
5469.34792 1.39977e-17
5471.23042 1.39395e-17
5473.10281 1.38527e-17
5474.98531 1.37440e-17
5476.86782 1.38532e-17
5478.74020 1.39117e-17
5480.62271 1.38592e-17
5482.50522 1.42008e-17
5484.37760 1.41859e-17
5486.26011 1.39659e-17
5488.14261 1.40016e-17
5490.01500 1.41567e-17
5491.89750 1.42330e-17
5493.78001 1.42418e-17
5495.65240 1.41470e-17
5497.53490 1.38490e-17
5499.41741 1.37818e-17
5501.28979 1.40098e-17
5503.17230 1.40032e-17
5505.05480 1.36897e-17
5506.92719 1.35944e-17
5508.80969 1.38673e-17
5510.69220 1.38818e-17
5512.56459 1.35043e-17
5514.44709 1.34326e-17
5516.32960 1.36215e-17
5518.20198 1.38150e-17
5520.08449 1.39469e-17
5521.96699 1.38585e-17
5523.83938 1.36251e-17
5525.72189 1.36171e-17
5527.60439 1.38745e-17
5529.47678 1.39977e-17
5531.35928 1.36962e-17
5533.23167 1.34725e-17
5535.11417 1.33329e-17
5536.99668 1.31822e-17
5538.86906 1.32011e-17
5540.75157 1.32167e-17
5542.63408 1.32210e-17
5544.50646 1.33310e-17
5546.38897 1.34806e-17
5548.27147 1.32447e-17
5550.14386 1.30900e-17
5552.02636 1.32075e-17
5553.90887 1.31540e-17
5555.78126 1.32469e-17
5557.66376 1.31737e-17
5559.54627 1.31749e-17
5561.41865 1.34098e-17
5563.30116 1.35017e-17
5565.18366 1.34793e-17
5567.05605 1.34927e-17
5568.93856 1.34134e-17
5570.82106 1.34480e-17
5572.69345 1.33591e-17
5574.57595 1.30301e-17
5576.45846 1.31027e-17
5578.33084 1.30712e-17
5580.21335 1.30382e-17
5582.09586 1.33290e-17
5583.96824 1.32699e-17
5585.85075 1.30141e-17
5587.73325 1.29818e-17
5589.60564 1.30095e-17
5591.48814 1.30709e-17
5593.37065 1.30991e-17
5595.24304 1.28130e-17
5597.12554 1.27626e-17
5599.00805 1.29455e-17
5600.88043 1.29056e-17
5602.76294 1.27353e-17
5604.64544 1.26805e-17
5606.51783 1.28722e-17
5608.40034 1.31331e-17
5610.28284 1.30904e-17
5612.15523 1.29578e-17
5614.03773 1.29646e-17
5615.92024 1.29743e-17
5617.79262 1.29301e-17
5619.67513 1.30390e-17
5621.55764 1.33245e-17
5623.43002 1.34651e-17
5625.31253 1.32062e-17
5627.19503 1.28784e-17
5629.06742 1.29205e-17
5630.94992 1.30230e-17
5632.83243 1.30619e-17
5634.70481 1.32247e-17
5636.58732 1.32293e-17
5638.46983 1.29941e-17
5640.34221 1.28636e-17
5642.22472 1.28432e-17
5644.10722 1.28842e-17
5645.97961 1.29156e-17
5647.86211 1.28615e-17
5649.74462 1.30342e-17
5651.61701 1.31413e-17
5653.49951 1.32873e-17
5655.38202 1.32686e-17
5657.25440 1.32802e-17
5659.13691 1.34660e-17
5661.01941 1.34287e-17
5662.89180 1.32718e-17
5664.77430 1.32061e-17
5666.65681 1.32467e-17
5668.52920 1.32684e-17
5670.41170 1.32004e-17
5672.29421 1.31693e-17
5674.16659 1.31646e-17
5676.04910 1.31899e-17
5677.93160 1.33039e-17
5679.80399 1.33057e-17
5681.68650 1.34675e-17
5683.56900 1.35891e-17
5685.44139 1.33101e-17
5687.32389 1.30782e-17
5689.20640 1.31160e-17
5691.07878 1.30346e-17
5692.96129 1.31490e-17
5694.84380 1.34571e-17
5696.71618 1.35601e-17
5698.59869 1.33329e-17
5700.48119 1.32111e-17
5702.35358 1.32409e-17
5704.23608 1.32884e-17
5706.11859 1.34322e-17
5707.99097 1.35823e-17
5709.87348 1.37033e-17
5711.75599 1.36445e-17
5713.62837 1.35964e-17
5715.51088 1.36095e-17
5717.39338 1.34819e-17
5719.26577 1.34320e-17
5721.14827 1.36140e-17
5723.03078 1.35855e-17
5724.90317 1.34148e-17
5726.78567 1.35030e-17
5728.66818 1.37449e-17
5730.54056 1.39117e-17
5732.42307 1.38390e-17
5734.30558 1.37533e-17
5736.17796 1.37107e-17
5738.06047 1.36587e-17
5739.94297 1.36214e-17
5741.81536 1.36136e-17
5743.69786 1.38362e-17
5745.58037 1.37810e-17
5747.45275 1.35883e-17
5749.33526 1.36901e-17
5751.21777 1.38930e-17
5753.09015 1.40218e-17
5754.97266 1.39357e-17
5756.85516 1.37832e-17
5758.72755 1.35541e-17
5760.61005 1.34981e-17
5762.49256 1.36901e-17
5764.36495 1.38006e-17
5766.24745 1.37689e-17
5768.12996 1.37884e-17
5770.00234 1.37683e-17
5771.88485 1.35312e-17
5773.76735 1.33126e-17
5775.63974 1.33711e-17
5777.52225 1.35336e-17
5779.40475 1.36711e-17
5781.27714 1.36638e-17
5783.15964 1.35826e-17
5785.04215 1.38454e-17
5786.91453 1.37865e-17
5788.79704 1.35538e-17
5790.67954 1.35006e-17
5792.55193 1.36448e-17
5794.43444 1.37070e-17
5796.31694 1.37645e-17
5798.18933 1.38594e-17
5800.07183 1.38183e-17
5801.95434 1.37836e-17
5803.82672 1.38402e-17
5805.70923 1.38107e-17
5807.59174 1.37959e-17
5809.46412 1.39116e-17
5811.34663 1.40344e-17
5813.22913 1.40153e-17
5815.10152 1.37857e-17
5816.98402 1.39245e-17
5818.86653 1.41817e-17
5820.73891 1.41985e-17
5822.62142 1.40885e-17
5824.50393 1.38212e-17
5826.37631 1.39126e-17
5828.25882 1.41160e-17
5830.14132 1.39390e-17
5832.01371 1.38322e-17
5833.89621 1.38746e-17
5835.77872 1.38656e-17
5837.65111 1.38649e-17
5839.53361 1.38293e-17
5841.41612 1.38777e-17
5843.28850 1.39086e-17
5845.17101 1.36763e-17
5847.05351 1.33442e-17
5848.92590 1.29053e-17
5850.80841 1.26797e-17
5852.69091 1.28807e-17
5854.56330 1.33429e-17
5856.44580 1.37186e-17
5858.32831 1.38783e-17
5860.20069 1.37917e-17
5862.08320 1.36542e-17
5863.96571 1.35023e-17
5865.83809 1.34176e-17
5867.72060 1.35958e-17
5869.60310 1.39162e-17
5871.47549 1.39479e-17
5873.35799 1.37809e-17
5875.24050 1.38092e-17
5877.11289 1.37668e-17
5878.99539 1.36389e-17
5880.87790 1.35884e-17
5882.75028 1.37044e-17
5884.63279 1.38185e-17
5886.51529 1.35124e-17
5888.38768 1.33218e-17
5890.27019 1.29910e-17
5892.15269 1.29725e-17
5894.02508 1.30294e-17
5895.90758 1.30360e-17
5897.79009 1.29105e-17
5899.66247 1.32009e-17
5901.54498 1.35364e-17
5903.42749 1.36939e-17
5905.29987 1.37357e-17
5907.18238 1.35454e-17
5909.06488 1.34828e-17
5910.93727 1.35765e-17
5912.81977 1.37013e-17
5914.70228 1.35136e-17
5916.57466 1.32842e-17
5918.45717 1.34334e-17
5920.33968 1.35849e-17
5922.21206 1.36172e-17
5924.09457 1.35795e-17
5925.97707 1.35243e-17
5927.84946 1.35306e-17
5929.73196 1.37178e-17
5931.61447 1.37355e-17
5933.48686 1.35152e-17
5935.36936 1.36150e-17
5937.25187 1.38390e-17
5939.12425 1.36612e-17
5941.00676 1.33666e-17
5942.88926 1.32267e-17
5944.76165 1.31151e-17
5946.64415 1.31963e-17
5948.52666 1.33120e-17
5950.39905 1.32959e-17
5952.28155 1.32350e-17
5954.16406 1.31003e-17
5956.03644 1.30875e-17
5957.91895 1.28357e-17
5959.80145 1.20528e-17
5961.67384 1.17198e-17
5963.55635 1.20352e-17
5965.43885 1.20043e-17
5967.31124 1.15402e-17
5969.19374 1.15100e-17
5971.07625 1.20326e-17
5972.94863 1.23201e-17
5974.83114 1.22094e-17
5976.71365 1.21647e-17
5978.58603 1.23613e-17
5980.46854 1.24074e-17
5982.35104 1.23376e-17
5984.22343 1.25060e-17
5986.10593 1.24473e-17
5987.98844 1.22865e-17
5989.86082 1.24005e-17
5991.74333 1.22958e-17
5993.62584 1.20786e-17
5995.49822 1.20838e-17
5997.38073 1.19551e-17
5999.26323 1.18825e-17
6001.13562 1.19812e-17
6003.01812 1.19282e-17
6004.90063 1.18799e-17
6006.77302 1.19109e-17
6008.65552 1.18885e-17
6010.53803 1.19126e-17
6012.41041 1.18388e-17
6014.29292 1.16772e-17
6016.17543 1.17885e-17
6018.04781 1.17897e-17
6019.93032 1.17484e-17
6021.81282 1.17185e-17
6023.68521 1.14903e-17
6025.56771 1.13140e-17
6027.45022 1.12824e-17
6029.32260 1.13880e-17
6031.20511 1.15746e-17
6033.08762 1.16029e-17
6034.96000 1.14316e-17
6036.84251 1.13480e-17
6038.72501 1.14039e-17
6040.59740 1.12849e-17
6042.47990 1.11560e-17
6044.36241 1.12060e-17
6046.23479 1.12221e-17
6048.11730 1.12177e-17
6049.99981 1.13035e-17
6051.87219 1.12831e-17
6053.75470 1.13109e-17
6055.63720 1.13841e-17
6057.50959 1.13903e-17
6059.39210 1.14697e-17
6061.27460 1.15281e-17
6063.14699 1.13220e-17
6065.02949 1.12253e-17
6066.91200 1.12801e-17
6068.78438 1.13521e-17
6070.66689 1.12594e-17
6072.54940 1.12028e-17
6074.42178 1.13052e-17
6076.30429 1.13823e-17
6078.18679 1.13536e-17
6080.05918 1.13892e-17
6081.94168 1.14030e-17
6083.82419 1.14305e-17
6085.69657 1.15011e-17
6087.57908 1.15381e-17
6089.46159 1.15327e-17
6091.33397 1.15163e-17
6093.21648 1.15016e-17
6095.09898 1.15139e-17
6096.97137 1.15768e-17
6098.85387 1.15496e-17
6100.73638 1.14475e-17
6102.60876 1.13781e-17
6104.49127 1.13578e-17
6106.37378 1.14352e-17
6108.24616 1.14278e-17
6110.12867 1.13875e-17
6112.01117 1.15503e-17
6113.88356 1.16076e-17
6115.76606 1.15500e-17
6117.64857 1.14170e-17
6119.52096 1.14618e-17
6121.40346 1.15305e-17
6123.28597 1.14712e-17
6125.15835 1.15220e-17
6127.04086 1.14852e-17
6128.92336 1.14825e-17
6130.79575 1.16804e-17
6132.67826 1.17321e-17
6134.55064 1.17131e-17
6136.43315 1.18120e-17
6138.31565 1.17650e-17
6140.18804 1.16541e-17
6142.07054 1.16844e-17
6143.95305 1.17125e-17
6145.82544 1.17163e-17
6147.70794 1.17955e-17
6149.59045 1.18513e-17
6151.46283 1.19738e-17
6153.34534 1.19744e-17
6155.22784 1.18904e-17
6157.10023 1.19271e-17
6158.98274 1.19449e-17
6160.86524 1.19010e-17
6162.73763 1.18685e-17
6164.62013 1.17974e-17
6166.50264 1.18897e-17
6168.37502 1.20765e-17
6170.25753 1.20457e-17
6172.14004 1.20497e-17
6174.01242 1.21416e-17
6175.89493 1.20778e-17
6177.77743 1.20067e-17
6179.64982 1.19688e-17
6181.53232 1.19105e-17
6183.41483 1.19245e-17
6185.28721 1.19737e-17
6187.16972 1.20429e-17
6189.05223 1.20978e-17
6190.92461 1.21132e-17
6192.80712 1.19596e-17
6194.68962 1.18672e-17
6196.56201 1.19818e-17
6198.44451 1.19867e-17
6200.32702 1.19583e-17
6202.19941 1.20791e-17
6204.08191 1.22046e-17
6205.96442 1.21298e-17
6207.83680 1.20698e-17
6209.71931 1.21467e-17
6211.60181 1.21099e-17
6213.47420 1.20548e-17
6215.35671 1.20598e-17
6217.23921 1.20341e-17
6219.11160 1.20871e-17
6220.99410 1.21867e-17
6222.87661 1.21816e-17
6224.74899 1.20706e-17
6226.63150 1.18131e-17
6228.51400 1.16659e-17
6230.38639 1.18199e-17
6232.26890 1.19467e-17
6234.15140 1.19491e-17
6236.02379 1.19027e-17
6237.90629 1.17129e-17
6239.78880 1.16026e-17
6241.66118 1.15504e-17
6243.54369 1.15971e-17
6245.42620 1.16402e-17
6247.29858 1.16642e-17
6249.18109 1.16461e-17
6251.06359 1.15558e-17
6252.93598 1.14508e-17
6254.81848 1.14093e-17
6256.70099 1.14489e-17
6258.57337 1.15319e-17
6260.45588 1.15418e-17
6262.33839 1.15257e-17
6264.21077 1.14988e-17
6266.09328 1.15412e-17
6267.97578 1.15697e-17
6269.84817 1.15544e-17
6271.73067 1.15781e-17
6273.61318 1.14587e-17
6275.48557 1.11688e-17
6277.36807 1.06756e-17
6279.25058 1.03877e-17
6281.12296 1.06776e-17
6283.00547 1.11432e-17
6284.88797 1.12949e-17
6286.76036 1.13314e-17
6288.64287 1.14549e-17
6290.52537 1.15448e-17
6292.39776 1.14948e-17
6294.28026 1.14197e-17
6296.16277 1.11978e-17
6298.03515 1.13470e-17
6299.91766 1.18001e-17
6301.80017 1.18184e-17
6303.67255 1.14940e-17
6305.55506 1.13383e-17
6307.43756 1.13270e-17
6309.30995 1.14017e-17
6311.19245 1.15503e-17
6313.07496 1.17018e-17
6314.94734 1.16297e-17
6316.82985 1.13482e-17
6318.71236 1.13389e-17
6320.58474 1.14156e-17
6322.46725 1.14904e-17
6324.34975 1.15407e-17
6326.22214 1.14173e-17
6328.10464 1.13843e-17
6329.98715 1.14341e-17
6331.85954 1.14934e-17
6333.74204 1.15209e-17
6335.62455 1.14524e-17
6337.49693 1.15190e-17
6339.37944 1.15468e-17
6341.26195 1.13827e-17
6343.13433 1.13305e-17
6345.01684 1.12997e-17
6346.89934 1.10800e-17
6348.77173 1.10842e-17
6350.65423 1.12177e-17
6352.53674 1.13046e-17
6354.40912 1.11648e-17
6356.29163 1.08232e-17
6358.17414 1.02749e-17
6360.04652 1.00023e-17
6361.92903 1.02361e-17
6363.81153 1.06524e-17
6365.68392 1.10313e-17
6367.56642 1.12948e-17
6369.44893 1.15700e-17
6371.32131 1.16302e-17
6373.20382 1.15528e-17
6375.08633 1.15672e-17
6376.95871 1.14177e-17
6378.84122 1.13571e-17
6380.72372 1.13990e-17
6382.59611 1.13428e-17
6384.47861 1.14342e-17
6386.36112 1.16013e-17
6388.23351 1.16025e-17
6390.11601 1.14830e-17
6391.99852 1.13585e-17
6393.87090 1.13169e-17
6395.75341 1.13920e-17
6397.63591 1.15865e-17
6399.50830 1.16108e-17
6401.39081 1.14995e-17
6403.27331 1.15397e-17
6405.14570 1.15891e-17
6407.02820 1.15779e-17
6408.91071 1.17756e-17
6410.78309 1.16674e-17
6412.66560 1.14315e-17
6414.54811 1.15158e-17
6416.42049 1.17014e-17
6418.30300 1.18166e-17
6420.18550 1.17093e-17
6422.05789 1.15030e-17
6423.94039 1.14328e-17
6425.82290 1.15485e-17
6427.69529 1.16920e-17
6429.57779 1.16690e-17
6431.46030 1.16560e-17
6433.33268 1.16646e-17
6435.21519 1.16527e-17
6437.09769 1.17182e-17
6438.97008 1.17385e-17
6440.85259 1.19030e-17
6442.73509 1.19681e-17
6444.60748 1.18397e-17
6446.48998 1.18818e-17
6448.37249 1.19495e-17
6450.24487 1.18102e-17
6452.12738 1.17239e-17
6454.00989 1.12057e-17
6455.88227 1.11057e-17
6457.76478 1.11721e-17
6459.64728 1.14115e-17
6461.51967 1.14774e-17
6463.40217 1.14532e-17
6465.28468 1.15303e-17
6467.15706 1.16226e-17
6469.03957 1.15963e-17
6470.92208 1.14170e-17
6472.79446 1.13847e-17
6474.67697 1.12301e-17
6476.55947 1.09917e-17
6478.43186 1.10738e-17
6480.31436 1.12492e-17
6482.19687 1.13336e-17
6484.06926 1.14148e-17
6485.95176 1.15300e-17
6487.83427 1.14895e-17
6489.70665 1.14540e-17
6491.58916 1.14708e-17
6493.47166 1.15178e-17
6495.34405 1.16574e-17
6497.22656 1.16311e-17
6499.10906 1.14538e-17
6500.98145 1.15084e-17
6502.86395 1.16913e-17
6504.74646 1.16137e-17
6506.61884 1.15886e-17
6508.50135 1.14976e-17
6510.38386 1.15000e-17
6512.25624 1.16163e-17
6514.13875 1.16206e-17
6516.02125 1.15881e-17
6517.89364 1.15724e-17
6519.77614 1.16362e-17
6521.65865 1.15330e-17
6523.53103 1.14957e-17
6525.41354 1.16661e-17
6527.29605 1.18011e-17
6529.16843 1.17257e-17
6531.05094 1.16523e-17
6532.93344 1.16869e-17
6534.80583 1.17349e-17
6536.68833 1.16040e-17
6538.57084 1.15364e-17
6540.44322 1.16762e-17
6542.32573 1.17440e-17
6544.20824 1.16608e-17
6546.08062 1.14848e-17
6547.96313 1.16064e-17
6549.84563 1.18620e-17
6551.71802 1.19401e-17
6553.60052 1.18078e-17
6555.48303 1.16322e-17
6557.35542 1.15802e-17
6559.23792 1.16106e-17
6561.12043 1.16719e-17
6562.99281 1.17491e-17
6564.87532 1.17855e-17
6566.75782 1.18010e-17
6568.63021 1.17517e-17
6570.51272 1.15991e-17
6572.39522 1.16733e-17
6574.26761 1.18896e-17
6576.15011 1.18827e-17
6578.03262 1.19751e-17
6579.90500 1.21258e-17
6581.78751 1.19612e-17
6583.67002 1.17907e-17
6585.54240 1.18693e-17
6587.42491 1.18880e-17
6589.30741 1.17991e-17
6591.17980 1.17243e-17
6593.06230 1.16917e-17
6594.94481 1.17800e-17
6596.81719 1.17369e-17
6598.69970 1.16916e-17
6600.58221 1.16845e-17
6602.45459 1.16728e-17
6604.33710 1.16576e-17
6606.21960 1.17832e-17
6608.09199 1.18362e-17
6609.97449 1.16909e-17
6611.85700 1.14708e-17
6613.72939 1.14565e-17
6615.61189 1.15766e-17
6617.49440 1.15287e-17
6619.36678 1.15239e-17
6621.24929 1.16522e-17
6623.13180 1.17203e-17
6625.00418 1.17893e-17
6626.88669 1.17507e-17
6628.76919 1.17820e-17
6630.64158 1.18761e-17
6632.52408 1.18703e-17
6634.40659 1.18910e-17
6636.27897 1.17953e-17
6638.16148 1.13998e-17
6640.04399 1.12154e-17
6641.91637 1.14984e-17
6643.79888 1.17479e-17
6645.68138 1.18881e-17
6647.55377 1.17823e-17
6649.43627 1.18074e-17
6651.31878 1.18605e-17
6653.19116 1.17023e-17
6655.07367 1.16996e-17
6656.95618 1.17511e-17
6658.82856 1.17206e-17
6660.71107 1.17982e-17
6662.59357 1.18212e-17
6664.46596 1.17235e-17
6666.34847 1.18818e-17
6668.23097 1.19162e-17
6670.10336 1.17699e-17
6671.98586 1.18551e-17
6673.86837 1.19292e-17
6675.74075 1.18248e-17
6677.62326 1.16841e-17
6679.50576 1.17157e-17
6681.37815 1.20011e-17
6683.26066 1.20834e-17
6685.14316 1.20370e-17
6687.01555 1.19982e-17
6688.89805 1.21151e-17
6690.78056 1.22501e-17
6692.65294 1.19512e-17
6694.53545 1.15869e-17
6696.41796 1.16683e-17
6698.29034 1.19750e-17
6700.17285 1.20918e-17
6702.05535 1.18794e-17
6703.92774 1.17332e-17
6705.81024 1.18045e-17
6707.69275 1.18408e-17
6709.56514 1.17675e-17
6711.44764 1.17627e-17
6713.33015 1.18353e-17
6715.20253 1.17208e-17
6717.08504 1.15605e-17
6718.96754 1.17198e-17
6720.83993 1.18512e-17
6722.72244 1.17079e-17
6724.60494 1.18354e-17
6726.47733 1.18207e-17
6728.35983 1.17561e-17
6730.24234 1.17200e-17
6732.11472 1.17820e-17
6733.99723 1.17366e-17
6735.86961 1.16690e-17
6737.75212 1.16772e-17
6739.63463 1.16833e-17
6741.51713 1.16592e-17
6743.38952 1.17228e-17
6745.27202 1.16795e-17
6747.14441 1.16563e-17
6749.02691 1.17683e-17
6750.90942 1.18021e-17
6752.78181 1.18637e-17
6754.66431 1.19953e-17
6756.54682 1.20930e-17
6758.41920 1.20017e-17
6760.30171 1.19827e-17
6762.18421 1.18790e-17
6764.05660 1.17969e-17
6765.93911 1.18010e-17
6767.82161 1.17441e-17
6769.69400 1.16770e-17
6771.57650 1.16572e-17
6773.45901 1.17951e-17
6775.33139 1.18680e-17
6777.21390 1.19041e-17
6779.09641 1.18165e-17
6780.96879 1.17555e-17
6782.85130 1.17811e-17
6784.73380 1.18686e-17
6786.60619 1.17859e-17
6788.48869 1.17870e-17
6790.37120 1.19357e-17
6792.24358 1.18960e-17
6794.12609 1.17390e-17
6796.00860 1.15324e-17
6797.88098 1.14191e-17
6799.76349 1.16066e-17
6801.64599 1.17692e-17
6803.51838 1.17783e-17
6805.40088 1.16023e-17
6807.28339 1.16499e-17
6809.15578 1.16097e-17
6811.03828 1.15392e-17
6812.92079 1.14811e-17
6814.79317 1.14337e-17
6816.67568 1.15386e-17
6818.55818 1.15306e-17
6820.43057 1.15658e-17
6822.31308 1.16740e-17
6824.19558 1.16788e-17
6826.06797 1.15536e-17
6827.95047 1.15447e-17
6829.83298 1.16410e-17
6831.70536 1.16217e-17
6833.58787 1.17340e-17
6835.47037 1.18773e-17
6837.34276 1.18086e-17
6839.22527 1.16741e-17
6841.10777 1.15991e-17
6842.98016 1.16320e-17
6844.86266 1.16715e-17
6846.74517 1.16561e-17
6848.61755 1.16408e-17
6850.50006 1.16255e-17
6852.38257 1.16101e-17
6854.25495 1.15948e-17
6856.13746 1.15795e-17
6858.01996 1.15642e-17
6859.89235 1.15488e-17
6861.77485 1.15335e-17
6863.65736 1.15182e-17
6865.52974 1.15029e-17
6867.41225 1.14876e-17
6869.29476 1.14722e-17
6871.16714 1.14569e-17
6873.04965 1.14416e-17
6874.93215 1.14263e-17
6876.80454 1.14110e-17
6878.68704 1.13957e-17
6880.56955 1.13804e-17
6882.44194 1.13650e-17
6884.32444 1.13497e-17
6886.20695 1.13344e-17
6888.07933 1.13191e-17
6889.96184 1.13038e-17
6891.84434 1.12885e-17
6893.71673 1.12732e-17
6895.59924 1.12579e-17
6897.48174 1.12426e-17
6899.35413 1.12273e-17
6901.23663 1.12120e-17
6903.11914 1.11967e-17
6904.99152 1.11814e-17
6906.87403 1.11661e-17
6908.75654 1.11508e-17
6910.62892 1.11355e-17
6912.51143 1.11202e-17
6914.39393 1.11049e-17
6916.26632 1.10896e-17
6918.14882 1.10743e-17
6920.03133 1.10590e-17
6921.90371 1.10438e-17
6923.78622 1.10285e-17
6925.66873 1.10132e-17
6927.54111 1.09979e-17
6929.42362 1.09826e-17
6931.30612 1.09673e-17
6933.17851 1.09520e-17
6935.06101 1.09368e-17
6936.94352 1.10032e-17
6938.81591 1.09500e-17
6940.69841 1.08905e-17
6942.58092 1.08885e-17
6944.45330 1.09981e-17
6946.33581 1.10630e-17
6948.21832 1.11012e-17
6950.09070 1.11649e-17
6951.97321 1.12592e-17
6953.85571 1.11173e-17
6955.72810 1.09386e-17
6957.61060 1.09888e-17
6959.49311 1.10721e-17
6961.36549 1.11998e-17
6963.24800 1.13437e-17
6965.13051 1.14725e-17
6967.00289 1.14147e-17
6968.88540 1.14975e-17
6970.76790 1.14563e-17
6972.64029 1.12719e-17
6974.52279 1.12216e-17
6976.40530 1.12637e-17
6978.27769 1.13397e-17
6980.16019 1.14377e-17
6982.04270 1.14591e-17
6983.91508 1.13638e-17
6985.79759 1.12624e-17
6987.68009 1.11450e-17
6989.55248 1.09761e-17
6991.43499 1.10394e-17
6993.31749 1.13316e-17
6995.18988 1.12808e-17
6997.07238 1.10080e-17
6998.95489 1.10763e-17
7000.82727 1.12305e-17
7002.70978 1.11206e-17
7004.59229 1.10160e-17
7006.46467 1.11267e-17
7008.34718 1.12126e-17
7010.22968 1.12961e-17
7012.10207 1.13870e-17
7013.98457 1.12625e-17
7015.86708 1.09029e-17
7017.73946 1.08354e-17
7019.62197 1.10413e-17
7021.50448 1.10543e-17
7023.37686 1.10005e-17
7025.25937 1.12054e-17
7027.14187 1.11383e-17
7029.01426 1.09700e-17
7030.89676 1.11047e-17
7032.77927 1.11682e-17
7034.65166 1.11145e-17
7036.53416 1.09505e-17
7038.41667 1.08273e-17
7040.28905 1.09406e-17
7042.17156 1.10783e-17
7044.05406 1.11712e-17
7045.92645 1.12031e-17
7047.80896 1.11829e-17
7049.69146 1.11830e-17
7051.56385 1.13450e-17
7053.44635 1.14190e-17
7055.32886 1.12563e-17
7057.20124 1.13213e-17
7059.08375 1.11847e-17
7060.96626 1.11090e-17
7062.83864 1.12689e-17
7064.72115 1.10722e-17
7066.60365 1.08091e-17
7068.47604 1.10551e-17
7070.35854 1.13036e-17
7072.24105 1.13270e-17
7074.11343 1.10046e-17
7075.99594 1.09336e-17
7077.87845 1.11207e-17
7079.75083 1.14510e-17
7081.63334 1.14800e-17
7083.51584 1.15320e-17
7085.38823 1.15239e-17
7087.27073 1.11878e-17
7089.15324 1.10423e-17
7091.02563 1.12153e-17
7092.90813 1.12968e-17
7094.79064 1.13271e-17
7096.66302 1.12903e-17
7098.54553 1.12926e-17
7100.42803 1.14808e-17
7102.30042 1.15822e-17
7104.18293 1.14388e-17
7106.06543 1.12402e-17
7107.93782 1.12870e-17
7109.82032 1.12723e-17
7111.70283 1.12302e-17
7113.57521 1.13029e-17
7115.45772 1.13104e-17
7117.34022 1.13512e-17
7119.21261 1.13408e-17
7121.09512 1.11806e-17
7122.97762 1.11649e-17
7124.85001 1.13141e-17
7126.73251 1.13023e-17
7128.61502 1.11172e-17
7130.48740 1.10587e-17
7132.36991 1.12550e-17
7134.25242 1.13287e-17
7136.12480 1.12646e-17
7138.00731 1.12044e-17
7139.88981 1.11926e-17
7141.76220 1.11555e-17
7143.64470 1.11063e-17
7145.52721 1.10959e-17
7147.39959 1.11236e-17
7149.28210 1.10830e-17
7151.16461 1.09898e-17
7153.03699 1.09671e-17
7154.91950 1.10134e-17
7156.80200 1.10676e-17
7158.67439 1.09697e-17
7160.55689 1.08297e-17
7162.43940 1.08163e-17
7164.31179 1.07829e-17
7166.19429 1.06715e-17
7168.07680 1.03492e-17
7169.94918 1.00206e-17
7171.83169 9.82205e-18
7173.71419 9.60896e-18
7175.58658 9.62372e-18
7177.46909 9.71282e-18
7179.35159 9.70295e-18
7181.22398 9.69447e-18
7183.10648 9.53893e-18
7184.98899 9.13925e-18
7186.86137 9.06413e-18
7188.74388 9.48123e-18
7190.62639 9.46366e-18
7192.49877 9.26066e-18
7194.38128 9.35841e-18
7196.26378 9.51124e-18
7198.13617 9.51604e-18
7200.01867 9.37742e-18
7201.90118 9.33870e-18
7203.77356 9.33850e-18
7205.65607 9.45881e-18
7207.53858 9.71672e-18
7209.41096 1.01214e-17
7211.29347 1.04039e-17
7213.17597 1.03815e-17
7215.04836 1.02184e-17
7216.93086 1.01295e-17
7218.81337 1.01678e-17
7220.68576 1.00905e-17
7222.56826 1.00011e-17
7224.45077 1.00458e-17
7226.32315 1.00331e-17
7228.20566 9.95465e-18
7230.08816 9.90496e-18
7231.96055 9.66316e-18
7233.84306 9.14944e-18
7235.72556 9.13089e-18
7237.59795 9.50154e-18
7239.48045 9.45489e-18
7241.36296 9.02783e-18
7243.23534 8.94516e-18
7245.11785 9.23554e-18
7247.00036 9.46862e-18
7248.87274 9.48234e-18
7250.75525 9.21117e-18
7252.63775 8.99898e-18
7254.51014 9.10411e-18
7256.39264 9.29058e-18
7258.27515 9.31561e-18
7260.14754 9.23476e-18
7262.03004 9.06380e-18
7263.91255 8.94202e-18
7265.78493 8.91663e-18
7267.66744 9.03321e-18
7269.54994 9.30083e-18
7271.42233 9.19976e-18
7273.30483 8.91707e-18
7275.18734 8.67683e-18
7277.05973 8.50712e-18
7278.94223 8.71858e-18
7280.82474 8.97141e-18
7282.69712 9.15447e-18
7284.57963 9.19859e-18
7286.46214 9.07828e-18
7288.33452 8.80615e-18
7290.21703 8.40260e-18
7292.09953 8.23100e-18
7293.97192 8.48078e-18
7295.85442 8.73183e-18
7297.73693 8.84889e-18
7299.60931 8.75293e-18
7301.49182 8.49860e-18
7303.37433 8.46419e-18
7305.24671 8.59589e-18
7307.12922 8.67362e-18
7309.01172 8.60628e-18
7310.88411 8.26525e-18
7312.76661 8.20008e-18
7314.64912 8.38302e-18
7316.52151 8.26512e-18
7318.40401 8.22185e-18
7320.28652 8.40888e-18
7322.15890 8.49152e-18
7324.04141 8.45684e-18
7325.92391 8.40846e-18
7327.79630 8.40354e-18
7329.67881 8.44341e-18
7331.56131 8.42288e-18
7333.43370 8.30237e-18
7335.31620 8.25774e-18
7337.19871 8.37470e-18
7339.07109 8.49155e-18
7340.95360 8.45811e-18
7342.82598 8.30663e-18
7344.70849 8.23274e-18
7346.59100 8.09677e-18
7348.46338 8.10368e-18
7350.34589 8.31882e-18
7352.22839 8.31301e-18
7354.11090 8.27817e-18
7355.98328 8.18772e-18
7357.86579 8.08399e-18
7359.73818 8.09820e-18
7361.62068 7.97461e-18
7363.50319 7.85777e-18
7365.37557 7.93382e-18
7367.25808 8.06510e-18
7369.14058 7.98903e-18
7371.02309 7.88061e-18
7372.89548 7.87307e-18
7374.77798 7.83478e-18
7376.65037 7.88331e-18
7378.53287 7.92649e-18
7380.41538 7.82182e-18
7382.28776 7.72819e-18
7384.17027 7.73910e-18
7386.05278 7.67049e-18
7387.92516 7.58513e-18
7389.80767 7.57088e-18
7391.69017 7.55751e-18
7393.56256 7.54706e-18
7395.44506 7.49455e-18
7397.32757 7.46426e-18
7399.19995 7.48314e-18
7401.08246 7.46261e-18
7402.96497 7.54681e-18
7404.83735 7.52082e-18
7406.71986 7.42285e-18
7408.60236 7.40166e-18
7410.47475 7.30264e-18
7412.35725 7.28077e-18
7414.23976 7.34708e-18
7416.11215 7.36904e-18
7417.99465 7.39524e-18
7419.87716 7.26479e-18
7421.74954 7.27189e-18
7423.63205 7.27332e-18
7425.51455 7.22849e-18
7427.38694 7.27672e-18
7429.26944 7.34872e-18
7431.15195 7.35196e-18
7433.02434 7.18996e-18
7434.90684 7.16365e-18
7436.78935 7.26887e-18
7438.66173 7.13580e-18
7440.54424 6.95782e-18
7442.42674 7.07893e-18
7444.29913 7.20169e-18
7446.18164 7.07691e-18
7448.06414 7.06914e-18
7449.93653 7.13027e-18
7451.81903 7.04139e-18
7453.70154 7.03841e-18
7455.57392 7.01452e-18
7457.45643 7.02990e-18
7459.33894 7.09727e-18
7461.21132 7.00633e-18
7463.09383 6.86494e-18
7464.97633 6.89663e-18
7466.84872 6.90442e-18
7468.73122 6.87400e-18
7470.61373 6.77891e-18
7472.48611 6.87390e-18
7474.36862 6.82890e-18
7476.25113 6.77168e-18
7478.12351 6.74978e-18
7480.00602 6.86173e-18
7481.88852 6.88691e-18
7483.76091 6.97701e-18
7485.64341 7.01140e-18
7487.52592 6.89769e-18
7489.39831 6.92187e-18
7491.28081 6.88618e-18
7493.16332 6.79376e-18
7495.03570 6.74444e-18
7496.91821 6.80130e-18
7498.80071 6.76928e-18
7500.67310 6.78932e-18
7502.55561 6.78374e-18
7504.43811 6.85479e-18
7506.31050 6.95325e-18
7508.19300 6.84337e-18
7510.07551 6.73459e-18
7511.94789 6.66141e-18
7513.83040 6.52929e-18
7515.71291 6.60742e-18
7517.58529 6.59282e-18
7519.46780 6.47987e-18
7521.35030 6.54983e-18
7523.22269 6.66299e-18
7525.10519 6.74790e-18
7526.98770 6.82794e-18
7528.86009 6.73154e-18
7530.74259 6.63036e-18
7532.62510 6.72820e-18
7534.49748 6.69037e-18
7536.37999 6.74955e-18
7538.26249 6.70020e-18
7540.13488 6.75672e-18
7542.01739 6.78425e-18
7543.89989 6.78619e-18
7545.77228 6.87776e-18
7547.65478 6.78748e-18
7549.53729 6.76366e-18
7551.40967 6.76837e-18
7553.29218 6.77307e-18
7555.17468 6.77777e-18
7557.04707 6.78247e-18
7558.92958 6.78717e-18
7560.81208 6.79186e-18
7562.68447 6.79656e-18
7564.56697 6.80126e-18
7566.44948 6.80596e-18
7568.32186 6.81065e-18
7570.20437 6.81535e-18
7572.08688 6.82005e-18
7573.95926 6.82474e-18
7575.84177 6.82944e-18
7577.72427 6.83413e-18
7579.59666 6.83883e-18
7581.47916 6.84352e-18
7583.36167 6.84821e-18
7585.23405 6.85291e-18
7587.11656 6.85760e-18
7588.99907 6.86229e-18
7590.87145 6.86698e-18
7592.75396 6.87167e-18
7594.63646 6.87636e-18
7596.50885 6.88105e-18
7598.39135 6.88574e-18
7600.27386 6.89043e-18
7602.14625 6.89512e-18
7604.02875 6.89981e-18
7605.91126 6.90450e-18
7607.78364 6.90918e-18
7609.66615 6.91387e-18
7611.54866 6.91856e-18
7613.42104 6.92324e-18
7615.30355 6.92793e-18
7617.18605 6.93261e-18
7619.05844 6.93730e-18
7620.94094 6.94198e-18
7622.82345 6.94666e-18
7624.69583 6.95135e-18
7626.57834 6.95603e-18
7628.46085 6.96071e-18
7630.33323 6.96539e-18
7632.21574 6.97007e-18
7634.09824 6.97476e-18
7635.97063 6.97944e-18
7637.85313 6.98412e-18
7639.73564 6.98880e-18
7641.60802 6.99347e-18
7643.49053 6.99815e-18
7645.37304 7.00283e-18
7647.24542 7.00751e-18
7649.12793 7.01219e-18
7651.01043 7.01686e-18
7652.88282 7.02154e-18
7654.76533 7.02622e-18
7656.64783 7.03089e-18
7658.52022 7.03557e-18
7660.40272 7.04024e-18
7662.28523 7.04492e-18
7664.15761 7.04959e-18
7666.04012 7.05426e-18
7667.92263 7.05894e-18
7669.79501 7.06361e-18
7671.67752 7.06828e-18
7673.56002 7.07295e-18
7675.43241 7.07762e-18
7677.31491 7.08229e-18
7679.19742 7.08696e-18
7681.06980 7.09163e-18
7682.95231 7.07435e-18
7684.83482 7.22352e-18
7686.70720 7.10510e-18
7688.58971 6.99769e-18
7690.47221 7.04921e-18
7692.34460 7.07584e-18
7694.22710 7.16703e-18
7696.10961 7.24593e-18
7697.98200 7.19314e-18
7699.86450 7.19058e-18
7701.74701 7.14461e-18
7703.61939 7.09712e-18
7705.50190 7.07946e-18
7707.38440 7.05491e-18
7709.25679 7.09087e-18
7711.13929 7.20738e-18
7713.02180 7.37041e-18
7714.89419 7.36023e-18
7716.77669 7.41869e-18
7718.65920 7.38229e-18
7720.53158 7.30137e-18
7722.41409 7.31902e-18
7724.29659 7.23462e-18
7726.16898 7.13810e-18
7728.05149 7.11412e-18
7729.93399 7.13903e-18
7731.80638 7.19720e-18
7733.68888 7.35265e-18
7735.57139 7.47136e-18
7737.44377 7.47475e-18
7739.32628 7.36606e-18
7741.20879 7.26902e-18
7743.08117 7.36026e-18
7744.96368 7.54238e-18
7746.84618 7.58933e-18
7748.71857 7.53149e-18
7750.60107 7.42236e-18
7752.48358 7.37046e-18
7754.35596 7.29441e-18
7756.23847 7.22011e-18
7758.12098 7.09591e-18
7759.99336 7.05611e-18
7761.87587 7.23333e-18
7763.75837 7.39175e-18
7765.63076 7.39802e-18
7767.51326 7.40024e-18
7769.39577 7.32566e-18
7771.26816 7.31105e-18
7773.15066 7.45091e-18
7775.03317 7.49413e-18
7776.90555 7.39036e-18
7778.78806 7.39306e-18
7780.67056 7.52333e-18
7782.54295 7.48839e-18
7784.42546 7.49413e-18
7786.30796 7.46126e-18
7788.18035 7.37452e-18
7790.06285 7.44596e-18
7791.94536 7.59311e-18
7793.81774 7.59423e-18
7795.70025 7.43810e-18
7797.58276 7.31191e-18
7799.45514 7.37350e-18
7801.33765 7.54402e-18
7803.22015 7.60084e-18
7805.09254 7.48526e-18
7806.97504 7.43400e-18
7808.85755 7.38269e-18
7810.72994 7.43237e-18
7812.61244 7.40914e-18
7814.49495 7.44990e-18
7816.36733 7.62186e-18
7818.24984 7.51752e-18
7820.13234 7.60561e-18
7822.00473 7.78705e-18
7823.88724 7.69750e-18
7825.76974 7.65492e-18
7827.64213 7.69047e-18
7829.52463 7.61110e-18
7831.40714 7.79603e-18
7833.27952 7.82501e-18
7835.16203 7.76463e-18
7837.04453 7.69901e-18
7838.91692 7.52692e-18
7840.79943 7.51238e-18
7842.68193 7.61107e-18
7844.55432 7.56792e-18
7846.43682 7.39615e-18
7848.31933 7.31883e-18
7850.19171 7.42985e-18
7852.07422 7.56718e-18
7853.95673 7.65772e-18
7855.82911 7.63329e-18
7857.71162 7.69121e-18
7859.59412 7.87959e-18
7861.46651 7.73199e-18
7863.34901 7.61566e-18
7865.23152 7.70103e-18
7867.10390 7.86652e-18
7868.98641 7.88064e-18
7870.86892 7.84883e-18
7872.74130 7.84345e-18
7874.62381 7.88020e-18
7876.50631 7.91253e-18
7878.37870 7.75990e-18
7880.26120 7.73872e-18
7882.14371 7.78049e-18
7884.01610 7.77154e-18
7885.89860 7.89436e-18
7887.78111 7.88245e-18
7889.65349 7.63467e-18
7891.53600 7.57441e-18
7893.41851 7.62992e-18
7895.29089 7.62618e-18
7897.17340 7.68991e-18
7899.05590 7.75333e-18
7900.92829 7.90475e-18
7902.81079 8.05910e-18
7904.69330 8.06436e-18
7906.56568 7.96734e-18
7908.44819 7.56957e-18
7910.33070 7.51223e-18
7912.20308 7.91042e-18
7914.08559 8.10545e-18
7915.96809 8.23318e-18
7917.84048 8.09059e-18
7919.72298 7.95705e-18
7921.60549 8.02599e-18
7923.47787 7.92382e-18
7925.36038 7.79644e-18
7927.24289 7.84861e-18
7929.11527 8.10377e-18
7930.99778 8.09000e-18
7932.88028 8.09403e-18
7934.75267 8.07583e-18
7936.63518 8.00372e-18
7938.50756 8.04673e-18
7940.39007 7.98354e-18
7942.27257 8.03316e-18
7944.14496 8.06006e-18
7946.02746 7.85273e-18
7947.90997 7.73791e-18
7949.79248 7.83526e-18
7951.66486 7.88718e-18
7953.54737 7.77849e-18
7955.41975 7.72444e-18
7957.30226 7.72590e-18
7959.18476 7.60968e-18
7961.05715 7.86695e-18
7962.93965 7.94391e-18
7964.82216 7.91225e-18
7966.69454 7.77805e-18
7968.57705 7.80948e-18
7970.45956 7.71939e-18
7972.33194 7.64532e-18
7974.21445 7.63635e-18
7976.09695 7.72722e-18
7977.96934 7.69722e-18
7979.85185 7.68130e-18
7981.73435 7.87835e-18
7983.60674 7.86930e-18
7985.48924 7.82263e-18
7987.37175 7.73484e-18
7989.24413 7.72841e-18
7991.12664 7.70532e-18
7993.00914 7.62576e-18
7994.88153 7.69666e-18
7996.76404 7.57609e-18
7998.64654 7.50805e-18
8000.51893 7.57282e-18
8002.40143 7.61271e-18
8004.28394 7.58219e-18
8006.15632 7.56089e-18
8008.03883 7.62522e-18
8009.92134 7.49652e-18
8011.79372 7.46908e-18
8013.67623 7.59294e-18
8015.55873 7.71222e-18
8017.43112 7.65358e-18
8019.31362 7.41152e-18
8021.19613 7.43870e-18
8023.06851 7.59421e-18
8024.95102 7.53500e-18
8026.83353 7.64233e-18
8028.70591 7.68130e-18
8030.58842 7.53683e-18
8032.47092 7.45231e-18
8034.34331 7.47083e-18
8036.22581 7.54308e-18
8038.10832 7.54861e-18
8039.98071 7.64272e-18
8041.86321 7.59533e-18
8043.74572 7.60619e-18
8045.61810 7.90116e-18
8047.50061 7.93256e-18
8049.38311 7.60661e-18
8051.25550 7.57684e-18
8053.13801 7.62416e-18
8055.02051 7.63860e-18
8056.89290 7.82488e-18
8058.77540 7.94803e-18
8060.65791 7.90491e-18
8062.53029 7.93901e-18
8064.41280 8.03562e-18
8066.29531 7.97480e-18
8068.16769 8.06279e-18
8070.05020 8.04635e-18
8071.93270 7.92772e-18
8073.80509 7.76227e-18
8075.68759 7.70562e-18
8077.57010 7.88403e-18
8079.44249 8.05570e-18
8081.32499 8.02731e-18
8083.20750 7.99401e-18
8085.07988 8.07846e-18
8086.96239 8.20477e-18
8088.84489 8.26088e-18
8090.71728 8.06987e-18
8092.59979 7.94661e-18
8094.48229 8.12483e-18
8096.35468 8.08085e-18
8098.23718 8.00695e-18
8100.11969 7.95988e-18
8101.99207 7.99673e-18
8103.87458 7.93922e-18
8105.75709 7.96651e-18
8107.62947 7.99440e-18
8109.51198 7.95899e-18
8111.39448 8.01470e-18
8113.26687 8.03186e-18
8115.14937 7.99487e-18
8117.03188 8.05257e-18
8118.90426 8.00858e-18
8120.78677 7.93289e-18
8122.66928 7.85500e-18
8124.54166 7.85273e-18
8126.42417 7.79205e-18
8128.30667 7.72975e-18
8130.17906 7.55556e-18
8132.06156 7.33615e-18
8133.94407 7.22454e-18
8135.81646 7.47687e-18
8137.69896 7.65989e-18
8139.58147 7.68491e-18
8141.45385 7.59338e-18
8143.33636 7.61011e-18
8145.21886 7.64381e-18
8147.09125 7.51836e-18
8148.97375 7.40073e-18
8150.85626 7.39610e-18
8152.72865 7.40492e-18
8154.61115 7.29202e-18
8156.49366 7.49180e-18
8158.36604 7.64071e-18
8160.24855 7.22316e-18
8162.13105 6.82010e-18
8164.00344 6.96051e-18
8165.88595 7.31612e-18
8167.76845 7.32749e-18
8169.64084 7.29047e-18
8171.52334 7.66551e-18
8173.40585 7.99879e-18
8175.27823 7.70255e-18
8177.16074 7.17576e-18
8179.04325 7.18193e-18
8180.91563 7.43658e-18
8182.79814 7.66830e-18
8184.68064 8.06365e-18
8186.55303 8.05638e-18
8188.43553 7.77816e-18
8190.31804 7.81314e-18
8192.19043 8.01242e-18
8194.07293 7.99351e-18
8195.95544 7.65773e-18
8197.82782 7.48080e-18
8199.71033 7.72512e-18
8201.59283 8.19093e-18
8203.46522 8.38132e-18
8205.34772 8.40809e-18
8207.23023 8.50499e-18
8209.10262 8.43985e-18
8210.98512 8.34696e-18
8212.86763 8.39537e-18
8214.74001 8.39963e-18
8216.62252 8.31767e-18
8218.50503 8.24283e-18
8220.37741 8.28533e-18
8222.25992 8.21821e-18
8224.14242 7.78138e-18
8226.01481 7.10492e-18
8227.89731 6.55465e-18
8229.77982 6.52977e-18
8231.65220 6.91182e-18
8233.53471 7.47011e-18
8235.41722 8.02575e-18
8237.28960 8.29827e-18
8239.17211 8.35578e-18
8241.05461 8.31673e-18
8242.92700 8.37673e-18
8244.80950 8.54154e-18
8246.69201 8.89435e-18
8248.56439 9.08848e-18
8250.44690 8.91908e-18
8252.32941 8.63245e-18
8254.20179 8.53188e-18
8256.08430 8.39496e-18
8257.96680 8.32996e-18
8259.83919 8.38085e-18
8261.72170 8.41823e-18
8263.60420 8.52287e-18
8265.47659 8.63579e-18
8267.35909 8.71342e-18
8269.24160 8.59987e-18
8271.11398 8.43080e-18
8272.99649 8.33270e-18
8274.87899 8.43237e-18
8276.75138 8.39990e-18
8278.63389 8.26788e-18
8280.51639 8.20393e-18
8282.38878 8.34477e-18
8284.27128 8.49989e-18
8286.15379 8.68014e-18
8288.02617 8.70391e-18
8289.90868 8.67194e-18
8291.79119 8.85389e-18
8293.66357 8.87583e-18
8295.54608 8.75176e-18
8297.42858 8.71468e-18
8299.30097 8.75784e-18
8301.18347 8.58692e-18
8303.06598 8.48762e-18
8304.93836 8.68730e-18
8306.82087 9.13192e-18
8308.70338 9.47335e-18
8310.57576 9.35491e-18
8312.45827 9.00666e-18
8314.34077 8.92018e-18
8316.21316 8.87866e-18
8318.09566 8.75826e-18
8319.97817 8.67153e-18
8321.85056 8.77241e-18
8323.73306 9.19658e-18
8325.61557 9.50794e-18
8327.48795 9.41904e-18
8329.37046 9.34874e-18
8331.25296 9.26547e-18
8333.12535 9.27993e-18
8335.00786 9.25743e-18
8336.89036 9.06038e-18
8338.76275 8.97513e-18
8340.64525 9.07444e-18
8342.52776 9.23288e-18
8344.40014 9.73253e-18
8346.28265 9.90760e-18
8348.16516 9.71665e-18
8350.03754 9.66941e-18
8351.92005 9.60254e-18
8353.80255 9.73122e-18
8355.67494 9.77517e-18
8357.55744 9.78353e-18
8359.43995 9.93891e-18
8361.31234 1.00503e-17
8363.19484 9.95822e-18
8365.07735 9.83048e-18
8366.94973 9.78828e-18
8368.83224 1.00181e-17
8370.71474 1.02433e-17
8372.58713 1.01552e-17
8374.46963 1.00033e-17
8376.35214 1.00013e-17
8378.22453 1.02355e-17
8380.10703 1.03776e-17
8381.98954 1.03294e-17
8383.86192 1.01976e-17
8385.74443 1.01695e-17
8387.62694 1.02429e-17
8389.49932 1.02288e-17
8391.38183 1.02666e-17
8393.26433 1.02953e-17
8395.13672 1.02276e-17
8397.01922 1.04518e-17
8398.90173 1.09130e-17
8400.77411 1.10490e-17
8402.65662 1.08765e-17
8404.53913 1.05446e-17
8406.41151 1.03399e-17
8408.29402 1.03128e-17
8410.17652 1.03431e-17
8412.04891 1.04840e-17
8413.93141 1.06504e-17
8415.81392 1.05753e-17
8417.68630 1.04744e-17
8419.56881 1.06066e-17
8421.45132 1.05757e-17
8423.32370 1.03830e-17
8425.20621 1.00978e-17
8427.08871 1.00366e-17
8428.96110 1.06593e-17
8430.84361 1.12741e-17
8432.72611 1.10842e-17
8434.59850 1.07211e-17
8436.48100 1.06584e-17
8438.36351 1.05904e-17
8440.23589 1.04489e-17
8442.11840 1.03898e-17
8443.99078 1.04920e-17
8445.87329 1.06605e-17
8447.75580 1.07964e-17
8449.63830 1.08707e-17
8451.51069 1.10104e-17
8453.39319 1.08086e-17
8455.27570 1.06285e-17
8457.14808 1.05007e-17
8459.03059 1.05961e-17
8460.90298 1.06824e-17
8462.78548 1.05885e-17
8464.66799 1.06863e-17
8466.55049 1.08387e-17
8468.42288 1.08933e-17
8470.30538 1.09225e-17
8472.18789 1.09902e-17
8474.06027 1.11275e-17
8475.94278 1.11975e-17
8477.81517 1.10562e-17
8479.69767 1.10271e-17
8481.58018 1.09168e-17
8483.46268 1.10408e-17
8485.33507 1.10889e-17
8487.21758 1.08982e-17
8489.10008 1.08559e-17
8490.97247 1.07882e-17
8492.85497 1.08742e-17
8494.72736 1.10938e-17
8496.60986 1.09766e-17
8498.49237 1.10340e-17
8500.37487 1.13455e-17
8502.24726 1.14546e-17
8504.12977 1.10404e-17
8506.01227 1.07598e-17
8507.88466 1.09671e-17
8509.76716 1.12112e-17
8511.63955 1.11760e-17
8513.52205 1.10811e-17
8515.40456 1.11484e-17
8517.28707 1.11364e-17
8519.15945 1.10709e-17
8521.04196 1.12037e-17
8522.92446 1.12735e-17
8524.79685 1.12173e-17
8526.67935 1.12572e-17
8528.55174 1.14839e-17
8530.43425 1.15260e-17
8532.31675 1.13647e-17
8534.19926 1.11703e-17
8536.07164 1.11477e-17
8537.95415 1.10057e-17
8539.83665 1.08485e-17
8541.70904 1.09568e-17
8543.59155 1.08693e-17
8545.46393 1.08227e-17
8547.34644 1.12267e-17
8549.22894 1.12818e-17
8551.11145 1.12224e-17
8552.98383 1.13815e-17
8554.86634 1.16811e-17
8556.74885 1.16363e-17
8558.62123 1.15648e-17
8560.50374 1.14409e-17
8562.37612 1.12549e-17
8564.25863 1.11545e-17
8566.14113 1.10414e-17
8568.01352 1.09422e-17
8569.89602 1.09278e-17
8571.77853 1.10812e-17
8573.66104 1.11092e-17
8575.53342 1.10902e-17
8577.41593 1.12045e-17
8579.28831 1.10101e-17
8581.17082 1.11341e-17
8583.05332 1.13213e-17
8584.92571 1.13352e-17
8586.80821 1.12597e-17
8588.69072 1.14146e-17
8590.57323 1.15628e-17
8592.44561 1.14031e-17
8594.32812 1.14371e-17
8596.20050 1.16132e-17
8598.08301 1.16077e-17
8599.96551 1.15458e-17
8601.83790 1.13449e-17
8603.72041 1.13103e-17
8605.60291 1.13006e-17
8607.48542 1.11737e-17
8609.35780 1.12558e-17
8611.24031 1.13202e-17
8613.11269 1.14143e-17
8614.99520 1.15919e-17
8616.87771 1.15813e-17
8618.75009 1.13894e-17
8620.63260 1.12981e-17
8622.51510 1.11534e-17
8624.39761 1.11237e-17
8626.26999 1.08331e-17
8628.15250 1.07427e-17
8630.02489 1.08786e-17
8631.90739 1.07929e-17
8633.78990 1.05739e-17
8635.66228 1.07876e-17
8637.54479 1.10933e-17
8639.42729 1.12486e-17
8641.29968 1.13633e-17
8643.18218 1.15524e-17
8645.06469 1.16233e-17
8646.93708 1.13910e-17
8648.81958 1.11223e-17
8650.70209 1.08193e-17
8652.57447 1.07153e-17
8654.45698 1.07270e-17
8656.33949 1.08185e-17
8658.21187 1.10083e-17
8660.09438 1.13585e-17
8661.97688 1.14550e-17
8663.84927 1.11456e-17
8665.73177 1.10910e-17
8667.61428 1.12087e-17
8669.48666 1.11394e-17
8671.36917 1.09835e-17
8673.25168 1.10883e-17
8675.12406 1.11466e-17
8677.00657 1.10800e-17
8678.88907 1.11733e-17
8680.76146 1.12143e-17
8682.64396 1.09891e-17
8684.52647 1.08009e-17
8686.39885 1.09183e-17
8688.28136 1.10551e-17
8690.16387 1.09222e-17
8692.03625 1.07492e-17
8693.91876 1.06787e-17
8695.80126 1.07035e-17
8697.67365 1.09454e-17
8699.55615 1.10486e-17
8701.43866 1.09575e-17
8703.31105 1.08152e-17
8705.19355 1.08048e-17
8707.07606 1.08183e-17
8708.94844 1.10767e-17
8710.83095 1.12546e-17
8712.71345 1.12159e-17
8714.58584 1.11502e-17
8716.46835 1.11174e-17
8718.35085 1.09573e-17
8720.22324 1.07552e-17
8722.10574 1.06951e-17
8723.98825 1.06999e-17
8725.86063 1.06636e-17
8727.74314 1.07256e-17
8729.62565 1.08905e-17
8731.49803 1.08334e-17
8733.38054 1.06216e-17
8735.26304 1.05967e-17
8737.13543 1.07786e-17
8739.01793 1.09333e-17
8740.90044 1.09430e-17
8742.77283 1.10419e-17
8744.65533 1.10697e-17
8746.53784 1.10943e-17
8748.41022 1.11958e-17
8750.29273 1.11006e-17
8752.17523 1.09041e-17
8754.04762 1.07793e-17
8755.93013 1.08277e-17
8757.81263 1.09201e-17
8759.68502 1.09954e-17
8761.56752 1.09160e-17
8763.45003 1.04790e-17
8765.32241 1.03021e-17
8767.20492 1.07236e-17
8769.08742 1.06490e-17
8770.95981 1.07894e-17
8772.84232 1.17922e-17
8774.72482 1.21331e-17
8776.59721 1.14938e-17
8778.47971 1.10935e-17
8780.36222 1.11186e-17
8782.23460 1.11133e-17
8784.11711 1.09631e-17
8785.99962 1.05925e-17
8787.87200 1.05716e-17
8789.75451 1.09594e-17
8791.63701 1.10319e-17
8793.50940 1.09411e-17
8795.39190 1.09079e-17
8797.27441 1.10255e-17
8799.14680 1.10490e-17
8801.02930 1.10525e-17
8802.91181 1.10206e-17
8804.78419 1.08360e-17
8806.66670 1.06556e-17
8808.54920 1.06245e-17
8810.42159 1.06329e-17
8812.30410 1.05838e-17
8814.18660 1.10472e-17
8816.05899 1.15149e-17
8817.94149 1.09359e-17
8819.82400 1.02474e-17
8821.69638 1.03872e-17
8823.57889 1.06513e-17
8825.46140 1.07474e-17
8827.33378 1.13647e-17
8829.21629 1.15866e-17
8831.09879 1.15073e-17
8832.97118 1.14051e-17
8834.85368 1.14127e-17
8836.73619 1.13271e-17
8838.60857 1.08244e-17
8840.49108 1.08101e-17
8842.37359 1.07432e-17
8844.24597 1.06299e-17
8846.12848 1.07733e-17
8848.01098 1.09802e-17
8849.88337 1.08572e-17
8851.76587 1.06904e-17
8853.64838 1.06746e-17
8855.52076 1.05986e-17
8857.40327 1.03932e-17
8859.28578 1.04782e-17
8861.15816 1.08749e-17
8863.04067 1.12066e-17
8864.92317 1.12734e-17
8866.79556 1.11477e-17
8868.67807 1.10845e-17
8870.56057 1.08870e-17
8872.43296 1.02155e-17
8874.31546 9.82217e-18
8876.19797 1.01265e-17
8878.07035 1.05884e-17
8879.95286 1.09368e-17
8881.83536 1.13134e-17
8883.70775 1.15047e-17
8885.59026 1.13452e-17
8887.47276 1.09072e-17
8889.34515 1.03740e-17
8891.22765 1.03554e-17
8893.11016 1.03083e-17
8894.98254 1.05362e-17
8896.86505 1.18266e-17
8898.74756 1.23825e-17
8900.61994 1.26903e-17
8902.50245 1.20929e-17
8904.38495 1.14473e-17
8906.25734 1.19313e-17
8908.13984 1.23487e-17
8910.02235 1.21720e-17
8911.89473 1.18038e-17
8913.77724 1.18706e-17
8915.65975 1.18438e-17
8917.53213 1.17384e-17
8919.41464 1.15126e-17
8921.29714 1.15872e-17
8923.16953 1.15571e-17
8925.05204 1.19514e-17
8926.93454 1.20557e-17
8928.80693 1.16700e-17
8930.68943 1.11568e-17
8932.57194 1.09398e-17
8934.44432 1.10357e-17
8936.32683 1.15505e-17
8938.20933 1.20891e-17
8940.08172 1.09685e-17
8941.96423 1.02264e-17
8943.84673 1.06304e-17
8945.71912 1.11780e-17
8947.60162 1.05217e-17
8949.48413 9.80119e-18
8951.35651 1.06434e-17
8953.23902 1.13974e-17
8955.12153 1.14252e-17
8956.99391 1.14083e-17
8958.87642 1.13817e-17
8960.75892 1.02998e-17
8962.63131 8.93861e-18
8964.51381 8.61457e-18
8966.39632 9.37425e-18
8968.26870 1.11773e-17
8970.15121 1.18766e-17
8972.03372 1.12520e-17
8973.90610 9.97768e-18
8975.78861 9.60668e-18
8977.67111 9.80507e-18
8979.54350 9.86163e-18
8981.42600 1.03984e-17
8983.30851 1.07814e-17
8985.18090 1.05624e-17
8987.06340 1.02725e-17
8988.94591 1.07486e-17
8990.81829 1.13434e-17
8992.70080 1.10936e-17
8994.58331 9.71929e-18
8995.84139 9.71929e-18
8997.49898 9.91672e-18
8999.15657 1.01005e-17
9000.82421 1.02844e-17
9002.48180 1.06104e-17
9004.13939 1.09362e-17
9005.79698 1.08024e-17
9007.46461 1.06686e-17
9009.12220 1.06006e-17
9010.77979 1.05328e-17
9012.44743 1.08342e-17
9014.10502 1.11353e-17
9015.76261 1.05778e-17
9017.42020 1.00206e-17
9019.08783 1.01238e-17
9020.74542 1.02269e-17
9022.40301 9.93901e-18
9024.07065 9.65128e-18
9025.72824 9.73587e-18
9027.38583 9.82049e-18
9029.04342 1.00264e-17
9030.71106 1.02323e-17
9032.36865 1.06762e-17
9034.02624 1.11196e-17
9035.68383 1.05341e-17
9037.35146 9.94870e-18
9039.00905 9.76780e-18
9040.66664 9.58709e-18
9042.33428 9.92369e-18
9043.99187 1.02600e-17
9045.64946 9.80430e-18
9047.30705 9.34861e-18
9048.97468 8.86822e-18
9050.63227 8.38833e-18
9052.28986 9.12752e-18
9053.95750 9.86645e-18
9055.61509 9.97493e-18
9057.27268 1.00831e-17
9058.93027 9.54280e-18
9060.59791 9.00262e-18
9062.25550 8.88678e-18
9063.91309 8.77104e-18
9065.57068 8.88650e-18
9067.23831 9.00179e-18
9068.89590 8.61810e-18
9070.55349 8.23475e-18
9072.21108 8.66211e-18
9073.87872 9.08928e-18
9075.53631 9.09615e-18
9077.19390 9.10304e-18
9078.86153 9.18903e-18
9080.51912 9.27465e-18
9082.17671 8.54015e-18
9083.83430 7.80618e-18
9085.50194 8.34750e-18
9087.15953 8.88873e-18
9088.81712 9.23521e-18
9090.48476 9.58139e-18
9092.14235 9.25525e-18
9093.79994 8.92964e-18
9095.45753 9.57006e-18
9097.12516 1.02099e-17
9098.78275 9.50836e-18
9100.44034 8.80729e-18
9102.09793 9.24409e-18
9103.76557 9.68108e-18
9105.42316 1.05401e-17
9107.08075 1.13986e-17
9108.74838 1.09426e-17
9110.40597 1.04864e-17
9112.06356 9.87081e-18
9113.72115 9.25539e-18
9115.38879 9.07354e-18
9117.04638 8.89188e-18
9118.70397 9.10337e-18
9120.36156 9.31475e-18
9122.02920 9.20597e-18
9123.68679 9.09729e-18
9125.34438 9.30672e-18
9127.01201 9.51612e-18
9128.66960 9.78982e-18
9130.32719 1.00634e-17
9131.98478 1.02033e-17
9133.65242 1.03432e-17
9135.31001 1.03245e-17
9136.96760 1.03058e-17
9138.63523 1.04838e-17
9140.29282 1.06616e-17
9141.95041 1.03204e-17
9143.60800 9.97929e-18
9145.27564 1.00557e-17
9146.93323 1.01319e-17
9148.59082 9.98635e-18
9150.24841 9.84064e-18
9151.91605 9.43482e-18
9153.57364 9.02944e-18
9155.23123 9.75459e-18
9156.89886 1.04794e-17
9158.55645 1.05582e-17
9160.21404 1.06369e-17
9161.87163 1.04485e-17
9163.53927 1.02599e-17
9165.19686 9.68401e-18
9166.85445 9.10854e-18
9168.51204 9.51899e-18
9170.17967 9.92930e-18
9171.83726 9.94568e-18
9173.49485 9.96204e-18
9175.15244 9.85085e-18
9176.82008 9.73991e-18
9178.47767 1.02555e-17
9180.13526 1.07710e-17
9181.80290 1.09221e-17
9183.46049 1.10731e-17
9185.11808 1.08754e-17
9186.77567 1.06780e-17
9188.44330 1.08042e-17
9190.10089 1.09303e-17
9191.75848 1.07782e-17
9193.42612 1.06260e-17
9195.08371 1.01903e-17
9196.74130 9.75501e-18
9198.39889 1.03833e-17
9200.06652 1.10113e-17
9201.72411 1.10345e-17
9203.38170 1.10576e-17
9205.03929 1.05403e-17
9206.70693 1.00231e-17
9208.36452 1.00095e-17
9210.02211 9.99603e-18
9211.68975 1.04328e-17
9213.34734 1.08694e-17
9215.00493 1.07492e-17
9216.66252 1.06291e-17
9218.33015 1.04325e-17
9219.98774 1.02360e-17
9221.64533 1.00278e-17
9223.31297 9.81979e-18
9224.97056 9.97848e-18
9226.62815 1.01369e-17
9228.28574 9.56830e-18
9229.95337 9.00031e-18
9231.61096 9.91993e-18
9233.26855 1.08393e-17
9234.92614 1.12841e-17
9236.59378 1.17284e-17
9238.25137 1.10576e-17
9239.90896 1.03870e-17
9241.56655 1.00413e-17
9243.23419 9.69604e-18
9244.89178 1.03761e-17
9246.54937 1.10556e-17
9248.21700 1.05485e-17
9249.87459 1.00415e-17
9251.53218 1.00778e-17
9253.18977 1.01140e-17
9254.85741 9.99913e-18
9256.51500 9.88437e-18
9258.17259 1.00224e-17
9259.84022 1.01605e-17
9261.49781 1.04128e-17
9263.15540 1.06650e-17
9264.81299 1.04795e-17
9266.48063 1.02938e-17
9268.13822 9.64193e-18
9269.79581 8.99065e-18
9271.45340 9.73804e-18
9273.12104 1.04850e-17
9274.77863 1.01297e-17
9276.43622 9.77480e-18
9278.10385 1.03126e-17
9279.76144 1.08500e-17
9281.41903 1.03230e-17
9283.07662 9.79629e-18
9284.74426 9.81022e-18
9286.40185 9.82423e-18
9288.05944 1.00723e-17
9289.71703 1.03200e-17
9291.38466 9.50297e-18
9293.04225 8.68636e-18
9294.69984 8.92976e-18
9296.36748 9.17320e-18
9298.02507 9.52789e-18
9299.68266 9.88242e-18
9301.34025 9.90111e-18
9303.00789 9.91976e-18
9304.66548 9.86224e-18
9306.32307 9.80458e-18
9307.99070 9.41336e-18
9309.64829 9.02222e-18
9311.30588 8.83849e-18
9312.96347 8.65494e-18
9314.63111 8.82917e-18
9316.28870 9.00313e-18
9317.94629 8.44758e-18
9319.60388 7.89197e-18
9321.27151 7.14723e-18
9322.92910 6.40316e-18
9324.58669 7.19747e-18
9326.25433 7.99147e-18
9327.91192 8.10101e-18
9329.56951 8.21061e-18
9331.22710 8.46840e-18
9332.89474 8.72591e-18
9334.55233 8.29079e-18
9336.20992 7.85591e-18
9337.87755 8.00846e-18
9339.53514 8.16098e-18
9341.19273 8.24744e-18
9342.85032 8.33410e-18
9344.51796 8.79644e-18
9346.17555 9.25863e-18
9347.83314 9.36923e-18
9349.49073 9.47930e-18
9351.15836 8.31105e-18
9352.81595 7.14324e-18
9354.47354 6.93764e-18
9356.13113 6.73259e-18
9357.79877 7.83317e-18
9359.45636 8.93324e-18
9361.11395 8.83023e-18
9362.78159 8.72747e-18
9364.43918 9.21537e-18
9366.09677 9.70305e-18
9367.75436 9.70260e-18
9369.42199 9.70213e-18
9371.07958 9.62884e-18
9372.73717 9.55502e-18
9374.40481 8.14985e-18
9376.06240 6.74532e-18
9377.71999 6.78157e-18
9379.37758 6.81805e-18
9381.04521 7.40385e-18
9382.70280 7.98940e-18
9384.36039 8.01812e-18
9386.01798 8.04681e-18
9387.68562 8.05169e-18
9389.34321 8.05652e-18
9391.00080 8.02482e-18
9392.66844 7.99331e-18
9394.32603 8.36262e-18
9395.98362 8.73163e-18
9397.64121 8.35327e-18
9399.30884 7.97508e-18
9400.96643 7.99791e-18
9402.62402 8.02077e-18
9404.28161 8.12719e-18
9405.94925 8.23346e-18
9407.60684 8.02024e-18
9409.26443 7.80730e-18
9410.93206 8.23034e-18
9412.58965 8.65321e-18
9414.24724 8.73283e-18
9415.90483 8.81229e-18
9417.57247 8.47747e-18
9419.23006 8.14279e-18
9420.88765 8.04650e-18
9422.54524 7.95011e-18
9424.21288 7.60396e-18
9425.87047 7.25836e-18
9427.52806 8.19844e-18
9429.19569 9.13784e-18
9430.85328 8.56784e-18
9432.51087 7.99797e-18
9434.16846 7.81628e-18
9435.83610 7.63424e-18
9437.49369 6.63260e-18
9439.15128 5.63121e-18
9440.80887 5.26086e-18
9442.47650 4.89138e-18
9444.13409 6.53469e-18
9445.79168 8.17728e-18
9447.45932 8.14728e-18
9449.11691 8.11736e-18
9450.77450 8.32040e-18
9452.43209 8.52313e-18
9454.09973 8.03221e-18
9455.75732 7.54130e-18
9457.41491 6.93889e-18
9459.07250 6.33685e-18
9460.74013 6.49936e-18
9462.39772 6.66204e-18
9464.05531 7.23832e-18
9465.72295 7.81402e-18
9467.38054 7.04366e-18
9469.03813 6.27389e-18
9470.69572 6.83468e-18
9472.36335 7.39551e-18
9474.02094 8.02766e-18
9475.67853 8.65971e-18
9477.34617 8.98426e-18
9479.00376 9.30850e-18
9480.66135 8.95719e-18
9482.31894 8.60604e-18
9483.98658 8.61428e-18
9485.64417 8.62229e-18
9487.30176 8.03986e-18
9488.95935 7.45766e-18
9490.62698 7.39671e-18
9492.28457 7.33573e-18
9493.94216 7.14586e-18
9495.60980 6.95650e-18
9497.26739 7.88279e-18
9498.92498 8.80852e-18
9500.58257 8.39944e-18
9502.25020 7.99057e-18
9503.90779 8.11200e-18
9505.56538 8.23349e-18
9507.23302 8.42506e-18
9508.89061 8.61626e-18
9510.54820 8.00188e-18
9512.20579 7.38764e-18
9513.87343 7.12317e-18
9515.53102 6.85874e-18
9517.18861 6.72592e-18
9518.84620 6.59352e-18
9520.51383 7.43536e-18
9522.17142 8.27658e-18
9523.82901 7.76510e-18
9525.49665 7.25395e-18
9527.15424 7.44675e-18
9528.81183 7.63934e-18
9530.46942 7.35035e-18
9532.13705 7.06164e-18
9533.79464 7.39939e-18
9535.45223 7.73700e-18
9537.10982 7.81595e-18
9538.77746 7.89493e-18
9540.43505 8.08253e-18
9542.09264 8.27002e-18
9543.76028 8.18161e-18
9545.41787 8.09294e-18
9547.07546 7.44410e-18
9548.73305 6.79539e-18
9550.40068 6.46428e-18
9552.05827 6.13401e-18
9553.71586 7.73532e-18
9555.37345 9.33560e-18
9557.04109 8.60501e-18
9558.69868 7.87467e-18
9560.35627 7.77010e-18
9562.02390 7.66572e-18
9563.68149 7.97760e-18
9565.33908 8.28914e-18
9566.99667 7.85879e-18
9568.66431 7.42866e-18
9570.32190 7.49073e-18
9571.97949 7.55288e-18
9573.64713 7.74425e-18
9575.30472 7.93526e-18
9576.96231 7.33374e-18
9578.61990 6.73251e-18
9580.28753 6.73156e-18
9581.94512 6.73072e-18
9583.60271 6.94453e-18
9585.27035 7.15814e-18
9586.92794 6.89050e-18
9588.58553 6.62294e-18
9590.24312 6.52640e-18
9591.91075 6.43017e-18
9593.56834 7.03638e-18
9595.22593 7.64219e-18
9596.88352 7.36084e-18
9598.55116 7.07983e-18
9600.20875 7.57767e-18
9601.86634 8.07528e-18
9603.52393 8.06219e-18
9605.19157 8.04924e-18
9606.84916 8.39377e-18
9608.50675 8.73774e-18
9610.17438 7.83110e-18
9611.83197 6.92486e-18
9613.48956 6.89097e-18
9615.14715 6.85707e-18
9616.81479 6.78266e-18
9618.47238 6.70834e-18
9620.12997 6.83270e-18
9621.79760 6.95709e-18
9623.45519 7.11581e-18
9625.11278 7.27452e-18
9626.77037 7.42593e-18
9628.43801 7.57733e-18
9630.09560 7.77671e-18
9631.75319 7.97598e-18
9633.41078 7.95608e-18
9635.07842 7.93635e-18
9636.73601 8.35989e-18
9638.39360 8.78298e-18
9640.06123 8.27069e-18
9641.71882 7.75871e-18
9643.37641 7.93598e-18
9645.03400 8.11284e-18
9646.70164 7.40332e-18
9648.35923 6.69433e-18
9650.01682 7.15689e-18
9651.67441 7.61919e-18
9653.34204 7.55651e-18
9654.99963 7.49363e-18
9656.65722 6.97255e-18
9658.31481 6.45183e-18
9659.98245 6.66807e-18
9661.64004 6.88456e-18
9663.29763 7.62051e-18
9664.96527 8.35570e-18
9666.62286 7.35864e-18
9668.28045 6.36227e-18
9669.93804 6.88548e-18
9671.60567 7.40868e-18
9673.26326 7.94380e-18
9674.92085 8.47872e-18
9676.58849 8.61804e-18
9678.24608 8.75711e-18
9679.90367 8.36938e-18
9681.56126 7.98223e-18
9683.22889 8.81505e-18
9684.88648 9.64723e-18
9686.54407 8.99584e-18
9688.20166 8.34432e-18
9689.86930 7.43050e-18
9691.52689 6.51753e-18
9693.18448 7.38875e-18
9694.85212 8.25964e-18
9696.50971 8.37273e-18
9698.16730 8.48604e-18
9699.82489 9.10120e-18
9701.49252 9.71527e-18
9703.15011 7.95750e-18
9704.80770 6.20071e-18
9706.46529 6.58496e-18
9708.13293 6.96912e-18
9709.79052 7.13037e-18
9711.44811 7.29124e-18
9713.11574 6.52177e-18
9714.77333 5.75300e-18
9716.43092 6.53547e-18
9718.08851 7.31792e-18
9719.75615 8.03004e-18
9721.41374 8.74151e-18
9723.07133 8.05365e-18
9724.73897 7.36620e-18
9726.39656 7.51267e-18
9728.05415 7.65916e-18
9729.71174 7.88634e-18
9731.37937 8.11318e-18
9733.03696 7.65788e-18
9734.69455 7.20285e-18
9736.35214 7.40098e-18
9738.01978 7.59913e-18
9739.67737 7.92814e-18
9741.33496 8.25699e-18
9743.00259 8.25149e-18
9744.66018 8.24583e-18
9746.31777 7.82220e-18
9747.97536 7.39860e-18
9749.64300 7.03769e-18
9751.30059 6.67728e-18
9752.95818 7.41412e-18
9754.62582 8.15032e-18
9756.28341 7.56020e-18
9757.94100 6.97046e-18
9759.59859 7.24801e-18
9761.26622 7.52550e-18
9762.92381 7.73086e-18
9764.58140 7.93607e-18
9766.23899 7.80493e-18
9767.90663 7.67403e-18
9769.56422 8.02524e-18
9771.22181 8.37616e-18
9772.87940 8.09769e-18
9774.54703 7.81919e-18
9776.20462 7.38817e-18
9777.86221 6.95717e-18
9779.52985 6.59369e-18
9781.18744 6.23068e-18
9782.84503 6.88246e-18
9784.50262 7.53391e-18
9786.17026 7.38245e-18
9787.82785 7.23191e-18
9789.48544 9.02238e-18
9791.15307 1.08116e-17
9792.81066 9.90784e-18
9794.46825 9.00433e-18
9796.12584 8.54534e-18
9797.79348 8.08669e-18
9799.45107 8.36106e-18
9801.10866 8.63457e-18
9802.76625 7.08689e-18
9804.43388 5.53972e-18
9806.09147 5.03192e-18
9807.74906 4.52494e-18
9809.41670 5.70810e-18
9811.07429 6.89081e-18
9812.73188 7.13679e-18
9814.38947 7.38275e-18
9816.05711 7.63468e-18
9817.71470 7.88639e-18
9819.37229 7.69237e-18
9821.03992 7.49818e-18
9822.69751 6.90543e-18
9824.35510 6.31338e-18
9826.01269 7.19024e-18
9827.68033 8.06649e-18
9829.33792 7.58330e-18
9830.99551 7.10048e-18
9832.65310 7.36866e-18
9834.32073 7.63658e-18
9835.97832 7.41973e-18
9837.63591 7.20277e-18
9839.30355 6.74328e-18
9840.96114 6.28444e-18
9842.61873 7.15644e-18
9844.27632 8.02847e-18
9845.94396 8.94513e-18
9847.60155 9.86115e-18
9849.25914 9.43979e-18
9850.91673 9.01839e-18
9852.58436 8.59108e-18
9854.24195 8.16377e-18
9855.89954 7.78519e-18
9857.56718 7.40678e-18
9859.22477 7.34424e-18
9860.88236 7.28172e-18
9862.53995 7.26322e-18
9864.20758 7.24539e-18
9865.86517 8.66663e-18
9867.52276 1.00871e-17
9869.18035 9.72066e-18
9870.84799 9.35458e-18
9872.50558 9.68837e-18
9874.16317 1.00224e-17
9875.83081 1.09335e-17
9877.48840 1.18435e-17
9879.14599 1.02970e-17
9880.80358 8.75050e-18
9882.47121 7.26601e-18
9884.12880 5.78281e-18
9885.78639 6.98458e-18
9887.44398 8.18610e-18
9889.11162 8.82635e-18
9890.76921 9.46638e-18
9892.42680 9.66152e-18
9894.09443 9.85671e-18
9895.75202 1.01537e-17
9897.40961 1.04506e-17
9899.06720 1.06088e-17
9900.73484 1.07662e-17
9902.39243 8.89306e-18
9904.05002 7.02075e-18
9905.70761 6.83968e-18
9907.37525 6.65855e-18
9909.03284 6.37511e-18
9910.69043 6.09181e-18
9912.35806 6.16513e-18
9914.01565 6.23892e-18
9915.67324 7.29032e-18
9917.33083 8.34102e-18
9918.99847 7.97748e-18
9920.65606 7.61423e-18
9922.31365 7.77855e-18
9923.98128 7.94293e-18
9925.63887 8.15200e-18
9927.29646 8.36117e-18
9928.95405 8.75862e-18
9930.62169 9.15506e-18
9932.27928 7.32470e-18
9933.93687 5.49498e-18
9935.59446 4.98043e-18
9937.26210 4.46697e-18
9938.91969 6.19418e-18
9940.57728 7.92089e-18
9942.23487 8.62857e-18
9943.90250 9.33591e-18
9945.56009 9.34099e-18
9947.21768 9.34548e-18
9948.88532 8.05348e-18
9950.54291 6.76279e-18
9952.20050 8.25322e-18
9953.85809 9.74293e-18
9955.52572 9.71990e-18
9957.18331 9.69640e-18
9958.84090 8.65421e-18
9960.50854 7.61236e-18
9962.16613 7.15795e-18
9963.82372 6.70368e-18
9965.48131 6.44371e-18
9967.14895 6.18360e-18
9968.80654 5.55627e-18
9970.46413 4.92914e-18
9972.12172 4.62948e-18
9973.78935 4.33000e-18
9975.44694 4.37035e-18
9977.10453 4.41129e-18
9978.77217 5.64212e-18
9980.42976 6.87230e-18
9982.08735 6.80920e-18
9983.74494 6.74635e-18
9985.41257 7.21092e-18
9987.07016 7.67557e-18
9988.72775 8.40103e-18
9990.39539 9.12601e-18
9992.05298 8.88532e-18
9993.71057 8.64431e-18
9995.36816 7.78076e-18
9997.03580 6.91690e-18
9998.69339 5.35084e-18
