# wavelength flux
3401.00011 4.61222e-18
3402.89274 4.11099e-18
3404.78537 4.70425e-18
3406.66787 5.54902e-18
3408.56050 5.86573e-18
3410.45313 4.79844e-18
3412.34576 7.15349e-18
3414.23838 8.70581e-18
3416.13101 2.81297e-18
3418.02364 -1.04096e-18
3419.91626 3.23864e-18
3421.79877 4.47087e-18
3423.69140 4.44040e-18
3425.58402 4.77804e-18
3427.47665 -2.84826e-19
3429.36928 -3.18441e-18
3431.26190 -8.48206e-20
3433.15453 7.08166e-18
3435.03704 1.33056e-17
3436.92966 7.09851e-18
3438.82229 9.11679e-19
3440.71492 5.13828e-18
3442.60754 7.31894e-18
3444.50017 4.44490e-18
3446.39280 4.22310e-18
3448.28543 6.33441e-18
3450.16793 6.11019e-18
3452.06056 8.65055e-18
3453.95319 5.85291e-18
3455.84581 5.10726e-18
3457.73844 7.88819e-18
3459.63107 8.71431e-18
3461.52369 7.14098e-18
3463.40620 6.67321e-18
3465.29883 6.22486e-18
3467.19145 6.54460e-18
3469.08408 7.38113e-18
3470.97671 6.71551e-18
3472.86933 5.04779e-18
3474.76196 3.65427e-18
3476.65459 3.72567e-18
3478.53709 3.75430e-18
3480.42972 4.98997e-18
3482.32235 7.10476e-18
3484.21498 5.78394e-18
3486.10760 7.34874e-18
3488.00023 1.02899e-17
3489.89286 1.14593e-17
3491.77536 9.05080e-18
3493.66799 6.69653e-18
3495.56062 8.22791e-18
3497.45324 8.37283e-18
3499.34587 7.16187e-18
3501.23850 6.82435e-18
3503.13112 1.23840e-17
3505.02375 1.68786e-17
3506.90626 1.34287e-17
3508.79888 9.17745e-18
3510.69151 7.24159e-18
3512.58414 6.43984e-18
3514.47677 6.00914e-18
3516.36939 5.46827e-18
3518.26202 7.12220e-18
3520.14453 1.02745e-17
3522.03715 1.12447e-17
3523.92978 1.02200e-17
3525.82241 9.80650e-18
3527.71503 1.13329e-17
3529.60766 1.42589e-17
3531.50029 1.36233e-17
3533.39291 7.55991e-18
3535.27542 4.73510e-18
3537.16805 7.74138e-18
3539.06068 1.09954e-17
3540.95330 1.10010e-17
3542.84593 8.81096e-18
3544.73856 5.45109e-18
3546.63118 5.79390e-18
3548.52381 7.92427e-18
3550.40632 8.05076e-18
3552.29894 9.04460e-18
3554.19157 1.04572e-17
3556.08420 1.20820e-17
3557.97682 1.13565e-17
3559.86945 8.09138e-18
3561.76208 6.85498e-18
3563.64458 8.61675e-18
3565.53721 9.55695e-18
3567.42984 1.06372e-17
3569.32247 1.21649e-17
3571.21509 1.23508e-17
3573.10772 1.30018e-17
3575.00035 1.37750e-17
3576.88285 1.19698e-17
3578.77548 9.52413e-18
3580.66811 1.07106e-17
3582.56073 1.37221e-17
3584.45336 1.35690e-17
3586.34599 1.23408e-17
3588.23861 1.04571e-17
3590.13124 1.16213e-17
3592.01375 1.42900e-17
3593.90637 1.14244e-17
3595.79900 8.93398e-18
3597.69163 1.13263e-17
3599.58426 1.23233e-17
3601.47688 1.31137e-17
3603.36951 1.36034e-17
3605.26214 1.25818e-17
3607.14464 1.08161e-17
3609.03727 1.04147e-17
3610.92990 9.36254e-18
3612.82252 9.72343e-18
3614.71515 1.19036e-17
3616.60778 1.23220e-17
3618.50040 1.25607e-17
3620.38291 1.28475e-17
3622.27554 1.01143e-17
3624.16816 8.13719e-18
3626.06079 1.00342e-17
3627.95342 1.18076e-17
3629.84604 1.14568e-17
3631.73867 9.90548e-18
3633.63130 9.31229e-18
3635.51381 9.94873e-18
3637.40643 9.58749e-18
3639.29906 9.00946e-18
3641.19169 8.94001e-18
3643.08431 9.28604e-18
3644.97694 1.00817e-17
3646.86957 9.53456e-18
3648.75207 9.15740e-18
3650.64470 1.00954e-17
3652.53733 1.08553e-17
3654.42995 1.00902e-17
3656.32258 9.85876e-18
3658.21521 9.43482e-18
3660.10783 1.01762e-17
3662.00046 1.03441e-17
3663.88297 9.76648e-18
3665.77559 9.45384e-18
3667.66822 9.30415e-18
3669.56085 1.03586e-17
3671.45348 1.11416e-17
3673.34610 1.02824e-17
3675.23873 1.02145e-17
3677.13136 1.09902e-17
3679.01386 1.04819e-17
3680.90649 9.63254e-18
3682.79912 9.91395e-18
3684.69174 1.04275e-17
3686.58437 1.03672e-17
3688.47700 9.51811e-18
3690.36962 9.57460e-18
3692.25213 1.00556e-17
3694.14476 9.84399e-18
3696.03739 7.83164e-18
3697.93001 7.48714e-18
3699.82264 8.59046e-18
3701.71527 9.75999e-18
3703.60789 1.06227e-17
3705.50052 1.01838e-17
3707.38303 1.02365e-17
3709.27565 1.00948e-17
3711.16828 9.58802e-18
3713.06091 9.43397e-18
3714.95353 9.61421e-18
3716.84616 8.80937e-18
3718.73879 7.98697e-18
3720.62129 9.08297e-18
3722.51392 1.04594e-17
3724.40655 1.01125e-17
3726.29918 8.84646e-18
3728.19180 8.71239e-18
3730.08443 9.78456e-18
3731.97706 1.01584e-17
3733.86968 9.78269e-18
3735.75219 1.00942e-17
3737.64482 1.02606e-17
3739.53744 9.98213e-18
3741.43007 8.99946e-18
3743.32270 9.05746e-18
3745.21532 9.39362e-18
3747.10795 9.84898e-18
3748.99046 1.03592e-17
3750.88308 9.79148e-18
3752.77571 9.30148e-18
3754.66834 9.83884e-18
3756.56097 9.81042e-18
3758.45359 8.84441e-18
3760.34622 8.15210e-18
3762.23885 8.59017e-18
3764.12135 9.68464e-18
3766.01398 9.32575e-18
3767.90661 8.61967e-18
3769.79923 9.14407e-18
3771.69186 9.12324e-18
3773.58449 9.01848e-18
3775.47711 1.00627e-17
3777.35962 1.09462e-17
3779.25225 1.09473e-17
3781.14487 1.01423e-17
3783.03750 9.59384e-18
3784.93013 9.88036e-18
3786.82276 1.02494e-17
3788.71538 1.00639e-17
3790.60801 9.97742e-18
3792.49051 9.95073e-18
3794.38314 1.07316e-17
3796.27577 1.12257e-17
3798.16840 1.14653e-17
3800.06102 1.09715e-17
3801.95365 9.67623e-18
3803.84628 9.47516e-18
3805.72878 1.03806e-17
3807.62141 1.04535e-17
3809.51404 9.94867e-18
3811.40666 9.81601e-18
3813.29929 1.01829e-17
3815.19192 1.03159e-17
3817.08454 9.57166e-18
3818.97717 9.42202e-18
3820.85968 1.00535e-17
3822.75230 1.04159e-17
3824.64493 1.08708e-17
3826.53756 1.04608e-17
3828.43019 9.91937e-18
3830.32281 1.04058e-17
3832.21544 1.05600e-17
3834.09795 1.04353e-17
3835.99057 1.05084e-17
3837.88320 1.03762e-17
3839.77583 9.68861e-18
3841.66845 9.66509e-18
3843.56108 1.03171e-17
3845.45371 1.07041e-17
3847.34633 1.10565e-17
3849.22884 1.15646e-17
3851.12147 1.14103e-17
3853.01409 1.10480e-17
3854.90672 1.17304e-17
3856.79935 1.19548e-17
3858.69198 1.11509e-17
3860.58460 1.10064e-17
3862.47723 1.10753e-17
3864.35974 1.10124e-17
3866.25236 1.11221e-17
3868.14499 1.09431e-17
3870.03762 1.13515e-17
3871.93024 1.21355e-17
3873.82287 1.18587e-17
3875.71550 1.14413e-17
3877.59800 1.13699e-17
3879.49063 1.13178e-17
3881.38326 1.13935e-17
3883.27589 1.15446e-17
3885.16851 1.11361e-17
3887.06114 1.11054e-17
3888.95377 1.10678e-17
3890.83627 1.06436e-17
3892.72890 1.07265e-17
3894.62153 1.09998e-17
3896.51415 1.07456e-17
3898.40678 1.06810e-17
3900.29941 1.13537e-17
3902.19203 1.10238e-17
3904.08466 1.08734e-17
3905.96717 1.15904e-17
3907.85979 1.14727e-17
3909.75242 1.06995e-17
3911.64505 1.03504e-17
3913.53768 1.08785e-17
3915.43030 1.12921e-17
3917.32293 1.11025e-17
3919.21556 1.13392e-17
3921.09806 1.14968e-17
3922.99069 1.12854e-17
3924.88332 1.15830e-17
3926.77594 1.15802e-17
3928.66857 1.07461e-17
3930.56120 1.05702e-17
3932.45382 1.06060e-17
3934.33633 1.04503e-17
3936.22896 1.11117e-17
3938.12158 1.17935e-17
3940.01421 1.14456e-17
3941.90684 1.09089e-17
3943.79947 1.05802e-17
3945.69209 1.06617e-17
3947.58472 1.09916e-17
3949.46722 1.11838e-17
3951.35985 1.13271e-17
3953.25248 1.18649e-17
3955.14511 1.25176e-17
3957.03773 1.22475e-17
3958.93036 1.16921e-17
3960.82299 1.16816e-17
3962.70549 1.17127e-17
3964.59812 1.17526e-17
3966.49075 1.17174e-17
3968.38337 1.15469e-17
3970.27600 1.15394e-17
3972.16863 1.12426e-17
3974.06126 1.12311e-17
3975.95388 1.18395e-17
3977.83639 1.18443e-17
3979.72901 1.12859e-17
3981.62164 1.08193e-17
3983.51427 1.05900e-17
3985.40690 1.08669e-17
3987.29952 1.15886e-17
3989.19215 1.22871e-17
3991.07466 1.19968e-17
3992.96728 1.16360e-17
3994.85991 1.20239e-17
3996.75254 1.19751e-17
3998.64516 1.13388e-17
4000.53779 1.19355e-17
4002.43042 1.26670e-17
4004.32304 1.23724e-17
4006.20555 1.18901e-17
4008.09818 1.19414e-17
4009.99081 1.22273e-17
4011.88343 1.23151e-17
4013.77606 1.20319e-17
4015.66869 1.16513e-17
4017.56131 1.18730e-17
4019.45394 1.24284e-17
4021.33645 1.24287e-17
4023.22907 1.22976e-17
4025.12170 1.23965e-17
4027.01433 1.23605e-17
4028.90695 1.26462e-17
4030.79958 1.24428e-17
4032.69221 1.23709e-17
4034.57471 1.23663e-17
4036.46734 1.20601e-17
4038.35997 1.18162e-17
4040.25259 1.20930e-17
4042.14522 1.21991e-17
4044.03785 1.27375e-17
4045.93048 1.32085e-17
4047.82310 1.26360e-17
4049.70561 1.21118e-17
4051.59824 1.22173e-17
4053.49086 1.24498e-17
4055.38349 1.24443e-17
4057.27612 1.22054e-17
4059.16874 1.20481e-17
4061.06137 1.22789e-17
4062.94388 1.27129e-17
4064.83650 1.29200e-17
4066.72913 1.26694e-17
4068.62176 1.24339e-17
4070.51438 1.25062e-17
4072.40701 1.22342e-17
4074.29964 1.21659e-17
4076.19227 1.25286e-17
4078.07477 1.24830e-17
4079.96740 1.20699e-17
4081.86003 1.22909e-17
4083.75265 1.25978e-17
4085.64528 1.25772e-17
4087.53791 1.25188e-17
4089.43053 1.25490e-17
4091.31304 1.24597e-17
4093.20567 1.25252e-17
4095.09829 1.26683e-17
4096.99092 1.25544e-17
4098.88355 1.22807e-17
4100.77617 1.24217e-17
4102.66880 1.23966e-17
4104.56143 1.23301e-17
4106.44394 1.26544e-17
4108.33656 1.30029e-17
4110.22919 1.29705e-17
4112.12182 1.25268e-17
4114.01444 1.23384e-17
4115.90707 1.23311e-17
4117.79970 1.23005e-17
4119.68220 1.30294e-17
4121.57483 1.35840e-17
4123.46746 1.33229e-17
4125.36008 1.26856e-17
4127.25271 1.26152e-17
4129.14534 1.32454e-17
4131.03797 1.32320e-17
4132.93059 1.27552e-17
4134.81310 1.20535e-17
4136.70572 1.18420e-17
4138.59835 1.20783e-17
4140.49098 1.22621e-17
4142.38361 1.24216e-17
4144.27623 1.26546e-17
4146.16886 1.25555e-17
4148.05137 1.23962e-17
4149.94399 1.21502e-17
4151.83662 1.20542e-17
4153.72925 1.22803e-17
4155.62187 1.21304e-17
4157.51450 1.21898e-17
4159.40713 1.27990e-17
4161.29976 1.29501e-17
4163.18226 1.26689e-17
4165.07489 1.24567e-17
4166.96751 1.23855e-17
4168.86014 1.25424e-17
4170.75277 1.27433e-17
4172.64540 1.28864e-17
4174.53802 1.30601e-17
4176.43065 1.28136e-17
4178.31316 1.25836e-17
4180.20578 1.28314e-17
4182.09841 1.26993e-17
4183.99104 1.27374e-17
4185.88366 1.27920e-17
4187.77629 1.26859e-17
4189.66892 1.27728e-17
4191.55142 1.25949e-17
4193.44405 1.24681e-17
4195.33668 1.25442e-17
4197.22930 1.27566e-17
4199.12193 1.26791e-17
4201.01456 1.24791e-17
4202.90719 1.27330e-17
4204.79981 1.30033e-17
4206.68232 1.29162e-17
4208.57495 1.26642e-17
4210.46757 1.21479e-17
4212.36020 1.18010e-17
4214.25283 1.20514e-17
4216.14545 1.25575e-17
4218.03808 1.27110e-17
4219.92059 1.19894e-17
4221.81321 1.16669e-17
4223.70584 1.17856e-17
4225.59847 1.20536e-17
4227.49109 1.21481e-17
4229.38372 1.17673e-17
4231.27635 1.16964e-17
4233.16898 1.19184e-17
4235.05148 1.19003e-17
4236.94411 1.16822e-17
4238.83674 1.20214e-17
4240.72936 1.23055e-17
4242.62199 1.20218e-17
4244.51462 1.17246e-17
4246.40724 1.21340e-17
4248.28975 1.23562e-17
4250.18238 1.19485e-17
4252.07500 1.16782e-17
4253.96763 1.16452e-17
4255.86026 1.19084e-17
4257.75289 1.23723e-17
4259.64551 1.22898e-17
4261.52802 1.20715e-17
4263.42065 1.24214e-17
4265.31327 1.26231e-17
4267.20590 1.23854e-17
4269.09853 1.20008e-17
4270.99115 1.16165e-17
4272.88378 1.18401e-17
4274.77641 1.18733e-17
4276.65891 1.16090e-17
4278.55154 1.19405e-17
4280.44417 1.21032e-17
4282.33679 1.18691e-17
4284.22942 1.17408e-17
4286.12205 1.19186e-17
4288.01468 1.23351e-17
4289.90730 1.23384e-17
4291.78981 1.21643e-17
4293.68244 1.22545e-17
4295.57506 1.24853e-17
4297.46769 1.25525e-17
4299.36032 1.23626e-17
4301.25294 1.21188e-17
4303.14557 1.20762e-17
4305.02808 1.20889e-17
4306.92070 1.20306e-17
4308.81333 1.20167e-17
4310.70596 1.22422e-17
4312.59858 1.27060e-17
4314.49121 1.29950e-17
4316.38384 1.29943e-17
4318.27646 1.27187e-17
4320.15897 1.23838e-17
4322.05160 1.24686e-17
4323.94423 1.29390e-17
4325.83685 1.31722e-17
4327.72948 1.31241e-17
4329.62211 1.32264e-17
4331.51473 1.31342e-17
4333.40736 1.31341e-17
4335.28987 1.32960e-17
4337.18249 1.34751e-17
4339.07512 1.29855e-17
4340.96775 1.27077e-17
4342.86037 1.30597e-17
4344.75300 1.37365e-17
4346.64563 1.36341e-17
4348.52813 1.33961e-17
4350.42076 1.31152e-17
4352.31339 1.30079e-17
4354.20601 1.32554e-17
4356.09864 1.28935e-17
4357.99127 1.23186e-17
4359.88390 1.24437e-17
4361.76640 1.31218e-17
4363.65903 1.34338e-17
4365.55166 1.29270e-17
4367.44428 1.28009e-17
4369.33691 1.29268e-17
4371.22954 1.29372e-17
4373.12216 1.25635e-17
4375.01479 1.25961e-17
4376.89730 1.29261e-17
4378.78992 1.24630e-17
4380.68255 1.21310e-17
4382.57518 1.27281e-17
4384.46781 1.33531e-17
4386.36043 1.34369e-17
4388.25306 1.31015e-17
4390.14569 1.28563e-17
4392.02819 1.29411e-17
4393.92082 1.33891e-17
4395.81345 1.32813e-17
4397.70607 1.29494e-17
4399.59870 1.33205e-17
4401.49133 1.39724e-17
4403.38395 1.40401e-17
4405.26646 1.36958e-17
4407.15909 1.34206e-17
4409.05171 1.34058e-17
4410.94434 1.38274e-17
4412.83697 1.38419e-17
4414.72959 1.33304e-17
4416.62222 1.38731e-17
4418.51485 1.48697e-17
4420.39736 1.45048e-17
4422.28998 1.35580e-17
4424.18261 1.34621e-17
4426.07524 1.38001e-17
4427.96786 1.37640e-17
4429.86049 1.38530e-17
4431.75312 1.39157e-17
4433.64574 1.34816e-17
4435.52825 1.33691e-17
4437.42088 1.37690e-17
4439.31350 1.39583e-17
4441.20613 1.40839e-17
4443.09876 1.41640e-17
4444.99139 1.40628e-17
4446.88401 1.40089e-17
4448.76652 1.40850e-17
4450.65914 1.41150e-17
4452.55177 1.41750e-17
4454.44440 1.41346e-17
4456.33703 1.39984e-17
4458.22965 1.41951e-17
4460.12228 1.42563e-17
4462.01491 1.40024e-17
4463.89741 1.40803e-17
4465.79004 1.41482e-17
4467.68267 1.42054e-17
4469.57529 1.40151e-17
4471.46792 1.34789e-17
4473.36055 1.35504e-17
4475.25317 1.37923e-17
4477.13568 1.35453e-17
4479.02831 1.32629e-17
4480.92094 1.30394e-17
4482.81356 1.30865e-17
4484.70619 1.30913e-17
4486.59882 1.31820e-17
4488.49144 1.32382e-17
4490.37395 1.31758e-17
4492.26658 1.35043e-17
4494.15920 1.38090e-17
4496.05183 1.38552e-17
4497.94446 1.41314e-17
4499.83708 1.46147e-17
4501.72971 1.47338e-17
4503.62234 1.44721e-17
4505.50484 1.42302e-17
4507.39747 1.40692e-17
4509.29010 1.41088e-17
4511.18272 1.42303e-17
4513.07535 1.43398e-17
4514.96798 1.46421e-17
4516.86061 1.45573e-17
4518.75323 1.45441e-17
4520.63574 1.43327e-17
4522.52837 1.45794e-17
4524.42099 1.45972e-17
4526.31362 1.43721e-17
4528.20625 1.43653e-17
4530.09887 1.44357e-17
4531.99150 1.45199e-17
4533.87401 1.45084e-17
4535.76663 1.44857e-17
4537.65926 1.43084e-17
4539.55189 1.44457e-17
4541.44451 1.46409e-17
4543.33714 1.45185e-17
4545.22977 1.44910e-17
4547.12240 1.49766e-17
4549.00490 1.50892e-17
4550.89753 1.45091e-17
4552.79016 1.43600e-17
4554.68278 1.46542e-17
4556.57541 1.45533e-17
4558.46804 1.41706e-17
4560.36066 1.43780e-17
4562.25329 1.52358e-17
4564.13580 1.53463e-17
4566.02842 1.49113e-17
4567.92105 1.50930e-17
4569.81368 1.52390e-17
4571.70631 1.48961e-17
4573.59893 1.45974e-17
4575.49156 1.47608e-17
4577.37406 1.48153e-17
4579.26669 1.47278e-17
4581.15932 1.46583e-17
4583.05195 1.46420e-17
4584.94457 1.43414e-17
4586.83720 1.42318e-17
4588.72983 1.48865e-17
4590.61233 1.51898e-17
4592.50496 1.46460e-17
4594.39759 1.45555e-17
4596.29021 1.48822e-17
4598.18284 1.48438e-17
4600.07547 1.47165e-17
4601.96810 1.45436e-17
4603.86072 1.43653e-17
4605.74323 1.44330e-17
4607.63586 1.46008e-17
4609.52848 1.45997e-17
4611.42111 1.40972e-17
4613.31374 1.39838e-17
4615.20636 1.42450e-17
4617.09899 1.44551e-17
4618.98150 1.41438e-17
4620.87412 1.40702e-17
4622.76675 1.40786e-17
4624.65938 1.38990e-17
4626.55200 1.39718e-17
4628.44463 1.37804e-17
4630.33726 1.36846e-17
4632.22989 1.40377e-17
4634.11239 1.42315e-17
4636.00502 1.40215e-17
4637.89765 1.38433e-17
4639.79027 1.36253e-17
4641.68290 1.34987e-17
4643.57553 1.35896e-17
4645.46815 1.39598e-17
4647.36078 1.42125e-17
4649.24329 1.40266e-17
4651.13591 1.39651e-17
4653.02854 1.40254e-17
4654.92117 1.39865e-17
4656.81379 1.39557e-17
4658.70642 1.37597e-17
4660.59905 1.40486e-17
4662.48155 1.45169e-17
4664.37418 1.44743e-17
4666.26681 1.40957e-17
4668.15944 1.39486e-17
4670.05206 1.40611e-17
4671.94469 1.40636e-17
4673.83732 1.38799e-17
4675.72994 1.39141e-17
4677.61245 1.41653e-17
4679.50508 1.41485e-17
4681.39770 1.42323e-17
4683.29033 1.40368e-17
4685.18296 1.37402e-17
4687.07558 1.34471e-17
4688.96821 1.33996e-17
4690.85072 1.34453e-17
4692.74334 1.33939e-17
4694.63597 1.34845e-17
4696.52860 1.34073e-17
4698.42123 1.30326e-17
4700.31385 1.29369e-17
4702.20648 1.29805e-17
4704.09911 1.29344e-17
4705.98161 1.30865e-17
4707.87424 1.31971e-17
4709.76687 1.32617e-17
4711.65949 1.29832e-17
4713.55212 1.24259e-17
4715.44475 1.26541e-17
4717.33737 1.34363e-17
4719.21988 1.34275e-17
4721.11251 1.32078e-17
4723.00513 1.31774e-17
4724.89776 1.30418e-17
4726.79039 1.31809e-17
4728.68301 1.33276e-17
4730.57564 1.35542e-17
4732.46827 1.39019e-17
4734.35077 1.36616e-17
4736.24340 1.33286e-17
4738.13603 1.35258e-17
4740.02866 1.34545e-17
4741.92128 1.30703e-17
4743.81391 1.32042e-17
4745.70654 1.34530e-17
4747.58904 1.34414e-17
4749.48167 1.34895e-17
4751.37430 1.34492e-17
4753.26692 1.31775e-17
4755.15955 1.28953e-17
4757.05218 1.30529e-17
4758.94481 1.33859e-17
4760.83743 1.34474e-17
4762.71994 1.34145e-17
4764.61256 1.31560e-17
4766.50519 1.29083e-17
4768.39782 1.29525e-17
4770.29045 1.30502e-17
4772.18307 1.31859e-17
4774.07570 1.31292e-17
4775.96833 1.28456e-17
4777.85083 1.28503e-17
4779.74346 1.28339e-17
4781.63609 1.27647e-17
4783.52871 1.27951e-17
4785.42134 1.26765e-17
4787.31397 1.26682e-17
4789.20659 1.28506e-17
4791.08910 1.28580e-17
4792.98173 1.27539e-17
4794.87435 1.26955e-17
4796.76698 1.26826e-17
4798.65961 1.28171e-17
4800.55224 1.29613e-17
4802.44486 1.28947e-17
4804.33749 1.28064e-17
4806.22000 1.28636e-17
4808.11262 1.29235e-17
4810.00525 1.29511e-17
4811.89788 1.29407e-17
4813.79050 1.28375e-17
4815.68313 1.27277e-17
4817.57576 1.25835e-17
4819.45826 1.26237e-17
4821.35089 1.26118e-17
4823.24352 1.26126e-17
4825.13614 1.27486e-17
4827.02877 1.28642e-17
4828.92140 1.29803e-17
4830.81403 1.27971e-17
4832.70665 1.24342e-17
4834.58916 1.23393e-17
4836.48179 1.23797e-17
4838.37441 1.23026e-17
4840.26704 1.23651e-17
4842.15967 1.25389e-17
4844.05229 1.25759e-17
4845.94492 1.24538e-17
4847.82743 1.22633e-17
4849.72005 1.22508e-17
4851.61268 1.24030e-17
4853.50531 1.23179e-17
4855.39793 1.20297e-17
4857.29056 1.21137e-17
4859.18319 1.23112e-17
4861.07582 1.23422e-17
4862.95832 1.22045e-17
4864.85095 1.21191e-17
4866.74358 1.23218e-17
4868.63620 1.25015e-17
4870.52883 1.23802e-17
4872.42146 1.22938e-17
4874.31408 1.21612e-17
4876.19659 1.22033e-17
4878.08922 1.24200e-17
4879.98184 1.23660e-17
4881.87447 1.23829e-17
4883.76710 1.25937e-17
4885.65973 1.26741e-17
4887.55235 1.25473e-17
4889.44498 1.23611e-17
4891.32749 1.24156e-17
4893.22011 1.25722e-17
4895.11274 1.23885e-17
4897.00537 1.22088e-17
4898.89799 1.22610e-17
4900.79062 1.22047e-17
4902.68325 1.23185e-17
4904.57587 1.25677e-17
4906.45838 1.25045e-17
4908.35101 1.21584e-17
4910.24363 1.21486e-17
4912.13626 1.24028e-17
4914.02889 1.23087e-17
4915.92151 1.24079e-17
4917.81414 1.24747e-17
4919.69665 1.24828e-17
4921.58928 1.25043e-17
4923.48190 1.26142e-17
4925.37453 1.24674e-17
4927.26716 1.23566e-17
4929.15978 1.24150e-17
4931.05241 1.25427e-17
4932.93492 1.26062e-17
4934.82754 1.25491e-17
4936.72017 1.23262e-17
4938.61280 1.20349e-17
4940.50542 1.20524e-17
4942.39805 1.21769e-17
4944.29068 1.24177e-17
4946.18331 1.28612e-17
4948.06581 1.28418e-17
4949.95844 1.26231e-17
4951.85106 1.25159e-17
4953.74369 1.23642e-17
4955.63632 1.23989e-17
4957.52895 1.25235e-17
4959.42157 1.27230e-17
4961.31420 1.27747e-17
4963.19671 1.28250e-17
4965.08933 1.27311e-17
4966.98196 1.27473e-17
4968.87459 1.30005e-17
4970.76721 1.30851e-17
4972.65984 1.31292e-17
4974.55247 1.31575e-17
4976.43497 1.31248e-17
4978.32760 1.33030e-17
4980.22023 1.34468e-17
4982.11286 1.33289e-17
4984.00548 1.33208e-17
4985.89811 1.34352e-17
4987.79074 1.33945e-17
4989.68336 1.33536e-17
4991.56587 1.35519e-17
4993.45850 1.36129e-17
4995.35112 1.34148e-17
4997.24375 1.34240e-17
4999.13638 1.34260e-17
5001.02900 1.33842e-17
5002.92163 1.36760e-17
5004.80414 1.37988e-17
5006.69676 1.36781e-17
5008.58939 1.38762e-17
5010.48202 1.34802e-17
5012.37464 1.34297e-17
5014.26727 1.37357e-17
5016.15990 1.38794e-17
5018.05253 1.38631e-17
5019.93503 1.40015e-17
5021.82766 1.39782e-17
5023.72029 1.38798e-17
5025.61291 1.35734e-17
5027.50554 1.32989e-17
5029.39817 1.34833e-17
5031.29079 1.37370e-17
5033.17330 1.39161e-17
5035.06593 1.39176e-17
5036.95855 1.39109e-17
5038.85118 1.39516e-17
5040.74381 1.38313e-17
5042.63644 1.38127e-17
5044.52906 1.39016e-17
5046.42169 1.39140e-17
5048.30419 1.39186e-17
5050.19682 1.40508e-17
5052.08945 1.43530e-17
5053.98208 1.42554e-17
5055.87470 1.40954e-17
5057.76733 1.40327e-17
5059.65996 1.40408e-17
5061.55258 1.44891e-17
5063.43509 1.48436e-17
5065.32772 1.45389e-17
5067.22034 1.45046e-17
5069.11297 1.44625e-17
5071.00560 1.45272e-17
5072.89822 1.44818e-17
5074.79085 1.43384e-17
5076.67336 1.43526e-17
5078.56599 1.41850e-17
5080.45861 1.41965e-17
5082.35124 1.45867e-17
5084.24387 1.46757e-17
5086.13649 1.43370e-17
5088.02912 1.42010e-17
5089.91163 1.44824e-17
5091.80425 1.46570e-17
5093.69688 1.45747e-17
5095.58951 1.44275e-17
5097.48213 1.42660e-17
5099.37476 1.43868e-17
5101.26739 1.43636e-17
5103.16001 1.44048e-17
5105.04252 1.46759e-17
5106.93515 1.46283e-17
5108.82777 1.43464e-17
5110.72040 1.43362e-17
5112.61303 1.44981e-17
5114.50566 1.45850e-17
5116.39828 1.46992e-17
5118.29091 1.46244e-17
5120.17342 1.45702e-17
5122.06604 1.48025e-17
5123.95867 1.49410e-17
5125.85130 1.46990e-17
5127.74392 1.46944e-17
5129.63655 1.48667e-17
5131.52918 1.46780e-17
5133.41168 1.46003e-17
5135.30431 1.49222e-17
5137.19694 1.51047e-17
5139.08956 1.49857e-17
5140.98219 1.49682e-17
5142.87482 1.50769e-17
5144.76745 1.50772e-17
5146.66007 1.50922e-17
5148.54258 1.50615e-17
5150.43521 1.49937e-17
5152.32783 1.48431e-17
5154.22046 1.47487e-17
5156.11309 1.47795e-17
5158.00571 1.46949e-17
5159.89834 1.44531e-17
5161.78085 1.43725e-17
5163.67347 1.45149e-17
5165.56610 1.48074e-17
5167.45873 1.48768e-17
5169.35135 1.47403e-17
5171.24398 1.47149e-17
5173.13661 1.46586e-17
5175.02924 1.45684e-17
5176.91174 1.44028e-17
5178.80437 1.43544e-17
5180.69700 1.44762e-17
5182.58962 1.46205e-17
5184.48225 1.45094e-17
5186.37488 1.43085e-17
5188.26750 1.45340e-17
5190.15001 1.48104e-17
5192.04264 1.46676e-17
5193.93526 1.44810e-17
5195.82789 1.46164e-17
5197.72052 1.49631e-17
5199.61315 1.49197e-17
5201.50577 1.46234e-17
5203.39840 1.45831e-17
5205.28091 1.46624e-17
5207.17353 1.46730e-17
5209.06616 1.48247e-17
5210.95879 1.50072e-17
5212.85141 1.48807e-17
5214.74404 1.47473e-17
5216.63667 1.48109e-17
5218.51917 1.48533e-17
5220.41180 1.48385e-17
5222.30443 1.46477e-17
5224.19705 1.48286e-17
5226.08968 1.52099e-17
5227.98231 1.52734e-17
5229.87494 1.51194e-17
5231.76756 1.50249e-17
5233.65007 1.48963e-17
5235.54270 1.48371e-17
5237.43532 1.49030e-17
5239.32795 1.47739e-17
5241.22058 1.46716e-17
5243.11320 1.48139e-17
5245.00583 1.50550e-17
5246.89846 1.53300e-17
5248.78096 1.52742e-17
5250.67359 1.50738e-17
5252.56622 1.50260e-17
5254.45884 1.52055e-17
5256.35147 1.51986e-17
5258.24410 1.52241e-17
5260.13673 1.53646e-17
5262.01923 1.51863e-17
5263.91186 1.49124e-17
5265.80449 1.48096e-17
5267.69711 1.46846e-17
5269.58974 1.46248e-17
5271.48237 1.44844e-17
5273.37499 1.43368e-17
5275.26762 1.42394e-17
5277.15013 1.42352e-17
5279.04275 1.45574e-17
5280.93538 1.48792e-17
5282.82801 1.49338e-17
5284.72063 1.49705e-17
5286.61326 1.48740e-17
5288.50589 1.48133e-17
5290.38839 1.50339e-17
5292.28102 1.49826e-17
5294.17365 1.47892e-17
5296.06628 1.48002e-17
5297.95890 1.48154e-17
5299.85153 1.47780e-17
5301.74416 1.49882e-17
5303.63678 1.53342e-17
5305.51929 1.54588e-17
5307.41192 1.54443e-17
5309.30454 1.52191e-17
5311.19717 1.48186e-17
5313.08980 1.46913e-17
5314.98242 1.47338e-17
5316.87505 1.45550e-17
5318.75756 1.43427e-17
5320.65018 1.44131e-17
5322.54281 1.48857e-17
5324.43544 1.50858e-17
5326.32806 1.48964e-17
5328.22069 1.48464e-17
5330.11332 1.48847e-17
5332.00595 1.49444e-17
5333.88845 1.50384e-17
5335.78108 1.48162e-17
5337.67371 1.43120e-17
5339.56633 1.44085e-17
5341.45896 1.49879e-17
5343.35159 1.48740e-17
5345.24421 1.47554e-17
5347.12672 1.48431e-17
5349.01935 1.49935e-17
5350.91197 1.50569e-17
5352.80460 1.49160e-17
5354.69723 1.49831e-17
5356.58986 1.50714e-17
5358.48248 1.50524e-17
5360.37511 1.50156e-17
5362.25761 1.49571e-17
5364.15024 1.46101e-17
5366.04287 1.43709e-17
5367.93550 1.45714e-17
5369.82812 1.48147e-17
5371.72075 1.47070e-17
5373.61338 1.47978e-17
5375.50600 1.47722e-17
5377.38851 1.45916e-17
5379.28114 1.45213e-17
5381.17376 1.45037e-17
5383.06639 1.46180e-17
5384.95902 1.46822e-17
5386.85164 1.45425e-17
5388.74427 1.44074e-17
5390.62678 1.44817e-17
5392.51941 1.45976e-17
5394.41203 1.46991e-17
5396.30466 1.48302e-17
5398.19729 1.45885e-17
5400.08991 1.43934e-17
5401.98254 1.46058e-17
5403.87517 1.45623e-17
5405.75767 1.44844e-17
5407.65030 1.45133e-17
5409.54293 1.45935e-17
5411.43555 1.44565e-17
5413.32818 1.44909e-17
5415.22081 1.50054e-17
5417.11344 1.46450e-17
5418.99594 1.45349e-17
5420.88857 1.49643e-17
5422.78119 1.50144e-17
5424.67382 1.50663e-17
5426.56645 1.49863e-17
5428.45908 1.46008e-17
5430.35170 1.45330e-17
5432.23421 1.47584e-17
5434.12684 1.46749e-17
5436.01946 1.45088e-17
5437.91209 1.47229e-17
5439.80472 1.47513e-17
5441.69734 1.45108e-17
5443.58997 1.43694e-17
5445.48260 1.45079e-17
5447.36510 1.47072e-17
5449.25773 1.45643e-17
5451.15036 1.45850e-17
5453.04299 1.46959e-17
5454.93561 1.42178e-17
5456.82824 1.41259e-17
5458.72087 1.47977e-17
5460.61349 1.46579e-17
5462.49600 1.40686e-17
5464.38863 1.40672e-17
5466.28125 1.43584e-17
5468.17388 1.45874e-17
5470.06651 1.45938e-17
5471.95913 1.42892e-17
5473.85176 1.39246e-17
5475.73427 1.39193e-17
5477.62689 1.42135e-17
5479.51952 1.40554e-17
5481.41215 1.36969e-17
5483.30477 1.37843e-17
5485.19740 1.37871e-17
5487.09003 1.37406e-17
5488.98266 1.38430e-17
5490.86516 1.37807e-17
5492.75779 1.38613e-17
5494.65042 1.39147e-17
5496.54304 1.37226e-17
5498.43567 1.36182e-17
5500.32830 1.34976e-17
5502.22092 1.33412e-17
5504.11355 1.33772e-17
5505.99606 1.35692e-17
5507.88868 1.34835e-17
5509.78131 1.32705e-17
5511.67394 1.33843e-17
5513.56657 1.33989e-17
5515.45919 1.32989e-17
5517.35182 1.35003e-17
5519.23433 1.34085e-17
5521.12695 1.30783e-17
5523.01958 1.31424e-17
5524.91221 1.32335e-17
5526.80483 1.32956e-17
5528.69746 1.33818e-17
5530.59009 1.34674e-17
5532.47259 1.35868e-17
5534.36522 1.34268e-17
5536.25785 1.33118e-17
5538.15047 1.33068e-17
5540.04310 1.32783e-17
5541.93573 1.33198e-17
5543.82836 1.35291e-17
5545.72098 1.35966e-17
5547.60349 1.35144e-17
5549.49611 1.31802e-17
5551.38874 1.31673e-17
5553.28137 1.31801e-17
5555.17400 1.30885e-17
5557.06662 1.32169e-17
5558.95925 1.31243e-17
5560.84176 1.28972e-17
5562.73438 1.30475e-17
5564.62701 1.32977e-17
5566.51964 1.33001e-17
5568.41226 1.33396e-17
5570.30489 1.34134e-17
5572.19752 1.33069e-17
5574.09015 1.31921e-17
5575.97265 1.31313e-17
5577.86528 1.32999e-17
5579.75791 1.35958e-17
5581.65053 1.35633e-17
5583.54316 1.33803e-17
5585.43579 1.31530e-17
5587.32841 1.29486e-17
5589.22104 1.29921e-17
5591.10355 1.30858e-17
5592.99617 1.30344e-17
5594.88880 1.27127e-17
5596.78143 1.26031e-17
5598.67405 1.28726e-17
5600.56668 1.29630e-17
5602.45931 1.29467e-17
5604.34181 1.28749e-17
5606.23444 1.26971e-17
5608.12707 1.28084e-17
5610.01969 1.31315e-17
5611.91232 1.31941e-17
5613.80495 1.31017e-17
5615.69758 1.32508e-17
5617.59020 1.31503e-17
5619.47271 1.30382e-17
5621.36534 1.31644e-17
5623.25796 1.33497e-17
5625.15059 1.33860e-17
5627.04322 1.32681e-17
5628.93584 1.33818e-17
5630.82847 1.33163e-17
5632.72110 1.29358e-17
5634.60360 1.31064e-17
5636.49623 1.33959e-17
5638.38886 1.33222e-17
5640.28149 1.31226e-17
5642.17411 1.30366e-17
5644.06674 1.31825e-17
5645.95937 1.31550e-17
5647.84187 1.30496e-17
5649.73450 1.33105e-17
5651.62713 1.35318e-17
5653.51975 1.35216e-17
5655.41238 1.34961e-17
5657.30501 1.34102e-17
5659.19763 1.33905e-17
5661.08014 1.34818e-17
5662.97277 1.35396e-17
5664.86539 1.32945e-17
5666.75802 1.31336e-17
5668.65065 1.32546e-17
5670.54327 1.34090e-17
5672.43590 1.35477e-17
5674.32853 1.36461e-17
5676.21104 1.36116e-17
5678.10366 1.34308e-17
5679.99629 1.32814e-17
5681.88892 1.33244e-17
5683.78154 1.33728e-17
5685.67417 1.33003e-17
5687.56680 1.32914e-17
5689.45942 1.35441e-17
5691.34193 1.35261e-17
5693.23456 1.32811e-17
5695.12718 1.34955e-17
5697.01981 1.37547e-17
5698.91244 1.35578e-17
5700.80506 1.34121e-17
5702.69769 1.34336e-17
5704.58020 1.35923e-17
5706.47282 1.36524e-17
5708.36545 1.35685e-17
5710.25808 1.36671e-17
5712.15071 1.36651e-17
5714.04333 1.36213e-17
5715.93596 1.36244e-17
5717.82859 1.36797e-17
5719.71109 1.38424e-17
5721.60372 1.39497e-17
5723.49635 1.38946e-17
5725.38897 1.38275e-17
5727.28160 1.38076e-17
5729.17423 1.38294e-17
5731.06686 1.38106e-17
5732.94936 1.36614e-17
5734.84199 1.36439e-17
5736.73461 1.36617e-17
5738.62724 1.36491e-17
5740.51987 1.35721e-17
5742.41250 1.35664e-17
5744.30512 1.37162e-17
5746.19775 1.39904e-17
5748.08026 1.41030e-17
5749.97288 1.40347e-17
5751.86551 1.39246e-17
5753.75814 1.36462e-17
5755.65076 1.35322e-17
5757.54339 1.36166e-17
5759.43602 1.36735e-17
5761.31852 1.37830e-17
5763.21115 1.39182e-17
5765.10378 1.39412e-17
5766.99640 1.39097e-17
5768.88903 1.38772e-17
5770.78166 1.37304e-17
5772.67429 1.34734e-17
5774.56691 1.33418e-17
5776.44942 1.34555e-17
5778.34205 1.36223e-17
5780.23467 1.37853e-17
5782.12730 1.39563e-17
5784.01993 1.38243e-17
5785.91255 1.36976e-17
5787.80518 1.39060e-17
5789.68769 1.38858e-17
5791.58031 1.36670e-17
5793.47294 1.37398e-17
5795.36557 1.37688e-17
5797.25819 1.36686e-17
5799.15082 1.37735e-17
5801.04345 1.38848e-17
5802.93608 1.36664e-17
5804.81858 1.36931e-17
5806.71121 1.38666e-17
5808.60384 1.38967e-17
5810.49646 1.37561e-17
5812.38909 1.37776e-17
5814.28172 1.38525e-17
5816.17434 1.38673e-17
5818.05685 1.38995e-17
5819.94948 1.39811e-17
5821.84210 1.40757e-17
5823.73473 1.41022e-17
5825.62736 1.40667e-17
5827.51999 1.39887e-17
5829.41261 1.38888e-17
5831.30524 1.38728e-17
5833.18775 1.39869e-17
5835.08037 1.39706e-17
5836.97300 1.38296e-17
5838.86563 1.37661e-17
5840.75825 1.36823e-17
5842.65088 1.35362e-17
5844.54351 1.35730e-17
5846.43613 1.35698e-17
5848.31864 1.31055e-17
5850.21127 1.26113e-17
5852.10389 1.26220e-17
5853.99652 1.31651e-17
5855.88915 1.35717e-17
5857.78178 1.37269e-17
5859.67440 1.36448e-17
5861.55691 1.34435e-17
5863.44954 1.34849e-17
5865.34216 1.36572e-17
5867.23479 1.35015e-17
5869.12742 1.32258e-17
5871.02004 1.34280e-17
5872.91267 1.36949e-17
5874.79518 1.35222e-17
5876.68780 1.34967e-17
5878.58043 1.36207e-17
5880.47306 1.35064e-17
5882.36568 1.34692e-17
5884.25831 1.34967e-17
5886.15094 1.31030e-17
5888.04356 1.30002e-17
5889.92607 1.25813e-17
5891.81870 1.23892e-17
5893.71133 1.25651e-17
5895.60395 1.28377e-17
5897.49658 1.29994e-17
5899.38921 1.28659e-17
5901.28183 1.29704e-17
5903.17446 1.33842e-17
5905.05697 1.35066e-17
5906.94959 1.34247e-17
5908.84222 1.33985e-17
5910.73485 1.32294e-17
5912.62747 1.31850e-17
5914.52010 1.32942e-17
5916.41273 1.31869e-17
5918.29523 1.29503e-17
5920.18786 1.28321e-17
5922.08049 1.28103e-17
5923.97311 1.29650e-17
5925.86574 1.31028e-17
5927.75837 1.31893e-17
5929.65100 1.31919e-17
5931.53350 1.31733e-17
5933.42613 1.31502e-17
5935.31876 1.30902e-17
5937.21138 1.31411e-17
5939.10401 1.31170e-17
5940.99664 1.29556e-17
5942.88926 1.28324e-17
5944.78189 1.29346e-17
5946.66440 1.29166e-17
5948.55702 1.25981e-17
5950.44965 1.24702e-17
5952.34228 1.26534e-17
5954.23491 1.26282e-17
5956.12753 1.24695e-17
5958.02016 1.22187e-17
5959.91279 1.17591e-17
5961.79529 1.12595e-17
5963.68792 1.11636e-17
5965.58055 1.12942e-17
5967.47317 1.10298e-17
5969.36580 1.11357e-17
5971.25843 1.18155e-17
5973.15105 1.20778e-17
5975.03356 1.19557e-17
5976.92619 1.18968e-17
5978.81881 1.20005e-17
5980.71144 1.20604e-17
5982.60407 1.20215e-17
5984.49669 1.20850e-17
5986.38932 1.21973e-17
5988.28195 1.22392e-17
5990.16446 1.20730e-17
5992.05708 1.19341e-17
5993.94971 1.19619e-17
5995.84234 1.19379e-17
5997.73496 1.19847e-17
5999.62759 1.19456e-17
6001.52022 1.18893e-17
6003.41284 1.19008e-17
6005.29535 1.18513e-17
6007.18798 1.18216e-17
6009.08060 1.18039e-17
6010.97323 1.17523e-17
6012.86586 1.16795e-17
6014.75849 1.17062e-17
6016.65111 1.18665e-17
6018.53362 1.19629e-17
6020.42624 1.18517e-17
6022.31887 1.17081e-17
6024.21150 1.18572e-17
6026.10413 1.18214e-17
6027.99675 1.16358e-17
6029.88938 1.16707e-17
6031.78201 1.18168e-17
6033.66451 1.20019e-17
6035.55714 1.20677e-17
6037.44977 1.18883e-17
6039.34239 1.17985e-17
6041.23502 1.17702e-17
6043.12765 1.15866e-17
6045.02027 1.15259e-17
6046.90278 1.17116e-17
6048.79541 1.18514e-17
6050.68804 1.18667e-17
6052.58066 1.18982e-17
6054.47329 1.18296e-17
6056.36592 1.16717e-17
6058.25854 1.17496e-17
6060.14105 1.19042e-17
6062.03368 1.18181e-17
6063.92630 1.18366e-17
6065.81893 1.18913e-17
6067.71156 1.17870e-17
6069.60418 1.17098e-17
6071.49681 1.17553e-17
6073.38944 1.18904e-17
6075.27194 1.19112e-17
6077.16457 1.18874e-17
6079.05720 1.19323e-17
6080.94982 1.18181e-17
6082.84245 1.16949e-17
6084.73508 1.17928e-17
6086.62771 1.18562e-17
6088.52033 1.19097e-17
6090.40284 1.19590e-17
6092.29547 1.19366e-17
6094.18809 1.20940e-17
6096.08072 1.22030e-17
6097.97335 1.19815e-17
6099.86597 1.19055e-17
6101.75860 1.18800e-17
6103.64111 1.18827e-17
6105.53373 1.19899e-17
6107.42636 1.20133e-17
6109.31899 1.19722e-17
6111.21161 1.19612e-17
6113.10424 1.19885e-17
6114.99687 1.19670e-17
6116.88950 1.18963e-17
6118.77200 1.19613e-17
6120.66463 1.21052e-17
6122.55726 1.21518e-17
6124.44988 1.21993e-17
6126.34251 1.22063e-17
6128.23514 1.20807e-17
6130.12776 1.19388e-17
6132.02039 1.19376e-17
6133.90290 1.21406e-17
6135.79552 1.22325e-17
6137.68815 1.22186e-17
6139.58078 1.23272e-17
6141.47340 1.22575e-17
6143.36603 1.21386e-17
6145.25866 1.22849e-17
6147.14117 1.24155e-17
6149.03379 1.21958e-17
6150.92642 1.21829e-17
6152.81905 1.22684e-17
6154.71167 1.22715e-17
6156.60430 1.22919e-17
6158.49693 1.24499e-17
6160.37943 1.24966e-17
6162.27206 1.22564e-17
6164.16469 1.21630e-17
6166.05731 1.23196e-17
6167.94994 1.24621e-17
6169.84257 1.23632e-17
6171.73520 1.21730e-17
6173.62782 1.22095e-17
6175.51033 1.23348e-17
6177.40296 1.22550e-17
6179.29558 1.20084e-17
6181.18821 1.19230e-17
6183.08084 1.20056e-17
6184.97346 1.21036e-17
6186.86609 1.21380e-17
6188.75872 1.21243e-17
6190.64122 1.20995e-17
6192.53385 1.21833e-17
6194.42648 1.20937e-17
6196.31910 1.18970e-17
6198.21173 1.18913e-17
6200.10436 1.19912e-17
6201.99699 1.20138e-17
6203.87949 1.20231e-17
6205.77212 1.20761e-17
6207.66475 1.20869e-17
6209.55737 1.19874e-17
6211.45000 1.18693e-17
6213.34263 1.19232e-17
6215.23525 1.19633e-17
6217.12788 1.19035e-17
6219.01039 1.19488e-17
6220.90301 1.20337e-17
6222.79564 1.19692e-17
6224.68827 1.19047e-17
6226.58089 1.18688e-17
6228.47352 1.17716e-17
6230.36615 1.16686e-17
6232.24865 1.15496e-17
6234.14128 1.15668e-17
6236.03391 1.16908e-17
6237.92654 1.17476e-17
6239.81916 1.17663e-17
6241.71179 1.17813e-17
6243.60442 1.17759e-17
6245.49704 1.16055e-17
6247.37955 1.14727e-17
6249.27218 1.14972e-17
6251.16480 1.15155e-17
6253.05743 1.14358e-17
6254.95006 1.13172e-17
6256.84268 1.13215e-17
6258.73531 1.14140e-17
6260.61782 1.14228e-17
6262.51044 1.13843e-17
6264.40307 1.13817e-17
6266.29570 1.14003e-17
6268.18833 1.14402e-17
6270.08095 1.15104e-17
6271.97358 1.14598e-17
6273.86621 1.12530e-17
6275.74871 1.11896e-17
6277.64134 1.11805e-17
6279.53397 1.11715e-17
6281.42659 1.11539e-17
6283.31922 1.11620e-17
6285.21185 1.10375e-17
6287.10447 1.11593e-17
6288.98698 1.13090e-17
6290.87961 1.12931e-17
6292.77223 1.11608e-17
6294.66486 1.10625e-17
6296.55749 1.10994e-17
6298.45011 1.14098e-17
6300.34274 1.11966e-17
6302.23537 1.12348e-17
6304.11787 1.12171e-17
6306.01050 1.10851e-17
6307.90313 1.10208e-17
6309.79576 1.11319e-17
6311.68838 1.12785e-17
6313.58101 1.13481e-17
6315.47364 1.12766e-17
6317.36626 1.12767e-17
6319.24877 1.13745e-17
6321.14140 1.13976e-17
6323.03402 1.13157e-17
6324.92665 1.11571e-17
6326.81928 1.11144e-17
6328.71191 1.11503e-17
6330.60453 1.12181e-17
6332.48704 1.13415e-17
6334.37966 1.14925e-17
6336.27229 1.14177e-17
6338.16492 1.11910e-17
6340.05755 1.12245e-17
6341.95017 1.13845e-17
6343.84280 1.12415e-17
6345.73543 1.10172e-17
6347.61793 1.10260e-17
6349.51056 1.11639e-17
6351.40319 1.10344e-17
6353.29581 1.08152e-17
6355.18844 1.06972e-17
6357.08107 1.04122e-17
6358.97369 1.00717e-17
6360.85620 9.95136e-18
6362.74883 1.01398e-17
6364.64145 1.06202e-17
6366.53408 1.08472e-17
6368.42671 1.08317e-17
6370.31934 1.11575e-17
6372.21196 1.15360e-17
6374.10459 1.13848e-17
6375.98710 1.12183e-17
6377.87972 1.13998e-17
6379.77235 1.14362e-17
6381.66498 1.13733e-17
6383.55760 1.14167e-17
6385.45023 1.14262e-17
6387.34286 1.13188e-17
6389.22536 1.12487e-17
6391.11799 1.13285e-17
6393.01062 1.14887e-17
6394.90324 1.13682e-17
6396.79587 1.12476e-17
6398.68850 1.13233e-17
6400.58113 1.13463e-17
6402.47375 1.13678e-17
6404.35626 1.14261e-17
6406.24889 1.13919e-17
6408.14151 1.13648e-17
6410.03414 1.15315e-17
6411.92677 1.15964e-17
6413.81939 1.14765e-17
6415.71202 1.14158e-17
6417.59453 1.15028e-17
6419.48715 1.16000e-17
6421.37978 1.15625e-17
6423.27241 1.15538e-17
6425.16503 1.16205e-17
6427.05766 1.16572e-17
6428.95029 1.15881e-17
6430.84292 1.15226e-17
6432.72542 1.14303e-17
6434.61805 1.16948e-17
6436.51068 1.18578e-17
6438.40330 1.18608e-17
6440.29593 1.18830e-17
6442.18856 1.17269e-17
6444.08118 1.17257e-17
6445.97381 1.16864e-17
6447.85632 1.17634e-17
6449.74894 1.17034e-17
6451.64157 1.15018e-17
6453.53420 1.11686e-17
6455.42682 1.13167e-17
6457.31945 1.13277e-17
6459.21208 1.14015e-17
6461.09459 1.13380e-17
6462.98721 1.13463e-17
6464.87984 1.13756e-17
6466.77247 1.15319e-17
6468.66509 1.15160e-17
6470.55772 1.13786e-17
6472.45035 1.13296e-17
6474.34297 1.13811e-17
6476.22548 1.13649e-17
6478.11811 1.11840e-17
6480.01073 1.11751e-17
6481.90336 1.12529e-17
6483.79599 1.13817e-17
6485.68862 1.15432e-17
6487.58124 1.15921e-17
6489.46375 1.14248e-17
6491.35638 1.14394e-17
6493.24900 1.15961e-17
6495.14163 1.16566e-17
6497.03426 1.14979e-17
6498.92688 1.14075e-17
6500.81951 1.16352e-17
6502.70202 1.16194e-17
6504.59464 1.15993e-17
6506.48727 1.16580e-17
6508.37990 1.13970e-17
6510.27252 1.14227e-17
6512.16515 1.15819e-17
6514.05778 1.14358e-17
6515.95041 1.13812e-17
6517.83291 1.15164e-17
6519.72554 1.17368e-17
6521.61816 1.16291e-17
6523.51079 1.13521e-17
6525.40342 1.15188e-17
6527.29605 1.15678e-17
6529.18867 1.14245e-17
6531.08130 1.13748e-17
6532.96381 1.13785e-17
6534.85643 1.14599e-17
6536.74906 1.16092e-17
6538.64169 1.16425e-17
6540.53431 1.15820e-17
6542.42694 1.17441e-17
6544.31957 1.16961e-17
6546.20207 1.13814e-17
6548.09470 1.13560e-17
6549.98733 1.14501e-17
6551.87996 1.13595e-17
6553.77258 1.13127e-17
6555.66521 1.13370e-17
6557.55784 1.13798e-17
6559.45046 1.15122e-17
6561.33297 1.15309e-17
6563.22560 1.14698e-17
6565.11822 1.15232e-17
6567.01085 1.14320e-17
6568.90348 1.12631e-17
6570.79610 1.11350e-17
6572.68873 1.11996e-17
6574.58136 1.12712e-17
6576.46386 1.12183e-17
6578.35649 1.12407e-17
6580.24912 1.13402e-17
6582.14174 1.15835e-17
6584.03437 1.17336e-17
6585.92700 1.14927e-17
6587.81963 1.11874e-17
6589.70213 1.14374e-17
6591.59476 1.16605e-17
6593.48739 1.15443e-17
6595.38001 1.16032e-17
6597.27264 1.18469e-17
6599.16527 1.17684e-17
6601.05789 1.14617e-17
6602.94040 1.13825e-17
6604.83303 1.15015e-17
6606.72565 1.15720e-17
6608.61828 1.14160e-17
6610.51091 1.12760e-17
6612.40354 1.13798e-17
6614.29616 1.13922e-17
6616.18879 1.13351e-17
6618.07129 1.13391e-17
6619.96392 1.13503e-17
6621.85655 1.13027e-17
6623.74918 1.13452e-17
6625.64180 1.13715e-17
6627.53443 1.14129e-17
6629.42706 1.16170e-17
6631.31968 1.16365e-17
6633.20219 1.16321e-17
6635.09482 1.18286e-17
6636.98744 1.19848e-17
6638.88007 1.21068e-17
6640.77270 1.23607e-17
6642.66532 1.24970e-17
6644.55795 1.22475e-17
6646.44046 1.18552e-17
6648.33309 1.15487e-17
6650.22571 1.15188e-17
6652.11834 1.16794e-17
6654.01097 1.17944e-17
6655.90359 1.18654e-17
6657.79622 1.18045e-17
6659.67873 1.17372e-17
6661.57135 1.19539e-17
6663.46398 1.22008e-17
6665.35661 1.19167e-17
6667.24923 1.15084e-17
6669.14186 1.15168e-17
6671.03449 1.13764e-17
6672.92711 1.12510e-17
6674.80962 1.15076e-17
6676.70225 1.18584e-17
6678.59487 1.18532e-17
6680.48750 1.16704e-17
6682.38013 1.16981e-17
6684.27276 1.18265e-17
6686.16538 1.18815e-17
6688.05801 1.18308e-17
6689.94052 1.17015e-17
6691.83314 1.13878e-17
6693.72577 1.12255e-17
6695.61840 1.12594e-17
6697.51102 1.13005e-17
6699.40365 1.13430e-17
6701.29628 1.13867e-17
6703.17878 1.14234e-17
6705.07141 1.16184e-17
6706.96404 1.16501e-17
6708.85666 1.15033e-17
6710.74929 1.15636e-17
6712.64192 1.16670e-17
6714.53455 1.17063e-17
6716.42717 1.18351e-17
6718.30968 1.17618e-17
6720.20231 1.15068e-17
6722.09493 1.15140e-17
6723.98756 1.16301e-17
6725.88019 1.16398e-17
6727.77281 1.14951e-17
6729.66544 1.14057e-17
6731.54795 1.15860e-17
6733.44057 1.15829e-17
6735.33320 1.21043e-17
6737.22583 1.23149e-17
6739.11845 1.19591e-17
6741.01108 1.16161e-17
6742.90371 1.16603e-17
6744.79634 1.16214e-17
6746.67884 1.15907e-17
6748.57147 1.16613e-17
6750.46410 1.17624e-17
6752.35672 1.17900e-17
6754.24935 1.19437e-17
6756.14198 1.19579e-17
6758.03460 1.16503e-17
6759.91711 1.15477e-17
6761.80974 1.16022e-17
6763.70236 1.16449e-17
6765.59499 1.17679e-17
6767.48762 1.17323e-17
6769.38024 1.16071e-17
6771.27287 1.17241e-17
6773.16550 1.19164e-17
6775.04801 1.19055e-17
6776.94063 1.17470e-17
6778.83326 1.15218e-17
6780.72589 1.12870e-17
6782.61851 1.15322e-17
6784.51114 1.17979e-17
6786.40377 1.15954e-17
6788.29639 1.15849e-17
6790.17890 1.15320e-17
6792.07153 1.14300e-17
6793.96415 1.15644e-17
6795.85678 1.19442e-17
6797.74941 1.20450e-17
6799.64204 1.18072e-17
6801.53466 1.17903e-17
6803.41717 1.19142e-17
6805.30980 1.16601e-17
6807.20242 1.15929e-17
6809.09505 1.18820e-17
6810.98768 1.18915e-17
6812.88030 1.16818e-17
6814.77293 1.16302e-17
6816.66556 1.16864e-17
6818.54806 1.14878e-17
6820.44069 1.13718e-17
6822.33332 1.16167e-17
6824.22594 1.17366e-17
6826.11857 1.17897e-17
6828.01120 1.17019e-17
6829.90383 1.15902e-17
6831.78633 1.13949e-17
6833.67896 1.14918e-17
6835.57159 1.17262e-17
6837.46421 1.17363e-17
6839.35684 1.16920e-17
6841.24947 1.16944e-17
6843.14209 1.17815e-17
6845.03472 1.17631e-17
6846.91723 1.17447e-17
6848.80985 1.17264e-17
6850.70248 1.17080e-17
6852.59511 1.16896e-17
6854.48773 1.16712e-17
6856.38036 1.16529e-17
6858.27299 1.16345e-17
6860.15549 1.16162e-17
6862.04812 1.15978e-17
6863.94075 1.15794e-17
6865.83338 1.15611e-17
6867.72600 1.15427e-17
6869.61863 1.15243e-17
6871.51126 1.15060e-17
6873.40388 1.14876e-17
6875.28639 1.14693e-17
6877.17902 1.14509e-17
6879.07164 1.14326e-17
6880.96427 1.14142e-17
6882.85690 1.13959e-17
6884.74952 1.13775e-17
6886.64215 1.13592e-17
6888.52466 1.13408e-17
6890.41728 1.13225e-17
6892.30991 1.13042e-17
6894.20254 1.12858e-17
6896.09516 1.12675e-17
6897.98779 1.12491e-17
6899.88042 1.12308e-17
6901.77305 1.12125e-17
6903.65555 1.11941e-17
6905.54818 1.11758e-17
6907.44081 1.11575e-17
6909.33343 1.11391e-17
6911.22606 1.11208e-17
6913.11869 1.11025e-17
6915.01131 1.10841e-17
6916.90394 1.10658e-17
6918.78645 1.10475e-17
6920.67907 1.10292e-17
6922.57170 1.10108e-17
6924.46433 1.09925e-17
6926.35696 1.09742e-17
6928.24958 1.09559e-17
6930.14221 1.09376e-17
6932.02471 1.09193e-17
6933.91734 1.09009e-17
6935.80997 1.08826e-17
6937.70260 1.11157e-17
6939.59522 1.11447e-17
6941.48785 1.09464e-17
6943.38048 1.09512e-17
6945.27310 1.11131e-17
6947.15561 1.12783e-17
6949.04824 1.13859e-17
6950.94086 1.13234e-17
6952.83349 1.12390e-17
6954.72612 1.12042e-17
6956.61874 1.10651e-17
6958.51137 1.10863e-17
6960.39388 1.12676e-17
6962.28651 1.13790e-17
6964.17913 1.13866e-17
6966.07176 1.14172e-17
6967.96439 1.13974e-17
6969.85701 1.12432e-17
6971.74964 1.13765e-17
6973.64227 1.15728e-17
6975.52477 1.15328e-17
6977.41740 1.14436e-17
6979.31003 1.14126e-17
6981.20265 1.13118e-17
6983.09528 1.13521e-17
6984.98791 1.12528e-17
6986.88054 1.15474e-17
6988.76304 1.15805e-17
6990.65567 1.10129e-17
6992.54829 1.09277e-17
6994.44092 1.10956e-17
6996.33355 1.11692e-17
6998.22618 1.12416e-17
7000.11880 1.12856e-17
7002.00131 1.12193e-17
7003.89394 1.13082e-17
7005.78656 1.12182e-17
7007.67919 1.11986e-17
7009.57182 1.14339e-17
7011.46444 1.13581e-17
7013.35707 1.12061e-17
7015.24970 1.09278e-17
7017.13220 1.08073e-17
7019.02483 1.10010e-17
7020.91746 1.10568e-17
7022.81009 1.10248e-17
7024.70271 1.10681e-17
7026.59534 1.09519e-17
7028.48797 1.09665e-17
7030.38059 1.11266e-17
7032.26310 1.12605e-17
7034.15573 1.13328e-17
7036.04835 1.13735e-17
7037.94098 1.12903e-17
7039.83361 1.10779e-17
7041.72623 1.11066e-17
7043.61886 1.14005e-17
7045.50137 1.13896e-17
7047.39399 1.12531e-17
7049.28662 1.13900e-17
7051.17925 1.12281e-17
7053.07187 1.09908e-17
7054.96450 1.11105e-17
7056.85713 1.11201e-17
7058.74976 1.12012e-17
7060.63226 1.11859e-17
7062.52489 1.09110e-17
7064.41752 1.09910e-17
7066.31014 1.12627e-17
7068.20277 1.12545e-17
7070.09540 1.12231e-17
7071.98802 1.13014e-17
7073.88065 1.12611e-17
7075.76316 1.12295e-17
7077.65578 1.11419e-17
7079.54841 1.12146e-17
7081.44104 1.13067e-17
7083.33366 1.11569e-17
7085.22629 1.10539e-17
7087.11892 1.11183e-17
7089.00143 1.10082e-17
7090.89405 1.09158e-17
7092.78668 1.10153e-17
7094.67931 1.11507e-17
7096.57193 1.12135e-17
7098.46456 1.11554e-17
7100.35719 1.11088e-17
7102.23969 1.11058e-17
7104.13232 1.10041e-17
7106.02495 1.08387e-17
7107.91757 1.09247e-17
7109.81020 1.09682e-17
7111.70283 1.09133e-17
7113.59546 1.11254e-17
7115.48808 1.12551e-17
7117.37059 1.11434e-17
7119.26321 1.09497e-17
7121.15584 1.08328e-17
7123.04847 1.07980e-17
7124.94110 1.07820e-17
7126.83372 1.09117e-17
7128.72635 1.09587e-17
7130.60886 1.09375e-17
7132.50148 1.06813e-17
7134.39411 1.06430e-17
7136.28674 1.08805e-17
7138.17936 1.10006e-17
7140.07199 1.10657e-17
7141.96462 1.10548e-17
7143.85725 1.09426e-17
7145.73975 1.08779e-17
7147.63238 1.08933e-17
7149.52501 1.08647e-17
7151.41763 1.07680e-17
7153.31026 1.07528e-17
7155.20289 1.05917e-17
7157.09551 1.04008e-17
7158.98814 1.03812e-17
7160.87065 1.03459e-17
7162.76327 1.01005e-17
7164.65590 9.81746e-18
7166.54853 9.79787e-18
7168.44115 9.71703e-18
7170.33378 9.50160e-18
7172.22641 9.49633e-18
7174.10891 9.51898e-18
7176.00154 9.38977e-18
7177.89417 9.43662e-18
7179.78679 9.68336e-18
7181.67942 9.50327e-18
7183.57205 8.85494e-18
7185.46468 8.48816e-18
7187.35730 8.74563e-18
7189.23981 9.03317e-18
7191.13244 8.98828e-18
7193.02506 9.08615e-18
7194.91769 9.40907e-18
7196.81032 9.31466e-18
7198.70294 8.90408e-18
7200.59557 8.76590e-18
7202.48820 8.99805e-18
7204.37070 9.15735e-18
7206.26333 9.08930e-18
7208.15596 9.14306e-18
7210.04859 9.70726e-18
7211.94121 1.00526e-17
7213.83384 9.88707e-18
7215.72647 9.75272e-18
7217.60897 9.95977e-18
7219.50160 1.01159e-17
7221.39423 9.80229e-18
7223.28685 9.58167e-18
7225.17948 9.57638e-18
7227.07211 9.52330e-18
7228.96473 9.44974e-18
7230.84724 9.28437e-18
7232.73987 8.87835e-18
7234.63249 8.66265e-18
7236.52512 8.82922e-18
7238.41775 9.00135e-18
7240.31038 8.76778e-18
7242.20300 8.52454e-18
7244.09563 8.71702e-18
7245.97814 8.83833e-18
7247.87076 8.85562e-18
7249.76339 8.82274e-18
7251.65602 8.63839e-18
7253.54864 8.55882e-18
7255.44127 8.84350e-18
7257.33390 9.05110e-18
7259.22652 8.89108e-18
7261.10903 8.53418e-18
7263.00166 8.14035e-18
7264.89428 8.26671e-18
7266.78691 8.50468e-18
7268.67954 8.36009e-18
7270.57216 8.09903e-18
7272.46479 7.97924e-18
7274.34730 7.91660e-18
7276.23992 7.58813e-18
7278.13255 7.80614e-18
7280.02518 8.45053e-18
7281.91781 8.87646e-18
7283.81043 8.74401e-18
7285.70306 8.21639e-18
7287.59569 7.85861e-18
7289.47819 7.74817e-18
7291.37082 7.58741e-18
7293.26345 7.55786e-18
7295.15607 8.01033e-18
7297.04870 8.11175e-18
7298.94133 7.83846e-18
7300.83396 7.84388e-18
7302.72658 7.64258e-18
7304.60909 7.63199e-18
7306.50171 7.67376e-18
7308.39434 7.54909e-18
7310.28697 7.13288e-18
7312.17960 7.11174e-18
7314.07222 7.46959e-18
7315.96485 7.86745e-18
7317.84736 7.78165e-18
7319.73998 7.67855e-18
7321.63261 7.64416e-18
7323.52524 7.54235e-18
7325.41786 7.61119e-18
7327.31049 7.70677e-18
7329.20312 7.72940e-18
7331.08562 7.45178e-18
7332.97825 7.32572e-18
7334.87088 7.55519e-18
7336.76350 7.61372e-18
7338.65613 7.88268e-18
7340.54876 7.91025e-18
7342.44139 7.43230e-18
7344.33401 7.30097e-18
7346.21652 7.45889e-18
7348.10915 7.51507e-18
7350.00177 7.47270e-18
7351.89440 7.38889e-18
7353.78703 7.39366e-18
7355.67965 7.34607e-18
7357.57228 7.32482e-18
7359.45479 7.30480e-18
7361.34741 7.05558e-18
7363.24004 7.01851e-18
7365.13267 7.26090e-18
7367.02529 7.19855e-18
7368.91792 7.22549e-18
7370.81055 7.37043e-18
7372.70318 7.15969e-18
7374.58568 6.96091e-18
7376.47831 7.02107e-18
7378.37094 7.03378e-18
7380.26356 6.77579e-18
7382.15619 6.67262e-18
7384.04882 6.79922e-18
7385.94144 6.82059e-18
7387.83407 6.75138e-18
7389.71658 6.84110e-18
7391.60920 7.03834e-18
7393.50183 6.95933e-18
7395.39446 6.70613e-18
7397.28708 6.73209e-18
7399.17971 6.72142e-18
7401.07234 6.66327e-18
7402.95485 6.72556e-18
7404.84747 6.71013e-18
7406.74010 6.60948e-18
7408.63273 6.61050e-18
7410.52535 6.67081e-18
7412.41798 6.64581e-18
7414.31061 6.65695e-18
7416.20323 6.46803e-18
7418.08574 6.43078e-18
7419.97837 6.52579e-18
7421.87099 6.72036e-18
7423.76362 6.66022e-18
7425.65625 6.41564e-18
7427.54888 6.69894e-18
7429.44150 6.86732e-18
7431.32401 6.62484e-18
7433.21664 6.64463e-18
7435.10926 6.51524e-18
7437.00189 6.40589e-18
7438.89452 6.32589e-18
7440.78714 6.27672e-18
7442.67977 6.13883e-18
7444.56228 6.15913e-18
7446.45490 6.31793e-18
7448.34753 6.42031e-18
7450.24016 6.53094e-18
7452.13278 6.49377e-18
7454.02541 6.40711e-18
7455.91804 6.46225e-18
7457.81066 6.35562e-18
7459.69317 6.30689e-18
7461.58580 6.52315e-18
7463.47843 6.36675e-18
7465.37105 6.25840e-18
7467.26368 6.27991e-18
7469.15631 6.29030e-18
7471.04893 6.39533e-18
7472.94156 6.37729e-18
7474.82407 6.15124e-18
7476.71669 6.13383e-18
7478.60932 6.29084e-18
7480.50195 6.30551e-18
7482.39457 6.26118e-18
7484.28720 6.28209e-18
7486.17983 6.32268e-18
7488.06233 6.47360e-18
7489.95496 6.44476e-18
7491.84759 6.30342e-18
7493.74021 6.23186e-18
7495.63284 6.23788e-18
7497.52547 6.36708e-18
7499.41810 6.37448e-18
7501.31072 6.24041e-18
7503.19323 6.23754e-18
7505.08586 6.27813e-18
7506.97848 6.29246e-18
7508.87111 6.19739e-18
7510.76374 6.26506e-18
7512.65636 6.48060e-18
7514.54899 6.31607e-18
7516.44162 6.11544e-18
7518.32412 6.24730e-18
7520.21675 6.33591e-18
7522.10938 6.52508e-18
7524.00201 6.53978e-18
7525.89463 6.13253e-18
7527.78726 6.15011e-18
7529.67989 6.33232e-18
7531.56239 6.29365e-18
7533.45502 6.21252e-18
7535.34765 6.19224e-18
7537.24027 6.22971e-18
7539.13290 6.20633e-18
7541.02553 6.27670e-18
7542.91815 6.35326e-18
7544.80066 6.31793e-18
7546.69329 6.16140e-18
7548.58591 6.15029e-18
7550.47854 6.16149e-18
7552.37117 6.17269e-18
7554.26379 6.18388e-18
7556.15642 6.19508e-18
7558.04905 6.20628e-18
7559.93156 6.21747e-18
7561.82418 6.22866e-18
7563.71681 6.23986e-18
7565.60944 6.25105e-18
7567.50206 6.26224e-18
7569.39469 6.27343e-18
7571.28732 6.28462e-18
7573.17994 6.29581e-18
7575.06245 6.30699e-18
7576.95508 6.31818e-18
7578.84770 6.32936e-18
7580.74033 6.34055e-18
7582.63296 6.35173e-18
7584.52559 6.36291e-18
7586.41821 6.37409e-18
7588.30072 6.38527e-18
7590.19334 6.39645e-18
7592.08597 6.40763e-18
7593.97860 6.41881e-18
7595.87123 6.42998e-18
7597.76385 6.44116e-18
7599.65648 6.45233e-18
7601.54911 6.46350e-18
7603.43161 6.47468e-18
7605.32424 6.48585e-18
7607.21687 6.49702e-18
7609.10949 6.50819e-18
7611.00212 6.51936e-18
7612.89475 6.53052e-18
7614.78737 6.54169e-18
7616.66988 6.55285e-18
7618.56251 6.56402e-18
7620.45514 6.57518e-18
7622.34776 6.58634e-18
7624.24039 6.59751e-18
7626.13302 6.60867e-18
7628.02564 6.61982e-18
7629.91827 6.63098e-18
7631.80078 6.64214e-18
7633.69340 6.65329e-18
7635.58603 6.66445e-18
7637.47866 6.67561e-18
7639.37128 6.68676e-18
7641.26391 6.69791e-18
7643.15654 6.70906e-18
7645.04916 6.72021e-18
7646.93167 6.73136e-18
7648.82430 6.74251e-18
7650.71692 6.75366e-18
7652.60955 6.76480e-18
7654.50218 6.77595e-18
7656.39481 6.78710e-18
7658.28743 6.79824e-18
7660.16994 6.80938e-18
7662.06257 6.82052e-18
7663.95519 6.83166e-18
7665.84782 6.84280e-18
7667.74045 6.85394e-18
7669.63307 6.86508e-18
7671.52570 6.87622e-18
7673.40821 6.88735e-18
7675.30083 6.89848e-18
7677.19346 6.90962e-18
7679.08609 6.92075e-18
7680.97871 6.93188e-18
7682.87134 7.12077e-18
7684.76397 7.08240e-18
7686.65660 6.77726e-18
7688.53910 6.59998e-18
7690.43173 6.66756e-18
7692.32436 6.92941e-18
7694.21698 7.05757e-18
7696.10961 7.16652e-18
7698.00224 7.13114e-18
7699.89486 7.17021e-18
7701.78749 7.19985e-18
7703.67000 7.06536e-18
7705.56262 6.74418e-18
7707.45525 6.62875e-18
7709.34788 6.90620e-18
7711.24050 7.17830e-18
7713.13313 7.17406e-18
7715.02576 7.16655e-18
7716.90827 7.06908e-18
7718.80089 7.01409e-18
7720.69352 7.04654e-18
7722.58615 7.14202e-18
7724.47877 6.90178e-18
7726.37140 6.76671e-18
7728.26403 7.12797e-18
7730.14653 7.27040e-18
7732.03916 7.17271e-18
7733.93179 7.25944e-18
7735.82441 7.38176e-18
7737.71704 7.25010e-18
7739.60967 7.13179e-18
7741.50230 7.10721e-18
7743.39492 7.06124e-18
7745.27743 7.20350e-18
7747.17006 7.71587e-18
7749.06268 7.58058e-18
7750.95531 7.19948e-18
7752.84794 7.02517e-18
7754.74056 6.89853e-18
7756.63319 6.83864e-18
7758.52582 6.77508e-18
7760.40832 7.09429e-18
7762.30095 7.14637e-18
7764.19358 6.95497e-18
7766.08620 6.94337e-18
7767.97883 7.01315e-18
7769.87146 7.01724e-18
7771.76409 6.94617e-18
7773.64659 6.93784e-18
7775.53922 7.08458e-18
7777.43185 6.98784e-18
7779.32447 7.18698e-18
7781.21710 7.32577e-18
7783.10973 7.05604e-18
7785.00235 7.06099e-18
7786.89498 7.15837e-18
7788.77749 7.31528e-18
7790.67011 7.52858e-18
7792.56274 7.65056e-18
7794.45537 7.59286e-18
7796.34799 7.44459e-18
7798.24062 7.34710e-18
7800.13325 7.31664e-18
7802.01575 7.21119e-18
7803.90838 7.17876e-18
7805.80101 7.21172e-18
7807.69364 7.44553e-18
7809.58626 7.63027e-18
7811.47889 7.52433e-18
7813.37152 7.29521e-18
7815.26414 7.33899e-18
7817.14665 7.41114e-18
7819.03928 7.17948e-18
7820.93190 7.56131e-18
7822.82453 7.67464e-18
7824.71716 7.30027e-18
7826.60978 7.26321e-18
7828.50241 7.43955e-18
7830.38492 7.51118e-18
7832.27754 7.58466e-18
7834.17017 7.59142e-18
7836.06280 7.55516e-18
7837.95543 7.54511e-18
7839.84805 7.57787e-18
7841.74068 7.31537e-18
7843.63331 7.31749e-18
7845.51581 7.63480e-18
7847.40844 7.61154e-18
7849.30107 7.45340e-18
7851.19369 7.42823e-18
7853.08632 7.31734e-18
7854.97895 7.20077e-18
7856.87157 7.49755e-18
7858.75408 7.70235e-18
7860.64671 7.57680e-18
7862.53933 7.48896e-18
7864.43196 7.43547e-18
7866.32459 7.53052e-18
7868.21721 7.65903e-18
7870.10984 7.62885e-18
7872.00247 7.69366e-18
7873.88497 7.61704e-18
7875.77760 7.48384e-18
7877.67023 7.54843e-18
7879.56286 7.64751e-18
7881.45548 7.55329e-18
7883.34811 7.60000e-18
7885.24074 7.69470e-18
7887.13336 7.67899e-18
7889.01587 7.69713e-18
7890.90850 7.58493e-18
7892.80112 7.41604e-18
7894.69375 7.50710e-18
7896.58638 7.52629e-18
7898.47901 7.41747e-18
7900.37163 7.39096e-18
7902.25414 7.49217e-18
7904.14676 7.63455e-18
7906.03939 7.41521e-18
7907.93202 7.21106e-18
7909.82465 7.26438e-18
7911.71727 7.72797e-18
7913.60990 8.05186e-18
7915.50253 7.71314e-18
7917.38503 8.00635e-18
7919.27766 8.25603e-18
7921.17029 7.98832e-18
7923.06291 7.85667e-18
7924.95554 7.76366e-18
7926.84817 8.00567e-18
7928.74079 8.46795e-18
7930.62330 8.36009e-18
7932.51593 8.16154e-18
7934.40855 8.12921e-18
7936.30118 8.11601e-18
7938.19381 8.02850e-18
7940.08644 7.89243e-18
7941.97906 7.74574e-18
7943.87169 7.81674e-18
7945.75420 7.76952e-18
7947.64682 7.49767e-18
7949.53945 7.59834e-18
7951.43208 7.66267e-18
7953.32470 7.48082e-18
7955.21733 7.52349e-18
7957.10996 7.65838e-18
7958.99246 7.34043e-18
7960.88509 7.32644e-18
7962.77772 7.31173e-18
7964.67034 7.50778e-18
7966.56297 7.74896e-18
7968.45560 7.76159e-18
7970.34823 7.52228e-18
7972.24085 7.42088e-18
7974.12336 7.61003e-18
7976.01599 7.60146e-18
7977.90861 7.73725e-18
7979.80124 7.86075e-18
7981.69387 7.86353e-18
7983.58649 8.00783e-18
7985.47912 7.90374e-18
7987.37175 7.58015e-18
7989.25425 7.64109e-18
7991.14688 7.76965e-18
7993.03951 7.64492e-18
7994.93214 7.44856e-18
7996.82476 7.35245e-18
7998.71739 7.45638e-18
8000.61002 7.41940e-18
8002.49252 7.43664e-18
8004.38515 7.79732e-18
8006.27778 7.75736e-18
8008.17040 7.64646e-18
8010.06303 7.84180e-18
8011.95566 7.86924e-18
8013.84828 7.65991e-18
8015.74091 7.54328e-18
8017.62342 7.51710e-18
8019.51604 7.56647e-18
8021.40867 7.14368e-18
8023.30130 7.19195e-18
8025.19392 7.51053e-18
8027.08655 7.71447e-18
8028.97918 7.92395e-18
8030.86169 7.98511e-18
8032.75431 7.87508e-18
8034.64694 7.78940e-18
8036.53957 7.73437e-18
8038.43219 7.68552e-18
8040.32482 7.76147e-18
8042.21745 7.80374e-18
8044.11007 7.94174e-18
8045.99258 7.94799e-18
8047.88521 8.06720e-18
8049.77783 8.13544e-18
8051.67046 8.06622e-18
8053.56309 8.14815e-18
8055.45572 8.10967e-18
8057.34834 8.04874e-18
8059.23085 8.04667e-18
8061.12348 8.11567e-18
8063.01610 8.12265e-18
8064.90873 8.11150e-18
8066.80136 8.07043e-18
8068.69398 8.14786e-18
8070.58661 8.08843e-18
8072.47924 8.12558e-18
8074.36174 8.07359e-18
8076.25437 7.94471e-18
8078.14700 7.92624e-18
8080.03962 7.96198e-18
8081.93225 8.09602e-18
8083.82488 8.20462e-18
8085.71751 8.16328e-18
8087.60001 8.27961e-18
8089.49264 8.42607e-18
8091.38526 8.39299e-18
8093.27789 8.30371e-18
8095.17052 8.02090e-18
8097.06315 7.89830e-18
8098.95577 8.10811e-18
8100.84840 8.10590e-18
8102.73091 8.04169e-18
8104.62353 8.07089e-18
8106.51616 7.98868e-18
8108.40879 8.00664e-18
8110.30141 8.08248e-18
8112.19404 7.97003e-18
8114.08667 8.04654e-18
8115.96917 8.27864e-18
8117.86180 8.23337e-18
8119.75443 8.08854e-18
8121.64706 8.02964e-18
8123.53968 7.87999e-18
8125.43231 7.74975e-18
8127.32494 7.72311e-18
8129.21756 7.79229e-18
8131.10007 7.75507e-18
8132.99270 7.72625e-18
8134.88532 7.69809e-18
8136.77795 7.86633e-18
8138.67058 8.04943e-18
8140.56320 7.96702e-18
8142.45583 7.76386e-18
8144.34846 7.66219e-18
8146.23096 7.56438e-18
8148.12359 7.57794e-18
8150.01622 7.63506e-18
8151.90884 7.60301e-18
8153.80147 7.61489e-18
8155.69410 7.84107e-18
8157.58673 7.87915e-18
8159.46923 7.41592e-18
8161.36186 6.99313e-18
8163.25449 6.99254e-18
8165.14711 7.05458e-18
8167.03974 7.15839e-18
8168.93237 7.35337e-18
8170.82499 7.55543e-18
8172.70750 7.80262e-18
8174.60013 7.84856e-18
8176.49275 7.52647e-18
8178.38538 7.17126e-18
8180.27801 7.19910e-18
8182.17064 7.74645e-18
8184.06326 8.11707e-18
8185.95589 8.02381e-18
8187.83839 7.65675e-18
8189.73102 7.57864e-18
8191.62365 7.81473e-18
8193.51628 8.10195e-18
8195.40890 7.94648e-18
8197.30153 7.71714e-18
8199.19416 7.65565e-18
8201.08678 7.86673e-18
8202.96929 8.29791e-18
8204.86192 8.59549e-18
8206.75454 8.51539e-18
8208.64717 8.28856e-18
8210.53980 8.11580e-18
8212.43243 8.33013e-18
8214.32505 8.36333e-18
8216.20756 8.40110e-18
8218.10019 8.35077e-18
8219.99281 8.09367e-18
8221.88544 8.02373e-18
8223.77807 7.81332e-18
8225.67069 7.11233e-18
8227.56332 6.60800e-18
8229.45595 6.46913e-18
8231.33845 6.80771e-18
8233.23108 7.57055e-18
8235.12371 8.14133e-18
8237.01633 8.15894e-18
8238.90896 8.11694e-18
8240.80159 8.13571e-18
8242.69421 8.17965e-18
8244.57672 8.36510e-18
8246.46935 8.55200e-18
8248.36197 8.63425e-18
8250.25460 8.54168e-18
8252.14723 8.29726e-18
8254.03986 8.11996e-18
8255.93248 8.09446e-18
8257.82511 8.04232e-18
8259.70762 8.12709e-18
8261.60024 8.32523e-18
8263.49287 8.46489e-18
8265.38550 8.58625e-18
8267.27812 8.68389e-18
8269.17075 8.53557e-18
8271.06338 8.24824e-18
8272.94588 8.06399e-18
8274.83851 7.82186e-18
8276.73114 7.78036e-18
8278.62377 8.04045e-18
8280.51639 8.05885e-18
8282.40902 8.15975e-18
8284.30165 8.42926e-18
8286.19427 8.47685e-18
8288.07678 8.43351e-18
8289.96941 8.30936e-18
8291.86203 8.11806e-18
8293.75466 8.20537e-18
8295.64729 8.36568e-18
8297.53991 8.61576e-18
8299.43254 8.64428e-18
8301.32517 8.68047e-18
8303.20767 8.24080e-18
8305.10030 8.05549e-18
8306.99293 8.30852e-18
8308.88555 8.42429e-18
8310.77818 8.34568e-18
8312.67081 8.24781e-18
8314.56344 8.34201e-18
8316.44594 8.26983e-18
8318.33857 8.19615e-18
8320.23120 8.20062e-18
8322.12382 8.22595e-18
8324.01645 8.54124e-18
8325.90908 8.62821e-18
8327.80170 8.79648e-18
8329.69433 8.96150e-18
8331.57684 8.66536e-18
8333.46946 8.23506e-18
8335.36209 8.31220e-18
8337.25472 8.67542e-18
8339.14735 8.69575e-18
8341.03997 8.24254e-18
8342.93260 8.13269e-18
8344.81510 8.97574e-18
8346.70773 9.83547e-18
8348.60036 9.51388e-18
8350.49299 9.40444e-18
8352.38561 9.15933e-18
8354.27824 8.86132e-18
8356.17087 8.79398e-18
8358.06349 8.97915e-18
8359.94600 9.13093e-18
8361.83863 9.10000e-18
8363.73125 9.06675e-18
8365.62388 9.18980e-18
8367.51651 9.41930e-18
8369.40913 9.39067e-18
8371.30176 9.28479e-18
8373.18427 9.47969e-18
8375.07690 9.50069e-18
8376.96952 9.45177e-18
8378.86215 9.40660e-18
8380.75478 9.28867e-18
8382.64740 9.44585e-18
8384.54003 9.79002e-18
8386.43266 9.78978e-18
8388.31516 9.57786e-18
8390.20779 9.90319e-18
8392.10042 1.01647e-17
8393.99304 9.92683e-18
8395.88567 9.97905e-18
8397.77830 9.87216e-18
8399.67093 9.38321e-18
8401.55343 9.59034e-18
8403.44606 9.66677e-18
8405.33869 9.76770e-18
8407.23131 9.83903e-18
8409.12394 9.67477e-18
8411.01657 9.58498e-18
8412.90919 9.55675e-18
8414.80182 9.41126e-18
8416.68433 9.36753e-18
8418.57695 9.34691e-18
8420.46958 9.43376e-18
8422.36221 9.48308e-18
8424.25483 9.47759e-18
8426.14746 8.96241e-18
8428.04009 9.08400e-18
8429.93271 9.44837e-18
8431.81522 9.37587e-18
8433.70785 9.48235e-18
8435.60047 9.72332e-18
8437.49310 9.87097e-18
8439.38573 9.81396e-18
8441.27836 9.61787e-18
8443.17098 9.51227e-18
8445.05349 9.62091e-18
8446.94612 9.99654e-18
8448.83874 1.05274e-17
8450.73137 1.04501e-17
8452.62400 9.93119e-18
8454.51662 9.50942e-18
8456.40925 9.57409e-18
8458.29176 9.89525e-18
8460.18438 9.74392e-18
8462.07701 9.02913e-18
8463.96964 9.22714e-18
8465.86226 9.76274e-18
8467.75489 9.82143e-18
8469.64752 9.73004e-18
8471.53003 9.96059e-18
8473.42265 1.03917e-17
8475.31528 1.04926e-17
8477.20791 1.03487e-17
8479.10053 1.03068e-17
8480.99316 1.02901e-17
8482.88579 1.01793e-17
8484.77841 1.00958e-17
8486.67104 1.00691e-17
8488.55355 9.82363e-18
8490.44617 9.90789e-18
8492.33880 1.00253e-17
8494.23143 1.00158e-17
8496.12405 1.01662e-17
8498.01668 1.00729e-17
8499.90931 1.01245e-17
8501.79182 1.03118e-17
8503.68444 1.03735e-17
8505.57707 1.04085e-17
8507.46970 1.04708e-17
8509.36232 1.04740e-17
8511.25495 1.03695e-17
8513.14758 1.03815e-17
8515.04020 1.04302e-17
8516.92271 1.05075e-17
8518.81534 1.04498e-17
8520.70796 1.02256e-17
8522.60059 1.00718e-17
8524.49322 1.02568e-17
8526.38585 1.01572e-17
8528.27847 1.00949e-17
8530.16098 1.02568e-17
8532.05360 1.03855e-17
8533.94623 9.98190e-18
8535.83886 9.84004e-18
8537.73149 9.97688e-18
8539.62411 1.00267e-17
8541.51674 9.95113e-18
8543.40937 1.00043e-17
8545.29187 1.01542e-17
8547.18450 1.03615e-17
8549.07713 1.06137e-17
8550.96975 1.06389e-17
8552.86238 1.02534e-17
8554.75501 1.00165e-17
8556.64764 1.00397e-17
8558.53014 1.00349e-17
8560.42277 1.02707e-17
8562.31540 1.03654e-17
8564.20802 1.04453e-17
8566.10065 1.03211e-17
8567.99328 1.02387e-17
8569.88590 1.02830e-17
8571.76841 1.02371e-17
8573.66104 1.03115e-17
8575.55366 1.03083e-17
8577.44629 1.00153e-17
8579.33892 9.92850e-18
8581.23154 1.02777e-17
8583.12417 1.02732e-17
8585.01680 1.02151e-17
8586.90942 1.02099e-17
8588.79193 1.02101e-17
8590.68456 1.00742e-17
8592.57719 1.01882e-17
8594.46981 1.04268e-17
8596.36244 1.06269e-17
8598.25507 1.05516e-17
8600.14769 1.04711e-17
8602.03020 1.04435e-17
8603.92283 1.03967e-17
8605.81545 1.02242e-17
8607.70808 1.01373e-17
8609.60071 1.01083e-17
8611.49333 1.02761e-17
8613.38596 1.01976e-17
8615.27859 1.03080e-17
8617.16109 1.05267e-17
8619.05372 1.05863e-17
8620.94635 1.07096e-17
8622.83898 1.04770e-17
8624.73160 1.04076e-17
8626.62423 1.04585e-17
8628.51686 1.04174e-17
8630.39936 1.03965e-17
8632.29199 1.03626e-17
8634.18462 1.01557e-17
8636.07724 1.01368e-17
8637.96987 1.02322e-17
8639.86250 1.05180e-17
8641.75512 1.05154e-17
8643.63763 1.03470e-17
8645.53026 1.04137e-17
8647.42288 1.02104e-17
8649.31551 9.89453e-18
8651.20814 1.01466e-17
8653.10076 1.04418e-17
8654.99339 1.03310e-17
8656.88602 1.00835e-17
8658.76852 9.69484e-18
8660.66115 9.60429e-18
8662.55378 9.59354e-18
8664.44641 1.02310e-17
8666.33903 1.03223e-17
8668.23166 1.03196e-17
8670.12429 1.06001e-17
8672.00679 1.06281e-17
8673.89942 1.02937e-17
8675.79205 9.90505e-18
8677.68467 9.81701e-18
8679.57730 9.96867e-18
8681.46993 1.00283e-17
8683.36255 9.96436e-18
8685.25518 1.00323e-17
8687.14781 1.00982e-17
8689.03031 1.03742e-17
8690.92294 1.03241e-17
8692.81557 1.02501e-17
8694.70820 1.03919e-17
8696.60082 1.03097e-17
8698.49345 1.04749e-17
8700.38608 1.09222e-17
8702.26858 1.08029e-17
8704.16121 1.02611e-17
8706.05384 9.92260e-18
8707.94646 1.01523e-17
8709.83909 1.03451e-17
8711.73172 1.03590e-17
8713.62435 1.03570e-17
8715.51697 1.02586e-17
8717.39948 9.92656e-18
8719.29210 9.78386e-18
8721.18473 9.91039e-18
8723.07736 9.81557e-18
8724.96999 9.80276e-18
8726.86261 9.62484e-18
8728.75524 9.75431e-18
8730.63775 9.92636e-18
8732.53037 9.86738e-18
8734.42300 9.81610e-18
8736.31563 9.89136e-18
8738.20825 9.99441e-18
8740.10088 1.05241e-17
8741.99351 1.06554e-17
8743.87601 1.03011e-17
8745.76864 9.97173e-18
8747.66127 9.80403e-18
8749.55390 1.00026e-17
8751.44652 1.00690e-17
8753.33915 9.95497e-18
8755.23178 1.00231e-17
8757.12440 1.02709e-17
8759.00691 1.03958e-17
8760.89954 1.06657e-17
8762.79216 1.11846e-17
8764.68479 1.09395e-17
8766.57742 1.07680e-17
8768.47004 1.06474e-17
8770.36267 1.05624e-17
8772.25530 1.08519e-17
8774.13780 1.09968e-17
8776.03043 1.06772e-17
8777.92306 1.03653e-17
8779.81568 1.01121e-17
8781.70831 9.93557e-18
8783.60094 1.01145e-17
8785.49357 1.05094e-17
8787.37607 1.05201e-17
8789.26870 1.06223e-17
8791.16133 1.06291e-17
8793.05395 1.05066e-17
8794.94658 1.01991e-17
8796.83921 9.94885e-18
8798.73183 9.96060e-18
8800.62446 1.01144e-17
8802.50697 1.03536e-17
8804.39959 1.03493e-17
8806.29222 1.01160e-17
8808.18485 1.00849e-17
8810.07748 1.01273e-17
8811.97010 1.00553e-17
8813.86273 1.00735e-17
8815.74524 1.03009e-17
8817.63786 1.03614e-17
8819.53049 1.04194e-17
8821.42312 1.06385e-17
8823.31574 1.07085e-17
8825.20837 1.06152e-17
8827.10100 1.06086e-17
8828.98350 1.06274e-17
8830.87613 1.03270e-17
8832.76876 1.03226e-17
8834.66138 1.06134e-17
8836.55401 1.05506e-17
8838.44664 1.04483e-17
8840.33927 1.00776e-17
8842.23189 9.80691e-18
8844.11440 1.01266e-17
8846.00703 1.06568e-17
8847.89965 1.08104e-17
8849.79228 1.06368e-17
8851.68491 1.05047e-17
8853.57753 1.04690e-17
8855.47016 1.02513e-17
8857.36279 1.02540e-17
8859.24529 1.04272e-17
8861.13792 1.06216e-17
8863.03055 1.11959e-17
8864.92317 1.13701e-17
8866.81580 1.12730e-17
8868.70843 1.09646e-17
8870.60105 1.07081e-17
8872.49368 1.04640e-17
8874.37619 1.01516e-17
8876.26881 1.05014e-17
8878.16144 1.07803e-17
8880.05407 1.05353e-17
8881.94670 1.08021e-17
8883.83932 1.10754e-17
8885.73195 1.10915e-17
8887.61446 1.07787e-17
8889.50708 1.03549e-17
8891.39971 1.02114e-17
8893.29234 1.01362e-17
8895.18496 9.90798e-18
8897.07759 1.03579e-17
8898.97022 1.05053e-17
8900.85272 1.05574e-17
8902.74535 1.08481e-17
8904.63798 1.01077e-17
8906.53060 9.86261e-18
8908.42323 9.90077e-18
8910.31586 9.90458e-18
8912.20849 9.90569e-18
8914.10111 9.90904e-18
8915.98362 9.91182e-18
8917.87625 9.91523e-18
8919.76887 9.92429e-18
8921.66150 9.88676e-18
8923.55413 9.82766e-18
8925.44675 1.02306e-17
8927.33938 1.07421e-17
8929.22189 1.08253e-17
8931.11451 1.06080e-17
8933.00714 1.03303e-17
8934.89977 1.02781e-17
8936.79240 1.07195e-17
8938.68502 9.84194e-18
8940.57765 9.68918e-18
8942.47028 9.74666e-18
8944.35278 1.04160e-17
8946.24541 1.12899e-17
8948.13804 1.14731e-17
8950.03066 1.21354e-17
8951.92329 1.12143e-17
8953.81592 9.22947e-18
8955.70854 9.01168e-18
8957.59105 9.71084e-18
8959.48368 1.02721e-17
8961.37630 9.68027e-18
8963.26893 9.00131e-18
8965.16156 8.79852e-18
8967.05419 9.07658e-18
8968.94681 9.08832e-18
8970.83944 9.45786e-18
8972.73207 1.01296e-17
8974.61457 1.01191e-17
8976.50720 8.93815e-18
8978.39983 7.91634e-18
8980.29245 7.92907e-18
8982.18508 8.75302e-18
8984.07771 9.43990e-18
8985.97033 9.35487e-18
8987.85284 9.01931e-18
8989.74547 9.21709e-18
8991.63809 9.25356e-18
8993.53072 9.83402e-18
8995.42335 1.01228e-17
8997.31597 9.87912e-18
8999.20860 9.97757e-18
9001.09111 9.38306e-18
9002.98373 8.51597e-18
9004.87636 8.65530e-18
9006.76899 8.69364e-18
9008.66162 9.36016e-18
9010.55424 9.78969e-18
9012.44687 9.38869e-18
9012.44743 9.38869e-18
9014.10502 9.64960e-18
9015.76261 9.16648e-18
9017.42020 8.68362e-18
9019.08783 8.77308e-18
9020.74542 8.86240e-18
9022.40301 8.61295e-18
9024.07065 8.36361e-18
9025.72824 8.43691e-18
9027.38583 8.51024e-18
9029.04342 8.68865e-18
9030.71106 8.86714e-18
9032.36865 9.25175e-18
9034.02624 9.63601e-18
9035.68383 9.12860e-18
9037.35146 8.62135e-18
9039.00905 8.46458e-18
9040.66664 8.30798e-18
9042.33428 8.59968e-18
9043.99187 8.89111e-18
9045.64946 8.49621e-18
9047.30705 8.10132e-18
9048.97468 7.68502e-18
9050.63227 7.26916e-18
9052.28986 7.90973e-18
9053.95750 8.55007e-18
9055.61509 8.64408e-18
9057.27268 8.73785e-18
9058.93027 8.26960e-18
9060.59791 7.80150e-18
9062.25550 7.70110e-18
9063.91309 7.60081e-18
9065.57068 7.70086e-18
9067.23831 7.80077e-18
9068.89590 7.46828e-18
9070.55349 7.13607e-18
9072.21108 7.50641e-18
9073.87872 7.87659e-18
9075.53631 7.88254e-18
9077.19390 7.88851e-18
9078.86153 7.96303e-18
9080.51912 8.03723e-18
9082.17671 7.40073e-18
9083.83430 6.76468e-18
9085.50194 7.23378e-18
9087.15953 7.70280e-18
9088.81712 8.00306e-18
9090.48476 8.30305e-18
9092.14235 8.02042e-18
9093.79994 7.73825e-18
9095.45753 8.29323e-18
9097.12516 8.84772e-18
9098.78275 8.23975e-18
9100.44034 7.63223e-18
9102.09793 8.01075e-18
9103.76557 8.38944e-18
9105.42316 9.13388e-18
9107.08075 9.87783e-18
9108.74838 9.48260e-18
9110.40597 9.08734e-18
9112.06356 8.55385e-18
9113.72115 8.02054e-18
9115.38879 7.86295e-18
9117.04638 7.70553e-18
9118.70397 7.88880e-18
9120.36156 8.07198e-18
9122.02920 7.97771e-18
9123.68679 7.88353e-18
9125.34438 8.06502e-18
9127.01201 8.24648e-18
9128.66960 8.48366e-18
9130.32719 8.72077e-18
9131.98478 8.84201e-18
9133.65242 8.96320e-18
9135.31001 8.94700e-18
9136.96760 8.93084e-18
9138.63523 9.08507e-18
9140.29282 9.23913e-18
9141.95041 8.94342e-18
9143.60800 8.64785e-18
9145.27564 8.71405e-18
9146.93323 8.78015e-18
9148.59082 8.65397e-18
9150.24841 8.52770e-18
9151.91605 8.17603e-18
9153.57364 7.82474e-18
9155.23123 8.45314e-18
9156.89886 9.08127e-18
9158.55645 9.14955e-18
9160.21404 9.21770e-18
9161.87163 9.05443e-18
9163.53927 8.89101e-18
9165.19686 8.39198e-18
9166.85445 7.89328e-18
9168.51204 8.24897e-18
9170.17967 8.60454e-18
9171.83726 8.61873e-18
9173.49485 8.63291e-18
9175.15244 8.53655e-18
9176.82008 8.44042e-18
9178.47767 8.88724e-18
9180.13526 9.33394e-18
9181.80290 9.46487e-18
9183.46049 9.59569e-18
9185.11808 9.42444e-18
9186.77567 9.25330e-18
9188.44330 9.36269e-18
9190.10089 9.47196e-18
9191.75848 9.34017e-18
9193.42612 9.20829e-18
9195.08371 8.83072e-18
9196.74130 8.45350e-18
9198.39889 8.99793e-18
9200.06652 9.54214e-18
9201.72411 9.56231e-18
9203.38170 9.58227e-18
9205.03929 9.13397e-18
9206.70693 8.68585e-18
9208.36452 8.67402e-18
9210.02211 8.66236e-18
9211.68975 9.04088e-18
9213.34734 9.41919e-18
9215.00493 9.31507e-18
9216.66252 9.21093e-18
9218.33015 9.04062e-18
9219.98774 8.87031e-18
9221.64533 8.68991e-18
9223.31297 8.50964e-18
9224.97056 8.64715e-18
9226.62815 8.78443e-18
9228.28574 8.29170e-18
9229.95337 7.79949e-18
9231.61096 8.59641e-18
9233.26855 9.39312e-18
9234.92614 9.77858e-18
9236.59378 1.01636e-17
9238.25137 9.58232e-18
9239.90896 9.00115e-18
9241.56655 8.70159e-18
9243.23419 8.40240e-18
9244.89178 8.99172e-18
9246.54937 9.58060e-18
9248.21700 9.14108e-18
9249.87459 8.70179e-18
9251.53218 8.73323e-18
9253.18977 8.76459e-18
9254.85741 8.66505e-18
9256.51500 8.56560e-18
9258.17259 8.68522e-18
9259.84022 8.80486e-18
9261.49781 9.02354e-18
9263.15540 9.24208e-18
9264.81299 9.08132e-18
9266.48063 8.92039e-18
9268.13822 8.35550e-18
9269.79581 7.79112e-18
9271.45340 8.43880e-18
9273.12104 9.08606e-18
9274.77863 8.77821e-18
9276.43622 8.47065e-18
9278.10385 8.93672e-18
9279.76144 9.40238e-18
9281.41903 8.94572e-18
9283.07662 8.48927e-18
9284.74426 8.50134e-18
9286.40185 8.51348e-18
9288.05944 8.72849e-18
9289.71703 8.94313e-18
9291.38466 8.23509e-18
9293.04225 7.52743e-18
9294.69984 7.73835e-18
9296.36748 7.94932e-18
9298.02507 8.25668e-18
9299.68266 8.56391e-18
9301.34025 8.58011e-18
9303.00789 8.59627e-18
9304.66548 8.54642e-18
9306.32307 8.49645e-18
9307.99070 8.15743e-18
9309.64829 7.81847e-18
9311.30588 7.65926e-18
9312.96347 7.50020e-18
9314.63111 7.65119e-18
9316.28870 7.80193e-18
9317.94629 7.32050e-18
9319.60388 6.83903e-18
9321.27151 6.19365e-18
9322.92910 5.54885e-18
9324.58669 6.23718e-18
9326.25433 6.92525e-18
9327.91192 7.02017e-18
9329.56951 7.11515e-18
9331.22710 7.33855e-18
9332.89474 7.56170e-18
9334.55233 7.18463e-18
9336.20992 6.80778e-18
9337.87755 6.93998e-18
9339.53514 7.07215e-18
9341.19273 7.14707e-18
9342.85032 7.22217e-18
9344.51796 7.62282e-18
9346.17555 8.02335e-18
9347.83314 8.11919e-18
9349.49073 8.21458e-18
9351.15836 7.20219e-18
9352.81595 6.19019e-18
9354.47354 6.01202e-18
9356.13113 5.83433e-18
9357.79877 6.78807e-18
9359.45636 7.74137e-18
9361.11395 7.65211e-18
9362.78159 7.56306e-18
9364.43918 7.98586e-18
9366.09677 8.40847e-18
9367.75436 8.40808e-18
9369.42199 8.40767e-18
9371.07958 8.34416e-18
9372.73717 8.28019e-18
9374.40481 7.06250e-18
9376.06240 5.84536e-18
9377.71999 5.87678e-18
9379.37758 5.90839e-18
9381.04521 6.41603e-18
9382.70280 6.92346e-18
9384.36039 6.94834e-18
9386.01798 6.97321e-18
9387.68562 6.97744e-18
9389.34321 6.98162e-18
9391.00080 6.95415e-18
9392.66844 6.92684e-18
9394.32603 7.24688e-18
9395.98362 7.56666e-18
9397.64121 7.23878e-18
9399.30884 6.91105e-18
9400.96643 6.93083e-18
9402.62402 6.95064e-18
9404.28161 7.04286e-18
9405.94925 7.13496e-18
9407.60684 6.95018e-18
9409.26443 6.76565e-18
9410.93206 7.13225e-18
9412.58965 7.49870e-18
9414.24724 7.56770e-18
9415.90483 7.63655e-18
9417.57247 7.34641e-18
9419.23006 7.05638e-18
9420.88765 6.97294e-18
9422.54524 6.88941e-18
9424.21288 6.58944e-18
9425.87047 6.28995e-18
9427.52806 7.10460e-18
9429.19569 7.91867e-18
9430.85328 7.42472e-18
9432.51087 6.93088e-18
9434.16846 6.77344e-18
9435.83610 6.61568e-18
9437.49369 5.74768e-18
9439.15128 4.87989e-18
9440.80887 4.55896e-18
9442.47650 4.23877e-18
9444.13409 5.66284e-18
9445.79168 7.08627e-18
9447.45932 7.06027e-18
9449.11691 7.03435e-18
9450.77450 7.21029e-18
9452.43209 7.38597e-18
9454.09973 6.96056e-18
9455.75732 6.53514e-18
9457.41491 6.01311e-18
9459.07250 5.49139e-18
9460.74013 5.63222e-18
9462.39772 5.77319e-18
9464.05531 6.27259e-18
9465.72295 6.77148e-18
9467.38054 6.10390e-18
9469.03813 5.43683e-18
9470.69572 5.92280e-18
9472.36335 6.40880e-18
9474.02094 6.95662e-18
9475.67853 7.50433e-18
9477.34617 7.78558e-18
9479.00376 8.06657e-18
9480.66135 7.76212e-18
9482.31894 7.45783e-18
9483.98658 7.46496e-18
9485.64417 7.47190e-18
9487.30176 6.96718e-18
9488.95935 6.46266e-18
9490.62698 6.40984e-18
9492.28457 6.35700e-18
9493.94216 6.19246e-18
9495.60980 6.02837e-18
9497.26739 6.83107e-18
9498.92498 7.63329e-18
9500.58257 7.27879e-18
9502.25020 6.92447e-18
9503.90779 7.02970e-18
9505.56538 7.13498e-18
9507.23302 7.30099e-18
9508.89061 7.46668e-18
9510.54820 6.93427e-18
9512.20579 6.40198e-18
9513.87343 6.17280e-18
9515.53102 5.94365e-18
9517.18861 5.82855e-18
9518.84620 5.71382e-18
9520.51383 6.44334e-18
9522.17142 7.17232e-18
9523.82901 6.72908e-18
9525.49665 6.28613e-18
9527.15424 6.45320e-18
9528.81183 6.62010e-18
9530.46942 6.36967e-18
9532.13705 6.11947e-18
9533.79464 6.41216e-18
9535.45223 6.70473e-18
9537.10982 6.77315e-18
9538.77746 6.84159e-18
9540.43505 7.00416e-18
9542.09264 7.16664e-18
9543.76028 7.09002e-18
9545.41787 7.01318e-18
9547.07546 6.45091e-18
9548.73305 5.88875e-18
9550.40068 5.60182e-18
9552.05827 5.31561e-18
9553.71586 6.70328e-18
9555.37345 8.09005e-18
9557.04109 7.45693e-18
9558.69868 6.82403e-18
9560.35627 6.73341e-18
9562.02390 6.64296e-18
9563.68149 6.91323e-18
9565.33908 7.18321e-18
9566.99667 6.81027e-18
9568.66431 6.43753e-18
9570.32190 6.49132e-18
9571.97949 6.54518e-18
9573.64713 6.71102e-18
9575.30472 6.87654e-18
9576.96231 6.35528e-18
9578.61990 5.83426e-18
9580.28753 5.83344e-18
9581.94512 5.83271e-18
9583.60271 6.01799e-18
9585.27035 6.20311e-18
9586.92794 5.97117e-18
9588.58553 5.73931e-18
9590.24312 5.65565e-18
9591.91075 5.57226e-18
9593.56834 6.09759e-18
9595.22593 6.62257e-18
9596.88352 6.37876e-18
9598.55116 6.13524e-18
9600.20875 6.56666e-18
9601.86634 6.99788e-18
9603.52393 6.98653e-18
9605.19157 6.97531e-18
9606.84916 7.27388e-18
9608.50675 7.57196e-18
9610.17438 6.78628e-18
9611.83197 6.00094e-18
9613.48956 5.97158e-18
9615.14715 5.94220e-18
9616.81479 5.87772e-18
9618.47238 5.81332e-18
9620.12997 5.92108e-18
9621.79760 6.02888e-18
9623.45519 6.16642e-18
9625.11278 6.30396e-18
9626.77037 6.43516e-18
9628.43801 6.56637e-18
9630.09560 6.73914e-18
9631.75319 6.91183e-18
9633.41078 6.89458e-18
9635.07842 6.87748e-18
9636.73601 7.24451e-18
9638.39360 7.61116e-18
9640.06123 7.16722e-18
9641.71882 6.72354e-18
9643.37641 6.87717e-18
9645.03400 7.03043e-18
9646.70164 6.41557e-18
9648.35923 5.80117e-18
9650.01682 6.20202e-18
9651.67441 6.60264e-18
9653.34204 6.54832e-18
9654.99963 6.49383e-18
9656.65722 6.04228e-18
9658.31481 5.59103e-18
9659.98245 5.77842e-18
9661.64004 5.96602e-18
9663.29763 6.60378e-18
9664.96527 7.24089e-18
9666.62286 6.37685e-18
9668.28045 5.51342e-18
9669.93804 5.96682e-18
9671.60567 6.42022e-18
9673.26326 6.88394e-18
9674.92085 7.34749e-18
9676.58849 7.46823e-18
9678.24608 7.58874e-18
9679.90367 7.25274e-18
9681.56126 6.91724e-18
9683.22889 7.63895e-18
9684.88648 8.36010e-18
9686.54407 7.79562e-18
9688.20166 7.23102e-18
9689.86930 6.43913e-18
9691.52689 5.64796e-18
9693.18448 6.40295e-18
9694.85212 7.15764e-18
9696.50971 7.25564e-18
9698.16730 7.35383e-18
9699.82489 7.88692e-18
9701.49252 8.41906e-18
9703.15011 6.89581e-18
9704.80770 5.37341e-18
9706.46529 5.70639e-18
9708.13293 6.03930e-18
9709.79052 6.17904e-18
9711.44811 6.31844e-18
9713.11574 5.65164e-18
9714.77333 4.98544e-18
9716.43092 5.66351e-18
9718.08851 6.34157e-18
9719.75615 6.95867e-18
9721.41374 7.57522e-18
9723.07133 6.97913e-18
9724.73897 6.38341e-18
9726.39656 6.51033e-18
9728.05415 6.63728e-18
9729.71174 6.83414e-18
9731.37937 7.03072e-18
9733.03696 6.63616e-18
9734.69455 6.24185e-18
9736.35214 6.41354e-18
9738.01978 6.58525e-18
9739.67737 6.87037e-18
9741.33496 7.15534e-18
9743.00259 7.15058e-18
9744.66018 7.14567e-18
9746.31777 6.77857e-18
9747.97536 6.41148e-18
9749.64300 6.09872e-18
9751.30059 5.78640e-18
9752.95818 6.42493e-18
9754.62582 7.06291e-18
9756.28341 6.55152e-18
9757.94100 6.04046e-18
9759.59859 6.28098e-18
9761.26622 6.52145e-18
9762.92381 6.69941e-18
9764.58140 6.87724e-18
9766.23899 6.76359e-18
9767.90663 6.65017e-18
9769.56422 6.95451e-18
9771.22181 7.25861e-18
9772.87940 7.01730e-18
9774.54703 6.77595e-18
9776.20462 6.40244e-18
9777.86221 6.02895e-18
9779.52985 5.71396e-18
9781.18744 5.39939e-18
9782.84503 5.96421e-18
9784.50262 6.52873e-18
9786.17026 6.39748e-18
9787.82785 6.26703e-18
9789.48544 7.81862e-18
9791.15307 9.36912e-18
9792.81066 8.58594e-18
9794.46825 7.80297e-18
9796.12584 7.40522e-18
9797.79348 7.00777e-18
9799.45107 7.24553e-18
9801.10866 7.48254e-18
9802.76625 6.14136e-18
9804.43388 4.80061e-18
9806.09147 4.36057e-18
9807.74906 3.92122e-18
9809.41670 4.94652e-18
9811.07429 5.97144e-18
9812.73188 6.18460e-18
9814.38947 6.39775e-18
9816.05711 6.61607e-18
9817.71470 6.83419e-18
9819.37229 6.66606e-18
9821.03992 6.49778e-18
9822.69751 5.98411e-18
9824.35510 5.47105e-18
9826.01269 6.23092e-18
9827.68033 6.99026e-18
9829.33792 6.57154e-18
9830.99551 6.15314e-18
9832.65310 6.38553e-18
9834.32073 6.61771e-18
9835.97832 6.42979e-18
9837.63591 6.24178e-18
9839.30355 5.84360e-18
9840.96114 5.44597e-18
9842.61873 6.20163e-18
9844.27632 6.95732e-18
9845.94396 7.75168e-18
9847.60155 8.54548e-18
9849.25914 8.18033e-18
9850.91673 7.81516e-18
9852.58436 7.44486e-18
9854.24195 7.07457e-18
9855.89954 6.74650e-18
9857.56718 6.41857e-18
9859.22477 6.36437e-18
9860.88236 6.31020e-18
9862.53995 6.29416e-18
9864.20758 6.27871e-18
9865.86517 7.51033e-18
9867.52276 8.74126e-18
9869.18035 8.42373e-18
9870.84799 8.10649e-18
9872.50558 8.39575e-18
9874.16317 8.68522e-18
9875.83081 9.47479e-18
9877.48840 1.02633e-17
9879.14599 8.92315e-18
9880.80358 7.58301e-18
9882.47121 6.29658e-18
9884.12880 5.01127e-18
9885.78639 6.05270e-18
9887.44398 7.09391e-18
9889.11162 7.64874e-18
9890.76921 8.20338e-18
9892.42680 8.37248e-18
9894.09443 8.54163e-18
9895.75202 8.79899e-18
9897.40961 9.05627e-18
9899.06720 9.19342e-18
9900.73484 9.32975e-18
9902.39243 7.70655e-18
9904.05002 6.08404e-18
9905.70761 5.92713e-18
9907.37525 5.77017e-18
9909.03284 5.52455e-18
9910.69043 5.27904e-18
9912.35806 5.34258e-18
9914.01565 5.40652e-18
9915.67324 6.31765e-18
9917.33083 7.22817e-18
9918.99847 6.91313e-18
9920.65606 6.59834e-18
9922.31365 6.74074e-18
9923.98128 6.88319e-18
9925.63887 7.06436e-18
9927.29646 7.24563e-18
9928.95405 7.59005e-18
9930.62169 7.93360e-18
9932.27928 6.34744e-18
9933.93687 4.76185e-18
9935.59446 4.31595e-18
9937.26210 3.87099e-18
9938.91969 5.36775e-18
9940.57728 6.86408e-18
9942.23487 7.47734e-18
9943.90250 8.09031e-18
9945.56009 8.09472e-18
9947.21768 8.09861e-18
9948.88532 6.97899e-18
9950.54291 5.86050e-18
9952.20050 7.15208e-18
9953.85809 8.44303e-18
9955.52572 8.42308e-18
9957.18331 8.40271e-18
9958.84090 7.49957e-18
9960.50854 6.59672e-18
9962.16613 6.20294e-18
9963.82372 5.80928e-18
9965.48131 5.58399e-18
9967.14895 5.35859e-18
9968.80654 4.81496e-18
9970.46413 4.27149e-18
9972.12172 4.01182e-18
9973.78935 3.75229e-18
9975.44694 3.78726e-18
9977.10453 3.82274e-18
9978.77217 4.88935e-18
9980.42976 5.95540e-18
9982.08735 5.90072e-18
9983.74494 5.84626e-18
9985.41257 6.24884e-18
9987.07016 6.65150e-18
9988.72775 7.28016e-18
9990.39539 7.90842e-18
9992.05298 7.69985e-18
9993.71057 7.49098e-18
9995.36816 6.74265e-18
9997.03580 5.99405e-18
9998.69339 4.63693e-18
