# wavelength flux
3400.91915 8.79369e-19
3402.89274 4.21714e-18
3404.86634 -1.51188e-18
3406.82981 2.86602e-18
3408.80341 8.91185e-18
3410.77700 1.54362e-17
3412.74047 1.57801e-17
3414.71407 1.05757e-17
3416.68766 1.31515e-18
3418.65114 9.38752e-18
3420.62473 1.45601e-17
3422.59833 7.29404e-18
3424.56180 1.34869e-17
3426.53540 1.05267e-17
3428.50899 1.85082e-17
3430.47247 3.16781e-17
3432.44606 1.62104e-17
3434.40953 9.41493e-18
3436.38313 1.65152e-17
3438.35673 1.69816e-18
3440.32020 4.65660e-18
3442.29379 2.06155e-17
3444.26739 1.56571e-17
3446.23086 1.78828e-17
3448.20446 2.30891e-17
3450.17805 2.05271e-17
3452.14153 2.38640e-17
3454.11512 1.27858e-17
3456.08872 2.07477e-17
3458.05219 2.03855e-17
3460.02579 1.27672e-17
3461.99938 2.13261e-17
3463.96286 1.58829e-17
3465.93645 1.63669e-17
3467.91004 6.56699e-18
3469.87352 5.61420e-18
3471.84711 1.44523e-17
3473.82071 1.63490e-17
3475.78418 1.42828e-17
3477.75778 1.35691e-17
3479.73137 1.20409e-17
3481.69485 1.51928e-17
3483.66844 1.49052e-17
3485.63192 8.27396e-18
3487.60551 1.05016e-17
3489.57911 9.93255e-18
3491.54258 1.27763e-17
3493.51618 1.75445e-17
3495.48977 1.78209e-17
3497.45324 1.87187e-17
3499.42684 1.06801e-17
3501.40043 2.62285e-18
3503.36391 5.42014e-18
3505.33750 7.52378e-18
3507.31110 4.49498e-18
3509.27457 3.54948e-18
3511.24817 8.91666e-18
3513.22176 1.32029e-17
3515.18524 1.11344e-17
3517.15883 1.88541e-18
3519.13243 4.30447e-18
3521.09590 2.10380e-18
3523.06949 1.10986e-17
3525.04309 7.45857e-18
3527.00656 -1.89690e-18
3528.98016 3.35656e-18
3530.95375 5.54022e-18
3532.91723 5.93451e-18
3534.89082 7.72370e-18
3536.85430 6.81692e-18
3538.82789 9.75658e-18
3540.80149 1.47974e-17
3542.76496 1.39141e-17
3544.73856 1.48193e-17
3546.71215 1.10032e-17
3548.67562 7.29387e-18
3550.64922 5.05399e-18
3552.62282 8.95759e-18
3554.58629 1.28823e-17
3556.55988 8.72849e-18
3558.53348 1.39061e-17
3560.49695 9.95125e-18
3562.47055 2.01783e-19
3564.44414 7.25077e-18
3566.40762 1.29132e-17
3568.38121 1.37867e-17
3570.35481 1.10912e-17
3572.31828 4.89835e-18
3574.29188 5.92586e-18
3576.26547 6.00254e-18
3578.22894 2.40720e-18
3580.20254 4.26236e-18
3582.17613 1.08752e-17
3584.13961 1.11927e-17
3586.11320 3.19748e-18
3588.07668 7.29288e-18
3590.05027 1.05396e-17
3592.02387 1.17875e-17
3593.98734 5.59834e-18
3595.96094 6.24918e-18
3597.93453 7.90143e-18
3599.89801 7.14149e-18
3601.87160 4.01682e-18
3603.84520 4.35278e-18
3605.80867 8.77599e-18
3607.78227 7.54824e-18
3609.75586 8.30466e-18
3611.71933 4.02849e-18
3613.69293 4.47061e-18
3615.66652 6.30680e-18
3617.63000 1.16061e-17
3619.60359 9.77483e-18
3621.57719 6.14132e-18
3623.54066 7.08950e-18
3625.51426 9.18480e-18
3627.48785 7.84397e-18
3629.45133 5.73573e-18
3631.42492 7.57544e-18
3633.39852 9.27882e-18
3635.36199 8.25197e-18
3637.33558 1.15911e-17
3639.29906 1.13322e-17
3641.27265 8.70696e-18
3643.24625 8.42368e-18
3645.20972 1.03168e-17
3647.18332 9.07330e-18
3649.15691 8.86497e-18
3651.12039 8.97083e-18
3653.09398 8.34694e-18
3655.06758 8.17829e-18
3657.03105 5.71665e-18
3659.00465 5.50827e-18
3660.97824 5.96811e-18
3662.94171 7.55863e-18
3664.91531 7.70726e-18
3666.88891 8.24983e-18
3668.85238 5.96419e-18
3670.82597 7.91680e-18
3672.79957 7.68016e-18
3674.76304 6.96498e-18
3676.73664 8.04262e-18
3678.71023 4.77946e-18
3680.67371 7.67595e-18
3682.64730 8.21857e-18
3684.61078 9.07212e-18
3686.58437 9.31875e-18
3688.55797 6.15798e-18
3690.52144 6.22079e-18
3692.49503 5.17995e-18
3694.46863 5.21351e-18
3696.43210 6.83643e-18
3698.40570 5.97072e-18
3700.37929 6.02451e-18
3702.34277 5.53524e-18
3704.31636 6.69271e-18
3706.28996 7.29943e-18
3708.25343 7.82505e-18
3710.22703 6.50385e-18
3712.20062 6.95733e-18
3714.16410 1.03022e-17
3716.13769 9.51610e-18
3718.11129 8.27134e-18
3720.07476 5.95353e-18
3722.04836 4.28566e-18
3724.02195 8.32063e-18
3725.98542 9.92409e-18
3727.95902 6.80377e-18
3729.93261 6.02618e-18
3731.89609 6.79033e-18
3733.86968 7.58308e-18
3735.84328 9.77775e-18
3737.80675 8.26928e-18
3739.78035 5.23159e-18
3741.74382 5.12152e-18
3743.71742 7.22558e-18
3745.69101 7.90660e-18
3747.65449 8.64862e-18
3749.62808 1.03225e-17
3751.60167 7.07012e-18
3753.56515 5.94128e-18
3755.53874 8.20526e-18
3757.51234 1.22583e-17
3759.47581 1.06136e-17
3761.44941 7.18689e-18
3763.42300 6.91221e-18
3765.38648 9.13234e-18
3767.36007 8.99300e-18
3769.33367 9.60873e-18
3771.29714 7.07069e-18
3773.27074 7.00400e-18
3775.24433 1.12059e-17
3777.20781 9.89992e-18
3779.18140 9.87403e-18
3781.15499 9.30675e-18
3783.11847 8.64637e-18
3785.09206 1.09487e-17
3787.05554 1.16825e-17
3789.02913 8.26976e-18
3791.00273 8.78236e-18
3792.96620 1.13100e-17
3794.93980 7.51209e-18
3796.91339 5.26557e-18
3798.87687 7.58724e-18
3800.85046 8.09133e-18
3802.82406 7.45157e-18
3804.78753 8.37501e-18
3806.76112 7.89956e-18
3808.73472 7.73519e-18
3810.69819 7.75221e-18
3812.67179 7.47229e-18
3814.64538 7.92262e-18
3816.60886 8.51532e-18
3818.58245 7.58943e-18
3820.55605 6.51716e-18
3822.51952 6.55679e-18
3824.49312 7.15878e-18
3826.46671 7.76435e-18
3828.43019 7.41819e-18
3830.40378 8.01321e-18
3832.37738 9.60725e-18
3834.34085 9.43053e-18
3836.31444 7.94738e-18
3838.27792 7.75409e-18
3840.25151 8.32574e-18
3842.22511 9.71432e-18
3844.18858 1.13431e-17
3846.16218 1.00276e-17
3848.13577 8.79275e-18
3850.09925 8.87332e-18
3852.07284 9.73701e-18
3854.04644 1.02769e-17
3856.00991 1.09961e-17
3857.98351 9.95099e-18
3859.95710 1.01314e-17
3861.92058 9.60138e-18
3863.89417 7.80931e-18
3865.86776 7.23669e-18
3867.83124 9.34731e-18
3869.80483 1.13784e-17
3871.77843 1.07145e-17
3873.74190 9.93565e-18
3875.71550 9.48880e-18
3877.68909 8.62144e-18
3879.65257 9.98541e-18
3881.62616 6.83652e-18
3883.59976 7.67778e-18
3885.56323 8.60399e-18
3887.53683 9.41340e-18
3889.50030 1.01217e-17
3891.47389 1.02901e-17
3893.44749 1.06542e-17
3895.41096 1.00007e-17
3897.38456 9.79822e-18
3899.35815 9.81333e-18
3901.32163 9.05345e-18
3903.29522 7.28257e-18
3905.26882 8.80094e-18
3907.23229 9.27084e-18
3909.20589 8.84286e-18
3911.17948 9.16212e-18
3913.14296 9.19417e-18
3915.11655 8.71574e-18
3917.09015 8.89208e-18
3919.05362 9.05147e-18
3921.02722 1.00339e-17
3923.00081 8.92832e-18
3924.96428 8.58668e-18
3926.93788 1.02122e-17
3928.91147 1.05861e-17
3930.87495 9.87795e-18
3932.84854 8.29291e-18
3934.82214 8.34526e-18
3936.78561 9.55876e-18
3938.75921 1.02292e-17
3940.72268 1.04113e-17
3942.69628 9.11532e-18
3944.66987 9.27402e-18
3946.63334 1.05903e-17
3948.60694 9.23717e-18
3950.58054 7.99795e-18
3952.54401 9.08465e-18
3954.51760 9.74160e-18
3956.49120 1.05347e-17
3958.45467 9.69092e-18
3960.42827 8.65798e-18
3962.40186 8.07215e-18
3964.36534 8.58866e-18
3966.33893 8.90550e-18
3968.31253 8.90461e-18
3970.27600 9.43658e-18
3972.24960 9.03924e-18
3974.22319 9.57709e-18
3976.18667 9.19347e-18
3978.16026 9.11572e-18
3980.13386 7.88147e-18
3982.09733 8.75652e-18
3984.07092 9.69767e-18
3986.04452 8.45205e-18
3988.00799 8.65929e-18
3989.98159 1.05931e-17
3991.94506 9.28374e-18
3993.91866 8.74721e-18
3995.89225 9.07016e-18
3997.85573 8.08710e-18
3999.82932 9.60534e-18
4001.80292 9.52869e-18
4003.76639 8.46642e-18
4005.73998 8.34946e-18
4007.71358 9.10325e-18
4009.67705 8.26922e-18
4011.65065 8.96170e-18
4013.62424 8.43475e-18
4015.58772 8.95634e-18
4017.56131 9.37760e-18
4019.53491 8.83680e-18
4021.49838 7.78331e-18
4023.47198 8.00452e-18
4025.44557 9.16528e-18
4027.40905 9.82405e-18
4029.38264 9.72995e-18
4031.35624 8.04347e-18
4033.31971 7.84411e-18
4035.29331 8.56118e-18
4037.26690 8.84577e-18
4039.23037 9.44983e-18
4041.20397 8.83054e-18
4043.16744 8.91195e-18
4045.14104 8.53173e-18
4047.11463 7.79683e-18
4049.07811 8.83195e-18
4051.05170 8.68026e-18
4053.02530 8.74558e-18
4054.98877 8.68559e-18
4056.96237 8.46916e-18
4058.93596 8.82320e-18
4060.89943 8.67828e-18
4062.87303 8.65134e-18
4064.84663 9.01722e-18
4066.81010 9.21679e-18
4068.78369 8.67323e-18
4070.75729 8.28353e-18
4072.72076 8.26302e-18
4074.69436 7.71040e-18
4076.66795 8.08368e-18
4078.63143 8.76161e-18
4080.60502 8.74532e-18
4082.57862 8.42709e-18
4084.54209 8.91226e-18
4086.51569 9.14492e-18
4088.47916 8.07903e-18
4090.45276 9.12574e-18
4092.42635 9.08695e-18
4094.38982 8.70359e-18
4096.36342 8.08301e-18
4098.33701 7.97185e-18
4100.30049 9.04873e-18
4102.27408 8.76227e-18
4104.24768 8.57917e-18
4106.21115 8.70317e-18
4108.18475 9.19884e-18
4110.15834 8.57140e-18
4112.12182 8.84653e-18
4114.09541 8.25078e-18
4116.06901 9.14821e-18
4118.03248 9.31369e-18
4120.00608 8.66116e-18
4121.97967 8.69639e-18
4123.94314 9.26435e-18
4125.91674 8.53880e-18
4127.89033 8.28021e-18
4129.85381 8.25922e-18
4131.82740 8.14097e-18
4133.80100 7.58190e-18
4135.76447 8.63018e-18
4137.73807 8.89035e-18
4139.71166 8.87098e-18
4141.67514 8.20458e-18
4143.64873 8.70019e-18
4145.61221 9.08272e-18
4147.58580 9.04395e-18
4149.55940 9.56497e-18
4151.52287 8.37885e-18
4153.49646 8.77450e-18
4155.47006 9.76317e-18
4157.43353 8.45558e-18
4159.40713 8.41582e-18
4161.38072 8.79032e-18
4163.34420 8.90525e-18
4165.31779 9.21119e-18
4167.29139 9.35166e-18
4169.25486 1.01847e-17
4171.22846 9.10377e-18
4173.20205 8.72351e-18
4175.16553 8.82151e-18
4177.13912 8.87329e-18
4179.11271 9.27760e-18
4181.07619 9.41334e-18
4183.04978 9.20987e-18
4185.02338 9.24923e-18
4186.98685 8.52450e-18
4188.96045 8.15779e-18
4190.92392 9.00927e-18
4192.89752 9.79825e-18
4194.87111 9.04688e-18
4196.83459 8.83096e-18
4198.80818 8.92227e-18
4200.78178 9.14854e-18
4202.74525 9.30679e-18
4204.71884 9.48039e-18
4206.69244 8.93926e-18
4208.65591 9.24089e-18
4210.62951 9.19127e-18
4212.60310 9.18792e-18
4214.56658 9.18456e-18
4216.54017 9.18120e-18
4218.51377 9.17784e-18
4220.47724 9.17448e-18
4222.45084 9.17112e-18
4224.42443 9.16777e-18
4226.38791 9.16441e-18
4228.36150 9.16105e-18
4230.33510 9.15769e-18
4232.29857 9.15433e-18
4234.27216 9.15098e-18
4236.24576 9.14762e-18
4238.20923 9.14426e-18
4240.18283 9.14090e-18
4242.15642 9.13754e-18
4244.11990 9.13418e-18
4246.09349 9.13082e-18
4248.05697 9.12746e-18
4250.03056 9.12410e-18
4252.00416 9.12074e-18
4253.96763 9.11738e-18
4255.94123 9.11402e-18
4257.91482 9.11066e-18
4259.87829 9.10730e-18
4261.85189 9.10394e-18
4263.82549 9.10058e-18
4265.78896 9.09722e-18
4267.76255 9.09386e-18
4269.73615 9.09050e-18
4271.69962 9.08714e-18
4273.67322 9.08378e-18
4275.64681 9.08041e-18
4277.61029 9.07705e-18
4279.58388 9.07369e-18
4281.55748 9.07033e-18
4283.52095 9.06697e-18
4285.49455 9.06360e-18
4287.46814 9.06024e-18
4289.43161 8.96896e-18
4291.40521 8.83196e-18
4293.36868 8.00955e-18
4295.34228 8.25351e-18
4297.31587 8.82281e-18
4299.27935 9.03589e-18
4301.25294 8.92325e-18
4303.22654 8.58713e-18
4305.19001 9.01011e-18
4307.16361 8.66647e-18
4309.13720 7.47712e-18
4311.10068 7.85603e-18
4313.07427 8.97877e-18
4315.04787 8.54355e-18
4317.01134 9.06639e-18
4318.98494 1.00123e-17
4320.95853 8.54448e-18
4322.92200 8.55799e-18
4324.89560 9.62832e-18
4326.86919 8.92045e-18
4328.83267 7.89042e-18
4330.80626 8.85480e-18
4332.77986 9.20250e-18
4334.74333 9.11006e-18
4336.71693 8.75574e-18
4338.68040 9.22397e-18
4340.65400 8.81893e-18
4342.62759 8.54436e-18
4344.59106 9.77714e-18
4346.56466 9.26245e-18
4348.53826 9.32273e-18
4350.50173 9.02918e-18
4352.47532 8.83878e-18
4354.44892 9.11927e-18
4356.41239 9.39776e-18
4358.38599 9.61442e-18
4360.35958 1.00661e-17
4362.32306 9.36970e-18
4364.29665 1.00372e-17
4366.27025 1.02129e-17
4368.23372 9.83997e-18
4370.20732 9.64258e-18
4372.18091 9.55185e-18
4374.14439 1.02343e-17
4376.11798 9.60125e-18
4378.09158 9.81573e-18
4380.05505 9.75788e-18
4382.02864 9.50194e-18
4384.00224 9.91284e-18
4385.96571 9.57415e-18
4387.93931 9.70867e-18
4389.90278 1.00175e-17
4391.87638 1.05913e-17
4393.84997 9.86005e-18
4395.82357 9.09224e-18
4397.78704 9.26357e-18
4399.76064 9.89903e-18
4401.72411 9.46243e-18
4403.69771 9.34360e-18
4405.67130 9.60225e-18
4407.63477 9.20429e-18
4409.60837 9.33132e-18
4411.58196 9.84689e-18
4413.54544 9.49536e-18
4415.51903 1.03087e-17
4417.49263 1.14407e-17
4419.45610 1.07034e-17
4421.42970 1.00384e-17
4423.40329 1.03478e-17
4425.36677 1.00614e-17
4427.34036 1.03730e-17
4429.31396 1.14797e-17
4431.27743 1.10919e-17
4433.25102 1.06364e-17
4435.22462 1.11377e-17
4437.18809 1.10234e-17
4439.16169 1.02282e-17
4441.13528 1.09638e-17
4443.09876 1.17691e-17
4445.07235 1.11961e-17
4447.03583 1.11936e-17
4449.00942 1.10291e-17
4450.98302 1.10225e-17
4452.94649 1.12337e-17
4454.92009 1.13832e-17
4456.89368 1.16604e-17
4458.85716 1.13189e-17
4460.83075 1.18380e-17
4462.80434 1.22202e-17
4464.76782 1.20387e-17
4466.74141 1.25075e-17
4468.71501 1.17752e-17
4470.67848 1.14308e-17
4472.65208 1.21560e-17
4474.62567 1.26655e-17
4476.58915 1.25779e-17
4478.56274 1.20526e-17
4480.53634 1.16335e-17
4482.49981 1.22510e-17
4484.47341 1.23073e-17
4486.44700 1.22936e-17
4488.41047 1.17523e-17
4490.38407 1.21654e-17
4492.35766 1.27379e-17
4494.32114 1.33936e-17
4496.29473 1.31034e-17
4498.25821 1.31571e-17
4500.23180 1.29754e-17
4502.20540 1.35889e-17
4504.16887 1.33706e-17
4506.14247 1.36747e-17
4508.11606 1.35541e-17
4510.07954 1.30145e-17
4512.05313 1.24684e-17
4514.02673 1.34341e-17
4515.99020 1.47168e-17
4517.96379 1.41476e-17
4519.93739 1.35903e-17
4521.90086 1.42732e-17
4523.87446 1.38303e-17
4525.84805 1.41739e-17
4527.81153 1.40593e-17
4529.78512 1.37108e-17
4531.75872 1.37553e-17
4533.72219 1.45952e-17
4535.69579 1.44278e-17
4537.66938 1.35329e-17
4539.63286 1.34443e-17
4541.60645 1.42119e-17
4543.56992 1.40279e-17
4545.54352 1.41739e-17
4547.51711 1.31120e-17
4549.48059 1.34490e-17
4551.45418 1.41755e-17
4553.42778 1.35379e-17
4555.39125 1.24845e-17
4557.36485 1.30728e-17
4559.33844 1.33570e-17
4561.30192 1.37789e-17
4563.27551 1.35018e-17
4565.24911 1.43043e-17
4567.21258 1.30718e-17
4569.18618 1.31277e-17
4571.15977 1.35725e-17
4573.12324 1.31188e-17
4575.09684 1.25201e-17
4577.07044 1.28077e-17
4579.03391 1.27181e-17
4581.00750 1.28385e-17
4582.98110 1.30469e-17
4584.94457 1.31383e-17
4586.91817 1.38015e-17
4588.89176 1.36341e-17
4590.85524 1.32040e-17
4592.82883 1.27941e-17
4594.80243 1.33196e-17
4596.76590 1.40899e-17
4598.73950 1.39019e-17
4600.70297 1.43976e-17
4602.67656 1.40016e-17
4604.65016 1.32339e-17
4606.61363 1.33044e-17
4608.58723 1.29323e-17
4610.56082 1.27884e-17
4612.52430 1.30906e-17
4614.49789 1.38150e-17
4616.47149 1.30608e-17
4618.43496 1.23601e-17
4620.40856 1.29208e-17
4622.38215 1.28558e-17
4624.34563 1.32683e-17
4626.31922 1.32444e-17
4628.29282 1.16927e-17
4630.25629 1.16611e-17
4632.22989 1.27426e-17
4634.20348 1.29038e-17
4636.16695 1.21805e-17
4638.14055 1.20575e-17
4640.11414 1.21872e-17
4642.07762 1.24284e-17
4644.05121 1.22360e-17
4646.02481 1.21191e-17
4647.98828 1.25901e-17
4649.96188 1.24680e-17
4651.92535 1.26330e-17
4653.89895 1.25861e-17
4655.87254 1.22558e-17
4657.83601 1.21459e-17
4659.80961 1.21672e-17
4661.78321 1.21584e-17
4663.74668 1.19761e-17
4665.72027 1.16789e-17
4667.69387 1.20245e-17
4669.65734 1.28336e-17
4671.63094 1.17167e-17
4673.60453 1.05887e-17
4675.56801 1.17953e-17
4677.54160 1.23652e-17
4679.51520 1.19946e-17
4681.47867 1.21587e-17
4683.45227 1.14427e-17
4685.42586 1.13155e-17
4687.38934 1.19214e-17
4689.36293 1.20800e-17
4691.33652 1.18130e-17
4693.30000 1.13144e-17
4695.27359 1.14911e-17
4697.23707 1.17878e-17
4699.21066 1.18653e-17
4701.18426 1.19686e-17
4703.14773 1.24385e-17
4705.12133 1.23792e-17
4707.09492 1.15078e-17
4709.05840 1.09414e-17
4711.03199 1.07213e-17
4713.00559 1.14727e-17
4714.96906 1.17646e-17
4716.94265 1.10029e-17
4718.91625 1.10941e-17
4720.87972 1.18448e-17
4722.85332 1.14665e-17
4724.82691 1.06497e-17
4726.79039 1.19587e-17
4728.76398 1.23184e-17
4730.73758 1.13226e-17
4732.70105 1.14191e-17
4734.67465 1.14141e-17
4736.64824 1.15358e-17
4738.61172 1.16084e-17
4740.58531 1.15590e-17
4742.55891 1.14290e-17
4744.52238 1.07784e-17
4746.49597 1.08366e-17
4748.45945 1.11681e-17
4750.43304 1.08896e-17
4752.40664 1.14974e-17
4754.37011 1.17572e-17
4756.34371 1.07707e-17
4758.31730 1.08635e-17
4760.28078 1.14450e-17
4762.25437 1.17863e-17
4764.22797 1.14634e-17
4766.19144 1.15544e-17
4768.16504 1.13775e-17
4770.13863 1.06041e-17
4772.10210 1.06988e-17
4774.07570 1.08701e-17
4776.04929 1.14519e-17
4778.01277 1.07152e-17
4779.98636 1.11156e-17
4781.95996 1.15532e-17
4783.92343 1.17996e-17
4785.89703 1.13598e-17
4787.87062 1.15954e-17
4789.83410 1.19727e-17
4791.80769 1.18662e-17
4793.78129 1.15035e-17
4795.74476 1.11542e-17
4797.71836 1.17520e-17
4799.68183 1.13686e-17
4801.65542 1.15617e-17
4803.62902 1.11310e-17
4805.59249 1.11390e-17
4807.56609 1.15722e-17
4809.53968 1.12407e-17
4811.50316 1.13160e-17
4813.47675 1.16012e-17
4815.45035 1.18071e-17
4817.41382 1.24423e-17
4819.38742 1.20619e-17
4821.36101 1.15275e-17
4823.32449 1.16124e-17
4825.29808 1.11450e-17
4827.27168 1.19234e-17
4829.23515 1.13965e-17
4831.20874 1.18268e-17
4833.18234 1.16352e-17
4835.14581 1.08448e-17
4837.11941 1.17016e-17
4839.09300 1.10385e-17
4841.05648 1.10745e-17
4843.03007 1.07930e-17
4845.00367 1.10078e-17
4846.96714 1.09216e-17
4848.94074 1.06204e-17
4850.91433 1.09648e-17
4852.87781 1.10454e-17
4854.85140 1.13772e-17
4856.81488 1.11825e-17
4858.78847 1.12500e-17
4860.76206 1.06870e-17
4862.72554 1.03849e-17
4864.69913 1.06330e-17
4866.67273 1.09085e-17
4868.63620 1.12383e-17
4870.60980 1.14199e-17
4872.58339 1.07487e-17
4874.54687 1.04619e-17
4876.52046 1.11824e-17
4878.49406 1.06056e-17
4880.45753 1.05654e-17
4882.43113 1.09061e-17
4884.40472 1.04255e-17
4886.36820 1.03931e-17
4888.34179 1.01498e-17
4890.31539 9.84840e-18
4892.27886 1.02467e-17
4894.25245 1.01924e-17
4896.22605 1.02845e-17
4898.18952 1.00846e-17
4900.16312 1.02448e-17
4902.12659 1.02099e-17
4904.10019 1.01519e-17
4906.07378 1.03709e-17
4908.03726 1.04059e-17
4910.01085 1.02749e-17
4911.98445 1.04366e-17
4913.94792 1.00403e-17
4915.92151 1.00534e-17
4917.89511 1.03872e-17
4919.85858 9.70159e-18
4921.83218 1.02296e-17
4923.80577 1.03771e-17
4925.76925 1.05375e-17
4927.74284 1.02483e-17
4929.71644 1.02370e-17
4931.67991 1.06119e-17
4933.65351 1.05723e-17
4935.62710 1.02818e-17
4937.59058 1.05593e-17
4939.56417 1.03301e-17
4941.53777 1.05361e-17
4943.50124 1.08474e-17
4945.47483 1.04798e-17
4947.43831 1.05909e-17
4949.41190 1.02149e-17
4951.38550 1.04336e-17
4953.34897 1.07199e-17
4955.32257 1.06303e-17
4957.29616 1.01487e-17
4959.25964 1.07441e-17
4961.23323 1.12439e-17
4963.20683 1.11513e-17
4965.17030 1.11462e-17
4967.14390 1.06716e-17
4969.11749 1.06656e-17
4971.08096 1.03309e-17
4973.05456 1.02345e-17
4975.02815 1.10017e-17
4976.99163 1.13496e-17
4978.96522 1.11361e-17
4980.93882 1.10154e-17
4982.90229 1.07498e-17
4984.87589 1.11307e-17
4986.84948 1.07489e-17
4988.81296 1.13619e-17
4990.78655 1.09060e-17
4992.76015 1.11051e-17
4994.72362 1.15871e-17
4996.69722 1.13850e-17
4998.66069 1.05365e-17
5000.63429 1.13375e-17
5002.60788 1.10290e-17
5004.57135 1.16194e-17
5006.54495 1.14595e-17
5008.51854 1.07320e-17
5010.48202 1.09769e-17
5012.45561 1.15934e-17
5014.42921 1.12176e-17
5016.39268 1.14775e-17
5018.36628 1.11165e-17
5020.33987 1.12288e-17
5022.30335 1.09946e-17
5024.27694 1.17339e-17
5026.25054 1.09631e-17
5028.21401 1.15751e-17
5030.18761 1.13997e-17
5032.16120 1.06593e-17
5034.12467 1.12422e-17
5036.09827 1.14720e-17
5038.07186 1.14021e-17
5040.03534 1.17358e-17
5042.00893 1.15352e-17
5043.98253 1.13396e-17
5045.94600 1.21689e-17
5047.91960 1.20610e-17
5049.89319 1.23354e-17
5051.85667 1.20228e-17
5053.83026 1.18507e-17
5055.79374 1.20433e-17
5057.76733 1.18900e-17
5059.74093 1.19677e-17
5061.70440 1.24287e-17
5063.67799 1.16315e-17
5065.65159 1.23512e-17
5067.61506 1.23655e-17
5069.58866 1.23076e-17
5071.56225 1.22709e-17
5073.52573 1.20962e-17
5075.49932 1.22362e-17
5077.47292 1.22471e-17
5079.43639 1.26798e-17
5081.40999 1.27174e-17
5083.38358 1.28226e-17
5085.34706 1.29012e-17
5087.32065 1.30129e-17
5089.29425 1.30682e-17
5091.25772 1.31360e-17
5093.23131 1.33878e-17
5095.20491 1.37413e-17
5097.16838 1.37662e-17
5099.14198 1.39043e-17
5101.10545 1.41434e-17
5103.07905 1.36621e-17
5105.05264 1.35065e-17
5107.01612 1.35996e-17
5108.98971 1.39530e-17
5110.96331 1.41513e-17
5112.92678 1.39208e-17
5114.90038 1.39607e-17
5116.87397 1.40009e-17
5118.83744 1.43349e-17
5120.81104 1.41066e-17
5122.78463 1.41650e-17
5124.74811 1.47646e-17
5126.72170 1.41404e-17
5128.69530 1.41309e-17
5130.65877 1.45061e-17
5132.63237 1.46271e-17
5134.60596 1.43800e-17
5136.56944 1.49817e-17
5138.54303 1.45257e-17
5140.51663 1.48153e-17
5142.48010 1.48525e-17
5144.45370 1.57690e-17
5146.42729 1.54723e-17
5148.39076 1.49424e-17
5150.36436 1.47435e-17
5152.32783 1.54834e-17
5154.30143 1.55709e-17
5156.27502 1.54424e-17
5158.23850 1.51438e-17
5160.21209 1.49868e-17
5162.18569 1.50320e-17
5164.14916 1.49490e-17
5166.12276 1.49318e-17
5168.09635 1.53408e-17
5170.05983 1.59171e-17
5172.03342 1.60539e-17
5174.00701 1.49827e-17
5175.97049 1.51347e-17
5177.94408 1.52052e-17
5179.91768 1.48078e-17
5181.88115 1.56723e-17
5183.85475 1.56919e-17
5185.82834 1.57189e-17
5187.79182 1.55557e-17
5189.76541 1.57567e-17
5191.73901 1.60877e-17
5193.70248 1.61626e-17
5195.67608 1.55724e-17
5197.63955 1.53205e-17
5199.61315 1.55179e-17
5201.58674 1.57152e-17
5203.56034 1.58632e-17
5205.52381 1.53709e-17
5207.49740 1.53251e-17
5209.46088 1.55161e-17
5211.43447 1.58585e-17
5213.40807 1.61305e-17
5215.37154 1.59815e-17
5217.34514 1.58994e-17
5219.31873 1.64824e-17
5221.28221 1.61289e-17
5223.25580 1.56616e-17
5225.22940 1.56873e-17
5227.19287 1.59194e-17
5229.16646 1.62579e-17
5231.14006 1.58082e-17
5233.10353 1.57346e-17
5235.07713 1.59287e-17
5237.05072 1.62405e-17
5239.01420 1.63134e-17
5240.98779 1.57047e-17
5242.96139 1.56937e-17
5244.92486 1.62203e-17
5246.89846 1.59886e-17
5248.87205 1.58391e-17
5250.83553 1.59897e-17
5252.80912 1.57004e-17
5254.77259 1.57281e-17
5256.74619 1.57897e-17
5258.71979 1.56555e-17
5260.68326 1.58021e-17
5262.65685 1.63340e-17
5264.63045 1.59807e-17
5266.59392 1.63483e-17
5268.56752 1.60767e-17
5270.54111 1.61577e-17
5272.50459 1.61065e-17
5274.47818 1.61436e-17
5276.45178 1.61807e-17
5278.41525 1.62177e-17
5280.38885 1.62548e-17
5282.36244 1.62918e-17
5284.32591 1.63289e-17
5286.29951 1.63659e-17
5288.27311 1.64030e-17
5290.23658 1.64400e-17
5292.21017 1.64770e-17
5294.18377 1.65140e-17
5296.14724 1.65511e-17
5298.12084 1.65881e-17
5300.09443 1.66251e-17
5302.05791 1.66621e-17
5304.03150 1.66991e-17
5305.99498 1.67361e-17
5307.96857 1.67731e-17
5309.94217 1.68101e-17
5311.90564 1.68470e-17
5313.87924 1.68840e-17
5315.85283 1.69210e-17
5317.81630 1.69580e-17
5319.78990 1.69949e-17
5321.76349 1.70319e-17
5323.72697 1.70688e-17
5325.70056 1.71058e-17
5327.67416 1.71427e-17
5329.63763 1.71797e-17
5331.61123 1.72166e-17
5333.58482 1.72536e-17
5335.54830 1.72905e-17
5337.52189 1.73274e-17
5339.49549 1.73643e-17
5341.45896 1.74012e-17
5343.43256 1.74382e-17
5345.40615 1.75736e-17
5347.36962 1.75203e-17
5349.34322 1.70235e-17
5351.30669 1.69263e-17
5353.28029 1.71507e-17
5355.25388 1.69235e-17
5357.21736 1.66695e-17
5359.19095 1.68047e-17
5361.16455 1.72934e-17
5363.12802 1.75778e-17
5365.10162 1.75338e-17
5367.07521 1.70949e-17
5369.03869 1.72801e-17
5371.01228 1.74584e-17
5372.98588 1.74368e-17
5374.94935 1.71317e-17
5376.92294 1.67673e-17
5378.89654 1.71637e-17
5380.86001 1.70375e-17
5382.83361 1.70654e-17
5384.80720 1.72724e-17
5386.77068 1.69923e-17
5388.74427 1.71765e-17
5390.71787 1.74054e-17
5392.68134 1.69756e-17
5394.65494 1.73583e-17
5396.62853 1.68551e-17
5398.59201 1.65997e-17
5400.56560 1.72218e-17
5402.53919 1.60283e-17
5404.50267 1.61462e-17
5406.47626 1.71128e-17
5408.43974 1.66421e-17
5410.41333 1.63753e-17
5412.38693 1.68636e-17
5414.35040 1.68939e-17
5416.32400 1.63279e-17
5418.29759 1.62635e-17
5420.26107 1.65650e-17
5422.23466 1.63810e-17
5424.20826 1.60651e-17
5426.17173 1.64243e-17
5428.14533 1.62295e-17
5430.11892 1.59190e-17
5432.08239 1.61444e-17
5434.05599 1.57883e-17
5436.02958 1.58530e-17
5437.99306 1.59536e-17
5439.96665 1.63479e-17
5441.94025 1.62704e-17
5443.90372 1.60222e-17
5445.87732 1.58427e-17
5447.85091 1.60586e-17
5449.81439 1.59109e-17
5451.78798 1.62604e-17
5453.76158 1.59873e-17
5455.72505 1.52087e-17
5457.69864 1.55082e-17
5459.66212 1.55611e-17
5461.63571 1.54000e-17
5463.60931 1.55654e-17
5465.57278 1.52077e-17
5467.54638 1.55678e-17
5469.51997 1.56165e-17
5471.48345 1.51832e-17
5473.45704 1.52397e-17
5475.43064 1.51353e-17
5477.39411 1.53604e-17
5479.36771 1.53365e-17
5481.34130 1.51008e-17
5483.30477 1.48957e-17
5485.27837 1.53613e-17
5487.25196 1.50268e-17
5489.21544 1.48583e-17
5491.18903 1.53422e-17
5493.16263 1.51039e-17
5495.12610 1.55419e-17
5497.09970 1.51111e-17
5499.07329 1.54084e-17
5501.03677 1.51891e-17
5503.01036 1.50864e-17
5504.97384 1.49894e-17
5506.94743 1.45554e-17
5508.92103 1.48465e-17
5510.88450 1.52216e-17
5512.85809 1.47170e-17
5514.83169 1.47520e-17
5516.79516 1.50984e-17
5518.76876 1.51859e-17
5520.74235 1.46504e-17
5522.70583 1.45368e-17
5524.67942 1.44930e-17
5526.65302 1.48817e-17
5528.61649 1.48514e-17
5530.59009 1.48697e-17
5532.56368 1.48712e-17
5534.52716 1.48341e-17
5536.50075 1.47379e-17
5538.47435 1.46325e-17
5540.43782 1.47614e-17
5542.41141 1.48579e-17
5544.38501 1.49240e-17
5546.34848 1.49018e-17
5548.32208 1.46611e-17
5550.29567 1.41742e-17
5552.25915 1.38875e-17
5554.23274 1.40241e-17
5556.19622 1.40589e-17
5558.16981 1.44855e-17
5560.14341 1.39483e-17
5562.10688 1.39840e-17
5564.08048 1.47728e-17
5566.05407 1.37904e-17
5568.01754 1.34684e-17
5569.99114 1.38449e-17
5571.96474 1.33716e-17
5573.92821 1.31931e-17
5575.90180 1.30662e-17
5577.87540 1.25820e-17
5579.83887 1.25107e-17
5581.81247 1.34825e-17
5583.78606 1.37437e-17
5585.74954 1.32142e-17
5587.72313 1.33800e-17
5589.69673 1.36183e-17
5591.66020 1.29103e-17
5593.63380 1.31941e-17
5595.60739 1.31939e-17
5597.57086 1.34125e-17
5599.54446 1.32706e-17
5601.51806 1.37988e-17
5603.48153 1.32907e-17
5605.45512 1.32804e-17
5607.41860 1.33713e-17
5609.39219 1.35962e-17
5611.36579 1.38158e-17
5613.32926 1.33471e-17
5615.30286 1.29070e-17
5617.27645 1.30993e-17
5619.23993 1.30955e-17
5621.21352 1.32859e-17
5623.18712 1.31869e-17
5625.15059 1.31047e-17
5627.12419 1.32652e-17
5629.09778 1.34762e-17
5631.06125 1.33962e-17
5633.03485 1.31990e-17
5635.00844 1.31117e-17
5636.97192 1.34690e-17
5638.94551 1.34070e-17
5640.91911 1.33771e-17
5642.88258 1.30932e-17
5644.85618 1.33514e-17
5646.82977 1.35357e-17
5648.79325 1.32205e-17
5650.76684 1.35770e-17
5652.74044 1.34723e-17
5654.70391 1.31006e-17
5656.67751 1.29320e-17
5658.65110 1.33339e-17
5660.61457 1.33055e-17
5662.58817 1.30956e-17
5664.55164 1.33303e-17
5666.52524 1.34943e-17
5668.49883 1.36749e-17
5670.46231 1.31759e-17
5672.43590 1.29048e-17
5674.40950 1.31556e-17
5676.37297 1.28929e-17
5678.34657 1.32358e-17
5680.32016 1.35198e-17
5682.28364 1.37063e-17
5684.25723 1.31898e-17
5686.23082 1.36432e-17
5688.19430 1.30991e-17
5690.16789 1.34750e-17
5692.14149 1.35357e-17
5694.10496 1.39427e-17
5696.07856 1.40067e-17
5698.05215 1.39100e-17
5700.01563 1.40957e-17
5701.98922 1.40381e-17
5703.96282 1.33476e-17
5705.92629 1.32750e-17
5707.89989 1.37040e-17
5709.86336 1.37742e-17
5711.83695 1.39082e-17
5713.81055 1.34984e-17
5715.77402 1.37017e-17
5717.74762 1.38173e-17
5719.72121 1.37048e-17
5721.68469 1.39809e-17
5723.65828 1.44798e-17
5725.63188 1.40125e-17
5727.59535 1.35634e-17
5729.56895 1.41654e-17
5731.54254 1.42804e-17
5733.50602 1.41633e-17
5735.47961 1.42872e-17
5737.45321 1.44025e-17
5739.41668 1.42464e-17
5741.39027 1.37981e-17
5743.36387 1.42194e-17
5745.32734 1.44209e-17
5747.30094 1.43529e-17
5749.27453 1.47650e-17
5751.23801 1.45841e-17
5753.21160 1.43470e-17
5755.18520 1.46298e-17
5757.14867 1.46112e-17
5759.12227 1.43418e-17
5761.08574 1.43509e-17
5763.05934 1.43519e-17
5765.03293 1.48344e-17
5766.99640 1.43353e-17
5768.97000 1.48433e-17
5770.94359 1.49004e-17
5772.90707 1.44559e-17
5774.88066 1.41589e-17
5776.85426 1.44275e-17
5778.81773 1.47344e-17
5780.79133 1.44427e-17
5782.76492 1.41893e-17
5784.72840 1.47002e-17
5786.70199 1.49810e-17
5788.67559 1.51648e-17
5790.63906 1.46307e-17
5792.61266 1.44279e-17
5794.58625 1.47001e-17
5796.54972 1.44870e-17
5798.52332 1.46345e-17
5800.49691 1.45585e-17
5802.46039 1.47831e-17
5804.43398 1.44580e-17
5806.39746 1.45632e-17
5808.37105 1.44061e-17
5810.34465 1.45073e-17
5812.30812 1.47883e-17
5814.28172 1.49815e-17
5816.25531 1.48259e-17
5818.21879 1.45166e-17
5820.19238 1.43836e-17
5822.16598 1.43931e-17
5824.12945 1.49601e-17
5826.10304 1.49749e-17
5828.07664 1.47180e-17
5830.04011 1.46837e-17
5832.01371 1.51263e-17
5833.98730 1.50891e-17
5835.95078 1.45718e-17
5837.92437 1.47859e-17
5839.89797 1.46428e-17
5841.86144 1.46999e-17
5843.83504 1.48621e-17
5845.80863 1.44283e-17
5847.77211 1.41818e-17
5849.74570 1.40029e-17
5851.71930 1.34199e-17
5853.68277 1.41255e-17
5855.65636 1.42894e-17
5857.62996 1.44693e-17
5859.59343 1.50469e-17
5861.56703 1.49535e-17
5863.53050 1.48086e-17
5865.50410 1.43769e-17
5867.47769 1.43704e-17
5869.44117 1.41739e-17
5871.41476 1.43312e-17
5873.38836 1.47788e-17
5875.35183 1.47591e-17
5877.32543 1.44879e-17
5879.29902 1.46240e-17
5881.26249 1.51587e-17
5883.23609 1.54137e-17
5885.20969 1.49860e-17
5887.17316 1.42780e-17
5889.14675 1.37533e-17
5891.12035 1.36904e-17
5893.08382 1.38175e-17
5895.05742 1.42238e-17
5897.03101 1.37140e-17
5898.99449 1.40488e-17
5900.96808 1.49100e-17
5902.94168 1.48509e-17
5904.90515 1.47755e-17
5906.87875 1.42549e-17
5908.85234 1.47214e-17
5910.81581 1.51798e-17
5912.78941 1.48845e-17
5914.75288 1.45956e-17
5916.72648 1.47024e-17
5918.70007 1.46249e-17
5920.66355 1.46908e-17
5922.63714 1.44103e-17
5924.61074 1.44472e-17
5926.57421 1.48696e-17
5928.54781 1.51960e-17
5930.52140 1.49791e-17
5932.48488 1.53506e-17
5934.45847 1.50580e-17
5936.43207 1.49057e-17
5938.39554 1.48816e-17
5940.36913 1.49974e-17
5942.34273 1.50334e-17
5944.30620 1.51978e-17
5946.27980 1.48321e-17
5948.25339 1.47858e-17
5950.21687 1.46535e-17
5952.19046 1.43591e-17
5954.16406 1.46700e-17
5956.12753 1.57359e-17
5958.10113 1.46538e-17
5960.06460 1.33942e-17
5962.03820 1.31672e-17
5964.01179 1.34846e-17
5965.97527 1.33559e-17
5967.94886 1.30575e-17
5969.92245 1.37365e-17
5971.88593 1.46905e-17
5973.85952 1.43036e-17
5975.83312 1.41251e-17
5977.79659 1.44567e-17
5979.77019 1.48612e-17
5981.74378 1.48070e-17
5983.70726 1.48181e-17
5985.68085 1.40924e-17
5987.65445 1.44040e-17
5989.61792 1.43532e-17
5991.59152 1.42027e-17
5993.56511 1.41496e-17
5995.52859 1.39583e-17
5997.50218 1.35447e-17
5999.47577 1.38403e-17
6001.43925 1.38407e-17
6003.41284 1.35670e-17
6005.37632 1.34725e-17
6007.34991 1.34075e-17
6009.32351 1.36070e-17
6011.29710 1.36441e-17
6013.26058 1.34860e-17
6015.23417 1.31314e-17
6017.19765 1.31980e-17
6019.17124 1.32670e-17
6021.14484 1.29032e-17
6023.10831 1.27943e-17
6025.08191 1.28183e-17
6027.05550 1.27510e-17
6029.01897 1.26800e-17
6030.99257 1.27059e-17
6032.96616 1.22149e-17
6034.92964 1.24803e-17
6036.90323 1.28795e-17
6038.87683 1.27851e-17
6040.84030 1.23602e-17
6042.81390 1.28784e-17
6044.78749 1.25391e-17
6046.75097 1.24839e-17
6048.72456 1.19799e-17
6050.69816 1.22136e-17
6052.66163 1.25013e-17
6054.63522 1.25448e-17
6056.60882 1.21538e-17
6058.57229 1.23051e-17
6060.54589 1.20497e-17
6062.50936 1.23106e-17
6064.48296 1.21968e-17
6066.45655 1.19576e-17
6068.42003 1.17514e-17
6070.39362 1.18876e-17
6072.36722 1.16739e-17
6074.33069 1.18844e-17
6076.30429 1.21000e-17
6078.27788 1.17409e-17
6080.24136 1.16476e-17
6082.21495 1.17452e-17
6084.18854 1.17246e-17
6086.15202 1.17117e-17
6088.12561 1.14778e-17
6090.09921 1.12715e-17
6092.06268 1.13565e-17
6094.03628 1.15270e-17
6096.00987 1.16549e-17
6097.97335 1.15655e-17
6099.94694 1.14938e-17
6101.92054 1.15075e-17
6103.88401 1.11734e-17
6105.85761 1.12602e-17
6107.83120 1.10637e-17
6109.79468 1.12840e-17
6111.76827 1.14166e-17
6113.73174 1.13887e-17
6115.70534 1.14551e-17
6117.67893 1.10669e-17
6119.64241 1.12412e-17
6121.61600 1.11353e-17
6123.58960 1.15819e-17
6125.55307 1.13909e-17
6127.52667 1.06384e-17
6129.50026 1.11145e-17
6131.46374 1.12598e-17
6133.43733 1.09526e-17
6135.41093 1.11644e-17
6137.37440 1.10827e-17
6139.34800 1.12054e-17
6141.32159 1.12803e-17
6143.28506 1.14417e-17
6145.25866 1.09786e-17
6147.23225 1.10382e-17
6149.19573 1.15711e-17
6151.16932 1.13193e-17
6153.14292 1.12932e-17
6155.10639 1.13780e-17
6157.07999 1.14119e-17
6159.05358 1.11799e-17
6161.01706 1.15001e-17
6162.99065 1.16557e-17
6164.95413 1.16494e-17
6166.92772 1.16308e-17
6168.90132 1.17283e-17
6170.86479 1.17641e-17
6172.83838 1.16349e-17
6174.81198 1.17427e-17
6176.77545 1.15699e-17
6178.74905 1.17307e-17
6180.72264 1.18378e-17
6182.68612 1.18156e-17
6184.65971 1.16045e-17
6186.63331 1.17068e-17
6188.59678 1.18672e-17
6190.57038 1.16947e-17
6192.54397 1.22584e-17
6194.50745 1.20041e-17
6196.48104 1.19630e-17
6198.45464 1.22001e-17
6200.41811 1.20248e-17
6201.46612 1.20248e-17
6203.12371 1.19442e-17
6204.79135 1.18638e-17
6206.44894 1.18038e-17
6208.10653 1.17438e-17
6209.77416 1.17324e-17
6211.43175 1.17211e-17
6213.08934 1.15112e-17
6214.74693 1.13013e-17
6216.41457 1.09735e-17
6218.07216 1.06459e-17
6219.72975 1.07442e-17
6221.38734 1.08426e-17
6223.05498 1.08405e-17
6224.71257 1.08384e-17
6226.37016 1.04893e-17
6228.03779 1.01403e-17
6229.69538 1.01173e-17
6231.35297 1.00944e-17
6233.01056 1.02572e-17
6234.67820 1.04201e-17
6236.33579 1.05356e-17
6237.99338 1.06510e-17
6239.65097 1.01292e-17
6241.31860 9.60752e-18
6242.97619 9.62473e-18
6244.63378 9.64195e-18
6246.30142 9.75548e-18
6247.95901 9.86898e-18
6249.61660 9.87892e-18
6251.27419 9.88884e-18
6252.94183 9.69691e-18
6254.59942 9.50503e-18
6256.25701 9.50501e-18
6257.91460 9.50495e-18
6259.58223 9.31409e-18
6261.23982 9.12330e-18
6262.89741 9.31237e-18
6264.56505 9.50135e-18
6266.22264 9.30522e-18
6267.88023 9.10917e-18
6269.53782 9.30421e-18
6271.20545 9.49917e-18
6272.86304 9.35630e-18
6274.52063 9.21344e-18
6276.17822 9.12405e-18
6277.84586 9.03475e-18
6279.50345 9.50124e-18
6281.16104 9.96752e-18
6282.82868 9.26224e-18
6284.48627 8.55714e-18
6286.14386 8.78986e-18
6287.80145 9.02254e-18
6289.46908 9.16236e-18
6291.12667 9.30214e-18
6292.78426 9.19951e-18
6294.45190 9.09691e-18
6296.10949 9.14375e-18
6297.76708 9.19061e-18
6299.42467 9.39338e-18
6301.09230 9.59612e-18
6302.74989 9.62251e-18
6304.40748 9.64887e-18
6306.06507 9.42256e-18
6307.73271 9.19627e-18
6309.39030 9.11393e-18
6311.04789 9.03163e-18
6312.71553 9.17362e-18
6314.37312 9.31562e-18
6316.03071 9.57419e-18
6317.68830 9.83271e-18
6319.35593 9.80098e-18
6321.01352 9.76926e-18
6322.67111 9.77539e-18
6324.32870 9.78158e-18
6325.99634 1.00366e-17
6327.65393 1.02915e-17
6329.31152 1.03252e-17
6330.97915 1.03589e-17
6332.63674 1.03437e-17
6334.29433 1.03284e-17
6335.95192 1.03205e-17
6337.61956 1.03127e-17
6339.27715 1.04156e-17
6340.93474 1.05184e-17
6342.59233 1.04462e-17
6344.25997 1.03741e-17
6345.91756 1.05848e-17
6347.57515 1.07957e-17
6349.24278 1.11022e-17
6350.90037 1.14086e-17
6352.55796 1.09728e-17
6354.21555 1.05370e-17
6355.88319 1.07308e-17
6357.54078 1.09248e-17
6359.19837 1.10763e-17
6360.86600 1.12279e-17
6362.52359 1.16050e-17
6364.18118 1.19820e-17
6365.83877 1.17928e-17
6367.50641 1.16037e-17
6369.16400 1.16313e-17
6370.82159 1.16589e-17
6372.47918 1.16715e-17
6374.14682 1.16842e-17
6375.80441 1.19199e-17
6377.46200 1.21554e-17
6379.12963 1.23962e-17
6380.78722 1.26371e-17
6382.44481 1.28271e-17
6384.10240 1.30170e-17
6385.77004 1.27053e-17
6387.42763 1.23936e-17
6389.08522 1.23280e-17
6390.74281 1.22623e-17
6392.41044 1.24027e-17
6394.06803 1.25429e-17
6395.72562 1.24558e-17
6397.39326 1.23689e-17
6399.05085 1.24209e-17
6400.70844 1.24730e-17
6402.36603 1.27029e-17
6404.03367 1.29328e-17
6405.69126 1.26090e-17
6407.34885 1.22854e-17
6409.01648 1.24939e-17
6410.67407 1.27023e-17
6412.33166 1.28428e-17
6413.98925 1.29831e-17
6415.65689 1.25558e-17
6417.31448 1.21286e-17
6418.97207 1.22755e-17
6420.62966 1.24222e-17
6422.29729 1.24430e-17
6423.95488 1.24637e-17
6425.61247 1.24255e-17
6427.28011 1.23871e-17
6428.93770 1.24299e-17
6430.59529 1.24725e-17
6432.25288 1.23494e-17
6433.92052 1.22263e-17
6435.57811 1.23833e-17
6437.23570 1.25403e-17
6438.89329 1.24997e-17
6440.56092 1.24592e-17
6442.21851 1.24454e-17
6443.87610 1.24317e-17
6445.54374 1.23043e-17
6447.20133 1.21771e-17
6448.85892 1.22897e-17
6450.51651 1.24023e-17
6452.18414 1.21857e-17
6453.84173 1.19693e-17
6455.49932 1.21707e-17
6457.15691 1.23721e-17
6458.82455 1.26048e-17
6460.48214 1.28373e-17
6462.13973 1.23453e-17
6463.80737 1.18535e-17
6465.46496 1.17156e-17
6467.12255 1.15779e-17
6468.78014 1.16348e-17
6470.44777 1.16918e-17
6472.10536 1.17565e-17
6473.76295 1.18211e-17
6475.42054 1.16291e-17
6477.08818 1.14370e-17
6478.74577 1.13869e-17
6480.40336 1.13369e-17
6482.07099 1.14805e-17
6483.72858 1.16241e-17
6485.38617 1.15162e-17
6487.04376 1.14082e-17
6488.71140 1.12585e-17
6490.36899 1.11088e-17
6492.02658 1.12180e-17
6493.69422 1.13270e-17
6495.35181 1.11888e-17
6497.00940 1.10505e-17
6498.66699 1.09382e-17
6500.33462 1.08258e-17
6501.99221 1.06306e-17
6503.64980 1.04355e-17
6505.30739 1.05384e-17
6506.97503 1.06413e-17
6508.63262 1.05403e-17
6510.29021 1.04392e-17
6511.95784 1.05779e-17
6513.61543 1.07165e-17
6515.27302 1.05161e-17
6516.93061 1.03159e-17
6518.59825 1.02951e-17
6520.25584 1.02742e-17
6521.91343 1.01605e-17
6523.57102 1.00468e-17
6525.23866 1.00614e-17
6526.89625 1.00759e-17
6528.55384 9.95207e-18
6530.22147 9.82823e-18
6531.87906 9.74195e-18
6533.53665 9.65573e-18
6535.19424 9.72719e-18
6536.86188 9.79867e-18
6538.51947 9.89485e-18
6540.17706 9.99095e-18
6541.84469 9.67154e-18
6543.50228 9.35220e-18
6545.15987 9.41451e-18
6546.81746 9.47677e-18
6548.48510 9.26956e-18
6550.14269 9.06244e-18
6551.80028 9.29745e-18
6553.45787 9.53246e-18
6555.12551 9.83388e-18
6556.78310 1.01353e-17
6558.44069 1.02357e-17
6560.10832 1.03362e-17
6561.76591 1.03092e-17
6563.42350 1.02821e-17
6565.08109 1.01205e-17
6566.74873 9.95885e-18
6568.40632 9.94946e-18
6570.06391 9.94011e-18
6571.72150 1.01239e-17
6573.38913 1.03078e-17
6575.04672 1.06344e-17
6576.70431 1.09609e-17
6578.37195 1.09594e-17
6580.02954 1.09579e-17
6581.68713 1.07250e-17
6583.34472 1.04921e-17
6585.01236 1.05245e-17
6586.66995 1.05570e-17
6588.32754 1.06031e-17
6589.98513 1.06491e-17
6591.65276 1.05790e-17
6593.31035 1.05090e-17
6594.96794 1.05109e-17
6596.63558 1.05129e-17
6598.29317 1.06399e-17
6599.95076 1.07667e-17
6601.60835 1.07515e-17
6603.27598 1.07365e-17
6604.93357 1.08977e-17
6606.59116 1.10587e-17
6608.24875 1.09281e-17
6609.91639 1.07976e-17
6611.57398 1.07684e-17
6613.23157 1.07391e-17
6614.89921 1.07836e-17
6616.55680 1.08279e-17
6618.21439 1.07198e-17
6619.87198 1.06117e-17
6621.53961 1.06616e-17
6623.19720 1.07116e-17
6624.85479 1.04784e-17
6626.52243 1.02454e-17
6628.18002 1.02532e-17
6629.83761 1.02610e-17
6631.49520 1.02343e-17
6633.16283 1.02078e-17
6634.82042 1.03831e-17
6636.47801 1.05584e-17
6638.13560 1.05458e-17
6639.80324 1.05335e-17
6641.46083 1.05996e-17
6643.11842 1.06658e-17
6644.78606 1.06722e-17
6646.44365 1.06786e-17
6648.10124 1.08451e-17
6649.75883 1.10117e-17
6651.42646 1.08994e-17
6653.08405 1.07872e-17
6654.74164 1.09498e-17
6656.39923 1.11124e-17
6658.06687 1.12410e-17
6659.72446 1.13695e-17
6661.38205 1.12741e-17
6663.04968 1.11787e-17
6664.70727 1.12113e-17
6666.36486 1.12438e-17
6668.02245 1.10783e-17
6669.69009 1.09129e-17
6671.34768 1.12507e-17
6673.00527 1.15884e-17
6674.66286 1.13952e-17
6676.33050 1.12020e-17
6677.98809 1.08665e-17
6679.64568 1.05309e-17
6681.31331 1.06316e-17
6682.97090 1.07322e-17
6684.62849 1.10161e-17
6686.28608 1.12999e-17
6687.95372 1.11649e-17
6689.61131 1.10300e-17
6691.26890 1.09274e-17
6692.92649 1.08248e-17
6694.59412 1.06861e-17
6696.25171 1.05474e-17
6697.90930 1.09018e-17
6699.57694 1.12560e-17
6701.23453 1.13992e-17
6702.89212 1.15422e-17
6704.54971 1.13621e-17
6706.21735 1.11818e-17
6707.87494 1.08989e-17
6709.53253 1.06160e-17
6711.20016 1.07552e-17
6712.85775 1.08944e-17
6714.51534 1.09760e-17
6716.17293 1.10577e-17
6717.84057 1.10048e-17
6719.49816 1.09521e-17
6721.15575 1.10549e-17
6722.81334 1.11577e-17
6724.48097 1.09738e-17
6726.13856 1.07900e-17
6727.79615 1.06933e-17
6729.46379 1.05967e-17
6731.12138 1.05551e-17
6732.77897 1.05135e-17
6734.43656 1.09227e-17
6736.10420 1.13318e-17
6737.76179 1.13990e-17
6739.41938 1.14663e-17
6741.07697 1.12598e-17
6742.74460 1.10534e-17
6744.40219 1.12111e-17
6746.05978 1.13686e-17
6747.72742 1.12107e-17
6749.38501 1.10528e-17
6751.04260 1.11534e-17
6752.70019 1.12539e-17
6754.36782 1.11140e-17
6756.02541 1.09740e-17
6757.68300 1.09873e-17
6759.35064 1.10004e-17
6761.00823 1.08397e-17
6762.66582 1.06790e-17
6764.32341 1.08650e-17
6765.99105 1.10511e-17
6767.64864 1.08846e-17
6769.30623 1.07183e-17
6770.96382 1.06004e-17
6772.63145 1.04826e-17
6774.28904 1.05553e-17
6775.94663 1.06279e-17
6777.61427 1.04774e-17
6779.27186 1.03269e-17
6780.92945 1.03987e-17
6782.58704 1.04705e-17
6784.25467 1.03964e-17
6785.91226 1.03223e-17
6787.56985 1.03921e-17
6789.22744 1.04617e-17
6790.89508 1.03112e-17
6792.55267 1.01607e-17
6794.21026 1.02589e-17
6795.87790 1.03570e-17
6797.53549 1.01575e-17
6799.19308 9.95809e-18
6800.85067 1.00411e-17
6802.51830 1.01241e-17
6804.17589 1.01699e-17
6805.83348 1.02157e-17
6807.49107 9.96920e-18
6809.15871 9.72276e-18
6810.81630 9.76176e-18
6812.47389 9.80074e-18
6814.14152 9.78940e-18
6815.79911 9.77807e-18
6817.45670 9.87942e-18
6819.11429 9.98071e-18
6820.78193 9.87905e-18
6822.43952 9.77743e-18
6824.09711 9.89755e-18
6825.75470 1.00176e-17
6827.42234 9.87796e-18
6829.07993 9.73826e-18
6830.73752 9.44544e-18
6832.40515 9.15270e-18
6834.06274 9.15858e-18
6835.72033 9.16451e-18
6837.37792 9.39328e-18
6839.04556 9.62198e-18
6840.70315 9.57839e-18
6842.36074 9.53476e-18
6844.02837 9.35538e-18
6845.68596 9.34635e-18
6847.34355 9.33733e-18
6849.00114 9.32829e-18
6850.66878 9.31927e-18
6852.32637 9.31025e-18
6853.98396 9.30122e-18
6855.64155 9.29219e-18
6857.30919 9.28316e-18
6858.96678 9.27414e-18
6860.62437 9.26510e-18
6862.29200 9.25608e-18
6863.94959 9.24706e-18
6865.60718 9.23803e-18
6867.26477 9.22901e-18
6868.93241 9.21998e-18
6870.59000 9.21095e-18
6872.24759 9.20194e-18
6873.90518 9.19290e-18
6875.57281 9.18388e-18
6877.23040 9.17485e-18
6878.88799 9.16583e-18
6880.55563 9.15681e-18
6882.21322 9.14779e-18
6883.87081 9.13877e-18
6885.52840 9.12974e-18
6887.19604 9.12072e-18
6888.85363 9.11169e-18
6890.51122 9.10267e-18
6892.17885 9.09365e-18
6893.83644 9.08463e-18
6895.49403 9.07561e-18
6897.15162 9.06658e-18
6898.81926 9.05757e-18
6900.47685 9.04855e-18
6902.13444 9.03953e-18
6903.79203 9.03051e-18
6905.45966 9.02148e-18
6907.11725 9.01246e-18
6908.77484 9.00345e-18
6910.44248 8.99442e-18
6912.10007 8.98541e-18
6913.75766 8.97638e-18
6915.41525 8.96737e-18
6917.08289 8.95835e-18
6918.74048 8.94933e-18
6920.39807 8.94031e-18
6922.05566 8.93129e-18
6923.72329 8.92228e-18
6925.38088 8.91326e-18
6927.03847 8.90424e-18
6928.70611 8.89523e-18
6930.36370 8.88621e-18
6932.02129 8.87719e-18
6933.67888 8.86818e-18
6935.34651 8.85916e-18
6937.00410 8.93152e-18
6938.66169 9.00382e-18
6940.31928 8.86243e-18
6941.98692 8.72110e-18
6943.64451 8.90541e-18
6945.30210 9.08961e-18
6946.96974 8.88783e-18
6948.62733 8.68613e-18
6950.28492 8.78944e-18
6951.94251 8.89273e-18
6953.61014 8.88779e-18
6955.26773 8.88281e-18
6956.92532 8.68740e-18
6958.59296 8.49208e-18
6960.25055 8.71483e-18
6961.90814 8.93752e-18
6963.56573 8.94990e-18
6965.23336 8.96226e-18
6966.89095 8.91469e-18
6968.54854 8.86712e-18
6970.20613 8.86079e-18
6971.87377 8.85449e-18
6973.53136 8.90378e-18
6975.18895 8.95311e-18
6976.85659 9.19610e-18
6978.51418 9.43907e-18
6980.17177 9.64413e-18
6981.82936 9.84907e-18
6983.49699 9.55578e-18
6985.15458 9.26255e-18
6986.81217 9.22931e-18
6988.46976 9.19609e-18
6990.13740 9.28006e-18
6991.79499 9.36403e-18
6993.45258 9.44661e-18
6995.12021 9.52914e-18
6996.77780 9.48448e-18
6998.43539 9.43980e-18
7000.09298 9.31532e-18
7001.76062 9.19091e-18
7003.41821 9.36507e-18
7005.07580 9.53920e-18
7006.73339 9.59560e-18
7008.40103 9.65198e-18
7010.05862 9.53132e-18
7011.71621 9.41070e-18
7013.38384 9.35590e-18
7015.04143 9.30114e-18
7016.69902 9.41585e-18
7018.35661 9.53051e-18
7020.02425 9.46198e-18
7021.68184 9.39344e-18
7023.33943 9.34237e-18
7024.99702 9.29130e-18
7026.66465 9.24192e-18
7028.32224 9.19263e-18
7029.97983 9.54036e-18
7031.64747 9.88800e-18
7033.30506 9.88238e-18
7034.96265 9.87673e-18
7036.62024 9.71361e-18
7038.28788 9.55061e-18
7039.94547 9.82317e-18
7041.60306 1.00956e-17
7043.27069 9.93658e-18
7044.92828 9.77760e-18
7046.58587 9.86153e-18
7048.24346 9.94542e-18
7049.91110 9.92158e-18
7051.56869 9.89771e-18
7053.22628 9.78495e-18
7054.88387 9.67223e-18
7056.55150 9.67913e-18
7058.20909 9.68602e-18
7059.86668 9.63321e-18
7061.53432 9.58038e-18
7063.19191 9.40910e-18
7064.84950 9.23791e-18
7066.50709 9.40081e-18
7068.17473 9.56372e-18
7069.83232 9.81739e-18
7071.48991 1.00710e-17
7073.14750 9.89357e-18
7074.81513 9.71622e-18
7076.47272 9.61749e-18
7078.13031 9.51877e-18
7079.79795 9.49388e-18
7081.45554 9.46907e-18
7083.11313 9.75315e-18
7084.77072 1.00372e-17
7086.43835 1.00820e-17
7088.09594 1.01267e-17
7089.75353 9.99020e-18
7091.41112 9.85361e-18
7093.07876 9.54882e-18
7094.73635 9.24412e-18
7096.39394 9.28359e-18
7098.06158 9.32306e-18
7099.71917 9.40103e-18
7101.37676 9.47904e-18
7103.03435 9.73762e-18
7104.70198 9.99605e-18
7106.35957 9.69337e-18
7108.01716 9.39079e-18
7109.67475 9.49995e-18
7111.34239 9.60910e-18
7112.99998 9.61098e-18
7114.65757 9.61287e-18
7116.32520 9.62485e-18
7117.98279 9.63689e-18
7119.64038 9.89179e-18
7121.29797 1.01466e-17
7122.96561 1.00802e-17
7124.62320 1.00137e-17
7126.28079 9.69242e-18
7127.94843 9.37128e-18
7129.60602 9.43898e-18
7131.26361 9.50668e-18
7132.92120 9.57473e-18
7134.58883 9.64276e-18
7136.24642 9.59213e-18
7137.90401 9.54144e-18
7139.57165 9.24670e-18
7141.22924 8.95210e-18
7142.88683 9.18408e-18
7144.54442 9.41594e-18
7146.21205 9.22737e-18
7147.86964 9.03890e-18
7149.52723 9.21051e-18
7151.18482 9.38202e-18
7152.85246 9.20462e-18
7154.51005 9.02729e-18
7156.16764 9.12075e-18
7157.83528 9.21419e-18
7159.49287 9.31541e-18
7161.15046 9.41660e-18
7162.80805 9.38811e-18
7164.47568 9.35963e-18
7166.13327 9.35334e-18
7167.79086 9.34704e-18
7169.44845 9.23520e-18
7171.11609 9.12334e-18
7172.77368 8.92058e-18
7174.43127 8.71791e-18
7176.08886 8.85803e-18
7177.75649 8.99810e-18
7179.41408 8.93289e-18
7181.07167 8.86767e-18
7182.73931 8.79714e-18
7184.39690 8.72668e-18
7186.05449 9.00353e-18
7187.71208 9.28026e-18
7189.37972 9.09127e-18
7191.03731 8.90233e-18
7192.69490 8.84822e-18
7194.36253 8.79404e-18
7196.02012 8.49068e-18
7197.67771 8.18742e-18
7199.33530 8.24469e-18
7201.00294 8.30201e-18
7202.66053 8.54248e-18
7204.31812 8.78291e-18
7205.97571 8.91366e-18
7207.64334 9.04436e-18
7209.30093 9.01342e-18
7210.95852 8.98247e-18
7212.62616 8.89842e-18
7214.28375 8.81444e-18
7215.94134 8.93740e-18
7217.59893 9.06032e-18
7219.26657 8.99493e-18
7220.92416 8.92955e-18
7222.58175 8.93408e-18
7224.24938 8.93856e-18
7225.90697 8.78129e-18
7227.56456 8.62412e-18
7229.22215 8.82832e-18
7230.88979 9.03245e-18
7232.54738 8.92746e-18
7234.20497 8.82248e-18
7235.86256 8.75002e-18
7237.53019 8.67762e-18
7239.18778 8.78451e-18
7240.84537 8.89138e-18
7242.51301 8.88043e-18
7244.17060 8.86949e-18
7245.82819 8.94599e-18
7247.48578 9.02242e-18
7249.15342 8.87146e-18
7250.81101 8.72058e-18
7252.46860 8.91047e-18
7254.12619 9.10031e-18
7255.79382 9.04033e-18
7257.45141 8.98042e-18
7259.10900 9.09703e-18
7260.77664 9.21354e-18
7262.43423 8.98620e-18
7264.09182 8.75886e-18
7265.74941 8.55335e-18
7267.41704 8.34794e-18
7269.07463 8.47191e-18
7270.73222 8.59587e-18
7272.38981 8.64866e-18
7274.05745 8.70146e-18
7275.71504 8.77939e-18
7277.37263 8.85731e-18
7279.04027 8.92794e-18
7280.69786 8.99849e-18
7282.35545 8.66519e-18
7284.01304 8.33201e-18
7285.68067 8.39342e-18
7287.33826 8.45482e-18
7288.99585 8.55542e-18
7290.65344 8.65600e-18
7292.32108 8.63629e-18
7293.97867 8.61656e-18
7295.63626 8.48071e-18
7297.30389 8.34490e-18
7298.96148 8.43589e-18
7300.61907 8.52687e-18
7302.27666 8.57917e-18
7303.94430 8.63149e-18
7305.60189 8.76477e-18
7307.25948 8.89802e-18
7308.92712 8.97689e-18
7310.58471 9.05567e-18
7312.24230 8.82022e-18
7313.89989 8.58481e-18
7315.56752 8.40399e-18
7317.22511 8.22330e-18
7318.88270 8.47638e-18
7320.54029 8.72937e-18
7322.20793 8.64974e-18
7323.86552 8.57010e-18
7325.52311 8.45355e-18
7327.19074 8.33701e-18
7328.84833 8.21882e-18
7330.50592 8.10067e-18
7332.16351 8.14191e-18
7333.83115 8.18312e-18
7335.48874 8.19122e-18
7337.14633 8.19932e-18
7338.80392 8.20606e-18
7340.47156 8.21286e-18
7342.12915 8.42811e-18
7343.78674 8.64330e-18
7345.45437 8.73535e-18
7347.11196 8.82731e-18
7348.76955 8.57475e-18
7350.42714 8.32224e-18
7352.09478 8.23695e-18
7353.75237 8.15173e-18
7355.40996 8.32619e-18
7357.06755 8.50057e-18
7358.73518 8.39977e-18
7360.39277 8.29893e-18
7362.05036 8.01391e-18
7363.71800 7.72901e-18
7365.37559 7.87315e-18
7367.03318 8.01727e-18
7368.69077 8.14213e-18
7370.35841 8.26688e-18
7372.01600 8.06270e-18
7373.67359 7.85857e-18
7375.33118 7.87662e-18
7376.99881 7.89465e-18
7378.65640 7.87401e-18
7380.31399 7.85342e-18
7381.98163 8.03226e-18
7383.63922 8.21103e-18
7385.29681 8.15288e-18
7386.95440 8.09472e-18
7388.62203 8.05840e-18
7390.27962 8.02215e-18
7391.93721 8.22114e-18
7393.60485 8.42001e-18
7395.26244 8.21031e-18
7396.92003 8.00068e-18
7398.57762 8.02392e-18
7400.24526 8.04711e-18
7401.90285 7.89484e-18
7403.56044 7.74261e-18
7405.21803 7.67760e-18
7406.88566 7.61263e-18
7408.54325 7.68213e-18
7410.20084 7.75164e-18
7411.86848 7.89106e-18
7413.52607 8.03042e-18
7415.18366 8.01215e-18
7416.84125 7.99380e-18
7418.50888 7.76699e-18
7420.16647 7.54028e-18
7421.82406 7.68822e-18
7423.48165 7.83614e-18
7425.14929 7.90406e-18
7426.80688 7.97195e-18
7428.46447 7.94619e-18
7430.13211 7.92038e-18
7431.78970 7.73324e-18
7433.44729 7.54614e-18
7435.10488 7.48368e-18
7436.77251 7.42130e-18
7438.43010 7.58353e-18
7440.08769 7.74568e-18
7441.74528 7.64393e-18
7443.41292 7.54223e-18
7445.07051 7.55076e-18
7446.72810 7.55930e-18
7448.39573 7.64782e-18
7450.05332 7.73632e-18
7451.71091 7.73414e-18
7453.36850 7.73198e-18
7455.03614 7.75587e-18
7456.69373 7.77978e-18
7458.35132 7.87136e-18
7460.00891 7.96293e-18
7461.67655 7.97716e-18
7463.33414 7.99139e-18
7464.99173 7.94582e-18
7466.65936 7.90021e-18
7468.31695 7.61993e-18
7469.97454 7.33973e-18
7471.63213 7.31408e-18
7473.29977 7.28849e-18
7474.95736 7.42167e-18
7476.61495 7.55479e-18
7478.28258 7.54654e-18
7479.94017 7.53824e-18
7481.59776 7.38561e-18
7483.25535 7.23306e-18
7484.92299 7.38076e-18
7486.58058 7.52843e-18
7488.23817 7.59088e-18
7489.89576 7.65332e-18
7491.56340 7.72755e-18
7493.22099 7.80172e-18
7494.87858 7.69439e-18
7496.54621 7.58707e-18
7498.20380 7.49353e-18
7499.86139 7.39995e-18
7501.51898 7.22214e-18
7503.18662 7.04440e-18
7504.84421 7.09594e-18
7506.50180 7.14747e-18
7508.16943 7.18342e-18
7509.82702 7.21936e-18
7511.48461 7.18345e-18
7513.14220 7.14760e-18
7514.80984 7.31539e-18
7516.46743 7.48306e-18
7518.12502 7.28578e-18
7519.78261 7.08858e-18
7521.45025 7.16119e-18
7523.10784 7.23379e-18
7524.76543 7.30081e-18
7526.43306 7.36782e-18
7528.09065 7.34204e-18
7529.74824 7.31622e-18
7531.40583 7.13671e-18
7533.07347 6.95730e-18
7534.73106 7.08153e-18
7536.38865 7.20573e-18
7538.04624 7.24035e-18
7539.71387 7.27493e-18
7541.37146 7.25133e-18
7543.02905 7.22769e-18
7544.69669 7.04938e-18
7546.35428 6.87115e-18
7548.01187 6.97665e-18
7549.66946 7.08213e-18
7551.33710 7.07078e-18
7552.99469 7.05942e-18
7554.65228 7.04806e-18
7556.30987 7.03672e-18
7557.97750 7.02536e-18
7559.63509 7.01402e-18
7561.29268 7.00266e-18
7562.96032 6.99131e-18
7564.61791 6.97996e-18
7566.27550 6.96861e-18
7567.93309 6.95726e-18
7569.60072 6.94591e-18
7571.25831 6.93455e-18
7572.91590 6.92321e-18
7574.58354 6.91186e-18
7576.24113 6.90051e-18
7577.89872 6.88916e-18
7579.55631 6.87781e-18
7581.22395 6.86647e-18
7582.88154 6.85512e-18
7584.53913 6.84378e-18
7586.19672 6.83242e-18
7587.86435 6.82108e-18
7589.52194 6.80973e-18
7591.17953 6.79838e-18
7592.84717 6.78705e-18
7594.50476 6.77569e-18
7596.16235 6.76436e-18
7597.81994 6.75301e-18
7599.48757 6.74166e-18
7601.14516 6.73032e-18
7602.80275 6.71897e-18
7604.46034 6.70763e-18
7606.12798 6.69629e-18
7607.78557 6.68495e-18
7609.44316 6.67361e-18
7611.11080 6.66226e-18
7612.76839 6.65092e-18
7614.42598 6.63958e-18
7616.08357 6.62824e-18
7617.75120 6.61690e-18
7619.40879 6.60556e-18
7621.06638 6.59422e-18
7622.72397 6.58287e-18
7624.39161 6.57154e-18
7626.04920 6.56019e-18
7627.70679 6.54886e-18
7629.37442 6.53752e-18
7631.03201 6.52619e-18
7632.68960 6.51484e-18
7634.34719 6.50352e-18
7636.01483 6.49217e-18
7637.67242 6.48084e-18
7639.33001 6.46950e-18
7640.99765 6.45817e-18
7642.65524 6.44683e-18
7644.31283 6.43549e-18
7645.97042 6.42416e-18
7647.63805 6.41282e-18
7649.29564 6.40149e-18
7650.95323 6.39015e-18
7652.61082 6.37882e-18
7654.27846 6.36748e-18
7655.93605 6.35616e-18
7657.59364 6.34482e-18
7659.26127 6.33349e-18
7660.91886 6.32216e-18
7662.57645 6.31083e-18
7664.23404 6.29949e-18
7665.90168 6.28817e-18
7667.55927 6.27683e-18
7669.21686 6.26550e-18
7670.87445 6.25417e-18
7672.54209 6.24285e-18
7674.19968 6.23151e-18
7675.85727 6.22019e-18
7677.52490 6.20886e-18
7679.18249 6.19753e-18
7680.84008 6.18620e-18
7682.49767 6.04747e-18
7684.16531 6.03322e-18
7685.82290 6.01907e-18
7687.48049 6.32190e-18
7689.13808 6.62459e-18
7690.80571 6.50542e-18
7692.46330 6.38628e-18
7694.12089 6.40472e-18
7695.78853 6.42314e-18
7697.44612 6.35492e-18
7699.10371 6.28678e-18
7700.76130 6.49196e-18
7702.42894 6.69701e-18
7704.08653 6.45029e-18
7705.74412 6.20368e-18
7707.40171 6.36278e-18
7709.06934 6.52181e-18
7710.72693 6.49584e-18
7712.38452 6.46990e-18
7714.05216 6.56214e-18
7715.70975 6.65430e-18
7717.36734 6.51465e-18
7719.02493 6.37508e-18
7720.69256 6.48443e-18
7722.35015 6.59370e-18
7724.00774 6.41968e-18
7725.67538 6.24568e-18
7727.33297 6.10976e-18
7728.99056 5.97394e-18
7730.64815 6.15896e-18
7732.31579 6.34394e-18
7733.97338 6.39761e-18
7735.63097 6.45123e-18
7737.28856 6.36435e-18
7738.95619 6.27750e-18
7740.61378 6.33581e-18
7742.27137 6.39410e-18
7743.93901 6.41503e-18
7745.59660 6.43600e-18
7747.25419 6.58134e-18
7748.91178 6.72656e-18
7750.57941 6.48282e-18
7752.23700 6.23914e-18
7753.89459 6.15284e-18
7755.55218 6.06662e-18
7757.21982 6.21529e-18
7758.87741 6.36403e-18
7760.53500 6.70756e-18
7762.20264 7.05094e-18
7763.86023 6.91290e-18
7765.51782 6.77491e-18
7767.17541 6.80398e-18
7768.84304 6.83302e-18
7770.50063 6.79733e-18
7772.15822 6.76163e-18
7773.81581 6.70568e-18
7775.48345 6.64972e-18
7777.14104 6.57783e-18
7778.79863 6.50601e-18
7780.46626 6.60845e-18
7782.12385 6.71082e-18
7783.78144 6.57612e-18
7785.43903 6.44152e-18
7787.10667 6.61360e-18
7788.76426 6.78565e-18
7790.42185 6.89447e-18
7792.07944 7.00323e-18
7793.74708 6.93483e-18
7795.40467 6.86647e-18
7797.06226 6.91018e-18
7798.72989 6.95390e-18
7800.38748 6.99675e-18
7802.04507 7.03954e-18
7803.70266 6.98228e-18
7805.37030 6.92505e-18
7807.02789 6.95938e-18
7808.68548 6.99367e-18
7810.35311 6.89760e-18
7812.01070 6.80164e-18
7813.66829 7.08388e-18
7815.32588 7.36597e-18
7816.99352 7.19656e-18
7818.65111 7.02719e-18
7820.30870 6.97565e-18
7821.96629 6.92409e-18
7823.63393 6.76699e-18
7825.29152 6.60995e-18
7826.94911 6.61191e-18
7828.61674 6.61387e-18
7830.27433 6.57618e-18
7831.93192 6.53854e-18
7833.58951 6.64975e-18
7835.25715 6.76097e-18
7836.91474 6.89895e-18
7838.57233 7.03679e-18
7840.22992 6.75639e-18
7841.89755 6.47613e-18
7843.55514 6.60668e-18
7845.21273 6.73718e-18
7846.88037 6.72201e-18
7848.53796 6.70687e-18
7850.19555 6.85548e-18
7851.85314 7.00414e-18
7853.52078 7.37828e-18
7855.17837 7.75224e-18
7856.83596 7.53504e-18
7858.50359 7.31786e-18
7860.16118 7.13913e-18
7861.81877 6.96051e-18
7863.47636 7.17246e-18
7865.14400 7.38429e-18
7866.80159 7.21555e-18
7868.45918 7.04690e-18
7870.11677 7.13609e-18
7871.78440 7.22521e-18
7873.44199 7.10396e-18
7875.09958 6.98275e-18
7876.76722 6.97783e-18
7878.42481 6.97293e-18
7880.08240 7.06751e-18
7881.73999 7.16202e-18
7883.40763 7.01637e-18
7885.06522 6.87085e-18
7886.72281 7.13009e-18
7888.38040 7.38923e-18
7890.04803 7.30731e-18
7891.70562 7.22534e-18
7893.36321 6.98804e-18
7895.03085 6.75080e-18
7896.68844 6.70442e-18
7898.34603 6.65804e-18
7900.00362 6.62940e-18
7901.67125 6.60083e-18
7903.32884 6.76401e-18
7904.98643 6.92714e-18
7906.64402 6.92888e-18
7908.31166 6.93060e-18
7909.96925 6.84999e-18
7911.62684 6.76935e-18
7913.29448 6.58907e-18
7914.95207 6.40894e-18
7916.60966 6.64358e-18
7918.26725 6.87810e-18
7919.93488 6.75049e-18
7921.59247 6.62300e-18
7923.25006 6.83452e-18
7924.90765 7.04597e-18
7926.57529 7.03023e-18
7928.23288 7.01443e-18
7929.89047 6.83364e-18
7931.55810 6.65287e-18
7933.21569 6.55486e-18
7934.87328 6.45690e-18
7936.53087 6.56158e-18
7938.19851 6.66617e-18
7939.85610 6.51653e-18
7941.51369 6.36697e-18
7943.18133 6.45787e-18
7944.83892 6.54884e-18
7946.49651 6.84205e-18
7948.15410 7.13510e-18
7949.82173 6.90542e-18
7951.47932 6.67573e-18
7953.13691 6.42312e-18
7954.79450 6.17068e-18
7956.46214 6.42654e-18
7958.11973 6.68222e-18
7959.77732 6.38249e-18
7961.44495 6.08292e-18
7963.10254 6.28737e-18
7964.76013 6.49174e-18
7966.41772 6.45603e-18
7968.08536 6.42034e-18
7969.74295 6.44141e-18
7971.40054 6.46249e-18
7973.05813 6.53822e-18
7974.72577 6.61386e-18
7976.38336 6.41250e-18
7978.04095 6.21118e-18
7979.70858 6.11227e-18
7981.36617 6.01348e-18
7983.02376 6.24537e-18
7984.68135 6.47719e-18
7986.34899 6.54647e-18
7988.00658 6.61568e-18
7989.66417 6.49903e-18
7991.33180 6.38244e-18
7992.98939 6.50146e-18
7994.64698 6.62033e-18
7996.30457 6.32625e-18
7997.97221 6.03235e-18
7999.62980 6.25605e-18
8001.28739 6.47962e-18
8002.94498 6.31297e-18
8004.61262 6.14638e-18
8006.27021 6.09154e-18
8007.92780 6.03681e-18
8009.59543 6.31214e-18
8011.25302 6.58729e-18
8012.91061 6.35913e-18
8014.56820 6.13106e-18
8016.23584 6.15386e-18
8017.89343 6.17667e-18
8019.55102 6.27842e-18
8021.20861 6.38013e-18
8022.87624 6.38554e-18
8024.53383 6.39089e-18
8026.19142 6.24268e-18
8027.85906 6.09449e-18
8029.51665 6.03660e-18
8031.17424 5.97871e-18
8032.83183 5.86892e-18
8034.49947 5.75922e-18
8036.15706 5.95093e-18
8037.81465 6.14257e-18
8039.47224 6.14140e-18
8041.13987 6.14020e-18
8042.79746 6.06546e-18
8044.45505 5.99074e-18
8046.12269 5.90862e-18
8047.78028 5.82656e-18
8049.43787 5.96353e-18
8051.09546 6.10044e-18
8052.76309 6.05867e-18
8054.42068 6.01686e-18
8056.07827 5.87859e-18
8057.73586 5.74039e-18
8059.40350 5.82173e-18
8061.06109 5.90305e-18
8062.71868 5.92831e-18
8064.38632 5.95352e-18
8066.04391 5.79664e-18
8067.70150 5.63980e-18
8069.35909 5.58753e-18
8071.02672 5.53531e-18
8072.68431 5.62717e-18
8074.34190 5.71904e-18
8076.00954 5.80919e-18
8077.66713 5.89932e-18
8079.32472 5.88723e-18
8080.98231 5.87507e-18
8082.64994 5.66709e-18
8084.30753 5.45912e-18
8085.96512 5.35726e-18
8087.62271 5.25544e-18
8089.29035 5.31759e-18
8090.94794 5.37975e-18
8092.60553 5.44821e-18
8094.27317 5.51665e-18
8095.93076 5.52024e-18
8097.58835 5.52384e-18
8099.24594 5.51881e-18
8100.91357 5.51381e-18
8102.57116 5.55800e-18
8104.22875 5.60213e-18
8105.88634 5.50475e-18
8107.55398 5.40743e-18
8109.21157 5.49080e-18
8110.86916 5.57407e-18
8112.53679 5.36846e-18
8114.19438 5.16299e-18
8115.85197 5.33681e-18
8117.50956 5.51064e-18
8119.17720 5.72757e-18
8120.83479 5.94435e-18
8122.49238 5.74672e-18
8124.16002 5.54907e-18
8125.81761 5.26351e-18
8127.47520 4.97808e-18
8129.13279 5.05013e-18
8130.80042 5.12219e-18
8132.45801 5.28654e-18
8134.11560 5.45082e-18
8135.77319 5.47298e-18
8137.44083 5.49513e-18
8139.09842 5.52769e-18
8140.75601 5.56022e-18
8142.41360 5.50191e-18
8144.08123 5.44357e-18
8145.73882 5.24887e-18
8147.39641 5.05430e-18
8149.06405 5.25362e-18
8150.72164 5.45284e-18
8152.37923 5.41380e-18
8154.03682 5.37471e-18
8155.70446 5.17442e-18
8157.36205 4.97424e-18
8159.01964 5.10310e-18
8160.68727 5.23194e-18
8162.34486 5.29876e-18
8164.00245 5.36549e-18
8165.66004 5.20568e-18
8167.32768 5.04601e-18
8168.98527 5.30715e-18
8170.64286 5.56819e-18
8172.30045 5.55821e-18
8173.96808 5.54808e-18
8175.62567 5.10531e-18
8177.28326 4.66274e-18
8178.95090 4.79512e-18
8180.60849 4.92752e-18
8182.26608 5.10246e-18
8183.92367 5.27737e-18
8185.59131 5.35912e-18
8187.24890 5.44074e-18
8188.90649 5.10774e-18
8190.56408 4.77487e-18
8192.23171 4.82575e-18
8193.88930 4.87669e-18
8195.54689 5.12782e-18
8197.21453 5.37886e-18
8198.87212 5.37871e-18
8200.52971 5.37852e-18
8202.18730 5.27031e-18
8203.85493 5.16213e-18
8205.51252 5.18280e-18
8207.17011 5.20346e-18
8208.82770 5.22858e-18
8210.49534 5.25359e-18
8212.15293 4.96921e-18
8213.81052 4.68497e-18
8215.47816 4.81718e-18
8217.13575 4.94931e-18
8218.79334 4.82850e-18
8220.45093 4.70781e-18
8222.11856 4.90076e-18
8223.77615 5.09361e-18
8225.43374 4.96155e-18
8227.09133 4.82960e-18
8228.75897 4.93634e-18
8230.41656 5.04302e-18
8232.07415 4.94982e-18
8233.74178 4.85665e-18
8235.39937 4.85290e-18
8237.05696 4.84913e-18
8238.71455 4.74651e-18
8240.38219 4.64391e-18
8242.03978 4.55112e-18
8243.69737 4.45845e-18
8245.36501 4.73222e-18
8247.02260 5.00588e-18
8248.68019 4.93993e-18
8250.33778 4.87402e-18
8252.00541 4.89309e-18
8253.66300 4.91203e-18
8255.32059 4.55819e-18
8256.97818 4.20459e-18
8258.64582 4.49854e-18
8260.30341 4.79241e-18
8261.96100 4.87246e-18
8263.62863 4.95245e-18
8265.28622 4.85896e-18
8266.94381 4.76546e-18
8268.60140 4.60930e-18
8270.26904 4.45320e-18
8271.92663 4.43822e-18
8273.58422 4.42326e-18
8275.25186 4.47372e-18
8276.90945 4.52412e-18
8278.56704 4.45213e-18
8280.22463 4.38013e-18
8281.89226 4.27994e-18
8283.54985 4.17983e-18
8285.20744 4.29770e-18
8286.86503 4.41549e-18
8288.53267 4.33928e-18
8290.19026 4.26311e-18
8291.84785 4.34630e-18
8293.51548 4.42948e-18
8295.17307 4.50051e-18
8296.83066 4.57152e-18
8298.48825 4.53256e-18
8300.15589 4.49353e-18
8301.81348 4.27914e-18
8303.47107 4.06486e-18
8305.12866 4.12079e-18
8306.79630 4.17668e-18
8308.45389 4.13986e-18
8310.11148 4.10304e-18
8311.77911 4.02444e-18
8313.43670 3.94588e-18
8315.09429 4.02317e-18
8316.75188 4.10046e-18
8318.41952 4.22436e-18
8320.07711 4.34820e-18
8321.73470 4.26540e-18
8323.40233 4.18257e-18
8325.05992 3.94456e-18
8326.71751 3.70668e-18
8328.37510 3.79856e-18
8330.04274 3.89046e-18
8331.70033 3.97545e-18
8333.35792 4.06043e-18
8335.01551 4.07509e-18
8336.68315 4.08975e-18
8338.34074 4.12069e-18
8339.99833 4.15164e-18
8341.65592 4.21837e-18
8343.32355 4.28515e-18
8344.98114 4.47343e-18
8346.63873 4.66160e-18
8348.30637 4.54454e-18
8349.96396 4.42744e-18
8351.62155 4.18489e-18
8353.27914 3.94245e-18
8354.94677 3.99839e-18
8356.60436 4.05434e-18
8358.26195 4.17999e-18
8359.92959 4.30560e-18
8361.58718 4.28296e-18
8363.24477 4.26028e-18
8364.90236 4.13563e-18
8366.57000 4.01099e-18
8368.22759 3.92182e-18
8369.88518 3.83275e-18
8371.54277 4.00914e-18
8373.21040 4.18536e-18
8374.86799 3.91896e-18
8376.52558 3.65273e-18
8378.19322 3.90343e-18
8379.85081 4.15400e-18
8381.50840 4.02453e-18
8383.16599 3.89511e-18
8384.83362 3.96780e-18
8386.49121 4.04039e-18
8388.14880 3.87045e-18
8389.81644 3.70063e-18
8391.47403 3.87426e-18
8393.13162 4.04787e-18
8394.78921 4.20206e-18
8396.45685 4.35616e-18
8398.11444 4.26827e-18
8399.77203 4.18039e-18
8401.42962 4.10729e-18
8403.09725 4.03423e-18
8404.75484 4.10606e-18
8406.41243 4.17794e-18
8408.08007 4.38451e-18
8409.73766 4.59096e-18
8411.39525 4.40720e-18
8413.05284 4.22350e-18
8414.72047 4.23618e-18
8416.37806 4.24881e-18
8418.03565 4.13143e-18
8419.69324 4.01409e-18
8421.36088 3.98757e-18
8423.01847 3.96107e-18
8424.67606 4.01236e-18
8426.34370 4.06355e-18
8428.00129 3.81846e-18
8429.65888 3.57354e-18
8431.31647 3.77403e-18
8432.98410 3.97451e-18
8434.64169 4.12521e-18
8436.29928 4.27584e-18
8437.95687 4.24258e-18
8439.62451 4.20932e-18
8441.28210 4.15088e-18
8442.93969 4.09239e-18
8444.60732 3.83743e-18
8446.26491 3.58261e-18
8447.92250 3.67958e-18
8449.58009 3.77659e-18
8451.24773 3.99806e-18
8452.90532 4.21947e-18
8454.56291 4.28864e-18
8456.22050 4.35773e-18
8457.88814 4.19513e-18
8459.54573 4.03257e-18
8461.20332 3.95448e-18
8462.87095 3.87643e-18
8464.52854 3.94192e-18
8466.18613 4.00738e-18
8467.84372 4.02220e-18
8469.51136 4.03702e-18
8471.16895 4.02487e-18
8472.82654 4.01271e-18
8474.48413 3.98030e-18
8476.15176 3.94794e-18
8477.80935 4.03356e-18
8479.46694 4.11924e-18
8481.13458 4.36730e-18
8482.79217 4.61518e-18
8484.44976 4.41431e-18
8486.10735 4.21351e-18
8487.77499 4.20263e-18
8489.43258 4.19186e-18
8491.09017 4.44736e-18
8492.75780 4.70269e-18
8494.41539 4.49626e-18
8496.07298 4.28991e-18
8497.73057 4.33648e-18
8499.39821 4.38303e-18
8501.05580 4.39516e-18
8502.71339 4.40728e-18
8504.37098 4.40240e-18
8506.03861 4.39752e-18
8507.69620 4.37452e-18
8509.35379 4.35155e-18
8511.01138 4.40464e-18
8512.67902 4.45769e-18
8514.33661 4.40530e-18
8515.99420 4.35298e-18
8517.66184 4.48231e-18
8519.31943 4.61156e-18
8520.97702 4.48977e-18
8522.63461 4.36799e-18
8524.30224 4.27287e-18
8525.95983 4.17787e-18
8527.61742 4.40890e-18
8529.28506 4.63988e-18
8530.94265 4.79981e-18
8532.60024 4.95961e-18
8534.25783 4.71283e-18
8535.92546 4.46621e-18
8537.58305 4.69818e-18
8539.24064 4.93002e-18
8540.89823 4.78877e-18
8542.56587 4.64759e-18
8544.22346 4.63570e-18
8545.88105 4.62382e-18
8547.54869 4.63753e-18
8549.20628 4.65131e-18
8550.86387 4.87555e-18
8552.52146 5.09970e-18
8554.18909 5.09662e-18
8555.84668 5.09360e-18
8557.50427 5.21712e-18
8559.17191 5.34055e-18
8560.82950 5.22438e-18
8562.48709 5.10823e-18
8564.14468 5.01733e-18
8565.81231 4.92652e-18
8567.46990 5.08111e-18
8569.12749 5.23563e-18
8570.78508 5.22206e-18
8572.45272 5.20843e-18
8574.11031 5.04689e-18
8575.76790 4.88536e-18
8577.43554 4.78455e-18
8579.09313 4.68381e-18
8580.75072 4.81047e-18
8582.40831 4.93704e-18
8584.07594 4.88282e-18
8585.73353 4.82865e-18
8587.39112 4.94899e-18
8589.04871 5.06934e-18
8590.71635 5.20901e-18
8592.37394 5.34857e-18
8594.03153 5.20260e-18
8595.69916 5.05666e-18
8597.35675 4.97451e-18
8599.01434 4.89241e-18
8600.67193 4.93213e-18
8602.33957 4.97192e-18
8603.99716 5.21135e-18
8605.65475 5.45064e-18
8607.32239 5.35654e-18
8608.97998 5.26240e-18
8610.63757 5.12255e-18
8612.29516 4.98275e-18
8613.96279 4.99374e-18
8615.62038 5.00473e-18
8617.27797 5.02595e-18
8618.93556 5.04716e-18
8620.60320 5.02846e-18
8622.26079 5.00984e-18
8623.91838 5.22964e-18
8625.58601 5.44940e-18
8627.24360 5.54919e-18
8628.90119 5.64886e-18
8630.55878 5.48617e-18
8632.22642 5.32352e-18
8633.88401 5.21887e-18
8635.54160 5.11435e-18
8637.20924 5.30159e-18
8638.86683 5.48881e-18
8640.52442 5.57388e-18
8642.18201 5.65880e-18
8643.84964 5.28881e-18
8645.50723 4.91898e-18
8647.16482 4.98070e-18
8648.82241 5.04247e-18
8650.49005 5.28261e-18
8652.14764 5.52265e-18
8653.80523 5.52241e-18
8655.46282 5.52212e-18
8657.13045 5.43020e-18
8658.78804 5.33835e-18
8660.44563 5.42977e-18
8662.11327 5.52107e-18
8663.77086 5.32089e-18
8665.42845 5.12080e-18
8667.08604 5.16747e-18
8668.75368 5.21412e-18
8670.41127 5.19837e-18
8672.06886 5.18264e-18
8673.73649 5.23799e-18
8675.39408 5.29327e-18
8677.05167 5.16442e-18
8678.70926 5.03566e-18
8680.37690 5.12968e-18
8682.03449 5.22368e-18
8683.69208 5.26555e-18
8685.34967 5.30733e-18
8687.01730 5.12753e-18
8688.67489 4.94786e-18
8690.33248 5.11718e-18
8691.99007 5.28647e-18
8693.65771 5.35087e-18
8695.31530 5.41520e-18
8696.97289 5.28301e-18
8698.64053 5.15088e-18
8700.29812 5.18559e-18
8701.95571 5.22032e-18
8703.61330 5.31817e-18
8705.28093 5.41595e-18
8706.93852 5.32418e-18
8708.59611 5.23241e-18
8710.26375 5.14056e-18
8711.92134 5.04880e-18
8713.57893 5.16691e-18
8715.23652 5.28496e-18
8716.90415 5.22003e-18
8718.56174 5.15509e-18
8720.21933 5.06896e-18
8721.87692 4.98287e-18
8723.54456 5.01482e-18
8725.20215 5.04680e-18
8726.85974 5.14105e-18
8728.52738 5.23532e-18
8730.18497 5.36379e-18
8731.84256 5.49214e-18
8733.50015 5.33801e-18
8735.16778 5.18398e-18
8736.82537 5.28462e-18
8738.48296 5.38519e-18
8740.14055 5.26740e-18
8741.80819 5.14970e-18
8743.46578 5.26447e-18
8745.12337 5.37910e-18
8746.79100 5.12165e-18
8748.44859 4.86433e-18
8750.10618 4.95806e-18
8751.76377 5.05189e-18
8753.43141 5.42079e-18
8755.08900 5.78955e-18
8756.74659 5.82416e-18
8758.40418 5.85861e-18
8760.07182 5.45736e-18
8761.72941 5.05623e-18
8763.38700 5.00128e-18
8765.05463 4.94636e-18
8766.71222 5.01488e-18
8768.36981 5.08334e-18
8770.02740 5.00546e-18
8771.69504 4.92761e-18
8773.35263 4.93718e-18
8775.01022 4.94673e-18
8776.67785 4.92842e-18
8778.33544 4.91011e-18
8779.99303 4.90687e-18
8781.65062 4.90366e-18
8783.31826 4.95903e-18
8784.97585 5.01430e-18
8786.63344 4.78954e-18
8788.29103 4.56483e-18
8789.95867 4.47404e-18
8791.61626 4.38339e-18
8793.27385 4.68249e-18
8794.94148 4.98142e-18
8796.59907 4.83844e-18
8798.25666 4.69552e-18
8799.91425 4.66686e-18
8801.58189 4.63820e-18
8803.23948 4.61344e-18
8804.89707 4.58868e-18
8806.56470 4.60493e-18
8808.22229 4.62119e-18
8809.87988 4.69738e-18
8811.53747 4.77354e-18
8813.20511 4.78485e-18
8814.86270 4.79618e-18
8816.52029 4.85497e-18
8818.17788 4.91373e-18
8819.84552 4.93920e-18
8821.50311 4.96466e-18
8823.16070 4.95663e-18
8824.82833 4.94860e-18
8826.48592 4.94455e-18
8828.14351 4.94031e-18
8829.80110 4.50818e-18
8831.46874 4.07637e-18
8833.12633 4.46278e-18
8834.78392 4.84900e-18
8836.44151 4.75707e-18
8838.10914 4.66518e-18
8839.76673 4.65779e-18
8841.42432 4.65038e-18
8843.09196 4.56442e-18
8844.74955 4.47849e-18
8846.40714 4.47291e-18
8848.06473 4.46734e-18
8849.73237 4.46909e-18
8851.38996 4.47089e-18
8853.04755 4.57752e-18
8854.71518 4.68404e-18
8856.37277 4.55354e-18
8858.03036 4.42305e-18
8859.68795 4.33297e-18
8861.35559 4.24293e-18
8863.01318 4.23469e-18
8864.67077 4.22647e-18
8866.32836 4.29408e-18
8867.99599 4.36172e-18
8869.65358 4.46226e-18
8871.31117 4.56278e-18
8872.97881 4.55798e-18
8874.63640 4.55312e-18
8876.29399 4.38896e-18
8877.95158 4.22492e-18
8879.61922 4.35866e-18
8881.27681 4.49232e-18
8882.93440 4.44609e-18
8884.60203 4.39993e-18
8886.25962 4.52275e-18
8887.91721 4.64555e-18
8889.57480 4.66807e-18
8891.24244 4.69047e-18
8892.90003 4.43975e-18
8894.55762 4.18916e-18
8896.21521 4.28069e-18
8897.88284 4.37219e-18
8899.54043 4.37350e-18
8901.19802 4.37480e-18
8902.85561 4.34913e-18
8904.52325 4.32347e-18
8906.18084 4.30666e-18
8907.83843 4.28980e-18
8909.50607 4.11242e-18
8911.16366 3.93515e-18
8912.82125 3.97988e-18
8914.47884 4.02455e-18
8916.14647 3.89693e-18
8917.80406 3.76944e-18
8919.46165 3.94870e-18
8921.11924 4.12786e-18
8922.78688 4.07386e-18
8924.44447 4.02000e-18
8926.10206 4.32584e-18
8927.76969 4.63154e-18
8929.42728 4.58328e-18
8931.08487 4.53487e-18
8932.74246 4.13437e-18
8934.41010 3.73403e-18
8936.06769 3.71256e-18
8937.72528 3.69118e-18
8939.38287 3.91769e-18
8941.05051 4.14399e-18
8942.70810 3.87834e-18
8944.36569 3.61282e-18
8946.03332 3.68468e-18
8947.69091 3.75645e-18
8949.34850 3.66374e-18
8951.00609 3.57112e-18
8952.67373 3.73461e-18
8954.33132 3.89792e-18
8955.98891 3.62534e-18
8957.64650 3.35294e-18
8959.31413 3.50365e-18
8960.97172 3.65433e-18
8962.62931 3.76249e-18
8964.29695 3.87066e-18
8965.95454 4.03071e-18
8967.61213 4.19064e-18
8969.26972 4.07788e-18
8970.93736 3.96516e-18
8972.59495 3.94616e-18
8974.25254 3.92714e-18
8975.92017 3.89383e-18
8977.57776 3.86049e-18
8979.23535 3.76381e-18
8980.89294 3.66722e-18
8982.56058 3.75349e-18
8984.21817 3.83976e-18
8985.87576 3.94923e-18
8987.53335 4.05859e-18
8989.20098 3.88054e-18
8990.85857 3.70253e-18
8992.51616 3.64336e-18
8994.18380 3.58422e-18
8995.84139 3.65855e-18
8997.49898 3.73286e-18
8999.15657 3.80204e-18
9000.82421 3.87125e-18
9002.48180 3.99397e-18
9004.13939 4.11662e-18
9005.79698 4.06624e-18
9007.46461 4.01588e-18
9009.12220 3.99030e-18
9010.77979 3.96477e-18
9012.44743 4.07822e-18
9014.10502 4.19155e-18
9015.76261 3.98169e-18
9017.42020 3.77195e-18
9019.08783 3.81081e-18
9020.74542 3.84961e-18
9022.40301 3.74126e-18
9024.07065 3.63295e-18
9025.72824 3.66479e-18
9027.38583 3.69664e-18
9029.04342 3.77414e-18
9030.71106 3.85167e-18
9032.36865 4.01874e-18
9034.02624 4.18565e-18
9035.68383 3.96524e-18
9037.35146 3.74490e-18
9039.00905 3.67681e-18
9040.66664 3.60878e-18
9042.33428 3.73549e-18
9043.99187 3.86208e-18
9045.64946 3.69055e-18
9047.30705 3.51902e-18
9048.97468 3.33819e-18
9050.63227 3.15755e-18
9052.28986 3.43579e-18
9053.95750 3.71394e-18
9055.61509 3.75478e-18
9057.27268 3.79551e-18
9058.93027 3.59211e-18
9060.59791 3.38878e-18
9062.25550 3.34517e-18
9063.91309 3.30161e-18
9065.57068 3.34507e-18
9067.23831 3.38847e-18
9068.89590 3.24404e-18
9070.55349 3.09973e-18
9072.21108 3.26060e-18
9073.87872 3.42140e-18
9075.53631 3.42398e-18
9077.19390 3.42658e-18
9078.86153 3.45895e-18
9080.51912 3.49118e-18
9082.17671 3.21470e-18
9083.83430 2.93841e-18
9085.50194 3.14218e-18
9087.15953 3.34591e-18
9088.81712 3.47633e-18
9090.48476 3.60664e-18
9092.14235 3.48388e-18
9093.79994 3.36131e-18
9095.45753 3.60238e-18
9097.12516 3.84323e-18
9098.78275 3.57915e-18
9100.44034 3.31525e-18
9102.09793 3.47967e-18
9103.76557 3.64417e-18
9105.42316 3.96753e-18
9107.08075 4.29069e-18
9108.74838 4.11901e-18
9110.40597 3.94732e-18
9112.06356 3.71558e-18
9113.72115 3.48393e-18
9115.38879 3.41547e-18
9117.04638 3.34710e-18
9118.70397 3.42671e-18
9120.36156 3.50627e-18
9122.02920 3.46532e-18
9123.68679 3.42441e-18
9125.34438 3.50325e-18
9127.01201 3.58207e-18
9128.66960 3.68510e-18
9130.32719 3.78809e-18
9131.98478 3.84075e-18
9133.65242 3.89340e-18
9135.31001 3.88636e-18
9136.96760 3.87934e-18
9138.63523 3.94633e-18
9140.29282 4.01325e-18
9141.95041 3.88480e-18
9143.60800 3.75642e-18
9145.27564 3.78517e-18
9146.93323 3.81388e-18
9148.59082 3.75907e-18
9150.24841 3.70423e-18
9151.91605 3.55147e-18
9153.57364 3.39888e-18
9155.23123 3.67184e-18
9156.89886 3.94468e-18
9158.55645 3.97434e-18
9160.21404 4.00395e-18
9161.87163 3.93302e-18
9163.53927 3.86204e-18
9165.19686 3.64527e-18
9166.85445 3.42865e-18
9168.51204 3.58315e-18
9170.17967 3.73760e-18
9171.83726 3.74377e-18
9173.49485 3.74992e-18
9175.15244 3.70807e-18
9176.82008 3.66631e-18
9178.47767 3.86040e-18
9180.13526 4.05443e-18
9181.80290 4.11131e-18
9183.46049 4.16813e-18
9185.11808 4.09375e-18
9186.77567 4.01941e-18
9188.44330 4.06693e-18
9190.10089 4.11439e-18
9191.75848 4.05714e-18
9193.42612 3.99986e-18
9195.08371 3.83585e-18
9196.74130 3.67200e-18
9198.39889 3.90848e-18
9200.06652 4.14488e-18
9201.72411 4.15364e-18
9203.38170 4.16230e-18
9205.03929 3.96758e-18
9206.70693 3.77292e-18
9208.36452 3.76778e-18
9210.02211 3.76272e-18
9211.68975 3.92714e-18
9213.34734 4.09147e-18
9215.00493 4.04624e-18
9216.66252 4.00100e-18
9218.33015 3.92702e-18
9219.98774 3.85305e-18
9221.64533 3.77469e-18
9223.31297 3.69638e-18
9224.97056 3.75611e-18
9226.62815 3.81574e-18
9228.28574 3.60171e-18
9229.95337 3.38791e-18
9231.61096 3.73407e-18
9233.26855 4.08014e-18
9234.92614 4.24758e-18
9236.59378 4.41483e-18
9238.25137 4.16232e-18
9239.90896 3.90988e-18
9241.56655 3.77976e-18
9243.23419 3.64980e-18
9244.89178 3.90578e-18
9246.54937 4.16158e-18
9248.21700 3.97066e-18
9249.87459 3.77984e-18
9251.53218 3.79350e-18
9253.18977 3.80713e-18
9254.85741 3.76389e-18
9256.51500 3.72069e-18
9258.17259 3.77265e-18
9259.84022 3.82462e-18
9261.49781 3.91961e-18
9263.15540 4.01453e-18
9264.81299 3.94471e-18
9266.48063 3.87480e-18
9268.13822 3.62943e-18
9269.79581 3.38427e-18
9271.45340 3.66561e-18
9273.12104 3.94676e-18
9274.77863 3.81304e-18
9276.43622 3.67944e-18
9278.10385 3.88189e-18
9279.76144 4.08416e-18
9281.41903 3.88580e-18
9283.07662 3.68753e-18
9284.74426 3.69278e-18
9286.40185 3.69805e-18
9288.05944 3.79144e-18
9289.71703 3.88468e-18
9291.38466 3.57712e-18
9293.04225 3.26973e-18
9294.69984 3.36135e-18
9296.36748 3.45299e-18
9298.02507 3.58650e-18
9299.68266 3.71995e-18
9301.34025 3.72699e-18
9303.00789 3.73401e-18
9304.66548 3.71236e-18
9306.32307 3.69065e-18
9307.99070 3.54339e-18
9309.64829 3.39616e-18
9311.30588 3.32700e-18
9312.96347 3.25790e-18
9314.63111 3.32349e-18
9316.28870 3.38897e-18
9317.94629 3.17985e-18
9319.60388 2.97071e-18
9321.27151 2.69037e-18
9322.92910 2.41029e-18
9324.58669 2.70928e-18
9326.25433 3.00816e-18
9327.91192 3.04939e-18
9329.56951 3.09065e-18
9331.22710 3.18769e-18
9332.89474 3.28462e-18
9334.55233 3.12083e-18
9336.20992 2.95713e-18
9337.87755 3.01456e-18
9339.53514 3.07197e-18
9341.19273 3.10451e-18
9342.85032 3.13713e-18
9344.51796 3.31117e-18
9346.17555 3.48515e-18
9347.83314 3.52678e-18
9349.49073 3.56821e-18
9351.15836 3.12846e-18
9352.81595 2.68887e-18
9354.47354 2.61148e-18
9356.13113 2.53429e-18
9357.79877 2.94857e-18
9359.45636 3.36266e-18
9361.11395 3.32389e-18
9362.78159 3.28521e-18
9364.43918 3.46886e-18
9366.09677 3.65243e-18
9367.75436 3.65227e-18
9369.42199 3.65209e-18
9371.07958 3.62450e-18
9372.73717 3.59671e-18
9374.40481 3.06778e-18
9376.06240 2.53908e-18
9377.71999 2.55273e-18
9379.37758 2.56646e-18
9381.04521 2.78697e-18
9382.70280 3.00738e-18
9384.36039 3.01819e-18
9386.01798 3.02899e-18
9387.68562 3.03083e-18
9389.34321 3.03265e-18
9391.00080 3.02071e-18
9392.66844 3.00885e-18
9394.32603 3.14787e-18
9395.98362 3.28677e-18
9397.64121 3.14435e-18
9399.30884 3.00199e-18
9400.96643 3.01059e-18
9402.62402 3.01919e-18
9404.28161 3.05925e-18
9405.94925 3.09925e-18
9407.60684 3.01899e-18
9409.26443 2.93883e-18
9410.93206 3.09808e-18
9412.58965 3.25725e-18
9414.24724 3.28722e-18
9415.90483 3.31713e-18
9417.57247 3.19110e-18
9419.23006 3.06512e-18
9420.88765 3.02888e-18
9422.54524 2.99259e-18
9424.21288 2.86229e-18
9425.87047 2.73220e-18
9427.52806 3.08607e-18
9429.19569 3.43968e-18
9430.85328 3.22512e-18
9432.51087 3.01061e-18
9434.16846 2.94222e-18
9435.83610 2.87369e-18
9437.49369 2.49665e-18
9439.15128 2.11971e-18
9440.80887 1.98030e-18
9442.47650 1.84122e-18
9444.13409 2.45980e-18
9445.79168 3.07810e-18
9447.45932 3.06681e-18
9449.11691 3.05555e-18
9450.77450 3.13198e-18
9452.43209 3.20829e-18
9454.09973 3.02350e-18
9455.75732 2.83871e-18
9457.41491 2.61195e-18
9459.07250 2.38533e-18
9460.74013 2.44650e-18
9462.39772 2.50773e-18
9464.05531 2.72466e-18
9465.72295 2.94137e-18
9467.38054 2.65139e-18
9469.03813 2.36163e-18
9470.69572 2.57272e-18
9472.36335 2.78383e-18
9474.02094 3.02178e-18
9475.67853 3.25970e-18
9477.34617 3.38187e-18
9479.00376 3.50392e-18
9480.66135 3.37168e-18
9482.31894 3.23950e-18
9483.98658 3.24260e-18
9485.64417 3.24561e-18
9487.30176 3.02638e-18
9488.95935 2.80722e-18
9490.62698 2.78428e-18
9492.28457 2.76132e-18
9493.94216 2.68986e-18
9495.60980 2.61858e-18
9497.26739 2.96725e-18
9498.92498 3.31572e-18
9500.58257 3.16173e-18
9502.25020 3.00782e-18
9503.90779 3.05353e-18
9505.56538 3.09926e-18
9507.23302 3.17137e-18
9508.89061 3.24334e-18
9510.54820 3.01208e-18
9512.20579 2.78086e-18
9513.87343 2.68132e-18
9515.53102 2.58178e-18
9517.18861 2.53178e-18
9518.84620 2.48194e-18
9520.51383 2.79883e-18
9522.17142 3.11548e-18
9523.82901 2.92295e-18
9525.49665 2.73054e-18
9527.15424 2.80311e-18
9528.81183 2.87561e-18
9530.46942 2.76683e-18
9532.13705 2.65815e-18
9533.79464 2.78529e-18
9535.45223 2.91237e-18
9537.10982 2.94209e-18
9538.77746 2.97182e-18
9540.43505 3.04244e-18
9542.09264 3.11301e-18
9543.76028 3.07973e-18
9545.41787 3.04636e-18
9547.07546 2.80212e-18
9548.73305 2.55793e-18
9550.40068 2.43329e-18
9552.05827 2.30897e-18
9553.71586 2.91174e-18
9555.37345 3.51412e-18
9557.04109 3.23911e-18
9558.69868 2.96419e-18
9560.35627 2.92483e-18
9562.02390 2.88554e-18
9563.68149 3.00294e-18
9565.33908 3.12021e-18
9566.99667 2.95822e-18
9568.66431 2.79631e-18
9570.32190 2.81967e-18
9571.97949 2.84307e-18
9573.64713 2.91510e-18
9575.30472 2.98700e-18
9576.96231 2.76058e-18
9578.61990 2.53426e-18
9580.28753 2.53390e-18
9581.94512 2.53359e-18
9583.60271 2.61407e-18
9585.27035 2.69448e-18
9586.92794 2.59373e-18
9588.58553 2.49302e-18
9590.24312 2.45668e-18
9591.91075 2.42046e-18
9593.56834 2.64864e-18
9595.22593 2.87668e-18
9596.88352 2.77078e-18
9598.55116 2.66500e-18
9600.20875 2.85240e-18
9601.86634 3.03971e-18
9603.52393 3.03478e-18
9605.19157 3.02991e-18
9606.84916 3.15959e-18
9608.50675 3.28907e-18
9610.17438 2.94780e-18
9611.83197 2.60666e-18
9613.48956 2.59391e-18
9615.14715 2.58115e-18
9616.81479 2.55314e-18
9618.47238 2.52516e-18
9620.12997 2.57197e-18
9621.79760 2.61880e-18
9623.45519 2.67854e-18
9625.11278 2.73829e-18
9626.77037 2.79528e-18
9628.43801 2.85227e-18
9630.09560 2.92732e-18
9631.75319 3.00233e-18
9633.41078 2.99484e-18
9635.07842 2.98741e-18
9636.73601 3.14684e-18
9638.39360 3.30610e-18
9640.06123 3.11327e-18
9641.71882 2.92054e-18
9643.37641 2.98727e-18
9645.03400 3.05385e-18
9646.70164 2.78677e-18
9648.35923 2.51989e-18
9650.01682 2.69401e-18
9651.67441 2.86803e-18
9653.34204 2.84443e-18
9654.99963 2.82076e-18
9656.65722 2.62462e-18
9658.31481 2.42861e-18
9659.98245 2.51000e-18
9661.64004 2.59149e-18
9663.29763 2.86852e-18
9664.96527 3.14527e-18
9666.62286 2.76995e-18
9668.28045 2.39490e-18
9669.93804 2.59184e-18
9671.60567 2.78879e-18
9673.26326 2.99022e-18
9674.92085 3.19157e-18
9676.58849 3.24402e-18
9678.24608 3.29636e-18
9679.90367 3.15041e-18
9681.56126 3.00468e-18
9683.22889 3.31817e-18
9684.88648 3.63142e-18
9686.54407 3.38623e-18
9688.20166 3.14098e-18
9689.86930 2.79700e-18
9691.52689 2.45334e-18
9693.18448 2.78128e-18
9694.85212 3.10911e-18
9696.50971 3.15167e-18
9698.16730 3.19433e-18
9699.82489 3.42589e-18
9701.49252 3.65704e-18
9703.15011 2.99537e-18
9704.80770 2.33408e-18
9706.46529 2.47872e-18
9708.13293 2.62333e-18
9709.79052 2.68403e-18
9711.44811 2.74458e-18
9713.11574 2.45493e-18
9714.77333 2.16555e-18
9716.43092 2.46009e-18
9718.08851 2.75462e-18
9719.75615 3.02268e-18
9721.41374 3.29049e-18
9723.07133 3.03157e-18
9724.73897 2.77280e-18
9726.39656 2.82793e-18
9728.05415 2.88307e-18
9729.71174 2.96859e-18
9731.37937 3.05397e-18
9733.03696 2.88259e-18
9734.69455 2.71131e-18
9736.35214 2.78589e-18
9738.01978 2.86047e-18
9739.67737 2.98432e-18
9741.33496 3.10811e-18
9743.00259 3.10604e-18
9744.66018 3.10391e-18
9746.31777 2.94444e-18
9747.97536 2.78499e-18
9749.64300 2.64914e-18
9751.30059 2.51347e-18
9752.95818 2.79083e-18
9754.62582 3.06796e-18
9756.28341 2.84582e-18
9757.94100 2.62383e-18
9759.59859 2.72831e-18
9761.26622 2.83276e-18
9762.92381 2.91006e-18
9764.58140 2.98731e-18
9766.23899 2.93794e-18
9767.90663 2.88867e-18
9769.56422 3.02087e-18
9771.22181 3.15297e-18
9772.87940 3.04814e-18
9774.54703 2.94331e-18
9776.20462 2.78106e-18
9777.86221 2.61883e-18
9779.52985 2.48201e-18
9781.18744 2.34536e-18
9782.84503 2.59071e-18
9784.50262 2.83592e-18
9786.17026 2.77891e-18
9787.82785 2.72224e-18
9789.48544 3.39622e-18
9791.15307 4.06972e-18
9792.81066 3.72952e-18
9794.46825 3.38942e-18
9796.12584 3.21665e-18
9797.79348 3.04400e-18
9799.45107 3.14728e-18
9801.10866 3.25024e-18
9802.76625 2.66766e-18
9804.43388 2.08527e-18
9806.09147 1.89412e-18
9807.74906 1.70328e-18
9809.41670 2.14865e-18
9811.07429 2.59385e-18
9812.73188 2.68644e-18
9814.38947 2.77903e-18
9816.05711 2.87386e-18
9817.71470 2.96861e-18
9819.37229 2.89557e-18
9821.03992 2.82248e-18
9822.69751 2.59935e-18
9824.35510 2.37649e-18
9826.01269 2.70656e-18
9827.68033 3.03640e-18
9829.33792 2.85452e-18
9830.99551 2.67277e-18
9832.65310 2.77372e-18
9834.32073 2.87457e-18
9835.97832 2.79295e-18
9837.63591 2.71128e-18
9839.30355 2.53832e-18
9840.96114 2.36560e-18
9842.61873 2.69384e-18
9844.27632 3.02209e-18
9845.94396 3.36714e-18
9847.60155 3.71195e-18
9849.25914 3.55334e-18
9850.91673 3.39472e-18
9852.58436 3.23387e-18
9854.24195 3.07302e-18
9855.89954 2.93051e-18
9857.56718 2.78807e-18
9859.22477 2.76453e-18
9860.88236 2.74100e-18
9862.53995 2.73403e-18
9864.20758 2.72732e-18
9865.86517 3.26231e-18
9867.52276 3.79699e-18
9869.18035 3.65906e-18
9870.84799 3.52126e-18
9872.50558 3.64691e-18
9874.16317 3.77265e-18
9875.83081 4.11562e-18
9877.48840 4.45815e-18
9879.14599 3.87600e-18
9880.80358 3.29387e-18
9882.47121 2.73508e-18
9884.12880 2.17677e-18
9885.78639 2.62915e-18
9887.44398 3.08142e-18
9889.11162 3.32243e-18
9890.76921 3.56335e-18
9892.42680 3.63680e-18
9894.09443 3.71028e-18
9895.75202 3.82207e-18
9897.40961 3.93382e-18
9899.06720 3.99340e-18
9900.73484 4.05262e-18
9902.39243 3.34754e-18
9904.05002 2.64276e-18
9905.70761 2.57460e-18
9907.37525 2.50642e-18
9909.03284 2.39973e-18
9910.69043 2.29309e-18
9912.35806 2.32069e-18
9914.01565 2.34846e-18
9915.67324 2.74423e-18
9917.33083 3.13974e-18
9918.99847 3.00290e-18
9920.65606 2.86616e-18
9922.31365 2.92801e-18
9923.98128 2.98989e-18
9925.63887 3.06859e-18
9927.29646 3.14732e-18
9928.95405 3.29693e-18
9930.62169 3.44616e-18
9932.27928 2.75717e-18
9933.93687 2.06843e-18
9935.59446 1.87474e-18
9937.26210 1.68146e-18
9938.91969 2.33162e-18
9940.57728 2.98159e-18
9942.23487 3.24798e-18
9943.90250 3.51424e-18
9945.56009 3.51615e-18
9947.21768 3.51784e-18
9948.88532 3.03150e-18
9950.54291 2.54566e-18
9952.20050 3.10669e-18
9953.85809 3.66745e-18
9955.52572 3.65878e-18
9957.18331 3.64993e-18
9958.84090 3.25763e-18
9960.50854 2.86545e-18
9962.16613 2.69440e-18
9963.82372 2.52341e-18
9965.48131 2.42555e-18
9967.14895 2.32764e-18
9968.80654 2.09150e-18
9970.46413 1.85543e-18
9972.12172 1.74264e-18
9973.78935 1.62990e-18
9975.44694 1.64509e-18
9977.10453 1.66051e-18
9978.77217 2.12381e-18
9980.42976 2.58688e-18
9982.08735 2.56313e-18
9983.74494 2.53947e-18
9985.41257 2.71434e-18
9987.07016 2.88925e-18
9988.72775 3.16233e-18
9990.39539 3.43522e-18
9992.05298 3.34463e-18
9993.71057 3.25390e-18
9995.36816 2.92884e-18
9997.03580 2.60367e-18
9998.69339 2.01417e-18
