# wavelength flux
3327.83844 2.29433e-18
3329.77674 2.17735e-18
3331.71503 1.22021e-18
3333.65333 4.53352e-19
3335.59163 1.07982e-18
3337.52993 1.07484e-18
3339.47827 1.82401e-18
3341.41657 1.42089e-18
3343.35487 1.46511e-19
3345.29317 1.33150e-18
3347.23147 2.13774e-18
3349.16977 2.19545e-18
3351.11811 1.23332e-18
3353.05641 5.15491e-19
3354.99471 5.11078e-19
3356.93301 9.79226e-19
3358.87131 1.35978e-18
3360.80961 1.23261e-18
3362.74790 1.32996e-18
3364.69625 2.10915e-18
3366.63455 2.80367e-19
3368.57285 3.06802e-19
3370.51114 5.48497e-19
3372.44944 2.92061e-19
3374.38774 4.94695e-19
3376.33608 6.25577e-19
3378.27438 1.46801e-18
3380.21268 1.86937e-18
3382.15098 1.67566e-18
3384.08928 1.64689e-18
3386.02758 2.18506e-18
3387.97592 4.76975e-19
3389.91422 -9.73821e-19
3391.85252 1.58990e-18
3393.79082 2.72305e-18
3395.72912 1.62983e-18
3397.66742 1.55874e-18
3399.61576 2.19994e-18
3401.55406 1.79308e-18
3403.49236 6.21550e-19
3405.43065 1.72366e-18
3407.36895 1.69496e-18
3409.30725 1.19198e-18
3411.24555 1.97083e-18
3413.19389 1.38330e-18
3415.13219 2.25629e-18
3417.07049 1.82882e-18
3419.00879 1.43690e-18
3420.94709 2.32014e-18
3422.88539 1.78323e-18
3424.83373 6.01189e-19
3426.77203 1.01325e-18
3428.71033 6.54482e-19
3430.64863 8.00747e-19
3432.58693 1.96488e-18
3434.52523 1.55828e-18
3436.47357 1.44080e-18
3438.41187 2.73117e-18
3440.35017 3.08401e-18
3442.28847 1.08568e-18
3444.22676 1.27046e-18
3446.16506 1.53128e-18
3448.11340 3.04514e-18
3450.05170 1.72678e-18
3451.99000 1.30267e-18
3453.92830 1.43314e-18
3455.86660 1.30485e-18
3457.80490 1.86640e-18
3459.74320 1.74573e-18
3461.69154 2.47726e-18
3463.62984 2.42851e-18
3465.56814 1.54823e-18
3467.50644 1.54284e-18
3469.44474 2.25435e-18
3471.38304 1.91307e-18
3473.33138 1.84703e-18
3475.26968 1.45161e-18
3477.20798 1.43926e-18
3479.14628 1.96759e-18
3481.08457 2.23535e-18
3483.02287 1.26202e-18
3484.97122 1.24488e-18
3486.90951 1.29965e-18
3488.84781 1.40131e-18
3490.78611 2.81442e-18
3492.72441 2.67164e-18
3494.66271 2.02632e-18
3496.61105 1.06175e-18
3498.54935 1.29135e-18
3500.48765 1.30827e-18
3502.42595 1.26164e-18
3504.36425 1.68614e-18
3506.30255 2.04567e-18
3508.24085 1.14557e-18
3510.18919 -1.89335e-20
3512.12749 3.37568e-19
3514.06579 8.12094e-19
3516.00408 2.48915e-18
3517.94238 1.96473e-18
3519.88068 2.47373e-18
3521.82903 2.33386e-18
3523.76732 1.60919e-18
3525.70562 2.48150e-18
3527.64392 1.56874e-18
3529.58222 5.68172e-19
3531.52052 9.28375e-19
3533.46886 1.38904e-18
3535.40716 1.68049e-18
3537.34546 1.32205e-18
3539.28376 1.20360e-18
3541.22206 1.87392e-18
3543.16036 2.52581e-18
3545.10870 1.52010e-18
3547.04700 2.07419e-18
3548.98530 1.91883e-18
3550.92360 1.31607e-18
3552.86190 9.97670e-19
3554.80019 2.17543e-18
3556.73849 1.44393e-18
3558.68683 9.30486e-19
3560.62513 1.73303e-18
3562.56343 1.70369e-18
3564.50173 1.50766e-18
3566.44003 1.23760e-18
3568.37833 2.21485e-18
3570.32667 1.62012e-18
3572.26497 9.04447e-19
3574.20327 2.11798e-18
3576.14157 2.91926e-18
3578.07987 1.75464e-18
3580.01817 2.06379e-18
3581.96651 1.31194e-18
3583.90481 2.07917e-18
3585.84311 2.68376e-18
3587.78141 2.00501e-18
3589.71970 1.90044e-18
3591.65800 1.61204e-18
3593.60635 2.50806e-18
3595.54464 1.61949e-18
3597.48294 2.27451e-18
3599.42124 2.83570e-18
3601.35954 1.25830e-18
3603.29784 1.08440e-18
3605.23614 1.92577e-18
3607.18448 3.00302e-18
3609.12278 1.59195e-18
3611.06108 1.57064e-18
3612.99938 1.72834e-18
3614.93768 2.01617e-18
3616.87598 2.55235e-18
3618.82432 2.36183e-18
3620.76262 1.81978e-18
3622.70092 2.86202e-18
3624.63922 2.53606e-18
3626.57751 1.68261e-18
3628.51581 1.09653e-18
3630.46416 2.13717e-18
3632.40245 1.58793e-18
3634.34075 2.45597e-18
3636.27905 2.50788e-18
3638.21735 2.01949e-18
3640.15565 2.55000e-18
3642.09395 9.25997e-19
3644.04229 1.33160e-18
3645.98059 1.46602e-18
3647.91889 1.89387e-18
3649.85719 2.68746e-18
3651.79549 2.98166e-18
3653.73379 1.69787e-18
3655.68213 1.57256e-18
3657.62043 2.86206e-18
3659.55873 2.46437e-18
3661.49703 2.21434e-18
3663.43532 2.41308e-18
3665.37362 2.30053e-18
3667.32197 2.15968e-18
3669.26026 2.21000e-18
3671.19856 2.04277e-18
3673.13686 2.37022e-18
3675.07516 3.15915e-18
3677.01346 3.04068e-18
3678.96180 2.64220e-18
3680.90010 2.14985e-18
3682.83840 2.53523e-18
3684.77670 2.80753e-18
3686.71500 2.87490e-18
3688.65330 2.87932e-18
3690.59160 2.52391e-18
3692.53994 2.22882e-18
3694.47824 2.50586e-18
3696.41654 3.17009e-18
3698.35484 3.61374e-18
3700.29313 3.98144e-18
3702.23143 3.26826e-18
3704.17978 2.82149e-18
3706.11807 2.24674e-18
3708.05637 2.05385e-18
3709.99467 2.60943e-18
3711.93297 2.61262e-18
3713.87127 2.78332e-18
3715.81961 2.96374e-18
3717.75791 4.20535e-18
3719.69621 3.96119e-18
3721.63451 3.42149e-18
3723.57281 3.23764e-18
3725.51111 3.23617e-18
3727.45945 3.20931e-18
3729.39775 3.18245e-18
3731.33605 3.15559e-18
3733.27435 3.12874e-18
3735.21265 3.10189e-18
3737.15094 3.07504e-18
3739.08924 3.04820e-18
3741.03759 3.02136e-18
3742.97588 2.99452e-18
3744.91418 2.96768e-18
3746.85248 2.94085e-18
3748.79078 2.91402e-18
3750.72908 2.88719e-18
3752.67742 2.86036e-18
3754.61572 2.83354e-18
3756.55402 2.80672e-18
3758.49232 2.77990e-18
3760.43062 2.75308e-18
3762.36892 2.72628e-18
3764.31726 2.69947e-18
3766.25556 2.49910e-18
3768.19386 2.03131e-18
3770.13216 2.59984e-18
3772.07046 1.83577e-18
3774.00875 1.96254e-18
3775.94705 2.58375e-18
3777.89540 2.43773e-18
3779.83369 1.75819e-18
3781.77199 2.76092e-18
3783.71029 2.94051e-18
3785.64859 2.00072e-18
3787.58689 2.00237e-18
3789.53523 1.72716e-18
3791.47353 2.29155e-18
3793.41183 2.63526e-18
3795.35013 2.30146e-18
3797.28843 2.34991e-18
3799.22673 1.98309e-18
3801.17507 1.70395e-18
3803.11337 1.82262e-18
3805.05167 1.84825e-18
3806.98997 1.62965e-18
3808.92827 2.03905e-18
3810.86657 2.58921e-18
3812.81491 1.55590e-18
3814.75321 1.83204e-18
3816.69150 1.39679e-18
3818.62980 1.00191e-18
3820.56810 1.14640e-18
3822.50640 1.01361e-18
3824.44470 1.25374e-18
3826.39304 1.65926e-18
3828.33134 1.61848e-18
3830.26964 1.24283e-18
3832.20794 1.28966e-18
3834.14624 1.31326e-18
3836.08454 1.40341e-18
3838.03288 1.58841e-18
3839.97118 1.24848e-18
3841.90948 1.23045e-18
3843.84778 1.82286e-18
3845.78608 1.71155e-18
3847.72437 1.36667e-18
3849.67272 1.78644e-18
3851.61102 1.97777e-18
3853.54932 1.81920e-18
3855.48761 2.03694e-18
3857.42591 2.35022e-18
3859.36421 1.78746e-18
3861.31255 1.76127e-18
3863.25085 2.24547e-18
3865.18915 2.22979e-18
3867.12745 2.49049e-18
3869.06575 2.32994e-18
3871.00405 2.74297e-18
3872.94235 3.18847e-18
3874.89069 2.83226e-18
3876.82899 2.77791e-18
3878.76729 2.77161e-18
3880.70559 3.26986e-18
3882.64389 3.61583e-18
3884.58218 3.42111e-18
3886.53053 3.22564e-18
3888.46883 3.49139e-18
3890.40712 3.56798e-18
3892.34542 3.49518e-18
3894.28372 4.01310e-18
3896.22202 4.31058e-18
3898.17036 4.44902e-18
3900.10866 4.56447e-18
3902.04696 4.93824e-18
3903.98526 4.48112e-18
3905.92356 4.25786e-18
3907.86186 4.91181e-18
3909.81020 4.77368e-18
3911.74850 4.35289e-18
3913.68680 5.01028e-18
3915.62510 4.84338e-18
3917.56340 5.11676e-18
3919.50170 4.84585e-18
3921.44000 5.12038e-18
3923.38834 5.82907e-18
3925.32664 6.21889e-18
3927.26493 5.58642e-18
3929.20323 5.61856e-18
3931.14153 6.51346e-18
3933.07983 6.04709e-18
3935.02817 6.03325e-18
3936.96647 6.61803e-18
3938.90477 6.28982e-18
3940.84307 6.75306e-18
3942.78137 6.38565e-18
3944.71967 6.46269e-18
3946.66801 6.45533e-18
3948.60631 6.66162e-18
3950.54461 7.10389e-18
3952.48291 6.61098e-18
3954.42121 6.79484e-18
3956.35951 6.91832e-18
3958.30785 7.14555e-18
3960.24615 6.91570e-18
3962.18445 6.75297e-18
3964.12275 6.66527e-18
3966.06104 7.20505e-18
3967.99934 7.85121e-18
3969.93764 7.85054e-18
3971.88598 7.70107e-18
3973.82428 8.10424e-18
3975.76258 8.26883e-18
3977.70088 7.93713e-18
3979.63918 8.02690e-18
3981.57748 7.94313e-18
3983.52582 7.37729e-18
3985.46412 6.39996e-18
3987.40242 6.73288e-18
3989.34072 6.54125e-18
3991.27902 7.00739e-18
3993.21732 7.15775e-18
3995.16566 7.38124e-18
3997.10396 7.71515e-18
3999.04226 7.57893e-18
4000.98055 7.28211e-18
4002.91885 7.01714e-18
4004.85715 7.28002e-18
4006.80550 7.84345e-18
4008.74379 7.10313e-18
4010.68209 6.91197e-18
4012.62039 7.59739e-18
4014.55869 6.95043e-18
4016.49699 6.51493e-18
4018.43529 7.29095e-18
4020.38363 7.39247e-18
4022.32193 7.42241e-18
4024.26023 7.20909e-18
4026.19853 7.13280e-18
4028.13683 6.90903e-18
4030.07513 6.70092e-18
4032.02347 7.45330e-18
4033.96177 6.92945e-18
4035.90007 6.30814e-18
4037.83837 6.52506e-18
4039.77666 6.82219e-18
4041.71496 7.00326e-18
4043.66330 6.99948e-18
4045.60160 7.31208e-18
4047.53990 7.28713e-18
4049.47820 6.90433e-18
4051.41650 6.85519e-18
4053.35480 6.81048e-18
4055.30314 6.41574e-18
4057.24144 6.51435e-18
4059.17974 6.66028e-18
4061.11804 6.58825e-18
4063.05634 6.22653e-18
4064.99464 5.98330e-18
4066.93294 6.38225e-18
4068.88128 6.58309e-18
4070.81958 6.71904e-18
4072.75788 6.39335e-18
4074.69618 6.31712e-18
4076.63447 6.65096e-18
4078.57277 6.37077e-18
4080.52112 5.78549e-18
4082.45941 5.98141e-18
4084.39771 6.56639e-18
4086.33601 6.71111e-18
4088.27431 6.32930e-18
4090.21261 5.97348e-18
4092.16095 5.88189e-18
4094.09925 5.61324e-18
4096.03755 5.74764e-18
4097.97585 5.77007e-18
4099.91415 5.25500e-18
4101.85245 4.99864e-18
4103.80079 5.39422e-18
4105.73909 5.57834e-18
4107.67739 5.28663e-18
4109.61569 5.10955e-18
4111.55398 5.18710e-18
4113.49228 5.39850e-18
4115.43058 5.26810e-18
4117.37892 5.18951e-18
4119.31722 4.85946e-18
4121.25552 4.20295e-18
4123.19382 4.40359e-18
4125.13212 4.83567e-18
4127.07042 4.60461e-18
4129.01876 4.44440e-18
4130.95706 4.72073e-18
4132.89536 4.73622e-18
4134.83366 4.22640e-18
4136.77196 4.18471e-18
4138.71026 4.21354e-18
4140.65860 4.17902e-18
4142.59690 4.38117e-18
4144.53520 4.26771e-18
4146.47350 4.33403e-18
4148.41179 4.05156e-18
4150.35009 3.48280e-18
4152.29844 3.71866e-18
4154.23673 4.22320e-18
4156.17503 3.41569e-18
4158.11333 3.03807e-18
4160.05163 3.52574e-18
4161.98993 3.38148e-18
4163.92823 2.98185e-18
4165.87657 2.96442e-18
4167.81487 3.03304e-18
4169.75317 3.21430e-18
4171.69147 3.17064e-18
4173.62977 2.84981e-18
4175.56807 2.87313e-18
4177.51641 3.07850e-18
4179.45471 3.54120e-18
4181.39301 3.41516e-18
4183.33131 2.84939e-18
4185.26961 3.02358e-18
4187.20790 3.11885e-18
4189.15625 3.16560e-18
4191.09454 3.73366e-18
4193.03284 3.89141e-18
4194.97114 3.47172e-18
4196.90944 3.35697e-18
4198.84774 3.52867e-18
4200.79608 3.32395e-18
4202.73438 3.18589e-18
4204.67268 3.48019e-18
4206.61098 3.57671e-18
4208.54928 3.41976e-18
4210.48758 3.22397e-18
4212.42588 3.59059e-18
4214.37422 3.64347e-18
4216.31252 3.47672e-18
4218.25082 3.70750e-18
4220.18912 3.64792e-18
4222.12741 3.49626e-18
4224.06571 3.52728e-18
4226.01406 3.71839e-18
4227.95236 4.05498e-18
4229.89065 3.67298e-18
4231.82895 3.20704e-18
4233.76725 3.73747e-18
4235.70555 4.15549e-18
4237.65389 4.11325e-18
4239.59219 4.10555e-18
4241.53049 4.27852e-18
4243.46879 4.36522e-18
4245.40709 4.13807e-18
4247.34539 3.82017e-18
4249.28369 3.76012e-18
4251.23203 3.64294e-18
4253.17033 3.86275e-18
4255.10863 3.79758e-18
4257.04693 3.53708e-18
4258.98522 3.80968e-18
4260.92352 3.76763e-18
4262.87187 3.69716e-18
4264.81016 3.97497e-18
4266.74846 3.70394e-18
4268.68676 3.61748e-18
4270.62506 4.01908e-18
4272.56336 4.07244e-18
4274.51170 4.10503e-18
4276.45000 3.91868e-18
4278.38830 3.63179e-18
4280.32660 3.89589e-18
4282.26490 4.11745e-18
4284.20320 4.07861e-18
4286.15154 3.84372e-18
4288.08984 4.08954e-18
4290.02814 4.28835e-18
4291.96644 3.56768e-18
4293.90474 3.30707e-18
4295.84303 4.02161e-18
4297.78133 4.44394e-18
4299.72968 4.16843e-18
4301.66798 3.84649e-18
4303.60627 3.82705e-18
4305.54457 3.92601e-18
4307.48287 3.90024e-18
4309.42117 4.26335e-18
4311.36951 4.47971e-18
4313.30781 3.98677e-18
4315.24611 4.12918e-18
4317.18441 4.30459e-18
4319.12271 4.39863e-18
4321.06101 3.89878e-18
4323.00935 3.62005e-18
4324.94765 3.99664e-18
4326.88595 4.46840e-18
4328.82425 4.41804e-18
4330.76255 4.32758e-18
4332.70084 4.02004e-18
4334.63914 3.88680e-18
4336.58749 4.27334e-18
4338.52578 3.94982e-18
4340.46408 3.78482e-18
4342.40238 4.54651e-18
4344.34068 4.88020e-18
4346.27898 4.36051e-18
4348.22732 4.22410e-18
4350.16562 4.14232e-18
4352.10392 4.17444e-18
4354.04222 4.74940e-18
4355.98052 4.79090e-18
4357.91882 4.48914e-18
4359.86716 3.87149e-18
4361.80546 3.48053e-18
4363.74376 4.08696e-18
4365.68206 4.08125e-18
4367.62036 4.07554e-18
4369.55865 4.06983e-18
4371.50700 4.06412e-18
4373.44530 4.05841e-18
4375.38359 4.05270e-18
4377.32189 4.04699e-18
4379.26019 4.04128e-18
4381.19849 4.03557e-18
4383.14683 4.02986e-18
4385.08513 4.02415e-18
4387.02343 4.01844e-18
4388.96173 4.01273e-18
4390.90003 4.00703e-18
4392.83833 4.00132e-18
4394.77663 3.99561e-18
4396.72497 3.98991e-18
4398.66327 3.98420e-18
4400.60157 3.97850e-18
4402.53987 4.22274e-18
4404.47817 4.09514e-18
4406.41647 3.75586e-18
4408.36481 3.99239e-18
4410.30311 4.05804e-18
4412.24141 3.88463e-18
4414.17970 3.70846e-18
4416.11800 3.98976e-18
4418.05630 4.36855e-18
4420.00464 4.08538e-18
4421.94294 3.70225e-18
4423.88124 3.44407e-18
4425.81954 3.47140e-18
4427.75784 3.82514e-18
4429.69614 4.24463e-18
4431.64448 3.71324e-18
4433.58278 3.52787e-18
4435.52108 4.23146e-18
4437.45938 4.25827e-18
4439.39768 3.73350e-18
4441.33598 3.99439e-18
4443.27427 4.19099e-18
4445.22262 4.07470e-18
4447.16092 4.17246e-18
4449.09922 4.06907e-18
4451.03751 4.01161e-18
4452.97581 4.14195e-18
4454.91411 4.40853e-18
4456.86245 4.53815e-18
4458.80075 4.59277e-18
4460.73905 4.50600e-18
4462.67735 4.42570e-18
4464.61565 4.50852e-18
4466.55395 4.17123e-18
4468.50229 4.64174e-18
4470.44059 4.86469e-18
4472.37889 4.80698e-18
4474.31719 5.11175e-18
4476.25549 5.48501e-18
4478.19379 5.25820e-18
4480.14213 5.04520e-18
4482.08043 5.32031e-18
4484.01873 5.33445e-18
4485.95702 5.76750e-18
4487.89532 5.81643e-18
4489.83362 5.67162e-18
4491.77192 5.81352e-18
4493.72026 6.37127e-18
4495.65856 5.98358e-18
4497.59686 6.33091e-18
4499.53516 6.76734e-18
4501.47346 6.88204e-18
4503.41176 7.43976e-18
4505.36010 7.04375e-18
4507.29840 7.26906e-18
4509.23670 7.37313e-18
4511.17500 6.62414e-18
4513.11330 6.80353e-18
4515.05160 7.08975e-18
4516.99994 7.12555e-18
4518.93824 7.11343e-18
4520.87654 7.69626e-18
4522.81484 7.35082e-18
4524.75313 8.01760e-18
4526.69143 8.47223e-18
4528.63977 7.83127e-18
4530.57807 8.01362e-18
4532.51637 8.69404e-18
4534.45467 8.71801e-18
4536.39297 8.36947e-18
4538.33127 8.85747e-18
4540.26957 9.36592e-18
4542.21791 9.15584e-18
4544.15621 9.53091e-18
4546.09451 9.60658e-18
4548.03281 9.66477e-18
4549.97111 1.02436e-17
4551.90941 9.90973e-18
4553.85775 1.00600e-17
4555.79605 9.71428e-18
4557.73435 9.64179e-18
4559.67264 1.04710e-17
4561.61094 1.08742e-17
4563.54924 1.09907e-17
4565.49759 1.09592e-17
4567.43588 1.10325e-17
4569.37418 1.11589e-17
4571.31248 1.12247e-17
4573.25078 1.03524e-17
4575.18908 1.11707e-17
4577.12738 1.20667e-17
4579.07572 1.19305e-17
4581.01402 1.12326e-17
4582.95232 1.15296e-17
4584.89062 1.25704e-17
4586.82892 1.28377e-17
4588.76722 1.30433e-17
4590.71556 1.30085e-17
4592.65386 1.34587e-17
4594.59216 1.31823e-17
4596.53046 1.32543e-17
4598.46875 1.26493e-17
4600.40705 1.31958e-17
4602.35539 1.34718e-17
4604.29369 1.29677e-17
4606.23199 1.33322e-17
4608.17029 1.39420e-17
4610.10859 1.34583e-17
4612.04689 1.32037e-17
4613.99523 1.25892e-17
4615.93353 1.28760e-17
4617.87183 1.31017e-17
4619.81013 1.35504e-17
4621.74843 1.36680e-17
4623.68673 1.32151e-17
4625.62503 1.33354e-17
4627.57337 1.34333e-17
4629.51167 1.35303e-17
4631.44997 1.36132e-17
4633.38826 1.36476e-17
4635.32656 1.40988e-17
4637.26486 1.38046e-17
4639.21321 1.33414e-17
4641.15150 1.39513e-17
4643.08980 1.39729e-17
4645.02810 1.36521e-17
4646.96640 1.34284e-17
4648.90470 1.34977e-17
4650.85304 1.29543e-17
4652.79134 1.28133e-17
4654.72964 1.28053e-17
4656.66794 1.30344e-17
4658.60624 1.29037e-17
4660.54454 1.25464e-17
4662.49288 1.25564e-17
4664.43118 1.28845e-17
4666.36948 1.32033e-17
4668.30778 1.32501e-17
4670.24608 1.25844e-17
4672.18437 1.24154e-17
4674.12267 1.22992e-17
4676.07102 1.16007e-17
4678.00931 1.15060e-17
4679.94761 1.13429e-17
4681.88591 1.14039e-17
4683.82421 1.16663e-17
4685.76251 1.10266e-17
4687.71085 1.12507e-17
4689.64915 1.06533e-17
4691.58745 1.06333e-17
4693.52575 1.11046e-17
4695.46405 1.10135e-17
4697.40235 1.05993e-17
4699.35069 1.05057e-17
4701.28899 1.02921e-17
4703.22729 9.97697e-18
4705.16559 9.96071e-18
4707.10388 9.47088e-18
4709.04218 9.58491e-18
4710.99053 9.21864e-18
4712.92882 8.82786e-18
4714.86712 8.85978e-18
4716.80542 9.14452e-18
4718.74372 9.40178e-18
4720.68202 9.21148e-18
4722.62032 8.68765e-18
4724.56866 8.88427e-18
4726.50696 9.09300e-18
4728.44526 8.87577e-18
4730.38356 8.96888e-18
4732.32186 8.93453e-18
4734.26016 8.61006e-18
4736.20850 8.30920e-18
4738.14680 8.92649e-18
4740.08510 8.61606e-18
4742.02340 8.82459e-18
4743.96169 9.12847e-18
4745.89999 8.81314e-18
4747.84834 8.79401e-18
4749.78663 8.87054e-18
4751.72493 8.72085e-18
4753.66323 8.36031e-18
4755.60153 8.45163e-18
4757.53983 8.46954e-18
4759.48817 8.45977e-18
4761.42647 8.52960e-18
4763.36477 8.52648e-18
4765.30307 8.36589e-18
4767.24137 8.27144e-18
4769.17967 8.47168e-18
4771.11797 8.58100e-18
4773.06631 8.34264e-18
4775.00461 8.08732e-18
4776.94291 7.82624e-18
4778.88121 7.71031e-18
4780.81951 7.60141e-18
4782.75780 7.32177e-18
4784.70615 7.11367e-18
4786.64444 7.24199e-18
4788.58274 7.56355e-18
4790.52104 7.52434e-18
4792.45934 7.37232e-18
4794.39764 7.16037e-18
4796.34598 7.28673e-18
4798.28428 7.40711e-18
4800.22258 7.64903e-18
4802.16088 7.29500e-18
4804.09918 6.69549e-18
4806.03748 6.80880e-18
4807.98582 7.07523e-18
4809.92412 6.94549e-18
4811.86242 6.84455e-18
4813.80072 6.94029e-18
4815.73902 7.02132e-18
4817.67731 7.53339e-18
4819.61561 7.36729e-18
4821.56396 7.05000e-18
4823.50226 7.23660e-18
4825.44055 7.23682e-18
4827.37885 6.88333e-18
4829.31715 7.37701e-18
4831.25545 7.55044e-18
4833.20379 7.60335e-18
4835.14209 7.41602e-18
4837.08039 7.80662e-18
4839.01869 7.95169e-18
4840.95699 7.68044e-18
4842.89529 7.97704e-18
4844.84363 8.40892e-18
4846.78193 8.27336e-18
4848.72023 8.10948e-18
4850.65853 8.02135e-18
4852.59683 8.10544e-18
4854.53512 8.15333e-18
4856.48347 7.92162e-18
4858.42177 7.77442e-18
4860.36006 7.99293e-18
4862.29836 7.65656e-18
4864.23666 7.70303e-18
4866.17496 7.74948e-18
4868.11326 7.79594e-18
4870.06160 7.84240e-18
4871.99990 7.88886e-18
4873.93820 7.93531e-18
4875.87650 7.98174e-18
4877.81480 8.02818e-18
4879.75310 8.07462e-18
4881.70144 8.12105e-18
4883.63974 8.16747e-18
4885.57804 8.21390e-18
4887.51634 8.26032e-18
4889.45464 8.30675e-18
4891.39293 8.35317e-18
4893.34128 8.39957e-18
4895.27958 8.44598e-18
4897.21788 8.49238e-18
4899.15617 8.53878e-18
4901.09447 8.58518e-18
4903.03277 8.37106e-18
4904.98111 8.33649e-18
4906.91941 8.37940e-18
4908.85771 8.12094e-18
4910.79601 8.25177e-18
4912.73431 8.36325e-18
4914.67261 8.52743e-18
4916.61091 8.57332e-18
4918.55925 8.20706e-18
4920.49755 8.48308e-18
4922.43585 8.80693e-18
4924.37415 9.10919e-18
4926.31245 8.82058e-18
4928.25074 8.86533e-18
4930.19909 9.28857e-18
4932.13739 9.31387e-18
4934.07568 9.51322e-18
4936.01398 9.12297e-18
4937.95228 9.56712e-18
4939.89058 9.76749e-18
4941.83892 9.71003e-18
4943.77722 1.00446e-17
4945.71552 1.03969e-17
4947.65382 1.03599e-17
4949.59212 9.97900e-18
4951.53042 1.09870e-17
4953.47876 1.07828e-17
4955.41706 1.08680e-17
4957.35536 1.11473e-17
4959.29366 1.10781e-17
4961.23196 1.12958e-17
4963.17026 1.12630e-17
4965.10855 1.12302e-17
4967.05690 1.11975e-17
4968.99520 1.11647e-17
4970.93349 1.11319e-17
4972.87179 1.10991e-17
4974.81009 1.10663e-17
4976.74839 1.10335e-17
4978.69673 1.10008e-17
4980.63503 1.09680e-17
4982.57333 1.09352e-17
4984.51163 1.09024e-17
4986.44993 1.08697e-17
4988.38823 1.08369e-17
4990.33657 1.08041e-17
4992.27487 1.07714e-17
4994.21317 1.07386e-17
4996.15147 1.07059e-17
4998.08977 1.06731e-17
5000.02807 1.06404e-17
5001.97641 1.06646e-17
5003.91471 1.00281e-17
5005.85301 9.55843e-18
5007.79131 9.56937e-18
5009.72960 9.19655e-18
5011.66790 9.06058e-18
5013.60620 8.92461e-18
5015.55454 8.78869e-18
5017.49284 8.65272e-18
5019.43114 8.51679e-18
5021.36944 8.38087e-18
5023.30774 8.24499e-18
5025.24604 8.10909e-18
5027.19438 7.97321e-18
5029.13268 7.83733e-18
5031.07098 7.70146e-18
5033.00928 7.56564e-18
5034.94758 7.42976e-18
5036.88588 7.29393e-18
5038.83422 7.15811e-18
5040.77252 7.02229e-18
5042.71082 6.88653e-18
5044.64912 6.75073e-18
5046.58741 6.61495e-18
5048.52571 6.18118e-18
5050.47406 6.27694e-18
5052.41235 6.45044e-18
5054.35065 6.79628e-18
5056.28895 6.68030e-18
5058.22725 6.67087e-18
5060.16555 6.18521e-18
5062.10385 6.37180e-18
5064.05219 6.14110e-18
5065.99049 6.48003e-18
5067.92879 6.38873e-18
5069.86709 5.95246e-18
5071.80539 5.81216e-18
5073.74369 5.99392e-18
5075.69203 6.19017e-18
5077.63033 6.44021e-18
5079.56863 6.77770e-18
5081.50692 6.38768e-18
5083.44522 6.40610e-18
5085.38352 6.77420e-18
5087.33187 6.17258e-18
5089.27016 6.09598e-18
5091.20846 6.02337e-18
5093.14676 6.17963e-18
5095.08506 6.83520e-18
5097.02336 7.20011e-18
5098.96166 7.38658e-18
5100.91000 6.62215e-18
5102.84830 6.94198e-18
5104.78660 7.72569e-18
5106.72490 7.16920e-18
5108.66320 6.98887e-18
5110.60150 7.61703e-18
5112.54984 7.84592e-18
5114.48814 7.49420e-18
5116.42644 7.34343e-18
5118.36474 7.89460e-18
5120.30303 7.70330e-18
5122.24133 8.11519e-18
5124.18967 1.12413e-17
5126.12797 1.20582e-17
5128.06627 8.97012e-18
5130.00457 7.95921e-18
5131.94287 8.58008e-18
5133.88117 8.46967e-18
5135.81947 8.09214e-18
5137.76781 8.31105e-18
5139.70611 8.33602e-18
5141.64441 8.65011e-18
5143.58271 8.98802e-18
5145.52101 8.90020e-18
5147.45931 8.90177e-18
5149.40765 9.13868e-18
5151.34595 9.15651e-18
5153.28425 9.28314e-18
5155.22254 9.45249e-18
5157.16084 9.28600e-18
5159.09914 9.13640e-18
5161.04749 8.89248e-18
5162.98578 8.93324e-18
5164.92408 8.99132e-18
5166.86238 8.74694e-18
5168.80068 9.12676e-18
5170.73898 9.31975e-18
5172.68732 9.51761e-18
5174.62562 9.71849e-18
5176.56392 9.69130e-18
5178.50222 9.62487e-18
5180.44052 9.53624e-18
5182.37882 9.59154e-18
5184.31712 9.65454e-18
5186.26546 9.40307e-18
5188.20376 1.00640e-17
5190.14206 1.00419e-17
5192.08036 9.73229e-18
5194.01865 9.59377e-18
5195.95695 9.87110e-18
5197.90529 9.84987e-18
5199.84359 9.78622e-18
5201.78189 9.65517e-18
5203.72019 9.36489e-18
5205.65849 9.62268e-18
5207.59679 1.00309e-17
5209.54513 9.96304e-18
5211.48343 9.59812e-18
5213.42173 1.00780e-17
5215.36003 1.05108e-17
5217.29833 1.02098e-17
5219.23663 1.04918e-17
5221.18497 1.07098e-17
5223.12327 1.05161e-17
5225.06157 1.05521e-17
5226.99987 1.03278e-17
5228.93817 1.05734e-17
5230.87646 1.14718e-17
5232.82481 1.16647e-17
5234.76310 1.12024e-17
5236.70140 1.07406e-17
5238.63970 1.10672e-17
5240.57800 1.17405e-17
5242.51630 1.19652e-17
5244.45460 1.19499e-17
5246.40294 1.19934e-17
5248.34124 1.18247e-17
5250.27954 1.18123e-17
5252.21784 1.21865e-17
5254.15614 1.24505e-17
5256.09444 1.24195e-17
5258.04278 1.21102e-17
5259.98108 1.19065e-17
5261.91938 1.20216e-17
5263.85768 1.23877e-17
5265.79597 1.25048e-17
5267.73427 1.25061e-17
5269.68262 1.28081e-17
5271.62092 1.26322e-17
5273.55921 1.27933e-17
5275.49751 1.30675e-17
5277.43581 1.30960e-17
5279.37411 1.31544e-17
5281.32245 1.30407e-17
5283.26075 1.30378e-17
5285.19905 1.31048e-17
5287.13735 1.34611e-17
5289.07565 1.38315e-17
5291.01395 1.39642e-17
5292.95225 1.39076e-17
5294.90059 1.37104e-17
5296.83889 1.37932e-17
5298.77719 1.39275e-17
5300.71549 1.41844e-17
5302.65378 1.41629e-17
5304.59208 1.39877e-17
5306.54043 1.42097e-17
5308.47872 1.42991e-17
5310.41702 1.46404e-17
5312.35532 1.47866e-17
5314.29362 1.44071e-17
5316.23192 1.41709e-17
5318.18026 1.44979e-17
5320.11856 1.51216e-17
5322.05686 1.50219e-17
5323.99516 1.46025e-17
5325.93346 1.44872e-17
5327.87176 1.44928e-17
5329.82010 1.48683e-17
5331.75840 1.56094e-17
5333.69670 1.55592e-17
5335.63500 1.51621e-17
5337.57330 1.52368e-17
5339.51159 1.55828e-17
5341.44989 1.56983e-17
5343.39824 1.60328e-17
5345.33653 1.63320e-17
5347.27483 1.55035e-17
5349.21313 1.48023e-17
5351.15143 1.56262e-17
5353.08973 1.61169e-17
5355.03807 1.58567e-17
5356.97637 1.60192e-17
5358.91467 1.60760e-17
5360.85297 1.57249e-17
5362.79127 1.55985e-17
5364.72957 1.57953e-17
5366.67791 1.55820e-17
5368.61621 1.54833e-17
5370.55451 1.57401e-17
5372.49281 1.54443e-17
5374.43111 1.54838e-17
5376.36941 1.57896e-17
5378.30770 1.57051e-17
5380.25605 1.54067e-17
5382.19434 1.53533e-17
5384.13264 1.55015e-17
5386.07094 1.53700e-17
5388.00924 1.56354e-17
5389.94754 1.55127e-17
5391.89588 1.50439e-17
5393.83418 1.51833e-17
5395.77248 1.55917e-17
5397.71078 1.49088e-17
5399.64908 1.45791e-17
5401.58738 1.48939e-17
5403.53572 1.49396e-17
5405.47402 1.47697e-17
5407.41232 1.45184e-17
5409.35062 1.45209e-17
5411.28892 1.45363e-17
5413.22721 1.42993e-17
5415.16551 1.43367e-17
5417.11386 1.43452e-17
5419.05216 1.41355e-17
5420.99045 1.39890e-17
5422.92875 1.37537e-17
5424.86705 1.34755e-17
5426.80535 1.32717e-17
5428.75369 1.33027e-17
5430.69199 1.35948e-17
5432.63029 1.37447e-17
5434.56859 1.34258e-17
5436.50689 1.31886e-17
5438.44519 1.34823e-17
5440.39353 1.34804e-17
5442.33183 1.31307e-17
5444.27013 1.35303e-17
5446.20843 1.35289e-17
5448.14673 1.26550e-17
5450.08502 1.27198e-17
5452.03337 1.34182e-17
5453.97167 1.36987e-17
5455.90996 1.32971e-17
5457.84826 1.30867e-17
5459.78656 1.35978e-17
5461.72486 1.34644e-17
5463.66316 1.31798e-17
5465.61150 1.33765e-17
5467.54980 1.38100e-17
5469.48810 1.45760e-17
5471.42640 1.50086e-17
5473.36470 1.54353e-17
5475.30300 1.59559e-17
5477.25134 1.62776e-17
5479.18964 1.63945e-17
5481.12794 1.64729e-17
5483.06624 1.66826e-17
5485.00454 1.68918e-17
5486.94283 1.69932e-17
5488.89118 1.81287e-17
5490.82948 1.85350e-17
5492.76778 1.82701e-17
5494.70607 1.87264e-17
5496.64437 1.89866e-17
5498.58267 1.94131e-17
5500.53101 1.99865e-17
5502.46931 2.01247e-17
5504.40761 2.04338e-17
5506.34591 2.06124e-17
5508.28421 2.04330e-17
5510.22251 2.06674e-17
5512.16081 2.11935e-17
5514.10915 2.14977e-17
5516.04745 2.18969e-17
5517.98575 2.23557e-17
5519.92405 2.19499e-17
5521.86235 2.16484e-17
5523.80064 2.14272e-17
5525.74899 2.14375e-17
5527.68729 2.16411e-17
5529.62558 2.13104e-17
5531.56388 2.13513e-17
5533.50218 2.17488e-17
5535.44048 2.17181e-17
5537.38882 2.13260e-17
5539.32712 2.11392e-17
5541.26542 2.12173e-17
5543.20372 2.09797e-17
5545.14202 2.04028e-17
5547.08032 2.03034e-17
5549.02866 2.02905e-17
5550.96696 1.98035e-17
5552.90526 1.93624e-17
5554.84356 1.93824e-17
5556.78186 1.95762e-17
5558.72016 1.91090e-17
5560.65845 1.83087e-17
5562.60680 1.78881e-17
5564.54510 1.74185e-17
5566.48339 1.70245e-17
5568.42169 1.73472e-17
5570.35999 1.73868e-17
5572.29829 1.63567e-17
5574.24663 1.59155e-17
5576.18493 1.57480e-17
5578.12323 1.52481e-17
5580.06153 1.50254e-17
5581.99983 1.47962e-17
5583.93813 1.46938e-17
5585.88647 1.44569e-17
5587.82477 1.43767e-17
5589.76307 1.44041e-17
5591.70137 1.40648e-17
5593.63967 1.35322e-17
5595.57797 1.37445e-17
5597.52631 1.42198e-17
5599.46461 1.39502e-17
5601.40291 1.41052e-17
5603.34121 1.48149e-17
5605.27950 1.46260e-17
5607.21780 1.43948e-17
5609.16614 1.44578e-17
5611.10444 1.47192e-17
5613.04274 1.54133e-17
5614.98104 1.51262e-17
5616.91934 1.49923e-17
5618.85764 1.56431e-17
5620.79594 1.55849e-17
5622.74428 1.58978e-17
5624.68258 1.61378e-17
5626.62088 1.62722e-17
5628.55918 1.65709e-17
5630.49748 1.66694e-17
5632.43578 1.68397e-17
5634.38412 1.69957e-17
5636.32242 1.73336e-17
5638.26072 1.75465e-17
5640.19902 1.77067e-17
5642.13731 1.80070e-17
5644.07561 1.81113e-17
5646.02396 1.76270e-17
5647.96225 1.72136e-17
5649.90055 1.75212e-17
5651.83885 1.78948e-17
5653.77715 1.83410e-17
5655.71545 1.83011e-17
5657.65375 1.80055e-17
5659.60209 1.82525e-17
5661.54039 1.78847e-17
5663.47869 1.68130e-17
5665.41699 1.61442e-17
5667.35529 1.57948e-17
5669.29359 1.55417e-17
5671.24193 1.52144e-17
5673.18023 1.44986e-17
5675.11853 1.41586e-17
5677.05682 1.40343e-17
5678.99512 1.35434e-17
5680.93342 1.28733e-17
5682.88177 1.26653e-17
5684.82006 1.30222e-17
5686.75836 1.22829e-17
5688.69666 1.15858e-17
5690.63496 1.16728e-17
5692.57326 1.18588e-17
5694.52160 1.16104e-17
5696.45990 1.16047e-17
5698.39820 1.15370e-17
5700.33650 1.13612e-17
5702.27480 1.07030e-17
5704.21310 1.00415e-17
5706.15140 1.00555e-17
5708.09974 1.03085e-17
5710.03804 9.92447e-18
5711.97634 9.62282e-18
5713.91464 9.47485e-18
5715.85293 9.83652e-18
5717.79123 9.30473e-18
5719.73957 8.97254e-18
5721.67787 9.72864e-18
5723.61617 9.55126e-18
5725.55447 9.65933e-18
5727.49277 9.69634e-18
5729.43107 1.28117e-17
5731.37941 1.43734e-17
5733.31771 1.00423e-17
5735.25601 9.28794e-18
5737.19431 9.90311e-18
5739.13261 9.84890e-18
5741.07091 9.78444e-18
5743.00921 9.65650e-18
5744.95755 9.66848e-18
5746.89585 9.43657e-18
5748.83415 9.11103e-18
5750.77244 9.18032e-18
5752.71074 8.54413e-18
5754.64904 8.54821e-18
5756.59739 8.84475e-18
5758.53568 8.84897e-18
5760.47398 8.73668e-18
5762.41228 8.15133e-18
5764.35058 8.46835e-18
5766.28888 8.76813e-18
5768.23722 8.60478e-18
5770.17552 8.55965e-18
5772.11382 8.50063e-18
5774.05212 8.11871e-18
5775.99042 8.53781e-18
5777.92872 8.78034e-18
5779.87706 8.64119e-18
5781.81536 8.28258e-18
5783.75366 8.14041e-18
5785.69196 8.67359e-18
5787.63026 8.89411e-18
5789.56855 8.63362e-18
5791.50685 8.53963e-18
5793.45519 8.79736e-18
5795.39349 9.03243e-18
5797.33179 8.67102e-18
5799.27009 8.53377e-18
5801.20839 8.66487e-18
5803.14669 8.62462e-18
5805.09503 8.71982e-18
5807.03333 8.96759e-18
5808.97163 9.05698e-18
5810.90993 9.14298e-18
5812.84823 9.13745e-18
5814.78653 9.16739e-18
5816.73487 9.41239e-18
5818.67317 9.41818e-18
5820.61147 9.51066e-18
5822.54977 9.95014e-18
5824.48807 1.05371e-17
5826.42636 1.08059e-17
5828.37471 1.11232e-17
5830.31300 1.14096e-17
5832.25130 1.15107e-17
5834.18960 1.19718e-17
5836.12790 1.23505e-17
5838.06620 1.29296e-17
5840.00450 1.30998e-17
5841.95284 1.32195e-17
5843.89114 1.31812e-17
5845.82944 1.37179e-17
5847.76774 1.37888e-17
5849.70604 1.41806e-17
5851.64434 1.49993e-17
5853.59268 1.56398e-17
5855.53098 1.56416e-17
5857.46928 1.61411e-17
5859.40758 1.65309e-17
5861.34587 1.58540e-17
5863.28417 1.60703e-17
5865.23252 1.70271e-17
5867.17082 1.71434e-17
5869.10911 1.73693e-17
5871.04741 1.72842e-17
5872.98571 1.80131e-17
5874.92401 1.84297e-17
5876.87235 1.84773e-17
5878.81065 1.88437e-17
5880.74895 1.86698e-17
5882.68725 1.86730e-17
5884.62555 1.83371e-17
5886.56385 1.88775e-17
5888.50215 1.82985e-17
5890.45049 1.82994e-17
5892.38879 1.93341e-17
5894.32709 1.93798e-17
5896.26539 1.96062e-17
5898.20368 2.00779e-17
5900.14198 1.94481e-17
5902.09033 1.85872e-17
5904.02862 1.85043e-17
5905.96692 1.84690e-17
5907.90522 1.96237e-17
5909.84352 1.97312e-17
5911.78182 1.89244e-17
5913.73016 1.87288e-17
5915.66846 1.87954e-17
5917.60676 1.85344e-17
5919.54506 1.91339e-17
5921.48336 1.93981e-17
5923.42166 1.93097e-17
5925.37000 1.93536e-17
5927.30830 1.98319e-17
5929.24660 1.86928e-17
5931.18490 1.88418e-17
5933.12320 1.86377e-17
5935.06149 1.85973e-17
5936.99979 1.90785e-17
5938.94814 1.89419e-17
5940.88643 1.83673e-17
5942.82473 1.82867e-17
5944.76303 1.88942e-17
5946.70133 1.89698e-17
5948.63963 1.84400e-17
5950.58797 1.84413e-17
5952.52627 1.86388e-17
5954.46457 1.88688e-17
5956.40287 1.86670e-17
5958.34117 1.87194e-17
5960.27947 1.80737e-17
5962.22781 1.89842e-17
5964.16611 1.84286e-17
5966.10441 1.82629e-17
5968.04271 1.87093e-17
5969.98101 1.81384e-17
5971.91931 1.79236e-17
5973.86765 1.81097e-17
5975.80595 1.76891e-17
5977.74424 1.76255e-17
5979.68254 1.78432e-17
5981.62084 1.77136e-17
5983.55914 1.83881e-17
5985.49744 1.78370e-17
5987.44578 1.78425e-17
5989.38408 1.73769e-17
5991.32238 1.67738e-17
5993.26068 1.72002e-17
5995.19898 1.71697e-17
5997.13728 1.66037e-17
5999.08562 1.67320e-17
6001.02392 1.67671e-17
6002.96222 1.69705e-17
6004.90052 1.67611e-17
6006.83882 1.64768e-17
6008.77711 1.62141e-17
6010.72546 1.64148e-17
6012.66376 1.63448e-17
6014.60206 1.66656e-17
6016.54035 1.69819e-17
6018.47865 1.62020e-17
6020.41695 1.52271e-17
6022.36529 1.52272e-17
6024.30359 1.54107e-17
6026.24189 1.58898e-17
6028.18019 1.53415e-17
6030.11849 1.51147e-17
6032.05679 1.55662e-17
6033.99509 1.51181e-17
6035.94343 1.48362e-17
6037.88173 1.43320e-17
6039.82003 1.43369e-17
6041.75833 1.46418e-17
6043.69663 1.42425e-17
6045.63492 1.35182e-17
6047.58327 1.34098e-17
6049.52157 1.36357e-17
6051.45986 1.40676e-17
6053.39816 1.37746e-17
6055.33646 1.40076e-17
6057.27476 1.34066e-17
6059.22310 1.25725e-17
6061.16140 1.29878e-17
6063.09970 1.32518e-17
6065.03800 1.26485e-17
6066.97630 1.31800e-17
6068.91460 1.32002e-17
6070.86294 1.26553e-17
6072.80124 1.18372e-17
6074.73954 1.19224e-17
6076.67784 1.20215e-17
6078.61614 1.22213e-17
6080.55444 1.18694e-17
6082.49273 1.18897e-17
6084.44108 1.18207e-17
6086.37938 1.18346e-17
6088.31768 1.24361e-17
6090.25597 1.28730e-17
6092.19427 1.32953e-17
6094.13257 1.26622e-17
6096.08091 1.25943e-17
6098.01921 1.28723e-17
6099.95751 1.29615e-17
6101.89581 1.29058e-17
6103.83411 1.27434e-17
6105.77241 1.28879e-17
6107.72075 1.28151e-17
6109.65905 1.27445e-17
6111.59735 1.32600e-17
6113.53565 1.34196e-17
6115.47395 1.31814e-17
6117.41225 1.29546e-17
6119.36059 1.27296e-17
6121.29889 1.35429e-17
6123.23719 1.28583e-17
6125.17548 1.32377e-17
6127.11378 1.38507e-17
6129.05208 1.37618e-17
6130.99038 1.32395e-17
6132.93872 1.36976e-17
6134.87702 1.35303e-17
6136.81532 1.32365e-17
6138.75362 1.36174e-17
6140.69192 1.37277e-17
6142.63022 1.32963e-17
6144.57856 1.38401e-17
6146.51686 1.40637e-17
6148.45516 1.34867e-17
6150.39346 1.31342e-17
6152.33176 1.36345e-17
6154.27006 1.43892e-17
6156.21840 1.39672e-17
6158.15670 1.35430e-17
6160.09500 1.40025e-17
6162.03329 1.32665e-17
6163.97159 1.30893e-17
6165.90989 1.40040e-17
6167.85823 1.43138e-17
6169.79653 1.32882e-17
6171.73483 1.38462e-17
6173.67313 1.40894e-17
6175.61143 1.43339e-17
6177.54973 1.43130e-17
6179.48803 1.40212e-17
6181.43637 1.43300e-17
6183.37467 1.43305e-17
6185.31297 1.42396e-17
6187.25127 1.49944e-17
6189.18957 1.54283e-17
6191.12787 1.51317e-17
6193.07621 1.48786e-17
6195.01451 1.51401e-17
6196.95281 1.49544e-17
6198.89111 1.51143e-17
6200.82940 1.50050e-17
6202.76770 1.51883e-17
6204.71604 1.65471e-17
6206.65434 1.65277e-17
6208.59264 1.64462e-17
6210.53094 1.63549e-17
6212.46924 1.61013e-17
6214.40754 1.69085e-17
6216.35588 1.66743e-17
6218.29418 1.68248e-17
6220.23248 1.71708e-17
6222.17078 1.76817e-17
6224.10908 1.80166e-17
6226.04738 1.74050e-17
6227.98568 1.77863e-17
6229.93402 1.79935e-17
6231.87232 1.78708e-17
6233.81062 1.82164e-17
6235.74892 1.81877e-17
6237.68721 1.79370e-17
6239.62551 1.78005e-17
6241.57386 1.82573e-17
6243.51215 1.78364e-17
6245.45045 1.72927e-17
6247.38875 1.76307e-17
6249.32705 1.82911e-17
6251.26535 1.75928e-17
6253.21369 1.73004e-17
6255.15199 1.79340e-17
6257.09029 1.77084e-17
6259.02859 1.68920e-17
6260.96689 1.75702e-17
6262.90519 1.79823e-17
6264.84349 1.81449e-17
6266.79183 1.75859e-17
6268.73013 1.76920e-17
6270.66843 1.79438e-17
6272.60672 1.83126e-17
6274.54502 1.81892e-17
6276.48332 1.81199e-17
6278.43167 1.80465e-17
6280.36996 1.82513e-17
6282.30826 1.90644e-17
6284.24656 1.86579e-17
6286.18486 1.81914e-17
6288.12316 1.87200e-17
6290.07150 1.86034e-17
6292.00980 1.79047e-17
6293.94810 1.69944e-17
6295.88640 1.74915e-17
6297.82470 1.80883e-17
6299.76300 1.70920e-17
6301.71134 1.75260e-17
6303.64964 1.72624e-17
6305.58794 1.61058e-17
6307.52624 1.69200e-17
6309.46454 1.71110e-17
6311.40283 1.65493e-17
6313.34113 1.64250e-17
6315.28947 1.64935e-17
6317.22777 1.62760e-17
6319.16607 1.66029e-17
6321.10437 1.68364e-17
6323.04267 1.66860e-17
6324.98097 1.63834e-17
6326.92931 1.61745e-17
6328.86761 1.60588e-17
6330.80591 1.63024e-17
6332.74421 1.62623e-17
6334.68251 1.56350e-17
6336.62081 1.61373e-17
6338.56915 1.59345e-17
6340.50745 1.58638e-17
6342.44575 1.61665e-17
6344.38405 1.61325e-17
6346.32234 1.57418e-17
6348.26064 1.53376e-17
6350.20899 1.61254e-17
6352.14729 1.62496e-17
6354.08558 1.59594e-17
6356.02388 1.55706e-17
6357.96218 1.56928e-17
6359.90048 1.54716e-17
6361.83878 1.44867e-17
6363.78712 1.46023e-17
6365.72542 1.59453e-17
6367.66372 1.64946e-17
6369.60202 1.59095e-17
6371.54032 1.57252e-17
6373.47862 1.54757e-17
6375.42696 1.46731e-17
6377.36526 1.50013e-17
6379.30356 1.52742e-17
6381.24186 1.45625e-17
6383.18016 1.48147e-17
6385.11845 1.50586e-17
6387.06680 1.51557e-17
6389.00509 1.50167e-17
6390.94339 1.44813e-17
6392.88169 1.43382e-17
6394.81999 1.40320e-17
6396.75829 1.42703e-17
6398.70663 1.43405e-17
6400.64493 1.41267e-17
6402.58323 1.46159e-17
6404.52153 1.48532e-17
6406.45983 1.46162e-17
6408.39813 1.45433e-17
6410.34647 1.42924e-17
6412.28477 1.39815e-17
6414.22307 1.45338e-17
6416.16137 1.46932e-17
6418.09967 1.42275e-17
6420.03797 1.43163e-17
6421.97626 1.43210e-17
6423.92461 1.39037e-17
6425.86290 1.40661e-17
6427.80120 1.42829e-17
6429.73950 1.43728e-17
6431.67780 1.41960e-17
6433.61610 1.36769e-17
6435.56444 1.43422e-17
6437.50274 1.47088e-17
6439.44104 1.44434e-17
6441.37934 1.40839e-17
6443.31764 1.40463e-17
6445.25594 1.44579e-17
6447.20428 1.46118e-17
6449.14258 1.53387e-17
6451.08088 1.50405e-17
6453.01918 1.53269e-17
6454.95748 1.58743e-17
6456.89577 1.53496e-17
6458.84412 1.55685e-17
6460.78242 1.60672e-17
6462.72072 1.57162e-17
6464.65901 1.58348e-17
6466.59731 1.61020e-17
6468.53561 1.55295e-17
6470.47391 1.59873e-17
6472.42225 1.65981e-17
6474.36055 1.63530e-17
6476.29885 1.67343e-17
6478.23715 1.66438e-17
6480.17545 1.59507e-17
6482.11375 1.61314e-17
6484.06209 1.64498e-17
6486.00039 1.65591e-17
6487.93869 1.67525e-17
6489.87699 1.63330e-17
6491.81529 1.59396e-17
6493.75358 1.55515e-17
6495.70193 1.59261e-17
6497.64023 1.63752e-17
6499.57852 1.58008e-17
6501.51682 1.60141e-17
6503.45512 1.65273e-17
6505.39342 1.60645e-17
6507.33172 1.64142e-17
6509.28006 1.60719e-17
6511.21836 1.61194e-17
6513.15666 1.61584e-17
6515.09496 1.62049e-17
6517.03326 1.63040e-17
6518.97156 1.65178e-17
6520.91990 1.63331e-17
6522.85820 1.62403e-17
6524.79650 1.58370e-17
6526.73480 1.54250e-17
6528.67310 1.52472e-17
6530.61139 1.49287e-17
6532.55974 1.56241e-17
6534.49804 1.54527e-17
6536.43633 1.52959e-17
6538.37463 1.53677e-17
6540.31293 1.53911e-17
6542.25123 1.55261e-17
6544.18953 1.55968e-17
6546.13787 1.59012e-17
6548.07617 1.55433e-17
6550.01447 1.53530e-17
6551.95277 1.58256e-17
6553.89107 1.55632e-17
6555.82937 1.49780e-17
6557.77771 1.56473e-17
6559.71601 1.57141e-17
6561.65431 1.56852e-17
6563.59261 1.56564e-17
6565.53091 1.56275e-17
6567.46921 1.55987e-17
6569.41755 1.55699e-17
6571.35585 1.55410e-17
6573.29414 1.55122e-17
6575.23244 1.54833e-17
6577.17074 1.54545e-17
6579.10904 1.54257e-17
6581.05738 1.53969e-17
6582.99568 1.53680e-17
6584.93398 1.53392e-17
6586.87228 1.53104e-17
6588.81058 1.52815e-17
6590.74888 1.52527e-17
6592.68718 1.52239e-17
6594.63552 1.51950e-17
6596.57382 1.51662e-17
6598.51212 1.51374e-17
6600.45042 1.51086e-17
6602.38872 1.50798e-17
6604.32701 1.50509e-17
6606.27536 1.50221e-17
6608.21366 1.49933e-17
6610.15196 1.49645e-17
6612.09025 1.49357e-17
6614.02855 1.49069e-17
6615.96685 1.48780e-17
6617.91519 1.48492e-17
6619.85349 1.48204e-17
6621.79179 1.47916e-17
6623.73009 1.48201e-17
6625.66839 1.47144e-17
6627.60669 1.50778e-17
6629.55503 1.54315e-17
6631.49333 1.49535e-17
6633.43163 1.47790e-17
6635.36993 1.50095e-17
6637.30823 1.50436e-17
6639.24653 1.46833e-17
6641.18482 1.42053e-17
6643.13317 1.37688e-17
6645.07147 1.36076e-17
6647.00976 1.35941e-17
6648.94806 1.36323e-17
6650.88636 1.33759e-17
6652.82466 1.34041e-17
6654.77300 1.36759e-17
6656.71130 1.39747e-17
6658.64960 1.44210e-17
6660.58790 1.41012e-17
6662.52620 1.42911e-17
6664.46450 1.45067e-17
6666.41284 1.46052e-17
6668.35114 1.46710e-17
6670.28944 1.42460e-17
6672.22774 1.40807e-17
6674.16604 1.43993e-17
6676.10434 1.43053e-17
6678.05268 1.41650e-17
6679.99098 1.41580e-17
6681.92928 1.38950e-17
6683.86758 1.39866e-17
6685.80587 1.36985e-17
6687.74417 1.33297e-17
6689.68247 1.40294e-17
6691.63081 1.42183e-17
6693.56911 1.37263e-17
6695.50741 1.37491e-17
6697.44571 1.39740e-17
6699.38401 1.43108e-17
6701.32231 1.37884e-17
6703.27065 1.36276e-17
6705.20895 1.33020e-17
6707.14725 1.28450e-17
6709.08555 1.30484e-17
6711.02385 1.30733e-17
6712.96215 1.31426e-17
6714.91049 1.29192e-17
6716.84879 1.30658e-17
6718.78709 1.31050e-17
6720.72538 1.29474e-17
6722.66368 1.24405e-17
6724.60198 1.23207e-17
6726.55033 1.29534e-17
6728.48862 1.33301e-17
6730.42692 1.27027e-17
6732.36522 1.23836e-17
6734.30352 1.28967e-17
6736.24182 1.33887e-17
6738.18012 1.29091e-17
6740.12846 1.26545e-17
6742.06676 1.24266e-17
6744.00506 1.12571e-17
6745.94336 1.01305e-17
6747.88166 1.06375e-17
6749.81996 1.05317e-17
6751.76830 1.04515e-17
6753.70660 1.15270e-17
6755.64490 1.18179e-17
6757.58319 1.14415e-17
6759.52149 1.13802e-17
6761.45979 1.10950e-17
6763.40813 1.05700e-17
6765.34643 1.07437e-17
6767.28473 1.13810e-17
6769.22303 1.20985e-17
6771.16133 1.25610e-17
6773.09963 1.21607e-17
6775.04797 1.21605e-17
6776.98627 1.26984e-17
6778.92457 1.21708e-17
6780.86287 1.19092e-17
6782.80117 1.18998e-17
6784.73947 1.17523e-17
6786.67777 1.19220e-17
6788.62611 1.22400e-17
6790.56441 1.24835e-17
6792.50271 1.20818e-17
6794.44101 1.19415e-17
6796.37930 1.21904e-17
6798.31760 1.20087e-17
6800.26594 1.18324e-17
6802.20424 1.18510e-17
6804.14254 1.19086e-17
6806.08084 1.19465e-17
6808.01914 1.18403e-17
6809.95744 1.16476e-17
6811.90578 1.15445e-17
6813.84408 1.18191e-17
6815.78238 1.25127e-17
6817.72068 1.23242e-17
6819.65898 1.13886e-17
6821.59728 1.16097e-17
6823.53558 1.20090e-17
6825.48392 1.18480e-17
6827.42222 1.18404e-17
6829.36052 1.20334e-17
6831.29882 1.20839e-17
6833.23711 1.19140e-17
6835.17541 1.18879e-17
6837.12376 1.19110e-17
6839.06205 1.15894e-17
6841.00035 1.09363e-17
6842.93865 1.11407e-17
6844.87695 1.13666e-17
6846.81525 1.13321e-17
6848.76359 1.14789e-17
6850.70189 1.17929e-17
6852.64019 1.17209e-17
6854.57849 1.10981e-17
6856.51679 1.09851e-17
6858.45509 1.10753e-17
6860.40343 1.10415e-17
6862.34173 1.09399e-17
6864.28003 1.03324e-17
6866.21833 1.00180e-17
6868.15662 1.04596e-17
6870.09492 1.06417e-17
6872.03322 9.84235e-18
6873.98157 8.73000e-18
6875.91986 9.53036e-18
6877.85816 1.07040e-17
6879.79646 1.00724e-17
6881.73476 9.73030e-18
6883.67306 1.03145e-17
6885.62140 1.06075e-17
6887.55970 1.01562e-17
6889.49800 9.70817e-18
6891.43630 9.70848e-18
6893.37460 9.88865e-18
6895.31290 9.95921e-18
6897.26124 9.70427e-18
6899.19954 9.58016e-18
6901.13784 9.86027e-18
6903.07614 1.02784e-17
6905.01444 1.00746e-17
6906.95273 9.64716e-18
6908.90108 9.46214e-18
6910.83937 9.54091e-18
6912.77767 9.74882e-18
6914.71597 1.01398e-17
6916.65427 1.03238e-17
6918.59257 9.95832e-18
6920.53087 9.88145e-18
6922.47921 9.78648e-18
6924.41751 9.41088e-18
6926.35581 9.49211e-18
6928.29411 9.94911e-18
6930.23241 9.95098e-18
6932.17071 9.67543e-18
6934.11905 9.63900e-18
6936.05735 9.91465e-18
6937.99565 9.63393e-18
6939.93395 9.85399e-18
6941.87224 1.06610e-17
6943.81054 1.03603e-17
6945.75889 1.03140e-17
6947.69718 1.05344e-17
6949.63548 1.04343e-17
6951.57378 1.03814e-17
6953.51208 1.07050e-17
6955.45038 1.11420e-17
6957.39872 1.12502e-17
6959.33702 1.12613e-17
6961.27532 1.10737e-17
6963.21362 1.10899e-17
6965.15192 1.10528e-17
6967.09022 1.09959e-17
6969.02852 1.16854e-17
6970.97686 1.19093e-17
6972.91516 1.13874e-17
6974.85346 1.12733e-17
6976.79176 1.12618e-17
6978.73005 1.15801e-17
6980.66835 1.17532e-17
6982.61670 1.20682e-17
6984.55499 1.20271e-17
6986.49329 1.12778e-17
6988.43159 1.16631e-17
6990.36989 1.24732e-17
6992.30819 1.25081e-17
6994.25653 1.20233e-17
6996.19483 1.19355e-17
6998.13313 1.21618e-17
7000.07143 1.22032e-17
7002.00973 1.22291e-17
7003.94803 1.22373e-17
7005.89637 1.17926e-17
7007.83467 1.15217e-17
7009.77297 1.15255e-17
7011.71127 1.18429e-17
7013.64957 1.17225e-17
7015.58787 1.16654e-17
7017.52616 1.15361e-17
7019.47451 1.12873e-17
7021.41280 1.15520e-17
7023.35110 1.15116e-17
7025.28940 1.15449e-17
7027.22770 1.18125e-17
7029.16600 1.19725e-17
7031.11434 1.20122e-17
7033.05264 1.19599e-17
7034.99094 1.17580e-17
7036.92924 1.15303e-17
7038.86754 1.15647e-17
7040.80584 1.15554e-17
7042.75418 1.13603e-17
7044.69248 1.16429e-17
7046.63078 1.19790e-17
7048.56908 1.20658e-17
7050.50738 1.18111e-17
7052.44567 1.15730e-17
7054.39402 1.13013e-17
7056.33232 1.09360e-17
7058.27062 1.08588e-17
7060.20891 1.10276e-17
7062.14721 1.15495e-17
7064.08551 1.14777e-17
7066.02381 1.17249e-17
7067.97215 1.09869e-17
7069.91045 1.01080e-17
7071.84875 1.16262e-17
7073.78705 1.18941e-17
7075.72535 1.12720e-17
7077.66365 1.09740e-17
7079.61199 1.07955e-17
7081.55029 1.06109e-17
7083.48859 1.04081e-17
7085.42689 1.05557e-17
7087.36519 1.08767e-17
7089.30348 1.07155e-17
7091.25183 1.04931e-17
7093.19013 1.07736e-17
7095.12842 1.08329e-17
7097.06672 1.06810e-17
7099.00502 1.10104e-17
7100.94332 1.13331e-17
7102.89166 1.09299e-17
7104.82996 1.04882e-17
7106.76826 1.10079e-17
7108.70656 1.14262e-17
7110.64486 1.09979e-17
7112.58316 1.07353e-17
7114.52146 1.10429e-17
7116.46980 1.09554e-17
7118.40810 1.02710e-17
7120.34640 1.02056e-17
7122.28470 1.03815e-17
7124.22300 1.01195e-17
7126.16129 1.04382e-17
7128.10964 1.11498e-17
7130.04794 1.11904e-17
7131.98623 1.09339e-17
7133.92453 1.09471e-17
7135.86283 1.04533e-17
7137.80113 1.07751e-17
7139.74947 1.11520e-17
7141.68777 1.06590e-17
7143.62607 1.05893e-17
7145.56437 1.05842e-17
7147.50267 1.02538e-17
7149.44097 1.04880e-17
7151.38931 1.09945e-17
7153.32761 1.14065e-17
7155.26591 1.11745e-17
7157.20421 1.07919e-17
7159.14251 1.05029e-17
7161.08081 1.05801e-17
7163.01911 1.05097e-17
7164.96745 1.08931e-17
7166.90575 1.11993e-17
7168.84404 1.08874e-17
7170.78234 1.06218e-17
7172.72064 1.06615e-17
7174.65894 1.06886e-17
7176.60728 1.10189e-17
7178.54558 1.11225e-17
7180.48388 1.11800e-17
7182.42218 1.09975e-17
7184.36048 1.07824e-17
7186.29878 1.05976e-17
7188.24712 1.07577e-17
7190.18542 1.09844e-17
7192.12372 1.07302e-17
7194.06202 1.08552e-17
7196.00032 1.10805e-17
7197.93862 1.16580e-17
7199.88696 1.16100e-17
7201.82526 1.13177e-17
7203.76356 1.09859e-17
7205.70186 1.13760e-17
7207.64015 1.13740e-17
7209.57845 1.11900e-17
7211.51675 1.13170e-17
7213.46509 1.10967e-17
7215.40339 1.14122e-17
7217.34169 1.12829e-17
7219.27999 1.14338e-17
7221.21829 1.14403e-17
7223.15659 1.16255e-17
7225.10493 1.16572e-17
7227.04323 1.19396e-17
7228.98153 1.18417e-17
7230.91983 1.21135e-17
7232.85813 1.21888e-17
7234.79643 1.19979e-17
7236.74477 1.17785e-17
7238.68307 1.22208e-17
7240.62137 1.17407e-17
7242.55966 1.11286e-17
7244.49796 1.16758e-17
7246.43626 1.17313e-17
7248.38461 1.21422e-17
7250.32290 1.24173e-17
7252.26120 1.24029e-17
7254.19950 1.21495e-17
7256.13780 1.21069e-17
7258.07610 1.21599e-17
7260.01440 1.23471e-17
7261.96274 1.31393e-17
7263.90104 1.29907e-17
7265.83934 1.24221e-17
7267.77764 1.30153e-17
7269.71594 1.27413e-17
7271.65424 1.19498e-17
7273.60258 1.29327e-17
7275.54088 1.33015e-17
7277.47918 1.32398e-17
7279.41748 1.32259e-17
7281.35577 1.32093e-17
7283.29407 1.34637e-17
7285.24241 1.35748e-17
7287.18071 1.35021e-17
7289.11901 1.31926e-17
7291.05731 1.27609e-17
7292.99561 1.30911e-17
7294.93391 1.33915e-17
7296.88225 1.34477e-17
7298.82055 1.32823e-17
7300.75885 1.35893e-17
7302.69715 1.35977e-17
7304.63545 1.34775e-17
7306.57375 1.37544e-17
7308.51205 1.34961e-17
7310.46039 1.31920e-17
7312.39869 1.35271e-17
7314.33699 1.28387e-17
7316.27528 1.27744e-17
7318.21358 1.41285e-17
7320.15188 1.42488e-17
7322.10023 1.33574e-17
7324.03852 1.31779e-17
7325.97682 1.33972e-17
7327.91512 1.37829e-17
7329.85342 1.40825e-17
7331.79172 1.41109e-17
7333.74006 1.39164e-17
7335.67836 1.37255e-17
7337.61666 1.35185e-17
7339.55496 1.30016e-17
7341.49326 1.33922e-17
7343.43156 1.37990e-17
7345.36986 1.38340e-17
7347.31820 1.35116e-17
7349.25650 1.24925e-17
7351.19480 1.24102e-17
7353.13309 1.28235e-17
7355.07139 1.35331e-17
7357.00969 1.33219e-17
7358.95803 1.30499e-17
7360.89633 1.24539e-17
7362.83463 1.22698e-17
7364.77293 1.29800e-17
7366.71123 1.33830e-17
7368.64953 1.30001e-17
7370.59787 1.36181e-17
7372.53617 1.33061e-17
7374.47447 1.32054e-17
7376.41277 1.33543e-17
7378.35107 1.27401e-17
7380.28937 1.31350e-17
7382.23771 1.28352e-17
7384.17601 1.28595e-17
7386.11431 1.32735e-17
7388.05261 1.31032e-17
7389.99091 1.16067e-17
7391.92920 1.18827e-17
7393.86750 1.30958e-17
7395.81584 1.29464e-17
7397.75414 1.20031e-17
7399.69244 1.24331e-17
7401.63074 1.28232e-17
7403.56904 1.24639e-17
7405.50734 1.29277e-17
7407.45568 1.31162e-17
7409.39398 1.26994e-17
7411.33228 1.32630e-17
7413.27058 1.26874e-17
7415.20888 1.29157e-17
7417.14718 1.29910e-17
7419.09552 1.26434e-17
7421.03382 1.25534e-17
7422.97212 1.24736e-17
7424.91042 1.25339e-17
7426.84872 1.26203e-17
7428.78701 1.21366e-17
7430.73536 1.24996e-17
7432.67366 1.30185e-17
7434.61195 1.23684e-17
7436.55025 1.25074e-17
7438.48855 1.20883e-17
7440.42685 1.25549e-17
7442.36515 1.20980e-17
7444.31349 1.21039e-17
7446.25179 1.16937e-17
7448.19009 1.19272e-17
7450.12839 1.13858e-17
7452.06669 1.20979e-17
7454.00499 1.24244e-17
7455.95333 1.18768e-17
7457.89163 1.20440e-17
7459.82993 1.19272e-17
7461.76823 1.24558e-17
7463.70652 1.21372e-17
7465.64482 1.20943e-17
7467.59317 1.25137e-17
7469.53147 1.21382e-17
7471.46976 1.16617e-17
7473.40806 1.16523e-17
7475.34636 1.22717e-17
7477.28466 1.12674e-17
7479.23300 1.12927e-17
7481.17130 1.21664e-17
7483.10960 1.13392e-17
7485.04790 1.06316e-17
7486.98620 1.07808e-17
7488.92450 1.13569e-17
7490.86280 1.21334e-17
7492.81114 1.14408e-17
7494.74944 1.10224e-17
7496.68774 1.13547e-17
7498.62604 1.14165e-17
7500.56434 1.11929e-17
7502.50263 1.06610e-17
7504.45098 1.10933e-17
7506.38927 1.13347e-17
7508.32757 1.09153e-17
7510.26587 1.04346e-17
7512.20417 1.03063e-17
7514.14247 1.06356e-17
7516.09081 1.01348e-17
7518.02911 1.00851e-17
7519.96741 1.06481e-17
7521.90571 1.06913e-17
7523.84401 1.02459e-17
7525.78231 9.56064e-18
7527.73065 1.01636e-17
7529.66895 1.09391e-17
7531.60725 1.03062e-17
7533.54555 9.70398e-18
7535.48385 9.54381e-18
7537.42214 9.17956e-18
7539.36044 9.28435e-18
7541.30879 9.35418e-18
7543.24708 9.01507e-18
7545.18538 8.86246e-18
7547.12368 9.16997e-18
7549.06198 9.76569e-18
7551.00028 9.14439e-18
7552.94862 8.72309e-18
7554.88692 8.95517e-18
7556.82522 8.99631e-18
7558.76352 9.10118e-18
7560.70182 8.76733e-18
7562.64012 8.72960e-18
7564.58846 8.53822e-18
7566.52676 8.55071e-18
7568.46506 8.92161e-18
7570.40336 8.54046e-18
7572.34166 8.15729e-18
7574.27995 8.28329e-18
7576.22830 8.07962e-18
7578.16660 7.82947e-18
7580.10489 7.35946e-18
7582.04319 7.39149e-18
7583.98149 7.52474e-18
7585.91979 7.47516e-18
7587.85809 7.41438e-18
7589.80643 7.58884e-18
7591.74473 7.93901e-18
7593.68303 7.44442e-18
7595.62133 7.49140e-18
7597.55963 7.04239e-18
7599.49793 6.75203e-18
7601.44627 6.16930e-18
7603.38457 6.65902e-18
7605.32287 5.73112e-18
7607.26117 6.55330e-18
7609.19947 7.32992e-18
7611.13777 6.96315e-18
7613.08611 6.42155e-18
7615.02441 7.32266e-18
7616.96270 6.19037e-18
7618.90100 6.32926e-18
7620.83930 6.16032e-18
7622.77760 5.38057e-18
7624.72594 6.36903e-18
7626.66424 7.28982e-18
7628.60254 6.52873e-18
7630.54084 6.76985e-18
7632.47914 5.76030e-18
7634.41744 5.91450e-18
7636.35574 6.57352e-18
7638.30408 5.74565e-18
7640.24238 5.65307e-18
7642.18068 5.37076e-18
7644.11898 5.58294e-18
7646.05728 5.98384e-18
7647.99557 5.58700e-18
7649.94392 6.05439e-18
7651.88222 6.59083e-18
7653.82052 6.60023e-18
7655.75881 6.14068e-18
7657.69711 6.62461e-18
7659.63541 6.32901e-18
7661.58375 6.76519e-18
7663.52205 6.84929e-18
7665.46035 7.12470e-18
7667.39865 7.33674e-18
7669.33695 7.43070e-18
7671.27525 7.66761e-18
7673.21355 7.39285e-18
7675.16189 7.35316e-18
7677.10019 7.65957e-18
7679.03849 7.74231e-18
7680.97679 8.19792e-18
7682.91509 8.63643e-18
7684.85338 9.57432e-18
7686.80173 9.36803e-18
7688.74003 9.49659e-18
7690.67832 9.31783e-18
7692.61662 1.01380e-17
7694.55492 9.81362e-18
7696.49322 9.62118e-18
7698.44156 1.04477e-17
7700.37986 1.12668e-17
7702.31816 1.08119e-17
7704.25646 1.08314e-17
7706.19476 1.16293e-17
7708.13306 1.17588e-17
7710.07136 1.16671e-17
7712.01970 1.13031e-17
7713.95800 1.15876e-17
7715.89630 1.27371e-17
7717.83460 1.27085e-17
7719.77290 1.28464e-17
7721.71119 1.30064e-17
7723.65954 1.25857e-17
7725.59784 1.25347e-17
7727.53613 1.28383e-17
7729.47443 1.30726e-17
7731.41273 1.37668e-17
7733.35103 1.39925e-17
7735.29937 1.45614e-17
7737.23767 1.49802e-17
7739.17597 1.43771e-17
7741.11427 1.39104e-17
7743.05257 1.43020e-17
7744.99087 1.52239e-17
7746.93921 1.55839e-17
7748.87751 1.56958e-17
7750.81581 1.50700e-17
7752.75411 1.52516e-17
7754.69241 1.59208e-17
7756.63071 1.47404e-17
7758.56901 1.48743e-17
7760.51735 1.61582e-17
7762.45565 1.60812e-17
7764.39394 1.56323e-17
7766.33224 1.49078e-17
7768.27054 1.54553e-17
7770.20884 1.66449e-17
7772.15718 1.67396e-17
7774.09548 1.62368e-17
7776.03378 1.60548e-17
7777.97208 1.61789e-17
7779.91038 1.62560e-17
7781.84868 1.66038e-17
7783.79702 1.60876e-17
7785.73532 1.53152e-17
7787.67362 1.54755e-17
7789.61192 1.50109e-17
7791.55022 1.59191e-17
7793.48852 1.61158e-17
7795.43686 1.68212e-17
7797.37516 1.55014e-17
7799.31346 1.42129e-17
7801.25176 1.45043e-17
7803.19005 1.52539e-17
7805.12835 1.58582e-17
7807.07669 1.51978e-17
7809.01499 1.47587e-17
7810.95329 1.51671e-17
7812.89159 1.55342e-17
7814.82989 1.47752e-17
7816.76819 1.45658e-17
7818.70649 1.41453e-17
7820.65483 1.43398e-17
7822.59313 1.41060e-17
7824.53143 1.43478e-17
7826.46973 1.39985e-17
7828.40803 1.43805e-17
7830.34633 1.42593e-17
7832.29467 1.35928e-17
7834.23297 1.39541e-17
7836.17127 1.39478e-17
7838.10956 1.39808e-17
7840.04786 1.48611e-17
7841.98616 1.47944e-17
7843.93451 1.54806e-17
7845.87280 1.45312e-17
7847.81110 1.38644e-17
7849.74940 1.38937e-17
7851.68770 1.42503e-17
7853.62600 1.53622e-17
7855.57434 1.39117e-17
7857.51264 1.39649e-17
7859.45094 1.44861e-17
7861.38924 1.47866e-17
7863.32754 1.39411e-17
7865.26584 1.42919e-17
7867.20414 1.40510e-17
7869.15248 1.34870e-17
7871.09078 1.38847e-17
7873.02908 1.41551e-17
7874.96738 1.39159e-17
7876.90567 1.42073e-17
7878.84397 1.40311e-17
7880.79231 1.43790e-17
7882.73061 1.42580e-17
7884.66891 1.33104e-17
7886.60721 1.38940e-17
7888.54551 1.42826e-17
7890.48381 1.47933e-17
7892.43215 1.47744e-17
7894.37045 1.34434e-17
7896.30875 1.43250e-17
7898.24705 1.41423e-17
7900.18535 1.34792e-17
7902.12365 1.46065e-17
7904.07199 1.38658e-17
7906.01029 1.32060e-17
7907.94859 1.39163e-17
7909.88689 1.41814e-17
7911.82518 1.44108e-17
7913.76348 1.43537e-17
7915.70178 1.47495e-17
7917.65013 1.50400e-17
7919.58842 1.39240e-17
7921.52672 1.33034e-17
7923.46502 1.32715e-17
7925.40332 1.31512e-17
7927.34162 1.28086e-17
7929.28996 1.33083e-17
7931.22826 1.40989e-17
7933.16656 1.35411e-17
7935.10486 1.29466e-17
7937.04316 1.29580e-17
7938.98146 1.31377e-17
7940.92980 1.40777e-17
7942.86810 1.42947e-17
7944.80640 1.34609e-17
7946.74470 1.34767e-17
7948.68299 1.38477e-17
7950.62129 1.42474e-17
7952.55959 1.33933e-17
7954.50793 1.23995e-17
7956.44623 1.27393e-17
7958.38453 1.26547e-17
7960.32283 1.21255e-17
7962.26113 1.17839e-17
7964.19943 1.21888e-17
7966.14777 1.29855e-17
7968.08607 1.32425e-17
7970.02437 1.26436e-17
7971.96267 1.24566e-17
7973.90097 1.26740e-17
7975.83927 1.23373e-17
7977.78761 1.22931e-17
7979.72591 1.25380e-17
7981.66421 1.32783e-17
7983.60251 1.32891e-17
7985.54081 1.23294e-17
7987.47910 1.21907e-17
7989.41740 1.28093e-17
7991.36574 1.30256e-17
7993.30404 1.21725e-17
7995.24234 1.16612e-17
7997.18064 1.24762e-17
7999.11894 1.13328e-17
8001.05724 1.11606e-17
8003.00558 1.16726e-17
8004.94388 1.18991e-17
8006.88218 1.22905e-17
8008.82048 1.21994e-17
8010.75878 1.23235e-17
8012.69708 1.18590e-17
8014.64542 1.13045e-17
8016.58372 1.17182e-17
8018.52202 1.18600e-17
8020.46032 1.15868e-17
8022.39862 1.21285e-17
8024.33691 1.13696e-17
8026.28526 1.09585e-17
8028.22356 1.14932e-17
8030.16185 1.15037e-17
8032.10015 1.08483e-17
8034.03845 1.07756e-17
8035.97675 1.11601e-17
8037.91505 1.08016e-17
8039.86339 1.04569e-17
8041.80169 1.05546e-17
8043.73999 1.09318e-17
8045.67829 1.12891e-17
8047.61659 1.14922e-17
8049.55489 1.06854e-17
8051.50323 9.92515e-18
8053.44153 9.97208e-18
8055.37983 1.00508e-17
8057.31813 1.04079e-17
8059.25642 1.09361e-17
8061.19472 1.14783e-17
8063.14307 1.06300e-17
8065.08137 9.67475e-18
8067.01966 9.44791e-18
8068.95796 9.96758e-18
8070.89626 1.00976e-17
8072.83456 1.03198e-17
8074.78290 1.04137e-17
8076.72120 1.01785e-17
8078.65950 9.51307e-18
8080.59780 9.51467e-18
8082.53610 9.75933e-18
8084.47440 9.85035e-18
8086.41270 9.54904e-18
8088.36104 1.01988e-17
8090.29934 1.03319e-17
8092.23764 9.79642e-18
8094.17594 9.64778e-18
8096.11424 9.52880e-18
8098.05253 9.25303e-18
8100.00088 9.27010e-18
8101.93917 8.62808e-18
8103.87747 8.46029e-18
8105.81577 9.23591e-18
8107.75407 9.23763e-18
8109.69237 9.00664e-18
8111.64071 9.15615e-18
8113.57901 8.37822e-18
8115.51731 8.28800e-18
8117.45561 8.81206e-18
8119.39391 9.19908e-18
8121.33221 8.65072e-18
8123.28055 8.30583e-18
8125.21885 8.58567e-18
8127.15715 8.99780e-18
8129.09545 9.00788e-18
8131.03375 8.44070e-18
8132.97204 8.86364e-18
8134.91034 8.99176e-18
8136.85869 8.61698e-18
8138.79698 9.37147e-18
8140.73528 9.15817e-18
8142.67358 9.13051e-18
8144.61188 9.19116e-18
8146.55018 8.63378e-18
8148.49852 8.32985e-18
8150.43682 8.12146e-18
8152.37512 8.56720e-18
8154.31342 8.65994e-18
8156.25172 8.42959e-18
8158.19002 8.68553e-18
8160.13836 8.83261e-18
8162.07666 8.52157e-18
8164.01496 7.85243e-18
8165.95326 7.98769e-18
8167.89156 8.53428e-18
8169.82985 8.93050e-18
8171.77820 8.50815e-18
8173.71650 7.90898e-18
8175.65479 7.62806e-18
8177.59309 8.09725e-18
8179.53139 8.25344e-18
8181.46969 7.79848e-18
8183.41803 7.78143e-18
8185.35633 7.48913e-18
8187.29463 6.64180e-18
8189.23293 6.74825e-18
8191.17123 6.66760e-18
8193.10953 5.53903e-18
8195.04783 5.33963e-18
8196.99617 5.89747e-18
8198.93447 5.34430e-18
8200.87277 4.42177e-18
8202.81107 4.26788e-18
8204.74937 4.86035e-18
8206.68766 5.00247e-18
8208.63601 3.85880e-18
8210.57431 3.72574e-18
8212.51260 4.38399e-18
8214.45090 3.86200e-18
8216.38920 3.48447e-18
8218.32750 3.25565e-18
8220.27584 3.05167e-18
8222.21414 3.07141e-18
8224.15244 3.09907e-18
8226.09074 3.72248e-18
8228.02904 3.61485e-18
8229.96734 3.00320e-18
8231.91568 3.16581e-18
8233.85398 2.92597e-18
8235.79228 2.66865e-18
8237.73058 3.11238e-18
8239.66888 2.96481e-18
8241.60718 2.20084e-18
8243.54547 2.26801e-18
8245.49382 3.15006e-18
8247.43212 3.19880e-18
8249.37041 2.51146e-18
8251.30871 2.37259e-18
8253.24701 2.81075e-18
8255.18531 2.89922e-18
8257.13365 2.72666e-18
8259.07195 2.53748e-18
8261.01025 1.73854e-18
8262.94855 1.50250e-18
8264.88685 2.02953e-18
8266.82515 2.33154e-18
8268.77349 2.66333e-18
8270.71179 2.73102e-18
8272.65009 2.67912e-18
8274.58839 3.54043e-18
8276.52669 3.50100e-18
8278.46499 1.94510e-18
8280.41333 2.40755e-18
8282.35163 3.22655e-18
8284.28993 2.27171e-18
8286.22822 2.39785e-18
8288.16652 3.48756e-18
8290.10482 2.58539e-18
8292.04312 1.52632e-18
8293.99146 2.58311e-18
8295.92976 2.94442e-18
8297.86806 2.19203e-18
8299.80636 1.50323e-18
8301.74466 1.56796e-18
8303.68296 2.13161e-18
8305.63130 2.66634e-18
8307.56960 2.90865e-18
8309.50790 2.36214e-18
8311.44620 2.22900e-18
8313.38450 2.05680e-18
8315.32280 2.03670e-18
8317.27114 2.56824e-18
8319.20944 2.65311e-18
8321.14774 2.79680e-18
8323.08604 2.80903e-18
8325.02433 2.54254e-18
8326.96263 2.38320e-18
8328.91097 2.47602e-18
8330.84927 2.84271e-18
8332.78757 3.03576e-18
8334.72587 3.27620e-18
8336.66417 4.28692e-18
8338.60247 4.26736e-18
8340.54077 2.69880e-18
8342.48911 2.64449e-18
8344.42741 2.54386e-18
8346.36571 2.60319e-18
8348.30401 4.45981e-18
8350.24231 4.47903e-18
8352.18061 3.45704e-18
8354.12895 2.95316e-18
8356.06725 2.86764e-18
8358.00555 3.60466e-18
8359.94384 3.84063e-18
8361.88214 3.06483e-18
8363.82044 2.31997e-18
8365.76879 1.75060e-18
8367.70708 1.75535e-18
8369.64538 2.44105e-18
8371.58368 2.99527e-18
8373.52198 2.55642e-18
8375.46028 2.96896e-18
8377.40862 3.16280e-18
8379.34692 2.53398e-18
8381.28522 2.86073e-18
8383.22352 3.23168e-18
8385.16182 2.85065e-18
8387.10012 2.69227e-18
8389.03842 3.11811e-18
8390.98676 3.68772e-18
8392.92506 4.20709e-18
8394.86336 4.48922e-18
8396.80165 4.86168e-18
8398.73995 4.67303e-18
8400.67825 3.05759e-18
8402.62659 3.07759e-18
8404.56489 3.47724e-18
8406.50319 3.55943e-18
8408.44149 3.86743e-18
8410.37979 3.64101e-18
8412.31809 2.99942e-18
8414.25639 2.59502e-18
8416.20473 2.63765e-18
8418.14303 3.58519e-18
8420.08133 3.63150e-18
8422.01963 2.94976e-18
8423.95793 2.20378e-18
8425.90627 3.72269e-18
8427.84457 5.23615e-18
8429.78287 4.73081e-18
8431.72117 4.02903e-18
8433.65946 3.64732e-18
8435.59776 3.82979e-18
8437.53606 4.03231e-18
8439.48440 3.16577e-18
8441.42270 3.40475e-18
8443.36100 4.53709e-18
8445.29930 4.97031e-18
8447.23760 4.05664e-18
8449.17590 3.79049e-18
8451.12424 4.16452e-18
8453.06254 4.46850e-18
8455.00084 5.35883e-18
8456.93914 5.73346e-18
8458.87744 5.99341e-18
8460.81574 4.93805e-18
8462.75404 4.87531e-18
8464.70238 5.77844e-18
8466.64068 5.19133e-18
8468.57898 5.49758e-18
8470.51728 6.12962e-18
8472.45557 5.44196e-18
8474.40392 5.51375e-18
8476.34221 6.24476e-18
8478.28051 6.52964e-18
8480.21881 6.46385e-18
8482.15711 7.22332e-18
8484.09541 6.68823e-18
8486.03371 7.40958e-18
8487.98205 7.68699e-18
8489.92035 6.83719e-18
8491.85865 6.82199e-18
8493.79695 8.12476e-18
8495.73525 8.53674e-18
8497.67355 8.82923e-18
8499.62189 9.09776e-18
8501.56019 9.18222e-18
8503.49849 9.48851e-18
8505.43679 8.73159e-18
8507.37508 8.74842e-18
8509.31338 9.27775e-18
8511.25168 9.76699e-18
8513.20003 9.82081e-18
8515.13832 9.80183e-18
8517.07662 1.02461e-17
8519.01492 1.05646e-17
8520.95322 1.00730e-17
8522.90156 1.02139e-17
8524.83986 1.15981e-17
8526.77816 1.15068e-17
8528.71646 1.15524e-17
8530.65476 1.19404e-17
8532.59306 1.24599e-17
8534.53987 1.24599e-17
8536.53828 1.24361e-17
8538.53670 1.24000e-17
8540.53511 1.25725e-17
8542.54362 1.27934e-17
8544.54203 1.29563e-17
8546.54045 1.30799e-17
8548.53886 1.32428e-17
8550.53728 1.34925e-17
8552.54578 1.37795e-17
8554.54420 1.40961e-17
8556.54261 1.43736e-17
8558.54102 1.45300e-17
8560.54953 1.46081e-17
8562.54795 1.46571e-17
8564.54636 1.47272e-17
8566.54477 1.48090e-17
8568.54319 1.49179e-17
8570.55169 1.50910e-17
8572.55011 1.54152e-17
8574.54852 1.57884e-17
8576.54694 1.61163e-17
8578.54535 1.63770e-17
8580.55386 1.66462e-17
8582.55227 1.69783e-17
8584.55069 1.73231e-17
8586.54910 1.76851e-17
8588.55761 1.79880e-17
8590.55602 1.81106e-17
8592.55443 1.81575e-17
8594.55285 1.83130e-17
8596.55126 1.87035e-17
8598.55977 1.91214e-17
8600.55818 1.93109e-17
8602.55660 1.94769e-17
8604.55501 1.97375e-17
8606.55343 2.00300e-17
8608.56193 2.02413e-17
8610.56035 2.03348e-17
8612.55876 2.04103e-17
8614.55717 2.05645e-17
8616.56568 2.07715e-17
8618.56409 2.10810e-17
8620.56251 2.14131e-17
8622.56092 2.16821e-17
8624.55934 2.18846e-17
8626.56784 2.21205e-17
8628.56626 2.24779e-17
8630.56467 2.28232e-17
8632.56309 2.29786e-17
8634.57159 2.31318e-17
8636.57001 2.34537e-17
8638.56842 2.39123e-17
8640.56684 2.43479e-17
8642.56525 2.46502e-17
8644.57376 2.49564e-17
8646.57217 2.54175e-17
8648.57058 2.59019e-17
8650.56900 2.64261e-17
8652.56741 2.68161e-17
8654.57592 2.68817e-17
8656.57433 2.65751e-17
8658.57275 2.61902e-17
8660.57116 2.60687e-17
8662.57967 2.60773e-17
8664.57808 2.62755e-17
8666.57650 2.65464e-17
8668.57491 2.68026e-17
8670.57332 2.69700e-17
8672.58183 2.71039e-17
8674.58025 2.72163e-17
8676.57866 2.72221e-17
8678.57707 2.69631e-17
8680.57549 2.66189e-17
8682.58399 2.63059e-17
8684.58241 2.61034e-17
8686.58082 2.59685e-17
8688.57924 2.59158e-17
8690.58774 2.59599e-17
8692.58616 2.61869e-17
8694.58457 2.64449e-17
8696.58299 2.66314e-17
8698.58140 2.67330e-17
8700.58991 2.67941e-17
8702.58832 2.68422e-17
8704.58673 2.68832e-17
8706.58515 2.69466e-17
8708.59366 2.70090e-17
8710.59207 2.70693e-17
8712.59048 2.71088e-17
8714.58890 2.70616e-17
8716.58731 2.69962e-17
8718.59582 2.70657e-17
8720.59423 2.74890e-17
8722.59265 2.80231e-17
8724.59106 2.85887e-17
8726.58947 2.90312e-17
8728.59798 2.91917e-17
8730.59640 2.91016e-17
8732.59481 2.89564e-17
8734.59322 2.89300e-17
8736.60173 2.88655e-17
8738.60014 2.86321e-17
8740.59856 2.83388e-17
8742.59697 2.80011e-17
8744.59539 2.77256e-17
8746.60389 2.75930e-17
8748.60231 2.76715e-17
8750.60072 2.78389e-17
8752.59914 2.80101e-17
8754.60764 2.81279e-17
8756.60606 2.81066e-17
8758.60447 2.79630e-17
8760.60288 2.77147e-17
8762.60130 2.74205e-17
8764.60981 2.71280e-17
8766.60822 2.69266e-17
8768.60663 2.68069e-17
8770.60505 2.68322e-17
8772.60346 2.69208e-17
8774.61197 2.70197e-17
8776.61038 2.70749e-17
8778.60880 2.70966e-17
8780.60721 2.70651e-17
8782.61572 2.70011e-17
8784.61413 2.68767e-17
8786.61254 2.67890e-17
8788.61096 2.68161e-17
8790.60937 2.69654e-17
8792.61788 2.72016e-17
8794.61629 2.74808e-17
8796.61471 2.77649e-17
8798.61312 2.80170e-17
8800.61154 2.81525e-17
8802.62004 2.80682e-17
8804.61846 2.78054e-17
8806.61687 2.73996e-17
8808.61529 2.69472e-17
8810.62379 2.65224e-17
8812.62221 2.62981e-17
8814.62062 2.60875e-17
8816.61903 2.57521e-17
8818.61745 2.53620e-17
8820.62596 2.49474e-17
8822.62437 2.46130e-17
8824.62278 2.44245e-17
8826.62120 2.45061e-17
8828.62970 2.47696e-17
8830.62812 2.53493e-17
8832.62653 2.58457e-17
8834.62495 2.58737e-17
8836.62336 2.55022e-17
8838.63187 2.50739e-17
8840.63028 2.48760e-17
8842.62870 2.47318e-17
8844.62711 2.46200e-17
8846.62552 2.44755e-17
8848.63403 2.41717e-17
8850.63244 2.38419e-17
8852.63086 2.36872e-17
8854.62927 2.37744e-17
8856.63778 2.38606e-17
8858.63619 2.36597e-17
8860.63461 2.33663e-17
8862.63302 2.30312e-17
8864.63144 2.26953e-17
8866.63994 2.23739e-17
8868.63836 2.20867e-17
8870.63677 2.18150e-17
8872.63518 2.15504e-17
8874.63360 2.12943e-17
8876.64211 2.10165e-17
8878.64052 2.07809e-17
8880.63893 2.06606e-17
8882.63735 2.06285e-17
8884.64585 2.06072e-17
8886.64427 2.05189e-17
8888.64268 2.04032e-17
8890.64110 2.02304e-17
8892.63951 2.00825e-17
8894.64802 2.00294e-17
8896.64643 2.00581e-17
8898.64485 2.01491e-17
8900.64326 2.02392e-17
8902.65177 2.02582e-17
8904.65018 2.00251e-17
8906.64859 1.97543e-17
8908.64701 1.95037e-17
8910.64542 1.94156e-17
8912.65393 1.96717e-17
8914.65234 2.01961e-17
8916.65076 2.06653e-17
8918.64917 2.06705e-17
8920.64759 2.04243e-17
8922.65609 1.98845e-17
8924.65451 1.92350e-17
8926.65292 1.86161e-17
8928.65133 1.80874e-17
8930.65984 1.75177e-17
8932.65826 1.68677e-17
8934.65667 1.63560e-17
8936.65508 1.63349e-17
8938.65350 1.64826e-17
8940.66200 1.66463e-17
8942.66042 1.67062e-17
8944.65883 1.66501e-17
8946.65725 1.64550e-17
8948.66575 1.62426e-17
8950.66417 1.62090e-17
8952.66258 1.61657e-17
8954.66100 1.59623e-17
8956.65941 1.57180e-17
8958.66792 1.56203e-17
8960.66633 1.56907e-17
8962.66474 1.57013e-17
8964.66316 1.53744e-17
8966.66157 1.50396e-17
8968.67008 1.49836e-17
8970.66849 1.50165e-17
8972.66691 1.49629e-17
8974.66532 1.47563e-17
8976.67383 1.44886e-17
8978.67224 1.42111e-17
8980.67066 1.39192e-17
8982.66907 1.35832e-17
8984.66748 1.33210e-17
8986.67599 1.32717e-17
8988.67441 1.33607e-17
8990.67282 1.34351e-17
8992.67123 1.33648e-17
8994.66965 1.32587e-17
8996.67815 1.31746e-17
8998.67657 1.31060e-17
9000.67498 1.30357e-17
9002.67340 1.30268e-17
9004.68190 1.31822e-17
9006.68032 1.34769e-17
9008.67873 1.37241e-17
9010.67714 1.36646e-17
9012.67556 1.34843e-17
9014.68407 1.32168e-17
9016.68248 1.29495e-17
9018.68089 1.27626e-17
9020.67931 1.26568e-17
9022.67772 1.25130e-17
9024.68623 1.22244e-17
9026.68464 1.19752e-17
9028.68306 1.19713e-17
9030.68147 1.20625e-17
9032.68998 1.21403e-17
9034.68839 1.21855e-17
9036.68681 1.22663e-17
9038.68522 1.24124e-17
9040.68363 1.25736e-17
9042.69214 1.26939e-17
9044.69056 1.28076e-17
9046.68897 1.29348e-17
9048.68738 1.30619e-17
9050.68580 1.31616e-17
9052.69430 1.32292e-17
9054.69272 1.33050e-17
9056.69113 1.34593e-17
9058.68955 1.35767e-17
9060.69805 1.35120e-17
9062.69647 1.34123e-17
9064.69488 1.34476e-17
9066.69330 1.36495e-17
9068.69171 1.38618e-17
9070.70022 1.39378e-17
9072.69863 1.39535e-17
9074.69704 1.38965e-17
9076.69546 1.38250e-17
9078.69387 1.37506e-17
9080.70238 1.37480e-17
9082.70079 1.38846e-17
9084.69921 1.42165e-17
9086.69762 1.45677e-17
9088.70613 1.47551e-17
9090.70454 1.48136e-17
9092.70296 1.46881e-17
9094.70137 1.44628e-17
9096.69978 1.42062e-17
9098.70829 1.40285e-17
9100.70671 1.39378e-17
9102.70512 1.40443e-17
9104.70353 1.42234e-17
9106.70195 1.44123e-17
9108.71045 1.45942e-17
9110.70887 1.48001e-17
9112.70728 1.49919e-17
9114.70570 1.51090e-17
9116.71420 1.50555e-17
9118.71262 1.49763e-17
9120.71103 1.50276e-17
9122.70945 1.50844e-17
9124.70786 1.50513e-17
9126.71637 1.48777e-17
9128.71478 1.45759e-17
9130.71319 1.41598e-17
9132.71161 1.37692e-17
9134.72012 1.36122e-17
9136.71853 1.35718e-17
9138.71694 1.36482e-17
9140.71536 1.37179e-17
9142.71377 1.36584e-17
9144.72228 1.33966e-17
9146.72069 1.31308e-17
9148.71911 1.30766e-17
9150.71752 1.31677e-17
9152.71593 1.35448e-17
9154.72444 1.39455e-17
9156.72286 1.40921e-17
9158.72127 1.38723e-17
9160.71968 1.35714e-17
9162.72819 1.34561e-17
9164.72660 1.33941e-17
9166.72502 1.33594e-17
9168.72343 1.33680e-17
9170.72185 1.34553e-17
9172.73035 1.35928e-17
9174.72877 1.37319e-17
9176.72718 1.38081e-17
9178.72559 1.38377e-17
9180.73410 1.37691e-17
9182.73252 1.36938e-17
9184.73093 1.36658e-17
9186.72934 1.37239e-17
9188.72776 1.38815e-17
9190.73626 1.41275e-17
9192.73468 1.43608e-17
9194.73309 1.43712e-17
9196.73151 1.43713e-17
9198.72992 1.45155e-17
9200.73843 1.47138e-17
9202.73684 1.48054e-17
9204.73526 1.47434e-17
9206.73367 1.46934e-17
9208.74218 1.48505e-17
9210.74059 1.50165e-17
9212.73901 1.50255e-17
9214.73742 1.50045e-17
9216.73583 1.50903e-17
9218.74434 1.53163e-17
9220.74275 1.55914e-17
9222.74117 1.58377e-17
9224.73958 1.60240e-17
9226.73800 1.60365e-17
9228.74650 1.59847e-17
9230.74492 1.59608e-17
9232.74333 1.59612e-17
9234.74175 1.59051e-17
9236.75025 1.57484e-17
9238.74867 1.55750e-17
9240.74708 1.54497e-17
9242.74549 1.53935e-17
9244.74391 1.54601e-17
9246.75242 1.56137e-17
9248.75083 1.58238e-17
9250.74924 1.60249e-17
9252.74766 1.61791e-17
9254.75616 1.61595e-17
9256.75458 1.61528e-17
9258.75299 1.63426e-17
9260.75141 1.65932e-17
9262.74982 1.67754e-17
9264.75833 1.67942e-17
9266.75674 1.66894e-17
9268.75516 1.64479e-17
9270.75357 1.61653e-17
9272.75198 1.59140e-17
9274.76049 1.57359e-17
9276.75890 1.56661e-17
9278.75732 1.57124e-17
9280.75573 1.58700e-17
9282.76424 1.61020e-17
9284.76265 1.62878e-17
9286.76107 1.61763e-17
9288.75948 1.60069e-17
9290.75790 1.59501e-17
9292.76640 1.59609e-17
9294.76482 1.58788e-17
9296.76323 1.56564e-17
9298.76164 1.54653e-17
9300.76006 1.54997e-17
9302.76857 1.56892e-17
9304.76698 1.62118e-17
9306.76539 1.66982e-17
9308.76381 1.67818e-17
9310.77231 1.63249e-17
9312.77073 1.56410e-17
9314.76914 1.49803e-17
9316.76756 1.45802e-17
9318.76597 1.50864e-17
9320.77448 1.57902e-17
9322.77289 1.60770e-17
9324.77131 1.58034e-17
9326.76972 1.53864e-17
9328.77823 1.51217e-17
9330.77664 1.48924e-17
9332.77505 1.46618e-17
9334.77347 1.45633e-17
9336.77188 1.47926e-17
9338.78039 1.51820e-17
9340.77880 1.55392e-17
9342.77722 1.56032e-17
9344.77563 1.53784e-17
9346.77405 1.43805e-17
9348.78255 1.35686e-17
9350.78097 1.38265e-17
9352.77938 1.46711e-17
9354.77779 1.54545e-17
9356.78630 1.57393e-17
9358.78471 1.58344e-17
9360.78313 1.58242e-17
9362.78154 1.57077e-17
9364.77996 1.54741e-17
9366.78846 1.52215e-17
9368.78688 1.49123e-17
9370.78529 1.47713e-17
9372.78371 1.50775e-17
9374.79221 1.61416e-17
9376.79063 1.72484e-17
9378.78904 1.77196e-17
9380.78746 1.77116e-17
9382.78587 1.71034e-17
9384.79438 1.62214e-17
9386.79279 1.54032e-17
9388.79120 1.50269e-17
9390.78962 1.48152e-17
9392.78803 1.46245e-17
9394.79654 1.45285e-17
9396.79495 1.45986e-17
9398.79337 1.47193e-17
9400.79178 1.47189e-17
9402.80029 1.45884e-17
9404.79870 1.45990e-17
9406.79712 1.51478e-17
9408.79553 1.57120e-17
9410.79394 1.59017e-17
9412.80245 1.58456e-17
9414.80086 1.57060e-17
9416.79928 1.55513e-17
9418.79769 1.52864e-17
9420.79611 1.48741e-17
9422.80461 1.45505e-17
9424.80303 1.46486e-17
9426.80144 1.49177e-17
9428.79986 1.52652e-17
9430.80836 1.54893e-17
9432.80678 1.54565e-17
9434.80519 1.50446e-17
9436.80361 1.45861e-17
9438.80202 1.44598e-17
9440.81053 1.45133e-17
9442.80894 1.48498e-17
9444.80735 1.52084e-17
9446.80577 1.53190e-17
9448.81428 1.50142e-17
9450.81269 1.45757e-17
9452.81110 1.41812e-17
9454.80952 1.40373e-17
9456.80793 1.47070e-17
9458.81644 1.55088e-17
9460.81485 1.57056e-17
9462.81327 1.51091e-17
9464.81168 1.43621e-17
9466.81009 1.40398e-17
9468.81860 1.40147e-17
9470.81702 1.45530e-17
9472.81543 1.53184e-17
9474.81384 1.62000e-17
9476.82235 1.68478e-17
9478.82076 1.70578e-17
9480.81918 1.65511e-17
9482.81759 1.57758e-17
9484.81601 1.50152e-17
9486.82451 1.44568e-17
9488.82293 1.44095e-17
9490.82134 1.47093e-17
9492.81976 1.51305e-17
9494.81817 1.53639e-17
9496.82668 1.53514e-17
9498.82509 1.46755e-17
9500.82350 1.39011e-17
9502.82192 1.33283e-17
9504.83043 1.30595e-17
9506.82884 1.31367e-17
9508.82725 1.34928e-17
9510.82567 1.39334e-17
9512.82408 1.42027e-17
9514.83259 1.43302e-17
9516.83100 1.40931e-17
9518.82942 1.38238e-17
9520.82783 1.38661e-17
9522.82624 1.41868e-17
9524.83475 1.44542e-17
9526.83317 1.43623e-17
9528.83158 1.41015e-17
9530.82999 1.36197e-17
9532.83850 1.31804e-17
9534.83691 1.30517e-17
9536.83533 1.31410e-17
9538.83374 1.32092e-17
9540.83216 1.30719e-17
9542.84066 1.28644e-17
9544.83908 1.25900e-17
9546.83749 1.23911e-17
9548.83591 1.24430e-17
9550.83432 1.26344e-17
9552.84283 1.28515e-17
9554.84124 1.29612e-17
9556.83965 1.29578e-17
9558.83807 1.27364e-17
9560.84658 1.24603e-17
9562.84499 1.22655e-17
9564.84340 1.21008e-17
9566.84182 1.19074e-17
9568.84023 1.16735e-17
9570.84874 1.14192e-17
9572.84715 1.11669e-17
9574.84557 1.09736e-17
9576.84398 1.09010e-17
9578.84239 1.09717e-17
9580.85090 1.12911e-17
9582.84931 1.17128e-17
9584.84773 1.20722e-17
9586.84614 1.21736e-17
9588.85465 1.21119e-17
9590.85306 1.18001e-17
9592.85148 1.14624e-17
9594.84989 1.12168e-17
9596.84831 1.11525e-17
9598.85681 1.13312e-17
9600.85523 1.17165e-17
9602.85364 1.21178e-17
9604.85206 1.22767e-17
9606.86056 1.23017e-17
9608.85898 1.20779e-17
9610.85739 1.18638e-17
9612.85580 1.19282e-17
9614.85422 1.22896e-17
9616.86273 1.26794e-17
9618.86114 1.28327e-17
9620.85955 1.28204e-17
9622.85797 1.24743e-17
9624.85638 1.20816e-17
9626.86489 1.18461e-17
9628.86330 1.18486e-17
9630.86172 1.20415e-17
9632.86013 1.23536e-17
9634.86864 1.25804e-17
9636.86705 1.22121e-17
9638.86547 1.18371e-17
9640.86388 1.18750e-17
9642.86229 1.22064e-17
9644.87080 1.25508e-17
9646.86921 1.27006e-17
9648.86763 1.27568e-17
9650.86604 1.27000e-17
9652.86446 1.25900e-17
9654.87296 1.24256e-17
9656.87138 1.23116e-17
9658.86979 1.23512e-17
9660.86821 1.25524e-17
9662.87671 1.27934e-17
9664.87513 1.29482e-17
9666.87354 1.30429e-17
9668.87195 1.30338e-17
9670.87037 1.29569e-17
9672.87888 1.28033e-17
9674.87729 1.26474e-17
9676.87570 1.25603e-17
9678.87412 1.26245e-17
9680.88262 1.27327e-17
9682.88104 1.28002e-17
9684.87945 1.28443e-17
9686.87787 1.28417e-17
9688.87628 1.28303e-17
9690.88479 1.28761e-17
9692.88320 1.29906e-17
9694.88162 1.30642e-17
9696.88003 1.29357e-17
9698.87844 1.27363e-17
9700.88695 1.24712e-17
9702.88536 1.22542e-17
9704.88378 1.21684e-17
9706.88219 1.22669e-17
9708.89070 1.24877e-17
9710.88911 1.28035e-17
9712.88753 1.30509e-17
9714.88594 1.29392e-17
9716.88436 1.27428e-17
9718.89286 1.27377e-17
9720.89128 1.29219e-17
9722.88969 1.30168e-17
9724.88810 1.28227e-17
9726.89661 1.26849e-17
9728.89503 1.30503e-17
9730.89344 1.35085e-17
9732.89185 1.38089e-17
9734.89027 1.38959e-17
9736.89877 1.38511e-17
9738.89719 1.37526e-17
9740.89560 1.36904e-17
9742.89402 1.39294e-17
9744.89243 1.41532e-17
9746.90094 1.41791e-17
9748.89935 1.40126e-17
9750.89776 1.36675e-17
9752.89618 1.32578e-17
9754.90469 1.29385e-17
9756.90310 1.29894e-17
9758.90151 1.30990e-17
9760.89993 1.30889e-17
9762.89834 1.29453e-17
9764.90685 1.26109e-17
9766.90526 1.21977e-17
9768.90368 1.18916e-17
9770.90209 1.19154e-17
9772.90051 1.20240e-17
9774.90901 1.20244e-17
9776.90743 1.20086e-17
9778.90584 1.20070e-17
9780.90425 1.20722e-17
9782.91276 1.22616e-17
9784.91118 1.25879e-17
9786.90959 1.28959e-17
9788.90800 1.29419e-17
9790.90642 1.28963e-17
9792.91492 1.28315e-17
9794.91334 1.27351e-17
9796.91175 1.25280e-17
9798.91017 1.22370e-17
9800.91867 1.19844e-17
9802.91709 1.19507e-17
9804.91550 1.20019e-17
9806.91392 1.21102e-17
9808.91233 1.22153e-17
9810.92084 1.22586e-17
9812.91925 1.22472e-17
9814.91766 1.22805e-17
9816.91608 1.24538e-17
9818.91449 1.25906e-17
9820.92300 1.25318e-17
9822.92141 1.23243e-17
9824.91983 1.19335e-17
9826.91824 1.14812e-17
9828.92675 1.10798e-17
9830.92516 1.08826e-17
9832.92358 1.08155e-17
9834.92199 1.08874e-17
9836.92040 1.10694e-17
9838.92891 1.14547e-17
9840.92733 1.18102e-17
9842.92574 1.18429e-17
9844.92415 1.14670e-17
9846.92257 1.11162e-17
9848.93107 1.13614e-17
9850.92949 1.17172e-17
9852.92790 1.19760e-17
9854.92632 1.20961e-17
9856.93482 1.20930e-17
9858.93324 1.19705e-17
9860.93165 1.17641e-17
9862.93007 1.15147e-17
9864.92848 1.12409e-17
9866.93699 1.09114e-17
9868.93540 1.06833e-17
9870.93381 1.07382e-17
9872.93223 1.10098e-17
9874.94074 1.12886e-17
9876.93915 1.13762e-17
9878.93756 1.14218e-17
9880.93598 1.15315e-17
9882.93439 1.16039e-17
9884.94290 1.15864e-17
9886.94131 1.14578e-17
9888.93973 1.11744e-17
9890.93814 1.07992e-17
9892.93655 1.05252e-17
9894.94506 1.07518e-17
9896.94348 1.10313e-17
9898.94189 1.10681e-17
9900.94030 1.09582e-17
9902.94881 1.08788e-17
9904.94722 1.08892e-17
9906.94564 1.08600e-17
9908.94405 1.06697e-17
9910.94247 1.05709e-17
9912.95097 1.08601e-17
9914.94939 1.13070e-17
9916.94780 1.18047e-17
9918.94621 1.21322e-17
9920.95472 1.21561e-17
9922.95314 1.16986e-17
9924.95155 1.11758e-17
9926.94996 1.10671e-17
9928.94838 1.10979e-17
9930.95689 1.11245e-17
9932.95530 1.11228e-17
9934.95371 1.11946e-17
9936.95213 1.13318e-17
9938.95054 1.13850e-17
9940.95905 1.09614e-17
9942.95746 1.06452e-17
9944.95588 1.09335e-17
9946.95429 1.15465e-17
9948.96280 1.22043e-17
9950.96121 1.25188e-17
9952.95963 1.23591e-17
9954.95804 1.12186e-17
9956.95645 1.01230e-17
9958.96496 1.00653e-17
9960.96337 1.05460e-17
9962.96179 1.11748e-17
9964.96020 1.15787e-17
9966.95862 1.17168e-17
9968.96712 1.13767e-17
9970.96554 1.09686e-17
9972.96395 1.09381e-17
9974.96236 1.10199e-17
9976.97087 1.09883e-17
9978.96929 1.09271e-17
9980.96770 1.11162e-17
9982.96611 1.16659e-17
9984.96453 1.21602e-17
9986.97304 1.19716e-17
9988.97145 1.16014e-17
9990.96986 1.12505e-17
9992.96828 1.09699e-17
9994.97678 1.06613e-17
9996.97520 1.03710e-17
9998.97361 1.02121e-17
10000.97203 1.03860e-17
10002.97044 1.06535e-17
