# wavelength flux
3601.17877 2.73121e-18
3602.65509 1.98704e-18
3604.12137 2.50512e-19
3605.58765 1.14357e-18
3607.06397 -1.25613e-18
3608.53024 3.75604e-18
3609.99652 1.30626e-17
3611.47284 6.20849e-18
3612.93912 1.47427e-18
3614.40540 2.53512e-18
3615.88172 2.70157e-18
3617.34800 -9.72387e-19
3618.82432 -4.00655e-18
3620.29060 -2.99263e-18
3621.75688 6.57362e-19
3623.23320 1.15040e-17
3624.69947 8.06289e-18
3626.16575 3.46395e-19
3627.64207 1.19097e-17
3629.10835 1.25695e-17
3630.57463 3.00129e-18
3632.05095 2.04815e-18
3633.51723 3.00766e-18
3634.99355 1.60970e-18
3636.45983 -1.06388e-18
3637.92611 -1.60537e-18
3639.40243 -4.27827e-19
3640.86870 5.46596e-18
3642.33498 9.66043e-18
3643.81130 1.25827e-17
3645.27758 1.96516e-17
3646.74386 2.31844e-17
3648.22018 9.14441e-18
3649.68646 -3.54023e-18
3651.16278 -3.84294e-18
3652.62906 8.04028e-20
3654.09533 6.36739e-18
3655.57166 4.24780e-18
3657.03793 1.44768e-18
3658.50421 3.19317e-18
3659.98053 4.45364e-19
3661.44681 2.68468e-19
3662.91309 2.78484e-18
3664.38941 1.30705e-18
3665.85569 4.15252e-18
3667.33201 4.39635e-18
3668.79829 2.25610e-18
3670.26456 3.23352e-18
3671.74089 8.80573e-19
3673.20716 1.06709e-18
3674.67344 5.42604e-18
3676.14976 4.26781e-18
3677.61604 1.79032e-18
3679.08232 5.96992e-18
3680.55864 6.98095e-18
3682.02492 1.96889e-18
3683.50124 1.47401e-18
3684.96752 6.28350e-18
3686.43379 1.00715e-17
3687.91012 6.43188e-18
3689.37639 -9.98584e-20
3690.84267 -1.55768e-19
3692.31899 2.63170e-18
3693.78527 3.67078e-18
3695.25155 1.14540e-18
3696.72787 5.47752e-18
3698.19415 9.93652e-18
3699.67047 3.95226e-18
3701.13675 -1.56705e-18
3702.60302 -3.88136e-18
3704.07935 8.12092e-21
3705.54562 -5.51136e-19
3707.01190 -4.48187e-18
3708.48822 -5.28458e-19
3709.95450 2.93107e-18
3711.42078 3.66542e-18
3712.89710 2.35888e-18
3714.36338 -2.20329e-18
3715.83970 1.33010e-18
3717.30598 1.32646e-17
3718.77225 1.18341e-17
3720.24858 3.61542e-18
3721.71485 1.68440e-18
3723.18113 1.40917e-18
3724.65745 2.58867e-18
3726.12373 7.46385e-18
3727.59001 7.84738e-18
3729.06633 5.58276e-18
3730.53261 3.98522e-18
3732.00893 3.71971e-18
3733.47521 7.12560e-18
3734.94148 4.53142e-18
3736.41781 2.34693e-18
3737.88408 7.24797e-19
3739.35036 -6.45462e-19
3740.82668 1.01041e-17
3742.29296 1.20801e-17
3743.75924 1.16329e-17
3745.23556 8.58269e-18
3746.70184 4.14434e-19
3748.17816 1.57775e-18
3749.64444 3.34032e-18
3751.11072 4.68674e-18
3752.58704 4.15902e-18
3754.05331 3.10422e-18
3755.51959 2.92079e-18
3756.99591 4.33809e-18
3758.46219 4.98642e-18
3759.92847 3.32904e-18
3761.40479 2.10445e-18
3762.87107 2.18244e-18
3764.34739 2.12783e-18
3765.81367 3.08006e-18
3767.27994 7.15310e-18
3768.75627 8.80472e-18
3770.22254 5.87367e-18
3771.68882 3.38459e-18
3773.16514 1.27872e-18
3774.63142 1.34541e-18
3776.09770 3.34785e-18
3777.57402 5.06221e-18
3779.04030 5.79464e-18
3780.51662 5.20077e-18
3781.98290 8.18971e-18
3783.44917 8.08976e-18
3784.92550 1.06664e-18
3786.39177 7.60064e-19
3787.85805 4.99764e-18
3789.33437 4.43328e-18
3790.80065 4.91499e-18
3792.26693 4.26428e-18
3793.74325 1.53054e-18
3795.20953 2.50326e-18
3796.68585 8.17492e-18
3798.15213 1.02850e-17
3799.61840 5.04911e-18
3801.09473 3.47957e-18
3802.56100 9.29774e-18
3804.02728 9.40128e-18
3805.50360 4.33659e-18
3806.96988 4.31809e-18
3808.43616 3.58385e-18
3809.91248 1.24872e-18
3811.37876 8.63356e-19
3812.85508 2.24106e-18
3814.32136 3.77221e-18
3815.78763 4.72075e-18
3817.26396 1.76661e-18
3818.73023 1.61213e-18
3820.19651 3.19314e-18
3821.67283 1.96298e-18
3823.13911 1.51494e-18
3824.60539 2.65420e-18
3826.08171 5.14723e-18
3827.54799 5.51485e-18
3829.02431 3.07759e-18
3830.49059 3.97087e-18
3831.95687 7.12918e-18
3833.43319 5.52313e-18
3834.89946 3.20341e-18
3836.36574 2.54356e-18
3837.84206 4.59736e-18
3839.30834 3.94009e-18
3840.77462 3.79896e-18
3842.25094 3.64171e-18
3843.71722 1.27921e-18
3845.19354 2.68123e-18
3846.65982 2.91487e-18
3848.12610 1.87141e-18
3849.60242 1.24136e-18
3851.06869 3.20935e-18
3852.53497 4.34497e-18
3854.01129 5.08337e-18
3855.47757 2.16699e-18
3856.94385 1.94701e-18
3858.42017 5.28783e-18
3859.88645 4.00356e-18
3861.36277 2.24694e-18
3862.82905 4.59180e-18
3864.29533 5.99685e-18
3865.77165 3.09690e-18
3867.23792 3.55785e-18
3868.70420 6.28989e-18
3870.18052 7.39122e-18
3871.64680 6.93027e-18
3873.11308 5.06731e-18
3874.58940 5.19626e-18
3876.05568 5.45516e-18
3877.53200 5.27206e-18
3878.99828 4.33092e-18
3880.46456 4.75598e-18
3881.94088 6.51837e-18
3883.40715 6.61310e-18
3884.87343 7.10785e-18
3886.34975 5.52683e-18
3887.81603 4.28593e-18
3889.28231 3.84316e-18
3890.75863 5.36304e-18
3892.22491 1.08091e-17
3893.70123 6.50864e-18
3895.16751 5.32207e-18
3896.63378 9.89823e-18
3898.11011 6.30396e-18
3899.57638 4.12923e-18
3901.04266 5.39047e-18
3902.51898 6.42048e-18
3903.98526 7.86343e-18
3905.45154 8.83745e-18
3906.92786 6.86255e-18
3908.39414 3.97577e-18
3909.87046 4.61953e-18
3911.33674 6.17791e-18
3912.80301 4.87463e-18
3914.27934 6.20888e-18
3915.74561 9.12806e-18
3917.21189 8.30247e-18
3918.68821 6.25439e-18
3920.15449 6.80725e-18
3921.62077 9.12563e-18
3923.09709 9.52600e-18
3924.56337 9.46791e-18
3926.03969 7.69223e-18
3927.50597 7.16951e-18
3928.97224 8.64816e-18
3930.44857 8.05686e-18
3931.91484 8.18798e-18
3933.38112 9.51412e-18
3934.85744 1.12168e-17
3936.32372 8.78295e-18
3937.79000 6.83015e-18
3939.26632 7.60579e-18
3940.73260 8.53784e-18
3942.19888 1.01385e-17
3943.67520 9.61974e-18
3945.14147 8.51184e-18
3946.61780 1.02673e-17
3948.08407 9.70381e-18
3949.55035 9.05455e-18
3951.02667 1.01034e-17
3952.49295 8.86482e-18
3953.95923 7.93021e-18
3955.43555 5.82982e-18
3956.90183 7.83226e-18
3958.37815 9.60055e-18
3959.84443 8.52037e-18
3961.31070 1.01707e-17
3962.78703 8.77807e-18
3964.25330 5.44121e-18
3965.71958 6.33719e-18
3967.19590 8.37826e-18
3968.66218 8.67208e-18
3970.12846 9.36838e-18
3971.60478 9.25336e-18
3973.07106 8.91346e-18
3974.53734 1.02892e-17
3976.01366 1.10553e-17
3977.47993 8.68605e-18
3978.95626 7.92291e-18
3980.42253 9.38097e-18
3981.88881 8.89548e-18
3983.36513 8.41672e-18
3984.83141 9.67885e-18
3986.29769 1.06472e-17
3987.77401 9.79602e-18
3989.24029 7.87348e-18
3990.70657 4.72051e-18
3992.18289 6.24135e-18
3993.64917 1.11110e-17
3995.12549 1.13162e-17
3996.59176 6.16988e-18
3998.05804 6.21523e-18
3999.53436 7.70965e-18
4001.00064 1.28299e-17
4002.46692 1.42004e-17
4003.94324 9.62964e-18
4005.40952 9.63381e-18
4006.88584 1.16751e-17
4008.35212 9.13541e-18
4009.81839 8.14179e-18
4011.29472 1.05924e-17
4012.76099 1.18001e-17
4014.22727 8.69982e-18
4015.70359 9.55387e-18
4017.16987 1.21575e-17
4018.63615 1.14259e-17
4020.11247 9.83261e-18
4021.57875 9.14966e-18
4023.04503 9.73159e-18
4024.52135 9.02799e-18
4025.98762 8.38399e-18
4027.46395 9.90128e-18
4028.93022 1.02334e-17
4030.39650 9.53144e-18
4031.87282 1.05897e-17
4033.33910 1.06355e-17
4034.80538 9.01588e-18
4036.28170 9.15596e-18
4037.74798 8.20802e-18
4039.21426 6.92622e-18
4040.69058 8.73703e-18
4042.15685 1.03042e-17
4043.63318 9.20072e-18
4045.09945 8.23777e-18
4046.56573 8.54245e-18
4048.04205 1.18712e-17
4049.50833 1.03782e-17
4050.97461 6.79845e-18
4052.45093 8.18388e-18
4053.91721 1.00272e-17
4055.38349 8.71944e-18
4056.85981 8.12444e-18
4058.32608 9.94023e-18
4059.80241 8.83413e-18
4061.26868 7.37582e-18
4062.73496 8.02945e-18
4064.21128 9.03723e-18
4065.67756 7.00697e-18
4067.14384 5.37757e-18
4068.62016 7.17668e-18
4070.08644 9.68380e-18
4071.55272 8.14014e-18
4073.02904 5.31596e-18
4074.49532 6.63151e-18
4075.97164 7.45703e-18
4077.43791 4.83519e-18
4078.90419 7.08504e-18
4080.38051 9.40718e-18
4081.84679 8.35664e-18
4083.31307 8.08314e-18
4084.78939 7.32722e-18
4086.25567 5.73731e-18
4087.72195 6.86366e-18
4089.19827 7.75036e-18
4090.66455 6.39711e-18
4092.14087 7.33110e-18
4093.60714 6.61212e-18
4095.07342 7.11364e-18
4096.54974 7.95312e-18
4098.01602 7.39515e-18
4099.48230 6.90350e-18
4100.95862 6.73396e-18
4102.42490 7.06595e-18
4103.89118 5.68509e-18
4105.36750 6.24356e-18
4106.83378 6.45178e-18
4108.31010 6.51939e-18
4109.77637 6.25187e-18
4111.24265 6.85122e-18
4112.71897 7.39794e-18
4114.18525 5.60499e-18
4115.65153 5.88274e-18
4117.12785 6.77289e-18
4118.59413 4.85082e-18
4120.06041 4.58726e-18
4121.53673 5.38347e-18
4123.00301 5.45035e-18
4124.47933 6.28893e-18
4125.94560 5.79403e-18
4127.41188 7.13820e-18
4128.88820 7.71125e-18
4130.35448 6.20703e-18
4131.82076 5.89175e-18
4133.29708 6.04701e-18
4134.76336 5.23875e-18
4136.22964 5.27914e-18
4137.70596 6.23743e-18
4139.17224 6.15313e-18
4140.64856 5.32731e-18
4142.11483 6.11682e-18
4143.58111 6.77849e-18
4145.05743 5.53322e-18
4146.52371 5.33808e-18
4147.98999 6.27846e-18
4149.46631 6.90839e-18
4150.93259 5.97473e-18
4152.39887 5.71575e-18
4153.87519 4.41452e-18
4155.34147 3.98608e-18
4156.81779 3.96539e-18
4158.28406 4.37684e-18
4159.75034 5.41090e-18
4161.22666 4.91988e-18
4162.69294 4.53680e-18
4164.15922 4.59829e-18
4165.63554 4.01419e-18
4167.10182 4.01841e-18
4168.56810 5.36676e-18
4170.04442 4.94278e-18
4171.51069 4.35572e-18
4172.98702 5.35358e-18
4174.45329 5.12610e-18
4175.91957 4.20576e-18
4177.39589 4.18466e-18
4178.86217 3.43927e-18
4180.32845 3.96876e-18
4181.80477 5.54682e-18
4183.27105 6.05260e-18
4184.73733 4.30854e-18
4186.21365 3.94721e-18
4187.67992 5.97740e-18
4189.15625 5.21812e-18
4190.62252 3.98732e-18
4192.08880 4.43399e-18
4193.56512 4.60475e-18
4195.03140 4.63521e-18
4196.49768 4.81222e-18
4197.97400 4.98550e-18
4199.44028 3.04844e-18
4200.90656 2.82720e-18
4202.38288 4.78362e-18
4203.84915 4.34990e-18
4205.32548 4.51477e-18
4206.79175 4.71276e-18
4208.25803 4.25541e-18
4209.73435 3.78485e-18
4211.20063 4.01246e-18
4212.66691 4.97812e-18
4214.14323 4.64799e-18
4215.60951 4.29144e-18
4217.07579 4.81059e-18
4218.55211 4.46675e-18
4220.01838 4.25221e-18
4221.49471 4.91293e-18
4222.96098 4.56937e-18
4224.42726 4.52374e-18
4225.90358 5.31479e-18
4227.36986 5.39487e-18
4228.83614 4.30012e-18
4230.31246 4.57269e-18
4231.77874 4.92279e-18
4233.24502 4.95528e-18
4234.72134 5.10591e-18
4236.18761 4.76449e-18
4237.66394 5.16128e-18
4239.13021 4.72429e-18
4240.59649 4.85070e-18
4242.07281 5.27463e-18
4243.53909 5.35761e-18
4245.00537 6.12136e-18
4246.48169 4.93701e-18
4247.94797 4.72493e-18
4249.41425 5.25756e-18
4250.89057 3.75514e-18
4252.35684 4.08830e-18
4253.83317 5.32574e-18
4255.29944 4.81260e-18
4256.76572 4.40002e-18
4258.24204 4.36956e-18
4259.70832 4.66074e-18
4261.17460 5.24427e-18
4262.65092 4.90546e-18
4264.11720 4.87356e-18
4265.58348 5.50000e-18
4267.05980 5.72382e-18
4268.52607 5.14451e-18
4270.00240 4.98954e-18
4271.46867 4.15144e-18
4272.93495 4.50752e-18
4274.41127 4.74747e-18
4275.87755 4.18337e-18
4277.34383 4.90330e-18
4278.82015 5.34771e-18
4280.28643 5.44997e-18
4281.75271 6.07767e-18
4283.22903 5.02357e-18
4284.69531 4.35461e-18
4286.16158 5.46537e-18
4287.63790 5.30620e-18
4289.10418 6.45969e-18
4290.58050 6.64849e-18
4292.04678 5.18935e-18
4293.51306 5.64005e-18
4294.98938 5.32842e-18
4296.45566 5.62911e-18
4297.92194 5.20603e-18
4299.39826 4.61543e-18
4300.86453 5.14229e-18
4302.34086 4.67884e-18
4303.80713 5.17184e-18
4305.27341 6.02619e-18
4306.74973 5.47277e-18
4308.21601 5.21656e-18
4309.68229 6.21526e-18
4311.15861 5.56883e-18
4312.62489 5.10301e-18
4314.09117 4.66917e-18
4315.56749 4.90781e-18
4317.03377 4.26667e-18
4318.51009 4.63293e-18
4319.97636 4.71516e-18
4321.44264 5.29105e-18
4322.91896 5.25061e-18
4324.38524 4.60907e-18
4325.85152 4.44913e-18
4327.32784 5.44529e-18
4328.79412 5.50513e-18
4330.26040 6.06359e-18
4331.73672 4.96127e-18
4333.20299 4.86536e-18
4334.67932 5.43379e-18
4336.14559 5.52845e-18
4337.61187 5.63038e-18
4339.08819 5.12385e-18
4340.55447 5.35394e-18
4342.02075 5.10422e-18
4343.49707 4.11658e-18
4344.96335 5.00819e-18
4346.42963 5.29868e-18
4347.90595 5.67037e-18
4349.37223 5.56319e-18
4350.84855 5.04033e-18
4352.31482 5.37731e-18
4353.78110 5.83410e-18
4355.25742 6.52303e-18
4356.72370 5.12705e-18
4358.18998 5.09719e-18
4359.66630 5.77256e-18
4361.13258 5.44320e-18
4362.59886 5.51197e-18
4364.07518 6.28004e-18
4365.54146 5.63887e-18
4367.00773 4.33739e-18
4368.48405 5.32933e-18
4369.95033 6.05285e-18
4371.42665 5.27638e-18
4372.89293 5.58489e-18
4374.35921 6.32967e-18
4375.83553 5.75724e-18
4377.30181 5.53306e-18
4378.76809 5.60564e-18
4380.24441 6.01762e-18
4381.71069 5.86793e-18
4383.18701 5.24865e-18
4384.65328 4.86752e-18
4386.11956 5.27002e-18
4387.59588 5.88390e-18
4389.06216 5.62046e-18
4390.52844 5.93792e-18
4392.00476 5.78543e-18
4393.47104 5.31580e-18
4394.93732 5.70261e-18
4396.41364 5.69461e-18
4397.87992 5.31440e-18
4399.34619 4.96585e-18
4400.82251 5.08269e-18
4402.28879 5.21440e-18
4403.76511 4.33291e-18
4405.23139 4.36233e-18
4406.69767 6.10439e-18
4408.17399 5.82702e-18
4409.64027 4.45515e-18
4411.10655 4.76566e-18
4412.58287 4.95907e-18
4414.04914 5.08096e-18
4415.52547 5.97515e-18
4416.99174 6.02477e-18
4418.45802 4.90386e-18
4419.93434 4.99867e-18
4421.40062 5.07384e-18
4422.86690 5.13403e-18
4424.34322 4.57067e-18
4425.80950 4.00180e-18
4427.27578 4.87307e-18
4428.75210 4.64834e-18
4430.21837 5.00391e-18
4431.68465 5.19360e-18
4433.16097 5.83810e-18
4434.62725 5.97009e-18
4436.10357 4.67328e-18
4437.56985 4.98838e-18
4439.03613 5.64704e-18
4440.51245 5.32370e-18
4441.97873 4.90809e-18
4443.44501 5.64716e-18
4444.92133 5.70247e-18
4446.38760 5.02572e-18
4447.85388 5.25802e-18
4449.33020 5.67763e-18
4450.79648 5.72561e-18
4452.27280 5.90656e-18
4453.73908 5.51579e-18
4455.20536 4.31646e-18
4456.68168 4.75432e-18
4458.14796 5.63173e-18
4459.61424 5.58851e-18
4461.09056 5.41876e-18
4462.55683 4.77970e-18
4464.03316 5.60522e-18
4465.49943 6.58859e-18
4466.96571 5.73403e-18
4468.44203 5.13735e-18
4469.90831 5.16586e-18
4471.37459 5.05204e-18
4472.85091 4.48955e-18
4474.31719 5.78437e-18
4475.78347 5.95175e-18
4477.25979 5.40067e-18
4478.72606 6.12435e-18
4480.19234 6.56615e-18
4481.66866 5.99675e-18
4483.13494 6.37052e-18
4484.61126 7.93920e-18
4486.07754 7.13875e-18
4487.54382 5.88579e-18
4489.02014 6.56895e-18
4490.48642 6.94701e-18
4491.95270 6.81438e-18
4493.42902 7.30268e-18
4494.89529 6.78121e-18
4496.36157 7.07692e-18
4497.83789 7.30732e-18
4499.30417 6.71212e-18
4500.78049 7.21618e-18
4502.24677 7.32943e-18
4503.71305 7.72457e-18
4505.18937 8.23380e-18
4506.65565 8.18183e-18
4508.12193 7.74855e-18
4509.59825 7.45422e-18
4511.06452 8.35562e-18
4512.53080 7.52157e-18
4514.00712 8.39162e-18
4515.47340 8.10929e-18
4516.94972 8.91157e-18
4518.41600 8.83806e-18
4519.88228 8.01758e-18
4521.35860 8.68934e-18
4522.82488 8.71928e-18
4524.29116 8.18701e-18
4525.76748 8.28791e-18
4527.23376 8.56965e-18
4528.70003 8.66001e-18
4530.17635 8.94125e-18
4531.64263 9.27385e-18
4533.11895 1.04428e-17
4534.58523 9.80364e-18
4536.05151 9.10685e-18
4537.52783 9.39767e-18
4538.99411 1.00924e-17
4540.46039 9.59921e-18
4541.93671 9.97484e-18
4543.40298 1.05589e-17
4544.86926 9.36835e-18
4546.34558 1.02401e-17
4547.81186 1.13174e-17
4549.28818 1.08923e-17
4550.75446 9.55507e-18
4552.22074 1.07117e-17
4553.69706 1.11113e-17
4555.16334 1.10873e-17
4556.62962 1.14614e-17
4558.10594 1.06687e-17
4559.57222 1.09066e-17
4561.03849 1.14777e-17
4562.51481 1.09898e-17
4563.98109 1.14807e-17
4565.45741 1.20325e-17
4566.92369 1.27527e-17
4568.38997 1.16511e-17
4569.86629 1.08946e-17
4571.33257 1.07170e-17
4572.79885 1.09894e-17
4574.27517 1.18051e-17
4575.74144 1.19292e-17
4577.20772 1.15365e-17
4578.68404 1.20705e-17
4580.15032 1.17373e-17
4581.62664 1.22311e-17
4583.09292 1.29442e-17
4584.55920 1.28658e-17
4586.03552 1.33813e-17
4587.50180 1.23685e-17
4588.96808 1.28507e-17
4590.44440 1.41973e-17
4591.91068 1.27889e-17
4593.37695 1.33131e-17
4594.85327 1.46202e-17
4596.31955 1.50817e-17
4597.79587 1.37349e-17
4599.26215 1.35217e-17
4600.72843 1.33133e-17
4602.20475 1.34971e-17
4603.67103 1.22914e-17
4605.13731 1.33783e-17
4606.61363 1.33914e-17
4608.07991 1.29160e-17
4609.54618 1.36330e-17
4611.02250 1.29985e-17
4612.48878 1.37763e-17
4613.96510 1.37467e-17
4615.43138 1.35140e-17
4616.89766 1.35095e-17
4618.37398 1.34464e-17
4619.84026 1.37642e-17
4621.30654 1.28018e-17
4622.78286 1.33891e-17
4624.24914 1.43727e-17
4625.71541 1.40428e-17
4627.19173 1.38491e-17
4628.65801 1.40318e-17
4630.13433 1.46231e-17
4631.60061 1.46903e-17
4633.06689 1.50053e-17
4634.54321 1.45205e-17
4636.00949 1.31535e-17
4637.47577 1.34358e-17
4638.95209 1.48250e-17
4640.41837 1.51167e-17
4641.88464 1.47985e-17
4643.36096 1.46364e-17
4644.82724 1.43233e-17
4646.30356 1.37596e-17
4647.76984 1.37628e-17
4649.23612 1.31397e-17
4650.71244 1.42396e-17
4652.17872 1.37903e-17
4653.64500 1.36400e-17
4655.12132 1.45373e-17
4656.58759 1.37309e-17
4658.05387 1.31567e-17
4659.53019 1.18578e-17
4660.99647 1.33764e-17
4662.47279 1.44357e-17
4663.93907 1.42251e-17
4665.40535 1.28959e-17
4666.88167 1.15176e-17
4668.34795 1.43957e-17
4669.81423 1.38407e-17
4671.29055 1.25331e-17
4672.75682 1.24841e-17
4674.22310 1.21648e-17
4675.69942 1.14589e-17
4677.16570 1.17768e-17
4678.64202 1.14226e-17
4680.10830 1.23947e-17
4681.57458 1.29161e-17
4683.05090 1.20928e-17
4684.51718 1.10607e-17
4685.98346 1.10920e-17
4687.45978 1.21083e-17
4688.92605 1.18722e-17
4690.39233 1.21441e-17
4691.86865 1.10102e-17
4693.33493 1.14001e-17
4694.81125 1.19638e-17
4696.27753 1.14702e-17
4697.74381 1.12343e-17
4699.22013 1.12695e-17
4700.68641 1.07469e-17
4702.15269 1.07417e-17
4703.62901 1.06664e-17
4705.09528 1.05852e-17
4706.56156 1.02898e-17
4708.03788 1.06085e-17
4709.50416 1.06529e-17
4710.98048 1.11085e-17
4712.44676 1.06767e-17
4713.91304 9.43147e-18
4715.38936 9.67116e-18
4716.85564 9.72612e-18
4718.32192 1.08196e-17
4719.79824 1.04588e-17
4721.26451 9.92107e-18
4722.73079 9.51520e-18
4724.20711 9.40659e-18
4725.67339 9.75935e-18
4727.14971 9.18019e-18
4728.61599 9.62515e-18
4730.08227 9.41330e-18
4731.55859 9.13119e-18
4733.02487 8.99632e-18
4734.49115 9.27661e-18
4735.96747 8.95853e-18
4737.43374 9.07540e-18
4738.90002 8.87269e-18
4740.37634 8.42972e-18
4741.84262 9.26879e-18
4743.30890 9.90314e-18
4744.78522 9.58551e-18
4746.25150 9.63373e-18
4747.72782 9.90779e-18
4749.19410 8.93217e-18
4750.66038 9.09352e-18
4752.13670 9.45438e-18
4753.60297 9.12447e-18
4755.06925 9.66136e-18
4756.54557 8.58351e-18
4758.01185 8.16827e-18
4759.48817 8.85286e-18
4760.95445 9.36193e-18
4762.42073 9.37270e-18
4763.89705 8.32154e-18
4765.36333 8.95675e-18
4766.82961 7.77656e-18
4768.30593 8.36593e-18
4769.77221 8.12685e-18
4771.23848 8.22583e-18
4772.71480 8.39465e-18
4774.18108 8.28209e-18
4775.65740 8.07914e-18
4777.12368 8.37272e-18
4778.58996 8.54907e-18
4780.06628 8.83408e-18
4781.53256 8.79086e-18
4782.99884 8.81902e-18
4784.47516 8.77145e-18
4785.94143 7.58073e-18
4787.40771 7.45545e-18
4788.88403 8.11882e-18
4790.35031 8.05906e-18
4791.82663 7.81255e-18
4793.29291 8.11502e-18
4794.75919 7.23614e-18
4796.23551 7.13969e-18
4797.70179 7.00796e-18
4799.16807 7.66359e-18
4800.64439 7.79045e-18
4802.11067 7.41099e-18
4803.57694 7.97692e-18
4805.05326 7.07667e-18
4806.51954 7.11578e-18
4807.98582 6.74920e-18
4809.46214 6.78978e-18
4810.92842 6.53599e-18
4812.40474 7.15709e-18
4813.87102 6.70003e-18
4815.33730 5.87208e-18
4816.81362 6.75945e-18
4818.27989 7.97910e-18
4819.74617 7.86841e-18
4821.22249 7.22768e-18
4822.68877 7.74392e-18
4824.15505 7.73914e-18
4825.63137 7.33651e-18
4827.09765 6.98911e-18
4828.57397 7.73738e-18
4830.04025 7.84147e-18
4831.50653 7.17170e-18
4832.98285 7.73633e-18
4834.44913 8.31671e-18
4835.91540 8.15867e-18
4837.39172 7.74192e-18
4838.85800 7.98646e-18
4840.32428 8.03312e-18
4841.80060 7.91671e-18
4843.26688 7.58786e-18
4844.74320 6.84742e-18
4846.20948 7.36420e-18
4847.67576 8.02090e-18
4849.15208 7.39497e-18
4850.61836 6.98620e-18
4852.08463 7.62107e-18
4853.56095 8.28032e-18
4855.02723 8.87201e-18
4856.50355 9.16964e-18
4857.96983 8.90607e-18
4859.43611 9.03998e-18
4860.91243 8.02279e-18
4862.37871 8.29829e-18
4863.84499 8.39070e-18
4865.32131 8.48585e-18
4866.78759 8.79237e-18
4868.25386 8.41580e-18
4869.73018 8.36074e-18
4871.19646 8.10611e-18
4872.67278 8.15762e-18
4874.13906 7.95764e-18
4875.60534 7.89999e-18
4877.08166 7.78948e-18
4878.54794 7.53639e-18
4880.01422 8.40070e-18
4881.49054 8.91145e-18
4882.95682 7.91258e-18
4884.42309 7.93229e-18
4885.89941 7.55468e-18
4887.36569 7.87500e-18
4888.83197 8.12032e-18
4890.30829 7.25732e-18
4891.77457 7.31522e-18
4893.25089 7.79815e-18
4894.71717 8.44953e-18
4896.18345 8.00231e-18
4897.65977 7.97627e-18
4899.12604 7.98376e-18
4900.59232 8.70683e-18
4902.06864 7.82257e-18
4903.53492 7.57232e-18
4905.00120 8.49826e-18
4906.47752 8.20877e-18
4907.94380 8.12668e-18
4909.42012 8.31442e-18
4910.88640 8.51792e-18
4912.35268 7.63581e-18
4913.82900 7.72933e-18
4915.29527 7.65306e-18
4916.76155 8.99104e-18
4918.23787 8.20787e-18
4919.70415 8.03016e-18
4921.17043 8.80648e-18
4922.64675 8.43111e-18
4924.11303 8.23103e-18
4925.58935 8.54008e-18
4927.05563 7.90039e-18
4928.52191 8.64374e-18
4929.99823 9.05721e-18
4931.46450 1.00860e-17
4932.93078 8.47264e-18
4934.40710 9.28774e-18
4935.87338 9.47048e-18
4937.33966 1.00291e-17
4938.81598 9.22530e-18
4940.28226 8.48304e-18
4941.75858 9.07681e-18
4943.22486 1.00225e-17
4944.69114 9.62932e-18
4946.16746 9.39205e-18
4947.63373 9.73136e-18
4949.10001 9.52149e-18
4950.57633 9.99689e-18
4952.04261 1.00509e-17
4953.50889 1.04960e-17
4954.98521 1.04505e-17
4956.45149 1.02111e-17
4957.92781 1.05488e-17
4959.39409 1.01550e-17
4960.86037 1.07348e-17
4962.33669 1.18736e-17
4963.80296 1.16957e-17
4965.26924 1.15039e-17
4966.74556 1.20909e-17
4968.21184 1.21234e-17
4969.67812 1.12081e-17
4971.15444 1.14452e-17
4972.62072 1.24385e-17
4974.09704 1.15213e-17
4975.56332 1.18358e-17
4977.02960 1.23792e-17
4978.50592 1.14809e-17
4979.97219 1.25343e-17
4981.43847 1.35546e-17
4982.91479 1.31268e-17
4984.38107 1.20632e-17
4985.84735 1.20241e-17
4987.32367 1.14819e-17
4988.78995 1.10696e-17
4990.26627 1.18601e-17
4991.73255 1.21586e-17
4993.19883 1.18651e-17
4994.67515 1.11813e-17
4996.14142 1.15031e-17
4997.60770 1.09371e-17
4999.08402 1.05006e-17
5000.55030 1.10508e-17
5002.01658 1.09166e-17
5003.49290 9.83337e-18
5004.95918 9.53055e-18
5006.43550 1.01808e-17
5007.90178 1.06200e-17
5009.36806 9.46049e-18
5010.84438 9.82440e-18
5012.31066 9.64078e-18
5013.77693 9.32674e-18
5015.25325 9.37590e-18
5016.71953 9.10930e-18
5018.18581 9.55833e-18
5019.66213 8.94487e-18
5021.12841 8.62967e-18
5022.60473 9.57185e-18
5024.07101 8.45032e-18
5025.53729 8.95874e-18
5027.01361 8.79283e-18
5028.47988 9.09518e-18
5029.94616 9.56019e-18
5031.42248 9.37660e-18
5032.88876 8.14327e-18
5034.35504 7.39386e-18
5035.83136 7.27605e-18
5037.29764 7.57012e-18
5038.77396 7.47450e-18
5040.24024 6.78113e-18
5041.70652 6.63043e-18
5043.18284 7.54137e-18
5044.64912 7.90322e-18
5046.11539 7.07919e-18
5047.59171 7.19566e-18
5049.05799 6.97861e-18
5050.52427 6.23439e-18
5052.00059 7.01588e-18
5053.46687 6.77353e-18
5054.94319 6.75975e-18
5056.40947 6.92490e-18
5057.87575 6.44700e-18
5059.35207 6.07417e-18
5060.81834 6.60416e-18
5062.28462 7.05838e-18
5063.76094 6.85596e-18
5065.22722 7.24887e-18
5066.69350 6.48131e-18
5068.16982 6.41244e-18
5069.63610 6.54680e-18
5071.11242 6.80353e-18
5072.57870 7.07491e-18
5074.04498 7.08248e-18
5075.52130 7.36597e-18
5076.98758 6.15948e-18
5078.45385 6.32210e-18
5079.93017 6.98902e-18
5081.39645 6.54790e-18
5082.86273 6.36070e-18
5084.33905 5.88432e-18
5085.80533 7.04578e-18
5087.28165 6.63165e-18
5088.74793 7.33961e-18
5090.21421 7.06721e-18
5091.69053 6.75852e-18
5093.15681 6.65208e-18
5094.62308 6.97186e-18
5096.09940 6.64294e-18
5097.56568 7.02069e-18
5099.03196 7.45821e-18
5100.50828 7.44159e-18
5101.97456 7.53038e-18
5103.45088 8.23497e-18
5104.91716 7.24967e-18
5106.38344 7.91699e-18
5107.85976 7.42466e-18
5109.32604 7.36125e-18
5110.79231 7.69866e-18
5112.26863 8.09909e-18
5113.73491 7.68123e-18
5115.20119 7.89350e-18
5116.67751 7.49376e-18
5118.14379 7.68772e-18
5119.62011 7.69570e-18
5121.08639 8.29849e-18
5122.55267 8.80911e-18
5124.02899 8.80863e-18
5125.49527 8.44224e-18
5126.96154 8.40007e-18
5128.43786 8.65268e-18
5129.90414 8.26972e-18
5131.37042 8.91070e-18
5132.84674 8.33897e-18
5134.31302 8.83645e-18
5135.78934 9.03369e-18
5137.25562 9.03237e-18
5138.72190 9.34098e-18
5140.19822 9.38600e-18
5141.66449 9.16414e-18
5143.13077 9.53818e-18
5144.60709 8.66403e-18
5146.07337 8.56132e-18
5147.53965 9.08809e-18
5149.01597 9.53998e-18
5150.48225 9.62434e-18
5151.95857 9.46742e-18
5153.42485 8.73259e-18
5154.89113 8.46459e-18
5156.36745 9.49099e-18
5157.83372 9.94416e-18
5159.30000 9.21987e-18
5160.77632 9.04147e-18
5162.24260 9.36005e-18
5163.70888 9.68203e-18
5165.18520 9.45283e-18
5166.65148 9.18761e-18
5168.12780 9.90274e-18
5169.59408 1.02413e-17
5171.06036 9.68771e-18
5172.53668 9.42890e-18
5174.00295 1.03202e-17
5175.46923 9.94646e-18
5176.94555 9.86370e-18
5178.41183 9.92019e-18
5179.87811 9.71411e-18
5181.35443 9.89348e-18
5182.82071 1.01964e-17
5184.28699 9.88114e-18
5185.76331 1.00531e-17
5187.22959 1.00295e-17
5188.70591 1.01580e-17
5190.17218 1.01175e-17
5191.63846 9.58168e-18
5193.11478 9.17937e-18
5194.58106 9.31212e-18
5196.04734 9.45932e-18
5197.52366 9.29730e-18
5198.98994 1.01375e-17
5200.46626 9.29144e-18
5201.93254 9.79977e-18
5203.39882 1.04033e-17
5204.87514 1.01458e-17
5206.34141 9.93277e-18
5207.80769 9.73835e-18
5209.28401 1.03205e-17
5210.75029 1.03726e-17
5212.21657 9.65589e-18
5213.69289 9.68700e-18
5215.15917 1.05083e-17
5216.63549 1.07528e-17
5218.10177 1.08856e-17
5219.56805 1.07195e-17
5221.04437 1.07602e-17
5222.51064 1.09216e-17
5223.97692 1.10737e-17
5225.45324 1.08391e-17
5226.91952 1.09009e-17
5228.38580 1.05557e-17
5229.86212 1.03652e-17
5231.32840 1.13174e-17
5232.80472 1.12155e-17
5234.27100 1.08994e-17
5235.73728 1.13606e-17
5237.21360 1.11320e-17
5238.67987 1.08888e-17
5240.14615 1.14398e-17
5241.62247 1.13463e-17
5243.08875 1.12649e-17
5244.55503 1.14331e-17
5246.03135 1.14246e-17
5247.49763 1.15373e-17
5248.97395 1.14209e-17
5250.44023 1.22385e-17
5251.90651 1.19525e-17
5253.38283 1.17672e-17
5254.84911 1.21358e-17
5256.31538 1.19406e-17
5257.79170 1.19531e-17
5259.25798 1.28170e-17
5260.72426 1.27092e-17
5262.20058 1.27546e-17
5263.66686 1.23348e-17
5265.13314 1.24165e-17
5266.60946 1.28793e-17
5268.07574 1.23040e-17
5269.55206 1.18087e-17
5271.01833 1.18606e-17
5272.48461 1.27617e-17
5273.96093 1.30520e-17
5275.42721 1.22497e-17
5276.89349 1.24286e-17
5278.36981 1.28127e-17
5279.83609 1.26862e-17
5281.30237 1.28527e-17
5282.77869 1.33131e-17
5284.24497 1.30830e-17
5285.72129 1.26532e-17
5287.18757 1.23442e-17
5288.65384 1.23752e-17
5290.13016 1.30346e-17
5291.59644 1.31467e-17
5293.06272 1.28969e-17
5294.53904 1.34910e-17
5296.00532 1.36767e-17
5297.47160 1.35825e-17
5298.94792 1.30381e-17
5300.41420 1.32381e-17
5301.89052 1.35910e-17
5303.35679 1.36494e-17
5304.82307 1.37229e-17
5306.29939 1.38976e-17
5307.76567 1.37981e-17
5309.23195 1.37212e-17
5310.70827 1.39033e-17
5312.17455 1.40498e-17
5313.65087 1.37308e-17
5315.11715 1.33568e-17
5316.58343 1.38523e-17
5318.05975 1.37278e-17
5319.52603 1.34849e-17
5320.99230 1.39876e-17
5322.46862 1.35190e-17
5323.93490 1.32639e-17
5325.40118 1.37445e-17
5326.87750 1.35962e-17
5328.34378 1.34459e-17
5329.82010 1.45465e-17
5331.28638 1.48962e-17
5332.75266 1.48874e-17
5334.22898 1.47568e-17
5335.69526 1.41753e-17
5337.16153 1.42288e-17
5338.63785 1.44380e-17
5340.10413 1.44486e-17
5341.57041 1.47121e-17
5343.04673 1.50554e-17
5344.51301 1.48970e-17
5345.97929 1.43100e-17
5347.45561 1.39520e-17
5348.92189 1.44751e-17
5350.39821 1.54491e-17
5351.86449 1.54256e-17
5353.33076 1.47659e-17
5354.80708 1.46008e-17
5356.27336 1.48288e-17
5357.73964 1.48771e-17
5359.21596 1.48484e-17
5360.68224 1.52868e-17
5362.14852 1.51779e-17
5363.62484 1.47548e-17
5365.09112 1.50180e-17
5366.56744 1.49164e-17
5368.03371 1.45328e-17
5369.49999 1.44932e-17
5370.97631 1.48135e-17
5372.44259 1.49547e-17
5373.90887 1.46969e-17
5375.38519 1.47381e-17
5376.85147 1.48113e-17
5378.31775 1.53701e-17
5379.79407 1.55215e-17
5381.26035 1.51792e-17
5382.73667 1.51684e-17
5384.20294 1.50153e-17
5385.66922 1.50884e-17
5387.14554 1.49350e-17
5388.61182 1.44616e-17
5390.07810 1.38143e-17
5391.55442 1.35715e-17
5393.02070 1.38667e-17
5394.48698 1.48515e-17
5395.96330 1.51098e-17
5397.42958 1.48040e-17
5398.90590 1.38481e-17
5400.37217 1.39304e-17
5401.83845 1.52238e-17
5403.31477 1.46379e-17
5404.78105 1.42489e-17
5406.24733 1.51519e-17
5407.72365 1.49995e-17
5409.18993 1.43756e-17
5410.65621 1.44838e-17
5412.13253 1.36613e-17
5413.59881 1.33777e-17
5415.07513 1.42269e-17
5416.54140 1.45214e-17
5418.00768 1.35933e-17
5419.48400 1.29196e-17
5420.95028 1.35677e-17
5422.41656 1.36011e-17
5423.89288 1.37771e-17
5425.35916 1.32774e-17
5426.82544 1.22892e-17
5428.30176 1.24604e-17
5429.76804 1.28026e-17
5431.24436 1.28441e-17
5432.71063 1.31181e-17
5434.17691 1.28661e-17
5435.65323 1.21241e-17
5437.11951 1.22149e-17
5438.58579 1.25535e-17
5440.06211 1.25482e-17
5441.52839 1.21332e-17
5442.99467 1.18786e-17
5444.47099 1.23488e-17
5445.93727 1.22941e-17
5447.41359 1.24780e-17
5448.87986 1.25264e-17
5450.34614 1.22451e-17
5451.82246 1.16366e-17
5453.28874 1.14453e-17
5454.75502 1.16599e-17
5456.23134 1.24606e-17
5457.69762 1.31048e-17
5459.16390 1.24885e-17
5460.64022 1.19687e-17
5462.10650 1.21330e-17
5463.58282 1.21297e-17
5465.04909 1.26283e-17
5466.51537 1.28143e-17
5467.99169 1.29583e-17
5469.45797 1.26690e-17
5470.92425 1.25333e-17
5472.40057 1.29242e-17
5473.86685 1.31633e-17
5475.33313 1.33611e-17
5476.80945 1.34889e-17
5478.27573 1.40429e-17
5479.75205 1.43660e-17
5481.21832 1.51962e-17
5482.68460 1.57736e-17
5484.16092 1.50926e-17
5485.62720 1.53272e-17
5487.09348 1.56283e-17
5488.56980 1.57874e-17
5490.03608 1.54779e-17
5491.50236 1.52730e-17
5492.97868 1.62577e-17
5494.44496 1.69512e-17
5495.92128 1.68520e-17
5497.38756 1.71020e-17
5498.85383 1.73459e-17
5500.33015 1.80410e-17
5501.79643 1.85225e-17
5503.26271 1.85106e-17
5504.73903 1.87363e-17
5506.20531 1.87442e-17
5507.67159 1.88949e-17
5509.14791 1.95863e-17
5510.61419 1.92946e-17
5512.09051 1.91791e-17
5513.55678 2.01932e-17
5515.02306 2.01408e-17
5516.49938 2.01672e-17
5517.96566 2.04425e-17
5519.43194 2.07517e-17
5520.90826 2.24504e-17
5522.37454 2.18432e-17
5523.84082 2.05849e-17
5525.31714 2.16555e-17
5526.78342 2.21268e-17
5528.24969 2.13397e-17
5529.72602 2.04242e-17
5531.19229 2.09722e-17
5532.66861 2.16361e-17
5534.13489 2.08682e-17
5535.60117 2.10227e-17
5537.07749 2.12144e-17
5538.54377 2.13744e-17
5540.01005 2.14311e-17
5541.48637 2.05626e-17
5542.95265 2.03804e-17
5544.42897 2.03819e-17
5545.89524 2.03259e-17
5547.36152 2.01467e-17
5548.83784 1.97823e-17
5550.30412 1.89437e-17
5551.77040 1.88975e-17
5553.24672 1.96643e-17
5554.71300 1.90672e-17
5556.17928 1.82521e-17
5557.65560 1.85248e-17
5559.12188 1.82305e-17
5560.59820 1.73107e-17
5562.06448 1.78635e-17
5563.53075 1.78137e-17
5565.00707 1.72486e-17
5566.47335 1.64626e-17
5567.93963 1.63158e-17
5569.41595 1.70579e-17
5570.88223 1.64653e-17
5572.34851 1.59703e-17
5573.82483 1.57061e-17
5575.29111 1.45508e-17
5576.76743 1.49104e-17
5578.23371 1.63863e-17
5579.69998 1.58945e-17
5581.17630 1.48829e-17
5582.64258 1.40524e-17
5584.10886 1.33799e-17
5585.58518 1.33853e-17
5587.05146 1.35737e-17
5588.51774 1.35291e-17
5589.99406 1.33222e-17
5591.46034 1.30683e-17
5592.93666 1.26567e-17
5594.40294 1.29417e-17
5595.86921 1.32993e-17
5597.34553 1.29912e-17
5598.81181 1.27410e-17
5600.27809 1.24505e-17
5601.75441 1.28728e-17
5603.22069 1.31869e-17
5604.68697 1.27413e-17
5606.16329 1.30038e-17
5607.62957 1.27828e-17
5609.09584 1.28705e-17
5610.57216 1.34358e-17
5612.03844 1.36797e-17
5613.51476 1.34916e-17
5614.98104 1.31698e-17
5616.44732 1.39586e-17
5617.92364 1.44946e-17
5619.38992 1.39490e-17
5620.85620 1.39270e-17
5622.33252 1.47076e-17
5623.79880 1.42087e-17
5625.27512 1.42684e-17
5626.74139 1.50130e-17
5628.20767 1.50036e-17
5629.68399 1.46479e-17
5631.15027 1.43110e-17
5632.61655 1.48312e-17
5634.09287 1.53931e-17
5635.55915 1.55393e-17
5637.02543 1.54536e-17
5638.50175 1.55194e-17
5639.96803 1.57426e-17
5641.44435 1.53897e-17
5642.91062 1.53219e-17
5644.37690 1.54086e-17
5645.85322 1.50734e-17
5647.31950 1.54103e-17
5648.78578 1.57096e-17
5650.26210 1.53928e-17
5651.72838 1.54121e-17
5653.19466 1.59282e-17
5654.67098 1.59349e-17
5656.13726 1.56507e-17
5657.61358 1.53443e-17
5659.07985 1.46988e-17
5660.54613 1.45173e-17
5662.02245 1.46552e-17
5663.48873 1.44277e-17
5664.95501 1.34050e-17
5666.43133 1.26202e-17
5667.89761 1.28604e-17
5669.36389 1.28438e-17
5670.84021 1.21009e-17
5672.30649 1.16174e-17
5673.77276 1.15039e-17
5675.24908 1.15310e-17
5676.71536 1.11056e-17
5678.19168 1.02161e-17
5679.65796 1.03736e-17
5681.12424 1.06248e-17
5682.60056 1.03332e-17
5684.06684 1.02631e-17
5685.53312 9.87828e-18
5687.00944 9.37709e-18
5688.47572 9.16403e-18
5689.94199 9.29601e-18
5691.41831 9.48307e-18
5692.88459 9.73942e-18
5694.36091 9.64266e-18
5695.82719 8.89477e-18
5697.29347 8.88048e-18
5698.76979 8.99353e-18
5700.23607 8.51176e-18
5701.70235 8.44983e-18
5703.17867 8.06317e-18
5704.64495 7.48257e-18
5706.12127 7.92214e-18
5707.58754 8.54298e-18
5709.05382 8.43549e-18
5710.53014 7.87721e-18
5711.99642 7.64945e-18
5713.46270 7.78404e-18
5714.93902 8.08532e-18
5716.40530 7.93561e-18
5717.87158 7.78932e-18
5719.34790 7.86588e-18
5720.81418 7.62462e-18
5722.28045 7.42073e-18
5723.75677 7.34143e-18
5725.22305 7.63874e-18
5726.69937 8.34043e-18
5728.16565 8.15062e-18
5729.63193 7.70696e-18
5731.10825 7.90101e-18
5732.57453 7.82686e-18
5734.04081 7.66276e-18
5735.51713 8.02682e-18
5736.98341 8.60717e-18
5738.45973 8.15043e-18
5739.92601 7.76510e-18
5741.39228 7.65385e-18
5742.86860 7.46649e-18
5744.33488 7.68518e-18
5745.80116 7.57782e-18
5747.27748 7.43752e-18
5748.74376 6.99757e-18
5750.21004 7.15027e-18
5751.68636 7.66599e-18
5753.15264 7.46665e-18
5754.61891 6.98548e-18
5756.09523 7.09034e-18
5757.56151 7.34833e-18
5759.03783 7.09870e-18
5760.50411 7.00763e-18
5761.97039 7.45876e-18
5763.44671 7.45334e-18
5764.91299 6.77603e-18
5766.37927 7.31803e-18
5767.85559 7.74710e-18
5769.32187 7.05171e-18
5770.78814 7.15677e-18
5772.26447 6.89060e-18
5773.73074 6.45516e-18
5775.20706 7.15985e-18
5776.67334 7.20401e-18
5778.13962 6.73478e-18
5779.61594 7.27959e-18
5781.08222 6.76180e-18
5782.54850 6.14075e-18
5784.02482 6.59039e-18
5785.49110 6.79152e-18
5786.95737 6.36867e-18
5788.43369 6.54432e-18
5789.89997 6.94929e-18
5791.37629 7.62573e-18
5792.84257 6.88394e-18
5794.30885 6.98206e-18
5795.78517 7.52748e-18
5797.25145 7.18337e-18
5798.71773 7.13892e-18
5800.19405 7.65025e-18
5801.66033 7.89974e-18
5803.12660 7.74797e-18
5804.60293 7.68624e-18
5806.06920 7.40532e-18
5807.54552 7.14652e-18
5809.01180 7.51328e-18
5810.47808 7.76147e-18
5811.95440 7.81015e-18
5813.42068 7.55605e-18
5814.88696 7.65152e-18
5816.36328 7.24299e-18
5817.82956 7.94954e-18
5819.29583 8.84235e-18
5820.77216 8.43986e-18
5822.23843 8.35107e-18
5823.71475 9.10881e-18
5825.18103 9.04702e-18
5826.64731 8.92023e-18
5828.12363 9.27002e-18
5829.58991 1.00153e-17
5831.05619 1.00809e-17
5832.53251 1.00408e-17
5833.99879 1.03937e-17
5835.46506 1.01868e-17
5836.94139 1.06443e-17
5838.40766 1.12768e-17
5839.88398 1.09027e-17
5841.35026 1.09521e-17
5842.81654 1.15893e-17
5844.29286 1.16994e-17
5845.75914 1.19510e-17
5847.22542 1.22305e-17
5848.70174 1.23122e-17
5850.16802 1.26688e-17
5851.63429 1.32989e-17
5853.11061 1.26078e-17
5854.57689 1.23691e-17
5856.05321 1.33340e-17
5857.51949 1.43542e-17
5858.98577 1.35293e-17
5860.46209 1.33197e-17
5861.92837 1.36342e-17
5863.39465 1.39497e-17
5864.87097 1.48826e-17
5866.33725 1.37074e-17
5867.80352 1.34316e-17
5869.27984 1.45847e-17
5870.74612 1.48752e-17
5872.22244 1.49426e-17
5873.68872 1.48297e-17
5875.15500 1.51933e-17
5876.63132 1.59329e-17
5878.09760 1.60845e-17
5879.56388 1.62184e-17
5881.04020 1.67199e-17
5882.50648 1.61501e-17
5883.97275 1.58002e-17
5885.44907 1.59757e-17
5886.91535 1.52167e-17
5888.39167 1.50111e-17
5889.85795 1.52312e-17
5891.32423 1.54944e-17
5892.80055 1.59640e-17
5894.26683 1.61485e-17
5895.73311 1.65007e-17
5897.20943 1.69901e-17
5898.67571 1.66296e-17
5900.14198 1.57764e-17
5901.61830 1.59629e-17
5903.08458 1.65853e-17
5904.56090 1.67738e-17
5906.02718 1.69477e-17
5907.49346 1.64231e-17
5908.96978 1.66803e-17
5910.43606 1.74810e-17
5911.90234 1.74741e-17
5913.37866 1.70588e-17
5914.84494 1.63951e-17
5916.31121 1.60296e-17
5917.78753 1.66142e-17
5919.25381 1.74508e-17
5920.73013 1.66484e-17
5922.19641 1.62503e-17
5923.66269 1.72548e-17
5925.13901 1.75074e-17
5926.60529 1.67742e-17
5928.07157 1.62102e-17
5929.54789 1.68107e-17
5931.01417 1.76896e-17
5932.48044 1.80170e-17
5933.95676 1.75733e-17
5935.42304 1.69387e-17
5936.89936 1.68201e-17
5938.36564 1.69003e-17
5939.83192 1.68689e-17
5941.30824 1.69624e-17
5942.77452 1.67889e-17
5944.24080 1.64335e-17
5945.71712 1.65145e-17
5947.18340 1.62295e-17
5948.64967 1.56125e-17
5950.12599 1.53297e-17
5951.59227 1.58625e-17
5953.06859 1.69857e-17
5954.53487 1.71823e-17
5956.00115 1.59936e-17
5957.47747 1.62989e-17
5958.94375 1.72571e-17
5960.41003 1.72905e-17
5961.88635 1.61477e-17
5963.35263 1.59510e-17
5964.81890 1.62920e-17
5966.29522 1.66398e-17
5967.76150 1.60874e-17
5969.23782 1.54435e-17
5970.70410 1.54373e-17
5972.17038 1.57616e-17
5973.64670 1.60825e-17
5975.11298 1.61279e-17
5976.57926 1.63099e-17
5978.05558 1.57129e-17
5979.52186 1.53589e-17
5980.98813 1.60772e-17
5982.46446 1.55225e-17
5983.93073 1.53001e-17
5985.40705 1.54270e-17
5986.87333 1.46183e-17
5988.33961 1.45645e-17
5989.81593 1.51283e-17
5991.28221 1.52465e-17
5992.74849 1.55786e-17
5994.22481 1.58814e-17
5995.69109 1.48139e-17
5997.15736 1.53020e-17
5998.63368 1.54614e-17
6000.09996 1.50320e-17
6001.57628 1.50601e-17
6003.04256 1.53653e-17
6004.50884 1.51406e-17
6005.98516 1.43781e-17
6007.45144 1.41383e-17
6008.91772 1.44821e-17
6010.39404 1.43548e-17
6011.86032 1.42862e-17
6013.32659 1.51170e-17
6014.80292 1.42576e-17
6016.26919 1.44258e-17
6017.74551 1.43871e-17
6019.21179 1.41076e-17
6020.67807 1.41262e-17
6022.15439 1.40414e-17
6023.62067 1.44734e-17
6025.08695 1.38374e-17
6026.56327 1.42207e-17
6028.02955 1.36303e-17
6029.49582 1.39362e-17
6030.97214 1.42652e-17
6032.43842 1.39449e-17
6033.91474 1.35105e-17
6035.38102 1.38659e-17
6036.84730 1.37107e-17
6038.32362 1.31174e-17
6039.78990 1.34990e-17
6041.25618 1.32118e-17
6042.73250 1.26716e-17
6044.19878 1.25550e-17
6045.66505 1.29589e-17
6047.14138 1.34953e-17
6048.60765 1.29086e-17
6050.07393 1.28435e-17
6051.55025 1.25475e-17
6053.01653 1.26199e-17
6054.49285 1.25209e-17
6055.95913 1.23513e-17
6057.42541 1.26450e-17
6058.90173 1.31112e-17
6060.36801 1.24756e-17
6061.83428 1.23857e-17
6063.31061 1.17656e-17
6064.77688 1.11132e-17
6066.24316 1.12266e-17
6067.71948 1.15843e-17
6069.18576 1.17635e-17
6070.66208 1.13089e-17
6072.12836 1.10589e-17
6073.59464 1.22400e-17
6075.07096 1.20648e-17
6076.53724 1.18470e-17
6078.00351 1.10631e-17
6079.47983 1.05714e-17
6080.94611 1.13032e-17
6082.42243 1.14948e-17
6083.88871 1.11365e-17
6085.35499 1.10297e-17
6086.83131 1.05719e-17
6088.29759 1.08055e-17
6089.76387 1.03617e-17
6091.24019 9.84884e-18
6092.70647 1.03842e-17
6094.17274 1.06612e-17
6095.64906 1.12929e-17
6097.11534 1.13596e-17
6098.59166 1.11605e-17
6100.05794 1.07516e-17
6101.52422 1.14339e-17
6103.00054 1.17106e-17
6104.46682 1.11490e-17
6105.93310 1.11235e-17
6107.40942 1.18395e-17
6108.87570 1.18596e-17
6110.34197 1.20464e-17
6111.81829 1.10396e-17
6113.28457 1.12731e-17
6114.76089 1.23092e-17
6116.22717 1.26081e-17
6117.69345 1.13645e-17
6119.16977 1.12532e-17
6120.63605 1.15636e-17
6122.10233 1.17885e-17
6123.57865 1.21006e-17
6125.04493 1.26003e-17
6126.51120 1.26146e-17
6127.98752 1.20899e-17
6129.45380 1.21099e-17
6130.92008 1.27270e-17
6132.39640 1.24203e-17
6133.86268 1.22101e-17
6135.33900 1.31289e-17
6136.80528 1.22951e-17
6138.27156 1.18354e-17
6139.74788 1.19080e-17
6141.21416 1.14773e-17
6142.68043 1.26513e-17
6144.15675 1.23066e-17
6145.62303 1.14722e-17
6147.08931 1.23564e-17
6148.56563 1.23323e-17
6150.03191 1.21778e-17
6151.50823 1.23595e-17
6152.97451 1.24757e-17
6154.44079 1.23316e-17
6155.91711 1.20595e-17
6157.38339 1.19785e-17
6158.84966 1.18634e-17
6160.32598 1.22031e-17
6161.79226 1.27278e-17
6163.25854 1.25458e-17
6164.73486 1.20838e-17
6166.20114 1.21675e-17
6167.67746 1.22432e-17
6169.14374 1.24185e-17
6170.61002 1.18076e-17
6172.08634 1.16179e-17
6173.55262 1.20262e-17
6175.01889 1.22891e-17
6176.49521 1.23254e-17
6177.96149 1.25107e-17
6179.43781 1.24523e-17
6180.90409 1.20926e-17
6182.37037 1.25315e-17
6183.84669 1.29000e-17
6185.31297 1.28585e-17
6186.77925 1.26485e-17
6188.25557 1.30265e-17
6189.72185 1.37066e-17
6191.18812 1.43015e-17
6192.66444 1.40777e-17
6194.13072 1.30518e-17
6195.60704 1.38872e-17
6197.07332 1.42846e-17
6198.53960 1.42074e-17
6200.01592 1.47144e-17
6201.48220 1.44813e-17
6202.94848 1.42905e-17
6204.42480 1.48468e-17
6205.89108 1.49210e-17
6207.35735 1.62037e-17
6208.83367 1.67972e-17
6210.29995 1.56460e-17
6211.76623 1.67902e-17
6213.24255 1.58338e-17
6214.70883 1.63116e-17
6216.18515 1.71050e-17
6217.65143 1.63202e-17
6219.11771 1.71828e-17
6220.59403 1.76545e-17
6222.06031 1.73047e-17
6223.52658 1.73477e-17
6225.00291 1.81480e-17
6226.46918 1.81475e-17
6227.93546 1.88861e-17
6229.41178 1.88616e-17
6230.87806 1.80856e-17
6232.35438 1.81392e-17
6233.82066 1.85116e-17
6235.28694 1.91772e-17
6236.76326 1.89757e-17
6238.22954 1.89481e-17
6239.69581 1.90237e-17
6241.17213 2.02042e-17
6242.63841 2.03996e-17
6244.10469 1.91664e-17
6245.58101 1.95066e-17
6247.04729 1.95902e-17
6248.52361 1.99495e-17
6249.98989 2.01249e-17
6251.45617 1.89994e-17
6252.93249 1.92694e-17
6254.39877 1.89033e-17
6255.86504 1.93196e-17
6257.34137 1.94808e-17
6258.80764 2.04912e-17
6260.27392 1.99883e-17
6261.75024 1.97009e-17
6263.21652 2.03063e-17
6264.69284 1.93786e-17
6266.15912 1.84803e-17
6267.62540 1.92100e-17
6269.10172 1.98645e-17
6270.56800 2.00274e-17
6272.03427 1.91642e-17
6273.51059 1.96573e-17
6274.97687 1.88164e-17
6276.44315 1.88775e-17
6277.91947 1.93333e-17
6279.38575 1.89378e-17
6280.86207 2.00077e-17
6282.32835 2.08280e-17
6283.79463 1.90197e-17
6285.27095 1.90786e-17
6286.73723 1.93786e-17
6288.20350 1.97310e-17
6289.67983 1.93341e-17
6291.14610 2.01139e-17
6292.61238 1.92322e-17
6294.08870 1.95409e-17
6295.55498 2.05002e-17
6297.03130 2.02467e-17
6298.49758 1.97063e-17
6299.96386 1.94927e-17
6301.44018 2.07560e-17
6302.90646 1.98351e-17
6304.37273 1.91902e-17
6305.84906 1.90120e-17
6307.31533 1.90159e-17
6308.78161 1.82995e-17
6310.25793 1.77635e-17
6311.72421 1.82743e-17
6313.20053 1.80975e-17
6314.66681 1.88071e-17
6316.13309 1.88255e-17
6317.60941 1.87989e-17
6319.07569 1.91838e-17
6320.54196 1.85842e-17
6322.01828 1.86125e-17
6323.48456 1.91214e-17
6324.95084 1.98911e-17
6326.42716 1.87112e-17
6327.89344 1.78471e-17
6329.36976 1.84040e-17
6330.83604 1.91806e-17
6332.30232 1.87602e-17
6333.77864 1.79768e-17
6335.24492 1.81038e-17
6336.71119 1.76369e-17
6338.18751 1.80856e-17
6339.65379 1.80760e-17
6341.12007 1.75446e-17
6342.59639 1.75710e-17
6344.06267 1.71496e-17
6345.53899 1.74759e-17
6347.00527 1.80664e-17
6348.47155 1.76980e-17
6349.94787 1.69539e-17
6351.41415 1.69789e-17
6352.88042 1.74013e-17
6354.35674 1.71979e-17
6355.82302 1.74718e-17
6357.28930 1.75947e-17
6358.76562 1.68429e-17
6360.23190 1.77048e-17
6361.70822 1.71092e-17
6363.17450 1.56320e-17
6364.64078 1.77072e-17
6366.11710 1.76214e-17
6367.58338 1.58692e-17
6369.04965 1.54556e-17
6370.52597 1.61558e-17
6371.99225 1.77156e-17
6373.45853 1.67920e-17
6374.93485 1.54470e-17
6376.40113 1.64320e-17
6377.87745 1.69642e-17
6379.34373 1.68860e-17
6380.81001 1.66847e-17
6382.28633 1.61083e-17
6383.75261 1.65852e-17
6385.21888 1.57004e-17
6386.69520 1.53676e-17
6388.16148 1.57593e-17
6389.62776 1.57208e-17
6391.10408 1.49924e-17
6392.57036 1.44228e-17
6394.04668 1.50330e-17
6395.51296 1.53710e-17
6396.97924 1.58203e-17
6398.45556 1.57537e-17
6399.92184 1.50284e-17
6401.38811 1.45709e-17
6402.86443 1.49858e-17
6404.33071 1.50404e-17
6405.79699 1.49651e-17
6407.27331 1.48235e-17
6408.73959 1.47558e-17
6410.21591 1.59607e-17
6411.68219 1.63686e-17
6413.14847 1.48893e-17
6414.62479 1.49847e-17
6416.09107 1.38721e-17
6417.55734 1.45481e-17
6419.03366 1.51948e-17
6420.49994 1.48973e-17
6421.96622 1.45673e-17
6423.44254 1.47229e-17
6424.90882 1.35354e-17
6426.38514 1.41221e-17
6427.85142 1.53003e-17
6429.31770 1.45096e-17
6430.79402 1.42045e-17
6432.26030 1.41065e-17
6433.72657 1.51562e-17
6435.20289 1.54536e-17
6436.66917 1.40906e-17
6438.13545 1.54975e-17
6439.61177 1.43701e-17
6441.07805 1.47534e-17
6442.55437 1.48484e-17
6444.02065 1.42331e-17
6445.48693 1.56573e-17
6446.96325 1.53893e-17
6448.42953 1.56776e-17
6449.89580 1.52907e-17
6451.37212 1.51982e-17
6452.83840 1.52251e-17
6454.30468 1.44457e-17
6455.78100 1.49549e-17
6457.24728 1.50601e-17
6458.72360 1.61918e-17
6460.18988 1.59058e-17
6461.65616 1.57646e-17
6463.13248 1.46656e-17
6464.59876 1.52776e-17
6466.06503 1.62914e-17
6467.54136 1.63262e-17
6469.00763 1.57010e-17
6470.47391 1.65575e-17
6471.95023 1.58002e-17
6473.41651 1.54918e-17
6474.89283 1.59714e-17
6476.35911 1.64249e-17
6477.82539 1.60484e-17
6479.30171 1.48902e-17
6480.76799 1.48848e-17
6482.23426 1.52430e-17
6483.71058 1.58083e-17
6485.17686 1.53687e-17
6486.64314 1.49518e-17
6488.11946 1.48437e-17
6489.58574 1.59872e-17
6491.06206 1.57050e-17
6492.52834 1.53606e-17
6493.99462 1.61228e-17
6495.47094 1.56670e-17
6496.93722 1.46194e-17
6498.40349 1.47819e-17
6499.87982 1.56871e-17
6501.34609 1.52084e-17
6502.81237 1.56093e-17
6504.28869 1.54224e-17
6505.75497 1.54294e-17
6507.22125 1.54160e-17
6508.69757 1.52231e-17
6510.16385 1.52176e-17
6511.64017 1.45325e-17
6513.10645 1.45497e-17
6514.57272 1.50654e-17
6516.04904 1.53636e-17
6517.51532 1.50091e-17
6518.98160 1.60521e-17
6520.45792 1.49424e-17
6521.92420 1.52009e-17
6523.40052 1.49236e-17
6524.86680 1.51521e-17
6526.33308 1.44232e-17
6527.80940 1.42805e-17
6529.27568 1.42746e-17
6530.74195 1.36462e-17
6532.21828 1.44025e-17
6533.68455 1.46030e-17
6535.15083 1.45729e-17
6536.62715 1.47420e-17
6538.09343 1.46814e-17
6539.55971 1.39829e-17
6541.03603 1.40203e-17
6542.50231 1.49788e-17
6543.97863 1.49747e-17
6545.44491 1.43551e-17
6546.91118 1.49033e-17
6548.38751 1.41884e-17
6549.85378 1.43746e-17
6551.32006 1.44471e-17
6552.79638 1.51812e-17
6554.26266 1.48259e-17
6555.73898 1.49203e-17
6557.20526 1.44366e-17
6558.67154 1.44159e-17
6560.14786 1.42163e-17
6561.61414 1.43872e-17
6563.08041 1.55789e-17
6564.55673 1.49508e-17
6566.02301 1.42631e-17
6567.48929 1.53526e-17
6568.96561 1.42973e-17
6570.43189 1.34998e-17
6571.90821 1.44112e-17
6573.37449 1.47042e-17
6574.84077 1.47729e-17
6576.31709 1.46962e-17
6577.78337 1.48128e-17
6579.24964 1.47289e-17
6580.72596 1.53211e-17
6582.19224 1.52161e-17
6583.65852 1.47098e-17
6585.13484 1.52088e-17
6586.60112 1.55073e-17
6588.06740 1.53020e-17
6589.54372 1.58488e-17
6591.01000 1.70647e-17
6592.48632 1.75372e-17
6593.95260 1.82885e-17
6595.41887 1.78640e-17
6596.89519 1.56811e-17
6598.36147 1.41712e-17
6599.82775 1.38614e-17
6601.30407 1.45085e-17
6602.77035 1.45140e-17
6604.23663 1.36498e-17
6605.71295 1.36667e-17
6607.17923 1.37007e-17
6608.65555 1.39116e-17
6610.12183 1.48591e-17
6611.58810 1.56065e-17
6613.06442 1.53185e-17
6614.53070 1.46029e-17
6615.99698 1.49534e-17
6617.47330 1.39742e-17
6618.93958 1.39023e-17
6620.40586 1.47493e-17
6621.88218 1.46839e-17
6623.34846 1.41656e-17
6624.82478 1.38902e-17
6626.29106 1.39705e-17
6627.75733 1.41795e-17
6629.23365 1.40159e-17
6630.69993 1.37146e-17
6632.16621 1.34995e-17
6633.64253 1.30113e-17
6635.10881 1.32226e-17
6636.58513 1.44604e-17
6638.05141 1.44872e-17
6639.51769 1.35124e-17
6640.99401 1.37523e-17
6642.46029 1.36926e-17
6643.92656 1.31477e-17
6645.40288 1.25080e-17
6646.86916 1.25033e-17
6648.33544 1.26175e-17
6649.81176 1.34096e-17
6651.27804 1.30472e-17
6652.74432 1.32151e-17
6654.22064 1.26010e-17
6655.68692 1.22708e-17
6657.16324 1.24104e-17
6658.62952 1.30215e-17
6660.09579 1.26575e-17
6661.57211 1.22525e-17
6663.03839 1.28461e-17
6664.50467 1.19685e-17
6665.98099 1.18432e-17
6667.44727 1.25151e-17
6668.91355 1.28192e-17
6670.38987 1.31087e-17
6671.85615 1.24611e-17
6673.33247 1.30780e-17
6674.79875 1.37304e-17
6676.26502 1.33111e-17
6677.74134 1.20179e-17
6679.20762 1.32857e-17
6680.67390 1.27664e-17
6682.15022 1.22153e-17
6683.61650 1.19192e-17
6685.08278 1.22864e-17
6686.55910 1.23290e-17
6688.02538 1.17709e-17
6689.50170 1.17001e-17
6690.96798 1.27875e-17
6692.43425 1.22322e-17
6693.91057 1.22764e-17
6695.37685 1.27196e-17
6696.84313 1.28023e-17
6698.31945 1.22550e-17
6699.78573 1.27865e-17
6701.25201 1.17751e-17
6702.72833 1.12879e-17
6704.19461 1.14637e-17
6705.67093 1.21142e-17
6707.13721 1.18623e-17
6708.60348 1.17118e-17
6710.07981 1.13962e-17
6711.54608 1.12644e-17
6713.01236 1.16893e-17
6714.48868 1.15249e-17
6715.95496 1.10212e-17
6717.42124 1.18131e-17
6718.89756 1.21332e-17
6720.36384 1.18190e-17
6721.84016 1.10280e-17
6723.30644 1.02556e-17
6724.77271 1.05286e-17
6726.24903 1.13736e-17
6727.71531 1.09512e-17
6729.18159 1.06859e-17
6730.65791 1.04669e-17
6732.12419 1.05086e-17
6733.59047 1.17622e-17
6735.06679 1.16669e-17
6736.53307 1.11790e-17
6738.00939 1.09512e-17
6739.47567 1.11898e-17
6740.94194 1.08158e-17
6742.41827 1.09061e-17
6743.88454 1.13020e-17
6745.35082 1.18368e-17
6746.82714 1.14459e-17
6748.29342 1.07604e-17
6749.75970 1.06423e-17
6751.23602 1.08768e-17
6752.70230 1.04458e-17
6754.17862 9.75831e-18
6755.64490 1.04104e-17
6757.11117 9.48233e-18
6758.58749 9.76463e-18
6760.05377 1.03110e-17
6761.52005 1.04207e-17
6762.99637 1.03937e-17
6764.46265 1.04241e-17
6765.92893 1.01165e-17
6767.40525 1.01527e-17
6768.87153 1.07241e-17
6770.34785 1.00615e-17
6771.81413 9.74438e-18
6773.28040 9.73349e-18
6774.75673 9.72561e-18
6776.22300 1.00982e-17
6777.68928 9.77686e-18
6779.16560 9.66458e-18
6780.63188 9.23651e-18
6782.09816 9.97929e-18
6783.57448 9.61962e-18
6785.04076 9.54507e-18
6786.51708 1.05218e-17
6787.98336 1.03905e-17
6789.44963 1.02067e-17
6790.92596 1.00780e-17
6792.39223 9.94549e-18
6793.85851 9.58496e-18
6795.33483 9.52096e-18
6796.80111 9.74909e-18
6798.26739 1.02642e-17
6799.74371 1.01006e-17
6801.20999 1.04435e-17
6802.68631 1.08764e-17
6804.15259 1.06158e-17
6805.61886 9.95120e-18
6807.09518 9.82341e-18
6808.56146 1.00242e-17
6810.02774 1.04121e-17
6811.50406 1.01387e-17
6812.97034 1.02378e-17
6814.43662 1.05252e-17
6815.91294 1.00706e-17
6817.37922 1.05840e-17
6818.85554 1.10088e-17
6820.32182 1.03598e-17
6821.78809 9.85076e-18
6823.26441 1.03556e-17
6824.73069 1.06288e-17
6826.19697 1.01190e-17
6827.67329 9.90356e-18
6829.13957 9.75928e-18
6830.60585 9.90240e-18
6832.08217 1.01854e-17
6833.54845 1.00734e-17
6835.02477 1.04619e-17
6836.49105 1.06899e-17
6837.95732 1.02459e-17
6839.43364 1.01824e-17
6840.89992 1.04339e-17
6842.36620 1.00769e-17
6843.84252 9.60369e-18
6845.30880 1.00481e-17
6846.77508 9.85109e-18
6848.25140 9.49029e-18
6849.71768 1.00188e-17
6851.18396 9.98445e-18
6852.66028 9.62280e-18
6854.12655 9.13268e-18
6855.60287 9.44520e-18
6857.06915 9.57035e-18
6858.53543 8.90670e-18
6860.01175 9.27717e-18
6861.47803 9.28190e-18
6862.94431 8.83794e-18
6864.42063 9.46671e-18
6865.88691 9.68240e-18
6867.36323 9.08208e-18
6868.82951 9.58224e-18
6870.29578 1.10642e-17
6871.77211 1.03467e-17
6873.23838 9.34462e-18
6874.70466 9.37786e-18
6876.18098 9.85713e-18
6877.64726 8.96755e-18
6879.11354 8.75155e-18
6880.58986 8.77408e-18
6882.05614 9.64401e-18
6883.53246 9.45004e-18
6884.99874 8.24345e-18
6886.46501 8.49990e-18
6887.94133 7.69747e-18
6889.40761 7.79839e-18
6890.87389 8.80587e-18
6892.35021 8.70982e-18
6893.81649 8.99977e-18
6895.28277 8.38872e-18
6896.75909 8.14798e-18
6898.22537 8.75601e-18
6899.70169 8.85890e-18
6901.16797 8.40255e-18
6902.63424 8.55740e-18
6904.11056 8.80349e-18
6905.57684 8.76772e-18
6907.04312 9.04184e-18
6908.51944 8.09121e-18
6909.98572 8.45412e-18
6911.45200 8.60295e-18
6912.92832 8.57975e-18
6914.39460 8.73568e-18
6915.86087 9.07477e-18
6917.33720 8.14375e-18
6918.80347 7.89005e-18
6920.27979 8.13924e-18
6921.74607 7.83328e-18
6923.21235 8.34901e-18
6924.68867 8.42128e-18
6926.15495 7.85013e-18
6927.62123 7.96183e-18
6929.09755 8.55425e-18
6930.56383 8.62546e-18
6932.03010 7.99349e-18
6933.50643 8.09096e-18
6934.97270 9.62360e-18
6936.44902 8.82882e-18
6937.91530 9.10146e-18
6939.38158 9.88510e-18
6940.85790 9.61898e-18
6942.32418 9.39498e-18
6943.79046 8.45405e-18
6945.26678 8.74521e-18
6946.73306 9.44014e-18
6948.20938 9.24662e-18
6949.67566 9.34666e-18
6951.14193 9.86859e-18
6952.61826 9.62900e-18
6954.08453 9.91123e-18
6955.55081 9.72304e-18
6957.02713 9.95730e-18
6958.49341 9.57445e-18
6959.95969 9.15089e-18
6961.43601 9.69559e-18
6962.90229 9.65035e-18
6964.37861 9.74476e-18
6965.84489 9.60123e-18
6967.31116 9.68792e-18
6968.78748 1.02129e-17
6970.25376 1.01066e-17
6971.72004 9.49044e-18
6973.19636 9.50703e-18
6974.66264 9.70182e-18
6976.12892 9.81629e-18
6977.60524 1.03206e-17
6979.07152 1.08588e-17
6980.54784 1.10727e-17
6982.01412 1.03490e-17
6983.48039 1.02421e-17
6984.95672 1.03603e-17
6986.42299 1.07024e-17
6987.88927 1.14860e-17
6989.36559 9.90589e-18
6990.83187 1.01155e-17
6992.29815 9.89641e-18
6993.77447 1.01675e-17
6995.24075 1.05380e-17
6996.70702 1.08134e-17
6998.18335 1.05495e-17
6999.64962 1.07331e-17
7001.12594 1.05874e-17
7002.59222 1.04500e-17
7004.05850 1.12464e-17
7005.53482 1.15158e-17
7007.00110 1.15706e-17
7008.46738 1.17408e-17
7009.94370 1.07515e-17
7011.40998 9.87608e-18
7012.87626 9.99348e-18
7014.35258 1.20300e-17
7015.81885 1.29685e-17
7017.29518 1.17407e-17
7018.76145 1.05205e-17
7020.22773 1.06064e-17
7021.70405 1.05808e-17
7023.17033 1.04668e-17
7024.63661 1.06663e-17
7026.11293 1.10052e-17
7027.57921 1.01940e-17
7029.04548 9.85541e-18
7030.52181 1.07866e-17
7031.98808 1.05050e-17
7033.46440 1.03632e-17
7034.93068 9.82991e-18
7036.39696 1.03390e-17
7037.87328 1.11518e-17
7039.33956 1.11650e-17
7040.80584 1.09661e-17
7042.28216 1.08959e-17
7043.74844 1.09071e-17
7045.21472 1.05209e-17
7046.69104 1.01503e-17
7048.15731 9.73515e-18
7049.63363 1.00285e-17
7051.09991 1.04441e-17
7052.56619 1.04162e-17
7054.04251 9.95429e-18
7055.50879 1.01716e-17
7056.97507 1.01670e-17
7058.45139 9.93916e-18
7059.91767 1.00788e-17
7061.39399 1.03514e-17
7062.86027 1.07301e-17
7064.32654 1.05420e-17
7065.80286 9.93177e-18
7067.26914 9.50563e-18
7068.73542 9.44423e-18
7070.21174 1.05438e-17
7071.67802 1.04932e-17
7073.14430 9.90249e-18
7074.62062 1.04886e-17
7076.08690 1.10204e-17
7077.55318 1.00365e-17
7079.02950 9.39004e-18
7080.49577 1.00073e-17
7081.97209 1.06917e-17
7083.43837 1.05169e-17
7084.90465 1.03591e-17
7086.38097 1.09334e-17
7087.84725 1.05471e-17
7089.31353 1.00449e-17
7090.78985 9.92035e-18
7092.25613 9.31538e-18
7093.72241 9.72589e-18
7095.19873 1.02601e-17
7096.66500 1.04051e-17
7098.14132 1.05020e-17
7099.60760 1.03618e-17
7101.07388 1.02330e-17
7102.55020 1.01161e-17
7104.01648 9.89145e-18
7105.48276 1.01179e-17
7106.95908 9.99757e-18
7108.42536 9.68905e-18
7109.89163 9.90330e-18
7111.36796 1.04359e-17
7112.83423 1.11809e-17
7114.31056 1.04866e-17
7115.77683 9.86779e-18
7117.24311 1.06144e-17
7118.71943 1.08346e-17
7120.18571 1.08539e-17
7121.65199 1.04763e-17
7123.12831 9.89929e-18
7124.59459 9.82430e-18
7126.06087 9.69586e-18
7127.53719 9.75140e-18
7129.00346 1.02874e-17
7130.47978 1.04506e-17
7131.94606 9.97634e-18
7133.41234 9.44358e-18
7134.88866 9.45690e-18
7136.35494 9.93960e-18
7137.82122 9.83948e-18
7139.29754 9.81599e-18
7140.76382 1.01719e-17
7142.23009 1.04023e-17
7143.70642 1.02363e-17
7145.17269 9.97841e-18
7146.64901 1.03744e-17
7148.11529 1.05635e-17
7149.58157 1.01205e-17
7151.05789 1.01036e-17
7152.52417 1.01867e-17
7153.99045 9.88572e-18
7155.46677 1.00849e-17
7156.93305 1.05765e-17
7158.39932 1.10301e-17
7159.87565 1.10860e-17
7161.34192 1.03854e-17
7162.81824 1.01592e-17
7164.28452 1.06210e-17
7165.75080 1.07198e-17
7167.22712 1.09893e-17
7168.69340 1.17384e-17
7170.15968 1.21448e-17
7171.63600 1.16309e-17
7173.10228 1.12535e-17
7174.56855 1.16916e-17
7176.04488 1.18282e-17
7177.51115 1.16919e-17
7178.98747 1.17299e-17
7180.45375 1.13808e-17
7181.92003 1.09709e-17
7183.39635 1.10382e-17
7184.86263 1.15399e-17
7186.32891 1.14574e-17
7187.80523 1.08284e-17
7189.27151 1.06797e-17
7190.73778 1.07379e-17
7192.21411 1.10586e-17
7193.68038 1.16192e-17
7195.15671 1.17262e-17
7196.62298 1.21112e-17
7198.08926 1.18305e-17
7199.56558 1.15295e-17
7201.03186 1.22291e-17
7202.49814 1.23629e-17
7203.97446 1.23879e-17
7205.44074 1.34373e-17
7206.90701 1.07899e-17
7208.38334 5.80642e-18
7209.84961 9.03348e-18
7211.32593 1.19817e-17
7212.79221 1.17243e-17
7214.25849 1.18531e-17
7215.73481 1.18289e-17
7217.20109 1.15740e-17
7218.66737 1.09237e-17
7220.14369 1.00711e-17
7221.60997 1.01551e-17
7223.07624 1.08609e-17
7224.55257 1.08249e-17
7226.01884 1.05252e-17
7227.49517 1.08298e-17
7228.96144 1.14720e-17
7230.42772 1.17765e-17
7231.90404 1.22615e-17
7233.37032 1.22851e-17
7234.83660 1.18719e-17
7236.31292 1.20979e-17
7237.77920 1.21330e-17
7239.24547 1.22621e-17
7240.72180 1.33447e-17
7242.18807 1.39583e-17
7243.66439 1.38341e-17
7245.13067 1.35883e-17
7246.59695 1.39555e-17
7248.07327 1.38771e-17
7249.53955 1.32891e-17
7251.00583 1.37464e-17
7252.48215 1.40504e-17
7253.94843 1.33575e-17
7255.41471 1.23355e-17
7256.89103 1.18165e-17
7258.35730 1.21426e-17
7259.83363 1.30467e-17
7261.29990 1.36371e-17
7262.76618 1.27149e-17
7264.24250 1.21605e-17
7265.70878 1.23821e-17
7267.17506 1.24287e-17
7268.65138 1.22046e-17
7270.11766 1.28110e-17
7271.58393 1.32549e-17
7273.06026 1.38013e-17
7274.52653 1.44355e-17
7276.00285 1.47398e-17
7277.46913 1.43176e-17
7278.93541 1.44634e-17
7280.41173 1.46235e-17
7281.87801 1.47080e-17
7283.34429 1.46121e-17
7284.82061 1.41215e-17
7286.28689 1.42165e-17
7287.75317 1.41569e-17
7289.22949 1.41094e-17
7290.69576 1.39628e-17
7292.16204 1.48808e-17
7293.63836 1.51495e-17
7295.10464 1.41103e-17
7296.58096 1.40862e-17
7298.04724 1.45421e-17
7299.51352 1.41832e-17
7300.98984 1.37923e-17
7302.45612 1.40923e-17
7303.92239 1.49281e-17
7305.39872 1.50077e-17
7306.86499 1.46930e-17
7308.34131 1.44083e-17
7309.80759 1.42168e-17
7311.27387 1.42253e-17
7312.75019 1.38730e-17
7314.21647 1.46456e-17
7315.68275 1.51867e-17
7317.15907 1.52548e-17
7318.62535 1.52302e-17
7320.09163 1.47869e-17
7321.56795 1.52524e-17
7323.03422 1.55282e-17
7324.51054 1.53999e-17
7325.97682 1.51792e-17
7327.44310 1.43574e-17
7328.91942 1.38720e-17
7330.38570 1.44206e-17
7331.85198 1.49397e-17
7333.32830 1.43803e-17
7334.79458 1.39335e-17
7336.26086 1.33783e-17
7337.73718 1.32182e-17
7339.20345 1.34028e-17
7340.67977 1.29925e-17
7342.14605 1.33322e-17
7343.61233 1.34049e-17
7345.08865 1.33346e-17
7346.55493 1.29393e-17
7348.02121 1.28987e-17
7349.49753 1.34348e-17
7350.96381 1.33648e-17
7352.43008 1.41145e-17
7353.90641 1.43204e-17
7355.37268 1.35009e-17
7356.84901 1.40452e-17
7358.31528 1.49524e-17
7359.78156 1.49042e-17
7361.25788 1.49277e-17
7362.72416 1.48524e-17
7364.19044 1.42203e-17
7365.66676 1.35363e-17
7367.13304 1.38408e-17
7368.59932 1.33214e-17
7370.07564 1.23693e-17
7371.54191 1.27117e-17
7373.00819 1.29600e-17
7374.48451 1.25223e-17
7375.95079 1.26100e-17
7377.42711 1.31250e-17
7378.89339 1.27393e-17
7380.35967 1.23775e-17
7381.83599 1.24836e-17
7383.30227 1.27715e-17
7384.76854 1.26675e-17
7386.24487 1.26564e-17
7387.71114 1.31213e-17
7389.17742 1.27279e-17
7390.65374 1.24669e-17
7392.12002 1.23045e-17
7393.59634 1.19513e-17
7395.06262 1.20867e-17
7396.52890 1.23733e-17
7398.00522 1.27127e-17
7399.47150 1.25705e-17
7400.93777 1.20761e-17
7402.41410 1.21091e-17
7403.88037 1.26713e-17
7405.35669 1.21484e-17
7406.82297 1.14681e-17
7408.28925 1.14330e-17
7409.76557 1.20646e-17
7411.23185 1.25284e-17
7412.69813 1.22205e-17
7414.17445 1.17548e-17
7414.20678 1.17548e-17
7416.20519 1.16751e-17
7418.20361 1.16248e-17
7420.20202 1.16158e-17
7422.21053 1.16354e-17
7424.20894 1.16380e-17
7426.20735 1.15488e-17
7428.20577 1.14760e-17
7430.20418 1.15309e-17
7432.21269 1.16250e-17
7434.21110 1.16623e-17
7436.20952 1.16297e-17
7438.20793 1.16144e-17
7440.21644 1.16874e-17
7442.21485 1.17540e-17
7444.21327 1.17185e-17
7446.21168 1.16508e-17
7448.21009 1.15990e-17
7450.21860 1.15720e-17
7452.21702 1.15408e-17
7454.21543 1.14944e-17
7456.21384 1.14530e-17
7458.22235 1.14457e-17
7460.22076 1.14433e-17
7462.21918 1.14349e-17
7464.21759 1.14098e-17
7466.21601 1.13588e-17
7468.22451 1.12857e-17
7470.22293 1.12159e-17
7472.22134 1.11855e-17
7474.21976 1.11730e-17
7476.21817 1.12007e-17
7478.22668 1.12056e-17
7480.22509 1.11095e-17
7482.22350 1.09272e-17
7484.22192 1.07657e-17
7486.23043 1.07426e-17
7488.22884 1.07486e-17
7490.22725 1.06962e-17
7492.22567 1.06513e-17
7494.22408 1.06779e-17
7496.23259 1.07615e-17
7498.23100 1.08462e-17
7500.22942 1.08807e-17
7502.22783 1.08959e-17
7504.22624 1.09043e-17
7506.23475 1.08946e-17
7508.23317 1.08537e-17
7510.23158 1.07945e-17
7512.22999 1.07264e-17
7514.23850 1.06692e-17
7516.23691 1.06298e-17
7518.23533 1.06313e-17
7520.23374 1.06607e-17
7522.23216 1.07505e-17
7524.24066 1.08240e-17
7526.23908 1.07960e-17
7528.23749 1.06577e-17
7530.23591 1.05077e-17
7532.23432 1.04486e-17
7534.24283 1.04240e-17
7536.24124 1.04293e-17
7538.23965 1.04465e-17
7540.23807 1.04620e-17
7542.24658 1.04698e-17
7544.24499 1.04824e-17
7546.24340 1.05038e-17
7548.24182 1.05192e-17
7550.24023 1.05194e-17
7552.24874 1.04925e-17
7554.24715 1.04146e-17
7556.24557 1.03090e-17
7558.24398 1.01982e-17
7560.24239 1.01183e-17
7562.25090 1.00758e-17
7564.24932 1.01336e-17
7566.24773 1.01877e-17
7568.24614 1.01504e-17
7570.25465 1.00638e-17
7572.25306 9.98917e-18
7574.25148 9.95895e-18
7576.24989 9.94097e-18
7578.24831 9.92018e-18
7580.25681 9.88412e-18
7582.25523 9.79497e-18
7584.25364 9.69755e-18
7586.25206 9.65582e-18
7588.26056 9.63915e-18
7590.25898 9.54976e-18
7592.25739 9.29942e-18
7594.25580 9.04028e-18
7596.25422 8.91593e-18
7598.26273 8.87271e-18
7600.26114 8.91686e-18
7602.25955 8.98811e-18
7604.25797 9.04581e-18
7606.25638 9.02237e-18
7608.26489 8.92971e-18
7610.26330 8.65554e-18
7612.26172 8.42801e-18
7614.26013 8.44335e-18
7616.26864 8.61528e-18
7618.26705 8.82918e-18
7620.26547 8.96272e-18
7622.26388 9.01155e-18
7624.26229 8.87614e-18
7626.27080 8.70125e-18
7628.26921 8.59519e-18
7630.26763 8.53157e-18
7632.26604 8.46671e-18
7634.27455 8.40084e-18
7636.27296 8.36969e-18
7638.27138 8.40302e-18
7640.26979 8.43564e-18
7642.26821 8.40013e-18
7644.27671 8.32733e-18
7646.27513 8.21886e-18
7648.27354 8.11055e-18
7650.27195 8.04039e-18
7652.27037 8.03572e-18
7654.27888 8.02661e-18
7656.27729 7.90397e-18
7658.27570 7.77445e-18
7660.27412 7.69188e-18
7662.28262 7.66489e-18
7664.28104 7.67872e-18
7666.27945 7.72100e-18
7668.27787 7.77877e-18
7670.27628 7.82579e-18
7672.28479 7.88092e-18
7674.28320 7.97778e-18
7676.28162 8.05814e-18
7678.28003 8.05775e-18
7680.27844 7.97210e-18
7682.28695 7.86869e-18
7684.28536 7.81512e-18
7686.28378 7.77820e-18
7688.28219 7.75726e-18
7690.29070 7.74477e-18
7692.28911 7.72518e-18
7694.28753 7.71421e-18
7696.28594 7.74734e-18
7698.28436 7.84448e-18
7700.29286 7.93745e-18
7702.29128 7.94189e-18
7704.28969 7.90093e-18
7706.28810 7.80523e-18
7708.29661 7.70542e-18
7710.29503 7.64426e-18
7712.29344 7.65970e-18
7714.29185 7.70871e-18
7716.29027 7.76248e-18
7718.29877 7.82423e-18
7720.29719 7.88979e-18
7722.29560 7.95193e-18
7724.29402 8.00294e-18
7726.29243 8.04506e-18
7728.30094 8.08929e-18
7730.29935 8.14831e-18
7732.29777 8.23459e-18
7734.29618 8.37748e-18
7736.30469 8.54941e-18
7738.30310 8.74649e-18
7740.30151 8.92854e-18
7742.29993 9.06629e-18
7744.29834 9.11783e-18
7746.30685 9.12881e-18
7748.30526 9.10133e-18
7750.30368 9.10226e-18
7752.30209 9.20294e-18
7754.30051 9.37775e-18
7756.30901 9.57328e-18
7758.30743 9.73384e-18
7760.30584 9.86551e-18
7762.30425 9.92882e-18
7764.31276 9.96791e-18
7766.31118 1.00049e-17
7768.30959 1.00443e-17
7770.30800 1.00755e-17
7772.30642 1.01069e-17
7774.31492 1.01533e-17
7776.31334 1.02387e-17
7778.31175 1.03368e-17
7780.31017 1.04459e-17
7782.30858 1.05343e-17
7784.31709 1.05681e-17
7786.31550 1.05539e-17
7788.31392 1.05288e-17
7790.31233 1.05325e-17
7792.32084 1.05554e-17
7794.31925 1.06350e-17
7796.31766 1.07013e-17
7798.31608 1.06900e-17
7800.31449 1.06177e-17
7802.32300 1.05358e-17
7804.32141 1.04906e-17
7806.31983 1.04651e-17
7808.31824 1.05029e-17
7810.32675 1.05069e-17
7812.32516 1.03775e-17
7814.32358 1.01827e-17
7816.32199 9.99392e-18
7818.32040 9.89425e-18
7820.32891 9.88436e-18
7822.32733 1.00320e-17
7824.32574 1.02205e-17
7826.32415 1.03816e-17
7828.32257 1.04822e-17
7830.33107 1.04925e-17
7832.32949 1.04265e-17
7834.32790 1.03366e-17
7836.32632 1.02848e-17
7838.33482 1.02633e-17
7840.33324 1.02995e-17
7842.33165 1.03768e-17
7844.33007 1.05118e-17
7846.32848 1.06513e-17
7848.33699 1.07397e-17
7850.33540 1.07214e-17
7852.33381 1.06650e-17
7854.33223 1.06066e-17
7856.33064 1.05787e-17
7858.33915 1.06652e-17
7860.33756 1.07727e-17
7862.33598 1.07797e-17
7864.33439 1.06239e-17
7866.34290 1.04208e-17
7868.34131 1.02639e-17
7870.33973 1.01648e-17
7872.33814 1.01873e-17
7874.33655 1.02914e-17
7876.34506 1.04610e-17
7878.34348 1.06329e-17
7880.34189 1.07662e-17
7882.34030 1.07814e-17
7884.34881 1.07435e-17
7886.34722 1.06576e-17
7888.34564 1.05838e-17
7890.34405 1.05902e-17
7892.34247 1.06529e-17
7894.35097 1.06972e-17
7896.34939 1.06521e-17
7898.34780 1.05605e-17
7900.34622 1.04206e-17
7902.34463 1.02642e-17
7904.35314 1.01040e-17
7906.35155 9.96775e-18
7908.34996 9.86076e-18
7910.34838 9.80602e-18
7912.35689 9.80517e-18
7914.35530 9.88405e-18
7916.35371 1.00051e-17
7918.35213 1.01717e-17
7920.35054 1.03245e-17
7922.35905 1.04181e-17
7924.35746 1.04246e-17
7926.35588 1.03792e-17
7928.35429 1.03025e-17
7930.35270 1.02269e-17
7932.36121 1.01922e-17
7934.35963 1.02008e-17
7936.35804 1.02656e-17
7938.35645 1.03669e-17
7940.36496 1.04782e-17
7942.36337 1.05634e-17
7944.36179 1.06322e-17
7946.36020 1.06978e-17
7948.35862 1.07085e-17
7950.36712 1.06007e-17
7952.36554 1.04165e-17
7954.36395 1.02001e-17
7956.36237 1.00332e-17
7958.37087 9.95132e-18
7960.36929 1.01148e-17
7962.36770 1.03099e-17
7964.36611 1.04233e-17
7966.36453 1.04204e-17
7968.37304 1.02805e-17
7970.37145 1.00501e-17
7972.36986 9.84527e-18
7974.36828 9.83904e-18
7976.36669 9.85780e-18
7978.37520 9.78181e-18
7980.37361 9.66376e-18
7982.37203 9.53216e-18
7984.37044 9.44347e-18
7986.37895 9.44106e-18
7988.37736 9.57974e-18
7990.37578 9.72964e-18
7992.37419 9.72465e-18
7994.37260 9.69257e-18
7996.38111 9.73750e-18
7998.37952 9.82853e-18
8000.37794 9.86894e-18
8002.37635 9.79777e-18
8004.37477 9.70012e-18
8006.38327 9.66314e-18
8008.38169 9.63339e-18
8010.38010 9.57632e-18
8012.37852 9.53061e-18
8014.38702 9.55685e-18
8016.38544 9.65885e-18
8018.38385 9.75736e-18
8020.38226 9.75829e-18
8022.38068 9.70324e-18
8024.38919 9.56074e-18
8026.38760 9.40618e-18
8028.38601 9.30113e-18
8030.38443 9.27466e-18
8032.39293 9.28548e-18
8034.39135 9.30760e-18
8036.38976 9.33018e-18
8038.38818 9.33096e-18
8040.38659 9.30806e-18
8042.39510 9.25558e-18
8044.39351 9.17764e-18
8046.39193 9.06434e-18
8048.39034 8.93695e-18
8050.38875 8.86111e-18
8052.39726 8.99628e-18
8054.39567 9.16401e-18
8056.39409 9.27925e-18
8058.39250 9.30176e-18
8060.40101 9.22802e-18
8062.39942 9.07150e-18
8064.39784 8.89770e-18
8066.39625 8.80606e-18
8068.39467 8.72196e-18
8070.40317 8.58888e-18
8072.40159 8.46383e-18
8074.40000 8.41119e-18
8076.39841 8.44257e-18
8078.39683 8.50432e-18
8080.40534 8.54606e-18
8082.40375 8.56233e-18
8084.40216 8.50611e-18
8086.40058 8.42202e-18
8088.40908 8.32048e-18
8090.40750 8.25320e-18
8092.40591 8.25990e-18
8094.40433 8.38293e-18
8096.40274 8.53804e-18
8098.41125 8.63701e-18
8100.40966 8.71666e-18
8102.40808 8.79570e-18
8104.40649 8.85612e-18
8106.40490 8.87551e-18
8108.41341 8.83720e-18
8110.41182 8.75910e-18
8112.41024 8.64362e-18
8114.40865 8.52137e-18
8116.41716 8.42225e-18
8118.41557 8.34251e-18
8120.41399 8.26651e-18
8122.41240 8.19636e-18
8124.41082 8.14520e-18
8126.41932 8.12861e-18
8128.41774 8.13967e-18
8130.41615 8.19418e-18
8132.41456 8.25476e-18
8134.42307 8.29283e-18
8136.42149 8.29626e-18
8138.41990 8.27508e-18
8140.41831 8.23965e-18
8142.41673 8.22135e-18
8144.42523 8.28995e-18
8146.42365 8.37280e-18
8148.42206 8.43354e-18
8150.42048 8.44670e-18
8152.41889 8.40379e-18
8154.42740 8.30934e-18
8156.42581 8.21434e-18
8158.42423 8.20920e-18
8160.42264 8.21170e-18
8162.43115 8.19301e-18
8164.42956 8.12978e-18
8166.42797 7.99382e-18
8168.42639 7.80710e-18
8170.42480 7.64060e-18
8172.43331 7.59339e-18
8174.43172 7.59303e-18
8176.43014 7.62674e-18
8178.42855 7.65667e-18
8180.43706 7.65051e-18
8182.43547 7.60374e-18
8184.43389 7.54566e-18
8186.43230 7.50402e-18
8188.43071 7.48366e-18
8190.43922 7.50066e-18
8192.43764 7.56090e-18
8194.43605 7.69028e-18
8196.43446 7.85359e-18
8198.43288 8.01734e-18
8200.44138 8.13056e-18
8202.43980 8.19511e-18
8204.43821 8.17105e-18
8206.43663 8.09139e-18
8208.44513 7.94843e-18
8210.44355 7.78896e-18
8212.44196 7.64229e-18
8214.44038 7.54719e-18
8216.43879 7.48836e-18
8218.44730 7.47121e-18
8220.44571 7.49719e-18
8222.44412 7.60151e-18
8224.44254 7.71310e-18
8226.44095 7.77514e-18
8228.44946 7.75621e-18
8230.44787 7.68954e-18
8232.44629 7.59231e-18
8234.44470 7.48118e-18
8236.45321 7.38102e-18
8238.45162 7.29274e-18
8240.45004 7.22004e-18
8242.44845 7.16174e-18
8244.44686 7.11267e-18
8246.45537 7.06812e-18
8248.45378 7.02979e-18
8250.45220 6.98360e-18
8252.45061 6.96330e-18
8254.45912 7.02011e-18
8256.45753 7.09944e-18
8258.45595 7.13758e-18
8260.45436 7.08680e-18
8262.45278 6.99137e-18
8264.46128 6.86454e-18
8266.45970 6.74970e-18
8268.45811 6.72170e-18
8270.45653 6.71357e-18
8272.45494 6.64004e-18
8274.46345 6.49816e-18
8276.46186 6.37321e-18
8278.46027 6.35298e-18
8280.45869 6.39243e-18
8282.46720 6.52621e-18
8284.46561 6.65693e-18
8286.46402 6.69613e-18
8288.46244 6.64479e-18
8290.46085 6.58354e-18
8292.46936 6.56887e-18
8294.46777 6.53928e-18
8296.46619 6.43152e-18
8298.46460 6.30297e-18
8300.46301 6.17666e-18
8302.47152 6.07420e-18
8304.46994 5.99904e-18
8306.46835 5.95970e-18
8308.46676 5.94452e-18
8310.47527 5.95904e-18
8312.47368 5.95279e-18
8314.47210 5.86648e-18
8316.47051 5.73618e-18
8318.46893 5.59800e-18
8320.47743 5.48567e-18
8322.47585 5.39318e-18
8324.47426 5.33487e-18
8326.47268 5.29194e-18
8328.47109 5.25882e-18
8330.47960 5.21956e-18
8332.47801 5.14434e-18
8334.47642 5.05966e-18
8336.47484 5.02753e-18
8338.48335 5.09748e-18
8340.48176 5.15930e-18
8342.48017 5.07599e-18
8344.47859 4.94596e-18
8346.47700 4.82703e-18
8348.48551 4.72117e-18
8350.48392 4.57958e-18
8352.48234 4.40137e-18
8354.48075 4.25438e-18
8356.48926 4.25799e-18
8358.48767 4.29475e-18
8360.48609 4.31774e-18
8362.48450 4.29921e-18
8364.48291 4.22456e-18
8366.49142 4.10138e-18
8368.48983 3.97709e-18
8370.48825 3.91401e-18
8372.48666 3.86217e-18
8374.48508 3.79670e-18
8376.49358 3.72235e-18
8378.49200 3.63790e-18
8380.49041 3.55747e-18
8382.48883 3.49718e-18
8384.49733 3.47822e-18
8386.49575 3.47844e-18
8388.49416 3.48808e-18
8390.49257 3.49791e-18
8392.49099 3.50220e-18
8394.49950 3.49355e-18
8396.49791 3.45990e-18
8398.49632 3.40786e-18
8400.49474 3.38176e-18
8402.50324 3.48107e-18
8404.50166 3.59703e-18
8406.50007 3.66215e-18
8408.49849 3.69546e-18
8410.49690 3.74719e-18
8412.50541 3.83113e-18
8414.50382 3.90475e-18
8416.50224 3.91930e-18
8418.50065 3.92852e-18
8420.49906 3.98027e-18
8422.50757 4.03736e-18
8424.50598 4.05938e-18
8426.50440 4.03876e-18
8428.50281 4.00369e-18
8430.51132 3.97983e-18
8432.50973 3.97527e-18
8434.50815 4.02593e-18
8436.50656 4.09474e-18
8438.50497 4.15025e-18
8440.51348 4.19502e-18
8442.51190 4.25649e-18
8444.51031 4.35136e-18
8446.50872 4.45552e-18
8448.50714 4.55094e-18
8450.51564 4.63556e-18
8452.51406 4.68067e-18
8454.51247 4.73079e-18
8456.51089 4.84294e-18
8458.51939 5.03950e-18
8460.51781 5.25278e-18
8462.51622 5.41440e-18
8464.51464 5.54054e-18
8466.51305 5.62008e-18
8468.52156 5.65380e-18
8470.51997 5.63396e-18
8472.51839 5.57838e-18
8474.51680 5.50673e-18
8476.52531 5.45148e-18
8478.52372 5.42875e-18
8480.52213 5.50435e-18
8482.52055 5.59617e-18
8484.51896 5.64015e-18
8486.52747 5.61989e-18
8488.52588 5.56690e-18
8490.52430 5.50807e-18
8492.52271 5.46604e-18
8494.52113 5.48270e-18
8496.52963 5.55244e-18
8498.52805 5.71079e-18
8500.52646 5.89720e-18
8502.52487 6.04787e-18
8504.53338 6.10866e-18
8506.53180 6.13332e-18
8508.53021 6.14616e-18
8510.52862 6.17123e-18
8512.52704 6.26263e-18
8514.53554 6.36828e-18
8516.53396 6.44035e-18
8518.53237 6.43974e-18
8520.53079 6.38005e-18
8522.52920 6.25004e-18
8524.53771 6.12065e-18
8526.53612 6.05682e-18
8528.53454 6.05909e-18
8530.53295 6.15422e-18
8532.54146 6.29219e-18
8534.53987 6.39533e-18
8536.53828 6.38311e-18
8538.53670 6.36458e-18
8540.53511 6.45311e-18
8542.54362 6.56648e-18
8544.54203 6.65010e-18
8546.54045 6.71358e-18
8548.53886 6.79720e-18
8550.53728 6.92536e-18
8552.54578 7.07263e-18
8554.54420 7.23515e-18
8556.54261 7.37758e-18
8558.54102 7.45784e-18
8560.54953 7.49796e-18
8562.54795 7.52309e-18
8564.54636 7.55910e-18
8566.54477 7.60105e-18
8568.54319 7.65694e-18
8570.55169 7.74580e-18
8572.55011 7.91222e-18
8574.54852 8.10377e-18
8576.54694 8.27204e-18
8578.54535 8.40590e-18
8580.55386 8.54403e-18
8582.55227 8.71448e-18
8584.55069 8.89148e-18
8586.54910 9.07727e-18
8588.55761 9.23277e-18
8590.55602 9.29568e-18
8592.55443 9.31974e-18
8594.55285 9.39956e-18
8596.55126 9.59999e-18
8598.55977 9.81451e-18
8600.55818 9.91177e-18
8602.55660 9.99695e-18
8604.55501 1.01307e-17
8606.55343 1.02809e-17
8608.56193 1.03893e-17
8610.56035 1.04373e-17
8612.55876 1.04761e-17
8614.55717 1.05552e-17
8616.56568 1.06615e-17
8618.56409 1.08203e-17
8620.56251 1.09908e-17
8622.56092 1.11288e-17
8624.55934 1.12328e-17
8626.56784 1.13539e-17
8628.56626 1.15373e-17
8630.56467 1.17145e-17
8632.56309 1.17943e-17
8634.57159 1.18729e-17
8636.57001 1.20382e-17
8638.56842 1.22735e-17
8640.56684 1.24971e-17
8642.56525 1.26523e-17
8644.57376 1.28094e-17
8646.57217 1.30461e-17
8648.57058 1.32948e-17
8650.56900 1.35638e-17
8652.56741 1.37640e-17
8654.57592 1.37976e-17
8656.57433 1.36403e-17
8658.57275 1.34427e-17
8660.57116 1.33804e-17
8662.57967 1.33848e-17
8664.57808 1.34865e-17
8666.57650 1.36256e-17
8668.57491 1.37571e-17
8670.57332 1.38430e-17
8672.58183 1.39117e-17
8674.58025 1.39694e-17
8676.57866 1.39724e-17
8678.57707 1.38395e-17
8680.57549 1.36628e-17
8682.58399 1.35021e-17
8684.58241 1.33982e-17
8686.58082 1.33290e-17
8688.57924 1.33019e-17
8690.58774 1.33245e-17
8692.58616 1.34410e-17
8694.58457 1.35735e-17
8696.58299 1.36692e-17
8698.58140 1.37213e-17
8700.58991 1.37527e-17
8702.58832 1.37774e-17
8704.58673 1.37984e-17
8706.58515 1.38310e-17
8708.59366 1.38630e-17
8710.59207 1.38940e-17
8712.59048 1.39142e-17
8714.58890 1.38900e-17
8716.58731 1.38564e-17
8718.59582 1.38921e-17
8720.59423 1.41093e-17
8722.59265 1.43835e-17
8724.59106 1.46738e-17
8726.58947 1.49009e-17
8728.59798 1.49833e-17
8730.59640 1.49371e-17
8732.59481 1.48625e-17
8734.59322 1.48490e-17
8736.60173 1.48159e-17
8738.60014 1.46961e-17
8740.59856 1.45456e-17
8742.59697 1.43722e-17
8744.59539 1.42308e-17
8746.60389 1.41628e-17
8748.60231 1.42030e-17
8750.60072 1.42890e-17
8752.59914 1.43768e-17
8754.60764 1.44373e-17
8756.60606 1.44263e-17
8758.60447 1.43527e-17
8760.60288 1.42252e-17
8762.60130 1.40742e-17
8764.60981 1.39241e-17
8766.60822 1.38207e-17
8768.60663 1.37593e-17
8770.60505 1.37723e-17
8772.60346 1.38177e-17
8774.61197 1.38685e-17
8776.61038 1.38968e-17
8778.60880 1.39080e-17
8780.60721 1.38918e-17
8782.61572 1.38589e-17
8784.61413 1.37951e-17
8786.61254 1.37501e-17
8788.61096 1.37640e-17
8790.60937 1.38406e-17
8792.61788 1.39619e-17
8794.61629 1.41051e-17
8796.61471 1.42510e-17
8798.61312 1.43804e-17
8800.61154 1.44499e-17
8802.62004 1.44066e-17
8804.61846 1.42718e-17
8806.61687 1.40635e-17
8808.61529 1.38313e-17
8810.62379 1.36133e-17
8812.62221 1.34981e-17
8814.62062 1.33900e-17
8816.61903 1.32178e-17
8818.61745 1.30176e-17
8820.62596 1.28048e-17
8822.62437 1.26332e-17
8824.62278 1.25364e-17
8826.62120 1.25783e-17
8828.62970 1.27136e-17
8830.62812 1.30111e-17
8832.62653 1.32659e-17
8834.62495 1.32803e-17
8836.62336 1.30896e-17
8838.63187 1.28698e-17
8840.63028 1.27682e-17
8842.62870 1.26942e-17
8844.62711 1.26368e-17
8846.62552 1.25626e-17
8848.63403 1.24067e-17
8850.63244 1.22374e-17
8852.63086 1.21580e-17
8854.62927 1.22028e-17
8856.63778 1.22470e-17
8858.63619 1.21439e-17
8860.63461 1.19933e-17
8862.63302 1.18213e-17
8864.63144 1.16489e-17
8866.63994 1.14839e-17
8868.63836 1.13365e-17
8870.63677 1.11970e-17
8872.63518 1.10612e-17
8874.63360 1.09298e-17
8876.64211 1.07872e-17
8878.64052 1.06663e-17
8880.63893 1.06045e-17
8882.63735 1.05880e-17
8884.64585 1.05771e-17
8886.64427 1.05318e-17
8888.64268 1.04724e-17
8890.64110 1.03837e-17
8892.63951 1.03078e-17
8894.64802 1.02805e-17
8896.64643 1.02953e-17
8898.64485 1.03420e-17
8900.64326 1.03882e-17
8902.65177 1.03980e-17
8904.65018 1.02784e-17
8906.64859 1.01394e-17
8908.64701 1.00107e-17
8910.64542 9.96549e-18
8912.65393 1.00969e-17
8914.65234 1.03661e-17
8916.65076 1.06070e-17
8918.64917 1.06096e-17
8920.64759 1.04832e-17
8922.65609 1.02062e-17
8924.65451 9.87283e-18
8926.65292 9.55514e-18
8928.65133 9.28377e-18
8930.65984 8.99138e-18
8932.65826 8.65772e-18
8934.65667 8.39507e-18
8936.65508 8.38425e-18
8938.65350 8.46009e-18
8940.66200 8.54411e-18
8942.66042 8.57487e-18
8944.65883 8.54606e-18
8946.65725 8.44592e-18
8948.66575 8.33691e-18
8950.66417 8.31962e-18
8952.66258 8.29743e-18
8954.66100 8.19301e-18
8956.65941 8.06764e-18
8958.66792 8.01750e-18
8960.66633 8.05363e-18
8962.66474 8.05908e-18
8964.66316 7.89127e-18
8966.66157 7.71942e-18
8968.67008 7.69067e-18
8970.66849 7.70755e-18
8972.66691 7.68005e-18
8974.66532 7.57402e-18
8976.67383 7.43659e-18
8978.67224 7.29417e-18
8980.67066 7.14433e-18
8982.66907 6.97190e-18
8984.66748 6.83730e-18
8986.67599 6.81202e-18
8988.67441 6.85771e-18
8990.67282 6.89585e-18
8992.67123 6.85979e-18
8994.66965 6.80533e-18
8996.67815 6.76216e-18
8998.67657 6.72695e-18
9000.67498 6.69088e-18
9002.67340 6.68632e-18
9004.68190 6.76605e-18
9006.68032 6.91732e-18
9008.67873 7.04421e-18
9010.67714 7.01367e-18
9012.67556 6.92114e-18
9014.68407 6.78381e-18
9016.68248 6.64666e-18
9018.68089 6.55069e-18
9020.67931 6.49638e-18
9022.67772 6.42261e-18
9024.68623 6.27447e-18
9026.68464 6.14654e-18
9028.68306 6.14455e-18
9030.68147 6.19137e-18
9032.68998 6.23130e-18
9034.68839 6.25451e-18
9036.68681 6.29594e-18
9038.68522 6.37097e-18
9040.68363 6.45367e-18
9042.69214 6.51542e-18
9044.69056 6.57377e-18
9046.68897 6.63910e-18
9048.68738 6.70434e-18
9050.68580 6.75547e-18
9052.69430 6.79021e-18
9054.69272 6.82908e-18
9056.69113 6.90827e-18
9058.68955 6.96857e-18
9060.69805 6.93535e-18
9062.69647 6.88417e-18
9064.69488 6.90228e-18
9066.69330 7.00593e-18
9068.69171 7.11491e-18
9070.70022 7.15389e-18
9072.69863 7.16193e-18
9074.69704 7.13270e-18
9076.69546 7.09602e-18
9078.69387 7.05782e-18
9080.70238 7.05645e-18
9082.70079 7.12658e-18
9084.69921 7.29694e-18
9086.69762 7.47723e-18
9088.70613 7.57337e-18
9090.70454 7.60340e-18
9092.70296 7.53903e-18
9094.70137 7.42338e-18
9096.69978 7.29165e-18
9098.70829 7.20048e-18
9100.70671 7.15390e-18
9102.70512 7.20858e-18
9104.70353 7.30048e-18
9106.70195 7.39744e-18
9108.71045 7.49079e-18
9110.70887 7.59649e-18
9112.70728 7.69492e-18
9114.70570 7.75505e-18
9116.71420 7.72760e-18
9118.71262 7.68693e-18
9120.71103 7.71325e-18
9122.70945 7.74242e-18
9124.70786 7.72541e-18
9126.71637 7.63631e-18
9128.71478 7.48143e-18
9130.71319 7.26786e-18
9132.71161 7.06736e-18
9134.72012 6.98676e-18
9136.71853 6.96606e-18
9138.71694 7.00526e-18
9140.71536 7.04102e-18
9142.71377 7.01047e-18
9144.72228 6.87611e-18
9146.72069 6.73968e-18
9148.71911 6.71189e-18
9150.71752 6.75864e-18
9152.71593 6.95218e-18
9154.72444 7.15787e-18
9156.72286 7.23309e-18
9158.72127 7.12027e-18
9160.71968 6.96583e-18
9162.72819 6.90665e-18
9164.72660 6.87485e-18
9166.72502 6.85704e-18
9168.72343 6.86142e-18
9170.72185 6.90626e-18
9172.73035 6.97680e-18
9174.72877 7.04819e-18
9176.72718 7.08733e-18
9178.72559 7.10254e-18
9180.73410 7.06729e-18
9182.73252 7.02865e-18
9184.73093 7.01430e-18
9186.72934 7.04410e-18
9188.72776 7.12499e-18
9190.73626 7.25126e-18
9192.73468 7.37102e-18
9194.73309 7.37636e-18
9196.73151 7.37643e-18
9198.72992 7.45041e-18
9200.73843 7.55218e-18
9202.73684 7.59921e-18
9204.73526 7.56740e-18
9206.73367 7.54171e-18
9208.74218 7.62235e-18
9210.74059 7.70755e-18
9212.73901 7.71221e-18
9214.73742 7.70141e-18
9216.73583 7.74543e-18
9218.74434 7.86145e-18
9220.74275 8.00262e-18
9222.74117 8.12908e-18
9224.73958 8.22470e-18
9226.73800 8.23109e-18
9228.74650 8.20453e-18
9230.74492 8.19223e-18
9232.74333 8.19246e-18
9234.74175 8.16365e-18
9236.75025 8.08322e-18
9238.74867 7.99421e-18
9240.74708 7.92990e-18
9242.74549 7.90109e-18
9244.74391 7.93527e-18
9246.75242 8.01407e-18
9248.75083 8.12192e-18
9250.74924 8.22517e-18
9252.74766 8.30428e-18
9254.75616 8.29424e-18
9256.75458 8.29081e-18
9258.75299 8.38822e-18
9260.75141 8.51686e-18
9262.74982 8.61038e-18
9264.75833 8.62003e-18
9266.75674 8.56622e-18
9268.75516 8.44226e-18
9270.75357 8.29719e-18
9272.75198 8.16825e-18
9274.76049 8.07683e-18
9276.75890 8.04101e-18
9278.75732 8.06476e-18
9280.75573 8.14567e-18
9282.76424 8.26472e-18
9284.76265 8.36011e-18
9286.76107 8.30288e-18
9288.75948 8.21590e-18
9290.75790 8.18678e-18
9292.76640 8.19231e-18
9294.76482 8.15018e-18
9296.76323 8.03603e-18
9298.76164 7.93792e-18
9300.76006 7.95559e-18
9302.76857 8.05285e-18
9304.76698 8.32110e-18
9306.76539 8.57074e-18
9308.76381 8.61365e-18
9310.77231 8.37911e-18
9312.77073 8.02809e-18
9314.76914 7.68898e-18
9316.76756 7.48365e-18
9318.76597 7.74343e-18
9320.77448 8.10471e-18
9322.77289 8.25188e-18
9324.77131 8.11148e-18
9326.76972 7.89743e-18
9328.77823 7.76158e-18
9330.77664 7.64384e-18
9332.77505 7.52549e-18
9334.77347 7.47493e-18
9336.77188 7.59264e-18
9338.78039 7.79254e-18
9340.77880 7.97584e-18
9342.77722 8.00870e-18
9344.77563 7.89330e-18
9346.77405 7.38112e-18
9348.78255 6.96442e-18
9350.78097 7.09675e-18
9352.77938 7.53027e-18
9354.77779 7.93239e-18
9356.78630 8.07854e-18
9358.78471 8.12737e-18
9360.78313 8.12215e-18
9362.78154 8.06235e-18
9364.77996 7.94243e-18
9366.78846 7.81278e-18
9368.78688 7.65411e-18
9370.78529 7.58171e-18
9372.78371 7.73888e-18
9374.79221 8.28505e-18
9376.79063 8.85316e-18
9378.78904 9.09502e-18
9380.78746 9.09089e-18
9382.78587 8.77872e-18
9384.79438 8.32601e-18
9386.79279 7.90607e-18
9388.79120 7.71290e-18
9390.78962 7.60422e-18
9392.78803 7.50638e-18
9394.79654 7.45707e-18
9396.79495 7.49305e-18
9398.79337 7.55500e-18
9400.79178 7.55484e-18
9402.80029 7.48781e-18
9404.79870 7.49328e-18
9406.79712 7.77498e-18
9408.79553 8.06453e-18
9410.79394 8.16194e-18
9412.80245 8.13313e-18
9414.80086 8.06149e-18
9416.79928 7.98207e-18
9418.79769 7.84611e-18
9420.79611 7.63450e-18
9422.80461 7.46836e-18
9424.80303 7.51874e-18
9426.80144 7.65686e-18
9428.79986 7.83521e-18
9430.80836 7.95022e-18
9432.80678 7.93340e-18
9434.80519 7.72198e-18
9436.80361 7.48663e-18
9438.80202 7.42181e-18
9440.81053 7.44926e-18
9442.80894 7.62203e-18
9444.80735 7.80609e-18
9446.80577 7.86285e-18
9448.81428 7.70640e-18
9450.81269 7.48134e-18
9452.81110 7.27884e-18
9454.80952 7.20495e-18
9456.80793 7.54869e-18
9458.81644 7.96026e-18
9460.81485 8.06126e-18
9462.81327 7.75509e-18
9464.81168 7.37168e-18
9466.81009 7.20627e-18
9468.81860 7.19337e-18
9470.81702 7.46968e-18
9472.81543 7.86254e-18
9474.81384 8.31503e-18
9476.82235 8.64752e-18
9478.82076 8.75529e-18
9480.81918 8.49521e-18
9482.81759 8.09731e-18
9484.81601 7.70689e-18
9486.82451 7.42030e-18
9488.82293 7.39602e-18
9490.82134 7.54987e-18
9492.81976 7.76609e-18
9494.81817 7.88590e-18
9496.82668 7.87944e-18
9498.82509 7.53254e-18
9500.82350 7.13508e-18
9502.82192 6.84104e-18
9504.83043 6.70310e-18
9506.82884 6.74274e-18
9508.82725 6.92550e-18
9510.82567 7.15162e-18
9512.82408 7.28987e-18
9514.83259 7.35533e-18
9516.83100 7.23362e-18
9518.82942 7.09541e-18
9520.82783 7.11710e-18
9522.82624 7.28172e-18
9524.83475 7.41896e-18
9526.83317 7.37180e-18
9528.83158 7.23791e-18
9530.82999 6.99063e-18
9532.83850 6.76515e-18
9534.83691 6.69908e-18
9536.83533 6.74494e-18
9538.83374 6.77993e-18
9540.83216 6.70946e-18
9542.84066 6.60297e-18
9544.83908 6.46211e-18
9546.83749 6.36000e-18
9548.83591 6.38665e-18
9550.83432 6.48489e-18
9552.84283 6.59635e-18
9554.84124 6.65263e-18
9556.83965 6.65090e-18
9558.83807 6.53728e-18
9560.84658 6.39555e-18
9562.84499 6.29553e-18
9564.84340 6.21102e-18
9566.84182 6.11177e-18
9568.84023 5.99168e-18
9570.84874 5.86117e-18
9572.84715 5.73170e-18
9574.84557 5.63248e-18
9576.84398 5.59519e-18
9578.84239 5.63149e-18
9580.85090 5.79541e-18
9582.84931 6.01188e-18
9584.84773 6.19634e-18
9586.84614 6.24837e-18
9588.85465 6.21670e-18
9590.85306 6.05665e-18
9592.85148 5.88334e-18
9594.84989 5.75728e-18
9596.84831 5.72430e-18
9598.85681 5.81599e-18
9600.85523 6.01376e-18
9602.85364 6.21974e-18
9604.85206 6.30130e-18
9606.86056 6.31412e-18
9608.85898 6.19926e-18
9610.85739 6.08937e-18
9612.85580 6.12244e-18
9614.85422 6.30790e-18
9616.86273 6.50801e-18
9618.86114 6.58667e-18
9620.85955 6.58039e-18
9622.85797 6.40271e-18
9624.85638 6.20115e-18
9626.86489 6.08027e-18
9628.86330 6.08159e-18
9630.86172 6.18058e-18
9632.86013 6.34075e-18
9634.86864 6.45718e-18
9636.86705 6.26816e-18
9638.86547 6.07566e-18
9640.86388 6.09510e-18
9642.86229 6.26522e-18
9644.87080 6.44200e-18
9646.86921 6.51887e-18
9648.86763 6.54771e-18
9650.86604 6.51856e-18
9652.86446 6.46212e-18
9654.87296 6.37772e-18
9656.87138 6.31923e-18
9658.86979 6.33956e-18
9660.86821 6.44283e-18
9662.87671 6.56652e-18
9664.87513 6.64594e-18
9666.87354 6.69455e-18
9668.87195 6.68990e-18
9670.87037 6.65042e-18
9672.87888 6.57158e-18
9674.87729 6.49156e-18
9676.87570 6.44685e-18
9678.87412 6.47979e-18
9680.88262 6.53534e-18
9682.88104 6.56999e-18
9684.87945 6.59264e-18
9686.87787 6.59128e-18
9688.87628 6.58544e-18
9690.88479 6.60898e-18
9692.88320 6.66774e-18
9694.88162 6.70552e-18
9696.88003 6.63955e-18
9698.87844 6.53719e-18
9700.88695 6.40115e-18
9702.88536 6.28974e-18
9704.88378 6.24572e-18
9706.88219 6.29627e-18
9708.89070 6.40958e-18
9710.88911 6.57170e-18
9712.88753 6.69869e-18
9714.88594 6.64135e-18
9716.88436 6.54054e-18
9718.89286 6.53792e-18
9720.89128 6.63245e-18
9722.88969 6.68115e-18
9724.88810 6.58156e-18
9726.89661 6.51079e-18
9728.89503 6.69834e-18
9730.89344 6.93353e-18
9732.89185 7.08774e-18
9734.89027 7.13237e-18
9736.89877 7.10939e-18
9738.89719 7.05886e-18
9740.89560 7.02693e-18
9742.89402 7.14961e-18
9744.89243 7.26447e-18
9746.90094 7.27774e-18
9748.89935 7.19231e-18
9750.89776 7.01515e-18
9752.89618 6.80485e-18
9754.90469 6.64098e-18
9756.90310 6.66713e-18
9758.90151 6.72337e-18
9760.89993 6.71816e-18
9762.89834 6.64447e-18
9764.90685 6.47285e-18
9766.90526 6.26075e-18
9768.90368 6.10364e-18
9770.90209 6.11584e-18
9772.90051 6.17162e-18
9774.90901 6.17178e-18
9776.90743 6.16372e-18
9778.90584 6.16287e-18
9780.90425 6.19636e-18
9782.91276 6.29358e-18
9784.91118 6.46103e-18
9786.90959 6.61910e-18
9788.90800 6.64272e-18
9790.90642 6.61933e-18
9792.91492 6.58606e-18
9794.91334 6.53657e-18
9796.91175 6.43030e-18
9798.91017 6.28091e-18
9800.91867 6.15129e-18
9802.91709 6.13400e-18
9804.91550 6.16025e-18
9806.91392 6.21583e-18
9808.91233 6.26980e-18
9810.92084 6.29203e-18
9812.91925 6.28616e-18
9814.91766 6.30325e-18
9816.91608 6.39220e-18
9818.91449 6.46240e-18
9820.92300 6.43223e-18
9822.92141 6.32575e-18
9824.91983 6.12514e-18
9826.91824 5.89301e-18
9828.92675 5.68696e-18
9830.92516 5.58575e-18
9832.92358 5.55132e-18
9834.92199 5.58819e-18
9836.92040 5.68163e-18
9838.92891 5.87941e-18
9840.92733 6.06186e-18
9842.92574 6.07863e-18
9844.92415 5.88569e-18
9846.92257 5.70563e-18
9848.93107 5.83148e-18
9850.92949 6.01411e-18
9852.92790 6.14694e-18
9854.92632 6.20862e-18
9856.93482 6.20699e-18
9858.93324 6.14413e-18
9860.93165 6.03821e-18
9862.93007 5.91020e-18
9864.92848 5.76964e-18
9866.93699 5.60052e-18
9868.93540 5.48345e-18
9870.93381 5.51165e-18
9872.93223 5.65105e-18
9874.94074 5.79416e-18
9876.93915 5.83911e-18
9878.93756 5.86251e-18
9880.93598 5.91880e-18
9882.93439 5.95598e-18
9884.94290 5.94700e-18
9886.94131 5.88096e-18
9888.93973 5.73554e-18
9890.93814 5.54295e-18
9892.93655 5.40233e-18
9894.94506 5.51860e-18
9896.94348 5.66205e-18
9898.94189 5.68095e-18
9900.94030 5.62456e-18
9902.94881 5.58379e-18
9904.94722 5.58911e-18
9906.94564 5.57417e-18
9908.94405 5.47649e-18
9910.94247 5.42577e-18
9912.95097 5.57418e-18
9914.94939 5.80357e-18
9916.94780 6.05902e-18
9918.94621 6.22714e-18
9920.95472 6.23942e-18
9922.95314 6.00456e-18
9924.95155 5.73623e-18
9926.94996 5.68043e-18
9928.94838 5.69625e-18
9930.95689 5.70988e-18
9932.95530 5.70903e-18
9934.95371 5.74591e-18
9936.95213 5.81630e-18
9938.95054 5.84360e-18
9940.95905 5.62621e-18
9942.95746 5.46389e-18
9944.95588 5.61188e-18
9946.95429 5.92651e-18
9948.96280 6.26413e-18
9950.96121 6.42557e-18
9952.95963 6.34361e-18
9954.95804 5.75821e-18
9956.95645 5.19588e-18
9958.96496 5.16626e-18
9960.96337 5.41298e-18
9962.96179 5.73571e-18
9964.96020 5.94306e-18
9966.95862 6.01390e-18
9968.96712 5.83934e-18
9970.96554 5.62988e-18
9972.96395 5.61423e-18
9974.96236 5.65624e-18
9976.97087 5.63999e-18
9978.96929 5.60860e-18
9980.96770 5.70567e-18
9982.96611 5.98779e-18
9984.96453 6.24148e-18
9986.97304 6.14469e-18
9988.97145 5.95469e-18
9990.96986 5.77460e-18
9992.96828 5.63053e-18
9994.97678 5.47215e-18
9996.97520 5.32314e-18
9998.97361 5.24159e-18
10000.97203 5.33087e-18
10002.97044 5.46814e-18
