# wavelength flux
3699.81107 9.73520e-18
3701.01623 9.55892e-18
3702.21135 9.66488e-18
3703.41651 9.87979e-18
3704.61163 1.01143e-17
3705.81678 1.00432e-17
3707.01190 1.01241e-17
3708.21706 1.02347e-17
3709.41218 9.62429e-18
3710.61734 1.01628e-17
3711.81246 1.03341e-17
3713.01762 1.05065e-17
3714.21273 1.03333e-17
3715.41789 1.00845e-17
3716.61301 1.01085e-17
3717.81817 1.03791e-17
3719.01329 1.04007e-17
3720.20840 1.06323e-17
3721.41356 1.06773e-17
3722.60868 1.09779e-17
3723.81384 1.06830e-17
3725.00896 1.01286e-17
3726.21412 1.02962e-17
3727.40923 1.08223e-17
3728.61440 1.04458e-17
3729.80951 1.05807e-17
3731.01467 1.08841e-17
3732.20979 1.10056e-17
3733.41495 1.07338e-17
3734.61007 1.10806e-17
3735.81523 1.10091e-17
3737.01034 1.09889e-17
3738.21550 1.14955e-17
3739.41062 1.09238e-17
3740.61578 1.10282e-17
3741.81090 1.15012e-17
3743.00601 1.13774e-17
3744.21117 1.10307e-17
3745.40629 1.10298e-17
3746.61145 1.11316e-17
3747.80657 1.08027e-17
3749.01173 1.09255e-17
3750.20685 1.06883e-17
3751.41200 1.03541e-17
3752.60712 1.00689e-17
3753.81228 9.95284e-18
3755.00740 1.01069e-17
3756.21256 9.90342e-18
3757.40768 9.70895e-18
3758.61284 9.50383e-18
3759.80795 9.12899e-18
3761.01311 9.22987e-18
3762.20823 9.32062e-18
3763.40335 9.36016e-18
3764.60851 8.78989e-18
3765.80362 8.77778e-18
3767.00878 8.33596e-18
3768.20390 8.06015e-18
3769.40906 8.55661e-18
3770.60418 8.30413e-18
3771.80934 7.82194e-18
3773.00445 7.37752e-18
3774.20962 7.54814e-18
3775.40473 7.00195e-18
3776.60989 6.39998e-18
3777.80501 6.45393e-18
3779.01017 6.31894e-18
3780.20529 5.98837e-18
3781.41045 5.46146e-18
3782.60556 5.49102e-18
3783.80068 5.60897e-18
3785.00584 5.27376e-18
3786.20096 5.23593e-18
3787.40612 5.09003e-18
3788.60123 5.16590e-18
3789.80639 4.67187e-18
3791.00151 4.83029e-18
3792.20667 4.61822e-18
3793.40179 4.42537e-18
3794.60695 4.36073e-18
3795.80206 4.44052e-18
3797.00722 4.37091e-18
3798.20234 4.42979e-18
3799.40750 4.65041e-18
3800.60262 4.53097e-18
3801.80778 4.37074e-18
3803.00290 4.34973e-18
3804.20806 4.26154e-18
3805.40317 4.42196e-18
3806.59829 4.12009e-18
3807.80345 4.02758e-18
3808.99857 4.14196e-18
3810.20373 4.37839e-18
3811.39884 3.98716e-18
3812.60400 3.93324e-18
3813.79912 4.03034e-18
3815.00428 3.83252e-18
3816.19940 4.05559e-18
3817.40456 4.08184e-18
3818.59967 3.87674e-18
3819.80483 3.91666e-18
3820.99995 3.91147e-18
3822.20511 3.89517e-18
3823.40023 4.16650e-18
3824.60539 4.16415e-18
3825.80051 4.14765e-18
3826.99562 4.34022e-18
3828.20078 4.30866e-18
3829.39590 3.99666e-18
3830.60106 4.40022e-18
3831.79618 4.40693e-18
3833.00134 4.71636e-18
3834.19645 4.52739e-18
3835.40161 4.97677e-18
3836.59673 4.66197e-18
3837.80189 4.69854e-18
3838.99701 5.07651e-18
3840.20217 5.32761e-18
3841.39728 5.48591e-18
3842.60244 5.53182e-18
3843.79756 5.51830e-18
3845.00272 5.42048e-18
3846.19784 5.40832e-18
3847.39296 5.65450e-18
3848.59812 5.73402e-18
3849.79323 5.78650e-18
3850.99839 5.79621e-18
3852.19351 5.98252e-18
3853.39867 6.16248e-18
3854.59379 6.23609e-18
3855.79895 6.52937e-18
3856.99406 6.50911e-18
3858.19922 6.42137e-18
3859.39434 6.54903e-18
3860.59950 6.83147e-18
3861.79462 6.91332e-18
3862.99978 7.10425e-18
3864.19490 7.15212e-18
3865.40005 7.30882e-18
3866.59517 7.60848e-18
3867.80033 7.50650e-18
3868.99545 7.71959e-18
3870.19057 7.98303e-18
3871.39573 7.98496e-18
3872.59084 8.00164e-18
3873.79600 8.11130e-18
3874.99112 8.20282e-18
3876.19628 8.14061e-18
3877.39140 8.53049e-18
3878.59656 8.71533e-18
3879.79167 8.65535e-18
3880.99683 8.91880e-18
3882.19195 9.01708e-18
3883.39711 9.17643e-18
3884.59223 9.26417e-18
3885.79739 9.47437e-18
3886.99250 9.04376e-18
3888.19767 9.34302e-18
3889.39278 9.53036e-18
3890.58790 9.74042e-18
3891.79306 9.58759e-18
3892.98818 9.68440e-18
3894.19334 1.02347e-17
3895.38845 1.04154e-17
3896.59361 1.04165e-17
3897.78873 1.07609e-17
3898.99389 1.07138e-17
3900.18901 1.08970e-17
3901.39417 1.12803e-17
3902.58928 1.12300e-17
3903.79444 1.13194e-17
3904.98956 1.14480e-17
3906.19472 1.19707e-17
3907.38984 1.18152e-17
3908.59500 1.20826e-17
3909.79012 1.16112e-17
3910.98523 1.24362e-17
3912.19039 1.26017e-17
3913.38551 1.24606e-17
3914.59067 1.23197e-17
3915.78579 1.27275e-17
3916.99095 1.27739e-17
3918.18606 1.28449e-17
3919.39122 1.30559e-17
3920.58634 1.29652e-17
3921.79150 1.31106e-17
3922.98662 1.31291e-17
3924.19178 1.32761e-17
3925.38689 1.38317e-17
3926.59205 1.39827e-17
3927.78717 1.40084e-17
3928.99233 1.38157e-17
3930.18745 1.35281e-17
3931.38256 1.34635e-17
3932.58772 1.33550e-17
3933.78284 1.40872e-17
3934.98800 1.42242e-17
3936.18312 1.41030e-17
3937.38828 1.45282e-17
3938.58340 1.50103e-17
3939.78856 1.48558e-17
3940.98367 1.52905e-17
3942.18883 1.51446e-17
3943.38395 1.49180e-17
3944.58911 1.54501e-17
3945.78423 1.56618e-17
3946.98939 1.59620e-17
3948.18450 1.52527e-17
3949.38966 1.50210e-17
3950.58478 1.50486e-17
3951.77990 1.51361e-17
3952.98506 1.56477e-17
3954.18017 1.59841e-17
3955.38533 1.59901e-17
3956.58045 1.63953e-17
3957.78561 1.68543e-17
3958.98073 1.68471e-17
3960.18589 1.70037e-17
3961.38101 1.72866e-17
3962.58617 1.75160e-17
3963.78128 1.72633e-17
3964.98644 1.74224e-17
3966.18156 1.68207e-17
3967.38672 1.69687e-17
3968.58184 1.68846e-17
3969.78700 1.72656e-17
3970.98211 1.76305e-17
3972.18727 1.79880e-17
3973.38239 1.78950e-17
3974.57751 1.82607e-17
3975.78267 1.78143e-17
3976.97778 1.79248e-17
3978.18295 1.83109e-17
3979.37806 1.81942e-17
3980.58322 1.84082e-17
3981.77834 1.81482e-17
3982.98350 1.81445e-17
3984.17862 1.78047e-17
3985.38378 1.77135e-17
3986.57889 1.74903e-17
3987.78405 1.75855e-17
3988.97917 1.78249e-17
3990.18433 1.80372e-17
3991.37945 1.83160e-17
3992.58461 1.82697e-17
3993.77972 1.80749e-17
3994.97484 1.78813e-17
3996.18000 1.79355e-17
3997.37512 1.73783e-17
3998.58028 1.73592e-17
3999.77540 1.72710e-17
4000.98055 1.77214e-17
4002.17567 1.70741e-17
4003.38083 1.72070e-17
4004.57595 1.71310e-17
4005.78111 1.66105e-17
4006.97623 1.68337e-17
4008.18139 1.69187e-17
4009.37650 1.67613e-17
4010.58166 1.66385e-17
4011.77678 1.67497e-17
4012.98194 1.66949e-17
4014.17706 1.66287e-17
4015.38222 1.65824e-17
4016.57733 1.64713e-17
4017.77245 1.65617e-17
4018.97761 1.62129e-17
4020.17273 1.59841e-17
4021.37789 1.62573e-17
4022.57300 1.61247e-17
4023.77817 1.57013e-17
4024.97328 1.57777e-17
4026.17844 1.60799e-17
4027.37356 1.57377e-17
4028.57872 1.54826e-17
4029.77384 1.52039e-17
4030.97900 1.53129e-17
4032.17411 1.48739e-17
4033.37927 1.51671e-17
4034.57439 1.51222e-17
4035.77955 1.49361e-17
4036.97467 1.48630e-17
4038.16978 1.49448e-17
4039.37494 1.49590e-17
4040.57006 1.47029e-17
4041.77522 1.44888e-17
4042.97034 1.45318e-17
4044.17550 1.47393e-17
4045.37062 1.47595e-17
4046.57577 1.46913e-17
4047.77089 1.45149e-17
4048.97605 1.41287e-17
4050.17117 1.42440e-17
4051.37633 1.41143e-17
4052.57145 1.38196e-17
4053.77661 1.41065e-17
4054.97172 1.38054e-17
4056.17688 1.37997e-17
4057.37200 1.38839e-17
4058.56712 1.35999e-17
4059.77228 1.39863e-17
4060.96739 1.36174e-17
4062.17255 1.37725e-17
4063.36767 1.37586e-17
4064.57283 1.35543e-17
4065.76795 1.33335e-17
4066.97311 1.33983e-17
4068.16822 1.30744e-17
4069.37338 1.33141e-17
4070.56850 1.32823e-17
4071.77366 1.31498e-17
4072.96878 1.30134e-17
4074.17394 1.29208e-17
4075.36906 1.27654e-17
4076.57422 1.25321e-17
4077.76933 1.24547e-17
4078.96445 1.26164e-17
4080.16961 1.27863e-17
4081.36473 1.26514e-17
4082.56989 1.24667e-17
4083.76500 1.21660e-17
4084.97016 1.22270e-17
4086.16528 1.22154e-17
4087.37044 1.18406e-17
4088.56556 1.17424e-17
4089.77072 1.16206e-17
4090.96583 1.13739e-17
4092.17099 1.18457e-17
4093.36611 1.13150e-17
4094.57127 1.15381e-17
4095.76639 1.12728e-17
4096.97155 1.12116e-17
4098.16667 1.12627e-17
4099.37183 1.08711e-17
4100.56694 1.12316e-17
4101.76206 1.07211e-17
4102.96722 1.08430e-17
4104.16234 1.08620e-17
4105.36750 1.08011e-17
4106.56261 1.05633e-17
4107.76777 1.04596e-17
4108.96289 1.07015e-17
4110.16805 1.04481e-17
4111.36317 1.02606e-17
4112.56833 1.02282e-17
4113.76344 1.01912e-17
4114.96861 1.02894e-17
4116.16372 1.02324e-17
4117.36888 1.00793e-17
4118.56400 9.95928e-18
4119.75912 9.68717e-18
4120.96428 9.50146e-18
4122.15939 9.57922e-18
4123.36455 9.44321e-18
4124.55967 9.55503e-18
4125.76483 9.60358e-18
4126.95995 9.63365e-18
4128.16511 9.50734e-18
4129.36022 9.07410e-18
4130.56538 9.19767e-18
4131.76050 9.01416e-18
4132.96566 9.08560e-18
4134.16078 8.82610e-18
4135.36594 8.78718e-18
4136.56106 8.82002e-18
4137.76621 8.65188e-18
4138.96133 8.73358e-18
4140.16649 8.58303e-18
4141.36161 8.33742e-18
4142.55673 8.46470e-18
4143.76189 8.00220e-18
4144.95700 8.12084e-18
4146.16216 8.15281e-18
4147.35728 8.12111e-18
4148.56244 8.15300e-18
4149.75756 8.10941e-18
4150.96272 7.98766e-18
4152.15783 7.97634e-18
4153.36299 7.88906e-18
4154.55811 7.74636e-18
4155.76327 7.74263e-18
4156.95839 7.63918e-18
4158.16355 7.58098e-18
4159.35866 7.53828e-18
4160.56383 7.60042e-18
4161.75894 7.55847e-18
4162.95406 7.55921e-18
4164.15922 7.41578e-18
4165.35434 7.31623e-18
4166.55950 7.43295e-18
4167.75461 7.25168e-18
4168.95977 7.09502e-18
4170.15489 7.36598e-18
4171.36005 7.32547e-18
4172.55517 7.53576e-18
4173.76033 7.37416e-18
4174.95544 7.15493e-18
4176.16060 7.25249e-18
4177.35572 6.97234e-18
4178.56088 7.07933e-18
4179.75600 7.20383e-18
4180.96116 7.14220e-18
4182.15628 7.16642e-18
4183.35139 7.19611e-18
4184.55655 7.11657e-18
4185.75167 7.24161e-18
4186.95683 7.17700e-18
4188.15195 7.26206e-18
4189.35711 7.35751e-18
4190.55222 7.37294e-18
4191.75738 7.28201e-18
4192.95250 7.34472e-18
4194.15766 7.33662e-18
4195.35278 7.29270e-18
4196.55794 7.46850e-18
4197.75305 7.45465e-18
4198.95821 7.36509e-18
4200.15333 7.52817e-18
4201.35849 7.55248e-18
4202.55361 7.64494e-18
4203.74872 7.62423e-18
4204.95388 7.64180e-18
4206.14900 7.82035e-18
4207.35416 7.82397e-18
4208.54928 7.61783e-18
4209.75444 8.01528e-18
4210.94956 7.97875e-18
4212.15472 8.13813e-18
4213.34983 8.14239e-18
4214.55499 8.05615e-18
4215.75011 8.08328e-18
4216.95527 8.02773e-18
4218.15039 8.18982e-18
4219.35555 8.22491e-18
4220.55066 8.43543e-18
4221.75582 8.52330e-18
4222.95094 8.39066e-18
4224.14606 8.21711e-18
4225.35122 8.36998e-18
4226.54633 8.42930e-18
4227.75149 8.47872e-18
4228.94661 8.43276e-18
4230.15177 8.27427e-18
4231.34689 8.21157e-18
4232.55205 8.40237e-18
4233.74717 8.45596e-18
4234.95233 8.44365e-18
4236.14744 8.55185e-18
4237.35260 8.61552e-18
4238.54772 8.42689e-18
4239.75288 8.38179e-18
4240.94800 8.49432e-18
4242.15316 8.58908e-18
4243.34827 8.64210e-18
4244.55343 8.57518e-18
4245.74855 8.55641e-18
4246.94367 8.54808e-18
4248.14883 8.59721e-18
4249.34394 8.59532e-18
4250.54911 8.45955e-18
4251.74422 8.60764e-18
4252.94938 8.49883e-18
4254.14450 8.54307e-18
4255.34966 8.30492e-18
4256.54478 8.36190e-18
4257.74994 8.62777e-18
4258.94505 8.45748e-18
4260.15021 8.71861e-18
4261.34533 8.68824e-18
4262.55049 8.51216e-18
4263.74561 8.38811e-18
4264.95077 8.69500e-18
4266.14588 8.66310e-18
4267.35104 8.58529e-18
4268.54616 8.58412e-18
4269.74128 8.69406e-18
4270.94644 8.46932e-18
4272.14156 8.53052e-18
4273.34671 8.76233e-18
4274.54183 8.73514e-18
4275.74699 8.52588e-18
4276.94211 8.59111e-18
4278.14727 8.67307e-18
4279.34239 8.69259e-18
4280.54755 8.73131e-18
4281.74266 8.60620e-18
4282.94782 8.60054e-18
4284.14294 8.67847e-18
4285.34810 8.80591e-18
4286.54322 8.72662e-18
4287.74838 8.60530e-18
4288.94349 8.62400e-18
4290.13861 8.72558e-18
4291.34377 8.96043e-18
4292.53889 8.98098e-18
4293.74405 8.71139e-18
4294.93916 8.75577e-18
4296.14433 8.93080e-18
4297.33944 8.78552e-18
4298.54460 8.83997e-18
4299.73972 9.08808e-18
4300.94488 9.07917e-18
4302.14000 9.16514e-18
4303.34516 8.84484e-18
4304.54027 8.85401e-18
4305.74543 8.95523e-18
4306.94055 9.00073e-18
4308.14571 9.15648e-18
4309.34083 8.95029e-18
4310.53594 8.90208e-18
4311.74110 9.16628e-18
4312.93622 9.18165e-18
4314.14138 9.17753e-18
4315.33650 9.25606e-18
4316.54166 9.26703e-18
4317.73678 9.24409e-18
4318.94193 9.22124e-18
4320.13705 9.43213e-18
4321.34221 9.37819e-18
4322.53733 9.34788e-18
4323.74249 9.31680e-18
4324.93761 9.45664e-18
4326.14277 9.52182e-18
4327.33788 9.48121e-18
4328.54304 9.54694e-18
4329.73816 9.51167e-18
4330.94332 9.54935e-18
4332.13844 9.60074e-18
4333.33355 9.53484e-18
4334.53871 9.54784e-18
4335.73383 9.60462e-18
4336.93899 9.46856e-18
4338.13411 9.40437e-18
4339.33927 9.53588e-18
4340.53438 9.53370e-18
4341.73954 9.56917e-18
4342.93466 9.61345e-18
4344.13982 9.49444e-18
4345.33494 9.48490e-18
4346.54010 9.51988e-18
4347.73522 9.44338e-18
4348.94038 9.40257e-18
4350.13549 9.54108e-18
4351.34065 9.43767e-18
4352.53577 9.53986e-18
4353.73089 9.51912e-18
4354.93605 9.66022e-18
4356.13116 9.54541e-18
4357.33632 1.00131e-17
4358.53144 9.95899e-18
4359.73660 9.81872e-18
4360.93172 9.81912e-18
4362.13688 9.42526e-18
4363.33199 9.24345e-18
4364.53715 9.20119e-18
4365.73227 9.15268e-18
4366.93743 9.20032e-18
4368.13255 9.23639e-18
4369.33771 8.98575e-18
4370.53283 8.93348e-18
4371.73799 8.88427e-18
4372.93310 8.81841e-18
4374.12822 8.83100e-18
4375.33338 8.69170e-18
4376.52850 8.60604e-18
4377.73366 8.59050e-18
4378.92877 8.53623e-18
4380.13393 8.40384e-18
4381.32905 8.49926e-18
4382.53421 8.50659e-18
4383.72933 8.50134e-18
4384.93449 8.47127e-18
4386.12961 8.48365e-18
4387.33476 8.49011e-18
4388.52988 8.29269e-18
4389.73504 8.19159e-18
4390.93016 7.99084e-18
4392.13532 8.09115e-18
4393.33044 7.97516e-18
4394.52555 8.03345e-18
4395.73071 8.04868e-18
4396.92583 7.94797e-18
4398.13099 7.97090e-18
4399.32611 7.89008e-18
4400.53127 7.89602e-18
4401.72638 7.73337e-18
4402.93154 7.77089e-18
4404.12666 7.77301e-18
4405.33182 7.69090e-18
4406.52694 7.78365e-18
4407.73210 7.59537e-18
4408.92721 7.69246e-18
4410.13238 7.78083e-18
4411.32749 7.45095e-18
4412.53265 7.66792e-18
4413.72777 7.72652e-18
4414.92289 7.55833e-18
4416.12805 7.57315e-18
4417.32316 7.67343e-18
4418.52832 7.69924e-18
4419.72344 7.72061e-18
4420.92860 7.58359e-18
4422.12372 7.65572e-18
4423.32888 7.65506e-18
4424.52399 7.66545e-18
4425.72915 7.66291e-18
4426.92427 7.56870e-18
4428.12943 7.72586e-18
4429.32455 7.77360e-18
4430.52971 7.89958e-18
4431.72483 7.89120e-18
4432.92998 7.78620e-18
4434.12510 7.86578e-18
4435.32022 8.07826e-18
4436.52538 8.05339e-18
4437.72050 7.98170e-18
4438.92566 7.90052e-18
4440.12077 8.05064e-18
4441.32593 8.20160e-18
4442.52105 8.24066e-18
4443.72621 8.19878e-18
4444.92133 8.20463e-18
4446.12649 8.27876e-18
4447.32160 8.42391e-18
4448.52676 8.45996e-18
4449.72188 8.44072e-18
4450.92704 8.67292e-18
4452.12216 8.77886e-18
4453.32732 8.91935e-18
4454.52243 8.85234e-18
4455.72759 8.93925e-18
4456.92271 8.92731e-18
4458.11783 9.00539e-18
4459.32299 9.20029e-18
4460.51811 9.00715e-18
4461.72327 9.19887e-18
4462.91838 9.40589e-18
4464.12354 9.43613e-18
4465.31866 9.34256e-18
4466.52382 9.62332e-18
4467.71894 9.64825e-18
4468.92410 9.81269e-18
4470.11921 9.70656e-18
4471.32437 9.55689e-18
4472.51949 9.90931e-18
4473.72465 9.95423e-18
4474.91977 1.00208e-17
4476.12493 1.02010e-17
4477.32004 1.00277e-17
4478.51516 1.02426e-17
4479.72032 1.03577e-17
4480.91544 1.01316e-17
4482.12060 1.05018e-17
4483.31572 1.02926e-17
4484.52088 1.05240e-17
4485.71599 1.05249e-17
4486.92115 1.06199e-17
4488.11627 1.07079e-17
4489.32143 1.07541e-17
4490.51655 1.07205e-17
4491.72171 1.08709e-17
4492.91682 1.09003e-17
4494.12198 1.09638e-17
4495.31710 1.10347e-17
4496.52226 1.11051e-17
4497.71738 1.10787e-17
4498.92254 1.12423e-17
4500.11766 1.13320e-17
4501.31277 1.14345e-17
4502.51793 1.12916e-17
4503.71305 1.14211e-17
4504.91821 1.14448e-17
4506.11333 1.14826e-17
4507.31849 1.16655e-17
4508.51360 1.17455e-17
4509.71876 1.18590e-17
4510.91388 1.17525e-17
4512.11904 1.18834e-17
4513.31416 1.20777e-17
4514.51932 1.22071e-17
4515.71443 1.23381e-17
4516.91959 1.25313e-17
4518.11471 1.26239e-17
4519.31987 1.27380e-17
4520.51499 1.29346e-17
4521.71011 1.28522e-17
4522.91526 1.27061e-17
4524.11038 1.29089e-17
4525.31554 1.32582e-17
4526.51066 1.34622e-17
4527.71582 1.33682e-17
4528.91094 1.34882e-17
4530.11610 1.37659e-17
4531.31121 1.38563e-17
4532.51637 1.39038e-17
4533.71149 1.41049e-17
4534.91665 1.42070e-17
4536.11177 1.44609e-17
4537.31693 1.45088e-17
4538.51204 1.49298e-17
4539.71720 1.49790e-17
4540.91232 1.50543e-17
4542.10744 1.52194e-17
4543.31260 1.53281e-17
4544.50771 1.55282e-17
4545.71288 1.61522e-17
4546.90799 1.60155e-17
4548.11315 1.61144e-17
4549.30827 1.64146e-17
4550.51343 1.68346e-17
4551.70855 1.67564e-17
4552.91371 1.68745e-17
4554.10882 1.70210e-17
4555.31398 1.70417e-17
4556.50910 1.73755e-17
4557.71426 1.75103e-17
4558.90938 1.79098e-17
4560.11454 1.76171e-17
4561.30965 1.79375e-17
4562.51481 1.81420e-17
4563.70993 1.83551e-17
4564.90505 1.84312e-17
4566.11021 1.87540e-17
4567.30533 1.85121e-17
4568.51048 1.89060e-17
4569.70560 1.91737e-17
4570.91076 1.91395e-17
4572.10588 1.93717e-17
4573.31104 1.90962e-17
4574.50616 1.96122e-17
4575.71132 1.99549e-17
4576.90643 1.99942e-17
4578.11159 1.98882e-17
4579.30671 1.96705e-17
4580.51187 2.03179e-17
4581.70699 2.03674e-17
4582.91215 2.04904e-17
4584.10726 2.02255e-17
4585.30238 2.04420e-17
4586.50754 2.05224e-17
4587.70266 2.04511e-17
4588.90782 2.03757e-17
4590.10293 2.04317e-17
4591.30809 2.03490e-17
4592.50321 2.04162e-17
4593.70837 2.05368e-17
4594.90349 2.05585e-17
4596.10865 2.04442e-17
4597.30377 2.01794e-17
4598.50893 1.99108e-17
4599.70404 1.98877e-17
4600.90920 2.00942e-17
4602.10432 2.00993e-17
4603.30948 1.99696e-17
4604.50460 1.96372e-17
4605.69971 1.97687e-17
4606.90487 1.98665e-17
4608.09999 1.96250e-17
4609.30515 1.94231e-17
4610.50027 1.93998e-17
4611.70543 1.93941e-17
4612.90054 1.94126e-17
4614.10570 1.92609e-17
4615.30082 1.91217e-17
4616.50598 1.90110e-17
4617.70110 1.87860e-17
4618.90626 1.86604e-17
4620.10138 1.84651e-17
4621.30654 1.85308e-17
4622.50165 1.84076e-17
4623.70681 1.82701e-17
4624.90193 1.84249e-17
4626.09705 1.84841e-17
4627.30221 1.80471e-17
4628.49732 1.79392e-17
4629.70248 1.79764e-17
4630.89760 1.76208e-17
4632.10276 1.78879e-17
4633.29788 1.77279e-17
4634.50304 1.75852e-17
4635.69816 1.74576e-17
4636.90332 1.72072e-17
4638.09843 1.73491e-17
4639.30359 1.72296e-17
4640.49871 1.70772e-17
4641.70387 1.70293e-17
4642.89899 1.69320e-17
4644.10415 1.70643e-17
4645.29926 1.70646e-17
4646.49438 1.71264e-17
4647.69954 1.68155e-17
4648.89466 1.67208e-17
4650.09982 1.68547e-17
4651.29493 1.67025e-17
4652.50009 1.66588e-17
4653.69521 1.67135e-17
4654.90037 1.64722e-17
4656.09549 1.64821e-17
4657.30065 1.67548e-17
4658.49576 1.64262e-17
4659.70093 1.62577e-17
4660.89604 1.58387e-17
4662.10120 1.59569e-17
4663.29632 1.58102e-17
4664.50148 1.55476e-17
4665.69660 1.54533e-17
4666.90176 1.53150e-17
4668.09687 1.54308e-17
4669.29199 1.51770e-17
4670.49715 1.52398e-17
4671.69227 1.50284e-17
4672.89743 1.49933e-17
4674.09254 1.49621e-17
4675.29770 1.44490e-17
4676.49282 1.46749e-17
4677.69798 1.45659e-17
4678.89310 1.41618e-17
4680.09826 1.43586e-17
4681.29338 1.38789e-17
4682.49853 1.40996e-17
4683.69365 1.37307e-17
4684.89881 1.37831e-17
4686.09393 1.36996e-17
4687.29909 1.37263e-17
4688.49421 1.33147e-17
4689.68932 1.34258e-17
4690.89448 1.32457e-17
4692.08960 1.33451e-17
4693.29476 1.32556e-17
4694.48988 1.32189e-17
4695.69504 1.33149e-17
4696.89015 1.30538e-17
4698.09531 1.30349e-17
4699.29043 1.29120e-17
4700.49559 1.30804e-17
4701.69071 1.29154e-17
4702.89587 1.27350e-17
4704.09098 1.27614e-17
4705.29614 1.26293e-17
4706.49126 1.26452e-17
4707.69642 1.27752e-17
4708.89154 1.27292e-17
4710.08666 1.26809e-17
4711.29182 1.28289e-17
4712.48693 1.26016e-17
4713.69209 1.25773e-17
4714.88721 1.26700e-17
4716.09237 1.26714e-17
4717.28749 1.25765e-17
4718.49265 1.25593e-17
4719.68776 1.25983e-17
4720.89292 1.25002e-17
4722.08804 1.24713e-17
4723.29320 1.24586e-17
4724.48832 1.25643e-17
4725.69348 1.26063e-17
4726.88859 1.26813e-17
4728.09375 1.26392e-17
4729.28887 1.25490e-17
4730.49403 1.25757e-17
4731.68915 1.27779e-17
4732.88427 1.27253e-17
4734.08943 1.26702e-17
4735.28454 1.26095e-17
4736.48970 1.25021e-17
4737.68482 1.25496e-17
4738.88998 1.25279e-17
4740.08510 1.24656e-17
4741.29026 1.24220e-17
4742.48537 1.22292e-17
4743.69053 1.20221e-17
4744.88565 1.19947e-17
4746.09081 1.20721e-17
4747.28593 1.21180e-17
4748.49109 1.21992e-17
4749.68620 1.20760e-17
4750.89137 1.19189e-17
4752.08648 1.17814e-17
4753.28160 1.15342e-17
4754.48676 1.15753e-17
4755.68188 1.16786e-17
4756.88704 1.14244e-17
4758.08215 1.12957e-17
4759.28731 1.12114e-17
4760.48243 1.12198e-17
4761.68759 1.11504e-17
4762.88271 1.09255e-17
4764.08787 1.08690e-17
4765.28298 1.09794e-17
4766.48814 1.09825e-17
4767.68326 1.08511e-17
4768.88842 1.07422e-17
4770.08354 1.06995e-17
4771.28870 1.07289e-17
4772.48381 1.05864e-17
4773.67893 1.05723e-17
4774.88409 1.05977e-17
4776.07921 1.05913e-17
4777.28437 1.04974e-17
4778.47949 1.04553e-17
4779.68465 1.06706e-17
4780.87976 1.04243e-17
4782.08492 1.03577e-17
4783.28004 1.02841e-17
4784.48520 1.03292e-17
4785.68032 1.03786e-17
4786.88548 1.03328e-17
4788.08059 1.04464e-17
4789.28575 1.04728e-17
4790.48087 1.04126e-17
4791.68603 1.05056e-17
4792.88115 1.05615e-17
4794.08631 1.05827e-17
4795.28143 1.04392e-17
4796.47654 1.06919e-17
4797.68170 1.08491e-17
4798.87682 1.07460e-17
4800.08198 1.07753e-17
4801.27710 1.10858e-17
4802.48226 1.10313e-17
4803.67737 1.11141e-17
4804.88253 1.11374e-17
4806.07765 1.12839e-17
4807.28281 1.12447e-17
4808.47793 1.14497e-17
4809.68309 1.14327e-17
4810.87820 1.14326e-17
4812.08336 1.15465e-17
4813.27848 1.17344e-17
4814.48364 1.17449e-17
4815.67876 1.20955e-17
4816.87388 1.20258e-17
4818.07903 1.20182e-17
4819.27415 1.21287e-17
4820.47931 1.19579e-17
4821.67443 1.21894e-17
4822.87959 1.22100e-17
4824.07471 1.20251e-17
4825.27987 1.22136e-17
4826.47498 1.21161e-17
4827.68014 1.22713e-17
4828.87526 1.20995e-17
4830.08042 1.21831e-17
4831.27554 1.20987e-17
4832.48070 1.19588e-17
4833.67581 1.19115e-17
4834.88097 1.20184e-17
4836.07609 1.17477e-17
4837.27121 1.17858e-17
4838.47637 1.15571e-17
4839.67148 1.15017e-17
4840.87664 1.14568e-17
4842.07176 1.12983e-17
4843.27692 1.12723e-17
4844.47204 1.11846e-17
4845.67720 1.10481e-17
4846.87232 1.12491e-17
4848.07748 1.09960e-17
4849.27259 1.09426e-17
4850.47775 1.08524e-17
4851.67287 1.05847e-17
4852.87803 1.06698e-17
4854.07315 1.07664e-17
4855.27831 1.06077e-17
4856.47342 1.05863e-17
4857.67858 1.05406e-17
4858.87370 1.04800e-17
4860.06882 1.02916e-17
4861.27398 1.04566e-17
4862.46909 1.02710e-17
4863.67425 1.02481e-17
4864.86937 1.04195e-17
4866.07453 1.03028e-17
4867.26965 1.03044e-17
4868.47481 1.02524e-17
4869.66993 1.02622e-17
4870.87509 1.03618e-17
4872.07020 1.02969e-17
4873.27536 1.01855e-17
4874.47048 1.03459e-17
4875.67564 1.05251e-17
4876.87076 1.04166e-17
4878.07592 1.01731e-17
4879.27103 1.04747e-17
4880.46615 1.05818e-17
4881.67131 1.04882e-17
4882.86643 1.07775e-17
4884.07159 1.07335e-17
4885.26671 1.06638e-17
4886.47187 1.06074e-17
4887.66698 1.07756e-17
4888.87214 1.10042e-17
4890.06726 1.09776e-17
4891.27242 1.11716e-17
4892.46754 1.11945e-17
4893.67270 1.11904e-17
4894.86781 1.12155e-17
4896.07297 1.13500e-17
4897.26809 1.17233e-17
4898.47325 1.16232e-17
4899.66837 1.17792e-17
4900.86348 1.18619e-17
4902.06864 1.19662e-17
4903.26376 1.20866e-17
4904.46892 1.22479e-17
4905.66404 1.24422e-17
4906.86920 1.24799e-17
4908.06431 1.26344e-17
4909.26948 1.29046e-17
4910.46459 1.31661e-17
4911.66975 1.31556e-17
4912.86487 1.31619e-17
4914.07003 1.33457e-17
4915.26515 1.37627e-17
4916.47031 1.36802e-17
4917.66542 1.37896e-17
4918.87058 1.40609e-17
4920.06570 1.37357e-17
4921.26082 1.42266e-17
4922.46598 1.45187e-17
4923.66109 1.46567e-17
4924.86625 1.44481e-17
4926.06137 1.46881e-17
4927.26653 1.45867e-17
4928.46165 1.47058e-17
4929.66681 1.49917e-17
4930.86193 1.51248e-17
4932.06708 1.48567e-17
4933.26220 1.52275e-17
4934.46736 1.53347e-17
4935.66248 1.52792e-17
4936.86764 1.52238e-17
4938.06276 1.55665e-17
4939.26792 1.53886e-17
4940.46303 1.55152e-17
4941.65815 1.57240e-17
4942.86331 1.57726e-17
4944.05843 1.54940e-17
4945.26359 1.57228e-17
4946.45870 1.57225e-17
4947.66386 1.55516e-17
4948.85898 1.55152e-17
4950.06414 1.55401e-17
4951.25926 1.56237e-17
4952.46442 1.56826e-17
4953.65953 1.52854e-17
4954.86469 1.55051e-17
4956.05981 1.62217e-17
4957.26497 1.58478e-17
4958.46009 1.57227e-17
4959.66525 1.58628e-17
4960.86037 1.50776e-17
4962.06553 1.49328e-17
4963.26064 1.47938e-17
4964.45576 1.48210e-17
4965.66092 1.47165e-17
4966.85604 1.49029e-17
4968.06120 1.47563e-17
4969.25631 1.45409e-17
4970.46147 1.45022e-17
4971.65659 1.45324e-17
4972.86175 1.41669e-17
4974.05687 1.38164e-17
4975.26203 1.38028e-17
4976.45714 1.39831e-17
4977.66230 1.36967e-17
4978.85742 1.35518e-17
4980.06258 1.32370e-17
4981.25770 1.30585e-17
4982.46286 1.30986e-17
4983.65798 1.29765e-17
4984.85309 1.28182e-17
4986.05825 1.26504e-17
4987.25337 1.23702e-17
4988.45853 1.24000e-17
4989.65365 1.21076e-17
4990.85881 1.22261e-17
4992.05392 1.18591e-17
4993.25908 1.20076e-17
4994.45420 1.16363e-17
4995.65936 1.17937e-17
4996.85448 1.16290e-17
4998.05964 1.13092e-17
4999.25475 1.13673e-17
5000.45992 1.13212e-17
5001.65503 1.12642e-17
5002.86019 1.11291e-17
5004.05531 1.12695e-17
5005.25043 1.07847e-17
5006.45559 1.09109e-17
5007.65070 1.07608e-17
5008.85586 1.05201e-17
5010.05098 1.04878e-17
5011.25614 1.05018e-17
5012.45126 1.02804e-17
5013.65642 1.02311e-17
5014.85153 1.02457e-17
5016.05669 1.01271e-17
5017.25181 1.00328e-17
5018.45697 9.96974e-18
5019.65209 9.94430e-18
5020.85725 9.75787e-18
5022.05237 9.73744e-18
5023.25752 9.67115e-18
5024.45264 9.74921e-18
5025.65780 9.71673e-18
5026.85292 9.89574e-18
5028.04804 9.87265e-18
5029.25320 9.90164e-18
5030.44831 9.77487e-18
5031.65347 9.80968e-18
5032.84859 9.62080e-18
5034.05375 9.62215e-18
5035.24887 9.42589e-18
5036.45403 9.19137e-18
5037.64914 9.27338e-18
5038.85430 9.35067e-18
5040.04942 9.29136e-18
5041.25458 9.36622e-18
5042.44970 9.32056e-18
5043.65486 9.32984e-18
5044.84998 9.28100e-18
5046.05513 9.22783e-18
5047.25025 9.32257e-18
5048.44537 9.24384e-18
5049.65053 9.21181e-18
5050.84565 9.21976e-18
5052.05081 9.25665e-18
5053.24592 9.34513e-18
5054.45108 9.24117e-18
5055.64620 9.33238e-18
5056.85136 9.52769e-18
5058.04648 9.45218e-18
5059.25164 9.46958e-18
5060.44675 9.41713e-18
5061.65191 9.48618e-18
5062.84703 9.45949e-18
5064.05219 9.52797e-18
5065.24731 9.71499e-18
5066.45247 9.79757e-18
5067.64758 9.84249e-18
5068.85274 9.74475e-18
5070.04786 9.84406e-18
5071.24298 9.97050e-18
5072.44814 9.88310e-18
5073.64326 1.00137e-17
5074.84842 1.00618e-17
5076.04353 1.01269e-17
5077.24869 1.02533e-17
5078.44381 1.02532e-17
5079.64897 1.00451e-17
5080.84409 9.98158e-18
5082.04925 1.03669e-17
5083.24436 1.05270e-17
5084.44952 1.04142e-17
5085.64464 1.06387e-17
5086.84980 1.06747e-17
5088.04492 1.04922e-17
5089.25008 1.05637e-17
5090.44519 1.07139e-17
5091.64031 1.07384e-17
5092.84547 1.07060e-17
5094.04059 1.07885e-17
5095.24575 1.09333e-17
5096.44087 1.10514e-17
5097.64603 1.11176e-17
5098.84114 1.10913e-17
5100.04630 1.10327e-17
5101.24142 1.11261e-17
5102.44658 1.12031e-17
5103.64170 1.12349e-17
5104.84686 1.13698e-17
5106.04197 1.15626e-17
5107.24713 1.13695e-17
5108.44225 1.14035e-17
5109.64741 1.15256e-17
5110.84253 1.15278e-17
5112.03764 1.15537e-17
5113.24280 1.15647e-17
5114.43792 1.16128e-17
5115.64308 1.17948e-17
5116.83820 1.17852e-17
5118.04336 1.16300e-17
5119.23848 1.16116e-17
5120.44364 1.17113e-17
5121.63875 1.17998e-17
5122.84391 1.19108e-17
5124.03903 1.19384e-17
5125.24419 1.18676e-17
5126.43931 1.19162e-17
5127.64447 1.19893e-17
5128.83958 1.20024e-17
5130.04474 1.19664e-17
5131.23986 1.20378e-17
5132.43498 1.20023e-17
5133.64014 1.20602e-17
5134.83525 1.21976e-17
5136.04042 1.21482e-17
5137.23553 1.21671e-17
5138.44069 1.21750e-17
5139.63581 1.21481e-17
5140.84097 1.21762e-17
5142.03609 1.20642e-17
5143.24125 1.20278e-17
5144.43636 1.21197e-17
5145.64152 1.22019e-17
5146.83664 1.21771e-17
5148.04180 1.20899e-17
5149.23692 1.22148e-17
5150.44208 1.22400e-17
5151.63719 1.21859e-17
5152.83231 1.22387e-17
5154.03747 1.21982e-17
5155.23259 1.20076e-17
5156.43775 1.19385e-17
5157.63286 1.21500e-17
5158.83803 1.22005e-17
5160.03314 1.20335e-17
5161.23830 1.21814e-17
5162.43342 1.22319e-17
5163.63858 1.22725e-17
5164.83370 1.21184e-17
5166.03886 1.21057e-17
5167.23397 1.22092e-17
5168.43913 1.22384e-17
5169.63425 1.22163e-17
5170.83941 1.22056e-17
5172.03453 1.23067e-17
5173.22964 1.23393e-17
5174.43480 1.23613e-17
5175.62992 1.25676e-17
5176.83508 1.25775e-17
5178.03020 1.24914e-17
5179.23536 1.24935e-17
5180.43048 1.25793e-17
5181.63563 1.26822e-17
5182.83075 1.27354e-17
5184.03591 1.28194e-17
5185.23103 1.27360e-17
5186.43619 1.29257e-17
5187.63131 1.30055e-17
5188.83647 1.29067e-17
5190.03158 1.31015e-17
5191.23674 1.31822e-17
5192.43186 1.31345e-17
5193.63702 1.31613e-17
5194.83214 1.31313e-17
5196.02725 1.31905e-17
5197.23241 1.34509e-17
5198.42753 1.34664e-17
5199.63269 1.34297e-17
5200.82781 1.36153e-17
5202.03297 1.35575e-17
5203.22808 1.36927e-17
5204.43324 1.36785e-17
5205.62836 1.38562e-17
5206.83352 1.37050e-17
5208.02864 1.38794e-17
5209.23380 1.39318e-17
5210.42892 1.39316e-17
5211.63408 1.42082e-17
5212.82919 1.40882e-17
5214.03435 1.40581e-17
5215.22947 1.44037e-17
5216.42459 1.43346e-17
5217.62975 1.45379e-17
5218.82486 1.46001e-17
5220.03002 1.48120e-17
5221.22514 1.48993e-17
5222.43030 1.48282e-17
5223.62542 1.47651e-17
5224.83058 1.50227e-17
5226.02569 1.49788e-17
5227.23085 1.52924e-17
5228.42597 1.52314e-17
5229.63113 1.52800e-17
5230.82625 1.54294e-17
5232.03141 1.56051e-17
5233.22653 1.57372e-17
5234.43169 1.55356e-17
5235.62680 1.55773e-17
5236.82192 1.58458e-17
5238.02708 1.59692e-17
5239.22220 1.59597e-17
5240.42736 1.59820e-17
5241.62247 1.59856e-17
5242.82763 1.60128e-17
5244.02275 1.62053e-17
5245.22791 1.61396e-17
5246.42303 1.62606e-17
5247.62819 1.63757e-17
5248.82330 1.63842e-17
5250.02847 1.64335e-17
5251.22358 1.67398e-17
5252.42874 1.67643e-17
5253.62386 1.66789e-17
5254.82902 1.68395e-17
5256.02414 1.67595e-17
5257.22930 1.69321e-17
5258.42441 1.71403e-17
5259.61953 1.70844e-17
5260.82469 1.70900e-17
5262.01981 1.70847e-17
5263.22497 1.72152e-17
5264.42008 1.72341e-17
5265.62524 1.73524e-17
5266.82036 1.75535e-17
5268.02552 1.74912e-17
5269.22064 1.76035e-17
5270.42580 1.78096e-17
5271.62092 1.78686e-17
5272.82607 1.78557e-17
5274.02119 1.78537e-17
5275.22635 1.79957e-17
5276.42147 1.80629e-17
5277.62663 1.81967e-17
5278.82175 1.82423e-17
5280.01686 1.81618e-17
5281.22202 1.82284e-17
5282.41714 1.83412e-17
5283.62230 1.83585e-17
5284.81742 1.82200e-17
5286.02258 1.82753e-17
5287.21769 1.85637e-17
5288.42285 1.88017e-17
5289.61797 1.87999e-17
5290.82313 1.86832e-17
5292.01825 1.88353e-17
5293.22341 1.88958e-17
5294.41853 1.89442e-17
5295.62368 1.91639e-17
5296.81880 1.91126e-17
5298.02396 1.92103e-17
5299.21908 1.94730e-17
5300.41420 1.93794e-17
5301.61936 1.93743e-17
5302.81447 1.93976e-17
5304.01963 1.91761e-17
5305.21475 1.93059e-17
5306.41991 1.93856e-17
5307.61503 1.95557e-17
5308.82019 1.94884e-17
5310.01530 1.94617e-17
5311.22046 1.96069e-17
5312.41558 1.94650e-17
5313.62074 1.94643e-17
5314.81586 1.93539e-17
5316.02102 1.93767e-17
5317.21613 1.92253e-17
5318.42129 1.95315e-17
5319.61641 1.94729e-17
5320.81153 1.95346e-17
5322.01669 1.92651e-17
5323.21181 1.91408e-17
5324.41697 1.92429e-17
5325.61208 1.94692e-17
5326.81724 1.89537e-17
5328.01236 1.88932e-17
5329.21752 1.92106e-17
5330.41264 1.88376e-17
5331.61780 1.91666e-17
5332.81291 1.89403e-17
5334.01807 1.89075e-17
5335.21319 1.86638e-17
5336.41835 1.84970e-17
5337.61347 1.86110e-17
5338.81863 1.85289e-17
5340.01374 1.85846e-17
5341.21891 1.81275e-17
5342.41402 1.80767e-17
5343.60914 1.83035e-17
5344.81430 1.78981e-17
5346.00942 1.77872e-17
5347.21458 1.80015e-17
5348.40969 1.78368e-17
5349.61485 1.78330e-17
5350.80997 1.78099e-17
5352.01513 1.75144e-17
5353.21025 1.75430e-17
5354.41541 1.73634e-17
5355.61052 1.72409e-17
5356.81568 1.72489e-17
5358.01080 1.73855e-17
5359.21596 1.72545e-17
5360.41108 1.70529e-17
5361.61624 1.71631e-17
5362.81135 1.69616e-17
5364.00647 1.71224e-17
5365.21163 1.70620e-17
5366.40675 1.68475e-17
5367.61191 1.67078e-17
5368.80703 1.69149e-17
5370.01219 1.68664e-17
5371.20730 1.68669e-17
5372.41246 1.68697e-17
5373.60758 1.67906e-17
5374.81274 1.68304e-17
5376.00786 1.70368e-17
5377.21302 1.69504e-17
5378.40813 1.70384e-17
5379.61329 1.71178e-17
5380.80841 1.71056e-17
5382.01357 1.72382e-17
5383.20869 1.71528e-17
5384.40380 1.70935e-17
5385.60897 1.71095e-17
5386.80408 1.72151e-17
5388.00924 1.73525e-17
5389.20436 1.74088e-17
5390.40952 1.75243e-17
5391.60464 1.75905e-17
5392.80980 1.75977e-17
5394.00491 1.75020e-17
5395.21007 1.74497e-17
5396.40519 1.76342e-17
5397.61035 1.78495e-17
5398.80547 1.78980e-17
5400.01063 1.78702e-17
5401.20574 1.80055e-17
5402.41090 1.79496e-17
5403.60602 1.81038e-17
5404.80114 1.83105e-17
5406.00630 1.82564e-17
5407.20142 1.83530e-17
5408.40657 1.86461e-17
5409.60169 1.88139e-17
5410.80685 1.87428e-17
5412.00197 1.87562e-17
5413.20713 1.90054e-17
5414.40225 1.92425e-17
5415.60741 1.94385e-17
5416.80252 1.94025e-17
5418.00768 1.96676e-17
5419.20280 1.98572e-17
5420.40796 1.98513e-17
5421.60308 1.97858e-17
5422.80824 1.97691e-17
5424.00335 2.01277e-17
5425.20851 2.02190e-17
5426.40363 2.04759e-17
5427.59875 2.04723e-17
5428.80391 2.05510e-17
5429.99903 2.06505e-17
5431.20418 2.08277e-17
5432.39930 2.09892e-17
5433.60446 2.09665e-17
5434.79958 2.11605e-17
5436.00474 2.11460e-17
5437.19986 2.11522e-17
5438.40502 2.13126e-17
5439.60013 2.12373e-17
5440.80529 2.10568e-17
5442.00041 2.11199e-17
5443.20557 2.12041e-17
5444.40069 2.15391e-17
5445.60585 2.13231e-17
5446.80096 2.14201e-17
5447.99608 2.14823e-17
5449.20124 2.18030e-17
5450.39636 2.16865e-17
5451.60152 2.15449e-17
5452.79663 2.14813e-17
5454.00179 2.13856e-17
5455.19691 2.13503e-17
5456.40207 2.15331e-17
5457.59719 2.16519e-17
5458.80235 2.16153e-17
5459.99747 2.16554e-17
5461.20263 2.17213e-17
5462.39774 2.15737e-17
5463.60290 2.17520e-17
5464.79802 2.15102e-17
5466.00318 2.13568e-17
5467.19830 2.11510e-17
5468.39341 2.12303e-17
5469.59857 2.12184e-17
5470.79369 2.09616e-17
5471.99885 2.09070e-17
5473.19397 2.07838e-17
5474.39913 2.07233e-17
5475.59424 2.06421e-17
5476.79940 2.04750e-17
5477.99452 2.04865e-17
5479.19968 2.03703e-17
5480.39480 2.02623e-17
5481.59996 2.03466e-17
5482.79508 2.02363e-17
5484.00024 2.01949e-17
5485.19535 2.02661e-17
5486.40051 2.01507e-17
5487.59563 2.00895e-17
5488.79075 1.99490e-17
5489.99591 1.97647e-17
5491.19102 1.98949e-17
5492.39618 1.98032e-17
5493.59130 1.96557e-17
5494.79646 1.96141e-17
5495.99158 1.94882e-17
5497.19674 1.95125e-17
5498.39185 1.94774e-17
5499.59702 1.93864e-17
5500.79213 1.93772e-17
5501.99729 1.95087e-17
5503.19241 1.94922e-17
5504.39757 1.93695e-17
5505.59269 1.92121e-17
5506.79785 1.90046e-17
5507.99296 1.91064e-17
5509.18808 1.90747e-17
5510.39324 1.91078e-17
5511.58836 1.92763e-17
5512.79352 1.92208e-17
5513.98863 1.88924e-17
5515.19379 1.87991e-17
5516.38891 1.87937e-17
5517.59407 1.89757e-17
5518.78919 1.88350e-17
5519.99435 1.87806e-17
5521.18947 1.89611e-17
5522.39462 1.88162e-17
5523.58974 1.86485e-17
5524.79490 1.88629e-17
5525.99002 1.89924e-17
5527.19518 1.89676e-17
5528.39030 1.86470e-17
5529.59546 1.85463e-17
5530.79057 1.87791e-17
5531.98569 1.86416e-17
5533.19085 1.85865e-17
5534.38597 1.86055e-17
5535.59113 1.85950e-17
5536.78624 1.85092e-17
5537.99140 1.87085e-17
5539.18652 1.86425e-17
5540.39168 1.87473e-17
5541.58680 1.89328e-17
5542.79196 1.88584e-17
5543.98708 1.87692e-17
5545.19223 1.88926e-17
5546.38735 1.88285e-17
5547.59251 1.88547e-17
5548.78763 1.89173e-17
5549.99279 1.89548e-17
5551.18791 1.89315e-17
5552.38302 1.88071e-17
5553.58818 1.87982e-17
5554.78330 1.89179e-17
5555.98846 1.89557e-17
5557.18358 1.89988e-17
5558.38874 1.91483e-17
5559.58385 1.91744e-17
5560.78901 1.92004e-17
5561.98413 1.92265e-17
5563.18929 1.92525e-17
5564.38441 1.92786e-17
5565.58957 1.93047e-17
5566.78468 1.93307e-17
5567.98984 1.93568e-17
5569.18496 1.93828e-17
5570.39012 1.94089e-17
5571.58524 1.94350e-17
5572.78036 1.94610e-17
5573.98552 1.94871e-17
5575.18063 1.95131e-17
5576.38579 1.95392e-17
5577.58091 1.95652e-17
5578.78607 1.95913e-17
5579.98119 1.96173e-17
5581.18635 1.96434e-17
5582.38146 1.96694e-17
5583.58662 1.96955e-17
5584.78174 1.97215e-17
5585.98690 1.97476e-17
5587.18202 1.97736e-17
5588.38718 1.97997e-17
5589.58229 1.98257e-17
5590.78746 1.98518e-17
5591.98257 1.98778e-17
5593.17769 1.99038e-17
5594.38285 1.99299e-17
5595.57797 1.99559e-17
5596.78313 1.99147e-17
5597.97824 2.01563e-17
5599.18340 1.98413e-17
5600.37852 2.01538e-17
5601.58368 2.03970e-17
5602.77880 2.02375e-17
5603.98396 2.01368e-17
5605.17907 2.00292e-17
5606.38423 2.00263e-17
5607.57935 2.01808e-17
5608.78451 2.02793e-17
5609.97963 2.01187e-17
5611.18479 1.98789e-17
5612.37990 1.98747e-17
5613.57502 1.99465e-17
5614.78018 2.00781e-17
5615.97530 1.97574e-17
5617.18046 1.97872e-17
5618.37558 1.99092e-17
5619.58074 1.97743e-17
5620.77585 1.98080e-17
5621.98101 1.97157e-17
5623.17613 1.97498e-17
5624.38129 1.96911e-17
5625.57641 1.94491e-17
5626.78157 1.94559e-17
5627.97668 1.94399e-17
5629.18184 1.93407e-17
5630.37696 1.92041e-17
5631.58212 1.90912e-17
5632.77724 1.91382e-17
5633.98240 1.89608e-17
5635.17752 1.88300e-17
5636.37263 1.88287e-17
5637.57779 1.89717e-17
5638.77291 1.89190e-17
5639.97807 1.87329e-17
5641.17319 1.88281e-17
5642.37835 1.86534e-17
5643.57346 1.85116e-17
5644.77862 1.86174e-17
5645.97374 1.85550e-17
5647.17890 1.84111e-17
5648.37402 1.79687e-17
5649.57918 1.78716e-17
5650.77429 1.78578e-17
5651.97945 1.77317e-17
5653.17457 1.77693e-17
5654.37973 1.77194e-17
5655.57485 1.76619e-17
5656.78001 1.75935e-17
5657.97512 1.75162e-17
5659.17024 1.72727e-17
5660.37540 1.70670e-17
5661.57052 1.72081e-17
5662.77568 1.71202e-17
5663.97080 1.73456e-17
5665.17596 1.70256e-17
5666.37107 1.69822e-17
5667.57623 1.65638e-17
5668.77135 1.66352e-17
5669.97651 1.65933e-17
5671.17163 1.62399e-17
5672.37679 1.63921e-17
5673.57190 1.63551e-17
5674.77706 1.62843e-17
5675.97218 1.63088e-17
5677.17734 1.61600e-17
5678.37246 1.59646e-17
5679.56758 1.59757e-17
5680.77273 1.59164e-17
5681.96785 1.57436e-17
5683.17301 1.59194e-17
5684.36813 1.59567e-17
5685.57329 1.57992e-17
5686.76841 1.56811e-17
5687.97357 1.57847e-17
5689.16868 1.55970e-17
5690.37384 1.54242e-17
5691.56896 1.53664e-17
5692.77412 1.52839e-17
5693.96924 1.53476e-17
5695.17440 1.53257e-17
5696.36951 1.52171e-17
5697.57467 1.51876e-17
5698.76979 1.51159e-17
5699.96491 1.48670e-17
5701.17007 1.47753e-17
5702.36518 1.48263e-17
5703.57034 1.47978e-17
5704.76546 1.47401e-17
5705.97062 1.46521e-17
5707.16574 1.45833e-17
5708.37090 1.46326e-17
5709.56602 1.45270e-17
5710.77118 1.46644e-17
5711.96629 1.45187e-17
5713.17145 1.45189e-17
5714.36657 1.45408e-17
5715.57173 1.44456e-17
5716.76685 1.42589e-17
5717.97201 1.44146e-17
5719.16712 1.43097e-17
5720.37228 1.42113e-17
5721.56740 1.42274e-17
5722.76252 1.42821e-17
5723.96768 1.42400e-17
5725.16279 1.41651e-17
5726.36796 1.41720e-17
5727.56307 1.42224e-17
5728.76823 1.41103e-17
5729.96335 1.41270e-17
5731.16851 1.41364e-17
5732.36363 1.41826e-17
5733.56879 1.42364e-17
5734.76390 1.41153e-17
5735.96906 1.41028e-17
5737.16418 1.41072e-17
5738.36934 1.42417e-17
5739.56446 1.41163e-17
5740.76962 1.40458e-17
5741.96473 1.41568e-17
5743.15985 1.42556e-17
5744.36501 1.42602e-17
5745.56013 1.43364e-17
5746.76529 1.43277e-17
5747.96040 1.42901e-17
5749.16557 1.43066e-17
5750.36068 1.43826e-17
5751.56584 1.43076e-17
5752.76096 1.41648e-17
5753.96612 1.42082e-17
5755.16124 1.42169e-17
5756.36640 1.41082e-17
5757.56151 1.41490e-17
5758.76667 1.42315e-17
5759.96179 1.42534e-17
5761.16695 1.43051e-17
5762.36207 1.44244e-17
5763.55718 1.44600e-17
5764.76234 1.43886e-17
5765.95746 1.46357e-17
5767.16262 1.44598e-17
5768.35774 1.44726e-17
5769.56290 1.46452e-17
5770.75802 1.47776e-17
5771.96317 1.47446e-17
5773.15829 1.45758e-17
5774.36345 1.47089e-17
5775.55857 1.48359e-17
5776.76373 1.47406e-17
5777.95885 1.47202e-17
5779.16401 1.46520e-17
5780.35912 1.48196e-17
5781.56428 1.48174e-17
5782.75940 1.49170e-17
5783.95452 1.50571e-17
5785.15968 1.49785e-17
5786.35479 1.50958e-17
5787.55995 1.50989e-17
5788.75507 1.53524e-17
5789.96023 1.50743e-17
5791.15535 1.51699e-17
5792.36051 1.53045e-17
5793.55562 1.54543e-17
5794.76078 1.54355e-17
5795.95590 1.52324e-17
5797.16106 1.53128e-17
5798.35618 1.54140e-17
5799.56134 1.54223e-17
5800.75646 1.52723e-17
5801.96162 1.52296e-17
5803.15673 1.53445e-17
5804.35185 1.53580e-17
5805.55701 1.54385e-17
5806.75213 1.55596e-17
5807.95729 1.55104e-17
5809.15240 1.55362e-17
5810.35756 1.56968e-17
5811.55268 1.57419e-17
5812.75784 1.56964e-17
5813.95296 1.56903e-17
5815.15812 1.57472e-17
5816.35323 1.57533e-17
5817.55839 1.56565e-17
5818.75351 1.57126e-17
5819.95867 1.57949e-17
5821.15379 1.57029e-17
5822.35895 1.56533e-17
5823.55407 1.56758e-17
5824.74918 1.56706e-17
5825.95434 1.55449e-17
5827.14946 1.56873e-17
5828.35462 1.56668e-17
5829.54974 1.58879e-17
5830.75490 1.54692e-17
5831.95001 1.56955e-17
5833.15517 1.55988e-17
5834.35029 1.56352e-17
5835.55545 1.55309e-17
5836.75057 1.55160e-17
5837.95573 1.55077e-17
5839.15084 1.52755e-17
5840.35601 1.53908e-17
5841.55112 1.50922e-17
5842.75628 1.50365e-17
5843.95140 1.53390e-17
5845.14652 1.51153e-17
5846.35168 1.52258e-17
5847.54679 1.52895e-17
5848.75195 1.51600e-17
5849.94707 1.50683e-17
5851.15223 1.51782e-17
5852.34735 1.49999e-17
5853.55251 1.51131e-17
5854.74762 1.51293e-17
5855.95278 1.51526e-17
5857.14790 1.50023e-17
5858.35306 1.49705e-17
5859.54818 1.50453e-17
5860.75334 1.51815e-17
5861.94845 1.52086e-17
5863.15362 1.53062e-17
5864.34873 1.53714e-17
5865.55389 1.54255e-17
5866.74901 1.54853e-17
5867.94413 1.53749e-17
5869.14929 1.53279e-17
5870.34440 1.54465e-17
5871.54956 1.54202e-17
5872.74468 1.53221e-17
5873.94984 1.53394e-17
5875.14496 1.53677e-17
5876.35012 1.54954e-17
5877.54523 1.55079e-17
5878.75039 1.52987e-17
5879.94551 1.54175e-17
5881.15067 1.53529e-17
5882.34579 1.53768e-17
5883.55095 1.55445e-17
5884.74607 1.55884e-17
5885.95122 1.55474e-17
5887.14634 1.59600e-17
5888.34146 1.62231e-17
5889.54662 1.63478e-17
5890.74174 1.64348e-17
5891.94690 1.63923e-17
5893.14201 1.59172e-17
5894.34717 1.62484e-17
5895.54229 1.61862e-17
5896.74745 1.61735e-17
5897.94257 1.59700e-17
5899.14773 1.59934e-17
5900.34284 1.57037e-17
5901.54800 1.58158e-17
5902.74312 1.58620e-17
5903.94828 1.58330e-17
5905.14340 1.57566e-17
5906.34856 1.59641e-17
5907.54367 1.59172e-17
5908.74883 1.59089e-17
5909.94395 1.57405e-17
5911.13907 1.58213e-17
5912.34423 1.56829e-17
5913.53935 1.56051e-17
5914.74451 1.54740e-17
5915.93962 1.53561e-17
5917.14478 1.53666e-17
5918.33990 1.52985e-17
5919.54506 1.51678e-17
5920.74018 1.52274e-17
5921.94534 1.52360e-17
5923.14045 1.51229e-17
5924.34561 1.53503e-17
5925.54073 1.55800e-17
5926.74589 1.54912e-17
5927.94101 1.55455e-17
5929.14617 1.56379e-17
5930.34128 1.55662e-17
5931.54644 1.54549e-17
5932.74156 1.53264e-17
5933.93668 1.53869e-17
5935.14184 1.51584e-17
5936.33696 1.50737e-17
5937.54212 1.52448e-17
5938.73723 1.50318e-17
5939.94239 1.48519e-17
5941.13751 1.49127e-17
5942.34267 1.50012e-17
5943.53779 1.48729e-17
5944.74295 1.49256e-17
5945.93806 1.47520e-17
5947.14322 1.47250e-17
5948.33834 1.47034e-17
5949.54350 1.44982e-17
5950.73862 1.47622e-17
5951.94378 1.46457e-17
5953.13889 1.45848e-17
5954.33401 1.45933e-17
5955.53917 1.44301e-17
5956.73429 1.42694e-17
5957.93945 1.42855e-17
5959.13457 1.41802e-17
5960.33973 1.40675e-17
5961.53484 1.40046e-17
5962.74000 1.38887e-17
5963.93512 1.38139e-17
5965.14028 1.37482e-17
5966.33540 1.38333e-17
5967.54056 1.37068e-17
5968.73567 1.35895e-17
5969.94083 1.36266e-17
5971.13595 1.36072e-17
5972.34111 1.35283e-17
5973.53623 1.34722e-17
5974.73134 1.34225e-17
5975.93651 1.33366e-17
5977.13162 1.34105e-17
5978.33678 1.34958e-17
5979.53190 1.33817e-17
5980.73706 1.32516e-17
5981.93218 1.32780e-17
5983.13734 1.32903e-17
5984.33245 1.32767e-17
5985.53761 1.31938e-17
5986.73273 1.31265e-17
5987.93789 1.30888e-17
5989.13301 1.30312e-17
5990.33817 1.29325e-17
5991.53328 1.29064e-17
5992.73844 1.31904e-17
5993.93356 1.30287e-17
5995.12868 1.30014e-17
5996.33384 1.31579e-17
5997.52895 1.30338e-17
5998.73412 1.32223e-17
5999.92923 1.33010e-17
6001.13439 1.32542e-17
6002.32951 1.30372e-17
6003.53467 1.31428e-17
6004.72979 1.32536e-17
6005.93495 1.30730e-17
6007.13006 1.31892e-17
6008.33522 1.32076e-17
6009.53034 1.31736e-17
6010.73550 1.31808e-17
6011.93062 1.32567e-17
6013.13578 1.32486e-17
6014.33089 1.32517e-17
6015.52601 1.33175e-17
6016.73117 1.33294e-17
6017.92629 1.32989e-17
6019.13145 1.33432e-17
6020.32657 1.33255e-17
6021.53172 1.32738e-17
6022.72684 1.33361e-17
6023.93200 1.33942e-17
6025.12712 1.34262e-17
6026.33228 1.34868e-17
6027.52740 1.34570e-17
6028.73256 1.33196e-17
6029.92767 1.32627e-17
6031.13283 1.33722e-17
6032.32795 1.35469e-17
6033.53311 1.34504e-17
6034.72823 1.32913e-17
6035.92334 1.32283e-17
6037.12850 1.32412e-17
6038.32362 1.31088e-17
6039.52878 1.31576e-17
6040.72390 1.33388e-17
6041.92906 1.30795e-17
6043.12417 1.28765e-17
6044.32933 1.29221e-17
6045.52445 1.28309e-17
6046.72961 1.28275e-17
6047.92473 1.29533e-17
6049.12989 1.28419e-17
6050.32501 1.30209e-17
6051.53017 1.27903e-17
6052.72528 1.27825e-17
6053.93044 1.26534e-17
6055.12556 1.26163e-17
6056.33072 1.27682e-17
6057.52584 1.26170e-17
6058.72095 1.25330e-17
6059.92611 1.25177e-17
6061.12123 1.25302e-17
6062.32639 1.23601e-17
6063.52151 1.23699e-17
6064.72667 1.23635e-17
6065.92178 1.24006e-17
6067.12694 1.23837e-17
6068.32206 1.23615e-17
6069.52722 1.24078e-17
6070.72234 1.23685e-17
6071.92750 1.23413e-17
6073.12262 1.23202e-17
6074.32778 1.23224e-17
6075.52289 1.23479e-17
6076.72805 1.22936e-17
6077.92317 1.24836e-17
6079.11829 1.24732e-17
6080.32345 1.23042e-17
6081.51856 1.24034e-17
6082.72372 1.23228e-17
6083.91884 1.22645e-17
6085.12400 1.23503e-17
6086.31912 1.23367e-17
6087.52428 1.23241e-17
6088.71939 1.24663e-17
6089.92456 1.24500e-17
6091.11967 1.25220e-17
6092.32483 1.25974e-17
6093.51995 1.24979e-17
6094.72511 1.25583e-17
6095.92023 1.25935e-17
6097.12539 1.25023e-17
6098.32050 1.27943e-17
6099.51562 1.27512e-17
6100.72078 1.30307e-17
6101.91590 1.30816e-17
6103.12106 1.29721e-17
6104.31617 1.30583e-17
6105.52133 1.31822e-17
6106.71645 1.31756e-17
6107.92161 1.32312e-17
6109.11673 1.34054e-17
6110.32189 1.35735e-17
6111.51701 1.35740e-17
6112.72217 1.36553e-17
6113.91728 1.38042e-17
6115.12244 1.39017e-17
6116.31756 1.39584e-17
6117.52272 1.39823e-17
6118.71784 1.40954e-17
6119.91295 1.41493e-17
6121.11811 1.41057e-17
6122.31323 1.42338e-17
6123.51839 1.43824e-17
6124.71351 1.44312e-17
6125.91867 1.43527e-17
6127.11378 1.43519e-17
6128.31894 1.45757e-17
6129.51406 1.47773e-17
6130.71922 1.49080e-17
6131.91434 1.48524e-17
6133.11950 1.47957e-17
6134.31462 1.46685e-17
6135.51977 1.50259e-17
6136.71489 1.53106e-17
6137.92005 1.49208e-17
6139.11517 1.52543e-17
6140.32033 1.50271e-17
6141.51545 1.50882e-17
6142.71056 1.50838e-17
6143.91572 1.51581e-17
6145.11084 1.51957e-17
6146.31600 1.50944e-17
6147.51112 1.51174e-17
6148.71628 1.50603e-17
6149.91139 1.50650e-17
6151.11655 1.49908e-17
6152.31167 1.51051e-17
6153.51683 1.49511e-17
6154.71195 1.48671e-17
6155.91711 1.48108e-17
6157.11222 1.48477e-17
6158.31738 1.47499e-17
6159.51250 1.45848e-17
6160.71766 1.43510e-17
6161.91278 1.43529e-17
6163.11794 1.42756e-17
6164.31306 1.39777e-17
6165.50817 1.39349e-17
6166.71333 1.39773e-17
6167.90845 1.38903e-17
6169.11361 1.38045e-17
6170.30873 1.37267e-17
6171.51389 1.35705e-17
6172.70900 1.33677e-17
6173.91416 1.33660e-17
6175.10928 1.31058e-17
6176.31444 1.30271e-17
6177.50956 1.29665e-17
6178.71472 1.28361e-17
6179.90983 1.28476e-17
6181.11499 1.27902e-17
6182.31011 1.26708e-17
6183.51527 1.26255e-17
6184.71039 1.25497e-17
6185.90551 1.23984e-17
6187.11067 1.22131e-17
6188.30578 1.22554e-17
6189.51094 1.20022e-17
6190.70606 1.21049e-17
6191.91122 1.19615e-17
6193.10634 1.20348e-17
6194.31150 1.19980e-17
6195.50661 1.19235e-17
6196.71177 1.17759e-17
6197.90689 1.16863e-17
6199.11205 1.18046e-17
6200.30717 1.17534e-17
6201.51233 1.16162e-17
6202.70744 1.15264e-17
6203.91261 1.14912e-17
6205.10772 1.15178e-17
6206.30284 1.14528e-17
6207.50800 1.13947e-17
6208.70312 1.14582e-17
6209.90828 1.13609e-17
6211.10339 1.12361e-17
6212.30855 1.12083e-17
6213.50367 1.11652e-17
6214.70883 1.12670e-17
6215.90395 1.12697e-17
6217.10911 1.12135e-17
6218.30422 1.10314e-17
6219.50938 1.10168e-17
6220.70450 1.11430e-17
6221.90966 1.11052e-17
6223.10478 1.10217e-17
6224.30994 1.09973e-17
6225.50506 1.10609e-17
6226.70017 1.08203e-17
6227.90533 1.07069e-17
6229.10045 1.09638e-17
6230.30561 1.09380e-17
6231.50073 1.09095e-17
6232.70589 1.08311e-17
6233.90100 1.11278e-17
6235.10616 1.12203e-17
6236.30128 1.11256e-17
6237.50644 1.10133e-17
6238.70156 1.10627e-17
6239.90672 1.08748e-17
6241.10183 1.08378e-17
6242.30699 1.08369e-17
6243.50211 1.08580e-17
6244.70727 1.07464e-17
6245.90239 1.07305e-17
6247.09750 1.06614e-17
6248.30267 1.06979e-17
6249.49778 1.06858e-17
6250.70294 1.06473e-17
6251.89806 1.06300e-17
6253.10322 1.06906e-17
6254.29834 1.08170e-17
6255.50350 1.08904e-17
6256.69861 1.09650e-17
6257.90377 1.09563e-17
6259.09889 1.08392e-17
6260.30405 1.07651e-17
6261.49917 1.06549e-17
6262.70433 1.06279e-17
6263.89944 1.06324e-17
6265.10460 1.05729e-17
6266.29972 1.06662e-17
6267.50488 1.06769e-17
6268.70000 1.06527e-17
6269.89512 1.07900e-17
6271.10027 1.05426e-17
6272.29539 1.04619e-17
6273.50055 1.05832e-17
6274.69567 1.01814e-17
6275.90083 1.01870e-17
6277.09595 1.00198e-17
6278.30111 9.93236e-18
6279.49622 9.91340e-18
6280.70138 1.01433e-17
6281.89650 1.02843e-17
6283.10166 1.03679e-17
6284.29678 1.04555e-17
6285.50194 1.08617e-17
6286.69705 1.07694e-17
6287.90221 1.06429e-17
6289.09733 1.06572e-17
6290.29245 1.04568e-17
6291.49761 1.04641e-17
6292.69272 1.05401e-17
6293.89788 1.06716e-17
6295.09300 1.07553e-17
6296.29816 1.08189e-17
6297.49328 1.10793e-17
6298.69844 1.13676e-17
6299.89356 1.14612e-17
6301.09872 1.13477e-17
6302.29383 1.11421e-17
6303.49899 1.10709e-17
6304.69411 1.12143e-17
6305.89927 1.13148e-17
6307.09439 1.13513e-17
6308.29955 1.13659e-17
6309.49466 1.13023e-17
6310.68978 1.11539e-17
6311.89494 1.11454e-17
6313.09006 1.11145e-17
6314.29522 1.12327e-17
6315.49033 1.14279e-17
6316.69549 1.14996e-17
6317.89061 1.11996e-17
6319.09577 1.14842e-17
6320.29089 1.16795e-17
6321.49605 1.17691e-17
6322.69117 1.17570e-17
6323.89633 1.15554e-17
6325.09144 1.17063e-17
6326.29660 1.16868e-17
6327.49172 1.19744e-17
6328.69688 1.21978e-17
6329.89200 1.22771e-17
6331.08711 1.22173e-17
6332.29227 1.22725e-17
6333.48739 1.21984e-17
6334.69255 1.22582e-17
6335.88767 1.22509e-17
6337.09283 1.21355e-17
6338.28794 1.22312e-17
6339.49311 1.23530e-17
6340.68822 1.23193e-17
6341.89338 1.23726e-17
6343.08850 1.24017e-17
6344.29366 1.24028e-17
6345.48878 1.24925e-17
6346.69394 1.24737e-17
6347.88905 1.26338e-17
6349.09421 1.27602e-17
6350.28933 1.26180e-17
6351.48445 1.25599e-17
6352.68961 1.27713e-17
6353.88472 1.29067e-17
6355.08988 1.30633e-17
6356.28500 1.31354e-17
6357.49016 1.32748e-17
6358.68528 1.31126e-17
6359.89044 1.32804e-17
6361.08556 1.32316e-17
6362.29072 1.33152e-17
6363.48583 1.31538e-17
6364.69099 1.33581e-17
6365.88611 1.34473e-17
6367.09127 1.32602e-17
6368.28639 1.32841e-17
6369.49155 1.35371e-17
6370.68666 1.35403e-17
6371.89182 1.36692e-17
6373.08694 1.35695e-17
6374.28206 1.36439e-17
6375.48722 1.36097e-17
6376.68233 1.37812e-17
6377.88749 1.37783e-17
6379.08261 1.39281e-17
6380.28777 1.39652e-17
6381.48289 1.39098e-17
6382.68805 1.38381e-17
6383.88317 1.38790e-17
6385.08832 1.39516e-17
6386.28344 1.39909e-17
6387.48860 1.40513e-17
6388.68372 1.39595e-17
6389.88888 1.39587e-17
6391.08400 1.39571e-17
6392.28916 1.40372e-17
6393.48427 1.41841e-17
6394.68943 1.40987e-17
6395.88455 1.39768e-17
6397.07967 1.41830e-17
6398.28483 1.42093e-17
6399.47994 1.41608e-17
6400.68510 1.40226e-17
6401.88022 1.42176e-17
6403.08538 1.42523e-17
6404.28050 1.41733e-17
6405.48566 1.40115e-17
6406.68077 1.42791e-17
6407.88593 1.42090e-17
6409.08105 1.42692e-17
6410.28621 1.41970e-17
6411.48133 1.43287e-17
6412.68649 1.43337e-17
6413.88161 1.42526e-17
6415.08677 1.42474e-17
6416.28188 1.42739e-17
6417.47700 1.43667e-17
6418.68216 1.43184e-17
6419.87728 1.44335e-17
6421.08244 1.45044e-17
6422.27755 1.44751e-17
6423.48271 1.44588e-17
6424.67783 1.43833e-17
6425.88299 1.42963e-17
6427.07811 1.43045e-17
6428.28327 1.42209e-17
6429.47838 1.41670e-17
6430.68354 1.42611e-17
6431.87866 1.41775e-17
6433.08382 1.41049e-17
6434.27894 1.41812e-17
6435.48410 1.41359e-17
6436.67922 1.40618e-17
6437.87433 1.39988e-17
6439.07949 1.40425e-17
6440.27461 1.39445e-17
6441.47977 1.39968e-17
6442.67489 1.40831e-17
6443.88005 1.41214e-17
6445.07516 1.40642e-17
6446.28032 1.39957e-17
6447.47544 1.41295e-17
6448.68060 1.39363e-17
6449.87572 1.39736e-17
6451.08088 1.38832e-17
6452.27599 1.40127e-17
6453.48116 1.40883e-17
6454.67627 1.38670e-17
6455.88143 1.40479e-17
6457.07655 1.40459e-17
6458.27167 1.40530e-17
6459.47683 1.39609e-17
6460.67194 1.39409e-17
6461.87710 1.38792e-17
6463.07222 1.39678e-17
6464.27738 1.40691e-17
6465.47250 1.41192e-17
6466.67766 1.40690e-17
6467.87277 1.39607e-17
6469.07793 1.39409e-17
6470.27305 1.39941e-17
6471.47821 1.40280e-17
6472.67333 1.39912e-17
6473.87849 1.39457e-17
6475.07361 1.39619e-17
6476.27877 1.38921e-17
6477.47388 1.38977e-17
6478.67904 1.39662e-17
6479.87416 1.39920e-17
6481.06928 1.39639e-17
6482.27444 1.40126e-17
6483.46955 1.39441e-17
6484.67471 1.38353e-17
6485.86983 1.39267e-17
6487.07499 1.38405e-17
6488.27011 1.39631e-17
6489.47527 1.38062e-17
6490.67038 1.39708e-17
6491.87554 1.38246e-17
6493.07066 1.37919e-17
6494.27582 1.39351e-17
6495.47094 1.41190e-17
6496.67610 1.43117e-17
6497.87122 1.44312e-17
6499.07637 1.42895e-17
6500.27149 1.42182e-17
6501.46661 1.43431e-17
6502.67177 1.43510e-17
6503.86689 1.42054e-17
6505.07205 1.42532e-17
6506.26716 1.43687e-17
6507.47232 1.44023e-17
6508.66744 1.42968e-17
6509.87260 1.42545e-17
6511.06772 1.43417e-17
6512.27288 1.43192e-17
6513.46799 1.42428e-17
6514.67315 1.42889e-17
6515.86827 1.42570e-17
6517.07343 1.41299e-17
6518.26855 1.42926e-17
6519.47371 1.44099e-17
6520.66882 1.44125e-17
6521.86394 1.43477e-17
6523.06910 1.43256e-17
6524.26422 1.42370e-17
6525.46938 1.44336e-17
6526.66450 1.44572e-17
6527.86966 1.45090e-17
6529.06477 1.45489e-17
6530.26993 1.46684e-17
6531.46505 1.47223e-17
6532.67021 1.44789e-17
6533.86533 1.46067e-17
6535.07049 1.46512e-17
6536.26560 1.45849e-17
6537.47076 1.43996e-17
6538.66588 1.44596e-17
6539.87104 1.44939e-17
6541.06616 1.44337e-17
6542.26127 1.46022e-17
6543.46643 1.44384e-17
6544.66155 1.44354e-17
6545.86671 1.44572e-17
6547.06183 1.44656e-17
6548.26699 1.44392e-17
6549.46211 1.43854e-17
6550.66727 1.44534e-17
6551.86238 1.45165e-17
6553.06754 1.45759e-17
6554.26266 1.45389e-17
6555.46782 1.43763e-17
6556.66294 1.43944e-17
6557.86810 1.43662e-17
6559.06321 1.42773e-17
6560.26837 1.43634e-17
6561.46349 1.42856e-17
6562.65861 1.42100e-17
6563.86377 1.41749e-17
6565.05888 1.42175e-17
6566.26404 1.42167e-17
6567.45916 1.42208e-17
6568.66432 1.42920e-17
6569.85944 1.41744e-17
6571.06460 1.40721e-17
6572.25972 1.43247e-17
6573.46488 1.41949e-17
6574.65999 1.42905e-17
6575.86515 1.43498e-17
6577.06027 1.43592e-17
6578.26543 1.42845e-17
6579.46055 1.41157e-17
6580.66571 1.40414e-17
6581.86082 1.39173e-17
6583.06598 1.40180e-17
6584.26110 1.41364e-17
6585.45622 1.41501e-17
6586.66138 1.39633e-17
6587.85649 1.40379e-17
6589.06166 1.41123e-17
6590.25677 1.41907e-17
6591.46193 1.44154e-17
6592.65705 1.44805e-17
6593.86221 1.44476e-17
6595.05733 1.43411e-17
6596.26249 1.40892e-17
6597.45760 1.39373e-17
6598.66276 1.38437e-17
6599.85788 1.38575e-17
6601.06304 1.38782e-17
6602.25816 1.39043e-17
6603.46332 1.38429e-17
6604.65843 1.38421e-17
6605.85355 1.38121e-17
6607.05871 1.38334e-17
6608.25383 1.36883e-17
6609.45899 1.36632e-17
6610.65411 1.35463e-17
6611.85927 1.36641e-17
6613.05438 1.36529e-17
6614.25954 1.35916e-17
6615.45466 1.35896e-17
6616.65982 1.33966e-17
6617.85494 1.34895e-17
6619.06010 1.33863e-17
6620.25521 1.32411e-17
6621.46037 1.32082e-17
6622.65549 1.30794e-17
6623.86065 1.30945e-17
6625.05577 1.32276e-17
6626.25088 1.32135e-17
6627.45604 1.31682e-17
6628.65116 1.30375e-17
6629.85632 1.29659e-17
6631.05144 1.30827e-17
6632.25660 1.30190e-17
6633.45172 1.28917e-17
6634.65687 1.29398e-17
6635.85199 1.29082e-17
6637.05715 1.28144e-17
6638.25227 1.27629e-17
6639.45743 1.27308e-17
6640.65255 1.27434e-17
6641.85771 1.26902e-17
6643.05282 1.24533e-17
6644.25798 1.25371e-17
6645.45310 1.24087e-17
6646.65826 1.23698e-17
6647.85338 1.24881e-17
6649.04849 1.24729e-17
6650.25365 1.25487e-17
6651.44877 1.25012e-17
6652.65393 1.23365e-17
6653.84905 1.24271e-17
6655.05421 1.23886e-17
6656.24932 1.22630e-17
6657.45448 1.22981e-17
6658.64960 1.23852e-17
6659.85476 1.23897e-17
6661.04988 1.23911e-17
6662.25504 1.24855e-17
6663.45016 1.24607e-17
6664.65532 1.25349e-17
6665.85043 1.25841e-17
6667.05559 1.25025e-17
6668.25071 1.25113e-17
6669.44583 1.25486e-17
6670.65099 1.24912e-17
6671.84610 1.25366e-17
6673.05126 1.25535e-17
6674.24638 1.24334e-17
6675.45154 1.24249e-17
6676.64666 1.24540e-17
6677.85182 1.24057e-17
6679.04693 1.24612e-17
6680.25209 1.24875e-17
6681.44721 1.25330e-17
6682.65237 1.27035e-17
6683.84749 1.25461e-17
6685.05265 1.25510e-17
6686.24777 1.25433e-17
6687.45293 1.26427e-17
6688.64804 1.25740e-17
6689.84316 1.26001e-17
6691.04832 1.26723e-17
6692.24344 1.27844e-17
6693.44860 1.27052e-17
6694.64371 1.27163e-17
6695.84887 1.27879e-17
6697.04399 1.27568e-17
6698.24915 1.28881e-17
6699.44427 1.27902e-17
6700.64943 1.27212e-17
6701.84454 1.26760e-17
6703.04971 1.28443e-17
6704.24482 1.28812e-17
6705.44998 1.28819e-17
6706.64510 1.28822e-17
6707.85026 1.28641e-17
6709.04538 1.27684e-17
6710.24049 1.28631e-17
6711.44565 1.28614e-17
6712.64077 1.26960e-17
6713.84593 1.26486e-17
6715.04105 1.27474e-17
6716.24621 1.27655e-17
6717.44132 1.26648e-17
6718.64648 1.26822e-17
6719.84160 1.26921e-17
6721.04676 1.26286e-17
6722.24188 1.26643e-17
6723.44704 1.27650e-17
6724.64216 1.27425e-17
6725.84731 1.26631e-17
6727.04243 1.26690e-17
6728.24759 1.26238e-17
6729.44271 1.26309e-17
6730.64787 1.25805e-17
6731.84299 1.26792e-17
6733.03810 1.25999e-17
6734.24326 1.24553e-17
6735.43838 1.26214e-17
6736.64354 1.26879e-17
6737.83866 1.26737e-17
6739.04382 1.25270e-17
6740.23893 1.25740e-17
6741.44409 1.25306e-17
6742.63921 1.23703e-17
6743.84437 1.24569e-17
6745.03949 1.25373e-17
6746.24465 1.25026e-17
6747.43977 1.24563e-17
6748.64492 1.23167e-17
6749.84004 1.23449e-17
6751.04520 1.23525e-17
6752.24032 1.23559e-17
6753.43544 1.23153e-17
6754.64060 1.22496e-17
6755.83571 1.22279e-17
6757.04087 1.22863e-17
6758.23599 1.23224e-17
6759.44115 1.21622e-17
6760.63627 1.21968e-17
6761.84143 1.21552e-17
6763.03654 1.21572e-17
6764.24170 1.20134e-17
6765.43682 1.19195e-17
6766.64198 1.19082e-17
6767.83710 1.19694e-17
6769.04226 1.18688e-17
6770.23737 1.18422e-17
6771.44253 1.19573e-17
6772.63765 1.19946e-17
6773.83277 1.18152e-17
6775.03793 1.17738e-17
6776.23305 1.18097e-17
6777.43821 1.16439e-17
6778.63332 1.15401e-17
6779.83848 1.16584e-17
6781.03360 1.16975e-17
6782.23876 1.16946e-17
6783.43388 1.16642e-17
6784.63904 1.14724e-17
6785.83415 1.14531e-17
6787.03931 1.14173e-17
6788.23443 1.13856e-17
6789.43959 1.13988e-17
6790.63471 1.13244e-17
6791.83987 1.12458e-17
6793.03498 1.12862e-17
6794.23010 1.12358e-17
6795.43526 1.11693e-17
6796.63038 1.11496e-17
6797.83554 1.09643e-17
6799.03066 1.08834e-17
6800.23582 1.08839e-17
6801.43093 1.07864e-17
6802.63609 1.08452e-17
6803.83121 1.07920e-17
6805.03637 1.08876e-17
6806.23149 1.07956e-17
6807.43665 1.08156e-17
6808.63176 1.06741e-17
6809.83692 1.07649e-17
6811.03204 1.07701e-17
6812.23720 1.08390e-17
6813.43232 1.06178e-17
6814.62743 1.07051e-17
6815.83259 1.07136e-17
6817.02771 1.05624e-17
6818.23287 1.07622e-17
6819.42799 1.05247e-17
6820.63315 1.05678e-17
6821.82827 1.05087e-17
6823.03343 1.05733e-17
6824.22854 1.05868e-17
6825.43370 1.07811e-17
6826.62882 1.09139e-17
6827.83398 1.09441e-17
6829.02910 1.09777e-17
6830.23426 1.10526e-17
6831.42937 1.08821e-17
6832.63453 1.07740e-17
6833.82965 1.08608e-17
6835.03481 1.07532e-17
6836.22993 1.06246e-17
6837.42504 1.05534e-17
6838.63021 1.03448e-17
6839.82532 1.03489e-17
6841.03048 1.04613e-17
6842.22560 1.04712e-17
6843.43076 1.04762e-17
6844.62588 1.04365e-17
6845.83104 1.03842e-17
6847.02615 1.03169e-17
6848.23131 1.03111e-17
6849.42643 1.04766e-17
6850.63159 1.03693e-17
6851.82671 1.02303e-17
6853.03187 1.02825e-17
6854.22698 1.04026e-17
6855.43214 1.03199e-17
6856.62726 1.05165e-17
6857.82238 1.02459e-17
6859.02754 1.03834e-17
6860.22266 1.05162e-17
6861.42782 1.07244e-17
6862.62293 1.08551e-17
6863.82809 1.08000e-17
6865.02321 1.05277e-17
6866.22837 1.01493e-17
6867.42349 9.80153e-18
6868.62865 9.89139e-18
6869.82376 9.87042e-18
6871.02892 9.78450e-18
6872.22404 9.79185e-18
6873.42920 9.72906e-18
6874.62432 9.83017e-18
6875.82948 9.89363e-18
6877.02459 9.96158e-18
6878.21971 1.02285e-17
6879.42487 1.02723e-17
6880.61999 1.03187e-17
6881.82515 1.02914e-17
6883.02027 1.02557e-17
6884.22542 1.01092e-17
6885.42054 9.99143e-18
6886.62570 9.97312e-18
6887.82082 9.93749e-18
6889.02598 1.00540e-17
6890.22110 1.00362e-17
6891.42626 9.84211e-18
6892.62137 9.99740e-18
6893.82653 9.80157e-18
6895.02165 1.00345e-17
6896.22681 9.90481e-18
6897.42193 9.94749e-18
6898.61704 9.94185e-18
6899.82220 1.01392e-17
6901.01732 1.00755e-17
6902.22248 1.01936e-17
6903.41760 1.03080e-17
6904.62276 1.00588e-17
6905.81787 1.00211e-17
6907.02303 9.97475e-18
6908.21815 1.00903e-17
6909.42331 1.03000e-17
6910.61843 1.04419e-17
6911.82359 1.06277e-17
6913.01871 1.06259e-17
6914.22387 1.04769e-17
6915.41898 1.03645e-17
6916.62414 1.02571e-17
6917.81926 1.03687e-17
6919.02442 1.05181e-17
6920.21954 1.06274e-17
6921.41465 1.07675e-17
6922.61981 1.08805e-17
6923.81493 1.09823e-17
6925.02009 1.07348e-17
6926.21521 1.04044e-17
6927.42037 1.05210e-17
6928.61548 1.05674e-17
6929.82064 1.08067e-17
6931.01576 1.10162e-17
6932.22092 1.08771e-17
6933.41604 1.07350e-17
6934.62120 1.07785e-17
6935.81632 1.06199e-17
6937.02148 1.05105e-17
6938.21659 1.06034e-17
6939.42175 1.07639e-17
6940.61687 1.08618e-17
6941.81199 1.07793e-17
6943.01715 1.07196e-17
6944.21226 1.07769e-17
6945.41742 1.08125e-17
6946.61254 1.09779e-17
6947.81770 1.10615e-17
6949.01282 1.10237e-17
6950.21798 1.08173e-17
6951.41309 1.06329e-17
6952.61826 1.05063e-17
6953.81337 1.04251e-17
6955.01853 1.03651e-17
6956.21365 1.03378e-17
6957.41881 1.04762e-17
6958.61393 1.06019e-17
6959.81909 1.05620e-17
6961.01420 1.05834e-17
6962.20932 1.05991e-17
6963.41448 1.05733e-17
6964.60960 1.07568e-17
6965.81476 1.07675e-17
6967.00987 1.06787e-17
6968.21503 1.08233e-17
6969.41015 1.08502e-17
6970.61531 1.07727e-17
6971.81043 1.06294e-17
6973.01559 1.06756e-17
6974.21071 1.07292e-17
6975.41586 1.07620e-17
6976.61098 1.09648e-17
6977.81614 1.08226e-17
6979.01126 1.09573e-17
6980.21642 1.09171e-17
6981.41154 1.06767e-17
6982.60665 1.05442e-17
6983.81181 1.06714e-17
6985.00693 1.05600e-17
6986.21209 1.03135e-17
6987.40721 1.03137e-17
6988.61237 1.03527e-17
6989.80748 1.03570e-17
6991.01264 1.03194e-17
6992.20776 1.03574e-17
6993.41292 1.02717e-17
6994.60804 1.02693e-17
6995.81320 1.03735e-17
6997.00832 1.02622e-17
6998.21347 1.02590e-17
6999.40859 1.02675e-17
7000.61375 1.02155e-17
7001.80887 1.02983e-17
7003.00399 1.02567e-17
7004.20915 1.01742e-17
7005.40426 1.00389e-17
7006.60942 1.00856e-17
7007.80454 1.01160e-17
7009.00970 1.00939e-17
7010.20482 1.01876e-17
7011.40998 1.00602e-17
7012.60509 1.00257e-17
7013.81025 9.93124e-18
7015.00537 9.84958e-18
7016.21053 9.88268e-18
7017.40565 1.00159e-17
7018.61081 9.98608e-18
7019.80592 9.82090e-18
7021.01108 9.85613e-18
7022.20620 9.89785e-18
7023.41136 9.82535e-18
7024.60648 9.86386e-18
7025.80160 9.73551e-18
7027.00676 9.80367e-18
7028.20187 9.83749e-18
7029.40703 9.77617e-18
7030.60215 9.76483e-18
7031.80731 9.84124e-18
7033.00243 9.85898e-18
7034.20759 9.75181e-18
7035.40270 9.66323e-18
7036.60786 9.72770e-18
7037.80298 9.77613e-18
7039.00814 9.70321e-18
7040.20326 9.72689e-18
7041.40842 9.65674e-18
7042.60353 9.70568e-18
7043.80869 9.78260e-18
7045.00381 9.83706e-18
7046.19893 9.93749e-18
7047.40409 9.87288e-18
7048.59921 9.85130e-18
7049.80437 1.00325e-17
7050.99948 9.76328e-18
7052.20464 9.73158e-18
7053.39976 9.78949e-18
7054.60492 9.74024e-18
7055.80004 9.75550e-18
7057.00520 9.78862e-18
7058.20031 9.72386e-18
7059.40547 9.71313e-18
7060.60059 9.78274e-18
7061.80575 9.80994e-18
7063.00087 9.91852e-18
7064.20603 9.86244e-18
7065.40114 9.78510e-18
7066.60631 9.86244e-18
7067.80142 9.87135e-18
7068.99654 9.99964e-18
7070.20170 9.97469e-18
7071.39682 9.79346e-18
7072.60198 9.78662e-18
7073.79709 9.80049e-18
7075.00225 9.81442e-18
7076.19737 9.85853e-18
7077.40253 9.79987e-18
7078.59765 9.75545e-18
7079.80281 9.75247e-18
7080.99792 9.96334e-18
7082.20308 9.98152e-18
7083.39820 9.79495e-18
7084.60336 9.84109e-18
7085.79848 9.88337e-18
7087.00364 9.87138e-18
7088.19876 9.88721e-18
7089.39387 9.88617e-18
7090.59903 9.84811e-18
7091.79415 9.69817e-18
7092.99931 9.68524e-18
7094.19443 9.57732e-18
7095.39959 9.72158e-18
7096.59470 9.71232e-18
7097.79986 9.58344e-18
7098.99498 9.66497e-18
7100.20014 9.56947e-18
7101.39526 9.56658e-18
7102.60042 9.62150e-18
7103.79553 9.50113e-18
7105.00069 9.32083e-18
7106.19581 9.53094e-18
7107.40097 9.61043e-18
7108.59609 9.58485e-18
7109.79121 9.49524e-18
7110.99636 9.49126e-18
7112.19148 9.54231e-18
7113.39664 9.44421e-18
7114.59176 9.34240e-18
7115.79692 9.37631e-18
7116.99204 9.35807e-18
7118.19720 9.28957e-18
7119.39231 9.28650e-18
7120.59747 9.35813e-18
7121.79259 9.34048e-18
7122.99775 9.25154e-18
7124.19287 9.28446e-18
7125.39803 9.26631e-18
7126.59314 9.17846e-18
7127.79830 9.30159e-18
7128.99342 9.25141e-18
7130.19858 8.99631e-18
7131.39370 9.18327e-18
7132.58882 9.09888e-18
7133.79397 9.09895e-18
7134.98909 9.19128e-18
7136.19425 9.10914e-18
7137.38937 9.12694e-18
7138.59453 9.21251e-18
7139.78965 9.20362e-18
7140.99481 9.20775e-18
7142.18992 9.24167e-18
7143.39508 9.19223e-18
7144.59020 9.16039e-18
7145.79536 9.17416e-18
7146.99048 9.25922e-18
7148.19564 9.42017e-18
7149.39075 9.47571e-18
7150.59591 9.53498e-18
7151.79103 9.51753e-18
7152.98615 9.38203e-18
7154.19131 9.25276e-18
7155.38642 9.20242e-18
7156.59158 9.25114e-18
7157.78670 9.38358e-18
7158.99186 9.51919e-18
7160.18698 9.54512e-18
7161.39214 9.47279e-18
7162.58726 9.48682e-18
7163.79242 9.38001e-18
7164.98753 9.47824e-18
7166.19269 9.39593e-18
7167.38781 9.43268e-18
7168.59297 9.38757e-18
7169.78809 9.50073e-18
7170.99325 9.41528e-18
7172.18836 9.49966e-18
7173.38348 9.47757e-18
7174.58864 9.39369e-18
7175.78376 9.31816e-18
7176.98892 9.39287e-18
7178.18403 9.36763e-18
7179.38919 9.41558e-18
7180.58431 9.48786e-18
7181.78947 9.57843e-18
7182.98459 9.28990e-18
7184.18975 9.27539e-18
7185.38487 9.17361e-18
7186.59003 9.27898e-18
7187.78514 9.40218e-18
7188.99030 9.41932e-18
7190.18542 9.51476e-18
7191.39058 9.36265e-18
7192.58570 9.38372e-18
7193.78081 9.55548e-18
7194.98597 9.64424e-18
7196.18109 9.71309e-18
7197.38625 9.65848e-18
7198.58137 9.54869e-18
7199.78653 9.54302e-18
7200.98164 9.56414e-18
7202.18681 9.58163e-18
7203.38192 9.53310e-18
7204.58708 9.54269e-18
7205.78220 9.63297e-18
7206.98736 9.78680e-18
7208.18248 9.91706e-18
7209.38764 1.00900e-17
7210.58275 1.01627e-17
7211.78791 1.01495e-17
7212.98303 9.92883e-18
7214.17815 1.00512e-17
7215.38331 1.01875e-17
7216.57842 1.01410e-17
7217.78358 1.00040e-17
7218.97870 1.01770e-17
7220.18386 1.02023e-17
7221.37898 1.01361e-17
7222.58414 1.02432e-17
7223.77926 1.01670e-17
7224.98441 1.01405e-17
7226.17953 1.00187e-17
7227.38469 1.00104e-17
7228.57981 1.00810e-17
7229.78497 1.00013e-17
7230.98009 9.88546e-18
7232.18525 9.59050e-18
7233.38036 9.39987e-18
7234.57548 9.49448e-18
7235.78064 9.82778e-18
7236.97576 1.02439e-17
7238.18092 1.05697e-17
7239.37603 1.07015e-17
7240.58119 1.06841e-17
7241.77631 1.06681e-17
7242.98147 1.07228e-17
7244.17659 1.05959e-17
7245.38175 1.05135e-17
7246.57686 1.04046e-17
7247.78202 1.00556e-17
7248.97714 9.66372e-18
7250.18230 9.49224e-18
7251.37742 9.42535e-18
7252.58258 9.56588e-18
7253.77770 9.89586e-18
7254.98286 9.51120e-18
7256.17797 9.66287e-18
7257.37309 9.42791e-18
7258.57825 9.62958e-18
7259.77337 9.46678e-18
7260.97853 9.41654e-18
7262.17364 9.27764e-18
7263.37880 9.27984e-18
7264.57392 9.28212e-18
7265.77908 9.31680e-18
7266.97420 9.46937e-18
7268.17936 9.48140e-18
7269.37447 9.57709e-18
7270.57964 9.56314e-18
7271.77475 9.65280e-18
7272.97991 9.96479e-18
7274.17503 1.02740e-17
7275.38019 1.05036e-17
7276.57531 1.04456e-17
7277.77042 1.01661e-17
7278.97558 9.73740e-18
7280.17070 9.51766e-18
7281.37586 9.74814e-18
7282.57098 9.99317e-18
7283.77614 1.00698e-17
7284.97125 9.92896e-18
7286.17641 9.61081e-18
7287.37153 9.30799e-18
7288.57669 9.13732e-18
7289.77181 9.19192e-18
7290.97697 9.06616e-18
7292.17208 9.33858e-18
7293.37724 9.50779e-18
7294.57236 9.57465e-18
7295.77752 9.53552e-18
7296.97264 9.61965e-18
7298.17780 9.48089e-18
7299.37292 9.39410e-18
7300.56803 9.40276e-18
7301.77319 9.56636e-18
7302.96831 9.51046e-18
7304.17347 9.56162e-18
7305.36859 9.72394e-18
7306.57375 9.57282e-18
7307.76886 9.57968e-18
7308.97402 9.36174e-18
7310.16914 9.35468e-18
7311.37430 9.44626e-18
7312.56942 9.73774e-18
7313.77458 1.01208e-17
7314.96969 1.03690e-17
7316.17486 1.05012e-17
7317.36997 1.02683e-17
7318.57513 9.88518e-18
7319.77025 9.64623e-18
7320.96537 9.48250e-18
7322.17053 9.48714e-18
7323.36564 9.66309e-18
7324.57080 9.74692e-18
7325.76592 9.78620e-18
7326.97108 9.97559e-18
7328.16620 1.01588e-17
7329.37136 1.01755e-17
7330.56647 1.00327e-17
7331.77163 9.89276e-18
7332.96675 9.70797e-18
7334.17191 9.55685e-18
7335.36703 9.67681e-18
7336.57219 9.88603e-18
7337.76731 1.02756e-17
7338.97246 1.08415e-17
7340.16758 1.11323e-17
7341.37274 1.09896e-17
7342.56786 1.05207e-17
7343.76298 9.98377e-18
7344.96814 9.77119e-18
7346.16325 9.89462e-18
7347.36841 9.73269e-18
7348.56353 9.75721e-18
7349.76869 9.70594e-18
7350.96381 9.76156e-18
7352.16897 9.66247e-18
7353.36408 9.72042e-18
7354.56924 9.72838e-18
7355.76436 1.00628e-17
7356.96952 1.02756e-17
7358.16464 1.02679e-17
7359.36980 1.01887e-17
7360.56491 9.99838e-18
7361.77007 9.82708e-18
7362.96519 9.78936e-18
7364.16031 9.82335e-18
7365.36547 1.00310e-17
7366.56059 1.04083e-17
7367.76575 1.06846e-17
7368.96086 1.08148e-17
7370.16602 1.07357e-17
7371.36114 1.04660e-17
7372.56630 1.00752e-17
7373.76142 9.91439e-18
7374.96658 9.93869e-18
7376.16169 9.97722e-18
7377.36685 9.85768e-18
7378.56197 9.94754e-18
7379.76713 9.96080e-18
7380.96225 9.88146e-18
7382.16741 9.91920e-18
7383.36252 9.91501e-18
7384.55764 9.98772e-18
7385.76280 1.00115e-17
7386.95792 1.00029e-17
7388.16308 1.01339e-17
7389.35820 1.02020e-17
7390.56336 1.02065e-17
7391.75847 1.03707e-17
7392.96363 1.02424e-17
7394.15875 1.01627e-17
7395.36391 1.00358e-17
7396.55903 1.00860e-17
7397.76419 1.02409e-17
7398.95930 1.05555e-17
7400.16446 1.06483e-17
7401.35958 1.07603e-17
7402.56474 1.08232e-17
7403.75986 1.05943e-17
7404.95497 1.03743e-17
7406.16013 1.01933e-17
7407.35525 1.00979e-17
7408.56041 1.01776e-17
7409.75553 1.02532e-17
7410.96069 1.01767e-17
7412.15581 1.00794e-17
7413.36097 1.02917e-17
7414.55608 1.04203e-17
7415.76124 1.03331e-17
7416.95636 1.02860e-17
7418.16152 1.04767e-17
7419.35664 1.03256e-17
7420.56180 1.03482e-17
7421.75691 1.01979e-17
7422.96207 1.02822e-17
7424.15719 1.02280e-17
7425.35231 1.02433e-17
7426.55747 1.04131e-17
7427.75258 1.04582e-17
7428.95774 1.04896e-17
7430.15286 1.03094e-17
7431.35802 1.02319e-17
7432.55314 1.03495e-17
7433.75830 1.02749e-17
7434.95342 1.03731e-17
7436.15858 1.05087e-17
7437.35369 1.04921e-17
7438.55885 1.05725e-17
7439.75397 1.04841e-17
7440.95913 1.02210e-17
7442.15425 1.00937e-17
7443.35941 1.00865e-17
7444.55452 1.00253e-17
7445.75968 9.94760e-18
7446.95480 9.94412e-18
7448.14992 9.97498e-18
7449.35508 9.93542e-18
7450.55019 9.87402e-18
7451.75536 9.76827e-18
7452.95047 9.61424e-18
7454.15563 9.58825e-18
7455.35075 9.46606e-18
7456.55591 9.54646e-18
7457.75103 9.52803e-18
7458.95619 9.54809e-18
7460.15130 9.56101e-18
7461.35646 9.64989e-18
7462.55158 9.34961e-18
7463.75674 9.39614e-18
7464.95186 9.32834e-18
7466.15702 9.32773e-18
7467.35213 9.31561e-18
7468.54725 9.00084e-18
7469.75241 8.95336e-18
7470.94753 8.94081e-18
7472.15269 8.88963e-18
7473.34781 8.79716e-18
7474.55296 8.69077e-18
7475.74808 8.49912e-18
7476.95324 8.48273e-18
7478.14836 8.35004e-18
7479.35352 8.25075e-18
7480.54864 8.27439e-18
7481.75380 8.24503e-18
7482.94891 8.09207e-18
7484.15407 7.87077e-18
7485.34919 7.75172e-18
7486.55435 7.78166e-18
7487.74947 7.65112e-18
7488.94458 7.53151e-18
7490.14974 7.54393e-18
7491.34486 7.50473e-18
7492.55002 7.35808e-18
7493.74514 7.27440e-18
7494.95030 7.22500e-18
7496.14541 7.15719e-18
7497.35057 7.16959e-18
7498.54569 7.03321e-18
7499.75085 6.98976e-18
7500.94597 7.01910e-18
7502.15113 6.89228e-18
7503.34625 6.78851e-18
7504.55141 6.79907e-18
7505.74652 6.74510e-18
7506.95168 6.73901e-18
7508.14680 6.68297e-18
7509.34192 6.58050e-18
7510.54708 6.68324e-18
7511.74219 6.61504e-18
7512.94735 6.38092e-18
7514.14247 6.49971e-18
7515.34763 6.43694e-18
7516.54275 6.66507e-18
7517.74791 6.47824e-18
7518.94302 6.26189e-18
7520.14819 6.45862e-18
7521.34330 6.78293e-18
7522.54846 6.90832e-18
7523.74358 6.88846e-18
7524.94874 6.68951e-18
7526.14386 6.48964e-18
7527.34902 6.31398e-18
7528.54413 6.16717e-18
7529.74929 6.01629e-18
7530.94441 5.99938e-18
7532.13953 5.91087e-18
7533.34469 5.84887e-18
7534.53980 5.76927e-18
7535.74496 5.68082e-18
7536.94008 5.67560e-18
7538.14524 5.61379e-18
7539.34036 5.55139e-18
7540.54552 5.52325e-18
7541.74063 5.49442e-18
7542.94579 5.51969e-18
7544.14091 5.54160e-18
7545.34607 5.52722e-18
7546.54119 5.48845e-18
7547.74635 5.42281e-18
7548.94147 5.43355e-18
7550.14663 5.53477e-18
7551.34174 5.59781e-18
7552.53686 5.60390e-18
7553.74202 5.60784e-18
7554.93714 5.66191e-18
7556.14230 5.69311e-18
7557.33741 5.74226e-18
7558.54257 5.67913e-18
7559.73769 5.68050e-18
7560.94285 5.61417e-18
7562.13797 5.68985e-18
7563.34313 5.69793e-18
7564.53824 5.78399e-18
7565.74341 5.60634e-18
7566.93852 5.66999e-18
7568.14368 5.80854e-18
7569.33880 5.92971e-18
7570.54396 6.08226e-18
7571.73908 6.04820e-18
7572.94424 5.99676e-18
7574.13935 5.85344e-18
7575.33447 5.69444e-18
7576.53963 5.68927e-18
7577.73475 5.64856e-18
7578.93991 5.55354e-18
7580.13502 5.51360e-18
7581.34018 5.54668e-18
7582.53530 5.63886e-18
7583.74046 5.74569e-18
7584.93558 5.72456e-18
7586.14074 5.61107e-18
7587.33586 5.61492e-18
7588.54101 5.55850e-18
7589.73613 5.54950e-18
7590.94129 5.47838e-18
7592.13641 5.38390e-18
7593.34157 5.59580e-18
7594.53669 5.48419e-18
7595.73180 5.57932e-18
7596.93696 5.65053e-18
7598.13208 5.36359e-18
7599.33724 5.05202e-18
7600.53236 4.87058e-18
7601.73752 4.62449e-18
7602.93263 4.72061e-18
7604.13779 4.45431e-18
7605.33291 4.45643e-18
7606.53807 4.41534e-18
7607.73319 4.68640e-18
7608.93835 4.86522e-18
7610.13346 4.85508e-18
7611.33862 5.27639e-18
7612.53374 5.44431e-18
7613.73890 5.71122e-18
7614.93402 6.06043e-18
7616.12914 6.17447e-18
7617.33430 6.19332e-18
7618.52941 6.06413e-18
7619.73457 5.96026e-18
7620.92969 5.97383e-18
7622.13485 5.94436e-18
7623.32997 5.80882e-18
7624.53513 5.74462e-18
7625.73024 5.82246e-18
7626.93540 5.92054e-18
7628.13052 6.03483e-18
7629.33568 6.07128e-18
7630.53080 6.04049e-18
7631.73596 6.01699e-18
7632.93107 5.95439e-18
7634.13623 5.85644e-18
7635.33135 5.98418e-18
7636.52647 6.04458e-18
7637.73163 5.98371e-18
7638.92675 6.11536e-18
7640.13191 6.34425e-18
7641.32702 6.46913e-18
7642.53218 6.45440e-18
7643.72730 6.35476e-18
7644.93246 6.40155e-18
7646.12758 6.60129e-18
7647.33274 6.93730e-18
7648.52785 6.91116e-18
7649.73301 6.87823e-18
7650.92813 7.14724e-18
7652.13329 7.44504e-18
7653.32841 7.58741e-18
7654.53357 7.45205e-18
7655.72869 7.80271e-18
7656.93384 7.67099e-18
7658.12896 7.85377e-18
7659.32408 8.00503e-18
7660.52924 8.46329e-18
7661.72436 8.92542e-18
7662.92952 9.10837e-18
7664.12463 8.99355e-18
7665.32979 8.48454e-18
7666.52491 8.13437e-18
7667.73007 7.95216e-18
7668.92519 7.86531e-18
7670.13035 7.88488e-18
7671.32546 7.91995e-18
7672.53062 7.92463e-18
7673.72574 8.06659e-18
7674.93090 8.25498e-18
7676.12602 8.34221e-18
7677.33118 8.37367e-18
7678.52629 8.41367e-18
7679.72141 8.44392e-18
7680.92657 8.46260e-18
7682.12169 8.53734e-18
7683.32685 8.50589e-18
7684.52197 8.52543e-18
7685.72713 8.70607e-18
7686.92224 8.80314e-18
7688.12740 8.85700e-18
7689.32252 8.98851e-18
7690.52768 8.88487e-18
7691.72280 9.08737e-18
7692.92796 9.01207e-18
7694.12307 9.12602e-18
7695.32823 9.53894e-18
7696.52335 9.60968e-18
7697.72851 9.79683e-18
7698.92363 9.67354e-18
7700.11874 9.46529e-18
7701.32391 9.41900e-18
7702.51902 9.20527e-18
7703.72418 9.13027e-18
7704.91930 9.25341e-18
7706.12446 9.30724e-18
7707.31958 9.56225e-18
7708.52474 9.96801e-18
7709.71985 1.04251e-17
7710.92501 1.09808e-17
7712.12013 1.12502e-17
7713.32529 1.13424e-17
7714.52041 1.13954e-17
7715.72557 1.10386e-17
7716.92068 1.07296e-17
7718.12584 1.05020e-17
7719.32096 1.02340e-17
7720.51608 9.94576e-18
7721.72124 9.86061e-18
7722.91636 9.90697e-18
7724.12151 9.90497e-18
7725.31663 9.89330e-18
7726.52179 9.79745e-18
7727.71691 9.58832e-18
7728.92207 9.43126e-18
7730.11719 9.28327e-18
7731.32235 9.39705e-18
7732.51746 9.42311e-18
7733.72262 9.45449e-18
7734.91774 9.43878e-18
7736.12290 9.59702e-18
7737.31802 9.28691e-18
7738.52318 9.25480e-18
7739.71829 9.40999e-18
7740.91341 9.56821e-18
7742.11857 9.39471e-18
7743.31369 9.64202e-18
7744.51885 9.58460e-18
7745.71396 9.69771e-18
7746.91912 9.96556e-18
7748.11424 1.07299e-17
7749.31940 1.12506e-17
7750.51452 1.12103e-17
7751.71968 1.08044e-17
7752.91480 1.04222e-17
7754.11996 1.01343e-17
7755.31507 9.75433e-18
7756.52023 1.01225e-17
7757.71535 1.03763e-17
7758.92051 1.04673e-17
7760.11563 1.04222e-17
7761.31074 1.02404e-17
7762.51590 1.00824e-17
7763.71102 1.00412e-17
7764.91618 1.00938e-17
7766.11130 1.01067e-17
7767.31646 1.02417e-17
7768.51157 1.03107e-17
7769.71673 1.02658e-17
7770.91185 1.04377e-17
7772.11701 1.05934e-17
7773.31213 1.05028e-17
7774.51729 1.04750e-17
7775.71241 1.06088e-17
7776.91757 1.06820e-17
7778.11268 1.07456e-17
7779.31784 1.09097e-17
7780.51296 1.09573e-17
7781.71812 1.09335e-17
7782.91324 1.07506e-17
7784.10835 1.08050e-17
7785.31351 1.06865e-17
7786.50863 1.06886e-17
7787.71379 1.06332e-17
7788.90891 1.09482e-17
7790.11407 1.12051e-17
7791.30918 1.18384e-17
7792.51434 1.20359e-17
7793.70946 1.20144e-17
7794.91462 1.18111e-17
7796.10974 1.15493e-17
7797.31490 1.10655e-17
7798.51002 1.06929e-17
7799.71518 1.09800e-17
7800.91029 1.08146e-17
7802.11545 1.10035e-17
7803.31057 1.09776e-17
7804.51573 1.11475e-17
7805.71085 1.14394e-17
7806.90596 1.15699e-17
7808.11112 1.14941e-17
7809.30624 1.15116e-17
7810.51140 1.14321e-17
7811.70652 1.12071e-17
7812.91168 1.10833e-17
7814.10679 1.11665e-17
7815.31196 1.10311e-17
7816.50707 1.13193e-17
7817.71223 1.16751e-17
7818.90735 1.19874e-17
7820.11251 1.24531e-17
7821.30763 1.26247e-17
7822.51279 1.23871e-17
7823.70790 1.19011e-17
7824.91306 1.14164e-17
7826.10818 1.11607e-17
7827.30330 1.10739e-17
7828.50846 1.11615e-17
7829.70357 1.11161e-17
7830.90873 1.11103e-17
7832.10385 1.11770e-17
7833.30901 1.11557e-17
7834.50413 1.11325e-17
7835.70929 1.13169e-17
7836.90441 1.12646e-17
7838.10956 1.14094e-17
7839.30468 1.15511e-17
7840.50984 1.15125e-17
7841.70496 1.15813e-17
7842.91012 1.15085e-17
7844.10524 1.14551e-17
7845.31040 1.11608e-17
7846.50551 1.12056e-17
7847.70063 1.14611e-17
7848.90579 1.15715e-17
7850.10091 1.21762e-17
7851.30607 1.29863e-17
7852.50118 1.30169e-17
7853.70634 1.29397e-17
7854.90146 1.25955e-17
7856.10662 1.20833e-17
7857.30174 1.17785e-17
7858.50690 1.17329e-17
7859.70201 1.16820e-17
7860.90717 1.15900e-17
7862.10229 1.16173e-17
7863.30745 1.14917e-17
7864.50257 1.13244e-17
7865.70773 1.13423e-17
7866.90285 1.15160e-17
7868.10801 1.18039e-17
7869.30312 1.19230e-17
7870.49824 1.17531e-17
7871.70340 1.15824e-17
7872.89852 1.14624e-17
7874.10368 1.13791e-17
7875.29879 1.13428e-17
7876.50395 1.13701e-17
7877.69907 1.14757e-17
7878.90423 1.15803e-17
7880.09935 1.15955e-17
7881.30451 1.14955e-17
7882.49962 1.13976e-17
7883.70478 1.13823e-17
7884.89990 1.12949e-17
7886.10506 1.13836e-17
7887.30018 1.15813e-17
7888.50534 1.19255e-17
7889.70046 1.20291e-17
7890.89557 1.17321e-17
7892.10073 1.13675e-17
7893.29585 1.10729e-17
7894.50101 1.08578e-17
7895.69613 1.07389e-17
7896.90129 1.07832e-17
7898.09640 1.08171e-17
7899.30156 1.05602e-17
7900.49668 1.07323e-17
7901.70184 1.06048e-17
7902.89696 1.06076e-17
7904.10212 1.08551e-17
7905.29724 1.06814e-17
7906.50239 1.05774e-17
7907.69751 1.07545e-17
7908.90267 1.09414e-17
7910.09779 1.13325e-17
7911.29291 1.22446e-17
7912.49807 1.26388e-17
7913.69318 1.24539e-17
7914.89834 1.20404e-17
7916.09346 1.15333e-17
7917.29862 1.10310e-17
7918.49374 1.10575e-17
7919.69890 1.13117e-17
7920.89401 1.12838e-17
7922.09917 1.10478e-17
7923.29429 1.07396e-17
7924.49945 1.05307e-17
7925.69457 1.04965e-17
7926.89973 1.04645e-17
7928.09484 1.06824e-17
7929.30001 1.08593e-17
7930.49512 1.08983e-17
7931.69024 1.09783e-17
7932.89540 1.07345e-17
7934.09052 1.03623e-17
7935.29568 1.02538e-17
7936.49079 1.01653e-17
7937.69595 1.01673e-17
7938.89107 1.01602e-17
7940.09623 1.00045e-17
7941.29135 9.96383e-18
7942.49651 9.89321e-18
7943.69162 1.00637e-17
7944.89678 1.01595e-17
7946.09190 1.04341e-17
7947.29706 1.04727e-17
7948.49218 1.02193e-17
7949.69734 1.02250e-17
7950.89246 9.99895e-18
7952.08757 1.01371e-17
7953.29273 9.79167e-18
7954.48785 9.69679e-18
7955.69301 9.58026e-18
7956.88813 9.73828e-18
7958.09329 9.54075e-18
7959.28840 9.63804e-18
7960.49356 9.76847e-18
7961.68868 1.02698e-17
7962.89384 1.05580e-17
7964.08896 1.07797e-17
7965.29412 1.08651e-17
7966.48923 1.04726e-17
7967.69439 9.93061e-18
7968.88951 9.70954e-18
7970.09467 9.68262e-18
7971.28979 9.43643e-18
7972.48491 9.44523e-18
7973.69006 9.51797e-18
7974.88518 9.79628e-18
7976.09034 9.83460e-18
7977.28546 9.95995e-18
7978.49062 1.01273e-17
7979.68574 1.00713e-17
7980.89090 9.83354e-18
7982.08601 9.66363e-18
7983.29117 9.43011e-18
7984.48629 9.23777e-18
7985.69145 9.26249e-18
7986.88657 9.35375e-18
7988.09173 9.46512e-18
7989.28684 9.71141e-18
7990.49200 1.00954e-17
7991.68712 1.05228e-17
7992.89228 1.08138e-17
7994.08740 1.06883e-17
7995.28251 1.01127e-17
7996.48767 9.50854e-18
7997.68279 9.22827e-18
7998.88795 9.03045e-18
8000.08307 9.22026e-18
8001.28823 9.16310e-18
8002.48335 9.15883e-18
8003.68851 8.94891e-18
8004.88362 8.85534e-18
8006.08878 8.97148e-18
8007.28390 8.94501e-18
8008.48906 8.98985e-18
8009.68418 8.98501e-18
8010.88934 9.15836e-18
8012.08445 9.34430e-18
8013.28961 9.29201e-18
8014.48473 9.60579e-18
8015.67985 9.18176e-18
8016.88501 9.12539e-18
8018.08012 8.90569e-18
8019.28528 9.08412e-18
8020.48040 9.03786e-18
8021.68556 9.27255e-18
8022.88068 9.59307e-18
8024.08584 9.92496e-18
8025.28096 1.00401e-17
8026.48612 9.79076e-18
8027.68123 9.76911e-18
8028.88639 9.20508e-18
8030.08151 8.85758e-18
8031.28667 8.81229e-18
8032.48179 8.63000e-18
8033.68695 8.55504e-18
8034.88206 8.53835e-18
8036.08722 8.55208e-18
8037.28234 8.52797e-18
8038.47746 8.40457e-18
8039.68262 8.40133e-18
8040.87774 8.50093e-18
8042.08289 8.37817e-18
8043.27801 8.28801e-18
8044.48317 8.33231e-18
8045.67829 8.30650e-18
8046.88345 8.29425e-18
8048.07857 8.35921e-18
8049.28373 8.47676e-18
8050.47884 8.49618e-18
8051.68400 8.38436e-18
8052.87912 8.34625e-18
8054.08428 8.24561e-18
8055.27940 8.11675e-18
8056.48456 8.10980e-18
8057.67967 8.19953e-18
8058.87479 8.23349e-18
8060.07995 8.47304e-18
8061.27507 8.54185e-18
8062.48023 8.72145e-18
8063.67534 8.50939e-18
8064.88051 8.12036e-18
8066.07562 7.94696e-18
8067.28078 7.92004e-18
8068.47590 7.80269e-18
8069.68106 7.86980e-18
8070.87618 7.85440e-18
8072.08134 7.67877e-18
8073.27645 7.72362e-18
8074.48161 7.71783e-18
8075.67673 7.63437e-18
8076.88189 7.86206e-18
8078.07701 7.85922e-18
8079.27212 7.66729e-18
8080.47728 7.61147e-18
8081.67240 7.76041e-18
8082.87756 7.63522e-18
8084.07268 7.56201e-18
8085.27784 7.63513e-18
8086.47296 7.58425e-18
8087.67811 7.37462e-18
8088.87323 7.46219e-18
8090.07839 7.67795e-18
8091.27351 7.67607e-18
8092.47867 7.52298e-18
8093.67379 7.59310e-18
8094.87895 7.66511e-18
8096.07406 7.62179e-18
8097.27922 7.53757e-18
8098.47434 7.57149e-18
8099.66946 7.64058e-18
8100.87462 7.68332e-18
8102.06973 7.80522e-18
8103.27489 7.68419e-18
8104.47001 7.62998e-18
8105.67517 7.59194e-18
8106.87029 7.39512e-18
8108.07545 7.29630e-18
8109.27056 7.33185e-18
8110.47572 7.33576e-18
8111.67084 7.29532e-18
8112.87600 7.27664e-18
8114.07112 7.28892e-18
8115.27628 7.31215e-18
8116.47140 7.32533e-18
8117.67656 7.22666e-18
8118.87167 7.09770e-18
8120.07683 7.10560e-18
8121.27195 7.22391e-18
8122.46707 7.23654e-18
8123.67223 7.12060e-18
8124.86734 6.99154e-18
8126.07250 6.83460e-18
8127.26762 6.87351e-18
8128.47278 6.80818e-18
8129.66790 6.62934e-18
8130.87306 6.52980e-18
8132.06817 6.41980e-18
8133.27333 6.32733e-18
8134.46845 6.37028e-18
8135.67361 6.19131e-18
8136.86873 6.22281e-18
8138.07389 6.28324e-18
8139.26901 6.16525e-18
8140.47417 6.00411e-18
8141.66928 5.73300e-18
8142.86440 5.99756e-18
8144.06956 5.96868e-18
8145.26468 6.01136e-18
8146.46984 5.76237e-18
8147.66495 5.71579e-18
8148.87011 5.72622e-18
8150.06523 5.48191e-18
8151.27039 5.50879e-18
8152.46551 5.42034e-18
8153.67067 5.39738e-18
8154.86578 5.50891e-18
8156.07094 5.33774e-18
8157.26606 5.36212e-18
8158.47122 5.48304e-18
8159.66634 5.23653e-18
8160.87150 5.18381e-18
8162.06662 4.98523e-18
8163.26173 4.94817e-18
8164.46689 4.96244e-18
8165.66201 4.99718e-18
8166.86717 5.00371e-18
8168.06229 4.91743e-18
8169.26745 4.87242e-18
8170.46256 4.85248e-18
8171.66772 4.76721e-18
8172.86284 4.69396e-18
8174.06800 4.63559e-18
8175.26312 4.57534e-18
8176.46828 4.33782e-18
8177.66339 4.11226e-18
8178.86856 4.02577e-18
8180.06367 4.13094e-18
8181.26883 4.20424e-18
8182.46395 4.13022e-18
8183.65907 4.16682e-18
8184.86423 4.06834e-18
8186.05934 3.92255e-18
8187.26450 3.81664e-18
8188.45962 3.64694e-18
8189.66478 3.61748e-18
8190.85990 3.59646e-18
8192.06506 3.55541e-18
8193.26017 3.48576e-18
8194.46533 3.41133e-18
8195.66045 3.39170e-18
8196.86561 3.25170e-18
8198.06073 3.31068e-18
8199.26589 3.15169e-18
8200.46101 3.06328e-18
8201.66617 3.15244e-18
8202.86128 3.13585e-18
8204.06644 3.15505e-18
8205.26156 3.06282e-18
8206.45668 3.06287e-18
8207.66184 2.97129e-18
8208.85695 2.90141e-18
8210.06211 2.70281e-18
8211.25723 2.66774e-18
8212.46239 2.68206e-18
8213.65751 2.60119e-18
8214.86267 2.68059e-18
8216.05778 2.58827e-18
8217.26294 2.50057e-18
8218.45806 2.46555e-18
8219.66322 2.35052e-18
8220.85834 2.31942e-18
8222.06350 2.32774e-18
8223.25862 2.32490e-18
8224.46378 2.20055e-18
8225.65889 2.09827e-18
8226.85401 1.98144e-18
8228.05917 1.92427e-18
8229.25429 1.82739e-18
8230.45945 2.00084e-18
8231.65456 2.05820e-18
8232.85972 2.13147e-18
8234.05484 2.13022e-18
8235.26000 2.06603e-18
8236.45512 2.13648e-18
8237.66028 2.19604e-18
8238.85539 2.23333e-18
8240.06055 2.17478e-18
8241.25567 2.07442e-18
8242.46083 2.05225e-18
8243.65595 2.11965e-18
8244.86111 2.18173e-18
8246.05623 2.17451e-18
8247.25134 2.20073e-18
8248.45650 2.17240e-18
8249.65162 2.09739e-18
8250.85678 2.07857e-18
8252.05190 2.08497e-18
8253.25706 2.14209e-18
8254.45217 2.20203e-18
8255.65733 2.15297e-18
8256.85245 2.11251e-18
8258.05761 2.15237e-18
8259.25273 2.18321e-18
8260.45789 2.16325e-18
8261.65300 2.16698e-18
8262.85816 2.25343e-18
8264.05328 2.28333e-18
8265.25844 2.24343e-18
8266.45356 2.29011e-18
8267.64868 2.33883e-18
8268.85383 2.37013e-18
8270.04895 2.31555e-18
8271.25411 2.37675e-18
8272.44923 2.41933e-18
8273.65439 2.43983e-18
8274.84951 2.55247e-18
8276.05467 2.82676e-18
8277.24978 3.10432e-18
8278.45494 3.44708e-18
8279.65006 3.74696e-18
8280.85522 3.84511e-18
8282.05034 3.72903e-18
8283.25550 3.55806e-18
8284.45061 3.70634e-18
8285.65577 3.73223e-18
8286.85089 3.98075e-18
8288.04601 4.12145e-18
8289.25117 3.92038e-18
8290.45633 3.55373e-18
8291.65144 3.22860e-18
8292.84656 3.01157e-18
8294.05172 3.35229e-18
8295.24684 3.94120e-18
8296.45200 4.16716e-18
8297.64712 4.66407e-18
8298.85228 4.27157e-18
8300.04739 4.02000e-18
8301.25255 3.59251e-18
8302.44767 3.11312e-18
8303.65283 2.93404e-18
8304.84795 2.99881e-18
8306.05311 3.11630e-18
8307.24822 3.22656e-18
8308.45338 3.37531e-18
8309.64850 3.56440e-18
8310.84362 3.39336e-18
8312.04878 3.37949e-18
8313.24389 3.28525e-18
8314.44906 3.16530e-18
8315.64417 3.11960e-18
8316.84933 3.11830e-18
8318.04445 3.11283e-18
8319.24961 3.06100e-18
8320.44473 3.05237e-18
8321.64989 3.05159e-18
8322.84500 3.10124e-18
8324.05016 3.15453e-18
8325.24528 3.12186e-18
8326.45044 3.15721e-18
8327.64556 3.15569e-18
8328.84067 3.09008e-18
8330.04583 3.08196e-18
8331.25099 2.98609e-18
8332.44611 2.93656e-18
8333.64123 3.06309e-18
8334.84639 3.07307e-18
8336.04150 3.00878e-18
8337.24666 3.05718e-18
8338.44178 3.16853e-18
8339.64694 3.55808e-18
8340.84206 4.34531e-18
8342.04722 5.37330e-18
8343.24234 6.20639e-18
8344.44750 6.26951e-18
8345.64261 5.65374e-18
8346.84777 4.71892e-18
8348.04289 3.84255e-18
8349.24805 3.59864e-18
8350.44317 3.83573e-18
8351.63828 4.07319e-18
8352.84344 4.05157e-18
8354.03856 3.69065e-18
8355.24372 3.37752e-18
8356.43884 3.01429e-18
8357.64400 2.90206e-18
8358.83911 2.92056e-18
8360.04428 2.98686e-18
8361.23939 3.09409e-18
8362.44455 3.23523e-18
8363.63967 3.28527e-18
8364.84483 3.29609e-18
8366.03995 3.13192e-18
8367.24511 3.04111e-18
8368.44022 3.04096e-18
8369.64538 2.98401e-18
8370.84050 3.01356e-18
8372.04566 2.83099e-18
8373.24078 2.91521e-18
8374.43589 2.95137e-18
8375.64105 2.98484e-18
8376.83617 2.95258e-18
8378.04133 3.21894e-18
8379.23645 3.50012e-18
8380.44161 3.80101e-18
8381.63673 3.95093e-18
8382.84188 3.86530e-18
8384.03700 3.80450e-18
8385.24216 3.42249e-18
8386.43728 3.36938e-18
8387.64244 3.19534e-18
8388.83756 3.24699e-18
8390.04272 3.31007e-18
8391.23783 3.17394e-18
8392.43295 3.18345e-18
8393.63811 3.47190e-18
8394.83323 4.03632e-18
8396.03839 4.75569e-18
8397.23350 5.50358e-18
8398.43866 5.87777e-18
8399.63378 5.68817e-18
8400.83894 5.20863e-18
8402.03406 4.36597e-18
8403.23922 3.74391e-18
8404.43433 3.67543e-18
8405.63949 3.51012e-18
8406.83461 3.61427e-18
8408.03977 3.76475e-18
8409.23489 3.80826e-18
8410.44005 3.94144e-18
8411.63517 4.23004e-18
8412.84033 4.48530e-18
8414.03544 4.80843e-18
8415.24060 4.81036e-18
8416.43572 4.70974e-18
8417.63084 4.37914e-18
8418.83600 4.05678e-18
8420.03111 3.99946e-18
8421.23627 4.08810e-18
8422.43139 4.12086e-18
8423.63655 4.18164e-18
8424.83167 4.45441e-18
8426.03683 4.99664e-18
8427.23194 5.88386e-18
8428.43711 6.84796e-18
8429.63222 7.46873e-18
8430.83738 7.14894e-18
8432.03250 6.12422e-18
8433.22762 5.23676e-18
8434.43278 4.82187e-18
8435.63794 4.62745e-18
8436.83305 4.58445e-18
8438.02817 4.65845e-18
8439.23333 4.79887e-18
8440.42845 4.85033e-18
8441.63361 4.74661e-18
8442.82872 4.73891e-18
8444.03388 4.81934e-18
8445.22900 4.91763e-18
8446.43416 5.00415e-18
8447.62928 5.18044e-18
8448.83444 5.39007e-18
8450.02956 5.76322e-18
8451.23471 6.18008e-18
8452.42983 6.30249e-18
8453.63499 6.10216e-18
8454.83011 5.80155e-18
8456.03527 5.59009e-18
8457.23039 5.46703e-18
8458.42550 5.62212e-18
8459.63066 5.64419e-18
8460.82578 6.00432e-18
8462.03094 6.86290e-18
8463.22606 7.48057e-18
8464.43122 7.94362e-18
8465.62633 7.97879e-18
8466.83149 7.50604e-18
8468.02661 6.76987e-18
8469.23177 6.04109e-18
8470.42689 6.03987e-18
8471.63205 5.94845e-18
8472.82716 6.09007e-18
8474.03233 6.13516e-18
8475.22744 6.02910e-18
8476.43260 6.16576e-18
8477.62772 6.36321e-18
8478.82284 6.47731e-18
8480.02800 6.34897e-18
8481.22311 6.38646e-18
8482.42827 6.59842e-18
8483.62339 6.55565e-18
8484.82855 6.70952e-18
8486.02367 6.79061e-18
8487.22883 6.69789e-18
8488.42394 6.83960e-18
8489.62910 6.96104e-18
8490.82422 7.38904e-18
8492.02938 7.48895e-18
8493.22450 7.79845e-18
8494.42966 7.61827e-18
8495.62478 7.38660e-18
8496.82993 7.31447e-18
8498.02505 7.33558e-18
8499.22017 7.29768e-18
8500.42533 7.66986e-18
8501.62045 8.09878e-18
8502.82561 8.65896e-18
8504.02072 8.71891e-18
8505.22588 8.67846e-18
8506.42100 8.38541e-18
8507.62616 8.13693e-18
8508.82128 7.67484e-18
8510.02644 7.78912e-18
8511.22155 7.69212e-18
8512.42671 7.69936e-18
8513.62183 7.81980e-18
8514.82699 7.78614e-18
8516.02211 7.92354e-18
8517.22727 7.94019e-18
8518.42238 8.00718e-18
8519.61750 8.06012e-18
8520.82266 8.11860e-18
8522.01778 8.18191e-18
8523.22294 8.23292e-18
8524.41806 8.23815e-18
8525.62322 8.39444e-18
8526.81833 8.30835e-18
8528.02349 8.32020e-18
8529.21861 8.38080e-18
8530.42377 8.41695e-18
8531.61889 8.40121e-18
8532.82405 8.37827e-18
8534.01916 8.47395e-18
8535.22432 8.58407e-18
8536.41944 8.81949e-18
8537.62460 8.90283e-18
8538.81972 8.94580e-18
8540.02488 8.95076e-18
8541.21999 9.10924e-18
8542.41511 9.10026e-18
8543.62027 9.06011e-18
8544.81539 9.11065e-18
8546.02055 9.39831e-18
8547.21567 9.42736e-18
8548.42083 9.33636e-18
8549.61594 9.49767e-18
8550.82110 9.33651e-18
8552.01622 9.06255e-18
8553.22138 9.03123e-18
8554.41650 9.04344e-18
8555.62166 9.02047e-18
8556.81677 8.95401e-18
8558.02193 9.00007e-18
8559.21705 9.14517e-18
8560.41217 9.19255e-18
8561.61733 9.01774e-18
8562.82249 8.99400e-18
8564.01761 9.17311e-18
8565.21272 9.27111e-18
8566.41788 9.20276e-18
8567.61300 9.05307e-18
8568.81816 9.04094e-18
8570.01328 9.24847e-18
8571.21844 9.28858e-18
8572.41355 9.16495e-18
8573.61871 9.24777e-18
8574.81383 9.30126e-18
8576.01899 9.18493e-18
8577.21411 9.13930e-18
8578.41927 9.20533e-18
8579.61438 9.25608e-18
8580.81954 9.33500e-18
8582.01466 9.34273e-18
8583.20978 9.19258e-18
8584.41494 9.19092e-18
8585.61006 9.35373e-18
8586.81521 9.50075e-18
8588.01033 9.40300e-18
8589.21549 9.52365e-18
8590.41061 9.52877e-18
8591.61577 9.48746e-18
8592.81089 9.54517e-18
8594.01605 9.67415e-18
8595.21116 9.66035e-18
8596.41632 9.52594e-18
8597.61144 9.59803e-18
8598.81660 9.74342e-18
8600.01172 9.62287e-18
8601.21688 9.50771e-18
8602.41199 9.41639e-18
8603.61715 9.33752e-18
8604.81227 9.47462e-18
8606.00739 9.72964e-18
8607.21255 9.70370e-18
8608.40766 9.73368e-18
8609.61283 9.69446e-18
8610.80794 9.57581e-18
8612.01310 9.74099e-18
8613.20822 9.93661e-18
8614.41338 1.01253e-17
8615.60850 1.02372e-17
8616.81366 1.02417e-17
8618.00877 1.02657e-17
8619.21393 1.04884e-17
8620.40905 1.04829e-17
8621.61421 1.07229e-17
8622.80933 1.07573e-17
8624.00444 1.07321e-17
8625.20960 1.07521e-17
8626.41476 1.07766e-17
8627.60988 1.09625e-17
8628.80500 1.09948e-17
8630.01016 1.09801e-17
8631.20528 1.11459e-17
8632.41043 1.09904e-17
8633.60555 1.07651e-17
8634.81071 1.06424e-17
8636.00583 1.06344e-17
8637.21099 1.03619e-17
8638.40611 1.04408e-17
8639.61127 1.02824e-17
8640.80638 1.02769e-17
8642.01154 1.01688e-17
8643.20666 1.01659e-17
8644.41182 1.00920e-17
8645.60694 1.02486e-17
8646.81210 1.04093e-17
8648.00721 1.06068e-17
8649.20233 1.07565e-17
8650.40749 1.08657e-17
8651.60261 1.10125e-17
8652.80777 1.10285e-17
8654.00288 1.09986e-17
8655.20804 1.09903e-17
8656.40316 1.10862e-17
8657.60832 1.09928e-17
8658.80344 1.08071e-17
8660.00860 1.09052e-17
8661.20372 1.08171e-17
8662.40888 1.08753e-17
8663.60399 1.09968e-17
8664.80915 1.09404e-17
8666.00427 1.09720e-17
8667.20943 1.07835e-17
8668.40455 1.09130e-17
8669.59966 1.07889e-17
8670.80482 1.05741e-17
8671.99994 1.06853e-17
8673.20510 1.07678e-17
8674.40022 1.04971e-17
8675.60538 1.04343e-17
8676.80049 1.03539e-17
8678.00566 1.02644e-17
8679.20077 1.04486e-17
8680.40593 1.03936e-17
8681.60105 1.05761e-17
8682.80621 1.02268e-17
8684.00133 1.02194e-17
8685.20649 1.01209e-17
8686.40160 1.01941e-17
8687.60676 1.05016e-17
8688.80188 1.01600e-17
8689.99700 1.01367e-17
8691.20216 9.88768e-18
8692.39727 1.01953e-17
8693.60243 9.91463e-18
8694.79755 9.97689e-18
8696.00271 9.83726e-18
8697.19783 9.69723e-18
8698.40299 1.01265e-17
8699.59811 9.96181e-18
8700.80326 9.62353e-18
8701.99838 9.63025e-18
8703.20354 9.69357e-18
8704.39866 9.55252e-18
8705.60382 9.91814e-18
8706.79894 9.71425e-18
8708.00410 9.60893e-18
8709.19921 9.51399e-18
8710.39433 9.58221e-18
8711.59949 9.35621e-18
8712.79461 9.27638e-18
8713.99977 9.31006e-18
8715.19488 9.41007e-18
8716.40004 9.39079e-18
8717.59516 9.34095e-18
8718.80032 9.20034e-18
8719.99544 9.23382e-18
8721.20060 9.14989e-18
8722.39571 9.25553e-18
8723.60088 9.21686e-18
8724.79599 9.07913e-18
8726.00115 9.05061e-18
8727.19627 8.99203e-18
8728.40143 9.00193e-18
8729.59655 9.12569e-18
8730.80171 8.84753e-18
8731.99682 8.97997e-18
8733.19194 8.86100e-18
8734.39710 8.76617e-18
8735.59222 8.74539e-18
8736.79738 8.58736e-18
8737.99249 8.65069e-18
8739.19765 8.65949e-18
8740.39277 8.50938e-18
8741.59793 8.49720e-18
8742.79305 8.43098e-18
8743.99821 8.42656e-18
8745.19333 8.27670e-18
8746.39848 8.54250e-18
8747.59360 7.92855e-18
8748.79876 8.07700e-18
8749.99388 7.90740e-18
8751.18900 7.90439e-18
8752.39416 8.01861e-18
8753.58927 8.03438e-18
8754.79443 8.41530e-18
8755.98955 8.71251e-18
8757.19471 9.13734e-18
8758.38983 9.71986e-18
8759.59499 1.04434e-17
8760.79010 1.02442e-17
8761.99526 1.00657e-17
8763.19038 9.85282e-18
8764.39554 9.77878e-18
8765.59066 1.02360e-17
8766.79582 1.03364e-17
8767.99093 1.00153e-17
8769.19609 9.36019e-18
8770.39121 8.54152e-18
8771.59637 8.12028e-18
8772.79149 8.06150e-18
8773.98661 8.69665e-18
8775.19177 9.54503e-18
8776.38688 1.02040e-17
8777.59204 9.80774e-18
8778.78716 9.41898e-18
8779.99232 8.71310e-18
8781.18744 7.92676e-18
8782.39260 7.38041e-18
8783.58771 7.27911e-18
8784.79287 7.29787e-18
8785.98799 7.39422e-18
8787.19315 7.38094e-18
8788.38827 7.48813e-18
8789.59343 7.84457e-18
8790.78854 7.76082e-18
8791.98366 7.67962e-18
8793.18882 7.46638e-18
8794.38394 7.09586e-18
8795.58910 6.88063e-18
8796.78422 6.94512e-18
8797.98938 6.89715e-18
8799.18449 6.81128e-18
8800.38965 6.77628e-18
8801.58477 6.78429e-18
8802.78993 6.69966e-18
8803.98505 6.72582e-18
8805.19021 6.82428e-18
8806.38532 6.78325e-18
8807.59048 6.70758e-18
8808.78560 6.85985e-18
8809.99076 6.67476e-18
8811.18588 6.80192e-18
8812.39104 6.57130e-18
8813.58616 6.66005e-18
8814.78127 6.56943e-18
8815.98643 6.53256e-18
8817.18155 6.52330e-18
8818.38671 6.49558e-18
8819.58183 6.42249e-18
8820.78699 6.76434e-18
8821.98210 7.30844e-18
8823.18726 8.26238e-18
8824.38238 9.88244e-18
8825.58754 1.09768e-17
8826.78266 1.15453e-17
8827.98782 1.07435e-17
8829.18293 9.25892e-18
8830.38809 7.56179e-18
8831.58321 7.23874e-18
8832.78837 7.35223e-18
8833.98349 7.70598e-18
8835.18865 8.17695e-18
8836.38376 8.15916e-18
8837.57888 7.76967e-18
8838.78404 7.20495e-18
8839.97916 6.70123e-18
8841.18432 6.26439e-18
8842.37944 6.21761e-18
8843.58460 6.26017e-18
8844.77971 6.35899e-18
8845.98487 6.57324e-18
8847.17999 6.61474e-18
8848.38515 6.67586e-18
8849.58027 6.90360e-18
8850.78543 6.64674e-18
8851.98054 6.49278e-18
8853.18570 6.31477e-18
8854.38082 6.13411e-18
8855.58598 6.12907e-18
8856.78110 6.09146e-18
8857.97621 6.04837e-18
8859.18138 6.09598e-18
8860.37649 6.12563e-18
8861.58165 6.18440e-18
8862.77677 6.44256e-18
8863.98193 6.69154e-18
8865.17705 7.08818e-18
8866.38221 7.33564e-18
8867.57732 7.32034e-18
8868.78248 7.02997e-18
8869.97760 6.43202e-18
8871.18276 6.00576e-18
8872.37788 5.97537e-18
8873.58304 5.81324e-18
8874.77815 5.93835e-18
8875.98331 5.89052e-18
8877.17843 5.94832e-18
8878.38359 6.00694e-18
8879.57871 6.02282e-18
8880.77383 6.28487e-18
8881.97898 7.14002e-18
8883.17410 8.41852e-18
8884.37926 9.29106e-18
8885.57438 9.31009e-18
8886.77954 8.59597e-18
8887.97466 7.57146e-18
8889.17982 6.69792e-18
8890.37493 5.87318e-18
8891.58009 5.67733e-18
8892.77521 5.76284e-18
8893.98037 5.75204e-18
8895.17549 5.81002e-18
8896.38065 5.73011e-18
8897.57576 5.72984e-18
8898.77088 6.06232e-18
8899.97604 6.62600e-18
8901.17116 7.23882e-18
8902.37632 7.74066e-18
8903.57143 7.45040e-18
8904.77659 6.76739e-18
8905.97171 6.19536e-18
8907.17687 5.81893e-18
8908.37199 5.67550e-18
8909.57715 5.71155e-18
8910.77227 5.54649e-18
8911.97743 5.61227e-18
8913.17254 5.38879e-18
8914.37770 5.91704e-18
8915.57282 6.58543e-18
8916.77798 8.16228e-18
8917.97310 9.27966e-18
8919.17826 9.73229e-18
8920.37337 9.20673e-18
8921.56849 7.97270e-18
8922.77365 6.34074e-18
8923.96877 5.54264e-18
8925.17393 5.54445e-18
8926.36904 5.48943e-18
8927.57421 5.31173e-18
8928.76932 5.35965e-18
8929.97448 5.35566e-18
8931.16960 5.19352e-18
8932.37476 5.24155e-18
8933.56988 5.19051e-18
8934.77504 5.05702e-18
8935.97015 5.14234e-18
8937.17531 5.24234e-18
8938.37043 5.44953e-18
8939.57559 5.52166e-18
8940.77071 6.08711e-18
8941.96582 6.38006e-18
8943.17098 6.77950e-18
8944.36610 6.29606e-18
8945.57126 5.74219e-18
8946.76638 5.17956e-18
8947.97154 5.02664e-18
8949.16666 4.83611e-18
8950.37181 5.05855e-18
8951.56693 4.96329e-18
8952.77209 5.00211e-18
8953.96721 5.43355e-18
8955.17237 6.76726e-18
8956.36749 8.35104e-18
8957.57265 8.50403e-18
8958.76776 8.02359e-18
8959.97292 7.06482e-18
8961.16804 5.66964e-18
8962.36316 5.00803e-18
8963.56832 4.67791e-18
8964.76343 4.70608e-18
8965.96859 4.86541e-18
8967.16371 4.84403e-18
8968.36887 4.92871e-18
8969.56399 4.92464e-18
8970.76915 4.65354e-18
8971.96426 4.69182e-18
8973.16943 4.64408e-18
8974.36454 4.82612e-18
8975.56970 4.77619e-18
8976.76482 4.72809e-18
8977.96998 4.81829e-18
8979.16510 4.74707e-18
8980.37026 4.63873e-18
8981.56537 4.82871e-18
8982.76049 4.83083e-18
8983.96565 4.86891e-18
8985.16077 4.99114e-18
8986.36593 5.22381e-18
8987.56104 5.28966e-18
8988.76620 5.02675e-18
8989.96132 4.78603e-18
8991.16648 4.56594e-18
8992.36160 4.52142e-18
8993.56676 4.54832e-18
8994.76188 4.64862e-18
8995.96703 4.76099e-18
8997.16215 5.04280e-18
8998.36731 5.51681e-18
8999.56243 6.20133e-18
9000.76759 6.27579e-18
9001.96271 5.94350e-18
9003.16787 5.49449e-18
9004.36298 5.04375e-18
9005.55810 4.56103e-18
9006.76326 4.55182e-18
9007.95838 4.45414e-18
9009.16354 4.43638e-18
9010.35865 4.44561e-18
9011.56381 4.47484e-18
9012.75893 4.41347e-18
9013.96409 4.45937e-18
9015.15921 4.35070e-18
9016.36437 4.35425e-18
9017.55948 4.44307e-18
9018.76464 4.53745e-18
9019.95976 4.57855e-18
9021.16492 4.52703e-18
9022.36004 4.50285e-18
9023.55516 4.58054e-18
9024.76032 4.43813e-18
9025.95543 4.50942e-18
9027.16059 4.72636e-18
9028.35571 4.62826e-18
9029.56087 4.68057e-18
9030.75599 4.78429e-18
9031.96115 4.87763e-18
9033.15626 4.87770e-18
9034.36142 4.97431e-18
9035.55654 5.24940e-18
9036.76170 5.47250e-18
9037.95682 5.47072e-18
9039.16198 5.32758e-18
9040.35709 5.15146e-18
9041.56226 5.05355e-18
9042.75737 4.90655e-18
9043.96253 4.87695e-18
9045.15765 5.15358e-18
9046.35277 5.42358e-18
9047.55793 5.70739e-18
9048.75304 5.97956e-18
9049.95820 5.95385e-18
9051.15332 5.60598e-18
9052.35848 5.34598e-18
9053.55360 5.22497e-18
9054.75876 5.13252e-18
9055.95387 5.13471e-18
9057.15903 5.23539e-18
9058.35415 5.17032e-18
9059.55931 5.07055e-18
9060.75443 5.14345e-18
9061.95959 5.11166e-18
9063.15471 5.21975e-18
9064.35986 5.25328e-18
9065.55498 5.33293e-18
9066.75010 5.20909e-18
9067.95526 5.14307e-18
9069.15038 5.09656e-18
9070.35554 4.92557e-18
9071.55065 4.98617e-18
9072.75581 4.93767e-18
9073.95093 5.04467e-18
9075.15609 5.23986e-18
9076.35121 5.26203e-18
9077.55637 5.25070e-18
9078.75148 5.05291e-18
9079.95664 5.09807e-18
9081.15176 5.16712e-18
9082.35692 5.30032e-18
9083.55204 5.38572e-18
9084.75720 5.40454e-18
9085.95231 5.41144e-18
9087.15747 5.54060e-18
9088.35259 5.46785e-18
9089.54771 5.70559e-18
9090.75287 5.95489e-18
9091.94799 5.84521e-18
9093.15315 5.77780e-18
9094.34826 5.76236e-18
9095.55342 5.98966e-18
9096.74854 5.93051e-18
9097.95370 5.79994e-18
9099.14882 5.90833e-18
9100.35398 6.30647e-18
9101.54909 6.22248e-18
9102.75425 6.48078e-18
9103.94937 6.55495e-18
9105.15453 5.78929e-18
9106.34965 6.03303e-18
9107.55481 6.02526e-18
9108.74993 6.03819e-18
9109.95508 6.18073e-18
9111.15020 6.23672e-18
9112.34532 6.19814e-18
9113.55048 6.31478e-18
9114.74560 6.23473e-18
9115.95076 6.12253e-18
9117.14587 5.89141e-18
9118.35103 5.93899e-18
9119.54615 5.89619e-18
9120.75131 6.12726e-18
9121.94643 6.34738e-18
9123.15159 6.30405e-18
9124.34670 6.25514e-18
9125.55186 6.32231e-18
9126.74698 6.26390e-18
9127.95214 6.22158e-18
9129.14726 6.05507e-18
9130.34238 5.92322e-18
9131.54753 5.99172e-18
9132.74265 6.13230e-18
9133.94781 6.02151e-18
9135.14293 5.89780e-18
9136.34809 6.00112e-18
9137.54321 6.22682e-18
9138.74837 6.44736e-18
9139.94348 6.48366e-18
9141.14864 6.51946e-18
9142.34376 6.62770e-18
9143.54892 6.72229e-18
9144.74404 6.67927e-18
9145.94920 6.58968e-18
9147.14431 6.54129e-18
9148.34947 6.62435e-18
9149.54459 6.63645e-18
9150.71752 6.63645e-18
9152.71593 6.82650e-18
9154.72444 7.02846e-18
9156.72286 7.10232e-18
9158.72127 6.99155e-18
9160.71968 6.83990e-18
9162.72819 6.78178e-18
9164.72660 6.75057e-18
9166.72502 6.73307e-18
9168.72343 6.73738e-18
9170.72185 6.78141e-18
9172.73035 6.85067e-18
9174.72877 6.92077e-18
9176.72718 6.95920e-18
9178.72559 6.97413e-18
9180.73410 6.93953e-18
9182.73252 6.90158e-18
9184.73093 6.88749e-18
9186.72934 6.91675e-18
9188.72776 6.99618e-18
9190.73626 7.12017e-18
9192.73468 7.23776e-18
9194.73309 7.24301e-18
9196.73151 7.24307e-18
9198.72992 7.31571e-18
9200.73843 7.41565e-18
9202.73684 7.46183e-18
9204.73526 7.43059e-18
9206.73367 7.40537e-18
9208.74218 7.48455e-18
9210.74059 7.56821e-18
9212.73901 7.57279e-18
9214.73742 7.56218e-18
9216.73583 7.60540e-18
9218.74434 7.71933e-18
9220.74275 7.85795e-18
9222.74117 7.98212e-18
9224.73958 8.07601e-18
9226.73800 8.08228e-18
9228.74650 8.05621e-18
9230.74492 8.04413e-18
9232.74333 8.04436e-18
9234.74175 8.01607e-18
9236.75025 7.93708e-18
9238.74867 7.84969e-18
9240.74708 7.78653e-18
9242.74549 7.75825e-18
9244.74391 7.79181e-18
9246.75242 7.86919e-18
9248.75083 7.97508e-18
9250.74924 8.07647e-18
9252.74766 8.15415e-18
9254.75616 8.14429e-18
9256.75458 8.14092e-18
9258.75299 8.23657e-18
9260.75141 8.36288e-18
9262.74982 8.45471e-18
9264.75833 8.46419e-18
9266.75674 8.41136e-18
9268.75516 8.28964e-18
9270.75357 8.14719e-18
9272.75198 8.02058e-18
9274.76049 7.93081e-18
9276.75890 7.89564e-18
9278.75732 7.91896e-18
9280.75573 7.99840e-18
9282.76424 8.11531e-18
9284.76265 8.20897e-18
9286.76107 8.15277e-18
9288.75948 8.06737e-18
9290.75790 8.03877e-18
9292.76640 8.04420e-18
9294.76482 8.00284e-18
9296.76323 7.89075e-18
9298.76164 7.79441e-18
9300.76006 7.81177e-18
9302.76857 7.90726e-18
9304.76698 8.17067e-18
9306.76539 8.41579e-18
9308.76381 8.45792e-18
9310.77231 8.22763e-18
9312.77073 7.88295e-18
9314.76914 7.54997e-18
9316.76756 7.34835e-18
9318.76597 7.60344e-18
9320.77448 7.95819e-18
9322.77289 8.10269e-18
9324.77131 7.96484e-18
9326.76972 7.75465e-18
9328.77823 7.62126e-18
9330.77664 7.50565e-18
9332.77505 7.38944e-18
9334.77347 7.33980e-18
9336.77188 7.45537e-18
9338.78039 7.65166e-18
9340.77880 7.83165e-18
9342.77722 7.86391e-18
9344.77563 7.75060e-18
9346.77405 7.24768e-18
9348.78255 6.83852e-18
9350.78097 6.96845e-18
9352.77938 7.39414e-18
9354.77779 7.78898e-18
9356.78630 7.93250e-18
9358.78471 7.98044e-18
9360.78313 7.97531e-18
9362.78154 7.91659e-18
9364.77996 7.79884e-18
9366.78846 7.67154e-18
9368.78688 7.51573e-18
9370.78529 7.44464e-18
9372.78371 7.59897e-18
9374.79221 8.13527e-18
9376.79063 8.69311e-18
9378.78904 8.93059e-18
9380.78746 8.92654e-18
9382.78587 8.62002e-18
9384.79438 8.17548e-18
9386.79279 7.76314e-18
9388.79120 7.57346e-18
9390.78962 7.46675e-18
9392.78803 7.37067e-18
9394.79654 7.32226e-18
9396.79495 7.35759e-18
9398.79337 7.41841e-18
9400.79178 7.41826e-18
9402.80029 7.35245e-18
9404.79870 7.35781e-18
9406.79712 7.63442e-18
9408.79553 7.91873e-18
9410.79394 8.01438e-18
9412.80245 7.98609e-18
9414.80086 7.91575e-18
9416.79928 7.83776e-18
9418.79769 7.70426e-18
9420.79611 7.49648e-18
9422.80461 7.33335e-18
9424.80303 7.38281e-18
9426.80144 7.51844e-18
9428.79986 7.69356e-18
9430.80836 7.80649e-18
9432.80678 7.78998e-18
9434.80519 7.58237e-18
9436.80361 7.35128e-18
9438.80202 7.28764e-18
9440.81053 7.31459e-18
9442.80894 7.48423e-18
9444.80735 7.66496e-18
9446.80577 7.72070e-18
9448.81428 7.56708e-18
9450.81269 7.34608e-18
9452.81110 7.14725e-18
9454.80952 7.07470e-18
9456.80793 7.41222e-18
9458.81644 7.81635e-18
9460.81485 7.91552e-18
9462.81327 7.61489e-18
9464.81168 7.23841e-18
9466.81009 7.07599e-18
9468.81860 7.06332e-18
9470.81702 7.33464e-18
9472.81543 7.72040e-18
9474.81384 8.16470e-18
9476.82235 8.49118e-18
9478.82076 8.59700e-18
9480.81918 8.34163e-18
9482.81759 7.95092e-18
9484.81601 7.56756e-18
9486.82451 7.28615e-18
9488.82293 7.26231e-18
9490.82134 7.41338e-18
9492.81976 7.62569e-18
9494.81817 7.74334e-18
9496.82668 7.73699e-18
9498.82509 7.39636e-18
9500.82350 7.00609e-18
9502.82192 6.71736e-18
9504.83043 6.58192e-18
9506.82884 6.62084e-18
9508.82725 6.80029e-18
9510.82567 7.02233e-18
9512.82408 7.15808e-18
9514.83259 7.22236e-18
9516.83100 7.10284e-18
9518.82942 6.96714e-18
9520.82783 6.98844e-18
9522.82624 7.15007e-18
9524.83475 7.28483e-18
9526.83317 7.23853e-18
9528.83158 7.10706e-18
9530.82999 6.86425e-18
9532.83850 6.64284e-18
9534.83691 6.57797e-18
9536.83533 6.62300e-18
9538.83374 6.65736e-18
9540.83216 6.58817e-18
9542.84066 6.48360e-18
9544.83908 6.34529e-18
9546.83749 6.24502e-18
9548.83591 6.27119e-18
9550.83432 6.36765e-18
9552.84283 6.47710e-18
9554.84124 6.53236e-18
9556.83965 6.53066e-18
9558.83807 6.41909e-18
9560.84658 6.27993e-18
9562.84499 6.18172e-18
9564.84340 6.09873e-18
9566.84182 6.00128e-18
9568.84023 5.88336e-18
9570.84874 5.75521e-18
9572.84715 5.62807e-18
9574.84557 5.53065e-18
9576.84398 5.49403e-18
9578.84239 5.52968e-18
9580.85090 5.69064e-18
9582.84931 5.90320e-18
9584.84773 6.08431e-18
9586.84614 6.13541e-18
9588.85465 6.10431e-18
9590.85306 5.94715e-18
9592.85148 5.77698e-18
9594.84989 5.65320e-18
9596.84831 5.62081e-18
9598.85681 5.71085e-18
9600.85523 5.90504e-18
9602.85364 6.10730e-18
9604.85206 6.18738e-18
9606.86056 6.19997e-18
9608.85898 6.08719e-18
9610.85739 5.97928e-18
9612.85580 6.01175e-18
9614.85422 6.19387e-18
9616.86273 6.39036e-18
9618.86114 6.46760e-18
9620.85955 6.46143e-18
9622.85797 6.28696e-18
9624.85638 6.08904e-18
9626.86489 5.97035e-18
9628.86330 5.97164e-18
9630.86172 6.06885e-18
9632.86013 6.22612e-18
9634.86864 6.34045e-18
9636.86705 6.15484e-18
9638.86547 5.96582e-18
9640.86388 5.98491e-18
9642.86229 6.15195e-18
9644.87080 6.32554e-18
9646.86921 6.40102e-18
9648.86763 6.42934e-18
9650.86604 6.40071e-18
9652.86446 6.34529e-18
9654.87296 6.26242e-18
9656.87138 6.20498e-18
9658.86979 6.22495e-18
9660.86821 6.32635e-18
9662.87671 6.44781e-18
9664.87513 6.52579e-18
9666.87354 6.57352e-18
9668.87195 6.56895e-18
9670.87037 6.53019e-18
9672.87888 6.45277e-18
9674.87729 6.37420e-18
9676.87570 6.33030e-18
9678.87412 6.36265e-18
9680.88262 6.41720e-18
9682.88104 6.45121e-18
9684.87945 6.47345e-18
9686.87787 6.47212e-18
9688.87628 6.46638e-18
9690.88479 6.48950e-18
9692.88320 6.54720e-18
9694.88162 6.58430e-18
9696.88003 6.51951e-18
9698.87844 6.41901e-18
9700.88695 6.28543e-18
9702.88536 6.17604e-18
9704.88378 6.13281e-18
9706.88219 6.18244e-18
9708.89070 6.29371e-18
9710.88911 6.45289e-18
9712.88753 6.57759e-18
9714.88594 6.52128e-18
9716.88436 6.42230e-18
9718.89286 6.41973e-18
9720.89128 6.51254e-18
9722.88969 6.56037e-18
9724.88810 6.46257e-18
9726.89661 6.39309e-18
9728.89503 6.57725e-18
9730.89344 6.80818e-18
9732.89185 6.95961e-18
9734.89027 7.00343e-18
9736.89877 6.98086e-18
9738.89719 6.93125e-18
9740.89560 6.89989e-18
9742.89402 7.02035e-18
9744.89243 7.13314e-18
9746.90094 7.14617e-18
9748.89935 7.06228e-18
9750.89776 6.88832e-18
9752.89618 6.68183e-18
9754.90469 6.52092e-18
9756.90310 6.54660e-18
9758.90151 6.60182e-18
9760.89993 6.59671e-18
9762.89834 6.52435e-18
9764.90685 6.35583e-18
9766.90526 6.14757e-18
9768.90368 5.99330e-18
9770.90209 6.00527e-18
9772.90051 6.06005e-18
9774.90901 6.06020e-18
9776.90743 6.05229e-18
9778.90584 6.05145e-18
9780.90425 6.08434e-18
9782.91276 6.17980e-18
9784.91118 6.34422e-18
9786.90959 6.49943e-18
9788.90800 6.52263e-18
9790.90642 6.49966e-18
9792.91492 6.46699e-18
9794.91334 6.41840e-18
9796.91175 6.31405e-18
9798.91017 6.16736e-18
9800.91867 6.04008e-18
9802.91709 6.02310e-18
9804.91550 6.04888e-18
9806.91392 6.10345e-18
9808.91233 6.15645e-18
9810.92084 6.17828e-18
9812.91925 6.17252e-18
9814.91766 6.18930e-18
9816.91608 6.27664e-18
9818.91449 6.34557e-18
9820.92300 6.31595e-18
9822.92141 6.21139e-18
9824.91983 6.01441e-18
9826.91824 5.78648e-18
9828.92675 5.58415e-18
9830.92516 5.48477e-18
9832.92358 5.45096e-18
9834.92199 5.48717e-18
9836.92040 5.57892e-18
9838.92891 5.77312e-18
9840.92733 5.95227e-18
9842.92574 5.96874e-18
9844.92415 5.77929e-18
9846.92257 5.60248e-18
9848.93107 5.72606e-18
9850.92949 5.90538e-18
9852.92790 6.03581e-18
9854.92632 6.09638e-18
9856.93482 6.09477e-18
9858.93324 6.03306e-18
9860.93165 5.92905e-18
9862.93007 5.80335e-18
9864.92848 5.66533e-18
9866.93699 5.49927e-18
9868.93540 5.38431e-18
9870.93381 5.41201e-18
9872.93223 5.54889e-18
9874.94074 5.68941e-18
9876.93915 5.73355e-18
9878.93756 5.75653e-18
9880.93598 5.81180e-18
9882.93439 5.84831e-18
9884.94290 5.83948e-18
9886.94131 5.77464e-18
9888.93973 5.63185e-18
9890.93814 5.44274e-18
9892.93655 5.30466e-18
9894.94506 5.41884e-18
9896.94348 5.55969e-18
9898.94189 5.57825e-18
9900.94030 5.52287e-18
9902.94881 5.48284e-18
9904.94722 5.48807e-18
9906.94564 5.47340e-18
9908.94405 5.37749e-18
9910.94247 5.32768e-18
9912.95097 5.47341e-18
9914.94939 5.69865e-18
9916.94780 5.94949e-18
9918.94621 6.11456e-18
9920.95472 6.12662e-18
9922.95314 5.89600e-18
9924.95155 5.63253e-18
9926.94996 5.57773e-18
9928.94838 5.59327e-18
9930.95689 5.60666e-18
9932.95530 5.60582e-18
9934.95371 5.64203e-18
9936.95213 5.71115e-18
9938.95054 5.73795e-18
9940.95905 5.52450e-18
9942.95746 5.36511e-18
9944.95588 5.51043e-18
9946.95429 5.81937e-18
9948.96280 6.15088e-18
9950.96121 6.30940e-18
9952.95963 6.22892e-18
9954.95804 5.65411e-18
9956.95645 5.10194e-18
9958.96496 5.07287e-18
9960.96337 5.31512e-18
9962.96179 5.63202e-18
9964.96020 5.83562e-18
9966.95862 5.90518e-18
9968.96712 5.73377e-18
9970.96554 5.52810e-18
9972.96395 5.51273e-18
9974.96236 5.55399e-18
9976.97087 5.53803e-18
9978.96929 5.50720e-18
9980.96770 5.60252e-18
9982.96611 5.87954e-18
9984.96453 6.12865e-18
9986.97304 6.03360e-18
9988.97145 5.84704e-18
9990.96986 5.67020e-18
9992.96828 5.52874e-18
9994.97678 5.37322e-18
9996.97520 5.22691e-18
9998.97361 5.14683e-18
10000.97203 5.23450e-18
10002.97044 5.36928e-18
