# wavelength flux
3599.82296 2.49772e-18
3601.77130 2.41083e-18
3603.71965 2.10033e-18
3605.66799 2.09041e-18
3607.61633 2.16130e-18
3609.56467 2.21747e-18
3611.52306 2.12754e-18
3613.47140 1.93249e-18
3615.41974 2.15467e-18
3617.36808 2.65575e-18
3619.31643 2.32795e-18
3621.26477 2.33358e-18
3623.22315 2.46144e-18
3625.17150 2.40672e-18
3627.11984 2.16888e-18
3629.06818 2.14652e-18
3631.01652 2.30856e-18
3632.96486 2.21527e-18
3634.91320 2.14292e-18
3636.86155 2.35656e-18
3638.81993 2.46964e-18
3640.76827 2.36129e-18
3642.71662 2.29482e-18
3644.66496 2.29638e-18
3646.61330 2.49763e-18
3648.56164 2.46646e-18
3650.50998 2.25441e-18
3652.46837 2.48262e-18
3654.41671 2.59823e-18
3656.36505 2.53823e-18
3658.31340 2.46553e-18
3660.26174 2.31286e-18
3662.21008 2.57291e-18
3664.15842 2.73517e-18
3666.11681 2.52223e-18
3668.06515 2.78475e-18
3670.01349 2.80367e-18
3671.96183 2.60333e-18
3673.91017 2.55648e-18
3675.85852 2.65108e-18
3677.80686 2.67301e-18
3679.76524 2.85390e-18
3681.71358 2.95660e-18
3683.66193 2.79791e-18
3685.61027 2.87199e-18
3687.55861 3.15299e-18
3689.50695 3.24747e-18
3691.45530 3.09928e-18
3693.41368 2.95084e-18
3695.36202 2.93180e-18
3697.31036 3.14344e-18
3699.25871 3.31558e-18
3701.20705 3.29577e-18
3703.15539 3.27812e-18
3705.10373 3.06093e-18
3707.06212 3.14339e-18
3709.01046 3.29568e-18
3710.95880 3.13458e-18
3712.90714 3.18951e-18
3714.85548 3.32493e-18
3716.80383 3.17799e-18
3718.75217 3.08308e-18
3720.71055 3.09700e-18
3722.65890 3.18789e-18
3724.60724 3.16538e-18
3726.55558 3.14288e-18
3728.50392 3.11506e-18
3730.45226 3.08725e-18
3732.40061 3.05944e-18
3734.35899 3.03164e-18
3736.30733 3.00384e-18
3738.25567 2.97604e-18
3740.20402 2.94824e-18
3742.15236 2.92045e-18
3744.10070 2.89266e-18
3746.04904 2.86487e-18
3748.00743 2.83709e-18
3749.95577 2.80930e-18
3751.90411 2.78153e-18
3753.85245 2.75375e-18
3755.80080 2.72598e-18
3757.74914 2.69821e-18
3759.69748 2.67044e-18
3761.65587 2.64268e-18
3763.60421 2.61491e-18
3765.55255 2.57526e-18
3767.50089 2.63778e-18
3769.44923 2.68064e-18
3771.39757 2.63250e-18
3773.34592 2.56200e-18
3775.30430 2.64127e-18
3777.25264 2.51503e-18
3779.20099 2.61127e-18
3781.14933 2.58969e-18
3783.09767 2.40744e-18
3785.04601 2.34711e-18
3786.99435 2.13969e-18
3788.95274 2.00981e-18
3790.90108 2.02919e-18
3792.84942 2.09767e-18
3794.79777 2.05231e-18
3796.74611 1.81728e-18
3798.69445 1.82935e-18
3800.64279 1.93086e-18
3802.60118 1.67637e-18
3804.54952 1.43853e-18
3806.49786 1.59856e-18
3808.44620 1.82511e-18
3810.39454 1.78255e-18
3812.34289 1.68165e-18
3814.29123 1.61769e-18
3816.24961 1.60096e-18
3818.19795 1.47938e-18
3820.14630 1.59965e-18
3822.09464 1.44633e-18
3824.04298 1.37790e-18
3825.99132 1.34878e-18
3827.93966 1.47858e-18
3829.88801 1.60995e-18
3831.84639 1.51239e-18
3833.79473 1.56012e-18
3835.74308 1.66122e-18
3837.69142 1.69553e-18
3839.63976 1.82713e-18
3841.58810 1.90682e-18
3843.53644 1.87675e-18
3845.49483 1.85302e-18
3847.44317 1.92976e-18
3849.39151 2.07785e-18
3851.33985 2.29770e-18
3853.28820 2.25090e-18
3855.23654 2.12631e-18
3857.18488 2.10747e-18
3859.14327 2.40951e-18
3861.09161 2.60725e-18
3863.03995 2.66506e-18
3864.98829 2.66872e-18
3866.93663 2.83725e-18
3868.88498 2.80892e-18
3870.83332 2.91413e-18
3872.79170 3.11377e-18
3874.74005 3.17167e-18
3876.68839 3.15291e-18
3878.63673 3.35246e-18
3880.58507 3.53689e-18
3882.53341 3.49253e-18
3884.48175 3.74747e-18
3886.44014 4.02171e-18
3888.38848 4.16243e-18
3890.33682 4.30882e-18
3892.28517 4.27860e-18
3894.23351 4.30590e-18
3896.18185 4.35478e-18
3898.13019 4.48132e-18
3900.08858 4.66610e-18
3902.03692 4.53816e-18
3903.98526 4.61352e-18
3905.93360 4.82500e-18
3907.88195 4.88247e-18
3909.83029 5.21213e-18
3911.77863 5.38167e-18
3913.73701 5.39036e-18
3915.68536 5.56643e-18
3917.63370 5.69913e-18
3919.58204 5.90607e-18
3921.53038 5.98759e-18
3923.47872 5.81136e-18
3925.42707 5.73975e-18
3927.38545 5.86614e-18
3929.33379 5.87555e-18
3931.28213 5.85623e-18
3933.23048 6.02669e-18
3935.17882 6.36766e-18
3937.12716 6.37762e-18
3939.07550 6.34518e-18
3941.03389 6.60164e-18
3942.98223 6.61101e-18
3944.93057 6.55389e-18
3946.87891 6.80678e-18
3948.82726 6.98881e-18
3950.77560 6.81589e-18
3952.72394 6.59073e-18
3954.68232 6.74321e-18
3956.63067 7.04598e-18
3958.57901 7.00957e-18
3960.52735 6.93679e-18
3962.47569 6.94722e-18
3964.42403 7.17970e-18
3966.37238 7.43000e-18
3968.33076 7.65386e-18
3970.27910 7.76492e-18
3972.22745 7.76713e-18
3974.17579 7.75270e-18
3976.12413 7.49405e-18
3978.07247 7.42264e-18
3980.02081 7.74917e-18
3981.97920 7.68645e-18
3983.92754 7.35556e-18
3985.87588 7.30092e-18
3987.82422 7.50704e-18
3989.77257 7.50937e-18
3991.72091 7.29899e-18
3993.66925 7.48314e-18
3995.62764 7.61053e-18
3997.57598 7.44742e-18
3999.52432 7.30510e-18
4001.47266 7.27122e-18
4003.42100 7.52265e-18
4005.36935 7.60230e-18
4007.31769 7.38431e-18
4009.27607 7.22350e-18
4011.22442 7.19816e-18
4013.17276 7.27126e-18
4015.12110 7.20522e-18
4017.06944 7.08646e-18
4019.01778 7.27926e-18
4020.96612 7.44787e-18
4022.92451 7.27696e-18
4024.87285 6.96914e-18
4026.82119 6.86897e-18
4028.76954 7.15112e-18
4030.71788 7.25944e-18
4032.66622 7.09721e-18
4034.61456 6.85520e-18
4036.57295 6.86719e-18
4038.52129 7.03353e-18
4040.46963 7.35068e-18
4042.41797 7.21878e-18
4044.36632 6.86468e-18
4046.31466 6.89916e-18
4048.26300 7.01440e-18
4050.22138 7.28084e-18
4052.16973 7.34345e-18
4054.11807 6.99592e-18
4056.06641 6.94447e-18
4058.01475 6.99586e-18
4059.96309 6.78968e-18
4061.91144 6.65341e-18
4063.86982 6.82247e-18
4065.81816 6.83517e-18
4067.76650 6.47808e-18
4069.71485 6.12096e-18
4071.66319 6.15743e-18
4073.61153 6.36339e-18
4075.55987 6.32054e-18
4077.50821 6.28978e-18
4079.46660 6.34411e-18
4081.41494 6.17979e-18
4083.36328 6.01542e-18
4085.31163 5.96588e-18
4087.25997 5.96189e-18
4089.20831 5.88508e-18
4091.15665 5.66438e-18
4093.11504 5.56466e-18
4095.06338 5.64144e-18
4097.01172 5.72662e-18
4098.96006 5.71967e-18
4100.90841 5.41016e-18
4102.85675 5.27395e-18
4104.80509 5.36682e-18
4106.76347 5.33973e-18
4108.71182 4.94049e-18
4110.66016 4.96512e-18
4112.60850 5.17312e-18
4114.55684 5.08021e-18
4116.50518 5.09461e-18
4118.45353 5.14296e-18
4120.41191 4.93274e-18
4122.36025 4.62683e-18
4124.30859 4.57216e-18
4126.25694 4.61897e-18
4128.20528 4.59707e-18
4130.15362 4.61173e-18
4132.10196 4.64117e-18
4134.06035 4.58615e-18
4136.00869 4.42988e-18
4137.95703 4.31486e-18
4139.90537 4.27281e-18
4141.85372 4.16435e-18
4143.80206 4.09083e-18
4145.75040 4.13667e-18
4147.70878 4.10645e-18
4149.65713 3.88844e-18
4151.60547 3.79945e-18
4153.55381 3.71745e-18
4155.50215 3.64394e-18
4157.45049 3.61541e-18
4159.39884 3.57735e-18
4161.35722 3.60002e-18
4163.30556 3.43174e-18
4165.25391 3.17504e-18
4167.20225 3.20495e-18
4169.15059 3.19193e-18
4171.09893 3.27777e-18
4173.04727 3.16357e-18
4175.00566 3.17664e-18
4176.95400 3.14175e-18
4178.90234 3.21542e-18
4180.85068 3.33604e-18
4182.79903 3.22644e-18
4184.74737 3.18113e-18
4186.69571 3.16864e-18
4188.65410 3.17537e-18
4190.60244 3.28465e-18
4192.55078 3.35529e-18
4194.49912 3.41982e-18
4196.44746 3.38477e-18
4198.39581 3.32706e-18
4200.34415 3.28275e-18
4202.30253 3.25636e-18
4204.25087 3.36880e-18
4206.19922 3.55513e-18
4208.14756 3.63546e-18
4210.09590 3.62691e-18
4212.04424 3.56782e-18
4213.99258 3.64120e-18
4215.95097 3.64606e-18
4217.89931 3.70731e-18
4219.84765 3.61252e-18
4221.79600 3.67321e-18
4223.74434 3.84044e-18
4225.69268 3.90146e-18
4227.64102 3.82721e-18
4229.59941 3.76874e-18
4231.54775 3.87216e-18
4233.49609 4.08605e-18
4235.44443 4.04035e-18
4237.39278 4.02567e-18
4239.34112 3.87300e-18
4241.28946 3.83215e-18
4243.24784 3.97377e-18
4245.19619 4.08605e-18
4247.14453 3.94117e-18
4249.09287 3.76111e-18
4251.04121 3.74892e-18
4252.98955 3.76444e-18
4254.93790 3.96874e-18
4256.89628 3.98400e-18
4258.84462 3.96416e-18
4260.79296 3.90248e-18
4262.74131 3.72468e-18
4264.68965 3.73380e-18
4266.63799 3.90703e-18
4268.58633 3.91601e-18
4270.53467 3.87060e-18
4272.49306 3.86483e-18
4274.44140 3.80674e-18
4276.38974 3.80277e-18
4278.33809 3.86769e-18
4280.28643 3.96770e-18
4282.23477 3.92397e-18
4284.18311 4.00906e-18
4286.14150 3.96534e-18
4288.08984 4.06366e-18
4290.03818 4.22188e-18
4291.98652 4.01312e-18
4293.93487 3.68133e-18
4295.88321 3.86625e-18
4297.84159 4.04007e-18
4299.78993 4.02970e-18
4301.73828 4.14630e-18
4303.68662 4.12309e-18
4305.63496 4.03452e-18
4307.58330 4.01339e-18
4309.53164 4.05994e-18
4311.47999 4.16049e-18
4313.43837 4.18345e-18
4315.38671 4.01421e-18
4317.33506 4.08300e-18
4319.28340 4.06962e-18
4321.23174 4.17059e-18
4323.18008 4.00711e-18
4325.12842 3.95447e-18
4327.08681 4.17927e-18
4329.03515 4.27706e-18
4330.98349 4.26695e-18
4332.93183 4.26439e-18
4334.88018 4.09636e-18
4336.82852 4.01441e-18
4338.77686 4.34712e-18
4340.73524 4.57928e-18
4342.68359 4.48718e-18
4344.63193 4.41236e-18
4346.58027 4.19119e-18
4348.52861 4.26851e-18
4350.47696 4.47407e-18
4352.42530 4.40556e-18
4354.38368 4.52697e-18
4356.33202 4.59929e-18
4358.28037 4.51253e-18
4360.22871 4.49396e-18
4362.17705 4.57207e-18
4364.12539 4.54659e-18
4366.07373 4.52114e-18
4368.03212 4.49567e-18
4369.98046 4.47021e-18
4371.92880 4.44475e-18
4373.87714 4.41930e-18
4375.82549 4.39384e-18
4377.77383 4.36838e-18
4379.72217 4.34294e-18
4381.68056 4.31749e-18
4383.62890 4.29203e-18
4385.57724 4.26658e-18
4387.52558 4.24115e-18
4389.47392 4.21570e-18
4391.42227 4.19025e-18
4393.37061 4.16482e-18
4395.32899 4.13938e-18
4397.27733 4.11394e-18
4399.22568 4.08851e-18
4401.17402 4.06307e-18
4403.12236 4.14517e-18
4405.07070 4.20046e-18
4407.01904 4.22439e-18
4408.97743 4.21546e-18
4410.92577 4.15464e-18
4412.87411 4.19680e-18
4414.82246 4.15380e-18
4416.77080 3.97348e-18
4418.71914 3.89122e-18
4420.66748 3.94057e-18
4422.62587 3.86576e-18
4424.57421 3.69872e-18
4426.52255 3.76437e-18
4428.47089 3.83228e-18
4430.41923 3.83446e-18
4432.36758 3.80333e-18
4434.31592 3.78994e-18
4436.27430 3.85151e-18
4438.22265 3.91649e-18
4440.17099 4.04002e-18
4442.11933 4.00258e-18
4444.06767 3.90395e-18
4446.01601 3.90094e-18
4447.96436 4.08277e-18
4449.92274 4.09082e-18
4451.87108 4.18515e-18
4453.81942 4.22025e-18
4455.76777 4.34054e-18
4457.71611 4.47867e-18
4459.66445 4.46437e-18
4461.61279 4.44317e-18
4463.57118 4.55506e-18
4465.51952 4.68202e-18
4467.46786 4.72310e-18
4469.41620 4.79943e-18
4471.36455 4.94765e-18
4473.31289 4.88455e-18
4475.26123 4.77649e-18
4477.21961 4.95192e-18
4479.16796 5.23033e-18
4481.11630 5.42064e-18
4483.06464 5.44644e-18
4485.01298 5.40363e-18
4486.96133 5.68291e-18
4488.90967 5.94588e-18
4490.86805 5.84132e-18
4492.81639 5.87304e-18
4494.76474 5.99866e-18
4496.71308 5.99065e-18
4498.66142 6.27989e-18
4500.60976 6.43154e-18
4502.55810 6.57849e-18
4504.51649 6.65905e-18
4506.46483 6.68623e-18
4508.41317 6.84072e-18
4510.36151 6.82560e-18
4512.30986 6.83309e-18
4514.25820 7.04051e-18
4516.20654 7.32712e-18
4518.15488 7.48759e-18
4520.11327 7.40437e-18
4522.06161 7.41627e-18
4524.00995 7.55287e-18
4525.95829 7.70897e-18
4527.90664 7.96635e-18
4529.85498 8.08326e-18
4531.80332 7.90499e-18
4533.76170 8.08115e-18
4535.71005 8.38618e-18
4537.65839 8.38974e-18
4539.60673 8.50586e-18
4541.55507 8.86470e-18
4543.50342 9.14662e-18
4545.45176 9.12179e-18
4547.41014 9.27656e-18
4549.35848 9.60234e-18
4551.30683 9.43752e-18
4553.25517 9.32392e-18
4555.20351 9.59475e-18
4557.15185 9.86204e-18
4559.10019 1.01805e-17
4561.05858 1.02611e-17
4563.00692 1.00961e-17
4564.95526 9.98313e-18
4566.90361 1.01730e-17
4568.85195 1.03430e-17
4570.80029 1.05893e-17
4572.74863 1.07234e-17
4574.70702 1.09076e-17
4576.65536 1.10159e-17
4578.60370 1.11469e-17
4580.55204 1.11279e-17
4582.50038 1.15085e-17
4584.44873 1.16927e-17
4586.39707 1.19750e-17
4588.35545 1.22702e-17
4590.30379 1.22278e-17
4592.25214 1.27137e-17
4594.20048 1.26092e-17
4596.14882 1.23839e-17
4598.09716 1.27764e-17
4600.04551 1.31440e-17
4602.00389 1.29577e-17
4603.95223 1.26301e-17
4605.90057 1.30828e-17
4607.84892 1.31035e-17
4609.79726 1.27381e-17
4611.74560 1.27531e-17
4613.69394 1.28823e-17
4615.65233 1.30342e-17
4617.60067 1.30430e-17
4619.54901 1.29610e-17
4621.49735 1.25429e-17
4623.44569 1.25689e-17
4625.39404 1.27850e-17
4627.34238 1.27027e-17
4629.30076 1.28988e-17
4631.24911 1.32515e-17
4633.19745 1.34832e-17
4635.14579 1.32413e-17
4637.09413 1.32454e-17
4639.04247 1.34721e-17
4640.99082 1.34085e-17
4642.94920 1.30240e-17
4644.89754 1.27710e-17
4646.84588 1.29216e-17
4648.79423 1.31376e-17
4650.74257 1.30539e-17
4652.69091 1.29463e-17
4654.63925 1.28035e-17
4656.59764 1.25115e-17
4658.54598 1.21791e-17
4660.49432 1.19508e-17
4662.44266 1.20656e-17
4664.39101 1.22596e-17
4666.33935 1.21902e-17
4668.28769 1.20238e-17
4670.24608 1.18468e-17
4672.19442 1.16805e-17
4674.14276 1.14432e-17
4676.09110 1.12096e-17
4678.03944 1.10278e-17
4679.98778 1.11006e-17
4681.93613 1.10310e-17
4683.88447 1.06859e-17
4685.84285 1.08250e-17
4687.79120 1.06166e-17
4689.73954 1.04236e-17
4691.68788 1.05305e-17
4693.63622 1.01370e-17
4695.58456 9.86212e-18
4697.53291 9.94872e-18
4699.49129 9.93471e-18
4701.43963 9.97746e-18
4703.38797 9.76138e-18
4705.33632 9.29614e-18
4707.28466 9.12604e-18
4709.23300 8.91799e-18
4711.19139 8.57986e-18
4713.13973 8.61502e-18
4715.08807 8.55927e-18
4717.03641 8.32190e-18
4718.98475 8.48748e-18
4720.93310 8.72544e-18
4722.88144 8.65764e-18
4724.82978 8.57269e-18
4726.78816 8.67040e-18
4728.73651 8.60885e-18
4730.68485 8.59072e-18
4732.63319 8.71342e-18
4734.58153 8.64051e-18
4736.52988 8.56740e-18
4738.47822 8.59099e-18
4740.43660 8.45909e-18
4742.38494 8.42078e-18
4744.33329 8.52001e-18
4746.28163 8.37070e-18
4748.22997 8.28934e-18
4750.17831 8.38014e-18
4752.12665 8.16049e-18
4754.08504 7.96959e-18
4756.03338 7.89825e-18
4757.98172 7.87226e-18
4759.93007 7.92350e-18
4761.87841 8.00907e-18
4763.82675 8.07851e-18
4765.77509 7.91270e-18
4767.73348 7.90558e-18
4769.68182 7.93594e-18
4771.63016 7.71249e-18
4773.57850 7.58564e-18
4775.52684 7.49936e-18
4777.47519 7.43216e-18
4779.42353 7.29632e-18
4781.38191 7.14361e-18
4783.33025 7.15055e-18
4785.27860 7.25867e-18
4787.22694 7.27493e-18
4789.17528 7.10124e-18
4791.12362 6.94810e-18
4793.07197 6.85289e-18
4795.03035 6.88052e-18
4796.97869 6.86579e-18
4798.92703 6.79543e-18
4800.87538 6.73690e-18
4802.82372 6.91307e-18
4804.77206 6.84623e-18
4806.72040 6.54449e-18
4808.67879 6.55493e-18
4810.62713 6.95127e-18
4812.57547 7.03106e-18
4814.52381 6.81814e-18
4816.47216 6.82091e-18
4818.42050 6.83457e-18
4820.36884 6.80539e-18
4822.32722 6.90658e-18
4824.27557 7.21540e-18
4826.22391 7.38677e-18
4828.17225 7.42401e-18
4830.12059 7.27246e-18
4832.06893 7.18977e-18
4834.01728 7.47198e-18
4835.97566 7.56932e-18
4837.92400 7.36682e-18
4839.87234 7.39752e-18
4841.82069 7.57586e-18
4843.76903 7.52883e-18
4845.71737 7.46004e-18
4847.66571 7.50897e-18
4849.62410 7.69394e-18
4851.57244 7.73911e-18
4853.52078 7.45241e-18
4855.46912 7.32803e-18
4857.41747 7.50824e-18
4859.36581 7.54409e-18
4861.31415 7.28869e-18
4863.27254 7.25919e-18
4865.22088 7.28234e-18
4867.16922 7.30549e-18
4869.11756 7.32863e-18
4871.06590 7.35177e-18
4873.01424 7.37492e-18
4874.96259 7.39806e-18
4876.92097 7.42119e-18
4878.86931 7.44433e-18
4880.81766 7.46746e-18
4882.76600 7.49060e-18
4884.71434 7.51373e-18
4886.66268 7.53686e-18
4888.61102 7.55998e-18
4890.55937 7.58311e-18
4892.51775 7.60624e-18
4894.46609 7.62935e-18
4896.41443 7.65247e-18
4898.36278 7.67560e-18
4900.31112 7.69871e-18
4902.25946 7.78554e-18
4904.21785 7.58981e-18
4906.16619 7.56825e-18
4908.11453 7.63250e-18
4910.06287 7.60445e-18
4912.01121 7.75267e-18
4913.95956 7.82386e-18
4915.90790 7.91698e-18
4917.86628 8.06465e-18
4919.81462 8.09330e-18
4921.76297 8.16846e-18
4923.71131 8.19493e-18
4925.65965 8.28928e-18
4927.60799 8.61818e-18
4929.55633 8.73695e-18
4931.51472 8.71722e-18
4933.46306 8.77524e-18
4935.41140 8.84944e-18
4937.35975 8.91947e-18
4939.30809 9.11533e-18
4941.25643 9.42841e-18
4943.20477 9.60382e-18
4945.15311 9.75328e-18
4947.11150 1.00965e-17
4949.05984 1.02751e-17
4951.00818 1.01343e-17
4952.95652 1.02625e-17
4954.90487 1.03329e-17
4956.85321 1.03736e-17
4958.80155 1.05972e-17
4960.75994 1.07805e-17
4962.70828 1.07035e-17
4964.65662 1.06266e-17
4966.60496 1.05497e-17
4968.55330 1.04727e-17
4970.50165 1.03958e-17
4972.46003 1.03188e-17
4974.40837 1.02419e-17
4976.35671 1.01650e-17
4978.30506 1.00881e-17
4980.25340 1.00112e-17
4982.20174 9.93434e-18
4984.15008 9.85745e-18
4986.09843 9.78055e-18
4988.05681 9.70370e-18
4990.00515 9.62683e-18
4991.95349 9.54995e-18
4993.90184 9.47312e-18
4995.85018 9.39627e-18
4997.79852 9.31941e-18
4999.74686 9.24259e-18
5001.70525 9.18270e-18
5003.65359 9.14739e-18
5005.60193 8.91971e-18
5007.55027 8.83517e-18
5009.49862 8.76808e-18
5011.44696 8.63074e-18
5013.39530 8.49345e-18
5015.35368 8.35609e-18
5017.30203 8.21879e-18
5019.25037 8.08149e-18
5021.19871 7.94421e-18
5023.14705 7.80693e-18
5025.09539 7.66967e-18
5027.04374 7.53242e-18
5029.00212 7.39517e-18
5030.95046 7.25794e-18
5032.89880 7.12076e-18
5034.84715 6.98352e-18
5036.79549 6.84632e-18
5038.74383 6.70913e-18
5040.69217 6.57196e-18
5042.65056 6.43479e-18
5044.59890 6.29764e-18
5046.54724 6.16053e-18
5048.49558 6.01557e-18
5050.44393 6.12189e-18
5052.39227 6.15584e-18
5054.34061 6.06324e-18
5056.29899 6.03258e-18
5058.24734 6.03581e-18
5060.19568 6.04444e-18
5062.14402 5.91847e-18
5064.09236 5.80567e-18
5066.04071 5.96105e-18
5067.98905 6.11976e-18
5069.94743 6.03795e-18
5071.89577 5.91901e-18
5073.84412 5.91297e-18
5075.79246 6.02451e-18
5077.74080 6.10710e-18
5079.68914 6.08566e-18
5081.63748 6.08434e-18
5083.59587 6.15037e-18
5085.54421 6.19595e-18
5087.49255 6.17835e-18
5089.44089 6.17556e-18
5091.38924 6.21153e-18
5093.33758 6.25377e-18
5095.28592 6.33969e-18
5097.24431 6.31701e-18
5099.19265 6.37001e-18
5101.14099 6.54905e-18
5103.08933 6.56535e-18
5105.03767 6.54786e-18
5106.98602 6.62368e-18
5108.93436 6.79961e-18
5110.89274 6.91945e-18
5112.84109 6.97033e-18
5114.78943 7.09438e-18
5116.73777 7.12698e-18
5118.68611 7.18067e-18
5120.63445 7.29573e-18
5122.58279 7.30928e-18
5124.54118 7.35540e-18
5126.48952 7.50048e-18
5128.43786 7.69681e-18
5130.38621 7.76737e-18
5132.33455 7.72928e-18
5134.28289 7.77725e-18
5136.23123 7.89795e-18
5138.17957 8.00948e-18
5140.13796 8.11065e-18
5142.08630 8.09411e-18
5144.03464 8.27251e-18
5145.98298 8.55188e-18
5147.93133 8.62081e-18
5149.87967 8.57432e-18
5151.82801 8.43306e-18
5153.78640 8.27837e-18
5155.73474 8.46457e-18
5157.68308 8.43274e-18
5159.63142 8.47206e-18
5161.57976 8.62698e-18
5163.52811 8.63032e-18
5165.47645 8.55832e-18
5167.43483 8.61112e-18
5169.38317 8.64859e-18
5171.33152 8.68530e-18
5173.27986 8.83643e-18
5175.22820 8.90387e-18
5177.17654 8.84350e-18
5179.12488 8.62745e-18
5181.08327 8.54892e-18
5183.03161 8.86457e-18
5184.97995 9.07694e-18
5186.92830 8.94966e-18
5188.87664 8.99956e-18
5190.82498 9.13687e-18
5192.77332 9.11202e-18
5194.73171 8.95937e-18
5196.68005 8.89903e-18
5198.62839 9.05081e-18
5200.57673 9.20008e-18
5202.52507 9.17495e-18
5204.47342 9.20047e-18
5206.42176 9.33814e-18
5208.38014 9.37043e-18
5210.32849 9.29574e-18
5212.27683 9.32869e-18
5214.22517 9.43404e-18
5216.17351 9.67248e-18
5218.12185 9.93859e-18
5220.07020 9.95513e-18
5222.02858 9.97766e-18
5223.97692 1.01394e-17
5225.92526 1.02824e-17
5227.87361 1.05050e-17
5229.82195 1.07279e-17
5231.77029 1.07441e-17
5233.71863 1.08627e-17
5235.67702 1.08843e-17
5237.62536 1.06792e-17
5239.57370 1.07719e-17
5241.52204 1.09446e-17
5243.47039 1.09493e-17
5245.41873 1.09263e-17
5247.36707 1.09771e-17
5249.32546 1.11195e-17
5251.27380 1.11833e-17
5253.22214 1.12506e-17
5255.17048 1.14162e-17
5257.11882 1.13856e-17
5259.06717 1.13516e-17
5261.01551 1.15533e-17
5262.97389 1.16730e-17
5264.92223 1.16619e-17
5266.87058 1.17026e-17
5268.81892 1.18440e-17
5270.76726 1.18603e-17
5272.71560 1.17176e-17
5274.66394 1.16392e-17
5276.62233 1.16198e-17
5278.57067 1.18584e-17
5280.51901 1.21433e-17
5282.46735 1.21301e-17
5284.41570 1.23365e-17
5286.36404 1.25192e-17
5288.31238 1.24785e-17
5290.27077 1.27329e-17
5292.21911 1.30480e-17
5294.16745 1.31616e-17
5296.11579 1.32142e-17
5298.06413 1.33374e-17
5300.01248 1.33020e-17
5301.96082 1.31796e-17
5303.91920 1.32737e-17
5305.86754 1.33168e-17
5307.81589 1.34443e-17
5309.76423 1.36394e-17
5311.71257 1.34776e-17
5313.66091 1.32019e-17
5315.60926 1.33538e-17
5317.55760 1.36685e-17
5319.51598 1.35964e-17
5321.46432 1.34569e-17
5323.41267 1.35947e-17
5325.36101 1.38385e-17
5327.30935 1.40663e-17
5329.25769 1.42541e-17
5331.20603 1.42158e-17
5333.16442 1.40638e-17
5335.11276 1.41407e-17
5337.06110 1.43881e-17
5339.00944 1.45223e-17
5340.95779 1.45905e-17
5342.90613 1.46681e-17
5344.86451 1.47041e-17
5346.81286 1.47984e-17
5348.76120 1.49126e-17
5350.70954 1.50034e-17
5352.65788 1.51458e-17
5354.60622 1.51137e-17
5356.55457 1.48365e-17
5358.50291 1.47320e-17
5360.46129 1.48145e-17
5362.40963 1.47830e-17
5364.35798 1.46561e-17
5366.30632 1.45450e-17
5368.25466 1.44145e-17
5370.20300 1.43078e-17
5372.15134 1.45512e-17
5374.10973 1.48133e-17
5376.05807 1.46482e-17
5378.00641 1.45368e-17
5379.95476 1.45248e-17
5381.90310 1.45606e-17
5383.85144 1.47133e-17
5385.79978 1.46407e-17
5387.75817 1.45850e-17
5389.70651 1.46984e-17
5391.65485 1.45860e-17
5393.60319 1.43211e-17
5395.55153 1.41738e-17
5397.49988 1.40985e-17
5399.44822 1.41306e-17
5401.40660 1.40522e-17
5403.35495 1.39088e-17
5405.30329 1.39356e-17
5407.25163 1.39135e-17
5409.19997 1.36413e-17
5411.14831 1.35037e-17
5413.09666 1.35918e-17
5415.05504 1.34040e-17
5417.00338 1.32069e-17
5418.95172 1.33467e-17
5420.90007 1.33907e-17
5422.84841 1.31326e-17
5424.79675 1.29901e-17
5426.74509 1.28946e-17
5428.70348 1.27208e-17
5430.65182 1.26991e-17
5432.60016 1.27459e-17
5434.54850 1.28554e-17
5436.49685 1.28125e-17
5438.44519 1.26896e-17
5440.39353 1.27185e-17
5442.35192 1.26546e-17
5444.30026 1.26243e-17
5446.24860 1.24755e-17
5448.19694 1.23629e-17
5450.14528 1.24907e-17
5452.09362 1.24496e-17
5454.04197 1.24649e-17
5456.00035 1.25676e-17
5457.94869 1.26624e-17
5459.89704 1.30482e-17
5461.84538 1.34464e-17
5463.79372 1.34257e-17
5465.74206 1.34337e-17
5467.69040 1.37064e-17
5469.64879 1.38485e-17
5471.59713 1.40637e-17
5473.54547 1.45985e-17
5475.49381 1.50089e-17
5477.44216 1.51462e-17
5479.39050 1.54051e-17
5481.33884 1.58536e-17
5483.29723 1.60617e-17
5485.24557 1.61546e-17
5487.19391 1.65062e-17
5489.14225 1.70115e-17
5491.09059 1.71837e-17
5493.03894 1.71447e-17
5494.98728 1.74341e-17
5496.94566 1.81570e-17
5498.89401 1.87655e-17
5500.84235 1.90427e-17
5502.79069 1.91541e-17
5504.73903 1.92862e-17
5506.68737 1.94132e-17
5508.63572 1.95983e-17
5510.59410 1.98866e-17
5512.54244 2.00073e-17
5514.49078 2.03367e-17
5516.43913 2.07394e-17
5518.38747 2.05086e-17
5520.33581 2.01472e-17
5522.28415 2.01670e-17
5524.24254 2.04332e-17
5526.19088 2.03779e-17
5528.13922 2.00062e-17
5530.08756 1.98834e-17
5532.03591 1.97386e-17
5533.98425 1.97261e-17
5535.93259 2.00287e-17
5537.89097 1.99398e-17
5539.83932 1.95299e-17
5541.78766 1.93303e-17
5543.73600 1.92635e-17
5545.68434 1.88025e-17
5547.63268 1.82671e-17
5549.58103 1.81548e-17
5551.53941 1.79177e-17
5553.48775 1.75469e-17
5555.43609 1.73167e-17
5557.38444 1.71075e-17
5559.33278 1.66632e-17
5561.28112 1.63473e-17
5563.22946 1.63515e-17
5565.17781 1.59855e-17
5567.13619 1.54647e-17
5569.08453 1.51563e-17
5571.03287 1.49345e-17
5572.98122 1.48987e-17
5574.92956 1.49479e-17
5576.87790 1.47846e-17
5578.82624 1.44306e-17
5580.78463 1.39227e-17
5582.73297 1.36182e-17
5584.68131 1.36833e-17
5586.62965 1.35973e-17
5588.57799 1.32336e-17
5590.52634 1.31286e-17
5592.48472 1.34582e-17
5594.43306 1.36126e-17
5596.38141 1.34535e-17
5598.32975 1.34439e-17
5600.27809 1.35445e-17
5602.22643 1.34194e-17
5604.17477 1.35529e-17
5606.12312 1.38126e-17
5608.08150 1.39132e-17
5610.02984 1.41709e-17
5611.97818 1.41690e-17
5613.92653 1.42339e-17
5615.87487 1.46500e-17
5617.82321 1.49358e-17
5619.77155 1.49386e-17
5621.72994 1.49287e-17
5623.67828 1.53592e-17
5625.62662 1.58978e-17
5627.57496 1.58307e-17
5629.52331 1.56588e-17
5631.47165 1.59181e-17
5633.41999 1.63237e-17
5635.37838 1.67352e-17
5637.32672 1.72691e-17
5639.27506 1.73132e-17
5641.22340 1.69143e-17
5643.17174 1.69308e-17
5645.12008 1.73892e-17
5647.06843 1.75086e-17
5649.02681 1.72810e-17
5650.97515 1.70760e-17
5652.92350 1.70430e-17
5654.87184 1.72272e-17
5656.82018 1.71948e-17
5658.76852 1.68075e-17
5660.71686 1.64721e-17
5662.67525 1.61574e-17
5664.62359 1.56151e-17
5666.57193 1.51401e-17
5668.52027 1.48190e-17
5670.46862 1.44241e-17
5672.41696 1.40105e-17
5674.36530 1.35652e-17
5676.32369 1.32389e-17
5678.27203 1.29919e-17
5680.22037 1.26795e-17
5682.16871 1.27113e-17
5684.11705 1.24508e-17
5686.06540 1.18409e-17
5688.01374 1.17190e-17
5689.97212 1.17100e-17
5691.92047 1.15099e-17
5693.86881 1.11835e-17
5695.81715 1.08794e-17
5697.76549 1.06993e-17
5699.71383 1.07111e-17
5701.66217 1.06081e-17
5703.62056 1.06722e-17
5705.56890 1.05799e-17
5707.51724 1.02125e-17
5709.46559 9.83483e-18
5711.41393 9.66136e-18
5713.36227 9.71439e-18
5715.31061 9.51286e-18
5717.26900 9.31599e-18
5719.21734 9.29093e-18
5721.16568 9.41490e-18
5723.11402 9.35541e-18
5725.06236 8.94750e-18
5727.01071 8.86080e-18
5728.95905 9.05948e-18
5730.91743 9.13474e-18
5732.86578 9.14005e-18
5734.81412 9.17525e-18
5736.76246 9.16934e-18
5738.71080 9.25087e-18
5740.65914 9.39421e-18
5742.60749 9.22419e-18
5744.56587 9.22311e-18
5746.51421 9.18747e-18
5748.46256 8.87030e-18
5750.41090 8.75832e-18
5752.35924 8.89793e-18
5754.30758 8.76270e-18
5756.25592 8.57197e-18
5758.21431 8.55531e-18
5760.16265 8.44926e-18
5762.11099 8.67023e-18
5764.05933 8.95676e-18
5766.00768 8.63269e-18
5767.95602 8.46370e-18
5769.90436 8.78380e-18
5771.86274 8.78929e-18
5773.81109 8.48157e-18
5775.75943 8.41567e-18
5777.70777 8.60272e-18
5779.65611 8.64425e-18
5781.60446 8.38596e-18
5783.55280 8.20444e-18
5785.50114 8.38163e-18
5787.45952 8.35266e-18
5789.40787 8.27653e-18
5791.35621 8.39148e-18
5793.30455 8.45656e-18
5795.25289 8.71473e-18
5797.20123 8.77627e-18
5799.14958 8.50203e-18
5801.10796 8.33916e-18
5803.05630 8.30946e-18
5805.00464 8.45528e-18
5806.95299 8.65202e-18
5808.90133 8.70414e-18
5810.84967 9.06921e-18
5812.79801 9.34709e-18
5814.75640 9.27714e-18
5816.70474 9.53189e-18
5818.65308 9.79016e-18
5820.60142 9.82349e-18
5822.54977 9.97530e-18
5824.49811 1.02364e-17
5826.44645 1.06269e-17
5828.40483 1.09754e-17
5830.35318 1.13790e-17
5832.30152 1.15910e-17
5834.24986 1.18622e-17
5836.19820 1.23761e-17
5838.14654 1.28756e-17
5840.09489 1.28764e-17
5842.05327 1.29647e-17
5844.00161 1.31844e-17
5845.94996 1.35304e-17
5847.89830 1.40953e-17
5849.84664 1.43640e-17
5851.79498 1.47139e-17
5853.74332 1.49174e-17
5855.70171 1.50245e-17
5857.65005 1.54788e-17
5859.59839 1.57192e-17
5861.54673 1.57425e-17
5863.49508 1.58197e-17
5865.44342 1.62065e-17
5867.39176 1.64664e-17
5869.35015 1.64537e-17
5871.29849 1.65142e-17
5873.24683 1.68555e-17
5875.19517 1.73698e-17
5877.14351 1.73266e-17
5879.09186 1.73890e-17
5881.04020 1.76469e-17
5882.99858 1.76524e-17
5884.94693 1.81044e-17
5886.89527 1.80075e-17
5888.84361 1.74361e-17
5890.79195 1.75404e-17
5892.74029 1.80958e-17
5894.68863 1.80952e-17
5896.64702 1.81448e-17
5898.59536 1.84264e-17
5900.54370 1.82435e-17
5902.49205 1.84551e-17
5904.44039 1.86990e-17
5906.38873 1.87890e-17
5908.33707 1.88012e-17
5910.29546 1.86040e-17
5912.24380 1.87978e-17
5914.19214 1.86269e-17
5916.14048 1.80745e-17
5918.08882 1.79596e-17
5920.03717 1.82990e-17
5921.98551 1.84388e-17
5923.94389 1.85903e-17
5925.89224 1.85936e-17
5927.84058 1.83266e-17
5929.78892 1.84208e-17
5931.73726 1.87856e-17
5933.68560 1.88811e-17
5935.63395 1.85411e-17
5937.59233 1.81858e-17
5939.54067 1.83809e-17
5941.48902 1.86138e-17
5943.43736 1.85167e-17
5945.38570 1.80951e-17
5947.33404 1.79574e-17
5949.28238 1.82268e-17
5951.24077 1.81629e-17
5953.18911 1.80694e-17
5955.13745 1.85341e-17
5957.08579 1.83011e-17
5959.03414 1.77281e-17
5960.98248 1.75468e-17
5962.93082 1.76709e-17
5964.88921 1.76825e-17
5966.83755 1.76661e-17
5968.78589 1.78133e-17
5970.73423 1.75793e-17
5972.68257 1.70504e-17
5974.63091 1.70724e-17
5976.57926 1.73380e-17
5978.53764 1.70428e-17
5980.48598 1.67813e-17
5982.43433 1.70845e-17
5984.38267 1.71050e-17
5986.33101 1.68102e-17
5988.27935 1.70196e-17
5990.22769 1.73876e-17
5992.17604 1.71488e-17
5994.13442 1.68660e-17
5996.08276 1.70964e-17
5998.03111 1.71412e-17
5999.97945 1.68012e-17
6001.92779 1.64448e-17
6003.87613 1.66985e-17
6005.83452 1.66246e-17
6007.78286 1.63068e-17
6009.73120 1.58325e-17
6011.67954 1.54526e-17
6013.62788 1.54122e-17
6015.57623 1.55237e-17
6017.52457 1.53954e-17
6019.48295 1.51768e-17
6021.43129 1.53261e-17
6023.37964 1.53091e-17
6025.32798 1.50481e-17
6027.27632 1.46939e-17
6029.22466 1.45303e-17
6031.17301 1.47583e-17
6033.12135 1.46974e-17
6035.07973 1.43060e-17
6037.02807 1.40705e-17
6038.97642 1.41088e-17
6040.92476 1.38157e-17
6042.87310 1.34610e-17
6044.82144 1.35824e-17
6046.76978 1.36362e-17
6048.72817 1.35394e-17
6050.67651 1.33384e-17
6052.62485 1.33269e-17
6054.57319 1.31839e-17
6056.52154 1.26718e-17
6058.46988 1.21331e-17
6060.41822 1.22305e-17
6062.37661 1.22794e-17
6064.32495 1.19829e-17
6066.27329 1.16416e-17
6068.22163 1.16258e-17
6070.16997 1.17933e-17
6072.11832 1.18230e-17
6074.06666 1.19273e-17
6076.02504 1.18754e-17
6077.97338 1.17746e-17
6079.92173 1.15572e-17
6081.87007 1.15771e-17
6083.81841 1.16983e-17
6085.76675 1.17440e-17
6087.71509 1.19487e-17
6089.67348 1.21940e-17
6091.62182 1.22286e-17
6093.57016 1.23497e-17
6095.51851 1.23770e-17
6097.46685 1.24275e-17
6099.41519 1.25641e-17
6101.36353 1.25684e-17
6103.32192 1.22948e-17
6105.27026 1.23057e-17
6107.21860 1.23679e-17
6109.16694 1.24391e-17
6111.11528 1.26200e-17
6113.06363 1.23683e-17
6115.01197 1.23307e-17
6116.97035 1.25688e-17
6118.91870 1.24856e-17
6120.86704 1.24439e-17
6122.81538 1.29099e-17
6124.76372 1.30741e-17
6126.71206 1.29474e-17
6128.66041 1.27129e-17
6130.61879 1.26013e-17
6132.56713 1.29011e-17
6134.51548 1.29387e-17
6136.46382 1.28378e-17
6138.41216 1.27863e-17
6140.36050 1.29481e-17
6142.30884 1.30383e-17
6144.26723 1.30374e-17
6146.21557 1.29464e-17
6148.16391 1.31820e-17
6150.11225 1.35348e-17
6152.06060 1.31238e-17
6154.00894 1.31244e-17
6155.95728 1.32106e-17
6157.91567 1.32104e-17
6159.86401 1.33166e-17
6161.81235 1.31258e-17
6163.76069 1.32160e-17
6165.70903 1.31967e-17
6167.65737 1.32388e-17
6169.60572 1.35296e-17
6171.56410 1.34935e-17
6173.51244 1.34532e-17
6175.46079 1.34665e-17
6177.40913 1.34446e-17
6179.35747 1.35008e-17
6181.30581 1.34008e-17
6183.25415 1.36877e-17
6185.21254 1.39624e-17
6187.16088 1.43024e-17
6189.10922 1.45139e-17
6191.05757 1.42871e-17
6193.00591 1.44646e-17
6194.95425 1.49452e-17
6196.90259 1.50599e-17
6198.85093 1.48910e-17
6200.80932 1.49147e-17
6202.75766 1.50694e-17
6204.70600 1.52610e-17
6206.65434 1.54114e-17
6208.60269 1.54418e-17
6210.55103 1.55224e-17
6212.50941 1.55132e-17
6214.45776 1.54988e-17
6216.40610 1.55540e-17
6218.35444 1.56780e-17
6220.30278 1.60122e-17
6222.25112 1.62600e-17
6224.19946 1.62371e-17
6226.15785 1.60322e-17
6228.10619 1.62981e-17
6230.05453 1.65588e-17
6232.00288 1.65106e-17
6233.95122 1.63586e-17
6235.89956 1.62563e-17
6237.84790 1.63540e-17
6239.79624 1.65874e-17
6241.75463 1.64433e-17
6243.70297 1.62973e-17
6245.65131 1.63584e-17
6247.59965 1.64150e-17
6249.54800 1.61656e-17
6251.49634 1.63220e-17
6253.44468 1.65758e-17
6255.40307 1.62966e-17
6257.35141 1.61167e-17
6259.29975 1.60766e-17
6261.24809 1.60839e-17
6263.19643 1.62543e-17
6265.14478 1.61009e-17
6267.09312 1.60944e-17
6269.05150 1.62876e-17
6270.99984 1.64506e-17
6272.94819 1.66230e-17
6274.89653 1.66602e-17
6276.84487 1.65752e-17
6278.79321 1.67551e-17
6280.74156 1.66297e-17
6282.69994 1.62908e-17
6284.64828 1.61490e-17
6286.59662 1.60809e-17
6288.54497 1.63185e-17
6290.49331 1.64539e-17
6292.44165 1.65372e-17
6294.38999 1.66030e-17
6296.34838 1.65870e-17
6298.29672 1.63800e-17
6300.24506 1.61019e-17
6302.19340 1.58095e-17
6304.14174 1.56871e-17
6306.09009 1.57489e-17
6308.03843 1.59174e-17
6309.99681 1.58858e-17
6311.94516 1.54550e-17
6313.89350 1.51325e-17
6315.84184 1.50669e-17
6317.79018 1.48855e-17
6319.73852 1.46507e-17
6321.68687 1.48511e-17
6323.64525 1.48894e-17
6325.59359 1.47194e-17
6327.54193 1.46862e-17
6329.49028 1.45948e-17
6331.43862 1.43648e-17
6333.38696 1.41195e-17
6335.33530 1.44247e-17
6337.29369 1.47477e-17
6339.24203 1.45046e-17
6341.19037 1.44095e-17
6343.13871 1.43957e-17
6345.08706 1.42313e-17
6347.03540 1.41620e-17
6348.98374 1.40118e-17
6350.94212 1.39402e-17
6352.89047 1.39479e-17
6354.83881 1.38102e-17
6356.78715 1.37434e-17
6358.73549 1.37053e-17
6360.68383 1.36004e-17
6362.63218 1.36417e-17
6364.59056 1.38456e-17
6366.53890 1.38523e-17
6368.48725 1.37690e-17
6370.43559 1.36489e-17
6372.38393 1.36318e-17
6374.33227 1.38230e-17
6376.28061 1.37405e-17
6378.23900 1.35632e-17
6380.18734 1.36183e-17
6382.13568 1.36456e-17
6384.08403 1.34145e-17
6386.03237 1.34101e-17
6387.98071 1.34595e-17
6389.92905 1.31667e-17
6391.88744 1.31026e-17
6393.83578 1.32297e-17
6395.78412 1.31234e-17
6397.73246 1.30038e-17
6399.68080 1.29499e-17
6401.62915 1.29268e-17
6403.57749 1.31402e-17
6405.52583 1.31442e-17
6407.48422 1.28584e-17
6409.43256 1.26635e-17
6411.38090 1.25388e-17
6413.32924 1.26855e-17
6415.27758 1.28634e-17
6417.22592 1.30110e-17
6419.17427 1.38442e-17
6421.13265 1.36761e-17
6423.08099 1.35295e-17
6425.02934 1.28095e-17
6426.97768 1.30095e-17
6428.92602 1.28904e-17
6430.87436 1.25904e-17
6432.82270 1.27863e-17
6434.78109 1.30635e-17
6436.72943 1.31039e-17
6438.67777 1.32635e-17
6440.62612 1.33518e-17
6442.57446 1.32916e-17
6444.52280 1.33407e-17
6446.47114 1.33453e-17
6448.42953 1.31946e-17
6450.37787 1.33415e-17
6452.32621 1.39870e-17
6454.27455 1.42475e-17
6456.22289 1.40652e-17
6458.17124 1.41769e-17
6460.11958 1.44181e-17
6462.07796 1.44681e-17
6464.02631 1.44792e-17
6465.97465 1.44730e-17
6467.92299 1.45554e-17
6469.87133 1.47863e-17
6471.81967 1.47613e-17
6473.76801 1.46483e-17
6475.72640 1.45682e-17
6477.67474 1.43589e-17
6479.62308 1.45716e-17
6481.57143 1.50814e-17
6483.51977 1.51230e-17
6485.46811 1.47177e-17
6487.41645 1.45201e-17
6489.37484 1.45755e-17
6491.32318 1.45036e-17
6493.27152 1.44592e-17
6495.21986 1.46574e-17
6497.16820 1.46835e-17
6499.11655 1.46168e-17
6501.06489 1.49620e-17
6503.02327 1.51663e-17
6504.97162 1.50176e-17
6506.91996 1.48695e-17
6508.86830 1.45545e-17
6510.81664 1.42949e-17
6512.76498 1.42980e-17
6514.71333 1.43539e-17
6516.67171 1.43539e-17
6518.62005 1.44538e-17
6520.56839 1.45039e-17
6522.51674 1.41146e-17
6524.46508 1.39019e-17
6526.41342 1.41942e-17
6528.36176 1.44170e-17
6530.32015 1.43649e-17
6532.26849 1.41918e-17
6534.21683 1.40953e-17
6536.16517 1.40886e-17
6538.11352 1.42190e-17
6540.06186 1.42892e-17
6542.01020 1.40222e-17
6543.96858 1.39976e-17
6545.91693 1.42075e-17
6547.86527 1.41423e-17
6549.81361 1.41179e-17
6551.76195 1.42682e-17
6553.71029 1.41598e-17
6555.65864 1.40834e-17
6557.61702 1.42391e-17
6559.56536 1.42680e-17
6561.51371 1.42496e-17
6563.46205 1.42312e-17
6565.41039 1.42129e-17
6567.35873 1.41945e-17
6569.30707 1.41761e-17
6571.26546 1.41577e-17
6573.21380 1.41393e-17
6575.16214 1.41209e-17
6577.11048 1.41026e-17
6579.05883 1.40842e-17
6581.00717 1.40658e-17
6582.95551 1.40474e-17
6584.91390 1.40290e-17
6586.86224 1.40107e-17
6588.81058 1.39923e-17
6590.75892 1.39739e-17
6592.70726 1.39555e-17
6594.65561 1.39372e-17
6596.60395 1.39188e-17
6598.56233 1.39004e-17
6600.51067 1.38820e-17
6602.45902 1.38637e-17
6604.40736 1.38453e-17
6606.35570 1.38269e-17
6608.30404 1.38086e-17
6610.25238 1.37902e-17
6612.21077 1.37718e-17
6614.15911 1.37535e-17
6616.10745 1.37351e-17
6618.05580 1.37167e-17
6620.00414 1.36984e-17
6621.95248 1.36800e-17
6623.90082 1.37617e-17
6625.84916 1.38586e-17
6627.80755 1.39942e-17
6629.75589 1.39374e-17
6631.70423 1.35566e-17
6633.65258 1.33177e-17
6635.60092 1.33825e-17
6637.54926 1.33589e-17
6639.50764 1.32924e-17
6641.45599 1.32720e-17
6643.40433 1.32418e-17
6645.35267 1.33199e-17
6647.30101 1.33445e-17
6649.24935 1.32592e-17
6651.19770 1.31249e-17
6653.15608 1.31338e-17
6655.10442 1.32599e-17
6657.05277 1.31924e-17
6659.00111 1.31430e-17
6660.94945 1.31467e-17
6662.89779 1.29180e-17
6664.84613 1.28533e-17
6666.79447 1.30294e-17
6668.75286 1.29548e-17
6670.70120 1.28695e-17
6672.64954 1.29786e-17
6674.59789 1.30262e-17
6676.54623 1.29955e-17
6678.49457 1.28780e-17
6680.44291 1.28623e-17
6682.40130 1.30584e-17
6684.34964 1.31414e-17
6686.29798 1.30836e-17
6688.24632 1.29891e-17
6690.19466 1.28534e-17
6692.14301 1.26456e-17
6694.09135 1.25447e-17
6696.04973 1.26006e-17
6697.99808 1.26267e-17
6699.94642 1.25922e-17
6701.89476 1.23911e-17
6703.84310 1.25480e-17
6705.79144 1.30523e-17
6707.73979 1.27455e-17
6709.69817 1.20540e-17
6711.64651 1.20928e-17
6713.59486 1.23737e-17
6715.54320 1.23344e-17
6717.49154 1.22221e-17
6719.43988 1.20770e-17
6721.38822 1.18405e-17
6723.34661 1.16873e-17
6725.29495 1.17630e-17
6727.24329 1.19153e-17
6729.19163 1.18722e-17
6731.13998 1.17453e-17
6733.08832 1.17498e-17
6735.03666 1.17333e-17
6736.99504 1.15667e-17
6738.94339 1.15534e-17
6740.89173 1.18538e-17
6742.84007 1.20015e-17
6744.78841 1.17257e-17
6746.73675 1.14823e-17
6748.68510 1.13858e-17
6750.64348 1.12772e-17
6752.59182 1.11359e-17
6754.54017 1.10174e-17
6756.48851 1.10109e-17
6758.43685 1.12911e-17
6760.38519 1.15143e-17
6762.33353 1.14202e-17
6764.29192 1.13028e-17
6766.24026 1.13201e-17
6768.18860 1.14236e-17
6770.13694 1.15251e-17
6772.08529 1.14624e-17
6774.03363 1.13792e-17
6775.98197 1.13443e-17
6777.94036 1.12446e-17
6779.88870 1.12841e-17
6781.83704 1.13194e-17
6783.78538 1.13325e-17
6785.73372 1.14559e-17
6787.68207 1.16920e-17
6789.63041 1.17772e-17
6791.58879 1.14326e-17
6793.53713 1.12866e-17
6795.48548 1.16031e-17
6797.43382 1.17075e-17
6799.38216 1.15040e-17
6801.33050 1.15250e-17
6803.27884 1.16160e-17
6805.23723 1.16568e-17
6807.18557 1.15379e-17
6809.13391 1.13452e-17
6811.08226 1.12092e-17
6813.03060 1.14273e-17
6814.97894 1.16177e-17
6816.92728 1.13714e-17
6818.88567 1.13410e-17
6820.83401 1.15924e-17
6822.78235 1.14976e-17
6824.73069 1.14086e-17
6826.67903 1.15408e-17
6828.62738 1.15513e-17
6830.57572 1.16785e-17
6832.53410 1.13838e-17
6834.48245 1.10118e-17
6836.43079 1.10436e-17
6838.37913 1.07225e-17
6840.32747 1.06005e-17
6842.27581 1.09561e-17
6844.22416 1.09014e-17
6846.18254 1.06329e-17
6848.13088 1.06768e-17
6850.07922 1.07086e-17
6852.02757 1.06310e-17
6853.97591 1.04239e-17
6855.92425 1.02854e-17
6857.87259 1.04243e-17
6859.83098 1.03751e-17
6861.77932 1.03010e-17
6863.72766 1.00333e-17
6865.67600 9.62605e-18
6867.62435 9.32094e-18
6869.57269 9.29971e-18
6871.52103 9.58698e-18
6873.47941 9.57965e-18
6875.42776 9.49266e-18
6877.37610 9.46862e-18
6879.32444 9.47387e-18
6881.27278 9.69190e-18
6883.22113 9.65805e-18
6885.16947 9.38155e-18
6887.11781 9.54858e-18
6889.07619 9.72241e-18
6891.02454 9.27150e-18
6892.97288 8.99131e-18
6894.92122 9.05503e-18
6896.86956 9.10218e-18
6898.81790 9.15877e-18
6900.76625 9.22559e-18
6902.72463 9.21536e-18
6904.67297 8.97251e-18
6906.62132 8.75953e-18
6908.56966 8.94773e-18
6910.51800 9.02319e-18
6912.46634 8.94229e-18
6914.41468 9.02955e-18
6916.37307 9.12593e-18
6918.32141 8.88856e-18
6920.26975 8.69505e-18
6922.21809 8.96536e-18
6924.16644 8.96683e-18
6926.11478 8.85626e-18
6928.06312 9.10969e-18
6930.02151 9.26202e-18
6931.96985 9.24053e-18
6933.91819 9.34419e-18
6935.86653 9.64659e-18
6937.81487 9.82085e-18
6939.76321 9.66531e-18
6941.71156 9.53718e-18
6943.66994 9.53260e-18
6945.61828 9.67564e-18
6947.56663 1.00910e-17
6949.51497 1.03646e-17
6951.46331 1.03263e-17
6953.41165 1.03568e-17
6955.35999 1.04747e-17
6957.31838 1.05654e-17
6959.26672 1.07655e-17
6961.21506 1.08272e-17
6963.16341 1.08175e-17
6965.11175 1.09796e-17
6967.06009 1.08195e-17
6969.00843 1.06469e-17
6970.96682 1.07370e-17
6972.91516 1.05104e-17
6974.86350 1.04022e-17
6976.81184 1.08355e-17
6978.76018 1.10689e-17
6980.70853 1.09493e-17
6982.65687 1.09554e-17
6984.61525 1.10985e-17
6986.56359 1.13591e-17
6988.51194 1.16263e-17
6990.46028 1.12964e-17
6992.40862 1.08918e-17
6994.35696 1.09382e-17
6996.30530 1.10440e-17
6998.26369 1.08521e-17
7000.21203 1.09165e-17
7002.16037 1.11855e-17
7004.10872 1.11153e-17
7006.05706 1.08946e-17
7008.00540 1.07952e-17
7009.95374 1.09446e-17
7011.91213 1.11040e-17
7013.86047 1.12202e-17
7015.80881 1.14409e-17
7017.75715 1.14079e-17
7019.70549 1.11383e-17
7021.65384 1.08488e-17
7023.60218 1.08026e-17
7025.56056 1.08999e-17
7027.50891 1.07994e-17
7029.45725 1.08866e-17
7031.40559 1.12055e-17
7033.35393 1.13331e-17
7035.30227 1.12397e-17
7037.25062 1.10122e-17
7039.19896 1.08012e-17
7041.15734 1.08225e-17
7043.10568 1.07653e-17
7045.05403 1.07417e-17
7047.00237 1.08520e-17
7048.95071 1.07416e-17
7050.89905 1.05695e-17
7052.85744 1.03425e-17
7054.80578 1.02797e-17
7056.75412 1.04894e-17
7058.70246 1.05055e-17
7060.65081 1.01163e-17
7062.59915 9.88904e-18
7064.54749 1.01654e-17
7066.50587 1.04268e-17
7068.45422 1.02642e-17
7070.40256 1.05017e-17
7072.35090 1.09228e-17
7074.29924 8.78167e-18
7076.24758 7.84508e-18
7078.19593 1.00733e-17
7080.14427 1.04618e-17
7082.10265 1.04834e-17
7084.05100 1.05584e-17
7085.99934 1.01257e-17
7087.94768 1.02067e-17
7089.89602 1.03422e-17
7091.84436 1.02730e-17
7093.79271 1.02306e-17
7095.75109 1.00656e-17
7097.69943 9.89374e-18
7099.64777 1.00139e-17
7101.59612 1.02107e-17
7103.54446 1.02075e-17
7105.49280 1.00178e-17
7107.44114 9.88918e-18
7109.39953 9.79159e-18
7111.34787 9.71056e-18
7113.29621 9.93701e-18
7115.24455 1.01210e-17
7117.19290 9.99877e-18
7119.14124 1.00297e-17
7121.08958 1.01048e-17
7123.04796 1.03239e-17
7124.99631 1.01034e-17
7126.94465 9.85822e-18
7128.89299 9.79686e-18
7130.84133 9.99432e-18
7132.78967 1.02244e-17
7134.73802 1.00960e-17
7136.69640 1.00534e-17
7138.64474 1.01225e-17
7140.59309 1.00551e-17
7142.54143 1.00073e-17
7144.48977 1.00814e-17
7146.43811 1.01416e-17
7148.38645 1.02967e-17
7150.34484 1.02640e-17
7152.29318 1.00000e-17
7154.24152 1.00885e-17
7156.18987 1.01420e-17
7158.13821 1.00933e-17
7160.08655 1.03389e-17
7162.03489 1.04520e-17
7163.99328 1.04447e-17
7165.94162 1.06225e-17
7167.88996 1.07685e-17
7169.83830 1.05373e-17
7171.78664 1.04353e-17
7173.73499 1.05923e-17
7175.68333 1.06112e-17
7177.64171 1.05689e-17
7179.59006 1.08734e-17
7181.53840 1.09112e-17
7183.48674 1.06939e-17
7185.43508 1.07313e-17
7187.38342 1.06700e-17
7189.33176 1.06484e-17
7191.29015 1.05731e-17
7193.23849 1.06328e-17
7195.18683 1.07583e-17
7197.13518 1.08843e-17
7199.08352 1.08071e-17
7201.03186 1.06562e-17
7202.98020 1.04171e-17
7204.93859 1.05584e-17
7206.88693 1.06867e-17
7208.83527 1.03202e-17
7210.78361 1.02094e-17
7212.73196 1.04910e-17
7214.68030 1.08088e-17
7216.62864 1.11323e-17
7218.58702 1.10747e-17
7220.53537 1.07919e-17
7222.48371 1.08904e-17
7224.43205 1.06410e-17
7226.38039 1.05066e-17
7228.32873 1.08837e-17
7230.27708 1.11248e-17
7232.23546 1.12430e-17
7234.18380 1.09773e-17
7236.13214 1.13896e-17
7238.08049 1.17426e-17
7240.02883 1.13754e-17
7241.97717 1.12471e-17
7243.92551 1.15647e-17
7245.87385 1.15379e-17
7247.83224 1.14393e-17
7249.78058 1.16979e-17
7251.72892 1.19184e-17
7253.67727 1.16905e-17
7255.62561 1.13936e-17
7257.57395 1.13526e-17
7259.53233 1.14163e-17
7261.48068 1.13550e-17
7263.42902 1.18631e-17
7265.37736 1.23453e-17
7267.32570 1.20329e-17
7269.27404 1.17652e-17
7271.22239 1.19833e-17
7273.18077 1.22936e-17
7275.12911 1.24830e-17
7277.07746 1.22951e-17
7279.02580 1.22163e-17
7280.97414 1.22764e-17
7282.92248 1.18042e-17
7284.87082 1.18646e-17
7286.81917 1.23379e-17
7288.77755 1.24004e-17
7290.72589 1.23396e-17
7292.67423 1.24540e-17
7294.62258 1.23084e-17
7296.57092 1.20443e-17
7298.51926 1.22273e-17
7300.47765 1.26480e-17
7302.42599 1.29763e-17
7304.37433 1.26863e-17
7306.32267 1.23574e-17
7308.27101 1.22642e-17
7310.21936 1.25922e-17
7312.16770 1.26808e-17
7314.12608 1.24840e-17
7316.07442 1.23314e-17
7318.02277 1.25380e-17
7319.97111 1.26167e-17
7321.91945 1.24290e-17
7323.86779 1.26739e-17
7325.81614 1.27140e-17
7327.77452 1.22484e-17
7329.72286 1.21682e-17
7331.67120 1.26654e-17
7333.61955 1.29402e-17
7335.56789 1.23759e-17
7337.51623 1.20728e-17
7339.46457 1.24150e-17
7341.41291 1.22050e-17
7343.37130 1.19754e-17
7345.31964 1.23278e-17
7347.26798 1.24022e-17
7349.21632 1.24402e-17
7351.16467 1.24861e-17
7353.11301 1.24383e-17
7355.06135 1.25353e-17
7357.01974 1.27659e-17
7358.96808 1.25109e-17
7360.91642 1.23694e-17
7362.86476 1.23755e-17
7364.81310 1.23424e-17
7366.76145 1.23548e-17
7368.70979 1.23531e-17
7370.66817 1.24101e-17
7372.61651 1.25211e-17
7374.56486 1.24075e-17
7376.51320 1.20313e-17
7378.46154 1.19817e-17
7380.40988 1.17423e-17
7382.35822 1.16815e-17
7384.31661 1.19054e-17
7386.26495 1.19882e-17
7388.21329 1.17907e-17
7390.16164 1.17878e-17
7392.10998 1.18806e-17
7394.05832 1.22289e-17
7396.00666 1.23784e-17
7397.96505 1.22959e-17
7399.91339 1.23566e-17
7401.86173 1.25920e-17
7403.81007 1.27496e-17
7405.75842 1.26750e-17
7407.70676 1.26679e-17
7409.65510 1.25989e-17
7411.61348 1.25902e-17
7413.56183 1.26403e-17
7415.51017 1.25203e-17
7417.45851 1.20724e-17
7419.40685 1.21297e-17
7421.35519 1.25369e-17
7423.30354 1.26402e-17
7425.26192 1.23507e-17
7427.21026 1.19521e-17
7429.15861 1.18395e-17
7431.10695 1.15998e-17
7433.05529 1.22599e-17
7435.00363 1.24818e-17
7436.95197 1.21340e-17
7438.91036 1.21874e-17
7440.85870 1.21786e-17
7442.80704 1.20658e-17
7444.75538 1.21760e-17
7446.70373 1.24039e-17
7448.65207 1.20191e-17
7450.60041 1.21152e-17
7452.55879 1.22076e-17
7454.50714 1.21464e-17
7456.45548 1.20285e-17
7458.40382 1.19788e-17
7460.35216 1.18366e-17
7462.30051 1.18267e-17
7464.24885 1.18038e-17
7466.20723 1.18945e-17
7468.15557 1.20309e-17
7470.10392 1.20644e-17
7472.05226 1.19467e-17
7474.00060 1.20362e-17
7475.94894 1.20455e-17
7477.89728 1.19750e-17
7479.85567 1.21347e-17
7481.80401 1.20283e-17
7483.75235 1.16760e-17
7485.70069 1.17939e-17
7487.64904 1.20176e-17
7489.59738 1.19827e-17
7491.54572 1.17501e-17
7493.50411 1.16777e-17
7495.45245 1.18498e-17
7497.40079 1.15574e-17
7499.34913 1.10020e-17
7501.29747 1.08245e-17
7503.24582 1.06760e-17
7505.19416 1.05704e-17
7507.14250 1.06105e-17
7509.10088 1.06531e-17
7511.04923 1.05784e-17
7512.99757 1.03986e-17
7514.94591 1.02250e-17
7516.89425 9.83512e-18
7518.84259 9.88766e-18
7520.79094 1.00463e-17
7522.74932 9.96676e-18
7524.69766 9.83559e-18
7526.64601 9.82316e-18
7528.59435 9.89811e-18
7530.54269 9.90470e-18
7532.49103 9.83437e-18
7534.43937 9.49872e-18
7536.39776 9.56653e-18
7538.34610 9.78575e-18
7540.29444 9.48225e-18
7542.24278 9.35345e-18
7544.19113 9.26865e-18
7546.13947 9.16231e-18
7548.08781 8.86810e-18
7550.04620 8.55064e-18
7551.99454 8.68589e-18
7553.94288 8.85366e-18
7555.89122 8.81490e-18
7557.83956 8.72363e-18
7559.78791 8.52787e-18
7561.73625 8.25566e-18
7563.69463 8.04570e-18
7565.64297 8.18648e-18
7567.59132 8.28873e-18
7569.53966 8.21000e-18
7571.48800 8.11103e-18
7573.43634 7.96528e-18
7575.38468 7.88101e-18
7577.34307 7.91671e-18
7579.29141 7.85351e-18
7581.23975 7.62548e-18
7583.18810 7.83236e-18
7585.13644 7.98639e-18
7587.08478 7.73551e-18
7589.03312 7.37034e-18
7590.99151 7.37819e-18
7592.93985 7.62395e-18
7594.88819 7.77133e-18
7596.83653 6.83713e-18
7598.78487 6.03539e-18
7600.73322 6.07135e-18
7602.68156 5.59401e-18
7604.63994 5.69975e-18
7606.58829 5.72884e-18
7608.53663 5.65173e-18
7610.48497 5.88204e-18
7612.43331 5.96003e-18
7614.38165 5.86937e-18
7616.33000 6.08247e-18
7618.28838 6.36932e-18
7620.23672 6.03901e-18
7622.18506 5.42032e-18
7624.13341 5.60827e-18
7626.08175 5.91704e-18
7628.03009 5.66715e-18
7629.97843 5.76382e-18
7631.93682 5.61127e-18
7633.88516 5.75792e-18
7635.83350 5.81031e-18
7637.78184 5.70753e-18
7639.73019 5.72830e-18
7641.67853 5.87148e-18
7643.62687 6.12446e-18
7645.58525 6.19621e-18
7647.53360 6.03065e-18
7649.48194 6.03491e-18
7651.43028 5.84600e-18
7653.37862 5.89800e-18
7655.32697 6.20133e-18
7657.27531 6.35230e-18
7659.23369 6.23051e-18
7661.18203 6.26160e-18
7663.13038 6.67193e-18
7665.07872 6.90084e-18
7667.02706 6.87366e-18
7668.97540 7.02231e-18
7670.92374 7.32924e-18
7672.88213 7.42470e-18
7674.83047 7.67854e-18
7676.77881 7.99604e-18
7678.72716 8.04179e-18
7680.67550 8.35107e-18
7682.62384 8.74604e-18
7684.57218 8.87624e-18
7686.53057 8.94092e-18
7688.47891 9.23470e-18
7690.42725 9.52963e-18
7692.37559 9.81451e-18
7694.32393 1.00134e-17
7696.27228 1.01065e-17
7698.22062 1.04240e-17
7700.17900 1.04865e-17
7702.12734 1.06506e-17
7704.07569 1.11012e-17
7706.02403 1.07943e-17
7707.97237 1.09325e-17
7709.92071 1.16040e-17
7711.86906 1.17379e-17
7713.81740 1.19226e-17
7715.77578 1.25411e-17
7717.72412 1.25236e-17
7719.67247 1.22453e-17
7721.62081 1.28990e-17
7723.56915 1.34915e-17
7725.51749 1.33475e-17
7727.46583 1.34956e-17
7729.42422 1.37641e-17
7731.37256 1.39163e-17
7733.32090 1.42801e-17
7735.26924 1.46744e-17
7737.21759 1.42856e-17
7739.16593 1.42202e-17
7741.11427 1.46472e-17
7743.07266 1.47169e-17
7745.02100 1.43238e-17
7746.96934 1.42372e-17
7748.91768 1.46502e-17
7750.86602 1.49811e-17
7752.81437 1.49180e-17
7754.76271 1.48247e-17
7756.72109 1.48621e-17
7758.66943 1.51131e-17
7760.61778 1.54741e-17
7762.56612 1.53879e-17
7764.51446 1.55000e-17
7766.46280 1.64687e-17
7768.41114 1.65052e-17
7770.36953 1.61926e-17
7772.31787 1.64159e-17
7774.26621 1.68610e-17
7776.21456 1.67613e-17
7778.16290 1.66599e-17
7780.11124 1.68832e-17
7782.05958 1.64086e-17
7784.01797 1.61048e-17
7785.96631 1.59411e-17
7787.91465 1.57231e-17
7789.86299 1.57327e-17
7791.81133 1.56622e-17
7793.75968 1.54889e-17
7795.70802 1.53483e-17
7797.66640 1.50441e-17
7799.61475 1.48490e-17
7801.56309 1.50227e-17
7803.51143 1.54224e-17
7805.45977 1.55310e-17
7807.40811 1.55422e-17
7809.35646 1.56850e-17
7811.31484 1.55109e-17
7813.26318 1.54169e-17
7815.21152 1.52333e-17
7817.15987 1.56813e-17
7819.10821 1.57215e-17
7821.05655 1.48796e-17
7823.00489 1.49277e-17
7824.96328 1.50575e-17
7826.91162 1.49564e-17
7828.85996 1.52295e-17
7830.80830 1.54133e-17
7832.75665 1.50761e-17
7834.70499 1.49264e-17
7836.65333 1.46360e-17
7838.61172 1.38444e-17
7840.56006 1.38445e-17
7842.50840 1.41823e-17
7844.45674 1.42167e-17
7846.40508 1.44797e-17
7848.35342 1.46187e-17
7850.30177 1.42268e-17
7852.26015 1.39369e-17
7854.20849 1.41582e-17
7856.15684 1.44604e-17
7858.10518 1.47500e-17
7860.05352 1.48298e-17
7862.00186 1.48425e-17
7863.95020 1.49108e-17
7865.90859 1.45123e-17
7867.85693 1.44029e-17
7869.80527 1.46687e-17
7871.75361 1.48920e-17
7873.70196 1.48922e-17
7875.65030 1.50397e-17
7877.59864 1.50073e-17
7879.55703 1.44288e-17
7881.50537 1.40867e-17
7883.45371 1.37565e-17
7885.40205 1.37319e-17
7887.35039 1.38450e-17
7889.29874 1.40398e-17
7891.24708 1.41870e-17
7893.20546 1.41786e-17
7895.15380 1.42974e-17
7897.10215 1.38465e-17
7899.05049 1.36298e-17
7900.99883 1.39656e-17
7902.94717 1.39459e-17
7904.89552 1.35921e-17
7906.85390 1.39357e-17
7908.80224 1.48051e-17
7910.75058 1.48421e-17
7912.69893 1.42650e-17
7914.64727 1.43374e-17
7916.59561 1.47000e-17
7918.54395 1.48486e-17
7920.50234 1.49295e-17
7922.45068 1.48233e-17
7924.39902 1.44224e-17
7926.34736 1.44729e-17
7928.29571 1.45815e-17
7930.24405 1.45301e-17
7932.19239 1.43263e-17
7934.15077 1.39823e-17
7936.09912 1.37963e-17
7938.04746 1.37332e-17
7939.99580 1.35990e-17
7941.94414 1.34549e-17
7943.89248 1.37038e-17
7945.84083 1.34533e-17
7947.79921 1.28976e-17
7949.74755 1.30405e-17
7951.69589 1.29265e-17
7953.64424 1.29971e-17
7955.59258 1.33890e-17
7957.54092 1.34477e-17
7959.48926 1.31286e-17
7961.43761 1.36166e-17
7963.39599 1.42821e-17
7965.34433 1.37602e-17
7967.29267 1.31617e-17
7969.24102 1.27743e-17
7971.18936 1.31408e-17
7973.13770 1.37316e-17
7975.08604 1.33717e-17
7977.04443 1.27980e-17
7978.99277 1.29523e-17
7980.94111 1.30846e-17
7982.88945 1.27427e-17
7984.83779 1.24838e-17
7986.78614 1.25982e-17
7988.74452 1.27067e-17
7990.69286 1.24029e-17
7992.64121 1.21541e-17
7994.58955 1.22187e-17
7996.53789 1.21146e-17
7998.48623 1.18285e-17
8000.43457 1.19233e-17
8002.38292 1.20825e-17
8004.34130 1.20730e-17
8006.28964 1.18156e-17
8008.23798 1.14992e-17
8010.18633 1.17501e-17
8012.13467 1.22213e-17
8014.08301 1.25101e-17
8016.03135 1.19374e-17
8017.98974 1.15745e-17
8019.93808 1.20025e-17
8021.88642 1.21160e-17
8023.83476 1.16733e-17
8025.78311 1.15552e-17
8027.73145 1.20164e-17
8029.67979 1.20491e-17
8031.63818 1.15735e-17
8033.58652 1.16731e-17
8035.53486 1.16247e-17
8037.48320 1.13869e-17
8039.43154 1.15578e-17
8041.37988 1.14514e-17
8043.32823 1.09278e-17
8045.28661 1.07962e-17
8047.23495 1.10974e-17
8049.18330 1.11051e-17
8051.13164 1.05591e-17
8053.07998 1.03944e-17
8055.02832 1.08086e-17
8056.97666 1.10047e-17
8058.93505 1.07272e-17
8060.88339 1.07321e-17
8062.83173 1.11175e-17
8064.78007 1.09179e-17
8066.72842 1.09516e-17
8068.67676 1.15048e-17
8070.62510 1.12680e-17
8072.58349 1.10400e-17
8074.53183 1.12776e-17
8076.48017 1.09205e-17
8078.42851 1.05046e-17
8080.37685 1.07045e-17
8082.32520 1.08103e-17
8084.27354 1.04233e-17
8086.23192 1.03310e-17
8088.18026 1.03227e-17
8090.12861 9.92639e-18
8092.07695 9.83932e-18
8094.02529 1.01102e-17
8095.97363 9.73748e-18
8097.92198 9.26070e-18
8099.88036 9.21342e-18
8101.82870 8.96010e-18
8103.77704 8.84468e-18
8105.72539 9.24407e-18
8107.67373 9.53538e-18
8109.62207 9.29711e-18
8111.57041 8.95535e-18
8113.52880 8.93920e-18
8115.47714 9.41935e-18
8117.42548 9.44495e-18
8119.37382 9.12100e-18
8121.32216 9.48446e-18
8123.27051 9.90566e-18
8125.21885 9.92874e-18
8127.17723 9.69771e-18
8129.12558 9.40009e-18
8131.07392 9.35501e-18
8133.02226 9.37898e-18
8134.97060 9.29765e-18
8136.91894 9.23211e-18
8138.86729 9.17131e-18
8140.81563 8.98008e-18
8142.77401 8.68245e-18
8144.72235 8.60379e-18
8146.67070 8.64798e-18
8148.61904 8.73830e-18
8150.56738 8.79773e-18
8152.51572 8.79737e-18
8154.46407 8.72219e-18
8156.42245 8.67397e-18
8158.37079 8.94748e-18
8160.31913 9.12180e-18
8162.26748 8.75533e-18
8164.21582 8.64246e-18
8166.16416 8.90709e-18
8168.12254 9.09770e-18
8170.07089 9.19669e-18
8172.01923 9.15842e-18
8173.96757 9.02176e-18
8175.91591 9.15334e-18
8177.86426 8.71681e-18
8179.81260 7.68644e-18
8181.76094 7.55343e-18
8183.71932 7.65274e-18
8185.66767 7.47256e-18
8187.61601 7.27546e-18
8189.56435 6.80000e-18
8191.51269 6.33156e-18
8193.46103 5.94588e-18
8195.41942 5.82077e-18
8197.36776 5.66987e-18
8199.31610 5.29449e-18
8201.26444 4.84146e-18
8203.21279 4.52816e-18
8205.16113 4.46765e-18
8207.10947 4.61516e-18
8209.05781 4.56394e-18
8211.01620 4.26898e-18
8212.96454 3.71557e-18
8214.91288 3.65284e-18
8216.86122 3.76829e-18
8218.80957 3.69764e-18
8220.75791 3.61630e-18
8222.70625 3.67860e-18
8224.66463 3.37960e-18
8226.61298 3.54236e-18
8228.56132 3.41473e-18
8230.50966 3.30406e-18
8232.45800 3.17222e-18
8234.40634 3.19560e-18
8236.35469 3.15214e-18
8238.31307 2.95773e-18
8240.26141 2.78740e-18
8242.20976 2.68522e-18
8244.15810 2.61724e-18
8246.10644 2.67190e-18
8248.05478 2.68966e-18
8250.00312 2.41158e-18
8251.96151 2.44740e-18
8253.90985 2.64041e-18
8255.85819 2.54902e-18
8257.80653 2.56164e-18
8259.75488 2.30722e-18
8261.70322 2.20077e-18
8263.65156 2.44976e-18
8265.60995 2.57873e-18
8267.55829 2.46199e-18
8269.50663 2.24431e-18
8271.45497 2.36349e-18
8273.40331 2.40105e-18
8275.35166 2.21311e-18
8277.30000 2.45767e-18
8279.25838 2.51344e-18
8281.20673 2.34154e-18
8283.15507 2.46992e-18
8285.10341 2.37931e-18
8287.05175 2.05600e-18
8289.00009 2.09484e-18
8290.94844 2.34997e-18
8292.90682 2.31058e-18
8294.85516 2.45331e-18
8296.80350 2.54840e-18
8298.75185 2.13531e-18
8300.70019 2.37258e-18
8302.64853 2.39245e-18
8304.59687 2.26904e-18
8306.55526 2.26677e-18
8308.50360 2.22156e-18
8310.45194 2.44084e-18
8312.40028 2.62246e-18
8314.34863 2.55144e-18
8316.29697 2.60697e-18
8318.24531 2.56593e-18
8320.20369 2.84592e-18
8322.15204 2.80865e-18
8324.10038 2.53207e-18
8326.04872 2.71166e-18
8327.99706 2.84063e-18
8329.94540 2.65343e-18
8331.89375 2.87681e-18
8333.85213 2.69699e-18
8335.80047 2.90149e-18
8337.74881 3.01220e-18
8339.69716 3.03418e-18
8341.64550 3.20025e-18
8343.59384 2.84894e-18
8345.54218 2.77090e-18
8347.50057 2.77722e-18
8349.44891 2.42571e-18
8351.39725 2.74706e-18
8353.34559 2.67084e-18
8355.29394 2.59158e-18
8357.24228 2.87978e-18
8359.19062 2.88098e-18
8361.13896 2.52675e-18
8363.09735 2.65131e-18
8365.04569 2.93809e-18
8366.99403 2.79736e-18
8368.94237 2.87885e-18
8370.89071 3.06215e-18
8372.83906 3.12378e-18
8374.79744 3.03614e-18
8376.74578 3.04407e-18
8378.69413 2.59271e-18
8380.64247 2.71052e-18
8382.59081 2.69047e-18
8384.53915 2.93862e-18
8386.48749 2.90030e-18
8388.43584 2.94462e-18
8390.39422 2.96122e-18
8392.34256 2.78121e-18
8394.29090 2.63774e-18
8396.23925 3.34156e-18
8398.18759 3.12356e-18
8400.13593 2.91240e-18
8402.08427 2.94447e-18
8404.04266 3.15960e-18
8405.99100 3.20865e-18
8407.93934 3.04227e-18
8409.88768 3.05249e-18
8411.83603 3.22818e-18
8413.78437 3.16455e-18
8415.74275 3.06773e-18
8417.69110 3.36074e-18
8419.63944 3.57977e-18
8421.58778 3.53369e-18
8423.53612 3.66534e-18
8425.48446 3.84832e-18
8427.43281 3.77663e-18
8429.38115 3.60761e-18
8431.33953 3.82572e-18
8433.28787 3.88366e-18
8435.23622 4.05687e-18
8437.18456 4.44022e-18
8439.13290 4.49341e-18
8441.08124 4.34570e-18
8443.02958 4.57649e-18
8444.98797 4.45702e-18
8446.93631 4.51847e-18
8448.88465 4.73714e-18
8450.83299 5.08796e-18
8452.78134 5.44304e-18
8454.72968 5.47499e-18
8456.67802 5.40570e-18
8458.63641 5.38192e-18
8460.58475 5.52860e-18
8462.53309 5.56305e-18
8464.48143 5.54620e-18
8466.42977 5.83089e-18
8468.37812 6.11756e-18
8470.32646 6.30489e-18
8472.28484 6.45070e-18
8474.23319 6.38227e-18
8476.18153 6.53820e-18
8478.12987 6.96042e-18
8480.07821 6.78823e-18
8482.02655 6.97549e-18
8483.97489 7.36772e-18
8485.93328 7.40190e-18
8487.88162 7.64468e-18
8489.82996 7.61128e-18
8491.77831 7.82855e-18
8493.72665 7.79682e-18
8495.67499 7.96686e-18
8497.62333 7.88275e-18
8499.58172 8.56049e-18
8500.52646 8.56049e-18
8502.52487 8.77920e-18
8504.53338 8.86744e-18
8506.53180 8.90324e-18
8508.53021 8.92188e-18
8510.52862 8.95828e-18
8512.52704 9.09095e-18
8514.53554 9.24432e-18
8516.53396 9.34894e-18
8518.53237 9.34805e-18
8520.53079 9.26141e-18
8522.52920 9.07268e-18
8524.53771 8.88485e-18
8526.53612 8.79220e-18
8528.53454 8.79549e-18
8530.53295 8.93359e-18
8532.54146 9.13386e-18
8534.53987 9.28359e-18
8536.53828 9.26585e-18
8538.53670 9.23895e-18
8540.53511 9.36746e-18
8542.54362 9.53203e-18
8544.54203 9.65341e-18
8546.54045 9.74556e-18
8548.53886 9.86694e-18
8550.53728 1.00530e-17
8552.54578 1.02668e-17
8554.54420 1.05027e-17
8556.54261 1.07094e-17
8558.54102 1.08259e-17
8560.54953 1.08842e-17
8562.54795 1.09207e-17
8564.54636 1.09729e-17
8566.54477 1.10338e-17
8568.54319 1.11150e-17
8570.55169 1.12440e-17
8572.55011 1.14855e-17
8574.54852 1.17636e-17
8576.54694 1.20079e-17
8578.54535 1.22022e-17
8580.55386 1.24027e-17
8582.55227 1.26501e-17
8584.55069 1.29070e-17
8586.54910 1.31767e-17
8588.55761 1.34025e-17
8590.55602 1.34938e-17
8592.55443 1.35287e-17
8594.55285 1.36446e-17
8596.55126 1.39355e-17
8598.55977 1.42469e-17
8600.55818 1.43881e-17
8602.55660 1.45118e-17
8604.55501 1.47060e-17
8606.55343 1.49239e-17
8608.56193 1.50813e-17
8610.56035 1.51510e-17
8612.55876 1.52073e-17
8614.55717 1.53221e-17
8616.56568 1.54764e-17
8618.56409 1.57070e-17
8620.56251 1.59544e-17
8622.56092 1.61548e-17
8624.55934 1.63057e-17
8626.56784 1.64815e-17
8628.56626 1.67478e-17
8630.56467 1.70051e-17
8632.56309 1.71208e-17
8634.57159 1.72350e-17
8636.57001 1.74748e-17
8638.56842 1.78165e-17
8640.56684 1.81410e-17
8642.56525 1.83663e-17
8644.57376 1.85944e-17
8646.57217 1.89380e-17
8648.57058 1.92989e-17
8650.56900 1.96895e-17
8652.56741 1.99801e-17
8654.57592 2.00289e-17
8656.57433 1.98005e-17
8658.57275 1.95137e-17
8660.57116 1.94232e-17
8662.57967 1.94296e-17
8664.57808 1.95772e-17
8666.57650 1.97791e-17
8668.57491 1.99700e-17
8670.57332 2.00947e-17
8672.58183 2.01945e-17
8674.58025 2.02783e-17
8676.57866 2.02826e-17
8678.57707 2.00896e-17
8680.57549 1.98331e-17
8682.58399 1.96000e-17
8684.58241 1.94491e-17
8686.58082 1.93486e-17
8688.57924 1.93092e-17
8690.58774 1.93421e-17
8692.58616 1.95112e-17
8694.58457 1.97035e-17
8696.58299 1.98424e-17
8698.58140 1.99181e-17
8700.58991 1.99637e-17
8702.58832 1.99995e-17
8704.58673 2.00300e-17
8706.58515 2.00773e-17
8708.59366 2.01238e-17
8710.59207 2.01687e-17
8712.59048 2.01981e-17
8714.58890 2.01630e-17
8716.58731 2.01143e-17
8718.59582 2.01660e-17
8720.59423 2.04814e-17
8722.59265 2.08794e-17
8724.59106 2.13008e-17
8726.58947 2.16305e-17
8728.59798 2.17501e-17
8730.59640 2.16829e-17
8732.59481 2.15748e-17
8734.59322 2.15551e-17
8736.60173 2.15071e-17
8738.60014 2.13331e-17
8740.59856 2.11146e-17
8742.59697 2.08630e-17
8744.59539 2.06577e-17
8746.60389 2.05589e-17
8748.60231 2.06174e-17
8750.60072 2.07422e-17
8752.59914 2.08697e-17
8754.60764 2.09575e-17
8756.60606 2.09415e-17
8758.60447 2.08346e-17
8760.60288 2.06496e-17
8762.60130 2.04304e-17
8764.60981 2.02125e-17
8766.60822 2.00624e-17
8768.60663 1.99732e-17
8770.60505 1.99921e-17
8772.60346 2.00581e-17
8774.61197 2.01318e-17
8776.61038 2.01729e-17
8778.60880 2.01891e-17
8780.60721 2.01656e-17
8782.61572 2.01179e-17
8784.61413 2.00252e-17
8786.61254 1.99599e-17
8788.61096 1.99801e-17
8790.60937 2.00913e-17
8792.61788 2.02673e-17
8794.61629 2.04753e-17
8796.61471 2.06870e-17
8798.61312 2.08749e-17
8800.61154 2.09758e-17
8802.62004 2.09129e-17
8804.61846 2.07172e-17
8806.61687 2.04148e-17
8808.61529 2.00777e-17
8810.62379 1.97613e-17
8812.62221 1.95941e-17
8814.62062 1.94372e-17
8816.61903 1.91873e-17
8818.61745 1.88967e-17
8820.62596 1.85877e-17
8822.62437 1.83386e-17
8824.62278 1.81981e-17
8826.62120 1.82589e-17
8828.62970 1.84553e-17
8830.62812 1.88872e-17
8832.62653 1.92570e-17
8834.62495 1.92779e-17
8836.62336 1.90011e-17
8838.63187 1.86820e-17
8840.63028 1.85345e-17
8842.62870 1.84271e-17
8844.62711 1.83438e-17
8846.62552 1.82361e-17
8848.63403 1.80098e-17
8850.63244 1.77641e-17
8852.63086 1.76488e-17
8854.62927 1.77138e-17
8856.63778 1.77780e-17
8858.63619 1.76283e-17
8860.63461 1.74097e-17
8862.63302 1.71600e-17
8864.63144 1.69098e-17
8866.63994 1.66702e-17
8868.63836 1.64563e-17
8870.63677 1.62538e-17
8872.63518 1.60567e-17
8874.63360 1.58659e-17
8876.64211 1.56589e-17
8878.64052 1.54834e-17
8880.63893 1.53938e-17
8882.63735 1.53698e-17
8884.64585 1.53540e-17
8886.64427 1.52882e-17
8888.64268 1.52019e-17
8890.64110 1.50732e-17
8892.63951 1.49630e-17
8894.64802 1.49234e-17
8896.64643 1.49448e-17
8898.64485 1.50126e-17
8900.64326 1.50798e-17
8902.65177 1.50939e-17
8904.65018 1.49203e-17
8906.64859 1.47185e-17
8908.64701 1.45318e-17
8910.64542 1.44661e-17
8912.65393 1.46569e-17
8914.65234 1.50477e-17
8916.65076 1.53973e-17
8918.64917 1.54011e-17
8920.64759 1.52177e-17
8922.65609 1.48155e-17
8924.65451 1.43316e-17
8926.65292 1.38704e-17
8928.65133 1.34765e-17
8930.65984 1.30521e-17
8932.65826 1.25677e-17
8934.65667 1.21864e-17
8936.65508 1.21707e-17
8938.65350 1.22808e-17
8940.66200 1.24028e-17
8942.66042 1.24474e-17
8944.65883 1.24056e-17
8946.65725 1.22603e-17
8948.66575 1.21020e-17
8950.66417 1.20769e-17
8952.66258 1.20447e-17
8954.66100 1.18931e-17
8956.65941 1.17111e-17
8958.66792 1.16384e-17
8960.66633 1.16908e-17
8962.66474 1.16987e-17
8964.66316 1.14551e-17
8966.66157 1.12057e-17
8968.67008 1.11639e-17
8970.66849 1.11884e-17
8972.66691 1.11485e-17
8974.66532 1.09946e-17
8976.67383 1.07951e-17
8978.67224 1.05884e-17
8980.67066 1.03709e-17
8982.66907 1.01205e-17
8984.66748 9.92515e-18
8986.67599 9.88846e-18
8988.67441 9.95479e-18
8990.67282 1.00102e-17
8992.67123 9.95781e-18
8994.66965 9.87875e-18
8996.67815 9.81609e-18
8998.67657 9.76497e-18
9000.67498 9.71260e-18
9002.67340 9.70599e-18
9004.68190 9.82173e-18
9006.68032 1.00413e-17
9008.67873 1.02255e-17
9010.67714 1.01812e-17
9012.67556 1.00469e-17
9014.68407 9.84751e-18
9016.68248 9.64841e-18
9018.68089 9.50911e-18
9020.67931 9.43027e-18
9022.67772 9.32318e-18
9024.68623 9.10814e-18
9026.68464 8.92243e-18
9028.68306 8.91955e-18
9030.68147 8.98751e-18
9032.68998 9.04547e-18
9034.68839 9.07917e-18
9036.68681 9.13931e-18
9038.68522 9.24822e-18
9040.68363 9.36827e-18
9042.69214 9.45791e-18
9044.69056 9.54261e-18
9046.68897 9.63745e-18
9048.68738 9.73215e-18
9050.68580 9.80638e-18
9052.69430 9.85680e-18
9054.69272 9.91323e-18
9056.69113 1.00282e-17
9058.68955 1.01157e-17
9060.69805 1.00675e-17
9062.69647 9.99319e-18
9064.69488 1.00195e-17
9066.69330 1.01699e-17
9068.69171 1.03281e-17
9070.70022 1.03847e-17
9072.69863 1.03964e-17
9074.69704 1.03540e-17
9076.69546 1.03007e-17
9078.69387 1.02453e-17
9080.70238 1.02433e-17
9082.70079 1.03451e-17
9084.69921 1.05924e-17
9086.69762 1.08541e-17
9088.70613 1.09937e-17
9090.70454 1.10372e-17
9092.70296 1.09438e-17
9094.70137 1.07759e-17
9096.69978 1.05847e-17
9098.70829 1.04523e-17
9100.70671 1.03847e-17
9102.70512 1.04641e-17
9104.70353 1.05975e-17
9106.70195 1.07383e-17
9108.71045 1.08738e-17
9110.70887 1.10272e-17
9112.70728 1.11701e-17
9114.70570 1.12574e-17
9116.71420 1.12175e-17
9118.71262 1.11585e-17
9120.71103 1.11967e-17
9122.70945 1.12390e-17
9124.70786 1.12144e-17
9126.71637 1.10850e-17
9128.71478 1.08602e-17
9130.71319 1.05502e-17
9132.71161 1.02591e-17
9134.72012 1.01421e-17
9136.71853 1.01121e-17
9138.71694 1.01690e-17
9140.71536 1.02209e-17
9142.71377 1.01765e-17
9144.72228 9.98149e-18
9146.72069 9.78345e-18
9148.71911 9.74311e-18
9150.71752 9.81096e-18
9152.71593 1.00919e-17
9154.72444 1.03905e-17
9156.72286 1.04997e-17
9158.72127 1.03359e-17
9160.71968 1.01117e-17
9162.72819 1.00258e-17
9164.72660 9.97967e-18
9166.72502 9.95380e-18
9168.72343 9.96017e-18
9170.72185 1.00253e-17
9172.73035 1.01277e-17
9174.72877 1.02313e-17
9176.72718 1.02881e-17
9178.72559 1.03102e-17
9180.73410 1.02590e-17
9182.73252 1.02029e-17
9184.73093 1.01821e-17
9186.72934 1.02253e-17
9188.72776 1.03428e-17
9190.73626 1.05261e-17
9192.73468 1.06999e-17
9194.73309 1.07077e-17
9196.73151 1.07078e-17
9198.72992 1.08152e-17
9200.73843 1.09629e-17
9202.73684 1.10312e-17
9204.73526 1.09850e-17
9206.73367 1.09477e-17
9208.74218 1.10648e-17
9210.74059 1.11884e-17
9212.73901 1.11952e-17
9214.73742 1.11795e-17
9216.73583 1.12434e-17
9218.74434 1.14118e-17
9220.74275 1.16168e-17
9222.74117 1.18003e-17
9224.73958 1.19391e-17
9226.73800 1.19484e-17
9228.74650 1.19099e-17
9230.74492 1.18920e-17
9232.74333 1.18923e-17
9234.74175 1.18505e-17
9236.75025 1.17338e-17
9238.74867 1.16046e-17
9240.74708 1.15112e-17
9242.74549 1.14694e-17
9244.74391 1.15190e-17
9246.75242 1.16334e-17
9248.75083 1.17899e-17
9250.74924 1.19398e-17
9252.74766 1.20547e-17
9254.75616 1.20401e-17
9256.75458 1.20351e-17
9258.75299 1.21765e-17
9260.75141 1.23632e-17
9262.74982 1.24990e-17
9264.75833 1.25130e-17
9266.75674 1.24349e-17
9268.75516 1.22549e-17
9270.75357 1.20444e-17
9272.75198 1.18572e-17
9274.76049 1.17245e-17
9276.75890 1.16725e-17
9278.75732 1.17070e-17
9280.75573 1.18244e-17
9282.76424 1.19972e-17
9284.76265 1.21357e-17
9286.76107 1.20526e-17
9288.75948 1.19264e-17
9290.75790 1.18841e-17
9292.76640 1.18921e-17
9294.76482 1.18310e-17
9296.76323 1.16653e-17
9298.76164 1.15228e-17
9300.76006 1.15485e-17
9302.76857 1.16897e-17
9304.76698 1.20791e-17
9306.76539 1.24415e-17
9308.76381 1.25037e-17
9310.77231 1.21633e-17
9312.77073 1.16537e-17
9314.76914 1.11615e-17
9316.76756 1.08634e-17
9318.76597 1.12405e-17
9320.77448 1.17649e-17
9322.77289 1.19786e-17
9324.77131 1.17748e-17
9326.76972 1.14641e-17
9328.77823 1.12669e-17
9330.77664 1.10959e-17
9332.77505 1.09241e-17
9334.77347 1.08508e-17
9336.77188 1.10216e-17
9338.78039 1.13118e-17
9340.77880 1.15779e-17
9342.77722 1.16256e-17
9344.77563 1.14581e-17
9346.77405 1.07146e-17
9348.78255 1.01097e-17
9350.78097 1.03018e-17
9352.77938 1.09311e-17
9354.77779 1.15148e-17
9356.78630 1.17270e-17
9358.78471 1.17978e-17
9360.78313 1.17903e-17
9362.78154 1.17035e-17
9364.77996 1.15294e-17
9366.78846 1.13412e-17
9368.78688 1.11108e-17
9370.78529 1.10057e-17
9372.78371 1.12339e-17
9374.79221 1.20267e-17
9376.79063 1.28514e-17
9378.78904 1.32025e-17
9380.78746 1.31965e-17
9382.78587 1.27434e-17
9384.79438 1.20862e-17
9386.79279 1.14766e-17
9388.79120 1.11962e-17
9390.78962 1.10384e-17
9392.78803 1.08964e-17
9394.79654 1.08248e-17
9396.79495 1.08771e-17
9398.79337 1.09670e-17
9400.79178 1.09668e-17
9402.80029 1.08695e-17
9404.79870 1.08774e-17
9406.79712 1.12863e-17
9408.79553 1.17066e-17
9410.79394 1.18480e-17
9412.80245 1.18062e-17
9414.80086 1.17022e-17
9416.79928 1.15869e-17
9418.79769 1.13896e-17
9420.79611 1.10824e-17
9422.80461 1.08412e-17
9424.80303 1.09143e-17
9426.80144 1.11148e-17
9428.79986 1.13737e-17
9430.80836 1.15407e-17
9432.80678 1.15163e-17
9434.80519 1.12094e-17
9436.80361 1.08677e-17
9438.80202 1.07736e-17
9440.81053 1.08135e-17
9442.80894 1.10643e-17
9444.80735 1.13315e-17
9446.80577 1.14139e-17
9448.81428 1.11868e-17
9450.81269 1.08600e-17
9452.81110 1.05661e-17
9454.80952 1.04588e-17
9456.80793 1.09578e-17
9458.81644 1.15553e-17
9460.81485 1.17019e-17
9462.81327 1.12574e-17
9464.81168 1.07009e-17
9466.81009 1.04608e-17
9468.81860 1.04420e-17
9470.81702 1.08431e-17
9472.81543 1.14134e-17
9474.81384 1.20702e-17
9476.82235 1.25529e-17
9478.82076 1.27093e-17
9480.81918 1.23318e-17
9482.81759 1.17542e-17
9484.81601 1.11875e-17
9486.82451 1.07714e-17
9488.82293 1.07362e-17
9490.82134 1.09595e-17
9492.81976 1.12734e-17
9494.81817 1.14473e-17
9496.82668 1.14379e-17
9498.82509 1.09344e-17
9500.82350 1.03574e-17
9502.82192 9.93058e-18
9504.83043 9.73035e-18
9506.82884 9.78788e-18
9508.82725 1.00532e-17
9510.82567 1.03814e-17
9512.82408 1.05821e-17
9514.83259 1.06771e-17
9516.83100 1.05005e-17
9518.82942 1.02998e-17
9520.82783 1.03313e-17
9522.82624 1.05703e-17
9524.83475 1.07695e-17
9526.83317 1.07010e-17
9528.83158 1.05067e-17
9530.82999 1.01477e-17
9532.83850 9.82041e-18
9534.83691 9.72452e-18
9536.83533 9.79108e-18
9538.83374 9.84188e-18
9540.83216 9.73958e-18
9542.84066 9.58500e-18
9544.83908 9.38052e-18
9546.83749 9.23229e-18
9548.83591 9.27098e-18
9550.83432 9.41359e-18
9552.84283 9.57539e-18
9554.84124 9.65708e-18
9556.83965 9.65457e-18
9558.83807 9.48963e-18
9560.84658 9.28390e-18
9562.84499 9.13871e-18
9564.84340 9.01604e-18
9566.84182 8.87196e-18
9568.84023 8.69763e-18
9570.84874 8.50819e-18
9572.84715 8.32024e-18
9574.84557 8.17621e-18
9576.84398 8.12208e-18
9578.84239 8.17478e-18
9580.85090 8.41273e-18
9582.84931 8.72697e-18
9584.84773 8.99472e-18
9586.84614 9.07026e-18
9588.85465 9.02428e-18
9590.85306 8.79195e-18
9592.85148 8.54037e-18
9594.84989 8.35738e-18
9596.84831 8.30950e-18
9598.85681 8.44261e-18
9600.85523 8.72969e-18
9602.85364 9.02870e-18
9604.85206 9.14709e-18
9606.86056 9.16570e-18
9608.85898 8.99897e-18
9610.85739 8.83944e-18
9612.85580 8.88745e-18
9614.85422 9.15667e-18
9616.86273 9.44716e-18
9618.86114 9.56134e-18
9620.85955 9.55222e-18
9622.85797 9.29430e-18
9624.85638 9.00170e-18
9626.86489 8.82624e-18
9628.86330 8.82815e-18
9630.86172 8.97185e-18
9632.86013 9.20435e-18
9634.86864 9.37337e-18
9636.86705 9.09898e-18
9638.86547 8.81954e-18
9640.86388 8.84776e-18
9642.86229 9.09471e-18
9644.87080 9.35133e-18
9646.86921 9.46291e-18
9648.86763 9.50478e-18
9650.86604 9.46246e-18
9652.86446 9.38053e-18
9654.87296 9.25802e-18
9656.87138 9.17311e-18
9658.86979 9.20263e-18
9660.86821 9.35254e-18
9662.87671 9.53209e-18
9664.87513 9.64737e-18
9666.87354 9.71794e-18
9668.87195 9.71118e-18
9670.87037 9.65388e-18
9672.87888 9.53943e-18
9674.87729 9.42327e-18
9676.87570 9.35837e-18
9678.87412 9.40619e-18
9680.88262 9.48683e-18
9682.88104 9.53712e-18
9684.87945 9.57000e-18
9686.87787 9.56802e-18
9688.87628 9.55955e-18
9690.88479 9.59372e-18
9692.88320 9.67902e-18
9694.88162 9.73387e-18
9696.88003 9.63809e-18
9698.87844 9.48951e-18
9700.88695 9.29203e-18
9702.88536 9.13031e-18
9704.88378 9.06640e-18
9706.88219 9.13979e-18
9708.89070 9.30427e-18
9710.88911 9.53961e-18
9712.88753 9.72395e-18
9714.88594 9.64070e-18
9716.88436 9.49437e-18
9718.89286 9.49057e-18
9720.89128 9.62778e-18
9722.88969 9.69849e-18
9724.88810 9.55392e-18
9726.89661 9.45119e-18
9728.89503 9.72344e-18
9730.89344 1.00648e-17
9732.89185 1.02887e-17
9734.89027 1.03535e-17
9736.89877 1.03201e-17
9738.89719 1.02468e-17
9740.89560 1.02004e-17
9742.89402 1.03785e-17
9744.89243 1.05452e-17
9746.90094 1.05645e-17
9748.89935 1.04405e-17
9750.89776 1.01833e-17
9752.89618 9.87805e-18
9754.90469 9.64017e-18
9756.90310 9.67814e-18
9758.90151 9.75977e-18
9760.89993 9.75221e-18
9762.89834 9.64524e-18
9764.90685 9.39611e-18
9766.90526 9.08823e-18
9768.90368 8.86016e-18
9770.90209 8.87786e-18
9772.90051 8.95884e-18
9774.90901 8.95907e-18
9776.90743 8.94737e-18
9778.90584 8.94614e-18
9780.90425 8.99475e-18
9782.91276 9.13587e-18
9784.91118 9.37895e-18
9786.90959 9.60841e-18
9788.90800 9.64270e-18
9790.90642 9.60875e-18
9792.91492 9.56045e-18
9794.91334 9.48861e-18
9796.91175 9.33435e-18
9798.91017 9.11748e-18
9800.91867 8.92933e-18
9802.91709 8.90422e-18
9804.91550 8.94234e-18
9806.91392 9.02301e-18
9808.91233 9.10135e-18
9810.92084 9.13364e-18
9812.91925 9.12511e-18
9814.91766 9.14992e-18
9816.91608 9.27904e-18
9818.91449 9.38094e-18
9820.92300 9.33715e-18
9822.92141 9.18258e-18
9824.91983 8.89137e-18
9826.91824 8.55441e-18
9828.92675 8.25530e-18
9830.92516 8.10838e-18
9832.92358 8.05841e-18
9834.92199 8.11193e-18
9836.92040 8.24757e-18
9838.92891 8.53466e-18
9840.92733 8.79951e-18
9842.92574 8.82386e-18
9844.92415 8.54378e-18
9846.92257 8.28241e-18
9848.93107 8.46509e-18
9850.92949 8.73020e-18
9852.92790 8.92301e-18
9854.92632 9.01255e-18
9856.93482 9.01018e-18
9858.93324 8.91894e-18
9860.93165 8.76518e-18
9862.93007 8.57936e-18
9864.92848 8.37532e-18
9866.93699 8.12982e-18
9868.93540 7.95988e-18
9870.93381 8.00082e-18
9872.93223 8.20317e-18
9874.94074 8.41091e-18
9876.93915 8.47617e-18
9878.93756 8.51013e-18
9880.93598 8.59185e-18
9882.93439 8.64582e-18
9884.94290 8.63277e-18
9886.94131 8.53691e-18
9888.93973 8.32582e-18
9890.93814 8.04625e-18
9892.93655 7.84212e-18
9894.94506 8.01091e-18
9896.94348 8.21914e-18
9898.94189 8.24657e-18
9900.94030 8.16472e-18
9902.94881 8.10553e-18
9904.94722 8.11326e-18
9906.94564 8.09157e-18
9908.94405 7.94978e-18
9910.94247 7.87615e-18
9912.95097 8.09158e-18
9914.94939 8.42458e-18
9916.94780 8.79540e-18
9918.94621 9.03943e-18
9920.95472 9.05726e-18
9922.95314 8.71633e-18
9924.95155 8.32683e-18
9926.94996 8.24582e-18
9928.94838 8.26879e-18
9930.95689 8.28858e-18
9932.95530 8.28733e-18
9934.95371 8.34087e-18
9936.95213 8.44305e-18
9938.95054 8.48268e-18
9940.95905 8.16711e-18
9942.95746 7.93148e-18
9944.95588 8.14631e-18
9946.95429 8.60304e-18
9948.96280 9.09313e-18
9950.96121 9.32748e-18
9952.95963 9.20850e-18
9954.95804 8.35873e-18
9956.95645 7.54243e-18
9958.96496 7.49945e-18
9960.96337 7.85758e-18
9962.96179 8.32607e-18
9964.96020 8.62706e-18
9966.95862 8.72989e-18
9968.96712 8.47650e-18
9970.96554 8.17244e-18
9972.96395 8.14972e-18
9974.96236 8.21071e-18
9976.97087 8.18712e-18
9978.96929 8.14154e-18
9980.96770 8.28246e-18
9982.96611 8.69199e-18
9984.96453 9.06025e-18
9986.97304 8.91974e-18
9988.97145 8.64394e-18
9990.96986 8.38252e-18
9992.96828 8.17339e-18
9994.97678 7.94348e-18
9996.97520 7.72718e-18
9998.97361 7.60880e-18
10000.97203 7.73840e-18
10002.97044 7.93765e-18
