# wavelength flux
3474.82778 -1.71560e-19
3476.29406 3.11974e-19
3477.77038 1.66477e-17
3479.23666 3.16624e-17
3480.70294 2.03553e-18
3482.17926 2.51870e-18
3483.64554 8.09679e-19
3485.11182 -1.22952e-18
3486.58814 3.82736e-18
3488.05442 2.74389e-18
3489.53074 1.49730e-19
3490.99701 1.82466e-18
3492.46329 2.00708e-18
3493.93961 3.28248e-18
3495.40589 1.85608e-17
3496.87217 2.01649e-17
3498.34849 -2.31120e-18
3499.81477 2.81492e-18
3501.28105 1.51102e-19
3502.75737 -3.85666e-18
3504.22365 -4.20975e-18
3505.69997 1.12788e-18
3507.16624 4.17672e-18
3508.63252 1.61531e-18
3510.10884 -1.06670e-18
3511.57512 1.56459e-21
3513.04140 -1.35544e-18
3514.51772 2.19557e-19
3515.98400 3.02133e-18
3517.45028 1.06268e-18
3518.92660 -1.27257e-18
3520.39288 -1.82174e-18
3521.86920 1.68175e-17
3523.33547 3.26571e-17
3524.80175 2.17777e-17
3526.27807 5.87627e-18
3527.74435 3.28993e-18
3529.21063 3.41346e-18
3530.68695 5.58217e-18
3532.15323 2.05500e-18
3533.61951 -3.75775e-19
3535.09583 1.34844e-18
3536.56211 2.16332e-18
3538.03843 4.60831e-18
3539.50470 3.33360e-18
3540.97098 6.54708e-19
3542.44730 -2.14947e-18
3543.91358 6.09070e-19
3545.37986 1.93763e-18
3546.85618 -1.02513e-18
3548.32246 1.33908e-18
3549.78874 3.26937e-18
3551.26506 4.27843e-19
3552.73134 2.67797e-18
3554.20766 6.72568e-18
3555.67393 3.26925e-18
3557.14021 6.42650e-19
3558.61653 2.72358e-18
3560.08281 6.44001e-18
3561.54909 1.88711e-18
3563.02541 6.26694e-18
3564.49169 9.69532e-18
3565.95797 7.96759e-19
3567.43429 1.12216e-18
3568.90057 2.39193e-18
3570.37689 2.57465e-18
3571.84317 2.33028e-18
3573.30944 3.97412e-18
3574.78576 4.57807e-18
3576.25204 3.69307e-18
3577.71832 2.88766e-18
3579.19464 2.37330e-18
3580.66092 1.66371e-18
3582.12720 4.48188e-18
3583.60352 3.24747e-18
3585.06980 1.08017e-18
3586.54612 4.47279e-18
3588.01240 4.80097e-18
3589.47867 3.65319e-18
3590.95499 4.07904e-18
3592.42127 7.12990e-18
3593.88755 4.15458e-18
3595.36387 1.04230e-18
3596.83015 3.39650e-18
3598.29643 4.34056e-18
3599.77275 3.41587e-18
3601.23903 3.44737e-18
3602.71535 5.80591e-18
3604.18162 3.91933e-18
3605.64790 6.27825e-18
3607.12422 4.67679e-18
3608.59050 2.04921e-18
3610.05678 3.17489e-18
3611.53310 2.57411e-18
3612.99938 3.37744e-18
3614.46566 2.89175e-18
3615.94198 2.06222e-18
3617.40826 1.12663e-17
3618.88458 4.49659e-18
3620.35085 2.14253e-19
3621.81713 2.94827e-18
3623.29345 2.14109e-18
3624.75973 2.88699e-18
3626.22601 2.12917e-18
3627.70233 2.49143e-18
3629.16861 2.51071e-18
3630.63489 3.31328e-18
3632.11121 3.79286e-18
3633.57749 1.51687e-17
3635.05381 1.08503e-17
3636.52008 3.41353e-18
3637.98636 8.59858e-19
3639.46268 -1.46375e-19
3640.92896 8.14746e-19
3642.39524 3.18756e-18
3643.87156 5.28782e-19
3645.33784 1.67062e-18
3646.80412 6.79097e-18
3648.28044 2.61829e-18
3649.74672 -9.53671e-19
3651.22304 2.50831e-18
3652.68932 1.48433e-18
3654.15559 2.44321e-18
3655.63191 2.90767e-18
3657.09819 2.20349e-19
3658.56447 1.35645e-18
3660.04079 1.17711e-18
3661.50707 1.97205e-18
3662.97335 2.97270e-18
3664.44967 5.89807e-18
3665.91595 3.76003e-18
3667.39227 4.35607e-18
3668.85855 5.15864e-18
3670.32482 2.66195e-18
3671.80114 1.22879e-18
3673.26742 6.28959e-18
3674.73370 8.35711e-18
3676.21002 3.23380e-18
3677.67630 4.73725e-18
3679.14258 5.32941e-18
3680.61890 2.72244e-18
3682.08518 3.90880e-18
3683.56150 6.47501e-18
3685.02778 4.92647e-18
3686.49405 2.31976e-18
3687.97037 4.39735e-18
3689.43665 7.39293e-18
3690.90293 1.03753e-17
3692.37925 9.49846e-18
3693.84553 4.82650e-18
3695.31181 2.27231e-18
3696.78813 2.10191e-18
3698.25441 6.25599e-18
3699.73073 6.42118e-18
3701.19700 5.86894e-18
3702.66328 4.08015e-18
3704.13960 7.37203e-18
3705.60588 9.45896e-18
3707.07216 8.23448e-18
3708.54848 5.67460e-18
3710.01476 3.42022e-18
3711.48104 4.46478e-18
3712.95736 4.63714e-18
3714.42364 2.04355e-18
3715.89996 2.69463e-18
3717.36623 2.84461e-18
3718.83251 3.33038e-18
3720.30883 3.31609e-18
3721.77511 4.09128e-18
3723.24139 2.17016e-18
3724.71771 2.23082e-18
3726.18399 2.29149e-18
3727.65027 2.45774e-18
3729.12659 2.62398e-18
3730.59287 2.79020e-18
3732.06919 2.95642e-18
3733.53546 3.12262e-18
3735.00174 3.28881e-18
3736.47806 3.45499e-18
3737.94434 3.62116e-18
3739.41062 3.78735e-18
3740.88694 3.95350e-18
3742.35322 4.11963e-18
3743.81950 4.28573e-18
3745.29582 4.45185e-18
3746.76210 4.61795e-18
3748.23842 4.78405e-18
3749.70469 4.95013e-18
3751.17097 5.11623e-18
3752.64729 5.28229e-18
3754.11357 5.44835e-18
3755.57985 5.61439e-18
3757.05617 5.78042e-18
3758.52245 5.94644e-18
3759.98873 6.11245e-18
3761.46505 6.27845e-18
3762.93133 6.44443e-18
3764.40765 1.96750e-18
3765.87392 6.25506e-19
3767.34020 2.11981e-18
3768.81652 5.73434e-18
3770.28280 5.76527e-18
3771.74908 2.76177e-18
3773.22540 4.81968e-18
3774.69168 4.82214e-18
3776.15796 1.33015e-18
3777.63428 3.43157e-18
3779.10056 3.98909e-18
3780.57688 3.18229e-18
3782.04315 2.96109e-18
3783.50943 2.41784e-18
3784.98575 1.85450e-18
3786.45203 2.18527e-18
3787.91831 2.09865e-18
3789.39463 2.67780e-18
3790.86091 3.58452e-18
3792.32719 2.71748e-18
3793.80351 2.07379e-18
3795.26979 1.98861e-18
3796.74611 4.65801e-18
3798.21238 3.59721e-18
3799.67866 1.85795e-18
3801.15498 2.33457e-18
3802.62126 2.72464e-18
3804.08754 5.83678e-18
3805.56386 4.16761e-18
3807.03014 1.59142e-18
3808.49642 1.92289e-18
3809.97274 2.65950e-18
3811.43902 2.51830e-18
3812.91534 1.38541e-18
3814.38162 6.39986e-19
3815.84789 1.01959e-18
3817.32421 2.06128e-18
3818.79049 1.36023e-18
3820.25677 1.86486e-18
3821.73309 2.55903e-18
3823.19937 1.40025e-18
3824.66565 1.66527e-18
3826.14197 3.54382e-18
3827.60825 1.89455e-18
3829.08457 3.40522e-18
3830.55084 1.51340e-18
3832.01712 2.05258e-18
3833.49344 2.07016e-18
3834.95972 3.22412e-18
3836.42600 3.40724e-18
3837.90232 1.14224e-18
3839.36860 2.79801e-18
3840.83488 3.02233e-18
3842.31120 2.01889e-18
3843.77748 1.95716e-18
3845.24375 2.13566e-18
3846.72007 2.24113e-18
3848.18635 1.64091e-18
3849.66267 2.68697e-18
3851.12895 3.99925e-18
3852.59523 4.37590e-18
3854.07155 2.93717e-18
3855.53783 3.05857e-18
3857.00411 1.55011e-18
3858.48043 2.45190e-18
3859.94671 2.93205e-18
3861.42303 3.65374e-18
3862.88930 3.31761e-18
3864.35558 1.41594e-18
3865.83190 2.93666e-18
3867.29818 4.71243e-18
3868.76446 2.90356e-18
3870.24078 4.38313e-18
3871.70706 4.68376e-18
3873.17334 1.27013e-18
3874.64966 4.05244e-18
3876.11594 3.94991e-18
3877.58221 3.25277e-18
3879.05853 4.25085e-18
3880.52481 3.48673e-18
3882.00113 5.56563e-18
3883.46741 5.31589e-18
3884.93369 5.79904e-18
3886.41001 5.96344e-18
3887.87629 3.77614e-18
3889.34257 3.94125e-18
3890.81889 5.57372e-18
3892.28517 9.69790e-18
3893.75144 6.43710e-18
3895.22777 5.43888e-18
3896.69404 8.85165e-18
3898.17036 5.91094e-18
3899.63664 4.13533e-18
3901.10292 4.76283e-18
3902.57924 4.63707e-18
3904.04552 3.35089e-18
3905.51180 9.05771e-18
3906.98812 8.11170e-18
3908.45440 3.75168e-18
3909.93072 7.09139e-18
3911.39700 9.43325e-18
3912.86327 7.07927e-18
3914.33959 5.29523e-18
3915.80587 5.66785e-18
3917.27215 1.06605e-17
3918.74847 9.24801e-18
3920.21475 5.55031e-18
3921.68103 9.38077e-18
3923.15735 1.05679e-17
3924.62363 7.53071e-18
3926.08990 6.20048e-18
3927.56623 5.25717e-18
3929.03250 7.75152e-18
3930.50882 7.20533e-18
3931.97510 5.74241e-18
3933.44138 6.81275e-18
3934.91770 6.17827e-18
3936.38398 5.62754e-18
3937.85026 6.39723e-18
3939.32658 5.92652e-18
3940.79286 5.37415e-18
3942.25913 5.48403e-18
3943.73546 7.26206e-18
3945.20173 7.04072e-18
3946.67805 6.07360e-18
3948.14433 5.73712e-18
3949.61061 7.91553e-18
3951.08693 9.14374e-18
3952.55321 8.00766e-18
3954.01949 7.63401e-18
3955.49581 6.60684e-18
3956.96209 6.51504e-18
3958.42836 6.47216e-18
3959.90468 1.12796e-17
3961.37096 1.13607e-17
3962.84728 9.88487e-18
3964.31356 8.48194e-18
3965.77984 9.71657e-18
3967.25616 8.86530e-18
3968.72244 7.19078e-18
3970.18872 9.62055e-18
3971.66504 1.30989e-17
3973.13132 9.02567e-18
3974.59759 9.58582e-18
3976.07391 7.20887e-18
3977.54019 7.65575e-18
3979.01651 9.60480e-18
3980.48279 1.00438e-17
3981.94907 8.32054e-18
3983.42539 7.36200e-18
3984.89167 7.36086e-18
3986.35795 8.94759e-18
3987.83427 8.19541e-18
3989.30055 8.61500e-18
3990.76682 6.27114e-18
3992.24314 9.26722e-18
3993.70942 1.11191e-17
3995.18574 7.24426e-18
3996.65202 8.83569e-18
3998.11830 8.06480e-18
3999.59462 1.07918e-17
4001.06090 7.78465e-18
4002.52718 6.64969e-18
4004.00350 9.28254e-18
4005.46978 9.38584e-18
4006.93605 6.16427e-18
4008.41237 8.02193e-18
4009.87865 9.04706e-18
4011.35497 6.73421e-18
4012.82125 6.68376e-18
4014.28753 8.35399e-18
4015.76385 1.07721e-17
4017.23013 9.60544e-18
4018.69641 7.83809e-18
4020.17273 7.80434e-18
4021.63901 7.42876e-18
4023.10528 8.34965e-18
4024.58160 8.22686e-18
4026.04788 7.38501e-18
4027.52420 7.02321e-18
4028.99048 9.25379e-18
4030.45676 8.12502e-18
4031.93308 7.57744e-18
4033.39936 8.58000e-18
4034.86564 8.05168e-18
4036.34196 7.84107e-18
4037.80824 7.45241e-18
4039.27451 6.91224e-18
4040.75083 6.18357e-18
4042.21711 9.99896e-18
4043.69343 1.07599e-17
4045.15971 8.97178e-18
4046.62599 8.43434e-18
4048.10231 6.65894e-18
4049.56859 6.70927e-18
4051.03487 8.03932e-18
4052.51119 7.11745e-18
4053.97747 7.59855e-18
4055.44374 7.54361e-18
4056.92007 8.44043e-18
4058.38634 7.85540e-18
4059.86266 7.70370e-18
4061.32894 8.65712e-18
4062.79522 9.37325e-18
4064.27154 7.35777e-18
4065.73782 8.30755e-18
4067.20410 7.85247e-18
4068.68042 5.81085e-18
4070.14670 7.93809e-18
4071.61297 8.57356e-18
4073.08929 7.15946e-18
4074.55557 6.56835e-18
4076.03189 7.53495e-18
4077.49817 6.85303e-18
4078.96445 6.79741e-18
4080.44077 8.28515e-18
4081.90705 7.48594e-18
4083.37333 6.41099e-18
4084.84965 5.85746e-18
4086.31593 7.38347e-18
4087.78220 7.87741e-18
4089.25852 7.93749e-18
4090.72480 7.69183e-18
4092.20112 5.88265e-18
4093.66740 7.24615e-18
4095.13368 6.37221e-18
4096.61000 8.40041e-18
4098.07628 6.57912e-18
4099.54256 7.39756e-18
4101.01888 6.19174e-18
4102.48516 5.84961e-18
4103.95143 6.28430e-18
4105.42775 8.72227e-18
4106.89403 6.99518e-18
4108.37035 7.02943e-18
4109.83663 6.28689e-18
4111.30291 6.89471e-18
4112.77923 5.23294e-18
4114.24551 3.90190e-18
4115.71179 5.94789e-18
4117.18811 6.30789e-18
4118.65439 4.98029e-18
4120.12066 5.47006e-18
4121.59699 7.13116e-18
4123.06326 5.77973e-18
4124.53958 6.12077e-18
4126.00586 6.69980e-18
4127.47214 5.27455e-18
4128.94846 6.07195e-18
4130.41474 5.29004e-18
4131.88102 5.50192e-18
4133.35734 7.65629e-18
4134.82362 6.23807e-18
4136.28989 5.13692e-18
4137.76621 4.41977e-18
4139.23249 4.53984e-18
4140.70881 4.47301e-18
4142.17509 5.45339e-18
4143.64137 4.90333e-18
4145.11769 4.46568e-18
4146.58397 6.79896e-18
4148.05025 5.69845e-18
4149.52657 4.58014e-18
4150.99285 3.91788e-18
4152.45912 3.80168e-18
4153.93544 4.40295e-18
4155.40172 3.35546e-18
4156.87804 3.96874e-18
4158.34432 4.44111e-18
4159.81060 3.85633e-18
4161.28692 4.32041e-18
4162.75320 5.91164e-18
4164.21948 5.25397e-18
4165.69580 5.22524e-18
4167.16208 5.03761e-18
4168.62835 4.83877e-18
4170.10467 4.46543e-18
4171.57095 4.09313e-18
4173.04727 4.59982e-18
4174.51355 3.89004e-18
4175.97983 3.73248e-18
4177.45615 4.36780e-18
4178.92243 4.51768e-18
4180.38871 3.61315e-18
4181.86503 3.88887e-18
4183.33131 4.33503e-18
4184.79758 3.79515e-18
4186.27391 4.45529e-18
4187.74018 4.07815e-18
4189.20646 4.24831e-18
4190.68278 4.71411e-18
4192.14906 4.30163e-18
4193.62538 4.38970e-18
4195.09166 3.60903e-18
4196.55794 3.86430e-18
4198.03426 4.54794e-18
4199.50054 4.24081e-18
4200.96681 4.75783e-18
4202.44313 4.40236e-18
4203.90941 3.32162e-18
4205.38573 4.29750e-18
4206.85201 4.78768e-18
4208.31829 4.60834e-18
4209.79461 4.51948e-18
4211.26089 5.06610e-18
4212.72717 4.83827e-18
4214.20349 4.38031e-18
4215.66977 4.61123e-18
4217.13604 4.81784e-18
4218.61236 4.26877e-18
4220.07864 3.97358e-18
4221.55496 4.52769e-18
4223.02124 4.81451e-18
4224.48752 4.95952e-18
4225.96384 5.01952e-18
4227.43012 4.70162e-18
4228.89640 4.79449e-18
4230.37272 4.78129e-18
4231.83900 4.67049e-18
4233.30527 4.31105e-18
4234.78159 4.72172e-18
4236.24787 4.61089e-18
4237.72419 4.64824e-18
4239.19047 4.49631e-18
4240.65675 4.34194e-18
4242.13307 4.44737e-18
4243.59935 4.56085e-18
4245.06563 5.03211e-18
4246.54195 5.14592e-18
4248.00823 5.53545e-18
4249.47450 5.05591e-18
4250.95082 4.63169e-18
4252.41710 5.11847e-18
4253.89342 5.75011e-18
4255.35970 4.80155e-18
4256.82598 4.95407e-18
4258.30230 5.15392e-18
4259.76858 5.02680e-18
4261.23486 5.10168e-18
4262.71118 4.91664e-18
4264.17746 4.49194e-18
4265.64373 4.49589e-18
4267.12006 4.77358e-18
4268.58633 4.74282e-18
4270.05261 5.01918e-18
4271.52893 4.71442e-18
4272.99521 4.25803e-18
4274.47153 4.35018e-18
4275.93781 4.36352e-18
4277.40409 5.27989e-18
4278.88041 5.25840e-18
4280.34669 5.53027e-18
4281.81296 5.32306e-18
4283.28928 5.02251e-18
4284.75556 4.88535e-18
4286.23188 4.62018e-18
4287.69816 5.00868e-18
4289.16444 5.11316e-18
4290.64076 4.93330e-18
4292.10704 5.17347e-18
4293.57332 5.39046e-18
4295.04964 5.33558e-18
4296.51592 4.87833e-18
4297.98219 5.09354e-18
4299.45852 5.39501e-18
4300.92479 5.17918e-18
4302.39107 5.44317e-18
4303.86739 4.90007e-18
4305.33367 5.30138e-18
4306.80999 5.49497e-18
4308.27627 4.95265e-18
4309.74255 4.55924e-18
4311.21887 5.00828e-18
4312.68515 5.09143e-18
4314.15142 4.78402e-18
4315.62774 4.83117e-18
4317.09402 4.55769e-18
4318.56030 4.55026e-18
4320.03662 4.95194e-18
4321.50290 5.13403e-18
4322.97922 4.65223e-18
4324.44550 4.38322e-18
4325.91178 5.08037e-18
4327.38810 4.92671e-18
4328.85438 5.02950e-18
4330.32065 5.48988e-18
4331.79698 5.37219e-18
4333.26325 5.06418e-18
4334.73957 5.21555e-18
4336.20585 5.49072e-18
4337.67213 5.26191e-18
4339.14845 4.82069e-18
4340.61473 5.06059e-18
4342.08101 5.20245e-18
4343.55733 4.72890e-18
4345.02361 4.78281e-18
4346.48988 5.08739e-18
4347.96621 5.02741e-18
4349.43248 4.55031e-18
4350.89876 4.40007e-18
4352.37508 4.84633e-18
4353.84136 4.80807e-18
4355.31768 4.81855e-18
4356.78396 5.45475e-18
4358.25024 5.76648e-18
4359.72656 5.54406e-18
4361.19284 5.67966e-18
4362.65911 5.90177e-18
4364.13544 5.86147e-18
4365.60171 5.82120e-18
4367.07803 5.78091e-18
4368.54431 5.74064e-18
4370.01059 5.70035e-18
4371.48691 5.66007e-18
4372.95319 5.61980e-18
4374.41947 5.57954e-18
4375.89579 5.53928e-18
4377.36207 5.49900e-18
4378.82834 5.45874e-18
4380.30466 5.41848e-18
4381.77094 5.37821e-18
4383.23722 5.33796e-18
4384.71354 5.29769e-18
4386.17982 5.25744e-18
4387.65614 5.21718e-18
4389.12242 5.17694e-18
4390.58870 5.13669e-18
4392.06502 5.09645e-18
4393.53130 5.05619e-18
4394.99757 5.01595e-18
4396.47389 4.97571e-18
4397.94017 4.93547e-18
4399.40645 4.89524e-18
4400.88277 4.85500e-18
4402.34905 4.70685e-18
4403.82537 4.72613e-18
4405.29165 4.51011e-18
4406.75793 5.02365e-18
4408.23425 4.93088e-18
4409.70053 4.72524e-18
4411.16680 5.00773e-18
4412.64312 4.79535e-18
4414.10940 5.01266e-18
4415.57568 4.82201e-18
4417.05200 4.24808e-18
4418.51828 4.67293e-18
4419.99460 4.87570e-18
4421.46088 4.68091e-18
4422.92716 4.69212e-18
4424.40348 4.81137e-18
4425.86976 4.60632e-18
4427.33603 4.54587e-18
4428.81236 4.57104e-18
4430.27863 4.42387e-18
4431.74491 4.27365e-18
4433.22123 4.14910e-18
4434.68751 4.54657e-18
4436.16383 4.98819e-18
4437.63011 5.22294e-18
4439.09639 5.54167e-18
4440.57271 5.56610e-18
4442.03899 5.47114e-18
4443.50526 5.33048e-18
4444.98158 4.92684e-18
4446.44786 4.90855e-18
4447.92418 5.01527e-18
4449.39046 4.67840e-18
4450.85674 4.70191e-18
4452.33306 5.06251e-18
4453.79934 4.88667e-18
4455.26562 5.17395e-18
4456.74194 5.50593e-18
4458.20822 5.39275e-18
4459.67449 5.06556e-18
4461.15081 5.55754e-18
4462.61709 5.75715e-18
4464.08337 5.67757e-18
4465.55969 5.40322e-18
4467.02597 5.29194e-18
4468.50229 5.24410e-18
4469.96857 5.28510e-18
4471.43485 5.54594e-18
4472.91117 5.55984e-18
4474.37745 5.55667e-18
4475.84372 5.50751e-18
4477.32004 5.61640e-18
4478.78632 5.71718e-18
4480.25260 5.66006e-18
4481.72892 5.96098e-18
4483.19520 6.14342e-18
4484.67152 6.04931e-18
4486.13780 6.10834e-18
4487.60408 6.65271e-18
4489.08040 6.39024e-18
4490.54668 6.07409e-18
4492.01295 6.58295e-18
4493.48927 6.60334e-18
4494.95555 6.52127e-18
4496.42183 6.52472e-18
4497.89815 6.40123e-18
4499.36443 6.53604e-18
4500.84075 6.91210e-18
4502.30703 7.08026e-18
4503.77331 7.15019e-18
4505.24963 7.41099e-18
4506.71591 7.49659e-18
4508.18218 7.54132e-18
4509.65851 7.37879e-18
4511.12478 7.13064e-18
4512.59106 7.44630e-18
4514.06738 8.29630e-18
4515.53366 8.29065e-18
4517.00998 8.23398e-18
4518.47626 8.90574e-18
4519.94254 8.81525e-18
4521.41886 8.11733e-18
4522.88514 8.52602e-18
4524.35141 8.75587e-18
4525.82773 9.01270e-18
4527.29401 8.91129e-18
4528.76029 8.41746e-18
4530.23661 8.70117e-18
4531.70289 9.44684e-18
4533.17921 9.38954e-18
4534.64549 9.03937e-18
4536.11177 9.57833e-18
4537.58809 9.85417e-18
4539.05437 9.89525e-18
4540.52064 9.58550e-18
4541.99697 9.45667e-18
4543.46324 9.60801e-18
4544.92952 9.97964e-18
4546.40584 9.91549e-18
4547.87212 9.71978e-18
4549.34844 1.00315e-17
4550.81472 1.00161e-17
4552.28100 9.94539e-18
4553.75732 1.01474e-17
4555.22360 1.05395e-17
4556.68987 1.03208e-17
4558.16619 1.04828e-17
4559.63247 1.10607e-17
4561.09875 1.13795e-17
4562.57507 1.14919e-17
4564.04135 1.16306e-17
4565.51767 1.19965e-17
4566.98395 1.19554e-17
4568.45023 1.15132e-17
4569.92655 1.14488e-17
4571.39283 1.16484e-17
4572.85910 1.13814e-17
4574.33543 1.14807e-17
4575.80170 1.19310e-17
4577.26798 1.14521e-17
4578.74430 1.14875e-17
4580.21058 1.20834e-17
4581.68690 1.26419e-17
4583.15318 1.23689e-17
4584.61946 1.24044e-17
4586.09578 1.28967e-17
4587.56206 1.28356e-17
4589.02833 1.27136e-17
4590.50466 1.28225e-17
4591.97093 1.30531e-17
4593.43721 1.30686e-17
4594.91353 1.30817e-17
4596.37981 1.36350e-17
4597.85613 1.33136e-17
4599.32241 1.33110e-17
4600.78869 1.37589e-17
4602.26501 1.37644e-17
4603.73129 1.32754e-17
4605.19756 1.30340e-17
4606.67388 1.35926e-17
4608.14016 1.34799e-17
4609.60644 1.31844e-17
4611.08276 1.32884e-17
4612.54904 1.30994e-17
4614.02536 1.29948e-17
4615.49164 1.26718e-17
4616.95792 1.25112e-17
4618.43424 1.24493e-17
4619.90052 1.27107e-17
4621.36679 1.33634e-17
4622.84311 1.33440e-17
4624.30939 1.29123e-17
4625.77567 1.36617e-17
4627.25199 1.35437e-17
4628.71827 1.33317e-17
4630.19459 1.37923e-17
4631.66087 1.37915e-17
4633.12715 1.38758e-17
4634.60347 1.38941e-17
4636.06975 1.34645e-17
4637.53602 1.39229e-17
4639.01234 1.42710e-17
4640.47862 1.37020e-17
4641.94490 1.32310e-17
4643.42122 1.36612e-17
4644.88750 1.41528e-17
4646.35378 1.41214e-17
4647.83010 1.37289e-17
4649.29638 1.36256e-17
4650.77270 1.31700e-17
4652.23898 1.32282e-17
4653.70525 1.31900e-17
4655.18157 1.32540e-17
4656.64785 1.36917e-17
4658.11413 1.37790e-17
4659.59045 1.32261e-17
4661.05673 1.28799e-17
4662.52301 1.30947e-17
4663.99933 1.36151e-17
4665.46561 1.32181e-17
4666.94193 1.22057e-17
4668.40821 1.20155e-17
4669.87448 1.20971e-17
4671.35081 1.23513e-17
4672.81708 1.21804e-17
4674.28336 1.21565e-17
4675.75968 1.26427e-17
4677.22596 1.24350e-17
4678.70228 1.18820e-17
4680.16856 1.13330e-17
4681.63484 1.16603e-17
4683.11116 1.20685e-17
4684.57744 1.13565e-17
4686.04371 1.10905e-17
4687.52003 1.14276e-17
4688.98631 1.11798e-17
4690.45259 1.11898e-17
4691.92891 1.13542e-17
4693.39519 1.11705e-17
4694.87151 1.09593e-17
4696.33779 1.09526e-17
4697.80407 1.08704e-17
4699.28039 1.11047e-17
4700.74667 1.07095e-17
4702.21294 1.01943e-17
4703.68926 1.07469e-17
4705.15554 1.07744e-17
4706.62182 1.01836e-17
4708.09814 9.80501e-18
4709.56442 1.00830e-17
4711.04074 9.99223e-18
4712.50702 9.46002e-18
4713.97330 9.16490e-18
4715.44962 9.51884e-18
4716.91590 9.44174e-18
4718.38217 9.21085e-18
4719.85849 9.22632e-18
4721.32477 9.25962e-18
4722.79105 9.32573e-18
4724.26737 9.10836e-18
4725.73365 9.08563e-18
4727.19993 9.04175e-18
4728.67625 8.95249e-18
4730.14253 8.82690e-18
4731.61885 8.81293e-18
4733.08513 9.00261e-18
4734.55140 9.07544e-18
4736.02772 8.96045e-18
4737.49400 9.42885e-18
4738.96028 9.46096e-18
4740.43660 8.92154e-18
4741.90288 9.07977e-18
4743.36916 9.38429e-18
4744.84548 9.16051e-18
4746.31176 8.68097e-18
4747.78808 8.72574e-18
4749.25436 8.97208e-18
4750.72063 8.83359e-18
4752.19696 8.75492e-18
4753.66323 8.59017e-18
4755.12951 8.73356e-18
4756.60583 8.91476e-18
4758.07211 8.82492e-18
4759.53839 8.58054e-18
4761.01471 8.30555e-18
4762.48099 8.20627e-18
4763.95731 8.10113e-18
4765.42359 8.71739e-18
4766.88986 8.81382e-18
4768.36618 8.21587e-18
4769.83246 7.98182e-18
4771.29874 7.92805e-18
4772.77506 8.09249e-18
4774.24134 8.37260e-18
4775.71766 8.24500e-18
4777.18394 7.75053e-18
4778.65022 7.54029e-18
4780.12654 7.51285e-18
4781.59282 7.43087e-18
4783.05909 7.67871e-18
4784.53542 8.24026e-18
4786.00169 8.13261e-18
4787.46797 7.39649e-18
4788.94429 7.61487e-18
4790.41057 7.63846e-18
4791.87685 7.15607e-18
4793.35317 7.00135e-18
4794.81945 7.01180e-18
4796.29577 7.22309e-18
4797.76205 7.30298e-18
4799.22832 7.42967e-18
4800.70464 7.33657e-18
4802.17092 7.12955e-18
4803.63720 6.89637e-18
4805.11352 6.65664e-18
4806.57980 7.00297e-18
4808.04608 7.04158e-18
4809.52240 7.19593e-18
4810.98868 7.21172e-18
4812.46500 6.83859e-18
4813.93128 6.85681e-18
4815.39755 7.08194e-18
4816.87388 7.25241e-18
4818.34015 7.37522e-18
4819.80643 7.30074e-18
4821.28275 7.42229e-18
4822.74903 7.50331e-18
4824.21531 7.49434e-18
4825.69163 7.35011e-18
4827.15791 7.27561e-18
4828.63423 7.50761e-18
4830.10051 7.54087e-18
4831.56678 7.47777e-18
4833.04311 7.44517e-18
4834.50938 7.56204e-18
4835.97566 7.82369e-18
4837.45198 7.79654e-18
4838.91826 7.64370e-18
4840.38454 7.79486e-18
4841.86086 7.81896e-18
4843.32714 7.74711e-18
4844.80346 7.72196e-18
4846.26974 7.75464e-18
4847.73601 8.28649e-18
4849.21233 8.30109e-18
4850.67861 7.70100e-18
4852.14489 7.48411e-18
4853.62121 7.55189e-18
4855.08749 7.70578e-18
4856.55377 8.27707e-18
4858.03009 8.30980e-18
4859.49637 7.94877e-18
4860.97269 7.97817e-18
4862.43897 7.62485e-18
4863.90524 7.11808e-18
4865.38156 7.13308e-18
4866.84784 7.14807e-18
4868.31412 7.16307e-18
4869.79044 7.17806e-18
4871.25672 7.19306e-18
4872.72300 7.20805e-18
4874.19932 7.22304e-18
4875.66560 7.23804e-18
4877.14192 7.25302e-18
4878.60820 7.26802e-18
4880.07447 7.28300e-18
4881.55079 7.29799e-18
4883.01707 7.31297e-18
4884.48335 7.32796e-18
4885.95967 7.34295e-18
4887.42595 7.35793e-18
4888.89223 7.37291e-18
4890.36855 7.38790e-18
4891.83483 7.40288e-18
4893.31115 7.41786e-18
4894.77743 7.43284e-18
4896.24370 7.44782e-18
4897.72002 7.46279e-18
4899.18630 7.47777e-18
4900.65258 7.49274e-18
4902.12890 7.74296e-18
4903.59518 8.01413e-18
4905.06146 7.88810e-18
4906.53778 7.69985e-18
4908.00406 7.85211e-18
4909.48038 8.18689e-18
4910.94666 8.02718e-18
4912.41293 8.19375e-18
4913.88926 8.39188e-18
4915.35553 8.14382e-18
4916.82181 7.93628e-18
4918.29813 8.08620e-18
4919.76441 8.20623e-18
4921.23069 8.48335e-18
4922.70701 8.55356e-18
4924.17329 8.31704e-18
4925.64961 8.53003e-18
4927.11589 8.86006e-18
4928.58216 8.74867e-18
4930.05848 8.36008e-18
4931.52476 8.23311e-18
4932.99104 8.37085e-18
4934.46736 8.69411e-18
4935.93364 9.19876e-18
4937.39992 9.44689e-18
4938.87624 8.99862e-18
4940.34252 9.13797e-18
4941.81884 9.87401e-18
4943.28512 9.81179e-18
4944.75139 9.35013e-18
4946.22771 9.40933e-18
4947.69399 9.83698e-18
4949.16027 1.02584e-17
4950.63659 1.05964e-17
4952.10287 1.06649e-17
4953.56915 1.01678e-17
4955.04547 1.00776e-17
4956.51175 1.04856e-17
4957.98807 1.08421e-17
4959.45435 1.10527e-17
4960.92062 1.10139e-17
4962.39694 1.09874e-17
4963.86322 1.09609e-17
4965.32950 1.09345e-17
4966.80582 1.09080e-17
4968.27210 1.08815e-17
4969.73838 1.08551e-17
4971.21470 1.08286e-17
4972.68098 1.08021e-17
4974.15730 1.07757e-17
4975.62358 1.07492e-17
4977.08985 1.07228e-17
4978.56617 1.06963e-17
4980.03245 1.06698e-17
4981.49873 1.06434e-17
4982.97505 1.06169e-17
4984.44133 1.05905e-17
4985.90761 1.05640e-17
4987.38393 1.05376e-17
4988.85021 1.05111e-17
4990.32653 1.04847e-17
4991.79281 1.04582e-17
4993.25908 1.04318e-17
4994.73541 1.04054e-17
4996.20168 1.03789e-17
4997.66796 1.03525e-17
4999.14428 1.03261e-17
5000.61056 1.02797e-17
5002.07684 1.06925e-17
5003.55316 1.03254e-17
5005.01944 9.58197e-18
5006.49576 9.52507e-18
5007.96204 9.80773e-18
5009.42831 9.64171e-18
5010.90463 9.53184e-18
5012.37091 9.42194e-18
5013.83719 9.31212e-18
5015.31351 9.20224e-18
5016.77979 9.09240e-18
5018.24607 8.98252e-18
5019.72239 8.87266e-18
5021.18867 8.76284e-18
5022.66499 8.65299e-18
5024.13127 8.54318e-18
5025.59754 8.43334e-18
5027.07387 8.32354e-18
5028.54014 8.21372e-18
5030.00642 8.10394e-18
5031.48274 7.99412e-18
5032.94902 7.88432e-18
5034.41530 7.77455e-18
5035.89162 7.66476e-18
5037.35790 7.55501e-18
5038.83422 7.44523e-18
5040.30050 7.33550e-18
5041.76677 7.22573e-18
5043.24309 7.11597e-18
5044.70937 7.00626e-18
5046.17565 6.89651e-18
5047.65197 6.78680e-18
5049.11825 6.71850e-18
5050.58453 6.75786e-18
5052.06085 6.51852e-18
5053.52713 6.44056e-18
5054.99341 6.36994e-18
5056.46973 6.66220e-18
5057.93600 6.90603e-18
5059.41233 6.40377e-18
5060.87860 6.43232e-18
5062.34488 6.59049e-18
5063.82120 6.31451e-18
5065.28748 6.55409e-18
5066.75376 6.96916e-18
5068.23008 6.38697e-18
5069.69636 5.88494e-18
5071.17268 6.37240e-18
5072.63896 6.69696e-18
5074.10523 6.48038e-18
5075.58156 6.11421e-18
5077.04783 6.60653e-18
5078.51411 6.82170e-18
5079.99043 6.41170e-18
5081.45671 6.20602e-18
5082.92299 6.58942e-18
5084.39931 6.73186e-18
5085.86559 6.53727e-18
5087.34191 6.80054e-18
5088.80819 6.50485e-18
5090.27446 6.58785e-18
5091.75078 6.70340e-18
5093.21706 6.40567e-18
5094.68334 6.41317e-18
5096.15966 6.92194e-18
5097.62594 6.69546e-18
5099.09222 6.76955e-18
5100.56854 7.06386e-18
5102.03482 7.01821e-18
5103.50109 6.76116e-18
5104.97742 6.74121e-18
5106.44369 7.24941e-18
5107.92001 7.44342e-18
5109.38629 7.31392e-18
5110.85257 7.47269e-18
5112.32889 7.53754e-18
5113.79517 7.33446e-18
5115.26145 7.27980e-18
5116.73777 7.44460e-18
5118.20405 7.50171e-18
5119.68037 7.75364e-18
5121.14665 8.09060e-18
5122.61292 8.13710e-18
5124.08924 8.06587e-18
5125.55552 8.13980e-18
5127.02180 8.29999e-18
5128.49812 8.19079e-18
5129.96440 8.43607e-18
5131.43068 8.58194e-18
5132.90700 8.49328e-18
5134.37328 8.14364e-18
5135.83956 8.02835e-18
5137.31588 8.27341e-18
5138.78215 8.56348e-18
5140.25847 8.71445e-18
5141.72475 8.77622e-18
5143.19103 8.68886e-18
5144.66735 8.86812e-18
5146.13363 8.66135e-18
5147.59991 8.69846e-18
5149.07623 9.07977e-18
5150.54251 9.03421e-18
5152.01883 9.09874e-18
5153.48511 9.29004e-18
5154.95138 8.90528e-18
5156.42771 8.68023e-18
5157.89398 9.07355e-18
5159.36026 9.13744e-18
5160.83658 9.47180e-18
5162.30286 9.29490e-18
5163.76914 9.20023e-18
5165.24546 9.30761e-18
5166.71174 9.07693e-18
5168.17802 9.15147e-18
5169.65434 9.00982e-18
5171.12061 8.82678e-18
5172.59693 8.83284e-18
5174.06321 9.16759e-18
5175.52949 9.27773e-18
5177.00581 9.19672e-18
5178.47209 9.28092e-18
5179.93837 9.80284e-18
5181.41469 9.50163e-18
5182.88097 9.27245e-18
5184.34724 9.60158e-18
5185.82357 9.49005e-18
5187.28984 9.74882e-18
5188.76617 9.78228e-18
5190.23244 9.31574e-18
5191.69872 9.59158e-18
5193.17504 9.58443e-18
5194.64132 9.67156e-18
5196.10760 9.45556e-18
5197.58392 9.35527e-18
5199.05020 9.80013e-18
5200.51647 9.92677e-18
5201.99280 9.79485e-18
5203.45907 9.94068e-18
5204.93539 9.79043e-18
5206.40167 9.60359e-18
5207.86795 1.00900e-17
5209.34427 9.75286e-18
5210.81055 9.10840e-18
5212.27683 9.75834e-18
5213.75315 1.01399e-17
5215.21943 9.84307e-18
5216.68570 9.79522e-18
5218.16203 9.60572e-18
5219.62830 9.85349e-18
5221.10462 9.99246e-18
5222.57090 9.94773e-18
5224.03718 9.89113e-18
5225.51350 1.04365e-17
5226.97978 1.08328e-17
5228.44606 1.05100e-17
5229.92238 1.03987e-17
5231.38866 1.10403e-17
5232.86498 1.11220e-17
5234.33126 1.12382e-17
5235.79753 1.12536e-17
5237.27386 1.13013e-17
5238.74013 1.13999e-17
5240.20641 1.08808e-17
5241.68273 1.12052e-17
5243.14901 1.16067e-17
5244.61529 1.15972e-17
5246.09161 1.14272e-17
5247.55789 1.11111e-17
5249.02416 1.10168e-17
5250.50049 1.07332e-17
5251.96676 1.07710e-17
5253.44308 1.12644e-17
5254.90936 1.17831e-17
5256.37564 1.19844e-17
5257.85196 1.21240e-17
5259.31824 1.17323e-17
5260.78452 1.16064e-17
5262.26084 1.15709e-17
5263.72712 1.15380e-17
5265.19339 1.16965e-17
5266.66972 1.14516e-17
5268.13599 1.17030e-17
5269.61232 1.19321e-17
5271.07859 1.19043e-17
5272.54487 1.21653e-17
5274.02119 1.17646e-17
5275.48747 1.18492e-17
5276.95375 1.24674e-17
5278.43007 1.24589e-17
5279.89635 1.25515e-17
5281.36262 1.25226e-17
5282.83895 1.27349e-17
5284.30522 1.26418e-17
5285.78154 1.26936e-17
5287.24782 1.30670e-17
5288.71410 1.29844e-17
5290.19042 1.27006e-17
5291.65670 1.26853e-17
5293.12298 1.30962e-17
5294.59930 1.31339e-17
5296.06558 1.28445e-17
5297.53186 1.31054e-17
5299.00818 1.32654e-17
5300.47445 1.33844e-17
5301.95078 1.31830e-17
5303.41705 1.27028e-17
5304.88333 1.30365e-17
5306.35965 1.33827e-17
5307.82593 1.34555e-17
5309.29221 1.31675e-17
5310.76853 1.29466e-17
5312.23481 1.31904e-17
5313.71113 1.34650e-17
5315.17741 1.33069e-17
5316.64368 1.31740e-17
5318.12000 1.35994e-17
5319.58628 1.36227e-17
5321.05256 1.37644e-17
5322.52888 1.36463e-17
5323.99516 1.33844e-17
5325.46144 1.37735e-17
5326.93776 1.39903e-17
5328.40404 1.37115e-17
5329.87032 1.38835e-17
5331.34664 1.40170e-17
5332.81291 1.39760e-17
5334.28923 1.43626e-17
5335.75551 1.44246e-17
5337.22179 1.40794e-17
5338.69811 1.42239e-17
5340.16439 1.43127e-17
5341.63067 1.43184e-17
5343.10699 1.43402e-17
5344.57327 1.40277e-17
5346.03954 1.42671e-17
5347.51587 1.43851e-17
5348.98214 1.38348e-17
5350.45846 1.41227e-17
5351.92474 1.47918e-17
5353.39102 1.47391e-17
5354.86734 1.44129e-17
5356.33362 1.46138e-17
5357.79990 1.51839e-17
5359.27622 1.54198e-17
5360.74250 1.50575e-17
5362.20878 1.47095e-17
5363.68510 1.45751e-17
5365.15137 1.44039e-17
5366.62769 1.46621e-17
5368.09397 1.49200e-17
5369.56025 1.50201e-17
5371.03657 1.48574e-17
5372.50285 1.45049e-17
5373.96913 1.47150e-17
5375.44545 1.46819e-17
5376.91173 1.46907e-17
5378.37801 1.46233e-17
5379.85433 1.44221e-17
5381.32060 1.45160e-17
5382.79692 1.44333e-17
5384.26320 1.41156e-17
5385.72948 1.39290e-17
5387.20580 1.44317e-17
5388.67208 1.45954e-17
5390.13836 1.43573e-17
5391.61468 1.45952e-17
5393.08096 1.48108e-17
5394.54724 1.41189e-17
5396.02356 1.41418e-17
5397.48983 1.41662e-17
5398.96616 1.33732e-17
5400.43243 1.33935e-17
5401.89871 1.36954e-17
5403.37503 1.39555e-17
5404.84131 1.39012e-17
5406.30759 1.38074e-17
5407.78391 1.38751e-17
5409.25019 1.38416e-17
5410.71647 1.34344e-17
5412.19279 1.32178e-17
5413.65906 1.33278e-17
5415.13538 1.33370e-17
5416.60166 1.32150e-17
5418.06794 1.29625e-17
5419.54426 1.26752e-17
5421.01054 1.27312e-17
5422.47682 1.29527e-17
5423.95314 1.28819e-17
5425.41942 1.27119e-17
5426.88569 1.28576e-17
5428.36202 1.27040e-17
5429.82829 1.19483e-17
5431.29457 1.19545e-17
5432.77089 1.21797e-17
5434.23717 1.23789e-17
5435.71349 1.23172e-17
5437.17977 1.27114e-17
5438.64605 1.24739e-17
5440.12237 1.26577e-17
5441.58865 1.22315e-17
5443.05492 1.21985e-17
5444.53125 1.21045e-17
5445.99752 1.15705e-17
5447.47384 1.12984e-17
5448.94012 1.17339e-17
5450.40640 1.18909e-17
5451.88272 1.18060e-17
5453.34900 1.17103e-17
5454.81528 1.15864e-17
5456.29160 1.20517e-17
5457.75788 1.19866e-17
5459.22415 1.18806e-17
5460.70048 1.24590e-17
5462.16675 1.21310e-17
5463.64307 1.21291e-17
5465.10935 1.27223e-17
5466.57563 1.28317e-17
5468.05195 1.23182e-17
5469.51823 1.30150e-17
5470.98451 1.30798e-17
5472.46083 1.34098e-17
5473.92711 1.35675e-17
5475.39338 1.37756e-17
5476.86971 1.40555e-17
5478.33598 1.38405e-17
5479.81231 1.41165e-17
5481.27858 1.42034e-17
5482.74486 1.47280e-17
5484.22118 1.49515e-17
5485.68746 1.49910e-17
5487.15374 1.55190e-17
5488.63006 1.64893e-17
5490.09634 1.64188e-17
5491.56261 1.59039e-17
5493.03894 1.60144e-17
5494.50521 1.63945e-17
5495.98153 1.66999e-17
5497.44781 1.73670e-17
5498.91409 1.77230e-17
5500.39041 1.78609e-17
5501.85669 1.81022e-17
5503.32297 1.85880e-17
5504.79929 1.82751e-17
5506.26557 1.83659e-17
5507.73184 1.88991e-17
5509.20817 1.85082e-17
5510.67444 1.83126e-17
5512.14072 1.88519e-17
5513.61704 1.95822e-17
5515.08332 2.00032e-17
5516.55964 2.03254e-17
5518.02592 1.95794e-17
5519.49220 1.95360e-17
5520.96852 2.05110e-17
5522.43480 1.98072e-17
5523.90107 1.98774e-17
5525.37740 2.01526e-17
5526.84367 2.03897e-17
5528.31999 1.98713e-17
5529.78627 2.02271e-17
5531.25255 2.01650e-17
5532.72887 2.04195e-17
5534.19515 2.05430e-17
5535.66143 2.01779e-17
5537.13775 1.92844e-17
5538.60403 1.90070e-17
5540.07031 1.95310e-17
5541.54663 1.96677e-17
5543.01290 1.90782e-17
5544.47918 1.92274e-17
5545.95550 1.92052e-17
5547.42178 1.86828e-17
5548.89810 1.81835e-17
5550.36438 1.83591e-17
5551.83066 1.83156e-17
5553.30698 1.82316e-17
5554.77326 1.78559e-17
5556.23953 1.73317e-17
5557.71586 1.73331e-17
5559.18213 1.68478e-17
5560.65845 1.70390e-17
5562.12473 1.71429e-17
5563.59101 1.65036e-17
5565.06733 1.61377e-17
5566.53361 1.59600e-17
5567.99989 1.56804e-17
5569.47621 1.55344e-17
5570.94249 1.49744e-17
5572.40877 1.45988e-17
5573.88509 1.53384e-17
5575.35136 1.49420e-17
5576.82768 1.39037e-17
5578.29396 1.33188e-17
5579.76024 1.42804e-17
5581.23656 1.36884e-17
5582.70284 1.37336e-17
5584.16912 1.34310e-17
5585.64544 1.30812e-17
5587.11172 1.29853e-17
5588.57799 1.29292e-17
5590.05432 1.28723e-17
5591.52059 1.23025e-17
5592.98687 1.23808e-17
5594.46319 1.29015e-17
5595.92947 1.26860e-17
5597.40579 1.24571e-17
5598.87207 1.24598e-17
5600.33835 1.26160e-17
5601.81467 1.27242e-17
5603.28095 1.28840e-17
5604.74723 1.26623e-17
5606.22355 1.29814e-17
5607.68982 1.26317e-17
5609.16614 1.30638e-17
5610.63242 1.30696e-17
5612.09870 1.31291e-17
5613.57502 1.32279e-17
5615.04130 1.31035e-17
5616.50758 1.35026e-17
5617.98390 1.35563e-17
5619.45018 1.35643e-17
5620.91646 1.39380e-17
5622.39278 1.41908e-17
5623.85905 1.44430e-17
5625.32533 1.45870e-17
5626.80165 1.45080e-17
5628.26793 1.44208e-17
5629.74425 1.45571e-17
5631.21053 1.50990e-17
5632.67681 1.51920e-17
5634.15313 1.51545e-17
5635.61941 1.53262e-17
5637.08569 1.50798e-17
5638.56201 1.54047e-17
5640.02828 1.57045e-17
5641.49456 1.52506e-17
5642.97088 1.49819e-17
5644.43716 1.51023e-17
5645.91348 1.49211e-17
5647.37976 1.53292e-17
5648.84604 1.53634e-17
5650.32236 1.50901e-17
5651.78864 1.52902e-17
5653.25492 1.55933e-17
5654.73124 1.52330e-17
5656.19751 1.49090e-17
5657.66379 1.54000e-17
5659.14011 1.52761e-17
5660.60639 1.49122e-17
5662.08271 1.46260e-17
5663.54899 1.37329e-17
5665.01527 1.32902e-17
5666.49159 1.30405e-17
5667.95787 1.26510e-17
5669.42414 1.25718e-17
5670.90047 1.19547e-17
5672.36674 1.16791e-17
5673.83302 1.15542e-17
5675.30934 1.10697e-17
5676.77562 1.07912e-17
5678.25194 1.05500e-17
5679.71822 1.03510e-17
5681.18450 1.04576e-17
5682.66082 1.05482e-17
5684.12710 1.05150e-17
5685.59337 1.01595e-17
5687.06970 9.98502e-18
5688.53597 1.02876e-17
5690.01229 1.00208e-17
5691.47857 9.98769e-18
5692.94485 9.69453e-18
5694.42117 8.94869e-18
5695.88745 8.76207e-18
5697.35373 9.14990e-18
5698.83005 9.29134e-18
5700.29633 9.04778e-18
5701.76260 8.95582e-18
5703.23893 8.39614e-18
5704.70520 8.07534e-18
5706.17148 8.62709e-18
5707.64780 8.53239e-18
5709.11408 8.38217e-18
5710.59040 8.18012e-18
5712.05668 8.02139e-18
5713.52296 8.22151e-18
5714.99928 8.08387e-18
5716.46556 7.97430e-18
5717.93183 7.92745e-18
5719.40816 8.17007e-18
5720.87443 7.69866e-18
5722.34071 7.56800e-18
5723.81703 8.08864e-18
5725.28331 7.86504e-18
5726.75963 7.94051e-18
5728.22591 8.18330e-18
5729.69219 8.30221e-18
5731.16851 8.22794e-18
5732.63479 8.01367e-18
5734.10106 7.84211e-18
5735.57739 7.37436e-18
5737.04366 8.20507e-18
5738.50994 8.28089e-18
5739.98626 8.03735e-18
5741.45254 8.22696e-18
5742.92886 7.84949e-18
5744.39514 7.89770e-18
5745.86142 8.07382e-18
5747.33774 7.74918e-18
5748.80402 7.48573e-18
5750.27029 7.49014e-18
5751.74662 7.78949e-18
5753.21289 7.82347e-18
5754.67917 7.62001e-18
5756.15549 7.51315e-18
5757.62177 7.75720e-18
5759.09809 7.39540e-18
5760.56437 7.20918e-18
5762.03065 7.50125e-18
5763.50697 7.41507e-18
5764.97325 7.16887e-18
5766.43952 7.02985e-18
5767.91585 7.06503e-18
5769.38212 7.10643e-18
5770.84840 7.06346e-18
5772.32472 6.97023e-18
5773.79100 7.04650e-18
5775.26732 7.10918e-18
5776.73360 7.29574e-18
5778.19988 7.10307e-18
5779.67620 6.65690e-18
5781.14248 7.01555e-18
5782.60876 7.33549e-18
5784.08508 7.24666e-18
5785.55135 7.18379e-18
5787.01763 7.34284e-18
5788.49395 7.53553e-18
5789.96023 7.52782e-18
5791.43655 7.37136e-18
5792.90283 7.55046e-18
5794.36911 6.91888e-18
5795.84543 7.15723e-18
5797.31171 7.14239e-18
5798.77798 7.18015e-18
5800.25431 7.23801e-18
5801.72058 7.56842e-18
5803.18686 7.25833e-18
5804.66318 7.58372e-18
5806.12946 7.13483e-18
5807.60578 7.20152e-18
5809.07206 6.99437e-18
5810.53834 7.69302e-18
5812.01466 7.99882e-18
5813.48094 8.16105e-18
5814.94722 7.93612e-18
5816.42354 8.64066e-18
5817.88981 8.79164e-18
5819.35609 8.59882e-18
5820.83241 8.87589e-18
5822.29869 9.02469e-18
5823.77501 9.64274e-18
5825.24129 9.64765e-18
5826.70757 9.41623e-18
5828.18389 1.00507e-17
5829.65017 1.01707e-17
5831.11644 1.05824e-17
5832.59277 1.08300e-17
5834.05904 1.12319e-17
5835.52532 1.08844e-17
5837.00164 1.13647e-17
5838.46792 1.16089e-17
5839.94424 1.15047e-17
5841.41052 1.14841e-17
5842.87680 1.17261e-17
5844.35312 1.16791e-17
5845.81940 1.20057e-17
5847.28568 1.23282e-17
5848.76200 1.31354e-17
5850.22827 1.27436e-17
5851.69455 1.24507e-17
5853.17087 1.33286e-17
5854.63715 1.29221e-17
5856.11347 1.33316e-17
5857.57975 1.38276e-17
5859.04603 1.40639e-17
5860.52235 1.36468e-17
5861.98863 1.43653e-17
5863.45491 1.43787e-17
5864.93123 1.44957e-17
5866.39750 1.48573e-17
5867.86378 1.44741e-17
5869.34010 1.51365e-17
5870.80638 1.53994e-17
5872.28270 1.50595e-17
5873.74898 1.52775e-17
5875.21526 1.50094e-17
5876.69158 1.52155e-17
5878.15786 1.59175e-17
5879.62414 1.63581e-17
5881.10046 1.62444e-17
5882.56673 1.61150e-17
5884.03301 1.61345e-17
5885.50933 1.57443e-17
5886.97561 1.57072e-17
5888.45193 1.58860e-17
5889.91821 1.60958e-17
5891.38449 1.64552e-17
5892.86081 1.67259e-17
5894.32709 1.71029e-17
5895.79337 1.71795e-17
5897.26969 1.75570e-17
5898.73596 1.71128e-17
5900.20224 1.67183e-17
5901.67856 1.67367e-17
5903.14484 1.64600e-17
5904.62116 1.70682e-17
5906.08744 1.74277e-17
5907.55372 1.68790e-17
5909.03004 1.65463e-17
5910.49632 1.64593e-17
5911.96259 1.69599e-17
5913.43892 1.70723e-17
5914.90519 1.64211e-17
5916.37147 1.59619e-17
5917.84779 1.60592e-17
5919.31407 1.62972e-17
5920.79039 1.66300e-17
5922.25667 1.73138e-17
5923.72295 1.69320e-17
5925.19927 1.69163e-17
5926.66555 1.73878e-17
5928.13182 1.67608e-17
5929.60815 1.70331e-17
5931.07442 1.75842e-17
5932.54070 1.72270e-17
5934.01702 1.75923e-17
5935.48330 1.75482e-17
5936.95962 1.69796e-17
5938.42590 1.72264e-17
5939.89218 1.70644e-17
5941.36850 1.70624e-17
5942.83478 1.68080e-17
5944.30105 1.63241e-17
5945.77738 1.68750e-17
5947.24365 1.69673e-17
5948.70993 1.70239e-17
5950.18625 1.70209e-17
5951.65253 1.63169e-17
5953.12885 1.67027e-17
5954.59513 1.67880e-17
5956.06141 1.66019e-17
5957.53773 1.62945e-17
5959.00401 1.66558e-17
5960.47028 1.67035e-17
5961.94661 1.62666e-17
5963.41288 1.63525e-17
5964.87916 1.56973e-17
5966.35548 1.59608e-17
5967.82176 1.64490e-17
5969.28804 1.63646e-17
5970.76436 1.69086e-17
5972.23064 1.67941e-17
5973.70696 1.61438e-17
5975.17324 1.56999e-17
5976.63951 1.52801e-17
5978.11584 1.56118e-17
5979.58211 1.56905e-17
5981.04839 1.56699e-17
5982.52471 1.57638e-17
5983.99099 1.61288e-17
5985.45727 1.57336e-17
5986.93359 1.60509e-17
5988.39987 1.61989e-17
5989.87619 1.58689e-17
5991.34247 1.55270e-17
5992.80874 1.53371e-17
5994.28507 1.54934e-17
5995.75134 1.55091e-17
5997.21762 1.55686e-17
5998.69394 1.54566e-17
6000.16022 1.47984e-17
6001.63654 1.44085e-17
6003.10282 1.46321e-17
6004.56910 1.50674e-17
6006.04542 1.51503e-17
6007.51170 1.48911e-17
6008.97797 1.44370e-17
6010.45430 1.43393e-17
6011.92057 1.50844e-17
6013.38685 1.46201e-17
6014.86317 1.41599e-17
6016.32945 1.44679e-17
6017.80577 1.43778e-17
6019.27205 1.43071e-17
6020.73833 1.42420e-17
6022.21465 1.40704e-17
6023.68093 1.36820e-17
6025.14721 1.35647e-17
6026.62353 1.40306e-17
6028.08980 1.38383e-17
6029.55608 1.38713e-17
6031.03240 1.36116e-17
6032.49868 1.35607e-17
6033.96496 1.33372e-17
6035.44128 1.31753e-17
6036.90756 1.34187e-17
6038.38388 1.29605e-17
6039.85016 1.26299e-17
6041.31643 1.28322e-17
6042.79276 1.31458e-17
6044.25903 1.29257e-17
6045.72531 1.24546e-17
6047.20163 1.25102e-17
6048.66791 1.22536e-17
6050.13419 1.17880e-17
6051.61051 1.23636e-17
6053.07679 1.23848e-17
6054.55311 1.22998e-17
6056.01939 1.24828e-17
6057.48567 1.18645e-17
6058.96199 1.20783e-17
6060.42826 1.14729e-17
6061.89454 1.13034e-17
6063.37086 1.15906e-17
6064.83714 1.15291e-17
6066.30342 1.14418e-17
6067.77974 1.12923e-17
6069.24602 1.10810e-17
6070.72234 1.11141e-17
6072.18862 1.12332e-17
6073.65489 1.07543e-17
6075.13122 1.09358e-17
6076.59749 1.09595e-17
6078.06377 1.08537e-17
6079.54009 1.07680e-17
6081.00637 1.07259e-17
6082.47265 1.07806e-17
6083.94897 1.08247e-17
6085.41525 1.08271e-17
6086.89157 1.08069e-17
6088.35785 1.07371e-17
6089.82413 1.06093e-17
6091.30045 1.08549e-17
6092.76672 1.10726e-17
6094.23300 1.11724e-17
6095.70932 1.14413e-17
6097.17560 1.13573e-17
6098.65192 1.14557e-17
6100.11820 1.14003e-17
6101.58448 1.15260e-17
6103.06080 1.12717e-17
6104.52708 1.09578e-17
6105.99336 1.08545e-17
6107.46968 1.13569e-17
6108.93595 1.15557e-17
6110.40223 1.17308e-17
6111.87855 1.16939e-17
6113.34483 1.16040e-17
6114.81111 1.14051e-17
6116.28743 1.14075e-17
6117.75371 1.19035e-17
6119.23003 1.17888e-17
6120.69631 1.15691e-17
6122.16259 1.17126e-17
6123.63891 1.20642e-17
6125.10518 1.20896e-17
6126.57146 1.16031e-17
6128.04778 1.18804e-17
6129.51406 1.22322e-17
6130.98034 1.22729e-17
6132.45666 1.17673e-17
6133.92294 1.12586e-17
6135.39926 1.12093e-17
6136.86554 1.14915e-17
6138.33181 1.22215e-17
6139.80814 1.21523e-17
6141.27441 1.19203e-17
6142.74069 1.23139e-17
6144.21701 1.21421e-17
6145.68329 1.19017e-17
6147.14957 1.17009e-17
6148.62589 1.13081e-17
6150.09217 1.13583e-17
6151.56849 1.18170e-17
6153.03477 1.19773e-17
6154.50104 1.18016e-17
6155.97737 1.19177e-17
6157.44364 1.20643e-17
6158.90992 1.19284e-17
6160.38624 1.18280e-17
6161.85252 1.20170e-17
6163.31880 1.22320e-17
6164.79512 1.21989e-17
6166.26140 1.21683e-17
6167.73772 1.20913e-17
6169.20400 1.18507e-17
6170.67027 1.18505e-17
6172.14660 1.19960e-17
6173.61287 1.22571e-17
6175.07915 1.22241e-17
6176.55547 1.18885e-17
6178.02175 1.21438e-17
6179.48803 1.25439e-17
6180.96435 1.25313e-17
6182.43063 1.31478e-17
6183.90695 1.32319e-17
6185.37323 1.28661e-17
6186.83950 1.33932e-17
6188.31583 1.33306e-17
6189.78210 1.27515e-17
6191.24838 1.30835e-17
6192.72470 1.35382e-17
6194.19098 1.35442e-17
6195.65726 1.38993e-17
6197.13358 1.38891e-17
6198.59986 1.38975e-17
6200.07618 1.41376e-17
6201.54246 1.37832e-17
6203.00873 1.37716e-17
6204.48506 1.44174e-17
6205.95133 1.45141e-17
6207.41761 1.49204e-17
6208.89393 1.52473e-17
6210.36021 1.50565e-17
6211.82649 1.52176e-17
6213.30281 1.55449e-17
6214.76909 1.56026e-17
6216.24541 1.55806e-17
6217.71169 1.54189e-17
6219.17796 1.63641e-17
6220.65429 1.68529e-17
6222.12056 1.63798e-17
6223.58684 1.64262e-17
6225.06316 1.69548e-17
6226.52944 1.71198e-17
6227.99572 1.70732e-17
6229.47204 1.69073e-17
6230.93832 1.72927e-17
6232.41464 1.77696e-17
6233.88092 1.73377e-17
6235.34719 1.70094e-17
6236.82352 1.69206e-17
6238.28979 1.73172e-17
6239.75607 1.70329e-17
6241.23239 1.67375e-17
6242.69867 1.70985e-17
6244.16495 1.69765e-17
6245.64127 1.74741e-17
6247.10755 1.74407e-17
6248.58387 1.72022e-17
6250.05015 1.73737e-17
6251.51642 1.68748e-17
6252.99275 1.70493e-17
6254.45902 1.74679e-17
6255.92530 1.70355e-17
6257.40162 1.74556e-17
6258.86790 1.68123e-17
6260.33418 1.71648e-17
6261.81050 1.74463e-17
6263.27678 1.71902e-17
6264.75310 1.66307e-17
6266.21938 1.72767e-17
6267.68566 1.73340e-17
6269.16198 1.77758e-17
6270.62825 1.78070e-17
6272.09453 1.73266e-17
6273.57085 1.72312e-17
6275.03713 1.69570e-17
6276.50341 1.76287e-17
6277.97973 1.73940e-17
6279.44601 1.72093e-17
6280.92233 1.73104e-17
6282.38861 1.77640e-17
6283.85488 1.80726e-17
6285.33121 1.77953e-17
6286.79748 1.74719e-17
6288.26376 1.75868e-17
6289.74008 1.79857e-17
6291.20636 1.75362e-17
6292.67264 1.74938e-17
6294.14896 1.76453e-17
6295.61524 1.71309e-17
6297.08152 1.74340e-17
6298.55784 1.74175e-17
6300.02412 1.71340e-17
6301.50044 1.68594e-17
6302.96671 1.68736e-17
6304.43299 1.70747e-17
6305.90931 1.78798e-17
6307.37559 1.71438e-17
6308.84187 1.63276e-17
6310.31819 1.59053e-17
6311.78447 1.63511e-17
6313.26079 1.63049e-17
6314.72707 1.61569e-17
6316.19334 1.62687e-17
6317.66967 1.63653e-17
6319.13594 1.63768e-17
6320.60222 1.64963e-17
6322.07854 1.60999e-17
6323.54482 1.65718e-17
6325.01110 1.69003e-17
6326.48742 1.62032e-17
6327.95370 1.61147e-17
6329.43002 1.64339e-17
6330.89630 1.62291e-17
6332.36258 1.61872e-17
6333.83890 1.58898e-17
6335.30517 1.59792e-17
6336.77145 1.62425e-17
6338.24777 1.57608e-17
6339.71405 1.51515e-17
6341.18033 1.52032e-17
6342.65665 1.58987e-17
6344.12293 1.58359e-17
6345.59925 1.53612e-17
6347.06553 1.54312e-17
6348.53181 1.54300e-17
6350.00813 1.57173e-17
6351.47440 1.54251e-17
6352.94068 1.48513e-17
6354.41700 1.50646e-17
6355.88328 1.49867e-17
6357.34956 1.47466e-17
6358.82588 1.49669e-17
6360.29216 1.52488e-17
6361.76848 1.57581e-17
6363.23476 1.57033e-17
6364.70104 1.53354e-17
6366.17736 1.54632e-17
6367.64363 1.52043e-17
6369.10991 1.52892e-17
6370.58623 1.52848e-17
6372.05251 1.49270e-17
6373.51879 1.49789e-17
6374.99511 1.48521e-17
6376.46139 1.47995e-17
6377.92767 1.45068e-17
6379.40399 1.40437e-17
6380.87026 1.44730e-17
6382.34659 1.51107e-17
6383.81286 1.48980e-17
6385.27914 1.45878e-17
6386.75546 1.46078e-17
6388.22174 1.44554e-17
6389.68802 1.38967e-17
6391.16434 1.40401e-17
6392.63062 1.44520e-17
6394.10694 1.39506e-17
6395.57322 1.39495e-17
6397.03949 1.42857e-17
6398.51582 1.44314e-17
6399.98209 1.43538e-17
6401.44837 1.41605e-17
6402.92469 1.42333e-17
6404.39097 1.44066e-17
6405.85725 1.42035e-17
6407.33357 1.36255e-17
6408.79985 1.33215e-17
6410.26613 1.34763e-17
6411.74245 1.39479e-17
6413.20872 1.42343e-17
6414.68505 1.37384e-17
6416.15132 1.35537e-17
6417.61760 1.38771e-17
6419.09392 1.36511e-17
6420.56020 1.37794e-17
6422.02648 1.34420e-17
6423.50280 1.33308e-17
6424.96908 1.31761e-17
6426.43536 1.34727e-17
6427.91168 1.38928e-17
6429.37795 1.37066e-17
6430.85428 1.38283e-17
6432.32055 1.41707e-17
6433.78683 1.41091e-17
6435.26315 1.35573e-17
6436.72943 1.32581e-17
6438.19571 1.35957e-17
6439.67203 1.42145e-17
6441.13831 1.43501e-17
6442.61463 1.40462e-17
6444.08091 1.36402e-17
6445.54718 1.34508e-17
6447.02351 1.38243e-17
6448.48978 1.40437e-17
6449.95606 1.41526e-17
6451.43238 1.44695e-17
6452.89866 1.44277e-17
6454.36494 1.48198e-17
6455.84126 1.45779e-17
6457.30754 1.40344e-17
6458.77382 1.44808e-17
6460.25014 1.49287e-17
6461.71641 1.52098e-17
6463.19274 1.54763e-17
6464.65901 1.55033e-17
6466.12529 1.56472e-17
6467.60161 1.54031e-17
6469.06789 1.49928e-17
6470.53417 1.48545e-17
6472.01049 1.52226e-17
6473.47677 1.52545e-17
6474.95309 1.52783e-17
6476.41937 1.52658e-17
6477.88564 1.50775e-17
6479.36197 1.46554e-17
6480.82824 1.47720e-17
6482.29452 1.46870e-17
6483.77084 1.49483e-17
6485.23712 1.54376e-17
6486.70340 1.55509e-17
6488.17972 1.54304e-17
6489.64600 1.49868e-17
6491.11228 1.45399e-17
6492.58860 1.47230e-17
6494.05487 1.48025e-17
6495.53120 1.48217e-17
6496.99747 1.51940e-17
6498.46375 1.47854e-17
6499.94007 1.44766e-17
6501.40635 1.47951e-17
6502.87263 1.50241e-17
6504.34895 1.50929e-17
6505.81523 1.53300e-17
6507.28151 1.52770e-17
6508.75783 1.49062e-17
6510.22411 1.50357e-17
6511.70043 1.51571e-17
6513.16670 1.47151e-17
6514.63298 1.45428e-17
6516.10930 1.45530e-17
6517.57558 1.43429e-17
6519.04186 1.46789e-17
6520.51818 1.46178e-17
6521.98446 1.42137e-17
6523.45074 1.43799e-17
6524.92706 1.52628e-17
6526.39333 1.51843e-17
6527.86966 1.50367e-17
6529.33593 1.48913e-17
6530.80221 1.41423e-17
6532.27853 1.37460e-17
6533.74481 1.39439e-17
6535.21109 1.39053e-17
6536.68741 1.41975e-17
6538.15369 1.46143e-17
6539.61997 1.41749e-17
6541.09629 1.40698e-17
6542.56257 1.42483e-17
6544.03889 1.40619e-17
6545.50516 1.38616e-17
6546.97144 1.39919e-17
6548.44776 1.42794e-17
6549.91404 1.44525e-17
6551.38032 1.42940e-17
6552.85664 1.40251e-17
6554.32292 1.43326e-17
6555.79924 1.47234e-17
6557.26552 1.44948e-17
6558.73179 1.41217e-17
6560.20812 1.44122e-17
6561.67439 1.43969e-17
6563.14067 1.43816e-17
6564.61699 1.43664e-17
6566.08327 1.43511e-17
6567.54955 1.43359e-17
6569.02587 1.43206e-17
6570.49215 1.43054e-17
6571.95843 1.42901e-17
6573.43475 1.42749e-17
6574.90103 1.42596e-17
6576.37735 1.42443e-17
6577.84362 1.42291e-17
6579.30990 1.42138e-17
6580.78622 1.41986e-17
6582.25250 1.41833e-17
6583.71878 1.41681e-17
6585.19510 1.41528e-17
6586.66138 1.41376e-17
6588.12766 1.41223e-17
6589.60398 1.41071e-17
6591.07026 1.40918e-17
6592.54658 1.40766e-17
6594.01285 1.40613e-17
6595.47913 1.40461e-17
6596.95545 1.40309e-17
6598.42173 1.40156e-17
6599.88801 1.40004e-17
6601.36433 1.39851e-17
6602.83061 1.39699e-17
6604.29689 1.39546e-17
6605.77321 1.39394e-17
6607.23949 1.39241e-17
6608.71581 1.39089e-17
6610.18208 1.38937e-17
6611.64836 1.38784e-17
6613.12468 1.38632e-17
6614.59096 1.38479e-17
6616.05724 1.38327e-17
6617.53356 1.38174e-17
6618.99984 1.38022e-17
6620.46612 1.37870e-17
6621.94244 1.37717e-17
6623.40871 1.38835e-17
6624.88504 1.40988e-17
6626.35131 1.40402e-17
6627.81759 1.38828e-17
6629.29391 1.36542e-17
6630.76019 1.34116e-17
6632.22647 1.37632e-17
6633.70279 1.39123e-17
6635.16907 1.34096e-17
6636.63535 1.31714e-17
6638.11167 1.35073e-17
6639.57794 1.36881e-17
6641.05427 1.32618e-17
6642.52054 1.29857e-17
6643.98682 1.32570e-17
6645.46314 1.33800e-17
6646.92942 1.31519e-17
6648.39570 1.30394e-17
6649.87202 1.33010e-17
6651.33830 1.31966e-17
6652.80458 1.30055e-17
6654.28090 1.30426e-17
6655.74717 1.28340e-17
6657.22350 1.31062e-17
6658.68977 1.34059e-17
6660.15605 1.31045e-17
6661.63237 1.25672e-17
6663.09865 1.24135e-17
6664.56493 1.27318e-17
6666.04125 1.29831e-17
6667.50753 1.32180e-17
6668.97381 1.31250e-17
6670.45013 1.29428e-17
6671.91640 1.31046e-17
6673.39273 1.31670e-17
6674.85900 1.31018e-17
6676.32528 1.25212e-17
6677.80160 1.24008e-17
6679.26788 1.29014e-17
6680.73416 1.26990e-17
6682.21048 1.26039e-17
6683.67676 1.27784e-17
6685.14304 1.25344e-17
6686.61936 1.22746e-17
6688.08563 1.21937e-17
6689.56196 1.21270e-17
6691.02823 1.20350e-17
6692.49451 1.19401e-17
6693.97083 1.21437e-17
6695.43711 1.22239e-17
6696.90339 1.23257e-17
6698.37971 1.26920e-17
6699.84599 1.25740e-17
6701.31227 1.22321e-17
6702.78859 1.23004e-17
6704.25486 1.21056e-17
6705.73119 1.19387e-17
6707.19746 1.20778e-17
6708.66374 1.19238e-17
6710.14006 1.16004e-17
6711.60634 1.16942e-17
6713.07262 1.20829e-17
6714.54894 1.17026e-17
6716.01522 1.18302e-17
6717.48150 1.22937e-17
6718.95782 1.19275e-17
6720.42409 1.16465e-17
6721.90042 1.16486e-17
6723.36669 1.14447e-17
6724.83297 1.13615e-17
6726.30929 1.13762e-17
6727.77557 1.11187e-17
6729.24185 1.08424e-17
6730.71817 1.07046e-17
6732.18445 1.09517e-17
6733.65073 1.11485e-17
6735.12705 1.09700e-17
6736.59332 1.06722e-17
6738.06965 1.06704e-17
6739.53592 1.07599e-17
6741.00220 1.08305e-17
6742.47852 1.10492e-17
6743.94480 1.11684e-17
6745.41108 1.12131e-17
6746.88740 1.11984e-17
6748.35368 1.12842e-17
6749.81996 1.14285e-17
6751.29628 1.11774e-17
6752.76256 1.07611e-17
6754.22883 1.05712e-17
6755.70515 1.05137e-17
6757.17143 1.08621e-17
6758.64775 1.10117e-17
6760.11403 1.05599e-17
6761.58031 1.07339e-17
6763.05663 1.11944e-17
6764.52291 1.09309e-17
6765.98919 1.04591e-17
6767.46551 1.03858e-17
6768.93178 1.05165e-17
6770.40811 1.06621e-17
6771.87438 1.03531e-17
6773.34066 9.97285e-18
6774.81698 1.01918e-17
6776.28326 1.05125e-17
6777.74954 1.05199e-17
6779.22586 1.06456e-17
6780.69214 1.05178e-17
6782.15842 1.07158e-17
6783.63474 1.11791e-17
6785.10102 1.09129e-17
6786.57734 1.05552e-17
6788.04361 1.04782e-17
6789.50989 1.04656e-17
6790.98621 1.05233e-17
6792.45249 1.06235e-17
6793.91877 1.05626e-17
6795.39509 1.06989e-17
6796.86137 1.08706e-17
6798.32765 1.08786e-17
6799.80397 1.10079e-17
6801.27024 1.10736e-17
6802.74657 1.07596e-17
6804.21284 1.07179e-17
6805.67912 1.11187e-17
6807.15544 1.12877e-17
6808.62172 1.09289e-17
6810.08800 1.06160e-17
6811.56432 1.07397e-17
6813.03060 1.06252e-17
6814.49688 1.03901e-17
6815.97320 1.05012e-17
6817.43948 1.08867e-17
6818.91580 1.07718e-17
6820.38207 1.07108e-17
6821.84835 1.09583e-17
6823.32467 1.06586e-17
6824.79095 1.04593e-17
6826.25723 1.05814e-17
6827.73355 1.08225e-17
6829.19983 1.05703e-17
6830.66611 9.95976e-18
6832.14243 1.01745e-17
6833.60871 1.07422e-17
6835.07498 1.07465e-17
6836.55130 1.03967e-17
6838.01758 1.04366e-17
6839.49390 1.06771e-17
6840.96018 1.03545e-17
6842.42646 1.01332e-17
6843.90278 1.02976e-17
6845.36906 1.03430e-17
6846.83534 1.04154e-17
6848.31166 1.04907e-17
6849.77794 1.05313e-17
6851.25426 1.04634e-17
6852.72053 1.02451e-17
6854.18681 9.97655e-18
6855.66313 9.93565e-18
6857.12941 9.91296e-18
6858.59569 9.51924e-18
6860.07201 9.25402e-18
6861.53829 9.35862e-18
6863.00457 9.46327e-18
6864.48089 9.14984e-18
6865.94716 9.29616e-18
6867.41344 9.73993e-18
6868.88976 9.30202e-18
6870.35604 9.28302e-18
6871.83236 9.62649e-18
6873.29864 9.06168e-18
6874.76492 9.01828e-18
6876.24124 9.56365e-18
6877.70752 9.32618e-18
6879.17380 9.03544e-18
6880.65012 9.07202e-18
6882.11639 9.33583e-18
6883.59272 9.59776e-18
6885.05899 9.63249e-18
6886.52527 9.55189e-18
6888.00159 9.20269e-18
6889.46787 9.29495e-18
6890.93415 9.25772e-18
6892.41047 8.85477e-18
6893.87675 9.23791e-18
6895.34303 9.18465e-18
6896.81935 8.71903e-18
6898.28562 9.06098e-18
6899.75190 9.14851e-18
6901.22822 9.01302e-18
6902.69450 8.85320e-18
6904.17082 9.24032e-18
6905.63710 9.02116e-18
6907.10338 8.63581e-18
6908.57970 8.51618e-18
6910.04598 8.20132e-18
6911.51226 8.17546e-18
6912.98858 8.53274e-18
6914.45485 8.87164e-18
6915.92113 8.86194e-18
6917.39745 8.44276e-18
6918.86373 8.25340e-18
6920.34005 8.33715e-18
6921.80633 8.67728e-18
6923.27261 8.60456e-18
6924.74893 8.47440e-18
6926.21521 8.60067e-18
6927.68149 8.74876e-18
6929.15781 9.01593e-18
6930.62408 8.66155e-18
6932.10041 8.67220e-18
6933.56668 8.76808e-18
6935.03296 9.14095e-18
6936.50928 9.18366e-18
6937.97556 9.47068e-18
6939.44184 9.32511e-18
6940.91816 9.26426e-18
6942.38444 9.54976e-18
6943.85072 9.44001e-18
6945.32704 9.10366e-18
6946.79331 9.14762e-18
6948.25959 9.39043e-18
6949.73591 9.81033e-18
6951.20219 9.92411e-18
6952.67851 9.72086e-18
6954.14479 9.86511e-18
6955.61107 1.01389e-17
6957.08739 9.74818e-18
6958.55367 1.00535e-17
6960.01995 1.08124e-17
6961.49627 1.06198e-17
6962.96254 1.02129e-17
6964.42882 9.96020e-18
6965.90514 1.02430e-17
6967.37142 1.01311e-17
6968.84774 9.78086e-18
6970.31402 1.01198e-17
6971.78030 1.02042e-17
6973.25662 1.01645e-17
6974.72290 1.02435e-17
6976.18918 1.04068e-17
6977.66550 1.06968e-17
6979.13177 1.02484e-17
6980.59805 1.05402e-17
6982.07437 1.03536e-17
6983.54065 9.98999e-18
6985.01697 1.02081e-17
6986.48325 1.04880e-17
6987.94953 1.09885e-17
6989.42585 1.09195e-17
6990.89213 1.08529e-17
6992.35841 1.10394e-17
6993.83473 1.09037e-17
6995.30101 1.08270e-17
6996.76728 1.02649e-17
6998.24360 1.01133e-17
6999.70988 1.06320e-17
7001.18620 1.10173e-17
7002.65248 1.05606e-17
7004.11876 1.06559e-17
7005.59508 1.07040e-17
7007.06136 1.07683e-17
7008.52764 1.11749e-17
7010.00396 1.12779e-17
7011.47023 1.09542e-17
7012.93651 1.08772e-17
7014.41283 1.22236e-17
7015.87911 1.27696e-17
7017.35543 1.12892e-17
7018.82171 1.06361e-17
7020.28799 1.08280e-17
7021.76431 1.07060e-17
7023.23059 1.07081e-17
7024.69687 1.10906e-17
7026.17319 1.10060e-17
7027.63947 1.09979e-17
7029.10574 1.09448e-17
7030.58206 1.08030e-17
7032.04834 1.09940e-17
7033.52466 1.10966e-17
7034.99094 1.08756e-17
7036.45722 1.08234e-17
7037.93354 1.06064e-17
7039.39982 1.07761e-17
7040.86610 1.05041e-17
7042.34242 1.05482e-17
7043.80869 1.06357e-17
7045.27497 1.05163e-17
7046.75129 1.06309e-17
7048.21757 1.05927e-17
7049.69389 1.02760e-17
7051.16017 1.05318e-17
7052.62645 1.07811e-17
7054.10277 1.10719e-17
7055.56905 1.06873e-17
7057.03533 1.06810e-17
7058.51165 1.08880e-17
7059.97793 1.03040e-17
7061.44420 1.04566e-17
7062.92052 1.02923e-17
7064.38680 1.01770e-17
7065.86312 1.05271e-17
7067.32940 1.04698e-17
7068.79568 1.03458e-17
7070.27200 1.04639e-17
7071.73828 1.01658e-17
7073.20456 1.02003e-17
7074.68088 1.03818e-17
7076.14716 1.02219e-17
7077.61343 1.00583e-17
7079.08975 1.01851e-17
7080.55603 1.02488e-17
7082.03235 1.02040e-17
7083.49863 1.05657e-17
7084.96491 1.06225e-17
7086.44123 1.03828e-17
7087.90751 1.00023e-17
7089.37379 9.86473e-18
7090.85011 1.00380e-17
7092.31638 1.02801e-17
7093.78266 9.98603e-18
7095.25898 1.00931e-17
7096.72526 1.02304e-17
7098.20158 1.03950e-17
7099.66786 1.05367e-17
7101.13414 1.03442e-17
7102.61046 1.01741e-17
7104.07674 9.85518e-18
7105.54302 9.94047e-18
7107.01934 1.01233e-17
7108.48561 9.99321e-18
7109.95189 1.00823e-17
7111.42821 9.94184e-18
7112.89449 9.82295e-18
7114.37081 9.85842e-18
7115.83709 9.89888e-18
7117.30337 9.89916e-18
7118.77969 9.80995e-18
7120.24597 1.01981e-17
7121.71225 1.04600e-17
7123.18857 1.05514e-17
7124.65484 1.05330e-17
7126.12112 1.02997e-17
7127.59744 1.01751e-17
7129.06372 9.97776e-18
7130.54004 1.01032e-17
7132.00632 1.01246e-17
7133.47260 9.99915e-18
7134.94892 9.80566e-18
7136.41520 9.81885e-18
7137.88148 1.00129e-17
7139.35780 9.76890e-18
7140.82407 9.50802e-18
7142.29035 9.60046e-18
7143.76667 9.62065e-18
7145.23295 9.82011e-18
7146.70927 1.02763e-17
7148.17555 1.00971e-17
7149.64183 9.65604e-18
7151.11815 1.00491e-17
7152.58443 1.06222e-17
7154.05071 1.09208e-17
7155.52703 1.09122e-17
7156.99330 1.04726e-17
7158.45958 1.05749e-17
7159.93590 1.08891e-17
7161.40218 1.05473e-17
7162.87850 1.02060e-17
7164.34478 1.02762e-17
7165.81106 1.08354e-17
7167.28738 1.10221e-17
7168.75366 1.08905e-17
7170.21994 1.14883e-17
7171.69626 1.14087e-17
7173.16253 1.14403e-17
7174.62881 1.18031e-17
7176.10513 1.13605e-17
7177.57141 1.09397e-17
7179.04773 1.08913e-17
7180.51401 1.11668e-17
7181.98029 1.10120e-17
7183.45661 1.09366e-17
7184.92289 1.14280e-17
7186.38917 1.15838e-17
7187.86549 1.15515e-17
7189.33176 1.15495e-17
7190.79804 1.16593e-17
7192.27436 1.19019e-17
7193.74064 1.17165e-17
7195.21696 1.11862e-17
7196.68324 1.10117e-17
7198.14952 1.11946e-17
7199.62584 1.14795e-17
7201.09212 1.16101e-17
7202.55840 1.15436e-17
7204.03472 1.11086e-17
7205.50099 1.07079e-17
7206.96727 1.08044e-17
7208.44359 1.09575e-17
7209.90987 1.09998e-17
7211.38619 1.08605e-17
7212.85247 1.08088e-17
7214.31875 1.12304e-17
7215.79507 1.09753e-17
7217.26135 1.11935e-17
7218.72763 1.11156e-17
7220.20395 1.08944e-17
7221.67022 1.17667e-17
7223.13650 1.19516e-17
7224.61282 1.14451e-17
7226.07910 1.16689e-17
7227.55542 1.10578e-17
7229.02170 1.12701e-17
7230.48798 1.20302e-17
7231.96430 1.21384e-17
7233.43058 1.19582e-17
7234.89686 1.21231e-17
7236.37318 1.26273e-17
7237.83946 1.20032e-17
7239.30573 1.14569e-17
7240.78205 1.18972e-17
7242.24833 1.23218e-17
7243.72465 1.25329e-17
7245.19093 1.24633e-17
7246.65721 1.18571e-17
7248.13353 1.18604e-17
7249.59981 1.18210e-17
7251.06609 1.19179e-17
7252.54241 1.20599e-17
7254.00868 1.21800e-17
7255.47496 1.27127e-17
7256.95128 1.21436e-17
7258.41756 1.19867e-17
7259.89388 1.21061e-17
7261.36016 1.24212e-17
7262.82644 1.27830e-17
7264.30276 1.32567e-17
7265.76904 1.31800e-17
7267.23532 1.26664e-17
7268.71164 1.20302e-17
7270.17792 1.22582e-17
7271.64419 1.30263e-17
7273.12051 1.35630e-17
7274.58679 1.39090e-17
7276.05307 1.38885e-17
7277.52939 1.33074e-17
7278.99567 1.37516e-17
7280.47199 1.29292e-17
7281.93827 1.25068e-17
7283.40455 1.27440e-17
7284.88087 1.25611e-17
7286.34714 1.24327e-17
7287.81342 1.24330e-17
7289.28974 1.32781e-17
7290.75602 1.33136e-17
7292.22230 1.30688e-17
7293.69862 1.31464e-17
7295.16490 1.34235e-17
7296.64122 1.25785e-17
7298.10750 1.29246e-17
7299.57378 1.33950e-17
7301.05010 1.33299e-17
7302.51638 1.39748e-17
7303.98265 1.40823e-17
7305.45897 1.33491e-17
7306.92525 1.33888e-17
7308.39153 1.38730e-17
7309.86785 1.38437e-17
7311.33413 1.36016e-17
7312.81045 1.36134e-17
7314.27673 1.39896e-17
7315.74301 1.37561e-17
7317.21933 1.47344e-17
7318.68561 1.45344e-17
7320.15188 1.33304e-17
7321.62820 1.37834e-17
7323.09448 1.34062e-17
7324.57080 1.27355e-17
7326.03708 1.33796e-17
7327.50336 1.38319e-17
7328.97968 1.30964e-17
7330.44596 1.22779e-17
7331.91224 1.31203e-17
7333.38856 1.30881e-17
7334.85483 1.29609e-17
7336.32111 1.26462e-17
7337.79743 1.29074e-17
7339.26371 1.30737e-17
7340.74003 1.30746e-17
7342.20631 1.33797e-17
7343.67259 1.36029e-17
7345.14891 1.34577e-17
7346.61519 1.30820e-17
7348.08147 1.30854e-17
7349.55779 1.36532e-17
7351.02406 1.32576e-17
7352.49034 1.29028e-17
7353.96666 1.29469e-17
7355.43294 1.32135e-17
7356.89922 1.29685e-17
7358.37554 1.27919e-17
7359.84182 1.30895e-17
7361.31814 1.34420e-17
7362.78442 1.26069e-17
7364.25070 1.24776e-17
7365.72702 1.24994e-17
7367.19329 1.31142e-17
7368.65957 1.25912e-17
7370.13589 1.23878e-17
7371.60217 1.27536e-17
7373.06845 1.22573e-17
7374.54477 1.15482e-17
7376.01105 1.22450e-17
7377.48737 1.29946e-17
7378.95365 1.25144e-17
7380.41993 1.23076e-17
7381.89625 1.22306e-17
7383.36252 1.24268e-17
7384.82880 1.29352e-17
7386.30512 1.28029e-17
7387.77140 1.21110e-17
7389.23768 1.23490e-17
7390.71400 1.26325e-17
7392.18028 1.16565e-17
7393.65660 1.18959e-17
7395.12288 1.14357e-17
7396.58916 1.21174e-17
7398.06548 1.23470e-17
7399.53175 1.17091e-17
7400.99803 1.18496e-17
7402.47435 1.16799e-17
7403.94063 1.18755e-17
7405.40691 1.20002e-17
7406.88323 1.24450e-17
7408.34951 1.17710e-17
7409.82583 1.18775e-17
7411.29211 1.20876e-17
7412.75839 1.17025e-17
7414.23471 1.17369e-17
7415.70098 1.20961e-17
7417.16726 1.17336e-17
7418.64358 1.16821e-17
7420.20202 1.16821e-17
7422.21053 1.17018e-17
7424.20894 1.17044e-17
7426.20735 1.16148e-17
7428.20577 1.15415e-17
7430.20418 1.15967e-17
7432.21269 1.16913e-17
7434.21110 1.17289e-17
7436.20952 1.16960e-17
7438.20793 1.16807e-17
7440.21644 1.17541e-17
7442.21485 1.18211e-17
7444.21327 1.17854e-17
7446.21168 1.17173e-17
7448.21009 1.16652e-17
7450.21860 1.16380e-17
7452.21702 1.16067e-17
7454.21543 1.15600e-17
7456.21384 1.15184e-17
7458.22235 1.15110e-17
7460.22076 1.15086e-17
7462.21918 1.15002e-17
7464.21759 1.14750e-17
7466.21601 1.14236e-17
7468.22451 1.13501e-17
7470.22293 1.12799e-17
7472.22134 1.12494e-17
7474.21976 1.12367e-17
7476.21817 1.12646e-17
7478.22668 1.12696e-17
7480.22509 1.11729e-17
7482.22350 1.09895e-17
7484.22192 1.08272e-17
7486.23043 1.08039e-17
7488.22884 1.08099e-17
7490.22725 1.07572e-17
7492.22567 1.07121e-17
7494.22408 1.07388e-17
7496.23259 1.08229e-17
7498.23100 1.09081e-17
7500.22942 1.09428e-17
7502.22783 1.09581e-17
7504.22624 1.09666e-17
7506.23475 1.09568e-17
7508.23317 1.09157e-17
7510.23158 1.08561e-17
7512.22999 1.07876e-17
7514.23850 1.07301e-17
7516.23691 1.06904e-17
7518.23533 1.06919e-17
7520.23374 1.07215e-17
7522.23216 1.08119e-17
7524.24066 1.08858e-17
7526.23908 1.08576e-17
7528.23749 1.07186e-17
7530.23591 1.05677e-17
7532.23432 1.05082e-17
7534.24283 1.04835e-17
7536.24124 1.04889e-17
7538.23965 1.05061e-17
7540.23807 1.05217e-17
7542.24658 1.05296e-17
7544.24499 1.05422e-17
7546.24340 1.05637e-17
7548.24182 1.05792e-17
7550.24023 1.05794e-17
7552.24874 1.05524e-17
7554.24715 1.04740e-17
7556.24557 1.03678e-17
7558.24398 1.02564e-17
7560.24239 1.01760e-17
7562.25090 1.01333e-17
7564.24932 1.01914e-17
7566.24773 1.02459e-17
7568.24614 1.02083e-17
7570.25465 1.01212e-17
7572.25306 1.00462e-17
7574.25148 1.00158e-17
7576.24989 9.99770e-18
7578.24831 9.97679e-18
7580.25681 9.94053e-18
7582.25523 9.85087e-18
7584.25364 9.75290e-18
7586.25206 9.71092e-18
7588.26056 9.69417e-18
7590.25898 9.60426e-18
7592.25739 9.35249e-18
7594.25580 9.09187e-18
7596.25422 8.96681e-18
7598.26273 8.92335e-18
7600.26114 8.96775e-18
7602.25955 9.03940e-18
7604.25797 9.09743e-18
7606.25638 9.07386e-18
7608.26489 8.98067e-18
7610.26330 8.70494e-18
7612.26172 8.47611e-18
7614.26013 8.49154e-18
7616.26864 8.66445e-18
7618.26705 8.87957e-18
7620.26547 9.01387e-18
7622.26388 9.06298e-18
7624.26229 8.92679e-18
7626.27080 8.75091e-18
7628.26921 8.64424e-18
7630.26763 8.58026e-18
7632.26604 8.51503e-18
7634.27455 8.44878e-18
7636.27296 8.41746e-18
7638.27138 8.45097e-18
7640.26979 8.48378e-18
7642.26821 8.44807e-18
7644.27671 8.37485e-18
7646.27513 8.26577e-18
7648.27354 8.15683e-18
7650.27195 8.08628e-18
7652.27037 8.08158e-18
7654.27888 8.07242e-18
7656.27729 7.94907e-18
7658.27570 7.81882e-18
7660.27412 7.73578e-18
7662.28262 7.70864e-18
7664.28104 7.72254e-18
7666.27945 7.76507e-18
7668.27787 7.82317e-18
7670.27628 7.87045e-18
7672.28479 7.92589e-18
7674.28320 8.02331e-18
7676.28162 8.10413e-18
7678.28003 8.10374e-18
7680.27844 8.01760e-18
7682.28695 7.91360e-18
7684.28536 7.85972e-18
7686.28378 7.82259e-18
7688.28219 7.80153e-18
7690.29070 7.78898e-18
7692.28911 7.76927e-18
7694.28753 7.75824e-18
7696.28594 7.79156e-18
7698.28436 7.88924e-18
7700.29286 7.98275e-18
7702.29128 7.98721e-18
7704.28969 7.94602e-18
7706.28810 7.84978e-18
7708.29661 7.74940e-18
7710.29503 7.68788e-18
7712.29344 7.70341e-18
7714.29185 7.75270e-18
7716.29027 7.80678e-18
7718.29877 7.86888e-18
7720.29719 7.93482e-18
7722.29560 7.99731e-18
7724.29402 8.04861e-18
7726.29243 8.09098e-18
7728.30094 8.13546e-18
7730.29935 8.19482e-18
7732.29777 8.28158e-18
7734.29618 8.42529e-18
7736.30469 8.59820e-18
7738.30310 8.79640e-18
7740.30151 8.97950e-18
7742.29993 9.11803e-18
7744.29834 9.16987e-18
7746.30685 9.18091e-18
7748.30526 9.15327e-18
7750.30368 9.15421e-18
7752.30209 9.25547e-18
7754.30051 9.43127e-18
7756.30901 9.62791e-18
7758.30743 9.78939e-18
7760.30584 9.92182e-18
7762.30425 9.98548e-18
7764.31276 1.00248e-17
7766.31118 1.00620e-17
7768.30959 1.01016e-17
7770.30800 1.01330e-17
7772.30642 1.01646e-17
7774.31492 1.02113e-17
7776.31334 1.02972e-17
7778.31175 1.03958e-17
7780.31017 1.05055e-17
7782.30858 1.05944e-17
7784.31709 1.06284e-17
7786.31550 1.06141e-17
7788.31392 1.05889e-17
7790.31233 1.05926e-17
7792.32084 1.06157e-17
7794.31925 1.06957e-17
7796.31766 1.07624e-17
7798.31608 1.07510e-17
7800.31449 1.06783e-17
7802.32300 1.05959e-17
7804.32141 1.05505e-17
7806.31983 1.05248e-17
7808.31824 1.05628e-17
7810.32675 1.05669e-17
7812.32516 1.04367e-17
7814.32358 1.02409e-17
7816.32199 1.00510e-17
7818.32040 9.95071e-18
7820.32891 9.94077e-18
7822.32733 1.00892e-17
7824.32574 1.02788e-17
7826.32415 1.04409e-17
7828.32257 1.05420e-17
7830.33107 1.05524e-17
7832.32949 1.04861e-17
7834.32790 1.03956e-17
7836.32632 1.03435e-17
7838.33482 1.03219e-17
7840.33324 1.03582e-17
7842.33165 1.04360e-17
7844.33007 1.05718e-17
7846.32848 1.07121e-17
7848.33699 1.08010e-17
7850.33540 1.07826e-17
7852.33381 1.07258e-17
7854.33223 1.06671e-17
7856.33064 1.06391e-17
7858.33915 1.07261e-17
7860.33756 1.08341e-17
7862.33598 1.08412e-17
7864.33439 1.06845e-17
7866.34290 1.04803e-17
7868.34131 1.03225e-17
7870.33973 1.02228e-17
7872.33814 1.02455e-17
7874.33655 1.03502e-17
7876.34506 1.05207e-17
7878.34348 1.06936e-17
7880.34189 1.08276e-17
7882.34030 1.08429e-17
7884.34881 1.08048e-17
7886.34722 1.07184e-17
7888.34564 1.06442e-17
7890.34405 1.06507e-17
7892.34247 1.07137e-17
7894.35097 1.07583e-17
7896.34939 1.07129e-17
7898.34780 1.06207e-17
7900.34622 1.04801e-17
7902.34463 1.03228e-17
7904.35314 1.01617e-17
7906.35155 1.00246e-17
7908.34996 9.91704e-18
7910.34838 9.86199e-18
7912.35689 9.86113e-18
7914.35530 9.94045e-18
7916.35371 1.00622e-17
7918.35213 1.02297e-17
7920.35054 1.03834e-17
7922.35905 1.04776e-17
7924.35746 1.04841e-17
7926.35588 1.04384e-17
7928.35429 1.03613e-17
7930.35270 1.02853e-17
7932.36121 1.02503e-17
7934.35963 1.02590e-17
7936.35804 1.03242e-17
7938.35645 1.04261e-17
7940.36496 1.05380e-17
7942.36337 1.06237e-17
7944.36179 1.06929e-17
7946.36020 1.07588e-17
7948.35862 1.07696e-17
7950.36712 1.06612e-17
7952.36554 1.04759e-17
7954.36395 1.02583e-17
7956.36237 1.00905e-17
7958.37087 1.00081e-17
7960.36929 1.01726e-17
7962.36770 1.03687e-17
7964.36611 1.04828e-17
7966.36453 1.04799e-17
7968.37304 1.03391e-17
7970.37145 1.01074e-17
7972.36986 9.90146e-18
7974.36828 9.89519e-18
7976.36669 9.91406e-18
7978.37520 9.83763e-18
7980.37361 9.71891e-18
7982.37203 9.58657e-18
7984.37044 9.49737e-18
7986.37895 9.49494e-18
7988.37736 9.63441e-18
7990.37578 9.78516e-18
7992.37419 9.78015e-18
7994.37260 9.74789e-18
7996.38111 9.79307e-18
7998.37952 9.88462e-18
8000.37794 9.92526e-18
8002.37635 9.85369e-18
8004.37477 9.75548e-18
8006.38327 9.71829e-18
8008.38169 9.68837e-18
8010.38010 9.63097e-18
8012.37852 9.58500e-18
8014.38702 9.61139e-18
8016.38544 9.71398e-18
8018.38385 9.81304e-18
8020.38226 9.81398e-18
8022.38068 9.75862e-18
8024.38919 9.61531e-18
8026.38760 9.45986e-18
8028.38601 9.35422e-18
8030.38443 9.32759e-18
8032.39293 9.33848e-18
8034.39135 9.36072e-18
8036.38976 9.38343e-18
8038.38818 9.38421e-18
8040.38659 9.36119e-18
8042.39510 9.30840e-18
8044.39351 9.23001e-18
8046.39193 9.11607e-18
8048.39034 8.98795e-18
8050.38875 8.91168e-18
8052.39726 9.04763e-18
8054.39567 9.21631e-18
8056.39409 9.33221e-18
8058.39250 9.35484e-18
8060.40101 9.28068e-18
8062.39942 9.12328e-18
8064.39784 8.94848e-18
8066.39625 8.85631e-18
8068.39467 8.77174e-18
8070.40317 8.63790e-18
8072.40159 8.51213e-18
8074.40000 8.45920e-18
8076.39841 8.49075e-18
8078.39683 8.55286e-18
8080.40534 8.59483e-18
8082.40375 8.61120e-18
8084.40216 8.55466e-18
8086.40058 8.47008e-18
8088.40908 8.36796e-18
8090.40750 8.30030e-18
8092.40591 8.30704e-18
8094.40433 8.43077e-18
8096.40274 8.58676e-18
8098.41125 8.68630e-18
8100.40966 8.76641e-18
8102.40808 8.84590e-18
8104.40649 8.90667e-18
8106.40490 8.92617e-18
8108.41341 8.88764e-18
8110.41182 8.80909e-18
8112.41024 8.69295e-18
8114.40865 8.57001e-18
8116.41716 8.47032e-18
8118.41557 8.39012e-18
8120.41399 8.31369e-18
8122.41240 8.24313e-18
8124.41082 8.19168e-18
8126.41932 8.17500e-18
8128.41774 8.18612e-18
8130.41615 8.24094e-18
8132.41456 8.30187e-18
8134.42307 8.34016e-18
8136.42149 8.34361e-18
8138.41990 8.32231e-18
8140.41831 8.28668e-18
8142.41673 8.26827e-18
8144.42523 8.33726e-18
8146.42365 8.42059e-18
8148.42206 8.48167e-18
8150.42048 8.49491e-18
8152.41889 8.45176e-18
8154.42740 8.35676e-18
8156.42581 8.26122e-18
8158.42423 8.25606e-18
8160.42264 8.25856e-18
8162.43115 8.23977e-18
8164.42956 8.17618e-18
8166.42797 8.03945e-18
8168.42639 7.85166e-18
8170.42480 7.68421e-18
8172.43331 7.63673e-18
8174.43172 7.63636e-18
8176.43014 7.67027e-18
8178.42855 7.70037e-18
8180.43706 7.69417e-18
8182.43547 7.64714e-18
8184.43389 7.58873e-18
8186.43230 7.54684e-18
8188.43071 7.52637e-18
8190.43922 7.54347e-18
8192.43764 7.60405e-18
8194.43605 7.73416e-18
8196.43446 7.89841e-18
8198.43288 8.06310e-18
8200.44138 8.17696e-18
8202.43980 8.24188e-18
8204.43821 8.21768e-18
8206.43663 8.13757e-18
8208.44513 7.99379e-18
8210.44355 7.83341e-18
8212.44196 7.68590e-18
8214.44038 7.59026e-18
8216.43879 7.53110e-18
8218.44730 7.51385e-18
8220.44571 7.53998e-18
8222.44412 7.64489e-18
8224.44254 7.75712e-18
8226.44095 7.81951e-18
8228.44946 7.80047e-18
8230.44787 7.73343e-18
8232.44629 7.63564e-18
8234.44470 7.52388e-18
8236.45321 7.42314e-18
8238.45162 7.33436e-18
8240.45004 7.26125e-18
8242.44845 7.20261e-18
8244.44686 7.15326e-18
8246.45537 7.10846e-18
8248.45378 7.06991e-18
8250.45220 7.02346e-18
8252.45061 7.00304e-18
8254.45912 7.06018e-18
8256.45753 7.13995e-18
8258.45595 7.17832e-18
8260.45436 7.12724e-18
8262.45278 7.03127e-18
8264.46128 6.90372e-18
8266.45970 6.78823e-18
8268.45811 6.76007e-18
8270.45653 6.75189e-18
8272.45494 6.67794e-18
8274.46345 6.53524e-18
8276.46186 6.40958e-18
8278.46027 6.38924e-18
8280.45869 6.42891e-18
8282.46720 6.56346e-18
8284.46561 6.69492e-18
8286.46402 6.73435e-18
8288.46244 6.68272e-18
8290.46085 6.62111e-18
8292.46936 6.60636e-18
8294.46777 6.57661e-18
8296.46619 6.46822e-18
8298.46460 6.33894e-18
8300.46301 6.21191e-18
8302.47152 6.10887e-18
8304.46994 6.03327e-18
8306.46835 5.99371e-18
8308.46676 5.97845e-18
8310.47527 5.99304e-18
8312.47368 5.98676e-18
8314.47210 5.89996e-18
8316.47051 5.76892e-18
8318.46893 5.62995e-18
8320.47743 5.51698e-18
8322.47585 5.42396e-18
8324.47426 5.36532e-18
8326.47268 5.32214e-18
8328.47109 5.28883e-18
8330.47960 5.24935e-18
8332.47801 5.17370e-18
8334.47642 5.08854e-18
8336.47484 5.05622e-18
8338.48335 5.12658e-18
8340.48176 5.18874e-18
8342.48017 5.10495e-18
8344.47859 4.97418e-18
8346.47700 4.85458e-18
8348.48551 4.74811e-18
8350.48392 4.60572e-18
8352.48234 4.42649e-18
8354.48075 4.27866e-18
8356.48926 4.28229e-18
8358.48767 4.31926e-18
8360.48609 4.34238e-18
8362.48450 4.32374e-18
8364.48291 4.24867e-18
8366.49142 4.12479e-18
8368.48983 3.99979e-18
8370.48825 3.93634e-18
8372.48666 3.88421e-18
8374.48508 3.81837e-18
8376.49358 3.74360e-18
8378.49200 3.65866e-18
8380.49041 3.57777e-18
8382.48883 3.51714e-18
8384.49733 3.49807e-18
8386.49575 3.49829e-18
8388.49416 3.50799e-18
8390.49257 3.51787e-18
8392.49099 3.52219e-18
8394.49950 3.51349e-18
8396.49791 3.47965e-18
8398.49632 3.42731e-18
8400.49474 3.40106e-18
8402.50324 3.50093e-18
8404.50166 3.61756e-18
8406.50007 3.68305e-18
8408.49849 3.71655e-18
8410.49690 3.76858e-18
8412.50541 3.85299e-18
8414.50382 3.92703e-18
8416.50224 3.94167e-18
8418.50065 3.95094e-18
8420.49906 4.00299e-18
8422.50757 4.06041e-18
8424.50598 4.08254e-18
8426.50440 4.06181e-18
8428.50281 4.02654e-18
8430.51132 4.00254e-18
8432.50973 3.99796e-18
8434.50815 4.04891e-18
8436.50656 4.11811e-18
8438.50497 4.17393e-18
8440.51348 4.21896e-18
8442.51190 4.28078e-18
8444.51031 4.37620e-18
8446.50872 4.48095e-18
8448.50714 4.57692e-18
8450.51564 4.66202e-18
8452.51406 4.70738e-18
8454.51247 4.75779e-18
8456.51089 4.87058e-18
8458.51939 5.06826e-18
8460.51781 5.28276e-18
8462.51622 5.44530e-18
8464.51464 5.57216e-18
8466.51305 5.65216e-18
8468.52156 5.68606e-18
8470.51997 5.66612e-18
8472.51839 5.61021e-18
8474.51680 5.53816e-18
8476.52531 5.48259e-18
8478.52372 5.45974e-18
8480.52213 5.53576e-18
8482.52055 5.62811e-18
8484.51896 5.67234e-18
8486.52747 5.65197e-18
8488.52588 5.59867e-18
8490.52430 5.53950e-18
8492.52271 5.49723e-18
8494.52113 5.51399e-18
8496.52963 5.58413e-18
8498.52805 5.74338e-18
8500.52646 5.93086e-18
8502.52487 6.08238e-18
8504.53338 6.14352e-18
8506.53180 6.16832e-18
8508.53021 6.18123e-18
8510.52862 6.20645e-18
8512.52704 6.29837e-18
8514.53554 6.40463e-18
8516.53396 6.47711e-18
8518.53237 6.47649e-18
8520.53079 6.41647e-18
8522.52920 6.28571e-18
8524.53771 6.15558e-18
8526.53612 6.09139e-18
8528.53454 6.09367e-18
8530.53295 6.18935e-18
8532.54146 6.32810e-18
8534.53987 6.43183e-18
8536.53828 6.41954e-18
8538.53670 6.40091e-18
8540.53511 6.48994e-18
8542.54362 6.60396e-18
8544.54203 6.68805e-18
8546.54045 6.75190e-18
8548.53886 6.83599e-18
8550.53728 6.96488e-18
8552.54578 7.11300e-18
8554.54420 7.27644e-18
8556.54261 7.41968e-18
8558.54102 7.50041e-18
8560.54953 7.54075e-18
8562.54795 7.56602e-18
8564.54636 7.60224e-18
8566.54477 7.64443e-18
8568.54319 7.70064e-18
8570.55169 7.79001e-18
8572.55011 7.95738e-18
8574.54852 8.15002e-18
8576.54694 8.31925e-18
8578.54535 8.45387e-18
8580.55386 8.59279e-18
8582.55227 8.76422e-18
8584.55069 8.94222e-18
8586.54910 9.12907e-18
8588.55761 9.28546e-18
8590.55602 9.34873e-18
8592.55443 9.37293e-18
8594.55285 9.45320e-18
8596.55126 9.65478e-18
8598.55977 9.87052e-18
8600.55818 9.96833e-18
8602.55660 1.00540e-17
8604.55501 1.01885e-17
8606.55343 1.03395e-17
8608.56193 1.04486e-17
8610.56035 1.04969e-17
8612.55876 1.05359e-17
8614.55717 1.06154e-17
8616.56568 1.07223e-17
8618.56409 1.08821e-17
8620.56251 1.10535e-17
8622.56092 1.11923e-17
8624.55934 1.12969e-17
8626.56784 1.14187e-17
8628.56626 1.16032e-17
8630.56467 1.17814e-17
8632.56309 1.18616e-17
8634.57159 1.19407e-17
8636.57001 1.21069e-17
8638.56842 1.23436e-17
8640.56684 1.25684e-17
8642.56525 1.27245e-17
8644.57376 1.28825e-17
8646.57217 1.31206e-17
8648.57058 1.33706e-17
8650.56900 1.36412e-17
8652.56741 1.38426e-17
8654.57592 1.38764e-17
8656.57433 1.37181e-17
8658.57275 1.35194e-17
8660.57116 1.34567e-17
8662.57967 1.34612e-17
8664.57808 1.35635e-17
8666.57650 1.37033e-17
8668.57491 1.38356e-17
8670.57332 1.39220e-17
8672.58183 1.39911e-17
8674.58025 1.40491e-17
8676.57866 1.40521e-17
8678.57707 1.39184e-17
8680.57549 1.37407e-17
8682.58399 1.35792e-17
8684.58241 1.34746e-17
8686.58082 1.34050e-17
8688.57924 1.33778e-17
8690.58774 1.34006e-17
8692.58616 1.35177e-17
8694.58457 1.36509e-17
8696.58299 1.37472e-17
8698.58140 1.37996e-17
8700.58991 1.38312e-17
8702.58832 1.38560e-17
8704.58673 1.38772e-17
8706.58515 1.39099e-17
8708.59366 1.39421e-17
8710.59207 1.39733e-17
8712.59048 1.39936e-17
8714.58890 1.39693e-17
8716.58731 1.39355e-17
8718.59582 1.39714e-17
8720.59423 1.41899e-17
8722.59265 1.44656e-17
8724.59106 1.47575e-17
8726.58947 1.49860e-17
8728.59798 1.50688e-17
8730.59640 1.50223e-17
8732.59481 1.49474e-17
8734.59322 1.49337e-17
8736.60173 1.49005e-17
8738.60014 1.47799e-17
8740.59856 1.46286e-17
8742.59697 1.44542e-17
8744.59539 1.43120e-17
8746.60389 1.42436e-17
8748.60231 1.42841e-17
8750.60072 1.43705e-17
8752.59914 1.44589e-17
8754.60764 1.45197e-17
8756.60606 1.45087e-17
8758.60447 1.44346e-17
8760.60288 1.43064e-17
8762.60130 1.41545e-17
8764.60981 1.40036e-17
8766.60822 1.38996e-17
8768.60663 1.38378e-17
8770.60505 1.38509e-17
8772.60346 1.38966e-17
8774.61197 1.39476e-17
8776.61038 1.39762e-17
8778.60880 1.39874e-17
8780.60721 1.39711e-17
8782.61572 1.39380e-17
8784.61413 1.38738e-17
8786.61254 1.38285e-17
8788.61096 1.38426e-17
8790.60937 1.39196e-17
8792.61788 1.40415e-17
8794.61629 1.41856e-17
8796.61471 1.43323e-17
8798.61312 1.44625e-17
8800.61154 1.45324e-17
8802.62004 1.44889e-17
8804.61846 1.43532e-17
8806.61687 1.41437e-17
8808.61529 1.39102e-17
8810.62379 1.36909e-17
8812.62221 1.35751e-17
8814.62062 1.34664e-17
8816.61903 1.32933e-17
8818.61745 1.30919e-17
8820.62596 1.28779e-17
8822.62437 1.27053e-17
8824.62278 1.26080e-17
8826.62120 1.26501e-17
8828.62970 1.27861e-17
8830.62812 1.30854e-17
8832.62653 1.33416e-17
8834.62495 1.33561e-17
8836.62336 1.31643e-17
8838.63187 1.29432e-17
8840.63028 1.28410e-17
8842.62870 1.27666e-17
8844.62711 1.27089e-17
8846.62552 1.26343e-17
8848.63403 1.24775e-17
8850.63244 1.23073e-17
8852.63086 1.22274e-17
8854.62927 1.22724e-17
8856.63778 1.23169e-17
8858.63619 1.22132e-17
8860.63461 1.20618e-17
8862.63302 1.18888e-17
8864.63144 1.17154e-17
8866.63994 1.15494e-17
8868.63836 1.14012e-17
8870.63677 1.12609e-17
8872.63518 1.11244e-17
8874.63360 1.09922e-17
8876.64211 1.08488e-17
8878.64052 1.07272e-17
8880.63893 1.06651e-17
8882.63735 1.06485e-17
8884.64585 1.06375e-17
8886.64427 1.05919e-17
8888.64268 1.05322e-17
8890.64110 1.04430e-17
8892.63951 1.03666e-17
8894.64802 1.03392e-17
8896.64643 1.03540e-17
8898.64485 1.04010e-17
8900.64326 1.04475e-17
8902.65177 1.04573e-17
8904.65018 1.03370e-17
8906.64859 1.01972e-17
8908.64701 1.00679e-17
8910.64542 1.00224e-17
8912.65393 1.01546e-17
8914.65234 1.04253e-17
8916.65076 1.06675e-17
8918.64917 1.06702e-17
8920.64759 1.05431e-17
8922.65609 1.02644e-17
8924.65451 9.92918e-18
8926.65292 9.60967e-18
8928.65133 9.33675e-18
8930.65984 9.04269e-18
8932.65826 8.70713e-18
8934.65667 8.44298e-18
8936.65508 8.43210e-18
8938.65350 8.50837e-18
8940.66200 8.59287e-18
8942.66042 8.62381e-18
8944.65883 8.59483e-18
8946.65725 8.49412e-18
8948.66575 8.38449e-18
8950.66417 8.36710e-18
8952.66258 8.34478e-18
8954.66100 8.23977e-18
8956.65941 8.11369e-18
8958.66792 8.06325e-18
8960.66633 8.09959e-18
8962.66474 8.10507e-18
8964.66316 7.93631e-18
8966.66157 7.76348e-18
8968.67008 7.73456e-18
8970.66849 7.75153e-18
8972.66691 7.72388e-18
8974.66532 7.61725e-18
8976.67383 7.47903e-18
8978.67224 7.33580e-18
8980.67066 7.18511e-18
8982.66907 7.01169e-18
8984.66748 6.87632e-18
8986.67599 6.85090e-18
8988.67441 6.89685e-18
8990.67282 6.93521e-18
8992.67123 6.89894e-18
8994.66965 6.84417e-18
8996.67815 6.80076e-18
8998.67657 6.76534e-18
9000.67498 6.72906e-18
9002.67340 6.72448e-18
9004.68190 6.80466e-18
9006.68032 6.95680e-18
9008.67873 7.08442e-18
9010.67714 7.05370e-18
9012.67556 6.96064e-18
9014.68407 6.82253e-18
9016.68248 6.68459e-18
9018.68089 6.58808e-18
9020.67931 6.53346e-18
9022.67772 6.45926e-18
9024.68623 6.31028e-18
9026.68464 6.18162e-18
9028.68306 6.17962e-18
9030.68147 6.22670e-18
9032.68998 6.26686e-18
9034.68839 6.29020e-18
9036.68681 6.33187e-18
9038.68522 6.40733e-18
9040.68363 6.49050e-18
9042.69214 6.55260e-18
9044.69056 6.61129e-18
9046.68897 6.67699e-18
9048.68738 6.74260e-18
9050.68580 6.79403e-18
9052.69430 6.82896e-18
9054.69272 6.86806e-18
9056.69113 6.94770e-18
9058.68955 7.00834e-18
9060.69805 6.97493e-18
9062.69647 6.92345e-18
9064.69488 6.94167e-18
9066.69330 7.04591e-18
9068.69171 7.15551e-18
9070.70022 7.19472e-18
9072.69863 7.20281e-18
9074.69704 7.17341e-18
9076.69546 7.13652e-18
9078.69387 7.09810e-18
9080.70238 7.09673e-18
9082.70079 7.16725e-18
9084.69921 7.33858e-18
9086.69762 7.51991e-18
9088.70613 7.61660e-18
9090.70454 7.64679e-18
9092.70296 7.58205e-18
9094.70137 7.46574e-18
9096.69978 7.33327e-18
9098.70829 7.24157e-18
9100.70671 7.19472e-18
9102.70512 7.24972e-18
9104.70353 7.34215e-18
9106.70195 7.43966e-18
9108.71045 7.53354e-18
9110.70887 7.63985e-18
9112.70728 7.73883e-18
9114.70570 7.79931e-18
9116.71420 7.77170e-18
9118.71262 7.73080e-18
9120.71103 7.75727e-18
9122.70945 7.78661e-18
9124.70786 7.76950e-18
9126.71637 7.67990e-18
9128.71478 7.52413e-18
9130.71319 7.30933e-18
9132.71161 7.10769e-18
9134.72012 7.02664e-18
9136.71853 7.00581e-18
9138.71694 7.04524e-18
9140.71536 7.08120e-18
9142.71377 7.05048e-18
9144.72228 6.91535e-18
9146.72069 6.77815e-18
9148.71911 6.75020e-18
9150.71752 6.79721e-18
9152.71593 6.99186e-18
9154.72444 7.19872e-18
9156.72286 7.27437e-18
9158.72127 7.16091e-18
9160.71968 7.00559e-18
9162.72819 6.94606e-18
9164.72660 6.91409e-18
9166.72502 6.89617e-18
9168.72343 6.90058e-18
9170.72185 6.94568e-18
9172.73035 7.01661e-18
9174.72877 7.08842e-18
9176.72718 7.12778e-18
9178.72559 7.14307e-18
9180.73410 7.10763e-18
9182.73252 7.06876e-18
9184.73093 7.05433e-18
9186.72934 7.08430e-18
9188.72776 7.16566e-18
9190.73626 7.29265e-18
9192.73468 7.41309e-18
9194.73309 7.41846e-18
9196.73151 7.41852e-18
9198.72992 7.49293e-18
9200.73843 7.59528e-18
9202.73684 7.64258e-18
9204.73526 7.61059e-18
9206.73367 7.58475e-18
9208.74218 7.66585e-18
9210.74059 7.75153e-18
9212.73901 7.75623e-18
9214.73742 7.74536e-18
9216.73583 7.78963e-18
9218.74434 7.90632e-18
9220.74275 8.04830e-18
9222.74117 8.17547e-18
9224.73958 8.27164e-18
9226.73800 8.27806e-18
9228.74650 8.25136e-18
9230.74492 8.23898e-18
9232.74333 8.23922e-18
9234.74175 8.21024e-18
9236.75025 8.12935e-18
9238.74867 8.03984e-18
9240.74708 7.97515e-18
9242.74549 7.94618e-18
9244.74391 7.98056e-18
9246.75242 8.05981e-18
9248.75083 8.16827e-18
9250.74924 8.27211e-18
9252.74766 8.35167e-18
9254.75616 8.34157e-18
9256.75458 8.33813e-18
9258.75299 8.43609e-18
9260.75141 8.56546e-18
9262.74982 8.65952e-18
9264.75833 8.66923e-18
9266.75674 8.61511e-18
9268.75516 8.49044e-18
9270.75357 8.34455e-18
9272.75198 8.21486e-18
9274.76049 8.12293e-18
9276.75890 8.08690e-18
9278.75732 8.11079e-18
9280.75573 8.19215e-18
9282.76424 8.31189e-18
9284.76265 8.40782e-18
9286.76107 8.35026e-18
9288.75948 8.26279e-18
9290.75790 8.23350e-18
9292.76640 8.23906e-18
9294.76482 8.19670e-18
9296.76323 8.08189e-18
9298.76164 7.98322e-18
9300.76006 8.00100e-18
9302.76857 8.09881e-18
9304.76698 8.36859e-18
9306.76539 8.61966e-18
9308.76381 8.66280e-18
9310.77231 8.42693e-18
9312.77073 8.07390e-18
9314.76914 7.73286e-18
9316.76756 7.52636e-18
9318.76597 7.78762e-18
9320.77448 8.15096e-18
9322.77289 8.29897e-18
9324.77131 8.15777e-18
9326.76972 7.94250e-18
9328.77823 7.80587e-18
9330.77664 7.68747e-18
9332.77505 7.56844e-18
9334.77347 7.51759e-18
9336.77188 7.63597e-18
9338.78039 7.83701e-18
9340.77880 8.02136e-18
9342.77722 8.05440e-18
9344.77563 7.93835e-18
9346.77405 7.42325e-18
9348.78255 7.00417e-18
9350.78097 7.13725e-18
9352.77938 7.57325e-18
9354.77779 7.97766e-18
9356.78630 8.12465e-18
9358.78471 8.17375e-18
9360.78313 8.16850e-18
9362.78154 8.10836e-18
9364.77996 7.98776e-18
9366.78846 7.85737e-18
9368.78688 7.69779e-18
9370.78529 7.62498e-18
9372.78371 7.78305e-18
9374.79221 8.33233e-18
9376.79063 8.90369e-18
9378.78904 9.14693e-18
9380.78746 9.14278e-18
9382.78587 8.82882e-18
9384.79438 8.37352e-18
9386.79279 7.95119e-18
9388.79120 7.75691e-18
9390.78962 7.64762e-18
9392.78803 7.54922e-18
9394.79654 7.49963e-18
9396.79495 7.53582e-18
9398.79337 7.59811e-18
9400.79178 7.59796e-18
9402.80029 7.53055e-18
9404.79870 7.53604e-18
9406.79712 7.81935e-18
9408.79553 8.11055e-18
9410.79394 8.20852e-18
9412.80245 8.17955e-18
9414.80086 8.10750e-18
9416.79928 8.02762e-18
9418.79769 7.89089e-18
9420.79611 7.67807e-18
9422.80461 7.51099e-18
9424.80303 7.56165e-18
9426.80144 7.70056e-18
9428.79986 7.87993e-18
9430.80836 7.99559e-18
9432.80678 7.97868e-18
9434.80519 7.76605e-18
9436.80361 7.52936e-18
9438.80202 7.46417e-18
9440.81053 7.49178e-18
9442.80894 7.66553e-18
9444.80735 7.85064e-18
9446.80577 7.90773e-18
9448.81428 7.75038e-18
9450.81269 7.52403e-18
9452.81110 7.32038e-18
9454.80952 7.24607e-18
9456.80793 7.59177e-18
9458.81644 8.00569e-18
9460.81485 8.10726e-18
9462.81327 7.79935e-18
9464.81168 7.41375e-18
9466.81009 7.24740e-18
9468.81860 7.23442e-18
9470.81702 7.51231e-18
9472.81543 7.90741e-18
9474.81384 8.36248e-18
9476.82235 8.69687e-18
9478.82076 8.80525e-18
9480.81918 8.54369e-18
9482.81759 8.14352e-18
9484.81601 7.75088e-18
9486.82451 7.46264e-18
9488.82293 7.43823e-18
9490.82134 7.59296e-18
9492.81976 7.81041e-18
9494.81817 7.93091e-18
9496.82668 7.92441e-18
9498.82509 7.57553e-18
9500.82350 7.17580e-18
9502.82192 6.88008e-18
9504.83043 6.74136e-18
9506.82884 6.78122e-18
9508.82725 6.96502e-18
9510.82567 7.19244e-18
9512.82408 7.33147e-18
9514.83259 7.39731e-18
9516.83100 7.27490e-18
9518.82942 7.13591e-18
9520.82783 7.15772e-18
9522.82624 7.32327e-18
9524.83475 7.46130e-18
9526.83317 7.41387e-18
9528.83158 7.27921e-18
9530.82999 7.03052e-18
9532.83850 6.80376e-18
9534.83691 6.73732e-18
9536.83533 6.78343e-18
9538.83374 6.81863e-18
9540.83216 6.74775e-18
9542.84066 6.64066e-18
9544.83908 6.49899e-18
9546.83749 6.39629e-18
9548.83591 6.42310e-18
9550.83432 6.52190e-18
9552.84283 6.63400e-18
9554.84124 6.69060e-18
9556.83965 6.68886e-18
9558.83807 6.57458e-18
9560.84658 6.43205e-18
9562.84499 6.33146e-18
9564.84340 6.24647e-18
9566.84182 6.14665e-18
9568.84023 6.02587e-18
9570.84874 5.89462e-18
9572.84715 5.76441e-18
9574.84557 5.66462e-18
9576.84398 5.62712e-18
9578.84239 5.66363e-18
9580.85090 5.82849e-18
9582.84931 6.04619e-18
9584.84773 6.23170e-18
9586.84614 6.28403e-18
9588.85465 6.25218e-18
9590.85306 6.09122e-18
9592.85148 5.91692e-18
9594.84989 5.79014e-18
9596.84831 5.75697e-18
9598.85681 5.84919e-18
9600.85523 6.04808e-18
9602.85364 6.25524e-18
9604.85206 6.33726e-18
9606.86056 6.35016e-18
9608.85898 6.23464e-18
9610.85739 6.12412e-18
9612.85580 6.15738e-18
9614.85422 6.34390e-18
9616.86273 6.54516e-18
9618.86114 6.62427e-18
9620.85955 6.61795e-18
9622.85797 6.43925e-18
9624.85638 6.23654e-18
9626.86489 6.11498e-18
9628.86330 6.11630e-18
9630.86172 6.21586e-18
9632.86013 6.37693e-18
9634.86864 6.49403e-18
9636.86705 6.30393e-18
9638.86547 6.11033e-18
9640.86388 6.12989e-18
9642.86229 6.30097e-18
9644.87080 6.47876e-18
9646.86921 6.55607e-18
9648.86763 6.58508e-18
9650.86604 6.55576e-18
9652.86446 6.49900e-18
9654.87296 6.41412e-18
9656.87138 6.35529e-18
9658.86979 6.37574e-18
9660.86821 6.47960e-18
9662.87671 6.60400e-18
9664.87513 6.68387e-18
9666.87354 6.73276e-18
9668.87195 6.72808e-18
9670.87037 6.68838e-18
9672.87888 6.60908e-18
9674.87729 6.52861e-18
9676.87570 6.48364e-18
9678.87412 6.51678e-18
9680.88262 6.57264e-18
9682.88104 6.60748e-18
9684.87945 6.63026e-18
9686.87787 6.62889e-18
9688.87628 6.62302e-18
9690.88479 6.64669e-18
9692.88320 6.70580e-18
9694.88162 6.74379e-18
9696.88003 6.67744e-18
9698.87844 6.57450e-18
9700.88695 6.43768e-18
9702.88536 6.32564e-18
9704.88378 6.28136e-18
9706.88219 6.33220e-18
9708.89070 6.44616e-18
9710.88911 6.60921e-18
9712.88753 6.73692e-18
9714.88594 6.67925e-18
9716.88436 6.57787e-18
9718.89286 6.57523e-18
9720.89128 6.67030e-18
9722.88969 6.71928e-18
9724.88810 6.61912e-18
9726.89661 6.54795e-18
9728.89503 6.73657e-18
9730.89344 6.97310e-18
9732.89185 7.12819e-18
9734.89027 7.17308e-18
9736.89877 7.14996e-18
9738.89719 7.09915e-18
9740.89560 7.06703e-18
9742.89402 7.19041e-18
9744.89243 7.30593e-18
9746.90094 7.31927e-18
9748.89935 7.23336e-18
9750.89776 7.05518e-18
9752.89618 6.84369e-18
9754.90469 6.67888e-18
9756.90310 6.70518e-18
9758.90151 6.76174e-18
9760.89993 6.75650e-18
9762.89834 6.68239e-18
9764.90685 6.50979e-18
9766.90526 6.29649e-18
9768.90368 6.13848e-18
9770.90209 6.15074e-18
9772.90051 6.20684e-18
9774.90901 6.20700e-18
9776.90743 6.19889e-18
9778.90584 6.19804e-18
9780.90425 6.23172e-18
9782.91276 6.32949e-18
9784.91118 6.49790e-18
9786.90959 6.65687e-18
9788.90800 6.68063e-18
9790.90642 6.65711e-18
9792.91492 6.62365e-18
9794.91334 6.57387e-18
9796.91175 6.46700e-18
9798.91017 6.31675e-18
9800.91867 6.18640e-18
9802.91709 6.16900e-18
9804.91550 6.19541e-18
9806.91392 6.25130e-18
9808.91233 6.30558e-18
9810.92084 6.32794e-18
9812.91925 6.32204e-18
9814.91766 6.33923e-18
9816.91608 6.42868e-18
9818.91449 6.49928e-18
9820.92300 6.46894e-18
9822.92141 6.36185e-18
9824.91983 6.16010e-18
9826.91824 5.92664e-18
9828.92675 5.71942e-18
9830.92516 5.61763e-18
9832.92358 5.58301e-18
9834.92199 5.62009e-18
9836.92040 5.71406e-18
9838.92891 5.91296e-18
9840.92733 6.09645e-18
9842.92574 6.11332e-18
9844.92415 5.91928e-18
9846.92257 5.73820e-18
9848.93107 5.86476e-18
9850.92949 6.04843e-18
9852.92790 6.18202e-18
9854.92632 6.24406e-18
9856.93482 6.24241e-18
9858.93324 6.17920e-18
9860.93165 6.07267e-18
9862.93007 5.94393e-18
9864.92848 5.80257e-18
9866.93699 5.63248e-18
9868.93540 5.51474e-18
9870.93381 5.54311e-18
9872.93223 5.68330e-18
9874.94074 5.82723e-18
9876.93915 5.87244e-18
9878.93756 5.89597e-18
9880.93598 5.95258e-18
9882.93439 5.98997e-18
9884.94290 5.98094e-18
9886.94131 5.91452e-18
9888.93973 5.76828e-18
9890.93814 5.57458e-18
9892.93655 5.43316e-18
9894.94506 5.55010e-18
9896.94348 5.69436e-18
9898.94189 5.71337e-18
9900.94030 5.65666e-18
9902.94881 5.61565e-18
9904.94722 5.62101e-18
9906.94564 5.60598e-18
9908.94405 5.50775e-18
9910.94247 5.45674e-18
9912.95097 5.60599e-18
9914.94939 5.83670e-18
9916.94780 6.09360e-18
9918.94621 6.26268e-18
9920.95472 6.27503e-18
9922.95314 6.03883e-18
9924.95155 5.76897e-18
9926.94996 5.71285e-18
9928.94838 5.72876e-18
9930.95689 5.74247e-18
9932.95530 5.74161e-18
9934.95371 5.77870e-18
9936.95213 5.84949e-18
9938.95054 5.87695e-18
9940.95905 5.65832e-18
9942.95746 5.49507e-18
9944.95588 5.64391e-18
9946.95429 5.96033e-18
9948.96280 6.29988e-18
9950.96121 6.46224e-18
9952.95963 6.37981e-18
9954.95804 5.79107e-18
9956.95645 5.22553e-18
9958.96496 5.19575e-18
9960.96337 5.44387e-18
9962.96179 5.76845e-18
9964.96020 5.97698e-18
9966.95862 6.04822e-18
9968.96712 5.87266e-18
9970.96554 5.66201e-18
9972.96395 5.64627e-18
9974.96236 5.68852e-18
9976.97087 5.67218e-18
9978.96929 5.64060e-18
9980.96770 5.73823e-18
9982.96611 6.02196e-18
9984.96453 6.27710e-18
9986.97304 6.17975e-18
9988.97145 5.98867e-18
9990.96986 5.80756e-18
9992.96828 5.66266e-18
9994.97678 5.50338e-18
9996.97520 5.35352e-18
9998.97361 5.27151e-18
10000.97203 5.36130e-18
10002.97044 5.49935e-18
