# wavelength flux
3633.38667 8.49605e-18
3635.37518 1.92050e-18
3637.37374 -2.19183e-18
3639.36225 8.23538e-19
3641.35077 4.18033e-18
3643.33928 5.06353e-18
3645.32780 2.73243e-18
3647.31631 1.97521e-19
3649.30482 -2.40362e-18
3651.30338 2.90001e-18
3653.29189 3.69949e-18
3655.28041 8.76229e-19
3657.26892 -5.74027e-19
3659.25744 1.41244e-18
3661.24595 4.07254e-18
3663.23447 6.58803e-19
3665.22298 -2.81036e-19
3667.22154 2.11737e-18
3669.21005 8.44896e-19
3671.19856 5.62937e-19
3673.18708 8.72764e-19
3675.17559 1.44124e-18
3677.16411 1.83012e-18
3679.15262 2.79984e-18
3681.15118 2.61257e-18
3683.13969 3.49469e-18
3685.12820 4.62888e-18
3687.11672 1.14150e-18
3689.10523 2.92754e-18
3691.09375 3.52425e-18
3693.08226 4.22101e-18
3695.08082 1.53411e-18
3697.06933 3.42630e-18
3699.05785 3.06542e-18
3701.04636 1.80172e-18
3703.03487 1.32801e-18
3705.02339 3.68453e-18
3707.01190 3.28179e-18
3709.00042 2.12527e-18
3710.99897 5.39424e-19
3712.98749 1.66199e-18
3714.97600 1.27685e-18
3716.96452 2.87375e-18
3718.95303 3.62250e-18
3720.94154 2.92989e-18
3722.93006 2.71762e-18
3724.92861 3.04445e-18
3726.91713 2.77081e-18
3728.90564 3.46751e-18
3730.89416 3.02618e-18
3732.88267 2.22635e-18
3734.87118 2.79479e-18
3736.85970 2.24795e-18
3738.85825 2.09223e-18
3740.84677 2.82639e-18
3742.83528 2.43285e-18
3744.82380 2.01508e-18
3746.81231 2.31754e-18
3748.80082 2.23656e-18
3750.78934 2.77959e-18
3752.78790 2.56360e-18
3754.77641 2.91616e-18
3756.76492 2.83581e-18
3758.75344 2.24852e-18
3760.74195 1.89956e-18
3762.73047 2.31800e-18
3764.71898 1.97793e-18
3766.71754 2.21042e-18
3768.70605 1.85280e-18
3770.69457 2.10870e-18
3772.68308 1.67439e-18
3774.67159 1.83066e-18
3776.66011 1.99769e-18
3778.64862 1.97115e-18
3780.63713 2.15721e-18
3782.63569 2.51293e-18
3784.62421 2.38545e-18
3786.61272 2.21804e-18
3788.60123 2.14986e-18
3790.58975 1.83350e-18
3792.57826 1.49996e-18
3794.56678 1.25899e-18
3796.56533 1.60786e-18
3798.55385 1.80114e-18
3800.54236 1.61374e-18
3802.53087 1.15127e-18
3804.51939 1.96853e-18
3806.50790 1.59132e-18
3808.49642 8.80857e-19
3810.49497 4.27011e-19
3812.48349 3.82724e-19
3814.47200 7.31975e-19
3816.46052 1.46687e-18
3818.44903 1.39228e-18
3820.43754 1.28058e-18
3822.42606 1.38786e-18
3824.42461 1.71791e-18
3826.41313 1.67725e-18
3828.40164 1.45986e-18
3830.39016 1.45766e-18
3832.37867 1.64792e-18
3834.36718 1.49450e-18
3836.35570 1.21826e-18
3838.34421 8.63229e-19
3840.34277 9.99467e-19
3842.33128 1.42822e-18
3844.31980 1.18697e-18
3846.30831 1.39259e-18
3848.29683 1.62861e-18
3850.28534 1.52631e-18
3852.27385 1.64760e-18
3854.27241 1.93143e-18
3856.26093 1.95791e-18
3858.24944 1.98243e-18
3860.23795 1.91646e-18
3862.22647 2.25373e-18
3864.21498 2.33579e-18
3866.20350 2.54012e-18
3868.20205 2.33796e-18
3870.19057 2.49226e-18
3872.17908 2.75299e-18
3874.16759 2.90213e-18
3876.15611 2.83089e-18
3878.14462 3.17600e-18
3880.13314 3.16835e-18
3882.13169 3.03964e-18
3884.12021 3.00227e-18
3886.10872 3.32836e-18
3888.09723 3.03691e-18
3890.08575 3.33790e-18
3892.07426 3.82135e-18
3894.06278 3.96571e-18
3896.06133 3.85036e-18
3898.04985 3.32770e-18
3900.03836 3.37235e-18
3902.02688 3.91511e-18
3904.01539 4.26606e-18
3906.00390 4.44395e-18
3907.99242 4.35456e-18
3909.98093 4.57985e-18
3911.97949 5.01174e-18
3913.96800 4.98070e-18
3915.95652 4.63806e-18
3917.94503 4.45611e-18
3919.93354 5.43531e-18
3921.92206 4.84826e-18
3923.91057 4.93797e-18
3925.90913 5.13106e-18
3927.89764 5.38573e-18
3929.88616 4.88218e-18
3931.87467 4.85989e-18
3933.86319 5.07623e-18
3935.85170 5.40665e-18
3937.84021 5.45626e-18
3939.83877 5.84600e-18
3941.82728 6.02646e-18
3943.81580 5.78947e-18
3945.80431 5.54454e-18
3947.79283 5.63775e-18
3949.78134 5.57890e-18
3951.76986 5.41578e-18
3953.75837 5.45346e-18
3955.75693 6.01517e-18
3957.74544 6.01815e-18
3959.73395 6.10369e-18
3961.72247 5.84742e-18
3963.71098 6.13329e-18
3965.69950 6.27768e-18
3967.68801 6.11190e-18
3969.68657 6.40195e-18
3971.67508 6.61656e-18
3973.66359 5.92807e-18
3975.65211 6.12638e-18
3977.64062 6.48677e-18
3979.62914 6.44034e-18
3981.61765 6.10563e-18
3983.61621 6.44914e-18
3985.60472 6.32763e-18
3987.59324 6.24607e-18
3989.58175 6.41669e-18
3991.57026 5.98783e-18
3993.55878 5.84845e-18
3995.54729 6.51446e-18
3997.54585 6.52218e-18
3999.53436 6.45330e-18
4001.52288 6.63197e-18
4003.51139 6.49485e-18
4005.49990 6.42787e-18
4007.48842 6.27606e-18
4009.47693 6.27480e-18
4011.46545 6.49405e-18
4013.46400 6.53003e-18
4015.45252 6.06118e-18
4017.44103 6.20209e-18
4019.42955 6.35206e-18
4021.41806 6.43759e-18
4023.40657 6.47169e-18
4025.39509 6.35701e-18
4027.39365 6.06261e-18
4029.38216 6.10685e-18
4031.37067 5.72055e-18
4033.35919 6.15241e-18
4035.34770 6.31831e-18
4037.33622 6.04990e-18
4039.32473 6.19591e-18
4041.32329 6.67056e-18
4043.31180 6.85286e-18
4045.30031 6.17873e-18
4047.28883 6.28273e-18
4049.27734 6.38997e-18
4051.26586 6.23528e-18
4053.25437 5.97949e-18
4055.25293 5.86121e-18
4057.24144 5.93012e-18
4059.22995 5.96184e-18
4061.21847 5.53313e-18
4063.20698 5.37981e-18
4065.19550 5.43059e-18
4067.18401 6.05237e-18
4069.17252 5.51310e-18
4071.17108 5.17519e-18
4073.15960 5.66201e-18
4075.14811 5.72488e-18
4077.13662 5.60290e-18
4079.12514 5.41472e-18
4081.11365 5.59995e-18
4083.10217 5.32966e-18
4085.10072 5.03823e-18
4087.08924 5.36711e-18
4089.07775 5.23993e-18
4091.06626 4.96174e-18
4093.05478 5.25901e-18
4095.04329 5.21701e-18
4097.03181 4.87330e-18
4099.03036 4.94407e-18
4101.01888 4.59008e-18
4103.00739 4.68765e-18
4104.99591 4.93645e-18
4106.98442 5.00309e-18
4108.97293 4.68522e-18
4110.96145 4.24604e-18
4112.96000 4.13564e-18
4114.94852 4.47970e-18
4116.93703 4.10524e-18
4118.92555 4.05447e-18
4120.91406 4.23048e-18
4122.90258 3.85739e-18
4124.89109 3.79415e-18
4126.87960 3.82437e-18
4128.87816 3.85514e-18
4130.86667 4.10384e-18
4132.85519 3.98627e-18
4134.84370 3.81980e-18
4136.83222 4.04157e-18
4138.82073 3.71078e-18
4140.80924 3.75285e-18
4142.80780 3.64911e-18
4144.79632 3.52248e-18
4146.78483 3.58935e-18
4148.77334 3.51890e-18
4150.76186 3.06862e-18
4152.75037 3.44354e-18
4154.73888 3.32314e-18
4156.73744 3.35577e-18
4158.72596 3.43919e-18
4160.71447 3.31057e-18
4162.70298 3.31914e-18
4164.69150 3.27626e-18
4166.68001 2.93021e-18
4168.66853 3.04491e-18
4170.66708 3.01653e-18
4172.65560 2.68405e-18
4174.64411 2.89477e-18
4176.63263 2.50700e-18
4178.62114 2.44753e-18
4180.60965 2.74033e-18
4182.59817 2.62594e-18
4184.58668 2.51609e-18
4186.58524 2.64909e-18
4188.57375 2.53632e-18
4190.56227 2.55636e-18
4192.55078 2.52587e-18
4194.53929 2.28160e-18
4196.52781 2.25052e-18
4198.51632 2.32224e-18
4200.51488 2.45797e-18
4202.50339 2.36295e-18
4204.49191 2.35327e-18
4206.48042 2.74722e-18
4208.46893 2.65301e-18
4210.45745 2.98278e-18
4212.44596 3.03661e-18
4214.44452 2.97528e-18
4216.43303 3.13771e-18
4218.42155 3.20491e-18
4220.41006 3.22436e-18
4222.39858 3.06098e-18
4224.38709 3.00042e-18
4226.37560 3.25562e-18
4228.37416 3.50153e-18
4230.36268 3.53529e-18
4232.35119 3.36344e-18
4234.33970 3.33951e-18
4236.32822 3.33672e-18
4238.31673 3.37726e-18
4240.30524 3.45175e-18
4242.29376 3.42513e-18
4244.29232 3.36521e-18
4246.28083 3.43817e-18
4248.26934 3.29627e-18
4250.25786 3.16610e-18
4252.24637 3.16447e-18
4254.23489 3.37104e-18
4256.22340 3.55547e-18
4258.22196 3.51386e-18
4260.21047 3.50176e-18
4262.19898 3.41738e-18
4264.18750 3.28529e-18
4266.17601 3.23252e-18
4268.16453 3.49135e-18
4270.15304 3.75039e-18
4272.15160 3.57815e-18
4274.14011 3.09332e-18
4276.12863 3.35910e-18
4278.11714 3.49360e-18
4280.10565 3.38482e-18
4282.09417 3.46427e-18
4284.08268 3.50014e-18
4286.08124 3.36474e-18
4288.06975 3.32055e-18
4290.05827 3.41157e-18
4292.04678 3.31057e-18
4294.03529 3.31962e-18
4296.02381 3.42921e-18
4298.01232 3.39811e-18
4300.01088 3.28505e-18
4301.99939 3.50989e-18
4303.98791 3.72016e-18
4305.97642 3.91561e-18
4307.96494 3.50525e-18
4309.95345 3.39855e-18
4311.94196 3.46714e-18
4313.93048 3.47012e-18
4315.92904 3.52000e-18
4317.91755 3.69292e-18
4319.90606 3.77161e-18
4321.89458 3.64617e-18
4323.88309 3.45512e-18
4325.87161 3.47930e-18
4327.86012 3.65884e-18
4329.85868 3.56206e-18
4331.84719 3.67129e-18
4333.83570 3.63570e-18
4335.82422 3.58555e-18
4337.81273 3.57796e-18
4339.80125 3.57955e-18
4341.78976 3.69354e-18
4343.78832 3.61258e-18
4345.77683 3.51429e-18
4347.76534 3.57407e-18
4349.75386 3.58024e-18
4351.74237 3.63446e-18
4353.73089 3.66486e-18
4355.71940 3.52189e-18
4357.71796 3.64240e-18
4359.70647 3.86333e-18
4361.69499 3.88195e-18
4363.68350 3.73145e-18
4365.67201 3.82859e-18
4367.66053 3.87478e-18
4369.64904 4.03912e-18
4371.63756 3.94588e-18
4373.63611 3.87194e-18
4375.62463 4.03492e-18
4377.61314 3.85873e-18
4379.60166 3.87490e-18
4381.59017 3.72517e-18
4383.57868 3.63035e-18
4385.56720 3.98551e-18
4387.56575 3.77300e-18
4389.55427 3.75185e-18
4391.54278 3.68277e-18
4393.53130 3.56184e-18
4395.51981 3.67352e-18
4397.50832 3.78411e-18
4399.49684 3.75840e-18
4401.49539 3.35370e-18
4403.48391 3.27058e-18
4405.47242 3.39011e-18
4407.46094 3.42109e-18
4409.44945 3.31221e-18
4411.43797 3.28535e-18
4413.42648 3.29877e-18
4415.42504 3.34157e-18
4417.41355 3.55094e-18
4419.40206 3.48824e-18
4421.39058 3.35694e-18
4423.37909 3.22953e-18
4425.36761 3.10995e-18
4427.35612 3.16518e-18
4429.34463 3.22943e-18
4431.34319 3.33651e-18
4433.33171 3.34824e-18
4435.32022 3.13825e-18
4437.30873 3.22203e-18
4439.29725 3.26768e-18
4441.28576 3.31838e-18
4443.27427 3.48847e-18
4445.27283 3.57268e-18
4447.26135 3.42111e-18
4449.24986 3.42021e-18
4451.23837 3.46684e-18
4453.22689 3.41401e-18
4455.21540 3.48485e-18
4457.20392 3.59099e-18
4459.20247 3.62413e-18
4461.19099 4.01052e-18
4463.17950 4.16647e-18
4465.16802 4.08892e-18
4467.15653 3.92848e-18
4469.14504 3.87247e-18
4471.13356 4.03093e-18
4473.13211 3.93280e-18
4475.12063 4.17138e-18
4477.10914 4.52855e-18
4479.09766 4.45437e-18
4481.08617 4.29198e-18
4483.07468 4.52686e-18
4485.06320 4.60021e-18
4487.05171 4.75738e-18
4489.05027 4.81954e-18
4491.03878 4.79265e-18
4493.02730 4.80754e-18
4495.01581 5.13910e-18
4497.00432 5.20913e-18
4498.99284 5.26528e-18
4500.98135 5.52270e-18
4502.97991 5.54399e-18
4504.96842 5.55465e-18
4506.95694 5.55646e-18
4508.94545 5.87152e-18
4510.93397 6.03393e-18
4512.92248 5.83754e-18
4514.91099 6.11017e-18
4516.90955 6.34136e-18
4518.89807 6.48598e-18
4520.88658 6.46283e-18
4522.87509 6.66042e-18
4524.86361 6.76196e-18
4526.85212 6.79894e-18
4528.84063 7.07013e-18
4530.83919 7.22565e-18
4532.82771 7.11897e-18
4534.81622 7.32313e-18
4536.80473 7.38697e-18
4538.79325 7.75607e-18
4540.78176 7.89078e-18
4542.77028 7.72582e-18
4544.76883 7.85313e-18
4546.75735 7.99925e-18
4548.74586 8.15893e-18
4550.73438 8.32829e-18
4552.72289 8.29065e-18
4554.71140 8.35703e-18
4556.69992 8.61720e-18
4558.68843 8.63927e-18
4560.68699 8.80144e-18
4562.67550 8.83187e-18
4564.66402 8.90597e-18
4566.65253 9.09404e-18
4568.64104 9.36797e-18
4570.62956 9.19808e-18
4572.61807 9.41595e-18
4574.61663 9.09026e-18
4576.60514 9.39811e-18
4578.59366 9.87720e-18
4580.58217 9.96756e-18
4582.57068 9.73834e-18
4584.55920 1.04461e-17
4586.54771 1.05946e-17
4588.54627 1.04968e-17
4590.53478 1.06080e-17
4592.52330 1.07968e-17
4594.51181 1.07414e-17
4596.50033 1.08917e-17
4598.48884 1.11758e-17
4600.47735 1.14443e-17
4602.47591 1.13611e-17
4604.46443 1.14136e-17
4606.45294 1.14699e-17
4608.44145 1.11808e-17
4610.42997 1.11659e-17
4612.41848 1.11717e-17
4614.40699 1.12378e-17
4616.39551 1.12594e-17
4618.39407 1.11418e-17
4620.38258 1.13590e-17
4622.37109 1.15004e-17
4624.35961 1.14671e-17
4626.34812 1.13339e-17
4628.33664 1.13299e-17
4630.32515 1.13632e-17
4632.32371 1.12736e-17
4634.31222 1.14560e-17
4636.30073 1.15948e-17
4638.28925 1.15083e-17
4640.27776 1.14678e-17
4642.26628 1.15691e-17
4644.25479 1.15242e-17
4646.25335 1.13709e-17
4648.24186 1.13344e-17
4650.23038 1.11201e-17
4652.21889 1.09961e-17
4654.20740 1.09751e-17
4656.19592 1.08371e-17
4658.18443 1.10614e-17
4660.18299 1.09102e-17
4662.17150 1.06809e-17
4664.16002 1.07117e-17
4666.14853 1.06558e-17
4668.13704 1.05812e-17
4670.12556 1.02779e-17
4672.11407 1.01280e-17
4674.10259 9.87424e-18
4676.10114 9.72384e-18
4678.08966 1.01541e-17
4680.07817 1.00217e-17
4682.06669 9.68835e-18
4684.05520 9.40987e-18
4686.04371 9.48669e-18
4688.03223 9.42034e-18
4690.03078 9.22890e-18
4692.01930 9.35051e-18
4694.00781 9.18373e-18
4695.99633 9.25812e-18
4697.98484 8.92958e-18
4699.97336 8.66913e-18
4701.96187 8.57397e-18
4703.96043 8.48139e-18
4705.94894 8.45657e-18
4707.93745 8.13633e-18
4709.92597 7.86666e-18
4711.91448 7.70099e-18
4713.90300 7.68848e-18
4715.89151 7.78379e-18
4717.89007 7.86824e-18
4719.87858 7.55116e-18
4721.86709 7.43435e-18
4723.85561 7.45811e-18
4725.84412 7.42844e-18
4727.83264 7.40693e-18
4729.82115 7.40274e-18
4731.80966 7.28097e-18
4733.80822 7.19573e-18
4735.79674 7.27618e-18
4737.78525 7.20045e-18
4739.77376 7.24048e-18
4741.76228 7.39505e-18
4743.75079 7.36115e-18
4745.73931 7.23300e-18
4747.73786 7.11521e-18
4749.72638 7.14588e-18
4751.71489 7.21800e-18
4753.70341 7.15681e-18
4755.69192 7.11701e-18
4757.68043 7.12196e-18
4759.66895 7.12819e-18
4761.66750 7.01261e-18
4763.65602 6.75642e-18
4765.64453 6.61692e-18
4767.63305 6.71486e-18
4769.62156 6.67306e-18
4771.61007 6.55898e-18
4773.59859 6.62326e-18
4775.59714 6.62389e-18
4777.58566 6.41936e-18
4779.57417 6.40346e-18
4781.56269 6.40345e-18
4783.55120 6.27475e-18
4785.53971 6.14530e-18
4787.52823 6.04931e-18
4789.51674 5.99648e-18
4791.51530 5.84832e-18
4793.50381 5.77812e-18
4795.49233 5.75158e-18
4797.48084 5.74215e-18
4799.46936 5.74077e-18
4801.45787 5.68995e-18
4803.44638 5.64764e-18
4805.44494 5.69385e-18
4807.43346 5.63030e-18
4809.42197 5.66739e-18
4811.41048 5.67100e-18
4813.39900 5.61096e-18
4815.38751 5.61017e-18
4817.37602 5.66526e-18
4819.37458 5.69686e-18
4821.36310 5.70703e-18
4823.35161 5.86937e-18
4825.34012 6.03902e-18
4827.32864 6.00515e-18
4829.31715 5.94517e-18
4831.30567 6.05444e-18
4833.30422 6.24055e-18
4835.29274 6.35822e-18
4837.28125 6.39614e-18
4839.26977 6.34124e-18
4841.25828 6.38139e-18
4843.24679 6.59132e-18
4845.23531 6.46454e-18
4847.23386 6.43574e-18
4849.22238 6.49617e-18
4851.21089 6.54105e-18
4853.19941 6.53608e-18
4855.18792 6.63063e-18
4857.17643 6.71948e-18
4859.16495 6.57658e-18
4861.15346 6.49382e-18
4863.15202 6.44782e-18
4865.14053 6.42222e-18
4867.12905 6.29542e-18
4869.11756 6.16862e-18
4871.10607 6.14345e-18
4873.09459 6.08237e-18
4875.08310 6.14454e-18
4877.08166 6.23434e-18
4879.07017 6.22497e-18
4881.05869 6.41478e-18
4883.04720 6.39874e-18
4885.03572 6.29175e-18
4887.02423 6.26925e-18
4889.01274 6.34604e-18
4891.01130 6.29717e-18
4892.99982 6.13818e-18
4894.98833 6.38691e-18
4896.97684 6.64898e-18
4898.96536 6.50306e-18
4900.95387 6.53716e-18
4902.94238 6.72334e-18
4904.94094 6.63070e-18
4906.92946 6.45798e-18
4908.91797 6.58872e-18
4910.90648 6.79288e-18
4912.89500 6.82019e-18
4914.88351 6.70558e-18
4916.87203 6.63864e-18
4918.86054 6.76069e-18
4920.85910 6.91878e-18
4922.84761 6.99034e-18
4924.83612 7.09151e-18
4926.82464 7.20417e-18
4928.81315 7.23786e-18
4930.80167 7.24127e-18
4932.79018 7.32086e-18
4934.78874 7.52361e-18
4936.77725 7.56650e-18
4938.76577 7.77390e-18
4940.75428 7.36325e-18
4942.74279 6.57260e-18
4944.73131 7.91011e-18
4946.71982 8.45977e-18
4948.71838 8.14953e-18
4950.70689 8.45082e-18
4952.69541 8.73350e-18
4954.68392 8.82543e-18
4956.67243 9.02960e-18
4958.66095 9.12343e-18
4960.64946 9.30488e-18
4962.64802 9.30623e-18
4964.63653 9.17252e-18
4966.62505 9.34618e-18
4968.61356 9.86342e-18
4970.60208 9.94912e-18
4972.59059 9.89329e-18
4974.57910 9.89617e-18
4976.56762 9.90709e-18
4978.56617 9.74391e-18
4980.55469 9.74893e-18
4982.54320 9.81208e-18
4984.53172 9.69875e-18
4986.52023 9.72559e-18
4988.50874 9.50827e-18
4990.49726 9.47292e-18
4992.49582 9.29960e-18
4994.48433 9.05866e-18
4996.47284 9.20644e-18
4998.46136 8.92979e-18
5000.44987 8.72015e-18
5002.43839 8.72020e-18
5004.42690 8.61605e-18
5006.42546 8.26155e-18
5008.41397 7.75890e-18
5010.40248 7.65972e-18
5012.39100 7.49510e-18
5014.37951 7.24109e-18
5016.36803 7.12643e-18
5018.35654 6.89611e-18
5020.35510 6.69388e-18
5022.34361 6.67061e-18
5024.33213 6.47418e-18
5026.32064 6.50158e-18
5028.30915 6.70832e-18
5030.29767 6.59246e-18
5032.28618 6.49029e-18
5034.27470 6.23322e-18
5036.27325 5.84505e-18
5038.26177 5.77934e-18
5040.25028 5.80081e-18
5042.23879 5.62512e-18
5044.22731 5.44687e-18
5046.21582 5.49064e-18
5048.20434 5.54062e-18
5050.20289 5.40829e-18
5052.19141 5.28522e-18
5054.17992 5.29106e-18
5056.16844 5.28114e-18
5058.15695 5.23986e-18
5060.14546 5.29955e-18
5062.13398 5.29218e-18
5064.13253 5.16497e-18
5066.12105 5.20788e-18
5068.10956 5.23959e-18
5070.09808 5.16888e-18
5072.08659 5.10948e-18
5074.07510 5.16715e-18
5076.06362 5.27004e-18
5078.06218 5.31268e-18
5080.05069 5.29369e-18
5082.03920 5.28317e-18
5084.02772 5.38455e-18
5086.01623 5.48460e-18
5088.00475 5.47949e-18
5089.99326 5.34984e-18
5091.99182 5.28136e-18
5093.98033 5.40762e-18
5095.96884 5.49978e-18
5097.95736 5.57841e-18
5099.94587 5.80652e-18
5101.93439 5.87446e-18
5103.92290 5.73532e-18
5105.91141 5.73314e-18
5107.90997 5.81540e-18
5109.89849 6.01806e-18
5111.88700 6.22282e-18
5113.87551 6.17750e-18
5115.86403 6.26457e-18
5117.85254 6.36902e-18
5119.84106 6.44985e-18
5121.83961 6.63724e-18
5123.82813 6.54327e-18
5125.81664 6.60222e-18
5127.80516 6.92621e-18
5129.79367 7.01460e-18
5131.78218 6.91284e-18
5133.77070 6.84081e-18
5135.76925 6.88022e-18
5137.75777 7.14855e-18
5139.74628 7.26355e-18
5141.73480 7.16133e-18
5143.72331 7.34820e-18
5145.71182 7.45331e-18
5147.70034 7.51456e-18
5149.69889 7.52518e-18
5151.68741 7.53635e-18
5153.67592 7.59800e-18
5155.66444 7.62107e-18
5157.65295 7.55255e-18
5159.64146 7.54326e-18
5161.62998 7.70686e-18
5163.61849 7.77668e-18
5165.61705 7.75344e-18
5167.60556 7.61656e-18
5169.59408 7.56346e-18
5171.58259 7.56981e-18
5173.57111 7.72762e-18
5175.55962 7.94773e-18
5177.54813 7.90434e-18
5179.54669 7.87516e-18
5181.53521 7.94922e-18
5183.52372 8.07754e-18
5185.51223 8.03708e-18
5187.50075 7.90386e-18
5189.48926 8.00534e-18
5191.47778 8.19324e-18
5193.47633 8.48539e-18
5195.46485 8.56801e-18
5197.45336 8.33745e-18
5199.44187 8.29517e-18
5201.43039 8.31679e-18
5203.41890 8.20500e-18
5205.40742 8.18310e-18
5207.39593 8.23680e-18
5209.39449 8.45526e-18
5211.38300 8.52015e-18
5213.37151 8.51050e-18
5215.36003 8.64062e-18
5217.34854 8.70405e-18
5219.33706 8.74764e-18
5221.32557 8.90104e-18
5223.32413 9.01583e-18
5225.31264 9.08081e-18
5227.30116 9.07636e-18
5229.28967 9.08097e-18
5231.27818 9.16761e-18
5233.26670 9.42064e-18
5235.25521 9.62597e-18
5237.25377 9.59363e-18
5239.24228 9.59176e-18
5241.23080 9.64920e-18
5243.21931 9.78994e-18
5245.20782 9.84772e-18
5247.19634 9.70083e-18
5249.18485 9.75872e-18
5251.18341 9.99192e-18
5253.17192 1.00519e-17
5255.16044 1.00472e-17
5257.14895 1.00500e-17
5259.13747 1.02155e-17
5261.12598 1.02911e-17
5263.11449 1.01116e-17
5265.11305 1.01402e-17
5267.10156 1.02303e-17
5269.09008 1.04040e-17
5271.07859 1.05695e-17
5273.06711 1.06355e-17
5275.05562 1.06831e-17
5277.04414 1.06202e-17
5279.03265 1.08723e-17
5281.03121 1.11083e-17
5283.01972 1.11682e-17
5285.00823 1.11740e-17
5286.99675 1.12111e-17
5288.98526 1.14964e-17
5290.97378 1.17327e-17
5292.96229 1.16728e-17
5294.96085 1.16039e-17
5296.94936 1.16592e-17
5298.93787 1.17217e-17
5300.92639 1.19500e-17
5302.91490 1.20786e-17
5304.90342 1.19202e-17
5306.89193 1.20220e-17
5308.89049 1.22468e-17
5310.87900 1.21488e-17
5312.86752 1.20296e-17
5314.85603 1.20695e-17
5316.84454 1.19879e-17
5318.83306 1.19891e-17
5320.82157 1.23248e-17
5322.82013 1.23721e-17
5324.80864 1.22095e-17
5326.79716 1.22945e-17
5328.78567 1.24914e-17
5330.77418 1.24697e-17
5332.76270 1.27120e-17
5334.75121 1.29277e-17
5336.73973 1.29020e-17
5338.73828 1.30636e-17
5340.72680 1.30479e-17
5342.71531 1.29109e-17
5344.70383 1.30072e-17
5346.69234 1.31847e-17
5348.68085 1.32895e-17
5350.66937 1.32679e-17
5352.66792 1.32500e-17
5354.65644 1.33652e-17
5356.64495 1.34217e-17
5358.63347 1.31875e-17
5360.62198 1.31183e-17
5362.61049 1.32747e-17
5364.59901 1.32142e-17
5366.59757 1.31610e-17
5368.58608 1.32528e-17
5370.57459 1.32637e-17
5372.56311 1.33573e-17
5374.55162 1.33629e-17
5376.54014 1.33421e-17
5378.52865 1.33477e-17
5380.52721 1.33152e-17
5382.51572 1.32716e-17
5384.50423 1.31621e-17
5386.49275 1.31630e-17
5388.48126 1.31582e-17
5390.46978 1.30230e-17
5392.45829 1.29777e-17
5394.44681 1.31139e-17
5396.44536 1.30671e-17
5398.43388 1.29964e-17
5400.42239 1.30247e-17
5402.41090 1.28139e-17
5404.39942 1.26869e-17
5406.38793 1.26238e-17
5408.37645 1.26967e-17
5410.37500 1.27102e-17
5412.36352 1.24592e-17
5414.35203 1.22834e-17
5416.34054 1.21907e-17
5418.32906 1.20607e-17
5420.31757 1.21481e-17
5422.30609 1.20392e-17
5424.30464 1.17303e-17
5426.29316 1.17042e-17
5428.28167 1.16157e-17
5430.27019 1.15849e-17
5432.25870 1.14542e-17
5434.24721 1.14660e-17
5436.23573 1.15309e-17
5438.23428 1.11916e-17
5440.22280 1.09761e-17
5442.21131 1.10554e-17
5444.19983 1.10944e-17
5446.18834 1.10198e-17
5448.17686 1.10566e-17
5450.16537 1.11501e-17
5452.15388 1.11084e-17
5454.15244 1.11207e-17
5456.14095 1.11732e-17
5458.12947 1.12650e-17
5460.11798 1.15127e-17
5462.10650 1.15972e-17
5464.09501 1.15698e-17
5466.08352 1.16636e-17
5468.08208 1.19300e-17
5470.07059 1.22031e-17
5472.05911 1.24999e-17
5474.04762 1.27980e-17
5476.03614 1.28873e-17
5478.02465 1.33342e-17
5480.01317 1.37932e-17
5482.01172 1.40042e-17
5484.00024 1.44792e-17
5485.98875 1.48441e-17
5487.97726 1.51281e-17
5489.96578 1.53765e-17
5491.95429 1.54729e-17
5493.94281 1.58772e-17
5495.94136 1.64533e-17
5497.92988 1.67942e-17
5499.91839 1.69779e-17
5501.90690 1.72301e-17
5503.89542 1.75861e-17
5505.88393 1.77231e-17
5507.87245 1.79262e-17
5509.86096 1.83953e-17
5511.85952 1.86462e-17
5513.84803 1.88163e-17
5515.83655 1.92106e-17
5517.82506 1.94464e-17
5519.81357 1.93027e-17
5521.80209 1.91712e-17
5523.79060 1.92448e-17
5525.78916 1.92755e-17
5527.77767 1.92507e-17
5529.76619 1.92584e-17
5531.75470 1.91661e-17
5533.74322 1.90300e-17
5535.73173 1.89266e-17
5537.72024 1.87555e-17
5539.71880 1.86301e-17
5541.70731 1.85760e-17
5543.69583 1.83328e-17
5545.68434 1.79332e-17
5547.67286 1.75787e-17
5549.66137 1.74277e-17
5551.64988 1.73328e-17
5553.64844 1.70752e-17
5555.63695 1.67899e-17
5557.62547 1.65561e-17
5559.61398 1.62844e-17
5561.60250 1.59631e-17
5563.59101 1.57083e-17
5565.57953 1.54915e-17
5567.57808 1.50440e-17
5569.56660 1.44864e-17
5571.55511 1.42067e-17
5573.54362 1.39672e-17
5575.53214 1.36707e-17
5577.52065 1.34872e-17
5579.50917 1.30081e-17
5581.49768 1.26257e-17
5583.49624 1.26030e-17
5585.48475 1.25136e-17
5587.47326 1.24073e-17
5589.46178 1.21663e-17
5591.45029 1.20341e-17
5593.43881 1.19878e-17
5595.42732 1.20008e-17
5597.42588 1.20871e-17
5599.41439 1.20497e-17
5601.40291 1.19755e-17
5603.39142 1.19498e-17
5605.37993 1.22087e-17
5607.36845 1.23578e-17
5609.35696 1.23574e-17
5611.35552 1.24743e-17
5613.34403 1.26515e-17
5615.33255 1.28893e-17
5617.32106 1.31044e-17
5619.30958 1.31564e-17
5621.29809 1.32072e-17
5623.28660 1.35555e-17
5625.28516 1.38289e-17
5627.27367 1.38975e-17
5629.26219 1.39077e-17
5631.25070 1.38713e-17
5633.23922 1.39918e-17
5635.22773 1.44857e-17
5637.21624 1.46959e-17
5639.20476 1.47551e-17
5641.20331 1.47588e-17
5643.19183 1.48859e-17
5645.18034 1.52989e-17
5647.16886 1.51557e-17
5649.15737 1.49391e-17
5651.14588 1.50578e-17
5653.13440 1.48422e-17
5655.13296 1.45590e-17
5657.12147 1.45277e-17
5659.10998 1.44825e-17
5661.09850 1.40864e-17
5663.08701 1.37360e-17
5665.07553 1.34873e-17
5667.06404 1.29581e-17
5669.06260 1.25566e-17
5671.05111 1.21628e-17
5673.03962 1.16793e-17
5675.02814 1.12740e-17
5677.01665 1.09921e-17
5679.00517 1.05807e-17
5680.99368 1.01653e-17
5682.99224 1.00003e-17
5684.98075 9.81576e-18
5686.96927 9.60785e-18
5688.95778 9.24888e-18
5690.94629 8.97576e-18
5692.93481 8.98839e-18
5694.92332 8.86992e-18
5696.91184 8.66884e-18
5698.91039 8.53969e-18
5700.89891 8.43555e-18
5702.88742 8.32505e-18
5704.87594 8.18412e-18
5706.86445 7.98308e-18
5708.85296 7.86833e-18
5710.84148 7.69971e-18
5712.84003 7.54809e-18
5714.82855 7.52532e-18
5716.81706 7.41606e-18
5718.80558 7.23399e-18
5720.79409 7.26338e-18
5722.78260 7.43845e-18
5724.77112 7.49414e-18
5726.76967 7.49172e-18
5728.75819 7.58150e-18
5730.74670 7.65446e-18
5732.73522 7.50723e-18
5734.72373 7.45229e-18
5736.71224 7.51399e-18
5738.70076 7.51692e-18
5740.69932 7.49217e-18
5742.68783 7.36605e-18
5744.67634 7.35857e-18
5746.66486 7.34509e-18
5748.65337 7.23133e-18
5750.64189 7.15984e-18
5752.63040 7.00347e-18
5754.61891 6.93044e-18
5756.61747 6.91267e-18
5758.60598 6.88831e-18
5760.59450 6.92240e-18
5762.58301 6.91202e-18
5764.57153 6.93622e-18
5766.56004 6.92639e-18
5768.54856 6.89664e-18
5770.54711 6.76536e-18
5772.53563 6.61943e-18
5774.52414 6.64501e-18
5776.51265 6.62718e-18
5778.50117 6.59821e-18
5780.48968 6.63202e-18
5782.47820 6.63629e-18
5784.47675 6.68463e-18
5786.46527 6.66234e-18
5788.45378 6.71057e-18
5790.44229 6.80159e-18
5792.43081 6.85096e-18
5794.41932 6.82527e-18
5796.40784 6.75481e-18
5798.40639 6.92309e-18
5800.39491 7.00358e-18
5802.38342 6.98382e-18
5804.37194 6.96102e-18
5806.36045 6.96069e-18
5808.34896 7.10080e-18
5810.33748 7.28779e-18
5812.32599 7.48041e-18
5814.32455 7.69986e-18
5816.31306 7.81757e-18
5818.30158 7.89536e-18
5820.29009 8.08288e-18
5822.27861 8.37619e-18
5824.26712 8.56385e-18
5826.25563 8.63894e-18
5828.25419 8.98714e-18
5830.24270 9.51471e-18
5832.23122 9.81703e-18
5834.21973 1.00057e-17
5836.20825 1.02773e-17
5838.19676 1.05785e-17
5840.18527 1.08320e-17
5842.18383 1.11260e-17
5844.17234 1.14296e-17
5846.16086 1.16208e-17
5848.14937 1.19276e-17
5850.13789 1.23281e-17
5852.12640 1.26187e-17
5854.11492 1.28662e-17
5856.11347 1.30487e-17
5858.10199 1.33080e-17
5860.09050 1.34584e-17
5862.07901 1.35600e-17
5864.06753 1.38854e-17
5866.05604 1.41571e-17
5868.04456 1.43972e-17
5870.04311 1.45970e-17
5872.03163 1.47262e-17
5874.02014 1.48236e-17
5876.00866 1.50961e-17
5877.99717 1.54293e-17
5879.98568 1.54968e-17
5881.97420 1.55576e-17
5883.96271 1.55013e-17
5885.96127 1.54035e-17
5887.94978 1.53905e-17
5889.93830 1.52167e-17
5891.92681 1.52321e-17
5893.91532 1.55069e-17
5895.90384 1.57007e-17
5897.89235 1.58914e-17
5899.89091 1.60747e-17
5901.87942 1.60397e-17
5903.86794 1.57975e-17
5905.85645 1.58517e-17
5907.84497 1.63628e-17
5909.83348 1.65987e-17
5911.82199 1.65255e-17
5913.82055 1.61966e-17
5915.80906 1.58225e-17
5917.79758 1.58466e-17
5919.78609 1.58857e-17
5921.77461 1.59988e-17
5923.76312 1.62441e-17
5925.75163 1.62834e-17
5927.75019 1.62859e-17
5929.73870 1.63924e-17
5931.72722 1.65544e-17
5933.71573 1.66069e-17
5935.70425 1.66453e-17
5937.69276 1.64709e-17
5939.68127 1.63148e-17
5941.66979 1.61625e-17
5943.66835 1.62189e-17
5945.65686 1.62996e-17
5947.64537 1.61902e-17
5949.63389 1.63400e-17
5951.62240 1.63690e-17
5953.61092 1.62220e-17
5955.59943 1.61319e-17
5957.59799 1.60119e-17
5959.58650 1.57579e-17
5961.57502 1.57109e-17
5963.56353 1.56774e-17
5965.55204 1.54771e-17
5967.54056 1.55211e-17
5969.52907 1.55641e-17
5971.52763 1.54399e-17
5973.51614 1.54777e-17
5975.50466 1.54098e-17
5977.49317 1.53755e-17
5979.48168 1.54425e-17
5981.47020 1.53772e-17
5983.45871 1.54003e-17
5985.45727 1.53745e-17
5987.44578 1.52767e-17
5989.43430 1.52019e-17
5991.42281 1.51585e-17
5993.41133 1.52883e-17
5995.39984 1.51637e-17
5997.38835 1.47745e-17
5999.37687 1.46335e-17
6001.37542 1.46822e-17
6003.36394 1.46993e-17
6005.35245 1.44764e-17
6007.34097 1.42908e-17
6009.32948 1.43316e-17
6011.31799 1.42109e-17
6013.30651 1.40000e-17
6015.30506 1.38109e-17
6017.29358 1.37207e-17
6019.28209 1.36457e-17
6021.27061 1.35660e-17
6023.25912 1.35047e-17
6025.24763 1.32910e-17
6027.23615 1.30974e-17
6029.23471 1.29679e-17
6031.22322 1.30982e-17
6033.21173 1.30429e-17
6035.20025 1.27695e-17
6037.18876 1.26786e-17
6039.17728 1.24604e-17
6041.16579 1.23071e-17
6043.16435 1.23808e-17
6045.15286 1.22188e-17
6047.14138 1.20749e-17
6049.12989 1.20332e-17
6051.11840 1.20172e-17
6053.10692 1.17677e-17
6055.09543 1.14768e-17
6057.08394 1.14948e-17
6059.08250 1.15259e-17
6061.07102 1.14408e-17
6063.05953 1.11755e-17
6065.04804 1.09086e-17
6067.03656 1.07299e-17
6069.02507 1.06954e-17
6071.01359 1.06880e-17
6073.01214 1.05770e-17
6075.00066 1.03572e-17
6076.98917 1.02023e-17
6078.97768 1.02692e-17
6080.96620 1.03594e-17
6082.95471 1.04088e-17
6084.94323 1.02448e-17
6086.94178 1.02850e-17
6088.93030 1.06267e-17
6090.91881 1.06316e-17
6092.90733 1.05794e-17
6094.89584 1.07242e-17
6096.88435 1.07320e-17
6098.87287 1.07829e-17
6100.87143 1.08789e-17
6102.85994 1.08612e-17
6104.84845 1.09505e-17
6106.83697 1.10455e-17
6108.82548 1.10181e-17
6110.81399 1.10834e-17
6112.80251 1.12534e-17
6114.79102 1.12822e-17
6116.78958 1.11393e-17
6118.77809 1.10399e-17
6120.76661 1.11571e-17
6122.75512 1.12573e-17
6124.74364 1.13320e-17
6126.73215 1.13912e-17
6128.72066 1.11692e-17
6130.71922 1.12314e-17
6132.70773 1.14181e-17
6134.69625 1.13612e-17
6136.68476 1.12660e-17
6138.67328 1.13454e-17
6140.66179 1.15246e-17
6142.65031 1.15565e-17
6144.64886 1.14900e-17
6146.63738 1.16255e-17
6148.62589 1.16017e-17
6150.61440 1.14075e-17
6152.60292 1.14289e-17
6154.59143 1.16123e-17
6156.57995 1.15489e-17
6158.57850 1.16493e-17
6160.56702 1.16682e-17
6162.55553 1.15241e-17
6164.54404 1.08950e-17
6166.53256 1.11339e-17
6168.52107 1.17892e-17
6170.50959 1.18774e-17
6172.50814 1.17335e-17
6174.49666 1.17819e-17
6176.48517 1.19214e-17
6178.47369 1.19778e-17
6180.46220 1.21497e-17
6182.45071 1.23679e-17
6184.43923 1.24070e-17
6186.42774 1.23631e-17
6188.42630 1.27642e-17
6190.41481 1.31083e-17
6192.40333 1.30347e-17
6194.39184 1.31134e-17
6196.38036 1.33861e-17
6198.36887 1.35729e-17
6200.35738 1.36005e-17
6202.35594 1.37769e-17
6204.34445 1.42909e-17
6206.33297 1.45680e-17
6208.32148 1.44353e-17
6210.31000 1.46412e-17
6212.29851 1.49597e-17
6214.28702 1.50454e-17
6216.28558 1.52715e-17
6218.27409 1.53020e-17
6220.26261 1.51717e-17
6222.25112 1.53981e-17
6224.23964 1.57830e-17
6226.22815 1.60796e-17
6228.21666 1.62449e-17
6230.21522 1.62513e-17
6232.20374 1.61679e-17
6234.19225 1.62350e-17
6236.18076 1.64472e-17
6238.16928 1.62544e-17
6240.15779 1.63023e-17
6242.14631 1.64972e-17
6244.13482 1.63901e-17
6246.13338 1.63168e-17
6248.12189 1.63208e-17
6250.11041 1.62506e-17
6252.09892 1.62450e-17
6254.08743 1.62213e-17
6256.07595 1.64520e-17
6258.06446 1.64382e-17
6260.06302 1.65174e-17
6262.05153 1.65841e-17
6264.04005 1.65787e-17
6266.02856 1.63822e-17
6268.01707 1.64157e-17
6270.00559 1.65524e-17
6271.99410 1.63241e-17
6273.98262 1.63299e-17
6275.98117 1.65608e-17
6277.96969 1.65091e-17
6279.95820 1.65161e-17
6281.94672 1.66626e-17
6283.93523 1.66172e-17
6285.92374 1.64433e-17
6287.92230 1.63161e-17
6289.91081 1.63338e-17
6291.89933 1.64967e-17
6293.88784 1.67025e-17
6295.87636 1.67468e-17
6297.86487 1.65182e-17
6299.85338 1.63379e-17
6301.84190 1.63732e-17
6303.84046 1.60937e-17
6305.82897 1.58660e-17
6307.81748 1.59604e-17
6309.80600 1.58279e-17
6311.79451 1.54616e-17
6313.78302 1.51511e-17
6315.77154 1.51930e-17
6317.77010 1.55033e-17
6319.75861 1.55250e-17
6321.74712 1.54223e-17
6323.73564 1.53543e-17
6325.72415 1.51458e-17
6327.71267 1.51311e-17
6329.70118 1.52939e-17
6331.68969 1.52193e-17
6333.68825 1.50644e-17
6335.67677 1.49958e-17
6337.66528 1.50321e-17
6339.65379 1.49356e-17
6341.64231 1.48181e-17
6343.63082 1.46013e-17
6345.62938 1.44270e-17
6347.61789 1.44299e-17
6349.60641 1.46039e-17
6351.59492 1.46420e-17
6353.58343 1.45343e-17
6355.57195 1.43904e-17
6357.56046 1.43913e-17
6359.54898 1.43544e-17
6361.54753 1.42269e-17
6363.53605 1.43090e-17
6365.52456 1.43948e-17
6367.51307 1.42255e-17
6369.50159 1.41916e-17
6371.49010 1.41887e-17
6373.47862 1.40174e-17
6375.47717 1.39948e-17
6377.46569 1.40161e-17
6379.45420 1.39118e-17
6381.44272 1.36975e-17
6383.43123 1.35678e-17
6385.41974 1.35858e-17
6387.40826 1.35769e-17
6389.40682 1.35423e-17
6391.39533 1.35095e-17
6393.38384 1.37312e-17
6395.37236 1.38295e-17
6397.36087 1.37666e-17
6399.34938 1.36788e-17
6401.33790 1.36813e-17
6403.33646 1.36085e-17
6405.32497 1.34798e-17
6407.31348 1.33967e-17
6409.30200 1.32986e-17
6411.29051 1.31582e-17
6413.27903 1.31813e-17
6415.26754 1.31762e-17
6417.25605 1.32047e-17
6419.25461 1.31888e-17
6421.24312 1.31155e-17
6423.23164 1.31266e-17
6425.22015 1.31100e-17
6427.20867 1.30808e-17
6429.19718 1.31016e-17
6431.18569 1.32994e-17
6433.18425 1.34950e-17
6435.17277 1.33116e-17
6437.16128 1.34599e-17
6439.14979 1.35855e-17
6441.13831 1.34751e-17
6443.12682 1.36136e-17
6445.11534 1.39086e-17
6447.11389 1.39566e-17
6449.10241 1.40261e-17
6451.09092 1.41294e-17
6453.07943 1.42188e-17
6455.06795 1.43633e-17
6457.05646 1.44950e-17
6459.04498 1.46745e-17
6461.04353 1.46215e-17
6463.03205 1.46239e-17
6465.02056 1.48592e-17
6467.00908 1.49641e-17
6468.99759 1.50068e-17
6470.98610 1.50777e-17
6472.97462 1.49184e-17
6474.96313 1.48076e-17
6476.96169 1.48391e-17
6478.95020 1.48576e-17
6480.93872 1.47544e-17
6482.92723 1.47289e-17
6484.91574 1.48297e-17
6486.90426 1.48845e-17
6488.89277 1.48833e-17
6490.89133 1.48781e-17
6492.87984 1.50387e-17
6494.86836 1.49837e-17
6496.85687 1.48445e-17
6498.84539 1.48559e-17
6500.83390 1.50317e-17
6502.82241 1.49807e-17
6504.82097 1.51293e-17
6506.80948 1.51212e-17
6508.79800 1.49756e-17
6510.78651 1.50105e-17
6512.77503 1.48657e-17
6514.76354 1.47626e-17
6516.75205 1.48650e-17
6518.74057 1.46856e-17
6520.73913 1.45539e-17
6522.72764 1.46171e-17
6524.71615 1.44468e-17
6526.70467 1.43043e-17
6528.69318 1.42223e-17
6530.68170 1.40247e-17
6532.68025 1.40286e-17
6534.66877 1.41491e-17
6536.65728 1.41019e-17
6538.64579 1.40565e-17
6540.63431 1.40630e-17
6542.62282 1.40347e-17
6544.61134 1.40350e-17
6546.59985 1.40731e-17
6548.59841 1.42374e-17
6550.58692 1.43362e-17
6552.57544 1.42993e-17
6554.56395 1.42619e-17
6556.55246 1.44462e-17
6558.54098 1.46042e-17
6560.52949 1.46932e-17
6562.52805 1.47567e-17
6564.51656 1.48389e-17
6566.50508 1.47705e-17
6568.49359 1.47627e-17
6570.48211 1.48380e-17
6572.47062 1.48865e-17
6574.45913 1.47711e-17
6576.44765 1.48582e-17
6578.44620 1.49926e-17
6580.43472 1.50438e-17
6582.42323 1.49420e-17
6584.41175 1.49138e-17
6586.40026 1.49837e-17
6588.38877 1.52149e-17
6590.38733 1.53030e-17
6592.37584 1.52996e-17
6594.36436 1.52251e-17
6596.35287 1.49590e-17
6598.34139 1.46241e-17
6600.32990 1.45105e-17
6602.31841 1.45725e-17
6604.30693 1.44435e-17
6606.30549 1.41594e-17
6608.29400 1.41211e-17
6610.28251 1.41284e-17
6612.27103 1.40149e-17
6614.25954 1.40241e-17
6616.24806 1.40965e-17
6618.23657 1.41520e-17
6620.23513 1.41027e-17
6622.22364 1.40787e-17
6624.21216 1.39954e-17
6626.20067 1.38571e-17
6628.18918 1.36763e-17
6630.17770 1.38001e-17
6632.16621 1.37440e-17
6634.16477 1.35602e-17
6636.15328 1.36528e-17
6638.14180 1.34797e-17
6640.13031 1.33115e-17
6642.11882 1.32985e-17
6644.10734 1.31541e-17
6646.09585 1.31645e-17
6648.08437 1.32127e-17
6650.08292 1.31691e-17
6652.07144 1.31228e-17
6654.05995 1.32317e-17
6656.04846 1.30963e-17
6658.03698 1.29976e-17
6660.02549 1.30660e-17
6662.01401 1.31164e-17
6664.01256 1.30934e-17
6666.00108 1.32084e-17
6667.98959 1.30773e-17
6669.97811 1.29163e-17
6671.96662 1.28986e-17
6673.95513 1.29853e-17
6675.94365 1.29874e-17
6677.94221 1.28748e-17
6679.93072 1.27383e-17
6681.91923 1.28322e-17
6683.90775 1.29320e-17
6685.89626 1.28062e-17
6687.88477 1.28063e-17
6689.87329 1.26654e-17
6691.87185 1.23793e-17
6693.86036 1.23472e-17
6695.84887 1.24907e-17
6697.83739 1.23293e-17
6699.82590 1.24283e-17
6701.81442 1.23930e-17
6703.80293 1.21575e-17
6705.79144 1.21663e-17
6707.79000 1.22609e-17
6709.77851 1.20672e-17
6711.76703 1.20505e-17
6713.75554 1.19072e-17
6715.74406 1.18683e-17
6717.73257 1.17964e-17
6719.72108 1.17548e-17
6721.71964 1.17241e-17
6723.70816 1.17115e-17
6725.69667 1.16309e-17
6727.68518 1.15349e-17
6729.67370 1.15654e-17
6731.66221 1.14572e-17
6733.65073 1.13234e-17
6735.64928 1.13002e-17
6737.63780 1.14267e-17
6739.62631 1.12256e-17
6741.61482 1.11043e-17
6743.60334 1.12185e-17
6745.59185 1.11560e-17
6747.58037 1.10080e-17
6749.57892 1.09277e-17
6751.56744 1.09039e-17
6753.55595 1.08304e-17
6755.54447 1.07615e-17
6757.53298 1.07652e-17
6759.52149 1.07870e-17
6761.51001 1.08612e-17
6763.49852 1.08719e-17
6765.49708 1.07239e-17
6767.48559 1.05810e-17
6769.47411 1.05935e-17
6771.46262 1.05706e-17
6773.45113 1.07552e-17
6775.43965 1.08442e-17
6777.42816 1.08093e-17
6779.42672 1.08074e-17
6781.41523 1.08110e-17
6783.40375 1.08162e-17
6785.39226 1.08845e-17
6787.38078 1.09336e-17
6789.36929 1.09735e-17
6791.35780 1.09137e-17
6793.35636 1.09133e-17
6795.34487 1.09759e-17
6797.33339 1.09877e-17
6799.32190 1.09949e-17
6801.31042 1.10769e-17
6803.29893 1.08953e-17
6805.28744 1.09709e-17
6807.28600 1.10451e-17
6809.27452 1.07553e-17
6811.26303 1.07889e-17
6813.25154 1.08995e-17
6815.24006 1.09072e-17
6817.22857 1.08903e-17
6819.21709 1.07529e-17
6821.20560 1.08309e-17
6823.20416 1.08313e-17
6825.19267 1.08263e-17
6827.18118 1.09529e-17
6829.16970 1.09029e-17
6831.15821 1.08741e-17
6833.14673 1.07004e-17
6835.14528 1.05110e-17
6837.13380 1.05347e-17
6839.12231 1.06394e-17
6841.11083 1.07066e-17
6843.09934 1.07021e-17
6845.08785 1.05643e-17
6847.07637 1.05925e-17
6849.06488 1.05203e-17
6851.06344 1.02385e-17
6853.05195 1.00861e-17
6855.04047 1.01970e-17
6857.02898 1.00409e-17
6859.01749 9.89605e-18
6861.00601 9.66102e-18
6862.99452 9.68584e-18
6864.99308 9.57179e-18
6866.98159 9.56491e-18
6868.97011 9.39497e-18
6870.95862 9.37548e-18
6872.94714 9.55602e-18
6874.93565 9.70820e-18
6876.92416 9.59200e-18
6878.91268 9.36093e-18
6880.91123 9.39768e-18
6882.89975 9.19759e-18
6884.88826 9.09749e-18
6886.87678 9.05446e-18
6888.86529 8.99054e-18
6890.85380 9.13019e-18
6892.84232 9.24517e-18
6894.84088 9.25373e-18
6896.82939 9.27482e-18
6898.81790 9.16641e-18
6900.80642 8.92746e-18
6902.79493 8.87017e-18
6904.78345 8.94555e-18
6906.77196 8.89908e-18
6908.77052 8.85204e-18
6910.75903 8.84748e-18
6912.74754 8.67589e-18
6914.73606 8.63845e-18
6916.72457 8.67128e-18
6918.71309 8.79895e-18
6920.70160 8.77284e-18
6922.70016 8.70834e-18
6924.68867 8.92597e-18
6926.67719 9.06690e-18
6928.66570 8.93545e-18
6930.65421 8.86875e-18
6932.64273 9.21435e-18
6934.63124 8.97119e-18
6936.62980 8.96457e-18
6938.61831 8.93947e-18
6940.60683 8.99529e-18
6942.59534 9.28069e-18
6944.58385 9.41873e-18
6946.57237 9.38076e-18
6948.56088 9.44659e-18
6950.54940 9.58349e-18
6952.54795 9.75056e-18
6954.53647 9.85008e-18
6956.52498 1.00088e-17
6958.51350 1.00754e-17
6960.50201 1.00595e-17
6962.49052 1.01177e-17
6964.47904 1.02172e-17
6966.47759 1.03026e-17
6968.46611 1.02335e-17
6970.45462 1.02589e-17
6972.44314 1.04555e-17
6974.43165 1.04469e-17
6976.42016 1.04759e-17
6978.40868 1.05646e-17
6980.40724 1.05655e-17
6982.39575 1.06342e-17
6984.38426 1.05903e-17
6986.37278 1.06875e-17
6988.36129 1.08555e-17
6990.34981 1.07866e-17
6992.33832 1.08417e-17
6994.33688 1.08369e-17
6996.32539 1.09051e-17
6998.31390 1.08976e-17
7000.30242 1.09789e-17
7002.29093 1.09973e-17
7004.27945 1.09916e-17
7006.26796 1.09517e-17
7008.25648 1.10325e-17
7010.25503 1.11503e-17
7012.24355 1.10939e-17
7014.23206 1.09175e-17
7016.22057 1.09194e-17
7018.20909 1.11645e-17
7020.19760 1.10453e-17
7022.18612 1.07881e-17
7024.18467 1.08540e-17
7026.17319 1.10024e-17
7028.16170 1.09925e-17
7030.15021 1.08383e-17
7032.13873 1.08006e-17
7034.12724 1.08490e-17
7036.11576 1.06316e-17
7038.11431 1.06035e-17
7040.10283 1.07992e-17
7042.09134 1.06779e-17
7044.07986 1.06806e-17
7046.06837 1.06899e-17
7048.05688 1.04877e-17
7050.04540 1.04136e-17
7052.04396 1.05889e-17
7054.03247 1.05028e-17
7056.02098 1.02631e-17
7058.00950 1.01459e-17
7059.99801 1.01112e-17
7061.98652 1.01624e-17
7063.97504 1.01471e-17
7065.96355 1.01449e-17
7067.96211 1.02662e-17
7069.95062 1.04273e-17
7071.93914 1.02859e-17
7073.92765 1.01045e-17
7075.91617 1.02737e-17
7077.90468 1.04523e-17
7079.89319 1.02830e-17
7081.89175 1.02326e-17
7083.88026 1.02117e-17
7085.86878 9.91619e-18
7087.85729 9.95482e-18
7089.84581 1.01677e-17
7091.83432 1.01047e-17
7093.82283 9.98808e-18
7095.82139 9.95191e-18
7097.80991 9.89986e-18
7099.79842 9.99278e-18
7101.78693 9.95055e-18
7103.77545 9.76421e-18
7105.76396 9.89690e-18
7107.75248 9.93342e-18
7109.75103 9.95847e-18
7111.73955 9.94836e-18
7113.72806 9.92187e-18
7115.71657 9.83262e-18
7117.70509 9.95094e-18
7119.69360 1.00047e-17
7121.68212 1.00478e-17
7123.67063 1.00152e-17
7125.66919 9.92187e-18
7127.65770 1.00092e-17
7129.64622 9.88982e-18
7131.63473 9.91853e-18
7133.62324 9.93534e-18
7135.61176 9.85924e-18
7137.60027 9.74776e-18
7139.59883 9.75012e-18
7141.58734 9.82436e-18
7143.57586 9.74177e-18
7145.56437 9.92967e-18
7147.55289 1.01527e-17
7149.54140 1.00452e-17
7151.52991 1.00649e-17
7153.52847 1.02064e-17
7155.51698 1.02563e-17
7157.50550 1.02756e-17
7159.49401 1.01900e-17
7161.48253 1.03471e-17
7163.47104 1.04482e-17
7165.45955 1.03304e-17
7167.45811 1.02580e-17
7169.44662 1.00721e-17
7171.43514 1.01917e-17
7173.42365 1.04152e-17
7175.41217 1.04470e-17
7177.40068 1.04228e-17
7179.38919 1.05896e-17
7181.38775 1.07278e-17
7183.37627 1.06372e-17
7185.36478 1.05062e-17
7187.35329 1.06222e-17
7189.34181 1.06055e-17
7191.33032 1.08686e-17
7193.31884 1.07141e-17
7195.30735 1.07302e-17
7197.30591 1.08604e-17
7199.29442 1.07916e-17
7201.28293 1.05860e-17
7203.27145 1.08168e-17
7205.25996 1.09815e-17
7207.24848 1.10632e-17
7209.23699 1.09768e-17
7211.23555 1.09802e-17
7213.22406 1.09573e-17
7215.21258 1.07983e-17
7217.20109 1.09221e-17
7219.18960 1.09101e-17
7221.17812 1.09847e-17
7223.16663 1.10097e-17
7225.16519 1.09894e-17
7227.15370 1.09936e-17
7229.14222 1.11010e-17
7231.13073 1.11369e-17
7233.11924 1.11609e-17
7235.10776 1.12503e-17
7237.09627 1.13223e-17
7239.09483 1.14738e-17
7241.08334 1.13582e-17
7243.07186 1.13872e-17
7245.06037 1.16660e-17
7247.04889 1.19015e-17
7249.03740 1.18338e-17
7251.02591 1.18953e-17
7253.01443 1.19389e-17
7255.01298 1.18573e-17
7257.00150 1.19433e-17
7258.99001 1.20649e-17
7260.97853 1.21223e-17
7262.96704 1.20049e-17
7264.95556 1.20550e-17
7266.94407 1.21745e-17
7268.94263 1.23686e-17
7270.93114 1.23066e-17
7272.91965 1.22958e-17
7274.90817 1.21399e-17
7276.89668 1.20324e-17
7278.88520 1.23697e-17
7280.87371 1.24330e-17
7282.87227 1.25391e-17
7284.86078 1.26218e-17
7286.84929 1.25188e-17
7288.83781 1.24200e-17
7290.82632 1.24998e-17
7292.81484 1.26697e-17
7294.80335 1.27926e-17
7296.80191 1.28937e-17
7298.79042 1.29533e-17
7300.77894 1.30271e-17
7302.76745 1.29433e-17
7304.75596 1.29041e-17
7306.74448 1.31796e-17
7308.73299 1.31561e-17
7310.72151 1.29027e-17
7312.72006 1.32991e-17
7314.70858 1.32084e-17
7316.69709 1.31106e-17
7318.68561 1.31406e-17
7320.67412 1.30975e-17
7322.66263 1.31328e-17
7324.65115 1.31688e-17
7326.64970 1.31937e-17
7328.63822 1.30630e-17
7330.62673 1.28761e-17
7332.61525 1.26340e-17
7334.60376 1.27839e-17
7336.59227 1.29281e-17
7338.58079 1.27173e-17
7340.57934 1.27427e-17
7342.56786 1.26692e-17
7344.55637 1.27927e-17
7346.54489 1.26955e-17
7348.53340 1.24967e-17
7350.52192 1.25435e-17
7352.51043 1.25229e-17
7354.50899 1.27298e-17
7356.49750 1.29078e-17
7358.48601 1.27744e-17
7360.47453 1.27202e-17
7362.46304 1.26411e-17
7364.45156 1.24094e-17
7366.44007 1.24198e-17
7368.42858 1.24244e-17
7370.42714 1.23764e-17
7372.41565 1.23398e-17
7374.40417 1.21860e-17
7376.39268 1.19143e-17
7378.38120 1.19599e-17
7380.36971 1.17799e-17
7382.35822 1.18705e-17
7384.35678 1.18170e-17
7386.34530 1.18684e-17
7388.33381 1.18180e-17
7390.32232 1.17306e-17
7392.31084 1.18429e-17
7394.29935 1.19975e-17
7396.28787 1.18844e-17
7398.28642 1.19538e-17
7400.27494 1.18464e-17
7402.26345 1.18723e-17
7404.25197 1.18704e-17
7406.24048 1.18998e-17
7408.22899 1.17474e-17
7410.21751 1.18574e-17
7412.21606 1.18745e-17
7414.20458 1.16300e-17
7416.19309 1.16016e-17
7418.18161 1.15328e-17
7420.17012 1.14893e-17
7422.15863 1.15659e-17
7424.14715 1.17415e-17
7426.13566 1.17537e-17
7428.13422 1.16724e-17
7430.12273 1.15714e-17
7432.11125 1.13606e-17
7434.09976 1.15137e-17
7436.08828 1.14627e-17
7438.07679 1.12600e-17
7440.06530 1.12901e-17
7442.06386 1.11773e-17
7444.05237 1.12138e-17
7446.04089 1.13829e-17
7448.02940 1.11351e-17
7450.01792 1.11446e-17
7452.00643 1.12132e-17
7453.99494 1.10866e-17
7455.99350 1.10820e-17
7457.98201 1.10924e-17
7459.97053 1.09344e-17
7461.95904 1.09354e-17
7463.94756 1.10994e-17
7465.93607 1.09192e-17
7467.92458 1.08659e-17
7469.92314 1.08836e-17
7471.91166 1.07178e-17
7473.90017 1.06727e-17
7475.88868 1.06208e-17
7477.87720 1.07323e-17
7479.86571 1.06742e-17
7481.85423 1.06460e-17
7483.85278 1.05390e-17
7485.84130 1.03732e-17
7487.82981 1.03871e-17
7489.81833 1.04225e-17
7491.80684 1.05035e-17
7493.79535 1.04125e-17
7495.78387 1.02743e-17
7497.77238 1.02728e-17
7499.77094 1.01516e-17
7501.75945 1.00479e-17
7503.74797 9.81725e-18
7505.73648 9.73474e-18
7507.72499 9.67419e-18
7509.71351 9.54022e-18
7511.70202 9.50696e-18
7513.70058 9.51280e-18
7515.68909 9.30282e-18
7517.67761 9.15117e-18
7519.66612 9.24511e-18
7521.65463 9.27554e-18
7523.64315 9.40611e-18
7525.63166 9.30294e-18
7527.63022 9.29883e-18
7529.61873 9.15130e-18
7531.60725 8.92849e-18
7533.59576 9.01582e-18
7535.58428 8.98934e-18
7537.57279 8.77781e-18
7539.56130 8.71486e-18
7541.55986 8.72499e-18
7543.54837 8.57975e-18
7545.53689 8.46475e-18
7547.52540 8.35346e-18
7549.51392 8.25318e-18
7551.50243 8.25416e-18
7553.49094 8.26140e-18
7555.47946 8.18926e-18
7557.47802 8.06493e-18
7559.46653 8.06359e-18
7561.45504 8.11960e-18
7563.44356 8.04206e-18
7565.43207 8.01702e-18
7567.42059 7.96086e-18
7569.40910 7.87286e-18
7571.40766 7.77562e-18
7573.39617 7.73956e-18
7575.38468 7.54694e-18
7577.37320 7.64132e-18
7579.36171 7.44608e-18
7581.35023 7.29202e-18
7583.33874 7.42504e-18
7585.33730 7.40767e-18
7587.32581 7.15207e-18
7589.31433 7.06432e-18
7591.30284 6.89023e-18
7593.29135 6.63409e-18
7595.27987 6.47539e-18
7597.26838 6.18477e-18
7599.26694 6.40606e-18
7601.25545 6.13615e-18
7603.24397 6.12319e-18
7605.23248 5.99115e-18
7607.22099 6.14926e-18
7609.20951 6.47374e-18
7611.19802 6.03732e-18
7613.18654 6.16167e-18
7615.18509 6.33153e-18
7617.17361 6.24113e-18
7619.16212 6.06184e-18
7621.15064 5.78036e-18
7623.13915 5.51249e-18
7625.12766 5.54604e-18
7627.11618 5.49686e-18
7629.11473 5.46437e-18
7631.10325 5.70722e-18
7633.09176 5.61798e-18
7635.08028 5.48336e-18
7637.06879 5.54838e-18
7639.05731 5.42255e-18
7641.04582 5.42764e-18
7643.04438 5.45604e-18
7645.03289 5.58964e-18
7647.02140 5.60878e-18
7649.00992 5.61103e-18
7650.99843 5.74034e-18
7652.98695 5.79631e-18
7654.97546 5.81927e-18
7656.97402 5.85140e-18
7658.96253 5.95560e-18
7660.95104 6.07465e-18
7662.93956 5.99817e-18
7664.92807 6.18812e-18
7666.91659 6.34450e-18
7668.90510 6.52751e-18
7670.89361 6.80593e-18
7672.89217 6.80896e-18
7674.88069 6.98663e-18
7676.86920 7.26071e-18
7678.85771 7.39805e-18
7680.84623 7.61522e-18
7682.83474 7.89166e-18
7684.82326 8.16940e-18
7686.82181 8.27189e-18
7688.81033 8.44439e-18
7690.79884 8.66411e-18
7692.78736 8.93769e-18
7694.77587 9.24973e-18
7696.76438 9.51605e-18
7698.75290 9.76767e-18
7700.75145 9.70770e-18
7702.73997 1.00721e-17
7704.72848 1.03513e-17
7706.71700 1.03754e-17
7708.70551 1.10033e-17
7710.69402 1.10518e-17
7712.68254 1.12184e-17
7714.68109 1.12492e-17
7716.66961 1.14097e-17
7718.65812 1.18542e-17
7720.64664 1.18700e-17
7722.63515 1.22043e-17
7724.62367 1.23057e-17
7726.61218 1.27900e-17
7728.61074 1.32162e-17
7730.59925 1.29789e-17
7732.58776 1.29199e-17
7734.57628 1.32055e-17
7736.56479 1.32812e-17
7738.55331 1.34287e-17
7740.54182 1.36840e-17
7742.53033 1.39839e-17
7744.52889 1.41249e-17
7746.51741 1.41701e-17
7748.50592 1.41127e-17
7750.49443 1.42866e-17
7752.48295 1.47012e-17
7754.47146 1.48019e-17
7756.45997 1.46480e-17
7758.45853 1.48707e-17
7760.44705 1.51147e-17
7762.43556 1.50503e-17
7764.42407 1.51123e-17
7766.41259 1.50915e-17
7768.40110 1.52758e-17
7770.38962 1.52779e-17
7772.38817 1.52979e-17
7774.37669 1.52373e-17
7776.36520 1.53473e-17
7778.35372 1.53138e-17
7780.34223 1.52792e-17
7782.33074 1.52385e-17
7784.31926 1.54233e-17
7786.31781 1.55004e-17
7788.30633 1.52351e-17
7790.29484 1.51594e-17
7792.28336 1.50371e-17
7794.27187 1.50181e-17
7796.26038 1.47839e-17
7798.24890 1.45923e-17
7800.23741 1.47188e-17
7802.23597 1.47353e-17
7804.22448 1.45516e-17
7806.21300 1.42487e-17
7808.20151 1.41505e-17
7810.19002 1.43116e-17
7812.17854 1.43280e-17
7814.16705 1.41250e-17
7816.16561 1.42159e-17
7818.15412 1.42916e-17
7820.14264 1.41917e-17
7822.13115 1.43086e-17
7824.11967 1.40194e-17
7826.10818 1.37024e-17
7828.09669 1.36462e-17
7830.09525 1.36756e-17
7832.08377 1.36019e-17
7834.07228 1.36959e-17
7836.06079 1.34833e-17
7838.04931 1.38032e-17
7840.03782 1.36455e-17
7842.02633 1.39648e-17
7844.02489 1.36472e-17
7846.01341 1.35870e-17
7848.00192 1.38127e-17
7849.99043 1.36284e-17
7851.97895 1.37472e-17
7853.96746 1.36889e-17
7855.95598 1.32238e-17
7857.94449 1.33056e-17
7859.94305 1.32391e-17
7861.93156 1.32742e-17
7863.92007 1.34133e-17
7865.90859 1.34604e-17
7867.89710 1.33305e-17
7869.88562 1.32471e-17
7871.87413 1.32810e-17
7873.87269 1.32603e-17
7875.86120 1.33562e-17
7877.84972 1.32691e-17
7879.83823 1.31290e-17
7881.82674 1.30757e-17
7883.81526 1.30099e-17
7885.80377 1.31338e-17
7887.80233 1.31832e-17
7889.79084 1.31297e-17
7891.77936 1.31868e-17
7893.76787 1.31221e-17
7895.75638 1.29440e-17
7897.74490 1.30297e-17
7899.73341 1.30440e-17
7901.73197 1.28039e-17
7903.72048 1.29338e-17
7905.70900 1.26693e-17
7907.69751 1.28520e-17
7909.68603 1.32668e-17
7911.67454 1.30408e-17
7913.66305 1.29906e-17
7915.65157 1.28528e-17
7917.65013 1.27271e-17
7919.63864 1.29264e-17
7921.62715 1.29187e-17
7923.61567 1.27791e-17
7925.60418 1.26050e-17
7927.59269 1.26325e-17
7929.58121 1.28020e-17
7931.57977 1.27899e-17
7933.56828 1.26461e-17
7935.55679 1.26460e-17
7937.54531 1.24367e-17
7939.53382 1.23729e-17
7941.52234 1.22988e-17
7943.51085 1.21194e-17
7945.50941 1.22094e-17
7947.49792 1.22864e-17
7949.48643 1.20596e-17
7951.47495 1.19259e-17
7953.46346 1.19877e-17
7955.45198 1.20634e-17
7957.44049 1.19550e-17
7959.42900 1.21028e-17
7961.42756 1.22430e-17
7963.41608 1.18842e-17
7965.40459 1.17838e-17
7967.39310 1.16354e-17
7969.38162 1.17879e-17
7971.37013 1.17996e-17
7973.35865 1.15844e-17
7975.35720 1.14827e-17
7977.34572 1.14242e-17
7979.33423 1.12832e-17
7981.32274 1.13272e-17
7983.31126 1.10901e-17
7985.29977 1.12379e-17
7987.28829 1.12765e-17
7989.28684 1.12930e-17
7991.27536 1.09557e-17
7993.26387 1.07344e-17
7995.25239 1.08724e-17
7997.24090 1.09371e-17
7999.22941 1.08538e-17
8001.21793 1.09959e-17
8003.21648 1.08082e-17
8005.20500 1.06966e-17
8007.19351 1.05890e-17
8009.18203 1.06153e-17
8011.17054 1.08429e-17
8013.15906 1.07607e-17
8015.14757 1.04676e-17
8017.14613 1.04131e-17
8019.13464 1.04829e-17
8021.12315 1.02674e-17
8023.11167 1.03901e-17
8025.10018 1.02570e-17
8027.08870 1.00607e-17
8029.07721 1.02524e-17
8031.07577 1.03216e-17
8033.06428 1.00232e-17
8035.05279 9.89440e-18
8037.04131 9.98915e-18
8039.02982 1.03105e-17
8041.01834 1.00922e-17
8043.00685 9.70871e-18
8044.99536 9.68353e-18
8046.99392 9.75570e-18
8048.98244 9.65922e-18
8050.97095 9.46614e-18
8052.95946 9.60824e-18
8054.94798 9.69510e-18
8056.93649 9.45835e-18
8058.92501 9.35818e-18
8060.92356 9.33158e-18
8062.91208 9.12469e-18
8064.90059 9.11161e-18
8066.88911 9.15092e-18
8068.87762 9.02817e-18
8070.86613 9.11640e-18
8072.85465 9.26453e-18
8074.85320 9.09211e-18
8076.84172 8.96227e-18
8078.83023 8.79757e-18
8080.81875 8.84323e-18
8082.80726 8.97933e-18
8084.79577 8.77892e-18
8086.78429 8.47737e-18
8088.78284 8.41277e-18
8090.77136 8.33334e-18
8092.75987 8.15702e-18
8094.74839 8.00851e-18
8096.73690 7.89500e-18
8098.72541 7.95515e-18
8100.71393 7.99627e-18
8102.70244 7.75502e-18
8104.70100 7.72376e-18
8106.68951 7.92671e-18
8108.67803 7.74981e-18
8110.66654 7.73687e-18
8112.65506 7.72161e-18
8114.64357 7.66869e-18
8116.63208 7.77478e-18
8118.63064 7.80474e-18
8120.61916 7.71257e-18
8122.60767 7.47404e-18
8124.59618 7.72417e-18
8126.58470 7.76384e-18
8128.57321 7.70125e-18
8130.56172 7.83234e-18
8132.56028 7.54047e-18
8134.54880 7.51177e-18
8136.53731 7.48306e-18
8138.52582 7.45435e-18
8140.51434 7.45421e-18
8142.50285 7.46151e-18
8144.49137 7.47311e-18
8146.47988 7.73397e-18
8148.47844 7.50290e-18
8150.46695 7.61119e-18
8152.45547 7.74295e-18
8154.44398 7.52456e-18
8156.43249 7.64318e-18
8158.42101 7.71339e-18
8160.40952 7.72207e-18
8162.40808 7.62074e-18
8164.39659 7.64677e-18
8166.38511 7.66543e-18
8168.37362 7.42506e-18
8170.36213 7.65247e-18
8172.35065 7.64941e-18
8174.33916 7.43877e-18
8176.33772 7.22594e-18
8178.32623 7.12999e-18
8180.31475 7.25618e-18
8182.30326 6.94481e-18
8184.29177 6.60507e-18
8186.28029 6.42650e-18
8188.26880 6.18354e-18
8190.26736 6.06518e-18
8192.25587 5.79439e-18
8194.24439 5.78312e-18
8196.23290 5.48213e-18
8198.22142 5.13439e-18
8200.20993 4.95833e-18
8202.19844 4.84045e-18
8204.18696 4.51595e-18
8206.18551 4.36444e-18
8208.17403 4.31320e-18
8210.16254 3.96730e-18
8212.15106 3.72215e-18
8214.13957 3.72268e-18
8216.12809 3.47893e-18
8218.12664 3.23137e-18
8220.11516 3.26665e-18
8222.10367 3.12627e-18
8224.09218 2.82333e-18
8226.08070 2.74544e-18
8228.06921 2.76122e-18
8230.05773 2.60339e-18
8232.04624 2.59765e-18
8234.04480 2.63178e-18
8236.03331 2.63330e-18
8238.02182 2.58485e-18
8240.01034 2.40211e-18
8241.99885 2.35796e-18
8243.98737 2.40517e-18
8245.97588 2.43918e-18
8247.97444 2.37165e-18
8249.96295 2.17257e-18
8251.95147 2.17234e-18
8253.93998 2.18383e-18
8255.92849 2.12688e-18
8257.91701 2.03407e-18
8259.90552 2.04980e-18
8261.89404 2.02580e-18
8263.89259 1.92715e-18
8265.88111 2.08516e-18
8267.86962 2.07887e-18
8269.85814 2.05706e-18
8271.84665 1.90679e-18
8273.83516 1.79730e-18
8275.82368 1.84283e-18
8277.82223 1.78540e-18
8279.81075 1.76624e-18
8281.79926 1.85186e-18
8283.78778 1.73918e-18
8285.77629 1.67638e-18
8287.76480 1.88689e-18
8289.75332 1.96542e-18
8291.75187 1.91015e-18
8293.74039 1.79864e-18
8295.72890 1.70868e-18
8297.71742 1.90438e-18
8299.70593 2.00827e-18
8301.69444 1.81672e-18
8303.68296 1.71109e-18
8305.68152 1.84473e-18
8307.67003 1.90916e-18
8309.65854 2.00588e-18
8311.64706 1.94191e-18
8313.63557 1.89858e-18
8315.62409 1.91876e-18
8317.61260 1.99633e-18
8319.60111 2.09880e-18
8321.59967 2.02927e-18
8323.58819 2.11581e-18
8325.57670 2.17822e-18
8327.56521 2.11216e-18
8329.55373 2.02810e-18
8331.54224 2.12660e-18
8333.53075 2.22411e-18
8335.52931 2.17408e-18
8337.51783 2.25120e-18
8339.50634 2.38961e-18
8341.49485 2.28835e-18
8343.48337 2.22342e-18
8345.47188 1.93138e-18
8347.46040 2.02494e-18
8349.45895 2.07395e-18
8351.44747 2.25659e-18
8353.43598 2.30465e-18
8355.42449 2.14788e-18
8357.41301 2.19518e-18
8359.40152 2.24386e-18
8361.39004 2.15510e-18
8363.38859 2.07101e-18
8365.37711 2.14845e-18
8367.36562 2.22042e-18
8369.35414 2.17686e-18
8371.34265 2.17884e-18
8373.33116 2.27628e-18
8375.31968 2.33202e-18
8377.31824 2.30972e-18
8379.30675 2.33899e-18
8381.29526 2.34028e-18
8383.28378 2.35116e-18
8385.27229 2.41127e-18
8387.26080 2.36998e-18
8389.24932 2.28978e-18
8391.24788 2.50532e-18
8393.23639 2.49869e-18
8395.22490 2.57540e-18
8397.21342 2.68845e-18
8399.20193 2.74412e-18
8401.19045 2.58524e-18
8403.17896 2.37801e-18
8405.16747 2.56082e-18
8407.16603 2.70506e-18
8409.15454 2.66463e-18
8411.14306 2.68224e-18
8413.13157 2.82027e-18
8415.12009 2.81728e-18
8417.10860 2.69856e-18
8419.09711 2.81827e-18
8421.09567 3.04166e-18
8423.08419 2.99682e-18
8425.07270 3.00107e-18
8427.06121 3.28629e-18
8429.04973 3.31520e-18
8431.03824 3.05527e-18
8433.02676 3.02731e-18
8435.02531 3.12661e-18
8437.01383 3.31375e-18
8439.00234 3.44361e-18
8440.99086 3.52249e-18
8442.97937 3.71155e-18
8444.96788 3.70413e-18
8446.95640 3.72041e-18
8448.95495 3.84416e-18
8450.94347 3.99622e-18
8452.93198 4.04142e-18
8454.92050 4.09746e-18
8456.90901 4.12524e-18
8458.89752 4.19177e-18
8460.88604 4.58019e-18
8462.87455 4.60490e-18
8464.87311 4.99397e-18
8466.86162 5.04928e-18
8468.85014 5.00097e-18
8470.83865 5.31014e-18
8472.82716 5.48057e-18
8474.81568 5.48040e-18
8476.80419 5.64823e-18
8478.80275 5.74965e-18
8480.79126 5.90447e-18
8482.77978 6.13970e-18
8484.76829 6.18985e-18
8486.75681 6.42149e-18
8488.74532 6.44036e-18
8490.73383 6.83120e-18
8492.73239 6.95952e-18
8494.72091 6.85890e-18
8496.70942 7.11444e-18
8498.69793 7.54215e-18
8500.68645 7.56281e-18
8502.67496 7.44848e-18
8504.66347 7.74598e-18
8506.66203 8.04841e-18
8508.65055 8.33086e-18
8510.63906 8.57729e-18
8512.62757 8.66500e-18
8514.61609 9.00680e-18
8516.60460 9.25034e-18
8518.59312 9.32386e-18
8520.58163 9.75713e-18
8522.58019 1.02136e-17
8524.56870 1.03495e-17
8526.55721 1.03042e-17
8528.54573 1.05874e-17
8530.53424 1.10004e-17
8532.52276 1.10668e-17
8534.51127 1.11721e-17
8536.50983 1.16588e-17
8538.49834 1.21481e-17
8540.48686 1.22505e-17
8542.47537 1.21728e-17
8544.46388 1.27707e-17
8546.45240 1.30343e-17
8548.44091 1.32760e-17
8550.43947 1.38302e-17
8552.42798 1.42419e-17
8554.41650 1.45922e-17
8556.40501 1.50228e-17
8558.39352 1.56423e-17
8560.38204 1.59237e-17
8562.37055 1.65766e-17
8564.36911 1.69682e-17
8566.35762 1.73955e-17
8568.34614 1.78167e-17
8570.33465 1.82630e-17
8572.32317 1.81710e-17
8574.31168 1.81008e-17
8576.30019 1.87915e-17
8578.28871 1.94748e-17
8580.28726 1.98093e-17
8582.27578 2.01908e-17
8584.26429 2.05467e-17
8586.25281 2.06612e-17
8588.24132 2.06282e-17
8590.22984 2.10216e-17
8592.21835 2.14342e-17
8594.21691 2.15961e-17
8596.20542 2.21203e-17
8598.19393 2.26971e-17
8600.18245 2.30558e-17
8602.17096 2.34262e-17
8604.15948 2.40637e-17
8606.14799 2.44836e-17
8608.14655 2.49451e-17
8610.13506 2.47967e-17
8612.12357 2.50338e-17
8614.11209 2.56149e-17
8616.10060 2.60722e-17
8618.08912 2.62811e-17
8620.07763 2.65916e-17
8622.07619 2.70787e-17
8624.06470 2.71337e-17
8626.05322 2.67464e-17
8628.04173 2.72288e-17
8630.03024 2.72266e-17
8632.01876 2.73519e-17
8634.00727 2.78377e-17
8635.99579 2.78102e-17
8637.99434 2.71811e-17
8639.98286 2.75433e-17
8641.97137 2.81978e-17
8643.95989 2.79623e-17
8645.94840 2.80163e-17
8647.93691 2.84556e-17
8649.92543 2.84721e-17
8651.92398 2.86352e-17
8653.91250 2.89435e-17
8655.90101 2.92330e-17
8657.88953 2.91249e-17
8659.87804 2.85896e-17
8661.86655 2.90321e-17
8663.85507 2.93396e-17
8665.85362 2.93986e-17
8667.84214 2.97762e-17
8669.83065 2.94166e-17
8671.81917 2.90947e-17
8673.80768 2.94749e-17
8675.79619 2.94852e-17
8677.78471 2.87987e-17
8679.78327 2.87722e-17
8681.77178 2.93603e-17
8683.76029 2.91615e-17
8685.74881 2.86185e-17
8687.73732 2.85067e-17
8689.72584 2.82898e-17
8691.71435 2.83082e-17
8693.70286 2.82990e-17
8695.70142 2.83929e-17
8697.68994 2.84054e-17
8699.67845 2.83658e-17
8701.66696 2.80991e-17
8703.65548 2.79349e-17
8705.64399 2.75849e-17
8707.63250 2.71967e-17
8709.62102 2.69332e-17
8711.61958 2.70293e-17
8713.60809 2.69486e-17
8715.59660 2.68084e-17
8717.58512 2.66951e-17
8719.57363 2.63789e-17
8721.56215 2.60902e-17
8723.56070 2.63806e-17
8725.54922 2.58993e-17
8727.53773 2.57940e-17
8729.52624 2.62557e-17
8731.51476 2.60486e-17
8733.50327 2.58317e-17
8735.49179 2.62223e-17
8737.49034 2.60827e-17
8739.47886 2.57444e-17
8741.46737 2.60615e-17
8743.45589 2.61811e-17
8745.44440 2.59709e-17
8747.43291 2.62014e-17
8749.42143 2.63410e-17
8751.40994 2.63379e-17
8753.40850 2.64818e-17
8755.39701 2.61778e-17
8757.38553 2.57581e-17
8759.37404 2.56636e-17
8761.36255 2.56921e-17
8763.35107 2.54352e-17
8765.33958 2.48072e-17
8767.32810 2.46490e-17
8769.32665 2.46343e-17
8771.31517 2.43720e-17
8773.30368 2.42682e-17
8775.29220 2.40822e-17
8777.28071 2.40762e-17
8779.26922 2.42392e-17
8781.26778 2.38429e-17
8783.25629 2.35446e-17
8785.24481 2.38031e-17
8787.23332 2.36793e-17
8789.22184 2.32503e-17
8791.21035 2.32707e-17
8793.19886 2.32980e-17
8795.19742 2.32970e-17
8797.18594 2.27537e-17
8799.17445 2.24777e-17
8801.16296 2.21859e-17
8803.15148 2.18834e-17
8805.13999 2.16008e-17
8807.12851 2.10228e-17
8809.11702 2.06593e-17
8811.11558 2.04399e-17
8813.10409 2.02184e-17
8815.09260 1.99256e-17
8817.08112 2.00979e-17
8819.06963 1.99597e-17
8821.05815 1.99686e-17
8823.04666 2.01739e-17
8825.04522 1.98750e-17
8827.03373 1.91704e-17
8829.02225 1.86171e-17
8831.01076 1.88554e-17
8832.99927 1.88603e-17
8834.98779 1.84162e-17
8836.97630 1.82421e-17
8838.97486 1.79476e-17
8840.96337 1.73574e-17
8842.95189 1.71975e-17
8844.94040 1.73892e-17
8846.92891 1.67690e-17
8848.91743 1.62285e-17
8850.90594 1.60392e-17
8852.90450 1.55293e-17
8854.89301 1.56808e-17
8856.88153 1.58233e-17
8858.87004 1.53676e-17
8860.85856 1.51731e-17
8862.84707 1.52251e-17
8864.83558 1.47328e-17
8866.82410 1.44540e-17
8868.82265 1.43994e-17
8870.81117 1.44313e-17
8872.79968 1.40539e-17
8874.78820 1.33381e-17
8876.77671 1.30934e-17
8878.76522 1.30934e-17
8880.75374 1.29320e-17
8882.75230 1.30174e-17
8884.74081 1.27819e-17
8886.72932 1.26348e-17
8888.71784 1.23211e-17
8890.70635 1.17138e-17
8892.69487 1.14673e-17
8894.68338 1.12344e-17
8896.68194 1.08924e-17
8898.67045 1.08501e-17
8900.65896 1.07877e-17
8902.64748 1.07295e-17
8904.63599 1.01356e-17
8906.62451 9.65570e-18
8908.61302 9.81020e-18
8910.61158 9.91817e-18
8912.60009 9.81824e-18
8914.58861 9.70424e-18
8916.57712 9.51400e-18
8918.56563 9.22813e-18
8920.55415 8.88478e-18
8922.54266 8.42085e-18
8924.54122 8.23024e-18
8926.52973 8.22917e-18
8928.51825 8.03692e-18
8930.50676 8.03481e-18
8932.49527 7.93238e-18
8934.48379 7.63888e-18
8936.47230 7.59481e-18
8938.46082 7.62854e-18
8940.45937 7.39251e-18
8942.44789 7.57645e-18
8944.43640 7.91404e-18
8946.42492 7.31844e-18
8948.41343 6.97105e-18
8950.40194 7.42983e-18
8952.39046 7.93431e-18
8954.38901 7.73551e-18
8956.37753 7.59048e-18
8958.36604 7.24584e-18
8960.35456 6.92361e-18
8962.34307 6.78108e-18
8964.33158 6.54356e-18
8966.32010 7.05877e-18
8968.31866 7.32794e-18
8970.30717 6.96403e-18
8972.29568 6.63925e-18
8974.28420 6.96495e-18
8976.27271 7.07067e-18
8978.26123 6.80246e-18
8980.24974 6.99071e-18
8982.24830 7.16882e-18
8984.23681 7.28322e-18
8986.22532 7.39618e-18
8988.21384 7.45977e-18
8990.20235 7.92622e-18
8992.19087 7.68182e-18
8994.17938 7.61250e-18
8996.17794 8.08919e-18
8998.16645 8.49511e-18
9000.15497 8.14558e-18
9002.14348 8.06574e-18
9004.13199 8.52604e-18
9006.12051 8.59432e-18
9008.10902 8.90504e-18
9010.09754 9.66840e-18
9012.09609 9.74328e-18
9014.08461 9.44007e-18
9016.07312 9.84510e-18
9018.06164 1.02744e-17
9020.05015 1.00323e-17
9022.03866 9.86955e-18
9024.02718 1.00888e-17
9026.02573 1.04066e-17
9028.01425 1.06380e-17
9030.00276 1.04288e-17
9031.99128 1.05282e-17
9033.97979 1.09978e-17
9035.96830 1.07908e-17
9037.95682 1.08129e-17
9039.95537 1.09667e-17
9041.94389 1.06611e-17
9043.93240 1.10243e-17
9045.92092 1.12740e-17
9047.90943 1.11900e-17
9049.89794 1.13102e-17
9051.88646 1.13982e-17
9053.88502 1.15698e-17
9055.87353 1.17421e-17
9057.86204 1.15550e-17
9059.85056 1.14553e-17
9061.83907 1.20960e-17
9063.82759 1.19980e-17
9065.81610 1.16176e-17
9067.80461 1.15214e-17
9069.80317 1.16273e-17
9071.79169 1.24364e-17
9073.78020 1.21516e-17
9075.76871 1.22961e-17
9077.75723 1.22149e-17
9079.74574 1.16966e-17
9081.73425 1.16105e-17
9083.72277 1.16893e-17
9085.72133 1.20186e-17
9087.70984 1.15662e-17
9089.69835 1.14366e-17
9091.68687 1.13270e-17
9093.67538 1.09983e-17
9095.66390 1.11529e-17
9097.66245 1.13576e-17
9099.65097 1.13201e-17
9101.63948 1.09000e-17
9103.62799 1.03738e-17
9105.61651 1.02333e-17
9107.60502 1.11014e-17
9109.59354 1.12976e-17
9111.59209 1.07264e-17
9113.58061 1.06559e-17
9115.56912 1.10071e-17
9117.55764 1.08168e-17
9119.54615 1.05344e-17
9121.53466 1.07154e-17
9123.52318 1.06495e-17
9125.51169 1.05596e-17
9127.51025 1.09341e-17
9129.49876 1.10480e-17
9131.48728 1.07142e-17
9133.47579 1.09068e-17
9135.46430 1.09413e-17
9137.45282 1.06207e-17
9139.44133 1.04888e-17
9141.42985 1.03305e-17
9143.42840 1.02749e-17
9145.41692 1.01156e-17
9147.40543 1.03706e-17
9149.39395 1.06809e-17
9151.38246 1.02049e-17
9153.37097 9.92776e-18
9155.36953 1.04592e-17
9157.35804 1.08812e-17
9159.34656 1.12519e-17
9161.33507 1.18152e-17
9163.32359 1.20231e-17
9165.31210 1.15924e-17
9167.30061 1.10344e-17
9169.29917 1.12658e-17
9171.28769 1.18615e-17
9173.27620 1.18132e-17
9175.26471 1.22333e-17
9177.25323 1.27739e-17
9179.24174 1.24651e-17
9181.23026 1.27956e-17
9183.21877 1.24920e-17
9185.21733 1.24130e-17
9187.20584 1.24302e-17
9189.19435 1.22713e-17
9191.18287 1.25891e-17
9193.17138 1.25266e-17
9195.15990 1.26990e-17
9197.14841 1.24717e-17
9199.13692 1.28946e-17
9201.13548 1.32668e-17
9203.12400 1.31528e-17
9205.11251 1.28567e-17
9207.10102 1.35022e-17
9209.08954 1.39215e-17
9211.07805 1.31514e-17
9213.07661 1.24086e-17
9215.06512 1.25588e-17
9217.05364 1.35256e-17
9219.04215 1.38768e-17
9221.03066 1.36526e-17
9223.01918 1.30834e-17
9225.00769 1.31243e-17
9227.00625 1.32988e-17
9228.99476 1.32565e-17
9230.98328 1.33761e-17
9232.97179 1.32754e-17
9234.96031 1.32493e-17
9236.94882 1.34323e-17
9238.93733 1.34046e-17
9240.92585 1.32502e-17
9242.92440 1.31003e-17
9244.91292 1.25309e-17
9246.90143 1.23937e-17
9248.88995 1.26819e-17
9250.87846 1.24643e-17
9252.86697 1.23850e-17
9254.85549 1.20779e-17
9256.84400 1.11374e-17
9258.84256 1.06935e-17
9260.83107 1.11357e-17
9262.81959 1.10437e-17
9264.80810 1.06546e-17
9266.79662 1.04298e-17
9268.78513 1.04140e-17
9270.78369 9.96160e-18
9272.77220 1.00802e-17
9274.76071 1.07076e-17
9276.74923 1.01628e-17
9278.73774 9.95721e-18
9280.72626 1.07218e-17
9282.71477 1.08130e-17
9284.71333 1.00145e-17
9286.70184 1.02848e-17
9288.69036 1.06131e-17
9290.67887 1.03316e-17
9292.66738 1.05556e-17
9294.65590 1.14348e-17
9296.64441 1.09428e-17
9298.63293 1.06162e-17
9300.63148 1.01593e-17
9302.62000 1.05483e-17
9304.60851 1.07254e-17
9306.59702 1.02307e-17
9308.58554 1.10746e-17
9310.57405 1.06172e-17
9312.56257 1.00463e-17
9314.55108 1.00095e-17
9316.54964 1.03446e-17
9318.53815 1.07441e-17
9320.52667 1.07031e-17
9322.51518 9.83760e-18
9324.50369 1.06958e-17
9326.49221 1.21210e-17
9328.49076 1.20804e-17
9330.47928 1.16783e-17
9332.46779 1.11275e-17
9334.45631 1.08955e-17
9336.44482 1.16387e-17
9338.43333 1.10992e-17
9340.42185 9.78003e-18
9342.42041 9.76765e-18
9344.40892 1.14583e-17
9346.39743 1.22758e-17
9348.38595 1.29460e-17
9350.37446 1.32539e-17
9352.36298 1.25506e-17
9354.35149 1.16956e-17
9356.34000 1.15825e-17
9358.33856 1.26902e-17
9360.32707 1.33504e-17
9362.31559 1.23797e-17
9364.30410 1.14438e-17
9366.29262 1.08059e-17
9368.28113 1.08190e-17
9370.26964 1.24583e-17
9372.26820 1.28338e-17
9374.25672 1.24648e-17
9376.24523 1.35705e-17
9378.23374 1.26586e-17
9380.22226 1.14860e-17
9382.21077 1.25348e-17
9384.19929 1.29800e-17
9386.19784 1.30827e-17
9388.18636 1.25903e-17
9390.17487 1.18552e-17
9392.16338 1.22909e-17
9394.15190 1.22455e-17
9396.14041 1.24998e-17
9398.12893 1.27510e-17
9400.12748 1.23153e-17
9402.11600 1.18032e-17
9404.10451 1.13921e-17
9406.09303 1.18470e-17
9408.08154 1.25956e-17
9410.07005 1.23903e-17
9412.05857 1.20333e-17
9414.04708 1.34469e-17
9416.04564 1.34100e-17
9418.03415 1.25036e-17
9420.02267 1.27737e-17
9422.01118 1.18836e-17
9423.99969 1.11085e-17
9425.98821 1.18391e-17
9427.97672 1.15230e-17
9429.97528 1.11148e-17
9431.96379 1.22796e-17
9433.95231 1.31420e-17
9435.94082 1.27960e-17
9437.92934 1.19280e-17
9439.91785 1.13098e-17
9441.90636 1.10562e-17
9442.80894 1.10562e-17
9444.80735 1.13232e-17
9446.80577 1.14055e-17
9448.81428 1.11786e-17
9450.81269 1.08521e-17
9452.81110 1.05584e-17
9454.80952 1.04512e-17
9456.80793 1.09498e-17
9458.81644 1.15468e-17
9460.81485 1.16933e-17
9462.81327 1.12492e-17
9464.81168 1.06931e-17
9466.81009 1.04531e-17
9468.81860 1.04344e-17
9470.81702 1.08352e-17
9472.81543 1.14051e-17
9474.81384 1.20614e-17
9476.82235 1.25437e-17
9478.82076 1.27001e-17
9480.81918 1.23228e-17
9482.81759 1.17456e-17
9484.81601 1.11793e-17
9486.82451 1.07636e-17
9488.82293 1.07284e-17
9490.82134 1.09515e-17
9492.81976 1.12652e-17
9494.81817 1.14390e-17
9496.82668 1.14296e-17
9498.82509 1.09264e-17
9500.82350 1.03499e-17
9502.82192 9.92333e-18
9504.83043 9.72325e-18
9506.82884 9.78074e-18
9508.82725 1.00458e-17
9510.82567 1.03739e-17
9512.82408 1.05744e-17
9514.83259 1.06693e-17
9516.83100 1.04928e-17
9518.82942 1.02923e-17
9520.82783 1.03238e-17
9522.82624 1.05626e-17
9524.83475 1.07616e-17
9526.83317 1.06932e-17
9528.83158 1.04990e-17
9530.82999 1.01403e-17
9532.83850 9.81325e-18
9534.83691 9.71742e-18
9536.83533 9.78393e-18
9538.83374 9.83469e-18
9540.83216 9.73247e-18
9542.84066 9.57800e-18
9544.83908 9.37368e-18
9546.83749 9.22555e-18
9548.83591 9.26421e-18
9550.83432 9.40671e-18
9552.84283 9.56840e-18
9554.84124 9.65003e-18
9556.83965 9.64752e-18
9558.83807 9.48271e-18
9560.84658 9.27713e-18
9562.84499 9.13204e-18
9564.84340 9.00945e-18
9566.84182 8.86549e-18
9568.84023 8.69128e-18
9570.84874 8.50198e-18
9572.84715 8.31416e-18
9574.84557 8.17024e-18
9576.84398 8.11615e-18
9578.84239 8.16881e-18
9580.85090 8.40659e-18
9582.84931 8.72059e-18
9584.84773 8.98815e-18
9586.84614 9.06364e-18
9588.85465 9.01769e-18
9590.85306 8.78553e-18
9592.85148 8.53414e-18
9594.84989 8.35128e-18
9596.84831 8.30343e-18
9598.85681 8.43644e-18
9600.85523 8.72332e-18
9602.85364 9.02211e-18
9604.85206 9.14041e-18
9606.86056 9.15901e-18
9608.85898 8.99240e-18
9610.85739 8.83299e-18
9612.85580 8.88096e-18
9614.85422 9.14999e-18
9616.86273 9.44026e-18
9618.86114 9.55436e-18
9620.85955 9.54525e-18
9622.85797 9.28752e-18
9624.85638 8.99513e-18
9626.86489 8.81980e-18
9628.86330 8.82171e-18
9630.86172 8.96530e-18
9632.86013 9.19763e-18
9634.86864 9.36653e-18
9636.86705 9.09234e-18
9638.86547 8.81310e-18
9640.86388 8.84130e-18
9642.86229 9.08807e-18
9644.87080 9.34450e-18
9646.86921 9.45601e-18
9648.86763 9.49784e-18
9650.86604 9.45555e-18
9652.86446 9.37369e-18
9654.87296 9.25126e-18
9656.87138 9.16641e-18
9658.86979 9.19591e-18
9660.86821 9.34571e-18
9662.87671 9.52513e-18
9664.87513 9.64033e-18
9666.87354 9.71084e-18
9668.87195 9.70409e-18
9670.87037 9.64684e-18
9672.87888 9.53246e-18
9674.87729 9.41639e-18
9676.87570 9.35154e-18
9678.87412 9.39933e-18
9680.88262 9.47991e-18
9682.88104 9.53016e-18
9684.87945 9.56301e-18
9686.87787 9.56104e-18
9688.87628 9.55257e-18
9690.88479 9.58671e-18
9692.88320 9.67196e-18
9694.88162 9.72676e-18
9696.88003 9.63106e-18
9698.87844 9.48258e-18
9700.88695 9.28525e-18
9702.88536 9.12365e-18
9704.88378 9.05979e-18
9706.88219 9.13311e-18
9708.89070 9.29748e-18
9710.88911 9.53264e-18
9712.88753 9.71685e-18
9714.88594 9.63367e-18
9716.88436 9.48744e-18
9718.89286 9.48364e-18
9720.89128 9.62075e-18
9722.88969 9.69141e-18
9724.88810 9.54694e-18
9726.89661 9.44429e-18
9728.89503 9.71635e-18
9730.89344 1.00575e-17
9732.89185 1.02812e-17
9734.89027 1.03459e-17
9736.89877 1.03126e-17
9738.89719 1.02393e-17
9740.89560 1.01930e-17
9742.89402 1.03709e-17
9744.89243 1.05375e-17
9746.90094 1.05568e-17
9748.89935 1.04329e-17
9750.89776 1.01759e-17
9752.89618 9.87084e-18
9754.90469 9.63313e-18
9756.90310 9.67107e-18
9758.90151 9.75265e-18
9760.89993 9.74509e-18
9762.89834 9.63819e-18
9764.90685 9.38925e-18
9766.90526 9.08160e-18
9768.90368 8.85370e-18
9770.90209 8.87138e-18
9772.90051 8.95230e-18
9774.90901 8.95253e-18
9776.90743 8.94084e-18
9778.90584 8.93961e-18
9780.90425 8.98819e-18
9782.91276 9.12920e-18
9784.91118 9.37211e-18
9786.90959 9.60140e-18
9788.90800 9.63566e-18
9790.90642 9.60173e-18
9792.91492 9.55347e-18
9794.91334 9.48168e-18
9796.91175 9.32754e-18
9798.91017 9.11083e-18
9800.91867 8.92281e-18
9802.91709 8.89772e-18
9804.91550 8.93581e-18
9806.91392 9.01642e-18
9808.91233 9.09471e-18
9810.92084 9.12697e-18
9812.91925 9.11845e-18
9814.91766 9.14324e-18
9816.91608 9.27227e-18
9818.91449 9.37409e-18
9820.92300 9.33034e-18
9822.92141 9.17588e-18
9824.91983 8.88488e-18
9826.91824 8.54816e-18
9828.92675 8.24927e-18
9830.92516 8.10246e-18
9832.92358 8.05253e-18
9834.92199 8.10601e-18
9836.92040 8.24155e-18
9838.92891 8.52843e-18
9840.92733 8.79309e-18
9842.92574 8.81742e-18
9844.92415 8.53755e-18
9846.92257 8.27636e-18
9848.93107 8.45891e-18
9850.92949 8.72382e-18
9852.92790 8.91650e-18
9854.92632 9.00598e-18
9856.93482 9.00360e-18
9858.93324 8.91243e-18
9860.93165 8.75878e-18
9862.93007 8.57309e-18
9864.92848 8.36920e-18
9866.93699 8.12389e-18
9868.93540 7.95407e-18
9870.93381 7.99498e-18
9872.93223 8.19718e-18
9874.94074 8.40477e-18
9876.93915 8.46998e-18
9878.93756 8.50392e-18
9880.93598 8.58557e-18
9882.93439 8.63951e-18
9884.94290 8.62647e-18
9886.94131 8.53068e-18
9888.93973 8.31974e-18
9890.93814 8.04037e-18
9892.93655 7.83639e-18
9894.94506 8.00506e-18
9896.94348 8.21314e-18
9898.94189 8.24055e-18
9900.94030 8.15876e-18
9902.94881 8.09961e-18
9904.94722 8.10734e-18
9906.94564 8.08566e-18
9908.94405 7.94398e-18
9910.94247 7.87040e-18
9912.95097 8.08568e-18
9914.94939 8.41843e-18
9916.94780 8.78897e-18
9918.94621 9.03284e-18
9920.95472 9.05065e-18
9922.95314 8.70997e-18
9924.95155 8.32075e-18
9926.94996 8.23980e-18
9928.94838 8.26275e-18
9930.95689 8.28253e-18
9932.95530 8.28128e-18
9934.95371 8.33478e-18
9936.95213 8.43689e-18
9938.95054 8.47649e-18
9940.95905 8.16115e-18
9942.95746 7.92569e-18
9944.95588 8.14037e-18
9946.95429 8.59676e-18
9948.96280 9.08649e-18
9950.96121 9.32067e-18
9952.95963 9.20178e-18
9954.95804 8.35262e-18
9956.95645 7.53693e-18
9958.96496 7.49397e-18
9960.96337 7.85185e-18
9962.96179 8.31999e-18
9964.96020 8.62076e-18
9966.95862 8.72352e-18
9968.96712 8.47031e-18
9970.96554 8.16647e-18
9972.96395 8.14377e-18
9974.96236 8.20471e-18
9976.97087 8.18114e-18
9978.96929 8.13560e-18
9980.96770 8.27642e-18
9982.96611 8.68565e-18
9984.96453 9.05364e-18
9986.97304 8.91323e-18
9988.97145 8.63763e-18
9990.96986 8.37640e-18
9992.96828 8.16742e-18
9994.97678 7.93768e-18
9996.97520 7.72153e-18
9998.97361 7.60324e-18
10000.97203 7.73275e-18
10002.97044 7.93186e-18
