# wavelength flux
3475.83208 -1.76263e-18
3477.29836 1.95512e-18
3478.76464 2.48555e-18
3480.24096 6.13009e-18
3481.70724 3.55191e-18
3483.17352 3.13483e-18
3484.64984 3.47604e-18
3486.11612 2.50946e-18
3487.58239 4.05831e-18
3489.05872 1.52998e-18
3490.52499 1.09541e-18
3491.99127 2.87463e-18
3493.46759 2.48800e-18
3494.93387 -1.05586e-18
3496.41019 -1.97299e-18
3497.87647 1.30664e-18
3499.34275 2.71591e-18
3500.81907 3.58680e-18
3502.28535 3.46589e-18
3503.75162 2.48372e-18
3505.22795 4.79135e-18
3506.69422 4.60590e-18
3508.17054 2.77078e-18
3509.63682 2.62058e-18
3511.10310 3.94977e-18
3512.57942 3.63331e-18
3514.04570 7.71970e-19
3515.51198 1.96627e-18
3516.98830 4.23476e-18
3518.45458 1.31350e-18
3519.92085 1.72986e-18
3521.39718 4.39069e-18
3522.86345 2.80680e-18
3524.32973 2.40157e-18
3525.80605 4.67944e-18
3527.27233 3.93333e-18
3528.74865 4.52350e-19
3530.21493 1.17519e-18
3531.68121 3.62150e-18
3533.15753 3.19128e-18
3534.62381 2.43441e-18
3536.09008 3.42653e-18
3537.56641 6.47194e-18
3539.03268 6.70187e-18
3540.49896 3.77550e-18
3541.97528 2.89659e-18
3543.44156 3.87916e-18
3544.91788 1.91924e-18
3546.38416 5.23492e-20
3547.85044 4.68509e-18
3549.32676 6.28104e-18
3550.79304 3.92494e-18
3552.25932 2.39484e-18
3553.73564 2.65735e-18
3555.20191 3.19427e-18
3556.67823 3.07484e-18
3558.14451 2.90462e-18
3559.61079 1.61103e-18
3561.08711 9.23125e-19
3562.55339 6.06706e-19
3564.01967 -2.74446e-19
3565.49599 1.08982e-18
3566.96227 6.22374e-19
3568.42855 3.04970e-18
3569.90487 4.45185e-18
3571.37114 2.83922e-18
3572.83742 4.19801e-18
3574.31374 3.11490e-18
3575.78002 2.11777e-18
3577.25634 3.12710e-18
3578.72262 4.10716e-18
3580.18890 3.69490e-18
3581.66522 2.51742e-18
3583.13150 2.77475e-18
3584.59777 5.08080e-18
3586.07410 5.67481e-18
3587.54037 2.56558e-18
3589.00665 2.21566e-18
3590.48297 3.58299e-18
3591.94925 2.89184e-18
3593.42557 1.67668e-18
3594.89185 4.81103e-19
3596.35813 1.53133e-18
3597.83445 4.85403e-18
3599.30073 3.72894e-18
3600.76700 2.90475e-18
3602.24333 3.70265e-18
3603.70960 2.03347e-18
3605.17588 1.73510e-18
3606.65220 3.33823e-18
3608.11848 3.15817e-18
3609.59480 8.41572e-19
3611.06108 5.36902e-19
3612.52736 2.37295e-18
3614.00368 3.13963e-18
3615.46996 3.11325e-18
3616.93623 2.81080e-18
3618.41256 2.70625e-18
3619.87883 4.35166e-18
3621.34511 3.43963e-18
3622.82143 2.04029e-18
3624.28771 3.89093e-18
3625.76403 4.81344e-18
3627.23031 4.33322e-18
3628.69659 2.42738e-18
3630.17291 2.88481e-18
3631.63919 3.27423e-18
3633.10547 2.73254e-18
3634.58179 9.72915e-19
3636.04806 1.60095e-18
3637.51434 1.76530e-18
3638.99066 2.41892e-18
3640.45694 3.49330e-18
3641.93326 2.11659e-18
3643.39954 1.25339e-18
3644.86582 2.26454e-18
3646.34214 1.48339e-18
3647.80842 2.10452e-18
3649.27470 2.45343e-18
3650.75102 4.04097e-18
3652.21729 4.84708e-18
3653.68357 3.21871e-18
3655.15989 3.25221e-18
3656.62617 2.04777e-18
3658.10249 1.99096e-18
3659.56877 3.21882e-18
3661.03505 3.07412e-18
3662.51137 3.19947e-18
3663.97765 3.52010e-18
3665.44393 5.46634e-18
3666.92025 5.67604e-18
3668.38652 3.21232e-18
3669.85280 3.47419e-18
3671.32912 4.01208e-18
3672.79540 4.07096e-18
3674.27172 4.37414e-18
3675.73800 5.30672e-18
3677.20428 4.09421e-18
3678.68060 2.16479e-18
3680.14688 2.06793e-18
3681.61316 2.77613e-18
3683.08948 3.35857e-18
3684.55575 3.62059e-18
3686.02203 3.15980e-18
3687.49835 2.68080e-18
3688.96463 3.81026e-18
3690.44095 5.28147e-18
3691.90723 4.66678e-18
3693.37351 2.44859e-18
3694.84983 3.43453e-18
3696.31611 4.41820e-18
3697.78238 4.29497e-18
3699.25871 3.38621e-18
3700.72498 4.83182e-18
3702.19126 5.16936e-18
3703.66758 3.98488e-18
3705.13386 3.46106e-18
3706.61018 3.85817e-18
3708.07646 4.55928e-18
3709.54274 3.73726e-18
3711.01906 3.21838e-18
3712.48534 4.25837e-18
3713.95161 4.72545e-18
3715.42794 3.41222e-18
3716.89421 3.20986e-18
3718.36049 3.88725e-18
3719.83681 4.46513e-18
3721.30309 3.27188e-18
3722.77941 3.16788e-18
3724.24569 3.20834e-18
3725.71197 3.24880e-18
3727.18829 3.29014e-18
3728.65457 3.33147e-18
3730.12084 3.37280e-18
3731.59717 3.41412e-18
3733.06344 3.45545e-18
3734.52972 3.49677e-18
3736.00604 3.53809e-18
3737.47232 3.57941e-18
3738.94864 3.62073e-18
3740.41492 3.66205e-18
3741.88120 3.70336e-18
3743.35752 3.74466e-18
3744.82380 3.78597e-18
3746.29007 3.82727e-18
3747.76640 3.86857e-18
3749.23267 3.90986e-18
3750.69895 3.95116e-18
3752.17527 3.99246e-18
3753.64155 4.03375e-18
3755.11787 4.07504e-18
3756.58415 4.11632e-18
3758.05043 4.15761e-18
3759.52675 4.19889e-18
3760.99303 4.24017e-18
3762.45930 4.28144e-18
3763.93563 4.32273e-18
3765.40190 4.13469e-18
3766.86818 3.66022e-18
3768.34450 3.79187e-18
3769.81078 3.28002e-18
3771.28710 3.47217e-18
3772.75338 4.11043e-18
3774.21966 4.23873e-18
3775.69598 4.74404e-18
3777.16226 3.57172e-18
3778.62853 2.32527e-18
3780.10486 2.39521e-18
3781.57113 2.77259e-18
3783.03741 4.28359e-18
3784.51373 4.28362e-18
3785.98001 3.50669e-18
3787.45633 3.69211e-18
3788.92261 3.33745e-18
3790.38889 2.79866e-18
3791.86521 2.50661e-18
3793.33149 2.19661e-18
3794.79777 2.39150e-18
3796.27409 2.20940e-18
3797.74036 2.14516e-18
3799.20664 2.12286e-18
3800.68296 2.41326e-18
3802.14924 2.46995e-18
3803.62556 2.47007e-18
3805.09184 2.26573e-18
3806.55812 2.05410e-18
3808.03444 2.24161e-18
3809.50072 2.03436e-18
3810.96699 1.75491e-18
3812.44332 2.37072e-18
3813.90959 2.10220e-18
3815.37587 1.66594e-18
3816.85219 2.15480e-18
3818.31847 3.04682e-18
3819.79479 2.20134e-18
3821.26107 1.01226e-18
3822.72735 1.77940e-18
3824.20367 1.37395e-18
3825.66995 1.92420e-18
3827.13622 2.57785e-18
3828.61255 2.63457e-18
3830.07882 3.03506e-18
3831.54510 1.64984e-18
3833.02142 1.58162e-18
3834.48770 3.22699e-18
3835.96402 3.28610e-18
3837.43030 2.71693e-18
3838.89658 2.89184e-18
3840.37290 2.08440e-18
3841.83918 2.25369e-18
3843.30545 3.33290e-18
3844.78178 2.93044e-18
3846.24805 2.36827e-18
3847.71433 2.41227e-18
3849.19065 3.75502e-18
3850.65693 3.37260e-18
3852.13325 2.27623e-18
3853.59953 3.15299e-18
3855.06581 3.56722e-18
3856.54213 3.81478e-18
3858.00841 4.25480e-18
3859.47468 3.57549e-18
3860.95101 3.73673e-18
3862.41728 4.32503e-18
3863.88356 4.13186e-18
3865.35988 4.26823e-18
3866.82616 4.33902e-18
3868.30248 4.22978e-18
3869.76876 5.73037e-18
3871.23504 4.77364e-18
3872.71136 4.34365e-18
3874.17764 5.33937e-18
3875.64392 4.36787e-18
3877.12024 4.17425e-18
3878.58651 4.86003e-18
3880.05279 4.67324e-18
3881.52911 4.15093e-18
3882.99539 4.43487e-18
3884.46167 5.37326e-18
3885.93799 5.29585e-18
3887.40427 5.04126e-18
3888.88059 5.44132e-18
3890.34687 4.80288e-18
3891.81315 4.72629e-18
3893.28947 5.33328e-18
3894.75574 5.01367e-18
3896.22202 5.25782e-18
3897.69834 5.81878e-18
3899.16462 5.37787e-18
3900.64094 4.71126e-18
3902.10722 5.56140e-18
3903.57350 5.48442e-18
3905.04982 5.49461e-18
3906.51610 6.47646e-18
3907.98238 6.55006e-18
3909.45870 5.99072e-18
3910.92497 5.60833e-18
3912.39125 4.88028e-18
3913.86757 5.23866e-18
3915.33385 6.35548e-18
3916.81017 6.59905e-18
3918.27645 6.74108e-18
3919.74273 6.80552e-18
3921.21905 6.08474e-18
3922.68533 6.55331e-18
3924.15161 6.45360e-18
3925.62793 6.69252e-18
3927.09420 7.29450e-18
3928.56048 7.13228e-18
3930.03680 6.44066e-18
3931.50308 7.46485e-18
3932.97940 8.37609e-18
3934.44568 7.14203e-18
3935.91196 6.39621e-18
3937.38828 7.60675e-18
3938.85456 8.38797e-18
3940.32083 7.80996e-18
3941.79716 7.81341e-18
3943.26343 8.13388e-18
3944.72971 8.02452e-18
3946.20603 8.27440e-18
3947.67231 7.44447e-18
3949.14863 6.47362e-18
3950.61491 6.96358e-18
3952.08119 7.87114e-18
3953.55751 7.74711e-18
3955.02379 7.63045e-18
3956.49006 8.50903e-18
3957.96639 8.51654e-18
3959.43266 8.64086e-18
3960.89894 8.56980e-18
3962.37526 8.21631e-18
3963.84154 8.59893e-18
3965.30782 8.15028e-18
3966.78414 7.96330e-18
3968.25042 8.42581e-18
3969.72674 8.83744e-18
3971.19302 8.91175e-18
3972.65929 9.56183e-18
3974.13562 9.27045e-18
3975.60189 8.71697e-18
3977.06817 9.27917e-18
3978.54449 9.31197e-18
3980.01077 9.29093e-18
3981.47705 9.70800e-18
3982.95337 1.04369e-17
3984.41965 9.48994e-18
3985.89597 8.58157e-18
3987.36225 9.26154e-18
3988.82852 8.77845e-18
3990.30485 8.99303e-18
3991.77112 9.56980e-18
3993.23740 8.54780e-18
3994.71372 9.32275e-18
3996.18000 9.59709e-18
3997.64628 9.19194e-18
3999.12260 8.87329e-18
4000.58888 8.93458e-18
4002.06520 8.84347e-18
4003.53148 8.57733e-18
4004.99775 8.80297e-18
4006.47408 8.36040e-18
4007.94035 9.01616e-18
4009.40663 9.40885e-18
4010.88295 8.35078e-18
4012.34923 8.16418e-18
4013.81551 8.71462e-18
4015.29183 8.54213e-18
4016.75811 9.26533e-18
4018.23443 9.57416e-18
4019.70071 9.09558e-18
4021.16698 9.03030e-18
4022.64331 8.62577e-18
4024.10958 8.67030e-18
4025.57586 8.05325e-18
4027.05218 7.85531e-18
4028.51846 8.70840e-18
4029.98474 8.96993e-18
4031.46106 8.45306e-18
4032.92734 8.57005e-18
4034.40366 8.40378e-18
4035.86994 8.40074e-18
4037.33622 8.33904e-18
4038.81254 8.54815e-18
4040.27881 8.71343e-18
4041.74509 8.84272e-18
4043.22141 8.29186e-18
4044.68769 7.66081e-18
4046.15397 7.83573e-18
4047.63029 8.32690e-18
4049.09657 7.78011e-18
4050.57289 7.59476e-18
4052.03917 7.74987e-18
4053.50544 7.93249e-18
4054.98177 7.89636e-18
4056.44804 7.10047e-18
4057.91432 7.09057e-18
4059.39064 8.67230e-18
4060.85692 8.86990e-18
4062.32320 7.35883e-18
4063.79952 7.60731e-18
4065.26580 7.57940e-18
4066.74212 6.89806e-18
4068.20840 7.27898e-18
4069.67467 8.05741e-18
4071.15100 7.94638e-18
4072.61727 7.39922e-18
4074.08355 7.50747e-18
4075.55987 7.52604e-18
4077.02615 7.16659e-18
4078.49243 7.06054e-18
4079.96875 7.06586e-18
4081.43503 6.54172e-18
4082.91135 6.68505e-18
4084.37763 7.11813e-18
4085.84390 6.79850e-18
4087.32023 6.58453e-18
4088.78650 6.75743e-18
4090.25278 7.06724e-18
4091.72910 6.83847e-18
4093.19538 6.36908e-18
4094.66166 6.31627e-18
4096.13798 6.49014e-18
4097.60426 6.61428e-18
4099.08058 6.53727e-18
4100.54686 6.06213e-18
4102.01314 6.40378e-18
4103.48946 6.72044e-18
4104.95573 6.79793e-18
4106.42201 6.67326e-18
4107.89833 6.02293e-18
4109.36461 5.94749e-18
4110.83089 5.38269e-18
4112.30721 5.43281e-18
4113.77349 5.65521e-18
4115.24981 5.39512e-18
4116.71609 5.20711e-18
4118.18236 4.99837e-18
4119.65869 4.95495e-18
4121.12496 5.76785e-18
4122.59124 5.59411e-18
4124.06756 4.58277e-18
4125.53384 4.50601e-18
4127.00012 5.44660e-18
4128.47644 5.32210e-18
4129.94272 4.37527e-18
4131.41904 4.60518e-18
4132.88532 4.96814e-18
4134.35159 4.83841e-18
4135.82792 4.84354e-18
4137.29419 5.03912e-18
4138.76047 4.82318e-18
4140.23679 4.84624e-18
4141.70307 4.59875e-18
4143.16935 4.15125e-18
4144.64567 4.34021e-18
4146.11195 4.89955e-18
4147.58827 4.55658e-18
4149.05455 4.36396e-18
4150.52082 4.19778e-18
4151.99715 3.93717e-18
4153.46342 4.44688e-18
4154.92970 4.64868e-18
4156.40602 4.42523e-18
4157.87230 3.83029e-18
4159.33858 4.00003e-18
4160.81490 3.84337e-18
4162.28118 4.59038e-18
4163.75750 4.38883e-18
4165.22378 3.92630e-18
4166.69006 4.41325e-18
4168.16638 4.26458e-18
4169.63265 3.32371e-18
4171.09893 3.46024e-18
4172.57525 3.86568e-18
4174.04153 4.13941e-18
4175.50781 4.05082e-18
4176.98413 3.70088e-18
4178.45041 3.46698e-18
4179.92673 4.16232e-18
4181.39301 4.28739e-18
4182.85928 3.64856e-18
4184.33561 3.64423e-18
4185.80188 4.34043e-18
4187.26816 4.00837e-18
4188.74448 3.21601e-18
4190.21076 4.01553e-18
4191.67704 4.58907e-18
4193.15336 3.75691e-18
4194.61964 3.46529e-18
4196.08592 4.40725e-18
4197.56224 4.25397e-18
4199.02851 4.10549e-18
4200.50484 4.04367e-18
4201.97111 4.05955e-18
4203.43739 3.85047e-18
4204.91371 3.70951e-18
4206.37999 4.74203e-18
4207.84627 4.52836e-18
4209.32259 3.79491e-18
4210.78887 3.94604e-18
4212.26519 4.01095e-18
4213.73147 4.30629e-18
4215.19774 4.26526e-18
4216.67407 4.72939e-18
4218.14034 4.73844e-18
4219.60662 4.36087e-18
4221.08294 4.96701e-18
4222.54922 5.02879e-18
4224.01550 4.53550e-18
4225.49182 4.55601e-18
4226.95810 4.60972e-18
4228.43442 4.52925e-18
4229.90070 4.78766e-18
4231.36697 4.28262e-18
4232.84330 4.37518e-18
4234.30957 4.48402e-18
4235.77585 4.32160e-18
4237.25217 4.22887e-18
4238.71845 4.37118e-18
4240.18473 4.43888e-18
4241.66105 3.85641e-18
4243.12733 4.14383e-18
4244.60365 4.35010e-18
4246.06993 4.23283e-18
4247.53621 4.20218e-18
4249.01253 3.68216e-18
4250.47880 3.65895e-18
4251.94508 4.49387e-18
4253.42140 4.90074e-18
4254.88768 4.07028e-18
4256.35396 3.90749e-18
4257.83028 4.62132e-18
4259.29656 4.78495e-18
4260.77288 4.93635e-18
4262.23916 4.61222e-18
4263.70543 4.23914e-18
4265.18176 4.73922e-18
4266.64803 4.88643e-18
4268.11431 4.44102e-18
4269.59063 4.30254e-18
4271.05691 4.03166e-18
4272.52319 4.05675e-18
4273.99951 4.70641e-18
4275.46579 4.23598e-18
4276.93207 3.94343e-18
4278.40839 4.30557e-18
4279.87467 4.04257e-18
4281.35099 4.29191e-18
4282.81726 4.95474e-18
4284.28354 5.16131e-18
4285.75986 5.04737e-18
4287.22614 5.29510e-18
4288.69242 5.52711e-18
4290.16874 4.71104e-18
4291.63502 4.11541e-18
4293.11134 4.57739e-18
4294.57762 4.91630e-18
4296.04389 4.94001e-18
4297.52022 4.60611e-18
4298.98649 4.64230e-18
4300.45277 5.09659e-18
4301.92909 4.73635e-18
4303.39537 4.15208e-18
4304.86165 4.74334e-18
4306.33797 5.36158e-18
4307.80425 5.16696e-18
4309.28057 4.68876e-18
4310.74685 4.56712e-18
4312.21313 4.43863e-18
4313.68945 4.24988e-18
4315.15572 4.30414e-18
4316.62200 4.43809e-18
4318.09832 4.77916e-18
4319.56460 4.96428e-18
4321.03088 4.64655e-18
4322.50720 4.51816e-18
4323.97348 4.47402e-18
4325.44980 4.48671e-18
4326.91608 4.28211e-18
4328.38236 4.67597e-18
4329.85868 5.47463e-18
4331.32495 5.54640e-18
4332.79123 5.11605e-18
4334.26755 5.16034e-18
4335.73383 5.04861e-18
4337.20011 4.94063e-18
4338.67643 5.22344e-18
4340.14271 5.03260e-18
4341.61903 5.52819e-18
4343.08531 5.97720e-18
4344.55158 5.37608e-18
4346.02791 4.80781e-18
4347.49418 4.46467e-18
4348.96046 4.47815e-18
4350.43678 5.04090e-18
4351.90306 5.41958e-18
4353.36934 5.40373e-18
4354.84566 4.44127e-18
4356.31194 3.92728e-18
4357.77822 4.68438e-18
4359.25454 5.32332e-18
4360.72081 4.92277e-18
4362.19714 4.90836e-18
4363.66341 5.14948e-18
4365.12969 5.11655e-18
4366.60601 5.08363e-18
4368.07229 5.05071e-18
4369.53857 5.01779e-18
4371.01489 4.98487e-18
4372.48117 4.95195e-18
4373.95749 4.91904e-18
4375.42377 4.88613e-18
4376.89004 4.85322e-18
4378.36637 4.82031e-18
4379.83264 4.78742e-18
4381.29892 4.75451e-18
4382.77524 4.72160e-18
4384.24152 4.68871e-18
4385.70780 4.65580e-18
4387.18412 4.62291e-18
4388.65040 4.59001e-18
4390.11668 4.55712e-18
4391.59300 4.52422e-18
4393.05927 4.49133e-18
4394.53560 4.45844e-18
4396.00187 4.42555e-18
4397.46815 4.39267e-18
4398.94447 4.35978e-18
4400.41075 4.32690e-18
4401.87703 4.38576e-18
4403.35335 4.57772e-18
4404.81963 4.78436e-18
4406.28591 4.77525e-18
4407.76223 4.39664e-18
4409.22851 4.40959e-18
4410.70483 4.51911e-18
4412.17110 4.18562e-18
4413.63738 4.20214e-18
4415.11370 4.26845e-18
4416.57998 4.12022e-18
4418.04626 4.00266e-18
4419.52258 4.15076e-18
4420.98886 4.49474e-18
4422.45514 4.36588e-18
4423.93146 4.19070e-18
4425.39773 4.07771e-18
4426.87406 3.89491e-18
4428.34033 4.39049e-18
4429.80661 4.91368e-18
4431.28293 4.81273e-18
4432.74921 4.68669e-18
4434.21549 4.45408e-18
4435.69181 4.60186e-18
4437.15809 4.85722e-18
4438.62437 4.68224e-18
4440.10069 4.72117e-18
4441.56696 5.04544e-18
4443.04329 4.42560e-18
4444.50956 4.17951e-18
4445.97584 4.77742e-18
4447.45216 5.31135e-18
4448.91844 5.38232e-18
4450.38472 5.18385e-18
4451.86104 4.86418e-18
4453.32732 4.68628e-18
4454.79360 5.07558e-18
4456.26992 5.78760e-18
4457.73619 5.70395e-18
4459.21252 5.19261e-18
4460.67879 4.86077e-18
4462.14507 5.49019e-18
4463.62139 5.81282e-18
4465.08767 5.76349e-18
4466.55395 5.88443e-18
4468.03027 5.64462e-18
4469.49655 4.97817e-18
4470.96283 5.29818e-18
4472.43915 6.28393e-18
4473.90542 6.25794e-18
4475.38175 6.16870e-18
4476.84802 6.40423e-18
4478.31430 6.21778e-18
4479.79062 5.98675e-18
4481.25690 6.53904e-18
4482.72318 6.31342e-18
4484.19950 6.07965e-18
4485.66578 6.24889e-18
4487.13206 5.95112e-18
4488.60838 5.92961e-18
4490.07466 6.59016e-18
4491.55098 7.02284e-18
4493.01725 7.17699e-18
4494.48353 6.81088e-18
4495.95985 6.41739e-18
4497.42613 6.68399e-18
4498.89241 6.94908e-18
4500.36873 6.86960e-18
4501.83501 6.55740e-18
4503.30129 6.34279e-18
4504.77761 7.00497e-18
4506.24388 7.57488e-18
4507.72021 7.23287e-18
4509.18648 7.37387e-18
4510.65276 7.48055e-18
4512.12908 7.01974e-18
4513.59536 6.91533e-18
4515.06164 7.21550e-18
4516.53796 7.51276e-18
4518.00424 7.83446e-18
4519.47052 7.68077e-18
4520.94684 7.32451e-18
4522.41312 7.43607e-18
4523.88944 7.24308e-18
4525.35571 7.35857e-18
4526.82199 7.98892e-18
4528.29831 8.15804e-18
4529.76459 8.23569e-18
4531.23087 8.30951e-18
4532.70719 8.12782e-18
4534.17347 8.22579e-18
4535.63975 8.22464e-18
4537.11607 8.19262e-18
4538.58234 8.69537e-18
4540.05867 8.96750e-18
4541.52494 9.05031e-18
4542.99122 8.79577e-18
4544.46754 8.27963e-18
4545.93382 8.82239e-18
4547.40010 9.41770e-18
4548.87642 9.56372e-18
4550.34270 9.72577e-18
4551.80898 9.74252e-18
4553.28530 9.79398e-18
4554.75158 9.56861e-18
4556.22790 9.50895e-18
4557.69417 9.84564e-18
4559.16045 9.80912e-18
4560.63677 9.65325e-18
4562.10305 1.02958e-17
4563.56933 1.07936e-17
4565.04565 1.03972e-17
4566.51193 1.04969e-17
4567.97821 1.07590e-17
4569.45453 1.06033e-17
4570.92081 1.09036e-17
4572.39713 1.14054e-17
4573.86340 1.11881e-17
4575.32968 1.11436e-17
4576.80600 1.10882e-17
4578.27228 1.10481e-17
4579.73856 1.14110e-17
4581.21488 1.17543e-17
4582.68116 1.19570e-17
4584.14744 1.22304e-17
4585.62376 1.24047e-17
4587.09003 1.20340e-17
4588.56636 1.19060e-17
4590.03263 1.20539e-17
4591.49891 1.22675e-17
4592.97523 1.24548e-17
4594.44151 1.20297e-17
4595.90779 1.23963e-17
4597.38411 1.26744e-17
4598.85039 1.23744e-17
4600.31667 1.25660e-17
4601.79299 1.25903e-17
4603.25926 1.23943e-17
4604.73559 1.23963e-17
4606.20186 1.26885e-17
4607.66814 1.31082e-17
4609.14446 1.29146e-17
4610.61074 1.23023e-17
4612.07702 1.24179e-17
4613.55334 1.25211e-17
4615.01962 1.25014e-17
4616.48590 1.24417e-17
4617.96222 1.22181e-17
4619.42849 1.17901e-17
4620.90482 1.21414e-17
4622.37109 1.25346e-17
4623.83737 1.23738e-17
4625.31369 1.17687e-17
4626.77997 1.14866e-17
4628.24625 1.14077e-17
4629.72257 1.19709e-17
4631.18885 1.21547e-17
4632.65513 1.17064e-17
4634.13145 1.15701e-17
4635.59772 1.15590e-17
4637.07405 1.10954e-17
4638.54032 1.12851e-17
4640.00660 1.16934e-17
4641.48292 1.16115e-17
4642.94920 1.15658e-17
4644.41548 1.14806e-17
4645.89180 1.15813e-17
4647.35808 1.16676e-17
4648.82436 1.12906e-17
4650.30068 1.07906e-17
4651.76696 1.06068e-17
4653.24328 1.08542e-17
4654.70955 1.01809e-17
4656.17583 9.97778e-18
4657.65215 1.05092e-17
4659.11843 1.06974e-17
4660.58471 1.07511e-17
4662.06103 1.05353e-17
4663.52731 1.01452e-17
4664.99359 9.90668e-18
4666.46991 9.25671e-18
4667.93618 9.10756e-18
4669.41251 9.87336e-18
4670.87878 1.02867e-17
4672.34506 9.62145e-18
4673.82138 8.92700e-18
4675.28766 9.05011e-18
4676.75394 9.27915e-18
4678.23026 9.44509e-18
4679.69654 9.55480e-18
4681.16282 9.38166e-18
4682.63914 8.94617e-18
4684.10541 8.69695e-18
4685.58174 8.99102e-18
4687.04801 9.02916e-18
4688.51429 8.98518e-18
4689.99061 9.28288e-18
4691.45689 9.07748e-18
4692.92317 8.58890e-18
4694.39949 8.53721e-18
4695.86577 8.27481e-18
4697.33205 8.06175e-18
4698.80837 8.49719e-18
4700.27464 8.44602e-18
4701.75097 7.89291e-18
4703.21724 8.22342e-18
4704.68352 8.65689e-18
4706.15984 7.88295e-18
4707.62612 7.21291e-18
4709.09240 7.51385e-18
4710.56872 8.02813e-18
4712.03500 8.10648e-18
4713.50128 7.41549e-18
4714.97760 7.48383e-18
4716.44387 7.73806e-18
4717.92020 7.60640e-18
4719.38647 7.98328e-18
4720.85275 8.52538e-18
4722.32907 8.17614e-18
4723.79535 7.50208e-18
4725.26163 7.68996e-18
4726.73795 8.09550e-18
4728.20423 8.32380e-18
4729.67051 8.25320e-18
4731.14683 8.29438e-18
4732.61311 8.13443e-18
4734.07938 7.57676e-18
4735.55570 7.69134e-18
4737.02198 8.31968e-18
4738.49830 8.16325e-18
4739.96458 8.06676e-18
4741.43086 8.22222e-18
4742.90718 8.34701e-18
4744.37346 8.22950e-18
4745.83974 7.74996e-18
4747.31606 7.62909e-18
4748.78233 7.99915e-18
4750.25866 7.68538e-18
4751.72493 7.35663e-18
4753.19121 7.14101e-18
4754.66753 7.47772e-18
4756.13381 7.63236e-18
4757.60009 7.41401e-18
4759.07641 6.94206e-18
4760.54269 7.32634e-18
4762.00897 7.75806e-18
4763.48529 7.25994e-18
4764.95157 7.42037e-18
4766.42789 7.66738e-18
4767.89416 7.32514e-18
4769.36044 7.16448e-18
4770.83676 7.06518e-18
4772.30304 6.97648e-18
4773.76932 6.98876e-18
4775.24564 6.70687e-18
4776.71192 6.65023e-18
4778.17820 6.90932e-18
4779.65452 6.78245e-18
4781.12079 6.67715e-18
4782.59712 7.03999e-18
4784.06339 7.24884e-18
4785.52967 6.94295e-18
4787.00599 6.82725e-18
4788.47227 6.87161e-18
4789.93855 7.03960e-18
4791.41487 6.89534e-18
4792.88115 6.27070e-18
4794.34743 6.52630e-18
4795.82375 6.71560e-18
4797.29003 6.78686e-18
4798.75630 6.77616e-18
4800.23262 6.83098e-18
4801.69890 7.11179e-18
4803.17522 7.28589e-18
4804.64150 7.09888e-18
4806.10778 6.73572e-18
4807.58410 6.70525e-18
4809.05038 7.27114e-18
4810.51666 7.31495e-18
4811.99298 7.35329e-18
4813.45926 7.52317e-18
4814.92553 7.32339e-18
4816.40185 7.40447e-18
4817.86813 7.69948e-18
4819.34445 7.22346e-18
4820.81073 7.15225e-18
4822.27701 8.00374e-18
4823.75333 8.52146e-18
4825.21961 8.24238e-18
4826.68589 7.73122e-18
4828.16221 7.89157e-18
4829.62848 8.36548e-18
4831.09476 8.25771e-18
4832.57108 8.12057e-18
4834.03736 7.77961e-18
4835.51368 7.95906e-18
4836.97996 8.40092e-18
4838.44624 8.12422e-18
4839.92256 8.03481e-18
4841.38884 8.25928e-18
4842.85512 8.21011e-18
4844.33144 7.76247e-18
4845.79771 7.75137e-18
4847.26399 8.06360e-18
4848.74031 8.32371e-18
4850.20659 7.99697e-18
4851.68291 7.50582e-18
4853.14919 6.97574e-18
4854.61547 6.55758e-18
4856.09179 7.37452e-18
4857.55807 7.65699e-18
4859.02435 7.35579e-18
4860.50067 7.18062e-18
4861.96694 7.21883e-18
4863.44327 7.44997e-18
4864.90954 7.45968e-18
4866.37582 7.46940e-18
4867.85214 7.47912e-18
4869.31842 7.48883e-18
4870.78470 7.49855e-18
4872.26102 7.50826e-18
4873.72730 7.51798e-18
4875.19358 7.52769e-18
4876.66990 7.53741e-18
4878.13617 7.54712e-18
4879.60245 7.55683e-18
4881.07877 7.56654e-18
4882.54505 7.57626e-18
4884.02137 7.58596e-18
4885.48765 7.59568e-18
4886.95393 7.60539e-18
4888.43025 7.61509e-18
4889.89653 7.62480e-18
4891.36281 7.63451e-18
4892.83913 7.64422e-18
4894.30541 7.65392e-18
4895.77168 7.66363e-18
4897.24800 7.67334e-18
4898.71428 7.68304e-18
4900.19060 7.69275e-18
4901.65688 7.70245e-18
4903.12316 7.94777e-18
4904.59948 8.27280e-18
4906.06576 8.44364e-18
4907.53204 8.35681e-18
4909.00836 8.10153e-18
4910.47463 8.01749e-18
4911.94091 7.96267e-18
4913.41723 8.46891e-18
4914.88351 9.06937e-18
4916.35983 9.09118e-18
4917.82611 8.64773e-18
4919.29239 8.99503e-18
4920.76871 9.06813e-18
4922.23499 8.95898e-18
4923.70127 9.02327e-18
4925.17759 9.56000e-18
4926.64387 9.93356e-18
4928.11014 9.55649e-18
4929.58646 9.85764e-18
4931.05274 1.00752e-17
4932.52906 1.01623e-17
4933.99534 9.99563e-18
4935.46162 1.02503e-17
4936.93794 1.05756e-17
4938.40422 1.08958e-17
4939.87050 1.08666e-17
4941.34682 1.04886e-17
4942.81309 1.07593e-17
4944.27937 1.09259e-17
4945.75569 1.09713e-17
4947.22197 1.08752e-17
4948.69829 1.11180e-17
4950.16457 1.11820e-17
4951.63085 1.06883e-17
4953.10717 1.04840e-17
4954.57345 1.10177e-17
4956.03973 1.12846e-17
4957.51605 1.11013e-17
4958.98232 1.14987e-17
4960.44860 1.15043e-17
4961.92492 1.07245e-17
4963.39120 1.06043e-17
4964.86752 1.04841e-17
4966.33380 1.03638e-17
4967.80008 1.02437e-17
4969.27640 1.01235e-17
4970.74268 1.00033e-17
4972.20896 9.88310e-18
4973.68528 9.76292e-18
4975.15156 9.64278e-18
4976.61783 9.52261e-18
4978.09415 9.40248e-18
4979.56043 9.28232e-18
4981.03675 9.16221e-18
4982.50303 9.04211e-18
4983.96931 8.92198e-18
4985.44563 8.80189e-18
4986.91191 8.68177e-18
4988.37819 8.56169e-18
4989.85451 8.44159e-18
4991.32078 8.32153e-18
4992.78706 8.20144e-18
4994.26338 8.08139e-18
4995.72966 7.96131e-18
4997.20598 7.84124e-18
4998.67226 7.72122e-18
5000.13854 8.11659e-18
5001.61486 8.25648e-18
5003.08114 7.83761e-18
5004.54742 7.82579e-18
5006.02374 7.57625e-18
5007.49002 7.56356e-18
5008.95629 7.84094e-18
5010.43261 7.78181e-18
5011.89889 7.72270e-18
5013.37521 7.66358e-18
5014.84149 7.60448e-18
5016.30777 7.54536e-18
5017.78409 7.48627e-18
5019.25037 7.42719e-18
5020.71665 7.36808e-18
5022.19297 7.30900e-18
5023.65924 7.24990e-18
5025.12552 7.19083e-18
5026.60184 7.13174e-18
5028.06812 7.07267e-18
5029.54444 7.01359e-18
5031.01072 6.95453e-18
5032.47700 6.89545e-18
5033.95332 6.83638e-18
5035.41960 6.77733e-18
5036.88588 6.71827e-18
5038.36220 6.65923e-18
5039.82848 6.60017e-18
5041.29475 6.54114e-18
5042.77107 6.48208e-18
5044.23735 6.42304e-18
5045.71367 6.36401e-18
5047.17995 6.30497e-18
5048.64623 6.40342e-18
5050.12255 6.53371e-18
5051.58883 6.26283e-18
5053.05511 6.33895e-18
5054.53143 6.29749e-18
5055.99770 5.99926e-18
5057.46398 6.05770e-18
5058.94030 5.76995e-18
5060.40658 5.63890e-18
5061.88290 6.28746e-18
5063.34918 6.56693e-18
5064.81546 6.36907e-18
5066.29178 6.28985e-18
5067.75806 6.63719e-18
5069.22434 7.41537e-18
5070.70066 7.47070e-18
5072.16693 6.82860e-18
5073.63321 6.32405e-18
5075.10953 6.29737e-18
5076.57581 6.28965e-18
5078.05213 6.29271e-18
5079.51841 6.64765e-18
5080.98469 6.74075e-18
5082.46101 6.65325e-18
5083.92729 6.95607e-18
5085.39357 7.37307e-18
5086.86989 7.30892e-18
5088.33616 6.69587e-18
5089.80244 6.57094e-18
5091.27876 7.02016e-18
5092.74504 7.05281e-18
5094.22136 6.45191e-18
5095.68764 6.55037e-18
5097.15392 7.14370e-18
5098.63024 6.93938e-18
5100.09652 6.82944e-18
5101.56280 6.99941e-18
5103.03912 7.08545e-18
5104.50539 7.49492e-18
5105.97167 7.39265e-18
5107.44799 7.13833e-18
5108.91427 7.27437e-18
5110.39059 7.38636e-18
5111.85687 7.36212e-18
5113.32315 7.07600e-18
5114.79947 7.42310e-18
5116.26575 7.67962e-18
5117.73203 7.51959e-18
5119.20835 7.52798e-18
5120.67462 7.62635e-18
5122.14090 7.51676e-18
5123.61722 7.36829e-18
5125.08350 7.40623e-18
5126.55982 7.63556e-18
5128.02610 7.87906e-18
5129.49238 7.90363e-18
5130.96870 7.82270e-18
5132.43498 7.77792e-18
5133.90126 7.94149e-18
5135.37758 7.72131e-18
5136.84386 7.47023e-18
5138.31013 7.84662e-18
5139.78645 7.87793e-18
5141.25273 7.80570e-18
5142.72905 8.29869e-18
5144.19533 8.29741e-18
5145.66161 7.79103e-18
5147.13793 7.70224e-18
5148.60421 8.28448e-18
5150.07049 8.62225e-18
5151.54681 8.03079e-18
5153.01308 8.04295e-18
5154.47936 8.32620e-18
5155.95568 8.00556e-18
5157.42196 7.95218e-18
5158.89828 7.99863e-18
5160.36456 7.87660e-18
5161.83084 8.09721e-18
5163.30716 8.34299e-18
5164.77344 8.32844e-18
5166.23972 8.43992e-18
5167.71604 8.23249e-18
5169.18232 8.25190e-18
5170.64859 8.37433e-18
5172.12491 7.99586e-18
5173.59119 8.06108e-18
5175.05747 8.41537e-18
5176.53379 8.63196e-18
5178.00007 8.48484e-18
5179.47639 8.40848e-18
5180.94267 8.64827e-18
5182.40895 8.46459e-18
5183.88527 8.35018e-18
5185.35154 8.54109e-18
5186.81782 8.52794e-18
5188.29414 8.40668e-18
5189.76042 8.40226e-18
5191.23674 8.44543e-18
5192.70302 8.43270e-18
5194.16930 8.49864e-18
5195.64562 8.60327e-18
5197.11190 8.54921e-18
5198.57818 8.40999e-18
5200.05450 8.55542e-18
5201.52077 9.09814e-18
5202.98705 9.31366e-18
5204.46337 9.32234e-18
5205.92965 9.38397e-18
5207.39593 9.02789e-18
5208.87225 8.66579e-18
5210.33853 8.90222e-18
5211.81485 9.25894e-18
5213.28113 8.86316e-18
5214.74741 8.81422e-18
5216.22373 9.23076e-18
5217.69001 9.44706e-18
5219.15628 9.37345e-18
5220.63260 9.27120e-18
5222.09888 9.87999e-18
5223.57520 9.91536e-18
5225.04148 9.34579e-18
5226.50776 9.39837e-18
5227.98408 9.81995e-18
5229.45036 9.96519e-18
5230.91664 9.86251e-18
5232.39296 9.68499e-18
5233.85923 9.64043e-18
5235.32551 9.94074e-18
5236.80183 1.04610e-17
5238.26811 1.03523e-17
5239.74443 9.90977e-18
5241.21071 1.01415e-17
5242.67699 1.01375e-17
5244.15331 9.92329e-18
5245.61959 1.02168e-17
5247.08587 1.02248e-17
5248.56219 1.01146e-17
5250.02847 1.02465e-17
5251.49474 1.03334e-17
5252.97106 1.06816e-17
5254.43734 1.07553e-17
5255.90362 1.08214e-17
5257.37994 1.08339e-17
5258.84622 1.04427e-17
5260.32254 1.07444e-17
5261.78882 1.10342e-17
5263.25510 1.11247e-17
5264.73142 1.14174e-17
5266.19769 1.15113e-17
5267.66397 1.15680e-17
5269.14029 1.17105e-17
5270.60657 1.14844e-17
5272.07285 1.16217e-17
5273.54917 1.18579e-17
5275.01545 1.11707e-17
5276.49177 1.11024e-17
5277.95805 1.17335e-17
5279.42433 1.16405e-17
5280.90065 1.18591e-17
5282.36693 1.23572e-17
5283.83320 1.25682e-17
5285.30952 1.20378e-17
5286.77580 1.16311e-17
5288.24208 1.19241e-17
5289.71840 1.20899e-17
5291.18468 1.20979e-17
5292.66100 1.22461e-17
5294.12728 1.24437e-17
5295.59356 1.26335e-17
5297.06988 1.27298e-17
5298.53615 1.25424e-17
5300.00243 1.26805e-17
5301.47875 1.27941e-17
5302.94503 1.23283e-17
5304.42135 1.22909e-17
5305.88763 1.27575e-17
5307.35391 1.31323e-17
5308.83023 1.30048e-17
5310.29651 1.31011e-17
5311.76279 1.31571e-17
5313.23911 1.36585e-17
5314.70538 1.36436e-17
5316.17166 1.30985e-17
5317.64798 1.33826e-17
5319.11426 1.36151e-17
5320.58054 1.32920e-17
5322.05686 1.30739e-17
5323.52314 1.35718e-17
5324.99946 1.39836e-17
5326.46574 1.40889e-17
5327.93202 1.40110e-17
5329.40834 1.35267e-17
5330.87461 1.35862e-17
5332.34089 1.37282e-17
5333.81721 1.39238e-17
5335.28349 1.42807e-17
5336.74977 1.42416e-17
5338.22609 1.41454e-17
5339.69237 1.37977e-17
5341.16869 1.36101e-17
5342.63497 1.38021e-17
5344.10125 1.40223e-17
5345.57757 1.42185e-17
5347.04384 1.41342e-17
5348.51012 1.37635e-17
5349.98644 1.37792e-17
5351.45272 1.36470e-17
5352.91900 1.33697e-17
5354.39532 1.28302e-17
5355.86160 1.25745e-17
5357.33792 1.27064e-17
5358.80420 1.26314e-17
5360.27048 1.25752e-17
5361.74680 1.24255e-17
5363.21307 1.24020e-17
5364.67935 1.25468e-17
5366.15567 1.24247e-17
5367.62195 1.27389e-17
5369.08823 1.28080e-17
5370.56455 1.24668e-17
5372.03083 1.22023e-17
5373.50715 1.23129e-17
5374.97343 1.27147e-17
5376.43971 1.25109e-17
5377.91603 1.24909e-17
5379.38231 1.22251e-17
5380.84858 1.18269e-17
5382.32490 1.26412e-17
5383.79118 1.22479e-17
5385.25746 1.15156e-17
5386.73378 1.19268e-17
5388.20006 1.19240e-17
5389.67638 1.22330e-17
5391.14266 1.24575e-17
5392.60894 1.20225e-17
5394.08526 1.22535e-17
5395.55153 1.22989e-17
5397.01781 1.24303e-17
5398.49413 1.26459e-17
5399.96041 1.22200e-17
5401.42669 1.21003e-17
5402.90301 1.21155e-17
5404.36929 1.21124e-17
5405.84561 1.23287e-17
5407.31189 1.21859e-17
5408.77817 1.20383e-17
5410.25449 1.25676e-17
5411.72077 1.28585e-17
5413.18704 1.28475e-17
5414.66336 1.26381e-17
5416.12964 1.23046e-17
5417.59592 1.22558e-17
5419.07224 1.25302e-17
5420.53852 1.29525e-17
5422.01484 1.30824e-17
5423.48112 1.29747e-17
5424.94740 1.31349e-17
5426.42372 1.31784e-17
5427.88999 1.31879e-17
5429.35627 1.33909e-17
5430.83259 1.33639e-17
5432.29887 1.35284e-17
5433.76515 1.37026e-17
5435.24147 1.35896e-17
5436.70775 1.39207e-17
5438.18407 1.43901e-17
5439.65035 1.42902e-17
5441.11663 1.42354e-17
5442.59295 1.44244e-17
5444.05922 1.49561e-17
5445.52550 1.51356e-17
5447.00182 1.48206e-17
5448.46810 1.53329e-17
5449.93438 1.59595e-17
5451.41070 1.57087e-17
5452.87698 1.58621e-17
5454.35330 1.62022e-17
5455.81958 1.61596e-17
5457.28586 1.61806e-17
5458.76218 1.58735e-17
5460.22846 1.61427e-17
5461.69473 1.67935e-17
5463.17105 1.64887e-17
5464.63733 1.62615e-17
5466.10361 1.67190e-17
5467.57993 1.69300e-17
5469.04621 1.68162e-17
5470.52253 1.70123e-17
5471.98881 1.70311e-17
5473.45509 1.70784e-17
5474.93141 1.76300e-17
5476.39768 1.77237e-17
5477.86396 1.68635e-17
5479.34028 1.67398e-17
5480.80656 1.72742e-17
5482.27284 1.70504e-17
5483.74916 1.70373e-17
5485.21544 1.74327e-17
5486.69176 1.74239e-17
5488.15804 1.71870e-17
5489.62432 1.70079e-17
5491.10064 1.67502e-17
5492.56692 1.69754e-17
5494.03319 1.71840e-17
5495.50951 1.71693e-17
5496.97579 1.71371e-17
5498.44207 1.67026e-17
5499.91839 1.67565e-17
5501.38467 1.71415e-17
5502.86099 1.71343e-17
5504.32727 1.69426e-17
5505.79355 1.67447e-17
5507.26987 1.66318e-17
5508.73614 1.63972e-17
5510.20242 1.69297e-17
5511.67874 1.71553e-17
5513.14502 1.61596e-17
5514.61130 1.58180e-17
5516.08762 1.60572e-17
5517.55390 1.63496e-17
5519.03022 1.62221e-17
5520.49650 1.61195e-17
5521.96278 1.64613e-17
5523.43910 1.61302e-17
5524.90538 1.55437e-17
5526.37165 1.54517e-17
5527.84797 1.54600e-17
5529.31425 1.55123e-17
5530.78053 1.54294e-17
5532.25685 1.51110e-17
5533.72313 1.51961e-17
5535.19945 1.53426e-17
5536.66573 1.49660e-17
5538.13201 1.49801e-17
5539.60833 1.52984e-17
5541.07460 1.49466e-17
5542.54088 1.48029e-17
5544.01720 1.52006e-17
5545.48348 1.53172e-17
5546.94976 1.52006e-17
5548.42608 1.52095e-17
5549.89236 1.53445e-17
5551.36868 1.48288e-17
5552.83496 1.47203e-17
5554.30124 1.48514e-17
5555.77756 1.46121e-17
5557.24383 1.48090e-17
5558.71011 1.50385e-17
5560.18643 1.49149e-17
5561.65271 1.47927e-17
5563.11899 1.49619e-17
5564.59531 1.49679e-17
5566.06159 1.48499e-17
5567.53791 1.49825e-17
5569.00419 1.49728e-17
5570.47047 1.48368e-17
5571.94679 1.50648e-17
5573.41306 1.56114e-17
5574.87934 1.59463e-17
5576.35566 1.52784e-17
5577.82194 1.55349e-17
5579.28822 1.63528e-17
5580.76454 1.51953e-17
5582.23082 1.49958e-17
5583.70714 1.61231e-17
5585.17342 1.59996e-17
5586.63970 1.56088e-17
5588.11602 1.63713e-17
5589.58229 1.62449e-17
5591.04857 1.58909e-17
5592.52489 1.65559e-17
5593.99117 1.67616e-17
5595.45745 1.67596e-17
5596.93377 1.68072e-17
5598.40005 1.67470e-17
5599.87637 1.67596e-17
5601.34265 1.68982e-17
5602.80893 1.66585e-17
5604.28525 1.63677e-17
5605.75152 1.63502e-17
5607.21780 1.72293e-17
5608.69412 1.78614e-17
5610.16040 1.74446e-17
5611.62668 1.75048e-17
5613.10300 1.73671e-17
5614.56928 1.69474e-17
5616.04560 1.75485e-17
5617.51188 1.77356e-17
5618.97816 1.74088e-17
5620.45448 1.73242e-17
5621.92076 1.78857e-17
5623.38703 1.82476e-17
5624.86335 1.78127e-17
5626.32963 1.72992e-17
5627.79591 1.71477e-17
5629.27223 1.71510e-17
5630.73851 1.73136e-17
5632.21483 1.79245e-17
5633.68111 1.80503e-17
5635.14739 1.82317e-17
5636.62371 1.84992e-17
5638.08998 1.82945e-17
5639.55626 1.79720e-17
5641.03258 1.76822e-17
5642.49886 1.74256e-17
5643.96514 1.73600e-17
5645.44146 1.77322e-17
5646.90774 1.74971e-17
5648.38406 1.70941e-17
5649.85034 1.71551e-17
5651.31662 1.72032e-17
5652.79294 1.70909e-17
5654.25922 1.67666e-17
5655.72549 1.67829e-17
5657.20181 1.70985e-17
5658.66809 1.67749e-17
5660.13437 1.62274e-17
5661.61069 1.60359e-17
5663.07697 1.57509e-17
5664.54325 1.55859e-17
5666.01957 1.55932e-17
5667.48585 1.59221e-17
5668.96217 1.57374e-17
5670.42844 1.52445e-17
5671.89472 1.51738e-17
5673.37104 1.53090e-17
5674.83732 1.51285e-17
5676.30360 1.49085e-17
5677.77992 1.47903e-17
5679.24620 1.45193e-17
5680.72252 1.42555e-17
5682.18880 1.41278e-17
5683.65508 1.42831e-17
5685.13140 1.38564e-17
5686.59767 1.38693e-17
5688.06395 1.40132e-17
5689.54027 1.40983e-17
5691.00655 1.41586e-17
5692.47283 1.33621e-17
5693.94915 1.29864e-17
5695.41543 1.32166e-17
5696.88171 1.32636e-17
5698.35803 1.30541e-17
5699.82431 1.27151e-17
5701.30063 1.26055e-17
5702.76691 1.29152e-17
5704.23318 1.31667e-17
5705.70950 1.32683e-17
5707.17578 1.32207e-17
5708.64206 1.29035e-17
5710.11838 1.22633e-17
5711.58466 1.21393e-17
5713.05094 1.21864e-17
5714.52726 1.19179e-17
5715.99354 1.18019e-17
5717.46986 1.19889e-17
5718.93613 1.23014e-17
5720.40241 1.21384e-17
5721.87873 1.19750e-17
5723.34501 1.18796e-17
5724.81129 1.19972e-17
5726.28761 1.21928e-17
5727.75389 1.18146e-17
5729.22017 1.15241e-17
5730.69649 1.20500e-17
5732.16277 1.22930e-17
5733.63909 1.18539e-17
5735.10537 1.17598e-17
5736.57164 1.20314e-17
5738.04796 1.20187e-17
5739.51424 1.19853e-17
5740.98052 1.22996e-17
5742.45684 1.22302e-17
5743.92312 1.22248e-17
5745.38940 1.25646e-17
5746.86572 1.24503e-17
5748.33200 1.20706e-17
5749.80832 1.18924e-17
5751.27459 1.20541e-17
5752.74087 1.19465e-17
5754.21719 1.17066e-17
5755.68347 1.19851e-17
5757.14975 1.20722e-17
5758.62607 1.19483e-17
5760.09235 1.19555e-17
5761.56867 1.17641e-17
5763.03495 1.17004e-17
5764.50123 1.18234e-17
5765.97755 1.18420e-17
5767.44382 1.16521e-17
5768.91010 1.15055e-17
5770.38642 1.18126e-17
5771.85270 1.18498e-17
5773.31898 1.18732e-17
5774.79530 1.22785e-17
5776.26158 1.22123e-17
5777.72786 1.17070e-17
5779.20418 1.17784e-17
5780.67046 1.18810e-17
5782.14678 1.18115e-17
5783.61305 1.19455e-17
5785.07933 1.18061e-17
5786.55565 1.17180e-17
5788.02193 1.19788e-17
5789.48821 1.19452e-17
5790.96453 1.17517e-17
5792.43081 1.18522e-17
5793.89709 1.20517e-17
5795.37341 1.20687e-17
5796.83969 1.18507e-17
5798.31601 1.19398e-17
5799.78228 1.19072e-17
5801.24856 1.15225e-17
5802.72488 1.16852e-17
5804.19116 1.20701e-17
5805.65744 1.23117e-17
5807.13376 1.23686e-17
5808.60004 1.22536e-17
5810.06632 1.22673e-17
5811.54264 1.26263e-17
5813.00892 1.25404e-17
5814.48524 1.26852e-17
5815.95151 1.28257e-17
5817.41779 1.30875e-17
5818.89411 1.33687e-17
5820.36039 1.33532e-17
5821.82667 1.37088e-17
5823.30299 1.35591e-17
5824.76927 1.33675e-17
5826.23555 1.35877e-17
5827.71187 1.39033e-17
5829.17815 1.39477e-17
5830.65447 1.40540e-17
5832.12074 1.42690e-17
5833.58702 1.43062e-17
5835.06334 1.45897e-17
5836.52962 1.46135e-17
5837.99590 1.42979e-17
5839.47222 1.43613e-17
5840.93850 1.46651e-17
5842.41482 1.51276e-17
5843.88110 1.52595e-17
5845.34738 1.48729e-17
5846.82370 1.42760e-17
5848.28997 1.46931e-17
5849.75625 1.53279e-17
5851.23257 1.49305e-17
5852.69885 1.45429e-17
5854.16513 1.45112e-17
5855.64145 1.48193e-17
5857.10773 1.56141e-17
5858.57401 1.54030e-17
5860.05033 1.53028e-17
5861.51661 1.54998e-17
5862.99293 1.47976e-17
5864.45921 1.46436e-17
5865.92548 1.49183e-17
5867.40180 1.48473e-17
5868.86808 1.46773e-17
5870.33436 1.43681e-17
5871.81068 1.47730e-17
5873.27696 1.49640e-17
5874.74324 1.44004e-17
5876.21956 1.42248e-17
5877.68584 1.43142e-17
5879.16216 1.40688e-17
5880.62843 1.40605e-17
5882.09471 1.42323e-17
5883.57103 1.41935e-17
5885.03731 1.41852e-17
5886.50359 1.41742e-17
5887.97991 1.41704e-17
5889.44619 1.45970e-17
5890.91247 1.42275e-17
5892.38879 1.38398e-17
5893.85507 1.37909e-17
5895.33139 1.39095e-17
5896.79767 1.45394e-17
5898.26394 1.45118e-17
5899.74026 1.41714e-17
5901.20654 1.44538e-17
5902.67282 1.48291e-17
5904.14914 1.47484e-17
5905.61542 1.46254e-17
5907.08170 1.43484e-17
5908.55802 1.43841e-17
5910.02430 1.44486e-17
5911.50062 1.44318e-17
5912.96689 1.42105e-17
5914.43317 1.39735e-17
5915.90949 1.42248e-17
5917.37577 1.44412e-17
5918.84205 1.41212e-17
5920.31837 1.40240e-17
5921.78465 1.42555e-17
5923.25093 1.42598e-17
5924.72725 1.43368e-17
5926.19353 1.42608e-17
5927.66985 1.40095e-17
5929.13612 1.41039e-17
5930.60240 1.46544e-17
5932.07872 1.50021e-17
5933.54500 1.46167e-17
5935.01128 1.42467e-17
5936.48760 1.45297e-17
5937.95388 1.48135e-17
5939.42016 1.47377e-17
5940.89648 1.46506e-17
5942.36276 1.43250e-17
5943.83908 1.40775e-17
5945.30536 1.44045e-17
5946.77163 1.47217e-17
5948.24795 1.44585e-17
5949.71423 1.40637e-17
5951.18051 1.39942e-17
5952.65683 1.41373e-17
5954.12311 1.42277e-17
5955.58939 1.41447e-17
5957.06571 1.40959e-17
5958.53199 1.39461e-17
5960.00831 1.38577e-17
5961.47458 1.41732e-17
5962.94086 1.43123e-17
5964.41718 1.36240e-17
5965.88346 1.31448e-17
5967.34974 1.35963e-17
5968.82606 1.37899e-17
5970.29234 1.35317e-17
5971.75862 1.32822e-17
5973.23494 1.34392e-17
5974.70122 1.38364e-17
5976.17754 1.34411e-17
5977.64382 1.33697e-17
5979.11009 1.38941e-17
5980.58641 1.35382e-17
5982.05269 1.26976e-17
5983.51897 1.27568e-17
5984.99529 1.34195e-17
5986.46157 1.35285e-17
5987.92785 1.32317e-17
5989.40417 1.30859e-17
5990.87045 1.29972e-17
5992.34677 1.26469e-17
5993.81304 1.25958e-17
5995.27932 1.26704e-17
5996.75564 1.27071e-17
5998.22192 1.27484e-17
5999.68820 1.22945e-17
6001.16452 1.20544e-17
6002.63080 1.18684e-17
6004.09708 1.18852e-17
6005.57340 1.23694e-17
6007.03968 1.25376e-17
6008.51600 1.26563e-17
6009.98227 1.24276e-17
6011.44855 1.21451e-17
6012.92487 1.21445e-17
6014.39115 1.22321e-17
6015.85743 1.25230e-17
6017.33375 1.23831e-17
6018.80003 1.21513e-17
6020.26631 1.20460e-17
6021.74263 1.19963e-17
6023.20891 1.24274e-17
6024.68523 1.24882e-17
6026.15150 1.23077e-17
6027.61778 1.21562e-17
6029.09410 1.17858e-17
6030.56038 1.18281e-17
6032.02666 1.21148e-17
6033.50298 1.20956e-17
6034.96926 1.19691e-17
6036.43554 1.16617e-17
6037.91186 1.15467e-17
6039.37814 1.16741e-17
6040.84441 1.15747e-17
6042.32073 1.16142e-17
6043.78701 1.13419e-17
6045.26333 1.12974e-17
6046.72961 1.15557e-17
6048.19589 1.16351e-17
6049.67221 1.15989e-17
6051.13849 1.16292e-17
6052.60477 1.14379e-17
6054.08109 1.13701e-17
6055.54737 1.11374e-17
6057.01364 1.06911e-17
6058.48996 1.12525e-17
6059.95624 1.17162e-17
6061.43256 1.16669e-17
6062.89884 1.15251e-17
6064.36512 1.15036e-17
6065.84144 1.17895e-17
6067.30772 1.17039e-17
6068.77400 1.11091e-17
6070.25032 1.10574e-17
6071.71660 1.11856e-17
6073.19292 1.11820e-17
6074.65919 1.13971e-17
6076.12547 1.12797e-17
6077.60179 1.11671e-17
6079.06807 1.12196e-17
6080.53435 1.12137e-17
6082.01067 1.10243e-17
6083.47695 1.08860e-17
6084.94323 1.10054e-17
6086.41955 1.07832e-17
6087.88583 1.08242e-17
6089.36215 1.14221e-17
6090.82842 1.13932e-17
6092.29470 1.13385e-17
6093.77102 1.12746e-17
6095.23730 1.08555e-17
6096.70358 1.08772e-17
6098.17990 1.08536e-17
6099.64618 1.06156e-17
6101.11246 1.06225e-17
6102.58878 1.08742e-17
6104.05506 1.10979e-17
6105.53138 1.08834e-17
6106.99766 1.08600e-17
6108.46393 1.09767e-17
6109.94025 1.06572e-17
6111.40653 1.03693e-17
6112.87281 1.04881e-17
6114.34913 1.09269e-17
6115.81541 1.11984e-17
6117.28169 1.09505e-17
6118.75801 1.10666e-17
6120.22429 1.13353e-17
6121.69056 1.11284e-17
6123.16688 1.13548e-17
6124.63316 1.15096e-17
6126.10948 1.13581e-17
6127.57576 1.16610e-17
6129.04204 1.16974e-17
6130.51836 1.12425e-17
6131.98464 1.13854e-17
6133.45092 1.18250e-17
6134.92724 1.18318e-17
6136.39352 1.17071e-17
6137.85979 1.14895e-17
6139.33612 1.16647e-17
6140.80239 1.21416e-17
6142.27871 1.21661e-17
6143.74499 1.21770e-17
6145.21127 1.22069e-17
6146.68759 1.21703e-17
6148.15387 1.21716e-17
6149.62015 1.22553e-17
6151.09647 1.23844e-17
6152.56275 1.26237e-17
6154.02902 1.31133e-17
6155.50534 1.31342e-17
6156.97162 1.26959e-17
6158.44794 1.26769e-17
6159.91422 1.30877e-17
6161.38050 1.31758e-17
6162.85682 1.28901e-17
6164.32310 1.27449e-17
6165.78938 1.27023e-17
6167.26570 1.30010e-17
6168.73198 1.33403e-17
6170.19825 1.31213e-17
6171.67458 1.29852e-17
6173.14085 1.30692e-17
6174.61717 1.30705e-17
6176.08345 1.32229e-17
6177.54973 1.33981e-17
6179.02605 1.31258e-17
6180.49233 1.29357e-17
6181.95861 1.33151e-17
6183.43493 1.36185e-17
6184.90121 1.32924e-17
6186.36748 1.29363e-17
6187.84381 1.27223e-17
6189.31008 1.24362e-17
6190.78640 1.26759e-17
6192.25268 1.29760e-17
6193.71896 1.26557e-17
6195.19528 1.22394e-17
6196.66156 1.19288e-17
6198.12784 1.24329e-17
6199.60416 1.25809e-17
6201.07044 1.21911e-17
6202.53671 1.28007e-17
6204.01303 1.29554e-17
6205.47931 1.22479e-17
6206.95563 1.20048e-17
6208.42191 1.24310e-17
6209.88819 1.23879e-17
6211.36451 1.19764e-17
6212.83079 1.20814e-17
6214.29707 1.23316e-17
6215.77339 1.22913e-17
6217.23967 1.22363e-17
6218.70594 1.27125e-17
6220.18227 1.23972e-17
6221.64854 1.16635e-17
6223.12486 1.16096e-17
6224.59114 1.19946e-17
6226.05742 1.18986e-17
6227.53374 1.13049e-17
6229.00002 1.12313e-17
6230.46630 1.14152e-17
6231.94262 1.17794e-17
6233.40890 1.20202e-17
6234.87517 1.22173e-17
6236.35149 1.20930e-17
6237.81777 1.15369e-17
6239.29409 1.14276e-17
6240.76037 1.16433e-17
6242.22665 1.13425e-17
6243.70297 1.13646e-17
6245.16925 1.19457e-17
6246.63553 1.21166e-17
6248.11185 1.17438e-17
6249.57813 1.13209e-17
6251.04440 1.15064e-17
6252.52072 1.18747e-17
6253.98700 1.16358e-17
6255.46332 1.11051e-17
6256.92960 1.11692e-17
6258.39588 1.17940e-17
6259.87220 1.18955e-17
6261.33848 1.16355e-17
6262.80476 1.12998e-17
6264.28108 1.08536e-17
6265.74736 1.03679e-17
6267.21363 1.02546e-17
6268.68995 1.06041e-17
6270.15623 1.06575e-17
6271.63255 1.07519e-17
6273.09883 1.08655e-17
6274.56511 1.03889e-17
6276.04143 1.00761e-17
6277.50771 1.02838e-17
6278.97399 1.03667e-17
6280.45031 1.00907e-17
6281.91659 1.00473e-17
6283.38286 1.06423e-17
6284.85918 1.10066e-17
6286.32546 1.06771e-17
6287.80178 1.03864e-17
6289.26806 1.04553e-17
6290.73434 1.08691e-17
6292.21066 1.12553e-17
6293.67694 1.08121e-17
6295.14322 1.02440e-17
6296.61954 9.82550e-18
6298.08582 9.87272e-18
6299.55209 1.04686e-17
6301.02841 1.03649e-17
6302.49469 1.00985e-17
6303.97101 1.00617e-17
6305.43729 9.79812e-18
6306.90357 1.00209e-17
6308.37989 1.01967e-17
6309.84617 9.66824e-18
6311.31245 9.74343e-18
6312.78877 1.03002e-17
6314.25505 1.03980e-17
6315.72132 1.04698e-17
6317.19764 1.04270e-17
6318.66392 1.02359e-17
6320.14024 1.01966e-17
6321.60652 1.03062e-17
6323.07280 1.06951e-17
6324.54912 1.03312e-17
6326.01540 9.64515e-18
6327.48168 1.00807e-17
6328.95800 1.06153e-17
6330.42428 1.02708e-17
6331.89055 1.01330e-17
6333.36687 1.05025e-17
6334.83315 1.02518e-17
6336.30947 1.00558e-17
6337.77575 1.04689e-17
6339.24203 1.05779e-17
6340.71835 1.02381e-17
6342.18463 1.02074e-17
6343.65091 1.05807e-17
6345.12723 1.05809e-17
6346.59351 1.03881e-17
6348.05978 1.03222e-17
6349.53611 1.06710e-17
6351.00238 1.12662e-17
6352.47870 1.11304e-17
6353.94498 1.06142e-17
6355.41126 1.04443e-17
6356.88758 1.05630e-17
6358.35386 1.05734e-17
6359.82014 1.04570e-17
6361.29646 1.05564e-17
6362.76274 1.05677e-17
6364.22901 1.03092e-17
6365.70533 1.09395e-17
6367.17161 1.14344e-17
6368.64793 1.06713e-17
6370.11421 1.04775e-17
6371.58049 1.09109e-17
6373.05681 1.11553e-17
6374.52309 1.10328e-17
6375.98937 1.11448e-17
6377.46569 1.13790e-17
6378.93197 1.12879e-17
6380.39824 1.12725e-17
6381.87457 1.10276e-17
6383.34084 1.12652e-17
6384.81716 1.16647e-17
6386.28344 1.15232e-17
6387.74972 1.16221e-17
6389.22604 1.15974e-17
6390.69232 1.12412e-17
6392.15860 1.18473e-17
6393.63492 1.24052e-17
6395.10120 1.17381e-17
6396.56747 1.15628e-17
6398.04379 1.19144e-17
6399.51007 1.22011e-17
6400.98639 1.19912e-17
6402.45267 1.15295e-17
6403.91895 1.19001e-17
6405.39527 1.20379e-17
6406.86155 1.16851e-17
6408.32783 1.18777e-17
6409.80415 1.22175e-17
6411.27043 1.21774e-17
6412.73670 1.24356e-17
6414.21303 1.29075e-17
6415.67930 1.27671e-17
6417.15562 1.21327e-17
6418.62190 1.22622e-17
6420.08818 1.30451e-17
6421.56450 1.28126e-17
6423.03078 1.26271e-17
6424.49706 1.31477e-17
6425.97338 1.31600e-17
6427.43966 1.29147e-17
6428.90593 1.27913e-17
6430.38226 1.31560e-17
6431.84853 1.32608e-17
6433.32485 1.30806e-17
6434.79113 1.31187e-17
6436.25741 1.30571e-17
6437.73373 1.32439e-17
6439.20001 1.35579e-17
6440.66629 1.36715e-17
6442.14261 1.36859e-17
6443.60889 1.34392e-17
6445.07516 1.31181e-17
6446.55148 1.31221e-17
6448.01776 1.35139e-17
6449.49408 1.37217e-17
6450.96036 1.31927e-17
6452.42664 1.33101e-17
6453.90296 1.36670e-17
6455.36924 1.38353e-17
6456.83552 1.38802e-17
6458.31184 1.37802e-17
6459.77812 1.38615e-17
6461.24439 1.33482e-17
6462.72072 1.32669e-17
6464.18699 1.37435e-17
6465.66331 1.34731e-17
6467.12959 1.34432e-17
6468.59587 1.35615e-17
6470.07219 1.32933e-17
6471.53847 1.36668e-17
6473.00475 1.39519e-17
6474.48107 1.35296e-17
6475.94735 1.34276e-17
6477.41362 1.34844e-17
6478.88994 1.33453e-17
6480.35622 1.34866e-17
6481.83254 1.35507e-17
6483.29882 1.38963e-17
6484.76510 1.38549e-17
6486.24142 1.33901e-17
6487.70770 1.36150e-17
6489.17398 1.35713e-17
6490.65030 1.33854e-17
6492.11658 1.37165e-17
6493.58285 1.33042e-17
6495.05917 1.31148e-17
6496.52545 1.38128e-17
6497.99173 1.38186e-17
6499.46805 1.33412e-17
6500.93433 1.32802e-17
6502.41065 1.39210e-17
6503.87693 1.43990e-17
6505.34321 1.43723e-17
6506.81953 1.42003e-17
6508.28581 1.42797e-17
6509.75208 1.43352e-17
6511.22840 1.39150e-17
6512.69468 1.37413e-17
6514.17100 1.38753e-17
6515.63728 1.40290e-17
6517.10356 1.41977e-17
6518.57988 1.41943e-17
6520.04616 1.40871e-17
6521.51244 1.40954e-17
6522.98876 1.41881e-17
6524.45504 1.41380e-17
6525.92131 1.42303e-17
6527.39763 1.43818e-17
6528.86391 1.42433e-17
6530.34023 1.42416e-17
6531.80651 1.43186e-17
6533.27279 1.41617e-17
6534.74911 1.42042e-17
6536.21539 1.47045e-17
6537.68167 1.46121e-17
6539.15799 1.42351e-17
6540.62427 1.45515e-17
6542.09054 1.42264e-17
6543.56686 1.36744e-17
6545.03314 1.40778e-17
6546.50946 1.42946e-17
6547.97574 1.41332e-17
6549.44202 1.42720e-17
6550.91834 1.40720e-17
6552.38462 1.38605e-17
6553.85090 1.42027e-17
6555.32722 1.43379e-17
6556.79350 1.42753e-17
6558.25977 1.42175e-17
6559.73609 1.43331e-17
6561.20237 1.43336e-17
6562.66865 1.43341e-17
6564.14497 1.43345e-17
6565.61125 1.43350e-17
6567.08757 1.43355e-17
6568.55385 1.43360e-17
6570.02013 1.43364e-17
6571.49645 1.43369e-17
6572.96273 1.43374e-17
6574.42900 1.43379e-17
6575.90532 1.43383e-17
6577.37160 1.43388e-17
6578.83788 1.43393e-17
6580.31420 1.43398e-17
6581.78048 1.43403e-17
6583.25680 1.43407e-17
6584.72308 1.43412e-17
6586.18936 1.43417e-17
6587.66568 1.43422e-17
6589.13196 1.43426e-17
6590.59823 1.43431e-17
6592.07456 1.43436e-17
6593.54083 1.43441e-17
6595.00711 1.43446e-17
6596.48343 1.43450e-17
6597.94971 1.43455e-17
6599.42603 1.43460e-17
6600.89231 1.43465e-17
6602.35859 1.43469e-17
6603.83491 1.43474e-17
6605.30119 1.43479e-17
6606.76746 1.43484e-17
6608.24378 1.43489e-17
6609.71006 1.43493e-17
6611.17634 1.43498e-17
6612.65266 1.43503e-17
6614.11894 1.43508e-17
6615.59526 1.43512e-17
6617.06154 1.43517e-17
6618.52782 1.43522e-17
6620.00414 1.43527e-17
6621.47042 1.43532e-17
6622.93669 1.43217e-17
6624.41302 1.40167e-17
6625.87929 1.41431e-17
6627.35561 1.42656e-17
6628.82189 1.44113e-17
6630.28817 1.44203e-17
6631.76449 1.43375e-17
6633.23077 1.46524e-17
6634.69705 1.46379e-17
6636.17337 1.45436e-17
6637.63965 1.46042e-17
6639.10592 1.41807e-17
6640.58224 1.41840e-17
6642.04852 1.46486e-17
6643.51480 1.40212e-17
6644.99112 1.39563e-17
6646.45740 1.41978e-17
6647.93372 1.38336e-17
6649.40000 1.39158e-17
6650.86628 1.37350e-17
6652.34260 1.32825e-17
6653.80888 1.31520e-17
6655.27515 1.33249e-17
6656.75148 1.34811e-17
6658.21775 1.36102e-17
6659.68403 1.36598e-17
6661.16035 1.34827e-17
6662.62663 1.33348e-17
6664.10295 1.32301e-17
6665.56923 1.31100e-17
6667.03551 1.35810e-17
6668.51183 1.34861e-17
6669.97811 1.27894e-17
6671.44438 1.29111e-17
6672.92071 1.32609e-17
6674.38698 1.30633e-17
6675.85326 1.28515e-17
6677.32958 1.28749e-17
6678.79586 1.29254e-17
6680.27218 1.28576e-17
6681.73846 1.26702e-17
6683.20474 1.28553e-17
6684.68106 1.27788e-17
6686.14734 1.27213e-17
6687.61361 1.32623e-17
6689.08993 1.35305e-17
6690.55621 1.32051e-17
6692.02249 1.29366e-17
6693.49881 1.30390e-17
6694.96509 1.27770e-17
6696.44141 1.26310e-17
6697.90769 1.29676e-17
6699.37397 1.24916e-17
6700.85029 1.25676e-17
6702.31657 1.27589e-17
6703.78284 1.23963e-17
6705.25917 1.26116e-17
6706.72544 1.28938e-17
6708.19172 1.26721e-17
6709.66804 1.26903e-17
6711.13432 1.32691e-17
6712.61064 1.34045e-17
6714.07692 1.33431e-17
6715.54320 1.29614e-17
6717.01952 1.25127e-17
6718.48580 1.29564e-17
6719.95207 1.31344e-17
6721.42839 1.27900e-17
6722.89467 1.26926e-17
6724.36095 1.29877e-17
6725.83727 1.32080e-17
6727.30355 1.30131e-17
6728.77987 1.25949e-17
6730.24615 1.28469e-17
6731.71243 1.31161e-17
6733.18875 1.33064e-17
6734.65503 1.38349e-17
6736.12130 1.37035e-17
6737.59762 1.32524e-17
6739.06390 1.29372e-17
6740.53018 1.25668e-17
6742.00650 1.27815e-17
6743.47278 1.31524e-17
6744.94910 1.30488e-17
6746.41538 1.36434e-17
6747.88166 1.41939e-17
6749.35798 1.38176e-17
6750.82426 1.33825e-17
6752.29053 1.27940e-17
6753.76685 1.27651e-17
6755.23313 1.29504e-17
6756.69941 1.27867e-17
6758.17573 1.29651e-17
6759.64201 1.30945e-17
6761.11833 1.30378e-17
6762.58461 1.28597e-17
6764.05089 1.24337e-17
6765.52721 1.26439e-17
6766.99349 1.31819e-17
6768.45976 1.31563e-17
6769.93608 1.31671e-17
6771.40236 1.34959e-17
6772.86864 1.34134e-17
6774.34496 1.28788e-17
6775.81124 1.26968e-17
6777.28756 1.29499e-17
6778.75384 1.32062e-17
6780.22012 1.31229e-17
6781.69644 1.29108e-17
6783.16272 1.29995e-17
6784.62899 1.31453e-17
6786.10531 1.29515e-17
6787.57159 1.25191e-17
6789.03787 1.22499e-17
6790.51419 1.23138e-17
6791.98047 1.20925e-17
6793.45679 1.20784e-17
6794.92307 1.23494e-17
6796.38935 1.23865e-17
6797.86567 1.22126e-17
6799.33195 1.17188e-17
6800.79822 1.16188e-17
6802.27454 1.19552e-17
6803.74082 1.15942e-17
6805.20710 1.11768e-17
6806.68342 1.17549e-17
6808.14970 1.20928e-17
6809.62602 1.17424e-17
6811.09230 1.14525e-17
6812.55858 1.14717e-17
6814.03490 1.16051e-17
6815.50118 1.15198e-17
6816.96745 1.15267e-17
6818.44377 1.16049e-17
6819.91005 1.14366e-17
6821.37633 1.13536e-17
6822.85265 1.12348e-17
6824.31893 1.10268e-17
6825.78521 1.13215e-17
6827.26153 1.15440e-17
6828.72781 1.11196e-17
6830.20413 1.08096e-17
6831.67041 1.06820e-17
6833.13668 1.02661e-17
6834.61301 1.04633e-17
6836.07928 1.11243e-17
6837.54556 1.06306e-17
6839.02188 1.02613e-17
6840.48816 1.04094e-17
6841.96448 1.07240e-17
6843.43076 1.09393e-17
6844.89704 1.05603e-17
6846.37336 1.07594e-17
6847.83964 1.09360e-17
6849.30591 1.05864e-17
6850.78223 1.01994e-17
6852.24851 1.04814e-17
6853.71479 1.07947e-17
6855.19111 1.05749e-17
6856.65739 1.02493e-17
6858.13371 1.02758e-17
6859.59999 1.04699e-17
6861.06627 1.04471e-17
6862.54259 1.06285e-17
6864.00887 1.06156e-17
6865.47514 1.09238e-17
6866.95147 1.11788e-17
6868.41774 1.04373e-17
6869.88402 1.02136e-17
6871.36034 1.08328e-17
6872.82662 1.09581e-17
6874.30294 1.03582e-17
6875.76922 9.95352e-18
6877.23550 1.01724e-17
6878.71182 1.03627e-17
6880.17810 1.05051e-17
6881.64437 1.05580e-17
6883.12069 1.05531e-17
6884.58697 1.06665e-17
6886.05325 1.08062e-17
6887.52957 1.04566e-17
6888.99585 1.01900e-17
6890.47217 1.04029e-17
6891.93845 1.06611e-17
6893.40473 1.08443e-17
6894.88105 1.06547e-17
6896.34733 1.05541e-17
6897.81360 1.04982e-17
6899.28993 1.05637e-17
6900.75620 1.09391e-17
6902.22248 1.07178e-17
6903.69880 1.05547e-17
6905.16508 1.11007e-17
6906.63136 1.11532e-17
6908.10768 1.10248e-17
6909.57396 1.08182e-17
6911.05028 1.10632e-17
6912.51656 1.15839e-17
6913.98283 1.13573e-17
6915.45916 1.08070e-17
6916.92543 1.07569e-17
6918.39171 1.10129e-17
6919.86803 1.11132e-17
6921.33431 1.10758e-17
6922.81063 1.10775e-17
6924.27691 1.08732e-17
6925.74319 1.04532e-17
6927.21951 1.08169e-17
6928.68579 1.14156e-17
6930.15206 1.15163e-17
6931.62838 1.09396e-17
6933.09466 1.07283e-17
6934.56094 1.11498e-17
6936.03726 1.11822e-17
6937.50354 1.13842e-17
6938.96982 1.17264e-17
6940.44614 1.15963e-17
6941.91242 1.15387e-17
6943.38874 1.18837e-17
6944.85502 1.21145e-17
6946.32129 1.18240e-17
6947.79762 1.15865e-17
6949.26389 1.19368e-17
6950.73017 1.19593e-17
6952.20649 1.17576e-17
6953.67277 1.16960e-17
6955.14909 1.14064e-17
6956.61537 1.14778e-17
6958.08165 1.17570e-17
6959.55797 1.17818e-17
6961.02425 1.12596e-17
6962.49052 1.09465e-17
6963.96684 1.11902e-17
6965.43312 1.13469e-17
6966.89940 1.15716e-17
6968.37572 1.16592e-17
6969.84200 1.19300e-17
6971.31832 1.17793e-17
6972.78460 1.13175e-17
6974.25088 1.13956e-17
6975.72720 1.12632e-17
6977.19348 1.12090e-17
6978.65975 1.13946e-17
6980.13607 1.15009e-17
6981.60235 1.10806e-17
6983.06863 1.08833e-17
6984.54495 1.13492e-17
6986.01123 1.14923e-17
6987.47751 1.15209e-17
6988.95383 1.15227e-17
6990.42011 1.15093e-17
6991.89643 1.14575e-17
6993.36271 1.09623e-17
6994.82898 1.10600e-17
6996.30530 1.11224e-17
6997.77158 1.08568e-17
6999.23786 1.08298e-17
7000.71418 1.08163e-17
7002.18046 1.06953e-17
7003.65678 1.06900e-17
7005.12306 1.08582e-17
7006.58934 1.11484e-17
7008.06566 1.09930e-17
7009.53194 1.05137e-17
7010.99821 1.06889e-17
7012.47453 1.07917e-17
7013.94081 1.06235e-17
7015.40709 1.15296e-17
7016.88341 1.19076e-17
7018.34969 1.04659e-17
7019.81597 1.01433e-17
7021.29229 1.06736e-17
7022.75857 1.05693e-17
7024.23489 1.03219e-17
7025.70117 1.03213e-17
7027.16744 1.04162e-17
7028.64376 1.03723e-17
7030.11004 1.04282e-17
7031.57632 1.08419e-17
7033.05264 1.08162e-17
7034.51892 1.06969e-17
7035.98520 1.06421e-17
7037.46152 1.05753e-17
7038.92780 1.03685e-17
7040.40412 1.04330e-17
7041.87040 1.06017e-17
7043.33667 1.04374e-17
7044.81299 1.07677e-17
7046.27927 1.08353e-17
7047.74555 1.00389e-17
7049.22187 9.70169e-18
7050.68815 9.99787e-18
7052.15443 1.00302e-17
7053.63075 9.98056e-18
7055.09703 1.01370e-17
7056.57335 1.02316e-17
7058.03963 1.01387e-17
7059.50590 1.01438e-17
7060.98222 1.05635e-17
7062.44850 1.07247e-17
7063.91478 1.02794e-17
7065.39110 1.01252e-17
7066.85738 1.01090e-17
7068.32366 1.02296e-17
7069.79998 1.05107e-17
7071.26626 1.05167e-17
7072.74258 1.04282e-17
7074.20886 1.04805e-17
7075.67513 1.04693e-17
7077.15146 1.00852e-17
7078.61773 9.98835e-18
7080.08401 1.01926e-17
7081.56033 1.00516e-17
7083.02661 1.00559e-17
7084.50293 1.03668e-17
7085.96921 1.02281e-17
7087.43549 1.00408e-17
7088.91181 1.02800e-17
7090.37809 1.03002e-17
7091.84436 1.01446e-17
7093.32068 1.02153e-17
7094.78696 1.04468e-17
7096.25324 1.03898e-17
7097.72956 1.02768e-17
7099.19584 1.03983e-17
7100.66212 1.04450e-17
7102.13844 1.05125e-17
7103.60472 1.05577e-17
7105.08104 1.07695e-17
7106.54732 1.10192e-17
7108.01359 1.05548e-17
7109.48992 1.00782e-17
7110.95619 1.03240e-17
7112.42247 1.02767e-17
7113.89879 9.68889e-18
7115.36507 9.92486e-18
7116.83135 1.05825e-17
7118.30767 1.03957e-17
7119.77395 1.01505e-17
7121.25027 1.01967e-17
7122.71655 1.02267e-17
7124.18282 1.02443e-17
7125.65914 1.01688e-17
7127.12542 1.00850e-17
7128.59170 1.03240e-17
7130.06802 1.08306e-17
7131.53430 1.04274e-17
7133.00058 9.81238e-18
7134.47690 1.00313e-17
7135.94318 1.01186e-17
7137.41950 1.02525e-17
7138.88578 1.05959e-17
7140.35205 1.05815e-17
7141.82838 1.01666e-17
7143.29465 9.88468e-18
7144.76093 1.00224e-17
7146.23725 1.00985e-17
7147.70353 9.84728e-18
7149.16981 9.67947e-18
7150.64613 9.65705e-18
7152.11241 9.39752e-18
7153.58873 9.47697e-18
7155.05501 9.95375e-18
7156.52128 1.01002e-17
7157.99761 1.01107e-17
7159.46388 1.01058e-17
7160.93016 1.00976e-17
7162.40648 1.00989e-17
7163.87276 1.00485e-17
7165.33904 1.01627e-17
7166.81536 1.01886e-17
7168.28164 1.01586e-17
7169.75796 1.01689e-17
7171.22424 1.02845e-17
7172.69051 1.02169e-17
7174.16683 9.83880e-18
7175.63311 9.84913e-18
7177.09939 9.95241e-18
7178.57571 9.79697e-18
7180.04199 9.54773e-18
7181.50827 9.87332e-18
7182.98459 1.04187e-17
7184.45087 1.02667e-17
7185.92719 1.01232e-17
7187.39347 1.05308e-17
7188.85974 1.06362e-17
7190.33607 1.02625e-17
7191.80234 1.02463e-17
7193.26862 1.03818e-17
7194.74494 1.03171e-17
7196.21122 1.04354e-17
7197.67750 1.03960e-17
7199.15382 1.03806e-17
7200.62010 1.05553e-17
7202.09642 1.05225e-17
7203.56270 1.07616e-17
7205.02897 1.10330e-17
7206.50529 1.07855e-17
7207.97157 1.06391e-17
7209.43785 1.03970e-17
7210.91417 1.03903e-17
7212.38045 1.07140e-17
7213.84673 1.08351e-17
7215.32305 1.09154e-17
7216.78933 1.07394e-17
7218.26565 1.07979e-17
7219.73193 1.06513e-17
7221.19820 1.08981e-17
7222.67452 1.11171e-17
7224.14080 1.05608e-17
7225.60708 1.03747e-17
7227.08340 1.04743e-17
7228.54968 1.05584e-17
7230.01596 1.06323e-17
7231.49228 1.10393e-17
7232.95856 1.11660e-17
7234.43488 1.11805e-17
7235.90116 1.11366e-17
7237.36743 1.11992e-17
7238.84375 1.17961e-17
7240.31003 1.25068e-17
7241.77631 1.20616e-17
7243.25263 1.11800e-17
7244.71891 1.10706e-17
7246.18519 1.10922e-17
7247.66151 1.11947e-17
7249.12779 1.13847e-17
7250.60411 1.18011e-17
7252.07039 1.16184e-17
7253.53666 1.11616e-17
7255.01298 1.11999e-17
7256.47926 1.11788e-17
7257.94554 1.06137e-17
7259.42186 1.04941e-17
7260.88814 1.07363e-17
7262.35442 1.08989e-17
7263.83074 1.09808e-17
7265.29702 1.08920e-17
7266.77334 1.11940e-17
7268.23962 1.13671e-17
7269.70589 1.13010e-17
7271.18221 1.14675e-17
7272.64849 1.15234e-17
7274.11477 1.13273e-17
7275.59109 1.08550e-17
7277.05737 1.11996e-17
7278.52365 1.14219e-17
7279.99997 1.09431e-17
7281.46625 1.08904e-17
7282.93253 1.10242e-17
7284.40885 1.09923e-17
7285.87512 1.07096e-17
7287.35144 1.07355e-17
7288.81772 1.09276e-17
7290.28400 1.06480e-17
7291.76032 1.02436e-17
7293.22660 1.05417e-17
7294.69288 1.07032e-17
7296.16920 1.03473e-17
7297.63548 1.05334e-17
7299.11180 1.03594e-17
7300.57808 1.00865e-17
7302.04435 1.02572e-17
7303.52067 1.04517e-17
7304.98695 1.02017e-17
7306.45323 1.00490e-17
7307.92955 1.05830e-17
7309.39583 1.05509e-17
7310.86211 1.02858e-17
7312.33843 1.04730e-17
7313.80471 1.07527e-17
7315.28103 1.08714e-17
7316.74731 1.06786e-17
7318.21358 1.06146e-17
7319.68991 1.06128e-17
7321.15618 1.04678e-17
7322.62246 1.06982e-17
7324.09878 1.08342e-17
7325.56506 1.04019e-17
7327.03134 1.05317e-17
7328.50766 1.09263e-17
7329.97394 1.04564e-17
7331.45026 1.04477e-17
7332.91654 1.08859e-17
7334.38281 1.08793e-17
7335.85913 1.01405e-17
7337.32541 1.03187e-17
7338.79169 1.10280e-17
7340.26801 1.08154e-17
7341.73429 1.05061e-17
7343.20057 1.02900e-17
7344.67689 1.00719e-17
7346.14317 1.01951e-17
7347.61949 1.02682e-17
7349.08577 1.02585e-17
7350.55204 1.08033e-17
7352.02837 1.08758e-17
7353.49464 1.04454e-17
7354.96092 1.05676e-17
7356.43724 1.07126e-17
7357.90352 1.07049e-17
7359.36980 1.09431e-17
7360.84612 1.06744e-17
7362.31240 1.07577e-17
7363.77867 1.10061e-17
7365.25500 1.07617e-17
7366.72127 1.07400e-17
7368.19759 1.07227e-17
7369.66387 1.06873e-17
7371.13015 1.07403e-17
7372.60647 1.07547e-17
7374.07275 1.11769e-17
7375.53903 1.11516e-17
7377.01535 1.05484e-17
7378.48163 1.07277e-17
7379.94790 1.04949e-17
7381.42423 1.02336e-17
7382.89050 1.05781e-17
7384.36683 1.10834e-17
7385.83310 1.11968e-17
7387.29938 1.09070e-17
7388.77570 1.11040e-17
7390.24198 1.11224e-17
7391.70826 1.07907e-17
7393.18458 1.06599e-17
7394.65086 1.06916e-17
7396.12718 1.06219e-17
7397.59346 1.05648e-17
7399.05973 1.07483e-17
7400.53606 1.12769e-17
7402.00233 1.11920e-17
7403.46861 1.10378e-17
7404.94493 1.12083e-17
7406.41121 1.13470e-17
7407.87749 1.13791e-17
7409.35381 1.16490e-17
7410.82009 1.15129e-17
7412.29641 1.11203e-17
7413.76269 1.11565e-17
7415.22896 1.10685e-17
7416.20519 1.10685e-17
7418.20361 1.10209e-17
7420.20202 1.10123e-17
7422.21053 1.10309e-17
7424.20894 1.10334e-17
7426.20735 1.09488e-17
7428.20577 1.08797e-17
7430.20418 1.09318e-17
7432.21269 1.10210e-17
7434.21110 1.10564e-17
7436.20952 1.10255e-17
7438.20793 1.10110e-17
7440.21644 1.10802e-17
7442.21485 1.11434e-17
7444.21327 1.11097e-17
7446.21168 1.10455e-17
7448.21009 1.09964e-17
7450.21860 1.09708e-17
7452.21702 1.09412e-17
7454.21543 1.08972e-17
7456.21384 1.08580e-17
7458.22235 1.08510e-17
7460.22076 1.08487e-17
7462.21918 1.08408e-17
7464.21759 1.08171e-17
7466.21601 1.07686e-17
7468.22451 1.06993e-17
7470.22293 1.06332e-17
7472.22134 1.06044e-17
7474.21976 1.05925e-17
7476.21817 1.06188e-17
7478.22668 1.06234e-17
7480.22509 1.05323e-17
7482.22350 1.03594e-17
7484.22192 1.02064e-17
7486.23043 1.01845e-17
7488.22884 1.01902e-17
7490.22725 1.01405e-17
7492.22567 1.00979e-17
7494.22408 1.01231e-17
7496.23259 1.02024e-17
7498.23100 1.02827e-17
7500.22942 1.03154e-17
7502.22783 1.03298e-17
7504.22624 1.03378e-17
7506.23475 1.03286e-17
7508.23317 1.02898e-17
7510.23158 1.02337e-17
7512.22999 1.01691e-17
7514.23850 1.01149e-17
7516.23691 1.00775e-17
7518.23533 1.00789e-17
7520.23374 1.01068e-17
7522.23216 1.01920e-17
7524.24066 1.02616e-17
7526.23908 1.02351e-17
7528.23749 1.01040e-17
7530.23591 9.96177e-18
7532.23432 9.90574e-18
7534.24283 9.88241e-18
7536.24124 9.88750e-18
7538.23965 9.90374e-18
7540.23807 9.91843e-18
7542.24658 9.92589e-18
7544.24499 9.93778e-18
7546.24340 9.95808e-18
7548.24182 9.97269e-18
7550.24023 9.97284e-18
7552.24874 9.94737e-18
7554.24715 9.87348e-18
7556.24557 9.77338e-18
7558.24398 9.66833e-18
7560.24239 9.59259e-18
7562.25090 9.55235e-18
7564.24932 9.60713e-18
7566.24773 9.65844e-18
7568.24614 9.62300e-18
7570.25465 9.54091e-18
7572.25306 9.47019e-18
7574.25148 9.44155e-18
7576.24989 9.42450e-18
7578.24831 9.40478e-18
7580.25681 9.37061e-18
7582.25523 9.28608e-18
7584.25364 9.19373e-18
7586.25206 9.15416e-18
7588.26056 9.13836e-18
7590.25898 9.05362e-18
7592.25739 8.81628e-18
7594.25580 8.57060e-18
7596.25422 8.45271e-18
7598.26273 8.41174e-18
7600.26114 8.45359e-18
7602.25955 8.52114e-18
7604.25797 8.57584e-18
7606.25638 8.55362e-18
7608.26489 8.46578e-18
7610.26330 8.20585e-18
7612.26172 7.99014e-18
7614.26013 8.00469e-18
7616.26864 8.16768e-18
7618.26705 8.37047e-18
7620.26547 8.49708e-18
7622.26388 8.54336e-18
7624.26229 8.41499e-18
7626.27080 8.24918e-18
7628.26921 8.14864e-18
7630.26763 8.08833e-18
7632.26604 8.02683e-18
7634.27455 7.96438e-18
7636.27296 7.93485e-18
7638.27138 7.96645e-18
7640.26979 7.99738e-18
7642.26821 7.96372e-18
7644.27671 7.89469e-18
7646.27513 7.79186e-18
7648.27354 7.68917e-18
7650.27195 7.62266e-18
7652.27037 7.61823e-18
7654.27888 7.60959e-18
7656.27729 7.49332e-18
7658.27570 7.37054e-18
7660.27412 7.29226e-18
7662.28262 7.26667e-18
7664.28104 7.27978e-18
7666.27945 7.31987e-18
7668.27787 7.37463e-18
7670.27628 7.41921e-18
7672.28479 7.47147e-18
7674.28320 7.56331e-18
7676.28162 7.63949e-18
7678.28003 7.63912e-18
7680.27844 7.55792e-18
7682.28695 7.45988e-18
7684.28536 7.40909e-18
7686.28378 7.37409e-18
7688.28219 7.35424e-18
7690.29070 7.34240e-18
7692.28911 7.32383e-18
7694.28753 7.31343e-18
7696.28594 7.34484e-18
7698.28436 7.43693e-18
7700.29286 7.52507e-18
7702.29128 7.52928e-18
7704.28969 7.49045e-18
7706.28810 7.39972e-18
7708.29661 7.30509e-18
7710.29503 7.24711e-18
7712.29344 7.26175e-18
7714.29185 7.30821e-18
7716.29027 7.35919e-18
7718.29877 7.41773e-18
7720.29719 7.47989e-18
7722.29560 7.53880e-18
7724.29402 7.58715e-18
7726.29243 7.62709e-18
7728.30094 7.66902e-18
7730.29935 7.72498e-18
7732.29777 7.80677e-18
7734.29618 7.94223e-18
7736.30469 8.10523e-18
7738.30310 8.29207e-18
7740.30151 8.46467e-18
7742.29993 8.59526e-18
7744.29834 8.64413e-18
7746.30685 8.65454e-18
7748.30526 8.62848e-18
7750.30368 8.62936e-18
7752.30209 8.72482e-18
7754.30051 8.89054e-18
7756.30901 9.07591e-18
7758.30743 9.22813e-18
7760.30584 9.35296e-18
7762.30425 9.41298e-18
7764.31276 9.45004e-18
7766.31118 9.48510e-18
7768.30959 9.52246e-18
7770.30800 9.55206e-18
7772.30642 9.58181e-18
7774.31492 9.62581e-18
7776.31334 9.70679e-18
7778.31175 9.79973e-18
7780.31017 9.90315e-18
7782.30858 9.98702e-18
7784.31709 1.00191e-17
7786.31550 1.00055e-17
7788.31392 9.98177e-18
7790.31233 9.98532e-18
7792.32084 1.00070e-17
7794.31925 1.00825e-17
7796.31766 1.01454e-17
7798.31608 1.01346e-17
7800.31449 1.00661e-17
7802.32300 9.98842e-18
7804.32141 9.94560e-18
7806.31983 9.92139e-18
7808.31824 9.95719e-18
7810.32675 9.96103e-18
7812.32516 9.83834e-18
7814.32358 9.65371e-18
7816.32199 9.47469e-18
7818.32040 9.38020e-18
7820.32891 9.37083e-18
7822.32733 9.51079e-18
7824.32574 9.68951e-18
7826.32415 9.84225e-18
7828.32257 9.93763e-18
7830.33107 9.94737e-18
7832.32949 9.88485e-18
7834.32790 9.79958e-18
7836.32632 9.75049e-18
7838.33482 9.73012e-18
7840.33324 9.76437e-18
7842.33165 9.83767e-18
7844.33007 9.96568e-18
7846.32848 1.00979e-17
7848.33699 1.01818e-17
7850.33540 1.01644e-17
7852.33381 1.01109e-17
7854.33223 1.00555e-17
7856.33064 1.00291e-17
7858.33915 1.01111e-17
7860.33756 1.02130e-17
7862.33598 1.02196e-17
7864.33439 1.00719e-17
7866.34290 9.87938e-18
7868.34131 9.73063e-18
7870.33973 9.63673e-18
7872.33814 9.65807e-18
7874.33655 9.75677e-18
7876.34506 9.91755e-18
7878.34348 1.00805e-17
7880.34189 1.02069e-17
7882.34030 1.02213e-17
7884.34881 1.01853e-17
7886.34722 1.01039e-17
7888.34564 1.00339e-17
7890.34405 1.00400e-17
7892.34247 1.00994e-17
7894.35097 1.01414e-17
7896.34939 1.00987e-17
7898.34780 1.00118e-17
7900.34622 9.87924e-18
7902.34463 9.73093e-18
7904.35314 9.57908e-18
7906.35155 9.44989e-18
7908.34996 9.34846e-18
7910.34838 9.29656e-18
7912.35689 9.29575e-18
7914.35530 9.37053e-18
7916.35371 9.48525e-18
7918.35213 9.64323e-18
7920.35054 9.78807e-18
7922.35905 9.87687e-18
7924.35746 9.88300e-18
7926.35588 9.83996e-18
7928.35429 9.76725e-18
7930.35270 9.69557e-18
7932.36121 9.66264e-18
7934.35963 9.67084e-18
7936.35804 9.73226e-18
7938.35645 9.82830e-18
7940.36496 9.93379e-18
7942.36337 1.00146e-17
7944.36179 1.00798e-17
7946.36020 1.01420e-17
7948.35862 1.01522e-17
7950.36712 1.00499e-17
7952.36554 9.87532e-18
7954.36395 9.67017e-18
7956.36237 9.51197e-18
7958.37087 9.43431e-18
7960.36929 9.58934e-18
7962.36770 9.77426e-18
7964.36611 9.88175e-18
7966.36453 9.87901e-18
7968.37304 9.74636e-18
7970.37145 9.52792e-18
7972.36986 9.33377e-18
7974.36828 9.32786e-18
7976.36669 9.34565e-18
7978.37520 9.27360e-18
7980.37361 9.16169e-18
7982.37203 9.03693e-18
7984.37044 8.95285e-18
7986.37895 8.95056e-18
7988.37736 9.08204e-18
7990.37578 9.22414e-18
7992.37419 9.21942e-18
7994.37260 9.18900e-18
7996.38111 9.23160e-18
7998.37952 9.31790e-18
8000.37794 9.35621e-18
8002.37635 9.28874e-18
8004.37477 9.19617e-18
8006.38327 9.16110e-18
8008.38169 9.13290e-18
8010.38010 9.07879e-18
8012.37852 9.03546e-18
8014.38702 9.06033e-18
8016.38544 9.15704e-18
8018.38385 9.25042e-18
8020.38226 9.25131e-18
8022.38068 9.19912e-18
8024.38919 9.06402e-18
8026.38760 8.91749e-18
8028.38601 8.81790e-18
8030.38443 8.79280e-18
8032.39293 8.80307e-18
8034.39135 8.82403e-18
8036.38976 8.84544e-18
8038.38818 8.84618e-18
8040.38659 8.82447e-18
8042.39510 8.77472e-18
8044.39351 8.70082e-18
8046.39193 8.59341e-18
8048.39034 8.47264e-18
8050.38875 8.40074e-18
8052.39726 8.52889e-18
8054.39567 8.68790e-18
8056.39409 8.79716e-18
8058.39250 8.81849e-18
8060.40101 8.74859e-18
8062.39942 8.60020e-18
8064.39784 8.43543e-18
8066.39625 8.34855e-18
8068.39467 8.26882e-18
8070.40317 8.14266e-18
8072.40159 8.02410e-18
8074.40000 7.97420e-18
8076.39841 8.00395e-18
8078.39683 8.06249e-18
8080.40534 8.10206e-18
8082.40375 8.11749e-18
8084.40216 8.06419e-18
8086.40058 7.98446e-18
8088.40908 7.88820e-18
8090.40750 7.82441e-18
8092.40591 7.83076e-18
8094.40433 7.94740e-18
8096.40274 8.09445e-18
8098.41125 8.18828e-18
8100.40966 8.26380e-18
8102.40808 8.33873e-18
8104.40649 8.39601e-18
8106.40490 8.41440e-18
8108.41341 8.37808e-18
8110.41182 8.30403e-18
8112.41024 8.19456e-18
8114.40865 8.07866e-18
8116.41716 7.98468e-18
8118.41557 7.90909e-18
8120.41399 7.83704e-18
8122.41240 7.77052e-18
8124.41082 7.72202e-18
8126.41932 7.70630e-18
8128.41774 7.71678e-18
8130.41615 7.76846e-18
8132.41456 7.82589e-18
8134.42307 7.86199e-18
8136.42149 7.86524e-18
8138.41990 7.84516e-18
8140.41831 7.81157e-18
8142.41673 7.79422e-18
8144.42523 7.85926e-18
8146.42365 7.93780e-18
8148.42206 7.99538e-18
8150.42048 8.00786e-18
8152.41889 7.96719e-18
8154.42740 7.87764e-18
8156.42581 7.78758e-18
8158.42423 7.78271e-18
8160.42264 7.78507e-18
8162.43115 7.76735e-18
8164.42956 7.70741e-18
8166.42797 7.57851e-18
8168.42639 7.40149e-18
8170.42480 7.24365e-18
8172.43331 7.19889e-18
8174.43172 7.19854e-18
8176.43014 7.23051e-18
8178.42855 7.25888e-18
8180.43706 7.25304e-18
8182.43547 7.20870e-18
8184.43389 7.15364e-18
8186.43230 7.11416e-18
8188.43071 7.09486e-18
8190.43922 7.11097e-18
8192.43764 7.16808e-18
8194.43605 7.29074e-18
8196.43446 7.44556e-18
8198.43288 7.60081e-18
8200.44138 7.70815e-18
8202.43980 7.76934e-18
8204.43821 7.74653e-18
8206.43663 7.67101e-18
8208.44513 7.53548e-18
8210.44355 7.38429e-18
8212.44196 7.24524e-18
8214.44038 7.15508e-18
8216.43879 7.09931e-18
8218.44730 7.08305e-18
8220.44571 7.10768e-18
8222.44412 7.20658e-18
8224.44254 7.31237e-18
8226.44095 7.37119e-18
8228.44946 7.35324e-18
8230.44787 7.29004e-18
8232.44629 7.19786e-18
8234.44470 7.09250e-18
8236.45321 6.99755e-18
8238.45162 6.91386e-18
8240.45004 6.84494e-18
8242.44845 6.78966e-18
8244.44686 6.74314e-18
8246.45537 6.70090e-18
8248.45378 6.66457e-18
8250.45220 6.62078e-18
8252.45061 6.60153e-18
8254.45912 6.65539e-18
8256.45753 6.73059e-18
8258.45595 6.76676e-18
8260.45436 6.71861e-18
8262.45278 6.62814e-18
8264.46128 6.50790e-18
8266.45970 6.39903e-18
8268.45811 6.37249e-18
8270.45653 6.36478e-18
8272.45494 6.29507e-18
8274.46345 6.16055e-18
8276.46186 6.04210e-18
8278.46027 6.02292e-18
8280.45869 6.06032e-18
8282.46720 6.18715e-18
8284.46561 6.31107e-18
8286.46402 6.34824e-18
8288.46244 6.29957e-18
8290.46085 6.24150e-18
8292.46936 6.22760e-18
8294.46777 6.19954e-18
8296.46619 6.09738e-18
8298.46460 5.97550e-18
8300.46301 5.85576e-18
8302.47152 5.75862e-18
8304.46994 5.68736e-18
8306.46835 5.65007e-18
8308.46676 5.63568e-18
8310.47527 5.64944e-18
8312.47368 5.64352e-18
8314.47210 5.56169e-18
8316.47051 5.43816e-18
8318.46893 5.30716e-18
8320.47743 5.20067e-18
8322.47585 5.11298e-18
8324.47426 5.05770e-18
8326.47268 5.01700e-18
8328.47109 4.98560e-18
8330.47960 4.94839e-18
8332.47801 4.87708e-18
8334.47642 4.79680e-18
8336.47484 4.76633e-18
8338.48335 4.83265e-18
8340.48176 4.89125e-18
8342.48017 4.81227e-18
8344.47859 4.68899e-18
8346.47700 4.57625e-18
8348.48551 4.47589e-18
8350.48392 4.34166e-18
8352.48234 4.17270e-18
8354.48075 4.03335e-18
8356.48926 4.03677e-18
8358.48767 4.07162e-18
8360.48609 4.09342e-18
8362.48450 4.07585e-18
8364.48291 4.00507e-18
8366.49142 3.88830e-18
8368.48983 3.77046e-18
8370.48825 3.71066e-18
8372.48666 3.66152e-18
8374.48508 3.59945e-18
8376.49358 3.52896e-18
8378.49200 3.44890e-18
8380.49041 3.37265e-18
8382.48883 3.31549e-18
8384.49733 3.29751e-18
8386.49575 3.29772e-18
8388.49416 3.30686e-18
8390.49257 3.31618e-18
8392.49099 3.32025e-18
8394.49950 3.31205e-18
8396.49791 3.28015e-18
8398.49632 3.23081e-18
8400.49474 3.20607e-18
8402.50324 3.30021e-18
8404.50166 3.41015e-18
8406.50007 3.47189e-18
8408.49849 3.50346e-18
8410.49690 3.55251e-18
8412.50541 3.63208e-18
8414.50382 3.70188e-18
8416.50224 3.71568e-18
8418.50065 3.72442e-18
8420.49906 3.77348e-18
8422.50757 3.82761e-18
8424.50598 3.84848e-18
8426.50440 3.82893e-18
8428.50281 3.79569e-18
8430.51132 3.77306e-18
8432.50973 3.76874e-18
8434.50815 3.81677e-18
8436.50656 3.88201e-18
8438.50497 3.93463e-18
8440.51348 3.97707e-18
8442.51190 4.03535e-18
8444.51031 4.12529e-18
8446.50872 4.22404e-18
8448.50714 4.31450e-18
8450.51564 4.39473e-18
8452.51406 4.43749e-18
8454.51247 4.48501e-18
8456.51089 4.59134e-18
8458.51939 4.77768e-18
8460.51781 4.97988e-18
8462.51622 5.13310e-18
8464.51464 5.25269e-18
8466.51305 5.32810e-18
8468.52156 5.36006e-18
8470.51997 5.34126e-18
8472.51839 5.28856e-18
8474.51680 5.22063e-18
8476.52531 5.16825e-18
8478.52372 5.14671e-18
8480.52213 5.21838e-18
8482.52055 5.30543e-18
8484.51896 5.34713e-18
8486.52747 5.32792e-18
8488.52588 5.27768e-18
8490.52430 5.22190e-18
8492.52271 5.18206e-18
8494.52113 5.19785e-18
8496.52963 5.26397e-18
8498.52805 5.41409e-18
8500.52646 5.59082e-18
8502.52487 5.73366e-18
8504.53338 5.79129e-18
8506.53180 5.81467e-18
8508.53021 5.82684e-18
8510.52862 5.85061e-18
8512.52704 5.93726e-18
8514.53554 6.03742e-18
8516.53396 6.10575e-18
8518.53237 6.10517e-18
8520.53079 6.04859e-18
8522.52920 5.92533e-18
8524.53771 5.80266e-18
8526.53612 5.74215e-18
8528.53454 5.74429e-18
8530.53295 5.83449e-18
8532.54146 5.96529e-18
8534.53987 6.06307e-18
8536.53828 6.05149e-18
8538.53670 6.03392e-18
8540.53511 6.11785e-18
8542.54362 6.22533e-18
8544.54203 6.30460e-18
8546.54045 6.36479e-18
8548.53886 6.44406e-18
8550.53728 6.56556e-18
8552.54578 6.70518e-18
8554.54420 6.85926e-18
8556.54261 6.99428e-18
8558.54102 7.07038e-18
8560.54953 7.10841e-18
8562.54795 7.13223e-18
8564.54636 7.16638e-18
8566.54477 7.20614e-18
8568.54319 7.25913e-18
8570.55169 7.34338e-18
8572.55011 7.50115e-18
8574.54852 7.68275e-18
8576.54694 7.84228e-18
8578.54535 7.96918e-18
8580.55386 8.10014e-18
8582.55227 8.26173e-18
8584.55069 8.42953e-18
8586.54910 8.60567e-18
8588.55761 8.75309e-18
8590.55602 8.81274e-18
8592.55443 8.83555e-18
8594.55285 8.91121e-18
8596.55126 9.10123e-18
8598.55977 9.30461e-18
8600.55818 9.39681e-18
8602.55660 9.47757e-18
8604.55501 9.60440e-18
8606.55343 9.74673e-18
8608.56193 9.84956e-18
8610.56035 9.89503e-18
8612.55876 9.93180e-18
8614.55717 1.00068e-17
8616.56568 1.01076e-17
8618.56409 1.02582e-17
8620.56251 1.04198e-17
8622.56092 1.05506e-17
8624.55934 1.06492e-17
8626.56784 1.07640e-17
8628.56626 1.09379e-17
8630.56467 1.11059e-17
8632.56309 1.11815e-17
8634.57159 1.12561e-17
8636.57001 1.14127e-17
8638.56842 1.16359e-17
8640.56684 1.18478e-17
8642.56525 1.19950e-17
8644.57376 1.21439e-17
8646.57217 1.23683e-17
8648.57058 1.26041e-17
8650.56900 1.28591e-17
8652.56741 1.30489e-17
8654.57592 1.30808e-17
8656.57433 1.29316e-17
8658.57275 1.27443e-17
8660.57116 1.26852e-17
8662.57967 1.26894e-17
8664.57808 1.27858e-17
8666.57650 1.29177e-17
8668.57491 1.30423e-17
8670.57332 1.31238e-17
8672.58183 1.31889e-17
8674.58025 1.32437e-17
8676.57866 1.32465e-17
8678.57707 1.31204e-17
8680.57549 1.29529e-17
8682.58399 1.28006e-17
8684.58241 1.27021e-17
8686.58082 1.26365e-17
8688.57924 1.26108e-17
8690.58774 1.26323e-17
8692.58616 1.27427e-17
8694.58457 1.28683e-17
8696.58299 1.29590e-17
8698.58140 1.30085e-17
8700.58991 1.30382e-17
8702.58832 1.30616e-17
8704.58673 1.30815e-17
8706.58515 1.31124e-17
8708.59366 1.31427e-17
8710.59207 1.31721e-17
8712.59048 1.31913e-17
8714.58890 1.31684e-17
8716.58731 1.31365e-17
8718.59582 1.31703e-17
8720.59423 1.33763e-17
8722.59265 1.36362e-17
8724.59106 1.39114e-17
8726.58947 1.41268e-17
8728.59798 1.42049e-17
8730.59640 1.41610e-17
8732.59481 1.40904e-17
8734.59322 1.40775e-17
8736.60173 1.40462e-17
8738.60014 1.39326e-17
8740.59856 1.37899e-17
8742.59697 1.36255e-17
8744.59539 1.34915e-17
8746.60389 1.34269e-17
8748.60231 1.34651e-17
8750.60072 1.35466e-17
8752.59914 1.36299e-17
8754.60764 1.36872e-17
8756.60606 1.36768e-17
8758.60447 1.36070e-17
8760.60288 1.34862e-17
8762.60130 1.33430e-17
8764.60981 1.32007e-17
8766.60822 1.31027e-17
8768.60663 1.30444e-17
8770.60505 1.30567e-17
8772.60346 1.30998e-17
8774.61197 1.31480e-17
8776.61038 1.31748e-17
8778.60880 1.31854e-17
8780.60721 1.31701e-17
8782.61572 1.31389e-17
8784.61413 1.30784e-17
8786.61254 1.30357e-17
8788.61096 1.30489e-17
8790.60937 1.31215e-17
8792.61788 1.32365e-17
8794.61629 1.33723e-17
8796.61471 1.35106e-17
8798.61312 1.36333e-17
8800.61154 1.36992e-17
8802.62004 1.36582e-17
8804.61846 1.35303e-17
8806.61687 1.33328e-17
8808.61529 1.31127e-17
8810.62379 1.29060e-17
8812.62221 1.27968e-17
8814.62062 1.26943e-17
8816.61903 1.25311e-17
8818.61745 1.23413e-17
8820.62596 1.21396e-17
8822.62437 1.19769e-17
8824.62278 1.18851e-17
8826.62120 1.19248e-17
8828.62970 1.20531e-17
8830.62812 1.23351e-17
8832.62653 1.25767e-17
8834.62495 1.25903e-17
8836.62336 1.24095e-17
8838.63187 1.22011e-17
8840.63028 1.21048e-17
8842.62870 1.20347e-17
8844.62711 1.19803e-17
8846.62552 1.19099e-17
8848.63403 1.17621e-17
8850.63244 1.16016e-17
8852.63086 1.15263e-17
8854.62927 1.15688e-17
8856.63778 1.16107e-17
8858.63619 1.15130e-17
8860.63461 1.13702e-17
8862.63302 1.12071e-17
8864.63144 1.10437e-17
8866.63994 1.08873e-17
8868.63836 1.07475e-17
8870.63677 1.06153e-17
8872.63518 1.04866e-17
8874.63360 1.03620e-17
8876.64211 1.02268e-17
8878.64052 1.01121e-17
8880.63893 1.00536e-17
8882.63735 1.00380e-17
8884.64585 1.00276e-17
8886.64427 9.98465e-18
8888.64268 9.92833e-18
8890.64110 9.84424e-18
8892.63951 9.77227e-18
8894.64802 9.74643e-18
8896.64643 9.76038e-18
8898.64485 9.80468e-18
8900.64326 9.84853e-18
8902.65177 9.85775e-18
8904.65018 9.74436e-18
8906.64859 9.61259e-18
8908.64701 9.49064e-18
8910.64542 9.44775e-18
8912.65393 9.57236e-18
8914.65234 9.82756e-18
8916.65076 1.00559e-17
8918.64917 1.00584e-17
8920.64759 9.93859e-18
8922.65609 9.67593e-18
8924.65451 9.35990e-18
8926.65292 9.05871e-18
8928.65133 8.80144e-18
8930.65984 8.52424e-18
8932.65826 8.20792e-18
8934.65667 7.95892e-18
8936.65508 7.94866e-18
8938.65350 8.02056e-18
8940.66200 8.10021e-18
8942.66042 8.12937e-18
8944.65883 8.10206e-18
8946.65725 8.00712e-18
8948.66575 7.90377e-18
8950.66417 7.88738e-18
8952.66258 7.86634e-18
8954.66100 7.76735e-18
8956.65941 7.64850e-18
8958.66792 7.60096e-18
8960.66633 7.63521e-18
8962.66474 7.64038e-18
8964.66316 7.48129e-18
8966.66157 7.31837e-18
8968.67008 7.29111e-18
8970.66849 7.30711e-18
8972.66691 7.28104e-18
8974.66532 7.18052e-18
8976.67383 7.05023e-18
8978.67224 6.91521e-18
8980.67066 6.77316e-18
8982.66907 6.60968e-18
8984.66748 6.48207e-18
8986.67599 6.45811e-18
8988.67441 6.50143e-18
8990.67282 6.53759e-18
8992.67123 6.50340e-18
8994.66965 6.45177e-18
8996.67815 6.41084e-18
8998.67657 6.37746e-18
9000.67498 6.34326e-18
9002.67340 6.33894e-18
9004.68190 6.41453e-18
9006.68032 6.55794e-18
9008.67873 6.67824e-18
9010.67714 6.64929e-18
9012.67556 6.56156e-18
9014.68407 6.43137e-18
9016.68248 6.30134e-18
9018.68089 6.21036e-18
9020.67931 6.15887e-18
9022.67772 6.08893e-18
9024.68623 5.94848e-18
9026.68464 5.82720e-18
9028.68306 5.82532e-18
9030.68147 5.86970e-18
9032.68998 5.90756e-18
9034.68839 5.92956e-18
9036.68681 5.96884e-18
9038.68522 6.03997e-18
9040.68363 6.11838e-18
9042.69214 6.17692e-18
9044.69056 6.23224e-18
9046.68897 6.29418e-18
9048.68738 6.35602e-18
9050.68580 6.40450e-18
9052.69430 6.43743e-18
9054.69272 6.47429e-18
9056.69113 6.54936e-18
9058.68955 6.60653e-18
9060.69805 6.57503e-18
9062.69647 6.52651e-18
9064.69488 6.54368e-18
9066.69330 6.64194e-18
9068.69171 6.74526e-18
9070.70022 6.78222e-18
9072.69863 6.78984e-18
9074.69704 6.76213e-18
9076.69546 6.72735e-18
9078.69387 6.69114e-18
9080.70238 6.68984e-18
9082.70079 6.75633e-18
9084.69921 6.91783e-18
9086.69762 7.08876e-18
9088.70613 7.17991e-18
9090.70454 7.20837e-18
9092.70296 7.14735e-18
9094.70137 7.03771e-18
9096.69978 6.91282e-18
9098.70829 6.82638e-18
9100.70671 6.78222e-18
9102.70512 6.83407e-18
9104.70353 6.92119e-18
9106.70195 7.01312e-18
9108.71045 7.10161e-18
9110.70887 7.20183e-18
9112.70728 7.29514e-18
9114.70570 7.35215e-18
9116.71420 7.32612e-18
9118.71262 7.28756e-18
9120.71103 7.31251e-18
9122.70945 7.34017e-18
9124.70786 7.32404e-18
9126.71637 7.23958e-18
9128.71478 7.09274e-18
9130.71319 6.89026e-18
9132.71161 6.70018e-18
9134.72012 6.62377e-18
9136.71853 6.60414e-18
9138.71694 6.64131e-18
9140.71536 6.67521e-18
9142.71377 6.64625e-18
9144.72228 6.51887e-18
9146.72069 6.38953e-18
9148.71911 6.36318e-18
9150.71752 6.40750e-18
9152.71593 6.59099e-18
9154.72444 6.78599e-18
9156.72286 6.85730e-18
9158.72127 6.75035e-18
9160.71968 6.60393e-18
9162.72819 6.54782e-18
9164.72660 6.51768e-18
9166.72502 6.50079e-18
9168.72343 6.50494e-18
9170.72185 6.54746e-18
9172.73035 6.61432e-18
9174.72877 6.68201e-18
9176.72718 6.71911e-18
9178.72559 6.73353e-18
9180.73410 6.70012e-18
9182.73252 6.66348e-18
9184.73093 6.64988e-18
9186.72934 6.67813e-18
9188.72776 6.75482e-18
9190.73626 6.87453e-18
9192.73468 6.98807e-18
9194.73309 6.99313e-18
9196.73151 6.99319e-18
9198.72992 7.06333e-18
9200.73843 7.15981e-18
9202.73684 7.20440e-18
9204.73526 7.17425e-18
9206.73367 7.14989e-18
9208.74218 7.22634e-18
9210.74059 7.30711e-18
9212.73901 7.31153e-18
9214.73742 7.30129e-18
9216.73583 7.34302e-18
9218.74434 7.45302e-18
9220.74275 7.58686e-18
9222.74117 7.70674e-18
9224.73958 7.79740e-18
9226.73800 7.80345e-18
9228.74650 7.77828e-18
9230.74492 7.76661e-18
9232.74333 7.76683e-18
9234.74175 7.73952e-18
9236.75025 7.66326e-18
9238.74867 7.57888e-18
9240.74708 7.51791e-18
9242.74549 7.49059e-18
9244.74391 7.52300e-18
9246.75242 7.59771e-18
9248.75083 7.69995e-18
9250.74924 7.79784e-18
9252.74766 7.87284e-18
9254.75616 7.86332e-18
9256.75458 7.86007e-18
9258.75299 7.95242e-18
9260.75141 8.07437e-18
9262.74982 8.16303e-18
9264.75833 8.17219e-18
9266.75674 8.12118e-18
9268.75516 8.00365e-18
9270.75357 7.86612e-18
9272.75198 7.74388e-18
9274.76049 7.65721e-18
9276.75890 7.62325e-18
9278.75732 7.64577e-18
9280.75573 7.72247e-18
9282.76424 7.83534e-18
9284.76265 7.92577e-18
9286.76107 7.87151e-18
9288.75948 7.78905e-18
9290.75790 7.76144e-18
9292.76640 7.76669e-18
9294.76482 7.72675e-18
9296.76323 7.61853e-18
9298.76164 7.52551e-18
9300.76006 7.54227e-18
9302.76857 7.63447e-18
9304.76698 7.88879e-18
9306.76539 8.12546e-18
9308.76381 8.16613e-18
9310.77231 7.94378e-18
9312.77073 7.61100e-18
9314.76914 7.28950e-18
9316.76756 7.09484e-18
9318.76597 7.34113e-18
9320.77448 7.68364e-18
9322.77289 7.82316e-18
9324.77131 7.69006e-18
9326.76972 7.48712e-18
9328.77823 7.35833e-18
9330.77664 7.24672e-18
9332.77505 7.13452e-18
9334.77347 7.08658e-18
9336.77188 7.19817e-18
9338.78039 7.38769e-18
9340.77880 7.56146e-18
9342.77722 7.59261e-18
9344.77563 7.48321e-18
9346.77405 6.99764e-18
9348.78255 6.60259e-18
9350.78097 6.72805e-18
9352.77938 7.13905e-18
9354.77779 7.52027e-18
9356.78630 7.65883e-18
9358.78471 7.70512e-18
9360.78313 7.70017e-18
9362.78154 7.64348e-18
9364.77996 7.52979e-18
9366.78846 7.40688e-18
9368.78688 7.25645e-18
9370.78529 7.18781e-18
9372.78371 7.33682e-18
9374.79221 7.85461e-18
9376.79063 8.39321e-18
9378.78904 8.62250e-18
9380.78746 8.61859e-18
9382.78587 8.32264e-18
9384.79438 7.89344e-18
9386.79279 7.49532e-18
9388.79120 7.31218e-18
9390.78962 7.20916e-18
9392.78803 7.11639e-18
9394.79654 7.06965e-18
9396.79495 7.10376e-18
9398.79337 7.16249e-18
9400.79178 7.16234e-18
9402.80029 7.09879e-18
9404.79870 7.10398e-18
9406.79712 7.37104e-18
9408.79553 7.64554e-18
9410.79394 7.73790e-18
9412.80245 7.71058e-18
9414.80086 7.64267e-18
9416.79928 7.56737e-18
9418.79769 7.43848e-18
9420.79611 7.23786e-18
9422.80461 7.08035e-18
9424.80303 7.12812e-18
9426.80144 7.25906e-18
9428.79986 7.42814e-18
9430.80836 7.53717e-18
9432.80678 7.52123e-18
9434.80519 7.32079e-18
9436.80361 7.09767e-18
9438.80202 7.03622e-18
9440.81053 7.06224e-18
9442.80894 7.22603e-18
9444.80735 7.40053e-18
9446.80577 7.45435e-18
9448.81428 7.30602e-18
9450.81269 7.09265e-18
9452.81110 6.90068e-18
9454.80952 6.83063e-18
9456.80793 7.15651e-18
9458.81644 7.54670e-18
9460.81485 7.64244e-18
9462.81327 7.35219e-18
9464.81168 6.98870e-18
9466.81009 6.83188e-18
9468.81860 6.81964e-18
9470.81702 7.08160e-18
9472.81543 7.45405e-18
9474.81384 7.88303e-18
9476.82235 8.19825e-18
9478.82076 8.30042e-18
9480.81918 8.05385e-18
9482.81759 7.67662e-18
9484.81601 7.30649e-18
9486.82451 7.03478e-18
9488.82293 7.01177e-18
9490.82134 7.15763e-18
9492.81976 7.36261e-18
9494.81817 7.47620e-18
9496.82668 7.47007e-18
9498.82509 7.14120e-18
9500.82350 6.76439e-18
9502.82192 6.48562e-18
9504.83043 6.35485e-18
9506.82884 6.39242e-18
9508.82725 6.56569e-18
9510.82567 6.78007e-18
9512.82408 6.91113e-18
9514.83259 6.97319e-18
9516.83100 6.85780e-18
9518.82942 6.72678e-18
9520.82783 6.74734e-18
9522.82624 6.90340e-18
9524.83475 7.03351e-18
9526.83317 6.98881e-18
9528.83158 6.86187e-18
9530.82999 6.62744e-18
9532.83850 6.41367e-18
9534.83691 6.35104e-18
9536.83533 6.39451e-18
9538.83374 6.42769e-18
9540.83216 6.36088e-18
9542.84066 6.25992e-18
9544.83908 6.12638e-18
9546.83749 6.02957e-18
9548.83591 6.05484e-18
9550.83432 6.14797e-18
9552.84283 6.25365e-18
9554.84124 6.30700e-18
9556.83965 6.30536e-18
9558.83807 6.19764e-18
9560.84658 6.06328e-18
9562.84499 5.96845e-18
9564.84340 5.88833e-18
9566.84182 5.79424e-18
9568.84023 5.68039e-18
9570.84874 5.55666e-18
9572.84715 5.43391e-18
9574.84557 5.33985e-18
9576.84398 5.30450e-18
9578.84239 5.33891e-18
9580.85090 5.49432e-18
9582.84931 5.69954e-18
9584.84773 5.87441e-18
9586.84614 5.92375e-18
9588.85465 5.89372e-18
9590.85306 5.74198e-18
9592.85148 5.57768e-18
9594.84989 5.45817e-18
9596.84831 5.42690e-18
9598.85681 5.51383e-18
9600.85523 5.70132e-18
9602.85364 5.89660e-18
9604.85206 5.97392e-18
9606.86056 5.98608e-18
9608.85898 5.87719e-18
9610.85739 5.77300e-18
9612.85580 5.80436e-18
9614.85422 5.98018e-18
9616.86273 6.16990e-18
9618.86114 6.24447e-18
9620.85955 6.23851e-18
9622.85797 6.07007e-18
9624.85638 5.87897e-18
9626.86489 5.76438e-18
9628.86330 5.76563e-18
9630.86172 5.85948e-18
9632.86013 6.01132e-18
9634.86864 6.12171e-18
9636.86705 5.94251e-18
9638.86547 5.76000e-18
9640.86388 5.77844e-18
9642.86229 5.93971e-18
9644.87080 6.10731e-18
9646.86921 6.18019e-18
9648.86763 6.20753e-18
9650.86604 6.17989e-18
9652.86446 6.12639e-18
9654.87296 6.04637e-18
9656.87138 5.99092e-18
9658.86979 6.01020e-18
9660.86821 6.10810e-18
9662.87671 6.22537e-18
9664.87513 6.30066e-18
9666.87354 6.34674e-18
9668.87195 6.34233e-18
9670.87037 6.30491e-18
9672.87888 6.23016e-18
9674.87729 6.15430e-18
9676.87570 6.11191e-18
9678.87412 6.14314e-18
9680.88262 6.19581e-18
9682.88104 6.22865e-18
9684.87945 6.25013e-18
9686.87787 6.24883e-18
9688.87628 6.24330e-18
9690.88479 6.26561e-18
9692.88320 6.32133e-18
9694.88162 6.35715e-18
9696.88003 6.29460e-18
9698.87844 6.19756e-18
9700.88695 6.06858e-18
9702.88536 5.96297e-18
9704.88378 5.92123e-18
9706.88219 5.96915e-18
9708.89070 6.07658e-18
9710.88911 6.23028e-18
9712.88753 6.35067e-18
9714.88594 6.29630e-18
9716.88436 6.20073e-18
9718.89286 6.19825e-18
9720.89128 6.28786e-18
9722.88969 6.33404e-18
9724.88810 6.23962e-18
9726.89661 6.17253e-18
9728.89503 6.35034e-18
9730.89344 6.57330e-18
9732.89185 6.71951e-18
9734.89027 6.76182e-18
9736.89877 6.74003e-18
9738.89719 6.69213e-18
9740.89560 6.66185e-18
9742.89402 6.77816e-18
9744.89243 6.88705e-18
9746.90094 6.89963e-18
9748.89935 6.81864e-18
9750.89776 6.65068e-18
9752.89618 6.45131e-18
9754.90469 6.29595e-18
9756.90310 6.32075e-18
9758.90151 6.37407e-18
9760.89993 6.36913e-18
9762.89834 6.29926e-18
9764.90685 6.13656e-18
9766.90526 5.93548e-18
9768.90368 5.78653e-18
9770.90209 5.79810e-18
9772.90051 5.85098e-18
9774.90901 5.85113e-18
9776.90743 5.84349e-18
9778.90584 5.84268e-18
9780.90425 5.87443e-18
9782.91276 5.96660e-18
9784.91118 6.12535e-18
9786.90959 6.27521e-18
9788.90800 6.29761e-18
9790.90642 6.27543e-18
9792.91492 6.24389e-18
9794.91334 6.19697e-18
9796.91175 6.09622e-18
9798.91017 5.95459e-18
9800.91867 5.83171e-18
9802.91709 5.81531e-18
9804.91550 5.84020e-18
9806.91392 5.89289e-18
9808.91233 5.94406e-18
9810.92084 5.96514e-18
9812.91925 5.95957e-18
9814.91766 5.97578e-18
9816.91608 6.06010e-18
9818.91449 6.12665e-18
9820.92300 6.09805e-18
9822.92141 5.99710e-18
9824.91983 5.80692e-18
9826.91824 5.58685e-18
9828.92675 5.39150e-18
9830.92516 5.29555e-18
9832.92358 5.26291e-18
9834.92199 5.29787e-18
9836.92040 5.38645e-18
9838.92891 5.57395e-18
9840.92733 5.74692e-18
9842.92574 5.76282e-18
9844.92415 5.57991e-18
9846.92257 5.40920e-18
9848.93107 5.52851e-18
9850.92949 5.70166e-18
9852.92790 5.82758e-18
9854.92632 5.88606e-18
9856.93482 5.88451e-18
9858.93324 5.82492e-18
9860.93165 5.72450e-18
9862.93007 5.60314e-18
9864.92848 5.46989e-18
9866.93699 5.30955e-18
9868.93540 5.19856e-18
9870.93381 5.22530e-18
9872.93223 5.35745e-18
9874.94074 5.49313e-18
9876.93915 5.53575e-18
9878.93756 5.55793e-18
9880.93598 5.61130e-18
9882.93439 5.64655e-18
9884.94290 5.63803e-18
9886.94131 5.57542e-18
9888.93973 5.43756e-18
9890.93814 5.25497e-18
9892.93655 5.12165e-18
9894.94506 5.23189e-18
9896.94348 5.36789e-18
9898.94189 5.38580e-18
9900.94030 5.33234e-18
9902.94881 5.29369e-18
9904.94722 5.29874e-18
9906.94564 5.28457e-18
9908.94405 5.19197e-18
9910.94247 5.14388e-18
9912.95097 5.28458e-18
9914.94939 5.50206e-18
9916.94780 5.74424e-18
9918.94621 5.90362e-18
9920.95472 5.91526e-18
9922.95314 5.69260e-18
9924.95155 5.43822e-18
9926.94996 5.38531e-18
9928.94838 5.40031e-18
9930.95689 5.41323e-18
9932.95530 5.41242e-18
9934.95371 5.44738e-18
9936.95213 5.51412e-18
9938.95054 5.54000e-18
9940.95905 5.33391e-18
9942.95746 5.18002e-18
9944.95588 5.32032e-18
9946.95429 5.61861e-18
9948.96280 5.93868e-18
9950.96121 6.09174e-18
9952.95963 6.01403e-18
9954.95804 5.45905e-18
9956.95645 4.92593e-18
9958.96496 4.89786e-18
9960.96337 5.13175e-18
9962.96179 5.43772e-18
9964.96020 5.63429e-18
9966.95862 5.70146e-18
9968.96712 5.53596e-18
9970.96554 5.33738e-18
9972.96395 5.32254e-18
9974.96236 5.36238e-18
9976.97087 5.34697e-18
9978.96929 5.31721e-18
9980.96770 5.40924e-18
9982.96611 5.67670e-18
9984.96453 5.91721e-18
9986.97304 5.82545e-18
9988.97145 5.64532e-18
9990.96986 5.47459e-18
9992.96828 5.33800e-18
9994.97678 5.18785e-18
9996.97520 5.04659e-18
9998.97361 4.96927e-18
10000.97203 5.05392e-18
10002.97044 5.18405e-18
