# wavelength flux
3500.16627 2.33363e-17
3502.10457 2.30829e-17
3504.05292 2.32352e-17
3505.99121 2.32823e-17
3507.92951 2.34026e-17
3509.87785 2.35697e-17
3511.81615 2.39119e-17
3513.75445 2.39147e-17
3515.70280 2.41266e-17
3517.64109 2.43018e-17
3519.58944 2.44828e-17
3521.52773 2.46903e-17
3523.46603 2.45497e-17
3525.41438 2.45267e-17
3527.35268 2.43569e-17
3529.29097 2.44211e-17
3531.23932 2.42672e-17
3533.17762 2.42998e-17
3535.12596 2.41193e-17
3537.06426 2.45210e-17
3539.00256 2.48238e-17
3540.95090 2.43023e-17
3542.88920 2.39509e-17
3544.82749 2.40323e-17
3546.77584 2.41291e-17
3548.71414 2.40427e-17
3550.66248 2.40951e-17
3552.60078 2.39752e-17
3554.53908 2.40560e-17
3556.48742 2.38477e-17
3558.42572 2.36122e-17
3560.36402 2.38881e-17
3562.31236 2.41582e-17
3564.25066 2.40410e-17
3566.19900 2.37845e-17
3568.13730 2.40152e-17
3570.07560 2.43439e-17
3572.02394 2.42461e-17
3573.96224 2.41046e-17
3575.90054 2.39365e-17
3577.84888 2.37355e-17
3579.78718 2.35960e-17
3581.73552 2.35248e-17
3583.67382 2.35462e-17
3585.61212 2.35332e-17
3587.56046 2.31947e-17
3589.49876 2.32395e-17
3591.43706 2.31948e-17
3593.38540 2.29991e-17
3595.32370 2.25708e-17
3597.27204 2.24979e-17
3599.21034 2.24712e-17
3601.14864 2.22130e-17
3603.09698 2.19007e-17
3605.03528 2.18414e-17
3606.97358 2.16602e-17
3608.92192 2.16582e-17
3610.86022 2.16422e-17
3612.80856 2.12723e-17
3614.74686 2.08318e-17
3616.68516 2.05774e-17
3618.63350 2.07353e-17
3620.57180 2.07736e-17
3622.51010 2.06423e-17
3624.45844 2.05649e-17
3626.39674 2.06639e-17
3628.34508 2.11109e-17
3630.28338 2.15108e-17
3632.22168 2.14351e-17
3634.17002 2.15004e-17
3636.10832 2.15994e-17
3638.04662 2.18188e-17
3639.99496 2.24195e-17
3641.93326 2.26399e-17
3643.88160 2.29691e-17
3645.81990 2.35548e-17
3647.75820 2.39121e-17
3649.70654 2.38210e-17
3651.64484 2.41125e-17
3653.58314 2.44470e-17
3655.53148 2.43581e-17
3657.46978 2.43406e-17
3659.41812 2.48027e-17
3661.35642 2.52189e-17
3663.29472 2.52133e-17
3665.24307 2.52150e-17
3667.18136 2.52128e-17
3669.11966 2.56359e-17
3671.06800 2.59276e-17
3673.00630 2.58546e-17
3674.95465 2.59352e-17
3676.89295 2.58842e-17
3678.83124 2.58666e-17
3680.77959 2.56274e-17
3682.71788 2.51152e-17
3684.65618 2.51220e-17
3686.60453 2.53521e-17
3688.54282 2.52774e-17
3690.49117 2.48783e-17
3692.42947 2.45141e-17
3694.36776 2.44201e-17
3696.31611 2.40646e-17
3698.25441 2.35931e-17
3700.19270 2.32417e-17
3702.14105 2.29465e-17
3704.07935 2.24227e-17
3706.02769 2.19782e-17
3707.96599 2.15996e-17
3709.90429 2.15290e-17
3711.85263 2.12442e-17
3713.79093 2.09369e-17
3715.72923 2.04267e-17
3717.67757 2.02334e-17
3719.61587 2.02206e-17
3721.56421 2.00381e-17
3723.50251 2.01118e-17
3725.44081 2.03346e-17
3727.38915 2.02456e-17
3729.32745 2.05307e-17
3731.26575 2.06287e-17
3733.21409 2.07155e-17
3735.15239 2.09789e-17
3737.10073 2.10602e-17
3739.03903 2.10850e-17
3740.97733 2.11818e-17
3742.92567 2.11686e-17
3744.86397 2.11550e-17
3746.80227 2.11123e-17
3748.75061 2.11985e-17
3750.68891 2.09542e-17
3752.63725 2.07624e-17
3754.57555 2.04363e-17
3756.51385 2.02416e-17
3758.46219 2.01965e-17
3760.40049 1.97584e-17
3762.33879 1.92753e-17
3764.28713 1.91763e-17
3766.22543 1.92131e-17
3768.17377 1.86030e-17
3770.11207 1.82522e-17
3772.05037 1.82306e-17
3773.99871 1.80082e-17
3775.93701 1.79578e-17
3777.87531 1.75077e-17
3779.82365 1.71200e-17
3781.76195 1.68626e-17
3783.71029 1.66500e-17
3785.64859 1.67384e-17
3787.58689 1.67763e-17
3789.53523 1.67713e-17
3791.47353 1.70232e-17
3793.42187 1.71006e-17
3795.36017 1.73759e-17
3797.29847 1.77656e-17
3799.24681 1.79421e-17
3801.18511 1.81346e-17
3803.12341 1.82353e-17
3805.07175 1.82818e-17
3807.01005 1.84344e-17
3808.94835 1.87672e-17
3810.89669 1.89240e-17
3812.83499 1.90175e-17
3814.78333 1.90645e-17
3816.72163 1.91585e-17
3818.65993 1.92119e-17
3820.60828 1.95027e-17
3822.54657 2.00401e-17
3824.48487 2.02798e-17
3826.43322 2.05885e-17
3828.37151 2.10421e-17
3830.31986 2.14670e-17
3832.25815 2.19145e-17
3834.19645 2.21905e-17
3836.14480 2.26142e-17
3838.08309 2.30841e-17
3840.02139 2.32869e-17
3841.96974 2.38189e-17
3843.90803 2.42758e-17
3845.85638 2.44935e-17
3847.79468 2.45053e-17
3849.73297 2.45373e-17
3851.68132 2.44810e-17
3853.61962 2.45890e-17
3855.55791 2.48924e-17
3857.50626 2.51656e-17
3859.44456 2.51761e-17
3861.39290 2.51782e-17
3863.33120 2.55097e-17
3865.26950 2.56065e-17
3867.21784 2.54268e-17
3869.15614 2.54857e-17
3871.09444 2.56703e-17
3873.04278 2.58187e-17
3874.98108 2.58748e-17
3876.92942 2.58431e-17
3878.86772 2.59240e-17
3880.80602 2.61609e-17
3882.75436 2.63833e-17
3884.69266 2.65109e-17
3886.63096 2.66382e-17
3888.57930 2.66109e-17
3890.51760 2.65174e-17
3892.46594 2.62124e-17
3894.40424 2.62373e-17
3896.34254 2.63837e-17
3898.29088 2.62698e-17
3900.22918 2.61477e-17
3902.16748 2.59882e-17
3904.11582 2.58418e-17
3906.05412 2.59290e-17
3908.00246 2.61430e-17
3909.94076 2.63178e-17
3911.87906 2.63564e-17
3913.82740 2.61962e-17
3915.76570 2.60572e-17
3917.71404 2.60815e-17
3919.65234 2.60753e-17
3921.59064 2.61411e-17
3923.53898 2.63712e-17
3925.47728 2.61860e-17
3927.41558 2.58172e-17
3929.36392 2.56238e-17
3931.30222 2.54995e-17
3933.25056 2.55395e-17
3935.18886 2.57736e-17
3937.12716 2.59749e-17
3939.07550 2.60735e-17
3941.01380 2.61128e-17
3942.95210 2.62813e-17
3944.90044 2.63445e-17
3946.83874 2.59531e-17
3948.77704 2.51499e-17
3950.72538 2.48436e-17
3952.66368 2.51258e-17
3954.61202 2.52856e-17
3956.55032 2.53743e-17
3958.48862 2.54650e-17
3960.43696 2.54252e-17
3962.37526 2.51231e-17
3964.31356 2.46639e-17
3966.26190 2.43028e-17
3968.20020 2.40116e-17
3970.14855 2.37818e-17
3972.08684 2.37520e-17
3974.02514 2.38415e-17
3975.97348 2.35806e-17
3977.91178 2.33212e-17
3979.85008 2.32394e-17
3981.79842 2.30739e-17
3983.73672 2.25224e-17
3985.68507 2.19973e-17
3987.62336 2.19584e-17
3989.56166 2.19564e-17
3991.51001 2.19260e-17
3993.44830 2.21217e-17
3995.38660 2.23618e-17
3997.33495 2.24392e-17
3999.27324 2.22348e-17
4001.22159 2.19644e-17
4003.15989 2.18841e-17
4005.09818 2.19081e-17
4007.04653 2.21210e-17
4008.98483 2.21550e-17
4010.92312 2.19122e-17
4012.87147 2.19924e-17
4014.80977 2.22807e-17
4016.75811 2.22860e-17
4018.69641 2.23356e-17
4020.63471 2.23277e-17
4022.58305 2.24395e-17
4024.52135 2.27293e-17
4026.45965 2.29697e-17
4028.40799 2.29785e-17
4030.34629 2.30778e-17
4032.29463 2.32028e-17
4034.23293 2.31143e-17
4036.17123 2.31234e-17
4038.11957 2.34976e-17
4040.05787 2.35799e-17
4041.99617 2.35996e-17
4043.94451 2.38884e-17
4045.88281 2.38586e-17
4047.83115 2.38612e-17
4049.76945 2.39607e-17
4051.70775 2.38736e-17
4053.65609 2.40025e-17
4055.59439 2.41285e-17
4057.54273 2.39285e-17
4059.48103 2.39245e-17
4061.41933 2.42512e-17
4063.36767 2.41681e-17
4065.30597 2.37741e-17
4067.24427 2.35027e-17
4069.19261 2.36188e-17
4071.13091 2.35711e-17
4073.06921 2.34770e-17
4075.01755 2.32287e-17
4076.95585 2.31830e-17
4078.90419 2.32487e-17
4080.84249 2.31809e-17
4082.78079 2.30744e-17
4084.72913 2.30811e-17
4086.66743 2.29060e-17
4088.60573 2.29046e-17
4090.55407 2.28729e-17
4092.49237 2.27545e-17
4094.44071 2.26653e-17
4096.37901 2.27704e-17
4098.31731 2.28515e-17
4100.26565 2.26181e-17
4102.20395 2.24512e-17
4104.14225 2.22601e-17
4106.09059 2.19328e-17
4108.02889 2.18221e-17
4109.97723 2.19061e-17
4111.91553 2.17030e-17
4113.85383 2.15024e-17
4115.80217 2.14667e-17
4117.74047 2.12830e-17
4119.67877 2.11163e-17
4121.62711 2.13756e-17
4123.56541 2.16044e-17
4125.51375 2.13496e-17
4127.45205 2.11586e-17
4129.39035 2.13554e-17
4131.33869 2.15060e-17
4133.27699 2.17190e-17
4135.21529 2.19346e-17
4137.16363 2.20831e-17
4139.10193 2.21676e-17
4141.05028 2.24921e-17
4142.98858 2.25217e-17
4144.92687 2.25030e-17
4146.87522 2.29402e-17
4148.81351 2.30755e-17
4150.76186 2.31073e-17
4152.70016 2.32777e-17
4154.63846 2.32816e-17
4156.58680 2.32322e-17
4158.52510 2.32511e-17
4160.46339 2.31756e-17
4162.41174 2.31383e-17
4164.35004 2.31784e-17
4166.29838 2.32602e-17
4168.23668 2.31916e-17
4170.17498 2.27860e-17
4172.12332 2.25569e-17
4174.06162 2.26197e-17
4175.99992 2.26879e-17
4177.94826 2.23822e-17
4179.88656 2.21339e-17
4181.82486 2.20673e-17
4183.77320 2.19012e-17
4185.71150 2.16856e-17
4187.65984 2.15821e-17
4189.59814 2.15105e-17
4191.53644 2.14141e-17
4193.48478 2.10515e-17
4195.42308 2.08786e-17
4197.37142 2.09508e-17
4199.30972 2.09720e-17
4201.24802 2.09771e-17
4203.19636 2.08389e-17
4205.13466 2.06120e-17
4207.07296 2.05753e-17
4209.02130 2.05679e-17
4210.95960 2.05773e-17
4212.89790 2.05288e-17
4214.84624 2.05827e-17
4216.78454 2.06201e-17
4218.73288 2.04949e-17
4220.67118 2.03830e-17
4222.60948 2.02904e-17
4224.55782 2.02136e-17
4226.49612 2.02039e-17
4228.43442 2.01595e-17
4230.38276 2.01700e-17
4232.32106 2.00959e-17
4234.26940 1.99935e-17
4236.20770 2.01573e-17
4238.14600 2.01567e-17
4240.09434 2.00353e-17
4242.03264 1.99945e-17
4243.98098 2.01778e-17
4245.91928 2.02236e-17
4247.85758 2.01417e-17
4249.80592 2.00250e-17
4251.74422 2.00750e-17
4253.68252 2.05498e-17
4255.63086 2.05995e-17
4257.56916 2.04991e-17
4259.50746 2.06314e-17
4261.45580 2.06493e-17
4263.39410 2.06863e-17
4265.34244 2.07542e-17
4267.28074 2.07815e-17
4269.21904 2.08823e-17
4271.16738 2.07466e-17
4273.10568 2.05761e-17
4275.05402 2.05672e-17
4276.99232 2.02961e-17
4278.93062 2.01969e-17
4280.87896 2.03140e-17
4282.81726 2.01659e-17
4284.75556 1.99552e-17
4286.70391 1.98569e-17
4288.64220 1.96116e-17
4290.58050 1.93354e-17
4292.52884 1.91971e-17
4294.46714 1.92122e-17
4296.41549 1.91444e-17
4298.35378 1.87712e-17
4300.29208 1.84194e-17
4302.24043 1.81465e-17
4304.17872 1.77952e-17
4306.12707 1.74954e-17
4308.06537 1.73404e-17
4310.00367 1.73239e-17
4311.95201 1.71530e-17
4313.89031 1.69164e-17
4315.82861 1.69744e-17
4317.77695 1.70064e-17
4319.71525 1.69229e-17
4321.66359 1.70756e-17
4323.60189 1.70563e-17
4325.54019 1.68555e-17
4327.48853 1.69229e-17
4329.42683 1.72475e-17
4331.36513 1.75360e-17
4333.31347 1.75594e-17
4335.25177 1.74510e-17
4337.19007 1.76469e-17
4339.13841 1.79485e-17
4341.07671 1.80681e-17
4343.02505 1.81493e-17
4344.96335 1.81601e-17
4346.90165 1.82243e-17
4348.84999 1.83891e-17
4350.78829 1.85140e-17
4352.73663 1.86715e-17
4354.67493 1.89559e-17
4356.61323 1.92913e-17
4358.56157 1.93281e-17
4360.49987 1.92256e-17
4362.43817 1.93410e-17
4364.38651 1.93554e-17
4366.32481 1.92542e-17
4368.26311 1.94686e-17
4370.21145 1.97418e-17
4372.14975 1.94500e-17
4374.09809 1.92290e-17
4376.03639 1.91884e-17
4377.97469 1.92280e-17
4379.92303 1.93091e-17
4381.86133 1.95658e-17
4383.79963 1.96801e-17
4385.74797 1.95922e-17
4387.68627 1.96123e-17
4389.63461 1.96320e-17
4391.57291 1.94540e-17
4393.51121 1.94089e-17
4395.45955 1.94603e-17
4397.39785 1.95097e-17
4399.33615 1.95009e-17
4401.28449 1.94601e-17
4403.22279 1.94412e-17
4405.17113 1.95620e-17
4407.10943 1.96587e-17
4409.04773 1.97921e-17
4410.99607 1.99044e-17
4412.93437 1.98785e-17
4414.88271 1.97995e-17
4416.82101 1.97661e-17
4418.75931 1.97583e-17
4420.70765 1.99194e-17
4422.64595 2.01482e-17
4424.58425 2.01417e-17
4426.53259 2.00869e-17
4428.47089 2.01011e-17
4430.41923 2.02099e-17
4432.35753 2.02501e-17
4434.29583 2.03317e-17
4436.24417 2.03153e-17
4438.18247 2.04044e-17
4440.12077 2.06807e-17
4442.06912 2.07861e-17
4444.00741 2.07950e-17
4445.95576 2.09854e-17
4447.89406 2.10611e-17
4449.83235 2.10282e-17
4451.78070 2.10357e-17
4453.71899 2.10454e-17
4455.65729 2.11194e-17
4457.60564 2.12501e-17
4459.54393 2.12156e-17
4461.48223 2.11463e-17
4463.43058 2.10988e-17
4465.36888 2.10402e-17
4467.31722 2.10547e-17
4469.25552 2.10829e-17
4471.19381 2.11675e-17
4473.14216 2.12399e-17
4475.08046 2.11369e-17
4477.01876 2.09822e-17
4478.96710 2.10422e-17
4480.90540 2.09918e-17
4482.85374 2.10830e-17
4484.79204 2.12513e-17
4486.73034 2.11524e-17
4488.67868 2.10857e-17
4490.61698 2.09292e-17
4492.56532 2.07543e-17
4494.50362 2.07311e-17
4496.44192 2.08647e-17
4498.39026 2.08043e-17
4500.32856 2.06648e-17
4502.26686 2.05839e-17
4504.21520 2.05572e-17
4506.15350 2.05517e-17
4508.09180 2.06891e-17
4510.04014 2.05477e-17
4511.97844 2.04431e-17
4513.92678 2.06728e-17
4515.86508 2.08395e-17
4517.80338 2.07501e-17
4519.75172 2.06780e-17
4521.69002 2.05850e-17
4523.63836 2.05435e-17
4525.57666 2.06259e-17
4527.51496 2.06346e-17
4529.46330 2.07640e-17
4531.40160 2.06097e-17
4533.33990 2.04650e-17
4535.28824 2.05991e-17
4537.22654 2.06227e-17
4539.16484 2.08446e-17
4541.11318 2.10465e-17
4543.05148 2.08732e-17
4544.99982 2.07783e-17
4546.93812 2.08742e-17
4548.87642 2.09143e-17
4550.82476 2.07967e-17
4552.76306 2.07014e-17
4554.71140 2.05782e-17
4556.64970 2.05253e-17
4558.58800 2.04958e-17
4560.53634 2.04631e-17
4562.47464 2.04169e-17
4564.41294 2.03114e-17
4566.36128 2.01894e-17
4568.29958 2.00302e-17
4570.23788 2.01363e-17
4572.18622 2.01412e-17
4574.12452 1.98964e-17
4576.07286 1.96473e-17
4578.01116 1.94961e-17
4579.94946 1.95021e-17
4581.89780 1.94948e-17
4583.83610 1.95774e-17
4585.78444 1.95397e-17
4587.72274 1.94258e-17
4589.66104 1.94048e-17
4591.60938 1.93212e-17
4593.54768 1.93695e-17
4595.48598 1.92956e-17
4597.43433 1.92307e-17
4599.37262 1.90708e-17
4601.32097 1.89434e-17
4603.25926 1.89928e-17
4605.19756 1.89820e-17
4607.14591 1.90265e-17
4609.08421 1.90587e-17
4611.02250 1.89017e-17
4612.97085 1.87180e-17
4614.90914 1.87521e-17
4616.84744 1.86780e-17
4618.79579 1.84869e-17
4620.73409 1.83068e-17
4622.68243 1.83284e-17
4624.62073 1.83595e-17
4626.55902 1.81205e-17
4628.50737 1.78519e-17
4630.44567 1.77856e-17
4632.39401 1.77791e-17
4634.33231 1.75924e-17
4636.27061 1.73653e-17
4638.21895 1.72222e-17
4640.15725 1.70248e-17
4642.09555 1.69555e-17
4644.04389 1.70363e-17
4645.98219 1.69088e-17
4647.92049 1.67005e-17
4649.86883 1.66432e-17
4651.80713 1.66593e-17
4653.75547 1.66445e-17
4655.69377 1.65657e-17
4657.63207 1.65998e-17
4659.58041 1.65713e-17
4661.51871 1.64486e-17
4663.46705 1.64345e-17
4665.40535 1.64687e-17
4667.34365 1.65743e-17
4669.29199 1.67128e-17
4671.23029 1.66797e-17
4673.16859 1.67248e-17
4675.11693 1.68595e-17
4677.05523 1.68836e-17
4679.00357 1.69160e-17
4680.94187 1.69604e-17
4682.88017 1.69762e-17
4684.82851 1.68556e-17
4686.76681 1.67901e-17
4688.70511 1.68886e-17
4690.65345 1.69109e-17
4692.59175 1.67024e-17
4694.54009 1.65709e-17
4696.47839 1.65411e-17
4698.41669 1.64375e-17
4700.36503 1.62335e-17
4702.30333 1.60575e-17
4704.24163 1.61694e-17
4706.18997 1.61049e-17
4708.12827 1.58036e-17
4710.06657 1.56498e-17
4712.01491 1.55392e-17
4713.95321 1.55336e-17
4715.90155 1.55395e-17
4717.83985 1.55262e-17
4719.77815 1.54665e-17
4721.72649 1.52832e-17
4723.66479 1.52416e-17
4725.61313 1.52351e-17
4727.55143 1.51540e-17
4729.48973 1.50485e-17
4731.43807 1.49000e-17
4733.37637 1.48547e-17
4735.31467 1.48842e-17
4737.26301 1.48796e-17
4739.20131 1.48369e-17
4741.13961 1.49101e-17
4743.08795 1.50155e-17
4745.02625 1.49184e-17
4746.97459 1.48008e-17
4748.91289 1.47875e-17
4750.85119 1.49204e-17
4752.79954 1.51083e-17
4754.73783 1.52170e-17
4756.68618 1.53691e-17
4758.62447 1.55368e-17
4760.56277 1.56501e-17
4762.51112 1.56295e-17
4764.44942 1.54366e-17
4766.38771 1.53967e-17
4768.33606 1.54978e-17
4770.27436 1.55259e-17
4772.22270 1.55116e-17
4774.16100 1.55388e-17
4776.09929 1.56217e-17
4778.04764 1.57188e-17
4779.98594 1.57700e-17
4781.92423 1.57410e-17
4783.87258 1.56171e-17
4785.81088 1.54722e-17
4787.74917 1.54817e-17
4789.69752 1.54282e-17
4791.63582 1.52312e-17
4793.58416 1.53232e-17
4795.52246 1.54508e-17
4797.46076 1.51658e-17
4799.40910 1.47619e-17
4801.34740 1.47488e-17
4803.29574 1.47011e-17
4805.23404 1.47774e-17
4807.17234 1.49284e-17
4809.12068 1.49043e-17
4811.05898 1.50050e-17
4812.99728 1.49120e-17
4814.94562 1.46666e-17
4816.88392 1.46920e-17
4818.82222 1.47480e-17
4820.77056 1.47360e-17
4822.70886 1.46242e-17
4824.65720 1.46021e-17
4826.59550 1.45741e-17
4828.53380 1.44784e-17
4830.48214 1.44162e-17
4832.42044 1.44453e-17
4834.36878 1.44188e-17
4836.30708 1.43949e-17
4838.24538 1.44381e-17
4840.19372 1.44721e-17
4842.13202 1.43715e-17
4844.07032 1.44237e-17
4846.01866 1.44811e-17
4847.95696 1.44044e-17
4849.90530 1.43271e-17
4851.84360 1.42772e-17
4853.78190 1.44044e-17
4855.73024 1.46366e-17
4857.66854 1.45578e-17
4859.60684 1.44272e-17
4861.55518 1.44218e-17
4863.49348 1.45031e-17
4865.43178 1.45456e-17
4867.38012 1.46486e-17
4869.31842 1.47411e-17
4871.26676 1.47360e-17
4873.20506 1.47726e-17
4875.14336 1.49410e-17
4877.09170 1.49793e-17
4879.03000 1.49947e-17
4880.97834 1.50481e-17
4882.91664 1.52884e-17
4884.85494 1.55081e-17
4886.80328 1.54326e-17
4888.74158 1.54321e-17
4890.67988 1.54463e-17
4892.62822 1.54430e-17
4894.56652 1.55096e-17
4896.50482 1.56403e-17
4898.45316 1.56585e-17
4900.39146 1.56971e-17
4902.33981 1.58357e-17
4904.27810 1.58741e-17
4906.21640 1.58380e-17
4908.16474 1.58576e-17
4910.10304 1.59115e-17
4912.05139 1.59219e-17
4913.98968 1.58524e-17
4915.92798 1.58672e-17
4917.87633 1.58942e-17
4919.81462 1.59487e-17
4921.75292 1.59061e-17
4923.70127 1.57553e-17
4925.63957 1.56290e-17
4927.58791 1.56345e-17
4929.52621 1.56302e-17
4931.46450 1.54536e-17
4933.41285 1.53576e-17
4935.35115 1.51698e-17
4937.28944 1.49917e-17
4939.23779 1.50668e-17
4941.17609 1.50021e-17
4943.12443 1.47581e-17
4945.06273 1.44353e-17
4947.00103 1.44385e-17
4948.94937 1.44905e-17
4950.88767 1.44022e-17
4952.82597 1.42772e-17
4954.77431 1.42520e-17
4956.71261 1.41870e-17
4958.66095 1.40218e-17
4960.59925 1.40236e-17
4962.53755 1.39884e-17
4964.48589 1.39118e-17
4966.42419 1.39003e-17
4968.36249 1.39439e-17
4970.31083 1.38793e-17
4972.24913 1.39104e-17
4974.19747 1.40127e-17
4976.13577 1.41344e-17
4978.07407 1.42243e-17
4980.02241 1.43202e-17
4981.96071 1.44726e-17
4983.89901 1.45626e-17
4985.84735 1.45253e-17
4987.78565 1.45766e-17
4989.72395 1.48481e-17
4991.67229 1.51092e-17
4993.61059 1.51638e-17
4995.55893 1.52311e-17
4997.49723 1.54015e-17
4999.43553 1.54324e-17
5001.38387 1.54445e-17
5003.32217 1.55593e-17
5005.27051 1.57977e-17
5007.20881 1.58109e-17
5009.14711 1.57911e-17
5011.09545 1.57939e-17
5013.03375 1.57696e-17
5014.97205 1.59516e-17
5016.92039 1.60463e-17
5018.85869 1.60630e-17
5020.80703 1.62678e-17
5022.74533 1.63005e-17
5024.68363 1.61627e-17
5026.63197 1.63407e-17
5028.57027 1.67733e-17
5030.50857 1.68899e-17
5032.45691 1.65539e-17
5034.39521 1.63618e-17
5036.34355 1.62499e-17
5038.28185 1.61488e-17
5040.22015 1.61683e-17
5042.16849 1.62611e-17
5044.10679 1.64335e-17
5046.04509 1.64626e-17
5047.99343 1.63024e-17
5049.93173 1.61561e-17
5051.88008 1.62309e-17
5053.81837 1.63408e-17
5055.75667 1.64091e-17
5057.70502 1.63078e-17
5059.64331 1.62358e-17
5061.58161 1.62509e-17
5063.52995 1.62913e-17
5065.46825 1.62987e-17
5067.40655 1.63341e-17
5069.35489 1.64274e-17
5071.29319 1.63022e-17
5073.24154 1.62439e-17
5075.17983 1.61635e-17
5077.11813 1.61961e-17
5079.06648 1.63372e-17
5081.00477 1.62770e-17
5082.95312 1.62046e-17
5084.89142 1.63081e-17
5086.82971 1.63004e-17
5088.77806 1.62349e-17
5090.71636 1.62943e-17
5092.65466 1.63304e-17
5094.60300 1.62024e-17
5096.54130 1.60998e-17
5098.48964 1.64692e-17
5100.42794 1.64896e-17
5102.36624 1.61913e-17
5104.31458 1.62906e-17
5106.25288 1.63407e-17
5108.19118 1.61868e-17
5110.13952 1.61983e-17
5112.07782 1.62637e-17
5114.01612 1.61811e-17
5115.96446 1.60955e-17
5117.90276 1.61046e-17
5119.85110 1.61155e-17
5121.78940 1.61334e-17
5123.72770 1.61038e-17
5125.67604 1.60014e-17
5127.61434 1.59133e-17
5129.56268 1.59432e-17
5131.50098 1.60240e-17
5133.43928 1.60306e-17
5135.38762 1.58745e-17
5137.32592 1.58260e-17
5139.26422 1.58047e-17
5141.21256 1.56548e-17
5143.15086 1.56299e-17
5145.08916 1.56303e-17
5147.03750 1.56757e-17
5148.97580 1.56518e-17
5150.92414 1.57175e-17
5152.86244 1.56946e-17
5154.80074 1.56819e-17
5156.74908 1.57114e-17
5158.68738 1.56754e-17
5160.63572 1.57107e-17
5162.57402 1.56293e-17
5164.51232 1.56577e-17
5166.46066 1.58057e-17
5168.39896 1.56721e-17
5170.33726 1.56247e-17
5172.28560 1.56515e-17
5174.22390 1.56902e-17
5176.17224 1.56723e-17
5178.11054 1.56168e-17
5180.04884 1.57111e-17
5181.99718 1.57581e-17
5183.93548 1.58074e-17
5185.87378 1.58337e-17
5187.82212 1.57996e-17
5189.76042 1.56865e-17
5191.70876 1.56356e-17
5193.64706 1.55852e-17
5195.58536 1.56250e-17
5197.53370 1.57258e-17
5199.47200 1.57195e-17
5201.41030 1.56591e-17
5203.35864 1.55765e-17
5205.29694 1.55578e-17
5207.24528 1.56525e-17
5209.18358 1.56558e-17
5211.12188 1.55072e-17
5213.07022 1.54514e-17
5215.00852 1.53250e-17
5216.94682 1.54550e-17
5218.89516 1.55460e-17
5220.83346 1.53729e-17
5222.78181 1.53088e-17
5224.72011 1.51154e-17
5226.65840 1.48734e-17
5228.60675 1.48435e-17
5230.54504 1.48789e-17
5232.48334 1.47789e-17
5234.43169 1.47567e-17
5236.36998 1.46783e-17
5238.31833 1.44824e-17
5240.25663 1.43538e-17
5242.19492 1.43282e-17
5244.14327 1.42928e-17
5246.08157 1.41284e-17
5248.01987 1.40761e-17
5249.96821 1.39986e-17
5251.90651 1.40283e-17
5253.84481 1.40206e-17
5255.79315 1.37790e-17
5257.73145 1.36334e-17
5259.67979 1.36636e-17
5261.61809 1.35729e-17
5263.55639 1.35547e-17
5265.50473 1.36906e-17
5267.44303 1.36552e-17
5269.39137 1.36324e-17
5271.32967 1.35876e-17
5273.26797 1.35075e-17
5275.21631 1.34806e-17
5277.15461 1.34219e-17
5279.09291 1.34667e-17
5281.04125 1.35846e-17
5282.97955 1.36983e-17
5284.92789 1.36724e-17
5286.86619 1.36388e-17
5288.80449 1.36107e-17
5290.75283 1.34912e-17
5292.69113 1.32484e-17
5294.62943 1.34658e-17
5296.57777 1.36700e-17
5298.51607 1.34074e-17
5300.46441 1.32920e-17
5302.40271 1.34220e-17
5304.34101 1.34959e-17
5306.28935 1.35624e-17
5308.22765 1.36408e-17
5310.16595 1.35689e-17
5312.11429 1.34463e-17
5314.05259 1.34775e-17
5315.99089 1.33955e-17
5317.93923 1.33518e-17
5319.87753 1.33857e-17
5321.82587 1.33190e-17
5323.76417 1.33130e-17
5325.70247 1.33843e-17
5327.65081 1.34354e-17
5329.58911 1.33934e-17
5331.53745 1.33394e-17
5333.47575 1.33922e-17
5335.41405 1.34232e-17
5337.36239 1.33588e-17
5339.30069 1.33045e-17
5341.23899 1.31673e-17
5343.18733 1.32961e-17
5345.12563 1.34321e-17
5347.07397 1.33007e-17
5349.01227 1.30788e-17
5350.95057 1.31351e-17
5352.89891 1.31822e-17
5354.83721 1.31711e-17
5356.77551 1.32664e-17
5358.72385 1.31566e-17
5360.66215 1.30671e-17
5362.61049 1.31970e-17
5364.54879 1.32052e-17
5366.48709 1.31530e-17
5368.43543 1.30999e-17
5370.37373 1.30177e-17
5372.31203 1.29788e-17
5374.26037 1.29339e-17
5376.19867 1.27917e-17
5378.14702 1.27909e-17
5380.08532 1.29567e-17
5382.02361 1.29284e-17
5383.97196 1.27750e-17
5385.91025 1.29605e-17
5387.84855 1.29787e-17
5389.79690 1.28030e-17
5391.73519 1.29828e-17
5393.67349 1.30554e-17
5395.62184 1.28846e-17
5397.56013 1.27377e-17
5399.50848 1.25601e-17
5401.44678 1.25406e-17
5403.38508 1.25252e-17
5405.33342 1.25973e-17
5407.27172 1.25320e-17
5409.22006 1.24373e-17
5411.15836 1.24306e-17
5413.09666 1.23480e-17
5415.04500 1.22864e-17
5416.98330 1.22260e-17
5418.92160 1.22036e-17
5420.86994 1.23324e-17
5422.80824 1.21679e-17
5424.74654 1.19936e-17
5426.69488 1.21527e-17
5428.63318 1.21801e-17
5430.58152 1.17987e-17
5432.51982 1.16264e-17
5434.45812 1.16715e-17
5436.40646 1.16053e-17
5438.34476 1.15221e-17
5440.29310 1.15288e-17
5442.23140 1.15190e-17
5444.16970 1.13950e-17
5446.11804 1.12513e-17
5448.05634 1.13189e-17
5449.99464 1.12937e-17
5451.94298 1.10674e-17
5453.88128 1.10828e-17
5455.82962 1.13013e-17
5457.76792 1.12931e-17
5459.70622 1.11083e-17
5461.65456 1.11508e-17
5463.59286 1.14103e-17
5465.53116 1.13977e-17
5467.47950 1.12564e-17
5469.41780 1.13495e-17
5471.36614 1.14201e-17
5473.30444 1.13240e-17
5475.24274 1.13764e-17
5477.19108 1.13030e-17
5479.12938 1.13782e-17
5481.06768 1.14669e-17
5483.01602 1.15291e-17
5484.95432 1.15608e-17
5486.90266 1.15362e-17
5488.84096 1.16920e-17
5490.77926 1.16834e-17
5492.72760 1.15652e-17
5494.66590 1.14027e-17
5496.60420 1.14102e-17
5498.55254 1.16872e-17
5500.49084 1.17143e-17
5502.43918 1.14827e-17
5504.37748 1.15754e-17
5506.31578 1.15776e-17
5508.26412 1.14721e-17
5510.20242 1.13992e-17
5512.14072 1.14389e-17
5514.08906 1.17569e-17
5516.02736 1.20447e-17
5517.97570 1.18966e-17
5519.91400 1.16285e-17
5521.85230 1.17163e-17
5523.80064 1.19335e-17
5525.73894 1.18501e-17
5527.67724 1.15269e-17
5529.62558 1.14124e-17
5531.56388 1.14556e-17
5533.51223 1.16143e-17
5535.45053 1.17258e-17
5537.38882 1.15605e-17
5539.33717 1.13236e-17
5541.27546 1.12894e-17
5543.21376 1.15658e-17
5545.16211 1.16581e-17
5547.10041 1.14841e-17
5549.04875 1.13842e-17
5550.98705 1.14843e-17
5552.92534 1.14443e-17
5554.87369 1.13100e-17
5556.81199 1.13300e-17
5558.75029 1.14745e-17
5560.69863 1.14925e-17
5562.63693 1.14182e-17
5564.58527 1.14491e-17
5566.52357 1.13972e-17
5568.46187 1.13685e-17
5570.41021 1.14738e-17
5572.34851 1.15609e-17
5574.28681 1.16350e-17
5576.23515 1.16533e-17
5578.17345 1.16946e-17
5580.12179 1.16772e-17
5582.06009 1.16985e-17
5583.99839 1.18451e-17
5585.94673 1.17390e-17
5587.88503 1.16966e-17
5589.82333 1.14539e-17
5591.77167 1.12422e-17
5593.70997 1.13696e-17
5595.64827 1.15264e-17
5597.59661 1.14381e-17
5599.53491 1.13593e-17
5601.48325 1.16517e-17
5603.42155 1.17289e-17
5605.35985 1.16105e-17
5607.30819 1.15034e-17
5609.24649 1.13820e-17
5611.19483 1.14733e-17
5613.13313 1.15795e-17
5615.07143 1.14893e-17
5617.01977 1.14361e-17
5618.95807 1.12501e-17
5620.89637 1.10869e-17
5622.84471 1.10088e-17
5624.78301 1.10022e-17
5626.73135 1.10550e-17
5628.66965 1.09747e-17
5630.60795 1.08931e-17
5632.55629 1.08701e-17
5634.49459 1.09278e-17
5636.43289 1.11570e-17
5638.38123 1.12116e-17
5640.31953 1.11683e-17
5642.26787 1.11663e-17
5644.20617 1.10412e-17
5646.14447 1.09413e-17
5648.09281 1.09449e-17
5650.03111 1.08906e-17
5651.96941 1.07151e-17
5653.91775 1.05280e-17
5655.85605 1.05769e-17
5657.80439 1.06074e-17
5659.74269 1.05894e-17
5661.68099 1.07141e-17
5663.62933 1.07555e-17
5665.56763 1.07199e-17
5667.50593 1.08339e-17
5669.45427 1.08620e-17
5671.39257 1.06713e-17
5673.33087 1.06810e-17
5675.27921 1.09117e-17
5677.21751 1.07666e-17
5679.16586 1.06999e-17
5681.10415 1.08168e-17
5683.04245 1.08564e-17
5684.99079 1.08236e-17
5686.92909 1.09645e-17
5688.87744 1.10511e-17
5690.81573 1.10457e-17
5692.75403 1.11759e-17
5694.70238 1.13745e-17
5696.64067 1.14815e-17
5698.57897 1.15446e-17
5700.52732 1.16202e-17
5702.46562 1.16393e-17
5704.41396 1.17123e-17
5706.35226 1.19149e-17
5708.29056 1.18319e-17
5710.23890 1.18037e-17
5712.17720 1.20298e-17
5714.11549 1.22378e-17
5716.06384 1.23006e-17
5718.00214 1.23070e-17
5719.95048 1.21618e-17
5721.88878 1.22120e-17
5723.82708 1.23559e-17
5725.77542 1.22821e-17
5727.71372 1.23167e-17
5729.65202 1.22245e-17
5731.60036 1.21270e-17
5733.53866 1.21620e-17
5735.48700 1.22121e-17
5737.42530 1.21984e-17
5739.36360 1.21280e-17
5741.31194 1.20361e-17
5743.25024 1.21187e-17
5745.18854 1.21609e-17
5747.13688 1.20853e-17
5749.07518 1.20844e-17
5751.02352 1.20824e-17
5752.96182 1.20534e-17
5754.90012 1.20764e-17
5756.84846 1.21783e-17
5758.78676 1.22247e-17
5760.72506 1.21614e-17
5762.67340 1.18749e-17
5764.61170 1.19325e-17
5766.56004 1.21171e-17
5768.49834 1.20234e-17
5770.43664 1.19624e-17
5772.38498 1.20248e-17
5774.32328 1.20009e-17
5776.26158 1.20193e-17
5778.20992 1.22398e-17
5780.14822 1.20210e-17
5782.09656 1.18726e-17
5784.03486 1.19810e-17
5785.97316 1.19423e-17
5787.92150 1.19627e-17
5789.85980 1.21568e-17
5791.79810 1.21562e-17
5793.74644 1.19387e-17
5795.68474 1.18651e-17
5797.63308 1.18999e-17
5799.57138 1.19518e-17
5801.50968 1.20644e-17
5803.45802 1.20908e-17
5805.39632 1.21611e-17
5807.33462 1.21871e-17
5809.28296 1.19994e-17
5811.22126 1.17305e-17
5813.16960 1.16619e-17
5815.10790 1.18060e-17
5817.04620 1.18134e-17
5818.99454 1.18564e-17
5820.93284 1.18452e-17
5822.87114 1.16946e-17
5824.81948 1.17242e-17
5826.75778 1.19048e-17
5828.70612 1.19348e-17
5830.64442 1.18673e-17
5832.58272 1.17596e-17
5834.53107 1.15675e-17
5836.46936 1.15775e-17
5838.40766 1.16656e-17
5840.35601 1.15587e-17
5842.29430 1.15656e-17
5844.24265 1.16161e-17
5846.18094 1.15262e-17
5848.11924 1.14389e-17
5850.06759 1.13608e-17
5852.00588 1.12394e-17
5853.94418 1.13508e-17
5855.89253 1.14908e-17
5857.83083 1.14711e-17
5859.77917 1.13473e-17
5861.71747 1.12736e-17
5863.65577 1.12682e-17
5865.60411 1.12769e-17
5867.54241 1.13043e-17
5869.48070 1.12386e-17
5871.42905 1.12948e-17
5873.36735 1.12604e-17
5875.31569 1.10999e-17
5877.25399 1.10596e-17
5879.19229 1.10408e-17
5881.14063 1.09398e-17
5883.07893 1.09146e-17
5885.01723 1.10567e-17
5886.96557 1.08503e-17
5888.90387 1.04491e-17
5890.85221 1.01994e-17
5892.79051 1.02010e-17
5894.72881 1.02432e-17
5896.67715 1.03275e-17
5898.61545 1.03842e-17
5900.55375 1.04859e-17
5902.50209 1.06853e-17
5904.44039 1.07603e-17
5906.38873 1.07236e-17
5908.32703 1.06182e-17
5910.26533 1.05190e-17
5912.21367 1.04870e-17
5914.15197 1.01924e-17
5916.09027 9.91710e-18
5918.03861 9.86751e-18
5919.97691 9.94105e-18
5921.91521 9.95340e-18
5923.86355 9.93777e-18
5925.80185 1.02050e-17
5927.75019 1.03787e-17
5929.68849 1.00791e-17
5931.62679 9.96005e-18
5933.57513 1.02576e-17
5935.51343 1.02727e-17
5937.46177 1.02674e-17
5939.40007 1.03290e-17
5941.33837 1.03756e-17
5943.28671 1.03051e-17
5945.22501 1.02941e-17
5947.16331 1.03131e-17
5949.11165 1.03618e-17
5951.04995 1.04200e-17
5952.99829 1.04467e-17
5954.93659 1.02674e-17
5956.87489 1.01877e-17
5958.82323 1.04490e-17
5960.76153 1.05188e-17
5962.69983 1.04437e-17
5964.64817 1.03997e-17
5966.58647 1.04133e-17
5968.53481 1.03225e-17
5970.47311 1.03259e-17
5972.41141 1.03990e-17
5974.35975 1.04544e-17
5976.29805 1.04824e-17
5978.23635 1.04637e-17
5980.18469 1.04196e-17
5982.12299 1.04599e-17
5984.07133 1.04672e-17
5986.00963 1.04622e-17
5987.94793 1.04984e-17
5989.89628 1.05755e-17
5991.83457 1.06539e-17
5993.77287 1.05085e-17
5995.72121 1.04274e-17
5997.65951 1.03912e-17
5999.60786 1.03859e-17
6001.54615 1.02650e-17
6003.48445 1.02205e-17
6005.43280 1.01730e-17
6007.37109 1.01474e-17
6009.30939 1.02651e-17
6011.25774 1.04162e-17
6013.19603 1.03114e-17
6015.14438 1.01617e-17
6017.08268 1.01167e-17
6019.02097 1.01665e-17
6020.96932 1.01886e-17
6022.90762 1.02950e-17
6024.84591 1.03194e-17
6026.79426 1.01821e-17
6028.73256 1.00705e-17
6030.68090 1.00330e-17
6032.61920 1.00692e-17
6034.55750 1.01604e-17
6036.50584 1.00415e-17
6038.44414 9.97488e-18
6040.38244 9.98812e-18
6042.33078 1.00008e-17
6044.26908 9.84778e-18
6046.21742 9.73982e-18
6048.15572 9.96130e-18
6050.09402 1.01183e-17
6052.04236 1.00579e-17
6053.98066 1.00183e-17
6055.91896 1.00385e-17
6057.86730 9.94522e-18
6059.80560 9.73369e-18
6061.75394 9.56904e-18
6063.69224 9.40790e-18
6065.63054 9.36182e-18
6067.57888 9.47974e-18
6069.51718 9.48730e-18
6071.45548 9.38385e-18
6073.40382 9.31618e-18
6075.34212 9.29661e-18
6077.29046 9.26964e-18
6079.22876 9.10076e-18
6081.16706 8.95559e-18
6083.11540 8.86702e-18
6085.05370 8.74117e-18
6086.99200 8.67158e-18
6088.94034 8.68669e-18
6090.87864 8.57433e-18
6092.82698 8.40199e-18
6094.76528 8.26454e-18
6096.70358 8.24681e-18
6098.65192 8.17971e-18
6100.59022 8.11342e-18
6102.52852 8.08920e-18
6104.47686 7.97459e-18
6106.41516 7.95381e-18
6108.36350 7.86128e-18
6110.30180 7.67326e-18
6112.24010 7.66872e-18
6114.18844 7.68777e-18
6116.12674 7.66617e-18
6118.06504 7.65267e-18
6120.01338 7.64772e-18
6121.95168 7.57150e-18
6123.90002 7.57199e-18
6125.83832 7.55500e-18
6127.77662 7.52704e-18
6129.72496 7.51897e-18
6131.66326 7.43888e-18
6133.60156 7.40947e-18
6135.54990 7.42899e-18
6137.48820 7.42822e-18
6139.43654 7.45178e-18
6141.37484 7.48701e-18
6143.31314 7.56525e-18
6145.26148 7.57341e-18
6147.19978 7.58323e-18
6149.13808 7.62141e-18
6151.08642 7.70574e-18
6153.02472 7.67653e-18
6154.97307 7.68723e-18
6156.91136 7.75148e-18
6158.84966 7.75732e-18
6160.79801 7.85323e-18
6162.73631 8.03881e-18
6164.67460 8.11224e-18
6166.62295 8.17805e-18
6168.56124 8.26346e-18
6170.50959 8.27832e-18
6172.44789 8.28222e-18
6174.38618 8.27302e-18
6176.33453 8.26669e-18
6178.27283 8.34631e-18
6180.21112 8.45204e-18
6182.15947 8.47432e-18
6184.09777 8.52490e-18
6186.04611 8.64372e-18
6187.98441 8.68961e-18
6189.92271 8.76465e-18
6191.87105 8.86837e-18
6193.80935 8.93709e-18
6195.74765 9.00088e-18
6197.69599 9.05898e-18
6199.63429 9.07213e-18
6201.58263 9.00098e-18
6203.52093 8.90303e-18
6205.45923 8.95503e-18
6207.40757 9.06603e-18
6209.34587 9.14661e-18
6211.28417 9.13502e-18
6213.23251 9.15210e-18
6215.17081 9.22638e-18
6217.11915 9.23433e-18
6219.05745 9.18780e-18
6220.99575 9.20949e-18
6222.94409 9.19680e-18
6224.88239 9.04622e-18
6226.82069 8.98027e-18
6228.76903 9.13787e-18
6230.70733 9.27481e-18
6232.65567 9.27552e-18
6234.59397 9.28857e-18
6236.53227 9.30284e-18
6238.48061 9.23101e-18
6240.41891 9.12224e-18
6242.35721 9.05441e-18
6244.30555 9.10000e-18
6246.24385 9.11783e-18
6248.19219 9.10671e-18
6250.13049 9.11955e-18
6252.06879 9.11231e-18
6254.01713 9.15961e-18
6255.95543 9.19267e-18
6257.89373 9.18030e-18
6259.84207 9.22215e-18
6261.78037 9.18022e-18
6263.72871 9.04903e-18
6265.66701 8.93273e-18
6267.60531 8.86838e-18
6269.55365 8.86527e-18
6271.49195 8.85651e-18
6273.43025 8.90290e-18
6275.37859 8.88737e-18
6277.31689 8.75523e-18
6279.26523 8.61752e-18
6281.20353 8.56088e-18
6283.14183 8.53880e-18
6285.09017 8.51247e-18
6287.02847 8.53636e-18
6288.96677 8.42359e-18
6290.91511 8.25807e-18
6292.85341 8.13960e-18
6294.80176 8.07256e-18
6296.74005 8.07011e-18
6298.67835 7.97597e-18
6300.62669 7.81313e-18
6302.56499 7.61819e-18
6304.50329 7.58017e-18
6306.45163 7.53203e-18
6308.38993 7.29407e-18
6310.33828 7.18278e-18
6312.27657 7.09059e-18
6314.21487 6.97166e-18
6316.16322 6.87297e-18
6318.10152 6.82015e-18
6320.03981 6.86056e-18
6321.98816 6.77429e-18
6323.92645 6.70344e-18
6325.87480 6.69435e-18
6327.81310 6.53035e-18
6329.75139 6.42801e-18
6331.69974 6.38302e-18
6333.63804 6.32439e-18
6335.57633 6.31459e-18
6337.52468 6.35175e-18
6339.46298 6.40307e-18
6341.41132 6.40284e-18
6343.34962 6.37420e-18
6345.28792 6.34096e-18
6347.23626 6.40782e-18
6349.17456 6.54325e-18
6351.11286 6.65139e-18
6353.06120 6.66258e-18
6354.99950 6.69087e-18
6356.94784 6.72094e-18
6358.88614 6.76552e-18
6360.82444 6.96012e-18
6362.77278 7.11341e-18
6364.71108 7.20250e-18
6366.64938 7.29575e-18
6368.59772 7.32289e-18
6370.53602 7.46001e-18
6372.48436 7.56862e-18
6374.42266 7.62748e-18
6376.36096 7.68280e-18
6378.30930 7.67267e-18
6380.24760 7.70021e-18
6382.18590 7.74604e-18
6384.13424 7.83152e-18
6386.07254 8.03614e-18
6388.02088 8.18841e-18
6389.95918 8.15422e-18
6391.89748 8.10371e-18
6393.84582 8.19564e-18
6395.78412 8.28420e-18
6397.72242 8.27466e-18
6399.67076 8.19921e-18
6401.60906 8.12235e-18
6403.55740 8.12392e-18
6405.49570 8.14911e-18
6407.43400 8.26190e-18
6409.38234 8.34648e-18
6411.32064 8.45619e-18
6413.25894 8.55318e-18
6415.20728 8.56472e-18
6417.14558 8.52697e-18
6419.09392 8.52864e-18
6421.03222 8.50526e-18
6422.97052 8.46303e-18
6424.91886 8.43727e-18
6426.85716 8.45334e-18
6428.79546 8.44707e-18
6430.74380 8.42383e-18
6432.68210 8.52426e-18
6434.63044 8.56857e-18
6436.56874 8.44956e-18
6438.50704 8.39785e-18
6440.45538 8.51198e-18
6442.39368 8.51687e-18
6444.33198 8.43935e-18
6446.28032 8.44576e-18
6448.21862 8.39807e-18
6450.16697 8.35915e-18
6452.10526 8.35854e-18
6454.04356 8.35818e-18
6455.99190 8.35350e-18
6457.93020 8.48427e-18
6459.86850 8.59218e-18
6461.81684 8.52793e-18
6463.75514 8.52770e-18
6465.70349 8.56412e-18
6467.64178 8.52881e-18
6469.58008 8.49596e-18
6471.52843 8.49113e-18
6473.46673 8.40464e-18
6475.40502 8.30839e-18
6477.35337 8.31844e-18
6479.29166 8.31907e-18
6481.24001 8.42925e-18
6483.17831 8.47254e-18
6485.11661 8.46654e-18
6487.06495 8.60444e-18
6489.00325 8.68772e-18
6490.94154 8.65709e-18
6492.88989 8.64047e-18
6494.82819 8.62844e-18
6496.77653 8.55714e-18
6498.71483 8.44279e-18
6500.65313 8.34681e-18
6502.60147 8.43905e-18
6504.53977 8.52731e-18
6506.47807 8.48112e-18
6508.42641 8.55410e-18
6510.36471 8.59696e-18
6512.31305 8.57403e-18
6514.25135 8.52638e-18
6516.18965 8.47817e-18
6518.13799 8.46787e-18
6520.07629 8.42514e-18
6522.01459 8.36619e-18
6523.96293 8.34530e-18
6525.90123 8.31931e-18
6527.84957 8.31251e-18
6529.78787 8.25055e-18
6531.72617 8.15435e-18
6533.67451 8.13310e-18
6535.61281 8.23048e-18
6537.55111 8.28727e-18
6539.49945 8.23011e-18
6541.43775 8.19829e-18
6543.38609 8.18925e-18
6545.32439 8.08141e-18
6547.26269 7.98997e-18
6549.21103 7.92394e-18
6551.14933 7.89550e-18
6553.08763 7.83257e-18
6555.03597 7.71799e-18
6556.97427 7.60062e-18
6558.92261 7.59385e-18
6560.86091 7.61449e-18
6562.79921 7.59104e-18
6564.74755 7.69100e-18
6566.68585 7.72688e-18
6568.62415 7.66592e-18
6570.57249 7.65696e-18
6572.51079 7.65643e-18
6574.45913 7.74062e-18
6576.39743 7.71984e-18
6578.33573 7.62016e-18
6580.28407 7.58741e-18
6582.22237 7.56549e-18
6584.16067 7.52904e-18
6586.10901 7.44639e-18
6588.04731 7.42144e-18
6589.99565 7.63407e-18
6591.93395 7.87409e-18
6593.87225 7.93135e-18
6595.82059 7.74598e-18
6597.75889 7.59536e-18
6599.69719 7.59335e-18
6601.64553 7.64636e-18
6603.58383 7.62999e-18
6605.53217 7.48543e-18
6607.47047 7.43806e-18
6609.40877 7.54369e-18
6611.35711 7.53049e-18
6613.29541 7.44388e-18
6615.23371 7.39484e-18
6617.18206 7.33140e-18
6619.12035 7.29144e-18
6621.06870 7.33772e-18
6623.00699 7.35314e-18
6624.94529 7.32654e-18
6626.89364 7.30631e-18
6628.83193 7.33704e-18
6630.77023 7.50625e-18
6632.71858 7.52151e-18
6634.65687 7.36344e-18
6636.60522 7.25967e-18
6638.54352 7.19807e-18
6640.48182 7.18259e-18
6642.43016 7.15542e-18
6644.36846 7.08941e-18
6646.30676 7.09711e-18
6648.25510 7.12472e-18
6650.19340 7.11836e-18
6652.14174 7.12954e-18
6654.08004 7.08200e-18
6656.01834 7.07818e-18
6657.96668 7.13558e-18
6659.90498 7.16317e-18
6661.84328 7.13422e-18
6663.79162 7.00541e-18
6665.72992 7.01336e-18
6667.67826 7.12929e-18
6669.61656 7.09276e-18
6671.55486 7.02282e-18
6673.50320 7.02978e-18
6675.44150 6.99933e-18
6677.37980 6.91323e-18
6679.32814 6.85383e-18
6681.26644 6.79347e-18
6683.21478 6.77016e-18
6685.15308 6.80382e-18
6687.09138 6.81410e-18
6689.03972 6.85512e-18
6690.97802 6.88376e-18
6692.91632 6.85982e-18
6694.86466 6.88828e-18
6696.80296 6.94799e-18
6698.75130 6.93101e-18
6700.68960 6.91923e-18
6702.62790 6.92477e-18
6704.57624 6.85846e-18
6706.51454 6.75456e-18
6708.45284 6.69129e-18
6710.40118 6.63673e-18
6712.33948 6.65050e-18
6714.28782 6.68900e-18
6716.22612 6.64420e-18
6718.16442 6.57062e-18
6720.11276 6.52297e-18
6722.05106 6.51588e-18
6723.98936 6.54347e-18
6725.93770 6.58523e-18
6727.87600 6.61428e-18
6729.82434 6.71295e-18
6731.76264 6.76679e-18
6733.70094 6.74154e-18
6735.64928 6.72653e-18
6737.58758 6.67013e-18
6739.52588 6.55266e-18
6741.47422 6.57799e-18
6743.41252 6.57315e-18
6745.36086 6.51675e-18
6747.29916 6.53024e-18
6749.23746 6.46887e-18
6751.18580 6.41015e-18
6753.12410 6.30470e-18
6755.06240 6.22709e-18
6757.01074 6.25222e-18
6758.94904 6.36023e-18
6760.89738 6.46291e-18
6762.83568 6.38474e-18
6764.77398 6.23676e-18
6766.72232 6.23713e-18
6768.66062 6.34463e-18
6770.59892 6.37517e-18
6772.54727 6.34992e-18
6774.48556 6.37920e-18
6776.43391 6.39317e-18
6778.37221 6.34513e-18
6780.31050 6.29814e-18
6782.25885 6.28763e-18
6784.19714 6.21164e-18
6786.13544 6.18480e-18
6788.08379 6.14079e-18
6790.02208 6.02523e-18
6791.97043 5.99554e-18
6793.90873 5.94644e-18
6795.84703 5.88025e-18
6797.79537 5.85674e-18
6799.73367 5.87515e-18
6801.67196 5.89165e-18
6803.62031 5.89325e-18
6805.55861 5.86756e-18
6807.50695 5.89369e-18
6809.44525 5.98354e-18
6811.38355 6.04574e-18
6813.33189 6.00283e-18
6815.27019 6.03798e-18
6817.20849 6.03450e-18
6819.15683 6.08178e-18
6821.09513 6.14765e-18
6823.04347 6.13405e-18
6824.98177 6.15424e-18
6826.92007 6.10529e-18
6828.86841 6.00109e-18
6830.80671 5.98955e-18
6832.74501 6.06619e-18
6834.69335 6.07423e-18
6836.63165 5.94452e-18
6838.57999 5.90398e-18
6840.51829 5.92085e-18
6842.45659 5.86775e-18
6844.40493 5.86210e-18
6846.34323 5.88325e-18
6848.28153 5.83804e-18
6850.22987 5.85986e-18
6852.16817 5.97692e-18
6854.11651 5.94540e-18
6856.05481 5.88844e-18
6857.99311 5.94147e-18
6859.94145 5.94793e-18
6861.87975 5.97435e-18
6863.81805 6.01834e-18
6865.76639 5.95379e-18
6867.70469 5.87089e-18
6869.65303 6.10239e-18
6871.59133 6.28929e-18
6873.52963 5.98485e-18
6875.47797 5.99708e-18
6877.41627 6.29492e-18
6879.35457 6.23213e-18
6881.30291 6.08933e-18
6883.24121 6.03257e-18
6885.18955 5.99759e-18
6887.12785 6.09879e-18
6889.06615 6.26632e-18
6891.01449 6.24124e-18
6892.95279 6.03708e-18
6894.89109 5.95397e-18
6896.83943 5.97130e-18
6898.77773 6.00729e-18
6900.72607 5.90980e-18
6902.66437 5.76248e-18
6904.60267 5.84183e-18
6906.55101 5.85258e-18
6908.48931 5.72101e-18
6910.42761 5.72743e-18
6912.37595 5.81246e-18
6914.31425 5.90146e-18
6916.26259 5.97221e-18
6918.20089 5.90098e-18
6920.13919 5.82289e-18
6922.08753 5.90484e-18
6924.02583 5.94376e-18
6925.96413 5.82402e-18
6927.91248 5.72749e-18
6929.85077 5.69099e-18
6931.79912 5.65857e-18
6933.73741 5.77624e-18
6935.67571 5.81653e-18
6937.62406 5.81075e-18
6939.56236 5.85825e-18
6941.50065 5.73122e-18
6943.44900 5.55201e-18
6945.38729 5.57139e-18
6947.33564 5.65001e-18
6949.27394 5.77162e-18
6951.21223 5.78429e-18
6953.16058 5.52172e-18
6955.09888 5.36247e-18
6957.03717 5.36579e-18
6958.98552 5.34658e-18
6960.92382 5.44333e-18
6962.87216 5.49484e-18
6964.81046 5.36665e-18
6966.74876 5.29242e-18
6968.69710 5.34657e-18
6970.63540 5.47777e-18
6972.57370 5.39394e-18
6974.52204 5.24600e-18
6976.46034 5.34083e-18
6978.40868 5.33111e-18
6980.34698 5.17398e-18
6982.28528 5.18099e-18
6984.23362 5.18983e-18
6986.17192 5.06918e-18
6988.11022 5.00168e-18
6990.05856 5.02681e-18
6991.99686 5.07179e-18
6993.94520 5.05464e-18
6995.88350 5.04381e-18
6997.82180 5.04880e-18
6999.77014 5.05994e-18
7001.70844 5.16985e-18
7003.64674 5.30466e-18
7005.59508 5.37657e-18
7007.53338 5.44533e-18
7009.48172 5.55422e-18
7011.42002 5.41648e-18
7013.35832 5.23704e-18
7015.30666 5.39477e-18
7017.24496 5.54973e-18
7019.18326 5.50861e-18
7021.13160 5.52437e-18
7023.06990 5.62049e-18
7025.01824 5.78856e-18
7026.95654 5.85974e-18
7028.89484 5.73451e-18
7030.84318 5.77526e-18
7032.78148 5.88033e-18
7034.71978 5.91013e-18
7036.66812 5.97460e-18
7038.60642 6.02942e-18
7040.55476 6.02038e-18
7042.49306 6.00465e-18
7044.43136 6.06538e-18
7046.37970 6.19062e-18
7048.31800 6.27607e-18
7050.25630 6.15053e-18
7052.20464 6.04578e-18
7054.14294 6.15485e-18
7056.09128 6.19818e-18
7058.02958 6.16024e-18
7059.96788 6.31942e-18
7061.91622 6.35509e-18
7063.85452 6.14879e-18
7065.79282 6.11907e-18
7067.74116 6.11554e-18
7069.67946 6.10076e-18
7071.62781 6.17338e-18
7073.56610 6.12109e-18
7075.50440 6.03287e-18
7077.45274 6.06235e-18
7079.39104 6.12917e-18
7081.32934 6.33307e-18
7083.27769 6.58842e-18
7085.21598 6.53084e-18
7087.16433 6.39209e-18
7089.10262 6.37276e-18
7091.04092 6.43388e-18
7092.98927 6.59818e-18
7094.92756 5.11027e-18
7096.86586 3.56547e-18
7098.81421 5.47367e-18
7100.75251 6.75490e-18
7102.70085 6.50429e-18
7104.63915 6.44375e-18
7106.57744 6.36709e-18
7108.52579 6.30284e-18
7110.46409 6.25040e-18
7112.40238 6.26237e-18
7114.35073 6.27316e-18
7116.28903 6.20438e-18
7118.23737 6.17208e-18
7120.17567 6.13543e-18
7122.11397 6.08791e-18
7124.06231 6.13556e-18
7126.00061 6.20898e-18
7127.93891 6.25179e-18
7129.88725 6.22249e-18
7131.82555 6.29144e-18
7133.77389 6.38334e-18
7135.71219 6.23237e-18
7137.65049 6.15544e-18
7139.59883 6.20416e-18
7141.53713 6.19146e-18
7143.47543 6.23337e-18
7145.42377 6.29361e-18
7147.36207 6.29531e-18
7149.31041 6.32775e-18
7151.24871 6.34357e-18
7153.18701 6.32511e-18
7155.13535 6.31938e-18
7157.07365 6.34123e-18
7159.01195 6.45610e-18
7160.96029 6.32676e-18
7162.89859 6.06887e-18
7164.84693 5.98049e-18
7166.78523 5.84402e-18
7168.72353 5.73149e-18
7170.67187 5.63278e-18
7172.61017 5.65817e-18
7174.54847 5.78611e-18
7176.49681 5.68687e-18
7178.43511 5.55027e-18
7180.38345 5.59487e-18
7182.32175 5.55533e-18
7184.26005 5.39778e-18
7186.20839 5.38553e-18
7188.14669 5.40672e-18
7190.08499 5.35621e-18
7192.03333 5.32908e-18
7193.97163 5.49619e-18
7195.91997 5.57888e-18
7197.85827 5.54233e-18
7199.79657 5.45481e-18
7201.74491 5.39627e-18
7203.68321 5.38293e-18
7205.62151 5.62402e-18
7207.56985 5.90993e-18
7209.50815 5.79709e-18
7211.45649 5.66537e-18
7213.39479 5.67650e-18
7215.33309 5.78640e-18
7217.28143 5.81691e-18
7219.21973 5.64818e-18
7221.15803 5.64362e-18
7223.10637 5.56833e-18
7225.04467 5.38681e-18
7226.99302 5.45706e-18
7228.93131 5.55149e-18
7230.86961 5.40196e-18
7232.81796 5.19543e-18
7234.75625 5.32108e-18
7236.69455 5.67999e-18
7238.64289 5.57807e-18
7240.58119 5.32707e-18
7242.52954 5.35214e-18
7244.46783 5.44540e-18
7246.40613 5.53569e-18
7248.35448 5.65866e-18
7250.29277 5.57904e-18
7252.23107 5.30234e-18
7254.17942 5.18685e-18
7256.11772 5.24428e-18
7258.06606 5.37258e-18
7260.00436 5.38569e-18
7261.94265 5.28889e-18
7263.89100 5.13233e-18
7265.82930 5.10803e-18
7267.76759 5.34753e-18
7269.71594 5.35181e-18
7271.65424 5.15767e-18
7273.60258 5.08680e-18
7275.54088 4.97102e-18
7277.47918 5.01331e-18
7279.42752 5.21903e-18
7281.36582 5.45810e-18
7283.30412 5.62426e-18
7285.25246 5.61895e-18
7287.19076 5.51309e-18
7289.13910 5.47254e-18
7291.07740 5.46105e-18
7293.01570 5.47047e-18
7294.96404 5.57100e-18
7296.90234 5.55070e-18
7298.84064 5.40914e-18
7300.78898 5.30857e-18
7302.72728 5.23453e-18
7304.67562 5.23901e-18
7306.61392 5.24216e-18
7308.55222 5.19265e-18
7310.50056 5.30747e-18
7312.43886 5.39931e-18
7314.37716 5.28117e-18
7316.32550 5.18285e-18
7318.26380 5.23835e-18
7320.21214 5.31247e-18
7322.15044 5.36226e-18
7324.08874 5.42760e-18
7326.03708 5.53477e-18
7327.97538 5.64076e-18
7329.91368 5.68313e-18
7331.86202 5.65310e-18
7333.80032 5.76976e-18
7335.74866 5.95565e-18
7337.68696 5.89725e-18
7339.62526 5.77413e-18
7341.57360 5.72181e-18
7343.51190 5.57301e-18
7345.45020 5.35899e-18
7347.39854 5.29938e-18
7349.33684 5.30848e-18
7351.28518 5.21192e-18
7353.22348 5.21026e-18
7355.16178 5.37227e-18
7357.11012 5.54651e-18
7359.04842 5.54280e-18
7360.98672 5.30049e-18
7362.93506 5.20228e-18
7364.87336 5.28875e-18
7366.82170 5.31137e-18
7368.76000 5.35808e-18
7370.69830 5.50990e-18
7372.64664 5.57574e-18
7374.58494 5.62174e-18
7376.52324 5.55066e-18
7378.47158 5.35362e-18
7380.40988 5.49718e-18
7382.35822 5.58927e-18
7384.29652 5.40807e-18
7386.23482 5.29064e-18
7388.18317 5.26987e-18
7390.12146 5.19637e-18
7392.05976 5.21150e-18
7394.00810 5.19982e-18
7395.94640 5.06954e-18
7397.89475 5.03388e-18
7399.83304 5.06233e-18
7401.77134 5.02593e-18
7403.71969 4.94612e-18
7405.65798 4.89210e-18
7407.59628 4.80934e-18
7409.54463 4.81554e-18
7411.48292 4.81614e-18
7413.43127 4.78455e-18
7415.36957 4.76289e-18
7417.30786 4.73705e-18
7419.25621 4.62432e-18
7421.19451 4.66350e-18
7423.13281 4.64464e-18
7425.08115 4.54255e-18
7427.01945 4.51489e-18
7428.96779 4.42001e-18
7430.90609 4.22510e-18
7432.84439 4.11744e-18
7434.79273 4.11148e-18
7436.73103 3.98455e-18
7438.66933 3.86342e-18
7440.61767 3.82227e-18
7442.55597 3.81713e-18
7444.50431 3.84824e-18
7446.44261 3.90865e-18
7448.38091 3.89322e-18
7450.32925 3.77688e-18
7452.26755 3.74670e-18
7454.20585 3.74031e-18
7456.15419 3.60637e-18
7458.09249 3.54958e-18
7460.04083 3.67845e-18
7461.97913 3.76238e-18
7463.91743 3.72509e-18
7465.86577 3.65973e-18
7467.80407 3.62173e-18
7469.74237 3.60872e-18
7471.69071 3.54946e-18
7473.62901 3.53577e-18
7475.57735 3.56386e-18
7477.51565 3.55749e-18
7479.45395 3.52764e-18
7481.40229 3.59108e-18
7483.34059 3.69779e-18
7485.27889 3.67394e-18
7487.22723 3.61613e-18
7489.16553 3.64071e-18
7491.11387 3.72420e-18
7493.05217 3.81892e-18
7494.99047 3.86329e-18
7496.93881 3.92775e-18
7498.87711 4.00451e-18
7500.81541 4.06240e-18
7502.76375 4.17002e-18
7504.70205 4.20259e-18
7506.65039 4.14774e-18
7508.58869 4.13002e-18
7510.52699 4.22936e-18
7512.47533 4.30279e-18
7514.41363 4.19632e-18
7516.35193 4.07259e-18
7518.30027 4.09731e-18
7520.23857 4.22776e-18
7522.18691 4.34075e-18
7524.12521 4.37119e-18
7526.06351 4.32872e-18
7528.01185 4.29981e-18
7529.95015 4.39541e-18
7531.88845 4.50010e-18
7533.83679 4.46694e-18
7535.77509 4.41756e-18
7537.72343 4.51902e-18
7539.66173 4.61554e-18
7541.60003 4.57250e-18
7543.54837 4.64556e-18
7545.48667 4.79083e-18
7547.42497 4.85460e-18
7549.37331 4.90689e-18
7551.31161 4.92309e-18
7553.25996 4.91546e-18
7555.19826 4.87871e-18
7557.13655 4.94665e-18
7559.08490 5.05858e-18
7561.02319 5.05454e-18
7562.96149 5.19771e-18
7564.90984 5.26566e-18
7566.84813 5.08537e-18
7568.79648 5.07840e-18
7570.73478 5.18704e-18
7572.67307 5.11970e-18
7574.62142 5.02776e-18
7576.55972 4.96618e-18
7578.49802 4.84189e-18
7580.44636 4.85918e-18
7582.38466 5.06853e-18
7584.33300 5.03100e-18
7586.27130 4.91618e-18
7588.20960 5.05280e-18
7590.15794 5.08595e-18
7592.09624 5.05147e-18
7594.03454 5.34824e-18
7595.98288 5.53355e-18
7597.92118 5.40112e-18
7599.86952 5.40741e-18
7601.80782 5.58215e-18
7603.74612 5.45246e-18
7605.69446 5.21116e-18
7607.63276 5.29607e-18
7609.57106 5.52458e-18
7611.51940 5.69501e-18
7613.45770 5.73569e-18
7615.40604 5.73462e-18
7617.34434 5.82074e-18
7619.28264 5.76278e-18
7621.23098 5.60178e-18
7623.16928 5.71334e-18
7625.10758 5.77802e-18
7627.05592 5.61909e-18
7628.99422 5.62692e-18
7630.94256 5.68219e-18
7632.88086 5.53329e-18
7634.81916 5.58526e-18
7636.76750 5.78808e-18
7638.70580 5.72706e-18
7640.64410 5.86577e-18
7642.59244 5.97696e-18
7644.53074 5.88251e-18
7646.47908 5.91054e-18
7648.41738 5.85648e-18
7650.35568 6.01374e-18
7652.30402 6.16988e-18
7654.24232 6.04596e-18
7656.18062 5.99780e-18
7658.12896 6.10541e-18
7660.06726 6.08762e-18
7662.01560 6.08999e-18
7663.95390 6.18535e-18
7665.89220 6.20465e-18
7667.84054 5.89194e-18
7669.77884 5.55309e-18
7671.71714 5.62090e-18
7673.66548 5.74426e-18
7675.60378 5.85252e-18
7677.55212 5.94083e-18
7679.49042 5.86197e-18
7681.42872 5.86642e-18
7683.37706 6.03485e-18
7685.31536 6.00857e-18
7687.25366 5.92960e-18
7689.20200 6.15298e-18
7691.14030 6.33799e-18
7693.08864 6.22956e-18
7695.02694 5.98956e-18
7696.96524 5.86593e-18
7698.91358 6.05428e-18
7700.85188 6.33726e-18
7702.79018 6.27649e-18
7704.73852 6.15835e-18
7706.67682 6.21064e-18
7708.62517 5.98248e-18
7710.56347 5.66736e-18
7712.50176 5.69533e-18
7714.45011 5.69457e-18
7716.38840 5.56286e-18
7718.32670 5.54769e-18
7720.27505 5.46158e-18
7722.21334 5.38816e-18
7724.16169 5.50683e-18
7726.09999 5.57859e-18
7728.03828 5.64146e-18
7729.98663 5.69915e-18
7731.92493 5.69531e-18
7733.86323 5.76562e-18
7735.81157 5.76932e-18
7737.74987 5.58752e-18
7739.69821 5.58063e-18
7741.63651 5.77010e-18
7743.57481 5.90333e-18
7745.52315 5.94885e-18
7747.46145 5.90123e-18
7749.39975 5.80662e-18
7751.34809 5.70605e-18
7753.28639 5.74345e-18
7755.23473 5.84700e-18
7757.17303 5.80847e-18
7759.11133 5.58973e-18
7761.05967 5.38798e-18
7762.99797 5.26752e-18
7764.93627 5.19691e-18
7766.88461 5.17571e-18
7768.82291 5.20574e-18
7770.77125 5.23011e-18
7772.70955 5.21180e-18
7774.64785 5.32339e-18
7776.59619 5.48169e-18
7778.53449 5.53427e-18
7780.47279 5.48607e-18
7782.42113 5.42380e-18
7784.35943 5.46906e-18
7786.30777 5.66388e-18
7788.24607 5.80630e-18
7790.18437 5.67475e-18
7792.13271 5.66403e-18
7794.07101 5.60796e-18
7796.00931 5.44232e-18
7797.95765 5.49026e-18
7799.89595 5.50844e-18
7801.84429 5.43103e-18
7803.78259 5.41352e-18
7805.72089 5.26080e-18
7807.66923 5.00160e-18
7809.60753 4.99541e-18
7811.54583 5.10214e-18
7813.49417 5.20757e-18
7815.43247 5.22847e-18
7817.38081 5.15108e-18
7819.31911 5.14764e-18
7821.25741 5.08343e-18
7823.20575 5.13032e-18
7825.14405 5.29957e-18
7827.08235 5.35425e-18
7829.03069 5.32955e-18
7830.96899 5.26808e-18
7832.91733 5.31279e-18
7834.85563 5.45591e-18
7836.79393 5.56285e-18
7838.74227 5.58865e-18
7840.68057 5.47019e-18
7842.61887 5.36834e-18
7844.56721 5.44611e-18
7846.50551 5.43448e-18
7848.45385 5.21279e-18
7850.39215 5.09160e-18
7852.33045 5.11184e-18
7854.27879 5.16941e-18
7856.21709 5.17357e-18
7858.15539 5.06678e-18
7860.10373 5.00240e-18
7862.04203 5.03898e-18
7863.99038 5.12602e-18
7865.92868 5.19871e-18
7867.86697 5.15709e-18
7869.81532 5.09756e-18
7871.75361 5.08030e-18
7873.69191 5.10710e-18
7875.64026 5.22306e-18
7877.57856 5.30567e-18
7879.52690 5.35277e-18
7881.46520 5.45149e-18
7883.40349 5.45223e-18
7885.35184 5.38701e-18
7887.29014 5.35953e-18
7889.22843 5.32991e-18
7891.17678 5.33612e-18
7893.11508 5.37922e-18
7895.06342 5.39948e-18
7897.00172 5.32554e-18
7898.94002 5.21480e-18
7900.88836 5.12447e-18
7902.82666 4.97209e-18
7904.76496 4.86611e-18
7906.71330 4.92974e-18
7908.65160 5.02767e-18
7910.59994 5.06255e-18
7912.53824 5.02519e-18
7914.47654 4.94317e-18
7916.42488 4.92939e-18
7918.36318 4.98689e-18
7920.30148 5.00342e-18
7922.24982 5.03310e-18
7924.18812 5.13834e-18
7926.13646 5.22555e-18
7928.07476 5.17564e-18
7930.01306 5.08024e-18
7931.96140 5.13020e-18
7933.89970 5.22743e-18
7935.83800 5.22471e-18
7937.78634 5.22669e-18
7939.72464 5.32070e-18
7941.67298 5.44120e-18
7943.61128 5.44306e-18
7945.54958 5.29719e-18
7947.49792 5.18944e-18
7949.43622 5.09243e-18
7951.37452 4.87201e-18
7953.32286 4.72801e-18
7955.26116 4.83497e-18
7957.20950 4.94217e-18
7959.14780 4.91096e-18
7961.08610 4.91953e-18
7963.03444 4.87206e-18
7964.97274 4.74480e-18
7966.91104 4.77422e-18
7968.85938 4.83199e-18
7970.79768 4.83028e-18
7972.74602 4.98558e-18
7974.68432 5.09066e-18
7976.62262 5.04944e-18
7978.57096 5.04585e-18
7980.50926 5.02204e-18
7982.44756 5.09233e-18
7984.39590 5.19073e-18
7986.33420 5.10036e-18
7988.28254 5.04015e-18
7990.22084 5.15330e-18
7992.15914 5.21336e-18
7994.10748 5.14742e-18
7996.04578 5.08584e-18
7997.98408 5.02406e-18
7999.93242 5.01504e-18
8001.87072 5.09279e-18
8003.81906 5.06296e-18
8005.75736 4.90268e-18
8007.69566 4.81396e-18
8009.64401 4.83019e-18
8011.58230 4.76704e-18
8013.52060 4.68393e-18
8015.46894 4.72983e-18
8017.40724 4.74826e-18
8019.35559 4.71545e-18
8021.29388 4.71753e-18
8023.23218 4.67878e-18
8025.18053 4.62734e-18
8027.11882 4.63541e-18
8029.05712 4.67444e-18
8031.00547 4.76274e-18
8032.94376 4.82061e-18
8034.89211 4.81297e-18
8036.83041 4.88060e-18
8038.76871 4.99006e-18
8040.71705 4.93344e-18
8042.65535 4.77899e-18
8044.59364 4.81718e-18
8046.54199 4.98291e-18
8048.48029 5.03713e-18
8050.42863 4.93788e-18
8052.36693 4.87722e-18
8054.30523 4.89752e-18
8056.25357 4.86812e-18
8058.19187 4.77439e-18
8060.13017 4.65498e-18
8062.07851 4.65237e-18
8064.01681 4.65532e-18
8065.96515 4.56592e-18
8067.90345 4.57075e-18
8069.84175 4.59856e-18
8071.79009 4.51964e-18
8073.72839 4.42643e-18
8075.66669 4.42217e-18
8077.61503 4.48923e-18
8079.55333 4.60715e-18
8081.50167 4.62301e-18
8083.43997 4.53579e-18
8085.37827 4.52864e-18
8087.32661 4.61420e-18
8089.26491 4.70863e-18
8091.20321 4.74464e-18
8093.15155 4.72292e-18
8095.08985 4.59920e-18
8097.03819 4.45862e-18
8098.97649 4.45005e-18
8100.91479 4.49077e-18
8102.86313 4.45961e-18
8104.80143 4.33730e-18
8106.73973 4.20845e-18
8108.68807 4.14912e-18
8110.62637 4.15002e-18
8112.57471 4.13037e-18
8114.51301 4.07759e-18
8116.45131 4.04805e-18
8118.39965 4.06239e-18
8120.33795 4.06450e-18
8122.27625 3.99215e-18
8124.22459 3.98226e-18
8126.16289 4.07063e-18
8128.11123 4.08530e-18
8130.04953 4.05294e-18
8131.98783 4.09350e-18
8133.93617 4.09564e-18
8135.87447 4.05950e-18
8137.81277 4.09402e-18
8139.76111 4.15961e-18
8141.69941 4.17934e-18
8143.64775 4.09570e-18
8145.58605 4.03892e-18
8147.52435 4.00101e-18
8149.47269 3.94728e-18
8151.41099 4.00432e-18
8153.34929 3.98254e-18
8155.29763 3.76021e-18
8157.23593 3.57084e-18
8159.18427 3.60808e-18
8161.12257 3.74312e-18
8163.06087 3.79832e-18
8165.00922 3.82390e-18
8166.94751 3.87760e-18
8168.88581 3.90252e-18
8170.83416 3.79974e-18
8172.77245 3.72500e-18
8174.72080 3.82239e-18
8176.65909 3.90239e-18
8178.59739 3.98955e-18
8180.54574 4.15478e-18
8182.48403 4.24049e-18
8184.42233 4.24037e-18
8186.37068 4.26336e-18
8188.30897 4.31227e-18
8190.25732 4.33394e-18
8192.19562 4.29561e-18
8194.13392 4.24295e-18
8196.08226 4.27216e-18
8198.02056 4.38053e-18
8199.95886 4.49232e-18
8201.90720 4.45200e-18
8203.84550 4.32679e-18
8205.79384 4.29851e-18
8207.73214 4.28822e-18
8209.67044 4.21960e-18
8211.61878 4.13297e-18
8213.55708 4.10980e-18
8215.49538 4.08083e-18
8217.44372 3.96298e-18
8219.38202 3.83118e-18
8221.33036 3.76603e-18
8223.26866 3.74632e-18
8225.20696 3.86522e-18
8227.15530 4.17768e-18
8229.09360 4.40643e-18
8231.03190 4.51866e-18
8232.98024 4.61214e-18
8234.91854 4.69632e-18
8236.86688 4.72918e-18
8238.80518 4.78781e-18
8240.74348 4.93395e-18
8242.69182 4.95738e-18
8244.63012 4.83231e-18
8246.56842 4.66821e-18
8248.51676 4.53719e-18
8250.45506 4.45072e-18
8252.40340 4.46721e-18
8254.34170 4.58547e-18
8256.28000 4.65519e-18
8258.22834 4.67890e-18
8260.16664 4.70021e-18
8262.10494 4.72366e-18
8264.05328 4.78681e-18
8265.99158 4.73656e-18
8267.93992 4.63368e-18
8269.87822 4.60733e-18
8271.81652 4.66240e-18
8273.76486 4.80624e-18
8275.70316 4.90730e-18
8277.64146 4.98535e-18
8279.58980 5.10067e-18
8279.80013 5.10067e-18
8281.49772 5.98699e-18
8283.19530 6.99236e-18
8284.89289 8.22279e-18
8286.59048 9.50074e-18
8288.28807 1.01919e-17
8289.98566 1.00561e-17
8291.68324 9.60526e-18
8293.38083 9.30560e-18
8295.07842 9.34091e-18
8296.77601 9.71723e-18
8298.47360 1.01154e-17
8300.17118 1.02267e-17
8301.86877 9.98102e-18
8303.56636 9.40701e-18
8305.26395 8.64301e-18
8306.96154 7.83007e-18
8308.65912 6.95806e-18
8310.35671 6.00919e-18
8312.05430 5.01121e-18
8313.75189 4.10303e-18
8315.44948 3.95369e-18
8317.14707 5.20764e-18
8318.84465 7.24295e-18
8320.54224 8.82566e-18
8322.23983 9.54643e-18
8323.93742 9.62936e-18
8325.63501 9.57388e-18
8327.33259 1.00537e-17
8329.03018 1.09563e-17
8330.72777 1.14331e-17
8332.42536 1.10595e-17
8334.12295 9.87425e-18
8335.82053 8.41800e-18
8337.51812 7.87103e-18
8339.21571 8.27481e-18
8340.91330 7.99684e-18
8342.61089 6.59709e-18
8344.30847 5.60148e-18
8346.00606 6.04515e-18
8347.70365 8.01090e-18
8349.40124 1.09033e-17
8351.09883 1.28802e-17
8352.79642 1.28229e-17
8354.50405 1.16329e-17
8356.20164 1.04173e-17
8357.89922 9.83053e-18
8359.59681 1.01844e-17
8361.29440 1.11394e-17
8362.99199 1.20967e-17
8364.68958 1.22872e-17
8366.38717 1.12289e-17
8368.08475 9.58567e-18
8369.78234 8.33674e-18
8371.47993 7.60782e-18
8373.17752 7.24282e-18
8374.87511 7.89861e-18
8376.57269 1.03032e-17
8378.27028 1.35200e-17
8379.96787 1.57465e-17
8381.66546 1.65860e-17
8383.36305 1.66810e-17
8385.06063 1.61653e-17
8386.75822 1.48485e-17
8388.45581 1.25134e-17
8390.15340 8.88540e-18
8391.85099 5.48235e-18
8393.54857 5.76367e-18
8395.24616 9.92611e-18
8396.94375 1.38884e-17
8398.64134 1.52398e-17
8400.33893 1.42855e-17
8402.03652 1.20305e-17
8403.73410 1.06037e-17
8405.43169 1.09665e-17
8407.12928 1.13520e-17
8408.82687 1.06080e-17
8410.52446 9.63136e-18
8412.22204 9.26886e-18
8413.91963 9.63982e-18
8415.61722 1.06131e-17
8417.31481 1.16719e-17
8419.01240 1.23531e-17
8420.70998 1.28077e-17
8422.40757 1.32502e-17
8424.10516 1.32638e-17
8425.80275 1.25197e-17
8427.50034 1.19681e-17
8429.19792 1.26754e-17
8430.89551 1.38321e-17
8432.59310 1.39876e-17
8434.29069 1.32867e-17
8435.99832 1.27294e-17
8437.69591 1.27769e-17
8439.39350 1.34567e-17
8441.09109 1.40051e-17
8442.77863 1.31353e-17
8444.48626 1.12447e-17
8446.18385 1.02625e-17
8447.88144 1.09644e-17
8449.57903 1.28485e-17
8451.27662 1.50893e-17
8452.97420 1.64435e-17
8454.67179 1.64610e-17
8456.36938 1.59632e-17
8458.06697 1.53416e-17
8459.76456 1.41471e-17
8461.46214 1.23085e-17
8463.15973 1.03791e-17
8464.85732 9.00919e-18
8466.55491 9.02090e-18
8468.25250 1.06348e-17
8469.95008 1.27703e-17
8471.64767 1.43256e-17
8473.34526 1.46922e-17
8475.04285 1.38156e-17
8476.74044 1.28956e-17
8478.43802 1.30261e-17
8480.13561 1.38059e-17
8481.83320 1.44166e-17
8483.53079 1.43009e-17
8485.22838 1.32530e-17
8486.92597 1.21424e-17
8488.62355 1.21191e-17
8490.32114 1.30299e-17
8492.01873 1.40707e-17
8493.71632 1.52658e-17
8495.41391 1.70243e-17
8497.11149 1.88704e-17
8498.80908 1.98014e-17
8500.50667 1.94467e-17
8502.20426 1.80475e-17
8503.90185 1.65269e-17
8505.59943 1.64302e-17
8507.29702 1.79516e-17
8508.99461 1.96407e-17
8510.69220 2.06955e-17
8512.38979 2.12962e-17
8514.08737 2.12662e-17
8515.78496 1.98836e-17
8517.49260 1.72404e-17
8519.19018 1.46888e-17
8520.87773 1.33924e-17
8522.58536 1.40961e-17
8524.27290 1.65205e-17
8525.98054 1.82269e-17
8527.67812 1.76256e-17
8529.37571 1.60788e-17
8531.07330 1.51268e-17
8532.77089 1.52024e-17
8534.46848 1.61810e-17
8536.16606 1.68688e-17
8537.86365 1.62449e-17
8539.56124 1.52441e-17
8541.25883 1.51438e-17
8542.95642 1.56666e-17
8544.65401 1.59847e-17
8546.35159 1.58195e-17
8548.04918 1.52218e-17
8549.74677 1.45240e-17
8551.44436 1.42250e-17
8553.14195 1.45473e-17
8554.83953 1.54417e-17
8556.53712 1.67389e-17
8558.23471 1.81457e-17
8559.93230 1.91139e-17
8561.62989 1.89483e-17
8563.32747 1.79297e-17
8565.02506 1.73941e-17
8566.72265 1.78147e-17
8568.42024 1.85233e-17
8570.11783 1.91529e-17
8571.81542 1.97936e-17
8573.51300 2.04005e-17
8575.21059 2.07920e-17
8576.90818 2.07143e-17
8578.60577 1.96826e-17
8580.30336 1.77551e-17
8582.00094 1.61630e-17
8583.69853 1.57326e-17
8585.39612 1.59365e-17
8587.09371 1.62116e-17
8588.79130 1.65625e-17
8590.48888 1.70758e-17
8592.18647 1.79536e-17
8593.88406 1.91582e-17
8595.58165 1.95951e-17
8597.27924 1.83376e-17
8598.97682 1.61944e-17
8600.67441 1.45376e-17
8602.37200 1.41691e-17
8604.07963 1.53294e-17
8605.76718 1.69916e-17
8607.47481 1.76302e-17
8609.17240 1.74547e-17
8610.86999 1.77351e-17
8612.56757 1.84646e-17
8614.26516 1.87675e-17
8615.96275 1.84110e-17
8617.66034 1.77082e-17
8619.35793 1.76891e-17
8621.05551 2.00237e-17
8622.75310 2.45442e-17
8624.45069 2.89571e-17
8626.14828 3.10279e-17
8627.84587 2.86966e-17
8629.54346 2.23922e-17
8631.24104 1.63303e-17
8632.93863 1.33349e-17
8634.63622 1.33229e-17
8636.33381 1.52037e-17
8638.03140 1.62870e-17
8639.72898 1.52017e-17
8641.42657 1.43039e-17
8643.12416 1.54158e-17
8644.82175 1.75436e-17
8646.51934 1.93137e-17
8648.21692 1.97135e-17
8649.91451 1.83427e-17
8651.61210 1.64318e-17
8653.30969 1.54396e-17
8655.00728 1.56503e-17
8656.70486 1.67876e-17
8658.40245 1.83664e-17
8660.10004 1.97956e-17
8661.79763 2.07650e-17
8663.49522 2.11612e-17
8665.19281 2.06731e-17
8666.89039 1.90606e-17
8668.58798 1.70561e-17
8670.28557 1.59643e-17
8671.98316 1.60175e-17
8673.68075 1.65236e-17
8675.37833 1.71955e-17
8677.07592 1.81056e-17
8678.77351 1.92450e-17
8680.47110 2.05765e-17
8682.16869 2.18382e-17
8683.86627 2.24974e-17
8685.56386 2.22045e-17
8687.26145 2.08531e-17
8688.96908 1.88385e-17
8690.66667 1.73125e-17
8692.36426 1.69895e-17
8694.06185 1.76773e-17
8695.75944 1.88881e-17
8697.45702 1.97982e-17
8699.15461 1.98323e-17
8700.85220 1.91158e-17
8702.54979 1.80448e-17
8704.24738 1.72296e-17
8705.94496 1.71702e-17
8707.64255 1.80718e-17
8709.34014 1.97116e-17
8711.03773 2.06497e-17
8712.73532 1.96989e-17
8714.43291 1.82940e-17
8716.13049 1.84084e-17
8717.82808 1.94626e-17
8719.52567 1.98894e-17
8721.22326 1.95213e-17
8722.92085 1.89714e-17
8724.61843 1.89230e-17
8726.31602 1.99942e-17
8728.01361 2.14258e-17
8729.71120 2.14897e-17
8731.40879 2.03302e-17
8733.10637 1.97460e-17
8734.80396 2.02362e-17
8736.50155 2.09617e-17
8738.19914 2.13269e-17
8739.89673 2.09815e-17
8741.59431 1.99518e-17
8743.29190 1.88420e-17
8744.98949 1.80779e-17
8746.68708 1.77361e-17
8748.38467 1.77166e-17
8750.08226 1.76558e-17
8751.77984 1.73124e-17
8753.47743 1.66399e-17
8755.17502 1.60092e-17
8756.87261 1.67814e-17
8758.57020 1.95674e-17
8760.26778 2.28167e-17
8761.96537 2.48923e-17
8763.66296 2.51367e-17
8765.36055 2.35744e-17
8767.05814 2.16172e-17
8768.75572 2.05655e-17
8770.45331 1.93994e-17
8772.16095 1.67511e-17
8773.85853 1.32810e-17
8775.55612 1.05209e-17
8777.25371 1.01303e-17
8778.95130 1.32031e-17
8780.64889 1.75050e-17
8782.34647 1.91476e-17
8784.04406 1.81300e-17
8785.74165 1.72655e-17
8787.43924 1.72222e-17
8789.13683 1.69576e-17
8790.83441 1.63628e-17
8792.53200 1.60358e-17
8794.22959 1.60843e-17
8795.92718 1.61766e-17
8797.62477 1.58770e-17
8799.32236 1.45646e-17
8801.01994 1.25833e-17
8802.71753 1.17698e-17
8804.41512 1.27088e-17
8806.11271 1.37196e-17
8807.81030 1.37235e-17
8809.50788 1.31140e-17
8811.20547 1.23743e-17
8812.90306 1.19264e-17
8814.60065 1.19333e-17
8816.29824 1.18163e-17
8817.99582 1.11790e-17
8819.69341 1.05059e-17
8821.39100 1.03504e-17
8823.08859 1.08912e-17
8824.78618 1.20559e-17
8826.48376 1.33782e-17
8828.18135 1.43261e-17
8829.87894 1.46581e-17
8831.57653 1.43831e-17
8833.27412 1.39450e-17
8834.97171 1.38929e-17
8836.66929 1.40459e-17
8838.36688 1.38568e-17
8840.06447 1.35220e-17
8841.76206 1.36411e-17
8843.45965 1.38388e-17
8845.15723 1.30992e-17
8846.85482 1.15778e-17
8848.55241 1.04716e-17
8850.25000 1.05391e-17
8851.94759 1.20481e-17
8853.65522 1.45843e-17
8855.34276 1.68390e-17
8857.05040 1.83986e-17
8858.74798 2.02824e-17
8860.44557 2.24414e-17
8862.14316 2.30180e-17
8863.84075 2.12821e-17
8865.53834 1.85604e-17
8867.23592 1.62062e-17
8868.93351 1.53630e-17
8870.63110 1.62138e-17
8872.32869 1.66327e-17
8874.02628 1.52822e-17
8875.72386 1.39530e-17
8877.42145 1.44283e-17
8879.11904 1.67366e-17
8880.81663 2.00937e-17
8882.51422 2.26051e-17
8884.21181 2.26609e-17
8885.90939 2.10944e-17
8887.60698 1.95240e-17
8889.30457 1.81185e-17
8891.00216 1.66089e-17
8892.69975 1.61213e-17
8894.39733 1.80031e-17
8896.09492 2.10896e-17
8897.79251 2.28299e-17
8899.49010 2.28220e-17
8901.18769 2.22707e-17
8902.88527 2.07752e-17
8904.58286 1.68234e-17
8906.28045 1.23027e-17
8907.97804 1.21666e-17
8909.67563 1.64594e-17
8911.37321 1.96474e-17
8913.07080 1.88566e-17
8914.76839 1.47699e-17
8916.46598 9.39168e-18
8918.16357 6.83074e-18
8919.86116 8.34991e-18
8921.55874 9.77237e-18
8923.25633 8.75118e-18
8924.95392 7.44795e-18
8926.65151 7.61519e-18
8928.34910 9.26311e-18
8930.04668 1.18089e-17
8931.74427 1.36555e-17
8933.44186 1.37089e-17
8935.14949 1.29039e-17
8936.83704 1.23919e-17
8938.53462 1.22968e-17
8940.24226 1.24691e-17
8941.93985 1.26791e-17
8943.63743 1.28299e-17
8945.33502 1.39230e-17
8947.03261 1.68675e-17
8948.73020 1.99838e-17
8950.42779 2.07826e-17
8952.12537 1.97119e-17
8953.82296 1.88017e-17
8955.52055 1.81388e-17
8957.21814 1.66237e-17
8958.91573 1.44089e-17
8960.61331 1.25275e-17
8962.31090 1.15426e-17
8964.00849 1.15750e-17
8965.70608 1.23810e-17
8967.40367 1.33211e-17
8969.10125 1.36440e-17
8970.79884 1.24860e-17
8972.49643 1.04024e-17
8974.19402 1.00142e-17
8975.89161 1.21336e-17
8977.58920 1.44265e-17
8979.28678 1.54141e-17
8980.98437 1.57527e-17
8982.68196 1.57034e-17
8984.37955 1.39999e-17
8986.07714 1.06869e-17
8987.77472 9.35868e-18
8989.47231 1.22479e-17
8991.16990 1.64668e-17
8992.86749 1.90517e-17
8994.56508 2.04927e-17
8996.26266 2.17671e-17
8997.96025 2.22611e-17
8999.65784 2.12600e-17
9001.35543 1.91455e-17
9003.05302 1.66921e-17
9004.75061 1.45999e-17
9006.44819 1.33322e-17
9008.14578 1.24131e-17
9009.84337 1.09689e-17
9011.54096 9.06654e-18
9013.23855 7.44022e-18
9014.93613 6.86537e-18
9016.63372 8.03463e-18
9018.33131 1.07453e-17
9020.02890 1.39143e-17
9021.72649 1.65915e-17
9023.43412 1.80877e-17
9025.13171 1.76545e-17
9026.82930 1.45144e-17
9028.52688 9.97087e-18
9030.22447 8.04988e-18
9031.92206 1.00514e-17
9033.61965 1.28723e-17
9035.31724 1.45152e-17
9037.01482 1.54462e-17
9038.71241 1.60390e-17
9040.41000 1.62529e-17
9042.10759 1.60481e-17
9043.80518 1.52225e-17
9045.50276 1.37848e-17
9047.20035 1.24424e-17
9048.89794 1.16246e-17
9050.59553 1.03914e-17
9052.29312 8.13434e-18
9053.99070 6.39308e-18
9055.68829 6.70789e-18
9057.38588 8.54751e-18
9059.08347 1.05920e-17
9060.78106 1.16687e-17
9062.47865 1.10057e-17
9064.17623 8.83370e-18
9065.87382 6.17705e-18
9067.57141 5.33890e-18
9069.26900 8.63208e-18
9070.96659 1.35562e-17
9072.66417 1.46286e-17
9074.36176 1.17136e-17
9076.05935 9.09097e-18
9077.75694 8.54129e-18
9079.45453 9.48632e-18
9081.15211 1.12991e-17
9082.84970 1.31066e-17
9084.54729 1.37175e-17
9086.24488 1.16880e-17
9087.94247 7.76512e-18
9089.64005 5.83104e-18
9091.33764 7.71995e-18
9093.03523 1.17153e-17
9094.73282 1.57955e-17
9096.43041 1.78051e-17
9098.12800 1.70003e-17
9099.82558 1.57118e-17
9101.52317 1.58877e-17
9103.22076 1.74886e-17
9104.92839 1.97902e-17
9106.62598 2.11868e-17
9108.32357 2.05614e-17
9110.01111 1.89606e-17
9111.71875 1.77315e-17
9113.41633 1.70222e-17
9115.11392 1.65249e-17
9116.81151 1.56519e-17
9118.50910 1.39737e-17
9120.20669 1.24083e-17
9121.90427 1.22429e-17
9123.60186 1.33376e-17
9125.29945 1.46976e-17
9126.99704 1.52313e-17
9128.69463 1.40307e-17
9130.39221 1.22938e-17
9132.08980 1.26885e-17
9133.78739 1.47870e-17
9135.48498 1.54444e-17
9137.18257 1.44993e-17
9138.88015 1.48068e-17
9140.57774 1.67465e-17
9142.27533 1.78401e-17
9143.97292 1.72991e-17
9145.67051 1.65530e-17
9147.36810 1.66100e-17
9149.06568 1.79088e-17
9150.76327 1.98774e-17
9152.46086 2.00556e-17
9154.15845 1.73703e-17
9155.85604 1.40342e-17
9157.55362 1.15631e-17
9159.25121 8.52584e-18
9160.94880 4.45895e-18
9162.64639 2.65587e-18
9164.34398 5.31293e-18
9166.04156 9.96834e-18
9167.73915 1.33860e-17
9169.43674 1.34082e-17
9171.13433 9.50066e-18
9172.83192 5.50088e-18
9174.52950 5.65972e-18
9176.22709 8.82155e-18
9177.92468 1.16311e-17
9179.62227 1.26535e-17
9181.31986 1.18035e-17
9183.01745 1.08629e-17
9184.71503 1.24821e-17
9186.42267 1.59460e-17
9188.11021 1.81595e-17
9189.81784 1.80674e-17
9191.50539 1.63991e-17
9193.21302 1.48753e-17
9194.91061 1.61844e-17
9196.60820 1.97209e-17
9198.30578 2.10822e-17
9200.00337 1.90451e-17
9201.70096 1.65446e-17
9203.39855 1.54574e-17
9205.09614 1.61259e-17
9206.79372 1.78063e-17
9208.49131 1.77833e-17
9210.18890 1.51111e-17
9211.88649 1.26695e-17
9213.58408 1.23674e-17
9215.28166 1.29299e-17
9216.97925 1.34272e-17
9218.67684 1.52337e-17
9220.37443 1.87478e-17
9222.07202 2.07017e-17
9223.76960 1.85500e-17
9225.46719 1.40061e-17
9227.16478 9.83686e-18
9228.86237 8.13908e-18
9230.55996 9.88104e-18
9232.25755 1.27236e-17
9233.95513 1.36318e-17
9235.65272 1.32028e-17
9237.35031 1.36746e-17
9239.04790 1.58517e-17
9240.74549 1.95025e-17
9242.44307 2.33518e-17
9244.14066 2.54391e-17
9245.83825 2.50058e-17
9247.53584 2.24744e-17
9249.23343 1.87068e-17
9250.93101 1.49956e-17
9252.62860 1.23315e-17
9254.32619 1.11801e-17
9256.02378 1.17412e-17
9257.72137 1.39393e-17
9259.41895 1.65856e-17
9261.11654 1.70331e-17
9262.81413 1.46390e-17
9264.51172 1.19979e-17
9266.20931 1.09056e-17
9267.91694 1.14128e-17
9269.60448 1.28180e-17
9271.31212 1.30100e-17
9272.99966 1.10854e-17
9274.70729 9.47898e-18
9276.40488 1.00423e-17
9278.10247 1.17791e-17
9279.80006 1.32517e-17
9281.49764 1.33021e-17
9283.19523 1.15751e-17
9284.89282 1.02574e-17
9286.59041 1.14561e-17
9288.28800 1.35949e-17
9289.98559 1.43161e-17
9291.68317 1.47141e-17
9293.38076 1.67779e-17
9295.07835 1.84775e-17
9296.77594 1.65725e-17
9298.47353 1.38025e-17
9300.17111 1.57790e-17
9301.86870 2.06753e-17
9303.56629 2.16797e-17
9305.26388 1.83036e-17
9306.96147 1.52866e-17
9308.65905 1.44021e-17
9310.35664 1.47298e-17
9312.05423 1.50064e-17
9313.75182 1.32139e-17
9315.44941 1.06295e-17
9317.14700 1.30867e-17
9318.84458 2.12732e-17
9320.54217 2.82191e-17
9322.23976 2.89930e-17
9323.93735 2.24127e-17
9325.63494 1.04590e-17
9327.33252 7.46936e-19
9329.03011 -2.29563e-18
9330.72770 -3.03513e-18
9332.42529 -5.10621e-18
9334.12288 -6.94352e-18
9335.82046 -6.48811e-18
9337.51805 -2.54426e-18
9339.21564 4.97501e-18
9340.91323 1.36259e-17
9342.61082 2.05211e-17
9344.30840 2.42611e-17
9346.00599 2.44607e-17
9347.70358 2.14731e-17
9349.41121 1.64857e-17
9351.09876 1.21709e-17
9352.80639 1.12184e-17
9354.49393 1.32595e-17
9356.20157 1.59247e-17
9357.89915 1.72615e-17
9359.59674 1.59076e-17
9361.29433 1.25355e-17
9362.99192 9.57466e-18
9364.68951 7.47053e-18
9366.38709 4.80067e-18
9368.08468 1.99745e-18
9369.78227 1.26007e-18
9371.47986 3.61497e-18
9373.17745 8.86636e-18
9374.87504 1.46210e-17
9376.57262 1.52695e-17
9378.27021 9.98872e-18
9379.96780 5.90375e-18
9381.66539 7.16483e-18
9383.36298 1.16435e-17
9385.06056 1.65712e-17
9386.75815 1.87714e-17
9388.45574 1.72019e-17
9390.15333 1.64928e-17
9391.85092 1.97300e-17
9393.54850 2.29602e-17
9395.24609 2.26085e-17
9396.94368 2.07501e-17
9398.64127 2.01165e-17
9400.33886 2.09126e-17
9402.03644 2.22079e-17
9403.73403 2.16574e-17
9405.43162 1.73692e-17
9407.12921 1.14200e-17
9408.82680 7.54181e-18
9410.52439 7.91571e-18
9412.22197 1.30321e-17
9413.91956 2.01205e-17
9415.61715 2.44680e-17
9417.31474 2.39415e-17
9419.01233 1.89329e-17
9420.70991 1.24408e-17
9422.40750 9.61440e-18
9424.10509 1.05103e-17
9425.80268 9.80264e-18
9427.50027 6.85710e-18
9429.19785 6.54926e-18
9430.89544 9.69748e-18
9432.59303 1.17525e-17
9434.29062 1.13461e-17
9435.98821 1.20738e-17
9437.69584 1.54907e-17
9439.39343 1.95162e-17
9441.09102 2.20574e-17
9442.78860 2.12107e-17
9444.48619 1.68925e-17
9446.18378 1.29303e-17
9447.88137 1.22110e-17
9449.57896 1.38345e-17
9451.27654 1.60381e-17
9452.97413 1.69960e-17
9454.67172 1.56365e-17
9456.36931 1.30377e-17
9458.06690 1.10027e-17
9459.76449 1.14784e-17
9461.46207 1.54224e-17
9463.15966 2.00210e-17
9464.85725 2.15654e-17
9466.55484 2.03861e-17
9468.25243 1.88199e-17
9469.95001 1.76353e-17
9471.64760 1.66318e-17
9473.34519 1.52084e-17
9475.04278 1.25275e-17
9476.74037 8.83885e-18
9478.43795 5.37915e-18
9480.13554 4.60956e-18
9481.83313 9.87131e-18
9483.53072 1.90755e-17
9485.22831 2.42394e-17
9486.92589 2.29201e-17
9488.62348 1.98507e-17
9490.32107 1.78085e-17
9492.01866 1.66197e-17
9493.71625 1.58506e-17
9495.41384 1.43238e-17
9497.11142 1.20748e-17
9498.80901 1.18885e-17
9500.50660 1.48281e-17
9502.20419 1.77303e-17
9503.90178 1.83946e-17
9505.59936 1.84981e-17
9507.29695 1.93128e-17
9508.99454 1.90456e-17
9510.69213 1.62757e-17
9512.38972 1.25753e-17
9514.08730 9.80524e-18
9515.78489 7.43728e-18
9517.48248 4.86877e-18
9519.19011 4.95987e-18
9520.88770 1.03256e-17
9522.58529 1.68711e-17
9524.28288 1.85473e-17
9525.98047 1.60230e-17
9527.67805 1.36789e-17
9529.37564 1.36403e-17
9531.07323 1.62970e-17
9532.77082 2.00927e-17
9534.46841 2.18756e-17
9536.16599 2.08807e-17
9537.86358 1.86725e-17
9539.56117 1.65976e-17
9541.25876 1.58003e-17
9542.95635 1.61501e-17
9544.65394 1.58773e-17
9546.35152 1.41128e-17
9548.04911 1.13021e-17
9549.74670 8.27551e-18
9551.44429 6.23469e-18
9553.14188 6.33763e-18
9554.83946 1.00118e-17
9556.53705 1.62102e-17
9558.23464 1.86332e-17
9559.93223 1.45800e-17
9561.62982 1.10336e-17
9563.32740 1.29877e-17
9565.02499 1.64469e-17
9566.72258 1.71531e-17
9568.42017 1.51347e-17
9570.11776 1.18419e-17
9571.81534 9.62527e-18
9573.51293 1.05529e-17
9575.21052 1.46325e-17
9576.90811 2.05844e-17
9578.60570 2.62303e-17
9580.30329 2.93047e-17
9582.00087 2.89880e-17
9583.69846 2.56860e-17
9585.39605 2.06147e-17
9587.09364 1.55299e-17
9588.79123 1.20151e-17
9590.48881 1.11620e-17
9592.18640 1.20934e-17
9593.88399 1.23143e-17
9595.58158 1.21995e-17
9597.27917 1.48894e-17
9598.97675 1.96377e-17
9600.67434 2.14869e-17
9602.38198 1.93674e-17
9604.07956 1.71461e-17
9605.76711 1.67502e-17
9607.47474 1.71944e-17
9609.17233 1.74921e-17
9610.86992 1.66803e-17
9612.56750 1.45386e-17
9614.26509 1.22733e-17
9615.96268 1.10283e-17
9617.66027 1.15664e-17
9619.35786 1.37494e-17
9621.05544 1.56693e-17
9622.75303 1.56620e-17
9624.45062 1.32959e-17
9626.14821 9.32124e-18
9627.84580 6.83496e-18
9629.54339 8.44038e-18
9631.24097 1.31107e-17
9632.93856 1.84121e-17
9634.63615 2.22240e-17
9636.33374 2.30638e-17
9638.03133 2.12836e-17
9639.72891 1.83751e-17
9641.42650 1.57318e-17
9643.12409 1.44438e-17
9644.82168 1.43107e-17
9646.51927 1.42273e-17
9648.21685 1.41886e-17
9649.91444 1.49845e-17
9651.61203 1.71426e-17
9653.30962 2.09696e-17
9655.00721 2.39508e-17
9656.70479 2.07383e-17
9658.40238 1.27413e-17
9660.09997 9.39556e-18
9661.79756 1.45680e-17
9663.49515 2.44203e-17
9665.19274 3.41645e-17
9666.89032 3.78406e-17
9668.58791 3.35933e-17
9670.28550 2.71691e-17
9671.98309 2.31351e-17
9673.68068 2.19819e-17
9675.37826 2.28323e-17
9677.07585 2.30540e-17
9678.77344 2.05191e-17
9680.47103 1.50695e-17
9682.16862 7.97439e-18
9683.86620 3.01176e-18
9685.56379 3.05152e-18
9687.26138 6.36123e-18
9688.96901 9.78890e-18
9690.66660 1.08894e-17
9692.36419 8.49362e-18
9694.06178 5.30676e-18
9695.75937 5.07129e-18
9697.45695 6.98531e-18
9699.15454 7.97090e-18
9700.85213 7.17545e-18
9702.54972 5.25901e-18
9704.24731 3.66425e-18
9705.94489 4.33454e-18
9707.64248 6.94570e-18
9709.34007 9.16867e-18
9711.03766 9.92135e-18
9712.73525 9.38647e-18
9714.43283 8.46776e-18
9716.13042 8.96435e-18
9717.82801 1.10144e-17
9719.52560 1.25348e-17
9721.22319 1.22807e-17
9722.92078 1.02293e-17
9724.61836 7.40982e-18
9726.31595 6.61247e-18
9728.01354 8.94442e-18
9729.71113 1.20807e-17
9731.40872 1.40355e-17
9733.10630 1.43492e-17
9734.80389 1.33689e-17
9736.50148 1.28629e-17
9738.19907 1.40197e-17
9739.89666 1.58409e-17
9741.59424 1.68452e-17
9743.29183 1.53657e-17
9744.98942 1.09043e-17
9746.68701 7.27579e-18
9748.38460 8.20983e-18
9750.08219 1.10227e-17
9751.77977 1.11401e-17
9753.47736 8.06853e-18
9755.17495 3.76355e-18
9756.87254 1.87641e-18
9758.57013 6.12889e-18
9760.26771 1.37704e-17
9761.96530 1.78172e-17
9763.66289 1.59431e-17
9765.36048 9.96077e-18
9767.05807 3.81299e-18
9768.75565 3.37242e-18
9770.45324 8.72633e-18
9772.16088 1.34490e-17
9773.85846 1.50747e-17
9775.55605 1.61130e-17
9777.25364 1.80212e-17
9778.95123 2.09420e-17
9780.64882 2.43557e-17
9782.34640 2.66320e-17
9784.04399 2.65121e-17
9785.74158 2.34273e-17
9787.43917 1.80533e-17
9789.13676 1.33949e-17
9790.83434 1.12835e-17
9792.53193 1.01400e-17
9794.22952 8.37176e-18
9795.92711 5.77702e-18
9797.62470 2.92082e-18
9799.32228 2.10074e-18
9801.01987 4.74451e-18
9802.71746 7.65981e-18
9804.41505 7.50891e-18
9806.11264 6.31949e-18
9807.81023 7.40675e-18
9809.50781 1.04923e-17
9811.20540 1.35438e-17
9812.90299 1.41811e-17
9814.60058 1.05400e-17
9816.29817 5.11823e-18
9817.99575 2.90867e-18
9819.69334 4.38646e-18
9821.39093 6.54375e-18
9823.08852 8.41886e-18
9824.78611 1.06676e-17
9826.48369 1.24860e-17
9828.18128 1.19322e-17
9829.87887 9.69069e-18
9831.57646 9.31078e-18
9833.27405 1.21482e-17
9834.97163 1.66918e-17
9836.66922 2.08698e-17
9838.36681 2.18337e-17
9840.06440 1.88812e-17
9841.76199 1.50959e-17
9843.45958 1.27763e-17
9845.15716 1.19570e-17
9846.85475 1.21825e-17
9848.55234 1.24854e-17
9850.24993 1.21760e-17
9851.94752 1.18027e-17
9853.65515 1.17354e-17
9855.34269 1.08816e-17
9857.05033 8.54220e-18
9858.74791 6.46017e-18
9860.44550 6.29620e-18
9862.14309 6.30984e-18
9863.84068 4.58401e-18
9865.53827 4.20626e-18
9867.23585 8.92915e-18
9868.93344 1.48310e-17
9870.63103 1.55556e-17
9872.32862 1.45893e-17
9874.02621 1.99337e-17
9875.72379 2.90604e-17
9877.42138 3.26620e-17
9879.11897 2.66164e-17
9880.81656 1.15324e-17
9882.51415 -5.44574e-18
9884.21173 -1.12135e-17
9885.90932 -4.24495e-18
9887.60691 3.99767e-18
9889.30450 6.96707e-18
9891.00209 4.29757e-18
9892.69968 -1.02755e-18
9894.39726 -7.35695e-19
9896.09485 7.34097e-18
9897.79244 1.48651e-17
9899.49003 1.60005e-17
9901.18762 1.04434e-17
9902.88520 7.04742e-19
9904.58279 -5.91314e-18
9906.28038 -5.08428e-18
9907.97797 -1.20010e-18
9909.67556 1.28838e-18
9911.37314 2.37434e-18
9913.07073 3.06989e-18
9914.76832 4.49382e-18
9916.46591 7.39913e-18
9918.16350 1.10296e-17
9919.86108 1.40667e-17
9921.55867 1.53149e-17
9923.25626 1.41217e-17
9924.95385 1.13912e-17
9926.65144 8.79578e-18
9928.34903 7.81373e-18
9930.04661 9.27065e-18
9931.74420 1.10890e-17
9933.44179 9.69361e-18
9935.14942 6.02761e-18
9936.83697 4.35359e-18
9938.54460 5.31311e-18
9940.23214 6.42020e-18
9941.93978 6.33222e-18
9943.63736 4.70272e-18
9945.33495 2.39038e-18
9947.03254 1.92349e-18
9948.73013 3.00122e-18
9950.42772 1.30242e-18
9952.12530 -3.90441e-18
9953.82289 -7.75094e-18
9955.52048 -7.27272e-18
9957.21807 -3.28501e-18
9958.91566 2.95428e-18
9960.61324 9.99015e-18
9962.31083 1.66026e-17
9964.00842 2.28742e-17
9965.70601 2.81660e-17
9967.40360 2.92454e-17
9969.10118 2.42858e-17
9970.79877 1.57983e-17
9972.49636 7.52286e-18
9974.19395 3.24367e-18
9975.89154 5.10842e-18
9977.58913 1.04632e-17
9979.28671 1.50278e-17
9980.98430 1.66988e-17
9982.68189 1.48844e-17
9984.37948 1.00576e-17
9986.07707 3.76334e-18
9987.77465 -1.68340e-18
9989.47224 -3.93097e-18
9991.16983 -1.92806e-18
9992.86742 3.89043e-18
9994.56501 9.65988e-18
9996.26259 9.20976e-18
9997.96018 4.15869e-18
9999.65777 3.53547e-18
