# wavelength flux
3699.81107 1.98713e-17
3701.01623 1.99156e-17
3702.21135 2.01463e-17
3703.41651 1.96847e-17
3704.61163 1.87747e-17
3705.81678 1.90171e-17
3707.01190 1.90429e-17
3708.21706 1.93027e-17
3709.41218 1.94023e-17
3710.61734 2.04734e-17
3711.81246 2.04821e-17
3713.01762 1.99708e-17
3714.21273 1.97497e-17
3715.41789 2.02484e-17
3716.61301 2.01560e-17
3717.81817 2.03047e-17
3719.01329 1.83311e-17
3720.20840 1.82739e-17
3721.41356 1.82784e-17
3722.60868 1.85755e-17
3723.81384 1.92321e-17
3725.00896 1.99116e-17
3726.21412 1.94266e-17
3727.40923 1.83493e-17
3728.61440 1.84779e-17
3729.80951 1.91065e-17
3731.01467 1.88343e-17
3732.20979 1.80419e-17
3733.41495 1.76936e-17
3734.61007 1.81472e-17
3735.81523 1.72366e-17
3737.01034 1.72699e-17
3738.21550 1.82634e-17
3739.41062 1.75703e-17
3740.61578 1.78122e-17
3741.81090 1.71515e-17
3743.00601 1.67306e-17
3744.21117 1.68398e-17
3745.40629 1.64906e-17
3746.61145 1.61163e-17
3747.80657 1.54752e-17
3749.01173 1.47964e-17
3750.20685 1.47023e-17
3751.41200 1.45311e-17
3752.60712 1.49261e-17
3753.81228 1.46210e-17
3755.00740 1.43157e-17
3756.21256 1.34193e-17
3757.40768 1.28742e-17
3758.61284 1.31000e-17
3759.80795 1.26993e-17
3761.01311 1.18548e-17
3762.20823 1.12741e-17
3763.40335 1.13539e-17
3764.60851 1.12301e-17
3765.80362 1.05729e-17
3767.00878 9.80967e-18
3768.20390 9.79447e-18
3769.40906 9.81335e-18
3770.60418 9.70663e-18
3771.80934 9.32771e-18
3773.00445 9.48419e-18
3774.20962 9.31078e-18
3775.40473 8.87647e-18
3776.60989 8.95845e-18
3777.80501 8.90697e-18
3779.01017 8.59094e-18
3780.20529 8.48326e-18
3781.41045 8.72845e-18
3782.60556 8.89271e-18
3783.80068 8.59547e-18
3785.00584 7.96812e-18
3786.20096 7.66322e-18
3787.40612 7.96146e-18
3788.60123 7.58204e-18
3789.80639 7.20668e-18
3791.00151 7.38315e-18
3792.20667 7.17181e-18
3793.40179 7.08931e-18
3794.60695 7.08750e-18
3795.80206 6.87275e-18
3797.00722 6.37359e-18
3798.20234 6.39311e-18
3799.40750 6.81499e-18
3800.60262 7.16176e-18
3801.80778 6.88466e-18
3803.00290 7.19104e-18
3804.20806 7.02963e-18
3805.40317 6.75537e-18
3806.59829 6.65866e-18
3807.80345 6.80477e-18
3808.99857 7.07496e-18
3810.20373 6.97303e-18
3811.39884 6.87819e-18
3812.60400 7.05744e-18
3813.79912 6.98438e-18
3815.00428 7.07652e-18
3816.19940 6.90028e-18
3817.40456 6.83774e-18
3818.59967 6.68783e-18
3819.80483 7.05804e-18
3820.99995 7.12073e-18
3822.20511 7.05440e-18
3823.40023 7.35504e-18
3824.60539 7.57600e-18
3825.80051 7.78117e-18
3826.99562 7.33411e-18
3828.20078 7.77516e-18
3829.39590 7.85841e-18
3830.60106 8.37017e-18
3831.79618 8.34783e-18
3833.00134 8.31559e-18
3834.19645 8.88960e-18
3835.40161 8.94080e-18
3836.59673 8.80108e-18
3837.80189 9.17882e-18
3838.99701 9.18097e-18
3840.20217 9.48632e-18
3841.39728 9.82797e-18
3842.60244 9.65826e-18
3843.79756 9.89239e-18
3845.00272 1.02162e-17
3846.19784 1.06865e-17
3847.39296 1.01238e-17
3848.59812 1.06840e-17
3849.79323 1.08019e-17
3850.99839 1.10269e-17
3852.19351 1.14382e-17
3853.39867 1.10674e-17
3854.59379 1.18568e-17
3855.79895 1.15035e-17
3856.99406 1.18444e-17
3858.19922 1.18397e-17
3859.39434 1.19374e-17
3860.59950 1.22894e-17
3861.79462 1.24625e-17
3862.99978 1.25736e-17
3864.19490 1.30579e-17
3865.40005 1.32395e-17
3866.59517 1.30695e-17
3867.80033 1.34425e-17
3868.99545 1.34449e-17
3870.19057 1.35420e-17
3871.39573 1.37909e-17
3872.59084 1.38321e-17
3873.79600 1.38756e-17
3874.99112 1.40144e-17
3876.19628 1.48297e-17
3877.39140 1.41343e-17
3878.59656 1.45595e-17
3879.79167 1.44818e-17
3880.99683 1.45830e-17
3882.19195 1.51232e-17
3883.39711 1.53380e-17
3884.59223 1.53217e-17
3885.79739 1.55207e-17
3886.99250 1.57928e-17
3888.19767 1.63699e-17
3889.39278 1.59006e-17
3890.58790 1.62880e-17
3891.79306 1.68673e-17
3892.98818 1.67703e-17
3894.19334 1.69773e-17
3895.38845 1.71582e-17
3896.59361 1.71720e-17
3897.78873 1.68517e-17
3898.99389 1.74427e-17
3900.18901 1.70431e-17
3901.39417 1.75575e-17
3902.58928 1.79895e-17
3903.79444 1.75604e-17
3904.98956 1.81151e-17
3906.19472 1.80387e-17
3907.38984 1.80241e-17
3908.59500 1.86782e-17
3909.79012 1.88014e-17
3910.98523 1.88797e-17
3912.19039 1.91263e-17
3913.38551 1.89074e-17
3914.59067 1.93920e-17
3915.78579 1.93211e-17
3916.99095 1.95899e-17
3918.18606 1.96408e-17
3919.39122 1.93153e-17
3920.58634 1.93108e-17
3921.79150 1.94787e-17
3922.98662 2.00935e-17
3924.19178 2.00786e-17
3925.38689 1.96590e-17
3926.59205 2.00391e-17
3927.78717 1.98410e-17
3928.99233 1.99219e-17
3930.18745 1.99058e-17
3931.38256 1.93607e-17
3932.58772 1.90324e-17
3933.78284 1.90465e-17
3934.98800 1.94553e-17
3936.18312 2.03499e-17
3937.38828 2.08422e-17
3938.58340 2.07586e-17
3939.78856 2.14219e-17
3940.98367 2.15998e-17
3942.18883 2.18752e-17
3943.38395 2.17978e-17
3944.58911 2.18162e-17
3945.78423 2.20098e-17
3946.98939 2.21367e-17
3948.18450 2.17396e-17
3949.38966 2.17005e-17
3950.58478 2.12052e-17
3951.77990 2.17611e-17
3952.98506 2.18532e-17
3954.18017 2.22365e-17
3955.38533 2.29589e-17
3956.58045 2.32212e-17
3957.78561 2.32473e-17
3958.98073 2.25496e-17
3960.18589 2.27012e-17
3961.38101 2.29733e-17
3962.58617 2.31806e-17
3963.78128 2.27790e-17
3964.98644 2.28774e-17
3966.18156 2.28383e-17
3967.38672 2.16650e-17
3968.58184 2.24074e-17
3969.78700 2.33234e-17
3970.98211 2.36091e-17
3972.18727 2.32536e-17
3973.38239 2.34599e-17
3974.57751 2.28712e-17
3975.78267 2.28416e-17
3976.97778 2.26507e-17
3978.18295 2.26226e-17
3979.37806 2.28497e-17
3980.58322 2.29179e-17
3981.77834 2.28653e-17
3982.98350 2.25193e-17
3984.17862 2.26725e-17
3985.38378 2.22779e-17
3986.57889 2.18453e-17
3987.78405 2.20111e-17
3988.97917 2.23586e-17
3990.18433 2.29973e-17
3991.37945 2.27482e-17
3992.58461 2.26512e-17
3993.77972 2.20050e-17
3994.97484 2.17377e-17
3996.18000 2.22089e-17
3997.37512 2.21797e-17
3998.58028 2.17236e-17
3999.77540 2.16813e-17
4000.98055 2.15001e-17
4002.17567 2.15829e-17
4003.38083 2.13710e-17
4004.57595 2.11157e-17
4005.78111 2.10197e-17
4006.97623 2.09785e-17
4008.18139 2.08479e-17
4009.37650 2.05040e-17
4010.58166 2.01224e-17
4011.77678 2.00026e-17
4012.98194 2.01007e-17
4014.17706 2.02690e-17
4015.38222 2.00739e-17
4016.57733 2.03483e-17
4017.77245 1.98612e-17
4018.97761 1.94466e-17
4020.17273 1.94884e-17
4021.37789 1.88740e-17
4022.57300 1.88852e-17
4023.77817 1.88882e-17
4024.97328 1.85731e-17
4026.17844 1.85083e-17
4027.37356 1.88798e-17
4028.57872 1.89333e-17
4029.77384 1.84507e-17
4030.97900 1.84563e-17
4032.17411 1.80743e-17
4033.37927 1.81083e-17
4034.57439 1.79494e-17
4035.77955 1.81028e-17
4036.97467 1.83379e-17
4038.16978 1.83209e-17
4039.37494 1.81955e-17
4040.57006 1.81452e-17
4041.77522 1.78505e-17
4042.97034 1.76473e-17
4044.17550 1.79480e-17
4045.37062 1.79870e-17
4046.57577 1.77116e-17
4047.77089 1.76435e-17
4048.97605 1.75549e-17
4050.17117 1.78153e-17
4051.37633 1.74781e-17
4052.57145 1.72303e-17
4053.77661 1.79380e-17
4054.97172 1.75032e-17
4056.17688 1.73410e-17
4057.37200 1.78080e-17
4058.56712 1.74897e-17
4059.77228 1.74775e-17
4060.96739 1.72696e-17
4062.17255 1.73856e-17
4063.36767 1.74851e-17
4064.57283 1.72406e-17
4065.76795 1.76689e-17
4066.97311 1.75492e-17
4068.16822 1.72379e-17
4069.37338 1.73219e-17
4070.56850 1.71671e-17
4071.77366 1.66001e-17
4072.96878 1.67690e-17
4074.17394 1.70585e-17
4075.36906 1.74214e-17
4076.57422 1.71028e-17
4077.76933 1.64596e-17
4078.96445 1.63541e-17
4080.16961 1.61178e-17
4081.36473 1.65265e-17
4082.56989 1.62137e-17
4083.76500 1.62151e-17
4084.97016 1.61299e-17
4086.16528 1.61668e-17
4087.37044 1.65633e-17
4088.56556 1.60911e-17
4089.77072 1.61687e-17
4090.96583 1.56995e-17
4092.17099 1.58556e-17
4093.36611 1.55213e-17
4094.57127 1.54557e-17
4095.76639 1.55966e-17
4096.97155 1.54754e-17
4098.16667 1.53331e-17
4099.37183 1.50728e-17
4100.56694 1.50633e-17
4101.76206 1.52027e-17
4102.96722 1.51872e-17
4104.16234 1.50648e-17
4105.36750 1.50522e-17
4106.56261 1.50576e-17
4107.76777 1.49317e-17
4108.96289 1.47832e-17
4110.16805 1.50899e-17
4111.36317 1.51885e-17
4112.56833 1.46282e-17
4113.76344 1.48368e-17
4114.96861 1.49007e-17
4116.16372 1.46675e-17
4117.36888 1.50074e-17
4118.56400 1.49454e-17
4119.75912 1.44063e-17
4120.96428 1.50145e-17
4122.15939 1.46767e-17
4123.36455 1.41642e-17
4124.55967 1.41992e-17
4125.76483 1.42135e-17
4126.95995 1.39616e-17
4128.16511 1.40069e-17
4129.36022 1.38823e-17
4130.56538 1.35592e-17
4131.76050 1.40104e-17
4132.96566 1.36459e-17
4134.16078 1.35349e-17
4135.36594 1.36660e-17
4136.56106 1.33123e-17
4137.76621 1.32202e-17
4138.96133 1.31018e-17
4140.16649 1.33250e-17
4141.36161 1.33639e-17
4142.55673 1.33083e-17
4143.76189 1.31293e-17
4144.95700 1.29564e-17
4146.16216 1.28566e-17
4147.35728 1.31710e-17
4148.56244 1.29478e-17
4149.75756 1.31459e-17
4150.96272 1.28041e-17
4152.15783 1.25602e-17
4153.36299 1.28923e-17
4154.55811 1.28233e-17
4155.76327 1.29381e-17
4156.95839 1.28618e-17
4158.16355 1.28024e-17
4159.35866 1.27670e-17
4160.56383 1.28670e-17
4161.75894 1.28245e-17
4162.95406 1.29620e-17
4164.15922 1.24373e-17
4165.35434 1.29175e-17
4166.55950 1.29385e-17
4167.75461 1.27167e-17
4168.95977 1.30867e-17
4170.15489 1.33316e-17
4171.36005 1.34065e-17
4172.55517 1.31748e-17
4173.76033 1.30457e-17
4174.95544 1.32627e-17
4176.16060 1.34294e-17
4177.35572 1.35322e-17
4178.56088 1.34188e-17
4179.75600 1.36921e-17
4180.96116 1.38714e-17
4182.15628 1.37770e-17
4183.35139 1.39837e-17
4184.55655 1.39290e-17
4185.75167 1.40398e-17
4186.95683 1.39050e-17
4188.15195 1.39435e-17
4189.35711 1.38040e-17
4190.55222 1.38685e-17
4191.75738 1.38688e-17
4192.95250 1.41484e-17
4194.15766 1.37021e-17
4195.35278 1.41579e-17
4196.55794 1.38184e-17
4197.75305 1.42837e-17
4198.95821 1.36532e-17
4200.15333 1.38380e-17
4201.35849 1.40358e-17
4202.55361 1.41473e-17
4203.74872 1.42203e-17
4204.95388 1.41559e-17
4206.14900 1.43179e-17
4207.35416 1.43119e-17
4208.54928 1.43333e-17
4209.75444 1.42853e-17
4210.94956 1.39311e-17
4212.15472 1.42836e-17
4213.34983 1.39865e-17
4214.55499 1.38862e-17
4215.75011 1.39901e-17
4216.95527 1.42176e-17
4218.15039 1.42130e-17
4219.35555 1.42812e-17
4220.55066 1.42921e-17
4221.75582 1.41118e-17
4222.95094 1.38628e-17
4224.14606 1.38690e-17
4225.35122 1.38639e-17
4226.54633 1.37936e-17
4227.75149 1.38530e-17
4228.94661 1.36728e-17
4230.15177 1.39230e-17
4231.34689 1.40474e-17
4232.55205 1.37735e-17
4233.74717 1.38813e-17
4234.95233 1.34996e-17
4236.14744 1.36266e-17
4237.35260 1.35172e-17
4238.54772 1.38928e-17
4239.75288 1.38307e-17
4240.94800 1.37815e-17
4242.15316 1.37210e-17
4243.34827 1.36706e-17
4244.55343 1.38960e-17
4245.74855 1.35757e-17
4246.94367 1.35545e-17
4248.14883 1.37192e-17
4249.34394 1.35062e-17
4250.54911 1.33292e-17
4251.74422 1.34444e-17
4252.94938 1.38293e-17
4254.14450 1.36059e-17
4255.34966 1.36796e-17
4256.54478 1.37883e-17
4257.74994 1.37754e-17
4258.94505 1.33624e-17
4260.15021 1.35206e-17
4261.34533 1.38329e-17
4262.55049 1.36614e-17
4263.74561 1.35218e-17
4264.95077 1.36978e-17
4266.14588 1.38091e-17
4267.35104 1.37547e-17
4268.54616 1.35596e-17
4269.74128 1.36910e-17
4270.94644 1.34671e-17
4272.14156 1.34991e-17
4273.34671 1.34865e-17
4274.54183 1.35496e-17
4275.74699 1.38531e-17
4276.94211 1.37876e-17
4278.14727 1.40127e-17
4279.34239 1.37346e-17
4280.54755 1.40335e-17
4281.74266 1.41393e-17
4282.94782 1.39019e-17
4284.14294 1.39128e-17
4285.34810 1.39453e-17
4286.54322 1.42069e-17
4287.74838 1.41562e-17
4288.94349 1.37407e-17
4290.13861 1.40954e-17
4291.34377 1.44207e-17
4292.53889 1.43712e-17
4293.74405 1.43605e-17
4294.93916 1.42538e-17
4296.14433 1.41807e-17
4297.33944 1.40170e-17
4298.54460 1.41905e-17
4299.73972 1.40139e-17
4300.94488 1.43298e-17
4302.14000 1.42242e-17
4303.34516 1.43299e-17
4304.54027 1.43259e-17
4305.74543 1.44333e-17
4306.94055 1.44252e-17
4308.14571 1.45732e-17
4309.34083 1.46624e-17
4310.53594 1.44513e-17
4311.74110 1.42298e-17
4312.93622 1.44058e-17
4314.14138 1.46580e-17
4315.33650 1.46021e-17
4316.54166 1.47943e-17
4317.73678 1.46721e-17
4318.94193 1.45089e-17
4320.13705 1.47575e-17
4321.34221 1.46052e-17
4322.53733 1.44114e-17
4323.74249 1.41770e-17
4324.93761 1.40605e-17
4326.14277 1.40601e-17
4327.33788 1.40412e-17
4328.54304 1.41798e-17
4329.73816 1.42079e-17
4330.94332 1.45743e-17
4332.13844 1.40885e-17
4333.33355 1.41577e-17
4334.53871 1.39343e-17
4335.73383 1.40194e-17
4336.93899 1.36296e-17
4338.13411 1.35963e-17
4339.33927 1.30278e-17
4340.53438 1.31357e-17
4341.73954 1.33165e-17
4342.93466 1.31616e-17
4344.13982 1.31399e-17
4345.33494 1.31419e-17
4346.54010 1.30984e-17
4347.73522 1.26530e-17
4348.94038 1.28113e-17
4350.13549 1.27805e-17
4351.34065 1.24005e-17
4352.53577 1.22163e-17
4353.73089 1.22370e-17
4354.93605 1.23326e-17
4356.13116 1.24997e-17
4357.33632 1.23714e-17
4358.53144 1.23552e-17
4359.73660 1.21289e-17
4360.93172 1.21176e-17
4362.13688 1.20141e-17
4363.33199 1.18660e-17
4364.53715 1.16627e-17
4365.73227 1.15852e-17
4366.93743 1.15134e-17
4368.13255 1.13591e-17
4369.33771 1.14694e-17
4370.53283 1.14569e-17
4371.73799 1.14193e-17
4372.93310 1.12851e-17
4374.12822 1.13089e-17
4375.33338 1.12083e-17
4376.52850 1.10187e-17
4377.73366 1.10410e-17
4378.92877 1.10362e-17
4380.13393 1.09142e-17
4381.32905 1.07604e-17
4382.53421 1.07953e-17
4383.72933 1.04665e-17
4384.93449 1.07470e-17
4386.12961 1.04061e-17
4387.33476 1.04911e-17
4388.52988 1.06007e-17
4389.73504 1.05428e-17
4390.93016 1.06596e-17
4392.13532 1.02964e-17
4393.33044 1.02932e-17
4394.52555 1.04641e-17
4395.73071 1.05311e-17
4396.92583 1.04138e-17
4398.13099 1.03786e-17
4399.32611 1.03482e-17
4400.53127 1.05685e-17
4401.72638 1.06858e-17
4402.93154 1.07541e-17
4404.12666 1.04447e-17
4405.33182 1.01698e-17
4406.52694 1.02767e-17
4407.73210 1.04716e-17
4408.92721 1.03736e-17
4410.13238 1.04668e-17
4411.32749 1.04652e-17
4412.53265 1.04069e-17
4413.72777 1.04452e-17
4414.92289 1.03530e-17
4416.12805 1.03543e-17
4417.32316 1.06976e-17
4418.52832 1.06761e-17
4419.72344 1.07340e-17
4420.92860 1.08258e-17
4422.12372 1.08630e-17
4423.32888 1.09355e-17
4424.52399 1.09546e-17
4425.72915 1.10261e-17
4426.92427 1.11277e-17
4428.12943 1.11099e-17
4429.32455 1.13329e-17
4430.52971 1.13373e-17
4431.72483 1.13589e-17
4432.92998 1.15654e-17
4434.12510 1.15629e-17
4435.32022 1.17555e-17
4436.52538 1.20045e-17
4437.72050 1.16940e-17
4438.92566 1.18430e-17
4440.12077 1.20826e-17
4441.32593 1.21739e-17
4442.52105 1.23234e-17
4443.72621 1.25054e-17
4444.92133 1.22436e-17
4446.12649 1.25151e-17
4447.32160 1.25823e-17
4448.52676 1.27623e-17
4449.72188 1.27518e-17
4450.92704 1.26522e-17
4452.12216 1.30318e-17
4453.32732 1.29679e-17
4454.52243 1.31329e-17
4455.72759 1.32573e-17
4456.92271 1.32447e-17
4458.11783 1.34015e-17
4459.32299 1.29188e-17
4460.51811 1.33497e-17
4461.72327 1.36445e-17
4462.91838 1.40970e-17
4464.12354 1.37900e-17
4465.31866 1.37283e-17
4466.52382 1.39944e-17
4467.71894 1.40446e-17
4468.92410 1.39563e-17
4470.11921 1.39185e-17
4471.32437 1.41933e-17
4472.51949 1.44952e-17
4473.72465 1.44857e-17
4474.91977 1.46350e-17
4476.12493 1.45010e-17
4477.32004 1.47703e-17
4478.51516 1.47314e-17
4479.72032 1.46340e-17
4480.91544 1.49501e-17
4482.12060 1.50542e-17
4483.31572 1.49472e-17
4484.52088 1.52013e-17
4485.71599 1.52321e-17
4486.92115 1.52218e-17
4488.11627 1.52601e-17
4489.32143 1.54472e-17
4490.51655 1.54381e-17
4491.72171 1.56824e-17
4492.91682 1.57049e-17
4494.12198 1.58291e-17
4495.31710 1.60375e-17
4496.52226 1.59466e-17
4497.71738 1.59324e-17
4498.92254 1.63245e-17
4500.11766 1.61966e-17
4501.31277 1.64240e-17
4502.51793 1.67002e-17
4503.71305 1.66726e-17
4504.91821 1.67072e-17
4506.11333 1.70218e-17
4507.31849 1.69425e-17
4508.51360 1.70348e-17
4509.71876 1.70466e-17
4510.91388 1.69354e-17
4512.11904 1.69836e-17
4513.31416 1.73306e-17
4514.51932 1.73069e-17
4515.71443 1.76736e-17
4516.91959 1.78214e-17
4518.11471 1.82673e-17
4519.31987 1.81534e-17
4520.51499 1.82876e-17
4521.71011 1.87143e-17
4522.91526 1.82675e-17
4524.11038 1.86136e-17
4525.31554 1.91636e-17
4526.51066 1.89957e-17
4527.71582 1.93559e-17
4528.91094 1.95421e-17
4530.11610 1.92873e-17
4531.31121 1.96979e-17
4532.51637 1.99891e-17
4533.71149 2.00685e-17
4534.91665 2.02562e-17
4536.11177 2.08226e-17
4537.31693 2.07870e-17
4538.51204 2.09746e-17
4539.71720 2.14060e-17
4540.91232 2.13663e-17
4542.10744 2.16980e-17
4543.31260 2.15577e-17
4544.50771 2.21039e-17
4545.71288 2.24118e-17
4546.90799 2.25171e-17
4548.11315 2.27220e-17
4549.30827 2.28966e-17
4550.51343 2.29162e-17
4551.70855 2.33126e-17
4552.91371 2.32284e-17
4554.10882 2.32853e-17
4555.31398 2.33591e-17
4556.50910 2.36206e-17
4557.71426 2.39296e-17
4558.90938 2.41060e-17
4560.11454 2.42868e-17
4561.30965 2.41970e-17
4562.51481 2.42464e-17
4563.70993 2.42488e-17
4564.90505 2.43583e-17
4566.11021 2.41888e-17
4567.30533 2.41708e-17
4568.51048 2.43049e-17
4569.70560 2.45504e-17
4570.91076 2.43955e-17
4572.10588 2.40867e-17
4573.31104 2.39759e-17
4574.50616 2.40757e-17
4575.71132 2.38117e-17
4576.90643 2.37298e-17
4578.11159 2.37642e-17
4579.30671 2.36744e-17
4580.51187 2.33473e-17
4581.70699 2.32782e-17
4582.91215 2.32799e-17
4584.10726 2.34220e-17
4585.30238 2.35991e-17
4586.50754 2.35144e-17
4587.70266 2.34831e-17
4588.90782 2.30518e-17
4590.10293 2.32792e-17
4591.30809 2.35081e-17
4592.50321 2.31908e-17
4593.70837 2.29107e-17
4594.90349 2.29362e-17
4596.10865 2.30224e-17
4597.30377 2.31000e-17
4598.50893 2.28953e-17
4599.70404 2.24829e-17
4600.90920 2.27018e-17
4602.10432 2.30144e-17
4603.30948 2.25550e-17
4604.50460 2.22951e-17
4605.69971 2.25299e-17
4606.90487 2.27106e-17
4608.09999 2.25327e-17
4609.30515 2.26745e-17
4610.50027 2.24913e-17
4611.70543 2.23408e-17
4612.90054 2.24493e-17
4614.10570 2.25660e-17
4615.30082 2.21006e-17
4616.50598 2.18421e-17
4617.70110 2.22663e-17
4618.90626 2.22218e-17
4620.10138 2.20452e-17
4621.30654 2.19911e-17
4622.50165 2.18920e-17
4623.70681 2.16870e-17
4624.90193 2.16893e-17
4626.09705 2.16969e-17
4627.30221 2.15934e-17
4628.49732 2.15481e-17
4629.70248 2.13993e-17
4630.89760 2.12745e-17
4632.10276 2.11834e-17
4633.29788 2.15543e-17
4634.50304 2.12663e-17
4635.69816 2.13184e-17
4636.90332 2.08371e-17
4638.09843 2.09279e-17
4639.30359 2.08903e-17
4640.49871 2.02764e-17
4641.70387 2.04416e-17
4642.89899 2.02558e-17
4644.10415 1.98892e-17
4645.29926 2.02954e-17
4646.49438 1.97954e-17
4647.69954 1.97138e-17
4648.89466 1.96890e-17
4650.09982 1.95675e-17
4651.29493 1.94381e-17
4652.50009 1.91847e-17
4653.69521 1.88851e-17
4654.90037 1.87797e-17
4656.09549 1.87029e-17
4657.30065 1.84716e-17
4658.49576 1.84696e-17
4659.70093 1.81442e-17
4660.89604 1.80097e-17
4662.10120 1.79184e-17
4663.29632 1.77406e-17
4664.50148 1.74295e-17
4665.69660 1.71584e-17
4666.90176 1.70902e-17
4668.09687 1.67512e-17
4669.29199 1.67206e-17
4670.49715 1.67238e-17
4671.69227 1.65695e-17
4672.89743 1.65491e-17
4674.09254 1.62799e-17
4675.29770 1.59728e-17
4676.49282 1.61558e-17
4677.69798 1.63353e-17
4678.89310 1.62455e-17
4680.09826 1.60559e-17
4681.29338 1.60978e-17
4682.49853 1.60343e-17
4683.69365 1.57728e-17
4684.89881 1.57983e-17
4686.09393 1.57066e-17
4687.29909 1.58054e-17
4688.49421 1.57147e-17
4689.68932 1.55620e-17
4690.89448 1.52292e-17
4692.08960 1.52511e-17
4693.29476 1.54288e-17
4694.48988 1.54286e-17
4695.69504 1.53018e-17
4696.89015 1.52163e-17
4698.09531 1.53166e-17
4699.29043 1.55401e-17
4700.49559 1.55839e-17
4701.69071 1.55212e-17
4702.89587 1.53477e-17
4704.09098 1.52711e-17
4705.29614 1.55580e-17
4706.49126 1.55720e-17
4707.69642 1.55839e-17
4708.89154 1.55666e-17
4710.08666 1.54246e-17
4711.29182 1.57215e-17
4712.48693 1.57398e-17
4713.69209 1.61037e-17
4714.88721 1.66869e-17
4716.09237 1.66355e-17
4717.28749 1.58936e-17
4718.49265 1.57253e-17
4719.68776 1.57928e-17
4720.89292 1.59166e-17
4722.08804 1.57932e-17
4723.29320 1.57175e-17
4724.48832 1.60842e-17
4725.69348 1.58992e-17
4726.88859 1.62038e-17
4728.09375 1.60409e-17
4729.28887 1.57275e-17
4730.49403 1.57251e-17
4731.68915 1.54574e-17
4732.88427 1.56973e-17
4734.08943 1.55518e-17
4735.28454 1.53464e-17
4736.48970 1.53389e-17
4737.68482 1.46837e-17
4738.88998 1.49675e-17
4740.08510 1.45939e-17
4741.29026 1.44429e-17
4742.48537 1.43292e-17
4743.69053 1.43272e-17
4744.88565 1.39583e-17
4746.09081 1.38694e-17
4747.28593 1.38595e-17
4748.49109 1.38441e-17
4749.68620 1.36661e-17
4750.89137 1.33272e-17
4752.08648 1.30416e-17
4753.28160 1.30705e-17
4754.48676 1.29405e-17
4755.68188 1.29479e-17
4756.88704 1.28933e-17
4758.08215 1.26176e-17
4759.28731 1.25331e-17
4760.48243 1.29082e-17
4761.68759 1.25057e-17
4762.88271 1.24840e-17
4764.08787 1.24458e-17
4765.28298 1.22531e-17
4766.48814 1.22012e-17
4767.68326 1.20868e-17
4768.88842 1.22805e-17
4770.08354 1.22596e-17
4771.28870 1.25641e-17
4772.48381 1.24851e-17
4773.67893 1.21614e-17
4774.88409 1.24201e-17
4776.07921 1.22729e-17
4777.28437 1.22634e-17
4778.47949 1.23833e-17
4779.68465 1.23811e-17
4780.87976 1.24344e-17
4782.08492 1.27065e-17
4783.28004 1.26333e-17
4784.48520 1.26505e-17
4785.68032 1.30234e-17
4786.88548 1.28387e-17
4788.08059 1.31751e-17
4789.28575 1.31457e-17
4790.48087 1.32154e-17
4791.68603 1.33129e-17
4792.88115 1.33269e-17
4794.08631 1.34983e-17
4795.28143 1.37691e-17
4796.47654 1.38135e-17
4797.68170 1.36435e-17
4798.87682 1.38238e-17
4800.08198 1.37518e-17
4801.27710 1.40544e-17
4802.48226 1.40943e-17
4803.67737 1.42423e-17
4804.88253 1.40854e-17
4806.07765 1.44136e-17
4807.28281 1.42706e-17
4808.47793 1.44335e-17
4809.68309 1.44017e-17
4810.87820 1.43821e-17
4812.08336 1.43955e-17
4813.27848 1.43133e-17
4814.48364 1.45105e-17
4815.67876 1.44926e-17
4816.87388 1.47507e-17
4818.07903 1.44239e-17
4819.27415 1.43786e-17
4820.47931 1.42100e-17
4821.67443 1.42355e-17
4822.87959 1.40670e-17
4824.07471 1.36468e-17
4825.27987 1.38619e-17
4826.47498 1.37526e-17
4827.68014 1.36166e-17
4828.87526 1.33732e-17
4830.08042 1.29774e-17
4831.27554 1.28876e-17
4832.48070 1.28338e-17
4833.67581 1.27585e-17
4834.88097 1.26301e-17
4836.07609 1.28290e-17
4837.27121 1.24386e-17
4838.47637 1.22993e-17
4839.67148 1.21756e-17
4840.87664 1.21566e-17
4842.07176 1.19521e-17
4843.27692 1.17410e-17
4844.47204 1.17192e-17
4845.67720 1.18464e-17
4846.87232 1.16397e-17
4848.07748 1.14586e-17
4849.27259 1.14464e-17
4850.47775 1.15158e-17
4851.67287 1.13528e-17
4852.87803 1.13332e-17
4854.07315 1.13351e-17
4855.27831 1.12203e-17
4856.47342 1.12372e-17
4857.67858 1.12418e-17
4858.87370 1.12418e-17
4860.06882 1.15101e-17
4861.27398 1.13751e-17
4862.46909 1.13695e-17
4863.67425 1.15580e-17
4864.86937 1.15973e-17
4866.07453 1.15598e-17
4867.26965 1.16675e-17
4868.47481 1.17574e-17
4869.66993 1.19396e-17
4870.87509 1.20895e-17
4872.07020 1.20602e-17
4873.27536 1.21734e-17
4874.47048 1.23222e-17
4875.67564 1.25264e-17
4876.87076 1.26111e-17
4878.07592 1.25951e-17
4879.27103 1.28879e-17
4880.46615 1.29874e-17
4881.67131 1.29746e-17
4882.86643 1.31542e-17
4884.07159 1.31726e-17
4885.26671 1.32561e-17
4886.47187 1.32517e-17
4887.66698 1.32232e-17
4888.87214 1.33747e-17
4890.06726 1.33113e-17
4891.27242 1.32767e-17
4892.46754 1.34971e-17
4893.67270 1.36093e-17
4894.86781 1.35801e-17
4896.07297 1.37111e-17
4897.26809 1.37994e-17
4898.47325 1.39008e-17
4899.66837 1.39935e-17
4900.86348 1.39271e-17
4902.06864 1.39777e-17
4903.26376 1.40913e-17
4904.46892 1.41792e-17
4905.66404 1.42744e-17
4906.86920 1.45150e-17
4908.06431 1.45393e-17
4909.26948 1.46028e-17
4910.46459 1.46728e-17
4911.66975 1.47843e-17
4912.86487 1.47311e-17
4914.07003 1.46739e-17
4915.26515 1.49129e-17
4916.47031 1.51024e-17
4917.66542 1.53053e-17
4918.87058 1.52472e-17
4920.06570 1.51026e-17
4921.26082 1.51057e-17
4922.46598 1.52504e-17
4923.66109 1.53289e-17
4924.86625 1.53716e-17
4926.06137 1.54177e-17
4927.26653 1.56413e-17
4928.46165 1.56851e-17
4929.66681 1.55987e-17
4930.86193 1.57187e-17
4932.06708 1.56233e-17
4933.26220 1.57392e-17
4934.46736 1.57928e-17
4935.66248 1.57841e-17
4936.86764 1.57033e-17
4938.06276 1.57868e-17
4939.26792 1.58952e-17
4940.46303 1.59124e-17
4941.65815 1.57482e-17
4942.86331 1.56916e-17
4944.05843 1.57438e-17
4945.26359 1.56927e-17
4946.45870 1.57498e-17
4947.66386 1.56716e-17
4948.85898 1.54368e-17
4950.06414 1.55004e-17
4951.25926 1.54458e-17
4952.46442 1.54109e-17
4953.65953 1.53966e-17
4954.86469 1.50889e-17
4956.05981 1.50986e-17
4957.26497 1.49508e-17
4958.46009 1.50752e-17
4959.66525 1.50489e-17
4960.86037 1.48927e-17
4962.06553 1.49680e-17
4963.26064 1.48725e-17
4964.45576 1.46858e-17
4965.66092 1.46186e-17
4966.85604 1.44584e-17
4968.06120 1.42506e-17
4969.25631 1.42202e-17
4970.46147 1.41184e-17
4971.65659 1.40860e-17
4972.86175 1.38824e-17
4974.05687 1.35795e-17
4975.26203 1.35273e-17
4976.45714 1.35644e-17
4977.66230 1.32702e-17
4978.85742 1.30288e-17
4980.06258 1.30453e-17
4981.25770 1.28244e-17
4982.46286 1.26116e-17
4983.65798 1.23647e-17
4984.85309 1.22990e-17
4986.05825 1.24552e-17
4987.25337 1.22040e-17
4988.45853 1.19671e-17
4989.65365 1.18792e-17
4990.85881 1.19029e-17
4992.05392 1.19517e-17
4993.25908 1.17594e-17
4994.45420 1.16428e-17
4995.65936 1.16066e-17
4996.85448 1.16234e-17
4998.05964 1.14930e-17
4999.25475 1.12272e-17
5000.45992 1.14054e-17
5001.65503 1.14693e-17
5002.86019 1.12018e-17
5004.05531 1.10248e-17
5005.25043 1.11476e-17
5006.45559 1.12719e-17
5007.65070 1.10469e-17
5008.85586 1.09823e-17
5010.05098 1.09949e-17
5011.25614 1.08439e-17
5012.45126 1.09943e-17
5013.65642 1.09962e-17
5014.85153 1.10121e-17
5016.05669 1.11317e-17
5017.25181 1.10205e-17
5018.45697 1.09321e-17
5019.65209 1.09758e-17
5020.85725 1.10431e-17
5022.05237 1.11059e-17
5023.25752 1.10500e-17
5024.45264 1.10399e-17
5025.65780 1.12289e-17
5026.85292 1.14421e-17
5028.04804 1.15155e-17
5029.25320 1.17610e-17
5030.44831 1.18622e-17
5031.65347 1.16365e-17
5032.84859 1.14758e-17
5034.05375 1.14047e-17
5035.24887 1.12807e-17
5036.45403 1.13511e-17
5037.64914 1.14567e-17
5038.85430 1.16944e-17
5040.04942 1.16860e-17
5041.25458 1.17801e-17
5042.44970 1.19953e-17
5043.65486 1.19205e-17
5044.84998 1.17482e-17
5046.05513 1.17657e-17
5047.25025 1.17314e-17
5048.44537 1.19571e-17
5049.65053 1.21206e-17
5050.84565 1.20869e-17
5052.05081 1.21949e-17
5053.24592 1.23971e-17
5054.45108 1.24176e-17
5055.64620 1.24048e-17
5056.85136 1.24774e-17
5058.04648 1.24640e-17
5059.25164 1.24883e-17
5060.44675 1.24639e-17
5061.65191 1.25556e-17
5062.84703 1.27555e-17
5064.05219 1.28844e-17
5065.24731 1.29833e-17
5066.45247 1.30968e-17
5067.64758 1.30790e-17
5068.85274 1.29210e-17
5070.04786 1.28959e-17
5071.24298 1.32880e-17
5072.44814 1.32855e-17
5073.64326 1.31647e-17
5074.84842 1.32341e-17
5076.04353 1.33329e-17
5077.24869 1.33468e-17
5078.44381 1.32053e-17
5079.64897 1.34709e-17
5080.84409 1.37719e-17
5082.04925 1.36254e-17
5083.24436 1.36405e-17
5084.44952 1.38557e-17
5085.64464 1.36364e-17
5086.84980 1.36735e-17
5088.04492 1.37190e-17
5089.25008 1.39554e-17
5090.44519 1.35728e-17
5091.64031 1.39561e-17
5092.84547 1.38672e-17
5094.04059 1.38266e-17
5095.24575 1.39458e-17
5096.44087 1.39727e-17
5097.64603 1.39583e-17
5098.84114 1.42391e-17
5100.04630 1.41264e-17
5101.24142 1.44160e-17
5102.44658 1.43037e-17
5103.64170 1.40253e-17
5104.84686 1.40821e-17
5106.04197 1.43344e-17
5107.24713 1.43603e-17
5108.44225 1.41629e-17
5109.64741 1.41333e-17
5110.84253 1.43997e-17
5112.03764 1.43482e-17
5113.24280 1.43862e-17
5114.43792 1.43672e-17
5115.64308 1.43354e-17
5116.83820 1.44110e-17
5118.04336 1.44119e-17
5119.23848 1.42811e-17
5120.44364 1.43902e-17
5121.63875 1.43381e-17
5122.84391 1.42627e-17
5124.03903 1.40533e-17
5125.24419 1.40206e-17
5126.43931 1.42618e-17
5127.64447 1.41731e-17
5128.83958 1.43650e-17
5130.04474 1.41707e-17
5131.23986 1.40019e-17
5132.43498 1.39726e-17
5133.64014 1.43016e-17
5134.83525 1.46178e-17
5136.04042 1.42558e-17
5137.23553 1.43206e-17
5138.44069 1.43840e-17
5139.63581 1.45161e-17
5140.84097 1.41131e-17
5142.03609 1.43972e-17
5143.24125 1.44686e-17
5144.43636 1.43591e-17
5145.64152 1.44722e-17
5146.83664 1.46088e-17
5148.04180 1.42384e-17
5149.23692 1.43878e-17
5150.44208 1.46875e-17
5151.63719 1.45106e-17
5152.83231 1.47401e-17
5154.03747 1.48712e-17
5155.23259 1.49956e-17
5156.43775 1.51705e-17
5157.63286 1.48590e-17
5158.83803 1.54516e-17
5160.03314 1.51270e-17
5161.23830 1.54247e-17
5162.43342 1.54861e-17
5163.63858 1.53631e-17
5164.83370 1.58635e-17
5166.03886 1.54017e-17
5167.23397 1.54340e-17
5168.43913 1.58138e-17
5169.63425 1.59385e-17
5170.83941 1.58609e-17
5172.03453 1.59961e-17
5173.22964 1.62896e-17
5174.43480 1.62442e-17
5175.62992 1.64997e-17
5176.83508 1.67071e-17
5178.03020 1.66843e-17
5179.23536 1.68477e-17
5180.43048 1.68268e-17
5181.63563 1.67767e-17
5182.83075 1.70706e-17
5184.03591 1.71521e-17
5185.23103 1.73614e-17
5186.43619 1.73564e-17
5187.63131 1.76079e-17
5188.83647 1.74212e-17
5190.03158 1.71518e-17
5191.23674 1.75642e-17
5192.43186 1.78774e-17
5193.63702 1.80739e-17
5194.83214 1.79141e-17
5196.02725 1.78952e-17
5197.23241 1.80315e-17
5198.42753 1.82523e-17
5199.63269 1.83781e-17
5200.82781 1.86147e-17
5202.03297 1.84257e-17
5203.22808 1.87143e-17
5204.43324 1.86277e-17
5205.62836 1.86675e-17
5206.83352 1.88526e-17
5208.02864 1.87955e-17
5209.23380 1.86911e-17
5210.42892 1.90537e-17
5211.63408 1.91862e-17
5212.82919 1.90030e-17
5214.03435 1.91676e-17
5215.22947 1.90689e-17
5216.42459 1.91981e-17
5217.62975 1.93513e-17
5218.82486 1.91370e-17
5220.03002 1.92774e-17
5221.22514 1.94774e-17
5222.43030 1.94445e-17
5223.62542 1.94069e-17
5224.83058 1.93605e-17
5226.02569 1.94038e-17
5227.23085 1.93766e-17
5228.42597 1.94381e-17
5229.63113 1.95521e-17
5230.82625 1.94377e-17
5232.03141 1.94166e-17
5233.22653 1.93684e-17
5234.43169 1.91903e-17
5235.62680 1.91320e-17
5236.82192 1.92452e-17
5238.02708 1.92600e-17
5239.22220 1.93282e-17
5240.42736 1.94140e-17
5241.62247 1.95323e-17
5242.82763 1.95355e-17
5244.02275 1.96000e-17
5245.22791 1.97650e-17
5246.42303 1.97236e-17
5247.62819 1.97215e-17
5248.82330 1.97132e-17
5250.02847 1.95853e-17
5251.22358 1.97579e-17
5252.42874 1.96408e-17
5253.62386 1.96321e-17
5254.82902 1.95496e-17
5256.02414 1.94466e-17
5257.22930 1.95654e-17
5258.42441 1.97824e-17
5259.61953 1.96763e-17
5260.82469 1.95579e-17
5262.01981 1.95873e-17
5263.22497 1.94662e-17
5264.42008 1.95998e-17
5265.62524 1.96883e-17
5266.82036 1.94751e-17
5268.02552 1.96741e-17
5269.22064 1.98236e-17
5270.42580 2.02887e-17
5271.62092 2.04556e-17
5272.82607 2.05583e-17
5274.02119 1.97457e-17
5275.22635 1.97149e-17
5276.42147 2.01212e-17
5277.62663 1.99268e-17
5278.82175 1.99018e-17
5280.01686 1.98346e-17
5281.22202 1.98526e-17
5282.41714 1.99345e-17
5283.62230 1.96761e-17
5284.81742 1.97495e-17
5286.02258 1.99157e-17
5287.21769 1.97124e-17
5288.42285 2.00007e-17
5289.61797 1.95121e-17
5290.82313 1.96465e-17
5292.01825 1.93393e-17
5293.22341 1.95620e-17
5294.41853 1.96022e-17
5295.62368 1.94446e-17
5296.81880 1.90834e-17
5298.02396 1.92928e-17
5299.21908 1.93092e-17
5300.41420 1.90192e-17
5301.61936 1.91777e-17
5302.81447 1.92816e-17
5304.01963 1.93138e-17
5305.21475 1.90854e-17
5306.41991 1.89384e-17
5307.61503 1.86995e-17
5308.82019 1.90462e-17
5310.01530 1.89094e-17
5311.22046 1.85694e-17
5312.41558 1.86046e-17
5313.62074 1.86101e-17
5314.81586 1.87162e-17
5316.02102 1.87347e-17
5317.21613 1.88634e-17
5318.42129 1.85354e-17
5319.61641 1.83210e-17
5320.81153 1.82727e-17
5322.01669 1.85990e-17
5323.21181 1.82190e-17
5324.41697 1.81490e-17
5325.61208 1.80154e-17
5326.81724 1.80103e-17
5328.01236 1.79687e-17
5329.21752 1.80006e-17
5330.41264 1.78955e-17
5331.61780 1.77177e-17
5332.81291 1.78579e-17
5334.01807 1.78857e-17
5335.21319 1.77999e-17
5336.41835 1.80241e-17
5337.61347 1.81429e-17
5338.81863 1.79663e-17
5340.01374 1.77403e-17
5341.21891 1.77470e-17
5342.41402 1.76149e-17
5343.60914 1.76615e-17
5344.81430 1.76676e-17
5346.00942 1.75475e-17
5347.21458 1.75125e-17
5348.40969 1.76352e-17
5349.61485 1.76322e-17
5350.80997 1.74780e-17
5352.01513 1.75920e-17
5353.21025 1.78337e-17
5354.41541 1.79294e-17
5355.61052 1.77694e-17
5356.81568 1.78134e-17
5358.01080 1.81308e-17
5359.21596 1.79275e-17
5360.41108 1.79715e-17
5361.61624 1.81619e-17
5362.81135 1.79586e-17
5364.00647 1.78274e-17
5365.21163 1.80377e-17
5366.40675 1.80571e-17
5367.61191 1.80947e-17
5368.80703 1.77822e-17
5370.01219 1.77538e-17
5371.20730 1.81129e-17
5372.41246 1.81385e-17
5373.60758 1.80052e-17
5374.81274 1.80625e-17
5376.00786 1.80797e-17
5377.21302 1.83186e-17
5378.40813 1.83003e-17
5379.61329 1.84876e-17
5380.80841 1.84311e-17
5382.01357 1.84850e-17
5383.20869 1.81686e-17
5384.40380 1.83536e-17
5385.60897 1.83866e-17
5386.80408 1.84982e-17
5388.00924 1.86397e-17
5389.20436 1.83345e-17
5390.40952 1.82978e-17
5391.60464 1.85007e-17
5392.80980 1.84172e-17
5394.00491 1.85184e-17
5395.21007 1.85448e-17
5396.40519 1.83342e-17
5397.61035 1.85804e-17
5398.80547 1.84855e-17
5400.01063 1.85983e-17
5401.20574 1.82553e-17
5402.41090 1.83702e-17
5403.60602 1.86966e-17
5404.80114 1.86690e-17
5406.00630 1.83211e-17
5407.20142 1.85857e-17
5408.40657 1.87302e-17
5409.60169 1.86767e-17
5410.80685 1.88655e-17
5412.00197 1.87244e-17
5413.20713 1.88880e-17
5414.40225 1.86423e-17
5415.60741 1.85203e-17
5416.80252 1.86619e-17
5418.00768 1.86956e-17
5419.20280 1.86123e-17
5420.40796 1.83909e-17
5421.60308 1.85488e-17
5422.80824 1.87537e-17
5424.00335 1.87301e-17
5425.20851 1.84228e-17
5426.40363 1.81801e-17
5427.59875 1.83975e-17
5428.80391 1.82425e-17
5429.99903 1.82486e-17
5431.20418 1.80597e-17
5432.39930 1.79655e-17
5433.60446 1.81034e-17
5434.79958 1.81482e-17
5436.00474 1.81840e-17
5437.19986 1.81891e-17
5438.40502 1.79216e-17
5439.60013 1.79026e-17
5440.80529 1.78260e-17
5442.00041 1.76711e-17
5443.20557 1.77742e-17
5444.40069 1.77594e-17
5445.60585 1.76649e-17
5446.80096 1.76643e-17
5447.99608 1.75287e-17
5449.20124 1.74480e-17
5450.39636 1.75213e-17
5451.60152 1.75800e-17
5452.79663 1.75601e-17
5454.00179 1.73455e-17
5455.19691 1.73011e-17
5456.40207 1.71623e-17
5457.59719 1.69909e-17
5458.80235 1.70701e-17
5459.99747 1.68917e-17
5461.20263 1.69528e-17
5462.39774 1.70584e-17
5463.60290 1.69349e-17
5464.79802 1.67425e-17
5466.00318 1.65319e-17
5467.19830 1.64529e-17
5468.39341 1.65833e-17
5469.59857 1.65727e-17
5470.79369 1.64857e-17
5471.99885 1.63133e-17
5473.19397 1.61629e-17
5474.39913 1.61558e-17
5475.59424 1.60867e-17
5476.79940 1.59218e-17
5477.99452 1.58422e-17
5479.19968 1.56535e-17
5480.39480 1.57522e-17
5481.59996 1.58429e-17
5482.79508 1.59411e-17
5484.00024 1.57250e-17
5485.19535 1.58497e-17
5486.40051 1.58780e-17
5487.59563 1.60320e-17
5488.79075 1.55942e-17
5489.99591 1.58486e-17
5491.19102 1.55714e-17
5492.39618 1.53633e-17
5493.59130 1.55214e-17
5494.79646 1.54433e-17
5495.99158 1.56339e-17
5497.19674 1.55139e-17
5498.39185 1.54123e-17
5499.59702 1.53057e-17
5500.79213 1.54381e-17
5501.99729 1.53758e-17
5503.19241 1.54329e-17
5504.39757 1.53762e-17
5505.59269 1.53483e-17
5506.79785 1.51869e-17
5507.99296 1.50397e-17
5509.18808 1.51556e-17
5510.39324 1.52095e-17
5511.58836 1.51371e-17
5512.79352 1.51821e-17
5513.98863 1.51405e-17
5515.19379 1.53606e-17
5516.38891 1.53715e-17
5517.59407 1.52210e-17
5518.78919 1.51620e-17
5519.99435 1.49712e-17
5521.18947 1.49670e-17
5522.39462 1.52484e-17
5523.58974 1.53352e-17
5524.79490 1.52045e-17
5525.99002 1.51768e-17
5527.19518 1.51750e-17
5528.39030 1.52823e-17
5529.59546 1.52638e-17
5530.79057 1.52493e-17
5531.98569 1.52519e-17
5533.19085 1.52037e-17
5534.38597 1.52978e-17
5535.59113 1.53878e-17
5536.78624 1.54900e-17
5537.99140 1.54484e-17
5539.18652 1.55552e-17
5540.39168 1.57480e-17
5541.58680 1.57176e-17
5542.79196 1.54863e-17
5543.98708 1.57494e-17
5545.19223 1.55906e-17
5546.38735 1.55197e-17
5547.59251 1.54205e-17
5548.78763 1.54972e-17
5549.99279 1.57186e-17
5551.18791 1.57749e-17
5552.38302 1.58955e-17
5553.58818 1.59453e-17
5554.78330 1.58052e-17
5555.98846 1.57075e-17
5557.18358 1.58136e-17
5558.38874 1.59705e-17
5559.58385 1.59615e-17
5560.78901 1.59526e-17
5561.98413 1.59437e-17
5563.18929 1.59347e-17
5564.38441 1.59258e-17
5565.58957 1.59168e-17
5566.78468 1.59079e-17
5567.98984 1.58990e-17
5569.18496 1.58900e-17
5570.39012 1.58811e-17
5571.58524 1.58721e-17
5572.78036 1.58632e-17
5573.98552 1.58543e-17
5575.18063 1.58453e-17
5576.38579 1.58364e-17
5577.58091 1.58274e-17
5578.78607 1.58185e-17
5579.98119 1.58096e-17
5581.18635 1.58006e-17
5582.38146 1.57917e-17
5583.58662 1.57828e-17
5584.78174 1.57738e-17
5585.98690 1.57649e-17
5587.18202 1.57560e-17
5588.38718 1.57470e-17
5589.58229 1.57381e-17
5590.78746 1.57292e-17
5591.98257 1.57203e-17
5593.17769 1.57113e-17
5594.38285 1.57024e-17
5595.57797 1.56935e-17
5596.78313 1.55455e-17
5597.97824 1.54082e-17
5599.18340 1.52686e-17
5600.37852 1.53340e-17
5601.58368 1.54379e-17
5602.77880 1.53284e-17
5603.98396 1.52618e-17
5605.17907 1.53540e-17
5606.38423 1.53884e-17
5607.57935 1.51233e-17
5608.78451 1.50668e-17
5609.97963 1.52986e-17
5611.18479 1.52088e-17
5612.37990 1.50929e-17
5613.57502 1.50660e-17
5614.78018 1.49635e-17
5615.97530 1.47753e-17
5617.18046 1.47221e-17
5618.37558 1.47886e-17
5619.58074 1.47527e-17
5620.77585 1.48646e-17
5621.98101 1.44419e-17
5623.17613 1.45088e-17
5624.38129 1.45196e-17
5625.57641 1.43256e-17
5626.78157 1.43202e-17
5627.97668 1.43179e-17
5629.18184 1.43762e-17
5630.37696 1.41671e-17
5631.58212 1.43193e-17
5632.77724 1.40775e-17
5633.98240 1.44008e-17
5635.17752 1.38758e-17
5636.37263 1.39232e-17
5637.57779 1.38798e-17
5638.77291 1.39058e-17
5639.97807 1.39667e-17
5641.17319 1.37059e-17
5642.37835 1.38076e-17
5643.57346 1.36837e-17
5644.77862 1.34541e-17
5645.97374 1.35450e-17
5647.17890 1.36178e-17
5648.37402 1.35549e-17
5649.57918 1.35592e-17
5650.77429 1.35020e-17
5651.97945 1.33287e-17
5653.17457 1.33736e-17
5654.37973 1.33753e-17
5655.57485 1.31834e-17
5656.78001 1.30996e-17
5657.97512 1.30846e-17
5659.17024 1.31002e-17
5660.37540 1.30154e-17
5661.57052 1.30038e-17
5662.77568 1.28500e-17
5663.97080 1.28043e-17
5665.17596 1.30061e-17
5666.37107 1.29167e-17
5667.57623 1.27059e-17
5668.77135 1.26053e-17
5669.97651 1.27438e-17
5671.17163 1.28668e-17
5672.37679 1.27262e-17
5673.57190 1.24864e-17
5674.77706 1.23463e-17
5675.97218 1.24591e-17
5677.17734 1.24347e-17
5678.37246 1.24451e-17
5679.56758 1.26127e-17
5680.77273 1.25310e-17
5681.96785 1.24414e-17
5683.17301 1.23083e-17
5684.36813 1.21907e-17
5685.57329 1.23762e-17
5686.76841 1.22181e-17
5687.97357 1.22416e-17
5689.16868 1.23871e-17
5690.37384 1.23363e-17
5691.56896 1.24278e-17
5692.77412 1.21622e-17
5693.96924 1.22639e-17
5695.17440 1.21655e-17
5696.36951 1.24203e-17
5697.57467 1.24253e-17
5698.76979 1.20210e-17
5699.96491 1.22623e-17
5701.17007 1.21318e-17
5702.36518 1.20849e-17
5703.57034 1.23459e-17
5704.76546 1.21496e-17
5705.97062 1.21762e-17
5707.16574 1.24912e-17
5708.37090 1.22920e-17
5709.56602 1.20732e-17
5710.77118 1.23274e-17
5711.96629 1.23332e-17
5713.17145 1.21651e-17
5714.36657 1.21419e-17
5715.57173 1.21001e-17
5716.76685 1.23467e-17
5717.97201 1.24063e-17
5719.16712 1.23986e-17
5720.37228 1.24463e-17
5721.56740 1.25065e-17
5722.76252 1.24623e-17
5723.96768 1.24149e-17
5725.16279 1.24274e-17
5726.36796 1.25106e-17
5727.56307 1.24706e-17
5728.76823 1.25225e-17
5729.96335 1.26505e-17
5731.16851 1.26970e-17
5732.36363 1.25794e-17
5733.56879 1.26793e-17
5734.76390 1.27536e-17
5735.96906 1.26563e-17
5737.16418 1.27426e-17
5738.36934 1.25636e-17
5739.56446 1.30065e-17
5740.76962 1.30206e-17
5741.96473 1.29025e-17
5743.15985 1.30813e-17
5744.36501 1.31462e-17
5745.56013 1.31224e-17
5746.76529 1.30365e-17
5747.96040 1.32584e-17
5749.16557 1.33433e-17
5750.36068 1.34020e-17
5751.56584 1.30937e-17
5752.76096 1.31466e-17
5753.96612 1.33207e-17
5755.16124 1.32653e-17
5756.36640 1.34649e-17
5757.56151 1.33468e-17
5758.76667 1.33202e-17
5759.96179 1.35638e-17
5761.16695 1.32829e-17
5762.36207 1.36294e-17
5763.55718 1.34461e-17
5764.76234 1.35863e-17
5765.95746 1.37073e-17
5767.16262 1.37909e-17
5768.35774 1.34074e-17
5769.56290 1.35476e-17
5770.75802 1.34717e-17
5771.96317 1.35248e-17
5773.15829 1.35497e-17
5774.36345 1.33293e-17
5775.55857 1.35245e-17
5776.76373 1.36066e-17
5777.95885 1.34493e-17
5779.16401 1.34568e-17
5780.35912 1.34900e-17
5781.56428 1.33528e-17
5782.75940 1.35552e-17
5783.95452 1.35236e-17
5785.15968 1.34591e-17
5786.35479 1.34945e-17
5787.55995 1.35851e-17
5788.75507 1.35399e-17
5789.96023 1.34825e-17
5791.15535 1.35107e-17
5792.36051 1.34516e-17
5793.55562 1.35816e-17
5794.76078 1.36097e-17
5795.95590 1.35130e-17
5797.16106 1.36186e-17
5798.35618 1.35346e-17
5799.56134 1.34995e-17
5800.75646 1.34423e-17
5801.96162 1.33602e-17
5803.15673 1.32529e-17
5804.35185 1.32791e-17
5805.55701 1.34961e-17
5806.75213 1.34303e-17
5807.95729 1.31667e-17
5809.15240 1.33897e-17
5810.35756 1.32780e-17
5811.55268 1.33798e-17
5812.75784 1.33749e-17
5813.95296 1.33809e-17
5815.15812 1.32459e-17
5816.35323 1.32949e-17
5817.55839 1.35063e-17
5818.75351 1.31919e-17
5819.95867 1.31532e-17
5821.15379 1.32848e-17
5822.35895 1.32218e-17
5823.55407 1.32425e-17
5824.74918 1.32824e-17
5825.95434 1.33136e-17
5827.14946 1.31379e-17
5828.35462 1.35094e-17
5829.54974 1.33863e-17
5830.75490 1.33737e-17
5831.95001 1.31844e-17
5833.15517 1.32169e-17
5834.35029 1.32709e-17
5835.55545 1.34398e-17
5836.75057 1.34745e-17
5837.95573 1.34909e-17
5839.15084 1.35409e-17
5840.35601 1.35662e-17
5841.55112 1.37018e-17
5842.75628 1.37543e-17
5843.95140 1.36512e-17
5845.14652 1.36072e-17
5846.35168 1.36661e-17
5847.54679 1.36510e-17
5848.75195 1.36091e-17
5849.94707 1.37184e-17
5851.15223 1.36721e-17
5852.34735 1.36120e-17
5853.55251 1.36758e-17
5854.74762 1.37513e-17
5855.95278 1.37342e-17
5857.14790 1.36656e-17
5858.35306 1.37478e-17
5859.54818 1.36705e-17
5860.75334 1.36322e-17
5861.94845 1.37168e-17
5863.15362 1.39213e-17
5864.34873 1.39490e-17
5865.55389 1.37952e-17
5866.74901 1.38893e-17
5867.94413 1.38732e-17
5869.14929 1.38349e-17
5870.34440 1.36772e-17
5871.54956 1.37296e-17
5872.74468 1.35814e-17
5873.94984 1.39005e-17
5875.14496 1.37284e-17
5876.35012 1.40162e-17
5877.54523 1.39299e-17
5878.75039 1.37912e-17
5879.94551 1.38300e-17
5881.15067 1.36747e-17
5882.34579 1.38154e-17
5883.55095 1.36375e-17
5884.74607 1.35310e-17
5885.95122 1.34858e-17
5887.14634 1.37032e-17
5888.34146 1.36530e-17
5889.54662 1.37846e-17
5890.74174 1.37361e-17
5891.94690 1.35716e-17
5893.14201 1.34657e-17
5894.34717 1.33697e-17
5895.54229 1.33587e-17
5896.74745 1.33359e-17
5897.94257 1.32488e-17
5899.14773 1.32102e-17
5900.34284 1.32868e-17
5901.54800 1.31532e-17
5902.74312 1.31054e-17
5903.94828 1.32224e-17
5905.14340 1.31492e-17
5906.34856 1.31719e-17
5907.54367 1.32631e-17
5908.74883 1.32358e-17
5909.94395 1.32470e-17
5911.13907 1.31923e-17
5912.34423 1.29100e-17
5913.53935 1.26863e-17
5914.74451 1.23824e-17
5915.93962 1.23939e-17
5917.14478 1.22026e-17
5918.33990 1.22274e-17
5919.54506 1.23662e-17
5920.74018 1.24724e-17
5921.94534 1.20657e-17
5923.14045 1.23466e-17
5924.34561 1.22355e-17
5925.54073 1.24461e-17
5926.74589 1.26467e-17
5927.94101 1.22932e-17
5929.14617 1.24246e-17
5930.34128 1.23138e-17
5931.54644 1.21942e-17
5932.74156 1.23132e-17
5933.93668 1.22481e-17
5935.14184 1.23025e-17
5936.33696 1.20770e-17
5937.54212 1.21167e-17
5938.73723 1.20680e-17
5939.94239 1.19943e-17
5941.13751 1.17732e-17
5942.34267 1.19507e-17
5943.53779 1.20194e-17
5944.74295 1.19838e-17
5945.93806 1.19920e-17
5947.14322 1.20523e-17
5948.33834 1.19721e-17
5949.54350 1.18971e-17
5950.73862 1.19592e-17
5951.94378 1.19765e-17
5953.13889 1.19898e-17
5954.33401 1.19872e-17
5955.53917 1.18936e-17
5956.73429 1.18355e-17
5957.93945 1.18173e-17
5959.13457 1.18586e-17
5960.33973 1.18057e-17
5961.53484 1.18653e-17
5962.74000 1.18779e-17
5963.93512 1.21081e-17
5965.14028 1.18882e-17
5966.33540 1.19323e-17
5967.54056 1.18913e-17
5968.73567 1.18923e-17
5969.94083 1.18804e-17
5971.13595 1.20870e-17
5972.34111 1.19353e-17
5973.53623 1.21652e-17
5974.73134 1.21532e-17
5975.93651 1.20231e-17
5977.13162 1.20891e-17
5978.33678 1.20425e-17
5979.53190 1.19394e-17
5980.73706 1.18693e-17
5981.93218 1.19673e-17
5983.13734 1.22931e-17
5984.33245 1.19869e-17
5985.53761 1.20939e-17
5986.73273 1.22448e-17
5987.93789 1.21007e-17
5989.13301 1.22058e-17
5990.33817 1.23027e-17
5991.53328 1.24415e-17
5992.73844 1.23690e-17
5993.93356 1.23649e-17
5995.12868 1.22447e-17
5996.33384 1.23329e-17
5997.52895 1.24723e-17
5998.73412 1.24061e-17
5999.92923 1.23017e-17
6001.13439 1.22623e-17
6002.32951 1.22878e-17
6003.53467 1.23304e-17
6004.72979 1.22317e-17
6005.93495 1.21575e-17
6007.13006 1.22050e-17
6008.33522 1.22927e-17
6009.53034 1.22245e-17
6010.73550 1.20313e-17
6011.93062 1.21510e-17
6013.13578 1.22669e-17
6014.33089 1.21332e-17
6015.52601 1.20788e-17
6016.73117 1.21546e-17
6017.92629 1.21179e-17
6019.13145 1.21962e-17
6020.32657 1.19726e-17
6021.53172 1.21701e-17
6022.72684 1.20964e-17
6023.93200 1.22002e-17
6025.12712 1.20342e-17
6026.33228 1.22012e-17
6027.52740 1.20263e-17
6028.73256 1.20711e-17
6029.92767 1.20201e-17
6031.13283 1.19266e-17
6032.32795 1.18041e-17
6033.53311 1.18877e-17
6034.72823 1.20475e-17
6035.92334 1.20482e-17
6037.12850 1.17617e-17
6038.32362 1.17928e-17
6039.52878 1.19049e-17
6040.72390 1.17878e-17
6041.92906 1.19459e-17
6043.12417 1.20134e-17
6044.32933 1.18607e-17
6045.52445 1.18899e-17
6046.72961 1.19924e-17
6047.92473 1.19316e-17
6049.12989 1.20079e-17
6050.32501 1.20718e-17
6051.53017 1.20530e-17
6052.72528 1.21350e-17
6053.93044 1.21312e-17
6055.12556 1.20636e-17
6056.33072 1.21353e-17
6057.52584 1.21365e-17
6058.72095 1.21964e-17
6059.92611 1.21806e-17
6061.12123 1.21793e-17
6062.32639 1.22495e-17
6063.52151 1.21438e-17
6064.72667 1.21133e-17
6065.92178 1.22738e-17
6067.12694 1.23112e-17
6068.32206 1.24792e-17
6069.52722 1.23682e-17
6070.72234 1.27347e-17
6071.92750 1.24990e-17
6073.12262 1.25991e-17
6074.32778 1.25078e-17
6075.52289 1.26082e-17
6076.72805 1.26311e-17
6077.92317 1.27141e-17
6079.11829 1.28929e-17
6080.32345 1.28493e-17
6081.51856 1.28403e-17
6082.72372 1.28129e-17
6083.91884 1.27586e-17
6085.12400 1.29233e-17
6086.31912 1.28695e-17
6087.52428 1.30692e-17
6088.71939 1.30832e-17
6089.92456 1.29561e-17
6091.11967 1.30143e-17
6092.32483 1.29648e-17
6093.51995 1.30730e-17
6094.72511 1.30490e-17
6095.92023 1.31470e-17
6097.12539 1.31428e-17
6098.32050 1.30049e-17
6099.51562 1.31386e-17
6100.72078 1.32269e-17
6101.91590 1.31184e-17
6103.12106 1.31630e-17
6104.31617 1.31901e-17
6105.52133 1.31188e-17
6106.71645 1.29864e-17
6107.92161 1.31169e-17
6109.11673 1.32020e-17
6110.32189 1.30724e-17
6111.51701 1.29299e-17
6112.72217 1.29869e-17
6113.91728 1.29030e-17
6115.12244 1.25882e-17
6116.31756 1.28093e-17
6117.52272 1.27457e-17
6118.71784 1.24587e-17
6119.91295 1.25118e-17
6121.11811 1.23645e-17
6122.31323 1.23720e-17
6123.51839 1.23577e-17
6124.71351 1.22305e-17
6125.91867 1.19342e-17
6127.11378 1.18698e-17
6128.31894 1.17728e-17
6129.51406 1.19830e-17
6130.71922 1.17765e-17
6131.91434 1.18253e-17
6133.11950 1.15843e-17
6134.31462 1.12689e-17
6135.51977 1.11331e-17
6136.71489 1.12607e-17
6137.92005 1.10360e-17
6139.11517 1.08431e-17
6140.32033 1.08807e-17
6141.51545 1.07408e-17
6142.71056 1.07086e-17
6143.91572 1.06733e-17
6145.11084 1.06082e-17
6146.31600 1.04500e-17
6147.51112 1.01906e-17
6148.71628 1.02087e-17
6149.91139 1.02134e-17
6151.11655 1.00541e-17
6152.31167 1.00619e-17
6153.51683 9.90297e-18
6154.71195 9.65924e-18
6155.91711 9.56076e-18
6157.11222 9.58496e-18
6158.31738 9.60022e-18
6159.51250 9.65328e-18
6160.71766 9.46719e-18
6161.91278 9.19781e-18
6163.11794 9.26178e-18
6164.31306 9.17770e-18
6165.50817 9.18099e-18
6166.71333 9.14025e-18
6167.90845 8.97204e-18
6169.11361 8.94577e-18
6170.30873 9.16937e-18
6171.51389 9.05248e-18
6172.70900 8.89160e-18
6173.91416 8.99823e-18
6175.10928 8.95206e-18
6176.31444 9.00982e-18
6177.50956 8.97037e-18
6178.71472 8.82280e-18
6179.90983 8.88130e-18
6181.11499 8.88700e-18
6182.31011 8.87673e-18
6183.51527 8.83471e-18
6184.71039 8.82861e-18
6185.90551 8.67026e-18
6187.11067 8.69915e-18
6188.30578 8.83989e-18
6189.51094 8.79747e-18
6190.70606 8.71606e-18
6191.91122 8.64525e-18
6193.10634 8.66120e-18
6194.31150 8.84566e-18
6195.50661 8.80692e-18
6196.71177 8.69358e-18
6197.90689 8.74205e-18
6199.11205 8.84832e-18
6200.30717 8.93005e-18
6201.51233 8.96966e-18
6202.70744 8.91364e-18
6203.91261 8.94909e-18
6205.10772 8.94305e-18
6206.30284 9.03925e-18
6207.50800 9.15319e-18
6208.70312 9.09778e-18
6209.90828 8.93041e-18
6211.10339 9.00300e-18
6212.30855 8.95478e-18
6213.50367 9.01775e-18
6214.70883 9.18565e-18
6215.90395 9.19997e-18
6217.10911 9.01390e-18
6218.30422 9.18212e-18
6219.50938 9.20952e-18
6220.70450 9.16952e-18
6221.90966 9.39471e-18
6223.10478 9.38642e-18
6224.30994 9.39951e-18
6225.50506 9.36482e-18
6226.70017 9.49941e-18
6227.90533 9.55188e-18
6229.10045 9.44452e-18
6230.30561 9.40331e-18
6231.50073 9.47859e-18
6232.70589 9.64932e-18
6233.90100 9.71273e-18
6235.10616 9.83748e-18
6236.30128 9.84035e-18
6237.50644 9.79720e-18
6238.70156 9.86695e-18
6239.90672 9.82259e-18
6241.10183 9.83289e-18
6242.30699 9.90329e-18
6243.50211 9.90917e-18
6244.70727 9.99416e-18
6245.90239 9.93339e-18
6247.09750 1.00244e-17
6248.30267 1.01153e-17
6249.49778 1.01624e-17
6250.70294 1.02029e-17
6251.89806 1.02725e-17
6253.10322 1.01828e-17
6254.29834 1.03702e-17
6255.50350 1.05222e-17
6256.69861 1.05712e-17
6257.90377 1.03982e-17
6259.09889 1.04540e-17
6260.30405 1.04565e-17
6261.49917 1.06332e-17
6262.70433 1.06713e-17
6263.89944 1.05483e-17
6265.10460 1.08332e-17
6266.29972 1.06324e-17
6267.50488 1.08597e-17
6268.70000 1.07546e-17
6269.89512 1.07408e-17
6271.10027 1.07851e-17
6272.29539 1.07721e-17
6273.50055 1.07983e-17
6274.69567 1.05869e-17
6275.90083 1.05765e-17
6277.09595 1.04852e-17
6278.30111 1.03346e-17
6279.49622 1.04419e-17
6280.70138 1.06095e-17
6281.89650 1.07878e-17
6283.10166 1.09133e-17
6284.29678 1.09726e-17
6285.50194 1.10849e-17
6286.69705 1.11906e-17
6287.90221 1.13141e-17
6289.09733 1.12608e-17
6290.29245 1.12551e-17
6291.49761 1.13264e-17
6292.69272 1.13471e-17
6293.89788 1.14323e-17
6295.09300 1.15134e-17
6296.29816 1.15047e-17
6297.49328 1.16138e-17
6298.69844 1.15886e-17
6299.89356 1.17604e-17
6301.09872 1.18707e-17
6302.29383 1.18847e-17
6303.49899 1.16620e-17
6304.69411 1.19084e-17
6305.89927 1.18753e-17
6307.09439 1.18700e-17
6308.29955 1.18854e-17
6309.49466 1.16767e-17
6310.68978 1.17282e-17
6311.89494 1.17995e-17
6313.09006 1.19501e-17
6314.29522 1.17588e-17
6315.49033 1.21045e-17
6316.69549 1.21557e-17
6317.89061 1.21208e-17
6319.09577 1.21271e-17
6320.29089 1.20497e-17
6321.49605 1.21842e-17
6322.69117 1.23192e-17
6323.89633 1.22576e-17
6325.09144 1.23555e-17
6326.29660 1.24520e-17
6327.49172 1.23302e-17
6328.69688 1.23534e-17
6329.89200 1.25164e-17
6331.08711 1.25476e-17
6332.29227 1.25255e-17
6333.48739 1.25513e-17
6334.69255 1.26972e-17
6335.88767 1.25224e-17
6337.09283 1.24523e-17
6338.28794 1.24519e-17
6339.49311 1.26408e-17
6340.68822 1.27206e-17
6341.89338 1.25080e-17
6343.08850 1.25611e-17
6344.29366 1.25713e-17
6345.48878 1.26457e-17
6346.69394 1.24621e-17
6347.88905 1.27730e-17
6349.09421 1.26185e-17
6350.28933 1.24266e-17
6351.48445 1.25673e-17
6352.68961 1.27732e-17
6353.88472 1.26219e-17
6355.08988 1.24150e-17
6356.28500 1.27543e-17
6357.49016 1.25301e-17
6358.68528 1.23912e-17
6359.89044 1.24590e-17
6361.08556 1.26268e-17
6362.29072 1.26351e-17
6363.48583 1.25630e-17
6364.69099 1.24720e-17
6365.88611 1.24206e-17
6367.09127 1.23201e-17
6368.28639 1.22820e-17
6369.49155 1.23401e-17
6370.68666 1.22787e-17
6371.89182 1.21986e-17
6373.08694 1.21029e-17
6374.28206 1.20352e-17
6375.48722 1.20153e-17
6376.68233 1.20247e-17
6377.88749 1.20471e-17
6379.08261 1.21129e-17
6380.28777 1.18729e-17
6381.48289 1.20311e-17
6382.68805 1.20556e-17
6383.88317 1.17758e-17
6385.08832 1.17719e-17
6386.28344 1.17999e-17
6387.48860 1.19515e-17
6388.68372 1.18157e-17
6389.88888 1.18070e-17
6391.08400 1.18888e-17
6392.28916 1.17196e-17
6393.48427 1.17368e-17
6394.68943 1.18231e-17
6395.88455 1.17475e-17
6397.07967 1.15167e-17
6398.28483 1.14217e-17
6399.47994 1.15937e-17
6400.68510 1.15826e-17
6401.88022 1.15453e-17
6403.08538 1.15797e-17
6404.28050 1.17132e-17
6405.48566 1.16754e-17
6406.68077 1.16022e-17
6407.88593 1.15531e-17
6409.08105 1.14882e-17
6410.28621 1.14730e-17
6411.48133 1.14695e-17
6412.68649 1.14553e-17
6413.88161 1.15457e-17
6415.08677 1.15070e-17
6416.28188 1.13865e-17
6417.47700 1.14547e-17
6418.68216 1.14393e-17
6419.87728 1.15177e-17
6421.08244 1.15549e-17
6422.27755 1.15599e-17
6423.48271 1.12187e-17
6424.67783 1.14988e-17
6425.88299 1.15194e-17
6427.07811 1.12982e-17
6428.28327 1.15014e-17
6429.47838 1.14529e-17
6430.68354 1.12973e-17
6431.87866 1.14140e-17
6433.08382 1.13334e-17
6434.27894 1.12660e-17
6435.48410 1.11911e-17
6436.67922 1.13036e-17
6437.87433 1.14219e-17
6439.07949 1.12363e-17
6440.27461 1.13101e-17
6441.47977 1.13302e-17
6442.67489 1.13474e-17
6443.88005 1.13898e-17
6445.07516 1.13353e-17
6446.28032 1.13192e-17
6447.47544 1.12347e-17
6448.68060 1.12213e-17
6449.87572 1.11251e-17
6451.08088 1.11728e-17
6452.27599 1.13187e-17
6453.48116 1.13307e-17
6454.67627 1.12272e-17
6455.88143 1.12033e-17
6457.07655 1.12609e-17
6458.27167 1.12716e-17
6459.47683 1.12921e-17
6460.67194 1.12427e-17
6461.87710 1.12649e-17
6463.07222 1.13546e-17
6464.27738 1.14594e-17
6465.47250 1.14317e-17
6466.67766 1.14454e-17
6467.87277 1.13406e-17
6469.07793 1.13434e-17
6470.27305 1.12638e-17
6471.47821 1.12715e-17
6472.67333 1.14461e-17
6473.87849 1.11831e-17
6475.07361 1.12167e-17
6476.27877 1.11392e-17
6477.47388 1.10467e-17
6478.67904 1.13926e-17
6479.87416 1.14119e-17
6481.06928 1.14222e-17
6482.27444 1.11649e-17
6483.46955 1.11227e-17
6484.67471 1.11819e-17
6485.86983 1.13551e-17
6487.07499 1.14975e-17
6488.27011 1.16129e-17
6489.47527 1.15790e-17
6490.67038 1.15034e-17
6491.87554 1.15784e-17
6493.07066 1.15334e-17
6494.27582 1.14775e-17
6495.47094 1.16310e-17
6496.67610 1.17269e-17
6497.87122 1.18356e-17
6499.07637 1.17956e-17
6500.27149 1.16539e-17
6501.46661 1.17643e-17
6502.67177 1.16709e-17
6503.86689 1.18652e-17
6505.07205 1.17494e-17
6506.26716 1.17103e-17
6507.47232 1.18576e-17
6508.66744 1.16777e-17
6509.87260 1.17136e-17
6511.06772 1.16828e-17
6512.27288 1.15572e-17
6513.46799 1.16687e-17
6514.67315 1.17409e-17
6515.86827 1.16632e-17
6517.07343 1.16723e-17
6518.26855 1.15619e-17
6519.47371 1.17455e-17
6520.66882 1.17913e-17
6521.86394 1.17505e-17
6523.06910 1.19724e-17
6524.26422 1.19487e-17
6525.46938 1.19219e-17
6526.66450 1.18989e-17
6527.86966 1.18691e-17
6529.06477 1.17587e-17
6530.26993 1.17898e-17
6531.46505 1.18998e-17
6532.67021 1.19753e-17
6533.86533 1.19402e-17
6535.07049 1.19064e-17
6536.26560 1.19282e-17
6537.47076 1.18745e-17
6538.66588 1.18900e-17
6539.87104 1.19783e-17
6541.06616 1.18385e-17
6542.26127 1.17295e-17
6543.46643 1.18528e-17
6544.66155 1.18189e-17
6545.86671 1.16589e-17
6547.06183 1.16402e-17
6548.26699 1.16851e-17
6549.46211 1.17725e-17
6550.66727 1.16475e-17
6551.86238 1.16850e-17
6553.06754 1.20252e-17
6554.26266 1.16881e-17
6555.46782 1.16995e-17
6556.66294 1.17526e-17
6557.86810 1.16979e-17
6559.06321 1.14578e-17
6560.26837 1.16462e-17
6561.46349 1.14669e-17
6562.65861 1.14696e-17
6563.86377 1.14460e-17
6565.05888 1.12918e-17
6566.26404 1.13425e-17
6567.45916 1.13630e-17
6568.66432 1.15256e-17
6569.85944 1.14650e-17
6571.06460 1.13503e-17
6572.25972 1.12932e-17
6573.46488 1.13017e-17
6574.65999 1.13214e-17
6575.86515 1.13616e-17
6577.06027 1.12625e-17
6578.26543 1.11750e-17
6579.46055 1.11577e-17
6580.66571 1.10530e-17
6581.86082 1.10248e-17
6583.06598 1.09651e-17
6584.26110 1.09491e-17
6585.45622 1.08511e-17
6586.66138 1.10346e-17
6587.85649 1.10308e-17
6589.06166 1.11112e-17
6590.25677 1.14547e-17
6591.46193 1.13293e-17
6592.65705 1.16866e-17
6593.86221 1.12202e-17
6595.05733 1.14050e-17
6596.26249 1.09520e-17
6597.45760 1.09904e-17
6598.66276 1.09933e-17
6599.85788 1.10451e-17
6601.06304 1.10054e-17
6602.25816 1.09239e-17
6603.46332 1.08027e-17
6604.65843 1.08391e-17
6605.85355 1.08836e-17
6607.05871 1.09216e-17
6608.25383 1.08886e-17
6609.45899 1.09157e-17
6610.65411 1.09536e-17
6611.85927 1.09062e-17
6613.05438 1.08692e-17
6614.25954 1.08703e-17
6615.45466 1.07561e-17
6616.65982 1.06644e-17
6617.85494 1.07118e-17
6619.06010 1.06372e-17
6620.25521 1.06052e-17
6621.46037 1.07264e-17
6622.65549 1.07861e-17
6623.86065 1.08448e-17
6625.05577 1.07505e-17
6626.25088 1.05658e-17
6627.45604 1.06309e-17
6628.65116 1.07719e-17
6629.85632 1.08336e-17
6631.05144 1.08157e-17
6632.25660 1.08030e-17
6633.45172 1.06791e-17
6634.65687 1.08094e-17
6635.85199 1.06864e-17
6637.05715 1.07101e-17
6638.25227 1.08811e-17
6639.45743 1.09480e-17
6640.65255 1.08789e-17
6641.85771 1.06092e-17
6643.05282 1.07067e-17
6644.25798 1.08394e-17
6645.45310 1.07977e-17
6646.65826 1.07473e-17
6647.85338 1.06629e-17
6649.04849 1.06051e-17
6650.25365 1.07071e-17
6651.44877 1.06656e-17
6652.65393 1.06476e-17
6653.84905 1.07260e-17
6655.05421 1.06411e-17
6656.24932 1.05875e-17
6657.45448 1.06292e-17
6658.64960 1.06235e-17
6659.85476 1.06404e-17
6661.04988 1.06369e-17
6662.25504 1.05339e-17
6663.45016 1.05225e-17
6664.65532 1.05871e-17
6665.85043 1.05862e-17
6667.05559 1.05858e-17
6668.25071 1.07298e-17
6669.44583 1.05948e-17
6670.65099 1.04566e-17
6671.84610 1.04978e-17
6673.05126 1.05063e-17
6674.24638 1.06808e-17
6675.45154 1.03456e-17
6676.64666 1.05961e-17
6677.85182 1.04222e-17
6679.04693 1.08149e-17
6680.25209 1.06258e-17
6681.44721 1.02799e-17
6682.65237 1.03261e-17
6683.84749 1.02507e-17
6685.05265 1.03371e-17
6686.24777 1.03871e-17
6687.45293 1.03595e-17
6688.64804 1.03936e-17
6689.84316 1.03707e-17
6691.04832 1.02728e-17
6692.24344 1.03512e-17
6693.44860 1.03047e-17
6694.64371 1.03630e-17
6695.84887 1.03332e-17
6697.04399 1.02908e-17
6698.24915 1.02495e-17
6699.44427 1.02693e-17
6700.64943 1.04063e-17
6701.84454 1.02282e-17
6703.04971 1.00515e-17
6704.24482 1.00953e-17
6705.44998 1.00651e-17
6706.64510 9.95766e-18
6707.85026 1.01713e-17
6709.04538 1.01882e-17
6710.24049 1.00170e-17
6711.44565 1.00006e-17
6712.64077 1.00424e-17
6713.84593 9.99724e-18
6715.04105 1.00208e-17
6716.24621 1.00523e-17
6717.44132 1.02573e-17
6718.64648 1.00524e-17
6719.84160 1.01057e-17
6721.04676 1.00124e-17
6722.24188 9.91884e-18
6723.44704 1.00785e-17
6724.64216 1.02479e-17
6725.84731 1.00413e-17
6727.04243 9.93339e-18
6728.24759 9.95018e-18
6729.44271 9.91044e-18
6730.64787 9.89473e-18
6731.84299 9.79619e-18
6733.03810 9.79816e-18
6734.24326 9.88668e-18
6735.43838 9.92405e-18
6736.64354 9.86951e-18
6737.83866 9.79485e-18
6739.04382 9.82429e-18
6740.23893 9.83965e-18
6741.44409 9.77819e-18
6742.63921 9.71779e-18
6743.84437 9.86671e-18
6745.03949 9.92689e-18
6746.24465 9.97287e-18
6747.43977 9.89061e-18
6748.64492 9.78948e-18
6749.84004 9.79778e-18
6751.04520 9.72439e-18
6752.24032 9.75756e-18
6753.43544 9.80078e-18
6754.64060 9.80421e-18
6755.83571 9.44599e-18
6757.04087 9.61097e-18
6758.23599 9.65889e-18
6759.44115 9.53751e-18
6760.63627 9.58778e-18
6761.84143 9.58335e-18
6763.03654 9.43267e-18
6764.24170 9.34392e-18
6765.43682 9.40261e-18
6766.64198 9.39442e-18
6767.83710 9.41169e-18
6769.04226 9.33034e-18
6770.23737 9.25491e-18
6771.44253 9.29255e-18
6772.63765 9.41520e-18
6773.83277 9.46250e-18
6775.03793 9.42309e-18
6776.23305 9.45531e-18
6777.43821 9.46147e-18
6778.63332 9.42590e-18
6779.83848 9.38084e-18
6781.03360 9.17885e-18
6782.23876 9.13453e-18
6783.43388 9.23065e-18
6784.63904 9.09405e-18
6785.83415 9.10819e-18
6787.03931 9.09957e-18
6788.23443 9.02184e-18
6789.43959 8.92799e-18
6790.63471 8.95280e-18
6791.83987 9.04225e-18
6793.03498 9.02431e-18
6794.23010 9.03308e-18
6795.43526 8.93339e-18
6796.63038 9.08423e-18
6797.83554 9.00755e-18
6799.03066 9.00430e-18
6800.23582 9.05696e-18
6801.43093 8.99883e-18
6802.63609 8.87990e-18
6803.83121 9.04295e-18
6805.03637 8.99571e-18
6806.23149 8.95839e-18
6807.43665 8.94328e-18
6808.63176 8.95138e-18
6809.83692 8.94220e-18
6811.03204 8.82049e-18
6812.23720 8.85815e-18
6813.43232 8.83451e-18
6814.62743 8.71570e-18
6815.83259 8.78427e-18
6817.02771 8.87509e-18
6818.23287 8.79980e-18
6819.42799 8.73952e-18
6820.63315 8.79891e-18
6821.82827 8.92470e-18
6823.03343 8.92590e-18
6824.22854 8.77786e-18
6825.43370 8.92153e-18
6826.62882 9.12116e-18
6827.83398 9.02152e-18
6829.02910 9.11035e-18
6830.23426 9.06692e-18
6831.42937 9.03109e-18
6832.63453 8.74038e-18
6833.82965 8.93526e-18
6835.03481 8.68813e-18
6836.22993 8.86529e-18
6837.42504 8.63241e-18
6838.63021 8.65554e-18
6839.82532 8.67930e-18
6841.03048 8.57868e-18
6842.22560 8.76552e-18
6843.43076 8.61711e-18
6844.62588 8.64004e-18
6845.83104 8.57097e-18
6847.02615 8.61909e-18
6848.23131 8.57703e-18
6849.42643 8.63077e-18
6850.63159 8.79336e-18
6851.82671 8.71089e-18
6853.03187 8.62141e-18
6854.22698 8.61626e-18
6855.43214 8.62166e-18
6856.62726 8.70685e-18
6857.82238 8.78310e-18
6859.02754 8.69575e-18
6860.22266 8.60208e-18
6861.42782 8.77720e-18
6862.62293 8.88084e-18
6863.82809 8.65660e-18
6865.02321 8.58947e-18
6866.22837 8.53671e-18
6867.42349 8.50949e-18
6868.62865 8.45634e-18
6869.82376 8.56965e-18
6871.02892 8.53301e-18
6872.22404 8.70050e-18
6873.42920 8.56527e-18
6874.62432 8.51313e-18
6875.82948 8.35496e-18
6877.02459 8.65022e-18
6878.21971 8.55555e-18
6879.42487 8.78934e-18
6880.61999 8.77351e-18
6881.82515 8.79992e-18
6883.02027 8.41585e-18
6884.22542 8.55532e-18
6885.42054 8.34778e-18
6886.62570 8.35424e-18
6887.82082 8.29257e-18
6889.02598 8.24386e-18
6890.22110 8.31536e-18
6891.42626 8.30403e-18
6892.62137 8.29389e-18
6893.82653 8.30751e-18
6895.02165 8.33903e-18
6896.22681 8.32371e-18
6897.42193 8.29858e-18
6898.61704 8.31466e-18
6899.82220 8.36916e-18
6901.01732 8.50624e-18
6902.22248 8.56944e-18
6903.41760 8.40982e-18
6904.62276 8.40454e-18
6905.81787 8.33434e-18
6907.02303 8.45588e-18
6908.21815 8.41997e-18
6909.42331 8.56027e-18
6910.61843 8.57662e-18
6911.82359 8.56311e-18
6913.01871 8.62897e-18
6914.22387 8.46913e-18
6915.41898 8.63706e-18
6916.62414 8.21150e-18
6917.81926 8.26266e-18
6919.02442 8.37073e-18
6920.21954 8.46338e-18
6921.41465 8.69061e-18
6922.61981 8.70909e-18
6923.81493 8.76374e-18
6925.02009 8.69295e-18
6926.21521 8.67923e-18
6927.42037 8.63336e-18
6928.61548 8.68010e-18
6929.82064 8.72195e-18
6931.01576 8.67402e-18
6932.22092 8.63769e-18
6933.41604 8.67861e-18
6934.62120 8.67463e-18
6935.81632 8.62084e-18
6937.02148 8.59905e-18
6938.21659 8.46075e-18
6939.42175 8.44857e-18
6940.61687 8.62113e-18
6941.81199 8.62923e-18
6943.01715 8.67405e-18
6944.21226 8.68037e-18
6945.41742 8.59889e-18
6946.61254 8.68584e-18
6947.81770 8.75188e-18
6949.01282 8.96713e-18
6950.21798 8.70109e-18
6951.41309 8.83153e-18
6952.61826 8.62086e-18
6953.81337 8.67244e-18
6955.01853 8.42452e-18
6956.21365 8.56205e-18
6957.41881 8.41931e-18
6958.61393 8.64266e-18
6959.81909 8.61762e-18
6961.01420 8.60130e-18
6962.20932 8.51368e-18
6963.41448 8.61894e-18
6964.60960 8.69855e-18
6965.81476 8.70137e-18
6967.00987 8.60286e-18
6968.21503 8.57949e-18
6969.41015 8.70309e-18
6970.61531 8.65478e-18
6971.81043 8.64951e-18
6973.01559 8.58334e-18
6974.21071 8.65376e-18
6975.41586 8.84983e-18
6976.61098 8.74458e-18
6977.81614 8.76460e-18
6979.01126 8.86600e-18
6980.21642 8.73229e-18
6981.41154 8.71492e-18
6982.60665 8.61075e-18
6983.81181 8.47088e-18
6985.00693 8.68034e-18
6986.21209 8.67208e-18
6987.40721 8.77025e-18
6988.61237 8.55014e-18
6989.80748 8.62607e-18
6991.01264 8.74144e-18
6992.20776 8.69157e-18
6993.41292 8.80052e-18
6994.60804 8.83344e-18
6995.81320 8.68479e-18
6997.00832 8.49108e-18
6998.21347 8.47292e-18
6999.40859 8.63317e-18
7000.61375 8.53631e-18
7001.80887 8.64666e-18
7003.00399 8.58474e-18
7004.20915 8.57316e-18
7005.40426 8.50947e-18
7006.60942 8.54189e-18
7007.80454 8.75893e-18
7009.00970 8.75449e-18
7010.20482 8.83967e-18
7011.40998 8.81671e-18
7012.60509 8.77099e-18
7013.81025 8.63648e-18
7015.00537 8.66627e-18
7016.21053 8.57973e-18
7017.40565 8.52510e-18
7018.61081 8.59313e-18
7019.80592 8.66513e-18
7021.01108 8.67597e-18
7022.20620 8.50596e-18
7023.41136 8.52788e-18
7024.60648 8.43420e-18
7025.80160 8.41044e-18
7027.00676 8.36084e-18
7028.20187 8.35954e-18
7029.40703 8.40282e-18
7030.60215 8.49358e-18
7031.80731 8.60313e-18
7033.00243 8.45307e-18
7034.20759 8.52704e-18
7035.40270 8.47716e-18
7036.60786 8.52648e-18
7037.80298 8.63283e-18
7039.00814 8.56760e-18
7040.20326 8.47939e-18
7041.40842 8.43480e-18
7042.60353 8.65659e-18
7043.80869 8.56149e-18
7045.00381 8.61352e-18
7046.19893 8.57579e-18
7047.40409 8.70586e-18
7048.59921 8.70401e-18
7049.80437 8.39691e-18
7050.99948 8.30332e-18
7052.20464 8.43581e-18
7053.39976 8.30326e-18
7054.60492 8.29818e-18
7055.80004 8.33117e-18
7057.00520 8.32114e-18
7058.20031 8.23454e-18
7059.40547 8.17230e-18
7060.60059 8.25923e-18
7061.80575 8.31155e-18
7063.00087 8.25108e-18
7064.20603 8.22391e-18
7065.40114 8.30790e-18
7066.60631 8.22832e-18
7067.80142 8.39789e-18
7068.99654 8.29976e-18
7070.20170 8.17088e-18
7071.39682 8.26716e-18
7072.60198 8.15248e-18
7073.79709 8.27591e-18
7075.00225 8.40949e-18
7076.19737 8.26530e-18
7077.40253 8.28128e-18
7078.59765 8.28493e-18
7079.80281 8.25282e-18
7080.99792 8.38194e-18
7082.20308 8.29472e-18
7083.39820 8.30447e-18
7084.60336 8.36040e-18
7085.79848 8.26381e-18
7087.00364 8.13118e-18
7088.19876 8.26214e-18
7089.39387 8.37365e-18
7090.59903 8.07299e-18
7091.79415 8.01707e-18
7092.99931 8.22292e-18
7094.19443 8.13776e-18
7095.39959 8.11521e-18
7096.59470 8.05640e-18
7097.79986 7.96615e-18
7098.99498 8.03174e-18
7100.20014 8.05688e-18
7101.39526 7.97463e-18
7102.60042 8.03930e-18
7103.79553 8.00565e-18
7105.00069 7.93959e-18
7106.19581 8.00656e-18
7107.40097 8.26743e-18
7108.59609 8.30340e-18
7109.79121 8.51030e-18
7110.99636 8.43671e-18
7112.19148 8.44765e-18
7113.39664 8.37021e-18
7114.59176 8.28445e-18
7115.79692 8.39370e-18
7116.99204 8.35453e-18
7118.19720 8.38829e-18
7119.39231 8.45120e-18
7120.59747 8.56330e-18
7121.79259 8.38221e-18
7122.99775 8.29253e-18
7124.19287 8.38181e-18
7125.39803 8.18951e-18
7126.59314 8.35403e-18
7127.79830 8.34843e-18
7128.99342 8.33442e-18
7130.19858 8.33273e-18
7131.39370 8.27825e-18
7132.58882 8.38127e-18
7133.79397 8.49514e-18
7134.98909 8.55964e-18
7136.19425 8.42114e-18
7137.38937 8.39640e-18
7138.59453 8.48158e-18
7139.78965 8.50064e-18
7140.99481 8.52122e-18
7142.18992 8.58470e-18
7143.39508 8.75585e-18
7144.59020 8.69019e-18
7145.79536 8.59698e-18
7146.99048 8.50979e-18
7148.19564 8.69911e-18
7149.39075 8.75280e-18
7150.59591 8.69442e-18
7151.79103 8.75917e-18
7152.98615 8.85734e-18
7154.19131 8.79895e-18
7155.38642 8.88591e-18
7156.59158 8.55835e-18
7157.78670 8.76067e-18
7158.99186 8.91298e-18
7160.18698 8.80810e-18
7161.39214 8.64245e-18
7162.58726 8.55884e-18
7163.79242 8.64396e-18
7164.98753 8.57503e-18
7166.19269 8.41834e-18
7167.38781 8.36108e-18
7168.59297 8.36231e-18
7169.78809 8.19075e-18
7170.99325 8.05172e-18
7172.18836 7.98493e-18
7173.38348 8.01692e-18
7174.58864 7.91551e-18
7175.78376 7.90630e-18
7176.98892 8.00114e-18
7178.18403 7.94464e-18
7179.38919 7.87521e-18
7180.58431 7.97124e-18
7181.78947 7.86839e-18
7182.98459 7.61841e-18
7184.18975 7.50664e-18
7185.38487 7.43441e-18
7186.59003 7.48704e-18
7187.78514 7.62280e-18
7188.99030 7.90666e-18
7190.18542 7.83479e-18
7191.39058 7.71946e-18
7192.58570 7.59374e-18
7193.78081 7.83462e-18
7194.98597 7.91325e-18
7196.18109 7.98057e-18
7197.38625 8.03647e-18
7198.58137 7.84137e-18
7199.78653 7.65032e-18
7200.98164 7.64639e-18
7202.18681 7.57754e-18
7203.38192 7.79729e-18
7204.58708 7.81681e-18
7205.78220 8.01186e-18
7206.98736 7.97577e-18
7208.18248 8.22704e-18
7209.38764 8.34820e-18
7210.58275 8.38366e-18
7211.78791 8.35308e-18
7212.98303 8.35722e-18
7214.17815 8.34661e-18
7215.38331 8.28843e-18
7216.57842 8.36834e-18
7217.78358 8.33260e-18
7218.97870 8.35211e-18
7220.18386 8.36540e-18
7221.37898 8.31346e-18
7222.58414 8.35777e-18
7223.77926 8.30319e-18
7224.98441 8.12568e-18
7226.17953 8.08713e-18
7227.38469 8.23152e-18
7228.57981 8.24482e-18
7229.78497 8.04547e-18
7230.98009 7.75846e-18
7232.18525 7.54782e-18
7233.38036 7.50657e-18
7234.57548 7.62107e-18
7235.78064 7.75561e-18
7236.97576 8.20404e-18
7238.18092 8.58932e-18
7239.37603 8.31565e-18
7240.58119 8.57094e-18
7241.77631 8.37975e-18
7242.98147 8.39950e-18
7244.17659 8.33289e-18
7245.38175 8.45558e-18
7246.57686 8.39655e-18
7247.78202 8.37185e-18
7248.97714 8.15414e-18
7250.18230 7.87218e-18
7251.37742 7.81662e-18
7252.58258 7.94662e-18
7253.77770 7.89026e-18
7254.98286 7.80690e-18
7256.17797 7.91422e-18
7257.37309 8.00087e-18
7258.57825 8.02687e-18
7259.77337 8.11473e-18
7260.97853 7.94947e-18
7262.17364 7.75034e-18
7263.37880 7.65687e-18
7264.57392 7.53702e-18
7265.77908 7.56904e-18
7266.97420 7.73891e-18
7268.17936 7.94789e-18
7269.37447 7.94464e-18
7270.57964 7.79032e-18
7271.77475 7.87931e-18
7272.97991 7.90301e-18
7274.17503 7.98049e-18
7275.38019 8.04233e-18
7276.57531 8.14947e-18
7277.77042 7.95806e-18
7278.97558 7.76544e-18
7280.17070 7.89048e-18
7281.37586 8.20925e-18
7282.57098 8.47547e-18
7283.77614 8.34110e-18
7284.97125 8.06869e-18
7286.17641 8.18117e-18
7287.37153 8.02985e-18
7288.57669 7.61275e-18
7289.77181 7.77621e-18
7290.97697 7.65921e-18
7292.17208 7.79349e-18
7293.37724 7.97541e-18
7294.57236 8.08051e-18
7295.77752 8.07703e-18
7296.97264 8.16512e-18
7298.17780 8.15641e-18
7299.37292 8.07953e-18
7300.56803 7.95897e-18
7301.77319 7.84256e-18
7302.96831 7.85362e-18
7304.17347 7.97148e-18
7305.36859 8.01875e-18
7306.57375 7.93044e-18
7307.76886 7.97555e-18
7308.97402 7.95515e-18
7310.16914 7.96681e-18
7311.37430 7.91173e-18
7312.56942 8.07611e-18
7313.77458 8.20643e-18
7314.96969 8.30395e-18
7316.17486 8.19644e-18
7317.36997 8.17055e-18
7318.57513 8.09489e-18
7319.77025 8.01012e-18
7320.96537 8.02336e-18
7322.17053 8.11828e-18
7323.36564 8.01454e-18
7324.57080 7.93249e-18
7325.76592 8.09415e-18
7326.97108 8.23952e-18
7328.16620 8.22627e-18
7329.37136 8.17869e-18
7330.56647 8.06988e-18
7331.77163 7.96510e-18
7332.96675 7.88217e-18
7334.17191 7.88823e-18
7335.36703 8.02648e-18
7336.57219 8.01305e-18
7337.76731 8.23620e-18
7338.97246 8.42907e-18
7340.16758 8.58720e-18
7341.37274 8.61158e-18
7342.56786 8.48212e-18
7343.76298 8.30218e-18
7344.96814 8.17527e-18
7346.16325 8.18529e-18
7347.36841 8.16916e-18
7348.56353 8.08087e-18
7349.76869 8.06807e-18
7350.96381 8.13044e-18
7352.16897 8.02806e-18
7353.36408 8.07653e-18
7354.56924 8.21276e-18
7355.76436 8.35459e-18
7356.96952 8.36422e-18
7358.16464 8.30634e-18
7359.36980 8.33960e-18
7360.56491 8.15868e-18
7361.77007 8.10348e-18
7362.96519 8.23256e-18
7364.16031 8.00449e-18
7365.36547 8.16112e-18
7366.56059 8.22032e-18
7367.76575 8.40254e-18
7368.96086 8.47595e-18
7370.16602 8.42388e-18
7371.36114 8.16535e-18
7372.56630 8.11298e-18
7373.76142 7.97703e-18
7374.96658 8.04263e-18
7376.16169 8.13574e-18
7377.36685 8.03174e-18
7378.56197 7.97007e-18
7379.76713 8.09783e-18
7380.96225 8.05872e-18
7382.16741 8.16655e-18
7383.36252 8.19320e-18
7384.55764 8.19296e-18
7385.76280 8.16059e-18
7386.95792 8.04171e-18
7388.16308 8.04120e-18
7389.35820 8.08470e-18
7390.56336 8.12846e-18
7391.75847 8.24278e-18
7392.96363 8.15572e-18
7394.15875 7.97023e-18
7395.36391 7.87294e-18
7396.55903 7.84789e-18
7397.76419 7.87364e-18
7398.95930 7.95308e-18
7400.16446 8.29165e-18
7401.35958 8.37414e-18
7402.56474 8.10068e-18
7403.75986 8.06396e-18
7404.95497 7.84976e-18
7406.16013 7.89293e-18
7407.35525 7.77577e-18
7408.56041 7.94291e-18
7409.75553 7.98040e-18
7410.96069 7.93690e-18
7412.15581 8.02156e-18
7413.36097 8.01624e-18
7414.55608 7.91275e-18
7415.76124 7.93954e-18
7416.95636 8.08700e-18
7418.16152 8.09551e-18
7419.35664 7.87318e-18
7420.56180 7.86393e-18
7421.75691 7.94565e-18
7422.96207 7.93242e-18
7424.15719 7.80972e-18
7425.35231 7.80483e-18
7426.55747 7.79797e-18
7427.75258 7.88748e-18
7428.95774 7.72109e-18
7430.15286 7.56415e-18
7431.35802 7.61869e-18
7432.55314 7.59671e-18
7433.75830 7.59734e-18
7434.95342 7.53565e-18
7436.15858 7.45170e-18
7437.35369 7.39730e-18
7438.55885 7.39981e-18
7439.75397 7.52672e-18
7440.95913 7.45653e-18
7442.15425 7.33807e-18
7443.35941 7.18969e-18
7444.55452 7.11925e-18
7445.75968 7.16787e-18
7446.95480 7.13055e-18
7448.14992 7.28178e-18
7449.35508 7.01700e-18
7450.55019 7.18557e-18
7451.75536 7.03385e-18
7452.95047 7.18946e-18
7454.15563 6.71969e-18
7455.35075 6.88419e-18
7456.55591 6.90910e-18
7457.75103 6.84351e-18
7458.95619 6.86406e-18
7460.15130 6.92479e-18
7461.35646 6.75218e-18
7462.55158 6.55040e-18
7463.75674 6.60146e-18
7464.95186 6.41969e-18
7466.15702 6.18331e-18
7467.35213 6.15238e-18
7468.54725 6.16340e-18
7469.75241 6.12663e-18
7470.94753 6.15408e-18
7472.15269 6.10648e-18
7473.34781 6.03445e-18
7474.55296 6.02088e-18
7475.74808 5.98561e-18
7476.95324 5.89693e-18
7478.14836 5.80327e-18
7479.35352 5.81846e-18
7480.54864 5.83375e-18
7481.75380 5.82673e-18
7482.94891 5.82310e-18
7484.15407 5.84318e-18
7485.34919 5.72379e-18
7486.55435 5.56412e-18
7487.74947 5.59349e-18
7488.94458 5.46487e-18
7490.14974 5.38004e-18
7491.34486 5.37211e-18
7492.55002 5.37170e-18
7493.74514 5.14979e-18
7494.95030 5.14580e-18
7496.14541 5.07358e-18
7497.35057 4.96110e-18
7498.54569 5.03738e-18
7499.75085 4.85975e-18
7500.94597 4.91205e-18
7502.15113 4.86390e-18
7503.34625 4.95901e-18
7504.55141 4.89839e-18
7505.74652 4.91864e-18
7506.95168 4.87313e-18
7508.14680 4.84699e-18
7509.34192 4.86157e-18
7510.54708 4.89440e-18
7511.74219 4.83054e-18
7512.94735 4.84642e-18
7514.14247 4.84425e-18
7515.34763 4.88339e-18
7516.54275 4.86649e-18
7517.74791 4.93541e-18
7518.94302 5.08710e-18
7520.14819 5.16702e-18
7521.34330 5.24772e-18
7522.54846 5.23445e-18
7523.74358 5.21666e-18
7524.94874 5.18390e-18
7526.14386 5.10873e-18
7527.34902 5.07291e-18
7528.54413 4.93932e-18
7529.74929 5.02799e-18
7530.94441 4.98407e-18
7532.13953 4.87534e-18
7533.34469 4.81409e-18
7534.53980 4.78168e-18
7535.74496 4.53965e-18
7536.94008 4.74153e-18
7538.14524 4.78853e-18
7539.34036 4.84847e-18
7540.54552 4.93029e-18
7541.74063 4.80836e-18
7542.94579 4.69902e-18
7544.14091 4.91814e-18
7545.34607 4.87257e-18
7546.54119 4.93075e-18
7547.74635 5.00832e-18
7548.94147 4.97900e-18
7550.14663 4.94727e-18
7551.34174 4.87065e-18
7552.53686 4.95344e-18
7553.74202 4.96746e-18
7554.93714 5.02563e-18
7556.14230 4.91380e-18
7557.33741 4.82075e-18
7558.54257 4.86063e-18
7559.73769 4.95774e-18
7560.94285 4.99758e-18
7562.13797 4.94636e-18
7563.34313 4.95668e-18
7564.53824 5.03644e-18
7565.74341 5.01298e-18
7566.93852 5.08307e-18
7568.14368 5.21493e-18
7569.33880 5.33293e-18
7570.54396 5.38904e-18
7571.73908 5.40950e-18
7572.94424 5.46411e-18
7574.13935 5.38174e-18
7575.33447 5.39808e-18
7576.53963 5.29074e-18
7577.73475 5.26438e-18
7578.93991 5.17934e-18
7580.13502 5.18462e-18
7581.34018 5.20608e-18
7582.53530 4.98313e-18
7583.74046 5.17914e-18
7584.93558 5.21532e-18
7586.14074 5.11823e-18
7587.33586 5.13473e-18
7588.54101 5.17840e-18
7589.73613 5.04546e-18
7590.94129 5.09846e-18
7592.13641 5.19500e-18
7593.34157 5.19691e-18
7594.53669 5.22269e-18
7595.73180 5.36350e-18
7596.93696 5.60280e-18
7598.13208 5.73462e-18
7599.33724 5.53286e-18
7600.53236 5.56568e-18
7601.73752 5.50013e-18
7602.93263 5.30356e-18
7604.13779 5.42054e-18
7605.33291 5.32142e-18
7606.53807 5.35983e-18
7607.73319 5.33380e-18
7608.93835 5.20030e-18
7610.13346 5.21389e-18
7611.33862 5.39393e-18
7612.53374 5.59804e-18
7613.73890 5.75510e-18
7614.93402 5.77310e-18
7616.12914 5.75757e-18
7617.33430 5.83403e-18
7618.52941 5.73842e-18
7619.73457 5.82897e-18
7620.92969 5.59982e-18
7622.13485 5.61344e-18
7623.32997 5.49865e-18
7624.53513 5.53255e-18
7625.73024 5.94195e-18
7626.93540 5.93176e-18
7628.13052 5.84020e-18
7629.33568 5.89651e-18
7630.53080 5.70641e-18
7631.73596 5.93577e-18
7632.93107 5.74540e-18
7634.13623 5.86351e-18
7635.33135 5.74802e-18
7636.52647 5.67368e-18
7637.73163 5.79950e-18
7638.92675 5.91910e-18
7640.13191 5.79931e-18
7641.32702 5.86652e-18
7642.53218 5.94321e-18
7643.72730 5.79710e-18
7644.93246 5.95041e-18
7646.12758 6.05334e-18
7647.33274 6.17245e-18
7648.52785 6.22228e-18
7649.73301 6.34205e-18
7650.92813 6.44337e-18
7652.13329 6.52580e-18
7653.32841 6.62458e-18
7654.53357 6.61102e-18
7655.72869 6.68841e-18
7656.93384 6.74291e-18
7658.12896 6.82127e-18
7659.32408 7.10060e-18
7660.52924 7.25131e-18
7661.72436 7.55713e-18
7662.92952 7.82443e-18
7664.12463 7.63934e-18
7665.32979 7.21877e-18
7666.52491 7.07019e-18
7667.73007 6.76730e-18
7668.92519 6.73905e-18
7670.13035 6.73800e-18
7671.32546 6.95071e-18
7672.53062 6.86946e-18
7673.72574 6.74498e-18
7674.93090 7.13936e-18
7676.12602 7.05321e-18
7677.33118 7.00562e-18
7678.52629 7.12183e-18
7679.72141 7.07911e-18
7680.92657 7.08415e-18
7682.12169 7.18397e-18
7683.32685 7.07241e-18
7684.52197 7.24573e-18
7685.72713 7.01340e-18
7686.92224 7.46062e-18
7688.12740 7.43346e-18
7689.32252 7.55867e-18
7690.52768 7.45674e-18
7691.72280 7.40312e-18
7692.92796 7.47401e-18
7694.12307 7.50149e-18
7695.32823 7.87366e-18
7696.52335 7.95977e-18
7697.72851 7.88476e-18
7698.92363 7.93441e-18
7700.11874 7.70642e-18
7701.32391 7.55834e-18
7702.51902 7.47993e-18
7703.72418 7.48428e-18
7704.91930 7.61213e-18
7706.12446 7.77395e-18
7707.31958 7.92586e-18
7708.52474 7.94233e-18
7709.71985 8.16499e-18
7710.92501 8.49105e-18
7712.12013 8.74143e-18
7713.32529 8.74146e-18
7714.52041 8.71134e-18
7715.72557 8.53833e-18
7716.92068 8.54537e-18
7718.12584 8.29999e-18
7719.32096 8.23657e-18
7720.51608 8.03225e-18
7721.72124 8.29768e-18
7722.91636 8.19772e-18
7724.12151 8.14629e-18
7725.31663 8.27406e-18
7726.52179 8.28260e-18
7727.71691 8.10239e-18
7728.92207 8.14112e-18
7730.11719 8.21758e-18
7731.32235 8.11619e-18
7732.51746 8.21232e-18
7733.72262 8.18147e-18
7734.91774 8.25150e-18
7736.12290 8.36557e-18
7737.31802 8.34608e-18
7738.52318 8.45121e-18
7739.71829 8.49074e-18
7740.91341 8.42686e-18
7742.11857 8.33139e-18
7743.31369 8.40233e-18
7744.51885 8.40550e-18
7745.71396 8.63139e-18
7746.91912 8.99491e-18
7748.11424 9.15895e-18
7749.31940 9.36182e-18
7750.51452 9.38965e-18
7751.71968 9.12785e-18
7752.91480 8.87943e-18
7754.11996 8.62687e-18
7755.31507 8.43549e-18
7756.52023 8.51699e-18
7757.71535 8.52416e-18
7758.92051 8.65134e-18
7760.11563 8.75476e-18
7761.31074 8.75672e-18
7762.51590 8.76532e-18
7763.71102 8.64850e-18
7764.91618 8.67661e-18
7766.11130 8.42987e-18
7767.31646 8.49706e-18
7768.51157 8.51799e-18
7769.71673 8.69171e-18
7770.91185 8.48425e-18
7772.11701 8.64927e-18
7773.31213 8.63032e-18
7774.51729 8.57382e-18
7775.71241 8.43853e-18
7776.91757 8.51431e-18
7778.11268 8.81363e-18
7779.31784 8.78711e-18
7780.51296 8.88325e-18
7781.71812 8.57288e-18
7782.91324 8.75937e-18
7784.10835 8.78136e-18
7785.31351 8.77331e-18
7786.50863 8.69662e-18
7787.71379 8.71866e-18
7788.90891 8.95019e-18
7790.11407 9.15266e-18
7791.30918 9.12817e-18
7792.51434 9.29078e-18
7793.70946 9.39581e-18
7794.91462 9.11470e-18
7796.10974 9.05280e-18
7797.31490 8.96679e-18
7798.51002 8.86374e-18
7799.71518 8.92103e-18
7800.91029 8.85234e-18
7802.11545 8.83313e-18
7803.31057 8.85095e-18
7804.51573 9.04836e-18
7805.71085 9.25861e-18
7806.90596 9.17295e-18
7808.11112 9.22838e-18
7809.30624 9.27532e-18
7810.51140 9.20336e-18
7811.70652 9.09831e-18
7812.91168 9.17557e-18
7814.10679 9.05945e-18
7815.31196 9.16556e-18
7816.50707 9.12385e-18
7817.71223 9.30811e-18
7818.90735 9.52574e-18
7820.11251 9.74147e-18
7821.30763 9.89622e-18
7822.51279 9.68232e-18
7823.70790 9.40977e-18
7824.91306 9.20144e-18
7826.10818 9.06289e-18
7827.30330 9.08865e-18
7828.50846 9.07802e-18
7829.70357 8.89924e-18
7830.90873 9.22027e-18
7832.10385 9.09157e-18
7833.30901 8.95955e-18
7834.50413 8.83029e-18
7835.70929 8.94304e-18
7836.90441 8.94544e-18
7838.10956 9.15324e-18
7839.30468 8.85127e-18
7840.50984 8.98290e-18
7841.70496 8.98337e-18
7842.91012 8.87595e-18
7844.10524 8.76611e-18
7845.31040 8.83352e-18
7846.50551 8.85787e-18
7847.70063 8.89874e-18
7848.90579 8.97758e-18
7850.10091 9.26193e-18
7851.30607 9.50767e-18
7852.50118 9.64299e-18
7853.70634 9.43388e-18
7854.90146 9.29721e-18
7856.10662 9.26436e-18
7857.30174 9.15616e-18
7858.50690 9.21336e-18
7859.70201 9.14113e-18
7860.90717 8.94872e-18
7862.10229 8.67594e-18
7863.30745 8.83490e-18
7864.50257 8.93446e-18
7865.70773 8.81402e-18
7866.90285 8.98911e-18
7868.10801 8.93924e-18
7869.30312 9.18210e-18
7870.49824 9.20218e-18
7871.70340 8.97045e-18
7872.89852 8.76071e-18
7874.10368 8.75884e-18
7875.29879 8.70837e-18
7876.50395 8.73302e-18
7877.69907 8.84262e-18
7878.90423 8.67316e-18
7880.09935 8.86527e-18
7881.30451 8.66612e-18
7882.49962 8.37357e-18
7883.70478 8.34483e-18
7884.89990 8.52605e-18
7886.10506 8.44758e-18
7887.30018 8.42259e-18
7888.50534 8.53551e-18
7889.70046 8.49124e-18
7890.89557 8.66287e-18
7892.10073 8.52635e-18
7893.29585 8.32719e-18
7894.50101 8.37358e-18
7895.69613 8.14917e-18
7896.90129 8.04024e-18
7898.09640 8.17906e-18
7899.30156 8.04624e-18
7900.49668 7.98777e-18
7901.70184 8.10460e-18
7902.89696 8.07562e-18
7904.10212 8.11566e-18
7905.29724 8.18681e-18
7906.50239 8.20319e-18
7907.69751 8.24407e-18
7908.90267 8.50170e-18
7910.09779 8.89655e-18
7911.29291 9.19015e-18
7912.49807 9.35346e-18
7913.69318 9.10481e-18
7914.89834 8.92427e-18
7916.09346 8.75887e-18
7917.29862 8.46348e-18
7918.49374 8.45633e-18
7919.69890 8.53779e-18
7920.89401 8.73618e-18
7922.09917 8.38536e-18
7923.29429 8.32610e-18
7924.49945 8.40124e-18
7925.69457 8.14819e-18
7926.89973 8.22848e-18
7928.09484 8.33098e-18
7929.30001 8.32156e-18
7930.49512 8.24855e-18
7931.69024 8.34812e-18
7932.89540 8.21129e-18
7934.09052 7.95785e-18
7935.29568 7.74925e-18
7936.49079 7.80123e-18
7937.69595 7.98992e-18
7938.89107 7.83669e-18
7940.09623 7.73945e-18
7941.29135 7.89439e-18
7942.49651 7.91087e-18
7943.69162 7.86875e-18
7944.89678 7.98695e-18
7946.09190 7.78305e-18
7947.29706 7.72999e-18
7948.49218 7.89229e-18
7949.69734 8.01400e-18
7950.89246 7.93875e-18
7952.08757 7.83274e-18
7953.29273 7.88071e-18
7954.48785 7.88747e-18
7955.69301 7.80363e-18
7956.88813 7.80450e-18
7958.09329 7.73246e-18
7959.28840 7.76693e-18
7960.49356 7.85081e-18
7961.68868 7.91899e-18
7962.89384 8.13358e-18
7964.08896 8.27028e-18
7965.29412 8.07387e-18
7966.48923 7.91781e-18
7967.69439 7.78734e-18
7968.88951 7.55917e-18
7970.09467 7.53601e-18
7971.28979 7.49885e-18
7972.48491 7.35483e-18
7973.69006 7.49727e-18
7974.88518 7.58438e-18
7976.09034 7.72308e-18
7977.28546 7.99159e-18
7978.49062 8.16369e-18
7979.68574 7.98964e-18
7980.89090 7.76534e-18
7982.08601 7.68068e-18
7983.29117 7.56570e-18
7984.48629 7.45726e-18
7985.69145 7.41246e-18
7986.88657 7.24557e-18
7988.09173 7.30553e-18
7989.28684 7.72527e-18
7990.49200 7.68521e-18
7991.68712 7.79600e-18
7992.89228 8.16377e-18
7994.08740 7.90025e-18
7995.28251 7.72203e-18
7996.48767 7.32029e-18
7997.68279 7.27033e-18
7998.88795 7.12981e-18
8000.08307 7.29818e-18
8001.28823 7.33299e-18
8002.48335 7.50329e-18
8003.68851 7.46180e-18
8004.88362 7.44709e-18
8006.08878 7.41267e-18
8007.28390 7.11704e-18
8008.48906 7.01798e-18
8009.68418 7.15816e-18
8010.88934 7.32749e-18
8012.08445 7.41668e-18
8013.28961 7.36251e-18
8014.48473 7.22587e-18
8015.67985 7.23607e-18
8016.88501 7.10502e-18
8018.08012 6.96180e-18
8019.28528 6.93601e-18
8020.48040 6.95194e-18
8021.68556 7.03480e-18
8022.88068 7.23145e-18
8024.08584 7.43451e-18
8025.28096 7.52479e-18
8026.48612 7.38032e-18
8027.68123 7.24668e-18
8028.88639 7.06213e-18
8030.08151 6.92493e-18
8031.28667 7.09732e-18
8032.48179 7.13875e-18
8033.68695 6.95372e-18
8034.88206 6.88197e-18
8036.08722 6.99228e-18
8037.28234 6.93904e-18
8038.47746 6.93945e-18
8039.68262 6.72812e-18
8040.87774 6.93840e-18
8042.08289 6.72918e-18
8043.27801 6.69248e-18
8044.48317 6.74114e-18
8045.67829 6.61378e-18
8046.88345 6.50350e-18
8048.07857 6.74941e-18
8049.28373 6.92557e-18
8050.47884 6.82479e-18
8051.68400 6.92530e-18
8052.87912 6.74756e-18
8054.08428 6.69809e-18
8055.27940 6.58938e-18
8056.48456 6.74528e-18
8057.67967 6.93415e-18
8058.87479 6.92133e-18
8060.07995 7.02407e-18
8061.27507 6.95974e-18
8062.48023 7.26077e-18
8063.67534 6.82426e-18
8064.88051 6.76627e-18
8066.07562 6.72527e-18
8067.28078 6.53542e-18
8068.47590 6.56049e-18
8069.68106 6.57193e-18
8070.87618 6.64434e-18
8072.08134 6.60007e-18
8073.27645 6.43988e-18
8074.48161 6.46437e-18
8075.67673 6.47091e-18
8076.88189 6.59350e-18
8078.07701 6.48389e-18
8079.27212 6.37754e-18
8080.47728 6.47662e-18
8081.67240 6.45718e-18
8082.87756 6.32330e-18
8084.07268 6.27991e-18
8085.27784 6.27321e-18
8086.47296 6.40516e-18
8087.67811 6.42532e-18
8088.87323 6.31193e-18
8090.07839 6.47010e-18
8091.27351 6.54235e-18
8092.47867 6.44376e-18
8093.67379 6.35708e-18
8094.87895 6.42535e-18
8096.07406 6.32986e-18
8097.27922 6.25124e-18
8098.47434 6.33161e-18
8099.66946 6.42258e-18
8100.87462 6.39737e-18
8102.06973 6.32868e-18
8103.27489 6.56386e-18
8104.47001 6.42305e-18
8105.67517 6.42897e-18
8106.87029 6.06744e-18
8108.07545 5.99115e-18
8109.27056 6.09408e-18
8110.47572 5.98152e-18
8111.67084 5.95129e-18
8112.87600 5.98501e-18
8114.07112 6.02993e-18
8115.27628 5.98852e-18
8116.47140 5.97770e-18
8117.67656 6.15890e-18
8118.87167 5.93654e-18
8120.07683 5.62064e-18
8121.27195 5.61852e-18
8122.46707 5.48137e-18
8123.67223 5.50504e-18
8124.86734 5.45930e-18
8126.07250 5.34096e-18
8127.26762 5.26391e-18
8128.47278 5.21837e-18
8129.66790 5.15804e-18
8130.87306 5.09314e-18
8132.06817 5.06271e-18
8133.27333 5.08129e-18
8134.46845 5.01402e-18
8135.67361 5.07875e-18
8136.86873 5.09525e-18
8138.07389 4.93917e-18
8139.26901 4.99346e-18
8140.47417 4.80151e-18
8141.66928 4.74819e-18
8142.86440 4.66915e-18
8144.06956 4.63711e-18
8145.26468 4.69518e-18
8146.46984 4.70386e-18
8147.66495 4.53706e-18
8148.87011 4.39144e-18
8150.06523 4.40289e-18
8151.27039 4.42527e-18
8152.46551 4.44191e-18
8153.67067 4.32301e-18
8154.86578 4.27126e-18
8156.07094 4.31708e-18
8157.26606 4.27609e-18
8158.47122 4.24933e-18
8159.66634 4.13993e-18
8160.87150 4.01160e-18
8162.06662 3.83194e-18
8163.26173 3.80044e-18
8164.46689 3.87785e-18
8165.66201 3.87940e-18
8166.86717 3.92016e-18
8168.06229 3.83294e-18
8169.26745 3.84718e-18
8170.46256 3.78277e-18
8171.66772 3.86873e-18
8172.86284 3.86538e-18
8174.06800 3.77724e-18
8175.26312 3.67818e-18
8176.46828 3.30540e-18
8177.66339 3.40764e-18
8178.86856 3.40685e-18
8180.06367 3.37228e-18
8181.26883 3.49930e-18
8182.46395 3.37390e-18
8183.65907 3.37526e-18
8184.86423 3.38354e-18
8186.05934 3.23498e-18
8187.26450 3.24316e-18
8188.45962 3.16334e-18
8189.66478 3.17127e-18
8190.85990 3.11581e-18
8192.06506 3.04155e-18
8193.26017 3.14552e-18
8194.46533 2.99723e-18
8195.66045 2.92543e-18
8196.86561 2.88059e-18
8198.06073 2.79490e-18
8199.26589 2.82529e-18
8200.46101 2.86671e-18
8201.66617 2.91787e-18
8202.86128 3.01294e-18
8204.06644 3.02824e-18
8205.26156 3.04103e-18
8206.45668 3.00198e-18
8207.66184 2.89795e-18
8208.85695 2.88555e-18
8210.06211 2.78615e-18
8211.25723 2.84269e-18
8212.46239 2.84229e-18
8213.65751 2.72417e-18
8214.86267 2.77762e-18
8216.05778 2.66702e-18
8217.26294 2.64087e-18
8218.45806 2.74330e-18
8219.66322 2.67900e-18
8220.85834 2.75695e-18
8222.06350 2.71724e-18
8223.25862 2.65856e-18
8224.46378 2.62910e-18
8225.65889 2.38244e-18
8226.85401 2.31295e-18
8228.05917 2.27155e-18
8229.25429 2.19734e-18
8230.45945 2.29993e-18
8231.65456 2.42958e-18
8232.85972 2.51212e-18
8234.05484 2.56162e-18
8235.26000 2.58184e-18
8236.45512 2.66236e-18
8237.66028 2.72437e-18
8238.85539 2.72067e-18
8240.06055 2.68375e-18
8241.25567 2.74856e-18
8242.46083 2.68656e-18
8243.65595 2.69096e-18
8244.86111 2.82050e-18
8246.05623 2.91584e-18
8247.25134 2.88444e-18
8248.45650 2.94949e-18
8249.65162 2.80306e-18
8250.85678 2.93946e-18
8252.05190 3.01835e-18
8253.25706 2.78923e-18
8254.45217 3.02402e-18
8255.65733 2.95840e-18
8256.85245 2.91033e-18
8258.05761 2.97049e-18
8259.25273 2.99271e-18
8260.45789 3.03164e-18
8261.65300 2.95093e-18
8262.85816 3.10105e-18
8264.05328 3.10295e-18
8265.25844 3.18930e-18
8266.45356 3.05999e-18
8267.64868 3.13391e-18
8268.85383 3.28710e-18
8270.04895 3.30427e-18
8271.25411 3.11777e-18
8272.44923 3.12864e-18
8273.65439 3.20513e-18
8274.84951 3.32514e-18
8276.05467 3.51584e-18
8277.24978 3.60752e-18
8278.45494 3.83739e-18
8279.65006 4.07224e-18
8280.85522 3.96851e-18
8282.05034 3.89611e-18
8283.25550 3.87409e-18
8284.45061 3.97885e-18
8285.65577 4.07289e-18
8286.85089 4.05493e-18
8288.04601 3.97102e-18
8289.25117 3.91683e-18
8290.45633 3.79767e-18
8291.65144 3.60488e-18
8292.84656 3.59774e-18
8294.05172 3.86818e-18
8295.24684 4.07662e-18
8296.45200 4.10773e-18
8297.64712 4.10602e-18
8298.85228 4.15064e-18
8300.04739 4.16951e-18
8301.25255 3.93414e-18
8302.44767 3.64195e-18
8303.65283 3.47732e-18
8304.84795 3.39568e-18
8306.05311 3.57471e-18
8307.24822 3.73195e-18
8308.45338 3.80683e-18
8309.64850 3.97913e-18
8310.84362 3.94078e-18
8312.04878 3.72028e-18
8313.24389 3.75163e-18
8314.44906 3.72751e-18
8315.64417 3.59222e-18
8316.84933 3.63695e-18
8318.04445 3.72068e-18
8319.24961 3.62114e-18
8320.44473 3.60095e-18
8321.64989 3.53881e-18
8322.84500 3.67773e-18
8324.05016 3.60468e-18
8325.24528 3.64070e-18
8326.45044 3.65663e-18
8327.64556 3.71524e-18
8328.84067 3.66148e-18
8330.04583 3.57053e-18
8331.25099 3.57021e-18
8332.44611 3.53289e-18
8333.64123 3.46773e-18
8334.84639 3.59188e-18
8336.04150 3.56075e-18
8337.24666 3.61051e-18
8338.44178 3.58957e-18
8339.64694 3.93439e-18
8340.84206 4.12182e-18
8342.04722 4.88987e-18
8343.24234 5.20464e-18
8344.44750 5.28541e-18
8345.64261 4.92160e-18
8346.84777 4.23647e-18
8348.04289 3.79480e-18
8349.24805 3.84016e-18
8350.44317 4.07160e-18
8351.63828 4.15017e-18
8352.84344 4.15508e-18
8354.03856 3.93289e-18
8355.24372 3.72643e-18
8356.43884 3.77334e-18
8357.64400 3.53854e-18
8358.83911 3.60642e-18
8360.04428 3.61810e-18
8361.23939 3.88219e-18
8362.44455 3.98141e-18
8363.63967 3.90541e-18
8364.84483 3.88645e-18
8366.03995 3.89358e-18
8367.24511 4.12897e-18
8368.44022 4.08270e-18
8369.64538 3.89369e-18
8370.84050 3.78048e-18
8372.04566 3.86154e-18
8373.24078 3.90218e-18
8374.43589 3.91804e-18
8375.64105 3.98267e-18
8376.83617 4.15322e-18
8378.04133 4.16897e-18
8379.23645 4.37264e-18
8380.44161 4.54020e-18
8381.63673 4.55315e-18
8382.84188 4.74293e-18
8384.03700 4.60774e-18
8385.24216 4.49390e-18
8386.43728 4.50186e-18
8387.64244 4.35523e-18
8388.83756 4.33715e-18
8390.04272 4.48762e-18
8391.23783 4.56073e-18
8392.43295 4.62235e-18
8393.63811 4.69126e-18
8394.83323 4.84233e-18
8396.03839 5.18071e-18
8397.23350 5.66638e-18
8398.43866 5.84701e-18
8399.63378 5.62389e-18
8400.83894 5.27595e-18
8402.03406 5.07384e-18
8403.23922 4.86432e-18
8404.43433 4.84622e-18
8405.63949 4.71319e-18
8406.83461 4.72748e-18
8408.03977 4.80643e-18
8409.23489 4.82773e-18
8410.44005 4.94859e-18
8411.63517 5.05267e-18
8412.84033 5.01747e-18
8414.03544 5.31683e-18
8415.24060 5.52599e-18
8416.43572 5.43071e-18
8417.63084 5.21704e-18
8418.83600 5.15826e-18
8420.03111 5.24107e-18
8421.23627 5.34282e-18
8422.43139 5.28857e-18
8423.63655 5.60321e-18
8424.83167 5.78156e-18
8426.03683 6.06843e-18
8427.23194 6.44430e-18
8428.43711 6.85800e-18
8429.63222 6.92011e-18
8430.83738 6.92730e-18
8432.03250 6.41023e-18
8433.22762 5.80397e-18
8434.43278 5.51041e-18
8435.63794 5.53701e-18
8436.83305 5.50605e-18
8438.02817 5.49120e-18
8439.23333 5.68026e-18
8440.42845 5.58479e-18
8441.63361 5.72026e-18
8442.82872 5.81940e-18
8444.03388 5.61505e-18
8445.22900 5.62064e-18
8446.43416 5.74007e-18
8447.62928 5.88008e-18
8448.83444 6.06086e-18
8450.02956 6.29754e-18
8451.23471 6.37441e-18
8452.42983 6.70615e-18
8453.63499 6.59722e-18
8454.83011 6.34019e-18
8456.03527 6.41673e-18
8457.23039 6.17993e-18
8458.42550 6.26572e-18
8459.63066 6.49709e-18
8460.82578 6.67577e-18
8462.03094 6.92053e-18
8463.22606 7.10015e-18
8464.43122 7.26174e-18
8465.62633 7.12716e-18
8466.83149 7.09323e-18
8468.02661 6.87337e-18
8469.23177 6.43512e-18
8470.42689 6.34232e-18
8471.63205 6.43374e-18
8472.82716 6.56413e-18
8474.03233 6.48872e-18
8475.22744 6.49470e-18
8476.43260 6.65027e-18
8477.62772 6.58505e-18
8478.82284 6.65833e-18
8480.02800 6.69145e-18
8481.22311 6.73385e-18
8482.42827 6.63499e-18
8483.62339 6.67049e-18
8484.82855 6.80825e-18
8486.02367 6.80643e-18
8487.22883 6.86894e-18
8488.42394 6.93269e-18
8489.62910 6.82932e-18
8490.82422 7.00960e-18
8492.02938 7.39281e-18
8493.22450 7.32844e-18
8494.42966 7.07771e-18
8495.62478 7.04966e-18
8496.82993 7.11689e-18
8498.02505 6.99945e-18
8499.22017 6.98288e-18
8500.42533 7.12858e-18
8501.62045 7.24552e-18
8502.82561 7.51310e-18
8504.02072 7.92377e-18
8505.22588 7.67798e-18
8506.42100 7.34254e-18
8507.62616 7.12115e-18
8508.82128 6.95452e-18
8510.02644 6.96369e-18
8511.22155 6.86443e-18
8512.42671 6.75853e-18
8513.62183 6.85956e-18
8514.82699 6.91512e-18
8516.02211 6.79214e-18
8517.22727 6.73723e-18
8518.42238 6.84912e-18
8519.61750 6.76534e-18
8520.82266 6.73281e-18
8522.01778 6.81111e-18
8523.22294 6.88083e-18
8524.41806 6.89932e-18
8525.62322 6.86300e-18
8526.81833 7.01322e-18
8528.02349 7.00655e-18
8529.21861 6.91043e-18
8530.42377 6.94950e-18
8531.61889 7.10596e-18
8532.82405 7.09016e-18
8534.01916 7.30615e-18
8535.22432 7.04906e-18
8536.41944 7.26263e-18
8537.62460 7.55362e-18
8538.81972 7.22520e-18
8540.02488 7.05534e-18
8541.21999 7.13798e-18
8542.41511 7.17511e-18
8543.62027 7.23628e-18
8544.81539 7.25527e-18
8546.02055 7.09318e-18
8547.21567 7.26763e-18
8548.42083 7.41869e-18
8549.61594 7.36143e-18
8550.82110 7.06703e-18
8552.01622 7.09276e-18
8553.22138 7.02427e-18
8554.41650 6.91445e-18
8555.62166 7.11127e-18
8556.81677 6.90894e-18
8558.02193 6.90621e-18
8559.21705 6.77738e-18
8560.41217 6.79180e-18
8561.61733 6.99827e-18
8562.82249 6.99622e-18
8564.01761 6.89584e-18
8565.21272 7.00741e-18
8566.41788 6.96394e-18
8567.61300 7.08892e-18
8568.81816 7.05645e-18
8570.01328 7.07693e-18
8571.21844 7.15645e-18
8572.41355 7.34877e-18
8573.61871 7.55158e-18
8574.81383 7.01119e-18
8576.01899 7.22058e-18
8577.21411 7.27824e-18
8578.41927 7.23635e-18
8579.61438 7.47482e-18
8580.81954 7.16555e-18
8582.01466 7.26689e-18
8583.20978 7.49825e-18
8584.41494 7.42851e-18
8585.61006 7.28933e-18
8586.81521 7.65125e-18
8588.01033 7.23884e-18
8589.21549 7.25383e-18
8590.41061 7.23642e-18
8591.61577 7.22396e-18
8592.81089 7.28303e-18
8594.01605 7.28680e-18
8595.21116 7.20882e-18
8596.41632 7.25060e-18
8597.61144 7.44611e-18
8598.81660 7.43136e-18
8600.01172 7.09439e-18
8601.21688 7.11509e-18
8602.41199 7.27939e-18
8603.61715 7.05873e-18
8604.81227 6.99138e-18
8606.00739 7.09236e-18
8607.21255 7.32861e-18
8608.40766 6.99272e-18
8609.61283 7.05260e-18
8610.80794 7.12219e-18
8612.01310 7.23553e-18
8613.20822 7.28178e-18
8614.41338 7.39717e-18
8615.60850 7.28092e-18
8616.81366 7.43005e-18
8618.00877 7.70946e-18
8619.21393 7.46022e-18
8620.40905 7.50837e-18
8621.61421 7.54846e-18
8622.80933 7.61013e-18
8624.00444 7.59083e-18
8625.20960 7.65800e-18
8626.41476 7.70242e-18
8627.60988 7.72615e-18
8628.80500 7.72394e-18
8630.01016 7.81965e-18
8631.20528 7.63026e-18
8632.41043 7.87211e-18
8633.60555 7.82695e-18
8634.81071 7.70188e-18
8636.00583 7.76670e-18
8637.21099 7.63067e-18
8638.40611 7.59891e-18
8639.61127 7.62938e-18
8640.80638 7.69110e-18
8642.01154 7.61133e-18
8643.20666 7.53953e-18
8644.41182 7.62067e-18
8645.60694 7.52224e-18
8646.81210 7.52667e-18
8648.00721 7.72328e-18
8649.20233 7.76642e-18
8650.40749 7.75906e-18
8651.60261 7.76818e-18
8652.80777 7.76588e-18
8654.00288 7.57740e-18
8655.20804 7.69023e-18
8656.40316 7.86390e-18
8657.60832 7.71996e-18
8658.80344 7.69700e-18
8660.00860 7.60938e-18
8661.20372 7.55094e-18
8662.40888 7.49343e-18
8663.60399 7.56790e-18
8664.80915 7.70207e-18
8666.00427 7.52325e-18
8667.20943 7.45456e-18
8668.40455 7.43362e-18
8669.59966 7.31987e-18
8670.80482 7.36157e-18
8671.99994 7.17272e-18
8673.20510 7.06873e-18
8674.40022 7.17210e-18
8675.60538 7.25688e-18
8676.80049 7.17566e-18
8678.00566 6.99615e-18
8679.20077 6.91972e-18
8680.40593 6.93153e-18
8681.60105 6.89039e-18
8682.80621 6.88891e-18
8684.00133 6.92931e-18
8685.20649 6.94976e-18
8686.40160 6.87083e-18
8687.60676 6.83289e-18
8688.80188 6.90081e-18
8689.99700 6.79136e-18
8691.20216 6.68472e-18
8692.39727 6.68674e-18
8693.60243 6.79449e-18
8694.79755 6.90271e-18
8696.00271 6.92796e-18
8697.19783 6.90927e-18
8698.40299 6.77365e-18
8699.59811 6.81802e-18
8700.80326 6.99130e-18
8701.99838 6.92826e-18
8703.20354 6.81907e-18
8704.39866 6.80353e-18
8705.60382 6.78909e-18
8706.79894 6.74219e-18
8708.00410 6.65562e-18
8709.19921 6.68878e-18
8710.39433 6.60366e-18
8711.59949 6.63789e-18
8712.79461 6.65528e-18
8713.99977 6.49664e-18
8715.19488 6.40634e-18
8716.40004 6.55349e-18
8717.59516 6.57178e-18
8718.80032 6.46401e-18
8719.99544 6.54876e-18
8721.20060 6.41290e-18
8722.39571 6.33745e-18
8723.60088 6.39318e-18
8724.79599 6.30741e-18
8726.00115 6.26592e-18
8727.19627 6.17676e-18
8728.40143 6.16160e-18
8729.59655 6.05885e-18
8730.80171 5.96233e-18
8731.99682 6.13021e-18
8733.19194 5.97605e-18
8734.39710 5.78680e-18
8735.59222 5.82958e-18
8736.79738 5.85868e-18
8737.99249 5.74947e-18
8739.19765 5.63196e-18
8740.39277 5.61112e-18
8741.59793 5.69316e-18
8742.79305 5.59574e-18
8743.99821 5.39657e-18
8745.19333 5.39185e-18
8746.39848 5.47055e-18
8747.59360 5.37619e-18
8748.79876 5.18485e-18
8749.99388 5.14428e-18
8751.18900 5.35268e-18
8752.39416 5.40118e-18
8753.58927 5.43581e-18
8754.79443 5.42679e-18
8755.98955 5.47579e-18
8757.19471 5.70390e-18
8758.38983 5.88306e-18
8759.59499 6.27183e-18
8760.79010 6.19299e-18
8761.99526 6.10092e-18
8763.19038 5.95001e-18
8764.39554 6.14184e-18
8765.59066 6.14890e-18
8766.79582 6.30325e-18
8767.99093 6.15040e-18
8769.19609 5.62108e-18
8770.39121 5.35695e-18
8771.59637 5.22654e-18
8772.79149 5.25373e-18
8773.98661 5.59649e-18
8775.19177 5.81590e-18
8776.38688 5.99014e-18
8777.59204 6.02959e-18
8778.78716 5.58861e-18
8779.99232 5.21441e-18
8781.18744 4.90777e-18
8782.39260 4.76958e-18
8783.58771 4.70577e-18
8784.79287 4.55255e-18
8785.98799 4.50051e-18
8787.19315 4.84381e-18
8788.38827 4.85985e-18
8789.59343 4.79444e-18
8790.78854 4.68018e-18
8791.98366 4.67576e-18
8793.18882 4.74383e-18
8794.38394 4.58230e-18
8795.58910 4.48662e-18
8796.78422 4.49262e-18
8797.98938 4.61261e-18
8799.18449 4.58508e-18
8800.38965 4.52683e-18
8801.58477 4.50933e-18
8802.78993 4.59564e-18
8803.98505 4.58049e-18
8805.19021 4.50439e-18
8806.38532 4.60298e-18
8807.59048 4.72216e-18
8808.78560 4.56620e-18
8809.99076 4.60288e-18
8811.18588 4.74409e-18
8812.39104 4.70924e-18
8813.58616 4.67079e-18
8814.78127 4.69019e-18
8815.98643 4.74397e-18
8817.18155 4.75432e-18
8818.38671 4.79146e-18
8819.58183 4.84465e-18
8820.78699 4.94706e-18
8821.98210 5.23245e-18
8823.18726 5.92545e-18
8824.38238 6.54019e-18
8825.58754 7.24986e-18
8826.78266 7.23437e-18
8827.98782 6.86459e-18
8829.18293 6.09179e-18
8830.38809 5.29945e-18
8831.58321 5.23365e-18
8832.78837 5.40085e-18
8833.98349 5.43529e-18
8835.18865 5.58396e-18
8836.38376 5.64591e-18
8837.57888 5.62397e-18
8838.78404 5.17748e-18
8839.97916 4.79091e-18
8841.18432 4.79533e-18
8842.37944 4.85529e-18
8843.58460 4.79614e-18
8844.77971 4.74568e-18
8845.98487 4.67006e-18
8847.17999 4.85729e-18
8848.38515 4.92496e-18
8849.58027 4.96048e-18
8850.78543 4.66689e-18
8851.98054 4.81202e-18
8853.18570 4.74073e-18
8854.38082 4.52690e-18
8855.58598 4.46099e-18
8856.78110 4.70881e-18
8857.97621 4.62611e-18
8859.18138 4.57703e-18
8860.37649 4.60160e-18
8861.58165 4.82320e-18
8862.77677 4.87206e-18
8863.98193 4.90306e-18
8865.17705 5.07236e-18
8866.38221 5.38018e-18
8867.57732 5.47819e-18
8868.78248 5.44560e-18
8869.97760 5.04010e-18
8871.18276 4.74952e-18
8872.37788 4.52910e-18
8873.58304 4.57562e-18
8874.77815 4.61151e-18
8875.98331 4.67657e-18
8877.17843 4.68177e-18
8878.38359 4.62790e-18
8879.57871 4.68420e-18
8880.77383 4.95974e-18
8881.97898 5.13050e-18
8883.17410 5.46276e-18
8884.37926 5.91801e-18
8885.57438 6.16895e-18
8886.77954 5.70422e-18
8887.97466 5.15276e-18
8889.17982 4.69659e-18
8890.37493 4.41779e-18
8891.58009 4.37277e-18
8892.77521 4.29139e-18
8893.98037 4.36729e-18
8895.17549 4.32499e-18
8896.38065 4.18901e-18
8897.57576 4.26068e-18
8898.77088 4.34569e-18
8899.97604 4.57536e-18
8901.17116 4.91177e-18
8902.37632 4.86878e-18
8903.57143 4.80289e-18
8904.77659 4.69713e-18
8905.97171 4.38131e-18
8907.17687 4.27097e-18
8908.37199 4.33100e-18
8909.57715 4.28266e-18
8910.77227 4.31742e-18
8911.97743 4.33640e-18
8913.17254 4.49145e-18
8914.37770 4.63612e-18
8915.57282 4.87779e-18
8916.77798 5.50429e-18
8917.97310 6.02167e-18
8919.17826 6.10144e-18
8920.37337 5.65083e-18
8921.56849 5.08154e-18
8922.77365 4.42817e-18
8923.96877 4.24022e-18
8925.17393 4.08374e-18
8926.36904 3.95556e-18
8927.57421 3.95265e-18
8928.76932 3.96158e-18
8929.97448 3.93629e-18
8931.16960 3.82434e-18
8932.37476 3.83102e-18
8933.56988 3.85895e-18
8934.77504 3.97210e-18
8935.97015 3.94497e-18
8937.17531 3.80092e-18
8938.37043 3.78630e-18
8939.57559 3.96639e-18
8940.77071 4.26879e-18
8941.96582 4.37140e-18
8943.17098 4.22683e-18
8944.36610 4.00919e-18
8945.57126 3.74059e-18
8946.76638 3.65971e-18
8947.97154 3.54269e-18
8949.16666 3.39267e-18
8950.37181 3.44657e-18
8951.56693 3.44495e-18
8952.77209 3.49239e-18
8953.96721 3.75635e-18
8955.17237 4.29417e-18
8956.36749 4.80275e-18
8957.57265 4.79991e-18
8958.76776 4.55266e-18
8959.97292 4.22509e-18
8961.16804 3.67365e-18
8962.36316 3.13785e-18
8963.56832 2.95320e-18
8964.76343 3.14719e-18
8965.96859 3.27856e-18
8967.16371 3.39090e-18
8968.36887 3.47001e-18
8969.56399 3.40471e-18
8970.76915 3.32621e-18
8971.96426 3.31591e-18
8973.16943 3.29512e-18
8974.36454 3.44892e-18
8975.56970 3.72872e-18
8976.76482 3.63899e-18
8977.96998 3.56930e-18
8979.16510 3.58214e-18
8980.37026 3.38982e-18
8981.56537 3.46170e-18
8982.76049 3.57496e-18
8983.96565 3.55409e-18
8985.16077 3.53682e-18
8986.36593 3.51458e-18
8987.56104 3.44488e-18
8988.76620 3.29846e-18
8989.96132 3.17355e-18
8991.16648 3.27862e-18
8992.36160 3.43208e-18
8993.56676 3.51856e-18
8994.76188 3.97380e-18
8995.96703 3.97592e-18
8997.16215 4.32278e-18
8998.36731 4.37612e-18
8999.56243 4.40074e-18
9000.76759 4.23995e-18
9001.96271 4.40090e-18
9003.16787 4.33435e-18
9004.36298 3.93107e-18
9005.55810 3.83488e-18
9006.76326 3.64208e-18
9007.95838 3.71741e-18
9009.16354 3.76947e-18
9010.35865 3.86838e-18
9011.56381 3.92435e-18
9012.75893 3.63720e-18
9013.96409 3.69251e-18
9015.15921 3.56117e-18
9016.36437 3.49843e-18
9017.55948 3.69916e-18
9018.76464 3.75682e-18
9019.95976 3.86732e-18
9021.16492 3.87873e-18
9022.36004 3.83529e-18
9023.55516 3.76082e-18
9024.76032 3.85327e-18
9025.95543 3.67642e-18
9027.16059 3.86960e-18
9028.35571 3.91260e-18
9029.56087 3.87942e-18
9030.75599 4.26299e-18
9031.96115 4.10832e-18
9033.15626 4.20193e-18
9034.36142 4.36759e-18
9035.55654 4.31174e-18
9036.76170 4.58673e-18
9037.95682 4.52045e-18
9039.16198 4.55034e-18
9040.35709 4.41991e-18
9041.56226 3.93745e-18
9042.75737 4.24386e-18
9043.96253 4.25225e-18
9045.15765 4.28815e-18
9046.35277 4.46294e-18
9047.55793 4.41190e-18
9048.75304 4.67468e-18
9049.95820 4.47902e-18
9051.15332 4.39158e-18
9052.35848 4.14964e-18
9053.55360 4.26008e-18
9054.75876 4.30443e-18
9055.95387 4.33871e-18
9057.15903 4.26317e-18
9058.35415 4.16531e-18
9059.55931 3.96135e-18
9060.75443 4.12337e-18
9061.95959 4.13210e-18
9063.15471 4.26554e-18
9064.35986 4.31276e-18
9065.55498 4.20583e-18
9066.75010 4.12965e-18
9067.95526 4.07324e-18
9069.15038 4.00819e-18
9070.35554 3.91207e-18
9071.55065 3.82297e-18
9072.75581 3.76963e-18
9073.95093 4.14524e-18
9075.15609 4.34678e-18
9076.35121 4.23787e-18
9077.55637 4.28910e-18
9078.75148 3.98839e-18
9079.95664 4.04684e-18
9081.15176 4.16448e-18
9082.35692 4.16627e-18
9083.55204 4.35628e-18
9084.75720 4.27483e-18
9085.95231 4.37547e-18
9087.15747 4.22474e-18
9088.35259 4.44901e-18
9089.54771 4.67058e-18
9090.75287 4.79133e-18
9091.94799 4.77203e-18
9093.15315 4.77118e-18
9094.34826 4.81700e-18
9095.55342 4.66956e-18
9096.74854 4.57220e-18
9097.95370 4.64702e-18
9099.14882 4.64560e-18
9100.35398 4.78448e-18
9101.54909 4.89985e-18
9102.75425 4.96516e-18
9103.94937 4.95112e-18
9105.15453 4.82775e-18
9106.34965 4.77545e-18
9107.55481 4.75996e-18
9108.74993 4.99997e-18
9109.95508 5.16235e-18
9111.15020 5.19349e-18
9112.34532 5.36355e-18
9113.55048 5.34767e-18
9114.74560 5.28812e-18
9115.95076 5.08986e-18
9117.14587 4.86371e-18
9118.35103 4.79385e-18
9119.54615 4.93502e-18
9120.75131 5.15192e-18
9121.94643 5.40802e-18
9123.15159 5.37987e-18
9124.34670 5.25101e-18
9125.55186 5.26226e-18
9126.74698 5.17594e-18
9127.95214 5.12641e-18
9129.14726 4.91208e-18
9130.34238 4.80351e-18
9131.54753 4.69821e-18
9132.74265 4.59352e-18
9133.94781 4.72092e-18
9135.14293 4.71864e-18
9136.34809 4.82432e-18
9137.54321 4.75064e-18
9138.74837 5.10407e-18
9139.94348 5.13896e-18
9141.14864 5.37497e-18
9142.34376 5.44895e-18
9143.54892 5.24908e-18
9144.74404 5.25551e-18
9145.94920 5.39879e-18
9147.14431 5.40778e-18
9148.34947 5.03745e-18
9149.54459 4.98834e-18
9150.24841 4.98834e-18
9151.91605 4.78263e-18
9153.57364 4.57714e-18
9155.23123 4.94472e-18
9156.89886 5.31216e-18
9158.55645 5.35209e-18
9160.21404 5.39196e-18
9161.87163 5.29645e-18
9163.53927 5.20086e-18
9165.19686 4.90895e-18
9166.85445 4.61723e-18
9168.51204 4.82529e-18
9170.17967 5.03329e-18
9171.83726 5.04159e-18
9173.49485 5.04988e-18
9175.15244 4.99352e-18
9176.82008 4.93728e-18
9178.47767 5.19865e-18
9180.13526 5.45995e-18
9181.80290 5.53654e-18
9183.46049 5.61307e-18
9185.11808 5.51289e-18
9186.77567 5.41279e-18
9188.44330 5.47677e-18
9190.10089 5.54069e-18
9191.75848 5.46360e-18
9193.42612 5.38646e-18
9195.08371 5.16559e-18
9196.74130 4.94494e-18
9198.39889 5.26340e-18
9200.06652 5.58175e-18
9201.72411 5.59354e-18
9203.38170 5.60522e-18
9205.03929 5.34298e-18
9206.70693 5.08085e-18
9208.36452 5.07393e-18
9210.02211 5.06711e-18
9211.68975 5.28853e-18
9213.34734 5.50982e-18
9215.00493 5.44892e-18
9216.66252 5.38800e-18
9218.33015 5.28837e-18
9219.98774 5.18875e-18
9221.64533 5.08323e-18
9223.31297 4.97777e-18
9224.97056 5.05821e-18
9226.62815 5.13851e-18
9228.28574 4.85029e-18
9229.95337 4.56237e-18
9231.61096 5.02853e-18
9233.26855 5.49457e-18
9234.92614 5.72005e-18
9236.59378 5.94529e-18
9238.25137 5.60524e-18
9239.90896 5.26529e-18
9241.56655 5.09006e-18
9243.23419 4.91504e-18
9244.89178 5.25977e-18
9246.54937 5.60424e-18
9248.21700 5.34714e-18
9249.87459 5.09017e-18
9251.53218 5.10856e-18
9253.18977 5.12691e-18
9254.85741 5.06868e-18
9256.51500 5.01051e-18
9258.17259 5.08048e-18
9259.84022 5.15047e-18
9261.49781 5.27839e-18
9263.15540 5.40622e-18
9264.81299 5.31218e-18
9266.48063 5.21805e-18
9268.13822 4.88761e-18
9269.79581 4.55747e-18
9271.45340 4.93633e-18
9273.12104 5.31496e-18
9274.77863 5.13488e-18
9276.43622 4.95497e-18
9278.10385 5.22760e-18
9279.76144 5.49999e-18
9281.41903 5.23286e-18
9283.07662 4.96586e-18
9284.74426 4.97292e-18
9286.40185 4.98002e-18
9288.05944 5.10579e-18
9289.71703 5.23135e-18
9291.38466 4.81717e-18
9293.04225 4.40322e-18
9294.69984 4.52660e-18
9296.36748 4.65001e-18
9298.02507 4.82981e-18
9299.68266 5.00952e-18
9301.34025 5.01900e-18
9303.00789 5.02845e-18
9304.66548 4.99929e-18
9306.32307 4.97006e-18
9307.99070 4.77175e-18
9309.64829 4.57347e-18
9311.30588 4.48034e-18
9312.96347 4.38730e-18
9314.63111 4.47562e-18
9316.28870 4.56380e-18
9317.94629 4.28218e-18
9319.60388 4.00054e-18
9321.27151 3.62302e-18
9322.92910 3.24584e-18
9324.58669 3.64848e-18
9326.25433 4.05097e-18
9327.91192 4.10650e-18
9329.56951 4.16206e-18
9331.22710 4.29274e-18
9332.89474 4.42327e-18
9334.55233 4.20270e-18
9336.20992 3.98226e-18
9337.87755 4.05959e-18
9339.53514 4.13690e-18
9341.19273 4.18073e-18
9342.85032 4.22466e-18
9344.51796 4.45902e-18
9346.17555 4.69331e-18
9347.83314 4.74938e-18
9349.49073 4.80518e-18
9351.15836 4.21297e-18
9352.81595 3.62100e-18
9354.47354 3.51677e-18
9356.13113 3.41283e-18
9357.79877 3.97073e-18
9359.45636 4.52837e-18
9361.11395 4.47615e-18
9362.78159 4.42406e-18
9364.43918 4.67139e-18
9366.09677 4.91859e-18
9367.75436 4.91837e-18
9369.42199 4.91813e-18
9371.07958 4.88098e-18
9372.73717 4.84356e-18
9374.40481 4.13126e-18
9376.06240 3.41929e-18
9377.71999 3.43766e-18
9379.37758 3.45615e-18
9381.04521 3.75310e-18
9382.70280 4.04993e-18
9384.36039 4.06448e-18
9386.01798 4.07903e-18
9387.68562 4.08150e-18
9389.34321 4.08395e-18
9391.00080 4.06788e-18
9392.66844 4.05191e-18
9394.32603 4.23912e-18
9395.98362 4.42617e-18
9397.64121 4.23438e-18
9399.30884 4.04267e-18
9400.96643 4.05424e-18
9402.62402 4.06583e-18
9404.28161 4.11977e-18
9405.94925 4.17364e-18
9407.60684 4.06556e-18
9409.26443 3.95762e-18
9410.93206 4.17206e-18
9412.58965 4.38642e-18
9414.24724 4.42678e-18
9415.90483 4.46706e-18
9417.57247 4.29733e-18
9419.23006 4.12768e-18
9420.88765 4.07887e-18
9422.54524 4.03001e-18
9424.21288 3.85454e-18
9425.87047 3.67935e-18
9427.52806 4.15589e-18
9429.19569 4.63208e-18
9430.85328 4.34314e-18
9432.51087 4.05427e-18
9434.16846 3.96217e-18
9435.83610 3.86989e-18
9437.49369 3.36214e-18
9439.15128 2.85453e-18
9440.80887 2.66679e-18
9442.47650 2.47950e-18
9444.13409 3.31252e-18
9445.79168 4.14517e-18
9447.45932 4.12996e-18
9449.11691 4.11479e-18
9450.77450 4.21771e-18
9452.43209 4.32048e-18
9454.09973 4.07163e-18
9455.75732 3.82278e-18
9457.41491 3.51741e-18
9459.07250 3.21223e-18
9460.74013 3.29461e-18
9462.39772 3.37707e-18
9464.05531 3.66920e-18
9465.72295 3.96103e-18
9467.38054 3.57052e-18
9469.03813 3.18031e-18
9470.69572 3.46458e-18
9472.36335 3.74887e-18
9474.02094 4.06932e-18
9475.67853 4.38971e-18
9477.34617 4.55423e-18
9479.00376 4.71859e-18
9480.66135 4.54051e-18
9482.31894 4.36251e-18
9483.98658 4.36668e-18
9485.64417 4.37074e-18
9487.30176 4.07550e-18
9488.95935 3.78038e-18
9490.62698 3.74948e-18
9492.28457 3.71857e-18
9493.94216 3.62233e-18
9495.60980 3.52634e-18
9497.26739 3.99588e-18
9498.92498 4.46515e-18
9500.58257 4.25778e-18
9502.25020 4.05052e-18
9503.90779 4.11208e-18
9505.56538 4.17366e-18
9507.23302 4.27076e-18
9508.89061 4.36769e-18
9510.54820 4.05625e-18
9512.20579 3.74488e-18
9513.87343 3.61082e-18
9515.53102 3.47678e-18
9517.18861 3.40945e-18
9518.84620 3.34234e-18
9520.51383 3.76908e-18
9522.17142 4.19550e-18
9523.82901 3.93622e-18
9525.49665 3.67712e-18
9527.15424 3.77485e-18
9528.81183 3.87248e-18
9530.46942 3.72598e-18
9532.13705 3.57963e-18
9533.79464 3.75084e-18
9535.45223 3.92198e-18
9537.10982 3.96200e-18
9538.77746 4.00204e-18
9540.43505 4.09714e-18
9542.09264 4.19218e-18
9543.76028 4.14736e-18
9545.41787 4.10241e-18
9547.07546 3.77350e-18
9548.73305 3.44467e-18
9550.40068 3.27682e-18
9552.05827 3.10940e-18
9553.71586 3.92113e-18
9555.37345 4.73233e-18
9557.04109 4.36199e-18
9558.69868 3.99177e-18
9560.35627 3.93876e-18
9562.02390 3.88585e-18
9563.68149 4.04394e-18
9565.33908 4.20187e-18
9566.99667 3.98372e-18
9568.66431 3.76568e-18
9570.32190 3.79714e-18
9571.97949 3.82865e-18
9573.64713 3.92566e-18
9575.30472 4.02248e-18
9576.96231 3.71757e-18
9578.61990 3.41279e-18
9580.28753 3.41231e-18
9581.94512 3.41189e-18
9583.60271 3.52027e-18
9585.27035 3.62855e-18
9586.92794 3.49288e-18
9588.58553 3.35725e-18
9590.24312 3.30831e-18
9591.91075 3.25953e-18
9593.56834 3.56683e-18
9595.22593 3.87392e-18
9596.88352 3.73130e-18
9598.55116 3.58885e-18
9600.20875 3.84121e-18
9601.86634 4.09346e-18
9603.52393 4.08682e-18
9605.19157 4.08026e-18
9606.84916 4.25491e-18
9608.50675 4.42927e-18
9610.17438 3.96968e-18
9611.83197 3.51029e-18
9613.48956 3.49312e-18
9615.14715 3.47593e-18
9616.81479 3.43821e-18
9618.47238 3.40054e-18
9620.12997 3.46358e-18
9621.79760 3.52663e-18
9623.45519 3.60709e-18
9625.11278 3.68755e-18
9626.77037 3.76429e-18
9628.43801 3.84104e-18
9630.09560 3.94211e-18
9631.75319 4.04312e-18
9633.41078 4.03303e-18
9635.07842 4.02303e-18
9636.73601 4.23773e-18
9638.39360 4.45220e-18
9640.06123 4.19252e-18
9641.71882 3.93299e-18
9643.37641 4.02285e-18
9645.03400 4.11250e-18
9646.70164 3.75283e-18
9648.35923 3.39344e-18
9650.01682 3.62791e-18
9651.67441 3.86226e-18
9653.34204 3.83049e-18
9654.99963 3.79861e-18
9656.65722 3.53447e-18
9658.31481 3.27051e-18
9659.98245 3.38013e-18
9661.64004 3.48987e-18
9663.29763 3.86293e-18
9664.96527 4.23561e-18
9666.62286 3.73018e-18
9668.28045 3.22511e-18
9669.93804 3.49033e-18
9671.60567 3.75555e-18
9673.26326 4.02681e-18
9674.92085 4.29797e-18
9676.58849 4.36859e-18
9678.24608 4.43909e-18
9679.90367 4.24254e-18
9681.56126 4.04629e-18
9683.22889 4.46846e-18
9684.88648 4.89030e-18
9686.54407 4.56010e-18
9688.20166 4.22984e-18
9689.86930 3.76661e-18
9691.52689 3.30382e-18
9693.18448 3.74545e-18
9694.85212 4.18691e-18
9696.50971 4.24424e-18
9698.16730 4.30168e-18
9699.82489 4.61351e-18
9701.49252 4.92479e-18
9703.15011 4.03376e-18
9704.80770 3.14322e-18
9706.46529 3.33800e-18
9708.13293 3.53273e-18
9709.79052 3.61447e-18
9711.44811 3.69602e-18
9713.11574 3.30597e-18
9714.77333 2.91627e-18
9716.43092 3.31291e-18
9718.08851 3.70954e-18
9719.75615 4.07052e-18
9721.41374 4.43118e-18
9723.07133 4.08249e-18
9724.73897 3.73402e-18
9726.39656 3.80826e-18
9728.05415 3.88252e-18
9729.71174 3.99768e-18
9731.37937 4.11267e-18
9733.03696 3.88187e-18
9734.69455 3.65121e-18
9736.35214 3.75165e-18
9738.01978 3.85209e-18
9739.67737 4.01887e-18
9741.33496 4.18557e-18
9743.00259 4.18278e-18
9744.66018 4.17991e-18
9746.31777 3.96517e-18
9747.97536 3.75044e-18
9749.64300 3.56749e-18
9751.30059 3.38479e-18
9752.95818 3.75831e-18
9754.62582 4.13150e-18
9756.28341 3.83236e-18
9757.94100 3.53341e-18
9759.59859 3.67411e-18
9761.26622 3.81477e-18
9762.92381 3.91887e-18
9764.58140 4.02289e-18
9766.23899 3.95641e-18
9767.90663 3.89006e-18
9769.56422 4.06809e-18
9771.22181 4.24598e-18
9772.87940 4.10482e-18
9774.54703 3.96364e-18
9776.20462 3.74515e-18
9777.86221 3.52668e-18
9779.52985 3.34242e-18
9781.18744 3.15841e-18
9782.84503 3.48880e-18
9784.50262 3.81903e-18
9786.17026 3.74225e-18
9787.82785 3.66594e-18
9789.48544 4.57356e-18
9791.15307 5.48054e-18
9792.81066 5.02241e-18
9794.46825 4.56440e-18
9796.12584 4.33174e-18
9797.79348 4.09924e-18
9799.45107 4.23832e-18
9801.10866 4.37697e-18
9802.76625 3.59243e-18
9804.43388 2.80815e-18
9806.09147 2.55074e-18
9807.74906 2.29375e-18
9809.41670 2.89350e-18
9811.07429 3.49303e-18
9812.73188 3.61773e-18
9814.38947 3.74241e-18
9816.05711 3.87012e-18
9817.71470 3.99771e-18
9819.37229 3.89936e-18
9821.03992 3.80092e-18
9822.69751 3.50045e-18
9824.35510 3.20033e-18
9826.01269 3.64482e-18
9827.68033 4.08900e-18
9829.33792 3.84407e-18
9830.99551 3.59932e-18
9832.65310 3.73526e-18
9834.32073 3.87108e-18
9835.97832 3.76115e-18
9837.63591 3.65117e-18
9839.30355 3.41825e-18
9840.96114 3.18566e-18
9842.61873 3.62769e-18
9844.27632 4.06973e-18
9845.94396 4.53440e-18
9847.60155 4.99874e-18
9849.25914 4.78514e-18
9850.91673 4.57153e-18
9852.58436 4.35493e-18
9854.24195 4.13832e-18
9855.89954 3.94641e-18
9857.56718 3.75459e-18
9859.22477 3.72288e-18
9860.88236 3.69120e-18
9862.53995 3.68182e-18
9864.20758 3.67278e-18
9865.86517 4.39322e-18
9867.52276 5.11326e-18
9869.18035 4.92752e-18
9870.84799 4.74195e-18
9872.50558 4.91115e-18
9874.16317 5.08048e-18
9875.83081 5.54235e-18
9877.48840 6.00362e-18
9879.14599 5.21966e-18
9880.80358 4.43574e-18
9882.47121 3.68323e-18
9884.12880 2.93138e-18
9885.78639 3.54057e-18
9887.44398 4.14964e-18
9889.11162 4.47419e-18
9890.76921 4.79863e-18
9892.42680 4.89754e-18
9894.09443 4.99649e-18
9895.75202 5.14703e-18
9897.40961 5.29753e-18
9899.06720 5.37776e-18
9900.73484 5.45750e-18
9902.39243 4.50800e-18
9904.05002 3.55890e-18
9905.70761 3.46712e-18
9907.37525 3.37530e-18
9909.03284 3.23162e-18
9910.69043 3.08801e-18
9912.35806 3.12518e-18
9914.01565 3.16258e-18
9915.67324 3.69555e-18
9917.33083 4.22817e-18
9918.99847 4.04389e-18
9920.65606 3.85975e-18
9922.31365 3.94304e-18
9923.98128 4.02637e-18
9925.63887 4.13235e-18
9927.29646 4.23838e-18
9928.95405 4.43985e-18
9930.62169 4.64081e-18
9932.27928 3.71298e-18
9933.93687 2.78548e-18
9935.59446 2.52464e-18
9937.26210 2.26436e-18
9938.91969 3.13991e-18
9940.57728 4.01519e-18
9942.23487 4.37393e-18
9943.90250 4.73249e-18
9945.56009 4.73506e-18
9947.21768 4.73734e-18
9948.88532 4.08241e-18
9950.54291 3.42814e-18
9952.20050 4.18366e-18
9953.85809 4.93881e-18
9955.52572 4.92714e-18
9957.18331 4.91523e-18
9958.84090 4.38693e-18
9960.50854 3.85880e-18
9962.16613 3.62845e-18
9963.82372 3.39818e-18
9965.48131 3.26640e-18
9967.14895 3.13454e-18
9968.80654 2.81654e-18
9970.46413 2.49864e-18
9972.12172 2.34674e-18
9973.78935 2.19493e-18
9975.44694 2.21538e-18
9977.10453 2.23614e-18
9978.77217 2.86006e-18
9980.42976 3.48366e-18
9982.08735 3.45167e-18
9983.74494 3.41981e-18
9985.41257 3.65530e-18
9987.07016 3.89084e-18
9988.72775 4.25858e-18
9990.39539 4.62609e-18
9992.05298 4.50408e-18
9993.71057 4.38191e-18
9995.36816 3.94416e-18
9997.03580 3.50626e-18
9998.69339 2.71241e-18
