# wavelength flux
3200.18460 3.63109e-18
3202.94695 -3.71988e-18
3205.71934 -6.26647e-18
3208.48169 1.28530e-17
3211.24404 -4.72578e-18
3214.00638 4.03614e-17
3216.76873 -1.98856e-18
3219.53108 1.18963e-17
3222.29343 -2.75149e-18
3225.05577 2.70863e-18
3227.82817 1.48400e-17
3230.59051 1.06464e-17
3233.35286 4.27774e-18
3236.11521 -2.60717e-18
3238.87756 7.39763e-18
3241.63990 2.94933e-18
3244.40225 9.62395e-18
3247.17464 -1.57989e-17
3249.93699 1.22263e-17
3252.69934 9.10727e-18
3255.46169 7.67258e-18
3258.22403 -3.47139e-18
3260.98638 2.07695e-18
3263.74873 9.73365e-18
3266.51108 7.89135e-18
3269.28347 1.43391e-17
3272.04582 3.29829e-17
3274.80816 -6.18700e-18
3277.57051 4.25906e-18
3280.33286 2.28940e-20
3283.09521 -8.68283e-19
3285.85755 9.60787e-19
3288.61990 5.87698e-18
3291.39229 4.48767e-18
3294.15464 2.81081e-18
3296.91699 7.87955e-20
3299.67934 9.28485e-18
3302.44168 -2.88784e-18
3305.20403 2.62367e-18
3307.96638 3.58128e-18
3310.73877 7.77727e-18
3313.50112 2.94078e-19
3316.26347 3.38876e-19
3319.02581 4.31512e-18
3321.78816 4.94583e-18
3324.55051 1.23740e-17
3327.31286 9.09608e-18
3330.07520 6.37916e-19
3332.84760 -5.68247e-18
3335.60994 1.30020e-17
3338.37229 4.93522e-18
3341.13464 1.45963e-17
3343.89699 1.11280e-17
3346.65933 5.81680e-18
3349.42168 5.50946e-18
3352.19407 6.93511e-18
3354.95642 9.58031e-18
3357.71877 7.09877e-18
3360.48112 7.99469e-18
3363.24346 1.27519e-17
3366.00581 6.50602e-18
3368.76816 1.98308e-18
3371.53051 5.97619e-18
3374.30290 3.69853e-18
3377.06525 9.51872e-18
3379.82759 6.94407e-18
3382.58994 3.80684e-18
3385.35229 1.02881e-17
3388.11464 4.10709e-18
3390.87698 1.28890e-17
3393.63933 1.07850e-17
3396.41172 7.20773e-18
3399.17407 1.19247e-17
3401.93642 1.22036e-17
3404.69877 1.14158e-17
3407.46111 5.69870e-18
3410.22346 5.58115e-18
3412.98581 8.78353e-18
3415.75820 1.75312e-17
3418.52055 1.10153e-17
3421.28290 1.55068e-17
3424.04524 8.83724e-18
3426.80759 9.61477e-18
3429.56994 9.61349e-18
3432.33229 1.21482e-17
3435.09463 1.30833e-17
3437.86703 1.03803e-17
3440.62937 7.60858e-18
3443.39172 1.32204e-17
3446.15407 7.62779e-18
3448.91642 4.50836e-18
3451.67876 1.02883e-17
3454.44111 1.42461e-17
3457.21350 9.68202e-18
3459.97585 1.13934e-17
3462.73820 1.35652e-17
3465.50054 6.61551e-18
3468.26289 1.14509e-17
3471.02524 1.26943e-17
3473.78759 6.60376e-18
3476.54993 8.71728e-18
3479.32233 9.96517e-18
3482.08467 1.24137e-17
3484.84702 9.67882e-18
3487.60937 1.00437e-17
3490.37172 9.80019e-18
3493.13406 1.18623e-17
3495.89641 9.52934e-18
3498.65876 1.03729e-17
3501.43115 8.44741e-18
3504.19350 8.60988e-18
3506.95585 1.18978e-17
3509.71819 9.41498e-18
3512.48054 8.34248e-18
3515.24289 5.40537e-18
3518.00524 1.37719e-17
3520.77763 8.17404e-18
3523.53998 5.54927e-18
3526.30232 9.62379e-18
3529.06467 8.04712e-18
3531.82702 7.61927e-18
3534.58937 8.73466e-18
3537.35171 9.84279e-18
3540.11406 7.38271e-18
3542.88645 6.66526e-18
3545.64880 9.07829e-18
3548.41115 8.20093e-18
3551.17350 9.03827e-18
3553.93584 8.53780e-18
3556.69819 7.43059e-18
3559.46054 7.53071e-18
3562.23293 7.63512e-18
3564.99528 7.81346e-18
3567.75763 7.69840e-18
3570.51997 7.24201e-18
3573.28232 6.83817e-18
3576.04467 9.25096e-18
3578.80702 7.06870e-18
3581.56936 9.85312e-18
3584.34176 7.59965e-18
3587.10410 7.16920e-18
3589.86645 5.93631e-18
3592.62880 5.39976e-18
3595.39115 5.76114e-18
3598.15349 8.17095e-18
3600.91584 5.02330e-18
3603.68823 7.70029e-18
3606.45058 6.13332e-18
3609.21293 7.29047e-18
3611.97528 6.25437e-18
3614.73762 7.83050e-18
3617.49997 7.13367e-18
3620.26232 5.62980e-18
3623.02467 4.90807e-18
3625.79706 8.02336e-18
3628.55941 6.83963e-18
3631.32175 5.32190e-18
3634.08410 6.78007e-18
3636.84645 3.99345e-18
3639.60880 6.05159e-18
3642.37114 7.37426e-18
3645.13349 4.42013e-18
3647.90588 6.19372e-18
3650.66823 5.29507e-18
3653.43058 6.48294e-18
3656.19293 5.67321e-18
3658.95527 5.96464e-18
3661.71762 7.41977e-18
3664.47997 5.79202e-18
3667.25236 6.09030e-18
3670.01471 6.36762e-18
3672.77706 6.17931e-18
3675.53940 6.92400e-18
3678.30175 6.29676e-18
3681.06410 5.08887e-18
3683.82645 5.40984e-18
3686.58879 4.88570e-18
3689.36119 6.11788e-18
3692.12353 5.97720e-18
3694.88588 5.95283e-18
3697.64823 5.08503e-18
3700.41058 5.01903e-18
3703.17292 6.29236e-18
3705.93527 6.38994e-18
3708.70766 4.90451e-18
3711.47001 5.52665e-18
3714.23236 5.53844e-18
3716.99471 6.00981e-18
3719.75705 6.39651e-18
3722.51940 5.89215e-18
3725.28175 5.96933e-18
3728.04410 5.61100e-18
3730.81649 4.83440e-18
3733.57884 4.72190e-18
3736.34118 6.22698e-18
3739.10353 5.14478e-18
3741.86588 4.63716e-18
3744.62823 3.44928e-18
3747.39057 4.09600e-18
3750.16297 5.52326e-18
3752.92531 4.31510e-18
3755.68766 4.50294e-18
3758.45001 6.25374e-18
3761.21236 5.95858e-18
3763.97470 6.14853e-18
3766.73705 6.43339e-18
3769.49940 7.02803e-18
3772.27179 7.68665e-18
3775.03414 6.99163e-18
3777.79649 7.20724e-18
3780.55883 7.55398e-18
3783.32118 6.96339e-18
3786.08353 7.42290e-18
3788.84588 8.03692e-18
3791.61827 8.37975e-18
3794.38062 7.40126e-18
3797.14296 8.67755e-18
3799.90531 7.19228e-18
3802.66766 8.97235e-18
3805.43001 8.35286e-18
3808.19235 8.68212e-18
3810.95470 9.10519e-18
3813.72709 8.89203e-18
3816.48944 9.75950e-18
3819.25179 1.01105e-17
3822.01414 1.13614e-17
3824.77648 1.02535e-17
3827.53883 1.10454e-17
3830.30118 1.16066e-17
3833.06353 1.20708e-17
3835.83592 1.19726e-17
3838.59827 1.28402e-17
3841.36061 1.27426e-17
3844.12296 1.18580e-17
3846.88531 1.59621e-17
3849.64766 1.37158e-17
3852.41000 1.38548e-17
3855.18240 1.46841e-17
3857.94474 1.47563e-17
3860.70709 1.46354e-17
3863.46944 1.55222e-17
3866.23179 1.62661e-17
3868.99413 1.52791e-17
3871.75648 1.55886e-17
3874.51883 1.63106e-17
3877.29122 1.66814e-17
3880.05357 1.70507e-17
3882.81592 1.70299e-17
3885.57826 1.74435e-17
3888.34061 1.87804e-17
3891.10296 1.78110e-17
3893.86531 1.90101e-17
3896.63770 1.95737e-17
3899.40005 1.85895e-17
3902.16239 2.00490e-17
3904.92474 1.85572e-17
3907.68709 1.93245e-17
3910.44944 1.91458e-17
3913.21178 2.03010e-17
3915.97413 2.08429e-17
3918.74652 2.01239e-17
3921.50887 2.10968e-17
3924.27122 2.12803e-17
3927.03357 2.05451e-17
3929.79591 2.08204e-17
3932.55826 2.09648e-17
3935.32061 2.17144e-17
3938.08296 2.10571e-17
3940.85535 2.08958e-17
3943.61770 2.19949e-17
3946.38004 2.18114e-17
3949.14239 2.15552e-17
3951.90474 2.10212e-17
3954.66709 2.13228e-17
3957.42943 2.11436e-17
3960.20183 2.21121e-17
3962.96417 2.33081e-17
3965.72652 2.04088e-17
3968.48887 2.13828e-17
3971.25122 2.13607e-17
3974.01356 2.12142e-17
3976.77591 2.08148e-17
3979.53826 2.00333e-17
3982.31065 2.05929e-17
3985.07300 2.06812e-17
3987.83534 1.89791e-17
3990.59769 1.91752e-17
3993.36004 1.96364e-17
3996.12239 1.92011e-17
3998.88473 1.82352e-17
4001.65713 1.89547e-17
4004.41947 1.75559e-17
4007.18182 1.88879e-17
4009.94417 1.79733e-17
4012.70652 1.92437e-17
4015.46886 1.88478e-17
4018.23121 1.85001e-17
4020.99356 1.80585e-17
4023.76595 1.70824e-17
4026.52830 1.72439e-17
4029.29065 1.70804e-17
4032.05299 1.73251e-17
4034.81534 1.64088e-17
4037.57769 1.66290e-17
4040.34004 1.69293e-17
4043.11243 1.58303e-17
4045.87478 1.62039e-17
4048.63712 1.63611e-17
4051.39947 1.58915e-17
4054.16182 1.61282e-17
4056.92417 1.71177e-17
4059.68651 1.58068e-17
4062.44886 1.65979e-17
4065.22125 1.59071e-17
4067.98360 1.56317e-17
4070.74595 1.55575e-17
4073.50830 1.58549e-17
4076.27064 1.57277e-17
4079.03299 1.54614e-17
4081.79534 1.45224e-17
4084.55769 1.52365e-17
4087.33008 1.55749e-17
4090.09243 1.51541e-17
4092.85477 1.49831e-17
4095.61712 1.56169e-17
4098.37947 1.56477e-17
4101.14182 1.48596e-17
4103.90416 1.46620e-17
4106.67656 1.50549e-17
4109.43890 1.41213e-17
4112.20125 1.43447e-17
4114.96360 1.53871e-17
4117.72595 1.41344e-17
4120.48829 1.54341e-17
4123.25064 1.49352e-17
4126.01299 1.48112e-17
4128.78538 1.46042e-17
4131.54773 1.48426e-17
4134.31008 1.47284e-17
4137.07242 1.52236e-17
4139.83477 1.45562e-17
4142.59712 1.40847e-17
4145.35947 1.42478e-17
4148.12181 1.54925e-17
4150.89421 1.51083e-17
4153.65655 1.52907e-17
4156.41890 1.45449e-17
4159.18125 1.42436e-17
4161.94360 1.41355e-17
4164.70594 1.45341e-17
4167.46829 1.45822e-17
4170.24068 1.44379e-17
4173.00303 1.52957e-17
4175.76538 1.54098e-17
4178.52773 1.53432e-17
4181.29007 1.46477e-17
4184.05242 1.50728e-17
4186.81477 1.54154e-17
4189.57712 1.50440e-17
4192.34951 1.52615e-17
4195.11186 1.50375e-17
4197.87420 1.45125e-17
4200.63655 1.50901e-17
4203.39890 1.49014e-17
4206.16125 1.47732e-17
4208.92359 1.40248e-17
4211.69599 1.48466e-17
4214.45833 1.48727e-17
4217.22068 1.44328e-17
4219.98303 1.49849e-17
4222.74538 1.40299e-17
4225.50772 1.44857e-17
4228.27007 1.35167e-17
4231.03242 1.44996e-17
4233.80481 1.44260e-17
4236.56716 1.39708e-17
4239.32951 1.39778e-17
4242.09185 1.33923e-17
4244.85420 1.42762e-17
4247.61655 1.36022e-17
4250.37890 1.30602e-17
4253.15129 1.35068e-17
4255.91364 1.36643e-17
4258.67598 1.25418e-17
4261.43833 1.27734e-17
4264.20068 1.37805e-17
4266.96303 1.40857e-17
4269.72537 1.33771e-17
4272.49777 1.29075e-17
4275.26011 1.30688e-17
4278.02246 1.35702e-17
4280.78481 1.26485e-17
4283.54716 1.32293e-17
4286.30950 1.30083e-17
4289.07185 1.39648e-17
4291.83420 1.36599e-17
4294.60659 1.34351e-17
4297.36894 1.23803e-17
4300.13129 1.23673e-17
4302.89363 1.27258e-17
4305.65598 1.29323e-17
4308.41833 1.24154e-17
4311.18068 1.29022e-17
4313.94302 1.30143e-17
4316.71542 1.27227e-17
4319.47776 1.25575e-17
4322.24011 1.27947e-17
4325.00246 1.25873e-17
4327.76481 1.23169e-17
4330.52715 1.23381e-17
4333.28950 1.26773e-17
4336.06189 1.16467e-17
4338.82424 1.19457e-17
4341.58659 1.17019e-17
4344.34894 1.16402e-17
4347.11128 1.16189e-17
4349.87363 1.17246e-17
4352.63598 1.18325e-17
4355.39833 1.13105e-17
4358.17072 1.17428e-17
4360.93307 1.09891e-17
4363.69541 1.14835e-17
4366.45776 1.18125e-17
4369.22011 1.09310e-17
4371.98246 1.15609e-17
4374.74480 1.04505e-17
4377.50715 1.15456e-17
4380.27954 1.21471e-17
4383.04189 1.22757e-17
4385.80424 1.16386e-17
4388.56659 1.19379e-17
4391.32893 1.21949e-17
4394.09128 1.19365e-17
4396.85363 1.23327e-17
4399.62602 1.22743e-17
4402.38837 1.18042e-17
4405.15072 1.24403e-17
4407.91306 1.19584e-17
4410.67541 1.31380e-17
4413.43776 1.32941e-17
4416.20011 1.32161e-17
4418.96245 1.29658e-17
4421.73485 1.28686e-17
4424.49719 1.37318e-17
4427.25954 1.30082e-17
4430.02189 1.30174e-17
4432.78424 1.36673e-17
4435.54658 1.33761e-17
4438.30893 1.40284e-17
4441.08132 1.45690e-17
4443.84367 1.43580e-17
4446.60602 1.52024e-17
4449.36837 1.50235e-17
4452.13071 1.49559e-17
4454.89306 1.50885e-17
4457.65541 1.49938e-17
4460.41776 1.58793e-17
4463.19015 1.62217e-17
4465.95250 1.61433e-17
4468.71484 1.64422e-17
4471.47719 1.65189e-17
4474.23954 1.65957e-17
4477.00189 1.67762e-17
4479.76423 1.72021e-17
4482.53663 1.72720e-17
4485.29897 1.74882e-17
4488.06132 1.82567e-17
4490.82367 1.88581e-17
4493.58602 1.88088e-17
4496.34836 1.86526e-17
4499.11071 1.92380e-17
4501.87306 1.94261e-17
4504.64545 1.94719e-17
4507.40780 1.95256e-17
4510.17014 1.99674e-17
4512.93249 1.97792e-17
4515.69484 2.06431e-17
4518.45719 2.16780e-17
4521.21953 2.10782e-17
4523.98188 2.18481e-17
4526.75427 2.15026e-17
4529.51662 2.15797e-17
4532.27897 2.19089e-17
4535.04132 2.24372e-17
4537.80366 2.19917e-17
4540.56601 2.19121e-17
4543.32836 2.28450e-17
4546.10075 2.32332e-17
4548.86310 2.28761e-17
4551.62545 2.31093e-17
4554.38779 2.26417e-17
4557.15014 2.29223e-17
4559.91249 2.31948e-17
4562.67484 2.28783e-17
4565.43718 2.37265e-17
4568.20958 2.30890e-17
4570.97192 2.34501e-17
4573.73427 2.33284e-17
4576.49662 2.38913e-17
4579.25897 2.38094e-17
4582.02131 2.38687e-17
4584.78366 2.33906e-17
4587.54601 2.35315e-17
4590.31840 2.33732e-17
4593.08075 2.32699e-17
4595.84310 2.27271e-17
4598.60544 2.30430e-17
4601.36779 2.31985e-17
4604.13014 2.26232e-17
4606.89249 2.20134e-17
4609.66488 2.19776e-17
4612.42723 2.25910e-17
4615.18957 2.22077e-17
4617.95192 2.16034e-17
4620.71427 2.18372e-17
4623.47662 2.11236e-17
4626.23896 2.15135e-17
4629.00131 2.15815e-17
4631.77370 2.12449e-17
4634.53605 2.06922e-17
4637.29840 2.00937e-17
4640.06075 2.00403e-17
4642.82309 2.00488e-17
4645.58544 1.91269e-17
4648.34779 1.92252e-17
4651.12018 1.92844e-17
4653.88253 1.86744e-17
4656.64488 1.80558e-17
4659.40722 1.78390e-17
4662.16957 1.75441e-17
4664.93192 1.74215e-17
4667.69427 1.79874e-17
4670.45661 1.69041e-17
4673.22901 1.58161e-17
4675.99135 1.67888e-17
4678.75370 1.69044e-17
4681.51605 1.57105e-17
4684.27840 1.58501e-17
4687.04074 1.59776e-17
4689.80309 1.47534e-17
4692.57548 1.53825e-17
4695.33783 1.48213e-17
4698.10018 1.51325e-17
4700.86253 1.45798e-17
4703.62487 1.44405e-17
4706.38722 1.42378e-17
4709.14957 1.40932e-17
4711.91192 1.39390e-17
4714.68431 1.29904e-17
4717.44666 1.31699e-17
4720.20900 1.33537e-17
4722.97135 1.28743e-17
4725.73370 1.35053e-17
4728.49605 1.35186e-17
4731.25839 1.30157e-17
4734.03079 1.31362e-17
4736.79313 1.26864e-17
4739.55548 1.22571e-17
4742.31783 1.24196e-17
4745.08018 1.22248e-17
4747.84252 1.19340e-17
4750.60487 1.20507e-17
4753.36722 1.18702e-17
4756.13961 1.12237e-17
4758.90196 1.13947e-17
4761.66431 1.15880e-17
4764.42665 1.11768e-17
4767.18900 1.19519e-17
4769.95135 1.09437e-17
4772.71370 1.09901e-17
4775.47604 1.11075e-17
4778.24844 1.12350e-17
4781.01078 1.12376e-17
4783.77313 1.14544e-17
4786.53548 1.10014e-17
4789.29783 1.12310e-17
4792.06017 1.19141e-17
4794.82252 1.14231e-17
4797.59491 1.09951e-17
4800.35726 1.11944e-17
4803.11961 1.13993e-17
4805.88196 1.18984e-17
4808.64430 1.18024e-17
4811.40665 1.16576e-17
4814.16900 1.10561e-17
4816.93135 1.19646e-17
4819.70374 1.18314e-17
4822.46609 1.17776e-17
4825.22843 1.23625e-17
4827.99078 1.17028e-17
4830.75313 1.15588e-17
4833.51548 1.13368e-17
4836.27782 1.16013e-17
4839.05022 1.17649e-17
4841.81256 1.22678e-17
4844.57491 1.21760e-17
4847.33726 1.17640e-17
4850.09961 1.17892e-17
4852.86195 1.17320e-17
4855.62430 1.12427e-17
4858.38665 1.13217e-17
4861.15904 1.12345e-17
4863.92139 1.14989e-17
4866.68374 1.15785e-17
4869.44608 1.12464e-17
4872.20843 1.12117e-17
4874.97078 1.14230e-17
4877.73313 1.12281e-17
4880.50552 1.15680e-17
4883.26787 1.13414e-17
4886.03021 1.11263e-17
4888.79256 1.13421e-17
4891.55491 1.11135e-17
4894.31726 1.00919e-17
4897.07960 9.79445e-18
4899.84195 9.89024e-18
4902.61434 1.09393e-17
4905.37669 1.08803e-17
4908.13904 1.17301e-17
4910.90139 1.11785e-17
4913.66373 1.12366e-17
4916.42608 1.18145e-17
4919.18843 1.22966e-17
4921.95078 1.14385e-17
4924.72317 1.16171e-17
4927.48552 1.15669e-17
4930.24786 1.22511e-17
4933.01021 1.20497e-17
4935.77256 1.16943e-17
4938.53491 1.21794e-17
4941.29725 1.23572e-17
4944.06965 1.24919e-17
4946.83199 1.19774e-17
4949.59434 1.20493e-17
4952.35669 1.23425e-17
4955.11904 1.19168e-17
4957.88138 1.21721e-17
4960.64373 1.24514e-17
4963.40608 1.22448e-17
4966.17847 1.19053e-17
4968.94082 1.20070e-17
4971.70317 1.21282e-17
4974.46551 1.20767e-17
4977.22786 1.19767e-17
4979.99021 1.27066e-17
4982.75256 1.24002e-17
4985.51490 1.22400e-17
4988.28730 1.20428e-17
4991.04964 1.20696e-17
4993.81199 1.25060e-17
4996.57434 1.18637e-17
4999.33669 1.25905e-17
5002.09903 1.23821e-17
5004.86138 1.19734e-17
5007.63377 1.21179e-17
5010.39612 1.19837e-17
5013.15847 1.26273e-17
5015.92082 1.22399e-17
5018.68316 1.22658e-17
5021.44551 1.21087e-17
5024.20786 1.24807e-17
5026.97021 1.16948e-17
5029.74260 1.31807e-17
5032.50494 1.24846e-17
5035.26729 1.26663e-17
5038.02964 1.20388e-17
5040.79199 1.22615e-17
5043.55433 1.24246e-17
5046.31668 1.25618e-17
5049.08907 1.28003e-17
5051.85142 1.27821e-17
5054.61377 1.26926e-17
5057.37612 1.26369e-17
5060.13846 1.26753e-17
5062.90081 1.35488e-17
5065.66316 1.32372e-17
5068.42551 1.33053e-17
5071.19790 1.39053e-17
5073.96025 1.36921e-17
5076.72259 1.35404e-17
5079.48494 1.40369e-17
5082.24729 1.35524e-17
5085.00964 1.37758e-17
5087.77198 1.36699e-17
5090.54438 1.44311e-17
5093.30672 1.44700e-17
5096.06907 1.43292e-17
5098.83142 1.41641e-17
5101.59377 1.50624e-17
5104.35611 1.45207e-17
5107.11846 1.48455e-17
5109.88081 1.43088e-17
5112.65320 1.46317e-17
5115.41555 1.46894e-17
5118.17790 1.46297e-17
5120.94024 1.52990e-17
5123.70259 1.52910e-17
5126.46494 1.51521e-17
5129.22729 1.52992e-17
5131.98963 1.51587e-17
5134.76203 1.50260e-17
5137.52437 1.56669e-17
5140.28672 1.56773e-17
5143.04907 1.58736e-17
5145.81142 1.61125e-17
5148.57376 1.58385e-17
5151.33611 1.54392e-17
5154.10850 1.60451e-17
5156.87085 1.60668e-17
5159.63320 1.63442e-17
5162.39555 1.63288e-17
5165.15789 1.66243e-17
5167.92024 1.68818e-17
5170.68259 1.71576e-17
5173.45498 1.71007e-17
5176.21733 1.70050e-17
5178.97968 1.71433e-17
5181.74202 1.72657e-17
5184.50437 1.77668e-17
5187.26672 1.75452e-17
5190.02907 1.77726e-17
5192.79141 1.80437e-17
5195.56381 1.77292e-17
5198.32615 1.77560e-17
5201.08850 1.81482e-17
5203.85085 1.85172e-17
5206.61320 1.90478e-17
5209.37554 1.90839e-17
5212.13789 1.87549e-17
5214.90024 1.88641e-17
5217.67263 1.90659e-17
5220.43498 1.83844e-17
5223.19733 1.92397e-17
5225.95967 1.95603e-17
5228.72202 1.97518e-17
5231.48437 1.91461e-17
5234.24672 1.93902e-17
5237.01911 2.02909e-17
5239.78146 1.88279e-17
5242.54380 1.98386e-17
5245.30615 1.93554e-17
5248.06850 1.95466e-17
5250.83085 2.01068e-17
5253.59319 2.02242e-17
5256.35554 2.01029e-17
5259.12793 1.96326e-17
5261.89028 1.99647e-17
5264.65263 2.00418e-17
5267.41498 1.98671e-17
5270.17732 1.96679e-17
5272.93967 2.05481e-17
5275.70202 2.05056e-17
5278.47441 2.05185e-17
5281.23676 2.08526e-17
5283.99911 1.96971e-17
5286.76145 1.98528e-17
5289.52380 2.04621e-17
5292.28615 2.04083e-17
5295.04850 2.04103e-17
5297.81084 2.02524e-17
5300.58324 2.00813e-17
5303.34558 1.95303e-17
5306.10793 1.98543e-17
5308.87028 1.93437e-17
5311.63263 1.98243e-17
5314.39497 1.99615e-17
5317.15732 1.93981e-17
5319.92971 1.90308e-17
5322.69206 1.93664e-17
5325.45441 1.95060e-17
5328.21676 1.91160e-17
5330.97910 1.97608e-17
5333.74145 1.93200e-17
5336.50380 1.85619e-17
5339.26615 1.93748e-17
5342.03854 1.93655e-17
5344.80089 1.86971e-17
5347.56323 1.85062e-17
5350.32558 1.87762e-17
5353.08793 1.83137e-17
5355.85028 1.83821e-17
5358.61262 1.89112e-17
5361.37497 1.83508e-17
5364.14736 1.89834e-17
5366.90971 1.86328e-17
5369.67206 1.82590e-17
5372.43441 1.89993e-17
5375.19675 1.87660e-17
5377.95910 1.78103e-17
5380.72145 1.82880e-17
5383.49384 1.78915e-17
5386.25619 1.79415e-17
5389.01854 1.73430e-17
5391.78088 1.77403e-17
5394.54323 1.82866e-17
5397.30558 1.76749e-17
5400.06793 1.77374e-17
5402.83027 1.74996e-17
5405.60267 1.81666e-17
5408.36501 1.79836e-17
5411.12736 1.74863e-17
5413.88971 1.75779e-17
5416.65206 1.66915e-17
5419.41440 1.74046e-17
5422.17675 1.69814e-17
5424.94914 1.69503e-17
5427.71149 1.72749e-17
5430.47384 1.71200e-17
5433.23619 1.64361e-17
5435.99853 1.74801e-17
5438.76088 1.74339e-17
5441.52323 1.65261e-17
5444.28558 1.68039e-17
5447.05797 1.75562e-17
5449.82032 1.63534e-17
5452.58266 1.64059e-17
5455.34501 1.65421e-17
5458.10736 1.58819e-17
5460.86971 1.56689e-17
5463.63205 1.60852e-17
5466.39440 1.62911e-17
5469.16679 1.61082e-17
5471.92914 1.58986e-17
5474.69149 1.60112e-17
5477.45384 1.57131e-17
5480.21618 1.54942e-17
5482.97853 1.53259e-17
5485.74088 1.55930e-17
5488.51327 1.50046e-17
5491.27562 1.47447e-17
5494.03797 1.48187e-17
5496.80031 1.43826e-17
5499.56266 1.44144e-17
5502.32501 1.45376e-17
5505.08736 1.50090e-17
5507.84970 1.43276e-17
5510.62210 1.47259e-17
5513.38444 1.43331e-17
5516.14679 1.47201e-17
5518.90914 1.40864e-17
5521.67149 1.42707e-17
5524.43383 1.45994e-17
5527.19618 1.41977e-17
5529.96857 1.44628e-17
5532.73092 1.37620e-17
5535.49327 1.41179e-17
5538.25562 1.40289e-17
5541.01796 1.42280e-17
5543.78031 1.39162e-17
5546.54266 1.34882e-17
5549.30501 1.35606e-17
5552.07740 1.36622e-17
5554.83974 1.37392e-17
5557.60209 1.36914e-17
5560.36444 1.36076e-17
5563.12679 1.37311e-17
5565.88913 1.36401e-17
5568.65148 1.31821e-17
5571.42387 1.37701e-17
5574.18622 1.35692e-17
5576.94857 1.33983e-17
5579.71092 1.38395e-17
5582.47326 1.34040e-17
5585.23561 1.29937e-17
5587.99796 1.35497e-17
5590.76031 1.38645e-17
5593.53270 1.37376e-17
5596.29505 1.36092e-17
5599.05739 1.34449e-17
5601.81974 1.34241e-17
5604.58209 1.34912e-17
5607.34444 1.31936e-17
5610.10678 1.36361e-17
5612.86913 1.33258e-17
5615.64152 1.35912e-17
5618.40387 1.34676e-17
5621.16622 1.36124e-17
5623.92857 1.37325e-17
5626.69091 1.39287e-17
5629.45326 1.33977e-17
5632.21561 1.33125e-17
5634.98800 1.36966e-17
5637.75035 1.44429e-17
5640.51270 1.37640e-17
5643.27504 1.38823e-17
5646.03739 1.40193e-17
5648.79974 1.41338e-17
5651.56209 1.41638e-17
5654.32443 1.42930e-17
5657.09683 1.43106e-17
5659.85917 1.45401e-17
5662.62152 1.44166e-17
5665.38387 1.36929e-17
5668.14622 1.42812e-17
5670.90856 1.46326e-17
5673.67091 1.48494e-17
5676.43326 1.45072e-17
5679.20565 1.51885e-17
5681.96800 1.49782e-17
5684.73035 1.47028e-17
5687.49269 1.51340e-17
5690.25504 1.47412e-17
5693.01739 1.46406e-17
5695.77974 1.50608e-17
5698.55213 1.47496e-17
5701.31448 1.50250e-17
5704.07682 1.55338e-17
5706.83917 1.56325e-17
5709.60152 1.57487e-17
5712.36387 1.53987e-17
5715.12621 1.52343e-17
5717.88856 1.52413e-17
5720.66095 1.57651e-17
5723.42330 1.64155e-17
5726.18565 1.53511e-17
5728.94800 1.58466e-17
5731.71034 1.59388e-17
5734.47269 1.56386e-17
5737.23504 1.61729e-17
5740.00743 1.59970e-17
5742.76978 1.59874e-17
5745.53213 1.61189e-17
5748.29447 1.58744e-17
5751.05682 1.67116e-17
5753.81917 1.58804e-17
5756.58152 1.66271e-17
5759.34386 1.58133e-17
5762.11626 1.64245e-17
5764.87860 1.59162e-17
5767.64095 1.61022e-17
5770.40330 1.59041e-17
5773.16565 1.69486e-17
5775.92799 1.63839e-17
5778.69034 1.57328e-17
5781.46273 1.61050e-17
5784.22508 1.61912e-17
5786.98743 1.62783e-17
5789.74978 1.59472e-17
5792.51212 1.59617e-17
5795.27447 1.68115e-17
5798.03682 1.61929e-17
5800.79917 1.66846e-17
5803.57156 1.62957e-17
5806.33391 1.58521e-17
5809.09625 1.67979e-17
5811.85860 1.64382e-17
5814.62095 1.65117e-17
5817.38330 1.63419e-17
5820.14564 1.67859e-17
5822.90799 1.67674e-17
5825.68038 1.69376e-17
5828.44273 1.71100e-17
5831.20508 1.67435e-17
5833.96743 1.73528e-17
5836.72977 1.74048e-17
5839.49212 1.66632e-17
5842.25447 1.76683e-17
5845.02686 1.78427e-17
5847.78921 1.71836e-17
5850.55156 1.69463e-17
5853.31390 1.73240e-17
5856.07625 1.77036e-17
5858.83860 1.80524e-17
5861.60095 1.78351e-17
5864.36329 1.82107e-17
5867.13569 1.79445e-17
5869.89803 1.72456e-17
5872.66038 1.77333e-17
5875.42273 1.78567e-17
5878.18508 1.77602e-17
5880.94742 1.79382e-17
5883.70977 1.72138e-17
5886.48216 1.75180e-17
5889.24451 1.74550e-17
5892.00686 1.74267e-17
5894.76921 1.68831e-17
5897.53155 1.60210e-17
5900.29390 1.70818e-17
5903.05625 1.80464e-17
5905.81860 1.75534e-17
5908.59099 1.72826e-17
5911.35334 1.70929e-17
5914.11568 1.75285e-17
5916.87803 1.68148e-17
5919.64038 1.73939e-17
5922.40273 1.67879e-17
5925.16507 1.64443e-17
5927.93747 1.67181e-17
5930.69981 1.66144e-17
5933.46216 1.69717e-17
5936.22451 1.68736e-17
5938.98686 1.69062e-17
5941.74920 1.67090e-17
5944.51155 1.77890e-17
5947.27390 1.68110e-17
5950.04629 1.69362e-17
5952.80864 1.69368e-17
5955.57099 1.67981e-17
5958.33333 1.69888e-17
5961.09568 1.68986e-17
5963.85803 1.61965e-17
5966.62038 1.68334e-17
5969.39277 1.64128e-17
5972.15512 1.65533e-17
5974.91746 1.67390e-17
5977.67981 1.63693e-17
5980.44216 1.62900e-17
5983.20451 1.64825e-17
5985.96685 1.60279e-17
5988.72920 1.65740e-17
5991.50159 1.65616e-17
5994.26394 1.60499e-17
5997.02629 1.58854e-17
5999.78864 1.58510e-17
6002.55098 1.58377e-17
6005.31333 1.60379e-17
6008.07568 1.57672e-17
6010.83803 1.58033e-17
6013.61042 1.61511e-17
6016.37277 1.53253e-17
6019.13511 1.55058e-17
6021.89746 1.58676e-17
6024.65981 1.51046e-17
6027.42216 1.56081e-17
6030.18450 1.57192e-17
6032.95690 1.50812e-17
6035.71924 1.50510e-17
6038.48159 1.48603e-17
6041.24394 1.44377e-17
6044.00629 1.46032e-17
6046.76863 1.46803e-17
6049.53098 1.42620e-17
6052.29333 1.43538e-17
6055.06572 1.39998e-17
6057.82807 1.38283e-17
6060.59042 1.39956e-17
6063.35276 1.37873e-17
6066.11511 1.36500e-17
6068.87746 1.37946e-17
6071.63981 1.37069e-17
6074.40215 1.36910e-17
6077.17454 1.37432e-17
6079.93689 1.35106e-17
6082.69924 1.35646e-17
6085.46159 1.29177e-17
6088.22393 1.30850e-17
6090.98628 1.28945e-17
6093.74863 1.26717e-17
6096.52102 1.29821e-17
6099.28337 1.30371e-17
6102.04572 1.30739e-17
6104.80806 1.29967e-17
6107.57041 1.27379e-17
6110.33276 1.22826e-17
6113.09511 1.24330e-17
6115.86750 1.25206e-17
6118.62985 1.21510e-17
6121.39219 1.19486e-17
6124.15454 1.18987e-17
6126.91689 1.23323e-17
6129.67924 1.21880e-17
6132.44158 1.14334e-17
6135.20393 1.15744e-17
6137.97632 1.14423e-17
6140.73867 1.13688e-17
6143.50102 1.09951e-17
6146.26337 1.10351e-17
6149.02571 1.11752e-17
6151.78806 1.09967e-17
6154.55041 1.08855e-17
6157.31276 1.11883e-17
6160.08515 1.10973e-17
6162.84750 1.07452e-17
6165.60984 1.06361e-17
6168.37219 1.06991e-17
6171.13454 1.11750e-17
6173.89689 1.07236e-17
6176.65923 1.00807e-17
6179.43163 1.02009e-17
6182.19397 1.05918e-17
6184.95632 1.06108e-17
6187.71867 1.00292e-17
6190.48102 9.93486e-18
6193.24336 1.02240e-17
6196.00571 9.94515e-18
6198.76806 1.00007e-17
6201.54045 1.02758e-17
6204.30280 1.00158e-17
6207.06515 1.02911e-17
6209.82749 1.03665e-17
6212.58984 1.03645e-17
6215.35219 1.07860e-17
6218.11454 1.06374e-17
6220.88693 1.01350e-17
6223.64928 1.04499e-17
6226.41162 1.04902e-17
6229.17397 1.03619e-17
6231.93632 1.01865e-17
6234.69867 1.04690e-17
6237.46101 1.00767e-17
6240.22336 1.07884e-17
6242.99575 1.04421e-17
6245.75810 1.06611e-17
6248.52045 1.10416e-17
6251.28280 1.06287e-17
6254.04514 1.05144e-17
6256.80749 1.04982e-17
6259.56984 1.02621e-17
6262.34223 1.10162e-17
6265.10458 1.10267e-17
6267.86693 1.02668e-17
6270.62927 1.09052e-17
6273.39162 1.05885e-17
6276.15397 1.11232e-17
6278.91632 1.06533e-17
6281.67866 1.01228e-17
6284.45106 1.01018e-17
6287.21340 1.02476e-17
6289.97575 1.05297e-17
6292.73810 1.03182e-17
6295.50045 1.02238e-17
6298.26279 1.11823e-17
6301.02514 1.04932e-17
6303.78749 1.09333e-17
6306.55988 1.11343e-17
6309.32223 1.12487e-17
6312.08458 1.07702e-17
6314.84692 1.07932e-17
6317.60927 1.10238e-17
6320.37162 1.14317e-17
6323.13397 1.09392e-17
6325.90636 1.10503e-17
6328.66871 1.13642e-17
6331.43105 1.11710e-17
6334.19340 1.12964e-17
6336.95575 1.11682e-17
6339.71810 1.14557e-17
6342.48044 1.13559e-17
6345.24279 1.14757e-17
6348.01518 1.11642e-17
6350.77753 1.12698e-17
6353.53988 1.15176e-17
6356.30223 1.16200e-17
6359.06457 1.11340e-17
6361.82692 1.13163e-17
6364.58927 1.13081e-17
6367.36166 1.14840e-17
6370.12401 1.15437e-17
6372.88636 1.14004e-17
6375.64870 1.10703e-17
6378.41105 1.11339e-17
6381.17340 1.11513e-17
6383.93575 1.17468e-17
6386.69809 1.16548e-17
6389.47049 1.13017e-17
6392.23283 1.08706e-17
6394.99518 1.13565e-17
6397.75753 1.11326e-17
6400.51988 1.06080e-17
6403.28222 1.10448e-17
6406.04457 1.12908e-17
6408.81696 1.13807e-17
6411.57931 1.09606e-17
6414.34166 1.10433e-17
6417.10401 1.10236e-17
6419.86635 1.12260e-17
6422.62870 1.08674e-17
6425.39105 1.14918e-17
6428.15340 1.15743e-17
6430.92579 1.13762e-17
6433.68814 1.11641e-17
6436.45048 1.14966e-17
6439.21283 1.13308e-17
6441.97518 1.09420e-17
6444.73753 1.13389e-17
6447.49987 1.15404e-17
6450.26222 1.14603e-17
6453.03461 1.17125e-17
6455.79696 1.16053e-17
6458.55931 1.15925e-17
6461.32166 1.20756e-17
6464.08400 1.14320e-17
6466.84635 1.16699e-17
6469.60870 1.16520e-17
6472.38109 1.15831e-17
6475.14344 1.13577e-17
6477.90579 1.15685e-17
6480.66813 1.15774e-17
6483.43048 1.12779e-17
6486.19283 1.17568e-17
6488.95518 1.15890e-17
6491.71752 1.14858e-17
6494.48992 1.15359e-17
6497.25226 1.12846e-17
6500.01461 1.16174e-17
6502.77696 1.19396e-17
6505.53931 1.18245e-17
6508.30165 1.16504e-17
6511.06400 1.18969e-17
6513.82635 1.14842e-17
6516.59874 1.16037e-17
6519.36109 1.15005e-17
6522.12344 1.19759e-17
6524.88578 1.17304e-17
6527.64813 1.19532e-17
6530.41048 1.14976e-17
6533.17283 1.18135e-17
6535.94522 1.17837e-17
6538.70757 1.19754e-17
6541.46991 1.19213e-17
6544.23226 1.20281e-17
6546.99461 1.16727e-17
6549.75696 1.15769e-17
6552.51930 1.21123e-17
6555.28165 1.13947e-17
6558.05404 1.14986e-17
6560.81639 1.16852e-17
6563.57874 1.15312e-17
6566.34109 1.15060e-17
6569.10343 1.17434e-17
6571.86578 1.17344e-17
6574.62813 1.18272e-17
6577.40052 1.15927e-17
6580.16287 1.12610e-17
6582.92522 1.14155e-17
6585.68756 1.18691e-17
6588.44991 1.12399e-17
6591.21226 1.06789e-17
6593.97461 1.08385e-17
6596.73695 1.08638e-17
6599.50934 1.04358e-17
6602.27169 9.62432e-18
6605.03404 8.85087e-18
6607.79639 7.68044e-18
6610.55873 6.68440e-18
6613.32108 8.01778e-18
6616.08343 9.60379e-18
6618.85582 9.98589e-18
6621.61817 1.05635e-17
6624.38052 1.01755e-17
6627.14286 9.82705e-18
6629.90521 9.36495e-18
6632.66756 1.02202e-17
6635.42991 1.06958e-17
6638.19225 1.14751e-17
6640.96465 1.09689e-17
6643.72699 1.13240e-17
6646.48934 1.08845e-17
6649.25169 1.15093e-17
6652.01404 1.15760e-17
6654.77638 1.13865e-17
6657.53873 1.15017e-17
6660.31112 1.17316e-17
6663.07347 1.12085e-17
6665.83582 1.14278e-17
6668.59817 1.14276e-17
6671.36051 1.18387e-17
6674.12286 1.14207e-17
6676.88521 1.11912e-17
6679.64756 1.13989e-17
6682.41995 1.11182e-17
6685.18230 1.12525e-17
6687.94464 1.15877e-17
6690.70699 1.14494e-17
6693.46934 1.12044e-17
6696.23169 1.12169e-17
6698.99403 1.15120e-17
6701.75638 1.12901e-17
6704.52877 1.11400e-17
6707.29112 1.13553e-17
6710.05347 1.09694e-17
6712.81582 1.10358e-17
6715.57816 1.12679e-17
6718.34051 1.12665e-17
6721.10286 1.08011e-17
6723.87525 1.07996e-17
6726.63760 1.11483e-17
6729.39995 1.09034e-17
6732.16229 1.12946e-17
6734.92464 1.12036e-17
6737.68699 1.08376e-17
6740.44934 1.11503e-17
6743.21168 1.12694e-17
6745.98408 1.12022e-17
6748.74642 1.13654e-17
6751.50877 1.07375e-17
6754.27112 1.04014e-17
6757.03347 1.07657e-17
6759.79581 1.08337e-17
6762.55816 1.00829e-17
6765.32051 9.79613e-18
6768.09290 1.03443e-17
6770.85525 1.04593e-17
6773.61760 1.06159e-17
6776.37994 1.05901e-17
6779.14229 1.00360e-17
6781.90464 1.02739e-17
6784.66699 1.02672e-17
6787.43938 1.07852e-17
6790.20173 1.05843e-17
6792.96407 1.09197e-17
6795.72642 1.07929e-17
6798.48877 1.01908e-17
6801.25112 1.03222e-17
6804.01346 1.06620e-17
6806.77581 1.09463e-17
6809.54820 1.01967e-17
6812.31055 1.09384e-17
6815.07290 1.04111e-17
6817.83525 1.02685e-17
6820.59759 1.05547e-17
6823.35994 1.08288e-17
6826.12229 1.03270e-17
6828.89468 1.05343e-17
6831.65703 1.04488e-17
6834.41938 1.06106e-17
6837.18172 1.03797e-17
6839.94407 1.02395e-17
6842.70642 1.06489e-17
6845.46877 1.06312e-17
6848.23111 1.06136e-17
6851.00351 1.05959e-17
6853.76585 1.05782e-17
6856.52820 1.05605e-17
6859.29055 1.05428e-17
6862.05290 1.05252e-17
6864.81524 1.05075e-17
6867.57759 1.04898e-17
6870.34998 1.04721e-17
6873.11233 1.04545e-17
6875.87468 1.04368e-17
6878.63703 1.04191e-17
6881.39937 1.04015e-17
6884.16172 1.03838e-17
6886.92407 1.03661e-17
6889.68642 1.03485e-17
6892.45881 1.03308e-17
6895.22116 1.03132e-17
6897.98350 1.02955e-17
6900.74585 1.02779e-17
6903.50820 1.02602e-17
6906.27055 1.02426e-17
6909.03289 1.02249e-17
6911.79524 1.02073e-17
6914.56763 1.01896e-17
6917.32998 1.01720e-17
6920.09233 1.01543e-17
6922.85468 1.01367e-17
6925.61702 1.01191e-17
6928.37937 1.01014e-17
6931.14172 1.00838e-17
6933.91411 1.00662e-17
6936.67646 1.00485e-17
6939.43881 9.99931e-18
6942.20115 9.75696e-18
6944.96350 9.63276e-18
6947.72585 9.84817e-18
6950.48820 9.74950e-18
6953.25054 9.80955e-18
6956.02294 9.73251e-18
6958.78528 9.76683e-18
6961.54763 9.81036e-18
6964.30998 9.79704e-18
6967.07233 9.90848e-18
6969.83467 1.00210e-17
6972.59702 1.01756e-17
6975.36941 9.98029e-18
6978.13176 9.96735e-18
6980.89411 1.00026e-17
6983.65646 1.01356e-17
6986.41880 1.00384e-17
6989.18115 9.61043e-18
6991.94350 9.57736e-18
6994.70585 9.86877e-18
6997.47824 9.60870e-18
7000.24059 9.76340e-18
7003.00293 1.00528e-17
7005.76528 1.00835e-17
7008.52763 9.58847e-18
7011.28998 9.42815e-18
7014.05232 9.28761e-18
7016.82472 9.47256e-18
7019.58706 9.78875e-18
7022.34941 1.01572e-17
7025.11176 9.40094e-18
7027.87411 9.81367e-18
7030.63645 9.70000e-18
7033.39880 9.69614e-18
7036.16115 9.83412e-18
7038.93354 9.84144e-18
7041.69589 9.44587e-18
7044.45824 9.68717e-18
7047.22058 9.94826e-18
7049.98293 9.52704e-18
7052.74528 1.00602e-17
7055.50763 9.80439e-18
7058.28002 9.88474e-18
7061.04237 1.02230e-17
7063.80471 9.67318e-18
7066.56706 9.56612e-18
7069.32941 9.44403e-18
7072.09176 9.64330e-18
7074.85410 1.01299e-17
7077.61645 9.89074e-18
7080.38884 9.51542e-18
7083.15119 9.83132e-18
7085.91354 9.57925e-18
7088.67589 9.46489e-18
7091.43823 8.40648e-18
7094.20058 7.81350e-18
7096.96293 7.25502e-18
7099.73532 7.43965e-18
7102.49767 8.30093e-18
7105.26002 8.69870e-18
7108.02236 9.19911e-18
7110.78471 9.31509e-18
7113.54706 9.72275e-18
7116.30941 9.86875e-18
7119.07175 9.73591e-18
7121.84414 9.62171e-18
7124.60649 9.76843e-18
7127.36884 9.92060e-18
7130.13119 9.69313e-18
7132.89353 9.67737e-18
7135.65588 9.41729e-18
7138.41823 9.70527e-18
7141.18058 9.71747e-18
7143.95297 9.39209e-18
7146.71532 9.67183e-18
7149.47766 9.08765e-18
7152.24001 9.47084e-18
7155.00236 9.27778e-18
7157.76471 9.74116e-18
7160.52705 8.97882e-18
7163.29945 9.33885e-18
7166.06179 9.26600e-18
7168.82414 9.48865e-18
7171.58649 9.24429e-18
7174.34884 9.23088e-18
7177.11118 8.64114e-18
7179.87353 8.63910e-18
7182.63588 8.61789e-18
7185.40827 8.85858e-18
7188.17062 8.20042e-18
7190.93297 8.26284e-18
7193.69531 8.25065e-18
7196.45766 7.84021e-18
7199.22001 8.12848e-18
7201.98236 8.31421e-18
7204.74470 8.05514e-18
7207.51710 8.13832e-18
7210.27944 8.43810e-18
7213.04179 8.60801e-18
7215.80414 8.88455e-18
7218.56649 9.05956e-18
7221.32883 8.75996e-18
7224.09118 8.80714e-18
7226.86357 9.11922e-18
7229.62592 8.91649e-18
7232.38827 8.91371e-18
7235.15062 8.66985e-18
7237.91296 8.49104e-18
7240.67531 8.10105e-18
7243.43766 8.35287e-18
7246.20001 8.42827e-18
7248.97240 8.34615e-18
7251.73475 8.02057e-18
7254.49709 7.69071e-18
7257.25944 8.37477e-18
7260.02179 9.08532e-18
7262.78414 7.99764e-18
7265.54648 8.06846e-18
7268.31888 8.30498e-18
7271.08122 8.43223e-18
7273.84357 8.24391e-18
7276.60592 7.78716e-18
7279.36827 8.18453e-18
7282.13061 8.02164e-18
7284.89296 8.14922e-18
7287.65531 8.48888e-18
7290.42770 8.79057e-18
7293.19005 8.21722e-18
7295.95240 8.28908e-18
7298.71474 8.64158e-18
7301.47709 8.04249e-18
7304.23944 8.25667e-18
7307.00179 8.33156e-18
7309.77418 8.18093e-18
7312.53653 8.32657e-18
7315.29887 8.25500e-18
7318.06122 8.51026e-18
7320.82357 8.68621e-18
7323.58592 8.26460e-18
7326.34826 8.77911e-18
7329.11061 8.44400e-18
7331.88300 8.38756e-18
7334.64535 8.41874e-18
7337.40770 8.58852e-18
7340.17005 8.62264e-18
7342.93239 8.55146e-18
7345.69474 8.46124e-18
7348.45709 8.73062e-18
7351.22948 8.88667e-18
7353.99183 8.13794e-18
7356.75418 8.45387e-18
7359.51652 8.16943e-18
7362.27887 8.42786e-18
7365.04122 8.33913e-18
7367.80357 8.60287e-18
7370.56591 8.39602e-18
7373.33831 8.23641e-18
7376.10065 8.55753e-18
7378.86300 8.69898e-18
7381.62535 8.38598e-18
7384.38770 8.63622e-18
7387.15004 8.50450e-18
7389.91239 8.41464e-18
7392.67474 8.61087e-18
7395.44713 8.67767e-18
7398.20948 8.76806e-18
7400.97183 8.26548e-18
7403.73417 8.78522e-18
7406.49652 8.79562e-18
7409.25887 8.20248e-18
7412.02122 8.76242e-18
7414.79361 8.86696e-18
7417.55596 8.54579e-18
7420.31830 8.34214e-18
7423.08065 8.21267e-18
7425.84300 8.56410e-18
7428.60535 8.41177e-18
7431.36769 8.45699e-18
7434.13004 8.48655e-18
7436.90243 8.43811e-18
7439.66478 8.42973e-18
7442.42713 8.56348e-18
7445.18948 8.22530e-18
7447.95182 8.14216e-18
7450.71417 8.76220e-18
7453.47652 8.19239e-18
7456.24891 8.30994e-18
7459.01126 8.18662e-18
7461.77361 8.55466e-18
7464.53595 8.80669e-18
7467.29830 8.60238e-18
7470.06065 8.58079e-18
7472.82300 8.36031e-18
7475.58534 8.32295e-18
7478.35774 8.32959e-18
7481.12008 8.20429e-18
7483.88243 8.14928e-18
7486.64478 8.01770e-18
7489.40713 8.27725e-18
7492.16947 8.80380e-18
7494.93182 8.24193e-18
7497.70421 7.90068e-18
7500.46656 8.43129e-18
7503.22891 8.29393e-18
7505.99126 8.37512e-18
7508.75360 7.86579e-18
7511.51595 7.90930e-18
7514.27830 8.08825e-18
7517.04065 8.18453e-18
7519.81304 8.36705e-18
7522.57539 7.78461e-18
7525.33773 8.08668e-18
7528.10008 8.18783e-18
7530.86243 8.42957e-18
7533.62478 8.58568e-18
7536.38712 8.01905e-18
7539.14947 7.85612e-18
7541.92186 8.14378e-18
7544.68421 7.94040e-18
7547.44656 8.53417e-18
7550.20891 8.51205e-18
7552.97125 8.48992e-18
7555.73360 8.46780e-18
7558.49595 8.44568e-18
7561.26834 8.42357e-18
7564.03069 8.40145e-18
7566.79304 8.37934e-18
7569.55538 8.35724e-18
7572.31773 8.33513e-18
7575.08008 8.31303e-18
7577.84243 8.29092e-18
7580.60477 8.26883e-18
7583.37717 8.24673e-18
7586.13951 8.22464e-18
7588.90186 8.20255e-18
7591.66421 8.18046e-18
7594.42656 8.15837e-18
7597.18890 8.13629e-18
7599.95125 8.11421e-18
7602.71360 8.09213e-18
7605.48599 8.07005e-18
7608.24834 8.04798e-18
7611.01069 8.02591e-18
7613.77303 8.00383e-18
7616.53538 7.98177e-18
7619.29773 7.95970e-18
7622.06008 7.93764e-18
7624.83247 7.91558e-18
7627.59482 7.89353e-18
7630.35716 7.87147e-18
7633.11951 7.84942e-18
7635.88186 7.82737e-18
7638.64421 7.80533e-18
7641.40655 7.78328e-18
7644.16890 7.76124e-18
7646.94129 7.73920e-18
7649.70364 7.71716e-18
7652.46599 7.69513e-18
7655.22833 7.67310e-18
7657.99068 7.65107e-18
7660.75303 7.62904e-18
7663.51538 7.60702e-18
7666.28777 7.58500e-18
7669.05012 7.56298e-18
7671.81246 7.54096e-18
7674.57481 7.51895e-18
7677.33716 7.49693e-18
7680.09951 7.47492e-18
7682.86185 7.15421e-18
7685.62420 7.12398e-18
7688.39659 7.21188e-18
7691.15894 7.69153e-18
7693.92129 7.52822e-18
7696.68364 7.85878e-18
7699.44598 7.34314e-18
7702.20833 7.84971e-18
7704.97068 8.10143e-18
7707.74307 8.03509e-18
7710.50542 8.22680e-18
7713.26777 7.67041e-18
7716.03011 7.83753e-18
7718.79246 7.80709e-18
7721.55481 8.40415e-18
7724.31716 7.86856e-18
7727.07950 8.01404e-18
7729.85190 8.54750e-18
7732.61424 8.35669e-18
7735.37659 8.36337e-18
7738.13894 8.06504e-18
7740.90129 7.99063e-18
7743.66363 8.16140e-18
7746.42598 7.44589e-18
7749.18833 7.67400e-18
7751.96072 8.20035e-18
7754.72307 7.94363e-18
7757.48542 7.43550e-18
7760.24776 7.26519e-18
7763.01011 7.96082e-18
7765.77246 7.62529e-18
7768.53481 7.94312e-18
7771.30720 7.82542e-18
7774.06955 8.13752e-18
7776.83189 7.51354e-18
7779.59424 7.82662e-18
7782.35659 7.83494e-18
7785.11894 7.93065e-18
7787.88128 8.05035e-18
7790.64363 7.66038e-18
7793.41602 7.94200e-18
7796.17837 8.13107e-18
7798.94072 7.78209e-18
7801.70307 7.81480e-18
7804.46541 8.02970e-18
7807.22776 7.51688e-18
7809.99011 7.44888e-18
7812.75246 7.81244e-18
7815.52485 8.05051e-18
7818.28720 7.55605e-18
7821.04954 7.65517e-18
7823.81189 8.14425e-18
7826.57424 7.97599e-18
7829.33659 7.47567e-18
7832.09893 7.73051e-18
7834.87133 8.50220e-18
7837.63367 7.97726e-18
7840.39602 7.42222e-18
7843.15837 7.52728e-18
7845.92072 7.80814e-18
7848.68306 7.62562e-18
7851.44541 7.55020e-18
7854.20776 7.41333e-18
7856.98015 7.41160e-18
7859.74250 7.39290e-18
7862.50485 7.66807e-18
7865.26719 7.48758e-18
7868.02954 7.36280e-18
7870.79189 6.90371e-18
7873.55424 6.91104e-18
7876.32663 7.04215e-18
7879.08898 6.55635e-18
7881.85132 7.21530e-18
7884.61367 6.62028e-18
7887.37602 6.73238e-18
7890.13837 6.74541e-18
7892.90071 6.73707e-18
7895.66306 6.84310e-18
7898.43545 6.92245e-18
7901.19780 6.48156e-18
7903.96015 6.42870e-18
7906.72250 6.18569e-18
7909.48484 6.24157e-18
7912.24719 6.22946e-18
7915.00954 5.92892e-18
7917.78193 5.87179e-18
7920.54428 6.23884e-18
7923.30663 5.80684e-18
7926.06897 5.30952e-18
7928.83132 5.62721e-18
7931.59367 6.04081e-18
7934.35602 5.43764e-18
7937.11836 5.34297e-18
7939.89076 5.47712e-18
7942.65310 5.30731e-18
7945.41545 5.88974e-18
7948.17780 5.61674e-18
7950.94015 5.53651e-18
7953.70249 5.48877e-18
7956.46484 5.35475e-18
7959.23723 5.28695e-18
7961.99958 4.94802e-18
7964.76193 5.30843e-18
7967.52428 5.35124e-18
7970.28662 4.95241e-18
7973.04897 4.85324e-18
7975.81132 4.85835e-18
7978.57367 4.86330e-18
7981.34606 4.86807e-18
7984.10841 4.87263e-18
7986.87075 4.87693e-18
7987.77479 4.87693e-18
7989.47238 4.62147e-18
7991.16997 4.88108e-18
7992.86756 5.62539e-18
7994.56515 6.33848e-18
7996.26273 6.67321e-18
7997.96032 6.57325e-18
7999.65791 6.12392e-18
8001.35550 5.64619e-18
8003.05309 5.30856e-18
8004.75068 4.87911e-18
8006.44826 4.26366e-18
8008.14585 3.79362e-18
8009.84344 3.67506e-18
8011.54103 3.64293e-18
8013.23862 3.49207e-18
8014.93620 3.45507e-18
8016.63379 3.73642e-18
8018.34143 4.14427e-18
8020.03901 4.44266e-18
8021.73660 4.66394e-18
8023.43419 4.88645e-18
8025.13178 4.97363e-18
8026.82937 4.77003e-18
8028.52695 4.42901e-18
8030.22454 4.19690e-18
8031.92213 3.95369e-18
8033.61972 3.43114e-18
8035.31731 2.79635e-18
8037.01489 2.47079e-18
8038.71248 2.49848e-18
8040.41007 2.63363e-18
8042.10766 2.84449e-18
8043.80525 3.27359e-18
8045.50283 3.92045e-18
8047.20042 4.64722e-18
8048.89801 5.22088e-18
8050.59560 5.30305e-18
8052.29319 4.78944e-18
8053.99078 3.91684e-18
8055.68836 2.95873e-18
8057.38595 2.15658e-18
8059.08354 1.80142e-18
8060.78113 2.33021e-18
8062.47872 3.67154e-18
8064.17630 4.69825e-18
8065.87389 4.66029e-18
8067.57148 4.02063e-18
8069.26907 3.35926e-18
8070.96666 2.93747e-18
8072.66424 2.91100e-18
8074.36183 3.35179e-18
8076.05942 4.14970e-18
8077.75701 4.74108e-18
8079.45460 4.62730e-18
8081.15218 4.10471e-18
8082.84977 3.68851e-18
8084.54736 3.37327e-18
8086.24495 2.97634e-18
8087.94254 2.61179e-18
8089.64013 2.50474e-18
8091.33771 2.73710e-18
8093.03530 3.26993e-18
8094.73289 3.89191e-18
8096.43048 4.28278e-18
8098.12807 4.32628e-18
8099.82565 4.11074e-18
8101.52324 3.77639e-18
8103.22083 3.51434e-18
8104.92846 3.34597e-18
8106.62605 3.06791e-18
8108.32364 2.73974e-18
8110.02123 2.78328e-18
8111.71882 3.24420e-18
8113.41640 3.61626e-18
8115.11399 3.48664e-18
8116.81158 2.57628e-18
8118.50917 1.14130e-18
8120.20676 5.38153e-19
8121.90434 1.43256e-18
8123.60193 2.62355e-18
8125.29952 3.11658e-18
8126.99711 3.21240e-18
8128.69470 3.31072e-18
8130.39228 3.40991e-18
8132.08987 3.44601e-18
8133.78746 3.36831e-18
8135.48505 3.14209e-18
8137.18264 2.76076e-18
8138.88023 2.28508e-18
8140.57781 2.03696e-18
8142.27540 2.31034e-18
8143.97299 2.80916e-18
8145.67058 3.00937e-18
8147.36817 2.77884e-18
8149.06575 2.26832e-18
8150.76334 1.81440e-18
8152.46093 1.84096e-18
8154.15852 2.32299e-18
8155.85611 2.84951e-18
8157.55369 3.26380e-18
8159.25128 3.65496e-18
8160.94887 3.98121e-18
8162.64646 4.08311e-18
8164.34405 3.98970e-18
8166.04163 3.95536e-18
8167.73922 4.01011e-18
8169.43681 3.85393e-18
8171.13440 3.33140e-18
8172.83199 2.53422e-18
8174.52958 1.63862e-18
8176.22716 9.19825e-19
8177.92475 6.12863e-19
8179.62234 8.84677e-19
8181.31993 1.65397e-18
8183.01752 2.31538e-18
8184.71510 2.40593e-18
8186.41269 2.02633e-18
8188.12032 1.49134e-18
8189.81791 1.43417e-18
8191.51550 2.23075e-18
8193.21309 3.08353e-18
8194.91068 3.07891e-18
8196.60827 2.31089e-18
8198.30585 1.30961e-18
8200.00344 7.33462e-19
8201.70103 1.10847e-18
8203.39862 1.91704e-18
8205.09621 2.19120e-18
8206.79379 2.07813e-18
8208.49138 2.38138e-18
8210.18897 3.13432e-18
8211.88656 3.81618e-18
8213.58415 4.11070e-18
8215.28173 3.88083e-18
8216.97932 3.31513e-18
8218.67691 2.95651e-18
8220.37450 2.91258e-18
8222.07209 2.74301e-18
8223.76967 2.33065e-18
8225.46726 2.01494e-18
8227.16485 1.92317e-18
8228.86244 1.82985e-18
8230.56003 1.70003e-18
8232.25762 1.88104e-18
8233.95520 2.47878e-18
8235.65279 3.05646e-18
8237.35038 3.31955e-18
8239.04797 3.46365e-18
8240.74556 3.63944e-18
8242.44314 3.66278e-18
8244.14073 3.40887e-18
8245.83832 3.07906e-18
8247.53591 2.87605e-18
8249.23350 2.79820e-18
8250.93108 2.75622e-18
8252.62867 2.48371e-18
8254.32626 1.80885e-18
8256.02385 1.26982e-18
8257.72144 1.50828e-18
8259.41903 2.21376e-18
8261.11661 2.65728e-18
8262.81420 2.57284e-18
8264.51179 2.04305e-18
8266.20938 1.50692e-18
8267.91701 1.59933e-18
8269.60455 2.22815e-18
8271.30214 2.68655e-18
8273.00977 2.67905e-18
8274.70736 2.32610e-18
8276.40495 1.85262e-18
8278.10254 1.62110e-18
8279.80013 1.76313e-18
8281.49772 2.06950e-18
8283.19530 2.41703e-18
8284.89289 2.84234e-18
8286.59048 3.28409e-18
8288.28807 3.52300e-18
8289.98566 3.47605e-18
8291.68324 3.32022e-18
8293.38083 3.21664e-18
8295.07842 3.22884e-18
8296.77601 3.35892e-18
8298.47360 3.49655e-18
8300.17118 3.53503e-18
8301.86877 3.45010e-18
8303.56636 3.25169e-18
8305.26395 2.98760e-18
8306.96154 2.70660e-18
8308.65912 2.40517e-18
8310.35671 2.07718e-18
8312.05430 1.73221e-18
8313.75189 1.41828e-18
8315.44948 1.36666e-18
8317.14707 1.80011e-18
8318.84465 2.50365e-18
8320.54224 3.05074e-18
8322.23983 3.29988e-18
8323.93742 3.32855e-18
8325.63501 3.30937e-18
8327.33259 3.47522e-18
8329.03018 3.78722e-18
8330.72777 3.95204e-18
8332.42536 3.82289e-18
8334.12295 3.41320e-18
8335.82053 2.90982e-18
8337.51812 2.72075e-18
8339.21571 2.86033e-18
8340.91330 2.76424e-18
8342.61089 2.28040e-18
8344.30847 1.93625e-18
8346.00606 2.08961e-18
8347.70365 2.76910e-18
8349.40124 3.76892e-18
8351.09883 4.45227e-18
8352.79642 4.43243e-18
8354.50405 4.02110e-18
8356.20164 3.60091e-18
8357.89922 3.39809e-18
8359.59681 3.52041e-18
8361.29440 3.85051e-18
8362.99199 4.18142e-18
8364.68958 4.24729e-18
8366.38717 3.88146e-18
8368.08475 3.31345e-18
8369.78234 2.88173e-18
8371.47993 2.62977e-18
8373.17752 2.50360e-18
8374.87511 2.73029e-18
8376.57269 3.56147e-18
8378.27028 4.67342e-18
8379.96787 5.44305e-18
8381.66546 5.73324e-18
8383.36305 5.76606e-18
8385.06063 5.58782e-18
8386.75822 5.13264e-18
8388.45581 4.32548e-18
8390.15340 3.07139e-18
8391.85099 1.89507e-18
8393.54857 1.99231e-18
8395.24616 3.43113e-18
8396.94375 4.80075e-18
8398.64134 5.26789e-18
8400.33893 4.93803e-18
8402.03652 4.15855e-18
8403.73410 3.66536e-18
8405.43169 3.79074e-18
8407.12928 3.92401e-18
8408.82687 3.66684e-18
8410.52446 3.32924e-18
8412.22204 3.20394e-18
8413.91963 3.33216e-18
8415.61722 3.66858e-18
8417.31481 4.03458e-18
8419.01240 4.27006e-18
8420.70998 4.42721e-18
8422.40757 4.58016e-18
8424.10516 4.58484e-18
8425.80275 4.32764e-18
8427.50034 4.13696e-18
8429.19792 4.38147e-18
8430.89551 4.78130e-18
8432.59310 4.83504e-18
8434.29069 4.59278e-18
8435.99832 4.40014e-18
8437.69591 4.41655e-18
8439.39350 4.65152e-18
8441.09109 4.84110e-18
8442.77863 4.54043e-18
8444.48626 3.88693e-18
8446.18385 3.54739e-18
8447.88144 3.79003e-18
8449.57903 4.44129e-18
8451.27662 5.21588e-18
8452.97420 5.68397e-18
8454.67179 5.69003e-18
8456.36938 5.51796e-18
8458.06697 5.30309e-18
8459.76456 4.89017e-18
8461.46214 4.25463e-18
8463.15973 3.58772e-18
8464.85732 3.11418e-18
8466.55491 3.11822e-18
8468.25250 3.67608e-18
8469.95008 4.41427e-18
8471.64767 4.95188e-18
8473.34526 5.07859e-18
8475.04285 4.77559e-18
8476.74044 4.45759e-18
8478.43802 4.50270e-18
8480.13561 4.77225e-18
8481.83320 4.98333e-18
8483.53079 4.94334e-18
8485.22838 4.58111e-18
8486.92597 4.19723e-18
8488.62355 4.18917e-18
8490.32114 4.50401e-18
8492.01873 4.86378e-18
8493.71632 5.27689e-18
8495.41391 5.88473e-18
8497.11149 6.52287e-18
8498.80908 6.84469e-18
8500.50667 6.72207e-18
8502.20426 6.23841e-18
8503.90185 5.71281e-18
8505.59943 5.67937e-18
8507.29702 6.20526e-18
8508.99461 6.78915e-18
8510.69220 7.15374e-18
8512.38979 7.36138e-18
8514.08737 7.35101e-18
8515.78496 6.87309e-18
8517.49260 5.95942e-18
8519.19018 5.07744e-18
8520.87773 4.62932e-18
8522.58536 4.87255e-18
8524.27290 5.71059e-18
8525.98054 6.30044e-18
8527.67812 6.09259e-18
8529.37571 5.55792e-18
8531.07330 5.22884e-18
8532.77089 5.25496e-18
8534.46848 5.59324e-18
8536.16606 5.83097e-18
8537.86365 5.61533e-18
8539.56124 5.26938e-18
8541.25883 5.23472e-18
8542.95642 5.41541e-18
8544.65401 5.52536e-18
8546.35159 5.46827e-18
8548.04918 5.26166e-18
8549.74677 5.02048e-18
8551.44436 4.91711e-18
8553.14195 5.02852e-18
8554.83953 5.33768e-18
8556.53712 5.78607e-18
8558.23471 6.27237e-18
8559.93230 6.60705e-18
8561.62989 6.54980e-18
8563.32747 6.19770e-18
8565.02506 6.01257e-18
8566.72265 6.15794e-18
8568.42024 6.40289e-18
8570.11783 6.62053e-18
8571.81542 6.84198e-18
8573.51300 7.05176e-18
8575.21059 7.18710e-18
8576.90818 7.16024e-18
8578.60577 6.80360e-18
8580.30336 6.13734e-18
8582.00094 5.58700e-18
8583.69853 5.43825e-18
8585.39612 5.50873e-18
8587.09371 5.60381e-18
8588.79130 5.72512e-18
8590.48888 5.90252e-18
8592.18647 6.20596e-18
8593.88406 6.62236e-18
8595.58165 6.77336e-18
8597.27924 6.33870e-18
8598.97682 5.59785e-18
8600.67441 5.02517e-18
8602.37200 4.89778e-18
8604.07963 5.29887e-18
8605.76718 5.87344e-18
8607.47481 6.09418e-18
8609.17240 6.03350e-18
8610.86999 6.13043e-18
8612.56757 6.38260e-18
8614.26516 6.48731e-18
8615.96275 6.36407e-18
8617.66034 6.12114e-18
8619.35793 6.11454e-18
8621.05551 6.92153e-18
8622.75310 8.48412e-18
8624.45069 1.00095e-17
8626.14828 1.07253e-17
8627.84587 9.91945e-18
8629.54346 7.74022e-18
8631.24104 5.64484e-18
8632.93863 4.60943e-18
8634.63622 4.60529e-18
8636.33381 5.25541e-18
8638.03140 5.62988e-18
8639.72898 5.25471e-18
8641.42657 4.94438e-18
8643.12416 5.32871e-18
8644.82175 6.06422e-18
8646.51934 6.67610e-18
8648.21692 6.81429e-18
8649.91451 6.34047e-18
8651.61210 5.67991e-18
8653.30969 5.33697e-18
8655.00728 5.40980e-18
8656.70486 5.80292e-18
8658.40245 6.34866e-18
8660.10004 6.84268e-18
8661.79763 7.17776e-18
8663.49522 7.31471e-18
8665.19281 7.14602e-18
8666.89039 6.58863e-18
8668.58798 5.89573e-18
8670.28557 5.51832e-18
8671.98316 5.53671e-18
8673.68075 5.71166e-18
8675.37833 5.94390e-18
8677.07592 6.25849e-18
8678.77351 6.65236e-18
8680.47110 7.11262e-18
8682.16869 7.54873e-18
8683.86627 7.77660e-18
8685.56386 7.67534e-18
8687.26145 7.20824e-18
8688.96908 6.51183e-18
8690.66667 5.98436e-18
8692.36426 5.87271e-18
8694.06185 6.11045e-18
8695.75944 6.52899e-18
8697.45702 6.84357e-18
8699.15461 6.85535e-18
8700.85220 6.60768e-18
8702.54979 6.23748e-18
8704.24738 5.95569e-18
8705.94496 5.93518e-18
8707.64255 6.24681e-18
8709.34014 6.81364e-18
8711.03773 7.13792e-18
8712.73532 6.80926e-18
8714.43291 6.32362e-18
8716.13049 6.36316e-18
8717.82808 6.72758e-18
8719.52567 6.87509e-18
8721.22326 6.74786e-18
8722.92085 6.55779e-18
8724.61843 6.54104e-18
8726.31602 6.91134e-18
8728.01361 7.40617e-18
8729.71120 7.42828e-18
8731.40879 7.02749e-18
8733.10637 6.82554e-18
8734.80396 6.99497e-18
8736.50155 7.24576e-18
8738.19914 7.37199e-18
8739.89673 7.25259e-18
8741.59431 6.89667e-18
8743.29190 6.51306e-18
8744.98949 6.24893e-18
8746.68708 6.13078e-18
8748.38467 6.12403e-18
8750.08226 6.10304e-18
8751.77984 5.98432e-18
8753.47743 5.75185e-18
8755.17502 5.53386e-18
8756.87261 5.80078e-18
8758.57020 6.76379e-18
8760.26778 7.88697e-18
8761.96537 8.60444e-18
8763.66296 8.68893e-18
8765.36055 8.14888e-18
8767.05814 7.47234e-18
8768.75572 7.10881e-18
8770.45331 6.70574e-18
8772.16095 5.79030e-18
8773.85853 4.59080e-18
8775.55612 3.63673e-18
8777.25371 3.50170e-18
8778.95130 4.56388e-18
8780.64889 6.05088e-18
8782.34647 6.61869e-18
8784.04406 6.26695e-18
8785.74165 5.96812e-18
8787.43924 5.95313e-18
8789.13683 5.86167e-18
8790.83441 5.65606e-18
8792.53200 5.54306e-18
8794.22959 5.55980e-18
8795.92718 5.59170e-18
8797.62477 5.48814e-18
8799.32236 5.03448e-18
8801.01994 4.34962e-18
8802.71753 4.06842e-18
8804.41512 4.39299e-18
8806.11271 4.74242e-18
8807.81030 4.74375e-18
8809.50788 4.53307e-18
8811.20547 4.27740e-18
8812.90306 4.12255e-18
8814.60065 4.12493e-18
8816.29824 4.08452e-18
8817.99582 3.86420e-18
8819.69341 3.63156e-18
8821.39100 3.57779e-18
8823.08859 3.76474e-18
8824.78618 4.16731e-18
8826.48376 4.62440e-18
8828.18135 4.95206e-18
8829.87894 5.06682e-18
8831.57653 4.97174e-18
8833.27412 4.82033e-18
8834.97171 4.80232e-18
8836.66929 4.85521e-18
8838.36688 4.78983e-18
8840.06447 4.67409e-18
8841.76206 4.71527e-18
8843.45965 4.78360e-18
8845.15723 4.52794e-18
8846.85482 4.00207e-18
8848.55241 3.61969e-18
8850.25000 3.64302e-18
8851.94759 4.16464e-18
8853.65522 5.04131e-18
8855.34276 5.82068e-18
8857.05040 6.35979e-18
8858.74798 7.01096e-18
8860.44557 7.75726e-18
8862.14316 7.95654e-18
8863.84075 7.35652e-18
8865.53834 6.41570e-18
8867.23592 5.60194e-18
8868.93351 5.31049e-18
8870.63110 5.60457e-18
8872.32869 5.74936e-18
8874.02628 5.28254e-18
8875.72386 4.82310e-18
8877.42145 4.98738e-18
8879.11904 5.78529e-18
8880.81663 6.94571e-18
8882.51422 7.81384e-18
8884.21181 7.83310e-18
8885.90939 7.29162e-18
8887.60698 6.74880e-18
8889.30457 6.26296e-18
8891.00216 5.74113e-18
8892.69975 5.57259e-18
8894.39733 6.22308e-18
8896.09492 7.28996e-18
8897.79251 7.89153e-18
8899.49010 7.88879e-18
8901.18769 7.69825e-18
8902.88527 7.18131e-18
8904.58286 5.81529e-18
8906.28045 4.25265e-18
8907.97804 4.20558e-18
8909.67563 5.68946e-18
8911.37321 6.79146e-18
8913.07080 6.51811e-18
8914.76839 5.10548e-18
8916.46598 3.24639e-18
8918.16357 2.36116e-18
8919.86116 2.88628e-18
8921.55874 3.37798e-18
8923.25633 3.02499e-18
8924.95392 2.57451e-18
8926.65151 2.63232e-18
8928.34910 3.20195e-18
8930.04668 4.08193e-18
8931.74427 4.72025e-18
8933.44186 4.73873e-18
8935.14949 4.46044e-18
8936.83704 4.28346e-18
8938.53462 4.25060e-18
8940.24226 4.31015e-18
8941.93985 4.38273e-18
8943.63743 4.43485e-18
8945.33502 4.81271e-18
8947.03261 5.83053e-18
8948.73020 6.90772e-18
8950.42779 7.18386e-18
8952.12537 6.81374e-18
8953.82296 6.49913e-18
8955.52055 6.26999e-18
8957.21814 5.74626e-18
8958.91573 4.98067e-18
8960.61331 4.33033e-18
8962.31090 3.98989e-18
8964.00849 4.00109e-18
8965.70608 4.27969e-18
8967.40367 4.60466e-18
8969.10125 4.71628e-18
8970.79884 4.31598e-18
8972.49643 3.59575e-18
8974.19402 3.46156e-18
8975.89161 4.19418e-18
8977.58920 4.98676e-18
8979.28678 5.32813e-18
8980.98437 5.44517e-18
8982.68196 5.42813e-18
8984.37955 4.83931e-18
8986.07714 3.69410e-18
8987.77472 3.23499e-18
8989.47231 4.23370e-18
8991.16990 5.69202e-18
8992.86749 6.58553e-18
8994.56508 7.08366e-18
8996.26266 7.52418e-18
8997.96025 7.69491e-18
8999.65784 7.34888e-18
9001.35543 6.61795e-18
9003.05302 5.76991e-18
9004.75061 5.04670e-18
9006.44819 4.60850e-18
9008.14578 4.29079e-18
9009.84337 3.79159e-18
9011.54096 3.13400e-18
9013.23855 2.57184e-18
9014.93613 2.37313e-18
9016.63372 2.77730e-18
9018.33131 3.71428e-18
9020.02890 4.80970e-18
9021.72649 5.73511e-18
9023.43412 6.25233e-18
9025.13171 6.10256e-18
9026.82930 5.01714e-18
9028.52688 3.44660e-18
9030.22447 2.78257e-18
9031.92206 3.47444e-18
9033.61965 4.44952e-18
9035.31724 5.01743e-18
9037.01482 5.33924e-18
9038.71241 5.54415e-18
9040.41000 5.61810e-18
9042.10759 5.54728e-18
9043.80518 5.26192e-18
9045.50276 4.76495e-18
9047.20035 4.30092e-18
9048.89794 4.01823e-18
9050.59553 3.59195e-18
9052.29312 2.81177e-18
9053.99070 2.20988e-18
9055.68829 2.31869e-18
9057.38588 2.95459e-18
9059.08347 3.66130e-18
9060.78106 4.03349e-18
9062.47865 3.80431e-18
9064.17623 3.05352e-18
9065.87382 2.13520e-18
9067.57141 1.84548e-18
9069.26900 2.98382e-18
9070.96659 4.68592e-18
9072.66417 5.05662e-18
9074.36176 4.04900e-18
9076.05935 3.14245e-18
9077.75694 2.95244e-18
9079.45453 3.27910e-18
9081.15211 3.90574e-18
9082.84970 4.53051e-18
9084.54729 4.74169e-18
9086.24488 4.04015e-18
9087.94247 2.68414e-18
9089.64005 2.01560e-18
9091.33764 2.66853e-18
9093.03523 4.04960e-18
9094.73282 5.45998e-18
9096.43041 6.15461e-18
9098.12800 5.87643e-18
9099.82558 5.43105e-18
9101.52317 5.49183e-18
9103.22076 6.04524e-18
9104.92839 6.84083e-18
9106.62598 7.32357e-18
9108.32357 7.10739e-18
9110.01111 6.55404e-18
9111.71875 6.12918e-18
9113.41633 5.88400e-18
9115.11392 5.71212e-18
9116.81151 5.41035e-18
9118.50910 4.83023e-18
9120.20669 4.28912e-18
9121.90427 4.23195e-18
9123.60186 4.61038e-18
9125.29945 5.08048e-18
9126.99704 5.26497e-18
9128.69463 4.84995e-18
9130.39221 4.24957e-18
9132.08980 4.38599e-18
9133.78739 5.11139e-18
9135.48498 5.33862e-18
9137.18257 5.01192e-18
9138.88015 5.11821e-18
9140.57774 5.78870e-18
9142.27533 6.16673e-18
9143.97292 5.97974e-18
9145.67051 5.72181e-18
9147.36810 5.74151e-18
9149.06568 6.19047e-18
9150.76327 6.87094e-18
9152.46086 6.93255e-18
9154.15845 6.00435e-18
9155.85604 4.85116e-18
9157.55362 3.99698e-18
9159.25121 2.94710e-18
9160.94880 1.54131e-18
9162.64639 9.18044e-19
9164.34398 1.83650e-18
9166.04156 3.44572e-18
9167.73915 4.62708e-18
9169.43674 4.63478e-18
9171.13433 3.28406e-18
9172.83192 1.90147e-18
9174.52950 1.95638e-18
9176.22709 3.04931e-18
9177.92468 4.02048e-18
9179.62227 4.37389e-18
9181.31986 4.08008e-18
9183.01745 3.75496e-18
9184.71503 4.31465e-18
9186.42267 5.51202e-18
9188.11021 6.27715e-18
9189.81784 6.24529e-18
9191.50539 5.66862e-18
9193.21302 5.14190e-18
9194.91061 5.59440e-18
9196.60820 6.81685e-18
9198.30578 7.28743e-18
9200.00337 6.58324e-18
9201.70096 5.71892e-18
9203.39855 5.34310e-18
9205.09614 5.57417e-18
9206.79372 6.15505e-18
9208.49131 6.14709e-18
9210.18890 5.22342e-18
9211.88649 4.37943e-18
9213.58408 4.27499e-18
9215.28166 4.46943e-18
9216.97925 4.64135e-18
9218.67684 5.26579e-18
9220.37443 6.48049e-18
9222.07202 7.15589e-18
9223.76960 6.41211e-18
9225.46719 4.84145e-18
9227.16478 3.40027e-18
9228.86237 2.81341e-18
9230.55996 3.41555e-18
9232.25755 4.39814e-18
9233.95513 4.71205e-18
9235.65272 4.56376e-18
9237.35031 4.72687e-18
9239.04790 5.47940e-18
9240.74549 6.74136e-18
9242.44307 8.07195e-18
9244.14066 8.79343e-18
9245.83825 8.64369e-18
9247.53584 7.76865e-18
9249.23343 6.46630e-18
9250.93101 5.18347e-18
9252.62860 4.26259e-18
9254.32619 3.86458e-18
9256.02378 4.05854e-18
9257.72137 4.81836e-18
9259.41895 5.73308e-18
9261.11654 5.88776e-18
9262.81413 5.06020e-18
9264.51172 4.14728e-18
9266.20931 3.76969e-18
9267.91694 3.94502e-18
9269.60448 4.43074e-18
9271.31212 4.49711e-18
9272.99966 3.83184e-18
9274.70729 3.27657e-18
9276.40488 3.47131e-18
9278.10247 4.07163e-18
9279.80006 4.58069e-18
9281.49764 4.59811e-18
9283.19523 4.00112e-18
9284.89282 3.54564e-18
9286.59041 3.96000e-18
9288.28800 4.69930e-18
9289.98559 4.94858e-18
9291.68317 5.08618e-18
9293.38076 5.79955e-18
9295.07835 6.38707e-18
9296.77594 5.72857e-18
9298.47353 4.77107e-18
9300.17111 5.45429e-18
9301.86870 7.14675e-18
9303.56629 7.49395e-18
9305.26388 6.32694e-18
9306.96147 5.28407e-18
9308.65905 4.97831e-18
9310.35664 5.09162e-18
9312.05423 5.18721e-18
9313.75182 4.56762e-18
9315.44941 3.67427e-18
9317.14700 4.52365e-18
9318.84458 7.35342e-18
9320.54217 9.75440e-18
9322.23976 1.00219e-17
9323.93735 7.74734e-18
9325.63494 3.61533e-18
9327.33252 2.58191e-19
9329.03011 -7.93521e-19
9330.72770 -1.04914e-18
9332.42529 -1.76505e-18
9334.12288 -2.40014e-18
9335.82046 -2.24272e-18
9337.51805 -8.79466e-19
9339.21564 1.71970e-18
9340.91323 4.71000e-18
9342.61082 7.09347e-18
9344.30840 8.38625e-18
9346.00599 8.45524e-18
9347.70358 7.42255e-18
9349.41121 5.69855e-18
9351.09876 4.20706e-18
9352.80639 3.87783e-18
9354.49393 4.58337e-18
9356.20157 5.50463e-18
9357.89915 5.96673e-18
9359.59674 5.49871e-18
9361.29433 4.33311e-18
9362.99192 3.30964e-18
9364.68951 2.58231e-18
9366.38709 1.65943e-18
9368.08468 6.90453e-19
9369.78227 4.35563e-19
9371.47986 1.24957e-18
9373.17745 3.06480e-18
9374.87504 5.05400e-18
9376.57262 5.27816e-18
9378.27021 3.45277e-18
9379.96780 2.04073e-18
9381.66539 2.47664e-18
9383.36298 4.02476e-18
9385.06056 5.72812e-18
9386.75815 6.48866e-18
9388.45574 5.94614e-18
9390.15333 5.70101e-18
9391.85092 6.81999e-18
9393.54850 7.93656e-18
9395.24609 7.81501e-18
9396.94368 7.17261e-18
9398.64127 6.95361e-18
9400.33886 7.22878e-18
9402.03644 7.67654e-18
9403.73403 7.48626e-18
9405.43162 6.00397e-18
9407.12921 3.94753e-18
9408.82680 2.60695e-18
9410.52439 2.73620e-18
9412.22197 4.50478e-18
9413.91956 6.95499e-18
9415.61715 8.45778e-18
9417.31474 8.27579e-18
9419.01233 6.54447e-18
9420.70991 4.30035e-18
9422.40750 3.32338e-18
9424.10509 3.63305e-18
9425.80268 3.38845e-18
9427.50027 2.37027e-18
9429.19785 2.26386e-18
9430.89544 3.35210e-18
9432.59303 4.06245e-18
9434.29062 3.92197e-18
9435.98821 4.17352e-18
9437.69584 5.35463e-18
9439.39343 6.74610e-18
9441.09102 7.62451e-18
9442.78860 7.33182e-18
9444.48619 5.83917e-18
9446.18378 4.46956e-18
9447.88137 4.22095e-18
9449.57896 4.78212e-18
9451.27654 5.54385e-18
9452.97413 5.87494e-18
9454.67172 5.40503e-18
9456.36931 4.50671e-18
9458.06690 3.80328e-18
9459.76449 3.96770e-18
9461.46207 5.33100e-18
9463.15966 6.92061e-18
9464.85725 7.45443e-18
9466.55484 7.04680e-18
9468.25243 6.50543e-18
9469.95001 6.09592e-18
9471.64760 5.74906e-18
9473.34519 5.25705e-18
9475.04278 4.33035e-18
9476.74037 3.05530e-18
9478.43795 1.85939e-18
9480.13554 1.59337e-18
9481.83313 3.41218e-18
9483.53072 6.59377e-18
9485.22831 8.37875e-18
9486.92589 7.92273e-18
9488.62348 6.86174e-18
9490.32107 6.15582e-18
9492.01866 5.74486e-18
9493.71625 5.47901e-18
9495.41384 4.95125e-18
9497.11142 4.17384e-18
9498.80901 4.10947e-18
9500.50660 5.12559e-18
9502.20419 6.12876e-18
9503.90178 6.35841e-18
9505.59936 6.39418e-18
9507.29695 6.67579e-18
9508.99454 6.58343e-18
9510.69213 5.62595e-18
9512.38972 4.34686e-18
9514.08730 3.38934e-18
9515.78489 2.57082e-18
9517.48248 1.68297e-18
9519.19011 1.71446e-18
9520.88770 3.56923e-18
9522.58529 5.83176e-18
9524.28288 6.41120e-18
9525.98047 5.53861e-18
9527.67805 4.72835e-18
9529.37564 4.71500e-18
9531.07323 5.63335e-18
9532.77082 6.94536e-18
9534.46841 7.56165e-18
9536.16599 7.21778e-18
9537.86358 6.45445e-18
9539.56117 5.73725e-18
9541.25876 5.46165e-18
9542.95635 5.58254e-18
9544.65394 5.48824e-18
9546.35152 4.87832e-18
9548.04911 3.90676e-18
9549.74670 2.86057e-18
9551.44429 2.15512e-18
9553.14188 2.19071e-18
9554.83946 3.46075e-18
9556.53705 5.60333e-18
9558.23464 6.44087e-18
9559.93223 5.03982e-18
9561.62982 3.81394e-18
9563.32740 4.48941e-18
9565.02499 5.68516e-18
9566.72258 5.92927e-18
9568.42017 5.23155e-18
9570.11776 4.09334e-18
9571.81534 3.32714e-18
9573.51293 3.64779e-18
9575.21052 5.05798e-18
9576.90811 7.11534e-18
9578.60570 9.06693e-18
9580.30329 1.01297e-17
9582.00087 1.00202e-17
9583.69846 8.87880e-18
9585.39605 7.12580e-18
9587.09364 5.36818e-18
9588.79123 4.15323e-18
9590.48881 3.85832e-18
9592.18640 4.18029e-18
9593.88399 4.25666e-18
9595.58158 4.21695e-18
9597.27917 5.14677e-18
9598.97675 6.78809e-18
9600.67434 7.42729e-18
9602.38198 6.69467e-18
9604.07956 5.92682e-18
9605.76711 5.78997e-18
9607.47474 5.94351e-18
9609.17233 6.04642e-18
9610.86992 5.76582e-18
9612.56750 5.02552e-18
9614.26509 4.24247e-18
9615.96268 3.81212e-18
9617.66027 3.99810e-18
9619.35786 4.75270e-18
9621.05544 5.41635e-18
9622.75303 5.41384e-18
9624.45062 4.59593e-18
9626.14821 3.22204e-18
9627.84580 2.36262e-18
9629.54339 2.91756e-18
9631.24097 4.53193e-18
9632.93856 6.36444e-18
9634.63615 7.68210e-18
9636.33374 7.97238e-18
9638.03133 7.35705e-18
9639.72891 6.35164e-18
9641.42650 5.43794e-18
9643.12409 4.99273e-18
9644.82168 4.94674e-18
9646.51927 4.91792e-18
9648.21685 4.90454e-18
9649.91444 5.17965e-18
9651.61203 5.92561e-18
9653.30962 7.24850e-18
9655.00721 8.27898e-18
9656.70479 7.16854e-18
9658.40238 4.40424e-18
9660.09997 3.24773e-18
9661.79756 5.03567e-18
9663.49515 8.44130e-18
9665.19274 1.18095e-17
9666.89032 1.30802e-17
9668.58791 1.16121e-17
9670.28550 9.39146e-18
9671.98309 7.99704e-18
9673.68068 7.59840e-18
9675.37826 7.89237e-18
9677.07585 7.96901e-18
9678.77344 7.09278e-18
9680.47103 5.20903e-18
9682.16862 2.75648e-18
9683.86620 1.04107e-18
9685.56379 1.05481e-18
9687.26138 2.19887e-18
9688.96901 3.38370e-18
9690.66660 3.76409e-18
9692.36419 2.93596e-18
9694.06178 1.83437e-18
9695.75937 1.75298e-18
9697.45695 2.41459e-18
9699.15454 2.75527e-18
9700.85213 2.48031e-18
9702.54972 1.81786e-18
9704.24731 1.26661e-18
9705.94489 1.49831e-18
9707.64248 2.40090e-18
9709.34007 3.16931e-18
9711.03766 3.42948e-18
9712.73525 3.24459e-18
9714.43283 2.92702e-18
9716.13042 3.09868e-18
9717.82801 3.80730e-18
9719.52560 4.33286e-18
9721.22319 4.24504e-18
9722.92078 3.53593e-18
9724.61836 2.56133e-18
9726.31595 2.28571e-18
9728.01354 3.09179e-18
9729.71113 4.17591e-18
9731.40872 4.85162e-18
9733.10630 4.96002e-18
9734.80389 4.62119e-18
9736.50148 4.44628e-18
9738.19907 4.84615e-18
9739.89666 5.47567e-18
9741.59424 5.82281e-18
9743.29183 5.31140e-18
9744.98942 3.76924e-18
9746.68701 2.51500e-18
9748.38460 2.83787e-18
9750.08219 3.81017e-18
9751.77977 3.85078e-18
9753.47736 2.78902e-18
9755.17495 1.30093e-18
9756.87254 6.48613e-19
9758.57013 2.11855e-18
9760.26771 4.75997e-18
9761.96530 6.15882e-18
9763.66289 5.51098e-18
9765.36048 3.44311e-18
9767.05807 1.31802e-18
9768.75565 1.16573e-18
9770.45324 3.01640e-18
9772.16088 4.64888e-18
9773.85846 5.21083e-18
9775.55605 5.56973e-18
9777.25364 6.22934e-18
9778.95123 7.23894e-18
9780.64882 8.41896e-18
9782.34640 9.20581e-18
9784.04399 9.16434e-18
9785.74158 8.09804e-18
9787.43917 6.24042e-18
9789.13676 4.63018e-18
9790.83434 3.90032e-18
9792.53193 3.50504e-18
9794.22952 2.89384e-18
9795.92711 1.99692e-18
9797.62470 1.00963e-18
9799.32228 7.26156e-19
9801.01987 1.64002e-18
9802.71746 2.64774e-18
9804.41505 2.59558e-18
9806.11264 2.18444e-18
9807.81023 2.56027e-18
9809.50781 3.62684e-18
9811.20540 4.68164e-18
9812.90299 4.90192e-18
9814.60058 3.64333e-18
9816.29817 1.76920e-18
9817.99575 1.00543e-18
9819.69334 1.51625e-18
9821.39093 2.26196e-18
9823.08852 2.91012e-18
9824.78611 3.68744e-18
9826.48369 4.31598e-18
9828.18128 4.12456e-18
9829.87887 3.34975e-18
9831.57646 3.21843e-18
9833.27405 4.19922e-18
9834.97163 5.76980e-18
9836.66922 7.21400e-18
9838.36681 7.54717e-18
9840.06440 6.52659e-18
9841.76199 5.21814e-18
9843.45958 4.41633e-18
9845.15716 4.13312e-18
9846.85475 4.21109e-18
9848.55234 4.31578e-18
9850.24993 4.20882e-18
9851.94752 4.07981e-18
9853.65515 4.05652e-18
9855.34269 3.76142e-18
9857.05033 2.95276e-18
9858.74791 2.23306e-18
9860.44550 2.17639e-18
9862.14309 2.18110e-18
9863.84068 1.58454e-18
9865.53827 1.45396e-18
9867.23585 3.08651e-18
9868.93344 5.12659e-18
9870.63103 5.37706e-18
9872.32862 5.04303e-18
9874.02621 6.89042e-18
9875.72379 1.00452e-17
9877.42138 1.12902e-17
9879.11897 9.20041e-18
9880.81656 3.98636e-18
9882.51415 -1.88241e-18
9884.21173 -3.87613e-18
9885.90932 -1.46734e-18
9887.60691 1.38186e-18
9889.30450 2.40828e-18
9891.00209 1.48553e-18
9892.69968 -3.55189e-19
9894.39726 -2.54305e-19
9896.09485 2.53753e-18
9897.79244 5.13836e-18
9899.49003 5.53084e-18
9901.18762 3.60993e-18
9902.88520 2.43606e-19
9904.58279 -2.04398e-18
9906.28038 -1.75746e-18
9907.97797 -4.14836e-19
9909.67556 4.45350e-19
9911.37314 8.20731e-19
9913.07073 1.06116e-18
9914.76832 1.55336e-18
9916.46591 2.55763e-18
9918.16350 3.81256e-18
9919.86108 4.86239e-18
9921.55867 5.29384e-18
9923.25626 4.88140e-18
9924.95385 3.93757e-18
9926.65144 3.04041e-18
9928.34903 2.70095e-18
9930.04661 3.20456e-18
9931.74420 3.83309e-18
9933.44179 3.35076e-18
9935.14942 2.08354e-18
9936.83697 1.50489e-18
9938.54460 1.83657e-18
9940.23214 2.21925e-18
9941.93978 2.18884e-18
9943.63736 1.62557e-18
9945.33495 8.26275e-19
9947.03254 6.64885e-19
9948.73013 1.03742e-18
9950.42772 4.50202e-19
9952.12530 -1.34962e-18
9953.82289 -2.67924e-18
9955.52048 -2.51394e-18
9957.21807 -1.13552e-18
9958.91566 1.02120e-18
9960.61324 3.45326e-18
9962.31083 5.73895e-18
9964.00842 7.90684e-18
9965.70601 9.73605e-18
9967.40360 1.01092e-17
9969.10118 8.39479e-18
9970.79877 5.46095e-18
9972.49636 2.60040e-18
9974.19395 1.12123e-18
9975.89154 1.76581e-18
9977.58913 3.61677e-18
9979.28671 5.19461e-18
9980.98430 5.77221e-18
9982.68189 5.14504e-18
9984.37948 3.47657e-18
9986.07707 1.30086e-18
9987.77465 -5.81894e-19
9989.47224 -1.35881e-18
9991.16983 -6.66464e-19
9992.86742 1.34479e-18
9994.56501 3.33910e-18
9996.26259 3.18351e-18
9997.96018 1.43752e-18
9999.65777 1.22210e-18
