# wavelength flux
3550.00000 2.90192e-16
3554.73163 -5.38470e-17
3559.46325 4.21501e-16
3564.19488 3.43778e-16
3568.92651 1.49787e-16
3573.65814 -1.32150e-16
3578.38976 1.96801e-16
3583.12139 3.11400e-16
3587.85302 1.02641e-16
3592.58464 -4.23117e-17
3597.31627 1.04855e-16
3602.04790 1.69386e-16
3606.77952 1.57122e-16
3611.51115 1.53239e-16
3616.24278 9.22628e-18
3620.97440 1.56558e-17
3625.70603 1.95427e-16
3630.43766 1.42668e-16
3635.16929 -9.09387e-17
3639.90091 -1.36768e-16
3644.63254 -5.95397e-17
3649.36417 7.25302e-17
3654.09579 1.26945e-16
3658.82742 1.20541e-16
3663.55905 2.08932e-16
3668.29068 2.50554e-16
3673.02230 1.35286e-16
3677.75393 3.14844e-18
3682.48556 1.19623e-16
3687.21718 3.03829e-16
3691.94881 4.30255e-16
3696.68044 4.51841e-16
3701.41206 3.76825e-16
3706.14369 2.43055e-16
3710.87532 1.43892e-16
3715.60694 1.99075e-16
3720.33857 1.28033e-16
3725.07020 1.40839e-16
3729.80183 1.99002e-16
3734.53345 2.00131e-16
3739.26508 2.41941e-16
3743.99671 2.46091e-16
3748.72833 3.30957e-16
3753.45996 3.00323e-16
3758.19159 1.91792e-16
3762.92321 1.46813e-16
3767.65484 3.06497e-16
3772.38647 3.59134e-16
3777.11809 3.61087e-16
3781.84972 3.86452e-16
3786.58135 1.73024e-16
3791.31298 5.72693e-17
3796.04460 1.80510e-16
3800.77623 3.09498e-16
3805.50786 3.65932e-16
3810.23948 3.97680e-16
3814.97111 3.69186e-16
3819.70274 3.22281e-16
3824.43437 3.75159e-16
3829.16599 4.31262e-16
3833.89762 3.40134e-16
3838.62925 3.06112e-16
3843.36087 3.49354e-16
3848.09250 3.82028e-16
3852.82413 4.59575e-16
3857.55575 5.14431e-16
3862.28738 3.88278e-16
3867.01901 2.94248e-16
3871.75063 2.28810e-16
3876.48226 2.78949e-16
3881.21389 4.00006e-16
3885.94552 3.65343e-16
3890.67714 3.10860e-16
3895.40877 3.39746e-16
3900.14040 3.45300e-16
3904.87202 3.30992e-16
3909.60365 3.27875e-16
3914.33528 2.94420e-16
3919.06691 3.05361e-16
3923.79853 3.41591e-16
3928.53016 3.47179e-16
3933.26179 3.67905e-16
3937.99341 3.54350e-16
3942.72504 2.84414e-16
3947.45667 3.62736e-16
3952.18829 4.23137e-16
3956.91992 3.14698e-16
3961.65155 3.08934e-16
3966.38317 4.08502e-16
3971.11480 4.06574e-16
3975.84643 3.27646e-16
3980.57806 3.21587e-16
3985.30968 3.52306e-16
3990.04131 3.74041e-16
3994.77294 3.56015e-16
3999.50456 3.36063e-16
4004.23619 3.90169e-16
4008.96782 3.41705e-16
4013.69945 2.91872e-16
4018.43107 3.10414e-16
4023.16270 3.16366e-16
4027.89433 3.28320e-16
4032.62595 2.81249e-16
4037.35758 2.58560e-16
4042.08921 2.49449e-16
4046.82083 2.95621e-16
4051.55246 3.92220e-16
4056.28409 4.22738e-16
4061.01572 3.82632e-16
4065.74734 3.49620e-16
4070.47897 3.65968e-16
4075.21060 4.91024e-16
4079.94222 4.67511e-16
4084.67385 3.42398e-16
4089.40548 3.18488e-16
4094.13710 3.20339e-16
4098.86873 2.92121e-16
4103.60036 4.38395e-16
4108.33198 5.45740e-16
4113.06361 4.46005e-16
4117.79524 3.31803e-16
4122.52686 2.78004e-16
4127.25849 3.24329e-16
4131.99012 3.61384e-16
4136.72175 3.62820e-16
4141.45337 4.02389e-16
4146.18500 4.16280e-16
4150.91663 4.07915e-16
4155.64825 4.36409e-16
4160.37988 4.42983e-16
4165.11151 4.74290e-16
4169.84314 4.97899e-16
4174.57476 4.69379e-16
4179.30639 4.15389e-16
4184.03802 4.39082e-16
4188.76964 4.50250e-16
4193.50127 3.99042e-16
4198.23290 3.95725e-16
4202.96452 3.68267e-16
4207.69615 3.38335e-16
4212.42778 4.21440e-16
4217.15941 4.60187e-16
4221.89103 4.14474e-16
4226.62266 3.94690e-16
4231.35429 4.59211e-16
4236.08591 5.33355e-16
4240.81754 5.50603e-16
4245.54917 5.06542e-16
4250.28079 4.20879e-16
4255.01242 4.36107e-16
4259.74405 4.84636e-16
4264.47567 3.88865e-16
4269.20730 3.53813e-16
4273.93893 4.65609e-16
4278.67056 5.64177e-16
4283.40218 5.22544e-16
4288.13381 4.98839e-16
4292.86544 5.30890e-16
4297.59706 5.25516e-16
4302.32869 5.22000e-16
4307.06032 5.12301e-16
4311.79194 4.76575e-16
4316.52357 4.87518e-16
4321.25520 4.71311e-16
4325.98683 4.76312e-16
4330.71845 5.24752e-16
4335.45008 5.07810e-16
4340.18171 4.64081e-16
4344.91333 4.27240e-16
4349.64496 4.48933e-16
4354.37659 4.39537e-16
4359.10822 3.90063e-16
4363.83984 4.44542e-16
4368.57147 5.29940e-16
4373.30310 5.01412e-16
4378.03472 4.90384e-16
4382.76635 5.11411e-16
4387.49798 5.28328e-16
4392.22960 5.47808e-16
4396.96123 5.96757e-16
4401.69286 5.83463e-16
4406.42448 5.40111e-16
4411.15611 5.61994e-16
4415.88774 5.70789e-16
4420.61937 5.49116e-16
4425.35099 5.25037e-16
4430.08262 4.57776e-16
4434.81425 4.68897e-16
4439.54587 5.66440e-16
4444.27750 5.76732e-16
4449.00913 5.48759e-16
4453.74075 5.67799e-16
4458.47238 5.09002e-16
4463.20401 4.59407e-16
4467.93564 5.34755e-16
4472.66726 5.65318e-16
4477.39889 5.35832e-16
4482.13052 5.02405e-16
4486.86214 4.56523e-16
4491.59377 4.37658e-16
4496.32540 5.04423e-16
4501.05702 5.59436e-16
4505.78865 5.51728e-16
4510.52028 5.75135e-16
4515.25191 5.22888e-16
4519.98353 4.57407e-16
4524.71516 5.22699e-16
4529.44679 5.68747e-16
4534.17841 5.70297e-16
4538.91004 5.69493e-16
4543.64167 5.87751e-16
4548.37329 5.09692e-16
4553.10492 4.40830e-16
4557.83655 5.13035e-16
4562.56818 5.79447e-16
4567.29980 5.56349e-16
4572.03143 5.28196e-16
4576.76306 5.56460e-16
4581.49468 5.41470e-16
4586.22631 4.78498e-16
4590.95794 5.04763e-16
4595.68956 5.38137e-16
4600.42119 5.18056e-16
4605.15282 4.95616e-16
4609.88444 4.71470e-16
4614.61607 4.73892e-16
4619.34770 5.21886e-16
4624.07933 5.75264e-16
4628.81095 5.75261e-16
4633.54258 5.89621e-16
4638.27421 6.44430e-16
4643.00583 6.07197e-16
4647.73746 5.67431e-16
4652.46909 5.48283e-16
4657.20071 5.11611e-16
4661.93234 5.27665e-16
4666.66397 5.97111e-16
4671.39560 5.86810e-16
4676.12722 5.73577e-16
4680.85885 5.60014e-16
4685.59048 5.49440e-16
4690.32210 5.61969e-16
4695.05373 5.67462e-16
4699.78536 5.69799e-16
4704.51699 5.65684e-16
4709.24861 6.21939e-16
4713.98024 6.59883e-16
4718.71187 6.12623e-16
4723.44349 5.59908e-16
4728.17512 5.51016e-16
4732.90675 5.67133e-16
4737.63837 5.31196e-16
4742.37000 5.43477e-16
4747.10163 6.15091e-16
4751.83325 6.36966e-16
4756.56488 6.02616e-16
4761.29651 5.82480e-16
4766.02814 5.78568e-16
4770.75976 5.85680e-16
4775.49139 6.04184e-16
4780.22302 6.21596e-16
4784.95464 5.90877e-16
4789.68627 5.42013e-16
4794.41790 5.27028e-16
4799.14952 5.24280e-16
4803.88115 5.36060e-16
4808.61278 5.78602e-16
4813.34441 6.48222e-16
4818.07603 6.68101e-16
4822.80766 6.35568e-16
4827.53929 6.20532e-16
4832.27091 6.26959e-16
4837.00254 6.20070e-16
4841.73417 6.16361e-16
4846.46580 6.50766e-16
4851.19742 6.57955e-16
4855.92905 6.35815e-16
4860.66068 6.55524e-16
4865.39230 6.80294e-16
4870.12393 6.68021e-16
4874.85556 6.42694e-16
4879.58718 6.11882e-16
4884.31881 5.94034e-16
4889.05044 5.93243e-16
4893.78206 5.95919e-16
4898.51369 5.94223e-16
4903.24532 5.87772e-16
4907.97695 5.82010e-16
4912.70857 5.84107e-16
4917.44020 6.38475e-16
4922.17183 6.92760e-16
4926.90345 6.84505e-16
4931.63508 6.27511e-16
4936.36671 6.01230e-16
4941.09833 5.86221e-16
4945.82996 5.78415e-16
4950.56159 5.75839e-16
4955.29321 5.87246e-16
4960.02484 6.02911e-16
4964.75647 6.03071e-16
4969.48810 6.49296e-16
4974.21972 6.98105e-16
4978.95135 6.77892e-16
4983.68298 6.60637e-16
4988.41460 7.12710e-16
4993.14623 7.22892e-16
4997.87786 6.74054e-16
5002.60948 6.51870e-16
5007.34111 6.70926e-16
5012.07274 6.99162e-16
5016.80437 7.03410e-16
5021.53599 6.65167e-16
5026.26762 6.40840e-16
5030.99925 6.77763e-16
5035.73087 7.11039e-16
5040.46250 6.95493e-16
5045.19413 6.70963e-16
5049.92576 6.73418e-16
5054.65738 6.84167e-16
5059.38901 6.86743e-16
5064.12064 6.80669e-16
5068.85226 6.93342e-16
5073.58389 7.23632e-16
5078.31552 7.40775e-16
5083.04714 7.50049e-16
5087.77877 7.54731e-16
5092.51040 7.47265e-16
5097.24202 7.38005e-16
5101.97365 7.20605e-16
5106.70528 7.02076e-16
5111.43691 7.01660e-16
5116.16853 7.19645e-16
5120.90016 7.33832e-16
5125.63179 7.34374e-16
5130.36341 7.20385e-16
5135.09504 7.09821e-16
5139.82667 7.28779e-16
5144.55829 7.45409e-16
5149.28992 7.31292e-16
5154.02155 7.26110e-16
5158.75318 7.21285e-16
5163.48480 7.05828e-16
5168.21643 7.07751e-16
5172.94806 7.20745e-16
5177.67968 7.16227e-16
5182.41131 7.05410e-16
5187.14294 7.12778e-16
5191.87457 7.21601e-16
5196.60619 7.21533e-16
5201.33782 7.16294e-16
5206.06945 7.20670e-16
5210.80107 7.23562e-16
5215.53270 7.20418e-16
5220.26433 7.24465e-16
5224.99595 7.15735e-16
5229.72758 7.06546e-16
5234.45921 7.09143e-16
5239.19084 7.18720e-16
5243.92246 7.28583e-16
5248.65409 7.40517e-16
5253.38572 7.25226e-16
5258.11734 7.12652e-16
5262.84897 7.38796e-16
5267.58060 7.56800e-16
5272.31222 7.42261e-16
5277.04385 7.29419e-16
5281.77548 7.46095e-16
5286.50710 7.46053e-16
5291.23873 7.25772e-16
5295.97036 7.21228e-16
5300.70198 7.27704e-16
5305.43361 7.39262e-16
5310.16524 7.55477e-16
5314.89687 7.65581e-16
5319.62849 7.46721e-16
5324.36012 7.45861e-16
5329.09175 7.68017e-16
5333.82337 7.76987e-16
5338.55500 7.83048e-16
5343.28663 7.76273e-16
5348.01825 7.56639e-16
5352.74988 7.50742e-16
5357.48151 7.65084e-16
5362.21314 7.97238e-16
5366.94476 8.21105e-16
5371.67639 8.05657e-16
5376.40802 7.72742e-16
5381.13964 7.51020e-16
5385.87127 7.67343e-16
5390.60290 7.96193e-16
5395.33453 7.97299e-16
5400.06615 7.92854e-16
5404.79778 7.86538e-16
5409.52941 7.74011e-16
5414.26103 7.77208e-16
5418.99266 7.96913e-16
5423.72429 8.08013e-16
5428.45591 8.12120e-16
5433.18754 8.15680e-16
5437.91917 8.05693e-16
5442.65079 7.95831e-16
5447.38242 7.99091e-16
5452.11405 7.98176e-16
5456.84568 7.82528e-16
5461.57730 7.67300e-16
5466.30893 7.73250e-16
5471.04056 7.96096e-16
5475.77218 7.93786e-16
5480.50381 7.94320e-16
5485.23544 8.23275e-16
5489.96706 8.35889e-16
5494.69869 8.44270e-16
5499.43032 8.42575e-16
5504.16195 8.32403e-16
5508.89357 8.34006e-16
5513.62520 8.51294e-16
5518.35683 8.56921e-16
5523.08845 8.43495e-16
5527.82008 8.32702e-16
5532.55171 8.39308e-16
5537.28334 8.61692e-16
5542.01496 8.75105e-16
5546.74659 8.64189e-16
5551.47822 8.45505e-16
5556.20984 8.46937e-16
5560.94147 8.54675e-16
5565.67310 8.50541e-16
5570.40472 8.48698e-16
5575.13635 8.49509e-16
5579.86798 8.38383e-16
5584.59961 8.30665e-16
5589.33123 8.44695e-16
5594.06286 8.59852e-16
5598.79449 8.55270e-16
5603.52611 8.47675e-16
5608.25774 8.71798e-16
5612.98937 8.94086e-16
5617.72099 8.88980e-16
5622.45262 8.87514e-16
5627.18425 8.99197e-16
5631.91587 8.82294e-16
5636.64750 8.72524e-16
5641.37913 8.85881e-16
5646.11075 8.94877e-16
5650.84238 8.92807e-16
5655.57401 8.76478e-16
5660.30564 8.65863e-16
5665.03726 8.69227e-16
5669.76889 8.78138e-16
5674.50052 8.60578e-16
5679.23214 8.41942e-16
5683.96377 8.70008e-16
5688.69540 8.78618e-16
5693.42702 8.56531e-16
5698.15865 8.50303e-16
5702.89028 8.67769e-16
5707.62191 8.87780e-16
5712.35353 9.00275e-16
5717.08516 8.89165e-16
5721.81679 8.64571e-16
5726.54841 8.50431e-16
5731.28004 8.37492e-16
5736.01167 8.29488e-16
5740.74330 8.27730e-16
5745.47492 8.48046e-16
5750.20655 8.93437e-16
5754.93818 9.18660e-16
5759.66980 9.07855e-16
5764.40143 8.94593e-16
5769.13306 9.04694e-16
5773.86468 9.03029e-16
5778.59631 8.85699e-16
5783.32794 8.88710e-16
5788.05956 8.20368e-16
5792.79119 9.00218e-16
5797.52282 9.00538e-16
5802.25445 8.80401e-16
5806.98607 8.82212e-16
5811.71770 8.99654e-16
5816.44933 9.02688e-16
5821.18095 8.99918e-16
5825.91258 9.08977e-16
5830.64421 9.12898e-16
5835.37583 9.01222e-16
5840.10746 9.07559e-16
5844.83909 9.08770e-16
5849.57072 8.99810e-16
5854.30234 8.92852e-16
5859.03397 8.74730e-16
5863.76560 8.72274e-16
5868.49722 8.71875e-16
5873.22885 8.52105e-16
5877.96048 8.33332e-16
5882.69211 8.29145e-16
5887.42373 8.42128e-16
5892.15536 8.55389e-16
5896.88699 8.78801e-16
5901.61861 9.01565e-16
5906.35024 8.97695e-16
5911.08187 8.92023e-16
5915.81349 8.99681e-16
5920.54512 8.97453e-16
5925.27675 8.68990e-16
5930.00838 8.41465e-16
5934.74000 8.45247e-16
5939.47163 8.94467e-16
5944.20326 9.84002e-16
5948.93488 1.05944e-15
5953.66651 1.04620e-15
5958.39814 9.22210e-16
5963.12976 7.49514e-16
5967.86139 5.88216e-16
5972.59302 5.50404e-16
5977.32464 6.67252e-16
5982.05627 8.09936e-16
5986.78790 8.93406e-16
5991.51953 9.30412e-16
5996.25115 9.37315e-16
6000.98278 9.33910e-16
6005.71441 9.33574e-16
6010.44603 9.24768e-16
6015.17766 9.18071e-16
6019.90929 9.20955e-16
6024.64091 9.20307e-16
6029.37254 9.15074e-16
6034.10417 9.08687e-16
6038.83579 9.08143e-16
6043.56742 9.02678e-16
6048.29905 8.88561e-16
6053.03068 8.87544e-16
6057.76230 8.90910e-16
6062.49393 8.79559e-16
6067.22556 8.75319e-16
6071.95718 8.82937e-16
6076.68881 8.68053e-16
6081.42044 8.46627e-16
6086.15207 8.47894e-16
6090.88369 8.57162e-16
6095.61532 8.50295e-16
6100.34695 8.40426e-16
6105.07857 8.61610e-16
6109.81020 8.86597e-16
6114.54183 8.84724e-16
6119.27345 8.66618e-16
6124.00508 8.36659e-16
6128.73671 8.33473e-16
6133.46833 8.55704e-16
6138.19996 8.56895e-16
6142.93159 8.46160e-16
6147.66322 8.43669e-16
6152.39484 8.46742e-16
6157.12647 8.39449e-16
6161.85810 8.32910e-16
6166.58972 8.33675e-16
6171.32135 8.38248e-16
6176.05298 8.41326e-16
6180.78460 8.30829e-16
6185.51623 8.22656e-16
6190.24786 8.29585e-16
6194.97949 8.38973e-16
6199.71111 8.44416e-16
6204.44274 8.33612e-16
6209.17437 8.20208e-16
6213.90599 8.19335e-16
6218.63762 8.20550e-16
6223.36925 8.10523e-16
6228.10088 7.89311e-16
6232.83250 8.10187e-16
6237.56413 8.37004e-16
6242.29576 8.18817e-16
6247.02738 7.98476e-16
6251.75901 8.06509e-16
6256.49064 8.20380e-16
6261.22226 8.17710e-16
6265.95389 7.95721e-16
6270.68552 7.76183e-16
6275.41715 7.79066e-16
6280.14877 7.83618e-16
6284.88040 7.77565e-16
6289.61203 7.82907e-16
6294.34365 7.98683e-16
6299.07528 7.95304e-16
6303.80691 7.79607e-16
6308.53853 7.97522e-16
6313.27016 8.11982e-16
6318.00179 7.85128e-16
6322.73341 7.68153e-16
6327.46504 7.72589e-16
6332.19667 7.86221e-16
6336.92830 8.06325e-16
6341.65992 8.08603e-16
6346.39155 7.88132e-16
6351.12318 7.73238e-16
6355.85480 7.80056e-16
6360.58643 7.84079e-16
6365.31806 7.76636e-16
6370.04968 7.74933e-16
6374.78131 7.88542e-16
6379.51294 7.99502e-16
6384.24456 8.15191e-16
6388.97619 8.06908e-16
6393.70782 7.78140e-16
6398.43945 7.72628e-16
6403.17107 7.79253e-16
6407.90270 7.90568e-16
6412.63433 8.09258e-16
6417.36595 8.07425e-16
6422.09758 7.97721e-16
6426.82921 8.12783e-16
6431.56084 8.07834e-16
6436.29246 7.82696e-16
6441.02409 7.92726e-16
6445.75572 8.05743e-16
6450.48734 8.00886e-16
6455.21897 8.08078e-16
6459.95060 8.09910e-16
6464.68222 8.07518e-16
6469.41385 8.04637e-16
6474.14548 8.00435e-16
6478.87710 7.98104e-16
6483.60873 7.92933e-16
6488.34036 7.83807e-16
6493.07199 7.81148e-16
6497.80361 7.83883e-16
6502.53524 7.87239e-16
6507.26687 7.87016e-16
6511.99849 7.83928e-16
6516.73012 7.86519e-16
6521.46175 7.79556e-16
6526.19337 7.67129e-16
6530.92500 7.65452e-16
6535.65663 7.54026e-16
6540.38826 7.47203e-16
6545.11988 7.51981e-16
6549.85151 7.61784e-16
6554.58314 7.80146e-16
6559.31476 7.97871e-16
6564.04639 8.10551e-16
6568.77802 8.09627e-16
6573.50965 7.89913e-16
6578.24127 7.74802e-16
6582.97290 7.77601e-16
6587.70453 7.92173e-16
6592.43615 7.96999e-16
6597.16778 7.99340e-16
6601.89941 7.99786e-16
6606.63103 7.82277e-16
6611.36266 7.69549e-16
6616.09429 7.86090e-16
6620.82592 8.05397e-16
6625.55754 8.01143e-16
6630.28917 8.15386e-16
6635.02080 9.37379e-16
6639.75242 1.13103e-15
6644.48405 1.26173e-15
6649.21568 1.22411e-15
6653.94730 1.04720e-15
6658.67893 9.42525e-16
6663.41056 9.67282e-16
6668.14218 9.89264e-16
6672.87381 9.44872e-16
6677.60544 8.69789e-16
6682.33707 8.27657e-16
6687.06869 8.22875e-16
6691.80032 8.22292e-16
6696.53195 8.13761e-16
6701.26357 7.99991e-16
6705.99520 7.87456e-16
6710.72683 7.92434e-16
6715.45845 7.96910e-16
6720.19008 7.86654e-16
6724.92171 7.90287e-16
6729.65334 7.89066e-16
6734.38496 7.60953e-16
6739.11659 7.46958e-16
6743.84822 7.45521e-16
6748.57984 7.35271e-16
6753.31147 7.60391e-16
6758.04310 8.18712e-16
6762.77472 8.48141e-16
6767.50635 8.38666e-16
6772.23798 8.21281e-16
6776.96961 8.18520e-16
6781.70123 8.26410e-16
6786.43286 8.16864e-16
6791.16449 8.09741e-16
6795.89611 8.33806e-16
6800.62774 8.56820e-16
6805.35937 8.71159e-16
6810.09099 8.67589e-16
6814.82262 8.41909e-16
6819.55425 8.24703e-16
6824.28587 8.01284e-16
6829.01750 7.54192e-16
6833.74913 7.13790e-16
6838.48076 7.12411e-16
6843.21238 7.35749e-16
6847.94401 7.60570e-16
6852.67564 7.72434e-16
6857.40726 7.71972e-16
6862.13889 7.62201e-16
6866.87052 7.46949e-16
6871.60214 7.37439e-16
6876.33377 7.36063e-16
6881.06540 7.59995e-16
6885.79703 7.89069e-16
6890.52865 7.83912e-16
6895.26028 7.52647e-16
6899.99191 7.28291e-16
6904.72353 7.34880e-16
6909.45516 7.52630e-16
6914.18679 7.62534e-16
6918.91842 7.58888e-16
6923.65004 7.49103e-16
6928.38167 7.39314e-16
6933.11330 7.30851e-16
6937.84492 7.22926e-16
6942.57655 7.25447e-16
6947.30818 7.25545e-16
6952.03980 7.03997e-16
6956.77143 6.87503e-16
6961.50306 7.00521e-16
6966.23469 7.00787e-16
6970.96631 6.91370e-16
6975.69794 7.04404e-16
6980.42957 7.14897e-16
6985.16119 7.10117e-16
6989.89282 7.13908e-16
6994.62445 7.15044e-16
6999.35607 7.01910e-16
7004.08770 7.03368e-16
7008.81933 7.02667e-16
7013.55095 6.91573e-16
7018.28258 6.91183e-16
7023.01421 6.90635e-16
7027.74584 6.98295e-16
7032.47746 7.17042e-16
7037.20909 7.15579e-16
7041.94072 7.05514e-16
7046.67234 7.19627e-16
7051.40397 7.28538e-16
7056.13560 7.15168e-16
7060.86722 7.10684e-16
7065.59885 7.17682e-16
7070.33048 7.17523e-16
7075.06211 7.12340e-16
7079.79373 7.08034e-16
7084.52536 7.09325e-16
7089.25699 7.15949e-16
7093.98861 7.14344e-16
7098.72024 7.14240e-16
7103.45187 7.22142e-16
7108.18350 7.29335e-16
7112.91512 7.36628e-16
7117.64675 7.27178e-16
7122.37838 7.17889e-16
7127.11000 7.26877e-16
7131.84163 7.29173e-16
7136.57326 7.25288e-16
7141.30488 7.43433e-16
7146.03651 7.54991e-16
7150.76814 7.60296e-16
7155.49976 7.82153e-16
7160.23139 7.87018e-16
7164.96302 7.63421e-16
7169.69464 7.30275e-16
7174.42627 7.13971e-16
7179.15790 7.18192e-16
7183.88953 7.12742e-16
7188.62115 6.98750e-16
7193.35278 6.96564e-16
7198.08441 7.02159e-16
7202.81603 7.13887e-16
7207.54766 7.19127e-16
7212.27929 7.08765e-16
7217.01091 6.85913e-16
7221.74254 6.85324e-16
7226.47417 7.00367e-16
7231.20580 6.95848e-16
7235.93742 6.86796e-16
7240.66905 6.88800e-16
7245.40068 6.79427e-16
7250.13230 6.73966e-16
7254.86393 6.88935e-16
7259.59556 6.83440e-16
7264.32719 6.68165e-16
7269.05881 6.69844e-16
7273.79044 6.84336e-16
7278.52207 7.07692e-16
7283.25369 7.18329e-16
7287.98532 7.06780e-16
7292.71695 6.96407e-16
7297.44857 6.98554e-16
7302.18020 6.99289e-16
7306.91183 7.05033e-16
7311.64346 7.28374e-16
7316.37508 7.41145e-16
7321.10671 7.33974e-16
7325.83834 7.36882e-16
7330.56996 7.45444e-16
7335.30159 7.49303e-16
7340.03322 7.36061e-16
7344.76484 7.24462e-16
7349.49647 7.38845e-16
7354.22810 7.34108e-16
7358.95972 7.26586e-16
7363.69135 7.43465e-16
7368.42298 7.35744e-16
7373.15461 7.09120e-16
7377.88623 7.01336e-16
7382.61786 7.01260e-16
7387.34949 6.96218e-16
7392.08111 6.97555e-16
7396.81274 7.01845e-16
7401.54437 6.85965e-16
7406.27599 6.73905e-16
7411.00762 6.71943e-16
7415.73925 6.73063e-16
7420.47088 6.85186e-16
7425.20250 6.98153e-16
7429.93413 7.00811e-16
7434.66576 6.79476e-16
7439.39738 6.65970e-16
7444.12901 6.75763e-16
7448.86064 6.61660e-16
7453.59227 6.34062e-16
7458.32389 6.53895e-16
7463.05552 6.86756e-16
7467.78715 6.92787e-16
7472.51877 6.99864e-16
7477.25040 7.04924e-16
7481.98203 6.97655e-16
7486.71365 6.72787e-16
7491.44528 6.64719e-16
7496.17691 6.85687e-16
7500.90853 6.87268e-16
7505.64016 6.70604e-16
7510.37179 6.68807e-16
7515.10341 6.81921e-16
7519.83504 6.92735e-16
7524.56667 6.89488e-16
7529.29830 6.87727e-16
7534.02992 6.92107e-16
7538.76155 6.89453e-16
7543.49318 6.82805e-16
7548.22480 6.74960e-16
7552.95643 6.79155e-16
7557.68806 6.84609e-16
7562.41968 6.78560e-16
7567.15131 6.70498e-16
7571.88294 6.67736e-16
7576.61457 6.75423e-16
7581.34619 6.89672e-16
7586.07782 6.95902e-16
7590.80945 6.76146e-16
7595.54107 6.35038e-16
7600.27270 6.11854e-16
7605.00433 6.27820e-16
7609.73596 6.66988e-16
7614.46758 6.85271e-16
7619.19921 6.78803e-16
7623.93084 6.82544e-16
7628.66246 6.84205e-16
7633.39409 6.69441e-16
7638.12572 6.58957e-16
7642.85734 6.66743e-16
7647.58897 6.83249e-16
7652.32060 6.93317e-16
7657.05223 6.92875e-16
7661.78385 6.81155e-16
7666.51548 6.71565e-16
7671.24711 6.76716e-16
7675.97873 6.72056e-16
7680.71036 6.49578e-16
7685.44199 6.47306e-16
7690.17361 6.70169e-16
7694.90524 6.89262e-16
7699.63687 6.88791e-16
7704.36849 6.73256e-16
7709.10012 6.83584e-16
7713.83175 6.91182e-16
7718.56338 6.73461e-16
7723.29500 6.44736e-16
7728.02663 6.20854e-16
7732.75826 6.40048e-16
7737.48988 6.53435e-16
7742.22151 6.54948e-16
7746.95314 6.41404e-16
7751.68476 6.03347e-16
7756.41639 5.98800e-16
7761.14802 5.79412e-16
7765.87965 5.75006e-16
7770.61127 6.15513e-16
7775.34290 6.36459e-16
7780.07453 6.28348e-16
7784.80615 6.31414e-16
7789.53778 6.55414e-16
7794.26941 6.70470e-16
7799.00104 6.61687e-16
7803.73266 6.36590e-16
7808.46429 6.07004e-16
7813.19592 6.04532e-16
7817.92754 6.25175e-16
7822.65917 6.32366e-16
7827.39080 6.32673e-16
7832.12242 6.36961e-16
7836.85405 6.39283e-16
7841.58568 6.49391e-16
7846.31730 6.57927e-16
7851.04893 6.42532e-16
7855.78056 6.30429e-16
7860.51219 6.33375e-16
7865.24381 6.32705e-16
7869.97544 6.31181e-16
7874.70707 6.29996e-16
7879.43869 6.32567e-16
7884.17032 6.41474e-16
7888.90195 6.43260e-16
7893.63357 6.34980e-16
7898.36520 6.25146e-16
7903.09683 6.13983e-16
7907.82845 6.10876e-16
7912.56008 6.23219e-16
7917.29171 6.31502e-16
7922.02334 6.35169e-16
7926.75496 6.42584e-16
7931.48659 6.38384e-16
7936.21822 6.31926e-16
7940.94984 6.37833e-16
7945.68147 6.31723e-16
7950.41310 6.23617e-16
7955.14473 6.49561e-16
7959.87635 6.66600e-16
7964.60798 6.48881e-16
7969.33961 6.30825e-16
7974.07123 6.26192e-16
7978.80286 6.30618e-16
7983.53449 6.23809e-16
7988.26611 6.29356e-16
7992.99774 6.39948e-16
7997.72937 6.19963e-16
8002.46100 6.09038e-16
8007.19262 6.21099e-16
8011.92425 6.17035e-16
8016.65588 6.19443e-16
8021.38750 6.17457e-16
8026.11913 6.14038e-16
8030.85076 6.11481e-16
8035.58238 6.16914e-16
8040.31401 6.30716e-16
8045.04564 6.24200e-16
8049.77726 6.11232e-16
8054.50889 6.18286e-16
8059.24052 6.28513e-16
8063.97215 6.30035e-16
8068.70377 6.37396e-16
8073.43540 6.46849e-16
8078.16703 6.48830e-16
8082.89865 6.42011e-16
8087.63028 6.39175e-16
8092.36191 6.36908e-16
8097.09353 6.22147e-16
8101.82516 6.18626e-16
8106.55679 6.30692e-16
8111.28842 6.29453e-16
8116.02004 6.21361e-16
8120.75167 6.19951e-16
8125.48330 6.28535e-16
8130.21492 6.26419e-16
8134.94655 6.09995e-16
8139.67818 6.03964e-16
8144.40981 6.04509e-16
8149.14143 6.04481e-16
8153.87306 6.02796e-16
8158.60469 5.96952e-16
8163.33631 5.97830e-16
8168.06794 6.10626e-16
8172.79957 6.18879e-16
8177.53119 6.05022e-16
8182.26282 5.87746e-16
8186.99445 5.93123e-16
8191.72607 5.93672e-16
8196.45770 5.84870e-16
8201.18933 5.88715e-16
8205.92096 6.02800e-16
8210.65258 6.10333e-16
8215.38421 6.09585e-16
8220.11584 6.11458e-16
8224.84746 6.02166e-16
8229.57909 5.82436e-16
8234.31072 5.94069e-16
8239.04234 6.23707e-16
8243.77397 6.18734e-16
8248.50560 6.15001e-16
8253.23723 6.32789e-16
8257.96885 6.32670e-16
8262.70048 6.29894e-16
8267.43211 6.34849e-16
8272.16373 6.24745e-16
8276.89536 6.24738e-16
8281.62699 6.22707e-16
8286.35861 5.93256e-16
8291.09024 5.76163e-16
8295.82187 5.88133e-16
8300.55350 6.05018e-16
8305.28512 6.16463e-16
8310.01675 6.27316e-16
8314.74838 6.28131e-16
8319.48000 6.15068e-16
8324.21163 6.02100e-16
8328.94326 5.90618e-16
8333.67488 5.88953e-16
8338.40651 6.11042e-16
8343.13814 6.33904e-16
8347.86976 6.50759e-16
8352.60139 6.52379e-16
8357.33302 6.34875e-16
8362.06465 6.27568e-16
8366.79627 6.29969e-16
8371.52790 6.24214e-16
8376.25953 6.24672e-16
8380.99115 6.35016e-16
8385.72278 6.32329e-16
8390.45441 6.23363e-16
8395.18604 6.18986e-16
8399.91766 6.12903e-16
8404.64929 6.23631e-16
8409.38092 6.29953e-16
8414.11254 6.16007e-16
8418.84417 6.23057e-16
8423.57580 6.32363e-16
8428.30742 6.15320e-16
8433.03905 6.06993e-16
8437.77068 6.00500e-16
8442.50230 5.96462e-16
8447.23393 6.01016e-16
8451.96556 5.95050e-16
8456.69719 5.93381e-16
8461.42881 6.09756e-16
8466.16044 6.25832e-16
8470.89207 6.25058e-16
8475.62369 6.13418e-16
8480.35532 6.05794e-16
8485.08695 6.03745e-16
8489.81857 5.99588e-16
8494.55020 5.97388e-16
8499.28183 6.05062e-16
8504.01346 6.10664e-16
8508.74508 6.08655e-16
8513.47671 6.03191e-16
8518.20834 6.04280e-16
8522.93996 6.11651e-16
8527.67159 6.05489e-16
8532.40322 5.89373e-16
8537.13485 5.86701e-16
8541.86647 5.94027e-16
8546.59810 5.96086e-16
8551.32973 5.94415e-16
8556.06135 6.06415e-16
8560.79298 6.09699e-16
8565.52461 5.84764e-16
8570.25623 5.84644e-16
8574.98786 6.01361e-16
8579.71949 5.89814e-16
8584.45111 5.81845e-16
8589.18274 5.93136e-16
8593.91437 5.90724e-16
8598.64600 5.82824e-16
8603.37762 5.79370e-16
8608.10925 5.74436e-16
8612.84088 5.66627e-16
8617.57250 5.63530e-16
8622.30413 5.73333e-16
8627.03576 5.86306e-16
8631.76738 5.95521e-16
8636.49901 5.92844e-16
8641.23064 5.76683e-16
8645.96227 5.69346e-16
8650.69389 5.71714e-16
8655.42552 5.62975e-16
8660.15715 5.50939e-16
8664.88877 5.61121e-16
8669.62040 5.81654e-16
8674.35203 5.74052e-16
8679.08365 5.63272e-16
8683.81528 5.75668e-16
8688.54691 5.78118e-16
8693.27853 5.72315e-16
8698.01016 5.84795e-16
8702.74179 5.95000e-16
8707.47342 5.97138e-16
8712.20504 5.94863e-16
8716.93667 5.88537e-16
8721.66830 5.93376e-16
8726.39992 5.84578e-16
8731.13155 5.78915e-16
8735.86318 5.86954e-16
8740.59481 5.84824e-16
8745.32643 5.80683e-16
8750.05806 5.72618e-16
8754.78969 5.54405e-16
8759.52131 5.47792e-16
8764.25294 5.48965e-16
8768.98457 5.39851e-16
8773.71619 5.40111e-16
8778.44782 5.50836e-16
8783.17945 5.53464e-16
8787.91107 5.62962e-16
8792.64270 5.78237e-16
8797.37433 5.81760e-16
8802.10596 5.76683e-16
8806.83758 5.62186e-16
8811.56921 5.50345e-16
8816.30084 5.69852e-16
8821.03246 6.03169e-16
8825.76409 5.93678e-16
8830.49572 5.55710e-16
8835.22734 5.54577e-16
8839.95897 5.88591e-16
8844.69060 6.01129e-16
8849.42223 5.82452e-16
8854.15385 5.65491e-16
8858.88548 5.61698e-16
8863.61711 5.72035e-16
8868.34873 5.88689e-16
8873.08036 5.85856e-16
8877.81199 5.77583e-16
8882.54362 5.65166e-16
8887.27524 5.69133e-16
8892.00687 6.02980e-16
8896.73850 6.20237e-16
8901.47012 6.08470e-16
8906.20175 5.93576e-16
8910.93338 5.89278e-16
8915.66500 6.04443e-16
8920.39663 6.10701e-16
8925.12826 5.84723e-16
8929.85988 5.79305e-16
8934.59151 5.90638e-16
8939.32314 5.92189e-16
8944.05477 5.91420e-16
8948.78639 5.78942e-16
8953.51802 5.62091e-16
8958.24965 5.53298e-16
8962.98127 5.46549e-16
8967.71290 5.45374e-16
8972.44453 5.45258e-16
8977.17615 5.45874e-16
8981.90778 5.48962e-16
8986.63941 5.36308e-16
8991.37104 5.32482e-16
8996.10266 5.51756e-16
9000.83429 5.74285e-16
9005.56592 5.72613e-16
9010.29754 5.50785e-16
9015.02917 5.53753e-16
9019.76080 5.79824e-16
9024.49242 5.86965e-16
9029.22405 5.76174e-16
9033.95568 5.71735e-16
9038.68730 5.98394e-16
9043.41893 6.23367e-16
9048.15056 6.02311e-16
9052.88219 5.73306e-16
9057.61381 5.76199e-16
9062.34544 5.88200e-16
9067.07707 5.86352e-16
9071.80869 5.82073e-16
9076.54032 5.81161e-16
9081.27195 5.71855e-16
9086.00358 5.63054e-16
9090.73520 5.67958e-16
9095.46683 5.76845e-16
9100.19846 5.85580e-16
9104.93008 5.83771e-16
9109.66171 5.74459e-16
9114.39334 5.82819e-16
9119.12496 5.94015e-16
9123.85659 5.80366e-16
9128.58822 5.63022e-16
9133.31984 5.56446e-16
9138.05147 5.55399e-16
9142.78310 5.66638e-16
9147.51473 5.74983e-16
9152.24635 5.73985e-16
9156.97798 5.72534e-16
9161.70961 5.73885e-16
9166.44123 5.82814e-16
9171.17286 5.90322e-16
9175.90449 5.93744e-16
9180.63611 6.02356e-16
9185.36774 6.03084e-16
9190.09937 6.04862e-16
9194.83100 5.96757e-16
9199.56262 5.79564e-16
9204.29425 5.73822e-16
9209.02588 5.73988e-16
9213.75750 5.69428e-16
9218.48913 5.64689e-16
9223.22076 5.67214e-16
9227.95239 5.76783e-16
9232.68401 5.88679e-16
9237.41564 5.87787e-16
9242.14727 5.66546e-16
9246.87889 5.46464e-16
9251.61052 5.49026e-16
9256.34215 5.55199e-16
9261.07377 5.56517e-16
9265.80540 5.46784e-16
9270.53703 5.24560e-16
9275.26865 5.13527e-16
9276.43622 5.13527e-16
9278.10385 5.41782e-16
9279.76144 5.70012e-16
9281.41903 5.42328e-16
9283.07662 5.14656e-16
9284.74426 5.15388e-16
9286.40185 5.16124e-16
9288.05944 5.29158e-16
9289.71703 5.42171e-16
9291.38466 4.99246e-16
9293.04225 4.56345e-16
9294.69984 4.69132e-16
9296.36748 4.81922e-16
9298.02507 5.00556e-16
9299.68266 5.19181e-16
9301.34025 5.20163e-16
9303.00789 5.21142e-16
9304.66548 5.18121e-16
9306.32307 5.15091e-16
9307.99070 4.94538e-16
9309.64829 4.73989e-16
9311.30588 4.64337e-16
9312.96347 4.54694e-16
9314.63111 4.63848e-16
9316.28870 4.72987e-16
9317.94629 4.43800e-16
9319.60388 4.14611e-16
9321.27151 3.75486e-16
9322.92910 3.36395e-16
9324.58669 3.78125e-16
9326.25433 4.19838e-16
9327.91192 4.25593e-16
9329.56951 4.31351e-16
9331.22710 4.44894e-16
9332.89474 4.58423e-16
9334.55233 4.35563e-16
9336.20992 4.12717e-16
9337.87755 4.20731e-16
9339.53514 4.28744e-16
9341.19273 4.33286e-16
9342.85032 4.37839e-16
9344.51796 4.62128e-16
9346.17555 4.86410e-16
9347.83314 4.92220e-16
9349.49073 4.98003e-16
9351.15836 4.36628e-16
9352.81595 3.75276e-16
9354.47354 3.64474e-16
9356.13113 3.53702e-16
9357.79877 4.11522e-16
9359.45636 4.69315e-16
9361.11395 4.63903e-16
9362.78159 4.58505e-16
9364.43918 4.84137e-16
9366.09677 5.09757e-16
9367.75436 5.09734e-16
9369.42199 5.09709e-16
9371.07958 5.05859e-16
9372.73717 5.01981e-16
9374.40481 4.28159e-16
9376.06240 3.54371e-16
9377.71999 3.56275e-16
9379.37758 3.58192e-16
9381.04521 3.88967e-16
9382.70280 4.19730e-16
9384.36039 4.21238e-16
9386.01798 4.22746e-16
9387.68562 4.23002e-16
9389.34321 4.23256e-16
9391.00080 4.21590e-16
9392.66844 4.19935e-16
9394.32603 4.39337e-16
9395.98362 4.58723e-16
9397.64121 4.38846e-16
9399.30884 4.18977e-16
9400.96643 4.20177e-16
9402.62402 4.21378e-16
9404.28161 4.26968e-16
9405.94925 4.32552e-16
9407.60684 4.21350e-16
9409.26443 4.10163e-16
9410.93206 4.32387e-16
9412.58965 4.54603e-16
9414.24724 4.58786e-16
9415.90483 4.62961e-16
9417.57247 4.45371e-16
9419.23006 4.27788e-16
9420.88765 4.22730e-16
9422.54524 4.17665e-16
9424.21288 3.99480e-16
9425.87047 3.81324e-16
9427.52806 4.30712e-16
9429.19569 4.80064e-16
9430.85328 4.50118e-16
9432.51087 4.20180e-16
9434.16846 4.10635e-16
9435.83610 4.01071e-16
9437.49369 3.48449e-16
9439.15128 2.95840e-16
9440.80887 2.76383e-16
9442.47650 2.56972e-16
9444.13409 3.43305e-16
9445.79168 4.29600e-16
9447.45932 4.28024e-16
9449.11691 4.26452e-16
9450.77450 4.37119e-16
9452.43209 4.47769e-16
9454.09973 4.21979e-16
9455.75732 3.96188e-16
9457.41491 3.64540e-16
9459.07250 3.32911e-16
9460.74013 3.41449e-16
9462.39772 3.49996e-16
9464.05531 3.80271e-16
9465.72295 4.10516e-16
9467.38054 3.70044e-16
9469.03813 3.29604e-16
9470.69572 3.59066e-16
9472.36335 3.88529e-16
9474.02094 4.21740e-16
9475.67853 4.54945e-16
9477.34617 4.71995e-16
9479.00376 4.89030e-16
9480.66135 4.70573e-16
9482.31894 4.52125e-16
9483.98658 4.52558e-16
9485.64417 4.52979e-16
9487.30176 4.22381e-16
9488.95935 3.91794e-16
9490.62698 3.88592e-16
9492.28457 3.85388e-16
9493.94216 3.75414e-16
9495.60980 3.65466e-16
9497.26739 4.14129e-16
9498.92498 4.62763e-16
9500.58257 4.41271e-16
9502.25020 4.19791e-16
9503.90779 4.26171e-16
9505.56538 4.32553e-16
9507.23302 4.42617e-16
9508.89061 4.52662e-16
9510.54820 4.20385e-16
9512.20579 3.88115e-16
9513.87343 3.74222e-16
9515.53102 3.60329e-16
9517.18861 3.53352e-16
9518.84620 3.46396e-16
9520.51383 3.90623e-16
9522.17142 4.34817e-16
9523.82901 4.07946e-16
9525.49665 3.81092e-16
9527.15424 3.91221e-16
9528.81183 4.01339e-16
9530.46942 3.86157e-16
9532.13705 3.70989e-16
9533.79464 3.88733e-16
9535.45223 4.06469e-16
9537.10982 4.10617e-16
9538.77746 4.14767e-16
9540.43505 4.24622e-16
9542.09264 4.34472e-16
9543.76028 4.29827e-16
9545.41787 4.25169e-16
9547.07546 3.91082e-16
9548.73305 3.57001e-16
9550.40068 3.39606e-16
9552.05827 3.22255e-16
9553.71586 4.06381e-16
9555.37345 4.90453e-16
9557.04109 4.52071e-16
9558.69868 4.13702e-16
9560.35627 4.08208e-16
9562.02390 4.02725e-16
9563.68149 4.19109e-16
9565.33908 4.35477e-16
9566.99667 4.12868e-16
9568.66431 3.90271e-16
9570.32190 3.93532e-16
9571.97949 3.96797e-16
9573.64713 4.06851e-16
9575.30472 4.16885e-16
9576.96231 3.85284e-16
9578.61990 3.53698e-16
9580.28753 3.53648e-16
9581.94512 3.53604e-16
9583.60271 3.64837e-16
9585.27035 3.76059e-16
9586.92794 3.61998e-16
9588.58553 3.47941e-16
9590.24312 3.42870e-16
9591.91075 3.37814e-16
9593.56834 3.69662e-16
9595.22593 4.01489e-16
9596.88352 3.86708e-16
9598.55116 3.71945e-16
9600.20875 3.98099e-16
9601.86634 4.24241e-16
9603.52393 4.23554e-16
9605.19157 4.22873e-16
9606.84916 4.40973e-16
9608.50675 4.59044e-16
9610.17438 4.11413e-16
9611.83197 3.63803e-16
9613.48956 3.62023e-16
9615.14715 3.60241e-16
9616.81479 3.56333e-16
9618.47238 3.52428e-16
9620.12997 3.58961e-16
9621.79760 3.65496e-16
9623.45519 3.73835e-16
9625.11278 3.82173e-16
9626.77037 3.90127e-16
9628.43801 3.98081e-16
9630.09560 4.08556e-16
9631.75319 4.19024e-16
9633.41078 4.17979e-16
9635.07842 4.16942e-16
9636.73601 4.39193e-16
9638.39360 4.61421e-16
9640.06123 4.34508e-16
9641.71882 4.07610e-16
9643.37641 4.16923e-16
9645.03400 4.26215e-16
9646.70164 3.88939e-16
9648.35923 3.51692e-16
9650.01682 3.75993e-16
9651.67441 4.00280e-16
9653.34204 3.96987e-16
9654.99963 3.93684e-16
9656.65722 3.66309e-16
9658.31481 3.38952e-16
9659.98245 3.50312e-16
9661.64004 3.61686e-16
9663.29763 4.00349e-16
9664.96527 4.38974e-16
9666.62286 3.86592e-16
9668.28045 3.34247e-16
9669.93804 3.61734e-16
9671.60567 3.89221e-16
9673.26326 4.17334e-16
9674.92085 4.45437e-16
9676.58849 4.52756e-16
9678.24608 4.60062e-16
9679.90367 4.39692e-16
9681.56126 4.19353e-16
9683.22889 4.63106e-16
9684.88648 5.06825e-16
9686.54407 4.72604e-16
9688.20166 4.38375e-16
9689.86930 3.90367e-16
9691.52689 3.42404e-16
9693.18448 3.88174e-16
9694.85212 4.33927e-16
9696.50971 4.39868e-16
9698.16730 4.45821e-16
9699.82489 4.78139e-16
9701.49252 5.10400e-16
9703.15011 4.18054e-16
9704.80770 3.25759e-16
9706.46529 3.45946e-16
9708.13293 3.66128e-16
9709.79052 3.74600e-16
9711.44811 3.83051e-16
9713.11574 3.42626e-16
9714.77333 3.02238e-16
9716.43092 3.43346e-16
9718.08851 3.84453e-16
9719.75615 4.21864e-16
9721.41374 4.59242e-16
9723.07133 4.23105e-16
9724.73897 3.86989e-16
9726.39656 3.94684e-16
9728.05415 4.02380e-16
9729.71174 4.14315e-16
9731.37937 4.26232e-16
9733.03696 4.02313e-16
9734.69455 3.78408e-16
9736.35214 3.88816e-16
9738.01978 3.99226e-16
9739.67737 4.16511e-16
9741.33496 4.33788e-16
9743.00259 4.33499e-16
9744.66018 4.33201e-16
9746.31777 4.10946e-16
9747.97536 3.88692e-16
9749.64300 3.69731e-16
9751.30059 3.50796e-16
9752.95818 3.89507e-16
9754.62582 4.28184e-16
9756.28341 3.97181e-16
9757.94100 3.66199e-16
9759.59859 3.80780e-16
9761.26622 3.95358e-16
9762.92381 4.06147e-16
9764.58140 4.16928e-16
9766.23899 4.10038e-16
9767.90663 4.03162e-16
9769.56422 4.21612e-16
9771.22181 4.40048e-16
9772.87940 4.25419e-16
9774.54703 4.10787e-16
9776.20462 3.88143e-16
9777.86221 3.65501e-16
9779.52985 3.46405e-16
9781.18744 3.27334e-16
9782.84503 3.61576e-16
9784.50262 3.95800e-16
9786.17026 3.87843e-16
9787.82785 3.79934e-16
9789.48544 4.73998e-16
9791.15307 5.67996e-16
9792.81066 5.20516e-16
9794.46825 4.73050e-16
9796.12584 4.48936e-16
9797.79348 4.24841e-16
9799.45107 4.39255e-16
9801.10866 4.53624e-16
9802.76625 3.72316e-16
9804.43388 2.91034e-16
9806.09147 2.64356e-16
9807.74906 2.37721e-16
9809.41670 2.99879e-16
9811.07429 3.62014e-16
9812.73188 3.74937e-16
9814.38947 3.87859e-16
9816.05711 4.01094e-16
9817.71470 4.14318e-16
9819.37229 4.04125e-16
9821.03992 3.93923e-16
9822.69751 3.62782e-16
9824.35510 3.31678e-16
9826.01269 3.77745e-16
9827.68033 4.23779e-16
9829.33792 3.98395e-16
9830.99551 3.73030e-16
9832.65310 3.87118e-16
9834.32073 4.01194e-16
9835.97832 3.89802e-16
9837.63591 3.78403e-16
9839.30355 3.54264e-16
9840.96114 3.30158e-16
9842.61873 3.75969e-16
9844.27632 4.21782e-16
9845.94396 4.69940e-16
9847.60155 5.18063e-16
9849.25914 4.95927e-16
9850.91673 4.73789e-16
9852.58436 4.51340e-16
9854.24195 4.28890e-16
9855.89954 4.09001e-16
9857.56718 3.89121e-16
9859.22477 3.85835e-16
9860.88236 3.82551e-16
9862.53995 3.81579e-16
9864.20758 3.80642e-16
9865.86517 4.55309e-16
9867.52276 5.29932e-16
9869.18035 5.10683e-16
9870.84799 4.91450e-16
9872.50558 5.08986e-16
9874.16317 5.26535e-16
9875.83081 5.74402e-16
9877.48840 6.22208e-16
9879.14599 5.40960e-16
9880.80358 4.59714e-16
9882.47121 3.81726e-16
9884.12880 3.03804e-16
9885.78639 3.66941e-16
9887.44398 4.30063e-16
9889.11162 4.63700e-16
9890.76921 4.97324e-16
9892.42680 5.07576e-16
9894.09443 5.17830e-16
9895.75202 5.33432e-16
9897.40961 5.49030e-16
9899.06720 5.57344e-16
9900.73484 5.65609e-16
9902.39243 4.67204e-16
9904.05002 3.68841e-16
9905.70761 3.59328e-16
9907.37525 3.49812e-16
9909.03284 3.34922e-16
9910.69043 3.20038e-16
9912.35806 3.23890e-16
9914.01565 3.27767e-16
9915.67324 3.83003e-16
9917.33083 4.38202e-16
9918.99847 4.19104e-16
9920.65606 4.00020e-16
9922.31365 4.08653e-16
9923.98128 4.17288e-16
9925.63887 4.28272e-16
9927.29646 4.39261e-16
9928.95405 4.60141e-16
9930.62169 4.80969e-16
9932.27928 3.84809e-16
9933.93687 2.88683e-16
9935.59446 2.61651e-16
9937.26210 2.34676e-16
9938.91969 3.25416e-16
9940.57728 4.16130e-16
9942.23487 4.53309e-16
9943.90250 4.90470e-16
9945.56009 4.90736e-16
9947.21768 4.90972e-16
9948.88532 4.23096e-16
9950.54291 3.55289e-16
9952.20050 4.33590e-16
9953.85809 5.11853e-16
9955.52572 5.10643e-16
9957.18331 5.09408e-16
9958.84090 4.54656e-16
9960.50854 3.99921e-16
9962.16613 3.76049e-16
9963.82372 3.52183e-16
9965.48131 3.38526e-16
9967.14895 3.24861e-16
9968.80654 2.91903e-16
9970.46413 2.58956e-16
9972.12172 2.43214e-16
9973.78935 2.27480e-16
9975.44694 2.29600e-16
9977.10453 2.31751e-16
9978.77217 2.96413e-16
9980.42976 3.61042e-16
9982.08735 3.57727e-16
9983.74494 3.54425e-16
9985.41257 3.78831e-16
9987.07016 4.03242e-16
9988.72775 4.41355e-16
9990.39539 4.79442e-16
9992.05298 4.66798e-16
9993.71057 4.54136e-16
9995.36816 4.08768e-16
9997.03580 3.63385e-16
9998.69339 2.81111e-16
