# wavelength flux
3188.30000 1.37904e-15
3191.30428 2.44605e-15
3194.30856 -1.99893e-15
3197.31284 -6.23058e-16
3200.31713 -1.06544e-15
3203.32141 -1.74550e-15
3206.32569 -6.61007e-17
3209.32997 -8.85436e-16
3212.33425 1.37323e-16
3215.33853 1.31513e-15
3218.34282 1.46091e-15
3221.34710 8.73313e-18
3224.35138 -1.86146e-15
3227.35566 -1.51731e-15
3230.35994 4.60229e-16
3233.36422 1.85166e-15
3236.36850 1.70714e-15
3239.37279 -3.89548e-16
3242.37707 1.01596e-15
3245.38135 1.87806e-15
3248.38563 3.10313e-16
3251.38991 7.79493e-16
3254.39419 -8.90440e-17
3257.39848 2.28197e-16
3260.40276 2.02164e-16
3263.40704 -3.37213e-16
3266.41132 -7.97768e-16
3269.41560 -2.19957e-15
3272.41988 -4.59134e-17
3275.42416 2.59954e-16
3278.42845 9.50145e-16
3281.43273 6.44561e-16
3284.43701 -5.12660e-16
3287.44129 -3.62220e-16
3290.44557 1.84101e-15
3293.44985 5.99147e-16
3296.45414 -2.20031e-16
3299.45842 4.34528e-16
3302.46270 -1.58081e-16
3305.46698 1.59003e-16
3308.47126 1.54516e-18
3311.47554 6.78479e-16
3314.47982 6.39208e-16
3317.48411 6.24950e-16
3320.48839 2.10577e-16
3323.49267 2.69395e-16
3326.49695 7.37883e-17
3329.50123 6.04881e-16
3332.50551 2.15024e-16
3335.50980 3.00690e-16
3338.51408 7.57157e-16
3341.51836 3.94150e-16
3344.52264 3.86170e-16
3347.52692 -1.00585e-17
3350.53120 5.66157e-17
3353.53549 -3.31064e-16
3356.53977 -3.54934e-16
3359.54405 2.65059e-16
3362.54833 -1.43542e-17
3365.55261 2.31988e-16
3368.55689 5.75002e-16
3371.56117 5.88058e-16
3374.56546 2.25435e-16
3377.56974 1.60632e-16
3380.57402 3.03027e-16
3383.57830 -6.33772e-17
3386.58258 -2.86566e-17
3389.58686 6.81512e-16
3392.59115 2.64492e-16
3395.59543 1.64285e-16
3398.59971 4.00911e-16
3401.60399 1.19453e-16
3404.60827 2.61295e-16
3407.61255 6.61163e-17
3410.61683 8.38405e-17
3413.62112 1.78734e-16
3416.62540 2.81102e-16
3419.62968 3.22575e-16
3422.63396 5.10530e-16
3425.63824 3.65418e-16
3428.64253 1.58958e-17
3431.64681 -6.23514e-17
3434.65109 1.45530e-16
3437.65537 1.32106e-16
3440.65965 -3.97746e-17
3443.66393 3.74683e-16
3446.66821 2.11064e-16
3449.67249 3.82454e-16
3452.67678 5.09335e-17
3455.68106 4.05244e-16
3458.68534 -2.60212e-17
3461.68962 1.01882e-16
3464.69390 1.33316e-16
3467.69819 8.97492e-17
3470.70247 2.12625e-16
3473.70675 1.74736e-16
3476.71103 2.01291e-16
3479.71531 3.52616e-17
3482.71959 2.17138e-16
3485.72387 4.69482e-16
3488.72816 3.79816e-16
3491.73244 3.51147e-16
3494.73672 2.93104e-16
3497.74100 2.81355e-16
3500.74528 1.44778e-16
3503.74956 1.47200e-16
3506.75385 1.95933e-16
3509.75813 2.51544e-16
3512.76241 1.80234e-16
3515.76669 1.43072e-16
3518.77097 1.19686e-16
3521.77525 2.55045e-16
3524.77953 2.34415e-16
3527.78382 2.52819e-16
3530.78810 3.26389e-16
3533.79238 1.98354e-16
3536.79666 2.35219e-16
3539.80094 1.87880e-16
3542.80522 2.25680e-16
3545.80951 1.36152e-16
3548.81379 1.87718e-16
3551.81807 1.71829e-16
3554.82235 1.10553e-16
3557.82663 2.47747e-16
3560.83091 1.58691e-16
3563.83520 1.85679e-16
3566.83948 1.87312e-16
3569.84376 2.69535e-16
3572.84804 3.67775e-16
3575.85232 3.55557e-16
3578.85660 2.07231e-16
3581.86088 1.44649e-16
3584.86517 2.65236e-16
3587.86945 2.07402e-16
3590.87373 1.90496e-16
3593.87801 3.01664e-16
3596.88229 8.00682e-17
3599.88657 2.26864e-16
3602.89086 2.35327e-16
3605.89514 1.48193e-16
3608.89942 2.00704e-16
3611.90370 2.48668e-16
3614.90798 2.30642e-16
3617.91226 2.68187e-16
3620.91654 1.81594e-16
3623.92083 1.77142e-16
3626.92511 1.76960e-16
3629.92939 2.35083e-16
3632.93367 1.64653e-16
3635.93795 8.17938e-17
3638.94223 2.58410e-16
3641.94652 1.57066e-16
3644.95080 1.75153e-16
3647.95508 2.45057e-16
3650.95936 2.66169e-16
3653.96364 2.25377e-16
3656.96792 1.58800e-16
3659.97220 2.05094e-16
3662.97649 2.27559e-16
3665.98077 2.25139e-16
3668.98505 2.22026e-16
3671.98933 2.83850e-16
3674.99361 3.07776e-16
3677.99789 2.27602e-16
3681.00218 2.16279e-16
3684.00646 2.64496e-16
3687.01074 2.05142e-16
3690.01502 1.93652e-16
3693.01930 1.96978e-16
3696.02358 1.97542e-16
3699.02787 2.72491e-16
3702.03215 2.28981e-16
3705.03643 1.76065e-16
3708.04071 2.02661e-16
3711.04499 2.08671e-16
3714.04927 2.03303e-16
3717.05355 1.43702e-16
3720.05784 2.14092e-16
3723.06212 2.14467e-16
3726.06640 1.84940e-16
3729.07068 2.50297e-16
3732.07496 2.61125e-16
3735.07924 1.71223e-16
3738.08353 2.09163e-16
3741.08781 2.33890e-16
3744.09209 2.24455e-16
3747.09637 1.71024e-16
3750.10065 2.65981e-16
3753.10493 3.08290e-16
3756.10921 2.51952e-16
3759.11350 1.96138e-16
3762.11778 2.54049e-16
3765.12206 2.08067e-16
3768.12634 2.76740e-16
3771.13062 2.37848e-16
3774.13490 2.76579e-16
3777.13918 2.44232e-16
3780.14347 2.07182e-16
3783.14775 2.23839e-16
3786.15203 2.27661e-16
3789.15631 1.91883e-16
3792.16059 2.30682e-16
3795.16487 2.31024e-16
3798.16916 2.26871e-16
3801.17344 2.37906e-16
3804.17772 2.38906e-16
3807.18200 2.79147e-16
3810.18628 2.53494e-16
3813.19056 2.76455e-16
3816.19484 2.15132e-16
3819.19913 2.20687e-16
3822.20341 2.55488e-16
3825.20769 2.80727e-16
3828.21197 2.64498e-16
3831.21625 2.63280e-16
3834.22053 2.14775e-16
3837.22482 2.49318e-16
3840.22910 2.48831e-16
3843.23338 2.66265e-16
3846.23766 2.51488e-16
3849.24194 2.44126e-16
3852.24622 2.43940e-16
3855.25051 2.22389e-16
3858.25479 2.46944e-16
3861.25907 2.34581e-16
3864.26335 2.41391e-16
3867.26763 2.95980e-16
3870.27191 2.98098e-16
3873.27619 2.66399e-16
3876.28048 2.58833e-16
3879.28476 2.84862e-16
3882.28904 2.69268e-16
3885.29332 3.06211e-16
3888.29760 2.98560e-16
3891.30188 2.50455e-16
3894.30617 2.51934e-16
3897.31045 2.72870e-16
3900.31473 2.90741e-16
3903.31901 3.39861e-16
3906.32329 2.97473e-16
3909.32757 2.63162e-16
3912.33185 2.93008e-16
3915.33614 3.15635e-16
3918.34042 2.96915e-16
3921.34470 2.96617e-16
3924.34898 2.85606e-16
3927.35326 2.46697e-16
3930.35754 2.92921e-16
3933.36183 3.03380e-16
3936.36611 2.70122e-16
3939.37039 2.71292e-16
3942.37467 3.27102e-16
3945.37895 3.01415e-16
3948.38323 3.21015e-16
3951.38752 2.79151e-16
3954.39180 3.01986e-16
3957.39608 3.18453e-16
3960.40036 3.00292e-16
3963.40464 3.19064e-16
3966.40892 2.82228e-16
3969.41320 2.74048e-16
3972.41749 2.80055e-16
3975.42177 2.65685e-16
3978.42605 2.39391e-16
3981.43033 2.33272e-16
3984.43461 2.27702e-16
3987.43889 2.55274e-16
3990.44318 2.34604e-16
3993.44746 2.88044e-16
3996.45174 2.91287e-16
3999.45602 2.99580e-16
4002.46030 3.14385e-16
4005.46458 2.81219e-16
4008.46886 2.90953e-16
4011.47315 3.12269e-16
4014.47743 2.64237e-16
4017.48171 2.83825e-16
4020.48599 2.55475e-16
4023.49027 2.70605e-16
4026.49455 2.69152e-16
4029.49884 2.66221e-16
4032.50312 2.46019e-16
4035.50740 2.54610e-16
4038.51168 2.37436e-16
4041.51596 3.19309e-16
4044.52024 2.85929e-16
4047.52452 3.08428e-16
4050.52881 3.39655e-16
4053.53309 3.16878e-16
4056.53737 3.10809e-16
4059.54165 3.13248e-16
4062.54593 2.96515e-16
4065.55022 3.17181e-16
4068.55450 3.28932e-16
4071.55878 3.34469e-16
4074.56306 3.22033e-16
4077.56734 3.12014e-16
4080.57162 3.08507e-16
4083.57590 3.34999e-16
4086.58019 3.28426e-16
4089.58447 3.34896e-16
4092.58875 3.18080e-16
4095.59303 3.33609e-16
4098.59731 3.41565e-16
4101.60159 3.27296e-16
4104.60588 3.33364e-16
4107.61016 3.12698e-16
4110.61444 3.24659e-16
4113.61872 3.48644e-16
4116.62300 3.39873e-16
4119.62728 3.36214e-16
4122.63156 3.21112e-16
4125.63585 2.99460e-16
4128.64013 3.32781e-16
4131.64441 3.35916e-16
4134.64869 3.16306e-16
4137.65297 2.90836e-16
4140.65725 3.11481e-16
4143.66154 3.47093e-16
4146.66582 3.20717e-16
4149.67010 3.03124e-16
4152.67438 3.23573e-16
4155.67866 3.29155e-16
4158.68294 3.22547e-16
4161.68722 3.28756e-16
4164.69151 3.08486e-16
4167.69579 3.20994e-16
4170.70007 3.17546e-16
4173.70435 3.49304e-16
4176.70863 3.46646e-16
4179.71291 3.52427e-16
4182.71720 3.16229e-16
4185.72148 3.46566e-16
4188.72576 3.65248e-16
4191.73004 3.30040e-16
4194.73432 3.59982e-16
4197.73860 3.26062e-16
4200.74288 3.37541e-16
4203.74717 3.37013e-16
4206.75145 3.80121e-16
4209.75573 3.81810e-16
4212.76001 3.59066e-16
4215.76429 3.53961e-16
4218.76857 3.70162e-16
4221.77286 3.86245e-16
4224.77714 3.67314e-16
4227.78142 3.69704e-16
4230.78570 3.76431e-16
4233.78998 3.78552e-16
4236.79426 3.43355e-16
4239.79854 3.50391e-16
4242.80283 3.63587e-16
4245.80711 3.77041e-16
4248.81139 3.69746e-16
4251.81567 3.37409e-16
4254.81995 3.35785e-16
4257.82423 3.71120e-16
4260.82852 3.52505e-16
4263.83280 3.66304e-16
4266.83708 3.91822e-16
4269.84136 3.80178e-16
4272.84564 3.88202e-16
4275.84992 3.52785e-16
4278.85420 3.56658e-16
4281.85849 3.65102e-16
4284.86277 3.73787e-16
4287.86705 3.80482e-16
4290.87133 3.77033e-16
4293.87561 3.94643e-16
4296.87990 3.92566e-16
4299.88418 3.69658e-16
4302.88846 3.93142e-16
4305.89274 3.99446e-16
4308.89702 3.87401e-16
4311.90130 3.52541e-16
4314.90558 3.70307e-16
4317.90986 3.72844e-16
4320.91415 3.68521e-16
4323.91843 3.68128e-16
4326.92271 3.89108e-16
4329.92699 4.11108e-16
4332.93127 3.73077e-16
4335.93556 3.57872e-16
4338.93984 3.90863e-16
4341.94412 3.74060e-16
4344.94840 3.59087e-16
4347.95268 3.65294e-16
4350.95696 3.84117e-16
4353.96124 3.64156e-16
4356.96553 3.44529e-16
4359.96981 3.48745e-16
4362.97409 3.82577e-16
4365.97837 3.79392e-16
4368.98265 3.85271e-16
4371.98693 3.43374e-16
4374.99122 3.83337e-16
4377.99550 3.87170e-16
4380.99978 3.82348e-16
4384.00406 3.79789e-16
4387.00834 3.80247e-16
4390.01262 3.60432e-16
4393.01690 3.54708e-16
4396.02119 3.66261e-16
4399.02547 3.69811e-16
4402.02975 3.75772e-16
4405.03403 3.79043e-16
4408.03831 3.73592e-16
4411.04259 3.75469e-16
4414.04688 3.81367e-16
4417.05116 3.66161e-16
4420.05544 3.78591e-16
4423.05972 3.74052e-16
4426.06400 3.68192e-16
4429.06828 3.77908e-16
4432.07257 3.84758e-16
4435.07685 3.95842e-16
4438.08113 3.79117e-16
4441.08541 3.75395e-16
4444.08969 3.70199e-16
4447.09397 3.84977e-16
4450.09825 3.98524e-16
4453.10254 3.87138e-16
4456.10682 3.73233e-16
4459.11110 3.60631e-16
4462.11538 3.99943e-16
4465.11966 3.97538e-16
4468.12394 3.84632e-16
4471.12823 3.94501e-16
4474.13251 4.07452e-16
4477.13679 4.11100e-16
4480.14107 4.27115e-16
4483.14535 4.38428e-16
4486.14963 3.93913e-16
4489.15391 4.02849e-16
4492.15820 4.08698e-16
4495.16248 3.97378e-16
4498.16676 4.14709e-16
4501.17104 4.21739e-16
4504.17532 4.00587e-16
4507.17960 4.00784e-16
4510.18389 3.84385e-16
4513.18817 3.57076e-16
4516.19245 3.93210e-16
4519.19673 4.11636e-16
4522.20101 4.20502e-16
4525.20529 4.10570e-16
4528.20957 4.29978e-16
4531.21386 4.37229e-16
4534.21814 4.32681e-16
4537.22242 4.59238e-16
4540.22670 4.77015e-16
4543.23098 4.50468e-16
4546.23526 4.24492e-16
4549.23955 4.34669e-16
4552.24383 4.18564e-16
4555.24811 4.38072e-16
4558.25239 4.37498e-16
4561.25667 4.10376e-16
4564.26095 4.27056e-16
4567.26523 4.17737e-16
4570.26952 4.02973e-16
4573.27380 4.12830e-16
4576.27808 4.20129e-16
4579.28236 4.20176e-16
4582.28664 4.17795e-16
4585.29092 4.18417e-16
4588.29521 4.23850e-16
4591.29949 3.98303e-16
4594.30377 3.90844e-16
4597.30805 3.91286e-16
4600.31233 4.07620e-16
4603.31661 4.12835e-16
4606.32089 3.98686e-16
4609.32518 4.18998e-16
4612.32946 4.15967e-16
4615.33374 4.26448e-16
4618.33802 4.10848e-16
4621.34230 3.90539e-16
4624.34658 3.90188e-16
4627.35087 4.05560e-16
4630.35515 4.27227e-16
4633.35943 4.25254e-16
4636.36371 4.25112e-16
4639.36799 4.27554e-16
4642.37227 3.92070e-16
4645.37655 3.80426e-16
4648.38084 3.96673e-16
4651.38512 3.83198e-16
4654.38940 3.69022e-16
4657.39368 3.72769e-16
4660.39796 3.72382e-16
4663.40225 3.99612e-16
4666.40653 4.07971e-16
4669.41081 3.76242e-16
4672.41509 3.69802e-16
4675.41937 3.62725e-16
4678.42365 3.66521e-16
4681.42793 3.69010e-16
4684.43221 3.95963e-16
4687.43650 3.97241e-16
4690.44078 3.90507e-16
4693.44506 3.98072e-16
4696.44934 4.37764e-16
4699.45362 4.08942e-16
4702.45791 4.25588e-16
4705.46219 4.46772e-16
4708.46647 4.27532e-16
4711.47075 4.49865e-16
4714.47503 4.38473e-16
4717.47931 4.07504e-16
4720.48359 4.21243e-16
4723.48788 4.18631e-16
4726.49216 4.11741e-16
4729.49644 4.26585e-16
4732.50072 4.32552e-16
4735.50500 4.17412e-16
4738.50928 4.06073e-16
4741.51357 4.15520e-16
4744.51785 4.27898e-16
4747.52213 4.35079e-16
4750.52641 4.29230e-16
4753.53069 4.30077e-16
4756.53497 4.24489e-16
4759.53925 4.15918e-16
4762.54354 4.23783e-16
4765.54782 4.28810e-16
4768.55210 4.10084e-16
4771.55638 4.18594e-16
4774.56066 4.31928e-16
4777.56494 4.24044e-16
4780.56923 4.28070e-16
4783.57351 4.18531e-16
4786.57779 4.02810e-16
4789.58207 4.40563e-16
4792.58635 4.18881e-16
4795.59063 4.72963e-16
4798.59491 4.31220e-16
4801.59920 4.26160e-16
4804.60348 4.21362e-16
4807.60776 4.10510e-16
4810.61204 4.37437e-16
4813.61632 4.04828e-16
4816.62060 4.35892e-16
4819.62489 4.59939e-16
4822.62917 4.39741e-16
4825.63345 4.34227e-16
4828.63773 4.31276e-16
4831.64201 4.25839e-16
4834.64629 4.33456e-16
4837.65057 4.07950e-16
4840.65486 4.16788e-16
4843.65914 4.42219e-16
4846.66342 4.22564e-16
4849.66770 4.39884e-16
4852.67198 4.29208e-16
4855.67626 4.62577e-16
4858.68055 4.58615e-16
4861.68483 4.21523e-16
4864.68911 4.37806e-16
4867.69339 4.40138e-16
4870.69767 4.53518e-16
4873.70195 4.43810e-16
4876.70623 4.56470e-16
4879.71052 4.50862e-16
4882.71480 4.36442e-16
4885.71908 4.52640e-16
4888.72336 4.50468e-16
4891.72764 4.49627e-16
4894.73192 4.19683e-16
4897.73621 4.43312e-16
4900.74049 4.31895e-16
4903.74477 4.38941e-16
4906.74905 4.34540e-16
4909.75333 4.46754e-16
4912.75761 4.43520e-16
4915.76189 4.38466e-16
4918.76618 4.71628e-16
4921.77046 4.70857e-16
4924.77474 4.71994e-16
4927.77902 4.79759e-16
4930.78330 4.59739e-16
4933.78759 4.81551e-16
4936.79187 4.78897e-16
4939.79615 4.24877e-16
4942.80043 4.21532e-16
4945.80471 4.26128e-16
4948.80899 4.37623e-16
4951.81327 4.57846e-16
4954.81756 4.33111e-16
4957.82184 4.42442e-16
4960.82612 4.63087e-16
4963.83040 4.59990e-16
4966.83468 4.43223e-16
4969.83896 4.30009e-16
4972.84325 4.40047e-16
4975.84753 4.43025e-16
4978.85181 4.43453e-16
4981.85609 4.60315e-16
4984.86037 4.70691e-16
4987.86465 4.60949e-16
4990.86893 4.70277e-16
4993.87322 4.64750e-16
4996.87750 4.57927e-16
4999.88178 4.54981e-16
5002.88606 4.51471e-16
5005.89034 4.56428e-16
5008.89462 4.74064e-16
5011.89891 4.75069e-16
5014.90319 4.81984e-16
5017.90747 4.71965e-16
5020.91175 4.95672e-16
5023.91603 4.94396e-16
5026.92031 4.75725e-16
5029.92459 4.80898e-16
5032.92888 4.75024e-16
5035.93316 4.47749e-16
5038.93744 4.62980e-16
5041.94172 4.72921e-16
5044.94600 4.55852e-16
5047.95028 4.81347e-16
5050.95457 4.92913e-16
5053.95885 4.43550e-16
5056.96313 4.37078e-16
5059.96741 4.39524e-16
5062.97169 4.31529e-16
5065.97597 4.53717e-16
5068.98026 4.79520e-16
5071.98454 4.83770e-16
5074.98882 5.02645e-16
5077.99310 5.32339e-16
5080.99738 5.17252e-16
5084.00166 5.56696e-16
5087.00594 5.70393e-16
5090.01023 5.32827e-16
5093.01451 5.15605e-16
5096.01879 4.98313e-16
5099.02307 4.91213e-16
5102.02735 4.69684e-16
5105.03163 4.94976e-16
5108.03592 5.37001e-16
5111.04020 5.05853e-16
5114.04448 5.14323e-16
5117.04876 5.00261e-16
5120.05304 4.93118e-16
5123.05732 4.96178e-16
5126.06160 4.95376e-16
5129.06589 4.98889e-16
5132.07017 4.95610e-16
5135.07445 5.07094e-16
5138.07873 4.94087e-16
5141.08301 5.08780e-16
5144.08729 5.05522e-16
5147.09158 5.16463e-16
5150.09586 5.26098e-16
5153.10014 5.14272e-16
5156.10442 5.33944e-16
5159.10870 5.33591e-16
5162.11298 5.18028e-16
5165.11726 5.26129e-16
5168.12155 4.98362e-16
5171.12583 5.00889e-16
5174.13011 4.92162e-16
5177.13439 4.87502e-16
5180.13867 4.90290e-16
5183.14295 4.76620e-16
5186.14724 4.75803e-16
5189.15152 5.00888e-16
5192.15580 5.14938e-16
5195.16008 5.60570e-16
5198.16436 5.54697e-16
5201.16864 4.95523e-16
5204.17292 5.10901e-16
5207.17721 4.65315e-16
5210.18149 4.85826e-16
5213.18577 5.03766e-16
5216.19005 4.95196e-16
5219.19433 5.16840e-16
5222.19861 5.17702e-16
5225.20290 5.50515e-16
5228.20718 5.39871e-16
5231.21146 5.38244e-16
5234.21574 5.23664e-16
5237.22002 5.38122e-16
5240.22430 5.29195e-16
5243.22858 5.20676e-16
5246.23287 4.98928e-16
5249.23715 4.87785e-16
5252.24143 5.36718e-16
5255.24571 5.49289e-16
5258.24999 5.07955e-16
5261.25427 5.20799e-16
5264.25856 5.26599e-16
5267.26284 5.21827e-16
5270.26712 5.35439e-16
5273.27140 5.27931e-16
5276.27568 5.48989e-16
5279.27996 5.51517e-16
5282.28424 5.28761e-16
5285.28853 5.31546e-16
5288.29281 5.12618e-16
5291.29709 5.22296e-16
5294.30137 5.43459e-16
5297.30565 5.20432e-16
5300.30994 5.30249e-16
5303.31422 5.41964e-16
5306.31850 5.28142e-16
5309.32278 5.27727e-16
5312.32706 5.25921e-16
5315.33134 5.45049e-16
5318.33562 5.36291e-16
5321.33991 5.41857e-16
5324.34419 5.29167e-16
5327.34847 5.47911e-16
5330.35275 5.45407e-16
5333.35703 5.57235e-16
5336.36131 5.33868e-16
5339.36560 5.14500e-16
5342.36988 5.28186e-16
5345.37416 5.34201e-16
5348.37844 5.63942e-16
5351.38272 5.51642e-16
5354.38700 5.34123e-16
5357.39128 5.34608e-16
5360.39557 5.33019e-16
5363.39985 5.37836e-16
5366.40413 5.52492e-16
5369.40841 5.53132e-16
5372.41269 5.32696e-16
5375.41697 5.37818e-16
5378.42126 5.46259e-16
5381.42554 5.47715e-16
5384.42982 5.39747e-16
5387.43410 5.50276e-16
5390.43838 5.61850e-16
5393.44266 5.61862e-16
5396.44694 5.40312e-16
5399.45123 5.48259e-16
5402.45551 5.48458e-16
5405.45979 5.46718e-16
5408.46407 5.39413e-16
5411.46835 5.22789e-16
5414.47263 5.52563e-16
5417.47692 5.64222e-16
5420.48120 5.79244e-16
5423.48548 5.62040e-16
5426.48976 5.30169e-16
5429.49404 5.41656e-16
5432.49832 5.37988e-16
5435.50260 5.43427e-16
5438.50689 5.24749e-16
5441.51117 5.21982e-16
5444.51545 5.43239e-16
5447.51973 5.38062e-16
5450.52401 5.28842e-16
5453.52829 5.34572e-16
5456.53258 5.62939e-16
5459.53686 5.35566e-16
5462.54114 5.33370e-16
5465.54542 5.31383e-16
5468.54970 5.44353e-16
5471.55398 5.03772e-16
5474.55826 5.41894e-16
5477.56255 5.64623e-16
5480.56683 5.61253e-16
5483.57111 5.44039e-16
5486.57539 5.34249e-16
5489.57967 5.49892e-16
5492.58395 5.46732e-16
5495.58824 5.37625e-16
5498.59252 5.45605e-16
5501.59680 5.65082e-16
5504.60108 5.64565e-16
5507.60536 5.41039e-16
5510.60964 5.35227e-16
5513.61392 5.62452e-16
5516.61821 5.76882e-16
5519.62249 5.44345e-16
5522.62677 5.50640e-16
5525.63105 5.78399e-16
5528.63533 5.52896e-16
5531.63962 5.66232e-16
5534.64390 5.76457e-16
5537.64818 5.56736e-16
5540.65246 5.67124e-16
5543.65674 5.53162e-16
5546.66102 5.55182e-16
5549.66530 5.35314e-16
5552.66958 5.43726e-16
5555.67387 5.65105e-16
5558.67815 5.68590e-16
5561.68243 5.71374e-16
5564.68671 5.69791e-16
5567.69099 5.64689e-16
5570.69528 5.64167e-16
5573.69956 5.54835e-16
5576.70384 5.54355e-16
5579.70812 5.78685e-16
5582.71240 5.44995e-16
5585.71668 5.77382e-16
5588.72096 5.92397e-16
5591.72525 5.64845e-16
5594.72953 5.74166e-16
5597.73381 5.92983e-16
5600.73809 5.76020e-16
5603.74237 5.74441e-16
5606.74665 5.64125e-16
5609.75094 5.58796e-16
5612.75522 5.70061e-16
5615.75950 5.60100e-16
5618.76378 5.48512e-16
5621.76806 5.48526e-16
5624.77234 5.60154e-16
5627.77662 5.59600e-16
5630.78091 5.74552e-16
5633.78519 5.75621e-16
5636.78947 5.52122e-16
5639.79375 5.66485e-16
5642.79803 5.73902e-16
5645.80231 5.89050e-16
5648.80660 5.79688e-16
5651.81088 5.52445e-16
5654.81516 5.68316e-16
5657.81944 5.56991e-16
5660.82372 4.90151e-16
5663.82800 5.12020e-16
5666.83229 5.69720e-16
5669.83657 5.35173e-16
5672.84085 5.41339e-16
5675.84513 5.84111e-16
5678.84941 5.68160e-16
5681.85369 5.88639e-16
5684.85797 5.54371e-16
5687.86226 5.77993e-16
5690.86654 5.82121e-16
5693.87082 5.54673e-16
5696.87510 5.58353e-16
5699.87938 5.64903e-16
5702.88366 5.85802e-16
5705.88795 5.95359e-16
5708.89223 5.78931e-16
5711.89651 5.75649e-16
5714.90079 5.79901e-16
5717.90507 5.65595e-16
5720.90935 5.45844e-16
5723.91363 5.33310e-16
5726.91792 5.00245e-16
5729.92220 4.81293e-16
5732.92648 4.86867e-16
5735.93076 4.77877e-16
5738.93504 4.87849e-16
5741.93932 5.06800e-16
5744.94361 5.33071e-16
5747.94789 5.60702e-16
5750.95217 5.54696e-16
5753.95645 5.87343e-16
5756.96073 6.03054e-16
5759.96501 6.14787e-16
5762.96929 6.19973e-16
5765.97358 5.90394e-16
5768.97786 5.82901e-16
5771.98214 5.96064e-16
5774.98642 5.74704e-16
5777.99070 5.89362e-16
5780.99498 6.02724e-16
5783.99927 5.91429e-16
5787.00355 5.80894e-16
5790.00783 6.01931e-16
5793.01211 6.14216e-16
5796.01639 6.06463e-16
5799.02067 6.09562e-16
5802.02495 5.99730e-16
5805.02924 6.12495e-16
5808.03352 6.27231e-16
5811.03780 6.16581e-16
5814.04208 6.21956e-16
5817.04636 6.31698e-16
5820.05064 6.42216e-16
5823.05493 6.38925e-16
5826.05921 6.13811e-16
5829.06349 6.08309e-16
5832.06777 6.08530e-16
5835.07205 6.27156e-16
5838.07633 6.26149e-16
5841.08061 6.14055e-16
5844.08490 6.15901e-16
5847.08918 6.11946e-16
5850.09346 6.05926e-16
5853.09774 5.97520e-16
5856.10202 6.06063e-16
5859.10630 5.98263e-16
5862.11059 6.02417e-16
5865.11487 5.87382e-16
5868.11915 6.13125e-16
5871.12343 5.94550e-16
5874.12771 5.83980e-16
5877.13199 5.74504e-16
5880.13627 5.83082e-16
5883.14056 5.97876e-16
5886.14484 5.88292e-16
5889.14912 5.78360e-16
5892.15340 5.76924e-16
5895.15768 5.90635e-16
5898.16196 5.87279e-16
5901.16625 6.05949e-16
5904.17053 6.31782e-16
5907.17481 6.09765e-16
5910.17909 6.32578e-16
5913.18337 6.38154e-16
5916.18765 6.28866e-16
5919.19193 6.25818e-16
5922.19622 5.91007e-16
5925.20050 5.98652e-16
5928.20478 6.09650e-16
5931.20906 5.94973e-16
5934.21334 6.26760e-16
5937.21763 6.62292e-16
5940.22191 6.56260e-16
5943.22619 7.03299e-16
5946.23047 7.67538e-16
5949.23475 7.85508e-16
5952.23903 7.88965e-16
5955.24331 7.76154e-16
5958.24760 7.05016e-16
5961.25188 6.14474e-16
5964.25616 5.28275e-16
5967.26044 4.57959e-16
5970.26472 4.08773e-16
5973.26900 4.07598e-16
5976.27329 4.61593e-16
5979.27757 5.02863e-16
5982.28185 5.29769e-16
5985.28613 5.90565e-16
5988.29041 6.42124e-16
5991.29469 6.41569e-16
5994.29897 6.54787e-16
5997.30326 6.77007e-16
6000.30754 6.80668e-16
6003.31182 6.46579e-16
6006.31610 6.43527e-16
6009.32038 6.66537e-16
6012.32466 6.50815e-16
6015.32895 6.58559e-16
6018.33323 6.67194e-16
6021.33751 6.80039e-16
6024.34179 6.53279e-16
6027.34607 6.62479e-16
6030.35035 6.55964e-16
6033.35463 6.14875e-16
6036.35892 6.18988e-16
6039.36320 6.23390e-16
6042.36748 6.14993e-16
6045.37176 6.29113e-16
6048.37604 6.35313e-16
6051.38032 6.22897e-16
6054.38461 6.25378e-16
6057.38889 6.43985e-16
6060.39317 6.25149e-16
6063.39745 6.16032e-16
6066.40173 5.89985e-16
6069.40601 6.08123e-16
6072.41029 5.95991e-16
6075.41458 6.09517e-16
6078.41886 6.10873e-16
6081.42314 6.22902e-16
6084.42742 6.37262e-16
6087.43170 5.91072e-16
6090.43598 5.94768e-16
6093.44027 6.01999e-16
6096.44455 6.04565e-16
6099.44883 6.23180e-16
6102.45311 6.14912e-16
6105.45739 5.94337e-16
6108.46167 6.05551e-16
6111.46595 6.07596e-16
6114.47024 6.04132e-16
6117.47452 6.24454e-16
6120.47880 6.17498e-16
6123.48308 6.09743e-16
6126.48736 6.10983e-16
6129.49164 5.96265e-16
6132.49593 5.87311e-16
6135.50021 6.04776e-16
6138.50449 5.86530e-16
6141.50877 5.94464e-16
6144.51305 6.11757e-16
6147.51733 5.91216e-16
6150.52161 5.91310e-16
6153.52590 5.95647e-16
6156.53018 6.03503e-16
6159.53446 6.12469e-16
6162.53874 5.92360e-16
6165.54302 6.07654e-16
6168.54731 6.16177e-16
6171.55159 5.85015e-16
6174.55587 5.87722e-16
6177.56015 5.99820e-16
6180.56443 5.96048e-16
6183.56871 6.13144e-16
6186.57299 6.18649e-16
6189.57728 5.91076e-16
6192.58156 5.68220e-16
6195.58584 5.80572e-16
6198.59012 5.89586e-16
6201.59440 5.93556e-16
6204.59868 6.02907e-16
6207.60297 5.85508e-16
6210.60725 5.86890e-16
6213.61153 5.98255e-16
6216.61581 5.74790e-16
6219.62009 5.90933e-16
6222.62437 5.97242e-16
6225.62865 5.84631e-16
6228.63294 5.82258e-16
6231.63722 5.85999e-16
6234.64150 6.17876e-16
6237.64578 6.22408e-16
6240.65006 5.89605e-16
6243.65434 5.91959e-16
6246.65863 5.90784e-16
6249.66291 5.95221e-16
6252.66719 5.89438e-16
6255.67147 5.82279e-16
6258.67575 5.49620e-16
6261.68003 5.98190e-16
6264.68431 6.04923e-16
6267.68860 5.62062e-16
6270.69288 5.70616e-16
6273.69716 5.81124e-16
6276.70144 5.43164e-16
6279.70572 5.39129e-16
6282.71000 5.70100e-16
6285.71429 5.95655e-16
6288.71857 5.78287e-16
6291.72285 5.50533e-16
6294.72713 5.66189e-16
6297.73141 5.83815e-16
6300.73569 5.80076e-16
6303.73998 5.74704e-16
6306.74426 5.72016e-16
6309.74854 5.95023e-16
6312.75282 5.90088e-16
6315.75710 5.70144e-16
6318.76138 5.77252e-16
6321.76566 5.79150e-16
6324.76995 5.87645e-16
6327.77423 5.67772e-16
6330.77851 5.52844e-16
6333.78279 5.75709e-16
6336.78707 5.82611e-16
6339.79135 5.50318e-16
6342.79564 5.67552e-16
6345.79992 6.11533e-16
6348.80420 6.07775e-16
6351.80848 5.77553e-16
6354.81276 5.58677e-16
6357.81704 5.54874e-16
6360.82132 5.64702e-16
6363.82561 5.81010e-16
6366.82989 5.58898e-16
6369.83417 5.50230e-16
6372.83845 5.63885e-16
6375.84273 5.78160e-16
6378.84701 5.88695e-16
6381.85130 5.62910e-16
6384.85558 5.89378e-16
6387.85986 5.97337e-16
6390.86414 6.02057e-16
6393.86842 5.97841e-16
6396.87270 5.89200e-16
6399.87698 5.78681e-16
6402.88127 5.77584e-16
6405.88555 5.94928e-16
6408.88983 5.97341e-16
6411.89411 5.85676e-16
6414.89839 5.97051e-16
6417.90267 6.10188e-16
6420.90696 5.90960e-16
6423.91124 5.92907e-16
6426.91552 5.97854e-16
6429.91980 6.16744e-16
6432.92408 5.77777e-16
6435.92836 5.92729e-16
6438.93264 5.97663e-16
6441.93693 5.87666e-16
6444.94121 5.86746e-16
6447.94549 5.84462e-16
6450.94977 5.88001e-16
6453.95405 5.83244e-16
6456.95833 5.64679e-16
6459.96262 5.70666e-16
6462.96690 5.86242e-16
6465.97118 5.84513e-16
6468.97546 5.86063e-16
6471.97974 5.64283e-16
6474.98402 5.61698e-16
6477.98830 6.01287e-16
6480.99259 5.69489e-16
6483.99687 5.97867e-16
6487.00115 5.86001e-16
6490.00543 5.77685e-16
6493.00971 5.71699e-16
6496.01399 5.79595e-16
6499.01828 5.96812e-16
6502.02256 6.01312e-16
6505.02684 5.80062e-16
6508.03112 5.75095e-16
6511.03540 5.86239e-16
6514.03968 5.67973e-16
6517.04396 5.60797e-16
6520.04825 5.91898e-16
6523.05253 5.96710e-16
6526.05681 5.89518e-16
6529.06109 6.12918e-16
6532.06537 5.90895e-16
6535.06966 5.97673e-16
6538.07394 5.81994e-16
6541.07822 5.56365e-16
6544.08250 5.35913e-16
6547.08678 5.23758e-16
6550.09106 5.46557e-16
6553.09534 5.71543e-16
6556.09963 5.56717e-16
6559.10391 5.56619e-16
6562.10819 5.84216e-16
6565.11247 5.99751e-16
6568.11675 5.90180e-16
6571.12103 5.70814e-16
6574.12532 5.82918e-16
6577.12960 5.71613e-16
6580.13388 5.74664e-16
6583.13816 6.01872e-16
6586.14244 5.87760e-16
6589.14672 5.92102e-16
6592.15100 5.83803e-16
6595.15529 6.00579e-16
6598.15957 6.14058e-16
6601.16385 5.82936e-16
6604.16813 5.74872e-16
6607.17241 5.76783e-16
6610.17669 5.70673e-16
6613.18098 5.81266e-16
6616.18526 5.93675e-16
6619.18954 5.93566e-16
6622.19382 5.93876e-16
6625.19810 6.20534e-16
6628.20238 6.16424e-16
6631.20666 6.11382e-16
6634.21095 6.37843e-16
6637.21523 7.11991e-16
6640.21951 8.04377e-16
6643.22379 8.29175e-16
6646.22807 7.89922e-16
6649.23235 8.45743e-16
6652.23664 8.69250e-16
6655.24092 8.28272e-16
6658.24520 8.50953e-16
6661.24948 8.34403e-16
6664.25376 7.69337e-16
6667.25804 7.55294e-16
6670.26232 7.30065e-16
6673.26661 7.37412e-16
6676.27089 7.09234e-16
6679.27517 7.13985e-16
6682.27945 6.61177e-16
6685.28373 6.12361e-16
6688.28801 5.93435e-16
6691.29230 6.14775e-16
6694.29658 6.20750e-16
6697.30086 6.31829e-16
6700.30514 6.33399e-16
6703.30942 6.05446e-16
6706.31370 6.05101e-16
6709.31798 6.19244e-16
6712.32227 6.17874e-16
6715.32655 6.16494e-16
6718.33083 6.03994e-16
6721.33511 6.14939e-16
6724.33939 6.02087e-16
6727.34367 5.84195e-16
6730.34796 6.01326e-16
6733.35224 6.00598e-16
6736.35652 5.76657e-16
6739.36080 5.55355e-16
6742.36508 5.26203e-16
6745.36936 5.64839e-16
6748.37364 5.91275e-16
6751.37793 5.82362e-16
6754.38221 6.03785e-16
6757.38649 6.23748e-16
6760.39077 6.49038e-16
6763.39505 6.93235e-16
6766.39933 6.75482e-16
6769.40362 6.48132e-16
6772.40790 6.62225e-16
6775.41218 6.65763e-16
6778.41646 6.31585e-16
6781.42074 6.51671e-16
6784.42502 6.25802e-16
6787.42930 6.15476e-16
6790.43359 6.19514e-16
6793.43787 6.19015e-16
6796.44215 6.36430e-16
6799.44643 6.85826e-16
6802.45071 6.98392e-16
6805.45500 6.56263e-16
6808.45928 6.57795e-16
6811.46356 6.92000e-16
6814.46784 6.74221e-16
6817.47212 6.22750e-16
6820.47640 6.04718e-16
6823.48068 6.06110e-16
6826.48497 6.35279e-16
6829.48925 6.12343e-16
6832.49353 5.98422e-16
6835.49781 5.77910e-16
6838.50209 5.79754e-16
6841.50637 5.78828e-16
6844.51066 5.76606e-16
6847.51494 5.72743e-16
6850.51922 5.50957e-16
6853.52350 5.52301e-16
6856.52778 5.56336e-16
6859.53206 5.75191e-16
6862.53634 5.82451e-16
6865.54063 5.64806e-16
6868.54491 5.93884e-16
6871.54919 5.91346e-16
6874.55347 5.89537e-16
6877.55775 5.81410e-16
6880.56203 5.26186e-16
6883.56632 5.09142e-16
6886.57060 5.47838e-16
6889.57488 5.73757e-16
6892.57916 5.52007e-16
6895.58344 5.45565e-16
6898.58772 5.72402e-16
6901.59201 5.87978e-16
6904.59629 5.58573e-16
6907.60057 5.68798e-16
6910.60485 5.72333e-16
6913.60913 5.78056e-16
6916.61341 5.71171e-16
6919.61769 5.71920e-16
6922.62198 5.47259e-16
6925.62626 5.35344e-16
6928.63054 5.52179e-16
6931.63482 5.45259e-16
6934.63910 5.31826e-16
6937.64338 5.46399e-16
6940.64767 5.56023e-16
6943.65195 5.54681e-16
6946.65623 5.54990e-16
6949.66051 5.68346e-16
6952.66479 5.58108e-16
6955.66907 5.72200e-16
6958.67335 5.37815e-16
6961.67764 5.56738e-16
6964.68192 5.73609e-16
6967.68620 5.50349e-16
6970.69048 5.31235e-16
6973.69476 5.54089e-16
6976.69904 5.80741e-16
6979.70333 5.63250e-16
6982.70761 5.52879e-16
6985.71189 5.84940e-16
6988.71617 5.75497e-16
6991.72045 5.37999e-16
6994.72473 5.59524e-16
6997.72901 5.41945e-16
7000.73330 5.51227e-16
7003.73758 5.27501e-16
7006.74186 5.25369e-16
7009.74614 5.29634e-16
7012.75042 5.28745e-16
7015.75470 5.47409e-16
7018.75899 5.58356e-16
7021.76327 5.50374e-16
7024.76755 5.57649e-16
7027.77183 5.72611e-16
7030.77611 5.70003e-16
7033.78039 5.56375e-16
7036.78467 5.35908e-16
7039.78896 5.45494e-16
7042.79324 5.59420e-16
7045.79752 5.55213e-16
7048.80180 5.58050e-16
7051.80608 5.47005e-16
7054.81036 5.42266e-16
7057.81465 5.42508e-16
7060.81893 5.31451e-16
7063.82321 5.36471e-16
7066.82749 5.50866e-16
7069.83177 5.61830e-16
7072.83605 5.65218e-16
7075.84033 5.36189e-16
7078.84462 5.28469e-16
7081.84890 5.28942e-16
7084.85318 5.52933e-16
7087.85746 5.47864e-16
7090.86174 5.62075e-16
7093.86602 5.51259e-16
7096.87031 5.85524e-16
7099.87459 5.82189e-16
7102.87887 5.61703e-16
7105.88315 5.68113e-16
7108.88743 5.80868e-16
7111.89171 5.93830e-16
7114.89599 5.85717e-16
7117.90028 5.83175e-16
7120.90456 5.80441e-16
7123.90884 5.47986e-16
7126.91312 5.74357e-16
7129.91740 5.69104e-16
7132.92168 5.44157e-16
7135.92597 5.82003e-16
7138.93025 6.35497e-16
7141.93453 6.20255e-16
7144.93881 6.13484e-16
7147.94309 6.16731e-16
7150.94737 6.21192e-16
7153.95165 6.56155e-16
7156.95594 6.71831e-16
7159.96022 6.63045e-16
7162.96450 6.72403e-16
7165.96878 6.69434e-16
7168.97306 6.94618e-16
7171.97735 6.57459e-16
7174.98163 6.07106e-16
7177.98591 6.05210e-16
7180.99019 5.97690e-16
7183.99447 5.92789e-16
7186.99875 5.96142e-16
7190.00303 5.90349e-16
7193.00732 5.67591e-16
7196.01160 5.58695e-16
7199.01588 5.78853e-16
7202.02016 5.88387e-16
7205.02444 5.48603e-16
7208.02872 5.74610e-16
7211.03301 5.63788e-16
7214.03729 5.64755e-16
7217.04157 5.49835e-16
7220.04585 5.55927e-16
7223.05013 5.58531e-16
7226.05441 5.41700e-16
7229.05869 5.52299e-16
7232.06298 5.56534e-16
7235.06726 5.56305e-16
7238.07154 5.51172e-16
7241.07582 5.60500e-16
7244.08010 5.65943e-16
7247.08438 5.95955e-16
7250.08867 6.05224e-16
7253.09295 6.12311e-16
7256.09723 5.84360e-16
7259.10151 5.49236e-16
7262.10579 5.41859e-16
7265.11007 5.62404e-16
7268.11435 5.53937e-16
7271.11864 5.48564e-16
7274.12292 5.77713e-16
7277.12720 5.88876e-16
7280.13148 5.73857e-16
7283.13576 5.90463e-16
7286.14004 6.01886e-16
7289.14433 5.89394e-16
7292.14861 5.82132e-16
7295.15289 5.62102e-16
7298.15717 5.12928e-16
7301.16145 5.17202e-16
7304.16573 5.59515e-16
7307.17001 5.47935e-16
7310.17430 5.33262e-16
7313.17858 5.65294e-16
7316.18286 5.77331e-16
7319.18714 5.71923e-16
7322.19142 5.97768e-16
7325.19570 5.81805e-16
7328.19999 5.75559e-16
7331.20427 5.81314e-16
7334.20855 5.81236e-16
7337.21283 5.67022e-16
7340.21711 5.66912e-16
7343.22139 5.62498e-16
7346.22567 5.66365e-16
7349.22996 5.64708e-16
7352.23424 5.53874e-16
7355.23852 5.47569e-16
7358.24280 5.50561e-16
7361.24708 5.85627e-16
7364.25136 5.92535e-16
7367.25565 5.72861e-16
7370.25993 5.82945e-16
7373.26421 5.65119e-16
7376.26849 5.97284e-16
7379.27277 5.97907e-16
7382.27705 5.73499e-16
7385.28133 5.78094e-16
7388.28562 5.67766e-16
7391.28990 5.60646e-16
7394.29418 5.83708e-16
7397.29846 5.71996e-16
7400.30274 5.50292e-16
7403.30703 5.63117e-16
7406.31131 5.49379e-16
7409.31559 5.46273e-16
7412.31987 5.83496e-16
7415.32415 5.60024e-16
7418.32843 5.48959e-16
7421.33271 5.53115e-16
7424.33700 5.44785e-16
7427.34128 5.42019e-16
7430.34556 5.32844e-16
7433.34984 5.07122e-16
7436.35412 5.17473e-16
7439.35840 5.49924e-16
7442.36269 5.22847e-16
7445.36697 5.27949e-16
7448.37125 5.31817e-16
7451.37553 5.30063e-16
7454.37981 5.45713e-16
7457.38409 5.47756e-16
7460.38837 5.30230e-16
7463.39266 5.23873e-16
7466.39694 5.23207e-16
7469.40122 5.17987e-16
7472.40550 5.09321e-16
7475.40978 5.11776e-16
7478.41406 5.36983e-16
7481.41835 5.34179e-16
7484.42263 5.33570e-16
7487.42691 5.22659e-16
7490.43119 5.26210e-16
7493.43547 5.32928e-16
7496.43975 5.33231e-16
7499.44403 5.38683e-16
7502.44832 5.26320e-16
7505.45260 5.07630e-16
7508.45688 5.17389e-16
7511.46116 5.09757e-16
7514.46544 4.73536e-16
7517.46972 4.82410e-16
7520.47401 4.95989e-16
7523.47829 5.15983e-16
7526.48257 4.93810e-16
7529.48685 5.23123e-16
7532.49113 5.22437e-16
7535.49541 5.20429e-16
7538.49970 5.33961e-16
7541.50398 5.37011e-16
7544.50826 5.24846e-16
7547.51254 5.19245e-16
7550.51682 5.30248e-16
7553.52110 5.25311e-16
7556.52538 5.16729e-16
7559.52967 5.32733e-16
7562.53395 5.10097e-16
7565.53823 5.00864e-16
7568.54251 4.66533e-16
7571.54679 4.60113e-16
7574.55107 4.88289e-16
7577.55536 5.09912e-16
7580.55964 5.00688e-16
7583.56392 4.75959e-16
7586.56820 4.51594e-16
7589.57248 4.40398e-16
7592.57676 4.32264e-16
7595.58104 4.58988e-16
7598.58533 4.42328e-16
7601.58961 4.12894e-16
7604.59389 4.23509e-16
7607.59817 4.46281e-16
7610.60245 4.29076e-16
7613.60673 4.89310e-16
7616.61102 4.77051e-16
7619.61530 4.72977e-16
7622.61958 4.83534e-16
7625.62386 4.77570e-16
7628.62814 4.80637e-16
7631.63242 4.79529e-16
7634.63670 4.41939e-16
7637.64099 3.86031e-16
7640.64527 3.87004e-16
7643.64955 4.20154e-16
7646.65383 4.51202e-16
7649.65811 4.77805e-16
7652.66239 4.68408e-16
7655.66668 4.86043e-16
7658.67096 5.04386e-16
7661.67524 5.05126e-16
7664.67952 5.14531e-16
7667.68380 4.65987e-16
7670.68808 4.31424e-16
7673.69236 4.47670e-16
7676.69665 4.20931e-16
7679.70093 4.40704e-16
7682.70521 4.57381e-16
7685.70949 4.55881e-16
7688.71377 4.51164e-16
7691.71805 4.52102e-16
7694.72234 4.88685e-16
7697.72662 5.41055e-16
7700.73090 5.24660e-16
7703.73518 4.96508e-16
7706.73946 4.89428e-16
7709.74374 4.24241e-16
7712.74802 4.22506e-16
7715.75231 4.35618e-16
7718.75659 4.35600e-16
7721.76087 4.42413e-16
7724.76515 4.37698e-16
7727.76943 4.24602e-16
7730.77371 4.52699e-16
7733.77800 4.94608e-16
7736.78228 5.16254e-16
7739.78656 5.01241e-16
7742.79084 4.86624e-16
7745.79512 5.27163e-16
7748.79940 5.20718e-16
7751.80368 5.28777e-16
7754.80797 4.97701e-16
7757.81225 5.01068e-16
7760.81653 4.92127e-16
7763.82081 4.82266e-16
7766.82509 4.94421e-16
7769.82938 4.69355e-16
7772.83366 4.55004e-16
7775.83794 4.76680e-16
7778.84222 4.49348e-16
7781.84650 4.95783e-16
7784.85078 5.10985e-16
7787.85506 4.80065e-16
7790.85934 4.72682e-16
7793.86363 5.16447e-16
7796.86791 5.17808e-16
7799.87219 4.89795e-16
7802.87647 4.88046e-16
7805.88075 4.91454e-16
7808.88504 4.88967e-16
7811.88932 4.90606e-16
7814.89360 4.84976e-16
7817.89788 4.88775e-16
7820.90216 4.95667e-16
7823.90644 4.88272e-16
7826.91072 5.03440e-16
7829.91501 4.98107e-16
7832.91929 5.01965e-16
7835.92357 5.08046e-16
7838.92785 5.01426e-16
7841.93213 4.93080e-16
7844.93641 4.85457e-16
7847.94070 4.82229e-16
7850.94498 4.63161e-16
7853.94926 4.47346e-16
7856.95354 4.97496e-16
7859.95782 4.84645e-16
7862.96210 4.52424e-16
7865.96638 4.52546e-16
7868.97067 5.00050e-16
7871.97495 5.31451e-16
7874.97923 5.19414e-16
7877.98351 5.02673e-16
7880.98779 5.14270e-16
7883.99207 5.31379e-16
7886.99636 5.06233e-16
7890.00064 5.01504e-16
7893.00492 5.18452e-16
7896.00920 4.93633e-16
7899.01348 4.65049e-16
7902.01776 4.93738e-16
7905.02204 5.08821e-16
7908.02633 4.85439e-16
7911.03061 4.75814e-16
7914.03489 4.89441e-16
7917.03917 4.96050e-16
7920.04345 5.18236e-16
7923.04773 5.53463e-16
7926.05202 5.08049e-16
7929.05630 5.03119e-16
7932.06058 5.02616e-16
7935.06486 5.12253e-16
7938.06914 5.36042e-16
7941.07342 5.08163e-16
7944.07770 4.92270e-16
7947.08199 5.11664e-16
7950.08627 5.06156e-16
7953.09055 4.89593e-16
7956.09483 4.91533e-16
7959.09911 4.97572e-16
7962.10339 4.80416e-16
7965.10768 4.68339e-16
7968.11196 5.10187e-16
7971.11624 5.04549e-16
7974.12052 5.11636e-16
7977.12480 5.32186e-16
7980.12908 5.19815e-16
7983.13336 5.18973e-16
7986.13765 5.42462e-16
7989.14193 5.35639e-16
7992.14621 5.25780e-16
7995.15049 5.43509e-16
7998.15477 5.14714e-16
8001.15905 4.94408e-16
8004.16334 5.03429e-16
8007.16762 5.03930e-16
8010.17190 5.04121e-16
8013.17618 5.16464e-16
8016.18046 4.96893e-16
8019.18474 4.73733e-16
8022.18902 4.96173e-16
8025.19331 5.05827e-16
8028.19759 4.89100e-16
8031.20187 5.17212e-16
8034.20615 5.40506e-16
8037.21043 4.99254e-16
8040.21472 4.93972e-16
8043.21900 5.04288e-16
8046.22328 5.15155e-16
8049.22756 5.23135e-16
8052.23184 5.17085e-16
8055.23612 5.02976e-16
8058.24040 4.90866e-16
8061.24469 4.93370e-16
8064.24897 5.10054e-16
8067.25325 5.01744e-16
8070.25753 4.79109e-16
8073.26181 4.74919e-16
8076.26609 4.98713e-16
8079.27038 4.83667e-16
8082.27466 5.06859e-16
8085.27894 5.21246e-16
8088.28322 5.04252e-16
8091.28750 5.16260e-16
8094.29178 5.06238e-16
8097.29606 4.89260e-16
8100.30035 5.41777e-16
8103.30463 5.27283e-16
8106.30891 5.16325e-16
8109.31319 4.96443e-16
8112.31747 4.89340e-16
8115.32175 4.73369e-16
8118.32604 4.81857e-16
8121.33032 4.95333e-16
8124.33460 4.66162e-16
8127.33888 4.61937e-16
8130.34316 5.06632e-16
8133.34744 4.99597e-16
8136.35173 4.72978e-16
8139.35601 4.77836e-16
8142.36029 5.25841e-16
8145.36457 5.22529e-16
8148.36885 4.94451e-16
8151.37313 4.93149e-16
8154.37741 4.94444e-16
8157.38170 4.67078e-16
8160.38598 4.51716e-16
8163.39026 4.65958e-16
8166.39454 4.62173e-16
8169.39882 4.55823e-16
8172.40310 4.66940e-16
8175.40739 4.79065e-16
8178.41167 4.55840e-16
8181.41595 4.41935e-16
8184.42023 4.43257e-16
8187.42451 4.54113e-16
8190.42879 4.40843e-16
8193.43307 4.63624e-16
8196.43736 4.96083e-16
8199.44164 4.79747e-16
8202.44592 5.17797e-16
8205.45020 5.04128e-16
8208.45448 5.01746e-16
8211.45876 4.88898e-16
8214.46305 4.73865e-16
8217.46733 4.80139e-16
8220.47161 5.01802e-16
8223.47589 4.99980e-16
8226.48017 4.93725e-16
8229.48445 5.01548e-16
8232.48873 4.93707e-16
8235.49302 4.77631e-16
8238.49730 4.71522e-16
8241.50158 4.72104e-16
8244.50586 4.93847e-16
8247.51014 4.79362e-16
8250.51442 4.52084e-16
8253.51871 4.86552e-16
8256.52299 4.86552e-16
8259.52727 4.76555e-16
8262.53155 4.94232e-16
8265.53583 4.84662e-16
8268.54011 4.84259e-16
8271.54440 5.02223e-16
8274.54868 4.87993e-16
8277.55296 4.95209e-16
8280.55724 5.12097e-16
8283.56152 5.05852e-16
8286.56580 5.09684e-16
8289.57008 4.79580e-16
8292.57437 4.68865e-16
8295.57865 4.85542e-16
8298.58293 4.72531e-16
8301.58721 4.55069e-16
8304.59149 4.54789e-16
8307.59577 4.64351e-16
8310.60006 4.77584e-16
8313.60434 4.97760e-16
8316.60862 4.79018e-16
8319.61290 4.86533e-16
8322.61718 4.80584e-16
8325.62146 4.88555e-16
8328.62574 5.11486e-16
8331.63003 5.24951e-16
8334.63431 5.27463e-16
8337.63859 5.05289e-16
8340.64287 4.94599e-16
8343.64715 4.84514e-16
8346.65143 4.88486e-16
8349.65572 4.70606e-16
8352.66000 4.83560e-16
8355.66428 5.14150e-16
8358.66856 4.75893e-16
8361.67284 4.57671e-16
8364.67712 4.84324e-16
8367.68140 5.05878e-16
8370.68569 5.31991e-16
8373.68997 5.08165e-16
8376.69425 4.95069e-16
8379.69853 5.15756e-16
8382.70281 5.15792e-16
8385.70709 5.18893e-16
8388.71138 5.14299e-16
8391.71566 5.12261e-16
8394.71994 4.87010e-16
8397.72422 4.71713e-16
8400.72850 4.84131e-16
8403.73278 4.97523e-16
8406.73706 5.20722e-16
8409.74135 4.87877e-16
8412.74563 4.57765e-16
8415.74991 4.89193e-16
8418.75419 5.67974e-16
8421.75847 5.62859e-16
8424.76275 5.17708e-16
8427.76704 5.07167e-16
8430.77132 5.16658e-16
8433.77560 5.14128e-16
8436.77988 4.99071e-16
8439.78416 4.89570e-16
8442.78844 4.92106e-16
8445.79272 4.97716e-16
8448.79701 4.96567e-16
8451.80129 4.72903e-16
8454.80557 4.69424e-16
8457.80985 4.71341e-16
8460.81413 4.57648e-16
8463.81841 4.74971e-16
8466.82270 4.81286e-16
8469.82698 4.65907e-16
8472.83126 5.05210e-16
8475.83554 5.16769e-16
8478.83982 5.00173e-16
8481.84410 5.03298e-16
8484.84838 4.91140e-16
8487.85267 4.74570e-16
8490.85695 4.64518e-16
8493.86123 4.57502e-16
8496.86551 4.51064e-16
8499.86979 4.51712e-16
8502.87407 4.75232e-16
8505.87836 4.87456e-16
8508.88264 4.57760e-16
8511.88692 4.68787e-16
8514.89120 4.84267e-16
8517.89548 5.03889e-16
8520.89976 5.26070e-16
8523.90404 5.01643e-16
8526.90833 4.84461e-16
8529.91261 4.84066e-16
8532.91689 4.75242e-16
8535.92117 4.60417e-16
8538.92545 4.47813e-16
8541.92973 4.64430e-16
8544.93402 4.80353e-16
8547.93830 4.51515e-16
8550.94258 4.56871e-16
8553.94686 4.64218e-16
8556.95114 4.78878e-16
8559.95542 4.86715e-16
8562.95971 5.01233e-16
8565.96399 5.16014e-16
8568.96827 5.06944e-16
8571.97255 4.97014e-16
8574.97683 4.89974e-16
8577.98111 4.64448e-16
8580.98539 4.59223e-16
8583.98968 4.69133e-16
8586.99396 4.79964e-16
8589.99824 4.51496e-16
8593.00252 4.05954e-16
8596.00680 3.99637e-16
8599.01108 4.14826e-16
8602.01537 4.37060e-16
8605.01965 4.73085e-16
8608.02393 4.82029e-16
8611.02821 4.73911e-16
8614.03249 4.77852e-16
8617.03677 4.87937e-16
8620.04105 4.89489e-16
8623.04534 4.86844e-16
8626.04962 4.70314e-16
8629.05390 4.55581e-16
8632.05818 4.51311e-16
8635.06246 4.47539e-16
8638.06675 4.52174e-16
8641.07103 4.61322e-16
8644.07531 4.55783e-16
8647.07959 4.56486e-16
8650.08387 4.27295e-16
8653.08815 4.40593e-16
8656.09243 4.20359e-16
8659.09671 4.12311e-16
8662.10100 4.42242e-16
8665.10528 4.60584e-16
8668.10956 4.65575e-16
8671.11384 4.81897e-16
8674.11812 4.95171e-16
8677.12241 4.88299e-16
8680.12669 4.76287e-16
8683.13097 4.76767e-16
8686.13525 4.71746e-16
8689.13953 4.75003e-16
8692.14381 4.54756e-16
8695.14809 4.50299e-16
8698.15238 4.74449e-16
8701.15666 4.53885e-16
8704.16094 4.32765e-16
8707.16522 4.69054e-16
8710.16950 4.43613e-16
8713.17378 4.33082e-16
8716.17807 4.62562e-16
8719.18235 4.75612e-16
8722.18663 4.48495e-16
8725.19091 4.35364e-16
8728.19519 4.55815e-16
8731.19947 4.33926e-16
8734.20375 4.50055e-16
8737.20804 5.20374e-16
8740.21232 4.77597e-16
8743.21660 4.39880e-16
8746.22088 4.46773e-16
8749.22516 4.49907e-16
8752.22944 4.35636e-16
8755.23373 4.51663e-16
8758.23801 4.43841e-16
8761.24229 4.48990e-16
8764.24657 4.51750e-16
8767.25085 4.21796e-16
8770.25513 4.23496e-16
8773.25942 4.57162e-16
8776.26370 4.42039e-16
8779.26798 3.90105e-16
8782.27226 4.70824e-16
8785.27654 4.67373e-16
8788.28082 4.85360e-16
8791.28510 4.99727e-16
8794.28939 4.83053e-16
8797.29367 4.82202e-16
8800.29795 4.75350e-16
8803.30223 4.52783e-16
8806.30651 4.53079e-16
8809.31079 4.51748e-16
8812.31508 4.46204e-16
8815.31936 4.33697e-16
8818.32364 4.03231e-16
8821.32792 4.29961e-16
8824.33220 4.88880e-16
8827.33648 4.49519e-16
8830.34076 4.03371e-16
8833.34505 4.42729e-16
8836.34933 4.68403e-16
8839.35361 4.53158e-16
8842.35789 4.37760e-16
8845.36217 4.39152e-16
8848.36645 4.54366e-16
8851.37074 4.57981e-16
8854.37502 4.85695e-16
8857.37930 4.65770e-16
8860.38358 4.45944e-16
8863.38786 4.47621e-16
8866.39214 4.25911e-16
8869.39642 4.13437e-16
8872.40071 4.31138e-16
8875.40499 4.42150e-16
8878.40927 4.30173e-16
8881.41355 4.20750e-16
8884.41783 4.48550e-16
8887.42211 4.14430e-16
8890.42640 4.05828e-16
8893.43068 4.53687e-16
8896.43496 4.69085e-16
8899.43924 4.51556e-16
8902.44352 4.52284e-16
8905.44780 4.68093e-16
8908.45209 4.75203e-16
8911.45637 4.15037e-16
8914.46065 3.80513e-16
8917.46493 4.20740e-16
8920.46921 3.94219e-16
8923.47349 3.94521e-16
8926.47777 4.27966e-16
8929.48206 4.20043e-16
8932.48634 3.96864e-16
8935.49062 4.12102e-16
8938.49490 4.42722e-16
8941.49918 4.09393e-16
8944.50346 3.89296e-16
8947.50775 4.11343e-16
8950.51203 4.07113e-16
8953.51631 3.91056e-16
8956.52059 3.91868e-16
8959.52487 4.28987e-16
8962.52915 3.99572e-16
8965.53343 3.58567e-16
8968.53772 4.01857e-16
8971.54200 3.82132e-16
8974.54628 3.75608e-16
8977.55056 3.82267e-16
8980.55484 3.81978e-16
8983.55912 3.81869e-16
8986.56341 3.66554e-16
8989.56769 3.75889e-16
8992.57197 3.73623e-16
8995.57625 3.33486e-16
8998.58053 3.20459e-16
9001.58481 3.40005e-16
9004.58909 3.49508e-16
9007.59338 3.51929e-16
9010.59766 2.79637e-16
9013.60194 3.21600e-16
9016.60622 3.73042e-16
9019.61050 4.07776e-16
9022.61478 4.07847e-16
9025.61907 4.04219e-16
9028.62335 3.95226e-16
9031.62763 3.81542e-16
9034.63191 3.91866e-16
9037.63619 3.86861e-16
9040.64047 3.94283e-16
9043.64475 3.76480e-16
9046.64904 3.89328e-16
9049.65332 3.55066e-16
9052.65760 3.49159e-16
9055.66188 3.44615e-16
9058.66616 3.26712e-16
9061.67044 3.16147e-16
9064.67473 3.03840e-16
9067.67901 3.02474e-16
9070.68329 3.07240e-16
9073.68757 3.18114e-16
9076.69185 3.53480e-16
9079.69613 3.45990e-16
9082.70041 3.22245e-16
9085.70470 3.68883e-16
9088.70898 3.69424e-16
9091.71326 3.15603e-16
9094.71754 3.22237e-16
9097.72182 3.54429e-16
9100.72610 3.39330e-16
9103.73039 3.25464e-16
9106.73467 3.28177e-16
9107.08075 3.28177e-16
9108.74838 3.15046e-16
9110.40597 3.01914e-16
9112.06356 2.84189e-16
9113.72115 2.66471e-16
9115.38879 2.61235e-16
9117.04638 2.56005e-16
9118.70397 2.62094e-16
9120.36156 2.68180e-16
9122.02920 2.65048e-16
9123.68679 2.61919e-16
9125.34438 2.67949e-16
9127.01201 2.73978e-16
9128.66960 2.81858e-16
9130.32719 2.89735e-16
9131.98478 2.93763e-16
9133.65242 2.97790e-16
9135.31001 2.97251e-16
9136.96760 2.96715e-16
9138.63523 3.01839e-16
9140.29282 3.06957e-16
9141.95041 2.97132e-16
9143.60800 2.87313e-16
9145.27564 2.89512e-16
9146.93323 2.91708e-16
9148.59082 2.87516e-16
9150.24841 2.83321e-16
9151.91605 2.71637e-16
9153.57364 2.59966e-16
9155.23123 2.80844e-16
9156.89886 3.01712e-16
9158.55645 3.03981e-16
9160.21404 3.06245e-16
9161.87163 3.00821e-16
9163.53927 2.95391e-16
9165.19686 2.78811e-16
9166.85445 2.62243e-16
9168.51204 2.74060e-16
9170.17967 2.85874e-16
9171.83726 2.86345e-16
9173.49485 2.86816e-16
9175.15244 2.83615e-16
9176.82008 2.80421e-16
9178.47767 2.95266e-16
9180.13526 3.10107e-16
9181.80290 3.14457e-16
9183.46049 3.18803e-16
9185.11808 3.13114e-16
9186.77567 3.07428e-16
9188.44330 3.11062e-16
9190.10089 3.14692e-16
9191.75848 3.10314e-16
9193.42612 3.05933e-16
9195.08371 2.93388e-16
9196.74130 2.80856e-16
9198.39889 2.98944e-16
9200.06652 3.17024e-16
9201.72411 3.17694e-16
9203.38170 3.18357e-16
9205.03929 3.03463e-16
9206.70693 2.88575e-16
9208.36452 2.88182e-16
9210.02211 2.87795e-16
9211.68975 3.00371e-16
9213.34734 3.12939e-16
9215.00493 3.09480e-16
9216.66252 3.06020e-16
9218.33015 3.00362e-16
9219.98774 2.94703e-16
9221.64533 2.88710e-16
9223.31297 2.82721e-16
9224.97056 2.87289e-16
9226.62815 2.91850e-16
9228.28574 2.75480e-16
9229.95337 2.59127e-16
9231.61096 2.85604e-16
9233.26855 3.12073e-16
9234.92614 3.24879e-16
9236.59378 3.37672e-16
9238.25137 3.18359e-16
9239.90896 2.99050e-16
9241.56655 2.89098e-16
9243.23419 2.79158e-16
9244.89178 2.98737e-16
9246.54937 3.18302e-16
9248.21700 3.03700e-16
9249.87459 2.89105e-16
9251.53218 2.90149e-16
9253.18977 2.91191e-16
9254.85741 2.87884e-16
9256.51500 2.84580e-16
9258.17259 2.88554e-16
9259.84022 2.92529e-16
9261.49781 2.99794e-16
9263.15540 3.07055e-16
9264.81299 3.01714e-16
9266.48063 2.96367e-16
9268.13822 2.77600e-16
9269.79581 2.58849e-16
9271.45340 2.80367e-16
9273.12104 3.01872e-16
9274.77863 2.91644e-16
9276.43622 2.81425e-16
9278.10385 2.96910e-16
9279.76144 3.12381e-16
9281.41903 2.97209e-16
9283.07662 2.82044e-16
9284.74426 2.82445e-16
9286.40185 2.82848e-16
9288.05944 2.89992e-16
9289.71703 2.97123e-16
9291.38466 2.73599e-16
9293.04225 2.50088e-16
9294.69984 2.57096e-16
9296.36748 2.64105e-16
9298.02507 2.74317e-16
9299.68266 2.84524e-16
9301.34025 2.85062e-16
9303.00789 2.85599e-16
9304.66548 2.83943e-16
9306.32307 2.82283e-16
9307.99070 2.71019e-16
9309.64829 2.59758e-16
9311.30588 2.54468e-16
9312.96347 2.49183e-16
9314.63111 2.54200e-16
9316.28870 2.59208e-16
9317.94629 2.43213e-16
9319.60388 2.27217e-16
9321.27151 2.05775e-16
9322.92910 1.84353e-16
9324.58669 2.07222e-16
9326.25433 2.30082e-16
9327.91192 2.33235e-16
9329.56951 2.36391e-16
9331.22710 2.43813e-16
9332.89474 2.51227e-16
9334.55233 2.38699e-16
9336.20992 2.26179e-16
9337.87755 2.30571e-16
9339.53514 2.34962e-16
9341.19273 2.37451e-16
9342.85032 2.39946e-16
9344.51796 2.53257e-16
9346.17555 2.66564e-16
9347.83314 2.69749e-16
9349.49073 2.72918e-16
9351.15836 2.39283e-16
9352.81595 2.05660e-16
9354.47354 1.99741e-16
9356.13113 1.93837e-16
9357.79877 2.25524e-16
9359.45636 2.57196e-16
9361.11395 2.54230e-16
9362.78159 2.51272e-16
9364.43918 2.65319e-16
9366.09677 2.79359e-16
9367.75436 2.79347e-16
9369.42199 2.79333e-16
9371.07958 2.77223e-16
9372.73717 2.75098e-16
9374.40481 2.34641e-16
9376.06240 1.94204e-16
9377.71999 1.95248e-16
9379.37758 1.96298e-16
9381.04521 2.13164e-16
9382.70280 2.30022e-16
9384.36039 2.30849e-16
9386.01798 2.31675e-16
9387.68562 2.31816e-16
9389.34321 2.31955e-16
9391.00080 2.31042e-16
9392.66844 2.30135e-16
9394.32603 2.40767e-16
9395.98362 2.51392e-16
9397.64121 2.40498e-16
9399.30884 2.29610e-16
9400.96643 2.30267e-16
9402.62402 2.30925e-16
9404.28161 2.33989e-16
9405.94925 2.37049e-16
9407.60684 2.30910e-16
9409.26443 2.24779e-16
9410.93206 2.36959e-16
9412.58965 2.49134e-16
9414.24724 2.51426e-16
9415.90483 2.53714e-16
9417.57247 2.44074e-16
9419.23006 2.34438e-16
9420.88765 2.31666e-16
9422.54524 2.28891e-16
9424.21288 2.18925e-16
9425.87047 2.08975e-16
9427.52806 2.36040e-16
9429.19569 2.63087e-16
9430.85328 2.46676e-16
9432.51087 2.30269e-16
9434.16846 2.25038e-16
9435.83610 2.19797e-16
9437.49369 1.90958e-16
9439.15128 1.62128e-16
9440.80887 1.51465e-16
9442.47650 1.40827e-16
9444.13409 1.88140e-16
9445.79168 2.35431e-16
9447.45932 2.34568e-16
9449.11691 2.33706e-16
9450.77450 2.39552e-16
9452.43209 2.45388e-16
9454.09973 2.31255e-16
9455.75732 2.17121e-16
9457.41491 1.99777e-16
9459.07250 1.82444e-16
9460.74013 1.87122e-16
9462.39772 1.91806e-16
9464.05531 2.08398e-16
9465.72295 2.24973e-16
9467.38054 2.02793e-16
9469.03813 1.80631e-16
9470.69572 1.96777e-16
9472.36335 2.12923e-16
9474.02094 2.31124e-16
9475.67853 2.49321e-16
9477.34617 2.58665e-16
9479.00376 2.68000e-16
9480.66135 2.57886e-16
9482.31894 2.47776e-16
9483.98658 2.48013e-16
9485.64417 2.48243e-16
9487.30176 2.31475e-16
9488.95935 2.14713e-16
9490.62698 2.12958e-16
9492.28457 2.11202e-16
9493.94216 2.05736e-16
9495.60980 2.00284e-16
9497.26739 2.26953e-16
9498.92498 2.53605e-16
9500.58257 2.41827e-16
9502.25020 2.30056e-16
9503.90779 2.33552e-16
9505.56538 2.37050e-16
9507.23302 2.42565e-16
9508.89061 2.48070e-16
9510.54820 2.30381e-16
9512.20579 2.12697e-16
9513.87343 2.05083e-16
9515.53102 1.97469e-16
9517.18861 1.93645e-16
9518.84620 1.89834e-16
9520.51383 2.14071e-16
9522.17142 2.38290e-16
9523.82901 2.23564e-16
9525.49665 2.08848e-16
9527.15424 2.14399e-16
9528.81183 2.19944e-16
9530.46942 2.11623e-16
9532.13705 2.03311e-16
9533.79464 2.13035e-16
9535.45223 2.22755e-16
9537.10982 2.25028e-16
9538.77746 2.27302e-16
9540.43505 2.32703e-16
9542.09264 2.38101e-16
9543.76028 2.35556e-16
9545.41787 2.33003e-16
9547.07546 2.14322e-16
9548.73305 1.95645e-16
9550.40068 1.86112e-16
9552.05827 1.76604e-16
9553.71586 2.22707e-16
9555.37345 2.68780e-16
9557.04109 2.47746e-16
9558.69868 2.26719e-16
9560.35627 2.23708e-16
9562.02390 2.20703e-16
9563.68149 2.29682e-16
9565.33908 2.38652e-16
9566.99667 2.26262e-16
9568.66431 2.13878e-16
9570.32190 2.15665e-16
9571.97949 2.17454e-16
9573.64713 2.22964e-16
9575.30472 2.28463e-16
9576.96231 2.11145e-16
9578.61990 1.93835e-16
9580.28753 1.93808e-16
9581.94512 1.93784e-16
9583.60271 1.99939e-16
9585.27035 2.06089e-16
9586.92794 1.98384e-16
9588.58553 1.90680e-16
9590.24312 1.87901e-16
9591.91075 1.85131e-16
9593.56834 2.02584e-16
9595.22593 2.20026e-16
9596.88352 2.11925e-16
9598.55116 2.03835e-16
9600.20875 2.18168e-16
9601.86634 2.32494e-16
9603.52393 2.32118e-16
9605.19157 2.31745e-16
9606.84916 2.41664e-16
9608.50675 2.51568e-16
9610.17438 2.25465e-16
9611.83197 1.99373e-16
9613.48956 1.98397e-16
9615.14715 1.97421e-16
9616.81479 1.95279e-16
9618.47238 1.93139e-16
9620.12997 1.96720e-16
9621.79760 2.00301e-16
9623.45519 2.04870e-16
9625.11278 2.09440e-16
9626.77037 2.13799e-16
9628.43801 2.18158e-16
9630.09560 2.23899e-16
9631.75319 2.29636e-16
9633.41078 2.29063e-16
9635.07842 2.28495e-16
9636.73601 2.40689e-16
9638.39360 2.52870e-16
9640.06123 2.38121e-16
9641.71882 2.23380e-16
9643.37641 2.28484e-16
9645.03400 2.33576e-16
9646.70164 2.13148e-16
9648.35923 1.92736e-16
9650.01682 2.06053e-16
9651.67441 2.19363e-16
9653.34204 2.17559e-16
9654.99963 2.15748e-16
9656.65722 2.00746e-16
9658.31481 1.85754e-16
9659.98245 1.91980e-16
9661.64004 1.98213e-16
9663.29763 2.19401e-16
9664.96527 2.40568e-16
9666.62286 2.11862e-16
9668.28045 1.83176e-16
9669.93804 1.98239e-16
9671.60567 2.13303e-16
9673.26326 2.28709e-16
9674.92085 2.44110e-16
9676.58849 2.48121e-16
9678.24608 2.52125e-16
9679.90367 2.40962e-16
9681.56126 2.29816e-16
9683.22889 2.53793e-16
9684.88648 2.77752e-16
9686.54407 2.58998e-16
9688.20166 2.40240e-16
9689.86930 2.13931e-16
9691.52689 1.87646e-16
9693.18448 2.12729e-16
9694.85212 2.37803e-16
9696.50971 2.41058e-16
9698.16730 2.44321e-16
9699.82489 2.62032e-16
9701.49252 2.79711e-16
9703.15011 2.29104e-16
9704.80770 1.78524e-16
9706.46529 1.89587e-16
9708.13293 2.00647e-16
9709.79052 2.05290e-16
9711.44811 2.09921e-16
9713.11574 1.87768e-16
9714.77333 1.65634e-16
9716.43092 1.88162e-16
9718.08851 2.10690e-16
9719.75615 2.31192e-16
9721.41374 2.51676e-16
9723.07133 2.31872e-16
9724.73897 2.12080e-16
9726.39656 2.16296e-16
9728.05415 2.20514e-16
9729.71174 2.27055e-16
9731.37937 2.33586e-16
9733.03696 2.20477e-16
9734.69455 2.07377e-16
9736.35214 2.13081e-16
9738.01978 2.18786e-16
9739.67737 2.28258e-16
9741.33496 2.37726e-16
9743.00259 2.37568e-16
9744.66018 2.37405e-16
9746.31777 2.25208e-16
9747.97536 2.13012e-16
9749.64300 2.02621e-16
9751.30059 1.92245e-16
9752.95818 2.13459e-16
9754.62582 2.34655e-16
9756.28341 2.17665e-16
9757.94100 2.00686e-16
9759.59859 2.08677e-16
9761.26622 2.16666e-16
9762.92381 2.22578e-16
9764.58140 2.28487e-16
9766.23899 2.24711e-16
9767.90663 2.20942e-16
9769.56422 2.31054e-16
9771.22181 2.41157e-16
9772.87940 2.33140e-16
9774.54703 2.25121e-16
9776.20462 2.12712e-16
9777.86221 2.00303e-16
9779.52985 1.89838e-16
9781.18744 1.79387e-16
9782.84503 1.98152e-16
9784.50262 2.16908e-16
9786.17026 2.12547e-16
9787.82785 2.08213e-16
9789.48544 2.59763e-16
9791.15307 3.11276e-16
9792.81066 2.85256e-16
9794.46825 2.59243e-16
9796.12584 2.46028e-16
9797.79348 2.32823e-16
9799.45107 2.40722e-16
9801.10866 2.48597e-16
9802.76625 2.04038e-16
9804.43388 1.59494e-16
9806.09147 1.44874e-16
9807.74906 1.30277e-16
9809.41670 1.64341e-16
9811.07429 1.98393e-16
9812.73188 2.05475e-16
9814.38947 2.12556e-16
9816.05711 2.19809e-16
9817.71470 2.27056e-16
9819.37229 2.21470e-16
9821.03992 2.15879e-16
9822.69751 1.98814e-16
9824.35510 1.81768e-16
9826.01269 2.07013e-16
9827.68033 2.32241e-16
9829.33792 2.18330e-16
9830.99551 2.04429e-16
9832.65310 2.12150e-16
9834.32073 2.19864e-16
9835.97832 2.13621e-16
9837.63591 2.07374e-16
9839.30355 1.94145e-16
9840.96114 1.80935e-16
9842.61873 2.06040e-16
9844.27632 2.31147e-16
9845.94396 2.57538e-16
9847.60155 2.83911e-16
9849.25914 2.71780e-16
9850.91673 2.59648e-16
9852.58436 2.47345e-16
9854.24195 2.35042e-16
9855.89954 2.24143e-16
9857.56718 2.13248e-16
9859.22477 2.11447e-16
9860.88236 2.09647e-16
9862.53995 2.09115e-16
9864.20758 2.08601e-16
9865.86517 2.49520e-16
9867.52276 2.90416e-16
9869.18035 2.79866e-16
9870.84799 2.69327e-16
9872.50558 2.78937e-16
9874.16317 2.88554e-16
9875.83081 3.14786e-16
9877.48840 3.40985e-16
9879.14599 2.96459e-16
9880.80358 2.51935e-16
9882.47121 2.09195e-16
9884.12880 1.66492e-16
9885.78639 2.01092e-16
9887.44398 2.35685e-16
9889.11162 2.54119e-16
9890.76921 2.72546e-16
9892.42680 2.78164e-16
9894.09443 2.83784e-16
9895.75202 2.92334e-16
9897.40961 3.00882e-16
9899.06720 3.05438e-16
9900.73484 3.09968e-16
9902.39243 2.56039e-16
9904.05002 2.02134e-16
9905.70761 1.96921e-16
9907.37525 1.91706e-16
9909.03284 1.83545e-16
9910.69043 1.75389e-16
9912.35806 1.77500e-16
9914.01565 1.79624e-16
9915.67324 2.09895e-16
9917.33083 2.40146e-16
9918.99847 2.29679e-16
9920.65606 2.19220e-16
9922.31365 2.23952e-16
9923.98128 2.28684e-16
9925.63887 2.34703e-16
9927.29646 2.40726e-16
9928.95405 2.52169e-16
9930.62169 2.63582e-16
9932.27928 2.10885e-16
9933.93687 1.58206e-16
9935.59446 1.43391e-16
9937.26210 1.28608e-16
9938.91969 1.78336e-16
9940.57728 2.28049e-16
9942.23487 2.48424e-16
9943.90250 2.68789e-16
9945.56009 2.68935e-16
9947.21768 2.69065e-16
9948.88532 2.31867e-16
9950.54291 1.94707e-16
9952.20050 2.37618e-16
9953.85809 2.80508e-16
9955.52572 2.79845e-16
9957.18331 2.79168e-16
9958.84090 2.49163e-16
9960.50854 2.19167e-16
9962.16613 2.06084e-16
9963.82372 1.93005e-16
9965.48131 1.85520e-16
9967.14895 1.78031e-16
9968.80654 1.59970e-16
9970.46413 1.41914e-16
9972.12172 1.33287e-16
9973.78935 1.24664e-16
9975.44694 1.25826e-16
9977.10453 1.27005e-16
9978.77217 1.62442e-16
9980.42976 1.97860e-16
9982.08735 1.96043e-16
9983.74494 1.94234e-16
9985.41257 2.07609e-16
9987.07016 2.20987e-16
9988.72775 2.41873e-16
9990.39539 2.62746e-16
9992.05298 2.55817e-16
9993.71057 2.48877e-16
9995.36816 2.24015e-16
9997.03580 1.99144e-16
9998.69339 1.54055e-16
